BOXY.EXE: ISS Imagent and Oximeter Data Acquisition Program Version 0.80
Ascii Record File

#ACQ INFORMATION
2  Detector Channels 
16  External MUX Channels 
1  Auxiliary Channels 
5000  Waveform (CCF) Frequency (Hz)
1  Waveforms Skipped 
30  Waveforms Averaged 
1  Cycles Averaged 
16  Acquisitions per Waveform 
10.0806  Updata Rate (Hz) 

#FILE INFORMATION
TRUE -- External MUX Channel results are PARSED.
FALSE -- AC DC and Phase are NOT grouped.
TRUE -- Companion Program Settings File CREATED.
FALSE -- AC data not excluded
FALSE -- DC data not excluded
FALSE -- Phase data not excluded
FALSE -- Auxillary Chn. data not excluded
Tab delimiters

#CALIBRATION STATE
TRUE -- Waveform Calibration Values APPLIED.


#AUX CALIBRATION VALUES
Val Type	aux-1	

Term	1.0000e+00	
Factor	0.0000e+00	


#WF CALIBRATION VALUES
A = Detector Channel
Val Type	A-AC1	A-AC2	A-AC3	A-AC4	A-AC5	A-AC6	A-AC7	A-AC8	A-AC9	A-AC10	A-AC11	A-AC12	A-AC13	A-AC14	A-AC15	A-AC16	A-DC1	A-DC2	A-DC3	A-DC4	A-DC5	A-DC6	A-DC7	A-DC8	A-DC9	A-DC10	A-DC11	A-DC12	A-DC13	A-DC14	A-DC15	A-DC16	A-Ph1	A-Ph2	A-Ph3	A-Ph4	A-Ph5	A-Ph6	A-Ph7	A-Ph8	A-Ph9	A-Ph10	A-Ph11	A-Ph12	A-Ph13	A-Ph14	A-Ph15	A-Ph16	

Term	0.00000e+00	0.00000e+00	0.00000e+00	0.00000e+00	0.00000e+00	0.00000e+00	0.00000e+00	0.00000e+00	0.00000e+00	0.00000e+00	0.00000e+00	0.00000e+00	0.00000e+00	0.00000e+00	0.00000e+00	0.00000e+00	0.00000e+00	0.00000e+00	0.00000e+00	0.00000e+00	0.00000e+00	0.00000e+00	0.00000e+00	0.00000e+00	0.00000e+00	0.00000e+00	0.00000e+00	0.00000e+00	0.00000e+00	0.00000e+00	0.00000e+00	0.00000e+00	0.00000e+00	0.00000e+00	0.00000e+00	0.00000e+00	0.00000e+00	0.00000e+00	0.00000e+00	0.00000e+00	0.00000e+00	0.00000e+00	0.00000e+00	0.00000e+00	0.00000e+00	0.00000e+00	0.00000e+00	0.00000e+00	
Factor	1.00000e+00	1.00000e+00	1.00000e+00	1.00000e+00	1.00000e+00	1.00000e+00	1.00000e+00	1.00000e+00	1.00000e+00	1.00000e+00	1.00000e+00	1.00000e+00	1.00000e+00	1.00000e+00	1.00000e+00	1.00000e+00	1.00000e+00	1.00000e+00	1.00000e+00	1.00000e+00	1.00000e+00	1.00000e+00	1.00000e+00	1.00000e+00	1.00000e+00	1.00000e+00	1.00000e+00	1.00000e+00	1.00000e+00	1.00000e+00	1.00000e+00	1.00000e+00	X	X	X	X	X	X	X	X	X	X	X	X	X	X	X	X	

B = Detector Channel
Val Type	B-AC1	B-AC2	B-AC3	B-AC4	B-AC5	B-AC6	B-AC7	B-AC8	B-AC9	B-AC10	B-AC11	B-AC12	B-AC13	B-AC14	B-AC15	B-AC16	B-DC1	B-DC2	B-DC3	B-DC4	B-DC5	B-DC6	B-DC7	B-DC8	B-DC9	B-DC10	B-DC11	B-DC12	B-DC13	B-DC14	B-DC15	B-DC16	B-Ph1	B-Ph2	B-Ph3	B-Ph4	B-Ph5	B-Ph6	B-Ph7	B-Ph8	B-Ph9	B-Ph10	B-Ph11	B-Ph12	B-Ph13	B-Ph14	B-Ph15	B-Ph16	

Term	0.00000e+00	0.00000e+00	0.00000e+00	0.00000e+00	0.00000e+00	0.00000e+00	0.00000e+00	0.00000e+00	0.00000e+00	0.00000e+00	0.00000e+00	0.00000e+00	0.00000e+00	0.00000e+00	0.00000e+00	0.00000e+00	0.00000e+00	0.00000e+00	0.00000e+00	0.00000e+00	0.00000e+00	0.00000e+00	0.00000e+00	0.00000e+00	0.00000e+00	0.00000e+00	0.00000e+00	0.00000e+00	0.00000e+00	0.00000e+00	0.00000e+00	0.00000e+00	-1.55621e+02	-1.24518e+02	-1.31563e+02	-1.86928e+02	-8.61065e+01	-8.09538e+01	-1.58580e+02	-1.62015e+02	-9.05556e+01	-5.18402e+01	-1.71958e+02	-1.71373e+02	-1.84090e+02	-1.77418e+02	-5.60760e+01	-1.49892e+02	
Factor	2.32733e-05	1.42972e-04	3.50683e-05	3.05204e-01	1.19204e-06	1.37942e-06	1.67467e-01	5.21981e-02	1.31927e-06	1.23116e-06	8.50871e-02	2.82555e-02	4.13559e-02	9.14115e-03	1.20639e-06	1.30226e-02	1.85266e-06	1.96068e-06	5.46078e-07	1.54168e-01	2.14539e-08	2.15340e-08	8.10941e-02	2.69203e-02	2.14088e-08	2.15808e-08	4.22580e-02	1.40733e-02	2.10731e-02	4.71898e-03	2.14232e-08	6.49031e-03	X	X	X	X	X	X	X	X	X	X	X	X	X	X	X	X	



#DISTANCE SETTINGS
A = Detector Channel
A-1	A-2	A-3	A-4	A-5	A-6	A-7	A-8	A-9	A-10	A-11	A-12	A-13	A-14	A-15	A-16	

2.5000e+00	3.0000e+00	2.5000e+00	3.0000e+00	2.0000e+00	3.0000e+00	1.5000e+00	3.0000e+00	3.0000e+00	3.0000e+00	3.0000e+00	3.0000e+00	3.0000e+00	3.0000e+00	1.5000e+00	3.0000e+00	

B = Detector Channel
B-1	B-2	B-3	B-4	B-5	B-6	B-7	B-8	B-9	B-10	B-11	B-12	B-13	B-14	B-15	B-16	

1.0000e+01	1.0000e+01	1.0000e+01	1.4400e+00	1.0000e+01	1.0000e+01	1.5100e+00	1.9400e+00	1.0000e+01	1.0000e+01	1.9900e+00	2.4900e+00	2.4100e+00	2.9000e+00	1.0000e+01	2.9800e+00	




#DATA BEGINS
time	group	step	mark	flag	A-AC1	A-AC2	A-AC3	A-AC4	A-AC5	A-AC6	A-AC7	A-AC8	A-AC9	A-AC10	A-AC11	A-AC12	A-AC13	A-AC14	A-AC15	A-AC16	A-DC1	A-DC2	A-DC3	A-DC4	A-DC5	A-DC6	A-DC7	A-DC8	A-DC9	A-DC10	A-DC11	A-DC12	A-DC13	A-DC14	A-DC15	A-DC16	A-Ph1	A-Ph2	A-Ph3	A-Ph4	A-Ph5	A-Ph6	A-Ph7	A-Ph8	A-Ph9	A-Ph10	A-Ph11	A-Ph12	A-Ph13	A-Ph14	A-Ph15	A-Ph16	B-AC1	B-AC2	B-AC3	B-AC4	B-AC5	B-AC6	B-AC7	B-AC8	B-AC9	B-AC10	B-AC11	B-AC12	B-AC13	B-AC14	B-AC15	B-AC16	B-DC1	B-DC2	B-DC3	B-DC4	B-DC5	B-DC6	B-DC7	B-DC8	B-DC9	B-DC10	B-DC11	B-DC12	B-DC13	B-DC14	B-DC15	B-DC16	B-Ph1	B-Ph2	B-Ph3	B-Ph4	B-Ph5	B-Ph6	B-Ph7	B-Ph8	B-Ph9	B-Ph10	B-Ph11	B-Ph12	B-Ph13	B-Ph14	B-Ph15	B-Ph16	aux-1	digaux	

4383.601	1	1	0	256	0.21411	0.22218	0.20548	0.069527	0.132	0.16597	0.049143	0.022734	0.12545	0.11673	0.13455	0.098218	0.19446	0.36024	0.092178	0.39389	-2.4667	-2.8979	-2.3812	-3.1875	-2.6354	-2.5687	-3.1854	-2.5354	-2.7979	-3.0563	-2.4896	-2.9771	-2.6229	-2.5646	-3.0271	-2.6583	-48.773	110.531	-12.791	258.642	54.424	85.526	46.797	219.221	248.778	26.927	-45.940	202.084	175.163	132.878	-71.915	258.308	0.00013183	0.00015748	0.00026643	1159.9	4.8296e-06	4.0614e-06	967.46	371.07	2.767e-06	4.7786e-06	342.85	114.04	118.02	53.979	9.09e-06	53.908	0.0003528	0.00034256	0.0001003	1014.1	3.6275e-06	3.95e-06	855.08	326.88	3.7856e-06	3.5004e-06	302.02	101.57	104.17	47.74	3.6381e-06	47.872	163.156	38.103	-65.217	-72.864	99.401	90.469	-73.970	-68.050	10.505	76.283	-70.065	-65.413	-63.643	-58.180	5.628	-61.551	-8191	255	
4383.697	1	1	0	0	0.040208	0.23034	0.2311	0.38848	0.20425	0.23516	0.48062	0.15135	0.065983	0.15941	0.22601	0.28717	0.16057	0.37297	0.084886	0.19689	-2.2708	-2.85	-2.4729	-3.0417	-2.6604	-2.5354	-3.2542	-2.5396	-2.625	-2.9625	-2.4646	-3.0625	-2.6063	-2.5479	-3.0271	-2.5667	10.670	-48.203	11.221	223.554	88.742	214.330	189.223	215.679	-25.006	268.618	205.772	184.125	-25.593	225.771	45.861	264.815	0.00015497	0.00063119	0.00023826	1155.3	4.0444e-06	2.6519e-06	971.38	370.66	4.2367e-06	4.9836e-06	343.08	114.37	118	53.991	3.3297e-06	54.21	0.0003461	0.00032552	9.8043e-05	1010.8	3.5377e-06	3.8192e-06	857.08	325.69	3.7352e-06	3.5246e-06	301.88	101.45	103.56	47.594	3.6702e-06	47.654	134.488	15.583	31.342	-72.951	23.996	46.299	-73.815	-68.249	95.378	52.556	-70.326	-65.148	-63.537	-58.105	81.198	-61.830	-8191	255	
4383.818	1	1	0	0	0.020192	0.028516	0.24379	0.34332	0.057241	0.17495	0.051824	0.19754	0.22151	0.13436	0.23772	0.27176	0.16236	0.35433	0.1458	0.14366	-2.2271	-3.0875	-2.2812	-3.05	-2.925	-2.2208	-3.0896	-2.5187	-2.6292	-3.0958	-2.3979	-2.9604	-2.875	-2.5625	-3.2396	-2.6771	-21.270	251.943	157.748	240.958	-36.885	-74.653	205.258	249.584	16.871	-73.889	223.131	213.906	197.296	246.819	-5.570	36.387	0.00018415	0.00045348	0.00016464	1143.3	8.922e-06	2.2743e-06	959.41	367.67	5.5246e-06	3.3097e-06	340.83	114.46	117.18	53.685	7.4212e-06	53.977	0.00035449	0.00033	0.00010035	1006.4	3.6841e-06	4.0316e-06	849.53	324.35	4.0157e-06	3.6535e-06	300.43	101.38	103.31	47.469	3.7323e-06	47.866	142.069	-19.961	38.616	-72.868	-4.497	-46.156	-73.830	-67.953	126.648	164.256	-70.318	-65.743	-63.550	-57.903	64.433	-61.624	-8191	255	
4383.912	1	1	0	0	0.14701	0.1665	0.14439	0.23144	0.11113	0.2595	0.046086	0.36827	0.31257	0.22205	0.27719	0.10122	0.068207	0.40517	0.05633	0.21487	-2.1833	-3.0833	-2.475	-2.8187	-3.1604	-2.3271	-3.2375	-2.7458	-2.5375	-3.2229	-2.5292	-2.8458	-3.0417	-2.5729	-3.1021	-2.9042	-39.038	-19.496	52.848	271.177	270.151	-20.215	144.665	206.969	221.378	-55.831	150.124	-11.230	104.650	229.301	112.403	-23.562	6.3995e-05	0.00047225	1.1801e-05	1143.1	4.7823e-06	5.9723e-06	966.27	368.98	2.1653e-06	2.3926e-06	342.52	113.43	117.47	53.435	3.565e-06	53.724	0.00035826	0.0003327	9.4859e-05	1005.9	3.659e-06	3.9925e-06	852.93	324.76	3.9776e-06	3.6812e-06	301.12	101.57	103.66	47.535	3.8005e-06	47.756	127.155	-50.150	238.334	-72.815	36.324	84.741	-73.975	-67.965	-20.476	125.466	-70.189	-65.685	-62.939	-58.019	81.320	-61.486	-8191	255	
4384.008	1	1	0	0	0.17292	0.060341	0.10391	0.16573	0.26854	0.22959	0.081061	0.40926	0.19384	0.14243	0.10402	0.083349	0.23614	0.066185	0.15493	0.078704	-2.0208	-3.1875	-2.5021	-2.7292	-2.9833	-2.3812	-3.0792	-2.9062	-2.4229	-3.0625	-2.6708	-2.8937	-3.0104	-2.5354	-2.9458	-3.0271	21.510	-38.157	216.412	-14.220	-15.768	-10.040	37.589	213.923	70.895	127.054	187.855	176.865	-49.413	-69.797	55.649	-64.193	0.0001538	0.00052638	0.00022978	1146.1	3.1092e-06	7.1336e-06	964.1	366.98	4.2036e-06	1.3957e-06	340.41	113.97	115.89	53.504	6.5173e-06	53.318	0.00035831	0.00033787	9.5524e-05	1001.7	3.5389e-06	3.8423e-06	850.33	323.76	3.9609e-06	3.6191e-06	299.76	101.26	103.15	47.19	3.7614e-06	47.174	177.384	24.074	61.776	-72.813	158.793	64.964	-73.768	-67.885	-43.061	171.655	-69.904	-65.415	-63.107	-58.048	44.970	-61.760	-8191	255	
4384.080	1	1	0	0	0.10143	0.3717	0.13752	0.30297	0.074215	0.11266	0.25624	0.30534	0.19517	0.26291	0.25154	0.12537	0.26305	0.18789	0.062546	0.18974	-1.9188	-3.0104	-2.7167	-2.6125	-3.0292	-2.3021	-3.0229	-3.0104	-2.4042	-3.0104	-2.7854	-2.7146	-2.9938	-2.6708	-2.8792	-3.0438	-52.778	38.690	138.889	132.882	128.074	40.111	-76.371	234.396	-74.300	215.399	257.835	208.438	-25.828	244.605	23.963	99.253	0.00013691	0.00025904	0.00020322	1139.7	1.3417e-06	6.7034e-06	959.68	367.15	3.573e-06	3.5398e-06	339.74	112.63	116.04	53.4	3.2312e-06	53.591	0.0003629	0.00033533	9.556e-05	1004.5	3.6488e-06	3.9299e-06	849.29	324.72	4.0366e-06	3.7381e-06	299.11	100.52	103.05	47.118	3.8046e-06	47.349	150.833	-39.554	75.388	-73.287	161.324	86.581	-73.585	-68.093	84.999	6.143	-70.138	-65.783	-63.623	-58.131	-73.132	-61.467	-8191	255	
4384.201	1	1	0	0	0.22468	0.14458	0.12023	0.20975	0.080085	0.21486	0.22566	0.27402	0.23084	0.13862	0.025766	0.088796	0.26478	0.24538	0.11208	0.29939	-1.9833	-3.0958	-2.6688	-2.4875	-3.0333	-2.5812	-2.825	-3.3042	-2.4313	-3.0292	-2.8292	-2.4146	-3.1042	-2.7396	-2.6958	-3.2229	130.303	212.573	236.857	-55.076	99.965	191.349	-69.045	-65.602	192.962	81.275	-43.823	257.699	262.107	246.861	-37.216	-47.806	0.00021163	0.00043663	0.00023674	1151.1	6.3071e-06	1.4178e-06	967.59	370.67	2.1518e-06	4.0552e-06	345.51	115.41	119.86	54.874	3.299e-06	54.666	0.0003696	0.00034684	9.5409e-05	1009.4	3.8548e-06	4.0428e-06	855.42	328.76	4.3457e-06	4.1595e-06	303.96	102.99	106.04	48.352	4.3407e-06	48.673	173.639	-44.640	-16.763	-72.972	45.392	100.586	-73.569	-67.898	32.400	21.214	-70.252	-65.992	-63.496	-58.054	58.288	-61.452	-8191	255	
4384.297	1	1	0	0	0.15365	0.12749	0.14844	0.10348	0.028167	0.11224	0.17259	0.36073	0.28808	0.42294	0.33657	0.18979	0.059141	0.32114	0.067078	0.038351	-1.9667	-2.8854	-2.8458	-2.4396	-3.0687	-2.6063	-2.6167	-3.2	-2.1958	-3.0104	-2.8875	-2.4854	-3.0146	-2.6521	-2.5917	-3.1479	208.856	4.951	45.493	-10.594	-50.800	272.113	229.877	185.142	90.248	-34.012	196.576	-19.843	-83.494	134.019	12.556	205.801	0.00010153	0.00091427	0.00011155	1157.3	7.2071e-07	4.7141e-06	977.27	378.64	9.0211e-06	1.36e-05	348.17	116.19	121.39	54.879	5.2307e-06	55.268	0.0004036	0.00038548	0.00010411	1021.6	4.2993e-06	4.3514e-06	868.72	333.69	4.5261e-06	4.4957e-06	308.01	104.29	107.29	48.774	4.7066e-06	49.117	136.719	6.297	115.337	-73.175	149.228	55.720	-73.962	-67.858	113.926	64.546	-70.339	-65.378	-63.287	-58.030	141.023	-61.313	-8191	255	
4384.393	1	1	0	0	0.074233	0.10751	0.13809	0.30455	0.0070807	0.077173	0.22543	0.19812	0.16963	0.10949	0.2021	0.05223	0.27213	0.29628	0.17182	0.14189	-2.0458	-2.8063	-2.9708	-2.4833	-3.0938	-2.8125	-2.5583	-3.2583	-2.4021	-2.8417	-3.1146	-2.3458	-3.0396	-2.8812	-2.4292	-3.2333	129.831	106.793	-23.629	252.365	-70.770	117.525	142.443	215.141	18.904	-82.453	169.550	221.126	-78.609	-69.310	-13.245	260.498	0.00018221	0.00099867	0.00014071	1169.1	3.5372e-06	4.3203e-06	974.97	375.68	1.149e-05	2.9874e-06	345.39	114.71	119.88	54.464	9.1552e-07	54.773	0.00041879	0.00041954	0.00011055	1029.4	4.3806e-06	4.3325e-06	864.63	331.4	4.3196e-06	4.3983e-06	305.63	103.22	106.08	48.031	4.673e-06	48.487	115.539	2.699	-53.859	-72.838	86.343	7.165	-74.015	-67.961	-79.588	209.848	-70.257	-65.458	-63.406	-58.141	-59.249	-61.409	-8191	255	
4384.489	1	1	0	0	0.2385	0.21198	0.10148	0.24091	0.12182	0.061636	0.077271	0.2215	0.22539	0.091135	0.13921	0.3037	0.10418	0.21456	0.19223	0.21958	-2.0396	-2.75	-3.0021	-2.2958	-2.8979	-2.7604	-2.4521	-3.3125	-2.5208	-2.6021	-3.2208	-2.4146	-3.0292	-3.0021	-2.4542	-3.1521	246.229	50.733	167.097	4.683	82.986	-84.049	139.827	202.651	134.149	61.141	169.935	244.920	219.836	82.494	180.788	150.189	0.00030773	0.001133	8.4591e-05	1168.5	6.6401e-06	5.1104e-06	978.75	375.48	7.6751e-06	6.718e-06	343.06	115.55	120.59	54.197	6.7333e-06	54.898	0.0003991	0.00041714	0.00010785	1026.8	4.442e-06	4.239e-06	865.07	331.6	4.3398e-06	4.5757e-06	304.93	103.15	106.4	48.23	4.6846e-06	48.638	186.251	36.726	18.639	-72.984	-29.797	26.872	-73.743	-67.788	17.813	7.168	-70.455	-65.726	-63.190	-58.080	137.543	-61.317	-8191	255	
4384.610	1	1	0	0	0.043266	0.11694	0.27265	0.25183	0.2779	0.27186	0.14835	0.074363	0.1277	0.26881	0.14176	0.031664	0.0070529	0.27266	0.055594	0.15535	-2.2021	-2.55	-3.1271	-2.45	-3.025	-2.775	-2.3979	-3.0375	-2.5354	-2.4437	-3.1958	-2.4	-2.9	-3.0312	-2.3458	-3.2271	12.224	164.957	31.665	229.735	158.977	166.842	214.983	218.901	-37.181	242.859	258.097	8.530	212.110	-47.636	101.978	187.569	0.00021668	0.00074661	6.5999e-05	1166.3	2.0711e-06	5.7142e-06	969.17	375.73	4.8821e-06	6.7085e-06	345.44	115.95	120.29	54.861	3.7844e-06	55.275	0.00040028	0.00041992	0.00010911	1024.9	4.5249e-06	4.3787e-06	862.72	332.2	4.5058e-06	4.7259e-06	305.95	103.93	106.72	48.552	4.5465e-06	49.25	143.794	73.585	-29.675	-72.835	-56.842	-37.873	-73.690	-68.094	-31.789	66.583	-70.006	-65.741	-63.518	-58.032	49.416	-61.026	-8191	255	
4384.706	1	1	0	0	0.11192	0.027997	0.22955	0.15062	0.18376	0.13044	0.19829	0.19184	0.19604	0.15983	0.04161	0.28551	0.077442	0.37041	0.17235	0.12656	-2.1583	-2.6042	-3.075	-2.5187	-2.9167	-3.0333	-2.5042	-3.0625	-2.5687	-2.5333	-3.5125	-2.3958	-2.8396	-3.1146	-2.3208	-2.9688	49.620	11.970	255.079	245.151	-1.783	113.179	254.709	-75.228	-34.059	204.481	220.548	172.678	34.751	243.776	37.806	149.509	6.8927e-05	0.00026615	0.00020888	1174	6.5737e-06	4.3398e-06	974.2	381.28	3.4797e-06	5.0013e-06	351.95	116.52	122	54.859	8.3768e-06	55.098	0.00038967	0.0004377	0.00011084	1031.3	4.7758e-06	4.6015e-06	868.38	338.02	4.852e-06	5.3125e-06	310.61	104.65	109.36	48.835	5.2019e-06	48.993	151.767	33.849	53.439	-73.012	-15.508	-16.550	-73.513	-67.899	5.942	127.471	-70.287	-65.415	-63.139	-58.001	111.345	-61.885	-8191	255	
4384.778	1	1	0	0	0.22354	0.25515	0.10529	0.084577	0.20803	0.1304	0.22541	0.34246	0.20876	0.056636	0.17908	0.041503	0.19368	0.036681	0.27494	0.16287	-2.3167	-2.3792	-3.1604	-2.6958	-2.5958	-3.1417	-2.4896	-3.175	-2.75	-2.3688	-3.1375	-2.625	-2.7604	-3.0167	-2.2875	-3.15	-77.450	176.266	-36.013	70.762	264.987	-56.904	198.813	198.211	-30.118	245.310	165.474	-78.286	-39.149	190.270	235.222	251.057	0.00021258	0.00078211	6.718e-05	1166.3	3.6968e-06	3.638e-06	964.42	385.52	2.1488e-06	5.5196e-07	348.37	116.45	122.21	55.002	1.2972e-06	54.281	0.0004273	0.00045416	0.00012062	1033.1	4.9913e-06	4.7613e-06	855.99	340.24	4.7064e-06	5.1085e-06	308.77	103.89	109.2	48.742	5.1404e-06	48.35	131.335	20.042	174.789	-73.243	57.548	95.398	-73.882	-67.733	163.413	148.441	-70.002	-65.577	-63.873	-57.903	54.080	-60.831	-8191	255	
4384.898	1	1	0	0	0.28802	0.19133	0.052425	0.15947	0.14446	0.28277	0.15968	0.19283	0.11339	0.2165	0.16319	0.076576	0.092448	0.04876	0.12467	0.14179	-2.5521	-2.3167	-3.1979	-2.6688	-2.4229	-3.3229	-2.5542	-2.9875	-3.0083	-2.1958	-3.2021	-2.5583	-2.7417	-3.2417	-2.3479	-2.8604	162.941	-73.132	142.782	215.794	256.458	119.533	189.992	189.479	20.806	174.527	204.313	211.574	-41.630	260.313	25.443	64.374	0.00010602	0.00027475	0.00013398	1163.2	5.0227e-06	8.2417e-06	950.42	380.83	4.5677e-06	6.3677e-06	343.43	115.95	122.13	54.827	3.0403e-06	54.911	0.00043725	0.0004676	0.00012244	1025.5	5.0417e-06	4.5874e-06	842.59	337.49	4.6583e-06	4.9822e-06	306.29	103.21	108.86	48.817	4.9897e-06	48.673	145.904	-55.618	16.108	-72.906	-66.222	40.408	-74.008	-67.880	132.502	-41.618	-70.263	-65.632	-63.071	-57.930	157.285	-61.465	-8191	255	
4384.993	1	1	0	0	0.079391	0.090214	0.099292	0.13212	0.23105	0.069045	0.16946	0.12549	0.095373	0.035284	0.15072	0.27656	0.20292	0.059904	0.015172	0.158	-2.6021	-2.3479	-3.0583	-2.8542	-2.3937	-3.0812	-2.5271	-2.8333	-3.1458	-2.4313	-3.0563	-2.7021	-2.3688	-3.2438	-2.5083	-2.8125	-69.008	130.262	215.592	214.835	-58.570	187.635	221.430	236.544	149.169	-74.752	-42.079	257.096	18.587	252.048	151.861	247.893	0.00023391	0.00028671	7.1053e-05	1163.2	5.213e-06	1.243e-05	955.46	380.57	8.6544e-06	9.9544e-07	344.88	115.82	122.15	55.102	2.9886e-06	55.393	0.0004493	0.00048	0.0001271	1026.1	5.3137e-06	4.9396e-06	848.99	337.69	4.7948e-06	5.0795e-06	307.2	104.2	108.41	48.894	4.8883e-06	49.36	165.134	-81.713	-0.299	-73.314	32.287	72.188	-74.207	-67.953	101.869	154.076	-70.747	-65.949	-63.495	-58.550	-8.813	-61.497	-8191	255	
4385.091	1	1	0	0	0.10539	0.26991	0.049848	0.19306	0.28584	0.071414	0.068347	0.096563	0.093889	0.17458	0.054231	0.1729	0.074446	0.081656	0.069438	0.049207	-2.6396	-2.3854	-3.0021	-3.0104	-2.325	-3.0771	-2.8229	-2.775	-3.0604	-2.4271	-3.0833	-2.8458	-2.3312	-3.2229	-2.4792	-2.6458	232.448	211.396	-70.090	272.197	125.447	4.819	79.292	192.472	62.133	146.229	270.112	197.170	107.749	14.187	128.065	156.617	7.6314e-05	0.00074155	0.00013506	1172.6	2.7376e-06	7.5844e-06	960.69	381.99	1.6076e-06	1.2309e-05	349.6	117.03	122.89	55.558	7.9417e-06	55.924	0.00042292	0.00046065	0.00012747	1029.6	5.3174e-06	4.8928e-06	853.65	339.22	4.8672e-06	5.1192e-06	310.01	105.19	109.57	49.435	4.542e-06	49.822	142.213	41.977	69.585	-73.189	32.182	48.800	-74.119	-68.320	243.865	93.237	-70.450	-66.097	-63.535	-58.109	145.920	-61.179	-8191	255	
4385.209	1	1	0	0	0.23274	0.14149	0.20793	0.16702	0.12414	0.026794	0.10189	0.32877	0.16862	0.19224	0.19276	0.21545	0.092694	0.073634	0.0857	0.075014	-2.7146	-2.5187	-2.8312	-2.9729	-2.5333	-3.1479	-2.7625	-2.5833	-3.1375	-2.3708	-3.0229	-3.1437	-2.3958	-3.1083	-2.7604	-2.7229	258.326	89.419	180.583	-65.379	101.892	231.389	93.283	227.434	94.732	245.377	170.145	-83.046	46.365	194.749	-46.898	254.512	0.00026755	4.7843e-05	0.0001027	1164.6	1.9072e-06	2.9247e-06	972.37	377.71	5.3503e-06	6.4815e-06	347.91	115.77	120.57	54.341	3.2941e-06	55.357	0.00039007	0.00041437	0.00011298	1023.6	4.6487e-06	4.3034e-06	860.23	335.31	4.3759e-06	4.476e-06	307.74	103.54	107.36	48.27	4.3474e-06	49.003	186.411	23.728	-31.720	-73.187	65.877	-56.320	-74.413	-68.068	2.682	82.694	-70.312	-66.050	-63.600	-58.106	11.168	-61.202	-8191	255	
4385.306	1	1	0	0	0.11175	0.11712	0.15517	0.19944	0.17038	0.088974	0.29538	0.19889	0.16943	0.085832	0.50876	0.28191	0.028759	0.059175	0.24999	0.06834	-2.8083	-2.4854	-2.6542	-3.1792	-2.3458	-3.0542	-3.1042	-2.3438	-3.0146	-2.4271	-2.7542	-3.0854	-2.3833	-3.1229	-2.8042	-2.375	-60.620	127.771	-84.771	176.971	-64.958	89.189	177.290	203.413	65.272	98.520	262.904	149.324	33.217	-52.667	14.020	-75.183	0.00015209	0.00020627	0.00020777	1166.9	6.8027e-06	1.4327e-06	970.7	378.89	5.2575e-07	5.4115e-06	348.21	115.87	120.63	54.218	6.161e-06	54.738	0.00038884	0.00040924	0.00011613	1025.4	4.6851e-06	4.5859e-06	857.99	335.26	4.5994e-06	4.7382e-06	308.54	103.72	107.89	48.313	4.6067e-06	48.978	153.747	-35.308	20.478	-72.868	-2.403	44.812	-74.105	-68.412	13.468	82.580	-70.387	-65.968	-63.605	-58.270	7.503	-61.278	-8191	255	
4385.377	1	1	0	0	0.057559	0.20025	0.19758	0.29491	0.10387	0.054038	0.19016	0.24477	0.076862	0.20542	0.09609	0.1895	0.055031	0.19462	0.20432	0.22475	-2.7542	-2.6229	-2.7771	-3.0354	-2.2625	-2.9396	-3.0062	-2.4688	-3.0854	-2.3479	-2.5896	-3.0563	-2.4646	-2.8625	-2.8833	-2.3937	137.248	37.212	52.752	216.382	121.261	248.446	32.864	243.022	114.837	-25.760	155.905	272.886	267.419	106.833	204.479	-22.402	0.00020099	0.00099022	0.00019222	1164.7	4.7589e-06	7.7087e-06	976.77	383.21	9.1299e-06	4.6979e-06	349.88	117.15	121.32	55.267	6.9263e-06	55.434	0.0004306	0.00043166	0.00012794	1028.5	5.0678e-06	5.0415e-06	864.12	337.71	4.988e-06	4.9419e-06	311.34	104.88	108.99	49.071	5.1009e-06	49.641	134.135	-60.390	-60.229	-73.192	-9.945	76.870	-73.964	-68.215	57.423	6.266	-70.098	-65.808	-63.479	-58.172	35.798	-61.565	-8191	255	
4385.498	1	1	0	0	0.4476	0.21585	0.30026	0.25202	0.13368	0.077536	0.092898	0.23771	0.1923	0.19136	0.29739	0.31335	0.15165	0.32321	0.10732	0.095049	-2.6042	-2.5333	-2.3937	-3.2458	-2.3688	-2.8333	-3.0396	-2.55	-2.9271	-2.6604	-2.5271	-3.1979	-2.6437	-2.8167	-3.1479	-2.3688	62.356	-18.895	-78.238	166.078	252.311	-20.861	204.143	-75.662	-64.305	-36.548	242.173	250.036	-85.025	225.813	111.708	46.762	0.00019495	0.00042841	8.4688e-05	1168.3	6.3624e-06	3.6957e-06	970.02	382.11	3.0306e-06	6.5196e-06	349.02	116.96	122.19	54.804	4.0781e-06	54.89	0.00047012	0.00046428	0.00013965	1035.9	5.1822e-06	5.2833e-06	863.02	338.13	5.0215e-06	5.0125e-06	311.37	105.16	108.82	48.77	4.8396e-06	49.065	165.079	-59.562	-71.398	-72.959	172.086	118.724	-74.289	-68.151	-62.779	102.754	-70.365	-65.873	-63.769	-58.564	26.568	-61.622	-8191	255	
4385.594	1	1	0	0	0.10132	0.17812	0.12236	0.128	0.097306	0.05508	0.27692	0.34711	0.16504	0.19911	0.089314	0.15546	0.10149	0.23678	0.28709	0.18287	-2.7792	-2.5896	-2.3542	-3.1375	-2.4062	-2.6083	-2.9938	-2.4688	-2.9083	-2.8063	-2.475	-3.3479	-2.5958	-2.5187	-3.1875	-2.3875	28.546	140.190	78.612	138.375	-78.526	88.993	269.652	196.613	138.626	194.080	229.824	266.975	-13.295	195.036	212.110	117.741	0.00023256	0.00069179	0.0002521	1165.5	2.9881e-06	1.4262e-06	964.7	378.82	5.9776e-06	3.0361e-06	344.91	115.73	119.85	54.121	9.9164e-06	54.356	0.00046078	0.00045863	0.00013941	1030.4	5.1887e-06	5.5294e-06	857.2	336.33	5.3015e-06	5.0184e-06	308.22	103.84	107.59	48.316	5.0008e-06	48.507	117.151	-81.437	-42.333	-73.066	141.470	55.731	-74.233	-68.570	77.227	6.254	-70.322	-65.357	-63.887	-58.016	77.566	-61.353	-8191	255	
4385.690	1	1	0	0	0.060254	0.1007	0.20761	0.12307	0.097945	0.036075	0.31802	0.26862	0.041471	0.060733	0.20369	0.075212	0.39297	0.08692	0.053346	0.1407	-2.5062	-2.8729	-2.2729	-3.2771	-2.6312	-2.5563	-3.1021	-2.4917	-2.8125	-3.0062	-2.5542	-3.1437	-2.6167	-2.45	-3.0917	-2.575	231.639	207.075	-39.254	96.749	167.934	-4.812	151.507	25.079	-2.630	88.125	-65.428	177.004	-77.476	-8.690	183.728	244.915	0.0002377	0.00066919	3.6166e-05	1166.1	7.6543e-06	8.7857e-07	957.4	377.98	5.7102e-06	4.3031e-06	342.08	116.27	118.92	54.04	7.311e-07	54.644	0.0004677	0.00044829	0.00013612	1027.2	5.0857e-06	5.3746e-06	851.17	334.31	5.1969e-06	4.8834e-06	305.66	103.59	106.83	48.034	4.9679e-06	48.66	157.678	5.756	73.960	-72.713	59.874	101.673	-73.867	-68.359	22.391	182.431	-70.245	-65.490	-63.622	-58.605	222.602	-62.052	-8191	255	
4385.786	1	1	0	0	0.20118	0.11811	0.17264	0.17094	0.043793	0.21321	0.16241	0.13279	0.062563	0.081297	0.19489	0.16679	0.15768	0.25514	0.15732	0.16608	-2.3021	-2.8896	-2.2854	-3.1188	-2.7271	-2.35	-3.2	-2.6208	-2.6646	-2.9771	-2.2896	-3.0104	-2.7646	-2.4188	-2.9375	-2.5958	52.843	150.006	-16.796	249.117	273.964	-66.772	192.142	-39.497	-75.405	130.290	241.933	-60.411	169.928	170.243	273.462	223.146	0.00015944	0.0011081	0.00012465	1148.1	1.5838e-06	6.6874e-06	959.86	376.52	1.0709e-05	6.2403e-06	342.85	114.54	119.89	53.932	6.7473e-06	54.493	0.00046173	0.00044	0.00013309	1019.2	4.9635e-06	5.2983e-06	850.6	333.13	5.2903e-06	5.0144e-06	305.86	103.3	106.72	48.004	5.1157e-06	48.706	138.156	-3.756	-80.067	-73.145	21.766	36.637	-73.903	-67.867	-26.362	51.002	-70.321	-66.073	-63.631	-58.647	112.101	-61.810	-8191	255	
4385.905	1	1	0	0	0.21095	0.1979	0.42653	0.15507	0.24236	0.16663	0.22477	0.31667	0.036454	0.20078	0.16313	0.20507	0.36863	0.19951	0.16138	0.41218	-2.3333	-3.0271	-2.4333	-2.9188	-2.6188	-2.2542	-3.0458	-2.5458	-2.4708	-3.1688	-2.4479	-2.9771	-3.0333	-2.3375	-2.9167	-2.6917	190.125	-79.319	171.427	170.575	189.166	201.863	-10.660	136.538	272.877	150.937	-75.178	243.208	-70.818	179.725	231.067	64.855	0.00015107	0.00068118	1.2202e-05	1154.3	4.2708e-06	2.1449e-06	958.89	375.29	2.6685e-06	2.4651e-06	344.17	114.95	118.52	53.238	3.8269e-06	53.981	0.00047126	0.00045132	0.00013201	1024.1	4.871e-06	5.344e-06	852.83	332.18	5.2887e-06	4.9403e-06	305.92	103.65	105.9	47.623	5.0239e-06	48.257	180.027	5.625	242.605	-73.312	83.063	-5.844	-74.022	-68.343	224.795	123.826	-70.286	-65.663	-63.827	-58.599	-65.253	-61.602	-8191	255	
4386.001	1	1	0	0	0.20976	0.17172	0.12464	0.32965	0.093273	0.19846	0.081767	0.23582	0.28916	0.16645	0.15636	0.19726	0.17702	0.20057	0.15753	0.090788	-2.075	-3.2167	-2.2354	-2.9417	-2.9167	-2.4	-3.125	-2.7062	-2.4104	-3.0396	-2.5271	-2.8125	-3.0563	-2.525	-3.0917	-2.775	248.583	55.827	21.107	-64.799	-52.791	259.113	12.670	224.810	13.957	152.037	259.631	273.287	181.276	203.027	49.215	16.253	0.00014494	0.00027576	0.00023355	1159.3	5.5152e-06	5.7108e-06	957.41	375.54	5.0057e-06	4.0217e-06	341.98	114.62	117.96	53.369	4.4822e-06	53.632	0.00047827	0.0004514	0.00013284	1026.5	4.8425e-06	5.2616e-06	851.74	331.93	5.1825e-06	4.8418e-06	304.01	102.91	105.87	47.391	5.0009e-06	47.951	181.636	113.510	21.992	-73.352	56.483	-20.603	-74.544	-68.713	-73.133	143.994	-70.436	-65.777	-63.536	-58.513	264.667	-61.525	-8191	255	
4386.073	1	1	0	0	0.20963	0.13983	0.2403	0.14069	0.19988	0.088285	0.17563	0.14138	0.032907	0.10368	0.28723	0.034833	0.082754	0.15265	0.098269	0.29541	-2.0854	-3.0521	-2.4708	-2.8333	-2.7958	-2.4167	-3.1104	-2.8187	-2.4854	-3.0792	-2.5667	-2.7125	-3.0458	-2.3063	-2.7979	-2.8917	167.896	176.516	-44.091	177.920	198.425	16.204	236.866	273.134	131.546	252.603	254.649	103.237	267.386	255.279	250.533	208.898	0.00023146	0.00032465	0.00019178	1155.7	3.8016e-06	5.4673e-06	954.28	373.98	6.8227e-06	8.9481e-06	343.24	115.06	119.28	53.646	6.3554e-07	54.226	0.00047683	0.00044512	0.00012559	1021.6	4.8632e-06	5.2038e-06	847.44	330.5	5.2804e-06	5.0291e-06	304.83	103.27	105.9	47.71	5.3007e-06	48.514	171.540	-58.937	29.810	-73.070	126.173	8.956	-74.155	-68.097	1.179	90.104	-70.234	-65.538	-63.683	-58.308	-1.205	-61.835	-8191	255	
4386.171	1	1	0	0	0.11105	0.12376	0.18498	0.14056	0.22266	0.21977	0.34874	0.13524	0.1862	0.047226	0.10026	0.11079	0.14071	0.070093	0.088939	0.23013	-2.0271	-2.9521	-2.5646	-2.6146	-3.2271	-2.1333	-3.0146	-2.9688	-2.3563	-3.1292	-2.6125	-2.7979	-3.1667	-2.6458	-2.75	-3.0187	-46.981	114.745	5.049	242.309	19.542	194.531	-62.303	-8.276	21.779	251.855	160.621	138.290	188.949	153.947	215.959	153.091	8.3656e-05	0.00057535	0.00016352	1155.7	5.5577e-06	6.1197e-06	959.08	374.15	5.6324e-06	5.9596e-06	345.84	116.83	118.39	54.107	5.0681e-06	55.314	0.0004887	0.00046246	0.00013083	1025.4	5.1147e-06	5.4076e-06	855.08	331.62	5.5712e-06	5.1922e-06	306.49	104.31	106.68	48.252	5.2384e-06	49.221	247.521	41.185	-57.779	-73.150	-36.891	132.144	-74.245	-68.139	-7.023	-5.395	-69.973	-65.760	-63.548	-58.487	124.587	-61.771	-8191	255	
4386.290	1	1	0	0	0.15513	0.14906	0.11727	0.13241	0.01235	0.21691	0.24209	0.02399	0.13389	0.18088	0.21328	0.25564	0.065751	0.17376	0.21428	0.11888	-1.8125	-3.05	-2.6729	-2.5708	-3.2708	-2.4396	-2.9458	-3.2333	-2.4229	-2.9458	-2.8854	-2.45	-3.2146	-2.6083	-2.6875	-3.0812	122.274	239.003	113.645	259.031	120.019	167.042	247.655	-38.036	-48.394	63.239	218.297	249.350	177.020	264.265	102.039	227.795	0.00022268	0.00059188	0.00025266	1155.3	8.7583e-06	3.69e-06	970.18	375.27	4.191e-06	7.1576e-06	345.39	115.23	119.89	54.111	2.54e-06	54.832	0.00048779	0.00047341	0.0001304	1023.7	5.1868e-06	5.267e-06	860.79	333.2	5.5259e-06	5.4315e-06	307.68	104.09	107.68	48.132	5.7214e-06	48.925	154.162	-29.427	-61.211	-72.986	59.310	79.954	-73.756	-68.121	192.533	53.848	-70.345	-65.685	-63.327	-58.500	-4.509	-61.304	-8191	255	
4386.386	1	1	0	0	0.044625	0.16107	0.12044	0.36542	0.07212	0.2057	0.092137	0.19589	0.022267	0.22384	0.19909	0.20219	0.18363	0.25189	0.20907	0.099	-2.0083	-3	-2.8708	-2.5521	-3.1375	-2.4896	-2.7188	-3.2271	-2.3187	-2.9813	-2.8208	-2.2625	-3.0875	-2.4	-2.5458	-3.2354	122.380	-57.233	132.172	230.646	57.628	62.772	142.191	161.867	11.979	254.430	-70.391	270.298	187.566	-65.074	-53.341	196.624	0.00013135	0.001687	0.00011953	1156.8	2.4414e-06	4.711e-06	956.92	374.27	5.3952e-06	6.3009e-06	344.17	115	118.62	53.433	1.9656e-06	53.797	0.00051198	0.00051884	0.00013773	1027.9	5.4945e-06	5.6028e-06	856.29	332.34	5.8536e-06	5.7892e-06	306.45	103.56	107.19	47.742	6.1127e-06	48.296	171.249	39.705	10.386	-73.206	-48.646	0.520	-73.835	-68.219	-40.970	32.085	-70.386	-65.834	-63.483	-58.375	29.240	-61.660	-8191	255	
4386.482	1	1	0	0	0.14923	0.29503	0.28025	0.19209	0.12565	0.29802	0.27873	0.1	0.23996	0.17513	0.20093	0.1891	0.19094	0.22398	0.077277	0.23276	-1.9521	-2.925	-2.7083	-2.6271	-3.0271	-2.6437	-2.6333	-3.1625	-2.4062	-3.0083	-3.1562	-2.4625	-3.0583	-2.6875	-2.5187	-3.125	-85.657	4.395	-60.380	238.446	-47.949	-20.721	202.782	223.214	75.193	-18.185	263.674	241.898	257.439	218.268	-63.914	179.205	0.00016908	0.00055972	0.0001907	1152.9	7.7956e-06	4.3389e-06	949.31	375.78	6.7907e-06	1.0435e-05	339.84	114	119.7	53.5	2.3478e-06	54.118	0.00055039	0.00056604	0.00014952	1027.8	6.1105e-06	6.0193e-06	851.17	333.04	6.2115e-06	6.255e-06	304.7	103.28	107.35	47.799	6.2866e-06	48.594	158.338	-18.008	-39.907	-73.088	46.100	125.192	-73.864	-67.953	161.530	77.464	-70.073	-66.026	-63.733	-58.726	-26.039	-61.083	-8191	255	
4386.578	1	1	0	0	0.040875	0.22552	0.092676	0.088836	0.24236	0.10349	0.13308	0.16204	0.059165	0.095608	0.27097	0.38261	0.18033	0.12077	0.13152	0.14594	-2.1854	-2.7875	-3.1396	-2.5687	-3.0667	-2.7333	-2.6292	-3.3083	-2.5292	-2.6979	-3.1104	-2.4292	-2.9667	-2.8771	-2.2208	-3.3333	196.185	-0.598	80.827	146.303	121.214	270.472	-61.687	268.673	15.284	-39.279	117.473	147.527	98.439	267.547	228.438	192.460	0.00027412	0.0016056	5.7945e-05	1148	3.5754e-06	3.5925e-06	950.57	374.31	8.8665e-06	1.1859e-05	343.1	115.31	118.85	53.97	9.531e-06	54.754	0.00053291	0.00056811	0.00015056	1025.4	6.0788e-06	6.0191e-06	852.18	333.06	6.2338e-06	6.4999e-06	306.43	104.33	108.09	48.274	6.7418e-06	49.372	183.709	-22.425	258.087	-73.129	98.301	81.388	-73.925	-68.147	63.289	138.522	-70.079	-65.837	-63.273	-58.292	93.468	-61.612	-8191	255	
4386.674	1	1	0	0	0.13188	0.15812	0.076988	0.2534	0.28885	0.033618	0.32912	0.51088	0.057372	0.019223	0.0092234	0.32887	0.16985	0.15063	0.2902	0.13314	-2.0417	-2.5312	-3.175	-2.6125	-2.9083	-3.0271	-2.5083	-3.2792	-2.5542	-2.5146	-3.1312	-2.425	-2.9437	-2.9042	-2.2188	-3.1458	148.275	-18.735	151.045	212.296	136.796	-20.885	154.396	196.580	235.782	75.660	-67.867	243.383	92.185	254.848	7.819	-57.584	0.00017128	0.0010859	0.00035027	1151.5	4.5483e-06	2.719e-06	967.1	374.16	7.7279e-06	3.227e-06	342.47	114.42	118.61	53.574	1.1156e-05	54.202	0.00056801	0.00061603	0.00015763	1029.4	6.5459e-06	6.3173e-06	860.47	333.36	6.5097e-06	6.8394e-06	306.37	103.48	107.71	47.839	6.691e-06	48.591	126.168	23.655	45.532	-72.726	97.779	-41.563	-74.048	-68.090	-3.616	-18.992	-70.558	-65.498	-63.452	-58.405	34.623	-61.725	-8191	255	
4386.771	1	1	0	0	0.17216	0.069906	0.29981	0.14805	0.18423	0.1158	0.21851	0.2533	0.088645	0.21877	0.32969	0.071179	0.24064	0.091252	0.12281	0.14982	-2.3292	-2.2896	-3.1646	-2.4833	-2.8104	-2.9333	-2.6042	-3.1292	-2.6312	-2.3208	-3.2521	-2.5417	-2.7917	-3.1521	-2.2958	-3.0625	256.397	244.621	103.661	202.356	219.368	235.715	106.782	201.934	79.014	91.984	268.644	250.131	-73.576	267.029	27.236	-85.579	0.00016248	0.00063609	0.00027619	1143.2	6.2373e-06	4.0651e-06	956.5	369.97	2.6642e-06	6.3501e-06	342.63	113.94	117.57	52.668	1.1487e-05	53.641	0.00056127	0.00060931	0.00015762	1023.1	6.4112e-06	6.0484e-06	856.48	330.85	6.2648e-06	6.6232e-06	305.66	102.65	107.07	47.268	6.5797e-06	48.097	151.265	-17.939	3.453	-73.243	129.402	253.516	-73.940	-68.264	83.684	71.553	-70.266	-65.513	-63.456	-58.503	118.253	-61.493	-8191	255	
4386.891	1	1	0	0	0.099237	0.065747	0.23107	0.23474	0.1095	0.086032	0.15846	0.4494	0.16764	0.30833	0.10908	0.069885	0.36696	0.2018	0.13483	0.084881	-2.2604	-2.3208	-2.9479	-2.3792	-2.5146	-3.075	-2.4271	-2.9771	-2.75	-2.1833	-2.9625	-2.5083	-2.675	-3.1104	-2.4479	-3.0833	-57.837	98.201	66.360	191.279	139.525	270.102	161.143	-82.856	-24.178	43.635	197.564	9.798	266.591	-55.546	82.847	-3.764	0.00026341	0.00052099	0.0002887	1144	1.0141e-05	7.341e-06	944.97	371.14	3.4041e-06	5.0024e-06	339.49	114.39	118.16	53.241	9.983e-06	54.212	0.00055456	0.00059587	0.00015265	1021.9	6.4387e-06	5.9713e-06	850.3	331.19	6.1831e-06	6.8394e-06	304.78	103.15	107.14	47.478	6.5193e-06	48.753	163.331	-9.573	-10.383	-73.583	70.140	3.243	-73.737	-68.284	83.926	33.611	-70.274	-65.672	-63.468	-58.472	1.820	-61.317	-8191	255	
4386.986	1	1	0	0	0.17392	0.077212	0.067108	0.20994	0.29232	0.14388	0.085179	0.27768	0.1053	0.1033	0.22023	0.058909	0.16874	0.1267	0.083272	0.013389	-2.5312	-2.0896	-3.0938	-2.4	-2.3792	-3.2	-2.4188	-3.0563	-2.9	-2.2896	-3.2938	-2.5938	-2.725	-3.2354	-2.4875	-2.8604	53.181	-45.006	-4.211	-60.960	88.458	-46.539	176.306	-78.106	130.528	67.875	245.806	-79.837	-65.886	-34.901	183.319	173.302	8.8708e-05	0.0004758	0.00036507	1147.3	1.7521e-06	5.6047e-06	957.02	369.92	1.879e-06	3.9662e-06	339.29	113.65	119.39	53.085	5.7351e-06	54.056	0.0005436	0.00060344	0.00015879	1022.5	6.7353e-06	6.142e-06	854.3	330.63	6.3053e-06	6.7774e-06	305.7	103.63	108.14	47.637	6.4988e-06	48.858	184.661	178.344	-73.320	-72.882	20.810	34.451	-73.644	-68.043	269.710	63.627	-70.304	-65.987	-63.463	-58.214	2.734	-61.019	-8191	255	
4387.082	1	1	0	0	0.23793	0.079715	0.18167	0.31009	0.071946	0.27891	0.11466	0.22385	0.076401	0.078053	0.18303	0.071567	0.085125	0.016434	0.09828	0.061018	-2.6417	-2.2854	-2.9083	-2.7438	-2.5458	-3.0083	-2.8229	-2.8375	-3.15	-2.3375	-2.9	-2.8208	-2.5687	-3.1708	-2.4521	-2.7271	201.839	130.641	28.384	243.922	163.969	-58.524	239.308	191.877	200.370	91.386	170.539	91.211	-35.207	-10.677	-19.507	116.676	0.00029903	0.00063342	6.7677e-05	1142.5	3.4911e-06	1.0329e-05	954.88	373.46	8.0791e-06	2.6727e-06	340.72	114.02	118.52	52.932	6.3697e-06	53.483	0.00055655	0.00062432	0.00016276	1021.6	6.7998e-06	6.3228e-06	854.22	331.99	6.3119e-06	6.8684e-06	306.95	103.26	107.48	47.375	6.4401e-06	48.551	197.094	0.604	95.780	-73.283	245.986	48.746	-73.353	-67.853	160.248	0.258	-69.836	-65.744	-63.524	-58.001	89.784	-60.908	-8191	255	
4387.178	1	1	0	0	0.25376	0.10645	0.29351	0.12971	0.15897	0.37909	0.13232	0.14118	0.13082	0.2313	0.37892	0.21587	0.1281	0.33673	0.11313	0.26078	-2.6583	-2.4562	-2.9875	-2.8438	-2.3146	-3.2	-2.6021	-2.5958	-3.0542	-2.4792	-2.8208	-2.7917	-2.4208	-3.2354	-2.4479	-2.45	189.030	15.079	-73.674	240.744	218.644	130.293	184.614	222.826	211.064	19.602	245.453	177.999	-68.276	-51.021	167.238	173.531	0.00016066	0.00034849	0.00025574	1149.8	9.7153e-06	3.5977e-06	951.31	370.34	8.6265e-06	8.227e-06	339	113.12	117.41	52.655	7.4113e-06	53.363	0.00056255	0.00060701	0.00016463	1020.9	6.8862e-06	6.3064e-06	851.64	330.36	6.2703e-06	6.6946e-06	304.62	102.41	107.01	47.188	6.4771e-06	48.117	135.260	66.365	-43.849	-72.697	62.985	171.861	-73.691	-67.584	72.507	89.611	-69.847	-65.554	-63.296	-57.943	-81.505	-60.788	-8191	255	
4387.274	1	1	0	0	0.04249	0.11523	0.12422	0.25957	0.19668	0.15267	0.27756	0.24196	0.15806	0.06916	0.039351	0.037607	0.03857	0.31514	0.02114	0.23723	-2.5875	-2.4188	-2.7396	-2.925	-2.3312	-3.0167	-2.8708	-2.5979	-3.025	-2.4042	-2.8854	-3.0792	-2.2167	-3.15	-2.5896	-2.4875	237.154	244.677	94.904	167.550	247.604	82.613	188.362	175.439	-57.278	119.570	-2.252	146.131	201.005	176.804	-61.236	213.950	0.0002236	0.00053251	5.4744e-05	1146	7.4488e-06	2.6574e-06	943.87	369.84	8.7838e-06	6.2306e-06	337.39	112.26	117.01	52.692	1.8311e-06	53.581	0.0005749	0.00060806	0.00017025	1022	6.9733e-06	6.5837e-06	845.88	330.6	6.5695e-06	6.8583e-06	304.39	102.21	106.98	47.315	6.5818e-06	48.358	142.822	201.416	59.370	-73.079	93.474	41.602	-74.355	-67.940	19.093	66.457	-69.742	-65.603	-63.468	-57.635	207.445	-61.060	-8191	255	
4387.370	1	1	0	0	0.21867	0.12756	0.12655	0.16551	0.3006	0.09225	0.15285	0.21988	0.13252	0.18045	0.20942	0.010546	0.18898	0.22877	0.1258	0.21726	-2.6979	-2.4125	-2.8604	-3.0792	-2.3104	-3.0292	-2.825	-2.425	-3.0458	-2.5646	-2.4813	-3.2375	-2.3583	-3.0333	-2.9104	-2.525	-67.427	120.420	-65.574	200.771	77.098	-78.891	105.263	194.264	195.905	-30.531	-72.733	59.436	-58.863	130.884	248.887	168.503	0.00014437	0.0001263	0.00024516	1144.5	1.263e-05	1.1625e-05	944.26	372.07	1.1764e-05	2.5707e-06	341.09	114.35	118.34	53.251	2.2412e-06	54.284	0.00059279	0.00061754	0.0001761	1022.9	7.1621e-06	6.8307e-06	850.06	331.54	6.7003e-06	6.8655e-06	306.29	103.47	107.77	47.786	6.6494e-06	48.896	116.437	-2.602	-10.243	-72.944	59.959	8.396	-73.934	-67.495	58.148	213.848	-70.085	-65.744	-62.810	-58.241	-2.165	-61.068	-8191	255	
4387.466	1	1	0	0	0.15879	0.23474	0.061057	0.32484	0.1755	0.09863	0.3003	0.20292	0.070596	0.1118	0.23366	0.095932	0.085947	0.19126	0.031406	0.30411	-2.7896	-2.4729	-2.7146	-3.0875	-2.5146	-3.0208	-3.1396	-2.1896	-3.1146	-2.6979	-2.5042	-3.3667	-2.4208	-2.8937	-3.0667	-2.4917	92.605	254.890	23.928	-50.290	-66.091	164.612	221.655	246.410	177.942	11.218	208.277	94.606	251.271	247.382	123.495	-67.649	0.00013081	0.0011495	0.00033049	1151.8	4.5094e-06	6.3513e-06	950.87	372.13	1.0631e-05	1.876e-06	341.95	114.08	118.39	52.806	2.1854e-06	53.987	0.00060645	0.00062493	0.00018232	1029.4	7.1471e-06	7.0871e-06	853.84	333.6	7.0082e-06	6.8243e-06	308.43	103.62	107.67	47.443	6.6953e-06	48.589	139.426	109.231	-11.395	-72.951	-52.350	-63.869	-73.688	-67.923	-51.945	-74.654	-70.127	-65.733	-63.337	-58.194	126.521	-61.240	-8191	255	
4387.587	1	1	0	0	0.10964	0.35275	0.39305	0.12813	0.18632	0.14391	0.16555	0.0168	0.13311	0.31686	0.2598	0.063111	0.18572	0.097737	0.24142	0.084787	-2.8458	-2.6146	-2.5292	-3.3375	-2.3458	-2.7958	-3.1875	-2.6375	-3.0521	-2.6958	-2.7292	-3.2167	-2.6312	-2.7396	-3.0417	-2.5917	30.160	29.472	-48.424	-29.006	226.271	176.759	230.206	-5.791	-2.882	167.143	216.070	-64.547	176.680	136.276	129.051	-84.722	0.00017523	0.0010155	0.00017873	1143.6	8.5963e-06	1.2402e-05	955.18	371.33	1.7216e-06	7.4938e-06	337.98	113.22	117.94	52.383	7.4828e-06	53.151	0.00062344	0.00063751	0.00018485	1024.7	7.2133e-06	7.2342e-06	849.92	332.02	7.0104e-06	6.7764e-06	305.81	102.47	107.16	47.221	6.7711e-06	47.971	182.772	-1.330	-21.783	-72.923	-6.993	72.886	-73.876	-67.708	47.302	-36.131	-70.242	-65.443	-63.376	-57.863	-13.804	-61.208	-8191	255	
4387.683	1	1	0	0	0.17172	0.23936	0.28763	0.33239	0.17687	0.11864	0.061542	0.44345	0.2498	0.24096	0.049615	0.036336	0.23367	0.23124	0.17041	0.1798	-2.8	-2.775	-2.5687	-3.2	-2.6042	-2.7271	-3.2292	-2.4625	-3.1167	-2.9667	-2.3021	-3.3812	-2.5333	-2.6	-3.0729	-2.3063	62.938	7.152	223.952	-45.033	86.515	105.229	226.030	228.376	69.977	146.636	108.183	13.736	188.513	258.290	252.572	-44.810	9.8701e-05	0.00017099	0.00026104	1154.8	5.7226e-06	1.9937e-06	947.22	372.54	9.938e-07	5.2307e-06	337.98	112.64	117.86	52.138	7.6841e-06	53.058	0.00062047	0.00062655	0.00018761	1027.2	7.0207e-06	7.3927e-06	848.13	331.77	7.1774e-06	6.9171e-06	306.18	102.25	107.04	46.996	7.0836e-06	48.138	172.287	51.578	122.920	-72.609	-18.277	11.281	-73.558	-67.722	102.820	74.318	-69.668	-64.885	-63.617	-58.350	101.740	-61.081	-8191	255	
4387.779	1	1	0	0	0.22527	0.086879	0.017906	0.30234	0.057196	0.094813	0.1548	0.12721	0.11585	0.14555	0.24231	0.13127	0.078883	0.26993	0.28427	0.081099	-2.5542	-2.7771	-2.3583	-3.0229	-2.8187	-2.7125	-3.3208	-2.4333	-2.9729	-3.15	-2.325	-3.0833	-2.8187	-2.4	-3.0625	-2.6354	214.183	75.279	44.748	254.684	-44.190	186.428	64.943	115.797	240.462	163.205	189.553	4.833	171.559	225.893	-22.859	137.581	0.00024996	0.00053355	0.00017646	1147.5	3.8097e-06	3.8422e-06	949.06	369.76	1.0687e-05	5.9968e-06	341.59	113.39	115.78	52.507	8.2082e-06	53.884	0.00064951	0.00063958	0.00019222	1027.5	7.1622e-06	7.4497e-06	851.93	331.03	7.1808e-06	6.9431e-06	307.13	102.87	106.91	47.324	6.9847e-06	48.694	128.597	211.862	-7.823	-72.737	61.381	135.845	-73.469	-67.820	-28.432	143.981	-69.994	-64.624	-62.811	-57.228	54.723	-59.831	-8191	255	
4387.874	1	1	0	0	0.11903	0.10899	0.14433	0.25755	0.11039	0.23623	0.24024	0.19547	0.17949	0.15371	0.020928	0.072665	0.19232	0.26319	0.14746	0.21491	-2.4854	-2.975	-2.4083	-3.1	-2.7417	-2.4708	-3.2979	-2.5458	-2.6979	-3.125	-2.4229	-3.1354	-2.7604	-2.4146	-3.0229	-2.5979	-26.855	5.786	51.273	241.115	220.489	-81.353	-47.306	147.884	111.787	203.886	252.055	260.908	229.669	224.989	234.514	220.914	0.00028434	0.00059798	0.00025428	1146.4	7.5889e-06	7.6073e-06	949.96	370.8	7.0044e-06	4.8862e-06	340.58	112.09	115.79	51.958	4.574e-06	52.967	0.00064002	0.000614	0.0001829	1026.1	6.7775e-06	7.3306e-06	848.24	330.19	7.1605e-06	6.8064e-06	306.56	102.47	106.12	46.633	6.9514e-06	47.814	127.453	34.897	252.535	-72.526	75.926	60.458	-73.840	-67.908	63.259	17.842	-70.168	-65.228	-63.655	-58.210	252.133	-61.307	-8191	255	
4387.970	1	1	0	0	0.12765	0.19352	0.19975	0.28434	0.22283	0.14707	0.18179	0.23225	0.056505	0.13484	0.20995	0.20132	0.09435	0.36119	0.084687	0.29313	-2.2417	-3.1188	-2.2521	-2.8604	-2.8438	-2.4167	-3.1437	-2.825	-2.6625	-3.1063	-2.4708	-2.8937	-2.8438	-2.3896	-3.3063	-2.5896	242.574	191.449	102.399	245.963	44.480	47.414	-58.257	201.795	-60.543	263.382	-26.379	206.698	84.827	-71.955	-17.034	197.909	0.00022625	0.00062689	8.8216e-05	1143.7	2.4572e-06	4.5147e-06	954.71	369.35	2.5074e-06	5.9949e-06	338.09	111.56	115.57	51.897	4.419e-06	52.532	0.00064017	0.00062096	0.00018106	1025	6.6066e-06	7.2231e-06	846.12	328.11	7.0651e-06	6.7058e-06	303.47	101.59	105.38	46.394	6.8842e-06	47.432	135.556	21.218	117.725	-72.512	44.628	252.989	-72.743	-66.794	11.391	-2.262	-69.197	-65.143	-62.750	-57.462	267.928	-60.149	-8191	255	
4388.066	1	1	0	0	0.16056	0.17932	0.051695	0.14458	0.2565	0.26438	0.067032	0.15044	0.19691	0.17801	0.14147	0.1349	0.2414	0.35563	0.059964	0.13439	-2.2396	-3.0521	-2.3729	-2.9208	-2.8979	-2.4875	-3.1979	-2.7917	-2.5021	-3.0875	-2.4229	-2.8083	-3.1	-2.3125	-3.0333	-2.9125	207.236	-51.120	-48.994	198.409	-47.930	115.792	-79.943	191.358	133.146	80.259	-23.784	241.222	-64.863	65.984	204.368	258.094	5.3594e-05	0.00021037	0.00014716	1139.6	5.2723e-06	3.2524e-06	945.17	370.43	4.3325e-06	4.2766e-06	335.86	111.85	115.87	51.542	2.8991e-06	53.285	0.00064565	0.00062836	0.00018196	1022.2	6.6238e-06	7.3064e-06	843.8	329.62	7.3501e-06	6.7668e-06	302.65	102.17	105.31	46.354	6.9939e-06	47.87	44.197	227.184	-4.343	-72.309	183.131	-70.183	-73.394	-67.480	23.710	173.155	-69.168	-65.259	-62.773	-57.697	-3.203	-61.451	-8191	255	
4388.162	1	1	0	0	0.093482	0.30485	0.16695	0.10678	0.12308	0.34808	0.15955	0.26498	0.16934	0.12575	0.20635	0.1359	0.11996	0.27768	0.19199	0.27438	-2.1208	-3.1292	-2.5187	-2.7896	-2.9396	-2.3833	-3.1417	-2.9354	-2.4562	-3.2313	-2.6729	-2.7396	-3.2458	-2.4625	-2.9771	-3.0042	254.538	-30.884	94.294	103.000	9.026	170.768	115.608	152.985	132.288	92.472	205.939	-10.413	-60.163	-75.626	-73.288	198.075	0.00030286	0.00073461	0.00029975	1141.4	7.828e-06	1.098e-05	941.06	369.37	2.168e-06	7.5377e-06	338.1	113.54	116.13	52.222	2.7026e-06	53.594	0.00064236	0.00062591	0.00017935	1027.6	6.8401e-06	7.3787e-06	846.68	328.95	7.6203e-06	7.1137e-06	303.67	103.16	106.14	46.767	7.2818e-06	48.148	154.909	-40.841	-25.873	-72.497	35.365	92.296	-73.763	-68.368	-64.117	61.869	-70.301	-65.342	-63.879	-58.452	272.776	-61.572	-8191	255	
4388.258	1	1	0	0	0.11604	0.28377	0.11941	0.24558	0.25218	0.10997	0.076919	0.23001	0.11915	0.15708	0.057405	0.17973	0.13138	0.04254	0.16259	0.13037	-2.1312	-3.1833	-2.5	-2.6792	-3.1042	-2.3812	-2.9667	-3.0146	-2.3521	-3.1604	-2.7	-2.6958	-3.275	-2.5833	-2.8688	-2.8521	225.542	-86.579	219.451	268.199	-43.017	191.322	241.735	211.920	139.692	112.357	196.226	-56.378	232.002	273.107	202.655	168.555	9.2521e-05	0.00053796	0.00013361	1137.7	7.395e-06	2.7045e-06	944.98	368.11	8.852e-06	1.23e-05	336.85	111.75	116.03	51.32	5.4831e-06	53.083	0.00066383	0.00063337	0.00017845	1023	6.8802e-06	7.2778e-06	848.29	328.31	7.4306e-06	7.0386e-06	303.33	102.34	105.36	46.169	7.3547e-06	47.729	147.117	-28.421	83.607	-73.336	98.765	-20.188	-74.030	-68.594	33.736	65.711	-70.703	-66.567	-63.792	-58.658	39.515	-61.320	-8191	255	
4388.379	1	1	0	0	0.19008	0.15475	0.1753	0.155	0.11109	0.079144	0.16155	0.27164	0.16538	0.072177	0.27722	0.17328	0.21427	0.24227	0.2922	0.019834	-1.8958	-3.0271	-2.65	-2.4521	-3.1937	-2.5125	-2.7979	-3.0917	-2.2896	-3.0146	-2.6667	-2.4146	-3.1958	-2.4729	-2.5938	-3.2375	219.366	84.234	224.607	113.330	-62.589	143.989	-70.057	189.320	11.571	266.896	246.908	140.519	-44.175	-45.316	-50.576	242.314	0.00023494	0.00012482	0.00019022	1129.8	3.6179e-06	7.0364e-06	936.8	365.74	5.7569e-06	8.7357e-06	334.82	111.64	115.86	51.279	8.098e-06	52.533	0.0006706	0.00065048	0.00017896	1019.8	7.0183e-06	7.3178e-06	842.73	326.89	7.4763e-06	7.1176e-06	301.43	101.78	105.41	46.124	7.3323e-06	47.442	170.343	89.062	19.974	-73.291	19.446	25.541	-73.883	-68.584	-46.806	165.530	-70.304	-66.079	-64.005	-58.465	79.024	-61.303	-8191	255	
4388.475	1	1	0	0	0.13448	0.027615	0.35047	0.22365	0.2307	0.12846	0.16372	0.041655	0.24416	0.24303	0.072725	0.18365	0.057527	0.045513	0.23232	0.2285	-2.0438	-2.8479	-2.7604	-2.4938	-2.9542	-2.5771	-2.8396	-3.2833	-2.4125	-2.9729	-2.8771	-2.3083	-3.1271	-2.4854	-2.6042	-3.2896	236.449	268.773	-45.824	204.434	57.694	-3.361	220.830	6.299	107.531	153.709	241.209	21.557	-61.380	-58.824	17.440	-2.119	0.00031594	0.00055141	0.00025217	1128.4	3.2768e-06	7.8429e-06	933.28	368.36	8.7886e-06	2.6568e-06	335.68	111.29	116.52	51.614	2.8148e-06	52.656	0.000662	0.00065784	0.00017906	1024.9	7.221e-06	7.2265e-06	840.64	328.56	7.6156e-06	7.3675e-06	302.48	102.07	106.36	46.526	7.6704e-06	47.811	141.410	175.382	27.828	-73.640	12.486	40.848	-74.228	-68.441	48.024	33.280	-70.631	-65.981	-63.779	-58.898	-25.210	-61.835	-8191	255	
4388.571	1	1	0	0	0.047654	0.19088	0.036405	0.078332	0.18943	0.13645	0.19867	0.012932	0.37776	0.11077	0.29743	0.10031	0.29941	0.15853	0.31249	0.030214	-1.9375	-2.8937	-2.8229	-2.4396	-2.9667	-2.5312	-2.6688	-3.2313	-2.4979	-2.8479	-3.1042	-2.4271	-3.1125	-2.7396	-2.5687	-3.05	100.271	-61.137	-46.925	216.714	206.128	-27.968	-39.549	133.271	161.524	108.559	225.997	121.675	194.357	-54.464	170.131	-72.292	0.00022054	0.00078059	0.00013365	1143.1	9.8426e-06	6.6408e-06	928.84	373.05	6.3468e-06	5.7952e-06	339.12	112.59	118.81	52.509	5.5475e-06	53.11	0.00066602	0.00068945	0.00018185	1028.8	7.5101e-06	7.5097e-06	841.29	333.58	7.7828e-06	7.8107e-06	306.86	103.14	108.32	47.15	8.177e-06	48.41	166.857	-83.160	99.912	-73.025	228.838	-50.104	-74.268	-68.316	97.039	108.779	-71.299	-66.493	-63.997	-58.843	161.432	-61.507	-8191	255	
4388.667	1	1	0	0	0.19389	0.023941	0.088047	0.14355	0.090686	0.068287	0.36808	0.20202	0.086008	0.16029	0.055201	0.34234	0.25225	0.12585	0.060085	0.20936	-1.9458	-2.8208	-3.0625	-2.4604	-3.1479	-2.7604	-2.4562	-3.1958	-2.3688	-2.5625	-3.225	-2.3854	-3.1042	-2.8604	-2.2229	-3.2354	-6.583	234.110	216.312	251.765	100.928	-55.210	217.193	222.803	-65.328	-82.007	-66.960	-63.465	72.307	212.542	217.017	235.530	0.00018143	0.00078282	0.00010361	1139.8	1.3535e-05	1.2851e-05	934.2	376.45	3.6429e-06	4.1805e-06	338.02	114.4	119.26	52.108	4.8848e-06	52.829	0.00068873	0.00071288	0.00018674	1032.1	7.5434e-06	7.4399e-06	842.8	335.57	7.5866e-06	7.8767e-06	306.65	103.8	108.62	46.794	8.0058e-06	47.936	186.439	-18.514	92.377	-73.214	19.885	36.462	-74.158	-68.268	-0.750	101.073	-70.197	-66.397	-63.818	-58.570	46.734	-61.951	-8191	255	
4388.763	1	1	0	0	0.26884	0.17002	0.13839	0.32312	0.12389	0.11832	0.13348	0.22864	0.1357	0.024729	0.26439	0.026582	0.12598	0.069381	0.35345	0.12757	-2.1813	-2.4396	-3.15	-2.5729	-3.0479	-3.0167	-2.4833	-3.1229	-2.4979	-2.5812	-3.1104	-2.3187	-2.9375	-2.9625	-2.3563	-3.2229	56.827	-10.916	-55.762	256.407	24.037	-75.583	152.591	203.341	15.913	226.328	227.212	222.463	263.972	146.201	31.565	152.089	0.00015929	0.00041968	0.00021607	1135.9	7.9486e-06	5.9345e-06	931.99	374.8	7.5004e-06	7.2586e-06	337.07	112.01	117.23	52.419	3.9679e-06	52.728	0.00067275	0.00072096	0.00018971	1032.7	7.7478e-06	7.349e-06	836.31	334.9	7.4538e-06	7.8986e-06	305.76	102.54	108.26	46.988	8.0548e-06	47.904	215.746	-26.186	35.661	-73.571	-82.991	69.008	-74.079	-68.482	41.388	50.669	-70.767	-66.095	-63.954	-58.820	10.437	-61.619	-8191	255	
4388.860	1	1	0	0	0.073789	0.25248	0.17273	0.20278	0.35335	0.1968	0.20056	0.13636	0.020581	0.15538	0.39356	0.30891	0.24719	0.26848	0.22048	0.074346	-2.1854	-2.3542	-3.0854	-2.5479	-2.7812	-3.0958	-2.3729	-3.3458	-2.4833	-2.4208	-3.1708	-2.4813	-2.8604	-2.9688	-2.3042	-2.9979	263.788	152.127	271.731	187.418	-59.286	163.032	195.889	204.236	171.046	160.533	208.276	213.490	-25.431	237.299	191.765	164.992	8.6252e-05	0.0012855	0.00023515	1125.7	3.219e-06	1.6561e-05	922.79	372.33	8.6144e-06	9.7318e-06	337.45	111.05	116.04	51.742	6.3395e-06	52.706	0.00067087	0.00073227	0.00019145	1017.9	7.9581e-06	7.585e-06	833.41	333.57	7.544e-06	8.0017e-06	304.44	102.12	107.51	46.746	7.8717e-06	48.014	140.402	8.854	-31.389	-73.096	9.096	81.090	-74.470	-68.707	85.812	90.574	-70.871	-65.952	-64.029	-58.825	111.213	-61.800	-8191	255	
4388.979	1	1	0	0	0.10531	0.23896	0.083863	0.061405	0.20604	0.25258	0.20655	0.1292	0.18761	0.31824	0.16564	0.20873	0.080766	0.16893	0.15834	0.27181	-2.2375	-2.5146	-3.2438	-2.6292	-2.5604	-3.1083	-2.3646	-3.0792	-2.75	-2.2583	-3.1229	-2.5958	-2.6167	-3.175	-2.3771	-3.1375	124.771	77.069	105.017	255.694	-23.471	13.471	190.219	216.468	212.075	97.536	200.338	232.120	195.499	-20.368	12.864	251.120	0.00026909	0.00023627	0.00014881	1130.3	1.6808e-06	8.848e-06	932.71	372.55	4.3537e-06	5.6546e-06	336.9	112.94	117.85	52.302	3.7496e-06	54.215	0.00066773	0.00074008	0.0001963	1021.3	8.0938e-06	7.5009e-06	839.65	333.96	7.4379e-06	8.1658e-06	306.24	103.21	108.36	47.147	7.8395e-06	49.031	156.122	258.682	73.631	-73.797	141.292	9.257	-74.176	-68.877	175.961	58.468	-70.558	-66.167	-63.838	-58.965	73.999	-61.625	-8191	255	
4389.075	1	1	0	0	0.34431	0.44543	0.092163	0.15313	0.2258	0.14195	0.25592	0.083166	0.093044	0.12883	0.24725	0.17512	0.2711	0.14899	0.039129	0.11115	-2.3187	-2.3167	-3.1667	-2.4688	-2.675	-3.0917	-2.4625	-2.9042	-2.8042	-2.3563	-3.2458	-2.5438	-2.4542	-3.2083	-2.1875	-2.9042	57.104	10.660	231.911	172.933	90.537	65.098	177.208	267.302	-21.287	-1.406	150.204	152.929	164.438	30.166	3.599	-79.467	0.0001949	0.00076958	2.6411e-05	1134.5	8.696e-06	4.2841e-06	930.39	371.35	9.6796e-06	9.0609e-06	338.81	111.88	117.04	51.976	7.546e-06	53.236	0.00064441	0.00072824	0.00019163	1018.5	7.9041e-06	7.4518e-06	838.14	333.12	7.2602e-06	7.8822e-06	306.59	102.45	107.86	46.812	7.3867e-06	48.453	99.839	-44.561	-45.310	-73.182	12.310	129.433	-74.372	-68.729	105.298	82.936	-70.138	-65.932	-64.033	-59.035	24.451	-61.264	-8191	255	
4389.171	1	1	0	0	0.13657	0.092847	0.040059	0.088887	0.12233	0.1666	0.14546	0.18095	0.18032	0.23351	0.23638	0.070599	0.090755	0.26593	0.20941	0.244	-2.5667	-2.3875	-2.9479	-2.8812	-2.675	-3.1083	-2.6458	-2.8563	-3.0896	-2.3375	-3.0354	-2.9437	-2.3583	-3.1042	-2.5187	-2.625	116.965	44.828	129.533	232.863	76.156	249.459	143.247	222.473	-14.515	75.651	256.063	31.848	194.629	-57.643	-32.862	234.334	0.00014703	0.00096804	0.00022934	1117.7	3.8971e-06	4.45e-06	928.18	370.59	9.9074e-06	1.5015e-05	335.84	111.7	116.65	51.723	2.965e-06	52.943	0.00063718	0.00071215	0.00019188	1012.7	8.0006e-06	7.5411e-06	836.49	332.59	7.4979e-06	7.9471e-06	303.83	102.04	107.37	46.606	7.6545e-06	48.096	183.860	41.692	21.630	-73.174	98.637	51.577	-74.184	-68.201	17.787	14.503	-70.778	-66.069	-63.794	-58.899	148.767	-61.874	-8191	255	
4389.242	1	1	0	0	0.17657	0.12544	0.25699	0.08974	0.20553	0.17276	0.38033	0.3855	0.28217	0.21587	0.086849	0.19799	0.15292	0.1683	0.15843	0.047484	-2.4688	-2.2667	-2.9479	-2.8021	-2.3208	-3.0896	-2.7438	-2.8521	-2.9875	-2.4062	-3.1188	-2.8125	-2.4771	-3.175	-2.5958	-2.6875	96.882	53.137	159.189	20.059	266.723	266.931	153.623	199.711	42.897	-50.341	209.024	100.558	251.638	-38.645	104.316	-3.505	0.0002736	0.001058	0.00018054	1132.4	6.3619e-06	1.2257e-07	927.24	371.72	8.2632e-06	6.5292e-06	333.84	111.15	116.54	51.524	4.8396e-06	52.783	0.00066925	0.00073016	0.00019969	1014.6	8.1595e-06	7.7569e-06	834.5	332.61	7.7614e-06	8.1662e-06	303.89	101.65	107.9	46.655	7.9355e-06	48.18	159.566	44.788	-43.904	-73.529	17.614	122.391	-74.158	-68.423	214.438	74.789	-70.267	-65.895	-63.804	-58.768	34.165	-60.977	-8191	255	
4389.363	1	1	0	0	0.12135	0.07185	0.16662	0.060366	0.19364	0.19899	0.30818	0.091	0.085755	0.12904	0.2041	0.33196	0.19794	0.23612	0.074635	0.17543	-2.6354	-2.4042	-2.8375	-3.0604	-2.3854	-3.1188	-2.5646	-2.6333	-3.1729	-2.4	-2.7875	-3.0521	-2.4833	-3.1688	-2.5375	-2.3688	193.130	207.768	263.622	-75.084	-9.724	-68.100	189.218	-43.437	179.632	-1.288	230.167	191.492	-62.239	156.933	-85.542	-35.823	0.00029425	0.00075687	9.3341e-05	1117.5	4.6679e-06	6.439e-06	921.13	368.45	5.8253e-06	3.8099e-06	335.53	111.71	116.13	51.829	1.1533e-05	53.442	0.00069462	0.00074409	0.00020711	1011.5	8.3105e-06	8.1077e-06	832.79	331.69	7.8859e-06	8.3198e-06	305.47	102.59	108.06	46.649	7.9519e-06	48.573	137.181	-60.991	127.478	-73.076	46.227	-6.142	-73.997	-68.254	106.671	34.089	-70.702	-66.365	-63.940	-58.343	-56.183	-61.563	-8191	255	
4389.459	1	1	0	0	0.31204	0.12825	0.16819	0.34565	0.17138	0.1968	0.099889	0.31543	0.30904	0.25801	0.19112	0.14567	0.24327	0.17383	0.1286	0.11631	-2.6437	-2.5396	-2.7854	-3.1583	-2.325	-2.9521	-2.9688	-2.3312	-3.125	-2.5167	-2.7771	-3.2958	-2.4333	-2.9833	-2.7313	-2.3708	149.016	239.725	11.903	265.187	31.722	224.475	-22.207	-68.150	222.193	245.415	183.494	58.721	-70.777	217.122	17.742	153.966	0.00014645	0.00016618	0.00038411	1125.8	8.302e-06	1.029e-05	919.38	368.28	5.9153e-06	1.0826e-05	333.9	111.06	115.86	51.464	6.826e-06	51.967	0.00071083	0.00075451	0.00021548	1015.5	8.4405e-06	8.1809e-06	830.21	331.02	8.0237e-06	8.1096e-06	305.33	101.84	107.17	46.565	7.832e-06	47.783	180.118	135.080	-36.990	-73.839	-16.518	42.100	-74.198	-68.226	22.869	96.132	-70.113	-66.043	-63.861	-58.620	-65.707	-61.588	-8191	255	
4389.555	1	1	0	0	0.19985	0.20328	0.13087	0.12052	0.28279	0.23685	0.16492	0.39354	0.17307	0.12328	0.15056	0.091979	0.061216	0.079599	0.11917	0.07449	-2.6333	-2.4854	-2.4771	-3.3396	-2.2896	-2.9396	-2.9396	-2.3979	-3.1437	-2.5896	-2.6604	-3.1688	-2.4562	-2.8292	-2.8417	-2.5229	35.415	160.581	267.297	-71.614	-28.217	9.427	179.348	-74.536	143.926	-71.262	205.728	213.351	72.677	189.948	82.583	265.124	0.00010978	0.00059361	0.00027571	1112.2	2.2873e-06	9.1748e-06	923.04	366.7	7.7897e-07	8.534e-06	332.43	109.06	115.24	51.147	1.1037e-05	52.513	0.00071156	0.00072876	0.00021614	1010.9	8.3954e-06	8.3002e-06	830.08	330.89	8.1095e-06	8.0212e-06	303.04	100.72	106.57	46.172	7.8597e-06	47.764	215.242	71.438	58.490	-73.530	177.363	121.258	-74.092	-68.302	38.970	70.210	-70.596	-65.916	-64.195	-59.000	123.258	-61.422	-8191	255	
4389.652	1	1	0	0	0.1694	0.088492	0.2736	0.068023	0.31603	0.092814	0.35972	0.1178	0.086698	0.24523	0.12102	0.20878	0.44959	0.26817	0.27781	0.21403	-2.6813	-2.4708	-2.4292	-3.2146	-2.2625	-2.8812	-3.0438	-2.6125	-3.0312	-2.6979	-2.5563	-3.2521	-2.4146	-2.7917	-3.15	-2.3708	114.501	-63.976	-34.771	250.695	93.710	116.626	209.859	229.240	268.050	64.608	217.212	-24.434	261.766	193.189	244.643	-81.094	0.00018623	0.0013865	0.00033004	1125.3	2.7851e-06	8.5e-06	917.57	369.5	1.9752e-06	5.3581e-06	333.8	111.1	116.53	51.463	6.8988e-06	53.087	0.00070412	0.00071706	0.0002121	1013.4	8.0796e-06	8.1756e-06	828.96	331.22	8.0565e-06	7.826e-06	304.11	101.87	107.17	46.494	7.7175e-06	48.421	151.603	-6.182	17.189	-73.233	-14.998	121.846	-74.150	-68.299	9.001	148.329	-70.434	-65.691	-63.713	-58.749	-75.981	-61.920	-8191	255	
4389.772	1	1	0	0	0.076591	0.10938	0.21136	0.12927	0.18846	0.18597	0.16235	0.43663	0.15114	0.0818	0.22809	0.12166	0.14663	0.089345	0.153	0.16874	-2.5667	-2.8812	-2.3354	-3.3729	-2.4604	-2.6437	-3.1688	-2.6188	-3.0438	-2.8937	-2.3958	-3.1542	-2.5083	-2.6458	-3.075	-2.5563	144.017	21.158	-65.132	-30.477	165.994	-25.810	-86.269	210.548	101.870	74.597	237.869	200.731	-16.242	-30.854	-54.135	-75.774	9.7657e-05	0.0011765	0.00011982	1121.9	6.1074e-06	5.1146e-06	924.77	370.64	7.289e-06	1.0622e-06	335.84	112.39	116.35	51.842	9.0544e-06	53.804	0.00070139	0.00070741	0.00021277	1014.8	7.9604e-06	8.3781e-06	835.72	333.04	8.2256e-06	8.1039e-06	306.03	103.12	107.53	46.896	8.1083e-06	48.821	179.279	0.128	-35.158	-73.206	43.595	72.564	-74.428	-68.339	69.529	143.360	-70.456	-66.338	-63.894	-58.817	117.986	-61.755	-8191	255	
4389.844	1	1	0	0	0.22881	0.095801	0.045833	0.18749	0.11225	0.081887	0.31273	0.21901	0.19373	0.18017	0.17208	0.16165	0.15401	0.14628	0.1701	0.06979	-2.5021	-2.7687	-2.3	-3.1917	-2.5604	-2.4479	-3.1813	-2.3479	-2.8896	-2.9792	-2.3771	-3.1271	-2.7375	-2.525	-3.1479	-2.5208	220.843	-74.791	-73.013	208.286	-28.421	-45.397	138.172	253.955	188.942	153.795	-75.699	154.472	19.943	200.518	47.061	-73.012	0.00019939	0.00058788	3.0387e-05	1130.2	3.4055e-06	4.1017e-06	933.44	372.64	8.425e-06	4.7201e-06	336.75	111.75	116.93	51.556	2.5794e-06	52.841	0.00072487	0.00072506	0.00021595	1021.3	7.9901e-06	8.51e-06	841.27	334.5	8.2955e-06	7.8543e-06	307.12	102.7	107.05	46.49	8.1112e-06	48.332	122.276	-21.000	77.649	-73.283	71.283	138.389	-73.832	-68.352	68.119	86.349	-70.300	-66.370	-63.740	-59.117	-18.405	-61.492	-8191	255	
4389.940	1	1	0	0	0.17754	0.14094	0.2323	0.26777	0.26284	0.26511	0.19094	0.12585	0.083333	0.2805	0.20324	0.19174	0.36913	0.27339	0.24691	0.095918	-2.3688	-2.9813	-2.3708	-3.0646	-2.7729	-2.6271	-3.3729	-2.6562	-2.7708	-2.9646	-2.4229	-3.1292	-2.7875	-2.5458	-3.1417	-2.6063	-35.657	145.267	100.115	-75.292	128.418	227.322	229.886	194.808	168.399	267.144	-64.512	108.806	83.464	262.996	115.694	170.269	0.0001702	0.00074441	0.00022676	1131.9	1.004e-05	1.0097e-05	928.45	370.45	3.4739e-06	5.635e-06	335.9	110.98	116.23	51.078	1.5926e-06	52.699	0.00074815	0.00072827	0.00021849	1022.7	7.889e-06	8.6015e-06	838.67	331.7	8.3796e-06	7.9539e-06	305.62	102.42	106.23	46.172	8.0418e-06	48.041	185.382	3.591	228.855	-72.996	26.609	129.346	-73.612	-68.377	18.283	96.783	-70.517	-66.098	-64.059	-58.863	93.557	-61.601	-8191	255	
4390.061	1	1	0	0	0.11902	0.087755	0.23334	0.11625	0.009378	0.049461	0.041498	0.18486	0.073342	0.16838	0.15286	0.26447	0.19571	0.22683	0.20127	0.51912	-2.2354	-3.0312	-2.4792	-2.8688	-2.8812	-2.4021	-3.3583	-2.6937	-2.7313	-3.1896	-2.5896	-2.9104	-3.0271	-2.6521	-3.0396	-2.65	-27.672	204.634	256.082	199.426	-32.970	177.348	-80.196	119.964	223.054	-21.498	-5.012	192.415	232.423	240.853	153.649	181.072	0.00017313	0.00091081	0.00033387	1136	7.4859e-06	1.3699e-05	923.56	370.1	1.2114e-05	3.372e-06	337.72	112.1	115.63	50.95	5.7488e-06	52.954	0.00074573	0.00074126	0.00021676	1025.7	8.0457e-06	8.8143e-06	837.28	330.88	8.4734e-06	8.0252e-06	305.67	102.74	106.3	46.238	8.0597e-06	48.386	181.278	74.841	9.818	-73.488	18.348	34.434	-74.415	-68.392	100.530	111.658	-71.103	-66.062	-64.127	-58.803	81.790	-61.678	-8191	255	
4390.155	1	1	0	0	0.30245	0.067344	0.1166	0.28845	0.21059	0.2659	0.33487	0.32306	0.21798	0.20169	0.10016	0.18795	0.19589	0.24324	0.053966	0.016313	-2.1625	-3.2146	-2.3771	-2.9604	-3.1583	-2.5292	-3.2208	-2.7146	-2.5146	-3.2708	-2.5229	-2.8854	-3.2	-2.3875	-2.8646	-2.8167	36.858	196.802	142.090	268.695	-44.165	143.051	218.315	254.220	40.815	-20.736	236.731	213.067	258.231	-24.242	77.732	205.940	0.00018294	0.0010146	9.47e-05	1121.3	7.4077e-06	6.6596e-06	935.15	369.55	1.0046e-05	3.9469e-06	336.81	113.36	115.47	51.415	1.68e-06	53.86	0.00075191	0.00072675	0.00021191	1021	7.8748e-06	8.4785e-06	841.08	330.54	8.3786e-06	7.8772e-06	306.33	103.5	106.45	46.397	8.0786e-06	48.601	174.830	195.032	-48.952	-73.384	105.897	-6.147	-74.354	-68.546	2.527	132.384	-70.289	-65.715	-63.749	-58.585	129.821	-61.823	-8191	255	
4390.251	1	1	0	0	0.25355	0.10593	0.26576	0.16733	0.21566	0.25493	0.3031	0.2183	0.52633	0.24622	0.33268	0.3666	0.19582	0.16563	0.073688	0.15095	-1.9146	-3.1708	-2.3958	-2.9188	-3.1562	-2.3479	-3.0271	-2.9437	-2.4833	-3.2042	-2.6521	-2.8604	-3.1479	-2.4521	-2.9792	-3.0604	158.720	132.412	83.088	70.635	18.245	184.238	249.088	238.991	233.397	-11.267	217.919	211.587	261.758	187.498	78.671	70.568	0.00013169	0.00032436	5.736e-05	1130.7	8.9696e-06	2.8924e-06	932.96	370.18	1.0566e-05	4.064e-06	334.42	111.65	113.95	51.002	1.0362e-05	53.015	0.00073955	0.00071355	0.00020341	1023.2	7.7596e-06	8.2783e-06	843.9	329.96	8.2497e-06	7.7612e-06	303.81	102.76	105.35	45.876	8.0796e-06	48.098	183.384	219.565	197.896	-73.543	92.159	271.805	-74.011	-68.314	29.298	-18.973	-70.480	-65.742	-64.182	-58.777	-4.285	-61.562	-8191	255	
4390.372	1	1	0	0	0.25818	0.078333	0.17458	0.13049	0.17079	0.31864	0.11216	0.29988	0.24149	0.046016	0.16063	0.038662	0.1896	0.19559	0.24798	0.15485	-1.8542	-3.2771	-2.4354	-2.7167	-3.1604	-2.3875	-3.1125	-3.125	-2.3208	-2.9875	-2.8229	-2.6125	-3.0833	-2.3833	-2.8667	-3.0479	-44.125	68.806	173.893	227.483	165.476	70.721	56.399	140.754	-58.465	13.854	-86.633	87.359	-10.208	172.426	-51.778	215.432	0.00015368	0.0012802	3.644e-05	1129.4	4.8412e-06	7.221e-06	934.79	367.31	5.9664e-06	1.2589e-05	331.95	109.85	114.48	50.428	1.4263e-05	52.467	0.0007405	0.00072382	0.00020121	1021.7	7.9535e-06	8.2914e-06	840.24	328.44	8.5004e-06	8.2066e-06	302.21	101.68	105.74	45.659	8.3798e-06	47.788	120.229	46.219	90.169	-73.109	72.763	61.556	-74.107	-68.745	99.136	65.760	-70.303	-65.825	-64.248	-58.462	35.355	-61.652	-8191	255	
4390.443	1	1	0	0	0.24128	0.12158	0.19891	0.16424	0.23646	0.23533	0.27155	0.37031	0.29794	0.076998	0.027734	0.38502	0.19082	0.21032	0.20846	0.0434	-2.0438	-3.1604	-2.7146	-2.5	-3.1625	-2.6083	-2.8083	-3.1208	-2.1875	-3.0312	-2.7854	-2.4958	-3.0854	-2.4792	-2.725	-3.2	214.774	104.741	194.985	66.293	139.542	122.792	237.294	211.472	-71.980	218.421	-63.890	247.306	-49.447	201.560	259.402	62.063	4.0245e-05	0.00032156	0.00022677	1127	8.8693e-06	4.2386e-06	930.98	366.56	4.8454e-06	5.9844e-06	335.12	111.42	113.65	50.528	1.0435e-05	52.411	0.00075934	0.00074223	0.00020619	1022.7	8.0595e-06	8.3264e-06	841.58	328.06	8.6563e-06	8.5055e-06	303.33	102.33	105.66	45.447	8.6992e-06	47.858	78.707	95.724	-63.278	-73.072	89.925	210.568	-74.074	-68.423	1.429	151.282	-70.554	-65.696	-63.959	-58.684	146.808	-61.596	-8191	255	
4390.540	1	1	0	0	0.088753	0.14322	0.095059	0.17478	0.042523	0.20883	0.18123	0.13293	0.14538	0.11265	0.25911	0.081285	0.24776	0.22145	0.24555	0.21726	-2.0021	-2.8417	-2.7833	-2.6542	-3.1792	-2.5021	-2.8208	-3.2771	-2.4646	-3.0229	-2.8833	-2.6396	-3.2562	-2.9	-2.6937	-3.0771	32.107	59.673	145.986	69.604	250.318	43.845	-86.135	158.916	1.827	186.866	223.802	193.447	188.424	214.231	265.868	182.134	0.00014436	0.00070912	0.00023355	1131.4	3.7828e-06	1.2893e-05	947.75	367.35	7.4751e-06	1.7917e-05	335.85	112.59	114.14	50.465	6.0839e-06	53.127	0.00075893	0.00076244	0.00020626	1027.9	8.153e-06	8.2102e-06	850.74	329.87	8.6638e-06	8.6201e-06	305.24	103.29	106.28	45.596	9.0295e-06	48.441	120.723	-82.337	-58.509	-72.642	76.649	61.811	-74.205	-68.186	-38.077	52.588	-70.447	-65.946	-64.084	-58.614	16.551	-61.252	-8191	255	
4390.660	1	1	0	0	0.14317	0.10549	0.32529	0.16501	0.2212	0.048479	0.033387	0.20531	0.22106	0.13602	0.12564	0.12936	0.14829	0.059984	0.3077	0.20249	-1.9625	-3.0208	-2.9208	-2.6063	-3.1625	-2.6937	-2.8396	-3.3042	-2.4979	-2.8979	-3.0583	-2.5042	-3.0812	-2.7854	-2.5958	-3.3021	-26.058	26.904	46.897	240.320	150.404	229.528	-53.182	153.071	68.882	-33.193	-31.548	231.846	-61.021	-0.118	29.825	203.654	0.00019562	0.00092282	9.9657e-05	1141.6	5.8337e-06	2.6869e-06	933.92	367.04	7.869e-06	9.8725e-06	333.29	111.15	113.68	50.192	6.0199e-06	52.549	0.00078546	0.00080224	0.00021787	1031	8.6973e-06	8.6216e-06	848.24	328.88	8.7331e-06	8.9605e-06	304.21	102.7	105.74	45.331	9.179e-06	48.001	131.950	-55.079	-58.434	-73.627	5.674	242.686	-74.057	-68.412	56.380	97.031	-70.547	-65.543	-63.661	-58.685	-33.720	-61.537	-8191	255	
4390.756	1	1	0	0	0.21577	0.1715	0.15691	0.21127	0.13881	0.20175	0.28683	0.13712	0.094388	0.15284	0.070782	0.23625	0.10252	0.10677	0.13161	0.27777	-1.9438	-2.6396	-2.9896	-2.2542	-3.1542	-2.8333	-2.4396	-3.2021	-2.3937	-2.6479	-3.2771	-2.5896	-3.0854	-2.8937	-2.4292	-3.2479	208.278	-51.896	110.013	203.757	-63.189	250.278	-51.861	244.397	38.786	209.911	14.413	113.890	178.784	151.175	27.229	183.813	9.506e-05	0.0013082	9.4636e-05	1141.6	7.11e-06	7.6043e-06	937.01	360.98	8.7192e-06	7.285e-06	328.97	109.94	113.24	49.703	9.0158e-06	52.577	0.00078007	0.00082373	0.00021831	1030.7	8.777e-06	8.667e-06	849.79	325.97	8.7998e-06	8.995e-06	301.63	102.19	105.24	45.021	9.2013e-06	47.956	196.304	221.751	-33.933	-73.466	79.099	124.702	-74.537	-68.687	-19.002	148.579	-70.704	-65.923	-64.095	-58.583	-71.825	-61.473	-8191	255	
4390.853	1	1	0	0	0.10546	0.10235	0.091404	0.12023	0.22162	0.21166	0.32619	0.10924	0.22519	0.064295	0.088772	0.16513	0.071523	0.1242	0.098532	0.25671	-2.3063	-2.8354	-3.0542	-2.3	-3.0438	-2.9042	-2.4896	-3.3125	-2.5875	-2.6688	-3.2979	-2.4938	-2.9146	-3.2125	-2.4583	-3.1958	-20.362	177.481	204.033	21.735	167.805	182.081	155.395	266.428	27.970	181.113	-6.177	224.039	-17.153	101.501	196.791	226.266	0.00015748	0.00086958	0.00014216	1130.1	3.066e-06	4.7964e-06	937.73	363.24	1.3601e-05	4.5785e-06	332.01	111.08	112.88	49.91	1.559e-06	52.932	0.00077512	0.00085841	0.00022509	1031.8	9.3795e-06	9.1597e-06	854.93	326.94	9.2491e-06	9.6296e-06	304.16	102.74	105.93	45.307	9.3567e-06	48.5	203.835	118.715	-57.566	-73.296	38.653	159.684	-74.183	-68.415	145.395	91.386	-70.388	-65.973	-63.811	-58.884	182.756	-61.451	-8191	255	
4390.949	1	1	0	0	0.22029	0.28231	0.15367	0.24902	0.14045	0.034615	0.20765	0.022247	0.19544	0.11378	0.17056	0.033	0.012257	0.07032	0.07591	0.24823	-2.3937	-2.625	-3.2958	-2.7042	-3.1125	-3.1521	-2.5771	-3.2438	-2.725	-2.5062	-3.3396	-2.4396	-2.7604	-3.2438	-2.4604	-3.2042	31.821	5.811	-14.566	224.249	226.924	151.108	-45.470	242.900	12.085	161.738	256.511	190.092	188.511	-76.216	170.159	238.814	0.00018167	0.00054829	0.00034847	1127.5	8.5429e-06	8.0146e-06	937.02	363.18	5.8968e-06	8.8945e-06	334.81	112.8	113.72	50.476	7.9904e-06	53.477	0.00077734	0.00086384	0.00022569	1024.8	9.4794e-06	8.994e-06	853.63	327.76	9.1319e-06	9.8253e-06	306.61	103.68	106.35	45.641	9.4132e-06	48.983	151.220	-0.967	82.116	-73.274	-41.407	16.619	-73.818	-68.326	181.690	39.974	-70.145	-66.017	-63.718	-58.888	84.556	-61.049	-8191	255	
4391.068	1	1	0	0	0.22462	0.073018	0.11769	0.07104	0.14238	0.29314	0.13769	0.23235	0.10025	0.11867	0.042238	0.24679	0.02059	0.15597	0.21689	0.16497	-2.4646	-2.4125	-3.0833	-2.4625	-2.9313	-3.0708	-2.5708	-3.3146	-2.925	-2.4417	-3.4729	-2.575	-2.7292	-3.15	-2.3146	-3.2271	182.796	-71.598	-15.502	205.937	72.346	221.138	267.196	172.473	4.616	122.906	53.820	213.958	226.880	-59.724	12.201	67.553	6.3438e-05	0.00085525	8.5985e-05	1120	6.0206e-06	7.9566e-06	947.65	361.05	7.3594e-06	9.1479e-06	334.26	111.52	111.77	49.854	6.6937e-06	52.785	0.00078269	0.00085379	0.00022229	1018	9.0988e-06	8.5881e-06	856.04	325.36	8.5749e-06	9.2689e-06	304.93	102.68	104.58	45.012	8.9649e-06	48.36	133.255	52.566	115.473	-73.586	125.395	21.925	-74.296	-68.199	-68.357	-6.173	-70.571	-65.569	-63.925	-58.217	84.201	-61.434	-8191	255	
4391.139	1	1	0	0	0.1244	0.17229	0.085478	0.078557	0.019512	0.021366	0.11208	0.15038	0.25256	0.14627	0.18173	0.24001	0.244	0.20851	0.17033	0.18485	-2.5687	-2.4354	-3.1625	-2.675	-2.525	-3.2333	-2.5396	-3.0708	-2.9375	-2.4437	-3.2292	-2.7333	-2.6458	-3.25	-2.5687	-3.0438	272.614	211.687	184.667	183.354	261.760	66.276	247.518	205.115	249.828	-33.017	268.649	263.638	-62.360	-67.296	227.792	167.968	0.00020098	0.0012524	5.8196e-05	1113.2	1.4193e-06	5.509e-06	934.94	358.44	1.2469e-05	1.17e-05	328.86	110.34	111.87	49.71	1.0243e-05	52.428	0.00075685	0.00084176	0.00022348	1016.4	9.4254e-06	8.9987e-06	852.18	322.61	8.8834e-06	9.5942e-06	301.76	101.95	105.17	45.01	9.4862e-06	48.224	142.374	8.211	91.015	-72.996	59.021	120.506	-73.715	-68.052	-24.673	29.910	-70.175	-65.745	-63.590	-58.540	76.071	-61.102	-8191	255	
4391.235	1	1	0	0	0.072831	0.15996	0.2225	0.29189	0.31451	0.18072	0.16967	0.092107	0.17378	0.20171	0.31313	0.32573	0.13809	0.36819	0.23037	0.33004	-2.5979	-2.4042	-3.0625	-2.7458	-2.4375	-3.2396	-2.6	-3.0854	-3.2062	-2.4062	-3.2542	-2.8229	-2.5417	-3.2625	-2.625	-2.6667	119.643	267.077	152.909	207.685	65.810	4.188	271.865	-28.947	254.914	108.719	210.291	191.787	256.198	269.179	174.215	254.572	0.00030532	0.00040223	0.0002956	1107.4	8.2026e-06	2.8718e-06	937.38	355.79	1.8039e-06	7.1082e-06	330.12	109.42	111.78	49.288	2.5834e-06	52.812	0.00079065	0.00088245	0.00023606	1008.6	9.737e-06	8.9054e-06	846.83	320.7	9.1118e-06	9.631e-06	301.36	101.2	104.86	44.798	9.1616e-06	48.345	169.690	41.678	60.478	-72.909	117.985	160.634	-73.764	-67.962	8.760	105.940	-70.455	-65.339	-63.644	-58.499	5.006	-61.301	-8191	255	
4391.332	1	1	0	0	0.18376	0.12672	0.2313	0.18281	0.12172	0.23964	0.28012	0.20342	0.29366	0.088614	0.25929	0.19497	0.17206	0.15046	0.2856	0.018418	-2.6792	-2.3104	-3.0563	-2.675	-2.3729	-3.2375	-2.6312	-2.8937	-3.1146	-2.4625	-2.9167	-2.9479	-2.4104	-3.1917	-2.6208	-2.6667	184.187	12.802	207.232	243.951	-49.755	180.152	-57.021	210.992	251.377	193.104	-51.582	260.417	266.576	-32.120	156.056	-44.396	0.00027951	0.00033755	0.00024063	1103.1	8.2581e-06	7.8655e-06	936.58	356.32	6.1516e-06	1.0632e-05	329.98	111.46	113	49.252	9.7563e-06	52.543	0.00078063	0.00086014	0.00023135	1005.8	9.3358e-06	8.869e-06	846.31	322.01	8.6659e-06	9.333e-06	303.65	102.55	105.23	44.873	9.1371e-06	48.284	163.061	56.424	44.221	-73.401	20.159	27.265	-74.032	-68.198	23.076	-21.386	-70.051	-65.444	-63.773	-58.339	-48.809	-61.385	-8191	255	
4391.452	1	1	0	0	0.056858	0.26161	0.054132	0.059826	0.18278	0.086799	0.21871	0.24459	0.066989	0.072248	0.12734	0.20769	0.18328	0.13426	0.06176	0.15926	-2.7438	-2.5	-2.8583	-3.0875	-2.4458	-3.1667	-2.9021	-2.6375	-3.1833	-2.4167	-3.0604	-2.8771	-2.3917	-3.1208	-2.9229	-2.5375	27.704	98.270	137.523	55.273	62.454	135.536	251.792	225.293	-33.635	-62.433	12.627	2.572	-48.463	254.099	212.442	154.723	0.00016833	0.00163	0.00038052	1105	1.3117e-06	5.8371e-06	931.08	358.3	1.2922e-05	1.1149e-05	330.69	109.91	112.57	49.467	7.0398e-06	52.17	0.00080622	0.00086737	0.00024066	1010.7	9.4686e-06	8.9898e-06	841.9	322.53	8.7597e-06	9.0731e-06	303.05	101.46	104.69	44.832	8.7419e-06	47.737	197.349	-17.041	57.449	-73.488	31.063	70.093	-73.834	-67.790	-27.176	209.976	-69.817	-66.155	-63.525	-58.519	-48.047	-61.647	-8191	255	
4391.548	1	1	0	0	0.21371	0.12329	0.093796	0.071399	0.074432	0.035146	0.090732	0.11046	0.20707	0.11967	0.038544	0.059899	0.041605	0.13168	0.16058	0.32643	-2.7604	-2.4625	-2.7479	-3.1771	-2.1937	-3.1813	-2.9479	-2.5125	-3.0792	-2.45	-2.6854	-3.2812	-2.4375	-3.0875	-2.9271	-2.3958	108.727	12.179	120.373	114.005	65.099	-71.186	-47.935	148.786	206.078	82.230	193.161	235.828	-12.745	237.256	172.115	163.636	0.00021866	0.0010906	0.00024974	1104.7	7.6808e-06	1.1942e-05	917.57	359.34	3.082e-06	5.7315e-06	329.34	109.33	110.84	49.135	6.0876e-06	51.552	0.00078056	0.00082976	0.00023905	1008.2	9.3585e-06	9.1837e-06	838.38	322.77	8.9768e-06	9.1412e-06	301.49	100.77	104.4	44.653	8.8615e-06	47.574	156.421	94.711	-3.999	-73.188	-60.990	-5.029	-74.189	-68.246	-73.117	30.080	-69.815	-65.773	-63.861	-58.580	10.301	-61.481	-8191	255	
4391.644	1	1	0	0	0.17432	0.12929	0.16085	0.3098	0.19005	0.19566	0.031436	0.1192	0.047968	0.11144	0.23054	0.070272	0.25196	0.11965	0.17899	0.24205	-2.7292	-2.4062	-2.7042	-2.9875	-2.4625	-2.9479	-3.1521	-2.4375	-3.1	-2.6042	-2.6021	-3.4333	-2.5021	-2.9938	-3.0604	-2.7333	222.941	98.939	10.071	-76.928	168.066	149.076	-35.213	229.671	170.445	227.017	180.828	156.752	72.869	150.213	88.987	262.186	0.00011479	0.00045039	0.0003581	1103.2	1.0192e-05	8.0037e-06	929.75	357.95	7.3064e-06	9.5346e-06	329.1	109.63	111.65	48.981	4.306e-06	52.044	0.00078634	0.00081282	0.00023901	1004.9	9.4119e-06	9.2753e-06	837.26	322.84	9.0981e-06	9.191e-06	302.71	100.95	104.32	44.667	9.1386e-06	47.746	176.173	-60.855	-8.492	-73.280	-0.998	232.548	-73.971	-68.291	-73.964	13.357	-70.436	-66.002	-64.067	-58.375	-3.547	-61.766	-8191	255	
4391.741	1	1	0	0	0.12297	0.15323	0.16382	0.18696	0.099421	0.15981	0.090235	0.1463	0.13004	0.26303	0.19827	0.2549	0.090458	0.15817	0.19475	0.11246	-2.7104	-2.6562	-2.4958	-3.2667	-2.4042	-2.85	-3.2687	-2.6458	-3.1979	-2.8229	-2.7062	-3.1333	-2.6833	-2.85	-2.9938	-2.4771	-83.335	56.436	-23.463	212.883	-59.352	49.822	36.271	233.312	272.630	64.581	262.382	237.825	250.215	16.300	155.615	244.699	0.00010116	0.00085967	0.00023424	1106.4	3.6485e-06	1.9695e-05	930.06	358.37	3.5307e-06	4.1019e-06	330.87	110.28	111.82	48.9	9.5227e-06	52.382	0.00083427	0.00084398	0.00025257	1014.8	9.5961e-06	9.6879e-06	841.9	323.74	9.4525e-06	9.3414e-06	303.94	101.78	104.83	44.971	9.271e-06	48.005	131.923	239.622	20.053	-73.704	175.686	120.557	-74.010	-68.145	163.125	66.741	-70.282	-66.130	-64.133	-58.533	104.920	-61.692	-8191	255	
4391.837	1	1	0	0	0.12374	0.046906	0.095895	0.07459	0.082845	0.057012	0.23256	0.23197	0.23286	0.40458	0.22799	0.12223	0.1009	0.077038	0.26745	0.08215	-2.5854	-2.65	-2.5125	-3.2667	-2.4562	-2.5687	-3.3	-2.475	-3.1	-3.0333	-2.5521	-3.4688	-2.6875	-2.7438	-3.3187	-2.3833	253.286	-45.974	148.697	219.498	223.747	236.048	263.522	215.259	23.372	58.900	-4.731	-54.396	129.031	238.268	9.958	94.683	0.00026279	0.00078759	4.8533e-05	1118.2	9.5218e-06	1.4491e-06	920.46	357.78	7.4096e-06	8.8374e-06	332.27	110.28	112.05	48.782	1.271e-05	51.672	0.00083322	0.00084989	0.00025141	1017.7	9.4677e-06	9.8925e-06	841.83	323.13	9.4016e-06	9.2034e-06	304.32	101.67	104.63	44.664	9.2224e-06	47.514	181.558	116.102	115.199	-72.950	42.154	24.670	-74.033	-68.371	168.447	88.690	-70.465	-66.057	-63.637	-58.658	38.455	-61.559	-8191	255	
4391.933	1	1	0	0	0.18072	0.20609	0.39258	0.21268	0.26172	0.23187	0.085388	0.13578	0.070328	0.22854	0.18593	0.07024	0.1733	0.20732	0.13307	0.23901	-2.6083	-3.0125	-2.4396	-3.2188	-2.5479	-2.4854	-3.3333	-2.5979	-2.9562	-2.8833	-2.4667	-3.0979	-2.7812	-2.5208	-3.0396	-2.6771	-32.488	31.282	60.879	185.867	43.284	250.255	-32.558	204.723	-48.431	132.574	232.907	-36.125	-16.105	216.338	-78.369	266.786	0.00022057	0.00090415	0.00031252	1104.2	6.6328e-06	1.8559e-06	920.18	356.25	1.098e-05	1.3624e-06	328.42	108.92	112.12	49.02	1.3458e-05	51.186	0.00084695	0.00084539	0.0002497	1010.4	9.3536e-06	9.9628e-06	837.32	321.94	9.6113e-06	9.4029e-06	302.44	100.67	104.47	44.73	9.4839e-06	47.327	146.207	25.876	36.257	-72.973	87.424	102.814	-74.003	-68.437	248.313	-80.947	-70.046	-65.911	-63.775	-58.398	-8.896	-61.278	-8191	255	
4392.052	1	1	0	0	0.22725	0.21899	0.18723	0.13693	0.1273	0.091946	0.3148	0.13044	0.236	0.052167	0.1078	0.16538	0.18924	0.16078	0.16451	0.070877	-2.6771	-3.0167	-2.0792	-3.0062	-2.7833	-2.5646	-3.2625	-2.6604	-2.7125	-2.9583	-2.3563	-3.15	-2.9479	-2.4437	-3.1229	-2.6792	-24.939	58.490	64.554	248.527	50.808	140.863	273.357	130.546	227.262	152.072	206.681	217.755	190.966	198.129	30.080	243.238	7.9118e-05	0.00016868	0.00033883	1107.1	5.1115e-06	5.566e-06	923.52	356.39	1.3417e-05	8.2878e-06	331.53	108.55	111.14	48.745	6.5493e-06	51.441	0.00086753	0.00086304	0.00025386	1013.2	9.4534e-06	1.0047e-05	837.6	323.03	1.0013e-05	9.4492e-06	303.19	101.24	104.37	44.716	9.505e-06	47.531	158.439	247.598	13.591	-73.231	22.553	86.631	-73.774	-68.304	-0.204	76.269	-70.460	-65.913	-63.981	-58.458	-5.732	-61.926	-8191	255	
4392.148	1	1	0	0	0.15608	0.038203	0.11347	0.05867	0.062935	0.15606	0.35127	0.066896	0.20047	0.03383	0.21634	0.074637	0.13999	0.25464	0.023986	0.15154	-2.4188	-3.1521	-2.5229	-3.1104	-2.8854	-2.4229	-3.3104	-2.6354	-2.5833	-3.0604	-2.5521	-2.9813	-2.9271	-2.3396	-3.1979	-2.6958	139.155	19.154	156.520	247.071	184.370	109.662	250.106	137.215	232.996	-33.247	-26.246	-64.191	6.343	-72.038	50.253	-17.115	0.00016119	0.00034735	0.00044695	1109	1.2025e-05	7.846e-06	923.93	358.37	2.3127e-06	3.9791e-06	331.09	110.88	113.05	49.79	5.1341e-06	52.169	0.00088772	0.00088407	0.00025881	1015.9	9.6099e-06	1.046e-05	842.52	325.05	1.0327e-05	9.8124e-06	304.38	102.64	105.49	45.5	9.6213e-06	48.007	177.117	210.310	-7.816	-73.246	160.023	0.239	-74.027	-68.080	189.317	85.724	-69.917	-66.223	-64.023	-58.693	-40.828	-61.537	-8191	255	
4392.244	1	1	0	0	0.17833	0.21271	0.17819	0.11942	0.043485	0.12883	0.25586	0.29373	0.067212	0.17761	0.061524	0.12176	0.043717	0.25543	0.061854	0.019418	-2.1458	-3.1083	-2.3792	-3.0438	-3.0667	-2.3875	-3.1979	-2.7771	-2.6542	-3.1875	-2.55	-2.9042	-3.0375	-2.4042	-3.0062	-2.8042	35.497	-3.254	151.226	-28.319	269.781	228.521	218.896	221.010	-2.399	41.358	174.391	266.620	179.653	255.895	223.945	52.564	0.00028597	0.00071277	0.00018739	1112.3	3.2957e-06	1.0701e-05	929.8	360.47	9.0284e-06	5.7102e-06	331.72	108.78	111.41	49.286	4.9905e-06	51.647	0.00088988	0.00086928	0.00025237	1023.3	9.5593e-06	1.0339e-05	842.77	324.65	1.003e-05	9.7504e-06	303.33	101.43	104.89	44.86	9.5303e-06	47.465	145.285	-14.941	9.319	-73.384	108.842	27.603	-74.140	-68.294	259.185	-7.905	-70.222	-65.722	-63.797	-58.656	51.634	-61.596	-8191	255	
4392.340	1	1	0	0	0.17	0.1723	0.084944	0.28827	0.31768	0.12038	0.20001	0.10875	0.18757	0.089125	0.15548	0.083498	0.23481	0.1594	0.17518	0.055751	-1.9979	-3.0979	-2.6875	-2.9437	-3.0021	-2.4062	-3.1813	-2.9188	-2.1937	-3.1333	-2.6833	-2.7854	-3.2771	-2.525	-3.0229	-3.0208	16.923	185.762	39.062	240.312	25.832	132.964	-57.781	-32.286	-28.847	200.428	197.644	-31.387	265.596	220.036	187.797	14.806	0.00024031	0.00082325	7.7503e-05	1095.9	9.7662e-07	2.463e-06	928.79	355.42	3.4365e-06	3.0575e-06	329.25	108.88	111.1	48.961	6.0794e-07	51.407	0.00087345	0.00085284	0.00023977	1015.7	9.084e-06	9.8662e-06	841.8	321.28	9.877e-06	9.4362e-06	302.19	100.88	103.83	44.416	9.7913e-06	47.08	172.591	-38.411	-21.948	-72.817	168.148	31.075	-73.716	-68.313	250.311	189.058	-70.832	-65.575	-63.116	-58.607	74.252	-61.549	-8191	255	
4392.436	1	1	0	0	0.053069	0.13995	0.050129	0.10387	0.28615	0.1961	0.098546	0.11843	0.20033	0.092085	0.11996	0.38035	0.07661	0.22318	0.31413	0.18518	-1.9958	-3.0625	-2.5312	-2.6479	-3.1188	-2.3354	-2.9167	-2.9292	-2.3	-3.2083	-2.6646	-2.7542	-3.1583	-2.3812	-2.8937	-3.0167	10.920	64.405	173.545	255.569	222.937	146.770	139.179	219.081	-24.387	242.033	150.190	166.175	-31.816	-70.673	-81.940	257.267	0.0002267	0.00098217	0.00020448	1103.3	1.0594e-05	3.1773e-06	920.33	356.88	2.0499e-06	2.5671e-06	327.34	108.86	110.34	48.617	5.6605e-06	51.656	0.0008917	0.0008591	0.00024461	1014.3	9.169e-06	9.5681e-06	837.81	320.93	9.6544e-06	9.1774e-06	299.6	101.11	103.34	44.404	9.1657e-06	47.508	149.084	185.438	48.368	-73.290	33.435	187.925	-73.860	-68.102	59.739	221.280	-70.060	-65.638	-64.145	-58.557	5.160	-61.462	-8191	255	
4392.533	1	1	0	0	0.031855	0.049705	0.076591	0.20032	0.15081	0.051895	0.14916	0.38492	0.1731	0.10805	0.095913	0.32897	0.11081	0.25818	0.19777	0.15347	-1.9083	-3.025	-2.6333	-2.675	-3.2083	-2.4896	-2.8	-3.1063	-2.3083	-3.1125	-2.9292	-2.5729	-3.3583	-2.6458	-2.8521	-3.2521	127.861	-0.450	16.153	269.254	187.206	254.709	263.867	246.700	-58.716	177.336	165.325	266.035	42.195	-80.631	136.639	0.189	0.00024172	0.0005187	0.00026683	1106.3	1.5951e-06	6.8448e-06	926.66	357.28	2.2011e-06	5.7485e-06	333.32	110.34	112.13	48.542	5.8517e-06	51.938	0.00083444	0.00083904	0.00022622	1010	9.0055e-06	9.3284e-06	843.88	321.42	9.4308e-06	9.1532e-06	301.81	101.78	103.8	44.258	9.227e-06	47.465	153.883	-78.925	54.209	-73.112	113.450	43.754	-73.948	-68.077	-67.580	101.575	-70.792	-65.472	-63.807	-58.754	101.710	-61.432	-8191	255	
4392.629	1	1	0	0	0.14994	0.21366	0.20302	0.12404	0.19499	0.10052	0.19412	0.096022	0.056057	0.15168	0.032283	0.067184	0.11235	0.29654	0.15873	0.29628	-1.8458	-3.0917	-2.7208	-2.5167	-3.0854	-2.5854	-2.8271	-3.2479	-2.4771	-2.9833	-3.0458	-2.3354	-3.2104	-2.5771	-2.6979	-3.1333	117.859	270.213	192.357	271.494	136.637	225.895	172.670	199.125	-26.702	-50.908	208.514	205.343	-53.598	223.495	107.974	187.851	0.00029574	0.0008969	5.3525e-05	1107.8	5.6911e-06	8.4499e-06	924.7	355.48	1.0604e-05	9.2491e-06	329.8	108.27	109.84	48.331	9.3542e-06	50.715	0.0008293	0.00082653	0.00022575	1013.8	9.015e-06	9.2747e-06	843.11	319.61	9.3049e-06	9.1631e-06	299.67	100.47	102.43	43.875	9.2631e-06	46.721	143.091	-78.897	158.110	-73.105	-73.452	72.342	-74.151	-68.468	71.385	80.350	-70.385	-65.653	-63.564	-58.400	100.741	-61.135	-8191	255	
4392.749	1	1	0	0	0.19861	0.17742	0.10317	0.12072	0.10455	0.20185	0.24791	0.30962	0.077903	0.11841	0.17935	0.3334	0.10459	0.23192	0.15147	0.06663	-2.1167	-3.0604	-3.0042	-2.6646	-3.1771	-2.7438	-2.6437	-3.4271	-2.475	-2.8458	-2.975	-2.2958	-3.1479	-2.6854	-2.5542	-3.1417	41.211	218.996	190.998	156.834	10.300	234.795	182.771	210.283	254.575	30.684	-85.760	242.029	77.880	171.700	256.160	18.716	0.00019062	0.00070908	0.00021032	1105.6	2.8691e-06	3.024e-06	926.82	358.27	7.1577e-06	1.5962e-06	326.24	107.77	110.45	48.149	6.9628e-06	51.275	0.00082959	0.00084637	0.00023413	1015.3	9.4568e-06	9.4787e-06	843.46	322.29	9.8524e-06	9.8961e-06	299.89	100.33	103.58	43.92	9.8818e-06	46.915	180.588	19.686	-0.745	-73.106	-11.300	29.592	-73.873	-67.981	65.919	127.145	-70.504	-65.734	-63.460	-58.291	120.886	-61.544	-8191	255	
4392.844	1	1	0	0	0.046658	0.054583	0.25863	0.046754	0.24732	0.25149	0.095419	0.19626	0.34637	0.074422	0.1646	0.10166	0.068312	0.34672	0.08285	0.066272	-2.0833	-2.8458	-2.9583	-2.3542	-3.0125	-2.8146	-2.5792	-3.2583	-2.4375	-2.6937	-3.1542	-2.425	-2.9667	-2.8688	-2.3812	-3.2875	82.656	29.482	234.868	49.676	31.695	47.086	213.552	240.787	-19.620	219.563	86.973	248.838	-5.861	234.323	-13.972	237.023	8.0046e-05	0.00066944	0.00016923	1112.4	9.8113e-06	2.7273e-06	924.04	357.71	6.6462e-06	5.3925e-06	330.24	108.51	111.76	48.529	8.0984e-06	51.165	0.00083041	0.00088068	0.00023386	1018.8	9.4493e-06	9.1758e-06	843.02	322.25	9.5025e-06	9.7945e-06	301.44	100.49	104.03	43.975	1.0031e-05	47.288	201.361	79.476	-74.455	-73.401	241.793	227.551	-73.749	-68.057	86.971	95.782	-70.021	-65.786	-63.637	-58.731	133.380	-61.156	-8191	255	
4392.940	1	1	0	0	0.41637	0.24211	0.098033	0.0051265	0.28688	0.23781	0.21231	0.18881	0.17534	0.12576	0.083728	0.078927	0.094974	0.14453	0.41568	0.12611	-2.0271	-2.6896	-3.1437	-2.2438	-3.0083	-2.8583	-2.5896	-3.3896	-2.6542	-2.5938	-3.3	-2.4938	-2.9125	-2.9021	-2.3208	-3.2583	134.700	-28.989	193.227	101.796	212.633	257.169	202.239	-58.950	235.332	164.072	0.282	121.030	-58.714	-57.985	-42.595	145.881	0.00018145	0.00072013	0.00026009	1099.9	4.2101e-06	1.921e-05	921.66	356.67	1.1496e-05	4.494e-06	328.04	109.81	111.59	48.465	5.0933e-06	52.099	0.00084654	0.00089545	0.00023503	1016.7	9.4895e-06	9.3724e-06	842.85	322.64	9.2918e-06	9.8005e-06	301.97	101.48	104.32	44.157	9.7647e-06	47.633	173.786	76.636	84.040	-73.450	-53.975	39.864	-73.418	-68.173	-9.600	248.894	-70.052	-65.640	-63.304	-58.459	55.831	-61.405	-8191	255	
4393.013	1	1	0	0	0.33051	0.1147	0.0668	0.035197	0.13359	0.29422	0.13159	0.1344	0.06347	0.12551	0.14023	0.12715	0.14272	0.13134	0.19955	0.17725	-2.1271	-2.525	-3.175	-2.5333	-2.8417	-3.0563	-2.7271	-3.3521	-2.7313	-2.6312	-3.2104	-2.5542	-2.7562	-3.0958	-2.2708	-3.2667	201.699	-45.643	-3.561	238.022	215.452	41.487	136.913	159.208	120.442	129.276	267.853	-42.625	-28.371	242.955	218.587	210.070	0.00012334	0.0011881	0.00015544	1112.6	9.0674e-06	8.3688e-06	922.43	356.45	8.3072e-06	1.1726e-05	327.07	108.7	111.38	48.204	5.229e-06	50.669	0.00082705	0.00089894	0.00023669	1017.4	9.6746e-06	9.2885e-06	839.32	321.97	9.3292e-06	1.0074e-05	300.8	100.69	103.98	43.873	9.8542e-06	47	182.692	-42.866	58.947	-72.832	116.617	138.074	-73.733	-67.960	-50.237	40.335	-70.168	-65.384	-63.596	-58.357	98.325	-60.907	-8191	255	
4393.132	1	1	0	0	0.19342	0.24706	0.17199	0.10686	0.24066	0.17539	0.43274	0.27423	0.29336	0.11897	0.26531	0.096382	0.21673	0.23477	0.09108	0.14707	-2.4333	-2.4938	-3.1042	-2.6958	-2.7833	-2.9729	-2.3438	-3.2687	-2.9938	-2.425	-3.2042	-2.4875	-2.7083	-2.9979	-2.4604	-3.0729	189.558	71.274	-83.755	236.170	163.335	-26.282	220.352	244.450	202.731	64.781	-84.901	180.815	249.345	176.951	4.105	230.567	0.00017168	0.00071662	8.3686e-05	1098.7	3.1012e-06	6.3332e-06	917.57	354.6	5.977e-06	1.6685e-06	325.61	107.87	110.67	47.913	8.9317e-06	50.504	0.00082212	0.00091495	0.0002373	1008.9	9.6587e-06	9.3078e-06	835.65	320.22	9.3177e-06	9.9209e-06	298.38	99.846	103.43	43.723	9.8145e-06	46.687	111.929	27.810	167.123	-72.395	202.484	105.428	-73.552	-68.223	53.438	190.092	-70.302	-65.766	-63.548	-58.139	187.878	-60.862	-8191	255	
4393.228	1	1	0	0	0.30493	0.2159	0.060842	0.12674	0.14494	0.16728	0.19039	0.060675	0.10443	0.11363	0.15566	0.11254	0.088558	0.27162	0.20546	0.081943	-2.7542	-2.3354	-3.3479	-2.7792	-2.65	-3.2333	-2.4979	-3.1063	-2.9708	-2.3854	-3.325	-2.6396	-2.5583	-3.1458	-2.5604	-2.9688	272.761	199.622	251.797	123.484	34.897	36.228	170.492	177.001	258.005	-82.684	109.259	-65.759	-40.921	-70.237	182.576	153.550	0.00017048	0.00019756	0.00033431	1097.6	8.9089e-06	4.5657e-06	921.87	354.63	6.1527e-06	1.6698e-06	327.51	106.92	110.71	48.453	4.3686e-06	50.803	0.0008328	0.00093768	0.0002476	1009.5	1.0223e-05	9.7757e-06	838.72	321.39	9.7435e-06	1.0492e-05	300.36	99.817	104.51	44.024	9.9635e-06	47.078	173.406	245.526	6.361	-72.948	95.263	3.606	-74.247	-67.975	31.137	82.124	-69.976	-65.178	-63.257	-58.871	27.977	-61.219	-8191	255	
4393.324	1	1	0	0	0.073896	0.068588	0.14244	0.26627	0.12493	0.13892	0.14426	0.083474	0.12412	0.08455	0.13977	0.23746	0.10309	0.042257	0.24542	0.1358	-2.6	-2.2812	-3.25	-2.7292	-2.3542	-3.2458	-2.5292	-2.9188	-3.0729	-2.6562	-3.025	-2.8917	-2.6312	-3.4042	-2.2104	-2.8271	81.607	150.466	116.315	212.556	201.964	76.855	-35.414	44.754	273.289	162.666	218.422	236.797	205.488	229.882	100.800	130.569	0.00019701	0.00040438	0.00035073	1111	5.7826e-06	1.7984e-05	931.65	362.05	4.295e-06	1.2818e-05	330.67	108.94	111.5	48.669	9.7191e-06	52.025	0.00084028	0.00094003	0.00024992	1022.8	1.056e-05	9.9594e-06	848.71	327.04	1.0242e-05	1.0903e-05	305.34	101.62	106.15	44.649	1.0786e-05	48.198	149.376	-9.935	104.753	-73.033	76.320	12.578	-73.845	-68.275	-71.262	67.410	-70.169	-66.090	-63.592	-58.436	113.718	-60.985	-8191	255	
4393.421	1	1	0	0	0.014956	0.29042	0.081462	0.014275	0.18327	0.27069	0.15358	0.22813	0.23753	0.038223	0.1174	0.36627	0.17758	0.33018	0.15183	0.39702	-2.7521	-2.2854	-3.125	-2.9583	-2.4604	-3.0104	-2.7917	-2.8479	-2.9979	-2.5167	-3.05	-2.8979	-2.2521	-3.2833	-2.6312	-2.5896	77.661	248.312	-51.492	98.885	122.169	198.464	224.186	206.211	160.840	86.248	82.451	194.437	260.832	262.049	150.590	171.303	8.8657e-05	0.001081	0.0002648	1118.3	1.1283e-05	6.4667e-06	925.34	360.55	9.7235e-06	5.1979e-06	330.86	108.69	111.77	48.487	6.9946e-06	50.83	0.00091401	0.0010071	0.00027099	1029.3	1.108e-05	1.0559e-05	848.33	327.05	1.0352e-05	1.0916e-05	305.52	101.54	106.21	44.388	1.0652e-05	47.37	191.936	46.204	-9.072	-72.995	-21.910	4.899	-74.121	-68.052	25.291	134.532	-70.305	-65.712	-63.444	-58.369	165.844	-61.486	-8191	255	
#DATA ENDS
