BOXY.EXE: ISS Imagent and Oximeter Data Acquisition Program Version 0.80
Ascii Record File

#ACQ INFORMATION
2  Detector Channels 
16  External MUX Channels 
1  Auxiliary Channels 
5000  Waveform (CCF) Frequency (Hz)
1  Waveforms Skipped 
30  Waveforms Averaged 
1  Cycles Averaged 
16  Acquisitions per Waveform 
10.0806  Updata Rate (Hz) 

#FILE INFORMATION
TRUE -- External MUX Channel results are PARSED.
FALSE -- AC DC and Phase are NOT grouped.
TRUE -- Companion Program Settings File CREATED.
FALSE -- AC data not excluded
FALSE -- DC data not excluded
FALSE -- Phase data not excluded
FALSE -- Auxillary Chn. data not excluded
Tab delimiters

#CALIBRATION STATE
TRUE -- Waveform Calibration Values APPLIED.


#AUX CALIBRATION VALUES
Val Type	aux-1	

Term	1.0000e+00	
Factor	0.0000e+00	


#WF CALIBRATION VALUES
A = Detector Channel
Val Type	A-AC1	A-AC2	A-AC3	A-AC4	A-AC5	A-AC6	A-AC7	A-AC8	A-AC9	A-AC10	A-AC11	A-AC12	A-AC13	A-AC14	A-AC15	A-AC16	A-DC1	A-DC2	A-DC3	A-DC4	A-DC5	A-DC6	A-DC7	A-DC8	A-DC9	A-DC10	A-DC11	A-DC12	A-DC13	A-DC14	A-DC15	A-DC16	A-Ph1	A-Ph2	A-Ph3	A-Ph4	A-Ph5	A-Ph6	A-Ph7	A-Ph8	A-Ph9	A-Ph10	A-Ph11	A-Ph12	A-Ph13	A-Ph14	A-Ph15	A-Ph16	

Term	0.00000e+00	0.00000e+00	0.00000e+00	0.00000e+00	0.00000e+00	0.00000e+00	0.00000e+00	0.00000e+00	0.00000e+00	0.00000e+00	0.00000e+00	0.00000e+00	0.00000e+00	0.00000e+00	0.00000e+00	0.00000e+00	0.00000e+00	0.00000e+00	0.00000e+00	0.00000e+00	0.00000e+00	0.00000e+00	0.00000e+00	0.00000e+00	0.00000e+00	0.00000e+00	0.00000e+00	0.00000e+00	0.00000e+00	0.00000e+00	0.00000e+00	0.00000e+00	0.00000e+00	0.00000e+00	0.00000e+00	0.00000e+00	0.00000e+00	0.00000e+00	0.00000e+00	0.00000e+00	0.00000e+00	0.00000e+00	0.00000e+00	0.00000e+00	0.00000e+00	0.00000e+00	0.00000e+00	0.00000e+00	
Factor	1.00000e+00	1.00000e+00	1.00000e+00	1.00000e+00	1.00000e+00	1.00000e+00	1.00000e+00	1.00000e+00	1.00000e+00	1.00000e+00	1.00000e+00	1.00000e+00	1.00000e+00	1.00000e+00	1.00000e+00	1.00000e+00	1.00000e+00	1.00000e+00	1.00000e+00	1.00000e+00	1.00000e+00	1.00000e+00	1.00000e+00	1.00000e+00	1.00000e+00	1.00000e+00	1.00000e+00	1.00000e+00	1.00000e+00	1.00000e+00	1.00000e+00	1.00000e+00	X	X	X	X	X	X	X	X	X	X	X	X	X	X	X	X	

B = Detector Channel
Val Type	B-AC1	B-AC2	B-AC3	B-AC4	B-AC5	B-AC6	B-AC7	B-AC8	B-AC9	B-AC10	B-AC11	B-AC12	B-AC13	B-AC14	B-AC15	B-AC16	B-DC1	B-DC2	B-DC3	B-DC4	B-DC5	B-DC6	B-DC7	B-DC8	B-DC9	B-DC10	B-DC11	B-DC12	B-DC13	B-DC14	B-DC15	B-DC16	B-Ph1	B-Ph2	B-Ph3	B-Ph4	B-Ph5	B-Ph6	B-Ph7	B-Ph8	B-Ph9	B-Ph10	B-Ph11	B-Ph12	B-Ph13	B-Ph14	B-Ph15	B-Ph16	

Term	0.00000e+00	0.00000e+00	0.00000e+00	0.00000e+00	0.00000e+00	0.00000e+00	0.00000e+00	0.00000e+00	0.00000e+00	0.00000e+00	0.00000e+00	0.00000e+00	0.00000e+00	0.00000e+00	0.00000e+00	0.00000e+00	0.00000e+00	0.00000e+00	0.00000e+00	0.00000e+00	0.00000e+00	0.00000e+00	0.00000e+00	0.00000e+00	0.00000e+00	0.00000e+00	0.00000e+00	0.00000e+00	0.00000e+00	0.00000e+00	0.00000e+00	0.00000e+00	-1.55621e+02	-1.24518e+02	-1.31563e+02	-1.86928e+02	-8.61065e+01	-8.09538e+01	-1.58580e+02	-1.62015e+02	-9.05556e+01	-5.18402e+01	-1.71958e+02	-1.71373e+02	-1.84090e+02	-1.77418e+02	-5.60760e+01	-1.49892e+02	
Factor	2.32733e-05	1.42972e-04	3.50683e-05	3.05204e-01	1.19204e-06	1.37942e-06	1.67467e-01	5.21981e-02	1.31927e-06	1.23116e-06	8.50871e-02	2.82555e-02	4.13559e-02	9.14115e-03	1.20639e-06	1.30226e-02	1.85266e-06	1.96068e-06	5.46078e-07	1.54168e-01	2.14539e-08	2.15340e-08	8.10941e-02	2.69203e-02	2.14088e-08	2.15808e-08	4.22580e-02	1.40733e-02	2.10731e-02	4.71898e-03	2.14232e-08	6.49031e-03	X	X	X	X	X	X	X	X	X	X	X	X	X	X	X	X	



#DISTANCE SETTINGS
A = Detector Channel
A-1	A-2	A-3	A-4	A-5	A-6	A-7	A-8	A-9	A-10	A-11	A-12	A-13	A-14	A-15	A-16	

2.5000e+00	3.0000e+00	2.5000e+00	3.0000e+00	2.0000e+00	3.0000e+00	1.5000e+00	3.0000e+00	3.0000e+00	3.0000e+00	3.0000e+00	3.0000e+00	3.0000e+00	3.0000e+00	1.5000e+00	3.0000e+00	

B = Detector Channel
B-1	B-2	B-3	B-4	B-5	B-6	B-7	B-8	B-9	B-10	B-11	B-12	B-13	B-14	B-15	B-16	

1.0000e+01	1.0000e+01	1.0000e+01	1.4400e+00	1.0000e+01	1.0000e+01	1.5100e+00	1.9400e+00	1.0000e+01	1.0000e+01	1.9900e+00	2.4900e+00	2.4100e+00	2.9000e+00	1.0000e+01	2.9800e+00	




#DATA BEGINS
time	group	step	mark	flag	A-AC1	A-AC2	A-AC3	A-AC4	A-AC5	A-AC6	A-AC7	A-AC8	A-AC9	A-AC10	A-AC11	A-AC12	A-AC13	A-AC14	A-AC15	A-AC16	A-DC1	A-DC2	A-DC3	A-DC4	A-DC5	A-DC6	A-DC7	A-DC8	A-DC9	A-DC10	A-DC11	A-DC12	A-DC13	A-DC14	A-DC15	A-DC16	A-Ph1	A-Ph2	A-Ph3	A-Ph4	A-Ph5	A-Ph6	A-Ph7	A-Ph8	A-Ph9	A-Ph10	A-Ph11	A-Ph12	A-Ph13	A-Ph14	A-Ph15	A-Ph16	B-AC1	B-AC2	B-AC3	B-AC4	B-AC5	B-AC6	B-AC7	B-AC8	B-AC9	B-AC10	B-AC11	B-AC12	B-AC13	B-AC14	B-AC15	B-AC16	B-DC1	B-DC2	B-DC3	B-DC4	B-DC5	B-DC6	B-DC7	B-DC8	B-DC9	B-DC10	B-DC11	B-DC12	B-DC13	B-DC14	B-DC15	B-DC16	B-Ph1	B-Ph2	B-Ph3	B-Ph4	B-Ph5	B-Ph6	B-Ph7	B-Ph8	B-Ph9	B-Ph10	B-Ph11	B-Ph12	B-Ph13	B-Ph14	B-Ph15	B-Ph16	aux-1	digaux	

4401.775	1	1	0	256	0.31738	0.27052	0.22245	0.27133	0.097429	0.16571	0.3019	0.20104	0.10206	0.22798	0.27369	0.068034	0.2241	0.051029	0.13932	0.28864	-2.5625	-2.3438	-2.9667	-2.7	-2.5312	-3.1625	-2.6167	-2.675	-3.1792	-2.1896	-3.0708	-2.9333	-2.3875	-3.2625	-2.5396	-2.6833	-0.288	-35.446	33.870	-52.907	77.564	-31.713	189.357	219.251	266.909	242.829	176.599	61.185	150.865	-46.823	21.155	-72.632	8.1025e-05	0.00059064	0.00019889	753.69	2.6211e-06	1.915e-06	670.2	227.2	4.0522e-06	4.7646e-06	218.79	60.596	62.91	23.005	5.9072e-06	24.725	0.00050008	0.00057203	0.00015074	683.73	6.19e-06	5.8838e-06	603.21	205.99	5.6121e-06	6.001e-06	198.66	56.129	59.941	21.105	5.576e-06	23.252	133.361	83.557	30.638	-73.535	178.582	43.396	-74.491	-67.897	215.269	40.423	-71.121	-66.514	-64.424	-58.130	273.504	-61.920	-8191	255	
4401.871	1	1	0	0	0.32401	0.18337	0.12467	0.16242	0.2178	0.04371	0.26752	0.096321	0.27431	0.16015	0.13294	0.092953	0.12727	0.15343	0.026979	0.2208	-2.7438	-2.375	-2.8583	-2.9188	-2.2438	-3.0146	-2.6	-2.5167	-2.9833	-2.4458	-2.7438	-2.9917	-2.1583	-3.0729	-2.8271	-2.4813	4.227	-56.911	94.902	272.950	-63.499	231.411	214.686	237.873	-55.246	183.295	-0.143	166.858	-45.206	49.654	247.667	203.978	1.3508e-05	0.0011098	0.00018568	753.27	7.5779e-06	8.2656e-06	666	227.52	9.1619e-06	5.2539e-06	216.24	60.752	63.377	22.954	5.672e-06	25.07	0.000485	0.00054313	0.0001502	678.18	6.1342e-06	5.7637e-06	597.7	205.47	5.5869e-06	5.8315e-06	198.03	56.16	60.112	21.179	5.529e-06	23.528	81.901	-39.894	60.115	-73.275	52.431	12.586	-74.860	-68.128	90.191	-52.308	-70.876	-66.353	-63.540	-57.607	176.319	-61.455	-8191	255	
4401.968	1	1	0	0	0.1562	0.11504	0.20214	0.13444	0.10624	0.23029	0.3935	0.13999	0.084115	0.25034	0.12611	0.16993	0.14208	0.10667	0.35276	0.26524	-2.6521	-2.3833	-2.7292	-3.1208	-2.3667	-3.0104	-2.8167	-2.4458	-3.2771	-2.4646	-2.6083	-2.8625	-2.4417	-2.9313	-2.7896	-2.4292	16.959	-28.647	196.311	-54.154	-59.868	-22.194	193.818	-9.753	-34.763	71.850	236.646	156.678	43.270	199.800	-51.284	156.984	0.00012234	0.0013842	0.00022356	752.93	6.3926e-06	1.28e-06	666.27	230.07	3.351e-06	1.059e-05	216.35	60.704	64.394	23.158	9.6513e-07	25.191	0.00048243	0.00051562	0.00014727	681.63	5.9436e-06	5.7137e-06	599.74	206.22	5.5091e-06	5.687e-06	198.37	56.328	60.611	21.341	5.4627e-06	23.496	-3.395	-15.797	-31.403	-73.541	203.716	232.280	-75.126	-67.880	1.327	118.106	-71.005	-66.701	-63.581	-58.026	-45.716	-61.050	-8191	255	
4402.064	1	1	0	0	0.20965	0.072884	0.2432	0.1923	0.23717	0.2527	0.25712	0.25026	0.20898	0.098258	0.04658	0.045288	0.041027	0.16833	0.20002	0.20273	-2.7625	-2.4562	-2.4188	-3.2354	-2.3792	-2.8563	-3.0021	-2.4	-3.175	-2.4292	-2.6229	-3.25	-2.2667	-2.8125	-2.8292	-2.2667	0.595	-9.294	227.547	-78.539	235.386	157.274	-69.170	-15.848	236.964	91.075	88.113	110.400	-2.970	204.047	-6.131	204.428	0.0001871	0.00088197	0.00010166	747.96	4.5648e-06	6.3688e-06	668.67	229.98	1.3566e-06	8.3545e-06	217.91	61.479	63.612	23.155	7.0579e-06	24.643	0.00048453	0.00050531	0.00014707	677.73	5.5879e-06	5.4434e-06	597.49	207.02	5.1859e-06	5.2013e-06	198.36	56.404	60.109	21.185	5.1432e-06	22.975	141.619	-38.676	-35.405	-73.206	0.485	66.361	-74.662	-68.008	262.979	57.367	-71.035	-67.148	-63.715	-57.754	-84.917	-62.207	-8191	255	
4402.160	1	1	0	0	0.18797	0.063885	0.07486	0.14135	0.043966	0.072026	0.059333	0.12525	0.098082	0.2532	0.23283	0.096385	0.20511	0.19768	0.082991	0.13308	-2.6604	-2.7188	-2.5979	-3.1813	-2.4188	-2.8833	-3.0958	-2.4792	-3.0354	-2.5854	-2.5062	-3.2625	-2.4604	-2.675	-3.0417	-2.375	-46.488	235.311	149.496	228.709	263.872	125.399	148.993	201.121	22.788	153.272	-79.101	250.419	143.401	-75.184	23.629	-0.967	4.7474e-05	0.0010684	0.00030057	737.42	5.5618e-06	9.2703e-07	652.78	227.57	3.1132e-06	3.8455e-06	214.68	60.45	63.801	23.008	3.347e-06	25.032	0.00047174	0.0004869	0.00014743	671.43	5.56e-06	5.6357e-06	590.9	204.8	5.4066e-06	5.2755e-06	197.07	55.826	59.707	21.216	5.1147e-06	23.1	98.857	-0.237	-54.512	-73.496	168.212	196.008	-74.362	-67.887	97.406	109.310	-71.109	-66.352	-63.973	-57.683	89.145	-61.402	-8191	255	
4402.256	1	1	0	0	0.063966	0.29873	0.11938	0.063996	0.074415	0.17925	0.15951	0.30658	0.13718	0.093279	0.20653	0.16508	0.04387	0.28779	0.3658	0.18378	-2.6917	-2.7062	-2.5083	-3.1312	-2.4562	-2.6521	-3.0229	-2.4208	-2.9521	-2.8187	-2.45	-3.15	-2.5646	-2.5125	-3.025	-2.3667	35.262	164.460	16.549	140.682	18.714	-2.328	154.572	200.469	-42.881	101.608	219.773	-43.960	-11.973	-63.465	131.358	241.993	0.00012749	0.00030329	2.3356e-05	743.13	2.2281e-06	7.0547e-06	653.75	227.02	3.8262e-06	9.8174e-06	211.22	60.225	63.863	23.116	4.3935e-06	24.803	0.00047094	0.00047367	0.00014543	675.09	5.4726e-06	5.7951e-06	588.41	203.92	5.6446e-06	5.3457e-06	193.66	55.472	59.806	21.412	5.2457e-06	23.227	144.373	98.574	125.267	-72.871	171.462	166.265	-74.512	-68.288	230.453	58.083	-70.887	-67.243	-63.521	-58.365	-3.147	-61.496	-8191	255	
4402.377	1	1	0	0	0.30373	0.3585	0.18846	0.13702	0.26909	0.19992	0.066649	0.49618	0.18704	0.033802	0.36217	0.1409	0.20806	0.21564	0.19365	0.30138	-2.4521	-2.8563	-2.3125	-3.1583	-2.5708	-2.4229	-3.0979	-2.3729	-2.8312	-2.975	-2.3333	-3.0271	-2.5271	-2.3042	-3.0833	-2.2812	-0.667	238.495	196.326	200.735	-44.927	195.288	220.094	241.428	110.922	157.581	-40.847	65.510	235.225	223.208	-83.336	204.638	0.00011521	0.00090367	0.00018599	753.01	6.3881e-06	1.3413e-05	654.41	227.85	4.4558e-06	5.1414e-06	214.2	59.589	64.275	23.47	8.3002e-06	25.199	0.00047687	0.00047479	0.00014264	674.91	5.3216e-06	5.7013e-06	587.93	204.87	5.6485e-06	5.3901e-06	194.7	55.569	60.363	21.746	5.5675e-06	23.456	170.206	-44.707	115.652	-73.069	34.380	40.022	-74.588	-68.233	82.576	-83.973	-71.109	-65.835	-63.418	-57.324	57.448	-61.905	-8191	255	
4402.471	1	1	0	0	0.28807	0.16674	0.15972	0.082553	0.084613	0.21796	0.18042	0.16526	0.049713	0.05802	0.15161	0.11046	0.10769	0.21078	0.087559	0.16758	-2.2292	-2.8896	-2.3438	-3.1	-2.5917	-2.5521	-3.0687	-2.3917	-2.7833	-2.9979	-2.2667	-2.9521	-2.6729	-2.3667	-3.1625	-2.5438	195.935	-55.569	-72.714	198.461	12.020	-50.124	71.095	-21.113	10.853	173.807	200.963	235.168	212.127	181.643	-44.065	19.872	0.00010796	0.00022088	0.00027537	748.68	1.3883e-06	6.0384e-06	653.16	226.89	4.0224e-06	3.9806e-06	209.59	60.083	63.987	23.496	4.3483e-06	24.908	0.00050944	0.0004933	0.00015007	681.46	5.3362e-06	5.8547e-06	589.38	204.98	5.6936e-06	5.298e-06	192.42	55.434	59.937	21.722	5.3919e-06	23.021	137.398	36.395	58.161	-73.498	48.339	166.627	-74.181	-67.924	-13.845	-68.517	-70.387	-66.378	-63.461	-57.493	-84.564	-61.640	-8191	255	
4402.567	1	1	0	0	0.035092	0.14323	0.11524	0.070171	0.071369	0.25386	0.18913	0.17818	0.14538	0.10797	0.23384	0.1095	0.28342	0.17923	0.20971	0.099509	-2.3688	-3.1708	-2.3729	-3.0396	-2.8563	-2.4542	-3.0771	-2.6083	-2.5604	-3	-2.3042	-3.0792	-2.8937	-2.4521	-3.0792	-2.6312	-5.430	125.526	128.394	99.401	241.288	168.051	131.311	184.512	-40.060	260.112	242.003	177.785	160.724	-3.843	238.330	257.775	0.00021216	0.00048347	0.0001168	747.19	5.5099e-06	4.3392e-06	649.67	227.22	4.0025e-06	8.3425e-06	208.02	59.271	64.612	23.633	8.2431e-06	24.39	0.00050763	0.00048231	0.00014451	680.7	5.2536e-06	5.7117e-06	581.63	203.7	5.7065e-06	5.2068e-06	189.69	54.787	59.854	21.58	5.2847e-06	22.684	213.788	-59.946	188.269	-73.330	-33.851	-0.915	-74.701	-67.814	148.052	95.787	-70.835	-66.065	-63.323	-58.571	78.694	-61.613	-8191	255	
4402.663	1	1	0	0	0.070884	0.076659	0.14502	0.093901	0.22789	0.38291	0.33077	0.16736	0.22384	0.15711	0.10001	0.36213	0.21301	0.25573	0.053311	0.07389	-2.1604	-2.9021	-2.2375	-2.8896	-2.8708	-2.4	-3.1437	-2.6521	-2.4583	-3.2938	-2.5042	-2.7417	-3.2354	-2.3604	-2.9833	-2.6375	144.325	-48.901	76.089	235.175	-12.950	-84.305	215.826	248.997	189.916	107.013	-48.288	238.484	272.779	133.635	103.221	-26.461	5.3047e-05	0.00047863	0.00024165	749.44	1.747e-06	2.4152e-06	640.33	229.38	5.8912e-06	3.9361e-06	210.36	59.384	64.298	23.834	9.5973e-06	25.043	0.00049076	0.00048337	0.00014111	677.79	5.201e-06	5.832e-06	577.04	204.46	5.9075e-06	5.4751e-06	190.32	54.973	60.193	21.902	5.7352e-06	23.064	195.087	-15.245	-40.873	-73.193	-57.128	21.261	-74.399	-68.039	189.893	50.671	-71.241	-66.337	-64.047	-57.731	49.149	-62.053	-8191	255	
4402.759	1	1	0	0	0.28693	0.23571	0.099762	0.18014	0.38098	0.10394	0.086879	0.041211	0.1943	0.20722	0.24402	0.17002	0.12492	0.33496	0.42683	0.1668	-1.9146	-3.1625	-2.5354	-2.6896	-3.1271	-2.4104	-3.0396	-2.75	-2.3521	-3.0271	-2.5458	-2.7208	-3.0667	-2.4583	-2.95	-2.9333	104.064	-9.185	260.639	238.465	-33.704	-50.433	252.940	231.705	206.387	143.422	-40.178	206.410	253.941	-75.477	2.268	243.018	0.00023216	0.00049482	0.00020887	752.22	7.4933e-06	8.7513e-06	644.67	230.05	4.3332e-06	7.5281e-06	208.29	60.284	65.385	24.091	3.6556e-06	25.133	0.00052492	0.00049786	0.00014247	683.77	5.4111e-06	5.9921e-06	582.07	206.89	6.0186e-06	5.7496e-06	192.1	55.942	61.258	22.19	5.8977e-06	23.385	251.727	18.036	61.047	-72.842	105.551	31.340	-75.175	-67.954	5.732	84.465	-71.090	-66.685	-63.933	-58.062	69.835	-61.793	-8191	255	
4402.856	1	1	0	0	0.011219	0.30609	0.12089	0.11471	0.17843	0.12951	0.077243	0.19953	0.34478	0.044132	0.32592	0.37528	0.21409	0.12433	0.066949	0.084585	-1.9562	-3.1771	-2.6562	-2.7	-3.1542	-2.5438	-2.975	-2.9146	-2.3875	-3.0479	-2.6188	-2.5083	-3.1875	-2.3146	-2.8625	-2.9792	-17.899	-63.249	-22.618	238.194	115.373	-70.225	174.714	142.423	-12.297	50.229	116.973	-48.475	21.469	96.168	85.671	133.151	0.00016843	0.0010436	9.4095e-05	759.52	1.0594e-05	4.075e-06	644.25	231.14	5.1966e-06	1.0563e-05	209.86	60.901	66.339	24.334	7.1152e-06	25.064	0.00054827	0.00052991	0.00014677	690.46	5.7403e-06	6.1133e-06	584.82	208.71	6.3285e-06	5.9567e-06	192.55	56.555	61.847	22.331	6.1883e-06	23.396	179.382	38.259	235.526	-72.862	95.320	-61.206	-73.959	-67.665	-20.779	-21.969	-71.534	-66.641	-63.225	-57.784	93.543	-61.700	-8191	255	
4402.976	1	1	0	0	0.15848	0.11091	0.14613	0.29374	0.16419	0.18076	0.17319	0.34144	0.26909	0.12953	0.088305	0.16018	0.1987	0.05887	0.12115	0.12393	-1.925	-3.0896	-2.6125	-2.7792	-3.2	-2.2208	-2.7229	-3.0375	-2.5396	-2.9333	-2.6813	-2.4583	-3.1125	-2.2292	-2.7521	-3.1	-7.380	209.653	127.424	260.559	-20.296	-38.922	-77.821	-7.491	90.497	48.754	66.693	-45.931	-18.194	112.404	193.833	121.207	7.5949e-05	0.0013214	0.000109	757.17	4.1116e-06	6.031e-06	645.7	233.73	2.9293e-06	5.5932e-06	212.49	60.841	66.624	24.192	7.0053e-06	25.218	0.00055837	0.00054882	0.00014798	693.96	5.7158e-06	6.057e-06	585.1	209.46	6.4309e-06	6.0456e-06	194.11	56.683	62.363	22.251	6.4013e-06	23.48	252.460	18.362	7.407	-72.841	10.748	68.618	-74.917	-67.851	65.377	13.405	-70.685	-66.469	-63.518	-57.723	133.742	-60.799	-8191	255	
4403.072	1	1	0	0	0.037927	0.06263	0.10585	0.17623	0.047357	0.25703	0.090697	0.055416	0.14219	0.16771	0.22374	0.23479	0.13863	0.28488	0.12609	0.16404	-1.9333	-3.0979	-2.7104	-2.5542	-3.2125	-2.4396	-2.7333	-3.1813	-2.2083	-3.0479	-2.8792	-2.3875	-3.1937	-2.3604	-2.375	-3.1646	-42.681	13.613	98.201	196.774	84.588	-13.306	-75.457	257.498	137.874	54.678	-32.237	137.089	200.232	273.258	19.477	-77.368	9.4928e-05	0.00068456	0.00029396	763.16	4.1547e-06	9.1108e-06	643.18	235.51	6.7722e-06	2.8215e-06	214.48	60.74	66.593	24.468	3.671e-06	25.484	0.00057541	0.00057119	0.00015444	698.82	6.237e-06	6.3215e-06	583.49	211.2	6.6492e-06	6.4433e-06	196.13	57.039	63.093	22.564	6.8905e-06	23.893	206.511	88.708	-34.795	-73.327	50.335	190.557	-74.729	-68.067	154.815	0.410	-71.445	-66.319	-63.945	-57.804	157.846	-61.940	-8191	255	
4403.144	1	1	0	0	0.074603	0.11326	0.18167	0.14307	0.25264	0.24633	0.20094	0.18739	0.19628	0.047683	0.2018	0.20616	0.24699	0.29577	0.30073	0.12868	-2.1021	-2.8229	-2.8333	-2.3604	-3.0333	-2.4833	-2.5917	-3.1104	-2.575	-2.7521	-2.85	-2.4833	-3.1542	-2.6542	-2.425	-3.225	-6.802	37.456	-13.300	-59.219	13.637	-51.439	214.249	6.456	77.009	49.562	242.046	166.179	-0.357	-55.988	-29.271	257.946	0.00014125	0.00031575	0.00011583	769.72	5.2233e-06	5.8945e-06	641.63	234.67	6.7088e-06	1.5496e-06	216.63	61.049	68.187	24.535	2.8984e-06	26.048	0.00059428	0.00062053	0.00016333	702.79	6.4455e-06	6.454e-06	584.7	212.3	6.8228e-06	6.7592e-06	198.64	57.558	63.719	22.703	6.9085e-06	24.147	179.274	65.080	242.008	-73.463	113.490	19.780	-74.059	-67.906	-34.015	139.392	-70.543	-66.053	-63.899	-57.754	165.965	-61.654	-8191	255	
4403.240	1	1	0	0	0.10074	0.1597	0.098867	0.2162	0.1591	0.20599	0.13445	0.046673	0.12041	0.1003	0.10378	0.093973	0.053596	0.12172	0.029394	0.059497	-2.2417	-2.6937	-2.9167	-2.2583	-2.9958	-2.6542	-2.4875	-3.3479	-2.4708	-2.5083	-3.1646	-2.4875	-3.1688	-2.8625	-2.5333	-3.1896	266.682	256.449	92.580	186.447	178.486	97.639	43.418	89.413	210.242	120.019	164.466	7.685	224.272	198.978	139.541	-54.369	0.00015057	0.0010196	0.00021373	761.28	5.5291e-06	6.4902e-06	645.46	236.16	1.1057e-05	6.7281e-06	215.07	60.697	66.083	24.157	5.0853e-06	24.913	0.00057528	0.00061852	0.00016106	698	6.5765e-06	6.4183e-06	587.66	212.43	6.5739e-06	6.7521e-06	197.6	57.212	62.743	22.313	6.8913e-06	23.467	198.287	-10.279	-3.779	-73.431	50.765	-48.577	-74.739	-68.232	248.926	-6.125	-70.542	-65.893	-63.603	-57.693	157.948	-62.094	-8191	255	
4403.336	1	1	0	0	0.20567	0.046376	0.11794	0.25894	0.052896	0.18458	0.11404	0.042325	0.11122	0.17931	0.1789	0.073123	0.095062	0.088392	0.11052	0.22152	-1.9729	-2.6583	-2.9625	-2.4729	-2.9083	-2.8542	-2.4896	-2.9667	-2.4229	-2.4625	-2.9646	-2.2979	-2.9479	-2.9479	-2.4688	-3.1625	30.078	263.802	182.679	208.601	228.311	203.664	232.019	-79.802	153.651	62.251	-40.169	196.597	124.439	156.485	154.443	-62.726	0.00013106	0.00051095	0.00018991	758.61	4.3143e-06	8.2036e-06	644.32	232.16	4.1556e-06	3.3972e-06	214.6	59.209	66.21	24.149	3.6388e-06	24.992	0.00056839	0.00062027	0.00015818	695.24	6.5664e-06	6.2829e-06	585.43	211.16	6.4724e-06	7.012e-06	197.12	56.511	62.876	22.322	6.833e-06	23.499	160.908	43.810	-67.690	-73.485	192.901	94.445	-74.395	-67.824	129.278	-23.083	-70.469	-66.334	-64.036	-58.032	92.730	-61.833	-8191	255	
4403.455	1	1	0	0	0.26772	0.14356	0.19993	0.22355	0.31482	0.10044	0.18641	0.15984	0.076995	0.094369	0.20999	0.098792	0.16772	0.092454	0.21823	0.24568	-2.2417	-2.5646	-3.0708	-2.3063	-3.0438	-2.8229	-2.3104	-3.0563	-2.7021	-2.5042	-3.125	-2.4292	-2.7979	-3.1437	-2.3167	-3.1771	-44.632	232.539	188.911	198.994	6.340	217.688	-25.363	188.016	-34.216	201.996	185.330	232.910	-55.293	166.131	242.253	266.123	0.00019612	0.0012991	0.00014789	757.36	1.2493e-05	2.6843e-06	644.3	232.88	4.1795e-06	4.2332e-06	215.05	60.495	66.604	24.302	8.3636e-06	25.343	0.00055131	0.00062725	0.00016234	693.54	6.6847e-06	6.2431e-06	584.01	211.03	6.3619e-06	6.93e-06	196.72	56.693	63.307	22.445	6.854e-06	23.764	86.803	190.627	-63.630	-73.476	163.953	56.675	-74.438	-68.185	71.733	64.577	-71.195	-66.904	-63.409	-57.373	59.368	-61.935	-8191	255	
4403.551	1	1	0	0	0.23362	0.27885	0.16227	0.13157	0.14762	0.36673	0.13944	0.083227	0.38362	0.24021	0.092849	0.10101	0.08774	0.18806	0.22884	0.18883	-2.2167	-2.375	-3	-2.5021	-2.75	-3.0667	-2.3458	-3.2396	-2.5396	-2.6208	-3.3271	-2.5938	-2.6958	-3.1813	-2.4021	-2.9292	241.509	-71.206	35.044	232.034	165.549	113.436	207.806	-75.466	94.449	-55.541	-56.599	117.738	2.599	129.388	87.075	132.151	0.00013978	0.00073103	2.3074e-05	752.97	4.2127e-06	4.8522e-06	640.8	234.08	7.6397e-06	5.7352e-06	214.29	60.886	67.039	24.172	7.4753e-06	24.918	0.00056485	0.00065624	0.00016597	693.28	6.9989e-06	6.4099e-06	584.44	212.33	6.4922e-06	7.1073e-06	196.37	56.887	63.467	22.529	6.8408e-06	23.622	106.318	-27.737	20.888	-73.658	224.607	32.673	-74.350	-67.988	-4.661	-64.753	-70.876	-66.574	-63.734	-57.697	90.195	-61.472	-8191	255	
4403.648	1	1	0	0	0.22128	0.084542	0.16817	0.10754	0.33544	0.24097	0.20312	0.1067	0.10362	0.052011	0.20086	0.25178	0.21385	0.11027	0.14185	0.070264	-2.3729	-2.2417	-3.1125	-2.575	-2.4958	-2.9625	-2.325	-2.8688	-2.9396	-2.4	-3.1083	-2.7188	-2.4979	-3.25	-2.3708	-2.9125	171.602	85.676	-64.672	-75.078	-50.207	270.339	167.298	172.471	24.739	-49.940	184.823	138.669	28.903	-22.171	49.153	215.750	7.0942e-05	0.0011045	0.00016925	753.42	4.9168e-06	1.1734e-05	638.87	233.74	3.0946e-06	9.4732e-06	212.65	60.308	66.288	24.445	5.4533e-06	25.091	0.0005556	0.00063848	0.00016609	691.97	7.0575e-06	6.5282e-06	583.71	211.38	6.2736e-06	6.9236e-06	195.49	56.554	63.402	22.546	6.6809e-06	23.697	218.833	45.751	-0.945	-73.249	-33.386	30.436	-74.721	-67.778	231.613	53.832	-71.158	-67.067	-63.333	-58.158	-41.221	-61.760	-8191	255	
4403.768	1	1	0	0	0.076289	0.15788	0.042659	0.28183	0.25925	0.1145	0.059695	0.18063	0.1984	0.30196	0.12196	0.1823	0.21673	0.14716	0.12964	0.082905	-2.6562	-2.2667	-2.9917	-2.7583	-2.5354	-3.1188	-2.5208	-2.9396	-2.9125	-2.3521	-3.1854	-2.775	-2.4583	-3.1625	-2.6083	-2.9271	-74.386	216.240	-46.059	-67.904	49.770	179.465	110.682	223.366	31.342	31.742	197.054	-79.333	22.233	214.042	-77.232	4.355	7.9149e-05	0.00064788	0.0003022	757.76	5.2169e-06	7.1088e-06	638.49	236	5.3544e-06	5.826e-06	215.01	60.18	66.053	23.874	5.7748e-06	24.768	0.00053725	0.00060588	0.00016143	691.34	6.6493e-06	6.1651e-06	579.15	212.29	6.1768e-06	6.6104e-06	196.48	56.303	63.247	22.297	6.4388e-06	23.344	114.759	144.246	-24.098	-73.120	44.832	266.960	-74.963	-67.688	200.183	39.198	-71.042	-66.968	-64.433	-57.332	61.822	-61.646	-8191	255	
4403.840	1	1	0	0	0.27569	0.20829	0.21573	0.10894	0.14239	0.066736	0.11513	0.15292	0.1353	0.31476	0.26469	0.11267	0.1818	0.38238	0.12184	0.090628	-2.6333	-2.1792	-2.9896	-2.9542	-2.3667	-3.1625	-2.6229	-2.7313	-3.0729	-2.3833	-3.0458	-2.8354	-2.3979	-3.175	-2.6937	-2.5292	113.919	-57.859	57.604	211.610	102.890	-10.516	-44.451	255.969	256.051	273.940	247.837	14.162	-81.867	212.474	87.315	268.568	4.7626e-05	0.00084033	0.00012667	766.38	5.3509e-07	1.087e-06	638.93	234.25	4.8518e-06	3.574e-06	211.72	59.411	67.708	24.454	2.9831e-06	25.173	0.00055957	0.00062598	0.00016541	693.58	6.8561e-06	6.3273e-06	579.08	211.5	6.1178e-06	6.6415e-06	195.77	56.019	63.894	22.536	6.3467e-06	23.662	107.316	-80.622	51.831	-73.162	131.358	33.847	-74.721	-67.919	122.952	75.409	-70.708	-66.723	-63.736	-57.713	100.109	-61.569	-8191	255	
4403.936	1	1	0	0	0.17977	0.14942	0.087923	0.24974	0.20728	0.21927	0.090949	0.1069	0.12187	0.095847	0.15484	0.23558	0.38039	0.15719	0.13179	0.092119	-2.925	-2.3625	-2.7792	-3.0729	-2.3604	-3.2479	-2.5292	-2.6021	-3.3125	-2.4167	-2.8937	-2.9646	-2.4437	-3.1792	-2.8208	-2.6813	-55.725	126.880	10.946	212.151	162.058	255.699	124.325	260.089	199.923	-14.176	205.282	158.693	-74.167	49.473	28.266	75.878	0.00010983	0.00042996	0.00018	762.06	3.4168e-06	6.0613e-06	641.4	237.44	4.0158e-06	6.5291e-06	216.55	60.674	67.286	24.924	4.6507e-06	25.663	0.00055338	0.00061696	0.0001698	694.24	6.9976e-06	6.5996e-06	581.07	214.45	6.3832e-06	6.7908e-06	198.89	57.083	64.386	22.978	6.551e-06	24.229	8.497	229.202	-29.690	-73.813	63.531	38.604	-74.648	-68.012	-74.061	90.478	-71.113	-66.316	-63.309	-57.626	89.814	-61.857	-8191	255	
4404.057	1	1	0	0	0.060384	0.35558	0.061566	0.22083	0.36664	0.24946	0.42953	0.30636	0.2017	0.14961	0.076446	0.16554	0.30663	0.097539	0.087545	0.32934	-2.8083	-2.5271	-2.7479	-3.0292	-2.4792	-3.25	-2.875	-2.4458	-3.3	-2.4562	-2.8792	-3	-2.4437	-2.875	-2.8	-2.3667	-28.217	238.230	9.049	-49.751	-22.009	134.481	181.532	188.737	100.673	-82.502	133.429	238.367	-76.996	-19.623	200.068	131.145	0.00016117	0.0010375	4.9985e-05	767.73	9.3546e-06	3.2809e-06	645.35	236.28	4.1256e-06	1.7997e-06	213.15	61.341	67.142	24.947	3.2413e-06	25.306	0.00058401	0.00063149	0.0001804	703.46	7.3339e-06	7.0072e-06	586.64	215.44	7.0392e-06	7.2623e-06	198.51	57.568	64.478	23.262	6.9888e-06	24.25	176.434	1.816	89.777	-73.438	72.242	159.219	-74.564	-68.144	-77.788	-26.445	-71.053	-66.955	-63.789	-58.051	138.814	-61.727	-8191	255	
4404.153	1	1	0	0	0.048453	0.34905	0.12246	0.14155	0.2061	0.19082	0.13682	0.23471	0.097767	0.11036	0.12493	0.16264	0.15155	0.20122	0.13337	0.11313	-2.8104	-2.4604	-2.7146	-3.125	-2.4604	-2.8917	-2.9271	-2.4292	-3.0271	-2.6625	-2.6104	-3.2667	-2.3333	-2.9417	-3.0042	-2.5292	-52.127	90.261	229.083	189.461	-56.574	-13.002	262.111	237.817	-2.575	215.276	128.551	234.617	139.054	265.942	185.039	242.536	0.00016672	0.00076064	0.00032796	774.99	7.1356e-06	9.4657e-06	644.58	238.55	9.1402e-06	1.0549e-05	212.69	60.935	66.916	24.735	5.4515e-06	24.88	0.00061255	0.00062977	0.00018295	707.15	7.225e-06	7.0054e-06	583.81	215.76	6.8415e-06	6.9921e-06	197.4	56.664	64.142	22.988	6.7805e-06	23.897	100.516	130.433	28.574	-73.221	27.896	115.492	-74.983	-67.861	4.190	28.116	-70.924	-65.966	-63.731	-57.391	-73.058	-61.300	-8191	255	
4404.249	1	1	0	0	0.22563	0.1771	0.43906	0.094336	0.13043	0.1074	0.33523	0.12463	0.20393	0.18777	0.21819	0.15978	0.23466	0.19871	0.030095	0.20478	-2.7938	-2.7104	-2.5667	-3.2188	-2.3042	-3.0021	-2.9625	-2.525	-3.1625	-2.7479	-2.4062	-3.1417	-2.425	-2.6312	-3.0667	-2.4896	143.002	228.651	84.214	233.485	14.773	-63.249	227.106	143.804	-10.013	48.025	206.185	181.249	205.265	70.871	92.539	-23.771	7.2675e-05	0.00044942	5.8706e-05	763.14	2.657e-06	2.1192e-06	641.83	233.65	7.723e-06	4.2697e-06	213.78	60.619	67.17	24.975	2.604e-06	25.538	0.00061145	0.00062042	0.00019146	700.53	7.1645e-06	7.2981e-06	581.83	213.64	7.1701e-06	7.0416e-06	197.26	56.976	64.355	23.216	6.9712e-06	24.205	202.661	181.125	195.138	-72.989	116.634	12.037	-74.473	-67.465	27.038	157.875	-70.666	-65.790	-63.515	-57.311	135.614	-62.060	-8191	255	
4404.370	1	1	0	0	0.21775	0.18959	0.2971	0.15475	0.19019	0.094622	0.18754	0.17216	0.19305	0.2845	0.31946	0.12103	0.0055184	0.097792	0.1551	0.094295	-2.5083	-2.7625	-2.4188	-3.0771	-2.6792	-2.4854	-2.9792	-2.3958	-3.0646	-2.6875	-2.4771	-3.0958	-2.5625	-2.6583	-3.2562	-2.4583	258.953	-81.221	-43.871	156.022	-12.660	-52.157	159.135	250.231	200.456	212.800	197.850	221.888	167.360	57.648	254.095	130.403	9.6944e-05	0.00033696	0.00013406	765.01	3.9818e-06	3.9681e-06	641.18	236.72	1.8855e-05	8.743e-06	214.77	60.818	66.907	25.1	1.0883e-05	25.616	0.00062932	0.00063675	0.00019152	703.27	6.9081e-06	7.2345e-06	584.95	215.22	6.9271e-06	6.6796e-06	199.49	57.294	63.974	23.257	6.8964e-06	24.078	73.389	211.708	22.454	-72.943	40.108	190.017	-74.338	-67.769	68.361	53.777	-70.434	-66.215	-63.165	-57.233	139.810	-61.513	-8191	255	
4404.441	1	1	0	0	0.24003	0.12657	0.16718	0.14172	0.17219	0.10723	0.1842	0.1472	0.16686	0.25526	0.14456	0.12364	0.14701	0.088874	0.14538	0.10089	-2.4688	-2.9229	-2.3646	-3.0583	-2.7021	-2.5458	-3.1792	-2.4042	-2.8875	-2.8833	-2.4083	-3.0521	-2.8292	-2.4	-3.2313	-2.5542	142.596	192.375	128.056	214.895	77.584	194.754	234.515	209.317	211.115	-24.638	259.796	173.089	184.335	184.042	-73.564	262.669	9.9975e-05	0.00057995	0.00015404	768.96	7.5918e-06	6.836e-06	642.26	235.18	6.3492e-06	6.3556e-06	212.46	59.667	67.074	24.732	6.2991e-06	25.384	0.00062259	0.00061637	0.00018697	702.7	6.826e-06	7.3224e-06	583.47	213.66	7.0286e-06	6.5977e-06	196.44	56.515	63.812	23.098	6.8881e-06	23.666	166.483	76.747	217.289	-73.188	-32.459	162.643	-74.478	-67.697	69.308	122.885	-70.716	-65.802	-63.194	-57.222	127.395	-61.214	-8191	255	
4404.536	1	1	0	0	0.12174	0.010779	0.058017	0.076063	0.10168	0.14515	0.1127	0.080504	0.38265	0.070818	0.35167	0.06597	0.26709	0.018294	0.2141	0.27805	-2.4583	-2.9583	-2.3229	-3.0521	-2.8083	-2.5	-3.1167	-2.5938	-2.8021	-3.1896	-2.4521	-3.1083	-2.7938	-2.5604	-2.9958	-2.4729	173.937	227.925	63.016	-27.347	134.007	200.152	100.541	-27.272	-66.288	130.159	189.118	212.677	-42.054	32.246	256.966	231.346	0.00015035	0.00077034	0.00013181	766.6	3.3341e-06	3.3697e-06	638.26	233.33	5.6002e-06	5.8188e-06	209.33	58.971	66.871	24.906	6.6192e-06	24.893	0.00062729	0.00060534	0.00018884	704.05	6.8063e-06	7.4517e-06	580.64	211.77	7.3045e-06	6.825e-06	193.71	56.068	63.419	23.191	7.0869e-06	23.562	114.367	-0.919	-30.665	-72.588	61.309	55.121	-74.190	-67.649	5.317	9.327	-70.994	-66.121	-63.480	-57.457	71.198	-61.896	-8191	255	
4404.632	1	1	0	0	0.18763	0.28099	0.048886	0.10874	0.11769	0.074027	0.29353	0.10909	0.13359	0.22625	0.16238	0.18907	0.10753	0.11157	0.017699	0.11117	-2.2583	-2.9604	-2.4167	-3.1125	-2.7083	-2.3646	-3.0542	-2.4542	-2.6333	-3.1188	-2.4458	-3.1437	-3.0729	-2.4375	-3.0667	-2.7146	189.768	92.826	45.090	176.589	-63.487	238.831	-84.586	260.646	196.876	87.557	214.382	263.842	222.230	239.312	118.607	72.265	0.00014343	0.00077095	6.2687e-05	762.13	1.3107e-06	8.5024e-06	637.17	232.8	1.3029e-05	3.1616e-06	205.96	60.06	66.502	25.005	2.4712e-06	25.114	0.00064937	0.00064332	0.00019132	704.04	7.0605e-06	7.6816e-06	578.11	211.84	7.5353e-06	6.9617e-06	191.81	56.731	63.748	23.249	7.1176e-06	23.726	174.624	21.125	-26.008	-72.615	186.035	57.028	-74.736	-67.848	92.703	113.019	-70.871	-65.829	-63.997	-57.336	201.604	-61.554	-8191	255	
4404.752	1	1	0	0	0.063447	0.26417	0.17245	0.13501	0.115	0.14228	0.09925	0.2869	0.27333	0.44118	0.13525	0.27902	0.088601	0.060947	0.096674	0.12118	-2.1104	-3.1646	-2.4562	-2.6958	-2.9479	-2.4667	-3.0438	-2.6208	-2.4188	-2.9521	-2.3292	-2.8375	-3.025	-2.3083	-3.0917	-2.8417	49.580	-9.498	163.323	15.844	227.233	235.972	-83.845	143.725	149.772	-10.854	151.330	-57.652	160.301	203.597	-30.064	167.804	8.6088e-05	0.00075278	0.00020033	766.87	6.0904e-06	1.3046e-05	633.73	235.15	1.3023e-06	8.636e-06	208.25	59.28	67.237	24.992	6.9361e-06	25.232	0.00066685	0.00064984	0.00018586	704.04	7.031e-06	7.6588e-06	579.24	212.55	7.7412e-06	7.147e-06	192.76	56.483	64.074	23.428	7.2974e-06	23.902	93.063	39.001	15.791	-73.022	-82.656	34.942	-74.053	-67.603	153.917	-71.466	-70.757	-65.560	-63.251	-57.217	-29.184	-60.498	-8191	255	
4404.849	1	1	0	0	0.097655	0.2337	0.12759	0.12398	0.065737	0.13804	0.016583	0.08293	0.087399	0.24651	0.076034	0.21446	0.14892	0.20492	0.12745	0.24173	-1.9833	-3.0583	-2.4521	-2.7854	-3.1146	-2.3833	-2.9292	-2.8521	-2.4229	-3.2604	-2.5458	-2.6833	-3.1917	-2.3875	-2.8146	-2.9833	93.137	152.951	104.400	4.272	245.354	-66.946	143.066	247.710	-8.991	15.460	29.487	264.234	194.509	188.310	270.415	236.132	4.2612e-05	0.0017771	0.00023362	767.9	2.7559e-06	1.6562e-06	635.97	232.69	1.2822e-06	9.0309e-06	207.84	59.382	66.725	24.923	1.0442e-05	24.721	0.00066969	0.00064617	0.00018117	708.25	6.9063e-06	7.588e-06	580.47	211.41	7.5422e-06	7.0099e-06	191.94	56.218	63.549	23.174	7.1817e-06	23.361	118.541	1.163	-38.045	-72.591	88.494	204.341	-73.854	-67.411	242.819	-29.729	-70.665	-66.532	-63.173	-57.579	-41.726	-61.516	-8191	255	
4404.945	1	1	0	0	0.21401	0.10783	0.18809	0.1362	0.12458	0.22247	0.16293	0.19609	0.10937	0.38042	0.26952	0.25956	0.047162	0.18707	0.048428	0.019815	-2.0542	-2.9896	-2.6667	-2.6708	-3.2479	-2.3729	-3.1521	-3.0292	-2.4396	-3.2042	-2.6125	-2.525	-3.0771	-2.6354	-2.9437	-3.05	35.698	140.469	-12.739	242.295	33.998	214.439	91.077	239.633	44.547	8.965	167.967	159.630	51.936	123.086	189.207	218.673	9.9707e-05	0.001339	0.00011299	760.98	1.0018e-06	1.0313e-05	633.99	233.81	5.1764e-06	8.1851e-06	204.97	58.914	66.87	25.143	9.8878e-06	24.852	0.00066672	0.00064955	0.00018286	703.82	6.9717e-06	7.5927e-06	577.33	211.84	7.8394e-06	7.1756e-06	190.2	56.251	64.068	23.4	7.4674e-06	23.574	-22.209	-44.760	47.942	-72.805	-27.464	-40.887	-73.957	-67.455	-39.970	95.445	-70.321	-66.032	-62.719	-57.426	-67.345	-61.586	-8191	255	
4405.041	1	1	0	0	0.10007	0.08735	0.22484	0.3608	0.14577	0.089372	0.12123	0.2299	0.11651	0.33632	0.3409	0.19138	0.12677	0.078184	0.18976	0.33859	-1.6708	-2.9604	-2.4479	-2.4375	-3.1396	-2.2771	-2.8937	-3.1479	-2.375	-2.9667	-2.7104	-2.5187	-3.1875	-2.5333	-2.7125	-3.1208	216.591	257.400	121.055	270.252	134.625	148.629	70.095	95.709	49.044	-32.825	221.677	-82.201	272.773	205.217	162.781	260.454	0.00012781	0.0001858	0.00011282	760.34	3.264e-06	5.9993e-06	631.02	232.61	4.6791e-06	5.9222e-06	206.19	58.543	66.814	25.433	4.0174e-06	25.055	0.00066991	0.00066632	0.00018168	708.31	7.2503e-06	7.6466e-06	576.57	211.01	7.7281e-06	7.5113e-06	190.4	56.018	64.374	23.502	7.739e-06	23.813	218.773	63.770	122.953	-72.959	-74.261	44.825	-74.113	-67.493	203.165	-21.754	-70.293	-66.305	-63.649	-57.195	76.447	-62.036	-8191	255	
4405.137	1	1	0	0	0.12869	0.23422	0.12627	0.1817	0.14138	0.066957	0.30133	0.29325	0.26101	0.12466	0.12424	0.26493	0.20252	0.12365	0.14837	0.28742	-1.8333	-3.0958	-2.4562	-2.5458	-3.0958	-2.6125	-2.6625	-3.2667	-2.4354	-2.9125	-2.9	-2.5396	-2.9062	-2.6667	-2.4188	-3.1854	-3.670	-56.026	-12.996	245.374	266.505	146.075	215.551	220.194	52.255	173.297	215.381	-80.168	-48.938	182.705	-4.217	-75.660	0.00020673	0.00027048	0.00016775	767.34	3.2841e-06	5.8118e-06	635.16	235.54	1.1476e-05	4.8811e-06	207.17	59.326	67.634	25.744	6.2991e-06	25.195	0.00068781	0.00069581	0.00018715	712.26	7.3314e-06	7.4601e-06	580.88	213.49	7.9145e-06	7.7654e-06	191.75	56.775	65.025	23.763	7.9136e-06	24.005	237.938	44.455	-56.281	-72.796	85.831	-10.168	-74.407	-67.906	-50.701	105.893	-70.105	-66.202	-62.851	-57.567	48.689	-61.360	-8191	255	
4405.233	1	1	0	0	0.075348	0.030881	0.26217	0.085992	0.051944	0.050535	0.12404	0.16352	0.11706	0.095427	0.29986	0.098029	0.30233	0.20243	0.046653	0.11706	-2.0021	-2.7396	-2.9271	-2.3125	-3.1167	-2.6729	-2.5917	-3.15	-2.4917	-2.6479	-2.9062	-2.4104	-2.9667	-2.7729	-2.5229	-3.1	89.483	-9.564	239.592	162.788	112.818	-6.476	106.689	262.850	27.590	252.272	-70.853	167.441	-48.800	210.958	33.111	67.353	0.00012359	0.00045437	0.00018682	774.35	6.6004e-06	9.9255e-06	630.16	234.63	9.1649e-06	7.2008e-06	203.65	59.653	68.07	25.392	3.5142e-06	24.646	0.00069624	0.00071902	0.00018676	715.63	7.611e-06	7.4203e-06	582.7	213.9	7.7979e-06	7.7131e-06	191.06	56.658	65.068	23.569	7.9719e-06	23.472	9.709	274.020	194.665	-73.151	82.195	57.536	-74.284	-67.231	38.040	117.869	-70.520	-66.088	-62.844	-57.484	104.020	-61.594	-8191	255	
4405.329	1	1	0	0	0.096021	0.15878	0.13574	0.22826	0.10561	0.24818	0.13979	0.4892	0.23937	0.18311	0.14328	0.18748	0.14898	0.39763	0.17891	0.078827	-2.1271	-2.8583	-3.0708	-2.525	-3.1792	-2.7646	-2.6458	-3.1104	-2.5833	-2.8146	-3.0438	-2.4375	-3.1	-2.8396	-2.4417	-3.1562	258.388	73.176	-2.400	208.725	37.320	28.281	155.868	256.955	64.604	-66.366	149.433	-23.570	55.517	-80.893	-56.846	85.566	0.0001639	0.00050791	0.00017008	762.43	5.0558e-06	7.0142e-07	630.06	234.22	4.572e-06	7.128e-06	204	57.978	66.882	25.194	6.6981e-06	24.926	0.00066283	0.00072035	0.00018635	707.58	7.4754e-06	7.2945e-06	577.37	212.53	7.5237e-06	7.6949e-06	189.28	55.58	64.439	23.344	7.7825e-06	23.444	133.352	-79.952	74.228	-73.049	77.659	240.751	-73.728	-67.453	-33.897	40.016	-70.468	-65.823	-63.429	-58.025	113.587	-61.217	-8191	255	
4405.450	1	1	0	0	0.20326	0.1855	0.22314	0.23697	0.20816	0.090012	0.42089	0.055417	0.25987	0.042235	0.0216	0.14572	0.023123	0.18416	0.20303	0.25994	-2.1917	-2.7542	-3.0792	-2.5417	-2.9792	-2.8521	-2.4875	-3.2333	-2.4729	-2.6562	-3.1792	-2.5083	-3.0354	-3.1542	-2.4792	-3.2375	258.820	-47.797	248.734	227.393	-38.038	57.715	102.406	123.135	-40.931	10.553	110.131	127.477	261.166	-2.015	-21.269	221.906	0.00011602	0.00053115	0.00031734	757.81	3.061e-06	1.1945e-05	628.09	233.17	5.5444e-06	3.7132e-06	203.13	58.063	66.427	25.404	7.6027e-06	24.906	0.00063769	0.00070696	0.00018012	704.22	7.2629e-06	7.0501e-06	573.78	211.15	7.2215e-06	7.6461e-06	189.2	55.57	64.344	23.462	7.7587e-06	23.695	176.587	186.063	100.258	-72.943	103.749	129.189	-73.928	-67.723	118.948	60.476	-70.683	-66.291	-62.924	-57.617	-32.871	-61.427	-8191	255	
4405.544	1	1	0	0	0.17933	0.12878	0.044692	0.11161	0.075975	0.11866	0.063842	0.10259	0.17644	0.19867	0.16872	0.26301	0.023301	0.023577	0.28663	0.27834	-2.2458	-2.4458	-3.2104	-2.3792	-2.7521	-2.9958	-2.6167	-3.2104	-2.8	-2.475	-3.1375	-2.5896	-2.875	-2.9688	-2.3604	-3.2396	124.211	80.681	45.069	96.770	-75.331	130.619	91.522	38.485	46.884	134.839	248.137	167.668	29.908	256.750	36.989	242.241	5.7984e-05	0.00073652	7.8453e-05	761.4	2.0193e-06	8.6301e-06	633.64	232.64	2.2007e-06	4.0015e-06	204.75	58.986	67.557	25.372	2.4717e-06	24.713	0.00063488	0.00072737	0.00018603	704.37	7.7772e-06	7.2913e-06	578.27	211.72	7.3806e-06	8.0756e-06	190.28	56.007	64.52	23.582	7.7942e-06	23.68	227.011	115.852	188.499	-72.007	-6.576	47.102	-74.194	-67.406	36.327	78.279	-70.298	-66.372	-63.105	-57.181	-70.746	-60.769	-8191	255	
4405.640	1	1	0	0	0.10838	0.068647	0.22332	0.22523	0.15098	0.34411	0.24655	0.030801	0.15284	0.19353	0.14912	0.0094504	0.078746	0.14659	0.042763	0.20625	-2.2562	-2.5333	-3.1771	-2.4458	-2.5125	-3.0125	-2.4062	-3	-2.7583	-2.4083	-3.1979	-2.3958	-2.5062	-2.9625	-2.5563	-3.0354	205.453	184.774	257.892	261.253	177.074	160.967	253.019	165.603	6.099	-82.100	63.984	266.756	162.716	-25.008	151.962	198.480	0.0001437	0.00087603	1.5919e-05	754.7	3.5277e-06	8.0841e-06	627.63	232.85	5.8781e-06	5.4616e-06	201.51	57.299	67.454	25.11	2.3254e-06	24.457	0.0006358	0.00074014	0.00018648	701.04	7.8841e-06	7.2709e-06	575.09	211.15	7.1366e-06	7.8025e-06	188.1	54.767	64.558	23.202	7.4998e-06	23.331	255.325	13.240	192.358	-72.956	112.446	-70.681	-74.060	-67.506	57.420	136.194	-70.663	-66.772	-63.865	-57.259	39.198	-61.354	-8191	255	
4405.737	1	1	0	0	0.12637	0.15584	0.2841	0.09657	0.33768	0.14734	0.037609	0.1008	0.057357	0.091542	0.062565	0.05857	0.062064	0.064318	0.19499	0.10127	-2.4771	-2.3292	-3.125	-2.5104	-2.6688	-3.0812	-2.4125	-2.7958	-2.8458	-2.4396	-3.2438	-2.7021	-2.5062	-3.2771	-2.175	-2.8042	-38.898	195.196	94.171	148.643	17.636	144.727	60.919	231.982	247.675	229.531	4.217	173.992	236.870	16.355	-68.827	45.792	0.00015215	0.0003078	0.00033383	759.2	6.3186e-06	3.0751e-06	624.43	232.8	3.896e-06	2.355e-06	202.81	57.718	66.563	25.146	8.1881e-06	24.549	0.0006095	0.00070448	0.00018141	699.53	7.724e-06	7.1992e-06	571.37	211.33	7.0743e-06	7.9487e-06	188.55	54.952	64.547	23.407	7.6038e-06	23.375	211.553	208.857	36.224	-72.883	62.236	-5.376	-74.369	-67.793	-27.005	4.716	-70.656	-65.952	-63.596	-57.475	-21.635	-60.748	-8191	255	
4405.833	1	1	0	0	0.21247	0.17031	0.094439	0.013604	0.1756	0.17277	0.23631	0.19653	0.083137	0.082461	0.11897	0.11567	0.041904	0.1655	0.10445	0.068767	-2.4	-2.3271	-3.0792	-2.6688	-2.3229	-3.1042	-2.4083	-2.8521	-3.0229	-2.5542	-3.0042	-2.6271	-2.4188	-3.05	-2.4896	-2.7	17.833	-38.036	-52.222	-74.163	-45.264	167.022	187.177	239.268	130.363	121.267	201.373	182.680	-68.975	260.762	31.349	242.976	6.0747e-05	0.00029843	0.00022663	767.26	1.096e-05	3.1368e-06	627.95	230.1	2.7117e-06	7.3849e-06	203.5	57.293	67.602	25.452	8.0355e-06	24.571	0.00062773	0.00072414	0.00018898	703.18	7.9954e-06	7.3276e-06	572.37	212.07	7.2785e-06	7.9907e-06	188.99	54.807	65.034	23.567	7.574e-06	23.592	257.894	153.389	6.626	-72.738	121.693	261.557	-74.434	-67.317	170.061	40.567	-70.226	-65.820	-63.617	-56.974	-4.454	-60.591	-8191	255	
4405.929	1	1	0	0	0.17394	0.21126	0.28091	0.11773	0.11559	0.082202	0.086385	0.23052	0.15648	0.05934	0.18741	0.10777	0.013782	0.12123	0.090712	0.12721	-2.7333	-2.0979	-2.8812	-2.5833	-2.3542	-3.0938	-2.5833	-2.7208	-3.1229	-2.3604	-3.1021	-2.825	-2.3083	-3.2354	-2.5708	-2.5458	126.110	4.370	270.138	178.602	30.371	-21.909	139.544	208.078	43.573	-78.435	-61.054	-46.256	33.328	202.572	164.396	-18.789	2.871e-05	0.0007223	9.598e-05	760.96	1.2122e-05	6.9121e-06	624.35	234.09	1.7528e-05	1.1673e-05	201.02	57.338	66.294	25.412	3.739e-06	24.76	0.00064195	0.00072512	0.00019606	703.41	8.1464e-06	7.596e-06	571.03	212.96	7.3178e-06	7.8497e-06	188.67	54.716	64.725	23.605	7.5633e-06	23.656	102.482	240.019	142.235	-73.165	240.694	24.916	-74.279	-67.552	60.198	49.522	-70.557	-66.322	-63.152	-57.537	93.847	-61.167	-8191	255	
4406.050	1	1	0	0	0.25452	0.11719	0.078178	0.31229	0.048909	0.056966	0.051969	0.34171	0.06159	0.21271	0.089866	0.10524	0.2589	0.096132	0.1453	0.42953	-2.65	-2.3333	-2.9313	-3.0417	-2.3208	-3.3021	-2.8771	-2.5979	-3.0021	-2.475	-2.9437	-3.0708	-2.4	-3.1813	-2.6792	-2.3187	164.096	35.803	129.211	-73.825	202.012	246.782	-18.147	193.885	-6.563	187.755	228.590	94.339	-2.554	54.282	156.228	202.993	0.00012708	0.0014978	0.00021091	755.84	1.3165e-06	4.753e-06	627.35	234.02	1.2887e-05	9.8807e-06	200.84	57.648	66.556	24.873	4.282e-06	24.368	0.00064543	0.00071645	0.00020112	703.88	7.9958e-06	7.5772e-06	572.16	213.09	7.2226e-06	7.7547e-06	188.6	54.696	64.436	23.363	7.2741e-06	23.262	80.478	-53.001	-17.999	-72.759	129.393	148.507	-74.362	-67.440	-25.641	17.591	-70.039	-65.642	-63.498	-57.526	111.501	-61.052	-8191	255	
4406.146	1	1	0	0	0.14365	0.088676	0.24402	0.11432	0.1336	0.057016	0.048	0.37276	0.073982	0.10371	0.14766	0.088575	0.14254	0.1741	0.033129	0.27304	-2.8292	-2.5021	-2.6688	-3.1437	-2.3146	-2.9229	-2.8271	-2.5021	-3.0938	-2.5312	-2.5812	-3.1396	-2.3833	-3.0396	-2.8208	-2.3146	135.221	166.835	75.993	118.813	-19.976	51.798	215.636	234.571	13.600	216.105	265.698	229.500	57.898	-74.951	215.838	178.508	3.8651e-05	0.00088098	0.00010797	763.99	3.009e-06	7.4148e-06	620.08	233.03	3.3055e-06	7.8639e-06	199.23	57.131	67.17	25.284	1.8406e-06	24.565	0.00064375	0.00069687	0.00020098	702.98	8.005e-06	7.7907e-06	564.84	212.13	7.4643e-06	7.5876e-06	187.03	54.41	65.036	23.571	7.1976e-06	23.519	-44.215	173.029	77.432	-72.995	172.311	195.010	-74.225	-67.661	151.060	-56.231	-70.853	-66.171	-62.982	-57.528	190.699	-61.834	-8191	255	
4406.242	1	1	0	0	0.21951	0.21671	0.18234	0.32696	0.22094	0.12725	0.24455	0.085263	0.20089	0.18873	0.08844	0.05042	0.10693	0.15424	0.13651	0.23486	-2.6688	-2.3375	-2.6063	-3.0917	-2.3646	-2.8583	-2.9562	-2.4354	-3.15	-2.4396	-2.6625	-3.1771	-2.3479	-2.9	-2.9	-2.4188	227.149	108.951	245.504	263.001	109.577	267.812	50.628	261.457	83.265	23.949	219.852	263.901	218.750	131.535	69.829	202.632	0.00012356	0.00022632	0.00034722	762.08	7.5347e-06	2.6331e-06	623.8	232.46	2.48e-06	2.7844e-06	199.98	57.398	67.314	25.366	4.7212e-06	24.77	0.00064065	0.00067332	0.00020079	702.09	7.956e-06	7.7403e-06	566.88	212.5	7.5139e-06	7.5136e-06	188.44	54.583	65	23.709	7.4426e-06	23.602	85.417	33.057	-36.988	-73.153	-42.601	-82.492	-74.573	-67.322	172.113	-39.296	-70.485	-66.148	-62.850	-57.392	71.390	-61.394	-8191	255	
4406.314	1	1	0	0	0.15485	0.059691	0.068319	0.10693	0.047783	0.078304	0.35387	0.22591	0.23668	0.14984	0.26882	0.078885	0.16051	0.29814	0.11748	0.13772	-2.7	-2.6792	-2.4979	-3.1625	-2.3354	-2.7625	-3.0521	-2.4208	-2.9375	-2.6479	-2.45	-3.1479	-2.5354	-2.5896	-3.1771	-2.3312	-15.914	44.619	106.760	152.995	2.071	164.891	-16.158	-54.634	-76.641	272.581	191.327	-84.034	249.529	271.710	149.625	-44.033	0.00014832	0.00038808	0.00022301	762.87	4.7134e-06	1.5955e-05	621.93	235.34	6.8933e-06	1.5046e-06	203.64	58.003	66.836	25.548	9.4242e-06	24.7	0.00067429	0.0006931	0.00021218	707.01	7.9355e-06	8.0615e-06	567.66	214.28	7.8372e-06	7.7046e-06	190.84	55.684	65.408	23.87	7.6528e-06	23.777	48.177	212.808	218.295	-73.006	75.477	156.389	-74.295	-67.315	1.068	251.853	-69.959	-66.642	-62.687	-57.298	24.177	-61.933	-8191	255	
4406.432	1	1	0	0	0.14378	0.075844	0.16608	0.3294	0.12021	0.094234	0.23899	0.24108	0.10308	0.09109	0.058037	0.021404	0.3469	0.15193	0.2608	0.082936	-2.5042	-2.6688	-2.55	-2.9604	-2.4188	-2.7667	-3.2375	-2.4083	-2.9562	-2.9021	-2.3312	-3.0812	-2.525	-2.4979	-3.1292	-2.4292	53.847	136.494	112.068	220.183	18.338	232.972	193.225	245.390	204.876	181.988	-64.590	152.150	-5.245	201.301	210.249	56.186	7.0962e-05	0.001486	0.00025552	767.78	9.353e-06	1.0402e-05	621.8	234.33	8.6959e-06	4.7943e-06	201.74	58.029	67.247	25.334	3.0674e-06	24.616	0.00069897	0.00070241	0.0002154	708.78	7.9659e-06	8.2279e-06	571.4	214.16	8.0824e-06	7.7681e-06	190.21	55.189	64.971	23.829	7.5909e-06	23.463	2.155	-45.251	187.637	-72.751	81.788	49.454	-74.104	-67.376	200.849	41.917	-69.749	-65.643	-62.446	-57.224	220.144	-61.191	-8191	255	
4406.529	1	1	0	0	0.22103	0.29631	0.23068	0.089554	0.10548	0.12969	0.083333	0.085734	0.16962	0.12994	0.10189	0.15185	0.23143	0.090879	0.1345	0.22888	-2.4792	-2.875	-2.3396	-3	-2.4958	-2.4271	-3.1583	-2.4	-2.7479	-2.8812	-2.2792	-3.075	-2.5208	-2.7104	-3.0187	-2.3521	238.057	219.107	27.053	188.893	104.987	176.633	123.371	14.196	173.889	260.342	152.079	155.271	220.433	192.543	258.676	76.312	8.447e-05	0.00060657	0.00019989	759.9	4.6486e-06	3.5651e-06	622.29	235.65	1.0783e-05	2.0293e-06	201.95	57.124	66.622	25.156	5.857e-06	23.939	0.00071	0.00069737	0.00021333	706.4	7.7531e-06	8.198e-06	568.62	213.66	7.8703e-06	7.434e-06	188.64	54.599	64.364	23.615	7.443e-06	23.013	94.167	42.287	-46.976	-72.247	94.249	148.533	-74.337	-67.833	43.088	2.413	-70.715	-66.257	-63.107	-56.752	86.212	-61.067	-8191	255	
4406.625	1	1	0	0	0.073503	0.14114	0.20305	0.080446	0.10586	0.17844	0.22412	0.1675	0.034239	0.071529	0.07925	0.31246	0.21561	0.13496	0.12314	0.12583	-2.3563	-2.9604	-2.3917	-3.1437	-2.8104	-2.3312	-3.25	-2.4625	-2.7	-2.9813	-2.5167	-3.0208	-2.6937	-2.4542	-3.1729	-2.5917	112.621	274.421	-81.909	265.016	16.162	-50.058	88.211	-9.085	-81.146	84.850	52.037	163.979	234.896	-40.207	57.887	-9.814	7.7689e-05	0.00079715	0.00037814	763.04	5.7902e-06	1.4527e-06	619.91	233.1	9.1565e-06	3.399e-06	200.81	57.533	67.784	25.246	5.0519e-06	24.316	0.00068881	0.00067278	0.00020263	701.68	7.4396e-06	8.0196e-06	568.62	211.85	7.8496e-06	7.3941e-06	188.47	55.086	64.511	23.622	7.3506e-06	23.134	5.222	-51.794	-21.741	-72.140	114.417	-28.620	-73.960	-67.356	126.840	-57.081	-70.479	-65.746	-63.268	-57.138	134.476	-61.580	-8191	255	
4406.721	1	1	0	0	0.077109	0.23568	0.14037	0.2891	0.14246	0.067673	0.059001	0.1577	0.053119	0.043591	0.14344	0.083046	0.13326	0.29465	0.19767	0.24345	-2.0896	-3.125	-2.4667	-3.1813	-2.7417	-2.5271	-3.1	-2.5667	-2.6167	-3.1375	-2.5167	-3.0312	-2.7562	-2.6958	-3.0687	-2.8187	256.692	249.444	-43.895	149.936	111.421	-52.400	238.809	219.242	-46.167	150.710	151.772	26.639	254.714	67.353	240.426	208.174	5.4324e-05	0.0012036	0.00011861	762.53	1.9857e-06	8.5328e-06	621.07	231.97	6.5853e-06	8.9314e-06	202.56	57.911	67.512	25.389	1.0565e-05	24.643	0.00070028	0.00068112	0.00020068	706.21	7.2831e-06	8.082e-06	569.02	211.76	7.8799e-06	7.2191e-06	188.74	55.432	64.325	23.762	7.3184e-06	23.489	118.346	-43.581	194.900	-72.942	164.150	192.600	-74.223	-67.656	102.823	65.149	-70.535	-65.881	-63.219	-57.162	-71.140	-60.546	-8191	255	
4406.841	1	1	0	0	0.067164	0.17481	0.20415	0.24976	0.17143	0.14963	0.013947	0.1176	0.090691	0.16979	0.17598	0.17183	0.17302	0.1003	0.13414	0.10047	-2.0938	-3.1979	-2.4021	-2.9875	-3.0708	-2.4729	-3.0792	-2.7938	-2.5854	-3.2458	-2.7062	-2.6813	-3.0667	-2.1896	-3.175	-2.7	247.983	-37.488	43.953	-61.001	265.559	53.623	108.759	271.508	34.334	225.542	59.219	225.226	233.230	243.655	-50.908	136.890	5.7553e-05	0.0005022	0.00019942	758.84	2.8275e-06	2.139e-06	628.23	233.04	5.0031e-06	6.2506e-06	202.5	57.479	67.106	25.252	1.1101e-05	24.313	0.0006866	0.00065692	0.00019256	705.29	7.1659e-06	7.9846e-06	572.93	212.21	8.0595e-06	7.4858e-06	187.83	55.131	64.237	23.649	7.6616e-06	22.962	67.264	22.345	-44.776	-72.668	121.979	-38.363	-74.085	-67.545	-33.383	227.489	-71.026	-66.207	-63.981	-57.744	82.327	-61.990	-8191	255	
4406.938	1	1	0	0	0.1066	0.067299	0.10353	0.20419	0.22882	0.25657	0.18879	0.080326	0.04982	0.041693	0.073945	0.20682	0.0060231	0.22518	0.14726	0.25748	-1.9771	-3.1625	-2.5333	-2.5062	-3.0146	-2.325	-3.1333	-2.9437	-2.3708	-3.2938	-2.575	-2.6896	-3.125	-2.4938	-2.9146	-2.7875	230.502	-26.776	-34.916	249.124	214.264	268.467	234.718	78.531	77.309	-43.572	144.532	-70.088	95.635	273.613	27.320	98.643	0.00023669	0.00077425	0.00018595	760.29	4.6264e-06	3.0474e-06	620.28	232.41	2.3061e-06	5.6341e-06	199.95	57.866	67.357	25.169	8.9414e-07	24.203	0.00070584	0.00067825	0.00019404	705.07	7.4009e-06	7.8942e-06	567.74	211.33	8.0824e-06	7.5933e-06	187.17	55.395	64.255	23.678	7.8324e-06	23.192	173.306	56.104	109.684	-72.851	78.777	175.071	-73.965	-67.709	41.463	29.617	-70.522	-65.865	-63.113	-57.122	38.306	-61.597	-8191	255	
4407.009	1	1	0	0	0.044561	0.16476	0.076669	0.1652	0.13449	0.12754	0.038742	0.022743	0.1356	0.067751	0.096116	0.22985	0.099553	0.14165	0.24026	0.31971	-1.9021	-3.25	-2.3937	-2.6437	-2.9979	-2.2833	-3.125	-2.8521	-2.4271	-3.1229	-2.5729	-2.6354	-2.9958	-2.3854	-2.8063	-2.9021	134.410	58.884	155.637	38.271	-9.753	21.495	151.854	110.873	-0.066	184.474	126.856	197.007	-71.236	220.750	-76.625	147.584	8.1569e-05	0.0010976	9.69e-05	754.65	1.0224e-05	7.7865e-06	622.35	231.39	7.0534e-06	4.6429e-06	200.95	57.821	66.082	25.266	2.3231e-06	24.291	0.00070863	0.00070902	0.00019696	706.09	7.5297e-06	8.0243e-06	570.15	211.21	8.1821e-06	7.7744e-06	187.33	55.279	64.042	23.668	7.8946e-06	23.276	96.299	163.467	65.421	-72.005	15.854	125.084	-73.840	-67.581	-14.284	137.192	-71.057	-65.541	-63.482	-57.628	90.764	-61.485	-8191	255	
4407.130	1	1	0	0	0.026951	0.088775	0.094659	0.089583	0.13647	0.34011	0.19965	0.057946	0.1754	0.45621	0.20327	0.18777	0.043916	0.09234	0.24535	0.20975	-1.8917	-2.9708	-2.5146	-2.4479	-3.0958	-2.4521	-2.8042	-3.1875	-2.2833	-2.9646	-2.8417	-2.3937	-3.1979	-2.575	-2.4396	-3.0563	-30.306	119.417	176.978	-44.742	228.693	123.114	10.784	200.340	172.148	265.569	200.530	-61.403	170.726	31.104	3.572	141.496	1.6769e-05	0.00098941	0.00024473	758.17	2.3969e-06	2.8971e-06	624.39	234.06	1.0462e-05	7.5905e-06	200.16	57.382	67.977	25.358	7.1082e-06	24.232	0.00070512	0.00070318	0.00018958	705.69	7.7193e-06	7.9672e-06	570.94	211.97	8.1505e-06	7.8983e-06	186.79	55.48	65.037	23.752	8.2326e-06	23.121	-33.632	57.104	-17.112	-72.855	217.401	-20.258	-74.033	-67.526	146.559	-29.493	-70.325	-66.265	-63.109	-57.270	81.599	-61.316	-8191	255	
4407.226	1	1	0	0	0.29116	0.11603	0.12169	0.030809	0.20651	0.20335	0.15971	0.12408	0.23835	0.10809	0.12181	0.15687	0.29077	0.16019	0.27742	0.21449	-1.825	-2.9104	-2.6333	-2.4229	-3.1021	-2.5062	-2.7271	-3.1792	-2.3792	-2.9938	-2.9771	-2.45	-3.1396	-2.7125	-2.4958	-3.2875	141.901	74.129	219.703	64.480	120.000	189.953	127.038	248.356	63.671	87.022	-61.346	-38.642	193.895	-59.211	-17.340	208.784	1.8304e-05	0.00023889	0.00017305	764.18	1.3882e-06	2.7185e-06	625.25	232.85	2.8961e-06	1.0258e-05	200.41	57.221	66.447	25.357	1.2721e-05	23.769	0.00071579	0.0007235	0.00019517	708.69	7.6672e-06	7.8534e-06	574.83	211.94	8.0085e-06	7.8721e-06	187.02	55.06	64.39	23.604	8.242e-06	22.809	71.234	-35.988	3.913	-72.743	239.847	159.093	-74.398	-67.236	175.799	10.846	-69.948	-66.369	-63.647	-57.732	82.429	-61.855	-8191	255	
4407.322	1	1	0	0	0.084655	0.37953	0.22302	0.09516	0.13835	0.33367	0.013819	0.35397	0.071393	0.24059	0.3248	0.13612	0.11753	0.12968	0.1435	0.13833	-1.9854	-2.8729	-2.8292	-2.2562	-3.0917	-2.5958	-2.6292	-3.1125	-2.4625	-3.0563	-2.9417	-2.45	-3.1458	-2.7938	-2.5687	-3.2021	-18.760	250.159	65.107	157.189	75.538	227.948	258.800	257.719	-48.700	-44.072	195.347	245.535	257.960	225.924	-71.681	73.940	0.00012425	0.0014029	0.00017731	756.63	3.2222e-06	7.1619e-06	616.87	231.61	2.501e-06	1.3528e-05	198.2	56.99	65.575	25.265	8.0175e-06	23.84	0.00068343	0.00072183	0.00019267	706.56	7.7549e-06	7.7129e-06	567.81	210.83	7.9946e-06	8.0719e-06	185	54.83	64.219	23.432	8.1395e-06	22.926	152.285	186.947	161.769	-72.674	212.451	140.861	-74.059	-67.423	123.193	51.257	-70.543	-65.938	-63.096	-57.052	185.348	-61.272	-8191	255	
4407.418	1	1	0	0	0.096265	0.11388	0.064879	0.10105	0.2173	0.14826	0.3869	0.27199	0.19167	0.14019	0.19349	0.14804	0.10431	0.041612	0.42061	0.16834	-1.8438	-2.875	-3.0167	-2.4208	-3.0062	-2.8021	-2.5667	-3.2625	-2.35	-2.6625	-3.1896	-2.2729	-3.0896	-2.8729	-2.4792	-3.2	20.865	208.161	233.060	53.318	82.515	-68.316	220.796	242.141	-15.356	247.829	39.314	-28.249	-83.404	-7.317	-14.461	-41.409	1.7181e-05	0.00045553	0.00025272	752.83	9.0507e-06	2.5342e-06	620.23	233.5	7.2301e-06	1.8954e-06	198	57.03	66.658	25.464	6.2123e-06	24.067	0.00068643	0.00072358	0.00018787	703.17	7.8232e-06	7.5818e-06	569.01	211.77	8.1131e-06	8.1652e-06	185.98	54.816	64.898	23.77	8.4415e-06	23.1	241.317	16.641	93.812	-72.731	90.697	-36.964	-74.331	-67.425	95.357	161.472	-70.590	-65.925	-62.438	-57.257	172.958	-61.139	-8191	255	
4407.537	1	1	0	0	0.28919	0.07482	0.13107	0.16896	0.1323	0.15798	0.25666	0.18374	0.15213	0.062337	0.18809	0.14925	0.20642	0.03055	0.16764	0.28717	-2.1333	-2.6437	-2.9854	-2.2896	-2.9771	-3.0417	-2.6646	-3.0563	-2.5979	-2.45	-3.1167	-2.4854	-3	-3.0563	-2.3812	-3.2708	158.309	102.668	-76.327	201.724	20.376	178.527	234.614	223.910	70.425	240.869	134.911	274.114	-8.060	9.188	179.047	-42.336	0.00019103	9.3227e-05	0.00011531	751.98	3.6948e-06	5.1224e-06	622.02	234.63	1.0396e-05	6.3092e-06	202.25	57.015	68.199	25.811	8.1698e-06	24.44	0.00069895	0.00076165	0.00019875	705.76	8.2449e-06	7.9502e-06	574.3	212.63	8.0834e-06	8.5207e-06	188.36	55.147	65.983	24.133	8.5348e-06	23.397	171.387	46.183	58.278	-72.597	170.469	81.105	-74.047	-67.464	-49.340	148.922	-70.353	-66.064	-63.236	-58.079	224.047	-60.842	-8191	255	
4407.609	1	1	0	0	0.14276	0.11063	0.097456	0.22661	0.11045	0.049226	0.15966	0.22298	0.16873	0.25811	0.18147	0.43121	0.11458	0.11938	0.21327	0.089908	-2.2396	-2.6042	-3.1729	-2.6729	-2.8708	-3.0896	-2.4354	-3.2333	-2.7083	-2.6125	-3.2604	-2.3375	-2.7417	-2.9083	-2.2438	-2.9646	30.646	126.789	127.687	251.141	213.695	-19.163	134.686	173.287	99.869	178.095	180.284	192.605	-4.428	250.202	66.061	-68.805	7.5473e-05	0.00017413	0.00016779	760.5	3.0873e-06	2.9803e-06	626.38	235.54	1.2744e-05	1.2559e-05	200.35	57.138	67.89	25.692	9.3892e-06	23.987	0.00071093	0.00078814	0.00020203	710.34	8.4034e-06	7.918e-06	571.99	214.1	7.9447e-06	8.6579e-06	187.34	55.094	65.728	23.907	8.6654e-06	23.119	-11.214	123.367	141.297	-72.405	21.119	158.434	-74.078	-67.281	24.504	134.597	-70.642	-66.288	-63.013	-57.705	51.371	-61.335	-8191	255	
4407.730	1	1	0	0	0.14298	0.17444	0.11408	0.035302	0.24723	0.15121	0.20442	0.2534	0.14794	0.093101	0.10357	0.087996	0.078517	0.16764	0.18405	0.11663	-2.3333	-2.4417	-3.2833	-2.4729	-2.6375	-3.1042	-2.4938	-2.9271	-2.6479	-2.4188	-3.1521	-2.6458	-2.5042	-3.1042	-2.0854	-2.875	265.301	260.530	217.088	-74.760	43.194	22.814	190.839	264.287	171.446	-69.774	230.116	237.529	211.417	251.359	-76.248	-83.748	8.4494e-05	0.0007629	0.00015311	758.94	1.6544e-06	7.4451e-06	620.51	234.66	9.6258e-07	2.827e-06	197.51	56.967	68.06	25.825	8.6688e-06	24.062	0.00070529	0.00079995	0.00020898	712.2	8.8424e-06	8.1271e-06	571.01	213.88	7.9947e-06	8.8159e-06	186.23	54.809	66.57	24.234	8.8806e-06	23.427	261.515	-28.312	-46.426	-72.774	229.068	251.788	-73.774	-67.267	15.585	150.707	-70.576	-66.408	-62.699	-57.164	40.680	-61.392	-8191	255	
4407.826	1	1	0	0	0.1466	0.2318	0.27069	0.17289	0.15759	0.29663	0.14737	0.24163	0.026818	0.16075	0.089978	0.11296	0.17827	0.12575	0.11973	0.1701	-2.5896	-2.3187	-3.0646	-2.6125	-2.6646	-3.2188	-2.4583	-3.0125	-3.0563	-2.2562	-2.9688	-2.8104	-2.4646	-3.1437	-2.4208	-2.8125	37.964	64.886	-60.708	-50.135	253.980	174.051	168.757	223.159	29.289	-29.334	213.378	121.315	-71.846	250.223	-32.766	53.350	0.0001448	0.00029421	0.00014435	765.31	4.2919e-06	2.6677e-06	618.59	235.75	6.1839e-06	6.6678e-07	201.41	57.456	68.131	26.372	3.4554e-06	24.912	0.00072846	0.00083559	0.0002174	713.66	9.1419e-06	8.1808e-06	570.65	214.84	7.9977e-06	8.8661e-06	187.95	55.305	66.851	24.708	8.4866e-06	23.964	-84.344	232.614	-13.319	-72.646	256.858	211.546	-74.158	-67.174	47.107	139.369	-70.182	-66.265	-63.403	-57.633	-48.007	-61.106	-8191	255	
4407.922	1	1	0	0	0.14266	0.13634	0.38226	0.14614	0.13876	0.096585	0.1534	0.36335	0.20035	0.09345	0.17539	0.060286	0.27462	0.13066	0.076724	0.15193	-2.6063	-2.3125	-3.0875	-2.7521	-2.4771	-3.1333	-2.4167	-2.8542	-2.8917	-2.325	-2.9792	-2.6875	-2.3063	-3.075	-2.6146	-2.7521	83.924	117.219	263.561	-24.330	8.417	40.970	224.805	-70.319	-10.709	102.566	-23.928	176.087	-51.626	236.224	-67.375	38.316	0.00010206	0.00033031	0.00015836	782.39	7.2484e-06	4.7285e-06	624.57	239.95	5.8776e-06	4.2228e-06	202.22	58.154	69.525	27.064	8.0616e-06	24.652	0.00069895	0.00080415	0.00021381	722.09	8.8974e-06	8.2198e-06	576.92	218.2	8.1048e-06	8.9443e-06	190.53	55.991	68.042	25.166	8.2867e-06	24.089	161.969	-77.653	39.830	-72.449	48.368	226.388	-74.299	-67.639	37.516	-30.661	-70.423	-66.800	-62.660	-57.269	-70.590	-61.536	-8191	255	
4408.018	1	1	0	0	0.271	0.16199	0.19537	0.070289	0.12074	0.23283	0.36856	0.16281	0.23142	0.12458	0.13325	0.12259	0.050551	0.062293	0.097949	0.074244	-2.5938	-2.2333	-2.9396	-2.7708	-2.5521	-3.1208	-2.5875	-2.7146	-2.975	-2.5062	-2.9938	-2.8875	-2.3	-3.1688	-2.6583	-2.6604	145.133	-6.504	165.623	-27.087	105.067	74.114	200.339	198.794	199.681	144.868	-45.349	254.195	-65.169	5.732	230.669	-40.233	0.00027092	0.0015246	0.00011816	788.19	1.0036e-05	6.6648e-06	627.01	236.55	7.9922e-06	4.4651e-06	199.12	57.803	69.347	26.997	7.7014e-06	24.832	0.00069688	0.00078256	0.00021357	724.8	8.6016e-06	8.0716e-06	571.49	216.93	7.9327e-06	8.4048e-06	188.12	55.339	67.837	25.089	8.2973e-06	24.075	179.947	4.151	35.516	-73.036	-32.040	66.439	-74.029	-67.496	55.773	9.958	-69.987	-66.259	-63.425	-57.836	153.463	-61.507	-8191	255	
4408.139	1	1	0	0	0.14004	0.24635	0.086846	0.10066	0.16212	0.20546	0.19776	0.16361	0.18231	0.1077	0.35273	0.13731	0.16131	0.20782	0.093	0.18402	-2.75	-2.4917	-2.7833	-3.0687	-2.2646	-3.2625	-2.6708	-2.6813	-3.1229	-2.5563	-2.8563	-3.0854	-2.3292	-3.0938	-2.8104	-2.4375	20.928	83.817	140.067	259.361	198.575	27.288	212.939	182.438	74.094	270.828	245.636	-9.795	9.948	123.998	-36.560	252.768	6.8413e-05	0.00037048	0.00027216	786.83	6.5115e-06	6.3761e-06	620.49	238.07	4.5022e-06	4.6066e-06	198.98	58.062	69.719	27.339	1.7687e-06	25.03	0.00071947	0.00080276	0.00022268	731.22	9.0872e-06	8.7249e-06	570.69	218.16	8.4346e-06	8.7992e-06	190.17	55.7	68.473	25.54	8.4405e-06	24.291	154.885	-80.710	-3.841	-72.806	211.511	148.051	-74.138	-67.303	-69.774	-56.718	-70.495	-66.088	-62.823	-57.839	161.392	-61.797	-8191	255	
4408.235	1	1	0	0	0.30396	0.058174	0.2046	0.14423	0.14499	0.27785	0.23283	0.39071	0.076434	0.19186	0.31065	0.31742	0.085508	0.15962	0.17211	0.12938	-2.7375	-2.5312	-2.8583	-3.075	-2.3792	-3.0687	-2.7104	-2.3354	-3.1458	-2.6333	-2.7542	-3.2792	-2.3021	-3.0792	-2.8542	-2.3229	96.416	257.738	156.185	163.266	161.383	174.055	267.343	265.581	259.690	267.021	-24.618	205.655	-45.067	216.675	51.436	5.506	0.00020464	0.00053656	0.00028158	788.34	8.6792e-06	8.2784e-06	623.07	239.18	4.1174e-06	2.8238e-06	200.03	58.218	70.303	26.974	1.0014e-05	24.663	0.00074787	0.00080842	0.00023917	736.84	9.2759e-06	9.0879e-06	573.08	219.98	8.7625e-06	8.9055e-06	189.8	56.03	68.955	25.492	8.6899e-06	24.086	169.143	32.413	140.139	-72.403	-64.285	174.492	-74.136	-66.993	63.843	19.208	-70.253	-66.557	-62.779	-57.002	35.754	-61.412	-8191	255	
4408.306	1	1	0	0	0.18305	0.063333	0.138	0.17009	0.067703	0.22223	0.11237	0.28052	0.12651	0.27313	0.28937	0.1614	0.12099	0.18379	0.25219	0.11662	-2.5792	-2.4979	-2.6521	-3.0812	-2.4458	-2.9792	-2.9667	-2.7479	-3.0583	-2.5875	-2.6125	-3.1667	-2.2687	-2.8688	-2.8521	-2.3042	87.478	216.303	184.430	241.234	117.977	21.194	182.645	231.862	-75.511	25.038	200.015	64.581	260.275	71.003	111.412	215.184	0.00022827	0.00069688	0.00023431	802.81	6.1555e-06	2.2479e-06	618.59	239.31	3.8608e-06	6.3888e-06	199.97	57.062	70.314	26.904	1.0901e-05	24.556	0.00079221	0.0008262	0.00023904	743.89	9.3253e-06	9.1778e-06	570.66	219.04	9.0267e-06	9.1826e-06	190.66	55.956	68.907	25.389	8.8815e-06	23.994	141.716	-36.664	-83.418	-72.222	-77.970	-8.667	-74.095	-67.497	33.545	114.332	-71.261	-66.563	-63.195	-57.518	159.635	-61.528	-8191	255	
4408.403	1	1	0	0	0.11861	0.15913	0.11945	0.047928	0.14027	0.051877	0.52045	0.26058	0.082897	0.092668	0.13202	0.37927	0.064166	0.098685	0.18159	0.11579	-2.6729	-2.4854	-2.5125	-3.0938	-2.3958	-2.8438	-2.8625	-2.4792	-2.9437	-2.6188	-2.4917	-3.0979	-2.3854	-2.7792	-2.9667	-2.35	82.473	169.522	-42.954	173.569	-27.738	208.007	180.322	209.728	191.292	89.631	-27.479	-52.523	115.295	261.393	214.827	63.558	7.229e-05	0.00060961	0.00023524	804.51	4.4722e-06	3.4511e-06	633.22	236.91	6.9529e-06	7.9988e-06	196.5	57.749	70.519	26.794	2.1931e-06	23.686	0.00079533	0.00081686	0.00024317	760.12	9.297e-06	9.5264e-06	586.3	218.46	9.3879e-06	9.2038e-06	188.66	55.463	68.797	25.202	8.9989e-06	23.471	211.895	27.980	87.157	-73.105	-40.898	-59.186	-74.336	-67.125	-38.844	91.761	-69.923	-66.272	-63.147	-57.467	73.275	-61.777	-8191	255	
4408.499	1	1	0	0	0.074519	0.1451	0.0481	0.087354	0.078985	0.16662	0.10301	0.1809	0.18593	0.11439	0.1391	0.2114	0.18849	0.097957	0.34214	0.17198	-2.6292	-2.8729	-2.2917	-3.1021	-2.6042	-2.7646	-3.2646	-2.6625	-2.7979	-3.05	-2.4854	-3.0812	-2.5333	-2.5917	-2.9938	-2.3375	-85.122	47.821	63.319	213.668	-15.856	257.850	-21.248	204.068	68.227	159.299	177.697	236.347	189.326	-69.082	144.513	131.871	0.00020103	0.00037638	6.7712e-05	833.92	1.475e-05	6.4785e-06	641.03	235.22	1.1954e-05	1.0547e-05	197.08	56.434	69.142	26.695	7.4601e-06	24.117	0.00082442	0.00083887	0.00025334	773.43	9.2796e-06	9.7893e-06	587.13	217.41	9.4906e-06	9.1741e-06	189.28	55.297	68.351	25.248	9.4874e-06	23.652	172.133	58.504	121.730	-72.784	-44.900	53.007	-73.986	-67.226	86.698	94.436	-70.664	-66.247	-63.489	-57.331	166.223	-61.433	-8191	255	
4408.618	1	1	0	0	0.26727	0.1588	0.19923	0.19882	0.35084	0.03089	0.095284	0.05912	0.24857	0.19564	0.17564	0.31121	0.188	0.14707	0.1068	0.12384	-2.5771	-2.6854	-2.2208	-3.1625	-2.6354	-2.5	-3.1771	-2.3271	-2.9833	-3.0479	-2.5125	-3.0771	-2.7062	-2.55	-3.1604	-2.6042	217.772	37.853	12.316	206.846	-4.563	10.732	154.113	36.579	-51.935	191.691	-75.051	188.745	229.204	114.790	179.147	171.200	0.00021882	0.00069954	0.00021931	838.48	9.757e-06	1.3114e-05	641.56	237.22	1.3558e-05	1.1697e-05	197.03	57.591	68.65	26.478	7.2917e-06	24.179	0.00086943	0.00086426	0.00026431	782.55	9.6952e-06	1.0604e-05	592.64	218.3	1.0067e-05	9.6012e-06	189.83	56.164	68.671	25.409	1.0047e-05	23.87	43.140	26.802	131.502	-72.828	19.773	59.915	-73.995	-67.349	79.119	36.447	-69.953	-65.821	-63.082	-57.114	151.431	-61.333	-8191	255	
4408.714	1	1	0	0	0.20868	0.15255	0.16138	0.23821	0.050657	0.15724	0.25807	0.34167	0.1132	0.21899	0.33194	0.035334	0.14588	0.048157	0.12487	0.055272	-2.4854	-2.9396	-2.3271	-3.0396	-2.7792	-2.4583	-3.3	-2.4375	-2.7542	-3.1521	-2.3542	-3.0792	-2.7792	-2.4542	-3.1188	-2.5396	102.207	-61.963	-53.764	84.361	-39.054	107.726	244.451	246.750	123.661	-73.138	237.041	46.590	-48.123	-32.012	170.526	21.948	0.00016122	0.00060056	8.5734e-05	834.03	6.5026e-06	3.1504e-06	641.3	239.84	6.9504e-06	5.9109e-06	202.38	57.331	70.375	26.821	1.5854e-05	24.55	0.00093282	0.00090593	0.00027753	789.17	1.0131e-05	1.1137e-05	598.35	220.65	1.0782e-05	1.0297e-05	194.02	56.907	69.529	25.726	1.034e-05	24.228	263.454	76.978	204.111	-72.032	120.383	236.518	-74.027	-67.137	92.052	198.011	-70.208	-66.392	-62.704	-57.403	102.951	-60.939	-8191	255	
4408.810	1	1	0	0	0.11411	0.23366	0.096974	0.14372	0.32569	0.24625	0.1467	0.14581	0.10784	0.16524	0.11593	0.21339	0.1167	0.19789	0.07002	0.14159	-2.3042	-3.0208	-2.4375	-2.8146	-2.8667	-2.5375	-3.1188	-2.4875	-2.5792	-3.1875	-2.3958	-2.9229	-2.9354	-2.3229	-2.8625	-2.5167	86.501	-21.205	-69.491	54.457	92.563	-62.559	192.821	159.676	267.389	-6.506	111.523	-68.365	130.198	157.954	207.368	266.781	0.00022618	0.001209	0.00017858	832.04	8.0513e-06	6.7953e-07	638.85	236.09	5.5891e-06	9.4838e-06	195.96	56.512	69.329	26.58	4.3986e-06	24.169	0.00095808	0.00094272	0.00028177	790.09	1.0359e-05	1.1431e-05	595.71	218.65	1.1264e-05	1.0553e-05	190.94	56.578	69.26	25.501	1.0627e-05	23.97	131.127	-44.000	139.025	-72.475	239.800	85.752	-74.042	-67.195	14.683	55.849	-70.347	-65.876	-63.615	-57.373	195.233	-61.523	-8191	255	
4408.906	1	1	0	0	0.060437	0.14908	0.076687	0.25601	0.16238	0.27258	0.2928	0.067268	0.33841	0.078124	0.070842	0.22344	0.080011	0.021277	0.15558	0.094924	-2.3104	-3.075	-2.4313	-2.7229	-2.8833	-2.2938	-3.1354	-2.6875	-2.4458	-3.0896	-2.575	-2.8667	-2.9688	-2.5312	-3.1167	-2.6792	165.948	162.752	23.442	-17.187	172.903	36.168	229.680	244.474	250.771	195.619	-81.062	211.137	179.804	225.948	116.394	101.902	0.00010603	0.0010916	0.00018939	827.32	2.0664e-06	3.5437e-06	639.42	235.69	4.78e-06	4.4958e-06	195.22	55.893	68.319	26.171	4.9636e-06	24.163	0.00096274	0.00093025	0.00027048	784.03	1.0084e-05	1.1167e-05	592.66	217.64	1.1082e-05	1.04e-05	189.96	56.352	69.017	25.286	1.1039e-05	23.919	145.971	173.440	2.867	-72.524	33.201	161.400	-74.253	-67.236	-3.310	106.283	-70.141	-66.888	-62.630	-57.932	231.270	-61.298	-8191	255	
4409.002	1	1	0	0	0.079847	0.22729	0.11786	0.073944	0.26715	0.14799	0.24221	0.10994	0.13457	0.13406	0.35538	0.26407	0.16082	0.05355	0.18401	0.012919	-2.1729	-3.2521	-2.4479	-2.7417	-3.1292	-2.4062	-3.1083	-3.0792	-2.3375	-3.1292	-2.5396	-2.7375	-3.1562	-2.3292	-3.0563	-2.8771	183.773	124.328	100.293	-83.312	-45.933	-34.025	221.228	100.381	54.050	188.242	218.777	227.687	103.730	252.641	270.646	-57.499	0.00016632	0.0008444	0.00020738	829.1	6.1745e-06	4.4052e-06	632.59	235.99	4.9849e-06	5.9863e-06	198.35	56.729	69.59	26.521	2.3435e-06	24.114	0.0010054	0.00096809	0.00027727	787.69	1.0398e-05	1.1227e-05	592.36	218.64	1.1377e-05	1.0645e-05	191.23	56.923	69.401	25.426	1.1175e-05	24.146	-59.072	24.500	-49.526	-72.325	67.005	53.737	-74.130	-67.092	44.947	44.751	-70.268	-65.605	-63.413	-57.197	47.712	-61.478	-8191	255	
4409.098	1	1	0	0	0.27581	0.076681	0.19505	0.18541	0.13954	0.10459	0.18789	0.25317	0.097114	0.13381	0.14118	0.10782	0.040654	0.16156	0.19885	0.045645	-1.9021	-3.1063	-2.5458	-2.4833	-3.1167	-2.4083	-2.8187	-2.8896	-2.5917	-3.1562	-2.3187	-2.7521	-3.1063	-2.2229	-2.7896	-3.0312	-28.300	202.431	110.118	212.160	258.497	149.080	162.344	125.569	239.644	249.678	63.020	122.504	12.854	178.579	112.442	155.991	0.00013822	0.0010898	0.00021098	822.37	5.1326e-06	9.3611e-06	637.09	237.47	3.5864e-06	4.8931e-06	199.56	57.418	69.391	26.402	3.0909e-06	24.001	0.0010053	0.00099697	0.00027523	786.58	1.0679e-05	1.125e-05	594.65	219.17	1.1466e-05	1.0764e-05	192.38	57.31	69.744	25.347	1.0952e-05	23.936	177.439	15.853	-7.861	-72.326	145.680	24.303	-74.112	-67.290	257.117	263.644	-70.242	-66.177	-62.998	-57.175	104.078	-61.300	-8191	255	
4409.219	1	1	0	0	0.17306	0.087364	0.16314	0.20619	0.023029	0.133	0.15982	0.059724	0.11527	0.033417	0.053278	0.15025	0.11781	0.14556	0.14389	0.070037	-1.7208	-2.9833	-2.8396	-2.3563	-3.0729	-2.3625	-2.8688	-2.9833	-2.4125	-3.0167	-2.6896	-2.4042	-3.0563	-2.5708	-2.6875	-3.0292	53.774	249.890	151.522	-54.044	-7.291	39.555	180.038	91.833	-77.546	110.734	-34.086	-48.770	117.287	73.393	-81.140	224.486	6.3026e-05	0.00061781	8.1576e-05	816.16	6.6754e-06	8.2182e-06	627.24	235.99	3.3077e-06	6.7343e-06	195.49	56.602	67.728	26.277	8.2833e-06	23.905	0.00097903	0.00098977	0.00026631	782.43	1.0446e-05	1.0902e-05	589.68	217.9	1.1189e-05	1.0934e-05	189.5	56.638	68.9	25.131	1.1358e-05	23.874	56.748	264.706	180.231	-72.391	85.740	65.063	-73.817	-67.267	155.631	84.717	-70.487	-66.225	-63.062	-57.370	40.602	-61.603	-8191	255	
4409.315	1	1	0	0	0.19501	0.053121	0.18367	0.15083	0.3116	0.089292	0.21051	0.11557	0.18152	0.04886	0.29614	0.3144	0.272	0.075504	0.24782	0.22973	-1.8333	-2.9604	-2.9229	-2.4729	-3.3708	-2.4917	-2.8583	-3.1521	-2.1917	-3.0062	-3.0938	-2.3021	-3.2167	-2.5062	-2.6896	-3.175	-18.449	139.676	119.771	70.548	228.028	47.785	221.570	213.123	194.241	-73.865	205.741	-24.157	-74.795	141.761	24.728	8.140	5.2271e-05	0.00080415	0.000383	823.95	4.4653e-06	3.1998e-06	627.32	236.14	3.2745e-06	4.57e-06	196.83	55.99	69.91	25.898	1.1006e-06	23.971	0.00099936	0.0010014	0.00026992	783.33	1.078e-05	1.0839e-05	588.98	218.39	1.1379e-05	1.1203e-05	189.47	56.529	69.245	24.989	1.1397e-05	23.826	8.078	-23.647	10.159	-72.480	32.527	-36.948	-74.120	-67.001	23.119	-7.767	-70.051	-65.157	-63.384	-57.187	-80.888	-61.745	-8191	255	
4409.411	1	1	0	0	0.06137	0.056456	0.11788	0.1083	0.11995	0.094324	0.21697	0.24216	0.20069	0.21287	0.11611	0.26423	0.23198	0.11189	0.27824	0.31725	-1.9312	-2.7271	-2.8125	-2.3333	-3	-2.5938	-2.6729	-3.1896	-2.3812	-2.9875	-2.9833	-2.2729	-2.9375	-2.6396	-2.7	-3.1625	204.053	202.206	97.693	-30.027	27.691	225.253	146.340	197.584	188.583	140.600	255.229	241.800	-61.636	-77.006	236.131	160.907	1.3207e-05	0.00039248	0.00026701	813.21	6.2073e-06	6.0963e-06	632.7	237.01	8.5091e-06	3.4539e-06	196.1	57.462	68.932	25.959	1.3139e-05	24.141	0.00098179	0.0010286	0.00027044	780.68	1.1027e-05	1.0784e-05	592.01	217.88	1.119e-05	1.1306e-05	190.42	57.247	69.613	25.036	1.1507e-05	23.994	179.164	-12.303	158.163	-72.086	-79.186	-30.454	-73.977	-66.958	195.916	-58.948	-70.355	-65.646	-62.731	-57.457	237.769	-61.681	-8191	255	
4409.507	1	1	0	0	0.043159	0.16163	0.026646	0.11888	0.12164	0.056411	0.11097	0.043235	0.18905	0.064271	0.26334	0.082312	0.031593	0.17334	0.29494	0.12505	-2.1021	-2.5958	-3.125	-2.1437	-3.1146	-2.7438	-2.4167	-3.1792	-2.3958	-2.8438	-3.0312	-2.3	-2.8417	-2.7896	-2.4646	-3.2417	208.105	28.425	197.340	6.084	26.051	203.633	128.305	-59.208	168.672	4.578	237.443	205.045	-5.809	-72.804	98.696	222.177	9.0542e-05	0.00026379	0.00032905	824.35	5.2235e-06	8.8085e-06	634.53	236.86	7.0233e-06	1.4057e-05	196.42	58.061	69.241	26.321	1.0135e-05	24.43	0.00095485	0.001041	0.00027195	785.24	1.1113e-05	1.081e-05	596.07	218.88	1.1113e-05	1.1459e-05	191.2	57.39	70.1	25.255	1.1463e-05	24.248	260.818	-22.594	231.554	-72.198	263.697	147.299	-73.636	-66.978	38.338	173.815	-70.936	-65.665	-63.064	-57.146	131.982	-62.041	-8191	255	
4409.602	1	1	0	0	0.14787	0.20992	0.055642	0.11459	0.0089645	0.24575	0.27752	0.20171	0.12138	0.18316	0.3009	0.044402	0.1578	0.10897	0.26732	0.23921	-1.9729	-2.5375	-3.0333	-2.4854	-2.8125	-2.8563	-2.4604	-3.2938	-2.7438	-2.6604	-3.0167	-2.3896	-2.775	-3.0458	-2.4083	-3.1375	-26.069	210.666	1.323	220.363	268.181	75.211	-74.693	218.466	-3.528	102.507	-48.849	253.563	260.637	178.977	240.343	252.709	0.00019158	0.00084513	0.00024302	824.07	3.6992e-06	1.635e-05	629.25	237.03	1.1496e-05	1.0154e-05	196.22	57.119	68.156	26.131	3.7566e-06	23.937	0.00094066	0.001038	0.00026841	782.93	1.111e-05	1.0646e-05	591.03	218.91	1.0939e-05	1.1878e-05	189.82	56.606	70.029	25.044	1.1779e-05	23.908	134.189	114.495	238.115	-72.742	270.395	111.242	-73.867	-67.132	72.560	91.730	-70.095	-66.715	-62.992	-57.021	240.379	-61.093	-8191	255	
4409.698	1	1	0	0	0.16756	0.30461	0.15103	0.20272	0.11227	0.11766	0.23767	0.32898	0.20266	0.16964	0.15125	0.1405	0.15528	0.13211	0.14907	0.22781	-2.2188	-2.5375	-3.0563	-2.3646	-2.8333	-3.0604	-2.3667	-3.0604	-2.4688	-2.3583	-3.1625	-2.3479	-2.7812	-3.0375	-2.275	-3.1542	6.798	77.532	41.733	87.389	211.494	-53.874	254.088	-54.192	102.916	247.252	267.994	114.099	191.094	-72.644	67.847	273.995	0.00026656	0.0011739	0.00014066	824.1	4.7606e-06	1.0629e-05	629.24	237.05	6.8903e-06	9.0348e-06	195.4	57.063	69.425	26.069	4.3397e-06	23.915	0.00095631	0.0010556	0.00027399	779.82	1.1193e-05	1.0638e-05	589.3	219.79	1.0988e-05	1.2033e-05	190.73	56.671	70.541	25.122	1.1748e-05	24.039	164.482	-28.404	124.874	-72.278	33.794	32.663	-74.074	-67.119	225.703	-75.935	-70.101	-65.890	-63.125	-57.112	126.914	-61.189	-8191	255	
4409.819	1	1	0	0	0.24102	0.12393	0.057078	0.14081	0.24743	0.1179	0.1937	0.098181	0.062212	0.1088	0.14511	0.32686	0.14315	0.20129	0.2154	0.063848	-2.2146	-2.3146	-3.0917	-2.5229	-2.6021	-3	-2.5042	-3.0062	-2.95	-2.4958	-3.2438	-2.4437	-2.6437	-2.9875	-2.2	-2.9729	-25.156	49.993	57.826	180.346	-8.975	-69.618	-18.469	5.458	29.643	94.283	156.386	238.783	254.130	123.107	248.081	-23.637	0.0001336	0.0018989	0.00020607	821.85	3.6059e-06	6.4793e-06	634.05	235.98	1.3553e-05	6.8234e-06	197.98	57.61	69.335	26.677	7.5666e-06	24.205	0.0009333	0.0010759	0.00027541	780.87	1.1364e-05	1.0712e-05	593.49	219.91	1.0672e-05	1.1733e-05	192.04	57.152	70.758	25.397	1.1877e-05	24.435	89.551	73.625	-8.691	-72.337	140.677	-56.494	-74.314	-67.117	1.311	51.607	-70.215	-66.131	-62.926	-57.254	22.295	-61.029	-8191	255	
4409.915	1	1	0	0	0.27896	0.03882	0.17723	0.19028	0.153	0.23871	0.11437	0.17296	0.12366	0.19055	0.19934	0.1417	0.15768	0.24873	0.11895	0.1891	-2.4333	-2.3479	-3.0958	-2.6	-2.6708	-3.1583	-2.5208	-2.8312	-2.925	-2.3312	-3.1667	-2.6521	-2.6646	-3.2146	-2.4688	-2.7479	97.498	207.920	37.491	61.973	-10.688	-56.043	181.089	142.923	238.827	-61.334	-82.357	159.150	135.776	239.877	-12.871	228.947	0.0002406	0.0012524	9.4754e-05	821.28	8.6077e-06	9.0139e-06	640.92	238.24	2.8652e-06	3.9775e-06	199.39	57.271	69.662	26.595	1.9838e-06	24.196	0.00097545	0.0011125	0.00028839	786.71	1.2068e-05	1.142e-05	598.4	221.94	1.1004e-05	1.2068e-05	194.29	57.303	71.215	25.627	1.1456e-05	24.545	95.645	-21.123	226.444	-72.501	-6.423	206.175	-74.065	-66.702	193.546	-3.969	-69.683	-65.587	-62.283	-57.045	90.542	-60.998	-8191	255	
4410.011	1	1	0	0	0.41928	0.21305	0.17415	0.18805	0.20062	0.080996	0.33965	0.20369	0.18079	0.19669	0.059435	0.30313	0.15987	0.15956	0.056694	0.16224	-2.6063	-2.0771	-2.8604	-2.6188	-2.3875	-3.0583	-2.5438	-2.9167	-3.0708	-2.225	-2.9021	-2.8583	-2.3625	-3.1396	-2.5375	-2.7188	-54.980	143.450	106.489	219.965	-52.977	167.531	216.966	193.653	210.477	189.505	223.403	-52.190	148.818	-79.328	-51.901	-10.321	0.00017291	0.0016859	0.00037711	825.34	7.6688e-06	9.6773e-06	631.09	238.68	1.5252e-06	7.5385e-06	197.02	57.063	69.597	26.281	4.3884e-06	24.182	0.00095699	0.001082	0.00029188	785.45	1.1828e-05	1.1072e-05	595.49	221.68	1.0885e-05	1.1692e-05	191.08	56.546	70.67	25.355	1.0979e-05	24.195	249.093	-10.889	118.319	-72.502	178.781	89.027	-74.122	-66.854	176.863	68.152	-70.829	-65.774	-63.088	-57.463	75.358	-60.664	-8191	255	
4410.107	1	1	0	0	0.20466	0.16029	0.069158	0.18986	0.15649	0.1453	0.14389	0.032736	0.13156	0.073362	0.07494	0.22919	0.099191	0.10212	0.077031	0.14241	-2.6813	-2.2792	-2.9583	-2.9583	-2.4104	-2.8958	-2.6583	-2.7979	-3.0333	-2.3271	-2.9854	-2.9875	-2.2479	-3.1729	-2.5604	-2.5375	264.672	-46.433	154.058	275.019	-57.503	121.907	-82.440	-6.573	-68.360	-3.405	189.654	246.576	190.752	160.916	230.264	17.755	0.00012677	0.0013547	0.00011732	816.97	8.8825e-07	9.744e-06	633.92	239.74	9.58e-06	6.5185e-06	197.6	56.867	69.317	26.203	4.9639e-06	24.263	0.00094375	0.0010467	0.0002832	779.98	1.1772e-05	1.086e-05	592.85	220.83	1.0819e-05	1.1415e-05	191.93	56.279	70.414	25.32	1.0766e-05	24.175	100.699	-21.028	125.994	-72.767	-22.784	49.818	-73.682	-66.900	271.521	132.946	-70.815	-66.035	-63.799	-56.509	136.032	-61.025	-8191	255	
4410.179	1	1	0	0	0.28057	0.24531	0.20076	0.2424	0.37007	0.062849	0.31135	0.1378	0.086774	0.22219	0.11662	0.011636	0.14987	0.083083	0.096871	0.31995	-2.5771	-2.3729	-2.7917	-2.8854	-2.4125	-3.1896	-2.6479	-2.5833	-3.0958	-2.2	-2.7958	-2.9229	-2.3229	-3.1104	-2.625	-2.4083	-43.101	245.992	274.283	-11.291	75.221	154.340	214.107	180.045	70.919	121.854	96.482	94.554	167.428	195.834	223.419	-74.740	8.0233e-05	0.00065072	0.00026	820.43	8.7019e-06	9.1895e-06	636.59	236.51	5.2292e-06	6.4724e-06	195.9	57.644	70.556	26.586	5.3586e-06	24.487	0.0009117	0.00099747	0.00027728	773.73	1.1311e-05	1.0695e-05	593.65	219.64	1.0518e-05	1.0856e-05	191.54	56.465	70.354	25.492	1.0387e-05	24.444	207.039	103.709	174.704	-72.643	68.364	230.227	-74.210	-67.059	61.871	14.984	-70.075	-65.549	-62.732	-56.974	24.579	-61.755	-8191	255	
4410.299	1	1	0	0	0.23254	0.11943	0.063692	0.14366	0.28987	0.16886	0.16584	0.28621	0.19661	0.10767	0.099993	0.17272	0.17578	0.119	0.19244	0.085271	-2.5896	-2.4354	-2.6104	-3.1542	-2.5208	-2.9667	-2.8479	-2.5187	-3.2	-2.4479	-2.7646	-2.9292	-2.3042	-2.9896	-2.9583	-2.3438	133.978	-25.241	77.522	194.813	60.903	248.195	258.220	228.225	208.190	130.902	3.735	60.074	98.528	94.514	206.311	205.661	2.0735e-05	0.00068843	4.6734e-05	824.13	8.1334e-06	2.9988e-06	638.95	238.12	8.2713e-06	3.7139e-06	197.41	56.609	69.895	26.364	2.6541e-06	24.248	0.0009072	0.00097096	0.00027513	780.73	1.0899e-05	1.0612e-05	595.47	220.78	1.0317e-05	1.0573e-05	191.17	56.088	69.706	25.316	9.9564e-06	23.955	268.123	-32.407	97.903	-72.731	-8.520	-80.982	-74.378	-67.336	-13.744	272.834	-70.383	-66.283	-63.161	-57.576	9.393	-61.966	-8191	255	
4410.396	1	1	0	0	0.095522	0.16515	0.11099	0.067526	0.09934	0.13447	0.23986	0.1205	0.088876	0.071208	0.3569	0.25415	0.12638	0.14106	0.099779	0.35104	-2.7708	-2.4625	-2.6146	-3.0625	-2.5062	-3.0521	-2.875	-2.2583	-3.0625	-2.4833	-2.4354	-3.1063	-2.2292	-2.7604	-2.8583	-2.3104	44.105	233.270	190.365	146.220	262.216	161.242	240.418	34.925	51.899	64.722	-44.100	265.521	187.786	235.744	-20.455	-35.317	0.00014308	0.00078613	0.00024536	823.86	4.2468e-07	1.3032e-05	633.88	236.56	6.4102e-06	3.3193e-06	196.13	56.983	69.021	26.702	5.5583e-06	23.877	0.00088853	0.00091641	0.00027372	776.29	1.0636e-05	1.0572e-05	589.84	218.69	1.0234e-05	1.0106e-05	189.84	55.528	69.432	25.361	9.9743e-06	23.825	254.049	14.852	-42.878	-72.724	222.492	132.140	-74.430	-67.448	73.033	-68.590	-70.617	-66.079	-63.444	-56.887	58.796	-61.422	-8191	255	
4410.492	1	1	0	0	0.11061	0.20545	0.081911	0.12803	0.25188	0.080972	0.1399	0.19611	0.19137	0.12145	0.13885	0.32076	0.038884	0.075612	0.020153	0.12819	-2.6583	-2.7375	-2.4146	-3.1479	-2.7625	-2.7167	-2.9896	-2.3312	-3.1042	-2.7625	-2.3396	-3.2021	-2.2729	-2.7667	-2.9771	-2.3458	114.840	231.137	211.554	134.649	56.426	45.049	232.487	244.170	-24.474	190.902	-18.985	53.898	170.734	1.334	139.365	180.753	0.00010538	0.0013096	0.00025109	817.79	8.0025e-06	7.7907e-06	640.52	236.38	1.3322e-05	1.4879e-05	197.85	56.519	69.523	26.793	7.9079e-06	23.769	0.000892	0.00091977	0.0002718	775.83	1.0344e-05	1.0469e-05	590.6	218.48	1.0099e-05	9.8606e-06	190.12	55.773	69.099	25.43	1.0021e-05	23.731	150.029	153.604	-61.433	-72.569	272.070	135.946	-74.339	-66.770	5.355	-46.267	-70.216	-66.314	-63.265	-57.211	42.149	-61.410	-8191	255	
4410.611	1	1	0	0	0.082724	0.33182	0.17694	0.16033	0.082217	0.23802	0.2016	0.061079	0.089592	0.13422	0.24851	0.3978	0.15928	0.281	0.20472	0.2172	-2.5917	-2.8208	-2.6083	-3.0708	-2.3312	-2.7188	-3.2729	-2.3146	-2.9229	-2.8312	-2.4375	-3.2188	-2.4583	-2.3521	-2.9479	-2.4688	69.498	40.475	146.405	223.723	202.300	176.928	270.108	248.503	-55.918	17.775	165.330	269.749	252.023	257.060	270.031	195.351	0.00017441	0.00027148	0.00026357	834.84	4.0656e-06	1.1628e-05	637.7	236.27	9.2537e-06	6.9929e-06	196.27	57.23	69.497	26.647	1.8327e-06	24.137	0.00090819	0.00092938	0.00028212	782.87	1.0629e-05	1.0755e-05	592.36	218.3	1.0454e-05	9.9379e-06	191.07	56.403	69.386	25.515	1.0088e-05	24.059	-68.003	-66.346	-21.331	-72.506	143.651	67.867	-74.244	-67.083	-70.635	55.745	-70.062	-65.519	-62.846	-56.790	164.864	-61.207	-8191	255	
4410.707	1	1	0	0	0.17064	0.22337	0.11292	0.10662	0.18631	0.025751	0.16496	0.1066	0.15479	0.092711	0.38952	0.10809	0.23011	0.15646	0.17371	0.21817	-2.375	-2.7104	-2.3688	-3.1104	-2.5875	-2.4354	-3.2854	-2.4604	-2.9771	-2.8104	-2.2917	-2.9521	-2.4542	-2.3688	-3.1479	-2.3896	197.230	-32.798	111.305	-79.501	149.466	-60.058	-5.878	32.675	-82.608	-76.428	132.556	238.006	232.780	175.606	76.763	267.652	0.00016112	0.00089943	0.00023146	830.66	7.884e-06	3.3323e-06	638.83	234.84	4.2978e-06	5.6536e-06	196.94	57.024	69.994	26.417	4.6528e-06	23.942	0.00092121	0.00091973	0.00028165	782.97	1.0398e-05	1.1137e-05	595.47	218.03	1.0795e-05	1.0382e-05	191.57	56.525	69.45	25.49	1.0201e-05	23.817	162.625	7.084	-16.887	-72.341	-23.060	19.305	-74.081	-66.949	-48.845	102.321	-70.559	-65.780	-62.927	-57.377	151.700	-61.575	-8191	255	
4410.780	1	1	0	0	0.31432	0.0922	0.32082	0.098206	0.29651	0.10403	0.14018	0.11386	0.023599	0.035056	0.18745	0.18116	0.030582	0.37122	0.084805	0.33569	-2.4771	-2.9917	-2.1833	-3.1854	-2.6083	-2.3708	-3.2771	-2.6333	-2.7583	-2.8542	-2.3854	-2.9042	-2.7687	-2.5083	-3.2542	-2.6292	-60.343	155.065	169.868	6.979	-25.146	0.013	248.423	-83.700	-43.156	45.144	151.467	241.712	53.850	182.347	-50.526	267.767	0.00020741	0.0010156	0.00013012	826.7	4.522e-06	7.8161e-06	638.78	236.01	6.1206e-06	3.2173e-06	195.99	56.435	68.214	26.169	6.0462e-06	23.502	0.00092276	0.00090979	0.00027667	782.32	1.0115e-05	1.1251e-05	594.09	217.74	1.1052e-05	1.0392e-05	189.75	56.125	69.076	25.315	1.0756e-05	23.747	170.996	214.414	224.623	-72.291	-58.138	14.013	-74.079	-67.203	-56.458	46.841	-70.440	-65.415	-63.289	-57.003	3.124	-61.813	-8191	255	
4410.899	1	1	0	0	0.1059	0.21092	0.22269	0.22153	0.034438	0.10272	0.12779	0.15986	0.043071	0.14623	0.19605	0.10759	0.16686	0.1544	0.074331	0.038688	-2.2938	-3.0292	-2.3688	-3.075	-2.8958	-2.5	-3.1583	-2.6396	-2.5958	-3.1875	-2.3729	-2.7542	-2.7896	-2.3167	-3.0542	-2.6729	241.891	203.597	49.678	146.103	-72.408	-54.490	60.836	236.560	257.249	105.694	-63.389	106.770	252.191	258.801	191.145	103.248	0.00023333	0.00070565	0.0001022	828.17	8.806e-06	7.0137e-06	635.56	236.02	1.0019e-05	1.4018e-05	195.95	57.318	68.825	26.69	1.047e-05	23.88	0.0009976	0.00097373	0.00028982	787.03	1.0651e-05	1.154e-05	594.4	218.05	1.1546e-05	1.084e-05	190.38	56.831	69.602	25.647	1.0991e-05	23.86	249.386	114.843	96.211	-72.099	39.785	-12.179	-74.018	-67.244	93.490	58.712	-70.723	-66.417	-63.142	-56.808	169.705	-61.176	-8191	255	
4410.995	1	1	0	0	0.19131	0.1075	0.07777	0.09876	0.035406	0.08677	0.27578	0.084156	0.11638	0.22017	0.30727	0.072248	0.29247	0.12965	0.22703	0.14205	-2.0229	-3.2188	-2.3479	-2.7854	-3.025	-2.4542	-2.9479	-2.7375	-2.4354	-3.2604	-2.3083	-2.7375	-2.8729	-2.5583	-2.9417	-2.8438	131.316	174.043	11.347	131.043	185.210	167.453	193.907	194.382	170.104	82.356	210.323	107.714	196.475	-85.190	261.865	70.616	0.00011208	0.00095382	0.00049168	827.74	3.2196e-06	8.9546e-06	639.15	236.83	6.1967e-06	6.6308e-06	198.07	57.896	70.088	26.664	5.3702e-06	24.31	0.00098998	0.0009656	0.000275	786.41	1.0421e-05	1.1424e-05	596.66	219.47	1.1653e-05	1.0921e-05	192.19	57.493	70.207	25.824	1.1186e-05	24.311	-16.451	33.995	2.050	-72.352	250.564	-82.829	-73.463	-67.346	165.436	209.851	-70.638	-65.897	-62.688	-56.521	119.643	-61.251	-8191	255	
4411.091	1	1	0	0	0.13638	0.086529	0.065713	0.07088	0.10674	0.29413	0.24032	0.23361	0.10607	0.10641	0.12062	0.31779	0.37463	0.055517	0.15539	0.2021	-1.8604	-3.125	-2.4125	-2.5958	-2.9229	-2.3563	-3.1479	-2.7229	-2.3417	-3.1375	-2.5021	-2.7562	-3.0646	-2.3542	-3.0792	-2.8854	267.212	-47.808	38.301	-4.762	132.877	-76.056	226.235	230.373	8.264	246.754	233.472	253.931	104.262	165.151	-24.372	250.678	6.0938e-05	0.0004396	0.00016887	824.51	1.1396e-05	5.6678e-06	637.77	240.11	7.0631e-06	5.6335e-06	200.05	58.277	70.452	27.029	2.4223e-06	24.284	0.0010284	0.0010088	0.00028555	791.24	1.0925e-05	1.174e-05	601.12	221.62	1.1852e-05	1.1044e-05	192.92	57.814	70.54	25.903	1.1353e-05	24.277	210.343	147.641	-5.935	-72.029	77.690	9.573	-74.107	-67.247	42.296	-18.284	-70.572	-65.881	-62.874	-56.830	266.082	-60.823	-8191	255	
4411.212	1	1	0	0	0.026864	0.16024	0.084551	0.13194	0.028494	0.095198	0.34685	0.14597	0.25218	0.26955	0.42158	0.24978	0.11986	0.4007	0.13607	0.031369	-1.9708	-3.1813	-2.5	-2.5292	-2.9583	-2.3896	-2.8271	-2.8271	-2.2396	-3.0271	-2.7125	-2.5042	-3.0417	-2.4646	-2.7375	-2.9813	179.978	264.823	168.292	193.216	213.355	105.586	182.164	217.910	34.224	73.572	208.898	262.951	166.920	272.542	-68.826	99.326	0.00028253	0.00056942	0.00031582	839.54	4.1102e-06	1.2692e-05	639.61	236.56	2.448e-06	5.4079e-06	198.64	57.343	69.187	26.79	1.3661e-05	23.934	0.0010273	0.0010245	0.00028333	797.57	1.0865e-05	1.1605e-05	599.72	220.34	1.1667e-05	1.1033e-05	191.71	57.059	70.175	25.645	1.1219e-05	23.936	61.595	29.410	44.539	-72.416	94.960	-33.773	-73.592	-67.070	-41.336	149.771	-69.585	-65.808	-63.257	-56.913	13.350	-60.865	-8191	255	
4411.308	1	1	0	0	0.058538	0.14198	0.12081	0.12209	0.23447	0.40104	0.032417	0.092399	0.060373	0.19658	0.3209	0.18927	0.065375	0.20954	0.16957	0.0083487	-1.9333	-2.9917	-2.5542	-2.4521	-3.2146	-2.2583	-2.825	-3.2458	-2.1562	-2.8937	-2.7104	-2.3417	-3.2521	-2.4813	-2.4646	-3.0604	222.047	86.683	187.775	12.905	274.838	218.436	-12.961	184.144	8.514	7.380	175.657	-80.428	-45.263	270.057	-74.145	194.029	0.00028126	0.00041109	0.00019052	838.13	7.083e-06	6.4784e-06	639.04	235.6	2.1921e-06	8.229e-06	195.69	56.57	69.439	26.433	1.2951e-06	24.226	0.001009	0.0010001	0.00027303	793.06	1.0741e-05	1.1079e-05	597.84	218.33	1.1313e-05	1.101e-05	190.17	56.705	69.808	25.367	1.1078e-05	23.849	153.880	-19.999	253.883	-72.421	135.143	10.964	-73.541	-66.741	-73.402	-30.753	-69.688	-65.421	-62.820	-57.050	125.740	-60.577	-8191	255	
4411.402	1	1	0	0	0.17444	0.11767	0.2835	0.12427	0.16098	0.037266	0.2199	0.12718	0.096893	0.12484	0.13604	0.19348	0.34978	0.080963	0.085527	0.23275	-1.6896	-3.0167	-2.6333	-2.3688	-2.8542	-2.5729	-2.5	-3.0667	-2.2979	-2.8	-3	-2.4562	-2.9896	-2.4729	-2.5062	-3.1625	0.846	64.158	127.154	101.565	264.982	48.387	151.508	-24.406	120.063	41.779	207.608	12.126	205.167	193.191	260.031	-47.540	0.00013406	0.00053668	0.00011561	829.61	7.3876e-06	2.1804e-05	641.92	237.55	5.4344e-06	2.5662e-06	197.5	57.82	69.024	26.605	5.6053e-06	24.519	0.00095054	0.00096889	0.00026103	790.84	1.0364e-05	1.0455e-05	598.41	218.79	1.0797e-05	1.0673e-05	190.14	57.217	69.691	25.411	1.116e-05	24.105	253.326	208.505	271.844	-71.928	205.734	66.925	-73.377	-66.915	83.741	188.567	-69.730	-65.668	-62.607	-56.716	92.923	-61.345	-8191	255	
4411.476	1	1	0	0	0.14644	0.069727	0.11882	0.10336	0.040286	0.17621	0.08739	0.3441	0.25499	0.23411	0.11661	0.078403	0.29763	0.12339	0.18647	0.086828	-2.1958	-2.6792	-2.8312	-2.4542	-3.0583	-2.6396	-2.4917	-3.1292	-2.3354	-2.9375	-2.8542	-2.3958	-3.0021	-2.7479	-2.4792	-3.0771	56.837	258.507	120.915	265.288	114.644	44.716	-3.951	234.081	240.978	60.567	129.885	230.372	234.302	-19.353	126.312	77.648	0.0002968	0.0012371	0.00014487	833.61	4.3357e-06	6.7417e-06	648.02	237.02	6.2445e-06	8.0125e-06	199.9	57.853	69.974	26.871	5.5785e-06	24.166	0.00093467	0.00098654	0.00025928	793.37	1.0438e-05	1.0138e-05	601.81	219.48	1.0477e-05	1.0602e-05	190.34	56.995	70.09	25.329	1.0733e-05	23.835	199.763	219.071	-38.045	-71.856	73.825	46.364	-73.354	-66.937	85.258	-3.690	-69.582	-65.410	-62.522	-56.795	192.335	-61.241	-8191	255	
4411.595	1	1	0	0	0.33707	0.15667	0.31998	0.18498	0.073812	0.12339	0.23022	0.12361	0.0050276	0.12262	0.18312	0.094599	0.17459	0.041235	0.31075	0.086766	-1.9833	-2.6625	-3.0875	-2.3729	-2.9354	-2.7104	-2.4229	-3.2958	-2.2917	-2.7188	-3.0354	-2.2458	-3.0312	-2.8146	-2.4458	-3.3563	260.716	152.602	192.314	66.140	197.688	54.088	238.862	102.090	-73.257	141.213	108.510	40.779	-38.942	231.817	138.561	84.237	0.0001709	0.00043791	4.1758e-05	836.38	8.6002e-06	1.0058e-05	638.21	236.3	1.3671e-05	7.0049e-06	197.16	56.397	69.584	26.388	7.738e-06	23.609	0.00089019	0.0009488	0.0002488	788.39	1.0254e-05	9.8614e-06	596.33	218.62	1.0271e-05	1.0827e-05	187.83	56.17	69.387	25.11	1.0729e-05	23.54	223.236	164.954	210.106	-72.336	91.879	-48.341	-73.801	-67.197	-5.250	229.769	-70.004	-65.385	-62.254	-56.813	66.774	-60.961	-8191	255	
#DATA ENDS
