BOXY.EXE: ISS Imagent and Oximeter Data Acquisition Program Version 0.80
Ascii Record File

#ACQ INFORMATION
2  Detector Channels 
16  External MUX Channels 
1  Auxiliary Channels 
5000  Waveform (CCF) Frequency (Hz)
1  Waveforms Skipped 
30  Waveforms Averaged 
1  Cycles Averaged 
16  Acquisitions per Waveform 
10.0806  Updata Rate (Hz) 

#FILE INFORMATION
TRUE -- External MUX Channel results are PARSED.
FALSE -- AC DC and Phase are NOT grouped.
TRUE -- Companion Program Settings File CREATED.
FALSE -- AC data not excluded
FALSE -- DC data not excluded
FALSE -- Phase data not excluded
FALSE -- Auxillary Chn. data not excluded
Tab delimiters

#CALIBRATION STATE
TRUE -- Waveform Calibration Values APPLIED.


#AUX CALIBRATION VALUES
Val Type	aux-1	

Term	1.0000e+00	
Factor	0.0000e+00	


#WF CALIBRATION VALUES
A = Detector Channel
Val Type	A-AC1	A-AC2	A-AC3	A-AC4	A-AC5	A-AC6	A-AC7	A-AC8	A-AC9	A-AC10	A-AC11	A-AC12	A-AC13	A-AC14	A-AC15	A-AC16	A-DC1	A-DC2	A-DC3	A-DC4	A-DC5	A-DC6	A-DC7	A-DC8	A-DC9	A-DC10	A-DC11	A-DC12	A-DC13	A-DC14	A-DC15	A-DC16	A-Ph1	A-Ph2	A-Ph3	A-Ph4	A-Ph5	A-Ph6	A-Ph7	A-Ph8	A-Ph9	A-Ph10	A-Ph11	A-Ph12	A-Ph13	A-Ph14	A-Ph15	A-Ph16	

Term	0.00000e+00	0.00000e+00	0.00000e+00	0.00000e+00	0.00000e+00	0.00000e+00	0.00000e+00	0.00000e+00	0.00000e+00	0.00000e+00	0.00000e+00	0.00000e+00	0.00000e+00	0.00000e+00	0.00000e+00	0.00000e+00	0.00000e+00	0.00000e+00	0.00000e+00	0.00000e+00	0.00000e+00	0.00000e+00	0.00000e+00	0.00000e+00	0.00000e+00	0.00000e+00	0.00000e+00	0.00000e+00	0.00000e+00	0.00000e+00	0.00000e+00	0.00000e+00	0.00000e+00	0.00000e+00	0.00000e+00	0.00000e+00	0.00000e+00	0.00000e+00	0.00000e+00	0.00000e+00	0.00000e+00	0.00000e+00	0.00000e+00	0.00000e+00	0.00000e+00	0.00000e+00	0.00000e+00	0.00000e+00	
Factor	1.00000e+00	1.00000e+00	1.00000e+00	1.00000e+00	1.00000e+00	1.00000e+00	1.00000e+00	1.00000e+00	1.00000e+00	1.00000e+00	1.00000e+00	1.00000e+00	1.00000e+00	1.00000e+00	1.00000e+00	1.00000e+00	1.00000e+00	1.00000e+00	1.00000e+00	1.00000e+00	1.00000e+00	1.00000e+00	1.00000e+00	1.00000e+00	1.00000e+00	1.00000e+00	1.00000e+00	1.00000e+00	1.00000e+00	1.00000e+00	1.00000e+00	1.00000e+00	X	X	X	X	X	X	X	X	X	X	X	X	X	X	X	X	

B = Detector Channel
Val Type	B-AC1	B-AC2	B-AC3	B-AC4	B-AC5	B-AC6	B-AC7	B-AC8	B-AC9	B-AC10	B-AC11	B-AC12	B-AC13	B-AC14	B-AC15	B-AC16	B-DC1	B-DC2	B-DC3	B-DC4	B-DC5	B-DC6	B-DC7	B-DC8	B-DC9	B-DC10	B-DC11	B-DC12	B-DC13	B-DC14	B-DC15	B-DC16	B-Ph1	B-Ph2	B-Ph3	B-Ph4	B-Ph5	B-Ph6	B-Ph7	B-Ph8	B-Ph9	B-Ph10	B-Ph11	B-Ph12	B-Ph13	B-Ph14	B-Ph15	B-Ph16	

Term	0.00000e+00	0.00000e+00	0.00000e+00	0.00000e+00	0.00000e+00	0.00000e+00	0.00000e+00	0.00000e+00	0.00000e+00	0.00000e+00	0.00000e+00	0.00000e+00	0.00000e+00	0.00000e+00	0.00000e+00	0.00000e+00	0.00000e+00	0.00000e+00	0.00000e+00	0.00000e+00	0.00000e+00	0.00000e+00	0.00000e+00	0.00000e+00	0.00000e+00	0.00000e+00	0.00000e+00	0.00000e+00	0.00000e+00	0.00000e+00	0.00000e+00	0.00000e+00	-1.55621e+02	-1.24518e+02	-1.31563e+02	-1.86928e+02	-8.61065e+01	-8.09538e+01	-1.58580e+02	-1.62015e+02	-9.05556e+01	-5.18402e+01	-1.71958e+02	-1.71373e+02	-1.84090e+02	-1.77418e+02	-5.60760e+01	-1.49892e+02	
Factor	2.32733e-05	1.42972e-04	3.50683e-05	3.05204e-01	1.19204e-06	1.37942e-06	1.67467e-01	5.21981e-02	1.31927e-06	1.23116e-06	8.50871e-02	2.82555e-02	4.13559e-02	9.14115e-03	1.20639e-06	1.30226e-02	1.85266e-06	1.96068e-06	5.46078e-07	1.54168e-01	2.14539e-08	2.15340e-08	8.10941e-02	2.69203e-02	2.14088e-08	2.15808e-08	4.22580e-02	1.40733e-02	2.10731e-02	4.71898e-03	2.14232e-08	6.49031e-03	X	X	X	X	X	X	X	X	X	X	X	X	X	X	X	X	



#DISTANCE SETTINGS
A = Detector Channel
A-1	A-2	A-3	A-4	A-5	A-6	A-7	A-8	A-9	A-10	A-11	A-12	A-13	A-14	A-15	A-16	

2.5000e+00	3.0000e+00	2.5000e+00	3.0000e+00	2.0000e+00	3.0000e+00	1.5000e+00	3.0000e+00	3.0000e+00	3.0000e+00	3.0000e+00	3.0000e+00	3.0000e+00	3.0000e+00	1.5000e+00	3.0000e+00	

B = Detector Channel
B-1	B-2	B-3	B-4	B-5	B-6	B-7	B-8	B-9	B-10	B-11	B-12	B-13	B-14	B-15	B-16	

1.0000e+01	1.0000e+01	1.0000e+01	1.4400e+00	1.0000e+01	1.0000e+01	1.5100e+00	1.9400e+00	1.0000e+01	1.0000e+01	1.9900e+00	2.4900e+00	2.4100e+00	2.9000e+00	1.0000e+01	2.9800e+00	




#DATA BEGINS
time	group	step	mark	flag	A-AC1	A-AC2	A-AC3	A-AC4	A-AC5	A-AC6	A-AC7	A-AC8	A-AC9	A-AC10	A-AC11	A-AC12	A-AC13	A-AC14	A-AC15	A-AC16	A-DC1	A-DC2	A-DC3	A-DC4	A-DC5	A-DC6	A-DC7	A-DC8	A-DC9	A-DC10	A-DC11	A-DC12	A-DC13	A-DC14	A-DC15	A-DC16	A-Ph1	A-Ph2	A-Ph3	A-Ph4	A-Ph5	A-Ph6	A-Ph7	A-Ph8	A-Ph9	A-Ph10	A-Ph11	A-Ph12	A-Ph13	A-Ph14	A-Ph15	A-Ph16	B-AC1	B-AC2	B-AC3	B-AC4	B-AC5	B-AC6	B-AC7	B-AC8	B-AC9	B-AC10	B-AC11	B-AC12	B-AC13	B-AC14	B-AC15	B-AC16	B-DC1	B-DC2	B-DC3	B-DC4	B-DC5	B-DC6	B-DC7	B-DC8	B-DC9	B-DC10	B-DC11	B-DC12	B-DC13	B-DC14	B-DC15	B-DC16	B-Ph1	B-Ph2	B-Ph3	B-Ph4	B-Ph5	B-Ph6	B-Ph7	B-Ph8	B-Ph9	B-Ph10	B-Ph11	B-Ph12	B-Ph13	B-Ph14	B-Ph15	B-Ph16	aux-1	digaux	

4363.458	1	1	0	512	0.095974	0.021599	0.055737	0.047601	0.17073	0.33269	0.17683	0.10956	0.16192	0.16023	0.17773	0.081834	0.07761	0.13383	0.11528	0.10233	-1.8042	-3.0271	-2.9083	-2.3521	-2.9896	-2.4708	-2.9104	-2.9417	-2.3479	-2.9688	-3.0042	-2.6479	-3.1875	-2.5438	-2.6229	-3.1979	250.965	129.561	225.039	228.628	-8.111	204.644	200.351	216.491	220.068	2.642	54.900	252.323	241.387	-0.881	212.755	119.188	0.00014266	0.00027461	3.8188e-05	679.04	3.1077e-06	4.3273e-06	567.66	185.07	1.2708e-06	3.4009e-06	167.73	50.553	53.333	18.852	4.9735e-06	20.203	0.00032191	0.00030791	8.2713e-05	601.22	3.3431e-06	3.3773e-06	505.7	163.57	3.3607e-06	3.2923e-06	150.25	46.046	48.789	17.129	3.5184e-06	18.17	117.766	73.428	227.083	-72.916	265.240	24.246	-73.746	-68.146	56.124	140.009	-69.843	-66.114	-63.893	-58.111	109.088	-61.181	-8191	255	
4363.555	1	1	0	0	0.3908	0.12238	0.19578	0.11742	0.16333	0.39106	0.1211	0.078559	0.14027	0.22131	0.28967	0.27423	0.14143	0.043171	0.22798	0.13248	-1.9937	-2.9833	-2.8688	-2.3458	-3.1688	-2.6875	-2.6	-3.1479	-2.4667	-2.7917	-3.1813	-2.2958	-3.1708	-2.6125	-2.4417	-3.2562	-17.634	8.208	16.264	242.401	-18.261	235.174	242.598	-26.813	245.831	139.851	206.251	178.385	64.897	258.955	230.084	178.041	0.00011372	0.00095739	6.9667e-05	674.41	2.0324e-06	3.1815e-06	565.13	185.04	3.4479e-06	4.4303e-06	169.15	50.925	53.676	19.495	1.9083e-06	19.66	0.00031116	0.000321	8.2462e-05	601.95	3.4697e-06	3.4361e-06	502.6	164.41	3.5999e-06	3.5676e-06	151.23	46.12	49.338	17.447	3.6674e-06	18.02	187.383	7.041	120.748	-73.136	185.455	27.704	-74.081	-67.803	30.190	228.570	-69.972	-66.011	-62.849	-58.189	134.139	-60.731	-8191	255	
4363.675	1	1	0	0	0.11451	0.17748	0.13252	0.30793	0.10674	0.31607	0.19043	0.20111	0.066381	0.13797	0.22499	0.24207	0.024777	0.2837	0.27158	0.22764	-1.9396	-2.8708	-3.0687	-2.3563	-3.1458	-2.7521	-2.45	-3.0646	-2.5083	-2.7917	-3.0917	-2.3854	-3.0375	-2.9771	-2.4813	-2.9958	-6.627	115.892	-29.685	-31.167	-62.422	77.087	-74.069	109.594	109.359	-12.514	243.393	238.252	89.977	213.717	78.596	62.050	4.0718e-05	0.00072283	7.9094e-05	671.6	2.4696e-06	5.3324e-06	561.47	185.79	8.257e-06	4.7603e-06	168.61	50.61	54.185	19.229	6.7857e-06	20.066	0.00031545	0.00032433	8.6135e-05	597.6	3.5098e-06	3.3178e-06	501.57	164.58	3.5009e-06	3.6701e-06	150.94	46.252	49.578	17.369	3.8016e-06	18.217	-75.766	-19.489	244.393	-73.377	75.531	98.561	-74.330	-68.038	251.028	66.999	-70.335	-65.126	-63.244	-58.883	72.392	-61.998	-8191	255	
4363.771	1	1	0	0	0.12519	0.21699	0.22569	0.13873	0.23178	0.19475	0.12169	0.11514	0.11986	0.079398	0.13722	0.054618	0.034706	0.17047	0.09194	0.049169	-1.9375	-2.6292	-3.0687	-2.5146	-2.9042	-2.9292	-2.5104	-3.0646	-2.225	-2.55	-3.0938	-2.3187	-2.8104	-2.925	-2.2646	-3.1688	23.079	-80.469	131.372	-58.509	17.289	160.700	-4.413	146.676	267.840	107.594	165.695	34.776	152.116	223.938	49.041	229.023	0.00017003	0.00057047	0.00022683	666.19	1.4153e-06	4.5782e-06	565.52	185.66	6.9375e-06	2.6738e-06	168.66	51.217	54.712	19.468	7.4383e-06	20.04	0.00031222	0.00033765	8.8087e-05	596.66	3.6376e-06	3.3914e-06	504.53	165.74	3.5176e-06	3.7428e-06	152.45	46.873	50.062	17.555	3.8174e-06	18.371	266.635	4.942	-49.414	-73.224	19.378	95.433	-73.609	-67.338	56.650	139.360	-70.194	-65.722	-63.060	-58.575	46.999	-61.212	-8191	255	
4363.843	1	1	0	0	0.11758	0.091282	0.383	0.27461	0.1592	0.22333	0.25899	0.093995	0.24632	0.2054	0.048784	0.11386	0.098492	0.18636	0.25381	0.099965	-2.2583	-2.4833	-3.0833	-2.4771	-2.85	-2.9604	-2.3854	-3.0396	-2.6542	-2.3375	-3.1	-2.4104	-2.95	-3.0375	-2.2917	-3.0687	62.508	-19.555	125.263	-84.707	238.434	138.059	126.861	-85.221	-41.345	78.561	269.309	204.199	-29.611	-38.195	68.274	221.649	8.0431e-05	0.00065804	0.00010154	677.74	1.8651e-06	6.3909e-06	569.01	186.91	3.9618e-06	4.79e-06	170.75	51.197	54.943	19.461	2.551e-06	20.284	0.00030922	0.00034393	8.8756e-05	603.59	3.7167e-06	3.4993e-06	509.06	166.47	3.4986e-06	3.756e-06	152.89	46.698	50.279	17.594	3.7489e-06	18.435	177.791	-67.513	-49.226	-73.005	172.281	17.849	-73.972	-67.848	10.174	64.730	-70.301	-65.682	-62.959	-58.137	59.010	-61.729	-8191	255	
4363.939	1	1	0	0	0.059318	0.12827	0.093456	0.18738	0.13424	0.25293	0.21104	0.1667	0.052003	0.15656	0.073168	0.15982	0.18421	0.039553	0.21569	0.13819	-2.3667	-2.4208	-3.0292	-2.5333	-2.6312	-2.9604	-2.4583	-3.1083	-2.7958	-2.4167	-3.1604	-2.3792	-2.6542	-3.2125	-2.3146	-3.0417	151.107	181.960	24.720	140.708	3.260	13.531	34.967	115.302	-69.900	1.838	32.745	32.682	-77.609	-22.145	-33.090	151.626	0.00014383	0.00018262	0.00011925	682.48	6.2541e-06	8.6497e-06	569.12	186.3	6.603e-06	4.5552e-06	168.86	51.24	54.781	19.243	8.3583e-07	19.856	0.00031676	0.00035678	9.0779e-05	607.77	3.85e-06	3.4746e-06	506.02	166.74	3.5733e-06	3.8696e-06	152.06	46.51	50.544	17.494	3.7566e-06	18.216	95.557	-33.699	8.219	-73.311	266.636	-40.160	-74.267	-67.816	110.945	-8.741	-70.477	-66.038	-63.914	-58.317	4.148	-61.037	-8191	255	
4364.058	1	1	0	0	0.066228	0.19294	0.16376	0.2692	0.083046	0.14336	0.13338	0.15311	0.083965	0.1312	0.085243	0.16523	0.17736	0.10883	0.19984	0.053509	-2.5083	-2.3458	-3.0458	-2.55	-2.4625	-2.8833	-2.4417	-2.9458	-3.0208	-2.2938	-3.05	-2.5229	-2.5479	-3.2021	-2.2958	-2.825	177.639	218.826	-73.701	210.995	123.984	-19.268	-55.589	-55.893	194.450	101.158	0.405	224.980	-80.233	104.158	139.610	201.697	0.00011077	0.00025427	0.00015385	684.21	6.2521e-06	3.4281e-06	571	187.56	2.6558e-06	4.8027e-06	170.16	51.342	54.628	19.462	5.1052e-06	20.018	0.00031375	0.00035626	9.2401e-05	609.6	3.999e-06	3.5357e-06	508.37	167.17	3.5732e-06	3.9193e-06	153.03	46.625	50.171	17.579	3.7595e-06	18.313	183.491	82.944	-7.761	-74.301	111.880	272.614	-74.697	-68.435	43.794	-56.486	-70.548	-66.957	-64.215	-58.993	-26.614	-62.038	-8191	255	
4364.154	1	1	0	0	0.099797	0.11009	0.13513	0.11194	0.085318	0.13563	0.14565	0.20678	0.21521	0.085083	0.067156	0.14494	0.20366	0.18425	0.1364	0.15368	-2.5187	-2.5042	-3.1542	-2.7562	-2.4625	-3.2687	-2.5208	-3.0271	-2.925	-2.4062	-3.2188	-2.7854	-2.4542	-3.1896	-2.4375	-2.8104	203.999	65.805	42.345	-13.137	42.889	-45.153	153.909	242.426	-16.104	65.240	248.605	153.182	180.682	105.117	-42.625	19.425	0.00019645	0.00049761	0.00013278	681.73	7.7175e-06	4.4001e-06	572.25	187.79	1.0847e-06	6.2079e-06	172.02	51.792	55.763	19.74	3.7551e-06	20.33	0.00031257	0.00035048	9.3421e-05	609.18	3.9715e-06	3.6483e-06	510.9	168.37	3.6163e-06	4.0157e-06	154.93	47.33	51.416	17.886	3.7391e-06	18.682	171.162	-60.596	208.592	-74.032	86.785	38.381	-74.755	-68.218	252.744	60.352	-70.230	-66.871	-63.882	-58.865	-53.667	-62.459	-8191	255	
4364.250	1	1	0	0	0.17254	0.054409	0.16006	0.056037	0.20595	0.22432	0.38168	0.18409	0.16068	0.13799	0.3194	0.10922	0.05517	0.24154	0.066197	0.037515	-2.6146	-2.3646	-2.9479	-2.7125	-2.3375	-3.2188	-2.6125	-2.6646	-3.0479	-2.3083	-2.9437	-2.7458	-2.4437	-3.0917	-2.3812	-2.6542	4.682	65.091	221.065	-56.641	136.454	260.320	247.228	224.556	114.588	268.646	158.429	265.361	80.992	-76.413	-2.316	5.832	0.00011812	0.0008208	0.00015923	688	4.8684e-06	2.6877e-06	574.48	189.48	1.6682e-06	6.4241e-07	168.22	51.601	56.319	19.522	4.2402e-06	19.62	0.0003239	0.00036359	9.6352e-05	609.64	4.0244e-06	3.7131e-06	511.21	168.6	3.7498e-06	3.8755e-06	152.88	46.602	51.067	17.716	3.5929e-06	18.095	166.643	187.327	107.290	-73.822	206.958	-53.452	-74.399	-68.065	99.723	245.445	-70.480	-66.775	-64.367	-58.979	148.725	-61.554	-8191	255	
4364.371	1	1	0	0	0.21282	0.15917	0.13352	0.31614	0.32267	0.056286	0.093606	0.37719	0.17584	0.074499	0.114	0.30588	0.01254	0.22404	0.1944	0.011638	-2.6583	-2.1979	-2.9521	-2.8917	-2.3646	-3.0375	-2.6479	-2.7396	-3.0125	-2.1958	-2.8875	-2.8625	-2.375	-3.1437	-2.575	-2.3479	202.490	-9.086	194.053	198.148	102.196	264.718	230.530	264.895	18.855	-61.548	120.101	250.378	-18.229	-83.229	-47.748	39.736	8.7765e-05	0.0004611	8.5446e-05	686.68	3.5255e-06	4.1265e-06	564.94	187.18	1.6218e-06	6.4176e-06	166.08	50.37	55.178	19.415	7.1178e-06	19.691	0.00030838	0.00032712	8.8995e-05	607.17	3.7154e-06	3.4314e-06	500.43	166.59	3.4262e-06	3.5036e-06	150.88	45.708	50.41	17.51	3.3846e-06	17.993	40.172	-38.019	87.171	-73.529	16.378	119.716	-74.421	-68.262	45.149	76.197	-70.604	-66.517	-64.080	-58.787	215.682	-61.645	-8191	255	
4364.443	1	1	0	0	0.10407	0.16209	0.24444	0.20661	0.16617	0.10472	0.30944	0.19462	0.20578	0.12425	0.10962	0.23807	0.12507	0.30695	0.3165	0.1071	-2.6937	-2.3917	-2.6292	-3.0187	-2.2958	-2.9854	-2.7687	-2.4979	-3.0917	-2.5	-2.7979	-3.1813	-2.575	-3.0604	-3.025	-2.5146	62.045	117.268	-76.921	260.641	248.539	0.670	265.276	-43.923	145.079	254.037	107.826	-55.718	223.984	262.146	-71.837	240.184	7.2851e-05	0.00035439	0.0001213	682.51	1.4581e-06	5.7646e-06	563.6	186.16	5.6685e-06	4.2409e-06	168.21	50.481	54.754	19.43	3.5444e-06	19.522	0.00030762	0.00032762	9.1319e-05	607.04	3.6313e-06	3.4601e-06	502.29	166.53	3.3446e-06	3.3699e-06	151.4	45.821	50.082	17.603	3.3744e-06	17.973	185.544	-45.357	20.591	-73.577	-10.245	-17.060	-75.086	-68.020	263.442	78.470	-70.815	-66.655	-64.161	-58.827	152.613	-61.638	-8191	255	
4364.539	1	1	0	0	0.1532	0.19029	0.27616	0.17579	0.26348	0.24075	0.12644	0.30749	0.16219	0.1069	0.098291	0.28064	0.058104	0.10913	0.045543	0.24234	-2.6521	-2.6792	-2.5375	-3.2313	-2.3563	-2.9333	-2.9021	-2.4437	-3.0167	-2.6625	-2.65	-3	-2.5646	-2.9125	-3.0667	-2.3563	49.320	198.651	229.065	189.383	214.889	207.118	129.024	244.679	201.070	-74.397	233.955	87.472	221.511	272.946	173.315	227.025	3.699e-05	0.00016867	0.00011923	692.55	2.2514e-06	5.0384e-06	569.61	189.12	4.6232e-06	2.2926e-06	168.71	50.931	56.169	19.707	3.3931e-06	20.075	0.00030573	0.00032295	9.5386e-05	611.03	3.6962e-06	3.6168e-06	506.42	168.31	3.4657e-06	3.5651e-06	152.5	46.348	50.897	17.79	3.3705e-06	18.197	73.307	205.968	0.625	-74.278	76.512	244.086	-74.635	-68.481	106.640	242.829	-70.244	-66.312	-64.166	-59.066	28.076	-62.521	-8191	255	
4364.659	1	1	0	0	0.089555	0.23647	0.2562	0.25565	0.15722	0.17276	0.10612	0.20638	0.12511	0.25994	0.20108	0.11813	0.041673	0.15604	0.095369	0.25835	-2.7583	-2.3917	-2.5979	-3.2062	-2.4125	-2.7396	-2.9875	-2.4542	-3.1104	-2.5125	-2.3583	-3.0187	-2.2604	-2.7396	-3.0396	-2.3063	70.153	154.990	228.021	153.063	162.712	19.913	200.792	150.486	83.832	166.819	194.469	-85.151	137.334	243.463	164.211	4.624	0.00012376	8.7622e-05	4.6e-05	697.74	3.4951e-06	3.7627e-06	570.2	190.19	1.7189e-06	5.0121e-06	170.37	51.274	55.55	19.729	4.7232e-06	19.676	0.00030391	0.00030945	9.1138e-05	616.41	3.4317e-06	3.4055e-06	509.12	168.25	3.2003e-06	3.2443e-06	152.26	46.091	50.568	17.83	3.177e-06	18.023	123.076	145.239	3.289	-73.728	50.802	149.794	-74.379	-68.431	28.409	76.871	-70.717	-66.777	-63.000	-59.233	98.809	-61.547	-8191	255	
4364.756	1	1	0	0	0.17675	0.25219	0.12961	0.22244	0.399	0.15655	0.12348	0.32978	0.165	0.26774	0.15076	0.21853	0.11617	0.0062708	0.28251	0.16467	-2.5438	-2.7313	-2.5875	-3.1688	-2.5333	-2.7083	-3.0938	-2.4333	-2.7521	-2.7604	-2.3625	-3.2104	-2.3812	-2.6083	-3.0271	-2.3771	150.057	18.389	265.472	-8.212	56.075	124.395	30.358	230.926	121.172	106.190	201.329	-13.035	-76.944	87.818	111.639	99.159	0.00010566	0.00017799	9.7923e-05	697.79	3.3951e-06	5.0564e-06	574.75	193.8	3.6694e-06	4.139e-06	171.15	50.721	56.689	20.367	2.1012e-06	20.4	0.00029511	0.00029262	9.069e-05	619.44	3.4178e-06	3.6036e-06	511.84	171.7	3.4164e-06	3.3458e-06	154.37	46.346	51.798	18.199	3.2124e-06	18.372	140.740	181.007	47.139	-73.888	97.135	143.931	-74.754	-68.105	203.875	24.348	-71.077	-66.461	-64.315	-58.968	95.882	-62.283	-8191	255	
4364.852	1	1	0	0	0.16954	0.17239	0.2796	0.18868	0.16512	0.1975	0.2512	0.2252	0.2452	0.18172	0.048334	0.2371	0.052891	0.017865	0.17588	0.18531	-2.4917	-2.7833	-2.2854	-2.8396	-2.5521	-2.4896	-3.1167	-2.4292	-2.8417	-2.8396	-2.3563	-3.1875	-2.6583	-2.2958	-3.0333	-2.2375	53.592	243.955	-72.232	250.014	15.461	-33.001	174.227	7.644	-7.695	190.705	231.308	253.848	156.042	217.693	201.001	204.186	5.9327e-05	0.00038065	0.00016345	710.16	3.3811e-06	6.2588e-06	586.58	197.37	4.5516e-06	5.2065e-06	180.48	53.17	59.459	20.437	2.522e-06	20.219	0.00030992	0.00030424	9.2987e-05	628.27	3.5809e-06	3.7694e-06	521.43	176.3	3.7544e-06	3.4752e-06	161.2	48.376	54.006	18.405	3.4842e-06	18.499	51.196	-12.346	-64.497	-74.769	-29.412	-77.415	-74.368	-68.460	80.885	257.672	-70.966	-66.569	-64.459	-59.302	270.055	-62.705	-8191	255	
4364.971	1	1	0	0	0.086275	0.18687	0.11046	0.33408	0.12776	0.12426	0.056874	0.073209	0.17391	0.19077	0.27898	0.16615	0.1236	0.13966	0.11751	0.23939	-2.3479	-3.0438	-2.2042	-3.0812	-2.7333	-2.4396	-3.0438	-2.4562	-2.7729	-3.1312	-2.3083	-3.0187	-2.6458	-2.4792	-3.0479	-2.3583	115.059	40.458	55.452	-38.658	-46.805	47.445	228.540	-58.198	-60.889	-11.405	218.068	195.685	162.585	225.520	47.858	-74.317	0.00010948	0.00063073	8.3094e-05	707.42	1.817e-06	6.8178e-06	590.7	200.94	9.5e-07	5.5653e-06	180.74	53.584	59.207	20.357	4.6381e-06	20.283	0.00032273	0.00031556	9.5146e-05	631.35	3.4256e-06	3.7911e-06	525.22	178.3	3.7735e-06	3.498e-06	162.51	48.871	54.319	18.488	3.6851e-06	18.543	153.757	-16.416	-45.889	-73.727	262.647	99.580	-74.719	-68.876	219.809	168.023	-70.882	-66.545	-64.366	-58.787	-3.430	-62.425	-8191	255	
4365.042	1	1	0	0	0.36079	0.057041	0.15942	0.27016	0.27144	0.12367	0.21841	0.19338	0.31772	0.24376	0.12435	0.22321	0.18295	0.12369	0.024315	0.24506	-2.0854	-3.0417	-2.5292	-3.025	-2.9604	-2.375	-3.2708	-2.3688	-2.6042	-3.2271	-2.3354	-2.7792	-2.6625	-2.2542	-3.1333	-2.4667	-82.669	-48.696	151.921	141.159	162.218	140.393	157.242	255.120	27.193	273.175	-25.953	35.689	11.278	141.296	187.918	219.602	0.00011822	4.3918e-05	0.00015511	716.16	3.1464e-06	4.5008e-06	590.11	200.33	3.1334e-06	2.7591e-06	180.81	53.599	59.067	20.242	2.9304e-06	19.937	0.00033491	0.00031926	9.604e-05	636.23	3.5315e-06	3.7399e-06	523.47	177.9	3.7635e-06	3.3986e-06	161.74	48.439	53.693	18.377	3.4944e-06	18.215	258.195	108.446	-85.650	-73.540	3.720	135.708	-74.602	-68.668	164.017	153.416	-70.754	-66.808	-64.455	-59.016	62.182	-62.356	-8191	255	
4365.138	1	1	0	0	0.19298	0.12365	0.061008	0.12922	0.19184	0.11359	0.34896	0.15883	0.28731	0.13684	0.052973	0.20434	0.1154	0.17138	0.16005	0.13725	-2.0458	-2.9604	-2.475	-2.9271	-2.7458	-2.2	-3.1729	-2.6542	-2.625	-3.0625	-2.4646	-2.7875	-2.9583	-2.4542	-3.075	-2.5542	206.275	197.324	266.830	147.526	184.210	-27.466	210.021	147.870	-51.308	156.253	145.313	49.910	-82.253	-85.533	173.380	119.034	0.00012773	0.00064722	0.00014197	715.45	2.2228e-06	5.3687e-06	587.77	198.12	4.1495e-06	5.9192e-06	176.03	52.046	57.271	20.148	5.5928e-06	19.907	0.00033241	0.00031205	9.0409e-05	632.89	3.3637e-06	3.6783e-06	520.15	176.46	3.6698e-06	3.3179e-06	158.33	47.484	52.747	18.203	3.4279e-06	18.178	155.991	259.633	-52.132	-74.072	81.167	172.203	-74.949	-68.502	246.514	58.201	-70.696	-67.480	-64.066	-58.402	-70.703	-62.053	-8191	255	
4365.235	1	1	0	0	0.096145	0.047013	0.13782	0.25608	0.10407	0.14666	0.15788	0.27029	0.19407	0.28551	0.18408	0.046299	0.12682	0.084408	0.21082	0.27652	-2.1312	-2.9562	-2.2521	-2.6104	-2.9375	-2.4271	-3.0896	-2.7354	-2.2458	-3.1229	-2.6521	-2.625	-2.9771	-2.2729	-2.9896	-2.9479	148.139	-8.952	66.611	233.475	165.641	-35.927	153.309	136.229	264.994	-75.699	-36.923	164.401	164.449	173.098	120.891	35.545	0.00012405	0.00041673	0.00010071	705.95	3.4221e-06	9.3892e-06	580.72	198.25	3.3572e-06	5.5215e-06	176.52	52.484	58.515	20.301	2.0254e-06	20.162	0.00031916	0.00030153	8.5568e-05	628.54	3.3924e-06	3.6415e-06	519.27	175.89	3.6855e-06	3.3785e-06	158.86	47.64	53.032	18.341	3.4246e-06	18.279	109.196	248.803	-81.126	-73.412	105.933	0.982	-74.445	-68.160	29.541	73.573	-70.944	-66.556	-64.864	-59.124	-5.290	-62.693	-8191	255	
4365.354	1	1	0	0	0.064014	0.095999	0.17954	0.20008	0.17591	0.16642	0.043659	0.080322	0.15096	0.23667	0.085073	0.0232	0.13592	0.057601	0.19408	0.20983	-1.8771	-3.3396	-2.5667	-2.7229	-3.1437	-2.3583	-2.9562	-2.975	-2.2271	-2.9562	-2.6729	-2.5417	-3.1542	-2.4417	-2.8875	-2.9938	207.455	32.494	-84.037	81.750	-17.627	239.381	70.148	123.564	227.890	234.498	-18.711	23.279	246.016	124.883	102.410	128.919	8.7852e-05	0.00057688	5.6425e-05	705.89	5.0471e-06	4.8791e-06	582.89	198.01	3.6608e-06	3.6976e-06	179.26	53.509	58.943	20.316	2.5225e-06	20.422	0.00031552	0.00029724	8.3494e-05	627.52	3.3188e-06	3.5716e-06	517.94	176.07	3.6618e-06	3.4205e-06	159.79	48.209	53.4	18.411	3.5165e-06	18.477	146.237	110.584	49.454	-73.831	77.454	121.930	-74.723	-68.826	5.403	-82.276	-70.086	-66.886	-64.926	-58.992	188.159	-62.818	-8191	255	
4365.450	1	1	0	0	0.28703	0.1259	0.095316	0.094463	0.16214	0.05081	0.23846	0.11681	0.10174	0.10576	0.16225	0.023164	0.33545	0.20083	0.044359	0.047115	-1.925	-3.0187	-2.6667	-2.7104	-3.2271	-2.525	-2.8979	-2.9604	-2.3042	-3.0646	-2.7958	-2.3708	-3.0729	-2.5875	-2.6063	-2.9292	-62.303	254.922	60.319	244.501	-83.193	-48.564	217.570	-48.161	135.769	-45.677	101.347	236.893	246.990	-52.990	101.595	141.532	0.00013265	0.00025665	8.0158e-05	705.66	2.975e-06	5.3613e-06	581.04	199.72	6.9497e-06	1.6509e-06	177.64	52.153	57.615	20.171	4.5157e-06	19.808	0.00031926	0.00031419	8.5246e-05	626.93	3.2576e-06	3.4307e-06	518.2	176.39	3.5625e-06	3.3596e-06	158.43	47.368	52.929	18.175	3.5149e-06	18.085	148.992	246.326	85.805	-73.620	0.067	-30.458	-74.982	-68.349	5.485	185.196	-70.505	-67.144	-64.726	-58.798	-16.342	-62.373	-8191	255	
4365.546	1	1	0	0	0.15577	0.13678	0.27737	0.084581	0.33328	0.27979	0.11573	0.2472	0.041551	0.11859	0.056987	0.26712	0.031896	0.17552	0.21115	0.31014	-1.7604	-3.0646	-2.8333	-2.4104	-3.0167	-2.5771	-2.6104	-3.0292	-2.5271	-2.8375	-2.9562	-2.4458	-3.1312	-2.4437	-2.8146	-3.1354	81.496	215.549	230.427	-16.234	-2.805	82.947	-32.080	153.274	-24.720	52.851	129.817	160.860	-8.519	83.905	29.267	-15.653	6.4189e-05	0.00040935	0.00021086	704.74	4.701e-06	3.2786e-06	571.49	197.96	1.7471e-06	3.5646e-06	175.51	51.739	57.931	20.328	5.1906e-06	19.637	0.00031525	0.00030549	8.2626e-05	624.6	3.2511e-06	3.3158e-06	512.81	175.4	3.4396e-06	3.3765e-06	157.24	46.852	52.282	18.145	3.4105e-06	17.805	14.645	32.982	167.594	-73.456	108.202	-42.724	-74.625	-68.447	106.478	60.523	-71.147	-67.162	-64.109	-59.167	-49.364	-62.363	-8191	255	
4365.642	1	1	0	0	0.26875	0.24554	0.35233	0.341	0.12368	0.27066	0.10321	0.12843	0.24813	0.16266	0.17604	0.072088	0.14816	0.098672	0.25355	0.12072	-1.925	-2.8646	-2.8833	-2.1562	-3.1188	-2.4354	-2.4604	-3.0771	-2.175	-2.7188	-2.8771	-2.1417	-3.15	-2.5938	-2.425	-3.1542	0.815	-73.555	25.137	-64.090	209.175	-45.050	29.173	161.269	11.561	-27.076	29.542	144.986	-7.034	195.344	-56.847	149.886	0.00014238	0.00032197	9.0434e-05	702.01	5.2062e-07	5.7289e-06	574.39	196.82	3.1175e-06	2.4423e-06	175.33	50.967	58.446	20.004	2.8003e-06	19.87	0.00028867	0.00029538	7.767e-05	621.06	3.1034e-06	3.1724e-06	513.56	173.95	3.2817e-06	3.2732e-06	156.26	46.387	52.181	18.074	3.3002e-06	18.022	135.252	0.144	110.809	-73.843	-46.335	269.666	-74.693	-68.170	9.020	110.524	-70.927	-67.040	-64.168	-59.125	188.465	-61.919	-8191	255	
4365.738	1	1	0	0	0.31858	0.041251	0.1536	0.079166	0.23028	0.11832	0.10203	0.19015	0.018617	0.078944	0.0873	0.033877	0.15447	0.057235	0.14581	0.17209	-1.9833	-2.7375	-3.0187	-2.3	-2.9958	-2.725	-2.4979	-3.15	-2.45	-2.5625	-2.975	-2.3063	-2.9208	-2.8521	-2.3917	-3.1271	240.465	-60.631	-24.709	-66.841	34.646	-78.575	-42.707	199.692	80.715	35.791	113.514	96.553	226.634	144.118	118.328	240.212	6.7693e-05	0.00037134	0.00014811	702.72	4.1709e-06	2.8937e-06	584.08	195.97	3.9353e-06	7.2012e-06	173.63	51.567	58.328	20.373	5.2607e-06	20.435	0.00028209	0.00029734	7.6112e-05	620.15	3.1558e-06	3.0197e-06	518.49	173.64	3.1623e-06	3.2511e-06	156.46	46.953	52.635	18.25	3.4204e-06	18.325	205.374	-25.189	-9.835	-72.961	62.063	170.937	-74.250	-68.321	-35.358	30.895	-70.124	-66.281	-64.324	-58.928	77.178	-61.739	-8191	255	
4365.834	1	1	0	0	0.35903	0.16183	0.30939	0.33191	0.14159	0.15753	0.13619	0.11779	0.16443	0.038847	0.11277	0.21997	0.31945	0.14202	0.15629	0.078571	-2.3417	-2.6229	-3.1146	-2.3125	-2.9729	-2.8604	-2.5125	-3.1833	-2.7396	-2.5	-3.1479	-2.5438	-2.9146	-2.9125	-2.3979	-3.2021	88.234	118.664	-67.615	228.951	-38.755	263.615	271.656	-18.201	-15.211	61.536	174.081	271.264	-5.676	228.558	228.992	227.309	9.9125e-05	0.00048968	5.8549e-05	706.43	9.8654e-07	6.7188e-06	579.54	197.11	3.2465e-06	4.064e-06	174.33	50.943	57.634	20.265	9.5311e-06	19.855	0.00028151	0.00030647	7.9857e-05	624.17	3.3412e-06	3.1385e-06	515.83	175.44	3.2138e-06	3.4053e-06	156.29	46.603	52.542	18.19	3.4312e-06	18.091	166.363	180.340	117.416	-73.673	153.852	-49.560	-74.774	-68.038	-55.334	273.837	-70.605	-66.468	-63.921	-58.329	192.880	-62.295	-8191	255	
4365.930	1	1	0	0	0.042271	0.10943	0.061558	0.15344	0.28747	0.11426	0.29409	0.03202	0.055402	0.18929	0.14431	0.28935	0.19123	0.055933	0.069367	0.17778	-2.1104	-2.2667	-3.0167	-2.3167	-2.825	-2.8792	-2.1646	-3.0938	-2.6188	-2.375	-3.1625	-2.3083	-2.7812	-3.0146	-2.3146	-3.0104	-40.365	-53.936	-71.228	93.358	83.857	116.942	-64.443	-26.640	50.188	121.120	158.700	212.307	-41.538	-23.971	103.371	-52.748	5.5871e-05	0.00075408	9.6764e-05	706.74	1.8988e-06	2.3169e-06	577.85	198.37	2.4647e-06	4.5881e-06	175.71	51.541	58.599	20.281	1.0035e-05	19.731	0.00028648	0.00031901	8.4612e-05	627.05	3.4389e-06	3.2462e-06	514.57	176.45	3.2985e-06	3.5643e-06	156.41	46.741	53.06	18.351	3.4859e-06	18.052	179.091	51.098	2.670	-72.993	-59.409	184.895	-74.740	-67.986	26.113	73.326	-71.267	-66.448	-63.703	-58.738	87.408	-61.692	-8191	255	
4366.051	1	1	0	0	0.040927	0.084362	0.18514	0.57061	0.22242	0.26905	0.08449	0.044388	0.1689	0.079947	0.22554	0.18254	0.21999	0.15512	0.1361	0.3196	-2.3083	-2.4437	-2.9729	-2.4292	-2.7562	-3.0687	-2.4021	-3.0438	-2.7396	-2.2	-3.0708	-2.3333	-2.6396	-3.0021	-2.4208	-2.9562	181.913	117.158	-77.577	152.186	-78.543	242.122	259.061	226.105	-59.753	44.648	191.107	214.533	-40.926	215.065	-18.026	200.902	8.5467e-05	0.00014044	0.00021439	701.52	2.7611e-06	2.1266e-06	578.01	198.35	8.0868e-06	1.0903e-06	176.09	51.928	59.755	20.736	6.3334e-06	20.082	0.00028665	0.00031568	8.1089e-05	624.06	3.458e-06	3.1946e-06	513.57	175.22	3.242e-06	3.6089e-06	156.43	46.94	53.597	18.487	3.4757e-06	18.224	142.255	-81.236	-13.626	-73.640	142.658	50.458	-74.821	-67.953	43.459	133.115	-70.541	-66.516	-63.882	-59.511	96.509	-62.438	-8191	255	
4366.147	1	1	0	0	0.088713	0.22785	0.15155	0.080183	0.17438	0.033948	0.3139	0.21922	0.30914	0.16434	0.13086	0.20475	0.096128	0.11706	0.40357	0.095038	-2.5271	-2.3438	-2.95	-2.6375	-2.7417	-3.2333	-2.3333	-2.8521	-2.9604	-2.3396	-3.1583	-2.7417	-2.5687	-3.0729	-2.3458	-2.8708	-65.657	189.465	122.441	82.000	101.948	84.859	122.630	258.257	-74.882	79.261	251.847	218.396	78.904	9.448	258.646	-80.387	0.00010813	0.00063402	0.00010656	708.02	1.463e-06	1.7967e-06	578.72	197.85	2.3412e-06	3.0605e-06	174.83	52.091	59.343	20.585	1.2448e-06	20.003	0.00028795	0.00032473	8.3354e-05	623.05	3.4334e-06	3.1462e-06	514.06	175.44	3.1182e-06	3.4921e-06	157.29	47.042	53.515	18.541	3.444e-06	18.343	198.238	101.243	-72.751	-73.805	174.369	-41.736	-74.478	-67.963	-34.759	38.410	-70.723	-67.178	-64.205	-58.708	180.056	-61.878	-8191	255	
4366.243	1	1	0	0	0.072941	0.12454	0.19455	0.1482	0.11691	0.24095	0.12863	0.046961	0.06296	0.078455	0.22065	0.075734	0.21703	0.15302	0.12905	0.1482	-2.5417	-2.3604	-3.1479	-2.7396	-2.5687	-3.0458	-2.4542	-2.9646	-2.9521	-2.2708	-2.85	-2.9208	-2.375	-3.0104	-2.3604	-2.6021	-10.143	93.679	133.339	245.596	143.082	81.437	120.184	87.609	268.351	92.443	-72.499	-4.174	248.477	-69.028	71.378	273.202	9.8252e-05	0.000527	0.00014721	714.54	5.3411e-06	1.5318e-06	581.29	199.31	2.2228e-06	2.7294e-06	176.29	50.804	59.101	20.473	1.7846e-06	19.741	0.00028446	0.00032195	8.4779e-05	629.2	3.5352e-06	3.1978e-06	516.27	176.82	3.1981e-06	3.3856e-06	157.1	46.464	53.502	18.417	3.2936e-06	18.115	195.969	26.895	113.145	-73.762	-58.149	-43.863	-75.034	-68.194	72.898	157.916	-70.814	-66.049	-63.964	-58.920	166.270	-62.335	-8191	255	
4366.339	1	1	0	0	0.088455	0.27818	0.16754	0.11556	0.16965	0.22444	0.063644	0.13523	0.074237	0.18181	0.14463	0.20839	0.16234	0.10017	0.15839	0.097882	-2.6312	-2.1542	-2.8167	-2.9437	-2.4917	-3.0854	-2.7979	-2.7083	-3.0667	-2.3354	-2.8312	-2.8208	-2.3688	-3.0438	-2.5583	-2.6167	37.834	187.822	146.652	-63.169	69.992	207.560	-60.700	-59.838	59.237	-80.398	-24.675	224.657	-3.072	-81.442	116.300	174.281	4.9211e-05	0.00088991	0.00014051	697.06	1.4663e-06	5.8362e-06	575.99	197.77	2.1527e-06	3.9768e-06	174.2	50.806	57.861	20.004	1.3286e-06	19.433	0.00027757	0.00031408	8.35e-05	615.3	3.5002e-06	3.1805e-06	510.01	175.15	3.1025e-06	3.3449e-06	156.75	46.306	52.517	18.116	3.2382e-06	17.832	259.996	-19.271	-16.967	-73.463	46.599	55.791	-74.964	-68.114	-37.300	197.066	-70.602	-66.630	-63.671	-58.245	229.828	-62.108	-8191	255	
4366.436	1	1	0	0	0.10564	0.31442	0.083684	0.14029	0.30717	0.32616	0.1471	0.16035	0.067665	0.16756	0.24385	0.055916	0.11791	0.2215	0.14398	0.14989	-2.5625	-2.5396	-2.8792	-2.875	-2.4417	-3.1063	-2.7104	-2.5375	-2.9854	-2.4229	-2.7729	-3.0479	-2.1208	-3.1333	-2.5875	-2.6083	-0.350	35.301	21.560	44.482	-35.381	-72.744	165.836	256.962	-24.392	-82.422	245.655	152.730	128.952	5.299	49.040	212.867	0.00010377	0.00063443	6.2892e-05	697.83	6.387e-06	5.6455e-06	576.72	198.95	2.2578e-06	3.7663e-06	174.33	52.046	59.593	20.13	2.7418e-06	19.578	0.00027828	0.000315	8.7073e-05	615.75	3.6149e-06	3.4372e-06	509.81	176.92	3.3966e-06	3.5973e-06	158.56	47.377	54.243	18.253	3.5132e-06	18.109	165.914	-1.973	46.192	-73.861	61.450	-51.078	-75.096	-68.188	69.556	92.277	-70.312	-67.128	-64.815	-58.638	168.825	-62.257	-8191	255	
4366.530	1	1	0	0	0.25065	0.1872	0.19052	0.2603	0.023488	0.11158	0.095421	0.26393	0.34257	0.2716	0.16116	0.15791	0.22348	0.18786	0.12042	0.050533	-2.5583	-2.1896	-2.7438	-2.9896	-2.4917	-2.9958	-2.8083	-2.2479	-3.0604	-2.4354	-2.6646	-2.9813	-2.3	-2.9354	-2.7	-2.5687	29.769	95.589	206.611	196.894	133.020	205.903	45.017	265.031	28.093	98.918	235.000	-68.222	153.726	-37.605	-44.472	166.306	5.4213e-05	0.00084895	8.6131e-05	700.5	3.7538e-06	4.9714e-06	583.34	200.6	7.3983e-06	8.5134e-07	178.52	52.462	60.115	20.526	1.6252e-06	19.562	0.00031064	0.00032787	9.5121e-05	622.18	3.6746e-06	3.49e-06	514.24	179.21	3.4043e-06	3.4764e-06	159.86	47.447	54.595	18.613	3.5092e-06	18.174	-29.971	57.491	42.449	-73.779	112.354	91.263	-74.166	-68.698	116.383	48.105	-70.623	-67.077	-64.238	-59.015	94.467	-62.499	-8191	255	
4366.651	1	1	0	0	0.11236	0.18521	0.064755	0.040393	0.33257	0.13648	0.10328	0.15685	0.14263	0.27457	0.051381	0.39101	0.11575	0.030902	0.2163	0.1072	-2.6167	-2.3542	-2.4604	-3.1583	-2.125	-2.9375	-2.7792	-2.3771	-3.1188	-2.5042	-2.5917	-3.0021	-2.3792	-2.7979	-2.8354	-2.3979	147.885	1.426	-36.462	190.534	122.501	241.832	138.743	268.797	33.226	69.567	3.085	17.084	-64.721	198.403	-3.122	214.449	0.00010201	0.00029844	0.00020901	706.74	3.2015e-06	3.561e-06	574.11	200.73	3.2993e-06	3.5615e-06	173.93	51.52	59.038	20.227	5.029e-07	19.451	0.0003077	0.00032017	9.5576e-05	625.03	3.6843e-06	3.6387e-06	511.82	179.16	3.5178e-06	3.4152e-06	157.82	46.746	54	18.393	3.2695e-06	17.747	116.590	210.988	-49.453	-73.814	41.460	18.445	-74.878	-68.079	79.911	149.211	-70.804	-66.885	-64.110	-58.467	13.076	-62.547	-8191	255	
4366.747	1	1	0	0	0.11857	0.21113	0.13372	0.12485	0.049356	0.23494	0.19329	0.17669	0.13821	0.18547	0.34452	0.15705	0.19166	0.065815	0.25875	0.2469	-2.6562	-2.6875	-2.45	-3.1479	-2.3167	-2.7979	-2.9292	-2.5187	-2.9146	-2.6354	-2.2958	-3.1021	-2.3187	-2.6688	-2.8729	-2.1917	259.919	-43.516	121.801	22.755	41.938	-34.836	-34.260	148.727	175.267	-51.813	-18.750	218.407	-69.384	54.240	57.031	54.606	0.00017488	0.00046317	0.00023572	700.87	6.7074e-06	7.3008e-06	571.81	200.76	3.1616e-06	3.6115e-06	174.76	51.654	59.058	20.178	3.2866e-06	19.247	0.00030616	0.00030674	9.219e-05	621.35	3.5197e-06	3.5499e-06	507.99	178.45	3.442e-06	3.4484e-06	157.7	46.598	53.871	18.147	3.2535e-06	17.517	167.891	2.607	4.439	-73.270	35.647	129.469	-74.420	-68.298	103.327	132.122	-70.724	-67.225	-63.983	-58.730	60.970	-62.750	-8191	255	
4366.843	1	1	0	0	0.18663	0.33437	0.13517	0.28406	0.10297	0.033008	0.046809	0.37848	0.048919	0.027216	0.15073	0.38967	0.068708	0.37989	0.12203	0.088568	-2.6292	-2.5833	-2.4417	-3.2271	-2.3271	-2.7646	-3.2354	-2.5542	-2.8896	-2.7396	-2.4188	-3.2438	-2.3604	-2.5167	-3.0979	-2.3375	139.921	91.484	170.844	266.468	-74.433	47.929	50.676	179.528	71.593	33.555	47.106	208.234	132.803	237.084	188.549	11.439	8.9954e-05	0.0010927	0.00012215	699.64	4.0742e-06	7.9374e-06	562.86	197.26	1.8211e-06	3.2202e-06	173.02	50.275	57.841	20.181	4.2658e-06	19.129	0.00029485	0.00029905	8.7914e-05	616.9	3.2942e-06	3.398e-06	504.64	175.08	3.2607e-06	3.0967e-06	155.55	45.536	52.342	18.012	2.9703e-06	17.402	193.601	40.026	89.546	-73.210	92.258	-11.068	-74.967	-68.004	-73.002	86.749	-70.583	-67.234	-63.778	-58.485	228.453	-62.547	-8191	255	
4366.939	1	1	0	0	0.20654	0.091275	0.17894	0.055463	0.33027	0.072934	0.033925	0.11554	0.11483	0.046117	0.19592	0.12352	0.16764	0.28777	0.08771	0.16887	-2.5708	-2.9437	-2.2521	-3.1271	-2.5354	-2.5875	-3.1792	-2.5062	-2.8833	-2.9083	-2.4437	-3.1958	-2.6833	-2.6271	-3	-2.3875	-65.958	-50.015	203.619	260.234	-20.026	57.663	58.760	126.087	194.689	124.950	-82.897	159.568	43.168	-72.762	46.207	253.684	1.739e-05	0.00015357	9.7773e-05	695.52	3.5673e-06	5.3391e-06	572.52	199.11	7.4619e-06	3.1935e-06	177.4	50.78	58.597	20.135	2.3578e-06	19.267	0.00027216	0.00027282	8.3068e-05	614.97	3.0115e-06	3.2879e-06	507.37	175.48	3.1617e-06	2.9698e-06	157.13	46.137	52.775	18.229	3.0733e-06	17.698	94.976	202.549	-46.108	-73.714	17.692	70.169	-74.462	-68.170	256.467	19.072	-70.718	-66.635	-63.845	-58.230	43.331	-62.259	-8191	255	
4367.035	1	1	0	0	0.3784	0.14768	0.029632	0.067384	0.087251	0.011619	0.11964	0.17777	0.14042	0.22941	0.24238	0.10779	0.42199	0.16257	0.13515	0.040969	-2.4333	-2.9229	-2.2479	-3.1042	-2.6667	-2.4771	-3.0667	-2.575	-2.6063	-2.9104	-2.3812	-2.8979	-2.6375	-2.4583	-3.0292	-2.4313	-29.921	253.474	154.825	227.220	36.578	175.108	224.747	267.009	-55.039	189.332	142.994	236.689	229.470	133.789	50.633	148.756	2.7942e-05	0.00035287	0.00011493	697.91	4.2045e-06	3.0428e-06	569.51	198.66	3.1334e-06	3.9991e-06	174.32	50.638	58.863	20.29	4.8768e-06	19.144	0.00028763	0.00027441	8.5484e-05	616.67	3.1179e-06	3.3897e-06	506.2	175.74	3.3085e-06	3.1982e-06	155.98	45.928	52.843	18.287	3.2591e-06	17.547	62.941	14.361	-1.182	-73.492	-20.473	0.699	-74.601	-67.929	134.298	123.198	-70.617	-66.464	-63.394	-58.683	71.626	-62.367	-8191	255	
4367.131	1	1	0	0	0.054414	0.055998	0.080491	0.19715	0.044391	0.33811	0.097153	0.064142	0.18896	0.17842	0.17076	0.24615	0.16412	0.12026	0.28172	0.15579	-2.3042	-3.0479	-2.3333	-2.8958	-2.6771	-2.3958	-3.1646	-2.5333	-2.4146	-3.1354	-2.3958	-2.8583	-2.9437	-2.0875	-3.1125	-2.6333	61.726	74.000	160.435	242.404	116.735	53.223	14.892	-4.673	-27.511	196.793	101.481	239.415	-16.729	186.297	0.786	212.155	0.00012345	0.00068433	0.00016943	698.73	2.8039e-06	5.7181e-06	571.37	197.97	2.4743e-06	1.7149e-06	173.12	50.864	58.869	20.459	5.6714e-06	19.089	0.00029811	0.00029298	8.8553e-05	617.79	3.26e-06	3.519e-06	505.9	175.48	3.6304e-06	3.3114e-06	155.53	46.098	52.812	18.386	3.3722e-06	17.511	136.473	3.106	78.806	-72.421	-41.519	-44.061	-74.453	-68.050	15.213	214.442	-71.158	-66.667	-64.682	-58.783	262.476	-62.284	-8191	255	
4367.228	1	1	0	0	0.15459	0.19994	0.16553	0.13843	0.09836	0.061977	0.13993	0.33475	0.13003	0.18921	0.064281	0.1773	0.15187	0.23129	0.19351	0.2354	-2.2646	-3.0104	-2.3542	-2.8312	-2.9188	-2.2729	-3.0563	-2.5896	-2.5521	-2.9479	-2.3708	-2.8667	-2.9833	-2.4542	-3.2646	-2.6646	259.508	87.299	-72.930	199.369	62.028	138.973	257.435	-30.266	199.176	29.851	129.333	-72.871	139.271	161.396	272.125	-51.892	7.9704e-05	0.00017983	8.5423e-05	706.71	7.0143e-07	2.789e-06	571.11	197.15	5.4179e-06	3.5281e-06	171.64	49.714	58.331	20.313	1.5041e-06	19.032	0.00032156	0.00030313	9.1137e-05	622.61	3.2913e-06	3.6516e-06	506.79	175.08	3.6157e-06	3.3168e-06	154.42	45.953	52.859	18.247	3.3954e-06	17.498	-7.662	-54.204	46.866	-73.591	266.820	105.534	-74.361	-68.427	202.322	-49.121	-70.425	-66.893	-64.234	-58.792	188.005	-61.936	-8191	255	
4367.324	1	1	0	0	0.20508	0.045202	0.25245	0.14484	0.076499	0.058153	0.11618	0.22048	0.10958	0.39853	0.22748	0.11747	0.14296	0.24582	0.1137	0.11749	-2.0479	-3.15	-2.5708	-2.7979	-3.1375	-2.4125	-3.0708	-2.8875	-2.2562	-3.2438	-2.4313	-2.7083	-3.0479	-2.3167	-2.9917	-2.725	230.883	-13.763	186.400	27.508	121.240	157.132	-42.890	235.993	-37.467	246.038	113.544	-50.728	87.996	-24.295	44.515	-5.256	5.635e-05	0.00085332	0.0002207	696.85	1.38e-06	3.9342e-06	571.3	197.52	1.8832e-06	9.1649e-06	174.67	50.775	58.063	20.178	6.9545e-06	19.093	0.0003188	0.00030637	8.7599e-05	616.59	3.1965e-06	3.4383e-06	507.08	174.86	3.3718e-06	3.0284e-06	154.92	45.974	52.366	18.276	3.3241e-06	17.523	-53.919	3.403	-57.086	-73.223	28.950	-12.086	-73.967	-68.556	-78.745	33.384	-71.115	-66.465	-63.983	-58.850	30.472	-62.494	-8191	255	
4367.443	1	1	0	0	0.069598	0.060669	0.12343	0.054107	0.14127	0.036394	0.36388	0.11884	0.11597	0.16285	0.10036	0.13965	0.060198	0.23674	0.04395	0.048357	-2.0167	-3.1625	-2.6021	-2.5625	-3.0875	-2.3792	-3.0229	-2.9396	-2.3375	-3.2042	-2.6229	-2.5083	-3.0417	-2.4083	-2.8187	-2.9542	155.442	91.002	12.090	-82.706	2.193	105.448	29.171	144.509	-68.778	36.272	198.584	-82.466	127.218	258.963	134.863	67.733	6.4195e-05	0.00061495	8.1396e-05	692.46	2.7882e-06	2.101e-06	574.02	197.73	1.0156e-06	4.5523e-06	173.54	49.543	57.777	20.129	4.6364e-06	19.148	0.00030482	0.00029045	8.1954e-05	617.53	3.1237e-06	3.3073e-06	507.26	174.33	3.4419e-06	3.1353e-06	154.05	45.562	52.096	18.14	3.2943e-06	17.396	175.127	-0.077	14.183	-72.712	31.680	-12.719	-73.965	-67.994	32.667	23.305	-70.483	-66.515	-63.958	-59.010	202.201	-61.958	-8191	255	
4367.539	1	1	0	0	0.17966	0.029568	0.30884	0.26933	0.30424	0.055381	0.14126	0.2024	0.054499	0.11201	0.20479	0.061301	0.086909	0.30599	0.12147	0.34154	-1.9458	-3.0125	-2.7188	-2.4021	-3.0708	-2.3937	-2.8438	-3.0542	-2.2896	-3.0646	-2.675	-2.5062	-3.2896	-2.4854	-2.7667	-3.0312	222.213	27.132	162.794	-67.794	112.803	218.749	95.006	0.769	177.967	242.514	135.446	3.249	111.243	272.732	251.172	209.413	6.2588e-06	0.0002211	7.7403e-05	700.97	8.1906e-06	5.4291e-06	570.59	196.56	2.4776e-06	2.4947e-06	172.74	50.117	57.772	20.217	4.3402e-06	18.978	0.00029757	0.00029245	8.0511e-05	617.48	3.1036e-06	3.3606e-06	505.92	174.1	3.4854e-06	3.3449e-06	153.46	45.507	52.154	18.164	3.3792e-06	17.299	207.746	41.652	45.412	-73.488	6.105	129.797	-74.220	-67.936	247.863	-20.818	-70.775	-66.742	-63.426	-58.508	100.952	-62.034	-8191	255	
4367.612	1	1	0	0	0.2404	0.17757	0.047154	0.059676	0.17171	0.04966	0.12254	0.15842	0.01713	0.18329	0.12392	0.20093	0.14421	0.11235	0.13103	0.33853	-1.9875	-3.0229	-2.8312	-2.4583	-3.1979	-2.6125	-2.6396	-3.2021	-2.3125	-3.0187	-2.8479	-2.4375	-3.0729	-2.6083	-2.5625	-3.0646	193.855	219.152	126.515	66.956	219.339	121.382	221.367	228.735	54.453	-70.221	14.313	245.387	80.288	135.997	93.632	214.728	2.561e-05	0.00049854	0.00014536	683.56	6.7925e-06	1.6043e-06	571.3	195.85	2.3111e-06	4.0191e-06	170.31	49.258	57.756	19.823	3.9145e-06	19.112	0.00030209	0.00029565	7.9328e-05	609.09	3.1694e-06	3.3283e-06	504.57	173.35	3.3905e-06	3.3756e-06	152.62	45.213	51.844	17.927	3.4053e-06	17.287	97.424	13.341	24.305	-73.147	176.200	63.475	-74.151	-67.951	142.352	243.616	-70.243	-65.827	-64.241	-58.628	232.856	-62.295	-8191	255	
4367.731	1	1	0	0	0.18214	0.050489	0.23237	0.33521	0.032227	0.14187	0.21739	0.27132	0.13368	0.07358	0.076536	0.15697	0.027196	0.3145	0.089611	0.20717	-1.8188	-2.8667	-2.8937	-2.3375	-3.4542	-2.7083	-2.4042	-3.2687	-2.4104	-3.0021	-3.1458	-2.325	-3.125	-2.7729	-2.4667	-3.125	176.644	270.458	109.482	217.404	-7.941	-32.765	235.521	-84.705	37.129	155.358	122.063	196.645	3.098	96.563	178.722	265.979	7.8306e-05	0.00063058	5.6472e-05	676.7	4.2016e-06	1.6008e-06	562.33	189.71	1.3673e-06	3.2241e-06	167.22	49.187	56.251	19.694	8.077e-06	19.041	0.00029375	0.0002907	7.2874e-05	601.06	2.9935e-06	2.8845e-06	497.25	168.84	2.9455e-06	3.0358e-06	149.88	44.513	50.424	17.749	3.1399e-06	17.168	150.810	4.535	-56.076	-73.305	63.680	202.733	-74.362	-67.812	116.597	54.283	-70.348	-66.500	-63.412	-58.449	112.022	-61.821	-8191	255	
4367.827	1	1	0	0	0.21436	0.093259	0.11322	0.14537	0.12481	0.14461	0.16897	0.037697	0.17374	0.1935	0.16733	0.10884	0.14832	0.21899	0.093518	0.12461	-2.2333	-2.7333	-2.7812	-2.4667	-2.9875	-2.7583	-2.425	-3.2313	-2.4146	-2.8146	-2.9667	-2.2125	-2.775	-2.8688	-2.3083	-3.0062	-25.153	142.506	78.742	126.989	187.084	273.542	215.831	2.600	157.658	-78.309	231.768	21.068	83.223	249.655	59.896	125.185	6.6058e-05	0.00055632	9.7116e-05	678.36	7.294e-06	2.3095e-06	559.05	190.89	3.3361e-06	5.0552e-06	165.32	47.863	53.956	19.669	3.0013e-06	18.625	0.00026239	0.00027312	7.2906e-05	597.69	3.0637e-06	2.9789e-06	496.57	168.6	2.9871e-06	3.0536e-06	147.69	43.375	49.064	17.382	2.9671e-06	16.82	36.798	136.915	-0.917	-73.381	60.487	-67.680	-74.000	-67.425	-2.826	-31.560	-70.431	-66.349	-63.326	-58.373	-14.012	-61.869	-8191	255	
4367.923	1	1	0	0	0.051818	0.13349	0.15131	0.17843	0.10686	0.25526	0.22833	0.094478	0.1843	0.22498	0.19077	0.064897	0.072877	0.082941	0.22978	0.22795	-2.1958	-2.7687	-3.1646	-2.2833	-2.8896	-2.8354	-2.3604	-3.1083	-2.5458	-2.7146	-3.0646	-2.4792	-2.9542	-2.9792	-2.2771	-3.1167	110.320	134.445	2.671	40.380	239.807	153.301	123.494	-74.257	174.986	97.688	266.713	145.038	218.875	215.874	106.155	178.512	7.0403e-05	0.00011394	2.4362e-05	668.5	3.0205e-06	3.2497e-06	554.92	190.98	4.4351e-06	1.0914e-06	165.34	48.62	55.696	19.864	5.678e-06	18.809	0.00024825	0.00027132	7.0297e-05	590.63	2.9981e-06	2.9346e-06	494.35	169.12	3.3093e-06	3.5302e-06	149.06	44.269	51.012	17.815	3.594e-06	17.161	153.901	215.634	85.989	-73.692	40.376	-66.178	-74.317	-68.117	-24.265	60.957	-70.843	-66.349	-63.773	-58.226	58.500	-61.958	-8191	255	
4368.044	1	1	0	0	0.10092	0.065933	0.36567	0.16691	0.13271	0.18431	0.12673	0.028665	0.11186	0.27679	0.0752	0.13636	0.20571	0.060363	0.31742	0.16727	-2.2125	-2.3979	-3.2021	-2.5354	-2.6958	-2.9604	-2.5563	-3.0479	-2.6562	-2.3896	-3.1562	-2.4313	-2.7708	-3.0292	-2.3333	-3.0792	-68.660	174.611	238.488	211.161	-18.991	179.422	76.890	10.321	15.779	265.657	-85.713	28.522	-19.561	-15.268	242.673	-54.040	7.4152e-05	0.0006347	4.3259e-05	688.63	6.8618e-06	2.4357e-06	561.73	192.36	3.0548e-06	3.2613e-06	170.11	49.09	56.932	20.507	1.5972e-06	19.168	0.00029844	0.00033077	8.4584e-05	609.04	3.6844e-06	3.4997e-06	502.22	171.74	3.6986e-06	4.1982e-06	152.85	45.188	52.54	18.51	4.2354e-06	17.715	187.541	44.364	110.093	-73.166	83.048	38.729	-74.400	-68.033	-38.515	168.081	-70.553	-65.817	-63.410	-58.291	161.850	-61.734	-8191	255	
4368.140	1	1	0	0	0.11508	0.21563	0.069933	0.10546	0.27224	0.16318	0.13351	0.22032	0.22769	0.24477	0.081946	0.075607	0.25228	0.15523	0.34396	0.2809	-2.2167	-2.2958	-3.0938	-2.4479	-2.7438	-3.1354	-2.3333	-2.9146	-2.8271	-2.3854	-3.1562	-2.4271	-2.6229	-3.1688	-2.2729	-3.0438	240.286	211.299	18.742	249.408	-11.161	42.202	54.502	273.740	248.123	131.818	226.141	130.590	-27.360	-76.769	94.361	91.012	6.9514e-05	0.00024647	5.2816e-05	690.67	5.832e-06	2.5615e-06	568.7	195.56	5.9841e-06	3.762e-06	169.95	49.977	57.301	20.511	3.2907e-06	19.219	0.00033429	0.00038418	9.7576e-05	617.88	4.0592e-06	3.9214e-06	509.1	174.78	3.9624e-06	4.231e-06	154.2	45.824	53.121	18.75	4.2526e-06	17.893	150.142	-41.156	85.241	-73.397	-43.612	-36.871	-74.052	-67.772	-0.211	52.622	-70.377	-66.782	-63.595	-58.465	2.311	-62.210	-8191	255	
4368.212	1	1	0	0	0.16953	0.2131	0.18035	0.1912	0.073111	0.15826	0.098738	0.0073577	0.21623	0.2355	0.19717	0.17663	0.13322	0.082725	0.21705	0.082984	-2.5563	-2.5583	-3.0542	-2.6125	-2.5854	-3.1562	-2.4813	-3.0229	-2.8646	-2.3583	-3.1021	-2.4667	-2.4542	-3.1063	-2.4292	-2.8896	28.925	-50.050	-49.711	196.000	56.621	233.422	192.507	-26.289	1.133	249.125	187.978	-63.733	187.784	78.725	-56.801	111.565	0.00017567	0.00067419	0.00019673	692.92	5.7208e-06	1.0928e-06	570.26	195.4	8.4276e-07	6.0403e-06	171.37	49.492	56.962	20.485	5.9832e-06	19.458	0.0003488	0.00039904	0.00010382	619.28	4.246e-06	3.9239e-06	506.91	174.29	3.8407e-06	4.2346e-06	153.38	45.361	53.039	18.627	4.2903e-06	17.837	172.747	80.649	-15.812	-73.294	271.755	117.954	-74.048	-67.445	161.154	93.872	-70.396	-66.464	-63.337	-57.766	93.081	-61.860	-8191	255	
4368.332	1	1	0	0	0.20989	0.27275	0.26167	0.098104	0.16098	0.083143	0.08915	0.30847	0.11118	0.0125	0.13716	0.15774	0.17991	0.20253	0.15737	0.2224	-2.475	-2.2708	-3.0312	-2.675	-2.6	-3.2021	-2.5021	-2.8792	-3.1562	-2.5083	-2.8792	-2.7854	-2.4938	-3.1083	-2.5479	-2.9	11.152	220.635	35.852	53.495	-69.980	83.445	252.018	235.481	81.173	210.304	90.440	235.549	-56.551	85.360	92.937	229.694	6.6833e-05	0.00047626	0.00011966	690.69	3.3592e-06	7.5423e-06	561.8	197.62	1.1977e-06	2.5749e-06	169.8	49.511	58.317	20.483	5.1671e-06	19.005	0.00036079	0.00041876	0.00011212	620.7	4.6878e-06	4.4163e-06	503.98	176.35	4.2922e-06	4.7824e-06	154.3	45.461	53.931	18.603	4.3936e-06	17.628	215.335	-83.744	212.101	-73.862	8.708	80.605	-74.219	-67.631	91.408	39.798	-69.705	-65.974	-62.926	-58.285	42.914	-61.808	-8191	255	
4368.427	1	1	0	0	0.33473	0.1856	0.22729	0.10502	0.17977	0.18807	0.037874	0.21262	0.024907	0.084531	0.24855	0.047054	0.087276	0.19252	0.23678	0.24998	-2.7313	-2.2646	-2.9688	-2.8187	-2.4104	-3.1396	-2.5896	-2.7417	-3.2188	-2.5646	-3.1083	-2.9333	-2.5167	-3.2979	-2.5333	-2.7021	186.947	213.073	264.618	-48.381	-16.250	232.221	-73.129	240.469	74.637	62.637	-39.654	180.984	5.011	-25.056	115.212	247.586	4.7431e-05	0.0014287	6.984e-05	693.43	3.6793e-06	4.8712e-06	561.15	197.05	5.5367e-06	6.0578e-06	169.76	49.349	57.9	20.473	2.7317e-06	19.276	0.00036178	0.00040418	0.00010773	615.88	4.4844e-06	4.0599e-06	501.05	175.15	4.1281e-06	4.3206e-06	153.07	45.167	53.216	18.601	4.0734e-06	17.84	261.594	14.870	171.122	-73.610	121.091	54.920	-74.099	-67.729	-57.162	98.953	-70.190	-66.606	-63.114	-58.121	119.105	-60.747	-8191	255	
4368.523	1	1	0	0	0.17827	0.21963	0.29223	0.16574	0.10875	0.23174	0.058166	0.088578	0.25463	0.058457	0.21843	0.11458	0.089666	0.16372	0.12804	0.1633	-2.8458	-2.35	-2.9562	-2.9542	-2.4938	-3.0229	-2.9292	-2.4958	-3.0583	-2.4729	-2.7208	-3.0187	-2.4354	-3.0062	-2.5292	-2.5771	11.993	60.927	213.164	-77.630	210.319	75.797	253.775	109.937	264.713	235.590	126.490	219.909	218.951	256.443	267.580	235.271	2.3929e-05	0.00066716	0.00017107	700.23	1.0367e-06	1.5509e-06	566.76	197.74	7.6204e-06	2.2712e-06	168.62	50.307	58.597	20.718	2.9483e-06	19.353	0.00034972	0.00038667	0.00010715	621.3	4.3685e-06	4.1272e-06	506.79	176.03	3.8674e-06	4.0868e-06	154.19	46.055	53.409	18.848	3.7584e-06	18.029	-83.907	88.711	-27.625	-73.579	192.797	18.222	-74.710	-67.783	235.944	36.110	-69.828	-66.197	-63.547	-57.837	233.989	-60.825	-8191	255	
4368.619	1	1	0	0	0.06408	0.13466	0.1605	0.25488	0.2067	0.13274	0.14419	0.063728	0.081526	0.11631	0.09349	0.093563	0.01638	0.15945	0.064632	0.17791	-2.8146	-2.4146	-2.7604	-3.0146	-2.3438	-3.0521	-2.8438	-2.4688	-3.3063	-2.5792	-2.6542	-3.0938	-2.4396	-2.9896	-2.9625	-2.4396	6.660	-36.406	-58.617	215.408	227.013	241.321	198.276	-62.921	48.262	189.532	267.452	-74.573	44.474	-49.837	69.968	110.724	6.7943e-05	0.00038383	0.00017123	713.45	6.0153e-06	5.1288e-06	576.73	203.24	3.9394e-06	2.6716e-06	175.35	51.396	60.599	20.622	1.7853e-06	19.084	0.0003388	0.00036667	0.00010742	627.34	4.374e-06	4.1846e-06	514.2	180.57	4.0975e-06	4.153e-06	158.54	47.09	55.497	18.676	3.7926e-06	17.633	-5.705	173.122	-41.976	-73.194	36.369	112.342	-73.782	-67.390	-64.110	175.245	-70.235	-66.592	-64.014	-58.313	39.553	-62.122	-8191	255	
4368.740	1	1	0	0	0.019224	0.2134	0.14567	0.23141	0.1144	0.13225	0.070639	0.15792	0.18001	0.077887	0.092932	0.17294	0.15645	0.39749	0.059537	0.37157	-2.7313	-2.5729	-2.6604	-3.0854	-2.4	-2.9021	-2.9188	-2.3708	-2.9437	-2.5833	-2.7958	-3.2292	-2.4396	-2.7271	-3.0062	-2.3333	-42.825	177.263	105.576	16.241	97.502	269.841	65.368	-77.491	113.233	263.877	141.226	221.852	-53.703	-85.728	93.121	249.535	9.0257e-05	0.00076152	6.5707e-05	706.84	5.7447e-06	6.6599e-06	568.95	200.6	4.4227e-06	5.6531e-06	173.82	52.127	60.984	20.539	5.2029e-06	18.803	0.00033472	0.00035792	0.00010517	623.64	4.0411e-06	4.0083e-06	507.47	179.27	3.7969e-06	3.6861e-06	156.9	47.197	55.722	18.539	3.7006e-06	17.331	227.422	-34.314	-10.057	-72.494	107.518	49.449	-74.212	-67.857	221.758	263.396	-70.356	-66.590	-63.959	-58.007	212.428	-61.964	-8191	255	
4368.836	1	1	0	0	0.1139	0.20457	0.085515	0.12128	0.16393	0.079154	0.085371	0.085224	0.090568	0.19386	0.16072	0.12016	0.035227	0.29546	0.081528	0.084749	-2.6937	-2.7354	-2.425	-3.3042	-2.4104	-2.8688	-3.1063	-2.4646	-3.0292	-2.7417	-2.5438	-3.25	-2.4667	-2.8271	-2.9688	-2.275	-27.479	88.508	176.093	246.937	149.243	-17.971	188.456	236.972	174.325	221.003	189.953	207.297	261.905	99.491	246.795	24.875	4.3645e-05	0.0006025	2.3881e-05	698.6	4.2725e-06	6.6167e-06	569.68	198.39	4.4387e-06	2.1161e-06	173.13	50.505	58.837	20.249	5.2525e-06	18.914	0.0003355	0.00034029	0.00010364	623.71	3.8836e-06	3.7831e-06	508.24	177.21	3.6602e-06	3.5875e-06	155.92	45.831	53.767	18.362	3.5108e-06	17.411	260.639	268.921	21.106	-73.470	-8.224	-6.742	-74.622	-68.148	-54.321	65.187	-69.927	-66.682	-63.657	-58.261	139.347	-61.702	-8191	255	
4368.908	1	1	0	0	0.094251	0.056435	0.29275	0.057492	0.23612	0.19333	0.31694	0.17201	0.2386	0.22814	0.22953	0.23975	0.31002	0.13665	0.11273	0.29229	-2.4813	-2.7729	-2.5417	-3.1271	-2.4917	-2.6479	-3.2104	-2.2917	-2.9896	-2.95	-2.275	-3.0292	-2.5479	-2.7708	-3.0479	-2.5229	28.009	42.167	106.754	-5.437	68.158	191.554	266.360	67.301	-57.681	72.675	84.103	137.618	223.051	88.921	272.868	217.226	8.1e-05	0.00038404	8.0292e-06	703.78	2.8988e-06	4.7213e-06	575.57	198.26	2.3777e-06	4.0761e-06	174.48	50.749	59.012	20.589	5.354e-06	19.099	0.00032988	0.00032995	0.00010032	626.13	3.8647e-06	3.9604e-06	512.31	177.05	3.8339e-06	3.6249e-06	157.58	46.371	54.243	18.596	3.7243e-06	17.538	241.822	38.252	253.962	-73.322	-7.708	254.103	-74.424	-68.142	268.264	54.573	-70.046	-66.458	-63.249	-58.305	98.781	-61.494	-8191	255	
4369.004	1	1	0	0	0.29307	0.22431	0.1274	0.19179	0.27521	0.15365	0.25786	0.2519	0.061918	0.27338	0.23952	0.38117	0.15171	0.070444	0.027813	0.1283	-2.4708	-3.0396	-2.5104	-3.1896	-2.65	-2.5583	-3.1042	-2.3937	-2.7812	-2.8958	-2.4292	-3.1583	-2.6875	-2.6188	-3.125	-2.3208	99.109	-2.472	-72.596	58.961	23.632	113.261	-39.032	272.761	105.945	-54.794	36.123	226.022	211.291	-4.878	148.454	66.214	0.00013707	0.00066493	9.1121e-05	698.7	7.0293e-06	2.9266e-06	570.1	198.65	3.3528e-06	5.8054e-06	172.53	50.525	59.215	20.318	2.5722e-06	18.434	0.00034723	0.00033786	0.00010592	622.13	3.9739e-06	4.21e-06	507.93	177.13	3.9742e-06	3.8014e-06	156.32	46.192	53.873	18.376	3.837e-06	17.157	134.800	0.627	107.508	-73.163	72.068	119.925	-74.527	-68.366	1.416	-39.601	-70.585	-66.418	-63.343	-58.158	70.909	-62.836	-8191	255	
4369.124	1	1	0	0	0.17666	0.13912	0.21259	0.12243	0.10223	0.34866	0.19412	0.28742	0.18906	0.019428	0.085862	0.16046	0.053224	0.10057	0.13929	0.14272	-2.4479	-2.8521	-2.3396	-3.1667	-2.6146	-2.3458	-3.1792	-2.4875	-2.7875	-3.0229	-2.2729	-2.9604	-2.7833	-2.5167	-3.0875	-2.4771	0.430	233.016	-47.103	198.109	177.578	180.822	105.978	-79.634	175.950	-30.899	-41.054	127.029	216.305	219.780	145.520	154.893	6.7357e-05	0.00026898	6.6939e-05	696.64	9.0702e-07	6.2338e-06	563	199.48	1.247e-06	6.6106e-06	169.99	50.109	58.637	20.015	5.5151e-06	18.661	0.00034974	0.00035054	0.00010784	620.95	3.9604e-06	4.2911e-06	504.07	176.79	4.0873e-06	3.8494e-06	155.07	45.914	53.551	18.281	3.7989e-06	17.156	176.931	214.440	130.251	-72.873	41.503	1.562	-74.673	-67.864	137.990	132.042	-71.207	-66.682	-63.402	-57.791	64.286	-62.038	-8191	255	
4369.221	1	1	0	0	0.071068	0.12738	0.22971	0.13317	0.19452	0.039424	0.12005	0.14142	0.083689	0.14769	0.14302	0.097492	0.025972	0.072537	0.26087	0.089466	-2.1396	-3.1688	-2.2313	-2.9479	-2.7771	-2.4917	-3.3688	-2.6354	-2.4854	-3.2313	-2.4188	-2.8521	-2.8771	-2.4125	-2.9396	-2.5917	-31.149	-54.661	53.135	-55.024	123.272	84.272	-82.804	-25.619	131.778	152.772	11.607	250.748	152.231	226.991	88.652	87.664	0.00013049	0.00034602	0.00019057	680.07	2.7053e-06	4.7229e-06	568.21	196.01	3.3805e-06	2.5238e-06	169.92	49.76	57.757	20.013	2.8158e-06	18.524	0.00036822	0.00035072	0.00010484	615.83	3.8319e-06	4.1756e-06	503.91	174.65	4.1105e-06	3.7143e-06	153.99	45.445	52.596	18.13	3.768e-06	17.031	179.390	101.968	-45.024	-73.199	-30.333	37.565	-74.219	-67.854	35.321	27.786	-70.337	-66.440	-64.274	-57.994	146.941	-62.424	-8191	255	
4369.317	1	1	0	0	0.13308	0.24923	0.13264	0.2672	0.19123	0.18625	0.027276	0.14268	0.052827	0.13226	0.1559	0.23535	0.29419	0.034867	0.10608	0.18536	-2.3292	-3.1917	-2.3792	-3.0687	-3.0042	-2.5312	-3.1979	-2.7313	-2.5167	-3.2729	-2.5563	-2.8917	-3.1146	-2.3438	-3.0667	-2.5438	148.863	-85.001	249.546	230.603	78.624	125.450	28.533	106.924	21.004	247.792	-9.154	4.160	128.909	222.727	23.302	256.974	2.1582e-05	0.00030056	5.7805e-05	687.97	4.4654e-06	3.0304e-06	566.17	200.3	5.111e-06	5.9663e-06	175.78	51.415	60.069	20.12	2.7012e-06	18.77	0.00036054	0.00035159	0.00010266	615.38	3.9025e-06	4.4412e-06	506.74	178.12	4.4848e-06	4.1178e-06	158.65	47.366	55.055	18.332	4.0715e-06	17.23	106.705	-48.915	167.039	-72.983	-54.083	152.237	-74.433	-68.011	16.635	115.612	-70.135	-67.293	-64.750	-57.876	157.514	-62.272	-8191	255	
4369.413	1	1	0	0	0.02163	0.22101	0.19718	0.25471	0.32759	0.055982	0.18806	0.040506	0.041279	0.36596	0.13391	0.21061	0.11082	0.15146	0.070113	0.16412	-2.0021	-3.1479	-2.4271	-2.7958	-2.9583	-2.4333	-3.1479	-2.825	-2.2417	-3.1083	-2.3625	-2.6917	-3.0896	-2.2958	-2.9896	-2.875	217.441	-1.660	-7.208	220.425	24.951	222.778	231.040	135.529	252.890	-25.310	42.151	256.670	-50.501	-10.012	258.243	206.711	4.5679e-05	0.00060631	0.00017331	683.62	9.6839e-06	6.1637e-06	559.64	197.99	9.2786e-06	2.6648e-06	171.05	49.509	59.176	19.813	7.8345e-06	17.967	0.00037477	0.00036751	0.00010103	616.34	3.8618e-06	4.1002e-06	502.38	176.79	4.3032e-06	4.0235e-06	155.1	45.855	54.108	18.13	4.0618e-06	16.825	118.416	23.614	-44.683	-73.309	-6.161	185.560	-74.323	-67.920	32.723	-64.208	-70.403	-66.944	-62.760	-58.729	158.759	-62.736	-8191	255	
4369.507	1	1	0	0	0.23812	0.081985	0.30919	0.25243	0.19128	0.1957	0.15683	0.093452	0.077793	0.18665	0.10742	0.26619	0.23011	0.13296	0.089681	0.043434	-2.0292	-2.9771	-2.5	-2.6083	-3.0938	-2.65	-2.9479	-3.0187	-2.5333	-3.1042	-2.6083	-2.5938	-3.0625	-2.2542	-2.6646	-2.8187	219.572	118.997	34.607	94.010	-58.096	43.008	152.450	140.121	242.817	149.917	31.021	37.624	-84.230	227.415	63.712	88.230	1.0256e-05	0.00033208	0.00010676	680.34	3.2346e-06	6.2966e-06	558.01	196.28	7.93e-06	6.3574e-06	170.58	49.756	58.911	19.717	2.6844e-06	18.033	0.00037605	0.00036463	0.00010091	614.35	3.9272e-06	4.2342e-06	497.27	175.2	4.1806e-06	4.0509e-06	154	45.94	53.71	17.953	4.1942e-06	16.831	29.310	34.782	-36.544	-72.693	24.159	-16.150	-74.505	-68.506	-15.275	193.791	-70.783	-66.387	-63.166	-58.214	218.665	-61.997	-8191	255	
4369.605	1	1	0	0	0.058929	0.12393	0.064591	0.46206	0.14003	0.2359	0.14664	0.19861	0.4082	0.18481	0.11422	0.24111	0.1421	0.11361	0.030129	0.21965	-1.9146	-3.0062	-2.6688	-2.4646	-3.1333	-2.4896	-2.7979	-3.1063	-2.3542	-2.9313	-2.6875	-2.4167	-3.0563	-2.3021	-2.4562	-3	51.307	172.297	254.641	225.223	73.230	12.364	152.728	162.696	121.892	230.517	-56.467	241.046	104.565	174.586	134.563	159.449	5.9071e-05	0.0007182	0.00016797	676.69	7.2926e-07	3.4554e-06	557.98	196.88	6.3474e-06	4.0409e-06	172.03	50.269	59.102	19.847	3.596e-06	18.256	0.00039754	0.00038895	0.00010704	611.03	4.2501e-06	4.3795e-06	499.76	175.69	4.4498e-06	4.3343e-06	155.35	46.412	54.135	18.05	4.3326e-06	16.866	95.934	-4.116	4.662	-73.035	-74.429	-13.814	-74.424	-68.169	65.465	55.329	-70.410	-66.866	-63.462	-58.597	26.380	-62.478	-8191	255	
4369.724	1	1	0	0	0.22381	0.33637	0.0756	0.24215	0.16043	0.23512	0.08791	0.18033	0.18782	0.087452	0.065422	0.11439	0.12161	0.2396	0.13196	0.07888	-1.9625	-2.9229	-2.9604	-2.5792	-2.9396	-2.6271	-2.7042	-3.1562	-2.3583	-3.0396	-2.8187	-2.3792	-3.1083	-2.4458	-2.6042	-3.1208	226.898	-5.893	92.627	171.804	149.930	149.254	49.139	190.738	8.486	126.017	-12.119	3.107	44.604	252.762	105.623	211.646	8.795e-05	0.00073967	0.0001318	690.6	3.5903e-06	3.3008e-06	556.36	198.62	2.9751e-06	2.293e-06	173.23	50.177	58.412	20.096	8.2563e-06	18.441	0.00039807	0.00040051	0.00010474	615.57	4.2274e-06	4.1963e-06	500.71	176.37	4.4662e-06	4.3554e-06	156.64	46.437	54.524	18.296	4.4724e-06	17.12	248.609	170.371	49.338	-72.616	-74.668	7.651	-74.326	-67.758	18.160	131.438	-70.393	-66.985	-63.471	-57.830	-65.493	-62.285	-8191	255	
4369.820	1	1	0	0	0.10229	0.10725	0.089765	0.079183	0.18645	0.096192	0.26221	0.11778	0.151	0.091791	0.27435	0.024284	0.37156	0.0055708	0.29897	0.086126	-1.8583	-3.0729	-2.7417	-2.2104	-3.0187	-2.5292	-2.5979	-3.1417	-2.375	-2.7146	-2.9688	-2.3667	-3.0042	-2.6437	-2.4625	-3.1042	-29.241	155.194	137.188	199.956	96.880	197.246	109.643	138.384	214.130	36.245	222.195	217.599	198.907	212.974	245.066	106.710	2.1449e-05	0.00014519	0.00010438	676.01	1.936e-06	2.4156e-06	551.3	195.9	2.0313e-06	2.1653e-06	167.46	49.74	58.569	19.773	4.9656e-06	18.039	0.00038286	0.00038598	0.00010406	612.23	4.1326e-06	4.1182e-06	499.12	175.37	4.1618e-06	4.2372e-06	153.67	45.909	54.22	18.108	4.4106e-06	16.842	-55.570	176.193	56.891	-72.714	115.785	-22.023	-74.187	-67.918	74.601	235.935	-70.725	-66.507	-63.442	-58.476	200.208	-61.887	-8191	255	
4369.916	1	1	0	0	0.14656	0.11716	0.19599	0.14538	0.18654	0.14387	0.17657	0.11573	0.23997	0.16951	0.22008	0.25197	0.24036	0.14315	0.075644	0.15604	-2.0604	-2.6146	-2.9062	-2.3583	-3.1104	-2.6188	-2.3833	-3.1708	-2.5229	-2.6396	-3.0229	-2.2562	-2.9896	-2.9	-2.4062	-3.0604	99.973	215.588	174.700	206.954	133.610	28.644	-34.491	206.344	-32.191	-25.300	46.190	183.513	112.843	196.109	217.014	18.202	9.0857e-05	0.00047632	5.0179e-05	687.34	3.5958e-06	3.782e-06	558.05	197.57	1.0032e-05	2.9814e-06	169.9	49.265	59.72	19.933	7.5429e-06	18.189	0.0003767	0.00039401	0.00010474	614.46	4.2256e-06	4.112e-06	499.38	176.15	4.3072e-06	4.387e-06	154.2	45.698	54.291	18.046	4.4344e-06	16.877	73.146	-27.133	59.500	-73.588	104.169	54.076	-74.631	-67.845	-64.850	56.487	-71.146	-67.249	-63.508	-58.967	154.108	-62.418	-8191	255	
4370.012	1	1	0	0	0.2104	0.22257	0.3152	0.21411	0.1975	0.23913	0.047985	0.13095	0.17794	0.17029	0.080661	0.33708	0.038165	0.25645	0.16328	0.060444	-2.1562	-2.7313	-2.9437	-2.2833	-2.95	-2.8771	-2.6104	-3.1729	-2.6083	-2.675	-3.1333	-2.5417	-2.875	-2.9896	-2.4229	-3.1417	23.098	159.925	201.443	215.960	-14.917	161.784	-23.487	214.600	143.778	20.232	170.746	183.190	166.907	222.051	234.607	-20.354	7.4605e-05	0.00097968	7.4461e-05	682.13	2.8031e-06	1.6807e-06	559.02	197.13	4.1623e-06	6.6134e-07	170.65	49.113	57.569	20.121	4.9197e-06	18.198	0.0003641	0.00039549	0.00010057	610.43	4.2063e-06	4.0308e-06	497	175.36	4.0294e-06	4.2324e-06	153.49	45.246	53.201	18.163	4.2265e-06	16.932	176.114	2.535	60.154	-73.231	152.785	-75.051	-74.011	-68.108	163.688	-29.312	-70.577	-67.086	-63.858	-58.591	32.794	-61.755	-8191	255	
4370.133	1	1	0	0	0.19468	0.17588	0.22538	0.059274	0.26033	0.15277	0.26338	0.15738	0.20464	0.13663	0.33209	0.15942	0.047742	0.11085	0.05996	0.22621	-2.1792	-2.4417	-3.0354	-2.3521	-2.7604	-2.9979	-2.4854	-3.1354	-2.6229	-2.3438	-3.2521	-2.5771	-3.0417	-2.9938	-2.2167	-3.0646	112.095	151.010	196.133	-47.377	212.728	176.729	141.170	127.364	195.982	205.675	-85.246	201.882	102.489	94.862	192.636	186.662	0.00020378	0.00046846	0.00022158	679.37	7.682e-06	5.7949e-07	556.22	195.07	7.2338e-06	5.6095e-06	170.7	49.254	58.754	19.834	2.382e-06	18.306	0.00034423	0.00038361	9.6981e-05	610.91	4.0116e-06	3.9124e-06	501.53	174.34	3.9638e-06	4.2293e-06	154.62	45.449	53.854	18.111	4.3017e-06	17.088	143.760	3.176	171.104	-72.897	163.303	231.267	-74.061	-67.677	-16.931	213.468	-70.456	-66.488	-63.473	-58.662	147.092	-62.163	-8191	255	
4370.205	1	1	0	0	0.089993	0.17254	0.16813	0.086762	0.13187	0.14323	0.37338	0.22155	0.1461	0.22971	0.17395	0.08996	0.069374	0.11417	0.22109	0.36627	-2.1917	-2.4813	-2.9813	-2.4396	-2.5375	-2.8937	-2.4313	-2.925	-2.7583	-2.3521	-3.3563	-2.3958	-2.6125	-3.1312	-2.4167	-2.9792	244.197	168.945	-37.413	6.665	179.220	229.154	268.013	-78.574	36.426	-76.339	139.820	47.174	91.087	-20.508	-5.943	-61.168	9.1846e-05	0.00049265	0.0001372	681.75	5.2429e-07	8.0738e-06	555.13	196.05	3.328e-06	4.2055e-06	170.81	49.174	58.302	19.798	5.7461e-06	17.962	0.00035244	0.00039694	9.9136e-05	606.64	4.117e-06	3.9306e-06	496.86	174.58	3.8563e-06	4.4086e-06	153.33	45.317	53.637	17.858	4.2632e-06	16.682	120.371	237.012	63.304	-73.767	128.953	184.520	-74.545	-67.891	140.660	244.649	-71.354	-66.671	-64.061	-57.883	-27.415	-62.220	-8191	255	
4370.301	1	1	0	0	0.08927	0.073565	0.069299	0.15925	0.11744	0.33637	0.032296	0.097221	0.30035	0.11863	0.1056	0.043781	0.10147	0.2331	0.17001	0.054331	-2.5792	-2.4521	-3.1458	-2.4	-2.525	-3.1917	-2.6708	-2.9583	-2.9021	-2.425	-3.1833	-2.5875	-2.5458	-3.1833	-2.5042	-2.9458	257.641	-1.335	34.026	199.975	41.624	24.602	170.827	-21.408	203.807	-65.050	239.458	243.177	75.119	218.259	-75.730	76.816	0.00016792	0.00033643	8.685e-05	675.17	2.4345e-06	3.7587e-06	553.1	195.49	2.7529e-06	8.9745e-07	168.26	48.464	57.227	19.769	2.0782e-06	18.144	0.00035138	0.00039119	0.00010435	604.99	4.3408e-06	3.9184e-06	495.2	173.74	3.8169e-06	4.2208e-06	152.56	44.315	52.9	17.857	4.0068e-06	16.73	180.533	267.681	212.331	-73.187	20.892	36.097	-74.060	-67.910	-41.599	126.502	-70.489	-66.830	-63.952	-58.082	44.451	-61.822	-8191	255	
4370.422	1	1	0	0	0.22069	0.13862	0.070656	0.10056	0.19374	0.083011	0.14809	0.13736	0.13842	0.14051	0.2281	0.19179	0.0068967	0.19777	0.15828	0.15213	-2.7583	-2.2938	-3.1708	-2.7833	-2.5208	-3.0521	-2.4688	-2.7958	-3.0354	-2.3729	-3.0292	-2.65	-2.4542	-3.2021	-2.5312	-2.7958	76.945	88.557	12.708	153.049	77.854	65.853	61.297	-50.639	-48.211	248.259	216.815	-67.033	187.818	-13.806	219.202	-69.943	6.5447e-05	0.00062862	3.6291e-05	679.12	3.4259e-06	5.1965e-06	557.11	195.55	1.2486e-06	6.1551e-06	168	48.373	56.897	19.765	3.4424e-06	18.243	0.00033004	0.00038601	9.9514e-05	603.91	4.2006e-06	3.9336e-06	494.59	173.5	3.7626e-06	4.1317e-06	151.32	44.252	52.566	17.946	3.8766e-06	16.847	205.463	188.785	174.916	-73.059	172.645	151.512	-74.445	-68.120	109.827	70.061	-70.126	-66.634	-63.541	-58.048	86.641	-62.537	-8191	255	
4370.516	1	1	0	0	0.077054	0.24995	0.10078	0.1414	0.37599	0.085425	0.27048	0.12992	0.072849	0.14324	0.14611	0.14466	0.24007	0.036694	0.20008	0.15395	-2.7021	-2.2021	-2.8958	-2.8688	-2.3396	-3.1688	-2.7188	-2.6958	-3.1083	-2.3958	-2.9229	-2.9729	-2.3375	-3.0583	-2.5917	-2.8	23.038	214.608	24.094	157.529	71.827	30.766	181.062	264.844	99.563	195.688	147.607	-73.838	164.761	-19.432	161.551	132.981	3.3876e-05	0.00063404	0.00016689	684.17	3.8641e-06	3.7702e-06	562.71	195.26	1.7993e-06	2.4322e-06	170.38	48.375	57.246	19.866	1.4422e-06	17.994	0.00033995	0.0003755	0.00010125	610.23	4.1259e-06	3.9512e-06	499.7	173.65	3.8466e-06	4.1123e-06	153.3	44.508	52.989	18.071	3.823e-06	16.846	137.102	-80.172	112.535	-73.096	-80.761	136.140	-74.308	-68.090	-11.048	103.112	-69.916	-66.394	-64.374	-58.565	186.515	-61.378	-8191	255	
4370.612	1	1	0	0	0.038794	0.15737	0.16401	0.059917	0.21978	0.044983	0.09654	0.30382	0.23618	0.1107	0.14603	0.25067	0.11576	0.082466	0.15751	0.20293	-2.7917	-2.3917	-2.8812	-3.0458	-2.3583	-3.0875	-2.6375	-2.6854	-3.1271	-2.4396	-3.0333	-3.0833	-2.3937	-2.8667	-2.8354	-2.5917	35.947	238.304	105.525	180.247	75.538	242.772	187.195	174.373	129.142	200.648	-28.130	199.650	148.958	165.365	144.609	110.715	0.00012098	0.00052062	0.00016173	684.11	1.6903e-06	8.3327e-06	557.33	194.47	2.3975e-06	4.509e-06	167.78	48.262	57.747	19.822	8.0905e-06	18.095	0.00033799	0.00036651	0.00010197	605.28	4.1726e-06	3.8483e-06	496.39	172.99	3.8218e-06	3.9957e-06	151.95	44.125	52.805	18.122	3.7817e-06	16.823	154.532	43.881	69.962	-73.864	85.895	140.170	-74.492	-68.138	24.261	34.081	-70.579	-66.884	-63.971	-59.091	78.872	-62.041	-8191	255	
4370.708	1	1	0	0	0.23111	0.20288	0.41772	0.11498	0.041272	0.015906	0.21443	0.10593	0.12506	0.036957	0.086587	0.16477	0.16351	0.18928	0.087941	0.1708	-2.7583	-2.3604	-2.7167	-3.15	-2.4104	-3.0625	-2.8708	-2.5646	-3.0771	-2.3083	-2.6542	-2.9646	-2.4813	-3.0042	-2.8417	-2.3021	-80.435	253.509	-31.348	-29.495	-29.863	252.815	235.092	-49.903	-43.069	123.454	-83.903	76.020	-24.625	-50.991	5.817	109.821	0.00013249	0.00074697	3.5439e-05	688.99	4.8353e-06	4.584e-06	554.38	194.65	6.9241e-06	4.432e-06	168.56	48.628	57.494	20.289	6.0297e-06	18.537	0.00034329	0.00036689	0.00010458	609.64	4.2043e-06	3.9388e-06	493.96	174.29	3.9014e-06	3.9053e-06	152.68	44.464	53.233	18.375	3.8989e-06	17.044	143.970	101.489	139.151	-73.225	52.271	66.674	-74.566	-67.772	193.762	78.721	-70.893	-66.426	-63.917	-58.153	156.274	-62.634	-8191	255	
4370.804	1	1	0	0	0.14055	0.11162	0.25553	0.16165	0.054947	0.031176	0.16528	0.26956	0.16793	0.093095	0.30225	0.1192	0.15909	0.13336	0.27209	0.14544	-2.7313	-2.4625	-2.5708	-3.0583	-2.4771	-2.9542	-2.9042	-2.4146	-3.0875	-2.8042	-2.5292	-3.175	-2.3229	-2.8604	-2.9292	-2.2854	-5.400	161.311	-34.966	146.501	164.862	-56.044	235.808	129.052	169.420	5.427	158.706	238.209	251.518	243.103	-5.011	63.104	7.3877e-05	0.00033819	0.00013215	691.61	2.9752e-06	4.4531e-06	548.74	195.81	3.727e-06	4.0376e-06	170.64	48.447	58.104	20.426	3.3913e-06	18.642	0.00035317	0.00036416	0.00011075	613.07	4.208e-06	4.0953e-06	494.85	175.35	3.932e-06	3.9721e-06	153.99	44.693	53.301	18.54	3.8853e-06	17.236	151.224	24.001	136.355	-73.783	110.392	173.878	-74.474	-67.669	-8.482	-16.876	-70.702	-67.138	-64.582	-58.452	20.717	-61.851	-8191	255	
4370.901	1	1	0	0	0.22031	0.17353	0.073257	0.078146	0.20132	0.082094	0.17138	0.30922	0.24818	0.17815	0.12906	0.2451	0.1002	0.089508	0.17652	0.16761	-2.5771	-2.5417	-2.275	-3.2417	-2.4625	-2.6542	-3.0958	-2.3563	-3.2	-2.5687	-2.3958	-3.0375	-2.5312	-2.7542	-2.9146	-2.2604	219.581	59.361	203.021	-29.621	129.056	45.653	210.319	181.425	230.852	45.385	-70.409	-62.777	143.826	181.763	-6.449	7.546	4.883e-05	0.00070727	7.4333e-05	689.52	4.2971e-06	3.2491e-06	566.02	196.84	4.9545e-06	1.3876e-06	171.81	49.199	58.086	20.447	4.4729e-06	18.483	0.00033935	0.00034954	0.00010578	611.94	3.9687e-06	3.9975e-06	502.34	175.96	3.9136e-06	3.8626e-06	154.54	45.155	53.393	18.607	3.7186e-06	17.125	19.878	-20.249	-68.365	-73.722	-28.440	57.273	-74.347	-68.046	204.561	220.427	-70.883	-66.812	-64.517	-58.482	138.767	-62.707	-8191	255	
4370.997	1	1	0	0	0.29755	0.33039	0.10817	0.13386	0.26876	0.23929	0.11615	0.054115	0.15238	0.15748	0.14988	0.42643	0.14804	0.11715	0.11221	0.32	-2.5042	-2.8688	-2.1604	-2.9417	-2.4896	-2.6937	-3.0958	-2.2521	-2.9729	-2.825	-2.4417	-2.9396	-2.4333	-2.525	-3.0417	-2.3958	264.485	39.648	62.074	178.648	-62.815	267.969	87.932	3.157	255.748	117.888	171.039	223.395	65.358	2.201	81.508	189.207	6.1863e-05	0.00045104	0.00011093	689.56	7.0428e-06	9.858e-06	559.14	196.22	2.0623e-06	4.95e-06	168.84	48.404	57.966	20.742	5.6022e-06	18.53	0.0003363	0.00034682	0.00010205	613.69	3.7142e-06	3.8575e-06	496.14	175.18	3.8181e-06	3.6564e-06	152.72	44.354	52.799	18.496	3.6592e-06	16.998	142.651	45.655	-82.196	-73.478	121.031	58.320	-74.429	-67.926	4.484	133.593	-70.895	-67.289	-63.789	-58.588	-1.075	-61.820	-8191	255	
4371.093	1	1	0	0	0.1056	0.15885	0.12732	0.06079	0.12106	0.11683	0.10742	0.24892	0.16697	0.20594	0.25446	0.26083	0.19537	0.11271	0.15783	0.089905	-2.5438	-2.7438	-2.2583	-3.0438	-2.675	-2.7021	-3.1833	-2.4354	-2.8333	-2.8146	-2.375	-3.3792	-2.7292	-2.3542	-3.0812	-2.4146	154.038	173.747	-51.211	266.392	5.515	2.701	256.520	198.004	86.147	139.744	-78.362	-13.882	-71.011	203.198	-72.225	153.472	9.5071e-05	0.00043464	4.1415e-05	679.82	3.5195e-06	5.1316e-06	562.81	197.27	5.6398e-06	6.008e-06	169.36	48.45	57.896	20.481	1.1929e-06	18.507	0.0003397	0.00033834	0.00010088	610.6	3.7644e-06	3.9703e-06	499.26	175.62	3.9032e-06	3.689e-06	152.91	44.416	53.013	18.566	3.658e-06	17.07	252.154	32.439	39.223	-73.472	107.561	-20.452	-74.539	-68.052	-68.609	-72.247	-70.061	-66.889	-63.505	-58.206	141.491	-62.130	-8191	255	
4371.213	1	1	0	0	0.24672	0.13005	0.12382	0.29693	0.098196	0.21175	0.27635	0.22299	0.17729	0.15383	0.22112	0.11832	0.088695	0.28245	0.16582	0.17852	-2.2812	-2.8729	-2.3	-3.0125	-2.6771	-2.6562	-2.9729	-2.4313	-2.6375	-2.9833	-2.4854	-3.1458	-2.7146	-2.3688	-3.2479	-2.4146	140.147	270.132	72.742	230.007	7.226	16.027	-66.174	151.498	167.643	21.708	194.078	42.767	189.364	264.705	-3.513	162.936	9.0405e-05	0.00044608	0.00013996	686.46	2.9772e-06	2.3864e-06	563.52	196.04	9.4845e-07	4.9861e-06	170.62	48.807	58.841	20.582	2.5348e-06	18.835	0.00033661	0.00033168	0.00010051	614.14	3.7083e-06	4.0543e-06	501.17	174.88	3.9134e-06	3.6638e-06	153.86	44.809	53.535	18.724	3.6859e-06	17.36	142.346	126.774	215.070	-73.065	117.729	61.186	-74.087	-68.146	25.457	89.805	-70.553	-66.573	-64.527	-58.299	145.255	-61.718	-8191	255	
4371.308	1	1	0	0	0.092078	0.25487	0.16538	0.19167	0.14798	0.14866	0.1491	0.060646	0.047293	0.20274	0.2714	0.14168	0.19798	0.22515	0.057505	0.2088	-2.2188	-2.8563	-2.1729	-3.0333	-2.825	-2.45	-3.0708	-2.575	-2.4521	-3.1521	-2.4146	-2.9167	-2.9688	-2.5625	-3.0521	-2.8042	-83.541	-14.167	114.763	-56.661	26.027	149.278	191.251	216.735	107.204	-23.564	122.874	1.397	262.009	-41.078	206.897	173.542	0.00014674	0.0007262	0.00019749	697	4.288e-06	6.6861e-06	574.45	198.28	5.404e-06	4.4985e-06	173	49.942	59.356	20.713	1.5505e-06	18.828	0.00034925	0.00033713	9.9432e-05	620.2	3.6579e-06	4.129e-06	509.16	176.93	4.1174e-06	3.7767e-06	156.48	45.889	54.4	18.921	3.833e-06	17.379	82.184	-81.383	156.671	-73.797	76.614	38.302	-74.461	-68.211	77.715	116.983	-70.520	-66.644	-64.277	-58.332	-46.301	-61.581	-8191	255	
4371.406	1	1	0	0	0.090774	0.30301	0.11196	0.13926	0.21033	0.12338	0.14022	0.33523	0.25794	0.16392	0.10166	0.083246	0.24705	0.38053	0.28131	0.17825	-1.9625	-3.0646	-2.3542	-2.8167	-2.9042	-2.2812	-3.1479	-2.6771	-2.4958	-3.0875	-2.4792	-3.0354	-2.8917	-2.3438	-3.1708	-2.7208	57.363	72.513	117.842	272.563	80.058	195.548	144.330	190.001	142.182	2.325	261.177	31.051	-15.394	-27.575	95.197	176.227	8.7643e-05	0.00092033	0.00020871	694.88	2.7116e-06	2.8852e-06	559.95	197.36	5.729e-06	9.1943e-07	168.9	48.415	57.643	20.554	1.4888e-06	18.716	0.00034868	0.00033893	0.00010038	620.23	3.7057e-06	3.9414e-06	500.56	176.02	4.0422e-06	3.7278e-06	152.31	44.777	53.017	18.65	3.7056e-06	17.02	190.927	-18.644	2.409	-73.047	-27.009	33.632	-74.121	-68.071	94.781	70.566	-70.599	-66.751	-63.987	-58.016	172.164	-62.001	-8191	255	
4371.502	1	1	0	0	0.16539	0.095392	0.10144	0.20403	0.15726	0.17277	0.20439	0.19611	0.15591	0.11842	0.12139	0.038056	0.13319	0.11052	0.16665	0.11977	-1.8729	-3.0354	-2.3271	-2.7167	-2.7917	-2.3625	-2.9833	-2.8021	-2.4271	-3.175	-2.5583	-2.4229	-2.8563	-2.0875	-2.8167	-2.8833	255.300	-42.636	271.239	2.183	201.735	192.681	124.860	-73.226	35.145	-1.704	192.912	48.203	259.124	0.180	-57.507	216.964	0.00012861	0.0005042	5.52e-05	693.24	6.8359e-06	7.0376e-06	558.44	197.05	9.5959e-06	2.2973e-06	169.36	48.5	58.116	20.625	5.715e-06	18.649	0.00034706	0.00032988	9.5922e-05	618.83	3.5929e-06	3.9936e-06	499.7	174.8	4.0294e-06	3.6754e-06	152.08	44.495	52.853	18.675	3.7989e-06	17.155	195.360	153.250	265.872	-73.485	91.272	-7.819	-74.481	-68.128	50.634	-40.583	-70.382	-66.641	-63.845	-57.953	202.526	-62.423	-8191	255	
4371.596	1	1	0	0	0.22279	0.13055	0.2288	0.31382	0.19975	0.10431	0.17279	0.1404	0.3395	0.12699	0.15013	0.16695	0.25606	0.051947	0.054473	0.21272	-1.8917	-3.2646	-2.5042	-2.6271	-3.1	-2.2313	-3.0229	-2.9854	-2.2042	-3.0625	-2.6021	-2.6042	-3.1542	-2.3792	-2.775	-3.0021	175.445	50.112	-26.801	-69.174	261.253	113.221	-7.260	129.323	175.617	129.580	-65.331	46.880	202.782	-17.360	-14.816	31.533	9.4648e-05	0.00048032	0.00013586	693.69	3.0068e-06	8.0203e-06	562.3	197.2	5.1469e-06	4.5358e-06	170.32	49.336	59.31	20.915	4.9096e-06	18.814	0.00034988	0.00034095	9.4787e-05	621.99	3.6955e-06	3.8969e-06	501.57	175.56	4.0663e-06	3.8206e-06	154.15	45.463	54.033	18.975	4.1049e-06	17.389	220.288	-27.087	-61.953	-73.730	-34.588	62.566	-74.836	-67.893	90.352	153.400	-71.234	-67.264	-63.850	-58.108	158.656	-63.173	-8191	255	
4371.692	1	1	0	0	0.17629	0.17719	0.11299	0.28824	0.090901	0.018126	0.2078	0.09284	0.11119	0.22551	0.074652	0.18112	0.14159	0.09526	0.14164	0.21468	-2.15	-3.0417	-2.5938	-2.4938	-3.2229	-2.2562	-2.6729	-3.0438	-2.2188	-3.0083	-2.6333	-2.2938	-3.1271	-2.4333	-2.7313	-2.9042	-42.101	35.108	-2.838	77.529	192.308	197.255	264.989	254.214	82.585	-42.533	50.487	-71.196	234.153	248.896	69.105	151.937	2.2255e-05	0.00044904	4.3761e-05	694.25	1.512e-06	7.0137e-06	563	200.04	5.9373e-06	3.4624e-06	171.99	49.784	59.127	21.136	7.1493e-06	18.933	0.0003658	0.00035566	0.00010073	622.15	3.9022e-06	4.0674e-06	506.12	178.2	4.3447e-06	4.0181e-06	155.36	46.256	54.689	19.148	4.2785e-06	17.445	-61.770	165.900	-23.305	-73.716	45.077	42.484	-74.696	-68.593	-4.805	153.078	-70.805	-66.684	-63.914	-58.868	-80.918	-62.283	-8191	255	
4371.813	1	1	0	0	0.13339	0.017292	0.042302	0.18063	0.2172	0.076506	0.23642	0.076003	0.28618	0.099691	0.20293	0.18375	0.29521	0.26129	0.18515	0.11244	-1.7833	-2.9	-2.7271	-2.3729	-3.0167	-2.4958	-2.7646	-3.2	-2.2667	-3.1188	-2.9458	-2.4	-3.1917	-2.7542	-2.5563	-3.1708	74.590	228.518	52.062	222.517	94.578	110.910	-77.171	-1.842	-22.790	194.463	-55.093	174.628	231.234	251.021	38.428	227.427	5.0688e-05	0.00026703	0.00010058	704.7	2.0672e-06	8.3874e-06	561.22	198.31	5.0571e-06	2.8224e-06	169.05	49.228	58.779	20.789	4.925e-06	18.301	0.00037169	0.00037363	9.9426e-05	624.56	3.9625e-06	4.003e-06	501.52	177.04	4.1321e-06	4.1037e-06	153.32	45.323	54.175	18.916	4.2202e-06	17.068	156.050	262.723	142.407	-73.648	-64.674	153.368	-74.817	-68.401	261.742	177.135	-71.192	-66.750	-63.485	-58.396	143.100	-62.007	-8191	255	
4371.909	1	1	0	0	0.022525	0.22012	0.1218	0.14153	0.26744	0.35373	0.11067	0.078754	0.34235	0.066083	0.19053	0.10015	0.050555	0.080754	0.070132	0.14667	-2.0375	-2.8563	-2.9521	-2.475	-3.2104	-2.6979	-2.3854	-3.0958	-2.3771	-3.0042	-3.1104	-2.1833	-2.9833	-2.6708	-2.3937	-3.1167	202.140	-32.443	-24.822	231.589	-60.420	103.195	202.333	250.818	174.277	172.647	15.001	192.472	103.518	92.676	138.153	-23.703	0.00013357	0.00018663	0.00016082	691.24	3.3245e-06	6.2765e-06	562.51	198.03	2.1051e-06	1.8152e-06	170.78	49.17	59.233	20.698	7.3304e-06	18.585	0.00036818	0.00037346	9.8229e-05	621.22	4.1719e-06	3.9587e-06	502.16	177.5	4.1861e-06	4.1338e-06	154.24	45.383	54.612	18.811	4.3965e-06	17.166	226.640	219.063	67.672	-73.648	207.948	95.658	-74.941	-68.132	135.730	245.550	-70.861	-66.509	-64.081	-59.025	143.968	-61.746	-8191	255	
4372.005	1	1	0	0	0.079391	0.11996	0.085318	0.091422	0.20416	0.26394	0.28914	0.14403	0.18084	0.093813	0.13398	0.21848	0.14681	0.054469	0.23159	0.27193	-1.7792	-2.6625	-3.0354	-2.4771	-3.1583	-2.7167	-2.6333	-3.1229	-2.4313	-2.6562	-3.0417	-2.3583	-3.0417	-2.925	-2.6167	-3.2146	74.321	139.954	103.815	111.759	105.981	109.063	94.440	122.530	123.863	165.140	174.961	130.038	40.914	-8.478	61.505	-70.138	0.00011794	0.00049034	9.8264e-05	699.22	3.6134e-06	6.6963e-06	562.98	199.55	5.7766e-06	4.06e-06	169.27	49.769	59.321	20.851	2.9443e-06	18.981	0.00037112	0.00038502	0.00010004	621.97	4.0171e-06	3.9432e-06	503.84	177.78	4.0276e-06	4.1485e-06	154.57	45.534	54.386	18.914	4.22e-06	17.437	80.969	180.029	78.542	-73.775	-28.754	75.697	-75.400	-68.443	-38.828	-13.924	-71.102	-66.789	-63.833	-58.666	35.670	-62.663	-8191	255	
4372.077	1	1	0	0	0.19516	0.092228	0.11549	0.1657	0.15512	0.14689	0.18838	0.2869	0.082407	0.25957	0.23149	0.074503	0.1374	0.24063	0.11857	0.12719	-2.0854	-2.6104	-3.1271	-2.3625	-3.0542	-3.0354	-2.4292	-3.1063	-2.4437	-2.5583	-3.3333	-2.5542	-2.775	-2.8646	-2.3521	-3.0917	87.329	102.320	181.341	234.826	-4.340	-12.354	111.498	204.028	53.654	76.872	220.014	257.416	140.146	-82.904	67.622	-78.893	7.8182e-05	7.2111e-05	5.3862e-05	696.31	2.5359e-06	1.0814e-05	568	199.8	2.38e-06	6.9702e-06	172.31	49.94	59.208	20.956	5.1624e-07	18.908	0.00035074	0.00037341	9.8928e-05	619.47	4.033e-06	3.8742e-06	508.79	178.71	3.9474e-06	4.2468e-06	155.28	45.621	54.395	18.989	4.1547e-06	17.379	158.805	58.364	135.770	-73.251	62.158	13.500	-74.353	-68.035	117.741	-16.167	-71.438	-66.886	-64.306	-58.693	-45.483	-62.042	-8191	255	
4372.198	1	1	0	0	0.1041	0.24217	0.30549	0.37366	0.12017	0.13548	0.12835	0.067098	0.40751	0.20734	0.12602	0.17902	0.161	0.13118	0.26305	0.1462	-2.3187	-2.3	-3.1104	-2.3875	-2.7354	-3.0167	-2.5146	-3.1083	-2.7771	-2.525	-3.1479	-2.3771	-2.825	-3.0604	-2.1479	-2.9062	-26.069	56.887	82.841	-20.846	1.398	135.831	102.697	157.914	-2.130	67.491	-7.642	-65.499	212.009	179.030	8.781	59.346	9.9821e-05	0.00052753	7.2963e-05	696.74	4.9091e-06	2.3356e-06	552.06	200.15	6.2797e-06	5.8179e-06	171.21	49.461	60.424	20.802	6.6738e-06	18.806	0.0003387	0.00038286	9.7149e-05	619.04	3.956e-06	3.8199e-06	499.61	178.97	3.9206e-06	4.2377e-06	153.98	45.466	54.992	18.894	4.0868e-06	17.215	167.437	63.956	99.037	-73.458	183.012	67.503	-74.543	-68.252	26.343	91.079	-70.840	-66.962	-64.058	-58.393	251.667	-61.978	-8191	255	
4372.294	1	1	0	0	0.098935	0.10162	0.14956	0.078573	0.23828	0.15918	0.078317	0.07872	0.132	0.04951	0.12268	0.13449	0.089484	0.13699	0.13872	0.18817	-2.4875	-2.425	-3.0083	-2.3354	-2.7458	-3.1708	-2.3146	-2.8917	-2.7667	-2.425	-3.1708	-2.5604	-2.5896	-3.1542	-2.3208	-3.0312	237.673	89.018	241.954	9.409	-17.083	31.566	-69.026	232.990	241.514	221.333	-55.745	106.503	-65.807	23.626	185.454	-28.462	3.9215e-05	0.00021356	0.0001493	691.58	1.9375e-06	9.4083e-06	560.06	199.28	7.2437e-06	5.048e-06	169.01	49.063	60.001	20.853	3.9629e-06	18.625	0.00034331	0.00038296	9.9969e-05	618.64	4.0983e-06	3.7852e-06	501.26	177.78	3.9208e-06	4.1622e-06	153.77	45.191	54.672	18.857	4.0562e-06	17.199	258.840	153.340	70.283	-74.166	25.023	28.818	-74.701	-68.274	72.996	65.358	-70.855	-67.280	-64.075	-58.822	-34.337	-62.635	-8191	255	
4372.390	1	1	0	0	0.14919	0.14893	0.039232	0.26984	0.079605	0.1426	0.14245	0.10203	0.23547	0.17075	0.12222	0.38193	0.16802	0.079483	0.12759	0.12886	-2.4188	-2.3187	-2.9729	-2.4896	-2.6708	-3.0438	-2.2917	-2.9271	-2.9313	-2.3083	-3.0438	-2.5083	-2.4292	-3.0625	-2.2854	-2.7125	61.637	-37.080	85.473	240.185	208.684	152.909	-37.852	272.520	27.168	197.775	-55.806	-62.157	227.865	123.110	166.405	219.532	5.9517e-05	0.0006859	0.00020828	688.87	1.3922e-06	6.5513e-06	557.82	200.14	2.2182e-06	1.0123e-05	169.88	48.365	58.986	20.704	6.7429e-06	18.576	0.00034144	0.00037998	9.8866e-05	616.05	4.1912e-06	3.8576e-06	500.52	178.11	3.8704e-06	4.2621e-06	154.55	44.945	54.388	18.894	3.9753e-06	17.341	211.062	-22.969	12.404	-73.204	106.797	71.703	-74.784	-68.239	-44.231	33.196	-70.667	-66.415	-64.149	-58.445	53.677	-62.151	-8191	255	
4372.486	1	1	0	0	0.27535	0.056973	0.13763	0.06746	0.29704	0.19967	0.058908	0.11991	0.13854	0.25928	0.45025	0.042359	0.31473	0.059532	0.10632	0.12986	-2.6937	-2.325	-3.1208	-2.7104	-2.575	-2.95	-2.5333	-2.8958	-2.9854	-2.4021	-3.0438	-2.6604	-2.2896	-3.0833	-2.3708	-2.7021	11.501	236.095	10.782	47.366	-54.106	-71.236	159.684	162.754	149.767	228.432	-31.456	-13.726	-70.769	211.558	-33.954	5.892	9.2765e-05	0.00043026	6.8785e-05	691.94	3.5418e-06	5.9211e-06	565.09	199.33	6.5026e-06	3.7679e-06	168.65	48.837	58.583	20.761	1.2519e-06	18.5	0.00033274	0.00037453	9.8941e-05	616.48	4.0611e-06	3.7701e-06	503.14	178.02	3.7796e-06	4.1583e-06	153.32	44.94	54.251	18.88	3.8656e-06	17.173	165.680	9.768	172.203	-73.369	-45.540	99.060	-74.619	-68.413	-5.490	41.286	-70.963	-67.526	-63.209	-58.666	-58.956	-62.926	-8191	255	
4372.605	1	1	0	0	0.16817	0.24161	0.23527	0.20959	0.092496	0.15953	0.22962	0.18399	0.19496	0.22271	0.11967	0.168	0.21649	0.21113	0.2576	0.16894	-2.7458	-2.0875	-2.8958	-2.7458	-2.2062	-3.0542	-2.7354	-2.3563	-3.1063	-2.3542	-2.8583	-2.925	-2.1958	-3.1813	-2.4604	-2.5812	159.847	220.486	56.077	-34.137	27.941	212.953	98.642	118.895	137.243	262.124	-67.480	227.622	-48.592	40.176	-84.987	-81.766	0.00013454	0.0005333	0.00014356	688.3	3.3781e-06	1.9282e-06	554.93	198.74	5.4684e-06	5.0242e-06	169.22	48.456	58.536	20.668	3.8837e-06	18.411	0.00032735	0.0003732	9.9807e-05	613.23	4.1232e-06	3.8096e-06	495.27	177.19	3.6928e-06	4.013e-06	152.97	44.469	53.948	18.717	3.8601e-06	17.036	187.759	17.590	-0.039	-73.778	217.561	123.934	-75.411	-68.471	0.024	-33.527	-70.780	-67.086	-63.675	-58.733	101.181	-61.829	-8191	255	
4372.677	1	1	0	0	0.12824	0.13156	0.17988	0.098741	0.069194	0.27585	0.19454	0.23914	0.31753	0.17429	0.24445	0.11435	0.23789	0.13979	0.30084	0.3669	-2.8208	-2.3271	-2.7854	-2.9021	-2.3625	-3.2562	-2.6021	-2.55	-3.1083	-2.4771	-2.8229	-3.0479	-2.2438	-2.9979	-2.7333	-2.4417	6.071	235.846	147.187	-33.302	100.390	-59.245	125.910	-35.119	47.869	118.426	216.880	126.000	156.576	-66.081	-5.953	250.109	0.00010261	8.2774e-05	7.0611e-05	692.59	2.7188e-06	6.9531e-06	555.83	198.02	4.1134e-06	7.4606e-06	169.68	48.046	57.712	20.627	5.3729e-06	18.398	0.00032912	0.00036698	0.00010229	613.55	4.1671e-06	3.8628e-06	496.2	176.92	3.751e-06	3.9781e-06	152.62	44.599	53.212	18.765	3.7476e-06	17.019	79.468	166.535	-29.308	-73.824	158.608	-73.731	-75.001	-67.886	251.427	177.464	-70.250	-66.641	-64.483	-58.126	-47.889	-61.755	-8191	255	
4372.773	1	1	0	0	0.04076	0.15605	0.13807	0.2686	0.072399	0.06891	0.14918	0.1636	0.10037	0.155	0.060094	0.2197	0.15598	0.23646	0.25451	0.062115	-2.7417	-2.3771	-2.6104	-3.1646	-2.2771	-2.9667	-2.9188	-2.4354	-3.1083	-2.45	-2.6542	-2.9208	-2.3708	-2.9292	-2.7646	-2.3208	137.794	78.432	51.313	-57.454	77.885	71.716	156.152	191.756	152.709	114.994	103.245	-65.989	68.320	231.919	219.298	89.984	6.0651e-05	0.00056503	0.00019826	681.81	2.4589e-06	5.0154e-07	561.42	197.17	2.3456e-06	5.2711e-06	168.76	48.543	59.271	20.851	5.7274e-06	18.78	0.00033105	0.00034878	0.00010369	611.59	4.1768e-06	3.9442e-06	498.41	176.72	3.8776e-06	4.0443e-06	153.64	44.85	54.296	18.9	3.9177e-06	17.328	2.603	-24.011	259.973	-73.843	53.597	85.246	-74.973	-68.453	87.869	-84.016	-70.810	-66.717	-64.474	-58.283	156.164	-61.437	-8191	255	
4372.893	1	1	0	0	0.24016	0.13236	0.25066	0.12021	0.10633	0.21451	0.18029	0.2064	0.27853	0.33233	0.18318	0.30886	0.02868	0.16934	0.28081	0.084771	-2.6437	-2.5042	-2.4208	-3.0208	-2.3917	-3.0958	-2.8083	-2.4521	-3.0083	-2.6125	-2.4646	-3.0229	-2.2812	-2.9042	-2.9104	-2.3667	83.047	23.792	-55.668	190.393	267.450	-54.191	23.140	155.410	-17.417	-73.600	253.308	189.678	243.890	253.843	191.947	43.328	0.00012212	0.0007823	0.00012688	680.53	1.0771e-06	8.483e-06	556.2	197.35	9.2875e-06	3.4565e-06	170.23	48.927	58.826	20.646	2.2219e-06	18.577	0.00033461	0.00036086	0.0001058	609.84	4.1111e-06	4.0295e-06	498.73	177.16	3.9502e-06	3.8903e-06	154.42	44.884	54.192	18.823	3.8561e-06	17.195	195.012	66.233	-45.857	-73.177	-64.981	-7.068	-74.568	-68.407	13.250	55.458	-70.527	-66.989	-63.954	-58.185	59.099	-62.414	-8191	255	
4372.990	1	1	0	0	0.15723	0.24299	0.40511	0.1937	0.13186	0.17771	0.11473	0.10504	0.18834	0.34854	0.17948	0.12468	0.26734	0.22443	0.22668	0.086465	-2.5187	-2.4562	-2.3646	-2.9917	-2.2542	-2.6667	-3.0167	-2.3187	-2.8833	-2.6792	-2.5208	-2.8688	-2.3979	-2.7917	-2.8583	-2.3354	143.720	-50.754	132.853	193.257	-37.642	140.331	-56.936	227.638	-9.279	22.987	190.932	-37.353	242.950	214.299	6.671	109.372	6.8408e-05	0.00028547	0.00011087	678.81	2.5195e-06	3.392e-06	552.68	197.24	2.4633e-06	3.8419e-06	167.92	47.858	58.933	20.702	1.0594e-05	18.504	0.00034772	0.00035527	0.00010627	610.18	3.9797e-06	4.0238e-06	493.2	176.26	3.8812e-06	3.8018e-06	152.79	44.4	54.089	18.774	3.8075e-06	16.973	183.049	57.792	-5.835	-73.617	-56.988	45.098	-74.529	-68.081	-79.918	112.880	-70.515	-67.305	-63.695	-58.275	27.435	-61.783	-8191	255	
4373.086	1	1	0	0	0.064578	0.11279	0.13145	0.063948	0.25516	0.16978	0.074425	0.1577	0.071357	0.0575	0.13895	0.18776	0.39049	0.17273	0.16265	0.055798	-2.4479	-2.7875	-2.3375	-3.1375	-2.5333	-2.5354	-3.0958	-2.3625	-2.8	-2.8063	-2.4854	-3.1708	-2.4729	-2.6417	-3.0542	-2.4417	94.149	243.046	98.180	-0.660	30.984	-19.834	175.808	243.420	-56.495	246.524	250.915	38.427	240.941	217.762	133.666	63.825	0.00013596	0.00030905	0.00011348	693.8	7.2789e-06	2.8716e-06	557.17	198.09	2.4547e-06	6.3475e-06	166.87	48.869	58.888	20.823	4.2821e-06	18.262	0.00034518	0.00034707	0.00010552	615.9	3.9847e-06	4.1325e-06	496.02	176.49	3.9394e-06	3.8456e-06	152.42	44.658	53.896	18.876	3.8732e-06	17.063	172.918	16.324	69.708	-73.672	70.245	-69.758	-75.011	-68.454	260.586	179.937	-70.604	-66.817	-63.815	-58.283	166.295	-62.586	-8191	255	
4373.206	1	1	0	0	0.087019	0.014024	0.0088959	0.10205	0.1154	0.24407	0.21898	0.21116	0.13272	0.13142	0.13444	0.098848	0.17018	0.22261	0.12715	0.034467	-2.4979	-2.5792	-2.2292	-3.0812	-2.3937	-2.4938	-3.2292	-2.2938	-2.8354	-2.8271	-2.35	-3.1479	-2.6667	-2.4896	-3.1771	-2.4021	35.615	36.712	164.240	189.798	177.106	190.877	217.367	181.579	161.317	9.664	25.768	192.084	152.513	270.856	220.469	167.939	8.4413e-05	0.00044632	0.00017299	687.84	1.5258e-06	2.9249e-06	558.73	198.24	6.1945e-06	1.8411e-06	171.66	48.961	58.511	21.298	3.4652e-06	18.963	0.00035914	0.00034452	0.00010567	616.64	3.9278e-06	4.2093e-06	500.94	177.45	4.0924e-06	3.9011e-06	154.84	45.403	53.996	19.177	3.9039e-06	17.483	256.171	5.303	12.812	-73.372	170.516	104.215	-74.399	-68.009	68.476	37.891	-70.597	-66.842	-64.415	-58.097	210.564	-61.974	-8191	255	
4373.303	1	1	0	0	0.1945	0.13979	0.30958	0.12916	0.20351	0.1283	0.33406	0.19922	0.0084746	0.24558	0.21058	0.24235	0.022592	0.041716	0.1126	0.10942	-2.5104	-2.8875	-2.1625	-2.9375	-2.5125	-2.6271	-3.1188	-2.5125	-2.6458	-3.0438	-2.2375	-2.8563	-2.7375	-2.2958	-3.0104	-2.3812	-14.044	-28.776	175.015	147.492	246.280	-8.301	185.069	267.942	-52.685	-22.567	142.261	56.880	266.355	161.383	-84.947	50.532	0.00015547	0.00063749	0.00028501	695.63	1.5082e-06	3.3298e-06	567.96	200.09	1.313e-05	1.8664e-06	173.15	50.341	59.745	21.244	5.8796e-06	18.935	0.00036275	0.0003577	0.00010737	620.43	3.8482e-06	4.2181e-06	504.88	178.8	4.1824e-06	3.8881e-06	156.08	45.979	54.618	19.288	3.8808e-06	17.369	118.250	50.274	-18.055	-73.629	158.501	141.879	-74.949	-68.340	-2.235	158.490	-71.213	-66.396	-63.929	-58.687	156.849	-61.761	-8191	255	
#DATA ENDS
