BOXY.EXE: ISS Imagent and Oximeter Data Acquisition Program Version 0.80
Ascii Record File

#ACQ INFORMATION
2  Detector Channels 
16  External MUX Channels 
1  Auxiliary Channels 
5000  Waveform (CCF) Frequency (Hz)
1  Waveforms Skipped 
30  Waveforms Averaged 
1  Cycles Averaged 
16  Acquisitions per Waveform 
10.0806  Updata Rate (Hz) 

#FILE INFORMATION
TRUE -- External MUX Channel results are PARSED.
FALSE -- AC DC and Phase are NOT grouped.
TRUE -- Companion Program Settings File CREATED.
FALSE -- AC data not excluded
FALSE -- DC data not excluded
FALSE -- Phase data not excluded
FALSE -- Auxillary Chn. data not excluded
Tab delimiters

#CALIBRATION STATE
TRUE -- Waveform Calibration Values APPLIED.


#AUX CALIBRATION VALUES
Val Type	aux-1	

Term	1.0000e+00	
Factor	0.0000e+00	


#WF CALIBRATION VALUES
A = Detector Channel
Val Type	A-AC1	A-AC2	A-AC3	A-AC4	A-AC5	A-AC6	A-AC7	A-AC8	A-AC9	A-AC10	A-AC11	A-AC12	A-AC13	A-AC14	A-AC15	A-AC16	A-DC1	A-DC2	A-DC3	A-DC4	A-DC5	A-DC6	A-DC7	A-DC8	A-DC9	A-DC10	A-DC11	A-DC12	A-DC13	A-DC14	A-DC15	A-DC16	A-Ph1	A-Ph2	A-Ph3	A-Ph4	A-Ph5	A-Ph6	A-Ph7	A-Ph8	A-Ph9	A-Ph10	A-Ph11	A-Ph12	A-Ph13	A-Ph14	A-Ph15	A-Ph16	

Term	0.00000e+00	0.00000e+00	0.00000e+00	0.00000e+00	0.00000e+00	0.00000e+00	0.00000e+00	0.00000e+00	0.00000e+00	0.00000e+00	0.00000e+00	0.00000e+00	0.00000e+00	0.00000e+00	0.00000e+00	0.00000e+00	0.00000e+00	0.00000e+00	0.00000e+00	0.00000e+00	0.00000e+00	0.00000e+00	0.00000e+00	0.00000e+00	0.00000e+00	0.00000e+00	0.00000e+00	0.00000e+00	0.00000e+00	0.00000e+00	0.00000e+00	0.00000e+00	0.00000e+00	0.00000e+00	0.00000e+00	0.00000e+00	0.00000e+00	0.00000e+00	0.00000e+00	0.00000e+00	0.00000e+00	0.00000e+00	0.00000e+00	0.00000e+00	0.00000e+00	0.00000e+00	0.00000e+00	0.00000e+00	
Factor	1.00000e+00	1.00000e+00	1.00000e+00	1.00000e+00	1.00000e+00	1.00000e+00	1.00000e+00	1.00000e+00	1.00000e+00	1.00000e+00	1.00000e+00	1.00000e+00	1.00000e+00	1.00000e+00	1.00000e+00	1.00000e+00	1.00000e+00	1.00000e+00	1.00000e+00	1.00000e+00	1.00000e+00	1.00000e+00	1.00000e+00	1.00000e+00	1.00000e+00	1.00000e+00	1.00000e+00	1.00000e+00	1.00000e+00	1.00000e+00	1.00000e+00	1.00000e+00	X	X	X	X	X	X	X	X	X	X	X	X	X	X	X	X	

B = Detector Channel
Val Type	B-AC1	B-AC2	B-AC3	B-AC4	B-AC5	B-AC6	B-AC7	B-AC8	B-AC9	B-AC10	B-AC11	B-AC12	B-AC13	B-AC14	B-AC15	B-AC16	B-DC1	B-DC2	B-DC3	B-DC4	B-DC5	B-DC6	B-DC7	B-DC8	B-DC9	B-DC10	B-DC11	B-DC12	B-DC13	B-DC14	B-DC15	B-DC16	B-Ph1	B-Ph2	B-Ph3	B-Ph4	B-Ph5	B-Ph6	B-Ph7	B-Ph8	B-Ph9	B-Ph10	B-Ph11	B-Ph12	B-Ph13	B-Ph14	B-Ph15	B-Ph16	

Term	0.00000e+00	0.00000e+00	0.00000e+00	0.00000e+00	0.00000e+00	0.00000e+00	0.00000e+00	0.00000e+00	0.00000e+00	0.00000e+00	0.00000e+00	0.00000e+00	0.00000e+00	0.00000e+00	0.00000e+00	0.00000e+00	0.00000e+00	0.00000e+00	0.00000e+00	0.00000e+00	0.00000e+00	0.00000e+00	0.00000e+00	0.00000e+00	0.00000e+00	0.00000e+00	0.00000e+00	0.00000e+00	0.00000e+00	0.00000e+00	0.00000e+00	0.00000e+00	-1.55621e+02	-1.24518e+02	-1.31563e+02	-1.86928e+02	-8.61065e+01	-8.09538e+01	-1.58580e+02	-1.62015e+02	-9.05556e+01	-5.18402e+01	-1.71958e+02	-1.71373e+02	-1.84090e+02	-1.77418e+02	-5.60760e+01	-1.49892e+02	
Factor	2.32733e-05	1.42972e-04	3.50683e-05	3.05204e-01	1.19204e-06	1.37942e-06	1.67467e-01	5.21981e-02	1.31927e-06	1.23116e-06	8.50871e-02	2.82555e-02	4.13559e-02	9.14115e-03	1.20639e-06	1.30226e-02	1.85266e-06	1.96068e-06	5.46078e-07	1.54168e-01	2.14539e-08	2.15340e-08	8.10941e-02	2.69203e-02	2.14088e-08	2.15808e-08	4.22580e-02	1.40733e-02	2.10731e-02	4.71898e-03	2.14232e-08	6.49031e-03	X	X	X	X	X	X	X	X	X	X	X	X	X	X	X	X	



#DISTANCE SETTINGS
A = Detector Channel
A-1	A-2	A-3	A-4	A-5	A-6	A-7	A-8	A-9	A-10	A-11	A-12	A-13	A-14	A-15	A-16	

2.5000e+00	3.0000e+00	2.5000e+00	3.0000e+00	2.0000e+00	3.0000e+00	1.5000e+00	3.0000e+00	3.0000e+00	3.0000e+00	3.0000e+00	3.0000e+00	3.0000e+00	3.0000e+00	1.5000e+00	3.0000e+00	

B = Detector Channel
B-1	B-2	B-3	B-4	B-5	B-6	B-7	B-8	B-9	B-10	B-11	B-12	B-13	B-14	B-15	B-16	

1.0000e+01	1.0000e+01	1.0000e+01	1.4400e+00	1.0000e+01	1.0000e+01	1.5100e+00	1.9400e+00	1.0000e+01	1.0000e+01	1.9900e+00	2.4900e+00	2.4100e+00	2.9000e+00	1.0000e+01	2.9800e+00	




#DATA BEGINS
time	group	step	mark	flag	A-AC1	A-AC2	A-AC3	A-AC4	A-AC5	A-AC6	A-AC7	A-AC8	A-AC9	A-AC10	A-AC11	A-AC12	A-AC13	A-AC14	A-AC15	A-AC16	A-DC1	A-DC2	A-DC3	A-DC4	A-DC5	A-DC6	A-DC7	A-DC8	A-DC9	A-DC10	A-DC11	A-DC12	A-DC13	A-DC14	A-DC15	A-DC16	A-Ph1	A-Ph2	A-Ph3	A-Ph4	A-Ph5	A-Ph6	A-Ph7	A-Ph8	A-Ph9	A-Ph10	A-Ph11	A-Ph12	A-Ph13	A-Ph14	A-Ph15	A-Ph16	B-AC1	B-AC2	B-AC3	B-AC4	B-AC5	B-AC6	B-AC7	B-AC8	B-AC9	B-AC10	B-AC11	B-AC12	B-AC13	B-AC14	B-AC15	B-AC16	B-DC1	B-DC2	B-DC3	B-DC4	B-DC5	B-DC6	B-DC7	B-DC8	B-DC9	B-DC10	B-DC11	B-DC12	B-DC13	B-DC14	B-DC15	B-DC16	B-Ph1	B-Ph2	B-Ph3	B-Ph4	B-Ph5	B-Ph6	B-Ph7	B-Ph8	B-Ph9	B-Ph10	B-Ph11	B-Ph12	B-Ph13	B-Ph14	B-Ph15	B-Ph16	aux-1	digaux	

4449.800	1	1	0	512	0.18437	0.088305	0.11884	0.086941	0.1573	0.14952	0.2732	0.37649	0.14053	0.066779	0.039486	0.39591	0.058	0.3861	0.19138	0.24706	-2.6271	-2.6208	-2.4062	-3.1646	-2.4375	-2.7083	-3.0375	-2.3021	-2.9	-2.8312	-2.4771	-3.225	-2.5208	-2.7875	-3.1542	-2.7604	-103.581	12.735	47.404	-23.995	115.081	129.828	84.604	181.345	65.807	-116.566	200.750	-136.224	-81.643	-126.306	-134.612	147.279	0.00047953	0.00080523	0.00043145	1171.1	1.4078e-05	1.0591e-05	729.3	473.91	1.5332e-05	1.4386e-05	300.65	117.04	185.82	72.869	8.5483e-06	50.243	0.0038697	0.0040913	0.0011543	1453.3	4.5088e-05	4.5906e-05	883.84	520.46	4.4911e-05	4.4904e-05	379.9	142.87	221.91	81.073	4.334e-05	62.308	172.227	-128.986	-32.932	-129.441	-127.305	115.840	-131.158	-125.773	-38.007	-78.823	-128.554	-126.032	-122.999	-118.957	47.179	-122.228	-8191	255	
4449.896	1	1	0	0	0.13416	0.097354	0.027285	0.23548	0.049867	0.11991	0.29337	0.13705	0.074393	0.17163	0.19679	0.27496	0.086183	0.13705	0.088833	0.30268	-2.6625	-2.8271	-2.3667	-3.1896	-2.6292	-2.5729	-3.2104	-2.6604	-2.8625	-2.8604	-2.3833	-3.075	-2.4979	-2.8375	-3.2292	-2.5563	-37.230	194.064	-64.091	-94.159	-137.356	124.207	129.861	129.193	88.772	105.817	-106.163	-109.539	42.416	-97.494	114.338	116.312	0.00045665	0.0012102	0.0002526	1170.2	1.2458e-05	1.0227e-05	723.13	471.37	9.9414e-06	2.0216e-06	298.75	117.52	185.37	72.837	1.4337e-06	50.225	0.0037922	0.0039796	0.0011174	1436	4.2728e-05	4.3028e-05	867.41	513.37	4.1051e-05	4.0896e-05	370.8	140.07	217.39	80.009	3.8947e-05	60.899	201.814	-68.067	-61.762	-129.819	-51.137	-120.802	-131.003	-125.991	-53.380	163.359	-128.746	-126.297	-123.087	-118.814	-115.796	-122.235	-8191	255	
4449.992	1	1	0	0	0.1026	0.22041	0.24265	0.14548	0.183	0.39119	0.14539	0.12212	0.089013	0.14643	0.16086	0.15381	0.203	0.1956	0.20266	0.064797	-2.5062	-2.8625	-2.3958	-3.1333	-2.55	-2.7271	-3.1917	-2.6396	-2.6979	-2.9375	-2.6271	-3.0458	-2.8438	-2.5708	-3.0417	-2.5604	99.451	29.808	148.002	2.912	-84.527	-82.605	136.694	169.736	130.666	-72.732	0.866	142.948	141.783	-119.641	-118.383	97.403	0.00061122	0.0011086	0.00024971	1175.8	5.8794e-06	2.1969e-05	726.39	473.11	1.1596e-05	1.1656e-05	302.58	117.73	186.72	73.238	9.4767e-06	50.961	0.003446	0.0036468	0.0010279	1415.7	3.9981e-05	4.0783e-05	864.11	513.13	4.0054e-05	4.0217e-05	373.43	141.28	219.22	80.738	4.0523e-05	61.925	173.913	-38.227	-72.325	-129.360	172.978	138.995	-130.915	-125.792	186.775	-38.849	-128.371	-125.965	-123.074	-118.695	215.606	-121.923	-8191	255	
4450.088	1	1	0	0	0.13032	0.16499	0.21787	0.28314	0.24275	0.11276	0.23234	0.21755	0.25802	0.17567	0.31662	0.20855	0.11986	0.17646	0.17466	0.1778	-2.4	-3.1854	-2.1792	-3.0646	-2.9313	-2.6188	-3.2417	-2.8563	-2.8812	-3.1792	-2.4104	-2.9792	-3.075	-2.5646	-3.1813	-2.5625	82.779	-80.498	144.704	147.730	169.715	104.144	97.569	154.178	17.899	55.027	162.266	195.982	127.969	-115.517	60.071	114.386	0.0001382	0.0010488	0.00060811	1180.8	7.9584e-06	1.2737e-05	731.63	473.51	9.8749e-06	8.1745e-06	304.29	118.98	188.21	73.617	1.0972e-05	51.224	0.0035686	0.0037027	0.0010414	1425.8	4.0907e-05	4.1751e-05	872.41	516.89	4.1912e-05	4.2335e-05	380.27	144.32	222.93	82.037	4.3767e-05	63.358	124.824	-134.201	-6.083	-129.355	-41.683	25.553	-131.197	-126.026	178.869	52.189	-128.343	-125.898	-123.356	-118.808	51.378	-122.365	-8191	255	
4450.184	1	1	0	0	0.047983	0.11882	0.35107	0.32039	0.13892	0.086914	0.13759	0.16205	0.15638	0.19285	0.13539	0.16938	0.10666	0.25102	0.073666	0.14271	-2.3438	-3.0708	-2.3917	-3.0708	-2.8896	-2.4104	-3.1542	-2.7833	-2.6896	-3.2771	-2.4437	-2.8771	-2.9833	-2.5479	-2.9188	-2.7208	-80.115	103.088	68.682	158.414	191.781	83.058	10.351	85.322	124.162	154.664	89.635	-134.402	190.032	162.690	-115.764	-139.637	0.00040497	0.00084681	0.00033045	1179.4	4.0664e-06	6.0435e-06	736.02	473.27	8.9897e-06	1.2483e-05	305.59	119	188.01	73.619	8.597e-06	50.916	0.0039082	0.0040696	0.0011443	1457.5	4.449e-05	4.4831e-05	886.3	521.91	4.5715e-05	4.5834e-05	385.51	146.06	225.3	82.388	4.5593e-05	63.51	166.179	72.229	-58.022	-129.383	50.842	-64.242	-130.904	-125.811	-89.725	24.869	-128.306	-125.958	-123.289	-118.760	-96.233	-122.468	-8191	255	
4450.280	1	1	0	0	0.049136	0.10506	0.061009	0.14108	0.086718	0.10587	0.10617	0.1111	0.25926	0.050254	0.07279	0.15188	0.088392	0.11375	0.024571	0.077414	-2.0021	-3.0792	-2.3917	-2.8125	-3.0042	-2.5208	-3.2687	-2.8854	-2.5229	-3.1625	-2.4792	-2.6437	-3.0563	-2.4208	-2.9167	-2.9917	-76.858	13.343	156.091	93.154	37.352	70.378	192.657	131.691	151.562	-128.804	-64.450	76.669	72.981	33.363	-129.427	-89.394	0.00047345	0.00079973	0.00027605	1175.7	2.6858e-05	9.4159e-06	729.24	474.54	3.7319e-06	5.4766e-06	302.9	118.85	187.68	73.249	1.0247e-05	50.994	0.0039913	0.0041289	0.0011517	1455.7	4.437e-05	4.4827e-05	881.88	519.96	4.4215e-05	4.3685e-05	379.1	144.07	221.88	81.312	4.267e-05	62.515	186.104	-62.915	-4.868	-129.924	-94.165	-57.923	-131.064	-125.935	-53.828	108.006	-128.388	-126.014	-123.304	-118.903	169.335	-122.492	-8191	255	
4450.401	1	1	0	0	0.13366	0.019887	0.062771	0.023254	0.12754	0.077608	0.37403	0.04763	0.075675	0.16922	0.076595	0.17324	0.27772	0.42455	0.090263	0.24907	-2.0979	-3.1542	-2.4708	-2.7479	-3.0563	-2.3042	-3.0375	-3.0729	-2.6063	-3.2104	-2.5896	-2.8667	-3.3646	-2.6562	-2.8771	-3.1021	63.595	-136.719	-36.409	-79.265	-35.905	173.201	157.806	135.956	96.442	75.205	211.708	-135.501	-103.755	180.386	13.238	117.829	0.00046525	0.0005358	0.00015305	1179.9	1.0985e-05	1.7515e-05	736.04	475.29	1.6596e-05	4.1584e-06	303.44	119.38	188.97	74.48	1.9407e-05	51.531	0.0037841	0.0039524	0.0011056	1447.3	4.3233e-05	4.3447e-05	881.43	519.51	4.3499e-05	4.3662e-05	380.57	145.38	224.71	82.387	4.3987e-05	63.516	173.476	49.528	10.715	-129.298	151.736	-23.935	-130.804	-125.962	-119.525	194.321	-128.490	-126.392	-123.215	-118.707	25.944	-122.359	-8191	255	
4450.497	1	1	0	0	0.22293	0.08384	0.31775	0.20581	0.075757	0.14694	0.046907	0.25142	0.20196	0.1273	0.29665	0.38657	0.15404	0.14916	0.12246	0.057849	-2.1417	-3.1146	-2.6813	-2.5854	-3.1958	-2.3187	-3.0687	-3.0896	-2.4188	-3.1333	-2.8542	-2.6833	-3.3875	-2.5708	-2.775	-3.0646	144.187	-2.812	167.726	-129.832	-67.981	-102.729	37.728	197.814	-30.518	13.189	-134.860	162.860	-136.402	195.402	-66.936	123.669	0.00050835	0.00030277	0.00018319	1185	6.4628e-06	1.015e-05	735.32	475.81	5.9571e-06	7.6808e-06	307.3	119.95	190.48	74.629	1.2327e-05	52.022	0.0038229	0.0039695	0.0010965	1450.2	4.2846e-05	4.2906e-05	882.56	520.79	4.29e-05	4.2943e-05	381.63	145.59	224.16	82.339	4.2307e-05	63.166	160.794	46.006	-6.285	-129.545	3.575	65.378	-130.997	-125.862	204.457	-77.871	-128.304	-125.961	-122.858	-118.803	33.683	-122.319	-8191	255	
4450.592	1	1	0	0	0.10949	0.099232	0.25264	0.1868	0.10006	0.36771	0.31457	0.072726	0.051478	0.10484	0.15571	0.21714	0.21651	0.15242	0.19025	0.17441	-2.0917	-3.0604	-2.6979	-2.4625	-2.9167	-2.5417	-2.8521	-3.3104	-2.3354	-2.8896	-2.8438	-2.3375	-3.3375	-2.525	-2.5625	-3.2938	-23.672	115.600	-128.314	-72.194	169.326	-57.179	215.444	113.929	-105.163	-41.999	-141.091	141.556	203.610	178.432	178.685	107.453	0.00049921	0.00074057	0.00011742	1183.4	9.0856e-06	1.15e-05	739.82	476.4	7.7261e-06	1.3403e-05	304.65	119.45	189.11	73.981	1.5638e-05	50.832	0.003654	0.0038294	0.0010636	1444.5	4.1829e-05	4.2172e-05	882.02	520.05	4.1416e-05	4.1669e-05	376.95	143.33	221.46	81.227	4.0398e-05	61.926	169.050	102.049	-7.466	-129.377	141.723	45.137	-130.786	-125.794	-67.284	26.351	-128.571	-125.876	-123.374	-118.849	56.845	-122.145	-8191	255	
4450.712	1	1	0	0	0.44356	0.20822	0.1551	0.089462	0.12353	0.10876	0.31714	0.11292	0.06559	0.15553	0.43319	0.23005	0.1291	0.30481	0.31801	0.13239	-1.9792	-2.9708	-2.8417	-2.2854	-3.0604	-2.5625	-2.5604	-3.2625	-2.3688	-2.9375	-3.0833	-2.4917	-3.2042	-2.7271	-2.3729	-3.3208	-104.768	41.691	21.660	164.570	-40.648	114.362	114.665	-120.706	-118.461	-8.409	140.308	164.267	154.744	68.476	53.109	93.718	0.00053001	0.0017127	0.00048655	1179.1	1.1948e-05	1.5203e-05	730.51	478.02	1.8584e-05	6.5806e-06	306.51	119.39	190.35	73.933	5.9354e-06	51.394	0.0034942	0.0036617	0.001016	1428.2	4.0478e-05	4.1095e-05	874.77	519.76	4.1254e-05	4.164e-05	377.51	143.72	222.53	81.466	4.1664e-05	62.679	176.098	202.204	130.079	-129.612	210.490	81.730	-131.005	-125.881	-94.360	27.151	-128.509	-126.480	-123.200	-118.649	51.201	-122.557	-8191	255	
4450.784	1	1	0	0	0.42649	0.097423	0.091366	0.072315	0.29934	0.065572	0.37163	0.21321	0.31126	0.073605	0.3688	0.14743	0.13249	0.057	0.3454	0.12942	-1.9354	-2.7896	-2.9042	-2.2375	-2.95	-2.5854	-2.6042	-3.2854	-2.3979	-2.7292	-3.0021	-2.5312	-3.0854	-3.1021	-2.3229	-3.0521	60.199	10.209	69.909	148.738	-104.673	-104.570	139.933	126.349	123.413	-93.522	135.757	-137.615	80.847	150.195	91.553	146.718	0.00035734	0.0016211	0.00014559	1182.9	5.0438e-06	1.0582e-05	733.17	478.34	8.9694e-06	1.2511e-05	307.29	120.37	190.14	74.217	1.05e-05	52.078	0.003692	0.003932	0.0010916	1447.9	4.3781e-05	4.3638e-05	884.95	523.12	4.3533e-05	4.4258e-05	382.77	146.13	225.6	82.445	4.39e-05	63.795	172.448	6.538	41.920	-129.417	17.426	113.759	-130.891	-125.618	174.019	50.882	-128.680	-126.000	-123.094	-118.578	34.733	-122.146	-8191	255	
4450.880	1	1	0	0	0.31695	0.012672	0.10733	0.16167	0.18044	0.041036	0.081514	0.23224	0.25588	0.15444	0.18043	0.12848	0.15252	0.37178	0.032282	0.31167	-2.0333	-2.5938	-2.9625	-2.3396	-2.8896	-2.7438	-2.4083	-3.4104	-2.5312	-2.6792	-3.0646	-2.4917	-2.8708	-3.1708	-2.4083	-3.1729	136.539	185.970	117.609	165.553	-102.113	-17.261	-116.777	177.666	-75.178	212.163	89.099	126.632	-48.063	149.465	14.809	100.945	0.00085341	0.00047627	0.00031745	1187.7	1.153e-05	7.1085e-06	736.92	478.83	2.731e-06	1.6041e-05	308.75	119.88	191.2	74.421	7.8307e-06	51.716	0.0037905	0.0039953	0.0011073	1454.9	4.366e-05	4.3862e-05	890.69	523.99	4.3709e-05	4.4589e-05	385.27	146.49	226.69	82.76	4.4718e-05	63.973	185.753	-126.445	-32.903	-129.374	-37.544	-75.387	-130.961	-125.857	126.312	-128.054	-128.471	-125.997	-122.593	-119.024	24.185	-121.904	-8191	255	
4450.976	1	1	0	0	0.15522	0.11506	0.32467	0.29803	0.19516	0.17817	0.062573	0.12549	0.039911	0.074951	0.17465	0.2234	0.16952	0.15476	0.15243	0.044378	-2.1625	-2.4917	-3.0479	-2.3625	-2.8563	-2.9229	-2.4437	-3.2354	-2.7167	-2.5125	-3.1958	-2.4562	-2.9167	-3.1125	-2.2687	-3.0229	24.150	24.248	205.051	146.721	-66.069	50.228	-143.055	168.409	-124.802	-119.545	121.300	195.245	140.512	207.416	64.387	-16.107	0.00043747	0.00087749	0.00044531	1183.8	9.1406e-06	9.7358e-06	735.72	476.77	1.0272e-05	7.9891e-06	305.12	119.83	189.97	74.023	1.7909e-06	51.262	0.0038319	0.0040387	0.0010983	1447.4	4.2481e-05	4.2126e-05	879.34	520.54	4.1372e-05	4.2272e-05	378.87	144.22	223.73	81.853	4.2899e-05	62.979	175.351	-26.710	-52.699	-129.429	85.201	-38.583	-131.173	-125.705	24.599	65.679	-128.330	-125.710	-123.153	-118.919	-137.229	-121.908	-8191	255	
4451.097	1	1	0	0	0.27512	0.14636	0.10509	0.13532	0.20391	0.21399	0.23508	0.42114	0.053199	0.048448	0.17077	0.31071	0.18972	0.21776	0.16821	0.14479	-2.3292	-2.4292	-3.1729	-2.5792	-2.6896	-3.0708	-2.3854	-3.2	-2.8646	-2.2917	-3.2167	-2.5333	-2.8625	-3.2042	-1.9875	-2.9333	-15.914	111.508	-115.122	109.309	-25.105	-132.416	42.932	186.052	-79.257	-21.142	5.433	159.903	151.491	160.230	-105.296	-45.081	0.00041627	0.0010293	0.00058193	1182	4.7689e-06	6.5029e-06	730.49	476.82	2.479e-06	4.0713e-06	304.39	118.79	190.25	73.933	1.4723e-06	51.287	0.0037324	0.0039717	0.0010915	1441.2	4.2858e-05	4.2545e-05	877.84	520.89	4.2403e-05	4.3544e-05	379.76	144.11	223.96	81.678	4.161e-05	62.496	191.483	-108.155	-5.125	-129.265	98.625	19.694	-131.132	-125.842	-127.272	-9.559	-128.308	-125.638	-123.066	-118.822	26.041	-121.925	-8191	255	
4451.193	1	1	0	0	0.1213	0.11188	0.19933	0.12796	0.079708	0.2255	0.19846	0.19413	0.10656	0.084595	0.16288	0.30066	0.11787	0.43283	0.07333	0.28968	-2.4979	-2.2729	-3.0625	-2.5146	-2.5167	-2.8271	-2.4188	-3.3604	-2.8667	-2.4146	-3.3917	-2.6792	-2.5438	-3.3417	-2.2646	-2.8979	186.882	142.593	-117.780	14.787	38.508	-58.293	76.507	134.529	-53.354	-1.137	-136.397	154.280	-100.609	200.144	-23.327	134.808	0.00042833	0.00099991	0.00027527	1179.8	3.5254e-06	1.5694e-05	731.77	475.97	9.6964e-06	5.4525e-06	304.89	119.32	188.58	73.903	4.0826e-06	51.614	0.0035306	0.0036892	0.00099961	1410.8	3.8771e-05	3.7993e-05	859.99	513.18	3.699e-05	3.7606e-05	368.46	140.27	217.8	80.435	3.6712e-05	61.393	179.636	22.778	-61.318	-129.316	44.087	192.078	-130.751	-125.371	-130.016	29.136	-128.120	-125.406	-122.882	-118.450	-29.605	-122.107	-8191	255	
4451.289	1	1	0	0	0.096211	0.07891	0.16851	0.18418	0.055224	0.12409	0.13326	0.029215	0.14353	0.14272	0.14522	0.22886	0.14976	0.087425	0.20459	0.19488	-2.6167	-2.4271	-3.0062	-2.7396	-2.3958	-3.2562	-2.7146	-3.1188	-2.9667	-2.5	-3.1271	-2.8	-2.6375	-3.3021	-2.3521	-2.8708	-143.238	161.729	-127.728	-116.693	40.621	12.778	-133.247	201.513	134.847	181.445	90.063	164.179	-67.167	49.978	-11.933	213.946	0.00047168	0.00085156	0.00029071	1178.1	1.9786e-06	7.9767e-06	739.16	476.3	3.3967e-06	6.3828e-06	308.08	119.6	190.77	74.333	1.102e-05	51.94	0.0031772	0.0033755	0.00093044	1396.7	3.6745e-05	3.6381e-05	858.43	513.39	3.6199e-05	3.7032e-05	369.37	140.76	218.36	80.66	3.6748e-05	61.671	195.879	-35.555	206.728	-129.206	156.004	126.456	-130.662	-125.300	86.876	2.857	-128.424	-125.433	-122.550	-118.355	-9.742	-121.385	-8191	255	
4451.361	1	1	0	0	0.25204	0.019724	0.27545	0.093412	0.20489	0.12463	0.2029	0.37657	0.1684	0.12924	0.18505	0.20101	0.064185	0.33974	0.21266	0.16794	-2.6521	-2.3042	-3.0438	-2.9313	-2.5292	-3.325	-2.5771	-2.9688	-3.2625	-2.4771	-3.0542	-3.0021	-2.5312	-3.4771	-2.6146	-2.8312	-126.936	-115.405	-113.936	-54.818	-53.475	141.642	118.900	206.068	72.453	66.260	31.413	-133.504	119.914	-135.629	-133.064	175.027	0.00059225	0.0017996	0.00027243	1184.4	6.5946e-06	4.9638e-06	736.67	476.47	1.8595e-05	1.0583e-05	306.28	119.29	188.72	73.791	1.5683e-06	51.008	0.0032015	0.0033889	0.00092928	1396.8	3.6581e-05	3.6039e-05	853.65	512.82	3.5031e-05	3.5487e-05	365.72	138.66	216.53	80.016	3.5669e-05	60.726	201.832	184.838	-33.349	-128.973	59.676	146.898	-130.560	-125.101	-94.085	45.055	-127.597	-125.436	-122.614	-118.203	-133.244	-122.027	-8191	255	
4451.481	1	1	0	0	0.17606	0.24428	0.20854	0.11963	0.081438	0.15174	0.25003	0.26482	0.064356	0.2644	0.27178	0.1683	0.095068	0.082056	0.019435	0.086154	-2.7	-2.3292	-2.9625	-2.9917	-2.2625	-3.0083	-2.6437	-2.8021	-3.0104	-2.5396	-2.9771	-2.9562	-2.3792	-3.2167	-2.6521	-2.7687	113.033	152.010	7.538	136.567	207.769	197.174	-138.941	-63.232	120.454	-126.390	59.479	46.484	143.292	128.020	122.502	28.528	0.00055142	0.00199	0.00012367	1179.2	1.2781e-05	6.2417e-06	733.83	476.83	1.0109e-05	7.7661e-06	304.24	118.99	189.27	73.852	9.8912e-06	51.095	0.003134	0.0033469	0.00092749	1393.6	3.6599e-05	3.6438e-05	853.63	511.98	3.6064e-05	3.6988e-05	368.09	140.2	218.16	80.631	3.7116e-05	61.298	160.735	-121.415	130.575	-129.309	-33.015	179.401	-131.249	-125.968	-58.165	89.534	-128.425	-126.177	-123.227	-119.199	-104.832	-122.187	-8191	255	
4451.578	1	1	0	0	0.20213	0.24317	0.2252	0.2399	0.065512	0.19653	0.14775	0.15123	0.22471	0.13585	0.22887	0.26536	0.35284	0.26691	0.090297	0.081352	-2.8812	-2.3208	-2.9083	-3.0396	-2.4083	-3.075	-3.0771	-2.7271	-3.2146	-2.4333	-2.9104	-3.1521	-2.525	-3.1542	-2.7938	-2.5833	152.628	170.697	81.572	132.913	36.083	-140.756	-22.349	208.886	-46.592	98.523	-124.195	-118.203	204.493	-142.967	-92.125	11.201	0.00031112	0.0010811	0.0005726	1178.8	1.3723e-05	8.9664e-06	740.4	478.71	9.3313e-06	3.2699e-06	306.15	120.15	190	74.43	6.3125e-06	51.933	0.0032288	0.0034065	0.00095155	1400.8	3.7513e-05	3.7726e-05	863.31	516.79	3.8343e-05	3.9455e-05	375.48	143.34	222.8	82.035	4.0707e-05	63.2	178.201	-79.780	183.344	-130.041	-126.223	2.062	-131.487	-126.015	-8.138	-139.967	-128.695	-125.999	-123.636	-119.045	197.946	-122.453	-8191	255	
4451.674	1	1	0	0	0.29522	0.077442	0.32721	0.11269	0.080591	0.18433	0.3277	0.3326	0.30962	0.17506	0.086723	0.29329	0.28334	0.15511	0.08721	0.09462	-2.7854	-2.4062	-2.5604	-3.1146	-2.5646	-3.0229	-3.0229	-2.6104	-3.1958	-2.4938	-2.7479	-3.1875	-2.5104	-3.1125	-3.0563	-2.3979	169.911	27.024	90.467	45.040	92.739	176.638	71.284	165.524	-82.266	132.050	-30.504	194.559	207.681	-90.787	-4.553	-102.248	0.00039185	0.0015082	0.00047135	1182.6	3.5042e-06	1.4203e-05	739.81	477.97	9.4692e-06	6.8309e-06	306.78	120.02	190.87	74.614	3.4495e-06	51.882	0.0035832	0.0037713	0.0010616	1433.8	4.1471e-05	4.1161e-05	874.58	519.91	4.0252e-05	4.0359e-05	378.7	143.56	222.68	81.933	4.0027e-05	62.964	189.256	-41.869	-51.339	-129.668	-137.267	-79.631	-131.555	-126.220	-25.879	136.240	-128.851	-126.223	-123.538	-119.187	84.217	-121.939	-8191	255	
4451.793	1	1	0	0	0.22407	0.14271	0.051784	0.24495	0.13607	0.16811	0.12484	0.32753	0.067883	0.056192	0.2574	0.16555	0.12049	0.2689	0.26252	0.21039	-2.6667	-2.5875	-2.6312	-3.2146	-2.3792	-2.8333	-3.2062	-2.6729	-3.0625	-2.5833	-2.6562	-3.3021	-2.5292	-3.0021	-3.1813	-2.4854	172.532	147.309	103.137	211.416	151.410	149.567	74.916	143.231	121.689	60.276	213.143	151.794	177.077	198.980	-15.049	65.744	0.00042782	0.00050641	0.00052251	1179.7	1.6279e-06	9.0739e-06	735.96	475.51	4.4395e-06	1.5846e-05	305.43	119.59	189.62	74.444	1.1109e-05	51.336	0.003482	0.0036589	0.0010228	1420.2	3.9526e-05	3.9377e-05	866.63	516.93	3.899e-05	3.9667e-05	375.3	143.05	221.9	81.89	4.1121e-05	62.878	160.551	92.641	-62.581	-129.489	-108.040	129.356	-131.467	-126.168	196.596	46.130	-128.760	-126.528	-123.777	-119.132	65.665	-122.602	-8191	255	
4451.889	1	1	0	0	0.13239	0.16375	0.11564	0.16718	0.13371	0.063303	0.1994	0.13705	0.35193	0.18315	0.19559	0.045784	0.077059	0.074262	0.30424	0.13457	-2.6604	-2.5812	-2.4062	-3.2979	-2.5479	-2.7625	-3.0667	-2.6	-3.0792	-3	-2.3021	-3.2458	-2.5729	-2.8396	-2.9146	-2.4458	126.507	164.428	-72.520	54.477	67.831	-140.325	53.303	-135.976	-33.840	80.882	195.743	-133.724	201.989	150.592	-25.518	142.566	0.00070038	0.0011715	0.00028446	1180.1	9.0137e-06	2.047e-06	730.8	477.52	8.5108e-06	1.4688e-05	304.9	119.48	189.51	74.457	1.1773e-05	51.845	0.0036646	0.0038606	0.0010969	1439.9	4.2963e-05	4.3671e-05	881.85	524.03	4.4539e-05	4.5304e-05	387.56	147.01	227.89	83.511	4.6926e-05	64.944	171.303	58.856	-127.927	-129.627	41.561	-80.354	-131.633	-126.099	173.731	-140.221	-128.625	-126.472	-123.693	-119.109	76.051	-122.830	-8191	255	
4451.985	1	1	0	0	0.19717	0.10309	0.08966	0.14173	0.033476	0.049174	0.1729	0.29469	0.21595	0.053682	0.12132	0.32399	0.14705	0.4858	0.12061	0.19117	-2.5021	-2.9	-2.2812	-3.1625	-2.5146	-2.6458	-3.2125	-2.5125	-3.1708	-2.8083	-2.4604	-3.3271	-2.7188	-2.8125	-3.0792	-2.4646	86.858	-113.650	212.481	166.651	99.235	40.761	169.877	170.665	183.668	92.639	-138.093	171.453	33.813	171.222	-135.417	102.899	0.00049637	0.00092728	8.2985e-05	1184.9	1.1248e-05	6.8489e-06	733.37	476.59	2.6953e-06	1.1236e-05	305.3	119.32	189.33	74.51	9.0342e-06	51.693	0.0041377	0.004331	0.0012264	1477.2	4.7563e-05	4.7833e-05	896.33	526.38	4.6494e-05	4.6537e-05	388.08	147.2	227.54	83.302	4.664e-05	64.74	153.178	-56.356	10.562	-129.301	9.941	-65.410	-131.272	-126.191	-82.215	106.376	-128.210	-126.102	-123.581	-119.069	-33.983	-122.473	-8191	255	
4452.081	1	1	0	0	0.22073	0.11137	0.073871	0.1244	0.10579	0.16972	0.4486	0.1044	0.13241	0.30304	0.19189	0.11422	0.14823	0.16626	0.19885	0.10205	-2.5896	-3.1	-2.225	-3.2313	-2.8292	-2.4188	-3.3292	-2.65	-2.7646	-3.0958	-2.4458	-3.1021	-2.8542	-2.5104	-3.2667	-2.7104	9.103	126.400	89.537	-131.067	135.073	60.574	51.874	107.202	-66.204	82.745	133.096	166.781	-106.988	119.140	-39.910	92.641	0.00042995	0.0012623	0.00033534	1178.9	7.8171e-06	1.4498e-05	733.84	476.32	1.4563e-05	7.9655e-06	308.19	119.89	189.07	74.844	7.8685e-06	52.054	0.0040987	0.0043052	0.0012136	1475.4	4.6885e-05	4.7816e-05	896.9	527.14	4.6723e-05	4.6759e-05	390.34	147.85	227.94	83.691	4.6695e-05	65.069	180.719	-12.845	-11.953	-129.700	-33.526	-2.548	-131.111	-125.963	-33.709	-0.034	-128.363	-125.935	-123.216	-119.016	-135.464	-122.257	-8191	255	
4452.177	1	1	0	0	0.10925	0.16566	0.31329	0.022088	0.12308	0.098766	0.3415	0.30494	0.46467	0.14516	0.22804	0.16713	0.040849	0.14309	0.2401	0.34654	-2.3292	-2.875	-2.2542	-2.9625	-2.8667	-2.6021	-3.0938	-2.725	-2.6271	-3.0854	-2.4771	-3.3208	-3.0354	-2.6292	-2.8563	-2.6021	65.123	-122.449	-90.937	-126.149	-83.574	111.258	149.576	205.650	9.339	-11.742	147.218	-131.238	205.475	191.198	-45.569	89.533	0.00046932	0.00043752	0.00028054	1184.4	4.7344e-06	1.4009e-05	733.18	475.61	1.5861e-05	7.0013e-06	307.03	120.09	188.82	74.472	3.9578e-06	51.874	0.0041402	0.0043342	0.0012151	1480.2	4.7288e-05	4.8448e-05	901.86	528.12	4.8334e-05	4.8637e-05	393.41	149.06	230.31	84.114	4.9632e-05	65.539	195.553	-133.880	73.875	-129.814	-34.209	19.245	-131.242	-125.907	198.683	14.638	-128.874	-126.354	-123.539	-119.327	180.295	-122.851	-8191	255	
4452.273	1	1	0	0	0.094432	0.061463	0.1156	0.18985	0.080886	0.099758	0.12827	0.20298	0.21979	0.049123	0.10409	0.27099	0.29992	0.43144	0.13989	0.14753	-2.2771	-3.0875	-2.4917	-3.1146	-2.9146	-2.5271	-3.225	-2.8	-2.4854	-3.1937	-2.4229	-2.9938	-3.0938	-2.3958	-3.1604	-2.8063	139.808	22.471	104.145	166.978	167.804	40.263	74.088	153.496	-36.020	200.385	84.485	102.168	189.563	179.945	60.320	-115.525	0.00040819	0.00052934	0.00040546	1174.7	6.8999e-06	1.1216e-05	731.88	474.4	1.0836e-05	7.9038e-08	306.62	119.9	189.7	74.908	7.8357e-06	52.142	0.0044261	0.0046394	0.0013104	1508.8	5.2478e-05	5.3631e-05	920.72	534.08	5.3987e-05	5.4074e-05	402.42	152.18	235.47	85.294	5.3214e-05	66.895	201.009	186.580	-41.873	-129.458	95.425	107.145	-131.200	-126.216	-84.130	69.659	-128.852	-126.451	-123.540	-119.484	-74.797	-122.356	-8191	255	
4452.394	1	1	0	0	0.11663	0.078717	0.1467	0.11079	0.18134	0.32829	0.092331	0.2807	0.14757	0.27706	0.098658	0.24481	0.26215	0.26539	0.18013	0.21843	-2.2521	-3.0438	-2.4583	-2.8417	-3.0042	-2.3396	-3.0333	-2.8792	-2.6396	-3.1896	-2.425	-3.0167	-3.1521	-2.725	-3.0687	-2.8937	-57.478	-56.189	15.282	163.282	177.440	-8.118	33.687	155.188	130.176	8.746	169.525	152.043	205.228	193.421	101.636	123.997	0.00049186	0.00057741	0.00011909	1186.4	1.1462e-05	1.2382e-05	734.74	477.83	1.1028e-05	9.909e-06	306.37	120.73	190.68	75.118	1.3622e-05	52.274	0.0046738	0.0048715	0.0013551	1521.4	5.3057e-05	5.3657e-05	919.88	534.81	5.2588e-05	5.2505e-05	399.62	152.12	233.71	85.099	5.1056e-05	66.432	150.248	20.097	-95.880	-129.624	42.705	49.298	-131.131	-125.975	-2.700	102.182	-128.770	-126.265	-123.371	-119.328	198.505	-122.367	-8191	255	
4452.490	1	1	0	0	0.34969	0.13303	0.15785	0.16204	0.25285	0.17279	0.052512	0.48513	0.21282	0.16978	0.29103	0.23109	0.11603	0.084057	0.13029	0.1191	-2.0563	-3.2083	-2.5458	-2.8042	-3.0146	-2.3521	-3.0708	-3.1229	-2.3333	-3.2958	-2.7396	-2.6813	-3.0208	-2.6146	-3.1083	-3.1479	-28.615	-124.249	33.454	-3.353	181.874	138.947	80.199	160.425	154.350	58.765	191.341	-136.366	4.754	210.406	-10.801	208.014	0.00034273	0.00096831	0.00018375	1189.4	6.0127e-06	1.7515e-05	739.24	482.47	1.5942e-05	1.118e-05	310.59	122.6	193.23	76.067	1.3726e-05	52.769	0.0044286	0.0046089	0.0012812	1507.1	5.0991e-05	5.1781e-05	921.5	537.32	5.2951e-05	5.2949e-05	405.98	154.79	237.11	86.105	5.2634e-05	67.439	173.826	-53.229	188.070	-129.571	-84.705	49.446	-131.125	-126.161	-137.109	-6.146	-128.588	-126.233	-123.644	-119.204	-26.165	-122.873	-8191	255	
4452.585	1	1	0	0	0.18821	0.12221	0.24771	0.19036	0.049807	0.026884	0.10628	0.11831	0.28019	0.081176	0.14065	0.20255	0.074311	0.11356	0.049186	0.25712	-1.8687	-3.2542	-2.5354	-2.5542	-3.0563	-2.4083	-2.9188	-3.2021	-2.1958	-3.1625	-2.7396	-2.6833	-3.2021	-2.5354	-2.8625	-3.2271	154.294	19.619	-78.309	87.046	-67.316	-43.996	130.179	103.823	-109.861	193.816	198.245	195.452	7.861	137.004	193.384	-54.943	0.00051772	0.0023796	0.00059402	1187	1.2113e-05	1.0714e-05	734.91	481.93	2.1009e-05	5.3138e-06	308.53	122.03	193.46	75.751	1.0377e-05	52.105	0.0046648	0.004896	0.0013719	1538.8	5.514e-05	5.6019e-05	937.05	543.05	5.6063e-05	5.5911e-05	406.21	154.87	237.56	85.76	5.1657e-05	66.639	179.111	-29.887	-48.883	-129.961	183.259	37.999	-131.278	-126.276	-72.715	169.780	-128.955	-126.417	-124.104	-119.748	-71.179	-122.643	-8191	255	
4452.658	1	1	0	0	0.054092	0.14541	0.28138	0.26831	0.060068	0.12039	0.24504	0.051141	0.2133	0.33943	0.19212	0.13967	0.27234	0.082306	0.029071	0.15552	-2.1292	-3.0021	-2.6063	-2.6333	-3.1854	-2.4417	-2.7438	-3.2458	-2.35	-2.9437	-2.8146	-2.6833	-3.3333	-2.6958	-2.6458	-3.225	120.857	-30.957	133.151	151.085	-131.353	16.434	73.408	210.819	-28.943	84.423	116.860	157.152	139.050	-17.996	-131.790	177.990	0.00057058	0.00079381	0.00032443	1174.4	2.7717e-06	8.8178e-06	733.17	478.02	5.5325e-06	7.8432e-06	307.36	120.55	191.66	74.025	3.915e-06	51.433	0.0043527	0.0043905	0.0011718	1459.8	4.3448e-05	4.3083e-05	879.95	522.33	4.2669e-05	4.2916e-05	382.69	146.36	225.9	82.283	4.4659e-05	63.777	186.636	143.023	184.817	-129.843	141.193	-36.251	-131.370	-126.300	-139.102	76.993	-129.025	-126.583	-123.512	-119.287	-70.391	-122.656	-8191	255	
4452.754	1	1	0	0	0.1502	0.14816	0.19428	0.094145	0.048547	0.25692	0.24103	0.19509	0.044748	0.18129	0.066485	0.19769	0.099857	0.13765	0.10066	0.19361	-2.0083	-2.8854	-3	-2.4688	-3.0729	-2.5458	-2.6167	-3.2729	-2.3854	-2.9833	-2.9021	-2.4479	-3.4	-2.9021	-2.6562	-3.2938	95.313	205.105	112.651	128.277	194.907	153.721	177.773	94.164	10.594	-49.312	-113.278	36.748	155.821	185.706	10.779	166.465	0.00052735	0.00047028	0.00022926	1172.5	6.5168e-06	1.947e-05	739.34	482.62	1.2919e-05	8.7199e-06	316.25	125.55	197.4	76.958	6.1878e-06	54.213	0.0038348	0.0039872	0.0010939	1441.8	4.2077e-05	4.1831e-05	883.16	526.89	4.1805e-05	4.2615e-05	389.23	150.3	231.4	85.066	4.3537e-05	65.706	163.100	-136.295	207.957	-129.628	-60.189	9.167	-130.963	-126.026	-97.853	60.125	-128.665	-126.190	-123.822	-119.678	1.455	-122.890	-8191	255	
4452.873	1	1	0	0	0.33483	0.26375	0.077061	0.36045	0.12643	0.24402	0.24025	0.2774	0.15787	0.037608	0.25257	0.12068	0.067936	0.091258	0.012586	0.26236	-2.0792	-2.8958	-2.9646	-2.5687	-3.2458	-2.6625	-2.6625	-3.3333	-2.4917	-2.8854	-3.1375	-2.3625	-2.9521	-3.0229	-2.3958	-3.3812	171.539	-4.006	133.479	148.666	-29.821	47.744	111.096	171.506	-117.114	119.225	110.548	145.101	-47.435	-115.361	1.148	81.431	0.00054009	0.00088358	0.00017441	1197.1	2.7195e-06	6.7686e-06	748.15	493.83	3.6693e-06	6.5471e-06	317.27	126.62	199.35	78.102	1.3234e-05	54.158	0.0037775	0.0039662	0.0010986	1463.5	4.2836e-05	4.2526e-05	894.34	536.63	4.1865e-05	4.2584e-05	391.72	151.71	233.45	85.704	4.3461e-05	65.875	184.064	-115.475	53.112	-129.780	146.683	-53.941	-130.903	-126.266	130.692	134.531	-128.842	-126.576	-123.499	-119.617	-27.942	-122.973	-8191	255	
4452.969	1	1	0	0	0.074645	0.187	0.17977	0.29876	0.078777	0.27175	0.079002	0.078783	0.19035	0.19687	0.18751	0.074493	0.26578	0.1703	0.32603	0.1869	-2	-2.7188	-3.3	-2.4813	-3.0438	-2.8146	-2.4146	-3.2333	-2.8271	-2.6583	-3.2313	-2.6271	-3.1396	-2.9646	-2.4562	-3.4646	-53.873	85.973	175.399	171.753	159.771	79.105	-9.620	128.568	-52.229	-129.091	203.274	156.669	-128.663	187.343	-42.235	199.945	0.00049734	0.00059561	0.00040486	1198.1	1.0971e-05	1.7535e-06	740.48	490.31	2.0714e-05	5.9626e-06	313.19	124.93	197.75	77.066	6.8787e-06	53.472	0.0037618	0.0040312	0.0011137	1466.3	4.3838e-05	4.3739e-05	894.47	536.14	4.2748e-05	4.324e-05	387.53	149.33	230.56	84.393	4.0989e-05	64.187	179.413	118.714	-63.292	-129.747	-0.384	163.418	-131.415	-126.110	-65.469	119.422	-129.075	-126.362	-124.003	-119.524	-34.387	-122.636	-8191	255	
4453.065	1	1	0	0	0.12574	0.097133	0.11133	0.23182	0.079067	0.21016	0.1025	0.22177	0.11899	0.17644	0.04113	0.37963	0.11217	0.2714	0.13049	0.21149	-2.2021	-2.6729	-3.1542	-2.3167	-3.0104	-2.8375	-2.5292	-3.375	-2.6771	-2.5729	-3.2687	-2.6167	-2.9562	-3.2271	-2.4729	-3.2313	103.497	24.093	29.890	175.823	40.056	14.123	78.026	143.939	84.186	44.417	54.989	-110.152	139.903	-121.331	18.333	12.116	0.00043941	0.00034964	0.00031679	1190	6.0047e-06	1.3934e-05	739.52	488.47	3.3363e-06	2.1409e-06	313.27	124.32	196.94	77.008	5.9434e-06	53.528	0.0034596	0.0036963	0.0010147	1428.9	3.9765e-05	3.9582e-05	874.55	528.87	3.9008e-05	3.9617e-05	379.77	146.77	226.78	83.627	3.7812e-05	63.359	179.998	22.172	-100.711	-130.006	-37.344	27.571	-131.076	-126.104	-63.394	-130.864	-129.032	-126.611	-123.688	-119.562	8.669	-122.707	-8191	255	
4453.161	1	1	0	0	0.1713	0.10296	0.14593	0.15615	0.22898	0.10957	0.35568	0.35124	0.1047	0.16558	0.18655	0.19418	0.2775	0.13889	0.17334	0.027233	-2.1625	-2.5667	-3.2958	-2.7229	-2.7792	-3.1125	-2.5146	-3.2438	-2.7396	-2.4396	-3.1792	-2.5542	-2.7062	-3.4229	-2.5542	-3.0958	-55.409	31.478	13.770	201.136	-96.573	-46.572	172.916	194.124	206.232	121.799	131.337	-127.609	162.685	-140.372	13.354	202.762	0.00075413	0.0011623	0.00015341	1190.3	1.4243e-06	8.5081e-06	744.86	492.04	8.8869e-06	1.1066e-05	315.8	126.56	198.09	77.578	1.6657e-05	54.14	0.003252	0.0034643	0.00095447	1413.9	3.762e-05	3.7407e-05	869.29	528.66	3.6466e-05	3.7342e-05	378.25	147.2	226.99	84.177	3.7698e-05	64.263	155.194	155.836	-66.373	-129.928	-73.912	-143.202	-131.418	-126.125	-59.849	39.327	-128.941	-126.518	-123.724	-119.503	-47.060	-123.068	-8191	255	
4453.258	1	1	0	0	0.088112	0.052028	0.078585	0.12744	0.064807	0.19533	0.16288	0.25455	0.025416	0.17723	0.20672	0.23258	0.4686	0.2341	0.072318	0.033206	-2.3563	-2.3208	-3.2417	-2.7646	-2.5687	-3.2562	-2.6063	-3.2042	-2.9562	-2.3583	-3.2375	-2.6229	-2.6583	-3.4208	-2.5104	-3.0854	59.591	164.858	116.624	172.448	209.353	207.033	147.648	192.740	57.056	120.512	82.536	176.272	159.161	-60.075	127.871	131.126	0.00064575	0.00060747	9.1828e-05	1202.1	1.0242e-05	4.3591e-06	745.99	496.82	8.4685e-06	1.5981e-05	319.44	128.1	200.31	78.07	2.2426e-06	54.314	0.0033588	0.0036276	0.0010031	1437.3	4.0444e-05	4.0195e-05	884.59	535.72	3.9892e-05	4.0849e-05	388.82	150.77	232.44	85.552	4.0467e-05	65.309	183.652	-3.919	-111.922	-130.039	-81.274	125.200	-131.302	-126.208	26.094	-33.079	-128.956	-126.545	-123.549	-119.766	-131.992	-122.601	-8191	255	
4453.354	1	1	0	0	0.21176	0.14694	0.064516	0.40487	0.35322	0.15532	0.19943	0.34801	0.067581	0.067951	0.17904	0.14213	0.20689	0.12361	0.075437	0.26391	-2.7354	-2.2896	-3.2083	-2.8312	-2.4854	-3.2083	-2.425	-3.0083	-3.1771	-2.4625	-3.2125	-2.8542	-2.7479	-3.475	-2.475	-2.8187	199.124	172.227	73.509	-120.519	-22.655	154.993	169.672	127.058	44.125	187.109	8.341	214.659	136.202	-121.028	132.306	119.741	0.00025465	0.00060586	0.00039458	1197.6	9.4869e-06	6.6485e-06	750.65	491.82	1.1283e-05	3.6653e-06	316.92	127.99	199.68	77.959	1.9357e-05	53.774	0.0035643	0.0038149	0.0010609	1452.7	4.3366e-05	4.3444e-05	896.13	539.57	4.4803e-05	4.6215e-05	398.45	154.04	237.36	86.697	4.5719e-05	66.406	161.799	206.825	-37.405	-129.910	43.819	5.675	-131.591	-126.404	-44.687	-81.684	-128.819	-126.964	-124.240	-120.052	12.948	-122.711	-8191	255	
4453.474	1	1	0	0	0.092897	0.25149	0.19054	0.36878	0.18546	0.052393	0.2369	0.27512	0.11931	0.10244	0.011633	0.1705	0.087548	0.31175	0.097412	0.18069	-2.9188	-2.5563	-3.1354	-2.9979	-2.5438	-3.2646	-2.5896	-2.8896	-3.1188	-2.5938	-3.2146	-3.0271	-2.6146	-3.3979	-2.6188	-2.9	-112.573	173.781	112.431	160.946	200.308	-43.400	183.639	161.604	187.739	126.747	65.208	175.329	-112.451	182.305	177.591	-136.404	0.00037169	0.0014547	0.00027868	1185.9	1.1569e-06	2.1282e-06	737.99	488.72	4.0343e-06	1.0121e-05	311.95	124.53	197.58	77.03	6.1452e-06	53.759	0.0038789	0.0040483	0.0010985	1451.7	4.3933e-05	4.3805e-05	888.79	535.38	4.4636e-05	4.5508e-05	392.73	151.33	235.48	85.766	4.5584e-05	66.243	182.011	-83.894	78.568	-129.876	-50.762	150.877	-131.656	-126.331	206.295	55.732	-128.846	-126.782	-123.601	-119.758	73.704	-123.152	-8191	255	
4453.570	1	1	0	0	0.08446	0.15488	0.25096	0.20063	0.16597	0.14193	0.15801	0.3652	0.19102	0.22437	0.14925	0.20702	0.4653	0.13105	0.085173	0.26643	-2.8	-2.3708	-3.0938	-2.9229	-2.5125	-3.225	-2.7479	-2.8979	-3.0021	-2.3563	-3.1208	-3.2562	-2.4188	-3.2687	-2.6396	-2.6271	-126.130	-120.602	79.000	34.457	-46.678	206.497	127.836	144.704	54.398	-134.023	-73.598	50.268	165.123	-74.004	-81.263	102.009	0.00052934	0.00081571	0.00015986	1180.3	9.3756e-06	5.225e-06	740.29	489.34	7.6092e-06	1.029e-05	313.55	124.28	195.99	76.663	5.3829e-06	53.542	0.0040066	0.0042097	0.0011804	1475.8	4.672e-05	4.6367e-05	897.6	536.99	4.4995e-05	4.4933e-05	391.47	149.86	231.14	84.565	4.1952e-05	65.084	201.198	67.963	-55.406	-130.020	-21.423	-45.532	-131.383	-126.367	-84.966	0.470	-129.055	-126.823	-123.773	-119.247	-9.966	-122.728	-8191	255	
4453.665	1	1	0	0	0.022916	0.030031	0.15029	0.16057	0.061845	0.091776	0.19052	0.32391	0.18197	0.2108	0.21051	0.39769	0.23157	0.26618	0.024386	0.38871	-2.6458	-2.3104	-2.7792	-3.1562	-2.4979	-3.0708	-2.8812	-2.6875	-3.2396	-2.6646	-2.9354	-3.2104	-2.5417	-3.4417	-2.8	-2.6875	15.283	61.412	-139.213	-143.090	-41.364	114.117	-94.092	152.904	33.089	211.212	199.698	168.872	186.444	-142.646	194.480	175.612	0.00051758	0.001377	0.00035215	1188.9	5.4507e-06	2.0559e-06	746.29	490.37	8.3156e-06	1.8929e-06	319.49	127.11	199.86	78.304	1.4265e-05	54.551	0.0036963	0.0039367	0.0011128	1464.3	4.4754e-05	4.5257e-05	904.99	541.06	4.6705e-05	4.7912e-05	406.54	156.71	241.37	87.924	5.0596e-05	68.848	213.012	-32.379	-63.097	-129.979	-15.085	4.502	-131.857	-126.440	-8.750	34.876	-128.768	-126.878	-124.037	-119.827	-57.118	-123.062	-8191	255	
4453.763	1	1	0	0	0.22282	0.26747	0.13969	0.18797	0.16583	0.14995	0.24095	0.27365	0.16254	0.029433	0.15227	0.18406	0.24429	0.26171	0.2207	0.23269	-2.8187	-2.7062	-2.5958	-3.2313	-2.5167	-3.0333	-2.975	-2.5896	-3.1188	-2.6312	-2.7167	-3.3396	-2.7354	-3.1125	-2.9375	-2.5292	-66.101	45.711	139.987	187.098	110.362	146.130	173.158	142.077	-75.618	59.297	19.825	189.637	201.084	-101.038	-9.560	29.916	0.00076742	0.0013807	0.00034956	1203.7	3.0828e-06	1.6126e-06	746.98	491.46	1.2709e-05	1.4902e-05	318.26	127.61	199.45	77.748	9.2991e-06	54.229	0.0044562	0.0046828	0.0013247	1526.7	5.2376e-05	5.2713e-05	932.15	550.9	5.2943e-05	5.3492e-05	416.16	160.16	244.7	88.341	5.3732e-05	69.242	179.781	21.556	-107.214	-129.971	-16.290	-98.379	-131.690	-126.524	-115.418	50.314	-129.170	-127.351	-124.069	-120.147	34.539	-122.972	-8191	255	
4453.882	1	1	0	0	0.22603	0.079999	0.031839	0.21589	0.12948	0.15357	0.20562	0.23322	0.14034	0.051868	0.16632	0.23838	0.151	0.079378	0.07338	0.10542	-2.7417	-2.5812	-2.5625	-3.1146	-2.3875	-2.8896	-3.0792	-2.4625	-3.2104	-2.6521	-2.5563	-3.1646	-2.5187	-2.9979	-3.1521	-2.4437	11.855	-17.841	180.684	-65.284	-59.504	164.339	161.940	183.276	105.999	25.802	-113.190	211.580	-138.176	-14.114	-73.574	49.570	0.00057326	0.00069617	0.00024963	1197.3	3.9188e-06	1.3707e-05	744.29	493.03	1.3911e-05	9.2763e-06	321.25	129.05	199.28	77.811	7.2125e-06	54.34	0.0046708	0.0049273	0.0013892	1542.3	5.4121e-05	5.4859e-05	938.35	553.89	5.4854e-05	5.5633e-05	421.77	162.15	246.23	88.669	5.5004e-05	69.73	166.536	-33.694	-104.509	-130.102	17.463	53.205	-131.715	-126.379	141.349	6.184	-129.023	-127.110	-124.301	-120.058	37.361	-123.217	-8191	255	
4453.953	1	1	0	0	0.22283	0.14742	0.099126	0.19407	0.17877	0.32182	0.14998	0.38863	0.1714	0.15052	0.15447	0.195	0.35661	0.17399	0.23202	0.15301	-2.7625	-2.6375	-2.4688	-3.3625	-2.4562	-2.7562	-3.3208	-2.6146	-2.9813	-2.6896	-2.75	-3.2021	-2.7375	-2.8271	-3.0667	-2.4333	-96.058	13.403	112.763	-121.438	17.316	-60.133	104.383	174.018	183.380	75.910	73.756	162.948	-105.365	64.421	-57.396	-1.840	0.00051676	0.0013437	0.00045556	1195.7	2.0287e-05	1.0178e-05	745.81	492.29	1.1864e-05	7.3048e-06	322.67	129.22	201.5	79.072	8.7763e-06	55.111	0.0047813	0.0050364	0.0014285	1549.1	5.506e-05	5.5712e-05	940.73	553.54	5.4657e-05	5.5675e-05	423.29	163.56	249.51	90.41	5.8064e-05	71.432	198.901	-136.167	-134.105	-129.826	71.767	-76.419	-131.681	-126.402	210.318	89.277	-129.182	-127.115	-124.493	-120.551	155.392	-123.639	-8191	255	
4454.049	1	1	0	0	0.24131	0.10861	0.18052	0.40021	0.067196	0.13576	0.22998	0.46385	0.23628	0.22129	0.17983	0.12252	0.27528	0.12223	0.078097	0.041544	-2.5938	-2.7729	-2.4437	-3.0833	-2.6958	-2.6708	-3.0083	-2.65	-2.9437	-2.9021	-2.675	-3.2958	-2.7604	-2.8646	-3.0833	-2.8646	177.124	72.856	-132.502	197.764	-37.377	-61.309	143.896	153.802	161.494	41.152	5.758	104.059	-110.513	204.441	56.657	-80.595	0.00061397	0.0016404	0.00037928	1196.8	9.9314e-06	5.8021e-06	751.94	497.12	1.3284e-05	2.4086e-05	323.05	129.86	204.13	79.948	3.2704e-06	55.308	0.0050434	0.0052879	0.0014825	1569.9	5.7012e-05	5.8366e-05	955.34	561.85	5.882e-05	5.9905e-05	434.07	167.49	255.29	92.139	6.1947e-05	73.298	137.630	-34.967	3.389	-129.807	11.241	-85.234	-131.455	-126.462	-17.327	-48.698	-129.282	-127.348	-124.457	-120.332	161.906	-123.375	-8191	255	
4454.170	1	1	0	0	0.071329	0.1621	0.14629	0.13981	0.27815	0.23469	0.21038	0.37922	0.16342	0.080929	0.18621	0.29188	0.4125	0.15628	0.25757	0.17608	-2.6	-3.0104	-2.4021	-3.2208	-2.7458	-2.6729	-3.3604	-2.5396	-2.9208	-2.975	-2.5458	-3.1188	-2.95	-2.6146	-3.1792	-2.4437	-60.753	55.739	-19.154	-15.364	-57.957	173.429	174.806	153.045	6.452	-33.066	-43.586	206.342	160.425	-127.046	124.544	144.723	0.00054815	0.0014916	0.00041515	1205	1.3117e-05	1.9171e-06	742.46	497.23	1.4512e-05	1.6176e-05	322.26	130.74	203.36	79.363	1.6322e-05	54.758	0.0055557	0.0058849	0.0016591	1623.7	6.3621e-05	6.4449e-05	969.42	566.86	6.1835e-05	6.1993e-05	434.25	167.57	254.28	91.369	5.9591e-05	71.609	170.137	172.690	-46.081	-130.305	-97.951	-0.955	-131.714	-126.510	-50.388	31.938	-129.150	-127.269	-124.030	-120.266	150.755	-123.679	-8191	255	
4454.266	1	1	0	0	0.062436	0.074914	0.13494	0.23584	0.11554	0.20171	0.19361	0.28522	0.11578	0.22424	0.19644	0.36152	0.26179	0.18136	0.089487	0.0492	-2.3896	-3.0271	-2.4167	-3.1333	-2.8583	-2.5729	-3.2271	-2.6896	-2.7896	-3.2125	-2.4437	-3.0438	-3.0458	-2.7687	-3.0812	-2.7562	-6.657	-60.564	-41.512	198.507	-93.343	51.124	140.205	150.055	82.936	-41.921	65.158	203.899	174.724	162.630	10.817	126.268	0.00074071	0.0010019	0.0007211	1199.2	1.2601e-05	2.0501e-05	746.05	494.06	9.9438e-06	5.4051e-06	320.42	128.7	200.22	77.872	2.4159e-05	54.049	0.0051586	0.0053679	0.001486	1570	5.6511e-05	5.6499e-05	937.51	553.83	5.3868e-05	5.3226e-05	414.88	160.09	244.26	88.394	5.2976e-05	69.294	190.776	29.095	-25.520	-130.078	-57.462	-51.054	-131.750	-126.686	-13.341	210.138	-129.414	-127.038	-124.252	-120.363	-26.580	-123.521	-8191	255	
4454.362	1	1	0	0	0.10926	0.054521	0.1112	0.28956	0.09791	0.018176	0.21342	0.14248	0.058554	0.27144	0.23984	0.28463	0.25179	0.32972	0.21859	0.29745	-2.2917	-3.1354	-2.4167	-2.9417	-3.0646	-2.6229	-3.2792	-2.7896	-2.5542	-3.2354	-2.6479	-3.0667	-2.9938	-2.7042	-3.125	-2.6896	-137.665	156.441	22.128	-134.515	151.440	-95.325	130.792	-93.625	51.083	79.739	-101.501	-9.381	136.018	-136.139	-93.044	184.075	0.00035098	0.0010136	0.0002933	1201.2	1.907e-05	1.7166e-05	747.17	495.07	2.7021e-05	1.2844e-05	321.77	129.17	200.84	78.626	1.0861e-05	54.694	0.0047731	0.0050263	0.0014107	1557.5	5.5386e-05	5.6095e-05	940.97	555.23	5.5164e-05	5.4622e-05	420.07	162.78	247.36	89.669	5.5047e-05	70.262	166.188	-39.799	-134.469	-129.995	-88.557	-66.848	-131.696	-126.648	-20.681	8.466	-129.281	-127.432	-124.330	-120.369	-81.375	-123.503	-8191	255	
4454.459	1	1	0	0	0.031018	0.098366	0.19647	0.14059	0.059968	0.1621	0.20473	0.12401	0.060101	0.16625	0.18384	0.16284	0.31397	0.085208	0.1026	0.15193	-2.1167	-3.1312	-2.3187	-2.825	-3.0375	-2.3667	-3.2521	-2.9188	-2.3292	-3.2667	-2.6021	-2.8417	-3.1688	-2.5854	-3.1292	-2.9104	141.920	173.297	96.547	-79.256	127.051	52.135	169.520	144.843	-6.369	133.133	111.719	152.767	204.439	131.593	19.888	74.217	0.00032465	0.0026497	0.00069519	1195.7	3.7857e-06	2.1524e-05	744.55	493.25	3.0439e-06	1.1131e-05	319.57	129.04	200.56	78.379	2.2584e-05	54.517	0.0048476	0.0050238	0.001383	1540.9	5.2879e-05	5.2646e-05	925.4	548.55	5.1135e-05	5.075e-05	409.8	159.1	242.69	87.964	5.0335e-05	68.336	188.267	-87.667	-69.864	-130.134	210.174	-9.957	-132.006	-126.737	-126.993	153.099	-129.208	-126.756	-124.401	-120.248	-69.790	-123.409	-8191	255	
4454.555	1	1	0	0	0.13034	0.18232	0.3526	0.12073	0.18291	0.21688	0.18114	0.23462	0.065207	0.12855	0.10411	0.15917	0.093091	0.2154	0.059606	0.15138	-2.0042	-3.1917	-2.3375	-2.8021	-3.15	-2.4042	-3.0229	-2.9708	-2.3896	-3.2854	-2.8729	-2.6958	-3.2167	-2.6646	-2.9313	-2.8854	162.375	117.521	83.824	-33.582	-44.377	142.730	160.035	-103.341	91.361	37.328	-141.925	32.228	197.035	156.209	21.947	126.515	0.00036866	0.00032061	0.00032678	1186.2	1.2049e-05	2.444e-06	733.46	491.36	7.2787e-06	9.0172e-06	315.59	126.43	198.77	77.475	1.0589e-05	53.762	0.0044325	0.0045508	0.0012662	1504.8	4.9209e-05	4.9254e-05	907.62	542.84	4.8135e-05	4.77e-05	398.18	154.36	236.67	86.131	4.6618e-05	66.472	196.878	153.642	-69.088	-130.071	4.097	-66.735	-131.649	-126.763	164.328	-50.604	-129.261	-126.663	-124.093	-120.217	122.293	-122.993	-8191	255	
4454.651	1	1	0	0	0.11625	0.19925	0.12343	0.18224	0.26941	0.11133	0.28494	0.06756	0.19243	0.074181	0.16424	0.21764	0.043932	0.22532	0.21068	0.30578	-1.8875	-3.3354	-2.5771	-2.65	-3.1667	-2.4813	-2.9854	-3.2167	-2.5104	-3.1833	-2.8563	-2.6292	-3.3667	-2.5583	-2.7062	-3.2646	30.199	-135.593	30.352	130.900	33.204	-62.855	96.557	178.195	132.423	-23.758	148.715	-122.519	105.803	117.353	111.119	171.580	0.00066572	0.00029254	0.00014968	1183.2	6.7729e-06	1.2349e-05	740.46	490.05	6.5612e-06	1.033e-05	314.28	125.67	198.91	77.521	4.7174e-06	53.791	0.0041058	0.0042901	0.001202	1488.8	4.7448e-05	4.7481e-05	900.79	539.45	4.6721e-05	4.692e-05	397.33	154.3	237.16	86.416	4.823e-05	67.309	184.479	79.014	-79.486	-130.095	26.176	40.571	-131.411	-126.510	5.116	193.787	-129.255	-126.931	-124.371	-120.247	59.357	-122.505	-8191	255	
4454.747	1	1	0	0	0.26758	0.1188	0.092791	0.04964	0.040113	0.39334	0.060651	0.21846	0.087657	0.19461	0.16575	0.29173	0.069111	0.16902	0.15275	0.12519	-2.1146	-3.05	-2.9083	-2.5896	-3.2875	-2.4292	-2.95	-3.3521	-2.3542	-3.0646	-3.1063	-2.4771	-3.1375	-2.8438	-2.6333	-3.425	84.814	-64.538	103.826	28.290	-108.423	213.990	-81.683	120.727	-88.683	-9.372	163.737	-125.154	-141.647	200.249	23.936	200.295	0.00082941	0.0007242	0.00011465	1191.7	1.5916e-05	1.3487e-05	739.3	492.96	9.2651e-06	8.7045e-06	316.69	127.16	198.02	77.693	1.8634e-06	54.179	0.0042633	0.0044744	0.0012525	1508.3	4.9288e-05	4.9859e-05	914.68	544.95	4.9814e-05	5.0383e-05	405.81	157.14	240.67	87.433	5.1475e-05	68.749	197.035	-20.685	-138.661	-129.752	-122.240	-33.437	-131.804	-126.564	-88.909	111.594	-129.102	-126.759	-123.952	-120.362	162.713	-122.950	-8191	255	
4454.843	1	1	0	0	0.060728	0.054247	0.15592	0.045756	0.21664	0.20754	0.32055	0.25435	0.16181	0.050985	0.10654	0.041613	0.035271	0.082332	0.27161	0.065883	-2.1188	-3.075	-2.8708	-2.3458	-3.1479	-2.7583	-2.9083	-3.4854	-2.4958	-2.9729	-3.1375	-2.4521	-3.3021	-2.8937	-2.6354	-3.2917	-37.036	23.186	186.413	76.026	-70.468	-72.030	158.843	124.581	32.449	-72.026	208.636	-133.047	-138.574	45.621	-51.336	183.201	0.00056564	0.0010988	0.00036708	1192.9	1.2476e-05	1.2563e-05	744.32	492.41	8.3488e-06	7.4829e-06	318.13	127.02	198.53	76.979	1.0108e-05	53.472	0.004546	0.004805	0.0013312	1528.3	5.1157e-05	5.0709e-05	920.14	545.4	4.8614e-05	4.8792e-05	402.98	155.71	238.82	86.381	4.8231e-05	66.9	194.514	-61.972	7.525	-130.167	-29.480	15.011	-131.254	-126.683	-36.149	129.137	-129.421	-126.672	-124.136	-120.191	48.607	-123.004	-8191	255	
4454.962	1	1	0	0	0.17708	0.26126	0.19603	0.13889	0.25703	0.26151	0.15255	0.18995	0.06359	0.40916	0.081705	0.15842	0.079287	0.25529	0.072823	0.24085	-2.0354	-2.8125	-3.1896	-2.4313	-3.2354	-2.8979	-2.5938	-3.5062	-2.3542	-2.775	-3.2208	-2.5917	-3.1354	-3.1375	-2.4896	-3.2458	186.489	33.424	88.109	106.394	79.451	-32.405	45.038	163.950	-142.428	10.065	189.252	97.942	170.483	164.982	204.517	187.585	0.00048193	0.0018528	0.00069525	1188.1	1.2832e-05	9.6745e-06	741.83	489.56	7.394e-06	6.9305e-06	316.17	126.14	198.38	77.477	1.0481e-05	53.751	0.0041594	0.0044031	0.0012223	1487.9	4.7394e-05	4.721e-05	905.86	540.66	4.7187e-05	4.8466e-05	400.78	155.16	238.19	86.298	4.8013e-05	66.544	-129.912	-10.670	-12.436	-129.951	-44.547	-12.738	-131.415	-126.443	-32.983	-10.591	-129.239	-127.053	-123.923	-120.110	-94.342	-123.574	-8191	255	
4455.058	1	1	0	0	0.27991	0.32948	0.28776	0.12477	0.23564	0.20345	0.18799	0.28352	0.07163	0.18355	0.062516	0.077768	0.012131	0.17303	0.12672	0.37747	-2.05	-2.7771	-3.0583	-2.6833	-2.9708	-3.0104	-2.5979	-3.3063	-2.4521	-2.7104	-3.275	-2.6188	-3.0604	-3.1083	-2.4979	-3.1604	-50.568	207.150	0.596	193.596	-48.626	96.652	11.941	143.999	-84.534	144.281	100.830	178.879	-109.602	-141.543	57.915	186.591	0.00049881	0.0010938	0.0002694	1180.8	9.6284e-06	2.1375e-06	738.02	490.48	2.538e-06	1.6637e-05	316.86	126.17	199.52	77.291	1.1101e-05	53.916	0.0040385	0.0042269	0.0011514	1465.8	4.4241e-05	4.4714e-05	891.52	536.38	4.443e-05	4.5688e-05	394.67	153.38	235.79	85.871	4.6068e-05	66.254	190.575	-12.428	-94.163	-130.145	153.515	-80.651	-131.651	-126.444	-74.533	81.583	-129.309	-127.046	-124.440	-120.071	107.597	-123.053	-8191	255	
4455.154	1	1	0	0	0.02461	0.021128	0.12742	0.071582	0.096484	0.21354	0.19714	0.2614	0.11653	0.095933	0.15037	0.34474	0.018977	0.31686	0.20148	0.093471	-2.2854	-2.7396	-3.0583	-2.3729	-2.8333	-2.9729	-2.4729	-3.2042	-2.6375	-2.4146	-3.3063	-2.6312	-2.7333	-3.2	-2.5229	-3.0646	59.075	-50.486	-41.985	200.324	203.842	-103.858	207.566	170.238	-143.109	192.474	-113.423	-139.977	-26.207	181.128	188.910	176.007	0.00061705	0.00044447	0.00040924	1190.6	5.3195e-06	1.3142e-05	742.43	491.19	3.4369e-06	1.1681e-05	315.99	127.81	199.62	77.422	1.6313e-05	54.123	0.0039329	0.0041591	0.0011322	1463.5	4.3872e-05	4.3348e-05	888.58	534.86	4.1944e-05	4.2901e-05	389.59	151.49	233	85.044	4.133e-05	65.055	172.725	148.982	-63.288	-129.909	-115.096	-30.217	-131.548	-126.437	-119.825	16.417	-129.184	-126.913	-124.108	-119.972	-88.962	-123.155	-8191	255	
4455.250	1	1	0	0	0.13169	0.096802	0.22096	0.33148	0.34655	0.22665	0.070749	0.21953	0.13141	0.15943	0.15628	0.12197	0.15743	0.27845	0.14048	0.23598	-2.2729	-2.2708	-3.0354	-2.5375	-2.8438	-2.975	-2.5563	-3.225	-2.8146	-2.5104	-3.2271	-2.6354	-2.7792	-3.2917	-2.5167	-3.05	-106.776	-82.132	-77.683	62.484	-65.303	146.917	-101.196	152.682	-136.810	-86.613	-45.366	146.927	110.581	207.234	-74.433	174.856	0.00063092	0.00086337	0.00010963	1200.1	1.2812e-05	3.8922e-06	743.01	492.03	5.3722e-06	7.2997e-06	316.35	126.96	199.42	76.831	1.7169e-05	54.003	0.0035008	0.0036617	0.00099743	1423.4	3.8431e-05	3.7912e-05	871	529.35	3.7007e-05	3.7685e-05	381.19	148.38	227.85	83.723	3.7132e-05	63.737	197.638	-31.647	198.430	-129.888	-9.680	68.984	-131.767	-126.662	-49.412	-0.686	-129.189	-127.164	-123.895	-120.019	-28.280	-122.913	-8191	255	
4455.347	1	1	0	0	0.071244	0.12372	0.11084	0.24458	0.16635	0.077478	0.096073	0.401	0.21622	0.20628	0.024619	0.22313	0.19011	0.21797	0.26841	0.17249	-2.4833	-2.3937	-3.0542	-2.6917	-2.5625	-3.1646	-2.6	-3.0917	-2.9542	-2.2604	-3.275	-2.8708	-2.6917	-3.5187	-2.4208	-3.0042	94.077	-125.496	-6.641	-122.408	193.976	195.309	-129.000	-138.067	123.380	170.474	46.127	30.200	119.525	182.926	-55.711	131.006	0.00057631	0.0016323	0.00033704	1190.9	2.8481e-06	7.2238e-06	739.93	490.42	8.8069e-06	9.1709e-06	316.76	126.23	198.05	76.985	3.2719e-06	53.765	0.0032132	0.0034249	0.00094266	1409.6	3.7548e-05	3.7441e-05	867.3	529.52	3.7815e-05	3.8866e-05	383.44	148.93	230.11	84.263	4.0065e-05	64.672	176.115	39.622	-121.335	-130.170	110.739	-52.313	-131.808	-126.429	81.401	175.240	-129.078	-126.789	-124.279	-120.011	-4.681	-123.166	-8191	255	
4455.443	1	1	0	0	0.11212	0.12691	0.072583	0.19168	0.074393	0.085969	0.12321	0.15133	0.23215	0.10548	0.12019	0.19178	0.11509	0.10468	0.25397	0.29479	-2.5208	-2.4021	-3.0563	-2.6167	-2.5333	-3.2125	-2.4604	-2.9479	-3.0104	-2.4458	-3.2958	-2.7917	-2.5438	-3.1958	-2.4104	-2.7333	-64.026	-114.171	17.309	163.911	76.124	178.461	-123.591	-116.881	-137.007	74.736	136.065	155.880	160.761	-80.045	-91.235	6.347	0.00047965	0.00061747	0.00018938	1190.6	1.147e-05	1.6545e-06	742.62	490.23	1.262e-05	8.0896e-06	314.95	126.52	198.24	76.936	1.6188e-05	53.848	0.0035548	0.0038094	0.0010523	1444.4	4.2275e-05	4.1891e-05	883.16	534.2	4.176e-05	4.2356e-05	388.22	150.43	231.12	84.383	4.1082e-05	65.039	177.836	75.643	-119.734	-130.139	-97.884	167.569	-131.625	-126.482	-80.296	99.217	-129.086	-127.144	-123.931	-120.147	90.730	-123.426	-8191	255	
4455.563	1	1	0	0	0.024946	0.36077	0.22715	0.063481	0.12973	0.098214	0.28287	0.19561	0.011724	0.17701	0.10053	0.21831	0.19659	0.25894	0.18991	0.045196	-2.7792	-2.3917	-2.9979	-2.8438	-2.4104	-3.2417	-2.5604	-2.8604	-3.0729	-2.3521	-3.1271	-2.975	-2.5667	-3.2375	-2.6667	-2.8208	-50.668	-81.315	191.779	84.286	-6.022	145.500	117.388	-140.366	6.212	14.874	90.493	194.118	190.456	155.536	-105.085	22.449	0.0005651	0.00078586	8.3621e-05	1192.9	1.0673e-05	1.7956e-05	741.78	491.5	1.6987e-05	1.1153e-05	318.67	126.7	198.99	76.965	4.5919e-06	54.162	0.0036322	0.0038697	0.0010733	1448.6	4.2597e-05	4.2085e-05	883.84	534.67	4.1158e-05	4.1727e-05	389.69	150.7	232	84.78	4.1741e-05	65.783	167.868	-28.199	28.198	-130.143	-39.508	15.132	-131.452	-126.575	-23.094	118.177	-129.580	-126.922	-124.037	-119.846	-59.231	-123.034	-8191	255	
4455.658	1	1	0	0	0.18333	0.19326	0.26683	0.38229	0.13365	0.1874	0.10906	0.17645	0.13276	0.18657	0.10944	0.15473	0.16742	0.42249	0.16198	0.060303	-2.6958	-2.4292	-2.8312	-3.0604	-2.4375	-3.1146	-2.8125	-2.7208	-3.1583	-2.575	-3.0958	-3.0479	-2.4104	-3.3333	-2.8042	-2.6854	-129.047	-1.133	198.230	175.150	109.809	-58.797	35.554	118.862	-110.848	124.638	91.755	60.106	-12.042	136.895	-108.020	-126.950	0.00081531	0.00048615	0.00025602	1185	1.2967e-05	1.3689e-05	744.73	492.25	7.8441e-06	1.1697e-05	317.51	127.45	197.84	77.137	1.0399e-05	53.937	0.0036897	0.003916	0.0010957	1454.1	4.3386e-05	4.2907e-05	890.77	536.53	4.1606e-05	4.1917e-05	390.71	151.27	230.64	84.483	4.0281e-05	64.951	189.998	-99.879	155.401	-129.701	-98.024	87.556	-131.376	-126.342	21.741	44.513	-129.109	-126.907	-124.181	-119.878	-35.718	-122.895	-8191	255	
4455.756	1	1	0	0	0.16967	0.28987	0.20213	0.13964	0.15957	0.14716	0.078897	0.26785	0.043295	0.079783	0.10544	0.16954	0.16631	0.15435	0.056887	0.1163	-2.7938	-2.5542	-2.7375	-3.2896	-2.45	-3.025	-2.9417	-2.7708	-3.3	-2.55	-2.9313	-3.3	-2.5542	-3.225	-2.9313	-2.5083	125.080	152.845	137.561	209.729	0.489	-109.335	180.573	156.124	61.109	185.438	-89.174	191.187	195.881	97.564	91.506	95.153	0.00051028	0.00092647	0.00017088	1177.5	1.5907e-05	7.0055e-06	739.65	488.97	8.2738e-06	9.8323e-06	313.97	125.73	197.52	76.284	6.3535e-06	53.404	0.0035204	0.0037037	0.0010432	1433.6	4.0897e-05	4.0493e-05	874.68	530.57	3.9456e-05	3.9703e-05	382.53	147.81	227.77	83.364	3.8389e-05	63.735	149.133	62.377	124.837	-130.081	-58.186	-88.350	-131.805	-126.434	36.453	125.362	-129.103	-126.957	-124.270	-119.776	-112.185	-123.270	-8191	255	
4455.850	1	1	0	0	0.21001	0.16252	0.098181	0.23396	0.063468	0.41964	0.21354	0.35319	0.062556	0.22712	0.17868	0.23182	0.35661	0.21766	0.13901	0.5032	-2.7333	-2.6208	-2.7625	-3.0625	-2.5208	-2.925	-3.0854	-2.6396	-3.0708	-2.6208	-2.6958	-3.2771	-2.5438	-3.1104	-3.0208	-2.5354	-21.915	-132.186	68.350	71.228	-133.164	69.815	171.351	174.014	-112.559	-11.788	26.016	110.389	212.945	197.900	118.610	-130.333	0.00052569	0.0012266	0.00029044	1185.6	6.253e-06	2.3365e-06	734.69	485.17	2.8439e-06	1.0348e-05	311.27	124.21	195.28	75.555	5.7821e-06	53.098	0.0033196	0.0034694	0.00097559	1407.3	3.6945e-05	3.6444e-05	854.21	521.08	3.4747e-05	3.4826e-05	371.19	143.75	221.48	81.718	3.4525e-05	62.284	170.767	-17.342	-130.759	-129.882	74.326	136.297	-131.722	-126.520	-31.074	-58.523	-128.700	-126.776	-124.243	-119.660	197.270	-122.637	-8191	255	
4455.946	1	1	0	0	0.051156	0.11141	0.14262	0.13287	0.1765	0.11813	0.13171	0.15836	0.079001	0.12507	0.18008	0.36038	0.28267	0.37451	0.2212	0.2803	-2.7729	-2.7146	-2.4083	-3.1917	-2.45	-2.9583	-3.0333	-2.5833	-3.1875	-2.6292	-2.6188	-3.0625	-2.4688	-2.9417	-3.1083	-2.4271	13.028	-36.838	210.625	183.610	22.144	-9.662	65.058	143.405	168.225	48.344	125.827	79.110	111.472	179.790	-96.673	122.040	0.0005934	0.0010034	0.00038964	1187.7	2.7796e-06	1.3531e-05	739.05	488.12	1.3182e-05	1.003e-05	315.24	124.86	197.19	75.721	1.0532e-05	53.303	0.0030227	0.0031291	0.00088144	1385	3.3794e-05	3.375e-05	849.65	519.68	3.3576e-05	3.4215e-05	373.83	144.45	222.19	82.07	3.4257e-05	62.525	187.943	-94.484	140.658	-129.860	-55.022	-10.992	-131.641	-126.650	-83.613	-39.569	-128.980	-126.710	-123.839	-119.686	-12.427	-122.656	-8191	255	
4456.042	1	1	0	0	0.17027	0.30259	0.27042	0.1095	0.25428	0.20159	0.31118	0.16511	0.092899	0.2054	0.21465	0.14728	0.22239	0.22443	0.18079	0.29693	-2.8042	-2.8438	-2.425	-3.2417	-2.4208	-2.95	-3.3604	-2.5833	-3.1125	-2.8688	-2.4292	-3.3458	-2.6771	-2.9917	-3.1271	-2.5854	-105.850	-52.856	68.629	213.320	146.835	184.935	-142.718	-143.268	148.414	149.415	-89.285	212.151	167.869	165.025	174.760	178.636	0.00059812	0.00012683	0.00030675	1182.4	9.1736e-07	2.0411e-05	742.82	488.59	1.8973e-05	6.6466e-06	317.07	126.41	196.95	76.135	8.0481e-06	53.402	0.0029872	0.0031631	0.00089438	1390.2	3.5096e-05	3.5914e-05	862.85	524.6	3.6712e-05	3.727e-05	381.62	147.57	225.87	82.998	3.7553e-05	63.518	168.224	-108.010	43.698	-130.026	93.833	46.881	-131.739	-126.449	-58.247	41.310	-128.724	-126.872	-124.168	-119.785	17.929	-122.793	-8191	255	
4456.139	1	1	0	0	0.32751	0.32588	0.086726	0.18805	0.21586	0.16435	0.074811	0.24609	0.09548	0.16238	0.17085	0.066541	0.12316	0.096756	0.16022	0.34371	-2.75	-2.9979	-2.425	-3.2229	-2.75	-2.6042	-3.1979	-2.7396	-2.7875	-2.9833	-2.5708	-3.1896	-2.775	-2.8479	-3.0854	-2.6188	-54.722	75.210	121.705	201.985	-127.678	-97.504	-132.637	145.927	-11.317	46.539	156.626	162.318	-67.243	200.030	213.746	155.542	0.00025945	0.0012705	0.00016968	1193.9	9.2118e-06	1.4582e-05	735.62	486.99	2.7203e-06	1.1364e-05	315.45	124.55	195.77	75.645	6.1722e-06	52.914	0.0032829	0.0034531	0.00097168	1417.1	3.8074e-05	3.8531e-05	864.21	524.14	3.7115e-05	3.7148e-05	377.34	145.49	222.9	82.053	3.4968e-05	62.177	170.767	-27.268	-49.171	-130.286	201.574	47.408	-131.505	-126.712	90.195	-104.040	-129.056	-126.742	-124.085	-119.867	112.730	-122.849	-8191	255	
4456.259	1	1	0	0	0.12804	0.15785	0.080406	0.2739	0.20233	0.21661	0.1943	0.31056	0.036758	0.12231	0.22111	0.46865	0.17401	0.20569	0.171	0.032832	-2.5917	-3.0167	-2.4167	-3.2417	-2.5667	-2.5875	-3.1042	-2.725	-2.9667	-2.9208	-2.4938	-3.1521	-2.875	-2.5167	-3.0104	-2.5917	117.436	183.016	114.482	197.479	-140.442	-16.508	-110.587	-124.567	170.437	-18.241	141.426	-141.670	170.645	-124.894	71.672	-130.444	0.00056082	0.0010984	0.00022632	1182.9	8.3429e-06	1.1698e-06	733.45	485.71	6.0718e-06	9.6278e-06	314.33	124.55	195.04	75.406	2.4931e-06	53.194	0.0030515	0.0031692	0.00088761	1386.7	3.4484e-05	3.4955e-05	851.94	519.98	3.4744e-05	3.4617e-05	373.06	144.37	221.74	82.009	3.5109e-05	62.791	166.323	-71.960	-53.395	-129.867	-30.532	-103.501	-131.589	-126.707	30.174	56.955	-129.174	-126.924	-124.025	-119.680	113.646	-122.785	-8191	255	
4456.355	1	1	0	0	0.14399	0.064097	0.24951	0.30847	0.14503	0.24121	0.14686	0.43563	0.16294	0.12071	0.11464	0.25561	0.085074	0.26227	0.06159	0.21155	-2.2396	-3.2708	-2.3063	-3.2417	-2.8104	-2.5208	-3.3438	-2.675	-2.6375	-3.1813	-2.4833	-3.0708	-2.9146	-2.6292	-3.0563	-2.7729	-27.917	-98.222	198.651	209.760	57.976	47.975	170.627	172.284	194.178	-121.159	105.697	123.946	180.796	164.554	64.298	135.228	0.00041055	0.00065512	0.00018661	1186.5	6.2037e-06	1.3935e-05	739.12	487.4	3.7054e-06	1.4532e-05	317.77	126	197.25	76.467	2.3485e-07	53.853	0.0031817	0.0033514	0.00094603	1410.9	3.7371e-05	3.8077e-05	866.97	525.74	3.7745e-05	3.7557e-05	380.57	147.5	225.61	83.232	3.6427e-05	63.677	192.795	-79.702	-126.520	-129.805	-92.269	16.315	-131.536	-126.624	124.377	55.555	-128.851	-126.803	-124.174	-119.699	76.530	-122.813	-8191	255	
4456.427	1	1	0	0	0.1293	0.12771	0.11594	0.31867	0.19526	0.19901	0.15117	0.16788	0.19907	0.13526	0.22762	0.17356	0.18717	0.20495	0.30929	0.063959	-2.2771	-3.125	-2.2687	-3.0625	-2.8521	-2.5	-3.2625	-2.8563	-2.425	-3.0021	-2.6125	-2.7917	-3.1229	-2.6875	-3.0271	-2.7021	43.641	206.861	100.519	102.555	-56.615	-0.584	86.086	169.040	-81.629	-0.000	130.554	-111.211	202.878	215.589	-80.920	184.495	0.00042552	0.0019465	0.00014772	1191.1	9.9784e-06	7.286e-06	744.37	490.29	3.271e-06	3.6665e-06	318.41	127.02	197.3	76.478	1.0206e-05	53.935	0.0032355	0.0033334	0.00093549	1409.2	3.6234e-05	3.6425e-05	863.2	524.2	3.5524e-05	3.4991e-05	376.45	146.75	223.69	82.773	3.4796e-05	63.452	175.385	-95.541	43.095	-130.289	-85.758	-45.061	-131.512	-126.373	-107.879	20.830	-129.094	-126.641	-124.067	-119.626	-50.156	-122.615	-8191	255	
4456.523	1	1	0	0	0.20235	0.085417	0.08001	0.32824	0.032949	0.14664	0.28367	0.3422	0.090186	0.14305	0.19453	0.18935	0.15457	0.10069	0.28088	0.19199	-2.1813	-3.1875	-2.4562	-2.7896	-3.1583	-2.4188	-3.0687	-3.0146	-2.3396	-3.2104	-2.6396	-2.925	-3.3792	-2.3708	-2.9771	-2.9292	-55.867	79.678	144.708	-97.126	27.873	-136.560	79.985	170.027	-30.692	56.990	109.729	-87.184	122.621	141.577	-69.192	205.927	0.00042127	0.0019673	0.00031146	1190.6	9.6977e-06	1.8027e-05	743.74	490.85	3.7857e-06	9.3243e-06	316.23	126.37	196.93	76.316	5.8356e-06	53.863	0.0031579	0.0033037	0.00092934	1412	3.6481e-05	3.7222e-05	869.51	527.16	3.7033e-05	3.6607e-05	378.81	147.57	225.27	82.874	3.6206e-05	63.32	195.037	-106.707	-17.850	-129.729	37.705	-48.512	-131.503	-126.398	-65.289	-8.605	-128.975	-126.824	-124.252	-119.765	7.506	-122.969	-8191	255	
4456.644	1	1	0	0	0.087735	0.14997	0.22585	0.22528	0.11185	0.1281	0.16657	0.28932	0.087686	0.10484	0.12286	0.20956	0.063094	0.077839	0.20611	0.27696	-2.0792	-3.2583	-2.4958	-2.6396	-3.0896	-2.4396	-3.1458	-3.2917	-2.3104	-3.1521	-2.7292	-2.6875	-3.1229	-2.6125	-2.8583	-3.0708	-106.051	-130.109	4.601	147.008	178.802	-101.100	184.544	171.782	203.453	108.166	133.578	86.169	-31.141	-62.467	10.854	-89.486	0.00011232	0.00067226	8.1294e-05	1188.5	1.5445e-05	1.4437e-05	743.04	491.1	7.9381e-06	1.1715e-06	317.34	127.23	198.13	76.494	4.3228e-06	53.678	0.0031865	0.003314	0.00092992	1409.5	3.6757e-05	3.7241e-05	868.99	527.64	3.7673e-05	3.7545e-05	381.26	148.93	226.83	83.219	3.7886e-05	63.856	159.539	-119.716	-18.064	-129.769	-34.666	-10.544	-131.568	-126.656	-42.868	-81.034	-129.131	-126.931	-123.760	-119.888	158.763	-123.011	-8191	255	
4456.738	1	1	0	0	0.069871	0.15103	0.23938	0.28284	0.078312	0.14652	0.18456	0.13195	0.22582	0.081437	0.06198	0.21165	0.27548	0.15983	0.14282	0.11439	-1.9625	-3.0167	-2.625	-2.5125	-2.9854	-2.3937	-2.9896	-3.2958	-2.35	-3.1792	-2.8083	-2.6437	-3.225	-2.6875	-2.8292	-3.0646	171.654	5.798	71.949	127.114	184.672	-137.835	213.247	195.238	59.018	150.832	125.579	-141.988	128.152	102.647	-19.837	46.370	0.00041702	0.0012401	0.00017814	1190.5	9.5238e-06	1.1339e-05	747.46	490.96	9.8439e-06	6.7215e-06	318.07	127.28	199.14	77.162	4.127e-06	54.279	0.0033079	0.0034326	0.00095683	1419.6	3.7455e-05	3.7971e-05	872.18	527.43	3.7684e-05	3.7711e-05	383.73	149.71	228.08	83.915	3.9134e-05	64.897	137.553	5.703	14.696	-129.805	-141.233	2.656	-131.538	-126.807	33.996	8.106	-129.343	-126.647	-124.192	-120.149	179.223	-122.845	-8191	255	
4456.836	1	1	0	0	0.29494	0.20954	0.014159	0.29337	0.22069	0.068142	0.18947	0.5033	0.34052	0.18423	0.2134	0.28088	0.10728	0.22722	0.12607	0.27547	-1.9854	-2.8917	-2.7875	-2.4813	-3.0687	-2.5771	-2.8146	-3.3021	-2.4167	-2.9583	-3.1729	-2.5708	-3.2542	-2.875	-2.5979	-3.1958	108.823	127.917	-8.602	-37.668	-72.870	154.943	171.923	202.668	28.261	165.592	146.481	109.081	124.563	-133.293	-126.448	39.248	0.00056284	0.00065624	0.00011224	1198	4.9829e-06	1.1725e-05	747.88	491.11	9.9977e-06	3.9533e-06	317.9	126.51	198.23	76.623	1.4676e-05	53.732	0.0034395	0.0035954	0.00098847	1432.7	3.9039e-05	3.9165e-05	878.64	529.4	3.8029e-05	3.8258e-05	383.33	148.95	226.11	83.15	3.7659e-05	63.893	189.249	-7.635	41.617	-130.316	27.150	-22.168	-131.375	-126.742	7.166	-97.664	-129.273	-127.028	-124.067	-119.910	-52.858	-122.656	-8191	255	
4456.955	1	1	0	0	0.17129	0.25709	0.26018	0.16324	0.15932	0.29986	0.24647	0.19717	0.38969	0.11344	0.10003	0.18508	0.17977	0.18175	0.088173	0.13302	-2.1083	-3.0479	-2.9313	-2.4417	-3.2292	-2.4833	-2.5812	-3.1833	-2.275	-2.7333	-2.9917	-2.3417	-3.1833	-2.925	-2.5208	-3.2354	45.189	-72.278	39.464	-84.493	-138.440	-115.214	141.924	188.045	95.624	-4.228	176.521	159.011	-130.613	-103.467	-134.757	199.046	0.00048102	0.0012253	0.00035785	1184.4	5.2252e-06	1.1037e-05	740.76	489.38	7.7296e-06	7.0901e-06	315.42	126.51	196.67	75.761	7.8193e-06	53.855	0.0032544	0.0033916	0.00095149	1415.4	3.7823e-05	3.8262e-05	873.99	527.79	3.9192e-05	4.0118e-05	384.68	149.77	228.08	83.47	4.1245e-05	64.676	175.513	-61.573	-46.727	-130.178	-44.448	-91.195	-131.760	-126.644	-26.915	-21.924	-128.948	-126.632	-124.268	-119.765	4.342	-122.886	-8191	255	
4457.051	1	1	0	0	0.0356	0.074647	0.10765	0.090502	0.16315	0.33701	0.1079	0.33382	0.11947	0.29996	0.2278	0.071067	0.34664	0.13711	0.24529	0.25177	-2.0896	-2.8354	-2.9833	-2.4958	-3.0104	-2.6521	-2.7812	-3.2438	-2.4125	-2.6167	-2.9958	-2.6042	-3.2188	-3.0396	-2.55	-3.25	50.841	171.342	-114.631	-37.392	161.014	-20.329	147.791	140.826	144.733	208.253	173.483	143.280	202.633	208.607	82.853	173.012	0.00036151	0.0014541	0.0002409	1185.3	7.865e-06	3.7657e-06	738.4	489.16	2.6846e-06	1.6074e-05	316.11	126.45	195.9	76.443	2.0754e-05	53.99	0.0035832	0.0037644	0.0010509	1439.5	4.169e-05	4.2316e-05	888.02	532.66	4.3576e-05	4.4851e-05	394.88	153.28	233.94	85.052	4.7047e-05	66.913	180.325	-37.161	-15.109	-130.072	48.838	197.571	-131.506	-126.589	-94.893	19.479	-129.249	-126.392	-124.458	-120.083	48.514	-122.722	-8191	255	
4457.123	1	1	0	0	0.17088	0.10607	0.204	0.029052	0.13268	0.23249	0.2556	0.46965	0.041386	0.11896	0.048085	0.067656	0.20886	0.13117	0.14518	0.30707	-2.225	-2.7479	-2.9917	-2.4813	-3.1063	-2.9	-2.525	-3.2125	-2.625	-2.6417	-3.0979	-2.5458	-3.0354	-3.2104	-2.3917	-3.3479	131.247	-59.889	72.260	19.374	-37.322	94.723	143.024	170.244	12.061	-50.924	-14.226	53.995	-141.526	191.534	-137.832	162.933	0.00037512	0.0013946	0.0004139	1192.3	5.9069e-06	1.5165e-05	743.22	488.86	2.2975e-05	6.4543e-06	316.43	126.07	195.73	76.432	1.2825e-05	54.089	0.0041561	0.0044097	0.0012201	1495.4	4.9167e-05	5.0225e-05	921.71	543.05	5.3345e-05	5.5363e-05	415.5	159.83	242.56	87.099	5.4864e-05	69.672	134.643	-134.699	-89.833	-130.273	-84.298	19.532	-131.412	-126.606	-60.282	-6.895	-129.348	-126.893	-124.142	-120.046	22.899	-123.147	-8191	255	
4457.243	1	1	0	0	0.030849	0.14384	0.085333	0.21665	0.12459	0.14094	0.30565	0.2629	0.056531	0.28027	0.066681	0.16775	0.18239	0.14832	0.18479	0.24349	-2.2708	-2.4958	-3.1813	-2.4708	-2.9354	-3.2083	-2.45	-3.4229	-2.6896	-2.4021	-3.2062	-2.4354	-2.8187	-3.1708	-2.3812	-3.2417	159.855	72.065	-88.694	71.914	-55.865	-103.883	103.449	-138.074	-95.659	193.947	183.188	30.243	183.301	175.359	-94.468	185.223	0.00061415	0.00098504	0.00059536	1186.2	8.4039e-06	9.8956e-06	746.83	483.66	1.2799e-05	1.4366e-05	317.45	126.97	197.25	77.202	1.4256e-05	54.526	0.0047921	0.0050848	0.0013959	1540.8	5.5665e-05	5.58e-05	944.08	548.04	5.7392e-05	5.9823e-05	426.75	164.49	252.23	90.04	6.6522e-05	73.7	191.905	-74.522	-52.594	-130.254	160.743	-52.991	-131.561	-126.493	-53.209	103.276	-129.128	-126.908	-124.096	-120.231	22.891	-123.160	-8191	255	
4457.340	1	1	0	0	0.10908	0.055788	0.17608	0.42795	0.21352	0.061187	0.17035	0.32087	0.18988	0.067969	0.10857	0.40895	0.37902	0.19829	0.21682	0.11009	-2.3083	-2.5042	-3.1458	-2.5896	-2.8292	-3.2354	-2.4813	-3.1688	-2.8812	-2.4938	-3.2438	-2.7938	-2.9021	-3.2833	-2.2917	-3.1125	-48.407	169.210	101.607	209.401	-134.020	-23.413	-120.996	185.872	-66.473	-94.853	143.553	153.239	204.514	-97.133	-74.216	-127.418	0.0003725	0.0022477	0.00047615	1195.2	2.4286e-06	2.3415e-05	747.74	484.45	8.1276e-06	1.4693e-05	311.68	124.99	194.78	76.358	4.3338e-06	53.57	0.0059415	0.0063408	0.0017548	1647.7	6.9058e-05	6.8471e-05	989.18	562.52	6.6174e-05	6.6972e-05	433.74	164.91	251.87	89.198	6.5825e-05	72.558	167.846	-17.477	6.691	-130.195	108.150	115.072	-131.740	-126.753	-136.689	79.242	-129.343	-127.114	-124.240	-120.372	26.285	-123.376	-8191	255	
4457.436	1	1	0	0	0.06229	0.14627	0.014562	0.12472	0.063103	0.083882	0.15634	0.3006	0.16169	0.19163	0.13842	0.21588	0.037638	0.21709	0.2177	0.18992	-2.5812	-2.2812	-3.0771	-2.9271	-2.6	-3.2	-2.5729	-3.1917	-3.05	-2.4375	-3.4979	-2.8854	-2.6979	-3.2625	-2.3896	-2.8729	-0.565	154.474	46.947	9.664	-128.972	171.445	153.645	123.055	-93.102	94.887	20.873	-139.947	-98.596	-138.895	15.494	178.113	0.00054141	0.0013603	0.00049724	1185.6	8.4065e-06	1.6035e-05	740.62	483.26	1.6502e-05	1.1446e-05	314.54	125.51	194.62	76.161	2.0604e-05	53.427	0.005795	0.0062541	0.001742	1646.5	7.0397e-05	7.0306e-05	991.71	563.43	6.7925e-05	6.8829e-05	437.01	165.86	252.45	88.98	6.2896e-05	71.217	172.223	42.168	23.683	-130.474	-143.978	-123.022	-131.501	-126.608	146.494	102.664	-129.235	-127.022	-124.033	-120.398	54.178	-123.164	-8191	255	
4457.556	1	1	0	0	0.29388	0.12541	0.25807	0.15434	0.076394	0.087566	0.12729	0.23524	0.21632	0.1345	0.30741	0.23719	0.2708	0.32183	0.22789	0.14918	-2.6229	-2.3542	-3.1854	-2.7292	-2.6667	-3.2438	-2.7687	-3.125	-3.0625	-2.4229	-3.1917	-2.8937	-2.5542	-3.3042	-2.6125	-2.9917	41.141	-78.552	176.873	-95.033	-39.309	118.467	184.207	195.208	-16.275	140.904	209.142	148.372	-129.490	155.626	43.933	79.723	0.00038586	0.0022153	9.0074e-05	1189.5	1.1418e-05	1.5031e-05	735.06	485.42	8.5495e-06	1.0672e-05	313.88	125.63	196.4	76.223	1.619e-05	53.815	0.0053169	0.0056298	0.0015517	1582.3	6.2002e-05	6.1516e-05	957.16	553.22	6.006e-05	6.0787e-05	422.95	161.23	245.78	87.608	5.7586e-05	70.242	187.333	-35.032	-116.080	-130.451	-31.214	141.602	-131.470	-126.524	-136.870	23.453	-128.945	-127.371	-123.993	-120.115	-25.037	-122.961	-8191	255	
4457.651	1	1	0	0	0.1217	0.058124	0.18433	0.10393	0.091733	0.15469	0.10436	0.16466	0.18161	0.14126	0.18764	0.079945	0.1337	0.25009	0.15978	0.1404	-2.7917	-2.3646	-2.8729	-2.9813	-2.4562	-3.2167	-2.7354	-2.9375	-3.2104	-2.5833	-3.3083	-2.95	-2.5979	-3.4021	-2.4292	-2.9917	59.438	-81.901	45.710	189.731	18.579	-86.312	-111.591	175.915	103.201	-121.783	152.767	187.874	207.877	209.398	44.230	176.877	0.00038819	0.0011427	0.00035178	1190.2	1.2991e-05	4.5696e-06	743.15	488.18	4.8729e-06	6.5856e-06	315.28	125.21	195.72	75.753	3.9624e-06	53.544	0.005006	0.0053056	0.001461	1551.7	5.7879e-05	5.776e-05	946.56	549.82	5.6246e-05	5.6683e-05	415.5	158.83	241.16	86.327	5.2627e-05	68.439	160.915	-134.423	-23.017	-130.173	12.512	89.516	-131.644	-126.720	31.446	31.227	-129.191	-127.090	-124.006	-119.915	-59.216	-123.034	-8191	255	
4457.722	1	1	0	0	0.16107	0.096848	0.16395	0.19672	0.12424	0.36772	0.33627	0.21722	0.075892	0.14846	0.26844	0.35082	0.1365	0.16825	0.16338	0.087013	-2.9125	-2.5563	-2.9354	-3.0333	-2.3229	-3.2167	-3.0229	-2.8146	-3.15	-2.5792	-3.0125	-3.2146	-2.5187	-3.275	-2.6104	-2.6417	-71.619	14.375	123.514	-93.539	2.722	124.112	197.999	167.740	45.719	-96.130	100.902	192.573	-24.544	207.608	77.689	-132.039	0.0002562	0.00053011	0.00023643	1187.9	7.3406e-06	7.7057e-06	738.05	482.67	1.3203e-05	5.517e-06	313.01	124.73	193.86	75.682	1.774e-05	53.143	0.0045411	0.0048304	0.0013515	1525.9	5.4414e-05	5.4224e-05	927.54	543.56	5.3427e-05	5.3711e-05	407.78	155.68	238.02	85.55	5.0895e-05	67.599	182.333	-26.851	-86.424	-130.257	42.257	15.388	-131.911	-126.597	13.495	-72.906	-128.876	-126.915	-124.109	-120.009	-78.931	-122.672	-8191	255	
4457.819	1	1	0	0	0.16549	0.11124	0.076292	0.13313	0.11063	0.12792	0.21684	0.42595	0.1742	0.11162	0.07961	0.31642	0.29669	0.087107	0.11407	0.27806	-2.7229	-2.4583	-2.6896	-3.1333	-2.4896	-3.1	-2.9354	-2.7729	-3.3187	-2.6167	-2.875	-3.3125	-2.5062	-3.1979	-3.0687	-2.5479	180.051	-100.887	42.226	-133.763	206.718	-35.533	97.332	164.705	-103.830	144.817	83.265	157.523	132.016	165.523	66.656	-0.921	0.00063212	0.0010815	0.00025534	1182.3	1.2262e-05	2.6351e-05	740.65	484.57	1.0215e-05	5.6501e-06	313.8	124.9	196.04	75.999	9.096e-06	54.033	0.0043865	0.00464	0.0012998	1503.9	5.1198e-05	5.1311e-05	916.59	539.8	5.1406e-05	5.2392e-05	407.58	156.73	239.72	86.269	5.2873e-05	68.707	163.492	-11.793	-98.942	-130.012	180.461	-49.068	-131.575	-126.485	207.180	194.317	-129.045	-126.903	-124.082	-119.941	75.662	-123.193	-8191	255	
4457.939	1	1	0	0	0.22947	0.083358	0.2244	0.38565	0.20214	0.12307	0.40651	0.24119	0.10413	0.10814	0.046954	0.19213	0.40665	0.25355	0.29585	0.25825	-2.85	-2.525	-2.8063	-3.3479	-2.2708	-3.0146	-3.0938	-2.5396	-3.0375	-2.7667	-2.7417	-3.2292	-2.6104	-3.1271	-3.0083	-2.5125	178.155	80.409	42.078	-117.790	-3.076	131.632	174.124	152.805	68.941	162.706	-92.183	203.527	170.292	207.113	112.827	146.849	0.00053021	0.0013354	9.6589e-05	1191.5	3.2543e-06	6.6007e-06	736.02	486.07	1.897e-05	3.1521e-06	314.99	126.64	197.21	76.423	1.0607e-05	53.93	0.0046133	0.0048362	0.0013567	1521.1	5.2476e-05	5.228e-05	919.48	541.46	5.1762e-05	5.227e-05	409.42	157.36	240.1	86.716	5.2141e-05	68.824	159.164	-38.157	196.398	-130.310	54.661	78.933	-131.644	-126.453	209.856	111.958	-129.163	-127.023	-124.249	-120.054	143.158	-122.987	-8191	255	
4458.035	1	1	0	0	0.23816	0.16469	0.23856	0.018546	0.30985	0.15202	0.11399	0.10181	0.14775	0.066872	0.20381	0.20781	0.17908	0.19653	0.1266	0.27266	-2.8479	-2.6771	-2.625	-3.2667	-2.4646	-2.8542	-3.0917	-2.6479	-3.1937	-2.6521	-2.7396	-3.2812	-2.4646	-2.9271	-3.1437	-2.4542	214.982	-108.579	-10.329	74.798	-129.899	-108.190	99.475	142.218	-117.557	203.213	162.305	179.717	180.892	-120.966	-69.802	141.297	0.00063022	0.0018484	0.00038716	1190	1.7218e-05	1.1745e-05	743.06	489.59	6.2504e-06	8.607e-06	315.97	127.13	195.75	76.647	1.616e-05	53.802	0.0045628	0.0047836	0.0013484	1523.6	5.2472e-05	5.2639e-05	924.84	544.12	5.1245e-05	5.1283e-05	408.1	156.64	236.81	85.848	4.9165e-05	67.771	148.732	-72.064	196.900	-130.140	21.714	-105.728	-131.687	-126.542	-73.213	-33.318	-128.828	-127.146	-124.201	-120.098	74.617	-122.854	-8191	255	
4458.132	1	1	0	0	0.27209	0.3469	0.062243	0.14713	0.093057	0.11949	0.040824	0.20374	0.099009	0.18226	0.12655	0.081638	0.2472	0.20134	0.25898	0.10623	-2.5083	-2.7229	-2.4688	-3.3771	-2.6708	-2.7313	-3.1583	-2.6479	-2.9313	-2.9208	-2.525	-3.2979	-2.6292	-2.7917	-3.1	-2.6729	-127.589	92.240	197.599	-17.530	9.193	158.881	107.961	170.618	168.474	14.252	192.170	195.762	146.787	59.940	-27.733	78.625	0.00035294	0.00017212	0.00018931	1189.7	1.2345e-06	1.0854e-05	739.36	484.31	4.0004e-06	6.3521e-06	313.27	125.54	194.78	75.405	1.0104e-06	53.314	0.0043533	0.0045705	0.0012903	1502	4.9653e-05	4.9797e-05	907.88	536.14	4.6953e-05	4.6559e-05	395.39	151.95	231.16	83.902	4.475e-05	65.548	140.447	157.951	14.938	-129.891	33.110	92.365	-131.486	-126.487	-32.386	-43.194	-129.100	-126.720	-123.747	-119.988	104.709	-122.912	-8191	255	
4458.228	1	1	0	0	0.18332	0.21574	0.095276	0.16642	0.19581	0.25299	0.099752	0.094287	0.064259	0.23542	0.27248	0.09965	0.11619	0.37689	0.095952	0.27348	-2.6271	-2.975	-2.3979	-3.1229	-2.525	-2.7083	-3.3771	-2.6458	-2.875	-3.0104	-2.4771	-3.25	-2.8354	-2.6688	-3.1396	-2.5708	93.961	-27.463	-111.845	-63.480	60.500	-109.176	114.227	190.356	211.784	51.023	191.314	-24.176	162.326	126.564	13.942	119.649	0.00053421	0.00179	0.00044003	1183	6.4015e-06	2.2249e-05	733.48	481.98	7.6771e-06	2.305e-05	313.65	124.82	195.56	75.639	8.5232e-06	53.512	0.003911	0.0040683	0.0011508	1458.6	4.4811e-05	4.5651e-05	891.6	530.76	4.5682e-05	4.6056e-05	395.68	152.39	233.09	84.6	4.6616e-05	66.371	184.466	-36.890	71.963	-130.208	-8.594	73.494	-131.822	-126.424	144.777	55.146	-129.037	-126.419	-123.880	-119.729	-38.157	-122.717	-8191	255	
4458.324	1	1	0	0	0.18111	0.056085	0.14349	0.16358	0.085818	0.02519	0.13001	0.21843	0.088056	0.03975	0.11732	0.21243	0.10672	0.081454	0.28472	0.18381	-2.5542	-3.0083	-2.2667	-3.1188	-2.8042	-2.5104	-3.2792	-2.6875	-2.7271	-2.9854	-2.3229	-3.0979	-2.9042	-2.6688	-3.0208	-2.4979	-105.410	-141.714	-25.598	133.603	-12.247	-26.050	30.645	153.697	-88.294	0.952	90.943	129.046	97.435	16.777	17.897	127.442	0.00041593	0.0012816	0.00018613	1183.8	1.0191e-05	1.2725e-05	735.74	485.19	6.6425e-06	4.1898e-06	314.24	126.56	196.14	76.508	1.0376e-05	54.072	0.0041032	0.0043029	0.0012115	1484.5	4.8029e-05	4.9503e-05	908.78	538.49	5.0192e-05	5.0706e-05	405.25	156.66	238.88	86.549	5.1224e-05	68.568	191.149	-13.000	122.172	-129.689	-21.377	142.143	-131.550	-126.545	-56.523	-22.719	-128.953	-126.794	-124.142	-119.992	-13.746	-123.166	-8191	255	
4458.420	1	1	0	0	0.20359	0.12643	0.014633	0.052194	0.19261	0.18502	0.27509	0.25355	0.051021	0.12805	0.17002	0.10044	0.22347	0.44817	0.070255	0.23187	-2.2521	-3.0062	-2.2646	-3.0687	-2.9833	-2.35	-3.3667	-2.7687	-2.5333	-3.1875	-2.4667	-3.2083	-3.0229	-2.5	-3.1521	-2.6188	22.952	-80.073	4.817	211.334	190.925	135.307	151.016	200.216	39.002	-56.820	62.968	-2.240	-140.715	177.841	41.233	79.570	0.00057971	0.0015194	0.00027091	1185.6	8.3884e-06	1.6513e-05	741.57	484.87	1.1695e-05	2.0954e-06	316.26	126.38	197.28	76.736	1.1444e-05	54.314	0.0044708	0.0046413	0.0013003	1504.5	4.9943e-05	5.0354e-05	911.96	538.23	4.927e-05	4.9202e-05	403.17	155.99	237.35	86.13	4.9314e-05	67.886	192.223	-84.814	-97.532	-129.954	-19.126	-60.585	-131.423	-126.621	-66.091	48.838	-128.878	-126.993	-124.433	-120.094	-28.863	-123.078	-8191	255	
4458.516	1	1	0	0	0.18077	0.1092	0.08035	0.077852	0.066737	0.20691	0.30905	0.2408	0.16098	0.066255	0.081949	0.23677	0.1467	0.3658	0.16433	0.1858	-2.2354	-3.2438	-2.4188	-2.9521	-2.8854	-2.375	-3.1417	-3	-2.5708	-3.1521	-2.7062	-3.0417	-3.1417	-2.5958	-2.9792	-2.7979	29.790	72.738	163.847	-118.152	-105.793	-45.396	163.507	156.615	-120.414	160.601	-10.709	-101.961	207.513	164.143	-105.683	164.547	0.00031353	0.001203	0.00028575	1178.3	3.732e-06	1.0397e-05	739.66	488.78	9.2406e-06	8.4089e-06	312.91	125.94	197.26	76.734	1.028e-05	54.091	0.004351	0.0045598	0.0012851	1506.3	5.0995e-05	5.2231e-05	922.99	544.73	5.2924e-05	5.3058e-05	409.95	158.06	240.81	86.844	5.2063e-05	68.555	175.148	-2.316	208.602	-130.033	-132.665	2.035	-131.434	-126.565	90.094	203.661	-129.230	-126.902	-124.098	-120.162	-115.751	-123.030	-8191	255	
4458.637	1	1	0	0	0.11273	0.33368	0.10516	0.19489	0.11092	0.16714	0.066968	0.083057	0.36611	0.28088	0.15764	0.13338	0.15688	0.16009	0.2014	0.3602	-2.0667	-3.0625	-2.5062	-2.9437	-3.0833	-2.4083	-3.0271	-3.1042	-2.5187	-3.1771	-2.7958	-2.8042	-3.2104	-2.6396	-3.0938	-3.0917	197.533	-40.150	-29.067	125.659	-50.024	29.302	0.523	148.406	76.765	62.511	202.412	184.932	164.721	195.998	-0.003	152.727	0.00030039	0.00077417	0.00036355	1183.7	8.4427e-06	1.8903e-05	743.95	488.1	5.5386e-07	3.432e-06	314.57	127.35	198.28	76.61	1.2893e-05	54.09	0.0045886	0.0047777	0.0013352	1521.3	5.2499e-05	5.3144e-05	924.71	544.03	5.2524e-05	5.2342e-05	408.47	158.23	240.45	86.688	5.1548e-05	68.443	190.067	116.799	-52.767	-129.971	-141.789	87.711	-131.438	-126.539	69.641	-26.346	-129.310	-126.964	-124.382	-120.208	-18.021	-123.407	-8191	255	
4458.731	1	1	0	0	0.24618	0.33034	0.21197	0.18959	0.087276	0.38951	0.14979	0.50572	0.062034	0.12233	0.029727	0.099467	0.20762	0.09447	0.12182	0.23768	-2.1646	-2.9854	-2.7771	-2.7	-3.0542	-2.4771	-3.0854	-3.0708	-2.4396	-3.0396	-2.7583	-2.5792	-3.0583	-2.6479	-2.8333	-3.0604	52.748	-14.986	-90.630	213.514	52.550	-84.956	91.456	143.086	71.439	175.719	79.535	-124.319	-71.716	186.718	187.525	102.764	0.00061364	0.001651	0.00028065	1183	5.1006e-07	1.4187e-05	738.23	487.06	1.0875e-05	7.1061e-06	315.43	127.21	196.46	76.915	4.3102e-06	54.377	0.0045787	0.0047671	0.0013201	1519.3	5.1824e-05	5.1944e-05	918.42	542.02	5.1059e-05	5.0725e-05	404.82	157.02	238.21	86.268	4.9278e-05	68.155	170.739	-124.413	33.244	-129.877	98.053	-3.037	-131.249	-126.451	-109.934	-142.783	-128.962	-126.801	-124.396	-120.165	152.513	-123.133	-8191	255	
4458.827	1	1	0	0	0.24119	0.11684	0.15094	0.18624	0.16337	0.11542	0.069115	0.15976	0.24763	0.13881	0.33007	0.10261	0.10174	0.23683	0.11753	0.15827	-1.9375	-3.1125	-2.675	-2.55	-3.1729	-2.4146	-2.9896	-3.2521	-2.4625	-2.9938	-2.8229	-2.5271	-3.2771	-2.7042	-2.6604	-3.0021	41.197	160.410	138.246	-63.382	37.433	-135.136	178.867	194.211	91.594	-2.692	156.076	19.380	169.932	198.053	-114.253	111.631	0.00047316	0.00086313	9.0739e-05	1189.9	1.0897e-05	9.307e-06	743.75	488	1.8232e-05	8.3314e-06	317.49	127.13	198.36	76.745	1.2522e-05	54.714	0.0043316	0.004536	0.0012545	1500.9	4.9034e-05	4.9091e-05	910.89	539.41	4.8154e-05	4.7941e-05	400.16	155.59	236.98	85.932	4.8704e-05	68.182	178.079	17.173	48.140	-129.694	-78.381	-42.961	-131.508	-126.568	-70.477	-38.768	-128.977	-126.834	-124.306	-120.282	-37.807	-123.133	-8191	255	
4458.923	1	1	0	0	0.16782	0.22662	0.17549	0.10541	0.07872	0.12035	0.22001	0.079864	0.0044981	0.10665	0.028086	0.18883	0.13538	0.15065	0.039057	0.28981	-2.0375	-2.9646	-2.9146	-2.5667	-3	-2.4333	-2.7833	-3.2583	-2.4437	-3.0917	-3.0729	-2.4917	-3.3292	-2.7875	-2.65	-3.2313	-96.715	-15.744	33.932	-137.096	7.054	-44.050	140.048	201.663	98.424	-88.316	198.250	-122.827	77.635	210.836	-136.489	176.242	0.00050043	0.00087777	0.00046073	1188.4	7.8077e-06	1.877e-05	739.32	488.8	2.3727e-06	7.6911e-06	313.44	127.55	197.93	76.64	7.3421e-06	54.129	0.0043256	0.004572	0.0012718	1504.8	4.994e-05	5.0211e-05	913.56	541.47	4.9461e-05	5.0039e-05	403.34	156.91	238.42	86.021	4.9554e-05	67.659	201.331	119.054	-108.369	-129.820	37.564	27.239	-131.420	-126.348	39.534	-53.619	-129.224	-127.109	-123.997	-120.330	-101.302	-123.213	-8191	255	
4459.020	1	1	0	0	0.23962	0.12657	0.24296	0.020531	0.15156	0.18957	0.26237	0.17081	0.14198	0.041856	0.18311	0.26061	0.23762	0.25748	0.15665	0.17203	-1.975	-2.8771	-3.0354	-2.5604	-3.1354	-2.7375	-2.6833	-3.3104	-2.4458	-2.8833	-3.0042	-2.5583	-3.1854	-2.7333	-2.6146	-3.2188	-61.378	-16.745	-62.500	-75.087	-69.000	-128.617	211.067	180.710	13.337	79.933	113.888	208.306	-129.876	197.962	20.104	130.820	0.00056874	0.00135	0.00037701	1186.8	1.353e-05	9.3029e-06	736.95	487.32	2.1862e-05	1.2659e-05	315.5	126.43	197.93	76.672	9.3894e-06	54.206	0.0042583	0.004442	0.0012272	1487.6	4.7757e-05	4.7774e-05	904.04	538.24	4.7893e-05	4.8855e-05	401.27	155.92	237.65	85.726	4.8843e-05	67.541	185.200	-21.901	-56.101	-129.941	-38.876	24.363	-131.360	-126.559	64.588	86.229	-129.149	-126.888	-124.432	-120.192	30.083	-122.982	-8191	255	
4459.116	1	1	0	0	0.10258	0.077363	0.25211	0.18876	0.14252	0.087058	0.2444	0.16752	0.16317	0.13576	0.26028	0.04916	0.15479	0.24227	0.096409	0.12528	-2.175	-2.7292	-2.9604	-2.5021	-3.1521	-2.7667	-2.6646	-3.3208	-2.5979	-2.9646	-3.1917	-2.5271	-3.1667	-3.1271	-2.3479	-3.4167	92.799	127.290	-47.100	197.241	82.504	-0.199	146.821	133.455	-47.360	5.809	135.544	71.552	203.335	162.267	-22.643	158.948	0.00042535	0.0024106	0.00018729	1182.6	5.0096e-06	1.2919e-05	740.92	489.31	6.8236e-06	4.2948e-06	316.07	127.47	197.93	77.095	3.3906e-06	54.662	0.0042021	0.0044683	0.0012323	1494.1	4.8645e-05	4.8578e-05	910.66	540.48	4.8529e-05	4.9422e-05	403.13	156.86	238.79	86.382	4.8863e-05	68.267	185.567	-41.265	-132.027	-129.924	45.187	-82.258	-131.482	-126.541	-30.631	181.727	-129.023	-127.053	-124.048	-120.140	-27.908	-122.965	-8191	255	
4459.236	1	1	0	0	0.16285	0.090433	0.16214	0.19601	0.17466	0.12329	0.1015	0.14987	0.30116	0.11681	0.13923	0.24903	0.16846	0.2831	0.088519	0.16777	-2.2583	-2.6167	-3.3083	-2.4188	-2.9896	-2.9333	-2.5104	-3.2812	-2.7	-2.7083	-3.2646	-2.5583	-3.0062	-3.2396	-2.4604	-3.4104	148.173	-140.427	147.165	162.664	122.228	-47.161	86.227	145.657	142.549	-95.175	174.892	173.596	112.382	170.063	45.322	121.449	0.00060426	0.0010825	0.00021288	1189.1	8.6e-06	1.1438e-05	745.43	492.42	1.8573e-05	4.0624e-06	320.68	129.23	200.46	77.504	1.1855e-05	54.907	0.0042054	0.0044792	0.0012333	1494.5	4.8576e-05	4.8682e-05	915.2	543.07	4.8119e-05	4.932e-05	406.23	157.68	239.43	86.602	4.8583e-05	68.185	182.539	65.312	177.561	-129.957	175.649	17.700	-131.408	-126.525	-92.040	-32.975	-129.188	-126.861	-123.998	-120.132	27.349	-123.186	-8191	255	
4459.333	1	1	0	0	0.1049	0.078444	0.20872	0.12061	0.18358	0.2945	0.056547	0.34401	0.056595	0.2408	0.04901	0.15223	0.23225	0.39911	0.087074	0.22766	-2.3875	-2.6333	-3.2958	-2.65	-2.9562	-3.0312	-2.5583	-3.2854	-2.9021	-2.6375	-3.3292	-2.6104	-2.9458	-3.4333	-2.325	-3.2729	-44.777	123.980	73.716	93.323	163.640	60.710	188.413	209.472	-119.243	1.801	155.175	183.810	134.580	177.338	156.636	100.230	0.00030654	0.00069668	0.00051357	1186.9	6.4089e-06	1.9811e-05	737.23	489.69	3.3737e-06	2.1432e-06	319.66	127.07	198.89	76.983	9.2415e-06	54.604	0.004219	0.0045153	0.0012593	1502.8	5.026e-05	5.0323e-05	919.36	544.07	4.9365e-05	5.0216e-05	405.84	156.76	239.3	86.189	4.8842e-05	67.902	177.227	-120.942	65.038	-130.101	4.725	-58.427	-131.529	-126.549	-122.881	213.395	-128.969	-126.890	-123.849	-119.705	16.399	-122.640	-8191	255	
4459.429	1	1	0	0	0.084963	0.15029	0.09828	0.28343	0.27594	0.22444	0.18128	0.41875	0.24116	0.18782	0.22078	0.3083	0.10302	0.26657	0.1866	0.092858	-2.4271	-2.6083	-3.0625	-2.7396	-2.6958	-3.2646	-2.4396	-3.2417	-2.9167	-2.3438	-3.2417	-2.7917	-2.8125	-3.5292	-2.5333	-3.225	109.682	13.584	-108.071	193.045	90.803	197.016	166.013	159.589	-44.079	196.392	-120.414	-119.428	204.463	-142.225	-11.527	-29.118	0.00035877	0.00083797	0.00024363	1189.4	3.1041e-06	7.0652e-06	739.93	488.3	8.9407e-06	1.407e-05	315.03	127.25	198.25	76.715	1.0164e-05	54.518	0.0042081	0.0044651	0.0012276	1489.1	4.8079e-05	4.7889e-05	904.36	539.06	4.6989e-05	4.808e-05	399.84	155.05	237.45	85.745	4.8127e-05	68.016	188.063	37.725	-100.075	-129.386	37.387	194.457	-131.157	-126.229	-99.660	60.758	-128.465	-126.590	-124.132	-119.771	-38.001	-122.585	-8191	255	
4459.525	1	1	0	0	0.081186	0.025752	0.14965	0.21672	0.19166	0.10062	0.10411	0.22938	0.037786	0.21077	0.20949	0.18364	0.10869	0.12527	0.09887	0.12759	-2.4583	-2.5312	-3.125	-2.8271	-2.7	-3.2438	-2.8042	-3.1146	-2.95	-2.5021	-3.4396	-2.725	-2.8	-3.3937	-2.5354	-2.8396	3.139	98.762	201.964	158.483	123.508	114.349	188.927	186.602	21.174	120.588	177.498	-109.887	24.924	153.564	7.140	162.864	0.0002319	0.00053935	0.00057787	1189.1	1.4727e-05	7.5526e-06	735.75	489.83	2.0099e-05	1.5097e-05	317.25	127.76	198.49	76.732	1.9483e-05	55.057	0.0042366	0.0045569	0.0012634	1497.4	5.022e-05	4.9898e-05	912.04	542.7	4.8955e-05	4.9873e-05	404.48	156.63	239.38	86.257	4.8918e-05	68.541	176.165	85.622	-81.689	-130.114	-37.286	85.737	-131.641	-126.229	-105.913	-53.711	-128.631	-126.651	-123.445	-119.675	45.112	-122.489	-8191	255	
4459.621	1	1	0	0	0.28836	0.1457	0.14667	0.15388	0.27641	0.054499	0.19927	0.26107	0.13554	0.12919	0.40623	0.021614	0.40118	0.25508	0.30794	0.20201	-2.7521	-2.5208	-3.0417	-2.8688	-2.5021	-3.2042	-2.6771	-3.0875	-3.1	-2.4562	-3.0958	-2.9896	-2.5542	-3.25	-2.4729	-2.8292	31.012	111.071	190.335	-128.727	-81.604	-26.983	-106.696	135.814	-90.977	-120.317	185.253	30.988	201.168	192.382	206.297	201.152	0.00050058	0.00055587	0.00024286	1192.3	5.7264e-06	5.198e-06	741.96	492.22	1.3155e-05	1.033e-05	317.45	128.05	199.3	76.931	2.5089e-05	54.994	0.0042969	0.0045649	0.001264	1500.9	5.0382e-05	5.0043e-05	918.75	545.44	5.0077e-05	5.0965e-05	408.67	157.72	241.37	86.607	4.9832e-05	68.723	161.963	15.776	-122.741	-129.709	-143.212	-56.433	-130.901	-125.878	-83.225	134.933	-128.481	-126.544	-123.558	-119.775	15.340	-122.669	-8191	255	
#DATA ENDS
