BOXY.EXE: ISS Imagent and Oximeter Data Acquisition Program Version 0.80
Ascii Record File

#ACQ INFORMATION
2  Detector Channels 
16  External MUX Channels 
1  Auxiliary Channels 
5000  Waveform (CCF) Frequency (Hz)
1  Waveforms Skipped 
30  Waveforms Averaged 
1  Cycles Averaged 
16  Acquisitions per Waveform 
10.0806  Updata Rate (Hz) 

#FILE INFORMATION
TRUE -- External MUX Channel results are PARSED.
FALSE -- AC DC and Phase are NOT grouped.
TRUE -- Companion Program Settings File CREATED.
FALSE -- AC data not excluded
FALSE -- DC data not excluded
FALSE -- Phase data not excluded
FALSE -- Auxillary Chn. data not excluded
Tab delimiters

#CALIBRATION STATE
TRUE -- Waveform Calibration Values APPLIED.


#AUX CALIBRATION VALUES
Val Type	aux-1	

Term	1.0000e+00	
Factor	0.0000e+00	


#WF CALIBRATION VALUES
A = Detector Channel
Val Type	A-AC1	A-AC2	A-AC3	A-AC4	A-AC5	A-AC6	A-AC7	A-AC8	A-AC9	A-AC10	A-AC11	A-AC12	A-AC13	A-AC14	A-AC15	A-AC16	A-DC1	A-DC2	A-DC3	A-DC4	A-DC5	A-DC6	A-DC7	A-DC8	A-DC9	A-DC10	A-DC11	A-DC12	A-DC13	A-DC14	A-DC15	A-DC16	A-Ph1	A-Ph2	A-Ph3	A-Ph4	A-Ph5	A-Ph6	A-Ph7	A-Ph8	A-Ph9	A-Ph10	A-Ph11	A-Ph12	A-Ph13	A-Ph14	A-Ph15	A-Ph16	

Term	0.00000e+00	0.00000e+00	0.00000e+00	0.00000e+00	0.00000e+00	0.00000e+00	0.00000e+00	0.00000e+00	0.00000e+00	0.00000e+00	0.00000e+00	0.00000e+00	0.00000e+00	0.00000e+00	0.00000e+00	0.00000e+00	0.00000e+00	0.00000e+00	0.00000e+00	0.00000e+00	0.00000e+00	0.00000e+00	0.00000e+00	0.00000e+00	0.00000e+00	0.00000e+00	0.00000e+00	0.00000e+00	0.00000e+00	0.00000e+00	0.00000e+00	0.00000e+00	0.00000e+00	0.00000e+00	0.00000e+00	0.00000e+00	0.00000e+00	0.00000e+00	0.00000e+00	0.00000e+00	0.00000e+00	0.00000e+00	0.00000e+00	0.00000e+00	0.00000e+00	0.00000e+00	0.00000e+00	0.00000e+00	
Factor	1.00000e+00	1.00000e+00	1.00000e+00	1.00000e+00	1.00000e+00	1.00000e+00	1.00000e+00	1.00000e+00	1.00000e+00	1.00000e+00	1.00000e+00	1.00000e+00	1.00000e+00	1.00000e+00	1.00000e+00	1.00000e+00	1.00000e+00	1.00000e+00	1.00000e+00	1.00000e+00	1.00000e+00	1.00000e+00	1.00000e+00	1.00000e+00	1.00000e+00	1.00000e+00	1.00000e+00	1.00000e+00	1.00000e+00	1.00000e+00	1.00000e+00	1.00000e+00	X	X	X	X	X	X	X	X	X	X	X	X	X	X	X	X	

B = Detector Channel
Val Type	B-AC1	B-AC2	B-AC3	B-AC4	B-AC5	B-AC6	B-AC7	B-AC8	B-AC9	B-AC10	B-AC11	B-AC12	B-AC13	B-AC14	B-AC15	B-AC16	B-DC1	B-DC2	B-DC3	B-DC4	B-DC5	B-DC6	B-DC7	B-DC8	B-DC9	B-DC10	B-DC11	B-DC12	B-DC13	B-DC14	B-DC15	B-DC16	B-Ph1	B-Ph2	B-Ph3	B-Ph4	B-Ph5	B-Ph6	B-Ph7	B-Ph8	B-Ph9	B-Ph10	B-Ph11	B-Ph12	B-Ph13	B-Ph14	B-Ph15	B-Ph16	

Term	0.00000e+00	0.00000e+00	0.00000e+00	0.00000e+00	0.00000e+00	0.00000e+00	0.00000e+00	0.00000e+00	0.00000e+00	0.00000e+00	0.00000e+00	0.00000e+00	0.00000e+00	0.00000e+00	0.00000e+00	0.00000e+00	0.00000e+00	0.00000e+00	0.00000e+00	0.00000e+00	0.00000e+00	0.00000e+00	0.00000e+00	0.00000e+00	0.00000e+00	0.00000e+00	0.00000e+00	0.00000e+00	0.00000e+00	0.00000e+00	0.00000e+00	0.00000e+00	-1.12345e+02	-1.37161e+02	-1.31167e+02	-1.83169e+02	-9.45150e+01	-7.80345e+01	-1.55719e+02	-1.62015e+02	-6.55484e+01	-8.29813e+01	-1.70692e+02	-1.70536e+02	-1.79718e+02	-1.76304e+02	-8.62091e+01	-1.48491e+02	
Factor	1.50476e-05	1.06357e-04	3.06640e-05	2.10223e-01	9.59748e-07	1.05913e-06	1.63091e-01	5.79667e-02	7.58040e-07	1.09422e-06	8.94289e-02	2.80098e-02	2.56570e-02	8.80702e-03	1.17703e-06	1.27492e-02	9.29018e-07	9.65646e-07	2.68023e-07	9.69350e-02	1.05161e-08	1.05549e-08	7.14807e-02	2.69272e-02	1.05502e-08	1.05421e-08	3.97110e-02	1.25644e-02	1.19377e-02	4.07084e-03	1.04911e-08	5.65814e-03	X	X	X	X	X	X	X	X	X	X	X	X	X	X	X	X	



#DISTANCE SETTINGS
A = Detector Channel
A-1	A-2	A-3	A-4	A-5	A-6	A-7	A-8	A-9	A-10	A-11	A-12	A-13	A-14	A-15	A-16	

2.5000e+00	3.0000e+00	2.5000e+00	3.0000e+00	2.0000e+00	3.0000e+00	1.5000e+00	3.0000e+00	3.0000e+00	3.0000e+00	3.0000e+00	3.0000e+00	3.0000e+00	3.0000e+00	1.5000e+00	3.0000e+00	

B = Detector Channel
B-1	B-2	B-3	B-4	B-5	B-6	B-7	B-8	B-9	B-10	B-11	B-12	B-13	B-14	B-15	B-16	

1.0000e+01	1.0000e+01	1.0000e+01	1.4400e+00	1.0000e+01	1.0000e+01	1.5100e+00	1.9400e+00	1.0000e+01	1.0000e+01	1.9900e+00	2.4900e+00	2.4100e+00	2.9000e+00	1.0000e+01	2.9800e+00	




#DATA BEGINS
time	group	step	mark	flag	A-AC1	A-AC2	A-AC3	A-AC4	A-AC5	A-AC6	A-AC7	A-AC8	A-AC9	A-AC10	A-AC11	A-AC12	A-AC13	A-AC14	A-AC15	A-AC16	A-DC1	A-DC2	A-DC3	A-DC4	A-DC5	A-DC6	A-DC7	A-DC8	A-DC9	A-DC10	A-DC11	A-DC12	A-DC13	A-DC14	A-DC15	A-DC16	A-Ph1	A-Ph2	A-Ph3	A-Ph4	A-Ph5	A-Ph6	A-Ph7	A-Ph8	A-Ph9	A-Ph10	A-Ph11	A-Ph12	A-Ph13	A-Ph14	A-Ph15	A-Ph16	B-AC1	B-AC2	B-AC3	B-AC4	B-AC5	B-AC6	B-AC7	B-AC8	B-AC9	B-AC10	B-AC11	B-AC12	B-AC13	B-AC14	B-AC15	B-AC16	B-DC1	B-DC2	B-DC3	B-DC4	B-DC5	B-DC6	B-DC7	B-DC8	B-DC9	B-DC10	B-DC11	B-DC12	B-DC13	B-DC14	B-DC15	B-DC16	B-Ph1	B-Ph2	B-Ph3	B-Ph4	B-Ph5	B-Ph6	B-Ph7	B-Ph8	B-Ph9	B-Ph10	B-Ph11	B-Ph12	B-Ph13	B-Ph14	B-Ph15	B-Ph16	aux-1	digaux	

2400.857	1	1	0	256	0.21994	0.1204	0.1034	0.291	0.23089	0.23588	0.071236	0.17756	0.21707	0.045752	0.38032	0.32085	0.22164	0.11418	0.14992	0.1186	-3.9167	-4.85	-4.5833	-4.2979	-4.9354	-4.1854	-4.7875	-4.9875	-3.95	-4.9542	-4.525	-4.1312	-5.15	-4.3708	-4.4042	-5.1396	-28.698	164.336	7.716	-91.459	-76.984	134.928	111.207	-102.395	193.995	-83.904	137.459	176.603	-53.822	-116.651	183.075	-53.828	9.9905e-05	0.00057988	4.5725e-05	1002.3	3.4403e-06	1.8339e-06	1096.1	207.96	6.0933e-07	2.5407e-06	262.13	74.965	58.395	17.447	2.8589e-06	24.452	0.00022708	0.00023003	6.4153e-05	965.92	2.5246e-06	2.5804e-06	1066.1	204.33	2.6045e-06	2.5867e-06	256.16	74.477	58.191	17.53	2.5204e-06	24.459	217.386	-42.306	-30.757	-121.215	28.123	180.265	-121.160	-113.816	180.895	21.428	-114.184	-107.894	-107.278	-99.714	-10.992	-99.691	-8191	255	
2400.976	1	1	0	0	0.055364	0.070152	0.23911	0.19196	0.02052	0.08565	0.25449	0.10482	0.28195	0.12569	0.12912	0.12493	0.097335	0.24697	0.035548	0.22262	-3.7958	-4.65	-4.8167	-4.3271	-4.9812	-4.4	-4.4938	-5.0062	-4.0521	-4.6604	-4.8958	-4.1854	-4.9771	-4.5125	-4.3438	-5.0813	183.025	216.295	-99.087	202.103	203.723	-13.098	163.618	193.037	143.362	-44.034	137.054	1.612	183.148	82.041	213.623	67.594	0.00014264	2.6215e-05	0.00010159	1001.8	1.8527e-06	9.3557e-08	1089.9	209.27	1.8385e-06	2.4502e-06	262.42	74.417	58.89	17.56	4.31e-06	24.445	0.00022753	0.00023179	6.2516e-05	965.82	2.5056e-06	2.5008e-06	1063.8	204.06	2.498e-06	2.5149e-06	256.02	74.228	58.165	17.522	2.5039e-06	24.526	206.103	-96.939	30.352	-121.345	-112.078	31.726	-120.811	-113.974	7.909	-22.024	-113.662	-108.295	-107.213	-99.756	206.068	-100.194	-8191	255	
2401.072	1	1	0	0	0.036782	0.34256	0.057377	0.20631	0.055307	0.11264	0.34899	0.089595	0.13429	0.14015	0.12943	0.1496	0.17095	0.17323	0.071433	0.11735	-3.9083	-4.6271	-5.0375	-4.3208	-5.0083	-4.4833	-4.4688	-5.1167	-4.175	-4.5792	-4.8625	-4.1396	-4.9375	-4.5437	-4.125	-5.0083	179.973	-91.022	51.733	-80.276	153.003	176.786	142.265	8.065	210.159	156.205	-91.496	-122.771	56.562	122.412	-2.707	93.610	0.00015895	0.00027319	0.00012053	1008	3.7921e-06	1.4393e-06	1097.7	207.28	2.5302e-06	2.3639e-06	262.91	74.512	58.468	17.487	1.9724e-06	24.461	0.0002273	0.00023192	6.3213e-05	968.28	2.5444e-06	2.5156e-06	1066.3	203.8	2.6081e-06	2.572e-06	256.12	74.45	58.385	17.588	2.5198e-06	24.522	-120.583	-62.338	-22.680	-121.495	-62.866	55.999	-121.210	-114.205	59.266	-52.412	-114.158	-108.006	-107.104	-100.167	-84.792	-100.174	-8191	255	
2401.169	1	1	0	0	0.17866	0.094414	0.10805	0.12606	0.15196	0.15083	0.24916	0.1103	0.086313	0.21997	0.15506	0.14678	0.051101	0.24819	0.14933	0.12636	-3.9896	-4.4979	-4.8958	-4.1042	-4.7896	-4.5792	-4.4271	-4.9688	-4.2333	-4.5792	-5.0437	-4.1417	-4.8333	-4.7542	-4.3896	-4.9729	-25.821	166.473	85.263	62.140	94.593	169.976	142.523	-60.930	94.526	-100.113	213.722	-112.648	-49.389	68.563	-75.347	98.130	0.00015697	0.00035278	6.6602e-05	1007.1	4.1482e-06	2.1424e-06	1105.7	209.88	1.7532e-06	2.2788e-06	263.4	74.647	58.787	17.492	2.028e-06	24.637	0.00022586	0.00022556	6.2059e-05	968.67	2.4463e-06	2.4254e-06	1068.8	204.44	2.4195e-06	2.412e-06	255.27	74.111	58.151	17.472	2.389e-06	24.501	205.794	15.733	-35.749	-121.655	-27.067	-9.746	-121.477	-114.308	17.350	151.538	-114.379	-107.865	-107.435	-100.296	57.136	-99.889	-8191	255	
2401.265	1	1	0	0	0.069415	0.27411	0.031679	0.12928	0.097134	0.22328	0.28289	0.1246	0.021088	0.12413	0.032305	0.29234	0.09863	0.20153	0.029552	0.17612	-4.1167	-4.3604	-4.9938	-4.3125	-4.7583	-4.75	-4.3688	-4.9771	-4.2312	-4.4521	-5.1312	-4.275	-4.7688	-4.8063	-4.0375	-4.9896	148.846	61.065	30.861	72.965	204.450	19.453	120.667	127.773	12.694	169.875	-10.702	123.350	195.040	-93.395	-120.219	48.774	7.4444e-05	9.3298e-05	0.00011069	1004.4	3.7135e-06	2.8011e-06	1093.9	206.65	1.7271e-06	4.0766e-06	262.06	75.518	58.164	17.577	3.8906e-06	24.295	0.00021838	0.00022232	6.1277e-05	967.24	2.4543e-06	2.3974e-06	1065.1	203.36	2.3979e-06	2.4117e-06	254.99	74.286	57.856	17.437	2.3112e-06	24.458	-117.526	169.176	-37.614	-121.140	5.941	34.679	-121.370	-113.977	-30.914	20.198	-113.899	-107.911	-107.512	-99.337	8.231	-100.190	-8191	255	
2401.361	1	1	0	0	0.11054	0.22355	0.076464	0.21569	0.19144	0.10733	0.19171	0.21215	0.17203	0.030961	0.033817	0.049707	0.11581	0.019626	0.11265	0.11721	-4.2896	-4.4833	-5.0021	-4.3313	-4.4375	-4.7646	-4.2812	-5.0292	-4.5208	-4.2708	-5.0062	-4.2417	-4.5312	-5.0188	-4.0021	-4.9	195.291	160.634	216.347	32.345	101.683	-83.000	-58.572	147.075	82.013	85.635	213.249	-97.457	109.539	153.683	42.922	-87.837	0.00012007	4.2419e-05	4.7979e-05	1004.1	1.3406e-06	6.2133e-06	1095.2	209.45	3.893e-06	4.3206e-06	260.92	75.058	57.837	17.483	5.663e-06	24.363	0.00020782	0.00021606	5.8513e-05	964.95	2.3292e-06	2.2726e-06	1064.2	203.91	2.2883e-06	2.2986e-06	254.11	74.034	57.746	17.354	2.1903e-06	24.335	194.173	-20.327	224.871	-121.060	-99.474	3.427	-121.162	-113.744	-19.101	-15.098	-113.934	-107.656	-107.273	-99.778	-24.620	-100.230	-8191	255	
2401.457	1	1	0	0	0.18902	0.20519	0.24386	0.070418	0.15701	0.12109	0.23029	0.059351	0.077595	0.037583	0.15104	0.066979	0.099427	0.057557	0.17531	0.050439	-4.4542	-4.1604	-5.0437	-4.2167	-4.4229	-4.85	-4.2937	-4.9875	-4.7875	-4.2375	-5.2354	-4.3375	-4.4583	-4.9958	-4.1417	-4.6813	212.347	135.077	148.184	17.716	-68.214	-103.771	178.155	-0.036	168.300	210.631	48.810	203.630	-94.810	-90.545	70.664	-19.088	0.00011336	0.00029526	7.3896e-05	998.81	2.3816e-06	6.9795e-06	1093.2	206.13	1.7225e-06	6.4763e-06	261.24	74.682	58.073	17.351	2.7234e-06	24.248	0.00019955	0.00019592	5.3358e-05	960.78	2.1484e-06	2.1056e-06	1058.8	202.27	2.0526e-06	2.0788e-06	252.98	73.537	57.282	17.221	1.9872e-06	24.16	-124.578	3.790	226.485	-121.283	199.251	1.454	-121.224	-113.843	-20.203	12.600	-114.009	-107.769	-107.168	-99.200	-12.761	-100.564	-8191	255	
2401.578	1	1	0	0	0.29963	0.055101	0.1902	0.27262	0.19931	0.2762	0.061842	0.060182	0.12194	0.25813	0.29728	0.029386	0.059108	0.16914	0.13699	0.043136	-4.3271	-4.1062	-4.9458	-4.5792	-4.2229	-4.9563	-4.2083	-4.6958	-4.7896	-4.0042	-4.9979	-4.475	-4.2917	-4.9854	-4.0104	-4.5083	-38.819	-121.558	-62.245	-95.440	-24.418	-123.009	215.741	68.253	103.255	24.576	155.982	-55.551	-46.143	-121.136	81.459	180.571	0.00012463	0.00026523	3.3675e-05	1000.2	2.6913e-06	3.0201e-06	1086.2	205.96	2.2982e-06	6.4913e-07	259.83	73.936	57.702	17.196	2.1802e-06	24.496	0.00018097	0.00017902	4.8793e-05	955.06	1.9163e-06	1.913e-06	1051.6	201.13	1.8895e-06	1.9069e-06	251.78	73.057	56.897	17.093	1.8468e-06	24.042	-118.173	-6.317	-121.809	-121.105	11.549	-20.677	-121.204	-113.890	-71.407	132.179	-114.364	-107.953	-107.305	-99.704	93.192	-100.488	-8191	255	
2401.674	1	1	0	0	0.11186	0.20681	0.096207	0.138	0.082028	0.13612	0.24662	0.20527	0.22799	0.12862	0.2368	0.1453	0.047544	0.10733	0.12453	0.17173	-4.6042	-3.9125	-4.8375	-4.6729	-4.1375	-5.1104	-4.4625	-4.6375	-4.9563	-4.0583	-5.075	-4.6604	-4.0938	-5.1062	-4.4208	-4.5271	-55.090	-52.130	-52.574	210.631	39.756	45.634	131.053	186.873	-98.694	100.745	-92.110	-90.568	129.577	11.016	19.233	199.894	0.00010662	0.000308	0.00017365	991.94	4.1062e-06	3.3402e-06	1086.8	205.55	2.1899e-06	2.2865e-06	261.52	74.172	57.866	17.345	7.1375e-06	24.244	0.00016779	0.00016642	4.6445e-05	949.6	1.7989e-06	1.7959e-06	1048.4	199.79	1.7788e-06	1.7742e-06	250.67	72.612	56.593	17.035	1.7445e-06	23.856	215.369	-39.689	40.749	-121.357	-29.988	-24.539	-121.003	-114.074	-32.160	-32.344	-113.968	-107.920	-107.132	-99.657	-10.300	-100.386	-8191	255	
2401.768	1	1	0	0	0.087023	0.14062	0.14973	0.11189	0.054596	0.24554	0.096391	0.055616	0.16476	0.12351	0.12807	0.12558	0.15656	0.043585	0.1662	0.18115	-4.7167	-4.1687	-4.9917	-4.8021	-4.2271	-5.0938	-4.3938	-4.5333	-5.1083	-4.1292	-4.7167	-4.9042	-4.2937	-5.0792	-4.4	-4.3958	190.191	-7.171	80.180	205.467	196.496	71.787	151.339	-75.714	141.940	57.505	-118.675	-122.022	192.058	221.004	109.878	177.605	0.00012896	0.00018663	8.5364e-05	992.7	1.7764e-06	6.5469e-07	1086.2	205.89	2.5503e-06	2.2048e-06	258.98	73.899	57.424	17.169	1.4102e-06	24.275	0.00015969	0.00015866	4.4175e-05	947.45	1.7528e-06	1.7453e-06	1045	199.41	1.7262e-06	1.7448e-06	249.64	72.464	56.363	16.968	1.7016e-06	23.894	-131.709	191.890	-82.252	-121.441	-13.446	112.003	-121.251	-114.160	61.833	41.645	-114.525	-107.784	-107.192	-100.052	-40.411	-100.687	-8191	255	
2401.842	1	1	0	0	0.16126	0.11479	0.039244	0.15796	0.084817	0.094483	0.29566	0.12362	0.24429	0.1821	0.15238	0.2481	0.060288	0.19894	0.16595	0.03831	-4.7521	-4.1562	-4.7479	-4.9146	-4.1438	-5.0062	-4.7583	-4.4521	-5.0167	-4.3292	-4.8021	-5.1354	-4.2583	-4.9042	-4.6625	-4.4083	-55.601	38.036	-79.927	191.765	170.310	-38.737	133.557	-90.151	48.170	-60.521	-125.981	-6.970	27.972	-22.112	154.133	63.584	9.9637e-05	0.0007021	0.00014208	987.2	2.9639e-06	1.6878e-06	1080.5	205.08	1.0768e-06	9.6856e-07	259.56	73.947	57.441	17.334	8.2652e-07	24.079	0.00015539	0.00015844	4.4037e-05	944.8	1.7084e-06	1.7147e-06	1042.9	199.1	1.7438e-06	1.694e-06	249.25	72.419	56.299	17.009	1.6714e-06	23.805	214.561	-13.757	-57.745	-121.490	38.564	52.585	-121.387	-114.114	46.824	35.451	-114.485	-107.654	-107.489	-99.974	-5.570	-100.193	-8191	255	
2401.960	1	1	0	0	0.043977	0.13585	0.28713	0.082496	0.11547	0.14382	0.14392	0.16564	0.07334	0.026816	0.12654	0.13055	0.15326	0.30913	0.10292	0.12627	-4.8208	-4.3125	-4.5813	-5.1479	-4.0583	-4.8417	-4.8125	-4.2417	-4.9146	-4.3313	-4.4854	-4.9854	-4.1562	-4.8146	-4.7896	-4.225	54.043	123.050	-50.840	160.612	-3.867	179.026	-130.697	164.398	-115.063	85.583	-124.504	-11.650	206.501	-51.588	-27.874	111.766	0.00014402	0.00021667	0.00011388	997.88	3.3731e-06	6.6936e-07	1083.1	204.22	5.6995e-07	3.4953e-06	258.25	73.737	57.066	17.148	1.7096e-06	23.963	0.0001547	0.00015749	4.2675e-05	945.86	1.6771e-06	1.6888e-06	1042.8	198.51	1.6835e-06	1.6516e-06	248.19	72.265	56.115	16.916	1.6049e-06	23.657	-121.746	57.939	-67.616	-121.502	-29.533	-47.685	-121.161	-114.609	-110.403	-106.264	-114.513	-108.075	-106.690	-98.754	196.745	-99.449	-8191	255	
2402.057	1	1	0	0	0.21838	0.19258	0.1779	0.07515	0.22437	0.098329	0.25802	0.26076	0.0611	0.24848	0.11585	0.23693	0.20256	0.32828	0.17907	0.14151	-4.6854	-4.1083	-4.3729	-5.1875	-4.0687	-4.7396	-4.9812	-4.2667	-5.1583	-4.35	-4.5188	-5.0167	-4.2271	-4.6458	-4.8146	-4.1875	-118.824	45.158	201.366	205.046	-31.680	-26.499	-11.262	28.102	-78.940	128.581	136.965	-42.769	162.106	-53.218	18.526	130.167	5.5549e-05	0.0007565	6.6974e-05	978.46	2.5346e-06	1.8643e-06	1065.8	202.91	1.276e-06	5.1222e-06	258.53	72.359	56.977	16.937	1.1724e-06	23.987	0.00015016	0.00014769	4.0067e-05	937.48	1.5704e-06	1.553e-06	1034.1	197.29	1.5866e-06	1.5335e-06	247.35	71.764	55.684	16.827	1.5368e-06	23.591	227.165	-27.677	10.575	-120.483	-21.232	-27.476	-120.097	-112.946	75.390	-8.578	-112.914	-106.802	-106.591	-98.545	87.272	-99.316	-8191	255	
2402.153	1	1	0	0	0.16832	0.08032	0.12146	0.2648	0.20553	0.068237	0.12336	0.10359	0.14634	0.15222	0.16795	0.15416	0.15709	0.049853	0.074863	0.16555	-4.7042	-4.5125	-4.2333	-5.1354	-4.1521	-4.7521	-5.0083	-4.1958	-4.9187	-4.7542	-4.3875	-5.1292	-4.2188	-4.5375	-5.0167	-4.2854	-42.613	12.436	-66.859	123.993	196.160	36.086	-116.628	215.915	169.059	85.978	147.878	-119.169	208.373	191.636	51.418	210.192	0.00015936	0.00014782	1.6426e-05	976.32	1.007e-06	4.5934e-07	1058.5	201.83	1.0429e-06	6.4427e-07	254.82	72.829	56.989	16.917	3.6692e-06	24.104	0.00014402	0.00014193	3.9221e-05	934.77	1.5547e-06	1.5447e-06	1031.2	196.79	1.5444e-06	1.5034e-06	246.32	71.544	55.596	16.76	1.5243e-06	23.562	223.156	-53.723	-115.666	-120.537	-12.957	105.591	-120.140	-113.023	76.042	-36.679	-112.889	-106.838	-106.521	-98.689	48.556	-98.876	-8191	255	
2402.249	1	1	0	0	0.2242	0.11536	0.076919	0.064537	0.28669	0.070653	0.17797	0.1967	0.034923	0.11045	0.18361	0.15819	0.16133	0.051655	0.017907	0.099386	-4.6146	-4.6937	-4.0854	-5.1042	-4.4208	-4.4125	-4.9833	-3.975	-4.65	-4.7021	-4.3646	-5.0042	-4.525	-4.3812	-4.9688	-4.1604	-95.004	105.191	174.149	149.006	-15.058	-103.405	196.072	41.114	201.883	-47.306	205.482	36.792	96.004	26.536	64.982	-74.725	0.00010613	0.00028447	7.7254e-05	969.49	1.0583e-06	3.7518e-06	1060.3	204.48	1.6145e-07	3.4933e-06	256.31	71.967	56.109	16.847	4.4104e-06	23.961	0.00014061	0.00013936	3.8385e-05	930.22	1.4794e-06	1.513e-06	1028.3	196.79	1.5279e-06	1.4908e-06	246.13	71.337	55.443	16.711	1.4822e-06	23.508	220.351	11.077	-79.869	-120.634	-9.695	45.311	-119.987	-113.092	8.836	-7.347	-113.048	-107.094	-106.814	-99.260	22.840	-99.646	-8191	255	
2402.370	1	1	0	0	0.092629	0.20848	0.070123	0.04426	0.13497	0.15659	0.21039	0.075977	0.025576	0.18252	0.1213	0.017942	0.25083	0.074075	0.16124	0.14645	-4.4896	-4.6479	-4.05	-4.8792	-4.3688	-4.2729	-5.1833	-4.1667	-4.6208	-4.7417	-4.2438	-4.8187	-4.4958	-4.2083	-4.9667	-4.3917	36.376	190.707	178.121	111.304	102.702	-32.399	169.612	226.504	189.699	-37.043	39.682	-91.315	-82.998	-124.741	-63.443	-89.699	8.0311e-05	0.00029216	0.0001452	971.9	2.138e-06	1.9797e-06	1062.1	200.95	1.0675e-06	3.6667e-06	256.23	72.699	56.32	16.877	9.8144e-07	23.884	0.00013905	0.00013756	3.8382e-05	928.28	1.5329e-06	1.4887e-06	1028.9	195.74	1.5097e-06	1.4967e-06	245.86	71.379	55.358	16.702	1.5022e-06	23.481	-123.037	17.475	-17.391	-120.573	-91.115	95.139	-120.158	-113.080	203.794	-0.135	-113.539	-106.745	-105.853	-98.412	-39.461	-98.983	-8191	255	
2402.441	1	1	0	0	0.16571	0.072424	0.13637	0.19299	0.21241	0.17334	0.20626	0.17908	0.11694	0.17544	0.055946	0.098236	0.11682	0.20729	0.15178	0.17553	-4.2104	-5.0375	-3.9979	-5.0875	-4.675	-4.2542	-5.2896	-4.525	-4.3458	-4.9667	-4.2146	-4.8646	-4.7167	-4.1271	-5.0854	-4.375	217.522	38.972	169.621	92.530	137.656	80.261	199.849	154.800	115.260	-109.142	189.675	-51.899	93.629	219.515	-123.286	-130.226	0.00010702	0.00021974	6.6034e-05	977.8	5.4613e-06	3.598e-06	1061.6	200.36	2.0691e-06	3.2908e-06	254.94	72.736	56.349	16.903	1.7951e-06	23.945	0.0001409	0.00013951	3.8325e-05	932.23	1.5403e-06	1.5585e-06	1028.9	195.74	1.5727e-06	1.5282e-06	245.39	71.43	55.361	16.72	1.535e-06	23.518	208.797	-17.193	-78.099	-120.580	-30.472	-12.714	-120.375	-112.981	-53.399	4.224	-113.312	-107.068	-106.201	-98.999	26.859	-99.780	-8191	255	
2402.537	1	1	0	0	0.087236	0.21968	0.079908	0.21699	0.082167	0.22154	0.14968	0.24512	0.11736	0.15603	0.020002	0.087028	0.1233	0.14761	0.12769	0.076057	-4.1062	-4.85	-4.1625	-4.9292	-4.7646	-4.2208	-5.2146	-4.3688	-4.3625	-4.9542	-4.3917	-4.8396	-4.7229	-4.1854	-4.9542	-4.3812	-118.538	35.336	182.116	183.990	-121.371	-52.013	214.784	177.109	-127.042	-96.546	21.309	106.321	197.663	177.447	208.671	23.089	0.00010882	0.0005641	7.7816e-05	965.44	1.9015e-06	1.7203e-06	1067.3	201.58	5.3761e-06	6.385e-06	255.57	72.418	56.648	16.97	2.801e-06	23.858	0.00014542	0.00014272	3.9803e-05	930.19	1.5176e-06	1.6009e-06	1030.5	196.41	1.6092e-06	1.5857e-06	246.02	71.52	55.6	16.746	1.5483e-06	23.545	218.043	-34.854	-64.587	-120.582	-100.437	-24.025	-120.106	-112.811	19.073	-28.419	-113.241	-107.290	-106.171	-98.849	12.809	-99.176	-8191	255	
2402.658	1	1	0	0	0.16867	0.13437	0.10215	0.074857	0.084597	0.21855	0.14847	0.17114	0.18933	0.18825	0.18111	0.11537	0.083103	0.13186	0.11508	0.045728	-3.8896	-5.1146	-4.2146	-4.6833	-4.7521	-4.1229	-4.9708	-4.6479	-4.1896	-4.9729	-4.3938	-4.6583	-4.85	-4.1625	-5.0375	-4.6458	-57.059	-28.700	-41.518	186.284	58.204	132.925	118.261	113.449	-97.808	-25.889	-107.434	-113.398	91.080	-128.503	-77.257	-77.815	0.00013997	0.0004533	0.00013347	975.21	1.8956e-06	3.5037e-06	1058.2	202.47	1.7163e-06	1.7769e-06	253.64	72.398	56.245	16.83	1.4307e-06	23.776	0.00014493	0.00014171	3.9153e-05	931.17	1.5219e-06	1.5293e-06	1027.3	196.43	1.5571e-06	1.5249e-06	245.22	71.424	55.508	16.738	1.5116e-06	23.495	215.616	-17.773	-32.936	-120.755	181.033	-29.681	-120.187	-113.079	-54.602	16.957	-113.052	-107.103	-106.017	-99.130	-53.073	-98.867	-8191	255	
2402.754	1	1	0	0	0.088238	0.10211	0.19965	0.10014	0.030642	0.10702	0.37529	0.11824	0.24093	0.11458	0.086962	0.27088	0.24822	0.10197	0.044498	0.086074	-3.95	-5.0646	-4.3917	-4.6354	-4.8021	-4.125	-5.0875	-4.8354	-4.1479	-5.0687	-4.4875	-4.5125	-5.1771	-4.2375	-4.6229	-4.9667	-110.149	190.848	224.013	205.860	-127.379	-6.197	152.115	154.954	-25.985	223.043	-35.786	91.478	-40.815	225.998	122.497	213.482	0.00011143	5.4579e-05	4.3579e-05	975.44	1.8924e-06	2.1099e-06	1063.3	201.73	1.0806e-06	6.232e-06	254.92	72.455	56.709	16.944	2.7806e-06	23.868	0.00014122	0.00014245	3.9379e-05	932.01	1.5519e-06	1.5256e-06	1030.1	196.5	1.5888e-06	1.5636e-06	246.15	71.316	55.675	16.799	1.5901e-06	23.517	222.904	20.298	2.916	-120.505	-15.519	19.698	-120.308	-112.696	17.356	-5.577	-112.971	-107.078	-105.977	-99.093	-5.967	-99.715	-8191	255	
2402.850	1	1	0	0	0.1298	0.20947	0.090344	0.070264	0.14854	0.071995	0.23921	0.13228	0.044381	0.095976	0.11332	0.13517	0.094143	0.20707	0.13754	0.056153	-3.725	-5.0042	-4.2667	-4.4583	-5.0271	-4.2271	-4.9104	-4.9896	-4.2042	-5	-4.8042	-4.3625	-5.0708	-4.2562	-4.6104	-4.9062	38.459	197.639	-84.623	-59.910	5.560	41.188	179.328	109.998	71.870	-69.634	-97.580	65.476	195.974	182.469	57.612	-98.354	0.00013004	0.00040956	0.00011452	972.88	3.328e-07	4.4187e-06	1065	202.53	9.3241e-07	3.3711e-06	254.19	72.014	56.638	17.066	4.7575e-06	24.096	0.0001503	0.00014635	4.0693e-05	931.4	1.5983e-06	1.6158e-06	1031.1	196.81	1.6828e-06	1.6621e-06	245.96	71.55	55.759	16.841	1.7131e-06	23.717	224.208	-69.189	-71.164	-120.753	140.785	35.850	-120.140	-113.014	-31.629	49.836	-113.089	-106.906	-106.194	-99.032	5.101	-99.475	-8191	255	
2402.969	1	1	0	0	0.22741	0.21946	0.17028	0.081513	0.16541	0.17471	0.26898	0.093567	0.19453	0.12678	0.1157	0.16014	0.057445	0.19953	0.13377	0.028375	-3.7958	-4.9062	-4.4708	-4.3479	-5.2229	-4.3229	-4.8167	-4.9271	-4.1271	-5.225	-4.75	-4.3562	-5.1896	-4.2979	-4.4833	-5.0208	14.823	-129.491	115.314	226.803	-93.075	39.102	186.344	127.572	38.982	160.408	-68.502	175.604	213.470	-58.637	25.578	-121.553	0.00013807	0.00010863	0.00012374	968.62	3.4154e-06	4.8251e-06	1067.3	201.68	2.1399e-06	3.397e-06	255.96	72.694	56.549	16.963	2.8088e-06	23.918	0.00016402	0.00016168	4.5361e-05	933.14	1.8117e-06	1.8163e-06	1032.8	197.48	1.7979e-06	1.7863e-06	247.26	71.756	55.808	16.85	1.7541e-06	23.687	221.610	-9.354	-28.246	-120.626	1.836	-28.867	-120.295	-113.393	-0.124	29.103	-112.811	-106.575	-106.133	-98.857	42.534	-99.136	-8191	255	
2403.065	1	1	0	0	0.087623	0.10915	0.19708	0.124	0.10432	0.25714	0.20529	0.30073	0.034099	0.17036	0.23944	0.34383	0.069879	0.14645	0.10355	0.19814	-3.8542	-4.9083	-4.6396	-4.2312	-5.0042	-4.4437	-4.6333	-5.05	-4.0188	-4.8396	-4.875	-4.1562	-5.0583	-4.5938	-4.3812	-5.0979	62.869	52.442	76.319	204.195	226.832	127.788	129.190	167.369	-47.420	4.173	-27.891	-117.732	-119.588	110.681	125.662	209.450	0.00013501	0.00020764	0.00019868	974.2	1.6344e-06	4.2347e-06	1063.6	203.29	1.2967e-06	5.1117e-07	256.38	72.523	56.642	16.91	2.9409e-06	23.997	0.00016011	0.0001572	4.2479e-05	935.29	1.6782e-06	1.6597e-06	1033.7	197.2	1.6702e-06	1.6087e-06	247.05	71.653	55.842	16.771	1.5582e-06	23.57	214.419	-124.630	-63.294	-120.594	-4.917	11.269	-120.398	-113.094	197.845	214.137	-112.807	-107.299	-106.520	-98.576	-68.474	-99.249	-8191	255	
2403.137	1	1	0	0	0.17854	0.11993	0.07201	0.12306	0.15587	0.17565	0.10899	0.036342	0.15315	0.16587	0.33231	0.21265	0.095123	0.047343	0.21163	0.10594	-3.9188	-4.6146	-4.7146	-4.2625	-4.9625	-4.6146	-4.5354	-5.1208	-4.0271	-4.7688	-5.0958	-4.2542	-5.0292	-4.5833	-4.3083	-5.1396	2.603	-32.159	97.643	197.036	21.437	-86.233	70.802	-113.184	114.523	88.944	-128.235	153.394	105.208	169.209	-1.079	28.835	0.00018631	0.00016657	7.9381e-06	973.6	1.6461e-06	4.0432e-06	1059.1	202.01	4.0143e-07	2.252e-06	255.07	72.28	56.238	16.918	5.4483e-06	23.879	0.00014371	0.0001377	3.8177e-05	930.85	1.5015e-06	1.4643e-06	1029.7	196.74	1.4524e-06	1.4426e-06	245.45	71.212	55.389	16.685	1.3244e-06	23.481	210.971	-51.593	115.944	-120.620	35.455	33.397	-120.387	-112.845	-58.021	18.562	-112.615	-107.204	-106.358	-98.844	-12.457	-98.860	-8191	255	
2403.258	1	1	0	0	0.019159	0.060644	0.088704	0.1866	0.10218	0.098353	0.20537	0.068106	0.065935	0.050999	0.14616	0.16989	0.096253	0.31187	0.037712	0.13147	-3.8833	-4.5292	-4.8375	-4.1188	-4.8604	-4.5708	-4.3417	-5.275	-4.2625	-4.4271	-5.0792	-4.1042	-4.8271	-4.6896	-4.2917	-5.0062	7.802	14.837	125.646	180.704	147.673	-100.817	-74.346	194.258	168.859	78.744	171.082	211.393	-48.925	61.724	-76.182	112.679	0.00012502	0.00032471	7.401e-05	969.66	1.5674e-06	1.1038e-06	1058.9	202.08	9.2095e-07	7.9586e-07	252.43	72.273	56.474	16.806	1.8929e-06	23.801	0.00012517	0.00012158	3.2558e-05	926.57	1.3054e-06	1.2631e-06	1024.2	195.53	1.2699e-06	1.2464e-06	243.27	70.648	55.002	16.508	1.1829e-06	23.197	205.018	-60.204	-6.561	-120.266	-99.469	-128.798	-120.418	-112.979	97.499	-22.207	-112.934	-106.835	-106.418	-98.337	-70.684	-99.474	-8191	255	
2403.354	1	1	0	0	0.080429	0.11394	0.042205	0.26213	0.1348	0.21403	0.23078	0.15991	0.13556	0.20093	0.045386	0.11097	0.13238	0.2048	0.065725	0.13077	-4.2771	-4.4042	-4.975	-4.3292	-4.6479	-4.8167	-4.4979	-5.1458	-4.5	-4.3917	-5.0708	-4.2	-4.7792	-4.8146	-4.0917	-5.0208	21.569	187.864	-87.691	-93.010	154.756	-30.855	192.331	-67.034	35.990	-1.204	-47.951	169.041	-110.046	144.566	-32.977	101.144	0.00011659	0.00029941	7.1428e-05	955.75	5.6034e-07	1.6439e-06	1043.2	198.65	8.2533e-07	3.2618e-06	251.3	71.024	55.764	16.712	3.2156e-06	23.848	0.00010799	0.00010484	2.8221e-05	914.82	1.1345e-06	1.1124e-06	1011.9	192.85	1.1354e-06	1.1197e-06	241.01	69.916	54.499	16.437	1.0972e-06	23.2	197.723	-124.128	-129.798	-120.527	78.336	-8.309	-120.063	-112.738	-56.220	64.586	-113.290	-106.781	-105.739	-98.706	39.895	-99.263	-8191	255	
2403.450	1	1	0	0	0.16871	0.22028	0.23043	0.21064	0.062854	0.11282	0.24607	0.041778	0.22073	0.062339	0.082583	0.15438	0.106	0.035582	0.09652	0.10976	-4.275	-4.2937	-4.9958	-4.2417	-4.6167	-4.9208	-4.4333	-5.125	-4.6146	-4.1792	-5.1208	-4.2104	-4.7104	-5.0729	-4.125	-4.9375	190.215	-4.905	-2.736	79.373	216.446	-95.329	117.640	-38.948	200.792	-105.520	147.400	121.159	-78.334	-63.858	-21.365	45.711	0.00013151	0.00029788	0.00010545	957.1	1.0334e-07	4.4753e-06	1038.1	199.1	1.6131e-06	2.1574e-06	251.73	71.331	56.152	16.753	2.7639e-06	23.652	0.00010204	9.9071e-05	2.7107e-05	913.25	1.0807e-06	1.073e-06	1006.9	192.47	1.0703e-06	1.0821e-06	240.8	69.766	54.387	16.336	1.027e-06	23.044	-129.638	-45.779	-78.367	-120.252	92.616	-2.426	-120.117	-112.994	150.924	-29.668	-112.938	-106.806	-106.302	-98.498	13.231	-99.103	-8191	255	
2403.546	1	1	0	0	0.14228	0.16137	0.20284	0.12942	0.051857	0.13832	0.1929	0.06023	0.23763	0.08168	0.28288	0.056345	0.0097524	0.2162	0.10333	0.048107	-4.4542	-4.2083	-5.0333	-4.4187	-4.5271	-4.9563	-4.2667	-4.8708	-4.7958	-4.2958	-5.0271	-4.5875	-4.3625	-5.1292	-4.2312	-4.7604	220.013	189.923	13.837	171.648	122.506	54.031	56.702	-77.794	-21.824	67.168	64.858	59.780	140.041	2.668	9.141	23.572	0.00014102	0.00038051	0.00014435	950.46	2.9143e-06	2.0744e-06	1040.1	196.81	1.5144e-06	2.307e-07	250.02	71.146	55.451	16.668	3.8661e-06	23.651	9.4319e-05	9.1344e-05	2.4438e-05	907.4	9.6435e-07	9.4376e-07	1002	190.97	9.4596e-07	9.0254e-07	238.73	69.289	53.728	16.249	9.1218e-07	22.87	-128.540	-66.834	-39.761	-120.445	-17.445	-53.235	-119.968	-113.095	-87.380	141.922	-113.035	-106.547	-106.012	-98.495	-122.787	-99.348	-8191	255	
2403.665	1	1	0	0	0.10795	0.23306	0.28327	0.1689	0.11202	0.10429	0.1287	0.1568	0.096538	0.08654	0.046331	0.20361	0.10525	0.071645	0.068979	0.043469	-4.3875	-4.2542	-4.9354	-4.4917	-4.4021	-5.1646	-4.2688	-4.8083	-4.9854	-4.2479	-5.2125	-4.575	-4.2896	-5.1062	-4.0646	-4.6042	21.245	198.280	3.465	86.709	225.540	-71.806	142.199	181.863	141.680	-28.853	177.332	203.725	183.543	-25.947	12.827	5.838	0.00012293	0.00019936	5.7105e-05	948.24	2.0624e-06	1.8047e-07	1031.7	197.57	5.0648e-07	4.5649e-06	250.01	70.682	55	16.776	3.0562e-06	23.457	8.5398e-05	8.1245e-05	2.2493e-05	900	8.9575e-07	8.889e-07	996.06	190.66	9.0932e-07	9.0197e-07	238.38	69.133	53.692	16.231	9.1395e-07	22.852	218.030	-9.098	-68.669	-120.389	-32.187	175.413	-120.451	-113.109	-3.693	-6.115	-113.037	-106.610	-106.082	-98.387	9.304	-99.279	-8191	255	
2403.738	1	1	0	0	0.033292	0.070645	0.21717	0.06954	0.11086	0.095892	0.17406	0.12698	0.24674	0.17684	0.3343	0.18021	0.07415	0.11615	0.21192	0.27472	-4.6917	-4.2125	-5.0104	-4.7167	-4.2083	-5.0875	-4.4292	-4.7562	-4.8875	-4.0625	-4.8396	-4.6562	-4.1917	-5.0708	-4.1687	-4.4875	-24.570	26.990	-88.580	-83.083	6.665	105.756	191.412	-43.302	-90.185	206.356	177.950	-115.005	-130.655	190.751	-104.231	-111.132	0.00014466	0.00013388	0.00011565	944.54	1.8222e-06	2.7092e-06	1033.4	196.53	9.9517e-07	2.3946e-06	249.7	71.247	55.302	16.582	3.4207e-06	23.591	8.961e-05	8.5979e-05	2.3864e-05	898.93	9.7826e-07	9.5126e-07	997.71	190.13	9.8377e-07	9.7655e-07	238.99	69.343	53.753	16.263	9.7578e-07	22.891	224.632	-15.634	-62.317	-120.470	3.767	10.039	-120.468	-112.914	78.639	25.508	-112.984	-106.633	-106.116	-98.715	-14.437	-99.224	-8191	255	
2403.835	1	1	0	0	0.041784	0.094273	0.10386	0.088903	0.17109	0.30445	0.1725	0.060387	0.24005	0.17275	0.16291	0.17406	0.03905	0.19167	0.17879	0.066666	-4.8354	-4.1771	-4.8271	-4.7333	-4.1562	-5.0292	-4.5583	-4.4854	-4.9604	-4.1729	-4.9271	-4.8333	-4.1687	-5.1375	-4.3604	-4.5375	190.445	-45.875	190.680	118.056	-20.492	-93.264	100.729	139.371	-18.551	46.442	198.068	207.235	21.049	-128.993	-22.890	46.384	0.00010609	0.00033356	0.0001348	944.68	2.8902e-06	2.7604e-06	1034.5	197.32	2.7171e-06	2.8418e-06	250.19	71.387	55.413	16.788	4.0782e-06	23.487	9.3933e-05	9.1338e-05	2.5402e-05	898.03	1.0352e-06	1.0055e-06	997.41	190.45	1.0442e-06	1.0474e-06	238.88	69.338	53.831	16.253	1.0075e-06	22.879	210.039	-15.901	-54.917	-120.209	-0.491	54.029	-120.134	-113.030	-1.967	57.710	-113.083	-106.792	-105.996	-98.059	-10.754	-99.127	-8191	255	
2403.931	1	1	0	0	0.16274	0.14085	0.10261	0.22826	0.169	0.042028	0.069738	0.16278	0.20326	0.1238	0.27418	0.31415	0.085782	0.11174	0.057483	0.043414	-4.775	-4.1021	-4.5708	-4.9167	-4.0958	-4.9917	-4.6104	-4.3604	-5.0062	-4.1312	-4.6625	-4.7729	-4.2958	-5.2583	-4.5062	-4.3021	-123.744	62.136	169.304	199.346	-16.590	-76.315	202.365	-87.743	-100.689	-100.180	160.457	12.662	-36.132	128.423	-42.281	-103.112	0.00010934	0.00024238	4.5521e-05	945.95	2.4035e-06	2.4439e-06	1030.3	197.45	2.014e-07	1.8642e-07	247.51	71.042	55.71	16.589	2.6148e-06	23.535	9.3252e-05	9.1674e-05	2.485e-05	899.78	9.8963e-07	9.5768e-07	995.5	190.13	9.3332e-07	9.3412e-07	237.96	69.326	53.816	16.21	9.0318e-07	22.879	216.039	-97.130	-66.389	-120.228	17.224	38.325	-120.409	-113.011	57.518	-49.799	-112.975	-106.748	-106.367	-98.792	-63.483	-99.503	-8191	255	
2404.050	1	1	0	0	0.056314	0.19326	0.089917	0.042523	0.15073	0.048164	0.0879	0.042491	0.1497	0.26572	0.27131	0.20712	0.1448	0.086362	0.16646	0.15666	-4.7417	-4.2667	-4.4729	-4.9563	-4.1229	-4.7521	-4.6958	-4.4021	-5.0188	-4.3875	-4.5	-5.025	-4.1917	-4.7896	-4.5854	-4.1229	75.771	193.879	6.499	157.157	-57.004	-71.497	94.708	99.353	-118.993	-77.551	195.941	63.238	146.782	146.641	213.054	216.517	0.00013421	0.0001701	6.6776e-05	940.54	5.0692e-07	8.5343e-07	1031.7	196.62	1.8361e-06	3.1732e-06	248.68	71.026	55.457	16.665	1.2213e-06	23.507	8.5882e-05	8.2613e-05	2.2712e-05	896.35	9.1194e-07	8.7592e-07	996.06	190.06	8.8176e-07	8.5791e-07	238.03	69.216	53.641	16.213	8.6659e-07	22.837	217.390	-21.298	-40.328	-120.372	149.759	70.198	-120.100	-112.859	-17.938	35.316	-112.882	-106.958	-106.176	-98.662	-123.431	-99.223	-8191	255	
2404.146	1	1	0	0	0.20789	0.03238	0.16916	0.029176	0.073525	0.2164	0.077617	0.14068	0.11617	0.11713	0.13902	0.11598	0.10335	0.1181	0.092086	0.12656	-4.7396	-4.4146	-4.3771	-5.0917	-4.0813	-4.6687	-5.0417	-4.3146	-5.0917	-4.5292	-4.4021	-5.1562	-4.275	-4.7042	-4.8042	-4.0292	21.682	-106.343	-37.699	177.182	-126.463	-74.667	85.826	41.678	-8.056	84.002	155.749	-110.601	156.698	-105.357	-130.267	-106.559	9.261e-05	0.00055293	5.7951e-05	945.28	8.7761e-07	3.472e-06	1029.9	197.38	6.7419e-07	2.3328e-06	247.32	70.875	55.22	16.598	3.2367e-06	23.573	8.3455e-05	8.1627e-05	2.2523e-05	897.91	9.0313e-07	9.0592e-07	994.64	190.49	9.1398e-07	9.16e-07	237.23	69.163	53.654	16.172	9.3264e-07	22.845	-128.216	-38.850	-42.301	-120.287	-41.847	17.131	-119.999	-112.881	207.357	30.239	-113.261	-106.616	-105.949	-98.670	75.371	-99.240	-8191	255	
2404.242	1	1	0	0	0.26696	0.18234	0.083933	0.12323	0.06712	0.12656	0.23978	0.13961	0.089187	0.13376	0.12055	0.26094	0.14383	0.35432	0.085757	0.078908	-4.6062	-4.2937	-4.4792	-5.0271	-4.2271	-4.6083	-5.25	-4.2771	-4.9437	-4.5208	-4.2729	-5.0938	-4.2958	-4.55	-5.025	-4.2167	145.647	-71.976	-97.294	92.258	141.546	218.639	155.632	-74.681	-120.715	-7.057	183.301	147.657	98.257	-11.355	131.108	-55.466	0.00010327	0.00049451	6.103e-05	943.03	7.6968e-07	1.4537e-06	1027	197.37	1.173e-06	6.6086e-07	248.67	70.497	54.695	16.554	1.6868e-06	23.674	9.1994e-05	8.7045e-05	2.4371e-05	899.18	9.8442e-07	9.6327e-07	994.9	190.08	9.6286e-07	9.3735e-07	237.31	69.127	53.489	16.223	9.1207e-07	22.885	227.816	-46.034	-88.356	-120.495	221.061	80.279	-120.161	-112.903	-93.279	99.015	-112.826	-107.095	-105.993	-98.468	131.816	-99.371	-8191	255	
2404.338	1	1	0	0	0.048397	0.2482	0.11997	0.042184	0.15125	0.087054	0.20934	0.14023	0.13496	0.11186	0.14548	0.13488	0.22593	0.089641	0.1312	0.084662	-4.575	-4.6562	-4.1396	-5.1542	-4.3583	-4.4917	-5.2688	-4.2604	-4.7875	-4.8562	-4.3688	-5.1	-4.4979	-4.4708	-4.9479	-4.3229	-121.270	-120.718	-54.234	-106.475	-27.439	-42.497	182.376	27.715	125.436	48.480	-27.557	177.192	175.814	-120.200	47.032	43.738	0.0001009	0.00019011	6.8677e-05	937.79	1.6719e-06	2.2037e-06	1030.4	196.29	1.9046e-06	2.3846e-06	248.69	70.872	55.245	16.607	2.0222e-06	23.473	8.7486e-05	8.2237e-05	2.3322e-05	897.11	9.2349e-07	8.9732e-07	994.91	189.98	8.8758e-07	8.5925e-07	236.99	69.027	53.587	16.154	8.1772e-07	22.757	202.904	-37.075	-23.976	-120.277	-89.648	-13.126	-120.175	-112.840	-74.881	26.220	-113.052	-107.105	-105.959	-98.540	29.176	-98.777	-8191	255	
2404.434	1	1	0	0	0.2791	0.26039	0.22839	0.15897	0.021517	0.10129	0.17617	0.090833	0.11215	0.064567	0.30174	0.10365	0.057817	0.076319	0.16329	0.015699	-4.4146	-4.8333	-4.0833	-5.0938	-4.3938	-4.4458	-5.2312	-4.3125	-4.6937	-4.9417	-4.2042	-5.0188	-4.6188	-4.3938	-5.1479	-4.4167	8.670	136.558	207.653	143.586	58.426	197.830	187.451	116.873	147.930	214.651	-105.807	-34.611	-99.155	32.194	114.234	0.311	9.2404e-05	0.00031269	7.7189e-05	941.61	1.8308e-06	1.8895e-06	1028.6	195.25	1.9474e-06	3.3052e-06	245.04	71.514	55.152	16.461	5.1712e-06	23.54	7.7639e-05	7.2991e-05	2.0192e-05	894.12	7.9543e-07	7.6508e-07	990.79	188.68	7.6404e-07	7.123e-07	235.02	68.831	53.242	16.044	6.8387e-07	22.72	223.331	16.145	-109.012	-120.068	84.475	36.442	-119.816	-112.785	9.644	-19.010	-112.599	-106.664	-105.826	-98.475	5.435	-99.354	-8191	255	
2404.530	1	1	0	0	0.061713	0.21232	0.22061	0.36097	0.16922	0.15643	0.24821	0.10272	0.20414	0.17766	0.030188	0.22481	0.35527	0.19987	0.14549	0.10514	-4.1958	-4.8042	-4.1562	-5.1062	-4.575	-4.2104	-5.2312	-4.2958	-4.5958	-4.9896	-4.2583	-5.0708	-4.7833	-4.3229	-5.0458	-4.5062	157.250	110.543	104.304	219.174	-65.988	96.825	-101.908	-107.897	-86.776	201.642	86.753	193.862	33.678	-70.058	162.277	165.567	0.00012363	0.00011906	4.7762e-05	934.24	2.6051e-06	3.1856e-06	1016.3	195.65	1.1567e-06	1.0599e-06	245.68	70.242	54.967	16.536	2.794e-06	23.495	6.729e-05	6.0697e-05	1.769e-05	888.24	6.6464e-07	6.9581e-07	983.38	187.99	6.8873e-07	6.756e-07	235.92	68.637	53.17	16.018	6.6837e-07	22.696	211.601	-59.924	-6.248	-120.132	19.942	9.317	-119.994	-112.951	28.000	219.143	-113.409	-107.097	-106.245	-98.611	-4.646	-99.339	-8191	255	
2404.651	1	1	0	0	0.27389	0.19159	0.18469	0.21606	0.20222	0.24687	0.17211	0.20949	0.27846	0.20182	0.32442	0.1517	0.19795	0.096811	0.062963	0.12379	-4.0271	-4.9271	-4.1125	-4.9271	-4.8396	-4.0542	-5.0958	-4.5437	-4.4062	-5.0188	-4.1229	-4.6937	-4.6333	-4.1375	-5.0479	-4.5771	-51.053	-78.272	196.508	173.331	73.684	185.393	203.352	217.648	117.397	72.885	-124.553	-19.980	204.662	223.181	-114.415	122.242	0.00011458	0.00014776	3.3858e-05	930.65	1.8283e-06	1.3473e-06	1016.5	195	1.1986e-06	3.045e-06	248.11	70.31	55.014	16.502	2.1935e-06	23.39	6.4485e-05	5.8931e-05	1.6802e-05	885.27	6.614e-07	6.6184e-07	983.46	187.81	6.9462e-07	6.5897e-07	235.63	68.573	53.046	16.011	6.6638e-07	22.579	214.211	-1.499	-92.709	-120.188	-25.369	-88.808	-120.292	-112.555	10.026	10.387	-113.001	-106.682	-105.968	-98.145	30.191	-98.746	-8191	255	
2404.747	1	1	0	0	0.14018	0.024244	0.19468	0.1301	0.14365	0.034446	0.18613	0.19338	0.043099	0.096317	0.23066	0.13364	0.20641	0.13171	0.13323	0.11821	-4	-5.1104	-4.0667	-4.7042	-4.9792	-3.9688	-5.0292	-4.7	-4.3146	-5.0729	-4.15	-4.6062	-4.9271	-4.1188	-4.9688	-4.6479	159.761	27.508	119.185	-105.391	180.353	-51.389	199.188	129.044	16.916	-21.534	136.140	46.660	-19.949	105.143	-10.825	141.994	0.00013458	0.00036412	8.3057e-05	930.56	1.0803e-06	3.5898e-06	1019.7	194.26	1.9848e-06	2.5956e-06	246.81	71.203	54.765	16.497	4.2632e-06	23.346	6.5229e-05	6.1479e-05	1.6974e-05	884.29	6.8015e-07	6.6474e-07	981.11	187.64	6.9095e-07	6.6582e-07	234.51	68.686	53.061	16.025	6.7362e-07	22.627	207.753	-64.377	-81.006	-120.278	4.968	30.171	-120.070	-112.687	-34.567	-14.074	-113.129	-106.914	-105.659	-98.373	-10.017	-99.205	-8191	255	
2404.841	1	1	0	0	0.13213	0.23619	0.22215	0.16612	0.26123	0.20779	0.11441	0.038332	0.24897	0.16744	0.028538	0.25564	0.070652	0.067658	0.13508	0.16945	-3.925	-5.1604	-4.2146	-4.6771	-4.9896	-4.0563	-4.95	-4.5771	-4.0687	-5.0354	-4.3958	-4.4062	-5.0687	-4.2708	-4.8625	-4.9021	162.762	121.020	78.893	156.599	107.930	166.327	-74.408	3.971	-89.035	-79.907	88.981	-110.444	120.540	-1.346	59.397	91.069	0.00011442	0.00026454	2.1277e-05	934.31	2.0832e-06	1.5521e-06	1022	196.14	1.399e-06	3.2372e-06	245.87	70.024	54.265	16.514	1.9505e-06	23.249	6.7675e-05	6.1256e-05	1.7503e-05	884.42	6.8747e-07	6.9357e-07	981.42	187.63	7.1847e-07	6.8168e-07	234.82	68.286	52.835	16.016	7.1438e-07	22.561	218.960	-35.807	-105.792	-120.432	-7.173	-77.450	-120.003	-112.981	-33.879	-44.112	-112.609	-107.029	-106.087	-98.878	2.961	-98.699	-8191	255	
2404.939	1	1	0	0	0.045964	0.17243	0.063866	0.099039	0.2424	0.16001	0.2408	0.096985	0.088725	0.14679	0.27113	0.15653	0.13111	0.15114	0.14443	0.0093958	-3.8229	-4.8979	-4.3729	-4.4979	-4.9604	-3.9542	-4.85	-4.9667	-4.2292	-5.0333	-4.6583	-4.2792	-5.175	-4.1562	-4.6042	-4.925	-56.073	146.644	-109.539	56.043	16.361	-47.615	-64.409	170.405	198.715	-12.139	-115.747	-47.258	-110.823	156.498	5.622	201.367	0.00012373	3.7072e-05	6.5866e-05	929.18	3.6914e-06	2.9655e-06	1018.1	192.49	1.7183e-06	3.6095e-06	245.74	70.196	54.855	16.483	2.3041e-06	23.342	7.246e-05	6.427e-05	1.8126e-05	881.72	7.1012e-07	7.0709e-07	981.3	186.72	7.5751e-07	7.1056e-07	234.1	68.311	53.017	16.016	7.3401e-07	22.559	210.923	154.936	-44.391	-120.475	21.001	90.380	-120.124	-112.802	3.917	-20.641	-112.410	-107.017	-106.618	-98.517	21.711	-99.280	-8191	255	
2405.034	1	1	0	0	0.019407	0.053362	0.10118	0.076816	0.085346	0.11382	0.090549	0.26209	0.10676	0.064887	0.24323	0.11706	0.11334	0.050388	0.054734	0.10938	-3.8438	-4.9812	-4.475	-4.375	-5.1417	-4.1458	-4.7625	-4.9437	-4.0479	-4.9333	-4.7042	-4.2667	-5.2542	-4.4333	-4.5375	-5.1354	-122.987	138.361	80.972	-69.944	26.166	-39.715	-114.891	121.563	-99.283	-76.973	-124.418	-88.655	75.722	79.013	203.055	228.431	0.00013504	0.00032663	8.0032e-05	929.28	1.7434e-06	2.2427e-06	1016.2	194.34	5.7213e-07	2.0587e-06	245.15	70.203	54.262	16.379	2.7254e-06	23.195	7.2732e-05	6.8098e-05	1.9101e-05	883.79	7.6767e-07	7.8291e-07	978.98	187.34	8.0312e-07	7.9898e-07	234.72	68.23	52.904	15.938	8.2294e-07	22.549	-128.712	-34.496	-45.294	-120.381	-21.712	32.990	-119.908	-112.907	28.881	-1.595	-112.875	-107.073	-106.464	-98.839	5.920	-98.876	-8191	255	
2405.130	1	1	0	0	0.2078	0.072947	0.15504	0.19354	0.16865	0.062089	0.19084	0.21087	0.14253	0.12089	0.0097075	0.12348	0.19847	0.080241	0.17034	0.18041	-3.9167	-4.7479	-4.6312	-4.1625	-5.2	-4.2854	-4.5833	-5.1083	-4.2271	-4.7625	-4.8313	-4.2021	-5.1458	-4.4458	-4.4396	-5.0458	0.429	-100.989	192.114	47.152	133.289	-5.435	135.827	97.848	-17.457	-4.064	-127.478	-59.277	-110.537	19.906	-57.503	18.012	0.00014279	0.00013137	2.6039e-05	930.63	6.2457e-07	3.4758e-06	1015.7	194.7	1.1628e-06	2.407e-06	245.3	70.159	54.863	16.371	2.4086e-06	23.112	7.8831e-05	7.4636e-05	2.1019e-05	883.67	8.5778e-07	8.5477e-07	981.7	187.72	8.8703e-07	8.5815e-07	234.56	68.437	52.974	15.989	8.5605e-07	22.622	222.046	-86.995	36.964	-120.671	36.417	-23.643	-119.995	-112.573	42.878	4.730	-112.710	-106.855	-105.882	-98.514	20.276	-98.780	-8191	255	
2405.226	1	1	0	0	0.17944	0.25575	0.074876	0.12965	0.29934	0.15921	0.097813	0.097702	0.043309	0.16508	0.088075	0.11409	0.10384	0.16245	0.11799	0.1714	-3.9521	-4.7229	-4.8729	-4.3	-5.0021	-4.4021	-4.4625	-5.0813	-4.1438	-4.7292	-4.9417	-4.1771	-5.0354	-4.5042	-4.2792	-5.1021	70.941	-100.261	210.906	218.502	22.642	74.602	192.278	210.482	171.455	21.607	222.425	143.274	-39.030	101.403	206.714	176.144	0.00012096	0.00017821	1.5653e-05	929.17	1.772e-06	3.8434e-06	1017.3	194.41	1.5243e-06	1.3897e-06	243.72	69.351	54.528	16.282	1.0503e-06	23.249	8.3741e-05	7.9839e-05	2.2407e-05	884.41	8.6624e-07	8.6398e-07	980.75	187.45	9.0385e-07	8.9531e-07	234.34	68.273	52.981	15.947	9.0302e-07	22.572	218.978	-12.847	130.557	-120.370	58.874	26.841	-119.979	-112.727	-72.544	-106.708	-112.686	-106.738	-106.020	-98.768	42.277	-98.901	-8191	255	
2405.347	1	1	0	0	0.21467	0.12414	0.19561	0.057453	0.13316	0.16249	0.28636	0.10252	0.12942	0.1377	0.084245	0.051277	0.14102	0.091757	0.1252	0.046844	-3.8396	-4.7646	-4.9146	-4.2979	-4.8854	-4.6667	-4.2917	-5.1	-4.3104	-4.4688	-5.1479	-4.1208	-4.9229	-4.7146	-4.1021	-5.1208	10.752	49.426	148.433	-6.927	77.859	13.344	156.365	-50.220	191.130	119.893	-41.860	72.288	147.321	13.254	206.437	124.417	0.00012709	0.00014097	5.1709e-05	923.59	2.2009e-06	2.073e-06	1020	194.6	2.3605e-07	1.5173e-06	244.63	69.984	54.661	16.36	1.5586e-06	23.315	8.6306e-05	8.3046e-05	2.22e-05	884.52	9.1231e-07	8.8208e-07	982.99	187.4	9.2e-07	9.1121e-07	234.37	68.345	52.893	15.95	8.9188e-07	22.551	224.231	-106.839	-11.505	-120.349	-32.747	115.884	-120.263	-112.534	-105.457	-20.904	-112.863	-106.517	-105.875	-98.474	66.416	-98.681	-8191	255	
2405.443	1	1	0	0	0.15324	0.15173	0.17301	0.093838	0.32488	0.10909	0.24203	0.16946	0.063317	0.19404	0.14542	0.14757	0.13646	0.29438	0.068154	0.11738	-3.8438	-4.3417	-5.05	-4.075	-4.6354	-4.7271	-4.3125	-5.0104	-4.4083	-4.4062	-5.0188	-4.1958	-4.8375	-4.8187	-4.2688	-5.0479	-92.459	-114.322	-23.729	-108.202	-113.499	90.473	123.168	171.125	13.315	205.446	-56.852	97.600	210.785	110.519	-49.521	107.210	7.7909e-05	0.000268	0.00010055	927.79	1.6906e-06	1.5848e-06	1014.7	194.57	1.0787e-06	1.7351e-06	246.26	69.875	54.86	16.386	2.5184e-06	23.242	8.6579e-05	8.0772e-05	2.2681e-05	884.95	8.9282e-07	8.9787e-07	980.63	187.44	9.2873e-07	9.0186e-07	234.63	68.364	52.917	15.969	9.227e-07	22.604	202.928	-45.016	7.026	-120.463	1.293	-24.671	-120.174	-112.507	35.800	39.330	-112.650	-107.000	-105.708	-98.536	-23.869	-99.182	-8191	255	
2405.539	1	1	0	0	0.16234	0.28494	0.081889	0.14402	0.070208	0.17631	0.17965	0.13896	0.12776	0.021915	0.09413	0.1836	0.13789	0.1016	0.1653	0.10877	-4.2042	-4.2771	-4.9688	-4.2708	-4.6396	-4.875	-4.25	-4.9979	-4.6208	-4.3812	-5.2333	-4.4208	-4.5542	-4.9083	-4.0583	-5.1229	91.168	126.607	193.238	170.015	205.176	-28.921	122.687	54.710	83.100	127.412	86.236	-103.471	79.203	83.257	222.625	110.113	0.00016951	0.00024261	0.00010047	926.87	2.988e-06	1.7552e-06	1015	194.04	2.2547e-06	1.5386e-06	245.74	70.218	54.376	16.252	1.254e-06	23.128	8.846e-05	8.2464e-05	2.3617e-05	884.01	9.3297e-07	9.1597e-07	980.53	187.33	9.2917e-07	9.3831e-07	234.1	68.386	52.884	15.947	9.4709e-07	22.534	218.687	-66.637	-57.149	-120.422	51.181	-19.754	-120.111	-112.912	-3.410	-11.117	-113.214	-106.775	-106.560	-98.253	-1.374	-98.824	-8191	255	
2405.611	1	1	0	0	0.092531	0.17666	0.12686	0.45396	0.067056	0.084012	0.18205	0.08993	0.091625	0.075235	0.080779	0.19263	0.11568	0.2668	0.096754	0.10666	-4.4083	-4.325	-5.0417	-4.6438	-4.4646	-4.9062	-4.2875	-4.8917	-4.5542	-4.1729	-5.0458	-4.2625	-4.4375	-4.9396	-4.2208	-4.6979	157.095	-4.545	25.402	186.820	106.720	-63.168	170.763	227.844	-57.276	-43.318	206.939	-127.638	211.219	-86.435	8.101	114.343	9.4501e-05	0.00041761	8.7059e-05	931.76	2.3057e-06	2.0468e-06	1014.9	193.45	1.7465e-06	1.538e-06	244.15	69.941	54.188	16.363	2.8331e-06	23.166	8.8532e-05	8.6928e-05	2.3693e-05	885.79	9.4091e-07	9.0521e-07	980.4	187.58	9.2741e-07	9.1405e-07	234.55	68.18	52.822	15.929	9.0862e-07	22.49	216.520	-57.900	-53.844	-120.162	-29.781	-111.863	-120.162	-112.997	-20.597	-58.730	-112.671	-106.498	-106.363	-98.373	33.796	-98.948	-8191	255	
2405.731	1	1	0	0	0.20372	0.061701	0.22398	0.26284	0.059478	0.034784	0.17192	0.19221	0.1687	0.13432	0.040438	0.13023	0.1465	0.21403	0.043727	0.078283	-4.5062	-4.2188	-4.9896	-4.5479	-4.5396	-5.0229	-4.1687	-4.9208	-4.7729	-4.1208	-5.0104	-4.5896	-4.3354	-5.0583	-4.0625	-4.6917	-81.736	-14.103	221.579	179.619	-129.145	76.149	128.408	-122.802	-25.787	39.010	205.061	133.122	189.620	-43.084	139.184	209.485	0.0001217	0.0002475	7.5559e-05	924.23	1.208e-06	2.1024e-06	1014.1	193.66	1.6195e-06	1.42e-06	244.2	69.608	54.202	16.361	4.5099e-07	23.003	8.7047e-05	8.3878e-05	2.2941e-05	883.05	9.1665e-07	9.1177e-07	980.13	187.43	9.3156e-07	9.2224e-07	234.39	68.297	52.848	15.982	9.3059e-07	22.524	209.893	-109.869	42.761	-120.305	40.707	-8.377	-120.088	-113.274	26.203	61.304	-112.973	-105.998	-105.733	-98.273	-53.622	-99.288	-8191	255	
2405.827	1	1	0	0	0.11133	0.10953	0.17041	0.14069	0.16874	0.03064	0.037408	0.11555	0.21518	0.1306	0.19788	0.17394	0.22617	0.11876	0.23453	0.12185	-4.725	-4.1792	-4.9375	-4.5625	-4.3354	-5.1833	-4.4313	-4.6896	-4.9917	-4.0792	-5.1208	-4.7562	-4.1792	-4.9313	-4.2812	-4.5396	-61.504	149.838	220.581	132.023	124.074	1.688	144.839	-98.560	-29.689	159.084	111.955	126.964	203.166	211.449	57.065	150.018	9.5951e-05	0.00045501	3.0637e-05	933.07	2.4131e-06	1.1363e-06	1013.3	196.17	2.1281e-06	2.8248e-06	244.47	70.024	54.315	16.428	2.1256e-06	23.285	8.7322e-05	8.5275e-05	2.3018e-05	884.94	9.2318e-07	9.1797e-07	981.26	187.92	9.1646e-07	9.0989e-07	233.74	68.33	52.891	15.977	9.1301e-07	22.554	220.127	3.824	131.373	-120.482	-31.804	76.049	-120.034	-112.816	-53.720	-0.086	-112.979	-106.355	-105.940	-98.935	25.970	-99.282	-8191	255	
2405.922	1	1	0	0	0.13996	0.23007	0.12923	0.14834	0.12075	0.21169	0.20122	0.11778	0.12831	0.079559	0.10897	0.33195	0.090654	0.098487	0.24721	0.12075	-4.6979	-4.0646	-4.8458	-4.8396	-4.3146	-5.0333	-4.5208	-4.5625	-4.8229	-4.125	-4.9146	-4.7833	-4.2	-4.9833	-4.4375	-4.5542	-44.537	-6.727	66.554	-74.849	198.500	171.697	196.738	-56.964	137.046	100.450	-99.761	38.209	79.806	-0.638	-23.913	185.882	0.00011402	0.00015228	7.6076e-05	928.5	2.8952e-06	3.6215e-06	1011.5	194.58	1.335e-06	1.2437e-06	245.95	69.8	54.429	16.356	2.706e-06	23.207	8.5255e-05	8.2607e-05	2.2769e-05	884.31	9.0622e-07	9.1674e-07	980.23	187.75	9.0772e-07	9.1229e-07	234.2	68.263	52.96	15.916	9.0501e-07	22.565	226.617	-32.082	-0.073	-120.139	-25.262	-63.150	-119.994	-112.822	-39.805	43.051	-112.803	-106.355	-106.428	-98.551	-47.164	-99.098	-8191	255	
2406.020	1	1	0	0	0.064705	0.15388	0.20382	0.1504	0.14753	0.097182	0.076688	0.050647	0.14628	0.16001	0.15641	0.10229	0.028984	0.23276	0.061916	0.18762	-4.7562	-4.0188	-4.7458	-4.8521	-3.9292	-4.9938	-4.7271	-4.2833	-5.0646	-4.0625	-4.5625	-4.9833	-4.0375	-5.0771	-4.4917	-4.2958	-47.781	-30.256	26.210	171.192	102.599	6.921	213.192	184.140	224.725	21.547	179.247	-55.984	138.691	-48.939	127.297	183.555	0.00015343	0.00016449	0.00014825	924.72	1.4771e-06	7.8613e-07	1021.6	193.28	5.3272e-07	8.232e-07	243.78	70.199	54.33	16.385	2.1715e-06	23.179	8.653e-05	8.2406e-05	2.2829e-05	883.38	9.096e-07	8.8331e-07	982.03	187.44	9.1607e-07	9.0968e-07	233.49	68.334	52.797	15.94	9.4781e-07	22.561	203.538	125.715	-36.358	-119.939	-57.622	27.559	-120.156	-112.780	59.347	-59.363	-113.350	-106.534	-106.175	-98.560	-16.166	-99.220	-8191	255	
2406.139	1	1	0	0	0.11795	0.052957	0.17724	0.1424	0.10359	0.17085	0.13195	0.13218	0.046691	0.18732	0.13999	0.091052	0.044646	0.12249	0.11456	0.053205	-4.7604	-4.2021	-4.6937	-5.05	-4.0938	-4.8438	-4.7896	-4.2458	-5.125	-4.2729	-4.5979	-4.9354	-4.275	-4.9187	-4.5417	-4.2812	98.190	176.992	-37.173	226.764	-65.884	97.995	99.082	148.289	225.842	-63.584	39.484	-92.110	188.162	43.237	-32.408	221.629	0.00011635	0.00018774	0.00011851	927.52	2.9494e-06	2.2237e-06	1018.6	194.84	2.522e-06	4.0337e-06	243.67	70.235	54.365	16.483	3.5951e-06	23.118	8.9428e-05	8.5737e-05	2.3701e-05	886.05	9.7412e-07	9.4112e-07	983.72	187.76	9.5458e-07	9.2848e-07	234.41	68.328	53.016	16.036	9.2523e-07	22.602	213.145	28.268	-76.431	-120.110	-11.128	41.784	-120.343	-112.799	5.066	23.701	-113.070	-106.379	-106.387	-98.374	-17.682	-99.471	-8191	255	
2406.235	1	1	0	0	0.13215	0.15598	0.11276	0.21016	0.11034	0.38049	0.23959	0.02609	0.20846	0.28392	0.040646	0.18	0.11491	0.13485	0.042027	0.15532	-4.8146	-4.3021	-4.2937	-5.0604	-4.1438	-4.775	-4.9104	-4.325	-4.9688	-4.5396	-4.3812	-5.0083	-4.3063	-4.7125	-4.8542	-4.1417	-71.134	38.513	108.393	165.774	50.590	-123.162	176.153	119.163	40.435	-54.188	-100.343	168.026	141.264	89.105	229.133	-15.098	0.00010261	0.00021088	7.3047e-05	932.48	1.8443e-06	1.4792e-06	1022	194.04	2.9116e-06	2.1311e-06	245.13	69.199	54.565	16.423	4.2071e-06	23.081	8.965e-05	8.4687e-05	2.405e-05	887.54	9.2239e-07	9.2978e-07	983.6	187.9	9.1866e-07	9.1453e-07	234.99	68.242	52.95	15.994	9.1743e-07	22.587	209.895	48.598	-24.507	-120.216	-110.471	4.354	-120.300	-112.881	18.270	0.877	-112.902	-106.919	-105.842	-98.395	11.628	-99.544	-8191	255	
2406.331	1	1	0	0	0.088276	0.10726	0.23182	0.28371	0.26393	0.1963	0.15079	0.058878	0.17211	0.13156	0.062171	0.098583	0.13484	0.14557	0.14967	0.086629	-4.7375	-4.4896	-4.3271	-5.1458	-4.1417	-4.7896	-4.9875	-4.2417	-4.8354	-4.6167	-4.125	-4.9563	-4.375	-4.6479	-4.8542	-4.1917	196.656	210.511	219.767	-117.947	91.855	-105.101	177.611	32.404	42.223	106.275	-71.601	142.450	42.370	128.571	-50.185	103.664	0.00012064	0.00017508	8.6645e-05	928.27	2.6701e-06	2.9467e-06	1018.4	195.36	3.0116e-06	3.7573e-06	246.34	70.002	54.263	16.4	2.1012e-06	23.419	8.9478e-05	8.618e-05	2.309e-05	887.1	9.2213e-07	9.3107e-07	984.58	188.23	9.2657e-07	9.2149e-07	234.81	68.533	52.84	16.021	9.1048e-07	22.658	218.076	-84.665	-78.917	-120.629	38.888	-13.322	-119.978	-112.942	25.750	7.118	-112.954	-106.673	-106.483	-98.797	-28.973	-98.704	-8191	255	
2406.427	1	1	0	0	0.2321	0.079711	0.037799	0.055461	0.2701	0.1505	0.13803	0.044257	0.12275	0.2511	0.15578	0.16591	0.19548	0.21199	0.20518	0.16378	-4.5854	-4.5208	-4.0312	-5.0771	-4.2979	-4.3958	-4.9167	-4.3208	-4.7521	-4.6354	-4.3729	-5.1917	-4.3979	-4.4521	-5.0042	-4.275	157.739	-50.077	-64.660	-22.642	155.094	160.085	156.849	213.526	-78.591	159.846	31.966	129.454	211.210	29.008	67.743	-129.484	0.00011934	0.00043852	9.0621e-05	930.18	3.2121e-06	5.2698e-07	1018.1	194.47	1.4088e-06	3.49e-06	246.05	70.302	54.665	16.337	7.885e-07	23.272	8.671e-05	8.3742e-05	2.3532e-05	886.93	9.4198e-07	9.097e-07	985.39	187.95	9.4053e-07	9.1143e-07	235.08	68.439	52.984	16.002	8.9859e-07	22.659	199.434	-40.453	-58.526	-120.195	0.723	113.022	-120.017	-113.048	-78.071	4.433	-113.298	-106.670	-105.796	-98.633	-45.530	-99.027	-8191	255	
2406.523	1	1	0	0	0.25363	0.18829	0.29451	0.29366	0.022035	0.042425	0.079359	0.22632	0.042804	0.10365	0.18847	0.18017	0.11852	0.013904	0.1284	0.10745	-4.4958	-5.0062	-4.1	-5.1188	-4.45	-4.325	-5.1813	-4.2	-4.7562	-4.9167	-4.1583	-5.0563	-4.3708	-4.3542	-5.0479	-4.3667	-1.924	122.725	15.579	159.237	37.120	135.331	-97.075	209.648	-96.402	97.923	122.800	170.088	16.073	-19.119	49.349	-122.925	0.00010726	0.00031968	8.109e-05	936.61	1.2293e-06	2.8378e-06	1025.3	195.34	1.8199e-06	2.1295e-06	245.44	69.669	54.708	16.348	3.8324e-06	23.145	8.7612e-05	8.5709e-05	2.3802e-05	890.08	9.3703e-07	9.4512e-07	988.3	188.54	9.6629e-07	9.2446e-07	235	68.616	53.094	16.046	9.5159e-07	22.611	214.623	21.538	-36.999	-120.404	-12.417	-30.161	-120.197	-113.010	-11.420	21.362	-113.104	-106.830	-106.096	-98.737	-31.662	-99.311	-8191	255	
2406.619	1	1	0	0	0.079231	0.12944	0.070125	0.28509	0.023796	0.26616	0.1874	0.18127	0.084994	0.11085	0.094764	0.21092	0.11991	0.38698	0.054959	0.15707	-4.4812	-4.8646	-4.0792	-4.9979	-4.5771	-4.3917	-5.2	-4.3083	-4.6354	-4.8479	-4.1	-4.8812	-4.6438	-4.1042	-5.1104	-4.2833	-50.967	-109.271	-64.864	-118.540	-108.213	180.164	188.505	179.699	172.460	-38.097	81.281	195.558	-68.693	-129.927	33.738	6.880	0.00010592	0.00028258	0.00011422	933.88	2.1539e-06	5.1287e-07	1024	194.92	2.4463e-06	3.2044e-06	243.87	70.648	55.119	16.486	2.3713e-06	23.582	9.2267e-05	8.956e-05	2.5129e-05	890.35	9.5902e-07	9.6234e-07	988.12	188.23	9.6882e-07	9.4363e-07	234.71	68.623	53.108	16.073	9.4376e-07	22.718	228.417	-110.192	-51.227	-120.486	-92.794	88.070	-120.046	-113.202	-59.702	58.312	-113.033	-107.044	-105.771	-99.101	55.995	-99.038	-8191	255	
2406.740	1	1	0	0	0.058195	0.26865	0.16084	0.30211	0.057077	0.12459	0.13488	0.25434	0.21532	0.17414	0.084648	0.05899	0.25231	0.16553	0.13558	0.15173	-4.2604	-5.0271	-4.2917	-4.9208	-4.4688	-4.1104	-5.1708	-4.4458	-4.2646	-4.8604	-3.9542	-4.7292	-4.7625	-4.1813	-4.9708	-4.3667	89.434	-64.076	30.408	-123.502	210.721	120.762	170.390	196.572	184.273	179.189	-127.191	85.262	-56.367	134.739	110.708	170.270	0.00012575	0.00019525	0.00010137	938.34	2.1226e-06	2.3905e-06	1021.8	194.94	1.6061e-06	2.3585e-06	245.63	69.903	54.344	16.444	3.5251e-06	23.228	8.847e-05	8.5713e-05	2.3663e-05	891.47	9.4417e-07	9.0842e-07	988.18	188.15	9.2761e-07	8.999e-07	235.12	68.682	53.084	16.059	9.079e-07	22.557	220.113	18.355	6.206	-120.357	-29.419	-34.259	-120.209	-112.965	8.882	3.821	-112.681	-106.669	-106.186	-98.203	55.235	-98.831	-8191	255	
2406.834	1	1	0	0	0.064831	0.068891	0.0043667	0.17594	0.20789	0.17582	0.2836	0.24954	0.12795	0.10478	0.19772	0.16848	0.1556	0.050454	0.10308	0.12198	-4.0563	-4.9167	-4.125	-4.7188	-4.7979	-4.1125	-5.2042	-4.5271	-4.1417	-5.0521	-4.3063	-4.6771	-4.8333	-4.2604	-4.9792	-4.75	30.618	162.142	-1.180	-122.381	-16.124	142.492	166.582	-109.763	14.959	153.225	134.056	189.994	-62.550	-28.303	106.435	222.877	8.8044e-05	0.00026086	8.3698e-05	938.17	1.363e-06	2.7894e-06	1025.7	194.51	2.6549e-06	1.0675e-06	244.42	70.452	54.72	16.462	2.0063e-06	23.246	8.8506e-05	8.354e-05	2.3545e-05	889.54	9.3972e-07	9.4946e-07	987.06	188.69	9.9174e-07	9.7359e-07	235.09	68.622	53.058	16.091	9.7283e-07	22.679	193.804	-65.072	45.930	-120.150	-10.675	11.828	-120.330	-112.825	-53.624	34.060	-112.932	-106.619	-106.076	-98.859	105.188	-98.936	-8191	255	
2406.908	1	1	0	0	0.076401	0.18401	0.062726	0.14099	0.22037	0.057261	0.11135	0.06867	0.27789	0.16256	0.14481	0.066934	0.22585	0.16698	0.13808	0.084229	-3.9021	-5.1	-4.3187	-4.6625	-4.9833	-4.1396	-5.1167	-4.7771	-4.1021	-5.0771	-4.4042	-4.6125	-5.0458	-4.1292	-4.7063	-4.7646	68.947	176.827	-68.843	179.953	-110.227	-72.683	202.849	2.503	69.201	-25.685	73.917	80.075	-59.763	92.646	182.372	197.946	0.00014213	0.0002268	0.00013375	934.06	1.575e-06	2.4491e-06	1027	195.6	9.5533e-07	3.5896e-06	246.31	70.142	54.972	16.286	1.3148e-06	23.392	9.362e-05	8.7978e-05	2.5409e-05	890.82	9.8735e-07	9.9436e-07	987.12	188.5	1.0451e-06	1.004e-06	235.72	68.654	53.295	16.09	1.0327e-06	22.715	213.013	-21.051	-67.903	-120.028	53.843	8.499	-120.330	-112.655	-3.601	63.698	-113.086	-106.328	-105.846	-98.531	-3.784	-99.016	-8191	255	
2407.004	1	1	0	0	0.19659	0.23212	0.14241	0.21922	0.14929	0.23064	0.045323	0.14139	0.17521	0.058193	0.19629	0.040165	0.15202	0.069967	0.16159	0.16106	-3.8875	-5.0729	-4.3625	-4.5667	-5.0646	-4.2562	-4.8875	-4.7771	-4.2979	-4.9583	-4.4437	-4.4104	-4.9271	-4.1479	-4.7479	-5.0021	141.499	-112.343	86.880	192.358	203.904	-90.676	51.742	132.583	48.639	151.349	31.293	88.396	-105.280	-4.412	-74.417	133.821	0.00011981	0.00028697	6.5689e-05	931.63	2.5149e-06	3.1239e-06	1024.5	194.65	3.4688e-06	3.0267e-06	244.86	70.473	54.652	16.492	1.9739e-06	23.477	9.5791e-05	9.1527e-05	2.6247e-05	889.99	1.023e-06	1.0209e-06	987.89	188.36	1.045e-06	1.0045e-06	235.26	68.824	53.213	16.077	1.0048e-06	22.826	210.192	-33.529	-87.299	-120.344	11.803	-38.133	-120.201	-112.779	-32.483	-52.702	-112.628	-106.868	-106.483	-98.298	-107.903	-99.693	-8191	255	
2407.123	1	1	0	0	0.084636	0.22525	0.18015	0.13246	0.055464	0.08688	0.11658	0.1741	0.10718	0.10931	0.10627	0.029664	0.10679	0.16549	0.1618	0.086516	-3.9417	-4.9	-4.6083	-4.3708	-5.0062	-4.1604	-4.9187	-4.7917	-4.1188	-5.0771	-4.6729	-4.2896	-4.9458	-4.3646	-4.4437	-5.0062	214.369	-103.986	-7.016	-127.646	206.135	155.313	206.200	220.497	46.336	225.207	205.864	64.676	158.557	202.361	-14.726	150.460	0.00013806	0.00014208	6.5137e-05	934.22	2.8817e-06	2.9333e-06	1023.4	195.43	9.4007e-07	1.5545e-06	246.89	70.001	54.92	16.392	2.4009e-06	23.347	9.6554e-05	9.2203e-05	2.615e-05	889.73	1.0337e-06	1.027e-06	989.29	188.77	1.0209e-06	1.0197e-06	235.71	68.763	53.293	16.057	1.0281e-06	22.725	218.966	-66.891	5.019	-120.308	35.840	-8.630	-120.136	-112.826	-12.917	81.459	-113.288	-106.758	-105.934	-98.946	-27.843	-99.183	-8191	255	
2407.219	1	1	0	0	0.20153	0.19113	0.13789	0.20954	0.12252	0.12564	0.16769	0.23157	0.21674	0.26583	0.2728	0.09553	0.19532	0.028001	0.19225	0.12125	-3.8042	-4.9667	-4.6167	-4.3292	-5.1375	-4.2438	-4.7729	-5.0521	-4.1438	-4.8104	-4.8438	-4.175	-5.0708	-4.4854	-4.3812	-5.1542	134.913	163.279	-98.475	219.132	211.730	141.414	-89.595	-119.889	202.287	-82.516	198.357	64.861	40.550	-93.278	64.992	200.892	8.8215e-05	0.00015726	5.3232e-05	935.53	2.3564e-06	3.4611e-06	1023.3	195.08	1.8559e-06	1.7307e-06	246.86	70.636	54.594	16.56	2.3902e-06	23.631	9.6604e-05	9.3953e-05	2.5849e-05	891.47	9.9785e-07	1.024e-06	991.21	188.81	1.0215e-06	1.0017e-06	236.26	68.823	53.224	16.135	1.0217e-06	22.781	188.617	-50.859	-92.911	-120.100	-29.711	54.050	-120.085	-112.955	-103.884	18.868	-112.820	-106.718	-106.032	-98.729	217.575	-98.661	-8191	255	
2407.315	1	1	0	0	0.059215	0.22041	0.14449	0.16646	0.18329	0.12992	0.25205	0.22299	0.20449	0.073029	0.15874	0.10458	0.017185	0.047531	0.14457	0.11427	-3.9104	-4.7833	-5.0229	-4.2208	-4.9313	-4.5563	-4.5875	-5.1896	-4.1979	-4.7562	-4.8292	-4.275	-5.0375	-4.5687	-4.4437	-5.1083	205.593	-96.553	190.255	224.897	179.800	64.397	199.433	-54.384	150.338	-44.893	175.748	-22.048	12.417	98.043	23.354	8.089	0.00014951	0.00055643	2.3225e-05	931.28	4.2005e-06	2.3122e-06	1020.5	193.74	6.475e-07	2.099e-06	246.26	70.561	54.78	16.483	1.1569e-06	23.461	9.5153e-05	9.0358e-05	2.5074e-05	889.51	1.0047e-06	1.0099e-06	988.69	188.19	1.0281e-06	9.986e-07	235.37	68.663	53.222	16.093	9.9369e-07	22.715	-118.497	-64.035	-98.429	-120.335	-20.828	-38.450	-120.170	-112.723	-1.774	-12.091	-112.951	-106.714	-106.004	-98.557	149.345	-99.461	-8191	255	
2407.411	1	1	0	0	0.02394	0.15263	0.18282	0.27223	0.13109	0.13194	0.095607	0.094343	0.194	0.12411	0.16776	0.043476	0.18412	0.075581	0.097074	0.17421	-3.9437	-4.5104	-4.8125	-4.2188	-4.8729	-4.5167	-4.4729	-5.0208	-4.3229	-4.5271	-4.8792	-4.0646	-4.9896	-4.8104	-4.0312	-5.0771	139.618	90.764	119.286	156.486	202.836	-90.863	135.476	152.189	-106.315	142.528	204.750	227.318	211.301	127.959	208.258	55.237	8.7225e-05	0.00022781	6.0799e-05	929.58	2.8676e-06	3.2612e-06	1022.5	194.91	3.0187e-06	1.2908e-06	246.32	70.276	54.884	16.462	1.7573e-06	23.318	9.4239e-05	8.9562e-05	2.5184e-05	889.56	1.011e-06	9.6705e-07	988.7	188.55	1.0231e-06	9.9487e-07	235.79	68.833	53.183	16.078	9.8313e-07	22.694	218.360	-27.386	-50.961	-119.808	23.812	38.709	-120.148	-112.722	-38.471	-67.195	-113.114	-106.514	-106.487	-98.891	-80.297	-99.139	-8191	255	
2407.507	1	1	0	0	0.28299	0.15679	0.15486	0.12673	0.14257	0.08173	0.26229	0.089255	0.12101	0.054187	0.019819	0.082723	0.16739	0.17318	0.22873	0.074584	-3.9708	-4.3479	-5.0208	-4.1188	-4.8229	-4.6625	-4.2937	-5.1083	-4.3354	-4.4146	-5.1458	-4.1208	-4.875	-4.7479	-4.0813	-5.2333	170.266	135.177	-88.171	-47.332	195.877	217.905	166.085	16.775	-28.835	163.305	-59.512	11.630	-40.481	122.259	0.121	-83.964	0.00012778	0.00027516	6.3249e-05	935.19	1.484e-06	1.3101e-06	1019.2	194.8	1.0193e-06	1.4171e-06	248.21	70.279	55.01	16.632	1.3593e-06	23.334	9.1108e-05	9.1272e-05	2.4847e-05	891.77	1.0092e-06	9.6685e-07	988.04	188.69	9.9656e-07	9.6555e-07	236.28	68.735	53.357	16.104	9.8503e-07	22.748	215.426	-80.773	-14.822	-120.267	22.276	177.188	-119.980	-112.992	-4.868	172.280	-112.707	-106.767	-106.097	-98.692	59.258	-98.839	-8191	255	
2407.604	1	1	0	0	0.090673	0.32675	0.10576	0.19357	0.098058	0.093175	0.37206	0.20549	0.020667	0.18575	0.090668	0.16722	0.10937	0.041594	0.11875	0.19598	-4.2104	-4.0833	-5.0333	-4.2375	-4.6521	-4.8833	-4.2125	-5.0125	-4.5479	-4.3625	-5.1062	-4.2083	-4.6646	-4.8667	-4.0896	-4.9812	89.290	24.682	-109.144	-96.994	210.439	142.538	-116.643	70.813	224.069	9.999	-70.572	178.194	124.904	161.742	-66.567	188.966	0.00012479	0.00034636	0.00011333	931.57	9.8252e-07	4.1613e-06	1023.3	195.09	4.3018e-06	1.5911e-06	245.42	70.49	55.263	16.5	3.6764e-06	23.393	9.3839e-05	9.0616e-05	2.5013e-05	888.96	1.0042e-06	9.796e-07	989.07	189.09	1.0361e-06	9.9085e-07	235.24	68.791	53.368	16.082	1.0024e-06	22.74	223.148	-95.334	-93.718	-120.472	-53.503	-15.063	-120.208	-112.804	44.806	53.457	-113.055	-106.592	-106.116	-98.392	-8.843	-98.927	-8191	255	
2407.700	1	1	0	0	0.10382	0.047077	0.13861	0.10331	0.020916	0.22061	0.28442	0.24907	0.18614	0.077575	0.19046	0.14633	0.15282	0.26636	0.11803	0.13896	-4.3333	-4.3229	-5.2646	-4.3125	-4.6208	-5.025	-4.3229	-4.8875	-4.75	-4.2917	-5.1583	-4.4083	-4.5104	-4.9542	-4.1333	-4.9208	93.450	-88.547	18.560	201.918	-129.455	16.505	165.136	168.202	137.575	94.221	145.823	-87.549	216.998	224.220	98.217	-75.935	8.3323e-05	0.00039644	2.4227e-05	930.64	1.9035e-06	1.7192e-06	1024.9	196.12	2.1428e-06	5.7072e-06	245.78	69.938	54.473	16.557	4.6408e-06	23.353	9.4739e-05	8.956e-05	2.4983e-05	890.15	9.8676e-07	1.0048e-06	989.25	188.62	1.0124e-06	9.7745e-07	236.03	68.824	53.376	16.121	1.0054e-06	22.729	199.202	-51.875	73.896	-120.267	9.353	5.879	-120.128	-113.230	21.297	32.740	-112.925	-106.645	-106.332	-98.748	-48.834	-98.870	-8191	255	
2407.820	1	1	0	0	0.26377	0.075937	0.036241	0.13225	0.15797	0.057139	0.17056	0.10033	0.15195	0.23672	0.055375	0.14656	0.060629	0.25377	0.22127	0.029528	-4.3583	-4.1458	-5.0708	-4.5604	-4.3479	-4.8896	-4.3313	-4.8	-4.8021	-4.0188	-5.0437	-4.4396	-4.2458	-5.1458	-4.2729	-4.6417	96.436	211.114	93.423	85.276	-107.853	5.293	-103.731	-106.978	84.943	-5.323	-105.461	152.798	-54.846	204.548	10.246	212.470	9.3135e-05	0.00025892	4.5786e-05	933.78	1.9789e-06	5.4843e-06	1027.2	195.46	1.3977e-06	2.0614e-06	245.99	70.037	54.514	16.375	1.6727e-06	23.373	9.5348e-05	9.1891e-05	2.5448e-05	891.48	1.0166e-06	9.8893e-07	989.83	188.83	1.0278e-06	1.0084e-06	235.6	68.807	53.11	16.09	9.9375e-07	22.791	213.025	-77.827	62.903	-120.328	-96.284	-32.102	-119.957	-113.028	-17.270	-78.724	-113.249	-106.869	-106.031	-98.217	-85.627	-99.222	-8191	255	
2407.915	1	1	0	0	0.08815	0.17703	0.15889	0.10362	0.29736	0.22449	0.098262	0.096969	0.089665	0.10878	0.1816	0.13666	0.22693	0.084615	0.27067	0.041778	-4.7583	-4.0813	-5.0854	-4.6438	-4.3104	-5.0854	-4.3417	-4.4833	-4.8208	-4.1062	-4.9896	-4.6292	-4.3833	-5.1729	-4.3271	-4.5583	-0.388	100.675	-93.749	-97.941	185.175	103.352	167.342	-93.309	193.163	64.212	162.608	136.832	-29.778	26.819	135.757	121.627	0.00010966	0.00017533	2.1063e-05	934.07	2.2036e-06	1.8109e-06	1024.1	195.58	9.2672e-07	2.6723e-06	246.43	70.16	54.59	16.481	2.7216e-06	23.088	9.7388e-05	9.4185e-05	2.6092e-05	891.09	1.0355e-06	1.0347e-06	989.57	189.26	1.0531e-06	1.0386e-06	236.21	68.656	53.187	16.079	1.0265e-06	22.706	-128.526	-34.806	226.631	-120.364	-35.936	-51.494	-120.224	-113.198	-109.076	-1.986	-113.022	-106.384	-106.133	-98.056	-11.003	-98.788	-8191	255	
2408.013	1	1	0	0	0.1191	0.041874	0.18208	0.12069	0.017752	0.05597	0.11467	0.21538	0.1809	0.077898	0.11654	0.18003	0.15695	0.14143	0.073519	0.023367	-4.6292	-4.2542	-4.8458	-4.8167	-4.1729	-5.0979	-4.5062	-4.6292	-4.9458	-4.2417	-5.0917	-4.7479	-4.3604	-5.1062	-4.3938	-4.5042	-98.283	133.614	15.409	169.165	54.513	164.808	91.699	151.181	-53.145	225.528	-120.734	-125.267	-128.710	225.136	221.963	-127.904	0.0001159	0.00040647	0.00013152	932.69	4.3474e-06	1.8882e-06	1020.2	195.75	1.5099e-06	2.3276e-06	246.79	69.851	54.408	16.368	2.6181e-06	23.354	9.7007e-05	9.5935e-05	2.5736e-05	889.44	1.0518e-06	1.0295e-06	987.93	188.81	1.0522e-06	1.0363e-06	235.83	68.778	53.19	16.037	1.0064e-06	22.675	206.549	-18.194	-14.683	-120.275	-51.159	80.376	-120.065	-112.847	12.494	50.094	-113.083	-106.518	-105.780	-98.919	-19.864	-99.090	-8191	255	
2408.132	1	1	0	0	0.094136	0.19438	0.023613	0.18834	0.18469	0.17308	0.11371	0.090208	0.098095	0.099531	0.091415	0.20604	0.10397	0.090715	0.24534	0.082145	-4.9062	-4.2083	-4.6875	-4.9125	-4.0896	-5.075	-4.6292	-4.4833	-5.0521	-4.1042	-4.8417	-5.0375	-4.2229	-5.15	-4.3083	-4.4417	-74.601	133.222	131.127	59.672	188.505	43.179	127.352	55.296	204.111	101.580	-38.120	113.793	10.984	76.307	187.934	185.958	0.00013964	0.00027074	0.00010473	930.67	1.8085e-06	2.7204e-06	1021.6	194.5	1.6274e-06	1.6366e-06	245.61	70.253	54.657	16.616	1.3506e-06	23.312	9.6678e-05	9.4985e-05	2.6262e-05	889.7	1.0409e-06	1.035e-06	986.55	188.6	1.0247e-06	1.0365e-06	235.56	68.825	53.215	16.121	1.0048e-06	22.697	216.746	-53.403	-50.149	-120.189	-57.763	-71.160	-120.119	-113.030	-23.449	-48.634	-113.067	-106.925	-106.138	-98.754	28.859	-98.848	-8191	255	
2408.203	1	1	0	0	0.10416	0.10221	0.13022	0.14728	0.18121	0.23004	0.32581	0.034298	0.089442	0.22514	0.041159	0.14012	0.1688	0.085918	0.19973	0.12661	-4.8167	-4.1667	-4.7021	-5.2562	-4.1708	-4.9313	-4.8208	-4.375	-5.0375	-4.3854	-4.7271	-5.0646	-4.3542	-4.925	-4.6813	-4.3542	-11.470	95.805	102.403	-1.949	130.180	219.213	129.984	41.726	78.547	73.777	-119.734	8.365	29.455	32.631	86.217	-38.813	0.00012661	0.00021227	0.00010533	926.04	1.7668e-06	3.1198e-06	1019.7	194.19	3.1933e-06	5.1798e-06	245.14	69.849	54.264	16.377	1.878e-06	23.197	9.7725e-05	9.2632e-05	2.6195e-05	887.38	1.0239e-06	1.0153e-06	985.57	188.53	1.032e-06	1.0311e-06	235.19	68.56	53.143	16.03	1.0074e-06	22.63	209.152	221.411	-56.916	-120.368	-36.696	32.923	-120.054	-112.978	39.563	-7.189	-113.252	-107.045	-106.191	-99.103	77.676	-99.205	-8191	255	
2408.299	1	1	0	0	0.1816	0.14189	0.17433	0.22203	0.097799	0.13821	0.18384	0.10437	0.061861	0.046854	0.15635	0.11322	0.19081	0.13372	0.1852	0.28067	-4.8458	-4.4875	-4.3479	-5.0979	-4.1083	-4.7729	-5.0062	-4.125	-4.9583	-4.4708	-4.5479	-5.1604	-4.2667	-4.7458	-4.8125	-4.2812	-61.122	72.650	-122.736	221.974	-38.495	-16.143	176.022	185.050	130.137	132.772	58.351	76.091	54.321	-36.937	77.636	87.012	9.9916e-05	0.00032881	3.1811e-05	938.37	2.3384e-06	7.7787e-07	1020.4	194.15	2.8574e-06	1.4483e-06	245.52	70.194	54.661	16.407	2.7779e-06	23.296	9.5563e-05	9.1443e-05	2.5848e-05	889.45	1.0021e-06	9.8734e-07	986.91	188.37	1.0148e-06	9.9882e-07	235.1	68.568	52.968	16.04	1.0051e-06	22.682	227.739	-55.793	162.923	-120.538	-102.975	111.678	-120.148	-112.952	-44.328	-39.632	-113.264	-107.273	-106.041	-98.656	42.912	-99.598	-8191	255	
2408.420	1	1	0	0	0.10702	0.08848	0.049503	0.1629	0.075023	0.031003	0.17882	0.10608	0.28966	0.09069	0.16047	0.15785	0.052193	0.056928	0.16962	0.12187	-4.6896	-4.4625	-4.4479	-5.2812	-4.1438	-4.7625	-5.1583	-4.1687	-4.9812	-4.5979	-4.5229	-5.1958	-4.3583	-4.6667	-4.8896	-4.2375	87.725	-34.984	-63.640	210.899	-72.654	-123.949	226.651	-22.142	-4.582	-40.356	58.961	120.304	-129.471	112.001	-58.337	78.866	0.00012993	0.00030141	0.0001177	925.52	1.1859e-06	2.8645e-06	1017.3	195.49	1.9044e-06	2.297e-06	245.18	70.016	54.421	16.432	2.4128e-06	22.918	9.6618e-05	9.4247e-05	2.5879e-05	889.85	1.021e-06	9.8332e-07	985.71	188.5	1.0235e-06	9.91e-07	234.93	68.687	53.098	16.04	9.7004e-07	22.598	212.845	-53.022	-74.223	-120.504	206.471	-14.514	-119.792	-112.791	5.078	14.553	-112.979	-106.719	-106.177	-98.942	17.198	-99.185	-8191	255	
2408.516	1	1	0	0	0.10927	0.071849	0.18843	0.36423	0.18972	0.10874	0.3332	0.055504	0.22872	0.24405	0.20725	0.12372	0.20643	0.31807	0.14096	0.15182	-4.7583	-4.6562	-4.1771	-5.2438	-4.3625	-4.5542	-5.2688	-4.1458	-4.8542	-4.7188	-4.2896	-5.2208	-4.4187	-4.4896	-5.075	-4.2542	-80.798	150.235	17.240	184.685	37.051	86.604	169.162	168.639	186.398	90.624	162.688	-32.655	-58.061	-24.067	208.696	159.438	0.00015177	0.00021901	3.6221e-05	933.29	2.5208e-06	2.3413e-06	1018.2	196.78	1.8145e-06	4.9249e-06	244.94	70.204	54.756	16.36	1.3012e-06	23.354	9.5058e-05	9.3096e-05	2.5285e-05	890.52	1.0135e-06	9.8679e-07	984.3	188.89	9.932e-07	9.7862e-07	234.76	68.665	53.205	16.002	9.8409e-07	22.687	-126.696	-11.856	-41.875	-120.168	-120.627	-11.944	-120.174	-113.006	-37.666	51.619	-113.124	-106.548	-105.891	-98.641	-55.481	-99.076	-8191	255	
2408.612	1	1	0	0	0.25032	0.19265	0.24323	0.090916	0.085257	0.19325	0.16598	0.18653	0.12323	0.16459	0.21662	0.067359	0.36975	0.075112	0.060465	0.19478	-4.5708	-4.7875	-4.1104	-5.1708	-4.35	-4.5021	-5.1896	-4.1562	-4.6167	-4.7354	-4.2667	-5.0396	-4.6208	-4.4479	-5.0312	-4.1937	58.296	1.438	-78.678	173.766	188.472	-56.755	94.561	158.845	109.503	179.647	140.428	228.005	-96.422	-121.285	2.088	219.587	7.7107e-05	0.00035593	9.1561e-05	930.44	1.9609e-06	2.7543e-06	1015.6	193.96	1.9451e-06	1.8245e-06	244.79	70.055	54.737	16.437	3.9167e-06	23.36	9.4284e-05	9.1123e-05	2.4927e-05	889.8	1.0152e-06	9.7839e-07	984.83	188.11	1.0109e-06	9.9296e-07	235.04	68.565	53.071	16.054	9.929e-07	22.629	218.445	-22.915	-34.666	-120.411	2.395	-83.377	-120.050	-113.130	43.345	-99.429	-112.932	-107.054	-106.017	-98.265	-37.508	-99.391	-8191	255	
2408.708	1	1	0	0	0.075055	0.32618	0.063001	0.046671	0.081652	0.16954	0.23923	0.0098831	0.094331	0.1442	0.36048	0.23859	0.12757	0.17944	0.052842	0.12815	-4.425	-5.0625	-4.1896	-4.9479	-4.7354	-4.2333	-5.0167	-4.2604	-4.6687	-5.0146	-4.2333	-4.9313	-4.6125	-4.3146	-4.8771	-4.3771	221.311	-1.493	-43.661	-33.934	11.938	6.690	184.434	119.057	-43.830	-60.211	193.695	114.051	-33.853	121.988	150.250	174.941	0.000139	3.1607e-05	3.0931e-05	928.32	1.8422e-06	4.1265e-06	1016.1	195.26	1.3613e-06	1.3689e-06	245.15	69.614	54.935	16.367	1.574e-06	23.219	9.2797e-05	8.9853e-05	2.4917e-05	887.53	9.8135e-07	1.0148e-06	985.62	188.9	1.0301e-06	9.7378e-07	235.06	68.502	53.095	16.041	9.917e-07	22.667	211.648	101.365	-90.038	-120.401	-58.350	27.916	-120.004	-112.491	2.271	-55.686	-112.990	-106.656	-105.989	-99.012	78.826	-99.482	-8191	255	
2408.805	1	1	0	0	0.12988	0.19839	0.21566	0.23672	0.18071	0.077188	0.12409	0.2309	0.19551	0.39425	0.24329	0.19394	0.10198	0.22657	0.16637	0.017127	-4.2104	-4.9333	-4.1729	-4.9292	-4.5437	-3.9313	-5.3938	-4.5125	-4.5208	-5.0188	-4.1083	-4.8021	-4.8625	-4.2312	-5.1667	-4.5667	170.851	127.648	26.918	191.801	-37.665	-12.575	195.328	184.319	221.430	-84.553	119.192	206.410	-23.353	36.883	91.100	10.984	0.00011505	0.0001668	5.41e-05	925.69	1.8079e-06	8.012e-07	1017.1	194.49	1.4695e-06	3.0348e-06	244.3	69.94	54.76	16.318	4.4928e-06	23.244	9.4715e-05	8.8815e-05	2.5734e-05	885.79	1.0004e-06	9.5869e-07	984.25	188.28	9.9764e-07	9.7069e-07	233.58	68.422	53.052	16.008	9.5316e-07	22.617	211.042	33.789	-116.114	-120.108	16.481	-7.562	-120.114	-112.866	27.374	86.190	-113.036	-106.401	-106.211	-98.654	-13.987	-99.508	-8191	255	
2408.901	1	1	0	0	0.084064	0.1075	0.079251	0.097355	0.092579	0.10718	0.11176	0.1652	0.1984	0.10594	0.15215	0.049064	0.11231	0.11685	0.18885	0.1382	-3.9833	-5.0375	-4.1417	-4.7896	-4.7896	-4.0667	-5.1333	-4.5042	-4.3187	-5.0188	-4.1958	-4.7042	-4.8333	-4.1521	-5.0125	-4.7729	198.245	179.986	225.454	225.938	-79.591	180.536	-44.333	134.350	-109.062	32.529	169.448	17.926	26.683	215.485	60.041	-31.845	0.00011747	0.0003046	4.7611e-05	931.36	2.3724e-06	6.4067e-07	1011.6	195.22	1.92e-06	2.8911e-06	243.35	69.33	54.462	16.312	3.5141e-06	23.287	9.2e-05	8.7479e-05	2.4911e-05	887.98	9.716e-07	9.4136e-07	982.05	188.26	9.8702e-07	9.5176e-07	234.04	68.107	53.025	15.995	9.4779e-07	22.576	207.140	223.168	-34.546	-120.515	-124.481	-67.615	-119.862	-112.655	-40.706	-100.184	-112.920	-106.873	-106.007	-98.712	-11.825	-99.257	-8191	255	
2408.995	1	1	0	0	0.044097	0.10156	0.029631	0.25452	0.065116	0.067855	0.2361	0.16687	0.27484	0.085248	0.14837	0.19356	0.10747	0.04347	0.20287	0.071112	-3.8792	-5.1896	-4.3708	-4.8271	-5.0229	-4.1062	-5.2104	-4.6354	-4.1396	-5.175	-4.6208	-4.5604	-4.9313	-4.0104	-4.7438	-4.8063	-43.809	133.354	43.559	189.309	145.720	-19.054	147.638	-103.627	76.294	193.217	29.561	64.637	182.501	117.434	156.556	-83.326	0.00013661	0.00027564	6.792e-05	924.25	2.0203e-06	1.9067e-06	1014.1	193.47	1.27e-06	3.4164e-06	245.28	69.654	53.957	16.291	3.7493e-06	23.256	9.0117e-05	8.715e-05	2.4358e-05	884.18	9.4091e-07	9.3892e-07	978.86	188.06	9.4559e-07	9.2571e-07	234.11	68.192	52.846	15.967	9.2936e-07	22.546	226.047	-67.545	46.802	-120.217	11.142	51.290	-120.037	-112.925	-14.337	22.848	-112.898	-106.970	-106.482	-98.650	44.646	-99.092	-8191	255	
2409.093	1	1	0	0	0.15427	0.060768	0.031454	0.33182	0.069759	0.13336	0.10228	0.11246	0.11215	0.1059	0.20578	0.079413	0.08223	0.12386	0.077824	0.13279	-3.7208	-5.0646	-4.4313	-4.4917	-4.8646	-4.1271	-4.9583	-4.6958	-4.1937	-4.9604	-4.5583	-4.2625	-5.1646	-4.175	-4.8146	-4.8958	25.228	-118.084	199.478	63.309	44.886	-7.744	165.837	139.255	-99.269	35.332	211.372	39.546	119.835	93.175	3.600	82.708	0.00015138	0.00032042	1.4551e-05	930.13	2.2361e-06	2.0493e-06	1012.7	194.53	2.8468e-06	1.823e-06	245.39	69.3	54.663	16.349	2.8784e-06	23.198	8.7947e-05	8.3844e-05	2.3862e-05	883.99	9.347e-07	9.3211e-07	978.29	188.02	9.4757e-07	9.1277e-07	234.45	68.211	52.858	15.95	9.244e-07	22.536	207.569	-28.644	206.014	-120.895	-39.211	11.357	-120.353	-113.078	-2.484	123.608	-113.080	-106.631	-105.844	-98.178	74.061	-98.620	-8191	255	
2409.212	1	1	0	0	0.16538	0.086844	0.22711	0.21004	0.10103	0.36373	0.097121	0.1334	0.22889	0.16282	0.079053	0.17257	0.20769	0.075074	0.14547	0.15752	-4.0563	-4.8792	-4.4854	-4.3667	-5.0375	-4.1146	-4.7771	-4.9917	-4.2125	-4.9833	-4.5271	-4.2896	-4.9729	-4.3042	-4.5792	-4.85	16.019	60.447	143.962	178.261	43.144	15.502	85.678	-100.347	26.872	-70.247	106.937	133.525	-103.324	97.774	78.025	47.089	8.4041e-05	0.00029218	5.3779e-05	921.21	2.5367e-06	3.5001e-06	1013.4	194.27	5.0686e-07	4.1221e-06	244.48	69.588	54.594	16.37	1.2947e-06	23.182	8.7467e-05	8.451e-05	2.2942e-05	879.79	9.1871e-07	9.0629e-07	976.08	187.42	9.3174e-07	8.8767e-07	233.39	68.174	52.985	15.939	8.7142e-07	22.496	208.774	-42.263	-30.257	-120.456	8.975	8.466	-120.052	-112.827	-19.730	-44.265	-112.770	-106.796	-106.193	-98.149	22.215	-98.970	-8191	255	
2409.308	1	1	0	0	0.21093	0.09882	0.15443	0.18481	0.13617	0.14646	0.34289	0.16554	0.25805	0.10685	0.19051	0.13324	0.20893	0.15092	0.11534	0.071852	-3.8167	-4.8458	-4.5458	-4.3	-5.15	-4.3625	-4.7646	-4.9125	-4.0687	-4.8104	-4.7188	-4.2667	-4.9542	-4.4208	-4.5917	-4.8771	80.301	-90.724	71.208	193.610	-20.185	-78.641	154.893	69.924	-2.993	-11.624	129.336	168.655	134.446	198.242	226.307	192.418	0.00012165	0.00027663	0.00011327	924.76	2.0901e-06	1.6739e-06	1005.6	194.26	5.8459e-07	1.5706e-06	242.82	69.512	54.689	16.287	2.9947e-06	23.068	8.3842e-05	7.8934e-05	2.1913e-05	879.82	8.6044e-07	8.3852e-07	972.25	186.99	8.46e-07	8.1418e-07	232.2	67.902	52.521	15.851	8.2165e-07	22.446	-123.763	12.104	-37.392	-120.339	1.743	23.932	-119.841	-112.648	-66.775	-59.801	-112.714	-106.706	-106.252	-98.844	52.386	-99.004	-8191	255	
2409.404	1	1	0	0	0.067862	0.22593	0.13225	0.28946	0.32594	0.056493	0.16076	0.052594	0.18937	0.061807	0.17439	0.17658	0.2214	0.093412	0.061801	0.18153	-3.9667	-4.9396	-4.6292	-4.0854	-5.0083	-4.4125	-4.5125	-5.1521	-4.0979	-4.6687	-5.0354	-4.1417	-5.1354	-4.5042	-4.3104	-5.175	199.826	-39.824	-52.658	206.916	221.696	123.179	162.250	101.081	-66.278	182.833	208.388	214.212	-94.307	145.356	27.108	-91.503	0.00014168	0.00016537	0.00011326	910.64	2.093e-06	3.1694e-06	998.21	192.43	1.1069e-06	3.0645e-06	243.12	69.643	54.028	16.419	1.6216e-06	22.922	7.797e-05	7.3232e-05	2.0454e-05	871.8	8.0439e-07	8.0046e-07	970.35	186.3	8.3224e-07	7.9547e-07	232.21	67.832	52.329	15.834	8.0353e-07	22.323	216.521	21.129	-50.877	-120.293	-52.044	63.836	-120.037	-112.775	-21.824	-57.637	-112.834	-106.855	-106.025	-98.229	-46.268	-98.388	-8191	255	
2409.500	1	1	0	0	0.11461	0.099326	0.17046	0.25929	0.28358	0.09357	0.21745	0.15973	0.073115	0.10387	0.18608	0.095329	0.064602	0.18086	0.17887	0.21282	-4.0125	-4.6188	-4.925	-4.0979	-4.9229	-4.5563	-4.4854	-5.0833	-4.3917	-4.6146	-5.0917	-4.1542	-5.1333	-4.65	-4.0396	-5.1229	18.314	45.117	-128.416	217.410	59.821	187.503	113.973	-32.672	-105.277	-79.553	-129.333	114.843	14.106	-86.260	182.375	140.211	0.00014838	0.00011491	2.3672e-05	922.93	1.8518e-06	3.5074e-07	999.9	193.19	2.0304e-06	4.5146e-07	240.63	69.201	54.016	16.409	1.5921e-06	23.081	7.6241e-05	7.2759e-05	1.9869e-05	873.49	8.0983e-07	7.8709e-07	968.89	186.7	8.2134e-07	7.9242e-07	231.7	67.498	52.479	15.848	8.0349e-07	22.348	221.260	-92.906	-8.485	-120.467	-81.733	11.253	-120.261	-112.847	46.616	7.994	-112.784	-106.997	-106.149	-98.543	-20.202	-99.272	-8191	255	
2409.597	1	1	0	0	0.19389	0.085951	0.109	0.17637	0.069359	0.15978	0.21307	0.082753	0.15724	0.084572	0.28125	0.10292	0.32388	0.31255	0.22384	0.10684	-3.9583	-4.4729	-5.1312	-4.3729	-4.7937	-4.5667	-4.4146	-5.1125	-4.4458	-4.5542	-5.1104	-4.25	-4.8833	-5.0333	-4.2312	-5.0333	70.508	166.543	-10.522	211.265	215.469	196.371	141.246	180.322	-108.970	145.422	206.805	104.818	-60.248	170.215	78.929	158.050	0.00011061	0.00014837	4.4983e-05	916.76	2.0693e-06	2.3571e-06	998.35	192.67	2.0804e-06	3.2608e-06	242.56	69.381	54.253	16.115	3.9173e-06	23.229	7.7869e-05	7.2721e-05	2.0255e-05	871.6	8.1649e-07	7.9377e-07	966.43	186.01	8.2866e-07	7.8971e-07	231.4	67.594	52.417	15.792	8.109e-07	22.37	228.270	191.018	-55.183	-120.213	7.165	24.592	-120.255	-112.477	-33.215	-31.030	-112.761	-106.968	-106.304	-98.461	-29.729	-99.419	-8191	255	
2409.693	1	1	0	0	0.11835	0.12413	0.34922	0.11399	0.19911	0.18745	0.086164	0.062101	0.16436	0.088842	0.18056	0.084268	0.12407	0.21778	0.05012	0.13149	-4.0604	-4.4792	-5.1062	-4.3667	-4.6542	-4.7896	-4.3833	-5.3063	-4.675	-4.2729	-5.225	-4.1792	-4.575	-4.95	-4.1312	-4.925	111.464	172.513	-4.924	215.539	-50.560	66.520	204.348	-106.549	38.177	118.855	157.109	-41.220	-50.765	18.236	192.299	123.605	0.00013006	0.00015155	8.34e-05	913.55	1.9702e-06	2.9066e-06	1001.8	193.3	2.4442e-06	2.825e-06	240.47	69.693	53.735	16.225	3.2798e-06	23.055	7.6832e-05	7.4626e-05	2.0388e-05	870.02	8.3149e-07	8.0189e-07	965.06	185.78	8.0593e-07	8.0566e-07	230.84	67.515	52.207	15.766	8.2172e-07	22.322	208.970	93.397	-60.039	-120.344	8.705	-28.695	-120.120	-112.618	-36.079	10.875	-112.541	-106.613	-105.952	-99.026	-9.520	-99.605	-8191	255	
2409.813	1	1	0	0	0.15882	0.18556	0.12258	0.25514	0.056623	0.19669	0.073498	0.062238	0.076638	0.087533	0.16318	0.2094	0.059016	0.15775	0.20292	0.17331	-4.3479	-4.2708	-5.1042	-4.3021	-4.55	-4.9	-4.2458	-5.025	-4.725	-4.1875	-5.2354	-4.4708	-4.5437	-4.9625	-4.0417	-4.8792	-62.587	116.357	193.172	-105.106	53.049	-15.203	172.521	-30.481	-109.987	7.100	-41.953	160.107	123.861	218.670	38.499	-86.428	0.00011233	0.00033278	0.00010791	910.86	2.7729e-06	3.0679e-06	994.03	192.41	1.0924e-06	1.3673e-06	244.43	68.961	53.864	16.281	3.6773e-06	23.096	7.8655e-05	7.6175e-05	2.062e-05	869.95	8.4552e-07	8.2194e-07	964.81	185.68	8.4228e-07	8.3948e-07	231.67	67.439	52.335	15.849	8.3179e-07	22.366	219.409	-58.308	-30.888	-120.400	8.698	89.829	-119.929	-113.248	-18.463	-42.465	-112.991	-106.462	-106.320	-97.583	20.543	-99.230	-8191	255	
2409.908	1	1	0	0	0.24749	0.07366	0.1322	0.13951	0.1262	0.17691	0.20037	0.20667	0.13783	0.10757	0.11173	0.021031	0.17545	0.090078	0.19676	0.2058	-4.4479	-4.1854	-4.9604	-4.4	-4.3417	-5.025	-4.3792	-4.7854	-4.6208	-4.2292	-4.9854	-4.4542	-4.4625	-4.9688	-4.2083	-4.7146	188.562	209.144	97.789	135.473	-130.470	204.768	164.794	181.118	68.152	153.048	123.158	227.247	-48.920	166.013	81.437	-55.856	0.00014042	0.00017145	4.3994e-05	913.46	2.7355e-06	2.1855e-06	998.05	192.64	1.9406e-06	3.7333e-06	243.82	69.481	54.221	16.126	2.4185e-06	22.969	7.8781e-05	7.7167e-05	2.1488e-05	869.87	8.6462e-07	8.5387e-07	965.5	185.87	8.4655e-07	8.383e-07	231.4	67.4	52.368	15.802	8.6095e-07	22.295	220.285	-119.991	-28.979	-120.241	-11.969	-0.301	-120.115	-112.693	3.552	1.646	-112.683	-106.712	-106.304	-98.521	-15.647	-99.176	-8191	255	
2410.004	1	1	0	0	0.062995	0.27818	0.052893	0.20799	0.17109	0.029943	0.077871	0.090359	0.051568	0.15854	0.1944	0.24523	0.15223	0.018969	0.17533	0.056854	-4.6188	-4.1729	-5.1125	-4.4833	-4.3833	-5.1042	-4.4229	-4.7562	-4.9396	-4.1542	-5.0646	-4.675	-4.2333	-5.1292	-4.3063	-4.6667	-75.050	-102.329	144.608	178.730	82.401	214.257	157.154	110.235	-112.369	-60.177	206.218	92.589	64.558	-116.492	-108.147	48.242	0.00012689	0.00028764	5.1937e-05	915.18	2.7592e-06	8.0469e-07	997.85	193.13	1.4059e-06	2.9021e-06	242.44	69.233	53.817	15.96	8.8946e-07	22.845	8.259e-05	7.928e-05	2.164e-05	869.66	8.7373e-07	8.5605e-07	964.86	186.17	8.9967e-07	8.6799e-07	231.19	67.515	52.368	15.756	8.8147e-07	22.345	199.511	-94.282	-65.186	-120.467	-43.498	172.891	-120.267	-112.672	-52.282	-18.920	-113.082	-106.729	-106.175	-98.679	38.860	-98.835	-8191	255	
2410.100	1	1	0	0	0.23798	0.22381	0.073893	0.14694	0.062931	0.2226	0.24477	0.33895	0.10048	0.18864	0.076094	0.10922	0.19933	0.097652	0.047339	0.086143	-4.6979	-4.1104	-4.9542	-4.5437	-4.2104	-4.9854	-4.35	-4.5958	-4.9729	-4.1292	-4.8583	-4.7771	-4.2979	-5.1167	-4.4875	-4.575	191.835	-101.128	17.482	208.634	123.448	81.753	209.873	-4.414	-45.177	80.400	26.420	-99.200	141.589	-126.648	-24.869	-118.181	0.00010406	0.00027476	4.2294e-05	910.33	2.5881e-06	5.6803e-07	999.18	193.53	1.6492e-06	3.1819e-06	240.67	69.03	53.729	16.255	5.9583e-07	22.969	8.3087e-05	7.9632e-05	2.1825e-05	869.66	8.7213e-07	8.5378e-07	964.97	185.88	8.6519e-07	8.5622e-07	230.6	67.419	52.252	15.755	8.2714e-07	22.308	219.109	-93.024	61.815	-120.312	-28.081	77.434	-120.041	-112.758	109.880	18.239	-113.273	-106.708	-105.700	-98.566	47.141	-98.956	-8191	255	
2410.196	1	1	0	0	0.058414	0.18568	0.13483	0.26847	0.1185	0.092029	0.085112	0.098391	0.22871	0.057954	0.068145	0.034334	0.34289	0.12026	0.041567	0.050563	-4.7979	-4.0021	-4.8917	-4.9333	-4.2271	-5.0396	-4.6188	-4.4271	-5.0771	-4.1958	-4.7208	-5.0479	-4.2271	-5.1396	-4.5417	-4.4375	-34.002	-59.554	-90.007	-70.962	-84.467	-123.691	193.102	-107.457	-109.076	-17.850	-120.773	-127.672	148.800	146.099	102.584	-37.668	0.00013526	0.00028358	0.00010474	912.97	4.5451e-06	2.24e-06	1004.7	192.41	4.2345e-07	2.2091e-06	240.29	68.952	53.755	16.237	1.0687e-06	22.994	8.1711e-05	7.8306e-05	2.1759e-05	869.97	8.7115e-07	8.3823e-07	966.58	185.22	8.7998e-07	8.7779e-07	231.19	67.522	52.304	15.81	8.6552e-07	22.291	212.255	-59.680	-57.566	-120.207	-8.339	21.622	-120.154	-112.715	-81.080	46.911	-113.063	-106.388	-105.902	-98.281	12.251	-98.902	-8191	255	
2410.292	1	1	0	0	0.16989	0.094986	0.18092	0.13012	0.238	0.12863	0.18549	0.22941	0.21821	0.23286	0.22406	0.23536	0.13644	0.2016	0.10915	0.24327	-4.9021	-4.1271	-4.6062	-4.9771	-4.2292	-4.9354	-4.7292	-4.3313	-5.1667	-4.2625	-4.6937	-4.8208	-4.0813	-5.0958	-4.7063	-4.2854	-47.998	-106.470	33.936	143.958	-15.199	-32.338	227.160	-94.195	-99.110	-112.635	-120.440	122.356	39.452	228.908	200.264	195.546	7.1962e-05	0.00016171	4.606e-05	918.03	1.4375e-06	1.4911e-06	1003	192.81	1.763e-06	2.7674e-06	243.19	68.885	54.008	16.213	1.4433e-06	23.017	8.5075e-05	8.0235e-05	2.2042e-05	871.04	8.8074e-07	8.5251e-07	967.42	186.04	8.7121e-07	8.7695e-07	231.02	67.491	52.48	15.775	8.5874e-07	22.274	-123.430	-80.103	-74.484	-120.519	-46.584	68.908	-120.213	-112.812	-50.652	8.263	-112.849	-106.595	-106.341	-98.185	184.290	-99.268	-8191	255	
2410.388	1	1	0	0	0.033773	0.085928	0.10621	0.1419	0.20631	0.080443	0.12177	0.10497	0.1165	0.29103	0.049347	0.093785	0.29822	0.19973	0.023182	0.17459	-4.8875	-4.2542	-4.4333	-5.1104	-4.0354	-4.7792	-4.8875	-4.2896	-4.9771	-4.3625	-4.5583	-5.1146	-4.1813	-4.9729	-4.7833	-4.2875	-102.531	161.003	165.235	7.373	76.229	160.016	159.901	57.668	189.442	-30.447	82.836	189.553	121.822	212.634	186.629	178.981	9.2199e-05	0.00021603	4.0686e-05	915.79	3.2451e-06	2.9631e-06	998.64	192.6	1.014e-06	4.0139e-06	241.68	69.783	54.365	16.215	3.4834e-06	22.966	8.4504e-05	8.0462e-05	2.186e-05	870.56	8.667e-07	8.502e-07	967.59	185.9	8.8963e-07	8.4594e-07	231.37	67.635	52.41	15.796	8.3437e-07	22.301	209.815	-38.280	118.240	-120.715	-59.259	25.823	-119.935	-112.869	30.814	-7.142	-113.070	-106.926	-106.288	-98.650	-11.359	-98.908	-8191	255	
2410.509	1	1	0	0	0.069193	0.039316	0.21242	0.10493	0.16229	0.19975	0.20759	0.14682	0.11835	0.022393	0.078133	0.20291	0.099808	0.041412	0.043032	0.12524	-4.8812	-4.4375	-4.3979	-5.075	-4.3042	-4.8833	-5.1312	-4.3875	-4.9417	-4.5396	-4.3167	-5.2188	-4.225	-4.7688	-4.9021	-4.1917	105.503	2.254	-35.751	150.844	85.029	138.600	136.555	23.809	-89.691	-40.941	56.831	226.917	182.298	-24.125	130.657	26.533	0.00012991	0.00018726	5.9828e-05	918.63	3.019e-06	1.2328e-06	1002.2	193.05	1.799e-06	2.7799e-06	242.77	69.415	54.044	16.304	5.6251e-07	22.962	8.0981e-05	7.7487e-05	2.198e-05	872.08	8.6374e-07	8.6148e-07	968.46	185.97	8.6303e-07	8.3406e-07	231.68	67.57	52.326	15.771	8.4489e-07	22.31	222.030	-102.225	-16.042	-120.082	-51.982	23.946	-119.930	-113.094	-5.978	41.417	-113.264	-106.541	-105.896	-98.464	-14.564	-99.125	-8191	255	
2410.605	1	1	0	0	0.21356	0.11121	0.17759	0.067285	0.055447	0.079136	0.14841	0.01191	0.063521	0.045916	0.036764	0.078264	0.038754	0.09049	0.23369	0.1176	-4.6021	-4.675	-4.2063	-5.1229	-4.3479	-4.5708	-5.0521	-4.2542	-4.8521	-4.7354	-4.3208	-5.2146	-4.3646	-4.5437	-5.0604	-4.2167	59.911	35.774	-123.131	-113.118	74.115	-106.212	176.633	-20.348	196.486	20.213	74.874	180.794	170.104	-25.845	110.989	140.324	0.00012639	0.00029817	4.4161e-05	916.6	1.464e-06	2.1135e-06	1000.2	192.15	7.9138e-07	1.4912e-06	239.9	69.49	53.995	16.286	2.2828e-06	22.845	8.2145e-05	7.7656e-05	2.1735e-05	871.65	8.5776e-07	8.5196e-07	966.93	185.82	8.5127e-07	8.5174e-07	230.7	67.528	52.26	15.855	8.4333e-07	22.275	204.421	-46.497	-28.112	-120.093	128.705	-23.601	-119.819	-112.853	223.794	19.394	-112.764	-106.493	-106.308	-97.976	33.863	-99.313	-8191	255	
2410.677	1	1	0	0	0.088719	0.030009	0.083747	0.1397	0.10662	0.19534	0.20566	0.12438	0.1406	0.10469	0.21991	0.1153	0.088963	0.11087	0.29292	0.11478	-4.5896	-4.7146	-4.1687	-5.1562	-4.4667	-4.5396	-5.0437	-4.3167	-4.7375	-4.7708	-4.2438	-5.0188	-4.4104	-4.375	-5.0687	-4.2375	-24.089	159.505	91.690	-97.272	-39.387	-64.757	45.584	116.474	144.808	27.836	-119.429	-102.654	60.336	187.890	124.459	144.727	0.00014501	0.00035797	9.1904e-05	913.12	1.589e-06	1.3681e-06	1001.2	192.49	1.8261e-06	3.1751e-06	242.54	69.422	53.538	16.418	3.7493e-06	23.168	8.0941e-05	7.5572e-05	2.1595e-05	869.74	8.4473e-07	8.2678e-07	968.98	185.92	8.4466e-07	8.3755e-07	231.12	67.5	52.213	15.854	8.2917e-07	22.371	205.924	-76.025	-49.121	-120.179	-36.842	-27.437	-120.307	-112.984	-22.537	-12.329	-113.074	-106.584	-106.087	-98.770	-3.784	-99.430	-8191	255	
#DATA ENDS
