BOXY.EXE: ISS Imagent and Oximeter Data Acquisition Program Version 0.80
Ascii Record File

#ACQ INFORMATION
2  Detector Channels 
16  External MUX Channels 
1  Auxiliary Channels 
5000  Waveform (CCF) Frequency (Hz)
1  Waveforms Skipped 
30  Waveforms Averaged 
1  Cycles Averaged 
16  Acquisitions per Waveform 
10.0806  Updata Rate (Hz) 

#FILE INFORMATION
TRUE -- External MUX Channel results are PARSED.
FALSE -- AC DC and Phase are NOT grouped.
TRUE -- Companion Program Settings File CREATED.
FALSE -- AC data not excluded
FALSE -- DC data not excluded
FALSE -- Phase data not excluded
FALSE -- Auxillary Chn. data not excluded
Tab delimiters

#CALIBRATION STATE
TRUE -- Waveform Calibration Values APPLIED.


#AUX CALIBRATION VALUES
Val Type	aux-1	

Term	1.0000e+00	
Factor	0.0000e+00	


#WF CALIBRATION VALUES
A = Detector Channel
Val Type	A-AC1	A-AC2	A-AC3	A-AC4	A-AC5	A-AC6	A-AC7	A-AC8	A-AC9	A-AC10	A-AC11	A-AC12	A-AC13	A-AC14	A-AC15	A-AC16	A-DC1	A-DC2	A-DC3	A-DC4	A-DC5	A-DC6	A-DC7	A-DC8	A-DC9	A-DC10	A-DC11	A-DC12	A-DC13	A-DC14	A-DC15	A-DC16	A-Ph1	A-Ph2	A-Ph3	A-Ph4	A-Ph5	A-Ph6	A-Ph7	A-Ph8	A-Ph9	A-Ph10	A-Ph11	A-Ph12	A-Ph13	A-Ph14	A-Ph15	A-Ph16	

Term	0.00000e+00	0.00000e+00	0.00000e+00	0.00000e+00	0.00000e+00	0.00000e+00	0.00000e+00	0.00000e+00	0.00000e+00	0.00000e+00	0.00000e+00	0.00000e+00	0.00000e+00	0.00000e+00	0.00000e+00	0.00000e+00	0.00000e+00	0.00000e+00	0.00000e+00	0.00000e+00	0.00000e+00	0.00000e+00	0.00000e+00	0.00000e+00	0.00000e+00	0.00000e+00	0.00000e+00	0.00000e+00	0.00000e+00	0.00000e+00	0.00000e+00	0.00000e+00	0.00000e+00	0.00000e+00	0.00000e+00	0.00000e+00	0.00000e+00	0.00000e+00	0.00000e+00	0.00000e+00	0.00000e+00	0.00000e+00	0.00000e+00	0.00000e+00	0.00000e+00	0.00000e+00	0.00000e+00	0.00000e+00	
Factor	1.00000e+00	1.00000e+00	1.00000e+00	1.00000e+00	1.00000e+00	1.00000e+00	1.00000e+00	1.00000e+00	1.00000e+00	1.00000e+00	1.00000e+00	1.00000e+00	1.00000e+00	1.00000e+00	1.00000e+00	1.00000e+00	1.00000e+00	1.00000e+00	1.00000e+00	1.00000e+00	1.00000e+00	1.00000e+00	1.00000e+00	1.00000e+00	1.00000e+00	1.00000e+00	1.00000e+00	1.00000e+00	1.00000e+00	1.00000e+00	1.00000e+00	1.00000e+00	X	X	X	X	X	X	X	X	X	X	X	X	X	X	X	X	

B = Detector Channel
Val Type	B-AC1	B-AC2	B-AC3	B-AC4	B-AC5	B-AC6	B-AC7	B-AC8	B-AC9	B-AC10	B-AC11	B-AC12	B-AC13	B-AC14	B-AC15	B-AC16	B-DC1	B-DC2	B-DC3	B-DC4	B-DC5	B-DC6	B-DC7	B-DC8	B-DC9	B-DC10	B-DC11	B-DC12	B-DC13	B-DC14	B-DC15	B-DC16	B-Ph1	B-Ph2	B-Ph3	B-Ph4	B-Ph5	B-Ph6	B-Ph7	B-Ph8	B-Ph9	B-Ph10	B-Ph11	B-Ph12	B-Ph13	B-Ph14	B-Ph15	B-Ph16	

Term	0.00000e+00	0.00000e+00	0.00000e+00	0.00000e+00	0.00000e+00	0.00000e+00	0.00000e+00	0.00000e+00	0.00000e+00	0.00000e+00	0.00000e+00	0.00000e+00	0.00000e+00	0.00000e+00	0.00000e+00	0.00000e+00	0.00000e+00	0.00000e+00	0.00000e+00	0.00000e+00	0.00000e+00	0.00000e+00	0.00000e+00	0.00000e+00	0.00000e+00	0.00000e+00	0.00000e+00	0.00000e+00	0.00000e+00	0.00000e+00	0.00000e+00	0.00000e+00	-1.12345e+02	-1.37161e+02	-1.31167e+02	-1.83169e+02	-9.45150e+01	-7.80345e+01	-1.55719e+02	-1.62015e+02	-6.55484e+01	-8.29813e+01	-1.70692e+02	-1.70536e+02	-1.79718e+02	-1.76304e+02	-8.62091e+01	-1.48491e+02	
Factor	1.50476e-05	1.06357e-04	3.06640e-05	2.10223e-01	9.59748e-07	1.05913e-06	1.63091e-01	5.79667e-02	7.58040e-07	1.09422e-06	8.94289e-02	2.80098e-02	2.56570e-02	8.80702e-03	1.17703e-06	1.27492e-02	9.29018e-07	9.65646e-07	2.68023e-07	9.69350e-02	1.05161e-08	1.05549e-08	7.14807e-02	2.69272e-02	1.05502e-08	1.05421e-08	3.97110e-02	1.25644e-02	1.19377e-02	4.07084e-03	1.04911e-08	5.65814e-03	X	X	X	X	X	X	X	X	X	X	X	X	X	X	X	X	



#DISTANCE SETTINGS
A = Detector Channel
A-1	A-2	A-3	A-4	A-5	A-6	A-7	A-8	A-9	A-10	A-11	A-12	A-13	A-14	A-15	A-16	

2.5000e+00	3.0000e+00	2.5000e+00	3.0000e+00	2.0000e+00	3.0000e+00	1.5000e+00	3.0000e+00	3.0000e+00	3.0000e+00	3.0000e+00	3.0000e+00	3.0000e+00	3.0000e+00	1.5000e+00	3.0000e+00	

B = Detector Channel
B-1	B-2	B-3	B-4	B-5	B-6	B-7	B-8	B-9	B-10	B-11	B-12	B-13	B-14	B-15	B-16	

1.0000e+01	1.0000e+01	1.0000e+01	1.4400e+00	1.0000e+01	1.0000e+01	1.5100e+00	1.9400e+00	1.0000e+01	1.0000e+01	1.9900e+00	2.4900e+00	2.4100e+00	2.9000e+00	1.0000e+01	2.9800e+00	




#DATA BEGINS
time	group	step	mark	flag	A-AC1	A-AC2	A-AC3	A-AC4	A-AC5	A-AC6	A-AC7	A-AC8	A-AC9	A-AC10	A-AC11	A-AC12	A-AC13	A-AC14	A-AC15	A-AC16	A-DC1	A-DC2	A-DC3	A-DC4	A-DC5	A-DC6	A-DC7	A-DC8	A-DC9	A-DC10	A-DC11	A-DC12	A-DC13	A-DC14	A-DC15	A-DC16	A-Ph1	A-Ph2	A-Ph3	A-Ph4	A-Ph5	A-Ph6	A-Ph7	A-Ph8	A-Ph9	A-Ph10	A-Ph11	A-Ph12	A-Ph13	A-Ph14	A-Ph15	A-Ph16	B-AC1	B-AC2	B-AC3	B-AC4	B-AC5	B-AC6	B-AC7	B-AC8	B-AC9	B-AC10	B-AC11	B-AC12	B-AC13	B-AC14	B-AC15	B-AC16	B-DC1	B-DC2	B-DC3	B-DC4	B-DC5	B-DC6	B-DC7	B-DC8	B-DC9	B-DC10	B-DC11	B-DC12	B-DC13	B-DC14	B-DC15	B-DC16	B-Ph1	B-Ph2	B-Ph3	B-Ph4	B-Ph5	B-Ph6	B-Ph7	B-Ph8	B-Ph9	B-Ph10	B-Ph11	B-Ph12	B-Ph13	B-Ph14	B-Ph15	B-Ph16	aux-1	digaux	

2378.049	1	1	0	768	0.10648	0.20014	0.2005	0.077203	0.21837	0.17059	0.2097	0.17126	0.21012	0.10308	0.14153	0.082779	0.15238	0.12156	0.038308	0.18977	-3.9021	-4.7208	-4.9187	-4.425	-5.0229	-4.5021	-4.6167	-5.1354	-4.0896	-4.8292	-5.0625	-4.5375	-5.1458	-4.7958	-4.2188	-5.2708	-53.121	-63.613	68.957	-104.273	200.280	68.285	201.983	-98.379	-91.886	203.487	183.230	-131.766	-0.157	25.007	-32.464	145.251	0.00035992	0.000132	0.0002425	1291.7	4.1667e-06	2.5247e-06	1300.5	346.69	1.5469e-06	2.0056e-06	399.31	134.98	115.96	40.662	4.2382e-06	51.294	0.0007323	0.00073867	0.00020245	1323.9	7.9294e-06	7.7623e-06	1328.7	357.37	7.628e-06	7.5343e-06	409.76	139.88	120.72	42.195	7.1548e-06	53.105	208.798	114.998	-19.200	-122.266	-95.595	-134.113	-122.190	-117.734	-35.468	50.520	-118.052	-114.378	-113.373	-108.788	14.136	-109.431	-8191	255	
2378.145	1	1	0	0	0.26014	0.16911	0.080223	0.22707	0.071958	0.27546	0.35052	0.20777	0.20613	0.19983	0.26128	0.087728	0.096236	0.1146	0.002817	0.10818	-3.9313	-4.525	-4.8875	-4.3542	-5.0437	-4.5813	-4.5563	-5.3771	-4.2625	-4.6125	-5.3313	-4.4083	-5.0229	-4.7354	-4.0896	-5.1104	-53.258	-17.125	124.580	-110.730	72.750	-112.891	162.866	150.056	-132.621	-75.302	-72.072	15.445	-65.716	-121.487	-21.224	176.301	0.00039868	0.00041599	8.1872e-05	1291.4	5.7699e-06	2.6594e-06	1294.4	345.94	7.032e-06	9.2037e-07	399.9	134.59	116.22	40.936	9.8905e-06	51.325	0.00063141	0.00064062	0.00017584	1311.8	6.8275e-06	6.7831e-06	1319	354.6	6.7254e-06	6.8168e-06	408.31	139	120.06	42.161	6.7902e-06	52.928	220.584	-67.175	6.218	-122.303	-50.590	206.310	-122.350	-117.630	24.833	17.093	-118.015	-114.298	-113.683	-108.555	24.306	-109.649	-8191	255	
2378.241	1	1	0	0	0.13788	0.10938	0.12491	0.2177	0.2561	0.16664	0.14138	0.27104	0.24353	0.098195	0.12873	0.075308	0.1997	0.23376	0.10765	0.064223	-4.1354	-4.4375	-5.0042	-4.4896	-4.8833	-4.6875	-4.4729	-5.3875	-4.4542	-4.4292	-5.2833	-4.3063	-4.925	-4.9083	-4.1833	-5.1021	115.188	35.433	29.850	168.734	57.348	17.008	190.533	194.680	-27.695	67.175	124.467	12.426	190.833	219.562	222.065	123.563	0.00033728	0.00048072	0.0001824	1289.7	3.4329e-06	4.9557e-06	1298	344.99	3.8486e-06	5.4392e-06	395.45	134.34	115.85	40.88	6.5388e-06	51.211	0.0006118	0.00062069	0.00017178	1309.8	6.6874e-06	6.5955e-06	1316.3	353.45	6.4801e-06	6.4967e-06	404.88	138.43	119.57	41.913	6.4883e-06	52.693	214.889	150.436	-41.651	-122.498	188.350	54.271	-122.275	-117.518	-11.901	-79.117	-118.126	-113.975	-113.460	-108.699	-0.500	-109.279	-8191	255	
2378.337	1	1	0	0	0.14718	0.073108	0.15303	0.13299	0.091892	0.21634	0.22395	0.22819	0.15872	0.090634	0.13547	0.40311	0.16263	0.15264	0.11757	0.17612	-4.1833	-4.3812	-5.175	-4.3688	-4.675	-4.9437	-4.4396	-5.0312	-4.5479	-4.3438	-5.1354	-4.4563	-4.6542	-4.9875	-4.2875	-5.1021	87.792	130.365	58.235	195.299	3.664	-87.980	218.513	148.940	-95.923	196.048	176.492	136.560	135.364	79.498	179.926	168.559	0.00033259	0.00093285	7.5318e-05	1294.9	8.344e-06	5.6261e-06	1296.9	346.54	3.6407e-06	9.3098e-06	399.08	135.49	116.26	41.174	3.0865e-06	51.489	0.00060321	0.0006341	0.00017707	1314.7	7.1746e-06	7.3243e-06	1325.3	356.62	7.5223e-06	7.6378e-06	411.24	140.39	120.58	42.205	6.4988e-06	52.701	209.894	-33.867	60.635	-122.435	27.134	-32.737	-122.236	-117.606	-51.054	34.946	-117.778	-113.926	-113.460	-108.667	14.534	-109.272	-8191	255	
2378.432	1	1	0	0	0.2553	0.20787	0.035435	0.17136	0.2699	0.057295	0.15108	0.12311	0.07939	0.14549	0.10495	0.20553	0.095494	0.17633	0.068909	0.16646	-4.4187	-4.3042	-5.0771	-4.5687	-4.4292	-4.9021	-4.3875	-5.0062	-4.7125	-4.225	-5.3812	-4.4708	-4.5542	-5.2354	-4.2312	-4.9458	78.166	-70.059	125.951	-90.725	-99.191	171.857	161.896	182.624	193.425	-90.152	170.561	141.476	-60.564	220.840	106.449	128.641	0.00030368	0.00027196	7.7879e-05	1292.4	3.1824e-06	3.4524e-06	1296.6	347.03	2.9893e-06	2.9101e-06	396.63	134.17	115.68	40.855	3.7067e-06	51.061	0.00052227	0.00050946	0.00013215	1296.7	4.8557e-06	4.6806e-06	1302.2	348.38	4.5303e-06	4.5639e-06	398.4	136.29	117.3	41.253	4.482e-06	51.603	212.835	21.709	-102.621	-122.317	-75.645	-7.696	-122.297	-117.753	-60.000	-116.627	-117.840	-113.938	-113.766	-108.769	-132.288	-109.465	-8191	255	
2378.530	1	1	0	0	0.051743	0.11582	0.21461	0.050665	0.25221	0.088724	0.092265	0.18772	0.072189	0.12339	0.083291	0.060429	0.13207	0.079248	0.032871	0.31584	-4.4875	-4.175	-5.1708	-4.6833	-4.2688	-4.9333	-4.375	-4.9104	-4.9521	-4.2417	-5.1813	-4.7604	-4.5042	-5.2396	-4.3438	-4.9563	80.314	-91.313	-16.228	137.960	159.953	52.513	197.868	88.014	194.611	30.814	113.727	-120.566	-63.103	214.155	192.778	196.688	0.00026416	0.00024849	0.00024139	1289	2.5115e-06	7.8245e-06	1288.4	345.69	5.5166e-06	3.6163e-06	396.97	134.24	115.68	40.444	5.2882e-06	50.851	0.00040442	0.00040843	0.00011174	1283	4.3639e-06	4.2901e-06	1293.5	346.6	4.1348e-06	4.1115e-06	396.23	135.45	116.38	40.742	3.7065e-06	50.813	216.693	-28.825	-32.232	-122.295	-48.309	19.470	-122.330	-117.835	-11.524	36.005	-117.964	-113.901	-113.283	-108.426	-78.462	-109.315	-8191	255	
2378.648	1	1	0	0	0.050888	0.15476	0.12926	0.12761	0.1021	0.10574	0.28131	0.067506	0.069556	0.19004	0.12895	0.1011	0.15198	0.22764	0.029852	0.080572	-4.8542	-4.2542	-4.9708	-4.825	-4.4646	-5.2438	-4.6	-4.6229	-5.0813	-4.0625	-5.0708	-4.8104	-4.5625	-5.3458	-4.2188	-4.6375	-1.876	6.143	193.536	-12.392	140.302	-11.849	189.793	-25.996	194.208	46.457	198.707	8.177	14.860	216.765	50.618	125.013	0.00033202	0.00051937	6.8226e-05	1272.2	3.848e-06	4.6692e-06	1271.4	339.37	2.1133e-06	5.0148e-06	392.68	132.77	113.96	40.226	5.3603e-06	50.186	0.00033291	0.00032608	8.9093e-05	1260.4	3.4215e-06	3.368e-06	1271	340.01	3.3366e-06	3.3048e-06	388.88	132.83	114.13	40.088	3.2722e-06	50.02	220.685	-36.627	-15.196	-122.311	-14.356	-13.625	-122.194	-117.719	-10.488	-53.741	-118.102	-114.078	-113.438	-108.492	-69.614	-109.168	-8191	255	
2378.745	1	1	0	0	0.32465	0.23776	0.20911	0.31469	0.10495	0.084227	0.15699	0.299	0.037632	0.15335	0.028324	0.048903	0.1637	0.10379	0.25553	0.17728	-4.7146	-4.2271	-4.9625	-4.8333	-4.2292	-5.1104	-4.7271	-4.5604	-5.0188	-4.1833	-4.9792	-5.1042	-4.2625	-5.2521	-4.6125	-4.5146	47.033	-131.426	-42.918	188.243	155.737	39.275	5.567	166.295	6.195	-68.948	51.809	180.867	115.910	-94.341	215.570	162.161	0.00031333	0.00035464	0.00025668	1251.8	1.4729e-06	2.0528e-06	1249.2	334.69	2.42e-06	3.8132e-06	389.99	132.07	112.99	39.834	5.369e-06	49.866	0.00030099	0.00029958	8.3579e-05	1236.8	3.2827e-06	3.2528e-06	1249.1	335.67	3.2649e-06	3.2559e-06	385.45	131.83	112.95	39.671	3.1416e-06	49.641	209.461	-57.171	-68.730	-122.200	24.387	-63.333	-122.192	-117.471	53.902	38.973	-117.898	-113.695	-113.562	-108.293	-33.049	-109.060	-8191	255	
2378.841	1	1	0	0	0.10675	0.19839	0.2644	0.26349	0.086112	0.14806	0.36718	0.071736	0.14199	0.091643	0.20018	0.054338	0.049565	0.029133	0.27132	0.21031	-4.8729	-4.2208	-4.7521	-4.9875	-4.1208	-5.1396	-4.6417	-4.55	-5.0938	-4.2292	-4.6438	-5.0375	-4.2417	-5.0854	-4.7104	-4.35	-46.886	143.583	-2.948	-132.368	104.277	172.428	176.022	211.855	-19.258	190.962	169.968	-127.084	221.294	134.586	-121.417	136.731	0.00028955	0.00051244	8.2449e-05	1230.8	5.3129e-06	5.0279e-06	1236.9	333.05	2.4704e-06	7.3783e-06	385.43	130.33	112.49	39.434	2.1954e-06	49.818	0.00029099	0.00028615	7.8855e-05	1217.4	3.0947e-06	3.0096e-06	1233.6	332.51	3.0179e-06	3.0105e-06	381.33	130.16	111.81	39.28	2.9445e-06	49.378	219.071	-83.428	-1.962	-122.081	-44.180	-21.082	-122.231	-117.566	-38.751	-12.696	-117.699	-113.879	-113.392	-108.303	-56.840	-109.616	-8191	255	
2378.937	1	1	0	0	0.14923	0.16418	0.13654	0.26539	0.051987	0.36059	0.33934	0.16061	0.15389	0.12216	0.22769	0.086501	0.25148	0.25839	0.12527	0.25536	-4.825	-4.325	-4.7875	-5.1062	-4.1667	-4.8917	-4.9187	-4.2333	-5.0604	-4.3667	-4.8042	-5.1188	-4.3021	-5.0979	-4.9187	-4.4271	216.125	-133.460	76.600	141.928	176.691	166.286	134.849	58.423	-30.790	108.518	-102.741	209.826	157.539	182.301	24.216	-65.150	0.0002653	0.00020367	0.00019208	1215.4	4.4213e-06	8.5529e-07	1220.3	330.51	5.8598e-06	4.0724e-06	381.84	128.8	111.3	39.064	5.0347e-06	49.246	0.00027472	0.00026713	7.533e-05	1202.3	2.9935e-06	2.9632e-06	1218.9	329.19	2.9341e-06	2.9283e-06	377.66	129.03	110.57	38.925	2.9263e-06	48.892	212.289	-74.285	-51.914	-122.094	-64.371	4.643	-121.982	-117.643	-65.644	-9.480	-117.921	-113.787	-113.316	-108.435	-27.848	-109.069	-8191	255	
2379.033	1	1	0	0	0.31641	0.16392	0.14609	0.1946	0.20238	0.27489	0.076977	0.16485	0.053107	0.091059	0.053924	0.20852	0.3175	0.069285	0.10192	0.018892	-4.7854	-4.4667	-4.55	-5.2562	-4.1375	-4.8187	-5.0021	-4.4083	-5.1937	-4.4396	-4.4833	-5.0792	-4.3187	-4.7396	-5.0604	-4.3792	206.988	162.030	-105.687	185.724	-48.621	-134.809	-110.494	-0.261	106.419	72.900	153.002	128.891	203.350	51.934	62.954	110.203	0.0002647	0.00034443	0.00014916	1199.8	4.8808e-06	2.908e-06	1207.9	328.19	1.1591e-06	4.2314e-06	380.48	127.65	110.4	38.925	4.1058e-06	49.154	0.00027152	0.00026815	7.3796e-05	1186.4	2.8866e-06	2.8982e-06	1205.6	326.37	2.9008e-06	2.8674e-06	375.52	128.1	109.94	38.721	2.8955e-06	48.705	215.085	-47.010	-58.614	-122.048	-16.527	9.782	-122.046	-117.725	89.498	-47.264	-117.993	-113.775	-113.032	-108.403	21.742	-108.875	-8191	255	
2379.129	1	1	0	0	0.23328	0.25408	0.12737	0.14068	0.10322	0.29634	0.19157	0.17919	0.18333	0.12092	0.10828	0.1122	0.26719	0.13982	0.074986	0.0043822	-4.6646	-4.5104	-4.4354	-5.1875	-4.3063	-4.575	-5.1146	-4.2792	-4.9958	-4.5854	-4.4375	-5.2458	-4.3729	-4.7208	-5.0833	-4.1979	-24.781	-27.860	-80.670	202.715	-98.430	-5.834	143.018	157.887	57.240	-13.988	-0.746	107.426	-93.866	-55.284	-44.005	203.351	0.00023769	0.00049705	0.00012976	1195.8	8.8175e-06	1.73e-06	1200	326.87	3.9409e-06	3.9297e-06	380.32	128.66	110.03	38.991	8.2494e-06	49.303	0.00026892	0.00026519	7.4063e-05	1181.4	2.9354e-06	2.9384e-06	1200.8	325.58	3.0055e-06	2.9265e-06	375.71	128.17	109.81	38.775	2.9945e-06	48.752	221.043	-89.174	-129.799	-121.834	-58.212	-64.594	-122.053	-117.522	-20.796	-23.272	-118.089	-113.982	-113.308	-108.426	-22.957	-108.838	-8191	255	
2379.225	1	1	0	0	0.056869	0.3279	0.16452	0.17391	0.14497	0.22267	0.14198	0.15939	0.13266	0.12543	0.08175	0.20391	0.020301	0.090675	0.1933	0.05394	-4.675	-4.6	-4.2188	-5.2917	-4.4187	-4.6479	-5.1917	-4.2646	-4.8958	-4.7937	-4.3354	-5.1229	-4.6583	-4.5958	-4.9938	-4.3583	4.542	-99.854	-51.386	181.154	148.766	174.861	153.598	121.854	-81.886	-115.160	74.298	-125.862	40.009	-107.683	-29.341	-107.872	0.00026969	0.0002493	0.00016176	1197.9	3.0789e-06	4.8005e-06	1203.6	325.93	2.0784e-06	6.3585e-06	378.34	128.34	110.26	38.97	6.5074e-06	48.946	0.00027911	0.00027955	7.7955e-05	1182.2	3.0268e-06	3.0657e-06	1202.5	325.99	3.0785e-06	3.012e-06	375.53	128.37	109.88	38.789	3.0351e-06	48.671	210.922	80.596	-38.479	-122.118	-88.998	-61.799	-122.055	-117.639	88.412	-34.626	-118.112	-113.855	-113.105	-108.412	3.680	-108.923	-8191	255	
2379.344	1	1	0	0	0.093149	0.19864	0.062194	0.19252	0.20096	0.20563	0.26806	0.3265	0.15629	0.027262	0.31394	0.050747	0.24978	0.11439	0.15443	0.17007	-4.5813	-4.7562	-4.3875	-5.1521	-4.5062	-4.3187	-5.325	-4.3375	-4.5687	-5.0687	-4.3354	-5.125	-4.5021	-4.3208	-5.1958	-4.325	-40.156	53.210	114.478	85.595	125.786	128.574	172.121	118.624	-32.299	-129.506	189.301	143.653	156.374	188.761	36.461	116.724	0.00029077	0.00058869	4.3046e-05	1195	5.0406e-06	7.8168e-06	1204.3	325.92	1.7808e-06	4.2707e-06	379.89	128.13	110.06	38.83	5.2697e-06	48.98	0.0002848	0.00028333	7.8869e-05	1181.4	3.0972e-06	3.1056e-06	1203.1	325.56	3.1234e-06	3.1049e-06	376.53	128.4	109.92	38.753	3.1382e-06	48.774	-135.223	-123.650	-39.009	-122.088	-7.153	-7.705	-122.163	-117.534	-21.894	-69.836	-117.944	-114.005	-113.499	-108.564	17.135	-109.105	-8191	255	
2379.440	1	1	0	0	0.13524	0.057329	0.32252	0.32302	0.078333	0.24963	0.32121	0.29972	0.21368	0.15048	0.070676	0.20725	0.039849	0.24329	0.17904	0.070804	-4.2875	-4.9417	-4.0958	-5.0875	-4.6167	-4.175	-5.25	-4.4396	-4.6792	-4.9437	-4.1833	-5.0667	-4.7583	-4.2833	-5.1687	-4.4542	-44.920	130.202	-64.057	158.500	-90.393	70.468	126.223	152.706	-111.518	128.280	161.745	221.539	-16.461	129.628	-56.832	3.463	0.00027388	0.00035732	0.00014384	1189	7.7784e-07	2.255e-06	1204.2	327.08	1.7025e-06	2.9481e-06	379.96	128.04	110.46	39.094	2.84e-06	49.034	0.00029319	0.00028868	8.0127e-05	1182	3.1389e-06	3.2092e-06	1202.9	325.88	3.2548e-06	3.2251e-06	377.08	128.54	110.42	38.878	3.2279e-06	48.823	211.725	-45.068	10.610	-122.363	-39.768	-6.442	-122.069	-117.247	10.575	-11.661	-117.810	-114.169	-113.270	-108.529	11.395	-109.061	-8191	255	
2379.536	1	1	0	0	0.076426	0.11018	0.2303	0.14216	0.12438	0.036859	0.41195	0.23039	0.11368	0.011092	0.27822	0.14094	0.09734	0.17918	0.083919	0.14175	-4.3625	-4.9771	-4.1917	-4.9938	-4.8938	-4.2	-5.2354	-4.4729	-4.2937	-4.9917	-4.2792	-4.8604	-4.8271	-4.2812	-4.9875	-4.5479	-37.063	96.477	132.423	-120.550	-115.113	113.903	160.287	-121.354	5.148	146.360	166.460	200.272	-14.034	-94.811	8.733	79.824	0.00035178	0.00045361	0.00023095	1194.9	2.3811e-06	5.9362e-06	1205.8	328.03	8.482e-07	9.8903e-07	378.56	128.34	110.42	38.815	3.2429e-06	48.845	0.0003065	0.00030144	8.3717e-05	1183.9	3.2937e-06	3.36e-06	1204.6	326.77	3.3129e-06	3.3137e-06	376.59	128.8	110.29	38.875	3.2487e-06	48.721	212.063	-25.612	-11.865	-122.077	-19.816	29.705	-122.048	-117.545	-31.929	-1.283	-117.593	-113.749	-112.958	-108.763	-29.937	-109.007	-8191	255	
2379.610	1	1	0	0	0.1841	0.29069	0.21477	0.33272	0.19684	0.2567	0.2784	0.044996	0.18498	0.16449	0.17575	0.19372	0.30357	0.062098	0.099945	0.12154	-4.1229	-4.8667	-4.1625	-5.0104	-4.9396	-4.1854	-5.0771	-4.75	-4.3542	-5.05	-4.3833	-4.6896	-5.0396	-4.1854	-4.7667	-4.625	-31.571	153.613	8.293	200.761	72.207	201.045	119.741	-129.578	-51.053	-92.901	160.259	-122.348	-118.393	-127.037	95.797	-4.602	0.00032236	0.00067529	3.7369e-05	1192.3	4.0114e-06	2.9374e-06	1201.3	327.06	2.4885e-06	5.0634e-06	379.04	127.82	109.55	38.86	1.3013e-06	48.786	0.00030452	0.00029593	8.2357e-05	1183.8	3.252e-06	3.2227e-06	1202.1	325.8	3.2426e-06	3.2217e-06	376.1	128.23	109.78	38.722	3.1718e-06	48.634	218.742	-113.477	12.043	-122.167	-27.737	7.412	-121.820	-117.135	-56.378	11.489	-117.644	-113.777	-113.284	-108.646	-53.180	-109.207	-8191	255	
2379.729	1	1	0	0	0.17069	0.34572	0.19442	0.037486	0.088329	0.11845	0.32422	0.12843	0.067494	0.26515	0.16368	0.18421	0.05062	0.2105	0.29799	0.24067	-3.9417	-5.2667	-4.2312	-4.6188	-4.9313	-4.2	-5.2167	-4.7562	-4.2708	-4.9375	-4.3333	-4.6042	-5.1354	-4.1292	-4.7958	-4.9354	219.043	203.056	21.212	49.893	114.656	162.845	183.644	19.492	60.610	-86.860	124.825	165.926	115.399	-34.280	-44.944	162.123	0.00030695	0.0005399	9.8966e-05	1183.1	3.9452e-06	5.5759e-06	1198.5	324.94	2.8284e-06	2.9493e-06	379.82	128.22	110.04	38.751	3.788e-06	48.746	0.00029562	0.00028912	8.0202e-05	1177.9	3.1842e-06	3.1488e-06	1201.3	325.14	3.2076e-06	3.1821e-06	376.01	128.05	109.84	38.676	3.2041e-06	48.652	221.938	-62.849	-11.593	-122.172	-24.709	14.957	-122.240	-117.419	9.199	39.282	-117.824	-113.911	-113.165	-108.564	-23.543	-108.933	-8191	255	
2379.825	1	1	0	0	0.10922	0.1411	0.06136	0.22463	0.06308	0.1364	0.15634	0.13063	0.044258	0.15045	0.14536	0.088291	0.21409	0.0564	0.24772	0.26042	-3.7604	-5.2875	-4.475	-4.5542	-4.9396	-4.2229	-5.0396	-4.8271	-4.1562	-5.0333	-4.6021	-4.4646	-5.2479	-4.3958	-4.6771	-5.0062	130.327	-127.960	13.786	214.161	161.908	112.284	95.352	-100.477	224.213	60.307	-116.048	214.505	-87.542	49.338	-30.682	191.371	0.00026355	0.00064419	0.000181	1191	3.9568e-06	6.2542e-06	1200.8	326.44	5.3881e-07	2.8612e-06	380.3	127.48	110.08	38.788	6.212e-06	48.67	0.00029802	0.00029291	8.1403e-05	1178.2	3.1613e-06	3.2131e-06	1199.6	325.45	3.2414e-06	3.2093e-06	375.8	127.92	110.02	38.649	3.1575e-06	48.655	215.829	-62.685	-59.914	-122.176	-43.621	7.370	-122.061	-117.389	157.210	-55.310	-118.042	-114.146	-113.358	-108.399	-2.530	-108.773	-8191	255	
2379.921	1	1	0	0	0.21666	0.13403	0.25358	0.25723	0.16156	0.16635	0.32806	0.28206	0.17387	0.20414	0.17997	0.17487	0.25238	0.038635	0.19854	0.084405	-3.8542	-4.9021	-4.6042	-4.5104	-5.1354	-4.2208	-4.8708	-4.9042	-4.1312	-5.0604	-4.7896	-4.3229	-5.3646	-4.3771	-4.4958	-5.175	201.588	15.375	-122.148	203.528	131.065	-63.395	199.767	184.233	190.574	202.419	161.510	213.520	209.355	56.281	37.216	145.242	0.00020642	0.00059598	7.6565e-05	1181	5.2416e-06	5.649e-06	1198.6	324.74	4.9793e-06	4.5073e-06	378.82	127.71	109.3	38.571	1.234e-06	48.551	0.00029248	0.00028939	7.9831e-05	1174.7	3.149e-06	3.1395e-06	1196.5	324.4	3.1414e-06	3.0996e-06	375.11	127.96	109.43	38.571	3.0969e-06	48.505	211.337	-102.694	-97.669	-121.951	24.823	-1.918	-122.249	-117.452	21.790	-59.759	-117.906	-114.060	-113.097	-108.535	-51.511	-109.179	-8191	255	
2380.042	1	1	0	0	0.1908	0.068514	0.23538	0.012415	0.05993	0.24857	0.096333	0.17576	0.082796	0.12652	0.088244	0.11374	0.043853	0.10908	0.1279	0.17798	-3.8458	-4.9333	-4.6417	-4.3438	-5.1271	-4.3104	-4.7083	-5.1292	-4.15	-4.8375	-4.8458	-4.3917	-5.1771	-4.6292	-4.4396	-5.1333	61.862	63.839	174.004	50.581	166.590	133.772	151.036	183.160	-66.779	116.836	218.424	114.988	201.857	164.889	29.658	170.208	0.00028044	0.00032211	5.3009e-05	1187.7	1.2457e-06	2.9783e-06	1190.3	324.29	3.2307e-06	4.1199e-06	377.91	127.7	109.39	38.603	1.7929e-06	48.683	0.00028956	0.00028248	7.8773e-05	1172.6	3.0417e-06	3.0773e-06	1192.3	323.82	3.0661e-06	2.9973e-06	374	127.59	109.25	38.467	3.0344e-06	48.348	-128.395	67.732	-55.340	-122.033	-13.695	1.975	-122.118	-117.330	20.013	-12.223	-117.810	-114.029	-113.423	-108.150	-9.361	-108.945	-8191	255	
2380.138	1	1	0	0	0.05015	0.04576	0.16796	0.22148	0.10409	0.2096	0.085233	0.09311	0.1137	0.06391	0.18851	0.055116	0.24137	0.11264	0.065756	0.31472	-4.025	-4.8417	-4.6208	-4.2458	-5.075	-4.4771	-4.6583	-5.2333	-4.3458	-4.5896	-5.0729	-4.2708	-5.0146	-4.6875	-4.2188	-5.0958	120.137	-91.621	-65.999	190.549	183.244	-48.874	215.390	173.869	46.907	-127.854	163.237	100.769	-66.754	222.648	221.799	-49.751	0.0002581	0.00034943	4.6473e-05	1173.9	3.198e-06	1.3449e-06	1188.6	323	2.4733e-06	4.1329e-06	377.84	126.44	108.79	38.623	3.7862e-06	48.782	0.00028139	0.00027288	7.5943e-05	1166.3	2.966e-06	3.0156e-06	1187.8	322.67	2.98e-06	2.9406e-06	373.03	127.07	108.83	38.458	2.9285e-06	48.388	218.495	-82.449	-57.077	-122.148	-12.583	102.202	-122.011	-117.404	-44.007	-49.038	-117.614	-113.762	-113.079	-108.241	-24.280	-108.617	-8191	255	
2380.210	1	1	0	0	0.075827	0.15063	0.068941	0.19872	0.14411	0.10448	0.18909	0.096184	0.25756	0.14567	0.0087638	0.16177	0.20704	0.092508	0.056729	0.037438	-4.0563	-4.6229	-4.8688	-4.2729	-4.8187	-4.6958	-4.4125	-5.0917	-4.2104	-4.6958	-5.1667	-4.2229	-5.0646	-4.7021	-4.2271	-5.1229	201.923	-7.406	-128.295	224.233	-30.148	-123.021	-112.451	146.428	-29.347	135.910	183.830	121.648	-37.675	143.690	222.303	78.240	0.00028909	0.00013677	0.00010391	1177.1	2.3842e-06	2.3812e-06	1187.4	324.37	4.4671e-06	1.6841e-06	373.9	127.41	109.83	38.618	5.467e-06	48.573	0.00027118	0.00026777	7.3641e-05	1164.3	2.9277e-06	2.9232e-06	1186.2	322.5	2.8922e-06	2.8823e-06	371.55	127.07	108.99	38.373	2.8383e-06	48.319	212.809	-0.368	-71.474	-122.201	-15.912	-58.131	-121.983	-117.312	-25.960	221.238	-117.864	-114.006	-113.317	-108.325	5.281	-109.297	-8191	255	
2380.330	1	1	0	0	0.077611	0.023048	0.19339	0.087708	0.11066	0.08518	0.12133	0.055871	0.023929	0.11805	0.18755	0.29762	0.091278	0.060294	0.33922	0.19362	-3.9688	-4.3896	-5.0437	-4.2021	-4.8187	-4.6833	-4.3	-5.2333	-4.4229	-4.3958	-5.1958	-4.2208	-4.7896	-5.0375	-4.1625	-5.1875	158.791	-117.010	-118.572	-28.853	219.586	87.269	61.735	135.822	119.955	23.365	-133.987	-107.315	184.152	53.244	-79.263	99.473	0.00027882	0.0005052	6.2463e-05	1177.8	5.631e-06	2.9362e-06	1190.3	323.37	2.7025e-06	4.6752e-06	375.5	126.9	109.31	38.74	5.678e-06	48.752	0.00026261	0.00026051	7.0406e-05	1159.8	2.8206e-06	2.7827e-06	1184.2	321.55	2.7638e-06	2.7191e-06	370.2	126.89	108.57	38.37	2.6721e-06	48.319	206.129	-37.779	-31.547	-122.212	7.664	24.318	-122.260	-117.179	-13.891	-38.542	-117.749	-113.965	-113.198	-108.537	-16.058	-108.995	-8191	255	
2380.425	1	1	0	0	0.08828	0.13358	0.14771	0.17546	0.22297	0.047633	0.3448	0.083796	0.19431	0.24126	0.18603	0.1454	0.15068	0.040874	0.040179	0.22129	-4.3	-4.2021	-5.0667	-4.3104	-4.7417	-4.8875	-4.4375	-5.1146	-4.6583	-4.3812	-5.1083	-4.3438	-4.6917	-5.0188	-4.0854	-4.9729	213.549	-19.316	-103.426	-10.968	66.695	117.303	217.560	114.548	90.412	207.844	-71.531	42.877	-96.256	165.603	-107.327	-60.246	0.00031181	0.00039384	0.00017361	1170.4	3.2486e-06	3.6119e-06	1181.5	324.36	1.4791e-06	1.6798e-06	376.31	127.01	109.88	38.729	4.3352e-06	48.926	0.00024861	0.00024503	6.7205e-05	1154.5	2.635e-06	2.6081e-06	1179.2	321.14	2.6469e-06	2.6558e-06	370.2	126.94	108.58	38.382	2.6293e-06	48.338	210.153	-14.971	-62.158	-122.081	-35.618	-62.282	-122.276	-117.349	-53.478	-40.064	-117.686	-113.976	-112.866	-108.239	11.454	-108.975	-8191	255	
2380.521	1	1	0	0	0.13894	0.16699	0.19422	0.21238	0.23785	0.30116	0.043625	0.037066	0.13188	0.065438	0.26643	0.19481	0.28017	0.13681	0.20014	0.093095	-4.2375	-4.1625	-4.8083	-4.375	-4.4292	-4.9479	-4.2125	-5.0542	-4.5542	-4.4062	-5.1604	-4.4917	-4.4812	-5.1479	-3.9479	-4.9208	193.052	-21.384	-42.004	116.366	-37.392	5.803	163.102	-97.477	-48.422	-117.728	72.127	-125.921	180.745	-101.406	-58.401	-105.757	0.0002872	0.00016718	2.0518e-05	1166.4	3.1904e-06	2.9362e-06	1184.5	322.17	1.7971e-06	1.4678e-06	375.12	127.14	108.84	38.606	1.4516e-06	48.726	0.00024468	0.00024075	6.6669e-05	1153	2.6489e-06	2.6103e-06	1178.7	320.65	2.6313e-06	2.6256e-06	370.2	126.82	108.5	38.361	2.6383e-06	48.263	215.321	-26.268	117.362	-122.097	-34.441	-10.530	-122.126	-117.341	-13.481	-17.993	-117.613	-113.650	-112.990	-108.149	42.416	-109.096	-8191	255	
2380.641	1	1	0	0	0.11545	0.055049	0.15232	0.37859	0.0082701	0.047504	0.29477	0.14229	0.18936	0.24296	0.16498	0.10975	0.21549	0.20183	0.26577	0.1279	-4.5938	-4.0833	-5.0771	-4.5833	-4.3521	-4.9667	-4.4521	-4.9625	-4.8396	-4.175	-5.0021	-4.6542	-4.3479	-5.0146	-4.2521	-4.8042	188.719	-134.911	179.606	181.957	-112.055	52.415	182.092	158.782	-59.490	156.616	197.129	-81.194	173.078	-119.907	-7.070	216.561	0.00028091	0.0001506	0.00011755	1169.3	4.4124e-06	1.6733e-06	1182.8	322.65	2.0709e-06	2.5596e-06	374.47	127.1	108.85	38.754	4.1767e-06	48.967	0.00024585	0.00024284	6.6303e-05	1153	2.6144e-06	2.5745e-06	1179.3	320.29	2.6444e-06	2.6136e-06	369.61	126.85	108.57	38.437	2.5702e-06	48.373	207.481	-114.313	-37.500	-121.817	-33.155	36.104	-122.178	-117.175	-66.947	25.633	-117.432	-113.856	-113.292	-108.161	24.169	-109.004	-8191	255	
2380.738	1	1	0	0	0.046343	0.17793	0.12217	0.23358	0.11683	0.33563	0.46333	0.1145	0.17702	0.087271	0.039161	0.25114	0.062314	0.089821	0.094113	0.10916	-4.6438	-4.2083	-4.9646	-4.6646	-4.1896	-5.0792	-4.4521	-4.7271	-5.0542	-4.1458	-5.0833	-4.8875	-4.2896	-5.2542	-4.1979	-4.475	165.293	168.829	-30.246	-111.287	35.798	12.300	200.967	-87.976	-45.957	65.923	210.585	-99.003	52.175	125.761	124.253	75.584	0.0002615	0.00054269	0.00016589	1172.1	1.8567e-06	5.0756e-06	1184	322.75	3.3187e-06	4.2408e-06	376.15	127.37	109.23	38.876	2.616e-06	49.246	0.00023888	0.00023618	6.503e-05	1154.9	2.5292e-06	2.5369e-06	1179.8	320.61	2.5596e-06	2.5274e-06	369.58	126.89	108.59	38.44	2.5418e-06	48.43	222.554	-31.493	1.337	-122.091	79.832	15.472	-122.014	-117.395	11.717	21.112	-117.982	-113.605	-113.059	-108.228	-88.340	-108.756	-8191	255	
2380.834	1	1	0	0	0.086465	0.067146	0.12403	0.034991	0.20865	0.29727	0.080879	0.18509	0.17024	0.13391	0.1861	0.27743	0.15606	0.26326	0.0879	0.28438	-4.7125	-4.3167	-4.9708	-4.8229	-4.15	-5.2021	-4.5479	-4.4604	-5.0604	-4.0417	-4.8979	-4.9146	-4.3667	-5.3042	-4.4187	-4.4625	115.391	106.466	61.132	-59.095	-51.437	-25.282	149.841	-120.847	-32.408	-42.348	-110.996	211.189	169.243	190.803	-5.144	107.416	0.00029994	0.00040823	0.00014878	1173.9	2.7193e-06	3.6625e-06	1179.8	323.49	1.9014e-06	6.7384e-06	375.09	127.45	109.33	39.082	1.3559e-06	49.037	0.00023936	0.00023066	6.4538e-05	1152.8	2.5222e-06	2.5063e-06	1176.5	320.75	2.5679e-06	2.5116e-06	369.96	127.19	108.67	38.437	2.5333e-06	48.413	223.753	-77.442	1.153	-121.963	1.911	-8.894	-121.843	-117.425	-5.078	-34.675	-117.584	-113.946	-113.094	-108.421	-6.199	-109.242	-8191	255	
2380.905	1	1	0	0	0.14382	0.061995	0.05735	0.17211	0.061528	0.090959	0.38493	0.27857	0.18076	0.13399	0.16114	0.10344	0.1586	0.16293	0.12199	0.19159	-4.7542	-4.1562	-4.725	-4.9104	-4.1521	-5.0021	-4.8083	-4.4563	-4.9375	-4.3104	-4.7083	-5.0062	-4.2854	-5.1271	-4.6	-4.5104	143.006	54.507	-134.877	125.043	215.566	-43.098	182.107	142.364	133.252	-129.254	-117.983	-96.565	194.142	-67.687	-70.924	-46.823	0.00027633	0.00053718	0.00014318	1171.6	5.7257e-06	9.377e-07	1179.1	322.89	2.2246e-06	6.3986e-07	375.44	127.78	109.46	38.842	4.7638e-06	48.948	0.00023961	0.00023757	6.4643e-05	1154.4	2.5565e-06	2.5502e-06	1177.3	320.59	2.5649e-06	2.5538e-06	370.2	127.12	108.57	38.418	2.5323e-06	48.31	211.608	9.617	-34.489	-122.080	-15.813	-86.512	-121.996	-117.553	-37.047	-53.086	-117.746	-113.885	-113.305	-108.457	-37.367	-109.418	-8191	255	
2381.026	1	1	0	0	0.28471	0.27091	0.0784	0.21657	0.22798	0.15205	0.27378	0.30309	0.11359	0.30049	0.40316	0.093164	0.11498	0.20054	0.07984	0.12042	-4.6458	-4.1396	-4.7188	-5.0521	-4.2896	-4.8208	-4.7833	-4.4708	-5.0021	-4.25	-4.5396	-5.0021	-4.1708	-4.9292	-4.7604	-4.2792	35.635	48.257	48.826	170.116	-92.982	73.711	144.289	212.707	-127.504	52.443	188.088	-127.446	100.770	190.483	-102.739	66.741	0.00027633	0.00045227	9.3167e-05	1170.2	4.9298e-06	7.8986e-06	1183.8	322.97	4.0284e-06	3.991e-06	373.85	127.23	109.12	38.692	4.6618e-06	48.875	0.00023585	0.00022964	6.463e-05	1153.6	2.524e-06	2.5053e-06	1178	320.29	2.5623e-06	2.5239e-06	369.38	126.89	108.44	38.416	2.5494e-06	48.194	219.375	-82.150	9.123	-122.051	0.028	-0.411	-121.986	-117.443	20.694	6.621	-117.916	-113.829	-113.165	-108.629	-37.984	-108.941	-8191	255	
2381.122	1	1	0	0	0.078749	0.1195	0.14573	0.21433	0.22356	0.30016	0.1402	0.10815	0.17243	0.19531	0.17026	0.32573	0.10531	0.018899	0.16586	0.13759	-4.8729	-4.3896	-4.4688	-5.2708	-4.0854	-4.9583	-5.0042	-4.4542	-4.9271	-4.3833	-4.6687	-5.0833	-4.1646	-5.0292	-4.9229	-4.3833	28.678	19.970	-53.358	48.227	196.699	-2.414	155.445	210.482	87.488	164.845	218.043	-119.421	176.309	-133.264	175.487	-85.026	0.00031418	0.00066121	0.00023684	1165.2	3.8657e-06	2.2612e-06	1180.9	321.89	1.3909e-06	6.5753e-06	374.87	126.6	109.08	38.724	4.0281e-06	48.733	0.00023892	0.00023648	6.5844e-05	1152	2.5874e-06	2.5761e-06	1177.5	319.88	2.57e-06	2.5496e-06	369.21	126.7	108.3	38.376	2.5986e-06	48.264	221.245	-67.194	-47.223	-121.842	-49.554	-72.081	-121.745	-117.512	-49.971	-0.947	-117.563	-113.812	-113.120	-108.593	-26.561	-109.312	-8191	255	
2381.218	1	1	0	0	0.13857	0.32637	0.11391	0.19278	0.15909	0.2942	0.28373	0.17734	0.17003	0.055753	0.16737	0.087389	0.17709	0.15915	0.049966	0.11843	-4.7771	-4.6958	-4.2958	-5.2417	-4.1	-4.775	-5.0667	-4.1521	-5.0563	-4.5854	-4.5521	-5.1521	-4.4271	-4.7688	-5.0062	-4.2312	88.889	-104.015	-67.906	-124.754	134.471	-1.787	116.962	149.934	-0.653	141.063	26.276	203.246	168.357	214.549	128.752	-8.658	0.000301	0.00045254	0.00011577	1170.1	3.4059e-06	1.7605e-06	1180	321.85	4.2845e-06	4.3878e-06	375.39	127.02	108.42	38.444	8.0717e-06	48.776	0.00024288	0.00024005	6.8264e-05	1151.6	2.6555e-06	2.634e-06	1177.3	319.83	2.7035e-06	2.6811e-06	370.41	126.49	108.19	38.229	2.7482e-06	48.218	212.170	-24.768	-36.642	-121.932	10.286	-70.737	-121.890	-117.325	-31.793	11.904	-117.710	-113.824	-113.186	-108.315	49.960	-108.820	-8191	255	
2381.314	1	1	0	0	0.10807	0.13975	0.032769	0.21082	0.074098	0.12249	0.17494	0.21825	0.15724	0.20022	0.13518	0.1524	0.11928	0.1234	0.17336	0.17563	-4.5771	-4.6188	-4.2208	-5.2292	-4.2104	-4.6292	-4.95	-4.2583	-4.9021	-4.7333	-4.4062	-5.0854	-4.4812	-4.55	-5.1771	-4.2979	158.880	146.511	107.839	-133.306	106.973	-119.733	223.024	177.126	191.549	177.523	-120.381	166.534	-91.472	167.265	-132.149	70.001	0.00026279	0.00059553	0.00014045	1163.1	4.6414e-06	5.4701e-06	1175.2	320.97	2.4019e-06	6.3348e-06	374.39	126.56	108.49	38.392	4.6161e-06	48.662	0.00026271	0.00026106	7.2987e-05	1150.9	2.8744e-06	2.8933e-06	1175.9	320.19	2.928e-06	2.8936e-06	370.66	126.72	108.29	38.252	2.945e-06	48.227	220.088	-110.088	-15.828	-122.150	-68.520	-52.806	-122.008	-117.471	2.436	-3.460	-118.062	-113.777	-113.192	-108.463	79.742	-109.043	-8191	255	
2381.433	1	1	0	0	0.35465	0.16786	0.21869	0.16216	0.089115	0.0885	0.27413	0.18207	0.14806	0.071323	0.048303	0.12518	0.24529	0.06524	0.23108	0.10414	-4.6417	-4.7625	-4.3333	-5.2583	-4.4521	-4.2854	-5.2417	-4.1396	-4.6104	-4.9333	-4.1958	-5.1271	-4.6271	-4.3375	-5.0146	-4.2896	11.835	156.130	201.710	-114.739	40.366	68.572	169.101	82.922	188.671	-88.444	33.716	171.902	156.946	-99.026	-23.070	197.607	0.00027532	0.00046983	0.00010874	1160.4	4.6242e-06	2.5369e-06	1172.1	320.27	1.504e-06	1.7245e-06	372.59	126.79	108.5	38.377	5.1369e-06	48.417	0.0002718	0.0002703	7.6239e-05	1148.3	2.9555e-06	2.9334e-06	1174.3	319.81	2.9661e-06	2.93e-06	369.84	126.46	108.18	38.271	2.9283e-06	48.166	215.911	-64.766	-35.334	-122.021	-33.054	72.029	-121.938	-117.410	-92.568	0.034	-117.954	-114.079	-113.237	-108.254	1.855	-109.008	-8191	255	
2381.505	1	1	0	0	0.19549	0.2139	0.14857	0.046625	0.16548	0.30876	0.30988	0.27275	0.16734	0.017046	0.17336	0.27974	0.29902	0.28309	0.073202	0.26558	-4.3104	-4.8354	-4.0813	-5.0854	-4.7146	-4.4083	-5.2063	-4.4083	-4.55	-4.9042	-4.3042	-5.0938	-4.6937	-4.4167	-5.1438	-4.3646	149.923	-90.841	-114.723	141.564	172.782	10.201	81.514	191.489	-38.851	125.251	183.133	179.472	184.852	-89.166	-35.875	186.996	0.00025247	0.00022207	9.1438e-05	1161.9	3.0379e-06	4.0106e-06	1173.4	319.51	3.2647e-06	1.0513e-05	373.29	126.45	108.5	38.493	5.6375e-06	48.615	0.00027555	0.00026949	7.5478e-05	1149	2.9534e-06	2.9723e-06	1172.2	319.23	2.9937e-06	2.9741e-06	370.23	126.78	108.2	38.331	3.0075e-06	48.285	216.752	-39.053	-133.452	-122.043	-22.742	7.454	-122.067	-117.342	31.523	22.375	-117.851	-113.927	-113.164	-108.530	-28.481	-108.622	-8191	255	
2381.603	1	1	0	0	0.14258	0.22658	0.10101	0.11352	0.20764	0.17571	0.25669	0.09177	0.10355	0.17408	0.23431	0.15019	0.13058	0.061528	0.029657	0.045121	-4.2333	-4.875	-4.0521	-5.0312	-4.7667	-4.1229	-5.2417	-4.4625	-4.4333	-4.9938	-4.2937	-4.825	-4.7708	-4.25	-5.0521	-4.5583	191.592	144.413	-88.202	117.704	72.317	170.476	105.643	-40.265	2.563	183.907	80.772	-111.365	139.226	-100.690	-68.478	56.740	0.00029877	0.00020728	0.00017816	1156.5	6.9291e-06	4.366e-06	1175.6	321.23	2.8756e-06	4.7249e-06	374.78	126.34	108.86	38.399	4.0406e-06	48.428	0.00028442	0.00028232	7.9859e-05	1149.8	3.1127e-06	3.1537e-06	1176.2	320.2	3.266e-06	3.2299e-06	372.44	126.98	108.96	38.407	3.452e-06	48.492	219.931	-48.380	-60.560	-121.931	-31.791	7.406	-121.939	-117.434	39.105	14.139	-117.767	-113.865	-113.029	-108.453	-52.103	-108.949	-8191	255	
2381.722	1	1	0	0	0.17095	0.16728	0.10133	0.07243	0.13159	0.065439	0.25873	0.19219	0.082682	0.10228	0.11018	0.1077	0.23625	0.12748	0.15467	0.13996	-4.125	-5.0604	-4.0958	-4.8146	-4.675	-4.2104	-5.2375	-4.7812	-4.3	-4.9875	-4.3104	-4.9542	-4.9042	-4.1062	-5.0604	-4.6458	153.512	141.212	92.212	148.097	33.543	-25.748	205.566	224.489	162.635	36.480	-130.891	53.007	149.400	118.980	-79.039	181.147	0.00030706	0.00067712	0.00010054	1166.9	5.9151e-06	6.8327e-06	1183.9	322.01	1.0331e-06	7.5129e-06	377.88	126.73	108.68	38.429	4.4026e-06	48.79	0.00032901	0.00032792	9.2201e-05	1161.5	3.7024e-06	3.7637e-06	1188.2	323.68	3.9341e-06	3.9221e-06	377.3	128.21	110	38.747	4.1265e-06	48.937	215.477	-60.184	-42.054	-122.267	-20.464	32.834	-122.156	-117.272	205.499	-20.633	-117.845	-113.915	-112.959	-108.395	36.557	-108.853	-8191	255	
2381.818	1	1	0	0	0.18758	0.19487	0.097964	0.2762	0.1767	0.098802	0.25353	0.085572	0.18871	0.16114	0.13064	0.03667	0.20371	0.16866	0.049744	0.15794	-3.9979	-5.0875	-4.3083	-4.7479	-5.0813	-4.1104	-5.0521	-4.6417	-4.1937	-5.0563	-4.4167	-4.7646	-5.0708	-4.1646	-5.0687	-4.7188	-46.201	-100.302	169.826	131.167	-7.833	179.576	164.980	-50.760	12.167	-77.660	129.242	37.899	195.293	212.661	135.831	175.711	0.00024191	0.00018078	0.00021258	1176.3	5.5253e-06	5.9528e-06	1193.7	324.15	2.1516e-07	1.2161e-06	378.34	127.15	109.18	38.565	8.5882e-06	48.642	0.00038073	0.00038198	0.00010597	1177.2	4.1672e-06	4.1851e-06	1197.7	326.89	4.2685e-06	4.178e-06	379.9	129.11	110.59	38.941	4.2547e-06	48.962	-135.276	135.683	-49.344	-122.105	36.035	-34.185	-122.049	-117.296	172.379	-123.147	-117.881	-113.936	-113.087	-108.555	-39.859	-109.194	-8191	255	
2381.914	1	1	0	0	0.32962	0.18805	0.15934	0.12485	0.18595	0.20239	0.11885	0.20851	0.12867	0.10637	0.18294	0.10222	0.25212	0.22277	0.063395	0.10655	-3.9417	-5.0833	-4.2333	-4.5188	-4.9583	-4.2833	-4.8229	-4.8417	-4.0896	-5.0125	-4.5854	-4.5021	-5.0396	-4.2979	-4.7312	-4.8812	14.407	173.347	-101.408	-1.513	122.856	-108.094	73.512	127.017	-77.618	-122.602	161.040	-99.487	121.125	8.649	-22.769	150.613	0.00037068	0.00066804	0.0001164	1180.4	3.9116e-06	6.1099e-06	1194	324.98	3.4433e-06	3.8906e-06	380.18	127.96	109.68	38.523	6.1596e-06	48.266	0.00039251	0.00039004	0.00010948	1182.1	4.2386e-06	4.2746e-06	1201.4	327.43	4.3241e-06	4.2874e-06	380.53	129.35	110.57	39.008	4.4303e-06	49.103	214.647	-59.033	-100.163	-122.376	-66.607	-6.886	-121.910	-117.322	-2.326	-50.414	-117.794	-113.975	-113.051	-108.585	1.772	-109.107	-8191	255	
2382.010	1	1	0	0	0.16296	0.11552	0.087284	0.2818	0.12661	0.15884	0.01306	0.05098	0.12598	0.27278	0.16073	0.21809	0.22922	0.18105	0.20205	0.048697	-3.8646	-4.9333	-4.5417	-4.4792	-4.9896	-4.1729	-4.8146	-4.9458	-4.0333	-4.9646	-4.7458	-4.3021	-5.0792	-4.175	-4.6104	-5.0188	29.275	148.028	-105.501	-127.296	85.687	222.785	124.264	169.130	-121.275	143.903	107.680	186.596	79.076	97.599	48.780	85.313	0.0002553	0.00019777	2.5819e-05	1180.7	4.8811e-06	4.8528e-06	1198.6	326.96	3.9902e-06	1.6838e-06	381.48	127.53	109.61	39.086	1.7882e-06	48.972	0.000404	0.00041134	0.00011481	1184.4	4.4942e-06	4.5578e-06	1206.6	329.29	4.5804e-06	4.6385e-06	383.19	129.54	111.3	39.243	4.668e-06	49.441	219.442	80.235	224.451	-122.173	-38.145	8.242	-122.182	-117.360	-18.537	44.624	-117.682	-114.160	-113.399	-108.202	42.023	-109.071	-8191	255	
2382.106	1	1	0	0	0.06518	0.21017	0.12812	0.14341	0.13268	0.16635	0.091525	0.19445	0.17522	0.082693	0.21382	0.22844	0.19958	0.4194	0.15874	0.16197	-3.8063	-4.9896	-4.8125	-4.3125	-5.0792	-4.2625	-4.7979	-4.9521	-4.0479	-4.9833	-4.9	-4.3542	-5.1917	-4.3771	-4.4437	-5.0604	-111.855	67.559	-133.094	118.895	-104.110	-1.208	-111.263	149.081	158.757	8.228	193.553	162.302	-97.660	211.183	79.485	201.553	0.00028628	0.00059367	0.0001558	1190.1	3.292e-06	2.0196e-06	1202.8	327.9	2.4981e-06	5.5098e-07	381.13	127.7	109.9	38.739	5.0705e-06	49.168	0.00042284	0.00042467	0.0001174	1193.3	4.6979e-06	4.7309e-06	1213.3	331.09	4.7112e-06	4.6897e-06	384.09	130.18	111.81	39.328	4.7434e-06	49.638	-132.762	42.710	-51.947	-122.423	-115.409	-0.197	-122.097	-117.207	40.472	61.593	-117.740	-114.024	-113.319	-108.246	2.805	-109.127	-8191	255	
2382.202	1	1	0	0	0.044768	0.019557	0.21387	0.21425	0.20036	0.073033	0.19562	0.17708	0.14362	0.092173	0.041155	0.087889	0.14917	0.20858	0.18495	0.01819	-3.9167	-4.7333	-4.8438	-4.3521	-4.9583	-4.4708	-4.5083	-5.1792	-4.1167	-4.6813	-4.8479	-4.2458	-5.1813	-4.5875	-4.2583	-5.1208	185.692	-54.598	-3.114	204.031	31.511	187.102	136.090	135.798	114.345	129.535	37.256	-114.065	-126.495	173.738	208.241	-55.568	0.00024116	0.00060768	0.00010717	1194.9	3.7236e-06	4.6283e-06	1215.1	329.69	4.239e-06	5.2338e-06	385.51	129.75	111.77	39.109	3.5658e-06	49.613	0.00043833	0.00044258	0.00012451	1204.5	4.9255e-06	5.1208e-06	1228.8	334.79	5.3273e-06	5.336e-06	390.34	132.71	114.32	40.007	5.52e-06	50.675	-128.676	-48.602	-40.943	-122.449	-33.318	79.626	-122.083	-117.316	-29.922	-68.210	-117.717	-114.045	-113.474	-108.340	-97.953	-108.933	-8191	255	
2382.323	1	1	0	0	0.11823	0.055045	0.059111	0.19764	0.10866	0.10741	0.26765	0.28518	0.093592	0.030748	0.12874	0.1842	0.10997	0.20473	0.31497	0.092596	-3.95	-4.4333	-5.0229	-4.3917	-5.0021	-4.5542	-4.4563	-5.1687	-4.2708	-4.5687	-4.9563	-4.2562	-4.975	-4.6687	-4.2604	-5.1687	158.517	165.730	35.643	105.039	209.895	-24.482	165.298	184.883	103.719	66.025	197.067	-119.646	-85.673	149.375	197.397	-68.362	0.00035624	0.00027119	5.9175e-05	1223.9	3.5249e-06	7.365e-06	1233.4	334.57	2.2169e-06	4.147e-06	388.37	130.61	112.24	39.55	3.9277e-06	49.874	0.00050768	0.00051051	0.00014201	1239.1	5.5772e-06	5.5514e-06	1254.3	340.23	5.476e-06	5.4223e-06	393.74	133.69	114.79	40.202	5.2933e-06	50.82	215.905	203.057	125.716	-122.165	-95.675	17.260	-122.266	-117.554	18.383	-45.968	-117.823	-113.952	-113.335	-108.229	-86.195	-109.111	-8191	255	
2382.418	1	1	0	0	0.070398	0.055378	0.22944	0.12789	0.31507	0.12686	0.27178	0.098082	0.051544	0.090423	0.22316	0.19531	0.10789	0.17263	0.03033	0.0033168	-4.0771	-4.7292	-5.0437	-4.3521	-4.8917	-4.7562	-4.5708	-5.2729	-4.4667	-4.4875	-5.1771	-4.3667	-4.9938	-4.8396	-4.2583	-5.1687	-110.796	-13.308	61.679	100.393	-72.496	-36.047	176.052	126.068	59.330	151.727	136.414	185.167	167.403	155.056	56.712	148.960	0.00029497	0.00064337	8.1034e-05	1230.3	1.145e-06	6.8737e-06	1240.7	332.95	3.0911e-06	4.5869e-06	389.49	130.71	112.61	39.543	5.3875e-06	49.718	0.00048215	0.00048276	0.00013113	1237.4	5.1728e-06	5.1675e-06	1252.1	338.98	5.0869e-06	5.1366e-06	392.02	133.35	114.59	40.123	5.0583e-06	50.535	-130.569	-40.158	-82.798	-122.184	93.788	-118.752	-122.403	-117.250	-46.751	48.474	-117.834	-114.126	-113.326	-108.479	-51.970	-109.435	-8191	255	
2382.514	1	1	0	0	0.12882	0.14228	0.17093	0.20056	0.13758	0.13316	0.1799	0.1813	0.10096	0.082276	0.15384	0.25723	0.097	0.051841	0.1757	0.11921	-4.1229	-4.5667	-5.0854	-4.4292	-4.8021	-4.8146	-4.2937	-5.1375	-4.5271	-4.2229	-5.225	-4.4667	-4.8229	-5.0375	-4.2854	-5.0458	84.940	-22.490	75.464	200.560	74.793	15.099	121.916	192.325	-121.234	-31.288	27.946	189.810	-115.849	3.309	90.059	191.946	0.00028948	0.00023811	5.5882e-05	1227.7	2.0732e-06	2.2624e-06	1238.9	335.63	1.6701e-06	4.9667e-06	386.47	131.17	112.61	39.813	9.8226e-06	50.008	0.00045712	0.00045905	0.00012715	1236.1	4.9937e-06	4.9631e-06	1252	339.38	5.0198e-06	5.0224e-06	390.7	133.5	114.76	40.199	4.9528e-06	50.645	221.380	-32.496	-53.036	-122.148	-60.748	9.201	-122.304	-117.519	-92.887	-12.447	-117.909	-114.078	-113.258	-108.494	-48.570	-108.859	-8191	255	
2382.610	1	1	0	0	0.084347	0.04398	0.17909	0.088561	0.073607	0.13219	0.21779	0.11487	0.11262	0.1294	0.077598	0.10884	0.040971	0.074874	0.24448	0.13353	-4.1813	-4.1771	-5.2479	-4.4	-4.3979	-5.05	-4.3292	-4.8938	-4.5687	-4.2063	-5.2646	-4.2292	-4.6937	-5.0646	-3.9896	-5.1167	-82.787	58.860	-69.636	208.931	148.523	56.951	152.224	27.944	-83.709	-1.970	178.784	207.902	211.537	218.158	-125.235	-117.202	0.00030751	0.00098128	0.00014866	1228.8	5.02e-06	1.0188e-05	1238.9	336.24	8.6057e-07	3.1471e-06	389.6	130.71	112.51	39.662	9.451e-07	50.023	0.00045287	0.00045271	0.00012512	1235.6	4.913e-06	4.8678e-06	1251.2	339.54	4.8705e-06	4.835e-06	392.08	133.16	114.36	40.124	4.8513e-06	50.538	213.475	-58.919	11.747	-121.987	70.701	6.610	-122.107	-117.696	-38.472	219.865	-118.008	-113.778	-113.418	-108.713	-72.041	-109.012	-8191	255	
2382.730	1	1	0	0	0.15919	0.063911	0.1463	0.14227	0.14485	0.067972	0.17777	0.17573	0.091815	0.26836	0.13089	0.14679	0.084289	0.11818	0.17223	0.043997	-4.4792	-4.2104	-5.0687	-4.5146	-4.4708	-5.0542	-4.475	-4.8583	-4.8562	-4.2812	-5.2042	-4.6604	-4.5854	-5.1667	-4.3271	-4.8521	104.351	213.399	68.132	68.738	97.795	168.658	142.274	175.111	-134.135	-18.060	143.076	168.163	-5.264	106.914	-30.781	208.667	0.00033214	0.00072512	0.00014601	1230	4.2393e-06	8.5249e-06	1240	336.81	4.0337e-06	3.6938e-06	388.31	131.42	112.89	39.554	2.5308e-06	50.037	0.0004431	0.00044759	0.00012455	1237.1	4.9045e-06	4.8932e-06	1253.1	340.12	4.9337e-06	4.9808e-06	392.36	133.75	114.74	40.213	5.1332e-06	50.682	217.937	-50.276	12.342	-121.960	-70.567	15.043	-122.265	-117.581	-27.491	-11.346	-117.796	-114.047	-113.398	-108.652	-77.331	-109.397	-8191	255	
2382.802	1	1	0	0	0.12766	0.1663	0.16409	0.083266	0.19797	0.022321	0.22491	0.19578	0.18767	0.078076	0.20079	0.35592	0.11997	0.13916	0.21538	0.14838	-4.6813	-4.1354	-4.9333	-4.7771	-4.1646	-4.9563	-4.5646	-4.7583	-4.9	-4.1917	-5.175	-4.6917	-4.4708	-5.0604	-4.3833	-4.7812	111.056	101.345	17.302	91.982	-39.236	177.338	176.455	205.253	-40.676	-105.637	-125.262	212.977	-111.097	-63.707	168.481	149.538	0.00024039	0.00049984	0.00016115	1237.2	4.1072e-06	2.3499e-06	1249.7	336.6	9.6463e-07	5.3323e-06	389.31	131.14	112.75	39.603	4.052e-06	49.805	0.00046973	0.0004715	0.00013207	1243.3	5.235e-06	5.2259e-06	1259.7	341.58	5.2055e-06	5.221e-06	393.95	134.14	115.05	40.399	5.1325e-06	50.737	-135.137	-74.871	-35.396	-122.098	214.637	6.143	-122.378	-117.761	-48.370	-9.422	-118.092	-113.941	-113.516	-108.718	-65.826	-109.235	-8191	255	
2382.898	1	1	0	0	0.045055	0.22041	0.089035	0.17359	0.14194	0.14046	0.15141	0.23165	0.34279	0.01652	0.13288	0.28913	0.035336	0.16961	0.14081	0.10727	-4.7979	-4.2937	-4.8521	-4.975	-4.2875	-4.9521	-4.5479	-4.5646	-4.9625	-4.1896	-4.9771	-4.8771	-4.1813	-5.2146	-4.4125	-4.6312	-53.148	166.326	-48.797	-122.298	52.307	160.569	187.365	-125.361	182.944	97.591	-53.746	-99.348	145.818	-69.760	134.032	-119.838	0.00027076	0.00016951	0.00014346	1242.1	2.6758e-06	3.0885e-06	1250.3	338.36	1.1094e-06	4.3765e-06	389.08	131.74	112.67	39.77	6.992e-06	49.76	0.00046398	0.00046351	0.00012843	1247.7	4.9939e-06	4.975e-06	1264.1	341.43	4.935e-06	4.9742e-06	392.36	134.05	114.98	40.378	4.9611e-06	50.626	218.728	-108.673	-16.271	-122.254	-36.326	4.458	-122.104	-117.631	174.153	-12.172	-117.952	-114.108	-113.626	-108.793	-113.431	-109.287	-8191	255	
2382.994	1	1	0	0	0.084249	0.15004	0.16377	0.013237	0.10177	0.16384	0.15654	0.24021	0.23695	0.14625	0.33082	0.076573	0.21383	0.068715	0.097507	0.14543	-4.7833	-4.1771	-4.8562	-5.1479	-4.0021	-5.0167	-4.5958	-4.5875	-5.1208	-4.1021	-4.9583	-5.0542	-4.2979	-5.0875	-4.5042	-4.3521	0.653	-57.939	-40.216	90.908	45.482	222.820	130.311	220.407	170.208	-51.278	176.205	66.379	111.682	-26.688	178.321	-115.741	0.00020864	0.00028561	7.3097e-05	1242.8	2.6703e-06	5.9243e-06	1249.8	338.83	4.975e-06	6.0627e-06	390.96	131.18	112.91	39.597	3.7327e-06	49.91	0.00045432	0.00046531	0.00012946	1249.6	5.0931e-06	5.1416e-06	1264.9	342.43	5.1569e-06	5.1632e-06	394.15	134.18	115.4	40.401	5.1887e-06	50.789	213.944	-78.252	-21.745	-122.229	-83.375	-20.425	-122.174	-117.812	31.341	-40.754	-117.777	-114.052	-113.312	-108.692	-18.902	-109.315	-8191	255	
2383.115	1	1	0	0	0.15678	0.096762	0.099682	0.17367	0.10945	0.21732	0.28181	0.129	0.033832	0.22808	0.15672	0.087998	0.055228	0.19149	0.10158	0.14073	-4.9	-4.2083	-4.525	-4.8417	-4.0542	-4.9333	-4.7688	-4.3958	-5.0813	-4.2583	-4.6562	-5.075	-4.2354	-4.9646	-4.7292	-4.3	160.527	-61.997	88.069	152.648	19.288	10.245	147.722	118.268	-128.029	91.031	-127.176	134.740	49.979	-63.448	94.345	214.648	0.00033231	0.0003571	0.00011752	1241.4	5.7775e-06	2.7302e-06	1249.8	337.59	5.2249e-06	5.3745e-06	391.33	131.56	113.22	39.819	6.9579e-06	50.04	0.00047851	0.0004818	0.00013417	1250.9	5.3158e-06	5.3245e-06	1265.5	342.55	5.4018e-06	5.3792e-06	395.29	134.53	115.79	40.504	5.4048e-06	50.947	-128.592	-23.534	-61.801	-122.199	222.181	119.042	-122.280	-117.617	-55.357	-37.282	-117.932	-114.126	-113.489	-108.716	38.859	-109.344	-8191	255	
2383.211	1	1	0	0	0.13341	0.0777	0.085507	0.090873	0.27103	0.09197	0.27643	0.071916	0.24246	0.14224	0.17182	0.26955	0.12467	0.24592	0.10491	0.10375	-4.8187	-4.3771	-4.5458	-5.1021	-4.2208	-4.8083	-4.9458	-4.3042	-5.0271	-4.4708	-4.55	-5.1167	-4.3125	-4.7896	-4.6229	-4.3187	137.449	-35.657	54.636	132.837	37.958	72.315	184.928	137.706	-101.807	80.376	-97.580	165.170	66.806	-102.195	104.012	139.462	0.0002472	0.00021164	0.00017825	1247.1	4.8896e-06	1.8389e-06	1253.7	337.4	3.2354e-06	2.4634e-06	390.19	131.88	113.02	39.837	4.296e-06	50.18	0.00049685	0.00049955	0.00013776	1256.8	5.4507e-06	5.4155e-06	1267.6	343.2	5.4457e-06	5.4143e-06	395	134.69	115.82	40.614	5.436e-06	51.058	209.687	39.901	0.955	-122.269	-63.048	182.699	-121.907	-117.585	-2.850	19.546	-118.294	-114.018	-113.550	-108.558	-103.589	-109.087	-8191	255	
2383.306	1	1	0	0	0.12747	0.15964	0.20259	0.15761	0.079959	0.19354	0.085925	0.25463	0.055384	0.13972	0.041227	0.22883	0.060964	0.10846	0.15885	0.21533	-4.6875	-4.3875	-4.5167	-5.1021	-4.1833	-4.6188	-5	-4.2604	-5.05	-4.5854	-4.3854	-5.3333	-4.5021	-4.8104	-4.7937	-4.3542	84.513	17.429	40.418	114.423	203.488	-17.460	190.922	-129.988	21.029	156.485	-133.384	-84.633	-12.767	188.466	-2.132	209.080	0.00032393	0.00020455	0.00010978	1250	4.6699e-06	6.3508e-06	1258.1	339.71	2.5208e-06	7.028e-06	389.57	132.24	113.76	39.823	4.8704e-06	49.907	0.00050323	0.0005036	0.00014096	1260.6	5.547e-06	5.5394e-06	1274.3	344.08	5.544e-06	5.4886e-06	395.8	134.82	116.04	40.564	5.4344e-06	51.015	217.783	-52.074	4.836	-122.045	-6.453	7.712	-122.153	-117.444	-16.313	-55.887	-117.962	-113.937	-113.505	-108.650	-110.117	-109.212	-8191	255	
2383.403	1	1	0	0	0.16742	0.071434	0.08487	0.10957	0.26618	0.19084	0.056634	0.23213	0.14373	0.2165	0.13985	0.098281	0.11226	0.20353	0.12623	0.13304	-4.5437	-4.6396	-4.2354	-5.2917	-4.2583	-4.6479	-5.0938	-4.3229	-4.8729	-4.6625	-4.4271	-4.9917	-4.5708	-4.5292	-5.0667	-4.2146	-8.225	177.142	-109.910	207.033	214.140	43.416	4.036	187.717	136.003	-96.939	-28.315	171.486	-65.354	-73.335	126.881	-33.583	0.00035962	0.00035555	0.00021969	1253.1	2.3589e-06	3.9556e-06	1262.3	339.41	2.8253e-06	2.6206e-06	390.79	132.44	113.35	39.961	1.7489e-06	50.163	0.00049316	0.00049922	0.00013772	1263.1	5.3267e-06	5.3987e-06	1276.2	343.68	5.3569e-06	5.3086e-06	395.37	135.02	115.81	40.605	5.315e-06	51.032	218.963	221.190	-50.514	-122.193	-36.429	5.559	-122.261	-117.681	-44.136	-3.363	-118.050	-113.993	-113.285	-108.903	70.958	-109.223	-8191	255	
2383.498	1	1	0	0	0.25898	0.16459	0.11389	0.047532	0.09877	0.13703	0.315	0.30505	0.18433	0.11106	0.28823	0.13885	0.067787	0.13806	0.37485	0.2182	-4.5792	-4.7958	-4.0687	-5.2042	-4.3354	-4.4625	-5.175	-4.2042	-4.7562	-4.9104	-4.4125	-5.025	-4.6333	-4.2979	-5.0188	-4.2083	-127.015	120.491	12.443	76.764	92.221	120.235	181.274	168.331	-134.274	-66.203	149.457	184.275	198.557	-93.353	156.399	122.741	0.00037827	0.00059946	0.00020646	1257.5	3.3609e-06	3.8515e-06	1263.6	340.3	2.9834e-06	2.8527e-06	391.02	132.25	113.27	40.113	7.0465e-07	50.13	0.00048686	0.00048451	0.00013625	1261.5	5.2582e-06	5.2679e-06	1274.3	344.02	5.1931e-06	5.1441e-06	394.55	134.45	115.61	40.537	5.0724e-06	50.939	218.124	-120.208	1.414	-122.259	-23.256	-30.977	-122.283	-117.590	-52.059	36.532	-118.195	-114.065	-113.628	-108.603	39.145	-109.138	-8191	255	
2383.594	1	1	0	0	0.1886	0.3336	0.24391	0.14896	0.16015	0.18354	0.20193	0.25644	0.27084	0.16107	0.1224	0.045471	0.12759	0.17571	0.093987	0.2185	-4.4646	-4.8583	-4.1	-5.0771	-4.4708	-4.3271	-5.3354	-4.3375	-4.5917	-5.0458	-4.3333	-4.9979	-4.7479	-4.4208	-5.0896	-4.3896	-34.321	20.455	32.059	205.305	95.353	169.283	184.463	73.072	-110.565	-111.470	11.583	201.024	-16.365	203.510	88.478	165.272	0.00022942	0.00017505	0.00017425	1248.5	2.2507e-06	3.5202e-06	1260.3	338.99	4.4268e-06	6.3695e-06	390.72	132.13	113.51	39.762	4.7032e-06	49.978	0.00046479	0.00046892	0.00013286	1257	5.1437e-06	5.2403e-06	1271.2	343.27	5.2841e-06	5.2574e-06	395.4	134.71	115.81	40.497	5.3193e-06	51.01	-134.376	-32.130	-84.386	-122.261	-4.784	27.245	-122.334	-117.614	-65.259	-4.422	-117.574	-114.149	-113.185	-108.831	141.736	-109.310	-8191	255	
2383.690	1	1	0	0	0.205	0.15526	0.13487	0.20828	0.29627	0.080896	0.23322	0.11708	0.097998	0.093687	0.11739	0.075524	0.080133	0.13441	0.012559	0.12986	-4.3021	-4.8792	-4.2458	-5.2083	-4.6354	-4.2625	-5.3583	-4.6208	-4.5625	-4.9375	-4.2521	-4.9187	-4.8417	-4.3979	-5.25	-4.5167	204.611	176.263	-124.516	-46.914	83.650	-40.894	127.099	200.634	181.844	-121.982	164.876	150.393	216.621	202.249	-120.297	-106.283	0.00031125	0.00032536	0.00010232	1247.1	2.6366e-06	4.1845e-06	1257.1	338.03	4.2234e-06	5.225e-06	390.68	131.74	113.16	39.873	4.1411e-06	50.032	0.00048776	0.00048708	0.00013637	1257.8	5.2754e-06	5.358e-06	1269.9	342.88	5.4063e-06	5.3823e-06	395.1	134.79	115.65	40.556	5.3552e-06	50.937	-127.468	-73.170	-51.848	-122.304	-63.854	-73.569	-122.361	-117.743	-9.342	-5.906	-118.096	-113.941	-113.149	-108.617	-81.847	-109.144	-8191	255	
2383.811	1	1	0	0	0.12882	0.0615	0.089895	0.13217	0.25202	0.055333	0.26661	0.011999	0.084195	0.059462	0.076757	0.11851	0.15954	0.19674	0.015482	0.077624	-4.1396	-4.9854	-4.125	-4.9708	-4.6833	-4.0813	-5.3667	-4.6396	-4.3792	-5.0437	-4.3229	-4.8396	-5.0833	-4.3938	-5.0521	-4.6229	167.321	138.156	79.325	140.320	138.564	-34.007	141.863	223.858	-103.362	-82.117	-27.085	188.537	198.063	201.248	-10.069	219.446	0.00036167	0.00020261	9.1759e-05	1251.6	4.6848e-06	2.976e-06	1255.4	338.39	2.9923e-06	6.7544e-06	391.5	131.08	113.33	39.806	3.1862e-06	49.898	0.00049034	0.00049571	0.00013725	1257.5	5.4114e-06	5.4644e-06	1270	343.16	5.4919e-06	5.4524e-06	395.52	134.31	115.57	40.443	5.3819e-06	50.844	-131.936	-129.399	108.592	-122.444	-34.436	14.849	-122.350	-117.570	29.702	-1.926	-118.230	-114.140	-113.389	-108.673	-48.749	-109.141	-8191	255	
2383.907	1	1	0	0	0.20224	0.19081	0.064879	0.13409	0.21788	0.080249	0.054531	0.12011	0.24078	0.29067	0.22419	0.15209	0.12999	0.23286	0.086193	0.11831	-4.1667	-5.1458	-4.2812	-4.7021	-4.8646	-4.075	-5.0167	-4.8479	-4.0792	-5.0271	-4.3688	-4.7021	-5.1208	-4.1687	-4.7542	-4.9167	199.239	-30.962	-54.050	191.849	-19.420	172.156	217.925	205.717	-22.905	59.679	210.431	166.932	138.992	161.115	169.806	208.944	0.00032147	0.00017411	0.00010213	1238.4	3.226e-06	2.4655e-06	1250.9	336.8	1.7791e-06	6.6081e-06	389.77	131.37	112.37	39.734	7.1286e-06	49.797	0.0004898	0.00049062	0.00013657	1250.5	5.3503e-06	5.3287e-06	1266.1	341.98	5.328e-06	5.2827e-06	393.97	134.1	115.24	40.376	5.2384e-06	50.767	222.838	15.310	-57.782	-122.405	128.657	39.797	-122.152	-117.498	-75.790	33.031	-118.240	-114.347	-113.121	-108.632	2.912	-109.083	-8191	255	
2384.003	1	1	0	0	0.14016	0.072588	0.16287	0.089397	0.086331	0.24936	0.18578	0.16128	0.12863	0.30614	0.16043	0.17875	0.16631	0.19619	0.19984	0.12363	-3.8312	-5.1396	-4.3625	-4.5854	-4.9187	-4.1271	-5.1521	-4.8208	-4.0625	-5.1229	-4.4688	-4.4375	-5.0271	-4.2667	-4.6125	-4.8917	128.179	113.197	-123.756	201.150	-57.677	60.694	187.230	125.538	140.354	163.562	9.069	79.605	142.011	222.841	-45.388	-15.027	0.00030861	0.00059712	1.3022e-05	1240.9	8.1956e-06	4.0298e-06	1253.7	338.64	4.4475e-06	5.38e-06	390.17	130.59	112.51	39.841	3.8924e-06	50.073	0.00047647	0.00048061	0.00013465	1250.5	5.2775e-06	5.2796e-06	1266.2	342.46	5.3252e-06	5.3003e-06	394.64	133.96	115.15	40.397	5.2806e-06	50.847	204.662	-62.714	117.054	-122.144	-19.003	-0.261	-122.172	-117.513	101.216	-49.780	-118.042	-114.079	-113.126	-108.459	69.779	-109.310	-8191	255	
2384.099	1	1	0	0	0.12963	0.052602	0.19639	0.14203	0.19061	0.22783	0.2035	0.18791	0.23292	0.16991	0.15187	0.23264	0.073618	0.29277	0.085839	0.093162	-4.0458	-4.8688	-4.5062	-4.5896	-5.0083	-4.3208	-4.7104	-4.9729	-4.0583	-4.8833	-4.5854	-4.4333	-5.2	-4.3896	-4.4667	-5.0146	209.028	198.133	142.129	-130.865	-125.490	38.098	151.564	-61.002	44.118	-25.477	165.482	-123.426	179.982	139.667	-119.766	85.615	0.00030659	0.00019042	6.295e-05	1249.1	4.2274e-06	6.2042e-06	1253.9	337.46	3.5855e-06	6.6833e-06	387.45	131.26	113.03	39.732	7.5755e-07	49.993	0.00048922	0.0004885	0.00013505	1252.9	5.299e-06	5.3148e-06	1266.3	342.71	5.3326e-06	5.2986e-06	393.27	134.21	115.35	40.397	5.2584e-06	50.71	222.250	133.956	-53.723	-122.290	-21.675	-10.791	-122.126	-117.532	-47.480	-15.688	-118.056	-114.191	-113.342	-108.581	50.157	-109.043	-8191	255	
2384.195	1	1	0	0	0.10688	0.092547	0.1739	0.24008	0.14821	0.10287	0.23225	0.30608	0.071824	0.14343	0.11367	0.18372	0.15735	0.063942	0.17163	0.15219	-3.8021	-4.9896	-4.6417	-4.3167	-4.9854	-4.2771	-4.6854	-5.0396	-4.2125	-4.9229	-4.9542	-4.4146	-5.1021	-4.2833	-4.5062	-5.1542	-83.225	30.437	26.885	170.568	170.028	85.798	94.669	183.801	216.078	66.676	178.403	39.061	129.960	-96.902	-26.012	-120.196	0.00029646	0.00056222	0.00014163	1246.3	5.5404e-06	2.9187e-06	1252	338.85	2.3967e-06	4.546e-06	391.89	131.26	113.32	39.748	1.7995e-06	50.004	0.00048368	0.00049111	0.0001358	1253.5	5.3967e-06	5.4119e-06	1267	343.17	5.4014e-06	5.4151e-06	395.27	134.1	115.73	40.463	5.3811e-06	50.865	209.027	-51.812	-63.460	-122.210	20.850	48.677	-122.207	-117.504	15.829	-32.359	-117.938	-114.260	-113.505	-108.586	210.281	-109.140	-8191	255	
2384.292	1	1	0	0	0.14828	0.14858	0.13496	0.092108	0.11298	0.16488	0.10295	0.28698	0.26803	0.13215	0.11043	0.082474	0.082455	0.15745	0.091886	0.25927	-3.8521	-4.8104	-4.7875	-4.2625	-5.0458	-4.5687	-4.7438	-5.1625	-4.1292	-4.7458	-5.0146	-4.1312	-5.1875	-4.6083	-4.3417	-5.1604	-33.208	69.350	-16.358	145.281	218.085	63.753	-85.476	149.345	119.202	33.721	183.946	89.799	197.287	-41.118	206.536	168.208	0.00021768	0.0004018	0.00010241	1249.2	3.0974e-06	2.9931e-06	1254.7	335.66	1.9999e-06	5.6681e-06	390.59	131.36	112.95	39.609	3.3912e-06	50.168	0.00049059	0.00049571	0.00013728	1253.4	5.4057e-06	5.388e-06	1268.4	342.52	5.437e-06	5.3922e-06	394.62	134.56	115.52	40.404	5.4351e-06	50.913	203.891	-9.372	-60.115	-122.534	97.617	-6.979	-122.305	-117.567	-14.564	65.603	-117.944	-114.304	-113.320	-108.654	-85.200	-109.293	-8191	255	
2384.388	1	1	0	0	0.19137	0.12085	0.15562	0.18422	0.20303	0.11128	0.23349	0.11002	0.075656	0.069923	0.056026	0.19057	0.28704	0.058105	0.069169	0.30831	-3.95	-4.5583	-4.8667	-4.1875	-4.9042	-4.5813	-4.5479	-5.1562	-4.0458	-4.6979	-4.9354	-4.3354	-5.0938	-4.7521	-4.25	-5.1438	161.994	131.089	113.651	191.459	-64.505	167.428	209.050	199.995	65.313	185.217	158.847	-67.899	143.220	-9.590	-42.159	74.206	0.00032467	0.00034248	0.00014582	1246.9	3.0231e-06	2.5224e-06	1252.6	338.42	1.7175e-06	1.5844e-06	389.96	131.26	112.2	39.825	4.9553e-06	49.791	0.0004999	0.00049692	0.00013877	1254.5	5.4605e-06	5.3909e-06	1268.4	343.28	5.5382e-06	5.5e-06	395.42	134.4	115.52	40.473	5.5329e-06	50.904	216.290	-63.967	-119.416	-122.288	57.034	147.473	-122.326	-117.553	-17.877	-109.582	-117.860	-114.174	-113.469	-108.646	10.690	-108.929	-8191	255	
2384.507	1	1	0	0	0.18626	0.13539	0.13889	0.1974	0.06349	0.20848	0.036203	0.17381	0.053291	0.047587	0.29149	0.2825	0.10414	0.21129	0.14182	0.16433	-4.0104	-4.4812	-5.0125	-4.2708	-4.8896	-4.7708	-4.5021	-5.0563	-4.2937	-4.3521	-5.0208	-4.2312	-4.8604	-4.8812	-4.025	-5.0604	51.374	205.261	122.863	157.167	26.251	116.680	57.716	154.768	23.978	11.957	214.412	179.384	-112.877	-132.359	203.902	206.181	0.00025769	0.00030685	9.2455e-05	1240.7	6.5087e-06	6.2176e-06	1249.6	337.55	3.4181e-06	6.6768e-06	387.84	131.38	112.7	39.588	5.6206e-06	50.162	0.00050316	0.00050908	0.00014169	1255.7	5.5742e-06	5.6365e-06	1267.6	343.2	5.6784e-06	5.6576e-06	395.33	134.59	115.77	40.515	5.6578e-06	51.007	216.886	-118.353	-113.661	-122.352	-56.466	19.500	-122.345	-117.453	-66.770	40.027	-117.588	-114.042	-113.618	-108.538	6.989	-109.115	-8191	255	
2384.603	1	1	0	0	0.024245	0.044374	0.14762	0.14781	0.079321	0.077903	0.27866	0.22006	0.20127	0.1137	0.24096	0.11043	0.17988	0.20362	0.21742	0.24356	-4.225	-4.3875	-4.9375	-4.3167	-4.9146	-4.8125	-4.2875	-5.2438	-4.5375	-4.5146	-5.2083	-4.3375	-4.7458	-5.1375	-3.8875	-4.9313	101.087	101.961	-43.054	136.571	-20.404	20.917	166.032	-22.670	-36.088	-109.682	113.533	181.124	95.429	169.119	-55.586	-132.644	0.00024221	0.00070417	0.00011274	1240.6	6.6132e-06	5.0333e-06	1252.9	337.25	6.238e-07	3.3602e-06	388.18	131.1	112.86	39.566	5.8184e-06	49.902	0.0005149	0.00052002	0.00014408	1254.2	5.6621e-06	5.6449e-06	1268.9	342.98	5.6157e-06	5.702e-06	395.78	134.62	115.8	40.476	5.7194e-06	51.058	-130.341	-49.756	124.219	-122.253	-30.914	-61.424	-122.353	-117.446	-102.276	24.770	-118.110	-114.055	-113.225	-108.538	5.045	-108.935	-8191	255	
2384.674	1	1	0	0	0.13228	0.14045	0.12433	0.17575	0.16641	0.23773	0.20547	0.081795	0.15216	0.094317	0.12135	0.1327	0.015927	0.32077	0.16283	0.05871	-4.3562	-4.2063	-5.0354	-4.275	-4.4979	-4.9396	-4.2979	-5.1271	-4.6729	-4.2146	-5.1687	-4.4479	-4.7417	-4.975	-4.0312	-4.9667	-34.583	79.485	-111.490	177.939	-0.322	86.462	174.657	-61.300	-87.483	41.916	213.588	171.132	-135.452	-88.965	40.710	-29.974	0.00030433	0.00038883	7.0863e-05	1242.2	5.7094e-06	1.9651e-06	1258.6	338.19	1.7853e-06	2.7789e-06	391.75	131.19	113.04	39.56	4.9135e-06	49.9	0.00052274	0.00053045	0.00014737	1256.4	5.7947e-06	5.8301e-06	1269.9	344.04	5.9517e-06	6.0221e-06	398.23	135.02	116.16	40.686	6.0282e-06	51.246	216.409	-80.834	-14.363	-122.177	20.731	124.380	-122.166	-117.765	3.264	75.440	-117.661	-114.011	-113.522	-108.479	65.172	-109.201	-8191	255	
2384.771	1	1	0	0	0.21313	0.046624	0.050471	0.13645	0.15578	0.10456	0.16786	0.21966	0.1958	0.22563	0.24518	0.20824	0.1018	0.11062	0.012215	0.059457	-4.4396	-4.1104	-5.1917	-4.6417	-4.45	-5.0833	-4.4125	-4.85	-4.6188	-4.2167	-5.2042	-4.3771	-4.6479	-5.2104	-4.05	-4.7833	164.051	90.612	-80.285	101.593	121.422	-101.598	-110.799	128.729	21.788	-72.562	-86.471	148.734	-10.008	-107.285	209.783	-43.864	0.0003045	0.00027731	0.00017683	1245.9	5.0698e-06	1.9518e-06	1254.9	338.02	5.2288e-06	1.7891e-06	389.84	131.51	113.52	39.939	3.2522e-06	50.075	0.00055315	0.0005673	0.00015604	1262.7	6.2034e-06	6.2409e-06	1274.6	345.08	6.2839e-06	6.3278e-06	398.72	135.34	116.81	40.947	6.3328e-06	51.487	-128.301	-109.352	-117.011	-122.373	5.392	-27.911	-122.333	-117.609	-47.084	26.795	-118.095	-114.192	-113.346	-108.598	-94.473	-109.174	-8191	255	
2384.891	1	1	0	0	0.27314	0.19281	0.036822	0.15223	0.25802	0.1724	0.27743	0.097588	0.13777	0.08285	0.23223	0.18662	0.12048	0.11333	0.069013	0.20066	-4.5479	-4.0875	-5.0979	-4.7667	-4.3625	-4.9479	-4.4	-4.8021	-4.85	-4.2083	-4.8979	-4.6125	-4.3354	-5.0708	-4.3979	-4.75	-135.527	-122.486	189.550	142.037	-50.680	0.575	209.314	195.544	-93.161	37.791	193.391	202.789	-104.886	137.542	190.125	139.804	0.00022944	0.0010624	0.00015915	1252	3.605e-06	9.5341e-07	1257.5	338.68	3.5106e-06	2.4869e-06	391.67	131.48	113.48	39.764	4.0295e-06	49.852	0.00056744	0.00058542	0.00016148	1266.9	6.3846e-06	6.34e-06	1277.4	345.98	6.3931e-06	6.3772e-06	399.49	135.48	117.02	40.981	6.3483e-06	51.479	218.159	-59.616	-4.397	-122.492	-107.108	-15.210	-122.357	-117.594	18.927	-77.365	-117.907	-114.082	-113.283	-108.479	-19.510	-109.234	-8191	255	
2384.987	1	1	0	0	0.051032	0.20145	0.2664	0.15909	0.17159	0.15382	0.20216	0.12742	0.24734	0.18623	0.12797	0.29243	0.28167	0.18675	0.15865	0.1765	-4.7896	-4.0542	-5.0583	-4.8479	-4.3313	-5.0479	-4.2896	-4.6854	-5.0146	-4.3042	-5.1188	-4.8792	-4.1979	-5.0813	-4.3313	-4.6917	-80.499	-121.271	-88.099	9.607	-81.793	-24.966	96.002	106.673	-50.808	-68.299	84.761	223.498	-127.632	206.243	59.282	37.341	0.00027466	0.00034854	0.00014102	1253.8	3.0354e-06	6.4742e-06	1251.2	338.69	4.1006e-06	4.6521e-06	391.86	131.92	113.06	39.985	2.9948e-06	50.13	0.00057946	0.00058602	0.00016044	1268.8	6.41e-06	6.3933e-06	1278.1	345.87	6.4502e-06	6.476e-06	400.19	136	116.81	41.006	6.4211e-06	51.6	214.488	-86.500	-82.412	-122.378	-81.095	19.383	-122.396	-117.684	-12.611	-5.036	-118.180	-113.931	-113.700	-108.588	-64.978	-109.326	-8191	255	
2385.083	1	1	0	0	0.13507	0.31342	0.16397	0.16366	0.08952	0.19496	0.088883	0.035656	0.18154	0.24322	0.1731	0.11331	0.032692	0.19502	0.17631	0.22238	-4.7542	-4.2292	-4.8417	-4.9917	-4.1125	-4.9125	-4.7875	-4.6292	-5.1167	-4.1833	-4.8479	-4.8521	-4.3583	-5.225	-4.6	-4.5813	184.149	140.277	48.477	162.349	64.847	-107.989	81.377	163.337	90.698	215.857	-84.954	-78.822	-70.216	-95.481	205.849	224.574	0.00030807	0.00039022	0.00025442	1247.9	3.3625e-06	5.3376e-06	1258	338.22	2.5369e-06	2.1377e-06	391.43	132.15	112.97	39.747	3.0234e-06	50.102	0.00058664	0.00058492	0.00016232	1268.3	6.3537e-06	6.3615e-06	1280	345.96	6.3469e-06	6.3205e-06	399.44	135.74	116.82	40.902	6.3161e-06	51.469	219.668	-20.413	-38.145	-122.441	24.014	104.475	-122.301	-117.278	-40.752	-84.583	-118.067	-113.879	-113.301	-108.756	40.602	-109.263	-8191	255	
2385.204	1	1	0	0	0.089746	0.079686	0.16824	0.23767	0.11472	0.1033	0.26409	0.29144	0.075405	0.2146	0.18985	0.15099	0.2533	0.30347	0.13433	0.33217	-4.8292	-4.2063	-4.6875	-5.0437	-4.2	-4.9167	-4.6708	-4.5396	-5.1333	-4.2979	-4.8271	-5.1646	-4.3354	-5.0479	-4.725	-4.3854	201.425	-20.913	-116.850	211.702	74.202	-64.172	204.203	-47.578	-31.909	32.024	139.374	204.410	-107.895	189.356	-54.448	145.262	0.00033304	0.00064533	3.7344e-05	1251.3	4.7513e-06	1.4502e-05	1253.7	338.35	4.2983e-06	2.9362e-06	392.17	131.45	113.11	39.954	3.1007e-06	49.701	0.00057436	0.00058076	0.00016184	1271.4	6.349e-06	6.4e-06	1279.6	346.43	6.4187e-06	6.3578e-06	400.3	135.66	116.8	40.945	6.2705e-06	51.395	-128.941	7.368	-3.102	-122.090	-49.356	37.197	-122.193	-117.687	-116.113	74.890	-117.996	-113.992	-113.616	-108.700	19.072	-109.532	-8191	255	
2385.276	1	1	0	0	0.12789	0.17434	0.10029	0.2205	0.12241	0.012501	0.34025	0.20549	0.054534	0.1073	0.18795	0.063701	0.11405	0.17844	0.12868	0.06352	-4.8792	-4.2375	-4.4792	-5.0083	-4.1083	-4.8958	-4.8708	-4.2083	-4.9688	-4.2292	-4.7354	-5.1937	-4.2667	-4.9333	-4.7208	-4.1875	121.820	-77.855	64.124	-103.537	184.870	72.756	149.697	137.627	221.030	182.089	-121.229	-49.120	1.150	194.903	140.617	90.256	0.00027338	0.00029319	0.00011058	1251.8	5.6331e-06	7.3398e-06	1256.4	338.5	2.6542e-06	5.4774e-06	390.85	131.88	113.56	39.839	5.1597e-06	50.005	0.00057097	0.0005762	0.0001601	1267.7	6.2707e-06	6.2705e-06	1278.5	345.87	6.2765e-06	6.2709e-06	399.4	135.5	116.67	40.886	6.2895e-06	51.434	-133.411	-67.334	-124.248	-121.942	80.573	-23.716	-122.409	-117.741	-55.234	-39.888	-118.402	-114.010	-113.453	-108.365	-85.876	-109.444	-8191	255	
2385.372	1	1	0	0	0.046894	0.23781	0.11209	0.15165	0.07137	0.17776	0.20601	0.20645	0.074046	0.11904	0.22568	0.20095	0.080249	0.36957	0.2273	0.068928	-4.7479	-4.2792	-4.3125	-5.1438	-4.2354	-4.6729	-4.8271	-4.2833	-5.0104	-4.5312	-4.4479	-5.0542	-4.1729	-4.8229	-4.7562	-4.2875	7.182	-78.157	217.759	114.781	-53.678	-81.715	135.873	129.938	-100.491	-55.416	195.056	-54.367	122.904	215.133	182.572	-119.486	0.00032119	0.00021126	0.00010299	1254.6	2.052e-06	4.0126e-06	1260.9	338.19	3.1021e-06	6.6249e-06	390.74	131.53	113.35	39.768	4.5993e-06	49.88	0.00056793	0.0005764	0.00016084	1269.5	6.2307e-06	6.2818e-06	1279.5	345.73	6.27e-06	6.2467e-06	399.14	135.45	116.73	40.875	6.2475e-06	51.411	217.571	210.021	19.360	-122.275	-128.051	40.711	-122.176	-117.754	45.452	14.304	-117.965	-114.168	-113.353	-108.744	-37.068	-109.399	-8191	255	
2385.491	1	1	0	0	0.082771	0.040931	0.24696	0.21625	0.046617	0.18443	0.098726	0.22749	0.23939	0.19439	0.26607	0.13939	0.10003	0.077013	0.15866	0.037307	-4.6208	-4.5917	-4.3063	-5.3271	-4.1875	-4.6667	-5.0792	-4.2	-4.9375	-4.6604	-4.3646	-5.1229	-4.5167	-4.7292	-4.975	-4.2771	-31.466	77.415	81.639	194.192	-102.530	-76.449	101.934	153.857	53.705	32.078	167.324	146.933	10.457	-14.156	58.866	188.209	0.00035637	0.00029625	9.2856e-05	1247.8	1.4441e-06	5.1843e-06	1257.3	338.08	4.9082e-06	6.422e-06	391.56	131.53	112.65	39.657	1.4113e-05	50.011	0.00056888	0.00057484	0.00016161	1266	6.2474e-06	6.3005e-06	1279.7	345.45	6.3426e-06	6.3349e-06	400.43	135.73	116.61	40.893	6.2989e-06	51.451	223.137	199.181	27.953	-122.311	72.346	-1.281	-122.282	-117.837	48.910	-14.227	-118.223	-114.001	-113.444	-108.673	-60.444	-109.281	-8191	255	
2385.587	1	1	0	0	0.018343	0.10981	0.19238	0.089443	0.10563	0.16972	0.26443	0.0029187	0.24125	0.3484	0.33045	0.16995	0.12368	0.028969	0.33397	0.14223	-4.6083	-4.9458	-4.2354	-5.3542	-4.4646	-4.5208	-5.1813	-4.0292	-4.7396	-4.7312	-4.4708	-5.15	-4.5708	-4.4146	-5.025	-4.2875	23.991	-25.575	59.423	62.419	26.506	162.337	144.077	-134.222	-20.559	133.496	215.590	156.901	199.500	-33.800	-114.286	58.552	0.00025053	0.00061531	0.00021101	1253.9	3.9966e-06	9.0145e-06	1261.4	339.43	4.5755e-06	8.0661e-06	389.58	131.53	113.14	39.841	6.5792e-06	50.211	0.00057214	0.00058206	0.00016257	1269.4	6.3472e-06	6.3887e-06	1281.6	346.4	6.3785e-06	6.3796e-06	399.95	135.67	116.78	40.877	6.4213e-06	51.447	-134.219	-78.970	-44.536	-122.194	-14.040	-2.892	-122.177	-117.511	-49.477	1.907	-118.260	-114.189	-113.366	-108.858	-47.079	-109.508	-8191	255	
2385.683	1	1	0	0	0.093356	0.15526	0.22984	0.073378	0.10218	0.044191	0.13391	0.31135	0.12856	0.11759	0.12449	0.21669	0.092685	0.055729	0.15266	0.20611	-4.4042	-4.8333	-4.1375	-4.9875	-4.5458	-4.2542	-5.2292	-4.2562	-4.6042	-4.8167	-4.1667	-5.1271	-4.6542	-4.3354	-4.9625	-4.3688	7.530	-128.475	141.167	134.255	141.219	120.587	151.820	166.343	-28.476	-34.227	191.213	68.203	186.848	184.242	-104.991	146.868	0.00028653	0.0004503	0.00012784	1257.5	9.8668e-07	6.1834e-06	1258.9	339.85	1.6852e-06	6.7429e-06	391.4	131.37	112.83	39.733	1.8593e-06	49.94	0.00057233	0.00058007	0.00016278	1269.8	6.3636e-06	6.4251e-06	1280.1	346.14	6.3975e-06	6.356e-06	399.65	135.84	116.75	40.879	6.3035e-06	51.371	208.331	-67.269	202.815	-122.340	202.488	-16.854	-122.297	-117.599	-51.786	34.107	-117.893	-114.076	-113.350	-108.355	-110.513	-109.152	-8191	255	
2385.804	1	1	0	0	0.11053	0.075998	0.1492	0.19454	0.12316	0.11328	0.32817	0.050634	0.15894	0.089525	0.13451	0.14219	0.1243	0.119	0.10933	0.16657	-4.2833	-4.9646	-4.2	-5.0292	-4.4396	-4.1708	-5.2667	-4.3438	-4.4854	-5.0396	-4.2792	-4.9979	-4.7937	-4.3229	-5.125	-4.4896	-20.136	-97.281	164.724	-131.664	161.728	-33.259	177.887	143.191	-40.327	53.934	-83.710	130.069	-135.265	-63.127	206.144	206.884	0.00031549	0.00050654	0.00020585	1254	4.571e-06	2.1193e-06	1260.6	339.4	1.9088e-06	4.4475e-06	392.51	131.16	113.12	39.781	7.8729e-06	49.982	0.00057765	0.00058796	0.00016229	1270.6	6.413e-06	6.5127e-06	1281	346.3	6.472e-06	6.4242e-06	400.46	135.43	116.94	40.887	6.3447e-06	51.486	-134.808	-116.525	-42.418	-122.282	-95.091	-96.151	-122.400	-117.587	-17.398	-26.975	-118.122	-114.105	-113.579	-108.730	39.803	-109.168	-8191	255	
2385.900	1	1	0	0	0.20635	0.073123	0.057724	0.23529	0.049784	0.15896	0.19349	0.084263	0.043886	0.3235	0.14999	0.11629	0.30858	0.048493	0.024216	0.17228	-4.1896	-5.1062	-4.2167	-4.7854	-4.8063	-4.1125	-5.2688	-4.4542	-4.3812	-5.0979	-4.1937	-4.6875	-5.0792	-4.2667	-4.9729	-4.7667	-40.687	-1.723	74.028	223.409	140.726	-10.277	-104.102	190.131	-2.016	13.092	28.741	-127.028	143.279	-1.854	122.922	-98.678	0.00035442	0.00055482	0.00021156	1250.3	6.135e-06	5.3994e-06	1258	339.02	7.3599e-07	2.9254e-06	393.31	131.21	113.39	39.985	1.0111e-05	50.062	0.00058116	0.00058644	0.00016209	1268.7	6.3936e-06	6.3898e-06	1281	346.03	6.4134e-06	6.3819e-06	400.05	135.53	116.85	40.969	6.2921e-06	51.543	222.302	-39.854	-31.884	-122.625	-109.069	-121.378	-122.150	-117.647	112.000	39.390	-118.315	-114.040	-113.428	-108.983	-50.879	-108.907	-8191	255	
2385.972	1	1	0	0	0.1229	0.31608	0.14528	0.17098	0.080464	0.091341	0.1641	0.18359	0.072475	0.1753	0.095684	0.13286	0.14878	0.24432	0.092226	0.022461	-4.0104	-5.0312	-4.2646	-4.8292	-4.8167	-4.2312	-5.0354	-4.6396	-4.4292	-5.0896	-4.4333	-4.7438	-4.9917	-4.1833	-4.8646	-4.8229	86.359	209.579	87.628	-114.176	77.828	-58.357	153.350	-22.417	-20.021	-125.330	146.931	190.620	-86.598	179.382	67.924	140.315	0.00030847	0.00020861	0.0001144	1249.9	6.3056e-06	3.3526e-06	1258	339.57	5.5166e-06	7.2929e-06	390.97	131.72	113.53	39.786	6.8832e-06	50.388	0.00057496	0.0005843	0.00016059	1270.1	6.3284e-06	6.358e-06	1280.8	346.2	6.3075e-06	6.3002e-06	399.79	135.53	116.76	40.812	6.2412e-06	51.454	218.481	-60.197	26.534	-122.308	-105.033	128.172	-122.271	-117.691	-11.473	-22.707	-118.042	-114.324	-113.446	-108.793	150.387	-109.161	-8191	255	
2386.068	1	1	0	0	0.071757	0.20978	0.18472	0.023263	0.183	0.054518	0.24732	0.26768	0.2665	0.043244	0.41417	0.049052	0.18642	0.17868	0.21703	0.23674	-3.9021	-5.1667	-4.2646	-4.55	-5.0271	-4.1417	-5.0521	-4.9521	-4.1833	-4.9771	-4.5042	-4.5583	-5.0333	-4.2312	-4.7625	-5.0188	88.637	99.374	38.315	-6.626	119.643	74.006	125.452	191.495	-9.189	-77.839	198.261	-73.619	203.461	-129.392	-123.280	99.374	0.0002953	0.00027161	0.00010417	1249.8	4.6333e-06	8.7365e-06	1262	337.47	4.9736e-06	4.2125e-07	389.71	132.19	113.21	39.962	3.675e-06	50.381	0.00057069	0.00057581	0.00015951	1267.8	6.29e-06	6.2755e-06	1280.8	346.12	6.3142e-06	6.2575e-06	398.89	135.59	116.81	40.84	6.2414e-06	51.557	191.764	-36.127	214.800	-122.329	-18.577	-36.426	-122.261	-117.494	104.088	-0.000	-117.974	-114.086	-113.359	-108.505	-110.369	-109.279	-8191	255	
2386.188	1	1	0	0	0.059478	0.18491	0.055273	0.081731	0.097253	0.24754	0.13548	0.30972	0.14899	0.086448	0.14015	0.20888	0.17987	0.16885	0.067027	0.23569	-3.9083	-5.0813	-4.4688	-4.4146	-4.9146	-4.2771	-5.0813	-5.1479	-4.1958	-5.0646	-4.6146	-4.4208	-5.2854	-4.45	-4.5021	-5.15	157.187	26.033	-62.750	113.762	114.919	221.899	162.513	156.315	159.855	-82.815	-12.534	3.270	138.438	176.301	51.067	104.512	0.00026302	0.0010007	9.2612e-05	1259.1	2.83e-06	6.3577e-06	1260.9	338.94	2.695e-06	1.1896e-05	391.56	131.62	113.43	39.899	5.6836e-06	50.087	0.00056733	0.00057226	0.00015917	1272.7	6.2675e-06	6.2523e-06	1282.1	346.62	6.3371e-06	6.318e-06	400.62	135.92	116.83	40.817	6.3193e-06	51.39	221.888	-28.812	-76.711	-122.393	-110.380	26.536	-122.218	-117.509	-52.011	38.735	-117.778	-114.252	-113.395	-108.558	25.361	-109.028	-8191	255	
2386.283	1	1	0	0	0.16281	0.12564	0.1194	0.019408	0.01504	0.062724	0.14789	0.15051	0.030968	0.1591	0.079347	0.29733	0.16649	0.18699	0.14864	0.13931	-3.9771	-4.9333	-4.6542	-4.4646	-5.0563	-4.2625	-4.8187	-5.1021	-4.1958	-5.0083	-4.8271	-4.3792	-5.0938	-4.5417	-4.525	-4.9375	68.747	108.141	126.352	214.334	-127.815	-107.923	38.898	206.436	182.286	8.366	96.954	-113.766	179.394	56.566	-74.401	137.540	0.00031375	0.00018679	0.00029045	1248.7	6.0606e-06	1.5995e-06	1257.8	338.15	3.8875e-06	3.5793e-06	390.44	131.98	113.6	39.902	4.2223e-06	50.251	0.00057171	0.00057862	0.00016166	1269.1	6.3231e-06	6.3452e-06	1282.4	346.41	6.3658e-06	6.3402e-06	400.22	135.8	116.91	40.898	6.2957e-06	51.523	217.940	-25.418	-19.647	-122.199	-24.666	-65.732	-122.264	-117.710	-41.469	8.832	-117.943	-114.277	-113.257	-108.614	212.044	-109.230	-8191	255	
2386.379	1	1	0	0	0.1606	0.18387	0.31738	0.070938	0.18729	0.06761	0.16859	0.057553	0.070049	0.11383	0.22957	0.16607	0.043224	0.15205	0.18142	0.14394	-3.7708	-4.7396	-4.8083	-4.3917	-4.8521	-4.4625	-4.6792	-5.1854	-4.1458	-4.7438	-5.0417	-4.3063	-5.0083	-4.5625	-4.3042	-5.2604	-22.885	86.995	118.737	-75.102	-104.586	-39.029	-110.862	163.889	134.231	186.595	128.677	-127.688	20.595	200.384	-61.371	-85.781	0.00028049	0.00015922	0.00012418	1255.3	6.5999e-06	4.4193e-06	1265.4	339.21	1.9183e-06	2.9699e-06	391.31	131.39	113.35	39.724	1.8975e-06	49.751	0.00057284	0.00058192	0.00016251	1271.7	6.3733e-06	6.3986e-06	1283.7	347.05	6.3814e-06	6.4504e-06	400.48	135.69	116.92	40.844	6.3827e-06	51.451	220.758	89.079	-9.928	-122.536	21.534	-130.666	-122.424	-117.517	-68.715	-40.226	-117.598	-114.293	-113.333	-108.598	-103.433	-109.397	-8191	255	
2386.475	1	1	0	0	0.033967	0.18184	0.16407	0.29389	0.12232	0.086113	0.047926	0.089176	0.17129	0.066922	0.18492	0.18929	0.13268	0.18908	0.13143	0.21961	-4.0896	-4.7292	-4.8646	-4.3688	-5.1792	-4.5271	-4.5896	-5.3792	-4.3125	-4.6083	-5.0979	-4.2	-5.1813	-4.7417	-4.2958	-5.3646	-106.139	59.796	180.165	145.494	-91.358	-63.172	17.601	59.493	147.323	122.449	113.031	-111.750	-79.054	-118.825	-113.402	32.968	0.00022647	0.00066146	0.00015622	1253.9	3.7555e-06	2.1047e-06	1260	337.86	4.9528e-06	1.4332e-06	392.59	131.9	113.65	39.908	5.4332e-06	50.344	0.000576	0.00058591	0.00016136	1270.4	6.3499e-06	6.379e-06	1281.4	346.58	6.377e-06	6.4086e-06	401.15	135.69	117.05	40.92	6.4049e-06	51.617	217.371	-29.798	28.454	-122.252	42.749	-32.252	-122.375	-117.624	-4.893	185.476	-118.094	-114.073	-113.419	-108.718	-78.094	-109.356	-8191	255	
2386.571	1	1	0	0	0.15972	0.072318	0.081469	0.35868	0.26343	0.040542	0.20244	0.15098	0.14581	0.30964	0.089335	0.15695	0.22298	0.098293	0.11064	0.067781	-4.0875	-4.575	-5.1646	-4.3458	-5.1312	-4.8583	-4.5146	-5.2125	-4.3021	-4.5396	-5.1667	-4.2917	-5.0938	-4.7542	-4.2438	-5.1896	209.141	146.227	-25.949	178.212	201.986	171.602	93.029	183.233	94.676	120.687	172.551	133.885	-102.398	189.440	164.636	-82.491	0.00030491	0.00073847	0.00026168	1260.2	3.6518e-06	7.3014e-06	1266.6	340.3	4.4274e-06	6.5385e-06	393.38	132.02	113.84	39.916	4.6649e-06	50.18	0.00058068	0.0005958	0.00016431	1276.2	6.4392e-06	6.4882e-06	1286.4	347.07	6.4405e-06	6.5152e-06	401.38	135.95	117	41.015	6.4335e-06	51.628	220.311	207.930	0.462	-122.178	-66.388	17.998	-122.447	-117.826	19.416	0.452	-117.992	-114.268	-113.815	-108.391	38.753	-109.007	-8191	255	
2386.667	1	1	0	0	0.13594	0.16349	0.086069	0.25302	0.079175	0.22175	0.14017	0.33852	0.19738	0.22166	0.26072	0.20241	0.10164	0.148	0.11934	0.21283	-4.1396	-4.3938	-4.9812	-4.3458	-4.6771	-4.9646	-4.2896	-5.2792	-4.4167	-4.3729	-5.1604	-4.1687	-4.6458	-4.9437	-4.0687	-5.1396	-5.399	91.949	36.448	177.152	208.794	43.264	117.421	153.404	-42.559	112.647	209.431	159.013	180.980	170.591	89.398	120.644	0.0002356	0.00095099	0.00029106	1252.5	2.5206e-06	1.0112e-06	1265.3	338.85	3.0208e-06	1.0367e-05	393.56	132.16	113.6	40.089	4.2777e-06	50.512	0.00057774	0.00059443	0.00016406	1271.9	6.4313e-06	6.4793e-06	1285	347.03	6.4834e-06	6.5106e-06	401.28	136.14	117.33	41.045	6.3806e-06	51.749	-130.398	6.670	-32.983	-122.144	184.992	-94.243	-122.307	-117.814	-16.743	48.612	-117.933	-113.829	-113.576	-108.789	-79.642	-109.301	-8191	255	
2386.763	1	1	0	0	0.073945	0.084837	0.11324	0.31126	0.091944	0.20778	0.22641	0.25503	0.10986	0.24394	0.017664	0.20887	0.1337	0.056213	0.19688	0.22381	-4.1896	-4.3854	-5.0687	-4.575	-4.7208	-5.1104	-4.35	-5.0208	-4.6125	-4.3104	-5.15	-4.2854	-4.5396	-5.0521	-4.0604	-5.225	-3.596	44.570	-82.894	73.794	-116.117	205.165	187.772	201.004	93.467	5.671	-87.890	117.234	219.399	194.517	-130.122	151.858	0.00027799	0.00059084	0.00020171	1256.1	1.536e-06	8.2089e-06	1268.2	340.11	3.0699e-06	4.3645e-06	391.11	132.39	113.02	39.787	8.3118e-06	50.016	0.00058572	0.00059104	0.00016309	1276.1	6.5035e-06	6.5174e-06	1287	347.43	6.5068e-06	6.5393e-06	401.4	136.3	117.25	41.011	6.5299e-06	51.668	-130.631	-40.955	-25.200	-122.448	-74.385	46.637	-122.241	-117.656	24.788	26.262	-117.787	-113.887	-113.277	-108.761	-61.049	-108.946	-8191	255	
2386.884	1	1	0	0	0.034499	0.13815	0.18314	0.13253	0.12536	0.17879	0.25814	0.10079	0.18189	0.14397	0.2234	0.17184	0.1496	0.10461	0.16706	0.052017	-4.3167	-4.3313	-5.0938	-4.5479	-4.4667	-5.0167	-4.4542	-4.9292	-4.7833	-4.2937	-5.3125	-4.5813	-4.575	-5.2042	-3.9854	-4.8292	76.212	165.806	-32.153	-65.324	156.422	102.753	218.002	69.350	183.363	-60.743	187.168	-27.504	23.054	-133.635	-73.129	162.302	0.0003115	0.00039745	0.00015844	1260.6	6.0046e-06	1.3724e-06	1266.9	339.21	1.7125e-07	1.7476e-06	391.81	132.2	113.88	39.843	6.4725e-06	50.042	0.00059054	0.00059766	0.0001643	1279.3	6.4926e-06	6.5149e-06	1287.2	347.8	6.5272e-06	6.4904e-06	401.27	136.27	117.46	41.073	6.4604e-06	51.741	207.175	222.083	-118.520	-122.436	-20.998	114.899	-122.182	-117.621	131.913	-112.755	-118.002	-113.951	-113.463	-108.757	-23.090	-109.137	-8191	255	
2386.980	1	1	0	0	0.10287	0.071323	0.019963	0.15472	0.13377	0.35233	0.051413	0.21294	0.12368	0.1086	0.063278	0.19946	0.11532	0.21435	0.15458	0.11605	-4.5854	-4.2542	-5.1896	-4.6062	-4.4146	-5.0563	-4.4021	-4.8313	-4.8958	-4.2083	-5.0979	-4.5917	-4.2917	-5.2542	-4.0854	-4.7	152.993	-38.605	61.668	216.545	-64.339	-41.672	105.057	-119.636	47.544	130.684	135.762	-60.911	22.640	213.560	56.594	7.918	0.0002791	0.00059645	4.557e-05	1254.9	2.3247e-06	2.6832e-06	1262.2	340.11	4.9547e-06	5.8595e-06	394.19	131.99	113.8	40.013	7.9304e-06	50.265	0.00059649	0.00059875	0.00016611	1277.8	6.5626e-06	6.5068e-06	1288.3	348.54	6.4962e-06	6.495e-06	401.78	136.55	117.49	41.095	6.4536e-06	51.797	210.000	-23.697	-98.494	-122.352	-44.541	74.886	-122.259	-117.570	-83.238	-9.614	-117.955	-114.042	-113.625	-108.592	9.212	-109.478	-8191	255	
2387.076	1	1	0	0	0.28577	0.13198	0.1542	0.097518	0.071726	0.16513	0.053416	0.20588	0.34795	0.18645	0.17475	0.14762	0.17744	0.033299	0.048904	0.036059	-4.6375	-4.1438	-5.0354	-4.7042	-4.1896	-4.9354	-4.3583	-4.7833	-4.9437	-4.05	-4.8812	-4.7438	-4.2854	-5.2646	-4.4104	-4.5708	139.175	108.241	94.374	168.996	126.048	-55.100	13.985	216.470	64.452	-39.371	-98.822	-63.540	158.028	174.506	34.050	-69.638	0.00032313	0.0004829	0.00023219	1255.1	5.3867e-06	2.8988e-06	1269.7	341.38	3.8693e-06	3.8801e-06	393.54	132.19	113.51	40.026	1.1755e-06	50.1	0.0005853	0.00059077	0.00016399	1277.2	6.493e-06	6.3796e-06	1288.4	348.12	6.4444e-06	6.3999e-06	401.78	136.28	117.31	40.963	6.2786e-06	51.602	218.031	2.955	-78.499	-122.278	30.700	11.825	-122.228	-117.636	34.524	-57.129	-118.113	-113.862	-113.209	-108.357	-95.573	-109.479	-8191	255	
2387.173	1	1	0	0	0.088909	0.17667	0.12486	0.0045337	0.13322	0.25784	0.25541	0.24582	0.07601	0.020516	0.26261	0.087574	0.31775	0.26994	0.10867	0.23856	-4.7479	-4.0479	-4.7521	-4.9333	-4.2063	-5.1167	-4.55	-4.5062	-4.9479	-4.1083	-4.8604	-4.9625	-4.2125	-5.0646	-4.4979	-4.3625	52.487	169.289	62.795	183.939	29.194	-66.811	173.001	74.146	77.191	183.892	186.884	197.071	-35.448	223.443	78.266	-72.096	0.00035737	0.00033612	0.00012048	1256.9	9.4186e-06	6.5192e-06	1264.6	340.37	1.0876e-06	4.4966e-06	391.73	132.15	113.78	39.865	2.7211e-06	50.091	0.00056849	0.00057153	0.00015918	1274.8	6.2948e-06	6.2089e-06	1286.2	347.47	6.1838e-06	6.2255e-06	400.4	136.08	116.93	40.967	6.2922e-06	51.663	212.663	-102.839	-46.011	-122.537	22.232	-40.000	-122.356	-117.621	26.555	17.379	-117.949	-114.130	-113.493	-108.526	-28.233	-109.371	-8191	255	
2387.269	1	1	0	0	0.23133	0.22042	0.20369	0.26739	0.20954	0.19876	0.19237	0.23188	0.16904	0.13463	0.10196	0.22028	0.095599	0.15907	0.23211	0.18051	-4.7375	-4.2042	-4.5333	-5.0396	-4.0667	-5.0208	-4.8125	-4.3833	-4.8562	-4.2667	-4.7312	-5.0917	-4.3042	-5.1312	-4.6396	-4.5104	-61.126	-114.704	201.131	-108.918	27.689	197.456	165.179	196.077	176.210	-115.522	-129.787	188.822	-102.516	-86.534	89.489	167.548	0.00022673	0.00076317	0.00024634	1258.1	4.8152e-06	8.7141e-07	1265.4	340.7	2.2885e-06	9.5328e-07	392.73	131.92	113.85	39.885	2.5348e-06	50.224	0.00057031	0.00058338	0.00016089	1274.5	6.2593e-06	6.313e-06	1286.6	347.44	6.2879e-06	6.289e-06	401.44	136.18	117.15	41.004	6.2475e-06	51.614	216.548	182.560	-101.225	-122.431	-35.839	-51.401	-122.438	-117.881	-46.544	-22.439	-118.028	-113.987	-113.420	-108.781	-2.699	-109.301	-8191	255	
2387.365	1	1	0	0	0.0954	0.05141	0.12211	0.17845	0.094655	0.12756	0.18493	0.1638	0.11803	0.21423	0.049414	0.18559	0.081805	0.23716	0.1283	0.21019	-4.9375	-4.2229	-4.5771	-5.0917	-3.9562	-4.8875	-4.8604	-4.2937	-5.0083	-4.275	-4.6854	-5.1083	-4.2417	-4.9833	-4.7688	-4.2792	199.374	96.161	-111.315	180.397	-112.825	181.062	143.530	114.002	-35.868	97.443	66.950	124.524	110.337	-20.764	-5.550	100.418	0.00031107	0.00049147	0.000147	1256.7	2.4203e-06	6.1775e-06	1264.9	340.17	1.7871e-06	9.4483e-06	393.96	131.95	113.63	39.832	2.3949e-06	50.507	0.0005689	0.0005776	0.00016227	1277.3	6.3401e-06	6.4122e-06	1288.2	347.98	6.4106e-06	6.4373e-06	402.05	136.34	117.51	41.022	6.4058e-06	51.756	217.787	41.822	-42.346	-122.187	-117.646	-54.812	-122.452	-117.573	3.973	-27.439	-117.945	-114.103	-113.413	-108.774	9.958	-109.271	-8191	255	
2387.484	1	1	0	0	0.2725	0.094614	0.13516	0.2441	0.079973	0.11572	0.24739	0.11704	0.096726	0.047126	0.32055	0.10804	0.16779	0.089742	0.14913	0.16619	-4.8167	-4.4729	-4.2646	-5.3167	-4.3021	-4.8	-5.0354	-4.2542	-5.0375	-4.3812	-4.4729	-5.2729	-4.1687	-4.6917	-4.95	-4.2875	-49.322	201.582	-106.033	221.023	216.268	-127.772	80.456	-125.988	-107.951	-48.596	-61.585	221.128	190.319	-80.442	155.344	152.051	0.00029188	0.0004015	7.2567e-05	1257.3	3.8255e-07	6.3131e-06	1266.3	341.31	2.119e-06	6.8438e-06	394.88	131.94	114.83	39.839	4.6624e-06	49.991	0.00058173	0.00059139	0.00016423	1277.2	6.4163e-06	6.4586e-06	1289.5	348.08	6.4827e-06	6.4837e-06	401.96	136.55	117.77	40.989	6.5347e-06	51.768	207.530	-33.771	-89.198	-122.577	-130.545	37.699	-122.151	-117.774	98.848	1.745	-118.152	-114.153	-113.351	-108.674	-100.126	-109.065	-8191	255	
2387.580	1	1	0	0	0.13531	0.12268	0.14039	0.15265	0.058818	0.15222	0.25853	0.27361	0.095761	0.16875	0.1232	0.079409	0.11056	0.068594	0.036857	0.26546	-4.6917	-4.4646	-4.2771	-5.2292	-4.2063	-4.6396	-5.0792	-4.4083	-4.8938	-4.6896	-4.2438	-5.1458	-4.5	-4.65	-4.9146	-4.2292	96.817	189.382	46.358	209.640	181.173	10.479	200.112	149.151	-8.735	42.532	186.854	-49.444	-123.475	201.347	103.034	169.160	0.00023561	0.00037109	7.5328e-05	1260.1	4.6379e-06	7.3296e-06	1273.5	339.13	3.9789e-06	7.5526e-06	394.2	132.18	113.24	39.961	5.7854e-06	50.235	0.00059161	0.00059908	0.00016614	1280.6	6.5478e-06	6.594e-06	1292.3	348.4	6.6318e-06	6.6139e-06	401.65	136.58	117.62	41.144	6.5398e-06	51.779	-131.952	-62.920	219.853	-122.389	-46.981	37.758	-122.163	-117.432	71.785	19.384	-118.044	-114.117	-113.540	-108.688	8.527	-109.354	-8191	255	
2387.676	1	1	0	0	0.21652	0.045927	0.14955	0.12014	0.089284	0.074083	0.16081	0.30285	0.24246	0.20017	0.18606	0.23585	0.092679	0.27457	0.039541	0.33049	-4.7667	-4.6708	-4.2438	-5.2146	-4.3583	-4.575	-5.2521	-4.2354	-4.7042	-4.8333	-4.3333	-5.3021	-4.6042	-4.4583	-5.0125	-4.3646	216.262	-73.457	19.030	211.576	-23.891	32.616	197.233	166.927	22.385	47.502	219.147	148.423	-126.614	-111.733	115.663	126.602	0.00025403	0.00062888	0.00018003	1262.2	2.6263e-06	1.0318e-05	1272.8	340	3.8093e-06	7.7278e-06	394.6	132.26	113.85	40.062	7.3344e-06	50.014	0.00059111	0.00060117	0.00016647	1281	6.492e-06	6.5659e-06	1292.2	348.39	6.5542e-06	6.5146e-06	401.93	136.53	117.63	41.108	6.455e-06	51.807	213.913	-107.462	-53.890	-122.326	160.764	-40.582	-122.243	-117.376	-63.779	-17.758	-118.025	-114.039	-113.581	-108.665	6.128	-109.650	-8191	255	
2387.772	1	1	0	0	0.18425	0.082918	0.014061	0.10055	0.070014	0.28496	0.024257	0.1334	0.046957	0.22717	0.14665	0.096158	0.086813	0.2533	0.14896	0.1079	-4.6021	-4.7417	-4.2875	-5.1687	-4.575	-4.3146	-5.1958	-4.3917	-4.5979	-4.85	-4.3146	-5.2375	-4.6354	-4.3	-5.0521	-4.4125	25.194	150.916	199.501	158.912	103.324	144.330	209.687	-127.798	94.818	6.586	138.213	21.645	177.191	137.714	48.702	96.985	0.00032714	0.00074458	0.00021202	1267.7	3.2534e-06	3.5265e-06	1273.7	339.76	3.322e-06	3.1704e-06	394.18	132.49	113.8	39.849	2.731e-06	50.287	0.00058931	0.00059614	0.00016467	1282.6	6.4966e-06	6.4624e-06	1290.7	347.91	6.517e-06	6.4182e-06	402.16	136.55	117.49	41.054	6.4054e-06	51.716	-132.802	-106.138	-25.732	-122.283	-55.925	75.118	-122.343	-117.505	-40.724	-125.617	-118.045	-113.935	-113.594	-108.611	10.901	-109.318	-8191	255	
2387.868	1	1	0	0	0.14642	0.076152	0.072137	0.10194	0.17084	0.22945	0.17128	0.10797	0.11739	0.26938	0.133	0.197	0.27202	0.208	0.13604	0.11146	-4.2833	-4.9271	-4.1937	-5.1583	-4.5979	-4.1708	-5.1896	-4.4896	-4.6542	-5.1354	-4.3146	-4.9917	-4.775	-4.2125	-5.0417	-4.4854	-101.932	171.194	107.621	172.639	175.529	-27.743	-86.562	109.662	169.436	-111.379	203.130	194.200	196.503	-119.730	106.470	85.980	0.00034374	0.00051473	0.00012685	1261.6	6.1027e-06	2.4852e-06	1272.7	340.47	4.7364e-06	3.0164e-06	392.12	131.62	114.25	40.071	7.1201e-06	50.282	0.00058736	0.00059279	0.00016527	1282.8	6.4762e-06	6.4753e-06	1292.7	348.23	6.4804e-06	6.4523e-06	401.44	136.4	117.66	41.095	6.4029e-06	51.766	214.882	-42.909	-81.916	-122.255	113.164	119.574	-122.322	-117.648	-67.860	-21.335	-118.075	-114.253	-113.416	-109.010	-7.166	-109.174	-8191	255	
#DATA ENDS
