BOXY.EXE: ISS Imagent and Oximeter Data Acquisition Program Version 0.80
Ascii Record File

#ACQ INFORMATION
2  Detector Channels 
16  External MUX Channels 
1  Auxiliary Channels 
5000  Waveform (CCF) Frequency (Hz)
1  Waveforms Skipped 
30  Waveforms Averaged 
1  Cycles Averaged 
16  Acquisitions per Waveform 
10.0806  Updata Rate (Hz) 

#FILE INFORMATION
TRUE -- External MUX Channel results are PARSED.
FALSE -- AC DC and Phase are NOT grouped.
TRUE -- Companion Program Settings File CREATED.
FALSE -- AC data not excluded
FALSE -- DC data not excluded
FALSE -- Phase data not excluded
FALSE -- Auxillary Chn. data not excluded
Tab delimiters

#CALIBRATION STATE
TRUE -- Waveform Calibration Values APPLIED.


#AUX CALIBRATION VALUES
Val Type	aux-1	

Term	1.0000e+00	
Factor	0.0000e+00	


#WF CALIBRATION VALUES
A = Detector Channel
Val Type	A-AC1	A-AC2	A-AC3	A-AC4	A-AC5	A-AC6	A-AC7	A-AC8	A-AC9	A-AC10	A-AC11	A-AC12	A-AC13	A-AC14	A-AC15	A-AC16	A-DC1	A-DC2	A-DC3	A-DC4	A-DC5	A-DC6	A-DC7	A-DC8	A-DC9	A-DC10	A-DC11	A-DC12	A-DC13	A-DC14	A-DC15	A-DC16	A-Ph1	A-Ph2	A-Ph3	A-Ph4	A-Ph5	A-Ph6	A-Ph7	A-Ph8	A-Ph9	A-Ph10	A-Ph11	A-Ph12	A-Ph13	A-Ph14	A-Ph15	A-Ph16	

Term	0.00000e+00	0.00000e+00	0.00000e+00	0.00000e+00	0.00000e+00	0.00000e+00	0.00000e+00	0.00000e+00	0.00000e+00	0.00000e+00	0.00000e+00	0.00000e+00	0.00000e+00	0.00000e+00	0.00000e+00	0.00000e+00	0.00000e+00	0.00000e+00	0.00000e+00	0.00000e+00	0.00000e+00	0.00000e+00	0.00000e+00	0.00000e+00	0.00000e+00	0.00000e+00	0.00000e+00	0.00000e+00	0.00000e+00	0.00000e+00	0.00000e+00	0.00000e+00	0.00000e+00	0.00000e+00	0.00000e+00	0.00000e+00	0.00000e+00	0.00000e+00	0.00000e+00	0.00000e+00	0.00000e+00	0.00000e+00	0.00000e+00	0.00000e+00	0.00000e+00	0.00000e+00	0.00000e+00	0.00000e+00	
Factor	1.00000e+00	1.00000e+00	1.00000e+00	1.00000e+00	1.00000e+00	1.00000e+00	1.00000e+00	1.00000e+00	1.00000e+00	1.00000e+00	1.00000e+00	1.00000e+00	1.00000e+00	1.00000e+00	1.00000e+00	1.00000e+00	1.00000e+00	1.00000e+00	1.00000e+00	1.00000e+00	1.00000e+00	1.00000e+00	1.00000e+00	1.00000e+00	1.00000e+00	1.00000e+00	1.00000e+00	1.00000e+00	1.00000e+00	1.00000e+00	1.00000e+00	1.00000e+00	X	X	X	X	X	X	X	X	X	X	X	X	X	X	X	X	

B = Detector Channel
Val Type	B-AC1	B-AC2	B-AC3	B-AC4	B-AC5	B-AC6	B-AC7	B-AC8	B-AC9	B-AC10	B-AC11	B-AC12	B-AC13	B-AC14	B-AC15	B-AC16	B-DC1	B-DC2	B-DC3	B-DC4	B-DC5	B-DC6	B-DC7	B-DC8	B-DC9	B-DC10	B-DC11	B-DC12	B-DC13	B-DC14	B-DC15	B-DC16	B-Ph1	B-Ph2	B-Ph3	B-Ph4	B-Ph5	B-Ph6	B-Ph7	B-Ph8	B-Ph9	B-Ph10	B-Ph11	B-Ph12	B-Ph13	B-Ph14	B-Ph15	B-Ph16	

Term	0.00000e+00	0.00000e+00	0.00000e+00	0.00000e+00	0.00000e+00	0.00000e+00	0.00000e+00	0.00000e+00	0.00000e+00	0.00000e+00	0.00000e+00	0.00000e+00	0.00000e+00	0.00000e+00	0.00000e+00	0.00000e+00	0.00000e+00	0.00000e+00	0.00000e+00	0.00000e+00	0.00000e+00	0.00000e+00	0.00000e+00	0.00000e+00	0.00000e+00	0.00000e+00	0.00000e+00	0.00000e+00	0.00000e+00	0.00000e+00	0.00000e+00	0.00000e+00	-1.12345e+02	-1.37161e+02	-1.31167e+02	-1.83169e+02	-9.45150e+01	-7.80345e+01	-1.55719e+02	-1.62015e+02	-6.55484e+01	-8.29813e+01	-1.70692e+02	-1.70536e+02	-1.79718e+02	-1.76304e+02	-8.62091e+01	-1.48491e+02	
Factor	1.50476e-05	1.06357e-04	3.06640e-05	2.10223e-01	9.59748e-07	1.05913e-06	1.63091e-01	5.79667e-02	7.58040e-07	1.09422e-06	8.94289e-02	2.80098e-02	2.56570e-02	8.80702e-03	1.17703e-06	1.27492e-02	9.29018e-07	9.65646e-07	2.68023e-07	9.69350e-02	1.05161e-08	1.05549e-08	7.14807e-02	2.69272e-02	1.05502e-08	1.05421e-08	3.97110e-02	1.25644e-02	1.19377e-02	4.07084e-03	1.04911e-08	5.65814e-03	X	X	X	X	X	X	X	X	X	X	X	X	X	X	X	X	



#DISTANCE SETTINGS
A = Detector Channel
A-1	A-2	A-3	A-4	A-5	A-6	A-7	A-8	A-9	A-10	A-11	A-12	A-13	A-14	A-15	A-16	

2.5000e+00	3.0000e+00	2.5000e+00	3.0000e+00	2.0000e+00	3.0000e+00	1.5000e+00	3.0000e+00	3.0000e+00	3.0000e+00	3.0000e+00	3.0000e+00	3.0000e+00	3.0000e+00	1.5000e+00	3.0000e+00	

B = Detector Channel
B-1	B-2	B-3	B-4	B-5	B-6	B-7	B-8	B-9	B-10	B-11	B-12	B-13	B-14	B-15	B-16	

1.0000e+01	1.0000e+01	1.0000e+01	1.4400e+00	1.0000e+01	1.0000e+01	1.5100e+00	1.9400e+00	1.0000e+01	1.0000e+01	1.9900e+00	2.4900e+00	2.4100e+00	2.9000e+00	1.0000e+01	2.9800e+00	




#DATA BEGINS
time	group	step	mark	flag	A-AC1	A-AC2	A-AC3	A-AC4	A-AC5	A-AC6	A-AC7	A-AC8	A-AC9	A-AC10	A-AC11	A-AC12	A-AC13	A-AC14	A-AC15	A-AC16	A-DC1	A-DC2	A-DC3	A-DC4	A-DC5	A-DC6	A-DC7	A-DC8	A-DC9	A-DC10	A-DC11	A-DC12	A-DC13	A-DC14	A-DC15	A-DC16	A-Ph1	A-Ph2	A-Ph3	A-Ph4	A-Ph5	A-Ph6	A-Ph7	A-Ph8	A-Ph9	A-Ph10	A-Ph11	A-Ph12	A-Ph13	A-Ph14	A-Ph15	A-Ph16	B-AC1	B-AC2	B-AC3	B-AC4	B-AC5	B-AC6	B-AC7	B-AC8	B-AC9	B-AC10	B-AC11	B-AC12	B-AC13	B-AC14	B-AC15	B-AC16	B-DC1	B-DC2	B-DC3	B-DC4	B-DC5	B-DC6	B-DC7	B-DC8	B-DC9	B-DC10	B-DC11	B-DC12	B-DC13	B-DC14	B-DC15	B-DC16	B-Ph1	B-Ph2	B-Ph3	B-Ph4	B-Ph5	B-Ph6	B-Ph7	B-Ph8	B-Ph9	B-Ph10	B-Ph11	B-Ph12	B-Ph13	B-Ph14	B-Ph15	B-Ph16	aux-1	digaux	

2332.266	1	1	0	256	0.31184	0.088567	0.1049	0.121	0.069652	0.1149	0.13038	0.13679	0.233	0.11804	0.055393	0.26496	0.058145	0.15078	0.04543	0.036536	-3.8125	-5.0333	-4.1188	-4.7208	-5.0208	-4.0854	-5.0021	-4.5792	-4.1667	-5.0792	-4.3229	-4.4708	-5.0813	-4.1021	-4.6438	-4.6875	349.811	443.765	409.307	386.636	336.500	232.940	342.109	334.880	110.397	170.405	458.713	153.700	337.422	419.036	388.503	181.798	0.00020743	0.00034642	6.6252e-05	1017.1	1.6263e-07	4.0781e-06	1113.8	209.46	3.0485e-06	3.0413e-06	267.45	74.432	58.543	17.059	2.6657e-06	24.139	0.00018337	0.00017733	5.0232e-05	983.72	2.0134e-06	2.0318e-06	1082.6	205.87	2.1328e-06	2.0719e-06	259.81	73.931	57.889	17.232	2.0162e-06	24.071	188.379	219.677	255.949	113.748	183.817	185.854	114.160	121.898	256.675	197.426	121.727	128.507	128.455	135.739	199.113	134.951	-8191	255	
2332.337	1	1	0	0	0.18559	0.14606	0.13933	0.16269	0.1596	0.074386	0.039054	0.026912	0.2004	0.16194	0.065674	0.10973	0.051164	0.23168	0.029736	0.13036	-3.8438	-4.8313	-4.4812	-4.5396	-4.8187	-4.1833	-4.8125	-4.8208	-4.2083	-4.9271	-4.5854	-4.1854	-4.9292	-4.1792	-4.6312	-4.8313	142.893	155.904	436.471	143.820	439.923	143.148	354.710	426.859	159.421	255.010	256.994	292.842	202.239	419.247	371.026	408.517	0.0002461	0.00015582	5.8564e-05	1024.3	2.2266e-06	3.6494e-06	1116	211.58	3.0235e-06	4.7892e-06	267.39	74.841	58.624	17.04	1.501e-06	24.095	0.00018364	0.00017648	4.744e-05	986.15	1.8657e-06	1.8578e-06	1082.5	205.97	1.8661e-06	1.813e-06	258.95	73.654	57.592	17.099	1.8273e-06	23.968	189.532	172.778	210.403	113.805	299.756	230.837	114.150	121.730	281.076	254.692	121.465	127.583	128.809	135.410	151.851	135.161	-8191	255	
2332.458	1	1	0	0	0.21341	0.04378	0.091977	0.14913	0.28828	0.20993	0.21672	0.094334	0.12805	0.10499	0.1378	0.11598	0.063202	0.12428	0.17974	0.16697	-3.7917	-4.9417	-4.4021	-4.2771	-4.9896	-4.2562	-4.6146	-4.9062	-3.9208	-4.8458	-4.5771	-4.2875	-5.2417	-4.3229	-4.2729	-5.0896	200.872	461.523	424.183	127.682	388.387	179.107	394.518	372.687	168.267	270.475	460.999	444.232	232.733	425.427	178.953	164.530	0.00020285	0.00035982	9.0336e-05	1020.1	4.0395e-06	3.0222e-06	1107.4	210.45	5.1377e-06	2.3061e-06	264.97	74.246	58.3	17.24	2.082e-07	24.05	0.00016984	0.00016301	4.4575e-05	983.4	1.7528e-06	1.7288e-06	1079	205.19	1.706e-06	1.6643e-06	258.37	73.373	57.53	17.097	1.6608e-06	23.9	202.631	137.655	146.178	113.944	263.633	254.363	114.244	121.633	280.201	253.464	121.650	127.985	128.803	135.696	338.703	134.899	-8191	255	
2332.554	1	1	0	0	0.1526	0.051858	0.15758	0.056229	0.068413	0.27531	0.1564	0.24956	0.13876	0.12747	0.13286	0.20119	0.10017	0.12643	0.063847	0.19115	-3.8438	-4.8688	-4.4729	-4.2542	-4.8417	-4.2458	-4.5708	-5.0396	-4.0938	-4.7542	-4.8833	-4.1521	-5.0083	-4.4854	-4.3271	-5.2	126.870	363.006	363.309	330.368	459.431	125.557	436.256	389.719	338.657	379.944	458.598	448.592	425.302	390.917	284.202	143.312	0.00022498	0.00039535	8.0777e-05	1019.9	3.3859e-06	3.036e-06	1113.6	210.61	4.055e-06	3.0275e-06	265.77	74.921	58.823	17.156	7.4313e-06	24.047	0.00015627	0.000154	4.2019e-05	982.49	1.6948e-06	1.6934e-06	1082.4	205.08	1.6933e-06	1.7159e-06	257.71	73.722	57.794	17.306	2.2681e-06	24.355	194.636	259.192	147.564	113.911	220.014	301.417	114.038	121.601	251.227	270.986	121.313	127.890	128.506	136.165	201.816	135.200	-8191	255	
2332.650	1	1	0	0	0.084108	0.056139	0.082377	0.18212	0.048104	0.071463	0.26543	0.07339	0.050973	0.2947	0.10353	0.17659	0.0896	0.26626	0.11607	0.14755	-3.8167	-4.5021	-4.8688	-4.0146	-4.8354	-4.3875	-4.4729	-4.9771	-3.9333	-4.8	-5.1167	-3.9688	-4.8479	-4.5479	-4.25	-5.0333	409.500	316.817	236.610	402.422	383.459	295.028	393.945	453.411	206.347	161.116	259.536	397.144	351.851	124.666	227.148	147.679	0.00024556	0.00021443	7.3788e-05	1017.2	1.8263e-06	1.6051e-06	1112.1	210.61	2.7309e-07	1.3914e-06	265.89	74.405	58.099	17.161	1.2444e-06	24.227	0.00023788	0.00024628	6.8157e-05	990.95	2.6461e-06	2.5993e-06	1086	207.36	2.4832e-06	2.468e-06	260.29	74.174	58.154	17.38	2.0757e-06	24.228	199.711	167.152	450.558	113.893	174.680	449.300	114.203	122.246	458.492	283.464	121.685	128.126	128.475	135.516	199.697	135.396	-8191	255	
2332.746	1	1	0	0	0.17625	0.25687	0.31283	0.28905	0.09899	0.11999	0.16146	0.073568	0.19857	0.26828	0.079194	0.11622	0.11456	0.29121	0.25553	0.23803	-3.9021	-4.5437	-4.8208	-4.3229	-4.9229	-4.6479	-4.3812	-4.9958	-4.3104	-4.3917	-4.9417	-4.2312	-4.8	-4.6292	-4.1417	-5.0167	406.612	235.342	183.388	151.146	296.388	399.855	389.993	446.294	232.672	125.384	342.540	134.626	320.538	375.321	401.034	384.570	0.00027672	0.00050754	2.1031e-05	1018.2	1.9968e-06	1.5445e-06	1109.9	209.41	2.3267e-06	9.8835e-07	264.92	74.375	58.525	17.226	2.9866e-06	24.395	0.00017645	0.00016909	4.4649e-05	980.46	1.7078e-06	1.6036e-06	1077.9	203.99	1.491e-06	1.4536e-06	256.1	73.283	57.232	17.106	1.536e-06	24.036	197.859	178.701	221.163	113.999	127.583	315.466	114.066	121.691	258.981	149.458	121.290	127.947	128.351	135.843	228.360	134.843	-8191	255	
2332.865	1	1	0	0	0.19574	0.087848	0.13132	0.0079295	0.36154	0.16457	0.13439	0.050703	0.2069	0.19686	0.21938	0.11527	0.13404	0.083914	0.11797	0.023284	-4.0687	-4.3562	-4.9542	-4.15	-4.6104	-4.8187	-4.3583	-5.125	-4.3333	-4.4354	-4.9667	-4.1646	-4.8042	-4.7625	-4.0333	-5.1396	136.595	204.283	460.572	319.265	228.659	197.461	354.470	321.139	143.579	364.810	111.809	135.938	326.785	149.572	118.373	232.207	0.00025074	0.00036111	8.677e-05	1014.1	1.9034e-06	2.0529e-06	1105.5	207.85	3.2687e-06	1.3027e-06	263.07	74.326	58.4	17.205	5.2065e-06	24.348	0.00014198	0.00013599	3.6938e-05	973.01	1.4462e-06	1.4492e-06	1070.7	202.87	1.4036e-06	1.4269e-06	254.49	72.83	56.931	17.027	1.4016e-06	23.933	199.120	215.963	168.081	113.840	243.359	300.006	113.926	121.880	251.912	114.963	121.564	128.249	129.010	135.845	244.927	135.287	-8191	255	
2332.937	1	1	0	0	0.23438	0.09472	0.10933	0.14227	0.13299	0.049756	0.3167	0.25245	0.063609	0.063554	0.052665	0.16698	0.50051	0.15893	0.18111	0.062631	-4.0917	-4.2417	-4.9542	-4.2521	-4.6062	-4.7917	-4.3688	-4.9708	-4.5104	-4.2542	-5.0417	-4.1104	-4.6729	-4.9917	-4.1062	-4.9708	435.385	316.649	134.547	363.831	374.198	185.102	448.785	314.469	132.803	212.216	455.967	114.930	463.136	441.019	360.507	169.630	0.00024573	0.00038272	5.4246e-05	1000.4	4.051e-06	3.0501e-06	1095.2	208.71	1.0394e-06	1.7562e-06	262.44	74.461	58.144	17.104	1.7144e-06	24.207	0.00013155	0.00012767	3.4059e-05	965.04	1.3535e-06	1.3417e-06	1063	202.3	1.2811e-06	1.2616e-06	253.41	72.477	56.441	16.91	1.2115e-06	23.765	191.541	189.997	461.484	113.792	199.892	194.877	114.110	122.077	257.829	266.641	121.426	128.261	128.405	135.604	193.483	135.609	-8191	255	
2333.033	1	1	0	0	0.21165	0.12407	0.17964	0.088412	0.13813	0.2068	0.24371	0.13917	0.099941	0.14931	0.17884	0.20882	0.21967	0.11799	0.14583	0.16992	-4.2792	-4.0437	-5.1542	-4.4604	-4.5208	-4.9375	-4.3229	-5.0542	-4.6937	-4.0437	-4.8938	-4.4313	-4.4375	-5.1042	-4.0417	-5.0208	406.726	239.691	315.357	289.629	381.089	131.180	445.456	313.005	129.281	281.983	131.200	451.554	393.647	253.914	285.193	155.941	0.00024059	0.00032695	9.5652e-05	996.97	1.6694e-06	3.5681e-06	1090.8	207.86	2.0285e-06	2.1813e-06	262.5	73.395	57.856	17.01	2.3644e-06	24.082	0.00011851	0.00011225	3.0937e-05	957.57	1.223e-06	1.1626e-06	1054.2	200.55	1.0859e-06	1.0439e-06	252.16	71.657	55.849	16.709	8.9065e-07	23.526	197.708	217.235	168.310	113.824	241.922	268.544	114.398	122.007	273.902	258.433	121.808	128.629	128.384	135.716	243.025	135.593	-8191	255	
2333.129	1	1	0	0	0.1145	0.050583	0.077496	0.28268	0.26202	0.11901	0.13742	0.2548	0.26366	0.15509	0.24311	0.14683	0.13534	0.19789	0.04272	0.074699	-4.6375	-4.075	-5.1188	-4.5292	-4.3521	-4.8938	-4.4521	-4.8688	-4.775	-4.3708	-5.0104	-4.6292	-4.3708	-5.0125	-4.1375	-4.7458	247.290	184.377	456.440	108.359	202.733	286.271	440.468	109.573	160.261	294.332	413.406	167.661	370.453	458.662	445.873	126.798	0.00027003	9.1841e-05	5.9575e-05	992.39	3.9037e-06	8.381e-07	1084	207.15	1.2771e-06	7.482e-07	261.7	73.255	57.729	17.052	4.2722e-06	24.026	8.8892e-05	8.1094e-05	2.2222e-05	951.21	9.1621e-07	8.7988e-07	1050	199.81	9.0233e-07	9.0199e-07	250.97	71.3	55.43	16.59	8.8108e-07	23.391	201.191	259.530	170.325	114.006	237.584	139.302	114.302	121.605	264.829	282.424	121.484	128.186	128.672	136.020	245.444	135.032	-8191	255	
2333.250	1	1	0	0	0.088478	0.021384	0.13799	0.23511	0.057063	0.14605	0.065625	0.20642	0.1253	0.23503	0.12027	0.19676	0.32893	0.34677	0.21865	0.27065	-4.5687	-4.2125	-4.9292	-4.8	-4.2854	-4.9521	-4.3375	-4.5458	-4.7583	-4.1604	-5.0833	-4.5979	-4.2812	-5.0958	-4.2229	-4.4771	419.651	414.386	451.498	415.097	436.476	430.420	150.225	216.052	161.425	424.253	440.886	395.379	457.697	212.919	285.331	280.353	0.0002352	0.00028661	0.00013221	985.5	3.6392e-06	1.6778e-06	1076.5	205.31	2.4922e-06	7.2978e-07	259.94	73.237	57.239	16.85	3.9971e-07	23.946	8.7606e-05	8.2108e-05	2.2374e-05	945.67	9.0822e-07	8.659e-07	1044	198.72	8.6954e-07	8.2521e-07	249.92	71.248	55.263	16.546	8.4849e-07	23.26	190.109	191.643	191.014	114.389	231.218	284.823	114.461	121.599	284.195	456.131	121.571	128.222	128.866	136.033	268.574	135.436	-8191	255	
2333.346	1	1	0	0	0.2554	0.28352	0.1115	0.2149	0.19138	0.11856	0.12952	0.15716	0.18048	0.16551	0.17125	0.14855	0.066525	0.073566	0.19206	0.21184	-4.6062	-4.1813	-4.8688	-4.8625	-3.9021	-4.9583	-4.5542	-4.4812	-4.9729	-4.2125	-5.05	-5.0542	-4.0479	-4.9417	-4.4146	-4.4854	309.312	215.756	149.272	432.765	305.402	434.867	415.615	348.144	408.225	459.396	157.555	175.324	176.897	175.693	287.498	392.938	0.00021895	0.00028373	5.88e-05	983.85	1.6609e-06	1.8526e-06	1080.4	203.73	1.926e-06	2.9479e-06	259.18	73.265	57.25	17.034	4.2127e-06	23.882	8.3294e-05	7.8726e-05	2.1664e-05	940.56	8.6756e-07	8.1957e-07	1041	197.35	8.6244e-07	8.5714e-07	249.33	71.047	55.28	16.578	8.6617e-07	23.287	189.091	141.879	172.305	114.402	233.583	226.334	114.501	121.929	276.480	268.699	121.706	128.028	128.731	136.150	209.044	135.416	-8191	255	
2333.442	1	1	0	0	0.25022	0.16876	0.2622	0.14516	0.16529	0.11508	0.17907	0.028769	0.13643	0.20518	0.16047	0.11648	0.079862	0.076064	0.040301	0.051395	-4.7375	-4.2521	-4.5083	-4.9771	-4.1979	-4.9187	-4.6292	-4.2812	-5.025	-4.3333	-4.6438	-4.8958	-4.2646	-4.9417	-4.5771	-4.2188	449.594	429.385	339.847	412.425	433.476	216.963	393.271	138.060	396.947	293.756	453.088	245.130	387.443	134.485	108.221	186.056	0.00024446	0.00026828	8.2502e-05	984.52	4.3964e-07	1.3213e-06	1075.3	204.13	3.1947e-06	3.3513e-06	260.35	73.704	57.492	16.972	5.1229e-06	23.873	8.6658e-05	7.9247e-05	2.2661e-05	944.3	9.3175e-07	9.2821e-07	1041.7	197.84	9.904e-07	9.9594e-07	250.28	71.419	55.436	16.639	1.0324e-06	23.408	191.027	202.044	136.342	114.256	279.767	333.974	114.218	121.837	257.414	212.797	121.406	128.283	128.868	135.823	282.526	135.116	-8191	255	
2333.538	1	1	0	0	0.14241	0.12726	0.17467	0.20618	0.086404	0.09158	0.1029	0.024262	0.029935	0.041778	0.30173	0.11347	0.09538	0.18395	0.14233	0.075522	-4.6833	-4.3458	-4.5833	-5.0417	-4.2333	-4.8562	-4.6479	-4.1771	-4.8792	-4.3771	-4.5646	-5.1792	-4.2417	-4.8146	-4.6625	-4.1687	224.452	170.402	322.667	235.904	217.922	118.750	445.605	173.595	346.927	119.871	423.749	271.779	411.859	375.694	207.419	319.352	0.00020174	0.0003513	2.5701e-05	992.97	3.2178e-06	1.5975e-06	1082.2	205.84	2.0897e-06	3.1025e-06	260.8	73.169	57.172	16.678	1.7027e-06	23.961	0.00010148	9.8761e-05	2.7553e-05	951.65	1.0626e-06	1.0394e-06	1047.8	199.81	1.0376e-06	9.9917e-07	250.7	71.191	55.43	16.589	9.6726e-07	23.32	186.643	239.087	106.728	114.423	234.644	199.096	114.354	121.452	269.650	214.873	121.364	128.130	128.642	136.545	279.971	135.283	-8191	255	
2333.634	1	1	0	0	0.2413	0.17569	0.11044	0.11438	0.13691	0.23661	0.049584	0.090676	0.24519	0.22483	0.1463	0.16096	0.13738	0.067344	0.15394	0.068739	-4.9854	-4.2708	-4.3083	-5.1417	-4.1104	-4.8	-4.9458	-4.1958	-4.9208	-4.4208	-4.325	-5.2875	-4.3042	-4.6729	-4.8313	-4.25	251.305	457.961	441.929	234.132	441.719	192.818	378.740	273.542	123.175	218.744	112.620	124.104	243.755	420.051	259.415	151.981	0.00022772	0.00031011	2.2262e-05	991.36	1.4495e-06	1.7025e-06	1082.6	206.38	2.5724e-06	1.8062e-06	261.43	73.345	57.363	16.853	4.401e-06	23.678	9.6947e-05	9.3473e-05	2.6729e-05	948.94	1.0863e-06	1.0617e-06	1050.6	199.82	1.1109e-06	1.1085e-06	251.51	71.477	55.721	16.65	1.1192e-06	23.284	195.761	113.952	237.828	114.247	444.779	206.179	114.467	121.786	245.126	209.281	121.486	128.627	128.942	136.252	294.168	135.074	-8191	255	
2333.731	1	1	0	0	0.37431	0.26084	0.10165	0.022704	0.15106	0.052349	0.17604	0.064466	0.33014	0.13497	0.19137	0.10455	0.019039	0.10538	0.19408	0.1447	-4.7688	-4.6188	-4.2021	-5.1958	-4.2229	-4.7458	-5.1562	-4.2188	-4.9104	-4.6521	-4.3604	-5.1188	-4.3729	-4.675	-4.8375	-4.0417	222.441	238.655	178.566	162.746	444.029	187.229	462.636	225.236	310.232	132.815	455.663	434.827	179.582	211.467	137.281	371.288	0.00024155	0.00031505	0.00012566	989.84	2.383e-06	2.375e-06	1091.9	206.5	1.3768e-06	2.5245e-06	260.37	73.425	57.317	16.95	2.5656e-06	23.732	0.00010935	0.00010148	2.8523e-05	952.89	1.1198e-06	1.0976e-06	1054.5	199.64	1.0469e-06	9.9513e-07	250.96	71.499	55.677	16.578	9.7828e-07	23.219	195.915	268.579	181.662	113.978	369.743	443.222	114.413	121.741	273.599	255.309	121.576	127.954	128.733	135.810	271.430	134.743	-8191	255	
2333.851	1	1	0	0	0.15488	0.083745	0.26222	0.061043	0.1921	0.19777	0.099396	0.16532	0.16782	0.054612	0.35754	0.094801	0.059874	0.083447	0.10774	0.15609	-4.5854	-4.5437	-4.1687	-5.3167	-4.1312	-4.3646	-5.2917	-4.2312	-4.8396	-4.7667	-4.3438	-5.1438	-4.5375	-4.4958	-5.0854	-4.2312	368.313	319.552	293.583	305.328	214.525	256.416	181.732	162.651	374.940	235.868	372.054	403.253	240.805	123.075	220.384	453.868	0.00023449	0.00016942	9.037e-05	998.62	4.0718e-06	3.3171e-06	1082.8	205.79	1.7882e-06	2.9679e-06	261.38	73.487	57.615	16.85	2.0591e-06	23.776	9.7288e-05	8.9362e-05	2.6175e-05	952.78	1.0383e-06	1.046e-06	1048.1	199.5	1.0674e-06	1.0286e-06	251.02	71.466	55.682	16.578	1.0553e-06	23.191	199.518	188.710	300.221	114.124	190.565	220.886	114.337	121.711	266.141	297.093	121.425	128.260	128.905	135.501	241.498	135.284	-8191	255	
2333.946	1	1	0	0	0.24442	0.19906	0.14386	0.28751	0.16923	0.23489	0.039746	0.11135	0.28488	0.12251	0.20961	0.046088	0.059487	0.10609	0.13629	0.091037	-4.5104	-4.6542	-4.05	-5.1917	-4.4271	-4.3896	-5.2229	-4.3229	-4.7271	-4.8854	-4.1833	-4.9375	-4.5792	-4.3375	-4.8792	-4.3	442.248	412.490	346.218	446.023	200.057	321.085	226.059	231.576	453.891	202.333	379.004	463.310	207.141	286.400	425.946	236.428	0.0002369	0.0001583	1.6128e-05	993.81	1.5216e-06	2.027e-06	1084.9	205.04	3.0756e-06	1.5552e-06	260.21	73.522	57.413	16.839	1.9823e-06	23.528	0.00010655	9.617e-05	2.7843e-05	953.49	1.1217e-06	1.1132e-06	1052.2	199.4	1.1461e-06	1.1035e-06	251.08	71.47	55.664	16.576	1.0889e-06	23.162	194.339	204.949	178.068	114.040	439.219	259.300	114.259	122.134	282.362	220.017	121.462	128.320	128.721	136.071	330.993	135.067	-8191	255	
2334.042	1	1	0	0	0.12694	0.06018	0.28398	0.17772	0.073605	0.086499	0.14271	0.095316	0.22315	0.31469	0.027822	0.13936	0.1533	0.035537	0.12207	0.087483	-4.2229	-4.8521	-4.0958	-5.0583	-4.6771	-4.1833	-5.2958	-4.5938	-4.4688	-4.8604	-4.2646	-4.8208	-4.7458	-4.1479	-5.05	-4.3771	449.423	285.169	238.653	402.579	393.854	394.680	393.530	416.139	431.783	409.974	417.973	138.229	289.339	273.127	424.988	219.137	0.0002283	5.7153e-05	0.00013442	999.24	4.2892e-06	1.4095e-06	1085.1	205.85	2.9617e-06	2.4502e-06	260.85	73.416	57.184	16.981	3.2368e-06	23.744	0.00010712	9.9711e-05	2.7147e-05	955.83	1.1252e-06	1.154e-06	1053	199.61	1.1722e-06	1.1077e-06	251.2	71.535	55.68	16.625	1.0986e-06	23.199	192.174	170.501	175.767	114.362	234.412	247.196	114.537	122.144	221.826	366.075	121.629	128.163	129.157	135.850	238.058	134.771	-8191	255	
2334.138	1	1	0	0	0.043615	0.051852	0.20145	0.10295	0.16001	0.12172	0.31912	0.13086	0.15491	0.078244	0.22154	0.1593	0.1057	0.044786	0.21832	0.20855	-4.2146	-4.9458	-4.1104	-4.8625	-4.7333	-4.2229	-5.3229	-4.2396	-4.3104	-5.0021	-4.0771	-4.8167	-4.8063	-4.1333	-5.0687	-4.3938	397.256	139.562	114.696	439.245	179.761	120.063	354.987	129.339	128.599	147.613	164.041	112.448	438.968	217.118	338.423	257.114	0.00023944	0.00035791	3.2961e-05	992.22	2.0687e-07	2.5033e-06	1094	207.48	2.5273e-06	1.098e-06	262.69	73.1	57.145	16.72	2.877e-06	23.696	0.00011037	0.00010006	2.7895e-05	953.04	1.0705e-06	1.0983e-06	1053.5	199.85	1.1043e-06	1.0588e-06	251.74	71.392	55.718	16.549	1.0593e-06	23.169	201.561	183.072	212.094	113.921	161.799	343.281	114.258	122.018	220.336	139.916	121.379	127.814	128.624	135.413	252.730	135.513	-8191	255	
2334.234	1	1	0	0	0.17187	0.20551	0.041817	0.21963	0.067701	0.27396	0.093943	0.19158	0.14678	0.11891	0.12132	0.06264	0.33129	0.15107	0.17378	0.11485	-4.0375	-5.0042	-4.1667	-4.7188	-4.8479	-4.2354	-5.1354	-4.5854	-4.2271	-5.0292	-4.3333	-4.6208	-5.0271	-4.0583	-4.875	-4.6	158.154	404.258	174.653	394.348	122.027	205.116	404.477	390.937	145.261	135.565	437.239	265.955	135.494	449.565	175.349	452.467	0.00025364	0.00014282	7.8854e-05	997.39	2.7019e-06	1.9537e-06	1089.5	205.7	1.8635e-06	1.787e-06	259.32	73.023	57.793	16.9	3.7067e-06	23.765	0.00010548	9.414e-05	2.6626e-05	953.98	1.0649e-06	1.064e-06	1051.7	199.69	1.085e-06	1.0476e-06	250.67	71.472	55.793	16.598	1.0584e-06	23.187	199.313	162.836	208.134	113.959	170.410	187.459	114.374	121.692	239.777	271.907	121.565	128.494	128.802	135.926	189.358	134.907	-8191	255	
2334.330	1	1	0	0	0.085582	0.28885	0.24752	0.19508	0.030592	0.21428	0.10812	0.28304	0.2623	0.15187	0.14892	0.053477	0.11227	0.18216	0.11652	0.23828	-3.9875	-5.025	-4.225	-4.5396	-4.8333	-4.1271	-5.0979	-4.8104	-4.2271	-5.0604	-4.5125	-4.5062	-4.9792	-4.0917	-4.7646	-4.8021	283.253	237.898	408.913	289.919	374.867	196.364	359.468	373.436	280.183	223.953	238.904	204.260	162.811	117.407	140.242	308.313	0.00025132	0.00041953	9.3108e-05	989.88	3.5451e-06	3.3151e-06	1086.9	207.37	1.9483e-06	1.0726e-06	261.93	73.457	57.239	16.763	1.6901e-06	23.536	0.00010509	9.7572e-05	2.6859e-05	952.29	1.0574e-06	1.0656e-06	1053.5	200.25	1.0779e-06	1.0192e-06	251.18	71.473	55.653	16.553	1.04e-06	23.077	196.010	209.614	180.008	114.141	194.866	262.353	114.486	122.105	232.903	210.729	121.331	128.082	128.882	136.101	183.945	135.849	-8191	255	
2334.426	1	1	0	0	0.23455	0.10175	0.15516	0.17214	0.16691	0.11673	0.1537	0.14408	0.17418	0.065367	0.11033	0.23983	0.21229	0.1203	0.25405	0.25435	-3.7333	-5.0896	-4.3021	-4.5563	-4.9187	-4.0917	-4.8	-4.8625	-4.1521	-5.0062	-4.5667	-4.2937	-5.0896	-4.0896	-4.5646	-4.8292	278.128	301.445	121.507	286.101	209.487	230.299	457.146	278.839	336.669	386.931	442.050	415.845	350.179	453.013	291.255	429.161	0.00023542	0.00013427	5.7895e-05	995.24	1.2626e-06	2.3492e-06	1086.8	205.87	2.7526e-06	2.2088e-06	259.69	72.787	57.172	16.674	2.8029e-06	23.575	0.00010106	9.1958e-05	2.5596e-05	951.51	1.0247e-06	1.0111e-06	1049.9	199.39	1.041e-06	9.7956e-07	249.88	71.202	55.445	16.465	9.6376e-07	22.978	195.727	115.526	130.302	114.077	308.264	251.467	114.166	121.791	260.792	237.454	121.694	128.082	128.617	136.319	223.857	135.305	-8191	255	
2334.547	1	1	0	0	0.15804	0.17571	0.16664	0.26648	0.15059	0.26837	0.12578	0.23339	0.066158	0.23764	0.14734	0.21114	0.13032	0.28839	0.12049	0.18678	-3.7396	-5.0083	-4.5354	-4.3354	-5.0333	-4.1583	-4.6333	-4.9667	-4.2354	-5.0062	-4.8125	-4.2188	-5.0271	-4.2125	-4.5833	-4.9688	296.787	235.209	135.191	380.793	346.856	356.839	335.463	341.399	248.257	441.989	196.546	316.336	407.069	187.199	273.915	462.230	0.00025327	0.00029818	2.8179e-05	990.99	4.7693e-06	2.5005e-06	1082.4	205.04	2.6513e-06	3.72e-06	259.69	72.822	57.162	16.593	2.2345e-06	23.581	9.4392e-05	8.5069e-05	2.3586e-05	946.45	9.7053e-07	9.4066e-07	1043.5	198.71	9.8381e-07	9.6941e-07	249.4	70.921	55.315	16.337	1.0143e-06	23.008	192.956	177.774	131.494	114.445	203.849	284.889	114.131	121.988	237.895	218.632	121.615	128.229	128.537	136.215	305.839	135.485	-8191	255	
2334.643	1	1	0	0	0.30977	0.10588	0.090212	0.17587	0.055222	0.23839	0.023408	0.1553	0.11253	0.13047	0.24329	0.081581	0.12989	0.10136	0.21068	0.17587	-3.8292	-4.7937	-4.6687	-4.2417	-5.0583	-4.2375	-4.5542	-5.0708	-4.0979	-4.9187	-4.8229	-4.1521	-5.0104	-4.3979	-4.2438	-5.0208	416.503	174.337	144.409	450.314	260.711	151.514	429.428	418.240	225.516	268.548	460.361	113.991	402.631	193.962	389.340	131.027	0.00024302	0.00025837	6.4183e-05	981.38	2.5341e-06	3.5506e-06	1079.2	205.83	2.7572e-06	5.3816e-06	258.85	72.523	56.617	16.466	1.7634e-06	23.348	9.8611e-05	9.2784e-05	2.5422e-05	942.87	9.8821e-07	9.9423e-07	1043.1	198.37	9.6574e-07	9.7128e-07	248.85	70.623	55.183	16.285	9.4742e-07	22.819	188.945	159.796	165.766	114.583	203.554	242.266	114.277	122.243	247.211	175.430	121.333	128.246	128.798	136.252	305.371	135.304	-8191	255	
2334.737	1	1	0	0	0.016627	0.19092	0.056486	0.17399	0.079052	0.35206	0.25174	0.15168	0.2492	0.1906	0.11013	0.15627	0.10269	0.16636	0.13581	0.11101	-3.7667	-4.5708	-4.8146	-4.2312	-5.0458	-4.3771	-4.4167	-5.2396	-4.3042	-4.5771	-4.9896	-4.0292	-5.0604	-4.6312	-4.2417	-5.1729	212.224	430.349	330.787	154.751	127.884	341.329	370.879	112.098	199.053	318.419	459.156	386.840	304.038	417.032	216.541	246.938	0.00021355	0.00031581	5.8049e-05	989.55	2.1859e-06	2.5874e-06	1068.8	204.77	1.3173e-06	1.3612e-06	259.79	72.611	56.433	16.566	2.6433e-06	23.294	9.1288e-05	8.5761e-05	2.3262e-05	938.4	9.4183e-07	9.2069e-07	1036.7	197.59	9.3917e-07	9.2323e-07	248.18	70.429	54.916	16.157	9.1255e-07	22.74	195.423	222.923	133.068	114.526	183.878	245.225	114.297	122.384	327.870	115.874	121.855	128.233	128.511	136.132	270.482	135.218	-8191	255	
2334.811	1	1	0	0	0.17058	0.12201	0.04857	0.085941	0.11121	0.28028	0.26029	0.10976	0.071683	0.18926	0.12381	0.15593	0.10528	0.20078	0.061875	0.1674	-4.0208	-4.5813	-4.7771	-4.2979	-4.9	-4.6479	-4.4229	-5.0417	-4.1729	-4.4917	-5.0667	-4.0458	-4.9521	-4.7	-3.8563	-4.9938	448.413	234.684	307.600	207.247	350.152	139.885	410.981	357.185	365.140	270.587	384.210	358.928	301.825	424.678	267.529	415.292	0.00019384	0.00025722	0.00010349	977.94	1.9047e-06	1.6759e-06	1069.3	203.77	1.967e-06	4.1217e-06	256.36	72.427	57.107	16.4	4.4783e-06	23.337	8.895e-05	8.3695e-05	2.29e-05	935.2	9.6595e-07	9.2289e-07	1034.2	196.89	9.6203e-07	9.7332e-07	247.42	70.45	55.04	16.149	1.009e-06	22.856	185.773	196.922	228.476	114.090	202.143	255.408	114.288	122.229	251.369	214.506	121.696	128.408	128.803	135.549	188.462	135.357	-8191	255	
2334.932	1	1	0	0	0.074088	0.14244	0.08387	0.1179	0.021724	0.20267	0.17146	0.12354	0.1893	0.043063	0.084599	0.21198	0.2251	0.29269	0.071415	0.21456	-4.0563	-4.3604	-4.8354	-4.1354	-4.7125	-4.7271	-4.3812	-5.0917	-4.3729	-4.3521	-5.0875	-4.2479	-4.6396	-5	-4.1792	-5.0208	387.749	394.612	414.489	447.279	157.442	338.712	447.523	126.957	182.950	449.321	286.887	401.493	447.610	391.951	147.290	213.804	0.00025845	0.00025209	8.048e-05	977.89	3.8355e-06	2.193e-06	1071	203.81	2.3319e-06	2.1894e-06	257.65	72.551	56.718	16.541	3.6774e-06	23.356	9.8236e-05	9.2817e-05	2.4829e-05	937.37	1.0469e-06	9.9253e-07	1036.9	197.68	1.0279e-06	9.8865e-07	247.58	70.568	55.147	16.253	1.0195e-06	22.815	195.752	163.674	171.105	114.130	233.318	260.323	114.206	121.640	198.521	325.580	121.455	128.212	128.617	135.777	225.161	135.257	-8191	255	
2335.026	1	1	0	0	0.17971	0.25074	0.11152	0.23495	0.18884	0.22516	0.062311	0.06959	0.029562	0.16245	0.054756	0.22419	0.10958	0.098097	0.12237	0.13019	-4	-4.3042	-5.0188	-4.2854	-4.8063	-4.9542	-4.3667	-4.8792	-4.6208	-4.4229	-5.2125	-4.2917	-4.5563	-4.8792	-4.0604	-4.9583	192.828	278.864	287.358	136.464	193.885	196.949	281.453	392.186	361.545	168.068	125.611	404.472	358.529	222.114	185.224	314.004	0.00024384	0.00044053	1.6729e-05	976.73	3.918e-06	7.2203e-07	1072.6	204.35	2.2709e-06	7.2477e-07	258.95	72.65	56.607	16.471	7.1332e-07	23.495	0.00010093	9.5871e-05	2.6253e-05	938.16	1.0579e-06	1.0194e-06	1037.4	197.65	1.0178e-06	1.0159e-06	248.18	70.743	54.969	16.21	1.0472e-06	22.844	186.559	135.332	370.762	114.052	192.220	328.640	114.494	122.127	284.299	213.709	121.869	128.059	128.486	136.323	113.775	135.047	-8191	255	
2335.122	1	1	0	0	0.093878	0.08574	0.065957	0.29431	0.12133	0.13152	0.15167	0.17798	0.34333	0.047762	0.19696	0.25191	0.25633	0.18547	0.073322	0.040139	-4.25	-4.1354	-4.9375	-4.4313	-4.4896	-4.9583	-4.2271	-4.9	-4.5938	-4.1021	-5.1	-4.4083	-4.3229	-4.9458	-4.2333	-4.7125	207.663	251.702	420.467	400.518	208.808	166.227	114.144	404.054	115.911	314.492	413.636	142.116	340.358	427.750	268.140	232.942	0.00021268	0.0004341	0.00010902	979.43	4.2485e-06	2.6228e-06	1069.5	203.73	2.291e-06	1.9884e-06	259.76	72.854	56.932	16.309	1.5836e-06	23.357	9.728e-05	9.4647e-05	2.5124e-05	938.05	1.0272e-06	1.0038e-06	1037.1	197.78	1.0286e-06	1.0494e-06	248.5	70.554	55.174	16.188	1.099e-06	22.955	192.103	250.951	214.929	114.258	238.752	263.027	114.213	121.911	235.073	255.900	121.318	128.612	128.333	135.819	244.299	135.110	-8191	255	
2335.218	1	1	0	0	0.18875	0.12034	0.19845	0.17992	0.26316	0.16846	0.13225	0.098507	0.20041	0.043193	0.18785	0.2432	0.29042	0.18039	0.27972	0.20056	-4.5083	-4.1875	-5.0458	-4.4875	-4.3063	-5.1708	-4.4542	-4.6854	-4.7375	-4.2896	-5.0229	-4.7208	-4.5542	-5.1271	-4.2125	-4.7917	365.393	430.111	284.240	382.747	381.963	313.465	444.761	104.188	378.757	455.301	354.939	214.595	386.511	346.756	324.218	121.469	0.00022914	0.00014257	0.00013084	985.51	7.4006e-07	2.5243e-06	1068	204.86	2.7206e-06	2.1656e-06	259	72.656	56.892	16.422	3.3308e-06	23.386	0.00010053	9.8005e-05	2.65e-05	942.33	1.0886e-06	1.0528e-06	1038.8	197.84	1.0788e-06	1.0883e-06	249.11	70.492	55.219	16.233	1.0926e-06	22.933	191.130	199.202	212.267	114.637	245.111	212.370	114.139	122.109	271.063	194.575	121.562	128.269	128.861	135.903	205.131	135.179	-8191	255	
2335.339	1	1	0	0	0.098552	0.28117	0.11196	0.048278	0.086107	0.067443	0.14509	0.34732	0.090249	0.21	0.15122	0.2502	0.20751	0.073679	0.15343	0.12498	-4.6	-4.1354	-4.9771	-4.8021	-4.2438	-5.1417	-4.4313	-4.6354	-4.8333	-4.1271	-5	-4.6958	-4.0958	-5.0979	-4.2875	-4.6146	398.399	297.950	312.774	273.399	341.573	438.755	348.357	143.923	404.356	460.361	129.735	420.157	263.234	192.067	138.467	376.347	0.00024969	8.472e-05	7.9899e-05	983.89	4.8724e-06	1.4161e-06	1078.3	204.17	2.5806e-06	2.9635e-06	257.62	72.68	56.817	16.577	1.9746e-06	23.135	0.00010701	0.00010196	2.8211e-05	943.16	1.1577e-06	1.102e-06	1042.3	198.12	1.1162e-06	1.122e-06	248.4	70.806	55.126	16.312	1.1108e-06	22.901	187.839	249.569	126.245	114.086	240.995	264.621	114.539	122.077	249.041	304.579	121.219	128.365	128.531	135.636	236.949	135.227	-8191	255	
2335.435	1	1	0	0	0.047123	0.16335	0.056878	0.069883	0.11019	0.14029	0.12938	0.20803	0.03205	0.13441	0.11257	0.2165	0.19429	0.14116	0.17139	0.16235	-4.7438	-4.1625	-4.8229	-4.8313	-4.0021	-5.1021	-4.4563	-4.4396	-5.0021	-4.1646	-4.7646	-4.8438	-4.2438	-4.9833	-4.5417	-4.3313	200.509	332.663	132.661	376.821	368.571	246.932	385.330	371.421	328.102	109.746	239.955	424.952	177.193	361.579	115.579	432.032	0.00022709	0.00016284	9.3291e-05	981.82	7.7796e-07	6.9343e-07	1078.1	203.35	3.5526e-06	2.0662e-06	258.61	72.415	56.712	16.327	2.9052e-06	23.366	0.00010814	0.00010452	2.8857e-05	941.81	1.1518e-06	1.1326e-06	1042.7	198.01	1.1288e-06	1.13e-06	249.28	70.742	55.184	16.221	1.0797e-06	22.882	194.211	200.502	171.717	114.236	205.935	249.292	114.412	122.300	245.603	282.034	121.365	128.329	129.155	135.604	262.545	135.275	-8191	255	
2335.531	1	1	0	0	0.029107	0.025126	0.077632	0.040994	0.17518	0.10742	0.1242	0.09148	0.088272	0.18771	0.07684	0.094133	0.13587	0.12377	0.085638	0.080802	-4.8917	-4.0604	-4.5563	-5.0188	-4.0958	-5.0083	-4.6958	-4.3958	-5.0125	-4.15	-4.7562	-4.7771	-4.1583	-5.0167	-4.5417	-4.3021	275.747	260.448	197.765	122.307	451.057	363.710	438.930	212.400	218.115	384.546	285.872	138.942	207.281	158.374	162.950	201.182	0.00018849	0.00022417	0.00013056	987.68	2.1174e-07	5.3221e-06	1070.6	203.98	1.5174e-06	1.2429e-06	258.07	71.913	56.69	16.597	1.804e-06	23.423	0.00010664	0.00010237	2.8536e-05	944.99	1.1353e-06	1.0895e-06	1040.2	197.99	1.1126e-06	1.1084e-06	248.73	70.801	55.185	16.301	1.1103e-06	22.972	205.583	235.357	178.420	114.043	218.039	249.703	114.528	121.772	247.488	191.706	121.141	128.037	128.747	135.656	218.858	134.851	-8191	255	
2335.627	1	1	0	0	0.23723	0.12538	0.31409	0.24303	0.024323	0.21201	0.085553	0.21054	0.27491	0.16778	0.22785	0.19081	0.21984	0.15313	0.18588	0.15359	-4.7333	-4.3583	-4.4521	-5.0021	-4.1083	-4.9083	-4.6208	-4.2125	-4.9604	-4.3438	-4.6979	-4.95	-4.275	-4.7479	-4.7792	-4.3521	169.286	330.856	119.512	447.969	377.056	144.389	139.151	132.196	435.966	122.853	331.303	387.242	193.437	431.938	447.182	279.991	0.00024103	7.5186e-05	8.7802e-05	980.78	1.6435e-06	2.7581e-06	1081.2	205.11	1.2301e-06	2.3137e-06	257.81	72.917	57.009	16.55	3.5484e-06	23.451	0.00010861	0.00010244	2.9481e-05	944.79	1.158e-06	1.1485e-06	1044.5	198.41	1.1847e-06	1.1598e-06	248.94	71.041	55.347	16.341	1.1836e-06	23.011	194.478	279.485	172.511	114.325	301.842	258.449	114.400	121.914	277.525	245.705	121.185	128.330	128.690	135.848	250.260	135.089	-8191	255	
2335.723	1	1	0	0	0.070884	0.1151	0.15138	0.22499	0.24836	0.1005	0.18801	0.26462	0.099763	0.25036	0.057299	0.10647	0.17394	0.24289	0.19864	0.035141	-4.6854	-4.3958	-4.3688	-5.0729	-4.1333	-4.5813	-5.0604	-4.2625	-5.2083	-4.5687	-4.3542	-5.3688	-4.325	-4.6083	-4.7792	-4.1583	442.026	232.556	241.652	447.509	330.815	170.055	367.009	377.435	371.605	169.033	351.113	151.899	391.970	317.676	309.458	417.627	0.00024513	0.00011159	4.5951e-05	986.08	3.2792e-06	3.7512e-06	1084.2	205.93	8.3236e-07	3.9054e-06	257.25	72.8	57.027	16.608	3.0255e-06	23.452	0.00011463	0.00010853	3.0704e-05	947.89	1.1838e-06	1.1839e-06	1046.7	199	1.1949e-06	1.1546e-06	248.97	70.987	55.559	16.361	1.1432e-06	23.043	201.073	311.159	426.759	114.009	229.841	283.563	114.615	121.602	278.930	238.453	121.482	128.651	128.754	136.043	221.208	134.793	-8191	255	
2335.820	1	1	0	0	0.20172	0.17554	0.11371	0.13345	0.15389	0.05572	0.23872	0.10719	0.4249	0.039468	0.10363	0.24203	0.20996	0.064705	0.15697	0.18802	-4.7	-4.5083	-4.3438	-5.3271	-4.1896	-4.6958	-5.2104	-4.15	-4.9042	-4.5625	-4.3229	-5.1479	-4.1396	-4.4667	-5.05	-4.1937	278.791	444.837	277.802	214.832	293.388	154.803	449.747	150.040	275.126	368.336	384.303	409.010	271.821	457.092	145.113	231.821	0.00024125	0.00017753	3.3442e-05	990.74	2.8917e-06	3.7366e-06	1080.1	206.08	3.7088e-06	4.5909e-07	259.14	72.725	57.073	16.679	5.6063e-06	23.527	0.00011015	0.00010233	2.9419e-05	949.83	1.1685e-06	1.1246e-06	1048.6	198.8	1.1304e-06	1.1114e-06	249.7	70.923	55.406	16.362	1.13e-06	23.038	196.562	217.103	431.833	114.149	252.294	269.019	114.502	121.963	243.826	252.190	121.562	128.485	128.523	135.810	196.518	134.720	-8191	255	
2335.938	1	1	0	0	0.097954	0.19713	0.026713	0.28664	0.16418	0.13742	0.32753	0.16496	0.20043	0.22019	0.14053	0.089885	0.15772	0.1845	0.041333	0.1514	-4.6188	-4.4583	-4.2188	-5.2375	-4.3146	-4.4146	-5.2167	-4.1292	-4.7396	-4.7417	-4.2562	-5.1729	-4.5479	-4.2958	-4.975	-4.2688	216.494	318.459	188.141	392.626	283.259	221.213	419.651	130.391	206.991	332.643	378.409	189.802	125.107	254.612	428.914	393.369	0.00021631	0.00042993	4.1606e-05	990.14	2.8679e-06	1.5324e-06	1083.9	204.99	2.5627e-06	3.2049e-06	261.19	72.755	57.145	16.639	2.0987e-06	23.454	0.00010952	0.00010407	2.9991e-05	950.52	1.153e-06	1.1466e-06	1048.5	199.09	1.1634e-06	1.1501e-06	249.99	71.202	55.584	16.386	1.1663e-06	23.095	194.882	144.817	183.787	114.152	226.020	270.192	114.384	121.939	276.335	320.932	121.421	128.356	128.915	135.735	241.625	135.032	-8191	255	
2336.035	1	1	0	0	0.092816	0.1271	0.1621	0.17124	0.058351	0.19129	0.095056	0.067472	0.29119	0.1343	0.20411	0.0084971	0.28871	0.11044	0.10131	0.13767	-4.3625	-4.8729	-3.9917	-5.0979	-4.5646	-4.1604	-5.1896	-4.1417	-4.5958	-4.7458	-4.025	-4.9271	-4.6396	-4.3625	-4.9542	-4.225	461.668	105.847	334.917	427.451	394.768	343.450	452.993	213.984	155.079	451.753	109.071	428.435	117.002	453.499	347.791	124.076	0.00020603	0.00034336	3.4278e-05	997.96	8.2544e-07	2.7649e-06	1079.1	205.66	8.4588e-07	3.3182e-06	260.07	72.761	57.213	16.446	3.3593e-06	23.515	0.00011563	0.00010536	2.991e-05	954.38	1.1536e-06	1.1577e-06	1050.2	199.24	1.1886e-06	1.1532e-06	249.91	71.119	55.74	16.377	1.1527e-06	23.1	191.796	175.268	385.549	114.015	264.004	236.380	114.491	122.084	217.573	228.950	121.557	128.291	128.534	135.919	248.544	135.086	-8191	255	
2336.106	1	1	0	0	0.12256	0.093666	0.21079	0.14061	0.12602	0.2577	0.12643	0.19054	0.11859	0.14272	0.13341	0.10361	0.12229	0.28424	0.10998	0.056218	-4.3396	-4.875	-3.9604	-4.9479	-4.5938	-4.2125	-5.2771	-4.3917	-4.4896	-4.8729	-4.1583	-4.8708	-4.5583	-4.2979	-4.975	-4.3146	308.494	206.099	230.280	410.946	147.181	224.896	370.046	203.389	187.218	271.912	321.002	407.270	336.968	234.369	287.387	378.227	0.00021212	0.00028489	7.7574e-05	992.6	2.1242e-06	4.7059e-06	1080	206.46	2.695e-06	3.0869e-06	257.85	73.05	57.118	16.749	1.9677e-06	23.553	0.00011239	0.00010378	2.969e-05	953.04	1.1791e-06	1.1761e-06	1053.7	199.39	1.1998e-06	1.1569e-06	250.04	71.426	55.704	16.436	1.1608e-06	23.117	193.370	227.639	232.323	114.085	200.374	282.103	114.445	121.947	262.936	236.565	121.731	128.390	128.956	135.749	180.404	134.877	-8191	255	
2336.202	1	1	0	0	0.33975	0.13631	0.23107	0.0673	0.12615	0.10211	0.15898	0.31877	0.078535	0.08044	0.18934	0.28618	0.11202	0.13651	0.22079	0.30627	-4.2063	-4.8333	-4.0312	-4.925	-4.7562	-4.175	-5.1	-4.6667	-4.3708	-5.0417	-4.175	-4.7292	-4.825	-4.2271	-4.9833	-4.4896	168.368	184.464	417.157	173.791	434.866	183.661	394.795	114.844	427.705	294.089	438.224	141.370	254.272	306.414	189.857	150.234	0.0002371	0.00044096	9.1996e-05	994.79	1.9344e-06	2.578e-06	1088	206.25	1.2403e-06	1.1665e-06	260.27	73.681	57.892	16.786	1.9923e-06	23.663	0.00011306	0.00010375	2.9299e-05	954.35	1.1505e-06	1.1339e-06	1054.8	199.52	1.1716e-06	1.1458e-06	250.57	71.639	55.789	16.485	1.1555e-06	23.168	197.611	158.507	149.557	114.239	211.760	276.671	114.180	122.022	224.456	303.611	121.302	128.171	128.629	135.991	361.107	135.335	-8191	255	
2336.323	1	1	0	0	0.35342	0.13434	0.10905	0.14614	0.0071573	0.071216	0.085675	0.046808	0.066721	0.22415	0.16942	0.055516	0.11311	0.13092	0.12928	0.11821	-4.1083	-5.1354	-4.0708	-4.7667	-4.7729	-4.1083	-5.1625	-4.6375	-4.2604	-5.0458	-4.3833	-4.6542	-5.1188	-4.0062	-5.075	-4.7208	448.056	318.025	374.977	114.003	283.738	254.986	110.434	166.739	441.244	148.143	289.829	340.054	134.302	166.303	386.790	445.657	0.00023995	0.00018674	8.1135e-05	994.74	3.2955e-06	3.8194e-06	1093.2	206.66	1.8893e-06	2.3736e-06	258.76	73.099	57.068	16.656	5.2669e-06	23.54	0.00011459	0.00010439	2.9423e-05	957.2	1.157e-06	1.1767e-06	1056.4	199.93	1.2108e-06	1.1651e-06	250.55	71.446	55.971	16.488	1.1658e-06	23.143	193.022	208.602	202.730	113.790	215.930	196.415	114.510	122.065	270.252	304.334	121.699	128.345	128.998	135.953	280.491	135.461	-8191	255	
2336.419	1	1	0	0	0.19715	0.029237	0.14935	0.21564	0.23489	0.18654	0.23616	0.079543	0.23272	0.21258	0.44907	0.17806	0.12015	0.068036	0.14965	0.15933	-4.0083	-5.0479	-4.2271	-4.5333	-4.8854	-4.1333	-5.0979	-4.7146	-4.2167	-4.9875	-4.2958	-4.5396	-5.1292	-4.2292	-4.8042	-4.7479	205.208	155.631	185.410	394.516	416.885	297.668	368.920	413.696	107.426	248.051	209.421	259.468	333.197	234.986	375.897	373.841	0.00023773	0.00033031	4.5643e-05	991.64	1.7914e-06	1.2984e-06	1091.3	207.84	2.0437e-06	2.7506e-06	258.56	73.624	57.405	16.754	2.7733e-06	23.513	0.00011654	0.00010804	3.0035e-05	955.07	1.1608e-06	1.1827e-06	1057.8	200.17	1.2316e-06	1.2013e-06	250.11	71.728	55.913	16.502	1.2179e-06	23.131	194.563	149.846	158.818	114.259	148.355	237.613	114.535	122.027	309.165	237.361	121.203	128.190	128.602	135.521	118.672	135.501	-8191	255	
2336.515	1	1	0	0	0.14868	0.069648	0.18897	0.17094	0.12259	0.13774	0.29618	0.35204	0.2558	0.21184	0.10546	0.051029	0.088776	0.03327	0.30183	0.08046	-3.7333	-4.8104	-4.2458	-4.4708	-5.0271	-4.2562	-4.9521	-5.0667	-4.15	-5.05	-4.6042	-4.4833	-4.8938	-4.1271	-4.6208	-5.0958	287.409	147.892	346.305	109.703	393.618	301.268	429.191	390.781	459.209	172.560	349.091	231.313	325.559	240.397	263.738	419.820	0.00024429	0.00047639	7.191e-05	996.54	5.523e-06	2.302e-06	1091.4	206.13	3.2428e-06	5.4793e-06	259.94	73.608	57.519	16.77	2.413e-06	23.627	0.00012051	0.00011377	3.0684e-05	958.72	1.1962e-06	1.2115e-06	1057.6	200.29	1.238e-06	1.2023e-06	251.58	71.781	56.113	16.565	1.2259e-06	23.172	192.650	214.805	194.408	114.076	215.726	234.932	114.476	121.683	222.063	228.864	121.451	127.894	129.249	135.986	200.096	135.262	-8191	255	
2336.612	1	1	0	0	0.21884	0.20667	0.22877	0.11673	0.072723	0.035425	0.30389	0.32205	0.076475	0.20411	0.17532	0.1466	0.071223	0.23257	0.11213	0.17948	-3.7812	-4.9792	-4.6146	-4.4479	-5.0625	-4.1833	-4.8042	-4.9229	-4.25	-4.9208	-4.7125	-4.3542	-5.15	-4.4437	-4.5667	-4.9833	161.463	410.560	400.310	385.616	238.290	249.283	276.566	392.763	275.561	155.963	341.888	319.070	234.854	366.028	373.672	132.773	0.00018623	0.00031945	6.0436e-05	995.61	2.6012e-06	4.3579e-06	1096.9	205.91	2.6932e-06	5.2511e-07	260.17	73.526	57.33	16.778	2.1259e-06	23.632	0.00012091	0.00011281	3.0986e-05	958.29	1.2434e-06	1.244e-06	1061.1	200.39	1.2329e-06	1.2311e-06	251.02	71.743	55.963	16.525	1.2029e-06	23.193	196.063	232.682	373.460	114.344	220.824	202.826	114.102	121.913	198.190	425.918	121.135	127.622	128.919	136.395	202.170	135.611	-8191	255	
2336.708	1	1	0	0	0.060946	0.16476	0.24676	0.21085	0.12658	0.060059	0.20237	0.11744	0.19153	0.11296	0.17999	0.043552	0.13244	0.20377	0.090853	0.071148	-3.9292	-4.8708	-4.675	-4.1833	-5.0292	-4.4979	-4.625	-5.0792	-4.2688	-4.8688	-4.9313	-4.3688	-5.0938	-4.5542	-4.2417	-5.0042	145.728	338.310	374.269	415.756	346.711	220.051	362.283	104.468	401.727	177.923	430.091	241.377	387.415	325.975	368.279	306.326	0.00020903	0.00030422	2.6014e-05	1002.4	3.8162e-06	2.0642e-06	1093.6	207.21	2.4315e-06	3.6252e-06	261.43	73.579	57.695	16.767	2.814e-06	23.653	0.00011453	0.00010925	2.988e-05	960.16	1.1913e-06	1.1887e-06	1059.4	200.63	1.2142e-06	1.2007e-06	251.53	71.686	56.079	16.552	1.2241e-06	23.178	193.086	252.648	139.839	114.275	158.265	116.488	114.213	122.326	220.964	153.154	121.333	128.510	128.302	136.137	172.101	135.361	-8191	255	
2336.804	1	1	0	0	0.10777	0.038765	0.14782	0.26326	0.21989	0.054486	0.089892	0.028305	0.21922	0.21876	0.058545	0.1689	0.025892	0.22009	0.12292	0.24681	-3.85	-4.5417	-4.7688	-4.1937	-5.0125	-4.5854	-4.3417	-5.0042	-4.225	-4.6771	-4.8688	-4.1854	-4.9333	-4.5979	-4.1438	-5	141.525	323.472	450.965	359.301	350.083	203.585	356.534	172.968	278.461	423.731	248.866	383.321	300.702	410.160	260.385	397.145	0.00026946	0.00027803	2.3815e-05	995.26	2.0279e-06	2.7817e-06	1087.5	206.36	1.8996e-06	2.2125e-06	260.24	73.617	57.818	16.619	1.8188e-06	23.515	0.0001156	0.00011075	3.0129e-05	959.01	1.2272e-06	1.1961e-06	1058.5	200.42	1.2294e-06	1.2181e-06	251.62	71.791	56.089	16.512	1.2142e-06	23.181	179.137	108.418	171.898	114.041	223.582	316.483	114.138	122.069	163.099	246.022	121.428	128.283	128.512	135.702	255.733	135.141	-8191	255	
2336.900	1	1	0	0	0.19897	0.071781	0.10538	0.13025	0.0668	0.27756	0.1549	0.016602	0.064531	0.14973	0.25484	0.078499	0.24671	0.05404	0.15042	0.14815	-4.0229	-4.5458	-5.0396	-4.2729	-4.7333	-4.5792	-4.2562	-5.0687	-4.3542	-4.4667	-4.9021	-4.1729	-4.8875	-4.7104	-4.2021	-5.1792	120.783	227.166	246.335	114.431	224.494	200.232	434.753	313.967	403.502	337.479	317.100	233.912	283.487	225.961	170.037	325.711	0.00019212	2.4822e-05	0.00011227	995.31	2.8117e-06	1.9865e-06	1089.1	207.31	3.3427e-06	7.0475e-07	259.61	73.883	57.389	16.754	3.4765e-06	23.698	0.00011733	0.0001124	3.0613e-05	959.38	1.242e-06	1.2029e-06	1059.4	200.7	1.2253e-06	1.251e-06	251.16	71.805	56.064	16.571	1.2718e-06	23.293	200.060	337.268	220.319	114.149	210.186	284.677	114.119	122.149	268.182	244.758	121.184	128.182	128.974	135.881	222.810	135.154	-8191	255	
2337.019	1	1	0	0	0.03157	0.053041	0.091587	0.29136	0.077515	0.065969	0.31599	0.06464	0.096091	0.049879	0.22427	0.10766	0.20208	0.12853	0.063635	0.066714	-4.1875	-4.525	-5.1271	-4.3458	-4.8167	-4.7562	-4.3063	-5.1271	-4.5146	-4.3417	-5.1396	-4.2292	-4.7396	-4.8271	-4.1813	-4.9146	317.228	117.015	251.742	421.916	212.549	106.243	429.975	381.836	184.576	324.076	117.508	215.097	246.367	372.148	229.281	330.433	0.00024387	0.00027582	4.2053e-05	1000.9	1.336e-06	3.6503e-06	1092.4	207.14	2.2356e-06	3.7212e-06	263.33	73.783	57.46	16.765	1.5518e-06	23.705	0.00011732	0.00011188	3.0474e-05	960.92	1.2249e-06	1.2004e-06	1059.1	200.78	1.2115e-06	1.2221e-06	252.27	71.775	56.066	16.567	1.2175e-06	23.213	185.740	346.716	231.684	114.184	245.039	192.484	114.345	121.983	228.914	229.074	121.224	128.435	128.641	135.301	126.826	135.543	-8191	255	
2337.115	1	1	0	0	0.16502	0.20889	0.10037	0.038589	0.11407	0.029628	0.058225	0.27593	0.39508	0.19129	0.10707	0.091525	0.18729	0.057052	0.077428	0.23161	-4.1521	-4.3021	-5.0396	-4.2167	-4.7708	-4.9479	-4.4333	-4.9229	-4.6646	-4.3812	-5.0042	-4.4146	-4.5958	-4.8812	-4.2521	-4.9833	290.154	151.586	406.988	159.993	306.362	175.879	320.191	361.891	438.417	246.711	408.077	151.244	426.703	295.323	292.993	383.913	0.00021681	0.00049621	6.2536e-05	999.65	1.5117e-06	4.9014e-06	1096.1	206.51	2.1215e-06	7.9588e-07	260.09	73.627	57.348	16.827	5.9014e-06	23.601	0.00011601	0.00011211	3.0746e-05	959.55	1.242e-06	1.2093e-06	1059.8	200.92	1.2386e-06	1.2595e-06	251.5	72.035	56.012	16.623	1.2559e-06	23.275	192.480	190.774	195.347	114.157	159.087	309.299	114.328	121.663	260.403	241.973	121.417	127.777	128.253	136.187	218.594	135.046	-8191	255	
2337.211	1	1	0	0	0.12862	0.01681	0.26077	0.20787	0.15319	0.15934	0.22768	0.1591	0.18868	0.064444	0.30793	0.043308	0.11408	0.23938	0.1404	0.17998	-4.3104	-4.2562	-5.0563	-4.5042	-4.4979	-5.075	-4.2229	-4.9437	-4.5833	-4.0479	-5.1729	-4.375	-4.2458	-4.9187	-4.1771	-4.7083	186.477	365.854	229.228	114.507	318.086	454.831	426.033	444.243	244.997	143.092	424.977	229.800	147.003	395.238	291.713	107.548	0.00023555	7.2363e-05	0.00011074	1000.2	1.2175e-06	2.3269e-06	1098.6	206.7	1.6487e-06	1.5687e-06	259.91	73.487	57.476	16.79	2.7586e-06	23.673	0.0001179	0.00011388	3.1797e-05	961.21	1.2551e-06	1.2347e-06	1061.6	200.84	1.2385e-06	1.2602e-06	251.95	71.837	56.185	16.609	1.2731e-06	23.286	186.421	109.514	227.125	114.163	171.473	221.917	114.298	122.070	239.809	245.319	121.515	127.966	128.924	136.025	242.917	134.863	-8191	255	
2337.332	1	1	0	0	0.049118	0.062703	0.086463	0.22881	0.11533	0.42141	0.24467	0.047368	0.17241	0.17447	0.17331	0.081436	0.23343	0.19424	0.16359	0.066276	-4.5354	-4.0417	-5.0521	-4.5771	-4.3167	-5.0292	-4.325	-4.7438	-4.8063	-4.1167	-5.0417	-4.5208	-4.1896	-4.9313	-4.2625	-4.4896	227.613	255.494	261.622	260.858	271.055	130.883	429.354	276.887	139.025	410.159	129.234	261.368	239.541	332.974	218.387	141.087	0.00022508	0.00043048	0.00010667	1005.4	1.4148e-06	1.4553e-06	1093.6	207.61	2.3474e-06	2.7465e-06	259.21	73.889	58.12	16.804	5.0531e-06	23.726	0.00011934	0.00011624	3.1436e-05	964.63	1.2395e-06	1.2062e-06	1061.7	201.42	1.2118e-06	1.2684e-06	251.89	72.022	56.312	16.626	1.2107e-06	23.32	210.117	211.310	210.774	114.182	284.264	342.780	114.240	121.970	249.024	216.960	121.517	128.084	128.981	135.992	195.375	135.344	-8191	255	
2337.403	1	1	0	0	0.23083	0.21752	0.10096	0.20603	0.065169	0.052417	0.11845	0.17112	0.13441	0.14648	0.10194	0.29166	0.11732	0.25832	0.029219	0.18076	-4.6312	-4.0917	-5.0979	-4.5417	-4.3063	-4.8583	-4.3833	-4.5	-4.8521	-3.9875	-4.9062	-4.7042	-4.1896	-5.0208	-4.3104	-4.5958	162.330	124.710	206.573	411.299	317.627	331.996	394.626	373.788	341.776	442.098	154.603	394.515	455.670	204.603	340.700	274.191	0.0002151	0.00036247	0.00010236	1003.6	2.3601e-06	1.4801e-06	1091.4	207.47	2.2658e-06	2.5778e-06	261.56	74.176	57.912	16.845	2.2694e-06	23.498	0.00011693	0.00011151	3.0557e-05	963.93	1.2508e-06	1.2365e-06	1059.8	201.21	1.2453e-06	1.2534e-06	252.52	72.059	56.328	16.675	1.2294e-06	23.264	194.251	199.385	178.397	114.070	215.717	346.243	114.305	121.977	209.347	215.429	121.141	128.395	128.341	135.901	203.390	135.233	-8191	255	
2337.500	1	1	0	0	0.098449	0.076325	0.27855	0.15543	0.15147	0.1982	0.075242	0.005732	0.10612	0.041277	0.36174	0.060247	0.089719	0.1432	0.11745	0.099303	-4.725	-4.1625	-4.8646	-4.8438	-4.2104	-5.0833	-4.45	-4.4479	-4.9771	-3.9188	-4.7562	-4.95	-4.2417	-4.9812	-4.6604	-4.4208	122.769	430.433	440.632	414.624	301.596	192.501	292.283	408.476	170.415	190.615	402.941	375.500	353.613	439.508	177.569	429.540	0.00022768	0.00031874	0.00014097	998.87	4.0852e-06	9.7157e-07	1098.7	207.89	2.5853e-06	2.6158e-06	260.63	73.888	57.856	16.769	6.6474e-06	23.761	0.00012169	0.00011602	3.2512e-05	962.21	1.2957e-06	1.2656e-06	1063.6	201.68	1.2822e-06	1.2662e-06	252	72.234	56.341	16.659	1.2812e-06	23.258	192.807	120.467	158.072	114.171	250.447	200.999	114.304	121.984	269.056	275.883	121.727	128.221	128.633	135.802	228.731	135.595	-8191	255	
2337.620	1	1	0	0	0.23414	0.16052	0.15196	0.19467	0.055911	0.1236	0.0072864	0.38752	0.095848	0.11578	0.031401	0.069025	0.2121	0.18487	0.11402	0.24749	-4.7312	-4.1792	-4.8396	-4.9771	-4.0625	-4.9542	-4.7042	-4.3833	-4.9833	-4.2458	-4.7438	-4.8833	-3.9604	-4.9062	-4.6417	-4.3083	384.655	256.192	416.351	444.826	321.658	226.265	320.999	105.808	305.755	352.379	443.616	352.826	378.306	446.907	420.333	355.099	0.00021164	0.00041611	0.00014397	1006.9	1.1026e-06	3.5043e-06	1102.4	207.41	2.045e-06	3.6649e-06	262.73	74.155	57.868	16.755	2.9307e-06	23.868	0.00012388	0.0001186	3.3286e-05	965.03	1.306e-06	1.2791e-06	1063.7	201.48	1.2919e-06	1.2523e-06	252.67	72.122	56.266	16.636	1.2378e-06	23.343	197.128	200.352	221.057	114.301	205.952	159.820	114.458	121.710	208.006	182.199	121.335	128.307	128.558	135.961	355.764	135.271	-8191	255	
2337.716	1	1	0	0	0.14202	0.28285	0.17693	0.029592	0.11186	0.04232	0.099163	0.11802	0.12568	0.11043	0.17197	0.23174	0.21078	0.24536	0.12569	0.10964	-4.8146	-4.1937	-4.5542	-4.9563	-4.2	-4.9417	-4.9021	-4.1937	-5.0146	-4.4646	-4.3542	-5.0417	-4.1333	-4.9271	-4.7812	-4.2188	264.419	390.580	114.930	408.951	459.570	330.469	378.178	196.076	377.946	219.896	291.601	149.970	379.556	335.812	402.119	457.474	0.00026044	0.00022638	7.8657e-05	1004.2	3.2588e-06	3.4956e-06	1101.3	208.21	1.7384e-06	1.9929e-06	262.09	73.695	57.472	16.873	1.5973e-06	23.725	0.00011651	0.00011379	3.1918e-05	964.78	1.2744e-06	1.2239e-06	1066.3	201.74	1.2313e-06	1.2113e-06	252.82	71.981	56.184	16.677	1.2446e-06	23.317	203.403	156.367	174.528	114.266	199.009	196.168	114.187	121.597	256.847	406.999	121.287	128.310	128.617	135.890	240.673	135.161	-8191	255	
2337.811	1	1	0	0	0.18787	0.14511	0.17383	0.24851	0.075884	0.22479	0.16614	0.072706	0.066136	0.074088	0.095917	0.14988	0.11308	0.1451	0.17037	0.1033	-4.8229	-4.5	-4.4271	-5.1896	-4.0958	-4.5687	-4.9187	-4.4479	-4.8708	-4.4771	-4.35	-5.1792	-4.2167	-4.7292	-4.7833	-4.2625	292.344	140.590	312.685	402.746	413.110	458.499	444.615	325.114	419.951	127.315	105.342	267.910	311.736	421.707	124.369	365.598	0.00027864	8.0109e-05	1.5889e-05	1005	1.8258e-06	3.0393e-06	1099.1	206.5	1.9826e-06	5.7842e-06	262.32	73.691	57.454	16.997	2.9875e-06	23.784	0.00011883	0.00011426	3.2157e-05	962.5	1.248e-06	1.2425e-06	1064.9	201.48	1.2518e-06	1.2346e-06	252.38	72.091	56.379	16.696	1.2234e-06	23.303	196.426	189.239	165.800	114.230	165.351	212.728	114.317	121.595	252.358	272.792	121.400	128.347	128.971	135.854	211.485	134.668	-8191	255	
2337.907	1	1	0	0	0.056658	0.17692	0.11679	0.22492	0.1587	0.14122	0.34905	0.32504	0.19907	0.23263	0.087078	0.17234	0.099105	0.12218	0.10111	0.076426	-4.7396	-4.5271	-4.3187	-5.1771	-4.2042	-4.6854	-5.1271	-4.1521	-5.0979	-4.4479	-4.1917	-5.2188	-4.3542	-4.4125	-4.9917	-4.0938	264.288	181.536	128.638	337.642	395.478	159.442	406.038	395.990	212.075	176.174	394.137	458.465	151.632	265.180	173.840	421.345	0.00020996	0.00017945	5.9776e-05	1005.8	1.7102e-06	1.6935e-06	1100	207.32	1.5248e-06	4.7017e-06	260.33	74.22	58.05	16.924	4.1351e-06	23.843	0.00011832	0.00011234	3.123e-05	966.02	1.2057e-06	1.2157e-06	1062.8	201.03	1.2182e-06	1.2012e-06	251.81	72.04	56.259	16.685	1.1887e-06	23.351	192.506	149.245	260.526	114.344	250.924	177.956	114.504	121.610	275.750	312.167	121.134	128.155	128.428	135.899	258.424	135.251	-8191	255	
2338.003	1	1	0	0	0.034453	0.19562	0.14797	0.073785	0.21889	0.20448	0.12749	0.083232	0.14244	0.25455	0.29928	0.17518	0.089441	0.11209	0.15388	0.029264	-4.4458	-4.7229	-4.2104	-5.1271	-4.3771	-4.5521	-5.1125	-4.2167	-4.775	-4.7167	-4.1479	-5.1062	-4.5396	-4.4688	-4.8812	-4.2812	141.249	448.307	254.846	183.660	394.198	178.881	260.759	366.836	327.662	125.780	371.207	411.685	362.935	139.848	438.603	222.774	0.00024293	0.00018443	0.00010604	1005.7	2.112e-06	2.6128e-06	1098.2	207.4	1.1808e-06	1.4114e-06	261.66	73.44	58.121	16.795	3.1824e-06	23.801	0.00011729	0.00010687	3.0724e-05	965.7	1.1917e-06	1.204e-06	1063.5	201.12	1.1882e-06	1.1558e-06	251.67	71.723	56.207	16.643	1.1435e-06	23.281	193.798	232.848	253.857	113.922	262.587	281.936	114.258	121.984	185.311	200.617	121.112	128.229	128.345	136.192	237.636	135.071	-8191	255	
2338.099	1	1	0	0	0.12102	0.084178	0.13416	0.017329	0.24183	0.063221	0.11414	0.18703	0.1833	0.13131	0.067253	0.082064	0.095697	0.036796	0.057123	0.33602	-4.4479	-4.9646	-4.2458	-5.075	-4.5583	-4.2854	-5.3063	-4.2688	-4.6854	-4.9292	-3.8854	-4.8812	-4.6896	-4.3208	-4.9917	-4.1667	171.416	229.912	240.405	375.969	299.888	370.457	298.768	425.660	323.575	399.504	119.822	352.127	164.476	153.576	249.161	308.851	0.00022681	9.7461e-05	6.3252e-05	1005	2.5364e-06	9.5655e-07	1093.8	206.2	3.3696e-06	1.3641e-06	261.5	73.119	58.222	16.858	1.7202e-06	23.77	0.00011685	0.00010644	2.9943e-05	963.55	1.1915e-06	1.2004e-06	1061.2	200.59	1.2188e-06	1.1869e-06	251.83	71.776	56.375	16.646	1.1722e-06	23.297	192.736	186.938	148.841	114.172	222.831	338.204	114.530	122.010	254.872	259.781	120.997	127.785	128.495	135.422	156.709	134.669	-8191	255	
2338.195	1	1	0	0	0.32576	0.08754	0.23475	0.37207	0.16683	0.13979	0.1728	0.055314	0.17245	0.041394	0.25618	0.10598	0.066645	0.04343	0.18883	0.083394	-4.2521	-4.75	-4.1458	-5.0563	-4.525	-4.2	-5.2625	-4.3562	-4.4396	-4.8896	-4.2	-4.8917	-4.8063	-4.125	-4.9167	-4.4854	221.872	151.449	184.630	420.715	363.527	404.495	382.956	183.177	260.688	253.565	446.358	371.597	127.312	178.192	128.502	459.809	0.00025731	0.00027349	0.00010343	1002.5	3.2089e-06	4.0069e-06	1096	206.39	1.6901e-06	3.5476e-06	263.32	74.165	57.631	16.898	1.771e-06	23.67	0.00011442	0.00010431	3.0179e-05	963.07	1.1756e-06	1.1792e-06	1063.1	200.62	1.212e-06	1.1689e-06	252.43	72.14	56.184	16.648	1.1718e-06	23.263	194.783	117.535	462.969	114.126	164.812	226.618	114.458	121.520	214.425	237.099	121.071	127.926	128.689	135.977	236.236	135.054	-8191	255	
2338.292	1	1	0	0	0.39095	0.20133	0.1949	0.074263	0.21148	0.11387	0.033443	0.21329	0.14379	0.22197	0.099183	0.15209	0.21424	0.13235	0.072574	0.14838	-4.175	-4.8708	-4.0062	-4.9021	-4.6771	-4.1854	-5.1312	-4.5	-4.4167	-4.9417	-4.2125	-4.6333	-4.7937	-3.9771	-4.85	-4.6292	146.898	114.061	118.777	437.702	165.201	391.692	391.157	108.769	420.368	338.418	399.993	172.761	161.437	334.484	301.884	441.367	0.00019509	0.00014746	4.5473e-05	1000.8	1.1691e-06	1.098e-06	1099.3	206.64	2.6749e-06	3.6867e-06	261.39	73.81	57.717	16.799	1.522e-06	23.82	0.00011696	0.00011052	3.0189e-05	962.89	1.2026e-06	1.1996e-06	1064.5	200.96	1.2158e-06	1.184e-06	252.95	71.934	56.222	16.656	1.197e-06	23.34	197.464	222.617	221.580	113.963	317.704	185.773	114.238	121.840	282.428	219.258	121.483	128.035	128.733	135.946	246.517	135.380	-8191	255	
2338.412	1	1	0	0	0.063336	0.03943	0.059903	0.20379	0.18251	0.20478	0.016703	0.12173	0.041816	0.24889	0.28459	0.19315	0.12707	0.07581	0.13771	0.16539	-4.05	-4.9083	-4.2104	-4.6917	-4.9167	-4.1396	-5.1708	-4.6458	-4.1687	-5.0958	-4.4917	-4.55	-5.0458	-3.9958	-4.7583	-4.7458	128.270	204.532	183.570	372.858	408.280	126.922	182.963	132.976	285.734	263.533	459.237	420.194	339.641	269.331	393.396	360.727	0.00021352	0.00017699	3.5121e-05	1005.2	3.3993e-06	1.7217e-06	1100.2	207.47	1.7217e-06	1.6967e-06	261.41	73.938	57.746	16.887	3.9413e-06	23.607	0.00011908	0.00011107	3.1063e-05	965.26	1.2349e-06	1.2555e-06	1063.5	201.48	1.2598e-06	1.2191e-06	252.2	72.095	56.173	16.683	1.2475e-06	23.326	199.866	426.083	151.862	114.259	210.189	265.237	114.417	121.805	238.530	223.391	121.217	128.082	128.907	135.689	279.732	134.965	-8191	255	
2338.508	1	1	0	0	0.1745	0.094132	0.18381	0.22612	0.20252	0.1387	0.2095	0.1143	0.28574	0.069817	0.11175	0.13122	0.10801	0.43726	0.1319	0.1651	-3.9062	-5.05	-4.1687	-4.5021	-4.9521	-3.9479	-4.925	-4.8125	-4.3667	-4.8896	-4.6125	-4.525	-5.0771	-4.2	-4.8479	-4.9354	446.869	277.592	242.458	432.119	122.423	113.690	391.812	452.489	248.753	316.547	314.887	265.315	340.717	419.630	244.304	357.122	0.0002324	0.00055312	5.1025e-05	1007.1	1.5691e-06	4.386e-07	1094.5	207.6	1.3656e-06	5.3782e-06	262.58	73.106	57.848	16.871	3.3535e-06	23.771	0.00012319	0.00011258	3.1239e-05	964.35	1.2444e-06	1.2236e-06	1062.5	201.3	1.2506e-06	1.2221e-06	252.27	71.862	56.333	16.635	1.2396e-06	23.372	185.485	182.596	293.246	114.045	238.447	292.279	114.116	121.826	218.933	245.762	121.525	127.805	128.870	135.992	265.103	134.974	-8191	255	
2338.604	1	1	0	0	0.18506	0.058656	0.064964	0.26471	0.12102	0.062377	0.24697	0.32852	0.12393	0.24661	0.0285	0.18147	0.1525	0.35633	0.098545	0.087187	-3.6646	-4.9542	-4.4292	-4.4729	-4.8896	-4.0521	-4.6875	-4.875	-4.0896	-5.0125	-4.5896	-4.1521	-5.0042	-4.2063	-4.5917	-4.9187	217.342	413.108	445.027	342.868	142.875	118.805	424.366	436.569	286.763	235.109	211.354	438.180	372.892	113.822	159.460	146.184	0.00020811	0.00019416	0.00014141	1001.8	3.3726e-06	5.303e-06	1098.2	207.43	5.0911e-06	1.8653e-06	261.28	73.605	57.809	16.969	2.251e-06	23.8	0.00011959	0.00011477	3.1164e-05	962.83	1.229e-06	1.2381e-06	1064	201.73	1.2418e-06	1.2456e-06	252.19	71.968	56.165	16.644	1.2416e-06	23.35	197.692	247.464	177.892	114.096	221.255	274.909	114.328	121.835	232.736	207.029	121.373	127.865	128.433	135.970	229.697	135.694	-8191	255	
2338.701	1	1	0	0	0.16306	0.14661	0.080726	0.029343	0.089983	0.089618	0.16651	0.1615	0.059892	0.031077	0.053622	0.27057	0.01246	0.14552	0.07387	0.098687	-3.9333	-4.825	-4.5021	-4.3146	-5.05	-4.125	-4.4437	-4.9292	-3.9188	-4.9	-4.5833	-4.1521	-4.975	-4.3417	-4.3938	-4.9354	384.797	127.686	132.978	326.081	135.023	402.471	400.574	121.337	202.382	201.235	331.429	311.913	194.890	351.223	147.005	278.086	0.00026192	0.00030547	4.8868e-05	1002.6	2.8518e-06	2.4873e-06	1094.6	206.79	3.7854e-06	3.1521e-06	261.77	73.343	57.844	16.822	1.4782e-06	23.964	0.00011992	0.00011281	3.052e-05	963.81	1.2502e-06	1.2149e-06	1060.7	201.36	1.2547e-06	1.2457e-06	252.44	71.909	56.254	16.655	1.2571e-06	23.33	193.333	209.556	202.265	114.011	247.087	284.758	113.965	122.198	261.742	253.107	121.592	127.842	128.491	135.791	311.028	135.313	-8191	255	
2338.797	1	1	0	0	0.10672	0.095776	0.12725	0.19288	0.18261	0.18087	0.21755	0.018525	0.11824	0.098611	0.27409	0.22484	0.34461	0.12105	0.18068	0.12041	-3.7354	-4.7354	-4.6708	-4.2083	-4.9229	-4.3771	-4.5292	-5.1188	-4.0146	-4.7354	-4.8292	-4.0312	-4.9604	-4.5083	-4.2167	-5.1375	244.511	216.527	462.505	433.680	307.685	304.802	368.602	258.932	181.360	133.500	265.021	269.435	326.311	355.273	427.427	375.607	0.00025034	0.00057811	0.00011384	1006.9	1.2549e-06	2.7875e-07	1096.3	207.12	2.7684e-06	1.8519e-06	260.08	73.594	57.529	16.969	4.149e-06	23.773	0.00012038	0.00011138	3.0212e-05	964.62	1.2304e-06	1.2081e-06	1063.1	201.11	1.2594e-06	1.2197e-06	252.03	71.844	56.252	16.705	1.2344e-06	23.31	197.345	206.193	167.481	114.228	272.972	318.271	114.063	121.907	188.592	174.332	121.441	128.071	127.964	135.917	204.555	135.230	-8191	255	
2338.893	1	1	0	0	0.098527	0.098986	0.1748	0.20705	0.12576	0.22031	0.3175	0.021012	0.084457	0.10113	0.11352	0.05582	0.15449	0.17483	0.22301	0.13661	-3.8854	-4.6521	-4.9771	-4.0125	-5.0583	-4.475	-4.4875	-5.1021	-4.1896	-4.4604	-4.9583	-4.05	-4.8375	-4.5813	-4.1188	-5.1958	456.222	370.366	148.232	207.994	395.780	451.012	339.161	165.713	416.264	304.885	376.945	434.757	308.257	448.760	225.478	216.703	0.00023107	0.0003246	3.1944e-05	1000.9	6.9917e-07	1.7318e-06	1095.6	206.91	8.9436e-07	2.8727e-06	261.15	73.607	57.594	16.895	2.7342e-06	23.649	0.00011764	0.00011124	3.0415e-05	964.49	1.1989e-06	1.1871e-06	1062.2	201.21	1.1971e-06	1.1701e-06	252.3	72.014	56.186	16.639	1.2004e-06	23.343	191.888	159.557	137.988	114.007	110.851	229.778	114.171	121.637	188.318	341.241	121.776	128.412	128.681	135.990	312.436	134.887	-8191	255	
2339.012	1	1	0	0	0.19674	0.059746	0.051003	0.21039	0.21394	0.15449	0.048895	0.031762	0.12297	0.23359	0.17315	0.091649	0.10582	0.12323	0.22892	0.12938	-3.8688	-4.5521	-4.9	-4.2146	-4.8396	-4.6687	-4.2479	-4.9229	-4.2271	-4.4812	-5	-4.175	-4.775	-4.8354	-4.1854	-5.2333	422.410	222.317	156.751	124.152	423.255	245.912	379.054	155.594	164.608	280.741	147.186	262.442	197.890	402.107	445.758	267.192	0.00021222	0.00045687	6.7632e-05	1003.2	3.5773e-06	2.5801e-06	1097.3	208.19	3.4847e-06	3.4061e-07	263.08	73.578	57.923	17.002	1.814e-06	23.793	0.00011707	0.00011103	3.006e-05	963.98	1.217e-06	1.1886e-06	1062.8	201.44	1.1882e-06	1.2043e-06	252.25	71.904	56.204	16.66	1.1695e-06	23.309	184.758	164.996	416.322	114.147	238.343	185.198	114.251	121.729	256.718	396.281	121.556	128.163	128.764	136.073	242.387	135.671	-8191	255	
2339.108	1	1	0	0	0.021346	0.093132	0.12966	0.046256	0.06613	0.036956	0.19818	0.15825	0.031473	0.2385	0.016137	0.1432	0.19403	0.051328	0.092502	0.025157	-4.1521	-4.4896	-4.9667	-4.0938	-4.7312	-4.7542	-4.2583	-4.9375	-4.3187	-4.3562	-5.1771	-4.1271	-4.8187	-4.8458	-4.2562	-5.2375	249.810	316.168	383.321	217.942	398.197	186.626	423.320	212.555	256.497	160.375	435.296	377.488	140.154	234.245	323.575	441.171	0.00022065	0.00026935	7.9994e-05	1001.9	2.3208e-06	2.919e-06	1092.9	206.32	1.7183e-06	6.7472e-07	260.9	73.354	58.371	16.805	6.0938e-06	23.524	0.00010869	0.00010626	2.8812e-05	962.12	1.1966e-06	1.13e-06	1061.3	201.04	1.1786e-06	1.1749e-06	251.57	71.927	56.434	16.655	1.212e-06	23.219	194.769	291.885	186.164	114.248	183.939	298.411	114.208	121.781	282.024	246.086	121.432	127.921	128.541	135.647	221.268	134.833	-8191	255	
2339.204	1	1	0	0	0.11318	0.17607	0.086817	0.047881	0.15282	0.27074	0.054616	0.051588	0.07242	0.028704	0.17639	0.094397	0.069059	0.1231	0.20405	0.13154	-4.0875	-4.1438	-4.9104	-4.3604	-4.5687	-4.8187	-4.1917	-4.8375	-4.475	-4.2208	-5.1271	-4.2604	-4.6167	-5.0375	-4.0292	-4.8167	309.698	191.661	440.871	343.712	223.255	439.747	118.826	158.987	454.694	279.474	428.907	147.000	206.237	388.580	224.157	370.906	0.00022218	0.00031148	4.804e-05	999.3	1.901e-06	1.5848e-06	1096.6	207	2.3475e-06	2.2526e-06	261.44	73.948	57.889	16.904	6.9048e-07	23.563	0.00011345	0.00011002	3.0054e-05	962.74	1.214e-06	1.1742e-06	1062.7	201.12	1.1983e-06	1.2021e-06	252.15	71.953	56.186	16.666	1.1985e-06	23.317	196.866	235.790	166.396	114.128	234.536	320.855	114.249	122.184	243.984	223.966	121.757	128.070	128.493	135.848	132.525	135.323	-8191	255	
2339.300	1	1	0	0	0.1569	0.32613	0.071937	0.1526	0.17615	0.1275	0.071584	0.28414	0.13391	0.07202	0.13527	0.19087	0.093888	0.22639	0.045176	0.14339	-4.4208	-4.2229	-5.0792	-4.5	-4.3708	-5.1396	-4.2438	-4.775	-4.75	-4.0917	-5.1062	-4.3479	-4.4208	-5.075	-4.1	-4.7125	308.253	432.641	282.744	429.758	299.676	288.511	344.362	393.494	124.454	369.697	266.724	133.949	395.959	447.335	446.715	121.117	0.00024159	0.00027235	3.94e-05	1002.4	2.5544e-06	2.7685e-06	1091.6	207.05	1.9845e-06	2.6287e-06	259.43	73.688	57.59	16.79	7.0193e-06	23.773	0.00011699	0.00011307	3.0309e-05	962.57	1.2514e-06	1.2189e-06	1061.7	201.17	1.2161e-06	1.2745e-06	251.77	71.888	56.252	16.686	1.241e-06	23.339	196.541	188.344	104.443	114.207	237.808	340.750	114.095	121.730	292.860	194.148	121.427	128.269	128.616	136.148	195.030	134.888	-8191	255	
2339.396	1	1	0	0	0.11465	0.14312	0.19563	0.1351	0.13916	0.027699	0.30363	0.059759	0.25583	0.19973	0.1804	0.10844	0.062786	0.07056	0.10719	0.15085	-4.45	-3.9562	-4.85	-4.6021	-4.4062	-4.9729	-4.2708	-4.6167	-4.7083	-3.9479	-5.0646	-4.5437	-4.3854	-5.0333	-4.0312	-4.6792	357.917	338.742	343.932	315.935	326.065	126.709	374.858	234.888	110.323	208.100	375.427	435.255	447.011	242.424	174.484	284.531	0.00021276	0.0004485	4.1084e-06	1006.4	2.2522e-06	2.8812e-06	1099	207.76	3.542e-06	3.0017e-06	262.92	73.524	57.695	16.932	4.0786e-06	23.637	0.00011781	0.00011481	3.1484e-05	965.43	1.2248e-06	1.2021e-06	1062.3	201.21	1.2425e-06	1.2262e-06	252.44	71.988	56.201	16.689	1.2024e-06	23.337	188.310	155.798	166.641	114.083	225.571	235.762	114.447	121.616	226.147	376.036	120.961	128.143	128.267	135.830	272.681	135.148	-8191	255	
2339.493	1	1	0	0	0.17021	0.12266	0.22313	0.090732	0.15389	0.21325	0.21108	0.036825	0.030673	0.22054	0.14275	0.1895	0.042965	0.20578	0.021217	0.097862	-4.5813	-4.0563	-4.7146	-4.6937	-4.175	-5.0167	-4.4604	-4.7042	-4.9646	-4.1312	-5.0333	-4.7083	-4.2208	-5.0875	-4.4583	-4.35	372.267	408.322	197.088	329.901	155.035	362.225	457.806	226.410	308.358	430.350	443.062	346.450	232.635	391.527	122.212	286.019	0.00022554	0.00033164	0.0001055	1006.7	2.2684e-06	8.9852e-07	1103.1	207.7	3.2856e-06	1.7515e-06	260.25	73.532	57.951	16.728	2.5124e-06	23.776	0.00011418	0.00010995	2.9964e-05	964.11	1.2317e-06	1.1799e-06	1064.9	201.33	1.21e-06	1.2355e-06	251.72	71.935	56.235	16.653	1.1987e-06	23.402	195.299	202.162	139.977	114.130	278.294	251.072	114.382	121.519	268.369	284.612	121.454	128.217	129.113	135.729	187.136	134.885	-8191	255	
2339.589	1	1	0	0	0.10838	0.095083	0.081606	0.11951	0.10087	0.13474	0.19907	0.10369	0.1079	0.12933	0.14188	0.12633	0.12687	0.16218	0.20805	0.041506	-4.5979	-4.0542	-4.6771	-4.8875	-4.0667	-5.1875	-4.5687	-4.5062	-4.9875	-4.0813	-4.7896	-4.8688	-4.1625	-5.0271	-4.4042	-4.5271	114.376	432.798	120.922	159.618	115.134	444.181	423.800	443.756	427.832	238.374	399.385	428.775	449.607	153.121	211.492	157.861	0.00020066	0.00034186	1.0157e-05	1012	1.7611e-06	2.1847e-06	1102.1	207.13	1.6206e-06	1.0635e-06	261.74	74.387	57.56	16.943	4.7928e-06	23.766	0.00011184	0.00010781	3.0064e-05	967.06	1.2228e-06	1.1764e-06	1065.7	201.33	1.1897e-06	1.2037e-06	252.2	72.132	56.245	16.728	1.1868e-06	23.349	196.588	165.782	420.108	113.994	223.976	277.206	114.504	121.790	257.821	150.793	121.244	128.414	128.629	135.994	223.137	135.390	-8191	255	
2339.685	1	1	0	0	0.048159	0.048118	0.051874	0.21856	0.18566	0.21863	0.20502	0.15758	0.15418	0.057132	0.19263	0.25553	0.038371	0.28844	0.23024	0.061761	-4.6562	-4.0396	-4.6896	-4.8917	-4.0958	-4.9792	-4.7271	-4.3771	-4.9688	-4.2292	-4.6292	-4.8917	-4.0542	-5.1146	-4.6396	-4.0896	376.814	291.831	279.354	419.568	410.351	361.831	462.833	234.957	127.381	309.106	409.990	453.838	286.071	410.249	213.802	430.331	0.00022789	0.00024975	0.00010123	1003.6	2.1144e-06	1.5661e-06	1097.6	207.64	2.1867e-06	1.9645e-06	259.53	73.246	57.23	16.978	2.4389e-06	23.907	0.00011461	0.00010726	3.0137e-05	964.81	1.1889e-06	1.155e-06	1063.5	201.5	1.1871e-06	1.1502e-06	251.29	71.877	56.169	16.681	1.1479e-06	23.292	192.207	172.941	260.628	114.083	211.880	265.481	114.145	121.809	284.343	225.797	121.324	128.379	128.586	136.364	198.973	135.184	-8191	255	
2339.804	1	1	0	0	0.30166	0.092494	0.21429	0.36809	0.082079	0.12162	0.24377	0.20766	0.18663	0.22464	0.11299	0.068456	0.19555	0.13297	0.035182	0.08278	-4.9104	-4.1333	-4.6479	-5.0042	-4.1729	-4.9042	-4.7292	-4.1042	-4.9292	-4.3333	-4.6771	-5.0542	-4.2271	-4.7521	-4.8688	-4.1792	442.618	128.333	114.846	438.915	148.210	155.300	396.870	451.904	225.255	142.559	369.689	430.654	148.799	447.102	152.536	443.105	0.00021754	0.00045391	0.00011026	1009	1.1839e-06	2.0534e-06	1101.6	208.79	1.2991e-06	1.6025e-06	261.74	73.726	58.156	17.05	3.4873e-06	23.773	0.00011078	0.00010594	2.9632e-05	965.72	1.1933e-06	1.1635e-06	1066.2	201.52	1.1611e-06	1.1563e-06	252.28	71.943	56.291	16.701	1.1366e-06	23.361	197.420	171.601	253.929	114.363	262.723	240.167	114.485	121.836	286.744	251.664	121.136	127.844	128.824	135.950	232.922	135.384	-8191	255	
2339.877	1	1	0	0	0.09642	0.12365	0.25209	0.15099	0.21315	0.23383	0.084934	0.14881	0.12064	0.062281	0.041918	0.26249	0.11158	0.15066	0.27423	0.17105	-4.7354	-4.2188	-4.3521	-5.1354	-3.9271	-4.6875	-4.8646	-4.2	-4.9583	-4.4854	-4.4437	-5.1708	-4.1708	-4.7625	-4.8313	-4.1646	337.434	293.753	460.912	262.995	286.977	323.260	116.325	426.304	399.750	114.790	250.140	259.550	447.067	146.907	276.447	378.341	0.00024831	0.00015297	0.00010997	1007.4	3.5804e-06	2.8734e-06	1095.8	205.77	2.7386e-06	3.6636e-06	262.12	74.285	57.95	16.925	6.1424e-06	23.922	0.00011005	0.00010206	2.8842e-05	965.83	1.1484e-06	1.1421e-06	1063.7	200.73	1.1579e-06	1.1316e-06	251.9	72.22	56.184	16.674	1.1175e-06	23.337	193.444	180.247	235.478	114.148	229.467	230.781	114.398	122.080	270.489	243.612	120.947	128.200	129.109	136.070	217.881	135.100	-8191	255	
2339.973	1	1	0	0	0.17012	0.12461	0.15475	0.11558	0.07648	0.23115	0.18651	0.16744	0.15852	0.10865	0.14538	0.15294	0.12806	0.21247	0.17232	0.084026	-4.8063	-4.5042	-4.1813	-5.2104	-4.1708	-4.5375	-5.0542	-4.1958	-4.8417	-4.6292	-4.4542	-5.1646	-4.3292	-4.5958	-4.8104	-4.2104	372.108	402.666	153.722	431.611	331.979	228.064	418.130	112.341	265.706	337.922	139.605	392.700	268.978	432.945	159.399	402.923	0.00020552	0.00015838	7.965e-05	1004.1	3.7554e-06	5.1377e-06	1094.7	207.53	3.1552e-06	1.9929e-06	260.48	73.688	57.723	16.862	4.3875e-06	23.663	0.00010877	0.0001037	2.9075e-05	964.8	1.156e-06	1.1507e-06	1062.8	201.45	1.1627e-06	1.1467e-06	251.3	71.837	56.25	16.674	1.1384e-06	23.325	193.126	166.397	221.392	114.265	247.978	233.349	114.333	121.831	247.163	166.172	121.105	128.094	128.730	135.795	242.750	135.380	-8191	255	
2340.092	1	1	0	0	0.069237	0.14997	0.13799	0.31291	0.09369	0.048387	0.25018	0.19646	0.11328	0.036683	0.084406	0.21116	0.07625	0.26065	0.15639	0.29425	-4.5896	-4.5521	-4.2125	-5.0958	-4.4271	-4.4646	-4.9625	-4.0604	-4.7104	-4.625	-4.2875	-5.0146	-4.7021	-4.2292	-5.1104	-4.2604	277.363	113.191	169.826	421.504	178.802	219.919	455.094	448.384	306.015	170.784	293.130	140.042	118.467	141.583	374.102	398.198	0.00023751	0.000396	4.6935e-05	1003.2	3.2172e-06	3.0513e-06	1099.4	207.07	2.1525e-06	2.9205e-06	260.54	73.848	58.108	17.026	2.4217e-06	23.936	0.00011297	0.00010421	3.0284e-05	964.28	1.1876e-06	1.1882e-06	1064.5	201.18	1.2089e-06	1.1683e-06	251.9	72.004	56.426	16.731	1.1647e-06	23.338	208.109	200.769	277.917	114.345	275.699	195.666	114.530	121.745	307.910	210.917	121.404	128.321	128.618	135.693	204.771	134.775	-8191	255	
2340.188	1	1	0	0	0.12676	0.15964	0.23267	0.14827	0.15565	0.28166	0.40924	0.15671	0.15213	0.10027	0.060424	0.34936	0.23016	0.1488	0.1087	0.14461	-4.4229	-4.7167	-4.0062	-5.1042	-4.3667	-4.2562	-5.2083	-4.2021	-4.6146	-4.9167	-4.0458	-5.1188	-4.5583	-4.0583	-5.1354	-4.2146	137.016	136.331	217.792	403.866	145.970	317.001	386.671	436.467	390.082	365.590	388.333	313.468	140.558	157.472	149.657	112.416	0.00024075	0.00024351	0.00014508	1005.5	1.955e-06	3.8882e-06	1096.3	207.26	2.8281e-06	2.4319e-06	263.31	73.761	58.071	16.951	3.1828e-06	23.853	0.00011515	0.00010537	3.0101e-05	965.67	1.1646e-06	1.1777e-06	1064.7	201.09	1.1488e-06	1.1201e-06	251.71	72.004	56.304	16.686	1.1443e-06	23.277	189.481	105.958	216.455	113.815	233.625	185.896	114.278	121.753	241.281	218.878	121.713	128.229	128.883	135.704	195.604	134.886	-8191	255	
2340.284	1	1	0	0	0.1414	0.094425	0.069279	0.12775	0.060717	0.075168	0.085853	0.16444	0.18859	0.092841	0.12071	0.027651	0.24972	0.11047	0.25474	0.058864	-4.2833	-5.0333	-4.0604	-5.0354	-4.425	-4.1792	-5.4292	-4.3625	-4.4833	-5.025	-4.1917	-4.6979	-4.8396	-4.1062	-5.1417	-4.575	254.549	192.709	374.439	282.735	238.382	428.962	390.834	171.417	391.066	107.502	221.281	155.571	413.746	188.881	158.433	154.368	0.00017293	0.00014985	5.0475e-05	996.09	3.3076e-06	2.9666e-06	1099.6	207.62	2.458e-06	2.6036e-06	261.1	74.383	57.876	16.922	1.9409e-06	24.18	0.00011	0.00010174	2.8627e-05	962.32	1.1254e-06	1.1362e-06	1063.5	201.02	1.152e-06	1.0884e-06	251.35	72.131	56.227	16.696	1.1219e-06	23.395	192.814	189.782	337.656	114.258	191.764	215.775	114.262	122.069	220.263	243.355	121.700	127.709	128.863	136.493	209.553	135.201	-8191	255	
2340.381	1	1	0	0	0.10624	0.054237	0.098982	0.26225	0.35987	0.23269	0.17249	0.24747	0.19999	0.10914	0.22252	0.22537	0.12362	0.11777	0.39199	0.075237	-4.1104	-5.1062	-3.9542	-4.875	-4.8354	-4.2312	-5.1312	-4.5833	-4.2667	-5.0312	-4.3208	-4.8396	-4.8708	-3.9708	-4.9896	-4.6	236.862	142.850	132.452	370.648	437.620	383.254	374.899	458.845	189.756	437.495	451.782	136.644	116.459	290.561	247.376	285.615	0.00021457	0.00019446	0.00010314	1001.8	2.7306e-06	9.5574e-07	1093.2	207.77	4.1286e-06	4.0349e-06	261.62	73.908	57.893	16.872	4.3354e-06	23.832	0.00010937	0.00010417	2.8877e-05	962.66	1.1295e-06	1.1641e-06	1061.9	201.56	1.1853e-06	1.141e-06	251.95	71.972	56.317	16.683	1.1133e-06	23.321	197.203	157.068	167.904	114.241	224.015	403.046	114.188	121.960	267.512	215.413	121.461	127.961	128.617	135.918	266.494	135.012	-8191	255	
2340.501	1	1	0	0	0.035581	0.10291	0.11998	0.1885	0.19945	0.10757	0.22533	0.065406	0.16983	0.15914	0.10734	0.18746	0.089794	0.101	0.14395	0.10443	-4.1042	-5.0583	-4.2792	-4.6583	-4.9125	-4.1875	-4.9875	-4.6479	-4.2292	-4.8812	-4.3292	-4.5646	-4.9458	-4.2	-4.7875	-4.6333	245.967	182.661	227.475	367.820	441.539	397.739	333.328	118.749	157.255	335.441	402.992	396.710	191.890	325.924	296.758	129.439	0.00020707	0.00013788	7.8503e-05	998.96	2.0051e-06	3.4117e-06	1097.5	207.32	1.4053e-06	3.5715e-06	259.88	73.794	58.085	16.936	1.9013e-06	23.765	0.00010987	0.00010461	2.8374e-05	962.91	1.1151e-06	1.1143e-06	1062.8	201.02	1.1296e-06	1.08e-06	251.42	71.889	56.271	16.628	1.0823e-06	23.312	196.196	211.535	455.510	113.794	243.077	312.340	114.081	122.120	242.847	200.713	121.561	128.375	128.462	135.582	280.738	134.827	-8191	255	
2340.573	1	1	0	0	0.096728	0.05012	0.21955	0.10423	0.15722	0.26294	0.30857	0.22269	0.056857	0.18374	0.11483	0.1735	0.37298	0.19325	0.095489	0.11292	-3.9792	-4.9729	-4.4479	-4.6229	-5.0646	-4.3313	-5	-4.7333	-3.9833	-5.1083	-4.5104	-4.2	-4.9417	-4.2917	-4.8417	-4.7083	190.056	105.771	393.950	194.532	109.442	259.553	397.373	456.788	438.091	443.599	240.779	239.585	458.906	175.563	345.115	279.456	0.0001996	0.00020375	8.4178e-05	998.81	3.3355e-06	2.0415e-06	1093.2	207.13	3.866e-06	2.0456e-06	259.45	74.013	57.676	17.074	2.4939e-06	23.765	0.00010787	9.7627e-05	2.6883e-05	960.19	1.0699e-06	1.0518e-06	1059.9	200.85	1.0879e-06	1.0356e-06	250.63	71.65	56.119	16.715	1.0741e-06	23.25	194.800	193.886	183.850	114.340	223.858	194.118	114.291	121.923	251.939	320.003	121.024	128.050	128.499	135.562	216.671	135.109	-8191	255	
2340.694	1	1	0	0	0.073041	0.10076	0.11437	0.029568	0.12097	0.22052	0.09241	0.24731	0.13734	0.21053	0.20858	0.32166	0.086627	0.090367	0.05318	0.14977	-3.9042	-4.9062	-4.3688	-4.3313	-4.9646	-4.0458	-4.9583	-4.8688	-4.1729	-4.9729	-4.5375	-4.4021	-5.0354	-4.1333	-4.5458	-4.9979	191.458	172.098	103.970	159.602	460.818	311.262	387.571	394.393	163.116	398.626	187.049	463.685	231.922	117.216	151.590	336.132	0.00023808	0.00024071	8.58e-05	1000.1	2.8233e-06	1.8241e-06	1103.9	208.15	2.6515e-06	3.0615e-06	261.43	73.467	57.321	16.909	2.2673e-06	24.15	0.00010238	9.5732e-05	2.6028e-05	960.4	1.0475e-06	1.0295e-06	1062.9	200.44	1.0748e-06	1.0579e-06	250.63	71.768	56.1	16.7	1.0881e-06	23.417	193.335	185.750	186.751	113.867	233.185	215.444	114.038	121.947	248.082	263.446	121.147	128.003	128.949	135.748	259.947	135.372	-8191	255	
2340.788	1	1	0	0	0.15641	0.20666	0.12991	0.19584	0.056099	0.079515	0.05874	0.10931	0.095299	0.1889	0.21847	0.20376	0.13661	0.1104	0.19435	0.21901	-3.9333	-4.875	-4.6396	-4.2604	-4.9917	-4.3083	-4.7688	-5.1333	-4.0604	-4.7688	-4.5729	-4.1896	-5.0646	-4.3833	-4.3521	-4.9875	194.425	376.047	155.098	424.878	238.736	203.699	116.367	420.069	236.352	291.438	457.858	164.656	122.699	153.836	350.510	138.527	0.0002486	0.00012533	2.2462e-05	1004.7	4.0032e-06	3.8415e-06	1100.7	207.67	1.9328e-06	2.5348e-06	260.49	73.79	57.984	16.97	3.6753e-06	23.709	0.0001056	9.9349e-05	2.6874e-05	961.96	1.0881e-06	1.0871e-06	1061.6	200.9	1.0907e-06	1.0711e-06	250.34	71.925	56.169	16.689	1.0948e-06	23.305	196.619	172.337	364.548	113.965	201.699	258.342	113.983	121.851	261.800	216.645	121.434	128.172	128.459	135.759	211.519	135.094	-8191	255	
2340.884	1	1	0	0	0.054077	0.13635	0.13851	0.12898	0.24189	0.2047	0.097809	0.34488	0.085029	0.27152	0.13096	0.10768	0.055463	0.1014	0.11417	0.086967	-3.8521	-4.6687	-4.6125	-4.1542	-4.9958	-4.2396	-4.5417	-5.1042	-4.1458	-4.7104	-4.8979	-4.0958	-5.2167	-4.4417	-4.3729	-5.0854	254.670	231.887	119.748	407.513	113.188	385.504	414.817	437.031	352.286	163.792	104.460	171.478	124.053	280.721	189.385	452.132	0.00021299	0.00014965	0.00012051	1000.4	4.4261e-06	4.1495e-06	1096.6	207.33	2.3485e-06	3.6512e-06	262.08	73.871	58.154	17.029	3.5668e-06	23.699	0.00010783	0.00010019	2.7272e-05	959.9	1.0873e-06	1.0882e-06	1061.9	200.48	1.0901e-06	1.0941e-06	250.95	71.933	56.141	16.677	1.0927e-06	23.308	201.541	440.109	238.597	113.591	219.803	191.037	113.950	121.600	257.749	295.152	121.275	127.753	128.556	135.507	303.180	134.963	-8191	255	
2340.980	1	1	0	0	0.25938	0.092822	0.075102	0.071921	0.10869	0.093863	0.29259	0.11592	0.29534	0.098703	0.21429	0.032232	0.1404	0.11154	0.10075	0.19746	-3.8563	-4.7146	-4.9229	-4.1813	-4.9771	-4.5813	-4.4146	-5.0292	-4.0208	-4.5833	-5.0396	-4.2104	-5.0125	-4.7396	-4.1917	-5.1062	387.555	409.699	322.445	127.531	163.300	404.431	421.734	433.616	262.874	160.343	260.479	285.394	429.038	286.900	263.500	374.741	0.00022454	0.00011865	3.9247e-05	1001.1	4.5499e-06	5.0558e-07	1092.6	207.46	1.5627e-06	3.233e-06	260.82	73.747	57.278	16.869	5.4905e-07	23.67	0.0001052	9.9357e-05	2.6761e-05	961.58	1.0746e-06	1.0403e-06	1060	201.05	1.0377e-06	1.0417e-06	250.53	71.687	55.937	16.634	1.0102e-06	23.279	195.633	251.485	133.550	113.922	207.542	197.222	114.048	121.666	276.756	252.610	121.519	127.961	128.554	135.701	352.880	135.100	-8191	255	
2341.101	1	1	0	0	0.27961	0.17598	0.099259	0.14165	0.024251	0.035968	0.18166	0.25563	0.067473	0.22097	0.10391	0.26076	0.14295	0.2318	0.074963	0.070463	-4.0042	-4.4729	-4.8896	-4.2042	-4.7917	-4.7333	-4.1521	-4.9333	-4.325	-4.3979	-4.875	-4.1396	-4.8479	-4.7625	-4.1625	-5.0458	177.173	116.783	461.169	444.703	192.301	193.138	376.625	399.962	442.103	149.437	338.499	407.271	308.985	112.325	164.694	365.139	0.00021272	9.1164e-05	5.1029e-05	1003.4	4.2492e-06	3.6461e-06	1099.8	207.36	1.3397e-06	5.7079e-06	260.66	73.877	57.755	16.978	3.2285e-06	23.916	9.8459e-05	9.442e-05	2.5805e-05	960.21	1.038e-06	1.0226e-06	1058	200.82	1.0403e-06	1.0308e-06	250.61	71.744	56.038	16.661	1.054e-06	23.372	196.107	456.901	199.877	113.887	185.916	275.263	113.998	121.717	220.937	216.496	121.410	127.861	128.150	135.988	219.627	135.074	-8191	255	
2341.173	1	1	0	0	0.11317	0.079085	0.12934	0.40369	0.18042	0.030953	0.078461	0.15721	0.096332	0.048333	0.29405	0.23865	0.10061	0.16489	0.11739	0.23882	-4.1062	-4.2625	-4.9938	-4.2167	-4.6854	-4.6875	-4.1375	-5	-4.4375	-4.2604	-5.125	-4.3	-4.8479	-4.9208	-4.1646	-5.0292	408.872	313.391	408.954	401.930	121.132	410.044	122.934	342.267	137.106	349.285	414.337	376.259	301.829	333.353	324.863	364.828	0.00023465	0.00024274	8.0632e-05	1008.9	3.4019e-06	1.1506e-06	1098.6	207.31	2.3075e-06	2.1067e-06	261.86	74.11	58.227	16.871	3.5341e-06	23.896	0.00010219	9.8613e-05	2.6961e-05	961.76	1.0899e-06	1.0702e-06	1061.4	200.85	1.1057e-06	1.0891e-06	251.39	71.849	56.113	16.68	1.0605e-06	23.294	200.624	191.577	199.955	113.924	217.476	220.970	114.248	121.866	275.217	195.271	121.596	127.913	128.322	135.692	242.906	135.106	-8191	255	
2341.269	1	1	0	0	0.11013	0.015443	0.076819	0.22029	0.24517	0.070781	0.14889	0.028758	0.081738	0.1587	0.20356	0.025563	0.24413	0.18833	0.098952	0.20983	-4.2396	-4.2792	-4.9521	-4.2937	-4.5687	-4.8708	-4.1708	-4.9542	-4.4812	-4.0938	-5.1813	-4.0875	-4.4812	-4.8875	-3.8625	-4.9667	147.136	336.756	321.015	431.926	339.407	115.594	355.437	126.926	238.127	242.609	380.166	142.117	414.101	208.397	260.198	191.195	0.00018119	0.00026317	6.6694e-05	1003.1	4.8946e-07	1.8025e-06	1100.1	207.44	1.7056e-06	3.2285e-06	260.33	74.442	58.108	17.079	3.3946e-06	23.95	9.9651e-05	9.6641e-05	2.5318e-05	960.34	1.0447e-06	1.0045e-06	1057.9	200.45	1.0555e-06	1.0496e-06	250.51	71.874	56.206	16.653	1.1058e-06	23.302	205.028	168.204	154.349	113.761	343.068	250.411	114.184	121.541	231.802	266.059	121.108	128.104	128.763	136.336	194.666	134.687	-8191	255	
2341.365	1	1	0	0	0.070643	0.17864	0.085665	0.035491	0.066507	0.073963	0.23354	0.28384	0.055359	0.3492	0.14985	0.059148	0.15272	0.097826	0.045453	0.16409	-4.4458	-4.0292	-5.2021	-4.4604	-4.1562	-5.0771	-4.1625	-4.75	-4.7229	-4.0646	-5.0188	-4.4479	-4.3896	-5.0125	-4.0375	-4.7937	393.664	351.090	120.133	287.999	427.767	424.577	423.301	417.987	233.887	420.966	459.077	324.817	109.352	437.581	438.629	438.991	0.00020202	0.00038918	3.5566e-05	1004.6	1.6627e-06	3.8815e-06	1094.4	206.92	1.8426e-06	4.6892e-06	262.09	73.757	57.357	17.001	3.8663e-06	23.956	0.00010371	0.00010123	2.8096e-05	961.34	1.1546e-06	1.1202e-06	1059.1	200.73	1.1417e-06	1.1478e-06	251.17	71.876	56.105	16.7	1.145e-06	23.403	190.289	167.697	462.210	113.936	175.278	240.949	114.192	121.536	210.564	241.254	121.308	127.951	128.286	135.937	228.102	135.390	-8191	255	
2341.485	1	1	0	0	0.13691	0.049617	0.17087	0.086347	0.066908	0.056637	0.26443	0.29045	0.18992	0.032502	0.039236	0.14542	0.44658	0.10528	0.14851	0.13526	-4.5729	-4.1667	-4.9	-4.5271	-4.2229	-4.9792	-4.475	-4.4979	-4.7833	-4.0604	-5.0375	-4.5542	-4.2104	-5.1562	-4.0458	-4.5667	400.857	306.859	131.896	135.992	377.611	245.145	408.931	116.942	327.720	216.331	323.508	200.299	445.759	130.102	225.164	407.015	0.00026048	0.00014323	4.0887e-05	1003.8	3.0112e-06	3.8606e-06	1093.9	207.98	2.0465e-06	1.5378e-06	260.11	73.519	57.847	17.002	5.2233e-06	23.997	0.000112	0.000107	2.8091e-05	963	1.192e-06	1.1144e-06	1059.7	200.96	1.1204e-06	1.1403e-06	251.05	71.708	56.048	16.672	1.0561e-06	23.351	198.801	227.378	427.485	114.057	176.507	269.377	114.023	121.742	183.165	308.487	121.194	128.127	128.591	135.894	239.559	134.768	-8191	255	
2341.582	1	1	0	0	0.23773	0.01628	0.05866	0.20406	0.13996	0.12887	0.21589	0.27343	0.15876	0.17098	0.40684	0.18807	0.1373	0.27868	0.17523	0.03981	-4.625	-4.0375	-4.9313	-4.6521	-4.1521	-4.9104	-4.4021	-4.5208	-4.9187	-4.0708	-4.8771	-4.7	-4.2625	-4.9854	-4.3083	-4.3125	135.131	367.555	455.331	432.976	130.562	121.924	455.368	288.971	359.288	157.981	385.369	453.899	324.906	304.111	202.385	320.458	0.00020849	0.00030477	0.00010135	995.69	2.089e-06	6.4167e-07	1092.3	206.54	3.1252e-06	2.7356e-06	261.39	73.382	58.128	17.065	3.6569e-06	23.723	0.00010255	9.8232e-05	2.6581e-05	957.7	1.0693e-06	1.051e-06	1058	200.35	1.0356e-06	1.0396e-06	250.47	71.742	55.912	16.621	1.0299e-06	23.327	196.831	186.885	180.651	113.893	222.282	229.441	114.160	121.533	260.428	232.427	120.799	128.037	128.271	135.928	238.855	135.015	-8191	255	
2341.678	1	1	0	0	0.08352	0.14445	0.077427	0.23067	0.10828	0.1324	0.2381	0.21927	0.052263	0.05816	0.19884	0.19498	0.081691	0.18149	0.23375	0.29775	-4.6896	-4.1354	-4.6396	-4.7604	-4.1375	-4.9896	-4.5875	-4.4521	-4.8354	-4.1708	-4.6792	-4.7292	-4.0229	-5.0813	-4.5	-4.3375	176.656	113.590	378.126	411.125	346.965	261.895	398.394	365.562	170.031	295.447	108.590	134.781	410.211	304.158	391.526	385.006	0.0002799	8.8855e-05	0.00011266	998.66	2.8216e-06	2.866e-06	1089.9	206.53	1.8955e-06	1.5684e-06	260.89	73.884	57.87	16.828	1.6021e-06	23.769	0.00010042	9.501e-05	2.6285e-05	958.73	1.027e-06	1.0205e-06	1055.4	200.46	1.0276e-06	1.011e-06	250.09	71.436	55.945	16.6	1.0462e-06	23.326	202.969	261.419	228.572	113.906	218.511	257.150	114.187	121.369	283.434	418.659	121.502	127.883	128.403	136.224	208.638	135.515	-8191	255	
2341.774	1	1	0	0	0.079915	0.18986	0.10015	0.14672	0.030347	0.2023	0.092743	0.20784	0.11373	0.15014	0.20063	0.14618	0.1315	0.068004	0.01841	0.10078	-4.7812	-4.3104	-4.6354	-4.8458	-3.9708	-4.9646	-4.5896	-4.2937	-4.9896	-4.2125	-4.5042	-5.0542	-4.05	-4.9458	-4.6062	-4.3812	152.287	196.970	172.068	135.182	172.862	456.208	150.397	423.043	141.186	320.965	370.844	238.863	295.339	264.113	363.088	281.185	0.00022926	0.0003576	0.00011782	1003.3	3.8694e-07	2.9244e-06	1090.9	206.21	2.4967e-06	3.5083e-06	258.85	73.255	58.014	16.995	8.8034e-06	23.61	0.00010285	9.571e-05	2.7014e-05	958.78	1.0857e-06	1.0629e-06	1057.4	200.12	1.0759e-06	1.0715e-06	249.71	71.628	56.201	16.72	1.0454e-06	23.292	199.096	257.337	144.701	114.153	413.487	230.724	114.176	121.573	288.154	276.120	121.214	128.233	128.439	135.798	233.094	135.042	-8191	255	
2341.868	1	1	0	0	0.021384	0.15797	0.236	0.16555	0.20485	0.0096639	0.058727	0.22627	0.048096	0.2029	0.11204	0.073021	0.03494	0.15112	0.20459	0.14471	-4.5625	-4.2896	-4.4708	-5.1813	-3.9917	-4.9083	-4.8854	-4.2792	-4.9896	-4.3917	-4.3979	-4.9542	-4.1813	-4.7354	-4.75	-4.0708	208.700	433.946	392.270	460.631	251.515	419.921	434.782	432.730	148.263	451.483	157.679	401.426	190.067	375.979	375.794	406.673	0.00026623	5.4901e-05	4.4983e-05	1001.2	4.7997e-07	2.7087e-06	1091.6	206.83	2.939e-06	3.0631e-06	260.81	73.966	57.694	16.872	3.9151e-06	23.783	0.00010438	9.7251e-05	2.747e-05	960.09	1.0776e-06	1.0454e-06	1058.3	200.1	1.0483e-06	1.0295e-06	250.36	71.603	56.043	16.66	1.0483e-06	23.268	199.268	260.341	309.578	114.127	313.132	255.389	114.132	121.942	291.418	276.292	121.164	128.239	128.842	135.696	230.498	134.647	-8191	255	
2341.964	1	1	0	0	0.053895	0.085736	0.080189	0.13058	0.12864	0.090044	0.26181	0.031597	0.077754	0.13542	0.22861	0.027561	0.17159	0.22057	0.17323	0.15212	-4.6562	-4.25	-4.1396	-5.1292	-3.9896	-4.5771	-4.9292	-4.2208	-4.9917	-4.3646	-4.2625	-5.1167	-4.125	-4.525	-4.7042	-4.1813	365.888	390.700	186.391	337.740	435.223	166.077	398.810	370.173	239.753	352.829	394.193	437.171	123.995	263.863	131.542	118.315	0.00026648	0.00028004	9.4282e-05	1003.5	9.3548e-07	1.4192e-06	1095.6	206.98	8.3259e-07	1.0579e-06	260.35	73.825	57.755	16.951	3.5129e-06	23.733	0.00010138	9.4686e-05	2.6429e-05	959.36	1.0517e-06	1.0722e-06	1058.9	200.22	1.0439e-06	9.9733e-07	250.38	71.628	55.849	16.606	9.8241e-07	23.222	188.162	129.265	220.552	114.083	123.021	288.575	114.317	121.493	259.501	329.592	121.348	128.072	128.825	135.610	251.190	135.159	-8191	255	
2342.085	1	1	0	0	0.15806	0.23728	0.1503	0.16071	0.26196	0.11239	0.080291	0.29866	0.10847	0.19757	0.094377	0.058723	0.10477	0.15163	0.23061	0.20105	-4.5875	-4.4896	-4.1625	-5.0104	-4.2	-4.3771	-5.0646	-4.1146	-4.7042	-4.6375	-4.3208	-4.9729	-4.3354	-4.4646	-4.8979	-4.1854	453.978	219.969	422.949	424.998	127.182	164.869	355.154	412.393	242.563	157.442	216.386	189.669	175.899	460.955	228.927	108.097	0.00023157	0.00015922	2.3819e-05	1000.7	3.0529e-06	7.0886e-07	1090.2	208.36	1.4402e-06	6.6742e-07	258.84	73.651	57.682	16.944	5.0843e-06	23.88	9.8213e-05	8.9437e-05	2.5791e-05	958.69	1.0056e-06	1.0143e-06	1055.1	200.22	1.022e-06	1.0111e-06	249.23	71.445	55.78	16.624	1.0119e-06	23.282	202.369	162.761	269.816	114.212	241.649	405.592	114.189	121.750	264.421	396.857	121.173	128.030	128.447	135.590	191.625	134.497	-8191	255	
#DATA ENDS
