BOXY.EXE: ISS Imagent and Oximeter Data Acquisition Program Version 0.80
Ascii Record File

#ACQ INFORMATION
2  Detector Channels 
16  External MUX Channels 
1  Auxiliary Channels 
5000  Waveform (CCF) Frequency (Hz)
1  Waveforms Skipped 
30  Waveforms Averaged 
1  Cycles Averaged 
16  Acquisitions per Waveform 
10.0806  Updata Rate (Hz) 

#FILE INFORMATION
TRUE -- External MUX Channel results are PARSED.
FALSE -- AC DC and Phase are NOT grouped.
TRUE -- Companion Program Settings File CREATED.
FALSE -- AC data not excluded
FALSE -- DC data not excluded
FALSE -- Phase data not excluded
FALSE -- Auxillary Chn. data not excluded
Tab delimiters

#CALIBRATION STATE
TRUE -- Waveform Calibration Values APPLIED.


#AUX CALIBRATION VALUES
Val Type	aux-1	

Term	1.0000e+00	
Factor	0.0000e+00	


#WF CALIBRATION VALUES
A = Detector Channel
Val Type	A-AC1	A-AC2	A-AC3	A-AC4	A-AC5	A-AC6	A-AC7	A-AC8	A-AC9	A-AC10	A-AC11	A-AC12	A-AC13	A-AC14	A-AC15	A-AC16	A-DC1	A-DC2	A-DC3	A-DC4	A-DC5	A-DC6	A-DC7	A-DC8	A-DC9	A-DC10	A-DC11	A-DC12	A-DC13	A-DC14	A-DC15	A-DC16	A-Ph1	A-Ph2	A-Ph3	A-Ph4	A-Ph5	A-Ph6	A-Ph7	A-Ph8	A-Ph9	A-Ph10	A-Ph11	A-Ph12	A-Ph13	A-Ph14	A-Ph15	A-Ph16	

Term	0.00000e+00	0.00000e+00	0.00000e+00	0.00000e+00	0.00000e+00	0.00000e+00	0.00000e+00	0.00000e+00	0.00000e+00	0.00000e+00	0.00000e+00	0.00000e+00	0.00000e+00	0.00000e+00	0.00000e+00	0.00000e+00	0.00000e+00	0.00000e+00	0.00000e+00	0.00000e+00	0.00000e+00	0.00000e+00	0.00000e+00	0.00000e+00	0.00000e+00	0.00000e+00	0.00000e+00	0.00000e+00	0.00000e+00	0.00000e+00	0.00000e+00	0.00000e+00	0.00000e+00	0.00000e+00	0.00000e+00	0.00000e+00	0.00000e+00	0.00000e+00	0.00000e+00	0.00000e+00	0.00000e+00	0.00000e+00	0.00000e+00	0.00000e+00	0.00000e+00	0.00000e+00	0.00000e+00	0.00000e+00	
Factor	1.00000e+00	1.00000e+00	1.00000e+00	1.00000e+00	1.00000e+00	1.00000e+00	1.00000e+00	1.00000e+00	1.00000e+00	1.00000e+00	1.00000e+00	1.00000e+00	1.00000e+00	1.00000e+00	1.00000e+00	1.00000e+00	1.00000e+00	1.00000e+00	1.00000e+00	1.00000e+00	1.00000e+00	1.00000e+00	1.00000e+00	1.00000e+00	1.00000e+00	1.00000e+00	1.00000e+00	1.00000e+00	1.00000e+00	1.00000e+00	1.00000e+00	1.00000e+00	X	X	X	X	X	X	X	X	X	X	X	X	X	X	X	X	

B = Detector Channel
Val Type	B-AC1	B-AC2	B-AC3	B-AC4	B-AC5	B-AC6	B-AC7	B-AC8	B-AC9	B-AC10	B-AC11	B-AC12	B-AC13	B-AC14	B-AC15	B-AC16	B-DC1	B-DC2	B-DC3	B-DC4	B-DC5	B-DC6	B-DC7	B-DC8	B-DC9	B-DC10	B-DC11	B-DC12	B-DC13	B-DC14	B-DC15	B-DC16	B-Ph1	B-Ph2	B-Ph3	B-Ph4	B-Ph5	B-Ph6	B-Ph7	B-Ph8	B-Ph9	B-Ph10	B-Ph11	B-Ph12	B-Ph13	B-Ph14	B-Ph15	B-Ph16	

Term	0.00000e+00	0.00000e+00	0.00000e+00	0.00000e+00	0.00000e+00	0.00000e+00	0.00000e+00	0.00000e+00	0.00000e+00	0.00000e+00	0.00000e+00	0.00000e+00	0.00000e+00	0.00000e+00	0.00000e+00	0.00000e+00	0.00000e+00	0.00000e+00	0.00000e+00	0.00000e+00	0.00000e+00	0.00000e+00	0.00000e+00	0.00000e+00	0.00000e+00	0.00000e+00	0.00000e+00	0.00000e+00	0.00000e+00	0.00000e+00	0.00000e+00	0.00000e+00	5.02154e+01	-1.32405e+02	-1.47391e+02	-1.83881e+02	-8.20819e+01	-8.66762e+01	-1.57075e+02	-1.62015e+02	-7.94944e+01	-6.27886e+01	-1.70957e+02	-1.80827e+02	-1.85561e+02	-1.77392e+02	-9.92128e+01	-1.49845e+02	
Factor	5.63882e-05	1.67542e-04	4.49109e-05	4.66696e-01	1.40981e-06	1.64914e-06	1.77017e-01	5.24616e-02	2.06034e-06	1.99947e-06	9.54699e-02	4.98864e-01	4.32062e-02	9.42584e-03	1.90913e-06	1.39813e-02	1.79557e-06	1.86772e-06	5.19171e-07	2.26299e-01	2.03251e-08	2.04394e-08	8.27099e-02	2.63328e-02	2.02657e-08	2.04744e-08	4.59338e-02	1.56454e-01	2.12334e-02	4.72644e-03	2.03343e-08	6.74301e-03	X	X	X	X	X	X	X	X	X	X	X	X	X	X	X	X	



#DISTANCE SETTINGS
A = Detector Channel
A-1	A-2	A-3	A-4	A-5	A-6	A-7	A-8	A-9	A-10	A-11	A-12	A-13	A-14	A-15	A-16	

2.5000e+00	3.0000e+00	2.5000e+00	3.0000e+00	2.0000e+00	3.0000e+00	1.5000e+00	3.0000e+00	3.0000e+00	3.0000e+00	3.0000e+00	3.0000e+00	3.0000e+00	3.0000e+00	1.5000e+00	3.0000e+00	

B = Detector Channel
B-1	B-2	B-3	B-4	B-5	B-6	B-7	B-8	B-9	B-10	B-11	B-12	B-13	B-14	B-15	B-16	

1.0000e+01	1.0000e+01	1.0000e+01	1.4400e+00	1.0000e+01	1.0000e+01	1.5100e+00	1.9400e+00	1.0000e+01	1.0000e+01	1.9900e+00	2.4900e+00	2.4100e+00	2.9000e+00	1.0000e+01	2.9800e+00	




#DATA BEGINS
time	group	step	mark	flag	A-AC1	A-AC2	A-AC3	A-AC4	A-AC5	A-AC6	A-AC7	A-AC8	A-AC9	A-AC10	A-AC11	A-AC12	A-AC13	A-AC14	A-AC15	A-AC16	A-DC1	A-DC2	A-DC3	A-DC4	A-DC5	A-DC6	A-DC7	A-DC8	A-DC9	A-DC10	A-DC11	A-DC12	A-DC13	A-DC14	A-DC15	A-DC16	A-Ph1	A-Ph2	A-Ph3	A-Ph4	A-Ph5	A-Ph6	A-Ph7	A-Ph8	A-Ph9	A-Ph10	A-Ph11	A-Ph12	A-Ph13	A-Ph14	A-Ph15	A-Ph16	B-AC1	B-AC2	B-AC3	B-AC4	B-AC5	B-AC6	B-AC7	B-AC8	B-AC9	B-AC10	B-AC11	B-AC12	B-AC13	B-AC14	B-AC15	B-AC16	B-DC1	B-DC2	B-DC3	B-DC4	B-DC5	B-DC6	B-DC7	B-DC8	B-DC9	B-DC10	B-DC11	B-DC12	B-DC13	B-DC14	B-DC15	B-DC16	B-Ph1	B-Ph2	B-Ph3	B-Ph4	B-Ph5	B-Ph6	B-Ph7	B-Ph8	B-Ph9	B-Ph10	B-Ph11	B-Ph12	B-Ph13	B-Ph14	B-Ph15	B-Ph16	aux-1	digaux	

910.732	1	1	0	256	0.17812	0.15867	0.24099	0.14094	0.051425	0.14616	0.084643	0.36755	0.1491	0.34091	0.51855	0.039159	0.11167	0.34413	0.049886	0.17809	-1.8104	-2.3458	-1.9979	-2.4292	-2.0438	-2.3312	-2.6583	-2.1146	-2.4729	-2.4	-2.2333	-2.3958	-2.3	-2.1146	-2.4708	-2.1833	96.464	225.466	213.043	-29.899	170.605	216.342	254.449	218.915	-3.681	130.792	241.705	-48.262	291.931	233.881	81.420	254.121	0.00044431	0.000742	9.056e-05	1367.4	5.8154e-06	1.2244e-06	1364.4	369.9	9.3004e-06	2.4924e-06	420.65	135.26	120.04	40.673	1.2087e-05	50.843	0.00093918	0.00095674	0.00026564	1434.2	1.0405e-05	1.035e-05	1400.5	382.1	1.0056e-05	9.9779e-06	437.91	170.03	126.84	42.741	9.636e-06	53.456	6.462	69.102	-64.997	-53.523	25.047	125.082	-53.610	-48.903	245.720	153.274	-49.490	-43.965	-44.191	-39.959	120.121	-40.489	-8191	255	
910.828	1	1	0	0	0.093715	0.092507	0.28098	0.050975	0.034534	0.12659	0.34366	0.25125	0.20308	0.13696	0.39516	0.046694	0.24767	0.23577	0.21688	0.25864	-1.7083	-2.225	-1.975	-2.4354	-2.0729	-2.1521	-2.6604	-2.1271	-2.3292	-2.3854	-2.225	-2.4125	-2.2229	-2.1188	-2.5771	-2.1896	231.785	142.212	27.747	-7.077	-60.402	2.419	286.181	254.228	-7.862	85.733	241.078	124.479	218.914	248.586	216.866	-41.057	0.00050507	0.00050791	0.0002254	1356.8	3.496e-06	2.381e-06	1357.4	369	7.9988e-06	9.3173e-06	422.07	137.13	120.01	40.575	7.0484e-06	50.695	0.00086545	0.00088682	0.0002428	1416.6	9.5181e-06	9.5125e-06	1390.8	379.77	9.4531e-06	9.5288e-06	436.74	168.78	126.56	42.586	9.4891e-06	53.314	-0.657	4.468	23.108	-53.393	16.539	151.710	-53.616	-48.780	126.594	106.298	-49.275	-43.344	-44.436	-39.850	110.395	-40.712	-8191	255	
910.922	1	1	0	0	0.25083	0.12636	0.13048	0.13859	0.19187	0.16642	0.19493	0.027246	0.16936	0.12817	0.13878	0.061887	0.16715	0.23961	0.12111	0.18466	-1.7625	-2.5542	-2.0167	-2.4062	-2.3583	-1.9458	-2.6188	-2.4104	-2.1646	-2.3312	-2.1167	-2.3521	-2.3333	-2.0625	-2.3083	-2.2458	108.967	102.178	119.734	-59.202	210.354	-26.719	152.612	-37.219	117.172	269.998	183.192	126.352	283.990	248.693	171.084	202.708	0.00061716	0.0005617	8.3843e-05	1353.6	3.725e-06	1.1588e-05	1362.1	369.99	3.8945e-06	6.3532e-06	420.28	138.8	120.04	40.751	8.625e-06	50.888	0.000852	0.00086678	0.00024282	1413.7	9.4798e-06	9.4123e-06	1390.8	379.95	9.2781e-06	9.3805e-06	435.55	166.13	126.18	42.59	9.2657e-06	53.299	-9.533	60.070	67.018	-53.670	53.788	150.041	-53.614	-48.866	277.861	52.257	-49.301	-43.008	-44.334	-40.056	289.950	-40.737	-8191	255	
911.018	1	1	0	0	0.29094	0.17323	0.17899	0.15084	0.28592	0.081315	0.12736	0.094744	0.27098	0.22475	0.42009	0.12333	0.1519	0.25515	0.26651	0.36136	-1.6833	-2.2729	-1.8958	-2.5021	-2.3833	-1.9917	-2.6792	-2.3125	-2.0062	-2.3875	-2.2667	-2.1708	-2.5	-2.0438	-2.5062	-2.3167	37.885	234.823	7.881	-54.925	274.342	269.361	274.064	79.765	274.124	281.581	250.838	262.340	170.261	243.533	86.745	177.742	0.00047948	0.00018532	0.00016018	1358.6	3.5165e-06	1.6318e-06	1362.2	369.58	7.3508e-06	8.6506e-06	421.47	138.26	120.61	40.852	4.2011e-06	50.778	0.00084186	0.0008559	0.00023943	1416.3	9.5333e-06	9.5502e-06	1394.6	380.35	9.6987e-06	9.8472e-06	437.61	171.76	127.09	42.828	1.0085e-05	53.647	-35.113	88.596	27.592	-53.430	-24.206	-18.243	-53.497	-48.734	90.465	95.265	-49.181	-44.348	-44.578	-39.821	-24.534	-40.540	-8191	255	
911.114	1	1	0	0	0.20731	0.043412	0.23258	0.062141	0.1355	0.19139	0.17434	0.28244	0.083194	0.12384	0.17534	0.14429	0.22006	0.10175	0.050809	0.12008	-1.4062	-2.4688	-1.9917	-2.2417	-2.2917	-1.9625	-2.4396	-2.3625	-1.8875	-2.6229	-2.2771	-2.2167	-2.5792	-2.1854	-2.4625	-2.3937	136.999	218.582	196.076	32.557	106.263	200.669	167.352	254.953	-61.773	166.595	264.762	113.630	87.087	147.271	-8.496	270.134	0.00040883	0.00032163	0.00013564	1359.8	3.9053e-06	1.2027e-05	1359.8	369.87	7.1303e-06	2.477e-06	423.65	137.81	119.61	40.824	3.9093e-06	50.767	0.00091515	0.00093293	0.00025879	1422.3	1.0123e-05	1.0136e-05	1394.3	380.92	9.9324e-06	9.9077e-06	437.96	171.59	126.75	42.728	9.7048e-06	53.43	9.137	45.163	-62.834	-53.853	277.980	52.371	-53.419	-48.919	257.258	286.338	-49.583	-43.050	-44.407	-39.938	92.197	-40.669	-8191	255	
911.235	1	1	0	0	0.046094	0.23894	0.038837	0.14156	0.12887	0.19731	0.41548	0.42125	0.059425	0.070371	0.13613	0.099815	0.13559	0.17839	0.19129	0.30034	-1.6229	-2.3771	-2.0125	-2.1479	-2.2896	-1.9167	-2.4729	-2.4062	-2.0458	-2.4667	-2.3167	-2.1813	-2.3292	-2.1417	-2.2958	-2.475	264.757	232.549	-63.870	266.784	241.398	-58.703	272.321	240.698	278.980	185.565	278.540	206.144	168.471	266.653	288.857	233.488	0.00059765	0.0009284	9.3326e-05	1354.3	3.9562e-06	3.2886e-06	1364.2	369.75	5.9278e-06	1.2292e-05	422.22	137.84	120.34	40.671	8.6215e-06	50.935	0.0008698	0.0008808	0.00024437	1413.8	9.5803e-06	9.6247e-06	1394.6	380.37	9.633e-06	9.6428e-06	437.85	169.31	126.8	42.692	9.637e-06	53.337	-10.495	38.785	194.761	-53.478	127.655	129.783	-53.330	-48.794	174.533	76.206	-49.504	-43.806	-44.412	-39.777	130.852	-40.723	-8191	255	
911.331	1	1	0	0	0.32508	0.12068	0.081384	0.067438	0.20459	0.30208	0.23623	0.32408	0.24083	0.15487	0.077394	0.073743	0.16589	0.15991	0.31615	0.23307	-1.5938	-2.3208	-2.1979	-2.2646	-2.5333	-2.05	-2.4562	-2.6375	-2.2104	-2.4021	-2.2354	-1.9958	-2.4125	-2.3167	-2.1625	-2.3937	75.940	-40.122	71.549	141.980	-16.433	45.352	232.480	201.671	-35.126	154.862	157.451	96.603	215.345	179.547	12.209	147.949	0.00059727	0.00068076	0.00017047	1363.1	1.3758e-06	3.6521e-06	1364.3	369.15	2.2455e-06	7.6989e-06	422.6	140.6	120.23	40.8	4.4929e-06	50.916	0.0008552	0.00087103	0.00024106	1416.2	9.4202e-06	9.4536e-06	1394.4	380.1	9.2989e-06	9.452e-06	437.53	167.42	126.6	42.692	9.3468e-06	53.38	-14.062	-31.637	-42.197	-53.432	85.275	128.645	-53.444	-48.733	141.553	59.516	-49.222	-43.395	-44.448	-39.862	119.000	-40.584	-8191	255	
911.403	1	1	0	0	0.16865	0.19664	0.054931	0.23825	0.15488	0.071952	0.34613	0.34044	0.15924	0.14764	0.15121	0.20619	0.11551	0.14384	0.24147	0.14886	-1.4438	-2.3875	-2.2729	-1.9625	-2.45	-2.1521	-2.4271	-2.375	-1.8917	-2.3312	-2.4583	-2.2167	-2.4688	-2.1708	-2.1646	-2.4104	278.277	39.033	-36.650	196.740	264.040	7.842	254.509	233.234	65.159	129.868	32.221	-38.944	-43.067	0.550	3.103	54.710	0.00042786	0.00031071	0.00021726	1370	7.3455e-06	8.138e-06	1367	368.74	1.3357e-05	4.7437e-06	420.76	141.36	120.01	40.681	9.563e-06	50.89	0.00084716	0.00086192	0.00024088	1420.1	9.4876e-06	9.5146e-06	1397	380.19	9.4143e-06	9.5485e-06	436.79	168.32	126.92	42.684	9.4469e-06	53.463	-19.287	185.102	27.363	-53.624	115.198	-8.699	-53.596	-48.935	142.926	93.416	-49.427	-45.347	-44.345	-39.875	36.485	-40.634	-8191	255	
911.499	1	1	0	0	0.043699	0.095954	0.203	0.34695	0.11562	0.41276	0.072288	0.26871	0.1064	0.22558	0.34228	0.2688	0.21247	0.20926	0.050185	0.5426	-1.6104	-2.2438	-2.1646	-2.1729	-2.6229	-2.0687	-2.3771	-2.5625	-2.0375	-2.1562	-2.4062	-1.7938	-2.4292	-2.2625	-2.0854	-2.4958	13.136	139.118	58.922	235.377	169.096	291.613	269.737	131.783	239.160	255.030	286.156	43.334	185.790	-24.935	264.723	217.639	0.00038814	0.00073375	0.00019066	1362.1	4.631e-06	2.9366e-06	1361.5	369.81	1.7481e-06	6.1838e-06	422.91	139.94	120.69	40.885	7.6528e-06	51.036	0.00085984	0.00087949	0.00024291	1420.2	9.5372e-06	9.5964e-06	1396.1	380.56	9.4846e-06	9.4858e-06	437.15	168.18	126.98	42.727	9.5459e-06	53.416	-20.617	23.868	92.225	-53.219	110.075	90.548	-53.389	-48.865	250.193	72.836	-49.509	-44.933	-44.852	-39.880	105.192	-40.706	-8191	255	
911.620	1	1	0	0	0.11206	0.17101	0.10966	0.18834	0.12604	0.047107	0.20913	0.31556	0.066869	0.3064	0.22599	0.25954	0.13266	0.32308	0.10574	0.31508	-1.7542	-2.4875	-2.2167	-1.9625	-2.4542	-2.225	-2.2167	-2.5687	-2.1667	-2.3208	-2.4396	-1.9771	-2.525	-2.2958	-1.9854	-2.625	-44.522	30.446	283.972	174.340	158.226	101.849	197.385	197.100	133.091	-53.303	168.654	234.877	236.483	199.975	29.279	270.464	0.00030009	0.00039891	0.00018751	1358.8	5.244e-06	5.5552e-06	1361.8	370.46	3.7795e-06	6.2181e-06	422.17	137.99	120.27	40.679	8.9565e-06	50.71	0.00086389	0.00087754	0.00024552	1418.8	9.6106e-06	9.7153e-06	1395.2	381.06	9.5876e-06	9.6374e-06	437.2	168.87	126.83	42.726	9.6342e-06	53.364	2.927	75.107	44.165	-53.779	52.833	68.174	-53.591	-48.982	-50.154	99.547	-49.273	-45.123	-44.424	-39.920	21.848	-40.486	-8191	255	
911.716	1	1	0	0	0.44225	0.14118	0.24553	0.23734	0.11132	0.23447	0.15862	0.15147	0.14988	0.12189	0.17414	0.26468	0.19827	0.095908	0.32282	0.076731	-1.6938	-2.2104	-2.3792	-1.9625	-2.4229	-2.1833	-2.1958	-2.6021	-2.1583	-2.1979	-2.5521	-2.0792	-2.4021	-2.3375	-2.0812	-2.5042	-4.070	-64.747	-8.331	292.779	25.568	223.907	219.547	291.939	-44.152	17.970	112.360	269.260	186.779	257.615	36.693	-59.340	0.00021062	0.00034193	7.5175e-05	1364.2	3.8098e-06	5.0936e-06	1367	369.78	3.0645e-06	3.83e-06	421.41	138.26	120.25	40.739	1.0197e-05	50.615	0.00085974	0.00087712	0.00024355	1418.4	9.4954e-06	9.5107e-06	1395.5	380.46	9.5727e-06	9.6074e-06	436.89	168.72	126.54	42.701	9.4839e-06	53.375	-10.267	-16.893	-32.695	-53.377	147.030	66.059	-53.573	-48.867	132.251	128.096	-49.269	-45.193	-44.401	-39.732	13.662	-40.555	-8191	255	
911.812	1	1	0	0	0.10026	0.21667	0.034495	0.16535	0.10323	0.17458	0.16965	0.21362	0.053103	0.13239	0.36354	0.17713	0.054363	0.27826	0.15978	0.254	-1.9042	-2.0229	-2.425	-2.175	-2.4229	-2.4771	-2.2687	-2.6312	-2.2812	-2.2375	-2.6708	-2.0792	-2.3812	-2.3729	-1.9062	-2.5083	245.253	131.239	185.020	18.068	150.120	6.444	240.528	218.230	257.251	-60.370	257.531	191.231	-25.585	4.556	149.152	214.006	0.00063076	0.00078057	0.00029715	1359.4	7.8331e-07	1.7162e-06	1361.6	369.54	1.4078e-06	6.1034e-06	422.5	138.4	120.58	40.757	7.5664e-06	50.547	0.00086014	0.00087365	0.0002427	1418.4	9.4411e-06	9.5163e-06	1393.3	379.69	9.4045e-06	9.4075e-06	436.82	166.81	126.64	42.592	9.3908e-06	53.138	-9.961	-61.159	-25.960	-53.736	67.625	189.063	-53.594	-49.009	-55.557	149.164	-49.406	-44.072	-44.780	-39.998	92.726	-40.775	-8191	255	
911.931	1	1	0	0	0.20437	0.18716	0.11064	0.1042	0.20838	0.15082	0.30607	0.3338	0.090208	0.20394	0.10078	0.21101	0.1606	0.061166	0.159	0.16839	-1.8292	-2.1375	-2.4667	-2.1	-2.2062	-2.5563	-2.3292	-2.4521	-2.2	-2.0229	-2.575	-1.9937	-2.2313	-2.5812	-1.975	-2.3063	125.434	207.924	155.335	-28.593	-59.510	285.862	242.961	207.347	14.161	-66.532	207.469	219.316	60.486	34.111	-38.497	256.316	0.00040021	0.00052757	0.00019491	1362.1	3.3971e-06	2.0733e-06	1353.6	368.44	1.0198e-05	6.7027e-06	422.3	139.52	119.76	40.654	4.7139e-06	50.525	0.00083903	0.0008584	0.00023842	1412.6	9.2186e-06	9.2398e-06	1388.7	378.64	9.0946e-06	9.1693e-06	435.58	165.06	125.83	42.457	9.0938e-06	53.03	-14.811	16.037	3.844	-53.611	290.457	175.443	-53.657	-48.682	-9.122	20.792	-49.591	-44.286	-44.449	-39.991	-7.542	-40.619	-8191	255	
912.027	1	1	0	0	0.21594	0.14757	0.094927	0.1724	0.14794	0.176	0.24604	0.35207	0.16244	0.15131	0.31578	0.28361	0.1947	0.08128	0.10037	0.14719	-1.9604	-1.9792	-2.4771	-2.0563	-2.2104	-2.5312	-2.375	-2.3917	-2.5083	-2.2208	-2.6542	-2.15	-2.1042	-2.6646	-1.8854	-2.3312	31.013	271.469	267.865	81.948	232.633	98.650	226.171	-54.010	213.960	171.392	251.671	136.472	189.207	5.967	250.610	271.712	0.00047679	0.0011331	0.0001388	1356.5	4.1914e-06	7.2662e-06	1354	368.37	7.536e-06	3.9125e-06	419.28	140.6	119.09	40.477	4.0478e-06	50.638	0.0008186	0.00083043	0.00022862	1403.9	8.998e-06	9.0036e-06	1384.8	377.92	8.8789e-06	8.8935e-06	433.66	164.61	125.34	42.359	8.8814e-06	52.933	-48.655	-30.780	-6.490	-53.207	19.253	75.360	-53.648	-48.848	261.234	-32.691	-49.103	-43.264	-44.661	-39.665	-31.315	-40.475	-8191	255	
912.100	1	1	0	0	0.1811	0.089006	0.04476	0.11089	0.32168	0.10408	0.058514	0.26287	0.26752	0.13872	0.16009	0.15143	0.2514	0.23917	0.12754	0.22073	-1.9042	-1.9375	-2.3083	-2	-2.1625	-2.3667	-2.1771	-2.3771	-2.4313	-2.075	-2.6542	-2.1229	-2.1417	-2.4708	-2.2208	-2.4062	265.504	21.545	81.883	57.907	163.357	84.389	148.061	250.993	-49.402	142.547	47.998	198.773	-16.787	197.865	53.972	274.214	0.00055032	0.00022441	0.00012098	1353.7	2.1278e-06	2.8075e-06	1354.9	367.2	7.7176e-06	1.2353e-05	420.89	135.55	119.48	40.59	6.8337e-06	50.607	0.00080184	0.00081651	0.00022892	1403	8.8686e-06	8.9194e-06	1383.7	377.9	8.9788e-06	9.0082e-06	433.77	163.73	125.71	42.374	9.0176e-06	52.931	-3.674	37.869	-42.810	-53.506	200.439	-23.102	-53.762	-48.572	8.110	94.855	-49.300	-43.760	-44.588	-39.903	-16.558	-40.493	-8191	255	
912.219	1	1	0	0	0.1765	0.22595	0.073444	0.16782	0.28544	0.25884	0.094706	0.088034	0.27391	0.0077236	0.18063	0.079143	0.061151	0.14585	0.34865	0.3917	-1.9104	-2.0021	-2.2167	-2.2792	-2.0833	-2.3854	-2.3187	-2.3729	-2.4229	-2.0417	-2.5292	-2.3021	-1.9813	-2.4125	-2.2	-2.2083	126.582	112.042	218.964	195.392	137.244	148.975	264.730	16.930	-11.129	69.120	-65.692	46.788	20.312	-32.810	190.272	212.936	0.00057014	0.0001387	8.8192e-05	1347.3	7.5735e-06	6.8788e-06	1351.2	368.85	3.1479e-06	8.5763e-06	421.3	142.51	119.53	40.709	4.6247e-06	50.512	0.00080761	0.00081752	0.00022748	1402.1	8.8794e-06	8.9664e-06	1380.7	377.92	8.8632e-06	8.9508e-06	434	164.34	125.21	42.413	8.9119e-06	52.845	-5.320	261.435	288.627	-53.464	91.209	99.399	-53.540	-48.782	73.731	107.239	-49.248	-43.529	-44.326	-39.849	-49.548	-40.632	-8191	255	
912.315	1	1	0	0	0.041112	0.19429	0.26676	0.29491	0.20309	0.054053	0.11657	0.20384	0.058983	0.1316	0.037645	0.13682	0.14201	0.36837	0.27027	0.10339	-2.0208	-1.9146	-2.2687	-2.2271	-2.1792	-2.5479	-2.3146	-2.3979	-2.4437	-2.0062	-2.3542	-2.4458	-1.8771	-2.4188	-2.25	-2.3812	33.743	-25.526	274.909	-62.443	-6.392	44.721	-36.081	-59.425	68.825	286.375	247.262	-28.692	250.374	278.614	173.468	-13.627	0.00041575	0.00051781	9.4369e-05	1348.1	3.7968e-06	2.1349e-06	1354.3	367.02	4.1501e-06	4.6543e-06	420.42	137.3	119.86	40.454	1.2718e-05	50.475	0.00080848	0.00082009	0.0002282	1403.1	8.9122e-06	8.971e-06	1384.7	377.12	8.873e-06	8.8549e-06	433.15	163.41	125.38	42.288	8.7608e-06	52.79	-14.396	47.025	24.558	-53.429	70.758	186.156	-53.553	-48.873	152.379	273.899	-49.478	-42.483	-44.299	-39.904	23.334	-40.398	-8191	255	
912.412	1	1	0	0	0.061025	0.094684	0.077075	0.12251	0.25291	0.18243	0.39259	0.35308	0.027697	0.098786	0.12546	0.076126	0.2697	0.26137	0.27883	0.063631	-1.9312	-2.0083	-2.3125	-2.5375	-1.9792	-2.5438	-2.4125	-2.1146	-2.6625	-2.1521	-2.4271	-2.475	-2.1896	-2.5083	-2.225	-2.0854	80.127	125.180	197.792	-38.990	-4.606	91.043	242.420	242.464	142.963	268.900	42.036	59.492	75.512	273.768	276.009	53.090	0.00041832	0.0010559	0.00016017	1354.3	4.0917e-06	5.2547e-06	1359.4	368.29	3.6749e-06	4.6598e-06	419.66	137.8	120.09	40.572	6.3312e-07	50.578	0.00079057	0.00079596	0.00022403	1401.6	8.7781e-06	8.771e-06	1383.1	377.14	8.7417e-06	8.852e-06	433.22	161.84	125.34	42.241	8.6953e-06	52.903	-6.295	-15.488	-12.687	-53.614	62.900	31.679	-53.555	-48.625	-48.703	31.485	-49.449	-43.640	-44.640	-39.623	178.770	-40.551	-8191	255	
912.532	1	1	0	0	0.30851	0.14361	0.24615	0.21816	0.083793	0.063741	0.3578	0.23028	0.23303	0.056533	0.35562	0.14066	0.24558	0.27405	0.19455	0.24341	-2.0146	-1.9833	-2.2479	-2.4667	-2.0854	-2.3667	-2.3417	-2.1583	-2.1479	-2.0812	-2.1375	-2.5021	-2.0708	-2.2438	-2.3833	-2.0229	156.782	83.812	260.591	94.620	263.308	26.549	276.662	-40.569	251.300	121.201	-17.020	188.876	-25.737	237.860	100.928	221.386	0.00045076	0.0011308	0.00018346	1348.9	8.3597e-06	2.9478e-06	1351.9	367.59	3.2632e-06	7.0674e-06	418.88	138.01	119.65	40.425	1.219e-05	50.613	0.00078812	0.00079569	0.00022139	1397.8	8.6684e-06	8.7032e-06	1381.6	376.95	8.6706e-06	8.7414e-06	433.06	160.57	124.99	42.238	8.6597e-06	52.734	3.281	11.341	33.288	-53.368	141.513	111.526	-53.519	-48.705	182.781	94.956	-49.259	-44.004	-44.648	-39.632	105.527	-40.854	-8191	255	
912.628	1	1	0	0	0.13011	0.32332	0.14183	0.15004	0.26131	0.033797	0.14263	0.3691	0.17489	0.085467	0.3085	0.11181	0.06709	0.22072	0.15911	0.075309	-1.8125	-2.0125	-2.0771	-2.55	-2.1375	-2.2438	-2.4437	-2.025	-2.2792	-2.0708	-2.3688	-2.4729	-2.1542	-2.3396	-2.3583	-2.1167	-22.464	36.670	100.295	264.095	36.209	283.892	190.750	225.404	-54.656	112.623	180.110	262.023	83.110	210.270	-37.352	87.707	0.00047833	0.0006222	0.0001957	1350.1	9.2029e-06	8.0752e-06	1347.2	366.57	5.9794e-06	1.2408e-05	418.94	138.29	119.51	40.439	3.5233e-06	50.557	0.00077663	0.00079197	0.00022017	1394.5	8.6216e-06	8.608e-06	1378.6	376.65	8.606e-06	8.6274e-06	432.2	160.31	124.99	42.232	8.5252e-06	52.731	-22.053	48.407	10.794	-53.281	13.845	47.926	-53.454	-48.781	72.277	131.843	-49.267	-44.220	-44.380	-39.725	-19.016	-40.696	-8191	255	
912.700	1	1	0	0	0.17557	0.1672	0.1534	0.20986	0.18076	0.13413	0.2235	0.14343	0.072498	0.22378	0.11382	0.22749	0.48448	0.11471	0.090669	0.15649	-1.9312	-2.05	-2.0583	-2.5812	-2.0125	-2.2375	-2.5979	-2.1125	-2.5	-2.3187	-2.2375	-2.3396	-2.2	-2.2396	-2.5	-1.9688	-50.904	195.946	136.505	178.947	102.838	25.594	-26.075	233.220	36.922	118.922	283.375	32.174	160.842	279.106	160.783	162.008	0.00022478	0.00022304	0.00017147	1347	2.9591e-06	2.7014e-06	1350.9	366.33	1.0078e-06	7.9502e-06	420.38	140.41	118.63	40.429	8.2647e-06	50.429	0.00076446	0.00078165	0.00021567	1394.3	8.4334e-06	8.5351e-06	1378.8	376.52	8.4378e-06	8.4208e-06	432.61	160	124.64	42.126	8.4376e-06	52.598	20.822	49.489	-21.106	-53.685	102.750	285.436	-53.604	-48.593	188.235	121.609	-49.515	-42.980	-44.496	-39.783	-8.878	-40.569	-8191	255	
912.796	1	1	0	0	0.15576	0.079547	0.13088	0.028905	0.21317	0.029886	0.27973	0.29613	0.13395	0.039141	0.13683	0.19683	0.32011	0.088915	0.15265	0.28095	-1.8375	-2.1333	-2.0625	-2.6583	-2.2812	-2.1937	-2.6896	-2.3187	-2.2792	-2.4729	-2.0917	-2.4021	-2.2687	-2.3063	-2.4083	-2.2438	263.591	278.398	283.980	292.427	172.435	243.063	201.490	266.628	260.980	261.407	-59.344	223.092	143.147	104.373	-13.000	65.938	0.00041983	0.00063679	7.5848e-05	1344.8	3.0348e-06	6.8037e-06	1348.8	366.73	3.4974e-06	2.6364e-06	418.41	138.72	119.13	40.604	6.5714e-06	50.421	0.00075283	0.00076529	0.00021216	1392.4	8.3944e-06	8.4452e-06	1377.9	376.45	8.4467e-06	8.4819e-06	431.61	160.12	124.77	42.225	8.4173e-06	52.646	-24.372	180.089	0.013	-53.155	57.741	71.332	-53.650	-48.830	51.743	41.752	-49.381	-44.380	-44.261	-39.664	89.238	-40.586	-8191	255	
912.915	1	1	0	0	0.28778	0.098528	0.028888	0.097489	0.16164	0.097141	0.23492	0.27619	0.142	0.11591	0.099153	0.21166	0.037374	0.079996	0.31769	0.33143	-1.7667	-2.3563	-2.1333	-2.5458	-2.3625	-2.2	-2.7333	-2.275	-2.4396	-2.2667	-2.0687	-2.325	-2.1063	-2.0104	-2.6188	-2.1542	92.135	250.334	-64.870	-30.181	154.285	179.590	-2.745	256.295	203.034	157.986	254.920	291.260	233.577	-3.154	49.109	241.352	0.00020473	0.0014585	0.00012683	1349.5	6.2569e-07	8.7289e-06	1351.9	367.75	5.1294e-06	5.3916e-06	420.25	134.99	119.01	40.293	6.4217e-06	50.617	0.00076478	0.00077577	0.00021615	1395.6	8.4665e-06	8.5139e-06	1379.7	376.65	8.4732e-06	8.5463e-06	432.4	159.4	124.85	42.173	8.5262e-06	52.729	-41.050	43.422	-30.180	-53.305	104.964	15.021	-53.595	-48.741	31.989	98.594	-49.345	-44.397	-44.451	-39.822	158.024	-40.690	-8191	255	
913.011	1	1	0	0	0.33553	0.047368	0.09674	0.086301	0.23356	0.054867	0.49193	0.15816	0.13091	0.28059	0.098471	0.21408	0.096947	0.32466	0.14846	0.12944	-1.6313	-2.4688	-1.9188	-2.4521	-2.3542	-2.0979	-2.7188	-2.3979	-2.225	-2.3833	-2.1104	-2.2	-2.45	-2.2396	-2.3312	-2.4042	149.370	0.572	75.778	-56.487	-20.279	203.560	229.004	229.051	210.902	19.430	-34.451	-47.321	9.917	54.506	198.321	31.706	0.00051717	0.00065114	0.00015961	1349.1	7.7687e-07	5.4383e-06	1353.9	366.3	3.4904e-06	2.4309e-06	418.99	136.29	119.52	40.809	5.7259e-06	50.485	0.00077269	0.00078732	0.00021858	1395	8.5671e-06	8.5965e-06	1380.5	376.78	8.588e-06	8.5899e-06	432.23	161.17	125.04	42.382	8.5359e-06	52.762	13.521	49.776	-63.484	-53.285	-13.936	87.713	-53.641	-48.853	109.515	38.364	-49.190	-44.074	-44.503	-39.738	284.880	-40.724	-8191	255	
913.107	1	1	0	0	0.2141	0.12857	0.20446	0.14374	0.018314	0.063519	0.049557	0.093734	0.17431	0.2233	0.40549	0.12568	0.10802	0.13773	0.17407	0.17389	-1.9396	-2.3458	-1.9521	-2.5417	-2.5354	-2.0979	-2.7562	-2.4979	-2.0167	-2.6229	-2.1667	-2.3021	-2.5312	-2.1792	-2.3979	-2.1521	22.775	53.502	59.002	224.342	205.604	200.120	172.366	-53.460	186.467	53.727	236.469	-2.193	-32.714	-28.592	-30.216	265.743	0.00042269	0.00014395	0.000137	1355	5.8734e-06	6.9256e-06	1356.7	366.6	5.14e-06	6.3597e-06	418.98	138.4	119.7	40.721	1.2758e-05	50.363	0.00077319	0.00078278	0.00021869	1398.3	8.4882e-06	8.5864e-06	1382.9	376.85	8.6224e-06	8.6977e-06	432.61	161.78	125.49	42.344	8.6053e-06	52.831	5.622	46.871	-50.410	-53.420	52.570	115.107	-53.604	-48.599	176.637	44.657	-49.298	-44.828	-44.219	-39.818	62.667	-40.824	-8191	255	
913.203	1	1	0	0	0.13451	0.15628	0.11973	0.21755	0.090616	0.23453	0.17741	0.29336	0.09186	0.123	0.23517	0.1443	0.084938	0.13549	0.10517	0.21089	-1.6896	-2.5062	-2.0167	-2.3438	-2.5896	-2.175	-2.6104	-2.5833	-2.075	-2.5292	-2.4562	-2.2479	-2.4167	-2.0229	-2.3563	-2.4562	-37.962	143.718	243.040	163.011	148.439	2.767	216.448	234.303	36.102	93.810	234.998	231.273	29.016	-18.124	104.834	246.061	0.00055384	0.00056751	0.00018919	1348.2	3.6348e-06	4.529e-06	1356.4	367	3.2361e-06	8.3105e-06	418.99	136.8	119.83	40.403	7.3794e-06	50.582	0.00077393	0.00079311	0.00022044	1397.1	8.5824e-06	8.6449e-06	1383.4	377.18	8.6002e-06	8.6808e-06	432.78	161.39	125.15	42.252	8.5226e-06	52.789	-15.461	30.476	0.141	-53.580	86.166	79.402	-53.498	-48.723	-41.195	104.431	-49.278	-42.635	-44.510	-39.849	6.637	-40.502	-8191	255	
913.300	1	1	0	0	0.12318	0.26451	0.21349	0.05194	0.15194	0.066997	0.54859	0.1763	0.067883	0.14269	0.2138	0.12572	0.23294	0.16266	0.28306	0.23384	-1.5104	-2.4583	-2.2021	-2.3292	-2.5208	-2.1979	-2.5354	-2.4354	-2.1167	-2.6042	-2.3688	-2.125	-2.5479	-2.4188	-2.325	-2.5833	289.981	252.288	95.687	84.978	14.107	22.290	253.768	282.059	-62.320	208.891	226.586	35.555	286.201	220.726	127.469	225.822	0.00045766	0.00053326	0.00021527	1354.9	2.6538e-06	5.3382e-06	1355.4	366.64	9.1921e-06	1.0922e-05	420.32	136.6	119.67	40.496	3.9427e-06	50.463	0.00077622	0.00078186	0.00021671	1393.8	8.458e-06	8.424e-06	1380.3	376.48	8.3932e-06	8.5436e-06	432.67	161.13	125.12	42.282	8.4512e-06	52.78	7.114	-39.904	95.002	-53.134	118.595	56.419	-53.642	-48.777	38.587	80.486	-49.524	-42.392	-44.519	-39.525	154.728	-40.592	-8191	255	
913.396	1	1	0	0	0.21186	0.16539	0.31161	0.075321	0.12664	0.095635	0.12086	0.23048	0.11239	0.15752	0.2986	0.25862	0.098898	0.2464	0.22861	0.26249	-1.55	-2.3375	-2.2771	-2.3438	-2.475	-2.1312	-2.6125	-2.5333	-2.2083	-2.2417	-2.4229	-2.1771	-2.5812	-2.1542	-2.2604	-2.5708	270.152	228.266	-10.540	-4.060	292.437	-1.618	163.026	211.849	270.765	231.693	198.862	0.816	-60.680	116.679	143.927	191.523	0.00026619	0.00023685	0.00015248	1354.5	6.1282e-06	5.6748e-06	1352.8	366.97	7.0049e-06	1.2165e-05	418.64	137.46	119.8	40.613	4.0715e-06	50.406	0.00076615	0.00077845	0.00021869	1397.1	8.4606e-06	8.5709e-06	1380.9	376.52	8.4507e-06	8.5411e-06	432.44	160.15	125.3	42.318	8.5999e-06	52.707	-14.894	11.533	292.121	-53.483	76.918	109.246	-53.533	-48.775	208.615	59.569	-49.215	-43.014	-44.428	-39.707	47.661	-40.823	-8191	255	
913.492	1	1	0	0	0.35056	0.14994	0.12224	0.025278	0.21181	0.22428	0.21506	0.23922	0.038226	0.18147	0.24075	0.17609	0.14607	0.18212	0.23259	0.17031	-1.6125	-2.35	-2.2396	-2.1104	-2.4417	-2.1917	-2.2958	-2.5563	-2.0021	-2.4542	-2.4688	-2.0229	-2.3583	-2.2958	-2.1854	-2.4979	-65.719	33.218	268.770	4.224	-11.256	24.564	195.935	258.238	218.012	266.959	8.808	14.997	-12.707	-33.645	254.860	215.137	0.00034081	0.0010316	0.00012912	1360.2	3.9838e-06	6.7615e-06	1349	367.79	2.0651e-06	5.3027e-06	420.57	137.91	119.71	40.528	5.7414e-06	50.367	0.00077281	0.00078817	0.00021993	1402	8.6104e-06	8.684e-06	1381.9	377.45	8.6168e-06	8.7118e-06	433.11	161.98	125.33	42.32	8.6285e-06	52.736	-20.309	-14.527	291.466	-53.354	85.259	138.037	-53.581	-48.688	87.236	-0.325	-49.310	-43.515	-44.207	-39.768	57.102	-40.724	-8191	255	
913.613	1	1	0	0	0.11729	0.18709	0.1504	0.19044	0.35574	0.17895	0.12495	0.30997	0.17574	0.24728	0.070877	0.3188	0.19752	0.1198	0.12286	0.36155	-1.575	-2.6125	-2.3083	-2.1125	-2.3396	-2.3208	-2.2938	-2.65	-1.9125	-2.2167	-2.5792	-2.1188	-2.4667	-2.3354	-2.3104	-2.5854	66.115	174.893	-26.896	246.766	-16.522	88.734	240.584	252.729	67.250	19.802	166.530	98.158	137.464	187.532	118.320	-50.539	0.00053262	0.00056401	9.032e-05	1352.6	8.9076e-06	8.1026e-06	1358.1	368.29	9.8692e-06	5.0016e-06	420.08	139.35	120.16	40.492	3.8664e-06	50.81	0.00078355	0.00078779	0.00021961	1401.6	8.6961e-06	8.6411e-06	1385.4	376.94	8.6079e-06	8.699e-06	433.66	161.55	125.5	42.317	8.6618e-06	52.876	-21.151	62.027	8.609	-53.331	122.248	197.519	-53.400	-48.716	244.497	278.046	-49.300	-43.225	-44.619	-39.876	74.528	-40.553	-8191	255	
913.707	1	1	0	0	0.15528	0.11604	0.13028	0.2777	0.22736	0.26816	0.34173	0.16448	0.081927	0.082214	0.24066	0.10699	0.11545	0.13343	0.11841	0.11541	-1.6146	-2.2646	-2.3667	-1.9583	-2.2979	-2.3521	-2.4229	-2.6771	-2.1042	-2.4479	-2.5167	-2.0042	-2.5542	-2.5167	-2.1667	-2.6542	117.479	189.070	-55.872	-50.997	19.973	186.060	256.457	274.870	152.001	243.170	103.398	45.707	-46.505	5.432	-10.936	255.369	0.00036985	0.00041114	0.00016138	1355.9	8.9258e-06	7.9342e-06	1350.8	368.83	4.5245e-06	1.0546e-05	420.46	140.33	120.31	40.674	5.2482e-06	50.517	0.00079118	0.00080235	0.00022397	1402.5	8.7682e-06	8.7836e-06	1384.4	377.82	8.7459e-06	8.8509e-06	433.66	162.73	125.75	42.426	8.7255e-06	52.856	9.554	271.483	43.086	-53.120	134.441	40.440	-53.539	-48.526	-19.069	71.583	-49.353	-43.484	-44.162	-39.611	158.116	-40.524	-8191	255	
913.803	1	1	0	0	0.079939	0.077179	0.17995	0.056489	0.047203	0.13084	0.19486	0.32912	0.28848	0.23576	0.15239	0.2536	0.2533	0.2105	0.1643	0.11068	-1.6146	-2.0708	-2.3583	-2.1917	-2.3917	-2.4437	-2.2188	-2.7208	-2.2708	-2.2833	-2.5521	-2.0875	-2.2042	-2.4708	-2.1271	-2.6208	284.113	21.802	39.409	172.418	10.845	121.063	-33.526	264.636	16.145	110.746	281.264	65.436	212.552	221.864	229.672	-8.702	0.00045677	0.00070773	7.0281e-05	1354.4	3.4727e-06	4.792e-06	1357.3	367.46	8.6426e-06	9.8227e-06	419.6	140.16	119.51	40.703	2.3033e-06	50.474	0.00079259	0.00080262	0.00022218	1401.2	8.7462e-06	8.8249e-06	1384	377.36	8.6916e-06	8.7491e-06	433.57	162.26	125.62	42.383	8.7004e-06	52.769	5.037	17.073	58.733	-53.262	-61.719	4.598	-53.661	-48.794	92.308	102.815	-49.498	-43.715	-44.438	-39.718	143.249	-40.645	-8191	255	
913.899	1	1	0	0	0.024177	0.02152	0.098801	0.21138	0.038245	0.11366	0.064766	0.2316	0.053651	0.13836	0.12962	0.21094	0.134	0.2484	0.097426	0.29704	-1.8312	-2.1167	-2.475	-2.1875	-2.1646	-2.4813	-2.3917	-2.7438	-2.2417	-2.2271	-2.7104	-2.0875	-2.4417	-2.3417	-1.9667	-2.5875	268.621	63.197	223.024	269.077	221.849	-50.910	-49.518	223.280	247.320	-59.626	202.125	248.653	265.251	175.817	125.584	277.184	0.00036356	0.00082404	0.0001696	1357.6	5.2113e-06	3.586e-06	1358.8	368.96	4.6583e-07	4.3077e-06	419.46	135.22	119.96	40.505	4.1375e-06	50.572	0.0007834	0.00079816	0.00021894	1401.6	8.6203e-06	8.6152e-06	1384.4	377.31	8.585e-06	8.579e-06	432.75	159.44	125.37	42.256	8.4872e-06	52.808	-33.592	44.340	-45.332	-53.429	52.846	163.390	-53.585	-48.638	85.792	111.822	-49.522	-43.761	-44.318	-39.855	36.976	-40.549	-8191	255	
913.995	1	1	0	0	0.2131	0.27422	0.17689	0.20414	0.094313	0.26986	0.20322	0.17689	0.040637	0.036919	0.10725	0.11074	0.052321	0.062936	0.1381	0.113	-1.8917	-1.975	-2.4292	-2.2042	-2.2875	-2.4938	-2.3271	-2.5	-2.6396	-1.9875	-2.5438	-2.1	-2.3438	-2.4646	-2.0833	-2.5812	105.870	0.988	201.730	-24.737	66.005	80.805	257.654	276.460	284.843	160.641	7.431	48.000	-65.791	273.906	-32.289	122.475	0.00037005	0.00016335	8.5502e-05	1353.6	3.0737e-06	1.2212e-05	1355.5	366.46	4.51e-06	9.5594e-06	420.44	137.46	119.8	40.5	5.3046e-06	50.484	0.00076325	0.00077067	0.00021695	1397.9	8.4808e-06	8.4655e-06	1380.9	376.34	8.4322e-06	8.5756e-06	433.05	160.62	125.11	42.291	8.5209e-06	52.748	-6.354	83.352	1.255	-53.288	45.807	77.102	-53.561	-48.634	82.986	101.562	-49.505	-44.019	-44.462	-39.955	193.824	-40.619	-8191	255	
914.092	1	1	0	0	0.091024	0.28216	0.12305	0.079974	0.14111	0.097084	0.052779	0.30473	0.10796	0.034942	0.063378	0.12808	0.066609	0.41968	0.053766	0.01019	-1.725	-2.1625	-2.3625	-2.0667	-2.3417	-2.3667	-2.3458	-2.5917	-2.4083	-2.0438	-2.7208	-2.1396	-2.3396	-2.5062	-2.0896	-2.6083	214.305	148.179	281.269	271.428	197.141	197.694	-60.481	200.232	179.426	-53.627	218.610	178.152	9.677	243.299	114.006	91.751	0.00069367	0.0001373	8.9397e-05	1351.2	2.4597e-06	7.1699e-06	1347.3	366.53	6.4036e-06	1.2017e-06	419.24	139.92	119.39	40.565	1.0913e-05	50.417	0.00076082	0.00077865	0.00021712	1393.4	8.3993e-06	8.406e-06	1377.5	376.2	8.1944e-06	8.2756e-06	431.78	157.78	124.56	42.131	8.1693e-06	52.63	-16.039	28.391	78.108	-53.519	32.575	13.832	-53.610	-48.715	49.825	226.998	-49.368	-43.881	-44.472	-39.761	6.776	-40.496	-8191	255	
914.212	1	1	0	0	0.27655	0.085338	0.18115	0.08908	0.10423	0.25599	0.57027	0.24424	0.033968	0.25448	0.093144	0.09454	0.12682	0.13137	0.10012	0.2185	-1.8729	-2.1792	-2.3667	-2.1458	-2.2333	-2.5542	-2.2875	-2.4375	-2.3604	-1.8958	-2.4667	-2.2604	-2.1771	-2.5833	-2.1854	-2.3646	140.803	121.045	-19.206	203.536	16.866	200.677	200.642	-30.078	55.592	139.784	230.492	-17.324	213.593	253.898	171.304	-64.875	0.00040631	0.00083643	0.0002308	1340.6	6.7408e-06	6.7179e-06	1350.3	365.9	4.438e-06	7.6957e-06	419.48	138.99	119.99	40.605	5.7142e-06	50.52	0.00073747	0.00075045	0.00020821	1388.8	8.1315e-06	8.1222e-06	1376.2	375.4	8.1784e-06	8.2074e-06	430.87	157.8	124.8	42.149	8.2299e-06	52.591	7.661	-50.305	77.788	-53.265	56.714	58.443	-53.532	-48.591	185.723	106.524	-49.323	-43.650	-44.251	-39.566	66.617	-40.571	-8191	255	
914.307	1	1	0	0	0.069344	0.26063	0.20509	0.23521	0.21736	0.33104	0.10291	0.26547	0.17009	0.15303	0.19266	0.24421	0.17683	0.30756	0.055643	0.057129	-1.8583	-2.0771	-2.4542	-2.4792	-2.25	-2.5354	-2.175	-2.3583	-2.6292	-2.0042	-2.4479	-2.3667	-2.1458	-2.5417	-2.2479	-2.2333	174.815	276.586	-3.380	-2.718	54.047	22.234	116.647	199.092	231.830	89.114	216.998	107.690	-21.935	173.696	206.730	-31.988	0.00040708	0.0003954	0.00024521	1346.6	3.6404e-06	4.7375e-06	1351.1	366.21	6.0666e-06	2.7531e-06	418.67	136.82	119.18	40.624	5.0915e-06	50.633	0.00074205	0.00075774	0.00020912	1390.7	8.2573e-06	8.2514e-06	1379.5	375.45	8.3007e-06	8.3872e-06	431.73	158.84	124.81	42.221	8.3871e-06	52.676	-9.915	-13.769	56.825	-53.376	106.327	124.237	-53.576	-48.855	46.321	73.329	-49.430	-43.243	-44.507	-39.771	57.918	-40.436	-8191	255	
914.403	1	1	0	0	0.17773	0.086662	0.19685	0.24849	0.10346	0.33472	0.17002	0.24496	0.046056	0.25437	0.14949	0.093077	0.15204	0.20868	0.15523	0.24553	-2.0521	-2.0021	-2.2875	-2.4542	-2.0292	-2.4729	-2.4375	-2.275	-2.3833	-2.0521	-2.3021	-2.4854	-2.0125	-2.5396	-2.3021	-2.2979	164.237	278.387	-14.214	-23.065	-49.555	70.214	237.155	-63.494	2.574	197.619	81.506	10.056	-61.805	242.370	279.672	214.473	0.00039341	0.00068962	0.00019415	1348.5	3.9503e-06	3.597e-06	1353.9	368.56	4.8825e-06	6.9452e-06	420.26	138.95	119.19	40.535	1.399e-05	50.616	0.00075355	0.00076072	0.00021244	1393.7	8.2841e-06	8.2562e-06	1381.1	376.64	8.2546e-06	8.3355e-06	432.48	158.47	124.68	42.223	8.2892e-06	52.691	-15.202	19.623	-49.682	-53.438	47.606	127.965	-53.436	-48.654	198.533	44.418	-49.446	-43.251	-44.278	-39.597	19.774	-40.514	-8191	255	
914.499	1	1	0	0	0.16745	0.12743	0.10231	0.070452	0.035427	0.1896	0.29257	0.082887	0.091551	0.072964	0.32237	0.10141	0.34006	0.18431	0.15936	0.33239	-2.0792	-2.25	-2.1937	-2.5396	-2.0187	-2.4854	-2.5312	-2.3167	-2.4896	-2.1896	-2.1604	-2.4646	-1.9521	-2.6146	-2.3187	-2.2042	72.582	262.195	-48.127	36.549	93.178	143.786	235.343	189.693	-55.393	135.310	237.594	196.971	-60.041	-10.105	239.818	214.203	0.00039993	0.00022268	9.0139e-05	1359.3	2.4392e-06	2.7262e-06	1355.1	366.91	5.362e-06	9.6764e-06	418.82	135.59	119.51	40.5	3.3754e-06	50.693	0.00073661	0.0007578	0.00020945	1396.2	8.2012e-06	8.1775e-06	1380.7	376	8.1408e-06	8.1668e-06	431.57	156.97	124.7	42.154	8.0038e-06	52.678	-12.073	39.455	72.906	-53.651	25.576	186.740	-53.658	-48.774	248.245	103.111	-49.527	-44.049	-44.351	-39.863	122.911	-40.516	-8191	255	
914.572	1	1	0	0	0.10932	0.03591	0.18382	0.18569	0.11041	0.30201	0.38936	0.25016	0.13323	0.084057	0.22277	0.34541	0.20923	0.10799	0.075438	0.10724	-1.9375	-2.3583	-2.3063	-2.5812	-2.0875	-2.4104	-2.5271	-2.0812	-2.5958	-2.3146	-2.3833	-2.4583	-2.2479	-2.4604	-2.5875	-2.0438	-11.487	153.200	243.803	-51.305	99.585	-9.520	217.213	193.787	114.801	152.917	256.083	72.592	108.777	-18.277	171.271	284.740	0.00030783	0.00065055	0.00016738	1354.4	9.2883e-07	1.2018e-05	1350	367.73	4.9545e-06	5.1872e-06	419.96	137.54	119.24	40.391	5.3907e-06	50.741	0.00072087	0.00073511	0.00020289	1389.6	7.9621e-06	7.9673e-06	1376.1	376.1	7.9485e-06	7.9995e-06	430.78	156.05	124.25	42.052	7.9487e-06	52.514	-17.867	-18.363	-19.398	-53.661	-64.010	107.157	-53.476	-48.871	242.905	141.487	-49.120	-44.279	-44.533	-39.527	49.490	-40.716	-8191	255	
914.691	1	1	0	0	0.20055	0.20798	0.23168	0.11746	0.1912	0.096327	0.26954	0.045305	0.10482	0.11585	0.26307	0.17559	0.11483	0.0408	0.10448	0.141	-1.9146	-2.2896	-2.2396	-2.5875	-2.1688	-2.4729	-2.6771	-2.1646	-2.5146	-2.3771	-2.2104	-2.7208	-2.1813	-2.4688	-2.3854	-2.1917	265.355	250.751	-59.002	45.634	131.878	186.039	238.350	103.037	238.528	155.496	161.491	193.304	284.122	171.671	203.077	-2.435	0.00036939	0.00012087	0.0002385	1342.2	3.2367e-06	4.8125e-06	1349.3	366.85	5.3854e-06	5.3332e-06	419.17	136.1	119.9	40.727	5.5409e-06	50.692	0.00071294	0.00072575	0.00020293	1385.5	7.8047e-06	7.8305e-06	1375.9	375.27	7.8649e-06	7.8848e-06	429.97	154.7	124.18	42.145	7.8286e-06	52.56	-14.615	90.850	43.394	-53.582	67.791	79.228	-53.490	-48.738	60.240	151.283	-49.212	-42.328	-44.244	-39.856	10.463	-40.533	-8191	255	
914.787	1	1	0	0	0.28146	0.35667	0.23077	0.16761	0.18876	0.28837	0.33696	0.11155	0.14341	0.15221	0.098552	0.17055	0.058888	0.19831	0.32404	0.1139	-2.0521	-2.1521	-1.9167	-2.7125	-2.075	-2.1333	-2.5979	-2.2521	-2.3354	-2.4917	-2.1625	-2.5833	-2.3292	-2.2958	-2.4125	-2.1937	283.556	-0.152	233.011	58.597	-49.043	16.292	287.053	179.149	16.842	27.925	200.163	153.022	43.884	255.194	12.834	204.060	0.00045642	0.00027891	0.0001093	1342.5	3.9037e-06	2.3374e-06	1349	366.52	6.8954e-07	6.0827e-06	418.46	138.47	119.37	40.488	9.3722e-06	50.451	0.000708	0.00071908	0.00019843	1383.9	7.848e-06	7.8867e-06	1376	375.36	7.7746e-06	7.8493e-06	429.56	154.91	124.24	42.066	7.8469e-06	52.449	4.158	150.994	67.714	-53.429	156.603	131.901	-53.430	-48.726	-43.946	96.803	-49.262	-42.970	-44.372	-39.885	44.046	-40.877	-8191	255	
914.883	1	1	0	0	0.17914	0.14562	0.2301	0.16565	0.35067	0.047191	0.1926	0.25035	0.14956	0.082494	0.07449	0.28363	0.33343	0.26611	0.19262	0.20692	-1.9979	-2.4354	-2.1646	-2.6958	-2.4292	-2.2667	-2.6896	-2.3479	-2.2938	-2.5208	-2.4521	-2.5729	-2.3042	-2.1583	-2.4625	-2.1896	139.533	88.577	218.687	277.307	98.118	271.868	274.599	-44.973	157.491	246.452	163.025	-65.568	270.691	191.204	233.717	-65.759	0.0004752	0.00080118	7.1778e-05	1348	1.7653e-06	7.7069e-06	1348.3	366.46	8.142e-06	4.3886e-06	417.48	138.13	119.88	40.287	4.3048e-06	50.354	0.00070537	0.00072369	0.00020057	1384.9	7.8325e-06	7.8455e-06	1374.4	374.92	7.7748e-06	7.8555e-06	429.82	155.01	124.45	42.015	7.8171e-06	52.431	13.522	-36.247	-31.397	-53.314	144.000	65.354	-53.500	-48.823	281.051	-12.522	-49.531	-44.060	-44.534	-39.720	255.506	-40.819	-8191	255	
914.980	1	1	0	0	0.27547	0.12073	0.080838	0.16922	0.25265	0.20131	0.2756	0.13865	0.19701	0.27094	0.062022	0.29805	0.33998	0.40537	0.33214	0.20329	-1.8563	-2.3229	-1.9937	-2.5479	-2.2104	-2.1875	-2.6167	-2.375	-2.4146	-2.4583	-2.2438	-2.4208	-2.4604	-2.1979	-2.4062	-2.1458	247.571	-49.709	205.232	253.227	47.502	27.961	224.700	200.689	28.803	256.693	210.675	-15.277	273.197	235.291	0.596	270.146	0.00044912	0.00086242	0.00024864	1354.9	2.233e-06	1.4567e-06	1348.7	367.34	4.1798e-06	2.1927e-06	419.31	138.52	119.24	40.504	2.645e-06	50.426	0.0007094	0.00072125	0.00019919	1386.4	7.829e-06	7.9112e-06	1374.3	375.23	7.8284e-06	7.8782e-06	430.63	154.6	124.09	42.066	7.7945e-06	52.537	-28.580	-25.966	35.732	-53.396	147.851	23.710	-53.507	-48.714	3.513	-10.929	-49.308	-43.252	-44.254	-39.708	38.377	-40.406	-8191	255	
915.100	1	1	0	0	0.11579	0.060006	0.079276	0.12271	0.099176	0.16007	0.25021	0.26679	0.22734	0.012209	0.29064	0.11146	0.043031	0.11447	0.15329	0.14129	-1.9146	-2.5	-1.9188	-2.5583	-2.4375	-2.0625	-2.7542	-2.2042	-2.1479	-2.5438	-2.1063	-2.2833	-2.4083	-2.1312	-2.4146	-2.1417	158.902	-32.817	70.961	212.675	-43.843	281.142	198.286	279.521	267.251	143.622	208.265	191.941	-47.949	280.480	89.969	-51.402	0.00050544	0.0003995	0.00011038	1343	3.3431e-06	3.2751e-06	1345.2	365.95	4.3935e-06	5.287e-06	417.3	139.34	118.78	40.244	8.8292e-06	50.694	0.00070438	0.00071863	0.00019807	1380.8	7.822e-06	7.7683e-06	1372.3	374.76	7.728e-06	7.8041e-06	429.11	154.27	124.03	41.916	7.5927e-06	52.434	-26.250	-2.343	46.837	-53.426	121.127	41.894	-53.625	-48.801	76.143	173.097	-49.399	-44.689	-44.211	-39.878	26.239	-40.726	-8191	255	
915.196	1	1	0	0	0.090145	0.16665	0.036574	0.29541	0.30587	0.053774	0.076901	0.24184	0.15725	0.22352	0.30537	0.11102	0.14304	0.25274	0.16037	0.19721	-1.6646	-2.4625	-2.1125	-2.3812	-2.4146	-2.1229	-2.6958	-2.4583	-2.1271	-2.3604	-2.3396	-2.3958	-2.4396	-2.2812	-2.5479	-2.3458	97.492	-29.031	194.525	195.472	126.824	236.223	276.847	190.630	215.595	14.202	195.073	1.175	232.368	227.534	120.197	117.251	0.00066164	0.00067638	0.00023062	1348.7	3.9478e-06	1.2075e-05	1348.6	364.77	5.9925e-06	3.6152e-06	418.37	139.1	119.21	40.521	6.087e-06	50.173	0.00068031	0.00069337	0.00019243	1378.7	7.4476e-06	7.461e-06	1369.5	373.87	7.4321e-06	7.4854e-06	429.06	152.1	123.7	41.946	7.4566e-06	52.262	-16.128	39.302	-10.216	-53.282	77.765	64.382	-53.453	-48.586	62.393	167.891	-49.211	-44.510	-44.253	-39.887	28.207	-40.556	-8191	255	
915.293	1	1	0	0	0.21445	0.016701	0.18886	0.18212	0.30488	0.29453	0.11524	0.35992	0.052328	0.17339	0.035774	0.2358	0.18412	0.35018	0.10308	0.15912	-1.6562	-2.5521	-2.0625	-2.2396	-2.5438	-2.1396	-2.7062	-2.3917	-2.0917	-2.6312	-2.2833	-2.0187	-2.5354	-2.3396	-2.3104	-2.2958	227.705	119.575	187.822	222.355	232.280	-4.979	-62.829	271.780	209.414	167.040	0.811	85.581	-17.943	4.415	-13.711	257.377	0.0006822	0.00035792	7.1821e-05	1348.4	6.2276e-06	7.0709e-06	1343	364.72	8.2395e-06	9.11e-06	418.54	139.59	119.6	40.245	7.9119e-06	50.599	0.00067281	0.00067786	0.00019008	1377.9	7.3953e-06	7.4084e-06	1368.5	373.69	7.3512e-06	7.4367e-06	428.3	152	123.49	41.883	7.3615e-06	52.238	-21.951	273.781	-22.647	-53.310	172.847	20.481	-53.307	-48.692	187.975	73.624	-49.401	-42.929	-44.475	-39.707	44.466	-40.728	-8191	255	
915.389	1	1	0	0	0.25589	0.27294	0.13496	0.2643	0.12255	0.10365	0.11323	0.27028	0.2034	0.14346	0.46626	0.12394	0.32029	0.086487	0.29696	0.16186	-1.6521	-2.5187	-2.1375	-2.4271	-2.45	-2.0625	-2.5375	-2.4313	-2.0729	-2.6917	-2.2354	-2.2958	-2.4396	-2.0438	-2.35	-2.5271	-28.275	153.406	-6.773	260.034	21.602	242.036	280.933	263.612	-41.850	106.471	-64.924	78.918	222.161	279.998	27.974	-43.964	0.00021775	0.00065794	6.5214e-05	1343.5	6.0398e-06	7.3764e-06	1345.6	365.03	7.6705e-06	5.6385e-06	418.35	139.21	119.52	40.481	6.2907e-06	50.361	0.0006685	0.00066824	0.00018627	1376.8	7.2985e-06	7.3235e-06	1368.2	373.68	7.16e-06	7.2396e-06	428.11	150.29	123.48	41.926	7.2232e-06	52.17	10.418	14.809	175.898	-53.239	47.732	18.220	-53.577	-48.573	137.035	-31.794	-49.407	-43.656	-44.394	-39.800	43.231	-40.499	-8191	255	
915.483	1	1	0	0	0.2083	0.12241	0.19181	0.35814	0.16828	0.11335	0.22237	0.16447	0.1065	0.069458	0.23001	0.15446	0.27269	0.19517	0.36535	0.41782	-1.6521	-2.4667	-2.2708	-2.3438	-2.6542	-2.1188	-2.4833	-2.3917	-2.0542	-2.5979	-2.375	-2.1667	-2.6458	-2.3583	-2.2687	-2.575	-16.064	-59.073	268.363	281.499	206.631	121.132	170.991	278.648	14.399	-28.446	191.218	-17.806	-57.808	-28.504	202.511	196.672	0.00049116	0.00033155	0.00022473	1342.5	3.2918e-06	6.8902e-06	1343.7	366.41	7.8744e-06	7.4357e-06	417.94	135.6	119.52	40.27	5.3195e-06	50.537	0.00065457	0.00066271	0.00018439	1377.1	7.2335e-06	7.2966e-06	1367.5	373.64	7.2485e-06	7.2523e-06	428.19	150.19	123.29	41.793	7.1936e-06	52.231	-35.552	-48.322	-17.833	-53.645	122.970	46.744	-53.460	-48.782	86.827	192.442	-49.324	-42.973	-44.550	-39.848	12.419	-40.798	-8191	255	
915.581	1	1	0	0	0.11795	0.13054	0.29784	0.20159	0.20566	0.081896	0.20827	0.1274	0.093293	0.10196	0.24777	0.24884	0.20412	0.11946	0.21484	0.26812	-1.4896	-2.4917	-2.2438	-2.1479	-2.4667	-2.0792	-2.425	-2.4625	-2.0167	-2.3625	-2.5229	-2.0229	-2.475	-2.3021	-2.1333	-2.5438	155.935	128.001	247.089	260.746	-13.045	-55.247	229.280	170.872	171.539	-16.293	-64.695	278.363	-0.715	275.924	32.551	-43.148	0.00056415	3.7861e-05	0.00011494	1343.3	3.265e-06	4.8274e-06	1344.3	365.19	3.6243e-06	7.3018e-06	420.57	138.82	118.81	40.532	1.7979e-06	50.391	0.0006575	0.0006698	0.00018618	1375	7.3026e-06	7.3129e-06	1368.6	373.96	7.3045e-06	7.3511e-06	429.16	150.62	123.55	41.947	7.2794e-06	52.26	-6.300	223.077	265.413	-53.443	-29.271	139.263	-53.565	-48.639	67.707	75.529	-49.390	-44.216	-44.414	-39.804	-13.286	-40.535	-8191	255	
915.700	1	1	0	0	0.19702	0.06286	0.23666	0.37529	0.16911	0.13804	0.068959	0.40073	0.078644	0.14774	0.2142	0.092648	0.10777	0.30953	0.24819	0.37564	-1.6083	-2.1208	-2.3625	-2.0625	-2.5792	-2.1771	-2.3583	-2.7438	-1.8896	-2.3312	-2.4646	-1.9688	-2.3021	-2.1833	-2.0938	-2.3896	286.418	241.026	125.589	245.624	99.159	113.443	166.507	264.127	249.883	256.972	192.372	29.258	-64.136	195.972	22.357	269.102	0.00031089	0.00044525	4.9906e-05	1339.3	5.925e-06	2.1424e-06	1347.5	366.64	4.9461e-06	3.6559e-06	416.94	140.36	119.28	40.513	1.5659e-06	50.428	0.00066403	0.00067092	0.0001887	1376.3	7.3189e-06	7.42e-06	1369	373.98	7.3885e-06	7.4609e-06	428.41	151.74	123.53	41.947	7.4573e-06	52.268	289.431	189.212	278.414	-53.359	83.216	-14.357	-53.560	-48.746	87.221	77.417	-49.221	-42.479	-44.650	-39.717	267.645	-40.508	-8191	255	
915.796	1	1	0	0	0.13802	0.1948	0.25986	0.076628	0.17087	0.21399	0.18875	0.37134	0.074618	0.19435	0.36541	0.18171	0.29712	0.13773	0.19308	0.19913	-1.5187	-2.3354	-2.3187	-2.0708	-2.4229	-2.0625	-2.2083	-2.7146	-1.9604	-2.4146	-2.6542	-2.0333	-2.1542	-2.2938	-2.0875	-2.5625	2.654	-62.230	-56.138	240.348	114.011	94.124	231.573	238.913	54.565	246.668	94.442	2.797	-27.417	102.794	204.543	-42.350	0.0005695	0.00021985	0.00011673	1346.6	4.0878e-06	8.8394e-06	1341.2	367.12	8.6003e-06	2.2787e-06	419.43	136.96	119.61	40.288	3.6239e-06	50.495	0.00067889	0.00068533	0.00019041	1379.5	7.4724e-06	7.5392e-06	1367.4	374.67	7.4674e-06	7.5527e-06	428.44	153.08	123.93	41.873	7.4699e-06	52.246	1.122	237.646	-1.135	-53.245	101.027	42.037	-53.663	-48.848	48.519	171.108	-49.355	-44.327	-44.641	-39.700	151.992	-40.555	-8191	255	
915.892	1	1	0	0	0.070262	0.10615	0.053536	0.11519	0.1854	0.30893	0.2489	0.30716	0.15944	0.33289	0.10179	0.32914	0.21999	0.28967	0.12696	0.2962	-1.7833	-2.1729	-2.4813	-2.1104	-2.5479	-2.3708	-2.1333	-2.5479	-2.0604	-2.3625	-2.6333	-1.9	-2.3646	-2.3771	-1.8979	-2.6437	-5.646	88.677	-64.407	138.061	100.458	58.390	220.042	232.320	234.430	80.495	131.707	-27.725	61.121	247.977	128.384	199.832	0.0004729	0.00032588	0.00011571	1347.2	5.3044e-06	6.7899e-06	1349	366.01	1.8289e-06	6.5145e-06	418.13	139.24	119.35	40.549	4.8809e-06	50.477	0.00067801	0.00068737	0.00018955	1379.2	7.4069e-06	7.4427e-06	1370.4	373.87	7.4717e-06	7.4737e-06	428.59	152.18	123.76	42.018	7.4865e-06	52.257	-5.336	41.603	264.072	-53.685	94.594	-58.491	-53.542	-48.784	-1.559	107.990	-49.266	-43.440	-44.258	-39.691	48.067	-40.676	-8191	255	
915.988	1	1	0	0	0.050677	0.21851	0.011078	0.2596	0.24627	0.17728	0.14212	0.06277	0.30057	0.15464	0.12776	0.12217	0.098436	0.13136	0.12486	0.17402	-1.7979	-2.0083	-2.5521	-1.9771	-2.4417	-2.4021	-2.0854	-2.5396	-2.3104	-2.4271	-2.7812	-2.0687	-2.1625	-2.4792	-2.1271	-2.4708	109.471	267.411	135.982	-39.691	183.342	230.651	269.674	130.387	258.483	12.640	214.477	203.679	269.103	272.492	37.179	186.921	0.00044313	0.00057052	0.00018263	1353.1	7.1761e-06	9.144e-06	1346.5	365.44	5.3138e-06	6.5752e-06	419.03	138.97	119.38	40.521	6.6477e-07	50.643	0.00067888	0.00068519	0.00019003	1380.7	7.5052e-06	7.5568e-06	1371.2	374.33	7.5259e-06	7.6029e-06	429.37	152.13	123.9	42.035	7.5776e-06	52.463	2.172	-17.327	266.659	-53.303	102.973	61.555	-53.413	-48.761	57.442	165.769	-49.455	-44.765	-44.232	-39.637	96.269	-40.598	-8191	255	
916.084	1	1	0	0	0.024422	0.070593	0.16832	0.34577	0.21808	0.050434	0.45547	0.31561	0.16837	0.15582	0.076473	0.10878	0.33836	0.14924	0.18475	0.3355	-1.6375	-2.1292	-2.4229	-2.1188	-2.3354	-2.4125	-2.1792	-2.6625	-2.4208	-2.175	-2.6625	-2.2146	-2.2292	-2.6104	-2.0438	-2.6583	11.633	243.457	226.721	258.513	-5.177	217.386	260.328	-65.946	0.277	166.688	127.285	11.016	288.508	258.008	98.645	-42.631	0.00037488	0.00067197	0.0002064	1348.7	6.8015e-06	3.2487e-06	1348.9	366.02	4.84e-06	4.0745e-06	416.94	136.41	119.6	40.449	3.0259e-06	50.694	0.00068977	0.00069471	0.00019114	1382.5	7.593e-06	7.6272e-06	1372.2	374.42	7.5653e-06	7.5317e-06	429.57	152.46	123.96	41.97	7.615e-06	52.411	-32.372	-11.928	-61.088	-53.386	-22.543	107.894	-53.429	-48.816	162.379	196.258	-49.380	-43.478	-44.296	-39.780	71.409	-40.544	-8191	255	
916.181	1	1	0	0	0.087379	0.07633	0.26904	0.13875	0.20326	0.096229	0.16034	0.089859	0.25613	0.10213	0.021808	0.14616	0.15602	0.36472	0.19014	0.14428	-2.0854	-1.975	-2.4146	-2.1417	-2.3208	-2.3896	-2.1604	-2.4625	-2.4	-2.0708	-2.5458	-2.3271	-2.1063	-2.7021	-2.0917	-2.4583	122.233	83.706	-9.910	187.956	-59.842	-46.759	259.916	225.516	-1.342	-49.243	36.297	256.308	-12.319	-22.768	-32.388	282.639	0.00054518	0.0010339	5.5702e-05	1351.3	7.2232e-06	9.4768e-07	1348.5	365.25	3.7262e-06	8.128e-06	417.94	137.3	119.42	40.437	6.365e-06	50.492	0.0006923	0.00070389	0.00019379	1383.8	7.6152e-06	7.6629e-06	1370.8	374.24	7.5671e-06	7.6992e-06	429.33	153.14	124.02	41.994	7.5907e-06	52.453	-37.315	49.553	-13.330	-53.525	24.662	145.252	-53.622	-48.809	149.080	21.210	-49.233	-43.867	-44.350	-39.762	-10.047	-40.457	-8191	255	
916.277	1	1	0	0	0.086859	0.12013	0.095527	0.13707	0.2146	0.15481	0.1023	0.083057	0.11436	0.1466	0.26076	0.093017	0.17933	0.090553	0.15845	0.078246	-1.9146	-2.1042	-2.4208	-2.3937	-2.2375	-2.5646	-2.4417	-2.5604	-2.5333	-2.0833	-2.4479	-2.2333	-2.1354	-2.5646	-2.2083	-2.2479	21.881	234.332	-17.644	186.514	83.515	252.343	254.760	-41.946	29.693	152.387	189.064	73.939	269.334	234.389	-28.970	265.161	0.00028141	0.00033509	0.00023417	1345.8	8.6973e-06	1.3132e-06	1352.2	365.32	4.7131e-06	5.6569e-06	419.43	138.15	120.43	40.622	5.2391e-06	50.612	0.00069031	0.00069809	0.00019241	1381.7	7.5807e-06	7.5621e-06	1373.7	374.51	7.5873e-06	7.5988e-06	429.35	153.34	124.15	42.028	7.5262e-06	52.442	8.151	-20.482	-42.958	-53.278	2.571	39.857	-53.343	-48.736	256.467	105.853	-49.360	-43.198	-44.395	-39.711	10.715	-40.404	-8191	255	
916.396	1	1	0	0	0.18672	0.17078	0.31848	0.09879	0.16403	0.17479	0.25561	0.31785	0.19421	0.15381	0.19266	0.15287	0.24597	0.071773	0.1936	0.23669	-2.1958	-2.0208	-2.3396	-2.3229	-2.0771	-2.475	-2.3937	-2.3667	-2.3708	-1.9562	-2.5312	-2.4083	-2.2313	-2.5812	-2.3063	-2.3167	285.561	287.886	251.355	267.336	-44.670	148.140	222.882	209.838	91.604	83.979	206.119	249.218	152.098	273.883	57.868	182.290	0.00029993	0.00036301	0.00014677	1351.2	5.04e-06	5.2787e-06	1352.5	365.59	6.3286e-06	4.6307e-06	417.75	140.58	119.51	40.624	9.9027e-06	50.351	0.00068578	0.00069195	0.00019131	1385.1	7.6341e-06	7.5795e-06	1373.9	374.58	7.5515e-06	7.626e-06	429.3	154.18	124	42.066	7.6338e-06	52.448	-12.131	-11.521	36.397	-53.322	14.937	212.217	-53.449	-48.808	81.652	118.768	-49.331	-43.739	-44.357	-39.746	66.524	-40.802	-8191	255	
916.469	1	1	0	0	0.21658	0.14297	0.20106	0.10072	0.18462	0.12841	0.30614	0.27675	0.30386	0.25048	0.1558	0.1796	0.1202	0.27514	0.12205	0.01881	-1.975	-2.2104	-2.4208	-2.6833	-2.0104	-2.5687	-2.4958	-2.1458	-2.4833	-2.2104	-2.2271	-2.2354	-2.2833	-2.5438	-2.2354	-2.2729	201.163	-64.597	0.181	108.600	48.240	274.930	252.595	266.868	250.840	119.632	198.828	280.732	285.189	272.654	-59.462	76.864	0.00045263	0.00040558	0.00022864	1347.9	2.4635e-06	3.4241e-06	1349.4	366.57	7.0934e-06	1.7181e-05	419.37	140.51	119.78	40.541	4.5074e-06	50.485	0.00068782	0.00069725	0.00019416	1383.3	7.5578e-06	7.6557e-06	1372.7	374.7	7.6068e-06	7.671e-06	430.39	154.06	124.09	42.047	7.5719e-06	52.466	4.004	36.215	11.716	-53.384	62.739	-24.294	-53.662	-48.756	208.837	92.824	-49.421	-43.272	-44.291	-39.597	40.679	-40.925	-8191	255	
916.563	1	1	0	0	0.21439	0.12358	0.05735	0.26462	0.090543	0.034328	0.2878	0.1078	0.11159	0.12539	0.069812	0.13603	0.11073	0.22559	0.11826	0.19501	-2.1	-2.3063	-2.1646	-2.4062	-2.0812	-2.3875	-2.3625	-2.1792	-2.4313	-2.2938	-2.4021	-2.5125	-2.1562	-2.6375	-2.2979	-2.3187	187.104	64.339	135.422	231.104	112.982	-8.027	230.827	274.112	17.037	-57.431	236.300	-16.680	-10.189	290.605	163.652	-66.350	0.00054969	0.00029431	0.00026608	1339.6	3.6373e-06	9.1486e-06	1345.8	366.66	4.5809e-06	3.4097e-06	416.95	141.37	119.43	40.655	5.934e-06	50.41	0.00068786	0.0006926	0.00019247	1378.4	7.5839e-06	7.5526e-06	1368.7	374.54	7.4925e-06	7.5518e-06	428.51	152.12	123.64	42.051	7.4279e-06	52.341	-5.775	-38.446	25.356	-53.429	155.295	142.437	-53.659	-48.810	103.053	287.884	-49.275	-44.190	-44.407	-39.599	81.073	-40.513	-8191	255	
916.661	1	1	0	0	0.32126	0.14299	0.067033	0.089791	0.089787	0.10741	0.21527	0.023446	0.28437	0.13231	0.21219	0.054096	0.0081281	0.10832	0.042887	0.3244	-2.1146	-2.0687	-2.2792	-2.3667	-2.1063	-2.325	-2.5146	-2.2271	-2.5771	-2.2604	-2.1771	-2.3854	-2.1458	-2.3229	-2.3979	-2.2354	44.693	138.786	105.024	61.204	152.005	90.956	218.518	135.123	51.693	44.918	222.017	35.373	-55.881	217.870	95.255	279.791	0.00050308	0.00037534	0.00016554	1344.6	5.3737e-06	6.955e-06	1350	364.94	7.5574e-06	5.5391e-06	417.17	138.4	119.83	40.357	3.9817e-06	50.444	0.00066821	0.00067307	0.00018536	1376.3	7.2261e-06	7.2777e-06	1369.3	373.62	7.0808e-06	7.0793e-06	427.62	148.96	123.32	41.796	6.9852e-06	52.203	-20.222	-39.448	68.614	-53.293	27.296	57.855	-53.397	-48.607	67.591	72.367	-49.168	-43.934	-44.232	-39.665	195.447	-40.661	-8191	255	
916.780	1	1	0	0	0.18518	0.23161	0.06237	0.078561	0.15599	0.33767	0.15878	0.13278	0.17217	0.20094	0.098095	0.077733	0.1057	0.16609	0.23194	0.12953	-2.0208	-2.1646	-2.0396	-2.5479	-1.9917	-2.4479	-2.7354	-2.0917	-2.6063	-2.375	-2.2104	-2.6042	-2.0646	-2.3542	-2.5396	-2.1896	280.000	131.558	30.890	123.601	16.198	-35.232	-59.110	246.566	-24.598	23.005	205.351	-5.127	2.001	238.335	21.532	284.776	0.00054172	0.00074691	0.00024366	1343.1	1.6845e-06	8.6503e-06	1339.3	364.03	8.226e-06	1.4072e-05	417.27	139.86	119.48	40.381	1.5609e-06	50.565	0.00062967	0.00063393	0.0001757	1367.5	6.9379e-06	6.9094e-06	1362.5	372.08	6.8712e-06	6.932e-06	426.73	147.94	123.18	41.783	7.0196e-06	52.139	-1.258	-7.085	16.932	-53.133	136.242	-35.451	-53.614	-48.704	43.573	112.075	-49.227	-44.389	-44.306	-39.800	142.724	-40.469	-8191	255	
916.876	1	1	0	0	0.36474	0.093141	0.16422	0.21309	0.23645	0.26678	0.21587	0.12247	0.2188	0.18844	0.16595	0.056615	0.16705	0.27269	0.15252	0.13122	-1.9312	-2.45	-1.9625	-2.6229	-2.2104	-2.3667	-2.6292	-2.0854	-2.3021	-2.3	-2.1542	-2.4083	-2.2542	-2.2167	-2.5354	-2.2542	230.789	236.325	33.377	221.612	-35.405	75.839	271.020	143.363	261.567	48.822	176.468	290.833	176.517	254.824	259.233	205.383	0.00031394	0.00036176	0.00015724	1341	2.8274e-06	3.5549e-06	1343.3	365.74	6.009e-06	9.777e-06	414.95	138.09	119.2	40.411	4.6301e-06	50.289	0.00063722	0.00064952	0.00017953	1369.5	7.0793e-06	7.1638e-06	1366.5	373.15	7.1678e-06	7.1503e-06	426.92	149.72	123.5	41.872	7.1412e-06	52.255	-31.340	92.145	-16.148	-53.330	21.523	57.550	-53.377	-48.656	262.413	112.138	-49.329	-43.496	-44.416	-39.483	107.185	-40.712	-8191	255	
916.973	1	1	0	0	0.17384	0.17115	0.10772	0.11917	0.13847	0.21534	0.12603	0.083646	0.017452	0.10216	0.1018	0.085955	0.078719	0.12999	0.0695	0.10206	-2.0375	-2.2354	-2.1354	-2.5521	-2.3292	-2.0958	-2.7021	-2.1646	-2.4979	-2.4688	-2.1792	-2.5229	-2.2792	-2.4042	-2.4854	-2.25	121.811	163.821	221.627	-57.950	273.038	111.204	197.572	248.533	22.723	245.706	-24.084	-39.621	90.875	206.173	233.047	266.082	0.00042539	0.00071662	0.00018212	1341.3	3.2617e-06	4.7264e-06	1343.7	364.53	5.2845e-06	2.5766e-06	418.06	136.69	119.46	40.426	5.5262e-06	50.436	0.00064885	0.00065311	0.00018023	1370.8	7.2098e-06	7.1955e-06	1364.8	373.08	7.1616e-06	7.2358e-06	428.07	149.16	123.62	41.929	7.2111e-06	52.286	-18.389	20.016	-38.546	-53.371	6.791	57.233	-53.450	-48.695	6.706	149.061	-49.302	-43.507	-44.332	-39.479	290.872	-40.461	-8191	255	
917.093	1	1	0	0	0.16646	0.051504	0.28973	0.21959	0.074216	0.16823	0.328	0.18383	0.25937	0.19912	0.2038	0.11898	0.14303	0.21484	0.21481	0.37959	-1.7104	-2.35	-1.9604	-2.4896	-2.2313	-2.1542	-2.675	-2.1625	-2.4292	-2.6229	-2.1562	-2.4042	-2.5042	-2.2604	-2.5687	-2.2875	266.076	0.904	166.009	277.342	262.816	-64.473	213.667	228.879	190.430	152.530	270.990	-19.087	184.433	203.093	266.666	287.343	0.00031239	0.00037808	5.914e-05	1347.7	4.6252e-06	5.4821e-06	1344.7	367.12	6.9051e-06	3.8907e-06	421.29	138.78	120.13	40.629	3.7608e-06	50.566	0.00065753	0.00066432	0.00018445	1376.4	7.2495e-06	7.2764e-06	1370.5	374.45	7.1923e-06	7.2439e-06	430.24	151.03	123.83	42.054	7.1599e-06	52.439	-4.909	2.732	0.595	-53.308	12.649	30.679	-53.527	-48.733	212.023	54.989	-49.337	-42.678	-44.653	-39.680	-64.450	-40.511	-8191	255	
917.165	1	1	0	0	0.046657	0.12692	0.22077	0.094576	0.13225	0.27327	0.070201	0.14519	0.24794	0.065915	0.20288	0.080262	0.2652	0.18172	0.27095	0.2421	-1.6958	-2.4021	-1.9458	-2.4958	-2.4229	-2.0208	-2.775	-2.3021	-2.1375	-2.4958	-2.1125	-2.3812	-2.475	-2.1583	-2.6083	-2.2833	39.660	231.805	-47.564	-65.456	-52.120	52.252	195.452	114.032	217.204	230.458	183.004	103.627	291.536	36.007	120.240	216.564	0.00044698	0.00080281	1.3183e-05	1347.5	4.7467e-06	3.745e-06	1350.9	366.01	2.0561e-06	7.2768e-06	417.73	140.15	119.74	40.434	6.0289e-06	50.534	0.00064695	0.00064765	0.00018014	1376.2	6.9898e-06	6.9707e-06	1369.6	374.09	6.9165e-06	6.8447e-06	427.49	148.37	123.18	41.801	6.7523e-06	52.212	-39.727	42.913	114.819	-53.283	57.190	120.173	-53.576	-48.759	4.870	123.837	-49.386	-43.820	-44.481	-39.421	5.522	-40.505	-8191	255	
917.261	1	1	0	0	0.17579	0.11869	0.22782	0.12458	0.22508	0.072783	0.15941	0.19692	0.13732	0.31213	0.28617	0.10264	0.22374	0.30949	0.149	0.24684	-1.6021	-2.4188	-1.9292	-2.4729	-2.4437	-2.1813	-2.4792	-2.2146	-2.0375	-2.5583	-2.1667	-2.3438	-2.4938	-2.1125	-2.4125	-2.4104	209.503	73.961	242.463	148.028	87.332	80.478	267.615	260.336	105.940	-34.203	-28.881	81.489	-59.714	-44.691	257.163	219.380	0.00026829	0.00056181	0.00016474	1345.5	5.1202e-06	1.1715e-05	1347.9	366.44	5.3394e-06	6.0641e-06	418.67	139.22	119.64	40.498	1.4979e-06	50.359	0.00062166	0.00062706	0.00017206	1373.3	6.7865e-06	6.8287e-06	1368.6	373.98	6.8483e-06	6.9213e-06	427.82	148.28	123.54	41.894	6.9606e-06	52.185	-19.877	-46.279	127.435	-53.532	43.112	30.026	-53.451	-48.726	207.044	60.421	-49.166	-43.493	-44.473	-39.689	131.799	-40.779	-8191	255	
917.382	1	1	0	0	0.0069117	0.087622	0.088664	0.213	0.25823	0.1016	0.14338	0.44329	0.13192	0.028853	0.17364	0.17314	0.3086	0.13913	0.01804	0.14995	-1.6104	-2.3812	-1.9375	-2.4813	-2.2708	-2.0417	-2.5146	-2.6188	-1.8563	-2.4792	-2.2271	-2.1229	-2.4188	-2.1937	-2.25	-2.35	132.973	10.170	62.668	18.066	125.234	52.795	205.951	232.895	6.672	-7.338	177.871	65.535	241.020	180.549	203.245	-25.045	0.00047441	0.00049261	6.724e-05	1349.6	2.7008e-06	5.4606e-06	1343.3	365.67	1.2644e-05	5.7023e-06	416.8	138.58	119.39	40.505	2.0217e-06	50.565	0.00063476	0.00064365	0.00017952	1372.5	7.0922e-06	7.1296e-06	1366.2	373.54	7.1535e-06	7.1882e-06	427.69	150.11	123.51	41.837	7.2949e-06	52.331	-16.137	70.799	-17.324	-53.288	50.602	67.290	-53.486	-48.519	117.554	163.791	-49.309	-43.734	-44.255	-39.788	62.719	-40.396	-8191	255	
917.476	1	1	0	0	0.30066	0.26837	0.26075	0.16411	0.22033	0.18889	0.21341	0.096754	0.11081	0.30294	0.16162	0.087369	0.22132	0.21665	0.12351	0.30571	-1.6083	-2.2875	-1.8771	-2.2313	-2.3979	-2.1854	-2.625	-2.5312	-1.9958	-2.5896	-2.3375	-2.3042	-2.5187	-2.1146	-2.3292	-2.6146	205.881	53.209	-49.037	210.043	154.173	68.225	206.586	228.600	190.045	114.731	2.962	96.907	244.702	197.731	207.055	232.452	0.0004277	0.00014417	8.4988e-05	1344.8	4.4081e-06	4.863e-06	1345.8	365.84	7.6245e-07	6.2165e-06	417.51	142.81	119.09	40.703	4.1633e-06	50.215	0.00065974	0.00066597	0.00018573	1375.9	7.3732e-06	7.3647e-06	1370	373.8	7.3673e-06	7.4278e-06	428.77	152.85	123.96	42.07	7.3671e-06	52.27	-6.297	106.500	-48.139	-53.300	87.354	39.648	-53.478	-48.716	198.906	44.563	-49.205	-44.347	-44.331	-39.876	-31.224	-40.632	-8191	255	
917.572	1	1	0	0	0.10189	0.21298	0.092378	0.33264	0.23571	0.068127	0.27197	0.065002	0.059017	0.093703	0.067948	0.23418	0.16361	0.18305	0.15096	0.053633	-1.4354	-2.4375	-2.0333	-1.9042	-2.3854	-2.0312	-2.5146	-2.5417	-2	-2.5563	-2.1542	-2.0438	-2.4625	-2.2229	-2.3875	-2.5021	169.678	46.963	282.446	176.569	109.928	28.826	162.696	161.752	253.004	-63.424	-48.958	179.155	86.883	234.824	216.857	147.190	0.00049322	0.00017828	3.9573e-05	1349.7	4.7177e-06	7.1385e-06	1349.6	366.16	3.7597e-06	5.19e-06	419.3	138.28	119.35	40.591	2.9825e-06	50.394	0.00066143	0.00066853	0.00018739	1379.2	7.1884e-06	7.2053e-06	1369.9	373.61	7.1033e-06	7.1394e-06	428.18	150.02	123.49	41.938	7.1194e-06	52.215	-44.356	117.256	75.030	-53.530	68.930	27.370	-53.433	-48.766	132.649	9.800	-49.387	-44.525	-44.419	-39.775	64.964	-40.714	-8191	255	
917.693	1	1	0	0	0.18618	0.32146	0.21622	0.17397	0.35745	0.24091	0.13068	0.23073	0.061951	0.19809	0.086667	0.15037	0.10408	0.20287	0.20518	0.12454	-1.4896	-2.3958	-2.05	-2.1604	-2.3271	-2.0792	-2.3292	-2.6583	-2.0875	-2.4188	-2.5187	-2.0542	-2.525	-2.2729	-2.1	-2.4083	289.189	48.707	138.102	224.851	283.228	77.602	150.939	152.835	281.846	83.383	-30.737	-28.635	33.840	28.564	-2.448	91.676	0.00040286	0.000486	0.00022399	1341.2	1.2012e-06	5.0423e-06	1349.1	366.11	2.9722e-06	5.4282e-06	417.98	138.3	119.19	40.627	5.381e-06	50.565	0.00064313	0.00064361	0.00018175	1373.2	7.0419e-06	7.1524e-06	1369.1	373.29	7.0873e-06	7.0309e-06	428.02	149.78	123.24	41.928	7.0375e-06	52.284	-34.666	38.737	-8.345	-53.163	270.430	74.388	-53.456	-48.767	61.584	48.752	-49.188	-42.647	-44.437	-39.961	64.840	-40.572	-8191	255	
917.764	1	1	0	0	0.11892	0.07507	0.042339	0.078959	0.16554	0.16401	0.23695	0.2641	0.17405	0.14285	0.20205	0.084688	0.11954	0.2318	0.12997	0.18934	-1.3021	-2.1	-2.3167	-2.2104	-2.5083	-2.3896	-2.4375	-2.7833	-2.0583	-2.4354	-2.4854	-2.0062	-2.5667	-2.4021	-1.9833	-2.6312	19.706	250.168	-2.977	93.120	265.205	252.655	230.658	227.152	23.311	43.761	-63.671	66.316	-33.757	133.110	116.663	87.951	0.00047665	0.0010352	2.5102e-05	1343.6	4.7313e-06	4.1377e-06	1346.8	366.05	6.3443e-06	5.4311e-06	417.37	135.94	119.42	40.535	7.6611e-06	50.4	0.00064582	0.00064378	0.00018132	1376.7	7.0531e-06	7.1489e-06	1369.7	373.99	7.0791e-06	7.0953e-06	427.76	149.07	123.41	41.893	7.0621e-06	52.23	-27.760	-6.229	88.639	-53.416	101.125	78.310	-53.445	-48.617	-23.999	155.134	-49.296	-43.668	-44.282	-39.493	61.474	-40.456	-8191	255	
917.861	1	1	0	0	0.10566	0.10715	0.16862	0.049581	0.16876	0.17792	0.26186	0.20821	0.19625	0.22144	0.11651	0.084042	0.13372	0.27771	0.098973	0.09015	-1.6396	-2.1896	-2.3333	-1.9521	-2.5812	-2.4708	-2.4479	-2.7896	-2.1167	-2.4021	-2.5458	-2.0417	-2.4583	-2.3688	-2.05	-2.4271	203.290	215.621	162.307	-57.281	267.054	-39.499	261.025	218.760	233.346	242.387	-54.714	201.406	287.093	225.360	221.016	253.008	0.00041427	0.00085669	8.0264e-05	1348.2	3.3209e-06	3.0984e-06	1353.4	368.07	3.1177e-06	2.6471e-06	420.1	139	119.9	40.769	1.6043e-06	50.76	0.00064042	0.00064376	0.00017938	1377.6	7.0608e-06	7.0357e-06	1371.5	374.31	7.0568e-06	7.0196e-06	428.63	148.94	123.57	41.985	7.0289e-06	52.34	-21.293	30.083	275.314	-53.190	54.679	35.182	-53.554	-48.716	-65.175	146.859	-49.105	-42.792	-44.449	-39.770	95.636	-40.463	-8191	255	
917.957	1	1	0	0	0.012685	0.17089	0.20296	0.20573	0.1396	0.033873	0.44744	0.26166	0.12186	0.15205	0.16649	0.1268	0.083806	0.094026	0.14561	0.14682	-1.7458	-2.1896	-2.5792	-2.0542	-2.4062	-2.2313	-2.2125	-2.5062	-2.0875	-2.3833	-2.575	-1.9396	-2.3646	-2.5854	-2.0896	-2.625	27.442	112.503	117.969	233.781	234.206	94.467	228.562	279.177	-16.966	71.885	218.795	287.483	122.538	48.188	138.721	220.580	0.000595	0.00057804	0.00014739	1347	6.0843e-06	9.7397e-06	1345.8	366.51	3.5973e-06	3.9559e-06	417.89	138.81	119.82	40.654	3.142e-06	50.649	0.00063724	0.0006457	0.00017816	1375.4	7.0106e-06	6.9695e-06	1370.1	374.05	6.9693e-06	6.9024e-06	427.96	147.9	123.6	41.973	6.9382e-06	52.318	-30.925	50.279	18.230	-53.412	57.063	-5.585	-53.473	-48.653	133.129	114.449	-49.148	-42.548	-44.303	-39.546	36.838	-40.412	-8191	255	
918.077	1	1	0	0	0.096934	0.23279	0.19238	0.17157	0.076192	0.10447	0.20788	0.30009	0.072608	0.23158	0.23592	0.12483	0.074884	0.24758	0.23377	0.24974	-1.8	-2.1042	-2.3417	-2.225	-2.2604	-2.4437	-2.3458	-2.5375	-2.25	-2.1771	-2.4562	-2.0583	-2.4833	-2.5208	-2.1604	-2.4833	172.219	177.103	95.845	-41.999	92.473	76.148	281.914	256.624	-60.150	143.446	266.819	97.472	151.534	243.330	97.863	250.350	0.00045294	0.00017997	0.0001024	1350.8	9.046e-06	1.953e-06	1348.7	366.04	4.3924e-06	2.8223e-06	417.13	135.61	120.28	40.736	6.1814e-06	50.408	0.00062274	0.00063461	0.00017437	1375.6	6.8719e-06	6.8743e-06	1369.6	373.61	6.8301e-06	6.9012e-06	427.83	147.34	123.4	41.956	6.8549e-06	52.175	-26.076	289.045	-51.793	-53.340	56.575	58.823	-53.483	-48.638	-64.681	186.712	-49.269	-43.997	-44.543	-39.958	7.847	-40.678	-8191	255	
918.174	1	1	0	0	0.11464	0.20096	0.22095	0.3029	0.44532	0.14457	0.24925	0.31702	0.21134	0.1977	0.26819	0.098454	0.20951	0.10963	0.19211	0.15725	-1.6938	-2.0021	-2.4229	-2.1875	-2.1958	-2.4771	-2.2708	-2.6396	-2.1896	-2.1437	-2.6583	-1.9646	-2.25	-2.625	-1.9438	-2.3708	292.664	73.121	253.844	275.783	-55.376	47.167	257.800	267.161	249.844	-46.640	241.458	159.106	-49.824	129.830	-17.062	285.326	0.00054893	0.00023609	0.00015208	1340.6	6.0144e-06	2.1571e-06	1345.8	366.25	1.7461e-06	4.1785e-06	419.13	138.9	119.81	40.519	2.651e-06	50.633	0.00062201	0.00062357	0.00017422	1370.1	6.7866e-06	6.7207e-06	1366.2	373.53	6.7269e-06	6.7838e-06	427.95	147.23	123.28	41.815	6.8267e-06	52.259	-23.380	36.301	36.794	-53.199	114.139	140.801	-53.493	-48.798	39.873	110.617	-49.179	-43.718	-44.353	-39.849	-22.546	-40.528	-8191	255	
918.270	1	1	0	0	0.082748	0.031592	0.1039	0.28285	0.23473	0.11515	0.27805	0.22577	0.16954	0.041704	0.10449	0.10976	0.17468	0.090032	0.041528	0.26774	-1.8188	-2.0208	-2.2417	-2.2021	-2.1521	-2.5167	-2.3167	-2.4833	-2.3812	-1.925	-2.5708	-2.2188	-2.2479	-2.7729	-2.1833	-2.3667	-38.813	260.250	26.234	233.034	-47.713	190.343	234.290	156.597	-45.086	-50.416	207.911	72.619	-0.424	136.464	228.868	207.561	0.00032503	0.00077253	0.00015503	1340.5	3.598e-06	6.21e-06	1345.9	367.22	2.4618e-06	5.1764e-06	420.84	140.78	119.4	40.642	5.3032e-06	50.709	0.00062112	0.00062943	0.00017345	1371.6	6.8212e-06	6.8327e-06	1368.5	373.89	6.7942e-06	6.8353e-06	428.47	147.15	123.1	41.912	6.6794e-06	52.152	-35.736	58.883	-32.497	-53.251	162.617	43.279	-53.676	-48.637	159.023	60.182	-49.385	-43.214	-44.580	-39.800	45.873	-40.564	-8191	255	
918.364	1	1	0	0	0.12642	0.046567	0.22443	0.13686	0.17585	0.020592	0.29921	0.27343	0.12262	0.042636	0.25423	0.21684	0.29077	0.06717	0.1066	0.3136	-1.925	-2.0458	-2.3104	-2.1562	-2.0729	-2.6	-2.4125	-2.3292	-2.4562	-2.0542	-2.5062	-2.2438	-2.2354	-2.475	-2.3208	-2.2833	41.604	133.289	191.502	-48.415	283.547	215.669	227.570	226.127	114.352	25.848	162.374	-57.419	-52.389	272.240	217.970	270.857	0.00046718	9.4368e-05	0.0001873	1345.2	5.2831e-06	4.7538e-06	1340.6	364.47	8.3514e-06	2.2308e-06	415.7	141.45	118.87	40.61	4.6323e-06	50.696	0.00060035	0.00059653	0.00016443	1365.7	6.4184e-06	6.4062e-06	1363.5	371.76	6.3208e-06	6.3674e-06	424.99	143.74	122.43	41.759	6.3424e-06	51.948	-6.555	91.218	-27.503	-53.356	100.882	115.074	-53.641	-48.728	92.332	139.785	-49.319	-43.693	-44.243	-39.495	82.283	-40.560	-8191	255	
918.460	1	1	0	0	0.10127	0.14352	0.091757	0.031399	0.22981	0.20807	0.27363	0.19536	0.16352	0.26928	0.37942	0.13652	0.1499	0.13708	0.038506	0.16473	-1.9146	-1.8458	-2.2958	-2.2438	-2.1042	-2.4375	-2.3917	-2.2833	-2.5187	-1.9396	-2.3896	-2.2875	-2.0417	-2.5583	-2.2021	-2.2292	-2.809	-37.484	207.809	274.674	153.058	-45.761	243.381	263.280	-22.464	97.057	238.234	277.285	175.765	247.776	-10.863	-38.359	0.00035806	0.0012391	0.00019745	1344.5	3.7584e-06	6.0326e-06	1347	365.83	1.8563e-06	5.8295e-06	418.21	137.86	119.82	40.544	1.2641e-05	50.504	0.00056452	0.00057522	0.00015851	1362.5	6.2164e-06	6.1858e-06	1363.8	371.87	6.2458e-06	6.1924e-06	425.64	141.89	122.48	41.718	6.0811e-06	51.876	-21.378	-26.125	32.885	-53.355	113.698	78.558	-53.608	-48.811	78.029	37.621	-49.217	-44.000	-44.550	-39.482	70.360	-40.480	-8191	255	
918.556	1	1	0	0	0.10302	0.2145	0.27293	0.25346	0.1617	0.14366	0.29655	0.40605	0.13533	0.28133	0.21521	0.023292	0.24845	0.14546	0.17359	0.46282	-2.1625	-1.8458	-2.2896	-2.2313	-1.9583	-2.35	-2.475	-2.2875	-2.5375	-2.0187	-2.5271	-2.2188	-1.9708	-2.3375	-2.1583	-2.1583	2.121	0.857	131.008	-34.270	126.910	30.043	224.497	255.760	251.122	290.575	-51.768	158.571	-9.254	-32.366	4.871	256.110	0.00042063	0.00084439	9.5181e-05	1345.4	3.4289e-06	3.7586e-06	1338.9	365.49	7.4144e-06	4.043e-06	417.95	136.76	119.3	40.278	2.0683e-06	50.615	0.00055132	0.00055137	0.00015363	1357.9	6.0784e-06	6.0693e-06	1360.1	371.48	6.158e-06	6.2023e-06	425.16	142.28	122.45	41.641	6.2532e-06	51.999	-26.224	32.016	2.238	-53.467	101.794	-34.171	-53.533	-48.451	107.556	82.364	-49.430	-43.209	-44.264	-39.461	8.102	-40.606	-8191	255	
918.653	1	1	0	0	0.22367	0.16556	0.061988	0.1726	0.16716	0.089674	0.38914	0.13845	0.20137	0.10589	0.25068	0.1373	0.17623	0.31732	0.30042	0.09675	-1.9521	-2.0833	-2.3083	-2.5417	-2.0187	-2.5312	-2.4479	-2.2062	-2.4042	-2.2	-2.1521	-2.375	-2.1208	-2.425	-2.2167	-2.0917	33.747	270.820	148.574	204.920	189.227	98.774	143.881	234.402	194.965	-2.067	263.357	34.541	88.606	237.439	256.041	92.288	0.00042962	0.00055267	0.00019169	1338.2	2.9588e-06	6.0085e-06	1340.7	365.7	3.7211e-06	8.3138e-06	416.7	137.37	119.36	40.487	5.9768e-06	50.589	0.00057329	0.00057737	0.00015964	1361.3	6.3e-06	6.273e-06	1360.1	371.93	6.2745e-06	6.3207e-06	425.89	142.9	122.49	41.706	6.3074e-06	52.07	-32.537	157.580	187.416	-53.488	61.082	-19.059	-53.491	-48.646	271.430	162.483	-49.158	-43.983	-44.148	-39.681	21.894	-40.668	-8191	255	
918.773	1	1	0	0	0.21325	0.15903	0.21124	0.11507	0.17656	0.23157	0.34915	0.24449	0.14378	0.17082	0.33094	0.24797	0.32268	0.16744	0.0944	0.12103	-2.0646	-2.2229	-2.2708	-2.4979	-2.0687	-2.5312	-2.3479	-2.0396	-2.5438	-2.1208	-2.2333	-2.4583	-2.1458	-2.2375	-2.3	-2.1208	263.107	237.707	280.637	184.234	113.978	-21.177	237.660	247.538	93.483	47.693	249.616	72.160	-54.981	73.804	89.007	271.761	0.00037932	0.00059681	5.1083e-05	1331.5	4.5251e-06	6.8681e-06	1342.1	363.54	4.4199e-06	3.9416e-06	416.14	137.57	119.2	40.413	1.4565e-06	50.51	0.00056864	0.00058556	0.00016072	1358.5	6.3292e-06	6.2837e-06	1361.3	371.18	6.2733e-06	6.2286e-06	425.5	142.53	122.42	41.62	6.2078e-06	51.929	-5.437	12.917	70.749	-53.247	45.731	102.702	-53.348	-48.587	195.384	40.774	-49.431	-43.700	-44.578	-39.489	123.124	-40.766	-8191	255	
918.869	1	1	0	0	0.31402	0.12106	0.17609	0.35346	0.15999	0.10221	0.45065	0.15667	0.17174	0.19539	0.14553	0.28273	0.23561	0.18847	0.1426	0.39107	-2.0375	-2.0917	-2.0521	-2.5771	-2.0938	-2.2938	-2.5542	-2.1083	-2.3937	-2.3125	-2.0771	-2.4542	-2.1458	-2.3479	-2.4958	-2.0667	215.634	127.428	43.351	282.822	173.330	236.844	238.950	27.565	5.041	-18.754	289.758	-44.783	254.517	292.221	151.554	191.578	0.00053332	0.00082988	0.00031919	1337.3	5.8609e-06	3.6677e-06	1344.7	364.53	3.9884e-06	5.4612e-06	417.62	138.54	119.53	40.497	3.7223e-06	50.721	0.00056381	0.00056609	0.00015868	1359.3	6.2662e-06	6.2359e-06	1361.7	371.41	6.308e-06	6.3428e-06	425.92	142.86	122.46	41.778	6.2894e-06	52.103	-8.051	17.578	25.004	-53.324	125.904	-19.228	-53.513	-48.693	76.501	6.993	-49.217	-43.987	-44.489	-39.470	29.120	-40.506	-8191	255	
918.965	1	1	0	0	0.19408	0.25009	0.057711	0.18451	0.09915	0.084674	0.090165	0.22551	0.054831	0.23231	0.20463	0.14713	0.1736	0.22812	0.11239	0.11525	-1.7687	-2.2375	-1.9833	-2.6479	-2.0917	-2.2542	-2.7375	-2.1979	-2.3521	-2.2229	-2.2271	-2.3937	-2.2208	-2.3042	-2.4813	-2.15	108.652	12.198	190.722	189.600	-61.152	285.446	221.145	267.472	74.281	210.909	41.732	263.520	234.428	290.598	106.467	-39.007	0.00047693	0.00016128	7.2168e-05	1342.5	5.2197e-06	6.2827e-06	1343.4	364.7	6.9338e-07	1.2207e-05	416.84	137.36	119.57	40.268	2.261e-06	50.581	0.00057795	0.00058156	0.00016232	1362.2	6.3772e-06	6.4154e-06	1361.6	371.81	6.4704e-06	6.4744e-06	425.43	144.36	122.4	41.731	6.4519e-06	52.083	-26.531	280.309	4.332	-53.256	34.831	101.559	-53.340	-48.782	230.633	122.728	-49.319	-43.784	-44.094	-39.661	48.004	-40.538	-8191	255	
919.062	1	1	0	0	0.1148	0.10686	0.11972	0.20912	0.07613	0.20694	0.11941	0.40971	0.11348	0.127	0.31018	0.19441	0.18836	0.33111	0.12861	0.20998	-1.9146	-2.4604	-2.0854	-2.4083	-2.1021	-2.0812	-2.6354	-2.0229	-2.2875	-2.4604	-2.0333	-2.4792	-2.2104	-2.1937	-2.575	-2.2521	-39.757	75.259	182.808	-56.992	154.358	190.525	243.188	286.175	161.990	-41.197	208.012	-18.510	214.698	267.898	156.986	232.019	0.00038229	0.00040511	0.00032327	1334.9	4.2212e-06	3.7479e-06	1339.7	364.21	5.0328e-06	3.1909e-06	417.89	138.49	119.32	40.502	4.7848e-06	50.287	0.00058697	0.00059449	0.0001657	1362.7	6.4962e-06	6.5397e-06	1361.6	371.45	6.5201e-06	6.487e-06	425.88	144.74	122.64	41.712	6.5243e-06	51.919	-40.226	45.162	22.798	-53.667	77.127	-35.416	-53.356	-48.750	278.406	33.465	-49.194	-43.184	-44.313	-39.629	63.029	-40.280	-8191	255	
919.158	1	1	0	0	0.032223	0.12615	0.059317	0.19651	0.14181	0.15728	0.19258	0.16909	0.12867	0.25407	0.18414	0.093196	0.17044	0.096206	0.081537	0.22288	-1.8958	-2.3479	-1.8917	-2.4688	-2.2854	-1.9396	-2.6562	-2.1792	-2.1896	-2.4917	-1.9375	-2.3979	-2.3104	-2.1042	-2.4104	-2.2229	144.717	247.614	220.172	253.993	-34.492	2.803	-58.123	238.900	-56.738	-33.945	-38.886	222.475	-33.599	215.174	-17.126	37.687	0.00067782	9.899e-05	4.7972e-05	1336.5	6.8776e-06	7.1963e-06	1340.7	364.66	4.4057e-06	4.7752e-06	418.55	137.43	119.18	40.453	5.1325e-06	50.508	0.00060125	0.00059798	0.00016564	1362.4	6.5434e-06	6.5605e-06	1360.7	371.72	6.6126e-06	6.6389e-06	426.83	145.05	122.65	41.779	6.6428e-06	52.134	-2.195	43.171	259.402	-53.506	116.134	172.414	-53.530	-48.933	46.394	175.566	-49.263	-43.441	-44.388	-39.838	-51.325	-40.704	-8191	255	
919.254	1	1	0	0	0.1362	0.14085	0.25393	0.154	0.22318	0.17832	0.15127	0.15475	0.21931	0.029085	0.19126	0.17615	0.2349	0.33007	0.25401	0.018208	-1.6542	-2.3917	-2.05	-2.4604	-2.2021	-2.0104	-2.5812	-2.3833	-2.1562	-2.3771	-2.2333	-2.2646	-2.2875	-2.1271	-2.4313	-2.2417	2.789	180.214	220.355	207.260	197.853	45.360	-62.293	280.263	258.971	138.537	198.223	279.553	-40.288	-23.711	-33.529	13.822	0.00053368	0.00039228	0.00028029	1333.8	3.1263e-06	6.0744e-06	1340.8	364.41	8.3133e-06	1.029e-05	417.01	136.59	119.45	40.492	1.2802e-06	50.604	0.00060678	0.00060676	0.00017125	1364.3	6.6235e-06	6.7344e-06	1361.9	371.97	6.7495e-06	6.688e-06	426.42	146	122.89	41.775	6.7246e-06	52.133	-9.402	-51.290	-5.436	-53.233	113.140	38.384	-53.482	-48.646	-31.942	101.982	-49.199	-42.869	-44.026	-39.604	27.651	-40.482	-8191	255	
919.375	1	1	0	0	0.24117	0.33098	0.22351	0.18753	0.051297	0.058902	0.13193	0.15358	0.1387	0.16098	0.14403	0.19845	0.11894	0.28354	0.19418	0.054046	-1.6	-2.3583	-1.9625	-2.4708	-2.4562	-2.1167	-2.55	-2.2938	-2.0646	-2.2208	-2.1792	-2.3292	-2.3917	-2.1229	-2.375	-2.2458	208.640	204.440	202.065	-22.315	87.071	84.791	252.086	198.072	195.246	32.228	-14.489	290.253	134.136	97.225	-59.051	-20.679	0.00040445	5.3905e-05	3.1031e-05	1344.8	4.8566e-06	4.0364e-06	1342.2	364.68	3.7379e-06	1.209e-05	417.95	138.61	118.61	40.578	9.2047e-06	50.555	0.00061418	0.00061738	0.00017366	1368.2	6.7207e-06	6.8349e-06	1364.2	372.2	6.8821e-06	6.861e-06	427.44	147.7	122.59	41.809	6.8616e-06	52.192	-12.545	-36.466	-55.237	-53.177	20.095	98.882	-53.593	-48.773	91.071	57.143	-49.189	-43.471	-44.328	-39.680	39.591	-40.240	-8191	255	
919.469	1	1	0	0	0.23459	0.12028	0.038813	0.11422	0.1905	0.1737	0.23211	0.10072	0.1636	0.16654	0.1453	0.086327	0.26851	0.16837	0.30575	0.14135	-1.6187	-2.5208	-2.0792	-2.2521	-2.3458	-1.9521	-2.5917	-2.4188	-2.0208	-2.5187	-2.2292	-2.2229	-2.5021	-2.3104	-2.4333	-2.2396	32.003	272.289	207.268	132.205	69.418	106.434	200.837	266.366	224.772	184.575	231.867	24.768	-33.016	-6.087	42.855	159.743	0.00055	0.00080656	0.00010417	1341.8	4.1445e-06	5.7113e-06	1341.2	364.9	4.1732e-06	2.7546e-06	416.68	135.79	119.03	40.42	5.0443e-06	50.533	0.00062279	0.00062197	0.00017533	1368	6.8135e-06	6.8563e-06	1364.1	372.15	6.7939e-06	6.8744e-06	425.96	146.7	122.66	41.79	6.8244e-06	52.063	0.473	6.512	36.888	-53.467	266.960	2.662	-53.441	-48.551	179.098	76.495	-49.048	-44.644	-44.068	-39.629	211.313	-40.449	-8191	255	
919.565	1	1	0	0	0.088774	0.32418	0.42347	0.13831	0.23639	0.097921	0.37157	0.20877	0.30235	0.033624	0.14061	0.038636	0.23415	0.36258	0.19943	0.19205	-1.5354	-2.4292	-2.0854	-2.1667	-2.7146	-2.0625	-2.55	-2.4458	-1.8792	-2.5375	-2.4042	-2.2521	-2.5333	-2.1063	-2.4979	-2.5375	251.500	35.242	1.346	287.306	-16.235	85.315	258.891	272.912	55.308	275.186	25.014	263.873	284.287	246.336	-10.143	280.282	0.00064286	7.2288e-05	9.4978e-05	1343.7	3.9097e-06	4.6223e-06	1344.5	365.02	6.9222e-06	9.2622e-06	415.16	137.58	119.61	40.397	9.2944e-06	50.23	0.00062318	0.00062328	0.00017554	1367.1	6.8068e-06	6.8006e-06	1363.6	372.01	6.746e-06	6.8256e-06	426.21	146.67	122.77	41.681	6.7727e-06	52.039	-25.789	289.559	20.364	-53.476	70.963	-23.372	-53.476	-48.815	56.232	96.529	-49.216	-42.990	-44.616	-39.603	20.632	-40.434	-8191	255	
919.637	1	1	0	0	0.13483	0.12783	0.22157	0.22199	0.11968	0.25184	0.11888	0.18251	0.1602	0.15374	0.086532	0.10006	0.094224	0.33612	0.054214	0.080072	-1.475	-2.4458	-2.2917	-2.2062	-2.3396	-2.1125	-2.3042	-2.5354	-2.1063	-2.5021	-2.2104	-2.1375	-2.4167	-2.2812	-2.1688	-2.5167	135.106	95.153	134.620	282.957	-5.263	66.219	234.641	258.933	286.814	69.704	178.066	247.699	267.517	34.918	-35.887	213.195	0.00051445	0.0009328	0.000222	1342.2	6.5802e-06	7.2864e-06	1342.1	364.62	1.6788e-05	8.8739e-06	417.94	135.76	119.04	40.541	7.1192e-06	50.353	0.00061168	0.00062078	0.00017088	1367.4	6.7252e-06	6.7613e-06	1361.9	371.83	6.7325e-06	6.7339e-06	426.35	146.3	122.45	41.712	6.7575e-06	52.104	5.105	133.635	-4.517	-53.294	102.979	69.928	-53.261	-48.586	91.298	153.578	-49.257	-43.416	-44.515	-39.618	64.909	-40.489	-8191	255	
919.757	1	1	0	0	0.24945	0.15515	0.12424	0.19848	0.35402	0.23026	0.11871	0.19655	0.29508	0.2728	0.25747	0.06929	0.28275	0.076673	0.030268	0.18739	-1.6313	-2.3708	-2.3917	-2.0312	-2.5792	-2.1	-2.2875	-2.5333	-2.0021	-2.4583	-2.3792	-2.0604	-2.5396	-2.225	-2.2542	-2.5625	19.072	63.535	148.707	238.509	104.761	200.952	-25.350	241.815	95.762	73.414	-9.824	3.175	217.289	-10.920	42.447	-55.884	0.0005116	0.00047087	0.00017999	1344.5	8.3343e-06	4.5845e-06	1338.9	363.19	4.2684e-06	3.3553e-06	417.78	137.67	119.61	40.497	4.0293e-06	50.363	0.00061484	0.00061314	0.00017179	1366.8	6.7552e-06	6.8278e-06	1361.2	371.31	6.7772e-06	6.8116e-06	426.22	146.78	122.96	41.713	6.7692e-06	52.052	-5.623	25.193	153.185	-53.576	90.574	70.259	-53.290	-48.704	134.256	28.890	-49.202	-43.358	-44.569	-39.606	76.333	-40.572	-8191	255	
919.854	1	1	0	0	0.21669	0.19494	0.24572	0.1097	0.091217	0.20879	0.33449	0.1224	0.02486	0.22945	0.20759	0.16045	0.26831	0.39097	0.2195	0.38354	-1.6146	-2.3187	-2.4	-2.2333	-2.4354	-2.1333	-2.3563	-2.6437	-2.1396	-2.2562	-2.525	-1.9417	-2.5333	-2.4521	-2.2854	-2.5021	142.267	80.616	187.066	110.250	184.108	-30.938	211.325	244.871	163.557	68.732	278.941	-41.855	198.803	-35.828	191.050	129.214	0.00039403	0.00084214	0.00012489	1338.4	4.9297e-06	9.4076e-06	1340.9	363.15	5.7557e-06	5.4561e-06	417.76	137.23	118.61	40.396	2.4615e-06	50.479	0.00062121	0.0006281	0.00017331	1366.4	6.8593e-06	6.8551e-06	1363.4	371.67	6.8492e-06	6.8845e-06	427.24	148.13	122.54	41.756	6.8624e-06	52.192	6.074	69.453	39.343	-53.279	56.744	67.765	-53.634	-48.569	42.893	190.188	-49.099	-43.854	-44.358	-39.828	-34.513	-40.394	-8191	255	
919.950	1	1	0	0	0.25427	0.21588	0.079992	0.2431	0.1041	0.10786	0.10765	0.26249	0.20847	0.089729	0.11948	0.20619	0.087379	0.11972	0.095124	0.34728	-1.5458	-2.3312	-2.3146	-2.1792	-2.4062	-2.2104	-2.1771	-2.6437	-1.925	-2.2687	-2.4104	-1.9875	-2.5646	-2.4667	-1.9458	-2.55	216.787	240.735	15.943	-29.603	72.936	121.147	149.337	206.189	192.251	9.376	184.809	48.948	44.602	-42.247	73.921	284.739	0.00029317	0.00083013	7.4364e-05	1344.7	2.11e-06	6.1697e-06	1344.3	364.03	6.7887e-06	1.0581e-05	417.56	137.32	118.71	40.593	2.1676e-06	50.529	0.00063193	0.00063499	0.00017552	1369.3	6.9867e-06	6.9824e-06	1363.2	371.87	7.0251e-06	7.0482e-06	427.38	148.59	122.81	41.834	7.0871e-06	52.123	2.612	29.561	14.975	-53.318	113.646	77.243	-53.443	-48.661	-64.624	101.706	-49.128	-43.461	-44.345	-39.774	160.325	-40.634	-8191	255	
920.046	1	1	0	0	0.17127	0.22395	0.041212	0.02952	0.1181	0.095428	0.39423	0.28561	0.09812	0.06909	0.3127	0.18354	0.23365	0.18475	0.115	0.16811	-1.5708	-2.2896	-2.3604	-2.2271	-2.3146	-2.2958	-2.4708	-2.5875	-2.35	-2.3271	-2.7854	-2.1083	-2.4083	-2.5812	-2.1083	-2.5458	108.335	143.469	286.652	273.975	-27.903	274.164	226.080	276.305	-41.271	179.513	272.506	100.005	262.384	138.050	179.657	96.965	0.0004005	0.00052381	7.5852e-05	1344.4	6.0269e-06	4.9746e-06	1338.2	364.35	2.5616e-06	7.6793e-06	417.54	134.64	119	40.194	2.7301e-06	50.268	0.00064098	0.00064881	0.00017989	1372.6	7.0612e-06	7.0795e-06	1363.3	372.28	7.0423e-06	7.1697e-06	426.68	148.6	122.95	41.772	7.2121e-06	52.135	0.585	-24.302	-17.658	-53.275	116.817	23.050	-53.255	-48.678	205.924	63.913	-49.547	-45.099	-44.466	-39.647	202.815	-40.637	-8191	255	
920.166	1	1	0	0	0.19992	0.1633	0.067806	0.050617	0.074513	0.18977	0.22135	0.15116	0.17555	0.25168	0.091146	0.021516	0.079102	0.19527	0.10858	0.17995	-1.9292	-2.0958	-2.5667	-2.1625	-2.3146	-2.4396	-2.3438	-2.65	-2.2313	-2.225	-2.8	-2.2021	-2.2042	-2.5104	-2.1292	-2.6896	-0.321	261.098	126.738	259.984	162.093	85.466	275.859	230.277	56.091	61.866	-28.481	-49.677	-2.832	281.572	257.959	183.246	0.00040603	0.00079495	0.00023007	1340.9	2.6797e-06	1.7721e-06	1344.6	364.26	6.3226e-06	5.2878e-07	415.54	139.19	119.23	40.321	4.2664e-06	50.49	0.00065353	0.00065993	0.00018143	1369.6	7.0649e-06	7.1579e-06	1363.7	372.18	7.0713e-06	7.0866e-06	425.89	149.15	123.02	41.748	7.0947e-06	52.149	-3.065	-24.926	46.088	-53.313	103.954	58.160	-53.377	-48.800	-1.624	79.615	-49.424	-43.572	-44.312	-39.583	287.434	-40.645	-8191	255	
920.261	1	1	0	0	0.12226	0.036401	0.14055	0.093006	0.32514	0.099648	0.33695	0.095435	0.082152	0.26709	0.11138	0.18306	0.13537	0.12554	0.17921	0.17678	-1.6917	-2.1042	-2.3688	-2.25	-2.3771	-2.5583	-2.225	-2.5604	-2.3208	-2.025	-2.7	-2.0438	-2.2208	-2.5771	-1.9396	-2.3604	84.792	175.507	177.691	226.501	285.419	35.357	264.728	115.624	46.457	162.259	257.186	-65.583	-28.312	228.394	172.778	228.470	0.0005088	0.00050026	0.00016695	1337.7	5.5226e-06	6.7942e-06	1337.2	364.35	8.0216e-06	3.4727e-06	416.6	137.76	118.83	40.526	2.3723e-06	50.382	0.00064186	0.00064722	0.00018092	1367.4	7.131e-06	7.0162e-06	1362.3	372.56	7.0538e-06	7.0669e-06	427.14	148.36	122.93	41.777	7.0295e-06	52.179	-35.331	49.670	-35.870	-53.261	132.185	64.014	-53.479	-48.635	75.359	85.349	-49.422	-43.117	-44.140	-39.635	160.979	-40.632	-8191	255	
920.334	1	1	0	0	0.20607	0.10599	0.1967	0.2609	0.099992	0.094366	0.21834	0.045237	0.092619	0.098252	0.2773	0.081375	0.19291	0.24542	0.17469	0.25143	-2.0604	-2.0208	-2.5271	-2.2542	-2.1208	-2.575	-2.3	-2.6	-2.3625	-2.0875	-2.4188	-2.1375	-2.0979	-2.5896	-2.0833	-2.4521	13.955	228.787	30.507	-64.001	43.805	220.020	176.536	245.363	290.077	221.732	-53.248	181.279	-12.809	-52.690	140.837	140.355	0.00032724	0.0003533	4.9932e-05	1337	4.764e-06	5.9116e-06	1345.1	363.19	6.8493e-06	3.63e-06	417.41	135.98	119.41	40.322	5.5285e-07	50.3	0.00063646	0.00064507	0.00017773	1367.2	7.0412e-06	7.0535e-06	1363.5	372.05	7.0603e-06	7.0958e-06	426.65	148.51	122.96	41.744	7.0704e-06	52.138	-14.667	28.175	-2.800	-53.364	94.895	81.960	-53.489	-48.740	52.176	-59.583	-49.161	-44.150	-44.225	-39.596	10.680	-40.530	-8191	255	
920.455	1	1	0	0	0.071666	0.19992	0.24373	0.22597	0.072058	0.11231	0.27643	0.18146	0.0091262	0.029189	0.11545	0.30795	0.20012	0.23711	0.21219	0.13362	-1.925	-1.8771	-2.4042	-2.2333	-2.0563	-2.5438	-2.2583	-2.3438	-2.5167	-2.1104	-2.4271	-2.3458	-2.2479	-2.525	-2.1833	-2.2708	-53.224	44.783	285.158	171.002	27.285	82.440	207.351	-56.956	156.053	231.296	197.873	262.335	12.453	258.607	266.964	118.040	0.0002313	0.00071806	0.00014192	1330.7	6.2302e-06	8.9981e-06	1343.1	364.5	4.1483e-06	1.4074e-06	417.23	138.44	118.99	40.44	5.7867e-06	50.484	0.00063982	0.00065116	0.0001791	1366.9	7.0965e-06	7.0864e-06	1363.7	372.29	7.0346e-06	7.1209e-06	427.01	148.53	122.98	41.737	7.0153e-06	52.167	-5.321	-17.052	26.148	-53.318	61.146	100.154	-53.438	-48.498	35.429	-12.324	-49.321	-43.666	-44.424	-39.541	31.031	-40.536	-8191	255	
920.549	1	1	0	0	0.12303	0.13162	0.16904	0.23684	0.17932	0.060315	0.15455	0.22167	0.24227	0.14374	0.23959	0.093183	0.25242	0.25278	0.1607	0.11947	-1.9813	-2.0333	-2.2771	-2.3333	-2.0938	-2.4688	-2.2458	-2.2542	-2.4708	-1.975	-2.3854	-2.5292	-2.0917	-2.2792	-2.1625	-2.2604	-56.665	23.621	33.103	291.567	122.936	198.624	240.639	229.636	41.420	-50.081	255.840	268.310	236.158	-60.531	33.963	197.522	0.00048235	0.0007342	0.00011913	1337.7	5.1551e-06	5.7839e-06	1341.2	365.19	3.6834e-06	5.5132e-06	417.66	135.06	119.34	40.225	2.2321e-06	50.381	0.00063835	0.00064528	0.00017995	1366.3	6.9769e-06	6.9691e-06	1363	372.4	6.9564e-06	7.067e-06	427.29	147.98	122.99	41.733	7.0171e-06	52.095	-13.987	36.154	248.434	-52.954	39.248	95.691	-53.367	-48.639	221.343	197.554	-49.186	-44.027	-44.195	-39.917	-5.740	-40.456	-8191	255	
#DATA ENDS
