BOXY.EXE: ISS Imagent and Oximeter Data Acquisition Program Version 0.80
Ascii Record File

#ACQ INFORMATION
2  Detector Channels 
16  External MUX Channels 
1  Auxiliary Channels 
5000  Waveform (CCF) Frequency (Hz)
1  Waveforms Skipped 
30  Waveforms Averaged 
1  Cycles Averaged 
16  Acquisitions per Waveform 
10.0806  Updata Rate (Hz) 

#FILE INFORMATION
TRUE -- External MUX Channel results are PARSED.
FALSE -- AC DC and Phase are NOT grouped.
TRUE -- Companion Program Settings File CREATED.
FALSE -- AC data not excluded
FALSE -- DC data not excluded
FALSE -- Phase data not excluded
FALSE -- Auxillary Chn. data not excluded
Tab delimiters

#CALIBRATION STATE
TRUE -- Waveform Calibration Values APPLIED.


#AUX CALIBRATION VALUES
Val Type	aux-1	

Term	1.0000e+00	
Factor	0.0000e+00	


#WF CALIBRATION VALUES
A = Detector Channel
Val Type	A-AC1	A-AC2	A-AC3	A-AC4	A-AC5	A-AC6	A-AC7	A-AC8	A-AC9	A-AC10	A-AC11	A-AC12	A-AC13	A-AC14	A-AC15	A-AC16	A-DC1	A-DC2	A-DC3	A-DC4	A-DC5	A-DC6	A-DC7	A-DC8	A-DC9	A-DC10	A-DC11	A-DC12	A-DC13	A-DC14	A-DC15	A-DC16	A-Ph1	A-Ph2	A-Ph3	A-Ph4	A-Ph5	A-Ph6	A-Ph7	A-Ph8	A-Ph9	A-Ph10	A-Ph11	A-Ph12	A-Ph13	A-Ph14	A-Ph15	A-Ph16	

Term	0.00000e+00	0.00000e+00	0.00000e+00	0.00000e+00	0.00000e+00	0.00000e+00	0.00000e+00	0.00000e+00	0.00000e+00	0.00000e+00	0.00000e+00	0.00000e+00	0.00000e+00	0.00000e+00	0.00000e+00	0.00000e+00	0.00000e+00	0.00000e+00	0.00000e+00	0.00000e+00	0.00000e+00	0.00000e+00	0.00000e+00	0.00000e+00	0.00000e+00	0.00000e+00	0.00000e+00	0.00000e+00	0.00000e+00	0.00000e+00	0.00000e+00	0.00000e+00	0.00000e+00	0.00000e+00	0.00000e+00	0.00000e+00	0.00000e+00	0.00000e+00	0.00000e+00	0.00000e+00	0.00000e+00	0.00000e+00	0.00000e+00	0.00000e+00	0.00000e+00	0.00000e+00	0.00000e+00	0.00000e+00	
Factor	1.00000e+00	1.00000e+00	1.00000e+00	1.00000e+00	1.00000e+00	1.00000e+00	1.00000e+00	1.00000e+00	1.00000e+00	1.00000e+00	1.00000e+00	1.00000e+00	1.00000e+00	1.00000e+00	1.00000e+00	1.00000e+00	1.00000e+00	1.00000e+00	1.00000e+00	1.00000e+00	1.00000e+00	1.00000e+00	1.00000e+00	1.00000e+00	1.00000e+00	1.00000e+00	1.00000e+00	1.00000e+00	1.00000e+00	1.00000e+00	1.00000e+00	1.00000e+00	X	X	X	X	X	X	X	X	X	X	X	X	X	X	X	X	

B = Detector Channel
Val Type	B-AC1	B-AC2	B-AC3	B-AC4	B-AC5	B-AC6	B-AC7	B-AC8	B-AC9	B-AC10	B-AC11	B-AC12	B-AC13	B-AC14	B-AC15	B-AC16	B-DC1	B-DC2	B-DC3	B-DC4	B-DC5	B-DC6	B-DC7	B-DC8	B-DC9	B-DC10	B-DC11	B-DC12	B-DC13	B-DC14	B-DC15	B-DC16	B-Ph1	B-Ph2	B-Ph3	B-Ph4	B-Ph5	B-Ph6	B-Ph7	B-Ph8	B-Ph9	B-Ph10	B-Ph11	B-Ph12	B-Ph13	B-Ph14	B-Ph15	B-Ph16	

Term	0.00000e+00	0.00000e+00	0.00000e+00	0.00000e+00	0.00000e+00	0.00000e+00	0.00000e+00	0.00000e+00	0.00000e+00	0.00000e+00	0.00000e+00	0.00000e+00	0.00000e+00	0.00000e+00	0.00000e+00	0.00000e+00	0.00000e+00	0.00000e+00	0.00000e+00	0.00000e+00	0.00000e+00	0.00000e+00	0.00000e+00	0.00000e+00	0.00000e+00	0.00000e+00	0.00000e+00	0.00000e+00	0.00000e+00	0.00000e+00	0.00000e+00	0.00000e+00	5.02154e+01	-1.32405e+02	-1.47391e+02	-1.83881e+02	-8.20819e+01	-8.66762e+01	-1.57075e+02	-1.62015e+02	-7.94944e+01	-6.27886e+01	-1.70957e+02	-1.80827e+02	-1.85561e+02	-1.77392e+02	-9.92128e+01	-1.49845e+02	
Factor	5.63882e-05	1.67542e-04	4.49109e-05	4.66696e-01	1.40981e-06	1.64914e-06	1.77017e-01	5.24616e-02	2.06034e-06	1.99947e-06	9.54699e-02	4.98864e-01	4.32062e-02	9.42584e-03	1.90913e-06	1.39813e-02	1.79557e-06	1.86772e-06	5.19171e-07	2.26299e-01	2.03251e-08	2.04394e-08	8.27099e-02	2.63328e-02	2.02657e-08	2.04744e-08	4.59338e-02	1.56454e-01	2.12334e-02	4.72644e-03	2.03343e-08	6.74301e-03	X	X	X	X	X	X	X	X	X	X	X	X	X	X	X	X	



#DISTANCE SETTINGS
A = Detector Channel
A-1	A-2	A-3	A-4	A-5	A-6	A-7	A-8	A-9	A-10	A-11	A-12	A-13	A-14	A-15	A-16	

2.5000e+00	3.0000e+00	2.5000e+00	3.0000e+00	2.0000e+00	3.0000e+00	1.5000e+00	3.0000e+00	3.0000e+00	3.0000e+00	3.0000e+00	3.0000e+00	3.0000e+00	3.0000e+00	1.5000e+00	3.0000e+00	

B = Detector Channel
B-1	B-2	B-3	B-4	B-5	B-6	B-7	B-8	B-9	B-10	B-11	B-12	B-13	B-14	B-15	B-16	

1.0000e+01	1.0000e+01	1.0000e+01	1.4400e+00	1.0000e+01	1.0000e+01	1.5100e+00	1.9400e+00	1.0000e+01	1.0000e+01	1.9900e+00	2.4900e+00	2.4100e+00	2.9000e+00	1.0000e+01	2.9800e+00	




#DATA BEGINS
time	group	step	mark	flag	A-AC1	A-AC2	A-AC3	A-AC4	A-AC5	A-AC6	A-AC7	A-AC8	A-AC9	A-AC10	A-AC11	A-AC12	A-AC13	A-AC14	A-AC15	A-AC16	A-DC1	A-DC2	A-DC3	A-DC4	A-DC5	A-DC6	A-DC7	A-DC8	A-DC9	A-DC10	A-DC11	A-DC12	A-DC13	A-DC14	A-DC15	A-DC16	A-Ph1	A-Ph2	A-Ph3	A-Ph4	A-Ph5	A-Ph6	A-Ph7	A-Ph8	A-Ph9	A-Ph10	A-Ph11	A-Ph12	A-Ph13	A-Ph14	A-Ph15	A-Ph16	B-AC1	B-AC2	B-AC3	B-AC4	B-AC5	B-AC6	B-AC7	B-AC8	B-AC9	B-AC10	B-AC11	B-AC12	B-AC13	B-AC14	B-AC15	B-AC16	B-DC1	B-DC2	B-DC3	B-DC4	B-DC5	B-DC6	B-DC7	B-DC8	B-DC9	B-DC10	B-DC11	B-DC12	B-DC13	B-DC14	B-DC15	B-DC16	B-Ph1	B-Ph2	B-Ph3	B-Ph4	B-Ph5	B-Ph6	B-Ph7	B-Ph8	B-Ph9	B-Ph10	B-Ph11	B-Ph12	B-Ph13	B-Ph14	B-Ph15	B-Ph16	aux-1	digaux	

861.609	1	1	0	768	0.26018	0.27649	0.19331	0.12494	0.21815	0.20735	0.24287	0.023763	0.31841	0.062455	0.13168	0.074849	0.17627	0.10929	0.051344	0.10566	-1.7062	-2.4542	-2.0396	-2.3667	-2.2938	-2.1542	-2.7521	-2.2313	-2.3333	-2.3604	-2.0146	-2.3167	-2.5583	-2.1813	-2.3812	-2.1396	-60.622	53.147	148.308	280.602	-22.813	-40.317	228.376	-19.743	289.776	51.671	4.679	-35.813	253.936	245.442	18.775	232.350	0.00042188	0.00033888	0.0001554	1357.5	4.9781e-06	5.6082e-06	1356.6	367.56	4.1821e-06	3.3246e-06	419.18	139.55	122.23	41.836	1.5092e-06	51.744	0.00054611	0.00054773	0.00015113	1376.6	5.9364e-06	5.9711e-06	1376	373.92	5.9627e-06	6.0277e-06	427.03	142.77	124.79	42.964	6.022e-06	53.157	-14.317	39.371	13.765	-53.963	95.427	81.831	-53.776	-49.260	41.880	82.369	-49.827	-44.022	-44.540	-40.076	107.897	-40.884	-8191	255	
861.705	1	1	0	0	0.077353	0.14696	0.21959	0.10027	0.22607	0.28993	0.12398	0.28365	0.12993	0.27005	0.078971	0.19958	0.1757	0.21068	0.044207	0.15239	-1.6646	-2.2792	-2.0146	-2.4771	-2.5146	-2.1292	-2.6146	-2.3208	-2.1958	-2.4646	-2.1063	-2.2396	-2.4479	-1.9896	-2.3542	-2.2854	228.187	54.145	284.628	93.191	34.604	70.959	222.104	217.948	63.348	172.701	181.003	201.988	-33.972	-26.999	-67.118	215.492	0.00051153	0.00040923	0.00023943	1357.8	3.2347e-06	1.4553e-05	1361.7	367.3	3.5578e-06	4.597e-06	418.76	140.52	121.52	41.745	3.0706e-06	51.858	0.00054618	0.00055268	0.00015337	1377.2	6.0065e-06	6.0708e-06	1377.1	374.02	6.0331e-06	6.0487e-06	427.16	143.14	124.53	42.889	6.0256e-06	53.209	7.376	38.317	22.105	-53.681	59.235	30.779	-53.746	-49.149	89.718	-63.093	-49.771	-44.477	-44.839	-40.092	72.765	-41.119	-8191	255	
861.802	1	1	0	0	0.04817	0.22311	0.32449	0.16698	0.073912	0.12566	0.31046	0.56853	0.17096	0.19509	0.20362	0.15435	0.062089	0.17349	0.29995	0.089786	-1.6021	-2.6458	-2.0792	-2.5125	-2.3333	-2.1479	-2.5167	-2.4042	-2.2833	-2.4229	-2.0833	-2.1583	-2.3604	-2.1375	-2.3833	-2.4542	261.453	-23.384	-12.547	-47.927	14.360	-65.317	201.370	241.899	12.478	241.188	-10.534	77.411	11.561	172.269	-50.506	112.444	0.00040517	0.00078635	9.7731e-05	1359	4.7304e-06	2.996e-06	1360	367.65	5.8394e-06	4.4689e-06	419.33	141.31	121.53	41.644	2.4109e-06	51.828	0.00054705	0.00055653	0.00015417	1378.4	6.066e-06	6.1215e-06	1378.5	374	6.0533e-06	6.0683e-06	426.79	143.21	124.49	42.928	6.0477e-06	53.164	-34.622	-8.565	29.441	-53.976	35.215	62.707	-53.868	-49.300	141.519	143.567	-49.750	-44.946	-44.721	-40.369	19.966	-41.113	-8191	255	
861.898	1	1	0	0	0.27634	0.42426	0.20258	0.16548	0.12052	0.10112	0.29103	0.063188	0.15804	0.1093	0.29164	0.23076	0.20116	0.28049	0.18396	0.049836	-1.6667	-2.4604	-2.3708	-2.2896	-2.4667	-2.0312	-2.6375	-2.5812	-2.1792	-2.5375	-2.2625	-2.2042	-2.4708	-2.1188	-2.4292	-2.4437	79.388	6.626	12.202	130.710	244.837	-51.653	289.946	167.167	-27.149	274.027	265.952	-45.250	230.183	239.589	37.038	-16.989	0.00036553	0.0010931	0.00015142	1355.5	3.3048e-06	7.0628e-06	1359.2	366.91	7.5665e-06	5.7936e-06	419.97	139.41	121.33	41.716	2.7038e-06	51.498	0.00055169	0.00056039	0.00015514	1374.6	6.1167e-06	6.1706e-06	1376.9	373.72	6.0767e-06	6.1219e-06	427.48	144.02	124.61	42.917	6.1385e-06	53.088	-16.758	0.260	-19.941	-53.826	221.654	99.797	-53.810	-49.250	112.289	89.979	-49.696	-44.397	-45.351	-40.150	136.191	-41.242	-8191	255	
861.992	1	1	0	0	0.14646	0.1525	0.044054	0.18261	0.1414	0.29429	0.20076	0.18309	0.22402	0.066797	0.064263	0.12186	0.12692	0.091034	0.37294	0.17352	-1.5625	-2.5021	-2.2042	-2.125	-2.4083	-2.1604	-2.3771	-2.5375	-1.9354	-2.3792	-2.4333	-2.1125	-2.4313	-2.2125	-2.3771	-2.5167	-32.043	86.300	-33.030	261.762	17.026	101.611	290.707	234.873	-19.001	189.602	276.467	190.874	53.384	-10.504	170.580	170.016	0.0003314	0.00023251	9.0008e-05	1360.6	3.9034e-06	4.4292e-06	1357.2	366.26	2.3482e-06	9.6458e-06	418.36	139.36	121.08	41.605	2.3269e-06	51.639	0.00056659	0.00055759	0.00015679	1377.9	6.1129e-06	6.1262e-06	1375.3	373.37	6.118e-06	6.1911e-06	426.46	143.21	124.23	42.934	6.1448e-06	53.016	-18.994	-19.847	67.130	-53.825	2.579	131.994	-53.873	-49.130	171.479	103.757	-49.976	-44.485	-45.165	-40.164	146.140	-41.033	-8191	255	
862.088	1	1	0	0	0.15328	0.29503	0.037186	0.17749	0.20928	0.090648	0.58276	0.27413	0.029539	0.39371	0.12779	0.17264	0.058805	0.36902	0.2333	0.1387	-1.5312	-2.45	-2.2375	-2.1979	-2.3771	-1.9688	-2.3646	-2.4625	-2.0083	-2.3812	-2.275	-1.95	-2.4021	-2.2354	-2.2042	-2.4688	275.022	-9.013	-8.604	94.361	113.615	200.463	232.200	212.451	189.851	-11.925	275.919	-39.630	-4.115	282.390	152.747	215.830	0.00041505	0.00035685	5.4882e-05	1359.5	1.1638e-05	8.7715e-06	1362	367.13	9.9236e-06	4.0129e-06	419.6	141.26	121.39	42.018	2.3996e-06	51.572	0.00056122	0.00056381	0.00015735	1378.3	6.1631e-06	6.1717e-06	1378.1	373.61	6.1887e-06	6.1577e-06	426.33	144.01	124.55	42.987	6.1604e-06	53.114	-19.574	132.910	40.644	-53.611	89.657	58.906	-53.840	-49.123	90.652	116.074	-49.758	-44.508	-44.798	-40.072	110.597	-41.216	-8191	255	
862.209	1	1	0	0	0.14986	0.12159	0.26704	0.19134	0.042443	0.031381	0.31551	0.19642	0.14314	0.082777	0.22754	0.3329	0.3051	0.17991	0.081164	0.26127	-1.5938	-2.2271	-2.2104	-2.1792	-2.2062	-2.15	-2.3708	-2.5292	-2.1167	-2.2042	-2.4042	-1.9354	-2.4583	-2.1875	-2.2521	-2.4938	-3.014	110.644	-26.059	38.925	48.266	-39.206	225.471	262.990	114.381	127.415	281.677	3.751	281.490	273.518	35.107	193.298	0.00029966	0.0011095	0.00029493	1360.8	8.614e-06	1.0714e-05	1358.7	367.46	8.935e-06	5.4777e-06	419.57	142.88	121.48	41.668	2.2425e-06	51.724	0.00056675	0.00056678	0.00015774	1378.9	6.1562e-06	6.1935e-06	1378.5	373.81	6.2041e-06	6.1892e-06	426.88	144.33	124.53	42.879	6.1783e-06	53.159	-12.154	19.156	34.502	-53.650	44.910	133.829	-53.951	-49.105	70.521	64.868	-49.665	-44.293	-45.020	-40.193	134.763	-41.063	-8191	255	
862.305	1	1	0	0	0.30282	0.054949	0.080822	0.071735	0.29983	0.15608	0.29196	0.37136	0.1224	0.27297	0.10333	0.14401	0.051138	0.19176	0.11906	0.17511	-1.5083	-2.3354	-2.3479	-2.0438	-2.5167	-2.0479	-2.2729	-2.5	-1.8687	-2.3167	-2.4521	-1.9292	-2.3708	-2.3792	-2.0021	-2.5896	-41.754	23.952	187.952	16.940	111.717	263.310	176.804	235.221	277.625	-27.441	-40.446	145.670	135.520	-60.878	71.820	-24.574	0.00035199	0.00069403	2.8514e-05	1357.5	4.5252e-06	3.886e-06	1359.6	367.02	4.9704e-06	4.2961e-06	419.03	138.67	121.83	41.746	7.8149e-06	51.709	0.00056272	0.00056421	0.00015762	1378.3	6.1756e-06	6.1608e-06	1376.4	373.98	6.1316e-06	6.2181e-06	427.11	143.86	124.65	42.912	6.2329e-06	53.168	-26.048	61.072	-30.425	-53.682	110.091	141.448	-53.962	-48.987	235.702	92.353	-49.540	-45.139	-44.765	-40.295	61.520	-41.074	-8191	255	
862.401	1	1	0	0	0.064516	0.2859	0.15425	0.26601	0.10464	0.083647	0.47031	0.11033	0.15818	0.28505	0.2953	0.087946	0.28621	0.29941	0.15039	0.17807	-1.6854	-2.0479	-2.2812	-2.1042	-2.3229	-2.3208	-2.2833	-2.6979	-2.0292	-2.2417	-2.5812	-2.0583	-2.4938	-2.4938	-1.8896	-2.575	-54.429	229.317	-19.124	257.014	-24.973	-8.981	267.695	232.336	-37.521	86.319	228.520	88.897	279.849	270.920	254.483	194.940	0.00039186	0.00026421	6.5825e-05	1359.8	2.9923e-06	3.7079e-06	1356.6	367.77	2.0187e-06	6.1125e-06	419.27	140.38	121.91	41.672	6.6829e-06	51.662	0.00055759	0.00056584	0.00015818	1379.7	6.2117e-06	6.1444e-06	1376.3	373.75	6.1818e-06	6.15e-06	426.76	143.28	124.52	42.836	6.0968e-06	52.977	-11.744	39.317	131.460	-53.796	131.464	35.898	-53.876	-49.203	119.553	40.460	-49.913	-44.257	-44.932	-40.238	53.254	-41.125	-8191	255	
862.497	1	1	0	0	0.14981	0.14193	0.36154	0.16024	0.090024	0.13183	0.084158	0.28221	0.15192	0.28104	0.24688	0.44863	0.16213	0.14525	0.099698	0.11582	-1.6604	-2.4729	-2.4417	-2.1562	-2.2687	-2.3063	-2.1271	-2.6792	-2.2771	-1.9042	-2.4896	-1.95	-2.3354	-2.5812	-1.8708	-2.3792	230.537	177.641	232.970	-41.069	68.651	286.744	222.100	229.540	165.870	116.372	-42.391	-47.193	38.205	228.947	82.280	261.464	0.00042443	0.00067953	0.00021156	1357.4	5.4107e-06	2.2594e-06	1356.9	366.84	8.3104e-06	6.713e-06	415.88	140.96	121.32	41.484	3.6919e-06	51.553	0.00055382	0.0005543	0.00015489	1374.7	6.0546e-06	5.9964e-06	1373.6	372.92	6.0495e-06	6.086e-06	424.98	142.52	123.87	42.724	6.0054e-06	52.912	-26.507	-49.628	-10.895	-53.993	116.415	-47.624	-53.635	-49.035	55.690	66.324	-49.702	-44.177	-44.725	-40.074	20.402	-40.725	-8191	255	
862.593	1	1	0	0	0.29683	0.32152	0.12099	0.22096	0.26206	0.20087	0.080323	0.18058	0.26391	0.21212	0.17023	0.21711	0.076307	0.098328	0.28268	0.2931	-1.7396	-2.1229	-2.4333	-2.0396	-2.2292	-2.2562	-2.1792	-2.4021	-2.2125	-2.2438	-2.6562	-2.2354	-2.1417	-2.4729	-1.8958	-2.4146	3.551	252.668	99.803	3.552	178.804	230.833	-22.157	268.802	273.570	19.098	249.926	72.103	278.950	263.112	171.695	142.184	0.00047647	0.00086853	8.2199e-05	1354.7	2.2167e-06	4.3353e-06	1353.6	365.56	3.9778e-06	3.5992e-06	419.33	139.36	121	41.525	6.0455e-06	51.569	0.00054903	0.00055431	0.0001536	1371.6	6.0889e-06	6.0114e-06	1373	372.72	5.9761e-06	6.0729e-06	425.64	142.34	123.91	42.677	6.0802e-06	52.9	-15.860	30.832	51.706	-53.962	70.257	-7.671	-53.919	-49.071	138.538	82.236	-49.650	-43.717	-44.728	-40.098	288.268	-41.322	-8191	255	
862.690	1	1	0	0	0.10427	0.14009	0.35237	0.098926	0.10862	0.036774	0.35886	0.34658	0.24955	0.23235	0.17626	0.358	0.31062	0.06381	0.09277	0.094686	-1.7354	-1.9417	-2.3167	-2.1479	-2.125	-2.5521	-2.0958	-2.4167	-2.3042	-2.1333	-2.5312	-1.9875	-2.1854	-2.6167	-2.15	-2.4354	204.381	2.393	154.326	263.066	102.232	-8.948	230.811	267.257	231.649	-25.796	142.358	-1.613	-29.716	235.454	121.474	166.998	0.00029078	0.00027612	0.00018163	1361.7	2.6057e-06	7.7108e-06	1352.9	366.15	3.3079e-06	7.761e-06	417.77	142.2	120.79	41.719	4.6518e-06	51.524	0.00054847	0.00055214	0.00015212	1373.5	5.9289e-06	5.9892e-06	1370.7	372.27	6.0036e-06	6.0181e-06	425.28	142.7	123.63	42.766	6.0442e-06	52.859	-11.478	7.319	-1.982	-53.814	77.025	110.240	-53.906	-48.975	214.208	108.537	-49.725	-42.807	-44.814	-40.157	-33.497	-40.907	-8191	255	
862.810	1	1	0	0	0.12161	0.14048	0.04131	0.23858	0.24175	0.13963	0.22252	0.14361	0.21764	0.10116	0.18873	0.15217	0.14731	0.16584	0.25212	0.094925	-1.8	-2.0271	-2.4813	-2.2875	-2.2479	-2.6875	-2.2417	-2.2979	-2.2646	-1.9896	-2.8167	-2.2542	-2.0667	-2.3958	-1.975	-2.4938	-13.223	254.356	140.077	-26.780	159.105	-13.216	203.942	-17.625	175.369	138.122	214.617	85.191	40.550	254.258	109.452	-55.038	0.00045523	0.0002334	4.6448e-05	1353	4.4387e-06	6.0221e-06	1353.1	365.64	1.3381e-06	7.8855e-06	418.48	138.99	121.25	41.604	1.9154e-06	51.28	0.00055389	0.00055282	0.00015284	1373.1	6.0381e-06	6.0187e-06	1371.9	372.43	6.024e-06	6.0797e-06	425.82	142.24	123.86	42.792	6.0045e-06	52.812	-33.848	43.623	-40.422	-53.642	51.097	72.560	-53.931	-49.067	158.450	112.001	-49.907	-44.555	-44.861	-40.174	75.879	-40.985	-8191	255	
862.905	1	1	0	0	0.29884	0.26419	0.17924	0.053248	0.018132	0.22975	0.26023	0.12086	0.12393	0.19199	0.18895	0.22589	0.025218	0.29386	0.27174	0.25282	-2.0042	-2.0292	-2.3583	-2.3667	-2.0083	-2.5917	-2.2458	-2.4313	-2.3792	-2.0708	-2.3708	-2.2562	-2.1437	-2.5938	-2.2458	-2.1937	74.723	234.305	251.986	237.625	17.781	174.865	277.226	270.380	220.844	10.957	181.470	275.597	16.473	272.980	-11.342	236.425	0.00046049	0.00075434	0.00019286	1350.1	8.3031e-06	3.5235e-06	1353.9	366.09	6.547e-06	5.8708e-06	418.54	138.85	120.48	41.527	4.6005e-06	51.396	0.0005478	0.00055428	0.00015413	1370.7	6.0532e-06	5.9794e-06	1371.6	372.34	5.9887e-06	5.9849e-06	425.24	142.01	123.84	42.715	5.983e-06	52.881	-18.624	-1.833	13.397	-53.749	34.516	0.696	-53.887	-48.991	145.154	74.645	-49.793	-44.121	-45.102	-40.032	80.117	-41.146	-8191	255	
863.001	1	1	0	0	0.18516	0.06383	0.25043	0.16137	0.17637	0.23077	0.082829	0.19879	0.034425	0.19042	0.16179	0.30313	0.12576	0.31943	0.18371	0.052545	-2.0875	-1.8583	-2.2458	-2.4708	-2.0875	-2.2938	-2.3979	-2.1083	-2.4542	-1.9208	-2.2313	-2.2708	-1.9312	-2.6	-2.2313	-2.0604	66.339	122.361	31.379	111.160	137.385	231.488	255.342	228.228	42.360	73.685	165.918	225.623	221.954	232.271	1.600	66.509	0.00029572	0.00037951	0.00016348	1353.3	1.9586e-06	6.2479e-06	1351.2	365.33	1.0302e-05	3.6027e-06	416.47	138.66	120.75	41.596	5.1191e-06	51.487	0.00054803	0.00055026	0.00015312	1371.8	6.0102e-06	6.009e-06	1371.5	372.08	5.9975e-06	6.0754e-06	425.06	142.14	124.03	42.799	6.0757e-06	52.954	-26.574	-29.353	-25.264	-53.844	63.468	50.527	-53.828	-49.260	25.133	147.715	-49.610	-44.280	-45.211	-40.298	27.246	-40.946	-8191	255	
863.097	1	1	0	0	0.22699	0.21095	0.29523	0.14129	0.1626	0.27849	0.38888	0.37176	0.14052	0.022515	0.28925	0.17781	0.20259	0.34354	0.19961	0.2702	-1.9479	-2.2812	-2.2917	-2.3812	-2.0312	-2.4583	-2.3875	-2.1354	-2.3771	-2.1354	-2.3917	-2.2729	-2.0438	-2.4979	-2.2417	-2.175	47.116	-4.366	166.946	291.312	168.215	207.349	284.523	228.554	12.592	21.726	262.906	76.335	206.733	249.442	166.877	214.174	0.00046605	0.00083154	0.00019275	1362.1	4.4629e-06	2.3136e-06	1353.6	366.19	8.0598e-06	2.6345e-06	418.65	139.34	121.32	41.589	5.1784e-06	51.721	0.00055499	0.00055366	0.00015446	1375.3	6.0319e-06	6.0808e-06	1372.9	372.45	6.0119e-06	6.0733e-06	426.14	142.64	124.13	42.824	6.0378e-06	53.051	-9.570	-1.359	114.823	-53.743	47.937	81.973	-53.679	-49.128	21.734	49.343	-49.707	-43.903	-44.894	-40.147	44.410	-41.199	-8191	255	
863.169	1	1	0	0	0.22562	0.3034	0.070032	0.08779	0.099556	0.14093	0.16326	0.17442	0.36608	0.24868	0.15015	0.04843	0.2106	0.36258	0.093703	0.19856	-1.9667	-2.1667	-2.0604	-2.425	-1.8167	-2.3771	-2.3937	-2.1042	-2.3521	-2.1167	-2.3083	-2.4167	-2.2354	-2.4271	-2.2646	-2.175	5.896	85.736	37.926	-39.389	286.298	291.311	67.062	242.082	212.814	96.748	214.454	8.354	-66.773	-36.009	-25.387	254.175	0.00063796	0.00068752	0.00016358	1356.6	3.0344e-06	6.277e-06	1357.1	367.94	4.7215e-06	5.3982e-06	419.19	143.64	121.51	41.857	4.5594e-06	51.757	0.00055699	0.00054896	0.00015257	1374.7	6.026e-06	6.0433e-06	1373.5	373.2	6.068e-06	6.1059e-06	426.96	143.69	124.2	42.92	6.0738e-06	53.05	-14.997	72.478	11.002	-53.720	45.990	7.687	-53.868	-49.066	39.668	98.000	-49.835	-44.345	-44.936	-40.142	-33.612	-40.862	-8191	255	
863.289	1	1	0	0	0.13139	0.31872	0.076243	0.18532	0.091975	0.074853	0.4153	0.3369	0.11644	0.19535	0.19991	0.11287	0.26461	0.24114	0.13898	0.1182	-1.8292	-2.1042	-1.9771	-2.4938	-1.9417	-2.325	-2.4833	-2.125	-2.5542	-2.0708	-2.2812	-2.4292	-1.9958	-2.3563	-2.4792	-2.0875	6.142	1.561	143.444	-1.549	222.300	-23.261	196.467	263.697	171.526	68.528	242.995	74.072	-40.740	-62.884	-28.703	-11.298	0.00053611	0.0011035	0.00019867	1355.9	1.2362e-06	5.6615e-06	1354.1	366.02	8.3309e-07	7.3995e-06	418.79	139.49	121.05	41.684	6.3524e-06	51.374	0.00055381	0.00056148	0.00015402	1375.5	6.1199e-06	6.0908e-06	1374.1	372.56	6.1023e-06	6.1272e-06	426.24	142.44	124.1	42.799	6.0072e-06	52.932	-15.934	0.354	-3.003	-53.666	246.135	128.227	-53.850	-49.140	81.395	37.610	-49.764	-44.410	-44.837	-40.365	63.272	-41.012	-8191	255	
863.385	1	1	0	0	0.41539	0.17464	0.39601	0.29979	0.13718	0.24096	0.15566	0.1938	0.19256	0.26788	0.22272	0.11788	0.11488	0.2965	0.24809	0.12956	-2.0146	-1.9771	-2.1875	-2.7875	-2.2458	-2.2958	-2.5187	-2.1312	-2.375	-2.5625	-2.1396	-2.2625	-2.15	-2.1396	-2.4458	-2.1042	36.697	193.820	78.524	238.487	219.805	52.858	225.123	-52.335	-53.069	137.123	130.189	283.947	119.111	-42.789	217.040	98.929	0.00043305	0.00016235	0.00011291	1359.2	3.9825e-06	6.6986e-06	1358.2	366.51	1.3551e-06	7.9647e-06	418.85	138.84	121.03	41.639	2.1108e-06	51.393	0.00055404	0.00055098	0.0001547	1375.8	6.056e-06	6.0067e-06	1374.1	372.88	6.046e-06	6.033e-06	426.3	142.94	123.94	42.791	5.9533e-06	53.026	-4.419	1.198	-24.981	-53.893	53.114	44.242	-53.972	-49.162	223.256	83.149	-49.707	-44.241	-45.007	-40.151	38.578	-41.010	-8191	255	
863.482	1	1	0	0	0.019521	0.19224	0.1787	0.062471	0.20902	0.054021	0.04813	0.24679	0.21314	0.14655	0.098238	0.11501	0.17579	0.30483	0.075911	0.14085	-1.7667	-2.3021	-1.7875	-2.4417	-2.1979	-2.2854	-2.5583	-2.1104	-2.3146	-2.6604	-2.05	-2.3271	-2.2625	-2.175	-2.4396	-2.1312	-32.588	24.120	40.981	137.214	-27.986	142.624	-55.104	236.010	231.168	18.804	-7.640	-23.625	217.445	160.178	103.643	251.003	0.0004792	0.00027503	2.6622e-05	1354.3	2.9842e-06	2.6992e-06	1351.7	367.04	9.9867e-06	1.4676e-05	417.64	139.39	120.89	41.636	4.8926e-06	51.66	0.00054718	0.00054597	0.00015332	1371.8	5.9462e-06	5.9483e-06	1371.7	372.53	5.9587e-06	6.037e-06	425.58	142.25	123.87	42.748	5.9648e-06	52.896	-35.692	25.542	138.993	-53.552	116.745	84.271	-53.950	-49.165	68.098	106.265	-49.621	-44.001	-44.966	-40.251	80.086	-41.085	-8191	255	
863.602	1	1	0	0	0.16855	0.02361	0.18188	0.38086	0.11246	0.12239	0.16747	0.17732	0.13175	0.15134	0.20387	0.14534	0.39845	0.50146	0.017312	0.21788	-1.6208	-2.3229	-1.9833	-2.2521	-2.3521	-1.9208	-2.5563	-2.1979	-2.1708	-2.3812	-2.1625	-2.3438	-2.3792	-2.1333	-2.3312	-2.2854	57.785	-18.980	157.297	-44.972	-25.374	18.946	177.174	-37.792	193.690	263.121	12.364	21.355	185.651	278.627	137.753	199.760	0.00049619	0.0009311	7.4759e-05	1353	5.9395e-06	8.0844e-06	1355	365.21	4.7315e-06	2.3998e-06	417.85	141.37	121.82	41.637	9.8135e-07	51.637	0.00054137	0.00053998	0.00015134	1370.9	5.9545e-06	5.8781e-06	1371.8	371.92	5.8881e-06	5.8941e-06	425.54	141.55	123.99	42.696	5.9057e-06	52.961	-14.402	12.222	-41.946	-53.860	109.745	109.958	-53.869	-49.200	199.333	38.356	-49.763	-43.570	-44.904	-40.313	124.525	-41.088	-8191	255	
863.697	1	1	0	0	0.22324	0.21756	0.1079	0.21242	0.19427	0.16554	0.21278	0.085266	0.093096	0.15472	0.20808	0.14287	0.17686	0.19708	0.04826	0.19484	-1.7188	-2.2542	-1.9813	-2.3312	-2.3604	-1.9813	-2.4583	-2.4146	-2.025	-2.2562	-2.0083	-2.2021	-2.375	-2.0354	-2.5146	-2.15	75.585	129.737	35.765	270.204	30.888	101.038	188.112	194.501	-49.459	39.105	278.601	-29.407	256.005	261.465	77.569	232.713	0.00035912	0.00021136	0.00010363	1354.7	3.0947e-06	6.0645e-06	1349.6	365.11	2.5527e-06	4.5907e-06	417.92	138	121	41.616	2.6132e-06	51.231	0.00053778	0.00053791	0.00014982	1369	5.8281e-06	5.889e-06	1368.1	371.93	5.8638e-06	5.8718e-06	424.68	140.35	123.6	42.654	5.8478e-06	52.786	1.817	212.536	-32.208	-53.639	156.147	65.329	-53.997	-49.068	117.286	86.749	-49.954	-44.113	-44.742	-40.118	144.556	-41.197	-8191	255	
863.770	1	1	0	0	0.10752	0.19492	0.1785	0.20954	0.17535	0.10196	0.27342	0.23251	0.19207	0.17597	0.096067	0.091949	0.11763	0.28698	0.34189	0.14557	-1.7646	-2.5812	-1.9042	-2.2833	-2.2854	-1.9542	-2.4771	-2.3729	-2.0542	-2.4813	-2.0854	-2.1312	-2.275	-2.1437	-2.3479	-2.3271	-59.298	121.373	16.138	253.341	-2.714	-30.713	201.294	282.439	148.455	148.935	-37.197	3.472	266.615	124.300	42.423	20.929	0.0004459	0.00089316	7.9359e-05	1359	1.7063e-06	1.3591e-06	1349.7	365.82	4.1893e-06	6.9661e-06	416.1	138.21	121.18	41.562	2.7319e-06	51.516	0.00053393	0.00053573	0.0001503	1371.3	5.8117e-06	5.8589e-06	1368.2	371.79	5.8486e-06	5.8841e-06	424.45	139.83	123.78	42.649	5.8116e-06	52.777	12.424	-9.162	-52.653	-53.772	83.871	-35.899	-53.861	-49.006	33.668	80.022	-49.741	-43.669	-44.709	-40.099	126.061	-40.987	-8191	255	
863.891	1	1	0	0	0.30842	0.090217	0.38559	0.06984	0.11503	0.23151	0.22351	0.28377	0.20808	0.035332	0.12195	0.10956	0.078458	0.094567	0.018694	0.16237	-1.4333	-2.4188	-1.9583	-2.3729	-2.3479	-2.0354	-2.5938	-2.3667	-1.9667	-2.3312	-2.1562	-2.2646	-2.5396	-2.1042	-2.2083	-2.3167	-57.285	226.073	163.556	-15.565	71.531	165.121	265.308	196.614	-10.569	105.751	-16.115	32.079	129.979	71.252	206.530	-66.939	0.00065043	0.00021072	3.1848e-05	1348.8	5.1413e-06	9.8979e-06	1353.1	366.37	4.181e-06	4.8883e-06	418.3	143.18	120.86	41.458	6.2553e-06	51.342	0.00053151	0.0005342	0.00015002	1369.1	5.7905e-06	5.8417e-06	1369.9	371.69	5.8878e-06	5.8799e-06	425	141.37	123.21	42.534	5.8925e-06	52.71	-18.964	-39.184	-23.796	-53.577	59.775	-1.263	-53.779	-49.137	94.616	63.674	-49.773	-43.491	-44.728	-40.040	8.817	-41.067	-8191	255	
863.985	1	1	0	0	0.20717	0.1509	0.21803	0.11055	0.24884	0.049461	0.34164	0.17133	0.068076	0.0456	0.18179	0.19637	0.19806	0.23955	0.065338	0.080026	-1.5229	-2.4875	-2.1396	-2.1958	-2.5292	-2.0917	-2.375	-2.4708	-1.9646	-2.5563	-2.3104	-1.975	-2.4271	-2.0062	-2.2792	-2.2687	-46.436	-25.934	11.648	193.660	267.267	-17.139	198.666	115.785	-58.545	13.218	269.639	88.470	-44.071	39.599	6.901	-9.151	0.00035751	0.00030457	9.0154e-05	1354.7	4.3651e-06	6.4258e-06	1348.4	365.69	1.363e-06	8.2822e-06	417.71	137.16	120.22	41.553	2.2664e-06	51.587	0.00053906	0.00053873	0.00014894	1370.5	5.8241e-06	5.8125e-06	1367.9	371.62	5.8314e-06	5.8457e-06	424.22	139.8	123.17	42.577	5.8728e-06	52.743	-44.072	42.315	-22.800	-53.755	84.283	73.146	-53.761	-49.050	-58.998	-17.171	-49.732	-44.637	-44.793	-40.206	-0.853	-40.899	-8191	255	
864.081	1	1	0	0	0.10319	0.22537	0.032328	0.084029	0.2142	0.18117	0.41795	0.0049825	0.23039	0.20487	0.15072	0.051755	0.22827	0.26289	0.18595	0.18111	-1.4375	-2.5625	-2.2083	-2.1354	-2.4521	-2.0146	-2.5833	-2.4021	-2.0646	-2.325	-2.3063	-2.0417	-2.2917	-2.0979	-2.3104	-2.625	107.439	-18.083	-51.876	-60.837	-39.493	-49.734	239.069	92.851	81.692	176.346	226.471	273.101	239.566	-47.871	56.805	44.315	0.00055482	0.00016276	0.00016707	1350.3	5.3569e-06	3.9404e-06	1351.8	366.82	1.5917e-06	8.6591e-06	416.38	140.32	120.9	41.499	3.1558e-06	51.497	0.0005366	0.00053961	0.00014851	1369.4	5.9189e-06	5.8722e-06	1371.2	371.9	5.8835e-06	5.9263e-06	424.91	141.86	123.33	42.547	5.9342e-06	52.811	-1.637	103.218	2.705	-53.753	52.928	109.458	-53.860	-49.185	83.051	94.933	-49.842	-44.047	-44.763	-40.033	12.850	-40.962	-8191	255	
864.202	1	1	0	0	0.24845	0.09347	0.32793	0.066912	0.15774	0.11572	0.16045	0.18569	0.18297	0.042248	0.16883	0.27322	0.27663	0.064225	0.045549	0.2311	-1.5562	-2.3583	-2.0729	-2.1937	-2.5875	-2.0812	-2.3625	-2.5104	-1.9937	-2.3563	-2.5	-1.9854	-2.5312	-2.2542	-2.0979	-2.5146	269.183	15.800	62.568	121.606	3.310	119.500	-39.901	274.666	73.746	255.289	220.480	11.120	246.968	287.718	266.557	151.102	0.00051645	0.00040564	0.00019302	1354.5	5.1863e-06	1.3344e-06	1351.8	366.16	4.3745e-06	7.9636e-06	418.93	139.86	120.99	41.403	5.5747e-06	51.331	0.00054282	0.00054008	0.00015037	1370.9	5.9046e-06	5.8502e-06	1368.5	371.87	5.9329e-06	5.9866e-06	425.07	141.87	123.44	42.582	6.0253e-06	52.725	-6.033	-18.767	1.986	-53.672	58.542	64.848	-53.707	-49.108	246.016	69.088	-49.710	-44.381	-44.832	-40.382	48.916	-40.939	-8191	255	
864.298	1	1	0	0	0.12482	0.21648	0.11834	0.098695	0.206	0.17835	0.29613	0.10089	0.11827	0.036367	0.064538	0.087662	0.12581	0.20872	0.034687	0.18012	-1.6604	-2.1521	-2.2375	-2.1229	-2.5208	-2.1333	-2.3458	-2.5708	-2.1458	-2.4521	-2.5729	-2.0458	-2.7646	-2.4688	-2.2104	-2.5417	118.828	241.399	166.475	-27.887	94.988	41.700	210.956	248.053	196.197	-19.967	95.663	152.699	259.743	243.712	254.421	246.722	0.00055686	0.00045322	0.00011785	1350.7	5.7787e-06	6.589e-06	1351.5	365.35	6.6516e-06	1.405e-05	416.9	139.52	120.27	41.451	1.5694e-06	51.14	0.00054525	0.00054762	0.00015313	1372.7	5.9793e-06	5.9717e-06	1368.9	371.37	5.9342e-06	5.914e-06	424.6	142.26	123.04	42.617	6.0485e-06	52.715	-12.467	-17.718	234.060	-53.847	14.855	43.991	-54.072	-49.191	67.400	37.836	-49.745	-43.159	-44.842	-40.091	40.433	-41.055	-8191	255	
864.394	1	1	0	0	0.27223	0.19345	0.17653	0.36242	0.047179	0.069285	0.30742	0.16022	0.20515	0.19665	0.19336	0.15903	0.08541	0.13975	0.29501	0.073304	-1.7083	-2.1208	-2.3688	-2.2313	-2.6	-2.225	-2.4104	-2.6625	-2.1771	-2.5646	-2.5333	-2.0354	-2.4396	-2.2917	-2.1979	-2.7146	190.965	134.575	229.023	253.780	32.089	174.651	263.497	209.784	232.513	-53.201	248.617	279.822	271.211	-51.230	147.400	265.359	0.00043134	0.00038222	8.5663e-05	1352.6	7.2062e-06	3.1263e-06	1354	365.32	2.4354e-07	5.8438e-06	416.69	139	119.99	41.343	9.1329e-06	51.336	0.00054966	0.0005565	0.00015335	1372.2	6.0498e-06	6.0377e-06	1371.7	371.42	6.0806e-06	6.1219e-06	425.24	142.8	123.3	42.595	6.1183e-06	52.791	-23.472	43.250	-55.500	-53.652	100.484	152.931	-53.712	-49.021	113.343	124.078	-49.565	-44.275	-44.844	-40.233	57.987	-40.935	-8191	255	
864.466	1	1	0	0	0.28561	0.098222	0.096408	0.15262	0.09977	0.045752	0.29999	0.19582	0.14766	0.040555	0.35974	0.13571	0.14546	0.18382	0.10064	0.41825	-1.6396	-2.0333	-2.3417	-2.1479	-2.4604	-2.5	-2.2417	-2.6542	-2.1917	-2.1167	-2.7729	-2.35	-2.2917	-2.4688	-2.0187	-2.4896	100.479	264.924	279.821	5.692	146.852	16.786	267.522	-41.922	146.935	128.256	260.265	134.589	256.813	290.633	230.090	263.392	0.00061278	0.00069313	0.00018783	1356.1	2.5523e-06	5.8101e-06	1357.9	365.84	2.1523e-06	3.8503e-06	417.41	139.99	120.66	41.267	1.813e-06	51.222	0.00056042	0.00056084	0.00015617	1374.5	6.0869e-06	6.1553e-06	1372.3	372.53	6.0704e-06	6.1723e-06	425.2	142.73	123.54	42.53	6.1526e-06	52.672	6.812	5.606	24.577	-53.984	220.047	11.272	-53.889	-49.246	85.846	186.278	-49.819	-44.787	-44.799	-40.039	234.511	-40.816	-8191	255	
864.586	1	1	0	0	0.26541	0.21834	0.10298	0.3144	0.19692	0.14207	0.307	0.27374	0.21572	0.080847	0.07084	0.15177	0.32311	0.1495	0.12564	0.043705	-1.6667	-2.2438	-2.2667	-2.1854	-2.3271	-2.3312	-2.15	-2.5938	-2.1146	-2.2021	-2.625	-1.7875	-2.175	-2.325	-1.7958	-2.4646	-34.454	89.296	217.010	188.443	97.366	-21.520	205.188	-46.971	90.201	116.521	47.619	39.652	277.714	-6.955	71.625	122.390	0.00040837	0.0006746	0.00011125	1350.6	4.7423e-06	3.5543e-06	1351.3	364.85	4.3852e-06	1.0272e-05	419.73	136.95	120.58	41.278	1.1037e-05	51.247	0.00056263	0.00056269	0.00015678	1373.7	6.1655e-06	6.2006e-06	1371.9	372.09	6.2204e-06	6.201e-06	426.17	143.13	123.73	42.581	6.1619e-06	52.76	-6.381	-26.186	7.935	-53.744	117.339	43.097	-53.819	-49.269	252.986	122.322	-49.847	-43.766	-44.648	-40.262	23.309	-40.909	-8191	255	
864.683	1	1	0	0	0.14327	0.18455	0.14575	0.092926	0.051302	0.29119	0.064006	0.20155	0.2391	0.20326	0.093167	0.16198	0.21645	0.1027	0.15323	0.25032	-1.9146	-2.1208	-2.3438	-2.0646	-1.9625	-2.4313	-2.2625	-2.4333	-2.4979	-1.9104	-2.6646	-2.0271	-2.2875	-2.4792	-2.1646	-2.3771	-31.754	73.453	46.288	18.074	-48.650	97.023	182.195	90.198	174.642	93.354	-17.716	263.764	245.904	45.689	-31.098	128.027	0.00056345	0.0005446	8.4756e-05	1353.6	1.311e-07	5.4355e-06	1352.3	364.97	7.2506e-06	4.5675e-06	418.66	139.09	120.45	41.353	5.6627e-06	51.232	0.0005675	0.00056828	0.00015737	1375.5	6.197e-06	6.2181e-06	1373.3	371.88	6.2379e-06	6.2919e-06	425.88	144.07	123.62	42.531	6.2969e-06	52.753	-16.382	24.525	276.360	-54.069	65.793	-1.360	-53.812	-49.031	103.099	121.214	-49.915	-43.532	-44.771	-40.254	161.344	-40.936	-8191	255	
864.779	1	1	0	0	0.17537	0.20384	0.090605	0.24118	0.09527	0.17626	0.24397	0.4229	0.12739	0.17591	0.30359	0.24601	0.21188	0.11136	0.13497	0.27598	-1.7354	-1.9625	-2.4292	-2.2104	-2.1562	-2.6562	-2.1958	-2.4354	-2.1146	-1.9583	-2.5563	-2.1833	-2.025	-2.425	-1.95	-2.2542	273.185	-58.687	114.533	-45.572	-0.801	92.674	287.932	257.382	-46.042	273.055	195.978	240.500	-39.013	152.491	-12.917	-30.779	0.00044369	0.00049787	0.00028142	1352.8	6.9571e-06	5.5412e-06	1355.1	364.58	4.9546e-06	4.6676e-06	417.59	136.96	120.45	41.346	1.0165e-06	51.14	0.00057258	0.000577	0.00016097	1375.8	6.257e-06	6.2711e-06	1374.5	371.94	6.28e-06	6.2246e-06	425.5	143.46	123.62	42.512	6.2883e-06	52.733	-20.063	15.025	-54.509	-53.916	59.171	119.883	-53.733	-49.094	63.803	16.684	-49.647	-44.067	-44.950	-40.120	-24.955	-41.011	-8191	255	
864.873	1	1	0	0	0.29749	0.094388	0.072166	0.22932	0.24047	0.096745	0.13101	0.066999	0.092275	0.29331	0.13994	0.16772	0.15747	0.4669	0.16281	0.21861	-1.8563	-1.9792	-2.4083	-2.2375	-2.0354	-2.3979	-2.1542	-2.3729	-2.1875	-2.1437	-2.4938	-2.2979	-1.9771	-2.6875	-1.925	-2.5667	27.352	112.220	140.955	172.794	158.049	149.765	263.681	269.178	118.320	51.443	35.579	102.514	137.289	257.407	204.521	280.920	0.00048835	0.00050288	5.9541e-05	1359.7	4.3567e-06	4.1884e-06	1354.5	366.09	6.1019e-06	1.3617e-05	418.25	138.5	120.32	41.341	6.8547e-06	51.431	0.00057558	0.00057355	0.00016015	1378.6	6.2311e-06	6.3124e-06	1372.8	372.12	6.3053e-06	6.2959e-06	425.48	143.39	123.6	42.601	6.239e-06	52.847	-31.093	-42.976	-22.785	-53.778	0.944	86.511	-53.819	-49.075	73.442	62.118	-49.766	-44.644	-45.004	-39.998	64.759	-40.920	-8191	255	
864.994	1	1	0	0	0.10912	0.23754	0.1689	0.11684	0.10494	0.16281	0.084242	0.1528	0.043547	0.024792	0.16576	0.23343	0.17031	0.27842	0.25845	0.21912	-1.9438	-2.0354	-2.3625	-2.3958	-2.1312	-2.4083	-2.2208	-2.3	-2.2792	-1.9188	-2.4042	-2.2042	-1.9688	-2.475	-2.1604	-2.1646	-20.806	191.158	144.669	145.005	11.974	-54.854	243.577	270.056	87.111	198.352	249.944	-14.526	67.325	259.092	23.075	271.829	0.00024366	0.00060377	0.00015401	1350	1.152e-06	1.0111e-05	1350.2	364.77	4.1715e-06	5.0908e-06	417.23	142.6	120.11	41.433	4.3321e-06	51.265	0.00057076	0.00056979	0.00015851	1374.8	6.2164e-06	6.2652e-06	1370.6	372.04	6.2768e-06	6.2904e-06	425.21	144.09	123.33	42.595	6.2354e-06	52.72	-18.460	26.378	-16.191	-53.705	85.947	50.273	-53.700	-49.209	18.938	63.758	-49.626	-43.206	-44.929	-40.149	5.155	-40.792	-8191	255	
865.065	1	1	0	0	0.085977	0.096913	0.21223	0.20735	0.13034	0.021253	0.38242	0.32827	0.25272	0.05881	0.092802	0.26188	0.074253	0.11625	0.13002	0.12856	-2.0167	-2.2604	-2.2771	-2.3271	-1.9271	-2.5	-2.3312	-2.2354	-2.3937	-1.9667	-2.4042	-2.4104	-2.1083	-2.4833	-2.3771	-2.1958	-31.822	45.955	-36.884	257.227	12.310	264.904	265.482	222.045	-43.084	191.794	50.290	15.275	-41.679	136.572	202.168	155.702	0.00041222	0.00070486	0.00023173	1351.1	2.252e-06	7.6909e-06	1355.7	365.35	6.2066e-06	2.6648e-06	417.21	140.09	120.45	41.223	1.0201e-05	51.18	0.00057276	0.00057882	0.00015944	1376	6.2579e-06	6.2968e-06	1372.4	371.94	6.2405e-06	6.2854e-06	425.92	143.13	123.47	42.508	6.2484e-06	52.719	-27.960	36.480	33.297	-53.656	21.069	59.742	-53.856	-49.042	38.621	98.254	-49.802	-43.468	-44.612	-40.188	120.199	-40.982	-8191	255	
865.162	1	1	0	0	0.1322	0.064635	0.11456	0.080074	0.17645	0.13916	0.12939	0.11253	0.10519	0.052807	0.18258	0.063228	0.081681	0.065206	0.16152	0.17279	-2.05	-2.1312	-2.2542	-2.5	-1.9958	-2.3458	-2.4375	-2.0729	-2.4813	-2.0917	-2.3187	-2.3167	-2.1875	-2.5563	-2.1854	-2.1208	101.677	-16.014	185.141	266.030	283.181	-42.065	287.428	289.079	101.941	100.573	263.858	67.436	241.415	287.983	-55.646	-60.953	0.0005256	0.00048882	0.00015887	1356.3	8.3111e-06	2.0049e-07	1351.2	363.51	8.7244e-06	5.3371e-06	416.29	138.38	119.98	41.296	4.8224e-06	51.307	0.00057331	0.00057433	0.00015915	1380.1	6.204e-06	6.2738e-06	1373.5	371.64	6.2698e-06	6.3116e-06	425.12	143.64	123.43	42.498	6.2767e-06	52.724	4.044	71.276	2.745	-53.449	71.420	147.116	-53.947	-49.131	50.513	72.188	-49.833	-43.299	-44.734	-40.091	37.935	-40.905	-8191	255	
865.282	1	1	0	0	0.090697	0.070831	0.21081	0.090336	0.066907	0.035559	0.39168	0.1737	0.050103	0.28078	0.11707	0.14294	0.094439	0.25899	0.19306	0.25289	-2.0667	-2.0917	-2.1229	-2.4375	-2.1333	-2.4646	-2.475	-2.0042	-2.2646	-2.1625	-2.3646	-2.3208	-2.1292	-2.3042	-2.2625	-2.0938	130.081	233.357	11.121	216.954	215.260	140.039	280.496	269.975	70.715	-26.664	-57.912	106.362	-42.556	254.688	172.167	242.674	0.00043484	0.00095921	0.00013431	1350.8	3.5897e-06	4.4371e-06	1348.9	364.39	7.8948e-06	9.169e-06	418.4	137.8	119.93	41.289	1.5278e-06	51.257	0.00056813	0.00057365	0.00015764	1374.9	6.2171e-06	6.2542e-06	1371.1	371.6	6.1677e-06	6.2593e-06	424.8	143.54	122.9	42.472	6.1515e-06	52.633	-21.294	24.535	-44.163	-53.497	35.317	-10.500	-53.780	-49.231	39.553	71.928	-49.696	-43.678	-44.762	-40.092	45.228	-41.040	-8191	255	
865.378	1	1	0	0	0.12337	0.24869	0.18872	0.30006	0.1089	0.057559	0.23951	0.35902	0.18221	0.28083	0.13809	0.33195	0.16178	0.052476	0.18187	0.31967	-1.8396	-1.9896	-2.1042	-2.4542	-1.9042	-2.1688	-2.5854	-2.0271	-2.4917	-2.0354	-2.3896	-2.3583	-2.1125	-2.35	-2.4354	-2.1042	21.262	-60.868	-13.668	145.512	32.886	-31.145	200.204	265.746	208.755	100.076	16.398	-48.211	151.588	246.120	194.674	284.992	0.00026914	0.00089883	6.4202e-05	1364.7	2.155e-06	2.1495e-06	1351.7	364.39	7.0471e-06	1.002e-05	414.54	139.71	120.06	41.201	8.4544e-06	51.221	0.00056726	0.00056942	0.00015737	1374.7	6.1994e-06	6.1758e-06	1370.2	371.22	6.179e-06	6.2368e-06	423.98	143.28	122.96	42.391	6.1964e-06	52.676	-10.542	9.042	111.357	-53.876	107.034	44.835	-54.033	-49.215	84.472	97.881	-49.700	-44.229	-44.721	-40.052	28.944	-41.042	-8191	255	
865.474	1	1	0	0	0.20757	0.041713	0.05136	0.33107	0.25057	0.32771	0.23966	0.41528	0.22607	0.11075	0.090586	0.213	0.11933	0.17549	0.073972	0.069195	-1.7917	-2.1688	-1.8542	-2.5125	-2.2271	-2.3333	-2.2938	-2.0771	-2.2333	-2.3937	-2.1688	-2.4562	-2.0792	-2.1042	-2.2625	-2.0333	168.888	-65.114	211.722	268.661	153.837	9.548	258.059	251.816	59.267	142.030	275.571	-4.816	155.991	226.366	285.669	-15.036	0.00043867	0.00090266	7.9729e-05	1347.4	1.7225e-06	2.4304e-06	1348.9	363.81	6.7413e-06	2.4876e-06	414.61	136.79	119.56	41.235	5.2155e-06	50.848	0.00056568	0.00056193	0.000156	1372.6	6.1373e-06	6.1827e-06	1369.4	371.32	6.179e-06	6.2401e-06	424.01	142.31	122.89	42.407	6.1037e-06	52.526	-3.803	27.776	-2.199	-53.864	97.587	34.703	-53.911	-49.135	166.600	244.818	-49.913	-43.860	-44.948	-40.137	42.105	-41.088	-8191	255	
865.571	1	1	0	0	0.087968	0.23504	0.069871	0.32124	0.16879	0.24618	0.21288	0.15657	0.13901	0.18878	0.36408	0.024838	0.28315	0.27467	0.11862	0.1311	-1.7167	-2.1604	-2.0833	-2.5542	-2.0521	-2.1437	-2.5333	-2.0583	-2.2854	-2.4667	-2.0208	-2.2938	-2.2354	-2.225	-2.4021	-2.1646	116.581	-12.211	221.268	284.027	85.471	-50.290	239.287	137.792	172.340	206.013	235.588	10.278	250.514	-44.765	200.050	150.769	0.00043038	0.00023236	8.4545e-05	1346.7	5.3173e-06	1.227e-06	1346.5	363.48	7.7485e-07	5.4658e-06	415.24	139.95	120.05	41.141	8.838e-06	51.095	0.00056278	0.00056429	0.00015704	1370.9	6.1793e-06	6.1382e-06	1368.7	370.56	6.1211e-06	6.0881e-06	423.74	141.71	122.76	42.332	6.0807e-06	52.545	-26.174	13.888	45.820	-53.604	105.596	289.504	-53.759	-49.075	65.985	104.307	-49.784	-44.010	-44.709	-39.993	23.318	-41.211	-8191	255	
865.667	1	1	0	0	0.079354	0.39377	0.21617	0.0024549	0.33206	0.44385	0.2867	0.020474	0.32723	0.076393	0.20342	0.17441	0.23185	0.20773	0.27783	0.11799	-1.6688	-2.4333	-1.9542	-2.4104	-2.2562	-1.9667	-2.5021	-2.2854	-2.1917	-2.5687	-2.1292	-2.5229	-2.375	-2.1792	-2.5563	-2.3083	-42.531	281.288	259.159	-12.351	134.085	130.454	252.475	132.534	89.772	4.661	212.971	60.893	284.060	132.503	225.415	171.365	0.00051311	0.00014814	1.97e-05	1350.4	1.8992e-06	4.8155e-06	1350.4	363.89	5.7981e-06	5.6529e-06	415.59	138.2	119.14	41.07	6.9502e-06	50.932	0.00055521	0.00055721	0.00015425	1369	5.9826e-06	6.0606e-06	1368.2	370.26	6.0171e-06	5.9807e-06	423.3	141.66	122.31	42.379	5.985e-06	52.516	-26.061	39.802	51.059	-53.673	4.461	91.611	-53.672	-48.995	192.491	12.490	-49.530	-43.960	-44.798	-39.992	32.983	-40.931	-8191	255	
865.763	1	1	0	0	0.11558	0.14902	0.11234	0.14016	0.26693	0.019368	0.088356	0.28781	0.049528	0.16286	0.044099	0.21557	0.159	0.015282	0.30486	0.048066	-1.8125	-2.3604	-2.0687	-2.6292	-2.4188	-1.9833	-2.8667	-2.425	-1.975	-2.3792	-2.1083	-2.2583	-2.3104	-2.0458	-2.4833	-2.375	4.629	49.706	143.179	-59.544	-10.740	-4.482	183.118	275.964	208.668	71.911	19.925	46.998	262.363	164.820	142.251	289.011	0.00038257	0.00070663	0.00016466	1351.5	6.382e-06	4.667e-06	1350.3	363.65	4.1702e-06	4.1548e-06	415.3	140.22	120.3	41.098	7.0448e-06	50.927	0.000548	0.00054745	0.00015202	1371.2	5.9218e-06	5.9544e-06	1366.9	370.23	5.9357e-06	6.0061e-06	423.18	141.69	122.82	42.317	5.9899e-06	52.435	-30.048	11.713	4.262	-53.766	94.660	41.347	-53.982	-49.130	9.348	118.281	-49.519	-43.974	-44.941	-40.061	33.691	-41.091	-8191	255	
865.882	1	1	0	0	0.17772	0.26627	0.15283	0.093802	0.129	0.26115	0.19087	0.21326	0.12824	0.18187	0.14304	0.23179	0.13321	0.044772	0.065319	0.14421	-1.9146	-2.5708	-2.0833	-2.2708	-2.1937	-2	-2.5771	-2.55	-2.0958	-2.6167	-2.0875	-2.3063	-2.5563	-2.0875	-2.5479	-2.375	-66.055	92.808	22.356	88.629	32.438	65.107	-54.393	240.269	111.517	55.302	92.130	218.360	-44.958	228.872	109.154	-32.233	0.00057922	0.00061623	3.3157e-05	1350.8	4.1548e-06	5.8889e-06	1350	362.69	5.9463e-06	6.0879e-06	416.68	139.53	120.04	41.041	9.6684e-06	51.075	0.00054441	0.00054227	0.00015202	1366.1	5.9858e-06	5.9279e-06	1365.8	369.84	5.9353e-06	5.9221e-06	423.32	140.52	122.64	42.298	5.8837e-06	52.501	-24.487	39.911	120.893	-53.726	59.826	64.043	-53.778	-49.199	145.537	110.307	-49.764	-43.419	-44.726	-40.164	62.025	-41.161	-8191	255	
865.978	1	1	0	0	0.060565	0.014073	0.030655	0.043448	0.079038	0.17022	0.28184	0.051215	0.25992	0.081222	0.18051	0.27629	0.093758	0.13922	0.14168	0.2495	-1.6292	-2.3229	-1.9979	-2.2771	-2.3979	-2.0354	-2.425	-2.3271	-2.0021	-2.6604	-2.35	-2.3312	-2.3833	-2.1271	-2.5187	-2.6562	224.791	187.932	-21.459	273.617	45.397	52.486	216.878	98.110	7.799	-7.003	127.779	8.439	118.698	278.790	264.278	-37.191	0.0005935	0.00019071	4.3657e-05	1350.8	3.2363e-06	1.4845e-06	1347.1	363.21	2.8202e-06	9.851e-06	415.75	139.22	120.09	41.051	5.8042e-06	51.055	0.00054444	0.00054405	0.00015196	1369.5	5.9949e-06	5.9358e-06	1366.4	370.56	5.975e-06	5.9545e-06	423.29	140.73	122.8	42.333	5.9704e-06	52.5	-12.125	45.897	-12.437	-54.105	14.289	290.790	-53.948	-49.057	4.196	102.361	-49.510	-44.408	-44.894	-39.866	-1.873	-40.981	-8191	255	
866.074	1	1	0	0	0.15314	0.24944	0.27091	0.1816	0.21127	0.33318	0.18364	0.36363	0.1435	0.21935	0.22834	0.18834	0.15392	0.18707	0.20815	0.10796	-1.4729	-2.3417	-2.0792	-2.2104	-2.5417	-2.1063	-2.3917	-2.5104	-1.9396	-2.5083	-2.2271	-2.1167	-2.5563	-2.1375	-2.2146	-2.4479	291.939	32.785	273.824	255.337	128.660	-60.374	269.822	211.185	260.790	111.048	11.859	246.157	259.380	228.019	259.025	91.315	0.00034355	0.00057168	0.00018609	1345.5	2.1515e-06	6.9532e-06	1349.3	365	1.5596e-06	1.6865e-06	415.52	134.74	120.17	41.235	4.7264e-06	51.214	0.0005447	0.00054898	0.00015163	1367.7	5.9315e-06	6.0122e-06	1366.5	370.86	5.975e-06	5.9572e-06	422.93	140.56	122.82	42.351	5.9786e-06	52.556	-40.523	40.757	-8.700	-53.557	140.316	93.240	-53.758	-49.047	-10.026	222.650	-49.693	-43.833	-44.691	-40.223	-57.498	-40.697	-8191	255	
866.170	1	1	0	0	0.1492	0.21191	0.22668	0.17604	0.38192	0.17329	0.31837	0.33703	0.1584	0.17832	0.25973	0.19199	0.05945	0.10385	0.23502	0.17176	-1.5458	-2.2271	-2.2292	-2.2	-2.5083	-2.0042	-2.3958	-2.4604	-1.9396	-2.2938	-2.2646	-1.8979	-2.5229	-2.1667	-2.1104	-2.6458	248.306	204.567	59.742	-64.196	239.707	86.280	249.083	266.942	61.810	63.139	237.177	282.153	242.686	-53.344	-48.496	176.825	0.00018323	0.0012131	7.1662e-05	1351	2.482e-06	6.285e-06	1348.3	364.73	7.5745e-06	4.7951e-06	417.73	139.88	119.49	41.253	1.5087e-06	51.208	0.00054902	0.00054871	0.00015158	1366	5.9482e-06	5.9894e-06	1367.6	370.79	5.9883e-06	5.9342e-06	423.74	141.66	122.49	42.376	5.9546e-06	52.542	8.827	-29.009	38.623	-53.911	174.226	3.464	-53.762	-49.089	35.107	274.783	-49.581	-44.181	-44.866	-40.168	177.988	-40.800	-8191	255	
866.291	1	1	0	0	0.10004	0.034469	0.25644	0.21063	0.17723	0.1288	0.050957	0.15349	0.25872	0.039087	0.4081	0.20092	0.085657	0.30546	0.27363	0.41025	-1.4396	-2.3708	-2.2188	-2.025	-2.5458	-2.1979	-2.3667	-2.6479	-2.0542	-2.4458	-2.4333	-2.1396	-2.5	-2.2896	-2.2917	-2.5854	232.303	182.846	97.118	202.911	285.402	158.842	-51.784	281.038	71.892	267.375	273.754	250.178	161.370	216.236	5.888	275.636	0.00048909	0.00042059	0.00022188	1358.1	2.1053e-06	5.4084e-06	1351.5	363.17	8.9751e-06	7.7416e-06	414.76	140.16	119.8	41.388	7.2897e-06	51.24	0.00054899	0.00054467	0.00015186	1371	5.9816e-06	6.0127e-06	1370.5	370.25	5.9024e-06	5.978e-06	423.87	141.17	122.75	42.365	5.9251e-06	52.624	-25.449	16.539	19.393	-53.720	66.915	147.106	-54.005	-49.023	81.302	122.419	-49.867	-42.606	-44.928	-40.135	105.297	-40.943	-8191	255	
866.363	1	1	0	0	0.084705	0.13436	0.16387	0.088274	0.20167	0.18487	0.3454	0.58468	0.028549	0.079296	0.17488	0.16064	0.26907	0.26824	0.091786	0.3829	-1.5229	-2.2167	-2.3021	-2.0208	-2.3708	-2.0542	-2.3625	-2.625	-2.1708	-2.2646	-2.5438	-2.0083	-2.4375	-2.3083	-1.9875	-2.5896	5.785	-54.195	-45.934	8.157	-44.680	-21.768	259.831	199.552	245.121	158.246	245.246	-57.771	5.799	274.287	171.218	273.748	0.00051586	6.0554e-05	0.00028967	1351.9	2.7583e-06	6.7079e-06	1349.6	364.06	7.6427e-06	1.8424e-06	415.55	139.18	120.09	41.22	3.1621e-06	51.068	0.00054008	0.00053943	0.00015148	1370.6	5.8641e-06	5.92e-06	1366.6	370.59	5.8875e-06	5.8621e-06	423.27	140.87	122.49	42.367	5.8601e-06	52.487	-17.534	109.682	-20.881	-53.950	25.086	93.644	-53.837	-48.940	41.415	116.845	-49.421	-43.945	-44.993	-40.288	-63.009	-40.871	-8191	255	
866.459	1	1	0	0	0.070502	0.27804	0.15887	0.11262	0.26604	0.069632	0.102	0.18941	0.13027	0.064878	0.14733	0.14305	0.069419	0.19787	0.15655	0.23742	-1.6625	-2.325	-2.4437	-1.9333	-2.4729	-2.3271	-2.4125	-2.6958	-2.0833	-2.2854	-2.5958	-1.8958	-2.3708	-2.4062	-1.7771	-2.6375	147.329	285.101	126.163	-66.501	139.274	163.501	272.577	-49.287	199.045	6.333	195.978	210.370	28.821	203.756	106.435	198.911	0.00042768	0.00040279	0.0001808	1345.3	2.5608e-06	8.442e-06	1349.1	363.98	2.7761e-06	1.079e-06	417.06	139.29	119.56	41.117	5.9127e-06	51.218	0.00053604	0.00053803	0.00015013	1364.1	5.8903e-06	5.9057e-06	1366.9	370.3	5.852e-06	5.884e-06	423.5	140.46	122.5	42.295	5.8997e-06	52.522	-16.049	262.025	-13.275	-53.687	70.989	26.731	-54.010	-49.182	70.889	-57.816	-49.734	-43.971	-44.471	-40.079	60.463	-41.035	-8191	255	
866.555	1	1	0	0	0.17165	0.1837	0.22836	0.070734	0.21977	0.082128	0.15548	0.32373	0.03946	0.098609	0.36875	0.085093	0.25779	0.19386	0.14577	0.21968	-1.6771	-2.1437	-2.3312	-2.0687	-2.3875	-2.4062	-2.0979	-2.5625	-2.3333	-2.2146	-2.7042	-2.0438	-2.2625	-2.5542	-2.0062	-2.5104	220.777	-34.808	-63.025	247.447	185.682	257.865	252.447	238.561	-19.903	-17.672	259.393	269.816	217.820	199.721	175.767	232.135	0.0005425	0.00058074	0.00014561	1355	2.9204e-06	3.6078e-06	1349.8	363.5	5.9364e-06	4.914e-06	415.17	135.95	119.95	41.131	8.1218e-06	50.903	0.00053744	0.00053503	0.00014849	1367.7	5.8296e-06	5.8169e-06	1367	370.14	5.7605e-06	5.8508e-06	422.75	140.01	122.7	42.26	5.885e-06	52.369	0.220	-10.348	-45.803	-53.844	11.335	-53.424	-53.964	-48.960	115.108	89.886	-49.925	-44.048	-44.925	-40.078	64.115	-41.041	-8191	255	
866.675	1	1	0	0	0.12424	0.16352	0.10324	0.095989	0.13609	0.10407	0.23684	0.31741	0.10539	0.30217	0.31395	0.20855	0.081558	0.13375	0.1157	0.18881	-1.7625	-2.175	-2.4083	-2.0896	-2.2562	-2.6958	-2.0687	-2.3521	-2.35	-2.2188	-2.6521	-1.8687	-2.2792	-2.5438	-1.8646	-2.4375	179.727	34.676	-49.749	-65.102	148.784	49.086	179.681	28.526	-14.922	209.794	229.843	149.151	217.964	143.776	247.282	97.551	0.00036569	0.0008484	0.00014051	1352.5	5.5945e-06	4.0016e-06	1345.4	364.12	8.3371e-06	7.626e-06	415.54	138.78	119.88	41.368	7.6145e-06	51.139	0.00053442	0.00053601	0.00014755	1367.4	5.8083e-06	5.8302e-06	1364.6	370.22	5.7917e-06	5.8501e-06	423.29	141.03	122.44	42.301	5.8598e-06	52.49	-22.217	34.780	42.248	-53.633	42.035	146.824	-54.012	-49.046	81.116	106.192	-49.541	-44.301	-44.726	-40.177	12.671	-40.815	-8191	255	
866.770	1	1	0	0	0.03002	0.2995	0.22451	0.4025	0.090653	0.091641	0.37668	0.37855	0.039333	0.38143	0.083877	0.16119	0.17686	0.21729	0.039418	0.1892	-1.7729	-2.0958	-2.5646	-2.1521	-2.0521	-2.4458	-2.1667	-2.3937	-2.4646	-2.0646	-2.5438	-2.2792	-2.1458	-2.5396	-2.0146	-2.3563	263.511	110.977	219.463	280.570	281.025	16.080	243.380	276.565	-6.543	131.936	-8.469	128.502	252.903	248.988	-12.888	-54.263	0.00022947	3.3014e-05	5.6714e-05	1344.9	6.4589e-06	1.2993e-06	1349	363.16	2.4457e-06	4.2543e-06	417.27	136.99	120.01	41.075	2.6006e-06	51.403	0.00053955	0.00053487	0.00014926	1365.7	5.8392e-06	5.8258e-06	1366.1	370.06	5.7957e-06	5.8516e-06	423.76	139.65	122.47	42.312	5.8515e-06	52.541	-23.115	70.310	28.551	-53.823	93.863	54.691	-53.810	-49.276	80.447	137.145	-49.642	-44.234	-44.802	-40.296	188.672	-40.896	-8191	255	
866.866	1	1	0	0	0.17942	0.089592	0.099028	0.018849	0.046063	0.20345	0.48283	0.35057	0.26325	0.090529	0.32034	0.13415	0.065777	0.20722	0.26287	0.32173	-1.9646	-1.8583	-2.4417	-2.2271	-2.2333	-2.4229	-2.1813	-2.3333	-2.3396	-1.8188	-2.5812	-2.2687	-2.0146	-2.7562	-2.0812	-2.3875	-13.605	182.373	90.988	197.058	158.091	182.561	247.529	231.230	-5.975	197.976	-25.994	56.655	190.355	-25.254	241.159	-50.483	0.00044271	0.00077412	4.1456e-05	1353.5	3.5459e-06	6.2412e-06	1350.5	363.53	1.0359e-05	2.8196e-06	415.85	139.82	120.3	41.105	4.3711e-06	50.832	0.00053062	0.000529	0.00014675	1368.2	5.824e-06	5.8016e-06	1366.6	370.35	5.8871e-06	5.8718e-06	423.2	141.41	122.72	42.313	5.9092e-06	52.476	-33.508	42.677	155.187	-53.838	93.943	24.640	-53.927	-49.170	26.853	274.320	-49.600	-44.851	-45.139	-39.955	62.437	-40.947	-8191	255	
866.964	1	1	0	0	0.29362	0.050521	0.22972	0.17524	0.27129	0.08242	0.15239	0.07836	0.30832	0.19731	0.19813	0.15055	0.20209	0.22421	0.10635	0.057231	-2.1083	-1.8937	-2.4229	-2.4625	-2.1271	-2.6229	-2.325	-2.4375	-2.5438	-2.0771	-2.3	-2.1875	-2.1604	-2.4667	-2.1146	-2.3667	74.825	160.188	76.747	194.926	130.209	204.437	240.141	287.051	-58.061	249.899	255.064	221.798	-43.355	-63.281	83.243	-60.234	0.00035848	0.0012414	0.00028423	1357.7	4.4555e-06	1.7257e-06	1353.8	363.62	5.0175e-06	8.629e-06	416.28	137.27	119.47	41.193	8.6361e-06	51.149	0.00053622	0.00053941	0.00015005	1370.4	5.8583e-06	5.8758e-06	1367.9	370.53	5.8444e-06	5.8743e-06	422.96	139.75	122.75	42.334	5.8769e-06	52.501	8.291	33.120	-8.814	-53.891	138.303	143.542	-53.846	-49.097	85.668	152.742	-49.585	-43.948	-44.803	-40.051	89.954	-41.014	-8191	255	
867.058	1	1	0	0	0.2174	0.32799	0.19981	0.14273	0.21782	0.12899	0.33649	0.095945	0.18388	0.30843	0.29733	0.2518	0.30545	0.18605	0.11658	0.10445	-1.9458	-2.0062	-2.4729	-2.2687	-2.1917	-2.4646	-2.3583	-2.2542	-2.5333	-2.0167	-2.625	-2.2667	-2.0479	-2.5042	-2.3229	-2.3438	62.456	203.952	23.115	-13.990	149.984	24.321	216.893	-36.526	48.080	118.401	223.747	-65.495	64.351	-42.705	44.253	228.407	0.00045976	0.00035361	0.00013995	1347	8.3417e-07	4.6876e-06	1350.1	363.7	2.9552e-06	7.1201e-06	414.45	137.38	119.62	41.003	9.1194e-06	51.087	0.00053847	0.0005363	0.00014965	1367	5.8273e-06	5.8603e-06	1366.9	370.06	5.8391e-06	5.8072e-06	422.47	140.17	122.4	42.274	5.8147e-06	52.434	-8.312	-13.511	-24.989	-53.931	-19.471	70.382	-53.945	-49.113	-29.594	127.879	-49.617	-44.803	-44.938	-39.991	77.860	-41.043	-8191	255	
867.154	1	1	0	0	0.10832	0.14244	0.20734	0.22222	0.18911	0.17202	0.25184	0.20117	0.12815	0.3395	0.19435	0.15848	0.055303	0.098698	0.010548	0.12422	-2.025	-2.0542	-2.3021	-2.4146	-2	-2.4083	-2.4708	-2.3937	-2.45	-2.1854	-2.5187	-2.3208	-2.0917	-2.5438	-2.2667	-2.1792	69.691	62.098	90.921	11.132	-53.254	282.412	251.460	134.493	290.115	-13.969	199.164	152.323	224.210	281.877	26.166	259.776	0.00042078	0.00050999	9.742e-05	1355.9	1.3318e-06	4.1448e-06	1346.4	364.56	6.027e-06	9.4893e-06	415.08	134.79	119.58	41.137	4.6794e-06	51.045	0.00052699	0.00053075	0.00014727	1366.8	5.842e-06	5.72e-06	1364	370.52	5.8141e-06	5.8417e-06	422.89	138.8	122.45	42.298	5.7332e-06	52.45	-26.583	14.525	276.571	-53.672	83.268	91.765	-53.895	-49.090	89.742	91.800	-49.839	-42.988	-44.837	-40.084	50.038	-41.068	-8191	255	
867.251	1	1	0	0	0.21793	0.23228	0.069073	0.15906	0.15952	0.1845	0.36327	0.20873	0.2019	0.33405	0.098322	0.25746	0.071441	0.36658	0.16289	0.1887	-2.2083	-1.9583	-2.0792	-2.5021	-1.9833	-2.3542	-2.5708	-2.2229	-2.4667	-2.3583	-2.3396	-2.4854	-1.9896	-2.45	-2.3	-2	-47.972	164.547	108.670	-25.804	229.784	136.454	224.558	237.446	252.910	136.534	176.528	211.513	286.771	-43.998	67.220	47.305	0.000518	0.00030401	0.00015107	1352.2	9.8591e-07	3.5659e-06	1351.5	362.91	5.0998e-06	6.0778e-06	415.39	140.76	120.3	41.136	2.1619e-06	51.016	0.00052633	0.00052468	0.00014577	1365.3	5.7223e-06	5.7463e-06	1364.3	369.89	5.6997e-06	5.7408e-06	422.28	139.14	122.66	42.306	5.6432e-06	52.401	-18.220	88.219	2.163	-53.645	34.927	115.799	-53.964	-49.030	-66.403	115.239	-49.678	-44.665	-44.880	-40.228	74.645	-41.195	-8191	255	
867.371	1	1	0	0	0.15447	0.21688	0.35262	0.14187	0.12453	0.072421	0.077472	0.18993	0.097164	0.19602	0.31121	0.14405	0.032232	0.23644	0.23056	0.11694	-2.0125	-2.0375	-2.1146	-2.3208	-1.9167	-2.3396	-2.5104	-1.9958	-2.5187	-2.1292	-2.2792	-2.6333	-2.0812	-2.475	-2.3604	-1.9792	278.001	282.056	131.412	215.592	286.202	186.730	45.182	234.047	-31.554	124.728	247.823	13.851	93.392	-59.725	189.280	-66.277	0.00057261	0.0010283	0.00025073	1349.6	6.8155e-06	4.9895e-06	1346.2	363.25	1.2428e-05	4.2737e-06	415.53	137.01	119.67	41.135	5.3485e-06	51.079	0.00051759	0.00051673	0.00014709	1365.7	5.7037e-06	5.7361e-06	1363.6	369.78	5.6566e-06	5.7417e-06	422.4	138.75	122.18	42.242	5.703e-06	52.376	-12.179	-8.367	16.156	-53.585	118.616	26.097	-53.767	-49.147	75.128	151.413	-49.642	-44.321	-44.999	-40.033	-2.421	-40.781	-8191	255	
867.467	1	1	0	0	0.053506	0.464	0.24723	0.26006	0.087236	0.13533	0.43003	0.17579	0.27143	0.17683	0.30896	0.10342	0.34304	0.34804	0.14722	0.18214	-1.775	-2.0438	-1.8458	-2.4375	-2.1792	-2.2042	-2.6229	-2.2021	-2.2625	-2.4333	-2.1167	-2.3854	-2.0542	-2.4375	-2.1729	-2.2104	43.670	133.219	207.746	283.107	124.296	257.535	205.666	201.654	248.862	218.654	-34.295	189.136	-54.348	-62.697	210.336	274.342	0.00037239	0.00090896	0.00019003	1349	2.8103e-06	2.0675e-06	1346.9	365.16	4.0768e-06	4.7226e-06	414.98	138.14	119.95	40.927	4.7572e-06	50.997	0.00052124	0.00052763	0.00014634	1365	5.7315e-06	5.7006e-06	1363.9	370.18	5.7232e-06	5.7106e-06	421.96	139.05	122.39	42.199	5.7412e-06	52.318	-25.567	-22.094	-15.842	-53.947	107.305	26.836	-53.813	-49.260	43.397	116.458	-49.633	-44.148	-44.834	-39.943	-48.324	-40.637	-8191	255	
867.564	1	1	0	0	0.12265	0.072016	0.37216	0.054033	0.14884	0.11625	0.19836	0.22715	0.12605	0.11265	0.28322	0.13926	0.27947	0.26413	0.11955	0.10687	-1.9458	-2.1771	-2.1625	-2.525	-2.15	-2.0771	-2.6208	-2.1937	-2.3187	-2.3187	-2.0625	-2.3812	-2.1958	-2.2604	-2.5333	-2.1354	-66.616	-43.076	291.993	-17.224	212.753	-29.745	247.764	254.984	146.440	21.220	271.609	-51.402	168.026	193.501	-18.316	-56.601	0.00053782	0.00027885	0.00014733	1346.9	4.9033e-06	3.6495e-06	1346.4	363.17	2.9017e-06	6.5854e-06	415.14	138.9	119.17	41.184	3.4356e-06	50.959	0.00052206	0.00052709	0.00014629	1362.2	5.7097e-06	5.7684e-06	1363.3	369.62	5.7829e-06	5.7783e-06	422.13	139.56	122.27	42.22	5.796e-06	52.336	-17.398	-18.484	8.672	-53.689	106.736	112.429	-53.815	-49.048	-56.850	58.481	-49.405	-44.318	-44.761	-40.078	146.522	-40.913	-8191	255	
867.660	1	1	0	0	0.24074	0.16599	0.25029	0.18368	0.016525	0.062501	0.26452	0.27144	0.14157	0.15752	0.18766	0.032449	0.099376	0.10496	0.096928	0.37144	-1.6875	-2.4458	-1.9667	-2.5979	-2.0312	-1.9917	-2.6583	-2.2062	-2.3125	-2.5375	-2.2229	-2.4229	-2.2771	-2.1604	-2.4208	-2.1729	53.253	137.454	212.642	-53.069	215.409	97.786	265.922	247.129	-3.100	212.063	257.924	186.076	11.658	268.516	258.210	-49.355	0.00057283	0.00035666	5.9814e-05	1344.9	4.9551e-06	6.9309e-06	1343.1	363.33	1.2508e-05	1.4506e-05	415.32	141.75	120.32	41.071	3.3155e-06	51.069	0.00053174	0.00052806	0.00014777	1363.3	5.8589e-06	5.8056e-06	1362.8	369.06	5.8313e-06	5.8939e-06	422.71	140.03	122.56	42.228	5.7956e-06	52.35	-14.096	72.427	90.484	-53.776	17.002	0.144	-53.745	-49.338	45.616	113.783	-49.592	-43.722	-44.484	-40.042	132.471	-40.961	-8191	255	
867.756	1	1	0	0	0.17585	0.12102	0.13685	0.31081	0.090097	0.29202	0.22707	0.041531	0.11003	0.25038	0.23809	0.2268	0.14945	0.22839	0.17025	0.33935	-1.7437	-2.3187	-1.7896	-2.4646	-2.2479	-2.1688	-2.5271	-2.275	-2.1188	-2.4562	-2.0354	-2.2896	-2.35	-2.2271	-2.475	-2.1562	203.880	127.635	211.031	200.298	196.855	0.705	229.989	-48.784	119.503	243.822	-48.550	146.222	1.941	-51.728	-55.420	213.331	0.0003903	0.000524	8.6193e-05	1341	1.1604e-06	3.8471e-06	1344.6	362.9	3.8856e-06	5.3401e-06	414.42	140.39	119.45	41.16	5.0298e-06	50.822	0.00053524	0.0005341	0.00014751	1362.8	5.8176e-06	5.8069e-06	1362.3	369.15	5.8383e-06	5.8578e-06	422.34	140.16	122.22	42.279	5.8566e-06	52.389	-27.853	48.307	35.713	-53.596	115.532	27.962	-53.876	-49.151	66.428	54.098	-49.677	-44.396	-45.266	-40.112	69.889	-41.107	-8191	255	
867.850	1	1	0	0	0.13225	0.15517	0.31863	0.29628	0.14758	0.24104	0.25469	0.070291	0.2162	0.15711	0.11341	0.12455	0.21654	0.19191	0.21851	0.1912	-1.7396	-2.5146	-1.9229	-2.3604	-2.3083	-2.0479	-2.6604	-2.2854	-2.0458	-2.3937	-2.2542	-2.2771	-2.4708	-2.0979	-2.3375	-2.2729	176.493	266.969	15.506	25.096	225.345	156.073	184.348	189.067	-42.333	101.178	232.546	53.078	-39.029	32.132	266.806	226.083	0.00039991	4.9572e-05	0.00012095	1347.3	1.8902e-06	5.666e-06	1345.5	362.77	8.8873e-06	3.042e-06	414.4	136.96	118.52	41.108	6.8529e-06	50.964	0.00053333	0.00054146	0.00015029	1364.7	5.8531e-06	5.8718e-06	1364.7	369.71	5.9229e-06	5.8359e-06	422.51	140.32	122.13	42.254	5.9083e-06	52.412	-5.139	3.317	-23.854	-53.898	137.468	58.341	-53.889	-49.198	86.815	7.113	-49.730	-42.888	-44.823	-40.132	122.493	-40.841	-8191	255	
867.971	1	1	0	0	0.077838	0.11589	0.20388	0.18532	0.054925	0.040315	0.24159	0.15759	0.22053	0.29493	0.089471	0.11663	0.24018	0.21622	0.035923	0.25358	-1.7333	-2.5396	-1.9875	-2.3896	-2.5563	-2.0792	-2.6396	-2.3937	-2.2667	-2.3833	-2.2125	-2.3187	-2.4479	-2.2104	-2.5042	-2.4146	-46.599	71.331	251.631	268.945	216.434	195.773	252.367	247.052	144.174	135.609	226.964	272.173	-49.622	-32.762	160.402	281.249	0.00059794	0.00019066	0.0002325	1350.5	2.39e-06	2.9286e-06	1349.3	363.63	3.9859e-06	6.7221e-06	415.92	138.51	119.64	41.201	4.0504e-06	50.852	0.00053622	0.00053647	0.00015043	1368	5.9026e-06	5.8955e-06	1364.3	369.47	5.8554e-06	5.8625e-06	423.05	139.63	122.2	42.204	5.8197e-06	52.35	-3.050	-25.568	42.670	-53.784	56.405	219.209	-53.739	-49.264	24.219	94.246	-49.719	-42.985	-44.780	-40.193	90.055	-40.991	-8191	255	
868.067	1	1	0	0	0.10647	0.11484	0.044616	0.2175	0.19101	0.21311	0.2249	0.29783	0.23895	0.23946	0.065876	0.14998	0.094854	0.071884	0.35438	0.17706	-1.5792	-2.4625	-2.1146	-2.2625	-2.3812	-2.0625	-2.5563	-2.3458	-1.8354	-2.5417	-2.2354	-1.9292	-2.4979	-2.2875	-2.1667	-2.3958	125.516	260.285	202.662	149.072	38.933	124.975	220.983	267.517	139.598	273.949	254.435	281.749	-42.439	7.195	268.383	152.376	0.00057772	0.00099026	7.9378e-05	1352.4	3.9964e-06	4.9048e-06	1346.8	361.06	2.837e-06	3.4875e-06	413.74	136.82	119.79	40.882	4.4711e-06	50.887	0.0005314	0.00053375	0.00014806	1365.6	5.8074e-06	5.83e-06	1362.4	368.34	5.8685e-06	5.8797e-06	421.48	139.54	122.2	42.114	5.8525e-06	52.303	-6.510	32.481	-9.336	-53.543	127.023	44.003	-53.711	-49.096	202.683	151.457	-49.640	-43.965	-44.853	-40.093	-16.567	-41.000	-8191	255	
868.163	1	1	0	0	0.2985	0.091083	0.26771	0.023681	0.22248	0.2733	0.2666	0.27322	0.18249	0.12871	0.22855	0.095808	0.12329	0.098468	0.21158	0.13472	-1.3813	-2.5521	-2.1146	-2.1917	-2.4021	-2.1458	-2.4646	-2.5312	-2.0146	-2.5479	-2.4813	-2.1208	-2.525	-2.3	-2.35	-2.4292	207.602	165.026	128.590	217.347	214.764	121.585	234.668	202.285	232.290	38.081	231.812	-19.981	175.743	190.401	283.894	-56.389	0.00035497	0.0010157	0.00013293	1346.9	6.1543e-06	5.6435e-06	1344.8	362.79	5.8619e-06	5.4108e-06	413.49	136.86	119.47	41.129	6.7561e-06	51.159	0.00053901	0.00053848	0.0001493	1363.4	5.8313e-06	5.8872e-06	1363.3	369.04	5.8174e-06	5.8096e-06	421.48	140.16	122.11	42.142	5.9332e-06	52.369	-9.902	28.965	79.582	-53.564	90.875	113.265	-53.855	-49.098	22.341	112.638	-49.708	-43.322	-44.812	-39.989	25.326	-41.027	-8191	255	
868.235	1	1	0	0	0.28663	0.33909	0.067221	0.1606	0.12271	0.10594	0.30752	0.23712	0.12276	0.24464	0.12866	0.15757	0.19192	0.43557	0.10593	0.13404	-1.5229	-2.3458	-2.2083	-2.0917	-2.4792	-2.1896	-2.4333	-2.6833	-2.0167	-2.3542	-2.4667	-2	-2.6229	-2.2125	-2.1542	-2.5187	206.860	247.369	77.294	247.165	62.329	173.712	215.539	214.199	-30.051	71.391	275.914	1.069	188.431	284.919	227.437	-66.314	0.00033945	0.00043363	4.9612e-05	1345	2.4089e-06	7.2774e-06	1345.2	362.62	7.8665e-06	2.171e-06	412.68	137.69	118.84	40.873	4.9763e-06	50.963	0.00053524	0.00053608	0.00014882	1362.6	5.7852e-06	5.8558e-06	1361.8	369.04	5.8211e-06	5.7957e-06	421.38	140.3	122.13	42.116	5.7579e-06	52.279	-4.842	18.382	-23.848	-53.954	131.670	37.127	-53.811	-49.053	266.897	253.023	-49.672	-43.967	-44.446	-40.213	54.801	-40.724	-8191	255	
868.331	1	1	0	0	0.12466	0.26596	0.059375	0.099126	0.15803	0.2472	0.13068	0.068264	0.17064	0.081201	0.26457	0.27758	0.16422	0.27076	0.26577	0.15308	-1.6	-2.2854	-2.3542	-1.9646	-2.4479	-2.0604	-2.2146	-2.5958	-1.9417	-2.4229	-2.4583	-1.775	-2.5583	-2.2458	-2.1437	-2.4979	120.760	89.232	118.650	-47.318	170.492	87.157	116.245	98.913	199.278	208.877	183.872	256.792	-7.342	-56.599	106.856	276.701	0.00044121	0.00049243	4.5295e-05	1340.3	3.0831e-06	4.9229e-06	1347.9	363.26	3.3523e-06	5.4791e-06	414.76	136.97	119.78	40.904	6.9431e-06	50.852	0.00052677	0.00052686	0.00014667	1359.7	5.7165e-06	5.7607e-06	1360.3	368.79	5.8086e-06	5.8224e-06	422.06	138.5	121.98	42.017	5.7809e-06	52.159	-7.421	64.352	-0.413	-54.024	259.111	108.374	-53.808	-49.145	-38.085	83.910	-49.678	-44.421	-44.712	-40.096	66.901	-41.239	-8191	255	
868.452	1	1	0	0	0.15452	0.093205	0.17404	0.25717	0.11583	0.20461	0.18983	0.12808	0.039098	0.10501	0.36261	0.32807	0.27002	0.33306	0.048	0.12218	-1.6187	-2.4417	-2.3458	-2.0354	-2.4229	-2.3604	-2.2812	-2.5708	-2.2062	-2.3083	-2.5542	-1.8646	-2.2854	-2.2958	-2.0271	-2.5312	56.436	253.664	64.741	143.300	64.801	19.485	228.664	-48.777	9.223	181.711	238.210	234.183	230.811	241.519	37.085	200.843	0.00039892	0.00053122	0.00013566	1344.6	6.1896e-06	6.8085e-06	1341.9	361.81	1.0367e-05	9.2466e-06	414.62	137.12	119.45	40.934	7.2426e-06	50.853	0.00052836	0.00052816	0.00014686	1359.7	5.7625e-06	5.8051e-06	1360.2	368.57	5.6713e-06	5.6506e-06	421.04	138.46	121.78	42.067	5.594e-06	52.197	-43.267	289.409	1.128	-53.814	90.290	68.937	-53.766	-49.113	67.877	104.663	-49.909	-43.030	-44.545	-40.067	129.163	-41.031	-8191	255	
868.548	1	1	0	0	0.31499	0.014367	0.21828	0.14697	0.21415	0.26949	0.06318	0.26748	0.24978	0.27402	0.12892	0.19067	0.12833	0.21752	0.20011	0.30069	-1.7229	-2.1437	-2.2062	-2.0708	-2.3312	-2.2812	-2.3042	-2.4708	-2.0812	-2.0667	-2.7083	-2.0542	-2.3896	-2.4396	-2.0396	-2.7146	286.114	143.591	244.698	-54.079	91.580	106.037	217.486	145.589	133.220	200.268	285.247	266.661	274.752	249.497	98.709	260.362	0.00042539	0.0009861	0.00013688	1343.5	4.9273e-06	3.6952e-06	1342.4	361.08	4.7758e-06	8.6706e-06	411.11	135.47	119.55	40.911	5.561e-06	50.591	0.00050988	0.00050162	0.00013916	1358.3	5.48e-06	5.5041e-06	1358.2	367.25	5.4011e-06	5.4652e-06	418.54	135.81	121.36	41.824	5.456e-06	51.79	-15.176	-56.709	-35.526	-53.630	71.773	202.839	-53.890	-49.140	41.004	91.077	-49.551	-44.486	-44.664	-39.948	74.533	-40.940	-8191	255	
868.644	1	1	0	0	0.11347	0.29436	0.11618	0.17918	0.15653	0.11406	0.25533	0.26057	0.18851	0.09218	0.06527	0.02712	0.26247	0.13979	0.20178	0.11301	-1.8104	-2.1	-2.3771	-2.1312	-2.1937	-2.2625	-2.2875	-2.6542	-2.2292	-2.0042	-2.6271	-2.0563	-2.3875	-2.4167	-1.9417	-2.3688	159.122	284.788	215.354	171.926	120.923	125.994	265.442	-66.583	263.240	154.064	17.400	57.059	68.816	253.788	48.612	134.732	0.00031185	0.00068226	2.1243e-05	1341.1	3.6463e-06	1.9408e-06	1337.3	359.92	4.3384e-06	6.0155e-06	411.16	136.57	118.73	40.768	6.8938e-06	50.422	0.00049733	0.00049691	0.00013628	1349.9	5.3216e-06	5.3242e-06	1354.1	366.1	5.4137e-06	5.3636e-06	418.3	135.7	120.61	41.725	5.4075e-06	51.808	-15.209	55.300	254.056	-53.909	54.710	39.543	-53.823	-48.963	98.904	34.351	-49.622	-44.421	-44.561	-40.165	60.488	-40.968	-8191	255	
868.765	1	1	0	0	0.2616	0.044143	0.085179	0.19387	0.11702	0.061144	0.21092	0.32381	0.048658	0.088606	0.16196	0.058435	0.25104	0.18808	0.068538	0.15994	-1.7479	-2.1729	-2.4604	-1.9958	-2.1958	-2.3625	-1.9188	-2.6708	-2.1917	-1.9458	-2.4583	-2.1937	-2.3104	-2.2438	-2.0854	-2.3667	44.849	277.086	165.451	-36.790	230.327	235.335	175.275	262.666	-13.378	81.287	-36.511	14.973	271.549	227.511	-17.597	-17.893	0.00048708	0.00039791	0.00027723	1333.4	5.2155e-06	1.7519e-06	1344.6	360.86	3.1221e-06	6.1809e-06	411.54	137.96	118.34	40.517	1.0715e-05	50.551	0.00049439	0.00049504	0.00013814	1351.4	5.4076e-06	5.4023e-06	1355	366.03	5.4279e-06	5.4278e-06	417.9	135.16	120.62	41.608	5.3521e-06	51.674	-36.723	7.732	3.734	-53.647	88.577	111.022	-53.710	-49.145	119.447	88.373	-49.622	-44.908	-44.932	-40.084	23.824	-40.889	-8191	255	
868.836	1	1	0	0	0.28448	0.2217	0.029344	0.27933	0.18921	0.052248	0.10563	0.24216	0.22676	0.20324	0.20133	0.1768	0.1931	0.17783	0.082384	0.16893	-1.9167	-2.0354	-2.4875	-2.3312	-2.1188	-2.4042	-2.1229	-2.1688	-2.2958	-2.0458	-2.4729	-2.2042	-2.225	-2.6021	-2.0042	-2.2938	6.954	115.344	57.576	239.839	86.688	23.821	2.687	266.514	211.183	279.937	19.119	217.532	222.549	219.647	66.611	198.753	0.00032883	0.00066115	0.00029684	1334.1	1.1454e-06	6.1468e-06	1331.6	360.64	5.2495e-06	8.5066e-06	413.18	136.05	117.77	40.484	7.362e-06	50.263	0.00048884	0.00048544	0.00013663	1349.4	5.2701e-06	5.3397e-06	1350.4	365.51	5.3168e-06	5.3232e-06	417.62	135.03	120	41.499	5.3217e-06	51.532	4.250	-29.799	27.374	-53.907	8.019	33.238	-53.910	-49.025	203.915	-20.077	-49.471	-44.592	-44.700	-40.137	85.449	-40.921	-8191	255	
868.932	1	1	0	0	0.23086	0.27489	0.081672	0.25829	0.16893	0.14696	0.38086	0.2905	0.12094	0.35705	0.030562	0.14765	0.091098	0.19181	0.18643	0.16276	-1.8833	-1.7292	-2.3292	-2.2646	-2.2	-2.5021	-2.2292	-2.4792	-2.4938	-1.9958	-2.425	-2.4062	-2.1833	-2.4375	-2.0187	-2.3542	161.194	279.524	277.157	2.724	145.015	-46.562	248.081	221.409	263.460	16.136	146.468	144.359	285.065	255.558	-50.538	82.994	0.00044618	0.00075009	4.6507e-05	1340.3	5.1341e-06	5.2317e-06	1338	359.97	6.1337e-06	6.9778e-06	411.25	136.99	118.25	40.392	6.0177e-06	50.432	0.00048956	0.00049086	0.00013463	1351.5	5.3027e-06	5.3358e-06	1353.1	365.45	5.3669e-06	5.3594e-06	417.32	134.64	120.37	41.513	5.3311e-06	51.69	-21.295	-9.967	196.266	-53.822	66.785	11.631	-53.950	-49.077	63.590	183.395	-49.818	-44.457	-44.795	-39.972	22.863	-40.891	-8191	255	
869.051	1	1	0	0	0.062526	0.1307	0.099379	0.20428	0.36429	0.1535	0.28112	0.25876	0.092732	0.15138	0.15827	0.051998	0.046332	0.12281	0.045806	0.41499	-2.0687	-1.7167	-2.3792	-2.2604	-2.2917	-2.5354	-2.1896	-2.2583	-2.475	-1.9688	-2.5875	-2.3271	-2.1875	-2.625	-2.1479	-2.3563	88.615	161.876	208.264	39.229	258.658	84.569	220.636	229.845	190.371	184.384	-64.726	64.879	285.514	239.153	233.971	230.433	0.00049538	0.00039143	0.00028847	1342.1	6.5386e-06	3.4496e-06	1340.6	360.07	3.2904e-06	5.561e-06	410.3	136.11	117.31	40.482	5.4506e-06	50.287	0.00049263	0.00048994	0.00013639	1352.4	5.3166e-06	5.2929e-06	1352.9	365.11	5.3149e-06	5.348e-06	417.18	134.44	119.99	41.504	5.3336e-06	51.541	-3.535	245.114	-8.327	-53.612	62.409	71.807	-53.836	-48.981	60.127	91.228	-49.491	-44.387	-44.600	-40.029	37.732	-41.029	-8191	255	
869.147	1	1	0	0	0.16166	0.25584	0.030886	0.20418	0.013195	0.11883	0.045932	0.13265	0.23572	0.24135	0.2435	0.18172	0.076319	0.051924	0.15088	0.15497	-2.0792	-2.1562	-2.2146	-2.3083	-2.0563	-2.3833	-2.3083	-2.175	-2.3563	-1.9875	-2.2208	-2.1813	-2.0938	-2.4771	-2.0563	-2.2917	142.550	280.259	-8.268	213.464	73.779	220.089	232.957	-43.171	95.383	11.183	230.656	190.831	243.855	163.996	-47.174	86.820	0.00045275	3.8025e-05	0.0001048	1336.2	3.4149e-06	4.5715e-06	1336.2	360.05	2.5917e-06	7.8866e-06	411.19	138.43	117.69	40.327	6.3331e-06	50.494	0.00048998	0.0004871	0.00013746	1349.6	5.3395e-06	5.3517e-06	1352.3	365.37	5.3472e-06	5.3709e-06	417.14	135.09	120.3	41.475	5.3307e-06	51.653	-1.841	245.656	61.961	-53.809	100.085	64.459	-53.756	-49.066	154.598	66.628	-49.677	-44.525	-44.684	-40.014	20.368	-40.968	-8191	255	
869.244	1	1	0	0	0.21279	0.062426	0.18479	0.073225	0.18238	0.25861	0.021696	0.1258	0.19005	0.010236	0.34947	0.14795	0.051457	0.20265	0.31987	0.21422	-2.1188	-2.1396	-2.2292	-2.4292	-1.9646	-2.6042	-2.5	-2.0417	-2.3875	-2.0646	-2.3667	-2.4313	-2.1792	-2.4146	-2.2917	-2.1854	-39.112	165.325	171.493	-7.456	245.457	53.669	262.674	231.595	-21.225	226.991	226.519	132.728	253.812	135.226	88.882	267.244	0.00056313	0.00048861	7.0527e-05	1334.4	1.7099e-06	2.474e-06	1337.6	359.54	6.7964e-07	1.2581e-06	412.53	134.9	118.67	40.43	8.5851e-06	50.114	0.00048606	0.00048581	0.00013508	1348.1	5.3207e-06	5.2917e-06	1350.3	364.55	5.3022e-06	5.3204e-06	417.23	134.09	120.12	41.46	5.3496e-06	51.521	-21.032	13.272	-9.412	-53.735	56.115	12.016	-53.748	-49.125	39.743	138.835	-49.674	-45.482	-44.748	-39.834	60.802	-40.860	-8191	255	
869.364	1	1	0	0	0.33646	0.083007	0.35516	0.0024007	0.086117	0.12483	0.077942	0.1242	0.10847	0.10959	0.12559	0.24208	0.087144	0.090444	0.18486	0.044592	-1.9229	-2.0604	-2.0125	-2.5229	-2.1583	-2.3625	-2.5417	-2.2958	-2.4396	-2.0521	-2.2104	-2.4854	-2.2438	-2.4958	-2.2771	-2.1875	250.165	99.346	191.004	174.709	136.047	163.629	45.446	203.275	247.747	4.369	253.406	187.018	94.267	-61.607	180.715	-0.469	0.00041068	0.0005431	3.0956e-05	1332.2	5.4321e-06	7.2332e-06	1333.4	359.54	4.0082e-06	8.4883e-06	413.73	133.33	118.23	40.547	8.8623e-06	50.433	0.00048642	0.00048538	0.0001345	1344.8	5.2673e-06	5.2894e-06	1348.8	364.46	5.3442e-06	5.3444e-06	417.35	134.33	120.27	41.488	5.3275e-06	51.56	-18.761	119.438	19.158	-53.719	161.171	26.385	-53.758	-49.134	28.919	74.549	-49.569	-44.969	-44.584	-40.015	51.514	-40.869	-8191	255	
869.460	1	1	0	0	0.10353	0.14719	0.17056	0.08745	0.2299	0.29777	0.12045	0.18448	0.28062	0.049259	0.15929	0.13006	0.078846	0.15464	0.017852	0.21472	-1.9667	-2.1167	-2.1375	-2.3958	-2.0104	-2.175	-2.3563	-2.1542	-2.4417	-2.2562	-2.2458	-2.4354	-2.0875	-2.3729	-2.3667	-2.0917	279.916	160.953	226.169	59.441	282.803	173.881	256.827	177.582	-6.372	103.170	-40.891	204.010	290.135	-50.174	-49.408	-30.558	0.00044594	0.00019788	0.00017447	1336.1	6.2397e-06	6.2239e-07	1334.1	359.75	2.6443e-06	4.718e-06	410.46	136.19	118.49	40.54	5.1943e-06	50.519	0.00048351	0.0004836	0.00013466	1346.1	5.292e-06	5.2401e-06	1350.1	365.23	5.2884e-06	5.2646e-06	416.72	133.64	120.11	41.53	5.1695e-06	51.475	5.385	65.817	12.183	-53.533	97.837	-45.343	-53.891	-49.101	46.337	62.874	-49.523	-44.068	-44.524	-40.004	50.923	-41.114	-8191	255	
869.532	1	1	0	0	0.22904	0.31397	0.29191	0.090307	0.093635	0.2235	0.11161	0.12688	0.2415	0.31947	0.084754	0.28413	0.13109	0.34744	0.13397	0.27518	-2.0021	-2.1271	-1.9979	-2.4188	-2.15	-2.1792	-2.6333	-2.1646	-2.3667	-2.3125	-2.3833	-2.5333	-2.0375	-2.2062	-2.4729	-2.2938	250.904	113.734	65.834	-20.823	149.710	113.023	179.297	-49.074	20.037	63.722	7.559	-66.498	59.846	287.900	26.512	-32.429	0.00033822	0.00072603	3.7085e-05	1331.2	3.6093e-06	7.25e-06	1337.7	358.69	6.6452e-06	1.494e-06	409.87	141.02	118.26	40.601	5.6713e-06	50.425	0.00047996	0.00047733	0.00013122	1344.7	5.2232e-06	5.1992e-06	1349.7	364.65	5.2734e-06	5.2009e-06	416.66	134.06	120.37	41.505	5.2089e-06	51.591	-14.153	31.684	45.080	-53.850	-44.800	59.350	-53.961	-49.173	186.561	169.507	-49.579	-44.304	-44.482	-40.125	-19.772	-40.778	-8191	255	
869.653	1	1	0	0	0.086172	0.17823	0.35409	0.12554	0.070302	0.11155	0.25799	0.097555	0.22196	0.23757	0.20881	0.096032	0.38125	0.27005	0.17344	0.10591	-1.8896	-2.475	-1.925	-2.4521	-2.2104	-2.1729	-2.4771	-2.0208	-2.1813	-2.3438	-2.1625	-2.4688	-2.3208	-2.1688	-2.5333	-2.0979	6.959	2.115	-3.487	226.556	242.094	16.329	194.514	189.779	38.410	64.625	197.389	180.665	259.266	277.175	10.718	277.809	0.00019809	0.00080516	7.0216e-05	1337.4	2.9527e-06	2.1995e-06	1337.7	359.65	4.5859e-06	1.0804e-05	412.56	137.27	118.2	40.593	3.7367e-06	50.563	0.00047909	0.00048225	0.0001336	1345.7	5.2722e-06	5.2725e-06	1351.1	365.01	5.2537e-06	5.2957e-06	417.44	134.78	120.43	41.595	5.2856e-06	51.687	-31.531	44.824	59.984	-53.828	86.744	39.885	-53.624	-49.006	-21.158	136.007	-49.720	-43.499	-44.741	-40.009	135.294	-41.039	-8191	255	
869.747	1	1	0	0	0.19528	0.22883	0.028014	0.26477	0.1032	0.13234	0.30519	0.17772	0.26604	0.039858	0.060551	0.17748	0.30987	0.179	0.10357	0.21235	-1.9833	-2.4125	-2.0708	-2.3229	-2.3458	-2.1104	-2.6188	-2.1833	-2.2062	-2.3146	-2.0875	-2.6417	-2.2896	-2.1479	-2.4208	-2.2979	260.827	-64.314	100.226	285.035	68.018	-25.230	228.332	254.784	36.637	126.888	86.905	15.505	251.410	-7.643	187.493	290.672	0.00051043	0.00056817	8.2975e-05	1338.1	6.9046e-06	4.7718e-06	1339.2	360.45	9.5956e-06	1.9208e-06	413.48	135.97	119.53	40.98	8.362e-06	50.617	0.0004923	0.00049405	0.00013715	1354.5	5.4556e-06	5.4229e-06	1355.7	366.6	5.4448e-06	5.4738e-06	419.67	136.6	121.4	41.985	5.4893e-06	52.046	-14.825	-16.188	-41.684	-53.661	63.814	45.701	-53.711	-49.093	126.889	-38.336	-49.628	-43.543	-44.592	-40.161	5.186	-41.148	-8191	255	
869.843	1	1	0	0	0.10945	0.10982	0.19135	0.084373	0.065625	0.13746	0.1484	0.13662	0.18078	0.10765	0.060515	0.10746	0.14465	0.41661	0.14532	0.10725	-1.7938	-2.5438	-1.9896	-2.3875	-2.0375	-1.9896	-2.5521	-2.1854	-2.2729	-2.4479	-2.0333	-2.2458	-2.3979	-1.9333	-2.2313	-2.2708	159.108	231.602	59.232	24.218	147.171	-60.857	-57.523	208.546	16.023	123.473	12.884	116.951	256.675	210.611	-65.121	254.094	0.00033202	0.00035752	0.00010535	1342	5.6363e-06	5.9769e-06	1340.9	361.39	3.9155e-06	8.0803e-06	411.87	137.41	119.59	41.086	7.4456e-06	50.756	0.00050391	0.00050752	0.00014018	1355.1	5.5314e-06	5.4683e-06	1357	367.16	5.4993e-06	5.4117e-06	419.5	136.45	121.29	41.999	5.4203e-06	52.106	-26.337	41.884	-8.785	-53.819	96.978	91.740	-53.884	-48.979	252.312	73.465	-49.803	-44.423	-45.002	-40.092	84.472	-41.037	-8191	255	
869.939	1	1	0	0	0.21119	0.10236	0.22022	0.34761	0.14586	0.3455	0.17679	0.38191	0.076981	0.17074	0.11846	0.025927	0.081973	0.18624	0.097996	0.063831	-1.9458	-2.3146	-2.1188	-2.2958	-2.325	-2.0438	-2.7542	-2.3792	-2.1917	-2.3417	-2.1833	-2.2687	-2.5083	-2.0333	-2.4313	-2.3208	143.622	-66.742	-30.571	-54.908	-64.777	13.763	-46.201	243.575	184.255	14.996	197.695	38.721	140.923	282.408	184.541	149.168	0.00046788	0.00032525	0.00020975	1350.7	2.3875e-06	4.2144e-06	1341.4	361.68	4.4682e-06	7.4112e-07	412.39	138.63	118.66	40.93	4.8046e-06	50.906	0.000495	0.00049424	0.00013689	1355.7	5.3594e-06	5.383e-06	1358.2	367.29	5.4114e-06	5.4516e-06	418.98	136.12	121.26	41.987	5.4492e-06	52.068	-12.138	25.883	-35.770	-53.810	3.435	63.175	-53.834	-49.020	186.626	106.769	-49.808	-44.376	-44.625	-39.852	177.586	-40.835	-8191	255	
870.036	1	1	0	0	0.22049	0.20668	0.059865	0.12214	0.17839	0.29285	0.33898	0.21724	0.20777	0.25376	0.17566	0.072294	0.14558	0.39989	0.1235	0.32662	-1.7104	-2.4083	-2.0896	-2.2979	-2.4479	-1.9375	-2.5917	-2.3187	-2.1813	-2.4833	-2.4146	-2.225	-2.5396	-2.1813	-2.3875	-2.3333	81.942	239.326	139.149	255.704	61.320	176.545	246.201	263.470	69.605	288.249	238.748	131.574	195.226	271.484	118.163	243.633	0.00042131	0.00053477	0.0001995	1340.5	3.6829e-06	4.3218e-06	1343.5	361.95	1.2832e-06	2.6871e-06	413.74	138.66	119.25	40.955	1.4323e-06	50.963	0.00050543	0.00050129	0.00014117	1355	5.4944e-06	5.5401e-06	1358.3	368.19	5.5378e-06	5.5634e-06	420.44	137.16	121.59	41.965	5.5433e-06	52.186	-6.144	28.782	4.242	-53.841	77.720	100.166	-53.786	-48.846	83.462	105.698	-49.672	-43.689	-44.972	-40.293	79.653	-40.860	-8191	255	
870.132	1	1	0	0	0.02735	0.061459	0.24004	0.045715	0.27934	0.15273	0.26427	0.24197	0.1927	0.27873	0.082621	0.16924	0.14416	0.33074	0.18298	0.14971	-1.5938	-2.3583	-2.1771	-2.3979	-2.3438	-2.2042	-2.5146	-2.4	-1.9042	-2.3875	-2.2104	-2.1854	-2.5625	-2.1396	-2.4333	-2.6417	196.741	145.073	27.413	261.092	92.451	285.203	241.813	241.514	117.379	-46.499	211.907	277.831	276.541	276.667	274.878	70.113	0.00051666	0.00068098	0.00011357	1342.3	8.3795e-06	5.7583e-06	1342.9	362.06	4.8972e-06	2.8204e-06	413.74	134.14	118.88	41.001	8.1902e-06	51.014	0.00050847	0.00051337	0.00014119	1355.6	5.5396e-06	5.5784e-06	1359.5	368.07	5.6132e-06	5.6571e-06	420.55	137.19	121.65	42.059	5.6655e-06	52.219	-12.992	43.704	49.687	-53.662	100.016	67.002	-53.650	-49.083	134.631	134.883	-49.586	-44.802	-44.705	-40.199	35.805	-40.947	-8191	255	
870.228	1	1	0	0	0.086668	0.14445	0.18967	0.29734	0.1099	0.1405	0.14613	0.41038	0.17167	0.18726	0.033402	0.13851	0.32254	0.2418	0.10611	0.39088	-1.5604	-2.3625	-2.1667	-2.2271	-2.5646	-2.1042	-2.4104	-2.6229	-2.1354	-2.4458	-2.2125	-2.0187	-2.5833	-2.3	-2.0979	-2.5312	9.752	221.726	-24.321	282.082	213.591	-28.874	-25.154	275.941	166.785	8.019	-35.189	99.997	212.452	168.399	19.285	198.019	0.00031821	0.00026221	9.4271e-05	1341.8	3.0059e-06	4.7475e-07	1348.3	362.8	1.7059e-06	8.2499e-06	415.76	137.99	119.5	41.035	1.713e-06	50.954	0.00051944	0.00052157	0.00014572	1358.7	5.673e-06	5.7492e-06	1362	368.36	5.7232e-06	5.7347e-06	421.82	139.43	122.05	42.092	5.74e-06	52.31	-38.408	26.978	18.941	-53.568	64.895	33.499	-53.815	-49.076	55.125	123.679	-49.366	-44.511	-44.918	-40.187	253.278	-40.938	-8191	255	
870.324	1	1	0	0	0.13202	0.064315	0.18727	0.13145	0.15619	0.11361	0.23815	0.36056	0.25273	0.059189	0.18485	0.09197	0.031182	0.058855	0.17315	0.20295	-1.5604	-2.2896	-2.4	-2.275	-2.5167	-2.15	-2.3917	-2.4521	-1.9521	-2.3	-2.2958	-1.9937	-2.5729	-2.0021	-2.0438	-2.4688	140.660	136.371	-22.947	-64.615	283.322	-34.368	199.443	-55.374	-60.679	5.847	-17.471	281.885	80.911	-59.466	83.165	-43.467	0.00047355	0.00013447	0.00013804	1344.6	2.9141e-06	8.3675e-06	1347.4	362.96	5.9735e-06	8.3709e-06	415.05	138.56	119.08	41.153	4.4826e-06	50.776	0.00052655	0.00052695	0.00014549	1358.2	5.7688e-06	5.7424e-06	1362.7	369.16	5.8305e-06	5.9137e-06	422.22	140.11	122.41	42.332	5.8954e-06	52.36	-32.230	222.243	-29.030	-53.837	46.980	63.341	-53.956	-49.126	-13.669	86.000	-49.690	-43.653	-44.914	-39.977	48.408	-41.125	-8191	255	
870.445	1	1	0	0	0.11291	0.1037	0.37075	0.16479	0.27508	0.17186	0.19346	0.29824	0.12573	0.2961	0.16804	0.17016	0.19759	0.21165	0.11037	0.10684	-1.6938	-2.2479	-2.2938	-1.9229	-2.4104	-2.1208	-2.125	-2.6083	-2.1625	-2.4562	-2.3167	-1.9146	-2.3792	-2.2917	-2.0708	-2.4875	260.322	274.748	278.790	-36.307	25.911	289.682	282.820	280.871	62.479	53.343	246.952	-10.827	22.015	-25.298	268.326	191.736	0.00041722	0.00043548	7.9765e-05	1346.5	3.5357e-07	3.2944e-06	1348.9	362.89	3.5039e-06	1.9992e-06	413.94	139.23	119.58	41.06	8.6178e-06	51.218	0.00054039	0.00053711	0.00015028	1366.9	5.8998e-06	5.926e-06	1366.9	369.66	5.9318e-06	5.8749e-06	422.55	141.42	122.54	42.291	5.9954e-06	52.46	-16.658	18.754	-12.735	-53.534	43.041	-1.544	-53.817	-48.875	132.878	225.314	-49.760	-44.097	-44.785	-40.182	31.202	-41.123	-8191	255	
870.541	1	1	0	0	0.29226	0.15348	0.10116	0.29308	0.22754	0.15866	0.11745	0.40174	0.25572	0.17548	0.040018	0.16396	0.16981	0.27366	0.10065	0.091176	-1.6271	-2.1104	-2.2333	-2.1854	-2.275	-2.0896	-2.2229	-2.5708	-2.1937	-2.2167	-2.4396	-1.9667	-2.3229	-2.2417	-2.0708	-2.3708	-28.579	68.908	185.670	262.233	-53.180	230.198	172.146	260.386	158.756	31.208	292.016	170.408	286.577	262.294	270.189	179.869	0.00052301	0.00075605	8.8706e-05	1354	5.2494e-06	5.2774e-06	1350.5	363.93	5.4149e-06	4.5195e-06	417.09	139.72	119.16	41.138	7.8329e-06	51.056	0.00054542	0.00054933	0.00015179	1369.7	5.9093e-06	6.0066e-06	1367.5	369.56	5.9158e-06	5.9159e-06	423.55	140.8	122.41	42.281	5.9415e-06	52.44	-21.852	14.770	-9.839	-53.583	-24.218	34.638	-54.001	-49.043	96.365	38.647	-49.556	-44.216	-45.256	-39.798	-38.679	-41.126	-8191	255	
870.637	1	1	0	0	0.091232	0.13507	0.27275	0.20225	0.081079	0.063782	0.14652	0.31422	0.29747	0.23762	0.10346	0.21394	0.1343	0.078131	0.13124	0.18173	-1.65	-2.0708	-2.3229	-2.0583	-2.1583	-2.3625	-2.1375	-2.4542	-2.1125	-2.1396	-2.5792	-1.9792	-2.4333	-2.375	-1.9562	-2.4188	-38.607	76.459	168.017	232.927	-33.045	0.170	175.796	237.191	-7.468	63.451	-22.868	173.469	156.192	69.943	185.007	223.111	0.00068257	0.0010473	0.00011634	1355.5	1.7286e-06	5.4107e-06	1352.9	364.63	6.564e-06	3.6216e-06	415	139.75	119.73	41.229	4.566e-06	51.051	0.00054008	0.00054307	0.00015054	1369.9	5.8431e-06	5.8658e-06	1367.9	370.47	5.8775e-06	5.9155e-06	422.78	140.38	122.7	42.299	5.907e-06	52.385	-19.275	24.286	12.877	-53.566	88.451	48.601	-53.828	-48.879	-27.885	59.495	-49.432	-44.822	-44.808	-40.310	102.635	-41.000	-8191	255	
870.733	1	1	0	0	0.14971	0.25661	0.14519	0.21845	0.016416	0.09563	0.041079	0.039065	0.13496	0.12041	0.20772	0.067402	0.1141	0.2183	0.13215	0.0062231	-1.6583	-2.0771	-2.5396	-2.0958	-2.1021	-2.2917	-2.1333	-2.2479	-2.5938	-2.1104	-2.6208	-2.0833	-2.1562	-2.325	-2.0125	-2.5	30.612	290.708	237.700	-1.817	-18.972	-41.083	280.929	175.554	47.980	199.052	-48.087	81.451	248.726	84.823	261.267	92.773	0.00046693	0.00058528	1.4205e-05	1357.3	3.6103e-06	2.3423e-06	1345.8	363.41	3.8801e-06	3.5398e-06	417.33	137.82	119.58	41.168	4.9831e-06	51.177	0.00053977	0.00054358	0.00014997	1368.2	5.8814e-06	5.8417e-06	1366.1	369.82	5.8503e-06	5.8778e-06	423.46	139.89	122.39	42.303	5.768e-06	52.434	-17.913	-24.271	45.152	-53.818	150.236	0.122	-53.770	-48.963	140.729	150.349	-49.637	-43.572	-44.805	-40.219	83.696	-41.122	-8191	255	
870.829	1	1	0	0	0.32436	0.20794	0.21044	0.11952	0.044745	0.10206	0.13928	0.017599	0.17944	0.058563	0.049548	0.15472	0.14667	0.24087	0.073422	0.23167	-1.7958	-2.1292	-2.4771	-2.3646	-2.1437	-2.5875	-2.0646	-2.4208	-2.2687	-2.1479	-2.6375	-2.2438	-2.3208	-2.5979	-2.1833	-2.5208	141.789	281.275	222.505	-27.865	127.342	78.876	-28.138	163.672	145.912	35.839	247.359	11.472	206.831	279.332	-16.233	244.821	0.00042143	0.00047237	0.00014414	1350.3	5.2964e-07	3.3817e-06	1350.7	363.57	1.6798e-06	1.0232e-05	413.67	137.26	119.91	41.106	3.867e-06	50.933	0.00052076	0.00052077	0.00014511	1363.4	5.6612e-06	5.6935e-06	1364.5	368.96	5.6643e-06	5.6694e-06	421.45	138.33	122.23	42.182	5.6398e-06	52.245	-1.815	-9.987	8.718	-53.502	144.850	80.413	-53.679	-49.215	48.860	136.762	-49.738	-43.717	-44.698	-40.091	60.567	-40.975	-8191	255	
870.925	1	1	0	0	0.070991	0.047332	0.11782	0.29699	0.12898	0.18056	0.16741	0.15096	0.13817	0.10365	0.083417	0.10636	0.25378	0.31395	0.059229	0.16223	-1.8292	-2.1146	-2.3812	-2.1063	-2.275	-2.6625	-2.175	-2.3667	-2.3396	-2.1167	-2.5812	-2.2	-2.2042	-2.5958	-2.1458	-2.2708	-21.284	-27.166	222.762	292.779	54.183	216.551	186.104	191.430	-14.082	254.015	242.795	199.561	225.335	-26.158	59.574	289.341	0.00049321	0.00057664	1.3652e-05	1349.5	4.2365e-06	2.9841e-06	1351.8	363	4.8237e-06	3.077e-06	415.95	138.21	119.56	41.108	1.3035e-06	51.089	0.00051403	0.00051126	0.00014296	1361.4	5.6029e-06	5.5463e-06	1363.1	368.89	5.6133e-06	5.6161e-06	421.46	137.69	122.15	42.191	5.5994e-06	52.329	-32.207	-15.633	172.914	-53.760	272.142	92.777	-53.877	-49.079	249.122	-0.702	-49.431	-44.352	-44.773	-40.024	16.116	-41.105	-8191	255	
871.044	1	1	0	0	0.24934	0.1035	0.038811	0.23633	0.13899	0.16954	0.24072	0.39181	0.24791	0.10216	0.15531	0.068273	0.0485	0.17096	0.16652	0.39471	-1.8667	-1.9604	-2.3729	-2.4583	-2.2792	-2.65	-2.2938	-2.4167	-2.5	-1.9625	-2.5146	-2.4021	-2.0854	-2.6625	-2.1208	-2.2729	174.610	276.686	230.166	91.624	235.007	124.551	240.501	250.471	171.519	-15.989	195.886	81.799	274.386	253.231	77.525	242.054	0.00043366	0.0004183	0.00020973	1351.1	5.7271e-06	1.5123e-06	1349.6	363.53	1.3224e-05	8.0627e-06	414.66	137.01	119.53	41.344	1.7419e-06	50.884	0.00051307	0.00051756	0.00014403	1363.1	5.6518e-06	5.6839e-06	1363.4	369.3	5.6448e-06	5.6878e-06	422.04	138.31	122.2	42.29	5.6469e-06	52.296	-4.464	52.467	-33.927	-53.620	102.567	149.307	-53.753	-48.945	-24.060	68.073	-49.673	-45.296	-44.819	-39.999	-3.164	-41.160	-8191	255	
871.140	1	1	0	0	0.1412	0.10199	0.11838	0.21338	0.1807	0.30943	0.27245	0.18585	0.13378	0.066396	0.028673	0.35852	0.19274	0.095616	0.095179	0.27496	-2.0271	-1.9208	-2.3667	-2.4	-2.1	-2.2917	-2.4313	-2.2313	-2.4625	-2.075	-2.4375	-2.2854	-2.0333	-2.5229	-2.1271	-2.1813	-35.802	91.764	132.080	164.630	237.664	109.479	248.397	245.226	136.632	145.083	153.803	42.086	-13.763	-60.595	-42.342	252.360	0.00047727	0.00062516	0.00014656	1350.9	3.4827e-06	1.9166e-06	1350.8	363.13	6.022e-06	3.9006e-06	417.73	138.03	119.94	41.247	5.3048e-06	51.102	0.00051885	0.00052303	0.00014463	1363.6	5.6536e-06	5.7171e-06	1363.4	369.45	5.6706e-06	5.7091e-06	423.35	138.58	122.39	42.276	5.7325e-06	52.496	-13.044	-25.236	-0.571	-53.853	73.954	-7.389	-53.517	-49.124	-4.282	140.017	-49.564	-43.634	-44.704	-39.901	62.424	-40.967	-8191	255	
871.237	1	1	0	0	0.068357	0.16816	0.25352	0.23784	0.22345	0.12804	0.22364	0.30356	0.22265	0.17389	0.29111	0.20003	0.26768	0.3239	0.17904	0.16752	-1.8646	-2.0521	-2.2021	-2.3854	-1.8833	-2.375	-2.6375	-2.1604	-2.5687	-2.2188	-2.4771	-2.4458	-1.9229	-2.5833	-2.1833	-2.2042	174.001	-15.425	191.476	249.488	257.915	280.660	272.923	221.092	84.187	99.307	236.452	-32.900	-42.988	246.685	200.295	246.611	0.000508	0.00067422	0.00016781	1353.2	5.4919e-06	7.0861e-06	1344.5	364.48	4.9968e-06	4.2209e-06	415.48	140.56	120.15	41.177	1.003e-05	51.14	0.00051944	0.000524	0.00014754	1363.1	5.7439e-06	5.7464e-06	1365.7	369.91	5.8073e-06	5.856e-06	422.94	139.94	122.73	42.334	5.817e-06	52.421	-4.623	2.618	-11.341	-53.851	166.096	110.802	-53.760	-49.086	127.354	163.470	-49.871	-44.891	-44.603	-40.067	66.865	-40.988	-8191	255	
871.333	1	1	0	0	0.076998	0.21263	0.15759	0.039334	0.26473	0.15467	0.076384	0.18914	0.1283	0.081813	0.13244	0.27579	0.041214	0.40857	0.22356	0.19909	-2.125	-2.1937	-2.2313	-2.4375	-1.8375	-2.4417	-2.5062	-2.2042	-2.3104	-2.1167	-2.4062	-2.35	-2.1625	-2.525	-2.4854	-2.2313	78.664	-62.478	290.959	281.834	202.100	199.597	251.211	251.698	111.485	278.966	214.970	68.030	206.358	250.441	44.754	239.031	0.00043335	0.00071271	0.00020613	1353.4	4.3627e-06	1.8528e-06	1344.2	365.02	2.3424e-06	4.1742e-06	417.78	135.86	120.53	41.158	3.728e-06	51.311	0.00053603	0.00053301	0.00014978	1367	5.8074e-06	5.8541e-06	1367.3	370.49	5.8338e-06	5.8677e-06	423.85	140.33	122.78	42.345	5.859e-06	52.571	-13.043	-13.216	-1.813	-53.976	59.668	14.269	-53.950	-49.024	239.059	36.785	-49.792	-44.118	-44.599	-40.151	50.322	-40.895	-8191	255	
871.429	1	1	0	0	0.045504	0.15956	0.072145	0.039747	0.19463	0.21739	0.19178	0.28487	0.071054	0.16454	0.26298	0.093832	0.26113	0.13382	0.16223	0.049278	-1.9354	-2.1375	-2.0979	-2.5354	-2.0479	-2.3458	-2.5417	-2.2896	-2.4042	-2.0438	-2.2667	-2.5083	-2.1792	-2.4479	-2.4208	-2.1521	34.309	205.330	39.623	247.123	200.522	-33.672	142.039	264.579	-20.749	45.567	141.470	126.795	-34.701	-27.620	59.874	182.022	0.00036907	0.00018743	0.00020174	1352.9	1.6035e-06	5.1341e-06	1349.7	363.5	1.2409e-06	8.3025e-06	416.84	140.24	120.11	41.273	8.0188e-06	50.966	0.00052869	0.00053688	0.00014962	1368.3	5.8306e-06	5.8098e-06	1367.2	369.98	5.798e-06	5.8433e-06	423.47	140.56	122.84	42.399	5.7593e-06	52.498	-25.287	69.624	-4.079	-53.654	-12.494	14.316	-53.700	-49.036	248.181	31.207	-49.711	-43.576	-44.719	-39.951	32.222	-41.084	-8191	255	
#DATA ENDS
