BOXY.EXE: ISS Imagent and Oximeter Data Acquisition Program Version 0.80
Ascii Record File

#ACQ INFORMATION
2  Detector Channels 
16  External MUX Channels 
1  Auxiliary Channels 
5000  Waveform (CCF) Frequency (Hz)
1  Waveforms Skipped 
30  Waveforms Averaged 
1  Cycles Averaged 
16  Acquisitions per Waveform 
10.0806  Updata Rate (Hz) 

#FILE INFORMATION
TRUE -- External MUX Channel results are PARSED.
FALSE -- AC DC and Phase are NOT grouped.
TRUE -- Companion Program Settings File CREATED.
FALSE -- AC data not excluded
FALSE -- DC data not excluded
FALSE -- Phase data not excluded
FALSE -- Auxillary Chn. data not excluded
Tab delimiters

#CALIBRATION STATE
TRUE -- Waveform Calibration Values APPLIED.


#AUX CALIBRATION VALUES
Val Type	aux-1	

Term	1.0000e+00	
Factor	0.0000e+00	


#WF CALIBRATION VALUES
A = Detector Channel
Val Type	A-AC1	A-AC2	A-AC3	A-AC4	A-AC5	A-AC6	A-AC7	A-AC8	A-AC9	A-AC10	A-AC11	A-AC12	A-AC13	A-AC14	A-AC15	A-AC16	A-DC1	A-DC2	A-DC3	A-DC4	A-DC5	A-DC6	A-DC7	A-DC8	A-DC9	A-DC10	A-DC11	A-DC12	A-DC13	A-DC14	A-DC15	A-DC16	A-Ph1	A-Ph2	A-Ph3	A-Ph4	A-Ph5	A-Ph6	A-Ph7	A-Ph8	A-Ph9	A-Ph10	A-Ph11	A-Ph12	A-Ph13	A-Ph14	A-Ph15	A-Ph16	

Term	0.00000e+00	0.00000e+00	0.00000e+00	0.00000e+00	0.00000e+00	0.00000e+00	0.00000e+00	0.00000e+00	0.00000e+00	0.00000e+00	0.00000e+00	0.00000e+00	0.00000e+00	0.00000e+00	0.00000e+00	0.00000e+00	0.00000e+00	0.00000e+00	0.00000e+00	0.00000e+00	0.00000e+00	0.00000e+00	0.00000e+00	0.00000e+00	0.00000e+00	0.00000e+00	0.00000e+00	0.00000e+00	0.00000e+00	0.00000e+00	0.00000e+00	0.00000e+00	0.00000e+00	0.00000e+00	0.00000e+00	0.00000e+00	0.00000e+00	0.00000e+00	0.00000e+00	0.00000e+00	0.00000e+00	0.00000e+00	0.00000e+00	0.00000e+00	0.00000e+00	0.00000e+00	0.00000e+00	0.00000e+00	
Factor	1.00000e+00	1.00000e+00	1.00000e+00	1.00000e+00	1.00000e+00	1.00000e+00	1.00000e+00	1.00000e+00	1.00000e+00	1.00000e+00	1.00000e+00	1.00000e+00	1.00000e+00	1.00000e+00	1.00000e+00	1.00000e+00	1.00000e+00	1.00000e+00	1.00000e+00	1.00000e+00	1.00000e+00	1.00000e+00	1.00000e+00	1.00000e+00	1.00000e+00	1.00000e+00	1.00000e+00	1.00000e+00	1.00000e+00	1.00000e+00	1.00000e+00	1.00000e+00	X	X	X	X	X	X	X	X	X	X	X	X	X	X	X	X	

B = Detector Channel
Val Type	B-AC1	B-AC2	B-AC3	B-AC4	B-AC5	B-AC6	B-AC7	B-AC8	B-AC9	B-AC10	B-AC11	B-AC12	B-AC13	B-AC14	B-AC15	B-AC16	B-DC1	B-DC2	B-DC3	B-DC4	B-DC5	B-DC6	B-DC7	B-DC8	B-DC9	B-DC10	B-DC11	B-DC12	B-DC13	B-DC14	B-DC15	B-DC16	B-Ph1	B-Ph2	B-Ph3	B-Ph4	B-Ph5	B-Ph6	B-Ph7	B-Ph8	B-Ph9	B-Ph10	B-Ph11	B-Ph12	B-Ph13	B-Ph14	B-Ph15	B-Ph16	

Term	0.00000e+00	0.00000e+00	0.00000e+00	0.00000e+00	0.00000e+00	0.00000e+00	0.00000e+00	0.00000e+00	0.00000e+00	0.00000e+00	0.00000e+00	0.00000e+00	0.00000e+00	0.00000e+00	0.00000e+00	0.00000e+00	0.00000e+00	0.00000e+00	0.00000e+00	0.00000e+00	0.00000e+00	0.00000e+00	0.00000e+00	0.00000e+00	0.00000e+00	0.00000e+00	0.00000e+00	0.00000e+00	0.00000e+00	0.00000e+00	0.00000e+00	0.00000e+00	5.02154e+01	-1.32405e+02	-1.47391e+02	-1.83881e+02	-8.20819e+01	-8.66762e+01	-1.57075e+02	-1.62015e+02	-7.94944e+01	-6.27886e+01	-1.70957e+02	-1.80827e+02	-1.85561e+02	-1.77392e+02	-9.92128e+01	-1.49845e+02	
Factor	5.63882e-05	1.67542e-04	4.49109e-05	4.66696e-01	1.40981e-06	1.64914e-06	1.77017e-01	5.24616e-02	2.06034e-06	1.99947e-06	9.54699e-02	4.98864e-01	4.32062e-02	9.42584e-03	1.90913e-06	1.39813e-02	1.79557e-06	1.86772e-06	5.19171e-07	2.26299e-01	2.03251e-08	2.04394e-08	8.27099e-02	2.63328e-02	2.02657e-08	2.04744e-08	4.59338e-02	1.56454e-01	2.12334e-02	4.72644e-03	2.03343e-08	6.74301e-03	X	X	X	X	X	X	X	X	X	X	X	X	X	X	X	X	



#DISTANCE SETTINGS
A = Detector Channel
A-1	A-2	A-3	A-4	A-5	A-6	A-7	A-8	A-9	A-10	A-11	A-12	A-13	A-14	A-15	A-16	

2.5000e+00	3.0000e+00	2.5000e+00	3.0000e+00	2.0000e+00	3.0000e+00	1.5000e+00	3.0000e+00	3.0000e+00	3.0000e+00	3.0000e+00	3.0000e+00	3.0000e+00	3.0000e+00	1.5000e+00	3.0000e+00	

B = Detector Channel
B-1	B-2	B-3	B-4	B-5	B-6	B-7	B-8	B-9	B-10	B-11	B-12	B-13	B-14	B-15	B-16	

1.0000e+01	1.0000e+01	1.0000e+01	1.4400e+00	1.0000e+01	1.0000e+01	1.5100e+00	1.9400e+00	1.0000e+01	1.0000e+01	1.9900e+00	2.4900e+00	2.4100e+00	2.9000e+00	1.0000e+01	2.9800e+00	




#DATA BEGINS
time	group	step	mark	flag	A-AC1	A-AC2	A-AC3	A-AC4	A-AC5	A-AC6	A-AC7	A-AC8	A-AC9	A-AC10	A-AC11	A-AC12	A-AC13	A-AC14	A-AC15	A-AC16	A-DC1	A-DC2	A-DC3	A-DC4	A-DC5	A-DC6	A-DC7	A-DC8	A-DC9	A-DC10	A-DC11	A-DC12	A-DC13	A-DC14	A-DC15	A-DC16	A-Ph1	A-Ph2	A-Ph3	A-Ph4	A-Ph5	A-Ph6	A-Ph7	A-Ph8	A-Ph9	A-Ph10	A-Ph11	A-Ph12	A-Ph13	A-Ph14	A-Ph15	A-Ph16	B-AC1	B-AC2	B-AC3	B-AC4	B-AC5	B-AC6	B-AC7	B-AC8	B-AC9	B-AC10	B-AC11	B-AC12	B-AC13	B-AC14	B-AC15	B-AC16	B-DC1	B-DC2	B-DC3	B-DC4	B-DC5	B-DC6	B-DC7	B-DC8	B-DC9	B-DC10	B-DC11	B-DC12	B-DC13	B-DC14	B-DC15	B-DC16	B-Ph1	B-Ph2	B-Ph3	B-Ph4	B-Ph5	B-Ph6	B-Ph7	B-Ph8	B-Ph9	B-Ph10	B-Ph11	B-Ph12	B-Ph13	B-Ph14	B-Ph15	B-Ph16	aux-1	digaux	

969.672	1	1	0	256	0.41909	0.14194	0.28955	0.073724	0.022029	0.13424	0.17831	0.22902	0.090904	0.17983	0.1024	0.046826	0.085014	0.26692	0.27849	0.14464	-1.6688	-2.3708	-2.3854	-2.0458	-2.4437	-2.1917	-2.175	-2.6625	-2.1729	-2.2125	-2.6396	-2.1312	-2.4271	-2.4562	-2.1167	-2.6688	109.987	-52.465	-4.981	118.336	230.035	242.892	267.725	-43.133	-1.371	74.396	172.784	118.493	9.253	248.861	-29.511	125.541	0.00030732	0.00035825	0.00010713	1344.1	1.3317e-06	3.8178e-06	1335.1	359.82	4.5319e-06	7.4976e-06	412.98	134.44	117.23	39.9	1.171e-05	49.709	0.0010423	0.0010581	0.00029114	1419.9	1.1426e-05	1.1312e-05	1376.3	373.65	1.1071e-05	1.1201e-05	433.43	177.66	125.31	42.236	1.0949e-05	52.843	-22.537	-60.121	219.624	-53.234	222.480	71.727	-53.055	-48.445	252.407	92.048	-48.895	-42.531	-43.948	-39.207	82.453	-40.309	-8191	255	
969.768	1	1	0	0	0.24187	0.23164	0.036902	0.14739	0.1232	0.36582	0.124	0.11355	0.10986	0.12896	0.14478	0.26127	0.27744	0.061426	0.090926	0.19658	-1.675	-2.2542	-2.4521	-2.1375	-2.1625	-2.325	-2.2	-2.6271	-2.35	-2.0396	-2.5458	-1.9646	-2.325	-2.3896	-2.1437	-2.6229	80.194	235.916	217.596	-16.497	206.374	-14.063	238.114	71.773	-5.069	228.648	237.345	235.482	141.454	-29.471	29.140	10.726	0.00053189	9.9521e-05	6.1032e-05	1339	8.7004e-06	1.3623e-05	1330.5	359.23	6.1825e-06	6.402e-06	411.31	133.46	116.69	40.115	2.5756e-06	49.652	0.00097076	0.00099407	0.00027453	1410.3	1.0871e-05	1.0895e-05	1373.4	372.52	1.0674e-05	1.08e-05	431.62	174.7	124.65	42.163	1.064e-05	52.746	-9.798	86.311	29.256	-53.248	80.274	88.509	-52.955	-48.442	78.425	111.315	-48.747	-43.833	-44.054	-39.305	21.065	-40.204	-8191	255	
969.864	1	1	0	0	0.17579	0.023758	0.097857	0.34021	0.037198	0.13094	0.0093092	0.18078	0.2253	0.20044	0.15409	0.028461	0.28623	0.31127	0.14631	0.27208	-1.5875	-2.1271	-2.4437	-1.925	-2.2396	-2.4688	-2.2479	-2.4479	-2.3479	-2.2583	-2.5438	-2.1396	-2.2979	-2.5667	-2.1375	-2.4625	249.444	204.533	-10.989	231.254	-41.171	84.667	103.202	155.700	264.327	188.791	293.914	99.005	-51.529	260.687	168.686	156.271	0.000635	0.00032154	0.00015654	1332.3	2.046e-06	7.0041e-06	1328.8	359.46	1.593e-06	9.9278e-06	412.05	134.62	116.36	39.839	4.8385e-06	49.298	0.00095602	0.00097778	0.00027028	1403.3	1.0651e-05	1.0672e-05	1368.7	372.16	1.0602e-05	1.0733e-05	430.84	173.38	124.42	42.056	1.0556e-05	52.556	-7.658	-42.537	-26.600	-53.340	69.129	-25.654	-53.079	-48.100	188.810	100.789	-48.869	-42.568	-43.928	-39.254	177.540	-40.048	-8191	255	
969.960	1	1	0	0	0.12427	0.086603	0.023693	0.090323	0.011358	0.058667	0.35607	0.26493	0.13067	0.16336	0.092213	0.26829	0.10656	0.096068	0.10655	0.15437	-1.8042	-2.0896	-2.5042	-2.1562	-2.2396	-2.4583	-2.2583	-2.4688	-2.3063	-2.0563	-2.6042	-2.1229	-2.3083	-2.5542	-2.1271	-2.2708	-40.181	-54.816	-31.277	277.843	40.083	77.274	-56.710	-55.313	-22.174	-1.522	141.480	238.308	53.683	71.110	217.316	202.201	0.00056857	0.0010444	9.646e-05	1332.4	8.1822e-07	1.3375e-05	1332.8	359.31	2.8861e-06	4.7617e-06	411.32	134.51	116.13	39.897	8.197e-06	49.691	0.00094506	0.00095668	0.00026583	1400.2	1.0375e-05	1.0383e-05	1367.8	371.17	1.0361e-05	1.0329e-05	429.48	172.27	123.99	41.981	1.0426e-05	52.618	-12.608	57.099	-44.870	-52.916	67.428	77.386	-53.123	-48.389	17.443	86.239	-48.945	-44.521	-43.999	-39.236	24.394	-40.033	-8191	255	
970.056	1	1	0	0	0.13553	0.059788	0.12794	0.032033	0.18676	0.15871	0.13842	0.27758	0.033301	0.090121	0.13951	0.12854	0.23928	0.34075	0.17649	0.14984	-1.8208	-2	-2.5042	-2.225	-2.0458	-2.4417	-2.3521	-2.5771	-2.3104	-2.0042	-2.4458	-2.2083	-2.0896	-2.625	-1.9854	-2.3208	161.271	-47.466	-64.006	277.608	277.474	141.540	253.149	217.731	202.006	200.826	290.670	85.074	256.209	-63.772	-33.986	284.326	0.00052673	0.00029142	0.00028281	1330.2	5.0392e-06	6.268e-06	1325.5	356.92	7.2388e-06	3.5054e-06	411.6	135.52	116.2	39.719	6.4266e-06	49.459	0.00092885	0.00095175	0.00026587	1398.6	1.0436e-05	1.0484e-05	1364	370.68	1.0467e-05	1.0572e-05	429.54	172.38	123.99	41.986	1.0436e-05	52.588	-11.239	7.642	-23.932	-52.859	184.474	5.273	-53.059	-48.162	-12.119	121.382	-48.908	-43.526	-44.023	-39.115	-58.933	-40.185	-8191	255	
970.175	1	1	0	0	0.077702	0.060839	0.087736	0.16274	0.028582	0.23928	0.16161	0.14039	0.18343	0.21961	0.33467	0.18117	0.23514	0.2684	0.16974	0.27239	-1.8979	-1.8146	-2.2271	-2.1125	-2.1792	-2.5687	-2.2687	-2.4042	-2.3854	-1.9771	-2.4875	-2.35	-1.9833	-2.4792	-2.1	-2.2729	153.358	189.574	163.186	165.603	10.850	128.635	179.814	241.379	59.593	153.518	228.938	194.868	-16.813	272.827	142.182	246.138	0.00036962	0.0014837	0.00031161	1328.6	4.4297e-06	6.2489e-06	1329.6	357.53	7.3289e-06	6.6138e-06	411.73	134.63	117.09	39.771	5.7124e-06	49.843	0.00093827	0.00096204	0.00026738	1398.4	1.0411e-05	1.0421e-05	1364.8	370.58	1.0368e-05	1.0492e-05	429.46	172.18	124.22	41.98	1.0404e-05	52.626	-22.694	3.277	17.826	-53.221	-12.022	84.871	-53.131	-48.437	259.793	169.234	-48.902	-42.541	-43.519	-39.367	273.121	-40.074	-8191	255	
970.271	1	1	0	0	0.099882	0.031685	0.15015	0.24453	0.24778	0.12842	0.1083	0.28686	0.15538	0.09261	0.2718	0.066742	0.25567	0.351	0.068936	0.1149	-1.8542	-1.9458	-2.1583	-2.1979	-1.9292	-2.4688	-2.0812	-2.3667	-2.2375	-1.9646	-2.3917	-2.3208	-2.0542	-2.4271	-2.1937	-2.3375	-15.728	254.154	111.855	255.926	284.646	279.406	222.660	-25.801	95.757	88.073	221.853	255.722	-10.051	243.924	126.434	235.347	0.00034381	0.0015551	0.00019998	1328.1	5.0323e-06	6.4544e-06	1327.2	358.41	3.4226e-06	1.5585e-06	410.76	132.68	116.09	39.827	7.5793e-06	49.609	0.00093267	0.00095191	0.00026641	1399.7	1.0341e-05	1.0432e-05	1365.2	371.08	1.0266e-05	1.0322e-05	429.3	170.77	123.67	41.981	1.0256e-05	52.384	-58.446	4.142	227.022	-53.205	-7.974	-30.040	-52.954	-48.283	34.013	246.845	-48.824	-43.430	-43.973	-39.392	122.027	-40.048	-8191	255	
970.367	1	1	0	0	0.25918	0.17842	0.093902	0.11467	0.21678	0.23997	0.25946	0.14027	0.31417	0.34963	0.096155	0.11731	0.15138	0.18767	0.11348	0.11422	-2.2104	-1.7313	-2.3771	-2.3812	-1.8021	-2.4271	-2.35	-2.2708	-2.5938	-2.1354	-2.3688	-2.3542	-2.0625	-2.4333	-2.2417	-2.1521	-42.573	210.206	286.234	204.002	229.055	42.804	221.578	220.528	258.617	232.275	188.057	66.470	180.472	-3.182	232.016	98.490	0.00064816	0.00015774	0.00024722	1330.8	2.4345e-06	1.0819e-05	1325.9	358.39	7.2866e-06	6.2777e-06	411.4	138.29	116.04	39.603	5.4873e-07	49.574	0.00092608	0.00094125	0.00026078	1398	1.0228e-05	1.0239e-05	1364.2	371	1.0219e-05	1.0346e-05	428.45	171.45	123.61	41.879	1.0276e-05	52.397	-14.886	147.344	81.284	-53.032	207.897	63.900	-53.019	-48.222	40.740	138.547	-48.763	-44.220	-44.112	-39.413	161.606	-40.193	-8191	255	
970.464	1	1	0	0	0.31723	0.022376	0.18287	0.11198	0.14599	0.18929	0.099759	0.23093	0.30772	0.18291	0.33499	0.21965	0.08863	0.22086	0.12812	0.14253	-1.9521	-2.0104	-2.3438	-2.5917	-2.2188	-2.3271	-2.4833	-2.1688	-2.5792	-2.3292	-2.175	-2.3875	-2.0271	-2.5167	-2.4208	-2.1292	104.959	9.159	242.183	245.433	232.821	98.596	194.759	253.362	39.143	-43.005	245.217	230.403	213.622	-60.028	176.295	95.298	0.00047351	0.00074004	0.00010544	1332.5	5.0331e-06	2.4788e-06	1325.8	358.29	8.2527e-06	1.4268e-05	411.25	133.85	116.12	39.643	6.2151e-06	49.727	0.00092222	0.00093871	0.00025983	1394.1	1.0089e-05	1.0181e-05	1363.2	370.32	1.0091e-05	1.0265e-05	428.74	169.45	123.53	41.909	1.0127e-05	52.462	-18.674	-23.265	171.372	-52.817	47.490	221.323	-53.160	-48.195	127.224	118.736	-48.891	-44.230	-43.868	-39.101	72.275	-40.150	-8191	255	
970.560	1	1	0	0	0.06198	0.067633	0.19822	0.11124	0.20751	0.17846	0.18203	0.23664	0.13223	0.33788	0.16533	0.11125	0.082178	0.3538	0.23709	0.1677	-1.9688	-2.1104	-2.325	-2.425	-2.15	-2.4104	-2.6792	-2.1458	-2.3896	-2.3479	-2.2729	-2.3792	-2.2208	-2.4792	-2.3625	-2.0771	9.381	-25.271	-32.931	-4.010	4.236	80.499	286.825	173.567	265.127	-24.285	185.715	-7.608	104.481	196.810	129.626	223.433	0.00039356	0.0010544	0.00014291	1326.4	5.2815e-06	6.5132e-06	1321.9	356.69	5.3113e-06	6.0334e-06	410.24	135.72	116.04	39.74	5.0578e-06	49.515	0.00091269	0.00093279	0.00026007	1392.7	1.0135e-05	1.0183e-05	1360.2	369.68	1.0044e-05	1.0121e-05	428.39	169.41	123.29	41.85	9.9476e-06	52.255	-8.778	11.237	215.336	-53.173	119.353	38.283	-53.092	-48.320	99.406	99.497	-48.764	-42.957	-43.966	-39.076	-49.872	-40.190	-8191	255	
970.656	1	1	0	0	0.21375	0.30535	0.11406	0.25065	0.10344	0.029548	0.23317	0.24299	0.21477	0.16292	0.12934	0.25088	0.067597	0.12553	0.20463	0.10713	-1.9562	-2.275	-1.9958	-2.6333	-2.1479	-2.3042	-2.55	-2.0896	-2.375	-2.2542	-2.1937	-2.5062	-2.05	-2.2083	-2.2313	-2.0729	-21.964	-32.604	211.260	-59.861	-26.823	5.165	249.328	229.542	220.537	172.077	111.722	147.272	131.551	180.743	264.025	174.878	0.00013644	0.00077858	0.00018382	1319.9	4.7371e-06	8.4081e-06	1321.1	357.99	5.3635e-06	1.0362e-05	410.16	135.74	115.71	39.678	6.7782e-07	49.417	0.00090057	0.00091616	0.0002525	1385	9.8006e-06	9.8281e-06	1357.5	369.05	9.7662e-06	9.7536e-06	427.37	166.65	122.9	41.73	9.7037e-06	52.135	-13.182	-18.931	23.415	-52.934	126.152	90.740	-53.169	-48.408	-6.169	88.478	-48.981	-44.301	-43.763	-39.564	61.809	-40.048	-8191	255	
970.776	1	1	0	0	0.28646	0.026012	0.065999	0.22466	0.23137	0.29018	0.36709	0.20984	0.12042	0.15011	0.11266	0.038221	0.3459	0.093443	0.068381	0.11478	-2.0812	-2.225	-2.175	-2.4771	-2.275	-2.4146	-2.6875	-2.1813	-2.3875	-2.2917	-2.2771	-2.4771	-2.225	-2.375	-2.4042	-2.2792	33.089	292.918	270.001	62.048	-7.462	250.429	206.195	248.200	182.706	247.711	-59.127	-66.208	-32.193	187.818	185.044	21.601	0.00023822	0.00029267	0.00027132	1326.2	7.7916e-06	2.7641e-06	1326.2	357.18	6.1872e-06	9.7236e-06	409.4	134.85	115.68	39.591	4.5333e-06	49.538	0.00087296	0.00088621	0.00024443	1382.2	9.64e-06	9.6728e-06	1355.8	368.55	9.6358e-06	9.7048e-06	425.73	166.6	122.46	41.697	9.6593e-06	52.29	-39.756	27.639	-21.387	-53.233	48.923	65.492	-52.973	-48.425	46.143	235.456	-48.941	-43.628	-44.094	-39.366	109.876	-40.013	-8191	255	
970.873	1	1	0	0	0.1573	0.23493	0.067276	0.1252	0.27365	0.20472	0.35623	0.16226	0.26444	0.26433	0.17901	0.12607	0.18522	0.11093	0.11178	0.14854	-1.8833	-2.2604	-2.175	-2.3958	-2.3	-2.2167	-2.5062	-2.4062	-2.3396	-2.6167	-2.0292	-2.5625	-2.2833	-2.1729	-2.5312	-2.2833	157.564	107.809	116.965	-48.518	101.470	-47.497	224.741	-34.383	210.435	4.766	101.489	75.381	238.630	90.708	253.439	150.058	0.00030824	0.00079547	9.5909e-05	1325.2	1.6419e-06	5.6165e-06	1330.2	358.23	1.0221e-05	1.0414e-05	412.39	132.62	117.04	39.829	7.1068e-06	49.88	0.00087513	0.0008955	0.00025155	1387.9	9.9231e-06	1.0039e-05	1361.2	370.33	1.0276e-05	1.0428e-05	430.42	174.58	124.8	42.254	1.1192e-05	53.229	-14.211	0.957	-47.828	-52.852	-7.282	29.766	-53.158	-48.325	-26.059	57.478	-48.655	-42.724	-44.280	-39.102	42.650	-40.354	-8191	255	
970.967	1	1	0	0	0.42606	0.080629	0.1074	0.19766	0.046043	0.1239	0.19625	0.11602	0.31099	0.063489	0.14442	0.25318	0.063661	0.40231	0.18984	0.069953	-1.9104	-2.2792	-1.8667	-2.3792	-2.2604	-2.0458	-2.7896	-2.1708	-2.1208	-2.5083	-2.1	-2.3229	-2.3042	-2.1813	-2.5708	-2.3083	-20.751	-0.704	136.391	261.207	82.400	-54.664	272.131	-54.810	-56.208	236.860	158.136	140.840	-10.447	268.860	235.952	225.548	0.00063631	0.00025133	0.00032576	1344.2	8.1197e-06	3.7559e-06	1349.1	362.63	6.7505e-06	9.9317e-06	417.52	136.94	118.88	40.767	7.2873e-06	50.654	0.0010411	0.0010836	0.00030658	1430.8	1.2403e-05	1.2616e-05	1390.6	378.49	1.2798e-05	1.2918e-05	440.95	192.21	128.64	43.483	1.2582e-05	54.25	2.716	38.018	52.914	-53.279	70.009	102.412	-53.110	-48.379	104.372	250.958	-49.005	-43.294	-44.055	-39.317	126.009	-40.313	-8191	255	
971.063	1	1	0	0	0.3155	0.17916	0.23251	0.15359	0.14059	0.17951	0.25001	0.031626	0.11562	0.10296	0.12181	0.020966	0.1936	0.31979	0.09274	0.15457	-1.7833	-2.2979	-2.1229	-2.4708	-2.5062	-2.1083	-2.5458	-2.3625	-2.3	-2.5	-2.2313	-2.2854	-2.3042	-1.9438	-2.4167	-2.2896	107.943	24.600	152.214	-4.867	192.526	163.366	278.868	233.529	115.067	183.649	253.395	195.458	154.776	-39.305	181.360	-53.555	0.00072493	0.00035956	0.00022865	1351.7	4.6658e-06	5.9676e-06	1354.5	364.18	5.9533e-06	7.5274e-06	419.57	137.88	119.04	41.063	5.9915e-06	51.16	0.0011119	0.0011124	0.00030362	1437.2	1.1538e-05	1.1441e-05	1394.7	378	1.0736e-05	1.0737e-05	436.81	175.42	126.73	43.259	1.0304e-05	54.018	-2.652	263.702	143.138	-52.852	63.294	90.260	-53.030	-48.479	62.564	122.750	-49.179	-43.786	-43.701	-39.198	28.126	-40.195	-8191	255	
971.159	1	1	0	0	0.089446	0.20786	0.066471	0.22593	0.22488	0.11784	0.081113	0.10436	0.22503	0.1861	0.3761	0.12855	0.22582	0.20575	0.14559	0.03087	-1.5646	-2.5438	-2.0333	-2.2458	-2.4604	-2.1625	-2.4562	-2.3229	-2.0729	-2.6417	-2.2979	-2.3729	-2.3438	-1.9979	-2.2625	-2.4229	-62.543	286.189	176.240	-44.329	191.269	249.675	111.364	270.040	-23.395	137.368	243.985	158.711	266.454	268.006	-54.045	35.092	0.00058434	0.00078772	9.0869e-05	1359.3	4.9494e-06	6.2384e-06	1361.7	366.26	1.3825e-05	8.7914e-06	419.68	138	119.85	41.446	1.0928e-05	51.422	0.00093431	0.00094501	0.00026533	1425.1	1.0568e-05	1.0694e-05	1398.2	378.8	1.0899e-05	1.1003e-05	439.26	180.34	128.34	43.838	1.1378e-05	54.657	-8.432	-10.851	42.175	-52.941	118.621	264.159	-53.159	-48.448	129.376	88.337	-48.860	-43.774	-43.925	-39.667	-21.553	-40.170	-8191	255	
971.255	1	1	0	0	0.21533	0.18894	0.055059	0.14337	0.090738	0.044533	0.19292	0.1032	0.12424	0.080118	0.1724	0.044082	0.13403	0.058372	0.10206	0.25606	-1.5667	-2.5083	-2.0583	-2.2667	-2.3271	-1.9792	-2.5833	-2.5542	-2.0812	-2.4104	-2.4583	-2.2229	-2.3729	-2.3167	-2.3646	-2.425	188.976	245.361	156.326	289.778	95.916	141.598	206.574	239.469	24.408	107.254	-26.622	248.491	156.302	64.315	99.142	0.658	0.00050859	0.0011432	0.0001748	1370.5	4.6683e-06	2.389e-06	1364.8	368.5	6.0472e-06	7.0601e-06	422.74	138.4	120.64	41.635	7.0886e-06	51.693	0.0010343	0.0010676	0.00029733	1447.7	1.1716e-05	1.1773e-05	1409.4	381.61	1.1755e-05	1.1779e-05	442.76	184.92	129.53	44.149	1.1663e-05	54.951	-12.717	83.750	-59.182	-53.056	116.195	54.232	-53.059	-48.357	103.087	34.048	-49.051	-42.104	-44.123	-39.563	104.142	-40.452	-8191	255	
971.352	1	1	0	0	0.21452	0.31028	0.055285	0.17964	0.072513	0.44434	0.072883	0.12161	0.10985	0.22626	0.14088	0.18874	0.1418	0.047986	0.1944	0.14358	-1.5833	-2.3708	-2.2188	-2.1354	-2.4604	-2.0896	-2.4875	-2.5083	-2.0687	-2.5271	-2.175	-2.1479	-2.6208	-2.3	-2.4979	-2.5354	249.685	227.587	211.153	-12.375	142.346	208.920	288.078	207.322	240.257	90.276	-52.719	227.410	163.269	92.031	10.032	250.265	0.00025851	0.00062304	0.0001257	1363.9	3.026e-06	5.6952e-06	1372.4	368.32	5.4001e-06	5.4803e-06	423.82	140.68	120.96	41.706	1.1847e-05	51.925	0.0010507	0.0010745	0.00029708	1450.9	1.1671e-05	1.1647e-05	1413.4	382.62	1.1584e-05	1.1706e-05	443.76	185.88	129.64	44.181	1.1844e-05	55.102	-32.160	6.444	33.357	-53.013	1.488	115.294	-53.197	-48.406	-22.714	211.119	-48.941	-42.561	-43.985	-39.598	74.198	-40.452	-8191	255	
971.448	1	1	0	0	0.18582	0.22946	0.12178	0.11817	0.14904	0.11539	0.26234	0.033875	0.29799	0.28109	0.2584	0.017432	0.1952	0.29472	0.12751	0.14473	-1.525	-2.3375	-2.2708	-2.1104	-2.5812	-2.1167	-2.3792	-2.5708	-2.125	-2.4396	-2.4729	-2.0479	-2.5875	-2.4188	-2.0771	-2.3812	239.719	1.352	177.030	79.281	101.967	50.405	245.404	159.501	81.238	105.745	254.775	145.378	291.720	212.404	-63.486	116.617	0.00058593	0.00071104	8.6906e-05	1373.7	7.1086e-06	5.7535e-06	1372.7	368.37	1.4843e-05	8.2499e-06	421.56	140.17	120.53	41.7	1.4647e-06	51.619	0.0010732	0.0011011	0.00030575	1455.7	1.1923e-05	1.1949e-05	1415.1	383.41	1.189e-05	1.1895e-05	443.26	185.78	129.75	44.121	1.1675e-05	54.906	-19.943	145.054	136.734	-52.900	69.605	-20.585	-53.106	-48.376	114.877	123.490	-48.920	-42.079	-44.278	-39.688	232.072	-40.253	-8191	255	
971.568	1	1	0	0	0.093468	0.075574	0.09751	0.15403	0.17713	0.056306	0.042581	0.11542	0.34765	0.20928	0.14017	0.11139	0.26482	0.16369	0.20698	0.32066	-1.4271	-2.3	-2.15	-2.1625	-2.4875	-2.0292	-2.4083	-2.7438	-2.1417	-2.3688	-2.55	-1.9688	-2.3937	-2.25	-2.2292	-2.7167	3.913	153.195	287.264	130.445	-9.843	155.088	192.958	42.153	172.223	182.819	14.123	9.862	-47.013	225.279	3.324	278.875	0.00046052	0.00048675	0.00021657	1362.7	2.8111e-06	1.3272e-06	1371.8	369.4	1.081e-05	1.1273e-05	422.65	139.3	121.27	41.648	4.5806e-06	51.883	0.0010324	0.0010548	0.00029072	1450.8	1.1281e-05	1.1383e-05	1414.8	382.97	1.1347e-05	1.1355e-05	442.32	183.67	129.64	44.044	1.1354e-05	54.905	-5.171	-21.511	-19.830	-52.889	182.164	87.874	-52.977	-48.450	126.978	76.208	-49.053	-43.741	-43.787	-39.656	82.709	-40.515	-8191	255	
971.665	1	1	0	0	0.067666	0.11053	0.026692	0.23548	0.15231	0.34023	0.16111	0.24311	0.19051	0.13007	0.10607	0.26539	0.097994	0.26093	0.15789	0.10451	-1.6625	-2.3729	-2.4021	-2.1312	-2.4729	-2.1	-2.4417	-2.5125	-2.15	-2.4146	-2.5125	-2.0083	-2.5625	-2.3583	-2.2333	-2.6833	264.521	76.101	136.032	286.163	-23.762	282.362	189.518	269.348	44.230	216.715	34.614	36.600	173.832	167.347	171.527	249.071	0.0003833	0.00062379	0.00016398	1369.2	8.637e-06	3.1984e-06	1372.9	369.36	8.9119e-06	3.4758e-06	423.05	137.77	120.59	41.63	2.125e-06	51.81	0.0010086	0.0010299	0.00028628	1447.8	1.109e-05	1.12e-05	1412.6	382.85	1.1023e-05	1.1192e-05	442.32	179.87	129.15	43.939	1.1025e-05	54.775	8.833	-17.493	287.661	-53.328	58.647	187.176	-53.200	-48.431	42.434	84.968	-49.136	-42.401	-43.985	-39.430	91.739	-40.430	-8191	255	
971.736	1	1	0	0	0.22624	0.14408	0.057412	0.19612	0.056884	0.26439	0.17544	0.10495	0.12985	0.23651	0.043001	0.23882	0.23313	0.11647	0.30931	0.23359	-1.6229	-2.2167	-2.2646	-2.0625	-2.5187	-2.2604	-2.2979	-2.6083	-2.1583	-2.225	-2.4938	-2.0354	-2.4396	-2.325	-2.1042	-2.6875	-31.783	281.912	61.635	189.800	-55.332	87.670	234.466	173.072	235.919	87.251	116.082	-36.165	-54.664	-61.716	53.055	290.653	0.00064872	0.00064857	0.00013942	1375.4	6.9268e-06	4.5351e-06	1373.1	368.63	5.4773e-06	6.9058e-06	422.75	140.42	120.84	41.604	4.1803e-06	51.625	0.00098335	0.001004	0.00028089	1446.6	1.086e-05	1.0922e-05	1410.9	381.64	1.0874e-05	1.0933e-05	441.15	179.16	128.91	43.896	1.0813e-05	54.663	-23.829	-52.825	72.032	-53.301	174.752	67.987	-53.304	-48.505	79.221	115.204	-49.019	-41.688	-44.130	-39.528	113.635	-40.398	-8191	255	
971.857	1	1	0	0	0.095898	0.078183	0.20499	0.1123	0.21534	0.027051	0.53744	0.22153	0.07389	0.15008	0.030928	0.19941	0.12911	0.24156	0.20968	0.12165	-1.8146	-2.3271	-2.5542	-2.1042	-2.4854	-2.4104	-2.2146	-2.4625	-2.2583	-2.175	-2.45	-1.9438	-2.3812	-2.4583	-2.1021	-2.6063	83.471	213.991	74.166	15.392	233.520	121.915	249.036	273.208	4.566	-58.043	171.436	151.917	-63.447	36.794	-36.651	100.118	0.00031533	0.0012765	0.00022158	1375.7	1.7453e-06	8.6126e-06	1374.3	368.01	8.758e-06	3.6668e-06	422.72	139.23	121.14	41.817	2.8809e-06	51.77	0.00096282	0.00098487	0.00027277	1441.8	1.0601e-05	1.0682e-05	1409.3	380.83	1.0525e-05	1.0587e-05	440.52	176.67	128.36	43.892	1.0439e-05	54.642	8.612	-19.212	24.680	-52.789	-36.717	49.207	-53.230	-48.372	65.748	197.118	-48.980	-43.388	-44.001	-39.633	183.020	-40.262	-8191	255	
971.951	1	1	0	0	0.19578	0.29062	0.081661	0.22952	0.03533	0.037916	0.32731	0.26126	0.12692	0.10813	0.32493	0.2013	0.093689	0.18181	0.11148	0.15891	-1.8167	-1.9438	-2.4813	-2.0333	-2.4042	-2.4583	-2.2438	-2.6521	-2.2812	-2.2104	-2.5146	-2.1354	-2.4979	-2.4188	-2.0583	-2.5938	57.574	211.552	186.595	230.272	270.513	45.728	207.476	-55.061	63.258	178.489	201.637	124.573	258.160	4.888	-38.232	6.988	0.00057226	0.00056593	0.00020211	1374.3	2.3132e-06	7.5184e-06	1376	369.57	9.5851e-06	1.3113e-05	422.26	137.35	121.08	41.695	4.278e-06	51.613	0.00094631	0.00095636	0.00026558	1439.7	1.0418e-05	1.0437e-05	1411.9	382.07	1.0247e-05	1.0299e-05	440.4	174.31	128.39	43.967	1.0208e-05	54.602	4.333	46.961	26.350	-53.269	181.178	13.221	-53.074	-48.329	109.131	13.965	-48.886	-42.726	-43.990	-39.626	252.730	-40.470	-8191	255	
972.047	1	1	0	0	0.15877	0.07903	0.095873	0.34549	0.093511	0.16987	0.23868	0.1413	0.025753	0.1924	0.16266	0.21185	0.27908	0.097292	0.078665	0.13532	-1.7958	-2.0646	-2.5125	-2.25	-2.1375	-2.5333	-2.1333	-2.5062	-2.3583	-2.0187	-2.625	-2.2958	-2.2687	-2.7292	-2.1604	-2.5271	167.597	271.393	-23.073	194.833	192.225	59.627	277.528	185.235	145.937	127.344	-59.584	-6.637	175.747	-43.085	139.438	185.717	0.00053979	0.00047533	0.00010996	1372.9	9.0383e-06	7.0608e-06	1374.2	368.65	6.3802e-06	1.5768e-06	420.98	139.3	120.92	41.699	7.5131e-06	51.834	0.00092033	0.00093785	0.00026405	1438.5	1.0296e-05	1.0365e-05	1409.1	381.2	1.0324e-05	1.0393e-05	439.82	175.17	128.58	43.885	1.029e-05	54.686	-15.471	23.336	-8.293	-53.073	67.516	10.443	-53.251	-48.297	-35.979	171.779	-48.867	-43.494	-44.089	-39.507	226.171	-40.438	-8191	255	
972.145	1	1	0	0	0.019967	0.12645	0.22798	0.14985	0.20985	0.18248	0.19816	0.094856	0.11306	0.2778	0.48053	0.13642	0.094845	0.047247	0.20727	0.18601	-1.8687	-1.8458	-2.3021	-2.2083	-1.9937	-2.4958	-2.1396	-2.5375	-2.4167	-2.1208	-2.6479	-2.1958	-2.2729	-2.6771	-2.0104	-2.6021	163.383	104.855	-58.760	285.289	4.627	-16.050	195.769	203.904	94.052	183.124	218.802	-51.764	192.289	251.742	112.867	75.732	0.0006646	0.00016246	0.00026686	1371.8	4.6855e-06	3.3998e-06	1369.7	367.46	1.2235e-06	6.9669e-06	424.01	139.36	120.68	41.587	1.2634e-05	51.888	0.00093052	0.00094902	0.00026539	1439.9	1.0365e-05	1.0458e-05	1410.6	381.38	1.0327e-05	1.0519e-05	440.79	176.18	128.75	43.942	1.0414e-05	54.699	-36.749	60.873	-5.046	-52.967	85.503	-28.358	-52.983	-48.492	77.295	99.714	-49.040	-43.486	-44.167	-39.310	106.644	-40.067	-8191	255	
972.264	1	1	0	0	0.13269	0.21245	0.060705	0.061067	0.18704	0.31843	0.19778	0.29671	0.1899	0.042868	0.22205	0.10418	0.25427	0.22631	0.14099	0.10748	-2.0563	-1.9771	-2.3604	-2.2333	-2.2083	-2.6083	-2.4146	-2.4188	-2.4354	-2.0229	-2.4958	-2.1188	-2.2333	-2.675	-2.1792	-2.3542	-61.804	97.810	265.155	3.128	215.479	70.110	218.863	-51.583	88.666	277.710	271.409	163.129	205.565	288.039	129.424	274.878	0.0003623	0.00072771	0.0001544	1379.1	2.6194e-06	4.6642e-06	1378.1	368.85	6.7432e-06	8.9197e-06	424.59	139.77	121.03	41.771	6.3492e-06	51.738	0.00093425	0.00095841	0.00026568	1441.8	1.044e-05	1.0447e-05	1412.8	381.79	1.0527e-05	1.0654e-05	441.6	177.1	128.83	44.002	1.0479e-05	54.73	3.845	36.065	51.957	-52.926	37.639	88.322	-53.024	-48.484	71.972	14.029	-49.087	-42.891	-44.352	-39.697	-26.127	-40.362	-8191	255	
972.360	1	1	0	0	0.1515	0.26213	0.21284	0.12878	0.16447	0.086773	0.27018	0.21756	0.090909	0.14814	0.046253	0.090381	0.091893	0.05556	0.044626	0.19584	-2.0542	-2.0104	-2.3667	-2.3354	-1.9729	-2.5021	-2.5667	-2.4729	-2.7062	-2.2396	-2.4875	-2.2979	-2.1417	-2.6646	-2.3646	-2.3542	257.013	287.276	117.155	192.924	176.561	124.013	254.087	234.060	68.601	83.142	-32.016	-48.553	40.847	-62.847	109.559	170.336	0.00035481	0.00052142	0.00016692	1379.5	2.0361e-06	6.0955e-06	1374.7	367.85	2.7703e-06	1.142e-05	422.03	140.77	121.54	41.688	5.642e-06	51.792	0.00093844	0.00095668	0.00026631	1444.6	1.0506e-05	1.0588e-05	1410.8	381.76	1.0542e-05	1.0677e-05	441.47	177.36	129.02	43.973	1.0602e-05	54.766	-39.338	124.472	-32.089	-53.144	140.115	171.006	-53.299	-48.289	227.430	22.631	-48.764	-42.667	-44.157	-39.394	272.245	-40.172	-8191	255	
972.456	1	1	0	0	0.21837	0.1431	0.22988	0.21915	0.13443	0.12451	0.12724	0.25079	0.19827	0.12903	0.14454	0.31145	0.14422	0.19961	0.11256	0.32603	-2.1688	-1.9625	-2.35	-2.2875	-2.2458	-2.6312	-2.4458	-2.2729	-2.5875	-2.0938	-2.3021	-2.3187	-2.2875	-2.4333	-2.1396	-2.3146	48.265	-50.402	230.357	141.063	264.111	-28.329	185.864	216.753	-52.045	230.510	220.182	277.675	218.075	251.026	123.405	143.535	0.00036342	0.00010134	0.00013227	1371.7	1.4013e-06	5.7654e-06	1376.5	369.42	4.5398e-06	5.9716e-06	424.14	141.18	121.83	41.712	3.7625e-06	51.986	0.00095253	0.00096601	0.00027055	1442.9	1.057e-05	1.0495e-05	1412.3	381.55	1.0403e-05	1.0448e-05	441.35	175.09	128.4	43.919	1.0301e-05	54.666	-14.275	64.853	-3.209	-52.872	181.974	59.952	-53.197	-48.557	67.397	283.193	-49.058	-43.083	-44.166	-39.466	30.075	-40.054	-8191	255	
972.553	1	1	0	0	0.054894	0.077006	0.13863	0.29011	0.21319	0.15581	0.36667	0.19786	0.29234	0.12596	0.029309	0.1696	0.18434	0.050942	0.031717	0.26676	-1.9729	-2.0417	-2.425	-2.4042	-2.0771	-2.5125	-2.6021	-2.2708	-2.4146	-2.2729	-2.3542	-2.4458	-2.0312	-2.4354	-2.325	-2.2167	123.884	179.145	149.585	185.547	268.315	191.651	235.861	248.367	71.755	266.837	153.888	242.710	62.959	154.658	244.026	154.132	0.00042534	0.00062983	7.3835e-05	1379.2	3.9557e-06	1.5499e-06	1371	368.8	5.534e-06	7.8896e-06	423.73	137.75	120.56	41.498	6.513e-06	51.493	0.00091356	0.00092853	0.00025937	1437	1.0155e-05	1.017e-05	1408.7	380.87	9.933e-06	1.01e-05	439.91	172.7	127.75	43.759	9.8041e-06	54.37	28.673	55.148	18.072	-53.047	138.765	229.653	-53.275	-48.254	-2.160	44.747	-48.884	-43.558	-43.959	-39.488	-47.129	-40.027	-8191	255	
972.649	1	1	0	0	0.082582	0.16172	0.18656	0.23971	0.18583	0.058545	0.19526	0.23524	0.16806	0.18019	0.096976	0.17818	0.094902	0.093694	0.066973	0.11671	-1.9542	-2.2104	-2.2271	-2.6479	-2.3229	-2.5604	-2.4292	-2.2417	-2.5896	-2.2479	-2.2917	-2.5833	-2.0938	-2.2729	-2.4188	-2.1792	35.010	-62.378	173.473	251.052	169.683	-65.241	225.627	286.621	33.707	117.345	-42.312	-62.936	27.810	268.092	-59.587	-57.142	0.00048435	0.00068726	0.00030012	1366.7	2.1871e-06	6.1053e-06	1368.7	366.34	3.8882e-06	6.6929e-06	421.72	136.2	120.7	41.541	9.7303e-06	51.616	0.00088033	0.00088976	0.00024735	1431.9	9.6481e-06	9.7364e-06	1404.8	379.58	9.6066e-06	9.6599e-06	438.51	168.81	127.36	43.533	9.5706e-06	54.317	1.214	-13.071	-53.911	-53.199	165.146	70.679	-53.309	-48.205	230.829	18.792	-48.948	-44.097	-43.885	-39.408	25.836	-40.207	-8191	255	
972.745	1	1	0	0	0.11686	0.1771	0.070133	0.20267	0.31773	0.33062	0.38685	0.027557	0.34442	0.24153	0.13408	0.21868	0.18398	0.54072	0.32504	0.23489	-2.0312	-2.3604	-2.05	-2.2687	-2.3292	-2.4333	-2.6063	-2.1354	-2.3646	-2.3625	-2.1021	-2.5021	-2.2146	-2.4208	-2.4188	-2.0312	-57.894	127.827	208.159	20.253	52.793	-63.958	200.728	84.364	52.307	-37.889	3.731	233.246	-46.847	-38.468	134.833	232.174	0.00072095	0.00081789	0.00023476	1371.3	7.6806e-06	9.7158e-06	1370.3	366.28	4.8256e-06	1.0883e-05	422.04	135.96	120.94	41.394	1.2044e-05	51.601	0.0008661	0.00087639	0.00024466	1427.3	9.5835e-06	9.672e-06	1401.9	378.65	9.6572e-06	9.7249e-06	437.93	170.18	127.39	43.447	9.842e-06	54.223	-10.451	39.991	94.144	-53.002	41.417	96.398	-53.019	-48.463	-18.104	88.637	-48.981	-44.148	-43.927	-39.538	45.727	-40.418	-8191	255	
972.866	1	1	0	0	0.16457	0.13033	0.12508	0.18908	0.21072	0.16226	0.27341	0.29584	0.14884	0.24918	0.12687	0.12251	0.15138	0.26019	0.15013	0.12909	-1.7604	-2.025	-2.0479	-2.5792	-2.2021	-2.0958	-2.6562	-2.275	-2.2583	-2.4646	-2.0333	-2.3854	-2.2438	-2.3354	-2.4354	-1.9708	-25.102	-11.519	253.090	254.946	-0.327	150.693	227.756	259.805	14.962	-1.358	118.096	79.125	229.183	273.493	289.555	238.965	0.00043638	0.00082416	8.4604e-05	1373.9	7.2867e-06	5.3801e-06	1366.6	367.75	7.7795e-06	1.3955e-06	421.12	138.47	120.14	41.135	4.3961e-06	51.372	0.00088485	0.00090901	0.00025142	1431.3	9.8775e-06	9.9198e-06	1402.1	379.3	9.8898e-06	9.8743e-06	437.87	171.76	126.99	43.415	9.9841e-06	54.028	17.422	-3.528	2.397	-52.623	36.621	73.678	-53.055	-48.441	50.635	-1.208	-49.203	-42.517	-44.101	-39.630	134.497	-40.308	-8191	255	
972.960	1	1	0	0	0.13839	0.13886	0.19316	0.084786	0.10537	0.15552	0.12049	0.23415	0.040057	0.15396	0.29382	0.23006	0.086462	0.10609	0.21443	0.19603	-1.9	-2.3063	-2.0083	-2.6625	-2.0125	-2.1312	-2.6542	-2.225	-2.2479	-2.3208	-2.1562	-2.4021	-2.1833	-2.0687	-2.4625	-2.2375	-2.241	-7.393	46.164	-34.468	104.502	183.141	158.640	-30.210	189.588	271.081	293.143	-29.019	122.914	-14.214	48.608	218.598	0.00046834	0.00038849	2.7497e-05	1365.1	2.2498e-06	3.8161e-06	1367.9	366.01	8.5836e-06	4.8124e-06	421.86	140.45	119.91	41.202	9.9049e-06	51.219	0.00089859	0.0009151	0.0002571	1431	1.0056e-05	1.0104e-05	1403	378.62	1.0085e-05	1.0164e-05	438.21	172.27	127.28	43.4	1.0068e-05	54.111	-28.982	17.727	134.586	-53.246	60.680	86.558	-53.255	-48.506	79.853	115.008	-49.103	-44.089	-43.895	-39.328	90.447	-40.402	-8191	255	
973.033	1	1	0	0	0.021129	0.10925	0.38058	0.13704	0.074438	0.14307	0.07511	0.22945	0.21265	0.21875	0.022888	0.1347	0.28621	0.059792	0.064125	0.17339	-1.9417	-2.5375	-1.8354	-2.6312	-2.3333	-2.1437	-2.6958	-2.1854	-2.3625	-2.55	-2.025	-2.3042	-2.3812	-2.125	-2.55	-2.2812	227.230	-56.035	192.501	194.474	-1.438	242.497	17.417	-51.528	61.403	-10.437	49.586	247.691	229.221	233.352	-12.809	284.027	0.00036406	0.00070949	0.0001383	1371.6	2.9729e-06	1.0133e-05	1363.1	366.15	6.5594e-07	6.6564e-06	419.61	138.36	119.43	41.035	6.2992e-06	50.979	0.00091468	0.00093125	0.00025956	1433.4	1.0142e-05	1.0213e-05	1401.5	379.02	1.0313e-05	1.0356e-05	437.3	174.86	127.21	43.324	1.0408e-05	54.033	-12.508	43.438	-39.548	-52.885	126.528	109.686	-53.164	-48.448	64.592	46.889	-48.846	-43.990	-44.036	-39.438	276.357	-40.295	-8191	255	
973.128	1	1	0	0	0.18633	0.37334	0.16406	0.33867	0.16267	0.12921	0.4171	0.41568	0.21377	0.14377	0.33381	0.19116	0.16961	0.17039	0.10954	0.37048	-1.7542	-2.3729	-2.0187	-2.3958	-2.2708	-2.0542	-2.6208	-2.3688	-2.1729	-2.4583	-2.2708	-2.4146	-2.4813	-2.0042	-2.4562	-2.35	-5.306	153.370	14.243	249.381	54.373	19.808	222.891	-32.729	127.502	10.582	250.902	-11.255	226.863	260.697	237.719	233.276	0.00041626	0.0013457	9.137e-05	1364.8	4.2179e-06	9.1282e-06	1366.7	366.83	1.1453e-05	8.586e-06	419.23	137.19	119.68	41.317	1.4678e-05	51.065	0.00093092	0.00094034	0.00026431	1434.3	1.0269e-05	1.0224e-05	1403	378.65	1.0232e-05	1.0224e-05	436.84	173.4	126.81	43.335	1.017e-05	53.939	19.046	16.391	94.150	-52.993	88.638	96.978	-52.944	-48.347	72.417	73.270	-49.007	-43.305	-44.027	-39.451	-21.040	-40.334	-8191	255	
973.248	1	1	0	0	0.15338	0.09299	0.12725	0.30517	0.2833	0.16717	0.34731	0.50752	0.074581	0.099246	0.20583	0.078744	0.18916	0.03919	0.096626	0.27663	-1.7833	-2.6917	-2.1979	-2.3312	-2.4062	-2.0812	-2.7875	-2.3833	-2.1208	-2.4417	-2.2771	-2.3625	-2.2812	-1.9188	-2.4938	-2.4562	269.860	210.585	162.220	-56.043	-39.209	178.405	230.686	-61.532	95.062	198.184	288.436	104.214	236.907	179.225	288.613	210.582	0.00040151	0.00029731	0.00021183	1356	8.673e-06	4.8261e-06	1361.8	365.32	6.4165e-06	4.9012e-06	420.03	139.36	119.41	41.18	2.5814e-06	51.041	0.00091561	0.00091951	0.000257	1426.9	1.0057e-05	1.0139e-05	1399.5	378.04	9.9411e-06	1.0091e-05	437.37	172.52	126.8	43.251	9.9706e-06	53.894	-40.354	-2.627	32.236	-52.849	105.143	113.227	-53.186	-48.371	125.125	226.955	-49.019	-42.429	-44.027	-39.215	68.736	-40.320	-8191	255	
973.345	1	1	0	0	0.14726	0.2248	0.023322	0.12773	0.20242	0.23051	0.33419	0.15014	0.1729	0.11215	0.068893	0.25345	0.1002	0.30236	0.22432	0.30627	-1.6437	-2.225	-2.1146	-2.375	-2.4792	-2.0167	-2.6063	-2.3833	-2.1208	-2.4521	-2.1479	-2.1208	-2.4042	-2.0479	-2.3417	-2.3146	88.208	-0.679	-36.200	279.832	144.706	207.090	210.415	199.004	-49.441	4.835	-19.303	171.313	53.372	188.683	-34.385	-65.036	0.00044649	0.0013603	0.00033144	1364.6	5.4986e-06	6.2601e-06	1371	365.34	1.9805e-05	9.7397e-06	421.36	137.8	119.67	41.313	1.1079e-06	51.252	0.00089343	0.00090321	0.0002499	1424.3	9.8549e-06	9.7749e-06	1400.5	377.17	9.7011e-06	9.7883e-06	436.37	169.62	126.47	43.238	9.6671e-06	53.88	-28.645	44.345	-9.019	-53.034	24.076	42.626	-52.930	-48.272	99.199	-1.017	-49.021	-43.292	-44.146	-39.404	-59.073	-40.070	-8191	255	
973.441	1	1	0	0	0.18786	0.06551	0.073004	0.19658	0.11977	0.17108	0.29615	0.14116	0.044129	0.084421	0.21814	0.15241	0.10151	0.09256	0.073852	0.20001	-1.5625	-2.4062	-2.1729	-2.15	-2.4875	-2.0979	-2.2313	-2.4854	-2.0167	-2.5708	-2.1479	-2.1542	-2.5	-2.1917	-2.2792	-2.4771	143.023	43.473	184.740	170.367	215.359	-16.983	231.745	229.162	209.542	154.677	234.183	287.917	-40.793	271.824	-64.458	-41.378	0.00046914	0.00069716	0.00019884	1367.8	1.0235e-05	8.937e-06	1364.5	365.12	7.8298e-06	1.3929e-06	421.75	138.33	119.43	41.024	1.1156e-05	51.064	0.00086189	0.00087786	0.00024408	1424.1	9.6083e-06	9.5964e-06	1397.8	377.17	9.6161e-06	9.6335e-06	436	168.56	126.34	43.186	9.566e-06	53.788	-9.871	-14.661	44.785	-53.106	55.227	7.341	-53.158	-48.376	-27.600	105.931	-48.716	-42.457	-43.961	-39.536	69.305	-40.184	-8191	255	
973.537	1	1	0	0	0.26692	0.16595	0.082021	0.2227	0.14163	0.15968	0.19782	0.16992	0.36877	0.19828	0.12415	0.14423	0.07819	0.30971	0.30793	0.30489	-1.7042	-2.4188	-2.1833	-2.1229	-2.5125	-2.1292	-2.5042	-2.7313	-2.1458	-2.5146	-2.3521	-2.1396	-2.45	-2.2062	-2.4229	-2.625	-3.361	217.365	102.838	275.129	240.998	240.884	246.742	188.858	124.522	-16.916	-60.998	149.175	292.251	18.767	265.873	-57.477	0.00055077	0.0012482	4.0106e-05	1370.6	2.5838e-06	1.3564e-06	1365.7	365.5	1.1786e-05	3.2566e-06	418.97	139.71	118.83	41.197	2.6452e-06	51.303	0.00087177	0.00089085	0.00024732	1425	9.8218e-06	9.8066e-06	1400.3	377.81	9.8006e-06	9.899e-06	435.8	170.65	126.36	43.193	9.8706e-06	54.021	-19.155	54.519	176.341	-53.210	40.049	13.022	-53.107	-48.294	159.107	77.015	-49.082	-43.411	-43.793	-39.421	45.028	-40.348	-8191	255	
973.633	1	1	0	0	0.25667	0.14577	0.040796	0.21715	0.069666	0.37794	0.17492	0.18056	0.13854	0.085207	0.14697	0.10378	0.071159	0.21413	0.18342	0.29584	-1.4937	-2.3333	-2.2021	-2.0625	-2.5729	-2.1125	-2.4146	-2.5438	-2.0833	-2.3708	-2.7208	-1.9479	-2.5521	-2.3	-2.2562	-2.6562	-40.039	229.823	180.006	255.976	51.638	256.025	189.878	275.886	181.235	13.125	286.640	183.040	11.400	290.171	93.000	147.811	0.0003945	0.00077677	0.00018934	1372	2.9946e-06	4.0587e-06	1367.4	365.4	7.8725e-06	1.1337e-05	419.51	138.81	119.32	41.157	5.2679e-06	51.058	0.00088565	0.00090396	0.00025182	1428.1	9.7781e-06	9.8381e-06	1399.8	377.5	9.7496e-06	9.7741e-06	436.03	169.61	126.6	43.217	9.8303e-06	53.897	-5.971	9.715	2.305	-52.982	47.192	109.662	-53.185	-48.328	80.337	72.893	-48.736	-42.514	-43.856	-39.514	99.931	-40.308	-8191	255	
973.729	1	1	0	0	0.24921	0.23851	0.25764	0.2239	0.21758	0.082553	0.11831	0.29835	0.05059	0.098283	0.17552	0.026915	0.10884	0.017302	0.38518	0.21673	-1.5063	-2.3771	-2.2958	-1.8563	-2.375	-2.1312	-2.1667	-2.5771	-2.0104	-2.2854	-2.4646	-1.9396	-2.3958	-2.3708	-2.0375	-2.5667	109.095	215.568	232.440	258.716	-50.289	-19.070	269.592	274.963	188.881	250.498	266.863	122.009	280.357	271.242	24.669	230.008	0.00041899	0.00038648	0.00019082	1358.5	3.9581e-06	6.2361e-06	1370	366.9	5.7593e-06	3.2814e-06	419.96	139.9	120.07	41.294	5.0683e-06	51.138	0.00088413	0.00089821	0.00024997	1425.4	9.7807e-06	9.8685e-06	1402.3	378.74	9.6941e-06	9.763e-06	436.39	170.57	126.62	43.348	9.756e-06	53.98	-23.115	47.097	21.645	-53.056	51.424	-10.002	-52.985	-48.426	7.268	185.740	-48.919	-43.654	-44.094	-39.440	89.043	-40.377	-8191	255	
973.825	1	1	0	0	0.18476	0.24694	0.20209	0.14403	0.15081	0.31821	0.44293	0.19906	0.16287	0.27763	0.17054	0.22794	0.1839	0.04333	0.092383	0.18876	-1.6417	-2.1771	-2.4042	-2.0792	-2.2667	-2.3458	-2.2146	-2.6667	-2.2417	-2.1375	-2.5833	-1.9708	-2.3833	-2.175	-1.9688	-2.6354	30.326	276.337	-14.719	11.761	-1.688	209.506	253.022	218.535	79.442	21.936	9.091	-36.240	272.570	36.511	-62.430	236.252	0.00040388	0.0010306	0.00013763	1363.5	8.7774e-06	5.3285e-06	1368	366.51	4.3753e-06	6.9189e-06	419.12	141.28	119.37	41.307	3.8702e-06	51.168	0.00087252	0.0009004	0.00024848	1427.3	9.7638e-06	9.7423e-06	1400.4	378.22	9.6787e-06	9.8001e-06	436.55	170.27	126.61	43.296	9.7436e-06	53.89	-33.120	109.955	6.041	-53.279	63.990	174.663	-53.253	-48.362	139.805	5.243	-48.879	-45.038	-44.073	-39.182	242.633	-40.225	-8191	255	
973.946	1	1	0	0	0.14174	0.03735	0.31807	0.37048	0.13492	0.12733	0.27672	0.23966	0.11543	0.22919	0.13073	0.24384	0.19693	0.011183	0.15422	0.37685	-1.6167	-2.15	-2.3896	-1.9271	-2.3688	-2.3354	-2.425	-2.3896	-2.3542	-2.2542	-2.7938	-2.0938	-2.2896	-2.4271	-2.0521	-2.5917	30.638	-27.146	77.637	230.153	-2.658	59.314	182.109	268.413	22.573	-18.040	-64.542	-0.801	284.941	46.378	68.221	276.059	0.00052497	0.0010305	1.1176e-05	1361.3	3.945e-06	1.0171e-05	1363.6	366.22	1.2804e-05	3.31e-06	421.1	138.39	120.09	41.258	1.2596e-05	51.237	0.00087581	0.00090039	0.00024842	1424.7	9.7604e-06	9.7717e-06	1399	377.59	9.7337e-06	9.8071e-06	436.44	169.57	126.63	43.262	9.5907e-06	54.01	-11.666	41.674	50.621	-53.134	-43.325	31.379	-53.005	-48.323	183.574	111.893	-48.846	-42.904	-44.040	-39.568	87.428	-40.231	-8191	255	
974.040	1	1	0	0	0.24912	0.25622	0.051674	0.20411	0.39651	0.14261	0.076029	0.17899	0.108	0.14073	0.12509	0.13979	0.17491	0.34	0.070073	0.071052	-1.6292	-2.0667	-2.4333	-1.8813	-2.2417	-2.4521	-2.1833	-2.5542	-2.25	-1.9833	-2.5812	-2.05	-2.2667	-2.2917	-1.7208	-2.4188	-31.750	76.238	26.645	163.053	16.155	75.433	214.458	183.196	233.574	-13.338	-55.579	122.515	209.529	273.011	148.245	153.485	0.00046936	0.00019252	0.00011271	1361.5	2.0664e-06	1.0197e-05	1364.8	365.45	8.6168e-06	1.0108e-05	421.54	135.57	119.87	41.349	3.4875e-06	51.287	0.00086427	0.00088613	0.00024502	1423.2	9.6174e-06	9.6412e-06	1399.8	377.56	9.563e-06	9.6129e-06	435.93	167.91	126.85	43.18	9.5229e-06	53.851	-5.443	7.057	-39.532	-53.171	16.551	40.055	-53.365	-48.394	-18.430	40.477	-48.772	-43.341	-44.084	-39.261	191.266	-40.094	-8191	255	
974.136	1	1	0	0	0.10792	0.21614	0.23667	0.072541	0.20542	0.069758	0.2703	0.070167	0.13406	0.048882	0.1693	0.1554	0.16568	0.097372	0.30821	0.072229	-1.8875	-1.9042	-2.5083	-2.0417	-2.3729	-2.3479	-2.2854	-2.4375	-2.3312	-1.9312	-2.6458	-2.0854	-2.1167	-2.3854	-1.9958	-2.3187	-15.617	-28.716	38.446	188.077	199.648	267.565	216.664	159.367	77.595	120.782	259.955	-57.430	140.654	47.627	283.376	273.671	0.00042573	0.00017139	0.00016713	1366.8	7.1929e-06	9.6285e-06	1364.5	365.24	2.1411e-06	5.7267e-06	420.07	140.63	119.32	41.153	6.2001e-06	51.329	0.00085892	0.00087934	0.00024532	1427.3	9.5676e-06	9.6405e-06	1399.2	377.8	9.6059e-06	9.6488e-06	436.24	169.29	126.33	43.206	9.6527e-06	53.906	-19.541	26.224	-26.068	-53.029	27.199	9.070	-53.152	-48.195	85.615	80.354	-49.016	-44.082	-43.856	-39.473	138.813	-40.376	-8191	255	
974.257	1	1	0	0	0.090711	0.077476	0.12821	0.069358	0.17426	0.092361	0.31631	0.18617	0.16381	0.064434	0.46843	0.16825	0.28653	0.12611	0.1832	0.3167	-1.8687	-2.0146	-2.2604	-2.2292	-2.0542	-2.2896	-2.0854	-2.4875	-2.3083	-1.9625	-2.6167	-2.0604	-2.2479	-2.6292	-2.0792	-2.3812	106.711	174.924	199.975	107.246	226.845	57.747	242.745	287.660	-0.664	86.704	254.976	132.709	230.862	176.768	133.514	226.278	0.00039379	0.0011421	0.00012527	1368.1	4.852e-06	2.6295e-06	1363.4	366.09	4.3802e-06	9.1684e-06	419.13	139.76	120.06	41.224	1.083e-05	51.286	0.00087756	0.00089448	0.00024945	1426.7	9.7135e-06	9.7048e-06	1399.5	377.74	9.6583e-06	9.7811e-06	436.07	169.03	126.59	43.241	9.5608e-06	53.863	3.515	-5.762	-59.293	-53.049	47.474	35.891	-53.138	-48.184	50.536	48.787	-48.751	-44.519	-44.248	-39.183	91.250	-39.921	-8191	255	
974.329	1	1	0	0	0.11948	0.19988	0.1363	0.18103	0.05067	0.2252	0.21856	0.2903	0.1546	0.13773	0.32746	0.15448	0.27702	0.23893	0.13733	0.1265	-1.8542	-2.0417	-2.3563	-2.2458	-2.1042	-2.4313	-2.2229	-2.2875	-2.3292	-2.0667	-2.4938	-2.2375	-1.9667	-2.5958	-2.2667	-2.2979	41.408	78.105	-64.679	-60.870	86.291	182.005	277.808	259.421	216.762	49.444	254.495	71.844	-7.347	285.798	260.170	192.800	0.0004062	0.00080844	0.00014315	1371.1	3.1347e-06	2.6073e-07	1364.4	365.69	1.1259e-05	7.8355e-06	419.88	140.49	120.32	41.159	1.2624e-05	51.317	0.00085704	0.00087891	0.00024327	1426.6	9.5976e-06	9.6716e-06	1398.7	377.37	9.6119e-06	9.7335e-06	435.71	169.48	126.67	43.255	9.6757e-06	53.919	16.003	3.705	247.377	-52.991	125.435	171.449	-53.190	-48.252	95.754	146.049	-48.731	-44.239	-44.133	-39.534	75.147	-40.333	-8191	255	
974.425	1	1	0	0	0.063669	0.028869	0.14533	0.098927	0.20947	0.22769	0.32721	0.21361	0.050028	0.10207	0.10216	0.22456	0.35254	0.1444	0.18906	0.05491	-2.0708	-2.0646	-2.3854	-2.4854	-2.0229	-2.5792	-2.3917	-2.2854	-2.3854	-2.0792	-2.4646	-2.4	-1.9708	-2.5792	-2.3375	-2.3146	-14.614	276.564	-31.216	190.675	62.271	-3.558	245.436	192.748	-30.188	272.964	72.081	77.918	262.174	15.907	242.828	92.142	0.00032307	0.0008622	0.00017909	1364.7	6.7403e-06	2.6838e-06	1369.4	365.71	8.7924e-06	2.0115e-06	419.36	138	119.66	41.115	9.3092e-06	51.64	0.00086474	0.00088253	0.00024598	1423.5	9.6425e-06	9.6776e-06	1398.5	377.31	9.5932e-06	9.6411e-06	435.34	168.72	126.65	43.163	9.6714e-06	53.92	-54.812	-35.259	55.466	-53.219	64.823	-22.470	-52.967	-48.312	-47.857	34.603	-49.044	-42.918	-44.058	-39.506	42.760	-40.257	-8191	255	
974.546	1	1	0	0	0.074489	0.20682	0.19054	0.21028	0.56216	0.16738	0.028436	0.1462	0.11988	0.052678	0.12389	0.38527	0.13862	0.42092	0.16668	0.08826	-1.8458	-2.0208	-2.0604	-2.3771	-1.9562	-2.4125	-2.3354	-2.2708	-2.4479	-2.2667	-2.3354	-2.4188	-2.1688	-2.5229	-2.3042	-2.1354	44.652	63.848	28.564	252.106	151.639	157.521	30.895	271.525	90.744	180.934	-46.704	27.009	272.484	-62.775	99.185	160.400	0.00046976	0.00018786	0.00010241	1361.7	3.7122e-06	4.0102e-06	1364.6	366.26	6.1819e-06	3.3468e-06	420.28	140.64	120.02	41.382	3.2138e-06	51.153	0.00086748	0.00088976	0.00024731	1422.5	9.6748e-06	9.6946e-06	1396.8	378.03	9.696e-06	9.6801e-06	435.98	169.82	126.59	43.332	9.6927e-06	53.899	-4.592	-26.659	14.283	-53.133	65.331	67.944	-53.236	-48.308	-62.474	104.282	-48.968	-43.423	-44.162	-39.447	218.574	-40.107	-8191	255	
974.642	1	1	0	0	0.12181	0.0758	0.046078	0.21992	0.15449	0.21547	0.31942	0.23522	0.13131	0.24	0.33408	0.14377	0.17765	0.33146	0.075275	0.37002	-1.9458	-2.1042	-2.2958	-2.5812	-2.0563	-2.4771	-2.3854	-2.1417	-2.5521	-2.2542	-2.2062	-2.4313	-2.1437	-2.5292	-2.3646	-2.1042	248.505	201.978	273.565	4.311	129.660	11.538	248.549	243.423	-59.969	-49.030	230.141	82.802	204.633	-44.828	235.589	230.927	0.00041229	0.00055329	0.0001698	1369.3	2.3104e-06	2.596e-07	1363.3	366.39	5.1845e-06	1.2733e-05	420.96	139.59	120.08	41.341	4.2287e-06	51.234	0.0008728	0.00089287	0.00024777	1425.9	9.784e-06	9.7858e-06	1400	377.81	9.6809e-06	9.73e-06	436.98	169.69	126.86	43.276	9.7292e-06	54.001	-33.036	2.778	272.266	-52.892	107.309	-56.907	-53.171	-48.338	58.652	107.128	-48.814	-43.815	-43.833	-39.735	166.645	-40.143	-8191	255	
974.738	1	1	0	0	0.090535	0.18507	0.13486	0.32357	0.28849	0.059637	0.26625	0.21472	0.28016	0.25075	0.18266	0.20001	0.018001	0.32544	0.20516	0.12832	-1.8583	-2.2583	-2.0542	-2.3083	-2.1458	-2.5146	-2.4	-2.175	-2.2625	-2.1562	-2.3792	-2.325	-2.2125	-2.4167	-2.3542	-2.0667	13.622	273.913	258.486	251.031	130.505	244.540	248.530	262.598	62.575	-40.352	239.013	262.212	34.120	-54.607	105.876	267.560	0.00036907	0.00052769	0.00012396	1366.5	4.6628e-06	3.0676e-06	1366.4	365.31	6.1015e-06	4.6278e-06	419.72	137.41	119.82	41.228	7.3385e-07	51.333	0.00088482	0.00090151	0.00024894	1428	9.8329e-06	9.8433e-06	1400.2	377.48	9.7913e-06	9.9257e-06	436.49	170.9	126.84	43.31	9.9167e-06	53.944	-32.684	52.888	28.977	-52.882	89.062	107.059	-53.100	-48.401	135.876	147.896	-48.956	-43.274	-44.175	-39.213	78.279	-40.305	-8191	255	
974.834	1	1	0	0	0.029217	0.23109	0.1066	0.12682	0.14717	0.19373	0.20449	0.13999	0.13326	0.073541	0.27126	0.12984	0.2098	0.11887	0.085441	0.044162	-1.9271	-2.1771	-1.7667	-2.4396	-2.0208	-2.1958	-2.4813	-2.2167	-2.3646	-2.1188	-2.0812	-2.3729	-2.2188	-2.3021	-2.4667	-2.0083	185.993	110.856	64.243	255.370	-17.451	177.509	217.952	181.303	168.701	16.418	232.449	218.654	-5.083	180.588	152.004	275.362	0.00012798	0.00050241	0.00020727	1367.1	1.2131e-05	5.0331e-06	1365.5	366.96	3.0399e-06	9.838e-06	420.16	139.02	120.21	41.081	1.8606e-06	51.29	0.00090137	0.00092056	0.0002547	1429.8	1.0017e-05	1.0019e-05	1399.7	378.55	1.0001e-05	9.9981e-06	437.19	170.82	127.09	43.28	9.9452e-06	53.968	-25.822	11.346	-57.209	-53.101	136.296	47.930	-53.089	-48.455	-5.908	80.730	-48.600	-42.847	-43.741	-39.554	167.929	-40.285	-8191	255	
974.906	1	1	0	0	0.091311	0.36167	0.25118	0.21834	0.20799	0.10287	0.32653	0.21746	0.13179	0.11497	0.053235	0.13647	0.059267	0.18757	0.15833	0.17834	-1.9542	-2.15	-1.9083	-2.6042	-2.2062	-2.1958	-2.7292	-2.0208	-2.2104	-2.3271	-2.0438	-2.2875	-2.2333	-2.3271	-2.4333	-1.9833	248.592	140.649	-12.388	161.253	86.516	106.667	214.557	230.484	77.862	135.661	44.026	104.700	-64.785	-43.437	157.381	277.340	0.00035591	0.00033381	0.00020839	1364.4	4.8079e-06	7.241e-06	1364.2	365.57	1.2594e-05	3.156e-06	420	136.36	119.61	41.298	1.8663e-06	51.25	0.0008941	0.00090983	0.000254	1427.4	9.9287e-06	1.002e-05	1399.1	377.65	9.8861e-06	1.0015e-05	436.49	170.54	126.83	43.291	9.9131e-06	53.955	-1.608	28.571	-12.765	-52.926	166.483	93.374	-53.201	-48.184	-18.439	152.032	-48.922	-44.285	-43.884	-39.444	4.036	-40.409	-8191	255	
975.025	1	1	0	0	0.12525	0.073211	0.17269	0.26524	0.31729	0.22268	0.10422	0.41544	0.078114	0.043203	0.072938	0.16622	0.18717	0.27414	0.26973	0.042817	-1.7667	-2.2854	-1.9792	-2.475	-2.1708	-2.1667	-2.5542	-2.1729	-2.2521	-2.3042	-2.1583	-2.2229	-2.3375	-2.1833	-2.5083	-2.1729	35.055	-12.269	98.278	210.100	71.249	248.230	192.780	273.282	93.159	236.834	-57.585	214.708	110.146	277.408	139.832	72.480	0.00038791	0.0003804	0.00015708	1354.6	2.4287e-06	1.0467e-05	1367.6	366.02	5.4701e-06	5.2094e-06	418.22	139.45	120.35	41.091	1.796e-06	51.121	0.00089442	0.00090421	0.00025193	1424.4	9.8618e-06	9.9825e-06	1401.6	377.94	9.8915e-06	9.9181e-06	436.21	171.2	126.89	43.271	9.7695e-06	53.905	-26.207	61.514	74.309	-53.206	34.487	85.872	-53.172	-48.399	41.054	46.755	-49.170	-43.474	-43.941	-39.548	-65.707	-40.345	-8191	255	
975.121	1	1	0	0	0.22029	0.27986	0.1343	0.19469	0.11412	0.14176	0.16361	0.19327	0.21552	0.27656	0.10357	0.080403	0.14924	0.18784	0.28546	0.22158	-1.7646	-2.3646	-1.7625	-2.3187	-2.2396	-2.1417	-2.5667	-2.175	-2.1875	-2.2354	-2.0542	-2.2542	-2.3187	-2.2271	-2.6375	-2.0708	293.441	79.489	-62.371	277.674	24.290	37.104	170.799	143.093	210.869	65.015	168.046	200.647	243.019	270.468	242.788	157.371	0.00062957	0.00037083	0.00010028	1362.5	4.3144e-06	6.5794e-06	1366.5	365.95	1.0134e-05	6.538e-06	421.37	139.88	119.47	41.086	6.8793e-06	51.343	0.00087531	0.00088992	0.00024651	1422.4	9.6865e-06	9.714e-06	1398.4	377.1	9.6754e-06	9.7037e-06	436.64	170.2	126.44	43.174	9.7708e-06	53.997	-0.779	-41.642	130.427	-53.050	112.811	65.189	-53.173	-48.301	191.671	49.970	-49.057	-43.536	-43.797	-39.259	17.853	-40.285	-8191	255	
975.219	1	1	0	0	0.072272	0.065287	0.15067	0.26306	0.052292	0.23101	0.38401	0.20245	0.35709	0.20989	0.27502	0.12078	0.14063	0.31746	0.034055	0.13728	-1.7958	-2.4604	-2.1063	-2.3417	-2.2625	-2.1896	-2.6354	-2.1583	-2.0375	-2.5312	-2.0896	-2.2021	-2.2583	-1.9708	-2.5958	-2.3063	191.267	56.409	-21.548	139.752	201.752	-14.842	260.180	201.564	261.690	-21.415	181.549	125.408	84.720	-65.992	185.520	278.087	0.00036132	0.0012968	0.00015402	1368.3	5.4171e-06	1.4097e-06	1365.2	366.13	1.2581e-05	1.1616e-05	421.03	137.37	119.79	41.351	5.4979e-06	51.096	0.000888	0.00090619	0.00024979	1427.4	9.8358e-06	9.798e-06	1399.4	377.65	9.7805e-06	9.8553e-06	437.03	170.28	126.58	43.371	9.8846e-06	53.913	-10.986	17.060	63.445	-53.086	114.064	-21.003	-53.112	-48.377	234.808	160.912	-48.609	-42.806	-44.273	-39.397	4.627	-40.120	-8191	255	
975.337	1	1	0	0	0.16539	0.3358	0.31971	0.19482	0.042394	0.23467	0.054335	0.19584	0.17948	0.23981	0.15371	0.16822	0.19717	0.091712	0.17333	0.18586	-1.7104	-2.4604	-1.8458	-2.3833	-2.3958	-2.0854	-2.7083	-2.3396	-2.15	-2.5062	-1.9792	-2.3229	-2.3292	-1.875	-2.4833	-2.4021	197.918	-8.925	-43.310	-31.623	-38.810	238.355	-41.871	254.083	85.821	13.433	220.297	138.166	251.407	51.047	186.652	208.450	0.00043321	0.00092319	0.00027957	1370	4.1235e-06	4.9894e-06	1364.8	366.23	4.3739e-06	2.8738e-06	420.24	140.41	120.23	41.165	3.325e-06	51.238	0.00088943	0.00091285	0.00025239	1430.5	9.8755e-06	9.9423e-06	1398.8	378.21	9.783e-06	9.9787e-06	436.67	170.31	126.89	43.255	9.8282e-06	53.919	-15.876	2.385	261.489	-53.004	142.925	17.256	-53.021	-48.301	121.248	64.547	-48.860	-43.426	-43.625	-39.572	252.554	-40.064	-8191	255	
975.434	1	1	0	0	0.18242	0.008815	0.045703	0.089881	0.27918	0.12603	0.13505	0.2121	0.21096	0.032543	0.095548	0.10818	0.077725	0.29679	0.10353	0.047933	-1.4042	-2.45	-2.0687	-2.2083	-2.4854	-1.9521	-2.5917	-2.3792	-2.0875	-2.6667	-2.2292	-2.0938	-2.3	-2.0125	-2.3229	-2.2438	197.423	117.849	97.734	223.146	8.075	-25.169	220.425	224.326	170.631	11.763	30.785	292.227	46.239	266.597	-60.467	-49.887	0.00060697	0.0010761	8.1137e-05	1367	3.4004e-06	4.5672e-06	1359.5	366.87	1.0059e-05	4.4846e-06	418.09	140.99	119.79	41.214	7.369e-06	51.499	0.00088207	0.00090121	0.00025123	1427.3	9.81e-06	9.9544e-06	1398.8	378.37	9.8138e-06	9.9908e-06	436.01	171.59	126.89	43.3	9.985e-06	54.02	4.865	14.118	18.496	-53.112	131.831	26.095	-52.932	-48.367	81.018	79.518	-48.847	-43.756	-44.107	-39.212	132.053	-40.300	-8191	255	
975.530	1	1	0	0	0.11729	0.15408	0.30795	0.13184	0.128	0.19708	0.3545	0.12081	0.060851	0.21003	0.14873	0.035836	0.41782	0.14056	0.06673	0.14435	-1.6125	-2.3708	-2.1396	-2.1937	-2.3021	-1.8979	-2.5312	-2.5854	-2.1021	-2.4646	-2.3292	-2.0729	-2.4208	-2.2313	-2.0958	-2.5042	217.050	106.898	-53.480	60.199	51.978	288.502	244.257	-55.464	138.488	14.727	286.865	226.107	-31.967	223.394	74.317	58.183	0.00055076	0.00084936	0.0002059	1369.5	1.2912e-06	5.7159e-06	1366.3	366.18	3.3347e-06	7.0934e-06	421.16	138.29	120.62	41.289	5.7055e-06	51.303	0.00090715	0.00092595	0.00025728	1431.1	1.01e-05	1.021e-05	1402.6	378.76	1.0234e-05	1.0351e-05	437.83	173.37	127.42	43.484	1.0304e-05	54.171	-28.289	36.850	-33.851	-52.978	188.529	-21.979	-53.130	-48.192	246.492	26.392	-48.906	-43.959	-43.936	-39.585	95.873	-40.044	-8191	255	
975.626	1	1	0	0	0.062604	0.13984	0.094739	0.073362	0.1939	0.083576	0.19812	0.10547	0.27128	0.053197	0.19048	0.16704	0.25973	0.23508	0.17617	0.069512	-1.5521	-2.2104	-2.0563	-2.1917	-2.2979	-1.9813	-2.4708	-2.4979	-2.0583	-2.3375	-2.3625	-2.0729	-2.4667	-2.1542	-2.0958	-2.4917	62.774	-33.891	279.466	1.650	52.951	196.753	216.483	262.334	150.973	-30.088	278.241	169.406	-29.344	282.966	96.093	12.348	0.00048259	0.00053841	0.00023093	1366.4	9.5169e-06	4.9614e-06	1367.7	366.32	4.1954e-06	9.016e-06	419.49	141.06	120.19	41.339	5.7348e-06	51.169	0.00092516	0.00093454	0.00026031	1433.3	1.0214e-05	1.0285e-05	1404.6	378.68	1.0263e-05	1.0433e-05	438.15	175.19	127.29	43.462	1.0451e-05	54.083	-35.874	20.430	37.516	-52.837	95.945	-32.718	-53.141	-48.441	104.786	36.760	-48.818	-43.723	-43.753	-39.458	66.934	-40.195	-8191	255	
975.722	1	1	0	0	0.12801	0.208	0.29223	0.31187	0.13927	0.12998	0.12623	0.13573	0.21169	0.17482	0.14445	0.084898	0.24542	0.018877	0.10615	0.20004	-1.6021	-2.5896	-2.3146	-2.1417	-2.3083	-1.9479	-2.3479	-2.5792	-1.9271	-2.3479	-2.3812	-2.0146	-2.3563	-2.2188	-2.1896	-2.4521	59.488	95.534	192.488	211.418	232.143	180.170	265.385	126.280	124.830	126.863	85.174	155.374	-64.291	262.586	207.669	145.793	0.00035229	0.00027149	0.00020019	1362.4	4.8145e-06	6.5921e-06	1368.4	366.19	3.6603e-06	1.674e-06	419.93	138.3	119.74	41.228	1.1297e-05	51.365	0.00094766	0.00095834	0.00026748	1436.6	1.047e-05	1.0536e-05	1405.3	378.97	1.052e-05	1.0473e-05	438.15	175.56	127.55	43.51	1.0517e-05	54.24	-0.287	84.768	45.799	-52.707	142.927	214.534	-53.119	-48.442	209.800	290.400	-48.853	-43.924	-44.139	-39.359	107.143	-40.168	-8191	255	
975.818	1	1	0	0	0.35814	0.33777	0.22146	0.22067	0.055076	0.02051	0.1082	0.13056	0.030574	0.11262	0.33526	0.2568	0.21272	0.16228	0.17285	0.19596	-1.4729	-2.3229	-2.3646	-2.05	-2.325	-2.2604	-2.2458	-2.6208	-1.8479	-2.2812	-2.3563	-1.8896	-2.4042	-2.2146	-1.8396	-2.6312	117.444	266.853	179.459	169.788	100.540	156.345	216.517	216.890	220.191	85.464	288.361	140.617	36.085	249.686	161.323	104.297	0.00033615	0.00070703	0.00030817	1378	1.71e-06	5.2938e-06	1361.1	366.23	8.5038e-06	5.0438e-06	419.43	138.82	120.25	41.311	8.3858e-06	51.192	0.00094724	0.00095892	0.00026822	1440	1.051e-05	1.0484e-05	1403.4	379.14	1.0345e-05	1.038e-05	437.78	173.94	127.32	43.326	1.0165e-05	53.982	-36.150	-35.284	-46.145	-52.951	104.853	152.140	-53.252	-48.546	162.605	121.951	-48.966	-43.693	-44.040	-39.390	112.002	-40.354	-8191	255	
975.939	1	1	0	0	0.44075	0.35205	0.25655	0.083538	0.19515	0.07758	0.076507	0.24206	0.11931	0.31082	0.13843	0.21934	0.25116	0.086335	0.33669	0.093433	-1.4813	-2.1792	-2.5167	-2.0083	-2.3458	-2.3438	-2.1729	-2.65	-1.9458	-2.1562	-2.3812	-2.1417	-2.3271	-2.2146	-2.1729	-2.5938	194.866	11.795	285.804	145.923	281.938	11.668	-15.669	-60.052	212.163	112.999	224.103	92.724	-46.019	229.756	40.557	271.101	0.00024747	0.00083919	8.4896e-05	1365.2	6.3589e-06	4.7907e-06	1365.2	367.31	3.6494e-06	1.0537e-05	419.82	139.58	119.89	41.183	4.0046e-06	51.319	0.00092351	0.00093419	0.00026181	1430.1	1.0213e-05	1.0194e-05	1404.2	378.9	1.0141e-05	1.0183e-05	437.56	172.73	127.14	43.365	1.0058e-05	54.09	-33.605	26.713	246.900	-53.034	51.407	59.974	-53.169	-48.135	213.297	131.339	-48.888	-44.464	-44.374	-39.272	45.915	-40.122	-8191	255	
976.033	1	1	0	0	0.26916	0.15192	0.19669	0.38689	0.1437	0.19476	0.10177	0.14154	0.067945	0.07259	0.16507	0.23019	0.22188	0.37735	0.17826	0.32191	-1.6688	-2.2062	-2.2958	-1.9792	-2.2979	-2.2979	-2.2792	-2.4729	-2.1604	-2.0083	-2.5542	-1.9042	-2.2625	-2.5771	-2.0375	-2.4625	191.689	48.008	290.667	263.227	215.243	-25.469	293.363	249.262	-18.176	231.553	55.112	229.806	-11.552	239.251	145.050	254.138	0.00049827	0.00026077	0.00012501	1369.9	5.9716e-06	4.3772e-06	1369.2	367.24	7.06e-06	1.938e-06	421.15	139.16	119.87	41.209	7.9767e-06	50.972	0.00091311	0.0009251	0.00025809	1431.6	1.0017e-05	1.0015e-05	1402.9	378.81	9.8993e-06	1.0053e-05	437.38	171.42	127.42	43.325	1.0024e-05	53.977	-7.227	-61.419	21.729	-52.800	111.685	68.132	-53.014	-48.338	91.545	188.954	-48.873	-44.303	-44.130	-39.473	72.084	-40.385	-8191	255	
976.129	1	1	0	0	0.094325	0.40386	0.10731	0.13701	0.34223	0.23375	0.26524	0.46057	0.1739	0.051511	0.04604	0.24929	0.26443	0.34752	0.10619	0.23887	-1.6792	-2.0417	-2.3917	-2.1917	-2.3438	-2.3875	-2.1208	-2.3854	-2.0854	-2.0812	-2.4708	-2.0958	-2.4604	-2.3417	-2.0583	-2.5917	-14.385	109.368	268.047	224.644	175.111	182.639	187.934	235.988	6.684	157.458	275.265	145.871	275.652	-34.799	267.998	-47.440	0.00036698	0.000303	8.1899e-05	1368.5	6.7222e-06	8.0012e-06	1367.7	367.73	3.218e-06	4.6467e-06	420.37	142.25	119.32	41.247	7.4999e-06	51.072	0.00090026	0.0009133	0.00025339	1431.1	9.8506e-06	9.8302e-06	1403.1	378.61	9.7929e-06	9.842e-06	436.66	170.17	126.66	43.328	9.8661e-06	53.936	-15.140	-60.943	-25.592	-53.097	54.028	66.555	-52.991	-48.201	276.196	72.846	-48.723	-43.621	-43.927	-39.573	8.875	-40.288	-8191	255	
976.226	1	1	0	0	0.11791	0.19931	0.095108	0.15921	0.15769	0.15257	0.32025	0.22027	0.22483	0.084101	0.24563	0.096391	0.19387	0.18662	0.29253	0.046369	-1.6521	-1.9333	-2.4375	-2.1646	-2.2812	-2.2812	-2.2479	-2.3021	-2.225	-2.0396	-2.5062	-2.0542	-2.2646	-2.5	-1.9875	-2.4792	55.928	58.770	124.696	65.756	-63.414	-52.880	262.484	225.332	145.884	-20.989	239.599	107.209	34.884	165.849	217.096	214.932	0.00036417	0.00039168	3.4414e-05	1366.7	3.404e-06	3.7546e-06	1366.5	367.35	5.6512e-06	1.1519e-05	419.63	139.16	119.66	41.207	1.2943e-05	51.259	0.000894	0.00091345	0.00025478	1433.1	9.9112e-06	9.989e-06	1401.4	378.31	9.9573e-06	1.0063e-05	437.13	171.73	126.97	43.346	9.9639e-06	53.967	-45.474	-27.415	98.087	-52.871	119.935	58.661	-53.125	-48.231	183.123	63.887	-48.770	-43.583	-44.279	-39.354	119.954	-40.366	-8191	255	
976.322	1	1	0	0	0.15534	0.10117	0.079057	0.12974	0.17306	0.12117	0.19956	0.32954	0.20542	0.0844	0.056748	0.33257	0.23961	0.048359	0.2004	0.29257	-2.0187	-1.9333	-2.4375	-2.1854	-2.0875	-2.5417	-2.0271	-2.45	-2.2771	-2.0208	-2.525	-2.1	-2.05	-2.7771	-2.2042	-2.2917	4.075	4.724	202.648	111.775	176.525	136.665	270.355	287.828	-34.228	139.263	217.193	22.287	71.478	52.953	202.330	254.360	0.00036767	0.00081074	0.00012723	1368.3	6.1686e-06	9.3414e-06	1364.5	367.67	7.6861e-06	4.9122e-06	418.11	139.15	119.61	41.22	1.5341e-05	51.204	0.00089794	0.00091691	0.00025386	1431.5	9.985e-06	1.0097e-05	1400.1	378.26	9.9902e-06	1.0069e-05	436.14	171.98	126.91	43.303	1.0098e-05	53.954	-2.392	-11.070	-25.287	-52.738	-15.768	40.623	-53.003	-48.426	10.009	158.414	-48.753	-43.649	-44.125	-39.311	46.356	-40.375	-8191	255	
976.418	1	1	0	0	0.027307	0.26855	0.17542	0.05942	0.12136	0.15664	0.20125	0.074123	0.12049	0.11841	0.16964	0.16617	0.11665	0.21962	0.17234	0.16344	-1.7208	-2.0604	-2.3771	-2.2438	-2.1562	-2.5396	-2.2313	-2.2271	-2.5062	-2.0396	-2.4917	-2.1813	-2.0333	-2.4917	-2.1104	-2.2896	6.265	170.106	-36.787	206.241	210.737	69.778	232.714	265.136	-13.245	5.450	-42.118	77.600	-13.879	227.851	-7.096	211.890	0.0004935	0.00026669	0.00036157	1367.6	3.1353e-06	4.9604e-06	1366.2	366.41	3.9259e-06	5.8806e-06	419.59	139.03	120.17	41.333	3.5342e-06	51.412	0.00091163	0.00091423	0.00025681	1432.4	1.01e-05	1.0057e-05	1402.4	378.42	9.9714e-06	1.0066e-05	437.16	172.45	126.92	43.338	9.9736e-06	53.992	-20.971	140.556	11.034	-53.059	145.307	76.582	-53.106	-48.360	-8.775	214.451	-48.762	-43.560	-43.985	-39.273	158.415	-39.994	-8191	255	
976.514	1	1	0	0	0.17598	0.20888	0.18629	0.20525	0.10282	0.23212	0.28588	0.034998	0.16895	0.21533	0.11175	0.15081	0.10456	0.047583	0.44636	0.26042	-1.9354	-1.9021	-2.1937	-2.2833	-2.0042	-2.4458	-2.3167	-2.2458	-2.3312	-2.1063	-2.5771	-2.1813	-1.9833	-2.5167	-2.2917	-2.2938	202.883	99.891	110.963	-58.659	192.830	110.711	218.615	88.119	63.477	153.029	213.166	-35.469	-61.135	-28.081	2.156	191.234	0.00050826	0.0006333	0.00014132	1360.9	5.3493e-06	7.1968e-06	1370	366.41	7.6471e-06	7.1618e-06	419.91	137.64	120.11	41.148	1.5828e-05	51.163	0.00088143	0.0009105	0.00025257	1428.8	9.9031e-06	1.004e-05	1403.9	378.29	9.9779e-06	1.0071e-05	437.22	171.64	127.12	43.326	9.9853e-06	53.98	-17.361	-53.239	2.107	-52.928	47.209	82.191	-53.125	-48.365	82.697	96.024	-48.808	-42.888	-43.832	-39.417	92.790	-40.360	-8191	255	
976.610	1	1	0	0	0.14952	0.18152	0.27657	0.19441	0.32273	0.031337	0.25287	0.15238	0.14291	0.14003	0.29764	0.12066	0.15512	0.15072	0.13598	0.23614	-2.0104	-2.1333	-2.2167	-2.2604	-1.8875	-2.45	-2.3896	-2.3312	-2.5438	-2.0687	-2.4396	-2.5354	-1.9979	-2.3333	-2.0854	-2.0938	-33.208	114.737	207.516	262.815	-13.034	255.382	270.728	235.303	10.546	-19.671	223.231	222.395	195.058	-36.115	269.776	266.551	0.00041966	0.00089141	0.0003326	1371.8	1.0903e-06	1.9133e-06	1369.4	367.22	3.3709e-06	5.4659e-06	420.22	138.44	120.18	41.284	4.0263e-06	51.195	0.00089249	0.00090922	0.00025322	1429.8	9.9705e-06	1.0017e-05	1402.3	378.24	9.9784e-06	1.003e-05	437.42	171.2	127.02	43.354	1.0087e-05	53.981	-34.784	4.009	-6.394	-53.082	58.136	57.646	-53.229	-48.468	271.116	171.875	-49.020	-43.733	-43.824	-39.395	192.188	-40.313	-8191	255	
976.731	1	1	0	0	0.32358	0.082602	0.26836	0.11117	0.11843	0.10635	0.25551	0.31211	0.14324	0.13316	0.2357	0.17498	0.070713	0.42829	0.35859	0.15238	-1.8625	-1.9542	-2.0896	-2.4313	-1.8729	-2.4333	-2.6375	-2.1562	-2.6562	-2.1083	-2.2667	-2.2208	-2.0021	-2.3479	-2.1562	-2.1521	145.874	220.480	65.972	190.992	90.522	85.192	262.346	-56.682	14.429	44.999	255.580	290.809	214.666	253.019	168.716	-37.452	0.00046154	0.00094449	0.00027709	1361.6	4.8141e-06	9.9771e-06	1366.3	367.46	8.8434e-06	1.6609e-06	420.08	139.11	120.1	41.226	3.3387e-06	51.312	0.00089617	0.00091241	0.00025316	1430.1	9.917e-06	9.9571e-06	1400.1	378.76	9.8949e-06	9.9746e-06	436.99	171.25	126.81	43.38	9.94e-06	53.968	5.784	273.391	-40.794	-53.142	95.439	57.011	-53.164	-48.314	124.934	-49.628	-48.873	-44.374	-44.116	-39.056	260.797	-40.338	-8191	255	
976.802	1	1	0	0	0.11237	0.14487	0.065889	0.16606	0.12839	0.15905	0.11136	0.2386	0.21776	0.21197	0.23252	0.091148	0.26159	0.15581	0.18115	0.28398	-2.1188	-1.9062	-2.0729	-2.6375	-2.0396	-2.3521	-2.3937	-2.0542	-2.2667	-2.1312	-2.2292	-2.2812	-2.2354	-2.4167	-2.3229	-2.2104	220.123	111.043	108.022	-25.891	52.939	263.044	-55.398	-57.075	-20.632	127.790	-46.552	-4.107	-2.143	14.614	34.810	175.334	0.00039456	0.00043972	4.4123e-05	1377.4	3.6649e-06	7.2058e-06	1370.6	366.63	5.489e-06	6.9041e-06	421.38	137.12	120.26	41.369	8.3303e-06	51.326	0.00090182	0.0009175	0.00025398	1430.7	9.9935e-06	1.0001e-05	1403.1	378.32	9.9483e-06	1.0026e-05	437.56	172.12	127.09	43.354	9.9791e-06	53.97	-19.437	280.508	-46.865	-52.907	178.645	48.988	-52.969	-48.228	270.085	17.387	-48.946	-44.225	-43.977	-39.220	141.879	-40.264	-8191	255	
976.899	1	1	0	0	0.13413	0.1595	0.18317	0.20087	0.016097	0.070811	0.064242	0.27293	0.13288	0.16923	0.11921	0.19023	0.12602	0.088777	0.038453	0.074819	-2.0271	-2.2292	-2.025	-2.5125	-2.2812	-2.1708	-2.6875	-2.1063	-2.3667	-2.2083	-1.9292	-2.3271	-2.0771	-2.2646	-2.4542	-2.0104	151.949	8.861	31.994	247.439	150.925	259.360	230.755	244.202	150.594	-14.407	17.546	-29.979	-38.513	177.974	145.581	265.601	0.00062574	0.00091927	0.00011273	1365.7	2.9842e-06	4.0909e-06	1372.5	366.84	8.4346e-06	1.4e-05	419.67	137.8	118.8	41.283	1.5395e-06	51.41	0.00090213	0.00092216	0.00025543	1430.7	1.0064e-05	1.0053e-05	1403.1	378.44	1.0035e-05	1.0136e-05	437.16	173.07	126.93	43.435	1.0112e-05	54.141	9.567	46.330	4.836	-53.077	57.113	96.989	-53.086	-48.537	260.393	86.027	-48.829	-43.506	-44.305	-39.487	-31.315	-40.132	-8191	255	
977.019	1	1	0	0	0.1792	0.141	0.19402	0.19116	0.13575	0.14233	0.15667	0.079048	0.18129	0.15695	0.12369	0.053699	0.14622	0.27126	0.068805	0.25633	-1.975	-2.0542	-2.0687	-2.4646	-2.1437	-2.3375	-2.5208	-2.2271	-2.3563	-2.3854	-2.2479	-2.3854	-2.1021	-2.2104	-2.3375	-2.1437	-37.176	125.054	144.115	174.471	101.865	151.784	207.985	227.561	7.094	-4.674	15.995	141.906	292.341	41.927	6.510	165.453	0.00034567	8.1193e-05	0.00022921	1368.4	4.9119e-06	2.6958e-06	1368.2	365.18	8.1765e-06	9.4757e-06	421.39	137.94	119.95	41.157	5.9451e-06	51.291	0.00090687	0.00092691	0.00025681	1432.7	1.008e-05	1.0135e-05	1402.1	377.94	1.0052e-05	1.0134e-05	437.99	173.03	127.33	43.415	1.0195e-05	54.092	-31.709	208.432	-43.904	-52.793	121.114	86.400	-53.169	-48.383	175.447	71.873	-48.896	-42.558	-44.083	-39.413	-31.230	-40.165	-8191	255	
977.114	1	1	0	0	0.020631	0.1389	0.20009	0.052601	0.0064605	0.11437	0.55283	0.099533	0.22198	0.061864	0.1792	0.035155	0.10538	0.08307	0.055304	0.084524	-1.8937	-2.3208	-2.2083	-2.3792	-2.2333	-2.1979	-2.6917	-2.2771	-2.5167	-2.4896	-2.2188	-2.65	-2.2646	-2.3063	-2.4104	-1.9958	25.480	-49.865	18.198	-45.813	-30.251	94.945	234.568	240.656	5.427	67.059	267.667	100.040	198.047	202.447	14.716	-10.968	0.00060247	0.0010831	0.00016061	1368	5.4241e-06	6.4576e-06	1370.1	366.69	5.9122e-06	6.5855e-06	421.84	140.34	120.77	41.245	1.0072e-05	51.402	0.00091262	0.00092324	0.00025876	1432.3	1.0072e-05	1.0062e-05	1404.7	378.58	1.0056e-05	1.0176e-05	438.54	173.11	127.48	43.443	1.016e-05	54.124	-6.306	73.701	-65.142	-53.333	70.142	37.885	-53.258	-48.371	102.598	22.422	-48.793	-43.131	-43.892	-39.406	13.406	-40.320	-8191	255	
977.210	1	1	0	0	0.10946	0.13256	0.33036	0.19848	0.38064	0.35021	0.44177	0.27172	0.25315	0.22507	0.22256	0.24337	0.25521	0.42478	0.31329	0.17871	-1.9	-2.2583	-2.1375	-2.4208	-2.2729	-2.0062	-2.6125	-2.1896	-2.1813	-2.4667	-1.9937	-2.25	-2.2812	-2.1167	-2.4042	-1.9333	273.620	215.438	55.962	248.102	95.336	-51.679	203.662	260.040	247.160	259.417	247.261	-36.112	284.648	169.018	188.512	289.304	0.00044085	0.00041458	0.00015648	1370.2	1.7354e-06	8.5872e-06	1369.3	366.26	3.0979e-06	7.426e-06	420.06	138.99	120.41	41.16	1.3048e-05	51.212	0.00091309	0.00093213	0.00026045	1433.2	1.0211e-05	1.0287e-05	1405.1	378.6	1.0213e-05	1.0356e-05	439.03	174.13	127.86	43.508	1.0218e-05	54.366	-10.980	52.201	273.911	-53.154	249.999	170.845	-53.113	-48.338	81.931	115.621	-48.968	-45.369	-43.843	-39.546	31.460	-40.411	-8191	255	
977.306	1	1	0	0	0.18995	0.12115	0.15094	0.18239	0.042431	0.042699	0.22425	0.11694	0.13048	0.054728	0.18616	0.096081	0.17401	0.023219	0.015259	0.064581	-1.5917	-2.5563	-1.8062	-2.3646	-2.3354	-1.9479	-2.6479	-2.2146	-2.1063	-2.5854	-2.0708	-2.2771	-2.3833	-2.1646	-2.2792	-2.2521	54.014	205.427	246.410	231.778	274.561	44.199	240.325	260.937	198.369	20.801	202.462	270.214	3.098	-22.011	39.695	53.079	0.00074097	0.00025141	0.00022651	1371.7	2.1746e-06	3.8469e-06	1371.5	368.01	6.9052e-06	7.9464e-06	421.79	138.82	120.17	41.579	4.7202e-06	51.327	0.00092703	0.00094716	0.00026293	1438.3	1.0167e-05	1.0307e-05	1409.2	380.07	1.0121e-05	1.0093e-05	438.49	173.25	127.73	43.652	1.0022e-05	54.221	-13.372	82.787	-46.568	-52.956	12.063	129.117	-52.992	-48.226	135.415	178.949	-48.991	-45.156	-43.986	-39.328	157.832	-40.201	-8191	255	
977.427	1	1	0	0	0.19586	0.229	0.18665	0.069298	0.23917	0.11731	0.18384	0.21568	0.24211	0.18241	0.031933	0.32071	0.13997	0.085475	0.13705	0.24606	-1.8	-2.475	-1.9062	-2.2062	-2.3771	-2.1917	-2.5771	-2.3542	-1.8958	-2.5521	-2.1625	-2.0792	-2.5062	-1.9917	-2.4125	-2.0667	225.197	41.489	17.522	-39.173	132.232	57.638	-36.933	260.397	208.650	154.267	206.200	256.267	132.682	7.986	192.555	180.012	0.00042855	0.0008305	0.00027185	1373	7.4426e-06	6.6653e-06	1371.5	367.47	4.452e-06	1.1825e-05	420	139.05	120.76	41.638	8.9802e-06	51.598	0.00090249	0.0009168	0.00025631	1435.4	9.9618e-06	1.0076e-05	1407.7	379.82	1.0091e-05	1.0198e-05	438.47	174.37	127.81	43.635	1.0258e-05	54.401	-28.637	90.269	21.367	-52.929	202.581	79.609	-52.997	-48.393	67.095	13.840	-48.829	-45.524	-44.253	-39.541	-16.862	-40.329	-8191	255	
977.498	1	1	0	0	0.27644	0.096202	0.34225	0.16054	0.23358	0.35037	0.414	0.20734	0.086313	0.078141	0.073896	0.1769	0.22224	0.30919	0.026565	0.23749	-1.5979	-2.4708	-2.0521	-2.2021	-2.3583	-2.0687	-2.45	-2.5604	-2.1896	-2.3479	-2.2062	-2.2417	-2.5104	-2.1437	-2.4437	-2.4542	97.971	180.889	6.903	146.780	287.727	16.166	226.986	257.362	252.104	76.540	103.903	69.322	220.713	279.799	217.214	196.022	0.00045708	0.00077403	0.00020582	1386	4.2612e-06	3.7721e-06	1373.4	368.07	8.8573e-06	9.9168e-06	421.01	139.02	120.77	41.264	2.5787e-06	51.492	0.00093445	0.00094903	0.00026421	1442.7	1.046e-05	1.0517e-05	1409.9	380.2	1.0498e-05	1.0627e-05	440.13	176.17	128.24	43.635	1.055e-05	54.473	-6.860	-14.578	-24.162	-53.175	114.696	284.640	-53.108	-48.104	51.348	-9.368	-48.872	-43.762	-44.109	-39.378	32.657	-40.298	-8191	255	
977.619	1	1	0	0	0.3572	0.12923	0.016118	0.18617	0.11188	0.28615	0.15011	0.14206	0.13156	0.31079	0.1328	0.18589	0.19275	0.17351	0.064996	0.044022	-1.5063	-2.5667	-1.9542	-2.2583	-2.5979	-2.1125	-2.5667	-2.6021	-2.0687	-2.5854	-2.2729	-2.2896	-2.6813	-2.0042	-2.5187	-2.3917	52.054	120.412	50.416	-29.981	183.600	39.100	-47.209	218.117	90.888	148.700	-40.404	30.788	154.183	153.381	265.338	67.797	0.00061933	0.00048203	0.00011456	1366.7	8.3315e-07	7.4437e-06	1374.2	367.47	4.7973e-06	9.8431e-06	422.09	137.34	120.5	41.441	4.3579e-06	51.222	0.00094533	0.00096262	0.00026834	1438.9	1.0471e-05	1.0568e-05	1409.7	380.32	1.0377e-05	1.052e-05	439.59	176.07	128.39	43.692	1.0549e-05	54.446	-3.091	291.657	15.921	-52.892	194.687	41.703	-52.990	-48.178	-35.830	82.022	-48.844	-43.192	-43.950	-39.359	86.789	-40.442	-8191	255	
977.715	1	1	0	0	0.22304	0.16308	0.022127	0.36198	0.14677	0.12084	0.11685	0.17185	0.058241	0.05761	0.29277	0.31795	0.19291	0.2933	0.22158	0.10043	-1.5167	-2.3812	-2.1333	-2.1188	-2.4396	-2.1354	-2.4646	-2.6083	-1.9396	-2.3375	-2.5229	-2.2	-2.6437	-2.0854	-2.3063	-2.5812	61.839	254.007	196.083	258.426	222.642	252.632	221.523	210.929	-2.237	238.195	-19.939	142.987	35.103	126.633	43.823	161.566	0.00055739	0.00091296	0.00029121	1376	3.2709e-06	5.325e-06	1373.1	368.65	5.587e-06	3.0734e-06	423.38	139.03	120.7	41.436	1.1335e-05	51.744	0.00095841	0.00096348	0.00027038	1444.1	1.0617e-05	1.0605e-05	1412.5	380.78	1.0548e-05	1.0685e-05	440.31	175.53	128.21	43.762	1.0514e-05	54.546	6.282	36.640	-6.891	-53.131	153.538	-22.779	-53.393	-48.340	116.690	207.479	-49.237	-42.896	-44.002	-39.512	20.760	-40.114	-8191	255	
977.811	1	1	0	0	0.098633	0.22228	0.089909	0.21734	0.3126	0.27944	0.25682	0.22631	0.2051	0.29427	0.39143	0.14404	0.063754	0.37735	0.16975	0.31127	-1.5333	-2.2354	-2.2687	-2.1479	-2.3688	-2.1521	-2.3271	-2.6292	-2.1542	-2.1667	-2.2979	-2.1063	-2.6562	-2.2167	-2.0771	-2.6271	130.188	-46.920	234.188	286.668	-41.456	-0.971	281.876	-60.299	-46.214	130.689	84.112	-27.146	103.000	258.132	219.408	198.130	0.00061391	0.00040091	0.00014503	1374	5.0801e-06	3.7747e-06	1372.4	367.27	1.5185e-05	4.8238e-06	420.61	138.52	120.91	41.465	2.1469e-06	51.424	0.00095522	0.00097601	0.00027191	1443.7	1.06e-05	1.0652e-05	1411.2	380.22	1.0529e-05	1.0608e-05	439.61	176.16	128.3	43.766	1.0379e-05	54.436	-48.885	200.805	-4.046	-52.920	64.034	122.070	-53.017	-48.335	177.635	-16.905	-48.786	-43.403	-44.133	-39.291	-33.965	-40.297	-8191	255	
977.907	1	1	0	0	0.19658	0.15796	0.26204	0.11711	0.20344	0.10098	0.28799	0.35261	0.09088	0.22758	0.18802	0.03318	0.18219	0.1662	0.17159	0.17817	-1.7708	-2.1625	-2.4542	-1.8813	-2.2417	-2.2646	-2.3625	-2.5938	-2.1604	-2.2687	-2.5146	-2.0417	-2.4562	-2.4479	-2.3083	-2.5271	90.582	260.929	164.026	2.209	234.562	51.861	249.735	218.811	-37.147	129.864	-54.180	-9.536	250.219	-53.533	29.574	289.179	0.00072905	0.00056847	0.00025612	1369.1	1.0251e-06	7.2641e-06	1369.2	368.61	3.8469e-06	8.6278e-06	421.21	139	121.42	41.584	9.3222e-06	51.478	0.00094123	0.00095798	0.00026622	1441	1.0441e-05	1.053e-05	1408.7	380.74	1.0384e-05	1.0578e-05	439.61	176.19	128.39	43.758	1.0514e-05	54.478	-24.509	37.839	8.209	-52.934	28.036	16.744	-53.044	-48.280	87.349	58.905	-48.903	-43.614	-43.785	-39.497	68.708	-40.135	-8191	255	
978.026	1	1	0	0	0.17203	0.15234	0.16558	0.17768	0.041515	0.29661	0.27555	0.17626	0.18242	0.054405	0.24297	0.18499	0.16317	0.43774	0.18589	0.2158	-1.5833	-2.1417	-2.3875	-2.0292	-2.4	-2.2562	-2.1542	-2.6271	-2.1229	-2.2521	-2.425	-2.025	-2.4083	-2.3833	-2.0312	-2.4771	291.742	112.790	79.570	-3.724	228.456	151.139	265.443	63.336	177.443	115.535	-65.205	94.385	278.407	-28.960	187.886	255.501	0.00052489	0.00031761	0.00016384	1373.5	2.803e-06	6.326e-06	1371.9	368.31	9.0985e-06	1.3351e-06	423.27	140.9	120.91	41.54	6.8072e-06	51.422	0.00094187	0.00095995	0.0002662	1441	1.0429e-05	1.0548e-05	1410.3	380.82	1.0432e-05	1.051e-05	439.79	175.74	128.25	43.716	1.049e-05	54.452	-3.098	8.851	35.741	-53.070	-43.759	32.433	-52.958	-48.326	51.101	45.207	-49.071	-43.381	-43.814	-39.422	50.790	-40.198	-8191	255	
978.098	1	1	0	0	0.46626	0.14584	0.15636	0.041964	0.21243	0.28562	0.25742	0.14292	0.16352	0.30942	0.30126	0.19512	0.10133	0.14395	0.10761	0.082393	-1.5479	-2.2958	-2.2792	-2.0271	-2.2021	-2.3479	-2.2354	-2.5812	-2.2333	-2.0312	-2.525	-1.8125	-2.3896	-2.5479	-1.8687	-2.4729	138.244	8.560	35.968	291.065	-19.214	187.118	-22.583	270.375	2.135	177.579	178.445	-1.548	10.632	170.369	171.071	215.054	0.00070413	0.0007673	0.00017254	1379.9	3.4591e-06	7.0878e-06	1377.2	367.29	1.1376e-05	4.672e-06	419.67	137.75	120.44	41.5	4.0296e-06	51.784	0.00094601	0.00095504	0.00026753	1441.6	1.04e-05	1.0472e-05	1412.3	380.43	1.0267e-05	1.0375e-05	438.98	174.74	128.14	43.655	1.0303e-05	54.433	-29.907	60.139	184.976	-53.106	109.168	88.394	-53.046	-48.336	65.001	69.204	-48.939	-42.930	-44.078	-39.150	143.083	-40.161	-8191	255	
978.194	1	1	0	0	0.041118	0.31451	0.1724	0.21929	0.39273	0.14141	0.27284	0.10268	0.20658	0.19085	0.20507	0.059047	0.18411	0.1944	0.1416	0.17304	-1.6792	-2.0354	-2.4208	-2.2	-2.3812	-2.45	-2.3271	-2.5583	-2.2083	-2.1188	-2.7542	-2.1042	-2.1646	-2.5667	-1.925	-2.4938	283.005	232.870	19.502	-7.312	267.317	-56.329	203.320	205.661	278.644	-33.779	218.682	250.777	275.387	-47.255	53.900	173.609	0.00056776	0.00039673	6.4487e-05	1364	5.5702e-06	5.4258e-06	1375.1	367.37	7.9907e-06	7.3494e-06	421.46	137.96	120.35	41.544	1.0782e-05	51.231	0.00093272	0.0009467	0.00026332	1440.5	1.0257e-05	1.0361e-05	1411.4	380.22	1.0384e-05	1.0452e-05	439.15	175.74	127.93	43.707	1.0331e-05	54.317	1.353	4.098	287.111	-52.764	-40.195	60.763	-53.188	-48.120	168.970	64.752	-49.105	-44.190	-43.967	-39.428	162.527	-40.409	-8191	255	
978.290	1	1	0	0	0.25768	0.39577	0.22354	0.22758	0.33782	0.12288	0.40753	0.083115	0.12906	0.13951	0.19654	0.165	0.24788	0.13262	0.32757	0.20108	-1.925	-2.0604	-2.4479	-2.175	-2.3	-2.425	-2.2438	-2.3979	-2.2333	-2.0667	-2.6188	-2.0396	-2.2771	-2.5812	-2.0187	-2.3458	156.466	-53.152	141.503	245.430	-6.034	77.207	189.688	158.582	125.803	-26.546	261.894	-22.241	282.656	217.356	39.703	214.173	0.00053486	0.00072374	5.1976e-05	1366.2	1.6339e-06	2.391e-06	1373.3	368.98	5.4853e-06	5.5526e-06	423.08	138.69	120.9	41.578	8.994e-06	51.596	0.00093931	0.00095716	0.00026799	1439.5	1.0493e-05	1.051e-05	1410	380.64	1.0415e-05	1.0574e-05	439.74	176.27	128.08	43.722	1.0374e-05	54.429	-19.070	15.871	196.804	-52.853	216.806	-15.154	-53.040	-48.236	199.013	90.496	-48.998	-43.393	-44.073	-39.211	7.133	-40.173	-8191	255	
978.411	1	1	0	0	0.24336	0.061382	0.1216	0.38585	0.10137	0.021423	0.32	0.17811	0.099445	0.13095	0.32767	0.27009	0.2351	0.15283	0.076171	0.14493	-1.8146	-1.8833	-2.4417	-2.1771	-2.0062	-2.4771	-2.3646	-2.375	-2.5521	-2.1188	-2.7625	-2.1896	-1.9688	-2.5417	-2.0271	-2.4229	40.636	157.050	268.663	-24.362	198.088	284.813	212.765	286.629	-62.738	103.382	211.139	149.909	288.040	261.216	109.918	105.429	0.00054776	0.00079523	0.00030296	1378.7	5.483e-06	6.7185e-06	1377.9	368.15	5.2804e-06	1.3417e-05	423.55	136.85	120.19	41.523	6.1359e-06	51.594	0.00094218	0.00096245	0.00026655	1442.1	1.0464e-05	1.0531e-05	1411.5	381.07	1.0472e-05	1.0579e-05	440.35	176.64	128.11	43.744	1.0629e-05	54.505	0.093	1.031	6.548	-53.436	215.137	87.901	-53.252	-48.350	-3.663	53.958	-49.180	-43.276	-44.136	-39.500	94.772	-40.638	-8191	255	
978.507	1	1	0	0	0.21119	0.32337	0.24389	0.15148	0.20431	0.1041	0.25876	0.1477	0.083365	0.050197	0.10076	0.16073	0.17538	0.089345	0.40467	0.24252	-1.8083	-2.0896	-2.3375	-2.2208	-2.2167	-2.3771	-2.2271	-2.2896	-2.5	-1.9146	-2.6167	-2.1125	-2.1396	-2.6646	-2.2708	-2.2917	267.040	83.800	-5.938	248.952	230.646	94.135	-61.415	229.688	-48.800	137.975	265.534	264.479	211.823	87.115	-65.220	196.738	0.00061762	0.00061437	0.00027126	1376.6	6.6513e-06	7.2438e-06	1374.3	368.18	5.3924e-06	7.1296e-06	422.18	142.96	120.68	41.636	3.077e-06	51.445	0.00095369	0.00096502	0.00026766	1442.9	1.0591e-05	1.0623e-05	1411.4	380.85	1.0655e-05	1.0744e-05	440.64	177.97	128.23	43.775	1.0538e-05	54.443	-23.619	15.414	-41.729	-52.801	-37.393	9.766	-53.177	-48.439	61.306	48.582	-48.962	-42.489	-44.293	-39.430	261.734	-40.218	-8191	255	
978.603	1	1	0	0	0.080075	0.0097865	0.39096	0.15803	0.0084006	0.11753	0.15265	0.028766	0.19993	0.17937	0.10718	0.29292	0.087546	0.26537	0.10538	0.097459	-1.8813	-1.9937	-2.4917	-2.1583	-2.0208	-2.4208	-2.4896	-2.5563	-2.2542	-2.1104	-2.275	-2.4354	-1.9646	-2.4604	-2.175	-2.3875	77.842	58.531	216.253	248.837	-0.078	92.735	-17.270	29.424	-55.395	61.126	240.124	247.481	-49.702	93.900	152.167	282.861	0.00024815	0.00056313	0.00032691	1373.8	4.8369e-06	8.1803e-06	1371.4	367.71	2.5271e-06	9.1811e-06	421.96	140.4	120.36	41.61	5.1245e-06	51.551	0.00094748	0.00095766	0.00026773	1442.2	1.0327e-05	1.0413e-05	1412.1	380.47	1.0286e-05	1.0341e-05	440.18	174.58	127.97	43.799	1.0295e-05	54.508	-27.850	100.905	-64.992	-52.935	-53.819	37.136	-53.066	-48.529	-17.627	72.548	-49.265	-43.028	-44.186	-39.260	97.310	-40.403	-8191	255	
978.699	1	1	0	0	0.0494	0.095927	0.28678	0.045047	0.13619	0.12269	0.38776	0.19567	0.15125	0.27226	0.31491	0.2246	0.065007	0.10937	0.17194	0.067729	-2.0542	-1.9937	-2.2208	-2.4917	-2.1562	-2.3458	-2.3792	-2.2396	-2.5271	-2.1479	-2.3396	-2.1063	-2.0104	-2.4542	-2.1521	-2.0958	41.035	233.062	-35.070	87.405	256.327	63.313	270.267	246.160	238.386	75.728	260.876	288.833	282.393	214.682	164.287	263.781	0.00045861	0.00042369	3.6855e-05	1375.7	3.2646e-06	1.2252e-06	1376.2	369.94	1.0835e-05	4.3334e-06	423.46	141.47	120.65	41.644	2.5012e-06	51.577	0.00091949	0.00093763	0.00026217	1444.9	1.0152e-05	1.0202e-05	1413	381.26	1.0053e-05	1.0064e-05	440.21	172.74	128.04	43.861	9.9963e-06	54.439	-38.981	232.326	81.245	-52.962	71.084	12.694	-53.123	-48.315	133.282	63.082	-48.880	-43.217	-44.290	-39.535	36.303	-40.226	-8191	255	
978.795	1	1	0	0	0.081188	0.11707	0.073976	0.13502	0.16676	0.1933	0.11736	0.26432	0.18873	0.19454	0.16003	0.23306	0.17199	0.1994	0.17629	0.13853	-1.8979	-2.0479	-2.2771	-2.4271	-1.8167	-2.2958	-2.4708	-2.2229	-2.4542	-1.9688	-2.1875	-2.2729	-1.8604	-2.4083	-2.2917	-2.1333	173.677	-43.434	12.315	101.158	44.050	105.146	226.013	238.379	-60.842	192.431	18.113	107.842	198.949	230.332	173.315	206.642	0.0004722	0.00086598	0.00017828	1376.4	6.7133e-06	2.544e-06	1378.6	367.97	1.0268e-05	3.9596e-06	425.31	141.5	120.51	41.614	8.8994e-06	51.909	0.00090051	0.00091927	0.00025505	1439	1.0111e-05	1.008e-05	1412.1	381.07	1.0176e-05	1.0219e-05	440.65	174.54	128.25	43.804	1.0209e-05	54.583	2.397	-4.120	36.845	-52.899	99.746	-64.735	-53.091	-48.391	208.375	21.759	-48.693	-44.033	-43.858	-39.511	58.665	-40.140	-8191	255	
978.892	1	1	0	0	0.142	0.41686	0.19797	0.088488	0.17361	0.25286	0.37846	0.47142	0.076138	0.14974	0.18949	0.038039	0.23585	0.14836	0.17832	0.32391	-1.9333	-2.1833	-2.1188	-2.3688	-1.85	-2.3521	-2.4188	-2.0729	-2.4354	-2.1375	-2.1333	-2.5542	-1.9458	-2.2833	-2.4646	-2.0271	54.377	-26.233	251.831	225.459	273.470	34.518	215.491	243.469	46.116	73.193	-18.114	-28.425	264.105	0.689	82.368	23.142	0.00019489	0.00074419	0.00030526	1374.8	5.2719e-06	2.4945e-06	1378.6	368	1.1141e-05	2.2072e-06	421.87	137.59	120.95	41.564	1.3795e-05	51.472	0.00092706	0.00094711	0.00026464	1443.3	1.0338e-05	1.0338e-05	1413.5	380.55	1.0244e-05	1.0342e-05	439.99	173.92	128.37	43.79	1.0282e-05	54.453	-32.656	0.043	21.894	-52.949	93.614	196.834	-53.121	-48.294	132.911	95.011	-48.699	-43.771	-44.011	-39.509	41.553	-40.215	-8191	255	
978.988	1	1	0	0	0.26688	0.14326	0.12254	0.17847	0.18452	0.16107	0.31569	0.13751	0.28339	0.1104	0.010848	0.24415	0.079868	0.25797	0.073399	0.041408	-1.9917	-2.1708	-1.9542	-2.5417	-2.1979	-2.3333	-2.5104	-2.1292	-2.3708	-2.3271	-2.0563	-2.5667	-2.2562	-2.2792	-2.4521	-2.0271	132.545	204.915	100.232	56.984	102.060	-17.103	185.065	284.493	147.659	65.572	138.578	137.635	78.448	273.332	25.271	232.809	0.00056769	0.00068251	0.00012069	1373.3	5.085e-06	1.241e-05	1376.3	367.94	5.2961e-06	6.4556e-06	423.05	137.69	121.3	41.576	7.0417e-06	51.308	0.00092471	0.00094708	0.00026168	1440.9	1.023e-05	1.0281e-05	1411.8	380.59	1.0211e-05	1.0305e-05	440.13	174.79	128.53	43.708	1.0293e-05	54.391	-7.171	270.967	227.216	-53.064	162.980	44.959	-53.202	-48.185	-0.799	69.674	-48.484	-43.441	-44.103	-39.370	89.843	-40.333	-8191	255	
979.107	1	1	0	0	0.24448	0.18055	0.11378	0.19868	0.25903	0.09173	0.43405	0.10994	0.2133	0.27072	0.21298	0.19124	0.2326	0.35954	0.14783	0.018637	-1.7917	-2.2042	-2.0542	-2.5312	-2.1729	-2.1188	-2.5979	-2.3	-2.4083	-2.2896	-2.0104	-2.2812	-2.0625	-2.2042	-2.4458	-2.2417	-63.761	197.663	94.845	-60.469	145.650	173.478	252.275	268.738	-20.278	285.681	276.915	274.222	267.448	281.455	-58.624	-59.353	0.00032539	0.00038479	0.00015595	1379.3	6.1697e-06	1.2022e-05	1371.1	368.41	3.9126e-06	4.3782e-06	421.99	138.94	120.06	41.599	2.4231e-06	51.588	0.00092757	0.00095198	0.00026481	1443.5	1.0401e-05	1.0439e-05	1412.8	381.41	1.0516e-05	1.0672e-05	440.5	176.96	128.06	43.862	1.0602e-05	54.45	-6.132	123.908	-44.421	-52.821	133.530	79.531	-53.233	-48.348	200.527	56.459	-48.730	-42.551	-43.846	-39.399	87.712	-40.198	-8191	255	
979.203	1	1	0	0	0.19588	0.06671	0.25722	0.23012	0.12367	0.21775	0.28714	0.14487	0.057859	0.13621	0.25459	0.15474	0.3081	0.064637	0.22191	0.20806	-1.9229	-2.2125	-1.9688	-2.4	-2.3271	-2.1562	-2.6375	-2.3187	-2.1437	-2.4792	-1.8646	-2.2604	-2.2188	-2.0458	-2.2438	-2.25	91.274	201.730	119.319	261.144	174.549	195.999	232.295	-42.321	257.654	-55.664	270.158	255.674	23.014	284.372	-50.845	196.720	0.00034164	0.00041968	6.8336e-05	1366.4	5.5843e-06	2.5274e-06	1372.6	368.74	7.8288e-06	1.2313e-05	422.8	138.9	120.37	41.508	9.5346e-06	51.622	0.00094626	0.00095993	0.00026658	1440.8	1.0414e-05	1.0508e-05	1412.3	381.3	1.0325e-05	1.0444e-05	439.94	175.25	128.15	43.754	1.0386e-05	54.484	-28.546	95.704	-7.522	-52.927	128.711	42.359	-53.138	-48.085	168.509	96.376	-48.770	-42.599	-44.606	-39.572	82.307	-40.267	-8191	255	
979.299	1	1	0	0	0.23713	0.30778	0.19204	0.063761	0.092617	0.15276	0.082536	0.22204	0.24617	0.17075	0.13811	0.029635	0.27583	0.17933	0.24759	0.26195	-1.8667	-2.2979	-2.0292	-2.5625	-2.2062	-1.9208	-2.6396	-2.2458	-2.0812	-2.3792	-2.0292	-2.2771	-2.2188	-1.9896	-2.4333	-2.1125	-63.000	220.184	-34.734	262.027	136.419	91.971	244.320	220.500	65.032	39.741	269.598	282.003	292.074	171.215	127.519	265.396	0.00051494	0.00017238	0.00012995	1373	6.3566e-06	9.4035e-06	1378.5	367.12	3.1557e-06	1.0222e-05	422.57	142.87	120.92	41.66	4.7075e-06	51.613	0.00093486	0.00095065	0.00026544	1440.8	1.0385e-05	1.0344e-05	1414.9	381.27	1.0339e-05	1.0382e-05	440.65	175.57	128.45	43.739	1.0233e-05	54.412	-3.573	-56.110	139.362	-53.198	72.426	47.685	-53.085	-48.079	-62.865	43.728	-49.076	-43.259	-43.957	-39.342	155.604	-40.294	-8191	255	
979.395	1	1	0	0	0.11768	0.063356	0.10346	0.14394	0.11618	0.10426	0.082616	0.36861	0.049668	0.20256	0.27746	0.15551	0.19636	0.20974	0.16031	0.15425	-1.7687	-2.2021	-1.9792	-2.1	-2.3771	-1.9854	-2.6604	-2.2917	-2.2667	-2.3271	-2.3458	-2.1396	-2.3208	-1.9583	-2.6562	-2.2417	12.101	23.923	9.498	239.923	209.721	133.908	209.274	275.762	279.510	198.003	-34.354	-30.852	150.512	283.351	-41.280	281.634	0.00063692	0.00082929	0.00028274	1379.6	3.2002e-06	8.9261e-06	1376.7	369.3	7.7701e-06	5.6995e-06	422.7	140.79	120.88	41.44	1.7015e-06	51.571	0.00092329	0.0009336	0.00025883	1440.7	1.0208e-05	1.0169e-05	1412.3	380.35	1.011e-05	1.0189e-05	439.55	173.2	127.84	43.652	1.0131e-05	54.43	-3.712	-0.319	-21.211	-52.797	223.849	47.351	-53.117	-48.327	169.623	160.265	-49.047	-43.138	-43.873	-39.480	114.823	-40.335	-8191	255	
979.491	1	1	0	0	0.11703	0.10565	0.17492	0.24114	0.099107	0.16825	0.37846	0.14654	0.10374	0.13339	0.19298	0.083679	0.12108	0.21935	0.10824	0.22361	-1.7104	-2.2229	-1.7875	-2.2062	-2.4542	-1.9813	-2.6896	-2.1604	-2.2208	-2.25	-2.1417	-2.2083	-2.4542	-2.0167	-2.4042	-2.1437	289.426	214.346	-60.894	194.808	76.303	133.235	261.248	232.956	188.806	266.222	288.759	107.150	5.942	157.496	126.612	241.698	0.00013772	0.00040392	0.00030209	1373.4	2.794e-06	7.9572e-06	1372.6	368.32	4.5644e-06	6.0633e-06	421.8	140.9	120.62	41.666	2.6487e-06	51.511	0.00091228	0.00092896	0.00026056	1440.9	1.0147e-05	1.0191e-05	1410	380.54	1.0098e-05	1.0157e-05	439.69	173.43	127.66	43.743	1.0077e-05	54.257	-17.766	32.233	-31.468	-52.786	278.090	86.596	-53.026	-48.313	160.733	42.056	-48.953	-42.620	-43.892	-39.295	229.160	-40.157	-8191	255	
#DATA ENDS
