BOXY.EXE: ISS Imagent and Oximeter Data Acquisition Program Version 0.80
Ascii Record File

#ACQ INFORMATION
2  Detector Channels 
16  External MUX Channels 
1  Auxiliary Channels 
5000  Waveform (CCF) Frequency (Hz)
1  Waveforms Skipped 
30  Waveforms Averaged 
1  Cycles Averaged 
16  Acquisitions per Waveform 
10.0806  Updata Rate (Hz) 

#FILE INFORMATION
TRUE -- External MUX Channel results are PARSED.
FALSE -- AC DC and Phase are NOT grouped.
TRUE -- Companion Program Settings File CREATED.
FALSE -- AC data not excluded
FALSE -- DC data not excluded
FALSE -- Phase data not excluded
FALSE -- Auxillary Chn. data not excluded
Tab delimiters

#CALIBRATION STATE
TRUE -- Waveform Calibration Values APPLIED.


#AUX CALIBRATION VALUES
Val Type	aux-1	

Term	1.0000e+00	
Factor	0.0000e+00	


#WF CALIBRATION VALUES
A = Detector Channel
Val Type	A-AC1	A-AC2	A-AC3	A-AC4	A-AC5	A-AC6	A-AC7	A-AC8	A-AC9	A-AC10	A-AC11	A-AC12	A-AC13	A-AC14	A-AC15	A-AC16	A-DC1	A-DC2	A-DC3	A-DC4	A-DC5	A-DC6	A-DC7	A-DC8	A-DC9	A-DC10	A-DC11	A-DC12	A-DC13	A-DC14	A-DC15	A-DC16	A-Ph1	A-Ph2	A-Ph3	A-Ph4	A-Ph5	A-Ph6	A-Ph7	A-Ph8	A-Ph9	A-Ph10	A-Ph11	A-Ph12	A-Ph13	A-Ph14	A-Ph15	A-Ph16	

Term	0.00000e+00	0.00000e+00	0.00000e+00	0.00000e+00	0.00000e+00	0.00000e+00	0.00000e+00	0.00000e+00	0.00000e+00	0.00000e+00	0.00000e+00	0.00000e+00	0.00000e+00	0.00000e+00	0.00000e+00	0.00000e+00	0.00000e+00	0.00000e+00	0.00000e+00	0.00000e+00	0.00000e+00	0.00000e+00	0.00000e+00	0.00000e+00	0.00000e+00	0.00000e+00	0.00000e+00	0.00000e+00	0.00000e+00	0.00000e+00	0.00000e+00	0.00000e+00	0.00000e+00	0.00000e+00	0.00000e+00	0.00000e+00	0.00000e+00	0.00000e+00	0.00000e+00	0.00000e+00	0.00000e+00	0.00000e+00	0.00000e+00	0.00000e+00	0.00000e+00	0.00000e+00	0.00000e+00	0.00000e+00	
Factor	1.00000e+00	1.00000e+00	1.00000e+00	1.00000e+00	1.00000e+00	1.00000e+00	1.00000e+00	1.00000e+00	1.00000e+00	1.00000e+00	1.00000e+00	1.00000e+00	1.00000e+00	1.00000e+00	1.00000e+00	1.00000e+00	1.00000e+00	1.00000e+00	1.00000e+00	1.00000e+00	1.00000e+00	1.00000e+00	1.00000e+00	1.00000e+00	1.00000e+00	1.00000e+00	1.00000e+00	1.00000e+00	1.00000e+00	1.00000e+00	1.00000e+00	1.00000e+00	X	X	X	X	X	X	X	X	X	X	X	X	X	X	X	X	

B = Detector Channel
Val Type	B-AC1	B-AC2	B-AC3	B-AC4	B-AC5	B-AC6	B-AC7	B-AC8	B-AC9	B-AC10	B-AC11	B-AC12	B-AC13	B-AC14	B-AC15	B-AC16	B-DC1	B-DC2	B-DC3	B-DC4	B-DC5	B-DC6	B-DC7	B-DC8	B-DC9	B-DC10	B-DC11	B-DC12	B-DC13	B-DC14	B-DC15	B-DC16	B-Ph1	B-Ph2	B-Ph3	B-Ph4	B-Ph5	B-Ph6	B-Ph7	B-Ph8	B-Ph9	B-Ph10	B-Ph11	B-Ph12	B-Ph13	B-Ph14	B-Ph15	B-Ph16	

Term	0.00000e+00	0.00000e+00	0.00000e+00	0.00000e+00	0.00000e+00	0.00000e+00	0.00000e+00	0.00000e+00	0.00000e+00	0.00000e+00	0.00000e+00	0.00000e+00	0.00000e+00	0.00000e+00	0.00000e+00	0.00000e+00	0.00000e+00	0.00000e+00	0.00000e+00	0.00000e+00	0.00000e+00	0.00000e+00	0.00000e+00	0.00000e+00	0.00000e+00	0.00000e+00	0.00000e+00	0.00000e+00	0.00000e+00	0.00000e+00	0.00000e+00	0.00000e+00	5.02154e+01	-1.32405e+02	-1.47391e+02	-1.83881e+02	-8.20819e+01	-8.66762e+01	-1.57075e+02	-1.62015e+02	-7.94944e+01	-6.27886e+01	-1.70957e+02	-1.80827e+02	-1.85561e+02	-1.77392e+02	-9.92128e+01	-1.49845e+02	
Factor	5.63882e-05	1.67542e-04	4.49109e-05	4.66696e-01	1.40981e-06	1.64914e-06	1.77017e-01	5.24616e-02	2.06034e-06	1.99947e-06	9.54699e-02	4.98864e-01	4.32062e-02	9.42584e-03	1.90913e-06	1.39813e-02	1.79557e-06	1.86772e-06	5.19171e-07	2.26299e-01	2.03251e-08	2.04394e-08	8.27099e-02	2.63328e-02	2.02657e-08	2.04744e-08	4.59338e-02	1.56454e-01	2.12334e-02	4.72644e-03	2.03343e-08	6.74301e-03	X	X	X	X	X	X	X	X	X	X	X	X	X	X	X	X	



#DISTANCE SETTINGS
A = Detector Channel
A-1	A-2	A-3	A-4	A-5	A-6	A-7	A-8	A-9	A-10	A-11	A-12	A-13	A-14	A-15	A-16	

2.5000e+00	3.0000e+00	2.5000e+00	3.0000e+00	2.0000e+00	3.0000e+00	1.5000e+00	3.0000e+00	3.0000e+00	3.0000e+00	3.0000e+00	3.0000e+00	3.0000e+00	3.0000e+00	1.5000e+00	3.0000e+00	

B = Detector Channel
B-1	B-2	B-3	B-4	B-5	B-6	B-7	B-8	B-9	B-10	B-11	B-12	B-13	B-14	B-15	B-16	

1.0000e+01	1.0000e+01	1.0000e+01	1.4400e+00	1.0000e+01	1.0000e+01	1.5100e+00	1.9400e+00	1.0000e+01	1.0000e+01	1.9900e+00	2.4900e+00	2.4100e+00	2.9000e+00	1.0000e+01	2.9800e+00	




#DATA BEGINS
time	group	step	mark	flag	A-AC1	A-AC2	A-AC3	A-AC4	A-AC5	A-AC6	A-AC7	A-AC8	A-AC9	A-AC10	A-AC11	A-AC12	A-AC13	A-AC14	A-AC15	A-AC16	A-DC1	A-DC2	A-DC3	A-DC4	A-DC5	A-DC6	A-DC7	A-DC8	A-DC9	A-DC10	A-DC11	A-DC12	A-DC13	A-DC14	A-DC15	A-DC16	A-Ph1	A-Ph2	A-Ph3	A-Ph4	A-Ph5	A-Ph6	A-Ph7	A-Ph8	A-Ph9	A-Ph10	A-Ph11	A-Ph12	A-Ph13	A-Ph14	A-Ph15	A-Ph16	B-AC1	B-AC2	B-AC3	B-AC4	B-AC5	B-AC6	B-AC7	B-AC8	B-AC9	B-AC10	B-AC11	B-AC12	B-AC13	B-AC14	B-AC15	B-AC16	B-DC1	B-DC2	B-DC3	B-DC4	B-DC5	B-DC6	B-DC7	B-DC8	B-DC9	B-DC10	B-DC11	B-DC12	B-DC13	B-DC14	B-DC15	B-DC16	B-Ph1	B-Ph2	B-Ph3	B-Ph4	B-Ph5	B-Ph6	B-Ph7	B-Ph8	B-Ph9	B-Ph10	B-Ph11	B-Ph12	B-Ph13	B-Ph14	B-Ph15	B-Ph16	aux-1	digaux	

888.091	1	1	0	256	0.22994	0.28708	0.087322	0.29926	0.16544	0.25144	0.31316	0.047605	0.17092	0.2098	0.16634	0.23021	0.17632	0.17175	0.034599	0.10995	-1.7437	-2.2271	-1.8479	-2.4042	-2.2625	-2.1146	-2.65	-2.1562	-2.1896	-2.6542	-2.0396	-2.1875	-2.3271	-2.1813	-2.4104	-2.0583	15.911	-53.546	-36.780	247.874	-55.522	-10.819	258.605	88.455	201.486	270.905	296.081	185.792	265.369	228.385	-39.163	152.807	4.2732e-05	0.00060651	0.00010369	1113.5	7.9149e-06	2.4536e-06	1207.7	229.86	4.3662e-06	1.5026e-06	292.79	79.524	62.694	18.598	4.1201e-06	25.502	0.00059451	0.00061074	0.00017028	1119.4	6.6573e-06	6.7402e-06	1197.3	233.2	6.6747e-06	6.6526e-06	296.73	106.58	66.921	19.65	6.6691e-06	27.178	16.158	-21.282	28.812	-51.236	-7.317	-16.406	-51.254	-43.637	154.364	157.877	-44.305	-36.991	-37.480	-29.909	98.412	-30.689	-8191	255	
888.211	1	1	0	0	0.25316	0.40689	0.22396	0.20677	0.23726	0.12433	0.16224	0.19848	0.10308	0.076806	0.13401	0.1312	0.14519	0.1644	0.13584	0.094394	-1.6417	-2.1542	-1.9	-2.4875	-2.4708	-1.9208	-2.6979	-2.2083	-2.1562	-2.4062	-2.2521	-2.2729	-2.3771	-2.0521	-2.5979	-2.2854	263.604	43.598	296.076	-22.196	-17.794	49.719	-43.317	204.279	133.167	-58.259	-31.854	-45.374	27.675	-25.427	18.235	-36.885	0.0001814	0.00033122	0.00013167	1116.5	4.9327e-06	3.7374e-06	1206.2	231.02	3.1234e-06	9.0569e-06	292.67	79.867	62.696	18.322	6.5788e-06	25.637	0.00059817	0.00060135	0.00016841	1121.5	6.5188e-06	6.5406e-06	1195	233.03	6.4801e-06	6.5409e-06	295.9	104.07	66.651	19.446	6.4924e-06	27.088	-1.738	218.895	36.045	-51.309	141.187	-7.101	-51.553	-43.815	204.058	287.096	-44.198	-36.356	-37.284	-30.255	25.213	-30.581	-8191	255	
888.306	1	1	0	0	0.11209	0.085992	0.21895	0.34973	0.10103	0.15419	0.39944	0.03811	0.14139	0.1784	0.16215	0.22133	0.065631	0.22322	0.17768	0.25635	-1.5479	-2.3667	-2.1333	-2.2562	-2.1979	-2.15	-2.7083	-2.3187	-2.0646	-2.5271	-2.2021	-2.2271	-2.5187	-2.0458	-2.475	-2.3042	-40.930	72.791	297.306	297.959	51.509	92.974	183.519	102.085	102.795	171.327	160.320	201.374	29.066	83.748	265.408	-28.328	0.00012436	0.00052564	0.0001366	1119.6	1.9076e-06	5.4379e-06	1202.8	231.31	2.3785e-06	5.3582e-06	289.96	80.366	62.72	18.389	5.3206e-06	25.447	0.00057858	0.00058832	0.00016483	1118.7	6.409e-06	6.4212e-06	1193.6	232.92	6.2947e-06	6.2016e-06	294.17	102.87	66.14	19.381	6.1099e-06	26.976	-35.098	187.037	236.695	-51.520	5.354	17.100	-51.239	-43.759	69.992	41.978	-44.370	-35.280	-37.295	-29.712	-34.029	-30.481	-8191	255	
888.402	1	1	0	0	0.14468	0.22594	0.27238	0.036541	0.15876	0.20131	0.079902	0.077792	0.18387	0.08423	0.2793	0.10956	0.17362	0.1703	0.22467	0.15829	-1.7396	-2.2188	-2.2292	-2.1042	-2.3354	-2.1125	-2.6688	-2.2604	-2.0479	-2.5125	-2.2396	-2.2208	-2.45	-2.0625	-2.2854	-2.4271	207.928	-3.269	187.246	120.582	268.214	115.198	195.464	229.174	179.998	-9.875	84.457	257.245	125.104	120.321	4.872	171.288	0.00027048	0.00019553	0.00019084	1107.7	2.4772e-06	2.5995e-06	1203.9	230.57	8.5649e-06	7.0478e-06	292.28	81.668	62.619	18.347	4.7455e-06	25.648	0.00054337	0.00055342	0.00015114	1111.8	5.9626e-06	5.8807e-06	1192.3	232.16	5.7952e-06	5.8228e-06	294.2	100.07	65.909	19.271	5.8312e-06	26.919	-28.507	159.294	280.564	-51.311	162.080	242.433	-51.259	-43.685	90.476	158.279	-44.263	-35.883	-37.238	-30.050	-41.930	-30.557	-8191	255	
888.500	1	1	0	0	0.10122	0.2629	0.059309	0.26925	0.20217	0.046346	0.11002	0.26464	0.2363	0.099789	0.0054555	0.44521	0.23677	0.19354	0.10666	0.044529	-1.5854	-2.4667	-2.2167	-2.0667	-2.325	-2.1688	-2.5062	-2.4417	-2.075	-2.5521	-2.3625	-2.25	-2.4542	-2.1167	-2.25	-2.4521	-57.842	86.712	206.104	211.315	44.031	8.634	218.282	264.092	29.037	187.920	292.462	205.766	204.818	185.966	239.610	255.099	0.00014473	0.00017757	0.00014096	1118.2	2.6867e-06	2.3874e-06	1203.4	230.42	5.0015e-06	3.4757e-06	288.9	79.21	62.894	18.386	3.0459e-06	25.529	0.00051907	0.00053484	0.00014872	1109.5	5.7768e-06	5.7717e-06	1189.9	232.07	5.769e-06	5.7782e-06	292.69	99.084	65.973	19.31	5.7629e-06	26.945	4.037	74.324	142.939	-51.196	131.384	75.699	-51.394	-43.973	71.071	260.038	-44.329	-36.331	-36.869	-29.783	125.257	-30.336	-8191	255	
888.594	1	1	0	0	0.131	0.039764	0.15052	0.32272	0.17883	0.10967	0.049265	0.28384	0.16769	0.055288	0.095483	0.36713	0.018789	0.32702	0.13998	0.25986	-1.4729	-2.4458	-2.1625	-2.0958	-2.5354	-2.15	-2.4562	-2.5938	-1.9521	-2.5687	-2.4875	-1.9417	-2.4396	-2.2188	-2.2438	-2.35	251.809	111.989	125.303	-11.666	25.893	-5.538	242.391	269.675	94.246	252.442	283.032	-56.481	122.817	139.500	9.283	255.436	0.00034532	0.00016593	0.00022708	1117.6	3.4625e-06	5.5935e-06	1205	230.58	2.7395e-06	1.592e-06	289.31	81.132	63.151	18.287	2.4998e-06	25.572	0.000523	0.00052577	0.00014776	1112.6	5.8081e-06	5.8582e-06	1190.3	232.09	5.8409e-06	5.8402e-06	293.14	100.15	66.084	19.357	5.929e-06	26.983	-34.384	297.234	18.506	-51.691	20.283	12.768	-51.354	-43.847	218.508	-26.765	-44.481	-34.891	-37.496	-29.856	292.061	-30.513	-8191	255	
888.690	1	1	0	0	0.4322	0.13659	0.12625	0.12251	0.086768	0.15647	0.3872	0.20113	0.24801	0.20487	0.28456	0.25672	0.13143	0.17584	0.15966	0.050673	-1.5896	-2.4396	-2.2708	-2.1979	-2.3333	-2.0396	-2.3229	-2.6875	-2.0667	-2.4583	-2.2542	-2.0271	-2.1771	-2.2708	-2.0354	-2.5125	8.328	136.795	-37.834	28.681	24.319	125.065	235.542	276.083	292.967	8.544	280.961	92.428	8.518	38.827	113.714	206.119	9.4809e-05	0.00020016	0.00010315	1121.1	3.5239e-06	6.6079e-06	1206.2	229.54	2.9876e-06	6.5428e-06	289.66	81.018	63.27	18.374	5.7476e-06	25.677	0.00053592	0.00054821	0.00015357	1114.9	6.0543e-06	6.0586e-06	1192.9	232.42	5.9674e-06	6.0062e-06	293.6	100.48	66.208	19.399	6.0137e-06	27.068	10.051	27.124	97.381	-51.266	193.104	-29.801	-51.564	-43.907	237.309	69.409	-44.717	-35.891	-36.941	-29.893	29.683	-30.713	-8191	255	
888.787	1	1	0	0	0.21863	0.20613	0.048516	0.10891	0.10452	0.027933	0.25381	0.066051	0.11361	0.077292	0.076385	0.2661	0.20194	0.25052	0.32051	0.049029	-1.3937	-2.2479	-2.2604	-2.0854	-2.5375	-2.2562	-2.35	-2.5667	-2.225	-2.3542	-2.5354	-2.1396	-2.4146	-2.1604	-2.0062	-2.3625	44.676	193.149	-41.702	93.801	205.770	-39.954	279.454	285.637	218.994	-35.292	294.112	99.197	257.192	201.808	181.141	19.142	0.0002979	0.00061554	0.00014693	1114.3	3.3821e-07	6.7775e-06	1207.6	230.67	4.3152e-06	1.6875e-06	289.3	79.336	62.873	18.415	7.0648e-06	25.576	0.00054475	0.00055208	0.00015583	1115.9	6.161e-06	6.2077e-06	1194.8	232.79	6.1616e-06	6.2018e-06	294.3	102.01	66.626	19.505	6.2051e-06	27.108	-5.126	-52.376	-30.372	-51.422	208.560	128.698	-51.212	-43.943	235.930	74.387	-44.263	-35.842	-36.516	-30.120	79.091	-30.051	-8191	255	
888.883	1	1	0	0	0.18293	0.15989	0.036411	0.15654	0.034384	0.13182	0.40156	0.3114	0.15464	0.089719	0.27024	0.075178	0.080481	0.15498	0.1163	0.077633	-1.6792	-2.4354	-2.6312	-2.1854	-2.2854	-2.2958	-2.2833	-2.5771	-2.0583	-2.4208	-2.375	-1.8958	-2.3729	-2.2542	-1.7854	-2.4167	38.527	89.885	255.802	244.478	22.652	-49.082	234.449	208.486	193.130	-13.329	-48.032	42.235	197.429	271.356	8.226	-1.187	0.00021349	0.00016898	0.00013803	1115.1	4.6814e-06	5.0723e-06	1203.8	231.61	7.0643e-06	8.8946e-06	291.53	79.941	62.669	18.42	1.3196e-06	25.856	0.00055919	0.00056698	0.00015825	1116.9	6.2621e-06	6.1979e-06	1193.7	233.28	6.2808e-06	6.2993e-06	295.38	102.92	66.469	19.486	6.2664e-06	27.176	16.372	277.024	25.502	-51.166	67.351	-52.046	-51.148	-43.869	230.980	143.958	-44.315	-36.386	-37.086	-30.204	120.753	-30.741	-8191	255	
889.003	1	1	0	0	0.31429	0.23371	0.2356	0.16739	0.14587	0.072614	0.20513	0.20731	0.17183	0.21502	0.17035	0.17692	0.089387	0.074464	0.18781	0.13186	-1.6313	-1.9917	-2.3917	-1.9792	-2.3875	-2.4917	-2.1167	-2.5042	-2.3396	-2.2146	-2.3479	-2.0563	-2.3521	-2.3604	-1.9479	-2.3854	1.571	256.997	101.812	-6.359	232.037	162.519	151.268	-8.771	-26.421	-61.805	262.264	74.566	240.971	149.230	126.277	30.004	0.00033787	0.00024534	3.298e-05	1122.5	1.0642e-05	7.2396e-06	1205.6	230.81	9.7596e-06	3.1025e-06	291.08	82.615	63.093	18.382	8.7932e-06	25.65	0.00056163	0.00057696	0.00015844	1118.6	6.2e-06	6.2134e-06	1194.3	233.01	6.1075e-06	6.1473e-06	294.65	100.83	66.329	19.421	5.9671e-06	27.04	-28.815	66.383	279.877	-51.620	120.738	58.220	-51.366	-43.868	-37.776	38.130	-44.238	-35.742	-36.979	-30.397	60.044	-30.416	-8191	255	
889.099	1	1	0	0	0.13843	0.31038	0.19095	0.028377	0.15479	0.13847	0.21304	0.16628	0.12016	0.32881	0.13343	0.2074	0.068285	0.26493	0.074486	0.1225	-1.8604	-2.0229	-2.4167	-2.0479	-2.2604	-2.3854	-2.1667	-2.4313	-2.4229	-2.1271	-2.4875	-2.2271	-2.3292	-2.2854	-2.0875	-2.5229	215.141	98.214	248.611	-48.741	188.132	175.012	259.518	271.894	134.990	69.071	279.160	142.333	296.736	278.426	247.782	12.363	0.0001372	0.00023619	0.00016744	1111.8	5.2118e-06	7.5586e-06	1203.7	231.34	3.2528e-06	8.399e-06	291.96	80.157	62.709	18.433	1.2077e-05	25.666	0.00054169	0.00055161	0.00015203	1113.9	5.9441e-06	5.9733e-06	1193.3	232.81	5.9845e-06	6.0474e-06	295.02	101.04	66.089	19.434	6.0424e-06	27.102	273.826	-5.534	-12.966	-51.187	99.476	51.604	-51.369	-43.943	33.409	139.620	-43.950	-38.812	-37.551	-29.642	133.070	-30.276	-8191	255	
889.171	1	1	0	0	0.18542	0.23867	0.16092	0.23394	0.077505	0.11318	0.10936	0.1665	0.15402	0.19509	0.075935	0.16939	0.2641	0.27326	0.13504	0.31676	-1.6458	-1.7917	-2.4917	-2.2729	-2.2687	-2.4458	-2.1375	-2.5292	-2.3063	-1.9688	-2.4188	-1.9771	-2.1521	-2.4396	-1.9917	-2.2833	201.548	254.627	71.952	231.741	70.430	152.377	240.946	240.780	99.558	62.239	-55.025	283.017	59.297	-13.974	184.187	-45.688	0.00033379	0.00019939	0.000144	1121	1.2836e-05	3.969e-06	1203.3	231.17	1.8529e-06	3.3388e-06	291.62	78.99	62.442	18.479	1.9344e-06	25.719	0.00053789	0.00054905	0.00015042	1115.7	5.9663e-06	5.9185e-06	1192.8	233.01	5.9446e-06	6.0193e-06	294.66	100.8	66.168	19.453	5.9181e-06	27.065	-0.111	-53.242	65.194	-51.475	72.615	90.229	-51.165	-43.964	52.711	166.868	-44.233	-35.864	-36.798	-30.171	121.588	-30.365	-8191	255	
889.292	1	1	0	0	0.11048	0.25832	0.083193	0.08031	0.32903	0.17052	0.27288	0.25789	0.14851	0.13617	0.12427	0.058643	0.088174	0.33858	0.22191	0.14784	-1.9208	-1.7354	-2.5375	-2.2417	-2.1437	-2.4396	-2.3396	-2.3792	-2.4313	-2.1042	-2.5979	-2.1792	-2.0167	-2.4562	-1.9813	-2.2292	291.698	239.357	23.752	5.349	193.090	274.349	248.943	17.492	115.476	-39.547	189.661	-33.745	280.132	-30.420	0.857	20.946	0.00020146	0.00050053	8.5569e-05	1106.9	2.3403e-06	9.0309e-06	1204.3	231.09	6.8483e-06	5.5378e-06	291.59	81.368	63.144	18.455	4.885e-06	25.671	0.00053447	0.00054227	0.0001504	1110.3	5.8771e-06	5.9269e-06	1194.5	233.05	5.9109e-06	5.9431e-06	295.12	100.82	66.225	19.437	6.0358e-06	27.059	277.544	47.799	25.746	-51.265	134.142	-5.999	-51.252	-44.002	127.428	87.650	-44.186	-36.018	-37.178	-30.309	164.123	-30.644	-8191	255	
889.388	1	1	0	0	0.12629	0.15908	0.10202	0.016046	0.17132	0.2023	0.16852	0.19264	0.14496	0.26902	0.20535	0.26222	0.32204	0.2294	0.25413	0.25552	-1.8646	-1.975	-2.4896	-2.0083	-2.2313	-2.5646	-2.1979	-2.2875	-2.4208	-1.8417	-2.4292	-2.1021	-2.0375	-2.4354	-2.1833	-2.2667	167.878	248.713	156.934	243.536	243.752	221.707	251.116	55.006	90.226	155.164	273.892	54.244	191.992	282.443	26.431	9.347	0.00026546	0.00049394	3.9896e-05	1131.9	5.02e-06	2.0637e-06	1205.5	231.78	9.1622e-06	5.4084e-06	292.94	80.679	62.938	18.421	4.5264e-06	25.764	0.00054143	0.00055587	0.00015368	1116.2	6.069e-06	6.012e-06	1192.9	233.33	6.019e-06	6.0986e-06	295.61	101.3	66.318	19.449	6.0268e-06	27.122	-11.033	-31.928	28.316	-51.447	58.077	14.175	-51.306	-43.816	260.752	78.498	-44.276	-36.486	-37.097	-30.228	39.807	-30.679	-8191	255	
889.482	1	1	0	0	0.035565	0.31346	0.11	0.19115	0.19277	0.12095	0.27373	0.5038	0.20423	0.16187	0.17836	0.25862	0.18665	0.13449	0.053384	0.098826	-1.9271	-2.0625	-2.2271	-2.2333	-2.0375	-2.4271	-2.2375	-2.275	-2.3229	-2.1646	-2.6042	-2.2188	-2.0042	-2.4625	-2.3042	-2.1896	-19.013	141.200	283.473	234.556	278.389	218.113	227.395	270.887	-34.712	240.589	71.714	162.135	18.912	85.215	-9.676	264.167	0.00025916	0.00013215	0.00015365	1115.8	7.9987e-06	5.3083e-07	1206.3	232.5	3.4116e-06	3.8476e-06	292.58	82.767	63.087	18.443	5.8673e-06	25.558	0.00054362	0.00055864	0.00015696	1115.8	6.0739e-06	6.0971e-06	1195.5	233.63	6.1113e-06	6.1365e-06	295.68	102.13	66.385	19.485	6.1069e-06	27.097	-33.423	151.956	63.886	-51.469	131.895	63.803	-51.239	-43.799	271.373	37.777	-44.198	-36.932	-37.422	-30.081	81.976	-30.187	-8191	255	
889.580	1	1	0	0	0.2852	0.13242	0.18772	0.12618	0.26973	0.13132	0.22151	0.092851	0.0462	0.12102	0.23889	0.10697	0.32227	0.11375	0.09847	0.19581	-2.0479	-1.9917	-2.1958	-2.3833	-2.0208	-2.3854	-2.4583	-2.0417	-2.3167	-2.0208	-2.2854	-2.2458	-2.1	-2.3271	-2.1917	-2.2396	-12.639	207.821	252.352	242.924	106.456	-14.567	247.692	170.618	49.275	296.018	210.613	112.115	138.768	91.711	245.741	270.679	0.00025004	0.00053002	0.00018114	1112.7	7.502e-06	3.6757e-06	1211.4	231.6	6.3344e-06	2.368e-06	292.17	82.982	62.831	18.47	1.0801e-05	25.648	0.00054469	0.00055683	0.00015377	1114.4	6.124e-06	6.1397e-06	1195.7	233.48	6.1975e-06	6.2504e-06	295.84	103.56	66.424	19.602	6.3169e-06	27.218	272.840	69.680	-3.391	-51.107	18.566	-6.317	-51.342	-43.886	192.329	107.612	-44.620	-36.058	-37.620	-30.243	6.360	-30.518	-8191	255	
889.699	1	1	0	0	0.037863	0.097191	0.17278	0.28047	0.20061	0.38118	0.34036	0.2279	0.27861	0.090708	0.092217	0.27454	0.20624	0.041776	0.088412	0.15367	-1.9604	-1.8958	-2.225	-2.5542	-2.0708	-2.425	-2.4104	-2.0438	-2.4771	-2.3312	-2.4104	-2.4813	-2.0438	-2.3167	-2.2417	-1.9937	121.830	28.329	219.140	265.877	4.540	225.895	213.975	52.909	240.490	193.908	211.366	-38.148	292.890	-30.824	131.459	-3.691	0.00021103	0.00050625	0.00012604	1127.5	4.0937e-06	3.7336e-06	1210.1	232.08	4.6691e-06	9.29e-06	291.67	81.044	63.327	18.382	6.1972e-06	25.865	0.00057194	0.00058494	0.00016073	1121.3	6.3127e-06	6.3193e-06	1196.7	233.92	6.3402e-06	6.3009e-06	296.67	103.23	66.885	19.512	6.3689e-06	27.296	269.789	74.940	67.248	-51.573	79.364	133.044	-51.275	-43.755	155.724	58.951	-44.277	-34.593	-37.509	-30.118	201.356	-30.661	-8191	255	
889.795	1	1	0	0	0.16302	0.25581	0.13719	0.27534	0.15462	0.23639	0.27217	0.13975	0.35074	0.31215	0.15116	0.33047	0.35014	0.13754	0.14369	0.17682	-2.1896	-1.9771	-1.9917	-2.4375	-1.9708	-2.5771	-2.4938	-2.2146	-2.3146	-2.1479	-2.225	-2.4333	-2.1875	-2.35	-2.3521	-2.0729	109.987	11.725	-54.068	199.039	174.811	42.397	209.075	13.347	-13.342	72.740	219.989	191.015	37.878	113.543	95.885	249.530	0.00038047	0.00036381	0.00013542	1124.7	2.8134e-06	4.1195e-06	1203.4	232.14	3.8105e-06	5.6298e-06	293.72	81.272	62.629	18.515	1.1519e-05	25.682	0.00057401	0.00058381	0.00016393	1121.8	6.4055e-06	6.4597e-06	1196.1	234.34	6.4412e-06	6.4242e-06	297.06	104.53	66.865	19.602	6.4265e-06	27.339	-17.925	86.658	298.174	-51.433	-60.755	-6.174	-51.422	-43.786	-31.281	92.361	-44.250	-37.569	-37.214	-29.597	71.047	-30.640	-8191	255	
889.891	1	1	0	0	0.14443	0.067088	0.17715	0.04548	0.047804	0.068735	0.24682	0.12821	0.13385	0.14375	0.081818	0.085685	0.27332	0.40701	0.22019	0.079107	-1.9917	-2.1437	-2.0229	-2.2708	-2.1375	-2.3167	-2.4521	-2.0104	-2.4917	-2.2917	-2.2687	-2.3354	-2.1104	-2.2479	-2.3521	-1.975	252.222	-12.794	150.452	166.214	31.421	-9.904	207.117	279.185	-41.000	76.342	189.851	89.180	12.262	63.763	-24.906	200.950	0.00013568	0.00018417	0.00020589	1112.4	2.8695e-06	4.8399e-06	1206.8	231.68	9.4706e-06	8.2629e-06	290.92	82.744	63.285	18.431	7.1397e-06	25.697	0.00058387	0.00059909	0.000166	1122.1	6.4346e-06	6.5047e-06	1197.6	234.58	6.5079e-06	6.5611e-06	296.48	105.45	66.927	19.61	6.4825e-06	27.296	259.020	-11.904	21.035	-51.286	53.811	-5.428	-51.286	-44.223	197.528	114.630	-44.277	-33.873	-37.429	-30.003	45.740	-30.389	-8191	255	
889.988	1	1	0	0	0.11018	0.1021	0.17536	0.10396	0.40967	0.24312	0.29022	0.31023	0.18584	0.11076	0.12022	0.055146	0.26289	0.31052	0.079344	0.14286	-1.8167	-2.2604	-1.9562	-2.5312	-2.1896	-2.1104	-2.5021	-1.8542	-2.4229	-2.4854	-2.0292	-2.4437	-2.1521	-2.1354	-2.5438	-1.9979	200.867	105.499	228.350	291.392	-31.944	184.904	224.274	223.725	-55.246	157.890	248.611	206.359	-1.076	250.556	111.825	150.343	0.00011321	5.5732e-05	7.0243e-05	1119.7	2.1167e-06	3.2363e-06	1210	232.18	5.7523e-06	6.3205e-06	293.03	83.296	62.927	18.425	6.4746e-06	25.888	0.00058021	0.00060002	0.00016659	1122.9	6.4571e-06	6.4299e-06	1198.5	234.48	6.4566e-06	6.5307e-06	296.47	104.71	66.944	19.631	6.4775e-06	27.298	-0.357	208.041	161.641	-51.325	90.535	156.768	-51.298	-43.973	37.830	98.148	-44.153	-35.390	-37.307	-30.005	-41.571	-30.337	-8191	255	
890.084	1	1	0	0	0.166	0.11905	0.16669	0.085408	0.15651	0.26791	0.46737	0.42404	0.072759	0.096921	0.29716	0.12483	0.18419	0.14383	0.20138	0.1293	-1.9146	-2.4813	-1.9271	-2.4021	-2.2833	-2.1729	-2.5458	-2.0125	-2.325	-2.3708	-2.0021	-2.5104	-2.3563	-2.2375	-2.6083	-1.9646	178.976	-47.933	-24.253	-10.833	244.966	99.778	230.503	206.666	197.965	284.174	212.119	217.227	-36.264	225.371	138.953	-11.108	0.00014036	0.001028	0.0001979	1116.8	2.4523e-06	6.7786e-06	1214.3	231.48	2.4761e-06	6.69e-06	293.42	83.894	62.827	18.439	4.5283e-06	25.907	0.00058277	0.00059387	0.00016645	1124.4	6.4676e-06	6.507e-06	1199.5	234.33	6.5323e-06	6.5564e-06	296.74	105.9	66.903	19.616	6.5707e-06	27.4	297.373	94.855	-51.287	-51.391	214.709	141.860	-51.243	-43.932	82.130	117.772	-44.328	-37.315	-36.874	-30.330	292.915	-30.537	-8191	255	
890.180	1	1	0	0	0.055573	0.31633	0.35153	0.17239	0.22283	0.15005	0.066153	0.16368	0.080794	0.18607	0.26179	0.17141	0.2511	0.1823	0.22329	0.090597	-1.7604	-2.3021	-1.7854	-2.3729	-2.2021	-1.9562	-2.5396	-2.0583	-2.1562	-2.3271	-2.0958	-2.5083	-2.2833	-2.2125	-2.6479	-2.1542	174.720	59.489	159.619	-26.664	72.532	230.299	201.583	257.986	-18.466	231.026	223.807	-61.967	219.689	123.161	3.366	69.917	0.00022585	0.00035587	5.8224e-05	1120.3	3.6143e-06	5.2397e-06	1207.1	231.56	8.4782e-06	9.1782e-06	292.97	78.847	63.182	18.434	7.6224e-06	25.604	0.00058488	0.0006007	0.00016719	1122.6	6.5195e-06	6.4869e-06	1196.3	234.26	6.4984e-06	6.5478e-06	296.99	104.73	66.747	19.577	6.4563e-06	27.184	291.852	1.568	81.755	-51.280	185.472	208.074	-51.208	-44.049	59.393	3.421	-44.185	-34.142	-37.288	-29.629	71.391	-30.310	-8191	255	
890.300	1	1	0	0	0.21067	0.061438	0.25355	0.14838	0.09228	0.079084	0.218	0.10816	0.2312	0.14881	0.29477	0.17677	0.327	0.1213	0.28277	0.087363	-1.775	-2.425	-1.8896	-2.4313	-2.2479	-1.8021	-2.5542	-2.1208	-2.2083	-2.2667	-2.1833	-2.2125	-2.2333	-1.9125	-2.325	-2.3208	296.917	21.499	30.396	-32.091	-33.884	-49.926	192.411	-14.881	-26.157	281.591	0.461	-45.420	246.064	260.464	151.988	292.902	0.00031588	0.00025226	0.00010171	1119.8	8.8776e-06	4.8185e-06	1209.1	231.18	9.6986e-06	6.3136e-06	292.91	82.799	62.86	18.541	6.4277e-06	25.763	0.00057787	0.00058974	0.00016428	1121.7	6.3799e-06	6.4489e-06	1197.9	234.49	6.4111e-06	6.4452e-06	296.08	104.6	66.925	19.604	6.4845e-06	27.317	-27.032	-34.529	61.619	-51.095	56.876	148.441	-51.466	-43.893	158.931	52.097	-44.107	-35.443	-36.743	-29.902	150.795	-30.714	-8191	255	
890.395	1	1	0	0	0.1152	0.31515	0.24554	0.13874	0.077577	0.13338	0.19012	0.097117	0.092522	0.32215	0.091269	0.19931	0.099063	0.030001	0.090702	0.33543	-1.6875	-2.4562	-1.9188	-2.2208	-2.3438	-1.925	-2.575	-2.2625	-2.0583	-2.4375	-2.2396	-2.1646	-2.3604	-2.1083	-2.3646	-2.3792	211.958	-8.639	-12.712	-13.207	207.078	83.136	152.279	210.720	270.777	45.639	49.905	33.860	99.612	252.571	164.690	155.943	0.00026232	0.00035703	0.00012941	1121.1	1.6749e-06	4.2208e-06	1205	230.95	2.478e-06	8.1484e-06	291.48	81.166	62.666	18.54	3.5112e-06	25.859	0.00058109	0.00059914	0.00016508	1122.3	6.548e-06	6.5532e-06	1196.3	234.25	6.5139e-06	6.5767e-06	296.39	105.67	66.828	19.629	6.465e-06	27.317	1.468	152.046	-2.628	-51.004	39.105	68.984	-51.081	-43.712	51.679	1.239	-44.382	-36.284	-36.976	-30.041	285.756	-30.545	-8191	255	
890.468	1	1	0	0	0.094482	0.15643	0.12696	0.26674	0.34279	0.3107	0.14461	0.17128	0.095241	0.037381	0.092315	0.38169	0.13743	0.16851	0.061454	0.19376	-1.5604	-2.4083	-2.0062	-2.2917	-2.3542	-2.0604	-2.55	-2.3104	-2.2188	-2.5729	-2.3958	-2.2521	-2.4229	-1.8708	-2.4521	-2.2396	165.753	225.039	256.201	213.034	-60.118	-4.072	289.264	200.311	-50.313	220.507	-20.990	30.544	-22.604	73.579	175.081	53.033	0.00034971	0.0011078	9.9836e-05	1119.2	2.6442e-06	5.838e-06	1207.3	231.18	8.3415e-06	5.4873e-06	290.36	77.983	63.226	18.488	5.7269e-06	25.75	0.00058858	0.00060768	0.00016778	1122.6	6.5459e-06	6.6114e-06	1197.4	234.29	6.5502e-06	6.5762e-06	296.08	105.48	66.95	19.6	6.5815e-06	27.315	295.525	87.942	-19.616	-51.442	124.649	-32.308	-51.178	-44.507	295.849	80.830	-44.403	-35.492	-36.867	-30.040	85.455	-30.357	-8191	255	
890.563	1	1	0	0	0.097788	0.078164	0.25983	0.24057	0.26175	0.31354	0.24442	0.24297	0.28788	0.026534	0.13635	0.22178	0.101	0.21465	0.33393	0.13316	-1.4688	-2.4167	-2.1937	-2.125	-2.4771	-1.9958	-2.4938	-2.3833	-1.9833	-2.6125	-2.1562	-2.1937	-2.4167	-1.8375	-2.2313	-2.5771	273.472	-43.618	259.204	-41.155	150.657	20.181	254.924	270.849	-61.680	49.891	196.765	16.320	224.332	19.088	208.930	75.177	0.00019677	0.00076788	0.00016143	1119.4	3.4088e-06	7.9951e-06	1204.4	231.71	8.9229e-06	6.9813e-06	292.33	80.506	62.866	18.476	5.0143e-06	25.858	0.00059335	0.00060519	0.00016934	1121.4	6.5683e-06	6.6034e-06	1195.4	234.3	6.6213e-06	6.7197e-06	296.81	105.62	66.834	19.61	6.7128e-06	27.39	290.774	-41.861	148.169	-51.586	28.884	75.671	-51.291	-44.013	4.791	129.238	-44.448	-35.841	-36.788	-29.629	165.862	-30.918	-8191	255	
890.683	1	1	0	0	0.19502	0.2669	0.17711	0.044434	0.16025	0.16222	0.18159	0.23474	0.3852	0.18666	0.063164	0.19608	0.23877	0.42709	0.20733	0.35885	-1.5146	-2.5208	-2.1312	-2.0958	-2.4958	-2.1271	-2.2333	-2.3625	-2.0312	-2.3979	-2.275	-2.0979	-2.4083	-2.0417	-1.9896	-2.5687	83.213	98.210	122.333	266.964	0.602	90.406	198.163	4.343	211.913	208.743	68.585	181.691	190.496	180.188	24.015	263.537	0.00031523	0.00036465	0.00018088	1118.1	2.1509e-06	1.0544e-05	1200.8	231.67	6.5458e-06	5.0526e-06	293.06	80.306	62.414	18.508	1.8684e-06	25.926	0.00060154	0.00061718	0.00017128	1123	6.717e-06	6.8471e-06	1196.9	234.38	6.7731e-06	6.7693e-06	297.39	106.75	66.753	19.604	6.7561e-06	27.407	-5.234	93.561	-27.451	-51.393	-22.228	17.705	-51.159	-43.864	7.774	-44.573	-44.240	-35.229	-37.117	-29.822	170.556	-30.953	-8191	255	
890.779	1	1	0	0	0.15906	0.22433	0.091898	0.16824	0.11203	0.23648	0.17712	0.1157	0.2024	0.30562	0.18573	0.37861	0.20551	0.12106	0.15977	0.18476	-1.4688	-2.2229	-2.2188	-2.0396	-2.5146	-2.1229	-2.4333	-2.4625	-1.9104	-2.2604	-2.4646	-1.9042	-2.4792	-2.0687	-2.0854	-2.5458	-51.522	79.869	143.937	-58.262	268.156	106.604	195.469	224.145	31.929	-50.801	169.734	-33.945	-4.612	-46.280	29.698	145.789	0.00037525	0.0011209	0.00020991	1118.3	4.1194e-06	6.6555e-06	1204.7	232.58	6.2048e-06	8.0445e-06	291.39	79.359	63.033	18.332	5.1731e-06	25.698	0.00060667	0.00061286	0.00017105	1124	6.7305e-06	6.8025e-06	1195.1	234.56	6.7541e-06	6.7464e-06	296.82	106.45	67.1	19.587	6.786e-06	27.339	-1.897	37.211	-5.888	-51.319	14.372	39.821	-51.414	-44.076	104.768	102.967	-44.184	-35.220	-37.169	-29.484	76.746	-30.590	-8191	255	
890.876	1	1	0	0	0.19799	0.42949	0.079293	0.035174	0.18376	0.071476	0.067183	0.34551	0.14652	0.15622	0.046364	0.12623	0.25508	0.10704	0.27925	0.13511	-1.7396	-2.1271	-2.1271	-2.0875	-2.4062	-2.0938	-2.0583	-2.4875	-2.2604	-2.1792	-2.4625	-1.9479	-2.4	-2.4542	-2.0708	-2.6312	194.117	37.697	207.512	58.105	4.203	81.679	168.595	-32.435	142.107	-19.209	90.185	284.736	-10.497	198.457	257.695	210.219	0.00028275	0.00030299	0.00018419	1117.1	6.9094e-06	4.7355e-06	1208.7	231.26	4.6693e-06	2.4939e-06	290.46	82.597	62.844	18.299	2.0122e-06	25.536	0.00060723	0.00062205	0.00017197	1121.8	6.7313e-06	6.7617e-06	1195.7	234.31	6.8065e-06	6.892e-06	296.83	107.04	67.153	19.595	6.8414e-06	27.289	-22.207	77.942	62.360	-51.410	29.499	88.738	-51.310	-43.924	207.861	124.598	-44.308	-35.331	-36.923	-30.301	-45.547	-31.091	-8191	255	
890.972	1	1	0	0	0.15782	0.10971	0.1743	0.18167	0.085006	0.13075	0.15975	0.14717	0.12782	0.13958	0.19544	0.22363	0.22553	0.11632	0.43681	0.054821	-1.5271	-2.2313	-2.4458	-1.9604	-2.3667	-2.2771	-2.2062	-2.4583	-1.9083	-2.4	-2.4271	-1.9813	-2.3271	-2.3021	-1.9958	-2.5458	15.113	279.282	-27.015	158.869	101.463	167.360	23.285	188.636	21.377	36.148	132.385	231.306	-27.114	65.385	-44.830	-13.435	0.00031262	0.00065263	0.00013115	1120.5	2.3388e-06	8.1446e-06	1199.4	231.57	4.5697e-06	4.2966e-06	292.51	85.099	62.958	18.448	1.0879e-05	25.655	0.00060354	0.00061714	0.00017301	1123.8	6.746e-06	6.7227e-06	1192.9	234.45	6.7091e-06	6.6831e-06	296.5	106.59	66.916	19.548	6.6565e-06	27.233	-51.772	-48.327	9.933	-51.483	255.871	79.075	-51.142	-43.780	56.923	149.645	-44.241	-33.993	-37.298	-29.679	37.578	-30.542	-8191	255	
891.068	1	1	0	0	0.14528	0.29956	0.13786	0.18145	0.24431	0.28125	0.48206	0.27536	0.070147	0.29015	0.42453	0.18699	0.24242	0.061995	0.20906	0.12881	-1.7667	-2.1479	-2.3583	-2.0625	-2.2625	-2.225	-2.2708	-2.5708	-2.1417	-2.2146	-2.6625	-1.9188	-2.1396	-2.2792	-1.9208	-2.3875	180.987	256.161	-24.258	225.431	278.586	72.260	193.216	297.988	162.805	63.488	244.320	92.070	6.746	152.016	25.628	206.588	0.00024034	0.00048063	8.9622e-05	1119.9	7.5221e-06	3.0066e-06	1206.8	231.93	5.9039e-06	2.9381e-06	291.09	81.914	63.12	18.373	1.3627e-06	25.617	0.00059067	0.00060213	0.00016772	1120.5	6.6011e-06	6.6302e-06	1195.1	234.1	6.6374e-06	6.7344e-06	296.59	106.4	66.788	19.602	6.6799e-06	27.257	-21.915	65.951	294.537	-51.473	69.106	11.260	-51.322	-43.885	90.164	32.589	-44.312	-35.656	-37.285	-29.888	99.228	-30.694	-8191	255	
891.164	1	1	0	0	0.19229	0.38632	0.064233	0.27168	0.4393	0.26104	0.094989	0.065964	0.25768	0.076888	0.1361	0.14505	0.18468	0.1503	0.22717	0.12988	-1.8188	-2.0396	-2.5167	-1.9958	-2.075	-2.4583	-2.05	-2.45	-2.275	-1.9396	-2.4167	-2.0271	-2.2	-2.4562	-2.0312	-2.625	284.915	220.750	-54.329	242.354	-17.202	69.675	240.320	70.365	60.767	245.765	204.982	184.008	15.121	287.870	79.199	194.911	0.00026785	0.0001753	9.0942e-05	1117.2	5.0171e-06	3.6743e-06	1207.9	232.05	6.9574e-06	4.4564e-06	291.85	86.114	63.184	18.407	3.0737e-06	25.821	0.00059583	0.00061124	0.0001706	1121.1	6.7246e-06	6.7394e-06	1194.9	234.3	6.6446e-06	6.6949e-06	296.22	105.97	66.869	19.529	6.633e-06	27.263	-21.008	-8.714	185.217	-51.427	126.373	99.684	-51.203	-43.797	86.134	82.435	-44.282	-35.874	-36.882	-30.098	-26.947	-30.381	-8191	255	
891.260	1	1	0	0	0.08828	0.069975	0.12937	0.25761	0.19043	0.17477	0.1851	0.52712	0.10338	0.28976	0.15782	0.19711	0.09061	0.19413	0.18369	0.27882	-1.8042	-1.9104	-2.7042	-2.1021	-2.2917	-2.4021	-2.2604	-2.2375	-2.3104	-2.0875	-2.4375	-2.1229	-2.2625	-2.5583	-2.0729	-2.3979	54.684	267.210	-50.716	-25.479	131.586	124.048	281.747	266.456	-28.255	113.353	226.092	-8.116	157.790	217.670	174.184	-55.939	0.00025433	0.00030768	0.00030973	1116.3	2.7083e-06	5.7355e-06	1202.1	230.92	6.8491e-06	1.1841e-05	292.12	80.604	62.921	18.473	8.412e-06	25.716	0.0005934	0.00060478	0.00016665	1122.3	6.5482e-06	6.5929e-06	1194.6	233.65	6.5435e-06	6.6364e-06	296.36	105.33	66.714	19.546	6.6482e-06	27.275	23.643	-55.179	-47.838	-51.235	7.002	106.954	-51.181	-43.773	145.976	57.135	-44.284	-34.850	-37.234	-29.504	-10.623	-30.730	-8191	255	
891.381	1	1	0	0	0.19541	0.058244	0.12046	0.33239	0.049854	0.24552	0.2023	0.16462	0.093549	0.10533	0.44792	0.16931	0.073246	0.18165	0.16341	0.19102	-1.8479	-1.9604	-2.4354	-2.1958	-2.1562	-2.3167	-2.0312	-2.3937	-2.1896	-1.9958	-2.5187	-2.1417	-2.1083	-2.5187	-2.2708	-2.3563	272.860	273.596	187.311	273.657	-18.349	253.685	240.345	194.067	159.078	162.986	247.370	0.119	138.991	87.407	29.027	135.577	0.0002106	0.00052634	0.00015733	1114	2.5999e-06	5.5561e-06	1208.3	231.56	1.0483e-05	3.1291e-06	289.54	78.189	62.341	18.42	1.6282e-05	25.626	0.00059661	0.00061147	0.00016905	1119.4	6.6275e-06	6.6778e-06	1196.4	233.64	6.6585e-06	6.7065e-06	295.9	105.63	66.879	19.593	6.7059e-06	27.181	164.281	-26.062	46.742	-51.172	205.969	218.696	-51.097	-43.668	160.563	95.163	-44.513	-36.740	-37.260	-29.820	74.577	-30.710	-8191	255	
891.475	1	1	0	0	0.24575	0.079881	0.26464	0.3723	0.16583	0.024979	0.24131	0.16765	0.26075	0.25678	0.19359	0.12061	0.11779	0.21582	0.1733	0.093422	-1.8792	-2.0729	-2.4	-2.1604	-2.2	-2.3312	-2.2	-2.3417	-2.3896	-2.0521	-2.4625	-2.2979	-1.8875	-2.475	-2.1937	-2.1708	89.711	292.234	-22.340	-49.918	10.614	195.542	204.127	160.541	77.806	217.435	73.449	-2.705	21.597	-48.625	256.798	189.049	0.00010295	0.00054054	0.00014394	1115.1	3.7925e-06	9.7965e-06	1208.9	231.74	4.2435e-06	2.3831e-06	290.82	79.586	62.937	18.449	5.3274e-06	25.708	0.00060414	0.00060971	0.00017172	1120.3	6.6873e-06	6.6416e-06	1196.1	234.04	6.5885e-06	6.6621e-06	295.32	105.57	66.645	19.518	6.5234e-06	27.208	7.720	57.073	78.301	-51.142	77.311	178.992	-51.264	-43.727	6.776	5.655	-44.162	-34.026	-37.121	-29.942	183.697	-30.617	-8191	255	
891.571	1	1	0	0	0.20147	0.15489	0.17802	0.073749	0.15685	0.42182	0.20338	0.13477	0.34274	0.06536	0.39385	0.15046	0.13654	0.26309	0.14422	0.059107	-1.7958	-2.0292	-2.1146	-2.3521	-2.1104	-2.4125	-2.1771	-2.1646	-2.4396	-1.9062	-2.3021	-2.1542	-1.8833	-2.4271	-2.1562	-2.0583	-5.429	282.283	153.759	217.403	-27.902	297.044	256.733	217.887	102.892	85.385	-24.459	12.912	222.228	-18.097	-55.567	144.877	1.3627e-05	0.00015722	5.7038e-05	1118.8	2.6835e-06	1.068e-06	1199.2	231.59	1.1375e-05	1.0857e-06	292.09	83.589	62.662	18.472	2.8121e-06	25.425	0.00058413	0.00060147	0.00016737	1118.1	6.5607e-06	6.5945e-06	1191.9	233.79	6.5585e-06	6.6075e-06	296.39	104.45	66.497	19.503	6.463e-06	27.074	47.884	276.861	23.353	-51.390	117.118	11.469	-51.388	-43.699	199.769	71.834	-44.225	-38.833	-37.359	-29.799	182.317	-30.297	-8191	255	
891.692	1	1	0	0	0.13462	0.16716	0.28086	0.093594	0.13497	0.11849	0.22379	0.24402	0.17076	0.23097	0.15068	0.17014	0.26586	0.30328	0.36222	0.28328	-2.0062	-2.0542	-2.3354	-2.5479	-1.9729	-2.4062	-2.2062	-2.2938	-2.5396	-2.1312	-2.4229	-2.3625	-2.1354	-2.4646	-2.3833	-2.15	115.052	-36.588	216.397	283.503	189.386	286.977	218.512	285.299	61.471	-5.502	254.198	46.334	239.248	211.202	162.948	12.876	9.752e-05	0.0010436	9.4908e-05	1109.5	4.6117e-06	4.3337e-06	1204.6	230.14	1.4109e-06	1.2653e-05	290.32	81.347	61.838	18.312	3.2342e-06	25.343	0.00057864	0.00059311	0.00016524	1117.7	6.5247e-06	6.5817e-06	1193.6	233.19	6.4281e-06	6.5071e-06	295.56	104.26	66.365	19.449	6.3618e-06	26.981	294.709	18.865	-9.296	-51.292	74.667	12.232	-51.124	-43.734	43.715	35.254	-43.922	-35.617	-37.356	-29.076	103.717	-30.574	-8191	255	
891.764	1	1	0	0	0.22729	0.090205	0.12784	0.19492	0.22107	0.21002	0.23109	0.083433	0.25583	0.043328	0.14191	0.061977	0.22265	0.21724	0.048109	0.23521	-1.9146	-1.9417	-2.2646	-2.7271	-1.9646	-2.5917	-2.2125	-2.1312	-2.5583	-2.15	-2.1458	-2.4208	-2.0479	-2.4021	-2.3104	-2.0854	183.165	234.441	-54.945	236.517	29.177	257.062	282.824	295.640	109.318	71.939	-30.128	253.979	260.130	-52.600	-39.861	162.675	0.000224	0.00057074	8.8342e-05	1114.4	1.2483e-06	7.547e-06	1200.7	231.51	5.6898e-06	6.1409e-06	290.94	81.671	62.541	18.187	7.3756e-06	25.642	0.00057373	0.00058272	0.00016373	1117.8	6.4119e-06	6.3968e-06	1190.3	232.77	6.3441e-06	6.3877e-06	294.53	104.05	66.368	19.391	6.3491e-06	27.046	-24.180	94.015	204.370	-51.489	174.379	294.718	-51.298	-43.969	114.685	101.968	-44.435	-35.348	-37.333	-29.955	50.390	-30.346	-8191	255	
891.860	1	1	0	0	0.13289	0.25429	0.093947	0.093381	0.21019	0.18915	0.31989	0.3906	0.17746	0.32881	0.16432	0.1875	0.17414	0.20021	0.067948	0.1818	-1.9667	-2.1854	-2.0396	-2.425	-2.0854	-2.325	-2.475	-2.2687	-2.2062	-2.1542	-2.2208	-2.2708	-2.025	-2.3333	-2.2979	-2.2021	-37.969	-57.417	-47.907	-56.098	85.726	29.654	234.365	-53.073	240.090	97.827	279.196	247.251	278.721	186.372	141.346	29.125	0.00025317	0.00020466	9.2122e-05	1107.8	5.4281e-07	1.0205e-05	1200.4	231	5.8986e-06	1.0897e-05	290.75	80.647	62.478	18.329	6.6557e-06	25.662	0.00057443	0.00059415	0.00016383	1114.4	6.4524e-06	6.4496e-06	1192.3	233.55	6.519e-06	6.5316e-06	295.21	104.38	66.508	19.473	6.4592e-06	27.088	-50.802	290.066	-61.351	-50.999	267.797	26.029	-51.309	-43.940	67.933	75.583	-44.073	-34.677	-37.264	-29.624	188.389	-30.484	-8191	255	
891.980	1	1	0	0	0.12507	0.16117	0.19357	0.20545	0.050304	0.16175	0.25466	0.33621	0.13252	0.20762	0.14668	0.30204	0.22312	0.1768	0.12103	0.14838	-1.8875	-2.1833	-2.0917	-2.4979	-2.0438	-2.2667	-2.5229	-2.0083	-2.475	-2.2104	-2.0146	-2.5417	-2.0917	-2.2458	-2.4583	-2.0625	-54.930	-43.367	87.909	288.864	97.786	52.451	261.729	290.471	187.209	61.165	295.612	201.416	-0.946	-1.101	163.709	25.703	0.00026052	0.00045592	0.00021224	1114.7	4.8886e-07	5.5132e-06	1206.9	230	5.3972e-06	5.7849e-06	291.05	79.476	62.525	18.382	3.3669e-06	25.745	0.00057833	0.00059171	0.00016397	1116.1	6.4713e-06	6.5062e-06	1193.1	232.55	6.4542e-06	6.5285e-06	294.68	104.69	66.435	19.46	6.4866e-06	27.214	-27.445	-54.695	-38.359	-51.066	-42.387	68.144	-51.218	-43.763	227.746	214.765	-44.206	-35.952	-37.429	-29.235	113.971	-30.356	-8191	255	
892.077	1	1	0	0	0.32811	0.20926	0.11046	0.068918	0.19535	0.13952	0.21254	0.16366	0.11183	0.17293	0.18617	0.27216	0.20336	0.17142	0.12051	0.079546	-1.8125	-2.2479	-1.9188	-2.6146	-2.0167	-2.2625	-2.4896	-2.2292	-2.3667	-2.3292	-2.1	-2.225	-2.1292	-2.1312	-2.2188	-1.9583	170.148	238.058	187.613	169.013	267.984	-11.083	207.924	-59.878	112.969	-1.959	225.103	129.902	199.035	2.495	26.464	167.554	0.00020613	0.00059905	0.00024561	1118.6	3.2318e-06	3.5242e-06	1202.7	229.87	2.3037e-06	8.4759e-06	290.22	80.193	62.782	18.322	7.6982e-06	25.677	0.00057796	0.00058754	0.00016454	1119.6	6.3871e-06	6.3882e-06	1192.2	232.73	6.2864e-06	6.3368e-06	294.14	103.13	66.319	19.377	6.3091e-06	27.058	-52.628	271.794	40.879	-51.416	87.615	35.068	-51.099	-43.500	11.394	75.116	-44.074	-33.683	-37.444	-29.636	24.027	-30.451	-8191	255	
892.173	1	1	0	0	0.091251	0.014539	0.32578	0.16236	0.22905	0.26375	0.19209	0.10974	0.48133	0.15182	0.23116	0.10649	0.18871	0.10146	0.11481	0.17383	-2.0146	-2.3958	-1.9146	-2.4729	-2.1479	-2.0708	-2.5187	-2.225	-2.2396	-2.4271	-2.1417	-2.4104	-2.1896	-2.1896	-2.5708	-2.1896	-31.357	-7.604	93.455	258.336	179.283	35.648	193.683	238.360	215.298	51.443	167.221	288.371	-54.473	0.888	212.424	-8.091	0.00021124	0.0006349	0.00025984	1109.1	5.8567e-06	3.8849e-06	1203.5	231.13	9.7958e-06	1.1292e-05	289.23	81.547	62.521	18.166	8.3155e-06	25.549	0.00057092	0.00058616	0.00016202	1114.7	6.2667e-06	6.3399e-06	1190.7	233.28	6.3121e-06	6.3675e-06	293.95	103.33	66.244	19.381	6.2782e-06	27.023	35.542	97.533	-13.662	-51.052	172.676	92.789	-51.221	-43.832	56.043	114.693	-44.284	-34.123	-37.156	-29.832	30.488	-30.473	-8191	255	
892.269	1	1	0	0	0.060273	0.34486	0.24865	0.18029	0.24844	0.14388	0.31318	0.20175	0.12364	0.24742	0.33758	0.24216	0.12967	0.1348	0.16795	0.40706	-1.5771	-2.3229	-2.2	-2.4729	-2.3208	-2.1375	-2.6688	-2.2396	-2.35	-2.4208	-2.1333	-2.1562	-2.1271	-2.0958	-2.4917	-2.2083	100.822	66.136	-32.420	-13.201	144.034	209.498	239.488	255.462	-35.245	244.124	291.770	260.539	275.600	38.748	94.001	272.754	0.00019616	0.00037527	0.00010636	1121.9	4.0394e-06	8.1771e-07	1201.8	229.79	1.1582e-05	2.8474e-06	290.13	81.345	62.647	18.379	2.7425e-06	25.475	0.00056351	0.0005773	0.00016343	1117.6	6.2525e-06	6.3545e-06	1191	232.37	6.2878e-06	6.3592e-06	294.48	103.58	66.557	19.391	6.3524e-06	27.054	-23.558	144.094	69.752	-51.261	272.017	76.166	-51.060	-44.012	92.936	295.314	-44.300	-36.836	-37.358	-29.623	116.200	-30.443	-8191	255	
892.363	1	1	0	0	0.25622	0.1139	0.24326	0.16554	0.2912	0.12851	0.36515	0.11592	0.20101	0.23261	0.04246	0.060419	0.18199	0.30799	0.19942	0.08476	-1.6708	-2.5292	-2.0187	-2.3083	-2.4542	-2.1396	-2.4813	-2.2896	-2.2438	-2.4375	-2.1792	-2.2521	-2.3688	-2.2104	-2.5292	-2.2396	267.804	237.802	-38.102	4.209	99.812	-35.334	225.720	39.765	142.173	25.609	-38.290	99.767	-49.032	272.538	-28.915	176.736	0.0002159	0.00049671	0.00020618	1109.2	4.0337e-06	3.4222e-06	1200.4	231.23	4.2622e-06	8.6855e-06	290.9	82.218	62.559	18.345	7.5493e-06	25.628	0.00056933	0.00057853	0.000162	1114.8	6.2604e-06	6.4002e-06	1189.1	232.99	6.4033e-06	6.352e-06	294.67	103.72	66.301	19.432	6.3216e-06	27.081	-14.774	105.032	101.380	-51.458	136.419	253.859	-51.183	-43.672	250.546	57.639	-44.284	-33.534	-37.107	-30.110	61.943	-30.633	-8191	255	
892.459	1	1	0	0	0.09802	0.33764	0.28368	0.42172	0.12469	0.29096	0.31003	0.20346	0.15731	0.095073	0.32537	0.19614	0.35443	0.13885	0.15457	0.11779	-1.5583	-2.4958	-1.975	-2.3375	-2.4646	-2.2062	-2.6292	-2.375	-2.0687	-2.5417	-2.075	-2.3438	-2.4479	-2.1437	-2.4771	-2.3875	46.454	95.720	129.659	261.525	154.415	67.610	267.919	129.091	218.662	169.882	246.074	226.015	-55.913	-18.242	-34.501	163.483	0.00020545	0.00073216	0.00014272	1117.8	5.1259e-06	3.5459e-06	1204.5	230.6	5.0604e-06	8.0906e-06	289.81	79.049	63.063	18.35	4.4911e-06	25.625	0.0005698	0.00058145	0.00016118	1117.8	6.3499e-06	6.3527e-06	1191.3	233.2	6.2963e-06	6.3867e-06	294.76	103.61	66.516	19.441	6.404e-06	27.091	16.210	-31.624	133.917	-51.288	263.414	229.395	-51.208	-44.080	177.177	98.754	-44.037	-35.392	-37.343	-30.396	244.246	-30.359	-8191	255	
892.556	1	1	0	0	0.11194	0.031974	0.079193	0.18271	0.023883	0.21588	0.31726	0.22144	0.17975	0.1598	0.087043	0.1248	0.1394	0.17526	0.036827	0.21608	-1.4521	-2.4917	-2.0875	-2.3542	-2.3604	-1.9646	-2.4708	-2.2188	-2.0896	-2.7146	-2.2375	-2.2146	-2.5167	-2.0563	-2.3167	-2.3896	84.025	32.010	159.052	292.235	131.778	163.264	276.906	263.016	240.583	114.227	-53.296	240.715	162.075	167.739	92.388	216.688	0.00033501	0.00037765	9.0196e-05	1114.1	3.1514e-06	5.1918e-06	1204.2	229.15	2.5609e-06	3.7691e-06	291.58	80.814	62.063	18.345	6.0421e-06	25.723	0.00057359	0.00058654	0.0001624	1114.3	6.372e-06	6.4291e-06	1193.7	232.11	6.3227e-06	6.374e-06	294.78	103.22	66.207	19.4	6.3366e-06	27.096	2.714	9.174	229.428	-51.321	102.943	84.725	-51.270	-43.867	227.465	23.736	-44.231	-34.216	-36.989	-29.700	-8.044	-30.399	-8191	255	
892.654	1	1	0	0	0.24144	0.25554	0.15232	0.021278	0.055138	0.055813	0.22524	0.18506	0.095828	0.17511	0.32577	0.25035	0.075625	0.22973	0.13399	0.27255	-1.6979	-2.275	-2.1729	-2.2229	-2.5167	-1.9771	-2.6354	-2.5062	-2.2208	-2.4917	-2.375	-2.0042	-2.5708	-2.2042	-2.1917	-2.3229	258.454	291.679	246.094	52.799	174.717	184.518	289.847	216.366	221.049	206.170	-54.817	291.114	162.586	38.298	155.036	172.048	8.0267e-05	0.00085712	8.5452e-05	1120	3.6312e-06	1.2623e-06	1205.5	231.25	1.5137e-06	9.3283e-06	291.6	79.649	62.612	18.283	3.5658e-06	25.827	0.00057216	0.00058077	0.00016203	1118.2	6.2769e-06	6.3235e-06	1191	232.9	6.3263e-06	6.3442e-06	294.47	102.99	66.183	19.395	6.3346e-06	27.105	18.914	105.099	32.034	-51.499	114.697	259.644	-51.244	-43.777	240.689	50.957	-44.371	-36.036	-37.412	-30.004	-31.911	-30.766	-8191	255	
892.772	1	1	0	0	0.3204	0.1925	0.043875	0.18533	0.23176	0.14813	0.036771	0.17995	0.032762	0.18486	0.13414	0.21155	0.074819	0.17006	0.10956	0.16982	-1.6333	-2.4688	-2.0396	-2.2604	-2.3937	-2.1813	-2.4146	-2.3563	-1.9792	-2.5375	-2.2708	-2.0729	-2.5	-2.2062	-2.2625	-2.5292	-8.774	276.554	212.621	44.108	192.811	146.224	235.472	185.342	-24.915	-51.406	102.058	155.359	46.972	-51.569	121.749	54.179	0.00012434	0.0003803	0.00014907	1120.3	4.8793e-06	8.0313e-06	1202.8	231.31	9.5315e-06	1.0102e-06	291.54	79.834	62.411	18.298	1.0362e-05	25.365	0.00056311	0.00057604	0.00016084	1117.5	6.2746e-06	6.2937e-06	1190.3	233.2	6.271e-06	6.3185e-06	294.18	103.59	66.156	19.387	6.3165e-06	26.988	-5.334	181.794	223.645	-51.332	-23.733	17.498	-51.333	-43.949	125.288	147.232	-44.372	-36.830	-37.028	-29.785	28.834	-30.390	-8191	255	
892.869	1	1	0	0	0.039774	0.14717	0.3316	0.12779	0.054199	0.256	0.37988	0.26034	0.20873	0.1832	0.22594	0.061538	0.25039	0.049603	0.11342	0.16932	-1.5896	-2.4	-2.3229	-2.0833	-2.3937	-2.2333	-2.4354	-2.6979	-2.1583	-2.2396	-2.5667	-2.0167	-2.5167	-2.2896	-2.3312	-2.4958	287.545	38.245	209.323	283.786	199.216	211.740	241.001	180.879	57.776	115.660	197.513	-42.296	2.480	104.680	35.735	74.273	0.00028014	0.00066105	0.00017437	1110.9	3.4466e-06	5.2714e-06	1202.7	230.47	8.8106e-06	5.8802e-06	290.58	82.391	62.852	18.342	6.6128e-06	25.52	0.00056282	0.00057487	0.00015948	1115.1	6.3445e-06	6.2794e-06	1190.3	232.92	6.2538e-06	6.2755e-06	294.81	102.92	66.147	19.424	6.1541e-06	26.968	287.785	125.085	27.551	-51.172	88.847	61.498	-51.217	-44.027	81.116	146.413	-44.394	-34.020	-37.372	-29.845	81.361	-30.293	-8191	255	
892.965	1	1	0	0	0.33192	0.12374	0.2193	0.094283	0.21339	0.21289	0.11707	0.11182	0.27248	0.088527	0.097331	0.14667	0.21429	0.13377	0.071814	0.29894	-1.7437	-2.2438	-2.4146	-2.1188	-2.4042	-2.25	-2.3604	-2.4958	-1.9604	-2.3	-2.4979	-1.8375	-2.3958	-2.2854	-2.0354	-2.6708	194.255	-21.985	117.691	163.969	26.038	-30.645	220.597	296.199	154.043	98.631	95.630	93.346	-54.415	-34.748	108.501	-54.595	0.00024493	0.00047238	0.00011674	1112.9	2.8286e-06	5.0344e-06	1200.7	230.25	3.4618e-06	1.883e-06	291.4	79.609	62.607	18.425	6.0637e-06	25.54	0.00055419	0.00056806	0.0001576	1114.3	6.1546e-06	6.2036e-06	1189.7	232.13	6.163e-06	6.1825e-06	294.03	101.15	66.095	19.413	6.1391e-06	26.911	-21.066	32.086	42.227	-51.297	91.818	212.771	-51.251	-44.038	24.009	293.850	-44.226	-37.039	-37.333	-29.913	95.278	-30.520	-8191	255	
893.061	1	1	0	0	0.094041	0.12672	0.38555	0.24716	0.14791	0.04978	0.33128	0.21785	0.22606	0.17463	0.22725	0.23998	0.22674	0.12663	0.16217	0.11986	-1.5771	-2.2062	-2.3396	-2.0958	-2.3354	-2.4875	-2.3021	-2.6063	-2.1896	-2.3708	-2.6708	-2.1458	-2.3104	-2.3854	-2.125	-2.5396	205.419	288.012	283.611	249.924	94.552	97.111	254.368	271.568	248.043	235.916	69.048	58.646	149.913	260.041	234.147	-42.390	0.00017417	0.00048473	0.00025117	1107.1	7.4198e-06	7.2289e-06	1200.6	231.3	1.6093e-06	2.9458e-06	289.37	79.02	63.149	18.445	3.3726e-06	25.54	0.00054961	0.00055411	0.00015429	1111.1	6.0677e-06	6.1281e-06	1187.8	232.3	6.0632e-06	6.0843e-06	293.5	101.2	66.056	19.394	6.1219e-06	26.892	-24.512	-24.138	289.916	-51.727	152.939	-8.440	-51.275	-43.840	293.029	-49.892	-44.074	-35.564	-37.348	-30.324	-14.500	-30.360	-8191	255	
893.157	1	1	0	0	0.12493	0.20687	0.15525	0.23245	0.17954	0.21006	0.16583	0.12009	0.32092	0.26298	0.044373	0.22821	0.050641	0.09341	0.19071	0.037165	-1.6292	-2.2833	-2.3625	-1.9729	-2.3167	-2.2188	-2.1542	-2.5042	-2.1208	-2.2438	-2.5333	-2.2354	-2.3646	-2.2104	-2.0229	-2.4417	87.750	-47.123	90.431	-39.925	268.701	51.734	227.622	244.703	71.421	-22.273	200.678	-27.528	11.808	161.989	267.241	-60.637	0.0003899	0.00043955	2.8894e-05	1118	7.5598e-06	3.478e-06	1203.9	230.74	4.6303e-06	2.6111e-06	290.72	81.847	62.827	18.248	8.1789e-07	25.433	0.00054512	0.00055895	0.00015429	1111.1	6.0881e-06	6.0456e-06	1188.5	232.41	6.0375e-06	6.1239e-06	293.73	101.26	66.071	19.349	6.1158e-06	26.91	-0.363	73.189	-54.694	-51.563	57.645	232.508	-51.087	-43.978	274.495	184.056	-44.352	-36.515	-37.441	-30.096	60.137	-30.040	-8191	255	
893.253	1	1	0	0	0.0993	0.11417	0.097232	0.1449	0.17996	0.16115	0.19103	0.11774	0.10912	0.010343	0.10666	0.25905	0.20755	0.10397	0.12456	0.1371	-1.5542	-2.0438	-2.4604	-2.2354	-2.1917	-2.4625	-2.0208	-2.575	-2.125	-2.2146	-2.5604	-1.9771	-2.2875	-2.4125	-2.0146	-2.6208	225.954	-61.482	154.299	274.597	272.023	-46.866	208.622	-40.492	281.519	196.710	156.382	-54.049	255.432	-47.065	-53.707	179.667	0.00012539	0.00057977	4.9591e-05	1110.9	8.7692e-06	6.8779e-06	1197.7	230.68	2.3996e-06	6.4941e-06	289.63	82.31	62.744	18.427	4.6363e-07	25.372	0.00055155	0.00056439	0.00015659	1112.4	6.1799e-06	6.1161e-06	1187.6	232.41	6.1068e-06	6.1524e-06	293.23	101.8	66.122	19.367	6.1282e-06	26.97	252.669	209.001	-32.792	-51.360	66.049	59.006	-51.187	-43.958	228.911	82.967	-44.213	-36.201	-37.421	-30.022	2.951	-30.628	-8191	255	
893.374	1	1	0	0	0.21395	0.078051	0.17587	0.31594	0.099783	0.2066	0.051002	0.23508	0.14251	0.11895	0.21355	0.20181	0.17387	0.11502	0.24491	0.14038	-1.8271	-2.0604	-2.4562	-2.1458	-2.2979	-2.5042	-2.1063	-2.4396	-2.4167	-1.9271	-2.5563	-2.1396	-2.2333	-2.5521	-2.0312	-2.2792	-23.851	262.811	136.409	297.727	274.482	143.269	284.354	-58.357	7.122	93.199	-37.528	203.534	-10.293	-45.372	16.889	200.066	0.00017834	0.00036955	8.5468e-05	1105.9	3.9656e-06	3.4903e-06	1202.2	230.02	4.778e-06	5.3899e-06	290.38	81.314	62.963	18.29	6.609e-06	25.211	0.00056024	0.00057468	0.00015921	1110.9	6.3386e-06	6.3252e-06	1189.2	232.4	6.2384e-06	6.2963e-06	293.89	102.92	66.231	19.37	6.2214e-06	26.949	295.378	214.955	-47.244	-51.566	164.201	51.294	-51.248	-44.014	78.652	229.843	-44.396	-35.481	-37.214	-29.617	82.029	-30.549	-8191	255	
893.468	1	1	0	0	0.042497	0.082111	0.08046	0.12161	0.045521	0.10052	0.38369	0.31934	0.11875	0.28957	0.27384	0.23396	0.17302	0.18512	0.073637	0.1845	-1.7646	-1.9854	-2.3458	-2.1792	-2.0167	-2.4896	-2.2729	-2.0729	-2.2875	-1.9458	-2.4437	-2.0354	-2.1229	-2.4729	-2.1208	-2.2354	253.028	168.670	12.576	291.529	19.476	88.074	247.035	176.594	223.844	225.581	170.091	9.544	191.984	239.125	-20.749	138.690	0.00019348	0.00010228	0.00010038	1115.7	2.7511e-06	2.6186e-06	1200.1	229.68	5.125e-06	3.6525e-06	289.36	81.041	62.468	18.292	7.1115e-06	25.654	0.00055828	0.00057334	0.00015792	1114.8	6.2326e-06	6.1369e-06	1188.8	232.53	6.2347e-06	6.2634e-06	294.68	102.63	66.187	19.344	6.2001e-06	26.993	-43.917	241.345	-42.008	-51.443	184.077	256.577	-51.287	-43.836	239.092	109.806	-44.192	-36.713	-37.097	-30.115	51.138	-30.607	-8191	255	
893.564	1	1	0	0	0.33007	0.19184	0.30328	0.14106	0.27202	0.087163	0.22979	0.14717	0.2367	0.27473	0.11772	0.16497	0.13445	0.28716	0.27197	0.10972	-1.8271	-2.075	-2.4188	-2.2604	-2.1104	-2.5917	-2.2042	-2.2438	-2.3937	-2.0229	-2.4208	-2.3104	-1.9062	-2.3604	-2.1042	-2.3042	294.229	120.538	115.455	182.765	25.125	-50.840	242.483	238.418	260.275	-38.222	258.342	41.752	-38.053	233.986	49.007	271.025	0.00017402	0.00025073	3.1192e-05	1103.9	3.0261e-06	1.2819e-05	1199	230.82	1.0757e-05	1.833e-06	291.69	82.883	62.49	18.364	7.6637e-06	25.454	0.0005551	0.00057449	0.00015741	1113.7	6.2813e-06	6.2419e-06	1187	232.38	6.2485e-06	6.2393e-06	294.36	102.74	65.962	19.377	6.1848e-06	26.953	-15.701	-14.695	40.258	-51.105	63.404	88.723	-51.246	-43.783	99.601	-14.141	-44.578	-37.380	-37.093	-29.816	81.065	-30.235	-8191	255	
893.660	1	1	0	0	0.27911	0.18083	0.19509	0.062961	0.30789	0.17088	0.16489	0.13906	0.061069	0.15601	0.16303	0.31436	0.10867	0.067855	0.082216	0.18896	-2.1042	-1.9104	-2.2188	-2.3438	-2.0187	-2.6625	-2.2521	-2.1583	-2.3146	-2.1625	-2.3812	-2.2125	-2.0167	-2.5771	-2.2583	-2.3729	84.655	-19.923	242.917	276.029	115.817	150.095	194.748	-5.422	-42.875	71.520	236.148	117.361	288.875	261.384	-1.976	36.388	0.00016233	0.00037834	0.00010402	1105.9	8.9808e-06	6.9355e-06	1194.3	230.05	9.8928e-07	6.8099e-06	291.35	82.441	62.625	18.268	3.2851e-06	25.478	0.00055773	0.00056416	0.00015698	1108.3	6.0898e-06	6.1571e-06	1185.7	232.2	6.0073e-06	6.1681e-06	293.88	101.21	65.886	19.343	6.1676e-06	26.897	-45.644	6.805	71.653	-51.465	83.836	179.424	-51.162	-44.084	58.431	98.815	-44.379	-35.532	-37.072	-29.798	79.208	-30.655	-8191	255	
893.757	1	1	0	0	0.11721	0.16444	0.10326	0.088281	0.10183	0.28769	0.20288	0.16865	0.097776	0.14915	0.21132	0.22529	0.1403	0.43663	0.27604	0.023478	-1.9104	-2.0938	-2.3396	-2.3104	-2.2562	-2.3896	-2.4917	-2.25	-2.525	-2.1375	-2.3729	-2.5042	-1.8333	-2.4146	-2.2979	-2.1396	7.217	57.976	137.612	153.461	255.894	119.248	186.725	284.138	275.716	-23.714	-27.301	45.881	91.322	260.862	-50.360	245.662	0.00024043	0.00024701	4.7556e-05	1108.7	1.5551e-06	3.0457e-06	1202.4	229.96	5.4328e-06	5.1792e-06	290.68	80.409	62.6	18.451	1.0466e-05	25.579	0.00054883	0.00055591	0.00015508	1110.4	6.021e-06	6.1222e-06	1189.4	232.24	6.1037e-06	6.0387e-06	293.56	101.77	65.924	19.339	6.0456e-06	26.955	-25.887	87.013	164.738	-51.433	178.189	-25.872	-51.289	-43.811	145.164	87.283	-44.344	-33.312	-37.415	-30.194	66.287	-30.952	-8191	255	
893.853	1	1	0	0	0.23201	0.28387	0.43865	0.1012	0.14094	0.16215	0.077355	0.24298	0.053924	0.19442	0.19222	0.16406	0.065956	0.11188	0.026226	0.037873	-2.1771	-2.0917	-2.2417	-2.4313	-2.1063	-2.55	-2.45	-2.0354	-2.5604	-2.1646	-2.1792	-2.4229	-2.0354	-2.3563	-2.3438	-2.0833	264.342	277.183	268.757	87.815	201.605	131.671	238.465	253.199	277.436	-57.449	240.837	-50.309	-57.661	-5.650	295.239	123.624	0.00034982	0.00056467	0.00010051	1113.5	5.0972e-06	9.657e-06	1200	231.36	1.1764e-05	4.983e-06	289.08	81.256	62.763	18.292	7.2101e-06	25.45	0.00054375	0.00055621	0.00015446	1108.8	6.0986e-06	6.0574e-06	1187.4	232.33	6.0385e-06	6.0733e-06	293.29	100.82	66.081	19.333	6.0528e-06	26.924	7.035	-27.179	-30.165	-51.247	99.444	81.780	-51.352	-44.132	133.595	-30.630	-44.110	-36.050	-36.857	-29.638	62.534	-30.513	-8191	255	
893.949	1	1	0	0	0.19323	0.07747	0.10046	0.18001	0.14695	0.22469	0.42285	0.27172	0.0081745	0.1965	0.48657	0.18207	0.16264	0.09322	0.073906	0.11952	-2.1167	-2.1458	-2.1333	-2.5	-2.0354	-2.3583	-2.35	-1.9792	-2.5312	-2.0854	-2.1	-2.6688	-2.0396	-2.1542	-2.3583	-2.1042	182.460	128.802	200.284	66.012	4.667	57.485	234.262	-50.213	-39.950	277.032	290.508	220.156	12.833	-54.476	3.111	237.044	0.00036957	0.00036512	8.5685e-05	1112.2	4.316e-06	2.9385e-06	1201.1	229.6	9.2444e-06	6.3141e-06	288.44	78.607	62.809	18.347	1.7427e-06	25.555	0.00054427	0.00055963	0.00015588	1110.2	6.1284e-06	6.1619e-06	1188.4	232.12	6.1943e-06	6.212e-06	293.7	102.01	66.203	19.413	6.2209e-06	26.962	-14.319	93.231	75.966	-51.404	103.262	46.701	-51.140	-43.807	-5.879	224.852	-44.078	-35.329	-37.132	-29.866	82.547	-30.641	-8191	255	
894.070	1	1	0	0	0.077084	0.053051	0.23374	0.1511	0.086203	0.15776	0.267	0.22043	0.14362	0.17614	0.4088	0.12555	0.20078	0.15133	0.30316	0.034936	-2.0729	-2.2062	-2.0542	-2.3167	-2.2146	-2.0167	-2.5542	-1.9646	-2.5187	-2.3104	-2.2021	-2.4396	-2.0083	-2.3458	-2.4104	-2.0229	268.493	79.015	228.160	-28.688	174.918	34.270	231.622	225.085	282.436	-38.333	40.269	20.838	189.269	250.877	297.355	49.689	0.00028373	0.00066452	0.00015382	1107.9	4.7594e-06	5.1802e-06	1198.6	229.85	3.0471e-06	4.2775e-06	289.56	82.014	62.585	18.24	1.3727e-05	25.497	0.00056021	0.0005727	0.00015773	1111.8	6.2117e-06	6.2481e-06	1187.3	232.32	6.1815e-06	6.2861e-06	293.96	102.52	66.049	19.342	6.1697e-06	26.991	2.551	136.878	-31.214	-51.199	154.660	107.271	-51.278	-44.076	279.444	151.269	-44.498	-36.901	-36.850	-30.138	32.952	-30.516	-8191	255	
894.166	1	1	0	0	0.30756	0.31083	0.11488	0.24657	0.26992	0.27549	0.34789	0.29533	0.17411	0.087673	0.22962	0.13334	0.23342	0.14876	0.032409	0.28996	-1.8708	-2.2792	-1.9792	-2.4313	-2.0083	-2.1271	-2.4958	-1.9937	-2.2042	-2.3	-2.1625	-2.3937	-2.0146	-2.1729	-2.5646	-1.8458	222.302	4.348	270.324	232.415	-40.544	11.041	285.511	257.651	215.206	83.519	243.672	86.779	250.692	-56.455	51.020	242.962	0.00023419	0.00014608	0.00027745	1118.5	2.8258e-06	5.5498e-06	1199.7	230.36	7.1962e-06	1.5842e-06	291.45	83.265	63.005	18.229	2.3882e-06	25.574	0.00056267	0.00057246	0.00015919	1117.3	6.2468e-06	6.2175e-06	1188.8	232.19	6.1556e-06	6.2039e-06	294.17	101.89	66.127	19.307	6.1386e-06	26.972	293.089	25.170	13.231	-51.118	94.607	106.149	-51.186	-43.959	126.923	264.342	-44.251	-35.730	-37.481	-29.684	-14.615	-30.720	-8191	255	
894.237	1	1	0	0	0.14152	0.14653	0.28658	0.080846	0.072793	0.092734	0.17511	0.16613	0.051161	0.20221	0.2238	0.23489	0.19096	0.14785	0.24559	0.21544	-1.8833	-2.3083	-1.8563	-2.5521	-2.1292	-2.2479	-2.4875	-2.2833	-2.3646	-2.5104	-1.9833	-2.3958	-2.3542	-2.0771	-2.5062	-2.1708	234.285	143.306	1.015	288.780	233.020	224.308	-11.135	245.832	254.471	47.606	254.388	-47.969	269.188	284.608	-16.289	-48.055	0.00021389	0.00039641	6.9666e-05	1118	3.9374e-06	1.595e-06	1197.6	230.25	4.9469e-06	3.3619e-06	291.66	81.436	62.948	18.416	1.7654e-06	25.473	0.0005518	0.00057921	0.00015897	1114	6.2715e-06	6.2776e-06	1187.9	231.88	6.25e-06	6.2459e-06	294.64	103.17	66.222	19.429	6.2999e-06	27.056	-26.737	219.269	290.147	-50.940	89.348	148.827	-51.188	-43.667	22.283	-4.654	-44.285	-35.811	-37.382	-30.037	260.401	-30.667	-8191	255	
894.334	1	1	0	0	0.10576	0.478	0.11651	0.094674	0.16193	0.14025	0.38228	0.2943	0.073758	0.35821	0.23151	0.2924	0.38842	0.13407	0.030948	0.22591	-1.875	-2.1958	-1.9208	-2.325	-2.2958	-2.0375	-2.5292	-2.1312	-2.1667	-2.4354	-2.1292	-2.0979	-2.3958	-1.9125	-2.4354	-2.2104	26.567	170.541	19.771	-38.236	235.352	153.255	223.486	266.319	221.307	206.213	218.380	230.734	252.112	-37.655	10.193	265.261	0.0001775	0.00037215	0.00014093	1112.7	1.6489e-06	4.7278e-06	1202.6	231.72	1.2466e-06	6.1013e-06	289.2	77.825	62.468	18.264	4.4462e-06	25.36	0.00056165	0.00057131	0.00016124	1113.6	6.2657e-06	6.2471e-06	1188.5	232.83	6.2916e-06	6.2385e-06	294.35	102.54	65.896	19.372	6.1688e-06	26.894	-49.130	-29.261	100.077	-51.181	187.567	194.552	-51.452	-43.817	106.211	236.064	-44.228	-36.132	-37.272	-29.969	29.934	-30.814	-8191	255	
894.452	1	1	0	0	0.11816	0.10534	0.19342	0.24292	0.31912	0.24995	0.24652	0.2617	0.11843	0.21079	0.011501	0.22426	0.13159	0.16151	0.17943	0.16114	-1.6042	-2.4875	-2.1417	-2.2271	-2.1979	-2.0938	-2.4875	-2.0229	-2.1458	-2.5958	-2.0646	-2.3583	-2.3667	-2.075	-2.3042	-2.1396	-38.226	6.486	78.888	238.063	220.962	123.053	204.909	5.345	278.031	120.960	295.916	249.935	-46.918	-16.502	241.323	149.404	0.00043457	0.00058359	9.789e-05	1113	7.1542e-06	7.1048e-06	1199.3	230.81	2.3544e-06	9.0717e-06	290.56	81.187	62.35	18.246	7.9189e-06	25.689	0.00055672	0.00056606	0.00015747	1111.7	6.2295e-06	6.1698e-06	1188.5	232.25	6.1351e-06	6.2238e-06	294.31	101.96	65.98	19.321	6.1563e-06	26.894	24.697	72.994	245.183	-51.936	111.746	128.007	-51.161	-43.819	28.964	181.086	-44.130	-34.446	-37.364	-29.935	281.987	-30.909	-8191	255	
894.549	1	1	0	0	0.22413	0.21581	0.15924	0.14798	0.11603	0.21092	0.15251	0.27935	0.11292	0.083252	0.22835	0.12526	0.18016	0.17121	0.17301	0.14757	-1.6104	-2.25	-2.1688	-2.2	-2.5125	-2.1625	-2.4729	-2.2438	-2.1188	-2.2667	-2.0938	-2.2208	-2.3104	-1.9125	-2.4375	-2.3438	-4.513	200.686	147.091	166.758	36.290	87.684	158.469	247.449	-4.193	221.415	266.555	52.590	-49.003	274.046	194.704	241.694	0.00020256	0.00046054	0.00012824	1110.4	1.4764e-06	3.8529e-06	1202.4	230.04	3.3397e-06	9.197e-06	291.03	79.816	63.027	18.351	9.6584e-06	25.605	0.00055501	0.00056679	0.00015721	1110.4	6.137e-06	6.1657e-06	1190	232.13	6.0888e-06	6.184e-06	293.95	102.19	66.024	19.366	6.0942e-06	26.923	288.618	-55.031	19.858	-51.207	208.493	34.797	-51.208	-43.768	41.303	123.419	-44.094	-37.132	-37.137	-29.539	63.478	-30.252	-8191	255	
894.645	1	1	0	0	0.16486	0.36741	0.2008	0.13637	0.21143	0.26117	0.34107	0.14668	0.1529	0.16569	0.10818	0.14406	0.11568	0.20798	0.078361	0.21639	-1.525	-2.5146	-2.0792	-2.0958	-2.5396	-2.0354	-2.5229	-2.2458	-1.9229	-2.6521	-2.0646	-2.2062	-2.4021	-1.925	-2.2562	-2.3312	66.581	146.925	142.888	74.716	110.423	65.408	258.329	272.142	293.059	62.435	243.953	192.354	-9.614	-23.392	34.472	145.703	0.00023179	0.00099545	7.1784e-05	1106.4	4.3874e-06	1.0562e-06	1207.7	230.78	3.1071e-06	9.9061e-06	292.05	81.806	62.413	18.16	3.8948e-06	25.413	0.00055346	0.00056211	0.00015715	1109.3	6.1136e-06	6.1835e-06	1192.3	232.2	6.0514e-06	6.0294e-06	293.97	101.24	65.825	19.262	6.0622e-06	26.845	-19.883	8.013	-26.777	-51.834	270.877	-24.950	-51.134	-44.002	13.810	203.709	-44.118	-35.912	-36.680	-29.603	-14.928	-30.247	-8191	255	
894.741	1	1	0	0	0.069667	0.073256	0.08016	0.30892	0.067773	0.17243	0.29873	0.33636	0.13179	0.084264	0.15343	0.10898	0.079609	0.04997	0.093449	0.27583	-1.475	-2.3563	-2.1437	-2.2958	-2.5167	-2.2375	-2.3875	-2.3729	-1.9479	-2.3438	-2.1771	-2.0208	-2.4896	-2.1042	-2.1479	-2.3417	115.282	-55.123	-30.977	180.581	161.927	215.756	269.448	252.929	89.509	100.806	243.852	-55.404	208.241	296.328	-39.250	186.304	0.00017989	0.00074954	0.00020603	1112.2	6.2731e-06	1.9099e-06	1197.7	230.38	9.5159e-06	1.1633e-05	290.57	80.149	63.07	18.264	6.32e-06	25.504	0.00054399	0.0005524	0.00015192	1111	6.0065e-06	5.9937e-06	1187.9	231.8	5.971e-06	6.0438e-06	294.21	100.58	65.844	19.268	5.9216e-06	26.917	-50.826	-24.558	33.852	-51.408	191.812	240.806	-51.224	-43.731	190.010	120.665	-44.143	-35.098	-37.341	-30.174	35.630	-30.366	-8191	255	
894.861	1	1	0	0	0.14484	0.059175	0.09692	0.34364	0.13513	0.072219	0.27998	0.16814	0.11213	0.27397	0.15369	0.18595	0.29235	0.27359	0.049989	0.30137	-1.5312	-2.4417	-1.9813	-1.9792	-2.5083	-2.0854	-2.4042	-2.4938	-1.9354	-2.5292	-2.4813	-2.1417	-2.5563	-1.9333	-2.0854	-2.4417	199.043	122.779	235.924	282.741	179.935	96.955	238.307	258.534	21.835	114.748	64.214	-45.736	169.708	266.450	248.449	261.857	0.00035675	0.0005444	9.4921e-05	1120.7	4.7254e-06	9.1547e-07	1206	230.74	7.0926e-06	4.8996e-06	289.34	81.774	62.835	18.391	1.7188e-06	25.498	0.00053021	0.00053609	0.00015159	1110	5.9111e-06	5.9123e-06	1189.4	232.17	5.8481e-06	5.9178e-06	292.95	99.946	65.705	19.256	5.8896e-06	26.886	296.563	35.191	162.460	-51.387	35.745	1.713	-51.224	-44.065	-12.121	30.767	-44.198	-35.423	-37.024	-29.780	171.281	-30.422	-8191	255	
894.933	1	1	0	0	0.28443	0.37199	0.066053	0.10438	0.14872	0.082622	0.042252	0.17974	0.23099	0.33982	0.23882	0.074382	0.12746	0.17284	0.050012	0.074056	-1.6396	-2.1333	-2.2396	-1.9458	-2.4688	-2.2458	-2.1729	-2.45	-1.95	-2.3625	-2.3521	-1.9667	-2.3792	-2.2042	-1.9875	-2.6937	122.305	158.270	68.207	252.765	260.393	102.165	138.778	-50.295	-8.166	-7.385	-24.235	138.521	50.260	40.540	109.991	-27.075	0.00042936	0.00063899	3.6026e-05	1107	3.1781e-06	7.0824e-06	1199.6	229.36	6.3402e-06	4.7617e-06	289.52	79.999	62.016	18.181	4.9938e-06	25.434	0.00052523	0.00053531	0.00014837	1103.8	5.7145e-06	5.7499e-06	1184.6	231.23	5.7375e-06	5.7647e-06	293.32	98.906	65.508	19.205	5.7136e-06	26.745	6.084	97.965	-12.160	-51.039	208.473	269.441	-51.127	-44.031	218.051	57.203	-44.105	-36.340	-37.442	-29.670	233.572	-30.075	-8191	255	
895.054	1	1	0	0	0.17498	0.09786	0.056218	0.18133	0.19897	0.032872	0.24869	0.4414	0.10567	0.26866	0.11947	0.22611	0.10869	0.088994	0.15679	0.15817	-1.5229	-2.2188	-2.3104	-2.0833	-2.3396	-2.2354	-2.1646	-2.4604	-1.9312	-2.2583	-2.2021	-1.8542	-2.3646	-1.9979	-1.9125	-2.3063	15.736	167.955	160.934	240.751	-59.593	126.558	217.048	259.708	186.811	199.013	37.458	121.556	-28.188	124.652	35.690	209.501	0.00013973	0.00020611	0.00022849	1109	2.5465e-06	1.6452e-06	1199.1	230.14	4.4235e-06	4.9298e-06	289.4	85.156	62.548	18.241	2.4452e-06	25.565	0.00051372	0.00052764	0.00014569	1106.5	5.6883e-06	5.699e-06	1185.2	231.18	5.6849e-06	5.7414e-06	292.37	99.086	65.498	19.183	5.7198e-06	26.829	-6.233	100.964	52.604	-51.566	150.377	1.373	-51.180	-43.940	57.026	-7.574	-44.011	-35.304	-37.186	-29.608	62.476	-30.423	-8191	255	
895.150	1	1	0	0	0.26952	0.11719	0.087566	0.098627	0.29113	0.24314	0.21711	0.10915	0.12956	0.24297	0.063904	0.098234	0.1135	0.097288	0.06642	0.056287	-1.8625	-2.2375	-2.35	-1.8896	-2.1229	-2.2104	-2.1104	-2.4396	-1.9646	-2.2208	-2.375	-1.9792	-2.3375	-2.2333	-2.05	-2.3792	62.705	28.998	-7.760	210.637	122.507	0.441	251.447	-13.432	183.751	109.959	12.752	-27.287	204.171	149.474	246.860	48.175	0.00011408	0.00060507	0.00019964	1117	9.2019e-06	2.2861e-06	1201.9	230.22	3.0386e-06	1.5873e-06	289.57	80.252	62.761	18.304	1.3237e-06	25.501	0.00052183	0.00052779	0.00014699	1109.3	5.7336e-06	5.7596e-06	1183.9	231.48	5.7729e-06	5.8166e-06	292.56	99.241	65.688	19.248	5.7811e-06	26.804	-25.636	13.937	-39.082	-51.857	33.937	168.095	-51.270	-43.757	-27.966	284.974	-44.584	-35.439	-36.484	-29.958	-19.161	-30.382	-8191	255	
895.246	1	1	0	0	0.059916	0.31268	0.075004	0.23885	0.28287	0.179	0.41503	0.13255	0.17859	0.28833	0.12018	0.23819	0.090208	0.1596	0.18223	0.15136	-1.6646	-2.1917	-2.5083	-2.1562	-2.225	-2.3229	-2.3438	-2.4583	-2.2125	-2.1625	-2.5	-2.1188	-2.2729	-2.2313	-1.9	-2.5833	211.860	-5.115	164.115	170.652	117.737	50.968	232.184	231.636	55.687	122.135	162.429	-43.233	45.767	285.199	136.472	-42.627	0.00025525	0.0010085	7.0543e-05	1113.2	4.6215e-06	6.2421e-06	1199	230.21	1.0993e-05	2.5713e-06	289.93	82.742	62.235	18.277	7.3446e-06	25.517	0.00052234	0.00052907	0.00014732	1107.8	5.8326e-06	5.7699e-06	1184.1	231.43	5.7839e-06	5.853e-06	293.09	98.928	65.605	19.237	5.8074e-06	26.791	34.867	-40.501	206.733	-51.032	93.481	15.553	-51.091	-43.771	179.566	63.724	-44.244	-35.486	-37.365	-29.893	102.535	-30.298	-8191	255	
895.342	1	1	0	0	0.1335	0.23688	0.088337	0.24594	0.21105	0.044652	0.24932	0.49795	0.21891	0.13015	0.20115	0.16793	0.13368	0.20641	0.067103	0.1063	-1.7792	-2.0292	-2.5333	-2.1437	-2.2833	-2.4896	-1.9729	-2.5583	-2.2542	-2.2125	-2.3854	-2.0062	-2.1458	-2.4083	-1.9604	-2.3729	236.210	211.842	240.009	-17.847	226.196	226.300	-54.765	214.707	76.227	57.485	223.764	110.525	284.339	-9.776	113.233	213.830	0.00042909	0.00036478	5.2574e-05	1116.7	5.2004e-07	1.9722e-06	1200.2	229.16	5.4749e-06	8.9149e-06	289.42	81.123	62.628	18.223	5.9168e-06	25.428	0.00052098	0.00052856	0.00014856	1109.1	5.7686e-06	5.8119e-06	1185.4	231.1	5.8312e-06	5.8764e-06	292.75	99.671	65.663	19.193	5.8643e-06	26.774	-30.637	10.330	131.309	-51.818	19.112	255.229	-51.406	-43.616	276.201	182.734	-44.165	-34.966	-37.245	-29.805	73.661	-30.689	-8191	255	
895.461	1	1	0	0	0.17984	0.15311	0.10636	0.23088	0.14196	0.14942	0.1186	0.28373	0.2473	0.079062	0.3115	0.13669	0.35187	0.04727	0.083919	0.17486	-1.6562	-2.0042	-2.5146	-2.2188	-2.1583	-2.4771	-2.2687	-2.3708	-2.2812	-2.0208	-2.3896	-2.1292	-2.2396	-2.4958	-1.9917	-2.3292	13.216	245.984	38.006	-29.066	-20.244	266.676	170.154	286.151	5.897	274.834	220.183	48.833	200.054	209.899	111.434	185.939	0.00036658	0.00092445	0.00029012	1107.7	5.0975e-06	4.8494e-06	1199.3	230.09	2.4747e-06	5.5625e-06	289.83	77.774	62.962	18.143	6.9421e-06	25.483	0.00052072	0.00053107	0.00014813	1104.2	5.8136e-06	5.8278e-06	1186.7	231.44	5.8574e-06	5.807e-06	291.99	99.192	65.689	19.186	5.8273e-06	26.835	-49.613	35.642	67.719	-51.184	112.121	169.683	-51.278	-43.780	180.573	138.376	-44.252	-35.400	-36.967	-29.956	79.073	-30.166	-8191	255	
895.533	1	1	0	0	0.14482	0.23236	0.1983	0.091041	0.047953	0.074821	0.11359	0.30211	0.27276	0.07001	0.21734	0.28445	0.093369	0.15569	0.26112	0.40463	-1.7104	-1.9917	-2.3146	-2.1521	-2.0146	-2.5083	-2.1208	-2.2708	-2.3521	-1.9312	-2.3104	-2.3542	-2.1333	-2.5312	-1.8854	-2.1583	-6.981	238.982	-28.134	26.944	3.515	167.623	-60.762	284.117	70.822	174.060	158.242	108.633	269.350	-47.242	58.131	-30.792	0.00015827	0.00039118	7.2878e-05	1107.6	5.31e-06	3.7041e-06	1196.1	230.41	1.4209e-06	1.1015e-05	289.27	79.283	61.98	18.412	2.8849e-06	25.415	0.00052685	0.00053952	0.00014898	1104	5.8546e-06	5.8781e-06	1184	231.42	5.786e-06	5.8233e-06	292.68	99.055	65.503	19.281	5.8075e-06	26.86	-21.706	292.496	95.671	-51.027	84.611	31.519	-51.149	-43.735	84.403	84.242	-43.997	-36.229	-36.767	-29.920	95.724	-30.309	-8191	255	
895.629	1	1	0	0	0.20992	0.051109	0.14696	0.2294	0.1592	0.21529	0.28683	0.11964	0.10163	0.26201	0.1988	0.22127	0.19915	0.17472	0.090932	0.051694	-1.8208	-1.9333	-2.2521	-2.1375	-1.8729	-2.4188	-2.2604	-2.4062	-2.4979	-1.9021	-2.5583	-2.3458	-2.0021	-2.3854	-2.1917	-2.1708	193.527	155.465	272.087	293.273	199.001	215.370	-57.986	91.459	-18.345	118.645	247.708	114.176	39.304	90.468	-60.074	77.977	0.00024784	0.00092304	0.00019055	1119.6	1.7743e-06	4.1695e-06	1196.7	229.16	3.9528e-06	6.9995e-06	289.33	77.991	62.557	18.361	3.1448e-06	25.538	0.0005208	0.00054064	0.0001493	1107.4	5.8317e-06	5.8556e-06	1184.3	231.34	5.9028e-06	5.966e-06	293.22	99.539	65.633	19.29	5.9451e-06	26.827	15.172	89.272	143.792	-51.455	210.706	134.014	-51.292	-43.690	261.276	47.132	-44.300	-38.335	-36.935	-29.674	28.045	-30.571	-8191	255	
895.750	1	1	0	0	0.13578	0.042524	0.15164	0.064738	0.27594	0.14412	0.15592	0.17096	0.26659	0.3525	0.13826	0.20563	0.18677	0.11183	0.068879	0.2788	-1.9937	-2.0167	-2.3729	-2.2313	-1.9604	-2.5208	-2.3458	-2.2396	-2.4583	-1.9083	-2.3833	-2.2542	-2.0292	-2.45	-2.1354	-1.9958	232.828	104.755	36.982	219.144	219.255	-26.798	232.905	266.521	36.127	30.920	246.867	217.330	251.794	282.635	288.151	173.029	0.00045705	0.00033089	0.00019142	1112.9	1.218e-06	3.5204e-06	1198.5	229.93	4.6713e-06	1.5748e-06	290.56	78.908	62.518	18.299	1.169e-05	25.493	0.00053193	0.0005411	0.00015086	1108.6	5.911e-06	5.9472e-06	1185.3	231.53	5.9386e-06	6.0539e-06	293.9	100.37	65.938	19.273	6.0603e-06	26.84	-24.591	32.220	18.022	-51.342	130.505	287.163	-51.145	-43.923	45.786	97.438	-43.803	-33.927	-36.957	-30.254	88.786	-30.457	-8191	255	
895.846	1	1	0	0	0.091815	0.21104	0.089226	0.17083	0.099205	0.34984	0.27357	0.21293	0.1779	0.17695	0.13103	0.15283	0.25903	0.19043	0.12176	0.15239	-2.1104	-2.1146	-2.0563	-2.2333	-2.0146	-2.3083	-2.2542	-2.15	-2.3708	-2.2792	-2.0896	-2.5	-2.0563	-2.2458	-2.2	-2.2083	288.616	247.049	-16.441	271.905	206.957	-34.271	220.503	224.401	149.579	162.828	135.103	195.639	296.830	89.787	241.651	-58.416	0.00028811	0.00031268	5.2989e-05	1109.7	3.7984e-06	6.8679e-06	1199.6	229.7	5.5876e-06	5.9085e-06	290.27	80.522	61.714	18.191	5.7991e-06	25.378	0.00054269	0.00055716	0.00015542	1109	6.0117e-06	6.0341e-06	1186.1	231.81	5.9807e-06	6.0893e-06	293.16	100.97	65.679	19.33	6.0312e-06	26.897	-23.918	32.818	33.830	-51.448	159.709	-11.171	-51.160	-44.015	58.167	83.923	-43.823	-37.092	-37.080	-29.803	56.959	-30.037	-8191	255	
895.942	1	1	0	0	0.069781	0.19499	0.15157	0.27533	0.20762	0.17301	0.4021	0.13682	0.14622	0.12296	0.23927	0.13805	0.076099	0.062191	0.060664	0.070635	-1.8687	-2.0667	-2.0125	-2.2875	-2.1021	-2.4833	-2.4	-2.1854	-2.5271	-2.1437	-1.8458	-2.4854	-2.1458	-2.2729	-2.2958	-2.1292	153.089	121.955	92.530	-21.612	82.728	257.603	222.572	64.408	-46.661	191.970	235.012	239.900	74.501	273.901	3.871	227.924	9.2668e-05	0.00066843	0.00013135	1113.7	4.0689e-06	6.294e-06	1206.9	230.47	5.7007e-06	6.0444e-06	289.26	80.777	62.349	18.298	6.1139e-06	25.453	0.00054484	0.00055715	0.00015468	1108.2	6.1093e-06	6.145e-06	1190.2	232.12	6.044e-06	6.1554e-06	293.32	101.9	65.96	19.288	6.0557e-06	26.891	277.041	16.105	-17.759	-51.846	51.277	151.527	-51.402	-43.960	154.053	47.617	-44.223	-35.287	-37.292	-29.674	-26.676	-30.601	-8191	255	
896.038	1	1	0	0	0.075921	0.25406	0.1605	0.21776	0.27262	0.086574	0.43149	0.04674	0.068312	0.19789	0.083779	0.16605	0.26061	0.36829	0.24087	0.052652	-1.9375	-2.1604	-2.0354	-2.5604	-1.9458	-2.4521	-2.5333	-2.0771	-2.4396	-2.2917	-2.1188	-2.5083	-2.2042	-2.2188	-2.175	-2.25	33.378	18.630	32.575	281.946	53.541	164.910	197.682	141.135	116.122	-15.708	-50.328	118.574	253.383	286.761	-20.297	228.767	0.00022836	0.0003511	0.00020815	1103.3	2.3956e-06	5.2428e-06	1200.4	229.71	2.6106e-06	4.1239e-06	289.61	80.8	61.856	18.334	3.4951e-06	25.326	0.00054306	0.00056714	0.00015692	1108.9	6.1913e-06	6.1454e-06	1188.6	232.24	6.2012e-06	6.2048e-06	293.51	102.22	66.005	19.353	6.2141e-06	26.897	-1.845	136.538	151.439	-51.311	-20.194	109.172	-51.097	-43.647	38.260	29.521	-44.029	-35.292	-36.676	-30.200	99.640	-30.828	-8191	255	
896.134	1	1	0	0	0.28008	0.060545	0.11257	0.13686	0.13535	0.091999	0.075724	0.19141	0.18536	0.063193	0.18979	0.093951	0.20091	0.19186	0.049146	0.24762	-2.0542	-2.1979	-2.0458	-2.5396	-2.0542	-2.1771	-2.2771	-1.9292	-2.1604	-2.2708	-2.0729	-2.4958	-2.0583	-2.2188	-2.2771	-2.0062	198.351	32.412	23.057	-51.331	94.727	35.455	145.537	229.066	154.978	145.974	163.592	255.774	20.290	82.781	81.152	294.975	0.00053591	0.00042423	0.00012061	1107.4	2.4841e-06	1.9662e-06	1197.4	230.05	7.1282e-06	6.4715e-06	287.38	78.812	62.85	18.142	2.8944e-06	25.475	0.00056153	0.00057712	0.00015799	1109.9	6.2118e-06	6.1884e-06	1187.6	231.91	6.1314e-06	6.2678e-06	293.45	101.92	66.089	19.306	6.1736e-06	26.956	17.072	164.287	158.314	-51.357	146.290	199.883	-51.207	-43.852	208.259	137.253	-44.384	-34.530	-37.044	-29.948	266.944	-30.697	-8191	255	
896.229	1	1	0	0	0.26105	0.13204	0.042192	0.064924	0.12225	0.30935	0.24648	0.22314	0.09349	0.087919	0.39515	0.16926	0.057662	0.04687	0.11203	0.11075	-1.9146	-2.3354	-1.9104	-2.4938	-2.1896	-2.0563	-2.6021	-2.0167	-2.2792	-2.4167	-2.0083	-2.3917	-2.1667	-2.1229	-2.4313	-2.1458	-49.468	259.780	239.164	54.197	93.516	140.342	261.175	150.925	-33.637	38.873	265.010	176.945	184.406	175.420	114.171	105.932	0.00019815	0.00015789	0.00011725	1106.4	1.6932e-06	3.442e-06	1199.4	229.97	2.6149e-06	1.5986e-05	289.67	78.317	62.22	18.325	4.5829e-06	25.238	0.00056198	0.00056887	0.0001582	1110.4	6.2303e-06	6.2623e-06	1187.1	232.18	6.1896e-06	6.2548e-06	294.28	101.42	65.966	19.352	6.1494e-06	26.845	280.886	163.751	-30.192	-51.391	182.517	97.002	-51.381	-43.658	184.060	121.474	-44.410	-36.645	-37.288	-30.103	161.340	-30.969	-8191	255	
896.325	1	1	0	0	0.26218	0.067272	0.15234	0.41116	0.18191	0.083664	0.10994	0.26793	0.45897	0.17392	0.22762	0.2483	0.21756	0.057112	0.15746	0.16307	-1.7188	-2.3771	-1.9813	-2.525	-2.1875	-1.9917	-2.6917	-2.0438	-2.1771	-2.2771	-2.0104	-2.3458	-2.1521	-2.2167	-2.2458	-2.2417	245.543	226.578	-48.936	254.404	28.476	111.595	120.457	285.428	263.059	109.251	174.941	221.039	-52.111	125.650	260.566	275.575	0.00023431	0.00039433	0.00017435	1111.8	4.7541e-06	2.0957e-06	1194.7	231.17	6.1763e-06	5.5923e-06	289	79.809	62.741	18.2	4.4741e-06	25.367	0.00055724	0.0005649	0.00015707	1112.6	6.1616e-06	6.2095e-06	1184.9	232.16	6.1576e-06	6.2075e-06	293.7	101.78	65.976	19.342	6.1335e-06	26.881	-12.456	-9.715	-17.180	-51.172	152.370	-26.421	-51.191	-43.984	186.520	290.495	-44.139	-34.753	-37.018	-29.454	151.640	-30.809	-8191	255	
896.445	1	1	0	0	0.054208	0.1075	0.24584	0.2374	0.23826	0.23158	0.14733	0.18602	0.19164	0.11824	0.23747	0.35197	0.1342	0.26928	0.11973	0.058796	-1.6625	-2.2938	-1.8146	-2.4104	-2.1917	-2.0104	-2.8396	-2.2292	-2.2458	-2.3458	-1.9229	-2.2646	-2.2792	-2.0458	-2.5292	-2.1813	-50.001	1.036	-2.835	288.166	-53.849	68.296	291.490	6.934	4.779	-16.984	250.621	296.979	5.404	200.954	184.168	98.460	0.0002286	0.00014372	0.00019073	1104.6	4.995e-06	4.3786e-07	1198.9	229.88	1.7874e-06	3.7661e-06	290.24	80.954	62.602	18.266	1.7111e-06	25.293	0.00055513	0.0005636	0.00015869	1107.1	6.2039e-06	6.1898e-06	1187.1	231.89	6.1479e-06	6.1401e-06	293.4	101.34	65.826	19.3	6.0174e-06	26.808	-36.967	-26.054	-16.350	-51.409	131.225	186.154	-51.305	-43.720	105.578	51.251	-44.059	-35.399	-37.500	-30.359	174.459	-30.313	-8191	255	
896.541	1	1	0	0	0.11611	0.22273	0.25057	0.20896	0.23873	0.25269	0.16701	0.2044	0.21736	0.13078	0.20964	0.20773	0.073121	0.30665	0.13359	0.093623	-1.7083	-2.3042	-1.9438	-2.4271	-2.2625	-2.0271	-2.5875	-2.2333	-2.1042	-2.3354	-2.1813	-2.1833	-2.4313	-2.0333	-2.3563	-2.1979	219.930	0.419	278.492	271.572	38.032	-13.222	179.396	227.007	14.095	197.049	190.276	248.973	-17.905	-11.855	281.554	100.362	0.00010158	0.00048915	0.0001235	1104.8	3.4483e-06	3.8675e-06	1193.3	229.49	4.1506e-06	3.2623e-06	291.01	78.979	62.559	18.082	6.3846e-06	25.559	0.00053753	0.00055259	0.00015349	1105	5.9321e-06	5.9174e-06	1183.3	231.55	5.9893e-06	6.0198e-06	293.78	101.45	65.854	19.261	6.0781e-06	26.884	29.354	-13.048	194.298	-50.901	0.896	286.707	-51.228	-43.784	23.645	70.172	-44.023	-35.295	-36.959	-29.326	100.908	-30.747	-8191	255	
896.638	1	1	0	0	0.17542	0.24529	0.091733	0.15395	0.01122	0.02105	0.19557	0.20751	0.025606	0.24264	0.27994	0.03745	0.16322	0.23498	0.2823	0.075619	-1.6771	-2.3417	-1.9479	-2.2438	-2.3271	-2.0708	-2.5375	-2.3896	-2.125	-2.5687	-2.1167	-2.0542	-2.2917	-2.0646	-2.3583	-2.2313	267.229	-26.838	-22.734	278.137	-40.090	243.626	100.129	251.084	74.564	-28.175	-37.866	5.531	198.668	230.397	55.455	91.030	0.00028546	0.00039298	0.00027583	1108	4.6116e-06	2.2376e-06	1201.2	229.24	5.8513e-06	2.8227e-06	290.72	78.41	62.75	18.298	3.0171e-06	25.326	0.00054152	0.00054747	0.00015362	1105.6	5.9581e-06	6.0176e-06	1186.2	231.58	5.9971e-06	6.0557e-06	293.69	100.92	65.902	19.253	5.9668e-06	26.844	-26.415	222.841	16.539	-51.105	147.875	141.993	-51.085	-43.796	142.249	277.334	-44.523	-36.646	-37.002	-29.867	-21.904	-30.581	-8191	255	
896.734	1	1	0	0	0.23636	0.12969	0.07438	0.23192	0.21116	0.050847	0.26195	0.18215	0.14903	0.19533	0.23367	0.11008	0.23491	0.14378	0.081385	0.10408	-1.6083	-2.4021	-2.1125	-2.1792	-2.4667	-1.7625	-2.4271	-2.4188	-2.0417	-2.6354	-2.1979	-1.9667	-2.5729	-2.1771	-2.5896	-2.4604	169.374	220.793	295.201	-34.442	-6.703	151.167	232.277	161.474	100.331	184.423	-53.609	139.742	-18.956	58.348	259.817	130.370	0.00037565	4.947e-05	0.00019124	1110.1	5.9587e-06	2.6603e-06	1197.6	230.09	8.0459e-06	9.4555e-06	288.65	78.638	62.088	18.108	2.9862e-06	25.6	0.00053241	0.00054629	0.00015286	1105.7	5.9857e-06	6.018e-06	1185	231.38	5.975e-06	5.9324e-06	292.53	100.36	65.409	19.226	5.9691e-06	26.9	-38.893	102.375	23.268	-51.303	148.464	277.343	-51.368	-43.748	98.102	13.728	-44.088	-34.604	-36.888	-30.084	106.072	-31.133	-8191	255	
896.830	1	1	0	0	0.058923	0.36366	0.13018	0.14276	0.30573	0.2548	0.21854	0.33908	0.14661	0.12312	0.18113	0.10062	0.04805	0.097963	0.2528	0.19986	-1.5562	-2.3854	-2.1937	-2.1771	-2.4792	-2.0458	-2.3458	-2.5479	-2.0104	-2.6063	-2.2896	-2.0375	-2.5354	-2.175	-2.4125	-2.5458	48.373	175.813	62.535	232.825	180.711	290.644	204.766	-56.494	125.699	95.675	221.929	-53.561	142.790	214.697	271.077	2.942	0.00014715	0.00059318	4.8241e-05	1108.1	9.5623e-06	5.6575e-06	1195	229.8	3.6581e-06	4.4331e-06	291.07	80.212	62.837	18.153	5.4002e-06	25.472	0.00053927	0.00054421	0.0001511	1104	5.9213e-06	5.9801e-06	1183.9	231.38	5.9162e-06	5.9766e-06	293.27	99.879	65.597	19.239	5.9574e-06	26.867	-20.846	34.843	23.711	-51.200	45.965	109.039	-51.085	-43.737	82.578	175.486	-44.084	-36.705	-36.879	-29.588	52.604	-30.137	-8191	255	
896.924	1	1	0	0	0.13544	0.16271	0.16379	0.1412	0.15196	0.081562	0.17507	0.036815	0.18013	0.2293	0.11243	0.14352	0.14636	0.14611	0.071788	0.19465	-1.6396	-2.4458	-2.325	-2.1458	-2.5333	-2.2208	-2.5021	-2.5958	-1.9854	-2.4646	-2.1542	-2.2188	-2.3875	-2.1229	-2.2667	-2.5354	-59.893	-14.392	133.837	241.058	75.029	231.617	273.270	9.382	290.627	69.137	227.523	-38.609	-28.170	-15.451	1.838	24.773	0.00048871	0.00059406	9.2199e-05	1106.2	1.6686e-06	2.9699e-06	1200.4	229.7	3.91e-06	1.8021e-06	289.76	80.969	62.15	18.15	6.8761e-06	25.277	0.00053916	0.00054933	0.00015334	1104.9	6.0273e-06	6.0695e-06	1184	231.55	6.0394e-06	6.0328e-06	293.09	100.48	65.731	19.225	6.0761e-06	26.842	-35.016	-29.163	42.435	-51.073	131.980	82.244	-51.335	-43.766	27.565	252.241	-44.210	-35.481	-36.930	-29.655	297.416	-30.347	-8191	255	
897.045	1	1	0	0	0.24424	0.032352	0.19565	0.27166	0.23656	0.028356	0.2621	0.1998	0.31874	0.29295	0.25482	0.073134	0.16568	0.1938	0.20029	0.30555	-1.5604	-2.1896	-2.3312	-2.0708	-2.5604	-2.3104	-2.3187	-2.6958	-2.0646	-2.3125	-2.5792	-2.1896	-2.5	-2.2896	-2.1958	-2.5958	254.027	-34.136	273.724	280.055	273.721	-1.245	254.149	285.549	129.820	217.422	237.868	-14.408	-52.078	250.998	280.955	-51.484	0.00019871	0.00042936	0.00020257	1109.7	3.8804e-06	2.59e-06	1196.5	228.74	8.7572e-06	7.5006e-06	288.07	80.886	62.183	18.209	1.3516e-06	25.462	0.00054118	0.00055616	0.00015336	1107.5	6.0086e-06	6.0322e-06	1184	231.61	6.0123e-06	6.0042e-06	292.39	100.96	65.569	19.242	5.9774e-06	26.864	-50.632	120.084	43.669	-50.911	23.480	23.217	-51.354	-43.937	220.284	64.376	-44.066	-35.167	-37.059	-29.940	-5.345	-30.435	-8191	255	
897.141	1	1	0	0	0.30579	0.27516	0.082438	0.41051	0.22711	0.093529	0.28396	0.25115	0.23038	0.33712	0.18696	0.099475	0.069848	0.073025	0.19071	0.063228	-1.6479	-2.225	-2.4479	-2.0062	-2.5687	-2.1646	-2.2875	-2.525	-2.0792	-2.3625	-2.3083	-1.9708	-2.3896	-2.3417	-2.1646	-2.4729	232.266	89.609	24.547	-61.222	81.384	233.282	235.874	210.347	-20.600	-17.672	215.874	5.180	214.377	249.064	93.694	166.966	5.9966e-05	0.00034027	8.6348e-05	1111.3	4.3406e-06	4.3308e-06	1193.3	230.05	4.5509e-06	6.6928e-06	290.29	83.379	61.939	18.196	1.0602e-05	25.645	0.00053672	0.00054149	0.00015066	1107.7	5.8807e-06	5.891e-06	1182.3	231.11	5.811e-06	5.8346e-06	292.36	99.347	65.447	19.198	5.8261e-06	26.766	-18.675	58.088	-3.152	-51.195	-27.643	69.935	-51.217	-43.961	291.249	64.789	-44.284	-35.694	-36.852	-29.789	103.052	-30.549	-8191	255	
897.237	1	1	0	0	0.21804	0.16624	0.18114	0.18722	0.22488	0.17759	0.27199	0.21774	0.17308	0.058929	0.051441	0.22975	0.13828	0.18576	0.19017	0.15498	-1.6042	-2.2646	-2.3646	-2.0146	-2.2562	-2.2333	-2.3833	-2.5396	-2.1375	-2.1688	-2.6125	-1.8729	-2.325	-2.2375	-2.0833	-2.4479	265.992	256.070	31.516	236.199	258.324	31.941	242.985	-33.641	14.135	275.289	167.008	261.335	-50.373	162.447	110.645	203.050	0.00036217	0.00054698	0.00018074	1099.5	3.5654e-06	5.953e-06	1192.4	228.95	6.9299e-06	4.0343e-06	288.98	78.531	61.918	18.3	6.922e-06	25.588	0.00052452	0.0005318	0.00014728	1102.3	5.8284e-06	5.9176e-06	1180.3	231.09	5.8738e-06	5.9371e-06	292.36	99.936	65.567	19.241	5.9815e-06	26.787	-4.847	142.319	-26.558	-50.752	74.665	97.084	-51.150	-43.843	-23.159	157.599	-44.318	-33.992	-36.621	-30.327	130.084	-30.670	-8191	255	
897.333	1	1	0	0	0.13469	0.30664	0.066587	0.25902	0.12109	0.21637	0.10489	0.23001	0.14179	0.2485	0.077351	0.21497	0.17377	0.18663	0.16669	0.27664	-1.7646	-2	-2.5167	-2.2604	-2.3333	-2.3854	-2.2875	-2.5833	-2.2062	-2.1292	-2.4292	-2.1813	-2.3792	-2.4396	-2.0333	-2.4396	34.903	250.194	35.945	214.657	102.363	147.859	186.012	-35.395	59.225	270.682	234.745	241.853	187.125	-23.957	129.594	228.079	0.00055551	0.00046166	0.00024463	1104.6	7.3649e-06	4.1446e-06	1199	229.25	7.4388e-06	2.9892e-06	290.77	82.748	62.427	18.287	3.4025e-06	25.328	0.0005374	0.00054595	0.00015405	1105.2	6.0392e-06	5.9845e-06	1183.8	230.97	5.9111e-06	5.9176e-06	293.1	98.98	65.553	19.21	5.7888e-06	26.754	-41.750	73.136	13.168	-51.069	275.180	53.012	-51.087	-43.819	41.413	270.017	-44.136	-36.082	-37.287	-29.633	-9.594	-30.700	-8191	255	
897.405	1	1	0	0	0.15634	0.058179	0.055694	0.15209	0.082461	0.17216	0.2168	0.13449	0.24601	0.16726	0.077682	0.24198	0.22105	0.092597	0.035675	0.14359	-1.8667	-2.2292	-2.5979	-2.175	-2.4333	-2.1833	-2.1	-2.4083	-2.325	-2.0125	-2.6896	-2.1646	-2.2854	-2.5208	-1.9083	-2.4396	151.453	50.003	45.310	219.745	58.124	113.630	275.186	83.868	173.981	49.025	213.721	148.738	230.078	185.330	294.993	158.011	0.00017167	0.00027691	0.00012891	1106.8	5.221e-06	3.3249e-06	1194.5	229.12	3.6059e-06	5.3767e-06	289.8	80.155	62.412	18.307	4.7699e-06	25.522	0.00051993	0.00052453	0.00014661	1100.8	5.7841e-06	5.7816e-06	1180.4	231.08	5.7469e-06	5.737e-06	292.14	98.258	65.466	19.161	5.6598e-06	26.721	18.831	187.693	-29.706	-51.283	85.891	262.352	-51.235	-43.827	43.652	67.865	-43.937	-35.482	-37.084	-29.955	232.127	-30.349	-8191	255	
897.526	1	1	0	0	0.24636	0.1458	0.15746	0.27334	0.18632	0.1844	0.31096	0.24989	0.089477	0.31721	0.35079	0.13423	0.20044	0.18641	0.14533	0.1014	-1.8458	-1.8813	-2.5271	-2.1646	-2.2396	-2.4188	-2.3771	-2.3917	-2.3625	-2.175	-2.45	-2.0021	-2.1729	-2.3625	-2.1104	-2.3375	101.853	170.280	-11.573	202.933	271.389	57.532	199.876	248.992	116.881	223.809	203.424	272.427	93.386	188.073	53.210	291.368	0.00013637	0.00052778	0.00014917	1109.1	3.9921e-06	8.0651e-06	1192.2	228.57	3.5766e-06	2.3416e-06	288.93	79.225	62.39	18.178	6.6507e-06	25.533	0.00051121	0.00051713	0.00014369	1100.9	5.6343e-06	5.612e-06	1178.5	230.45	5.5694e-06	5.6134e-06	291.05	97.065	65.113	19.13	5.5188e-06	26.701	272.123	70.441	292.959	-51.277	253.062	29.693	-51.131	-43.893	175.795	179.280	-43.759	-33.601	-37.358	-29.703	259.014	-30.620	-8191	255	
897.622	1	1	0	0	0.030469	0.25653	0.17962	0.088933	0.18815	0.027848	0.13451	0.067584	0.11014	0.22363	0.17932	0.26889	0.29407	0.10055	0.2285	0.13375	-1.9	-1.85	-2.6104	-2.2021	-1.9542	-2.4562	-2.0812	-2.3125	-2.4208	-1.8896	-2.5312	-2.2042	-2.0104	-2.5917	-2.1937	-2.3792	98.992	149.307	257.506	14.629	246.259	203.074	263.256	216.114	61.915	37.897	239.431	254.517	-54.680	197.036	288.330	223.312	0.00023657	0.00020929	6.9233e-05	1104.1	3.8784e-06	5.2464e-06	1199.1	229.9	8.1104e-06	3.7402e-06	289.29	80.277	62.541	18.135	4.8763e-06	25.612	0.00050593	0.00051256	0.0001434	1096.9	5.6689e-06	5.6826e-06	1181.4	230.91	5.6845e-06	5.8543e-06	291.78	99.253	65.476	19.179	5.7611e-06	26.743	37.072	268.492	-32.900	-51.404	-4.014	198.029	-51.339	-43.742	-36.827	136.533	-44.259	-35.119	-37.237	-29.655	71.656	-30.538	-8191	255	
897.718	1	1	0	0	0.19921	0.19466	0.1815	0.22798	0.096209	0.21113	0.18538	0.28084	0.13359	0.19865	0.13651	0.10163	0.3195	0.13201	0.039653	0.033863	-1.6667	-2.1312	-2.1979	-2.2687	-2.1437	-2.5896	-2.4562	-2.4146	-2.5021	-2	-2.5563	-2.2771	-2.1104	-2.5854	-2.0542	-2.15	121.304	-14.976	53.559	162.792	26.145	86.165	-28.582	214.390	50.385	-49.888	271.027	288.383	270.938	-31.121	111.573	40.641	0.00037269	0.00055817	0.00014768	1106.8	2.9934e-06	3.3345e-06	1195	229.87	2.7786e-06	4.8508e-06	288.07	80.179	62.787	18.218	7.1792e-06	25.249	0.00052108	0.00053211	0.00014689	1100	5.7747e-06	5.7314e-06	1181.8	231.08	5.6868e-06	5.7661e-06	291.78	97.807	65.34	19.144	5.71e-06	26.69	-19.425	-13.078	70.116	-51.407	100.378	43.911	-51.099	-43.943	62.356	58.083	-44.319	-35.268	-37.372	-29.661	276.517	-30.358	-8191	255	
897.814	1	1	0	0	0.25794	0.18053	0.088721	0.25706	0.091083	0.02268	0.22759	0.040422	0.306	0.20559	0.25383	0.1067	0.11421	0.21377	0.087158	0.091555	-2.0646	-1.8083	-2.3542	-2.4604	-2.1354	-2.5354	-2.3583	-2.2062	-2.5062	-2.3688	-2.6583	-2.325	-1.8	-2.6	-2.2875	-2.2146	30.134	85.377	72.276	275.707	91.931	225.022	222.346	-0.479	41.556	227.654	241.504	144.282	244.220	271.444	225.669	241.100	0.00026191	0.00041975	0.00019141	1102	1.9379e-06	4.9015e-06	1192.2	229.14	5.7666e-06	7.2584e-06	290	81.542	62.259	18.3	1.1166e-05	25.386	0.0005194	0.00052829	0.00014555	1100.5	5.7175e-06	5.7654e-06	1179.7	230.38	5.7072e-06	5.7951e-06	291.93	99.081	65.424	19.19	5.7975e-06	26.697	-30.064	-46.317	18.776	-51.255	235.561	9.387	-51.045	-43.892	158.107	112.705	-43.889	-36.353	-37.190	-29.840	206.768	-30.185	-8191	255	
897.933	1	1	0	0	0.077091	0.11856	0.1303	0.075716	0.30459	0.075465	0.25024	0.095771	0.069667	0.31199	0.039104	0.036849	0.17847	0.14514	0.18485	0.23849	-1.9396	-2.1333	-2.4083	-2.4542	-1.9292	-2.4437	-2.4854	-2.2354	-2.5542	-2.2542	-2.3417	-2.5646	-2.1354	-2.3688	-2.3563	-2.0729	168.137	28.773	-52.450	152.996	186.704	129.326	236.164	278.858	-0.993	140.149	297.362	62.041	94.512	50.455	273.005	164.229	0.00021088	0.000529	4.2028e-05	1108.9	3.8685e-06	3.2891e-06	1193.3	229.83	6.6989e-06	3.4499e-06	289.86	79.7	62.033	18.23	4.7232e-06	25.399	0.00052017	0.00053045	0.00014752	1102.6	5.7787e-06	5.7968e-06	1180	231.01	5.7731e-06	5.8476e-06	291.95	98.145	65.186	19.211	5.7372e-06	26.691	-30.734	-53.853	72.518	-51.513	13.228	64.667	-51.320	-44.221	204.651	80.720	-44.135	-35.477	-37.018	-29.827	175.206	-30.600	-8191	255	
#DATA ENDS
