BOXY.EXE: ISS Imagent and Oximeter Data Acquisition Program Version 0.80
Ascii Record File

#ACQ INFORMATION
2  Detector Channels 
16  External MUX Channels 
1  Auxiliary Channels 
5000  Waveform (CCF) Frequency (Hz)
1  Waveforms Skipped 
30  Waveforms Averaged 
1  Cycles Averaged 
16  Acquisitions per Waveform 
10.0806  Updata Rate (Hz) 

#FILE INFORMATION
TRUE -- External MUX Channel results are PARSED.
FALSE -- AC DC and Phase are NOT grouped.
TRUE -- Companion Program Settings File CREATED.
FALSE -- AC data not excluded
FALSE -- DC data not excluded
FALSE -- Phase data not excluded
FALSE -- Auxillary Chn. data not excluded
Tab delimiters

#CALIBRATION STATE
TRUE -- Waveform Calibration Values APPLIED.


#AUX CALIBRATION VALUES
Val Type	aux-1	

Term	1.0000e+00	
Factor	0.0000e+00	


#WF CALIBRATION VALUES
A = Detector Channel
Val Type	A-AC1	A-AC2	A-AC3	A-AC4	A-AC5	A-AC6	A-AC7	A-AC8	A-AC9	A-AC10	A-AC11	A-AC12	A-AC13	A-AC14	A-AC15	A-AC16	A-DC1	A-DC2	A-DC3	A-DC4	A-DC5	A-DC6	A-DC7	A-DC8	A-DC9	A-DC10	A-DC11	A-DC12	A-DC13	A-DC14	A-DC15	A-DC16	A-Ph1	A-Ph2	A-Ph3	A-Ph4	A-Ph5	A-Ph6	A-Ph7	A-Ph8	A-Ph9	A-Ph10	A-Ph11	A-Ph12	A-Ph13	A-Ph14	A-Ph15	A-Ph16	

Term	0.00000e+00	0.00000e+00	0.00000e+00	0.00000e+00	0.00000e+00	0.00000e+00	0.00000e+00	0.00000e+00	0.00000e+00	0.00000e+00	0.00000e+00	0.00000e+00	0.00000e+00	0.00000e+00	0.00000e+00	0.00000e+00	0.00000e+00	0.00000e+00	0.00000e+00	0.00000e+00	0.00000e+00	0.00000e+00	0.00000e+00	0.00000e+00	0.00000e+00	0.00000e+00	0.00000e+00	0.00000e+00	0.00000e+00	0.00000e+00	0.00000e+00	0.00000e+00	0.00000e+00	0.00000e+00	0.00000e+00	0.00000e+00	0.00000e+00	0.00000e+00	0.00000e+00	0.00000e+00	0.00000e+00	0.00000e+00	0.00000e+00	0.00000e+00	0.00000e+00	0.00000e+00	0.00000e+00	0.00000e+00	
Factor	1.00000e+00	1.00000e+00	1.00000e+00	1.00000e+00	1.00000e+00	1.00000e+00	1.00000e+00	1.00000e+00	1.00000e+00	1.00000e+00	1.00000e+00	1.00000e+00	1.00000e+00	1.00000e+00	1.00000e+00	1.00000e+00	1.00000e+00	1.00000e+00	1.00000e+00	1.00000e+00	1.00000e+00	1.00000e+00	1.00000e+00	1.00000e+00	1.00000e+00	1.00000e+00	1.00000e+00	1.00000e+00	1.00000e+00	1.00000e+00	1.00000e+00	1.00000e+00	X	X	X	X	X	X	X	X	X	X	X	X	X	X	X	X	

B = Detector Channel
Val Type	B-AC1	B-AC2	B-AC3	B-AC4	B-AC5	B-AC6	B-AC7	B-AC8	B-AC9	B-AC10	B-AC11	B-AC12	B-AC13	B-AC14	B-AC15	B-AC16	B-DC1	B-DC2	B-DC3	B-DC4	B-DC5	B-DC6	B-DC7	B-DC8	B-DC9	B-DC10	B-DC11	B-DC12	B-DC13	B-DC14	B-DC15	B-DC16	B-Ph1	B-Ph2	B-Ph3	B-Ph4	B-Ph5	B-Ph6	B-Ph7	B-Ph8	B-Ph9	B-Ph10	B-Ph11	B-Ph12	B-Ph13	B-Ph14	B-Ph15	B-Ph16	

Term	0.00000e+00	0.00000e+00	0.00000e+00	0.00000e+00	0.00000e+00	0.00000e+00	0.00000e+00	0.00000e+00	0.00000e+00	0.00000e+00	0.00000e+00	0.00000e+00	0.00000e+00	0.00000e+00	0.00000e+00	0.00000e+00	0.00000e+00	0.00000e+00	0.00000e+00	0.00000e+00	0.00000e+00	0.00000e+00	0.00000e+00	0.00000e+00	0.00000e+00	0.00000e+00	0.00000e+00	0.00000e+00	0.00000e+00	0.00000e+00	0.00000e+00	0.00000e+00	2.70886e+01	-1.47570e+02	-1.59823e+02	-1.87769e+02	-7.16749e+01	-1.02766e+02	-1.57019e+02	-1.62015e+02	-1.01898e+02	-8.89711e+01	-1.73571e+02	-1.72116e+02	-1.82981e+02	-1.77625e+02	-1.07765e+02	-1.50887e+02	
Factor	4.90076e-05	9.02078e-05	2.72429e-05	5.41330e-01	1.00772e-06	1.22008e-06	1.72070e-01	5.71424e-02	1.21130e-06	1.00603e-06	1.10401e-01	3.27385e-02	3.12637e-02	9.63839e-03	1.14382e-06	1.41262e-02	4.51512e-07	4.55847e-07	1.26572e-07	2.20301e-01	4.97833e-09	4.98109e-09	7.62968e-02	2.65919e-02	4.98129e-09	4.97910e-09	4.73171e-02	1.42145e-02	1.38173e-02	4.35854e-03	4.97014e-09	6.06963e-03	X	X	X	X	X	X	X	X	X	X	X	X	X	X	X	X	



#DISTANCE SETTINGS
A = Detector Channel
A-1	A-2	A-3	A-4	A-5	A-6	A-7	A-8	A-9	A-10	A-11	A-12	A-13	A-14	A-15	A-16	

2.5000e+00	3.0000e+00	2.5000e+00	3.0000e+00	2.0000e+00	3.0000e+00	1.5000e+00	3.0000e+00	3.0000e+00	3.0000e+00	3.0000e+00	3.0000e+00	3.0000e+00	3.0000e+00	1.5000e+00	3.0000e+00	

B = Detector Channel
B-1	B-2	B-3	B-4	B-5	B-6	B-7	B-8	B-9	B-10	B-11	B-12	B-13	B-14	B-15	B-16	

1.0000e+01	1.0000e+01	1.0000e+01	1.4400e+00	1.0000e+01	1.0000e+01	1.5100e+00	1.9400e+00	1.0000e+01	1.0000e+01	1.9900e+00	2.4900e+00	2.4100e+00	2.9000e+00	1.0000e+01	2.9800e+00	




#DATA BEGINS
time	group	step	mark	flag	A-AC1	A-AC2	A-AC3	A-AC4	A-AC5	A-AC6	A-AC7	A-AC8	A-AC9	A-AC10	A-AC11	A-AC12	A-AC13	A-AC14	A-AC15	A-AC16	A-DC1	A-DC2	A-DC3	A-DC4	A-DC5	A-DC6	A-DC7	A-DC8	A-DC9	A-DC10	A-DC11	A-DC12	A-DC13	A-DC14	A-DC15	A-DC16	A-Ph1	A-Ph2	A-Ph3	A-Ph4	A-Ph5	A-Ph6	A-Ph7	A-Ph8	A-Ph9	A-Ph10	A-Ph11	A-Ph12	A-Ph13	A-Ph14	A-Ph15	A-Ph16	B-AC1	B-AC2	B-AC3	B-AC4	B-AC5	B-AC6	B-AC7	B-AC8	B-AC9	B-AC10	B-AC11	B-AC12	B-AC13	B-AC14	B-AC15	B-AC16	B-DC1	B-DC2	B-DC3	B-DC4	B-DC5	B-DC6	B-DC7	B-DC8	B-DC9	B-DC10	B-DC11	B-DC12	B-DC13	B-DC14	B-DC15	B-DC16	B-Ph1	B-Ph2	B-Ph3	B-Ph4	B-Ph5	B-Ph6	B-Ph7	B-Ph8	B-Ph9	B-Ph10	B-Ph11	B-Ph12	B-Ph13	B-Ph14	B-Ph15	B-Ph16	aux-1	digaux	

1179.223	1	1	0	256	0.13013	0.15679	0.12701	0.17054	0.0336	0.011566	0.28588	0.36372	0.088781	0.045045	0.12888	0.22932	0.13575	0.15561	0.17983	0.37203	-2.1708	-2.4625	-2.4542	-2.6625	-2.3021	-2.6	-2.7042	-2.3354	-2.7854	-2.5583	-2.4021	-2.7083	-2.325	-2.4708	-2.5687	-2.4188	-60.662	159.007	-96.093	105.642	192.018	149.987	71.061	174.846	98.573	37.361	165.983	22.486	177.250	-53.891	-77.390	136.554	0.00046133	0.00095669	0.00013922	598.79	1.1214e-05	1.016e-05	992.6	163.01	1.2761e-05	1.3312e-05	317.87	82.584	36.915	12.164	2.0938e-06	25.442	0.0011854	0.0011959	0.00033393	1032.4	1.2997e-05	1.3075e-05	1081.8	210.87	1.2998e-05	1.309e-05	386.64	106.46	66.117	21.58	1.2917e-05	36.919	-2.885	162.152	-18.697	-148.397	132.234	-141.244	-148.554	-145.229	-108.032	-78.420	-145.824	-142.830	-143.511	-141.387	-119.563	-139.610	-8191	255	
1179.319	1	1	0	0	0.19013	0.31703	0.22699	0.11692	0.19422	0.25968	0.31112	0.18365	0.24036	0.27199	0.029393	0.12508	0.20412	0.13918	0.062012	0.046214	-2.2375	-2.5854	-2.3167	-2.5708	-2.5354	-2.4771	-2.6562	-2.3458	-2.5792	-2.5104	-2.3917	-2.5667	-2.4938	-2.375	-2.6375	-2.5229	28.953	-54.184	-77.213	165.974	72.327	183.843	116.782	170.797	17.738	2.493	-52.547	120.168	118.281	-146.844	-82.647	145.140	0.00083566	0.00019567	0.0001595	586.55	4.1149e-06	4.1625e-06	982.32	161.4	4.4152e-06	1.1157e-05	314.93	83.063	37.191	12.439	6.3127e-06	25.876	0.0011619	0.0011737	0.00032641	1015.7	1.2691e-05	1.2785e-05	1071.1	208.67	1.264e-05	1.2697e-05	382.12	105.58	65.598	21.659	1.2589e-05	36.687	41.124	-114.215	-7.862	-148.284	-92.217	-111.930	-148.769	-144.953	-113.089	-129.635	-146.045	-143.001	-143.040	-141.403	100.930	-139.268	-8191	255	
1179.438	1	1	0	0	0.070022	0.21455	0.16688	0.1244	0.14482	0.25709	0.16961	0.089466	0.16344	0.14635	0.082939	0.043197	0.28502	0.16901	0.16636	0.11148	-2.3	-2.7354	-2.2646	-2.625	-2.4313	-2.4667	-2.8771	-2.3563	-2.6125	-2.6688	-2.5167	-2.7	-2.5333	-2.5	-2.6188	-2.4021	143.063	-125.380	-89.224	163.269	-45.822	-156.086	128.826	-62.032	-44.491	58.117	184.649	181.519	-11.511	193.123	114.108	56.588	0.00086541	0.00028505	0.00039755	587.07	1.0262e-05	1.2011e-05	987.07	163.18	7.5366e-06	1.8888e-05	317.53	82.906	36.763	12.366	1.2606e-05	25.64	0.0011381	0.0011448	0.00031797	1000.5	1.2416e-05	1.2422e-05	1065.2	207.03	1.2277e-05	1.2271e-05	379.21	104.54	64.392	21.241	1.2211e-05	36.22	23.860	18.636	-126.815	-148.124	170.150	17.590	-148.890	-144.862	-91.283	-10.175	-145.756	-142.857	-143.042	-141.036	7.195	-139.829	-8191	255	
1179.512	1	1	0	0	0.11062	0.24023	0.14641	0.044375	0.12651	0.13542	0.093311	0.057528	0.20764	0.088806	0.21315	0.10557	0.40418	0.1706	0.2109	0.1782	-2.1833	-2.5	-2.2604	-2.5229	-2.5083	-2.4708	-2.7854	-2.4521	-2.4729	-2.7333	-2.3854	-2.65	-2.4833	-2.4604	-2.8125	-2.5292	160.847	-42.919	65.023	-16.203	127.900	-27.915	114.782	-155.127	55.393	161.610	50.952	-57.001	27.539	-146.920	-106.954	-97.447	0.00079926	0.0007567	0.00042226	583.9	1.203e-05	5.3127e-06	984.29	161.82	8.195e-06	1.3126e-05	318.49	83.214	37.254	12.16	7.9138e-06	25.02	0.0011107	0.0011203	0.0003113	986.8	1.222e-05	1.2216e-05	1060	205.49	1.2099e-05	1.2128e-05	376.66	103.8	64.02	20.955	1.1998e-05	35.757	1.214	66.535	93.113	-148.173	-149.249	-34.294	-148.737	-145.545	-144.400	61.850	-145.585	-142.747	-143.527	-141.304	71.491	-139.161	-8191	255	
1179.608	1	1	0	0	0.11418	0.070011	0.44588	0.06246	0.23336	0.21098	0.31803	0.035377	0.18144	0.10036	0.12057	0.18017	0.17479	0.17116	0.18548	0.22861	-2.0312	-2.7167	-2.0875	-2.5729	-2.3042	-2.4313	-2.85	-2.4542	-2.3708	-2.7104	-2.4646	-2.7	-2.5542	-2.2375	-2.6542	-2.5729	46.485	82.608	156.596	157.572	18.373	122.228	123.158	-134.812	36.363	194.830	152.043	-133.034	-98.081	110.920	-14.228	56.421	0.00092388	0.00079389	0.00036856	582.23	1.2682e-05	1.2541e-05	989.44	162.26	9.561e-06	8.3078e-06	316.03	82.366	36.949	12.11	2.5591e-06	25.192	0.001095	0.0011032	0.00030452	977.64	1.1963e-05	1.2034e-05	1058	205.05	1.1994e-05	1.2015e-05	374.81	103.57	63.65	20.813	1.1883e-05	35.654	19.260	105.282	-65.006	-147.748	-41.064	-45.771	-148.549	-145.037	-68.726	31.017	-146.030	-142.555	-143.110	-141.044	70.901	-138.820	-8191	255	
1179.727	1	1	0	0	0.08845	0.26662	0.15206	0.17732	0.21558	0.20249	0.53807	0.3613	0.17332	0.33658	0.1628	0.070801	0.28178	0.21755	0.065712	0.16222	-2.0187	-2.6083	-2.4292	-2.7792	-2.3958	-2.3688	-2.8229	-2.425	-2.3104	-2.7438	-2.4708	-2.6646	-2.6437	-2.2729	-2.5875	-2.3875	127.429	-118.013	105.137	173.005	-82.541	122.353	122.708	181.118	-22.218	-78.852	-161.856	-136.745	166.928	195.927	-67.736	-128.777	0.00098338	0.00016528	0.00041653	581.23	3.8931e-06	1.0337e-05	981.08	162.42	9.5366e-06	7.6364e-06	319.13	82.73	36.574	11.929	1.4434e-05	25.114	0.0010859	0.0010949	0.00030319	975.22	1.1934e-05	1.1952e-05	1055.8	204.75	1.1965e-05	1.1954e-05	376.59	103.6	63.754	20.644	1.1944e-05	35.684	0.007	-17.362	107.670	-148.555	78.784	-65.999	-148.741	-144.691	-54.046	-15.577	-146.130	-143.485	-143.311	-140.241	-58.063	-138.823	-8191	255	
1179.823	1	1	0	0	0.36971	0.30605	0.12861	0.05729	0.2187	0.10151	0.22851	0.13513	0.16408	0.48508	0.027174	0.24398	0.18824	0.13128	0.31148	0.085778	-2	-2.6854	-2.3625	-2.375	-2.6063	-2.2188	-2.6479	-2.6854	-2.275	-2.6667	-2.4688	-2.4479	-2.6667	-2.3021	-2.5667	-2.4938	144.107	118.826	192.306	-45.524	-50.615	134.587	141.098	180.120	-77.120	-128.558	89.908	176.843	29.297	-33.150	146.743	-160.180	0.00029709	0.00087326	0.00018454	598.18	7.296e-06	3.5014e-06	989.66	164.05	3.2025e-06	6.2786e-06	320.5	83.331	37.518	11.834	1.3832e-05	25.219	0.0010913	0.0010974	0.0003037	980.67	1.197e-05	1.1955e-05	1062	206.17	1.1955e-05	1.1898e-05	379.24	104.17	64.129	20.583	1.191e-05	35.609	-11.247	-110.116	174.255	-148.690	145.717	9.987	-148.465	-144.991	14.682	96.538	-146.009	-142.562	-143.043	-140.796	78.308	-138.627	-8191	255	
1179.919	1	1	0	0	0.31351	0.045862	0.26927	0.23889	0.1027	0.076645	0.19174	0.19261	0.16428	0.11979	0.094531	0.14779	0.13961	0.061336	0.075646	0.15209	-1.9229	-2.6063	-2.3667	-2.5271	-2.7313	-2.3229	-2.7417	-2.5604	-2.5229	-2.5896	-2.5875	-2.3812	-2.6479	-2.2396	-2.5187	-2.7062	83.857	160.940	73.687	-125.180	-59.749	163.325	87.711	81.550	195.207	-40.584	-24.344	-92.671	-13.055	64.121	-26.798	91.050	0.00033341	4.5825e-05	0.00036827	589.72	5.9614e-06	2.3131e-05	989.03	165.15	1.8754e-05	1.2144e-05	318.07	83.379	36.816	11.546	5.8208e-06	24.494	0.0010891	0.0010969	0.00030344	980.63	1.1935e-05	1.1884e-05	1060.9	206.04	1.194e-05	1.1842e-05	376.9	103.9	63.618	20.261	1.181e-05	35.03	-90.094	81.135	-104.992	-148.348	171.169	79.255	-148.697	-145.027	-13.010	131.414	-145.948	-142.476	-143.764	-140.402	-100.832	-138.866	-8191	255	
1180.040	1	1	0	0	0.25361	0.098488	0.23321	0.27581	0.091194	0.16911	0.25663	0.47319	0.25147	0.15993	0.20609	0.14048	0.070321	0.11262	0.1131	0.10151	-1.9312	-2.6042	-2.2958	-2.3208	-2.7479	-2.4083	-2.7687	-2.4437	-2.1562	-2.5583	-2.6542	-2.4292	-2.8229	-2.2917	-2.4333	-2.7208	-23.838	87.177	-13.253	134.403	-30.787	79.359	95.594	-54.990	-62.092	91.442	-147.924	-97.998	106.312	86.915	-122.474	165.842	0.0007287	0.00071676	0.00028082	584.03	9.3802e-06	3.0589e-06	993.09	164.17	8.0967e-06	1.2923e-05	320.69	82.801	37.377	11.734	1.0153e-05	24.628	0.0010824	0.0010904	0.00030278	979.99	1.1926e-05	1.19e-05	1059.8	206.28	1.1953e-05	1.1876e-05	377.02	103.84	63.928	20.312	1.1897e-05	35.083	-29.470	196.046	159.202	-148.550	84.794	-67.714	-148.535	-144.632	-100.276	-84.998	-146.233	-143.182	-142.164	-140.390	-150.793	-138.624	-8191	255	
1180.136	1	1	0	0	0.18174	0.20816	0.15832	0.042431	0.23854	0.22844	0.20335	0.23654	0.28892	0.11465	0.22055	0.079249	0.036769	0.17099	0.039896	0.071902	-1.9771	-2.5542	-2.3833	-2.2708	-2.5125	-2.3875	-2.6333	-2.6792	-2.3729	-2.5625	-2.3854	-2.4	-2.6521	-2.3563	-2.5042	-2.7062	-162.311	-83.559	60.181	-102.018	-4.916	-12.415	167.910	-83.594	133.911	-139.990	-123.805	133.405	98.286	139.843	80.122	191.421	0.0011003	0.00068247	0.00016508	588.27	4.7328e-06	2.7855e-06	986.95	164.66	1.4386e-05	1.0128e-05	320.76	82.404	37.268	11.565	3.4682e-06	24.457	0.0010833	0.0010848	0.00030267	978.92	1.1909e-05	1.1911e-05	1061.2	206.43	1.1962e-05	1.1953e-05	377.59	103.48	63.486	20.13	1.1963e-05	34.907	24.612	113.006	-90.059	-148.436	47.222	8.371	-148.503	-145.361	-29.511	13.571	-146.729	-143.040	-142.852	-140.272	135.444	-138.662	-8191	255	
1180.207	1	1	0	0	0.044538	0.31905	0.31573	0.13342	0.053935	0.21024	0.11481	0.088721	0.20414	0.038259	0.098425	0.2044	0.097351	0.21519	0.33662	0.034659	-1.9354	-2.5708	-2.6125	-2.2146	-2.5083	-2.6271	-2.4833	-2.7229	-2.1604	-2.5125	-2.6521	-2.2667	-2.4979	-2.275	-2.5292	-2.5521	-153.455	165.444	121.703	140.020	-6.403	-75.985	96.850	112.845	-137.729	-147.931	-161.635	152.023	-71.187	191.703	-141.890	-71.347	0.0010167	0.00070908	0.00016168	591.76	8.3204e-06	1.4665e-05	985.57	162.67	1.4856e-05	1.1518e-05	316.07	82.402	36.522	11.497	1.028e-05	23.982	0.0010797	0.0010881	0.00030315	978.78	1.1926e-05	1.197e-05	1058.2	205.39	1.2014e-05	1.2024e-05	376	103.31	63.369	20.137	1.2064e-05	34.75	21.997	-101.391	188.868	-147.627	-4.134	24.337	-148.567	-145.267	-98.418	-69.807	-146.251	-142.765	-142.903	-140.532	118.825	-138.683	-8191	255	
1180.328	1	1	0	0	0.081795	0.17195	0.13188	0.18003	0.08605	0.031853	0.088104	0.12046	0.23347	0.1102	0.14336	0.17037	0.073432	0.089401	0.2324	0.14458	-2.1021	-2.4479	-2.4896	-2.2	-2.6562	-2.5542	-2.6229	-2.7271	-2.175	-2.5833	-2.6562	-2.3438	-2.4854	-2.6083	-2.5208	-2.7083	124.819	157.603	185.763	166.238	-50.942	9.753	-135.816	-142.567	33.188	-148.110	119.900	181.990	103.059	-105.434	-157.614	-96.769	0.00036708	0.0011674	0.00029982	590.1	1.2157e-05	2.0031e-05	973.84	161.02	1.3874e-05	1.0143e-05	313.3	82.336	36.522	11.177	9.2464e-06	23.918	0.0010887	0.0011018	0.00030649	981.24	1.2023e-05	1.2055e-05	1050.1	204.32	1.2037e-05	1.2071e-05	374.05	103.31	63.605	20.111	1.2154e-05	34.819	75.249	170.728	157.997	-147.576	50.801	-38.155	-148.563	-144.935	-112.088	-79.466	-146.176	-142.695	-142.803	-139.889	-69.383	-138.666	-8191	255	
1180.422	1	1	0	0	0.28707	0.079875	0.050169	0.23846	0.19701	0.30388	0.21011	0.14104	0.10512	0.26477	0.077552	0.17796	0.23095	0.28394	0.15784	0.17197	-1.9562	-2.4292	-2.7167	-2.3375	-2.5604	-2.6771	-2.4229	-2.7396	-2.4667	-2.3792	-2.7687	-2.3833	-2.6708	-2.6771	-2.4104	-2.85	164.726	-58.834	-143.949	82.707	16.916	160.948	0.611	110.668	-11.603	-144.463	33.636	-132.025	-49.982	140.431	134.901	-48.912	0.00096002	0.00075151	0.00035655	585	1.0701e-05	8.3988e-06	986.46	162.76	8.8155e-06	6.5566e-06	316.56	82.644	36.498	11.594	1.0301e-05	24.153	0.0010981	0.0011137	0.00030921	984.93	1.2085e-05	1.22e-05	1058	205.97	1.2126e-05	1.2159e-05	378.25	103.84	63.965	20.335	1.2204e-05	35.135	-24.939	-10.722	-44.584	-147.119	-99.607	-34.129	-148.626	-145.049	-159.967	-154.277	-146.027	-143.030	-142.953	-140.856	181.639	-138.448	-8191	255	
1180.519	1	1	0	0	0.17692	0.12714	0.089562	0.07128	0.14056	0.1369	0.26359	0.20735	0.0955	0.081469	0.069107	0.25326	0.13559	0.26483	0.24722	0.034499	-2.0354	-2.4146	-2.6646	-2.4479	-2.6729	-2.5042	-2.4458	-2.6813	-2.6583	-2.2188	-2.7479	-2.4333	-2.3937	-2.6333	-2.3438	-2.6729	-127.987	-92.966	-83.274	-158.589	192.205	-109.183	147.681	179.269	-146.890	5.202	-82.530	150.663	37.959	-94.030	92.564	-92.834	0.0011358	0.00057216	0.00017263	584.2	3.6096e-06	7.6348e-06	986.08	163.35	1.6896e-05	2.6061e-06	319.26	82.957	37.341	11.273	3.7848e-06	24.399	0.0011084	0.0011179	0.00031146	990.16	1.2142e-05	1.218e-05	1060.9	207.02	1.2111e-05	1.219e-05	378.88	104.15	64.189	20.322	1.2146e-05	35.156	11.351	47.740	-155.206	-148.632	-143.695	45.234	-148.373	-145.078	-47.068	-12.213	-146.012	-142.897	-141.934	-140.184	162.935	-138.501	-8191	255	
1180.615	1	1	0	0	0.073141	0.14443	0.030571	0.12272	0.1563	0.27693	0.16097	0.17771	0.098142	0.21722	0.38154	0.043623	0.19121	0.092222	0.21265	0.16854	-2.0396	-2.3146	-2.6646	-2.4917	-2.6958	-2.4688	-2.4021	-2.8375	-2.4062	-2.4083	-2.7188	-2.4479	-2.4354	-2.7375	-2.2812	-2.7042	196.601	-56.512	57.842	34.389	60.271	-26.357	114.018	-73.768	69.889	166.480	163.313	21.700	188.058	62.916	-40.680	-84.024	0.00051338	0.0012165	0.00033705	591.48	1.013e-05	3.089e-06	991.72	163.21	9.9377e-06	7.3715e-06	319.05	83.323	37.223	11.49	1.2101e-05	24.22	0.0011063	0.0011157	0.0003087	988.88	1.2136e-05	1.215e-05	1067.5	207.82	1.2128e-05	1.2133e-05	380.02	104.45	64.644	20.258	1.2004e-05	34.86	-49.692	123.940	-64.262	-147.663	192.232	-140.616	-148.554	-145.257	-99.992	-78.562	-145.828	-142.740	-142.542	-140.277	-2.749	-138.231	-8191	255	
1180.735	1	1	0	0	0.13125	0.13903	0.075832	0.02416	0.18551	0.27201	0.24863	0.10744	0.25271	0.27436	0.12382	0.045294	0.083262	0.16472	0.18641	0.025805	-2.0333	-2.1729	-2.6146	-2.4979	-2.25	-2.8417	-2.5521	-2.7333	-2.6	-2.3812	-2.65	-2.3667	-2.3625	-2.8	-2.2042	-2.6063	7.961	-145.341	159.858	115.087	117.595	115.222	87.215	81.185	186.414	4.089	163.508	136.389	-0.520	128.273	112.255	130.310	0.00051418	0.00030883	0.0003234	599.66	8.2552e-06	1.8762e-05	997.65	165.43	4.2825e-06	9.5825e-06	324.64	82.937	37.641	11.413	1.1338e-05	24.242	0.0010985	0.001104	0.00030481	987.13	1.212e-05	1.2128e-05	1070.1	209.11	1.2197e-05	1.215e-05	381.55	104.42	64.454	20.238	1.2022e-05	35.014	2.868	-112.344	139.752	-147.836	-99.896	-46.597	-148.653	-145.055	191.068	101.724	-146.091	-142.804	-143.257	-140.379	-142.438	-138.837	-8191	255	
1180.807	1	1	0	0	0.29512	0.10569	0.20972	0.11436	0.22658	0.039822	0.27698	0.21121	0.020576	0.17459	0.12855	0.22052	0.10001	0.078008	0.098334	0.1428	-1.9875	-2.3021	-2.5396	-2.525	-2.3208	-2.6958	-2.4458	-2.475	-2.55	-2.4396	-2.6479	-2.6813	-2.4313	-2.6667	-2.3354	-2.5979	-142.287	38.321	-146.380	18.631	185.729	133.940	137.713	86.131	-120.317	168.617	87.179	85.384	-127.400	150.879	-37.800	186.464	0.0008128	0.00043911	0.00015483	591.74	4.5513e-06	1.9854e-05	991.45	166.11	5.659e-06	6.2172e-06	322.94	82.369	37.156	11.247	1.0495e-05	24.179	0.0010972	0.0011089	0.00030641	988.93	1.2144e-05	1.2097e-05	1067.2	208.65	1.2095e-05	1.2123e-05	380.66	104.06	64.245	20.217	1.207e-05	34.98	-31.894	158.030	52.875	-148.168	-58.555	33.639	-148.539	-145.044	15.814	-104.176	-145.949	-142.620	-142.533	-140.238	-21.694	-138.390	-8191	255	
1180.903	1	1	0	0	0.1649	0.28892	0.29583	0.073986	0.45184	0.066054	0.10091	0.35725	0.077187	0.27643	0.081393	0.15066	0.21768	0.31186	0.1354	0.18733	-2.275	-2.3667	-2.6354	-2.5708	-2.3146	-2.9146	-2.5333	-2.4958	-2.725	-2.4833	-2.725	-2.6562	-2.2521	-2.6646	-2.4208	-2.4583	-45.602	-149.916	-73.313	58.311	-126.123	-129.456	189.512	-158.558	91.675	-4.559	-69.817	158.867	151.997	-8.713	186.955	67.245	0.00024161	0.0015217	0.00023146	583.4	2.8988e-06	8.8015e-06	990.05	162.97	1.0972e-05	6.1714e-06	320.75	83.539	37.43	11.404	1.6714e-05	24.277	0.0011026	0.0011085	0.00030655	988.97	1.215e-05	1.2094e-05	1062.4	206.99	1.2096e-05	1.2007e-05	379.01	104.39	64.201	20.205	1.1953e-05	35.007	-7.124	30.641	9.585	-148.322	-62.932	96.563	-148.879	-145.299	172.408	-6.086	-145.933	-142.705	-142.902	-139.722	-73.186	-138.728	-8191	255	
1180.999	1	1	0	0	0.08463	0.21217	0.17312	0.17442	0.14711	0.27432	0.24602	0.23085	0.12459	0.29846	0.17047	0.13438	0.20728	0.42223	0.077352	0.1555	-2.2479	-2.3146	-2.4479	-2.5292	-2.475	-2.7896	-2.6042	-2.4479	-2.65	-2.2687	-2.6292	-2.7708	-2.3333	-2.6104	-2.3812	-2.4938	114.629	-10.556	156.397	148.842	118.928	24.598	141.582	74.178	-120.306	193.340	150.049	-78.491	-25.910	-141.563	70.840	125.772	0.00079298	0.00026944	0.00026922	593.52	6.7487e-06	4.7228e-06	986.06	164.12	1.7947e-05	4.94e-06	318.49	82.633	37.04	11.757	1.0698e-05	24.525	0.0010955	0.0011023	0.00030581	988.86	1.2052e-05	1.2062e-05	1060.7	206.9	1.2084e-05	1.2013e-05	378.29	104.12	64.284	20.356	1.2048e-05	35.207	54.968	85.852	-107.601	-148.203	93.473	99.294	-148.503	-145.082	-103.820	124.436	-146.325	-143.043	-142.874	-140.486	-69.089	-138.822	-8191	255	
1181.120	1	1	0	0	0.15674	0.22864	0.3533	0.25468	0.2086	0.055409	0.43672	0.23645	0.07747	0.144	0.19225	0.12641	0.25041	0.18668	0.1821	0.21979	-2.4437	-2.525	-2.4062	-2.7167	-2.4521	-2.6562	-2.6146	-2.4646	-2.8438	-2.4854	-2.6771	-2.75	-2.3667	-2.4646	-2.5708	-2.4375	179.969	-7.632	22.260	102.901	171.292	-80.624	141.621	94.293	113.858	131.815	-136.336	112.997	162.095	186.929	2.943	131.456	0.00033022	0.00089941	0.00022623	593.97	1.4579e-06	8.9679e-06	989.36	165.13	1.9663e-05	1.345e-05	322.97	84.188	37.451	11.739	1.2322e-05	25.07	0.0011002	0.0011051	0.0003059	988.84	1.2022e-05	1.1976e-05	1062.1	207.95	1.2008e-05	1.1954e-05	381.06	104.53	64.165	20.539	1.1921e-05	35.608	-91.099	-53.580	181.750	-147.967	-136.309	37.929	-148.573	-145.148	113.691	156.918	-146.255	-142.524	-143.073	-140.389	-55.280	-138.436	-8191	255	
1181.216	1	1	0	0	0.041911	0.29516	0.21949	0.053692	0.18698	0.1039	0.299	0.034648	0.22584	0.23372	0.11813	0.19156	0.068522	0.045594	0.27306	0.097603	-2.2354	-2.5333	-2.4771	-2.5	-2.2625	-2.5521	-2.575	-2.3542	-2.6146	-2.4292	-2.4021	-2.7229	-2.3479	-2.5792	-2.7542	-2.5292	133.127	122.296	-19.155	-62.677	-61.587	12.220	118.217	30.283	73.453	59.114	184.894	185.024	185.590	-151.011	110.833	161.900	0.00073923	0.00058519	0.00022945	596.63	1.5589e-05	7.1045e-06	996.57	168.28	9.8164e-06	3.63e-06	328.91	85.086	38.986	12.086	1.1325e-05	25.636	0.0010873	0.0010871	0.00030372	985.47	1.1927e-05	1.19e-05	1069.3	210.35	1.1899e-05	1.1912e-05	384.71	105.67	65.026	20.641	1.1884e-05	35.78	20.207	-134.863	163.623	-148.403	-77.121	-155.294	-148.510	-145.247	128.364	-17.794	-145.848	-143.000	-143.029	-140.141	44.840	-138.854	-8191	255	
1181.312	1	1	0	0	0.20047	0.086397	0.19028	0.18849	0.16198	0.2056	0.31666	0.12829	0.22899	0.2503	0.2327	0.23299	0.19894	0.036413	0.1017	0.22867	-2.25	-2.2167	-2.4562	-2.6104	-2.4938	-2.3833	-2.9167	-2.325	-2.7396	-2.4604	-2.3708	-2.7542	-2.3063	-2.7271	-2.4813	-2.2917	61.033	-46.927	-161.177	-103.547	-29.723	-6.619	113.900	33.823	36.669	94.821	-123.460	-61.832	109.877	-134.368	118.021	114.718	0.00062514	0.00058038	4.8682e-05	610.68	8.8806e-06	4.1668e-06	1001.4	169.48	6.2988e-06	5.8355e-06	328.48	85.195	38.701	12.217	7.5018e-06	25.494	0.0010786	0.0010831	0.00030213	988.1	1.1826e-05	1.1864e-05	1074	210.5	1.1797e-05	1.1817e-05	383.86	105.4	64.569	20.624	1.1747e-05	35.591	1.892	43.876	22.428	-148.631	-126.837	166.143	-148.594	-144.911	83.983	-101.239	-146.177	-142.567	-142.805	-140.133	-7.905	-139.348	-8191	255	
1181.408	1	1	0	0	0.23669	0.24481	0.20844	0.21673	0.22973	0.30294	0.17635	0.11171	0.11266	0.16009	0.13762	0.074219	0.18928	0.1711	0.20267	0.28792	-2.0771	-2.4229	-2.1042	-2.6729	-2.4729	-2.6271	-2.6688	-2.2687	-2.475	-2.4813	-2.5146	-2.8542	-2.4125	-2.3458	-2.7375	-2.2271	-49.708	50.259	11.462	-100.867	-117.521	63.801	130.701	185.405	181.335	-127.876	-119.881	103.080	-106.238	105.213	92.994	134.010	0.0008845	0.00048742	0.00013277	601.92	2.1279e-06	1.3683e-05	1004	170.32	3.9288e-06	1.0052e-05	332.89	86.107	39.054	12.233	9.3299e-06	25.569	0.0010637	0.0010723	0.00029809	971.72	1.1624e-05	1.1606e-05	1070.9	210.67	1.1671e-05	1.1682e-05	386.26	105.7	64.733	20.659	1.1707e-05	35.678	50.833	10.566	82.100	-147.926	-46.164	-77.113	-148.441	-145.111	-146.995	-115.208	-146.441	-142.826	-143.405	-140.649	179.533	-139.056	-8191	255	
1181.503	1	1	0	0	0.14912	0.21163	0.12398	0.13805	0.26642	0.19655	0.26049	0.26999	0.076134	0.27335	0.15497	0.12095	0.16234	0.079579	0.26114	0.17469	-2.0542	-2.4792	-2.2313	-2.5229	-2.3542	-2.2896	-2.6562	-2.4042	-2.5021	-2.4958	-2.3625	-2.7542	-2.3604	-2.4	-2.4875	-2.4521	29.878	-103.218	-23.262	-42.757	-0.124	-82.361	121.477	56.731	153.623	63.507	190.258	100.650	-54.741	91.920	-146.523	-128.008	0.0005755	7.4992e-05	0.00038903	599.85	1.0854e-05	1.0099e-05	1004.6	170.06	1.7502e-05	3.7126e-06	329.37	85.342	38.855	12.321	6.0406e-06	25.864	0.001056	0.0010683	0.00029777	972.79	1.1666e-05	1.1656e-05	1071.4	209.46	1.1609e-05	1.1715e-05	384.46	104.8	64.295	20.671	1.1668e-05	35.74	15.303	-124.803	18.776	-147.883	-32.488	157.569	-148.556	-144.742	192.063	184.417	-146.176	-142.821	-143.085	-141.175	-49.088	-138.777	-8191	255	
1181.601	1	1	0	0	0.14052	0.3873	0.10862	0.2096	0.13247	0.11321	0.32386	0.17554	0.20613	0.23277	0.038539	0.26964	0.027803	0.12441	0.091109	0.26082	-2.0938	-2.4667	-2.4021	-2.5708	-2.4146	-2.3896	-2.7417	-2.3542	-2.6396	-2.5021	-2.4562	-2.5917	-2.5563	-2.3708	-2.7354	-2.45	31.008	6.997	97.433	147.594	72.806	12.908	123.854	-121.306	-107.500	-30.470	122.845	174.637	43.421	-66.775	39.898	-137.942	0.0006281	0.00038226	7.2069e-05	596.62	7.283e-06	1.7026e-05	1003.5	169.72	6.193e-06	5.4958e-06	332.82	84.728	39.09	12.288	5.6665e-06	25.644	0.0010561	0.0010629	0.00029548	967.78	1.1513e-05	1.1558e-05	1065.2	208.77	1.1512e-05	1.1555e-05	382.33	104.3	64.182	20.455	1.1495e-05	35.285	-15.604	-48.999	138.485	-148.343	-0.580	26.371	-148.465	-144.778	-134.102	140.477	-146.318	-142.306	-143.694	-140.929	-142.103	-138.893	-8191	255	
1181.720	1	1	0	0	0.20988	0.086149	0.060075	0.16143	0.14231	0.23237	0.18504	0.27553	0.12259	0.24506	0.20621	0.1802	0.27318	0.1779	0.0039455	0.18603	-2.0271	-2.7542	-2.4562	-2.7417	-2.2583	-2.4542	-2.6833	-2.3729	-2.5667	-2.5917	-2.2604	-2.6167	-2.4708	-2.2208	-2.5125	-2.3896	155.391	-131.613	-102.500	148.460	84.632	-74.708	162.795	151.713	-107.229	39.392	148.598	112.370	127.621	103.942	173.868	84.497	0.00050319	0.0012366	0.00013231	601.92	2.9265e-06	7.5304e-06	1001.6	168.99	6.2172e-06	9.2739e-06	327.72	84.562	38.811	12.186	2.4893e-06	25.223	0.0010518	0.0010546	0.00029274	971.12	1.1521e-05	1.1612e-05	1064.9	208.43	1.1567e-05	1.1589e-05	382.15	104.19	64.115	20.469	1.1586e-05	35.263	37.003	-69.916	-27.370	-148.517	-71.508	185.916	-148.577	-145.465	177.782	73.171	-146.108	-142.820	-143.337	-140.536	143.008	-138.953	-8191	255	
1181.816	1	1	0	0	0.087492	0.048271	0.11799	0.30724	0.35256	0.11411	0.29683	0.19592	0.096164	0.061278	0.34951	0.15489	0.18891	0.096873	0.1295	0.26896	-2.1146	-2.6396	-2.3229	-2.5438	-2.6833	-2.2833	-2.8458	-2.3958	-2.3896	-2.5542	-2.4354	-2.4479	-2.6542	-2.3042	-2.5479	-2.5187	-103.625	-90.231	60.366	-84.674	115.960	12.626	116.655	70.276	-29.910	-135.643	169.432	-145.506	-151.022	-32.222	-31.538	81.629	0.00094402	0.00023595	0.00038706	600.88	3.7454e-06	1.1294e-05	999.87	170.29	1.2424e-05	7.0735e-06	330.06	84.125	38.258	12.056	8.5334e-06	25.374	0.0010558	0.0010643	0.00029503	968.71	1.1623e-05	1.1671e-05	1066.8	209.53	1.1581e-05	1.1638e-05	382.85	104.34	64.095	20.3	1.1599e-05	35.231	19.696	-45.998	184.958	-148.130	-136.888	4.752	-148.335	-145.219	106.148	87.827	-146.310	-142.979	-142.839	-140.750	11.518	-138.284	-8191	255	
1181.912	1	1	0	0	0.12286	0.13897	0.12646	0.17459	0.30941	0.038808	0.055109	0.32322	0.23687	0.19842	0.13323	0.17912	0.19928	0.12049	0.18401	0.10825	-2.0229	-2.6625	-2.1646	-2.4479	-2.5	-2.2396	-2.7188	-2.55	-2.2729	-2.75	-2.2667	-2.475	-2.5646	-2.3833	-2.5187	-2.5187	-13.922	43.065	128.251	-23.778	188.344	-139.686	-96.250	39.519	-123.780	43.373	2.984	118.906	43.278	161.133	-122.036	151.476	0.00096782	0.00096879	0.00018313	599.63	4.4044e-06	5.7305e-06	999.1	168.43	7.5737e-06	8.0795e-06	329.46	84.361	38.752	12.264	4.6499e-06	25.632	0.0010607	0.0010681	0.00029608	973.55	1.1768e-05	1.174e-05	1067.1	209.19	1.1814e-05	1.1837e-05	384.43	105.34	65.277	20.914	1.1941e-05	35.99	82.161	195.388	22.367	-147.732	-7.390	195.740	-148.730	-145.362	63.272	-5.180	-145.976	-143.019	-142.397	-141.257	-62.183	-138.804	-8191	255	
1182.008	1	1	0	0	0.086325	0.314	0.21004	0.096144	0.080206	0.096027	0.24954	0.24012	0.037097	0.26012	0.12474	0.27243	0.15431	0.22497	0.17957	0.17905	-1.8188	-2.3583	-2.2708	-2.25	-2.7021	-2.5333	-2.5542	-2.6521	-2.3312	-2.5708	-2.3458	-2.575	-2.7104	-2.1813	-2.5	-2.6729	-102.644	-153.168	189.525	78.771	-70.195	-8.377	27.688	-155.730	135.324	5.526	-129.926	144.105	76.222	-6.186	11.381	183.783	0.00060655	0.00069451	0.00015164	611.3	1.508e-06	1.0098e-05	1001.2	171.65	2.3467e-06	1.5288e-05	329.03	85.944	39.448	12.602	6.8331e-06	25.979	0.0010923	0.001096	0.000304	992.89	1.2061e-05	1.2029e-05	1076.5	212.83	1.2191e-05	1.2102e-05	388.89	106.58	66.077	21.445	1.2094e-05	36.581	-48.421	110.359	118.778	-147.755	-120.512	70.388	-148.664	-144.832	-157.456	39.432	-145.850	-142.742	-142.690	-140.879	-104.736	-138.982	-8191	255	
1182.104	1	1	0	0	0.24157	0.15934	0.11546	0.14978	0.21643	0.24955	0.012462	0.22243	0.20285	0.081665	0.13679	0.13496	0.063987	0.10696	0.23439	0.17905	-1.8333	-2.6417	-2.3187	-2.4354	-2.6813	-2.4604	-2.6708	-2.6771	-2.4313	-2.5687	-2.5771	-2.325	-2.4188	-2.2896	-2.5187	-2.7604	-110.815	138.397	-59.852	-143.078	147.402	-162.677	-91.443	151.674	-148.924	101.899	-151.389	46.893	-109.969	37.661	-66.835	49.095	0.00047751	0.00056015	0.00011653	614.44	8.6651e-06	7.3148e-06	1016.4	172.77	3.0406e-05	1.1256e-05	338.03	87.011	40.498	12.727	9.0005e-06	26.036	0.0011103	0.001108	0.00030962	1003.7	1.223e-05	1.2146e-05	1088.5	215.39	1.2203e-05	1.2159e-05	394.71	107.93	67.147	21.448	1.219e-05	36.691	-102.250	120.061	-148.765	-147.911	111.608	-13.561	-148.720	-145.203	116.672	-117.634	-146.305	-143.062	-143.612	-141.008	92.440	-138.175	-8191	255	
1182.200	1	1	0	0	0.16813	0.12189	0.18591	0.1585	0.13916	0.10699	0.31132	0.25431	0.12718	0.11258	0.22653	0.075713	0.37874	0.13169	0.2292	0.32156	-1.9958	-2.5271	-2.6375	-2.3146	-2.4833	-2.4604	-2.7438	-2.8063	-2.1875	-2.4271	-2.5187	-2.2167	-2.5146	-2.3292	-2.4292	-2.6625	130.507	17.374	-70.927	24.768	121.338	-49.898	112.078	-129.391	182.111	-64.934	82.594	-82.860	-133.432	60.006	172.004	183.547	0.0012116	0.0013767	0.00021768	613.39	8.7531e-06	1.0336e-05	1022.4	174.75	1.0137e-05	5.8498e-06	341.15	87.392	40.521	12.454	7.2183e-06	25.519	0.0011082	0.0011176	0.00031101	1013.6	1.2326e-05	1.2274e-05	1098.4	218	1.2393e-05	1.2315e-05	398.09	108.96	67.659	21.304	1.2237e-05	36.417	6.659	-72.800	1.861	-148.172	-84.977	9.900	-148.644	-144.593	-133.115	194.023	-145.844	-142.722	-143.136	-140.064	-96.115	-139.274	-8191	255	
1182.297	1	1	0	0	0.2741	0.11595	0.072787	0.17566	0.043347	0.17271	0.12453	0.05991	0.014186	0.23772	0.41671	0.17154	0.043557	0.30862	0.16591	0.19026	-1.8687	-2.5458	-2.4771	-2.1979	-2.5896	-2.4313	-2.6229	-2.6979	-2.2938	-2.7313	-2.6792	-2.3521	-2.7521	-2.4562	-2.3625	-2.6646	-69.479	-77.931	-5.039	-136.052	130.673	-101.180	113.595	42.413	-66.593	173.007	121.726	-141.126	43.072	-70.620	122.270	87.332	0.0010183	0.0010547	0.00030132	607.37	3.4146e-06	8.5211e-06	1014.3	170.55	4.0913e-06	6.0674e-06	330.83	85.566	39.407	11.999	4.7199e-06	24.803	0.0011123	0.0011187	0.0003104	1005	1.2211e-05	1.2213e-05	1083.5	213.45	1.2098e-05	1.2056e-05	388.59	106.08	65.983	20.667	1.2089e-05	35.42	25.333	-18.840	196.559	-147.685	-68.562	-122.274	-148.541	-145.128	-113.753	-74.247	-145.851	-142.642	-142.951	-140.739	-6.862	-139.016	-8191	255	
1182.417	1	1	0	0	0.20883	0.30647	0.15893	0.35853	0.20653	0.29903	0.020885	0.13859	0.097281	0.14201	0.33163	0.29726	0.22639	0.32944	0.44335	0.27464	-1.9875	-2.3792	-2.5812	-2.2083	-2.5625	-2.5167	-2.7062	-2.7354	-2.4458	-2.3937	-2.6354	-2.2083	-2.6437	-2.4604	-2.1896	-2.6854	-77.107	49.790	39.731	-147.628	27.872	-60.224	103.546	181.045	-109.342	100.507	124.807	6.226	-85.100	162.602	110.435	-1.188	0.000502	0.00052318	0.00010312	595.99	1.1598e-05	1.2849e-05	994.44	169.03	7.053e-06	2.1719e-05	329.4	84.378	39.155	11.811	2.996e-06	24.593	0.0010881	0.0010966	0.00030446	983.35	1.1925e-05	1.1869e-05	1066.4	210.03	1.1839e-05	1.1862e-05	384.73	104.84	64.993	20.385	1.1925e-05	35.17	15.526	-20.437	-109.393	-147.730	20.817	-42.543	-148.422	-145.006	-43.296	-1.747	-146.200	-143.193	-143.259	-139.992	-60.720	-138.658	-8191	255	
1182.512	1	1	0	0	0.22909	0.14992	0.1798	0.22899	0.15246	0.055973	0.072879	0.14919	0.28253	0.15741	0.12712	0.11849	0.077997	0.18689	0.36194	0.12162	-1.8104	-2.3937	-2.475	-2.3563	-2.4917	-2.5687	-2.3146	-2.8083	-2.3167	-2.525	-2.7896	-2.3833	-2.4979	-2.6146	-2.2708	-2.525	-126.612	96.545	122.358	13.016	81.574	16.107	28.224	-7.271	-139.988	160.714	134.008	152.216	105.256	-99.855	-81.311	173.283	0.00084698	0.00094246	0.000231	593.73	8.6668e-06	1.0233e-05	990.62	167.36	1.5533e-05	8.882e-06	324.84	82.941	37.547	11.323	1.111e-05	24.605	0.0010758	0.0010851	0.00030161	973.89	1.1744e-05	1.183e-05	1059.8	207.13	1.1678e-05	1.171e-05	379.07	103.09	63.47	19.775	1.1694e-05	34.598	11.805	-55.285	157.803	-148.080	95.973	-151.449	-148.507	-144.858	-96.394	-18.509	-146.017	-142.881	-142.713	-139.259	187.749	-138.369	-8191	255	
1182.608	1	1	0	0	0.045336	0.058197	0.22211	0.049392	0.099269	0.12206	0.3319	0.18569	0.1695	0.34282	0.06988	0.17015	0.2584	0.28104	0.24442	0.14083	-1.8875	-2.275	-2.7104	-2.1667	-2.5833	-2.55	-2.3042	-2.7938	-2.4875	-2.4458	-2.7125	-2.3542	-2.425	-2.3271	-2.3146	-2.6771	64.274	-92.926	55.741	86.814	185.088	-46.032	174.302	-129.194	134.102	-134.108	150.794	-152.804	10.459	-63.281	36.373	45.116	0.00037194	0.00027891	6.5256e-05	594.73	7.2671e-06	8.2385e-06	988.89	165.9	2.0892e-06	3.4568e-06	322.2	83.035	37.575	11.352	5.4342e-06	24.427	0.0010646	0.0010759	0.00029871	977.23	1.1767e-05	1.1872e-05	1062.2	207.81	1.187e-05	1.1936e-05	380.83	103.61	64.124	20.111	1.1904e-05	34.763	-40.201	-97.494	109.507	-148.069	-37.807	-1.471	-148.538	-145.054	-149.738	-29.835	-145.933	-142.818	-143.042	-140.452	79.179	-138.131	-8191	255	
1182.681	1	1	0	0	0.12243	0.33336	0.21307	0.15439	0.22496	0.21684	0.26173	0.074277	0.11007	0.16762	0.093082	0.11074	0.18215	0.17388	0.016567	0.083263	-1.8292	-2.2583	-2.6708	-2.5333	-2.5917	-2.6083	-2.3917	-2.5396	-2.3479	-2.3417	-2.7333	-2.45	-2.3208	-2.5146	-2.4375	-2.6646	-51.853	-36.188	-128.180	-76.442	161.137	-135.582	137.141	-37.153	-119.064	178.296	-97.724	103.857	-65.524	-146.315	66.675	-60.704	0.00056009	0.00099845	0.00030674	596.82	7.3935e-06	3.0729e-05	998.69	168.49	9.8605e-06	8.9595e-06	328.2	83.108	38.15	11.585	7.6079e-06	24.207	0.0010777	0.0010933	0.00030269	980.79	1.1906e-05	1.2015e-05	1070	210.03	1.1994e-05	1.2016e-05	384.57	104.12	64.895	20.37	1.2034e-05	35.021	8.001	-3.699	-12.368	-148.051	-13.839	-105.446	-148.731	-145.346	-65.187	120.242	-146.038	-142.971	-143.021	-139.089	98.191	-138.693	-8191	255	
1182.800	1	1	0	0	0.1563	0.2501	0.01864	0.12309	0.16912	0.096476	0.21761	0.10408	0.17693	0.14239	0.25357	0.14473	0.26896	0.29223	0.19945	0.1068	-2.0375	-2.2625	-2.6042	-2.325	-2.4542	-2.7208	-2.4229	-2.5938	-2.6292	-2.125	-2.5583	-2.3583	-2.3896	-2.5729	-2.2687	-2.5271	-23.037	-20.392	-131.114	132.726	-84.697	144.918	-130.062	50.195	-127.474	-109.788	-139.207	61.311	117.254	-71.363	143.488	-130.211	0.00034121	0.00098042	0.00010332	599.26	2.9189e-06	1.5823e-05	1001	167.8	9.1557e-06	2.17e-06	331.91	83.718	38.448	11.426	4.9999e-06	24.702	0.0010907	0.001096	0.0003049	981.95	1.1954e-05	1.1941e-05	1069.3	209.93	1.1942e-05	1.1953e-05	386.56	104.52	65.099	20.415	1.1942e-05	35.2	-29.603	-158.633	-92.245	-148.469	-119.351	-153.132	-148.452	-145.037	-80.736	49.613	-145.894	-142.840	-142.681	-140.379	-76.008	-138.221	-8191	255	
1182.896	1	1	0	0	0.26434	0.22535	0.082331	0.054722	0.070303	0.21749	0.22297	0.28351	0.023138	0.21769	0.16351	0.21321	0.020112	0.083906	0.044682	0.11258	-2.1583	-2.2125	-2.5104	-2.3937	-2.4083	-2.7125	-2.5917	-2.4979	-2.8042	-2.3625	-2.7104	-2.475	-2.4167	-2.7354	-2.3229	-2.3875	-87.289	94.136	79.049	62.041	-15.390	34.151	92.769	167.865	-110.248	-38.361	-120.564	100.338	191.381	-149.095	127.511	96.010	0.0008022	0.00078195	8.4645e-05	594.56	1.3076e-05	1.3301e-05	995.61	168.18	8.1806e-06	6.5203e-06	327.74	84.129	38.461	11.558	1.7401e-05	24.567	0.0010916	0.0010992	0.00030368	986.1	1.1961e-05	1.1929e-05	1068.6	210.26	1.1969e-05	1.1963e-05	383.68	104.42	64.961	20.359	1.1863e-05	35.05	-39.973	3.060	155.892	-147.707	-23.594	132.713	-148.468	-145.243	-137.302	-149.399	-146.390	-143.204	-143.242	-139.879	-52.657	-139.345	-8191	255	
1182.992	1	1	0	0	0.29832	0.088549	0.24203	0.13259	0.090605	0.2601	0.24865	0.057154	0.29369	0.11929	0.23013	0.18638	0.32142	0.16583	0.14121	0.37944	-2.1729	-2.2542	-2.6042	-2.4729	-2.4458	-2.5083	-2.6896	-2.2125	-2.625	-2.4042	-2.5479	-2.6167	-2.275	-2.8812	-2.4104	-2.2938	-48.691	68.976	-37.348	188.898	151.370	159.390	135.657	62.103	-73.633	6.238	-105.118	178.195	129.893	-109.884	21.153	-64.190	0.00034514	0.00094782	0.0001332	595.02	6.9397e-06	9.0376e-06	991.26	166.89	1.2283e-05	5.9017e-06	325.08	83.076	38.112	11.617	1.6347e-05	24.648	0.0010873	0.0010942	0.00030316	981.76	1.2071e-05	1.1946e-05	1061.9	208.53	1.1972e-05	1.1939e-05	381.33	104.1	64.704	20.373	1.1959e-05	35.128	-2.880	178.591	-74.105	-149.321	97.385	47.731	-148.372	-145.145	66.010	82.382	-146.335	-142.572	-142.558	-140.225	-58.696	-138.424	-8191	255	
1183.088	1	1	0	0	0.17911	0.18684	0.1147	0.15822	0.09387	0.15561	0.22361	0.12156	0.21019	0.22555	0.066669	0.15612	0.20995	0.2234	0.31545	0.077249	-2.2771	-2.2687	-2.4583	-2.425	-2.1125	-2.6521	-2.4833	-2.3854	-2.7729	-2.3125	-2.4458	-2.5042	-2.3542	-2.6562	-2.4604	-2.4708	136.935	83.936	-98.142	-70.670	-127.100	-95.018	123.665	26.517	152.168	-11.375	33.926	153.885	-78.965	66.908	97.983	166.216	0.00030751	0.00043554	0.00023427	592.85	1.7088e-05	8.4206e-06	989.09	167.35	3.1704e-06	2.1707e-05	325.75	83.09	38.024	11.588	7.9589e-06	24.841	0.0010944	0.0010993	0.00030578	984.82	1.2063e-05	1.1979e-05	1062.7	209.25	1.2022e-05	1.1958e-05	383.34	104.24	64.888	20.436	1.1948e-05	35.369	71.593	-2.122	-121.243	-147.946	-105.421	-91.259	-148.615	-144.802	-134.337	49.986	-145.645	-142.852	-142.899	-140.316	-135.183	-138.795	-8191	255	
1183.209	1	1	0	0	0.20867	0.11227	0.26285	0.19423	0.3276	0.073397	0.20504	0.14807	0.11248	0.048775	0.2068	0.14941	0.34404	0.12087	0.099539	0.21583	-2.1625	-2.2792	-2.5083	-2.525	-2.4417	-2.5604	-2.6188	-2.4437	-2.8625	-2.4667	-2.475	-2.7208	-2.2896	-2.4125	-2.6458	-2.4333	119.479	194.624	-20.683	-108.973	-86.294	181.701	103.801	-93.171	128.324	-139.821	-19.738	-102.949	94.752	-43.626	19.170	78.041	0.00067562	0.00033494	0.00010264	594.33	7.2119e-06	5.7918e-06	989.77	166.99	2.4436e-06	9.6048e-06	324.41	84.047	38.456	11.793	6.2003e-06	24.929	0.0010952	0.0010958	0.00030455	986.85	1.2003e-05	1.1972e-05	1063.5	209.38	1.1976e-05	1.1911e-05	383.9	104.32	64.81	20.417	1.1946e-05	35.442	34.191	113.323	146.148	-147.507	75.767	60.530	-148.438	-144.678	173.444	136.423	-146.045	-143.203	-142.776	-140.347	157.864	-138.649	-8191	255	
1183.305	1	1	0	0	0.11669	0.1439	0.20905	0.21831	0.12019	0.10672	0.23121	0.05117	0.12718	0.11149	0.33128	0.17145	0.10583	0.065899	0.2638	0.12769	-2.2625	-2.3896	-2.4667	-2.6146	-2.4479	-2.4417	-2.7313	-2.1063	-2.5187	-2.4875	-2.6542	-2.7917	-2.2812	-2.6521	-2.4083	-2.4188	-25.042	75.987	-21.070	-116.400	122.731	38.321	84.525	62.020	-6.940	137.029	-113.076	100.926	17.482	1.931	6.936	-129.821	0.00083021	0.0003044	0.00012999	591.36	1.0314e-05	6.8761e-06	991.22	166.77	6.2132e-06	6.6683e-06	329.09	84.619	38.541	11.843	1.4931e-05	24.847	0.0010889	0.0010942	0.00030458	987.07	1.1972e-05	1.1945e-05	1063.9	209.94	1.1926e-05	1.1916e-05	384.26	105.03	64.944	20.576	1.1966e-05	35.544	-13.647	2.465	-40.968	-148.022	-143.821	14.206	-148.727	-145.056	132.540	30.399	-146.037	-142.613	-143.105	-140.760	-46.273	-138.436	-8191	255	
1183.401	1	1	0	0	0.1034	0.11852	0.15147	0.10478	0.23786	0.16108	0.24353	0.2153	0.048742	0.23056	0.045705	0.059162	0.0058589	0.16393	0.19208	0.2344	-2.1833	-2.2458	-2.2729	-2.45	-2.3292	-2.4188	-2.6354	-2.2375	-2.65	-2.5042	-2.3521	-2.7729	-2.2417	-2.4479	-2.4771	-2.2021	-110.675	188.429	105.988	-96.399	135.595	-66.139	156.196	170.344	109.617	-157.920	-40.565	136.997	-142.124	-120.281	25.686	-118.742	0.000541	0.00067474	0.00018781	596.04	5.8658e-06	1.7643e-05	998.47	167.8	4.4482e-06	6.4027e-06	329.3	84.904	38.563	11.998	6.8685e-06	25.391	0.0010885	0.0010972	0.00030592	989.76	1.1976e-05	1.1971e-05	1068.6	210.9	1.1941e-05	1.1957e-05	387.28	105.57	65.437	20.667	1.1987e-05	35.843	-1.476	-58.176	22.113	-148.915	-62.498	-35.078	-148.582	-145.240	-149.044	-108.487	-146.021	-142.812	-143.447	-140.334	121.978	-138.326	-8191	255	
1183.496	1	1	0	0	0.12638	0.17263	0.20852	0.072936	0.095687	0.10266	0.25313	0.18806	0.17779	0.079336	0.10993	0.19653	0.15008	0.18646	0.23879	0.19996	-2.05	-2.5604	-2.4375	-2.7188	-2.2812	-2.4396	-2.8167	-2.3812	-2.4833	-2.4771	-2.2771	-2.5271	-2.4313	-2.2938	-2.7083	-2.2562	-148.319	-83.676	137.157	147.511	79.722	-95.691	100.382	-131.267	126.890	11.719	169.174	73.800	14.374	-157.239	145.322	155.389	8.4149e-05	0.00082107	0.00012653	599.35	4.9074e-06	1.1778e-05	1002.7	169.48	1.88e-05	1.015e-06	334.41	84.963	38.93	12.202	8.8298e-06	25.413	0.0010961	0.0011061	0.00030764	992.09	1.2008e-05	1.206e-05	1073.9	211.99	1.1988e-05	1.2042e-05	389.53	106.01	65.684	20.828	1.2106e-05	35.931	-16.814	-22.799	90.076	-149.190	-144.217	192.509	-148.298	-145.115	171.605	138.260	-146.176	-142.833	-143.233	-140.439	-99.528	-139.168	-8191	255	
1183.592	1	1	0	0	0.031887	0.090353	0.052032	0.12394	0.060717	0.26325	0.048437	0.054477	0.13257	0.13091	0.17584	0.10682	0.086369	0.16132	0.15925	0.07452	-2.2188	-2.5354	-2.2021	-2.6063	-2.35	-2.4062	-2.6813	-2.325	-2.5271	-2.4792	-2.2	-2.5604	-2.3625	-2.2875	-2.6396	-2.3438	-96.391	154.116	-151.080	64.312	195.209	40.591	8.362	-7.232	-50.732	-100.922	-113.108	151.608	128.474	106.873	77.336	121.612	0.00057309	0.0014422	0.00031164	596.81	1.3774e-05	1.5697e-05	1005.8	170.86	5.0939e-06	4.667e-06	330.7	85.684	40.153	12.196	1.0019e-05	25.239	0.0010905	0.0011052	0.00030708	992.79	1.2049e-05	1.21e-05	1077.7	212.92	1.2057e-05	1.213e-05	389.04	106.39	66.22	21.017	1.2098e-05	35.855	-61.739	-9.713	-41.312	-147.806	-98.470	-14.026	-148.499	-144.918	119.295	-103.181	-146.102	-142.901	-142.516	-140.282	-46.039	-138.992	-8191	255	
1183.688	1	1	0	0	0.20875	0.19919	0.22318	0.19721	0.089187	0.10235	0.37493	0.01475	0.16011	0.39026	0.12373	0.13324	0.20096	0.12619	0.16273	0.041046	-2.175	-2.5792	-2.1896	-2.6167	-2.4646	-2.3292	-2.9854	-2.6396	-2.4083	-2.5417	-2.2812	-2.5146	-2.3917	-2.3937	-2.7083	-2.4542	86.633	134.354	68.367	-123.454	-10.464	183.322	132.908	68.844	138.510	-56.805	85.394	117.966	80.641	-65.699	-31.116	38.190	0.00085658	0.0001424	0.00040397	594.52	1.217e-05	1.306e-05	1011.9	171.03	4.1079e-06	1.4177e-05	332.57	86.064	39.375	12.401	9.0348e-06	25.48	0.0010961	0.0011116	0.0003088	993.97	1.2103e-05	1.2226e-05	1083.2	214.48	1.2139e-05	1.2261e-05	392.75	107.38	66.718	21.234	1.2246e-05	36.189	-0.839	-136.903	-110.372	-148.376	22.971	87.007	-148.589	-144.928	-118.108	50.042	-146.281	-142.934	-142.238	-141.220	-146.103	-138.834	-8191	255	
1183.809	1	1	0	0	0.098144	0.16337	0.0872	0.11234	0.11952	0.29216	0.41189	0.15825	0.093896	0.23883	0.21571	0.30991	0.20444	0.37223	0.18848	0.21291	-2.0625	-2.8333	-2.1708	-2.5292	-2.4938	-2.4688	-2.7438	-2.4458	-2.3104	-2.5583	-2.3396	-2.6271	-2.5083	-2.2375	-2.6125	-2.5625	173.190	-67.835	122.095	194.302	-38.100	13.026	99.144	51.502	111.345	112.204	136.068	130.272	146.105	-116.099	-117.242	-117.571	0.00072355	0.00073631	0.0001017	601.08	9.1886e-06	2.0035e-06	1001	172.2	1.5224e-05	3.2302e-06	333.14	86.526	39.635	12.26	8.353e-06	25.607	0.0011111	0.0011209	0.00031073	997.92	1.2223e-05	1.2265e-05	1080	214.21	1.2238e-05	1.229e-05	392.35	107.66	66.981	21.304	1.225e-05	36.454	-17.199	-40.688	-47.352	-148.502	166.391	-49.827	-148.342	-145.096	45.601	133.988	-145.788	-142.906	-143.274	-141.124	-13.928	-139.230	-8191	255	
1183.905	1	1	0	0	0.26196	0.1112	0.16546	0.23805	0.139	0.039009	0.35433	0.16678	0.076277	0.025967	0.23032	0.23428	0.24984	0.15628	0.28868	0.15395	-1.9688	-2.6125	-2.2313	-2.7104	-2.5479	-2.5187	-2.7958	-2.4479	-2.2583	-2.725	-2.5646	-2.4979	-2.5938	-2.2417	-2.6792	-2.5396	41.487	146.063	-5.151	166.702	-105.726	-73.550	94.118	-64.797	-88.029	-97.123	-148.138	88.844	-33.648	113.408	-10.153	118.874	0.00068737	0.00069282	0.00023285	589.46	1.9958e-05	5.6652e-06	1005.3	170.21	1.2558e-05	1.75e-05	330.6	84.562	39.365	12.14	5.4744e-06	25.465	0.0011195	0.0011295	0.00031178	1001	1.2364e-05	1.2373e-05	1079.5	213.49	1.2334e-05	1.2383e-05	390.12	106.52	66.589	21.256	1.2273e-05	36.113	-27.761	115.897	50.778	-147.371	-61.321	170.443	-148.706	-144.865	161.193	-13.383	-146.008	-142.872	-143.508	-141.000	-19.109	-138.186	-8191	255	
1183.977	1	1	0	0	0.129	0.24628	0.16896	0.13116	0.25989	0.17003	0.32156	0.14829	0.13715	0.27403	0.17535	0.077124	0.12761	0.18515	0.17439	0.18696	-1.8521	-2.4417	-2.4125	-2.5583	-2.6937	-2.1979	-2.6896	-2.4583	-2.3854	-2.6604	-2.3271	-2.5875	-2.55	-2.2438	-2.5146	-2.6396	0.331	-130.826	69.155	144.056	149.833	60.459	147.192	17.816	84.631	-24.242	165.752	-52.722	43.201	-142.321	-33.053	-140.518	0.00031516	0.00090226	0.00013851	596.42	7.5679e-06	7.9174e-06	998.99	168.72	6.006e-06	1.4232e-05	329.73	85.228	39.262	12.262	3.976e-06	25.273	0.0011202	0.0011286	0.00031205	1003.3	1.2358e-05	1.2411e-05	1076.3	213.22	1.2403e-05	1.2406e-05	389.34	106.64	66.643	21.271	1.2343e-05	36.234	9.138	-140.061	-128.102	-148.524	78.141	-87.455	-148.726	-144.954	-104.384	38.159	-146.298	-142.779	-143.410	-140.680	-99.660	-138.868	-8191	255	
1184.073	1	1	0	0	0.25607	0.026397	0.14677	0.25994	0.39051	0.13914	0.26299	0.11047	0.10647	0.25303	0.097837	0.082855	0.059711	0.12316	0.096607	0.13112	-1.8937	-2.5563	-2.4979	-2.3625	-2.7146	-2.3542	-2.6417	-2.7396	-2.2604	-2.7125	-2.3021	-2.4313	-2.5938	-2.4729	-2.3917	-2.4562	-128.143	170.036	189.887	191.178	33.480	98.155	54.785	41.890	41.785	-100.113	-114.277	179.408	0.807	187.783	-77.290	112.657	0.00015094	0.0007832	6.3859e-05	596.58	4.3258e-06	1.0232e-05	995.25	166.83	1.3077e-06	9.4494e-06	325.17	84.457	39.346	12.084	1.5445e-05	25.163	0.0011305	0.0011305	0.00031333	1002.2	1.24e-05	1.2369e-05	1072.2	211.71	1.2393e-05	1.2305e-05	387.53	106.03	66.312	21.104	1.2315e-05	36.131	22.480	-65.520	131.730	-148.210	-39.387	-68.049	-148.726	-144.627	-131.296	110.811	-146.189	-142.742	-142.358	-139.970	190.174	-139.545	-8191	255	
1184.193	1	1	0	0	0.17239	0.11244	0.25736	0.11613	0.32947	0.26083	0.28927	0.085176	0.062741	0.04545	0.086207	0.15779	0.090494	0.11077	0.16649	0.0467	-1.7958	-2.6417	-2.6	-2.2354	-2.7812	-2.4292	-2.7229	-2.5729	-2.4042	-2.3958	-2.7292	-2.2938	-2.7979	-2.4062	-2.6417	-2.8	49.844	-148.221	126.736	176.860	-48.391	144.454	124.451	-139.156	107.100	111.453	89.206	54.089	39.349	177.663	-138.449	93.406	0.00045367	0.0021516	0.00016247	595.36	9.182e-06	1.0901e-05	991.65	167.78	2.5442e-06	9.663e-06	326.33	83.368	38.51	12.131	1.2584e-05	24.986	0.001127	0.0011292	0.00031288	1004.6	1.2358e-05	1.2325e-05	1070.5	211.5	1.244e-05	1.2315e-05	387.13	106.22	66.128	21.024	1.2256e-05	36.104	42.065	-83.148	-132.463	-147.781	187.536	-113.118	-148.770	-145.589	-70.043	87.279	-146.711	-142.883	-143.160	-140.574	-47.415	-138.598	-8191	255	
1184.289	1	1	0	0	0.095487	0.34665	0.19571	0.11392	0.18407	0.10854	0.27972	0.13935	0.025549	0.29265	0.097761	0.041478	0.36908	0.15028	0.031701	0.11879	-1.8771	-2.5271	-2.5	-2.4292	-2.7958	-2.4104	-2.5646	-2.8167	-2.3417	-2.5042	-2.4292	-2.5062	-2.6271	-2.3021	-2.3542	-2.8354	-19.288	-68.276	67.176	18.761	-23.381	18.357	129.228	172.804	38.014	105.538	124.696	119.566	68.044	109.565	-55.130	182.757	0.00057603	0.00076345	0.00019324	598.92	1.4024e-05	1.7243e-05	993.01	167.07	4.1714e-06	7.9103e-06	328.89	85.176	38.744	12.456	1.8918e-05	25.26	0.0011181	0.0011147	0.00031038	999.47	1.217e-05	1.22e-05	1068.4	211.32	1.2208e-05	1.2158e-05	387.27	106.19	65.943	21.146	1.2223e-05	36.154	50.254	-138.478	-0.140	-148.128	-21.789	-113.663	-148.507	-145.098	-130.983	17.512	-146.296	-142.872	-142.752	-140.727	-41.117	-138.983	-8191	255	
1184.386	1	1	0	0	0.16658	0.11232	0.16475	0.086932	0.3617	0.19681	0.040209	0.088065	0.25044	0.1547	0.20562	0.088398	0.12401	0.14124	0.12385	0.22608	-1.9542	-2.6667	-2.5104	-2.2771	-2.7625	-2.2979	-2.7292	-2.8271	-2.3646	-2.6271	-2.6292	-2.4688	-2.7229	-2.4771	-2.4854	-2.8333	134.413	123.434	-55.474	139.483	-80.498	-55.371	69.375	-115.488	129.466	144.507	174.185	114.366	70.775	-127.444	57.296	-17.994	0.0001399	0.00049643	0.00026386	606.01	1.9837e-05	1.7739e-05	997.01	169.67	3.882e-06	5.3867e-06	333.09	85.296	39.427	12.407	1.1218e-05	25.404	0.0011108	0.0011179	0.00031141	999.26	1.2161e-05	1.2182e-05	1074.2	211.61	1.2098e-05	1.2127e-05	389.76	106.21	66.029	21.127	1.2161e-05	36.098	13.710	103.478	-40.676	-147.530	189.654	-119.303	-148.477	-144.904	-53.697	139.274	-146.094	-142.527	-142.979	-139.759	-130.026	-138.964	-8191	255	
1184.482	1	1	0	0	0.051909	0.18133	0.14006	0.054834	0.14629	0.12617	0.028664	0.18079	0.22888	0.18628	0.030878	0.093139	0.15614	0.14501	0.16447	0.20743	-2.0125	-2.65	-2.5792	-2.3625	-2.8375	-2.5229	-2.7729	-2.6354	-2.3354	-2.3625	-2.7542	-2.3125	-2.4167	-2.2687	-2.1958	-2.5312	47.932	-123.262	33.615	-63.287	183.224	-85.043	-133.199	82.180	177.141	-15.765	-70.262	134.049	54.026	136.795	-92.315	85.437	0.00011967	0.0011147	0.00027279	603.73	4.1813e-06	4.8667e-06	1006.8	170.29	9.2632e-06	6.0339e-06	332.22	86.092	39.64	12.504	9.3375e-06	25.307	0.0011039	0.0011116	0.00031082	998.94	1.215e-05	1.2164e-05	1081.3	213.24	1.2164e-05	1.2142e-05	391.35	106.61	66.106	21.17	1.2187e-05	36.096	76.705	83.752	-43.341	-148.000	-81.368	55.346	-148.467	-145.141	-114.307	194.084	-146.153	-142.355	-143.801	-141.130	-9.569	-139.172	-8191	255	
1184.576	1	1	0	0	0.088707	0.25996	0.21347	0.15802	0.20779	0.11778	0.37512	0.10178	0.20506	0.14412	0.21239	0.072457	0.11312	0.24027	0.044524	0.31136	-1.875	-2.4583	-2.4	-2.3521	-2.4396	-2.5458	-2.4938	-2.6875	-2.2292	-2.5146	-2.7188	-2.1958	-2.5542	-2.675	-2.3688	-2.6188	137.165	-36.870	55.739	170.706	84.073	66.650	105.044	-88.703	-157.089	16.098	163.739	13.333	94.247	12.529	54.269	-115.856	0.0012886	0.00055973	0.00011694	596.36	6.4498e-06	6.2195e-06	1006.8	169.36	2.915e-06	6.2621e-06	332.37	85.785	39.162	12.416	7.4164e-06	25.175	0.0011046	0.0011051	0.00030956	993.87	1.2051e-05	1.2097e-05	1077.6	212.35	1.2075e-05	1.2128e-05	389.42	106.26	66.058	21.066	1.2113e-05	35.711	-13.823	-12.584	179.634	-147.988	26.849	-59.802	-148.616	-145.629	107.459	-108.350	-145.884	-142.916	-142.636	-140.337	80.784	-138.500	-8191	255	
1184.672	1	1	0	0	0.19348	0.33291	0.14883	0.088475	0.11146	0.26902	0.22049	0.27059	0.27692	0.10981	0.020503	0.12599	0.40354	0.11556	0.31187	0.10174	-1.9333	-2.4313	-2.6771	-2.4146	-2.6167	-2.5771	-2.3417	-2.6771	-2.3771	-2.3812	-2.7667	-2.3771	-2.4437	-2.5521	-2.3646	-2.5833	163.387	100.531	154.541	-151.186	4.282	52.831	113.612	177.372	93.305	150.075	191.173	156.388	-117.566	-103.711	109.231	43.372	0.001005	0.0005708	0.00024647	601.64	5.7237e-06	9.9988e-06	997.2	169.32	9.1764e-06	1.4768e-05	331.75	84.562	39.348	12.355	1.0325e-05	25.446	0.0010971	0.0011057	0.00030747	985.81	1.1997e-05	1.2093e-05	1070.5	211.14	1.2023e-05	1.2086e-05	387.54	105.55	65.872	21.011	1.2079e-05	35.797	-8.318	162.537	109.008	-147.203	54.363	-14.177	-148.655	-144.890	-111.375	38.624	-145.918	-142.988	-142.535	-140.598	167.104	-138.805	-8191	255	
1184.770	1	1	0	0	0.15236	0.16994	0.036253	0.05501	0.04416	0.18205	0.012536	0.13515	0.069583	0.23574	0.18885	0.076519	0.1283	0.14451	0.15968	0.15621	-2.0812	-2.3354	-2.4792	-2.3771	-2.4313	-2.6458	-2.4229	-2.7479	-2.5729	-2.3042	-2.8187	-2.3521	-2.5042	-2.7271	-2.2042	-2.6896	97.815	-37.403	180.175	-76.554	106.095	-22.397	-37.925	102.751	52.129	115.136	-99.119	-97.357	29.475	-141.264	163.130	75.769	0.00050006	0.00052654	0.00021437	598.67	6.2386e-06	7.9091e-06	996.65	168.76	5.93e-06	1.1289e-05	330.31	84.955	38.771	12.258	7.3006e-06	25.391	0.0011003	0.0011162	0.00030831	986.96	1.2046e-05	1.2137e-05	1067.1	210.67	1.2071e-05	1.2115e-05	387.04	105.4	65.985	20.984	1.2072e-05	35.929	34.459	-122.323	-83.041	-147.852	-45.187	-51.635	-148.593	-145.036	34.619	133.032	-146.037	-142.866	-142.748	-139.953	-149.262	-138.730	-8191	255	
1184.889	1	1	0	0	0.14546	0.065418	0.21884	0.15194	0.19877	0.099426	0.19472	0.30953	0.10658	0.2335	0.075484	0.28393	0.057716	0.17278	0.055859	0.22961	-1.8875	-2.1896	-2.725	-2.2854	-2.4229	-2.5354	-2.5167	-2.5187	-2.4042	-2.3292	-2.8063	-2.4458	-2.3521	-2.6208	-2.4188	-2.6833	-130.288	7.871	96.436	-79.919	-45.504	-24.451	137.954	151.305	-72.120	63.647	135.922	-158.898	44.743	179.227	176.374	146.339	0.00088918	0.00058377	0.00031595	594.25	1.0541e-05	2.1318e-05	990.15	169.32	5.013e-06	7.6266e-06	330.53	85.253	39.703	12.298	4.5596e-06	25.386	0.0011025	0.0011102	0.00030772	989.23	1.2149e-05	1.2161e-05	1069.1	211.03	1.2145e-05	1.2143e-05	387.78	105.88	66.147	21.043	1.2015e-05	35.887	-2.300	-100.388	8.162	-148.685	10.246	-139.824	-148.697	-145.350	153.628	-101.112	-146.108	-143.080	-142.658	-140.605	105.252	-139.383	-8191	255	
1184.985	1	1	0	0	0.38336	0.2382	0.044139	0.38162	0.099042	0.085748	0.1098	0.14207	0.36522	0.089605	0.20074	0.10655	0.18048	0.13382	0.26515	0.17226	-2.2188	-2.3125	-2.7208	-2.5042	-2.5	-2.5667	-2.4854	-2.7104	-2.5729	-2.1937	-2.6021	-2.6063	-2.3729	-2.6375	-2.3271	-2.6333	184.896	160.920	-161.193	-125.463	-136.169	-138.303	-153.464	82.407	-1.855	-12.513	177.546	22.047	139.301	147.119	-112.809	-85.628	0.00074671	0.0014292	3.6226e-05	586.74	2.9318e-06	3.5134e-06	990.46	167.94	4.1162e-06	9.3689e-06	330.18	84.626	39.2	12.274	8.2738e-06	25.704	0.0011006	0.0011043	0.00030772	982.99	1.2132e-05	1.2125e-05	1064.7	210.14	1.2126e-05	1.2099e-05	386.49	105.76	65.93	21.041	1.1974e-05	35.907	13.311	-155.166	-138.569	-147.170	24.864	167.848	-148.826	-144.934	-95.111	-66.103	-146.216	-142.832	-143.008	-140.889	155.250	-139.315	-8191	255	
1185.081	1	1	0	0	0.11821	0.2256	0.081516	0.12208	0.099264	0.10496	0.20319	0.031159	0.082354	0.3257	0.26902	0.0498	0.083222	0.032038	0.12671	0.20804	-2.1312	-2.2917	-2.5521	-2.55	-2.1937	-2.6229	-2.5896	-2.4083	-2.5875	-2.3021	-2.7	-2.4979	-2.325	-2.6833	-2.4417	-2.3146	-10.484	-92.161	66.731	-19.797	105.420	-10.962	100.785	-153.131	-95.417	-112.866	156.640	63.170	-104.169	62.334	152.547	39.673	0.00076252	0.00059105	0.00052259	593.58	3.0176e-06	7.3834e-06	992.81	168.58	6.2078e-06	3.0041e-06	330.16	84.522	39.007	12.356	2.3829e-06	25.448	0.0011002	0.001105	0.00030558	988.73	1.2148e-05	1.2082e-05	1066.4	210.63	1.2121e-05	1.204e-05	386.05	105.72	65.766	21.036	1.199e-05	36.081	-25.737	-52.101	-82.346	-148.755	88.333	-30.194	-148.435	-145.220	-81.523	-19.749	-146.234	-142.731	-143.165	-140.879	82.965	-139.047	-8191	255	
1185.202	1	1	0	0	0.088782	0.14807	0.090068	0.13763	0.18096	0.10176	0.22755	0.12139	0.30734	0.26986	0.12555	0.17899	0.029715	0.19188	0.18076	0.070779	-2.2979	-2.2958	-2.6562	-2.4813	-2.2292	-2.6688	-2.4417	-2.4979	-2.725	-2.2062	-2.6833	-2.5563	-2.2104	-2.5771	-2.5104	-2.5292	5.937	127.506	133.863	112.743	99.468	158.333	74.648	-136.608	-108.029	-152.336	64.464	85.053	164.564	180.305	-140.818	-157.048	0.00040601	0.0005985	0.00016795	589.37	5.9869e-06	1.4385e-05	988.2	167.58	1.0152e-05	1.0789e-05	330.79	84.818	39.568	12.457	1.1622e-05	25.618	0.0010953	0.0011061	0.00030716	984.79	1.208e-05	1.2011e-05	1064	210.31	1.207e-05	1.2021e-05	386.82	105.79	66.032	21.019	1.2015e-05	36.028	24.703	-15.502	177.943	-148.160	-127.220	49.803	-148.548	-144.449	148.809	-8.391	-146.357	-143.118	-142.083	-140.661	-105.106	-139.361	-8191	255	
1185.274	1	1	0	0	0.29494	0.027711	0.10438	0.082709	0.039433	0.099775	0.16532	0.34859	0.28036	0.13269	0.36906	0.20744	0.089758	0.089363	0.22134	0.085736	-1.9958	-2.55	-2.5417	-2.4958	-2.375	-2.6813	-2.6	-2.4875	-2.7062	-2.3354	-2.5854	-2.7667	-2.4	-2.4083	-2.6021	-2.3458	-106.704	17.835	13.555	191.252	59.576	-110.358	-111.586	191.914	25.757	-130.696	116.313	186.789	151.949	-57.684	118.605	-13.417	0.00054109	0.00053751	0.00023142	593.94	7.938e-06	1.544e-05	998	168.6	1.7528e-05	7.3118e-06	329.71	84.552	39.176	12.635	8.605e-06	25.482	0.0010948	0.0010942	0.00030606	985.33	1.1992e-05	1.2016e-05	1066.4	210.64	1.1964e-05	1.1956e-05	386.06	105.95	65.758	21.093	1.198e-05	35.935	21.553	-138.034	-77.704	-147.943	101.341	9.323	-148.414	-144.832	-78.723	26.667	-146.352	-142.867	-142.388	-140.977	185.420	-139.495	-8191	255	
1185.370	1	1	0	0	0.035972	0.10005	0.16671	0.13931	0.25736	0.086195	0.086672	0.054639	0.13798	0.1871	0.23935	0.34101	0.2512	0.29913	0.19172	0.017205	-2.2625	-2.4458	-2.2938	-2.7875	-2.5167	-2.6667	-2.7812	-2.3312	-2.5896	-2.4417	-2.5271	-2.5729	-2.5083	-2.6333	-2.4771	-2.4083	-111.163	-152.678	-4.521	-105.892	93.628	1.738	50.280	164.179	86.529	-113.262	-11.402	-104.227	38.698	93.258	116.466	58.342	0.00075383	0.0001308	0.00016248	597.37	1.4311e-05	3.4697e-06	989.22	168.78	1.3014e-05	4.6776e-06	329.55	84.771	39.154	12.425	1.3424e-05	25.508	0.001089	0.0010976	0.00030475	985.02	1.1979e-05	1.1955e-05	1064.7	210.76	1.2042e-05	1.2004e-05	386.9	105.85	65.827	21.164	1.2072e-05	36.081	21.980	-41.142	-133.676	-147.976	133.059	-64.538	-148.926	-144.939	-98.910	-147.918	-146.284	-142.747	-143.339	-140.438	-141.137	-139.633	-8191	255	
1185.490	1	1	0	0	0.067028	0.40114	0.11755	0.060652	0.095285	0.044373	0.16669	0.091788	0.11964	0.18668	0.11694	0.21188	0.21471	0.12417	0.15927	0.15418	-2.2	-2.3667	-2.7188	-2.8812	-2.5438	-2.525	-2.7062	-2.4188	-2.7104	-2.6312	-2.6833	-2.7979	-2.3458	-2.4896	-2.7542	-2.4646	69.918	-157.542	-28.183	82.036	-98.371	70.106	20.958	45.656	-65.242	120.910	-76.265	-36.015	143.165	176.374	113.683	18.202	0.00051802	0.0011213	0.00011657	594.04	1.7234e-05	9.7693e-06	993.64	168.03	6.7824e-06	5.4987e-06	330.62	86.208	39.788	12.612	1.241e-05	25.744	0.0010914	0.0010995	0.00030675	985.53	1.1963e-05	1.1943e-05	1067.1	210.94	1.199e-05	1.2022e-05	386.8	106.41	65.953	21.263	1.2095e-05	36.248	18.769	-83.105	-32.883	-147.272	84.020	-104.522	-148.756	-144.992	-115.173	175.923	-145.858	-142.960	-144.152	-140.816	-56.529	-139.086	-8191	255	
1185.585	1	1	0	0	0.065202	0.27931	0.13177	0.089423	0.27365	0.18011	0.11859	0.14831	0.33065	0.12989	0.29775	0.04733	0.070112	0.071864	0.14932	0.16078	-2.0938	-2.6854	-2.2979	-2.5333	-2.3875	-2.5375	-2.7104	-2.2479	-2.6333	-2.5146	-2.2687	-2.5812	-2.5604	-2.5229	-2.7208	-2.3021	-70.303	-29.750	142.064	-99.576	168.208	195.463	140.577	-82.699	-67.520	-70.331	-126.065	-66.355	164.186	-127.726	42.520	-97.143	0.00081327	0.00082304	0.00020924	584.67	3.9916e-06	8.0698e-06	995.4	169.3	1.5907e-05	1.7006e-05	330.03	85.767	39.7	12.58	1.091e-05	25.548	0.0010936	0.0011037	0.00030761	983.6	1.1993e-05	1.2078e-05	1067.7	210.69	1.2011e-05	1.2071e-05	386.66	106.06	65.884	21.205	1.2047e-05	36.036	-38.525	53.806	-8.240	-148.153	94.515	-86.018	-148.522	-145.395	-71.043	40.301	-146.079	-143.020	-143.091	-140.803	-110.350	-138.709	-8191	255	
1185.681	1	1	0	0	0.13334	0.27452	0.072988	0.19392	0.29368	0.088963	0.2529	0.15872	0.27317	0.10046	0.10937	0.29094	0.33151	0.12115	0.041072	0.112	-2.1312	-2.2542	-2.25	-2.6437	-2.5417	-2.3521	-2.8604	-2.35	-2.5646	-2.6521	-2.1708	-2.5646	-2.2667	-2.4542	-2.7104	-2.4	-25.352	104.202	157.225	-127.331	144.884	-125.767	167.464	89.714	-108.885	-37.592	-109.700	166.354	133.941	63.262	21.908	88.541	0.0010879	0.001127	0.00017399	585.91	7.4509e-06	2.8153e-06	991.69	169.62	3.4972e-06	4.0288e-06	328.32	85.817	39.534	12.617	6.0145e-06	25.82	0.0010906	0.0011017	0.00030705	982.34	1.1993e-05	1.2079e-05	1066.6	210.73	1.1958e-05	1.209e-05	387.3	106.11	66.124	21.271	1.2021e-05	36.166	-10.759	-42.041	68.789	-148.787	-31.474	-11.927	-148.439	-144.992	-53.701	-124.762	-145.936	-143.105	-142.433	-141.013	-98.239	-139.611	-8191	255	
1185.777	1	1	0	0	0.30367	0.19962	0.18298	0.11939	0.2754	0.25192	0.071537	0.13491	0.2094	0.17953	0.18939	0.13143	0.087979	0.17926	0.050404	0.068476	-2.1083	-2.4417	-2.2708	-2.5062	-2.3625	-2.3479	-2.6875	-2.3667	-2.5667	-2.5229	-2.375	-2.7167	-2.3271	-2.3667	-2.6958	-2.3521	140.320	-97.070	10.676	105.503	-115.430	-87.558	111.757	149.968	182.446	194.278	145.494	94.920	-12.834	-162.436	146.166	-44.077	0.0012203	0.00045944	6.6779e-05	592.82	5.9854e-06	7.0703e-06	997.57	169.49	3.3351e-06	3.0118e-06	330.49	85.692	39.975	12.676	1.6993e-05	26.091	0.0010962	0.0011058	0.00030799	983.37	1.2048e-05	1.2071e-05	1070	211.3	1.2056e-05	1.2044e-05	388.24	106.3	66.144	21.338	1.2004e-05	36.316	9.613	24.675	-158.895	-148.118	-84.624	0.870	-148.648	-145.088	84.421	-120.711	-146.061	-143.257	-142.811	-141.352	-42.810	-138.747	-8191	255	
1185.873	1	1	0	0	0.14817	0.22965	0.11511	0.1475	0.11112	0.32494	0.20519	0.17482	0.13885	0.091955	0.26796	0.21344	0.15891	0.2434	0.18399	0.076824	-2.05	-2.5625	-2.2771	-2.4958	-2.4417	-2.4167	-2.7417	-2.5542	-2.3396	-2.6562	-2.35	-2.6229	-2.5521	-2.2333	-2.6042	-2.4646	-10.680	-53.532	121.082	162.909	13.555	-148.764	161.334	29.732	-115.417	-79.832	191.696	159.285	149.960	-79.811	24.194	-28.428	0.00066699	0.00031533	0.00029241	600.64	1.1514e-05	1.5003e-05	996	167.48	9.4286e-06	9.2458e-06	333.85	86.171	39.958	12.79	1.4775e-05	25.856	0.0010965	0.0011035	0.00030558	983.33	1.2059e-05	1.2094e-05	1068.4	211.06	1.2064e-05	1.2092e-05	389.34	106.54	66.457	21.291	1.1958e-05	36.223	56.821	-74.692	123.319	-148.205	119.891	180.291	-148.588	-145.161	-47.735	2.702	-146.123	-142.628	-143.231	-140.812	9.322	-139.027	-8191	255	
1185.969	1	1	0	0	0.21436	0.23786	0.22505	0.27117	0.18291	0.18454	0.1881	0.038466	0.18279	0.10867	0.25731	0.1854	0.17595	0.19644	0.13204	0.12459	-1.9854	-2.6729	-2.1417	-2.4188	-2.4479	-2.2979	-2.8312	-2.4229	-2.4771	-2.6562	-2.3229	-2.7188	-2.7021	-2.4333	-2.6708	-2.675	101.556	2.379	165.597	82.412	-71.653	-96.379	-15.346	-160.055	-148.236	-6.069	106.826	109.887	52.948	-135.512	-153.635	99.996	0.00063027	0.0012076	0.00019432	596.04	7.1636e-06	4.7644e-06	992.76	168.97	1.5758e-05	7.9128e-06	330.86	85.865	39.272	12.512	1.0377e-05	25.71	0.0010975	0.0010961	0.00030428	979.82	1.2033e-05	1.205e-05	1067.1	210.82	1.2071e-05	1.2048e-05	388.01	106.34	66.302	21.285	1.1928e-05	36.163	-5.841	-78.303	122.939	-148.085	158.378	-30.198	-148.759	-145.030	1.885	-153.090	-146.398	-142.537	-143.056	-141.433	79.975	-139.483	-8191	255	
1186.066	1	1	0	0	0.13002	0.25376	0.40808	0.23596	0.0241	0.19977	0.21862	0.18478	0.27333	0.21144	0.18236	0.2307	0.29293	0.06964	0.10122	0.089045	-2.0021	-2.5563	-2.3583	-2.6021	-2.5479	-2.5146	-2.8479	-2.6229	-2.25	-2.6854	-2.4729	-2.4854	-2.6104	-2.3542	-2.6625	-2.5833	99.869	142.482	23.960	182.552	193.490	39.481	85.094	91.950	-78.874	-16.521	110.875	180.886	-85.045	-125.700	140.848	-124.144	0.00047518	0.00037525	0.00018181	584.86	6.7904e-06	8.596e-06	995.96	168.57	3.8971e-06	8.4782e-06	331.02	85.953	40.35	12.732	1.6792e-05	25.82	0.0010963	0.0011016	0.00030387	980.32	1.2091e-05	1.2067e-05	1068.2	210.93	1.207e-05	1.2063e-05	388.64	106.85	66.484	21.357	1.1987e-05	36.295	34.329	-128.823	-144.320	-148.124	-92.195	-104.169	-148.666	-145.214	-70.714	155.659	-146.177	-142.502	-142.300	-141.482	-76.246	-138.904	-8191	255	
1186.162	1	1	0	0	0.15943	0.31722	0.30569	0.16285	0.20947	0.18233	0.27718	0.22954	0.1021	0.080476	0.076582	0.15811	0.15124	0.1582	0.13116	0.12367	-1.9	-2.3937	-2.3229	-2.4	-2.4313	-2.4646	-2.7646	-2.6521	-2.2167	-2.6625	-2.4188	-2.2583	-2.6729	-2.2521	-2.4688	-2.5458	-151.603	40.030	-124.581	187.615	134.943	-22.402	138.105	-130.428	-79.447	-75.535	-122.485	-117.306	-124.385	-38.553	59.919	164.110	0.00057905	0.00057873	0.00019228	590.11	1.0879e-06	1.0669e-05	988.35	170.13	1.2453e-05	2.9298e-06	334.05	85.55	39.683	12.749	2.891e-06	25.73	0.0011014	0.0011034	0.00030563	984.41	1.2061e-05	1.2003e-05	1065.8	211.24	1.2111e-05	1.2047e-05	388.27	106.48	66.353	21.214	1.2036e-05	36.292	-4.514	124.434	-139.080	-148.186	-22.782	85.181	-148.579	-144.854	-129.183	-109.001	-146.250	-142.993	-143.737	-140.022	73.334	-139.109	-8191	255	
1186.282	1	1	0	0	0.13814	0.29562	0.28054	0.12924	0.31208	0.14559	0.1948	0.33873	0.28524	0.16899	0.23994	0.13365	0.20913	0.10998	0.1443	0.11385	-1.7188	-2.5917	-2.375	-2.5208	-2.6708	-2.3896	-2.7875	-2.7104	-2.3104	-2.7146	-2.6688	-2.4792	-2.4854	-2.4104	-2.5521	-2.5646	114.533	-93.032	-56.267	-133.402	33.378	54.113	50.534	166.113	-103.685	-8.071	-121.735	148.670	58.896	193.054	127.830	47.100	0.00094419	0.0007841	0.0002495	582.62	7.4493e-06	4.2703e-06	990.07	168.58	1.8226e-05	6.5813e-06	326.91	85.34	39.751	12.422	9.5786e-06	25.307	0.001096	0.0011003	0.000305	982.95	1.2091e-05	1.2027e-05	1063.9	210.14	1.206e-05	1.2023e-05	384.67	105.88	65.923	20.987	1.1947e-05	35.917	2.499	-97.315	38.632	-147.788	186.983	77.223	-148.562	-145.356	-25.415	160.741	-146.305	-142.854	-143.658	-141.130	65.325	-139.484	-8191	255	
1186.379	1	1	0	0	0.25013	0.23087	0.33213	0.28931	0.12009	0.2419	0.28536	0.29893	0.044535	0.28464	0.097113	0.12257	0.27648	0.29531	0.27368	0.13587	-1.9167	-2.5062	-2.4458	-2.2458	-2.6229	-2.4313	-2.5708	-2.7583	-2.3937	-2.6083	-2.4583	-2.4292	-2.7583	-2.3625	-2.375	-2.6479	-150.209	-154.211	-8.171	-77.755	-12.111	45.744	140.293	-154.237	54.127	-109.288	-137.848	145.239	125.802	164.526	-55.285	13.024	0.00067518	0.00026321	0.0002157	586.04	3.5138e-06	3.5185e-06	986.02	166.89	1.4012e-05	4.6214e-06	330.18	84.157	38.931	12.331	8.1281e-06	25.303	0.0010923	0.0010954	0.00030215	976.85	1.1945e-05	1.1904e-05	1059.4	208.88	1.1941e-05	1.1963e-05	384.55	105.2	65.447	20.867	1.1995e-05	35.856	-35.545	-23.225	105.615	-147.795	-50.293	104.512	-148.816	-145.409	185.839	99.822	-146.008	-143.069	-142.818	-140.312	-115.342	-139.288	-8191	255	
1186.473	1	1	0	0	0.026102	0.23053	0.056987	0.20271	0.012384	0.036949	0.25559	0.061479	0.058246	0.25528	0.22957	0.078017	0.14881	0.19175	0.15999	0.23503	-1.8583	-2.5833	-2.2	-2.0146	-2.4583	-2.3729	-2.5854	-2.65	-2.3521	-2.6208	-2.6229	-2.3229	-2.6333	-2.3563	-2.3917	-2.8708	129.906	24.397	-24.294	187.173	122.766	190.485	169.144	5.004	153.455	-98.610	161.095	-66.880	93.597	166.051	161.217	-122.205	0.00021393	0.00079477	0.00021135	587.04	1.2934e-05	1.3655e-06	980.86	166.85	1.5181e-05	1.357e-05	325.87	84.452	38.474	12.282	2.2267e-06	25.5	0.0010892	0.0010937	0.00030472	976.65	1.1945e-05	1.192e-05	1055.1	208.41	1.1924e-05	1.1939e-05	383.06	104.87	65.1	20.942	1.2024e-05	35.869	27.008	-78.305	-84.795	-148.545	-97.584	52.854	-148.697	-144.886	-77.566	-123.676	-146.163	-142.872	-142.335	-140.328	-36.845	-139.392	-8191	255	
1186.571	1	1	0	0	0.037761	0.19064	0.14346	0.44356	0.1538	0.17876	0.21621	0.079824	0.3087	0.020063	0.092734	0.49939	0.25369	0.14417	0.13214	0.18626	-1.85	-2.5687	-2.6646	-2.1146	-2.8417	-2.4417	-2.6792	-2.7104	-2.2542	-2.6562	-2.7812	-2.4771	-2.6688	-2.4125	-2.4354	-2.5563	-68.739	-144.238	47.199	11.807	-4.097	38.358	94.144	-160.726	-6.862	87.861	-54.463	-115.039	148.846	-160.223	26.064	137.520	0.0016221	0.0011789	0.00029286	582.35	2.6077e-06	1.4614e-05	974.79	164.48	4.9927e-06	6.1805e-06	320.78	82.703	38.481	12.314	1.714e-05	25.287	0.0010855	0.0010952	0.00030564	979.6	1.1977e-05	1.2011e-05	1050.1	206.84	1.1929e-05	1.1967e-05	380.23	104.12	64.764	20.877	1.1939e-05	35.692	41.130	-122.612	-4.382	-148.692	-5.926	-76.733	-148.514	-145.145	103.104	159.172	-146.056	-142.625	-143.095	-140.510	-137.709	-139.072	-8191	255	
1186.665	1	1	0	0	0.25037	0.16271	0.26423	0.15506	0.23183	0.053609	0.10194	0.1326	0.10117	0.26204	0.15388	0.13685	0.18734	0.032439	0.32425	0.15287	-2.0438	-2.5521	-2.5812	-2.1708	-2.4938	-2.5875	-2.5667	-2.7125	-2.4854	-2.4354	-2.7667	-2.3146	-2.5667	-2.5146	-2.3667	-2.5646	54.729	-107.362	63.920	-58.761	13.029	-26.871	186.104	82.185	-54.173	148.418	37.667	-97.724	139.881	-121.132	-115.525	-105.145	0.0005336	0.0008922	0.00013593	591.84	6.0291e-06	2.7035e-06	975.3	165.19	1.1095e-05	5.1153e-06	321.83	83.211	38.496	12.175	6.6363e-06	25.511	0.001082	0.0010938	0.000304	974.1	1.1916e-05	1.2028e-05	1049.5	206.68	1.1911e-05	1.1998e-05	379.83	103.7	64.535	20.837	1.1954e-05	35.659	-55.511	0.270	6.747	-147.945	-57.784	169.572	-148.711	-145.021	28.956	86.189	-146.427	-142.687	-142.556	-140.088	27.880	-138.926	-8191	255	
1186.761	1	1	0	0	0.18587	0.20624	0.18184	0.13727	0.13745	0.18053	0.13536	0.18635	0.044415	0.10982	0.21857	0.17492	0.11119	0.34079	0.15028	0.15271	-2.0521	-2.4771	-2.6604	-2.2958	-2.5812	-2.65	-2.4521	-2.7771	-2.4833	-2.4813	-2.8104	-2.4562	-2.4875	-2.6083	-2.2562	-2.7062	-159.453	-97.711	-28.869	197.146	54.132	9.883	-137.918	-118.211	-117.973	166.158	119.579	-151.265	-63.324	-99.451	-24.319	-53.925	0.00053948	0.00055599	0.00011438	583.83	1.1892e-05	4.5208e-06	975.51	164.39	2.2815e-06	5.6559e-06	319.88	82.852	38.375	12.289	1.9566e-06	25.565	0.0010819	0.0010971	0.00030472	972.55	1.1927e-05	1.1958e-05	1052.5	206.55	1.1924e-05	1.1952e-05	378.97	104.1	64.628	21.003	1.1911e-05	35.808	-59.746	-38.252	84.021	-147.198	45.964	-68.586	-148.593	-144.701	-75.734	134.290	-146.198	-143.076	-143.333	-140.753	54.864	-138.967	-8191	255	
1186.882	1	1	0	0	0.10819	0.059851	0.17447	0.11797	0.25781	0.2399	0.38612	0.16541	0.26713	0.11524	0.25579	0.14475	0.065326	0.16639	0.032219	0.08506	-1.9208	-2.3854	-2.7812	-2.375	-2.5375	-2.6104	-2.5167	-2.6188	-2.4562	-2.4562	-2.7708	-2.4229	-2.6646	-2.8292	-2.3854	-2.725	71.814	125.957	188.899	-97.316	-143.382	-20.784	90.083	188.329	81.626	-72.050	101.304	150.628	105.034	105.789	-68.908	183.752	0.00078916	0.00092956	0.00029036	589.31	6.9807e-06	5.9662e-06	970.86	163.92	3.3566e-06	4.193e-06	320.36	83.814	38.037	12.325	1.0957e-05	25.544	0.0010843	0.0010942	0.00030301	973.64	1.1894e-05	1.196e-05	1049.6	206.92	1.1901e-05	1.1909e-05	378.65	104.14	64.734	20.968	1.1806e-05	35.656	6.499	-42.512	159.125	-148.564	-75.375	145.388	-148.406	-145.227	113.475	-114.647	-145.734	-142.700	-143.024	-140.980	114.791	-138.771	-8191	255	
1186.978	1	1	0	0	0.093469	0.2021	0.24663	0.35808	0.30469	0.080106	0.28018	0.33777	0.20733	0.23816	0.26632	0.072948	0.24446	0.042307	0.16145	0.31369	-2.0458	-2.3875	-2.6583	-2.3187	-2.3833	-2.6625	-2.4271	-2.7812	-2.4958	-2.3979	-2.5875	-2.6146	-2.3063	-2.9	-2.4167	-2.8	112.984	-73.719	113.107	152.443	69.702	81.510	167.437	145.772	190.903	-44.178	191.403	36.816	151.779	-41.694	111.581	22.226	0.0010768	0.00077417	0.00018524	593.27	1.0787e-05	3.3216e-06	975.73	164.63	6.811e-06	7.7721e-06	321.97	83.329	38.772	12.365	7.7402e-06	25.211	0.0010784	0.001089	0.00030021	971.73	1.1902e-05	1.1823e-05	1047.7	206.89	1.1801e-05	1.1793e-05	378.23	103.62	64.468	20.877	1.17e-05	35.529	-34.952	36.932	94.941	-148.180	-4.196	-74.948	-148.827	-145.043	74.583	-87.365	-145.994	-142.612	-142.866	-141.655	-97.434	-139.159	-8191	255	
1187.074	1	1	0	0	0.19034	0.18912	0.24134	0.081492	0.24546	0.078983	0.24701	0.099372	0.14613	0.036222	0.23972	0.21039	0.25781	0.1897	0.14978	0.24714	-2.1896	-2.1833	-2.5125	-2.325	-2.5083	-2.8125	-2.3812	-2.6979	-2.6646	-2.3167	-2.6167	-2.5667	-2.4167	-2.4875	-2.4146	-2.6104	196.212	5.937	-71.393	-26.387	-124.042	-161.641	119.665	82.875	163.152	-54.823	-104.978	166.676	52.651	69.349	146.643	-41.941	0.00064597	0.0016437	0.00016858	586.14	1.9074e-05	6.8145e-06	982.77	165.9	1.0843e-05	1.0718e-05	323.69	83.574	38.56	12.625	8.5262e-06	25.431	0.0010727	0.0010794	0.00029739	966.11	1.1762e-05	1.1785e-05	1049.6	206.64	1.1701e-05	1.1723e-05	378.41	103.69	64.385	20.873	1.1675e-05	35.565	38.835	45.212	79.338	-147.826	-90.036	-5.256	-148.578	-145.204	-123.596	65.108	-146.034	-143.105	-142.781	-140.279	176.252	-139.266	-8191	255	
1187.170	1	1	0	0	0.068209	0.10461	0.041835	0.052476	0.19329	0.20011	0.13815	0.27097	0.26984	0.2328	0.11682	0.15258	0.14729	0.058423	0.18753	0.030799	-2.25	-2.4521	-2.6	-2.4375	-2.3063	-2.7938	-2.5146	-2.4833	-2.725	-2.575	-2.5958	-2.7167	-2.3438	-2.4688	-2.4375	-2.6	86.937	-108.627	156.682	-40.957	-55.170	104.256	121.872	190.494	77.641	56.763	-67.029	158.330	178.063	106.538	-49.059	165.956	0.00029097	0.00044401	0.00023672	581.76	1.0503e-05	8.2305e-06	979.59	166.21	1.4782e-05	9.1667e-06	324.25	84.015	38.772	12.481	7.1607e-06	25.549	0.0010698	0.0010762	0.00029646	964.54	1.1707e-05	1.1733e-05	1050.2	207.46	1.1754e-05	1.1697e-05	379.54	104.05	64.629	20.873	1.1659e-05	35.798	-32.232	189.353	-50.982	-147.699	-66.521	-113.333	-148.640	-145.001	-72.677	-43.170	-145.598	-142.519	-143.294	-140.756	-52.223	-139.127	-8191	255	
1187.267	1	1	0	0	0.24975	0.19612	0.15561	0.29779	0.11759	0.20547	0.44641	0.18599	0.095396	0.18244	0.16393	0.16568	0.15727	0.27205	0.12321	0.1304	-2.1458	-2.3479	-2.6042	-2.5146	-2.2458	-2.7583	-2.425	-2.5375	-2.7042	-2.2917	-2.5187	-2.5375	-2.2625	-2.6479	-2.5833	-2.2938	145.902	-41.464	-109.887	90.386	156.229	187.094	107.094	165.255	-162.275	-97.233	-152.558	195.401	-70.493	82.670	143.368	24.284	0.00050403	0.00030012	0.00023158	583.57	6.459e-06	4.0614e-06	981.37	166.84	5.6884e-06	7.1698e-06	324.05	84.2	39.422	12.561	1.3003e-05	25.668	0.0010678	0.0010692	0.00029719	966.25	1.1752e-05	1.167e-05	1051.2	207.1	1.1684e-05	1.1642e-05	379.52	104.15	64.719	20.87	1.1578e-05	35.644	0.302	159.689	-52.100	-148.162	-43.308	-92.915	-148.428	-145.337	-71.111	-17.106	-146.208	-142.872	-142.142	-140.550	-110.125	-139.571	-8191	255	
1187.363	1	1	0	0	0.074933	0.29002	0.14153	0.20321	0.041981	0.10983	0.31569	0.15902	0.18694	0.15903	0.12768	0.032297	0.13079	0.11225	0.03287	0.066259	-2.3	-2.1958	-2.4708	-2.7229	-2.0417	-2.4792	-2.6479	-2.3333	-2.525	-2.2354	-2.5833	-2.7271	-2.3896	-2.7292	-2.45	-2.5062	-14.693	125.247	152.377	24.775	-91.675	-46.378	179.304	89.130	-15.128	142.596	102.032	-28.859	30.504	45.960	92.839	-4.375	0.00068581	0.00056197	0.00022212	587.99	4.7727e-06	2.811e-06	979.61	166.11	1.3774e-05	9.3125e-06	326.65	83.322	38.573	12.437	2.2305e-06	25.391	0.0010634	0.0010698	0.0002983	966.14	1.1765e-05	1.1713e-05	1051.2	207.46	1.1734e-05	1.1711e-05	379.72	104.02	64.589	20.817	1.1705e-05	35.645	49.213	-134.921	36.817	-148.501	-126.819	40.488	-148.501	-144.831	182.205	-147.875	-145.985	-142.767	-143.000	-140.705	-159.817	-139.138	-8191	255	
1187.459	1	1	0	0	0.18572	0.14428	0.047061	0.23953	0.17968	0.24017	0.22505	0.12895	0.2083	0.2263	0.36976	0.2012	0.34238	0.16763	0.095886	0.10624	-2.2854	-2.4188	-2.4062	-2.6042	-2.6042	-2.4771	-2.8187	-2.3417	-2.6646	-2.4062	-2.4792	-2.7	-2.3104	-2.6229	-2.4917	-2.4708	21.806	-126.705	118.278	116.911	164.677	183.104	132.148	-85.947	-131.300	-108.363	138.171	66.225	136.209	100.774	87.787	-13.503	0.00084974	0.00067606	9.0526e-05	583.43	1.367e-05	5.9268e-06	976.64	166.02	8.6735e-06	5.8214e-06	323.49	83.709	38.705	12.454	7.9711e-06	25.844	0.0010706	0.0010729	0.00029939	971.47	1.1754e-05	1.1742e-05	1049.3	207.44	1.1718e-05	1.1742e-05	381.52	104.33	64.664	20.909	1.1825e-05	35.852	14.520	187.873	-109.615	-148.619	-9.641	174.775	-148.700	-145.036	133.935	-117.146	-145.983	-143.257	-143.149	-141.337	124.216	-139.185	-8191	255	
1187.578	1	1	0	0	0.1296	0.10019	0.11579	0.035817	0.25864	0.30406	0.12685	0.058824	0.076634	0.17986	0.14591	0.11035	0.077429	0.29597	0.32792	0.080337	-2.2521	-2.3937	-2.3979	-2.5396	-2.3667	-2.3438	-2.7458	-2.1542	-2.7104	-2.5604	-2.5875	-2.6604	-2.3042	-2.625	-2.45	-2.3812	158.596	-30.254	-101.808	129.592	97.217	141.467	-139.820	186.981	178.124	15.313	130.833	-90.221	-95.834	-85.814	93.399	76.452	0.0011106	0.00039314	0.00022236	576.45	6.6185e-06	1.3172e-05	983.29	166.68	4.1297e-06	6.0395e-06	324.19	84.264	38.742	12.391	3.6429e-06	25.554	0.0010671	0.0010782	0.00030138	969.5	1.18e-05	1.1772e-05	1053.1	207.69	1.173e-05	1.1733e-05	380.03	104.42	64.681	20.828	1.1774e-05	35.567	-2.078	122.847	-87.503	-147.290	-120.266	193.575	-148.773	-145.164	70.923	-142.610	-146.373	-142.990	-142.427	-140.839	-42.427	-138.931	-8191	255	
1187.674	1	1	0	0	0.25176	0.10113	0.079812	0.30939	0.31552	0.074648	0.45624	0.049063	0.089279	0.19023	0.087578	0.21716	0.13528	0.20834	0.20641	0.18483	-2.2896	-2.4917	-2.3167	-2.5375	-2.3542	-2.4813	-2.7333	-2.3417	-2.7604	-2.6875	-2.4729	-2.5833	-2.3812	-2.4042	-2.6854	-2.35	116.532	102.471	45.958	-19.701	-117.734	8.371	86.587	100.217	-21.226	54.733	52.675	48.123	99.647	-79.961	157.838	97.568	0.00064135	0.00039008	0.00042256	590.81	4.0159e-06	1.442e-05	980.95	165.62	7.4722e-06	1.0221e-05	325.59	84.14	38.917	12.382	1.604e-06	25.505	0.0010694	0.0010759	0.00030025	970.07	1.1766e-05	1.1826e-05	1050.5	206.87	1.1738e-05	1.1709e-05	380.77	104.33	64.596	20.893	1.1785e-05	35.602	-19.274	139.925	-133.178	-148.047	11.004	130.756	-148.584	-145.210	80.267	10.586	-145.741	-142.558	-143.400	-140.062	83.428	-139.227	-8191	255	
1187.746	1	1	0	0	0.11558	0.33215	0.13952	0.35439	0.11046	0.1973	0.27509	0.19448	0.03728	0.12178	0.19486	0.090523	0.26753	0.060491	0.27438	0.27601	-2.2854	-2.3396	-2.1937	-2.4979	-2.5104	-2.2938	-2.8333	-2.3521	-2.5708	-2.5896	-2.3896	-2.6312	-2.4167	-2.2812	-2.6688	-2.4417	60.262	64.378	-96.421	-149.266	174.250	72.618	132.779	135.437	-69.345	-51.248	-123.381	-28.180	-14.625	-98.756	-135.733	-163.206	0.0006481	0.0015262	0.00018707	589.88	2.4131e-06	1.036e-05	981.36	167.31	5.8464e-06	4.6137e-06	324.6	83.508	38.895	12.398	3.8053e-06	25.248	0.0010654	0.0010797	0.0003009	972.04	1.1796e-05	1.181e-05	1051.3	207.71	1.1763e-05	1.1765e-05	380.75	104.08	64.766	20.825	1.1814e-05	35.517	30.157	152.280	178.035	-148.019	19.977	168.334	-148.383	-145.410	-160.462	159.692	-145.956	-142.417	-142.861	-139.848	177.216	-139.214	-8191	255	
1187.842	1	1	0	0	0.10687	0.061635	0.31389	0.16572	0.0075937	0.29084	0.36209	0.13265	0.29749	0.042451	0.12685	0.16466	0.079815	0.07251	0.14603	0.24028	-2.0417	-2.5896	-2.15	-2.425	-2.4979	-2.3854	-2.6437	-2.3958	-2.6125	-2.5854	-2.3667	-2.5438	-2.4375	-2.1937	-2.7188	-2.3563	-141.567	-81.536	-97.441	195.013	77.402	-41.254	133.345	-31.342	-44.978	-126.730	-110.963	80.651	151.803	-36.461	63.227	154.830	0.00087958	0.00035671	0.0001128	595.33	1.7161e-05	1.5181e-05	980.62	166.67	1.5284e-05	1.3329e-05	325.8	84.081	38.955	12.359	1.1086e-05	25.547	0.0010696	0.0010814	0.00030005	969.98	1.1804e-05	1.1794e-05	1051.7	207.45	1.1725e-05	1.1836e-05	380.7	104.22	64.891	20.795	1.1773e-05	35.559	-63.821	164.237	103.065	-148.585	-4.005	139.774	-148.495	-144.905	-104.921	-26.152	-146.102	-142.462	-142.830	-140.457	56.860	-139.038	-8191	255	
1187.962	1	1	0	0	0.14381	0.074156	0.036775	0.25619	0.066988	0.055549	0.24921	0.13136	0.26192	0.12277	0.21262	0.066933	0.13422	0.15493	0.079226	0.13947	-2.0979	-2.6208	-2.3646	-2.5458	-2.4917	-2.5375	-2.7771	-2.4375	-2.5333	-2.5167	-2.2167	-2.6271	-2.6958	-2.1604	-2.6271	-2.5604	179.125	-127.749	179.831	150.489	120.004	-7.153	196.227	159.190	180.076	-129.574	62.779	-116.536	141.155	-37.495	43.590	36.392	0.00047332	0.0019947	8.1449e-05	576.14	6.6109e-06	1.1826e-05	981.45	165.41	8.3775e-06	6.1202e-06	324.01	83.35	38.793	12.236	4.9453e-06	25.043	0.0010716	0.0010804	0.0002991	966.24	1.1682e-05	1.1819e-05	1051	206.64	1.1751e-05	1.1805e-05	378.8	103.86	64.524	20.699	1.1655e-05	35.389	36.498	-6.127	-59.602	-148.137	196.843	-19.948	-148.623	-145.108	-121.107	-95.347	-146.199	-142.452	-142.923	-140.183	34.374	-138.479	-8191	255	
1188.059	1	1	0	0	0.037154	0.18638	0.054562	0.23517	0.21635	0.19561	0.049979	0.18357	0.16997	0.16975	0.38914	0.13319	0.16526	0.051103	0.27362	0.09816	-2.0708	-2.5875	-2.4562	-2.6792	-2.5563	-2.3208	-2.8292	-2.55	-2.5333	-2.6688	-2.5458	-2.7	-2.6146	-2.3229	-2.7792	-2.5583	-118.622	-74.558	-72.621	19.940	-75.850	-108.066	170.800	15.655	154.207	94.148	-152.678	132.047	156.005	-40.300	66.675	172.540	0.00089093	0.00053078	0.00031126	581.96	5.9601e-06	1.5316e-05	977.57	166.31	9.7143e-06	9.5955e-06	324.61	83.275	38.218	12.181	1.4279e-06	25.368	0.0010692	0.001074	0.0002987	967.08	1.1746e-05	1.1768e-05	1048.3	206.96	1.1762e-05	1.174e-05	378.4	103.54	64.049	20.513	1.1665e-05	35.287	24.763	-114.445	143.751	-147.578	-41.300	116.322	-148.588	-145.036	-41.710	-157.793	-146.084	-142.298	-143.893	-140.111	1.275	-138.578	-8191	255	
1188.155	1	1	0	0	0.23524	0.14556	0.081052	0.22298	0.10415	0.17784	0.099759	0.36846	0.33288	0.14198	0.21195	0.10259	0.044273	0.25404	0.11174	0.208	-1.875	-2.6708	-2.2125	-2.525	-2.6146	-2.4437	-2.9062	-2.35	-2.3417	-2.6479	-2.3708	-2.3833	-2.8229	-2.3271	-2.6729	-2.6521	-158.359	168.518	8.599	-3.458	-122.520	-21.318	33.458	-161.715	-62.806	-71.116	-110.705	16.006	36.835	-142.219	-104.986	90.632	0.0011644	0.00054621	0.00022061	576.91	1.0702e-05	1.2777e-05	970.75	165.62	6.0445e-06	4.3705e-06	323	83.196	37.722	12.086	1.7065e-05	25.331	0.0010531	0.0010586	0.00029317	950.41	1.158e-05	1.1526e-05	1038.4	204.62	1.1565e-05	1.1509e-05	375.39	102.58	63.462	20.298	1.1411e-05	35.105	-12.544	-83.649	58.979	-148.378	-109.835	-116.151	-148.390	-145.405	-61.125	-84.242	-146.015	-142.816	-143.104	-140.437	-56.419	-138.505	-8191	255	
1188.251	1	1	0	0	0.12674	0.1732	0.040305	0.19798	0.17734	0.14952	0.44252	0.037622	0.12634	0.11387	0.11098	0.30796	0.10632	0.27378	0.16941	0.073849	-1.9292	-2.7125	-2.475	-2.3229	-2.5021	-2.475	-2.5687	-2.525	-2.1396	-2.6958	-2.575	-2.5542	-2.7042	-2.4458	-2.5646	-2.6937	103.078	-145.413	-20.379	-36.891	-17.213	149.707	116.083	35.915	-75.289	-83.115	103.535	-80.086	-114.179	-44.788	184.280	141.672	0.0010666	0.00028902	0.00014854	582.69	8.1257e-06	2.123e-05	976.34	166.56	1.0017e-05	1.4406e-06	322.97	84.154	39.172	12.261	3.4881e-06	25.225	0.0010506	0.0010491	0.0002911	954.78	1.1478e-05	1.1497e-05	1040.9	205.04	1.1398e-05	1.1378e-05	374.75	102.98	63.446	20.36	1.1427e-05	35.004	-1.296	192.672	-29.214	-148.662	-146.971	-45.280	-148.367	-145.242	149.931	187.271	-146.107	-142.867	-142.241	-140.879	82.327	-139.030	-8191	255	
1188.371	1	1	0	0	0.15423	0.1632	0.20167	0.086498	0.031238	0.25884	0.18183	0.23351	0.17649	0.28683	0.25046	0.32666	0.20332	0.038581	0.15297	0.12727	-1.8062	-2.5771	-2.4292	-2.4542	-2.7542	-2.3125	-2.6104	-2.6813	-2.2292	-2.7271	-2.5542	-2.5208	-2.7208	-2.3917	-2.4667	-2.5646	-77.303	133.409	138.503	-72.662	-132.289	-28.583	97.998	145.820	-102.027	77.215	-125.293	161.776	176.574	157.518	-74.939	187.941	0.00080715	0.00020257	0.00024075	586.61	6.4734e-06	1.0546e-06	978.16	166.16	5.3542e-06	1.6462e-06	322.96	83.971	38.469	12.283	1.244e-05	25.36	0.0010404	0.0010408	0.00028998	954.27	1.139e-05	1.1333e-05	1040	204.54	1.1322e-05	1.1283e-05	373.94	102.36	63.027	20.286	1.124e-05	35.004	25.740	-106.249	-133.735	-147.905	30.010	70.577	-148.700	-144.943	163.089	148.997	-146.351	-142.959	-142.820	-140.222	-46.802	-139.080	-8191	255	
1188.443	1	1	0	0	0.14385	0.20085	0.14637	0.069242	0.16378	0.20363	0.2504	0.3339	0.12993	0.075108	0.10558	0.15332	0.10643	0.25731	0.36644	0.09349	-1.8583	-2.6583	-2.5354	-2.5354	-2.8333	-2.525	-2.8104	-2.6146	-2.3875	-2.5396	-2.625	-2.3417	-2.7687	-2.4896	-2.6	-2.4396	157.673	-39.691	1.703	-2.858	-134.873	-107.204	173.009	116.048	-51.117	100.949	-112.632	164.166	155.920	177.442	29.682	-136.337	0.0010456	0.00033767	0.00015416	584.32	6.598e-06	6.4267e-06	977.7	166.96	9.2017e-06	6.758e-06	324.74	84.237	39.974	12.321	1.6335e-05	25.866	0.0010265	0.0010291	0.00028653	947.69	1.1283e-05	1.1247e-05	1042.1	205.69	1.1281e-05	1.1218e-05	377.27	103.18	63.584	20.36	1.1297e-05	35.477	-17.544	99.411	160.201	-147.453	89.394	-32.586	-148.442	-144.970	142.895	-54.029	-145.980	-142.674	-142.589	-139.906	-83.304	-138.944	-8191	255	
1188.564	1	1	0	0	0.18251	0.16277	0.083632	0.17903	0.072845	0.11158	0.11032	0.15517	0.36649	0.066854	0.095557	0.015238	0.3561	0.024914	0.19457	0.3532	-1.6375	-2.4146	-2.4583	-2.35	-2.5771	-2.4521	-2.5229	-2.8604	-2.4083	-2.7271	-2.6333	-2.3438	-2.7042	-2.3792	-2.5042	-2.7771	151.824	169.785	131.578	25.889	-104.575	173.659	16.056	165.812	185.274	57.115	-43.852	-116.068	-40.217	-132.995	-93.562	152.816	0.00065537	0.00094465	0.00014419	595.65	1.5577e-05	3.8075e-06	984.41	168.95	6.5759e-06	5.0261e-06	325.99	84.303	39.364	12.311	9.8864e-06	25.586	0.0010298	0.0010352	0.00028969	956.77	1.1317e-05	1.1337e-05	1049.9	207.19	1.1338e-05	1.1362e-05	378.56	103.68	63.903	20.489	1.1446e-05	35.37	-12.803	146.185	-82.461	-148.534	178.854	-105.676	-148.309	-145.230	72.533	124.362	-146.361	-142.918	-143.259	-140.036	-56.409	-139.032	-8191	255	
1188.658	1	1	0	0	0.1089	0.24665	0.19828	0.05579	0.076793	0.16017	0.13128	0.12649	0.11107	0.24179	0.12835	0.072963	0.29562	0.14647	0.10342	0.16682	-1.9875	-2.6	-2.6729	-2.3	-2.6646	-2.4646	-2.5958	-2.8083	-2.55	-2.4958	-2.6667	-2.4292	-2.625	-2.4792	-2.6271	-2.7188	-52.097	63.286	109.804	159.980	-124.261	177.518	28.904	111.385	-128.075	-88.953	98.195	139.519	144.608	145.975	99.190	-149.014	0.00069527	0.0014519	8.322e-05	586.19	7.3041e-06	1.2854e-05	984.94	168.66	2.9302e-06	2.0682e-06	327.13	83.923	39.38	12.415	4.328e-06	25.789	0.0010414	0.0010488	0.00029344	961.39	1.147e-05	1.1504e-05	1051.6	207.98	1.141e-05	1.1471e-05	378.83	103.75	63.931	20.538	1.147e-05	35.489	40.091	-82.128	-157.661	-148.475	-122.815	72.636	-148.617	-144.753	61.118	173.363	-146.345	-142.649	-142.913	-140.061	-141.023	-138.886	-8191	255	
1188.754	1	1	0	0	0.13999	0.14627	0.15273	0.077315	0.095854	0.2898	0.35299	0.13463	0.22335	0.31558	0.32512	0.21584	0.037562	0.189	0.17726	0.022009	-1.9896	-2.3688	-2.5208	-2.0875	-2.4437	-2.4979	-2.4292	-2.7333	-2.3917	-2.4146	-2.6583	-2.3792	-2.6875	-2.5438	-2.3354	-2.6458	195.578	151.844	167.123	-154.023	-74.127	-94.241	118.568	148.786	-59.974	195.803	-142.908	103.660	-7.963	-69.682	-63.740	127.443	0.00043213	0.0014522	0.00025768	589.95	8.4082e-06	8.3217e-06	988.55	168.57	1.5683e-05	6.0552e-06	327.03	84.252	38.795	12.44	4.4188e-06	25.774	0.0010461	0.0010543	0.00029461	961.56	1.1518e-05	1.1543e-05	1050.5	208.06	1.1482e-05	1.1542e-05	379.84	103.64	64.231	20.594	1.1551e-05	35.592	44.030	-99.895	-149.774	-147.331	93.920	159.246	-148.537	-145.013	-121.370	176.296	-146.107	-142.658	-143.390	-140.194	-109.296	-138.439	-8191	255	
1188.850	1	1	0	0	0.20872	0.31244	0.21475	0.2107	0.20025	0.016086	0.10347	0.16803	0.1879	0.2346	0.11139	0.10575	0.048404	0.14791	0.29985	0.16791	-2.0021	-2.3604	-2.6167	-2.2417	-2.4437	-2.7583	-2.4833	-2.7854	-2.4229	-2.3979	-2.7313	-2.3875	-2.4167	-2.5812	-2.4188	-2.7271	-25.405	5.678	-132.470	157.711	72.256	177.807	183.494	-139.793	-79.307	44.540	-158.983	68.261	164.398	-87.510	49.162	154.538	0.00052841	0.00074835	0.00028006	596.04	1.0032e-05	8.1398e-06	987.24	169.05	5.2991e-06	3.8014e-06	325.89	84.618	39.532	12.378	7.4601e-06	25.56	0.0010495	0.0010581	0.00029541	960.74	1.1514e-05	1.1576e-05	1052.7	208.07	1.1521e-05	1.1548e-05	379.67	104.05	64.346	20.563	1.156e-05	35.422	1.010	-105.842	-43.335	-147.214	-103.728	46.931	-148.514	-145.219	118.636	109.397	-145.706	-142.727	-142.223	-140.178	61.238	-139.289	-8191	255	
1188.971	1	1	0	0	0.051947	0.059168	0.0648	0.028671	0.17498	0.22529	0.15969	0.1908	0.26637	0.26841	0.1546	0.27132	0.39245	0.19784	0.14913	0.1302	-2.0438	-2.2021	-2.5938	-2.3583	-2.5938	-2.5042	-2.5438	-2.6208	-2.3812	-2.4042	-2.7	-2.5354	-2.5896	-2.5896	-2.2458	-2.6375	-159.571	-36.080	18.923	-153.178	-152.702	118.999	-132.823	73.958	-60.206	23.000	-63.493	184.796	-110.162	83.031	-146.468	189.897	0.00021022	0.0007234	0.00017454	583.62	9.9101e-06	7.8551e-06	984.73	168.88	2.1507e-05	1.1432e-05	324.48	84.66	38.691	12.344	1.0392e-05	25.562	0.0010504	0.0010622	0.00029415	961.87	1.1531e-05	1.1557e-05	1050.7	207.96	1.1531e-05	1.1586e-05	378.38	103.5	64.315	20.579	1.1527e-05	35.398	-41.142	-91.576	11.089	-147.944	-10.476	-11.356	-148.643	-144.882	120.291	142.087	-145.662	-142.954	-142.036	-140.056	87.538	-138.886	-8191	255	
1189.043	1	1	0	0	0.39818	0.13345	0.24372	0.15316	0.071246	0.23344	0.21406	0.11912	0.10298	0.096648	0.15392	0.19162	0.10819	0.13032	0.1351	0.31079	-2.0812	-2.3563	-2.6729	-2.3292	-2.3583	-2.7167	-2.5042	-2.6688	-2.5062	-2.4271	-2.6271	-2.5875	-2.5292	-2.6875	-2.4062	-2.5667	-25.487	80.367	-69.232	-67.692	-42.871	190.762	165.211	96.039	-136.915	133.841	-57.870	142.373	182.187	112.981	164.233	128.917	0.00057747	0.0003093	8.6599e-05	589.68	4.8152e-06	1.3571e-05	976.12	170.08	1.4196e-05	7.15e-06	327.32	83.608	39.258	12.42	7.6428e-06	25.59	0.0010527	0.0010651	0.00029473	964	1.1595e-05	1.16e-05	1049.9	208.77	1.16e-05	1.1612e-05	379.37	103.57	64.161	20.579	1.1525e-05	35.616	45.523	-158.815	14.676	-148.660	182.380	0.713	-148.215	-144.743	77.623	73.683	-146.019	-142.941	-142.795	-140.185	187.147	-139.128	-8191	255	
#DATA ENDS
