BOXY.EXE: ISS Imagent and Oximeter Data Acquisition Program Version 0.80
Ascii Record File

#ACQ INFORMATION
2  Detector Channels 
16  External MUX Channels 
1  Auxiliary Channels 
5000  Waveform (CCF) Frequency (Hz)
1  Waveforms Skipped 
30  Waveforms Averaged 
1  Cycles Averaged 
16  Acquisitions per Waveform 
10.0806  Updata Rate (Hz) 

#FILE INFORMATION
TRUE -- External MUX Channel results are PARSED.
FALSE -- AC DC and Phase are NOT grouped.
TRUE -- Companion Program Settings File CREATED.
FALSE -- AC data not excluded
FALSE -- DC data not excluded
FALSE -- Phase data not excluded
FALSE -- Auxillary Chn. data not excluded
Tab delimiters

#CALIBRATION STATE
TRUE -- Waveform Calibration Values APPLIED.


#AUX CALIBRATION VALUES
Val Type	aux-1	

Term	1.0000e+00	
Factor	0.0000e+00	


#WF CALIBRATION VALUES
A = Detector Channel
Val Type	A-AC1	A-AC2	A-AC3	A-AC4	A-AC5	A-AC6	A-AC7	A-AC8	A-AC9	A-AC10	A-AC11	A-AC12	A-AC13	A-AC14	A-AC15	A-AC16	A-DC1	A-DC2	A-DC3	A-DC4	A-DC5	A-DC6	A-DC7	A-DC8	A-DC9	A-DC10	A-DC11	A-DC12	A-DC13	A-DC14	A-DC15	A-DC16	A-Ph1	A-Ph2	A-Ph3	A-Ph4	A-Ph5	A-Ph6	A-Ph7	A-Ph8	A-Ph9	A-Ph10	A-Ph11	A-Ph12	A-Ph13	A-Ph14	A-Ph15	A-Ph16	

Term	0.00000e+00	0.00000e+00	0.00000e+00	0.00000e+00	0.00000e+00	0.00000e+00	0.00000e+00	0.00000e+00	0.00000e+00	0.00000e+00	0.00000e+00	0.00000e+00	0.00000e+00	0.00000e+00	0.00000e+00	0.00000e+00	0.00000e+00	0.00000e+00	0.00000e+00	0.00000e+00	0.00000e+00	0.00000e+00	0.00000e+00	0.00000e+00	0.00000e+00	0.00000e+00	0.00000e+00	0.00000e+00	0.00000e+00	0.00000e+00	0.00000e+00	0.00000e+00	0.00000e+00	0.00000e+00	0.00000e+00	0.00000e+00	0.00000e+00	0.00000e+00	0.00000e+00	0.00000e+00	0.00000e+00	0.00000e+00	0.00000e+00	0.00000e+00	0.00000e+00	0.00000e+00	0.00000e+00	0.00000e+00	
Factor	1.00000e+00	1.00000e+00	1.00000e+00	1.00000e+00	1.00000e+00	1.00000e+00	1.00000e+00	1.00000e+00	1.00000e+00	1.00000e+00	1.00000e+00	1.00000e+00	1.00000e+00	1.00000e+00	1.00000e+00	1.00000e+00	1.00000e+00	1.00000e+00	1.00000e+00	1.00000e+00	1.00000e+00	1.00000e+00	1.00000e+00	1.00000e+00	1.00000e+00	1.00000e+00	1.00000e+00	1.00000e+00	1.00000e+00	1.00000e+00	1.00000e+00	1.00000e+00	X	X	X	X	X	X	X	X	X	X	X	X	X	X	X	X	

B = Detector Channel
Val Type	B-AC1	B-AC2	B-AC3	B-AC4	B-AC5	B-AC6	B-AC7	B-AC8	B-AC9	B-AC10	B-AC11	B-AC12	B-AC13	B-AC14	B-AC15	B-AC16	B-DC1	B-DC2	B-DC3	B-DC4	B-DC5	B-DC6	B-DC7	B-DC8	B-DC9	B-DC10	B-DC11	B-DC12	B-DC13	B-DC14	B-DC15	B-DC16	B-Ph1	B-Ph2	B-Ph3	B-Ph4	B-Ph5	B-Ph6	B-Ph7	B-Ph8	B-Ph9	B-Ph10	B-Ph11	B-Ph12	B-Ph13	B-Ph14	B-Ph15	B-Ph16	

Term	0.00000e+00	0.00000e+00	0.00000e+00	0.00000e+00	0.00000e+00	0.00000e+00	0.00000e+00	0.00000e+00	0.00000e+00	0.00000e+00	0.00000e+00	0.00000e+00	0.00000e+00	0.00000e+00	0.00000e+00	0.00000e+00	0.00000e+00	0.00000e+00	0.00000e+00	0.00000e+00	0.00000e+00	0.00000e+00	0.00000e+00	0.00000e+00	0.00000e+00	0.00000e+00	0.00000e+00	0.00000e+00	0.00000e+00	0.00000e+00	0.00000e+00	0.00000e+00	2.70886e+01	-1.47570e+02	-1.59823e+02	-1.87769e+02	-7.16749e+01	-1.02766e+02	-1.57019e+02	-1.62015e+02	-1.01898e+02	-8.89711e+01	-1.73571e+02	-1.72116e+02	-1.82981e+02	-1.77625e+02	-1.07765e+02	-1.50887e+02	
Factor	4.90076e-05	9.02078e-05	2.72429e-05	5.41330e-01	1.00772e-06	1.22008e-06	1.72070e-01	5.71424e-02	1.21130e-06	1.00603e-06	1.10401e-01	3.27385e-02	3.12637e-02	9.63839e-03	1.14382e-06	1.41262e-02	4.51512e-07	4.55847e-07	1.26572e-07	2.20301e-01	4.97833e-09	4.98109e-09	7.62968e-02	2.65919e-02	4.98129e-09	4.97910e-09	4.73171e-02	1.42145e-02	1.38173e-02	4.35854e-03	4.97014e-09	6.06963e-03	X	X	X	X	X	X	X	X	X	X	X	X	X	X	X	X	



#DISTANCE SETTINGS
A = Detector Channel
A-1	A-2	A-3	A-4	A-5	A-6	A-7	A-8	A-9	A-10	A-11	A-12	A-13	A-14	A-15	A-16	

2.5000e+00	3.0000e+00	2.5000e+00	3.0000e+00	2.0000e+00	3.0000e+00	1.5000e+00	3.0000e+00	3.0000e+00	3.0000e+00	3.0000e+00	3.0000e+00	3.0000e+00	3.0000e+00	1.5000e+00	3.0000e+00	

B = Detector Channel
B-1	B-2	B-3	B-4	B-5	B-6	B-7	B-8	B-9	B-10	B-11	B-12	B-13	B-14	B-15	B-16	

1.0000e+01	1.0000e+01	1.0000e+01	1.4400e+00	1.0000e+01	1.0000e+01	1.5100e+00	1.9400e+00	1.0000e+01	1.0000e+01	1.9900e+00	2.4900e+00	2.4100e+00	2.9000e+00	1.0000e+01	2.9800e+00	




#DATA BEGINS
time	group	step	mark	flag	A-AC1	A-AC2	A-AC3	A-AC4	A-AC5	A-AC6	A-AC7	A-AC8	A-AC9	A-AC10	A-AC11	A-AC12	A-AC13	A-AC14	A-AC15	A-AC16	A-DC1	A-DC2	A-DC3	A-DC4	A-DC5	A-DC6	A-DC7	A-DC8	A-DC9	A-DC10	A-DC11	A-DC12	A-DC13	A-DC14	A-DC15	A-DC16	A-Ph1	A-Ph2	A-Ph3	A-Ph4	A-Ph5	A-Ph6	A-Ph7	A-Ph8	A-Ph9	A-Ph10	A-Ph11	A-Ph12	A-Ph13	A-Ph14	A-Ph15	A-Ph16	B-AC1	B-AC2	B-AC3	B-AC4	B-AC5	B-AC6	B-AC7	B-AC8	B-AC9	B-AC10	B-AC11	B-AC12	B-AC13	B-AC14	B-AC15	B-AC16	B-DC1	B-DC2	B-DC3	B-DC4	B-DC5	B-DC6	B-DC7	B-DC8	B-DC9	B-DC10	B-DC11	B-DC12	B-DC13	B-DC14	B-DC15	B-DC16	B-Ph1	B-Ph2	B-Ph3	B-Ph4	B-Ph5	B-Ph6	B-Ph7	B-Ph8	B-Ph9	B-Ph10	B-Ph11	B-Ph12	B-Ph13	B-Ph14	B-Ph15	B-Ph16	aux-1	digaux	

1158.504	1	1	0	512	0.062126	0.072519	0.070294	0.073422	0.087819	0.21401	0.12692	0.023097	0.023381	0.069738	0.059869	0.13141	0.26005	0.054953	0.07313	0.14834	-2.1229	-2.6104	-2.4333	-2.6875	-2.7167	-2.3083	-2.6188	-2.4646	-2.5458	-2.5792	-2.5771	-2.5229	-2.3354	-2.4958	-2.7313	-2.4083	25.934	166.623	-147.962	28.436	-90.131	37.071	167.204	55.753	70.474	153.973	110.992	-64.291	-63.523	-82.944	101.318	172.360	0.00039787	0.00075538	0.00039013	627.55	1.1771e-05	1.076e-05	1029.1	175.89	6.0534e-06	9.7023e-06	340.04	86.761	41.842	12.625	1.0929e-05	26.675	0.00088405	0.00089266	0.00024765	913.08	9.7026e-06	9.7994e-06	1064.9	204.43	9.7682e-06	9.811e-06	373.35	100.97	61.621	19.218	9.8123e-06	34.192	-12.627	-100.123	-49.431	-147.138	-143.422	81.628	-148.500	-145.163	-146.262	113.549	-145.858	-142.704	-141.986	-140.271	-67.447	-138.906	-8191	255	
1158.575	1	1	0	0	0.23498	0.19826	0.32158	0.15702	0.041622	0.33415	0.2934	0.24979	0.12244	0.10276	0.092855	0.22515	0.11958	0.17024	0.22775	0.092825	-2.2229	-2.5146	-2.2875	-2.6729	-2.4542	-2.4396	-2.8333	-2.6979	-2.4125	-2.6958	-2.4292	-2.5771	-2.5479	-2.4958	-2.7146	-2.5396	-47.003	123.957	35.373	-111.974	40.865	-146.818	58.894	142.357	53.329	79.130	-129.914	153.778	162.831	163.077	-86.851	127.281	0.00084337	0.00039365	4.0768e-05	625.24	7.7633e-06	5.8125e-07	1033.1	176.16	7.4454e-06	6.2265e-06	339.59	87.613	42.013	12.476	1.352e-05	26.68	0.0008937	0.00090314	0.00024995	915.46	9.8287e-06	9.8797e-06	1068.6	205.41	9.8737e-06	9.87e-06	374.43	101.55	61.97	19.184	9.8225e-06	34.273	30.867	34.143	27.220	-148.212	157.668	84.858	-148.583	-144.473	3.345	145.484	-145.595	-142.578	-142.952	-140.042	156.302	-139.115	-8191	255	
1158.672	1	1	0	0	0.056499	0.042036	0.18292	0.32155	0.04972	0.17262	0.215	0.37276	0.10277	0.085054	0.16241	0.19942	0.1327	0.21186	0.14615	0.21072	-2.0542	-2.8312	-2.3229	-2.6688	-2.6771	-2.3521	-2.9062	-2.5	-2.3875	-2.7687	-2.4354	-2.5854	-2.6562	-2.4333	-2.7083	-2.5875	83.821	-112.731	-127.949	-127.556	146.327	98.595	124.032	130.862	150.279	-7.055	90.751	106.431	33.514	-127.978	-162.379	-9.893	0.00068481	0.00078225	0.00010159	630.05	4.7785e-06	1.517e-05	1035.6	176.9	7.3603e-06	3.0702e-06	341.45	88.022	42.602	12.48	2.9084e-06	26.478	0.00089805	0.00090001	0.00025104	917.91	9.8368e-06	9.8446e-06	1067	206.12	9.8623e-06	9.8376e-06	374.41	101.66	62.25	19.221	9.7382e-06	34.084	9.920	134.884	196.783	-147.816	41.971	54.212	-148.430	-144.678	-5.977	-109.865	-145.768	-142.394	-143.410	-140.298	-122.664	-138.970	-8191	255	
1158.792	1	1	0	0	0.069092	0.22657	0.22385	0.21276	0.21146	0.059387	0.22359	0.15522	0.11602	0.11024	0.1762	0.16721	0.25696	0.19427	0.12204	0.33964	-1.9167	-2.7146	-2.4188	-2.5083	-2.6583	-2.2687	-2.7979	-2.6125	-2.3542	-2.7479	-2.4229	-2.5479	-2.6125	-2.5208	-2.8146	-2.5271	59.207	-42.261	-21.158	-12.341	-51.649	-40.734	108.141	115.616	-34.070	132.966	-3.870	196.613	-63.607	-129.993	15.561	137.239	0.0011073	0.00017034	0.00010504	631.01	2.2821e-06	1.3675e-05	1029.9	175.71	5.8024e-06	4.0208e-06	340.83	86.54	42.356	12.592	4.6267e-06	26.957	0.00089627	0.000897	0.00024799	917.11	9.7933e-06	9.8183e-06	1066.5	205.19	9.773e-06	9.7992e-06	372.76	101.08	61.958	19.155	9.7266e-06	34.215	-1.797	-157.775	-71.710	-147.978	-122.390	-53.390	-148.598	-144.624	-136.252	171.675	-145.589	-142.519	-142.906	-139.961	178.785	-138.302	-8191	255	
1158.888	1	1	0	0	0.30351	0.23151	0.068217	0.13079	0.40868	0.10337	0.20844	0.10447	0.41531	0.068664	0.10926	0.086435	0.22186	0.17105	0.21085	0.089012	-1.95	-2.4896	-2.2333	-2.575	-2.75	-2.3604	-2.8083	-2.8146	-2.2146	-2.7771	-2.6958	-2.4729	-2.5812	-2.4146	-2.6521	-2.8083	-8.188	-139.056	-92.717	67.683	-7.507	196.582	97.828	117.227	-32.871	101.037	178.320	-135.376	129.176	-59.695	-106.993	144.739	0.00036101	0.00069129	0.00020573	626.92	4.8686e-06	2.3271e-06	1032.7	177.93	6.4093e-06	8.9185e-06	340.38	87.235	41.745	12.559	3.612e-06	26.921	0.00088909	0.00089099	0.00024703	914.42	9.7614e-06	9.7361e-06	1064.7	205.91	9.7023e-06	9.6659e-06	372.4	101.24	61.618	19.101	9.6388e-06	34.291	-15.148	-96.322	33.563	-147.144	168.393	177.016	-148.231	-144.721	-87.228	16.775	-145.977	-142.748	-142.909	-139.967	172.722	-138.646	-8191	255	
1158.983	1	1	0	0	0.16549	0.027098	0.059516	0.069971	0.18527	0.10769	0.33792	0.10356	0.0913	0.097404	0.23016	0.21034	0.17054	0.32413	0.22182	0.28058	-1.8667	-2.7104	-2.4854	-2.4146	-2.6354	-2.3708	-2.8083	-2.6271	-2.3187	-2.65	-2.3167	-2.4083	-2.7854	-2.3583	-2.6583	-2.7104	-89.369	162.504	-93.564	-56.144	146.725	-151.371	127.635	-151.796	50.714	32.626	138.520	195.240	-108.463	175.006	7.430	44.499	0.00076202	0.00050673	0.00021909	626.29	2.3598e-05	1.0266e-05	1034.5	176.36	9.0281e-06	2.764e-06	339.7	87.382	41.984	12.521	4.4188e-06	26.527	0.00088376	0.00088394	0.00024593	912	9.6818e-06	9.6527e-06	1066	205.45	9.758e-06	9.6449e-06	373.56	101.33	61.652	19.131	9.6783e-06	34.187	-0.021	73.213	-31.362	-147.152	-51.636	21.662	-148.273	-144.891	-77.564	-54.048	-145.910	-142.576	-142.706	-139.663	-160.877	-138.657	-8191	255	
1159.081	1	1	0	0	0.049063	0.21996	0.065016	0.14923	0.27669	0.086647	0.28255	0.26645	0.17372	0.10723	0.24133	0.058583	0.25712	0.17644	0.055806	0.11991	-1.7	-2.4833	-2.5104	-2.4833	-2.6708	-2.3854	-2.6167	-2.7313	-2.3312	-2.7083	-2.5771	-2.3646	-2.8021	-2.5792	-2.6021	-2.7	-124.078	-123.588	-23.185	80.143	105.327	180.394	93.800	133.487	-112.836	-73.756	187.369	47.582	131.941	56.932	72.058	-67.518	0.00051227	0.0002623	0.00031028	629.77	1.1855e-05	8.4986e-06	1028.4	175.38	5.3994e-06	1.1458e-05	338.36	87.405	42.205	12.567	6.2952e-06	26.645	0.00088167	0.00088194	0.00024595	913.5	9.6562e-06	9.6419e-06	1063.5	204.77	9.6443e-06	9.6634e-06	372.05	101.13	61.501	19.139	9.6829e-06	34.173	21.648	-120.843	-89.993	-147.711	-137.768	3.052	-148.338	-144.658	-94.426	-138.464	-146.525	-142.721	-142.666	-139.580	-73.394	-138.613	-8191	255	
1159.175	1	1	0	0	0.042103	0.053765	0.05044	0.149	0.15546	0.17691	0.16378	0.072285	0.053831	0.091967	0.21944	0.44371	0.17106	0.13162	0.058986	0.1708	-1.9688	-2.6208	-2.4896	-2.3542	-2.7396	-2.3438	-2.4979	-2.6875	-2.2771	-2.6063	-2.8563	-2.3271	-2.7354	-2.4292	-2.3417	-2.8646	108.216	82.531	-122.249	161.732	95.183	-74.600	168.426	-159.397	-157.048	30.322	60.766	150.647	178.384	120.602	151.821	172.023	0.00043044	0.0008236	0.00024731	637.13	9.2461e-06	1.0906e-05	1035.5	177.07	9.5388e-06	9.424e-07	338.77	88.55	42.538	12.537	6.9151e-06	26.747	0.00088265	0.00088738	0.00024654	913.9	9.6854e-06	9.6748e-06	1066.1	205.25	9.6366e-06	9.6646e-06	372.59	101.51	61.68	19.189	9.7089e-06	34.257	-21.023	-82.886	61.705	-148.322	-49.470	174.455	-148.460	-145.186	138.984	158.981	-146.521	-142.200	-142.289	-139.647	-10.884	-139.248	-8191	255	
1159.271	1	1	0	0	0.080619	0.10549	0.16264	0.061097	0.20072	0.16413	0.20841	0.30553	0.12473	0.18146	0.16495	0.26477	0.22991	0.14452	0.20713	0.11355	-1.7437	-2.5167	-2.5125	-2.4083	-2.8229	-2.6167	-2.5354	-2.5938	-2.3604	-2.6688	-2.7542	-2.425	-2.6083	-2.5833	-2.2979	-2.7938	13.486	-91.429	40.763	124.846	70.620	-1.699	108.461	85.275	-157.321	6.894	108.596	59.142	-157.915	153.549	184.426	116.187	0.00041668	0.00066649	0.00021263	640.3	1.0103e-05	1.017e-05	1030.4	175.56	2.9763e-06	3.5387e-06	343.13	87.882	42.316	12.709	7.5587e-06	27.528	0.00088013	0.00088547	0.00024753	914.54	9.6825e-06	9.6711e-06	1066.5	204.91	9.6699e-06	9.7109e-06	374.29	101.54	61.544	19.282	9.6845e-06	34.493	3.382	83.823	-116.865	-148.444	-102.504	36.857	-148.154	-144.537	47.330	-97.615	-145.833	-142.509	-143.550	-140.643	-27.006	-138.959	-8191	255	
1159.392	1	1	0	0	0.38861	0.10464	0.18453	0.019303	0.092425	0.0083026	0.24729	0.053549	0.068368	0.18254	0.096269	0.25288	0.11204	0.039587	0.1089	0.089555	-2	-2.4146	-2.7375	-2.2292	-2.6708	-2.7833	-2.5438	-2.6729	-2.5604	-2.5083	-2.6542	-2.425	-2.6604	-2.5354	-2.3438	-2.6875	-56.218	-49.597	-28.550	120.404	67.422	1.788	141.440	106.024	152.636	12.678	106.113	165.880	196.766	157.085	-138.386	7.490	0.00071766	0.00050238	0.00020107	634.75	9.1357e-06	1.338e-05	1039.1	174.97	2.441e-06	6.2622e-06	340.43	88.282	42.591	12.826	5.3283e-06	26.958	0.00087669	0.00088605	0.00024658	912.45	9.589e-06	9.6693e-06	1069.7	205.44	9.617e-06	9.6702e-06	373.65	101.51	61.764	19.281	9.6189e-06	34.226	-14.244	104.297	111.346	-147.995	-137.695	-147.855	-148.469	-145.044	-69.941	23.559	-145.539	-142.576	-143.402	-140.143	33.438	-138.792	-8191	255	
1159.488	1	1	0	0	0.18235	0.10852	0.069336	0.1905	0.084326	0.1863	0.14943	0.10575	0.1194	0.21627	0.15161	0.18233	0.20141	0.27364	0.18281	0.18173	-1.8563	-2.4792	-2.8521	-2.3167	-2.575	-2.6312	-2.525	-2.725	-2.5292	-2.3771	-2.7354	-2.4458	-2.6375	-2.5729	-2.4188	-2.6604	93.528	-6.810	121.309	1.713	-81.676	7.581	196.059	-156.880	-161.408	90.025	148.351	187.370	46.121	176.469	127.833	-140.408	0.00051949	0.00029332	0.00018264	640.73	5.5706e-06	1.1944e-05	1032.5	177.73	9.8043e-06	1.1698e-05	342.65	88.633	42.136	12.459	9.9543e-06	26.887	0.00087531	0.0008837	0.00024507	911.36	9.6068e-06	9.6583e-06	1066.2	205.23	9.6034e-06	9.6504e-06	374.34	101.55	61.664	19.192	9.6357e-06	34.197	-14.010	180.701	-46.706	-147.611	-93.491	-54.755	-148.423	-145.301	178.524	137.941	-145.716	-142.570	-142.715	-139.612	-115.250	-139.169	-8191	255	
1159.584	1	1	0	0	0.087049	0.1399	0.32433	0.2871	0.10364	0.070213	0.2082	0.16659	0.18116	0.2797	0.058543	0.40582	0.19213	0.041476	0.15434	0.095442	-2.2188	-2.4188	-2.7479	-2.4292	-2.5292	-2.5208	-2.5375	-2.675	-2.5708	-2.5042	-2.8063	-2.3812	-2.5333	-2.6958	-2.4625	-2.6667	-48.396	48.525	-49.403	140.006	-131.862	-22.568	126.645	-160.422	33.944	-100.505	105.683	142.211	54.039	155.361	-127.625	149.913	0.00070715	0.00044344	0.00014847	633.38	8.327e-06	2.6919e-05	1033.7	178.63	1.0112e-05	7.7165e-06	340.81	88.217	42.519	12.624	2.3383e-06	27.153	0.00088219	0.00088823	0.00024622	910.86	9.6749e-06	9.6911e-06	1068.5	205.99	9.6491e-06	9.7552e-06	373.92	101.55	61.925	19.167	9.6463e-06	34.279	66.678	107.019	7.244	-148.085	-135.331	152.038	-148.275	-144.793	57.218	-62.085	-145.754	-142.212	-142.687	-139.829	-112.239	-138.989	-8191	255	
1159.680	1	1	0	0	0.041412	0.29396	0.066567	0.13823	0.1559	0.098458	0.19165	0.18506	0.073396	0.1936	0.12388	0.19308	0.10053	0.19781	0.034897	0.15888	-2.1021	-2.3812	-2.8542	-2.35	-2.5	-2.7771	-2.3479	-2.6063	-2.6042	-2.4479	-2.7521	-2.5354	-2.5375	-2.5604	-2.5542	-2.6937	-106.319	-40.146	-6.002	-9.929	-58.808	166.954	192.946	167.092	112.960	83.949	186.914	-143.074	196.942	-77.868	176.257	194.008	0.00038998	0.00099207	0.00011861	633.93	7.2384e-06	6.0645e-06	1033	177.88	1.2414e-06	5.74e-06	341.9	87.96	42.249	12.585	1.5774e-05	26.817	0.00088529	0.00089182	0.000247	912.61	9.6778e-06	9.7099e-06	1066.4	205.51	9.7071e-06	9.7222e-06	373.8	101.61	61.909	19.157	9.6652e-06	34.136	41.396	-83.930	166.117	-147.981	-127.663	97.995	-148.406	-144.846	-157.843	-131.265	-146.208	-142.275	-142.700	-140.245	-71.011	-138.966	-8191	255	
1159.801	1	1	0	0	0.12724	0.12011	0.24394	0.35601	0.23577	0.15179	0.057195	0.21853	0.12448	0.1162	0.11694	0.084711	0.4201	0.26637	0.27092	0.12211	-1.9979	-2.2792	-2.6354	-2.6583	-2.5333	-2.6667	-2.4813	-2.4833	-2.575	-2.2979	-2.8083	-2.5396	-2.3708	-2.6521	-2.4813	-2.5354	133.480	44.222	-63.439	154.802	-9.060	-89.951	-134.444	145.006	14.793	-64.912	-90.515	-158.882	195.459	124.841	-98.530	130.336	0.00068599	0.00119	0.0002015	629.52	1.9574e-06	6.5659e-06	1035.9	176.8	1.207e-05	1.2642e-05	341.68	87.821	42.272	12.568	7.9873e-06	26.793	0.00088378	0.00088865	0.00024462	911.52	9.6773e-06	9.6757e-06	1066.9	206.05	9.7081e-06	9.6911e-06	373.6	101.41	62.119	19.073	9.6581e-06	34.214	21.679	-112.599	-33.351	-147.983	-56.564	18.944	-148.477	-144.912	-152.541	108.335	-146.035	-142.229	-143.226	-140.059	-127.137	-138.930	-8191	255	
1159.873	1	1	0	0	0.065174	0.20945	0.15041	0.13164	0.049631	0.1671	0.28853	0.049814	0.14666	0.16825	0.28288	0.12773	0.16483	0.056033	0.27613	0.0010632	-2.1792	-2.3042	-2.6167	-2.5583	-2.4833	-2.5687	-2.4313	-2.5104	-2.5396	-2.1042	-2.7292	-2.55	-2.2875	-2.5729	-2.4292	-2.5792	-145.722	-120.627	34.663	176.875	-118.179	108.582	-96.354	82.136	115.629	127.607	110.945	96.617	21.477	11.594	-80.267	180.000	0.00010353	0.00097047	0.00017381	635.2	2.3007e-06	8.077e-07	1040.6	176.65	6.1744e-06	2.1816e-06	344.48	88.839	42.726	12.472	5.3435e-06	26.681	0.00088343	0.00088522	0.00024547	913.81	9.6893e-06	9.6864e-06	1070.1	206.13	9.7079e-06	9.6942e-06	374.71	101.7	62.037	19.116	9.6178e-06	34.305	43.456	-61.978	89.109	-147.933	-95.955	-96.256	-148.373	-145.308	75.054	10.795	-145.651	-142.365	-142.711	-139.713	26.774	-138.546	-8191	255	
1159.967	1	1	0	0	0.15019	0.14979	0.054017	0.085405	0.23206	0.17897	0.27828	0.085856	0.19947	0.15647	0.13373	0.097081	0.018866	0.11316	0.16425	0.12624	-2.2062	-2.125	-2.6104	-2.6729	-2.3875	-2.7042	-2.4604	-2.6042	-2.5604	-2.3312	-2.6437	-2.8083	-2.3583	-2.6021	-2.2646	-2.4396	160.502	80.460	-66.230	-146.851	-61.500	-127.600	148.099	177.335	154.676	-91.628	-51.065	-53.638	-101.260	14.774	-49.065	102.196	0.00039593	0.0011793	0.00016145	635.06	5.0271e-06	7.1498e-06	1038.3	177.12	8.2455e-06	7.772e-06	343.02	88.227	42.714	12.444	2.9739e-06	27.257	0.00088202	0.00088169	0.00024513	914.12	9.7428e-06	9.6388e-06	1067.6	205.55	9.6866e-06	9.6291e-06	373.81	101.72	61.896	19.05	9.5909e-06	34.305	-49.811	101.300	5.897	-147.665	138.248	113.720	-148.514	-145.047	139.644	117.222	-146.422	-142.503	-142.496	-140.294	-32.045	-139.216	-8191	255	
1160.063	1	1	0	0	0.17176	0.17907	0.11751	0.095303	0.35972	0.081056	0.17084	0.055461	0.18303	0.16	0.057897	0.204	0.098724	0.09505	0.052157	0.1624	-2.2708	-2.4292	-2.5833	-2.7313	-2.2896	-2.5875	-2.5875	-2.4208	-2.9271	-2.4167	-2.5542	-2.5479	-2.2958	-2.5208	-2.3708	-2.3875	21.456	-145.582	-135.503	-157.673	-121.030	159.426	94.048	-162.500	28.027	73.900	22.923	159.210	-62.453	106.889	172.662	-8.542	0.00050245	0.00071413	7.9809e-05	635.04	2.2408e-06	9.3418e-06	1035.4	177.2	1.5567e-05	6.6845e-06	340.01	87.273	42.425	12.493	9.1619e-06	26.75	0.00088082	0.00088192	0.00024508	912.92	9.637e-06	9.6351e-06	1066.9	206.01	9.6241e-06	9.6073e-06	372.36	101.1	61.692	18.977	9.5928e-06	34.032	-40.140	106.117	-76.538	-148.026	-123.927	-41.717	-148.362	-144.702	185.874	-34.284	-145.989	-142.739	-143.169	-140.257	48.491	-139.212	-8191	255	
1160.184	1	1	0	0	0.10199	0.073183	0.23549	0.2944	0.38516	0.010976	0.10804	0.26593	0.13078	0.13139	0.099538	0.086531	0.24799	0.26526	0.10279	0.13622	-2.3688	-2.3854	-2.5229	-2.4938	-2.2625	-2.6375	-2.8104	-2.3063	-2.7562	-2.1354	-2.5333	-2.5917	-2.3187	-2.5021	-2.6083	-2.4896	196.096	-6.701	-82.911	170.748	-28.377	-60.783	77.893	-147.694	-88.637	-29.752	-131.864	102.177	-24.827	19.406	-47.143	110.117	0.00045975	0.00060274	0.00015502	628.48	5.6141e-06	6.3525e-06	1029.7	176.96	5.7929e-06	1.6972e-05	340.06	87.285	42.187	12.595	5.7466e-06	26.909	0.00087705	0.00087832	0.00024492	910.61	9.6333e-06	9.6069e-06	1064.1	205.71	9.6266e-06	9.5889e-06	373.29	100.9	61.391	18.988	9.5818e-06	34.047	29.190	-130.826	12.715	-147.952	-56.566	113.647	-148.418	-144.929	-158.386	-150.922	-145.918	-142.253	-142.806	-139.866	-68.072	-138.215	-8191	255	
1160.280	1	1	0	0	0.14324	0.12342	0.13909	0.086638	0.22353	0.25611	0.3899	0.21603	0.23136	0.11485	0.20351	0.19035	0.087258	0.024301	0.20866	0.17244	-2.3958	-2.475	-2.4813	-2.7479	-2.225	-2.675	-2.8333	-2.2854	-2.5187	-2.4333	-2.525	-2.7167	-2.5438	-2.5417	-2.6896	-2.3354	74.204	194.576	-74.507	-42.601	-80.932	-92.946	-143.725	73.021	-123.392	92.417	-138.759	5.868	-3.920	-11.856	70.560	152.943	0.00045177	0.00090341	0.00022251	629.25	3.6403e-06	4.7079e-06	1040	178.43	1.1919e-05	3.4606e-06	342.78	88.287	42.188	12.637	1.1238e-05	26.896	0.00087408	0.0008782	0.00024599	910.73	9.6083e-06	9.5912e-06	1067.8	206.41	9.6009e-06	9.5958e-06	374.18	101.39	61.643	19.066	9.6054e-06	34.084	11.057	193.416	-54.945	-148.242	13.918	35.006	-148.362	-144.812	-74.153	163.434	-145.858	-142.765	-142.991	-140.089	-19.171	-138.674	-8191	255	
1160.376	1	1	0	0	0.22163	0.10901	0.12373	0.19995	0.30777	0.077414	0.10079	0.16403	0.16644	0.12331	0.25861	0.28325	0.29326	0.1054	0.12551	0.084009	-2.425	-2.7229	-2.3104	-2.6625	-2.4333	-2.8063	-2.6479	-2.5167	-2.6458	-2.6708	-2.4604	-2.5729	-2.5271	-2.3229	-2.7479	-2.4125	19.051	-59.116	54.374	187.892	-24.827	155.969	-7.559	130.056	108.484	18.117	90.528	15.454	193.910	-100.761	168.497	-154.874	0.00067182	0.0015655	9.2091e-05	643.77	4.8194e-06	5.16e-06	1037.3	178.81	1.9195e-05	6.4247e-06	340	88.355	43.052	12.616	1.2152e-05	26.585	0.00087162	0.0008779	0.00024541	911.68	9.5888e-06	9.6143e-06	1068.2	206.31	9.5727e-06	9.6322e-06	373.41	101.43	61.885	19.037	9.6432e-06	33.95	-35.742	-119.162	-137.168	-147.703	31.902	15.041	-148.483	-145.094	-15.248	105.139	-146.116	-142.591	-143.764	-139.536	-123.085	-138.780	-8191	255	
1160.472	1	1	0	0	0.063904	0.14056	0.16469	0.054555	0.10271	0.15477	0.232	0.13507	0.35503	0.13955	0.11221	0.10937	0.16041	0.25454	0.071026	0.11578	-2.2583	-2.3583	-2.2146	-2.6021	-2.3875	-2.6354	-2.9667	-2.5479	-2.6958	-2.6792	-2.3771	-2.6437	-2.45	-2.4229	-2.6437	-2.4917	132.601	127.300	-139.276	143.957	-158.184	42.521	90.103	-1.654	-134.724	-24.327	80.104	100.038	-39.631	154.925	-28.656	-140.711	0.00095362	0.0010212	0.0001194	628.02	1.1816e-05	1.0517e-05	1034.7	178.62	3.9035e-06	9.1317e-06	339.87	87.669	42.377	12.449	6.7362e-06	26.786	0.00087416	0.00088144	0.00024531	911.23	9.6401e-06	9.645e-06	1067.1	205.98	9.587e-06	9.6483e-06	373.18	101.34	61.84	19.062	9.6277e-06	34.008	6.472	-84.345	-19.096	-148.311	-78.996	-21.827	-148.445	-144.852	61.648	-79.224	-145.736	-142.580	-143.012	-139.866	123.321	-138.934	-8191	255	
1160.568	1	1	0	0	0.22323	0.10658	0.061452	0.17666	0.25117	0.12879	0.13369	0.2834	0.30696	0.29474	0.18833	0.084429	0.064205	0.2084	0.15575	0.25547	-2.0333	-2.6521	-2.25	-2.7208	-2.3958	-2.4417	-2.7479	-2.3563	-2.4375	-2.5125	-2.3833	-2.6312	-2.3771	-2.3333	-2.6792	-2.4021	-64.834	6.954	8.795	97.766	159.860	0.860	180.696	169.151	178.434	118.550	87.000	129.154	55.963	-3.807	-9.777	162.086	0.00042524	0.00054487	0.00027513	643.42	9.9448e-07	4.7804e-06	1031.4	176.73	4.0512e-06	3.6026e-06	340.59	87.399	42.365	12.662	4.3356e-06	26.745	0.00087287	0.00088205	0.00024542	912.15	9.6312e-06	9.6752e-06	1064.7	205.63	9.6184e-06	9.6399e-06	372.88	101.03	61.561	19.151	9.6445e-06	34.1	2.020	-8.121	-28.819	-147.978	102.388	188.574	-148.356	-144.556	-125.217	-91.548	-145.791	-142.835	-143.183	-138.726	-105.835	-138.819	-8191	255	
1160.664	1	1	0	0	0.17533	0.13527	0.16151	0.11967	0.1325	0.20087	0.25577	0.10841	0.19261	0.28669	0.21622	0.071054	0.023041	0.15493	0.059781	0.13411	-2.0708	-2.5938	-2.2729	-2.6104	-2.5417	-2.3896	-2.7104	-2.4	-2.5667	-2.45	-2.4125	-2.6167	-2.6417	-2.3937	-2.7313	-2.5042	-160.066	3.615	144.848	-145.063	63.801	-21.703	107.048	-10.799	-32.282	-124.469	-47.187	32.262	-42.237	108.799	-91.254	92.843	0.00068117	0.0009516	0.00027571	638.65	7.0702e-06	1.5692e-05	1032.1	178.11	2.657e-06	5.437e-06	340.87	87.58	42.323	12.225	1.0529e-05	26.339	0.00087429	0.00088886	0.00024586	911.97	9.6935e-06	9.6611e-06	1065	205.12	9.631e-06	9.668e-06	372.89	101.24	61.685	18.93	9.6326e-06	33.819	10.803	-136.416	-138.723	-147.687	-12.182	-129.627	-148.362	-145.534	-47.964	-30.635	-146.181	-142.676	-143.104	-139.971	13.930	-138.820	-8191	255	
1160.761	1	1	0	0	0.18155	0.16397	0.16355	0.13201	0.13285	0.11029	0.18752	0.19481	0.020679	0.049651	0.20426	0.16329	0.084318	0.26379	0.1098	0.17795	-1.8479	-2.5854	-2.3333	-2.4688	-2.5896	-2.2875	-2.8479	-2.5167	-2.4979	-2.5354	-2.4646	-2.5583	-2.45	-2.3542	-2.5917	-2.6021	96.717	-159.636	66.661	149.093	130.235	25.827	-27.897	49.972	60.236	107.033	128.977	152.900	118.291	51.277	41.664	-5.182	0.00065528	0.00097702	6.2044e-05	624.77	4.1088e-06	1.3857e-05	1031.9	175.98	6.4926e-06	8.5553e-06	341.56	87.397	42.263	12.318	7.0075e-06	26.638	0.00088257	0.00088613	0.00024586	909.97	9.7098e-06	9.6575e-06	1063.6	204.79	9.6769e-06	9.6572e-06	372.73	100.56	61.837	18.865	9.6372e-06	33.834	-2.554	-43.258	69.658	-147.613	137.208	-150.051	-148.384	-145.019	-45.591	31.224	-146.328	-142.604	-142.575	-139.945	163.636	-138.370	-8191	255	
1160.881	1	1	0	0	0.29384	0.20126	0.10873	0.26794	0.091029	0.10571	0.22333	0.052483	0.12111	0.34809	0.09738	0.15473	0.23857	0.36019	0.061701	0.19493	-1.8771	-2.6271	-2.4562	-2.6625	-2.7062	-2.1833	-2.7229	-2.5417	-2.4125	-2.7354	-2.5875	-2.6125	-2.6792	-2.3333	-2.5229	-2.7146	109.949	-15.334	79.578	135.812	-14.695	176.813	111.846	31.637	40.655	-55.377	60.321	-93.122	-48.139	138.179	-53.121	27.749	0.00048186	0.0014254	0.00026553	624.12	1.9502e-06	7.0509e-06	1036.5	176.73	7.0989e-06	8.866e-06	339.72	87.613	41.953	12.358	9.4496e-06	26.421	0.00088569	0.00089128	0.00024558	913.27	9.7195e-06	9.7628e-06	1063.7	205.42	9.7506e-06	9.6844e-06	373.49	101.3	61.799	19.03	9.6631e-06	33.95	-58.556	-158.582	38.610	-147.122	-78.997	-24.008	-148.141	-144.897	-116.546	126.575	-145.834	-142.434	-143.283	-139.878	-150.970	-138.650	-8191	255	
1160.976	1	1	0	0	0.20505	0.19637	0.075938	0.047514	0.16715	0.21428	0.26579	0.20143	0.045571	0.18379	0.10799	0.20001	0.29887	0.099277	0.099503	0.030607	-2.1958	-2.475	-2.3292	-2.4688	-2.65	-2.3854	-2.7667	-2.3937	-2.4562	-2.5083	-2.4458	-2.4313	-2.6083	-2.2771	-2.6104	-2.5333	133.768	-113.374	-70.470	-155.622	109.814	90.105	192.991	152.555	67.871	162.260	194.444	-71.314	87.614	142.877	106.842	43.478	0.00078547	0.0001924	0.00041351	629.45	6.9689e-06	1.006e-05	1029.6	176.99	5.9125e-06	1.1132e-05	341.26	87.855	42.5	12.202	4.2471e-06	26.687	0.00088764	0.00089255	0.00024639	916.71	9.747e-06	9.7102e-06	1065.8	206.3	9.7328e-06	9.6943e-06	373.63	101.27	61.816	18.952	9.6662e-06	33.983	10.383	90.492	-108.678	-148.074	-128.130	85.038	-148.307	-144.860	-133.727	154.073	-146.150	-142.628	-142.471	-140.021	-35.074	-138.360	-8191	255	
1161.072	1	1	0	0	0.045995	0.12117	0.23419	0.12423	0.16038	0.14033	0.096269	0.18243	0.14024	0.035715	0.12249	0.33796	0.18221	0.12252	0.17124	0.056758	-1.825	-2.6271	-2.3812	-2.3688	-2.5938	-2.4458	-2.5625	-2.5604	-2.1437	-2.7833	-2.5375	-2.6104	-2.5917	-2.375	-2.5083	-2.6458	132.843	196.163	13.044	124.688	-96.188	-101.666	-21.786	-142.385	-116.041	7.325	50.321	152.954	145.337	-116.581	151.926	-89.766	0.00045599	0.0012178	0.0001646	632.31	9.509e-06	9.1747e-06	1031.9	176.42	8.5772e-06	6.9474e-06	338.45	87.048	42.044	12.194	1.1485e-05	26.356	0.00088698	0.00088834	0.00024584	913.08	9.7264e-06	9.6642e-06	1065	205.1	9.677e-06	9.6735e-06	371.78	101.07	61.706	18.853	9.7036e-06	33.814	64.204	178.222	-0.473	-147.379	-52.856	-17.290	-148.247	-144.794	185.908	-128.386	-146.037	-142.508	-142.561	-139.532	-160.938	-138.950	-8191	255	
1161.168	1	1	0	0	0.05578	0.10533	0.18799	0.25412	0.18774	0.25418	0.20421	0.11778	0.091109	0.19618	0.18654	0.23746	0.09713	0.26405	0.21224	0.15515	-1.9688	-2.6063	-2.5021	-2.5604	-2.5958	-2.3812	-2.4688	-2.5125	-2.3208	-2.6083	-2.4875	-2.5646	-2.5625	-2.4375	-2.5687	-2.5229	-51.615	-3.262	-30.672	115.749	-93.323	127.124	124.973	83.680	14.077	140.766	-155.848	194.069	17.707	-82.913	8.146	59.765	0.00063582	0.00076047	0.0003348	636.54	9.6817e-06	4.6041e-06	1032.6	177.21	3.438e-06	6.6181e-06	338.52	87.657	42.51	12.191	7.2417e-06	26.16	0.00088634	0.00088432	0.00024687	914.59	9.7118e-06	9.6795e-06	1065.8	205.94	9.6832e-06	9.6869e-06	372.91	101.08	61.704	18.89	9.6805e-06	33.877	-11.345	-57.727	136.314	-148.138	-73.876	10.288	-148.455	-145.066	-98.470	103.174	-145.959	-142.513	-142.405	-139.786	-82.086	-138.937	-8191	255	
1161.264	1	1	0	0	0.24065	0.17516	0.15785	0.066481	0.16096	0.071747	0.1734	0.088869	0.087383	0.16153	0.096975	0.15072	0.21741	0.091871	0.19544	0.31069	-1.975	-2.5729	-2.5021	-2.1542	-2.6646	-2.3104	-2.5792	-2.7687	-2.3208	-2.6021	-2.6437	-2.4729	-2.6042	-2.2896	-2.4521	-2.8	-14.914	103.163	24.637	163.642	51.018	46.625	104.196	129.259	-52.471	-23.836	50.869	174.909	-57.261	160.825	172.197	-18.964	0.00047393	0.00032088	0.0002729	632.65	5.5964e-06	1.4979e-05	1040.2	177.91	1.2667e-05	1.8668e-06	343.63	88.017	42.122	12.311	8.9733e-06	26.437	0.00087848	0.00088359	0.00024558	912.62	9.6591e-06	9.6593e-06	1067.3	205.93	9.6629e-06	9.6333e-06	373.48	101.22	61.572	18.88	9.6737e-06	33.907	-57.938	-49.595	164.643	-148.188	-106.194	172.110	-148.310	-144.613	-146.011	185.803	-145.905	-142.530	-143.293	-140.091	94.595	-138.791	-8191	255	
1161.360	1	1	0	0	0.22225	0.10427	0.16642	0.23713	0.25063	0.18803	0.10226	0.20153	0.16252	0.055762	0.27845	0.23482	0.11136	0.19714	0.16873	0.1692	-1.8875	-2.6167	-2.3604	-2.2229	-2.7021	-2.5667	-2.5667	-2.7604	-2.4896	-2.5771	-2.7188	-2.3604	-2.5958	-2.3333	-2.2021	-2.7854	192.884	144.643	137.467	16.836	110.822	69.094	81.669	-13.691	-8.650	-98.305	124.643	146.557	-121.995	-103.090	138.843	-14.075	0.00090128	0.00092951	0.0003383	637.09	2.1512e-06	1.094e-05	1032.8	178.97	1.0172e-05	8.3754e-06	341.78	87.569	42.419	12.48	9.5373e-06	26.333	0.00087594	0.00088404	0.00024679	914.48	9.6351e-06	9.6676e-06	1067.1	206.27	9.614e-06	9.6821e-06	374	101.38	61.884	18.921	9.6639e-06	33.84	26.343	39.814	146.803	-148.313	-76.328	0.619	-148.349	-145.038	37.230	153.130	-146.107	-142.932	-143.040	-140.232	154.869	-138.838	-8191	255	
1161.481	1	1	0	0	0.24504	0.097782	0.087917	0.17492	0.20981	0.23305	0.3231	0.33043	0.21378	0.16246	0.18779	0.16368	0.21519	0.10447	0.2709	0.28414	-1.8813	-2.4229	-2.5875	-2.2542	-2.5271	-2.4229	-2.6333	-2.7458	-2.3854	-2.4375	-2.6125	-2.4271	-2.6229	-2.4229	-2.2917	-2.4854	105.400	138.997	24.713	127.809	111.320	97.674	116.616	-116.083	-78.057	182.707	-141.197	144.642	26.427	9.215	169.820	109.424	0.00045381	0.00077133	4.8629e-05	632.38	6.5941e-06	7.9099e-06	1029.2	178.1	3.9238e-06	9.2197e-06	341.95	88.198	42.899	12.542	1.3393e-05	26.721	0.00088133	0.00088606	0.00024577	911.64	9.6559e-06	9.6456e-06	1066.2	205.84	9.6477e-06	9.7052e-06	374.05	101.36	61.935	19.028	9.6989e-06	34.014	-18.545	-39.183	181.543	-147.267	-95.548	-112.721	-148.281	-145.233	-50.889	-58.484	-145.896	-142.587	-142.802	-140.545	-157.118	-138.961	-8191	255	
1161.577	1	1	0	0	0.20347	0.019117	0.047461	0.048571	0.1821	0.22292	0.35651	0.1149	0.07564	0.13116	0.0091536	0.26156	0.1743	0.32177	0.0089237	0.16834	-1.95	-2.3708	-2.5062	-2.3187	-2.4	-2.6667	-2.375	-2.6604	-2.4708	-2.4667	-2.7708	-2.3937	-2.6396	-2.5354	-2.3271	-2.6958	-138.341	41.311	172.664	181.989	-30.662	-147.083	101.316	-97.807	1.997	-128.497	15.934	93.665	-148.370	-12.208	24.364	131.695	0.00021673	0.00057794	0.00016331	641.27	8.9241e-06	2.2439e-05	1035.4	179.18	5.085e-06	1.2692e-05	343.04	87.111	42.734	12.259	4.2346e-06	26.664	0.00088052	0.00089088	0.00024622	914.44	9.6673e-06	9.6894e-06	1068.1	206.92	9.6892e-06	9.7098e-06	374.59	101.12	61.827	19.032	9.7004e-06	34.072	-48.179	-24.920	50.456	-147.897	-36.567	-141.120	-148.602	-144.590	-48.936	-29.613	-146.017	-142.693	-143.313	-139.926	-144.397	-138.466	-8191	255	
1161.673	1	1	0	0	0.17594	0.086021	0.065766	0.10041	0.14853	0.082066	0.3035	0.15462	0.014004	0.077911	0.051385	0.18146	0.16387	0.3154	0.18695	0.1478	-1.9458	-2.2313	-2.6708	-2.4417	-2.5833	-2.6542	-2.4229	-2.6375	-2.5667	-2.3833	-2.8146	-2.4042	-2.5396	-2.5396	-2.3312	-2.6729	169.572	-52.238	0.940	-139.957	116.624	-100.092	146.758	144.949	136.607	33.404	-48.304	121.464	108.680	-154.510	29.793	-90.466	0.00094424	0.00015665	0.00022666	630.55	1.6257e-05	5.8609e-06	1035.8	178.28	1.5052e-05	9.9477e-06	343.39	88.631	42.643	12.584	7.7826e-06	26.841	0.00087729	0.00088809	0.00024554	914.17	9.6767e-06	9.7066e-06	1069.8	206.59	9.6638e-06	9.7139e-06	375.19	101.7	61.957	19.037	9.6544e-06	34.093	-31.350	-12.561	169.936	-147.953	-37.059	0.870	-148.343	-145.083	-134.700	72.484	-145.680	-142.102	-143.269	-140.304	19.707	-138.564	-8191	255	
1161.745	1	1	0	0	0.12164	0.13418	0.11337	0.11985	0.24401	0.1832	0.25754	0.25124	0.027455	0.12381	0.12328	0.035788	0.16401	0.18552	0.06828	0.20628	-1.8979	-2.2438	-2.6667	-2.4813	-2.3667	-2.5729	-2.3708	-2.8667	-2.3896	-2.4417	-2.6688	-2.5187	-2.4667	-2.6958	-2.3542	-2.525	132.280	-157.880	164.648	-38.926	145.389	-124.355	122.589	131.741	-66.504	21.426	143.382	-46.137	155.092	62.149	59.040	113.214	0.00079783	5.2619e-05	0.0002053	636.87	4.4709e-06	4.4962e-06	1040	179.31	1.1573e-05	6.0079e-06	344	88.293	43.133	12.487	5.3718e-06	26.997	0.00087785	0.00088524	0.00024527	913.19	9.6147e-06	9.6941e-06	1069.6	206.64	9.593e-06	9.6726e-06	374.8	101.87	62.06	19.155	9.5646e-06	34.034	6.393	-110.879	-7.122	-148.020	-148.745	-96.827	-148.280	-145.044	179.674	-109.829	-145.885	-142.279	-143.389	-140.144	-113.326	-138.477	-8191	255	
1161.841	1	1	0	0	0.17091	0.17335	0.2739	0.12449	0.22458	0.13695	0.076949	0.2449	0.075813	0.13619	0.14098	0.22511	0.13426	0.1138	0.064958	0.1386	-2.1813	-2.3604	-2.6958	-2.5396	-2.3229	-2.7542	-2.3542	-2.6896	-2.6542	-2.2604	-2.7604	-2.5646	-2.3729	-2.7562	-2.4021	-2.6208	131.609	102.995	168.750	-14.375	-123.868	-162.134	-139.249	110.218	-125.250	-90.585	135.990	77.544	-87.237	188.462	-147.612	34.100	0.00081088	0.0010085	0.00029249	635.7	1.6233e-06	6.4847e-06	1040.6	180.01	9.0999e-06	7.8197e-06	344.31	89.237	42.6	12.532	7.9462e-06	26.841	0.00088121	0.00088571	0.00024478	913.61	9.631e-06	9.6401e-06	1070.3	207.69	9.6075e-06	9.57e-06	375.92	102.48	62.371	19.099	9.5251e-06	34.188	-34.345	-40.966	113.642	-147.536	-82.380	78.806	-148.461	-144.439	16.930	-18.369	-145.679	-142.851	-143.089	-139.604	-45.455	-138.852	-8191	255	
1161.960	1	1	0	0	0.12887	0.20458	0.031877	0.14776	0.14382	0.3267	0.17561	0.12485	0.33308	0.077942	0.056781	0.21487	0.094166	0.20384	0.14238	0.19281	-2.05	-2.1	-2.5458	-2.5625	-2.3396	-2.5729	-2.375	-2.5542	-2.6042	-2.1833	-2.6833	-2.6917	-2.3125	-2.6625	-2.4125	-2.5646	60.893	183.949	61.003	19.927	62.930	-3.873	78.189	132.448	-27.448	163.906	126.026	-155.848	81.843	112.180	-49.203	87.415	0.00049411	0.00016463	0.00025771	633.89	1.3073e-05	1.0491e-05	1037.3	180.29	4.4846e-06	8.8786e-06	343.38	89.133	43.11	12.457	6.1049e-06	27.185	0.00088019	0.00088022	0.0002442	911.88	9.5974e-06	9.59e-06	1070.3	207.4	9.6045e-06	9.5328e-06	375.87	102.25	62.121	18.956	9.527e-06	34.169	-4.556	-79.215	-49.421	-147.726	-72.480	78.165	-148.375	-144.885	149.075	140.851	-145.853	-142.492	-142.749	-140.501	-80.721	-138.402	-8191	255	
1162.056	1	1	0	0	0.0029208	0.21033	0.22706	0.16731	0.12633	0.4377	0.11691	0.15028	0.10132	0.039845	0.45162	0.18499	0.19204	0.1185	0.25464	0.27138	-2.2167	-2.2687	-2.5521	-2.4083	-2.3042	-2.6417	-2.7042	-2.4833	-2.8458	-2.2062	-2.625	-2.3937	-2.2104	-2.4437	-2.2583	-2.3458	-115.247	-12.884	18.655	67.425	-109.173	-125.819	33.108	99.463	41.172	124.328	178.416	-120.905	116.218	71.342	-159.905	-17.883	0.0005905	0.0010501	0.00026853	641.65	3.4982e-06	3.4588e-06	1045.8	179.91	6.5277e-06	7.4146e-06	343.65	88.53	43.067	12.524	3.3716e-06	26.54	0.00087307	0.00087356	0.00024391	913.05	9.6062e-06	9.5507e-06	1070.2	207.16	9.5971e-06	9.5659e-06	374.18	101.65	62.14	18.954	9.5662e-06	33.924	25.796	-72.516	186.995	-148.294	168.352	-107.293	-148.477	-144.614	30.035	110.952	-145.775	-142.774	-143.118	-139.851	-23.854	-139.090	-8191	255	
1162.152	1	1	0	0	0.046787	0.2749	0.020804	0.089843	0.22844	0.12253	0.15352	0.1158	0.14784	0.18226	0.20023	0.13279	0.18449	0.029863	0.049291	0.22387	-2.1021	-2.3688	-2.4854	-2.4729	-2.3521	-2.6729	-2.5875	-2.4458	-2.6708	-2.5417	-2.5292	-2.6125	-2.35	-2.7167	-2.7188	-2.4313	-127.450	-103.422	19.574	110.927	143.448	-0.224	98.157	185.516	124.701	-13.193	170.284	128.084	-104.632	-20.240	43.121	116.729	0.00030855	0.00034985	0.00017916	635.84	1.4668e-05	1.4622e-05	1034.6	178.73	1.0189e-05	2.0866e-06	344.25	88.974	43.043	12.468	7.5973e-06	26.572	0.00087605	0.00087493	0.0002426	911.76	9.6005e-06	9.5838e-06	1068.2	207.14	9.6208e-06	9.5449e-06	375.91	102.12	61.948	18.956	9.5562e-06	33.993	27.498	-131.082	63.690	-148.070	154.517	9.073	-148.286	-144.893	22.200	194.523	-146.407	-142.614	-143.357	-139.611	162.001	-138.912	-8191	255	
1162.273	1	1	0	0	0.14426	0.092279	0.17253	0.23124	0.14969	0.09441	0.13997	0.27359	0.034816	0.097415	0.28255	0.13196	0.23554	0.34721	0.089955	0.28258	-2.1562	-2.4938	-2.3542	-2.5187	-2.2938	-2.4437	-2.7062	-2.4417	-2.6333	-2.4604	-2.4458	-2.6396	-2.2083	-2.4917	-2.5187	-2.3604	100.288	-7.195	28.428	-70.771	28.856	147.078	174.073	112.104	-88.080	-50.752	64.625	31.059	-151.584	168.498	45.324	-161.459	0.00090873	0.00088089	0.00022627	642.47	1.2472e-05	2.8644e-06	1037.4	180.53	1.0494e-05	1.7882e-06	343.73	88.988	43.075	12.516	2.3401e-06	26.779	0.00087341	0.00087252	0.00024183	911.78	9.5124e-06	9.5205e-06	1068.6	207.48	9.5216e-06	9.4818e-06	375.27	101.66	61.581	18.809	9.5008e-06	33.959	-10.316	22.073	82.030	-148.114	-30.513	38.866	-148.512	-144.694	-101.047	-116.534	-146.071	-142.480	-142.436	-139.830	175.728	-138.305	-8191	255	
1162.344	1	1	0	0	0.14884	0.060731	0.051768	0.31621	0.11617	0.032144	0.41714	0.2363	0.11087	0.16381	0.24142	0.12221	0.17327	0.14483	0.24959	0.077659	-2.3312	-2.475	-2.3646	-2.6458	-2.2542	-2.4208	-2.7271	-2.2833	-2.4333	-2.5563	-2.4125	-2.9313	-2.5042	-2.6292	-2.4958	-2.2562	187.432	4.907	153.155	137.974	109.023	63.879	128.133	150.155	-48.871	175.493	-143.663	14.584	111.564	-64.118	-26.566	-60.251	0.00053707	0.00027088	0.00028252	637.01	1.4902e-05	7.447e-06	1037.9	180.77	1.4419e-05	7.8125e-06	341.39	88.462	42.589	12.337	1.2916e-05	26.797	0.00086146	0.00085234	0.00023991	903.81	9.3928e-06	9.4045e-06	1063.4	206.41	9.3348e-06	9.348e-06	372.22	101.15	61.072	18.646	9.3069e-06	33.653	31.893	91.610	167.302	-148.508	123.598	-45.793	-148.511	-144.726	23.818	181.693	-145.729	-142.583	-143.273	-140.194	181.142	-138.847	-8191	255	
1162.441	1	1	0	0	0.26805	0.1557	0.35297	0.17172	0.16627	0.099266	0.134	0.36625	0.19793	0.12529	0.081936	0.19456	0.23581	0.016811	0.1107	0.15975	-2.0479	-2.2917	-2.1771	-2.8021	-2.3917	-2.7333	-2.5833	-2.1458	-2.6417	-2.5104	-2.3271	-2.775	-2.2896	-2.4417	-2.7313	-2.4437	183.876	138.122	14.663	-110.012	25.570	105.230	-158.914	86.037	-6.825	85.017	0.339	117.044	26.880	117.992	-81.904	-141.061	0.00088252	0.00043509	0.00029504	642.21	1.1305e-05	7.1446e-06	1033.6	178.49	1.2748e-06	5.4174e-06	342.05	87.647	42.411	12.534	1.621e-05	27.023	0.00084451	0.00085331	0.00023711	897.68	9.2555e-06	9.2866e-06	1060.7	204.8	9.2295e-06	9.2377e-06	370.14	100.16	60.679	18.606	9.2399e-06	33.671	60.437	50.099	-122.919	-147.764	176.291	-37.748	-148.292	-144.656	163.487	27.186	-146.260	-142.535	-142.338	-139.753	96.163	-138.527	-8191	255	
1162.561	1	1	0	0	0.24418	0.1476	0.059717	0.1762	0.28616	0.14128	0.11793	0.35994	0.2138	0.31375	0.19957	0.046057	0.1372	0.097962	0.086821	0.074259	-2.2271	-2.6542	-2.1688	-2.7917	-2.3958	-2.5187	-2.6646	-2.375	-2.4771	-2.5667	-2.35	-2.5625	-2.4125	-2.5146	-2.6875	-2.5708	19.917	41.508	-118.633	179.962	101.389	64.282	121.074	-120.912	107.199	181.451	174.989	-87.757	-26.591	145.701	-52.132	173.734	0.00029912	0.00016639	0.00017393	636.7	5.4147e-06	7.761e-06	1039.9	181.22	5.5772e-06	1.221e-05	344.3	88.634	42.513	12.434	1.5584e-05	27.192	0.0008372	0.00084339	0.00023461	897.15	9.1682e-06	9.209e-06	1061.3	205.4	9.1301e-06	9.2203e-06	371.88	100.43	60.85	18.672	9.2839e-06	33.694	-19.629	152.358	110.104	-147.440	84.641	154.180	-148.472	-144.874	-42.721	134.888	-146.255	-142.678	-142.848	-139.862	-113.843	-138.536	-8191	255	
1162.657	1	1	0	0	0.1283	0.32938	0.20416	0.089938	0.086203	0.050522	0.21109	0.11426	0.23574	0.29821	0.034489	0.07756	0.22601	0.044529	0.31677	0.22832	-2.0604	-2.5792	-2.4042	-2.7021	-2.5312	-2.2438	-2.7292	-2.3187	-2.6667	-2.7333	-2.4813	-2.5792	-2.3958	-2.45	-2.6396	-2.2854	-34.784	6.531	-108.689	156.622	-67.500	-147.652	122.127	-43.723	-91.974	66.020	56.652	-46.154	101.800	99.879	122.553	147.538	0.00022797	0.0012455	0.00012258	642.16	8.3769e-06	4.5999e-06	1041.4	180.26	1.4929e-05	1.5455e-06	345.82	88.641	43.298	12.582	1.0755e-05	27.003	0.00083591	0.00084561	0.00023565	895.81	9.2088e-06	9.247e-06	1064.2	205.87	9.2053e-06	9.2859e-06	372.49	100.76	60.905	18.77	9.2138e-06	33.802	48.276	-36.639	-126.734	-147.584	15.554	136.178	-148.342	-145.090	-40.157	-118.298	-145.609	-142.758	-143.148	-139.693	-108.711	-138.261	-8191	255	
1162.754	1	1	0	0	0.038207	0.15813	0.19798	0.11775	0.19869	0.10499	0.18012	0.26291	0.15904	0.063175	0.044917	0.17637	0.12866	0.094393	0.28584	0.087261	-2.0292	-2.7271	-2.35	-2.6396	-2.3333	-2.1771	-2.7562	-2.4021	-2.4979	-2.7125	-2.275	-2.5938	-2.4125	-2.4562	-2.5917	-2.5167	-129.801	-32.748	-61.332	-120.366	-60.111	69.877	140.738	165.012	150.577	62.068	-125.197	92.488	89.028	163.953	133.072	194.946	0.00066868	0.00035369	0.00032101	640.75	1.0608e-05	5.7797e-06	1036.4	180.1	6.5918e-06	1.0891e-05	342.47	88.512	43.135	12.56	7.1861e-06	27.104	0.00083707	0.00084658	0.00023409	896.04	9.1997e-06	9.2434e-06	1059.3	204.98	9.1998e-06	9.2461e-06	371.19	100.82	60.979	18.802	9.167e-06	33.686	-78.756	-14.150	193.600	-148.223	-103.252	-19.451	-148.115	-144.676	187.763	189.805	-145.841	-142.514	-143.182	-139.073	38.841	-139.281	-8191	255	
1162.874	1	1	0	0	0.34746	0.046728	0.23734	0.048155	0.36915	0.017855	0.16873	0.15795	0.22934	0.048471	0.16658	0.080229	0.30794	0.20901	0.28045	0.13261	-1.9104	-2.4771	-2.225	-2.6167	-2.4979	-2.3833	-2.8187	-2.2875	-2.4833	-2.5979	-2.4292	-2.575	-2.5583	-2.3167	-2.6813	-2.4104	132.325	74.537	-48.222	115.103	123.819	155.758	116.053	91.030	-17.536	78.642	-29.350	-103.628	-94.285	-111.448	-128.269	128.234	0.00074042	0.0007286	0.00024129	638.11	9.0775e-06	1.4009e-05	1037.9	180.66	6.8527e-06	5.7684e-06	342.46	88.205	42.921	12.629	5.7356e-06	27.092	0.00083868	0.00084166	0.00023357	892.89	9.1483e-06	9.19e-06	1060.1	204.95	9.1447e-06	9.1372e-06	370	100.35	60.635	18.703	9.0857e-06	33.636	-7.816	-70.203	155.137	-148.008	151.415	45.780	-148.265	-144.925	-81.108	-149.639	-145.666	-142.491	-142.800	-139.813	-128.783	-138.738	-8191	255	
1162.969	1	1	0	0	0.28222	0.013562	0.34374	0.1629	0.088657	0.17273	0.43392	0.19199	0.21795	0.32565	0.099579	0.19239	0.19685	0.26535	0.15935	0.41814	-1.8563	-2.6229	-2.2167	-2.4729	-2.4521	-2.2229	-2.8354	-2.3771	-2.3125	-2.6271	-2.3312	-2.5208	-2.6979	-2.0271	-2.5771	-2.4313	-43.063	132.309	9.545	139.863	90.985	-37.465	143.703	188.756	-107.867	101.708	-98.931	-120.090	-149.389	-114.762	-160.782	191.471	0.0010044	0.00064166	0.00016595	642.65	7.858e-06	4.6352e-06	1038.8	180.81	8.2295e-06	7.1254e-06	344.18	89.159	43.1	12.639	4.3189e-06	27.183	0.0008322	0.0008397	0.00023079	890.9	9.0783e-06	9.1636e-06	1060.1	204.57	9.0918e-06	9.1236e-06	371.16	100.53	60.96	18.713	9.0859e-06	33.755	2.208	148.371	-80.372	-147.029	70.942	-123.959	-148.302	-144.942	4.503	-133.246	-145.815	-143.044	-143.163	-140.495	98.384	-138.912	-8191	255	
1163.040	1	1	0	0	0.18152	0.27343	0.17558	0.098159	0.13637	0.17036	0.17789	0.061519	0.072095	0.055599	0.11438	0.36847	0.27578	0.15466	0.28923	0.24482	-1.6854	-2.4354	-2.2667	-2.5125	-2.6063	-2.2542	-2.8542	-2.5833	-2.5271	-2.6937	-2.6146	-2.3875	-2.5938	-2.5042	-2.7313	-2.5333	-144.137	5.788	23.972	-43.363	13.854	-153.819	144.255	105.812	144.586	129.054	105.859	63.404	122.240	-73.057	-158.738	-34.016	0.00037376	0.00042487	3.4027e-05	640.18	7.6785e-06	1.3415e-05	1038	178.45	8.2454e-06	3.8377e-06	340.4	87.607	43.05	12.623	4.6466e-06	26.754	0.00083163	0.00083458	0.00023118	890.88	9.085e-06	9.123e-06	1059.7	204.76	9.1044e-06	9.0984e-06	368.65	100.04	60.807	18.57	9.0417e-06	33.473	3.213	21.454	-50.733	-147.672	-4.536	18.734	-148.523	-145.458	-85.776	-145.193	-145.893	-141.935	-143.089	-140.139	-100.853	-138.526	-8191	255	
1163.136	1	1	0	0	0.025438	0.18296	0.12555	0.3325	0.1677	0.1563	0.088037	0.28057	0.23332	0.038744	0.27816	0.31574	0.19795	0.16196	0.16099	0.054327	-1.8604	-2.4396	-2.5042	-2.3167	-2.5521	-2.2062	-2.7583	-2.4625	-2.2479	-2.7062	-2.4375	-2.4458	-2.5875	-2.3729	-2.475	-2.6729	-101.809	49.570	-72.394	100.814	87.918	-7.459	24.119	155.458	-132.742	-79.209	76.360	162.146	-126.854	18.291	-162.625	148.053	0.00022849	0.00040697	0.00018329	638.9	7.2723e-06	5.2732e-06	1041	179.32	1.0723e-05	7.3519e-06	342.97	87.802	42.796	12.474	1.1099e-05	26.626	0.00083476	0.00083613	0.00022983	892.73	9.1337e-06	9.0786e-06	1061.3	204.84	9.1212e-06	9.1256e-06	369.37	99.91	60.679	18.466	9.1321e-06	33.358	7.950	-38.498	142.992	-148.277	114.701	-48.328	-148.529	-144.834	-76.298	116.206	-146.025	-142.737	-142.677	-138.969	-50.152	-138.391	-8191	255	
1163.257	1	1	0	0	0.18762	0.24714	0.024398	0.1984	0.27704	0.12743	0.13941	0.15093	0.13858	0.25087	0.22804	0.12316	0.083786	0.17361	0.14445	0.28044	-1.8979	-2.5271	-2.3854	-2.4104	-2.7729	-2.4042	-2.6729	-2.6125	-2.2458	-2.7062	-2.6063	-2.3958	-2.7042	-2.4313	-2.4708	-2.6125	-136.191	-75.692	146.138	56.914	30.052	95.991	-63.221	76.971	-63.673	-117.069	133.397	186.113	-54.802	-117.806	142.978	182.745	0.00091442	0.00021322	0.0003375	638.85	1.6349e-05	1.5037e-05	1041.4	180.03	8.7384e-06	3.5416e-06	344.63	87.863	42.611	12.405	7.4983e-06	26.883	0.00083127	0.00083225	0.0002315	892.38	9.1343e-06	9.0909e-06	1061.3	205.06	9.1592e-06	9.1266e-06	371.08	100.37	60.795	18.465	9.1175e-06	33.504	14.583	85.882	-111.100	-147.404	-49.382	153.711	-148.425	-145.266	117.908	179.416	-145.921	-142.229	-143.187	-139.463	-101.017	-138.767	-8191	255	
1163.353	1	1	0	0	0.13428	0.25832	0.15439	0.22187	0.050572	0.13304	0.31292	0.049468	0.22565	0.24571	0.19607	0.082474	0.39422	0.17302	0.069272	0.10788	-1.7292	-2.4938	-2.5208	-2.4458	-2.3271	-2.2417	-2.5917	-2.6833	-2.2438	-2.5812	-2.6771	-2.3792	-2.7083	-2.3312	-2.4188	-2.5583	36.696	-61.656	-94.920	89.252	-4.247	98.021	166.417	111.844	-47.860	-85.727	124.625	106.255	-128.990	88.340	118.655	-1.037	0.00048253	3.9653e-05	0.00023995	641.5	2.2927e-06	5.9218e-06	1038.3	179.37	1.7873e-05	1.2481e-05	344.48	88.424	42.766	12.398	3.8489e-06	26.657	0.00083592	0.0008424	0.00023245	899.25	9.1852e-06	9.1735e-06	1062.1	205.46	9.1949e-06	9.1575e-06	370.12	100.36	60.856	18.585	9.219e-06	33.522	38.066	-46.678	-132.486	-147.714	-46.523	-137.506	-148.188	-144.877	-85.671	169.197	-145.994	-142.674	-142.380	-139.350	-141.005	-138.450	-8191	255	
1163.449	1	1	0	0	0.15047	0.15942	0.14014	0.035614	0.12913	0.067383	0.2971	0.36134	0.13952	0.082742	0.10733	0.1674	0.2164	0.22001	0.077314	0.072666	-1.7667	-2.4833	-2.4417	-2.1042	-2.5187	-2.6833	-2.5438	-2.7208	-2.4354	-2.5812	-2.7042	-2.2604	-2.5833	-2.4375	-2.3667	-2.6625	168.155	-74.110	-48.268	107.802	-54.540	9.892	167.458	133.298	-53.599	34.937	-143.281	-8.123	-99.059	16.346	-41.576	83.664	0.0003314	0.00090061	0.0001454	636.47	1.8013e-05	3.7436e-06	1035.2	179.07	1.0491e-05	6.5223e-06	343.08	88.02	42.992	12.307	1.1283e-05	26.716	0.00083719	0.00084206	0.00023441	899.49	9.1653e-06	9.1674e-06	1062.1	205.18	9.2086e-06	9.232e-06	370.36	100.24	60.815	18.511	9.2369e-06	33.405	-2.318	-53.968	-116.520	-147.621	17.797	-7.889	-148.478	-144.761	-82.678	-12.020	-145.771	-142.640	-143.964	-140.286	-89.497	-138.963	-8191	255	
1163.545	1	1	0	0	0.32727	0.24213	0.24274	0.28734	0.18693	0.086733	0.28964	0.2129	0.13838	0.13863	0.28813	0.31181	0.29339	0.11811	0.14421	0.1892	-1.9875	-2.4854	-2.5479	-2.2417	-2.6063	-2.5563	-2.5729	-2.7229	-2.4562	-2.5312	-2.6688	-2.3187	-2.6396	-2.6125	-2.2979	-2.8125	-55.378	22.321	16.728	159.579	61.599	195.739	52.528	-23.657	-127.123	-142.889	180.497	-153.829	177.471	189.292	152.173	49.603	0.00084514	0.0002196	0.00013969	642.05	5.895e-07	4.3088e-06	1037.9	179.56	9.5673e-06	7.6215e-06	342.98	88.332	42.36	12.393	1.2243e-05	26.71	0.00083525	0.00084191	0.00023442	898.4	9.1696e-06	9.2013e-06	1062.5	205.14	9.1597e-06	9.1801e-06	370.87	100.17	60.66	18.496	9.2139e-06	33.448	-11.665	-33.548	103.657	-147.678	22.833	-110.132	-148.354	-144.362	-159.877	-152.419	-145.917	-142.674	-143.237	-140.198	55.322	-137.907	-8191	255	
1163.642	1	1	0	0	0.16738	0.21209	0.27773	0.098349	0.22144	0.060274	0.2789	0.13306	0.16302	0.11862	0.30071	0.23695	0.15586	0.070027	0.17913	0.13555	-2.0104	-2.3896	-2.5979	-2.4771	-2.5312	-2.5583	-2.5479	-2.9708	-2.4396	-2.4729	-2.7333	-2.5312	-2.6063	-2.6042	-2.2771	-2.5458	-13.651	145.603	13.747	180.709	-61.881	20.527	64.457	15.793	-154.053	142.768	71.810	-128.882	-93.868	102.272	136.013	42.898	0.001043	0.00069652	0.00040134	639.38	3.1953e-06	4.5729e-06	1037.8	179.56	1.4182e-05	7.7563e-06	342.88	88.15	43.084	12.293	2.0951e-06	26.801	0.00083759	0.00084365	0.00023479	899.02	9.2289e-06	9.2293e-06	1064.7	205.42	9.2235e-06	9.2242e-06	372.51	100.43	60.739	18.59	9.2084e-06	33.481	-34.033	-53.712	-131.624	-147.876	103.304	-111.579	-148.300	-144.822	76.529	-54.761	-145.729	-142.227	-142.935	-139.620	-22.325	-138.458	-8191	255	
1163.738	1	1	0	0	0.059457	0.11861	0.147	0.19786	0.37376	0.25925	0.2439	0.18185	0.28563	0.13481	0.14259	0.29384	0.17769	0.12329	0.075623	0.24398	-1.9792	-2.4688	-2.6625	-2.2438	-2.6083	-2.6396	-2.4042	-2.7313	-2.3688	-2.4333	-2.7354	-2.3646	-2.4437	-2.5271	-2.2875	-2.5521	151.325	180.208	-76.249	162.188	86.456	15.218	112.772	173.191	-137.611	95.383	-157.824	-92.426	167.187	183.169	-8.614	166.326	0.00058942	0.00071118	0.00014284	645.55	1.2583e-05	1.3127e-05	1042.7	178.27	1.3089e-05	4.9566e-07	341.77	87.975	43.101	12.502	3.4304e-06	26.633	0.00084068	0.00084945	0.0002368	898.1	9.1982e-06	9.261e-06	1063.4	204.19	9.1582e-06	9.1937e-06	369.94	100.08	60.791	18.631	9.1884e-06	33.362	70.546	-79.749	-133.288	-148.076	190.327	156.336	-148.489	-144.761	-3.898	-45.452	-146.051	-142.685	-142.936	-140.072	143.388	-138.479	-8191	255	
1163.834	1	1	0	0	0.13751	0.092676	0.019594	0.15761	0.40971	0.27784	0.27472	0.28513	0.18114	0.29341	0.19603	0.10795	0.18746	0.17414	0.21282	0.035829	-2.1021	-2.2625	-2.5333	-2.4271	-2.4813	-2.4979	-2.4854	-2.7458	-2.4542	-2.4146	-2.7604	-2.4375	-2.3292	-2.6604	-2.3542	-2.8146	173.018	156.096	36.698	46.605	194.841	-37.163	171.649	113.259	154.948	-156.949	-20.618	-150.612	75.464	195.408	-18.143	15.616	0.00017955	0.00054527	0.00031975	641.36	4.2241e-06	5.509e-06	1035.5	179.14	4.6818e-06	6.9775e-06	341.14	87.515	42.724	12.349	1.1717e-06	26.648	0.00083519	0.00084717	0.00023382	898.64	9.2119e-06	9.2539e-06	1061.6	204.71	9.176e-06	9.2322e-06	369.64	99.998	60.611	18.541	9.2347e-06	33.451	31.261	75.481	182.503	-147.865	-0.557	197.413	-148.297	-144.590	172.644	167.642	-146.399	-142.577	-143.265	-139.363	97.454	-138.418	-8191	255	
1163.955	1	1	0	0	0.19389	0.22023	0.094585	0.15447	0.20202	0.15011	0.16123	0.28338	0.012304	0.20054	0.17934	0.16589	0.032823	0.11157	0.30597	0.061895	-2.1958	-2.3375	-2.4917	-2.4	-2.5729	-2.6729	-2.6708	-2.6354	-2.4938	-2.3333	-2.7792	-2.6063	-2.3688	-2.6917	-2.5187	-2.5625	-94.009	109.187	95.199	128.730	-59.347	-100.633	147.140	32.113	-12.373	-77.845	188.073	158.669	-93.356	-15.512	-126.642	46.257	0.000419	0.00039414	6.3118e-05	639.76	3.5045e-06	5.9099e-06	1039	180.3	1.1922e-05	7.1691e-06	342.76	88.531	42.597	12.206	7.7684e-06	26.749	0.00084359	0.0008451	0.00023354	898.3	9.2625e-06	9.2568e-06	1063.2	205.43	9.2504e-06	9.2596e-06	371.78	100.49	61.044	18.592	9.3329e-06	33.643	36.007	-50.142	-95.210	-147.590	-20.333	-22.998	-148.384	-144.812	123.324	4.749	-145.508	-142.883	-142.773	-139.999	-49.249	-138.255	-8191	255	
1164.049	1	1	0	0	0.10034	0.095908	0.21563	0.17582	0.027837	0.19511	0.3865	0.1168	0.16413	0.21989	0.22233	0.044497	0.28574	0.057261	0.14005	0.10168	-2.0125	-2.1958	-2.6937	-2.4583	-2.4479	-2.7938	-2.4583	-2.5812	-2.7396	-2.4396	-2.7292	-2.5958	-2.3875	-2.6208	-2.4271	-2.4083	-112.594	119.065	9.535	56.207	-103.367	-61.006	123.486	-61.607	-130.833	-112.594	2.432	64.093	-57.682	-117.880	-55.985	161.617	0.00078373	0.00037884	0.00014039	645.18	6.0092e-06	4.4044e-06	1038.9	179.42	1.6162e-05	1.4333e-06	343.81	88.28	42.665	12.171	6.2663e-06	26.204	0.00085546	0.00086104	0.00023833	906.75	9.4365e-06	9.4206e-06	1066.1	206.35	9.4513e-06	9.4763e-06	372.63	100.82	61.431	18.589	9.386e-06	33.412	-38.786	61.790	-84.291	-148.108	-23.941	147.486	-148.460	-144.616	61.008	95.342	-145.868	-142.356	-143.042	-139.820	42.890	-138.832	-8191	255	
1164.145	1	1	0	0	0.21655	0.10174	0.18015	0.19051	0.17939	0.16586	0.1855	0.086206	0.14722	0.14686	0.11224	0.12918	0.22532	0.21277	0.041023	0.12552	-2.1	-2.3917	-2.6542	-2.5729	-2.3958	-2.6667	-2.4729	-2.6063	-2.7125	-2.2771	-2.5646	-2.4333	-2.3438	-2.6042	-2.2896	-2.4188	186.053	-162.833	-77.720	-56.312	55.797	38.133	136.749	12.935	-136.236	-143.410	149.627	127.781	53.863	125.053	-138.631	-92.303	0.00056228	0.00071786	0.00010749	643.77	5.3174e-06	4.4625e-06	1041.8	179.15	5.2088e-06	7.3029e-06	343.56	88.441	42.57	12.179	2.5955e-06	26.176	0.00086363	0.00086502	0.00024109	912.11	9.4855e-06	9.4775e-06	1069.6	206.81	9.5618e-06	9.5201e-06	374.16	101.48	61.871	18.628	9.571e-06	33.549	-10.231	-84.765	78.522	-148.190	19.182	-130.241	-148.678	-145.101	-138.956	176.468	-145.912	-142.784	-142.955	-138.970	72.239	-138.682	-8191	255	
1164.241	1	1	0	0	0.3703	0.08448	0.11872	0.30893	0.14381	0.22703	0.21182	0.19865	0.17888	0.12828	0.22286	0.17999	0.12037	0.18039	0.25506	0.11121	-2.0646	-2.2396	-2.5375	-2.4542	-2.3167	-2.6833	-2.4479	-2.4375	-2.4896	-2.2562	-2.5396	-2.6292	-2.1583	-2.4	-2.3479	-2.3187	-126.968	-93.177	98.567	58.508	121.913	-19.514	182.932	77.964	-47.110	115.246	-128.470	38.869	137.694	-13.545	-82.578	-89.240	0.00067277	0.00098469	0.00030367	653.86	4.5205e-06	7.2672e-06	1048.1	181.11	5.0579e-06	6.1782e-06	341.61	87.738	42.514	11.962	1.347e-05	26.482	0.00087782	0.0008785	0.00024454	921.85	9.6672e-06	9.6443e-06	1075	208.96	9.6904e-06	9.6368e-06	377.12	101.99	62.232	18.579	9.6773e-06	33.824	-38.971	-115.371	25.589	-147.834	42.935	-114.893	-148.346	-144.648	49.905	-155.432	-146.050	-142.950	-142.598	-140.001	73.332	-138.609	-8191	255	
1164.337	1	1	0	0	0.080904	0.14099	0.20936	0.045332	0.1324	0.12452	0.22675	0.12812	0.10817	0.13798	0.27342	0.12039	0.025045	0.14254	0.3431	0.12525	-2.1292	-2.2875	-2.3417	-2.5021	-2.2687	-2.6375	-2.4813	-2.1229	-2.5625	-2.4042	-2.4396	-2.8312	-2.1667	-2.6458	-2.4771	-2.45	-46.048	175.141	-150.582	-103.077	12.270	92.943	139.262	-159.161	-137.791	168.967	60.719	58.895	149.517	-95.245	-120.418	147.286	0.0010087	0.00081075	0.00025316	649.49	1.0055e-05	7.3528e-06	1048.8	181.2	1.0466e-05	7.6811e-06	341.88	88.8	42.956	11.915	8.7888e-06	25.936	0.00088621	0.00088701	0.00024759	926.81	9.7366e-06	9.6965e-06	1078.3	209.43	9.768e-06	9.7396e-06	377.09	102.11	62.344	18.633	9.6442e-06	33.602	-15.346	-27.601	-130.676	-147.641	-134.627	174.317	-148.242	-144.768	32.495	-63.747	-145.715	-142.660	-142.502	-139.425	-24.807	-137.990	-8191	255	
1164.434	1	1	0	0	0.30293	0.088215	0.067721	0.31121	0.33777	0.046494	0.32264	0.11047	0.086991	0.28246	0.093417	0.27863	0.12474	0.058783	0.067635	0.17512	-2.2438	-2.3646	-2.4479	-2.6937	-2.1604	-2.5021	-2.5521	-2.5	-2.6896	-2.3125	-2.4688	-2.7604	-2.2479	-2.4417	-2.4188	-2.1688	-58.303	92.012	-80.737	-66.828	59.998	106.708	173.406	-32.478	-7.711	110.310	103.207	-62.486	131.295	94.249	-111.950	115.710	0.00098581	0.00080956	9.7962e-05	642.57	4.6128e-06	1.3688e-05	1047.3	179.41	6.7256e-06	5.8691e-06	344.78	88.265	42.336	12.057	6.8788e-06	26.082	0.00088102	0.00088068	0.00024689	923.78	9.6962e-06	9.6441e-06	1077.2	208.54	9.6508e-06	9.6709e-06	376.82	101.82	62.089	18.533	9.6433e-06	33.548	-18.492	-134.342	185.845	-147.378	194.265	-58.326	-148.705	-144.607	55.613	-132.070	-145.937	-142.507	-142.695	-139.533	-99.975	-138.344	-8191	255	
1164.554	1	1	0	0	0.054866	0.1024	0.20029	0.091681	0.22525	0.063501	0.18813	0.42083	0.10536	0.26206	0.22841	0.10653	0.076023	0.1924	0.075049	0.20128	-2.0083	-2.3104	-2.4021	-2.6521	-2.2938	-2.6208	-2.7958	-2.275	-2.6688	-2.6208	-2.4333	-2.6583	-2.3875	-2.5375	-2.7313	-2.2271	145.320	24.044	-2.997	-148.296	159.383	-152.418	100.823	182.751	-50.830	135.096	150.921	-54.841	61.581	-67.050	-149.559	142.000	0.00041467	0.00021765	0.0001213	647.47	1.2036e-06	7.819e-06	1045.3	180.59	1.4547e-05	3.1743e-06	347.24	88.199	43.18	12.093	1.8654e-05	26.32	0.00087403	0.00088315	0.0002467	922.38	9.6305e-06	9.6493e-06	1075.7	208.45	9.5716e-06	9.6489e-06	377.37	101.56	62.016	18.592	9.6484e-06	33.591	12.571	66.663	-140.485	-147.151	32.526	-29.889	-148.432	-144.709	-96.299	148.445	-146.193	-142.557	-143.225	-139.020	-58.656	-138.169	-8191	255	
1164.650	1	1	0	0	0.24888	0.19294	0.16578	0.25776	0.1569	0.10242	0.17408	0.25341	0.24558	0.35627	0.21407	0.041557	0.17467	0.35564	0.063483	0.28481	-2.1542	-2.4479	-2.2188	-2.5417	-2.2604	-2.5	-2.7146	-2.2125	-2.4375	-2.6729	-2.4646	-2.3896	-2.325	-2.3229	-2.5146	-2.4313	-59.157	-135.621	104.464	57.594	-69.155	-92.495	148.372	165.558	184.738	127.563	-80.929	28.510	88.163	-129.932	36.655	13.671	0.00034023	0.00045395	4.9506e-05	646.94	8.5709e-06	2.3279e-05	1044.1	179.46	6.7958e-06	4.2371e-06	343.92	88.562	42.365	12.015	2.187e-06	25.851	0.00087686	0.00089019	0.00024792	924.38	9.6408e-06	9.702e-06	1076.3	208.07	9.658e-06	9.7013e-06	377.26	101.69	62.042	18.658	9.7386e-06	33.635	-140.908	-31.350	109.865	-148.093	95.403	-98.405	-148.306	-144.974	107.753	-61.929	-146.366	-142.788	-143.179	-139.891	-141.757	-138.479	-8191	255	
1164.746	1	1	0	0	0.088359	0.14413	0.19272	0.20435	0.079373	0.10063	0.24269	0.22786	0.15251	0.0090676	0.30781	0.27009	0.21055	0.050564	0.053111	0.1062	-2.3875	-2.4333	-2.1042	-2.5417	-2.1854	-2.45	-2.7188	-2.0604	-2.4396	-2.5729	-2.2875	-2.6979	-2.5812	-2.4917	-2.7083	-2.2208	-11.716	-111.810	-1.486	99.736	7.957	-47.937	115.897	67.413	162.679	155.408	70.875	134.730	-154.984	50.883	70.128	-92.381	0.00088919	0.0010871	0.00026511	650.66	8.6367e-06	1.2516e-05	1046	181.13	1.6086e-06	1.0937e-05	345.34	87.574	42.645	11.913	8.8335e-06	26.185	0.00088337	0.00088864	0.00024762	920.63	9.6827e-06	9.7282e-06	1075.5	208.37	9.6891e-06	9.6841e-06	376.96	101.5	61.881	18.613	9.6801e-06	33.556	-5.344	-45.033	174.162	-147.835	28.529	15.526	-148.423	-144.811	-43.125	-121.403	-145.745	-142.457	-142.219	-139.998	-36.763	-137.574	-8191	255	
1164.843	1	1	0	0	0.068372	0.20072	0.24226	0.068225	0.16342	0.18293	0.16695	0.097319	0.22739	0.2176	0.022642	0.10328	0.26965	0.082193	0.090271	0.31441	-1.9375	-2.4875	-2.2667	-2.4813	-2.3917	-2.3438	-2.6979	-2.4521	-2.4333	-2.6854	-2.4667	-2.8063	-2.5979	-2.3479	-2.5625	-2.3479	139.881	-155.310	183.104	55.394	-150.739	162.511	182.272	-135.294	190.256	-52.720	172.148	166.812	27.267	-95.506	112.950	57.298	0.00068146	0.001234	0.00024678	647.67	1.0384e-05	4.8651e-06	1046.3	179.57	6.0041e-06	1.1181e-05	343.01	87.571	42.331	12.099	7.9894e-06	26.181	0.00087831	0.00088896	0.00024694	920.33	9.6898e-06	9.6744e-06	1076.9	207.83	9.6673e-06	9.7334e-06	376.31	101.48	61.928	18.744	9.6404e-06	33.648	21.255	-66.488	-76.700	-147.782	-80.498	153.862	-148.394	-144.854	-43.705	-138.402	-146.129	-142.259	-143.263	-139.863	-51.753	-138.024	-8191	255	
1164.937	1	1	0	0	0.072057	0.072348	0.13614	0.18025	0.16432	0.078282	0.19164	0.17975	0.13654	0.099758	0.27414	0.23642	0.10298	0.11425	0.13976	0.1364	-2.0229	-2.7104	-2.1792	-2.5854	-2.3979	-2.4208	-2.7313	-2.5625	-2.3125	-2.5229	-2.3396	-2.575	-2.4229	-2.175	-2.6646	-2.4229	70.879	134.716	162.675	-147.387	-58.089	168.261	125.386	-69.764	87.838	-27.460	166.070	-38.635	-137.243	30.507	96.196	101.265	0.00024424	0.00036019	0.00017587	651.95	1.0765e-05	6.5052e-06	1042.5	179.98	5.17e-06	3.2738e-06	347.15	88.472	42.94	12.184	3.48e-06	26.397	0.00087627	0.00088243	0.00024355	919.61	9.5988e-06	9.6865e-06	1073.3	208	9.6369e-06	9.6337e-06	376.69	101.61	62.374	18.773	9.5552e-06	33.761	-20.979	-157.948	-75.828	-147.111	159.441	43.102	-148.456	-144.892	-132.358	-119.826	-146.244	-142.586	-142.864	-139.959	-41.154	-138.085	-8191	255	
1165.033	1	1	0	0	0.21196	0.16052	0.052071	0.061212	0.25654	0.11776	0.092986	0.099302	0.23328	0.22083	0.094649	0.069546	0.23696	0.1569	0.043196	0.13303	-1.8417	-2.7188	-2.5292	-2.7271	-2.5583	-2.2313	-2.9604	-2.2979	-2.4188	-2.7833	-2.4646	-2.6167	-2.4958	-2.2687	-2.6688	-2.6292	50.764	107.505	58.671	143.262	134.051	-123.266	155.396	103.200	-118.371	-75.024	150.022	150.151	109.579	-145.484	-162.202	55.646	0.00095062	0.0006613	0.00025439	642.5	1.5435e-06	3.5354e-06	1046.4	180.44	4.0261e-06	2.609e-06	347.09	89.06	43.379	12.303	1.6321e-05	26.483	0.00087773	0.0008821	0.00024288	916.9	9.6015e-06	9.579e-06	1074.5	207.95	9.5711e-06	9.5483e-06	375.74	101.85	62.163	18.721	9.4773e-06	33.581	21.771	-92.458	68.983	-147.112	-147.914	50.136	-148.286	-144.874	-26.382	171.484	-146.003	-142.630	-142.998	-140.060	-32.539	-138.721	-8191	255	
1165.129	1	1	0	0	0.2295	0.2482	0.17367	0.32421	0.16388	0.35362	0.24189	0.043434	0.22369	0.20973	0.071014	0.20332	0.08337	0.12114	0.14185	0.27641	-1.8396	-2.4896	-2.3354	-2.5271	-2.5542	-2.3333	-2.4896	-2.6125	-2.4479	-2.6271	-2.3312	-2.3417	-2.625	-2.2208	-2.6437	-2.6521	25.181	130.774	120.985	-53.010	151.231	-45.932	87.094	109.998	55.374	86.057	-1.729	171.320	178.527	177.494	-120.209	48.167	0.0010182	0.0011727	0.00026407	655.94	4.9809e-06	6.6429e-06	1047.1	180.05	4.6916e-06	6.0911e-06	346.07	88.112	43.168	12.066	3.341e-06	26.134	0.00087187	0.00087246	0.00024124	916.98	9.5316e-06	9.5543e-06	1072	208.07	9.5414e-06	9.5143e-06	375.3	101.65	61.974	18.598	9.4833e-06	33.454	-8.113	73.878	143.708	-147.823	-34.258	-47.940	-148.306	-144.505	-126.843	180.964	-145.750	-142.565	-142.734	-139.723	-123.351	-139.005	-8191	255	
1165.225	1	1	0	0	0.25424	0.21703	0.083194	0.10516	0.11738	0.16272	0.062116	0.20862	0.31324	0.19707	0.23694	0.21434	0.1296	0.16422	0.10474	0.27306	-2.0021	-2.6208	-2.3312	-2.4062	-2.6354	-2.3146	-2.5917	-2.4229	-2.3104	-2.8292	-2.5771	-2.3583	-2.6833	-2.3354	-2.5187	-2.6271	-61.441	112.446	165.924	-113.712	73.114	-89.648	-23.153	-61.719	10.693	-16.184	115.886	-116.118	-56.519	122.020	187.794	146.008	0.00034605	0.00041496	0.0001614	648.01	6.724e-06	8.0046e-06	1042.3	180.82	8.1306e-06	4.1993e-06	347.29	88.473	42.385	12.124	1.2666e-05	26.255	0.00086643	0.00086982	0.00024096	918.24	9.5319e-06	9.5295e-06	1071.9	208.19	9.5868e-06	9.5434e-06	375.68	101.83	61.903	18.555	9.5415e-06	33.698	13.632	65.420	64.757	-147.794	-103.973	124.248	-148.292	-145.123	128.191	34.699	-146.155	-142.895	-142.819	-139.747	140.965	-138.650	-8191	255	
1165.346	1	1	0	0	0.089735	0.23372	0.16494	0.068818	0.28319	0.35176	0.22133	0.22878	0.20629	0.13656	0.077505	0.22256	0.2287	0.04432	0.13842	0.12752	-1.825	-2.4229	-2.4375	-2.4375	-2.475	-2.4375	-2.7208	-2.5583	-2.3958	-2.6979	-2.3771	-2.3667	-2.6333	-2.4646	-2.55	-2.75	-125.312	-110.096	-32.067	-32.575	50.733	-24.211	173.985	52.755	-7.100	-78.437	135.655	187.804	133.175	-152.400	22.694	16.574	0.00051057	0.00067106	0.00023905	652.89	4.5339e-06	5.6414e-06	1043.8	180.54	5.8342e-06	9.4251e-06	345.18	88.727	43.367	12.097	1.2102e-05	26.389	0.00086539	0.00086859	0.0002419	919.4	9.5564e-06	9.4793e-06	1070.8	208.36	9.5068e-06	9.47e-06	375.71	101.85	61.919	18.582	9.5004e-06	33.541	-6.947	-162.703	-118.100	-147.105	-50.265	173.580	-148.130	-144.954	-149.811	160.761	-146.034	-142.888	-142.475	-139.387	51.416	-138.644	-8191	255	
1165.442	1	1	0	0	0.16808	0.1541	0.087398	0.26059	0.18707	0.14256	0.086878	0.15466	0.11359	0.22795	0.11113	0.16442	0.23589	0.10871	0.23617	0.1003	-1.6208	-2.5167	-2.4292	-2.2604	-2.4833	-2.3917	-2.6458	-2.5563	-2.4062	-2.5646	-2.7146	-2.2354	-2.8646	-2.4417	-2.3958	-2.8146	178.027	60.033	111.430	82.972	92.991	141.114	-139.750	129.416	-25.216	142.856	-50.693	11.174	141.773	-154.154	125.856	124.862	0.00089508	0.00054013	0.00021263	643.83	1.27e-05	9.991e-06	1041.1	180.26	1.6629e-05	1.2957e-05	345.07	88.086	42.721	12.114	7.8277e-06	25.759	0.00086849	0.00086845	0.00024108	914.5	9.5021e-06	9.4882e-06	1068.2	208	9.495e-06	9.4552e-06	374.24	101.65	61.566	18.573	9.5292e-06	33.513	-4.018	56.512	-101.855	-147.858	140.090	122.410	-148.474	-144.800	11.604	171.615	-145.708	-142.448	-142.213	-139.777	30.540	-138.762	-8191	255	
1165.514	1	1	0	0	0.31385	0.015167	0.13333	0.12249	0.22051	0.20989	0.089712	0.24834	0.2361	0.099429	0.11952	0.17201	0.047777	0.094596	0.053468	0.2022	-1.8875	-2.4188	-2.5917	-2.3458	-2.6417	-2.475	-2.7313	-2.6813	-2.4062	-2.5708	-2.5417	-2.3896	-2.6917	-2.4917	-2.4333	-2.7604	21.913	-71.386	-86.158	-156.809	-154.890	-55.453	111.212	182.790	-121.779	4.481	-70.501	90.051	37.984	116.968	-110.024	-107.882	0.0011319	0.00019064	0.00020828	640.95	5.9157e-06	1.4917e-05	1040.4	178.69	1.3347e-06	1.1012e-05	344.64	87.945	43.006	12.2	7.9815e-06	25.87	0.0008676	0.00087414	0.00024426	918.35	9.5519e-06	9.5537e-06	1070.4	207.18	9.4738e-06	9.5272e-06	375.38	101.41	61.907	18.595	9.5933e-06	33.447	3.282	-36.898	171.146	-148.206	32.392	-76.474	-148.434	-145.012	68.678	84.635	-146.086	-142.591	-142.181	-139.303	30.281	-138.557	-8191	255	
1165.635	1	1	0	0	0.049871	0.091413	0.13282	0.028959	0.11767	0.19831	0.22459	0.13826	0.29724	0.088004	0.40857	0.30512	0.0072187	0.12508	0.20128	0.055002	-1.9958	-2.5521	-2.5479	-2.4479	-2.6083	-2.4313	-2.6729	-2.7	-2.375	-2.5896	-2.6229	-2.5271	-2.7042	-2.475	-2.3375	-2.6521	-157.147	117.471	-13.165	3.588	91.238	-23.420	112.253	-89.928	-107.999	-66.344	76.973	-64.180	161.802	-79.862	-143.822	137.928	0.00064942	0.00059547	0.00013664	647	1.3625e-05	1.0095e-05	1038.3	180.17	2.1595e-06	6.8235e-06	344.02	87.903	42.522	12.083	5.3853e-06	26.213	0.00087357	0.00087729	0.00024452	918.32	9.5874e-06	9.6031e-06	1070.8	208.23	9.5374e-06	9.5717e-06	375.99	101.54	61.844	18.544	9.6023e-06	33.47	-5.626	135.169	31.952	-147.205	171.429	-14.701	-148.452	-144.789	-0.237	-26.364	-145.916	-142.635	-143.276	-140.141	179.702	-138.259	-8191	255	
1165.731	1	1	0	0	0.16684	0.063485	0.14165	0.15189	0.14963	0.066162	0.29505	0.043747	0.02591	0.13812	0.21828	0.27023	0.10964	0.099303	0.26187	0.14265	-1.9292	-2.3167	-2.55	-2.3438	-2.5208	-2.5354	-2.5042	-2.7458	-2.4667	-2.5396	-2.6333	-2.4313	-2.6667	-2.5667	-2.3438	-2.7771	-76.251	-19.046	-9.155	-149.756	3.979	-40.667	96.395	-88.175	-48.869	133.418	-141.852	62.693	24.149	52.448	172.010	-160.261	0.00039479	0.00041563	0.00048199	651.35	2.7066e-06	1.171e-05	1042.1	179.59	1.2132e-05	7.25e-06	340.21	87.833	42.794	11.889	8.1329e-06	25.769	0.00087116	0.00087909	0.00024386	919.03	9.5838e-06	9.629e-06	1071.7	207.45	9.5518e-06	9.6004e-06	373.09	101.22	61.791	18.503	9.571e-06	33.25	9.080	-107.477	192.942	-148.084	-99.130	104.295	-148.118	-144.809	128.123	155.090	-145.937	-142.619	-143.073	-138.859	-77.369	-138.298	-8191	255	
1165.827	1	1	0	0	0.22157	0.063321	0.15042	0.18576	0.19336	0.1852	0.29283	0.33173	0.29647	0.25687	0.092278	0.11121	0.14465	0.073789	0.19737	0.084443	-2.0146	-2.2229	-2.4021	-2.4021	-2.7979	-2.4792	-2.4021	-2.6125	-2.5417	-2.5042	-2.7854	-2.4125	-2.3646	-2.5625	-2.3417	-2.8417	47.076	-16.468	-91.232	39.024	-105.447	64.038	131.096	149.742	-66.821	149.454	191.875	-79.829	-95.027	157.674	-57.647	124.334	0.00050643	0.00087592	0.00023069	641.45	9.2051e-06	7.0865e-06	1041.5	180.99	2.0303e-06	9.4429e-06	343.82	88.512	42.744	12.094	8.6251e-06	26.248	0.00087207	0.00087858	0.00024361	915.57	9.5303e-06	9.5966e-06	1071.2	207.68	9.5338e-06	9.6288e-06	375.63	101.44	61.995	18.52	9.5894e-06	33.393	-20.938	16.399	140.571	-148.251	117.581	82.953	-148.201	-144.720	100.625	188.167	-145.969	-142.796	-143.539	-139.402	95.535	-138.392	-8191	255	
1165.923	1	1	0	0	0.068667	0.28467	0.21483	0.044373	0.13019	0.20968	0.31972	0.22641	0.11633	0.26112	0.089514	0.12002	0.12007	0.18086	0.31071	0.17728	-2.0917	-2.3708	-2.5979	-2.1354	-2.6667	-2.5604	-2.4979	-2.7208	-2.4396	-2.2479	-2.4979	-2.3333	-2.2833	-2.5854	-2.3292	-2.5167	-48.015	-44.755	-112.756	65.277	-112.013	35.448	179.312	-143.375	-31.037	-160.382	153.529	34.794	169.081	169.199	-68.434	139.701	0.00046181	0.00067047	0.00016283	638.95	9.1135e-06	9.6472e-06	1044.2	180.59	1.9464e-05	6.7652e-06	344.75	88.192	43.289	12.069	5.8289e-06	26.201	0.00087085	0.00087608	0.00024239	916.2	9.5431e-06	9.6255e-06	1071.6	207.78	9.5476e-06	9.635e-06	375.86	101.56	62.149	18.63	9.5608e-06	33.593	20.236	15.978	-91.431	-148.762	157.659	93.710	-148.141	-145.158	166.708	-38.649	-145.865	-142.812	-142.757	-139.355	126.876	-138.471	-8191	255	
1166.042	1	1	0	0	0.26407	0.30471	0.24344	0.16222	0.20619	0.23527	0.13594	0.30041	0.13317	0.28005	0.17826	0.16176	0.15329	0.1871	0.13636	0.25563	-1.9937	-2.4062	-2.7	-2.4625	-2.5292	-2.5312	-2.4875	-2.4021	-2.475	-2.3312	-2.7292	-2.4771	-2.3833	-2.6396	-2.2854	-2.5917	-130.322	63.627	41.401	-150.820	190.870	137.543	192.009	153.746	-45.535	130.492	-0.938	-65.274	-134.450	104.382	-160.879	-113.334	0.00091972	0.00049636	0.0001565	644.54	7.0995e-06	6.5025e-06	1047.1	180.71	3.8887e-06	6.0324e-06	346.27	88.882	42.739	12.025	1.1543e-05	26.046	0.00087314	0.00087993	0.00024342	917.54	9.6349e-06	9.5855e-06	1073.3	207.89	9.5796e-06	9.5951e-06	375.63	101.67	61.975	18.509	9.4784e-06	33.371	-25.061	70.811	190.429	-148.196	-78.198	16.784	-148.345	-144.670	-121.260	-135.303	-146.134	-142.566	-142.656	-139.159	-147.691	-138.222	-8191	255	
1166.138	1	1	0	0	0.19119	0.18735	0.066385	0.088328	0.26306	0.1558	0.36908	0.27904	0.039825	0.28777	0.20581	0.088341	0.11639	0.17078	0.18516	0.12613	-1.9667	-2.3167	-2.5854	-2.4562	-2.2583	-2.8458	-2.4021	-2.6167	-2.5208	-2.2646	-2.825	-2.4708	-2.2271	-2.6458	-2.2458	-2.4646	56.898	-79.613	-157.924	-15.969	-62.641	72.305	167.163	155.337	146.272	67.409	100.081	109.784	126.994	147.084	17.604	-96.967	0.00028764	0.00084685	0.00018808	656.81	5.6917e-06	8.4501e-06	1044.9	180.16	1.4344e-05	8.9573e-06	346.87	88.212	42.872	11.779	6.0922e-06	26.192	0.00087212	0.00087581	0.00024209	919.23	9.6395e-06	9.6391e-06	1069.7	208.09	9.5819e-06	9.5437e-06	375.59	101.54	62.085	18.476	9.5346e-06	33.372	-22.354	196.783	-1.737	-148.014	-109.049	67.077	-148.421	-144.638	-125.025	157.895	-145.921	-142.708	-142.455	-139.344	54.438	-138.568	-8191	255	
1166.234	1	1	0	0	0.30631	0.19995	0.21667	0.051515	0.16063	0.1314	0.11082	0.28775	0.063984	0.005476	0.11575	0.38883	0.11882	0.18006	0.13175	0.21004	-2.1604	-2.0979	-2.6854	-2.6083	-2.3229	-2.6625	-2.4729	-2.3771	-2.6688	-2.3917	-2.7812	-2.6333	-2.3104	-2.5646	-2.2958	-2.4875	53.828	148.091	-161.177	180.782	-66.217	-72.685	128.567	-118.047	95.483	45.316	41.823	192.497	186.525	28.058	-40.475	176.738	0.00089589	0.00040715	8.0275e-05	640.94	1.1613e-05	1.8403e-05	1046.4	179.43	3.9573e-06	8.3032e-06	347.14	88.379	42.943	11.947	1.994e-05	25.931	0.00087607	0.00087933	0.00024311	916.2	9.5943e-06	9.5803e-06	1071.8	208.01	9.6084e-06	9.5591e-06	376	101.49	62.089	18.626	9.5732e-06	33.531	-0.767	-146.405	-42.834	-147.879	174.821	-40.028	-148.401	-144.957	-107.825	63.863	-145.671	-142.509	-143.676	-138.866	-68.176	-137.893	-8191	255	
1166.330	1	1	0	0	0.066832	0.067214	0.22175	0.15395	0.29143	0.1629	0.35867	0.045183	0.054815	0.27742	0.18652	0.19721	0.20066	0.12218	0.21265	0.15116	-1.9542	-2.3333	-2.3958	-2.3979	-2.2979	-2.7271	-2.4854	-2.5563	-2.3667	-2.5062	-2.5312	-2.575	-2.2521	-2.6333	-2.525	-2.3417	85.204	-5.727	-60.820	62.612	-63.778	182.237	164.568	132.466	90.481	185.223	166.331	186.954	102.611	-69.112	36.553	-129.330	0.00088444	0.00035977	0.00021163	636.26	2.1614e-06	1.155e-05	1044.9	181.02	7.1862e-06	2.3355e-06	346.87	88.047	43.324	11.893	7.1561e-06	26.126	0.0008779	0.00088148	0.00024255	916.9	9.6616e-06	9.5929e-06	1072.7	208.67	9.5758e-06	9.4979e-06	377.21	101.62	62.188	18.535	9.5222e-06	33.478	-25.762	-132.083	-21.740	-146.827	90.973	-24.669	-148.373	-144.663	69.912	-105.451	-145.625	-142.735	-143.272	-139.203	-7.999	-138.100	-8191	255	
1166.426	1	1	0	0	0.097481	0.10524	0.11819	0.26739	0.25463	0.23152	0.14202	0.15161	0.079374	0.16617	0.2487	0.22264	0.0964	0.10755	0.054203	0.15243	-2.1125	-2.2333	-2.5125	-2.6188	-2.3708	-2.6396	-2.4562	-2.2708	-2.7375	-2.375	-2.675	-2.8042	-2.2917	-2.6771	-2.4458	-2.2375	-99.822	104.784	38.588	-160.498	-131.893	185.446	195.018	181.315	53.858	27.313	102.297	71.463	-108.975	-6.508	23.304	180.976	0.00039655	0.00083258	0.000136	650.51	1.4671e-05	7.0964e-06	1039.9	180.37	2.1689e-06	6.5379e-06	344.48	88.028	42.687	11.801	8.8349e-06	26.2	0.00087295	0.00087335	0.00024306	918.83	9.586e-06	9.5657e-06	1070.1	207.75	9.5689e-06	9.553e-06	375.15	101.35	62.011	18.468	9.5985e-06	33.421	33.874	131.744	-14.910	-148.143	-69.782	-64.639	-148.491	-145.044	-3.223	159.796	-146.115	-142.504	-143.778	-139.841	118.248	-138.049	-8191	255	
1166.523	1	1	0	0	0.082252	0.05	0.1967	0.19939	0.067529	0.19631	0.16003	0.19896	0.11789	0.23386	0.14533	0.19687	0.1707	0.11845	0.37812	0.21743	-2.3396	-2.1167	-2.3958	-2.4833	-2.2229	-2.4479	-2.6479	-2.3708	-2.75	-2.4354	-2.3292	-2.6937	-2.2458	-2.4813	-2.5042	-2.2083	170.773	-14.275	48.656	2.008	-92.279	-4.987	-125.030	164.265	14.271	140.621	-94.708	88.933	-64.360	93.396	-136.125	-104.009	0.00062996	0.0014226	0.0002706	638.87	5.0702e-06	1.1245e-05	1041.2	180.72	1.4042e-05	5.0841e-06	344.71	88.076	42.917	12.04	1.4552e-05	25.972	0.00086745	0.00087694	0.00024351	918.02	9.6e-06	9.6048e-06	1071.3	208.23	9.5747e-06	9.6026e-06	375.71	101.46	62.012	18.512	9.6074e-06	33.444	-6.592	-4.254	181.045	-148.005	-24.900	-89.400	-148.433	-144.730	-76.740	-119.000	-145.787	-142.216	-142.863	-139.622	37.539	-137.937	-8191	255	
1166.643	1	1	0	0	0.070145	0.10108	0.074235	0.1435	0.1571	0.11773	0.21106	0.3574	0.31716	0.065258	0.22149	0.24227	0.086168	0.13529	0.17714	0.14036	-2.1792	-2.2625	-2.4625	-2.6271	-2.3167	-2.5229	-2.6771	-2.3104	-2.6646	-2.4208	-2.5167	-2.575	-2.3583	-2.475	-2.4437	-2.3812	5.439	159.643	93.496	-86.125	-98.645	128.131	-146.574	-134.909	-50.683	-47.745	166.973	119.399	190.002	79.035	-38.975	169.801	0.00047967	0.00045627	0.00019904	647.24	1.0873e-05	7.3148e-06	1039.3	180.77	4.484e-06	1.4162e-05	345.3	87.495	42.787	11.862	2.0642e-05	26.04	0.00087359	0.00087903	0.00024572	920.28	9.5904e-06	9.6009e-06	1072.1	208.26	9.6202e-06	9.6101e-06	376.05	101.57	61.97	18.495	9.6593e-06	33.536	37.122	113.277	-149.674	-147.141	-111.688	113.721	-148.608	-144.890	-98.809	161.590	-145.854	-142.459	-143.513	-139.821	-12.785	-138.683	-8191	255	
1166.739	1	1	0	0	0.056717	0.1786	0.2748	0.1135	0.14472	0.15074	0.27823	0.060347	0.14087	0.32714	0.060892	0.11046	0.28875	0.073126	0.11158	0.182	-2.1583	-2.3833	-2.4646	-2.5792	-2.3438	-2.5167	-2.7646	-2.2896	-2.6979	-2.3792	-2.2521	-2.7562	-2.5667	-2.2521	-2.6	-2.2708	164.434	14.154	161.509	-55.507	155.976	-135.781	80.579	120.241	7.958	-94.562	-131.421	-39.353	-91.102	28.710	-3.538	124.085	0.00047976	0.00087709	0.00030739	654.1	1.0366e-05	4.3019e-06	1043.8	181.09	1.7008e-06	1.1598e-05	344.24	88.248	42.828	11.84	1.7069e-06	25.832	0.00087688	0.00088068	0.00024525	918.09	9.5926e-06	9.6126e-06	1073.5	208.12	9.5487e-06	9.5977e-06	375.84	101.43	62.012	18.455	9.6536e-06	33.247	20.404	-125.966	-43.143	-148.379	-122.715	-19.094	-148.333	-144.600	152.100	-117.842	-145.730	-142.633	-142.537	-139.781	166.935	-138.282	-8191	255	
1166.811	1	1	0	0	0.21049	0.17822	0.14475	0.081734	0.28013	0.33299	0.17823	0.14896	0.25198	0.12048	0.054242	0.25887	0.20631	0.17052	0.16336	0.33477	-2.1	-2.5062	-2.1375	-2.6437	-2.4958	-2.2687	-2.6979	-2.4646	-2.5917	-2.7708	-2.25	-2.6542	-2.2875	-2.2729	-2.4896	-2.2208	40.530	49.406	114.039	-55.545	-38.462	121.417	92.230	42.532	7.365	61.008	13.273	-143.466	-141.842	9.627	11.798	145.062	0.00028713	0.00011618	0.00029595	641.95	7.1976e-06	1.2581e-05	1041.2	180.28	1.1205e-05	5.036e-06	344.07	87.722	42.773	11.823	9.0546e-06	25.941	0.00087683	0.00088351	0.00024599	919.39	9.634e-06	9.6333e-06	1072.3	208.03	9.6461e-06	9.664e-06	375.95	101.41	62.101	18.576	9.6712e-06	33.326	72.942	-58.806	-58.285	-147.556	-40.611	-32.516	-148.501	-144.756	176.551	115.694	-145.819	-142.884	-142.608	-139.103	-35.175	-138.511	-8191	255	
1166.907	1	1	0	0	0.17894	0.084008	0.2498	0.12319	0.16152	0.12973	0.049789	0.32716	0.028418	0.10048	0.3005	0.10719	0.12129	0.22526	0.25675	0.012171	-2.0521	-2.4333	-2.0542	-2.5187	-2.5354	-2.3667	-2.6625	-2.4854	-2.5875	-2.7104	-2.4688	-2.6458	-2.475	-2.3271	-2.6292	-2.3042	10.593	125.059	114.902	40.262	-125.595	174.265	179.332	75.630	-44.268	31.263	170.122	109.797	43.701	-148.475	104.899	64.130	0.00048641	0.00067102	0.00027922	648.38	3.4931e-06	1.2439e-05	1044.7	181.28	1.0046e-05	8.1005e-06	344.83	87.491	42.721	11.947	1.5649e-05	26.122	0.00087671	0.00088522	0.00024491	920.27	9.6099e-06	9.6757e-06	1073.1	208.56	9.6545e-06	9.6823e-06	377.28	101.37	62.186	18.573	9.6872e-06	33.401	-62.023	180.611	21.011	-147.159	172.063	-73.811	-148.113	-145.108	-107.968	-49.005	-146.197	-143.071	-143.406	-140.195	-74.832	-138.575	-8191	255	
1167.026	1	1	0	0	0.16642	0.18223	0.27922	0.066862	0.28315	0.055313	0.14968	0.22859	0.1996	0.20028	0.088305	0.19603	0.024376	0.14109	0.26885	0.097813	-2.0167	-2.6104	-2.2958	-2.5604	-2.5646	-2.3292	-2.6458	-2.4625	-2.4896	-2.6542	-2.3646	-2.625	-2.4979	-2.4333	-2.5604	-2.6271	82.878	-144.189	62.082	119.660	24.465	38.706	111.884	61.594	-68.439	94.423	187.333	54.765	14.882	47.501	86.488	-20.153	0.00026626	0.00068541	0.00023325	647.65	4.4689e-06	8.1708e-06	1043.8	180.59	3.9408e-06	3.1405e-06	344.77	88.241	42.947	11.912	4.9574e-06	25.928	0.00088056	0.00088709	0.00024519	922.52	9.6286e-06	9.6816e-06	1074.9	208.32	9.6491e-06	9.6931e-06	376.66	101.72	62.24	18.501	9.5909e-06	33.311	46.706	-52.973	-115.666	-147.254	-97.367	-65.217	-148.259	-144.904	44.014	35.097	-145.595	-142.657	-143.369	-139.164	188.613	-138.723	-8191	255	
1167.122	1	1	0	0	0.14899	0.23814	0.38438	0.16434	0.10081	0.10789	0.19709	0.30328	0.14224	0.13394	0.026804	0.093054	0.12524	0.16176	0.22315	0.17891	-2.0458	-2.6	-2.2042	-2.5208	-2.5187	-2.2687	-2.8	-2.4729	-2.4229	-2.7687	-2.4417	-2.6521	-2.8	-2.3125	-2.6604	-2.5333	118.846	105.747	178.039	-94.731	144.913	94.325	125.781	165.148	23.220	90.387	70.197	100.843	179.426	61.842	-15.945	-84.886	0.00024517	0.00080826	0.00027394	642.57	9.443e-06	1.483e-05	1043.7	180.62	1.2451e-05	6.9955e-06	344.5	87.989	42.266	11.957	1.1021e-05	25.977	0.00088035	0.00088516	0.00024447	919.12	9.6655e-06	9.6208e-06	1071.6	208.08	9.6237e-06	9.6235e-06	375.24	101.63	62.136	18.52	9.568e-06	33.356	-22.499	137.345	-111.148	-147.471	38.433	-121.446	-148.262	-144.780	191.605	75.928	-146.151	-142.248	-143.079	-139.545	-11.125	-138.244	-8191	255	
1167.218	1	1	0	0	0.021581	0.13323	0.18805	0.11168	0.057288	0.033462	0.16388	0.33418	0.13553	0.2526	0.24736	0.053123	0.27028	0.10107	0.11058	0.078842	-2.0646	-2.6708	-2.4	-2.4396	-2.6083	-2.375	-2.7958	-2.4938	-2.4479	-2.6312	-2.3417	-2.6063	-2.5333	-2.3667	-2.5771	-2.5375	195.968	-103.466	-115.942	-4.504	9.701	94.522	115.928	152.247	-49.590	-148.507	-19.928	-76.085	-20.323	155.825	179.433	-24.233	0.0011727	0.0012127	0.00014401	643.46	9.578e-06	5.705e-06	1041.5	179.64	9.3153e-06	1.263e-05	343.37	87.744	42.431	11.952	9.4049e-06	26.073	0.00087985	0.00088045	0.00024358	919.29	9.6367e-06	9.6315e-06	1072.3	207.61	9.6268e-06	9.6094e-06	374.85	101.23	61.943	18.56	9.5466e-06	33.458	31.600	4.920	179.220	-148.314	23.948	5.292	-148.523	-144.859	-22.655	-133.049	-145.731	-142.853	-142.210	-139.692	-65.541	-138.056	-8191	255	
1167.315	1	1	0	0	0.09602	0.29289	0.080405	0.11058	0.12433	0.29712	0.25096	0.41547	0.064709	0.19485	0.18568	0.068687	0.20843	0.063702	0.1035	0.27473	-1.7479	-2.4208	-2.3979	-2.4854	-2.4479	-2.1833	-2.6146	-2.5563	-2.4396	-2.7938	-2.4271	-2.4	-2.5958	-2.3104	-2.5875	-2.6708	-76.630	155.906	-105.959	66.928	174.531	-153.586	127.467	144.594	151.777	-0.789	-155.264	-64.408	147.973	-146.038	49.859	-156.698	0.00048352	0.00089301	0.00037218	646.82	1.1769e-05	7.9007e-06	1043.2	180.41	5.5692e-06	5.2999e-06	344.65	87.827	42.678	11.753	1.5353e-06	25.683	0.00087797	0.00088059	0.00024336	918.45	9.6129e-06	9.5986e-06	1070.5	207.8	9.5812e-06	9.5658e-06	374.48	101.22	61.995	18.491	9.5621e-06	33.279	32.505	-56.609	-3.363	-147.952	-55.130	-137.319	-148.149	-144.657	-114.404	-26.021	-145.193	-142.505	-142.648	-139.255	7.374	-138.829	-8191	255	
1167.435	1	1	0	0	0.29614	0.28982	0.17274	0.025842	0.19494	0.19439	0.031401	0.35719	0.12068	0.038739	0.16041	0.17514	0.10321	0.4181	0.05532	0.3432	-2.0146	-2.5979	-2.4354	-2.4	-2.7083	-2.4146	-2.7417	-2.6354	-2.1729	-2.5979	-2.5396	-2.3542	-2.7396	-2.3812	-2.475	-2.6708	-86.147	197.441	122.973	29.141	-124.542	166.148	160.414	128.945	122.210	171.921	15.142	121.116	74.028	-125.856	16.434	169.018	0.00073673	0.00032037	0.00025516	643.81	4.2899e-06	1.4567e-05	1036.2	179.73	2.0131e-05	1.0569e-05	341.45	87.244	42.018	11.853	1.2741e-05	25.627	0.00087547	0.00087912	0.00024404	919.17	9.5948e-06	9.5811e-06	1066.6	207.04	9.6414e-06	9.5421e-06	372.78	100.99	61.752	18.457	9.5563e-06	33.254	-16.671	-86.879	-85.551	-148.258	44.587	103.009	-148.494	-144.519	-31.729	-33.355	-145.961	-142.671	-142.775	-140.121	-29.248	-138.387	-8191	255	
1167.507	1	1	0	0	0.12481	0.11539	0.050769	0.21783	0.12265	0.48193	0.285	0.33946	0.30148	0.24335	0.19997	0.1899	0.17661	0.26312	0.13096	0.067959	-1.9792	-2.4292	-2.3104	-2.2708	-2.8021	-2.3104	-2.75	-2.6458	-2.2646	-2.7021	-2.4333	-2.4271	-2.4646	-2.3271	-2.525	-2.6937	151.266	-58.706	193.750	90.513	-68.763	-38.162	169.964	153.409	-53.739	-32.180	173.205	-23.415	193.472	112.254	-46.834	-107.019	0.00071798	0.0010142	0.00013958	650.22	5.2921e-06	1.9233e-06	1039.2	179.79	5.2183e-06	4.5968e-06	344.62	87.908	43.246	11.92	5.0583e-06	25.896	0.00087181	0.00087406	0.00024358	920.67	9.57e-06	9.5749e-06	1068.6	207.5	9.5131e-06	9.5113e-06	374.5	101.32	61.801	18.419	9.4576e-06	33.244	46.464	6.214	-115.943	-147.887	-160.004	43.207	-148.469	-145.240	2.084	167.354	-146.268	-142.888	-143.556	-139.709	78.532	-138.650	-8191	255	
1167.603	1	1	0	0	0.24774	0.12662	0.11765	0.18481	0.090303	0.14262	0.39664	0.18134	0.064277	0.056558	0.11316	0.13655	0.28824	0.063512	0.092918	0.10583	-1.8979	-2.4292	-2.4437	-2.325	-2.6354	-2.4125	-2.5542	-2.7438	-2.2854	-2.525	-2.5604	-2.3667	-2.6937	-2.4104	-2.4417	-2.9188	112.198	21.523	64.628	194.075	-53.685	91.024	145.775	170.359	-93.152	-69.291	-103.287	186.832	145.414	-147.178	-25.704	-130.689	0.0002153	0.00055686	0.00014751	650.57	7.6811e-06	4.8417e-06	1036.7	179.36	1.1088e-05	8.1489e-06	343.19	88.155	42.782	12.052	7.3937e-06	26.102	0.00086236	0.00086983	0.0002421	918.68	9.5323e-06	9.4887e-06	1067.2	206.66	9.4797e-06	9.5027e-06	373.33	101.12	61.574	18.544	9.4908e-06	33.325	-7.466	57.584	-87.401	-148.604	86.308	1.134	-148.305	-144.885	-122.010	75.738	-146.127	-142.462	-143.112	-139.476	-161.100	-138.383	-8191	255	
1167.724	1	1	0	0	0.32299	0.093398	0.12852	0.12671	0.12914	0.11187	0.18244	0.16366	0.25006	0.28228	0.16861	0.25855	0.19348	0.14001	0.050711	0.14723	-1.875	-2.4542	-2.5312	-2.3	-2.5396	-2.5979	-2.425	-2.7021	-2.2917	-2.5458	-2.5875	-2.3292	-2.7313	-2.5312	-2.4208	-2.5042	49.593	143.745	-117.654	101.314	-145.149	-76.192	127.719	-103.494	45.763	-137.882	-49.190	175.694	-100.166	-58.649	-59.415	35.087	0.00061341	0.00071839	0.00023652	645.36	7.5797e-06	7.4118e-06	1041.3	180.62	1.0557e-05	1.3413e-05	338.4	87.878	42.879	11.934	1.5814e-05	25.861	0.000859	0.00086387	0.0002409	915.22	9.4073e-06	9.4836e-06	1068.2	207.14	9.4757e-06	9.4387e-06	371.55	100.84	61.516	18.41	9.4864e-06	33.09	41.718	-108.274	25.337	-148.650	-68.344	-125.415	-148.078	-144.993	54.481	81.349	-145.744	-142.436	-143.329	-139.933	179.865	-138.297	-8191	255	
1167.820	1	1	0	0	0.2004	0.15808	0.12895	0.2333	0.24806	0.097049	0.10652	0.24282	0.11529	0.17727	0.07532	0.038656	0.18998	0.28545	0.081767	0.028782	-1.8708	-2.4708	-2.5958	-2.2521	-2.7208	-2.475	-2.3625	-2.6896	-2.4375	-2.3792	-2.8979	-2.3771	-2.6312	-2.5729	-2.1958	-2.7396	-82.066	-87.963	-9.265	-90.056	118.130	61.955	151.805	-147.348	175.722	45.162	27.440	161.908	0.183	178.397	138.002	13.767	0.00048798	0.0007116	0.00013679	648.81	3.2232e-06	1.8109e-05	1042.5	180.29	4.1057e-06	3.69e-06	340.04	88.613	42.724	12.084	1.17e-05	26.151	0.00085616	0.0008641	0.00024149	915.59	9.4222e-06	9.4828e-06	1069.6	207.11	9.4683e-06	9.4401e-06	372.82	101.3	61.589	18.581	9.4804e-06	33.214	26.172	28.506	-130.264	-147.664	-104.970	-116.464	-148.414	-144.514	93.409	-21.740	-146.047	-142.294	-142.442	-139.320	184.908	-138.515	-8191	255	
1167.916	1	1	0	0	0.18915	0.20568	0.13017	0.12475	0.039356	0.077885	0.30984	0.20498	0.11077	0.059612	0.056089	0.21139	0.12994	0.21092	0.26727	0.18421	-2.1208	-2.2854	-2.5938	-2.2771	-2.4479	-2.5854	-2.5104	-2.6125	-2.4562	-2.3604	-2.8167	-2.4896	-2.4708	-2.6375	-2.3542	-2.5708	-45.667	149.288	-15.305	-154.613	-109.402	0.629	58.741	186.342	111.024	38.644	-135.833	-140.046	150.021	107.277	-94.613	-138.856	0.00042258	0.0007885	0.00020356	648.82	7.4706e-06	4.2031e-06	1036.2	180.84	1.2044e-05	7.2784e-06	343.4	88.312	43.033	11.85	1.2344e-05	25.912	0.00086053	0.00086903	0.00024251	917.64	9.486e-06	9.5573e-06	1069.1	207.34	9.499e-06	9.529e-06	374.9	101.3	61.821	18.493	9.5239e-06	33.207	34.158	173.768	148.876	-147.115	-91.307	49.499	-148.658	-144.814	161.776	-102.160	-145.768	-143.081	-142.740	-139.348	180.758	-138.779	-8191	255	
1168.035	1	1	0	0	0.015319	0.12868	0.12368	0.12733	0.35625	0.18695	0.093414	0.11052	0.13127	0.26108	0.11782	0.098692	0.11354	0.005741	0.05698	0.12723	-2.1771	-2.1417	-2.4771	-2.3479	-2.4938	-2.5625	-2.2188	-2.7167	-2.4083	-2.3271	-2.6437	-2.5312	-2.4104	-2.6479	-2.525	-2.6479	123.898	93.274	132.102	-35.704	74.236	21.198	-153.576	-152.814	111.655	-9.850	131.859	-78.061	140.590	-109.835	43.023	-159.730	0.00059134	0.00060113	0.00010249	652.82	1.0498e-05	1.5822e-05	1041.5	180.38	1.1456e-05	1.1174e-05	344.66	87.887	43.058	11.949	6.551e-06	25.744	0.00086754	0.00087827	0.00024327	920.46	9.563e-06	9.59e-06	1069	207.67	9.5295e-06	9.5386e-06	375.29	101.24	62.03	18.495	9.4849e-06	33.106	-41.866	140.101	-46.964	-147.759	-6.546	4.441	-148.075	-144.952	-11.401	180.956	-146.206	-142.349	-142.707	-139.352	101.189	-138.684	-8191	255	
1168.106	1	1	0	0	0.31207	0.24347	0.302	0.11914	0.10851	0.048261	0.2159	0.31051	0.12686	0.12573	0.11841	0.19674	0.14932	0.041793	0.19753	0.43233	-2.0812	-2.3312	-2.5917	-2.2979	-2.5396	-2.7146	-2.4375	-2.6688	-2.4479	-2.3417	-2.8083	-2.3958	-2.3979	-2.7083	-2.325	-2.4646	129.080	54.923	144.497	-73.488	49.028	-147.965	138.852	39.855	-141.545	-85.766	157.847	147.866	121.982	31.603	-59.208	-161.795	0.00038317	0.00063714	0.00024771	650.88	4.673e-06	1.1013e-05	1038.5	181.73	1.0424e-05	5.1306e-06	342.99	88.507	42.916	12.016	3.7678e-06	25.717	0.00086935	0.0008734	0.00024276	917.2	9.508e-06	9.5903e-06	1068.3	208.08	9.579e-06	9.5501e-06	374.72	101.47	62.01	18.532	9.4892e-06	33.102	77.467	-59.758	49.461	-147.891	67.306	7.731	-148.171	-144.613	112.588	74.263	-145.912	-142.929	-142.889	-139.201	-15.213	-138.388	-8191	255	
1168.203	1	1	0	0	0.14618	0.32376	0.12686	0.051167	0.14468	0.04265	0.12626	0.1972	0.08285	0.14975	0.17263	0.10163	0.13462	0.090687	0.16356	0.11031	-2.1333	-2.3042	-2.5542	-2.5771	-2.5521	-2.4354	-2.4167	-2.5479	-2.5667	-2.3917	-2.6896	-2.4021	-2.325	-2.65	-2.4583	-2.45	178.863	103.626	126.035	118.869	-16.019	-95.005	-132.779	-32.609	-15.844	136.189	73.827	123.239	93.469	-77.701	-83.755	114.938	0.00071078	0.0011351	5.9675e-05	645.84	8.9965e-06	9.7441e-06	1048.1	182.98	8.2777e-06	5.5833e-06	348.45	89.153	43.285	11.862	8.8809e-06	26.129	0.00086522	0.00087548	0.00024221	922.88	9.5133e-06	9.5337e-06	1076.4	209.2	9.5196e-06	9.5501e-06	377.28	101.66	62.188	18.457	9.3927e-06	33.156	20.132	-55.984	121.516	-147.871	-101.809	60.416	-148.403	-145.054	-161.888	79.867	-145.922	-142.263	-142.469	-139.555	-40.189	-137.797	-8191	255	
1168.323	1	1	0	0	0.10231	0.080573	0.26817	0.20249	0.078955	0.1316	0.29152	0.10054	0.16904	0.20122	0.11789	0.1086	0.10918	0.12814	0.25241	0.20908	-2.175	-2.1854	-2.5229	-2.5333	-2.3854	-2.5292	-2.3937	-2.4375	-2.55	-2.4188	-2.6521	-2.5146	-2.3125	-2.6583	-2.5771	-2.4896	40.364	71.117	-94.546	-55.617	-146.726	-161.716	162.339	-110.405	56.315	13.768	167.596	-122.233	137.745	-43.256	-59.739	163.556	0.00047453	0.0012141	9.5006e-05	653.59	8.4322e-06	1.1347e-05	1049.5	181.87	5.9039e-06	1.0516e-05	344.49	89.073	43.335	11.92	1.0973e-05	25.961	0.00086323	0.00086441	0.00023966	917.15	9.5036e-06	9.4387e-06	1074.4	208.23	9.5002e-06	9.4062e-06	375.49	101.39	61.772	18.428	9.4018e-06	33.159	73.113	9.885	-24.806	-148.196	93.400	-137.875	-148.350	-144.969	-96.440	175.698	-146.001	-142.846	-142.423	-139.192	-6.820	-138.775	-8191	255	
#DATA ENDS
