BOXY.EXE: ISS Imagent and Oximeter Data Acquisition Program Version 0.80
Ascii Record File

#ACQ INFORMATION
2  Detector Channels 
16  External MUX Channels 
1  Auxiliary Channels 
5000  Waveform (CCF) Frequency (Hz)
1  Waveforms Skipped 
30  Waveforms Averaged 
1  Cycles Averaged 
16  Acquisitions per Waveform 
10.0806  Updata Rate (Hz) 

#FILE INFORMATION
TRUE -- External MUX Channel results are PARSED.
FALSE -- AC DC and Phase are NOT grouped.
TRUE -- Companion Program Settings File CREATED.
FALSE -- AC data not excluded
FALSE -- DC data not excluded
FALSE -- Phase data not excluded
FALSE -- Auxillary Chn. data not excluded
Tab delimiters

#CALIBRATION STATE
TRUE -- Waveform Calibration Values APPLIED.


#AUX CALIBRATION VALUES
Val Type	aux-1	

Term	1.0000e+00	
Factor	0.0000e+00	


#WF CALIBRATION VALUES
A = Detector Channel
Val Type	A-AC1	A-AC2	A-AC3	A-AC4	A-AC5	A-AC6	A-AC7	A-AC8	A-AC9	A-AC10	A-AC11	A-AC12	A-AC13	A-AC14	A-AC15	A-AC16	A-DC1	A-DC2	A-DC3	A-DC4	A-DC5	A-DC6	A-DC7	A-DC8	A-DC9	A-DC10	A-DC11	A-DC12	A-DC13	A-DC14	A-DC15	A-DC16	A-Ph1	A-Ph2	A-Ph3	A-Ph4	A-Ph5	A-Ph6	A-Ph7	A-Ph8	A-Ph9	A-Ph10	A-Ph11	A-Ph12	A-Ph13	A-Ph14	A-Ph15	A-Ph16	

Term	0.00000e+00	0.00000e+00	0.00000e+00	0.00000e+00	0.00000e+00	0.00000e+00	0.00000e+00	0.00000e+00	0.00000e+00	0.00000e+00	0.00000e+00	0.00000e+00	0.00000e+00	0.00000e+00	0.00000e+00	0.00000e+00	0.00000e+00	0.00000e+00	0.00000e+00	0.00000e+00	0.00000e+00	0.00000e+00	0.00000e+00	0.00000e+00	0.00000e+00	0.00000e+00	0.00000e+00	0.00000e+00	0.00000e+00	0.00000e+00	0.00000e+00	0.00000e+00	0.00000e+00	0.00000e+00	0.00000e+00	0.00000e+00	0.00000e+00	0.00000e+00	0.00000e+00	0.00000e+00	0.00000e+00	0.00000e+00	0.00000e+00	0.00000e+00	0.00000e+00	0.00000e+00	0.00000e+00	0.00000e+00	
Factor	1.00000e+00	1.00000e+00	1.00000e+00	1.00000e+00	1.00000e+00	1.00000e+00	1.00000e+00	1.00000e+00	1.00000e+00	1.00000e+00	1.00000e+00	1.00000e+00	1.00000e+00	1.00000e+00	1.00000e+00	1.00000e+00	1.00000e+00	1.00000e+00	1.00000e+00	1.00000e+00	1.00000e+00	1.00000e+00	1.00000e+00	1.00000e+00	1.00000e+00	1.00000e+00	1.00000e+00	1.00000e+00	1.00000e+00	1.00000e+00	1.00000e+00	1.00000e+00	X	X	X	X	X	X	X	X	X	X	X	X	X	X	X	X	

B = Detector Channel
Val Type	B-AC1	B-AC2	B-AC3	B-AC4	B-AC5	B-AC6	B-AC7	B-AC8	B-AC9	B-AC10	B-AC11	B-AC12	B-AC13	B-AC14	B-AC15	B-AC16	B-DC1	B-DC2	B-DC3	B-DC4	B-DC5	B-DC6	B-DC7	B-DC8	B-DC9	B-DC10	B-DC11	B-DC12	B-DC13	B-DC14	B-DC15	B-DC16	B-Ph1	B-Ph2	B-Ph3	B-Ph4	B-Ph5	B-Ph6	B-Ph7	B-Ph8	B-Ph9	B-Ph10	B-Ph11	B-Ph12	B-Ph13	B-Ph14	B-Ph15	B-Ph16	

Term	0.00000e+00	0.00000e+00	0.00000e+00	0.00000e+00	0.00000e+00	0.00000e+00	0.00000e+00	0.00000e+00	0.00000e+00	0.00000e+00	0.00000e+00	0.00000e+00	0.00000e+00	0.00000e+00	0.00000e+00	0.00000e+00	0.00000e+00	0.00000e+00	0.00000e+00	0.00000e+00	0.00000e+00	0.00000e+00	0.00000e+00	0.00000e+00	0.00000e+00	0.00000e+00	0.00000e+00	0.00000e+00	0.00000e+00	0.00000e+00	0.00000e+00	0.00000e+00	-1.06138e+02	-1.29047e+02	-1.21568e+02	-1.83476e+02	-5.52129e+01	-7.56509e+01	-1.59880e+02	-1.62015e+02	-5.74747e+01	-6.97283e+01	-1.75117e+02	-1.71928e+02	-1.83346e+02	-1.76281e+02	-5.73029e+01	-1.49823e+02	
Factor	1.52751e-05	1.27225e-04	4.13959e-05	1.84327e-01	1.04722e-06	1.71902e-06	1.70247e-01	4.74238e-02	9.30981e-07	1.49024e-06	9.31797e-02	3.12405e-02	3.94049e-02	8.22718e-03	1.10834e-06	1.22183e-02	1.99470e-06	2.18733e-06	6.09788e-07	9.24792e-02	2.38180e-08	2.40278e-08	8.06688e-02	2.40565e-02	2.37376e-08	2.40181e-08	4.51395e-02	1.53027e-02	1.98509e-02	4.17740e-03	2.39144e-08	5.96623e-03	X	X	X	X	X	X	X	X	X	X	X	X	X	X	X	X	



#DISTANCE SETTINGS
A = Detector Channel
A-1	A-2	A-3	A-4	A-5	A-6	A-7	A-8	A-9	A-10	A-11	A-12	A-13	A-14	A-15	A-16	

2.5000e+00	3.0000e+00	2.5000e+00	3.0000e+00	2.0000e+00	3.0000e+00	1.5000e+00	3.0000e+00	3.0000e+00	3.0000e+00	3.0000e+00	3.0000e+00	3.0000e+00	3.0000e+00	1.5000e+00	3.0000e+00	

B = Detector Channel
B-1	B-2	B-3	B-4	B-5	B-6	B-7	B-8	B-9	B-10	B-11	B-12	B-13	B-14	B-15	B-16	

1.0000e+01	1.0000e+01	1.0000e+01	1.4400e+00	1.0000e+01	1.0000e+01	1.5100e+00	1.9400e+00	1.0000e+01	1.0000e+01	1.9900e+00	2.4900e+00	2.4100e+00	2.9000e+00	1.0000e+01	2.9800e+00	




#DATA BEGINS
time	group	step	mark	flag	A-AC1	A-AC2	A-AC3	A-AC4	A-AC5	A-AC6	A-AC7	A-AC8	A-AC9	A-AC10	A-AC11	A-AC12	A-AC13	A-AC14	A-AC15	A-AC16	A-DC1	A-DC2	A-DC3	A-DC4	A-DC5	A-DC6	A-DC7	A-DC8	A-DC9	A-DC10	A-DC11	A-DC12	A-DC13	A-DC14	A-DC15	A-DC16	A-Ph1	A-Ph2	A-Ph3	A-Ph4	A-Ph5	A-Ph6	A-Ph7	A-Ph8	A-Ph9	A-Ph10	A-Ph11	A-Ph12	A-Ph13	A-Ph14	A-Ph15	A-Ph16	B-AC1	B-AC2	B-AC3	B-AC4	B-AC5	B-AC6	B-AC7	B-AC8	B-AC9	B-AC10	B-AC11	B-AC12	B-AC13	B-AC14	B-AC15	B-AC16	B-DC1	B-DC2	B-DC3	B-DC4	B-DC5	B-DC6	B-DC7	B-DC8	B-DC9	B-DC10	B-DC11	B-DC12	B-DC13	B-DC14	B-DC15	B-DC16	B-Ph1	B-Ph2	B-Ph3	B-Ph4	B-Ph5	B-Ph6	B-Ph7	B-Ph8	B-Ph9	B-Ph10	B-Ph11	B-Ph12	B-Ph13	B-Ph14	B-Ph15	B-Ph16	aux-1	digaux	

657.921	1	1	0	256	0.05406	0.20776	0.19118	0.29796	0.41683	0.11354	0.27661	0.33701	0.51129	0.25769	0.21188	0.087393	0.28115	0.075015	0.23525	0.066257	-0.78958	-0.30208	-0.71667	-0.875	-0.064583	-0.83333	-0.68542	-0.50625	-0.825	-0.41667	-0.77708	-1.0604	-0.25417	-0.82708	-0.46458	-0.34583	11.790	69.966	-11.624	191.121	-2.706	-1.520	174.593	146.992	167.081	154.692	-69.896	91.476	-35.348	28.386	102.695	-93.997	0.00032265	0.00020661	0.00019439	1304.8	3.4228e-06	5.1125e-06	1297	359.4	1.7755e-06	2.7659e-06	412.34	136.08	117.77	40.872	2.2194e-06	50.876	0.00021719	0.00019954	5.4911e-05	1301.1	2.1874e-06	2.1441e-06	1303.4	362.54	2.1686e-06	2.1121e-06	411.91	137.2	118.23	41.157	2.127e-06	51.006	-131.399	-83.994	-55.763	-124.853	4.917	-33.158	-124.938	-120.305	-11.070	9.916	-120.234	-116.495	-115.607	-111.040	43.747	-111.416	-8191	255	
658.017	1	1	0	0	0.29112	0.13554	0.30204	0.29293	0.24076	0.14913	0.066758	0.14169	0.21938	0.22795	0.14742	0.23555	0.33146	0.18846	0.14284	0.12006	-0.88333	-0.37708	-0.64583	-1.2042	-0.0625	-0.83125	-0.90417	-0.44792	-1.1562	-0.4875	-0.66458	-0.88333	-0.19375	-0.86458	-0.65417	-0.425	84.505	-101.371	21.702	183.218	2.656	127.917	153.560	198.682	18.272	206.541	-98.398	178.996	-120.362	196.362	-112.705	196.905	0.00030127	0.00030639	7.649e-05	1306	3.4062e-06	5.1211e-06	1296.1	361.01	2.3732e-06	3.3567e-06	412.7	135.81	118.39	41.022	1.6666e-06	50.643	0.00020394	0.00018954	5.2522e-05	1301.1	2.1406e-06	2.0297e-06	1305.2	363.29	2.071e-06	2.0299e-06	412.37	137.46	118.67	41.245	2.0795e-06	51.132	-133.266	-19.202	-47.986	-124.335	-29.466	-3.258	-124.661	-119.874	-6.382	45.516	-120.530	-116.352	-115.584	-111.224	48.682	-111.654	-8191	255	
658.113	1	1	0	0	0.26134	0.13513	0.024362	0.46265	0.055936	0.26213	0.37415	0.45583	0.14606	0.15116	0.18481	0.25741	0.18941	0.19829	0.20408	0.36143	-0.66042	-0.46667	-0.45833	-1.0562	-0.30417	-0.67708	-0.88333	-0.37708	-1.0042	-0.4125	-0.5625	-0.97083	-0.12083	-1.0208	-0.91667	-0.51875	44.504	-1.879	-89.769	166.056	169.419	58.733	120.187	124.757	205.510	211.924	92.942	169.656	-106.024	118.248	89.793	197.660	0.00028174	0.00057355	0.00016946	1297.7	3.7438e-06	3.6549e-06	1293.2	359.09	2.4595e-06	5.3347e-06	410.43	135.58	117.92	40.856	2.2321e-06	50.606	0.00020617	0.00018842	5.2264e-05	1301	2.063e-06	2.0192e-06	1303.8	363.12	2.0529e-06	1.9619e-06	411.51	137.22	118.55	41.248	2.0112e-06	51.072	-130.604	-38.276	-46.304	-124.933	0.915	-14.232	-125.126	-120.308	9.488	-7.857	-120.832	-116.736	-115.869	-111.368	7.082	-111.766	-8191	255	
658.234	1	1	0	0	0.19587	0.11256	0.15226	0.21818	0.094119	0.14468	0.083918	0.29286	0.15769	0.2449	0.11453	0.41335	0.14881	0.10616	0.054406	0.24743	-0.50833	-0.56667	-0.25625	-1.2083	-0.29583	-0.57083	-0.90625	-0.33333	-1.0208	-0.82917	-0.47917	-1.0208	-0.3125	-0.68125	-1.0271	-0.22292	-78.422	-114.889	-116.027	-87.392	-69.083	51.312	149.959	106.788	-124.542	-92.584	-135.565	156.608	178.698	154.661	-32.524	126.525	0.0003025	0.00037408	7.8895e-05	1289.5	2.3096e-06	5.4417e-06	1286.8	359.8	1.3562e-06	6.2752e-06	412.38	136.31	117.5	40.779	5.3123e-06	50.536	0.00019986	0.00018131	5.1451e-05	1295.9	2.0481e-06	1.9988e-06	1300.4	362.72	2.0401e-06	1.9726e-06	411.91	137.48	118.23	41.263	2.0504e-06	51.05	-133.252	-46.948	-35.237	-124.685	36.364	24.731	-124.854	-120.188	-15.750	-8.484	-120.823	-116.698	-116.088	-110.915	-20.422	-111.697	-8191	255	
658.328	1	1	0	0	0.14104	0.23182	0.13698	0.13431	0.16071	0.26777	0.26559	0.20352	0.1072	0.23688	0.16749	0.27359	0.023574	0.1977	0.088061	0.1216	-0.42917	-0.67708	-0.11875	-1.1833	-0.15208	-0.43125	-1.2896	-0.35417	-0.86458	-0.71458	-0.21042	-1.2604	-0.38125	-0.62917	-0.86042	-0.20833	38.516	127.692	-6.822	1.277	-45.812	-93.693	161.729	209.749	-133.034	-94.031	-92.573	-73.203	65.312	12.110	-42.927	-69.153	0.00031232	0.00045644	0.00016871	1297.4	2.6204e-06	4.0598e-06	1295.6	358.81	2.4286e-06	8.0035e-06	412.76	136.36	118.14	40.904	3.2648e-06	50.763	0.00019689	0.00018117	5.0889e-05	1299.6	2.0584e-06	1.9925e-06	1304.2	362.46	2.0184e-06	1.9381e-06	412.33	137.9	118.52	41.288	1.9689e-06	51.134	217.254	-39.786	-65.844	-124.530	32.226	-65.743	-124.629	-120.172	-55.661	-3.705	-120.439	-116.377	-115.820	-111.042	45.782	-111.505	-8191	255	
658.425	1	1	0	0	0.23541	0.18854	0.021683	0.33384	0.2358	0.020067	0.21644	0.22784	0.082981	0.093748	0.12027	0.20708	0.11473	0.29881	0.24889	0.28982	-0.30833	-0.76875	-0.0041667	-1.1604	-0.38125	-0.61458	-1.2646	-0.38958	-0.55417	-0.85417	-0.22708	-1.1313	-0.62083	-0.29375	-1.1354	-0.37708	-57.977	179.860	-23.310	200.720	72.792	-77.499	116.755	155.031	66.774	127.318	-129.061	-75.552	135.665	-136.200	196.364	181.328	0.00029265	0.00040446	0.00014151	1300.6	2.0419e-06	5.8652e-06	1296.7	360.5	2.8232e-06	4.2824e-06	415.15	136.83	118.6	41	3.3641e-06	50.956	0.00019826	0.00018089	5.0981e-05	1300.6	2.0074e-06	1.916e-06	1303.4	363.38	2.0486e-06	1.9382e-06	413.33	138.2	118.87	41.397	1.954e-06	51.249	-136.091	-58.933	-76.284	-124.531	11.745	9.959	-124.425	-120.142	-51.051	37.729	-120.728	-116.267	-115.548	-110.788	11.002	-111.350	-8191	255	
658.498	1	1	0	0	0.10865	0.17342	0.16534	0.19102	0.18384	0.27383	0.053045	0.20118	0.27977	0.035194	0.20495	0.092582	0.15863	0.14876	0.075214	0.052616	-0.32708	-0.73958	-0.11042	-1.0396	-0.6875	-0.27917	-1.2229	-0.45208	-0.50417	-1.0104	-0.41458	-0.77292	-0.54375	-0.28542	-0.95	-0.45625	39.425	-28.010	-137.586	165.659	49.887	130.979	94.672	-99.269	-2.785	-46.645	127.398	-40.022	3.317	-60.742	-35.696	-10.962	0.00029654	0.00041222	0.00010449	1304.8	8.2231e-07	5.9427e-06	1301.5	361.03	2.6525e-06	4.1591e-06	415.38	137.56	119.37	41.322	2.5565e-06	51.13	0.00019653	0.00017473	4.8725e-05	1304.4	1.9956e-06	1.9394e-06	1311.6	364.39	1.9926e-06	1.9539e-06	414.79	138.56	119.32	41.608	1.9372e-06	51.476	-135.167	-97.510	6.707	-124.211	-1.118	16.671	-124.317	-119.918	-38.244	30.447	-120.189	-116.207	-115.252	-110.685	-25.038	-111.178	-8191	255	
658.617	1	1	0	0	0.28297	0.028234	0.092117	0.043485	0.082856	0.17663	0.16022	0.34179	0.018493	0.041413	0.08572	0.24561	0.2469	0.44621	0.2704	0.14689	-0.22083	-1.0042	0.010417	-0.86458	-0.625	-0.085417	-1.1896	-0.54167	-0.39583	-0.94167	-0.34792	-1.0792	-0.95625	-0.58125	-1.0812	-0.76458	74.762	161.877	-74.015	-86.699	2.712	-11.627	178.695	168.073	202.876	106.776	-115.146	85.243	157.857	190.468	-60.017	142.857	0.00029387	0.00047846	0.00020912	1313.4	2.3858e-06	2.8361e-06	1304.4	361.6	2.9791e-06	4.7054e-06	415.67	137.43	119.07	41.327	3.8887e-06	51.339	0.00019792	0.00017809	4.9616e-05	1309.8	1.9539e-06	1.9282e-06	1314	364.29	1.9594e-06	1.8926e-06	414.17	138.68	119.29	41.62	1.9381e-06	51.526	-133.537	-85.709	-32.276	-124.220	35.160	28.258	-124.483	-120.069	-8.034	0.542	-120.369	-115.876	-115.248	-110.471	20.514	-110.961	-8191	255	
658.713	1	1	0	0	0.072115	0.13396	0.23367	0.18689	0.21686	0.085733	0.2292	0.31756	0.27518	0.16665	0.21293	0.25004	0.094274	0.22421	0.3728	0.12735	-0.13958	-0.91667	-0.30833	-0.76458	-0.85	-0.14167	-1.0583	-0.775	-0.19583	-1.1042	-0.59167	-0.64167	-0.96667	-0.20208	-0.84792	-0.7125	216.697	18.361	-106.372	-132.359	-117.686	118.733	192.846	125.287	-55.122	85.174	113.664	-133.589	222.065	-119.161	-133.251	165.270	0.00029761	0.00036753	0.00010372	1309.8	1.6656e-06	5.0787e-06	1303.3	361.54	4.1619e-06	4.3284e-06	414.32	136.59	118.73	41.314	2.8622e-06	50.945	0.00019075	0.00017428	4.8794e-05	1307.9	1.9736e-06	1.9426e-06	1311	363.87	1.9957e-06	1.929e-06	413.72	138.23	119.05	41.536	1.9696e-06	51.315	-132.869	-73.914	-36.867	-123.853	-33.821	-24.374	-124.141	-119.798	-17.868	19.754	-120.485	-116.025	-115.468	-110.802	54.846	-111.136	-8191	255	
658.809	1	1	0	0	0.18295	0.2657	0.11659	0.33459	0.12197	0.17687	0.17402	0.31275	0.17544	0.17079	0.10442	0.10862	0.13965	0.32699	0.079585	0.16762	-0.1125	-0.98333	-0.4625	-0.74375	-0.98333	-0.25625	-1.0917	-0.91458	-0.35	-1.1375	-0.61458	-0.675	-1.0667	-0.36667	-0.66875	-0.74792	43.525	-65.196	170.830	199.339	-116.342	188.755	-111.440	216.661	-116.049	116.779	10.438	47.404	186.375	170.395	-120.031	184.587	0.00030581	0.00047052	0.00012327	1305.4	3.0888e-06	5.2007e-06	1297.6	360.55	2.3847e-06	3.8217e-06	414.22	137.04	118.57	41.124	2.3098e-06	50.929	0.00019678	0.00017537	4.9051e-05	1303	1.987e-06	1.9543e-06	1305.7	363.15	2.0152e-06	1.8807e-06	413.52	138.24	118.72	41.375	1.9533e-06	51.232	-136.000	-37.024	-62.827	-124.075	24.393	9.763	-124.135	-119.675	-18.949	-12.476	-120.592	-116.328	-116.093	-111.008	-19.771	-111.664	-8191	255	
658.905	1	1	0	0	0.13563	0.21954	0.10678	0.32874	0.13068	0.39182	0.22068	0.086366	0.037075	0.1043	0.14516	0.2099	0.36288	0.35776	0.1011	0.13836	0.19792	-0.66042	-0.49583	-0.47292	-1.1646	-0.14583	-1.1063	-1.0771	-0.21875	-0.94375	-0.66042	-0.59375	-1.1	-0.22917	-0.44375	-1.0667	-116.651	-132.296	209.476	183.018	141.752	-40.969	-74.812	66.100	189.521	-62.844	118.142	-136.592	-48.743	-76.005	13.325	95.465	0.00028913	0.00041886	0.00014527	1299	2.4191e-06	4.8346e-06	1295.6	361.13	3.223e-06	4.0728e-06	412.49	136.9	118.52	41.432	4.714e-06	51.095	0.00019522	0.00017718	4.9459e-05	1298.4	1.9417e-06	1.9714e-06	1303.2	362.93	1.9767e-06	1.9492e-06	412.74	138.32	119	41.537	1.9438e-06	51.344	-133.167	-59.976	-66.536	-124.367	35.800	5.497	-124.317	-120.116	-39.465	-14.854	-120.529	-116.360	-116.023	-111.123	10.479	-111.756	-8191	255	
659.026	1	1	0	0	0.11449	0.12869	0.18621	0.28974	0.13012	0.33245	0.12273	0.39051	0.13496	0.27092	0.090667	0.21091	0.10455	0.28256	0.11034	0.26969	0.31042	-1.2146	-0.42292	-0.56458	-0.86458	-0.44583	-0.88333	-1.1458	-0.22708	-1.0229	-0.71875	-0.3875	-1.0083	-0.45833	-0.34375	-1.1771	-129.901	100.322	176.786	202.723	-66.440	-12.958	193.519	166.860	-54.775	74.239	91.425	191.570	127.634	-123.637	-20.014	215.665	0.00034561	0.00035942	0.00013553	1304.4	2.4228e-06	6.8127e-06	1296.2	360.3	2.6965e-06	5.0954e-06	414.69	137.09	119.16	41.142	3.7259e-06	50.991	0.00019199	0.00017284	4.868e-05	1301.6	1.8947e-06	1.8367e-06	1305.2	363.4	1.9431e-06	1.8628e-06	413.94	138.37	119.15	41.419	1.9143e-06	51.358	221.172	-35.625	-22.383	-124.751	33.979	-14.293	-124.863	-120.298	-29.880	13.738	-120.816	-116.348	-116.094	-111.180	9.047	-111.774	-8191	255	
659.122	1	1	0	0	0.10771	0.17945	0.09126	0.080377	0.09501	0.17641	0.20176	0.35663	0.2354	0.26285	0.075656	0.20139	0.040257	0.16161	0.3744	0.10374	0.05	-0.98542	-0.65833	-0.45417	-0.86875	-0.47292	-0.47292	-1.3354	-0.29583	-0.81875	-0.85417	-0.29167	-1.0688	-0.38542	-0.45208	-1.1021	135.082	-66.754	128.928	204.621	159.083	-33.636	-108.079	193.234	122.316	124.779	50.403	220.076	17.525	183.988	-42.028	60.075	0.00028765	0.00024351	0.00015403	1296.8	4.2863e-06	7.253e-06	1293.6	360.58	2.4634e-06	2.8329e-06	414.37	136.41	118.63	41.142	2.5173e-06	50.979	0.00019174	0.00017094	4.9076e-05	1297.5	1.9139e-06	1.863e-06	1303.3	362.77	1.9337e-06	1.8879e-06	412.94	138.28	118.87	41.39	1.9487e-06	51.416	-134.248	-54.211	-31.630	-124.539	18.487	-3.930	-124.566	-120.189	-17.460	82.894	-120.556	-116.052	-115.704	-111.050	26.913	-111.683	-8191	255	
659.218	1	1	0	0	0.21373	0.093614	0.24193	0.33075	0.16304	0.074605	0.37754	0.30384	0.11601	0.13048	0.2089	0.30838	0.15952	0.19364	0.14992	0.20584	0.025	-0.79792	-0.90833	-0.26042	-0.79167	-0.6125	-0.59375	-1.2125	-0.22708	-0.62917	-0.94167	-0.20208	-1.2062	-0.8	-0.19167	-1.2771	168.096	211.728	119.728	146.861	12.645	-108.082	136.482	209.012	76.297	28.688	-119.479	155.205	196.211	160.706	179.996	159.765	0.00031923	0.00039078	0.00010995	1295.7	1.9098e-06	5.5788e-06	1298.5	359.15	3.6697e-06	3.0445e-06	413.22	136.56	118.38	41.11	2.4275e-06	50.962	0.00019443	0.00016985	4.8615e-05	1296.9	1.9428e-06	1.8983e-06	1303.2	362.79	1.9678e-06	1.9117e-06	413.47	138.19	119.03	41.465	1.989e-06	51.25	-135.251	-52.610	6.094	-124.388	0.925	-25.220	-124.641	-120.049	-11.643	3.466	-120.752	-116.687	-116.229	-111.498	0.790	-111.881	-8191	255	
659.314	1	1	0	0	0.15013	0.24966	0.19062	0.12612	0.31587	0.22355	0.23702	0.16928	0.31829	0.15907	0.07758	0.23484	0.22096	0.30216	0.25181	0.3502	0.14583	-0.70625	-0.95208	-0.42917	-0.89792	-0.78958	-0.31667	-1.2938	-0.22917	-0.72083	-1.0604	-0.19792	-0.88333	-0.95208	-0.17292	-1.0812	-46.510	15.774	148.000	134.209	-134.321	-52.449	108.257	137.921	-73.560	35.725	171.182	118.760	69.103	171.227	-18.353	199.522	0.0003042	0.00056981	0.00016322	1294.8	4.4589e-06	6.8607e-06	1297	359.25	2.7654e-06	5.2828e-06	413.38	135.96	118.32	41.106	2.7109e-06	50.968	0.00019879	0.00017328	4.8199e-05	1294.8	1.9263e-06	1.9498e-06	1302.3	362.62	2.0276e-06	1.9185e-06	412.89	137.83	118.67	41.302	1.9707e-06	51.188	-135.470	-31.310	-46.664	-125.100	26.397	3.719	-125.092	-120.529	-24.261	-1.675	-121.011	-117.060	-116.260	-111.364	-19.647	-111.930	-8191	255	
659.409	1	1	0	0	0.24865	0.1409	0.1678	0.13844	0.40913	0.26977	0.15798	0.16138	0.40295	0.082083	0.088978	0.13876	0.16969	0.32672	0.15948	0.0035819	-0.13542	-0.28542	-0.78958	-0.50417	-0.44792	-0.78333	-0.3625	-1.2563	-0.4125	-0.39583	-1.1792	-0.45208	-0.71042	-0.95208	-0.26667	-1.1104	-8.680	165.836	149.189	-121.682	7.921	-39.197	90.302	185.389	3.922	200.091	100.095	-134.251	-113.781	218.142	-117.772	142.774	0.00031495	0.00039017	0.00013988	1291.3	1.9964e-06	4.051e-06	1289.3	358.92	3.6479e-06	1.8497e-06	413.12	136.27	118.25	40.969	3.9179e-06	50.569	0.00019555	0.00017488	4.7669e-05	1291	1.936e-06	1.8937e-06	1295.5	362.05	1.9624e-06	1.8557e-06	412.16	137.77	118.59	41.262	1.9019e-06	51.056	-133.851	-23.106	-54.114	-124.826	31.980	3.441	-125.027	-120.257	-40.504	17.435	-121.037	-116.850	-116.085	-111.534	13.343	-112.029	-8191	255	
659.507	1	1	0	0	0.094286	0.16306	0.13771	0.41782	0.25935	0.22448	0.14613	0.35934	0.29428	0.20512	0.17176	0.20713	0.2715	0.21412	0.15769	0.24444	-0.14375	-0.2375	-1.1375	-0.29583	-0.73333	-0.9125	-0.42292	-1.2625	-0.53958	-0.27083	-1.2771	-0.43542	-0.4875	-0.95417	-0.12917	-1.0583	-56.729	99.412	86.555	178.638	97.262	81.039	178.851	205.097	111.073	-102.162	133.185	216.648	-27.810	153.608	117.324	-74.450	0.00028623	0.00062487	8.4148e-05	1286.9	3.7913e-06	6.042e-06	1285.7	358.95	3.7988e-06	4.9575e-06	413.59	136.21	117.91	40.922	3.5995e-06	50.737	0.00018894	0.00017266	4.7233e-05	1287.5	1.8712e-06	1.8189e-06	1293.9	362.27	1.8875e-06	1.878e-06	412.98	137.99	118.61	41.323	1.868e-06	51.191	-136.360	-60.769	-26.504	-125.113	29.611	10.146	-125.060	-120.484	-29.542	47.662	-121.038	-116.894	-115.822	-111.612	8.793	-111.864	-8191	255	
659.626	1	1	0	0	0.34456	0.20871	0.10246	0.15855	0.22383	0.037781	0.27819	0.13396	0.13565	0.078502	0.13439	0.19408	0.0043031	0.3647	0.049293	0.24287	-0.325	-0.18333	-1.0792	-0.56458	-0.53125	-1.0333	-0.37083	-1.0208	-0.68542	-0.1	-1.2833	-0.40208	-0.5125	-0.85417	-0.060417	-0.81042	102.478	8.926	-93.145	142.033	-86.553	-64.766	174.654	206.518	83.399	-124.410	-0.513	-95.555	61.342	-111.450	12.957	200.489	0.00031478	0.00035756	0.00013594	1283.7	1.1501e-06	3.1788e-06	1285.9	358.2	4.6021e-06	3.6132e-06	412.68	136.31	118.53	40.976	3.0546e-06	50.594	0.00018831	0.00016331	4.6902e-05	1286.8	1.8797e-06	1.8171e-06	1292.7	362.11	1.8986e-06	1.7969e-06	412.15	137.74	118.64	41.348	1.8775e-06	51.087	220.283	-84.825	-33.501	-125.085	28.693	27.064	-124.892	-120.104	-15.492	25.483	-120.915	-116.706	-116.130	-111.326	22.501	-112.016	-8191	255	
659.722	1	1	0	0	0.18898	0.19255	0.16124	0.079133	0.12527	0.16855	0.14413	0.39956	0.081853	0.066452	0.24746	0.32707	0.090496	0.11768	0.070888	0.18036	-0.40625	-0.22292	-0.81042	-0.59167	-0.089583	-0.91042	-0.38333	-0.75833	-0.82292	-0.125	-1.2229	-0.68542	-0.22292	-1.2188	-0.21042	-0.70833	-24.183	22.508	167.527	194.246	210.924	219.715	-105.124	103.829	202.238	169.198	160.840	129.182	30.668	-127.955	-66.134	75.877	0.00032304	0.00036465	0.00010592	1285.3	2.5211e-06	3.9728e-06	1281.4	359.65	2.6851e-06	7.8596e-06	411.9	135.67	117.89	40.943	2.3932e-06	50.826	0.00019012	0.00016894	4.5524e-05	1285.4	1.8894e-06	1.8372e-06	1291.4	362.21	1.8921e-06	1.8343e-06	412.25	137.71	118.48	41.277	1.8904e-06	51.157	-132.697	-83.112	-26.851	-124.793	21.612	9.991	-124.907	-120.201	-23.446	19.789	-120.998	-116.727	-115.929	-111.363	9.467	-111.862	-8191	255	
659.793	1	1	0	0	0.1492	0.13765	0.18206	0.24378	0.093	0.16363	0.40319	0.21455	0.07618	0.1208	0.12695	0.21636	0.23426	0.32568	0.16852	0.23567	-0.43333	-0.25625	-0.9125	-0.80417	-0.25208	-0.9625	-0.53125	-0.775	-0.90417	-0.12917	-0.89375	-0.95833	-0.25	-1.3896	-0.5625	-0.52917	146.595	15.993	198.551	-111.979	112.749	203.693	148.399	104.404	108.863	-13.737	-138.013	183.015	-80.758	177.554	29.044	193.193	0.00030108	0.00046546	7.2609e-05	1286.1	1.6582e-06	6.0294e-06	1287.6	360.32	3.3767e-06	3.7262e-06	412.84	136.01	117.92	40.937	4.4211e-06	50.682	0.00019213	0.00017111	4.8603e-05	1289.7	1.9657e-06	1.9118e-06	1293	362.33	2.0762e-06	1.9625e-06	412.4	137.5	118.41	41.18	2.0341e-06	50.972	-132.022	-60.571	-2.977	-124.823	37.790	4.319	-124.869	-120.264	-44.105	0.693	-120.481	-116.606	-115.789	-111.186	-3.645	-111.821	-8191	255	
659.914	1	1	0	0	0.10038	0.11829	0.13742	0.18233	0.092182	0.32342	0.39111	0.20331	0.061963	0.36035	0.2774	0.25479	0.16635	0.21465	0.078681	0.10373	-0.48542	-0.11458	-0.66458	-0.975	-0.03125	-0.95833	-0.7375	-0.525	-1.1	-0.25417	-0.825	-1.0271	-0.13333	-1.1938	-0.70417	-0.4	81.627	9.822	-94.477	194.557	1.148	-53.799	151.485	215.393	62.481	27.491	-112.066	157.820	189.183	62.834	218.132	63.583	0.00027165	0.00051786	0.00020705	1291.4	2.8316e-06	8.0387e-06	1283.2	361.15	5.0535e-06	5.3896e-06	415.04	136.85	118.55	41.102	3.0728e-06	51.173	0.00020056	0.00018271	5.033e-05	1289.9	2.05e-06	1.9143e-06	1292.5	362.85	2.0159e-06	1.9115e-06	413.17	137.94	118.91	41.389	1.924e-06	51.31	-134.766	-45.222	-34.301	-124.806	-26.556	24.440	-124.871	-120.181	2.373	-8.285	-120.507	-116.604	-115.978	-111.325	-8.362	-111.919	-8191	255	
660.010	1	1	0	0	0.062574	0.33963	0.11279	0.10468	0.53521	0.4346	0.11347	0.074917	0.16012	0.077708	0.20774	0.30936	0.18122	0.23609	0.18014	0.29546	-0.76667	-0.070833	-0.46667	-0.97083	0.075	-1.0187	-0.67292	-0.55833	-0.96458	-0.04375	-0.67708	-0.97292	-0.375	-0.98333	-0.53333	-0.30417	-22.164	-56.675	187.466	185.086	-0.456	29.761	49.739	215.242	123.871	-58.176	199.667	148.597	19.905	113.892	220.335	136.616	0.00030032	0.00036363	0.00015023	1287.9	1.4655e-06	2.5886e-06	1283.3	360.13	2.1911e-06	4.9907e-06	414.99	136.54	118.49	41.242	1.7673e-06	50.959	0.00019131	0.00017378	4.8689e-05	1288.8	1.8794e-06	1.8507e-06	1292.1	362.47	1.9447e-06	1.858e-06	413.31	137.85	118.82	41.404	1.9152e-06	51.222	-136.083	-55.304	-58.884	-124.834	19.709	66.815	-124.697	-120.090	-32.037	1.018	-120.660	-116.568	-115.805	-111.091	-40.678	-111.443	-8191	255	
660.106	1	1	0	0	0.1206	0.36102	0.091885	0.28312	0.11196	0.073991	0.063889	0.17628	0.074137	0.3854	0.17759	0.25605	0.18434	0.2905	0.20798	0.049703	-0.79167	-0.19583	-0.65208	-1.1729	-0.39792	-0.90208	-0.77292	-0.52292	-0.89792	-0.37292	-0.40208	-1.3271	-0.060417	-0.9875	-0.6375	-0.27083	129.272	52.461	94.978	135.253	203.223	95.990	-15.454	165.487	-44.775	50.041	137.351	95.305	-120.667	207.168	107.270	82.984	0.00030945	0.00030455	8.8312e-05	1292.7	2.3029e-06	7.0725e-06	1289.9	362.1	3.9976e-06	5.4789e-06	415.93	137.04	119.78	41.266	2.5164e-06	51.159	0.00018909	0.00017223	4.726e-05	1289.2	1.8734e-06	1.8286e-06	1295.9	363.59	1.9069e-06	1.8307e-06	414.46	138.4	119.34	41.606	1.8171e-06	51.415	-133.627	-90.320	-23.877	-124.439	-17.248	19.688	-124.611	-120.079	-25.532	6.020	-120.472	-116.358	-115.819	-110.918	13.207	-111.506	-8191	255	
660.202	1	1	0	0	0.2138	0.15054	0.19028	0.20218	0.068996	0.0092526	0.21563	0.21854	0.12261	0.089652	0.15297	0.14369	0.32744	0.15942	0.18169	0.40489	-0.81458	-0.45417	-0.45208	-1.1604	-0.28125	-0.78333	-1.0083	-0.28542	-1.0208	-0.58125	-0.36875	-1.2729	-0.43125	-0.82708	-0.97917	-0.30417	180.089	151.570	147.448	-34.270	97.264	37.302	101.280	-134.272	145.547	46.259	187.126	156.087	83.889	-53.535	-22.000	143.678	0.00031925	0.00026543	6.1229e-05	1298.9	3.2839e-06	4.765e-06	1294.1	361.54	1.8516e-06	7.571e-06	415.75	138.04	119.56	41.255	3.5294e-06	51.086	0.00018407	0.00016718	4.5812e-05	1294.2	1.8531e-06	1.807e-06	1298.8	363.6	1.8413e-06	1.849e-06	414.38	138.94	119.41	41.56	1.8976e-06	51.301	-130.669	-32.420	-63.430	-124.531	-18.314	13.187	-124.759	-119.783	-51.345	12.654	-120.434	-116.309	-116.009	-111.245	48.344	-111.518	-8191	255	
660.321	1	1	0	0	0.39326	0.27293	0.16168	0.1087	0.23622	0.18113	0.14357	0.23312	0.11797	0.1414	0.17467	0.20551	0.11996	0.17111	0.30814	0.036544	-0.46667	-0.56458	-0.29792	-1.525	-0.33333	-0.61667	-0.99792	-0.58333	-0.77917	-0.54167	-0.41667	-0.95	-0.53125	-0.66458	-1.0562	-0.2	-127.905	-13.372	7.156	109.174	48.495	2.456	220.865	118.555	-130.471	-114.487	197.572	55.770	71.834	208.946	-20.724	-131.023	0.00027972	0.00031593	0.00015312	1298.6	3.9368e-06	1.7284e-06	1292.2	361.04	4.8294e-06	4.2036e-06	414.59	137.45	119.5	41.299	3.2989e-06	51.341	0.00018791	0.00016956	4.6136e-05	1295.3	1.9301e-06	1.8717e-06	1299.8	363.41	1.8698e-06	1.8597e-06	414.43	138.57	119.35	41.527	1.8512e-06	51.342	-135.074	-0.825	-44.977	-124.571	28.522	-14.574	-124.608	-120.237	-19.940	-11.427	-120.567	-116.511	-116.049	-111.135	23.465	-111.658	-8191	255	
660.418	1	1	0	0	0.069589	0.068431	0.099818	0.28375	0.1599	0.23333	0.13124	0.27396	0.25002	0.1655	0.06839	0.0081759	0.011407	0.20624	0.17108	0.1665	-0.38542	-0.73958	-0.04375	-1.2437	-0.35833	-0.25833	-1.3729	-0.50625	-0.82708	-0.85833	-0.44375	-1.2	-0.55208	-0.54792	-1.1125	-0.37708	30.825	112.083	20.619	190.167	16.864	205.964	126.529	188.824	0.697	114.583	-106.705	-84.883	93.022	109.838	-115.005	112.386	0.0003455	0.0004226	0.00013544	1299	3.5754e-06	4.4218e-06	1292.8	362.93	2.4374e-06	4.6837e-06	416.48	137.13	118.68	41.334	4.4372e-07	51.017	0.00018612	0.0001696	4.619e-05	1295.3	1.8793e-06	1.8304e-06	1299.3	363.59	1.9031e-06	1.8144e-06	413.9	138.54	119.08	41.528	1.844e-06	51.289	-134.710	-44.828	-37.938	-124.935	5.833	2.628	-124.618	-120.110	8.119	22.789	-120.431	-116.359	-115.820	-111.319	6.825	-111.686	-8191	255	
660.491	1	1	0	0	0.12928	0.053523	0.048673	0.21272	0.18545	0.043552	0.245	0.1412	0.13881	0.23222	0.051556	0.21422	0.25843	0.41975	0.2898	0.3763	-0.26875	-0.75625	-0.19792	-0.96458	-0.77083	-0.19375	-1.275	-0.47917	-0.65417	-0.91667	-0.29583	-0.9375	-0.62708	-0.47292	-1.0729	-0.51458	-14.615	-62.669	115.165	124.347	112.613	150.766	150.534	106.177	55.276	-40.611	113.209	114.949	-124.612	203.273	135.439	173.571	0.00029865	0.00021942	0.00010442	1295.5	2.5784e-06	7.8921e-06	1297.2	360.85	3.0887e-06	4.9234e-06	414.32	137.33	119.13	41.133	4.0432e-06	51.004	0.00019023	0.00017029	4.738e-05	1294.5	1.8834e-06	1.8545e-06	1300.4	363.05	1.9184e-06	1.8356e-06	413.78	138.52	119.11	41.414	1.8812e-06	51.296	-128.069	-76.653	-43.951	-124.533	39.664	-27.334	-124.733	-119.971	-7.745	19.871	-120.668	-116.563	-115.885	-111.053	39.177	-111.756	-8191	255	
660.587	1	1	0	0	0.2141	0.11054	0.28006	0.16805	0.33166	0.31355	0.079523	0.23982	0.070511	0.17773	0.10057	0.25531	0.25608	0.086156	0.22321	0.40563	-0.029167	-1.0708	-0.26875	-1.0938	-0.95417	-0.04375	-1.25	-0.6	-0.26875	-1.2292	-0.26875	-1.0562	-0.90833	-0.4	-1.0271	-0.65833	219.872	-61.152	89.995	104.679	45.407	-55.552	124.321	146.752	76.246	-10.240	174.109	74.206	72.141	119.955	80.700	96.540	0.00030179	0.0002657	0.00012585	1296.3	4.6422e-06	5.6811e-06	1294	359.73	2.7825e-06	5.8841e-06	415.32	137.06	118.99	41.086	2.143e-06	51.006	0.00019088	0.00017147	4.7612e-05	1295.4	1.8689e-06	1.871e-06	1300.3	362.3	1.9349e-06	1.8632e-06	413.08	138.6	118.9	41.39	1.9234e-06	51.214	-134.303	-41.883	-20.906	-124.673	-5.768	5.178	-124.856	-120.133	-40.962	10.653	-120.669	-116.699	-116.257	-111.036	1.664	-111.742	-8191	255	
660.706	1	1	0	0	0.084055	0.24444	0.18781	0.042616	0.44848	0.19596	0.57714	0.17642	0.035569	0.16985	0.047462	0.30597	0.030287	0.23615	0.13137	0.12778	-0.033333	-0.9625	-0.15833	-0.88333	-0.73333	-0.16667	-1.3604	-0.67917	-0.29375	-1.2125	-0.35208	-0.73958	-0.92083	-0.22292	-0.82292	-0.80833	7.589	65.400	-85.909	-54.335	-45.728	-126.271	164.363	156.340	92.377	100.246	-25.534	126.169	30.241	27.506	99.567	127.174	0.0003415	0.00032083	0.00024159	1299.4	2.4321e-06	2.2984e-06	1294.7	360.14	2.6318e-06	3.7525e-06	414.59	136.88	119.11	41.203	3.455e-06	50.848	0.00019317	0.00016814	4.7647e-05	1294.2	1.9121e-06	1.8997e-06	1298.9	362.39	1.962e-06	1.8528e-06	412.74	138.18	118.91	41.345	1.8798e-06	51.118	-134.789	-63.832	-36.229	-124.562	0.351	-50.452	-124.786	-120.222	-12.509	9.192	-120.515	-116.584	-116.019	-111.356	35.025	-111.846	-8191	255	
660.802	1	1	0	0	0.21138	0.2685	0.11803	0.25635	0.39914	0.13829	0.13958	0.43083	0.27515	0.1845	0.022849	0.27476	0.058017	0.27405	0.17796	0.28181	-0.025	-1.1833	-0.42708	-0.85208	-1.0667	-0.022917	-1.1229	-0.84375	-0.28958	-1.1187	-0.40208	-0.61875	-0.99375	-0.55625	-0.8	-0.82708	-10.131	-65.080	172.225	-123.089	180.805	205.222	-93.461	152.116	88.814	115.422	-13.459	117.998	-29.452	176.922	162.448	102.513	0.00029986	0.00019276	0.00012835	1291.8	1.9439e-06	1.2303e-06	1283.1	358.72	2.6249e-06	5.9031e-06	413.47	136.24	117.47	40.834	2.9532e-06	50.683	0.00019063	0.00017104	4.8341e-05	1290.4	1.8821e-06	1.8668e-06	1290.8	360.86	1.9268e-06	1.8438e-06	411.73	137.31	118.07	41.096	1.8737e-06	50.978	219.492	-3.626	-37.643	-124.691	57.392	94.156	-125.022	-120.378	-0.686	31.508	-120.574	-116.518	-115.815	-111.118	25.344	-111.888	-8191	255	
660.898	1	1	0	0	0.25199	0.064564	0.077346	0.14559	0.15785	0.12361	0.23561	0.16344	0.1016	0.16006	0.16761	0.14332	0.20647	0.067595	0.23216	0.074052	0.25208	-1.0896	-0.33958	-0.60208	-1.1292	-0.2	-1.0958	-1.2979	-0.17708	-1.0208	-0.73542	-0.4625	-1.2979	-0.3	-0.60833	-1.0167	-25.943	33.831	188.716	163.753	-49.501	86.273	130.159	-74.802	-131.225	24.150	164.754	-119.707	-33.616	154.688	152.763	80.343	0.00030289	0.00069917	0.00017144	1288.6	2.2085e-06	4.2926e-06	1284.9	359.93	2.0236e-06	2.959e-06	413.58	136.76	117.72	40.916	2.5361e-06	50.6	0.00018926	0.00016728	4.6289e-05	1285.5	1.8535e-06	1.8281e-06	1291.8	361.36	1.8514e-06	1.8054e-06	411.49	137.72	118.31	41.163	1.8662e-06	50.977	-135.432	-42.419	-53.014	-124.780	9.923	2.415	-124.659	-120.166	-53.451	-1.327	-120.888	-116.635	-115.872	-110.996	11.967	-111.517	-8191	255	
661.019	1	1	0	0	0.24043	0.062693	0.20713	0.23348	0.055198	0.16138	0.11253	0.22181	0.17144	0.18782	0.16183	0.14717	0.14064	0.27987	0.3211	0.10054	0.045833	-0.72708	-0.4875	-0.55417	-1.0667	-0.18958	-0.76875	-1.1792	-0.091667	-0.87083	-0.58125	-0.21875	-1.2021	-0.46875	-0.59792	-0.89583	37.021	115.472	184.800	176.383	178.995	-20.828	169.647	172.242	87.245	-90.742	137.100	74.703	157.568	169.885	-44.541	-108.684	0.00029839	0.00046661	0.0001351	1285.6	2.8728e-06	3.8089e-06	1284.4	359.13	2.0044e-06	2.4565e-06	412.59	136.34	117.83	40.808	2.7535e-06	50.603	0.00018922	0.00016657	4.6904e-05	1284.3	1.8644e-06	1.868e-06	1290.9	361.36	1.9647e-06	1.8573e-06	411	137.63	118.15	41.076	1.9615e-06	50.932	-137.614	-43.946	-24.164	-124.420	21.517	-14.938	-124.723	-120.013	-18.859	-40.316	-120.631	-116.547	-115.580	-111.201	0.797	-111.656	-8191	255	
661.091	1	1	0	0	0.14801	0.25181	0.13687	0.15596	0.19414	0.067754	0.15977	0.32859	0.23477	0.15508	0.31682	0.11245	0.022908	0.089129	0.25273	0.15517	0.19375	-0.93542	-0.68125	-0.54792	-1.0187	-0.3625	-0.85208	-1.1771	-0.0625	-0.8375	-0.97083	-0.40208	-0.90417	-0.7125	-0.5625	-1.1208	-120.169	26.992	167.664	187.499	159.829	69.029	144.389	177.860	-59.897	7.563	53.975	-47.956	-82.855	-12.421	-126.218	34.795	0.00031679	0.00012939	0.00019855	1286.2	2.1731e-06	3.6455e-06	1286	359.34	3.2156e-06	4.4866e-06	412.61	136.25	118.3	40.794	2.2916e-06	50.524	0.00019475	0.00017329	4.9014e-05	1284.8	1.9291e-06	1.9809e-06	1294.6	361.3	2.016e-06	1.9207e-06	411.22	137.29	118.28	41.057	2.0499e-06	50.832	-134.985	-22.258	-20.603	-124.685	-1.486	-9.307	-124.608	-120.230	-27.488	59.410	-120.500	-116.292	-115.944	-110.964	1.830	-111.447	-8191	255	
661.187	1	1	0	0	0.15271	0.18981	0.083155	0.25152	0.16775	0.18719	0.20963	0.096534	0.071463	0.17541	0.19635	0.4103	0.2499	0.15414	0.069709	0.1412	0.010417	-0.86667	-0.9625	-0.28333	-1.0729	-0.3875	-0.78125	-1.3125	-0.2	-0.8	-0.87917	-0.12708	-0.775	-1.025	-0.3125	-1.2792	39.684	164.880	-74.612	-129.911	9.435	216.106	183.480	172.277	88.726	20.042	133.850	-133.121	-106.890	129.642	49.499	145.649	0.00031129	0.00042629	8.1549e-05	1296.6	2.4656e-06	5.5169e-06	1287.7	359.02	3.2012e-06	4.3629e-06	411.18	135.66	117.9	40.625	2.879e-06	50.353	0.00020099	0.00018122	5.0436e-05	1290.5	2.0173e-06	1.9809e-06	1293.6	361.68	2.0527e-06	2.0018e-06	410.89	137.21	118.07	40.989	2.057e-06	50.861	-136.429	-38.871	-32.909	-124.534	14.144	34.709	-124.493	-120.015	-11.471	18.203	-120.640	-116.016	-115.899	-111.013	8.580	-111.360	-8191	255	
661.307	1	1	0	0	0.14955	0.23195	0.14553	0.051672	0.34536	0.10724	0.25334	0.29132	0.047096	0.1238	0.12311	0.2113	0.11106	0.12711	0.14752	0.13525	0.15625	-0.74583	-0.8875	-0.44375	-0.77292	-0.62292	-0.47083	-1.0063	-0.29792	-0.45	-1.1667	-0.35417	-0.8625	-0.77917	-0.15417	-1.0438	25.729	-49.925	67.170	161.743	148.776	83.963	151.295	174.139	-132.726	-136.469	80.007	206.614	-119.319	17.935	207.237	141.482	0.00028654	0.00051677	0.00012638	1291.7	3.5696e-06	6.8757e-06	1285.5	358.67	2.718e-06	4.5614e-06	410.03	135.61	117.54	40.621	2.8095e-06	50.297	0.00020261	0.00018475	5.282e-05	1288.5	2.0588e-06	2.0602e-06	1293.5	361.4	2.1164e-06	2.0457e-06	410.39	137.03	117.93	40.981	2.0828e-06	50.785	-135.301	-75.755	-51.420	-124.484	8.060	5.603	-124.569	-120.071	-47.959	29.574	-120.531	-116.325	-115.855	-111.102	-55.234	-111.776	-8191	255	
661.402	1	1	0	0	0.14705	0.17347	0.16229	0.33439	0.067227	0.12355	0.27322	0.053737	0.2295	0.12436	0.17637	0.35234	0.14756	0.28712	0.041249	0.12005	0.12083	-0.65417	-0.8	-0.33333	-0.85	-0.86458	-0.44167	-1.1417	-0.52917	-0.47708	-1.2271	-0.26042	-0.78542	-0.95208	-0.097917	-1.0312	-21.213	-67.976	142.233	189.805	91.185	137.320	197.883	82.027	-54.449	149.116	-41.634	189.026	77.012	169.990	127.568	-137.607	0.00028679	0.00047782	0.00016112	1291.5	4.7254e-06	4.913e-06	1285.1	360.12	4.2801e-06	3.6605e-06	413.56	136.19	118.27	40.939	3.2415e-06	50.853	0.00020604	0.00018503	5.1546e-05	1288	2.029e-06	2.0092e-06	1292.7	361.7	2.0803e-06	2.0236e-06	410.96	137.2	118.3	41.107	1.9993e-06	51.061	-135.383	-33.169	-38.197	-124.602	-21.154	-8.875	-124.392	-119.930	-18.401	63.359	-120.532	-116.645	-115.613	-110.919	-2.317	-111.536	-8191	255	
661.498	1	1	0	0	0.16507	0.16463	0.18847	0.17061	0.25508	0.138	0.27983	0.16773	0.18096	0.092775	0.12243	0.29548	0.30655	0.14038	0.10484	0.14042	-0.20417	-0.53958	-0.94167	-0.45833	-0.57083	-1.0104	-0.42708	-1.0896	-0.63333	-0.38125	-1.2667	-0.42708	-0.64583	-1.1292	-0.039583	-1.0167	-57.767	64.701	-34.269	155.154	195.099	43.684	184.554	199.830	-19.482	7.826	-5.854	209.142	-50.496	-113.959	-131.759	191.787	0.00031043	0.00036384	0.00012046	1290.2	2.4976e-06	6.969e-06	1286.3	359.81	1.6478e-06	7.1565e-06	410.27	135.98	118	40.88	2.4617e-06	50.662	0.0001996	0.00017788	4.9835e-05	1288	1.98e-06	1.9613e-06	1294.3	362.3	2.0018e-06	1.9499e-06	411.24	137.49	118.27	41.234	1.9351e-06	51.111	-131.184	-40.069	-34.089	-124.489	-18.530	-22.888	-124.666	-119.943	-25.770	14.796	-120.439	-116.170	-115.482	-111.115	20.835	-111.442	-8191	255	
661.619	1	1	0	0	0.15424	0.29725	0.20953	0.30252	0.12503	0.28641	0.14087	0.053775	0.13445	0.1106	0.093509	0.075738	0.089701	0.10044	0.14062	0.15948	-0.33125	-0.24792	-0.9875	-0.68958	-0.46042	-1.0125	-0.40833	-0.95417	-0.75	-0.38125	-1.2083	-0.45208	-0.56458	-1.0417	-0.18125	-0.79375	-8.456	-9.887	210.440	-110.401	93.099	177.910	110.692	-18.452	-73.159	208.869	-78.463	-36.202	146.719	152.109	-20.191	-63.558	0.00031892	0.00037848	0.00015845	1292.5	2.8962e-06	3.5903e-06	1291.9	360.02	3.8192e-06	4.616e-06	412.75	136.38	119.15	41.031	6.19e-06	51.274	0.00019403	0.00017421	4.765e-05	1289.9	1.9465e-06	1.8777e-06	1296.5	362.96	1.9549e-06	1.8986e-06	412.69	137.62	118.99	41.358	1.9591e-06	51.325	-129.300	-47.187	-20.597	-124.731	30.854	31.170	-124.521	-120.010	-27.347	26.918	-120.423	-116.632	-115.451	-110.912	37.562	-111.162	-8191	255	
661.690	1	1	0	0	0.18763	0.097824	0.24919	0.36516	0.13589	0.083695	0.11612	0.19258	0.25691	0.13285	0.32561	0.14774	0.1497	0.14261	0.31161	0.055868	-0.18333	-0.11667	-1.1458	-0.5625	-0.39375	-0.96667	-0.4375	-0.91042	-1.0667	-0.24167	-1.1063	-0.6875	-0.35833	-1.1771	-0.33333	-0.825	87.102	53.144	50.980	48.497	-31.685	117.581	114.405	163.990	197.219	-99.853	157.393	85.645	-91.291	97.491	217.452	97.658	0.00030739	0.00041304	0.00015144	1299.1	3.9714e-06	4.6018e-06	1295.8	360.61	2.754e-06	4.4045e-06	414.43	136.37	118.82	41.355	4.4786e-06	51.043	0.00019192	0.00017394	4.7901e-05	1295.6	1.9754e-06	1.8891e-06	1300.9	363.9	1.9797e-06	1.8808e-06	414.38	138.14	119.09	41.488	1.9698e-06	51.311	-137.109	-49.523	-72.801	-124.135	7.695	-14.255	-124.320	-119.579	-23.485	1.958	-120.135	-116.176	-115.394	-110.629	29.715	-111.243	-8191	255	
661.786	1	1	0	0	0.1347	0.061787	0.25785	0.46754	0.062834	0.091013	0.2756	0.25792	0.23466	0.19675	0.2099	0.096258	0.25143	0.080286	0.17105	0.18878	-0.57708	-0.089583	-0.89167	-0.79583	-0.33958	-0.98542	-0.64583	-0.74375	-0.90625	-0.1375	-0.82708	-0.8125	-0.25625	-1.2021	-0.33542	-0.56667	171.036	-4.778	190.894	165.780	18.877	-35.020	122.642	214.253	-77.039	-67.785	-30.950	142.894	-30.463	164.981	203.714	147.991	0.00029366	0.00020175	0.00010338	1296.8	4.8643e-06	4.332e-06	1298.1	361.15	3.4309e-06	5.8119e-06	414.96	136.81	118.43	41.06	1.678e-06	51.091	0.00019483	0.00017574	4.8421e-05	1297.7	1.9934e-06	1.9446e-06	1303.5	364.25	1.986e-06	1.9773e-06	414.1	138.4	119.02	41.432	2.0084e-06	51.366	-133.774	-36.377	-48.258	-124.411	12.990	-10.325	-124.402	-119.830	-27.823	23.998	-120.337	-116.201	-115.474	-110.787	-22.105	-111.160	-8191	255	
661.882	1	1	0	0	0.24383	0.27443	0.14072	0.20943	0.14008	0.27886	0.34502	0.17708	0.26603	0.20374	0.12237	0.07734	0.1394	0.074184	0.10489	0.15353	-0.73125	-0.175	-0.69375	-0.89167	-0.091667	-1.0333	-0.62292	-0.39375	-0.94167	-0.17292	-0.85625	-0.77292	-0.13958	-1.1375	-0.4625	-0.32708	3.988	-124.099	-80.025	209.008	-40.900	15.427	162.855	11.238	72.102	7.162	-88.096	181.392	154.057	37.727	-64.194	-114.326	0.00029286	0.00039294	0.00011854	1305	2.8969e-06	5.135e-06	1301.8	362.34	3.602e-06	4.7473e-06	418.26	137.7	119.64	41.308	8.2148e-07	51.247	0.00019584	0.00018037	4.8343e-05	1302.8	1.9893e-06	1.9249e-06	1307.6	364.99	1.9839e-06	1.9229e-06	415.97	138.96	119.55	41.608	1.9315e-06	51.475	-133.539	-46.312	-52.462	-124.710	10.494	33.123	-124.627	-119.827	-1.084	17.085	-120.399	-116.488	-115.587	-110.968	46.012	-111.422	-8191	255	
661.979	1	1	0	0	0.094473	0.209	0.091679	0.20077	0.17227	0.049672	0.37212	0.39402	0.11201	0.14173	0.2625	0.34442	0.25264	0.18363	0.16454	0.10464	-0.925	-0.075	-0.39583	-0.99375	-0.27083	-0.9	-0.62708	-0.43333	-1.1646	-0.29375	-0.69583	-1.0312	-0.075	-1.1646	-0.7625	-0.45417	-56.863	101.320	-49.198	198.652	67.414	46.630	215.242	167.120	-21.719	187.618	-126.025	-131.103	135.289	-102.413	95.223	179.526	0.00032096	0.00023684	8.3585e-05	1307	4.3671e-06	2.9004e-06	1300.1	364.05	1.2389e-06	3.7798e-06	419.69	138.87	120.45	41.505	2.3152e-06	51.637	0.00019278	0.00017436	4.7142e-05	1305.4	1.8797e-06	1.7874e-06	1308.4	366.41	1.8916e-06	1.8153e-06	419.05	140.09	120.55	41.968	1.8392e-06	51.9	-135.820	23.399	-75.841	-124.280	4.662	4.646	-124.103	-119.466	19.768	-13.075	-119.973	-115.852	-114.882	-109.985	23.383	-110.268	-8191	255	
662.099	1	1	0	0	0.084621	0.14094	0.2034	0.20625	0.2597	0.089793	0.2037	0.41386	0.010602	0.10883	0.32352	0.24306	0.097783	0.18091	0.010996	0.099795	-0.65625	-0.30833	-0.49792	-1.1125	-0.13333	-0.74792	-1.0938	-0.28958	-0.82708	-0.37708	-0.56042	-1.3062	-0.27292	-0.98125	-0.80625	-0.27708	-122.873	46.740	-5.734	112.315	-39.662	-41.430	78.945	164.812	139.675	76.400	175.434	179.729	145.486	195.345	24.081	24.898	0.00030229	0.00037538	0.00019799	1311.9	3.4051e-06	4.6271e-06	1309.8	365.56	2.8745e-06	4.8561e-06	420.48	138.63	120.62	41.721	3.4619e-06	51.673	0.00018139	0.00015946	4.4521e-05	1312	1.7744e-06	1.7332e-06	1317.2	368.3	1.7804e-06	1.7372e-06	419.92	140.13	120.68	42.043	1.7944e-06	51.99	-133.560	-46.147	-30.727	-123.939	2.926	41.428	-124.000	-119.692	-63.126	14.780	-120.455	-116.137	-115.455	-111.057	18.923	-111.682	-8191	255	
662.195	1	1	0	0	0.061533	0.13882	0.23598	0.56736	0.19699	0.19797	0.197	0.12588	0.31044	0.16219	0.24211	0.181	0.26015	0.25411	0.15115	0.099031	-0.68542	-0.54375	-0.41458	-1.1833	-0.21667	-0.8	-0.9625	-0.62917	-0.89792	-0.41667	-0.66042	-1.1979	-0.38333	-0.76875	-1.0063	0.03125	177.828	-26.458	98.743	156.239	0.234	214.184	220.691	-98.715	12.035	-129.391	210.876	66.558	-118.208	219.990	175.685	103.158	0.0003336	0.00023058	8.2135e-05	1308.6	1.932e-06	6.7864e-06	1307.8	365.59	2.973e-06	7.594e-06	419.35	138.78	119.56	41.733	4.6645e-06	51.453	0.00017921	0.00016019	4.5188e-05	1309.7	1.8457e-06	1.79e-06	1314.1	368.09	1.8591e-06	1.7992e-06	418.71	139.91	120.35	41.961	1.8139e-06	51.857	-134.239	-70.680	-17.087	-124.855	-39.797	23.365	-124.718	-120.058	-11.864	5.141	-120.969	-116.609	-116.045	-111.229	44.929	-111.882	-8191	255	
662.292	1	1	0	0	0.057892	0.054128	0.25816	0.16442	0.15267	0.18246	0.16425	0.37738	0.36924	0.077098	0.045143	0.11684	0.19756	0.13056	0.12044	0.34993	-0.51875	-0.62083	0.01875	-1.0229	-0.125	-0.39583	-1.2271	-0.44583	-0.7875	-0.62083	-0.31875	-1.2625	-0.50625	-0.7625	-1.1812	-0.49792	-92.072	176.670	66.194	128.980	11.315	48.218	189.869	213.754	-87.374	-77.501	130.395	220.236	202.174	-48.804	144.275	193.073	0.00028668	0.0002692	0.0001106	1318.4	2.228e-06	5.342e-06	1306.6	365.41	1.6129e-06	4.8341e-06	419.34	138.6	119.73	41.952	2.9652e-06	51.457	0.00018351	0.00016484	4.5601e-05	1313.4	1.8408e-06	1.814e-06	1314.9	368.21	1.8555e-06	1.8053e-06	419.28	140.18	120.23	42.085	1.824e-06	51.903	-137.946	-45.219	-50.906	-124.790	5.209	-9.881	-125.012	-120.186	18.289	13.423	-120.749	-116.516	-115.829	-110.933	-20.451	-111.410	-8191	255	
662.388	1	1	0	0	0.13676	0.20811	0.05838	0.37078	0.15838	0.050399	0.067866	0.031068	0.33671	0.20647	0.18015	0.095108	0.24816	0.05526	0.11391	0.26017	-0.39583	-0.925	-0.12292	-1.1979	-0.475	-0.40625	-1.0146	-0.29167	-0.73333	-0.93542	-0.27292	-1.1625	-0.5625	-0.52083	-1.1625	-0.375	167.774	169.265	-92.553	-122.453	-115.370	-108.767	118.880	134.950	219.328	153.844	-125.635	-103.664	192.388	91.150	119.728	136.889	0.00028474	0.00047639	0.00013365	1315	3.4803e-06	3.4164e-06	1308.1	365.23	2.9281e-06	3.8634e-06	420.54	138.49	119.67	41.729	3.0122e-06	51.504	0.00018649	0.00016646	4.5066e-05	1313.1	1.8303e-06	1.8121e-06	1318.4	368.26	1.8595e-06	1.8017e-06	419.32	139.84	120.16	41.968	1.7988e-06	51.787	-130.671	-49.853	-53.361	-124.668	-5.250	-39.759	-124.883	-120.316	-33.783	7.795	-120.534	-116.786	-115.843	-111.227	13.568	-112.029	-8191	255	
662.482	1	1	0	0	0.17495	0.20669	0.25681	0.18574	0.20065	0.094467	0.20078	0.1709	0.081711	0.27349	0.26465	0.089229	0.22056	0.33375	0.22014	0.30049	-0.36667	-1.0667	-0.035417	-0.98125	-0.38542	-0.42917	-1.1646	-0.40625	-0.65	-0.84583	-0.26458	-0.90208	-0.88542	-0.53542	-1.0312	-0.37917	215.007	180.652	21.872	-107.521	-7.186	-105.457	217.740	-130.706	203.784	-94.503	132.734	-63.624	151.563	185.614	161.748	126.546	0.00030777	0.00056976	0.00011142	1318	2.7772e-06	4.5431e-06	1312.5	364.17	1.8554e-06	3.5651e-06	418.45	138.65	120.11	41.574	2.6001e-06	51.647	0.00018697	0.00015834	4.5255e-05	1314.3	1.8329e-06	1.8104e-06	1318.2	367.39	1.8501e-06	1.7556e-06	418.7	140.15	120.23	41.945	1.8332e-06	51.896	-136.147	-63.707	-22.654	-124.647	0.185	20.556	-124.791	-120.366	-6.018	-17.357	-120.578	-116.528	-115.875	-110.995	5.832	-111.578	-8191	255	
662.580	1	1	0	0	0.15566	0.11186	0.22252	0.32621	0.17206	0.12701	0.13815	0.40346	0.10685	0.214	0.22999	0.23919	0.063388	0.13285	0.0065656	0.059438	-0.2375	-0.83333	-0.14792	-1.1	-0.78125	-0.11458	-1.0187	-0.51875	-0.64167	-1.0333	-0.23542	-0.89167	-0.75208	-0.28958	-0.92708	-0.54167	-55.804	-78.231	53.613	182.140	92.486	-114.656	190.772	171.936	218.358	-101.802	176.256	-62.245	-74.859	-59.184	192.583	101.546	0.00030867	0.00044384	0.00019173	1321.8	1.506e-06	6.1834e-06	1311.9	366.76	1.9705e-06	3.9064e-06	420.2	138.97	120.16	41.725	3.8621e-06	51.504	0.00018637	0.00016121	4.5779e-05	1316.1	1.8184e-06	1.7719e-06	1319.8	368.33	1.8795e-06	1.7553e-06	418.4	140.28	120.29	42.023	1.8111e-06	51.854	-134.111	-35.071	-46.034	-124.587	-36.037	-25.745	-124.584	-120.253	-2.123	17.530	-120.279	-116.123	-115.845	-110.756	5.081	-111.635	-8191	255	
662.699	1	1	0	0	0.19699	0.1407	0.1212	0.398	0.26163	0.060927	0.26568	0.073024	0.24591	0.13443	0.18959	0.11996	0.049832	0.32988	0.12154	0.085519	0.083333	-0.87292	-0.16667	-0.975	-0.83125	-0.072917	-1.2021	-0.61458	-0.40625	-1.1938	-0.325	-0.94792	-0.82292	-0.35625	-0.91875	-0.57083	-18.529	-114.926	-81.457	192.029	-19.224	52.463	196.961	-110.969	-100.528	193.168	79.107	-120.488	112.075	212.630	-63.186	54.850	0.00029666	0.00055784	0.00015438	1324.3	4.0205e-06	4.2792e-06	1311.2	363.53	3.6197e-06	2.035e-06	421	138.89	120.44	41.833	4.2476e-06	51.464	0.00018313	0.00016032	4.5524e-05	1316	1.7844e-06	1.7701e-06	1318.3	367.44	1.8261e-06	1.7699e-06	419.08	140.08	120.44	42.078	1.7994e-06	51.833	219.398	-57.713	-24.569	-124.794	-6.914	72.540	-124.743	-120.211	-5.658	59.854	-120.646	-116.441	-115.620	-111.229	-19.793	-111.872	-8191	255	
662.795	1	1	0	0	0.1059	0.20782	0.10764	0.18957	0.29476	0.15377	0.089785	0.087482	0.058492	0.15603	0.083734	0.11736	0.24338	0.078631	0.26382	0.28866	0.029167	-1.0688	-0.29375	-0.69792	-0.78125	-0.097917	-1.0104	-0.69792	-0.26042	-1.1125	-0.5625	-0.6375	-0.80625	-0.31042	-0.98542	-0.82708	54.972	215.314	-50.105	91.175	104.453	142.188	209.375	8.052	147.279	187.120	92.150	118.544	-75.948	98.926	-106.133	153.119	0.00030697	0.00030517	0.00013206	1318.9	2.2086e-06	4.2868e-06	1310	365.61	4.5402e-06	5.2567e-06	419.92	138.93	120.05	41.549	2.9538e-06	51.54	0.00018265	0.00016258	4.456e-05	1315	1.7903e-06	1.8136e-06	1319.8	368.07	1.8351e-06	1.7578e-06	418.82	140.1	120.42	41.926	1.795e-06	51.846	-138.041	-39.674	-57.141	-124.620	-34.869	-19.427	-124.744	-120.297	-16.302	17.329	-120.721	-116.756	-116.178	-111.508	15.707	-111.519	-8191	255	
662.891	1	1	0	0	0.10015	0.24563	0.37433	0.1004	0.046028	0.10028	0.14029	0.10161	0.3169	0.098213	0.34212	0.077779	0.18187	0.12469	0.10497	0.25689	0.26042	-0.81042	-0.50417	-0.56042	-1.1354	-0.18958	-0.99375	-0.96667	-0.03125	-0.87083	-0.57292	-0.46667	-1	-0.26667	-0.61875	-1.0479	-124.097	124.408	84.089	133.296	124.586	93.984	201.459	114.860	61.616	-102.219	92.689	-15.296	180.492	150.976	175.948	-68.563	0.00029548	0.00035084	0.00020813	1315.8	2.1705e-06	5.0836e-06	1304.6	364.36	3.5848e-06	6.6706e-06	419.46	138.22	119.88	41.514	3.1037e-06	51.579	0.0001847	0.00015936	4.563e-05	1314.2	1.8228e-06	1.7704e-06	1318.5	367.32	1.8599e-06	1.7895e-06	418.03	139.7	120.17	41.879	1.8163e-06	51.861	-134.278	-51.032	-42.873	-124.903	-10.329	-22.470	-124.889	-120.510	-34.425	14.258	-120.964	-116.812	-116.232	-111.543	-5.714	-111.812	-8191	255	
662.987	1	1	0	0	0.30905	0.15792	0.29427	0.21168	0.052029	0.07269	0.3865	0.028326	0.22377	0.1726	0.37144	0.1542	0.1665	0.31938	0.17659	0.15915	0.22292	-0.91667	-0.57917	-0.46042	-1.1354	-0.20833	-0.825	-0.8125	-0.21042	-0.97708	-0.94375	-0.41042	-1.1771	-0.44375	-0.25	-1.0958	-115.083	-11.670	-7.105	120.545	72.695	-46.576	74.482	89.909	-63.103	-116.471	192.319	199.072	100.901	124.868	-77.257	65.866	0.00027826	0.00053061	0.00014082	1311.2	3.789e-06	2.3502e-06	1313.1	364.83	1.9012e-06	3.149e-06	421.28	138.85	120.5	41.475	2.1831e-06	51.242	0.00018648	0.00016548	4.5824e-05	1313.6	1.8266e-06	1.766e-06	1319.4	367.56	1.8108e-06	1.7814e-06	418.84	140.2	120.51	41.909	1.852e-06	51.707	-134.451	-45.419	-55.799	-124.984	1.874	4.398	-124.741	-120.542	-3.774	-9.855	-120.817	-116.640	-116.232	-111.247	6.264	-111.892	-8191	255	
663.083	1	1	0	0	0.24017	0.11645	0.043555	0.31453	0.071371	0.096636	0.07698	0.20025	0.099804	0.43731	0.18661	0.17731	0.27539	0.17239	0.1104	0.33146	0.12292	-0.75625	-0.60417	-0.28125	-1.1083	-0.48333	-0.97917	-1.0917	-0.11458	-1.0021	-1.0479	-0.2625	-1.1042	-0.57083	-0.37708	-1.1646	-32.414	212.760	26.572	220.810	15.542	-137.486	-95.079	170.755	8.801	203.529	-102.802	-115.142	-20.842	140.416	41.315	201.008	0.00031414	0.00040205	9.0638e-05	1312.6	2.8085e-06	5.8197e-06	1306.8	364.03	1.9193e-06	4.8345e-06	420.1	138.09	119.73	41.535	2.8474e-06	51.319	0.00018323	0.00016297	4.4417e-05	1312.2	1.8293e-06	1.7852e-06	1317.9	367.25	1.8152e-06	1.748e-06	419.43	139.71	120.32	41.906	1.7932e-06	51.804	-133.713	-68.290	-20.262	-124.783	8.446	6.369	-124.974	-120.298	-7.675	38.091	-120.776	-116.677	-116.296	-111.259	-10.125	-111.678	-8191	255	
663.180	1	1	0	0	0.10193	0.13648	0.0075352	0.21015	0.13991	0.11753	0.25189	0.27913	0.22632	0.084693	0.19134	0.045624	0.099711	0.13183	0.19467	0.21147	-0.083333	-0.82292	-0.63333	-0.58958	-1.0354	-0.63125	-0.48542	-1.2729	-0.24167	-0.7	-0.85	-0.41667	-0.84792	-0.75833	-0.29375	-1.1437	175.575	170.834	-97.431	198.394	-127.590	69.127	135.125	108.868	20.658	4.279	164.652	67.442	-45.171	-4.163	79.968	-121.795	0.00030834	0.00044254	6.987e-05	1308.9	3.911e-06	5.459e-06	1309.4	364.41	5.075e-06	3.2028e-06	420.88	138.75	120.07	41.555	4.5298e-06	51.341	0.00018398	0.00016119	4.5023e-05	1310.1	1.8007e-06	1.7458e-06	1317.6	367.9	1.8398e-06	1.7437e-06	418.85	140.12	120.37	41.947	1.7757e-06	51.863	-135.692	-37.655	-33.103	-124.780	0.112	18.514	-124.900	-120.339	-7.090	19.411	-120.769	-116.902	-116.094	-111.377	8.467	-112.022	-8191	255	
663.300	1	1	0	0	0.067976	0.17509	0.07154	0.027846	0.096065	0.1745	0.12036	0.36957	0.33453	0.38146	0.2446	0.15509	0.18337	0.18474	0.085278	0.181	0.058333	-0.65625	-0.89167	-0.25	-0.87708	-0.54167	-0.48542	-1.2125	-0.27292	-0.42292	-1.1854	-0.21667	-0.8875	-0.65208	-0.225	-1.15	126.629	-2.700	107.345	-53.925	22.592	-126.558	169.093	215.746	89.637	44.935	175.228	123.940	-110.894	132.614	-112.765	157.442	0.00034968	0.00051046	0.00011788	1308	2.2887e-06	6.4812e-06	1307	363.79	2.9901e-06	3.6826e-06	418.8	138.58	120.33	41.436	2.4101e-06	51.455	0.00017907	0.00016003	4.3721e-05	1310.7	1.733e-06	1.7222e-06	1316.4	367.91	1.7892e-06	1.7456e-06	418.52	139.97	120.64	41.895	1.7701e-06	51.861	-135.447	-52.242	-62.429	-124.769	22.791	3.381	-124.814	-120.504	3.131	14.781	-120.787	-116.608	-115.986	-111.295	17.301	-111.834	-8191	255	
663.396	1	1	0	0	0.18974	0.33752	0.13019	0.17857	0.25176	0.25003	0.15287	0.046971	0.1202	0.041562	0.42099	0.049046	0.0039176	0.11837	0.21706	0.15771	0.0125	-0.54375	-1.0063	-0.35625	-1.0208	-0.73542	-0.35	-1.1146	-0.49375	-0.42708	-1.1208	-0.19375	-0.88958	-0.91875	-0.0375	-0.94583	-85.276	-10.902	108.500	60.463	-43.595	92.302	136.539	117.460	145.718	-50.395	137.983	105.873	179.932	52.310	-51.252	132.064	0.00031719	0.00051042	0.00014239	1305.7	2.1069e-06	7.7431e-06	1311.4	366.01	3.9284e-06	3.5462e-06	417.96	137.98	120.21	41.604	2.2558e-06	51.685	0.00017984	0.00015943	4.3722e-05	1309.7	1.7678e-06	1.7176e-06	1317.8	368.62	1.7858e-06	1.7539e-06	418.92	140.28	120.63	42.036	1.7711e-06	52.019	-130.232	-68.919	-38.403	-124.710	10.893	-24.865	-124.794	-120.287	-33.761	8.476	-120.880	-116.805	-116.291	-111.661	36.123	-111.902	-8191	255	
663.491	1	1	0	0	0.13343	0.17795	0.11295	0.41789	0.32977	0.031198	0.28863	0.1339	0.08292	0.10797	0.2751	0.22432	0.19182	0.41243	0.26811	0.13772	-0.19792	-0.28333	-1.1562	-0.18958	-0.64792	-0.8625	-0.4375	-1.0979	-0.51458	-0.10625	-1.1583	-0.31875	-0.57292	-0.96667	-0.052083	-0.925	115.726	-42.068	68.041	208.656	4.456	56.691	121.017	97.992	189.133	-108.667	-95.066	162.595	171.355	141.448	57.969	220.222	0.00033975	0.00044771	0.00012871	1319	4.035e-06	3.8242e-06	1309.6	365.38	2.2533e-06	3.9892e-06	421.16	139.27	119.83	41.778	3.1019e-06	51.813	0.00018209	0.00015942	4.3352e-05	1317.9	1.758e-06	1.7189e-06	1320.3	369.79	1.805e-06	1.7139e-06	420.74	140.7	120.88	42.184	1.8008e-06	52.079	-136.189	-42.151	-56.721	-125.090	-2.744	-3.258	-125.032	-120.570	27.831	20.432	-121.053	-116.831	-116.541	-111.634	-8.737	-111.809	-8191	255	
663.587	1	1	0	0	0.21492	0.12014	0.045551	0.13055	0.22784	0.32213	0.25462	0.079614	0.18929	0.099551	0.10679	0.27076	0.084617	0.17603	0.17614	0.051218	-0.175	-0.12083	-0.775	-0.49167	-0.35208	-0.95833	-0.34583	-1.0312	-0.56667	-0.325	-1.0812	-0.66875	-0.54583	-1.1146	-0.064583	-0.83958	-18.476	-58.274	87.166	-104.318	108.604	124.039	206.437	143.221	95.620	-23.194	-127.788	132.492	161.836	149.129	184.443	194.573	0.00030943	0.00049899	8.9257e-05	1310.9	1.4636e-06	6.2114e-06	1311.1	365.59	2.8109e-06	6.5532e-06	417.09	138.92	120.01	41.787	2.815e-06	51.81	0.000179	0.00016072	4.484e-05	1315.5	1.8137e-06	1.7536e-06	1320.7	369.29	1.8032e-06	1.7306e-06	419.16	140.34	120.74	42.065	1.7916e-06	52.093	-135.001	-75.333	-32.502	-125.085	4.920	9.851	-125.037	-120.436	-24.747	7.602	-120.971	-116.884	-116.359	-111.566	7.455	-111.707	-8191	255	
663.660	1	1	0	0	0.090596	0.11828	0.18079	0.16047	0.15189	0.17738	0.10954	0.31065	0.21611	0.022096	0.047922	0.068715	0.18482	0.35116	0.090201	0.15725	-0.47917	-0.14792	-0.89583	-0.50208	-0.28333	-0.93542	-0.46667	-1.0271	-0.67292	-0.22292	-1.0146	-0.70208	-0.275	-1.3563	-0.37292	-0.88542	127.801	-35.599	56.221	197.709	55.176	-59.931	195.039	170.925	13.974	104.322	190.310	-112.059	-90.680	70.829	216.785	191.385	0.00029642	0.0002572	7.0417e-05	1317.1	1.3351e-06	2.9073e-06	1313.6	368.99	4.6309e-06	1.6065e-06	420.34	139.15	120.41	41.754	4.2119e-06	51.511	0.00018061	0.00015865	4.406e-05	1315.8	1.8021e-06	1.7188e-06	1321.9	370.46	1.765e-06	1.7185e-06	420.34	140.67	120.88	42.101	1.8121e-06	51.967	-134.162	-55.367	-65.406	-124.884	1.897	-18.079	-124.962	-120.158	-40.699	-11.870	-120.828	-117.065	-116.029	-111.610	-11.364	-111.792	-8191	255	
663.779	1	1	0	0	0.15433	0.31211	0.37261	0.27753	0.0068996	0.19726	0.14231	0.14704	0.21984	0.22878	0.18524	0.09742	0.1936	0.1711	0.1684	0.01632	-0.58542	-0.15208	-0.88542	-0.6625	-0.33542	-1.1042	-0.39375	-0.65833	-0.78542	-0.10208	-0.82917	-0.73542	-0.37708	-1.1292	-0.45208	-0.58125	-126.007	185.377	-0.858	139.574	-19.113	37.474	63.780	152.997	176.068	51.347	-28.696	-90.154	172.314	-58.325	162.883	31.543	0.00032337	0.00037505	0.00011406	1319.4	4.608e-06	6.8835e-06	1310	366.24	2.3479e-06	2.289e-06	420.11	138.69	120.78	42.03	1.2145e-06	51.719	0.0001804	0.00016512	4.4407e-05	1318.6	1.7751e-06	1.7375e-06	1322.6	369.96	1.8093e-06	1.75e-06	420.48	140.45	121.24	42.291	1.7789e-06	52.145	-134.092	-51.263	-66.210	-124.889	-18.540	-25.796	-124.808	-120.340	-12.451	35.226	-120.398	-116.648	-115.972	-111.077	29.332	-111.135	-8191	255	
663.875	1	1	0	0	0.18191	0.12794	0.12686	0.30607	0.21237	0.27273	0.20355	0.32031	0.25114	0.24756	0.49773	0.09331	0.15564	0.18382	0.27941	0.05231	-0.525	-0.22292	-0.53542	-0.88125	-0.19583	-0.96875	-0.58333	-0.62708	-0.79375	-0.29583	-0.75625	-0.91667	-0.175	-1.1708	-0.5625	-0.57292	23.063	-10.559	83.369	211.520	102.133	-62.826	139.827	149.741	23.052	141.627	158.769	202.105	-132.784	-133.248	-10.450	111.435	0.00030646	0.00044704	0.00011592	1319.3	2.9037e-06	6.6898e-06	1323	368.55	3.0201e-06	2.6783e-06	422	139.78	120.95	41.963	2.3759e-06	51.593	0.00018316	0.00015986	4.398e-05	1318.5	1.7916e-06	1.7169e-06	1324.2	371.03	1.7758e-06	1.7344e-06	421.03	140.93	121.29	42.239	1.7852e-06	52.041	-134.305	-22.339	-57.436	-124.391	46.057	13.070	-124.529	-119.614	-11.383	-42.334	-120.060	-116.176	-115.494	-110.755	-64.102	-110.408	-8191	255	
663.972	1	1	0	0	0.018165	0.13824	0.13897	0.38983	0.029566	0.074262	0.44554	0.063193	0.20865	0.11189	0.09826	0.36604	0.20486	0.43762	0.066059	0.23029	-0.6375	-0.31875	-0.78125	-1.0667	-0.1	-1.0042	-0.85625	-0.41667	-1.2188	-0.40208	-0.55208	-0.94792	-0.10417	-0.77708	-0.68958	-0.35833	195.840	205.679	-126.238	209.994	11.550	-11.195	182.645	9.278	137.812	179.568	19.652	167.864	-73.403	-125.818	40.597	118.565	0.00033446	0.00031505	0.00012732	1317.5	2.1035e-06	3.0359e-06	1316.7	367.14	2.2642e-06	2.0848e-06	422.08	139.06	120.75	41.668	2.4868e-06	51.684	0.00017938	0.00016178	4.4321e-05	1319.9	1.7963e-06	1.7694e-06	1324.9	369.75	1.7792e-06	1.7278e-06	420.39	140.56	120.73	42.029	1.7597e-06	51.952	-135.222	-35.724	-43.825	-124.595	-21.991	-22.762	-124.012	-119.827	1.055	-52.793	-119.100	-116.296	-115.541	-110.369	10.078	-111.249	-8191	255	
664.068	1	1	0	0	0.10061	0.17749	0.1935	0.084315	0.11753	0.16372	0.48374	0.095154	0.45189	0.099259	0.16651	0.13662	0.11345	0.15967	0.12407	0.31547	-0.44583	-0.3125	-0.28333	-1.2646	-0.19167	-0.91875	-1.0458	-0.23958	-0.9875	-0.36042	-0.65417	-1.0917	-0.18125	-0.825	-0.67083	-0.40417	204.458	85.033	-45.670	157.602	-67.449	195.918	154.697	37.303	14.578	89.624	-55.237	-127.135	-95.180	163.846	111.771	189.680	0.00032608	0.000332	0.00012102	1322.7	3.4335e-06	3.8679e-06	1313.9	367.14	4.1655e-06	4.021e-06	421.84	139.58	120.91	41.914	3.9795e-06	52.079	0.00018077	0.00016233	4.487e-05	1317.2	1.7745e-06	1.7023e-06	1323	369.98	1.7636e-06	1.7442e-06	420.51	140.65	120.87	42.141	1.7717e-06	52.188	219.372	-38.363	-46.483	-123.908	-2.454	9.816	-124.236	-119.260	-38.440	9.310	-120.185	-115.983	-114.577	-110.357	29.128	-111.019	-8191	255	
664.188	1	1	0	0	0.29916	0.19027	0.13375	0.099555	0.14821	0.14247	0.24452	0.31409	0.19255	0.17701	0.021276	0.058856	0.076017	0.27642	0.32972	0.15367	-0.61458	-0.49583	-0.41667	-1.3042	-0.3125	-0.60625	-1.1458	-0.29375	-1	-0.3875	-0.56875	-1.2875	-0.29375	-0.87083	-0.9625	-0.27708	-100.450	141.807	139.723	80.440	209.466	49.986	174.333	202.564	-119.024	57.020	1.028	93.053	78.419	-0.390	61.339	200.212	0.0003022	0.00039078	0.00016598	1321	3.0313e-06	4.9933e-06	1320.5	368.96	4.5037e-06	4.8216e-06	423.35	139.6	120.98	41.897	4.5595e-06	52.033	0.00017849	0.00016004	4.3878e-05	1319.6	1.7921e-06	1.7353e-06	1324.4	370.43	1.8127e-06	1.7011e-06	421.29	140.82	120.85	42.157	1.7433e-06	52.096	-133.289	-74.906	-44.291	-123.481	19.130	-13.332	-124.594	-119.843	-27.967	-1.138	-120.042	-115.755	-115.569	-110.896	17.973	-111.551	-8191	255	
664.260	1	1	0	0	0.19904	0.24858	0.23297	0.19709	0.18281	0.033625	0.25902	0.41915	0.12088	0.09631	0.11305	0.26173	0.066144	0.30342	0.22809	0.022331	-0.44792	-0.53333	-0.016667	-1.2104	-0.25208	-0.52083	-1.1125	-0.36667	-0.87083	-0.57708	-0.31042	-1.2021	-0.42083	-0.70833	-0.98333	-0.25208	-133.829	105.205	127.607	168.346	-8.020	206.195	173.146	137.395	92.243	-132.575	-31.530	166.869	23.225	216.785	85.383	64.447	0.00032168	0.00035201	0.00014509	1325	3.8732e-06	4.6647e-06	1323.1	369.67	1.0798e-06	6.2278e-06	424.21	140.3	121.29	42.14	4.4883e-06	52.022	0.00018279	0.00016082	4.4761e-05	1321.7	1.7926e-06	1.7724e-06	1326.3	370.9	1.8019e-06	1.7331e-06	421.57	141.2	121.33	42.241	1.7654e-06	52.164	-132.290	-32.879	-43.619	-124.292	4.955	-13.443	-123.867	-119.421	-17.272	30.606	-120.017	-116.122	-115.898	-110.679	-2.980	-111.353	-8191	255	
664.381	1	1	0	0	0.048691	0.33557	0.15666	0.19542	0.20636	0.26039	0.27882	0.18044	0.049382	0.18288	0.30261	0.094883	0.19236	0.26705	0.25672	0.15042	-0.40208	-0.775	-0.24583	-1.2208	-0.36875	-0.54583	-1.3396	-0.44792	-0.80417	-0.67708	-0.25625	-1.0042	-0.57917	-0.61042	-1.1625	-0.41458	-78.942	76.453	-122.276	183.374	90.566	40.665	150.213	182.470	-10.779	-75.324	192.076	145.795	194.155	200.604	221.214	191.764	0.00030924	0.00054435	0.00014652	1330.5	2.7291e-06	5.777e-06	1325.1	369.76	3.1833e-06	3.3294e-06	423.26	140.42	120.86	41.924	1.4524e-06	52.039	0.00017979	0.0001622	4.4861e-05	1324.9	1.8146e-06	1.7636e-06	1327.1	370.53	1.8054e-06	1.8058e-06	420.92	140.95	120.88	42.112	1.7841e-06	52.082	-132.703	-25.490	-49.091	-124.039	39.667	31.622	-124.034	-119.708	-36.977	12.241	-120.007	-115.807	-115.393	-110.660	-25.480	-111.634	-8191	255	
664.477	1	1	0	0	0.12932	0.11296	0.099616	0.28803	0.10818	0.28117	0.11088	0.29199	0.29746	0.083181	0.17083	0.19545	0.19046	0.34184	0.1914	0.064501	-0.4125	-0.78333	-0.1625	-1.0312	-0.55625	-0.091667	-1.3042	-0.46458	-0.50625	-1.1917	-0.39375	-0.96042	-0.69583	-0.46667	-0.87917	-0.3125	-124.138	-53.087	-22.364	31.909	83.984	184.186	208.486	137.135	16.033	44.398	79.197	189.828	148.074	180.864	103.297	45.761	0.00032614	0.0004312	9.942e-05	1325.8	2.022e-06	6.4684e-06	1322.6	368.74	2.6895e-06	5.0566e-06	422.01	139.26	120.93	41.944	2.5397e-06	51.795	0.00018192	0.00015845	4.5325e-05	1321.6	1.8059e-06	1.7458e-06	1325.7	370.26	1.8129e-06	1.7444e-06	419.82	140.61	120.75	42.102	1.8063e-06	51.943	-135.364	-46.143	-9.099	-125.041	-13.210	-7.102	-125.155	-120.523	-34.245	18.233	-121.153	-117.115	-116.431	-111.434	21.322	-112.134	-8191	255	
664.571	1	1	0	0	0.18846	0.11914	0.15062	0.28293	0.34774	0.14686	0.16548	0.18964	0.17311	0.1642	0.086417	0.12896	0.31328	0.35899	0.20134	0.23198	-0.31458	-0.75417	-0.25417	-1.0333	-0.55	-0.23125	-1.1208	-0.60417	-0.4625	-1.0792	-0.43958	-0.93542	-0.90208	-0.45833	-1.0229	-0.63333	-137.975	-6.775	138.637	186.239	-58.189	106.265	125.248	185.646	100.906	54.467	60.094	96.226	190.982	166.544	113.247	126.525	0.00032216	0.0003093	0.0001292	1322.5	2.3843e-06	1.6611e-06	1321.8	367.06	4.4688e-06	6.5824e-06	422.95	139.34	121.04	41.805	4.7521e-06	51.776	0.00018143	0.00015977	4.5106e-05	1317.9	1.8214e-06	1.7582e-06	1324.8	369.38	1.8529e-06	1.7574e-06	420.47	140.55	120.73	42.07	1.7798e-06	51.981	-132.384	-44.745	-13.514	-124.964	34.152	-23.828	-125.235	-120.575	-43.460	-15.079	-121.229	-116.704	-116.511	-111.670	-20.133	-112.254	-8191	255	
664.667	1	1	0	0	0.29525	0.0021774	0.13957	0.25639	0.15087	0.10105	0.15779	0.33979	0.082776	0.35977	0.1347	0.2845	0.15637	0.20432	0.17485	0.26302	-0.052083	-1.0958	-0.32708	-1.2313	-1.0792	-0.027083	-1.3896	-0.91458	-0.53333	-1.0479	-0.48333	-0.9875	-0.94792	-0.42708	-0.91458	-0.91042	-10.150	166.048	113.979	176.972	220.887	-5.816	186.911	176.296	-6.759	91.340	185.936	169.409	159.223	141.498	-126.691	212.884	0.00030044	0.00058136	5.9476e-05	1322.2	2.5981e-06	2.7742e-06	1319.9	367.67	2.8783e-06	6.7944e-06	421.95	139.5	120.65	41.808	2.04e-06	51.83	0.00018529	0.00016248	4.5615e-05	1319.3	1.8001e-06	1.7756e-06	1323.4	369.62	1.8493e-06	1.755e-06	420.04	140.71	120.68	42.054	1.7827e-06	51.992	-130.903	-62.821	-58.484	-125.251	31.855	1.395	-125.152	-120.651	-22.405	22.562	-121.193	-116.639	-116.390	-111.709	-0.798	-112.162	-8191	255	
664.788	1	1	0	0	0.10529	0.29645	0.093572	0.2055	0.055395	0.18559	0.24921	0.15586	0.13857	0.21813	0.19566	0.23017	0.20531	0.083706	0.26806	0.036304	-0.047917	-1.0625	-0.425	-0.89375	-0.93125	-0.089583	-1.1667	-0.97917	-0.40417	-1.1271	-0.56458	-0.72917	-1.1646	-0.44375	-0.87083	-0.98542	212.431	137.630	67.702	215.211	200.102	144.869	160.068	140.644	179.478	189.416	-83.917	-138.535	-42.299	164.746	-64.335	-83.726	0.00033123	0.00036737	0.00015893	1325.5	2.6895e-06	7.5916e-06	1317.3	367.62	3.1009e-06	2.3068e-06	421.78	139.68	121.17	41.863	3.2057e-06	51.895	0.00018194	0.00016021	4.6438e-05	1320.4	1.7976e-06	1.7355e-06	1323.9	369.71	1.8555e-06	1.7419e-06	419.01	140.53	120.89	42.066	1.7736e-06	51.9	-133.389	-52.210	-75.773	-125.079	15.805	30.763	-125.387	-120.904	-61.728	27.154	-121.010	-116.897	-116.469	-111.431	1.275	-112.098	-8191	255	
664.860	1	1	0	0	0.21628	0.082901	0.2437	0.14368	0.14384	0.2173	0.17856	0.33154	0.30005	0.16321	0.15729	0.063664	0.30409	0.22724	0.088881	0.046672	0.22708	-0.95625	-0.59167	-0.7375	-0.87917	-0.30833	-0.88958	-0.88958	-0.15417	-0.99167	-0.56458	-0.34792	-1.0312	-0.4375	-0.70208	-0.97708	-122.832	138.073	3.712	172.687	-0.199	152.682	108.328	168.172	-42.370	118.067	136.884	132.712	188.974	175.748	-58.733	6.551	0.00027712	0.00050097	0.00015003	1319.2	5.0308e-06	3.0548e-06	1320.3	366.27	4.256e-06	3.3287e-06	420.45	139.13	120.5	41.854	4.6239e-06	51.737	0.00018304	0.00016168	4.4554e-05	1318.5	1.7775e-06	1.7365e-06	1324.7	368.74	1.8377e-06	1.7231e-06	419.8	140.48	120.64	42.082	1.7882e-06	51.99	-135.886	-49.538	-25.357	-125.048	-20.628	20.766	-125.083	-120.726	-14.107	53.366	-121.109	-117.047	-116.240	-111.701	8.306	-112.320	-8191	255	
664.956	1	1	0	0	0.10407	0.12297	0.24221	0.14847	0.4368	0.18129	0.13857	0.24097	0.36517	0.090566	0.34872	0.01283	0.19673	0.41837	0.10679	0.28482	0	-0.99167	-0.55625	-0.49583	-1.1208	-0.22708	-0.94792	-1.3771	-0.16667	-0.83125	-0.90833	-0.38958	-1.1583	-0.35833	-0.43958	-1.0312	153.154	129.456	-37.868	134.262	39.062	186.870	139.626	181.998	171.069	45.176	147.516	168.904	194.200	-127.805	79.483	154.008	0.00029991	0.00035579	0.00015677	1324.5	2.6271e-06	6.3268e-06	1318.1	368.19	3.3097e-06	4.5102e-06	421.71	139.79	121.08	41.823	3.4851e-06	51.597	0.000183	0.00016082	4.5541e-05	1320.5	1.7761e-06	1.7505e-06	1323.9	369.25	1.802e-06	1.7299e-06	419.09	140.43	120.7	42.028	1.7957e-06	51.905	-136.270	-48.713	-29.220	-125.092	52.432	14.202	-125.333	-120.633	-27.755	22.984	-121.218	-116.693	-116.113	-111.451	12.110	-112.401	-8191	255	
665.076	1	1	0	0	0.20324	0.12524	0.034788	0.20566	0.080329	0.15365	0.049241	0.43805	0.066314	0.30072	0.25347	0.25864	0.16161	0.29729	0.28914	0.16821	0.1375	-0.85833	-0.50833	-0.52292	-1.3125	-0.5875	-0.775	-1.0521	-0.17083	-0.91458	-0.75417	-0.36458	-1.0896	-0.47708	-0.46875	-1.0312	33.809	-36.473	150.447	-137.152	151.588	-56.067	-105.982	148.606	173.753	-87.645	-78.395	163.465	-18.460	199.415	95.357	107.036	0.00031565	0.00056359	0.00012427	1325.3	3.4847e-06	5.5764e-06	1321.6	366.87	1.6706e-06	4.2844e-06	421.03	139.09	120.01	41.721	2.3561e-06	51.725	0.00018342	0.00015908	4.475e-05	1319.5	1.7658e-06	1.7941e-06	1325.3	369.2	1.8131e-06	1.7314e-06	419.59	140.26	120.51	42.003	1.7613e-06	51.878	220.095	-29.430	-42.366	-125.137	15.315	3.310	-125.180	-120.586	-38.726	30.786	-121.135	-117.034	-116.024	-111.443	5.262	-111.695	-8191	255	
665.173	1	1	0	0	0.1761	0.19135	0.12082	0.32598	0.11281	0.14946	0.06413	0.21099	0.1241	0.076655	0.21931	0.086488	0.3558	0.10613	0.2806	0.015742	0.23125	-0.875	-0.86667	-0.30208	-0.925	-0.62292	-0.55	-1.3021	-0.53125	-0.6875	-1.0812	-0.21042	-1.0917	-0.67708	-0.20833	-1.3979	-54.753	52.838	-43.312	-117.999	138.024	84.183	181.807	110.128	2.430	116.985	198.158	172.790	212.511	142.254	-48.541	47.490	0.00030974	0.00034549	0.00015458	1321.8	4.2005e-06	3.8909e-06	1317	366.32	2.2397e-06	1.2111e-06	420.52	138.61	120.54	41.506	4.4542e-06	51.7	0.00018153	0.0001608	4.4743e-05	1317.8	1.7739e-06	1.7385e-06	1321.5	368.58	1.7486e-06	1.6723e-06	418.23	139.8	120.5	41.764	1.7568e-06	51.865	220.211	-32.951	-67.407	-125.129	-4.613	35.671	-125.110	-120.566	-20.539	-14.526	-120.879	-116.674	-116.337	-111.494	39.527	-112.175	-8191	255	
665.269	1	1	0	0	0.26105	0.1845	0.26319	0.44086	0.13293	0.11417	0.26363	0.25882	0.13283	0.17325	0.27594	0.15468	0.034406	0.22719	0.087297	0.16035	0.066667	-0.74167	-0.76875	-0.47292	-1.0562	-0.82708	-0.65417	-1.3979	-0.49583	-0.66042	-1.1771	-0.40417	-1.05	-1.1021	-0.26458	-1.2917	-116.491	-41.710	2.908	194.648	65.363	139.472	111.109	158.630	111.913	-12.023	-130.127	106.765	-24.379	-128.993	73.995	124.730	0.00031696	0.00032263	0.00012433	1314.4	2.3634e-06	3.7683e-06	1314.4	365.19	4.5621e-06	8.0823e-06	421.08	138.32	119.71	41.52	2.4315e-06	51.44	0.00017807	0.00015917	4.2972e-05	1315	1.74e-06	1.6917e-06	1321.7	367.6	1.7445e-06	1.7259e-06	418.79	139.9	120.17	41.813	1.7538e-06	51.672	-134.482	-56.524	-62.337	-125.107	47.632	-19.848	-125.173	-120.450	-29.186	12.173	-121.276	-116.754	-116.521	-111.472	16.055	-112.156	-8191	255	
665.365	1	1	0	0	0.062254	0.28433	0.084804	0.13342	0.13473	0.14567	0.035775	0.15569	0.15951	0.18467	0.22003	0.037892	0.32079	0.31841	0.1638	0.16281	0.027083	-0.64375	-1.025	-0.51042	-1.0958	-0.83333	-0.43125	-1.3354	-0.70417	-0.49375	-1.2	-0.28958	-0.8625	-1.0417	-0.17292	-1.2042	214.014	30.996	155.221	177.080	87.869	218.729	100.796	149.260	136.415	14.513	209.021	122.281	189.929	200.971	44.001	154.020	0.00031959	0.00028173	0.00014098	1318.3	1.6988e-06	5.2286e-06	1313.7	364.22	4.2679e-06	4.3995e-06	419.5	137.92	120	41.443	1.2722e-06	51.468	0.00018265	0.00015723	4.3482e-05	1316.1	1.7263e-06	1.7045e-06	1318.5	367.38	1.7711e-06	1.7594e-06	417.3	139.64	120.25	41.741	1.8042e-06	51.638	-135.728	-43.155	-24.520	-124.871	11.990	-25.667	-125.140	-120.296	-20.790	41.373	-121.084	-116.887	-116.005	-111.285	44.481	-111.892	-8191	255	
665.484	1	1	0	0	0.13315	0.2392	0.17979	0.27277	0.053083	0.056713	0.27582	0.22015	0.29753	0.042475	0.14656	0.16769	0.31523	0.13226	0.018522	0.076352	-0.36875	-0.4375	-1.1667	-0.53125	-0.72708	-0.96042	-0.25417	-1.1083	-0.87292	-0.41667	-1.2917	-0.52917	-0.71667	-1.05	-0.27917	-1.2458	-50.812	140.837	63.656	184.984	-117.877	-8.743	155.815	108.918	111.953	147.329	197.400	190.674	138.378	98.440	-119.806	137.402	0.00031567	0.00034795	9.452e-05	1313.2	3.9749e-06	4.8667e-06	1315.5	364.6	3.5767e-06	4.3419e-06	419.37	138.07	119.5	41.423	2.5652e-06	51.406	0.00018104	0.00015906	4.4136e-05	1313.7	1.7934e-06	1.726e-06	1320.1	367.3	1.8028e-06	1.7485e-06	418.01	139.41	119.76	41.719	1.7884e-06	51.714	-133.602	-35.861	-36.842	-125.070	-30.713	-7.255	-125.119	-120.633	-6.396	-24.908	-120.910	-116.924	-116.100	-111.442	43.893	-112.075	-8191	255	
665.555	1	1	0	0	0.054147	0.038629	0.25433	0.16243	0.30237	0.08093	0.10898	0.17185	0.2226	0.14952	0.21881	0.12415	0.3133	0.23788	0.21017	0.18163	-0.29375	-0.2375	-1.0854	-0.31875	-0.58125	-1.1292	-0.55625	-1.1667	-0.84167	-0.12917	-1.2875	-0.64792	-0.43958	-1.3167	-0.070833	-1.1479	176.415	67.101	42.028	90.206	-101.044	196.021	-94.476	134.531	168.807	116.753	146.123	-123.676	-89.874	-89.301	-43.997	129.416	0.00032194	0.00026025	0.00014495	1317.1	2.7322e-06	5.4903e-06	1311.5	364.28	3.5507e-06	2.8382e-06	417.34	137.76	119.76	41.288	4.925e-06	51.161	0.00018271	0.00015951	4.4164e-05	1311.7	1.7455e-06	1.7213e-06	1316.3	366.54	1.8068e-06	1.7505e-06	416.69	139.16	119.85	41.691	1.8017e-06	51.464	-131.994	-53.643	-34.491	-125.178	-14.369	-9.509	-125.217	-120.358	-8.145	-0.784	-121.020	-116.739	-116.142	-111.606	48.176	-112.073	-8191	255	
665.652	1	1	0	0	0.23383	0.23931	0.1676	0.31142	0.25902	0.48414	0.077078	0.21601	0.22022	0.4702	0.20287	0.1751	0.051857	0.065269	0.30449	0.18856	-0.49792	-0.39792	-1.2667	-0.66667	-0.46458	-1.3542	-0.36458	-0.96042	-0.91667	-0.27292	-1.1833	-0.69375	-0.60417	-1.2313	-0.29583	-0.93958	72.145	43.035	192.405	198.929	-65.023	204.785	-67.394	87.193	-60.153	139.810	214.181	180.932	-44.340	137.481	-75.397	-128.579	0.00029783	0.00066702	0.00011256	1306.6	2.2682e-06	3.6945e-06	1309.5	362.29	2.4344e-06	5.1089e-06	417.09	137.99	119.69	41.465	3.4682e-06	51.092	0.00018336	0.00016303	4.517e-05	1308.3	1.8246e-06	1.7123e-06	1314.1	365.61	1.8043e-06	1.7632e-06	416.44	139.04	119.52	41.682	1.8368e-06	51.41	220.334	-44.313	-55.221	-124.956	13.457	49.584	-125.077	-120.345	-15.213	-3.427	-120.950	-116.817	-116.227	-111.671	34.865	-111.940	-8191	255	
665.749	1	1	0	0	0.24333	0.43739	0.20357	0.29828	0.081562	0.20551	0.14287	0.12547	0.032607	0.0962	0.29287	0.27197	0.25806	0.036367	0.21986	0.085381	-0.69792	-0.3125	-1.2188	-0.94167	-0.38958	-1.1125	-0.5875	-0.74375	-1.2437	-0.12708	-1.1729	-0.8875	-0.52292	-1.0271	-0.45	-0.58542	84.948	-10.712	-45.895	198.716	-78.988	200.592	73.483	166.438	180.625	176.869	187.277	163.398	219.524	195.880	29.657	-27.629	0.00033069	0.00054134	9.4411e-05	1307	3.2194e-06	7.4128e-06	1304.9	361.22	3.0556e-06	5.5684e-06	418.62	137.19	118.88	41.225	2.8952e-06	50.81	0.00018125	0.00016382	4.4893e-05	1307.6	1.8527e-06	1.8203e-06	1312.2	364.82	1.8649e-06	1.83e-06	417.2	138.76	119.27	41.544	1.8655e-06	51.367	221.056	-53.066	-20.850	-125.176	21.027	-29.691	-125.061	-120.491	-17.387	11.739	-120.857	-117.003	-116.426	-111.509	34.771	-112.046	-8191	255	
665.868	1	1	0	0	0.26257	0.19968	0.09208	0.36012	0.26157	0.050607	0.029325	0.27669	0.36975	0.18106	0.14508	0.27857	0.045023	0.3607	0.22267	0.36676	-0.76458	-0.21875	-0.92083	-0.90417	-0.19167	-0.99583	-0.63333	-0.72917	-0.91875	-0.15833	-0.87917	-0.94375	-0.16667	-1.1333	-0.34375	-0.59583	-6.596	-19.862	-94.039	207.008	-12.093	158.442	-19.414	213.009	148.863	127.541	60.138	-80.765	-128.793	143.679	63.345	173.707	0.00033832	0.00027079	0.00015428	1307.6	3.0429e-06	4.3976e-06	1300.8	362.11	3.3696e-06	3.8555e-06	416.16	137.13	118.96	41.067	2.7899e-06	50.962	0.0001868	0.00016586	4.6005e-05	1308	1.8877e-06	1.7483e-06	1311.8	365.02	1.8218e-06	1.8228e-06	415.75	138.83	119.26	41.478	1.8059e-06	51.377	221.276	-27.131	-9.615	-125.152	22.672	-32.724	-125.043	-120.424	-18.134	17.811	-120.925	-116.849	-116.262	-111.274	42.185	-111.895	-8191	255	
665.964	1	1	0	0	0.078449	0.29559	0.2347	0.39366	0.046347	0.15643	0.1501	0.19198	0.24688	0.23894	0.20549	0.33908	0.054461	0.05909	0.098073	0.17542	-0.83958	-0.39167	-0.6625	-0.86042	-0.32708	-0.94375	-0.87708	-0.54167	-1.175	-0.34583	-0.85208	-1	-0.20833	-1.0208	-0.46667	-0.65625	71.810	172.256	-64.659	106.758	124.632	85.682	85.791	136.554	77.917	1.860	3.487	-132.028	118.027	126.559	155.491	60.062	0.00029173	0.00057692	0.00018859	1306.2	3.1083e-06	5.9901e-06	1304.5	363.37	3.1165e-06	2.1121e-06	416.56	137.75	119.31	41.228	2.8384e-06	50.782	0.00018351	0.00016471	4.5416e-05	1307.9	1.8099e-06	1.7807e-06	1311.4	365.34	1.8265e-06	1.7805e-06	416.31	138.79	119.61	41.62	1.7909e-06	51.323	-136.119	-26.194	-25.325	-125.150	14.310	0.351	-125.012	-120.375	-8.453	-8.518	-120.894	-117.021	-116.118	-111.477	-17.896	-111.966	-8191	255	
666.061	1	1	0	0	0.16115	0.11508	0.035203	0.20905	0.31602	0.30727	0.15795	0.12922	0.10865	0.094685	0.11886	0.18949	0.23474	0.20645	0.28229	0.28535	-0.73958	-0.31458	-0.63542	-1.2646	-0.29583	-0.78125	-0.92708	-0.41458	-1.1187	-0.44583	-0.43125	-1.2042	-0.42292	-0.975	-0.93125	-0.36042	69.019	31.070	-67.517	-50.397	56.823	9.675	174.778	168.435	-50.468	30.193	102.588	195.901	85.513	202.861	-22.509	132.551	0.00030706	0.0005068	0.00011724	1311.6	3.7716e-06	4.6266e-06	1307.2	363.68	3.3894e-06	3.7483e-06	417.04	138.49	119.13	41.584	2.6836e-06	51.606	0.00018257	0.00015963	4.4227e-05	1311	1.7818e-06	1.712e-06	1316.1	366.3	1.7676e-06	1.7257e-06	416.99	139.73	119.74	41.808	1.7443e-06	51.799	-134.489	-33.319	-51.679	-124.835	-6.311	-28.267	-125.192	-120.447	-42.425	10.315	-121.068	-116.910	-116.418	-111.270	10.922	-112.009	-8191	255	
666.157	1	1	0	0	0.57495	0.28461	0.23223	0.20263	0.39276	0.12594	0.39955	0.32284	0.21622	0.10031	0.098786	0.28315	0.15612	0.085723	0.024092	0.2279	-0.82083	-0.45625	-0.475	-1.5646	-0.33958	-0.88542	-0.93958	-0.34375	-1.0812	-0.52708	-0.45833	-1.2792	-0.40625	-1.05	-0.91042	-0.46667	35.666	-108.436	-49.986	167.964	89.731	-81.871	117.089	157.434	141.288	94.207	109.065	196.697	137.303	13.014	-12.163	48.302	0.00032954	0.00028826	0.0001153	1312.4	4.6695e-06	7.3108e-06	1306.6	363.68	3.0069e-06	5.83e-06	417.74	138.76	119.8	41.544	2.6475e-06	51.41	0.00017725	0.000157	4.3524e-05	1312.3	1.7735e-06	1.7048e-06	1316.3	367.01	1.7818e-06	1.7056e-06	417.76	139.84	120.08	41.908	1.7398e-06	51.735	-136.882	-69.262	-41.506	-125.085	10.003	20.091	-125.027	-120.482	-39.366	20.571	-120.760	-116.437	-116.381	-111.229	1.010	-111.766	-8191	255	
666.253	1	1	0	0	0.23816	0.076604	0.15306	0.26416	0.05635	0.043713	0.34543	0.064278	0.029575	0.25762	0.19234	0.18458	0.19936	0.14425	0.19884	0.18266	-0.54792	-0.56667	-0.44375	-1.2521	-0.33333	-0.69375	-1.2479	-0.2875	-1.1063	-0.79583	-0.48542	-1.275	-0.52083	-0.69167	-0.98125	-0.35208	-130.009	-117.825	85.085	-119.134	219.577	-63.922	173.188	97.785	-3.669	-138.060	175.430	-115.186	179.594	98.934	122.366	197.333	0.00029423	0.00033586	7.2177e-05	1310.7	3.4435e-06	5.2305e-06	1309.4	364.1	2.9276e-06	3.7164e-06	418.16	137.99	119.88	41.262	3.1023e-06	51.307	0.0001773	0.00015982	4.4952e-05	1312	1.8144e-06	1.7769e-06	1316.3	366.18	1.8266e-06	1.7778e-06	416.92	139.3	119.62	41.691	1.8241e-06	51.474	-135.643	-65.211	-48.901	-124.767	6.262	-15.102	-124.964	-120.299	-30.061	14.038	-120.793	-116.676	-116.339	-111.442	8.092	-111.982	-8191	255	
666.349	1	1	0	0	0.34776	0.23718	0.37126	0.24276	0.1997	0.33141	0.22631	0.29253	0.24527	0.18846	0.1608	0.10823	0.12798	0.23594	0.050379	0.19293	-0.36667	-0.83125	-0.20625	-1.0646	-0.45625	-0.48958	-1.1854	-0.47083	-0.96458	-0.79167	-0.44583	-1.1229	-0.74583	-0.35417	-1.1146	-0.39792	208.915	176.379	105.977	206.754	-49.750	-2.208	119.718	174.283	-53.144	-7.924	183.063	130.894	157.124	213.919	15.667	129.121	0.00029577	0.00032351	0.00014055	1314.5	4.8474e-06	6.2838e-06	1315.3	366.57	2.1003e-06	2.9215e-06	421.18	139.94	120.26	41.99	3.4766e-06	51.974	0.00018187	0.00016041	4.417e-05	1313.9	1.7906e-06	1.7108e-06	1319.6	367.55	1.732e-06	1.6563e-06	418.9	140.74	120.74	42.136	1.6289e-06	52.132	-135.730	-24.625	-38.938	-124.907	15.427	2.622	-125.024	-120.249	-23.948	12.025	-120.898	-116.703	-116.337	-111.289	10.272	-111.872	-8191	255	
666.470	1	1	0	0	0.40482	0.094363	0.16814	0.35791	0.11454	0.067064	0.28886	0.13241	0.030295	0.10576	0.23192	0.16364	0.1617	0.22163	0.086732	0.072845	-0.4375	-0.95	-0.4125	-1.1313	-0.73125	-0.42708	-1.4417	-0.6	-0.91667	-1.0917	-0.36667	-1.1542	-0.6	-0.61042	-1.0375	-0.45833	64.494	97.680	-134.196	19.411	89.465	93.433	177.952	181.263	-130.661	116.742	61.497	117.688	-84.158	120.206	182.741	50.855	0.00030891	0.00041071	0.00015423	1321.2	3.4415e-06	4.4579e-06	1318.3	366.92	3.9354e-06	6.6001e-07	420.45	139.21	120.31	41.731	5.9001e-07	51.333	0.00017066	0.00014702	4.1336e-05	1317.9	1.6676e-06	1.6227e-06	1322.7	368.74	1.7001e-06	1.6262e-06	418.27	140.42	120.38	41.947	1.6861e-06	51.721	-133.664	-54.071	-61.570	-124.958	29.529	14.518	-125.051	-120.286	-5.645	-46.073	-120.771	-116.611	-116.105	-111.206	13.063	-111.819	-8191	255	
666.564	1	1	0	0	0.088232	0.15501	0.13139	0.35436	0.10191	0.076381	0.34429	0.25064	0.088031	0.39579	0.19471	0.38547	0.30206	0.074983	0.242	0.14716	-0.40208	-1.075	-0.22708	-1.3438	-0.86667	-0.28333	-1.3875	-0.71667	-0.475	-1.0542	-0.24375	-0.90625	-0.775	-0.39167	-1.1375	-0.63125	4.080	95.192	-76.023	11.822	-51.888	-115.964	124.307	151.441	201.813	-88.593	163.709	198.027	164.509	127.802	0.143	-98.824	0.00033318	0.0003245	0.00010265	1322.2	1.4812e-06	5.4132e-06	1317.2	365.64	3.4357e-06	5.9355e-06	423.14	138.95	119.87	41.659	4.8149e-06	51.685	0.00017653	0.00015668	4.2486e-05	1315.8	1.7391e-06	1.6765e-06	1320.8	367.93	1.7329e-06	1.6708e-06	419.68	140.39	120.22	42.016	1.6782e-06	51.887	-136.135	-42.231	-64.170	-124.871	18.334	-3.821	-124.987	-120.376	-36.008	6.992	-120.669	-116.610	-115.834	-111.222	0.948	-111.801	-8191	255	
666.660	1	1	0	0	0.29153	0.20357	0.13768	0.25052	0.23544	0.17617	0.22232	0.15312	0.23645	0.11253	0.32762	0.22944	0.10709	0.12287	0.069321	0.013604	-0.14167	-0.97917	-0.37917	-1.0083	-0.87917	-0.16667	-1.5125	-0.61042	-0.4625	-1.1333	-0.54792	-0.65208	-1.0458	-0.31875	-1.0104	-0.87917	-124.675	190.530	-1.545	145.455	-21.353	148.369	106.598	122.543	43.801	-133.237	157.437	152.247	95.779	25.016	131.990	134.247	0.00029865	0.00039787	6.5223e-05	1320	3.3853e-06	5.861e-06	1319.6	368.59	1.7905e-06	4.3227e-06	423.59	140.98	121.32	41.993	3.4914e-06	51.931	0.00017508	0.00015049	4.1972e-05	1319	1.6592e-06	1.6243e-06	1326.1	370.25	1.6897e-06	1.5959e-06	420.61	141.43	121.22	42.252	1.5782e-06	52.197	-135.732	-62.969	-35.355	-124.470	15.855	-5.551	-124.876	-120.030	-75.558	5.254	-120.857	-116.309	-115.948	-110.961	14.686	-111.722	-8191	255	
666.781	1	1	0	0	0.10661	0.25331	0.053154	0.25113	0.092676	0.14428	0.25543	0.36473	0.12707	0.13663	0.31755	0.18122	0.1159	0.21671	0.060971	0.1286	0.041667	-1.1688	-0.25625	-0.9875	-0.95	-0.25833	-1.1375	-0.975	-0.27917	-1.0312	-0.50417	-0.88958	-1.0521	-0.29375	-0.92708	-0.88333	83.516	167.560	157.897	138.383	-86.305	-118.493	139.326	93.253	46.878	194.808	178.797	-31.999	213.614	-128.943	171.251	193.072	0.00033702	0.00036322	0.00014768	1326.3	2.9328e-06	4.7783e-06	1319.6	368.33	4.1038e-06	4.0427e-06	423.53	140.59	121.65	42.279	3.8007e-06	52	0.0001687	0.00014375	4.1417e-05	1322.7	1.5895e-06	1.5898e-06	1326.8	370.78	1.6523e-06	1.5423e-06	420.7	141.48	121.52	42.347	1.606e-06	52.137	-135.931	-30.287	-6.062	-124.557	30.904	-10.580	-124.635	-120.338	-26.310	-5.617	-120.545	-116.328	-115.948	-111.125	-3.357	-111.429	-8191	255	
666.853	1	1	0	0	0.11694	0.23411	0.066216	0.20058	0.13004	0.1794	0.37	0.085101	0.21921	0.14514	0.34941	0.18009	0.114	0.23142	0.1667	0.030723	-0.11875	-1.0375	-0.52708	-0.63958	-1.0896	-0.36875	-1.3438	-0.88958	-0.37917	-1.1021	-0.775	-0.43125	-1.3979	-0.48333	-0.92708	-1.0583	141.401	53.786	-85.044	205.792	157.968	108.456	172.354	-83.677	-130.120	-57.708	-76.375	158.421	142.736	216.121	33.630	115.911	0.00030605	0.00045768	0.00011471	1327.5	2.4546e-06	4.4627e-06	1316.4	367.34	3.7675e-06	6.8865e-06	422.39	140.4	121.09	41.885	4.1166e-06	51.998	0.00016987	0.00014445	4.0094e-05	1322.6	1.5808e-06	1.6222e-06	1326.9	370.47	1.668e-06	1.609e-06	420.37	141.21	120.99	42.166	1.6157e-06	52.16	-131.446	-41.480	-66.716	-124.346	-12.897	21.484	-124.435	-120.231	-2.775	0.747	-120.677	-116.304	-115.834	-111.156	31.665	-111.617	-8191	255	
666.949	1	1	0	0	0.12137	0.22905	0.10045	0.053474	0.13254	0.28647	0.32563	0.23584	0.13854	0.038759	0.20023	0.10092	0.22514	0.20597	0.18743	0.14208	0.32917	-1.0521	-0.53125	-0.6	-1.0958	-0.24375	-1.0542	-0.99167	-0.27917	-0.98333	-0.83958	-0.53542	-1.2583	-0.64375	-0.54792	-0.89375	175.104	115.493	9.809	-4.325	71.560	115.813	214.977	178.624	184.054	-33.243	-87.801	-34.670	120.714	218.282	186.818	171.050	0.00031934	0.00062388	0.00018908	1320.4	3.1554e-06	7.7524e-06	1324.7	368.88	2.648e-06	4.8526e-06	424.38	140.19	121.73	41.857	2.8194e-06	52.157	0.00017196	0.00014553	4.074e-05	1322.1	1.6153e-06	1.5914e-06	1328.4	371.17	1.6854e-06	1.5758e-06	420.86	141.48	121.33	42.219	1.6092e-06	52.267	221.518	-36.687	-26.481	-124.334	4.394	19.307	-124.393	-120.098	-20.639	18.954	-120.723	-116.384	-115.683	-111.005	-12.096	-111.408	-8191	255	
667.045	1	1	0	0	0.11032	0.14354	0.063014	0.317	0.27471	0.04312	0.23588	0.40999	0.16549	0.18575	0.17595	0.2461	0.15445	0.16542	0.36077	0.12016	0.20625	-0.76458	-0.61458	-0.48958	-0.95	-0.32708	-0.9	-1.2563	-0.25208	-0.83333	-1.0396	-0.41042	-1.3375	-0.43542	-0.37292	-1.2062	-4.628	-14.378	81.708	200.327	-94.392	151.525	204.586	126.170	116.923	-84.227	144.849	151.945	-121.813	182.667	36.702	16.960	0.00026894	0.00039318	0.0001631	1327.3	4.1767e-06	6.9073e-06	1323.7	370.62	2.9544e-06	4.2306e-06	422.36	140.93	122.66	41.994	1.5822e-06	52.09	0.00016975	0.00014345	4.0067e-05	1323.7	1.6022e-06	1.58e-06	1329.8	371.95	1.6312e-06	1.5337e-06	421.09	141.93	122.06	42.334	1.6116e-06	52.38	-134.787	-56.543	-45.391	-124.478	9.167	22.882	-124.553	-119.999	-28.684	25.396	-120.481	-116.086	-115.828	-111.154	-14.806	-111.212	-8191	255	
667.165	1	1	0	0	0.0339	0.081074	0.33323	0.28576	0.052128	0.097743	0.25413	0.26328	0.21494	0.16292	0.1541	0.14689	0.063273	0.19829	0.36442	0.244	-0.035417	-0.92083	-0.82083	-0.39375	-1.0187	-0.67083	-0.59375	-1.4562	-0.32292	-0.90625	-0.94375	-0.20625	-0.99375	-0.71458	-0.36875	-1.1938	29.548	-90.722	74.537	179.139	-57.806	42.071	141.750	95.538	156.797	-83.658	202.389	6.008	-105.195	-120.211	20.329	96.680	0.00030452	0.00037428	0.00016248	1326.7	3.1843e-06	6.4235e-06	1326.3	369.16	3.2982e-06	6.8915e-06	424.39	140.21	121.37	42.023	2.8611e-06	52.078	0.00016447	0.00014342	3.9321e-05	1323.1	1.6e-06	1.5602e-06	1330.2	371.71	1.6417e-06	1.5811e-06	421.59	141.49	121.63	42.254	1.6286e-06	52.205	-136.231	-40.488	-53.488	-124.412	1.253	10.541	-124.693	-119.950	-9.976	25.415	-120.642	-116.426	-115.670	-111.207	13.379	-111.469	-8191	255	
667.262	1	1	0	0	0.16293	0.25794	0.13122	0.12765	0.27739	0.068573	0.40536	0.15421	0.096605	0.34276	0.27382	0.085844	0.24879	0.34533	0.16099	0.070835	-0.13333	-0.72917	-0.98333	-0.37708	-0.89167	-0.54583	-0.57708	-1.2667	-0.35	-0.46458	-1.2938	-0.41042	-1.1229	-0.80625	-0.1375	-1.0958	-44.389	188.176	69.662	-88.254	220.709	33.637	-123.686	151.813	-119.505	5.195	127.478	33.712	-128.926	213.149	188.807	112.552	0.00030262	0.00047299	0.00013678	1327.5	2.2868e-06	4.9085e-06	1319.4	369.59	3.0764e-06	3.4492e-06	420.36	139.97	121.58	42.075	3.7386e-06	52.017	0.00016709	0.00014662	4.0035e-05	1322.6	1.6089e-06	1.5868e-06	1326.3	370.58	1.6402e-06	1.5656e-06	419.81	141.15	121.24	42.207	1.619e-06	52.167	-132.780	-40.922	-37.838	-124.236	-35.827	-4.467	-124.513	-119.966	-27.822	-0.932	-120.299	-116.296	-115.850	-111.149	18.256	-111.272	-8191	255	
667.356	1	1	0	0	0.11229	0.21916	0.34171	0.18037	0.26554	0.12303	0.15273	0.31424	0.23937	0.12338	0.053935	0.096018	0.062295	0.056523	0.41305	0.22111	0.03125	-0.59583	-0.95417	-0.33125	-0.82917	-0.6625	-0.5	-1.2437	-0.6125	-0.27083	-1.2875	-0.45833	-0.83125	-0.9375	-0.16458	-1.0708	80.357	-24.457	163.985	-103.824	-27.229	40.028	163.623	197.732	70.046	164.558	118.763	129.173	189.341	212.322	125.247	219.787	0.00031913	3.8588e-05	0.00015641	1321.2	3.0974e-06	4.3335e-06	1322.9	368.37	2.963e-06	4.5758e-06	423.93	140.64	121.83	42.376	4.6195e-06	52.028	0.00016811	0.00014318	3.9448e-05	1320.9	1.5955e-06	1.5225e-06	1326.9	370.52	1.6025e-06	1.5303e-06	420.85	141.74	121.63	42.361	1.5761e-06	52.221	-137.978	-30.434	-42.025	-124.497	-10.386	-11.244	-124.338	-120.176	-7.976	-5.390	-120.641	-116.505	-115.504	-110.887	1.607	-111.421	-8191	255	
667.429	1	1	0	0	0.32371	0.069831	0.14006	0.33219	0.15851	0.29933	0.063943	0.18426	0.033316	0.24205	0.077956	0.23401	0.096188	0.25407	0.20624	0.32821	-0.34167	-0.27917	-1.2271	-0.40625	-0.72917	-0.98958	-0.52292	-1.1458	-0.69375	-0.17708	-1.1604	-0.53958	-0.625	-1.1917	-0.064583	-0.97917	208.633	-136.526	104.238	207.221	154.527	-128.430	112.227	206.086	-1.980	72.186	122.846	-66.718	-28.356	193.815	80.874	116.522	0.00030499	0.00043008	0.00017803	1323.3	1.4789e-06	5.716e-06	1325.6	369.43	1.9362e-06	7.2274e-06	419.83	140.04	121.25	41.932	3.9462e-06	51.902	0.00016358	0.00014239	3.9286e-05	1321.9	1.6333e-06	1.564e-06	1327.2	370.96	1.62e-06	1.5853e-06	420.05	141.08	121.35	42.246	1.6131e-06	52.29	-136.543	-66.549	-31.855	-124.422	26.626	18.531	-124.330	-119.868	-4.610	22.819	-120.343	-116.376	-115.382	-110.966	36.628	-111.106	-8191	255	
667.548	1	1	0	0	0.11622	0.063884	0.18473	0.23026	0.17839	0.17193	0.24988	0.16853	0.22666	0.084294	0.23171	0.29918	0.19751	0.1603	0.10283	0.084579	-0.39375	-0.41875	-0.97083	-0.675	-0.49375	-1.0521	-0.31458	-1.0833	-0.76875	-0.27083	-1.3813	-0.45833	-0.70417	-1.2083	-0.28333	-0.92083	-29.547	110.960	-110.585	89.014	190.849	67.536	207.465	132.566	34.531	-60.760	219.685	-1.910	173.886	-65.560	192.267	-94.952	0.00029595	0.00038601	0.00010356	1329.9	3.5119e-06	6.381e-06	1327.2	368.17	3.2062e-06	5.1461e-06	422.84	140.93	121.34	42.084	3.8053e-06	52.116	0.00016638	0.00014317	3.9058e-05	1324.9	1.6041e-06	1.5421e-06	1329.8	370.88	1.6824e-06	1.5838e-06	420.95	141.48	121.37	42.245	1.611e-06	52.198	221.903	-88.523	-57.489	-124.270	-5.289	-4.417	-124.586	-119.953	-52.921	8.682	-120.329	-116.334	-115.698	-110.815	-0.902	-110.971	-8191	255	
667.645	1	1	0	0	0.058402	0.18885	0.19389	0.27476	0.032547	0.16294	0.37734	0.22748	0.17465	0.048173	0.10864	0.24422	0.089211	0.17595	0.14914	0.036023	-0.5875	-0.17292	-1.1146	-0.6	-0.5375	-1.1167	-0.51875	-1.2313	-0.80417	-0.3	-1.1	-0.5125	-0.39792	-1.3854	-0.38333	-1.0729	209.860	123.411	11.449	-100.800	-115.811	-53.001	180.494	142.870	72.842	101.006	217.901	-14.697	181.568	176.804	1.099	176.376	0.00030328	0.0004962	0.00017926	1330	1.485e-06	5.6043e-06	1321	368.31	3.3804e-06	6.1583e-06	424.02	140.29	121.4	42.126	2.7436e-06	52.168	0.00016664	0.00014726	4.0377e-05	1323.4	1.6274e-06	1.5698e-06	1328	370.7	1.6335e-06	1.5881e-06	420.78	141.45	121.33	42.28	1.5879e-06	52.407	-137.419	-54.394	-37.730	-124.292	-3.408	6.795	-124.227	-119.695	-25.272	-11.778	-120.210	-116.174	-115.366	-110.744	10.937	-111.462	-8191	255	
667.741	1	1	0	0	0.20162	0.068619	0.22148	0.47253	0.1371	0.31976	0.28212	0.097784	0.16918	0.054316	0.096933	0.066325	0.23141	0.306	0.088183	0.060998	-0.60417	-0.12917	-0.94375	-0.88333	-0.4625	-1.2729	-0.54375	-1.0458	-0.91458	-0.45625	-0.97083	-0.73958	-0.37917	-1.1729	-0.51875	-0.71667	-63.792	102.631	174.208	169.612	66.622	-5.421	147.430	-110.450	65.375	-69.065	-42.985	65.803	112.946	200.649	132.216	14.622	0.00028446	0.00046636	8.1314e-05	1326.8	2.5348e-06	4.6295e-06	1320.8	367.91	3.2431e-06	5.0347e-06	421.28	140.29	121.01	41.903	3.6714e-06	51.764	0.00016657	0.00014504	3.9451e-05	1322.4	1.6162e-06	1.5483e-06	1327.5	370.38	1.6336e-06	1.5771e-06	419.63	141.2	121.13	42.16	1.6404e-06	52.069	-137.149	-42.469	-49.586	-124.413	-0.674	-1.395	-124.137	-119.718	-15.068	-1.790	-120.103	-116.182	-115.794	-110.788	-9.464	-111.243	-8191	255	
#DATA ENDS
