BOXY.EXE: ISS Imagent and Oximeter Data Acquisition Program Version 0.80
Ascii Record File

#ACQ INFORMATION
2  Detector Channels 
16  External MUX Channels 
1  Auxiliary Channels 
5000  Waveform (CCF) Frequency (Hz)
1  Waveforms Skipped 
30  Waveforms Averaged 
1  Cycles Averaged 
16  Acquisitions per Waveform 
10.0806  Updata Rate (Hz) 

#FILE INFORMATION
TRUE -- External MUX Channel results are PARSED.
FALSE -- AC DC and Phase are NOT grouped.
TRUE -- Companion Program Settings File CREATED.
FALSE -- AC data not excluded
FALSE -- DC data not excluded
FALSE -- Phase data not excluded
FALSE -- Auxillary Chn. data not excluded
Tab delimiters

#CALIBRATION STATE
TRUE -- Waveform Calibration Values APPLIED.


#AUX CALIBRATION VALUES
Val Type	aux-1	

Term	1.0000e+00	
Factor	0.0000e+00	


#WF CALIBRATION VALUES
A = Detector Channel
Val Type	A-AC1	A-AC2	A-AC3	A-AC4	A-AC5	A-AC6	A-AC7	A-AC8	A-AC9	A-AC10	A-AC11	A-AC12	A-AC13	A-AC14	A-AC15	A-AC16	A-DC1	A-DC2	A-DC3	A-DC4	A-DC5	A-DC6	A-DC7	A-DC8	A-DC9	A-DC10	A-DC11	A-DC12	A-DC13	A-DC14	A-DC15	A-DC16	A-Ph1	A-Ph2	A-Ph3	A-Ph4	A-Ph5	A-Ph6	A-Ph7	A-Ph8	A-Ph9	A-Ph10	A-Ph11	A-Ph12	A-Ph13	A-Ph14	A-Ph15	A-Ph16	

Term	0.00000e+00	0.00000e+00	0.00000e+00	0.00000e+00	0.00000e+00	0.00000e+00	0.00000e+00	0.00000e+00	0.00000e+00	0.00000e+00	0.00000e+00	0.00000e+00	0.00000e+00	0.00000e+00	0.00000e+00	0.00000e+00	0.00000e+00	0.00000e+00	0.00000e+00	0.00000e+00	0.00000e+00	0.00000e+00	0.00000e+00	0.00000e+00	0.00000e+00	0.00000e+00	0.00000e+00	0.00000e+00	0.00000e+00	0.00000e+00	0.00000e+00	0.00000e+00	0.00000e+00	0.00000e+00	0.00000e+00	0.00000e+00	0.00000e+00	0.00000e+00	0.00000e+00	0.00000e+00	0.00000e+00	0.00000e+00	0.00000e+00	0.00000e+00	0.00000e+00	0.00000e+00	0.00000e+00	0.00000e+00	
Factor	1.00000e+00	1.00000e+00	1.00000e+00	1.00000e+00	1.00000e+00	1.00000e+00	1.00000e+00	1.00000e+00	1.00000e+00	1.00000e+00	1.00000e+00	1.00000e+00	1.00000e+00	1.00000e+00	1.00000e+00	1.00000e+00	1.00000e+00	1.00000e+00	1.00000e+00	1.00000e+00	1.00000e+00	1.00000e+00	1.00000e+00	1.00000e+00	1.00000e+00	1.00000e+00	1.00000e+00	1.00000e+00	1.00000e+00	1.00000e+00	1.00000e+00	1.00000e+00	X	X	X	X	X	X	X	X	X	X	X	X	X	X	X	X	

B = Detector Channel
Val Type	B-AC1	B-AC2	B-AC3	B-AC4	B-AC5	B-AC6	B-AC7	B-AC8	B-AC9	B-AC10	B-AC11	B-AC12	B-AC13	B-AC14	B-AC15	B-AC16	B-DC1	B-DC2	B-DC3	B-DC4	B-DC5	B-DC6	B-DC7	B-DC8	B-DC9	B-DC10	B-DC11	B-DC12	B-DC13	B-DC14	B-DC15	B-DC16	B-Ph1	B-Ph2	B-Ph3	B-Ph4	B-Ph5	B-Ph6	B-Ph7	B-Ph8	B-Ph9	B-Ph10	B-Ph11	B-Ph12	B-Ph13	B-Ph14	B-Ph15	B-Ph16	

Term	0.00000e+00	0.00000e+00	0.00000e+00	0.00000e+00	0.00000e+00	0.00000e+00	0.00000e+00	0.00000e+00	0.00000e+00	0.00000e+00	0.00000e+00	0.00000e+00	0.00000e+00	0.00000e+00	0.00000e+00	0.00000e+00	0.00000e+00	0.00000e+00	0.00000e+00	0.00000e+00	0.00000e+00	0.00000e+00	0.00000e+00	0.00000e+00	0.00000e+00	0.00000e+00	0.00000e+00	0.00000e+00	0.00000e+00	0.00000e+00	0.00000e+00	0.00000e+00	-1.06138e+02	-1.29047e+02	-1.21568e+02	-1.83476e+02	-5.52129e+01	-7.56509e+01	-1.59880e+02	-1.62015e+02	-5.74747e+01	-6.97283e+01	-1.75117e+02	-1.71928e+02	-1.83346e+02	-1.76281e+02	-5.73029e+01	-1.49823e+02	
Factor	1.52751e-05	1.27225e-04	4.13959e-05	1.84327e-01	1.04722e-06	1.71902e-06	1.70247e-01	4.74238e-02	9.30981e-07	1.49024e-06	9.31797e-02	3.12405e-02	3.94049e-02	8.22718e-03	1.10834e-06	1.22183e-02	1.99470e-06	2.18733e-06	6.09788e-07	9.24792e-02	2.38180e-08	2.40278e-08	8.06688e-02	2.40565e-02	2.37376e-08	2.40181e-08	4.51395e-02	1.53027e-02	1.98509e-02	4.17740e-03	2.39144e-08	5.96623e-03	X	X	X	X	X	X	X	X	X	X	X	X	X	X	X	X	



#DISTANCE SETTINGS
A = Detector Channel
A-1	A-2	A-3	A-4	A-5	A-6	A-7	A-8	A-9	A-10	A-11	A-12	A-13	A-14	A-15	A-16	

2.5000e+00	3.0000e+00	2.5000e+00	3.0000e+00	2.0000e+00	3.0000e+00	1.5000e+00	3.0000e+00	3.0000e+00	3.0000e+00	3.0000e+00	3.0000e+00	3.0000e+00	3.0000e+00	1.5000e+00	3.0000e+00	

B = Detector Channel
B-1	B-2	B-3	B-4	B-5	B-6	B-7	B-8	B-9	B-10	B-11	B-12	B-13	B-14	B-15	B-16	

1.0000e+01	1.0000e+01	1.0000e+01	1.4400e+00	1.0000e+01	1.0000e+01	1.5100e+00	1.9400e+00	1.0000e+01	1.0000e+01	1.9900e+00	2.4900e+00	2.4100e+00	2.9000e+00	1.0000e+01	2.9800e+00	




#DATA BEGINS
time	group	step	mark	flag	A-AC1	A-AC2	A-AC3	A-AC4	A-AC5	A-AC6	A-AC7	A-AC8	A-AC9	A-AC10	A-AC11	A-AC12	A-AC13	A-AC14	A-AC15	A-AC16	A-DC1	A-DC2	A-DC3	A-DC4	A-DC5	A-DC6	A-DC7	A-DC8	A-DC9	A-DC10	A-DC11	A-DC12	A-DC13	A-DC14	A-DC15	A-DC16	A-Ph1	A-Ph2	A-Ph3	A-Ph4	A-Ph5	A-Ph6	A-Ph7	A-Ph8	A-Ph9	A-Ph10	A-Ph11	A-Ph12	A-Ph13	A-Ph14	A-Ph15	A-Ph16	B-AC1	B-AC2	B-AC3	B-AC4	B-AC5	B-AC6	B-AC7	B-AC8	B-AC9	B-AC10	B-AC11	B-AC12	B-AC13	B-AC14	B-AC15	B-AC16	B-DC1	B-DC2	B-DC3	B-DC4	B-DC5	B-DC6	B-DC7	B-DC8	B-DC9	B-DC10	B-DC11	B-DC12	B-DC13	B-DC14	B-DC15	B-DC16	B-Ph1	B-Ph2	B-Ph3	B-Ph4	B-Ph5	B-Ph6	B-Ph7	B-Ph8	B-Ph9	B-Ph10	B-Ph11	B-Ph12	B-Ph13	B-Ph14	B-Ph15	B-Ph16	aux-1	digaux	

622.700	1	1	0	768	0.2647	0.044786	0.03363	0.21942	0.14152	0.20634	0.43728	0.13468	0.32742	0.22351	0.20655	0.10343	0.24393	0.11264	0.18012	0.13831	-0.077083	-0.83542	-0.96042	-0.43333	-0.95208	-0.73542	-0.7125	-1.4708	-0.40833	-0.68333	-1.3146	-0.38958	-1.2062	-0.90833	-0.33125	-1.2042	25.382	0.261	-10.194	-113.732	213.369	-19.673	168.639	188.982	176.961	163.886	184.594	177.669	-124.451	201.343	59.971	187.648	0.00032463	0.00046659	0.00010593	1296.4	1.3562e-06	3.2609e-06	1310.7	363.77	2.6506e-06	2.9466e-06	421.26	144.09	124.92	43.415	3.0067e-06	53.654	0.00023335	0.00021399	5.9562e-05	1293.3	2.3923e-06	2.3338e-06	1313.8	365.9	2.3947e-06	2.3537e-06	419.28	145.37	125.01	43.641	2.4059e-06	54.021	-136.530	-70.340	-7.171	-124.550	35.839	-101.041	-124.553	-120.187	-7.654	13.413	-120.522	-116.651	-115.669	-111.183	-9.782	-111.743	-8191	255	
622.797	1	1	0	0	0.11977	0.13199	0.12955	0.19262	0.12852	0.19469	0.119	0.17704	0.19507	0.070626	0.055479	0.13541	0.10344	0.22543	0.044037	0.32046	-0.18542	-0.78333	-1.1667	-0.4125	-0.95833	-0.88542	-0.48125	-1.1083	-0.59792	-0.6375	-1.3312	-0.6375	-1.0292	-1.0521	-0.27083	-1.3188	82.674	122.314	-115.027	193.517	25.863	220.722	158.514	127.785	8.130	220.969	22.461	37.264	87.063	169.713	162.799	209.335	0.00031027	0.00046395	0.00018284	1323.3	4.5767e-06	7.4465e-06	1334.8	370.69	3.2058e-06	6.7377e-06	422.74	144.04	124.86	43.277	2.2735e-06	53.518	0.0002384	0.00022586	6.105e-05	1325.3	2.4158e-06	2.3762e-06	1340.8	372.74	2.4521e-06	2.3964e-06	422.61	145.75	125.06	43.555	2.3888e-06	54.012	-132.178	-77.345	-33.962	-124.577	11.139	-18.114	-124.688	-120.131	-11.057	-30.397	-120.875	-116.680	-115.880	-111.273	40.786	-111.930	-8191	255	
622.893	1	1	0	0	0.06734	0.1576	0.23924	0.22323	0.2247	0.091072	0.26502	0.41911	0.31465	0.023552	0.11699	0.039092	0.12257	0.22812	0.27391	0.20163	-0.31042	-0.38958	-1.0938	-0.575	-0.9375	-0.96875	-0.48125	-1.2917	-0.6375	-0.46458	-1.3438	-0.39583	-0.86042	-1.2083	-0.41458	-1.2667	-20.375	-29.266	-33.166	173.472	65.195	-39.550	-131.506	191.222	98.410	30.034	-120.899	186.123	66.631	202.579	41.822	-84.658	0.00031814	0.00061527	0.00010705	1331.8	2.6452e-06	7.5254e-06	1334.2	369.67	4.7276e-06	5.0348e-06	425.82	145.92	125.69	44.015	2.8697e-06	54.394	0.00023769	0.00021958	6.1082e-05	1331.9	2.4353e-06	2.4079e-06	1342	373.97	2.4796e-06	2.376e-06	425.21	147.53	126.64	44.245	2.3436e-06	54.795	-129.874	-53.552	-33.355	-124.666	-13.551	1.839	-124.795	-120.099	-27.009	-11.261	-120.598	-116.621	-115.932	-111.287	3.552	-111.867	-8191	255	
622.989	1	1	0	0	0.13815	0.15623	0.14989	0.10759	0.18963	0.21295	0.045887	0.37419	0.15083	0.0059512	0.4147	0.15336	0.39379	0.10425	0.13254	0.32267	-0.47708	-0.42708	-1.2812	-0.52083	-0.55625	-1.0833	-0.5	-1.1708	-0.68333	-0.42292	-1.4208	-0.6375	-0.8375	-1.2188	-0.4375	-0.93125	10.924	215.246	108.184	120.849	63.444	79.417	-88.187	195.345	137.629	121.236	220.654	-122.565	128.058	101.887	170.394	125.710	0.00034146	0.00021346	0.000133	1327.3	2.9486e-06	5.3359e-06	1336	376.51	1.735e-06	2.4296e-06	424.98	145.96	126.98	44.267	4.1197e-06	54.933	0.00022066	0.00019199	5.3125e-05	1333.2	2.0068e-06	1.96e-06	1345.5	379.15	1.9172e-06	1.8592e-06	428.91	149.92	128.8	45.194	1.9602e-06	55.889	-136.404	-53.296	-38.205	-124.763	8.021	-7.133	-124.679	-120.080	-1.051	15.638	-120.928	-117.380	-116.643	-111.817	-6.933	-112.260	-8191	255	
623.085	1	1	0	0	0.12967	0.14261	0.39708	0.13567	0.062689	0.088715	0.1257	0.53714	0.22531	0.21067	0.28026	0.35872	0.34365	0.26923	0.28751	0.17611	-0.64792	-0.325	-1.2354	-0.98542	-0.40625	-1.175	-0.68333	-0.97708	-0.99167	-0.30417	-1.2917	-0.85625	-0.72292	-1.5167	-0.34583	-0.87917	3.857	94.726	33.631	174.639	-80.449	72.261	-117.053	178.629	151.928	185.409	-106.191	154.579	198.596	122.210	27.127	158.054	0.00031744	0.00052575	0.00010894	1327.5	2.0524e-06	6.83e-06	1353	380.86	2.4735e-06	5.6275e-06	434.6	150.64	130.62	45.567	5.7003e-06	55.793	0.0002089	0.00019027	5.5116e-05	1349.9	2.2576e-06	2.2558e-06	1370	386.24	2.5774e-06	2.5975e-06	437.58	153.27	131.9	46.122	3.3862e-06	56.56	-137.159	-37.190	-52.560	-125.098	10.137	1.741	-125.022	-120.571	3.245	48.667	-120.733	-116.718	-116.427	-111.594	-16.562	-111.980	-8191	255	
623.181	1	1	0	0	0.19847	0.15184	0.032604	0.44975	0.18522	0.19273	0.42515	0.063449	0.1046	0.18794	0.10742	0.13731	0.26697	0.14446	0.16931	0.14155	-0.74375	-0.225	-1.0958	-1.0604	-0.41042	-1.1292	-0.67083	-0.98958	-1.2687	-0.23333	-1.4542	-1.0667	-0.475	-1.35	-0.29375	-0.64583	149.300	-52.240	161.101	191.420	105.421	86.919	171.518	46.759	168.467	79.084	112.399	132.640	205.297	219.709	206.643	-27.397	0.00032183	0.00022464	0.00017042	1365.8	4.1904e-06	2.4756e-06	1366.5	379.43	2.2957e-06	3.8152e-06	431.62	146.54	126.59	43.785	1.7833e-06	53.745	0.0003808	0.00041302	0.00012038	1374.3	5.0768e-06	5.2479e-06	1383	385.85	7.2831e-06	8.6635e-06	445.61	154.18	135.72	45.952	1.3732e-05	56.798	-134.316	-17.679	-38.406	-124.921	9.856	-28.515	-124.713	-120.024	24.644	-18.285	-120.611	-116.609	-116.202	-111.219	126.275	-111.588	-8191	255	
623.302	1	1	0	0	0.12405	0.073197	0.30828	0.22072	0.12379	0.24273	0.32399	0.20585	0.23846	0.22848	0.26017	0.46768	0.22296	0.080702	0.097465	0.11651	-0.53542	-0.29792	-0.96875	-0.86042	-0.28333	-1.1854	-0.74583	-0.80625	-0.86458	-0.25625	-1.0292	-0.98542	-0.4125	-1.1229	-0.46042	-0.77083	74.967	114.884	51.176	199.712	80.158	83.763	145.434	181.273	85.019	-117.213	172.929	202.797	157.821	184.762	59.505	124.859	0.00036862	0.00046971	0.00016924	1343.9	5.6263e-06	1.3358e-05	1340.6	371.03	4.658e-06	1.9349e-06	421.99	142.54	123.51	42.511	5.1552e-06	52.542	0.0011008	0.0011174	0.00029906	1377.9	1.0679e-05	1.0026e-05	1371.7	379.74	7.8829e-06	7.5741e-06	430.71	147.3	127.98	43.818	7.2902e-06	54.203	214.471	0.481	-70.334	-124.640	28.491	27.351	-124.922	-120.214	-77.546	117.587	-120.662	-116.542	-116.216	-111.379	3.500	-111.494	-8191	255	
623.396	1	1	0	0	0.11045	0.079781	0.028161	0.1976	0.10699	0.28555	0.3304	0.43262	0.14524	0.22392	0.3182	0.15537	0.15763	0.13695	0.079536	0.048478	-0.81875	-0.26667	-0.72083	-1.1313	-0.38958	-1.1271	-0.93333	-0.68958	-1.3333	-0.46667	-0.95417	-1.2583	-0.31042	-1.2125	-0.6875	-0.46667	209.096	93.968	-17.318	155.573	187.439	-110.153	-133.015	200.026	-57.855	191.354	182.934	-85.137	160.676	128.525	-68.450	15.016	0.00032371	0.00090215	0.00022839	1329	6.5676e-06	6.0386e-06	1329.7	363.77	4.6837e-06	5.7934e-06	415.67	138.11	120.51	41.613	1.0671e-05	51.137	0.0006945	0.00076905	0.00022886	1359.7	1.0898e-05	1.2238e-05	1372.9	379.08	1.5375e-05	1.6357e-05	444.17	150.68	136.58	45.426	2.4561e-05	57.471	218.747	-49.217	-73.381	-124.597	31.040	-7.194	-124.784	-120.081	21.829	39.599	-120.336	-116.444	-116.010	-111.199	14.766	-111.615	-8191	255	
623.494	1	1	0	0	0.11064	0.13897	0.074414	0.26279	0.16964	0.13913	0.18298	0.36093	0.15637	0.16964	0.051828	0.1053	0.11055	0.15725	0.48838	0.27175	-0.98333	-0.31458	-0.86667	-1.1708	-0.41042	-1.1667	-1.0979	-0.77708	-1.3104	-0.40833	-0.81042	-1.35	-0.40417	-0.90417	-0.82708	-0.66875	152.574	-117.744	-16.408	-120.080	51.557	148.589	163.143	160.284	-93.242	186.461	-35.691	148.624	-11.913	151.816	130.309	127.788	0.00028064	0.00026882	0.00035044	1346.1	4.594e-06	4.5087e-06	1342.8	367.66	6.8249e-06	7.518e-06	419.44	139.23	120.89	41.524	4.9573e-06	50.901	0.0022512	0.0024682	0.00068436	1439.2	2.41e-05	2.1448e-05	1401.5	382.12	1.2398e-05	1.0968e-05	432.33	144.25	125.57	42.645	7.1008e-06	52.515	-110.591	8.862	-19.702	-124.853	-65.168	-46.458	-124.672	-120.108	-47.911	55.493	-120.428	-116.307	-115.651	-111.062	24.066	-111.532	-8191	255	
623.588	1	1	0	0	0.32909	0.23562	0.15215	0.24315	0.15459	0.21522	0.20045	0.19694	0.04321	0.3455	0.39989	0.15915	0.15679	0.067708	0.11044	0.20262	-0.75417	-0.52083	-0.49583	-1.2437	-0.30833	-0.9	-1.1458	-0.44583	-1.2292	-0.46667	-0.64583	-1.2896	-0.475	-0.85208	-1.1167	-0.60625	214.200	219.591	172.217	155.214	157.133	16.608	142.231	-121.611	206.505	99.185	-121.960	165.315	-135.714	-123.988	-17.140	-116.602	0.00028392	0.00056048	0.00024326	1348.8	2.709e-06	1.2023e-06	1346.1	365.1	3.9753e-06	1.0921e-05	415.95	137.49	119.65	41.068	5.6248e-06	50.5	0.00061221	0.00062699	0.00016999	1364.5	6.6685e-06	6.5608e-06	1362.3	371.16	6.2686e-06	6.2327e-06	422.38	141.23	123.32	41.928	6.0489e-06	51.724	-133.937	-62.121	-22.697	-124.464	72.064	27.733	-124.669	-119.992	69.783	-20.924	-120.439	-116.635	-115.831	-110.902	31.210	-111.797	-8191	255	
623.685	1	1	0	0	0.15669	0.31096	0.10015	0.14959	0.22723	0.2639	0.092596	0.21265	0.13829	0.30319	0.1782	0.097872	0.22412	0.15897	0.43258	0.20286	-0.82292	-0.525	-0.37292	-1.2271	-0.46458	-0.775	-1.3125	-0.50417	-1	-0.95	-0.525	-1.2979	-0.36667	-0.71875	-0.9625	-0.36667	173.429	-85.822	-87.671	115.061	141.280	-73.480	178.369	-131.897	54.495	179.801	213.593	123.882	5.008	-125.392	-36.570	162.002	0.00033033	0.00077267	0.00017295	1346.7	4.1111e-06	2.4959e-06	1330.8	360.6	3.8351e-06	8.4817e-06	411.64	135.97	118.5	40.535	4.8793e-06	49.921	0.00052713	0.00053976	0.00015015	1354.3	5.7672e-06	5.7663e-06	1348.4	366.05	5.6956e-06	5.7097e-06	417.43	139.49	121.62	41.424	5.6479e-06	51.209	-136.041	-9.516	-34.845	-124.788	60.547	60.709	-124.832	-120.497	-29.105	-13.345	-120.829	-116.567	-115.979	-111.048	18.730	-111.689	-8191	255	
623.781	1	1	0	0	0.16401	0.04984	0.18489	0.1989	0.19039	0.087157	0.22933	0.073991	0.080771	0.12119	0.056623	0.056739	0.051126	0.04299	0.19534	0.29116	-0.58542	-0.80833	-0.45208	-1.3146	-0.43542	-0.3625	-1.4417	-0.4375	-0.93333	-0.84375	-0.35	-1.2333	-0.74167	-0.4125	-1.0625	-0.56042	37.257	101.394	48.239	-133.703	-43.284	198.733	38.302	170.878	-106.714	220.666	-91.954	88.185	44.679	-40.811	93.616	147.861	0.00026828	0.00047308	0.00014778	1333.1	4.5873e-06	2.7357e-07	1324.3	359.25	3.8429e-06	2.8225e-06	408.77	134.98	117.83	40.238	2.3476e-06	49.579	0.00050898	0.0005265	0.00014548	1346.2	5.777e-06	5.769e-06	1344.5	364.65	5.7736e-06	5.8496e-06	414.46	138.77	121.26	41.157	5.9858e-06	50.957	-134.074	-46.344	-46.420	-124.658	-9.209	-23.586	-124.870	-120.104	-18.904	-19.510	-120.323	-116.640	-115.889	-111.014	74.355	-111.535	-8191	255	
623.877	1	1	0	0	0.065846	0.18001	0.12317	0.11574	0.20416	0.56657	0.5085	0.12322	0.10523	0.17553	0.023185	0.20576	0.23829	0.26231	0.049169	0.15536	-0.41042	-0.87917	-0.16875	-1.2229	-0.74792	-0.52083	-1.4875	-0.6125	-0.75208	-1.0417	-0.42292	-1.0146	-0.54792	-0.58125	-1.2188	-0.31667	-85.556	-49.213	72.164	143.906	27.176	83.840	128.976	184.901	-9.837	142.929	57.677	-40.680	215.923	-2.330	-123.280	-81.730	0.0002697	0.00042125	8.5751e-05	1331.6	3.3195e-06	9.2677e-06	1324.6	358.95	5.113e-06	5.2672e-06	408.64	135.13	117.19	40.136	3.2483e-06	49.534	0.00054092	0.00055961	0.00015642	1345.8	6.1827e-06	6.2129e-06	1344.8	364.78	6.3236e-06	6.3478e-06	415	138.68	120.85	41.173	6.394e-06	50.944	220.498	-60.168	-88.082	-124.693	-49.491	-15.274	-124.826	-120.169	-25.277	17.360	-120.748	-116.572	-115.812	-111.107	26.017	-111.510	-8191	255	
623.998	1	1	0	0	0.047232	0.098991	0.18291	0.16307	0.2562	0.17548	0.37041	0.28951	0.17189	0.31812	0.13304	0.29348	0.31779	0.28665	0.037384	0.20557	-0.20417	-1.1083	-0.0625	-1.075	-0.55	-0.30833	-1.4062	-0.51875	-0.69583	-0.93333	-0.28333	-0.89792	-1.0312	-0.50417	-1.1396	-0.58542	-122.659	-71.816	156.114	199.067	92.655	-69.132	201.473	171.422	50.355	38.920	-136.910	149.655	218.401	13.555	8.675	-135.185	0.00031177	0.00044751	0.00010845	1336.5	2.5526e-06	8.2908e-06	1332.8	359.32	1.272e-06	5.9374e-06	409.19	134.68	117.71	40.085	5.957e-06	49.404	0.00056541	0.0005828	0.00016393	1351.6	6.5155e-06	6.5295e-06	1351	366.73	6.5399e-06	6.4904e-06	416.21	138.94	121.44	41.216	6.5288e-06	50.953	-134.066	-28.647	-60.885	-124.600	27.549	-35.647	-124.725	-119.956	-36.594	47.817	-120.423	-116.278	-116.056	-110.950	0.562	-111.677	-8191	255	
624.094	1	1	0	0	0.15455	0.098539	0.11342	0.24393	0.026926	0.099751	0.28269	0.10291	0.24287	0.14826	0.10832	0.31391	0.20771	0.27231	0.25622	0.10861	-0.23958	-0.9625	-0.27708	-0.97708	-0.79792	-0.38542	-1.3542	-0.66667	-0.55208	-1.1021	-0.48333	-1.0875	-0.82083	-0.50417	-0.95417	-0.74375	-90.533	59.634	-22.941	-94.123	178.959	-8.583	130.884	-36.452	-136.091	-8.521	152.647	169.268	186.672	179.589	-80.084	156.521	0.00031141	0.0002647	0.00022568	1335.5	3.1907e-06	3.1634e-06	1325.6	360.38	7.361e-07	4.6199e-06	407.65	134.43	116.76	40.183	5.1893e-06	49.686	0.0005719	0.00058666	0.00016517	1351.3	6.4233e-06	6.4282e-06	1348.6	366.13	6.4361e-06	6.4234e-06	415.38	138.73	121.02	41.175	6.434e-06	50.989	-135.634	-135.760	0.796	-124.536	36.095	60.341	-124.875	-120.220	37.403	4.660	-120.303	-116.547	-115.742	-110.885	15.270	-111.584	-8191	255	
624.190	1	1	0	0	0.17726	0.18454	0.22768	0.086551	0.13611	0.053924	0.23513	0.18952	0.023789	0.15037	0.15333	0.12989	0.20507	0.20516	0.053178	0.35776	-0.33958	-1.075	-0.070833	-1.0292	-1.0979	-0.32292	-1.2833	-0.90417	-0.30625	-1.0562	-0.47708	-0.95625	-1.275	-0.28958	-1.0271	-0.7	-49.382	-94.742	-3.757	171.072	-11.566	205.048	191.044	-91.039	4.986	-32.885	-90.486	176.526	-77.501	97.709	63.177	190.085	0.00025578	8.409e-05	0.00012907	1338.8	3.0708e-06	7.8774e-06	1328.5	360.37	3.545e-06	2.3376e-06	411.36	134.75	117.83	40.186	4.1267e-06	49.688	0.00056922	0.00058611	0.00016483	1354.6	6.4204e-06	6.5077e-06	1352.1	366.9	6.4783e-06	6.4999e-06	416.76	138.99	121.57	41.218	6.6461e-06	51.096	-132.480	-33.022	-14.879	-124.542	-13.603	1.295	-124.504	-119.909	18.076	-2.979	-120.528	-116.325	-115.632	-111.234	-23.766	-111.760	-8191	255	
624.262	1	1	0	0	0.18901	0.0867	0.24027	0.34781	0.26532	0.21185	0.2438	0.14473	0.22922	0.16929	0.24312	0.18313	0.14323	0.27739	0.05395	0.53564	0.035417	-1.1521	-0.31458	-0.91042	-1.0312	-0.20625	-1.1167	-0.9125	-0.32292	-1.325	-0.66667	-0.65625	-1.1229	-0.32917	-0.86458	-1.0854	216.863	143.108	48.382	188.453	148.269	-41.247	138.301	220.633	35.868	-76.660	172.824	-127.600	214.882	215.281	8.935	180.072	0.00027033	0.0003376	0.00013246	1347.9	5.7077e-06	8.4419e-06	1331.6	360.82	1.7817e-06	7.2062e-06	412.02	134.06	117.52	40.232	4.7995e-06	49.838	0.00059567	0.00061141	0.0001703	1359.8	6.7458e-06	6.7214e-06	1357.3	368.2	6.6926e-06	6.7371e-06	418.29	139.13	121.96	41.295	6.7397e-06	51.217	-137.933	36.656	-68.350	-125.270	32.338	15.257	-125.049	-120.653	4.596	-34.412	-121.076	-116.774	-116.258	-111.477	30.407	-112.003	-8191	255	
624.380	1	1	0	0	0.11146	0.18141	0.14049	0.18173	0.034888	0.11777	0.23472	0.1487	0.16339	0.16952	0.34121	0.29944	0.32529	0.24008	0.15951	0.18684	0.12917	-0.94375	-0.36667	-0.68542	-1.1854	-0.26458	-1.0708	-1.1187	-0.45	-1.0604	-0.83125	-0.47083	-1.0542	-0.60833	-0.77083	-1.0521	27.961	98.035	15.946	-109.243	-103.873	141.089	163.722	56.746	186.879	-63.461	-117.834	-126.090	198.530	-84.874	217.598	42.418	0.00025981	0.00024409	0.00027319	1345.2	1.7884e-06	2.9542e-06	1333.3	361.88	8.9682e-07	7.6155e-06	409.31	134.73	116.82	40.113	2.8445e-06	49.501	0.00059307	0.00061656	0.00017043	1361.1	6.6863e-06	6.7448e-06	1357.4	368.26	6.6167e-06	6.5783e-06	417.73	139.16	121.56	41.239	6.7299e-06	50.998	-137.384	-36.359	-65.720	-124.875	61.999	100.447	-124.937	-120.338	30.973	-18.861	-121.037	-116.882	-116.337	-111.504	-6.684	-111.910	-8191	255	
624.477	1	1	0	0	0.081908	0.12717	0.17999	0.25671	0.066032	0.14923	0.22862	0.33494	0.15587	0.16268	0.33117	0.082191	0.17354	0.15568	0.17987	0.35717	0.08125	-1.0083	-0.61667	-0.47708	-1.1396	-0.325	-0.99792	-1.2167	-0.24167	-0.9375	-0.89792	-0.32708	-1.1208	-0.52917	-0.62917	-1.175	128.963	41.272	-126.040	184.716	44.915	-44.358	129.582	146.441	64.998	-72.068	214.405	196.060	-57.591	-123.728	91.806	154.133	0.00024251	0.00021764	9.6299e-05	1343.5	3.8702e-06	3.0388e-06	1335.7	359.56	6.521e-06	5.3746e-06	408.15	135.12	117.18	39.871	1.8385e-06	49.329	0.00058737	0.00060147	0.00016712	1359.9	6.6093e-06	6.5473e-06	1356.2	367.01	6.3855e-06	6.2673e-06	415.9	138.61	120.8	40.921	6.1082e-06	50.732	217.399	-59.946	-69.291	-124.852	-12.726	-15.602	-124.873	-120.466	-21.784	23.149	-120.745	-116.683	-116.301	-111.318	85.181	-111.499	-8191	255	
624.574	1	1	0	0	0.058112	0.12853	0.11789	0.28023	0.047371	0.33494	0.23444	0.069123	0.20223	0.26509	0.32921	0.25579	0.24707	0.31447	0.10801	0.24452	0.20417	-0.96042	-0.73542	-0.4625	-1.4188	-0.32083	-0.78542	-1.0542	-0.27292	-0.925	-1.0417	-0.35833	-1.3167	-0.66042	-0.48333	-1.15	69.542	-52.275	106.513	212.129	-51.729	128.871	92.672	59.976	-8.388	6.584	90.116	-136.432	-64.776	162.536	-62.934	-129.048	0.00027755	0.0006423	0.00012726	1335.9	4.3545e-06	5.145e-06	1326.4	357.87	3.6595e-06	3.0828e-06	408.28	133.92	116.88	40.066	2.2448e-06	49.317	0.00053184	0.00054591	0.00015337	1349.6	5.9561e-06	5.9495e-06	1346.8	364.81	5.9908e-06	6.0156e-06	413.48	137.91	120.41	40.921	6.0725e-06	50.784	-132.891	-68.219	-27.332	-124.723	61.940	6.566	-124.706	-120.208	-58.680	-77.441	-120.649	-116.149	-115.747	-111.016	-125.182	-111.547	-8191	255	
624.693	1	1	0	0	0.082637	0.073856	0.20431	0.028773	0.19992	0.22518	0.54415	0.18679	0.086506	0.0099657	0.23368	0.10652	0.16781	0.12181	0.11531	0.15255	0.2375	-0.57917	-0.83958	-0.3125	-1.0146	-0.52917	-0.59583	-1.4229	-0.37083	-0.63958	-1.0063	-0.35417	-1.1021	-0.84583	-0.28542	-1.3333	10.687	109.617	-73.939	-37.936	-87.936	-88.496	145.197	216.354	2.774	52.598	208.008	-79.691	16.805	159.652	195.460	-126.413	0.00030082	0.00057262	0.00015843	1335.8	2.6958e-06	2.6397e-06	1330.8	359.76	2.5055e-06	3.7701e-07	408.16	133.98	116.59	39.937	2.2347e-06	49.522	0.0005387	0.0005538	0.00015595	1348.2	6.0754e-06	6.1127e-06	1346.9	365.18	6.0981e-06	6.0307e-06	413.9	137.86	120.25	40.966	6.0124e-06	50.782	-128.717	-71.722	-1.937	-124.760	-39.657	2.624	-124.331	-119.910	-50.327	177.731	-120.700	-116.175	-115.811	-111.300	84.209	-111.561	-8191	255	
624.789	1	1	0	0	0.22554	0.18397	0.28413	0.16313	0.22379	0.27969	0.3944	0.34588	0.12542	0.22022	0.096438	0.30383	0.40108	0.10877	0.067843	0.081213	-0.0083333	-0.53125	-1.1104	-0.51458	-1.1917	-0.82292	-0.52917	-1.5458	-0.42292	-0.81667	-1.2479	-0.33542	-0.97708	-1.2375	-0.2625	-1.0562	91.533	59.335	-32.079	-130.249	-95.380	124.550	126.738	218.657	-21.633	-88.250	214.507	199.950	147.379	165.309	119.780	-48.385	0.00029768	0.00043537	4.0724e-05	1333.7	2.6821e-06	4.5368e-06	1322.3	358.58	4.4823e-06	6.8284e-06	406.41	133.59	116.69	39.836	3.825e-06	49.335	0.00053769	0.00054844	0.00015112	1346.5	5.95e-06	5.9147e-06	1345.4	364.94	5.8631e-06	5.8423e-06	412.36	137.68	119.96	40.795	5.6866e-06	50.593	216.292	-9.277	-47.549	-124.480	28.439	-5.380	-124.902	-120.042	-18.701	-8.347	-120.652	-116.742	-116.191	-111.462	-15.287	-111.917	-8191	255	
624.861	1	1	0	0	0.14341	0.41653	0.086308	0.30364	0.12091	0.21204	0.32653	0.2665	0.15202	0.078096	0.18967	0.13106	0.063593	0.11301	0.13469	0.090274	-0.125	-0.525	-1.2	-0.48333	-0.875	-0.88958	-0.37917	-1.1208	-0.475	-0.42917	-1.3042	-0.40208	-0.74792	-1.0625	-0.1	-1.0917	36.476	189.843	-117.993	166.868	-46.963	168.523	202.997	180.347	-76.740	-60.839	-76.893	187.850	-124.867	175.354	-13.634	-48.792	0.00028012	0.0002874	0.00018694	1329.4	2.5473e-06	5.8995e-06	1321.6	356.84	2.2898e-06	8.8179e-06	405.58	132.54	116.08	39.838	3.3023e-06	49.308	0.00051535	0.00052765	0.00014415	1343.2	5.6497e-06	5.7078e-06	1340.5	363.61	5.6818e-06	5.6767e-06	412.75	137.09	119.73	40.794	5.5801e-06	50.553	-129.720	-33.824	-76.353	-125.055	23.992	5.380	-124.982	-120.418	-2.415	37.737	-120.867	-116.582	-116.140	-111.519	-29.090	-111.642	-8191	255	
624.982	1	1	0	0	0.25028	0.41032	0.17377	0.13346	0.25757	0.14342	0.21621	0.1998	0.11405	0.089555	0.2952	0.10522	0.23977	0.061012	0.23918	0.37949	-0.16667	-0.38125	-1.0021	-0.32292	-0.77292	-0.77083	-0.44375	-1.3417	-0.73333	-0.2875	-1.2792	-0.45208	-0.83125	-1.2167	-0.18333	-1.0729	4.527	173.303	58.138	215.958	-23.858	80.648	148.991	76.512	-65.886	133.183	171.237	95.591	-14.757	-79.297	-44.163	123.538	0.0003106	0.00050874	2.4375e-05	1326.4	4.1631e-06	5.118e-06	1315.3	357.72	4.4328e-06	4.2533e-06	404.75	133.37	115.71	39.968	6.0989e-06	49.097	0.00049345	0.00051005	0.00014144	1340.6	5.6021e-06	5.6578e-06	1337.2	363.76	5.7141e-06	5.6548e-06	411.71	137.2	119.71	40.844	5.7494e-06	50.566	-131.489	-47.496	-112.612	-124.747	61.232	27.665	-124.832	-119.990	15.148	-8.710	-120.606	-116.546	-115.756	-110.744	20.920	-111.546	-8191	255	
625.078	1	1	0	0	0.1823	0.045207	0.071909	0.10641	0.16957	0.28512	0.19858	0.072967	0.055803	0.074273	0.019227	0.18121	0.42638	0.27595	0.044441	0.11787	-0.26875	-0.29375	-1.125	-0.69583	-0.65625	-0.96667	-0.54583	-1.2146	-0.72083	-0.32083	-0.975	-0.62917	-0.625	-1.1625	-0.35	-0.87917	35.842	-52.920	8.195	128.708	-85.604	130.462	200.900	48.493	148.300	-127.109	212.363	-81.801	212.166	-126.929	47.060	178.110	0.00033105	0.00037619	0.0002303	1331	2.4876e-06	7.2094e-06	1319.5	357.06	4.3403e-06	1.454e-06	404.72	132.64	116.58	39.926	1.1507e-06	49.125	0.00050711	0.00052161	0.00014537	1341.5	5.7609e-06	5.7227e-06	1338.7	363.44	5.7331e-06	5.7197e-06	411.37	137.11	119.77	40.81	5.6735e-06	50.598	221.755	-44.728	-7.386	-124.827	34.810	-56.474	-124.885	-120.085	-11.316	9.255	-120.131	-116.082	-115.361	-111.004	15.580	-111.581	-8191	255	
625.174	1	1	0	0	0.10895	0.15605	0.17867	0.28779	0.2323	0.21045	0.29772	0.029276	0.10453	0.27043	0.28047	0.065494	0.06985	0.18576	0.070096	0.015594	-0.68333	-0.10833	-1.0688	-0.79375	-0.45833	-1.0333	-0.56875	-0.96875	-0.87708	-0.36875	-1.1729	-0.66875	-0.51042	-1.425	-0.27917	-0.71667	-11.330	37.512	-59.420	189.164	173.175	176.120	170.545	124.004	178.131	146.337	208.352	164.458	-55.629	114.504	-128.999	177.438	0.00026768	0.00040433	9.4177e-05	1327.9	2.5564e-06	6.6774e-06	1319.3	357.46	3.1421e-06	5.2218e-06	406.48	133.19	115.7	39.792	3.4541e-06	49.168	0.00049991	0.00051528	0.00014283	1340.4	5.6519e-06	5.6513e-06	1336.8	363.56	5.6418e-06	5.6196e-06	411.4	137.13	119.53	40.783	5.6172e-06	50.494	-134.860	-16.709	92.446	-124.602	-25.156	42.736	-124.817	-119.948	7.534	32.561	-120.297	-116.313	-115.840	-110.930	7.928	-111.661	-8191	255	
625.295	1	1	0	0	0.1789	0.1463	0.1904	0.23718	0.22997	0.13094	0.35994	0.33864	0.29083	0.18561	0.2465	0.11329	0.045735	0.031407	0.2016	0.21349	-0.60208	-0.22083	-0.96875	-0.8	-0.30833	-1.1042	-0.72292	-0.875	-0.99167	-0.2125	-1.0958	-0.88958	-0.45625	-1.2583	-0.15417	-0.85833	63.501	217.966	137.361	166.809	45.118	175.395	117.692	158.317	192.782	210.223	208.971	63.171	212.881	204.186	86.153	165.714	0.00028831	0.00039782	0.00017831	1318.4	4.6531e-06	7.9491e-06	1314.4	357.29	1.2219e-06	2.7851e-06	405.76	133.43	115.98	39.671	3.8777e-06	49.277	0.0004999	0.00051472	0.00014355	1336.2	5.6413e-06	5.6129e-06	1336.5	363.23	5.6187e-06	5.6515e-06	411.5	137.05	119.39	40.772	5.5979e-06	50.49	-134.776	-73.323	-10.638	-124.567	-26.926	-25.920	-124.743	-119.806	-32.459	79.696	-120.251	-116.341	-115.838	-111.421	35.242	-111.934	-8191	255	
625.389	1	1	0	0	0.21362	0.1456	0.16592	0.060913	0.21339	0.24112	0.29325	0.30927	0.066274	0.22762	0.25766	0.22075	0.3244	0.29097	0.19193	0.21234	-0.75833	-0.3375	-0.98333	-0.9375	-0.28125	-1.0187	-0.65625	-0.71667	-0.98542	-0.34583	-0.82708	-1.0063	-0.47917	-1.1437	-0.57292	-0.69583	73.138	4.616	108.630	135.341	-129.576	149.169	146.519	179.800	64.596	87.431	184.169	-135.982	-89.871	204.981	200.049	-105.096	0.00024257	0.00082741	1.9027e-05	1322.4	4.7048e-06	7.4213e-06	1312.4	357.04	3.4573e-06	1.8294e-06	404.8	133.11	116.18	39.817	2.3056e-06	49.273	0.00049314	0.00051204	0.00014126	1336.5	5.6046e-06	5.5533e-06	1335	363.21	5.5419e-06	5.5644e-06	411.18	136.91	119.56	40.773	5.6133e-06	50.471	219.871	-43.735	133.663	-124.647	-57.109	20.925	-124.975	-119.993	-4.232	37.356	-120.122	-116.331	-115.838	-110.812	31.590	-111.317	-8191	255	
625.485	1	1	0	0	0.19957	0.14289	0.069883	0.1059	0.17733	0.12667	0.31171	0.29323	0.34097	0.077425	0.21585	0.099241	0.071174	0.22426	0.14574	0.37929	-0.85	-0.23125	-0.93958	-1.1729	-0.15417	-1.0417	-0.90833	-0.60417	-0.95417	-0.26458	-0.91667	-1.0604	-0.3125	-1.1063	-0.6625	-0.50625	188.554	-44.366	139.666	96.405	-102.531	-52.271	126.223	158.162	-29.193	-4.136	217.184	161.234	29.725	144.214	118.536	199.761	0.0002949	0.00050215	0.00014904	1322	1.4634e-06	1.5346e-06	1313	356.39	3.8845e-06	5.9858e-06	404.86	132.73	116.1	39.892	3.6373e-06	49.267	0.00050141	0.00051605	0.00014216	1336.3	5.5654e-06	5.5764e-06	1334.5	362.86	5.5147e-06	5.5777e-06	411.24	136.74	119.3	40.741	5.4791e-06	50.508	-133.753	-8.388	-91.454	-124.831	-29.978	-90.015	-124.934	-119.943	-23.924	17.445	-120.641	-116.727	-116.063	-111.042	33.395	-111.776	-8191	255	
625.557	1	1	0	0	0.24523	0.21115	0.028549	0.29586	0.069884	0.1357	0.20567	0.21635	0.093466	0.084784	0.20737	0.14496	0.16845	0.21184	0.30175	0.069193	-0.88958	-0.1	-0.58542	-1.2521	-0.14792	-0.90625	-1.0063	-0.57917	-0.94375	-0.52292	-0.68542	-0.98125	-0.27292	-1.0083	-0.84167	-0.63125	33.918	-10.632	43.685	219.662	160.439	212.526	216.741	114.641	136.705	-29.066	196.248	169.410	-109.974	149.685	47.677	83.745	0.0002931	0.00041605	6.5968e-05	1320	1.1992e-06	4.9769e-06	1311.1	356.91	2.7263e-06	6.4031e-06	404.98	133.62	116.6	40.023	1.3173e-06	49.117	0.00049596	0.00050604	0.00013935	1335	5.5085e-06	5.4578e-06	1334.7	363.23	5.4753e-06	5.4163e-06	411.11	136.87	119.53	40.849	5.4054e-06	50.366	221.214	-70.060	-103.082	-124.748	180.653	-10.925	-125.249	-120.551	-13.686	24.824	-120.793	-117.174	-116.360	-111.493	133.212	-112.216	-8191	255	
625.678	1	1	0	0	0.19877	0.28602	0.32146	0.29627	0.15519	0.13496	0.37061	0.11905	0.25281	0.19824	0.27692	0.10811	0.21471	0.14955	0.15351	0.17113	-0.63542	-0.46458	-0.51458	-1.3271	-0.24375	-0.80625	-0.99375	-0.51042	-0.92917	-0.57292	-0.30417	-1.05	-0.34375	-0.90208	-1.1604	-0.34167	170.399	104.076	-107.821	155.730	-50.444	137.158	145.093	-92.306	44.664	-11.468	187.444	-66.062	152.484	26.189	94.937	202.629	0.00031217	0.00024805	0.00026543	1323.1	2.1644e-06	3.0975e-06	1317.5	356.76	2.6401e-06	9.7748e-06	403.84	132.9	116.39	39.699	4.5614e-06	49.074	0.00048025	0.00049673	0.00013794	1336.9	5.4018e-06	5.3908e-06	1334.9	362.65	5.4428e-06	5.4497e-06	410.09	136.63	119.29	40.758	5.4834e-06	50.355	-136.013	212.095	-15.978	-125.212	-5.905	3.756	-125.423	-120.573	-15.615	16.622	-121.065	-116.885	-116.290	-111.518	18.000	-112.314	-8191	255	
625.774	1	1	0	0	0.083995	0.048135	0.040525	0.17326	0.25191	0.043712	0.11944	0.27675	0.098223	0.16564	0.35243	0.12509	0.29773	0.16223	0.21977	0.10594	-0.56875	-0.67917	-0.34792	-1.6187	-0.4125	-0.51667	-1.2	-0.52083	-0.86667	-0.62292	-0.42083	-1.1063	-0.51458	-0.71458	-0.99583	-0.34167	140.281	32.378	72.625	181.369	144.137	216.266	191.838	121.496	-125.128	-20.506	-113.816	36.428	151.375	207.493	-115.065	-114.014	0.00028285	0.0003586	0.00015554	1324	2.8361e-06	9.3006e-06	1311.7	355.73	3.4361e-06	4.3254e-06	403.7	133.64	115.52	39.75	2.6248e-06	49.177	0.00048639	0.00049906	0.00013985	1335.9	5.472e-06	5.4404e-06	1333.6	362.06	5.5415e-06	5.4578e-06	409.87	136.85	119.28	40.687	5.4462e-06	50.409	-137.260	28.578	-3.184	-125.320	20.628	-10.251	-125.193	-120.547	-27.818	-16.340	-120.824	-116.891	-116.306	-111.310	-10.527	-112.096	-8191	255	
625.870	1	1	0	0	0.14634	0.18042	0.18079	0.44893	0.29581	0.12411	0.32719	0.085038	0.087084	0.362	0.091305	0.14001	0.052115	0.11163	0.18424	0.13299	-0.57917	-0.87083	-0.077083	-1.3167	-0.40833	-0.59375	-1.1271	-0.375	-0.91875	-0.89167	-0.31667	-1.3083	-0.67708	-0.66667	-1.0521	-0.41875	-69.923	-128.270	34.007	-72.759	199.905	-120.465	151.895	69.896	94.681	-110.440	216.195	148.206	-62.431	183.600	-124.080	199.109	0.000336	0.00039617	0.00015629	1317.2	1.7567e-06	9.665e-06	1315.3	355.98	2.7318e-06	3.4385e-06	403.84	133.45	115.81	39.869	2.5645e-06	49.137	0.00048843	0.0004983	0.00013818	1332.8	5.4791e-06	5.4151e-06	1331	362.39	5.406e-06	5.4049e-06	409.62	136.84	119.01	40.704	5.3695e-06	50.391	-138.232	-31.830	-62.077	-125.125	71.283	63.604	-125.332	-120.527	-31.026	47.137	-120.872	-116.627	-116.340	-111.311	-1.902	-111.939	-8191	255	
625.966	1	1	0	0	0.15776	0.022828	0.092297	0.10297	0.026516	0.141	0.13048	0.23556	0.067179	0.13807	0.03647	0.25129	0.24682	0.23495	0.27141	0.15572	-0.41875	-0.86458	-0.1375	-1.0521	-0.50208	-0.39583	-1.4854	-0.65417	-0.64792	-0.89792	-0.375	-0.97083	-0.73958	-0.42083	-1.0208	-0.37083	-120.944	-43.793	-51.608	-93.476	126.987	-95.615	-1.568	191.346	139.897	0.959	-96.228	-78.471	-87.513	-134.044	32.667	207.611	0.00028469	0.00066008	0.0001342	1321.7	1.0205e-06	4.384e-06	1315	355.77	1.7975e-06	7.1956e-06	403.2	132.74	115.99	39.7	3.1373e-06	49.037	0.00047965	0.00048806	0.00013655	1332.8	5.3749e-06	5.3706e-06	1332.6	361.43	5.368e-06	5.3207e-06	409.11	136.41	119.11	40.618	5.3206e-06	50.201	221.174	-48.995	-54.974	-125.330	17.379	-8.390	-125.477	-120.563	16.063	19.021	-120.760	-117.030	-116.196	-111.666	-13.874	-112.241	-8191	255	
626.087	1	1	0	0	0.11073	0.24599	0.080555	0.29445	0.26143	0.27487	0.26606	0.068575	0.25189	0.16456	0.22546	0.25563	0.071323	0.22709	0.38746	0.14835	-0.30417	-0.8875	-0.32917	-1.2	-0.79375	-0.11458	-1.3062	-0.49167	-0.54583	-0.80833	-0.24583	-1.0812	-0.75833	-0.40625	-1.0562	-0.7625	66.097	78.371	-124.194	173.144	-68.002	-10.250	133.277	221.102	106.422	17.810	92.167	148.866	-136.892	-130.524	-81.357	-93.157	0.00026949	0.00083302	8.598e-05	1322.9	2.6526e-06	8.4474e-06	1308.2	355.78	7.2041e-06	4.2101e-06	404.59	133.12	116.08	39.619	3.6559e-06	49.174	0.00048137	0.00048947	0.00013696	1334.7	5.3437e-06	5.3782e-06	1330	361.37	5.3423e-06	5.3225e-06	409.5	136.59	118.94	40.567	5.3129e-06	50.314	-129.577	-23.517	-18.750	-125.310	16.487	30.908	-125.416	-120.733	3.944	28.151	-121.379	-116.927	-116.423	-111.652	-3.739	-112.279	-8191	255	
626.158	1	1	0	0	0.11974	0.073495	0.234	0.36088	0.18173	0.18805	0.14521	0.26091	0.14269	0.042988	0.19594	0.13448	0.29202	0.25284	0.049357	0.23075	-0.21667	-0.98958	-0.35833	-1.1021	-0.79375	-0.2875	-1.2583	-0.48333	-0.39167	-1.3125	-0.48958	-0.91458	-0.96042	-0.38542	-1.0271	-0.8125	40.083	0.684	115.099	204.069	118.451	-30.097	156.624	-81.805	-101.434	138.715	205.974	212.047	147.317	-132.238	99.716	57.727	0.00027105	6.9075e-05	5.1052e-05	1321.4	4.26e-06	5.2713e-06	1310.4	355.13	1.8404e-06	7.354e-06	403.97	133.02	116.23	39.929	3.8843e-06	49.109	0.00047753	0.00048893	0.00013611	1333.5	5.3982e-06	5.2902e-06	1330.9	361.17	5.3583e-06	5.2968e-06	408.68	136.43	119.05	40.733	5.2332e-06	50.287	-129.261	-35.554	-9.526	-125.118	60.080	52.608	-125.380	-120.556	125.850	20.251	-120.952	-116.930	-116.079	-111.473	35.174	-112.247	-8191	255	
626.254	1	1	0	0	0.11619	0.035319	0.14715	0.2454	0.038786	0.25319	0.15888	0.25817	0.063	0.14239	0.030863	0.23503	0.0086457	0.036149	0.37077	0.21657	-0.1	-1.0229	-0.21458	-0.84583	-1.0167	-0.12917	-1.275	-0.95625	-0.25208	-1.05	-0.3375	-0.7125	-1.0063	-0.30208	-0.98958	-0.85833	150.483	-105.818	17.854	-100.180	-37.026	182.638	65.898	172.167	-54.810	-67.845	5.639	-112.216	-136.744	-4.619	126.779	191.363	0.00033451	0.00012683	9.4574e-05	1319.3	4.2624e-06	7.7314e-06	1314.3	354.44	1.8343e-06	4.5433e-06	404.3	132.4	115.88	39.756	3.1204e-06	49.137	0.0004764	0.00047874	0.00013399	1333.2	5.2533e-06	5.264e-06	1330.6	360.83	5.3548e-06	5.2564e-06	409.14	136.45	118.84	40.653	5.3304e-06	50.382	-136.804	-123.314	-80.022	-125.058	29.474	20.495	-125.190	-120.471	21.542	-66.259	-120.996	-116.858	-116.330	-111.313	60.598	-112.381	-8191	255	
626.375	1	1	0	0	0.35921	0.078189	0.34027	0.39428	0.25725	0.26676	0.034866	0.59813	0.14266	0.16293	0.35732	0.077896	0.1761	0.18418	0.16557	0.1756	0.27917	-1.1021	-0.39792	-0.825	-1.05	-0.45	-1.0958	-1.05	-0.35208	-0.98333	-0.61667	-0.44375	-1.0979	-0.23958	-0.76875	-0.97708	-41.272	-23.323	144.833	164.423	-79.142	152.148	49.708	175.477	167.781	-59.220	155.754	-60.254	146.943	14.056	-53.852	200.336	0.00029791	0.00044034	0.00013515	1317	5.2817e-06	2.3368e-06	1309.3	356.05	1.4597e-06	7.5252e-06	403.11	132.26	115.83	39.767	4.2519e-06	49.375	0.00047186	0.0004815	0.00013462	1332.2	5.3268e-06	5.2276e-06	1330	361.36	5.294e-06	5.2653e-06	408.2	136.44	118.87	40.659	5.2686e-06	50.317	219.845	-74.167	-43.590	-125.173	-11.490	-12.371	-125.053	-120.628	-29.991	36.625	-121.242	-117.201	-116.461	-111.707	23.540	-112.289	-8191	255	
626.469	1	1	0	0	0.16631	0.11154	0.048653	0.23696	0.15884	0.40937	0.20149	0.10683	0.1223	0.16238	0.26801	0.25143	0.015578	0.24588	0.11599	0.25213	0.22708	-1.0688	-0.37292	-0.6875	-1.1333	-0.3125	-0.975	-1.0208	-0.2375	-1.1125	-0.69583	-0.30417	-1.2875	-0.41042	-0.76042	-0.94792	-116.693	201.928	-25.881	157.676	-127.464	170.290	141.126	83.848	136.186	132.339	-75.105	-71.124	-99.949	135.587	26.568	186.330	0.00032193	0.00011187	7.9455e-05	1321.8	3.3234e-06	4.8174e-06	1313.8	354.13	4.1339e-06	1.3566e-06	400.99	132.58	115.4	39.849	3.2314e-06	49.099	0.00047062	0.000476	0.00013342	1331.2	5.313e-06	5.2782e-06	1330.9	360.82	5.2951e-06	5.2545e-06	408.8	136.37	118.81	40.615	5.3126e-06	50.258	-131.300	-6.599	-39.624	-124.993	33.044	-6.322	-125.183	-120.523	-67.994	54.004	-120.993	-116.751	-116.321	-111.494	-17.870	-112.207	-8191	255	
626.566	1	1	0	0	0.015545	0.054986	0.11491	0.25968	0.24713	0.19298	0.29661	0.14227	0.10432	0.10299	0.20757	0.20204	0.17497	0.059483	0.24167	0.14512	0.25208	-1.0729	-0.77292	-0.57708	-0.96458	-0.37292	-0.78542	-1.0333	-0.05	-1.0271	-1.0208	-0.51458	-1.2292	-0.68333	-0.51667	-1.1875	48.982	150.827	33.748	-134.869	-117.589	140.083	167.438	120.079	131.872	206.449	-60.273	-27.647	216.616	-21.812	-72.605	-36.106	0.00027456	0.00046181	6.5662e-05	1318.5	4.4294e-06	3.2577e-06	1312.3	353.86	3.2664e-06	3.342e-06	403.26	133.15	115.83	39.707	4.4002e-06	49.066	0.00047683	0.00048709	0.00013605	1330.4	5.3435e-06	5.359e-06	1331.2	360.64	5.3393e-06	5.2777e-06	408.54	136.47	118.98	40.605	5.2994e-06	50.28	-135.943	-62.954	-78.396	-125.099	0.235	21.049	-125.181	-120.459	2.904	23.616	-121.145	-116.788	-116.442	-111.430	-18.824	-112.009	-8191	255	
626.662	1	1	0	0	0.21193	0.13981	0.2331	0.18924	0.11353	0.080003	0.29904	0.37532	0.25482	0.13366	0.30178	0.075847	0.13385	0.12543	0.21245	0.14853	0.075	-0.75625	-0.71667	-0.32083	-1.2417	-0.42292	-0.70208	-1.1083	-0.15	-0.99167	-1.0688	-0.4625	-1.1208	-0.67917	-0.37708	-1.2729	-41.468	90.566	-122.463	-93.089	121.849	-49.192	-100.449	151.341	218.937	213.704	150.356	-69.478	59.704	217.089	-93.240	-109.109	0.00027515	0.00025327	0.0002474	1318	2.6748e-06	3.1598e-06	1312.9	355.5	4.2675e-06	5.2753e-06	402.56	132.25	115.86	39.517	4.8461e-06	48.79	0.00047264	0.00048227	0.00013271	1331.1	5.2344e-06	5.2857e-06	1330.4	360.95	5.228e-06	5.2919e-06	409.13	136.34	118.91	40.536	5.304e-06	50.262	218.393	-96.252	-40.277	-124.966	-43.505	-123.458	-125.052	-120.507	-30.880	32.677	-120.881	-116.832	-116.214	-111.614	27.816	-111.856	-8191	255	
626.758	1	1	0	0	0.11961	0.16578	0.077953	0.19877	0.083848	0.104	0.14801	0.24841	0.17629	0.19323	0.22884	0.24728	0.069971	0.22105	0.13898	0.2497	0.05625	-0.64583	-0.8625	-0.37917	-0.98125	-0.58958	-0.54375	-1.5271	-0.41042	-0.80208	-0.8125	-0.45	-0.93958	-0.69375	-0.41458	-1.0708	-81.566	165.422	-13.847	137.003	31.035	-50.992	162.153	170.652	-110.360	-42.315	180.881	-134.598	77.065	193.756	-132.050	174.918	0.00028101	0.00083425	8.4935e-05	1315.9	6.3331e-06	4.0335e-06	1312.1	355.39	7.8576e-07	5.0156e-06	402.89	133.54	115.65	39.708	2.8428e-06	48.919	0.00047189	0.00048525	0.00013326	1329.4	5.2669e-06	5.2565e-06	1330.6	360.83	5.284e-06	5.2944e-06	409.44	136.51	118.85	40.569	5.2852e-06	50.253	-127.571	-28.543	-83.362	-125.028	9.219	62.557	-125.162	-120.351	-23.609	7.748	-120.808	-116.702	-116.169	-111.342	36.721	-111.799	-8191	255	
626.854	1	1	0	0	0.23326	0.28151	0.23787	0.31353	0.11488	0.32755	0.24989	0.18557	0.057654	0.095499	0.18723	0.36355	0.082713	0.10339	0.28595	0.14244	0	-0.74583	-1.0417	-0.56667	-0.90833	-0.78125	-0.46458	-1.1313	-0.4625	-0.63333	-1.3458	-0.42708	-1.0167	-1.0938	-0.43125	-1.4042	-42.538	59.108	126.772	166.437	150.749	171.852	151.735	170.191	151.729	58.178	-117.257	156.995	173.391	128.824	65.051	51.220	0.00030876	0.00059247	5.7478e-05	1319.4	1.6547e-06	3.554e-06	1316.1	356.17	1.4017e-06	1.0189e-05	402.76	132.93	115.79	39.835	6.5374e-06	48.855	0.00047126	0.00048321	0.00013361	1329.3	5.2808e-06	5.2775e-06	1328.8	361.3	5.2198e-06	5.2884e-06	408.42	136.35	118.79	40.608	5.2905e-06	50.217	-130.249	-10.026	-31.598	-125.136	29.651	-16.670	-125.062	-120.365	-3.405	48.819	-120.940	-116.779	-115.968	-111.464	4.068	-111.559	-8191	255	
626.975	1	1	0	0	0.27142	0.13156	0.043451	0.4835	0.13991	0.10762	0.44457	0.18846	0.067015	0.16518	0.096193	0.2232	0.21341	0.24995	0.098261	0.27658	-0.18333	-0.52083	-1.05	-0.60833	-0.925	-1.0708	-0.47708	-1.0604	-0.58333	-0.35833	-1.2542	-0.50208	-0.76458	-0.97292	-0.17083	-1.2583	-39.624	172.797	206.661	203.976	-79.042	3.227	118.248	55.873	207.018	-54.798	196.378	-131.190	-133.988	-121.851	-110.367	-138.028	0.00029398	0.00047396	0.00017267	1311.2	2.1099e-06	1.6073e-06	1307.7	354.45	1.3146e-06	3.6902e-06	402.87	132.62	115.91	39.722	3.4146e-06	49.405	0.00047143	0.00047813	0.00013302	1326.5	5.2172e-06	5.254e-06	1325.9	360.47	5.2288e-06	5.2347e-06	407.8	136.13	118.79	40.591	5.2496e-06	50.358	216.101	-77.753	-76.373	-125.083	-20.415	115.136	-125.069	-120.338	16.757	28.611	-120.658	-116.833	-115.994	-111.326	-29.765	-111.956	-8191	255	
627.071	1	1	0	0	0.096501	0.011339	0.1393	0.19109	0.10689	0.28456	0.20389	0.37088	0.028943	0.16887	0.050311	0.15689	0.13367	0.037836	0.044736	0.22258	-0.33125	-0.17708	-1.1979	-0.58125	-0.875	-0.875	-0.58958	-1.2812	-0.74792	-0.3375	-1.2437	-0.175	-0.74375	-1.3667	0.029167	-1.0667	-122.766	100.336	100.273	134.933	50.071	-9.442	159.744	149.819	177.855	39.630	-136.527	62.489	-77.409	-33.158	-65.453	82.865	0.00032254	0.00044013	5.4093e-05	1321.4	3.3432e-06	4.5298e-06	1307.4	355.86	5.4541e-06	5.6268e-06	405.42	132.77	115.92	39.741	5.0513e-06	49.234	0.00046862	0.00048206	0.00013241	1327.7	5.2291e-06	5.1767e-06	1325.5	361.42	5.2523e-06	5.1931e-06	409.73	136.01	118.83	40.601	5.2034e-06	50.245	220.487	-63.059	42.222	-124.866	49.378	-26.861	-125.056	-120.327	-14.782	32.398	-120.582	-116.742	-116.255	-111.352	-27.391	-111.833	-8191	255	
627.167	1	1	0	0	0.12839	0.21262	0.12526	0.18981	0.12995	0.35755	0.11955	0.23488	0.11284	0.23713	0.287	0.13475	0.20602	0.26277	0.28103	0.087653	-0.55625	-0.14375	-1.0021	-0.70208	-0.52292	-1.1271	-0.40417	-1.1042	-0.73542	-0.23958	-1.1437	-0.45625	-0.21875	-1.2812	-0.15	-0.92917	-129.140	27.753	57.528	183.316	-22.416	96.279	166.821	165.412	44.452	-31.960	106.435	214.438	-113.498	219.119	37.849	131.774	0.00028707	0.00054588	0.0001968	1316.3	4.0208e-06	6.4719e-06	1304.1	355.56	1.5718e-06	4.0568e-06	403.59	132.09	115.45	39.713	3.8977e-06	49.125	0.00046357	0.00046863	0.00013133	1325.2	5.2021e-06	5.1131e-06	1324	360.89	5.133e-06	5.2276e-06	408.29	136.05	118.67	40.558	5.2629e-06	50.246	220.102	-36.343	-79.276	-125.324	61.323	-26.866	-125.612	-120.914	195.381	45.313	-121.665	-117.458	-116.864	-111.902	32.859	-112.525	-8191	255	
627.263	1	1	0	0	0.13832	0.25445	0.084975	0.32869	0.10072	0.078295	0.20014	0.24682	0.13354	0.099869	0.19356	0.21223	0.39156	0.018353	0.16502	0.26418	-0.63958	-0.052083	-1.0063	-0.575	-0.2375	-0.87292	-0.23542	-0.60417	-0.90625	-0.16458	-1.0896	-0.7375	-0.59167	-1.3104	-0.24167	-0.59375	-56.455	60.689	38.152	187.191	168.920	116.380	145.473	156.573	-106.338	15.176	-114.632	-137.538	-99.110	-110.023	-133.154	160.800	0.0003377	0.0006012	0.00021562	1310.3	3.8519e-06	5.3209e-06	1305.9	355.74	4.4426e-06	3.4111e-06	403.54	132.14	116	39.62	2.5413e-06	48.909	0.00046632	0.00047103	0.00013118	1323.6	5.1965e-06	5.1845e-06	1323.9	361.33	5.2515e-06	5.1588e-06	409.08	135.91	118.75	40.454	5.1965e-06	50.12	-134.129	-112.923	-59.303	-125.510	-51.816	-34.024	-125.793	-121.049	15.826	38.576	-121.518	-117.331	-116.679	-111.808	208.074	-112.355	-8191	255	
627.382	1	1	0	0	0.13662	0.066708	0.014824	0.14699	0.27609	0.26216	0.11661	0.071571	0.27205	0.30765	0.29786	0.20829	0.096987	0.072897	0.15065	0.1056	-0.72917	0.0875	-1.0542	-0.925	-0.18542	-0.9125	-0.48958	-0.64167	-1.0458	-0.01875	-0.98958	-0.79792	-0.23542	-1.0875	-0.475	-0.53333	-51.907	30.788	190.329	169.757	-107.089	-47.470	154.883	11.996	166.026	-37.357	-85.530	122.269	217.732	31.639	151.675	-102.676	0.000339	0.0004245	0.00011025	1312.7	2.8272e-06	4.8268e-06	1307.7	353.42	4.0043e-06	5.5783e-06	402.18	131.66	115.46	39.614	2.9417e-06	48.884	0.00046631	0.00046859	0.00013202	1325.4	5.1493e-06	5.1057e-06	1324.8	360.23	5.0805e-06	5.1359e-06	408.4	135.55	118.42	40.483	5.1298e-06	50.168	220.542	5.230	-36.463	-125.595	6.265	-30.471	-125.670	-120.713	-30.665	29.611	-121.008	-117.433	-116.452	-111.709	32.422	-112.460	-8191	255	
627.454	1	1	0	0	0.27749	0.19399	0.22106	0.2208	0.29581	0.2677	0.26494	0.29055	0.29439	0.10398	0.11346	0.071613	0.087983	0.090617	0.073053	0.33849	-0.75	-0.24375	-0.83125	-1.05	-0.17917	-1.0229	-0.7125	-0.60208	-0.9625	-0.35	-0.86042	-0.89583	-0.3125	-1.15	-0.33958	-0.50625	93.697	169.169	25.424	153.411	-103.979	106.350	196.440	168.011	131.001	-35.409	135.508	83.978	139.560	34.850	-39.657	188.138	0.00028469	0.00039303	7.1214e-05	1310.7	3.9618e-06	2.387e-06	1303.5	354.99	4.4411e-06	7.0903e-06	403.63	132.27	115.38	39.65	4.1835e-06	48.907	0.00045881	0.00047187	0.00013076	1323.5	5.1783e-06	5.1173e-06	1321.9	360.51	5.1242e-06	5.1953e-06	409.11	135.9	118.39	40.535	5.2587e-06	50.182	-137.886	-110.432	-43.864	-125.514	-3.555	48.870	-125.595	-120.627	-62.138	-8.500	-121.190	-117.159	-116.536	-111.761	-9.461	-112.384	-8191	255	
627.550	1	1	0	0	0.050028	0.24192	0.16891	0.028946	0.16065	0.24674	0.1776	0.21793	0.17599	0.43908	0.10887	0.22092	0.098382	0.36334	0.041223	0.18763	-0.77708	-0.3125	-0.65208	-1.1021	-0.17083	-0.82917	-0.76042	-0.49792	-1.325	-0.49375	-0.82708	-0.7625	-0.36458	-1.1146	-0.60208	-0.41042	-88.639	58.803	-90.015	-75.991	17.786	-53.924	192.818	169.716	131.773	30.182	18.036	209.369	-74.061	218.738	139.945	139.816	0.00029769	0.00021836	9.8831e-05	1315.7	4.5571e-06	8.3003e-06	1302.7	353.28	1.7757e-06	3.4582e-06	402.59	132.98	115.56	39.7	5.4411e-06	49.052	0.00046613	0.00047491	0.00013171	1324.6	5.1908e-06	5.1606e-06	1322.3	360.2	5.1526e-06	5.1901e-06	407.96	135.99	118.25	40.567	5.1948e-06	50.219	-135.560	-0.011	-17.571	-125.419	-26.612	-34.850	-125.453	-120.592	45.424	-0.333	-121.223	-116.941	-116.424	-111.472	-2.415	-112.237	-8191	255	
627.646	1	1	0	0	0.17675	0.22678	0.27388	0.028527	0.076216	0.2532	0.4927	0.46899	0.16037	0.17901	0.2796	0.31025	0.36074	0.27476	0.22022	0.21435	-0.56875	-0.52917	-0.51667	-1.0729	-0.1125	-0.7875	-0.80208	-0.36667	-1.1458	-0.50625	-0.6625	-1.1646	-0.375	-0.97292	-0.73125	-0.37708	33.592	220.975	74.980	184.380	56.057	209.816	123.563	157.455	40.451	83.817	194.971	138.388	-135.857	-45.228	-57.074	82.600	0.00028852	0.00031205	8.6714e-05	1312.1	2.9057e-06	4.5419e-06	1302.5	354.76	1.8296e-06	5.6621e-06	400.23	132.97	115.42	39.639	1.0726e-06	48.955	0.00046652	0.00047258	0.00013364	1323.9	5.2373e-06	5.2115e-06	1322.2	360.38	5.2779e-06	5.2e-06	407.33	136.12	118.19	40.463	5.2383e-06	50.126	-131.315	-8.418	-69.182	-125.297	-42.446	-14.495	-125.432	-120.556	-32.735	10.078	-121.083	-117.032	-116.316	-111.503	72.659	-112.061	-8191	255	
627.767	1	1	0	0	0.03817	0.17392	0.096305	0.13433	0.15732	0.10125	0.061703	0.2018	0.068538	0.27573	0.17764	0.076338	0.11613	0.29034	0.51059	0.032308	-0.73333	-0.46667	-0.29583	-1.3083	-0.375	-0.86042	-1.1583	-0.41875	-0.9875	-0.52708	-0.29583	-1.2458	-0.37917	-0.72292	-0.82292	-0.42083	-98.412	23.882	162.035	172.989	179.762	-109.969	119.992	-115.959	62.615	92.734	166.076	165.816	19.977	174.837	-83.864	131.854	0.00031323	0.00060305	0.00025859	1309.1	2.8068e-06	6.4474e-06	1303.2	355.25	4.8236e-06	5.9036e-06	402.04	132.55	115.64	39.686	2.8725e-06	48.81	0.00047093	0.00047766	0.00013402	1322.7	5.3067e-06	5.3356e-06	1322.5	360.28	5.3101e-06	5.3095e-06	408.55	136.08	118.41	40.55	5.3687e-06	50.135	-129.432	-32.772	-42.564	-125.159	-2.537	37.094	-125.445	-120.608	-53.140	-31.506	-120.818	-116.782	-116.236	-111.378	-22.223	-111.938	-8191	255	
627.863	1	1	0	0	0.21981	0.14035	0.15469	0.026902	0.086017	0.10258	0.33062	0.14593	0.080987	0.27254	0.23218	0.075148	0.18955	0.28921	0.033953	0.20875	-0.65833	-0.8	-0.36458	-1.3604	-0.48333	-0.63958	-1.2167	-0.3125	-0.91042	-0.56667	-0.34375	-1.3417	-0.37083	-0.73542	-1.1313	-0.26458	21.539	137.985	-62.643	119.363	-69.234	-42.707	155.644	170.727	-85.063	-18.605	173.976	119.857	200.135	111.744	-25.881	166.518	0.00030478	0.00033112	0.00018933	1315.7	2.2045e-06	2.5532e-06	1301	354.81	1.8226e-06	1.2393e-06	402.69	132.86	116.02	39.642	1.3357e-06	48.925	0.00047725	0.00048492	0.00013607	1324.9	5.3357e-06	5.3419e-06	1322.1	360.02	5.2766e-06	5.3973e-06	407.69	136.12	118.51	40.527	5.3125e-06	50.161	221.176	-39.159	-25.952	-124.905	-35.250	-16.294	-125.045	-120.354	113.880	60.068	-120.727	-116.679	-115.882	-111.184	110.117	-111.870	-8191	255	
627.959	1	1	0	0	0.36972	0.096177	0.061101	0.23995	0.32274	0.2369	0.22061	0.2916	0.12974	0.27274	0.25532	0.064482	0.034953	0.15802	0.11681	0.14374	-0.42083	-0.79792	-0.2625	-1.3438	-0.57708	-0.55	-1.35	-0.48125	-0.46875	-0.91042	-0.2875	-1.0875	-0.58958	-0.4875	-1.0708	-0.43958	-133.396	17.902	193.401	177.367	10.022	189.237	120.046	164.060	-23.902	-14.029	179.387	197.154	178.987	209.778	169.626	214.587	0.00029116	0.0006793	2.1562e-05	1311.4	3.6694e-06	2.2792e-06	1307.6	353.86	4.8978e-06	5.4901e-06	401.79	131.91	114.78	39.628	5.4805e-06	49.029	0.00047557	0.00048309	0.00013574	1323.9	5.3795e-06	5.3581e-06	1321.9	360.12	5.4404e-06	5.3549e-06	407.56	136	118.12	40.531	5.3723e-06	50.143	-132.391	-79.645	68.393	-124.912	-9.001	148.207	-124.808	-120.239	-40.292	21.861	-120.496	-116.512	-115.728	-111.134	-2.191	-111.313	-8191	255	
628.055	1	1	0	0	0.15257	0.20488	0.028121	0.22598	0.040601	0.12524	0.13398	0.18674	0.02702	0.060555	0.17794	0.12333	0.11228	0.18515	0.072154	0.22753	-0.45833	-0.86875	-0.18125	-1.0333	-0.61458	-0.29583	-1.3833	-0.45417	-0.80625	-1.0333	-0.23958	-1.2062	-0.6125	-0.41042	-0.98958	-0.36667	-55.027	-66.855	83.059	-126.172	-20.040	-76.601	143.699	213.758	219.927	88.700	144.648	181.275	174.633	105.021	-36.641	98.398	0.00027586	0.00018297	0.00029775	1309.2	3.285e-06	6.8609e-06	1300.8	352.58	5.7701e-06	4.808e-06	403.25	132.93	115.43	39.635	3.9647e-06	48.914	0.00047927	0.00049436	0.00013688	1322.1	5.379e-06	5.4689e-06	1319.8	359.75	5.4603e-06	5.421e-06	408.45	136.07	118.4	40.481	5.4682e-06	50.129	218.360	-41.604	-6.408	-124.429	-89.166	0.613	-124.535	-120.166	-20.386	0.112	-120.651	-116.166	-116.067	-111.225	19.716	-112.171	-8191	255	
628.151	1	1	0	0	0.12846	0.24622	0.11777	0.30057	0.14826	0.38694	0.32482	0.3066	0.31374	0.21707	0.16378	0.4489	0.25087	0.15794	0.43729	0.14897	-0.1125	-0.72708	-0.25417	-1.0917	-0.57292	-0.25417	-1.1625	-0.45625	-0.59167	-0.75417	-0.38958	-0.99792	-0.8375	-0.25208	-0.95625	-0.64375	-59.818	-67.211	92.702	133.165	-75.396	81.044	148.122	198.191	150.068	35.358	-96.126	176.767	42.992	183.448	-18.668	179.081	0.00029376	0.00054101	0.00018463	1306.3	1.7862e-06	4.1375e-06	1305.4	354.71	6.0907e-06	7.3584e-06	402.53	132.44	115.23	39.582	5.5923e-06	48.84	0.00049535	0.00050257	0.00014214	1321.2	5.5268e-06	5.5599e-06	1323.5	360.55	5.601e-06	5.5706e-06	408.21	136.26	118.6	40.53	5.6008e-06	50.167	219.489	-47.691	-64.367	-125.409	-23.012	-15.800	-125.516	-120.890	-1.713	-14.551	-121.202	-117.081	-116.404	-111.726	-11.441	-112.525	-8191	255	
628.247	1	1	0	0	0.07391	0.21638	0.24819	0.099174	0.15113	0.23327	0.36425	0.27111	0.11379	0.10081	0.25582	0.091239	0.12822	0.20532	0.10767	0.17776	-0.08125	-1.2333	-0.20833	-0.94583	-0.70208	-0.44583	-1.3292	-0.65417	-0.39792	-1.0604	-0.43125	-0.94375	-0.9875	-0.0875	-0.96667	-0.7875	-29.988	139.012	-131.022	153.823	70.361	151.741	129.977	165.768	62.701	-72.372	127.482	192.433	152.273	113.752	-43.304	125.048	0.00029085	0.0005502	0.00018105	1311.6	1.596e-06	4.7444e-06	1305.7	355.14	2.7393e-06	6.0577e-06	402.15	133.32	115.8	39.618	7.5498e-06	49.161	0.000506	0.00051542	0.00014261	1324.4	5.6088e-06	5.6131e-06	1323.5	360.56	5.6165e-06	5.6158e-06	408.36	136.42	118.8	40.467	5.5534e-06	50.22	-131.538	-52.179	-46.936	-125.101	-7.599	64.044	-125.298	-120.606	-3.369	21.404	-120.827	-116.304	-115.921	-111.432	-19.636	-112.043	-8191	255	
628.344	1	1	0	0	0.3402	0.2877	0.15542	0.14958	0.32387	0.11628	0.25132	0.24274	0.20775	0.27832	0.30466	0.11891	0.12227	0.26727	0.27552	0.29521	-0.05625	-1.1396	-0.30208	-0.80833	-1.0521	-0.32708	-1.1104	-0.80625	-0.35208	-1.0917	-0.42917	-0.68125	-0.9625	-0.15	-0.87708	-0.875	-3.475	37.180	-1.552	175.013	220.372	-116.661	165.706	99.249	-58.862	-13.393	82.109	185.582	-121.375	129.651	64.493	87.479	0.00025402	0.00074747	7.6174e-05	1315.1	4.5531e-06	6.1821e-06	1304	354.66	3.0927e-06	7.5069e-06	400.41	132.69	114.98	39.791	3.2316e-06	49.072	0.00049833	0.00050537	0.00014174	1325.7	5.606e-06	5.6557e-06	1324.3	360.65	5.5732e-06	5.6178e-06	408.17	136.14	118.57	40.559	5.6364e-06	50.177	-136.681	-93.018	11.969	-124.687	3.102	-68.902	-124.996	-120.475	-11.087	-6.513	-120.751	-116.514	-116.124	-111.564	-8.467	-111.448	-8191	255	
628.462	1	1	0	0	0.15323	0.14243	0.028693	0.2187	0.1275	0.098647	0.33358	0.27891	0.23877	0.089921	0.044931	0.083533	0.026599	0.32005	0.15711	0.10171	0.22708	-1.0458	-0.36875	-0.69583	-0.90833	-0.04375	-0.86875	-0.9	-0.18542	-1.0083	-0.42083	-0.55625	-1.15	-0.375	-0.63333	-0.975	167.039	194.953	-94.507	189.742	42.714	25.806	155.530	118.168	53.729	27.735	-54.902	-2.513	-57.354	-137.418	177.718	-11.213	0.00032262	0.00030047	0.00020067	1310.4	3.0907e-06	8.4231e-06	1308.7	353.44	3.0231e-06	4.5963e-06	402.47	132.72	116.57	39.58	2.7793e-06	49.032	0.00050431	0.00051577	0.00014513	1327.1	5.625e-06	5.6603e-06	1325.4	360.7	5.6408e-06	5.6162e-06	409.04	136.33	119.09	40.529	5.7275e-06	50.256	-135.375	-49.032	-36.700	-125.049	26.889	30.184	-125.453	-120.713	-71.799	5.316	-121.270	-116.842	-116.197	-111.362	68.132	-112.211	-8191	255	
628.559	1	1	0	0	0.16143	0.18257	0.1053	0.17195	0.096421	0.10347	0.20421	0.17198	0.11439	0.34837	0.13852	0.14454	0.11082	0.15911	0.067965	0.2205	0.31042	-0.97708	-0.6125	-0.6	-0.96458	-0.18125	-0.90208	-0.97917	-0.11667	-0.98958	-0.65	-0.48125	-1.1042	-0.66042	-0.725	-1.1167	-92.913	90.083	-108.109	189.058	56.878	-114.072	162.474	133.544	40.800	102.843	195.870	122.846	65.814	-96.820	66.263	175.726	0.00030585	0.00045463	0.00012591	1316.5	2.9838e-06	6.1945e-06	1309.3	355.67	3.5467e-06	8.8517e-06	403.95	132.78	115.14	39.783	3.009e-06	48.832	0.00050509	0.00052167	0.00014491	1327.6	5.7628e-06	5.7162e-06	1327.7	361.19	5.6844e-06	5.7596e-06	408.97	136.54	118.78	40.572	5.7179e-06	50.165	220.641	-94.812	-92.141	-124.457	-15.892	-31.959	-125.701	-121.092	-53.639	24.152	-121.355	-117.214	-117.204	-111.887	-27.384	-112.476	-8191	255	
628.655	1	1	0	0	0.014536	0.302	0.08673	0.2535	0.22349	0.099339	0.29436	0.19862	0.10593	0.097511	0.25297	0.27439	0.169	0.33453	0.17462	0.11339	0.23958	-1.0458	-0.6625	-0.38958	-1.1583	-0.30833	-0.75833	-1.0083	-0.28542	-0.89583	-0.89792	-0.29583	-1.2167	-0.40625	-0.62292	-0.99375	40.055	-5.029	27.657	192.542	209.992	56.886	177.418	220.177	90.907	-102.930	8.385	156.164	-122.973	-119.324	-34.207	117.944	0.00029022	0.00015933	1.7251e-05	1312.9	1.9952e-06	6.9087e-06	1306	354.22	4.7702e-07	1.7145e-06	403.16	132.48	115	39.628	1.9955e-06	48.869	0.00051764	0.0005225	0.00014655	1327.8	5.7878e-06	5.7689e-06	1326.7	360.93	5.8511e-06	5.8317e-06	409.27	136.55	119.03	40.507	5.8199e-06	50.197	220.486	12.054	190.733	-125.567	29.494	25.028	-125.700	-121.135	92.780	142.696	-121.526	-117.182	-116.958	-112.159	116.278	-112.620	-8191	255	
628.751	1	1	0	0	0.34139	0.24246	0.21023	0.15238	0.091055	0.073689	0.4525	0.46114	0.1894	0.14183	0.22687	0.20702	0.32596	0.10363	0.060909	0.089369	0.14375	-0.96458	-0.72917	-0.25208	-1.0104	-0.59792	-0.76042	-1.3125	-0.38958	-0.76458	-1.1042	-0.29792	-1.0479	-0.61458	-0.33333	-1.2979	211.554	208.243	-24.140	145.986	-2.970	145.943	141.229	129.833	157.579	-92.189	204.215	151.633	139.772	142.967	-112.792	-133.101	0.00030886	0.00035555	8.7321e-05	1315.5	2.0281e-06	9.0675e-06	1306.9	354.72	3.7881e-06	1.9782e-06	402.6	132.31	115.66	39.444	5.5864e-06	48.742	0.00051476	0.00053389	0.0001491	1329.7	5.8861e-06	5.8856e-06	1328.4	361.45	5.8504e-06	5.8129e-06	408.84	136.35	119.06	40.492	5.8139e-06	50.171	219.499	-38.593	-97.011	-125.364	-0.216	29.176	-125.685	-121.123	-45.099	-16.319	-121.455	-117.632	-116.989	-112.212	3.689	-112.745	-8191	255	
628.847	1	1	0	0	0.16098	0.030542	0.2159	0.43776	0.048042	0.27476	0.049713	0.15578	0.19483	0.11277	0.21448	0.27785	0.35749	0.30141	0.23682	0.065026	-0.01875	-0.87708	-0.94583	-0.22708	-0.94375	-0.67708	-0.3875	-1.1063	-0.18542	-0.51042	-0.94375	-0.1625	-1.025	-0.65208	-0.4625	-1.3208	-20.547	-119.207	-85.314	186.028	198.870	68.216	-41.577	153.527	163.794	197.612	-122.801	98.795	22.938	219.010	-112.012	119.647	0.00028557	0.00062254	0.00010575	1313.7	6.6921e-06	9.1474e-06	1309.7	354.83	3.0786e-06	2.4105e-06	403.13	132.56	115.45	39.52	4.2894e-07	48.878	0.00051833	0.00052449	0.00014483	1329.3	5.765e-06	5.7341e-06	1329.4	361.38	5.7822e-06	5.7175e-06	408.77	136.51	118.71	40.56	5.7571e-06	50.212	-133.113	-92.674	16.858	-125.686	-16.003	16.823	-125.635	-121.141	-12.957	63.374	-121.630	-117.555	-116.931	-111.766	-113.777	-112.254	-8191	255	
628.943	1	1	0	0	0.12464	0.086546	0.30082	0.087097	0.16509	0.058565	0.46181	0.3689	0.14924	0.28504	0.17247	0.292	0.16353	0.21949	0.13871	0.19176	-0.085417	-0.56042	-0.96042	-0.42917	-0.95417	-0.7	-0.40208	-1.2354	-0.45	-0.48125	-1.0958	-0.21042	-0.93542	-0.99375	-0.35625	-1.3125	88.929	204.152	31.876	155.138	-128.510	148.304	168.622	175.594	-13.960	19.884	-48.291	163.392	-34.424	-13.897	148.429	118.435	0.00032496	0.00059721	0.00023243	1315.4	2.3008e-06	2.7184e-06	1308.2	355.98	1.7489e-06	1.6582e-06	402.53	132.85	115.92	39.686	6.5062e-06	49.03	0.00051531	0.00052253	0.00014731	1329.2	5.7976e-06	5.7062e-06	1328.4	361.84	5.7958e-06	5.7682e-06	409.73	136.35	119	40.576	5.8518e-06	50.213	214.719	-53.204	6.760	-125.444	-77.237	29.652	-125.802	-121.083	-40.640	-73.543	-121.269	-117.339	-116.726	-111.951	13.259	-112.621	-8191	255	
629.064	1	1	0	0	0.20741	0.14302	0.16632	0.093932	0.079231	0.09617	0.24603	0.27684	0.31536	0.16966	0.11284	0.050378	0.13906	0.14934	0.40829	0.20715	-0.03125	-0.23958	-0.98542	-0.48125	-0.76875	-0.86042	-0.39792	-1.0667	-0.45625	-0.37917	-1.1042	-0.37917	-0.80625	-1	-0.10208	-0.93958	-102.375	187.153	-108.333	173.523	75.107	-104.486	-92.087	154.332	-10.332	-84.550	106.955	174.589	165.452	133.370	139.339	158.819	0.00030507	0.00043847	0.0001	1316.1	2.0801e-06	4.4543e-06	1307.5	354.12	2.7827e-06	4.7814e-06	404.64	133	115.31	39.516	2.6112e-06	48.971	0.00051685	0.00053518	0.00014806	1329.6	5.8415e-06	5.7707e-06	1327.7	361.26	5.8243e-06	5.8043e-06	409.44	136.6	118.94	40.495	5.814e-06	50.242	216.428	-102.771	-74.601	-125.509	-0.078	0.298	-125.511	-120.969	-22.166	-33.657	-121.408	-117.467	-116.770	-112.095	96.593	-112.338	-8191	255	
629.160	1	1	0	0	0.20488	0.30729	0.041214	0.27391	0.12525	0.18869	0.32555	0.12547	0.020893	0.085649	0.30181	0.049865	0.18984	0.096912	0.13794	0.18494	-0.15	-0.27708	-1.1729	-0.55625	-0.50625	-1.0729	-0.32292	-1.2875	-0.63958	-0.30417	-1.2479	-0.51875	-0.59375	-1.225	-0.325	-0.875	-33.115	174.826	-56.080	-17.301	182.916	150.785	132.816	-50.046	0.899	88.434	-106.935	202.390	-81.149	116.453	-9.797	-127.208	0.00035492	0.00061378	0.00012193	1317.1	2.5535e-06	8.8339e-06	1310.4	353.33	4.0983e-06	6.4445e-06	401.62	132.58	115.21	39.563	2.8874e-06	48.9	0.0005145	0.00052752	0.00014581	1330.9	5.7823e-06	5.8026e-06	1327.6	361.34	5.8115e-06	5.8291e-06	408.93	136.38	119.08	40.576	5.8171e-06	50.191	-138.772	-98.992	-99.750	-125.534	-50.774	36.088	-125.701	-121.086	-76.350	-11.819	-121.732	-117.305	-116.995	-111.763	-3.451	-112.239	-8191	255	
629.254	1	1	0	0	0.12096	0.25649	0.02198	0.087655	0.22219	0.14438	0.19843	0.16894	0.28099	0.1295	0.40586	0.24171	0.066078	0.15448	0.077365	0.21672	-0.425	-0.24167	-1.0187	-0.68958	-0.4375	-0.94792	-0.44792	-0.97083	-0.72292	-0.1875	-1.2042	-0.61042	-0.3875	-1.175	-0.44792	-0.93542	208.279	-132.757	81.706	-100.037	-42.230	219.227	149.709	128.197	197.668	-3.636	188.651	168.411	-137.002	182.226	81.713	27.534	0.00030754	0.00036777	0.00012649	1321.9	3.1016e-06	2.2112e-06	1305.5	354.89	2.5678e-06	4.2239e-06	403.58	132.48	115.35	39.483	4.6508e-06	48.764	0.00051847	0.00052795	0.00014774	1330.5	5.8276e-06	5.7818e-06	1328.5	361.53	5.8196e-06	5.7397e-06	409.54	136.29	119.08	40.546	5.8596e-06	50.137	-135.046	-62.543	-52.780	-125.789	-28.290	-13.256	-125.681	-120.977	-89.168	0.921	-121.487	-117.688	-116.594	-112.040	-3.389	-112.438	-8191	255	
629.328	1	1	0	0	0.13669	0.13919	0.071874	0.17077	0.042091	0.1401	0.29711	0.058195	0.03315	0.08006	0.11664	0.30341	0.24021	0.10337	0.052431	0.10159	-0.51042	-0.089583	-1.1896	-0.73333	-0.41458	-1.1	-0.41875	-0.9125	-0.99167	-0.01875	-1.3229	-0.68125	-0.30417	-1.1896	-0.30625	-0.69583	-67.643	207.796	25.707	97.458	-33.384	193.925	204.497	212.626	-114.626	103.990	-94.327	170.806	-93.534	171.060	26.186	185.850	0.00032952	0.00021585	0.00021261	1314.4	3.8635e-06	4.0093e-06	1311.9	354.7	1.7488e-06	5.3264e-06	403.98	132.34	115.47	39.87	7.9427e-07	49.016	0.00051136	0.00052941	0.00014726	1329.6	5.7984e-06	5.8058e-06	1329.6	361.61	5.7203e-06	5.7839e-06	409.43	136.35	119.1	40.622	5.7748e-06	50.26	-129.034	-86.989	-32.882	-125.542	43.936	42.639	-125.667	-120.880	-84.318	26.114	-121.489	-117.503	-116.933	-112.037	-33.383	-112.091	-8191	255	
629.424	1	1	0	0	0.11578	0.046811	0.16992	0.23317	0.18542	0.12058	0.13633	0.32091	0.14786	0.28047	0.31133	0.077963	0.16738	0.099163	0.22081	0.13309	-0.64375	-0.27708	-0.72917	-0.86458	-0.4125	-1.0896	-0.65	-0.7375	-0.92083	-0.43542	-1.0125	-0.85	-0.28125	-1.3104	-0.47292	-0.67917	202.160	169.118	165.651	167.320	-43.391	-64.102	49.708	153.766	205.064	32.937	-32.968	146.283	-106.956	160.723	113.303	121.618	0.00034479	0.00030126	0.00010021	1314.7	2.2487e-06	6.3405e-06	1313	356.68	3.9028e-06	1.436e-06	403.76	132.74	115.93	39.696	2.739e-06	48.791	0.00051265	0.00053131	0.00014725	1329.8	5.7929e-06	5.7862e-06	1330.1	362.17	5.7687e-06	5.8237e-06	409.41	136.13	118.86	40.462	5.8325e-06	50.119	-133.339	-87.722	-124.109	-125.387	42.149	-14.928	-125.668	-120.682	-49.038	179.998	-121.182	-117.430	-116.653	-111.799	-39.937	-112.500	-8191	255	
629.543	1	1	0	0	0.16351	0.13944	0.11354	0.096157	0.17562	0.10334	0.30448	0.41351	0.13093	0.20567	0.07775	0.16479	0.25299	0.12337	0.12627	0.27125	-0.54583	-0.34375	-0.725	-1.1625	-0.1375	-1.05	-0.79792	-0.62917	-1.0792	-0.26667	-0.84375	-0.9875	-0.23542	-1.0771	-0.45833	-0.55	220.247	-13.115	154.136	94.686	135.003	-58.461	171.229	177.885	-14.274	102.747	51.413	-98.161	-25.088	136.901	148.711	-118.412	0.00027552	0.00034526	0.00015612	1319.7	3.0171e-06	3.1833e-06	1308.5	354.6	2.8608e-06	4.211e-06	403.62	132.69	115.85	39.564	2.3007e-06	48.928	0.00051099	0.00052005	0.00014704	1331.1	5.7301e-06	5.7467e-06	1328.9	361.85	5.7568e-06	5.7981e-06	410.23	136.33	119.01	40.508	5.7326e-06	50.229	219.272	-24.241	-54.462	-125.610	49.083	-25.926	-125.680	-120.638	2.456	77.697	-121.588	-117.357	-116.606	-111.712	36.274	-112.199	-8191	255	
629.639	1	1	0	0	0.22524	0.19016	0.21604	0.09172	0.30041	0.096255	0.014598	0.10232	0.13127	0.10059	0.15695	0.32227	0.075854	0.035135	0.12838	0.09649	-0.9125	-0.40625	-0.55	-1.0521	-0.36042	-1.0521	-0.88125	-0.37917	-1.1521	-0.51875	-0.82292	-1.0646	-0.29167	-1.0604	-0.75208	-0.43333	19.338	-101.852	124.708	192.346	184.952	91.506	0.253	112.131	-50.407	191.871	179.884	75.454	-77.178	-132.226	-64.325	111.112	0.0002899	0.00071566	0.00012413	1323.9	1.6721e-06	3.9047e-06	1306.1	356.04	5.4472e-06	7.6701e-06	403.82	132.23	115.7	39.73	2.4078e-06	48.969	0.00051347	0.00053289	0.00014782	1333.7	5.7505e-06	5.7617e-06	1328.4	361.56	5.7675e-06	5.7711e-06	409.81	136.35	119.11	40.623	5.7942e-06	50.207	-128.993	-16.616	-3.659	-125.361	34.014	64.702	-125.499	-120.725	-21.360	23.330	-121.110	-117.173	-116.619	-111.714	-37.770	-112.344	-8191	255	
629.735	1	1	0	0	0.19391	0.18806	0.14756	0.33144	0.15348	0.34589	0.21682	0.32531	0.16906	0.1809	0.28021	0.13856	0.22875	0.22056	0.18444	0.2097	-0.625	-0.2625	-0.48125	-1.2167	-0.15417	-0.76875	-1.1708	-0.30625	-1.1917	-0.42292	-0.62292	-1.1604	-0.45417	-0.98958	-0.82292	-0.2125	-41.524	203.536	-92.766	207.263	-53.274	-62.639	210.997	129.112	183.644	-130.284	199.717	168.842	209.289	195.201	-101.022	168.231	0.00031043	5.8796e-05	6.8427e-05	1316.2	5.4436e-06	5.6164e-06	1306.9	356	2.6983e-06	3.171e-06	404.64	132.78	115.42	39.528	4.4019e-06	48.976	0.00050984	0.00053321	0.00014603	1331.8	5.769e-06	5.7299e-06	1329.7	361.76	5.7249e-06	5.8061e-06	410.44	136.39	119.05	40.6	5.812e-06	50.224	-131.910	-64.191	-8.964	-125.367	30.005	3.932	-125.359	-120.612	-43.608	-60.431	-121.385	-117.214	-116.571	-111.658	14.097	-112.263	-8191	255	
629.856	1	1	0	0	0.076549	0.11134	0.17524	0.14621	0.068054	0.12708	0.31103	0.23811	0.29189	0.091891	0.17352	0.25077	0.087176	0.12076	0.086633	0.15479	-0.575	-0.52708	-0.375	-1.2437	-0.49167	-0.60208	-1.2375	-0.23542	-0.9875	-0.58542	-0.475	-1.1646	-0.46458	-0.66667	-0.95	-0.33333	219.022	96.616	52.767	-128.798	-7.990	-47.803	186.152	172.137	13.049	-20.973	-128.915	142.881	-86.325	150.503	173.637	-53.114	0.00030843	0.00041116	0.00015255	1321	5.0529e-06	9.6489e-06	1314.8	354.44	3.7738e-06	7.6281e-06	405.74	132.87	115.44	39.646	4.9534e-06	48.869	0.00051677	0.00052364	0.00014716	1332.4	5.8273e-06	5.801e-06	1332.7	361.52	5.7978e-06	5.7792e-06	410.08	136.59	118.94	40.612	5.715e-06	50.26	-136.450	-35.600	-15.761	-125.406	-18.984	-37.373	-125.410	-120.678	-14.057	81.811	-121.043	-116.981	-116.563	-111.598	54.501	-112.306	-8191	255	
629.927	1	1	0	0	0.22993	0.13338	0.1973	0.095324	0.1473	0.2362	0.44249	0.27462	0.20388	0.24931	0.28047	0.32891	0.21093	0.15285	0.30349	0.095117	-0.48542	-0.57708	-0.43542	-1.2979	-0.33542	-0.63542	-1.1917	-0.41042	-0.73125	-0.73125	-0.39583	-1.4937	-0.36458	-0.70208	-1.1646	-0.52917	44.468	202.696	152.149	-118.236	-70.769	-106.142	149.589	143.192	-48.776	42.241	96.720	179.449	184.750	-22.633	6.498	-122.462	0.00028971	0.00069432	0.00021068	1322.5	1.5873e-06	7.5878e-06	1314.1	355.79	1.7007e-06	1.5993e-06	402.3	132.87	115.74	39.661	5.3558e-06	48.863	0.00052102	0.00053341	0.00014958	1333	5.8833e-06	5.8339e-06	1332.8	361.62	5.887e-06	5.8774e-06	409.06	136.52	118.99	40.626	5.8413e-06	50.144	-137.820	-54.767	-70.648	-125.220	-24.617	35.138	-125.479	-120.540	-8.719	-103.633	-121.047	-117.192	-116.622	-111.453	49.845	-112.373	-8191	255	
630.024	1	1	0	0	0.093716	0.23492	0.11304	0.21461	0.16783	0.23401	0.22859	0.18708	0.27162	0.15235	0.062765	0.28714	0.091195	0.23712	0.102	0.071646	-0.48542	-0.9375	-0.25	-1.3854	-0.67708	-0.44375	-1.5042	-0.5625	-0.81667	-0.94375	-0.38542	-1.2417	-0.6	-0.7	-1.0312	-0.27292	-71.029	176.233	-70.499	192.947	-126.198	202.499	86.775	140.889	-41.515	6.944	-44.811	127.248	-40.327	-120.078	128.896	-45.466	0.00032687	0.00019649	4.6661e-05	1319.2	3.6801e-06	6.2221e-06	1309.4	355.32	3.6714e-06	7.064e-06	403.49	132.52	115.49	39.756	2.9781e-06	48.88	0.00051812	0.00053421	0.00014932	1334.9	5.8607e-06	5.838e-06	1331	361.98	5.8759e-06	5.8238e-06	410.21	136.63	119.14	40.636	5.8106e-06	50.209	218.804	-10.834	-33.935	-125.127	11.692	-53.253	-125.198	-120.536	-50.896	20.546	-120.922	-116.824	-115.869	-111.243	-25.852	-112.099	-8191	255	
630.144	1	1	0	0	0.10177	0.059448	0.14244	0.53533	0.20215	0.14398	0.32036	0.31144	0.18712	0.049905	0.10704	0.23285	0.085099	0.28993	0.27092	0.10648	-0.32292	-0.825	0.01875	-1.0063	-0.56042	-0.32292	-1.3563	-0.56875	-0.68333	-1.0688	-0.24583	-0.99375	-0.78958	-0.61042	-1.15	-0.42083	39.787	82.999	-12.848	192.297	214.112	104.394	135.045	142.386	-78.357	219.128	-133.701	-99.196	-133.358	174.340	10.678	114.114	0.00031514	0.00024116	0.00013443	1324.8	2.7157e-06	1.0399e-05	1313	355.82	3.2894e-06	8.6166e-06	403.96	133.35	115.89	39.523	7.1092e-06	48.921	0.00051727	0.00052978	0.00014823	1333.1	5.7338e-06	5.759e-06	1333.3	361.62	5.6908e-06	5.7022e-06	409.43	137.02	119.3	40.566	5.7651e-06	50.246	218.947	-100.162	-15.744	-124.952	-10.522	-1.468	-125.151	-120.667	-30.519	6.008	-121.066	-116.956	-116.540	-111.480	-31.805	-112.028	-8191	255	
630.240	1	1	0	0	0.088563	0.063501	0.1898	0.063069	0.13487	0.10145	0.11869	0.12401	0.21937	0.080216	0.19237	0.19425	0.21759	0.2863	0.25221	0.19024	-0.16667	-1.0083	-0.17083	-1.1833	-0.77708	-0.225	-1.2687	-0.40833	-0.5125	-0.98125	-0.36875	-0.72292	-1.0292	-0.42083	-1.0646	-0.8125	200.630	123.238	167.275	-134.252	-98.962	65.775	-112.219	-113.870	-5.726	-117.044	-138.164	131.259	107.219	204.475	200.002	-95.617	0.00030011	0.00051682	6.5059e-05	1325.4	2.1645e-06	1.0702e-05	1317	356.84	2.4642e-06	6.6738e-06	405.44	132.58	116.18	39.497	1.9533e-06	48.981	0.0005111	0.00052972	0.00014649	1334.5	5.7488e-06	5.7995e-06	1335.3	362.04	5.7367e-06	5.7137e-06	409.62	136.61	119.15	40.57	5.6969e-06	50.226	220.478	-12.877	-42.014	-124.928	-5.206	-31.970	-125.283	-120.698	-12.421	34.417	-120.902	-117.172	-116.595	-111.784	56.190	-112.234	-8191	255	
630.336	1	1	0	0	0.03195	0.19693	0.035348	0.40946	0.080646	0.096345	0.31969	0.11875	0.32313	0.26836	0.088774	0.10135	0.26354	0.15799	0.097361	0.078637	-0.0875	-1.1854	-0.23333	-1.05	-0.90625	-0.26458	-1.2125	-0.54792	-0.36667	-1.0854	-0.63125	-1.05	-1.0375	-0.37917	-0.9375	-0.84375	170.143	-91.576	-137.016	199.548	-6.174	161.314	189.154	125.191	-1.469	74.851	98.609	218.843	-93.051	78.327	-62.477	175.507	0.00028789	0.00027983	0.00012464	1324.2	1.0814e-06	7.8995e-06	1311.3	355.83	3.0296e-06	7.1066e-06	402.57	133.15	116.11	39.753	1.9379e-06	48.885	0.00051221	0.00052102	0.00014603	1335.2	5.6889e-06	5.6442e-06	1332.3	361.46	5.6456e-06	5.6113e-06	409.6	136.72	119.03	40.56	5.6494e-06	50.094	218.828	1.496	-102.662	-125.069	129.793	26.816	-125.302	-120.802	-64.269	30.609	-120.898	-116.899	-116.368	-111.822	178.013	-111.975	-8191	255	
630.455	1	1	0	0	0.46139	0.14391	0.23326	0.16577	0.2696	0.1175	0.14256	0.19465	0.1452	0.20827	0.048217	0.12628	0.22161	0.084267	0.17905	0.17005	-0.0375	-1.1604	-0.35833	-0.8	-1.0917	-0.275	-0.94583	-0.84167	-0.28125	-1.0604	-0.60833	-0.46458	-1.1292	-0.35	-0.89792	-0.90833	172.350	170.817	63.591	194.897	54.804	173.021	204.906	138.719	-65.128	-118.643	-85.610	51.465	42.679	144.947	-100.859	177.647	0.00027268	0.0006306	0.00020067	1321.4	3.9385e-06	5.2686e-06	1312.4	355.13	4.6497e-06	7.1482e-06	405.43	132.29	115.64	39.637	5.2753e-06	48.973	0.00050234	0.00051281	0.00014299	1335.6	5.6241e-06	5.6534e-06	1331.6	361.39	5.6324e-06	5.6448e-06	409.64	136.45	118.94	40.603	5.705e-06	50.26	-138.591	-77.975	-45.506	-125.233	32.441	-5.634	-125.467	-120.723	-47.709	28.615	-121.210	-116.735	-116.142	-111.808	-1.634	-112.078	-8191	255	
630.551	1	1	0	0	0.22884	0.17456	0.16597	0.16543	0.067682	0.027677	0.22708	0.28459	0.19834	0.13865	0.32377	0.20989	0.13161	0.21766	0.39017	0.23959	0.077083	-1.1938	-0.32917	-0.66667	-1.1313	-0.35	-0.90625	-1.1063	-0.31042	-0.82292	-0.64792	-0.38333	-1.1604	-0.44792	-0.81458	-0.825	-39.451	-71.811	119.040	203.608	-85.082	14.744	129.757	158.732	94.497	177.023	97.573	206.033	-34.265	126.411	141.811	172.870	0.00031095	5.7198e-05	9.397e-05	1321.7	4.7406e-06	5.7127e-06	1314.4	355.57	4.2836e-06	6.6344e-06	401.95	132.08	115.56	39.651	3.947e-06	49.01	0.00050289	0.00051477	0.00014571	1333.9	5.6971e-06	5.733e-06	1331.7	361.43	5.6952e-06	5.7187e-06	408.77	136.49	119.18	40.529	5.693e-06	50.221	-137.021	-50.921	149.074	-125.114	31.854	6.996	-125.194	-120.606	-9.664	-64.133	-121.092	-116.990	-116.252	-111.691	28.671	-112.007	-8191	255	
630.623	1	1	0	0	0.1397	0.39203	0.23271	0.15695	0.16463	0.090096	0.24532	0.27457	0.12946	0.16745	0.15138	0.01504	0.12215	0.27645	0.20086	0.27092	0.15625	-1.2167	-0.6375	-0.39375	-1.25	-0.35625	-0.76042	-1.2458	-0.041667	-1.0146	-0.76875	-0.30625	-1.2313	-0.375	-0.60417	-1.325	8.095	10.926	36.825	215.120	192.452	31.770	215.735	112.779	218.115	97.441	88.611	120.517	-117.547	210.890	-135.278	191.998	0.00025088	0.00082882	0.00023831	1320.9	5.6867e-07	8.528e-06	1311.1	355.78	2.9887e-06	7.1618e-06	403.42	132.34	115.86	39.537	3.5206e-06	49.033	0.0005097	0.00051622	0.00014611	1333.3	5.6855e-06	5.7244e-06	1332.6	361.78	5.7167e-06	5.6807e-06	408.9	136.47	119.28	40.518	5.73e-06	50.209	-136.855	-51.002	-53.057	-124.905	20.487	12.711	-125.027	-120.554	-30.302	33.304	-121.195	-117.022	-116.283	-111.641	12.033	-112.214	-8191	255	
630.744	1	1	0	0	0.11548	0.053749	0.20515	0.2204	0.22848	0.19785	0.1883	0.18099	0.11817	0.079023	0.18267	0.31224	0.17915	0.1913	0.1843	0.096879	0.28333	-1.0083	-0.64167	-0.44583	-0.92083	-0.45	-0.87292	-1.2292	-0.11458	-0.73333	-0.99375	-0.35208	-1.1729	-0.58958	-0.5875	-1.2625	-76.284	-31.353	17.954	-109.462	189.575	7.708	-67.454	157.693	197.308	12.045	70.119	181.727	-73.590	147.940	-69.251	-104.677	0.00030216	0.00049103	0.00014403	1323.1	1.6231e-06	4.2044e-06	1309.7	355.23	4.9714e-06	2.7117e-06	402.58	133.15	115.32	39.599	2.9874e-06	48.794	0.00050585	0.00052219	0.0001457	1335.2	5.6727e-06	5.7541e-06	1332	361.88	5.7239e-06	5.7673e-06	409.03	136.55	118.84	40.567	5.7149e-06	50.135	217.419	-67.438	-45.530	-125.058	-67.475	-70.051	-125.065	-120.546	-31.082	39.558	-121.014	-116.832	-116.321	-111.437	-79.783	-111.987	-8191	255	
630.840	1	1	0	0	0.11722	0.17213	0.20563	0.1124	0.19748	0.15263	0.14897	0.17586	0.026164	0.26271	0.14271	0.23776	0.022012	0.19578	0.26265	0.10867	0.18542	-0.80417	-1.025	-0.28542	-0.91875	-0.67083	-0.525	-1.2375	-0.17292	-0.825	-0.9625	-0.38125	-1.1333	-0.61042	-0.225	-1.1667	-68.792	160.267	-48.066	126.777	-0.216	60.792	113.746	24.474	191.262	137.176	209.426	214.219	1.694	32.892	-36.919	45.085	0.00025058	0.00063961	0.00017658	1318.8	4.3263e-06	1.0888e-05	1319.4	356.21	1.524e-06	3.0165e-06	402.95	132.86	115.84	39.523	2.6502e-06	48.992	0.0005102	0.00052567	0.00014279	1333.2	5.6859e-06	5.7544e-06	1334.2	361.93	5.7249e-06	5.6512e-06	409.51	136.59	119.15	40.489	5.7445e-06	50.19	-127.525	-47.999	-25.978	-125.071	-41.638	9.530	-125.102	-120.589	-24.025	40.530	-120.988	-117.027	-116.215	-111.407	52.024	-112.233	-8191	255	
630.936	1	1	0	0	0.031323	0.2477	0.17016	0.083817	0.26435	0.4159	0.283	0.20117	0.32524	0.253	0.039331	0.26365	0.14588	0.21555	0.11118	0.10039	0.072917	-0.74375	-1.05	-0.47708	-0.66042	-0.53125	-0.45625	-1.4083	-0.29583	-0.56875	-1.2375	-0.39583	-1.1542	-0.89375	-0.17292	-0.99167	81.687	-6.037	-122.390	168.303	70.063	20.949	72.782	135.273	81.607	185.253	136.719	-126.209	197.226	193.145	219.743	170.122	0.00023333	0.00093538	0.00012697	1326.1	5.9719e-06	7.6816e-06	1315.9	355.26	5.4453e-06	7.6383e-06	402	132.6	115.45	39.683	5.2957e-06	48.929	0.00050774	0.0005196	0.00014376	1335.9	5.6766e-06	5.7192e-06	1334.1	361.92	5.7609e-06	5.7136e-06	409.33	136.41	119.07	40.593	5.7431e-06	50.214	-135.279	-46.088	-50.322	-124.784	-7.678	-1.418	-125.196	-120.459	-10.429	15.588	-121.046	-116.715	-115.889	-111.686	40.438	-111.957	-8191	255	
631.032	1	1	0	0	0.063484	0.16338	0.12801	0.2982	0.018215	0.2301	0.13807	0.16803	0.20006	0.14569	0.2726	0.10369	0.34327	0.12459	0.27294	0.066488	-0.052083	-0.40417	-1.0104	-0.51042	-0.7125	-0.80625	-0.4125	-1.0792	-0.33542	-0.45833	-1.2833	-0.50625	-0.82708	-0.88125	-0.20208	-1.2062	199.828	-48.646	220.982	-100.640	171.286	-119.456	118.704	-122.780	-14.848	178.331	139.301	62.764	-109.408	170.177	192.359	185.944	0.00029604	0.00079942	0.00014446	1322.3	2.5782e-06	7.5439e-06	1316	355.54	3.9892e-06	4.3797e-06	401.29	132.71	116.07	39.754	1.9558e-06	48.997	0.00051545	0.00052382	0.0001458	1333.8	5.7532e-06	5.6526e-06	1332.6	361.45	5.7804e-06	5.6838e-06	409.36	136.42	119.18	40.602	5.7544e-06	50.136	-134.174	-27.805	-23.255	-124.861	44.060	11.342	-125.012	-120.147	-41.328	-26.651	-120.777	-116.712	-115.915	-111.263	-40.391	-111.909	-8191	255	
631.128	1	1	0	0	0.20059	0.11262	0.082395	0.197	0.047297	0.30269	0.29394	0.23473	0.3564	0.14692	0.50035	0.27508	0.14245	0.15746	0.42375	0.13436	0.070833	-0.41042	-1.1542	-0.52917	-0.75833	-0.76042	-0.30625	-1.0438	-0.52292	-0.48333	-1.2062	-0.31042	-0.69792	-1.1042	-0.125	-1.0354	77.394	-55.061	202.547	200.643	170.969	34.005	203.312	187.210	-83.047	31.912	162.529	-72.558	185.962	198.420	185.879	20.116	0.00030371	0.00073501	0.00014309	1316	3.9878e-06	1.9336e-06	1313.8	356.42	1.8551e-06	4.8721e-06	403.4	132.25	115.62	39.614	4.1926e-06	49.039	0.00051028	0.00051893	0.00014246	1331.5	5.7109e-06	5.6553e-06	1331.7	361.82	5.693e-06	5.7462e-06	409.59	136.53	119.16	40.551	5.676e-06	50.25	-136.086	-45.128	-28.353	-124.955	83.726	-15.635	-125.010	-120.408	-53.504	35.780	-120.767	-116.634	-116.509	-111.412	13.174	-111.779	-8191	255	
631.225	1	1	0	0	0.34336	0.60128	0.17145	0.32946	0.22053	0.16274	0.2657	0.24554	0.20109	0.18783	0.52763	0.22016	0.081158	0.34997	0.094974	0.306	-0.3375	-0.34375	-1.1125	-0.3	-0.58542	-1.0333	-0.38542	-1.1271	-0.67292	-0.25417	-1.1562	-0.475	-0.43542	-1.1083	-0.32917	-0.95417	132.622	1.625	10.843	184.840	20.982	-3.837	146.690	197.023	217.146	47.524	191.035	203.068	-52.132	-124.259	-42.451	105.207	0.00028663	0.00075599	0.0001709	1321.4	6.4049e-06	7.7382e-06	1312.6	356.65	2.3859e-06	1.1736e-05	405.26	132.57	116.11	39.734	2.6051e-06	49.092	0.0005077	0.00052306	0.00014617	1331.1	5.7104e-06	5.6625e-06	1331.4	362.25	5.6881e-06	5.7619e-06	409.88	136.33	119.37	40.588	5.7765e-06	50.28	-127.752	-75.440	-10.257	-124.934	-5.079	-17.529	-125.102	-120.012	-4.635	74.996	-120.741	-116.658	-115.753	-111.090	-4.845	-111.518	-8191	255	
631.321	1	1	0	0	0.22425	0.12193	0.34245	0.13359	0.19932	0.40438	0.29059	0.17204	0.32785	0.099535	0.41964	0.17247	0.33167	0.18562	0.24605	0.020779	-0.4625	-0.14375	-0.75417	-0.51458	-0.41875	-1.0312	-0.43542	-0.725	-0.7375	-0.35625	-1.2208	-0.60625	-0.59375	-1.1292	-0.175	-0.86458	162.216	46.081	-95.386	162.925	64.219	-15.401	197.845	173.939	13.791	-5.235	154.071	162.303	69.520	133.596	-50.708	-115.834	0.00029982	0.00089309	0.00020585	1318.8	3.5455e-06	8.5489e-06	1314.4	356.71	4.3826e-06	2.0715e-06	403.46	132.64	115.82	39.671	2.6064e-06	49.168	0.0005091	0.00052203	0.00014664	1330.8	5.7445e-06	5.7733e-06	1331.6	362.23	5.7583e-06	5.7378e-06	409.44	136.58	119.09	40.604	5.7972e-06	50.268	-132.078	-40.537	-39.208	-124.781	-49.705	30.284	-124.819	-119.910	-38.202	102.216	-120.608	-116.699	-115.773	-111.144	-98.755	-111.719	-8191	255	
631.417	1	1	0	0	0.111	0.21399	0.15808	0.18665	0.24412	0.18227	0.11749	0.19128	0.1369	0.12995	0.11859	0.10945	0.17552	0.17414	0.18623	0.19444	-0.39583	-0.23958	-0.82292	-0.92708	-0.49583	-1.0187	-0.49583	-0.84375	-0.78542	-0.14792	-1.1583	-0.83542	-0.38542	-1.4646	-0.25417	-0.73333	-22.646	-20.592	21.832	145.529	143.609	61.582	152.763	145.192	-57.878	-53.268	141.949	-34.407	8.113	197.085	-110.231	-126.654	0.00030888	0.00025981	9.132e-05	1319.9	5.3645e-06	6.0875e-06	1309.7	356.03	3.753e-06	7.5626e-06	404.97	133.21	115.89	39.607	2.9595e-06	48.944	0.00051159	0.00053215	0.00014684	1332.3	5.7739e-06	5.7718e-06	1331	361.95	5.7819e-06	5.84e-06	410.26	136.42	119.32	40.587	5.8245e-06	50.296	-131.120	0.848	-51.294	-124.771	-12.789	-5.311	-124.864	-120.072	14.322	26.291	-120.669	-116.614	-115.706	-111.013	119.163	-111.608	-8191	255	
631.536	1	1	0	0	0.2807	0.11438	0.20601	0.027987	0.12264	0.1762	0.12591	0.081403	0.20039	0.26778	0.041476	0.23682	0.20798	0.051722	0.16006	0.20478	-0.62292	-0.1125	-0.90625	-0.8375	-0.12292	-1.1812	-0.73542	-0.87292	-0.94167	-0.40625	-1.1021	-1	-0.2625	-1.2146	-0.41042	-0.625	-119.430	-23.425	-34.840	198.318	103.540	77.707	114.591	83.842	95.991	143.624	112.400	165.679	-121.087	163.097	125.369	221.506	0.00032056	0.00027474	9.1748e-05	1316.5	4.2743e-06	4.4979e-06	1310.5	356.35	1.1919e-06	4.3102e-06	403.81	132.84	115.74	39.738	2.6391e-06	48.99	0.00051428	0.00052906	0.00014768	1333.2	5.8235e-06	5.7988e-06	1331.2	362.41	5.7639e-06	5.8208e-06	410.13	136.5	119.14	40.655	5.7331e-06	50.204	-133.902	-34.738	-48.957	-124.759	20.894	37.961	-124.920	-119.942	-84.289	-41.131	-120.619	-116.808	-116.081	-111.384	23.718	-111.491	-8191	255	
631.632	1	1	0	0	0.032096	0.10028	0.22637	0.17847	0.26793	0.11518	0.25383	0.20322	0.17035	0.10549	0.21788	0.12849	0.13437	0.29921	0.083134	0.40068	-0.62083	-0.31667	-0.69792	-1.1271	-0.17083	-0.91042	-0.64583	-0.32083	-1.1479	-0.37708	-0.73958	-1.2542	-0.31667	-1.2771	-0.63333	-0.61458	186.804	-133.079	192.663	179.015	-27.643	-92.705	212.767	202.250	63.997	85.825	214.274	104.816	90.212	-92.991	-80.775	116.484	0.00031445	0.0004695	0.00012804	1321.8	3.4509e-06	5.4296e-06	1316	357.19	2.0429e-06	4.4782e-06	405.75	132.44	115.71	39.73	1.9002e-06	49.052	0.00051052	0.00052568	0.00014647	1333.6	5.7596e-06	5.7589e-06	1331.5	362.43	5.7753e-06	5.781e-06	409.97	136.28	118.77	40.588	5.7629e-06	50.272	219.851	0.525	-82.319	-124.413	-21.865	31.688	-124.621	-119.724	-6.302	23.931	-120.289	-116.267	-115.331	-110.516	23.121	-111.346	-8191	255	
631.728	1	1	0	0	0.21806	0.20214	0.081044	0.16024	0.34831	0.13299	0.10453	0.16444	0.21665	0.1355	0.20727	0.070889	0.06292	0.19764	0.16689	0.13766	-0.72292	-0.38333	-0.61458	-1.2687	-0.36042	-0.82083	-0.85208	-0.21667	-1.1604	-0.42083	-0.74583	-1.1354	-0.24375	-0.99167	-0.58958	-0.2625	-64.890	17.840	2.861	156.627	88.510	-7.910	96.216	154.031	-2.295	-56.080	207.004	-99.304	172.519	157.425	175.498	106.080	0.00023695	0.00037894	0.00024065	1320.2	2.986e-06	4.5063e-06	1313	354.93	2.4095e-06	3.7778e-06	403.54	133.13	115.85	39.648	4.4793e-06	49.163	0.0005128	0.00052431	0.00014644	1330.4	5.8257e-06	5.7355e-06	1329.4	362.25	5.7694e-06	5.8257e-06	410.09	136.65	119.12	40.586	5.786e-06	50.205	-136.732	-34.869	-16.442	-124.889	18.876	18.436	-124.779	-119.923	-109.807	-43.513	-120.373	-116.520	-115.809	-111.159	9.608	-111.572	-8191	255	
631.824	1	1	0	0	0.17799	0.14343	0.077281	0.18577	0.18842	0.23208	0.11443	0.22347	0.10858	0.24185	0.25329	0.17467	0.12751	0.059835	0.083567	0.20348	-0.67292	-0.36042	-0.66875	-1.2333	-0.45208	-0.9375	-1.1229	-0.40417	-0.99583	-0.44792	-0.46875	-1.0667	-0.43125	-0.98125	-0.97083	-0.43542	114.135	143.957	52.989	-135.509	159.314	2.170	165.678	187.554	-85.915	190.357	190.332	176.867	208.276	-127.389	107.504	148.535	0.00025151	0.00044375	0.00016037	1318.3	3.5738e-06	4.5417e-06	1311.4	356.19	3.9137e-06	2.6251e-06	406.6	133.27	115.63	39.649	6.1118e-06	49.167	0.00051087	0.00052807	0.00014641	1331.6	5.7993e-06	5.742e-06	1328.3	361.73	5.7598e-06	5.7584e-06	410.19	136.64	119.2	40.631	5.7384e-06	50.218	-126.128	17.278	-54.796	-124.492	-12.815	-35.792	-124.965	-120.176	13.530	5.426	-120.691	-116.789	-116.245	-111.135	3.957	-112.106	-8191	255	
631.920	1	1	0	0	0.10235	0.11749	0.15482	0.35229	0.31141	0.18157	0.24262	0.28178	0.16945	0.16705	0.041944	0.098436	0.24834	0.27975	0.13974	0.074319	-0.52917	-0.59375	-0.43542	-1.2604	-0.3125	-0.64583	-1.0958	-0.4125	-1.1042	-0.71458	-0.56667	-1.1375	-0.35625	-0.76458	-0.89167	-0.42083	-28.483	2.300	53.880	143.221	-8.785	148.264	117.906	120.321	31.163	136.423	-117.361	155.455	-121.527	138.595	-122.228	33.198	0.00031778	0.00057665	0.00011008	1318.2	1.0655e-06	7.552e-06	1311.3	356.4	3.8301e-06	7.5317e-06	404.3	132.49	115.45	39.624	3.3605e-06	48.742	0.00050971	0.00052619	0.00014419	1331	5.7048e-06	5.7152e-06	1329.1	361.78	5.7329e-06	5.7332e-06	409.44	136.23	118.86	40.548	5.7499e-06	50.112	-136.183	-81.589	-52.004	-124.969	-28.317	-31.184	-125.179	-120.512	4.567	-17.782	-121.021	-116.874	-116.124	-111.283	-26.514	-111.983	-8191	255	
632.016	1	1	0	0	0.34475	0.18648	0.15766	0.40363	0.13884	0.20537	0.30589	0.053927	0.19895	0.13478	0.097031	0.054644	0.1642	0.11148	0.46393	0.12054	-0.58125	-0.46667	-0.22708	-1.3271	-0.34583	-0.49167	-1.2687	-0.34583	-0.82292	-0.75417	-0.20625	-1.2604	-0.59583	-0.72917	-1.1104	-0.33333	-116.472	-18.422	-53.474	154.207	166.933	-76.893	146.390	70.440	-6.958	211.211	147.247	165.714	-63.676	170.782	153.264	219.740	0.00026982	0.00048559	0.00010183	1320.1	5.9879e-06	6.4687e-06	1306.6	355.51	1.4274e-06	5.6657e-06	404.23	132.89	115.48	39.739	4.3681e-06	49.04	0.00050848	0.0005273	0.00014627	1331.9	5.7736e-06	5.7349e-06	1328.7	361.48	5.7458e-06	5.7594e-06	409.42	136.52	119.11	40.623	5.8136e-06	50.185	-137.133	-49.060	5.972	-124.755	-20.916	13.789	-124.865	-120.393	-69.348	-17.151	-120.757	-116.075	-115.696	-110.855	-41.736	-111.546	-8191	255	
632.137	1	1	0	0	0.067674	0.13212	0.11681	0.0073205	0.16361	0.28499	0.16675	0.13211	0.13337	0.33259	0.38592	0.10014	0.054736	0.11239	0.10448	0.27327	-0.25625	-0.67292	-0.14792	-1.0604	-0.5	-0.5375	-1.2938	-0.46042	-0.79583	-0.76458	-0.28333	-1.0396	-0.74375	-0.60417	-0.99792	-0.4375	177.175	-50.607	43.737	-109.732	-99.155	-12.124	173.107	129.646	-104.479	129.620	72.664	-89.140	-130.981	-137.000	11.154	134.816	0.00033711	0.00057598	0.0002733	1320.1	2.8471e-06	5.3138e-06	1310.9	356.52	4.9353e-06	3.8256e-06	403.92	132.29	115.99	39.699	3.5496e-06	49.025	0.00052002	0.00052958	0.00014794	1333.8	5.8148e-06	5.8448e-06	1329.6	362.16	5.8406e-06	5.8004e-06	409.31	136.4	119.26	40.579	5.7874e-06	50.247	-137.633	0.998	-28.484	-124.721	-13.171	-15.797	-124.914	-120.432	-25.146	-28.625	-120.897	-116.720	-116.112	-111.129	-36.430	-111.976	-8191	255	
632.233	1	1	0	0	0.12497	0.17171	0.12284	0.22324	0.13243	0.13685	0.19233	0.075834	0.13078	0.22715	0.27351	0.11091	0.17741	0.23669	0.26745	0.32982	-0.26667	-0.92917	-0.15	-1.0083	-0.76458	-0.29583	-1.2229	-0.61875	-0.575	-0.98958	-0.37083	-1.0125	-0.7875	-0.34375	-0.95417	-0.50833	75.092	-73.928	190.476	-111.819	106.113	-24.070	175.348	187.978	-136.287	-17.820	156.691	-45.176	210.385	205.540	159.021	196.663	0.00030534	0.00047226	0.00018509	1325.8	3.4469e-06	7.1185e-06	1313.8	356.46	2.4249e-06	6.5434e-06	404.81	132.7	115.94	39.719	4.7469e-06	49.013	0.00051362	0.00052799	0.00014796	1332.3	5.7694e-06	5.7408e-06	1329.7	361.79	5.7031e-06	5.7256e-06	410.01	136.36	119.11	40.579	5.754e-06	50.129	-129.987	-71.876	-68.662	-124.693	214.329	0.658	-124.704	-120.181	-45.929	-15.778	-120.493	-116.226	-116.091	-110.969	2.946	-111.716	-8191	255	
632.328	1	1	0	0	0.39241	0.21349	0.20949	0.20845	0.085337	0.18526	0.15881	0.25304	0.12291	0.18752	0.23082	0.2886	0.2779	0.23234	0.054366	0.33746	-0.36667	-1.0542	-0.23542	-1.0792	-0.8875	-0.18333	-1.2354	-0.72917	-0.30833	-1.2812	-0.25625	-0.93958	-1.0292	-0.34583	-0.87292	-0.67292	57.354	141.033	145.098	168.460	67.011	-71.439	193.899	158.134	78.437	-95.442	204.381	142.312	190.015	-44.221	99.285	168.059	0.00034097	0.00014735	0.00029792	1322.2	2.6741e-06	3.7898e-06	1310.8	356.62	3.2158e-06	1.999e-06	403.37	133.3	116.31	39.824	4.1033e-06	49.315	0.00051319	0.00051925	0.00014603	1332.6	5.7704e-06	5.7521e-06	1327.9	361.58	5.7007e-06	5.677e-06	409.26	136.47	119.2	40.609	5.7558e-06	50.233	218.136	-29.133	-44.754	-124.432	2.061	-37.929	-124.836	-120.150	26.531	-73.240	-120.473	-116.450	-115.725	-110.933	20.623	-111.336	-8191	255	
632.424	1	1	0	0	0.16833	0.15573	0.47342	0.37522	0.090918	0.10014	0.14757	0.055578	0.09961	0.32966	0.20585	0.045254	0.28574	0.14658	0.23557	0.2726	-0.047917	-1	-0.33125	-0.97917	-0.99375	-0.11042	-1.0667	-0.56667	-0.43125	-1.0708	-0.38125	-0.7375	-0.80833	-0.25417	-0.89792	-0.925	74.149	-57.646	190.403	187.782	-123.421	168.277	190.311	41.855	49.599	-24.422	201.966	162.243	59.384	102.702	-50.134	113.813	0.00029077	0.00067738	0.00013059	1325.8	7.9675e-07	6.1887e-06	1311.8	357.08	4.8714e-06	9.8159e-06	404.14	132.75	115.84	39.679	3.5593e-06	49.286	0.00051299	0.00052328	0.00014558	1332	5.728e-06	5.7068e-06	1329.7	361.85	5.7024e-06	5.7366e-06	408.66	136.56	119.14	40.584	5.7557e-06	50.22	-131.117	-95.342	-56.189	-124.528	64.444	-39.051	-124.696	-119.881	44.786	34.960	-120.755	-116.689	-115.993	-110.957	1.957	-111.652	-8191	255	
632.520	1	1	0	0	0.16508	0.17524	0.08692	0.20822	0.27535	0.20784	0.016923	0.052369	0.21225	0.18783	0.13201	0.31597	0.11439	0.33441	0.097588	0.064269	0.22917	-1.0104	-0.36042	-0.81042	-1.1229	-0.33125	-1.0938	-0.90208	-0.23333	-1.0333	-0.43958	-0.63125	-1.1479	-0.39375	-0.9	-0.99167	-56.825	-88.620	206.554	146.708	-15.498	12.661	90.136	145.393	28.289	-16.779	-52.424	1.335	52.572	177.699	-109.955	192.572	0.00032227	0.00027857	3.7726e-05	1323.4	4.1518e-06	1.09e-05	1311.2	356.92	2.0042e-06	9.2406e-06	402.09	133.13	116.18	39.636	1.8623e-06	48.74	0.00050496	0.00051323	0.00014459	1330.5	5.619e-06	5.6887e-06	1328.7	361.52	5.689e-06	5.689e-06	409.24	136.48	118.95	40.499	5.7152e-06	50.163	220.652	-50.658	24.949	-124.500	20.369	6.420	-124.754	-120.192	-19.239	37.815	-120.711	-116.540	-115.872	-111.129	-45.848	-111.572	-8191	255	
#DATA ENDS
