BOXY.EXE: ISS Imagent and Oximeter Data Acquisition Program Version 0.80
Ascii Record File

#ACQ INFORMATION
2  Detector Channels 
16  External MUX Channels 
1  Auxiliary Channels 
5000  Waveform (CCF) Frequency (Hz)
1  Waveforms Skipped 
30  Waveforms Averaged 
1  Cycles Averaged 
16  Acquisitions per Waveform 
10.0806  Updata Rate (Hz) 

#FILE INFORMATION
TRUE -- External MUX Channel results are PARSED.
FALSE -- AC DC and Phase are NOT grouped.
TRUE -- Companion Program Settings File CREATED.
FALSE -- AC data not excluded
FALSE -- DC data not excluded
FALSE -- Phase data not excluded
FALSE -- Auxillary Chn. data not excluded
Tab delimiters

#CALIBRATION STATE
TRUE -- Waveform Calibration Values APPLIED.


#AUX CALIBRATION VALUES
Val Type	aux-1	

Term	1.0000e+00	
Factor	0.0000e+00	


#WF CALIBRATION VALUES
A = Detector Channel
Val Type	A-AC1	A-AC2	A-AC3	A-AC4	A-AC5	A-AC6	A-AC7	A-AC8	A-AC9	A-AC10	A-AC11	A-AC12	A-AC13	A-AC14	A-AC15	A-AC16	A-DC1	A-DC2	A-DC3	A-DC4	A-DC5	A-DC6	A-DC7	A-DC8	A-DC9	A-DC10	A-DC11	A-DC12	A-DC13	A-DC14	A-DC15	A-DC16	A-Ph1	A-Ph2	A-Ph3	A-Ph4	A-Ph5	A-Ph6	A-Ph7	A-Ph8	A-Ph9	A-Ph10	A-Ph11	A-Ph12	A-Ph13	A-Ph14	A-Ph15	A-Ph16	

Term	0.00000e+00	0.00000e+00	0.00000e+00	0.00000e+00	0.00000e+00	0.00000e+00	0.00000e+00	0.00000e+00	0.00000e+00	0.00000e+00	0.00000e+00	0.00000e+00	0.00000e+00	0.00000e+00	0.00000e+00	0.00000e+00	0.00000e+00	0.00000e+00	0.00000e+00	0.00000e+00	0.00000e+00	0.00000e+00	0.00000e+00	0.00000e+00	0.00000e+00	0.00000e+00	0.00000e+00	0.00000e+00	0.00000e+00	0.00000e+00	0.00000e+00	0.00000e+00	0.00000e+00	0.00000e+00	0.00000e+00	0.00000e+00	0.00000e+00	0.00000e+00	0.00000e+00	0.00000e+00	0.00000e+00	0.00000e+00	0.00000e+00	0.00000e+00	0.00000e+00	0.00000e+00	0.00000e+00	0.00000e+00	
Factor	1.00000e+00	1.00000e+00	1.00000e+00	1.00000e+00	1.00000e+00	1.00000e+00	1.00000e+00	1.00000e+00	1.00000e+00	1.00000e+00	1.00000e+00	1.00000e+00	1.00000e+00	1.00000e+00	1.00000e+00	1.00000e+00	1.00000e+00	1.00000e+00	1.00000e+00	1.00000e+00	1.00000e+00	1.00000e+00	1.00000e+00	1.00000e+00	1.00000e+00	1.00000e+00	1.00000e+00	1.00000e+00	1.00000e+00	1.00000e+00	1.00000e+00	1.00000e+00	X	X	X	X	X	X	X	X	X	X	X	X	X	X	X	X	

B = Detector Channel
Val Type	B-AC1	B-AC2	B-AC3	B-AC4	B-AC5	B-AC6	B-AC7	B-AC8	B-AC9	B-AC10	B-AC11	B-AC12	B-AC13	B-AC14	B-AC15	B-AC16	B-DC1	B-DC2	B-DC3	B-DC4	B-DC5	B-DC6	B-DC7	B-DC8	B-DC9	B-DC10	B-DC11	B-DC12	B-DC13	B-DC14	B-DC15	B-DC16	B-Ph1	B-Ph2	B-Ph3	B-Ph4	B-Ph5	B-Ph6	B-Ph7	B-Ph8	B-Ph9	B-Ph10	B-Ph11	B-Ph12	B-Ph13	B-Ph14	B-Ph15	B-Ph16	

Term	0.00000e+00	0.00000e+00	0.00000e+00	0.00000e+00	0.00000e+00	0.00000e+00	0.00000e+00	0.00000e+00	0.00000e+00	0.00000e+00	0.00000e+00	0.00000e+00	0.00000e+00	0.00000e+00	0.00000e+00	0.00000e+00	0.00000e+00	0.00000e+00	0.00000e+00	0.00000e+00	0.00000e+00	0.00000e+00	0.00000e+00	0.00000e+00	0.00000e+00	0.00000e+00	0.00000e+00	0.00000e+00	0.00000e+00	0.00000e+00	0.00000e+00	0.00000e+00	-1.06138e+02	-1.29047e+02	-1.21568e+02	-1.83476e+02	-5.52129e+01	-7.56509e+01	-1.59880e+02	-1.62015e+02	-5.74747e+01	-6.97283e+01	-1.75117e+02	-1.71928e+02	-1.83346e+02	-1.76281e+02	-5.73029e+01	-1.49823e+02	
Factor	1.52751e-05	1.27225e-04	4.13959e-05	1.84327e-01	1.04722e-06	1.71902e-06	1.70247e-01	4.74238e-02	9.30981e-07	1.49024e-06	9.31797e-02	3.12405e-02	3.94049e-02	8.22718e-03	1.10834e-06	1.22183e-02	1.99470e-06	2.18733e-06	6.09788e-07	9.24792e-02	2.38180e-08	2.40278e-08	8.06688e-02	2.40565e-02	2.37376e-08	2.40181e-08	4.51395e-02	1.53027e-02	1.98509e-02	4.17740e-03	2.39144e-08	5.96623e-03	X	X	X	X	X	X	X	X	X	X	X	X	X	X	X	X	



#DISTANCE SETTINGS
A = Detector Channel
A-1	A-2	A-3	A-4	A-5	A-6	A-7	A-8	A-9	A-10	A-11	A-12	A-13	A-14	A-15	A-16	

2.5000e+00	3.0000e+00	2.5000e+00	3.0000e+00	2.0000e+00	3.0000e+00	1.5000e+00	3.0000e+00	3.0000e+00	3.0000e+00	3.0000e+00	3.0000e+00	3.0000e+00	3.0000e+00	1.5000e+00	3.0000e+00	

B = Detector Channel
B-1	B-2	B-3	B-4	B-5	B-6	B-7	B-8	B-9	B-10	B-11	B-12	B-13	B-14	B-15	B-16	

1.0000e+01	1.0000e+01	1.0000e+01	1.4400e+00	1.0000e+01	1.0000e+01	1.5100e+00	1.9400e+00	1.0000e+01	1.0000e+01	1.9900e+00	2.4900e+00	2.4100e+00	2.9000e+00	1.0000e+01	2.9800e+00	




#DATA BEGINS
time	group	step	mark	flag	A-AC1	A-AC2	A-AC3	A-AC4	A-AC5	A-AC6	A-AC7	A-AC8	A-AC9	A-AC10	A-AC11	A-AC12	A-AC13	A-AC14	A-AC15	A-AC16	A-DC1	A-DC2	A-DC3	A-DC4	A-DC5	A-DC6	A-DC7	A-DC8	A-DC9	A-DC10	A-DC11	A-DC12	A-DC13	A-DC14	A-DC15	A-DC16	A-Ph1	A-Ph2	A-Ph3	A-Ph4	A-Ph5	A-Ph6	A-Ph7	A-Ph8	A-Ph9	A-Ph10	A-Ph11	A-Ph12	A-Ph13	A-Ph14	A-Ph15	A-Ph16	B-AC1	B-AC2	B-AC3	B-AC4	B-AC5	B-AC6	B-AC7	B-AC8	B-AC9	B-AC10	B-AC11	B-AC12	B-AC13	B-AC14	B-AC15	B-AC16	B-DC1	B-DC2	B-DC3	B-DC4	B-DC5	B-DC6	B-DC7	B-DC8	B-DC9	B-DC10	B-DC11	B-DC12	B-DC13	B-DC14	B-DC15	B-DC16	B-Ph1	B-Ph2	B-Ph3	B-Ph4	B-Ph5	B-Ph6	B-Ph7	B-Ph8	B-Ph9	B-Ph10	B-Ph11	B-Ph12	B-Ph13	B-Ph14	B-Ph15	B-Ph16	aux-1	digaux	

642.147	1	1	0	256	0.21396	0.32104	0.097756	0.34695	0.11196	0.19827	0.29982	0.29772	0.28864	0.14283	0.16146	0.39936	0.063473	0.14924	0.22458	0.17128	-0.65833	-0.60833	-0.25	-1.4125	-0.42292	-0.80417	-1.1187	-0.23333	-0.86042	-0.71667	-0.56458	-1.2771	-0.55208	-0.50208	-1.1938	-0.19167	140.936	49.055	180.274	169.245	205.708	93.530	120.194	-18.425	2.915	-47.596	211.399	-73.559	-60.348	180.550	-62.129	36.742	0.00013721	0.00037075	0.00011722	1017.4	1.9506e-06	6.7878e-06	1104.7	213.12	3.1388e-06	5.2885e-06	267.76	75.8	59.713	17.566	2.5152e-06	24.735	0.00019824	0.00020735	5.7641e-05	989.37	2.2612e-06	2.2663e-06	1077.8	209.4	2.353e-06	2.3984e-06	264.38	75.674	59.572	17.717	2.4279e-06	24.727	-129.566	-2.421	-11.583	-123.483	-9.925	22.541	-123.371	-115.993	-51.241	32.821	-116.370	-109.875	-109.396	-101.645	74.742	-102.783	-8191	255	
642.243	1	1	0	0	0.27373	0.078484	0.17654	0.006601	0.13269	0.038462	0.31491	0.26072	0.20201	0.26454	0.033449	0.18658	0.49867	0.29714	0.28586	0.16005	-0.59375	-0.81042	-0.26458	-1.1583	-0.46875	-0.71458	-1.4229	-0.36667	-0.95833	-0.93542	-0.26667	-1.3	-0.59583	-0.3875	-1.225	-0.3625	-39.866	179.425	125.306	217.535	150.363	77.819	-57.771	141.774	79.057	60.967	8.261	-18.443	150.186	-132.586	106.991	192.794	0.00014514	0.00038507	6.2744e-05	1025.2	1.3325e-06	5.1829e-06	1111.5	212.65	2.1948e-06	1.5986e-06	270.84	75.935	59.539	17.819	4.5961e-06	24.577	0.00021432	0.00022123	6.2421e-05	996.45	2.4686e-06	2.4587e-06	1084.8	209.97	2.4415e-06	2.4631e-06	265.36	75.841	59.64	17.83	2.3854e-06	24.68	225.615	-41.476	-41.890	-123.555	51.327	17.167	-123.496	-116.064	6.608	-15.701	-115.851	-109.877	-109.453	-101.940	-10.057	-102.039	-8191	255	
642.340	1	1	0	0	0.28179	0.18754	0.37479	0.1761	0.073419	0.12708	0.27243	0.26109	0.1732	0.13792	0.15495	0.079217	0.28071	0.17807	0.078661	0.40406	-0.275	-0.9125	-0.325	-1.0958	-0.68333	-0.30417	-1.2729	-0.34167	-0.94583	-1.0542	-0.48125	-1.0104	-0.79583	-0.47083	-1.0063	-0.40208	177.503	-84.151	178.749	201.512	-80.767	173.474	188.428	106.872	-53.315	-89.263	133.740	-32.462	189.846	125.256	194.953	-116.196	0.00012812	0.00012258	8.7839e-05	1024.8	2.1554e-06	4.5727e-06	1108	212.94	1.0362e-06	6.0377e-06	270.29	76.005	59.735	17.695	9.6596e-07	24.548	0.00021711	0.00022298	6.168e-05	997.42	2.439e-06	2.4597e-06	1086.3	210.47	2.3922e-06	2.4513e-06	265.17	75.914	59.609	17.787	2.4035e-06	24.687	218.972	15.519	0.517	-123.246	14.528	55.974	-123.497	-115.816	-90.373	4.964	-116.398	-109.626	-109.120	-101.637	-36.287	-102.481	-8191	255	
642.460	1	1	0	0	0.10715	0.28618	0.092867	0.14588	0.16874	0.013398	0.35428	0.13172	0.098612	0.060556	0.1927	0.054247	0.25614	0.19819	0.14824	0.34686	-0.22708	-0.86875	-0.25208	-1.1833	-0.57917	-0.22292	-1.4229	-0.72708	-0.47917	-0.97083	-0.48333	-0.92708	-0.75	-0.375	-1.0125	-0.49792	116.310	-40.486	43.405	224.128	112.857	91.085	91.267	-77.447	79.502	98.369	-56.591	-88.120	178.605	138.401	-20.763	198.149	0.00010457	0.00013996	0.00013062	1030.9	8.9204e-07	6.5381e-06	1108.5	213.41	1.754e-06	3.7273e-06	269.66	76.159	59.619	17.527	2.6655e-06	24.523	0.00021305	0.00021944	6.2187e-05	999.65	2.4581e-06	2.3789e-06	1086.8	210.41	2.408e-06	2.4032e-06	264.91	76.152	59.725	17.732	2.4218e-06	24.643	221.458	-12.565	-33.578	-123.447	-33.300	71.921	-123.058	-116.230	-27.371	39.910	-116.356	-109.525	-109.351	-102.163	42.510	-102.293	-8191	255	
642.556	1	1	0	0	0.092478	0.28643	0.18872	0.28406	0.22004	0.19981	0.29924	0.15996	0.070435	0.24578	0.18063	0.29759	0.22726	0.21753	0.28045	0.2903	-0.12917	-1.1396	-0.25	-0.83542	-0.95833	-0.23125	-1.2729	-0.61458	-0.39167	-1.2479	-0.32708	-1.0271	-0.71667	-0.35208	-0.92083	-0.63958	30.378	86.963	-7.558	-118.272	-15.300	146.053	106.721	84.143	90.232	-10.097	119.613	-132.526	15.471	72.994	-21.824	58.132	0.00013842	0.00032855	0.000144	1029.1	1.9288e-06	3.1056e-06	1109.4	212.22	2.9973e-06	1.111e-06	270.3	75.305	59.393	17.582	1.4065e-06	24.524	0.00021261	0.00021975	6.1068e-05	1001.1	2.4132e-06	2.3674e-06	1087.9	210.02	2.3721e-06	2.3326e-06	265.5	75.73	59.589	17.774	2.4161e-06	24.673	-124.865	-124.107	-23.881	-123.396	33.659	-26.164	-123.086	-115.858	-23.456	-23.228	-115.997	-109.895	-109.182	-101.966	118.850	-102.367	-8191	255	
642.628	1	1	0	0	0.15741	0.13416	0.059631	0.14645	0.23505	0.15739	0.20952	0.094318	0.45153	0.15657	0.1239	0.19513	0.046617	0.25697	0.20071	0.28088	0.0375	-1.1208	-0.43333	-1.05	-0.8875	-0.24167	-1.3375	-0.77708	-0.30417	-1.2	-0.37708	-0.67083	-1.0646	-0.35	-0.94583	-0.89167	-100.512	218.701	-37.985	225.050	175.645	145.346	177.604	66.264	100.882	-53.797	197.603	-84.023	214.630	-74.450	225.771	121.645	0.00014083	0.00016494	2.5835e-05	1026.8	1.1923e-06	2.7021e-06	1104.3	212.09	2.2699e-06	3.2799e-06	269.14	75.564	59.492	17.593	2.1239e-06	24.528	0.00021365	0.00021577	5.9734e-05	999.51	2.3964e-06	2.4442e-06	1084.5	209.94	2.4776e-06	2.423e-06	264.61	75.801	59.707	17.709	2.3638e-06	24.614	221.054	179.064	-13.027	-123.321	-24.427	45.744	-123.333	-116.128	-3.335	-14.753	-116.420	-110.063	-108.880	-101.920	-2.186	-102.482	-8191	255	
642.749	1	1	0	0	0.027833	0.044409	0.10706	0.25446	0.2355	0.17878	0.06406	0.21514	0.20359	0.076303	0.119	0.30797	0.14605	0.19037	0.058794	0.35039	0.022917	-1.1583	-0.5375	-0.75	-0.96458	-0.25625	-1.2729	-0.93125	-0.3	-1.0708	-0.6	-0.48125	-1.1729	-0.3625	-0.89792	-0.9875	96.715	126.732	-122.281	125.878	86.912	213.037	77.598	161.981	24.567	196.169	221.328	-125.641	137.859	-77.225	-1.009	113.253	0.00013069	0.0001066	0.00012523	1019.2	3.4477e-06	2.61e-06	1100.1	211.48	1.0647e-06	1.0328e-06	266.35	75.489	59.339	17.798	3.7946e-06	24.328	0.00021707	0.0002198	6.0295e-05	997.6	2.3719e-06	2.4043e-06	1083.4	209.58	2.3817e-06	2.3709e-06	264.52	75.898	59.696	17.811	2.3857e-06	24.643	224.208	-123.572	-68.016	-123.336	25.578	-9.755	-123.625	-116.448	168.247	40.416	-116.294	-109.701	-109.463	-101.673	-21.257	-102.173	-8191	255	
642.843	1	1	0	0	0.25149	0.16025	0.033114	0.34911	0.17312	0.12067	0.41736	0.071787	0.17514	0.064349	0.11258	0.30793	0.34749	0.17543	0.083667	0.20148	0.12917	-1.0562	-0.71875	-0.43542	-1.3292	-0.5375	-0.975	-1.0292	-0.10833	-1.1146	-0.675	-0.27917	-1.1562	-0.46458	-0.49792	-1.0812	56.515	-47.609	188.690	211.384	221.177	199.851	185.456	59.012	81.518	14.712	180.130	-83.481	18.632	90.160	-1.051	163.929	0.00013173	0.00027938	7.783e-05	1026.5	2.1093e-06	2.6059e-06	1112.6	212.39	1.7685e-06	3.1145e-06	271.22	76.116	59.258	17.488	3.2012e-06	24.371	0.00021625	0.00021804	6.1082e-05	998.97	2.3762e-06	2.3848e-06	1089.2	209.75	2.4011e-06	2.3969e-06	265.66	75.915	59.818	17.706	2.3679e-06	24.597	221.313	-45.268	1.065	-123.598	69.002	83.286	-123.200	-116.257	-53.738	48.924	-116.103	-109.980	-109.061	-102.074	92.311	-102.433	-8191	255	
642.939	1	1	0	0	0.076885	0.070379	0.27238	0.21036	0.15279	0.073513	0.43669	0.21959	0.070484	0.12643	0.30526	0.1679	0.23664	0.13173	0.14204	0.12172	0	-0.85833	-0.81458	-0.50833	-1.1208	-0.37708	-0.8125	-1.2271	-0.21458	-0.75417	-0.95417	-0.38542	-1.1854	-0.68958	-0.60625	-1.2229	75.622	49.541	-81.187	180.975	206.521	-21.993	170.675	165.413	154.195	-40.480	-56.217	134.460	-119.712	43.675	-21.525	-49.220	0.00012627	0.00028978	5.3109e-05	1023.5	1.8088e-06	3.042e-06	1106	212.25	6.1772e-07	6.7961e-07	268.7	75.965	59.382	17.569	4.0854e-06	24.479	0.00021213	0.00021849	6.1018e-05	999.39	2.3981e-06	2.3706e-06	1087.4	209.57	2.4412e-06	2.4164e-06	265.05	75.866	59.802	17.729	2.4225e-06	24.681	225.161	-13.918	-80.037	-123.416	44.236	-18.098	-123.323	-116.345	160.004	-16.233	-116.136	-110.097	-108.720	-102.053	4.765	-102.232	-8191	255	
643.035	1	1	0	0	0.23893	0.24934	0.30248	0.47078	0.22449	0.1194	0.17139	0.25682	0.12779	0.26672	0.087563	0.058627	0.10807	0.094804	0.089592	0.19155	0.18958	-0.93125	-0.86875	-0.18333	-1.0667	-0.69167	-0.67083	-1.2938	-0.23333	-0.8625	-0.92292	-0.28333	-0.87917	-0.69792	-0.34792	-1.2708	219.383	-17.489	54.558	164.993	-110.469	198.391	-12.313	114.267	-103.714	-99.667	169.599	26.212	134.651	-5.290	32.363	129.850	0.00013255	0.00061094	5.2008e-05	1024.1	1.281e-06	1.2029e-06	1111.1	212.84	6.46e-07	5.8093e-06	269.8	75.666	59.488	17.725	4.1204e-06	24.446	0.00022201	0.00022144	6.2914e-05	999.85	2.4881e-06	2.4947e-06	1088.4	210.33	2.4672e-06	2.4451e-06	265.55	75.803	59.773	17.743	2.5257e-06	24.718	221.989	-18.617	-111.803	-123.509	-15.172	43.778	-123.535	-116.060	-95.238	-10.760	-116.410	-109.700	-109.196	-101.863	25.845	-101.986	-8191	255	
643.131	1	1	0	0	0.087829	0.032678	0.15991	0.272	0.36147	0.055511	0.060471	0.11468	0.11594	0.1483	0.16787	0.058869	0.27894	0.23826	0.17357	0.47913	0.077083	-0.70833	-0.93542	-0.58542	-1.1146	-0.58958	-0.57917	-1.2375	-0.18958	-0.78125	-1.0229	-0.33333	-0.99375	-0.75	-0.27708	-1.3146	67.051	24.099	35.895	209.827	90.114	98.931	90.269	17.634	66.884	25.422	-64.002	-16.952	-61.625	131.484	19.375	221.236	0.00011993	0.00013476	8.7359e-05	1024.4	1.2954e-06	4.7655e-06	1111.3	212.82	1.9002e-06	3.6009e-06	270.22	75.652	59.862	17.546	1.5963e-06	24.392	0.00022614	0.00022835	6.3401e-05	1000.1	2.4942e-06	2.4934e-06	1088.8	210.38	2.5324e-06	2.4883e-06	265.7	75.832	59.963	17.712	2.5077e-06	24.555	223.714	-116.712	-4.568	-123.474	-78.240	72.406	-123.256	-116.008	47.772	83.225	-116.240	-109.638	-108.927	-101.739	-38.289	-102.233	-8191	255	
643.252	1	1	0	0	0.17585	0.18328	0.046328	0.23278	0.43561	0.031313	0.066326	0.23947	0.12043	0.18794	0.27253	0.2046	0.063994	0.068859	0.0862	0.092195	0.075	-0.51042	-0.93125	-0.44583	-0.86458	-0.77917	-0.5	-1.2271	-0.53333	-0.3375	-1.05	-0.44375	-0.90625	-0.8375	-0.11042	-1.4833	-94.142	132.396	98.487	173.147	34.474	106.840	182.665	192.980	-71.146	-45.257	-35.714	145.622	174.547	-105.724	28.121	213.101	0.00012108	0.0006107	0.00015426	1029	1.9104e-06	6.1063e-06	1106.3	214.02	2.8507e-06	1.8725e-06	270.27	75.905	59.833	17.558	1.5495e-06	24.57	0.00022148	0.00022688	6.2394e-05	1000.9	2.4915e-06	2.4785e-06	1086.6	210.79	2.5189e-06	2.4227e-06	265.52	75.991	59.873	17.703	2.4273e-06	24.602	223.434	-103.852	-53.037	-123.264	-13.030	20.080	-123.258	-116.059	-29.828	0.634	-116.061	-109.549	-109.031	-102.106	-12.411	-103.044	-8191	255	
643.324	1	1	0	0	0.26027	0.053184	0.091027	0.42679	0.080245	0.12079	0.25857	0.092261	0.18391	0.23129	0.16052	0.19929	0.39551	0.38202	0.14013	0.26167	0.0041667	-0.39792	-1.0708	-0.5875	-0.76042	-1.0312	-0.31875	-0.88333	-0.48958	-0.47917	-1.3333	-0.40833	-0.69792	-1.0333	-0.26875	-1.0271	-130.442	37.571	153.070	201.044	115.315	-46.703	133.916	136.611	-114.048	-101.559	43.285	88.264	225.453	152.898	178.103	212.718	0.00011989	0.00025988	6.9208e-05	1028.5	1.2301e-06	1.132e-06	1106.7	212.86	3.7183e-06	4.6165e-06	271.24	75.394	59.75	17.53	2.6074e-06	24.635	0.00021839	0.00021837	5.9987e-05	1001.4	2.4484e-06	2.4036e-06	1087	210.47	2.4252e-06	2.4416e-06	266.43	75.891	59.743	17.685	2.4545e-06	24.642	-128.940	-57.495	188.035	-123.814	31.307	52.752	-123.732	-116.404	-10.441	-63.301	-116.244	-109.702	-109.324	-102.463	-1.780	-102.280	-8191	255	
643.420	1	1	0	0	0.11838	0.22091	0.10651	0.14917	0.26464	0.15596	0.17099	0.1449	0.074709	0.091793	0.15401	0.26315	0.21515	0.12486	0.27156	0.021853	-0.12083	-0.26458	-1.1354	-0.34583	-0.69583	-0.975	-0.42083	-0.975	-0.53542	-0.21667	-1.1167	-0.65	-0.59792	-1.1792	-0.26458	-0.71042	74.386	67.260	-62.483	108.042	-56.597	-62.412	-122.552	109.687	7.795	166.843	29.827	198.529	215.477	115.435	-4.469	161.419	8.29e-05	0.00022648	0.00010488	1024	2.7497e-06	2.0717e-06	1105.6	213.25	3.514e-06	1.9568e-06	270.51	75.838	59.664	17.573	4.19e-06	24.505	0.00022092	0.00022688	6.2779e-05	998.8	2.5316e-06	2.5061e-06	1087	211.24	2.5677e-06	2.4749e-06	266.23	76.008	60.122	17.731	2.574e-06	24.618	210.850	-91.797	-10.913	-123.495	-16.575	81.334	-123.551	-116.048	-78.592	42.439	-116.225	-109.967	-109.476	-102.125	11.500	-102.274	-8191	255	
643.541	1	1	0	0	0.27902	0.1351	0.18042	0.22526	0.15775	0.30728	0.15628	0.24651	0.18723	0.046016	0.031971	0.14744	0.13975	0.082977	0.23922	0.24973	-0.42292	-0.29583	-0.7625	-0.6	-0.50625	-1.025	-0.47708	-1.0958	-0.60417	-0.091667	-1.0021	-0.52708	-0.55208	-1.0604	-0.39167	-0.92917	101.636	146.660	-28.127	147.710	-42.015	77.355	225.528	-125.159	137.437	-83.383	221.904	-9.534	-57.928	-31.861	50.342	-76.975	0.0001098	0.00039962	4.6213e-05	1033.5	2.7126e-06	3.6003e-07	1115.9	214.23	1.9575e-06	4.4734e-06	271.63	75.515	59.265	17.651	2.9687e-06	24.631	0.00022681	0.00023548	6.3333e-05	1005.7	2.5275e-06	2.4845e-06	1091.9	211.45	2.5258e-06	2.4737e-06	266.9	76.098	59.977	17.749	2.4648e-06	24.649	218.570	-55.518	-70.165	-123.614	4.318	-62.222	-123.463	-115.932	-71.389	4.821	-115.935	-110.030	-109.390	-102.275	39.096	-102.166	-8191	255	
643.637	1	1	0	0	0.32775	0.15199	0.31749	0.072348	0.25017	0.29553	0.088936	0.061044	0.35013	0.067961	0.29326	0.055551	0.24091	0.2028	0.22625	0.038687	-0.62292	-0.20417	-1.0521	-0.67292	-0.375	-1.1167	-0.49167	-0.67292	-0.94167	0.041667	-1.1042	-0.71875	-0.22292	-1.1	-0.32292	-0.62708	60.329	153.555	-13.756	222.897	-65.183	-54.492	118.576	-124.617	165.244	68.056	45.860	221.910	-131.193	-89.328	-55.749	69.161	0.00012053	0.00031228	8.6568e-05	1033.8	2.5101e-06	5.2877e-06	1113.8	213.7	5.3458e-06	1.8146e-07	270.8	76.323	60.046	17.649	1.0084e-06	24.482	0.00021969	0.00022797	6.2614e-05	1005.3	2.5412e-06	2.5541e-06	1093.1	211.41	2.4991e-06	2.4957e-06	266.76	76.386	60.111	17.723	2.518e-06	24.656	221.223	-63.225	-22.120	-123.625	71.693	-19.559	-123.295	-116.214	-38.066	93.808	-116.222	-110.307	-108.914	-101.935	85.739	-102.499	-8191	255	
643.733	1	1	0	0	0.15613	0.10231	0.17171	0.20838	0.25505	0.24951	0.28975	0.077389	0.25644	0.10146	0.10305	0.40452	0.046091	0.14983	0.11183	0.30597	-0.67292	-0.15833	-0.88542	-0.92292	-0.25417	-1	-0.74167	-0.59375	-0.92708	-0.16875	-0.95208	-0.81042	-0.27292	-0.99583	-0.50625	-0.59167	-103.751	127.792	-33.324	130.383	170.658	-41.757	199.560	122.899	120.607	-19.122	-6.752	-124.579	-4.595	142.179	173.671	134.452	9.6818e-05	0.0004357	0.00012357	1030.6	2.227e-06	5.6186e-06	1114.9	213.55	2.7576e-06	4.2992e-06	271.65	76.212	60.019	17.543	2.0829e-06	24.523	0.00021758	0.00022622	6.3583e-05	1006.9	2.5234e-06	2.513e-06	1094	211.58	2.522e-06	2.528e-06	267.43	76.249	60.149	17.713	2.5464e-06	24.615	-133.427	-79.481	-24.845	-123.149	-9.358	109.174	-123.547	-115.825	-61.034	-127.141	-115.857	-109.713	-109.027	-101.816	53.440	-102.178	-8191	255	
643.829	1	1	0	0	0.086896	0.14875	0.26177	0.17576	0.24604	0.40385	0.21575	0.15284	0.45239	0.24014	0.23456	0.12069	0.23931	0.28141	0.114	0.2649	-0.50417	-0.30208	-0.78542	-0.99792	-0.425	-1.0312	-0.78333	-0.42292	-1.2458	-0.18333	-0.78958	-0.94792	-0.22292	-1.0333	-0.61458	-0.30833	-14.352	-85.553	-74.380	138.222	94.133	-55.622	-59.583	151.874	44.135	28.374	-120.342	177.853	1.742	-109.903	92.886	100.067	0.00012962	9.6291e-05	0.00010363	1038.2	7.2837e-07	6.1905e-06	1117.2	215.27	3.8294e-07	3.1528e-06	272.47	76.048	59.781	17.577	7.3427e-07	24.286	0.00023143	0.0002296	6.4377e-05	1010.1	2.6493e-06	2.5591e-06	1095.5	212.21	2.5559e-06	2.5809e-06	268.08	76.408	60.35	17.787	2.5766e-06	24.658	223.160	-44.212	-45.990	-123.380	84.533	43.188	-123.264	-115.602	65.411	-25.699	-115.910	-110.093	-109.055	-101.911	16.218	-102.410	-8191	255	
643.925	1	1	0	0	0.14107	0.22652	0.084748	0.096246	0.0026622	0.10751	0.21834	0.29496	0.1491	0.011365	0.29604	0.32029	0.2517	0.20172	0.062343	0.16578	-0.65417	-0.32708	-0.65	-1.025	-0.3125	-0.89583	-0.9375	-0.47292	-1.2042	-0.38958	-0.78542	-1.1208	-0.225	-1.0458	-0.75	-0.18958	-40.436	57.639	214.828	30.336	-68.247	-1.572	207.100	204.285	-122.253	-110.911	152.699	85.917	170.854	185.518	-6.720	180.972	0.000121	0.00019925	0.00010176	1040.8	3.2023e-06	3.1496e-06	1122.4	215.13	3.6107e-06	5.3022e-06	272.74	76.596	60.104	17.684	3.1771e-06	24.778	0.00022922	0.00023724	6.6043e-05	1013.1	2.612e-06	2.65e-06	1100	212.83	2.6265e-06	2.6343e-06	269.07	76.5	60.346	17.787	2.6398e-06	24.809	220.660	-44.003	-5.944	-123.422	19.629	25.773	-123.019	-115.875	-0.006	41.196	-116.008	-109.593	-109.499	-101.351	-36.612	-101.873	-8191	255	
644.021	1	1	0	0	0.13595	0.083458	0.14385	0.067093	0.19767	0.20396	0.20022	0.2133	0.30907	0.22606	0.075516	0.1922	0.3542	0.173	0.30561	0.29635	-0.43542	-0.53125	-0.44792	-1.1979	-0.23958	-0.78542	-0.99167	-0.32292	-1.0542	-0.49167	-0.65625	-1.1979	-0.27917	-0.95417	-0.825	-0.22708	19.116	36.993	-16.714	26.618	114.918	223.819	69.064	188.196	162.390	99.233	-8.552	-133.747	46.000	119.436	-104.934	-99.809	0.00012639	0.00022706	8.8935e-05	1040.9	4.4872e-06	3.4161e-06	1124.5	214.79	1.6009e-06	5.6237e-06	270.82	76.267	59.894	17.57	3.2335e-06	24.617	0.00023311	0.00023927	6.8409e-05	1014.9	2.6809e-06	2.7001e-06	1102.5	212.63	2.6657e-06	2.6528e-06	267.83	76.76	60.495	17.803	2.6968e-06	24.83	225.231	-48.253	-45.363	-123.367	-3.991	123.612	-123.265	-115.984	-6.267	22.924	-115.769	-109.797	-109.214	-102.030	-34.092	-102.215	-8191	255	
644.140	1	1	0	0	0.066284	0.13717	0.10896	0.33589	0.1802	0.14168	0.061029	0.17542	0.24379	0.21772	0.088562	0.14153	0.29732	0.14838	0.30505	0.23273	-0.6	-0.49583	-0.3375	-1.2583	-0.38958	-0.81667	-1.0771	-0.3	-0.95417	-0.55208	-0.50833	-1.1583	-0.38125	-0.825	-1.1333	-0.20625	182.142	-113.849	-21.119	193.015	-42.576	-66.173	220.400	160.839	136.773	202.831	-112.002	-103.925	-117.461	-111.509	113.419	157.556	9.6758e-05	0.00030595	8.4821e-05	1045.5	5.0117e-07	2.2237e-06	1122.8	216.14	2.8644e-06	4.092e-06	274.78	76.549	60.688	17.77	1.6852e-06	24.533	0.00023745	0.00024563	6.9376e-05	1017.6	2.7341e-06	2.7086e-06	1104.6	213.53	2.7166e-06	2.7492e-06	269.25	76.681	60.778	17.841	2.7399e-06	24.829	-129.225	-34.513	34.139	-123.450	10.832	14.667	-123.202	-115.913	-30.421	55.351	-116.112	-109.444	-109.162	-101.565	32.407	-102.220	-8191	255	
644.236	1	1	0	0	0.15797	0.15052	0.43742	0.024169	0.051145	0.24034	0.20779	0.17491	0.37907	0.11972	0.10637	0.12147	0.11241	0.36323	0.14184	0.15535	-0.74792	-0.675	-0.34583	-1.2125	-0.5875	-0.74583	-1.2979	-0.39792	-0.77083	-0.88958	-0.37708	-1.075	-0.44792	-0.54583	-0.98542	-0.3375	-44.667	-53.854	12.390	197.563	156.663	110.556	116.476	-90.894	-15.508	-85.566	153.624	-115.816	75.260	200.323	147.741	88.260	0.00012802	0.00047161	9.5271e-05	1045.4	2.478e-06	2.934e-06	1128.9	215.6	2.2854e-06	1.3732e-06	273.88	76.511	60.183	17.736	8.0132e-07	24.541	0.00024206	0.00024941	7.0132e-05	1018.8	2.7375e-06	2.7566e-06	1108	213.4	2.7512e-06	2.7757e-06	269.56	76.884	60.812	17.901	2.7609e-06	24.855	219.484	-39.415	-5.693	-123.405	-14.782	-16.931	-123.474	-115.600	1.014	25.361	-116.269	-109.957	-109.982	-102.007	87.710	-102.213	-8191	255	
644.332	1	1	0	0	0.076583	0.22969	0.091743	0.2989	0.22865	0.30901	0.17145	0.13171	0.02845	0.12336	0.14317	0.13392	0.32187	0.28421	0.24885	0.12858	-0.33542	-0.68125	-0.30625	-1.1187	-0.64583	-0.3625	-1.3375	-0.50833	-0.80625	-0.77083	-0.47708	-1.0771	-0.69167	-0.42083	-1.1354	-0.43333	-58.563	-1.764	200.824	131.516	188.496	25.491	199.709	79.013	-85.320	212.163	-111.433	-44.403	126.555	102.207	-133.380	57.700	0.00011837	0.00016073	0.00019335	1048.5	4.2117e-06	5.9966e-06	1133.6	215.84	1.9556e-06	2.1611e-06	274.46	76.281	60.614	17.721	2.1954e-06	24.557	0.00025167	0.00024903	7.0303e-05	1021.4	2.829e-06	2.8354e-06	1108.7	213.59	2.8357e-06	2.7704e-06	270.06	77.061	60.889	17.904	2.7395e-06	24.857	224.714	-9.931	-10.583	-123.419	5.500	4.247	-123.299	-115.856	-33.329	63.943	-116.120	-109.860	-109.534	-101.881	35.515	-102.253	-8191	255	
644.429	1	1	0	0	0.052284	0.12634	0.073427	0.28535	0.15179	0.067067	0.42048	0.19849	0.35154	0.16022	0.090263	0.072185	0.022189	0.24291	0.044541	0.34022	-0.36458	-0.93125	-0.275	-0.96458	-0.43958	-0.42083	-1.2563	-0.32917	-0.56042	-1.1479	-0.28333	-0.80833	-0.83958	-0.43958	-1.0854	-0.475	17.663	152.162	-83.049	200.814	-18.149	44.395	193.373	197.637	68.431	-26.698	-117.170	-95.564	72.493	66.897	193.578	222.904	0.000117	0.00023105	7.9398e-05	1046.9	1.8056e-06	5.2814e-06	1128.9	216.63	2.5301e-06	3.6798e-06	273.92	76.999	60.456	17.803	3.4901e-06	24.463	0.00024864	0.00025226	7.0671e-05	1022	2.7821e-06	2.831e-06	1108.5	213.91	2.7903e-06	2.7632e-06	269.45	77.25	60.681	17.916	2.7473e-06	24.733	206.344	-46.171	0.600	-123.585	167.833	10.090	-123.156	-116.257	24.679	-6.594	-116.390	-109.538	-109.323	-101.897	4.735	-102.220	-8191	255	
644.549	1	1	0	0	0.19984	0.089257	0.07477	0.051129	0.1951	0.22208	0.16485	0.34173	0.11773	0.056577	0.083083	0.24232	0.064297	0.015597	0.17931	0.19264	-0.091667	-1.0187	-0.18333	-1.1771	-0.73542	-0.28125	-1.0875	-0.61667	-0.36667	-1.0812	-0.42292	-0.93542	-1.025	-0.14167	-1.15	-0.79375	154.762	-60.782	14.958	26.173	-129.718	193.328	124.738	153.399	97.061	59.655	97.248	-75.320	194.293	-36.059	67.549	81.791	0.00014346	0.0002741	9.7247e-05	1058	2.7859e-06	1.4177e-06	1136.7	216.49	1.1938e-06	5.4338e-06	275.57	76.898	59.963	17.651	1.933e-06	24.619	0.00025135	0.00025758	7.171e-05	1025.7	2.8458e-06	2.8264e-06	1109.6	214.22	2.8451e-06	2.7849e-06	270.37	77.082	60.72	17.872	2.8684e-06	24.763	-129.544	-128.942	-55.873	-123.181	51.946	56.640	-122.903	-115.951	-15.580	58.071	-115.782	-109.281	-108.978	-101.814	4.645	-102.861	-8191	255	
644.621	1	1	0	0	0.11938	0.085285	0.29675	0.22035	0.098509	0.044083	0.2001	0.15873	0.088089	0.11419	0.26549	0.24267	0.096971	0.20094	0.093863	0.34328	-0.05625	-1.2771	-0.31875	-1.0187	-1.0104	-0.27083	-1.1583	-0.75	-0.28542	-0.99792	-0.36667	-0.63542	-1.1583	-0.15417	-1.0354	-0.70417	154.468	3.865	24.692	-133.431	-42.522	203.390	173.856	147.044	-121.607	100.172	144.758	183.369	147.804	-82.627	47.020	-24.570	0.00014955	0.00040013	0.00011482	1058.3	2.9774e-06	6.6162e-06	1141.6	217.97	2.3332e-06	3.3626e-06	275.98	77.233	60.494	17.757	2.9067e-06	24.695	0.00025439	0.00025592	7.2215e-05	1027	2.9464e-06	2.8898e-06	1114.8	214.4	2.9534e-06	2.9111e-06	270.77	77.31	60.878	17.925	2.9053e-06	24.808	-129.619	-22.463	-1.710	-123.278	197.584	43.184	-123.145	-116.115	0.036	4.974	-115.986	-109.576	-108.904	-101.928	22.195	-102.150	-8191	255	
644.717	1	1	0	0	0.07861	0.076566	0.022162	0.40886	0.3613	0.13141	0.25869	0.11546	0.081276	0.2191	0.19937	0.036873	0.19444	0.3752	0.16942	0.27461	0.18125	-1.2708	-0.49167	-0.56458	-1.1437	-0.3375	-1.1729	-0.91458	-0.27083	-1.0979	-0.28958	-0.61875	-0.99583	-0.22292	-0.90417	-0.94583	120.192	111.054	214.070	131.263	53.820	16.147	87.876	-84.333	173.772	16.177	138.083	-115.883	40.652	-23.361	117.390	149.106	0.00015656	0.00050729	7.6591e-05	1054.5	2.3703e-06	5.1354e-06	1136.3	217.37	2.9696e-06	1.9275e-06	274.53	76.911	60.941	17.781	2.8885e-06	24.722	0.00025458	0.00025918	7.474e-05	1027.1	2.9487e-06	2.9438e-06	1113.5	214.54	2.8944e-06	2.9302e-06	270.91	77.241	61.104	17.894	2.9358e-06	24.858	-132.822	-68.867	-95.608	-123.011	-52.222	55.901	-123.032	-115.819	-8.067	-115.125	-116.208	-109.701	-109.222	-101.764	33.974	-102.015	-8191	255	
644.813	1	1	0	0	0.19258	0.13039	0.1547	0.25563	0.23412	0.14342	0.33003	0.042382	0.3113	0.17653	0.18402	0.22955	0.31562	0.34089	0.13283	0.24864	0.091667	-1.0667	-0.5375	-0.57292	-1.1125	-0.32292	-1.1125	-0.96667	-0.027083	-1.0271	-0.79583	-0.47083	-1.2083	-0.44583	-0.73125	-1.2021	105.222	-108.227	-52.225	179.382	120.807	-36.312	-129.838	-128.983	56.250	18.669	-67.815	123.093	-10.512	154.716	68.158	-45.588	0.00013765	0.00021055	9.3425e-05	1057	3.4932e-06	7.2437e-06	1138.8	217.52	3.0718e-06	3.8711e-06	272.37	76.884	61.212	17.946	1.4046e-06	24.612	0.00025607	0.00026434	7.1594e-05	1027.1	2.8904e-06	2.8761e-06	1113.4	214.46	2.9227e-06	2.9001e-06	269.68	77.129	61.178	17.942	2.839e-06	24.777	225.375	37.940	-64.577	-123.022	34.286	-5.109	-123.148	-116.004	-23.067	3.225	-115.852	-109.489	-108.631	-101.945	6.900	-101.949	-8191	255	
644.932	1	1	0	0	0.16118	0.097435	0.053072	0.13256	0.17556	0.12403	0.20002	0.14204	0.14092	0.36052	0.10707	0.091688	0.11199	0.18723	0.14607	0.13736	0.085417	-0.74375	-0.51458	-0.35833	-1.0229	-0.53333	-0.80208	-0.94167	-0.25625	-1.1229	-0.61458	-0.33542	-1.1104	-0.56458	-0.62292	-1.0542	112.858	-132.929	-117.645	137.270	121.146	193.178	145.102	183.267	0.170	-34.110	-102.615	184.396	0.102	-45.102	129.280	113.779	0.00014293	0.00037641	0.00012096	1052.6	1.9845e-06	2.2664e-06	1137.9	218.48	1.8283e-06	2.499e-06	275.04	77.091	61.183	17.656	5.5366e-06	24.52	0.0002586	0.00026635	7.3439e-05	1023.9	2.9008e-06	2.8886e-06	1111.7	214.54	2.8823e-06	2.8822e-06	270.41	77.185	61.154	17.857	2.9377e-06	24.744	-120.628	-71.709	21.460	-123.162	7.443	-107.566	-122.969	-115.697	-17.037	-19.445	-116.115	-109.432	-109.135	-101.849	-23.726	-102.269	-8191	255	
645.028	1	1	0	0	0.12084	0.056027	0.2541	0.1778	0.22318	0.02091	0.078623	0.207	0.24688	0.40696	0.42371	0.22522	0.20087	0.20671	0.15639	0.07809	0.15	-1.0688	-0.65625	-0.42083	-1.1146	-0.44375	-0.90208	-1.0771	-0.31667	-0.79375	-0.91458	-0.49375	-0.91667	-0.50417	-0.4875	-1.1708	198.550	-77.188	105.698	215.334	-99.515	-14.043	20.016	98.597	6.380	-7.001	208.039	-130.114	222.979	203.804	75.975	-93.577	8.7581e-05	7.9742e-05	0.0001347	1053.2	4.6104e-06	2.9371e-06	1133.2	218.18	2.5684e-06	4.786e-06	275.75	76.862	61.274	17.705	3.5982e-06	24.615	0.00025892	0.00026465	7.2825e-05	1024.4	2.9158e-06	2.9313e-06	1110.7	214.84	2.9622e-06	2.9141e-06	270.95	77.038	61.057	17.828	2.9661e-06	24.796	222.992	-3.759	19.239	-123.133	-29.630	-57.039	-122.905	-115.724	89.727	8.636	-115.811	-109.364	-108.681	-102.073	-56.715	-102.121	-8191	255	
645.124	1	1	0	0	0.27936	0.11559	0.21073	0.09321	0.26993	0.14679	0.29959	0.28561	0.39804	0.2033	0.12642	0.042378	0.25676	0.22058	0.19471	0.14602	-0.00625	-0.62708	-0.97708	-0.39792	-1.0417	-0.66875	-0.40625	-1.1979	-0.37083	-0.70833	-1.0562	-0.42708	-0.94792	-0.73125	-0.32708	-1.075	-51.720	196.187	6.350	29.383	90.515	79.983	180.991	211.336	-98.739	111.703	165.816	95.326	-119.175	-112.034	158.891	-94.603	0.00011526	0.00022226	3.0666e-05	1054.7	3.7999e-06	3.8685e-06	1137.2	217.54	5.4775e-07	7.9891e-06	276.6	76.245	60.669	17.651	2.1521e-06	24.561	0.00025828	0.00026463	7.2708e-05	1025.1	2.829e-06	2.9144e-06	1111.5	214.44	2.8721e-06	2.852e-06	270.92	76.867	60.979	17.831	2.8136e-06	24.803	-126.066	198.152	60.058	-123.290	51.976	-24.446	-123.072	-115.821	-38.540	-5.592	-115.894	-109.420	-109.318	-102.021	-3.778	-102.109	-8191	255	
645.221	1	1	0	0	0.10175	0.12366	0.20495	0.36623	0.11791	0.096989	0.21438	0.25798	0.066288	0.2422	0.31924	0.18316	0.15183	0.081999	0.09361	0.13725	-0.175	-0.66458	-1.1104	-0.19583	-0.87708	-0.7	-0.59375	-1.1646	-0.34792	-0.68125	-1.2229	-0.42292	-0.89583	-0.78542	-0.42083	-1.1208	73.060	-85.827	222.342	-122.922	-95.388	-133.042	-131.267	-124.008	134.366	-48.669	-38.164	-15.444	-116.608	-37.564	-109.488	193.087	0.00016761	0.00022245	0.00015607	1057.4	2.075e-06	2.2471e-06	1138.7	217.75	2.4111e-06	3.2051e-06	276.56	76.714	60.818	17.655	1.4568e-06	24.632	0.00025324	0.00025858	7.0786e-05	1025.3	2.8186e-06	2.841e-06	1110.9	214.55	2.8528e-06	2.7603e-06	270.63	76.829	60.857	17.789	2.8135e-06	24.72	-125.629	-78.092	-29.483	-123.198	77.149	84.896	-123.041	-115.897	-25.459	6.297	-116.027	-109.207	-108.819	-101.786	-23.632	-102.362	-8191	255	
645.317	1	1	0	0	0.098577	0.24445	0.15091	0.19328	0.33775	0.12617	0.21316	0.14829	0.19828	0.30926	0.13689	0.078263	0.1853	0.40402	0.22595	0.15329	-0.13958	-0.44375	-1.0208	-0.17292	-0.9375	-0.89583	-0.48333	-1.1354	-0.375	-0.525	-1.1125	-0.30208	-1.1354	-1.0333	-0.3125	-1.1562	135.143	-123.117	132.811	155.775	190.906	-30.315	158.077	44.622	97.199	80.617	132.895	199.033	201.514	-133.498	70.502	92.810	0.00013658	0.00023423	0.00028406	1051.6	1.2143e-06	2.303e-06	1139.6	217.35	3.673e-06	4.5574e-06	276.3	76.717	60.131	17.701	3.5892e-06	24.558	0.00024591	0.0002561	7.0657e-05	1023.9	2.7696e-06	2.7647e-06	1111.1	214.14	2.7901e-06	2.766e-06	270.43	76.909	60.67	17.763	2.7727e-06	24.688	-124.999	-77.267	-40.260	-123.005	-17.696	-32.610	-123.159	-115.804	-7.354	42.079	-115.748	-109.317	-109.420	-102.074	56.332	-102.097	-8191	255	
645.413	1	1	0	0	0.11903	0.23331	0.23087	0.16266	0.24389	0.35612	0.25332	0.28372	0.13413	0.094755	0.25338	0.056503	0.21519	0.27881	0.023187	0.047735	-0.30833	-0.40417	-1.2833	-0.40417	-0.61667	-1.1562	-0.61667	-1.1562	-0.67708	-0.40208	-1.2083	-0.56042	-0.47292	-1.2167	-0.43125	-1.0312	205.404	-39.557	182.524	146.314	149.878	-10.989	187.779	151.039	151.306	-65.948	-51.896	-101.298	110.867	210.712	126.603	148.983	0.00015309	0.00034843	0.00011781	1052.8	1.0035e-06	4.3136e-06	1135.5	217.55	2.0061e-06	6.7306e-06	275.84	76.759	60.604	17.72	5.651e-06	24.511	0.00023983	0.00025138	6.9738e-05	1022.9	2.7937e-06	2.6983e-06	1109.5	214.22	2.7549e-06	2.7493e-06	269.82	76.808	60.716	17.788	2.7705e-06	24.638	224.394	-32.566	-53.719	-123.051	-19.148	-8.039	-123.342	-115.798	-92.694	10.295	-115.977	-109.700	-108.897	-101.869	1.305	-102.003	-8191	255	
645.509	1	1	0	0	0.313	0.23009	0.28563	0.10649	0.14451	0.26137	0.23234	0.35793	0.22393	0.22081	0.28151	0.18035	0.11826	0.30601	0.29462	0.19057	-0.45417	-0.35417	-1.225	-0.55833	-0.46875	-1.1708	-0.47708	-1.1042	-0.6875	-0.15	-1.0333	-0.5125	-0.33542	-0.96875	-0.19583	-0.98333	100.012	173.010	11.520	89.944	145.614	36.852	180.005	178.690	104.510	-60.915	168.967	122.633	201.857	93.816	4.976	2.729	0.0001323	0.00026888	4.2853e-05	1050.5	8.8506e-07	4.0773e-06	1136.7	218.38	1.6535e-06	3.0878e-06	275.46	76.769	60.613	17.781	3.5501e-07	24.591	0.00024563	0.00025353	6.8768e-05	1020.4	2.7209e-06	2.7281e-06	1108	214.28	2.7512e-06	2.7437e-06	270.04	76.684	60.713	17.802	2.786e-06	24.692	225.679	-24.612	-74.211	-123.168	119.863	-61.477	-123.175	-115.812	-33.185	77.059	-116.003	-109.681	-108.996	-101.572	89.929	-102.333	-8191	255	
645.630	1	1	0	0	0.33152	0.33068	0.28296	0.013637	0.011914	0.2878	0.13962	0.13451	0.24243	0.18596	0.18164	0.19293	0.057742	0.014565	0.089018	0.10383	-0.63333	-0.11458	-1.0021	-0.67292	-0.25625	-1.0021	-0.37292	-1.0229	-0.89375	-0.2875	-1.0812	-0.8	-0.37917	-1.1	-0.14792	-0.75833	210.652	-16.752	109.463	-97.815	34.922	16.986	84.088	-19.318	12.130	-85.764	138.847	40.524	-120.694	-79.819	107.695	57.405	0.00011305	0.00044597	0.00012398	1050.7	2.2037e-06	5.4169e-06	1140.4	216.94	5.0714e-07	4.4269e-06	275.45	76.532	60.273	17.688	1.9933e-06	24.576	0.0002425	0.00025135	6.882e-05	1019.6	2.7257e-06	2.6735e-06	1108.7	214.26	2.7513e-06	2.7183e-06	270.36	76.703	60.465	17.772	2.7031e-06	24.639	224.794	-31.752	-42.084	-123.325	1.498	-87.547	-123.160	-115.650	-102.848	10.467	-115.988	-109.801	-108.773	-101.976	-75.050	-101.603	-8191	255	
645.726	1	1	0	0	0.18604	0.093171	0.034705	0.042579	0.16089	0.09703	0.17003	0.24176	0.21946	0.10106	0.1703	0.24206	0.11091	0.11688	0.056974	0.070728	-0.72083	-0.225	-0.85	-1.0146	-0.3	-1.1938	-0.61875	-0.56458	-1.0167	-0.35833	-1.1021	-0.88333	-0.225	-1.1646	-0.45833	-0.20417	73.039	-94.959	80.041	126.122	203.095	152.981	48.218	139.885	166.898	85.889	41.282	202.750	25.604	187.322	111.660	122.649	0.00013621	0.00037002	2.2448e-05	1053.6	9.375e-07	1.1066e-06	1135.8	216.87	2.2259e-06	2.3549e-06	274.22	77.082	61.026	17.769	8.1112e-07	24.513	0.00024231	0.00024795	6.7049e-05	1020.7	2.7251e-06	2.6621e-06	1108.2	214.14	2.6273e-06	2.6336e-06	269.43	76.683	60.817	17.813	2.6563e-06	24.615	-133.090	-17.901	-71.573	-123.134	-97.570	-25.249	-123.038	-115.391	-41.307	20.279	-115.615	-109.501	-109.392	-101.430	-84.162	-101.594	-8191	255	
645.822	1	1	0	0	0.077411	0.07961	0.030125	0.31359	0.19817	0.15046	0.38291	0.21128	0.10052	0.12751	0.1358	0.10475	0.14738	0.28248	0.081231	0.16949	-0.68542	-0.36458	-0.94167	-0.99792	-0.25417	-1.1479	-0.74167	-0.71875	-1.0708	-0.33542	-1.0708	-1.0167	-0.24375	-1.075	-0.78125	-0.47917	103.407	60.736	87.803	224.070	-87.365	-87.318	-120.597	149.309	58.903	172.348	121.499	194.593	64.593	69.202	87.334	-128.767	0.00012347	0.00040959	9.4007e-05	1047.7	7.2386e-07	4.2128e-06	1132.5	216.14	3.1713e-06	2.5088e-06	275.45	76.267	60.575	17.655	1.9121e-06	24.467	0.00023546	0.00024384	6.7829e-05	1018.7	2.6872e-06	2.696e-06	1107.9	213.52	2.6873e-06	2.6828e-06	269.66	76.531	60.408	17.735	2.7071e-06	24.669	211.087	-27.417	-22.868	-122.767	146.100	52.814	-122.809	-115.338	15.287	94.536	-115.649	-109.416	-108.986	-101.432	64.519	-101.811	-8191	255	
645.916	1	1	0	0	0.12418	0.18926	0.14544	0.13788	0.16438	0.25924	0.12947	0.43858	0.37115	0.13569	0.12233	0.11972	0.19041	0.50339	0.12399	0.25349	-0.92083	-0.29167	-0.66875	-0.89167	-0.20833	-0.84375	-1.0333	-0.49167	-1.0875	-0.40833	-0.74167	-1.0771	-0.27708	-1.0979	-0.63125	-0.38542	-47.374	20.159	-60.101	136.206	93.055	125.009	169.987	113.559	2.539	-49.296	165.124	-35.995	110.584	175.997	78.767	155.458	0.00012385	0.00054407	2.9543e-05	1052.5	3.5407e-06	3.8241e-06	1130.5	216.43	3.0346e-06	3.5141e-06	273.04	76.136	60.631	17.682	1.9549e-06	24.684	0.00024089	0.00024672	6.7396e-05	1022.8	2.6864e-06	2.6289e-06	1105.7	213.8	2.6091e-06	2.693e-06	269.38	76.605	60.61	17.778	2.6324e-06	24.658	217.411	-80.287	56.069	-122.984	-41.234	-25.639	-122.974	-115.319	-70.306	-116.724	-115.870	-109.379	-109.096	-101.636	24.959	-101.500	-8191	255	
646.012	1	1	0	0	0.29452	0.075499	0.10075	0.15836	0.22778	0.068389	0.21003	0.020143	0.10094	0.19167	0.047605	0.10022	0.10517	0.16555	0.2849	0.11398	-0.68542	-0.32917	-0.69375	-1.1333	-0.22292	-0.88333	-0.95417	-0.35	-1.2083	-0.35833	-0.75833	-1.3479	-0.33542	-0.89167	-0.82292	-0.33958	194.351	87.615	193.828	206.766	9.433	97.263	166.589	-84.773	132.449	189.207	153.074	-71.723	154.558	150.468	133.075	164.191	0.0001015	0.00040804	0.00010066	1052	3.8697e-06	1.4385e-06	1133.1	217.6	2.0894e-06	3.002e-06	274.44	76.37	59.754	17.716	2.1998e-06	24.461	0.00023239	0.00024264	6.7817e-05	1019.3	2.6295e-06	2.5717e-06	1104.1	213.56	2.6026e-06	2.6033e-06	269.07	76.257	60.112	17.755	2.6271e-06	24.601	-126.518	-65.745	-61.616	-123.149	81.446	-27.643	-122.855	-115.119	-60.076	12.642	-115.655	-109.092	-108.848	-101.492	33.211	-101.678	-8191	255	
646.109	1	1	0	0	0.12134	0.070293	0.31224	0.091414	0.20604	0.20174	0.1087	0.30895	0.30404	0.045883	0.16012	0.048411	0.12116	0.26133	0.1612	0.18702	-0.8125	-0.475	-0.32708	-1.3729	-0.4625	-0.65	-1.1313	-0.39375	-1.0583	-0.80208	-0.45417	-1.5646	-0.41875	-0.80833	-1.0229	-0.41875	92.309	-85.157	-2.498	139.410	56.542	-56.545	156.893	-33.314	-2.054	-113.718	206.686	-92.771	-64.225	176.608	19.201	123.720	0.00012506	9.1923e-05	0.00018049	1051.2	3.3948e-06	1.4681e-06	1131.4	216.74	2.0399e-06	9.7154e-07	273.89	76.507	60.693	17.642	3.7693e-07	24.499	0.00022968	0.00023913	6.6407e-05	1017.6	2.6091e-06	2.6519e-06	1103.2	213.06	2.5565e-06	2.6132e-06	268.34	76.339	60.325	17.679	2.5511e-06	24.528	-123.552	-20.038	-32.772	-122.861	-21.050	155.837	-122.703	-115.386	-23.703	-107.734	-115.706	-109.087	-108.674	-101.482	5.223	-101.698	-8191	255	
646.229	1	1	0	0	0.16351	0.3309	0.1577	0.19072	0.12408	0.35214	0.10939	0.17794	0.06945	0.22898	0.17555	0.099543	0.105	0.1166	0.27394	0.082884	-0.61875	-0.67292	-0.13542	-1.4271	-0.52708	-0.66458	-1.3813	-0.31042	-1.0688	-0.77292	-0.475	-1.3167	-0.41042	-0.63333	-1.2792	-0.3875	-93.886	-32.874	151.365	-89.398	110.940	84.116	158.092	134.745	-23.450	62.811	-74.009	147.983	-48.381	97.800	-31.816	99.930	0.00016041	0.00040398	0.00015926	1042.6	4.3385e-06	2.4045e-06	1129.3	215.51	1.5143e-06	3.247e-06	273.92	76.128	60.499	17.575	4.7146e-06	24.41	0.00023092	0.00023182	6.5604e-05	1014.1	2.5881e-06	2.5584e-06	1099.9	212.51	2.5192e-06	2.5331e-06	268.67	76.236	60.106	17.661	2.5327e-06	24.507	-124.149	-16.971	-31.551	-122.823	-68.801	-20.245	-122.494	-115.705	151.899	-35.382	-115.512	-109.169	-108.955	-101.125	89.495	-101.780	-8191	255	
646.325	1	1	0	0	0.063687	0.096287	0.15228	0.15645	0.23914	0.24327	0.36264	0.28894	0.31561	0.2192	0.10348	0.082014	0.20174	0.28703	0.24106	0.0493	-0.50208	-0.91875	-0.24167	-1.3375	-0.43333	-0.45208	-1.4271	-0.34583	-0.58125	-0.86458	-0.41875	-1.0625	-0.50208	-0.49792	-1.1729	-0.39583	127.495	-22.247	69.591	-106.008	161.875	165.022	74.749	180.686	153.682	62.987	-47.373	-59.974	216.326	-52.476	114.056	139.043	0.00010387	0.00037351	0.00010972	1043.7	2.3137e-06	2.7688e-06	1129.2	215.71	2.544e-06	4.9824e-06	272.61	75.884	60.185	17.547	7.9485e-07	24.237	0.00022607	0.00022998	6.3447e-05	1014.9	2.553e-06	2.5414e-06	1100.3	212.66	2.6162e-06	2.5626e-06	267.62	76.228	60.158	17.607	2.542e-06	24.478	216.308	-29.694	-31.903	-122.697	-5.159	43.010	-122.577	-115.208	-98.117	48.855	-115.448	-108.777	-108.782	-101.196	-101.033	-101.659	-8191	255	
646.422	1	1	0	0	0.16315	0.32292	0.37154	0.12377	0.16575	0.19149	0.39337	0.16656	0.22689	0.18228	0.30492	0.075583	0.068184	0.15426	0.078306	0.11126	-0.50417	-1.1063	-0.26042	-1.2396	-0.76458	-0.44792	-1.2875	-0.58125	-0.65833	-0.9875	-0.30417	-0.95625	-0.64792	-0.62083	-1.0583	-0.64167	9.565	-2.573	89.061	142.590	-7.918	10.329	192.855	221.624	74.089	-61.291	-130.698	135.390	-131.018	101.918	47.133	-40.700	0.00015579	0.00020578	6.6786e-05	1050.7	1.5724e-06	3.6089e-06	1126	216.93	1.3943e-06	1.462e-06	274.82	75.878	60.678	17.588	8.656e-07	24.444	0.00022822	0.00023339	6.6629e-05	1015.3	2.6291e-06	2.5863e-06	1101.8	213.05	2.5764e-06	2.5829e-06	269.45	76.181	60.339	17.634	2.5597e-06	24.488	-119.112	-24.752	-41.300	-122.510	3.921	-14.100	-122.694	-115.478	103.812	10.216	-115.901	-108.925	-108.818	-101.481	-46.758	-101.297	-8191	255	
646.493	1	1	0	0	0.041836	0.14937	0.11772	0.089455	0.14755	0.13723	0.10741	0.14908	0.15972	0.34567	0.35401	0.10994	0.090833	0.24245	0.075143	0.23559	-0.22083	-1.2021	-0.15833	-1.2104	-0.70625	-0.39375	-1.4188	-0.65	-0.57292	-1.3188	-0.38958	-1.0667	-1.0292	-0.30417	-1.2125	-0.56875	-8.521	151.402	217.621	52.473	-6.301	201.079	109.885	183.472	4.108	-24.583	180.955	105.746	192.819	73.776	186.142	-52.448	9.7268e-05	0.00028669	2.4814e-05	1046	4.032e-06	1.7288e-06	1128.7	217.36	1.1481e-06	2.8863e-06	273.98	76.574	60.34	17.584	2.3035e-06	24.354	0.00022373	0.00022864	6.4284e-05	1015.3	2.5551e-06	2.5405e-06	1101.7	212.91	2.4954e-06	2.4474e-06	268.29	76.184	60.131	17.592	2.4449e-06	24.485	-126.066	-43.633	169.056	-122.578	49.893	40.135	-122.496	-115.272	-44.695	-5.594	-115.679	-108.676	-108.571	-100.944	-40.727	-101.548	-8191	255	
646.614	1	1	0	0	0.14355	0.28064	0.15007	0.41901	0.20166	0.081213	0.17129	0.31155	0.37782	0.13783	0.33911	0.18682	0.061551	0.28621	0.224	0.021578	-0.16458	-1.1771	-0.25625	-0.95625	-0.91875	-0.34375	-1.3333	-0.62292	-0.43958	-1.1521	-0.48542	-0.87917	-1.0979	-0.33542	-1.1625	-0.99583	3.082	49.393	83.712	185.839	92.951	210.819	160.108	119.899	-27.664	47.415	152.443	-122.878	218.232	168.613	-128.576	1.488	0.0001502	0.00020486	0.00014028	1044.4	3.1709e-06	1.2838e-06	1128.8	216.43	1.3764e-06	5.762e-07	274.32	76.3	59.867	17.64	2.4578e-06	24.365	0.00022132	0.00021991	6.192e-05	1011.9	2.4788e-06	2.5198e-06	1099.7	212.09	2.5128e-06	2.4925e-06	267.97	76.006	59.996	17.58	2.5104e-06	24.433	-129.492	0.563	-73.614	-122.734	48.056	72.809	-122.645	-115.262	-36.018	-132.758	-115.582	-109.226	-108.780	-101.005	24.533	-101.899	-8191	255	
646.710	1	1	0	0	0.22994	0.23917	0.27535	0.16212	0.10051	0.17449	0.27167	0.17657	0.12844	0.31908	0.13881	0.24809	0.60287	0.21054	0.17081	0.29258	-0.20417	-1.0312	-0.52708	-0.88125	-0.85	-0.225	-1.1625	-0.74167	-0.28542	-0.98125	-0.51042	-0.53958	-1.0083	-0.23542	-0.90833	-0.98542	217.851	219.632	82.048	133.764	97.086	172.172	116.700	98.804	-107.938	201.188	76.732	143.058	167.391	204.448	-80.702	199.999	0.00013003	0.00023241	0.00011369	1046.3	3.3693e-06	2.9247e-06	1125.1	217.01	1.5901e-06	2.5529e-06	274.17	76.678	59.832	17.535	4.5439e-06	24.274	0.00022398	0.00022767	6.4145e-05	1014.6	2.5134e-06	2.5353e-06	1099.5	211.94	2.4842e-06	2.5019e-06	267.62	76.24	59.928	17.533	2.4839e-06	24.407	212.968	5.847	4.416	-122.717	2.738	59.135	-122.673	-115.549	4.333	109.137	-115.640	-108.957	-108.701	-101.071	6.893	-102.109	-8191	255	
646.806	1	1	0	0	0.10221	0.22776	0.25723	0.21209	0.26892	0.073384	0.38182	0.31265	0.21497	0.31906	0.26305	0.14057	0.075378	0.25839	0.20159	0.29346	0.0125	-1.2375	-0.72083	-0.79583	-1.1354	-0.13125	-1.0021	-0.8625	-0.26875	-1.0354	-0.8	-0.64375	-1.1542	-0.28333	-0.7375	-0.8875	85.168	28.098	101.269	-128.258	194.968	198.145	211.507	192.544	84.589	177.368	79.616	-89.242	-129.663	12.169	-11.549	126.800	0.0001007	0.00043333	0.00010179	1045	1.8694e-06	5.4929e-06	1127	214.55	1.7469e-06	2.5227e-06	275.06	75.52	59.964	17.625	4.2607e-06	24.211	0.00021958	0.00022258	6.2726e-05	1012.7	2.5424e-06	2.503e-06	1098.8	211.69	2.5177e-06	2.4753e-06	268.34	75.844	59.946	17.62	2.4797e-06	24.411	-110.593	-69.326	13.050	-122.619	-66.993	83.079	-122.442	-115.332	-3.184	0.942	-116.125	-108.952	-108.833	-101.063	63.248	-101.618	-8191	255	
646.902	1	1	0	0	0.15303	0.25515	0.17642	0.22539	0.2349	0.051024	0.25104	0.23036	0.06358	0.061572	0.10717	0.37361	0.11968	0.17392	0.10622	0.098954	0.091667	-1.125	-0.67292	-0.27083	-1.1187	-0.27917	-0.90417	-0.92917	0.0020833	-1.1021	-0.74375	-0.46458	-0.8875	-0.51458	-0.52917	-0.96458	223.661	-113.367	2.411	-60.917	24.599	66.225	91.367	151.464	-103.598	86.824	182.883	225.408	100.311	-130.386	79.086	115.884	0.00011477	0.00030348	0.00014913	1047.9	1.7339e-06	4.4297e-06	1122.2	215.34	1.5922e-06	2.0389e-06	272.61	76.203	60.246	17.565	2.8138e-06	24.524	0.00022413	0.00023101	6.3734e-05	1013.8	2.5368e-06	2.5731e-06	1097.4	212.02	2.5613e-06	2.5807e-06	267.71	76.241	60.158	17.575	2.5469e-06	24.492	224.835	-104.668	-78.635	-122.384	-25.441	5.794	-122.504	-115.286	56.052	59.329	-115.647	-108.945	-108.508	-100.966	51.164	-101.375	-8191	255	
647.021	1	1	0	0	0.18155	0.070743	0.16507	0.28008	0.046923	0.072158	0.098932	0.084181	0.056446	0.19445	0.070338	0.062798	0.21968	0.3189	0.36294	0.16454	0.29167	-0.82083	-0.625	-0.3625	-1	-0.58958	-0.73542	-1.2708	-0.19792	-0.74375	-1.0854	-0.25625	-1.2292	-0.47292	-0.43958	-1.325	-79.468	-123.643	-130.678	168.604	174.738	-24.731	118.190	183.647	82.140	32.819	4.240	69.486	20.106	208.663	-115.153	109.789	0.00013835	0.00013048	0.00012009	1048.9	2.6786e-06	3.3747e-06	1131.5	216.05	2.9318e-06	2.1924e-06	274.81	75.908	60.649	17.629	3.5883e-06	24.27	0.00022655	0.00022843	6.4781e-05	1012.6	2.5935e-06	2.5598e-06	1100.6	212.18	2.5415e-06	2.5036e-06	267.91	76.061	60.24	17.598	2.6118e-06	24.456	222.402	151.244	-57.752	-122.618	17.957	21.348	-122.540	-115.237	-44.751	-39.723	-115.715	-108.955	-108.389	-101.000	52.252	-101.662	-8191	255	
647.093	1	1	0	0	0.07417	0.054833	0.13225	0.086898	0.15692	0.17619	0.23188	0.14647	0.15394	0.14021	0.16589	0.15781	0.1987	0.20408	0.13014	0.19793	-0.014583	-0.79167	-0.77708	-0.225	-0.83958	-0.61667	-0.77292	-1.1604	-0.14583	-0.65625	-1.1417	-0.12708	-0.925	-0.65	-0.19167	-1.2687	199.495	88.759	178.567	-129.978	-30.787	90.560	146.699	-82.952	-38.534	193.863	29.899	137.265	217.232	25.271	-121.152	140.828	0.00013947	0.00050363	2.7229e-05	1041.7	3.0782e-06	4.719e-06	1127.5	215.94	1.5445e-06	4.8437e-06	273.17	76.017	60.059	17.538	2.3842e-06	24.39	0.00023431	0.00023469	6.5435e-05	1011	2.5689e-06	2.5822e-06	1100.6	212.25	2.6192e-06	2.6052e-06	267.91	76.26	60.329	17.587	2.6368e-06	24.491	-122.227	-0.448	80.112	-122.628	-19.326	111.207	-122.737	-115.332	95.091	85.778	-115.704	-108.892	-108.339	-101.507	148.295	-101.841	-8191	255	
647.191	1	1	0	0	0.22341	0.11758	0.33638	0.44947	0.18414	0.044354	0.20428	0.2469	0.085003	0.082712	0.084779	0.12685	0.24236	0.073963	0.049437	0.20524	-0.12708	-0.62083	-1.0729	-0.33958	-1.0854	-0.64167	-0.67708	-1.1958	-0.57292	-0.62292	-1.2229	-0.45208	-0.92917	-0.68958	-0.32917	-1.1667	154.210	58.843	18.928	166.963	188.208	-35.454	172.913	172.044	210.881	56.300	162.669	226.250	-75.406	151.777	96.288	78.992	0.00012265	0.00025978	0.00016015	1048.5	3.0777e-06	2.1718e-07	1121.8	215.62	1.9333e-06	2.215e-06	273.68	76.277	60.269	17.425	1.0914e-06	24.359	0.00023398	0.00023709	6.651e-05	1014.9	2.5832e-06	2.6487e-06	1099.3	212.2	2.6664e-06	2.5878e-06	267.48	76.083	60.127	17.536	2.5713e-06	24.423	-112.417	-116.009	-19.665	-122.542	189.728	-17.771	-122.322	-115.119	30.951	16.104	-115.586	-109.015	-108.284	-101.116	81.212	-101.516	-8191	255	
647.310	1	1	0	0	0.087852	0.21695	0.1572	0.0368	0.079224	0.19021	0.34882	0.16756	0.20297	0.12905	0.15597	0.15181	0.25242	0.10185	0.13982	0.26842	-0.16875	-0.28333	-1.05	-0.51042	-0.96667	-0.73542	-0.5625	-1.1063	-0.46667	-0.42083	-1.0292	-0.29375	-0.84792	-0.71875	-0.15208	-1.15	57.549	-99.673	99.969	-18.651	10.554	204.970	208.857	215.046	32.970	57.352	37.908	131.377	-52.431	-63.132	-40.087	-70.292	0.00011607	0.00021572	9.5451e-05	1037.5	1.939e-06	2.4429e-06	1120	215.05	2.1066e-06	3.5929e-06	273.08	75.968	59.752	17.457	7.0078e-07	24.341	0.00022929	0.00022863	6.479e-05	1010.7	2.6082e-06	2.5315e-06	1097.9	211.92	2.5606e-06	2.5536e-06	267	75.967	60.149	17.549	2.541e-06	24.401	213.442	-65.014	2.339	-122.775	40.111	-39.547	-122.429	-115.216	-38.613	-12.059	-115.864	-109.349	-108.495	-101.228	82.272	-101.479	-8191	255	
647.406	1	1	0	0	0.30548	0.13212	0.29365	0.20762	0.30498	0.28378	0.2445	0.14427	0.13392	0.10395	0.020248	0.10154	0.11624	0.30552	0.055805	0.19739	-0.20208	-0.45208	-1.4167	-0.4875	-0.59583	-1.0042	-0.41458	-1.1208	-0.66042	-0.35625	-1.1958	-0.44375	-0.88958	-0.9625	-0.42083	-0.94375	165.602	187.558	113.896	-74.675	-3.311	22.256	217.826	53.882	22.423	0.611	-22.018	178.169	-41.140	19.643	-3.085	88.525	0.00013389	0.00032126	9.492e-05	1035.7	3.3095e-06	7.8038e-06	1124.3	216.1	1.306e-06	3.1797e-06	273.1	75.753	59.954	17.548	5.6562e-06	24.283	0.00022781	0.00022956	6.3574e-05	1008.7	2.559e-06	2.4898e-06	1097.6	212.08	2.53e-06	2.5481e-06	267.63	75.78	60.017	17.593	2.595e-06	24.419	-132.621	-0.496	-38.074	-122.772	-20.107	51.905	-122.422	-115.177	39.020	-73.758	-115.352	-109.141	-108.537	-101.309	80.053	-101.625	-8191	255	
647.502	1	1	0	0	0.21303	0.31327	0.026067	0.13067	0.1406	0.019413	0.27892	0.13774	0.034013	0.33355	0.15401	0.16211	0.13006	0.057139	0.11901	0.051777	-0.21875	-0.19375	-1.2563	-0.54375	-0.4375	-0.98542	-0.42708	-1.0792	-0.60417	-0.47708	-1.2375	-0.37917	-0.7375	-0.96875	-0.064583	-0.95417	-71.052	203.531	106.116	-124.548	172.994	194.723	183.763	-76.703	38.249	148.890	211.786	-98.715	224.855	90.220	96.891	140.929	0.00011928	0.0002731	3.5241e-05	1041.6	1.0157e-06	3.9352e-06	1127.8	215.51	2.2561e-06	3.5989e-06	273.99	76.047	60.043	17.515	4.5047e-06	24.365	0.00022721	0.00023463	6.469e-05	1012.4	2.5823e-06	2.4844e-06	1098.7	212.22	2.514e-06	2.5124e-06	267.6	76.042	60.159	17.561	2.5427e-06	24.484	222.421	-43.493	-11.657	-122.637	2.965	49.879	-122.315	-115.144	-22.711	48.741	-115.182	-108.666	-108.377	-100.791	19.298	-101.318	-8191	255	
647.623	1	1	0	0	0.31462	0.052723	0.10303	0.13388	0.15374	0.2644	0.16093	0.36355	0.072802	0.25393	0.12352	0.2629	0.20519	0.12101	0.21806	0.13063	-0.47917	-0.12083	-1.0521	-0.59583	-0.42292	-1.0292	-0.45417	-0.9375	-0.73333	-0.375	-1.1021	-0.67917	-0.41875	-1.2583	-0.56667	-0.9	158.622	26.907	21.491	15.408	-43.114	-30.940	133.523	209.670	-79.858	28.871	11.348	90.912	204.768	-19.474	109.617	72.084	0.00015634	0.0002266	3.4279e-05	1043.4	2.7334e-06	3.3533e-06	1122.3	215.93	2.1784e-06	2.9957e-06	272.48	76.01	60.531	17.418	1.2531e-06	24.283	0.00022366	0.00023338	6.3403e-05	1011.8	2.5299e-06	2.4979e-06	1097.4	211.92	2.4643e-06	2.4401e-06	267.53	75.801	60.052	17.531	2.4933e-06	24.374	219.648	-8.846	31.012	-122.588	27.468	45.320	-122.355	-114.758	-2.750	-36.607	-115.433	-108.715	-108.475	-100.960	37.547	-101.465	-8191	255	
647.717	1	1	0	0	0.13818	0.067833	0.13899	0.035351	0.39808	0.28412	0.057928	0.11916	0.16785	0.13402	0.13999	0.097175	0.098137	0.20599	0.10019	0.10122	-0.58125	-0.22917	-1.0292	-0.85	-0.51667	-1.0562	-0.625	-0.69167	-1.0229	-0.28125	-1.0604	-0.60417	-0.4625	-0.98542	-0.42917	-0.5875	-83.755	227.061	-91.353	-77.929	171.052	132.282	177.650	-69.898	217.012	-7.348	88.774	162.662	52.637	-35.407	-129.553	-114.065	0.00010313	0.00023659	0.0001692	1037.3	2.4456e-06	2.0493e-06	1126.2	215.28	2.0198e-06	5.8115e-06	272.01	76.155	59.621	17.404	4.0945e-06	24.369	0.00021613	0.00022292	6.1718e-05	1009.4	2.534e-06	2.4573e-06	1097.2	212.07	2.4262e-06	2.4735e-06	267.03	75.874	59.836	17.53	2.3569e-06	24.369	216.984	1.846	-58.495	-122.492	-41.952	16.063	-122.486	-114.798	-25.403	-14.628	-114.857	-109.174	-108.202	-101.656	54.880	-101.824	-8191	255	
647.790	1	1	0	0	0.20162	0.071852	0.2878	0.25382	0.28075	0.21188	0.096154	0.35039	0.26201	0.29903	0.21299	0.10377	0.14148	0.33764	0.13657	0.36457	-0.64583	-0.33125	-1.0583	-1.0229	-0.30625	-1.1562	-0.725	-0.64375	-1.0896	-0.32708	-0.825	-0.80208	-0.2125	-1.2833	-0.56458	-0.51667	224.036	188.484	-36.656	-98.871	194.613	156.138	-68.071	172.473	-60.519	110.245	-44.718	203.048	4.388	-79.965	-131.706	179.146	0.0001504	0.00023602	0.00017647	1042.1	1.8213e-06	3.146e-06	1118.6	215.23	3.7132e-06	5.8894e-06	272.18	76.093	59.856	17.523	1.1973e-06	24.319	0.00021347	0.00021753	6.01e-05	1009.2	2.4376e-06	2.3848e-06	1095.7	211.4	2.4319e-06	2.4571e-06	267.01	75.902	59.949	17.558	2.52e-06	24.367	-131.434	226.030	-40.513	-122.715	1.918	-57.311	-122.215	-114.835	-2.902	-10.911	-115.704	-108.373	-108.379	-101.425	152.440	-101.376	-8191	255	
647.911	1	1	0	0	0.18256	0.17246	0.24192	0.22799	0.18308	0.18739	0.076555	0.097062	0.11216	0.14561	0.089454	0.30252	0.31779	0.20565	0.095383	0.12634	-0.73958	-0.25625	-0.75833	-1.1812	-0.18333	-1.0438	-0.70417	-0.47708	-1.0812	-0.42083	-0.78333	-0.97708	-0.17292	-0.80625	-0.65208	-0.24375	18.007	224.794	-69.167	-93.459	-69.025	155.698	-35.736	216.020	225.459	212.781	48.211	-71.585	-102.998	222.759	177.234	-109.496	0.00011871	0.00025128	0.00015074	1044.4	1.5879e-06	2.6595e-06	1125.9	214.98	1.6857e-06	2.4156e-06	274.47	75.471	60.067	17.612	2.8669e-06	24.319	0.00022466	0.00022941	6.3103e-05	1012.3	2.505e-06	2.444e-06	1098.5	211.85	2.4198e-06	2.4817e-06	267.72	75.722	59.905	17.551	2.446e-06	24.408	208.689	-54.809	16.413	-122.704	-78.242	-36.692	-122.301	-114.960	2.658	-101.347	-115.307	-109.074	-108.434	-101.180	15.830	-101.418	-8191	255	
648.005	1	1	0	0	0.24693	0.37982	0.059578	0.26017	0.15553	0.28662	0.19214	0.40241	0.10391	0.14911	0.2436	0.040993	0.19765	0.25402	0.18623	0.066957	-0.69583	-0.23333	-0.58542	-1.2188	-0.24583	-0.87292	-0.88542	-0.37917	-1.1562	-0.39583	-0.48958	-1.0729	-0.38542	-0.77708	-0.78333	-0.37292	203.172	152.248	-54.723	169.470	175.551	187.448	-71.140	-75.780	64.704	152.805	183.354	40.744	-77.077	-103.089	39.689	-11.271	0.00012638	0.00048892	0.00015751	1042.2	1.3483e-06	2.2626e-06	1125.6	215.68	2.1574e-06	1.4411e-06	273.27	76.391	60.589	17.612	1.5396e-06	24.389	0.00021854	0.00022368	6.007e-05	1009.7	2.4579e-06	2.3739e-06	1097	211.83	2.436e-06	2.4645e-06	266.84	75.834	59.916	17.542	2.5194e-06	24.421	-128.302	-23.741	12.715	-122.532	48.343	36.244	-122.576	-115.226	-40.418	123.521	-115.003	-109.346	-108.114	-101.063	38.608	-101.114	-8191	255	
648.102	1	1	0	0	0.028564	0.14778	0.078162	0.07172	0.29527	0.20493	0.16208	0.050155	0.19558	0.21503	0.1388	0.35176	0.12238	0.11173	0.20191	0.15842	-0.59167	-0.62292	-0.56875	-1.1688	-0.25625	-0.79583	-1.0938	-0.42708	-1.0562	-0.65417	-0.53542	-1.1792	-0.24375	-0.96042	-0.9875	-0.37292	-126.634	96.047	149.853	125.246	-115.729	30.305	112.879	176.875	-52.510	148.311	40.693	171.678	221.728	3.252	-71.025	219.218	0.00013025	0.00016473	9.1913e-05	1040	3.5892e-06	1.8589e-06	1125.4	214.34	1.9626e-06	1.0672e-07	271.54	75.948	59.855	17.507	2.6919e-06	24.28	0.00022339	0.00022433	6.4023e-05	1008.8	2.5572e-06	2.5221e-06	1097.1	211.46	2.5036e-06	2.4764e-06	267.02	75.964	59.811	17.556	2.5068e-06	24.389	220.204	37.722	186.362	-122.256	35.136	-15.312	-122.355	-115.069	-96.893	129.007	-115.027	-108.755	-108.270	-100.987	0.619	-101.240	-8191	255	
648.198	1	1	0	0	0.039534	0.25491	0.25451	0.26656	0.17108	0.42394	0.03111	0.26534	0.097548	0.14727	0.049992	0.15183	0.10321	0.21322	0.13081	0.24982	-0.6625	-0.60417	-0.38958	-1.1417	-0.25625	-0.62083	-1.1771	-0.3625	-0.96667	-0.82708	-0.45833	-1.2313	-0.42708	-0.58958	-1.1063	-0.3	-72.543	-29.935	33.189	110.523	17.389	-54.151	223.358	171.199	191.084	120.053	44.100	66.449	114.848	110.584	33.704	185.198	0.00013721	0.00023712	0.00017029	1044	1.926e-06	6.1619e-06	1125.3	215.17	4.9916e-06	3.7384e-06	274.89	75.828	60.319	17.457	2.6061e-06	24.359	0.00022188	0.00022461	6.4203e-05	1011	2.5038e-06	2.4872e-06	1098	211.36	2.4504e-06	2.4588e-06	267.41	75.892	59.872	17.488	2.4302e-06	24.438	220.646	-16.591	-52.198	-122.181	17.531	-8.264	-122.493	-114.844	23.539	88.948	-115.128	-108.468	-108.111	-101.052	-10.985	-101.130	-8191	255	
648.318	1	1	0	0	0.23861	0.21303	0.18302	0.25746	0.21048	0.080958	0.16691	0.26503	0.30398	0.11148	0.12974	0.25271	0.057985	0.13025	0.39314	0.24859	-0.53958	-0.71458	-0.3625	-1.3521	-0.43333	-0.5875	-1.2104	-0.36667	-0.8	-0.74792	-0.37083	-0.99375	-0.49792	-0.575	-0.94583	-0.42708	70.999	-94.691	-106.460	70.357	-53.751	74.395	212.236	59.595	121.779	175.589	-83.086	14.657	-53.382	18.656	-71.879	5.086	0.00011588	0.00045053	0.00018308	1040.2	2.3169e-06	6.0105e-06	1117.9	216.35	2.9738e-06	8.5688e-06	273.79	76.404	60.322	17.503	2.6213e-06	24.106	0.00021899	0.00022519	6.2397e-05	1010.6	2.4925e-06	2.4415e-06	1097	211.91	2.4725e-06	2.4351e-06	266.82	76.13	60.165	17.558	2.4397e-06	24.326	216.591	7.708	-11.343	-122.406	4.678	59.317	-122.272	-114.812	-27.690	0.541	-114.916	-108.909	-108.290	-101.342	153.729	-101.604	-8191	255	
648.390	1	1	0	0	0.13353	0.14751	0.017655	0.20707	0.12267	0.38375	0.31523	0.078672	0.20672	0.15242	0.33749	0.092035	0.063637	0.14101	0.40221	0.072624	-0.33333	-0.67708	-0.31667	-1.2729	-0.73125	-0.41042	-1.3563	-0.56667	-0.73958	-1.1604	-0.32708	-1.0396	-0.47708	-0.22917	-1.0354	-0.51875	171.197	-107.218	69.092	189.978	141.087	86.936	134.571	79.783	-73.511	77.067	-111.972	124.600	152.515	-2.151	184.550	43.795	9.0938e-05	5.8501e-05	9.9182e-05	1040.6	1.1591e-06	6.5057e-06	1125.2	215.21	1.4028e-06	9.7401e-07	273.51	75.529	60.184	17.588	3.1845e-06	24.399	0.00021321	0.00021943	6.1446e-05	1010.6	2.4415e-06	2.3941e-06	1097.9	211.17	2.4828e-06	2.4229e-06	267.41	75.861	59.976	17.589	2.4519e-06	24.381	217.097	-52.581	1.924	-122.127	-22.083	5.350	-122.306	-114.754	12.097	143.214	-115.136	-108.687	-107.934	-100.526	-14.558	-101.301	-8191	255	
648.486	1	1	0	0	0.12313	0.16377	0.079584	0.24206	0.20343	0.022624	0.079185	0.24053	0.069954	0.043898	0.1437	0.16476	0.043834	0.017887	0.11431	0.11573	-0.26875	-1.0458	-0.15833	-1.0625	-0.56875	-0.46042	-1.1688	-0.37708	-0.74583	-1.2042	-0.24167	-1.0375	-0.76667	-0.24167	-1.0167	-0.65208	165.821	130.811	222.864	147.227	104.670	-58.620	155.403	-3.539	209.923	-46.042	-67.170	43.424	19.899	93.669	223.692	-101.957	0.00015499	0.00023279	0.00012937	1041.4	3.2987e-06	3.5885e-06	1121.2	215.16	1.0827e-06	1.8406e-06	272.43	76.26	59.289	17.442	2.1607e-06	24.37	0.00021877	0.00021607	6.0587e-05	1010.8	2.3835e-06	2.3726e-06	1097.9	211.57	2.4435e-06	2.3496e-06	267.17	75.933	59.748	17.552	2.4124e-06	24.296	219.127	-66.537	-60.430	-122.283	67.173	-51.586	-122.006	-114.921	100.421	-72.037	-114.905	-108.788	-107.742	-100.743	-35.909	-101.442	-8191	255	
648.582	1	1	0	0	0.23075	0.26775	0.28375	0.17533	0.037453	0.15373	0.45799	0.26667	0.167	0.13865	0.0219	0.13506	0.18049	0.16489	0.17875	0.12256	-0.085417	-1.2	-0.12292	-0.975	-0.74792	-0.3125	-1.1104	-0.78958	-0.46667	-0.99167	-0.35208	-0.85625	-0.79583	-0.36458	-1.1063	-0.725	225.516	-130.581	-65.093	-60.358	-66.527	161.452	172.860	141.734	-128.564	-100.763	78.771	-102.395	169.820	108.418	-94.169	-28.402	0.00011035	0.0001485	9.7021e-05	1044.8	1.698e-06	5.466e-06	1129.7	214.46	4.2341e-06	6.782e-06	271.34	76.015	59.767	17.396	2.9921e-06	24.304	0.00021348	0.00021483	6.1625e-05	1011.2	2.4068e-06	2.3523e-06	1100.2	211.43	2.4058e-06	2.3957e-06	266.58	75.886	59.81	17.498	2.3691e-06	24.365	-126.523	-67.822	-16.770	-122.507	1.673	97.512	-122.239	-115.233	-2.086	15.011	-114.901	-108.928	-108.090	-100.775	39.761	-101.453	-8191	255	
648.703	1	1	0	0	0.29743	0.16943	0.2316	0.19054	0.1085	0.30566	0.22591	0.26976	0.11464	0.07286	0.027135	0.37284	0.18821	0.13957	0.25034	0.25818	-0.0125	-1.1292	-0.30208	-0.80417	-1.1458	-0.24792	-1.1771	-0.98958	-0.38542	-1.1437	-0.55	-0.60833	-1.1583	-0.26458	-1.0521	-1.025	211.971	-97.067	161.627	-77.512	111.142	85.460	171.811	187.950	22.649	53.505	202.909	-52.679	-60.302	26.546	129.508	-29.020	0.00010897	0.00021907	0.00015164	1041.9	1.1425e-06	1.8061e-06	1123.9	214.97	3.3006e-06	4.4421e-06	272.1	76.125	60.016	17.411	9.3824e-07	24.253	0.00021362	0.00021913	6.0703e-05	1011.7	2.3818e-06	2.4086e-06	1097.6	211.26	2.4374e-06	2.4218e-06	266.78	75.958	59.834	17.489	2.3978e-06	24.354	-125.341	39.630	-33.678	-122.020	27.993	-24.691	-122.132	-114.662	28.791	5.865	-115.191	-108.583	-108.414	-100.641	73.366	-101.703	-8191	255	
648.799	1	1	0	0	0.059309	0.23152	0.082893	0.25515	0.28222	0.23887	0.1749	0.41341	0.26801	0.10019	0.21154	0.30696	0.20537	0.13731	0.28445	0.14163	-0.11458	-1.0833	-0.46667	-0.68958	-0.98958	-0.28333	-1.1167	-0.95833	-0.23125	-1.1646	-0.54583	-0.55833	-1.2042	-0.26875	-0.84375	-0.90208	-1.458	-118.617	214.000	-108.665	-55.704	8.751	138.632	76.391	66.229	26.889	-45.011	-129.572	149.356	-100.502	-18.961	194.248	0.00011644	0.00010741	8.1926e-05	1042	1.2004e-06	5.5179e-06	1115.3	212.94	1.9253e-06	2.1554e-06	269.64	75.844	59.292	17.318	1.9804e-06	24.255	0.00021541	0.00021641	6.0452e-05	1008.5	2.2838e-06	2.1957e-06	1091.1	209.56	2.1311e-06	2.0785e-06	264.87	75.366	59.23	17.354	2.1666e-06	24.233	-126.047	-92.699	-12.834	-122.200	-19.390	32.223	-121.946	-114.753	-32.598	69.483	-115.030	-108.647	-107.733	-100.731	134.434	-100.964	-8191	255	
648.893	1	1	0	0	0.26909	0.34482	0.17878	0.33548	0.1229	0.083904	0.09078	0.22726	0.32732	0.20513	0.48742	0.13891	0.26032	0.085459	0.07702	0.077671	-0.11667	-1.1292	-0.39167	-0.51875	-1.2229	-0.34583	-0.97708	-1.1854	-0.26875	-1.0771	-0.69375	-0.60833	-1.0104	-0.38333	-0.52708	-1.1083	-2.415	-107.886	86.355	-63.085	-13.085	-67.112	196.850	214.062	-107.189	66.640	122.466	-131.755	53.163	104.127	-47.273	-31.951	0.00012838	0.00046853	6.7623e-05	1043.4	3.0752e-06	7.1596e-06	1121.7	214.52	2.5767e-06	2.6466e-06	273.43	76.334	60.203	17.571	3.4308e-06	24.219	0.00020995	0.00021347	6.1406e-05	1008.4	2.5538e-06	2.5416e-06	1097	211.37	2.616e-06	2.6009e-06	267.06	76.252	60.237	17.661	2.6047e-06	24.378	-118.766	-42.908	-6.182	-122.178	24.718	36.644	-121.999	-114.872	-53.443	-37.396	-115.041	-108.663	-107.908	-100.897	54.531	-101.901	-8191	255	
648.991	1	1	0	0	0.11794	0.10652	0.2524	0.48116	0.17665	0.12906	0.34252	0.16338	0.31116	0.13826	0.14466	0.030512	0.12045	0.10625	0.31219	0.23671	0.16458	-1.1354	-0.79792	-0.52917	-1.0812	-0.4125	-0.56042	-1.2313	-0.28125	-0.81458	-0.7875	-0.45208	-1.3458	-0.54583	-0.50833	-1.2687	80.613	-22.866	195.846	171.434	144.708	3.183	114.659	-84.028	-76.905	221.493	170.100	23.638	147.693	207.344	157.475	164.978	0.00012824	0.00028443	0.00012573	1045.5	1.6286e-07	2.1977e-06	1123.1	216.12	2.4505e-06	1.972e-06	272.36	76.303	60.17	17.464	2.1319e-06	24.199	0.00022953	0.00023044	6.3624e-05	1013.7	2.4391e-06	2.4727e-06	1097.6	211.37	2.4165e-06	2.3752e-06	266.66	76.092	59.974	17.531	2.4669e-06	24.326	-121.976	-24.590	-72.692	-122.549	-0.610	7.814	-122.156	-115.002	-25.862	60.452	-114.884	-108.772	-108.268	-101.093	48.797	-100.860	-8191	255	
649.086	1	1	0	0	0.2275	0.048525	0.040055	0.084591	0.18923	0.24005	0.1356	0.25592	0.1265	0.2743	0.034909	0.16912	0.13803	0.10081	0.34343	0.068594	0.072917	-0.86458	-1	-0.425	-1.1083	-0.4375	-0.73542	-1.3708	-0.20625	-0.7375	-0.98542	-0.24375	-0.90833	-0.58125	-0.39167	-1.2875	-20.561	47.533	113.585	-45.162	-79.342	-68.325	161.571	141.771	-44.181	-41.296	98.864	-130.593	198.934	115.424	154.391	19.690	0.0001254	0.00013835	0.00015253	1040.4	1.3284e-06	4.9949e-06	1123.3	214.16	1.3467e-06	2.0436e-06	272.73	75.514	60.289	17.56	1.0547e-06	24.306	0.00021839	0.00022269	6.1891e-05	1010.3	2.4048e-06	2.3939e-06	1095.6	211.18	2.4377e-06	2.3831e-06	266.82	75.835	59.998	17.513	2.4287e-06	24.364	217.997	10.317	-58.652	-122.336	-82.366	47.480	-122.193	-114.787	-84.726	-113.838	-115.252	-108.880	-108.102	-101.086	59.172	-101.436	-8191	255	
649.182	1	1	0	0	0.15132	0.11807	0.17762	0.37447	0.065348	0.048292	0.30447	0.1086	0.11851	0.099475	0.17508	0.24346	0.048128	0.1078	0.13793	0.28658	0.058333	-0.68542	-0.83333	-0.26458	-1.1479	-0.7375	-0.44375	-1.3833	-0.46042	-0.60625	-1.1063	-0.38542	-1.1104	-0.7875	-0.39792	-1.1396	81.144	-34.922	181.056	-129.588	122.780	223.659	126.937	174.002	161.797	-74.124	160.426	34.527	221.784	98.451	183.825	-89.719	0.00013819	6.6481e-05	8.4679e-05	1037	2.4721e-06	3.826e-06	1125.6	214.78	2.4499e-06	4.9816e-06	273.91	76.082	60.265	17.411	1.2314e-06	24.612	0.00022014	0.0002198	6.238e-05	1009.2	2.4666e-06	2.5202e-06	1098.3	211.55	2.5966e-06	2.5675e-06	267.53	75.887	60.21	17.533	2.5365e-06	24.499	218.941	30.307	173.721	-122.565	139.609	5.556	-122.162	-115.023	-21.070	6.823	-115.254	-108.810	-108.004	-100.875	153.797	-100.816	-8191	255	
649.303	1	1	0	0	0.1088	0.10642	0.1053	0.26665	0.1501	0.088636	0.35177	0.43281	0.2346	0.21086	0.25304	0.095862	0.19833	0.31498	0.22213	0.26782	-0.09375	-0.65	-1.1458	-0.32708	-0.88542	-0.88958	-0.55208	-1.3875	-0.56042	-0.51458	-1.0063	-0.25	-0.66458	-0.83542	-0.2375	-1.1354	152.149	180.265	71.831	-106.281	33.620	152.064	-116.451	130.081	15.950	181.844	128.327	173.262	-23.265	-118.466	183.706	-27.640	0.00011755	0.00019811	9.516e-05	1045.1	2.3186e-06	3.3284e-06	1125.8	216.12	2.1806e-06	3.3573e-06	272.45	75.865	60.304	17.542	2.581e-06	24.174	0.00021957	0.00022183	6.0779e-05	1012.6	2.3837e-06	2.4064e-06	1098	211.52	2.4631e-06	2.338e-06	267.04	75.823	60.044	17.506	2.505e-06	24.398	-123.616	-62.081	-44.833	-122.358	63.674	82.774	-121.976	-114.881	-26.669	6.899	-115.186	-108.745	-107.887	-100.746	57.631	-101.106	-8191	255	
649.399	1	1	0	0	0.22139	0.11159	0.13706	0.48478	0.27163	0.27987	0.31219	0.18322	0.15084	0.10671	0.11997	0.53892	0.3187	0.16647	0.049325	0.17079	-0.24167	-0.44375	-1.1896	-0.49583	-0.97083	-1.0271	-0.42708	-1.0521	-0.61875	-0.42917	-1.3937	-0.31875	-0.81875	-1.0083	-0.29167	-1.0667	-40.051	-79.161	-105.217	194.479	191.462	72.727	-120.774	152.594	36.302	-131.289	-82.383	129.352	-42.782	99.214	-120.644	192.699	9.8089e-05	0.00044955	7.8598e-05	1045.4	1.6214e-06	4.6675e-06	1122.7	216.55	1.138e-06	3.1174e-06	273.4	76.324	60.239	17.515	7.5649e-07	24.45	0.00022249	0.00022883	6.154e-05	1010.4	2.5224e-06	2.4483e-06	1098.9	211.88	2.4287e-06	2.3913e-06	267.13	76.005	59.956	17.492	2.2677e-06	24.356	221.932	-57.972	-22.304	-121.906	145.691	-22.247	-122.074	-114.476	50.111	-2.856	-114.590	-108.388	-107.539	-100.612	-24.908	-100.715	-8191	255	
649.495	1	1	0	0	0.31774	0.28226	0.29772	0.19581	0.087775	0.085991	0.033387	0.14425	0.10665	0.037204	0.14983	0.19151	0.25364	0.17763	0.17426	0.22829	-0.2125	-0.33958	-1.1729	-0.54583	-0.38125	-0.9375	-0.425	-0.97292	-0.69375	-0.27708	-1.1667	-0.42083	-0.6875	-1.0438	-0.072917	-0.9625	116.850	-44.749	-20.710	148.319	50.639	-13.353	221.968	-113.828	-27.743	34.674	112.346	-55.927	-79.433	221.715	166.627	177.339	9.8506e-05	0.00012901	0.00013726	1037.6	1.5515e-06	6.7675e-06	1120.4	214.97	1.84e-06	4.0356e-06	273.52	75.884	59.821	17.464	1.6621e-06	24.383	0.0001988	0.00020467	5.6305e-05	1006	2.2679e-06	2.2081e-06	1091.4	210.99	2.2368e-06	2.2237e-06	266.68	75.586	59.594	17.487	2.2725e-06	24.311	226.457	177.007	-25.724	-122.201	-9.925	82.858	-121.782	-114.539	-9.121	31.891	-114.774	-108.477	-107.971	-100.644	3.937	-101.062	-8191	255	
649.591	1	1	0	0	0.29759	0.13094	0.20707	0.27071	0.13282	0.26005	0.22758	0.094533	0.035796	0.084065	0.18819	0.073268	0.082292	0.21388	0.13647	0.1568	-0.29375	-0.53125	-1.075	-0.56458	-0.28542	-0.98542	-0.46042	-0.82292	-0.88958	-0.225	-1.0333	-0.47708	-0.60417	-1.1146	-0.4	-0.83125	213.873	-44.015	220.063	162.753	118.540	2.118	140.714	-109.459	178.097	-49.454	162.601	171.035	-52.854	-70.798	1.046	-32.522	9.0046e-05	9.8226e-05	7.6978e-05	1037.9	2.3824e-06	5.5756e-06	1120.1	214.24	1.8175e-06	8.5214e-07	270.51	75.457	59.948	17.403	2.5331e-06	24.338	0.00020316	0.00020455	5.6948e-05	1005.9	2.2799e-06	2.2666e-06	1091.7	211.05	2.2546e-06	2.2366e-06	265.38	75.531	59.51	17.404	2.168e-06	24.263	220.510	-60.926	-51.516	-122.181	83.491	33.550	-121.887	-114.473	-45.494	159.029	-114.987	-108.795	-107.821	-100.873	9.674	-100.710	-8191	255	
649.687	1	1	0	0	0.023207	0.15933	0.057776	0.12878	0.31482	0.33897	0.35151	0.27896	0.064648	0.2266	0.32904	0.12856	0.23953	0.2934	0.20708	0.19889	-0.56042	-0.18333	-0.97292	-0.64583	-0.375	-1.2292	-0.37292	-0.97083	-0.99583	-0.25417	-1.2938	-0.68958	-0.26458	-1.1021	-0.30625	-0.75833	-27.709	90.408	63.166	206.101	159.558	-40.202	118.296	178.014	-41.248	-99.433	155.333	28.494	109.452	106.089	156.728	-88.461	0.00011829	0.00020427	2.3409e-05	1036.7	4.0064e-06	5.8327e-07	1109.9	214.37	8.9924e-07	1.9002e-06	271.04	75.705	59.619	17.434	1.5438e-06	24.019	0.00019028	0.00019283	5.32e-05	1003	2.1377e-06	2.1448e-06	1088.4	210.76	2.1415e-06	2.0975e-06	265.2	75.52	59.414	17.396	2.1145e-06	24.149	223.956	-31.877	-19.899	-122.346	-13.184	76.690	-122.149	-114.639	-64.183	3.560	-115.351	-108.635	-107.808	-101.063	-36.753	-100.897	-8191	255	
649.783	1	1	0	0	0.077544	0.037048	0.1898	0.017192	0.11995	0.10492	0.20384	0.18561	0.12219	0.19018	0.22328	0.49015	0.26947	0.094323	0.2102	0.085059	-0.59167	-0.275	-1.1146	-0.85625	-0.066667	-0.99792	-0.63333	-0.54375	-1.0042	-0.2	-0.98333	-0.89583	-0.26875	-0.98542	-0.42292	-0.55208	103.072	67.218	170.091	-53.149	9.217	59.646	119.071	30.533	213.984	-60.321	161.974	-88.829	-90.088	-27.120	52.809	-128.167	0.00011474	3.6616e-05	0.00011365	1036.7	1.68e-06	2.2877e-06	1120.8	213.6	9.397e-07	2.8453e-06	271.22	76.194	60.197	17.333	3.5817e-06	24.155	0.00019492	0.00019877	5.4049e-05	1002.5	2.2645e-06	2.0966e-06	1090	209.88	2.1798e-06	2.1788e-06	265.61	75.549	59.539	17.411	2.2412e-06	24.243	-116.372	194.910	-6.834	-121.933	6.921	47.633	-121.824	-114.826	-69.123	7.516	-114.449	-108.568	-107.841	-100.453	37.919	-100.854	-8191	255	
649.879	1	1	0	0	0.078835	0.066454	0.10204	0.3441	0.24995	0.13895	0.20129	0.21768	0.19431	0.11813	0.19265	0.0873	0.15835	0.18701	0.25975	0.12103	-0.7625	-0.325	-0.83125	-1.1167	-0.35833	-1.0104	-0.65625	-0.58333	-1.0812	-0.52708	-0.67292	-1.1333	-0.29792	-1.1521	-0.68958	-0.47917	67.599	-108.927	194.055	159.050	205.372	-124.698	193.130	6.206	108.866	54.414	-126.914	122.196	85.140	131.608	-74.246	147.851	9.9295e-05	0.00021069	0.00016512	1035.3	2.4005e-06	5.6467e-06	1115.4	213.85	1.061e-06	2.3619e-06	271.85	75.899	59.771	17.48	2.3048e-06	24.135	0.00020213	0.00020586	5.7279e-05	1002.8	2.2755e-06	2.2538e-06	1090	210.59	2.3024e-06	2.2597e-06	265.78	75.75	59.657	17.47	2.2752e-06	24.259	218.034	7.515	-42.032	-122.202	15.803	9.994	-122.127	-114.628	-64.100	23.120	-115.040	-108.094	-107.754	-100.671	36.300	-100.742	-8191	255	
649.998	1	1	0	0	0.11095	0.32369	0.063207	0.39008	0.082613	0.22685	0.33243	0.1644	0.010487	0.24635	0.084514	0.097405	0.20183	0.14412	0.08366	0.10646	-0.58958	-0.36458	-0.56875	-1.1917	-0.225	-0.96667	-0.8625	-0.47292	-1.0812	-0.17292	-0.66458	-0.86042	-0.28958	-0.97917	-0.98333	-0.27917	99.133	99.857	130.025	171.128	-126.548	-92.454	195.204	166.294	200.798	181.738	118.033	-105.997	110.695	157.116	135.976	-92.058	0.00015839	0.00022871	4.7899e-05	1036.5	1.7853e-06	2.4576e-06	1118.3	213.83	1.5384e-06	3.374e-06	271.23	75.596	59.628	17.328	1.9154e-06	24.142	0.00020211	0.00020858	5.8004e-05	1004.7	2.2635e-06	2.1975e-06	1091.8	210.47	2.2168e-06	2.2294e-06	266.09	75.636	59.428	17.455	2.253e-06	24.223	-131.247	-14.323	-80.747	-121.962	-38.069	-38.021	-121.794	-114.581	-45.347	44.443	-114.631	-108.677	-107.818	-100.581	58.424	-100.810	-8191	255	
650.094	1	1	0	0	0.16724	0.30172	0.29322	0.12005	0.18787	0.2	0.28042	0.10422	0.29736	0.092391	0.18212	0.25081	0.12291	0.097832	0.048912	0.2161	-0.81042	-0.48542	-0.46875	-1.3583	-0.35208	-0.82917	-1.0729	-0.21458	-0.99583	-0.39583	-0.4	-1.2104	-0.10833	-0.81875	-0.99583	-0.23333	148.438	-10.275	-65.845	205.520	198.406	-55.616	179.121	136.884	62.843	118.409	129.345	-76.270	118.545	221.938	167.817	-48.673	0.00015409	0.00026743	0.00015888	1034.4	1.3096e-06	3.8081e-06	1117.4	215.18	1.7201e-06	4.2506e-06	272.88	75.859	59.782	17.614	5.5367e-06	24.256	0.00020359	0.00020297	5.7112e-05	1004.1	2.3417e-06	2.2508e-06	1092	211.12	2.2744e-06	2.3153e-06	265.91	75.54	59.668	17.521	2.316e-06	24.237	-130.949	-17.931	-59.337	-122.200	-8.093	83.039	-121.980	-114.414	-85.813	6.342	-114.883	-108.793	-107.182	-100.408	-17.745	-101.107	-8191	255	
650.191	1	1	0	0	0.11767	0.28432	0.058373	0.073619	0.13394	0.22983	0.17277	0.24224	0.034416	0.18737	0.12722	0.22097	0.1757	0.12943	0.085428	0.29773	-0.83333	-0.50833	-0.19167	-1.1667	-0.089583	-0.66458	-1.025	-0.016667	-1.0042	-0.5875	-0.54792	-1.2417	-0.33958	-0.80625	-1.0021	-0.31042	-11.220	142.637	-128.612	-71.679	133.698	33.041	180.922	117.337	-30.393	-7.740	215.952	23.220	132.877	-101.331	-76.721	-125.932	0.00012864	0.0004182	0.00012254	1034.3	2.6808e-06	2.2123e-06	1118.5	214.43	1.0264e-06	2.7567e-06	273.08	76.64	59.66	17.423	2.1362e-06	24.169	0.00020336	0.00020441	5.8038e-05	1005.6	2.3172e-06	2.2725e-06	1091.1	210.52	2.3111e-06	2.3171e-06	266.35	75.916	59.599	17.453	2.3313e-06	24.308	224.856	-63.330	-37.437	-122.148	10.161	34.304	-122.116	-114.564	-7.218	16.455	-114.777	-108.288	-107.699	-100.514	53.990	-101.321	-8191	255	
650.264	1	1	0	0	0.042686	0.19255	0.38354	0.18958	0.070979	0.21085	0.11907	0.19273	0.06231	0.26031	0.12407	0.17516	0.10595	0.2572	0.20657	0.11801	-0.53333	-0.79167	-0.17917	-1.1521	-0.34792	-0.6125	-1.2542	-0.25625	-0.8625	-0.6125	-0.40833	-1.2479	-0.45208	-0.58958	-1.0521	-0.46875	-34.198	-29.232	207.148	-89.724	154.251	-0.368	196.338	102.505	-5.640	64.006	-126.103	-79.457	163.791	122.307	119.891	41.021	0.00012739	0.00033616	0.00016914	1039.8	3.6251e-06	4.6953e-06	1120.9	214.14	3.4222e-06	7.5609e-07	271.8	76.137	59.603	17.471	1.2935e-06	24.082	0.00021039	0.00021445	5.8603e-05	1006	2.3229e-06	2.2694e-06	1092.1	210.33	2.2697e-06	2.2629e-06	265.76	75.457	59.333	17.447	2.2808e-06	24.214	-126.389	23.416	-9.858	-122.128	-9.943	33.756	-122.034	-114.724	25.795	-70.476	-114.781	-108.631	-108.006	-100.521	8.116	-101.219	-8191	255	
650.383	1	1	0	0	0.11963	0.22234	0.15788	0.1882	0.16962	0.18907	0.2351	0.23442	0.13146	0.2264	0.24349	0.20634	0.20423	0.12722	0.14044	0.12313	-0.3875	-0.97917	-0.225	-1.2375	-0.57708	-0.60833	-1.2417	-0.325	-0.8625	-0.90208	-0.275	-1.0354	-0.6125	-0.34583	-0.9625	-0.30417	175.738	94.221	-61.626	219.575	-79.155	149.379	176.797	162.176	-120.136	-69.293	144.126	-21.028	1.771	-85.052	83.070	-115.690	0.00011552	0.0005715	6.75e-05	1036.2	3.0329e-06	6.8404e-06	1118	214.15	2.427e-06	2.8752e-06	271.53	76.032	59.519	17.467	1.955e-06	24.046	0.00020432	0.00020256	5.6825e-05	1005.6	2.3203e-06	2.2906e-06	1091.5	210.35	2.3315e-06	2.2655e-06	266.1	75.693	59.498	17.478	2.2651e-06	24.198	-131.507	-47.131	-62.769	-122.040	-79.271	-22.243	-121.944	-114.690	-70.859	-13.593	-114.719	-108.087	-108.087	-100.670	11.900	-100.602	-8191	255	
650.479	1	1	0	0	0.07751	0.10504	0.057592	0.22874	0.12114	0.20811	0.11765	0.084678	0.17088	0.13424	0.18175	0.18854	0.21425	0.14544	0.13021	0.056744	-0.17708	-1.0104	-0.19167	-1.2	-0.68333	-0.40417	-1.2812	-0.56458	-0.54583	-1.1208	-0.16042	-0.87917	-0.67292	-0.25625	-1.05	-0.45	131.656	-84.475	119.699	213.832	22.998	-72.374	-119.067	99.316	99.856	107.887	19.681	140.281	188.847	-83.514	-132.800	115.707	0.00015915	9.8884e-05	2.3537e-05	1034.5	2.3244e-06	2.8779e-06	1121.3	214.88	1.3568e-06	6.5255e-06	269.75	75.943	59.721	17.343	1.3142e-06	24.043	0.00020934	0.00020778	5.7334e-05	1003.6	2.2784e-06	2.2508e-06	1092	210.33	2.1966e-06	2.2644e-06	264.97	75.516	59.391	17.415	2.2375e-06	24.234	226.776	-53.651	-30.636	-121.968	50.388	58.590	-121.964	-114.837	-63.521	25.445	-114.961	-108.220	-108.325	-100.484	23.024	-100.543	-8191	255	
650.575	1	1	0	0	0.34305	0.10784	0.051657	0.30662	0.36471	0.31666	0.047219	0.28519	0.11855	0.11204	0.14209	0.2667	0.32987	0.20041	0.15913	0.093869	-0.054167	-0.93958	-0.34792	-1.0146	-0.66042	-0.40208	-1.2437	-0.57917	-0.53958	-1.2042	-0.24167	-0.78542	-0.82708	-0.30208	-0.84167	-0.71875	32.503	174.389	28.470	-89.073	126.065	-73.936	184.481	203.722	209.974	159.250	-48.698	-70.232	-75.884	209.669	-2.872	178.177	0.00014053	0.00037368	6.2555e-05	1032	1.4581e-06	1.5862e-06	1117.5	215.12	1.436e-06	4.1614e-06	272.7	75.89	59.237	17.37	2.8449e-06	24.088	0.00020854	0.00020722	5.7457e-05	1002.1	2.2839e-06	2.3345e-06	1090.6	210.68	2.3313e-06	2.2418e-06	265.79	75.656	59.309	17.438	2.3496e-06	24.224	-131.253	-44.069	2.589	-122.172	17.469	-69.487	-121.871	-114.591	-40.016	11.623	-114.656	-108.267	-107.807	-100.395	-42.703	-101.232	-8191	255	
650.671	1	1	0	0	0.14135	0.24069	0.31059	0.097637	0.018053	0.35717	0.20634	0.09552	0.16599	0.1641	0.29147	0.085691	0.27352	0.18218	0.24778	0.24219	-0.14167	-0.96042	-0.28958	-0.6625	-0.91667	-0.15417	-1.1604	-0.64583	-0.33542	-1.0354	-0.45	-0.60833	-1.0646	-0.22708	-1.0396	-0.59792	202.364	169.943	107.693	-68.253	-73.502	-92.799	187.579	22.644	-70.591	-27.529	142.372	197.206	-82.399	109.878	168.860	-41.128	9.5061e-05	0.00036654	0.00016438	1037.6	5.6468e-07	8.9473e-06	1120.3	214.34	2.1702e-06	5.1671e-07	269.92	75.936	59.745	17.469	3.0732e-07	24.235	0.0002076	0.00020677	5.8693e-05	1004.6	2.2883e-06	2.2537e-06	1092.6	210.56	2.2532e-06	2.2075e-06	264.84	75.649	59.603	17.44	2.2632e-06	24.275	214.750	-3.541	-21.468	-121.986	41.291	19.038	-121.825	-114.521	-67.221	-129.650	-115.024	-108.252	-107.511	-100.356	-22.521	-100.943	-8191	255	
650.792	1	1	0	0	0.2052	0.14367	0.14928	0.39916	0.068134	0.33164	0.10135	0.29961	0.25838	0.21698	0.14103	0.35343	0.25058	0.11324	0.20557	0.24594	0.11875	-0.99792	-0.5125	-0.775	-0.97708	-0.21875	-1.0167	-0.77292	-0.22917	-1.0958	-0.68958	-0.73333	-0.93958	-0.21458	-0.87917	-0.82292	-123.909	180.216	-113.910	217.396	73.164	140.921	-127.673	146.375	33.090	34.451	200.242	80.224	159.488	209.443	204.886	-108.570	0.00011195	0.00029235	3.0419e-05	1039.4	6.2026e-07	1.9858e-06	1117.4	214.23	2.2839e-06	2.8487e-06	271.96	75.862	59.692	17.514	2.3208e-06	24.156	0.00020697	0.000205	5.7522e-05	1005.4	2.2907e-06	2.3036e-06	1090.7	210.21	2.3149e-06	2.2674e-06	265.46	75.576	59.529	17.462	2.2581e-06	24.28	-125.624	127.671	170.576	-122.011	44.646	15.282	-121.767	-114.696	-28.767	27.445	-114.889	-108.393	-107.735	-100.934	85.065	-101.163	-8191	255	
650.886	1	1	0	0	0.16137	0.40649	0.16007	0.36531	0.39515	0.16271	0.33475	0.1951	0.057	0.24385	0.25412	0.33311	0.052622	0.21742	0.22561	0.19293	0.22917	-1.1187	-0.51458	-0.47292	-1.0396	-0.24167	-1.1604	-0.92292	-0.33333	-1.0312	-0.56875	-0.46875	-1.1208	-0.30208	-0.71667	-1.1042	21.091	-81.564	-32.222	222.626	-64.898	95.842	146.922	146.157	116.502	-112.016	109.151	209.470	-28.346	-71.353	34.909	-127.104	0.00011339	0.00042077	3.4991e-05	1035.5	1.0605e-06	2.6898e-06	1121.7	214.08	1.0477e-06	2.5121e-06	270.41	75.827	60.02	17.47	1.4183e-06	24.281	0.00020661	0.00020681	5.7284e-05	1004.4	2.2472e-06	2.2194e-06	1093.2	209.93	2.2452e-06	2.2273e-06	265.04	75.522	59.551	17.402	2.2302e-06	24.158	222.241	-56.711	-115.936	-121.968	-53.759	-65.258	-121.754	-114.346	14.341	69.658	-114.963	-108.615	-107.724	-100.524	-3.133	-100.828	-8191	255	
650.984	1	1	0	0	0.081623	0.15601	0.34695	0.27431	0.15741	0.26418	0.047184	0.057289	0.021325	0.17567	0.27412	0.11065	0.14618	0.074828	0.2271	0.052145	0.2125	-0.94375	-0.53958	-0.61875	-0.91875	-0.3875	-0.875	-1.1521	-0.30208	-1.1063	-0.61875	-0.53958	-1.2208	-0.37708	-0.775	-1.125	-37.958	-53.603	-130.944	190.937	-50.598	-120.971	-77.290	142.483	-30.483	21.558	175.537	153.681	200.469	157.261	212.789	-1.455	8.417e-05	0.00024063	8.81e-05	1035.8	5.4447e-06	1.0394e-06	1114.3	212.86	3.3599e-07	4.8162e-06	270.69	76.103	59.625	17.442	1.4918e-06	24.173	0.00020382	0.00020188	5.6827e-05	1004.5	2.3207e-06	2.2543e-06	1091.5	210.09	2.3378e-06	2.3236e-06	265.17	75.616	59.608	17.422	2.3066e-06	24.188	223.309	-40.029	-62.959	-121.948	-28.638	75.973	-121.852	-114.703	217.405	36.761	-114.925	-108.661	-107.903	-100.007	51.367	-101.374	-8191	255	
651.079	1	1	0	0	0.27692	0.11444	0.26871	0.29075	0.38037	0.16758	0.45018	0.09051	0.18354	0.030775	0.25389	0.33128	0.30402	0.21058	0.19643	0.31479	0.1625	-0.88542	-0.90625	-0.4125	-1.0396	-0.47292	-0.65208	-1.175	-0.066667	-0.80417	-0.975	-0.40417	-1.0521	-0.58958	-0.32292	-1.0438	33.508	51.397	121.552	207.443	-18.061	-42.957	174.695	226.637	219.462	-69.272	-129.593	162.837	223.307	-38.083	205.938	135.053	0.00015319	0.00019824	0.00014762	1034.2	2.1938e-06	1.2419e-06	1123.8	213.34	1.939e-06	2.0808e-06	269.14	75.019	59.835	17.396	2.0481e-06	24.116	0.00020532	0.00020683	5.8057e-05	1005.5	2.2775e-06	2.3114e-06	1093.5	209.92	2.2964e-06	2.2797e-06	264.93	75.422	59.491	17.436	2.3392e-06	24.263	227.021	-38.286	-41.115	-121.930	-28.177	-95.383	-121.775	-114.244	-47.616	66.275	-114.881	-108.383	-108.000	-100.732	41.697	-100.699	-8191	255	
651.175	1	1	0	0	0.077516	0.21562	0.30376	0.35753	0.11008	0.07556	0.12599	0.041396	0.089632	0.22033	0.3812	0.16546	0.14982	0.16388	0.19878	0.1147	0.16875	-0.7125	-1.0063	-0.35417	-0.93333	-0.76458	-0.46875	-1.2083	-0.25625	-0.74167	-0.98542	-0.38125	-0.9875	-0.72917	-0.12708	-1.1333	-56.224	-75.739	-61.580	216.234	114.091	-11.520	-125.361	-49.309	162.112	-103.941	189.068	118.275	-60.692	126.456	152.123	47.296	0.0001439	0.00030968	1.9157e-05	1035.1	2.3397e-06	2.9843e-06	1111	212.52	2.0595e-06	1.9683e-06	270.92	75.767	59.598	17.444	3.5076e-06	24.16	0.00020882	0.00020968	5.9031e-05	1005.3	2.3307e-06	2.3043e-06	1093.5	210.39	2.3077e-06	2.3197e-06	265.84	75.624	59.66	17.425	2.3548e-06	24.28	223.811	-51.813	-112.401	-122.096	-1.830	75.932	-122.293	-114.865	9.086	-1.806	-114.991	-107.931	-107.724	-100.793	25.668	-100.875	-8191	255	
651.271	1	1	0	0	0.19834	0.12332	0.23792	0.30609	0.13742	0.20275	0.32738	0.20975	0.11587	0.16977	0.30044	0.095359	0.074711	0.082121	0.24529	0.14788	0.083333	-0.62083	-0.93333	-0.25625	-0.96875	-0.80417	-0.38125	-1.3542	-0.2875	-0.48542	-1.0604	-0.21875	-0.8375	-0.9	-0.26875	-1.1625	21.892	-82.250	-12.459	195.542	214.060	-33.895	186.655	169.953	-43.814	-43.158	-22.943	223.023	83.504	218.634	-9.858	-103.178	0.00010023	0.00022417	0.00015788	1030.8	2.6547e-06	3.3543e-06	1118	212.85	3.8907e-06	5.5212e-07	272.22	75.777	59.683	17.305	3.2161e-06	24.052	0.00020683	0.00021165	5.9463e-05	1006.6	2.3331e-06	2.3533e-06	1093.9	210.42	2.3284e-06	2.3452e-06	265.66	75.659	59.599	17.408	2.3505e-06	24.267	213.933	-80.429	-70.948	-122.277	55.448	-0.367	-122.154	-114.620	-11.124	36.836	-114.816	-108.408	-107.784	-100.891	55.304	-101.150	-8191	255	
651.392	1	1	0	0	0.061938	0.2007	0.24739	0.30747	0.26596	0.12957	0.15887	0.30548	0.18076	0.21989	0.10836	0.32951	0.21897	0.077622	0.33019	0.20108	-0.041667	-0.55	-1.1292	-0.33125	-0.78958	-0.87083	-0.23958	-1.1938	-0.62917	-0.44375	-1.2125	-0.35208	-0.68333	-0.96458	-0.2125	-1.0333	223.713	-103.801	28.698	188.353	34.311	224.258	167.491	65.454	-22.059	-1.197	-15.158	-113.506	-60.588	-68.192	17.653	212.185	0.00013575	0.00011907	0.00011542	1035.7	3.8906e-07	3.7424e-06	1115.2	214.11	2.082e-06	4.2419e-06	271.46	75.897	59.856	17.473	3.2725e-06	24.091	0.00021196	0.00021582	6.0631e-05	1006.4	2.39e-06	2.4056e-06	1094.2	210.42	2.4696e-06	2.3414e-06	266.08	75.622	59.654	17.509	2.3992e-06	24.276	-129.932	-79.925	-86.268	-122.146	163.816	38.270	-121.983	-114.915	35.606	15.288	-115.110	-108.681	-108.115	-100.854	-68.539	-100.619	-8191	255	
651.488	1	1	0	0	0.15544	0.18195	0.16487	0.2525	0.3475	0.1023	0.59323	0.30597	0.057377	0.16845	0.12668	0.29122	0.11225	0.45917	0.12056	0.19824	-0.41875	-0.32083	-1.0604	-0.41458	-0.5	-0.93542	-0.5	-0.98542	-0.55833	-0.33333	-0.90625	-0.40833	-0.77292	-1.2146	-0.2375	-0.7875	-92.193	-40.696	164.502	198.942	34.416	85.512	142.369	-106.946	181.768	98.456	-86.020	131.763	-43.896	156.561	30.341	226.071	0.0001249	0.00027474	8.7415e-05	1036.1	4.92e-06	3.5846e-06	1112.1	213.23	3.3011e-06	4.0454e-06	269.47	75.496	59.184	17.293	2.4772e-06	24.025	0.00021731	0.00022334	6.1562e-05	1007.3	2.4684e-06	2.4243e-06	1092.8	211.06	2.4477e-06	2.3935e-06	265.57	75.668	59.667	17.458	2.4449e-06	24.332	-117.160	-3.579	-123.841	-122.157	9.321	-10.478	-121.925	-114.892	15.747	-17.642	-114.726	-108.827	-107.634	-100.709	26.614	-101.303	-8191	255	
651.559	1	1	0	0	0.066035	0.17273	0.23408	0.23129	0.30211	0.10536	0.2459	0.080717	0.29937	0.25499	0.24169	0.13397	0.25408	0.054249	0.15684	0.18524	-0.4125	-0.45208	-0.9875	-0.56042	-0.46667	-1.05	-0.18958	-0.83125	-0.95417	-0.19167	-1.1146	-0.62708	-0.48333	-1.2354	-0.16667	-0.86667	-116.410	115.118	-34.377	-100.031	60.834	-79.854	139.102	149.763	-87.950	160.025	80.921	-51.710	-64.666	154.599	-6.558	-82.299	0.00012007	0.00022826	0.00017879	1033.9	4.4666e-06	4.0454e-06	1117.7	214.67	5.1786e-07	3.1554e-06	270.47	75.625	58.987	17.434	3.171e-06	23.978	0.00021979	0.00022231	6.1869e-05	1006.8	2.4453e-06	2.3888e-06	1094.8	210.78	2.4324e-06	2.4166e-06	266.08	75.719	59.598	17.473	2.4566e-06	24.244	-125.858	26.316	-56.948	-122.103	-83.776	25.558	-121.902	-114.737	131.844	100.008	-114.903	-108.503	-107.762	-100.791	-3.781	-102.213	-8191	255	
651.656	1	1	0	0	0.16873	0.21036	0.10715	0.14984	0.35892	0.17832	0.10204	0.22995	0.05459	0.29075	0.23237	0.28646	0.084486	0.038866	0.17621	0.19853	-0.6125	-0.34375	-0.71458	-0.66875	-0.3375	-1.0667	-0.43542	-0.73958	-0.71875	-0.091667	-1.1292	-0.49583	-0.38958	-1.1521	-0.2375	-0.9125	97.474	-98.328	151.104	221.366	12.190	111.217	184.338	160.608	-50.365	78.679	177.639	81.606	79.839	-11.709	150.840	193.044	0.0001271	0.00024913	0.00022389	1032.4	2.0798e-06	5.8139e-06	1112.5	213.19	1.6898e-06	5.2868e-06	270.69	75.575	59.839	17.472	1.7626e-06	24.278	0.0002175	0.00022253	6.2042e-05	1005.5	2.5023e-06	2.4045e-06	1089.7	210.99	2.4118e-06	2.4832e-06	266.46	75.726	59.735	17.496	2.5014e-06	24.349	222.299	-115.005	-45.355	-123.769	-34.173	41.893	-123.510	-115.810	-61.405	3.969	-116.064	-109.656	-108.959	-101.861	22.741	-101.998	-8191	255	
651.776	1	1	0	0	0.32799	0.19894	0.18164	0.20184	0.25509	0.13359	0.43544	0.07118	0.038318	0.10383	0.12042	0.055525	0.41584	0.05632	0.091285	0.31782	-0.625	-0.11875	-0.79583	-0.8	-0.28125	-0.93125	-0.65	-0.57708	-0.77708	-0.25625	-1.0083	-0.71875	-0.18542	-1.0875	-0.52917	-0.6375	-48.884	-34.868	120.358	-114.776	-9.688	65.968	128.387	9.433	-52.760	-11.157	142.966	148.602	-40.923	127.633	94.388	135.559	0.00014126	0.00059389	0.00018422	1033.7	2.7769e-06	5.0888e-06	1111.5	212.54	3.5984e-06	3.6762e-06	272.72	75.412	58.808	17.437	7.5905e-07	24.227	0.00022226	0.00022143	6.1789e-05	1007.2	2.5514e-06	2.4496e-06	1092.2	210.6	2.4285e-06	2.4298e-06	266.29	75.736	59.617	17.495	2.4949e-06	24.384	218.389	-59.193	-28.985	-123.300	-53.158	19.375	-123.488	-115.584	-59.662	-27.555	-116.348	-109.784	-109.182	-101.452	119.078	-102.309	-8191	255	
651.872	1	1	0	0	0.35445	0.14314	0.20961	0.13162	0.14671	0.21584	0.35681	0.44522	0.037308	0.095173	0.23841	0.040196	0.14603	0.2047	0.098326	0.047002	-0.56458	-0.27708	-0.70208	-0.87917	-0.20833	-0.94167	-0.68125	-0.4875	-1.0688	-0.25208	-0.67292	-0.7	-0.22292	-1.0896	-0.58333	-0.49583	16.757	185.115	94.375	165.201	-17.457	13.414	107.732	142.002	9.374	-102.394	146.456	140.706	-119.411	-55.595	84.709	-120.944	0.00013634	0.00020382	4.5357e-05	1026.3	2.4141e-06	2.3595e-06	1108.2	212.68	2.0316e-06	3.631e-06	273.39	75.254	59.63	17.428	2.0783e-06	24.194	0.0002215	0.00022065	6.1143e-05	1004.5	2.5099e-06	2.4352e-06	1091	210.84	2.5192e-06	2.4633e-06	267.02	75.695	59.807	17.498	2.5189e-06	24.312	224.021	23.007	187.704	-123.600	-15.613	-41.496	-123.477	-115.531	-65.323	7.312	-116.081	-109.753	-109.414	-101.492	56.958	-101.917	-8191	255	
651.967	1	1	0	0	0.091936	0.19719	0.1295	0.41655	0.12936	0.14593	0.092924	0.04625	0.26066	0.10314	0.084867	0.087969	0.14368	0.076353	0.17289	0.29457	-0.74167	-0.25833	-0.49375	-1.1313	-0.04375	-1.0063	-0.66667	-0.37083	-1.2292	-0.21458	-0.56458	-0.92708	-0.35625	-1.0646	-0.5125	-0.24792	-14.512	181.561	8.180	178.604	-97.238	-112.467	160.791	120.400	206.142	112.379	188.421	152.637	180.852	206.034	125.856	74.207	0.00013201	0.0004658	7.9795e-05	1031.8	2.3693e-06	3.6979e-06	1108.5	212.53	3.5943e-06	3.4778e-06	270.7	74.658	58.877	17.388	2.0842e-06	24.063	0.0002206	0.00022192	6.2831e-05	1006	2.4857e-06	2.4229e-06	1090.4	210.68	2.4415e-06	2.4452e-06	266.36	75.461	59.649	17.526	2.5324e-06	24.323	-129.981	5.423	-23.718	-123.428	63.504	-13.382	-123.360	-116.405	-2.856	49.061	-116.002	-109.960	-109.359	-101.816	12.219	-102.119	-8191	255	
#DATA ENDS
