BOXY.EXE: ISS Imagent and Oximeter Data Acquisition Program Version 0.80
Ascii Record File

#ACQ INFORMATION
2  Detector Channels 
16  External MUX Channels 
1  Auxiliary Channels 
5000  Waveform (CCF) Frequency (Hz)
1  Waveforms Skipped 
30  Waveforms Averaged 
1  Cycles Averaged 
16  Acquisitions per Waveform 
10.0806  Updata Rate (Hz) 

#FILE INFORMATION
TRUE -- External MUX Channel results are PARSED.
FALSE -- AC DC and Phase are NOT grouped.
TRUE -- Companion Program Settings File CREATED.
FALSE -- AC data not excluded
FALSE -- DC data not excluded
FALSE -- Phase data not excluded
FALSE -- Auxillary Chn. data not excluded
Tab delimiters

#CALIBRATION STATE
TRUE -- Waveform Calibration Values APPLIED.


#AUX CALIBRATION VALUES
Val Type	aux-1	

Term	1.0000e+00	
Factor	0.0000e+00	


#WF CALIBRATION VALUES
A = Detector Channel
Val Type	A-AC1	A-AC2	A-AC3	A-AC4	A-AC5	A-AC6	A-AC7	A-AC8	A-AC9	A-AC10	A-AC11	A-AC12	A-AC13	A-AC14	A-AC15	A-AC16	A-DC1	A-DC2	A-DC3	A-DC4	A-DC5	A-DC6	A-DC7	A-DC8	A-DC9	A-DC10	A-DC11	A-DC12	A-DC13	A-DC14	A-DC15	A-DC16	A-Ph1	A-Ph2	A-Ph3	A-Ph4	A-Ph5	A-Ph6	A-Ph7	A-Ph8	A-Ph9	A-Ph10	A-Ph11	A-Ph12	A-Ph13	A-Ph14	A-Ph15	A-Ph16	

Term	0.00000e+00	0.00000e+00	0.00000e+00	0.00000e+00	0.00000e+00	0.00000e+00	0.00000e+00	0.00000e+00	0.00000e+00	0.00000e+00	0.00000e+00	0.00000e+00	0.00000e+00	0.00000e+00	0.00000e+00	0.00000e+00	0.00000e+00	0.00000e+00	0.00000e+00	0.00000e+00	0.00000e+00	0.00000e+00	0.00000e+00	0.00000e+00	0.00000e+00	0.00000e+00	0.00000e+00	0.00000e+00	0.00000e+00	0.00000e+00	0.00000e+00	0.00000e+00	0.00000e+00	0.00000e+00	0.00000e+00	0.00000e+00	0.00000e+00	0.00000e+00	0.00000e+00	0.00000e+00	0.00000e+00	0.00000e+00	0.00000e+00	0.00000e+00	0.00000e+00	0.00000e+00	0.00000e+00	0.00000e+00	
Factor	1.00000e+00	1.00000e+00	1.00000e+00	1.00000e+00	1.00000e+00	1.00000e+00	1.00000e+00	1.00000e+00	1.00000e+00	1.00000e+00	1.00000e+00	1.00000e+00	1.00000e+00	1.00000e+00	1.00000e+00	1.00000e+00	1.00000e+00	1.00000e+00	1.00000e+00	1.00000e+00	1.00000e+00	1.00000e+00	1.00000e+00	1.00000e+00	1.00000e+00	1.00000e+00	1.00000e+00	1.00000e+00	1.00000e+00	1.00000e+00	1.00000e+00	1.00000e+00	X	X	X	X	X	X	X	X	X	X	X	X	X	X	X	X	

B = Detector Channel
Val Type	B-AC1	B-AC2	B-AC3	B-AC4	B-AC5	B-AC6	B-AC7	B-AC8	B-AC9	B-AC10	B-AC11	B-AC12	B-AC13	B-AC14	B-AC15	B-AC16	B-DC1	B-DC2	B-DC3	B-DC4	B-DC5	B-DC6	B-DC7	B-DC8	B-DC9	B-DC10	B-DC11	B-DC12	B-DC13	B-DC14	B-DC15	B-DC16	B-Ph1	B-Ph2	B-Ph3	B-Ph4	B-Ph5	B-Ph6	B-Ph7	B-Ph8	B-Ph9	B-Ph10	B-Ph11	B-Ph12	B-Ph13	B-Ph14	B-Ph15	B-Ph16	

Term	0.00000e+00	0.00000e+00	0.00000e+00	0.00000e+00	0.00000e+00	0.00000e+00	0.00000e+00	0.00000e+00	0.00000e+00	0.00000e+00	0.00000e+00	0.00000e+00	0.00000e+00	0.00000e+00	0.00000e+00	0.00000e+00	0.00000e+00	0.00000e+00	0.00000e+00	0.00000e+00	0.00000e+00	0.00000e+00	0.00000e+00	0.00000e+00	0.00000e+00	0.00000e+00	0.00000e+00	0.00000e+00	0.00000e+00	0.00000e+00	0.00000e+00	0.00000e+00	-1.06138e+02	-1.29047e+02	-1.21568e+02	-1.83476e+02	-5.52129e+01	-7.56509e+01	-1.59880e+02	-1.62015e+02	-5.74747e+01	-6.97283e+01	-1.75117e+02	-1.71928e+02	-1.83346e+02	-1.76281e+02	-5.73029e+01	-1.49823e+02	
Factor	1.52751e-05	1.27225e-04	4.13959e-05	1.84327e-01	1.04722e-06	1.71902e-06	1.70247e-01	4.74238e-02	9.30981e-07	1.49024e-06	9.31797e-02	3.12405e-02	3.94049e-02	8.22718e-03	1.10834e-06	1.22183e-02	1.99470e-06	2.18733e-06	6.09788e-07	9.24792e-02	2.38180e-08	2.40278e-08	8.06688e-02	2.40565e-02	2.37376e-08	2.40181e-08	4.51395e-02	1.53027e-02	1.98509e-02	4.17740e-03	2.39144e-08	5.96623e-03	X	X	X	X	X	X	X	X	X	X	X	X	X	X	X	X	



#DISTANCE SETTINGS
A = Detector Channel
A-1	A-2	A-3	A-4	A-5	A-6	A-7	A-8	A-9	A-10	A-11	A-12	A-13	A-14	A-15	A-16	

2.5000e+00	3.0000e+00	2.5000e+00	3.0000e+00	2.0000e+00	3.0000e+00	1.5000e+00	3.0000e+00	3.0000e+00	3.0000e+00	3.0000e+00	3.0000e+00	3.0000e+00	3.0000e+00	1.5000e+00	3.0000e+00	

B = Detector Channel
B-1	B-2	B-3	B-4	B-5	B-6	B-7	B-8	B-9	B-10	B-11	B-12	B-13	B-14	B-15	B-16	

1.0000e+01	1.0000e+01	1.0000e+01	1.4400e+00	1.0000e+01	1.0000e+01	1.5100e+00	1.9400e+00	1.0000e+01	1.0000e+01	1.9900e+00	2.4900e+00	2.4100e+00	2.9000e+00	1.0000e+01	2.9800e+00	




#DATA BEGINS
time	group	step	mark	flag	A-AC1	A-AC2	A-AC3	A-AC4	A-AC5	A-AC6	A-AC7	A-AC8	A-AC9	A-AC10	A-AC11	A-AC12	A-AC13	A-AC14	A-AC15	A-AC16	A-DC1	A-DC2	A-DC3	A-DC4	A-DC5	A-DC6	A-DC7	A-DC8	A-DC9	A-DC10	A-DC11	A-DC12	A-DC13	A-DC14	A-DC15	A-DC16	A-Ph1	A-Ph2	A-Ph3	A-Ph4	A-Ph5	A-Ph6	A-Ph7	A-Ph8	A-Ph9	A-Ph10	A-Ph11	A-Ph12	A-Ph13	A-Ph14	A-Ph15	A-Ph16	B-AC1	B-AC2	B-AC3	B-AC4	B-AC5	B-AC6	B-AC7	B-AC8	B-AC9	B-AC10	B-AC11	B-AC12	B-AC13	B-AC14	B-AC15	B-AC16	B-DC1	B-DC2	B-DC3	B-DC4	B-DC5	B-DC6	B-DC7	B-DC8	B-DC9	B-DC10	B-DC11	B-DC12	B-DC13	B-DC14	B-DC15	B-DC16	B-Ph1	B-Ph2	B-Ph3	B-Ph4	B-Ph5	B-Ph6	B-Ph7	B-Ph8	B-Ph9	B-Ph10	B-Ph11	B-Ph12	B-Ph13	B-Ph14	B-Ph15	B-Ph16	aux-1	digaux	

1208.539	1	1	0	512	0.2091	0.18272	0.35831	0.30767	0.14831	0.19771	0.17351	0.23958	0.30709	0.17021	0.060657	0.095955	0.2404	0.12575	0.16542	0.12056	-0.375	-0.55417	-1.3396	-0.5625	-1.0938	-1.2521	-0.64375	-1.5875	-0.68958	-0.84167	-1.6854	-0.73958	-1.1063	-1.3208	-0.45	-1.5167	45.542	40.010	49.963	172.697	200.737	75.332	186.069	13.208	59.212	-102.190	226.479	247.098	210.090	-41.913	18.347	230.173	0.00037284	0.00083512	0.00040461	455.13	1.2634e-05	1.7396e-05	513.13	221.83	1.1573e-05	1.3921e-05	254.14	110.57	105.63	59.588	1.5786e-06	62.839	0.0072076	0.0077744	0.0021838	771.54	8.5559e-05	8.809e-05	792.28	303.67	8.7926e-05	8.8085e-05	410	163.98	174.93	73.723	8.8909e-05	82.748	188.097	221.804	48.443	-96.223	-40.420	49.643	-97.780	-90.497	220.055	76.330	-94.514	-90.407	-85.823	-82.652	140.760	-87.416	-8191	255	
1208.657	1	1	0	0	0.12958	0.11355	0.33001	0.35318	0.093376	0.044029	0.015937	0.043029	0.13568	0.089559	0.21437	0.12366	0.30879	0.044434	0.039709	0.048301	-0.44167	-0.54792	-1.0438	-0.71458	-0.9125	-1.4021	-0.47083	-1.3604	-1.0063	-0.84375	-1.2542	-0.8375	-0.96875	-1.4354	-0.56875	-1.3125	-64.636	171.599	-2.530	157.825	238.048	187.277	-72.945	-64.035	20.694	59.897	-65.900	-70.850	-18.557	-97.823	-64.558	141.835	0.00043838	0.0017334	0.00010573	455.1	5.9261e-06	1.9706e-05	510.51	220.54	8.8288e-06	1.6837e-05	253.42	108.69	105.29	59.246	6.3586e-06	62.574	0.0076178	0.008177	0.0022881	788.56	8.9299e-05	9.0632e-05	797.79	304.52	8.9803e-05	8.8785e-05	408.48	163.16	174.91	73.357	8.8951e-05	82.444	248.259	82.418	200.852	-96.190	224.769	150.311	-97.428	-90.507	5.087	250.798	-94.354	-90.448	-85.686	-82.551	136.618	-87.153	-8191	255	
1208.731	1	1	0	0	0.1206	0.12379	0.085596	0.20674	0.14103	0.22287	0.41428	0.11637	0.21262	0.23918	0.16221	0.15352	0.27404	0.23474	0.16128	0.17569	-0.58333	-0.5875	-1.5229	-0.87917	-0.87083	-1.3708	-0.76875	-1.1812	-1.3229	-0.32292	-1.4979	-0.82708	-0.91458	-1.6917	-0.55208	-1.2917	154.174	152.111	27.994	189.587	223.495	173.173	176.183	169.908	185.425	-0.071	-83.978	-103.067	115.586	222.527	249.050	-95.825	0.00027486	0.00025019	0.00028059	452.11	1.1045e-05	2.6336e-05	512.91	220.8	4.5464e-06	1.0637e-05	252.57	109.5	104.67	59.296	1.4627e-05	62.806	0.0075491	0.0081693	0.0022872	788.05	8.9741e-05	9.0827e-05	800.41	305.26	9.087e-05	9.128e-05	413.03	165.36	176.93	73.965	9.2493e-05	83.44	214.229	204.197	145.789	-95.983	124.514	102.960	-97.305	-90.364	184.065	111.551	-94.049	-90.508	-85.341	-82.615	-73.298	-87.261	-8191	255	
1208.827	1	1	0	0	0.21032	0.19881	0.23426	0.17076	0.23313	0.25427	0.22343	0.096134	0.2269	0.34882	0.37939	0.11774	0.30446	0.072109	0.070138	0.24638	-0.7875	-0.55625	-1.2313	-1.0167	-0.64792	-1.1792	-0.59792	-1.2708	-1.1604	-0.4875	-1.6583	-0.85	-0.825	-1.5938	-0.55208	-1.1938	40.898	-25.715	-82.870	9.763	217.972	-50.856	246.907	79.164	125.036	219.579	-17.379	210.316	90.635	146.785	205.372	-58.733	0.00023468	0.0011973	0.00037141	454.88	1.0851e-05	1.3548e-05	515.08	221.03	8.6291e-06	2.6239e-05	256.91	110.28	105.31	59.713	1.1641e-05	63.434	0.007775	0.0083762	0.0023318	794.33	9.0919e-05	9.234e-05	810.25	307.89	9.1908e-05	9.2488e-05	417.54	166.9	178.37	74.628	9.3463e-05	84.293	218.563	5.874	-56.483	-96.227	-15.642	15.946	-98.253	-90.525	-72.048	-81.695	-94.028	-90.626	-86.107	-82.599	235.979	-87.304	-8191	255	
1208.948	1	1	0	0	0.087793	0.31658	0.16196	0.31689	0.18068	0.15098	0.27127	0.30296	0.17616	0.2275	0.22946	0.026314	0.086475	0.14734	0.27573	0.12943	-0.90833	-0.58542	-1.0271	-1.1083	-0.69375	-1.3417	-0.8	-1.2042	-1.3646	-0.56875	-1.1917	-1.0833	-0.72083	-1.6542	-0.58333	-0.98958	227.566	204.457	-74.839	72.339	123.156	44.115	166.425	-68.757	-26.137	83.117	17.180	11.877	214.433	165.264	4.920	170.527	0.00037545	0.0021991	0.00061315	449.28	9.0839e-06	2.0305e-05	516.64	221.57	7.4749e-06	8.8508e-06	256.69	111.36	104.85	59.652	1.0194e-05	63.126	0.0077927	0.008496	0.0023543	799.04	9.2297e-05	9.3722e-05	817.29	309.6	9.377e-05	9.5603e-05	422.73	169.07	180.31	74.936	9.6911e-05	85.09	239.731	183.837	228.766	-96.399	210.989	-73.740	-97.580	-89.983	75.073	159.158	-94.414	-90.417	-86.276	-82.370	154.808	-87.339	-8191	255	
1209.042	1	1	0	0	0.14411	0.12116	0.35395	0.10526	0.073032	0.1461	0.23477	0.11542	0.17531	0.26248	0.10362	0.15011	0.16688	0.30801	0.17489	0.089099	-0.98333	-0.37708	-1.2771	-1.1125	-0.44583	-1.3229	-1.1354	-0.66667	-1.1708	-0.67292	-1.2042	-1.3583	-0.65417	-1.4396	-0.72292	-0.8125	-54.432	98.327	70.476	-89.562	69.898	68.211	245.340	233.794	83.956	180.324	218.571	-64.542	-76.811	47.014	77.151	62.039	0.00044695	0.00114	0.000333	450.82	1.0284e-05	1.93e-05	513.73	220.84	4.1814e-06	2.2592e-05	252.59	109.82	104.22	58.486	1.6325e-05	61.807	0.0080706	0.0088633	0.0024507	811.35	9.6005e-05	9.7099e-05	828.38	312.59	9.7035e-05	9.954e-05	428.8	170.71	184.45	74.953	0.00010346	85.092	232.210	46.027	133.661	-95.997	-64.635	151.707	-97.691	-90.139	-5.454	145.575	-93.779	-90.321	-86.194	-82.620	-81.552	-87.286	-8191	255	
1209.138	1	1	0	0	0.13804	0.13755	0.35211	0.33166	0.039192	0.19112	0.094327	0.37833	0.14659	0.14496	0.071875	0.23808	0.085738	0.11567	0.14357	0.063333	-1.2271	-0.85833	-0.99792	-1.3792	-0.38125	-1.2646	-1.1021	-0.70833	-1.4562	-0.68125	-1.1562	-1.5292	-0.70417	-1.3771	-0.90417	-0.7875	179.463	181.607	-8.829	160.500	-33.726	-38.719	-73.718	198.698	208.677	202.972	-2.110	130.203	-45.391	-83.082	176.021	77.720	0.00030402	0.0017145	0.00053998	448.09	1.4871e-05	9.1776e-06	506.99	218.87	1.3658e-05	4.8654e-06	248.46	108.52	104.73	58.199	1.5954e-05	61.489	0.008551	0.0094614	0.0025983	828.6	0.00010109	0.0001016	834.7	314.01	9.9104e-05	0.00010154	427.87	168.73	182.88	74.385	0.0001002	84.067	188.698	55.568	205.072	-95.847	37.723	77.659	-98.175	-90.529	98.496	34.071	-94.402	-90.635	-85.994	-82.480	-2.647	-87.616	-8191	255	
1209.234	1	1	0	0	0.21036	0.13722	0.092379	0.16469	0.034412	0.081944	0.3368	0.12733	0.043855	0.066937	0.18019	0.14683	0.21803	0.29055	0.23402	0.21188	-1.025	-0.775	-0.73333	-1.5688	-0.68125	-1.1437	-1.1083	-0.55625	-1.1479	-0.92917	-0.77708	-1.5875	-0.84792	-1.1688	-1.0938	-0.68958	-96.233	232.872	-89.358	64.697	-85.117	1.166	158.760	161.555	41.090	250.736	-81.547	39.889	189.084	185.220	-0.357	211.832	0.00046208	0.00021911	0.00042432	447.17	2.1654e-06	3.1862e-05	503.68	217.51	2.4041e-06	1.1744e-05	248.94	106.75	102.85	58.168	1.0043e-05	61.278	0.0083144	0.009194	0.0025397	819.13	0.00010076	0.00010183	838	316.04	0.00010302	0.0001069	438.34	172.78	189.63	75.586	0.0001095	86.11	214.763	212.340	38.582	-95.967	66.633	81.675	-97.924	-90.377	27.495	189.316	-94.020	-90.530	-85.813	-82.467	-53.939	-87.372	-8191	255	
1209.330	1	1	0	0	0.14309	0.39483	0.15573	0.050263	0.39355	0.18449	0.10387	0.13814	0.15449	0.28143	0.35323	0.099636	0.21252	0.19967	0.15	0.070423	-0.81875	-0.92083	-0.69792	-1.3125	-0.50833	-0.90625	-1.2604	-0.58125	-1.1896	-0.84583	-0.79583	-1.2875	-0.54167	-1.3021	-1.2354	-0.58958	175.833	-18.070	-69.322	100.429	227.625	87.347	224.992	189.400	150.805	-57.529	211.843	231.262	-79.413	-51.374	220.107	-49.936	0.00043569	0.0012326	0.00071725	449.09	1.144e-05	2.6403e-05	508.7	219.21	7.2088e-06	9.3104e-06	249.02	108.48	103.3	58.187	1.0476e-05	62.315	0.0090597	0.01001	0.0027531	850.68	0.00010846	0.00010818	856.96	320.7	0.00010611	0.00010941	441.39	173.83	190.26	75.956	0.00010937	87.159	192.124	-81.473	2.648	-96.096	21.241	57.615	-97.952	-90.520	-72.180	98.612	-94.424	-90.262	-85.942	-82.384	173.166	-87.409	-8191	255	
1209.427	1	1	0	0	0.24589	0.14214	0.11285	0.23452	0.12535	0.15355	0.35583	0.023474	0.20112	0.058317	0.084307	0.19442	0.013056	0.17371	0.32524	0.22886	-1.0792	-0.86458	-0.57292	-1.2979	-0.70625	-0.85	-1.3563	-0.60625	-1.1521	-1.15	-0.6125	-1.3083	-1.0042	-1.0396	-1.4167	-0.80833	-103.298	-70.880	131.936	247.423	54.277	-22.540	167.859	205.285	-43.225	41.042	-106.834	142.739	-84.121	-97.663	246.095	221.823	0.00038224	0.000358	0.00054335	450	6.4449e-06	3.3759e-05	506.46	218.02	1.1697e-05	3.5349e-06	249.77	107.67	102.4	57.831	1.6318e-05	61.247	0.009236	0.01037	0.0028733	873.1	0.00011568	0.00011604	886.69	330.95	0.00011659	0.00012032	463.1	181.08	199.71	77.414	0.0001199	89.245	-107.422	94.613	168.007	-96.447	230.392	81.142	-98.095	-90.431	-77.430	-28.102	-94.478	-90.458	-86.148	-82.576	-73.479	-87.799	-8191	255	
1209.547	1	1	0	0	0.11394	0.076655	0.37293	0.030208	0.17134	0.25239	0.082344	0.2013	0.16799	0.062641	0.355	0.045065	0.32838	0.060672	0.21913	0.020227	-0.82708	-1.1437	-0.46042	-1.5312	-0.675	-0.79167	-1.5417	-0.70625	-1.1063	-1.0792	-0.61875	-1.3021	-0.86042	-0.87083	-1.3708	-0.56458	104.316	85.214	181.574	-22.012	-29.533	25.989	142.425	124.732	-66.336	251.197	224.332	125.954	201.494	-78.579	93.158	71.641	0.00010036	0.0024604	0.00040379	442.29	1.9145e-05	1.5624e-05	504.28	216.53	4.4853e-06	3.8589e-06	247.21	107.1	101.34	57.732	2.028e-05	60.437	0.010018	0.011103	0.0030558	893.08	0.00012117	0.00012083	893.86	332.52	0.0001181	0.00012053	460.67	179.53	197.98	76.874	0.00011722	87.87	-91.120	-65.327	19.721	-96.254	131.390	-31.496	-97.873	-90.623	56.568	-66.045	-94.365	-90.322	-86.131	-82.677	88.808	-87.973	-8191	255	
1209.643	1	1	0	0	0.1539	0.081931	0.2192	0.076829	0.14927	0.16028	0.40223	0.26558	0.072845	0.10458	0.40058	0.24872	0.36888	0.27164	0.30396	0.14524	-0.69375	-1.2104	-0.66667	-1.3354	-0.83958	-0.66042	-1.5646	-0.94792	-0.97292	-1.4625	-0.55833	-1.5	-0.72708	-0.75208	-1.3062	-0.85208	95.282	206.302	-93.882	183.102	50.969	106.279	228.307	142.098	105.845	-79.190	247.839	198.020	-84.391	-27.294	106.029	209.694	0.0001775	0.0025243	0.0001054	444.38	1.9246e-05	1.1564e-05	499.55	215.67	1.138e-05	2.0556e-05	247.07	106.28	101.56	57.884	1.1252e-05	60.208	0.009761	0.010808	0.0029826	879.97	0.00011798	0.00011765	882.02	329.55	0.00011611	0.00011931	458.98	178.86	198.32	76.869	0.00011941	88.377	223.672	160.684	107.745	-96.243	76.028	-2.225	-98.224	-90.821	-68.896	134.395	-94.248	-90.173	-86.183	-82.754	-80.763	-87.653	-8191	255	
1209.740	1	1	0	0	0.17668	0.23851	0.18363	0.23407	0.082684	0.11456	0.24679	0.31059	0.11711	0.10494	0.16248	0.1664	0.23503	0.25309	0.10956	0.17236	-0.575	-1.2917	-0.62708	-1.3	-0.875	-0.61042	-1.4188	-0.9625	-1.0646	-1.4083	-0.66667	-1.2313	-1.2	-0.87083	-1.4458	-0.74792	170.458	220.362	159.796	-100.695	78.280	124.781	-93.142	188.430	57.124	156.119	183.158	-60.200	151.832	249.746	-84.764	32.849	0.00024615	0.0021521	0.00059895	441	1.8889e-05	2.9286e-05	499.39	215.73	5.2448e-06	2.1095e-05	246.57	106.75	102.36	57.281	2.5254e-06	60.689	0.010001	0.011101	0.0030961	894.36	0.00012166	0.00012087	890.27	332.01	0.00011751	0.00012034	463.75	180.38	199.61	77.388	0.00012167	89.662	-87.987	-74.448	117.943	-96.440	-72.746	-3.299	-97.990	-90.954	202.003	66.238	-94.791	-90.456	-86.227	-82.640	6.440	-87.641	-8191	255	
1209.834	1	1	0	0	0.12876	0.21409	0.017102	0.15292	0.078612	0.20517	0.09759	0.15428	0.1349	0.061393	0.20813	0.25705	0.14074	0.1664	0.12593	0.2504	-0.4875	-1.2146	-0.59167	-1.0396	-1.1833	-0.47292	-1.7021	-0.96458	-0.7875	-1.4354	-0.57708	-1.2938	-1.35	-0.70417	-1.3729	-0.99167	-84.339	-14.259	-25.952	202.058	245.846	29.643	-79.797	195.375	184.949	224.009	171.935	-95.364	42.756	-18.137	92.122	101.710	0.00019855	0.0014608	0.00083927	447.82	7.6872e-06	1.9978e-05	501.76	215.82	1.9307e-06	2.0285e-05	247.83	106.41	101.97	57.08	1.2435e-05	60.475	0.010241	0.011356	0.0031921	908.99	0.00012477	0.00012492	907.2	337.65	0.00012458	0.00012799	482.48	186.51	207.6	79.031	0.00013283	92.228	-73.957	206.093	14.077	-96.480	106.028	-106.731	-98.382	-90.801	87.800	86.606	-94.892	-90.634	-86.984	-82.780	-15.404	-87.587	-8191	255	
1209.907	1	1	0	0	0.19355	0.1796	0.21069	0.30744	0.24232	0.13388	0.21439	0.29403	0.23348	0.27024	0.12849	0.19774	0.11223	0.12976	0.22154	0.12352	-0.079167	-1.6375	-0.66667	-1.1708	-1.2604	-0.475	-1.3583	-0.98958	-0.77708	-1.3146	-0.7375	-1.1375	-1.0875	-0.75833	-1.1063	-1.0938	111.505	-1.792	-63.463	210.514	35.955	106.592	-50.433	156.446	134.211	227.312	14.320	170.015	190.409	112.419	19.887	107.188	0.00071124	0.0033028	0.00098232	442.98	2.4745e-05	4.487e-06	499.01	214.88	1.5256e-05	1.8766e-05	244.5	105.67	101.6	56.934	1.1599e-05	59.443	0.011137	0.012319	0.0034629	944.36	0.00013389	0.00013455	932.59	344.42	0.00013153	0.0001338	490.12	187.93	209.5	79.152	0.00013404	91.657	218.840	-105.987	4.130	-96.462	41.228	-80.079	-97.968	-90.901	169.522	-54.563	-95.111	-90.872	-86.445	-82.779	87.721	-87.906	-8191	255	
1210.026	1	1	0	0	0.12841	0.17424	0.10281	0.27201	0.17306	0.1148	0.075742	0.37153	0.26154	0.13009	0.020817	0.080661	0.093962	0.071974	0.16813	0.33275	-0.16458	-1.3646	-0.6375	-0.92708	-1.2208	-0.53333	-1.35	-1.0896	-0.55	-1.3333	-0.79167	-0.72083	-1.3354	-0.68333	-1.1729	-1.2854	-50.729	190.009	148.211	234.352	152.550	186.950	-106.162	157.607	146.247	-97.351	120.028	-94.120	226.745	-71.909	-76.928	-62.811	0.00040812	0.0011752	0.00080281	440.31	2.8342e-05	1.45e-05	501.71	214.31	2.0099e-05	1.8425e-05	240.72	104.11	101.8	55.991	1.6872e-05	58.488	0.011251	0.012441	0.0035122	952.06	0.00013619	0.00013805	943.12	346.47	0.00013546	0.00013743	492.73	188.46	211.28	79.032	0.00013648	91.415	213.161	6.879	199.345	-96.072	47.518	66.728	-98.439	-91.154	-105.887	118.021	-94.683	-90.073	-86.708	-83.197	216.194	-87.964	-8191	255	
1210.122	1	1	0	0	0.10271	0.21558	0.17189	0.10965	0.24935	0.16139	0.070216	0.20759	0.16373	0.051218	0.28396	0.079386	0.03832	0.17268	0.21528	0.24114	-0.30625	-1.2938	-0.93958	-0.60833	-1.4542	-0.76042	-1.1771	-1.275	-0.46875	-1.3604	-0.84583	-0.91667	-1.4021	-0.73125	-0.91875	-1.2792	4.842	98.150	-33.254	-85.856	29.712	237.744	169.200	213.427	2.013	-64.262	125.352	33.156	67.924	173.797	37.847	112.948	0.0004528	0.0012301	0.00035402	438.47	3.3349e-06	5.6216e-06	493.26	211.31	7.0344e-06	3.4362e-05	239.5	103.52	99.677	55.578	1.9421e-05	58.432	0.011495	0.012676	0.0035833	963.97	0.00014059	0.00014341	956.36	351.14	0.00014245	0.0001447	506.59	192.82	217.19	80.195	0.00014407	93.099	215.581	109.943	150.517	-96.318	-66.137	90.202	-98.516	-90.858	139.059	50.054	-94.842	-90.652	-86.138	-83.109	9.319	-87.900	-8191	255	
1210.219	1	1	0	0	0.068884	0.1181	0.18689	0.21494	0.076073	0.24989	0.30103	0.15506	0.013082	0.2312	0.17962	0.082384	0.20751	0.15777	0.21723	0.22686	0.022917	-1.2729	-0.7125	-0.61667	-1.4917	-0.46042	-0.93958	-1.2583	-0.43125	-1.1646	-1.0792	-0.67292	-1.3083	-0.92708	-0.7	-1.5417	-108.107	238.964	154.975	-89.135	-14.721	82.927	144.335	100.540	79.248	147.538	-66.666	-66.229	243.647	220.600	13.750	210.517	0.00028756	0.0032192	0.00058464	437.01	8.6093e-06	2.5173e-05	494.23	209.89	3.2416e-06	1.2745e-05	239.2	103.41	100.17	55.877	1.5166e-05	58.683	0.01214	0.013264	0.0037419	986.65	0.00014511	0.00014827	971.9	355.12	0.00014611	0.00014723	511.58	195.02	219.15	80.625	0.00014605	93.753	239.447	183.288	-61.415	-96.463	136.577	230.242	-98.631	-91.140	105.047	-64.903	-94.608	-90.401	-86.916	-83.044	71.312	-87.889	-8191	255	
1210.339	1	1	0	0	0.089644	0.18199	0.039749	0.43685	0.25621	0.21495	0.2151	0.19749	0.19119	0.29586	0.24509	0.31452	0.23261	0.098834	0.18253	0.16173	-0.1125	-1.2062	-1.0833	-0.49167	-1.3521	-0.75833	-0.9875	-1.4021	-0.2625	-1.175	-1.1021	-0.72083	-1.3708	-0.99792	-0.7	-1.4854	-36.083	-77.687	54.022	-60.591	25.378	54.473	172.108	90.739	62.145	130.521	-71.692	180.100	-41.499	-75.326	225.213	219.686	0.000433	0.00037852	0.00079054	441.46	3.8746e-06	4.3521e-06	498.65	211.29	3.9888e-06	3.4501e-07	240.88	103.54	99.324	55.432	9.8541e-07	58.912	0.012419	0.013555	0.0038359	1003.7	0.00014881	0.0001519	982.86	357.69	0.00014898	0.00014933	515.79	196.76	220.39	80.861	0.00014849	94.173	215.959	-59.811	83.649	-96.720	-21.509	211.775	-97.958	-90.899	127.395	6.377	-94.653	-90.500	-86.584	-83.033	-72.298	-87.812	-8191	255	
1210.435	1	1	0	0	0.17509	0.077596	0.20296	0.15727	0.20264	0.022266	0.23674	0.16477	0.21421	0.079278	0.24206	0.031263	0.099613	0.15502	0.32319	0.30607	-0.42083	-1.0125	-0.96875	-0.80625	-1.5021	-1.0521	-0.90625	-1.4208	-0.90417	-0.99375	-1.5042	-0.77708	-1.5542	-1.0521	-0.60208	-1.5396	71.057	243.365	223.491	-20.885	-40.279	155.760	68.620	-55.708	12.564	-55.010	244.275	156.074	200.548	191.156	-9.997	189.965	0.00026436	0.0013936	0.00017882	439.56	1.0648e-05	2.9594e-05	491.85	211.82	4.2347e-06	2.9678e-05	240.47	103.88	100.28	55.485	1.9687e-05	58.429	0.012572	0.013581	0.0038421	1004.8	0.00014885	0.0001522	984.4	358.43	0.00015035	0.00015017	515.74	197.16	220.9	80.733	0.00014842	93.788	-105.532	-90.924	-24.578	-96.507	41.139	-18.625	-98.499	-90.980	-75.811	166.101	-94.682	-90.619	-86.826	-82.890	60.888	-87.785	-8191	255	
1210.531	1	1	0	0	0.1054	0.20413	0.16146	0.27919	0.11779	0.26101	0.099557	0.090874	0.33436	0.18666	0.083802	0.20006	0.044016	0.090811	0.12603	0.35354	-0.48125	-0.82083	-1.1354	-0.45417	-1.3375	-1.1792	-0.66667	-1.5729	-0.84792	-0.84375	-1.1708	-0.81042	-1.0625	-1.2833	-0.42292	-1.5021	-45.141	-47.628	243.845	194.201	-76.714	101.793	124.217	139.666	23.218	248.445	125.454	-54.101	-85.018	223.467	67.993	88.172	0.0002811	0.00086778	0.00080445	441.3	1.3041e-05	3.03e-05	493.51	210.8	2.4929e-05	1.0895e-05	240.43	103.41	100.06	55.558	1.1944e-05	57.843	0.012529	0.013512	0.0037976	999.71	0.00014686	0.00015022	977.31	355.63	0.00014936	0.0001488	512.17	196.02	219.19	80.441	0.00014788	93.135	219.553	-100.380	11.580	-96.243	-2.591	45.127	-97.882	-91.235	94.699	55.427	-95.157	-90.543	-85.982	-83.015	-5.328	-87.807	-8191	255	
1210.628	1	1	0	0	0.33947	0.060989	0.22418	0.11443	0.14214	0.16124	0.33617	0.12918	0.33049	0.24413	0.021882	0.18739	0.060156	0.21672	0.13264	0.08443	-0.53333	-0.8375	-1.1854	-0.49167	-1.1167	-1.2687	-0.61875	-1.2979	-1.0625	-0.73542	-1.5875	-0.59792	-0.95833	-1.3229	-0.45208	-1.6021	168.596	-41.438	68.355	61.595	146.091	142.857	187.324	157.139	138.654	-25.304	118.560	204.206	96.767	-91.890	17.934	226.141	0.00018558	0.0010844	0.0003945	436.99	1.2154e-05	3.0324e-05	493.31	210.45	1.4157e-05	3.2253e-05	239.82	102.87	98.582	55.41	1.6801e-05	58.284	0.012457	0.01345	0.0037956	1002.3	0.00014789	0.00015234	990.13	359.71	0.00015469	0.00015639	527.88	201.99	226.87	82.255	0.00015913	96.075	225.132	235.294	149.288	-96.637	106.112	-31.146	-98.487	-90.612	-89.032	22.895	-94.668	-90.812	-86.450	-82.479	-19.571	-87.790	-8191	255	
1210.724	1	1	0	0	0.039736	0.23107	0.25917	0.2538	0.1027	0.26507	0.086512	0.054152	0.0058096	0.13315	0.39844	0.13391	0.15535	0.078055	0.14447	0.18034	-0.61667	-0.7	-1.2792	-0.87083	-0.95	-1.2708	-0.54583	-1.3417	-1.0104	-0.56458	-1.5583	-0.7375	-0.8625	-1.5271	-0.56042	-1.2458	-98.909	77.718	-28.490	132.752	-15.237	108.809	205.106	197.948	-32.419	6.975	224.759	178.649	211.838	92.368	4.398	225.005	0.00044115	0.00077413	0.00066664	438.43	1.2888e-05	1.6723e-05	489.12	211.4	7.8675e-06	2.939e-05	241.77	103.61	99.821	55.878	1.4515e-05	58.819	0.013397	0.014483	0.0040656	1043.5	0.0001572	0.00016001	1015.6	364.69	0.00015653	0.00015669	525.96	201.41	225.32	82.13	0.00015744	96.169	199.243	164.316	7.131	-97.015	101.554	153.366	-98.159	-90.793	-90.311	121.079	-95.268	-90.724	-86.156	-83.245	34.875	-87.763	-8191	255	
1210.820	1	1	0	0	0.29064	0.14188	0.2131	0.19934	0.13514	0.3331	0.17874	0.1104	0.14081	0.10939	0.14296	0.35078	0.23636	0.30589	0.042439	0.02812	-0.64583	-0.72708	-1.325	-0.92083	-0.99583	-1.1625	-0.66458	-1.3646	-1.1187	-0.65833	-1.3813	-0.99583	-0.79375	-1.7125	-0.49792	-1.4521	215.220	-84.894	40.369	195.463	159.716	114.335	170.467	156.081	125.021	49.017	-13.769	92.900	-14.788	-99.256	158.305	154.243	0.00052455	0.0022412	0.00031847	441.68	4.6573e-06	2.8338e-05	495.46	210.97	2.4293e-05	1.5558e-06	241.82	103.59	99.451	55.546	6.8455e-06	58.374	0.013335	0.014576	0.0040678	1049.8	0.00015795	0.00016187	1025.3	366.94	0.00016001	0.00016165	534.5	204.46	229.17	82.704	0.0001621	96.697	187.032	-27.473	-32.250	-96.723	-107.238	107.900	-98.610	-90.915	-1.481	-80.801	-94.848	-90.738	-86.239	-83.031	-9.133	-87.482	-8191	255	
1210.916	1	1	0	0	0.26368	0.045723	0.056373	0.22373	0.20354	0.074281	0.3777	0.31639	0.099681	0.1498	0.11748	0.11303	0.087555	0.37572	0.15466	0.21405	-0.72292	-0.59583	-1.3417	-0.82083	-0.77917	-1.2625	-0.61667	-1.4146	-1.2687	-0.52083	-1.5479	-0.98542	-0.87292	-1.4375	-0.65417	-1.2313	-46.007	-80.764	145.577	137.137	15.077	109.355	-93.697	157.347	64.090	33.657	194.500	163.194	34.773	-90.151	19.867	197.873	0.00030529	0.0011121	8.0684e-05	438.28	1.9652e-05	1.5343e-05	494	209.17	1.2006e-05	1.2249e-05	238.56	101.63	98.398	55.29	1.3647e-05	58.018	0.013602	0.014822	0.0041192	1054.9	0.00016086	0.00016348	1029.1	367	0.00016109	0.00016253	534.19	203.4	228.83	82.283	0.0001619	96.059	236.462	202.202	186.075	-96.787	-59.043	228.461	-99.058	-90.886	73.934	126.282	-95.118	-90.421	-86.160	-83.005	-45.997	-87.731	-8191	255	
1211.035	1	1	0	0	0.062106	0.18792	0.24296	0.29035	0.079847	0.15926	0.19921	0.13181	0.18793	0.15712	0.23473	0.15115	0.14619	0.28245	0.11747	0.239	-1.1104	-0.53125	-1.4521	-0.87083	-0.73542	-1.4792	-0.81875	-1.2188	-1.4229	-0.45417	-1.2667	-1.2104	-0.78542	-1.625	-0.78542	-0.90625	17.383	14.324	140.415	174.811	-81.379	101.150	215.288	86.069	98.625	-19.573	-71.136	-94.265	23.163	-59.978	178.141	241.826	0.00012812	0.00043639	0.00053765	437.4	1.2334e-05	1.5678e-05	487.48	209.2	1.0244e-05	1.431e-05	237.19	100.89	97.85	54.956	2.7673e-05	57.378	0.013661	0.01503	0.0041898	1066.2	0.00016577	0.0001686	1046.9	373.35	0.00016809	0.00017052	545.3	207.11	234.52	83.137	0.00016865	97.162	191.603	-93.689	200.763	-96.689	229.660	7.801	-98.081	-91.182	221.604	-20.452	-94.784	-90.965	-87.161	-82.870	68.031	-88.120	-8191	255	
1211.131	1	1	0	0	0.2266	0.26635	0.086775	0.35924	0.060229	0.20924	0.14745	0.2447	0.079315	0.24217	0.094401	0.12066	0.25544	0.48018	0.26778	0.24072	-0.91875	-0.37083	-1.1375	-0.96042	-0.57917	-1.2979	-1.1354	-0.72083	-1.3604	-0.42292	-1.3292	-1.1146	-0.66042	-1.5542	-0.73958	-0.8375	203.241	203.216	52.197	-63.182	154.135	122.176	-30.687	-91.476	109.588	194.725	85.118	231.636	250.598	-80.951	235.189	172.805	0.00021324	0.0016934	0.00047624	433.82	1.0318e-05	1.1732e-05	486.99	209.12	3.1098e-06	2.223e-05	236.38	101.38	98.585	55.066	1.479e-05	57.943	0.014006	0.015337	0.004219	1069.5	0.00016599	0.00016694	1039.7	371.55	0.0001661	0.00016874	543.02	207.89	235.64	83.431	0.00016942	97.998	190.795	-1.633	-44.963	-96.476	14.629	30.892	-99.002	-90.898	-17.095	233.472	-94.801	-90.718	-86.038	-82.820	-64.882	-87.653	-8191	255	
1211.203	1	1	0	0	0.36085	0.23555	0.2384	0.27752	0.1791	0.19491	0.32497	0.11092	0.3566	0.082468	0.15526	0.14377	0.21515	0.068669	0.26648	0.11811	-1.1479	-0.58958	-1.0646	-1.3979	-0.64167	-1.475	-0.96667	-0.75208	-1.4833	-0.38333	-1.2958	-1.4083	-0.39375	-1.4688	-0.91458	-0.86875	102.199	176.957	156.499	247.025	87.160	-63.163	121.490	-17.468	117.082	41.340	243.840	-40.488	47.578	129.853	77.728	56.994	0.00037605	0.0012286	0.00021811	433.74	2.0608e-05	2.828e-05	490.28	209.71	2.7894e-05	1.867e-05	238.86	101.51	99.537	54.792	1.3927e-05	57.724	0.014129	0.015577	0.0043104	1086.4	0.00017191	0.00017305	1067.2	380.49	0.00017374	0.00017708	557.22	212.16	241.41	84.197	0.00017456	99.358	188.954	69.095	22.475	-96.953	-20.221	72.179	-98.795	-90.955	144.585	77.030	-94.545	-91.079	-86.780	-82.838	-103.446	-87.819	-8191	255	
1211.323	1	1	0	0	0.18638	0.23076	0.0021604	0.11429	0.16206	0.1493	0.074759	0.38257	0.2274	0.034078	0.078661	0.21232	0.1454	0.14382	0.069608	0.091815	-1.0312	-0.58125	-0.89375	-1.4396	-0.44375	-1.2854	-1.1187	-0.80208	-1.4896	-0.71875	-0.96458	-1.4625	-0.76667	-1.3271	-1.1667	-0.64792	198.029	-0.751	180.000	82.290	-43.992	-12.537	155.062	-91.988	-45.261	184.226	185.302	165.954	189.763	-35.672	229.623	233.347	0.00032563	0.002212	0.00016054	438.8	1.1891e-05	3.0729e-05	488.44	209.61	2.4234e-05	1.2658e-05	236.88	100.5	97.84	54.66	1.1634e-05	57.258	0.01445	0.015924	0.0043697	1091.9	0.00017147	0.000171	1055.5	376.9	0.00016934	0.00017308	551.66	210.4	240.25	83.931	0.00017577	99.079	-86.807	-57.152	43.314	-97.137	171.295	1.748	-98.676	-91.116	6.982	134.577	-94.979	-91.098	-86.040	-82.834	205.998	-87.776	-8191	255	
1211.420	1	1	0	0	0.21187	0.19582	0.10947	0.11152	0.043148	0.11364	0.31142	0.22838	0.064578	0.035845	0.24869	0.14599	0.44538	0.27637	0.45151	0.13881	-1.05	-0.81875	-0.84583	-1.4583	-0.65833	-1.2854	-1.1313	-0.80208	-1.2208	-0.95417	-0.81667	-1.5417	-0.59583	-1.2771	-1.2792	-0.57292	72.644	78.597	118.341	-74.960	185.823	198.624	-106.068	200.099	32.534	62.079	9.269	153.105	109.206	-105.484	10.111	118.622	0.00026876	0.002383	0.00058011	433.52	1.6096e-05	2.6396e-05	488.73	208.99	1.2832e-05	1.7107e-05	235.63	100.41	98.715	54.727	1.9102e-05	56.904	0.014615	0.01615	0.0044584	1099.1	0.00017516	0.00017427	1064.8	379.09	0.00017082	0.00017425	552.06	208.8	237.58	82.983	0.00017039	97.738	187.841	-41.927	-34.823	-96.716	-71.484	107.917	-97.960	-91.020	-21.390	134.503	-95.009	-90.502	-86.844	-82.814	-13.610	-87.658	-8191	255	
1211.516	1	1	0	0	0.12389	0.29543	0.20368	0.26557	0.011773	0.21526	0.098139	0.1544	0.13891	0.14175	0.2894	0.19815	0.23753	0.11891	0.2035	0.085537	-0.95625	-0.91875	-0.62083	-1.3646	-0.78125	-0.95417	-1.3062	-0.7125	-1.3917	-1.0208	-0.71458	-1.5083	-0.7875	-1.0833	-1.25	-0.73958	-101.280	3.731	69.426	55.608	175.784	-103.354	202.975	112.511	238.639	171.185	201.813	78.686	-18.823	-94.410	227.106	-74.688	0.00020928	0.00075915	4.5632e-05	432.67	1.0732e-05	1.747e-05	487.29	207.39	1.2651e-05	3.6699e-05	234.5	100.89	98.372	54.54	1.249e-05	57.239	0.014035	0.015566	0.0042991	1073.7	0.00016923	0.00016903	1048.1	374.37	0.00016728	0.00017213	549.09	208.56	239.7	83.986	0.00017631	99.66	182.965	-72.597	249.294	-96.011	-30.930	167.725	-98.473	-90.696	-19.052	-23.505	-94.836	-91.145	-87.125	-82.690	-45.362	-88.067	-8191	255	
1211.612	1	1	0	0	0.24793	0.029809	0.064255	0.12944	0.24297	0.087885	0.23746	0.19671	0.24234	0.25832	0.14253	0.2142	0.024082	0.22352	0.19682	0.25274	-0.80625	-1.0229	-0.33125	-1.5396	-0.73333	-1.025	-1.2167	-0.72083	-1.2021	-1.2458	-0.5	-1.6562	-0.6625	-0.9625	-1.4188	-0.57083	143.421	-57.163	249.267	18.876	-9.827	194.857	-31.565	205.985	22.142	85.716	250.201	156.617	238.101	-82.235	-22.666	110.420	0.0001708	0.0026577	0.00054766	431.58	2.8007e-06	1.8116e-05	486.41	208.7	2.729e-05	3.4498e-05	235.69	102.17	98.605	54.584	1.1687e-05	57.771	0.014708	0.016414	0.0045742	1112.3	0.00017976	0.0001801	1085	386.54	0.00017744	0.00018284	568.99	214.59	246.34	85.32	0.00018276	101.88	84.682	84.635	-64.980	-96.686	21.519	90.995	-98.170	-91.060	-28.358	-7.870	-94.238	-90.463	-86.302	-82.675	144.918	-87.718	-8191	255	
1211.731	1	1	0	0	0.13299	0.1145	0.10532	0.21616	0.11634	0.2559	0.082133	0.10888	0.46732	0.29909	0.21585	0.18821	0.05271	0.54363	0.063558	0.099236	-0.84792	-1.2625	-0.61042	-1.3479	-0.7625	-0.77917	-1.5438	-0.74167	-1.1021	-1.3167	-0.70625	-1.3208	-1.0292	-0.64792	-1.7604	-0.7875	129.505	48.354	134.117	-84.487	0.429	182.785	54.751	-86.737	207.978	243.690	135.420	-24.716	237.213	247.814	-16.417	143.643	0.00046841	0.0023771	0.00032721	430.27	9.6286e-06	2.1906e-05	488.85	207.01	2.4963e-05	1.3553e-05	236.74	102.23	97.372	54.597	2.3511e-05	57.304	0.015187	0.016957	0.0047219	1132.8	0.00018576	0.00018656	1106.7	391.53	0.00018301	0.00018844	581.6	218.07	251.98	86.446	0.00018824	103.09	137.528	5.081	29.716	-96.389	58.331	191.854	-97.805	-91.017	71.715	214.810	-94.707	-90.599	-86.999	-82.622	224.452	-87.696	-8191	255	
1211.827	1	1	0	0	0.35391	0.09607	0.061201	0.028324	0.053406	0.12386	0.40955	0.083972	0.27289	0.26864	0.28375	0.1764	0.17863	0.14847	0.14286	0.10975	-0.51875	-1.4917	-0.40625	-1.3542	-1.0146	-0.61667	-1.5438	-1.0562	-0.82292	-1.3083	-0.52917	-1.4125	-1.1917	-0.8125	-1.2313	-0.9125	-51.826	107.470	37.409	85.044	121.929	-81.817	242.055	84.720	7.100	-70.412	232.991	220.588	126.779	194.086	198.147	91.787	0.00027288	0.0011916	0.00095721	429.7	1.1588e-05	2.8134e-05	488.42	206.49	1.3252e-05	1.3176e-05	233.57	101.88	96.809	54.425	9.7502e-06	56.592	0.015664	0.017462	0.0048692	1151.9	0.00019149	0.00019265	1120.8	397.2	0.00018878	0.00019313	589.11	220.06	254.58	86.935	0.00019044	102.96	241.116	223.356	172.081	-96.212	149.988	-42.521	-98.044	-91.089	-104.836	-12.439	-94.549	-90.542	-86.384	-82.942	177.545	-87.472	-8191	255	
1211.900	1	1	0	0	0.097219	0.10643	0.17159	0.16131	0.10125	0.063938	0.25185	0.0073501	0.092339	0.23041	0.14012	0.080711	0.37505	0.23417	0.18021	0.21003	-0.36042	-1.6375	-0.43958	-1.0938	-1.0354	-0.44792	-1.7104	-0.9	-0.85208	-1.3479	-0.76458	-1.2083	-1.2646	-0.68125	-1.2938	-1.0917	-97.273	36.779	-64.149	-76.658	118.754	-51.581	222.365	224.526	76.294	55.012	132.333	-97.400	201.390	201.322	-59.001	172.203	0.0005871	0.0028093	0.00067156	436.58	2.277e-05	3.1133e-05	482.8	207.29	7.216e-06	2.1808e-05	233.69	101.89	98.263	54.187	1.983e-05	56.652	0.015864	0.017531	0.0048786	1148.1	0.00019003	0.00019034	1106.4	393.52	0.00018563	0.00018953	583.14	218.18	252.74	86.568	0.00018922	103.23	201.319	-64.575	-96.155	-95.732	186.826	248.094	-98.424	-90.871	166.760	-30.256	-94.884	-91.067	-86.267	-82.932	45.669	-87.845	-8191	255	
1211.996	1	1	0	0	0.15888	0.061833	0.094981	0.29614	0.27213	0.052148	0.42137	0.065214	0.066189	0.10552	0.28568	0.15836	0.29415	0.28038	0.16613	0.14369	-0.24792	-1.1542	-0.65833	-0.99583	-1.3771	-0.49375	-1.2687	-0.98542	-0.68542	-1.2979	-0.77083	-1.0187	-1.2708	-0.675	-1.2083	-1.0646	71.818	172.737	13.382	-99.497	118.953	42.173	118.194	-101.989	-40.116	-36.277	180.168	-92.068	-99.465	229.048	234.932	172.204	0.00042266	0.00087781	0.00061159	432.74	2.0076e-05	4.776e-05	486.42	208.98	5.9883e-06	1.1714e-05	236.8	101.03	97.859	54.799	1.6632e-05	57.92	0.016036	0.017675	0.0049388	1160.8	0.00019401	0.00019431	1120.7	399.65	0.00019169	0.000195	596.21	222.48	256.69	87.755	0.00019116	104.57	178.376	-1.925	-34.417	-96.955	19.530	14.219	-99.067	-90.831	213.379	-79.883	-94.903	-90.141	-86.590	-82.887	205.916	-87.823	-8191	255	
1212.115	1	1	0	0	0.20503	0.11751	0.11303	0.12699	0.30305	0.32927	0.16628	0.20395	0.1329	0.1293	0.027733	0.21593	0.23366	0.34379	0.24326	0.29577	-0.32708	-1.3896	-0.61042	-1.1875	-1.1458	-0.3375	-1.3146	-1.1688	-0.70625	-1.4271	-0.90417	-0.75208	-1.3937	-0.81875	-1.2854	-1.2396	140.391	96.768	120.210	22.116	136.989	230.438	140.106	210.099	119.697	160.400	-25.515	250.362	200.396	-102.895	-68.971	202.411	0.00034229	0.0014384	0.00038974	434.24	5.7705e-06	2.5905e-05	491.08	207.78	1.7577e-05	3.2572e-05	237.63	102.03	98.073	54.755	6.6625e-06	57.405	0.016112	0.017645	0.0049439	1165.9	0.00019389	0.00019571	1125.7	401.34	0.00019292	0.00019561	600.33	224.89	258.78	88.373	0.00019521	106.08	-108.047	-28.261	10.861	-96.125	7.025	0.662	-98.038	-90.974	197.238	-65.557	-94.736	-90.937	-86.408	-82.635	-12.111	-87.847	-8191	255	
1212.211	1	1	0	0	0.14288	0.094341	0.10018	0.25959	0.24901	0.26854	0.21897	0.26229	0.3189	0.27675	0.19811	0.15642	0.10868	0.093754	0.069942	0.29135	-0.36875	-1.375	-0.88125	-0.66042	-1.4042	-0.79583	-1.0375	-1.3625	-0.50208	-1.3646	-0.90833	-0.85	-1.4875	-0.80417	-1.1292	-1.4771	-15.281	206.905	-9.670	166.318	-92.089	213.612	187.864	214.349	149.371	194.377	179.203	232.632	141.840	16.018	236.119	144.946	0.0005345	0.00032494	0.00042616	434.1	1.3004e-05	1.2936e-05	490.38	208.47	1.2247e-05	1.7425e-05	237.24	101.58	97.662	54.611	3.1211e-05	57.516	0.01668	0.018209	0.0051446	1194.8	0.00020087	0.00020268	1147.4	406.73	0.00019794	0.00019899	605.24	225.76	259.32	88.378	0.00019559	105.3	210.864	77.137	69.808	-96.763	43.553	81.460	-98.451	-90.779	-9.513	9.893	-94.435	-90.530	-86.264	-82.929	99.182	-87.447	-8191	255	
1212.308	1	1	0	0	0.1688	0.24293	0.048266	0.21694	0.13356	0.28269	0.061583	0.052468	0.026478	0.27101	0.12046	0.31233	0.12103	0.2112	0.1968	0.13734	-0.25833	-1.3979	-0.83125	-0.65833	-1.2708	-0.57292	-1.0229	-1.4729	-0.45833	-1.3937	-0.96667	-0.7	-1.4708	-1.1979	-0.77292	-1.4146	-50.960	-13.250	-7.312	247.666	-88.657	18.773	97.134	241.684	84.952	105.934	-13.658	216.201	-17.280	-96.699	158.345	182.052	0.00028754	0.0030506	0.00054744	428.51	1.8871e-05	3.0805e-05	491.02	210.42	2.6754e-06	1.6742e-05	239.18	101.63	98.762	54.632	1.5204e-05	57.31	0.016419	0.017769	0.0049897	1166.5	0.00019063	0.00019191	1108.8	395.07	0.00018522	0.00018482	579.73	216.97	247.63	85.908	0.0001808	101.51	-45.012	-27.742	160.911	-96.178	66.561	142.486	-98.144	-90.978	86.715	103.334	-94.721	-90.291	-86.318	-82.970	-24.557	-87.431	-8191	255	
1212.428	1	1	0	0	0.11792	0.15311	0.022348	0.11474	0.072038	0.040834	0.39039	0.091928	0.056819	0.078503	0.11233	0.25428	0.095681	0.38633	0.42255	0.23539	0	-1.1562	-1.225	-0.75417	-1.3813	-0.67708	-1.1417	-1.6167	-0.73333	-1.3292	-1.0604	-0.57292	-1.5187	-1.0479	-0.55625	-1.4562	236.018	5.162	185.056	225.271	192.912	-77.480	189.536	-91.517	73.428	57.997	-2.632	-96.501	177.372	219.994	-30.394	191.882	0.00025193	0.0014565	0.000325	432.54	1.1453e-05	1.686e-05	487.17	208.88	1.4867e-05	3.6116e-06	236.93	101.94	99.149	54.814	7.4864e-06	57.897	0.015198	0.016475	0.0046557	1119.4	0.0001795	0.00018267	1084	388.51	0.00018028	0.00018187	578.53	217.62	248.24	86.524	0.00018484	102.32	208.388	236.597	72.497	-96.130	202.185	1.765	-98.497	-90.445	222.365	206.667	-94.719	-90.492	-86.308	-82.874	62.382	-87.549	-8191	255	
1212.500	1	1	0	0	0.078287	0.19922	0.26142	0.023141	0.1193	0.029914	0.12281	0.1195	0.21489	0.25268	0.23822	0.17312	0.18531	0.29603	0.080608	0.18832	-0.43958	-1.0625	-1.1292	-0.57083	-1.3604	-0.88542	-0.72708	-1.6	-0.68542	-1.2625	-1.2917	-0.55625	-1.4479	-1.05	-0.82708	-1.5938	90.790	-84.311	100.851	54.624	86.709	-81.860	75.647	245.193	129.314	9.937	89.800	-94.159	144.989	208.126	47.432	127.050	0.00049661	0.0027129	0.00036215	436.65	2.154e-05	8.3672e-06	492.35	209.1	9.629e-06	8.6823e-06	238.73	102.88	98.985	55.094	2.7896e-05	58.154	0.015466	0.016777	0.0047604	1138.2	0.00018239	0.00018642	1097.9	390.95	0.00018307	0.00018428	580.85	218.91	249.08	86.92	0.00018639	103.05	163.546	50.769	72.505	-96.176	118.300	-52.307	-98.103	-90.494	54.894	15.976	-95.115	-90.953	-85.972	-82.694	115.761	-87.536	-8191	255	
1212.596	1	1	0	0	0.21546	0.16848	0.17056	0.11248	0.17095	0.091923	0.13045	0.23603	0.25685	0.14974	0.19125	0.099782	0.28152	0.14828	0.13756	0.39653	-0.39375	-0.83125	-1.1396	-0.5	-1.2313	-1.1125	-0.55417	-1.4708	-0.84792	-0.87708	-1.3708	-0.7625	-1.2458	-1.1292	-0.72083	-1.5917	-17.734	60.302	148.896	-31.229	66.080	27.799	244.312	197.046	-36.158	88.409	185.216	243.526	-9.156	-95.567	171.367	161.219	0.00035978	0.0018206	0.00025254	431.54	1.7672e-05	1.9581e-05	488.24	209.39	1.062e-05	3.0548e-05	236.62	101.7	98.517	54.892	3.9459e-06	58.097	0.01579	0.017219	0.00486	1157.5	0.00018858	0.00019425	1121.6	397.82	0.0001922	0.00019403	597.67	223.34	253.83	87.791	0.00019075	103.5	171.555	219.652	246.562	-96.577	-15.140	-11.999	-98.458	-90.539	136.249	-26.537	-94.599	-90.212	-86.032	-82.746	242.821	-87.669	-8191	255	
1212.717	1	1	0	0	0.018122	0.051152	0.14265	0.25744	0.14522	0.16517	0.3657	0.080528	0.17129	0.19336	0.029063	0.32149	0.23118	0.077371	0.090322	0.23937	-0.26875	-0.86458	-1.3312	-0.68542	-1.2729	-1.2875	-0.79167	-1.625	-0.8375	-0.81667	-1.4813	-0.41667	-1.1146	-1.5187	-0.53542	-1.5396	18.561	95.138	145.561	193.239	-93.633	38.274	228.104	184.772	63.717	-61.023	-4.937	63.695	176.780	161.449	106.448	208.812	0.00010388	0.0034861	0.0010512	430.05	2.4311e-05	4.6862e-05	489.87	210.19	2.7525e-05	1.7895e-05	236.91	101.86	99.312	55.116	1.1387e-05	57.339	0.01589	0.017109	0.004804	1143.2	0.0001843	0.00018839	1103.4	390.39	0.00018453	0.00018559	578.85	218.17	248.62	86.618	0.00018504	101.56	197.559	68.953	39.807	-96.352	182.449	140.673	-97.835	-90.750	189.894	-9.628	-94.795	-90.396	-86.917	-82.583	0.838	-87.388	-8191	255	
1212.813	1	1	0	0	0.083216	0.092453	0.15052	0.20816	0.16995	0.086059	0.1465	0.11688	0.16576	0.12333	0.071725	0.1937	0.095975	0.19215	0.13235	0.1452	-0.53958	-0.65	-1.5521	-0.96458	-1.0729	-1.3875	-0.58542	-1.5667	-1.0938	-0.9	-1.4937	-1.0792	-0.89375	-1.6542	-0.8625	-1.3875	-51.066	41.673	227.664	-39.154	168.272	123.817	194.884	127.297	127.085	206.411	245.783	18.894	0.998	217.610	124.075	165.832	2.0096e-05	0.0019424	0.0008325	434.28	2.0692e-05	1.9176e-05	488.02	208.92	1.7695e-05	3.9419e-05	238.57	100.98	97.357	54.838	2.3863e-05	57.182	0.015567	0.016913	0.0047144	1136.5	0.00018263	0.00018741	1100.4	390.24	0.00018665	0.00018775	581.27	219.3	251.16	86.941	0.00018888	102.43	113.427	-90.885	17.876	-96.469	24.536	38.148	-98.141	-90.591	125.826	-74.983	-94.976	-89.897	-86.111	-82.361	193.755	-86.839	-8191	255	
1212.907	1	1	0	0	0.21426	0.43014	0.16421	0.1666	0.22343	0.073066	0.30379	0.3031	0.23064	0.26628	0.1131	0.10728	0.059158	0.090663	0.094129	0.055862	-0.53125	-0.75	-1.5917	-0.82917	-0.9625	-1.3521	-0.84375	-1.4021	-1.1437	-0.70833	-1.5479	-0.9375	-0.95833	-1.7979	-0.5	-1.2708	165.126	33.943	-24.827	194.660	-96.663	-24.772	173.361	40.815	18.050	233.067	37.321	213.941	63.691	-81.427	216.918	-50.547	0.00037601	0.00079353	0.00047237	431.05	1.4288e-05	7.0197e-06	485.25	207.04	9.0693e-06	1.3535e-05	235.78	101.22	99.79	55.223	1.1744e-05	57.695	0.015921	0.017298	0.0047949	1149.9	0.00018592	0.00018864	1103.1	389.88	0.00018605	0.00018799	580.23	220.6	251.9	87.375	0.00018961	103.08	-107.489	15.806	49.048	-95.629	142.520	231.996	-97.900	-90.174	116.609	236.687	-94.480	-90.691	-86.056	-82.349	126.204	-87.344	-8191	255	
1213.028	1	1	0	0	0.034644	0.08847	0.087625	0.11046	0.22244	0.20983	0.21406	0.077308	0.13787	0.3188	0.27201	0.31875	0.16158	0.19466	0.069295	0.24037	-0.9	-0.44792	-1.3	-1.0146	-0.79583	-1.6375	-0.72708	-1.1688	-1.1354	-0.26458	-1.2188	-1.1792	-0.91042	-1.6292	-0.52917	-1.1688	95.986	221.059	-100.036	131.830	48.833	147.338	100.351	217.301	41.964	-101.105	111.530	132.153	242.576	232.106	248.447	212.557	0.00062874	0.0023823	0.0010056	433.08	1.3657e-05	1.6237e-05	491.77	208.74	2.2205e-05	1.7357e-05	239.74	101.98	98.286	54.954	2.8831e-05	58.15	0.016014	0.017501	0.0048584	1167.5	0.00019145	0.00019397	1127.3	397.57	0.0001935	0.00019505	593.43	225.07	256.55	88.012	0.00019433	104.74	200.575	-35.355	-63.261	-95.837	48.423	-3.632	-98.234	-90.377	-30.417	165.820	-94.324	-90.009	-86.232	-82.433	11.318	-87.126	-8191	255	
1213.100	1	1	0	0	0.29	0.20794	0.18713	0.23013	0.091918	0.24937	0.28438	0.28971	0.17946	0.22352	0.28468	0.31579	0.23555	0.065319	0.15308	0.12202	-0.86667	-0.41042	-1.4833	-0.96667	-0.66042	-1.5458	-0.89792	-0.9375	-1.4438	-0.59792	-1.2229	-1.2042	-0.68958	-1.5708	-0.91667	-1.0167	210.801	62.229	5.403	167.845	176.651	-19.149	102.349	199.676	-48.768	197.406	-46.905	-73.989	-94.412	72.391	226.004	-75.481	0.00037593	0.0017606	0.00015614	428.1	9.2285e-06	3.9261e-05	488.42	208.63	3.3648e-05	1.4884e-05	236.22	102.49	98.961	55.27	8.1463e-06	58.051	0.016325	0.01788	0.0049485	1181.9	0.00019427	0.00019591	1136.8	400.01	0.00019412	0.00019498	592.97	224.83	255.57	87.592	0.00019134	103.83	191.346	47.269	-17.284	-96.208	-96.197	73.470	-97.787	-90.028	-25.678	163.962	-93.787	-90.449	-86.114	-82.335	138.781	-87.163	-8191	255	
1213.196	1	1	0	0	0.12285	0.071222	0.031513	0.18787	0.18888	0.29752	0.070832	0.062948	0.0087972	0.21909	0.31803	0.1786	0.32831	0.095755	0.020154	0.050412	-0.77917	-0.59375	-1.2625	-1.1625	-0.55208	-1.4646	-0.83125	-1.0312	-1.2625	-0.51667	-1.2083	-1.1437	-0.68333	-1.475	-0.9625	-0.82708	214.599	235.752	238.824	52.795	198.535	51.865	45.825	-93.458	-8.770	192.807	213.270	-62.561	205.437	-76.730	242.197	212.433	0.00037316	0.00072384	0.00046035	430.65	2.0689e-05	3.746e-05	491.66	208.95	8.8748e-06	1.4698e-05	236.46	102.06	98.117	54.752	1.0459e-05	57.408	0.016046	0.017516	0.0048582	1169.6	0.00019211	0.00019234	1128.8	397.47	0.00019147	0.00019355	588.55	223.29	255.1	87.322	0.0001934	103.6	211.552	54.993	19.062	-96.344	-63.019	228.969	-97.927	-89.906	-30.745	-86.031	-94.343	-90.408	-86.306	-82.350	222.335	-87.049	-8191	255	
1213.292	1	1	0	0	0.087088	0.083869	0.03094	0.067546	0.069146	0.22738	0.15406	0.10044	0.033353	0.10736	0.10641	0.29494	0.14099	0.25168	0.10597	0.41328	-1.1625	-0.6625	-1.1688	-1.3563	-0.53333	-1.2604	-1.1479	-0.69583	-1.5271	-0.95417	-1.025	-1.3354	-0.58958	-1.4875	-1.0021	-0.92708	116.442	46.783	-25.699	-91.114	89.820	-35.867	122.628	152.511	-63.687	-5.078	233.240	-69.392	173.811	163.512	49.393	141.901	0.00030533	0.0030317	0.0004389	429.44	1.9398e-05	1.8751e-05	483.74	209.36	2.1783e-05	2.2621e-05	235.11	101.45	99.132	54.893	4.0243e-06	57.878	0.016076	0.017603	0.0048518	1160.8	0.00018928	0.00018893	1112.7	393.97	0.00018673	0.00019082	583.05	221.05	252.84	86.856	0.00019075	103.42	216.449	72.443	126.426	-96.311	194.933	115.178	-98.241	-90.330	-27.043	156.198	-94.219	-90.299	-85.788	-82.258	56.143	-87.072	-8191	255	
1213.411	1	1	0	0	0.13428	0.32662	0.019047	0.31632	0.14125	0.15263	0.10218	0.10004	0.19485	0.13136	0.24293	0.086411	0.24087	0.38826	0.16842	0.25516	-1.0104	-0.72917	-1.0021	-1.4833	-0.36458	-1.2812	-1.3062	-0.61875	-1.5229	-0.73958	-0.975	-1.4771	-0.55417	-1.4729	-1.2354	-0.89792	63.215	216.380	-5.212	-46.012	240.577	177.742	-36.151	-63.640	-60.048	-65.901	-28.507	-28.842	139.172	131.073	30.359	90.909	0.00059723	0.0025568	0.0001007	433.21	4.2949e-06	2.6819e-05	486.46	208.71	2.2851e-05	5.1302e-06	239.5	102.91	99.048	55.378	7.5788e-06	58.347	0.015739	0.017482	0.0048399	1158.4	0.00018911	0.00018929	1120	394.59	0.00018542	0.00018931	581.63	219.88	251.42	86.842	0.00018898	103.22	234.150	240.685	54.916	-96.769	-68.640	-59.062	-97.793	-89.997	18.573	-68.038	-94.034	-89.951	-85.887	-82.435	-33.388	-87.257	-8191	255	
1213.507	1	1	0	0	0.08407	0.14598	0.31264	0.07404	0.24162	0.068254	0.12262	0.21368	0.41431	0.101	0.029128	0.27507	0.19355	0.15837	0.06515	0.27331	-0.96667	-0.83958	-0.93125	-1.3896	-0.73333	-1.1729	-1.1917	-0.84167	-1.3646	-0.95833	-0.79792	-1.5562	-0.52917	-1.0729	-1.175	-0.61667	127.919	170.161	134.589	-83.664	60.783	-75.791	223.533	219.602	207.865	10.601	-97.262	-53.457	-64.737	240.392	-96.952	224.782	0.00014459	0.0011508	0.00052205	436.25	2.702e-05	2.2922e-05	491.96	209.74	1.6395e-05	1.0753e-05	238.56	103.26	98.542	54.894	1.8496e-05	58.029	0.015577	0.017318	0.0048085	1152.1	0.00018845	0.00018871	1122.1	395.21	0.00018652	0.00019187	587.29	221.39	253.3	87.178	0.0001894	103.42	142.284	220.864	5.647	-95.525	238.747	-37.476	-97.628	-90.204	-44.799	14.843	-93.977	-90.244	-85.885	-82.016	93.918	-86.979	-8191	255	
1213.603	1	1	0	0	0.27147	0.17822	0.34273	0.12338	0.30987	0.11366	0.11424	0.28052	0.16032	0.16985	0.44928	0.31458	0.15291	0.089306	0.1764	0.20088	-1.0667	-0.98958	-0.61458	-1.5667	-0.44792	-1.0854	-1.4104	-0.83542	-1.3208	-1.0729	-0.78542	-1.4542	-1.0187	-1.0479	-1.35	-0.78958	155.402	58.341	244.626	142.900	227.667	213.409	130.819	159.736	-79.118	-42.136	157.308	187.235	251.009	228.088	-28.249	218.236	0.00065908	0.0023788	0.00046752	430.69	2.7605e-05	2.0206e-05	489.28	207.72	1.1373e-05	3.4149e-05	238.72	102.02	98.977	55.046	5.4194e-06	57.881	0.015509	0.017233	0.0047458	1135	0.00018435	0.00018488	1101	389.46	0.00018058	0.00018548	574.51	216.11	247.15	85.527	0.00017883	100.28	229.723	-45.334	117.850	-96.893	162.695	-30.968	-98.186	-90.175	121.144	67.724	-94.791	-90.430	-86.022	-82.726	173.184	-87.581	-8191	255	
1213.699	1	1	0	0	0.041106	0.3054	0.081151	0.10472	0.1976	0.15626	0.17719	0.1985	0.081682	0.15994	0.1561	0.29874	0.1312	0.14715	0.14539	0.18933	-0.83333	-1.0979	-0.49375	-1.5167	-0.86042	-0.78125	-1.4083	-0.72292	-1.4729	-0.96667	-0.66667	-1.4771	-0.91667	-1.0271	-1.4229	-0.72292	164.069	146.898	-104.553	238.241	184.072	150.064	195.985	240.270	-40.873	47.842	183.973	193.114	166.882	-83.407	-69.699	152.202	0.00021525	0.0027953	0.00048632	436.56	2.2523e-05	2.0469e-05	490.76	210.54	3.4288e-05	2.701e-05	235.5	103.31	98.786	55.163	9.1005e-06	57.555	0.014541	0.016111	0.0044115	1083.6	0.00017212	0.00017189	1055.8	377.79	0.00016808	0.00017297	549.37	207.78	237.92	83.916	0.00016985	98.571	216.316	-33.168	-10.132	-96.286	-54.331	-58.821	-98.077	-90.920	248.477	158.189	-94.963	-90.695	-86.998	-82.689	166.449	-87.776	-8191	255	
1213.795	1	1	0	0	0.14113	0.23445	0.25824	0.029963	0.038474	0.49969	0.35214	0.1367	0.19014	0.17942	0.1412	0.22357	0.18896	0.17296	0.21765	0.24653	-0.78542	-1.2313	-0.46875	-1.5312	-0.81875	-0.94792	-1.6625	-0.73958	-1.3	-1.2667	-0.69167	-1.6521	-0.98542	-0.7375	-1.5521	-0.84375	160.646	218.584	131.294	33.148	-69.151	133.284	54.012	146.851	22.965	38.821	59.626	204.669	186.152	250.809	157.557	177.060	4.3149e-05	0.0014242	0.0015435	434.68	1.8111e-05	3.3531e-05	484.42	209.62	5.4962e-06	1.3343e-05	239.7	101.78	99.225	55.605	1.3494e-05	58.03	0.014157	0.015783	0.0043571	1077.4	0.00017132	0.00017105	1049.9	377.56	0.00016848	0.0001726	551.19	208.46	239.39	84.292	0.00016909	99.017	251.189	53.428	-3.838	-95.989	169.409	41.285	-98.108	-90.708	51.505	126.677	-94.865	-90.745	-86.347	-82.623	144.129	-87.669	-8191	255	
1213.891	1	1	0	0	0.15439	0.16601	0.31936	0.049636	0.0081812	0.14008	0.12682	0.18362	0.18139	0.10946	0.25938	0.10554	0.28717	0.21281	0.11452	0.19182	-0.46042	-1.2188	-0.50417	-1.2625	-0.93542	-0.59375	-1.3854	-0.91667	-0.58958	-1.125	-0.6375	-1.3167	-0.97917	-0.90417	-1.3896	-0.78125	-19.436	188.462	42.920	55.134	161.349	-96.477	165.749	185.878	-23.074	236.493	-79.071	185.179	166.760	235.455	210.855	95.345	0.00042661	0.00070567	0.00037616	435.85	1.4346e-05	2.4522e-06	493.57	211.41	5.8815e-06	5.0435e-06	240.6	103.85	99.401	55.817	2.449e-05	59.279	0.014088	0.015584	0.0042942	1069.6	0.0001689	0.00016815	1037	374.75	0.00016382	0.00016756	544.17	206.49	235.91	83.728	0.00016394	98.612	223.806	-55.693	-16.048	-96.399	83.842	204.397	-98.252	-90.680	-51.457	36.480	-94.590	-90.830	-86.836	-82.823	-90.835	-87.832	-8191	255	
1213.988	1	1	0	0	0.015447	0.19027	0.06772	0.17297	0.09311	0.18694	0.37723	0.20196	0.15613	0.18171	0.078094	0.22685	0.028404	0.36114	0.26359	0.25719	-0.5375	-1.4458	-0.35625	-1.1979	-0.97083	-0.37708	-1.5646	-0.76667	-0.79375	-1.4	-0.20625	-1.2333	-1.1542	-0.68958	-1.3354	-1.1812	72.049	75.185	-95.591	-76.042	177.254	84.282	149.997	-51.350	-81.321	117.791	193.420	-92.303	-0.066	-99.294	228.950	-102.370	0.00047214	0.0016704	0.00018242	440.12	4.5999e-06	4.1534e-05	494.91	211.6	1.5174e-05	3.1406e-05	242.77	104.43	99.411	56.031	2.9007e-05	58.922	0.013667	0.015072	0.0041811	1050.7	0.00016371	0.00016281	1024	372.44	0.00016063	0.00016388	541.41	205.79	234.34	83.636	0.00016293	98.51	187.213	34.721	-64.936	-96.621	-59.089	191.891	-98.331	-90.885	240.051	179.986	-94.467	-91.338	-86.555	-82.920	187.103	-88.046	-8191	255	
1214.108	1	1	0	0	0.32029	0.20109	0.23855	0.18335	0.17094	0.11596	0.14563	0.20273	0.0908	0.22934	0.13349	0.15915	0.30289	0.25054	0.12352	0.36389	-0.0625	-1.4292	-0.725	-0.92708	-1.1521	-0.35208	-1.5021	-1.0812	-0.4625	-1.4708	-0.60625	-1.1063	-1.3646	-0.64583	-1.4146	-0.95208	206.496	30.547	65.501	-73.172	-74.264	55.975	185.593	142.661	184.378	210.467	-108.078	176.788	128.848	-72.821	241.142	229.298	0.00046633	0.0022742	0.00066945	438.49	4.1031e-06	1.7487e-05	492.92	212.13	1.7304e-05	6.115e-06	241.17	103.12	99.656	55.648	2.6232e-05	58.135	0.013643	0.014975	0.0042045	1054.8	0.00016496	0.00016451	1030.4	374.5	0.00016383	0.00016625	546.57	206.84	236.19	83.782	0.00016561	98.574	229.772	38.588	-92.287	-96.571	131.736	243.831	-98.265	-90.843	-18.751	-25.496	-95.578	-90.593	-86.851	-82.982	207.086	-87.771	-8191	255	
1214.204	1	1	0	0	0.10403	0.17114	0.067224	0.31872	0.18304	0.06582	0.056838	0.13258	0.21063	0.091606	0.14219	0.013524	0.17811	0.28662	0.46584	0.14585	-0.13542	-1.4521	-0.74167	-0.975	-1.2333	-0.59375	-1.1896	-1.2188	-0.55208	-1.4792	-0.85208	-0.80625	-1.5146	-0.49167	-1.1187	-1.0187	75.847	-85.523	17.024	186.132	236.540	-60.846	-19.261	60.198	99.504	103.873	-82.582	223.001	243.753	200.206	-96.733	160.822	0.00051728	0.0030519	0.00030868	433.17	1.8112e-05	1.2387e-05	491.37	211.41	2.3014e-05	3.9402e-05	239.59	103.21	98.925	55.806	4.4777e-06	57.689	0.013891	0.015188	0.00428	1064.3	0.00016668	0.0001681	1036.7	376.16	0.00016593	0.00016767	549.9	207.7	236.22	84.029	0.00016723	98.627	204.270	-35.406	246.332	-96.999	4.040	60.613	-98.613	-90.563	-101.362	45.066	-94.234	-90.983	-86.462	-82.787	124.253	-87.908	-8191	255	
1214.301	1	1	0	0	0.075943	0.19451	0.24861	0.13841	0.07127	0.31991	0.15917	0.20851	0.075511	0.2427	0.17882	0.25943	0.11651	0.011422	0.3558	0.21234	-0.18125	-1.3042	-0.87292	-0.85625	-1.2188	-0.45833	-1.2437	-1.0187	-0.6125	-1.3333	-1.0562	-0.93125	-1.3563	-0.7875	-0.97083	-1.3125	64.057	52.372	-80.844	247.953	221.550	-103.302	-39.028	201.515	53.274	146.778	236.701	-0.310	44.627	87.536	28.781	236.776	0.00045022	0.00073795	0.00048903	435.82	2.1956e-05	5.9807e-05	488.82	210.28	1.9479e-05	6.5671e-06	240.02	104.17	99.581	56.043	8.4956e-06	59.066	0.01397	0.015261	0.0043325	1073.9	0.00016836	0.00017061	1046.5	378.93	0.00016828	0.00016965	556.12	209.77	238.29	84.806	0.00016932	100.11	215.303	-65.237	-3.716	-96.632	1.445	164.335	-98.508	-90.406	108.571	32.354	-95.301	-90.734	-87.118	-82.944	-7.680	-87.930	-8191	255	
1214.397	1	1	0	0	0.14924	0.27182	0.075755	0.10143	0.33338	0.10944	0.12895	0.13536	0.17245	0.045531	0.11061	0.15246	0.40421	0.14177	0.15603	0.11988	-0.15833	-1.3708	-1.0583	-0.61875	-1.5938	-0.7375	-1.1833	-1.3104	-0.52292	-1.4583	-1.2125	-0.6125	-1.6042	-0.68333	-0.88333	-1.3292	184.066	-42.002	113.507	-20.617	-18.337	248.594	23.171	-36.433	-95.288	-90.530	-27.388	191.652	-48.545	-83.709	67.803	53.066	0.0004571	0.0015344	0.00060239	436.72	1.4917e-05	5.2438e-06	496.73	211.47	1.713e-05	1.285e-05	241.69	104.56	100.29	55.855	7.3544e-06	59.633	0.014196	0.015488	0.0043759	1078.8	0.00016788	0.00017094	1051.6	379.43	0.00016947	0.00017121	560	210.41	237.63	84.753	0.00016667	99.254	196.650	191.065	-0.278	-96.082	26.965	196.858	-97.916	-90.822	42.794	-41.034	-94.324	-90.712	-86.563	-82.740	-2.747	-87.585	-8191	255	
1214.491	1	1	0	0	0.13772	0.095819	0.18193	0.17116	0.14068	0.096604	0.091671	0.34776	0.11621	0.24957	0.11444	0.10499	0.20678	0.23207	0.061924	0.020742	-0.1375	-1.3312	-0.98333	-0.70208	-1.4562	-0.82083	-1.0771	-1.6938	-0.58333	-1.275	-1.2542	-0.90208	-1.3563	-1.175	-0.7875	-1.6479	41.286	173.531	82.247	-102.355	227.594	194.488	47.404	177.040	-32.673	238.305	200.796	114.868	-103.305	188.922	28.621	104.095	0.00030691	0.0018655	0.0015256	435.43	1.4927e-05	2.5654e-05	493.46	212.17	1.9372e-05	9.7809e-06	237.89	102.27	100.48	55.69	1.3609e-05	58.352	0.013928	0.015173	0.0042803	1063.6	0.00016471	0.00016871	1041.3	376.5	0.00016724	0.00016908	553.67	209.27	237.28	84.749	0.00017031	99.309	192.993	78.414	-52.982	-96.879	51.487	77.409	-97.986	-90.995	19.158	109.111	-94.653	-90.219	-86.238	-82.606	225.177	-87.672	-8191	255	
1214.587	1	1	0	0	0.043087	0.059809	0.122	0.1033	0.16756	0.20413	0.15188	0.27622	0.15769	0.11254	0.11333	0.30145	0.25913	0.23319	0.13505	0.20021	-0.37083	-0.84583	-1.3479	-0.65833	-1.4292	-0.89167	-0.99583	-1.6938	-0.84375	-0.84792	-1.4042	-0.55625	-1.3	-0.97083	-0.74792	-1.4125	126.755	-10.520	193.930	189.833	219.229	88.261	138.556	-93.415	63.973	222.054	250.213	211.172	237.211	206.702	-33.492	250.028	0.00029887	0.0017503	0.00068581	437.79	9.5416e-06	2.8898e-05	487.51	209.58	1.7909e-05	2.679e-05	236.62	102.6	99.078	55.421	3.1529e-05	58.271	0.01437	0.015631	0.0044286	1088.7	0.00017071	0.00017463	1054.4	378.43	0.00017059	0.00017151	554.21	208.6	237.43	84.36	0.00016809	98.407	241.764	-29.798	46.206	-95.599	25.428	-80.318	-98.162	-90.451	4.811	216.417	-94.322	-90.455	-86.467	-82.917	40.719	-87.138	-8191	255	
1214.708	1	1	0	0	0.18765	0.14193	0.3475	0.32088	0.10836	0.22754	0.18271	0.12931	0.28102	0.20186	0.2159	0.044926	0.16558	0.16151	0.26597	0.2259	-0.32708	-0.82083	-1.3583	-0.58333	-1.3583	-1.0583	-0.64167	-1.5187	-0.85208	-0.76042	-1.5396	-0.60833	-1.3438	-1.3333	-0.54375	-1.4792	1.625	148.518	-60.200	-51.342	73.416	78.880	-98.738	183.703	77.201	160.410	73.761	56.308	166.792	171.115	-31.446	210.583	0.00022559	0.0030413	0.00036628	438.16	1.5961e-05	1.8627e-05	488.89	210.02	2.8901e-06	1.6123e-05	239.89	103.83	99.315	55.536	1.0779e-05	59.071	0.014206	0.015421	0.0043276	1074.9	0.00016756	0.00017178	1042.8	375.21	0.00016789	0.00016784	547.01	207.65	234.98	84.069	0.00016551	98.066	202.522	-7.399	111.657	-96.806	-70.883	118.735	-98.021	-90.352	-107.325	-56.130	-94.139	-90.673	-86.276	-82.620	77.665	-87.595	-8191	255	
1214.804	1	1	0	0	0.10462	0.14006	0.092129	0.17228	0.043977	0.013103	0.15308	0.19406	0.30519	0.33467	0.29823	0.036795	0.14183	0.32927	0.20597	0.069309	-0.26458	-0.8	-1.3042	-0.60208	-0.93542	-1.1333	-0.48125	-1.5708	-0.88125	-0.99167	-1.4167	-0.7625	-1.0312	-1.4417	-0.39583	-1.5625	180.697	-104.408	192.370	13.639	-2.663	-48.124	-61.639	160.878	68.501	87.059	231.128	24.171	183.952	225.908	176.850	43.151	0.00049442	0.00088542	0.00062564	435.01	1.2805e-05	2.2797e-05	492.72	213.32	9.2301e-06	1.2757e-05	239.45	103.39	97.925	55.949	1.7627e-05	58.559	0.013971	0.015178	0.0042601	1069	0.00016643	0.00017087	1047.1	376.89	0.00017043	0.00017102	553.78	211.28	239.5	85.336	0.00017236	100.09	207.972	203.899	-49.783	-96.456	-27.471	212.122	-97.854	-90.235	-69.073	-56.897	-94.248	-90.679	-85.776	-82.796	-47.788	-87.399	-8191	255	
1214.900	1	1	0	0	0.035291	0.069995	0.23628	0.17271	0.20314	0.12828	0.21646	0.20146	0.25841	0.31242	0.22324	0.2347	0.22447	0.10286	0.13108	0.023744	-0.37917	-0.67917	-1.3875	-0.6375	-0.975	-1.5458	-0.51458	-1.6667	-0.98333	-0.64375	-1.4021	-0.74375	-1.0104	-1.5833	-0.48125	-1.1625	26.667	1.428	28.747	207.207	219.521	247.419	115.377	213.119	221.293	193.875	199.785	231.615	101.784	157.608	126.430	63.607	0.0004589	0.0023103	0.00085006	435.62	1.9204e-05	6.5561e-06	490.13	210.27	2.07e-05	2.5132e-05	242.86	104.27	100.88	55.788	9.33e-06	58.654	0.014664	0.015871	0.0044303	1097.6	0.0001719	0.00017513	1062	379.72	0.0001731	0.00017249	556	212.11	239.21	84.918	0.00017076	99.505	232.448	-54.046	45.937	-96.944	68.107	18.517	-98.452	-90.983	149.330	121.480	-94.822	-90.795	-86.092	-82.812	-102.521	-87.779	-8191	255	
1214.996	1	1	0	0	0.18509	0.065011	0.09626	0.2169	0.17831	0.30016	0.14484	0.084777	0.09632	0.18895	0.31677	0.23433	0.18906	0.041659	0.35521	0.082781	-0.52083	-0.51875	-1.2625	-0.72917	-0.7875	-1.2667	-0.67917	-1.3958	-1.1375	-0.44792	-1.3771	-0.76458	-0.925	-1.4542	-0.66042	-1.3292	36.290	21.942	-38.229	-83.780	-30.884	124.442	125.587	217.363	147.170	191.883	146.156	165.238	33.205	181.111	104.191	81.118	0.00043972	0.0035086	0.00010556	436.48	2.3704e-06	1.1963e-05	492.22	210.21	2.1395e-05	2.0561e-05	238.57	103.96	98.911	55.676	7.5471e-06	57.741	0.014439	0.015591	0.0043544	1090.9	0.00017088	0.00017368	1061.3	380.03	0.00017443	0.00017482	559.79	214.06	242.59	85.59	0.00017842	100.66	207.582	158.230	157.119	-97.072	-19.506	41.309	-98.219	-90.453	72.302	190.529	-95.077	-90.264	-86.332	-82.882	-65.570	-87.934	-8191	255	
1215.092	1	1	0	0	0.075322	0.098452	0.22638	0.096483	0.1065	0.30608	0.29495	0.16958	0.49933	0.10983	0.42595	0.027966	0.19792	0.15141	0.16969	0.31735	-0.75833	-0.49792	-1.4333	-0.81042	-0.75417	-1.3813	-0.65625	-1.3167	-1.1292	-0.56875	-1.4125	-0.95833	-0.47292	-1.5812	-0.55	-0.93958	134.157	91.433	64.876	159.580	134.469	-27.354	152.914	128.368	100.301	102.850	-103.398	176.948	164.085	133.197	223.543	149.886	0.00030384	0.002313	0.00084653	435.38	9.7086e-06	5.0292e-05	482.97	208.64	8.7518e-06	2.2852e-05	239.51	102.4	99.404	55.277	6.0259e-06	57.713	0.015081	0.016373	0.0045659	1120.8	0.00017764	0.00017999	1077.5	383.38	0.00017672	0.00017743	561.15	213.75	242.31	85.14	0.00017745	100.12	193.655	-63.829	7.885	-96.658	-78.869	47.565	-98.206	-90.632	-19.455	247.313	-95.023	-90.687	-86.622	-82.549	100.854	-87.651	-8191	255	
1215.189	1	1	0	0	0.19822	0.36444	0.10884	0.083235	0.32103	0.060764	0.16234	0.29462	0.15624	0.2259	0.23293	0.14399	0.25017	0.28544	0.40798	0.098533	-0.83958	-0.38333	-1.375	-0.79583	-0.81458	-1.4042	-0.72708	-1.0792	-1.2375	-0.60833	-1.3958	-1.1604	-0.71875	-1.5417	-0.72292	-0.96667	8.246	22.911	203.178	214.684	227.260	-50.981	139.448	243.138	-85.331	78.871	88.513	-75.048	178.829	187.988	127.687	-63.361	0.0004402	0.0020834	0.00062493	433.07	1.5614e-05	3.1045e-05	486.37	209.94	1.1214e-05	1.5357e-05	239.89	103.1	99.141	55.624	9.2258e-06	58.891	0.01488	0.01624	0.0045494	1123	0.00017912	0.00018154	1093.8	388.12	0.00018113	0.00018284	569.34	216.35	244.24	85.688	0.00017806	100.95	207.344	-10.982	-86.682	-96.264	-100.089	-18.609	-97.918	-90.423	-81.431	143.005	-94.330	-90.450	-86.697	-82.708	157.732	-87.891	-8191	255	
1215.285	1	1	0	0	0.2974	0.25002	0.038758	0.15036	0.091043	0.2082	0.085446	0.11509	0.11755	0.2715	0.10591	0.26021	0.047703	0.20818	0.14283	0.18209	-1.0562	-0.65208	-1.2375	-1.25	-0.51042	-1.3479	-0.91875	-0.86042	-1.4958	-0.63958	-1.1333	-1.0583	-0.52083	-1.6833	-0.80625	-0.88958	69.139	89.877	2.203	-101.157	213.783	52.647	102.481	219.635	206.172	57.910	136.065	240.380	226.989	-31.816	131.560	-87.642	0.00019166	0.00092506	0.00053198	440.18	7.952e-06	1.9204e-05	495.55	210.22	6.0176e-06	1.733e-05	242.67	103.38	99.952	55.185	9.3651e-06	58.536	0.014846	0.016339	0.0045311	1120	0.0001782	0.00017979	1091.6	386.97	0.00017984	0.00018266	573.91	218.81	248.61	86.66	0.00018541	103.03	212.054	49.462	21.940	-96.127	71.296	-63.674	-98.248	-90.963	188.035	-17.701	-94.666	-90.963	-86.135	-82.623	135.108	-87.685	-8191	255	
1215.381	1	1	0	0	0.22928	0.36975	0.10152	0.05312	0.15629	0.17479	0.15731	0.21449	0.24449	0.31226	0.29412	0.33069	0.22152	0.043699	0.13592	0.13918	-1.0667	-0.46458	-1.1333	-1.2896	-0.79583	-1.2958	-1.025	-0.88125	-1.3479	-0.6625	-1.0792	-1.4875	-0.6625	-1.4667	-1.0771	-0.63333	40.946	53.692	138.261	-82.632	4.818	78.449	-73.401	78.620	5.523	63.192	-88.972	-104.010	189.023	48.534	238.339	85.050	0.00022555	0.0020041	0.00082425	438.75	2.1394e-05	3.595e-06	492.65	209.54	1.7955e-05	1.9654e-05	236.2	102.79	98.526	55.195	1.8629e-05	57.947	0.015534	0.017195	0.0047769	1155.1	0.0001876	0.00018923	1118.8	393.48	0.00018548	0.00018948	581.04	220.3	251.11	86.8	0.0001876	102.63	199.531	-95.312	18.750	-96.759	69.838	170.929	-98.076	-90.637	23.036	97.350	-95.139	-90.441	-86.106	-82.754	-39.859	-87.659	-8191	255	
1215.500	1	1	0	0	0.22523	0.21577	0.15024	0.056907	0.10121	0.15614	0.17321	0.2598	0.10178	0.16536	0.31236	0.15659	0.0077385	0.088903	0.04473	0.17743	-1.2021	-0.59792	-0.98958	-1.3396	-0.45417	-1.4083	-1.1875	-0.78542	-1.5438	-0.72917	-1.0979	-1.5812	-0.51875	-1.3188	-1.0271	-0.89583	200.884	214.652	-106.811	239.774	-31.867	229.859	185.950	150.304	-47.172	-5.685	226.975	151.273	227.961	-53.872	244.818	99.052	0.00028329	0.0021912	0.00039	433.21	1.0148e-05	6.1786e-06	486.19	210.15	4.678e-06	2.652e-05	237.14	102.3	99.275	55.531	7.229e-06	58.016	0.015464	0.017116	0.0047067	1135.8	0.0001837	0.00018388	1097.8	387.79	0.00018036	0.00018458	569.51	215.58	247.08	85.891	0.00018203	101.08	-97.761	177.240	-67.546	-96.647	72.791	157.929	-97.821	-90.097	147.060	106.414	-93.996	-90.692	-86.222	-82.257	-92.138	-87.315	-8191	255	
1215.596	1	1	0	0	0.23737	0.17526	0.050838	0.18912	0.075724	0.05449	0.26779	0.32875	0.11329	0.024002	0.27928	0.14543	0.14023	0.23773	0.27576	0.27906	-1.1729	-0.84167	-0.97083	-1.3312	-0.85	-1.0771	-1.2917	-0.6875	-1.0312	-0.79375	-0.92708	-1.5708	-0.7375	-1.2542	-1.3813	-0.55417	85.577	-63.316	24.946	153.026	210.780	74.742	250.751	210.345	96.786	12.726	-79.362	-89.292	204.611	191.120	113.484	251.557	0.00039579	0.00098174	0.00059187	430.46	3.4764e-06	1.6649e-05	485.4	208.99	7.0486e-06	1.4846e-05	235.65	102.51	98.551	55.092	7.2451e-06	57.946	0.015079	0.0168	0.0046236	1124.3	0.00018284	0.00018332	1093.8	387.72	0.0001807	0.00018549	572.17	216.23	247.67	85.766	0.00017974	100.61	184.504	128.471	-19.086	-96.929	-30.464	142.937	-98.570	-90.082	-95.393	7.014	-94.007	-90.734	-85.935	-82.448	73.494	-87.377	-8191	255	
1215.669	1	1	0	0	0.083297	0.27543	0.083232	0.1575	0.090767	0.3212	0.40129	0.15313	0.11703	0.19672	0.16026	0.25413	0.091311	0.24118	0.27575	0.18342	-1.2083	-1.0021	-0.8375	-1.5938	-0.6375	-0.9875	-1.5854	-0.56042	-1.3521	-1.0917	-0.82917	-1.4104	-0.95208	-1.0979	-1.4	-0.71667	-24.625	88.207	-48.007	-44.305	152.873	92.055	200.557	182.593	157.582	213.698	251.038	182.105	238.368	-61.018	206.201	165.038	0.00039921	0.0024717	0.00030772	435.41	1.5023e-05	5.0938e-05	492.31	208.98	1.3875e-05	1.113e-05	240.67	103.88	99.817	55.776	1.523e-05	58.377	0.014765	0.016362	0.0044654	1099.8	0.00017581	0.00017529	1069.4	382.4	0.00017298	0.00017748	561.02	213.21	244.2	85.565	0.00017734	101.26	230.295	11.081	-47.268	-96.422	-92.616	101.986	-98.182	-90.680	-83.653	-94.261	-94.662	-90.505	-86.310	-82.623	223.688	-87.644	-8191	255	
1215.788	1	1	0	0	0.30921	0.16852	0.088767	0.2386	0.15067	0.00875	0.27597	0.12911	0.27601	0.2201	0.26953	0.18546	0.16514	0.16967	0.24981	0.33547	-0.83333	-0.96458	-0.69375	-1.3687	-0.99167	-0.99167	-1.4833	-0.62292	-1.35	-1.2687	-0.70208	-1.4937	-0.95	-0.91042	-1.5417	-0.68542	-13.203	183.198	-85.619	167.727	88.132	77.539	-35.155	225.817	197.786	216.725	206.635	48.744	189.809	137.090	113.437	-105.992	0.00033798	0.0013386	0.0001716	433.15	3.4823e-06	1.1371e-05	493.72	210.44	1.7085e-05	1.4592e-05	241.55	104.63	98.992	55.78	2.9161e-05	58.519	0.014759	0.016454	0.0045341	1112.7	0.00018023	0.00017977	1087	388.62	0.00017859	0.00018346	573.31	217.05	248.33	86.267	0.00018041	102.1	250.374	111.111	79.345	-95.921	9.291	-19.012	-97.779	-90.689	-70.770	-48.092	-93.536	-90.472	-86.643	-82.119	-32.918	-87.478	-8191	255	
1215.884	1	1	0	0	0.32433	0.12705	0.16947	0.23894	0.020169	0.2525	0.42419	0.24837	0.19768	0.092361	0.39524	0.28839	0.18223	0.1672	0.089832	0.14967	-0.74167	-1.1125	-0.57083	-1.4188	-0.88125	-0.88542	-1.5438	-0.52292	-1.0917	-1.275	-0.50417	-1.4771	-1.1083	-0.99167	-1.4562	-0.55	79.411	50.229	212.066	-27.212	1.485	118.602	33.379	159.972	-18.718	-100.914	-79.108	216.514	116.933	-67.509	191.262	210.367	0.00022484	0.001878	0.00071545	438.45	3.3159e-05	2.0673e-05	486.93	209.66	1.4263e-05	1.1075e-05	237.77	103.46	99.921	55.591	2.0016e-05	57.926	0.014938	0.016505	0.0045475	1110.4	0.00017921	0.00017775	1076.6	386.08	0.00017523	0.00017942	566.12	214.26	245.85	85.609	0.00017765	101.12	168.425	-16.286	202.185	-95.865	101.558	185.039	-98.102	-90.160	240.217	62.733	-94.158	-90.371	-86.396	-82.572	-77.623	-87.878	-8191	255	
1215.981	1	1	0	0	0.19333	0.23911	0.21278	0.15368	0.24281	0.28751	0.18147	0.29943	0.22918	0.084247	0.23973	0.18212	0.081619	0.11559	0.12209	0.050261	-0.46667	-1.4375	-0.37917	-1.5646	-0.89792	-0.47917	-1.6854	-0.8375	-0.8875	-1.5396	-0.95625	-1.3708	-1.2625	-0.74583	-1.2958	-0.81042	73.872	116.205	195.567	-9.264	54.413	-30.262	107.975	228.241	249.480	29.293	-97.913	-101.830	-58.042	-88.446	39.657	-96.834	0.00056118	0.0032379	0.00086693	430.55	2.4384e-05	2.3924e-05	482.72	208.62	6.8718e-06	1.329e-05	234.94	101.88	99.364	55.321	4.975e-06	57.537	0.014796	0.016334	0.0045563	1108.3	0.00017925	0.0001788	1075.4	386.59	0.00017752	0.0001815	567.61	214.12	245.96	85.321	0.00017703	100.54	200.169	1.964	115.249	-95.989	129.351	150.454	-97.746	-90.715	30.381	38.134	-94.345	-90.169	-86.562	-82.565	-74.093	-87.559	-8191	255	
1216.101	1	1	0	0	0.11717	0.0087734	0.089804	0.26524	0.082551	0.092389	0.19801	0.18218	0.25366	0.19981	0.31815	0.28449	0.27668	0.34152	0.13364	0.14675	-0.65208	-1.3208	-0.53958	-1.425	-1.0625	-0.60417	-1.4229	-0.94583	-0.8375	-1.3583	-0.55625	-1.3625	-1.1604	-0.70625	-1.3542	-0.96042	-14.778	233.638	168.145	-92.461	107.472	-87.084	193.154	159.638	169.708	250.480	-60.743	142.660	129.357	-85.365	-3.150	174.028	0.00033735	0.0016552	0.00039408	430.3	2.0738e-05	2.2556e-05	485.42	209.48	1.2099e-05	1.694e-05	241.68	102.24	100.56	55.619	1.3036e-05	58.486	0.014552	0.015999	0.0044652	1089.2	0.00017441	0.00017404	1057.9	382.25	0.00017226	0.00017615	561.78	211.67	242.94	85.067	0.00017428	100.7	-69.537	-60.170	170.446	-95.874	229.128	226.499	-98.226	-90.611	-96.040	209.278	-95.000	-90.203	-86.446	-82.610	214.682	-87.459	-8191	255	
1216.197	1	1	0	0	0.14714	0.11185	0.29472	0.2223	0.29655	0.1878	0.182	0.17328	0.29193	0.25299	0.30665	0.14726	0.27167	0.20946	0.18616	0.18423	-0.44167	-1.5979	-0.51458	-1.1771	-1.1938	-0.59792	-1.3396	-0.9125	-0.67917	-1.525	-0.61042	-1.1604	-1.4667	-0.72292	-1.2375	-1.4083	-101.302	157.582	92.532	138.500	190.430	-60.651	45.709	206.873	4.468	201.621	104.563	-63.676	-87.974	217.364	-83.676	140.416	7.2646e-05	0.00077294	0.0010399	434.94	1.1884e-05	1.9088e-05	489.3	209.85	1.2243e-05	3.1289e-05	239.87	103.16	100.04	55.357	1.0797e-05	58.891	0.014525	0.016025	0.0045055	1096.1	0.00017587	0.00017717	1068.7	384.85	0.00017359	0.00017745	567.33	213.59	244.66	85.891	0.00017654	101.93	198.170	54.669	231.166	-95.826	41.353	41.571	-97.583	-90.358	-17.129	20.832	-94.630	-90.197	-86.423	-82.313	-100.415	-87.919	-8191	255	
1216.269	1	1	0	0	0.17138	0.1808	0.20477	0.28495	0.048375	0.28274	0.17767	0.13085	0.22493	0.19829	0.14141	0.3002	0.30284	0.18993	0.060904	0.12349	-0.3625	-1.5375	-0.78333	-0.84583	-1.325	-0.67708	-1.3458	-1.3083	-0.50833	-1.6562	-0.77292	-0.8875	-1.3458	-0.81667	-1.2875	-1.0375	-62.972	71.061	76.051	136.673	-45.650	-56.890	236.926	136.626	3.506	-5.165	170.355	245.385	145.215	-14.352	191.347	106.589	0.0002859	0.0020588	0.00087488	434.05	1.5925e-05	3.7232e-05	491.03	210.23	2.7701e-05	9.4858e-06	239.04	104.81	99.304	55.855	1.3883e-05	58.892	0.014819	0.016352	0.0046085	1113.6	0.00017966	0.00018154	1084	388.4	0.00017703	0.00018026	574.1	215.78	246.02	86.437	0.00017884	102.46	133.051	229.585	244.846	-96.331	-75.680	-98.069	-97.947	-90.566	-30.502	215.955	-94.429	-90.762	-86.714	-83.091	78.947	-87.947	-8191	255	
1216.390	1	1	0	0	0.24092	0.26281	0.12296	0.20283	0.15444	0.052537	0.23778	0.1641	0.41333	0.22264	0.202	0.057803	0.15838	0.094551	0.11275	0.078105	-0.275	-1.175	-0.84792	-0.89792	-1.4104	-0.55417	-1.1854	-1.1396	-0.5375	-1.3396	-0.90208	-0.73958	-1.3667	-0.73542	-1.1896	-1.3667	35.426	-17.813	89.432	189.371	217.848	-43.815	127.178	216.591	116.033	-68.863	107.228	237.185	171.450	-98.965	-106.241	239.795	0.00070077	0.0025337	0.00048903	430.58	3.3206e-05	3.5781e-05	490.45	211.2	2.1828e-05	4.4337e-05	241.42	103.09	100.59	55.586	9.6821e-06	58.422	0.015043	0.016524	0.0046921	1121.6	0.00018168	0.00018398	1089.2	389.71	0.00017996	0.0001821	577.21	216.99	248.74	86.922	0.00018235	102.6	197.042	-76.694	158.368	-96.220	-51.301	211.762	-97.653	-91.081	12.141	229.892	-94.995	-90.671	-86.476	-83.002	10.988	-87.479	-8191	255	
1216.484	1	1	0	0	0.59542	0.076573	0.2304	0.18867	0.10955	0.28004	0.073662	0.35674	0.060986	0.15715	0.04329	0.23166	0.19977	0.12091	0.029286	0.12818	-0.23333	-1.5187	-0.96042	-0.58958	-1.375	-0.65	-0.76458	-1.3625	-0.4875	-1.1958	-0.9625	-0.60833	-1.5229	-0.76875	-1.1083	-1.625	150.155	-100.920	85.870	171.724	-26.460	159.841	247.753	207.909	227.522	-91.379	-55.148	42.468	-51.889	148.634	85.952	135.145	0.00045224	0.0032555	0.00031315	431.27	1.8698e-05	3.635e-05	490.36	207.84	1.2349e-05	3.2019e-06	236.54	102.21	98.845	55.479	1.6368e-05	57.357	0.015348	0.016732	0.0047037	1121.6	0.00018038	0.0001828	1076.9	386.37	0.00017776	0.00017901	569.69	214	245.06	86.02	0.00017828	101.15	-80.534	-104.448	53.009	-96.600	102.169	248.897	-97.667	-90.757	138.800	3.152	-94.359	-90.269	-86.887	-82.751	47.277	-87.683	-8191	255	
1216.580	1	1	0	0	0.29011	0.25511	0.069463	0.22276	0.12837	0.14746	0.17434	0.10658	0.20223	0.08582	0.074953	0.18223	0.12288	0.27717	0.14047	0.15139	-0.37708	-1.1583	-1.0521	-0.62292	-1.2687	-0.62917	-0.91667	-1.55	-0.62917	-1.3563	-0.96458	-0.65625	-1.4542	-0.72708	-0.94375	-1.5104	181.814	180.153	-56.822	222.137	-10.884	239.506	-69.343	166.506	209.884	172.859	153.404	134.794	-45.310	168.903	87.548	52.183	0.0004178	0.0014521	0.00048243	435.36	1.6237e-05	4.2345e-05	485.94	209.46	1.6724e-05	5.1678e-06	238.4	102.25	100.57	55.677	1.3615e-05	58.113	0.015089	0.016451	0.0046496	1117.4	0.00018014	0.00018352	1078.5	386.81	0.00017936	0.00018015	571.29	215.25	245.74	86.315	0.00017943	101.56	222.202	18.147	-5.952	-96.592	125.667	168.432	-97.925	-90.738	-84.309	103.637	-94.994	-90.604	-85.484	-83.086	101.517	-87.648	-8191	255	
1216.676	1	1	0	0	0.11008	0.20217	0.085947	0.16135	0.1917	0.50436	0.20867	0.16376	0.24041	0.13363	0.15451	0.045302	0.33385	0.07817	0.1629	0.21451	-0.17708	-1.2958	-1.2125	-0.64583	-1.3813	-0.93958	-1.0167	-1.7917	-0.4625	-0.96458	-1.2313	-0.54375	-1.4167	-1.0604	-0.59375	-1.4583	151.267	153.032	29.852	222.991	-24.048	38.159	139.011	160.339	-67.889	-88.060	195.238	207.865	-66.608	168.058	198.772	174.890	0.00045877	0.0011854	0.00042792	433.96	6.413e-06	3.8006e-05	487.92	208.85	1.5654e-05	1.5145e-05	239.29	102.59	99.9	55.594	2.1179e-05	58.735	0.015176	0.016478	0.0046494	1123.1	0.00018063	0.00018492	1088.9	389.21	0.00018276	0.00018304	578.63	218.2	247.88	86.784	0.00018109	102.63	229.830	-88.586	-84.361	-96.175	9.147	156.830	-97.677	-90.699	209.834	147.991	-94.209	-90.798	-86.042	-82.887	-66.576	-87.612	-8191	255	
1216.797	1	1	0	0	0.16276	0.08039	0.14959	0.12153	0.20331	0.4254	0.2027	0.23048	0.11788	0.026315	0.096534	0.47151	0.30108	0.21929	0.34433	0.13119	0.047917	-1.1646	-1.3917	-0.66042	-1.0896	-1.1271	-0.93333	-1.7979	-0.625	-0.85	-1.5562	-0.60208	-1.5021	-1.1708	-0.475	-1.5792	-33.019	6.657	191.914	-45.397	184.618	114.654	209.434	122.609	66.364	-54.663	-96.880	244.071	38.498	187.051	96.101	-84.785	8.6751e-05	0.0021329	0.00042074	432.44	8.647e-06	2.2563e-05	494.14	211.34	8.8525e-06	1.697e-05	241.88	103.76	100.6	55.853	2.1522e-05	58.839	0.015352	0.016662	0.0046913	1132.6	0.00018125	0.00018521	1092.8	389.65	0.00018126	0.00018124	575.45	217.28	246.02	86.482	0.0001791	101.75	248.312	28.441	9.301	-96.055	29.925	-38.413	-98.492	-90.466	58.718	92.996	-94.939	-91.035	-86.376	-82.918	115.636	-87.318	-8191	255	
1216.893	1	1	0	0	0.24945	0.24481	0.11631	0.070619	0.057163	0.15621	0.20721	0.24009	0.1654	0.25637	0.28715	0.18675	0.23157	0.49903	0.23863	0.1911	-0.42292	-0.60625	-1.4417	-0.57292	-1.2062	-1.0667	-0.46875	-1.4854	-0.58125	-0.79375	-1.4229	-0.63125	-1.2437	-1.4042	-0.5875	-1.4146	18.497	-27.829	-15.131	227.278	-89.216	191.436	184.790	241.542	-84.968	104.264	183.171	-0.026	78.036	-101.846	-11.134	147.246	0.00036139	0.00082834	0.00063439	434.1	1.1254e-05	1.3388e-05	488.63	210.99	1.919e-05	4.169e-05	238.43	102.63	100.25	55.37	4.8247e-06	57.715	0.015144	0.016356	0.0046102	1122.8	0.00017857	0.00018177	1082.7	386.12	0.00017913	0.00017937	569.33	216.01	244.93	86.071	0.00017943	100.93	-99.174	129.915	51.019	-95.923	127.507	179.777	-97.919	-90.938	155.926	22.990	-94.113	-90.405	-85.506	-82.639	-9.066	-87.548	-8191	255	
1216.965	1	1	0	0	0.13416	0.16463	0.047764	0.13755	0.33061	0.075851	0.14666	0.41115	0.1188	0.26062	0.057932	0.14894	0.18987	0.22946	0.19882	0.1776	-0.33958	-0.59375	-1.4208	-0.53333	-0.97708	-1.2083	-0.55625	-1.6	-0.92708	-0.63125	-1.5458	-0.81875	-1.1812	-1.4167	-0.55417	-1.6625	80.439	240.346	-105.686	251.478	151.778	241.497	-86.932	201.919	-108.278	127.922	65.055	232.525	195.694	214.330	185.643	190.084	0.00048302	0.0035579	6.5698e-05	433.81	1.9165e-05	2.4578e-05	485.89	209.15	1.7083e-05	2.1375e-05	236.63	101.69	99.804	55.414	6.0382e-06	58.318	0.015122	0.016327	0.0045952	1118.2	0.00017672	0.00018009	1075	383.56	0.00017748	0.0001771	563.37	213.93	241.93	85.323	0.00017532	99.894	179.124	137.326	247.059	-95.856	145.203	-38.118	-98.315	-90.386	-82.659	59.767	-94.630	-90.920	-86.333	-82.575	158.907	-87.503	-8191	255	
1217.061	1	1	0	0	0.29426	0.073697	0.13254	0.054845	0.43809	0.17185	0.18576	0.20841	0.27961	0.1037	0.13638	0.23996	0.058427	0.32119	0.086554	0.25179	-0.47292	-0.26667	-1.3729	-0.56667	-0.75417	-1.4562	-0.53958	-1.2396	-1.1313	-0.36875	-1.5375	-0.79375	-0.8	-1.4417	-0.74792	-1.3042	48.657	-35.742	209.128	119.296	75.997	217.931	240.346	185.764	70.177	61.464	98.594	163.820	-14.930	197.495	105.404	226.122	0.00035967	0.0013984	0.00052754	433.33	6.1812e-06	4.7232e-05	486.39	211.93	1.3135e-05	1.9003e-05	240.15	104.08	100.05	56.019	1.5185e-05	58.979	0.014709	0.01595	0.0044616	1101.8	0.00017374	0.00017739	1070.5	383.22	0.00017622	0.00017715	564.87	215.82	243.85	86.087	0.0001788	101.52	195.695	215.868	24.219	-97.002	157.198	225.518	-98.106	-90.353	165.628	37.392	-94.155	-90.569	-86.451	-82.492	-68.330	-87.503	-8191	255	
1217.182	1	1	0	0	0.14172	0.051164	0.05857	0.28885	0.090671	0.12515	0.18925	0.15667	0.096166	0.092578	0.32811	0.13905	0.17437	0.25461	0.18253	0.099503	-1.0021	-0.64792	-1.2625	-0.98542	-0.85833	-1.3021	-0.76667	-1.3229	-1.0792	-0.57292	-1.3729	-1.0646	-0.92708	-1.4021	-0.66458	-1.1979	138.515	68.946	-50.279	249.321	-3.380	-62.481	250.815	-63.278	122.072	110.097	-101.778	-51.031	193.863	150.873	71.623	129.427	0.00017321	0.0011239	0.001133	434.93	3.5716e-06	2.4115e-05	489.61	211.83	7.5668e-06	1.9104e-05	241.09	104.6	100.11	56.177	2.7953e-05	59.388	0.015043	0.016394	0.004566	1121	0.00017756	0.00018112	1088.2	387.38	0.00018028	0.00018194	572.75	217.95	245.99	86.431	0.00017942	101.82	220.861	43.835	-2.121	-96.391	167.077	160.953	-98.133	-90.435	-53.760	-37.940	-94.818	-90.730	-85.891	-82.697	2.147	-87.496	-8191	255	
1217.276	1	1	0	0	0.19553	0.28451	0.15598	0.11531	0.23146	0.27506	0.12155	0.05504	0.09519	0.16662	0.075888	0.32889	0.34466	0.14478	0.15532	0.31617	-0.79792	-0.56458	-1.4188	-0.9625	-0.55417	-1.5729	-0.5125	-0.9375	-1.2542	-0.50208	-1.1271	-0.83958	-0.80208	-1.475	-0.72708	-1.1396	42.053	173.198	-62.514	219.393	-105.043	36.292	92.456	-60.375	212.268	-85.992	-84.141	-17.966	-8.268	204.647	95.697	197.036	0.00024354	0.0014763	0.0011352	435.76	1.5032e-05	1.34e-05	489.84	209.97	2.7628e-05	2.0704e-05	237.73	104.09	100.01	55.907	2.3786e-05	58.214	0.015024	0.016421	0.0045601	1122.4	0.00017844	0.00018161	1093.2	387.34	0.00018133	0.00018457	575.28	218.82	248.07	86.864	0.00018263	101.93	7.500	210.948	27.944	-96.121	12.891	208.868	-98.674	-90.151	-39.663	244.809	-94.520	-90.405	-85.728	-82.467	6.499	-87.678	-8191	255	
1217.372	1	1	0	0	0.37354	0.11409	0.31445	0.14451	0.1699	0.15567	0.10588	0.15187	0.13567	0.07828	0.15638	0.11313	0.22956	0.21838	0.20557	0.060873	-0.95625	-0.59792	-1.2125	-1.1146	-0.55417	-1.2313	-0.725	-1.0958	-1.4292	-0.45417	-1.1271	-1.2021	-0.72292	-1.1042	-0.67917	-0.76875	-52.043	73.105	43.484	-33.168	31.483	-55.862	136.808	180.314	-32.723	149.987	135.280	-93.372	190.941	-101.511	82.486	121.980	0.00048256	0.0010716	0.00071346	431.7	1.4335e-05	2.5663e-05	487.88	210.86	1.8269e-05	5.7859e-05	239.18	103.21	99.2	55.584	1.5755e-05	58.331	0.015181	0.016634	0.0045936	1124.7	0.00018043	0.00018176	1092.2	387.83	0.00018172	0.00018458	571.96	217.31	247.66	86.209	0.00018106	101.31	175.052	179.556	-38.908	-96.148	66.260	-104.552	-98.085	-90.575	81.765	47.139	-94.626	-90.570	-86.119	-82.564	-95.820	-87.464	-8191	255	
1217.470	1	1	0	0	0.0397	0.20492	0.037899	0.021557	0.047366	0.23161	0.23381	0.32358	0.30742	0.15506	0.22181	0.29226	0.15003	0.27375	0.20744	0.30042	-1.1292	-0.575	-1.05	-1.2854	-0.46875	-1.0125	-0.65833	-0.70417	-1.5792	-0.55833	-1.1646	-1.4479	-0.71667	-1.1792	-0.97708	-0.77917	163.557	-28.528	-8.958	25.638	-82.857	112.502	208.177	181.883	159.544	177.742	-77.002	238.609	229.229	170.506	-70.069	182.988	0.0002547	0.0029331	0.00068882	433.8	1.1083e-05	1.7129e-05	484.34	210.37	8.2987e-06	2.6587e-05	234.65	102.71	100.12	55.609	1.3239e-05	58.005	0.015013	0.01657	0.0045878	1125.6	0.00018147	0.00018287	1093	389.04	0.0001815	0.0001855	573.37	218.57	249.62	86.672	0.00018445	102.33	206.966	-83.573	49.513	-96.685	207.079	158.405	-98.167	-90.259	159.031	-21.320	-94.340	-90.577	-85.514	-82.402	200.107	-87.329	-8191	255	
1217.564	1	1	0	0	0.15971	0.15392	0.38722	0.34935	0.12251	0.18764	0.15851	0.088907	0.019157	0.074242	0.24883	0.076474	0.20767	0.17373	0.038851	0.23826	-0.84375	-0.625	-1.0146	-1.3771	-0.39583	-1.3458	-1.0854	-0.58542	-1.3896	-1.0625	-0.79792	-1.2958	-0.67917	-1.3521	-1.1646	-0.73958	97.415	104.323	-15.153	89.082	243.384	-26.115	93.736	-35.522	141.564	6.247	-18.956	-85.512	85.464	210.485	-98.998	189.836	0.00048298	0.0010821	0.00048206	430.7	1.6172e-05	2.372e-05	492.83	209.72	5.2939e-06	2.0124e-05	241.65	103.75	100.03	55.977	1.7291e-05	58.652	0.015377	0.016943	0.0046629	1133.1	0.0001827	0.00018324	1098	389.99	0.00018143	0.00018536	574.67	219.2	248.97	86.587	0.00018254	102.64	105.630	29.402	-66.696	-96.261	-56.004	-8.062	-98.038	-90.796	22.881	189.494	-94.430	-90.540	-85.795	-82.660	-9.010	-87.410	-8191	255	
1217.661	1	1	0	0	0.024856	0.17342	0.1266	0.1077	0.17348	0.047856	0.065879	0.0078059	0.14311	0.16715	0.26241	0.097266	0.098805	0.17129	0.027308	0.24619	-1.0146	-0.575	-0.73958	-1.4729	-0.725	-1.1042	-1.1187	-0.6375	-1.5688	-0.87917	-0.89792	-1.5396	-0.66042	-1.15	-1.3021	-0.66875	125.803	-59.278	216.129	-10.000	225.959	89.863	168.264	-81.760	54.798	114.696	-105.543	-73.715	180.655	163.887	172.518	213.133	9.3645e-05	0.0017881	0.00060261	437.94	1.9195e-05	1.5713e-05	487.23	211.41	7.6426e-06	8.121e-06	239.38	104.39	100.15	56.108	1.3948e-05	59.012	0.01517	0.01678	0.0046342	1131.6	0.00018272	0.0001823	1096.8	389.96	0.00017924	0.00018343	572.18	217.54	247.1	86.178	0.00017987	102.05	132.479	226.347	140.186	-96.491	127.648	131.729	-97.716	-90.170	134.111	102.830	-94.556	-90.038	-85.951	-82.497	-75.055	-87.681	-8191	255	
1217.781	1	1	0	0	0.085484	0.16612	0.18581	0.16735	0.31726	0.38898	0.27134	0.24526	0.1494	0.17485	0.31025	0.36018	0.19206	0.19259	0.21978	0.16904	-0.98333	-0.73542	-0.55208	-1.3208	-0.54583	-1.1396	-1.1354	-0.53542	-1.3729	-0.89167	-0.675	-1.4937	-0.78125	-1.0146	-1.3208	-0.84167	8.988	171.223	45.310	201.168	120.301	16.640	155.429	-107.343	-107.601	206.624	135.123	-90.139	236.005	-36.764	-4.169	161.695	0.00030065	0.0023001	0.0005006	436.82	9.1758e-06	3.0197e-05	491.46	211.23	2.0703e-06	1.4923e-05	241.03	104.2	100.49	56.131	1.7129e-05	58.553	0.01484	0.016401	0.0045168	1111.9	0.00017783	0.00017722	1076.7	385.73	0.00017443	0.00017856	563.87	213.91	244.48	85.387	0.00017597	100.86	-87.367	-76.680	-31.115	-96.081	119.049	-12.662	-97.725	-90.179	-51.274	245.177	-93.950	-90.249	-85.776	-82.142	-73.521	-87.466	-8191	255	
1217.877	1	1	0	0	0.13851	0.18252	0.075741	0.19251	0.042277	0.16819	0.21945	0.32414	0.11779	0.15155	0.1576	0.21119	0.049269	0.34404	0.25855	0.12562	-1.0938	-0.95	-0.57083	-1.4708	-0.61458	-0.93333	-1.4792	-0.62917	-1.1771	-1.0979	-0.52083	-1.3312	-0.87292	-1.0854	-1.1542	-0.75417	160.641	41.147	223.152	246.023	45.575	204.299	-38.896	199.992	122.615	109.705	217.405	220.444	208.427	-101.013	227.574	86.696	0.00038911	0.0010183	0.00091273	433.88	1.6085e-05	8.5408e-06	486.92	210.75	2.9968e-05	1.7781e-05	238.9	104.3	99.662	55.967	1.242e-05	58.289	0.014547	0.016147	0.0044742	1100.2	0.00017531	0.00017492	1066.7	383.25	0.00017171	0.00017622	559.29	211.99	241.69	85.029	0.00017365	100.03	134.197	75.887	122.201	-95.671	44.658	113.261	-97.871	-89.899	-63.264	239.270	-93.472	-89.985	-85.959	-82.217	113.974	-87.564	-8191	255	
1217.973	1	1	0	0	0.22421	0.29234	0.14195	0.19168	0.1098	0.22971	0.22112	0.36347	0.23971	0.29276	0.26547	0.32804	0.47797	0.3062	0.067455	0.26859	-0.74792	-1.1917	-0.47917	-1.6688	-0.7625	-0.48333	-1.4854	-0.6375	-1.2104	-1.025	-0.54792	-1.4646	-1.0812	-0.8125	-1.4688	-0.8375	119.358	4.521	58.736	-37.115	152.835	-55.033	109.486	233.328	107.393	107.088	138.143	184.511	140.491	14.957	-102.960	73.228	0.00029017	0.00074018	0.00085252	433.84	1.3436e-05	1.1454e-05	490.53	211.69	1.2228e-05	4.7794e-05	240.04	104.09	99.769	55.96	1.1011e-05	58.943	0.014415	0.016	0.0044575	1096.6	0.00017538	0.00017525	1066.2	383.28	0.00017166	0.00017616	559.54	211.82	242.59	85.283	0.00017413	100.72	192.211	19.978	29.304	-96.233	84.964	-104.367	-97.499	-90.112	-72.481	83.776	-93.895	-90.193	-86.429	-82.499	185.054	-87.168	-8191	255	
1218.070	1	1	0	0	0.24658	0.2146	0.28109	0.24206	0.07602	0.048956	0.0035264	0.17625	0.16988	0.1535	0.13786	0.16568	0.069357	0.092556	0.18649	0.030162	-0.72917	-1.2958	-0.49167	-1.2729	-1.0938	-0.86667	-1.6896	-0.85417	-0.90625	-1.3104	-0.60833	-1.4271	-0.97292	-0.42708	-1.5229	-1.0187	-8.300	-98.210	98.445	-31.533	-11.615	164.252	30.896	216.611	124.511	17.971	142.391	171.009	-43.876	93.365	97.630	-85.298	0.00035624	0.00060039	0.00051435	437.6	1.4448e-05	2.6587e-05	488.6	209.1	9.8643e-06	8.937e-06	239.39	104.68	98.899	56.086	1.5342e-05	59.476	0.014476	0.016118	0.0044934	1095.8	0.00017562	0.00017634	1068.8	383.64	0.00017274	0.00017791	565.68	213.72	244.04	85.723	0.00017499	101.53	204.024	130.918	200.209	-95.336	-9.581	1.471	-97.848	-90.597	127.098	168.866	-94.306	-90.349	-86.537	-82.267	146.254	-86.919	-8191	255	
1218.190	1	1	0	0	0.069938	0.071436	0.10673	0.12712	0.17668	0.27499	0.28538	0.45005	0.23885	0.25012	0.1193	0.18069	0.19633	0.37311	0.20841	0.17209	-0.63542	-1.3667	-0.52917	-1.15	-1.1	-0.39167	-1.5875	-0.97083	-0.80625	-1.2958	-0.8	-1.2542	-1.3417	-0.62708	-1.3458	-0.84583	62.486	-102.150	-85.727	228.209	128.289	-105.699	188.360	188.013	-8.076	-89.355	-68.178	233.474	-8.523	-86.388	-71.650	213.880	0.00032277	0.0017845	0.00037581	433.78	1.7988e-05	4.4148e-05	491.9	212.84	3.5149e-06	3.3501e-05	242.28	104.34	101.46	56.66	1.0122e-05	59.657	0.014485	0.016012	0.0044548	1088.1	0.00017323	0.00017334	1059.2	381.44	0.00016951	0.00017299	557.2	210.67	240.23	85.133	0.00016812	100.21	204.921	-81.929	-68.343	-95.658	-85.823	33.183	-97.758	-90.243	220.231	-4.328	-94.639	-90.274	-85.204	-82.681	210.448	-87.191	-8191	255	
1218.262	1	1	0	0	0.18001	0.23949	0.086419	0.13488	0.15484	0.39581	0.071506	0.27866	0.31868	0.30735	0.2714	0.13193	0.13734	0.093166	0.17955	0.2529	-0.25833	-1.2875	-0.575	-1.0708	-0.90417	-0.51667	-1.5417	-0.82917	-0.54167	-1.4646	-0.71875	-1.0104	-1.0958	-0.64583	-1.1604	-1.2583	145.424	12.087	224.825	247.605	161.016	52.662	34.005	156.456	40.509	-88.317	180.920	113.507	20.857	-74.224	72.147	155.985	0.00028627	0.00047745	0.00023415	442.13	3.6131e-06	2.0853e-05	492.31	212.09	1.0287e-05	1.0229e-05	242.79	104.75	100.46	56.55	1.7787e-05	59.061	0.014015	0.015468	0.0042992	1066.1	0.00016783	0.00016894	1042.2	378.4	0.00016703	0.00017036	554.77	209.53	239.37	84.965	0.00016844	99.729	210.104	33.171	185.443	-95.801	-28.514	213.172	-98.143	-90.177	164.807	119.532	-94.058	-89.667	-85.377	-81.819	97.040	-87.282	-8191	255	
1218.358	1	1	0	0	0.27276	0.22664	0.10944	0.049383	0.34801	0.17246	0.24037	0.17456	0.029566	0.081861	0.059489	0.14742	0.1556	0.17625	0.14561	0.16001	-0.23125	-1.2396	-0.74375	-0.83333	-1.1063	-0.45833	-1.45	-1.4312	-0.53333	-1.4625	-0.71875	-0.89583	-1.6063	-0.85	-1.0958	-1.3312	94.559	80.169	-5.073	33.405	182.360	7.425	125.788	-40.796	42.717	1.561	-47.224	229.781	187.924	243.010	-77.480	183.854	0.00041927	0.0025978	0.00063016	433.69	9.4656e-06	1.4122e-05	484.33	209.66	1.1259e-05	2.399e-05	240.54	103.42	100.46	55.983	1.5306e-05	58.672	0.014116	0.015535	0.0043512	1077.3	0.00017135	0.00017341	1051.9	382.13	0.00017142	0.00017446	561.05	212.06	242.34	85.468	0.00017295	101.04	243.611	176.961	196.058	-95.136	144.479	79.896	-97.645	-90.091	20.230	-59.531	-94.096	-90.251	-86.580	-82.253	-24.665	-87.091	-8191	255	
#DATA ENDS
