BOXY.EXE: ISS Imagent and Oximeter Data Acquisition Program Version 0.80
Ascii Record File

#ACQ INFORMATION
2  Detector Channels 
16  External MUX Channels 
1  Auxiliary Channels 
5000  Waveform (CCF) Frequency (Hz)
1  Waveforms Skipped 
30  Waveforms Averaged 
1  Cycles Averaged 
16  Acquisitions per Waveform 
10.0806  Updata Rate (Hz) 

#FILE INFORMATION
TRUE -- External MUX Channel results are PARSED.
FALSE -- AC DC and Phase are NOT grouped.
TRUE -- Companion Program Settings File CREATED.
FALSE -- AC data not excluded
FALSE -- DC data not excluded
FALSE -- Phase data not excluded
FALSE -- Auxillary Chn. data not excluded
Tab delimiters

#CALIBRATION STATE
TRUE -- Waveform Calibration Values APPLIED.


#AUX CALIBRATION VALUES
Val Type	aux-1	

Term	1.0000e+00	
Factor	0.0000e+00	


#WF CALIBRATION VALUES
A = Detector Channel
Val Type	A-AC1	A-AC2	A-AC3	A-AC4	A-AC5	A-AC6	A-AC7	A-AC8	A-AC9	A-AC10	A-AC11	A-AC12	A-AC13	A-AC14	A-AC15	A-AC16	A-DC1	A-DC2	A-DC3	A-DC4	A-DC5	A-DC6	A-DC7	A-DC8	A-DC9	A-DC10	A-DC11	A-DC12	A-DC13	A-DC14	A-DC15	A-DC16	A-Ph1	A-Ph2	A-Ph3	A-Ph4	A-Ph5	A-Ph6	A-Ph7	A-Ph8	A-Ph9	A-Ph10	A-Ph11	A-Ph12	A-Ph13	A-Ph14	A-Ph15	A-Ph16	

Term	0.00000e+00	0.00000e+00	0.00000e+00	0.00000e+00	0.00000e+00	0.00000e+00	0.00000e+00	0.00000e+00	0.00000e+00	0.00000e+00	0.00000e+00	0.00000e+00	0.00000e+00	0.00000e+00	0.00000e+00	0.00000e+00	0.00000e+00	0.00000e+00	0.00000e+00	0.00000e+00	0.00000e+00	0.00000e+00	0.00000e+00	0.00000e+00	0.00000e+00	0.00000e+00	0.00000e+00	0.00000e+00	0.00000e+00	0.00000e+00	0.00000e+00	0.00000e+00	0.00000e+00	0.00000e+00	0.00000e+00	0.00000e+00	0.00000e+00	0.00000e+00	0.00000e+00	0.00000e+00	0.00000e+00	0.00000e+00	0.00000e+00	0.00000e+00	0.00000e+00	0.00000e+00	0.00000e+00	0.00000e+00	
Factor	1.00000e+00	1.00000e+00	1.00000e+00	1.00000e+00	1.00000e+00	1.00000e+00	1.00000e+00	1.00000e+00	1.00000e+00	1.00000e+00	1.00000e+00	1.00000e+00	1.00000e+00	1.00000e+00	1.00000e+00	1.00000e+00	1.00000e+00	1.00000e+00	1.00000e+00	1.00000e+00	1.00000e+00	1.00000e+00	1.00000e+00	1.00000e+00	1.00000e+00	1.00000e+00	1.00000e+00	1.00000e+00	1.00000e+00	1.00000e+00	1.00000e+00	1.00000e+00	X	X	X	X	X	X	X	X	X	X	X	X	X	X	X	X	

B = Detector Channel
Val Type	B-AC1	B-AC2	B-AC3	B-AC4	B-AC5	B-AC6	B-AC7	B-AC8	B-AC9	B-AC10	B-AC11	B-AC12	B-AC13	B-AC14	B-AC15	B-AC16	B-DC1	B-DC2	B-DC3	B-DC4	B-DC5	B-DC6	B-DC7	B-DC8	B-DC9	B-DC10	B-DC11	B-DC12	B-DC13	B-DC14	B-DC15	B-DC16	B-Ph1	B-Ph2	B-Ph3	B-Ph4	B-Ph5	B-Ph6	B-Ph7	B-Ph8	B-Ph9	B-Ph10	B-Ph11	B-Ph12	B-Ph13	B-Ph14	B-Ph15	B-Ph16	

Term	0.00000e+00	0.00000e+00	0.00000e+00	0.00000e+00	0.00000e+00	0.00000e+00	0.00000e+00	0.00000e+00	0.00000e+00	0.00000e+00	0.00000e+00	0.00000e+00	0.00000e+00	0.00000e+00	0.00000e+00	0.00000e+00	0.00000e+00	0.00000e+00	0.00000e+00	0.00000e+00	0.00000e+00	0.00000e+00	0.00000e+00	0.00000e+00	0.00000e+00	0.00000e+00	0.00000e+00	0.00000e+00	0.00000e+00	0.00000e+00	0.00000e+00	0.00000e+00	-9.16924e+01	-1.29767e+02	-1.18293e+02	-1.86930e+02	-6.15527e+01	-7.43525e+01	-1.57927e+02	-1.62015e+02	-5.46448e+01	-6.47678e+01	-1.74803e+02	-1.71738e+02	-1.79902e+02	-1.78143e+02	-6.55759e+01	-1.51148e+02	
Factor	1.34725e-05	1.20035e-04	3.44946e-05	2.75324e-01	1.14839e-06	1.47898e-06	1.54831e-01	4.40518e-02	8.52034e-07	1.53134e-06	8.28116e-02	2.37421e-02	1.84838e-02	7.33700e-03	1.05337e-06	1.06775e-02	4.48628e-06	5.69377e-06	1.58866e-06	1.45487e-01	6.13995e-08	6.28015e-08	7.73109e-02	2.36346e-02	6.06459e-08	6.30374e-08	4.27097e-02	1.23527e-02	1.00779e-02	3.96030e-03	6.13034e-08	5.55185e-03	X	X	X	X	X	X	X	X	X	X	X	X	X	X	X	X	



#DISTANCE SETTINGS
A = Detector Channel
A-1	A-2	A-3	A-4	A-5	A-6	A-7	A-8	A-9	A-10	A-11	A-12	A-13	A-14	A-15	A-16	

2.5000e+00	3.0000e+00	2.5000e+00	3.0000e+00	2.0000e+00	3.0000e+00	1.5000e+00	3.0000e+00	3.0000e+00	3.0000e+00	3.0000e+00	3.0000e+00	3.0000e+00	3.0000e+00	1.5000e+00	3.0000e+00	

B = Detector Channel
B-1	B-2	B-3	B-4	B-5	B-6	B-7	B-8	B-9	B-10	B-11	B-12	B-13	B-14	B-15	B-16	

1.0000e+01	1.0000e+01	1.0000e+01	1.4400e+00	1.0000e+01	1.0000e+01	1.5100e+00	1.9400e+00	1.0000e+01	1.0000e+01	1.9900e+00	2.4900e+00	2.4100e+00	2.9000e+00	1.0000e+01	2.9800e+00	




#DATA BEGINS
time	group	step	mark	flag	A-AC1	A-AC2	A-AC3	A-AC4	A-AC5	A-AC6	A-AC7	A-AC8	A-AC9	A-AC10	A-AC11	A-AC12	A-AC13	A-AC14	A-AC15	A-AC16	A-DC1	A-DC2	A-DC3	A-DC4	A-DC5	A-DC6	A-DC7	A-DC8	A-DC9	A-DC10	A-DC11	A-DC12	A-DC13	A-DC14	A-DC15	A-DC16	A-Ph1	A-Ph2	A-Ph3	A-Ph4	A-Ph5	A-Ph6	A-Ph7	A-Ph8	A-Ph9	A-Ph10	A-Ph11	A-Ph12	A-Ph13	A-Ph14	A-Ph15	A-Ph16	B-AC1	B-AC2	B-AC3	B-AC4	B-AC5	B-AC6	B-AC7	B-AC8	B-AC9	B-AC10	B-AC11	B-AC12	B-AC13	B-AC14	B-AC15	B-AC16	B-DC1	B-DC2	B-DC3	B-DC4	B-DC5	B-DC6	B-DC7	B-DC8	B-DC9	B-DC10	B-DC11	B-DC12	B-DC13	B-DC14	B-DC15	B-DC16	B-Ph1	B-Ph2	B-Ph3	B-Ph4	B-Ph5	B-Ph6	B-Ph7	B-Ph8	B-Ph9	B-Ph10	B-Ph11	B-Ph12	B-Ph13	B-Ph14	B-Ph15	B-Ph16	aux-1	digaux	

1010.233	1	1	0	256	0.26911	0.25352	0.10677	0.22861	0.10305	0.19551	0.30976	0.24001	0.17203	0.059799	0.18622	0.24525	0.15728	0.24246	0.07714	0.23058	-1.5729	-2.5896	-1.9042	-2.2292	-2.4854	-1.7812	-2.5042	-2.2938	-1.7646	-2.7104	-2.1083	-2.0312	-2.5854	-1.5625	-2.5125	-2.4729	23.315	177.880	223.789	182.429	223.354	268.286	243.044	228.665	148.281	113.073	98.469	171.454	214.683	153.920	-5.239	237.437	7.3303e-05	0.00017448	0.00013668	933.96	1.2044e-06	8.5577e-06	1400.6	201.51	1.4696e-06	4.3602e-06	366.33	99.407	44.139	14.359	1.5434e-06	35.77	0.0002068	0.00020292	6.3427e-05	770.98	2.277e-06	2.3481e-06	1158.6	167.29	2.443e-06	2.2239e-06	304.27	83.717	37.272	11.925	2.3922e-06	29.745	189.161	-34.075	51.831	-68.193	246.645	52.356	-67.939	-63.336	189.716	41.884	-64.562	-59.210	-58.061	-53.511	17.628	-54.885	-8191	255	
1010.354	1	1	0	0	0.086023	0.062347	0.20183	0.13085	0.16183	0.31052	0.17864	0.15132	0.11545	0.12511	0.20171	0.2862	0.12345	0.21628	0.27837	0.15204	-1.3167	-2.6458	-1.8771	-2.1063	-2.5771	-1.6938	-2.5062	-2.3708	-1.6583	-2.8583	-2.0375	-2.0312	-2.6708	-1.8188	-2.2896	-2.65	96.971	72.131	181.917	-42.884	86.429	178.106	175.062	171.534	1.853	201.656	241.412	234.966	53.277	-19.560	169.655	251.971	3.3441e-05	2.8222e-05	6.9346e-05	937.95	1.4286e-06	4.443e-06	1389.2	200.53	8.4369e-07	1.7012e-06	369.13	97.553	44.253	14.356	2.9474e-06	35.232	0.00020985	0.00020838	5.9763e-05	774.12	2.3218e-06	2.4245e-06	1158.7	167.1	2.37e-06	2.2662e-06	303.11	82.643	37.012	11.974	2.477e-06	29.663	174.689	116.320	14.210	-68.178	101.755	49.307	-68.006	-63.649	177.205	77.057	-64.831	-60.159	-57.740	-53.426	183.072	-54.401	-8191	255	
1010.425	1	1	0	0	0.11099	0.13067	0.18537	0.13804	0.12994	0.17429	0.15914	0.2061	0.12571	0.21648	0.096389	0.18238	0.31449	0.12543	0.23198	0.13854	-1.2375	-2.4458	-1.9708	-1.9562	-2.6083	-1.8083	-2.4667	-2.4771	-1.4458	-2.7833	-2.2104	-1.8125	-2.6479	-1.7708	-2.2687	-2.6021	-4.173	158.913	-65.054	-55.556	33.606	-6.837	128.609	169.710	-73.252	-52.137	208.350	242.981	254.605	254.907	76.838	99.166	5.7556e-05	0.00024146	9.7114e-05	928.42	4.4491e-06	3.1568e-06	1383	197.66	1.3817e-06	7.544e-06	363.65	98.325	43.499	14.172	3.4819e-06	35.473	0.00020926	0.0002126	5.7602e-05	765.59	2.3589e-06	2.2339e-06	1145.6	164.61	2.4032e-06	2.3509e-06	301.74	82.019	36.506	11.881	2.3535e-06	29.622	211.936	4.889	32.326	-68.532	65.984	77.137	-68.223	-63.848	70.338	95.287	-64.626	-59.548	-58.274	-52.560	84.399	-54.523	-8191	255	
1010.521	1	1	0	0	0.25663	0.083621	0.084753	0.13866	0.24577	0.18529	0.26205	0.12765	0.073012	0.10675	0.20322	0.16571	0.2536	0.12064	0.16016	0.074991	-1.1479	-2.5458	-2.1875	-2	-2.65	-1.9	-2.2521	-2.7583	-1.6625	-2.4771	-2.3833	-1.8021	-2.7229	-2.0542	-2.0083	-2.7	-73.809	232.136	274.872	-72.713	265.120	-23.847	225.391	98.356	129.284	64.627	265.344	245.036	148.531	157.099	153.259	116.698	3.4679e-05	0.00032063	0.00015607	921.89	1.7869e-06	2.9674e-06	1385.8	198.43	2.9076e-06	3.5581e-06	362.18	97.668	43.613	14.102	3.2374e-06	35.162	0.00021615	0.00020795	5.8976e-05	762.91	2.43e-06	2.4039e-06	1144.9	164.69	2.4506e-06	2.3613e-06	300.8	82.478	36.613	11.831	2.3703e-06	29.498	200.371	93.620	45.540	-68.417	112.415	109.407	-67.768	-63.500	11.357	120.817	-64.544	-59.372	-58.300	-52.882	51.155	-54.626	-8191	255	
1010.642	1	1	0	0	0.14162	0.16948	0.11782	0.20248	0.13758	0.42891	0.27685	0.10092	0.058525	0.18578	0.27584	0.1763	0.17181	0.26076	0.039508	0.12557	-1.4271	-2.3854	-2.2542	-1.7437	-2.6562	-2.0396	-2.2208	-2.775	-1.8417	-2.2917	-2.5583	-1.725	-2.4917	-2.2792	-1.7313	-2.8063	158.955	-57.161	30.567	193.099	183.961	146.526	247.072	-47.109	137.031	-32.958	9.152	234.048	-56.687	274.570	-12.231	-79.947	3.153e-05	0.00026749	8.6502e-05	915.46	1.728e-06	3.4644e-06	1388.5	199.5	1.4389e-06	3.9549e-06	367.31	98.684	43.457	14.093	2.2551e-06	35.698	0.00021844	0.00021107	5.9105e-05	763.09	2.4963e-06	2.4651e-06	1150.6	165.48	2.4631e-06	2.3673e-06	304.1	83.038	36.692	11.954	2.4198e-06	29.877	189.011	65.450	-10.666	-68.792	137.615	88.627	-67.693	-63.362	85.021	118.527	-64.560	-59.482	-57.530	-53.634	105.947	-54.159	-8191	255	
1010.738	1	1	0	0	0.26839	0.067735	0.077534	0.093173	0.35317	0.24152	0.19719	0.10188	0.21298	0.14804	0.079152	0.11467	0.11603	0.074662	0.16114	0.17881	-1.4646	-2.3604	-2.4354	-1.8937	-2.5625	-2.2583	-2.1	-2.7	-1.7188	-2.25	-2.5187	-1.7646	-2.5979	-2.4708	-1.6313	-2.8292	-49.117	214.533	-78.899	198.888	109.318	-76.884	213.183	-28.627	173.904	175.814	213.663	-11.004	-66.073	239.557	11.730	227.684	7.5404e-05	0.00054762	0.00015949	932.94	4.9e-06	9.2179e-06	1397.9	198.94	6.8989e-07	1.8946e-06	368.16	99.728	44.068	14.182	3.2842e-07	35.908	0.00021348	0.00022155	6.1597e-05	766.88	2.3838e-06	2.4226e-06	1154.8	165.91	2.4241e-06	2.3946e-06	303.68	83.572	37.045	11.907	2.3515e-06	29.926	200.917	3.701	20.234	-68.145	77.108	95.205	-67.990	-63.647	140.465	13.927	-64.443	-59.184	-57.719	-53.252	-74.988	-54.169	-8191	255	
1010.834	1	1	0	0	0.10693	0.1962	0.14292	0.2551	0.1743	0.13028	0.50047	0.045527	0.21773	0.18081	0.2526	0.12265	0.29247	0.21741	0.3074	0.33455	-1.5812	-1.9917	-2.5729	-1.8375	-2.5187	-2.3458	-2.0604	-2.8792	-2.0146	-2.0729	-2.6667	-1.8104	-2.4958	-2.375	-1.5854	-2.7458	245.087	218.014	237.603	-33.959	213.852	228.339	242.837	143.082	-51.903	207.131	235.161	179.468	-37.884	239.644	-35.164	211.146	4.9724e-05	0.00043766	4.428e-05	926.22	2.8549e-06	7.0828e-06	1384.8	199.93	2.0655e-06	4.9755e-06	366.94	98.188	44.257	14.079	4.4926e-06	35.404	0.00021058	0.00022043	6.2881e-05	766.44	2.2476e-06	2.3596e-06	1146.4	165.44	2.4989e-06	2.4293e-06	302.9	82.667	37.041	11.85	2.3325e-06	29.545	232.568	3.737	50.311	-68.370	113.602	73.833	-67.890	-63.417	144.026	72.488	-64.567	-59.649	-58.552	-53.333	14.747	-55.240	-8191	255	
1010.955	1	1	0	0	0.094973	0.16071	0.16121	0.24314	0.205	0.11369	0.21188	0.042975	0.10526	0.30398	0.081624	0.0056631	0.084019	0.095552	0.17552	0.25913	-1.8021	-1.9292	-2.7062	-1.8146	-2.1458	-2.3917	-1.8396	-2.6688	-2.2646	-1.7708	-2.7146	-2.0104	-2.2833	-2.4354	-1.7417	-2.8208	88.041	126.157	189.036	187.145	97.905	-30.584	231.278	222.603	-81.291	184.960	4.441	83.457	54.955	250.462	14.618	232.155	6.1113e-05	0.00032255	0.00017255	932.07	2.2119e-06	4.3314e-06	1385.8	200.41	1.2957e-06	4.9156e-06	369.08	99.401	44.109	14.018	3.2676e-06	35.844	0.00020712	0.00021544	6.0994e-05	766.89	2.4567e-06	2.3554e-06	1148.1	166.39	2.4337e-06	2.474e-06	303.22	83.155	37.283	11.883	2.3733e-06	29.776	190.410	6.442	4.391	-68.079	137.243	82.248	-67.943	-63.815	35.465	52.776	-64.613	-59.818	-57.900	-53.552	9.178	-54.641	-8191	255	
1011.025	1	1	0	0	0.26778	0.23912	0.1113	0.31358	0.064394	0.051396	0.323	0.28799	0.31396	0.097831	0.17706	0.20823	0.27087	0.18367	0.090514	0.17467	-1.7833	-1.7125	-2.6083	-2.0854	-2.0854	-2.5542	-1.9625	-2.4083	-2.1417	-1.8917	-2.6896	-2.0229	-2.2625	-2.6646	-1.6479	-2.6875	203.328	-48.836	113.055	257.383	34.590	225.085	224.849	191.168	166.462	182.448	188.402	196.250	240.571	36.534	207.381	103.275	5.3717e-05	0.00043469	0.00012004	940.15	9.373e-06	5.0187e-06	1392.5	199.75	2.641e-06	6.7598e-06	367.01	99.686	44.213	14.184	4.178e-06	35.62	0.00020562	0.00023113	6.1554e-05	767.93	2.3736e-06	2.3595e-06	1150.3	166.54	2.3889e-06	2.4319e-06	305.33	83.732	37.275	11.933	2.3917e-06	29.863	210.946	24.206	55.959	-68.444	85.907	98.130	-68.130	-63.625	20.012	62.830	-64.733	-59.785	-57.912	-52.920	90.731	-54.348	-8191	255	
1011.121	1	1	0	0	0.21422	0.29908	0.067301	0.10255	0.12911	0.18618	0.15761	0.15135	0.14907	0.15501	0.072142	0.31808	0.19574	0.12179	0.11598	0.29366	-2.075	-1.7354	-2.6437	-2.1396	-1.9875	-2.6854	-1.8937	-2.2812	-2.5062	-1.7229	-2.5729	-2.2146	-1.9021	-2.6104	-1.8354	-2.6146	195.445	231.873	-16.685	198.031	-15.033	206.867	122.678	235.140	-13.767	263.290	-64.491	-29.649	197.713	192.557	55.177	238.917	7.3936e-05	0.00031174	0.00010374	930.74	1.2925e-06	4.6984e-06	1391.1	200.59	1.6662e-06	5.7642e-06	373.31	100.47	44.911	14.336	8.3158e-07	35.618	0.00021706	0.00021469	6.1133e-05	772.6	2.3714e-06	2.3078e-06	1157.6	167.43	2.3074e-06	2.3168e-06	307.51	84.599	37.733	12.071	2.3784e-06	30.023	186.291	49.275	19.328	-68.493	113.607	43.827	-68.347	-63.626	58.440	127.595	-64.468	-59.996	-58.522	-53.778	25.942	-54.560	-8191	255	
1011.217	1	1	0	0	0.28429	0.12705	0.20188	0.26231	0.10586	0.10102	0.34941	0.068661	0.21042	0.32817	0.18501	0.062733	0.20712	0.13009	0.088441	0.055048	-2.2458	-1.875	-2.5979	-2.1604	-1.7396	-2.6188	-1.9813	-2.4604	-2.5208	-1.7333	-2.65	-2.2812	-1.9292	-2.9688	-1.925	-2.4688	233.574	273.460	-69.365	248.203	-48.834	13.468	169.998	210.938	198.749	124.169	92.502	246.401	166.728	65.225	12.665	263.547	6.8339e-05	0.00050824	0.00010922	942.53	5.0472e-06	7.1139e-06	1395.3	201.36	5.8177e-07	2.1193e-06	367.32	100.35	44.433	14.346	2.7989e-06	35.556	0.0001909	0.00021673	5.8734e-05	774.17	2.4519e-06	2.3609e-06	1156	168.07	2.2411e-06	2.3925e-06	305.17	83.896	37.711	12.115	2.4283e-06	29.897	207.560	-17.649	41.426	-68.858	84.668	58.602	-68.397	-63.557	108.901	87.720	-64.429	-59.855	-57.438	-53.914	68.335	-54.631	-8191	255	
1011.336	1	1	0	0	0.089758	0.11376	0.10029	0.0067829	0.028022	0.15417	0.59194	0.1973	0.21571	0.30514	0.28835	0.26412	0.065888	0.34241	0.099856	0.10694	-2.2104	-1.5292	-2.6188	-2.5604	-1.7708	-2.7208	-2.2125	-2.125	-2.6167	-1.8542	-2.4521	-2.3312	-1.7958	-2.8917	-2.0042	-2.05	4.954	-28.583	217.858	-73.925	-39.104	214.040	164.443	277.299	169.807	-48.759	214.867	221.752	222.595	275.533	51.447	127.663	6.3112e-05	0.00031989	7.9323e-05	927.97	2.0402e-06	3.3859e-06	1391.6	200.23	2.8956e-06	4.618e-06	369.52	99.406	44.147	14.282	5.7141e-07	35.439	0.00021155	0.00022654	6.1276e-05	768.25	2.5184e-06	2.3387e-06	1149.5	167.14	2.3945e-06	2.3807e-06	304.76	83.623	37.48	12.021	2.4751e-06	29.717	212.051	-34.594	-12.788	-69.336	141.701	76.902	-68.152	-63.789	67.365	78.665	-64.519	-60.300	-57.615	-53.301	-53.684	-54.335	-8191	255	
1011.432	1	1	0	0	0.066298	0.13445	0.20621	0.0826	0.41831	0.38456	0.16691	0.17969	0.2333	0.19888	0.015651	0.17378	0.23776	0.10056	0.076741	0.081761	-2.3875	-1.8813	-2.3792	-2.3625	-1.825	-2.7042	-2.1604	-2.0542	-2.7687	-1.8479	-2.4646	-2.4833	-1.7	-2.75	-2.1937	-2.0812	49.232	133.805	56.644	201.553	80.206	132.474	212.872	213.898	146.691	42.848	55.908	-81.086	240.042	222.450	30.950	164.473	5.8323e-05	0.00055791	9.6238e-05	923.03	3.2992e-06	7.8052e-06	1379.2	200.48	1.3557e-06	7.2575e-06	368.12	100.17	44.664	14.208	4.226e-06	35.583	0.00020013	0.00021036	6.2941e-05	763.46	2.5103e-06	2.3872e-06	1145.7	167.01	2.2918e-06	2.3631e-06	304.85	83.56	37.529	11.959	2.3689e-06	29.872	209.209	-5.885	21.894	-68.639	69.211	68.229	-67.875	-63.980	178.728	62.722	-64.605	-60.082	-58.135	-53.598	95.382	-54.403	-8191	255	
1011.528	1	1	0	0	0.18361	0.25206	0.1492	0.13283	0.079487	0.19582	0.12031	0.11325	0.24904	0.035029	0.15363	0.49506	0.057773	0.35888	0.12733	0.10648	-2.2771	-2.0729	-2.4375	-2.6771	-1.8937	-2.55	-2.2896	-1.9604	-2.8604	-2.0438	-2.2125	-2.7875	-1.7771	-2.5417	-2.2458	-1.8729	-63.090	9.010	178.684	-9.794	111.875	64.858	89.793	-7.874	96.484	-43.769	258.392	263.397	36.024	-64.407	21.915	-81.457	5.5736e-05	0.00050893	0.00011602	920.36	3.1563e-06	3.8117e-06	1393	199.92	1.3962e-06	4.8727e-06	368.5	100.41	44.572	14.155	3.4409e-06	35.815	0.00019419	0.00022774	6.0515e-05	765.8	2.3245e-06	2.3722e-06	1153.5	167.1	2.3456e-06	2.4095e-06	305.97	84.358	37.514	12.004	2.4958e-06	29.989	192.658	-2.119	13.866	-68.500	108.649	91.116	-68.076	-64.135	148.669	111.187	-64.379	-60.037	-58.522	-53.957	159.436	-54.537	-8191	255	
1011.625	1	1	0	0	0.10802	0.0714	0.12663	0.18438	0.13846	0.073963	0.16869	0.18984	0.26508	0.19657	0.34413	0.087892	0.12117	0.091511	0.2507	0.17208	-2.3896	-1.9354	-2.0708	-2.6917	-1.5146	-2.6	-2.4917	-1.7625	-2.7667	-2	-2.1104	-2.8458	-1.9333	-2.3875	-2.5563	-1.8312	89.042	127.606	177.517	-55.848	144.160	58.923	241.171	-79.584	-57.275	38.634	220.687	152.971	115.359	84.058	220.657	43.966	6.3538e-05	0.00060467	7.9807e-05	936.44	1.3004e-06	2.1761e-06	1395.3	202.22	2.2576e-06	5.4651e-06	371.12	99.766	44.599	14.418	4.7378e-06	35.459	0.00020203	0.00021813	6.0392e-05	772.14	2.3227e-06	2.4122e-06	1156.6	168.11	2.4961e-06	2.4813e-06	306.39	83.959	37.716	12.043	2.4483e-06	29.847	233.810	40.677	98.855	-68.747	78.440	11.759	-68.615	-63.731	-23.222	43.933	-65.017	-59.892	-57.564	-53.439	73.423	-54.537	-8191	255	
1011.721	1	1	0	0	0.16596	0.076372	0.10582	0.24471	0.13972	0.18342	0.17367	0.1796	0.27024	0.049646	0.29734	0.11043	0.081424	0.21888	0.15434	0.29111	-2.2708	-1.9562	-1.9896	-2.625	-1.8417	-2.2833	-2.7771	-1.8021	-2.7125	-2.2208	-1.9708	-2.7458	-1.9271	-2.1896	-2.7729	-1.7979	201.300	199.467	-26.202	20.473	114.898	274.079	203.252	177.726	-5.962	54.139	260.714	223.932	225.684	169.647	64.031	50.764	7.5046e-05	0.00031411	3.8963e-05	927.93	2.6843e-06	5.0789e-06	1394.2	201.79	1.897e-06	2.7527e-06	369.12	98.315	44.455	14.324	9.6912e-07	35.21	0.00019491	0.00021222	5.8939e-05	766.67	2.4098e-06	2.1882e-06	1150.3	167.39	2.3216e-06	2.3456e-06	304.39	83.382	37.591	12.021	2.2101e-06	29.63	209.617	45.097	-41.093	-68.224	85.187	74.945	-68.377	-63.987	29.068	91.974	-64.491	-60.162	-58.534	-53.449	-57.666	-54.967	-8191	255	
1011.817	1	1	0	0	0.11618	0.03252	0.16952	0.17196	0.18983	0.33576	0.30164	0.1482	0.16697	0.14671	0.28655	0.11695	0.060167	0.10916	0.11695	0.23542	-2.2708	-2.5563	-1.7375	-2.7604	-1.7521	-2.3146	-2.8937	-1.8042	-2.4792	-2.3625	-1.8646	-2.625	-2.0146	-2.0687	-2.8417	-1.8583	109.014	-34.951	154.959	201.956	161.457	106.913	208.849	158.050	72.489	135.193	264.210	240.004	31.169	-50.976	-55.228	-35.661	5.1215e-05	0.0006144	0.00011031	941.88	3.578e-06	1.5025e-06	1387.7	202.55	4.7699e-06	4.088e-06	372.95	100.51	44.379	14.302	6.2717e-07	35.698	0.00020004	0.00021673	5.7814e-05	768.26	2.3902e-06	2.2879e-06	1152.3	167.61	2.4387e-06	2.3632e-06	306.41	84.205	37.57	12.027	2.1085e-06	29.715	216.890	24.632	48.667	-68.599	65.947	98.752	-68.161	-63.469	-74.257	92.276	-64.547	-59.658	-58.357	-53.565	70.764	-55.210	-8191	255	
1011.913	1	1	0	0	0.16477	0.19456	0.11965	0.12162	0.076854	0.084866	0.33908	0.2832	0.14522	0.17264	0.24529	0.45672	0.4195	0.095486	0.22949	0.2219	-1.9479	-2.5208	-1.6938	-2.8333	-1.9917	-2.1146	-3.0021	-1.7146	-2.425	-2.6104	-1.9021	-2.9208	-2.1458	-1.875	-2.8312	-1.9583	156.980	82.311	-54.041	10.212	63.311	-66.487	194.639	237.965	226.721	-26.370	203.151	212.926	130.043	-80.862	-32.777	106.940	6.7286e-05	0.00039737	8.8037e-05	943.82	3.5446e-06	7.1891e-06	1401.1	202.47	7.5309e-07	3.244e-06	373.19	100.2	44.983	14.467	4.5986e-06	35.715	0.0002046	0.00022105	5.9177e-05	775.26	2.1998e-06	2.2996e-06	1161.5	168.86	2.2511e-06	2.2644e-06	308.94	84.378	37.825	12.095	2.4403e-06	29.906	211.253	5.080	26.269	-68.826	54.443	59.444	-67.999	-63.812	175.824	82.342	-64.447	-60.041	-57.735	-53.375	27.484	-54.349	-8191	255	
1012.034	1	1	0	0	0.11983	0.18993	0.14113	0.33548	0.20525	0.10733	0.27963	0.20881	0.1268	0.12221	0.086627	0.12703	0.053254	0.152	0.063238	0.14842	-2.0458	-2.6104	-1.8271	-2.6521	-2.1375	-1.8542	-3.0604	-2.05	-2.2354	-2.6167	-1.9521	-2.5521	-2.1562	-1.9417	-2.8083	-1.9792	177.114	160.451	-27.041	215.890	18.687	15.000	244.096	265.503	-78.224	49.715	8.136	201.211	129.705	146.343	231.528	264.219	6.24e-05	0.00039731	8.1501e-05	947.28	4.1057e-06	2.5844e-06	1411.8	204.15	4.0779e-06	5.0206e-06	375.98	101.1	44.757	14.549	1.5355e-07	35.301	0.00020974	0.00020148	5.5166e-05	778.06	2.4047e-06	2.2601e-06	1167.5	169.53	2.3932e-06	2.2355e-06	310.51	84.947	37.952	12.189	2.1472e-06	29.786	207.190	-78.276	16.056	-67.757	68.372	82.914	-67.952	-63.665	142.776	27.601	-64.414	-59.219	-58.032	-53.040	215.706	-54.773	-8191	255	
1012.130	1	1	0	0	0.20765	0.17959	0.16684	0.061277	0.18411	0.17878	0.23121	0.17014	0.11973	0.21002	0.081318	0.2507	0.11337	0.26333	0.23023	0.059923	-1.5208	-2.5521	-1.8875	-2.7458	-2.5771	-1.9042	-2.8521	-2.0479	-1.9458	-2.7958	-1.9937	-2.6896	-2.3854	-1.7729	-2.7167	-2.1854	-49.736	-48.301	242.926	276.419	-54.912	-54.563	-53.720	236.942	215.480	215.780	159.192	112.006	-59.897	-69.184	197.014	70.743	7.4256e-05	0.00084244	3.4658e-05	945.79	5.0859e-06	4.1618e-06	1393.3	204.06	3.1318e-06	6.2545e-06	373.01	100.31	44.889	14.442	1.4658e-06	35.696	0.00020088	0.00020536	5.7066e-05	775.54	2.1884e-06	2.2739e-06	1156.7	169.48	2.2957e-06	2.2058e-06	306.47	84.176	37.69	12.082	2.1911e-06	29.964	224.123	19.091	16.926	-68.140	94.406	106.751	-68.032	-63.808	120.964	86.989	-64.413	-59.473	-58.155	-53.353	94.845	-54.744	-8191	255	
1012.226	1	1	0	0	0.055624	0.1966	0.10347	0.17292	0.1021	0.38504	0.3649	0.28488	0.12951	0.16953	0.22404	0.32076	0.38032	0.21869	0.13362	0.041455	-1.5417	-2.6063	-1.6625	-2.4396	-2.4875	-1.7625	-2.8917	-2.2021	-1.8458	-2.4625	-1.875	-2.2583	-2.6875	-1.7583	-2.525	-2.3063	71.366	112.067	197.792	-73.978	-37.963	-60.688	169.290	191.613	88.758	247.325	246.153	208.206	196.012	141.773	87.775	97.840	3.364e-05	0.00026245	8.7822e-05	930.01	3.5434e-06	3.4167e-06	1394.6	201.23	2.3773e-06	5.3983e-06	371.6	101.13	44.478	14.366	1.5091e-06	35.983	0.00020233	0.000205	5.8168e-05	770.88	2.3563e-06	2.3492e-06	1153.5	167.42	2.3423e-06	2.3229e-06	305.34	84.456	37.545	12.087	2.2802e-06	30.027	199.892	60.872	51.956	-68.294	103.609	38.206	-67.574	-63.559	93.645	90.651	-64.314	-59.234	-58.165	-53.183	6.223	-54.196	-8191	255	
1012.322	1	1	0	0	0.1401	0.06973	0.14677	0.18932	0.090771	0.37768	0.12687	0.13876	0.055584	0.13331	0.10997	0.18481	0.28235	0.17692	0.12259	0.28327	-1.5042	-2.7396	-1.9979	-2.2604	-2.8187	-1.8188	-2.6333	-2.2667	-1.725	-2.6646	-2.1583	-2.2438	-2.7208	-1.6896	-2.5396	-2.4813	2.276	234.103	7.471	46.749	193.617	79.388	195.711	220.439	244.313	-37.423	114.541	251.533	-77.638	22.065	239.605	-43.407	7.3409e-05	0.00037156	9.9072e-05	936.67	4.1836e-06	2.1802e-06	1379.7	199.47	2.7136e-06	7.0226e-06	369.16	100.56	45.033	14.669	3.6048e-06	36.008	0.00018856	0.00020889	6.0763e-05	769.15	2.3996e-06	2.2919e-06	1149.8	165.93	2.3147e-06	2.29e-06	304.85	83.934	37.452	12.165	2.2243e-06	30.195	223.753	-32.959	-23.072	-68.321	23.826	63.480	-68.019	-63.555	100.676	92.128	-64.428	-59.535	-58.131	-53.194	91.272	-54.730	-8191	255	
1012.418	1	1	0	0	0.21941	0.030661	0.35822	0.22562	0.23077	0.13776	0.30476	0.29443	0.11138	0.13392	0.11443	0.10458	0.12982	0.19662	0.28322	0.32707	-1.3937	-2.6042	-1.9937	-2.0229	-2.6375	-1.6354	-2.5458	-2.5167	-1.6625	-2.7292	-2.1896	-2.0729	-2.8521	-1.8792	-2.4688	-2.5354	155.793	223.249	227.746	230.112	68.852	61.637	249.955	73.490	248.323	212.634	164.629	53.464	-7.431	58.604	210.186	155.699	3.4296e-05	0.00061443	0.0001419	934.12	1.7977e-06	2.6482e-06	1375.2	200.61	1.312e-06	3.1584e-06	370.73	100.59	44.105	14.476	5.483e-06	36.187	0.00021179	0.00021067	6.1345e-05	768.36	2.365e-06	2.3986e-06	1149.3	166.11	2.3809e-06	2.3203e-06	305.62	84.164	37.298	12.173	2.2378e-06	30.3	181.983	6.172	41.711	-68.596	27.403	45.852	-68.152	-64.070	122.235	73.522	-64.249	-59.309	-58.077	-53.784	91.427	-54.937	-8191	255	
1012.513	1	1	0	0	0.085237	0.12978	0.14052	0.22264	0.15899	0.28278	0.1913	0.10832	0.19553	0.22419	0.15724	0.23117	0.16925	0.14908	0.22869	0.36087	-1.4104	-2.7062	-2.1104	-2.0042	-2.8896	-1.8771	-2.4146	-2.6292	-1.7375	-2.6562	-2.2875	-2.0854	-2.5854	-1.9729	-2.2646	-2.6771	254.545	-12.279	-16.656	274.499	18.944	3.240	185.808	186.959	-14.599	-7.486	228.706	233.690	82.643	249.861	220.548	232.600	5.4298e-05	0.00015336	0.00023694	924.02	3.8462e-06	5.3141e-06	1387	199.83	1.9294e-06	5.2973e-06	365.86	99.691	43.472	14.193	2.5511e-06	35.542	0.00020408	0.00021069	6.1276e-05	760.25	2.411e-06	2.4345e-06	1145.2	165.62	2.503e-06	2.26e-06	301.85	83.338	36.786	12.059	2.4076e-06	29.807	186.549	-24.805	14.247	-68.536	-15.025	55.654	-68.179	-63.456	25.682	46.184	-64.668	-59.590	-58.114	-53.297	57.093	-55.294	-8191	255	
1012.633	1	1	0	0	0.099064	0.25228	0.12929	0.24993	0.27036	0.30708	0.3055	0.054698	0.22415	0.083802	0.12349	0.22048	0.1576	0.24907	0.11069	0.20922	-1.4521	-2.6271	-2.2229	-1.7563	-2.6396	-1.8687	-2.1896	-2.9479	-1.7979	-2.4792	-2.3854	-1.8875	-2.7687	-2.1	-2.1688	-2.6896	207.298	8.666	107.759	225.573	155.052	35.852	206.532	26.401	25.953	265.361	247.947	274.970	-70.614	-50.703	-58.023	-50.326	3.4761e-05	0.00050018	8.2989e-05	927.86	9.9855e-07	4.4959e-06	1365.5	197.78	1.8223e-06	3.8298e-06	361.96	98.071	43.925	14.303	4.2773e-06	35.8	0.00020307	0.00021237	5.8161e-05	761.49	2.3847e-06	2.3663e-06	1136.5	164.27	2.3339e-06	2.3193e-06	299.64	82.67	36.975	12.062	2.3714e-06	29.965	207.741	-4.969	49.633	-68.310	54.289	39.729	-67.859	-63.463	78.419	86.741	-64.531	-59.538	-58.302	-53.887	105.245	-54.202	-8191	255	
1012.729	1	1	0	0	0.17797	0.078203	0.065572	0.17152	0.14132	0.36166	0.18874	0.33943	0.030614	0.075468	0.33837	0.25171	0.19121	0.09061	0.048156	0.079346	-1.3583	-2.4437	-2.5271	-1.5812	-2.5729	-2.2	-2.0875	-2.5979	-1.8792	-2.4313	-2.6813	-1.6667	-2.4208	-2.1729	-1.7729	-2.675	-52.903	214.594	248.010	35.747	218.810	69.314	221.891	226.116	234.925	217.714	244.643	-80.259	215.639	71.565	3.805	-1.963	4.6473e-05	0.00030192	0.00019202	915.34	2.016e-06	7.5578e-06	1383.6	199.4	1.974e-06	3.0626e-06	362.78	98.647	44.556	14.079	2.257e-06	35.252	0.00020551	0.00020645	6.1412e-05	756.7	2.2594e-06	2.4211e-06	1140.5	165.14	2.3628e-06	2.4571e-06	301.21	83.049	37.149	12.052	2.3723e-06	29.745	179.582	-0.081	47.224	-67.879	61.504	42.185	-67.843	-63.763	84.138	-44.752	-64.575	-59.500	-57.984	-53.188	120.456	-54.503	-8191	255	
1012.826	1	1	0	0	0.13816	0.092827	0.30126	0.30403	0.17328	0.37851	0.19441	0.061692	0.2507	0.045345	0.11526	0.20142	0.15643	0.13777	0.20155	0.1671	-1.3521	-2.0812	-2.5167	-1.7771	-2.3896	-2.1813	-1.9125	-2.7667	-1.7396	-2.2333	-2.6771	-1.7396	-2.5625	-2.4917	-1.7396	-2.9542	11.881	58.640	250.991	219.011	29.487	-78.398	224.812	-23.561	80.410	-63.620	14.878	-64.150	228.871	96.776	239.530	227.770	4.9422e-05	0.00031079	0.00015494	918.32	1.2551e-06	5.1282e-06	1378.4	200.84	8.377e-07	1.6392e-06	368.53	99.443	43.829	14.403	3.2372e-06	35.795	0.00021411	0.00021636	6.072e-05	760.68	2.3025e-06	2.35e-06	1145.8	166.59	2.3662e-06	2.2711e-06	304.01	83.667	37.129	12.08	2.3995e-06	29.858	241.071	-24.404	28.529	-68.302	153.563	79.472	-67.928	-63.404	80.493	5.430	-64.547	-59.584	-57.848	-53.129	78.195	-54.553	-8191	255	
1012.922	1	1	0	0	0.11395	0.26513	0.1449	0.30566	0.082564	0.068277	0.10756	0.48701	0.11987	0.29623	0.34502	0.21153	0.2206	0.19358	0.061011	0.12216	-1.7188	-2.0646	-2.4313	-1.7687	-2.5229	-2.5687	-2	-2.6521	-1.9729	-2.0438	-2.7146	-1.8563	-2.3521	-2.4958	-1.7979	-2.7062	69.150	-35.814	-18.836	273.617	240.510	30.757	134.770	275.888	129.397	231.727	52.244	239.353	262.639	-30.168	23.354	263.721	5.0004e-05	0.00039424	8.0743e-05	928.23	1.9149e-06	1.1204e-06	1382.5	201.34	9.5182e-07	6.2991e-06	363.09	99.126	44.446	14.204	1.1583e-06	35.204	0.00021247	0.00021785	6.0015e-05	765.17	2.3794e-06	2.3503e-06	1146.3	167.14	2.3931e-06	2.4569e-06	301.89	83.015	37.376	11.922	2.3899e-06	29.314	143.893	22.841	36.371	-68.746	95.465	185.882	-68.227	-63.427	126.944	62.428	-64.460	-59.887	-57.908	-53.334	64.545	-54.367	-8191	255	
1013.018	1	1	0	0	0.051565	0.13696	0.13065	0.18082	0.12928	0.095296	0.13104	0.18043	0.18003	0.15151	0.22463	0.17994	0.14055	0.17849	0.13974	0.31845	-1.8104	-2.0104	-2.6042	-1.95	-2.2021	-2.5521	-1.9375	-2.8063	-1.9833	-1.775	-2.9792	-1.8771	-2.0229	-2.5833	-1.6417	-2.7146	211.084	-70.556	206.954	242.204	-77.698	80.832	236.744	172.277	-32.275	190.549	196.310	261.665	237.109	267.395	-26.831	-18.425	1.3681e-05	0.00037666	0.00020347	926.79	2.8527e-06	4.1246e-06	1388.4	198.81	1.6069e-06	3.5291e-06	367.92	98.77	44.373	14.094	4.2403e-06	34.956	0.00020297	0.00022267	5.8592e-05	762.76	2.2411e-06	2.3345e-06	1146.3	166.42	2.4669e-06	2.42e-06	301.98	82.773	37.416	11.875	2.3412e-06	29.285	197.437	-29.752	-10.351	-68.583	178.625	88.670	-68.095	-63.133	29.747	76.536	-64.679	-60.028	-58.439	-53.653	78.921	-54.722	-8191	255	
1013.114	1	1	0	0	0.037314	0.18735	0.185	0.16665	0.23221	0.16091	0.20683	0.3754	0.088409	0.22236	0.094103	0.22531	0.20725	0.0059841	0.13815	0.16238	-1.7125	-1.7896	-2.6688	-1.6625	-2.0167	-2.5354	-1.8563	-2.4167	-2.2792	-1.6479	-2.7625	-1.8021	-2.1354	-2.6292	-1.7104	-2.3979	127.184	-51.866	26.368	-56.996	132.152	177.948	209.092	253.177	187.163	-69.864	-44.804	188.087	106.959	-35.327	34.837	278.326	4.9588e-05	0.00023642	3.9557e-05	922.55	4.7885e-06	4.5723e-06	1371.5	200.49	2.8993e-06	1.8961e-06	361.25	98.156	43.789	14.22	5.2091e-06	35.241	0.00019812	0.0002097	5.9581e-05	763.38	2.2994e-06	2.4668e-06	1141.1	165.97	2.3355e-06	2.4008e-06	300.88	82.36	36.917	11.946	2.4207e-06	29.393	191.256	-45.085	213.768	-68.793	68.866	50.064	-68.212	-63.501	42.296	112.358	-64.802	-59.686	-57.903	-53.484	112.945	-54.850	-8191	255	
1013.210	1	1	0	0	0.14058	0.29393	0.091975	0.18173	0.19497	0.18248	0.24915	0.17962	0.18972	0.040749	0.30943	0.11549	0.20678	0.097052	0.10136	0.14258	-1.9688	-1.7125	-2.5854	-2.1333	-2.0833	-2.5125	-1.7437	-2.3917	-2.3438	-1.7229	-2.6667	-2.1104	-1.8729	-2.7125	-1.7104	-2.3333	272.295	-52.892	115.342	203.788	52.143	17.304	121.431	116.665	177.019	207.327	182.943	245.761	117.837	60.404	185.215	248.364	3.3739e-05	0.00018947	6.064e-05	924.38	3.7511e-06	4.7452e-06	1366.1	198.3	7.2954e-07	6.8268e-06	364.06	97.893	43.628	14.042	1.9728e-06	35.479	0.00021168	0.00021444	6.016e-05	760.34	2.3681e-06	2.2692e-06	1140	164.35	2.2652e-06	2.3467e-06	302	82.351	36.842	11.863	2.3558e-06	29.671	186.810	10.418	-0.520	-68.580	89.699	26.906	-68.288	-63.829	255.185	114.980	-64.610	-59.719	-58.617	-53.493	48.573	-54.579	-8191	255	
1013.306	1	1	0	0	0.15821	0.29875	0.14542	0.099112	0.15352	0.25514	0.36752	0.091595	0.11486	0.23035	0.25375	0.081508	0.20923	0.18216	0.047968	0.22414	-2.0896	-1.6625	-2.3604	-2.2812	-1.8896	-2.75	-1.975	-2.1542	-2.4833	-1.8271	-2.5458	-2.35	-1.8438	-2.8896	-1.9229	-2.1479	250.495	128.844	190.439	150.468	100.830	50.224	191.553	-33.536	174.712	-61.643	231.952	204.143	252.484	-57.737	92.588	-48.238	3.9623e-05	0.00026333	0.00015448	918.85	4.9271e-06	7.4641e-06	1368.8	197.52	2.1567e-06	4.7834e-06	362.94	96.718	43.385	13.909	3.8454e-06	34.75	0.00020716	0.00023195	5.973e-05	759.91	2.3916e-06	2.3061e-06	1136.3	164.55	2.3445e-06	2.4338e-06	300.65	81.604	36.723	11.76	2.3956e-06	29.063	161.383	-11.661	230.341	-69.003	62.936	96.906	-68.070	-63.647	48.245	57.745	-64.423	-60.079	-58.311	-53.712	60.731	-54.896	-8191	255	
1013.425	1	1	0	0	0.16752	0.16469	0.14993	0.17098	0.32938	0.40155	0.25126	0.19067	0.071713	0.024857	0.23613	0.18694	0.12458	0.26999	0.13524	0.036288	-2.2792	-1.6667	-2.3917	-2.3458	-1.8542	-2.8458	-2.0438	-2.2562	-2.7292	-1.7208	-2.35	-2.3125	-1.5812	-2.5938	-2.0812	-2.1854	255.966	-59.286	176.384	87.671	102.201	95.044	232.072	167.443	246.813	179.638	135.935	91.558	204.866	219.336	15.358	40.140	4.1404e-05	0.00030311	0.00015974	908.26	1.8915e-06	2.0074e-06	1352.3	195.68	8.1468e-07	2.8333e-06	360.84	96.225	42.835	13.709	3.3221e-06	34.423	0.00021358	0.000231	6.1008e-05	751.79	2.3868e-06	2.2459e-06	1124.2	163.14	2.2212e-06	2.4659e-06	297.69	80.986	36.45	11.556	2.3114e-06	28.828	176.674	23.398	-6.575	-68.716	55.438	-13.592	-68.548	-63.636	181.611	89.186	-64.355	-59.791	-57.928	-53.349	83.020	-54.103	-8191	255	
1013.521	1	1	0	0	0.24048	0.21916	0.25716	0.19335	0.07457	0.044834	0.18554	0.17049	0.2024	0.10875	0.24031	0.17477	0.095611	0.21836	0.12214	0.29551	-2.3271	-1.6854	-2.4354	-2.4125	-1.6583	-2.8	-2.2979	-1.8125	-2.6354	-1.7146	-2.3667	-2.5438	-1.7229	-2.7146	-2.1333	-1.8563	240.949	135.551	91.741	-9.094	142.399	230.415	205.364	183.409	169.583	264.650	259.595	257.595	86.590	4.896	261.303	133.056	1.8551e-05	0.0002941	0.00011241	906.91	4.7672e-06	7.2416e-06	1350.6	196.57	1.8594e-06	3.123e-06	359.14	96.049	43.53	13.746	1.8682e-06	34.252	0.00021435	0.00021768	6.3391e-05	747.92	2.5725e-06	2.4633e-06	1121.4	162.95	2.3239e-06	2.4298e-06	297.9	80.879	36.447	11.583	2.2196e-06	28.658	134.757	56.262	3.615	-68.095	124.689	8.791	-68.130	-63.990	50.845	84.380	-64.510	-59.761	-58.686	-53.594	122.817	-54.445	-8191	255	
1013.595	1	1	0	0	0.019981	0.096245	0.18701	0.1343	0.072452	0.19013	0.22668	0.15332	0.055477	0.087847	0.15173	0.20989	0.33838	0.18742	0.13549	0.031055	-2.3792	-1.7958	-2.2104	-2.6458	-1.6167	-2.5083	-2.3312	-1.8792	-2.6396	-1.9271	-2.1542	-2.6458	-1.8583	-2.4667	-2.3458	-1.8542	7.849	44.158	55.382	-18.674	204.453	-12.456	233.039	265.221	-40.146	91.120	169.997	238.658	32.101	228.318	277.563	36.713	5.4268e-05	6.5713e-05	5.7355e-05	912.53	3.9162e-07	1.0269e-06	1367.6	197.95	3.5378e-06	6.2889e-06	361.52	98.014	43.508	13.806	2.9361e-06	34.534	0.00020587	0.00022875	5.9657e-05	750.46	2.5084e-06	2.3675e-06	1129.9	164.65	2.2862e-06	2.4631e-06	299.4	81.611	36.594	11.641	2.3152e-06	28.887	208.048	151.753	42.014	-68.204	97.466	195.300	-68.331	-63.499	89.514	54.640	-64.043	-59.897	-58.749	-53.387	9.810	-54.055	-8191	255	
1013.714	1	1	0	0	0.18093	0.22222	0.23564	0.21958	0.048765	0.24476	0.05849	0.24409	0.10177	0.25913	0.28265	0.34827	0.25894	0.22218	0.30621	0.07659	-2.3875	-1.975	-1.8333	-2.7042	-1.5479	-2.3292	-2.6417	-1.8312	-2.6458	-1.9125	-1.9333	-2.7646	-1.7521	-2.3521	-2.4771	-1.6896	63.485	65.989	-6.125	1.272	264.477	198.847	215.938	219.913	-51.295	87.016	-60.954	232.078	238.163	264.225	175.003	204.584	4.1377e-05	0.00048659	7.7463e-05	921.63	6.2976e-06	4.549e-06	1366.5	198.36	1.8643e-06	7.0627e-06	364.84	97.854	44.26	13.885	3.1905e-06	34.203	0.00019836	0.00021327	5.924e-05	758.27	2.3942e-06	2.3196e-06	1138	165.71	2.3619e-06	2.4849e-06	302.97	82.303	37.059	11.73	2.3869e-06	28.597	199.593	-19.791	-19.620	-68.748	64.899	72.748	-68.305	-63.307	58.447	91.975	-64.631	-59.793	-57.891	-53.230	33.069	-55.311	-8191	255	
1013.810	1	1	0	0	0.044552	0.20643	0.25501	0.084738	0.16237	0.18668	0.23678	0.22212	0.18562	0.1176	0.27267	0.10192	0.19272	0.1598	0.15182	0.22697	-2.225	-2.2042	-1.8771	-3.0167	-1.7083	-2.1792	-2.775	-1.6812	-2.6604	-2.2229	-2.0938	-2.8937	-1.8042	-2.2729	-2.7417	-1.7083	258.504	-65.666	-79.928	-65.957	-61.331	264.026	-29.860	231.479	-4.397	78.092	243.074	276.579	241.002	1.074	127.137	-80.006	6.4346e-05	0.00024614	8.7539e-05	918.65	5.9483e-06	3.0116e-06	1363.9	200.15	2.7936e-06	2.7541e-06	363.11	97.198	43.585	13.798	2.2633e-06	33.841	0.00020011	0.00021731	6.0654e-05	757.97	2.3686e-06	2.3217e-06	1133.1	166.49	2.3388e-06	2.3801e-06	299.89	81.688	36.934	11.569	2.275e-06	28.291	233.602	44.386	13.327	-68.405	114.462	-53.654	-67.906	-63.167	103.432	-72.287	-64.164	-59.783	-58.162	-52.636	53.182	-54.578	-8191	255	
1013.906	1	1	0	0	0.17923	0.085336	0.34927	0.33274	0.11662	0.23311	0.33867	0.10508	0.143	0.19426	0.27878	0.15772	0.22737	0.15072	0.1652	0.07588	-2.2146	-2.3187	-1.7792	-2.7812	-1.9771	-2.1542	-2.7354	-1.8417	-2.3438	-2.3812	-1.8167	-2.675	-2.1646	-1.975	-2.5062	-2.0187	129.733	267.586	68.100	220.500	-61.292	46.297	237.750	195.428	-49.216	-2.504	153.678	12.474	160.661	-41.311	46.625	252.047	8.2976e-05	0.00055925	0.0001924	918.49	7.5938e-06	6.111e-06	1365.1	199.34	1.8184e-06	1.7953e-06	363.51	97.349	43.7	13.683	2.3994e-06	34.451	0.00020753	0.00022215	6.3599e-05	759.4	2.3741e-06	2.2699e-06	1131.6	166.21	2.4256e-06	2.3994e-06	300.92	81.48	36.891	11.549	2.2371e-06	28.629	207.447	43.507	20.252	-68.691	103.930	62.618	-68.001	-63.554	99.079	111.935	-64.468	-60.070	-58.008	-52.845	142.775	-54.860	-8191	255	
1014.027	1	1	0	0	0.29157	0.1418	0.061659	0.18253	0.14324	0.24742	0.16532	0.43733	0.081328	0.087361	0.084116	0.15243	0.082503	0.08991	0.13049	0.22125	-2.1021	-2.4271	-1.6833	-2.7771	-2.1271	-1.8458	-2.7687	-1.9021	-2.2812	-2.45	-1.8813	-2.6208	-2.3042	-1.8062	-2.6188	-1.925	-26.214	142.011	22.925	258.683	248.654	205.374	127.417	172.667	20.666	157.753	-79.505	-61.218	266.003	241.982	142.030	103.990	4.7146e-05	0.00034542	5.7094e-05	924.26	2.585e-06	4.2952e-06	1371.4	199.38	2.0747e-06	2.5395e-06	365.68	97.764	44.102	13.862	1.8239e-06	34.489	0.0001962	0.00020368	5.8466e-05	758.28	2.2585e-06	2.251e-06	1136.8	166.32	2.3716e-06	2.2365e-06	301.78	81.952	37.009	11.71	2.3257e-06	28.952	238.605	-9.499	-9.109	-68.016	36.791	63.881	-67.957	-63.786	101.732	104.447	-64.497	-59.321	-58.343	-53.162	28.552	-54.895	-8191	255	
1014.123	1	1	0	0	0.28424	0.21642	0.12116	0.21679	0.17718	0.17493	0.32937	0.29317	0.19672	0.15325	0.15137	0.17556	0.18378	0.044649	0.061176	0.32957	-2.0104	-2.6604	-1.5708	-2.7042	-2.2958	-1.7583	-3.0167	-1.9271	-2.1646	-2.6479	-1.7563	-2.6271	-2.3646	-1.6812	-2.6896	-1.9604	-64.437	-9.062	-63.128	233.256	59.224	146.550	235.072	205.156	212.412	113.541	13.537	206.402	234.467	-73.020	105.435	213.748	4.3146e-05	0.00019122	9.7564e-05	927.84	1.9168e-06	6.1576e-06	1364.5	198.27	1.0472e-06	3.2735e-06	363.93	97.672	43.193	14.118	5.5097e-06	34.812	0.00020655	0.0002022	6.1362e-05	764.3	2.3253e-06	2.5094e-06	1136.4	165.51	2.3666e-06	2.4766e-06	301.07	81.817	36.506	11.803	2.4221e-06	29.182	184.387	239.868	32.332	-68.351	134.934	60.790	-67.766	-63.770	82.657	86.438	-64.624	-59.645	-58.345	-52.472	84.294	-54.663	-8191	255	
1014.194	1	1	0	0	0.2925	0.24821	0.16452	0.040265	0.11309	0.25009	0.26866	0.21745	0.10338	0.11922	0.0092323	0.1791	0.32525	0.075436	0.13419	0.16908	-1.7417	-2.6625	-1.4896	-2.5792	-2.4313	-1.7833	-2.9	-2.0646	-2.1688	-2.5938	-1.8292	-2.4417	-2.6437	-1.8042	-2.7208	-2.2125	-7.210	104.786	207.622	211.653	5.522	-69.368	143.494	158.737	-11.846	-57.916	108.741	182.895	-61.443	-45.496	108.791	255.372	6.0731e-05	0.00028459	0.00011883	916.86	6.5739e-07	5.1831e-06	1361.3	195.63	1.7904e-06	5.8199e-06	357.46	97.212	43.933	13.985	3.3802e-06	34.75	0.00021612	0.0002088	6.2616e-05	755.64	2.2965e-06	2.5134e-06	1131.3	164.03	2.4516e-06	2.3584e-06	297.09	81.057	36.685	11.837	2.2597e-06	28.884	222.631	-20.053	-5.257	-68.381	84.500	101.400	-67.942	-63.642	120.026	82.753	-64.469	-60.221	-57.935	-53.074	98.687	-54.283	-8191	255	
1014.315	1	1	0	0	0.23409	0.089649	0.27674	0.058762	0.051429	0.095873	0.51506	0.21953	0.10708	0.043179	0.076683	0.041247	0.27758	0.28079	0.24132	0.2722	-1.6917	-2.7208	-1.7708	-2.1979	-2.6104	-1.7042	-2.7104	-2.3146	-1.8333	-2.7167	-2.1125	-2.3792	-2.5292	-1.7771	-2.7354	-2.3771	47.151	85.915	233.641	-73.823	251.603	236.587	188.718	278.546	-65.343	160.743	214.808	233.858	57.481	175.425	-73.798	224.540	6.104e-05	0.00026857	0.00017857	909.51	2.3828e-06	6.1386e-06	1360.7	197.68	1.6277e-06	4.2477e-06	360.01	96.9	43.505	13.947	2.2425e-06	34.704	0.00021334	0.00021588	5.7221e-05	753.72	2.3481e-06	2.3133e-06	1128.1	165.03	2.4343e-06	2.2625e-06	298.36	81.233	36.744	11.755	2.3399e-06	29.018	213.434	40.463	41.442	-68.162	13.958	61.268	-67.855	-63.410	42.870	64.173	-63.821	-59.489	-57.982	-53.615	86.688	-55.009	-8191	255	
1014.409	1	1	0	0	0.085087	0.3027	0.13456	0.094814	0.24089	0.096094	0.042545	0.18725	0.12319	0.20063	0.069257	0.085061	0.24412	0.26652	0.17089	0.25597	-1.2667	-2.5542	-1.9458	-2.1396	-2.5646	-1.6667	-2.5396	-2.3646	-1.7208	-2.7417	-1.9375	-2.1833	-2.7333	-1.5354	-2.4688	-2.5312	-63.088	249.199	21.244	248.362	55.250	109.686	-66.268	-19.985	124.298	17.986	71.103	-45.520	272.274	255.816	-63.187	245.674	6.4104e-05	0.00018995	8.1823e-05	920.72	3.2124e-06	7.5268e-06	1368.3	199.28	3.0282e-07	5.6602e-06	360.54	97.326	43.544	14.068	5.1893e-06	34.238	0.00020865	0.00019713	5.6285e-05	760.25	2.254e-06	2.4117e-06	1134.7	165.49	2.5258e-06	2.2791e-06	298.8	81.639	36.73	11.812	2.2838e-06	28.845	183.942	10.185	-16.673	-67.970	29.652	59.574	-68.247	-63.449	127.598	47.601	-64.727	-59.328	-57.594	-53.569	53.280	-54.366	-8191	255	
1014.506	1	1	0	0	0.089996	0.12424	0.25546	0.15316	0.042274	0.26693	0.29124	0.25608	0.18855	0.0995	0.07718	0.28503	0.054842	0.26688	0.1188	0.4119	-1.5104	-2.7479	-2.2042	-2.0312	-2.575	-1.85	-2.6417	-2.4688	-1.9688	-2.6771	-2.1646	-1.9729	-2.6896	-1.75	-2.4396	-2.5479	4.376	119.274	141.563	-64.964	99.701	-41.805	193.710	215.628	110.713	22.134	-79.857	-62.123	-7.019	221.996	110.253	207.328	6.9088e-05	0.00034651	0.00011527	921.81	1.6756e-06	2.0783e-06	1364.3	198.94	1.211e-06	3.5986e-06	365.04	98.844	43.526	14.033	2.4242e-06	34.464	0.00020215	0.00021928	5.8744e-05	760.41	2.4189e-06	2.3923e-06	1136	165.63	2.3116e-06	2.5153e-06	301.88	82.222	36.845	11.809	2.3829e-06	29.023	239.855	11.867	-4.796	-68.422	130.816	25.655	-68.031	-63.516	129.532	57.431	-64.251	-59.516	-57.473	-53.395	89.453	-54.247	-8191	255	
1014.602	1	1	0	0	0.40185	0.12648	0.18625	0.26977	0.2127	0.19554	0.20031	0.13629	0.31479	0.020387	0.20545	0.10993	0.094983	0.13179	0.28576	0.093562	-1.3167	-2.6729	-2.0604	-2.0646	-2.8333	-1.7604	-2.2521	-2.6646	-1.5562	-2.5938	-2.5354	-1.8146	-2.7521	-1.7458	-2.1292	-2.6437	179.327	84.639	3.989	21.550	183.105	112.370	171.996	132.904	179.166	186.424	216.511	-64.199	193.824	182.571	239.119	239.285	1.6975e-05	0.00038213	0.00015011	925.42	5.2411e-06	4.0514e-06	1372.2	199.64	2.1118e-06	4.3812e-06	362.11	97.349	43.682	13.981	3.8617e-06	34.225	0.00021545	0.00022923	6.0528e-05	763.42	2.448e-06	2.4256e-06	1137.6	166.38	2.4496e-06	2.2621e-06	300.98	81.938	37.025	11.745	2.3765e-06	28.61	109.279	37.718	27.198	-68.462	80.586	49.621	-67.950	-63.325	75.400	88.137	-64.251	-59.310	-57.730	-53.965	28.937	-54.458	-8191	255	
1014.722	1	1	0	0	0.12571	0.12277	0.071591	0.2938	0.06712	0.17747	0.22177	0.2452	0.14657	0.1462	0.062362	0.26759	0.077694	0.12998	0.11163	0.26288	-1.3875	-2.4417	-2.5042	-1.9708	-2.6479	-2.0271	-2.1437	-2.9062	-1.6437	-2.6271	-2.5604	-1.8792	-2.7292	-1.9292	-1.9146	-2.7917	79.344	31.498	-61.727	230.719	-76.075	40.926	222.382	251.514	41.924	89.806	121.223	185.770	231.808	142.381	88.823	15.097	4.0796e-05	0.00059674	0.00012369	921.56	2.495e-06	2.6323e-06	1358	196.96	2.416e-06	9.7615e-06	365.13	97.038	44.209	13.81	4.1003e-06	33.785	0.00020798	0.00021894	6.1461e-05	758.28	2.3727e-06	2.4958e-06	1127	165.09	2.467e-06	2.3156e-06	300.31	81.494	37.162	11.535	2.5404e-06	28.247	226.335	2.233	43.704	-68.229	139.000	57.190	-67.886	-63.097	69.852	51.217	-64.669	-59.673	-58.154	-54.142	74.912	-54.890	-8191	255	
1014.819	1	1	0	0	0.16711	0.17071	0.23586	0.27467	0.097263	0.076069	0.387	0.088099	0.14982	0.37183	0.0385	0.18292	0.37179	0.10263	0.15007	0.21992	-1.4521	-2.4771	-2.4917	-1.675	-2.6896	-2.1125	-2.3312	-2.7667	-1.8708	-2.35	-2.6188	-1.5708	-2.7104	-2.1562	-1.7625	-2.7938	96.237	171.251	223.369	168.863	173.655	182.372	241.542	-72.411	162.847	44.761	75.551	199.125	165.958	-60.080	-60.852	184.410	7.942e-05	0.00027499	0.00017215	918.62	3.3533e-06	2.6854e-06	1359.7	197.97	2.0875e-06	4.9594e-06	360.37	97.09	43.733	13.868	2.0487e-06	33.568	0.00020657	0.00021876	5.8671e-05	756.14	2.4805e-06	2.3993e-06	1127.6	165.68	2.6696e-06	2.3018e-06	298.82	81.768	37.103	11.644	2.3358e-06	28.347	199.122	-8.114	30.705	-68.705	129.373	36.204	-67.680	-63.575	108.329	99.657	-64.819	-59.319	-58.440	-53.391	104.751	-54.119	-8191	255	
1014.890	1	1	0	0	0.070225	0.19653	0.027403	0.2073	0.09339	0.16813	0.24913	0.12817	0.25662	0.096381	0.24191	0.31341	0.092179	0.22197	0.30311	0.09783	-1.4521	-2.1917	-2.4708	-1.7042	-2.5833	-2.175	-1.8792	-2.8042	-1.8896	-1.975	-2.6958	-1.7833	-2.425	-2.2583	-1.8438	-2.7667	134.952	273.672	122.416	262.072	98.791	-79.118	146.993	151.123	190.749	-39.013	195.035	220.088	267.586	213.833	276.315	127.623	7.0801e-05	9.6691e-05	7.9489e-05	923.35	1.2563e-07	2.8529e-06	1365.5	199.34	2.2294e-06	4.3395e-06	363.24	98.132	44.076	13.731	2.9091e-06	34.509	0.00021279	0.00022573	5.9247e-05	759.05	2.484e-06	2.3043e-06	1133.8	165.91	2.3883e-06	2.4067e-06	301.01	82.122	37.395	11.693	2.4566e-06	28.628	207.508	4.376	63.339	-68.010	205.403	35.095	-67.624	-63.488	38.097	-5.871	-64.379	-59.421	-57.265	-54.216	24.577	-54.462	-8191	255	
1014.986	1	1	0	0	0.30163	0.33251	0.038666	0.0653	0.29751	0.25652	0.28128	0.19828	0.19479	0.040618	0.18946	0.22059	0.068565	0.10144	0.14985	0.14214	-1.5333	-2.0875	-2.5375	-1.7729	-2.425	-2.3854	-1.8458	-2.7583	-2.1167	-2.0417	-2.9417	-1.7625	-2.4062	-2.5667	-1.7354	-2.5521	0.049	199.559	49.792	-19.874	91.172	89.601	265.113	212.588	49.553	181.569	-31.918	209.552	259.636	18.857	178.567	256.202	3.2634e-05	0.00053346	5.8187e-05	917.12	4.3188e-06	4.7558e-06	1369.3	198.76	8.975e-07	6.7473e-06	362.16	99.246	43.69	14.158	2.5467e-06	34.096	0.00020888	0.00023801	5.8734e-05	759.6	2.5279e-06	2.5105e-06	1133.7	165.83	2.4912e-06	2.5538e-06	300.73	82.384	36.996	11.756	2.4708e-06	28.589	221.263	10.019	49.775	-67.829	113.774	58.621	-67.910	-63.393	33.655	74.238	-64.817	-59.490	-57.906	-53.615	55.599	-54.531	-8191	255	
1015.107	1	1	0	0	0.11195	0.20407	0.057942	0.27234	0.15364	0.19489	0.2261	0.10794	0.26861	0.41178	0.283	0.13569	0.058474	0.3944	0.18714	0.1925	-1.6396	-1.8021	-2.6	-1.7125	-2.3354	-2.5042	-1.9083	-2.6521	-2.1312	-1.6896	-2.7729	-2.0208	-2.2313	-2.6188	-1.8167	-2.7021	223.180	97.790	123.229	177.134	-44.960	146.794	237.529	273.470	100.644	86.595	94.360	189.838	19.698	182.400	94.401	191.275	3.9527e-05	0.00042514	0.00011366	923.42	4.489e-06	4.1246e-06	1353.7	198.84	8.8493e-07	2.6885e-06	357.13	96.509	44.13	13.829	3.9221e-06	33.877	0.00020153	0.00022741	5.7331e-05	756.85	2.4541e-06	2.2595e-06	1122.2	164.66	2.5043e-06	2.3715e-06	297.12	81.366	36.906	11.613	2.4314e-06	28.373	220.201	36.337	-23.384	-68.599	103.211	18.678	-67.912	-62.998	216.934	55.060	-64.317	-59.624	-57.862	-53.338	45.685	-54.286	-8191	255	
1015.203	1	1	0	0	0.34874	0.21214	0.14617	0.10992	0.08348	0.057227	0.26405	0.049779	0.15215	0.26192	0.16174	0.13236	0.11277	0.059003	0.15864	0.042416	-1.9917	-1.9354	-2.7125	-2.0417	-2.3646	-2.7146	-2.1229	-2.4188	-2.2375	-1.7458	-2.7979	-1.9792	-1.8792	-2.7958	-1.5604	-2.3333	265.027	105.493	231.231	154.331	96.768	45.162	206.722	-38.881	263.561	79.044	174.607	263.367	57.807	261.540	232.703	112.978	6.0745e-05	0.00077609	7.9131e-05	917.44	3.3849e-06	7.3329e-06	1355.4	196.74	8.7939e-07	3.2765e-06	356.41	96.83	43.858	13.74	1.2772e-06	34.153	0.00019776	0.00023331	6.3377e-05	755.16	2.4661e-06	2.3859e-06	1119.4	164.55	2.352e-06	2.5841e-06	296.82	81.146	36.756	11.59	2.4585e-06	28.456	187.285	8.074	-69.289	-68.805	124.010	55.342	-67.879	-63.478	68.499	87.748	-64.442	-59.567	-57.876	-53.537	-64.011	-53.978	-8191	255	
1015.299	1	1	0	0	0.028828	0.32838	0.19383	0.082476	0.17522	0.28926	0.37517	0.24299	0.18446	0.27968	0.25354	0.45439	0.13404	0.13567	0.033645	0.14288	-2.0125	-1.8604	-2.6854	-2.1125	-1.9	-2.575	-1.9958	-2.2812	-2.6063	-1.8104	-2.7604	-2.1229	-1.5667	-2.5208	-1.8062	-2.525	32.104	-35.301	263.294	256.969	250.574	-27.030	207.382	227.124	106.684	203.666	186.764	128.373	7.092	231.156	239.566	249.050	5.0576e-05	9.9153e-05	9.8822e-05	914.43	4.2215e-06	6.3438e-06	1345.5	197.95	2.5859e-06	6.3657e-06	359.67	97.091	43.785	13.68	3.0426e-06	34.26	0.00021353	0.00021907	5.9962e-05	753.46	2.364e-06	2.3021e-06	1118.4	164.54	2.5028e-06	2.5168e-06	298.68	81.416	36.839	11.62	2.4931e-06	28.642	202.903	-56.795	-13.084	-68.339	56.980	33.669	-67.997	-63.404	-7.743	126.375	-64.305	-59.274	-57.889	-53.354	41.859	-54.769	-8191	255	
1015.395	1	1	0	0	0.19547	0.20926	0.094992	0.36505	0.28359	0.32176	0.32842	0.08185	0.22292	0.08712	0.28849	0.1498	0.21503	0.22082	0.28304	0.068013	-2.2062	-1.6479	-2.5229	-2.2125	-1.8292	-2.6271	-2.0229	-2.425	-2.6771	-1.7938	-2.5708	-2.5021	-1.8292	-2.7417	-1.9042	-2.2146	166.656	12.551	171.687	171.348	-21.999	132.880	226.131	71.499	78.724	56.734	223.531	230.730	-37.493	165.112	61.830	108.876	6.1141e-05	0.00021224	0.00012434	918.69	7.7663e-07	5.2824e-06	1355.4	198.9	4.579e-06	2.8083e-06	359.68	98.637	43.945	13.936	2.6189e-06	34.256	0.00021288	0.00023089	6.1977e-05	753.88	2.4184e-06	2.2845e-06	1122.9	164.85	2.276e-06	2.5692e-06	298.93	82.068	37.175	11.755	2.391e-06	28.691	218.569	-18.172	10.404	-68.092	39.013	66.082	-67.827	-63.647	114.688	118.425	-64.283	-59.620	-58.066	-53.207	87.698	-54.066	-8191	255	
1015.492	1	1	0	0	0.13953	0.16992	0.26301	0.11288	0.069778	0.19247	0.15788	0.17651	0.073183	0.078769	0.18527	0.37591	0.078489	0.084711	0.12158	0.29688	-2.3	-1.6333	-2.5062	-2.2729	-1.7	-2.9208	-2.1104	-2.2062	-2.5958	-1.7062	-2.6	-2.5667	-1.675	-2.6583	-2.0687	-2.0563	191.360	106.648	239.966	-59.706	131.420	210.119	212.463	-32.417	80.640	77.642	249.868	239.004	212.170	11.861	60.080	201.070	4.8791e-05	0.0003569	0.00025746	913.47	1.3949e-06	5.713e-06	1347.9	196.63	1.7688e-06	3.5515e-06	357.35	96.027	42.995	13.658	4.061e-06	33.895	0.00020161	0.0002194	6.3715e-05	754.99	2.5115e-06	2.4029e-06	1117.3	164.75	2.416e-06	2.4793e-06	296.58	80.532	36.647	11.51	2.3798e-06	28.186	225.222	9.200	27.767	-68.113	-14.046	53.199	-67.965	-62.998	-27.610	263.333	-64.191	-59.191	-58.542	-52.489	104.028	-54.095	-8191	255	
1015.588	1	1	0	0	0.13267	0.072852	0.19941	0.26431	0.1893	0.12516	0.36443	0.083581	0.093234	0.37989	0.10639	0.04922	0.1799	0.29519	0.049883	0.06492	-2.3771	-1.825	-2.4958	-2.6229	-1.6458	-2.4604	-2.3604	-1.9583	-2.6896	-1.7875	-2.4562	-2.7562	-1.8167	-2.5708	-2.3104	-1.9333	-38.268	171.721	208.674	223.512	130.523	228.783	232.328	215.048	86.933	-17.468	249.217	-36.715	243.020	221.895	218.427	262.082	5.5969e-05	0.00028302	0.000139	910.8	2.0174e-06	3.3988e-06	1347.1	195.83	1.8531e-06	6.8805e-06	358.7	95.238	43.59	13.501	4.4304e-06	33.216	0.00021049	0.00022384	5.8896e-05	753.09	2.5015e-06	2.3439e-06	1115.5	163.93	2.4401e-06	2.4202e-06	296.5	80.223	36.718	11.459	2.3013e-06	27.945	203.089	-44.837	57.040	-68.012	155.266	49.598	-67.777	-62.941	23.735	91.466	-64.091	-59.700	-57.508	-53.302	109.053	-54.395	-8191	255	
1015.707	1	1	0	0	0.19479	0.16426	0.11901	0.41395	0.050935	0.23917	0.1589	0.28225	0.10699	0.18757	0.27325	0.27083	0.13896	0.19026	0.068904	0.19195	-2.4125	-1.9562	-2.175	-2.7208	-1.7229	-2.4521	-2.5292	-2.0229	-2.6458	-2.1021	-2.125	-2.9021	-1.8375	-2.4292	-2.2938	-1.8583	115.060	242.087	168.412	269.648	137.339	-59.490	228.967	-71.943	128.249	195.865	200.682	275.002	174.914	233.039	2.919	259.728	3.9346e-05	0.00023186	0.00023768	914.7	3.026e-06	6.0844e-06	1354.6	197.51	2.1168e-06	3.8724e-06	360.76	96.837	43.728	13.533	4.6367e-06	33.71	0.00020099	0.00021241	5.8089e-05	753.91	2.5898e-06	2.2389e-06	1121.2	164.81	2.381e-06	2.3887e-06	297.53	81.031	36.962	11.469	2.3659e-06	28.322	223.169	-14.157	28.395	-68.234	-19.627	71.043	-68.072	-62.841	87.723	63.679	-64.163	-59.772	-58.124	-53.348	66.466	-53.972	-8191	255	
1015.803	1	1	0	0	0.12231	0.19643	0.098303	0.164	0.23959	0.035984	0.28791	0.10023	0.13308	0.22271	0.13188	0.21766	0.075112	0.46458	0.14905	0.13907	-2.1667	-1.9625	-1.9188	-2.6854	-1.8083	-2.525	-2.6042	-1.7771	-2.6042	-2.2125	-1.9021	-2.7812	-1.8792	-2.35	-2.4771	-1.7979	150.765	-27.935	193.049	204.117	126.938	40.900	226.536	91.315	-23.448	131.993	168.394	213.532	84.862	252.697	165.122	214.651	6.4786e-06	0.00034768	0.00019589	920.02	1.2055e-06	4.297e-06	1356.4	198.31	2.3418e-06	1.3745e-06	361.36	96.896	43.372	13.619	5.6021e-06	33.621	0.00019895	0.00022658	6.0392e-05	756.35	2.39e-06	2.3824e-06	1124.7	165.34	2.3972e-06	2.4516e-06	299.39	81.132	36.505	11.552	2.4261e-06	28.315	142.872	44.294	11.450	-67.975	59.594	73.126	-67.797	-62.841	226.894	72.365	-63.934	-59.386	-57.552	-52.949	105.079	-54.088	-8191	255	
1015.899	1	1	0	0	0.17851	0.20432	0.17483	0.25988	0.31645	0.12918	0.37131	0.083686	0.1405	0.25074	0.4487	0.28007	0.1773	0.26515	0.14349	0.1774	-2.3792	-2.1813	-2.0958	-2.8667	-2.0021	-2.0979	-2.6792	-1.8937	-2.375	-2.3646	-1.7667	-2.8688	-1.9021	-2.0875	-2.6354	-1.7021	142.235	234.036	171.390	-57.980	101.276	246.876	236.628	223.507	2.187	220.767	211.203	236.127	252.758	186.469	184.984	219.465	4.3107e-05	0.00043768	8.7855e-06	916.5	2.7029e-06	6.127e-06	1338.3	195.75	1.5707e-06	6.442e-06	356.99	95.788	42.97	13.786	4.8849e-06	33.987	0.00020784	0.00021406	6.1786e-05	753.19	2.404e-06	2.3982e-06	1114.4	163.7	2.4741e-06	2.4929e-06	295.86	80.398	36.431	11.605	2.383e-06	28.203	200.215	33.225	-62.418	-68.021	20.428	69.868	-68.216	-63.171	50.563	37.177	-64.328	-58.964	-58.212	-52.917	98.133	-54.289	-8191	255	
1015.995	1	1	0	0	0.18799	0.21451	0.099219	0.15604	0.12005	0.20492	0.041665	0.19421	0.25473	0.082805	0.12195	0.15162	0.037318	0.30777	0.12709	0.22708	-2.3333	-2.1646	-2.0417	-2.7771	-2.0042	-2.1604	-2.8229	-1.8167	-2.6937	-2.3646	-1.8833	-2.8604	-1.9667	-1.8937	-2.6354	-1.7542	-61.360	-63.298	118.572	-61.641	66.065	147.469	263.447	252.316	59.836	177.752	263.495	268.939	264.306	162.107	58.653	192.561	1.1962e-06	8.2615e-05	9.0524e-05	906.79	4.6128e-06	4.8424e-06	1341.6	195.81	8.8543e-07	4.5604e-06	354.42	95.292	42.898	13.603	3.0451e-06	33.457	0.00021372	0.00021674	5.8886e-05	748.38	2.4504e-06	2.3388e-06	1110	163.21	2.5373e-06	2.4017e-06	293.97	80.03	36.193	11.463	2.3501e-06	28.201	40.731	37.918	-63.817	-68.682	27.821	41.321	-67.693	-63.886	148.748	97.553	-64.973	-59.659	-58.157	-52.744	-9.102	-54.532	-8191	255	
1016.116	1	1	0	0	0.29632	0.093582	0.14388	0.24774	0.11488	0.032027	0.46973	0.19058	0.26283	0.24387	0.13268	0.15132	0.02815	0.12426	0.29346	0.159	-2.0708	-2.3375	-1.5917	-2.6979	-2.2313	-1.8208	-2.8458	-2.0187	-2.3312	-2.5563	-1.85	-2.7604	-2.4146	-1.9896	-2.7229	-1.9833	107.769	154.828	27.675	-66.927	51.597	163.501	205.398	216.988	231.681	111.705	112.405	160.950	-51.631	-48.738	141.466	160.644	6.8336e-05	0.00013608	9.51e-05	902.63	3.8971e-06	5.0486e-06	1339.9	195.06	1.3888e-06	5.1353e-06	354.14	94.847	43.398	13.708	3.8898e-06	33.567	0.00021767	0.0002234	6.0918e-05	747.38	2.499e-06	2.4398e-06	1108.8	162.04	2.5538e-06	2.3178e-06	292.96	79.793	36.39	11.442	2.4599e-06	28.232	180.922	-8.118	-67.592	-67.997	-1.919	69.228	-67.617	-63.611	77.286	67.243	-64.567	-58.962	-57.889	-52.870	68.528	-54.259	-8191	255	
1016.187	1	1	0	0	0.15583	0.21868	0.25115	0.089865	0.1014	0.22208	0.12326	0.28435	0.10311	0.31701	0.30301	0.20594	0.33134	0.22326	0.091252	0.2081	-1.825	-2.5375	-1.7417	-2.7375	-2.0979	-1.8625	-2.9813	-1.7396	-2.0771	-2.6333	-2.0167	-2.4938	-2.5042	-1.7604	-2.6063	-1.8729	257.630	250.250	-76.641	18.766	152.703	7.862	232.453	234.893	249.780	267.323	229.289	22.188	188.746	-52.975	273.464	100.697	5.6535e-05	0.00062622	8.4497e-05	900.22	2.6401e-06	9.3798e-06	1337.3	196.18	1.007e-06	1.6732e-06	356.67	95.851	42.701	13.568	2.2645e-06	33.799	0.00021325	0.00022522	6.6664e-05	745.96	2.4397e-06	2.3888e-06	1112.5	163.04	2.5387e-06	2.372e-06	294.85	80.306	36.157	11.495	2.3136e-06	28.342	208.209	-34.728	20.894	-67.840	141.265	24.269	-67.826	-63.530	140.395	54.926	-64.834	-59.190	-58.037	-53.120	42.709	-54.053	-8191	255	
1016.284	1	1	0	0	0.25745	0.14197	0.22501	0.32678	0.075603	0.072575	0.12401	0.11564	0.26552	0.18666	0.10528	0.1325	0.21969	0.28361	0.16332	0.13465	-1.6688	-2.4625	-1.7646	-2.4292	-2.4354	-1.7687	-2.8542	-2.0563	-2.2062	-2.7812	-2.0229	-2.4604	-2.5312	-1.8125	-2.6417	-2.2208	-53.506	245.528	108.068	241.666	-37.799	130.273	6.105	-80.505	20.635	136.535	255.533	-41.378	153.798	164.162	142.884	146.644	5.6247e-05	0.00067429	0.00017573	904.05	4.0968e-06	4.1778e-06	1342.9	197.83	2.8665e-06	2.4284e-06	354.34	95.496	43.078	13.578	3.857e-06	33.603	0.00020954	0.00021972	5.97e-05	749.2	2.5047e-06	2.4536e-06	1111.8	163.56	2.404e-06	2.4545e-06	293.62	80.278	36.403	11.486	2.4695e-06	28.012	173.367	43.886	31.760	-68.203	59.358	39.847	-67.789	-63.758	5.832	79.181	-64.058	-59.660	-58.273	-52.761	-1.756	-54.593	-8191	255	
1016.380	1	1	0	0	0.10107	0.16974	0.18504	0.19674	0.14491	0.059476	0.28544	0.02692	0.14382	0.22354	0.056368	0.23209	0.25103	0.21964	0.078901	0.087263	-1.3521	-2.5812	-1.9354	-2.2354	-2.6063	-1.8188	-2.675	-2.1813	-1.7687	-2.8458	-1.9417	-2.3771	-2.55	-1.7146	-2.3396	-2.2792	179.281	210.514	163.177	217.344	157.908	195.776	249.890	-26.197	-2.751	-23.543	262.234	250.503	212.159	47.723	82.556	169.800	4.0268e-05	0.00044969	4.8706e-05	901.87	2.2186e-06	2.7225e-06	1329.5	193.77	2.1731e-06	2.6193e-06	354.56	94.873	43.017	13.436	5.3498e-06	33.166	0.00021142	0.00023064	6.2682e-05	745.52	2.3426e-06	2.5283e-06	1104.5	161.48	2.5125e-06	2.3307e-06	293.19	79.687	36.243	11.362	2.4387e-06	27.67	202.088	-34.997	71.153	-67.911	79.212	31.927	-67.763	-63.640	74.261	37.384	-64.593	-59.007	-57.992	-53.728	50.958	-54.418	-8191	255	
1016.499	1	1	0	0	0.28583	0.19512	0.19886	0.22124	0.092276	0.23596	0.06355	0.25051	0.12285	0.29869	0.1239	0.32528	0.10304	0.1013	0.1288	0.20069	-1.3792	-2.5167	-1.6625	-2.0583	-2.6063	-1.6396	-2.6396	-2.2208	-1.8333	-2.6604	-2.2313	-2.0146	-2.725	-1.8917	-2.2896	-2.3896	7.169	173.411	230.772	-31.273	160.736	254.201	194.388	128.219	187.711	-7.785	237.912	231.776	-50.300	231.612	58.219	161.739	3.0769e-05	0.00045512	9.013e-05	902.16	5.7899e-06	5.3503e-06	1334.9	194.06	4.9042e-06	2.4455e-06	354.48	94.466	42.803	13.422	3.2003e-06	33.158	0.00021211	0.00022167	6.5396e-05	743.4	2.5358e-06	2.4489e-06	1106.3	162.37	2.6007e-06	2.4243e-06	293.41	79.943	36.125	11.381	2.3879e-06	27.805	238.371	35.635	30.320	-68.379	108.656	91.669	-67.718	-63.801	99.529	126.435	-64.700	-59.030	-58.161	-53.510	99.467	-54.170	-8191	255	
1016.595	1	1	0	0	0.070291	0.11747	0.18514	0.20419	0.051546	0.085835	0.12541	0.17661	0.13329	0.19421	0.21375	0.065936	0.14009	0.22471	0.06716	0.15983	-1.1437	-2.4417	-2.1437	-2.0375	-2.6	-1.8	-2.4562	-2.5	-1.7583	-2.6458	-2.225	-2.0458	-2.6417	-1.9062	-2.1417	-2.4875	-56.866	248.004	187.205	-51.472	127.470	94.705	-80.193	154.659	78.317	109.917	177.513	150.106	161.824	-51.838	19.916	-0.416	4.195e-05	0.00027846	0.00015304	901.3	5.2049e-06	5.587e-06	1334.7	196.32	1.8608e-06	5.1815e-06	353.92	95.764	43.446	13.633	2.1992e-06	33.898	0.0002107	0.0002175	6.1729e-05	748.6	2.4083e-06	2.4727e-06	1113.3	163.18	2.4258e-06	2.3141e-06	294.11	80.532	36.466	11.451	2.3769e-06	28.229	187.997	-1.278	36.356	-68.495	130.739	71.445	-67.647	-63.399	21.123	14.780	-64.646	-59.298	-57.737	-53.588	104.169	-54.321	-8191	255	
1016.691	1	1	0	0	0.27136	0.041775	0.14663	0.0029392	0.046284	0.26503	0.12245	0.07443	0.19145	0.098763	0.062491	0.22961	0.18872	0.085133	0.2007	0.17214	-1.4438	-2.6625	-2.1208	-1.8604	-2.8083	-1.7458	-2.4021	-2.6437	-1.5833	-2.6688	-2.3792	-1.7667	-2.6854	-1.8188	-2.1771	-2.5979	189.754	253.129	262.664	-5.167	-18.533	-80.670	195.229	-9.179	88.921	187.551	88.358	147.519	61.595	273.107	38.745	-29.069	1.9892e-05	0.00034341	0.00010904	907.06	1.733e-06	3.486e-06	1348.3	196.18	3.4168e-06	4.6264e-06	356.76	95.353	42.863	13.673	2.4844e-06	33.41	0.00021042	0.00021991	6.0184e-05	749.09	2.4634e-06	2.4708e-06	1115.8	163.22	2.4171e-06	2.5939e-06	293.83	80.175	36.294	11.478	2.5613e-06	28.157	189.194	21.646	12.616	-68.640	-34.113	74.545	-67.761	-63.868	68.544	30.070	-64.563	-59.634	-58.165	-53.087	166.851	-54.715	-8191	255	
1016.787	1	1	0	0	0.16142	0.2319	0.098727	0.39037	0.10202	0.18227	0.25782	0.35768	0.10386	0.12845	0.23942	0.17433	0.2779	0.21817	0.06001	0.24783	-1.45	-2.6229	-2.1396	-1.775	-2.4875	-1.8854	-2.3312	-2.5854	-1.6396	-2.3792	-2.4479	-1.8542	-2.6479	-2.1688	-1.9646	-2.7396	203.458	10.161	81.464	202.232	85.117	6.097	200.726	205.633	248.962	56.588	147.304	136.025	255.867	9.908	138.698	-9.085	3.9629e-05	0.00039411	0.00013962	903.8	3.5637e-06	7.668e-06	1328.2	194.12	2.2125e-06	2.8589e-06	349.04	94.009	42.67	13.527	5.1021e-06	33.45	0.00022013	0.00022226	5.969e-05	744.99	2.5161e-06	2.4867e-06	1103	161.74	2.6092e-06	2.5214e-06	289.42	79.196	35.864	11.401	2.5389e-06	27.935	241.325	47.573	52.181	-68.550	77.907	60.361	-67.734	-63.607	64.345	134.211	-64.701	-59.694	-57.816	-52.798	99.832	-54.777	-8191	255	
1016.883	1	1	0	0	0.062488	0.047505	0.11824	0.054744	0.096957	0.046564	0.28278	0.12691	0.10233	0.3697	0.14038	0.17707	0.084601	0.20326	0.14674	0.16756	-1.3104	-2.4083	-2.3187	-1.8979	-2.6125	-1.9917	-1.9292	-3.0125	-1.5417	-2.4375	-2.5604	-1.8	-2.4458	-2.1208	-1.7104	-2.7479	-60.755	-14.783	-45.127	166.695	205.150	202.782	199.122	-48.722	136.448	131.509	134.219	248.693	85.680	66.616	225.391	53.071	7.186e-05	0.00017206	0.00015114	889.15	7.1174e-06	3.346e-06	1311.4	192.17	2.4083e-06	3.4208e-06	349.8	94.696	42.479	13.478	3.099e-06	33.311	0.00021577	0.00023098	6.022e-05	737.64	2.4963e-06	2.5388e-06	1094.8	160.28	2.4684e-06	2.3921e-06	290.52	79.378	35.906	11.376	2.5068e-06	28.022	199.717	-21.268	21.080	-68.582	77.414	-3.411	-67.772	-63.666	86.382	85.644	-64.414	-59.437	-57.419	-53.153	72.375	-54.803	-8191	255	
1016.979	1	1	0	0	0.099497	0.22321	0.1691	0.040137	0.17165	0.41257	0.26051	0.088137	0.12718	0.10288	0.036293	0.19522	0.29229	0.16445	0.21991	0.028824	-1.5229	-2.1667	-2.4417	-1.7563	-2.4667	-2.3146	-1.9208	-2.6708	-1.8354	-1.9583	-2.525	-1.7583	-2.6	-2.3542	-1.6083	-2.7458	80.073	-73.761	186.321	207.337	79.629	229.623	232.340	130.715	181.236	49.600	257.826	-37.516	199.246	27.220	-62.986	84.426	5.5533e-05	0.00013887	7.242e-05	887.03	4.1417e-06	3.2442e-06	1322.6	191.96	5.063e-06	2.4712e-06	354.44	93.628	41.698	13.517	2.0469e-06	33.255	0.0002128	0.00023316	6.0015e-05	735.69	2.4739e-06	2.5359e-06	1101.7	160.38	2.4601e-06	2.5514e-06	293.25	79.777	35.778	11.354	2.6663e-06	27.968	154.089	87.697	23.218	-68.746	1.934	82.492	-68.321	-63.253	83.437	63.608	-64.261	-59.280	-57.998	-53.768	86.368	-54.516	-8191	255	
1017.075	1	1	0	0	0.33738	0.28394	0.28774	0.31993	0.18547	0.35154	0.17898	0.15201	0.11444	0.030807	0.13035	0.090355	0.34345	0.20048	0.10511	0.18488	-1.6729	-2.0583	-2.6813	-1.8604	-2.1542	-2.3792	-1.9417	-2.7375	-2.0542	-1.9875	-2.9375	-1.7313	-2.3812	-2.3979	-1.6146	-2.6271	-44.695	244.435	153.591	104.519	92.830	146.961	-64.699	204.960	47.265	151.732	-29.119	110.904	252.212	-42.539	-42.393	-27.775	6.7993e-05	0.00023616	0.00010184	900.42	5.1988e-06	1.5714e-06	1329.2	195.09	1.2336e-06	4.4856e-06	357.67	94.356	42.654	13.409	3.2222e-06	33.308	0.00021852	0.00022779	6.5251e-05	740.11	2.4032e-06	2.3536e-06	1103.3	161.95	2.5647e-06	2.5185e-06	294.39	79.707	36.14	11.341	2.4715e-06	27.986	167.754	-53.638	1.881	-68.638	20.410	84.868	-67.756	-63.799	74.154	81.693	-64.791	-59.508	-58.017	-53.273	127.656	-54.778	-8191	255	
1017.196	1	1	0	0	0.086485	0.25262	0.068987	0.2001	0.11105	0.089465	0.24462	0.087445	0.054824	0.23614	0.39813	0.071649	0.21251	0.061479	0.21565	0.095856	-1.9396	-1.9458	-2.7229	-1.7375	-2.3604	-2.5208	-1.8896	-2.6375	-2.1875	-1.8771	-2.7229	-2.0792	-2.3	-2.6188	-1.7062	-2.675	-19.402	-18.193	85.722	191.526	143.855	27.908	220.075	193.126	-36.841	-6.615	-76.342	-60.978	252.667	239.772	57.289	229.443	6.0727e-05	0.00034754	7.5945e-05	903.01	3.9232e-06	3.5136e-06	1325.6	193.25	2.8408e-06	3.2338e-06	348.34	94.238	42.713	13.322	9.2196e-07	32.843	0.00020479	0.00022002	6.3503e-05	745.15	2.4921e-06	2.5127e-06	1097.8	161.68	2.3949e-06	2.361e-06	290.57	79.098	36.093	11.256	2.5487e-06	27.672	174.728	-25.169	-0.544	-68.434	159.906	116.405	-67.848	-63.438	107.628	96.522	-64.677	-59.498	-58.375	-53.867	65.134	-54.204	-8191	255	
1017.292	1	1	0	0	0.14549	0.18251	0.24626	0.2098	0.17156	0.12295	0.22098	0.20207	0.19303	0.090551	0.2535	0.14412	0.10308	0.058391	0.16635	0.092602	-1.8813	-1.8563	-2.6688	-1.8229	-1.9875	-2.6083	-1.8792	-2.6083	-2.1688	-1.5875	-2.7021	-1.7708	-1.9917	-2.7979	-1.5583	-2.3583	-3.195	157.158	205.806	-65.774	241.682	-16.342	191.756	37.366	143.167	261.421	204.694	246.551	243.589	142.216	85.916	-81.467	2.2122e-05	0.00017795	0.00014856	891.27	1.4435e-06	4.0842e-06	1324.3	193.02	5.3162e-06	9.7227e-06	355.59	94.788	42.417	13.377	3.3206e-06	33.585	0.00020616	0.00023411	6.071e-05	737.29	2.528e-06	2.3718e-06	1099.9	161.17	2.481e-06	2.3705e-06	291.71	79.416	35.851	11.274	2.3464e-06	28.09	224.252	-41.611	-79.360	-68.604	101.202	75.043	-67.990	-63.617	62.665	74.806	-64.412	-59.846	-58.169	-53.381	9.880	-53.805	-8191	255	
1017.388	1	1	0	0	0.1281	0.19688	0.07274	0.38386	0.29821	0.1368	0.11584	0.24429	0.20108	0.069309	0.10147	0.22749	0.32324	0.12444	0.29288	0.089659	-2.0812	-1.5063	-2.6792	-2.1167	-1.7854	-2.7542	-1.8125	-2.3146	-2.5062	-1.6313	-2.8354	-2.0792	-1.7396	-2.7	-1.6729	-2.5062	-10.774	14.033	258.486	102.100	85.608	248.249	66.466	-64.739	77.084	261.038	228.590	63.175	216.402	244.864	202.389	-80.806	4.3359e-05	0.00057881	8.1078e-05	903.43	1.9486e-06	3.9003e-06	1338	194.97	1.875e-06	8.2528e-06	359.17	95.948	42.333	13.64	3.2484e-06	34.158	0.00020528	0.00021671	5.9439e-05	742.92	2.3574e-06	2.5125e-06	1105.3	162.15	2.348e-06	2.4213e-06	294.74	79.958	35.799	11.44	2.3824e-06	28.445	192.148	-25.033	-27.166	-67.943	152.610	107.361	-68.106	-63.272	146.060	71.744	-64.396	-59.780	-57.952	-53.907	66.176	-54.027	-8191	255	
1017.485	1	1	0	0	0.21506	0.24406	0.16789	0.086986	0.13176	0.24549	0.24508	0.20728	0.10811	0.16021	0.17816	0.1423	0.051058	0.14591	0.16679	0.15279	-2.325	-1.7083	-2.6625	-2.2771	-1.9833	-2.7208	-2.1042	-2.3104	-2.6604	-1.7313	-2.6979	-2.3208	-1.8312	-2.6771	-1.9146	-2.0167	-21.839	175.580	13.451	55.694	260.207	144.748	-69.107	248.509	274.451	95.198	123.756	221.427	170.675	-66.098	185.443	188.570	7.6771e-05	0.00035635	0.00014869	901.34	3.1849e-07	7.4587e-06	1343.9	194.9	2.153e-06	2.2227e-06	356.77	95.033	42.248	13.591	3.4164e-06	34.522	0.00021856	0.00022299	6.1809e-05	741.22	2.4391e-06	2.2943e-06	1110	161.85	2.2936e-06	2.3433e-06	294.99	80.172	36.108	11.551	2.3007e-06	28.784	204.189	17.326	-7.664	-68.695	206.789	36.878	-67.939	-63.679	33.469	127.596	-64.296	-59.566	-57.863	-53.201	48.205	-53.939	-8191	255	
1017.579	1	1	0	0	0.22959	0.45446	0.10819	0.34338	0.34048	0.2299	0.10751	0.087607	0.0028251	0.11828	0.12601	0.10101	0.054968	0.24442	0.1421	0.45542	-2.3896	-1.4667	-2.4396	-2.4146	-1.6979	-2.6979	-2.2208	-1.9979	-2.5792	-1.8583	-2.4313	-2.5833	-1.6938	-2.5771	-1.9937	-2.0104	-25.968	35.933	-7.363	195.691	44.533	85.770	258.254	123.703	52.192	134.867	251.096	156.532	-46.363	251.445	223.876	194.202	5.7438e-05	0.0003833	6.0184e-05	896.85	6.1325e-07	3.5731e-06	1336.5	195.09	3.9223e-06	4.5197e-06	354.5	94.785	42.044	13.741	1.7215e-06	34.565	0.00020864	0.00021785	5.4461e-05	741.04	2.5176e-06	2.2174e-06	1106.5	162.12	2.2099e-06	2.359e-06	292.35	79.798	35.71	11.575	2.3629e-06	28.658	234.526	4.080	-12.585	-68.804	138.462	45.432	-67.860	-63.385	35.525	62.927	-64.610	-59.826	-58.169	-53.486	87.611	-54.713	-8191	255	
1017.675	1	1	0	0	0.11535	0.39044	0.17197	0.25597	0.15231	0.10602	0.36864	0.2212	0.18528	0.19109	0.11718	0.096951	0.15125	0.2405	0.20272	0.082362	-2.4083	-1.5187	-2.2896	-2.7292	-1.7625	-2.65	-2.3208	-2.075	-2.6479	-1.7729	-2.5583	-2.6979	-1.8208	-2.6625	-2.3958	-1.7938	-72.227	76.147	15.666	247.469	258.876	-65.633	235.445	211.836	-10.273	195.632	229.921	-10.337	266.563	239.568	-66.569	172.079	9.3884e-05	0.00039039	8.862e-05	896.77	1.5811e-06	1.8242e-06	1326.9	192.42	3.3975e-06	8.0217e-06	352.57	94.307	42.558	13.646	4.3446e-06	34.058	0.00020026	0.00022163	6.1302e-05	738.18	2.2905e-06	2.2578e-06	1100.5	160.03	2.2615e-06	2.3233e-06	292.11	79.802	35.765	11.536	2.2818e-06	28.556	227.376	-12.579	-32.198	-68.139	114.359	109.590	-68.537	-63.770	155.905	109.286	-63.895	-59.478	-57.296	-52.815	80.872	-54.647	-8191	255	
1017.796	1	1	0	0	0.098257	0.23448	0.068186	0.34241	0.32492	0.29252	0.45482	0.24173	0.28965	0.26103	0.30237	0.1419	0.19944	0.14858	0.051997	0.15294	-2.3396	-1.8563	-2.0271	-2.6479	-1.725	-2.65	-2.4813	-1.8563	-2.6604	-1.8208	-2.0542	-2.9521	-1.7313	-2.5458	-2.3917	-1.7729	-32.094	217.421	20.385	249.007	111.624	142.095	215.333	104.266	95.659	183.115	6.255	205.282	27.541	-58.484	-33.020	172.311	1.118e-05	0.00068948	5.1774e-05	889.37	3.8713e-06	4.6594e-06	1326	193.2	3.1426e-06	6.335e-06	349.78	95.109	42.291	13.735	4.5097e-06	33.749	0.00020873	0.00022484	6.3497e-05	734.71	2.486e-06	2.2834e-06	1097.6	159.99	2.3917e-06	2.4139e-06	291.11	79.875	35.656	11.511	2.335e-06	28.369	6.869	28.550	48.728	-67.985	102.892	66.187	-68.110	-63.596	91.573	74.642	-64.379	-59.285	-58.111	-53.223	72.740	-54.520	-8191	255	
1017.892	1	1	0	0	0.13197	0.023046	0.20763	0.14989	0.2962	0.12486	0.2715	0.22218	0.085391	0.12136	0.026328	0.15637	0.065045	0.42294	0.3678	0.23734	-2.4146	-2.1979	-1.8896	-2.6479	-1.6854	-2.3625	-2.7479	-1.7812	-2.6417	-2.175	-1.8188	-2.8125	-1.8062	-2.2729	-2.4896	-1.9917	-65.939	70.437	181.972	-67.284	59.177	82.889	212.448	-79.402	243.195	259.562	-14.002	138.893	90.532	232.981	81.180	12.318	8.2176e-05	0.00067279	6.9852e-05	901.19	4.2224e-06	3.1168e-06	1326.3	192.63	3.4245e-06	5.2545e-06	355.45	95.415	42.688	13.711	3.9912e-06	33.918	0.00021657	0.00021619	6.0253e-05	741.49	2.5222e-06	2.4612e-06	1099.2	160.67	2.4348e-06	2.4816e-06	292.09	79.858	35.819	11.524	2.5718e-06	28.494	225.133	15.493	58.233	-68.880	48.015	137.606	-68.332	-63.126	79.604	63.454	-63.937	-59.750	-57.616	-52.976	88.117	-54.033	-8191	255	
1017.988	1	1	0	0	0.23515	0.15279	0.028966	0.064032	0.09253	0.082899	0.39368	0.24624	0.1406	0.022889	0.23872	0.064571	0.18376	0.13521	0.06168	0.095648	-2.2396	-2.1708	-1.8354	-2.8833	-1.7812	-2.2438	-2.975	-1.85	-2.3208	-2.2583	-1.7812	-2.8	-1.925	-2.1521	-2.6542	-1.8417	264.917	222.933	241.524	78.118	273.698	230.641	221.805	134.508	205.186	253.597	237.426	-35.939	-28.215	-50.503	53.918	24.944	6.799e-05	0.00048712	1.9022e-05	908.74	3.2973e-06	1.8512e-06	1329	192.89	1.8786e-06	4.4483e-06	349.41	94.646	41.842	13.475	2.2809e-06	33.568	0.00021149	0.00022125	6.0107e-05	744.18	2.3635e-06	2.4894e-06	1100.4	160.3	2.4735e-06	2.4339e-06	290.76	79.465	35.452	11.389	2.5105e-06	27.954	227.197	-25.493	261.421	-68.553	130.999	114.166	-67.808	-63.474	99.443	89.605	-64.223	-59.444	-57.740	-52.464	74.927	-54.677	-8191	255	
1018.060	1	1	0	0	0.17475	0.17262	0.27542	0.21368	0.089788	0.31824	0.28986	0.19381	0.13028	0.27428	0.11298	0.10239	0.20503	0.049161	0.070465	0.037243	-1.9646	-2.4729	-1.6479	-2.6646	-1.9062	-2.2188	-2.7125	-1.8042	-2.5458	-2.4208	-1.8563	-2.5729	-1.8687	-2.1625	-2.6437	-1.825	131.232	50.291	-49.147	68.607	83.584	93.362	239.869	155.174	80.878	-23.478	192.404	172.953	61.948	209.549	153.540	206.650	5.9733e-05	0.00041572	0.00011556	889.25	1.9702e-06	3.9351e-06	1311.2	191.85	2.5838e-06	3.7566e-07	347.07	93.767	42.268	13.387	3.7149e-06	33.123	0.00020665	0.00022468	6.392e-05	736.06	2.6468e-06	2.4979e-06	1089	159.36	2.4339e-06	2.4849e-06	287.94	78.863	35.541	11.306	2.4761e-06	27.853	229.255	33.352	17.562	-68.342	119.447	76.866	-68.059	-63.570	48.578	126.382	-64.072	-59.543	-57.800	-53.547	96.293	-54.876	-8191	255	
1018.180	1	1	0	0	0.082307	0.24627	0.072284	0.092026	0.29825	0.053888	0.42113	0.20768	0.066147	0.12108	0.2552	0.14378	0.11366	0.27207	0.046407	0.12914	-2.075	-2.4729	-1.7	-2.7938	-1.9854	-2.0229	-3.0854	-1.7896	-2.1979	-2.6083	-1.8146	-2.6583	-2.2979	-1.775	-2.5938	-1.9458	-24.064	103.676	152.613	210.309	3.873	251.566	202.533	177.938	-13.147	149.239	108.391	226.119	-81.263	205.385	277.996	266.347	7.4512e-05	0.00049123	6.1483e-05	887.62	5.0708e-06	2.4013e-06	1307.8	192.39	3.5335e-06	5.2864e-06	350.36	93.871	42.4	13.458	3.1265e-06	33.305	0.00021606	0.00021254	6.4354e-05	735.58	2.3095e-06	2.4278e-06	1091.1	159.56	2.4457e-06	2.3713e-06	290.13	79.124	35.494	11.362	2.2613e-06	27.903	216.401	19.985	8.896	-68.122	32.946	13.842	-68.225	-63.689	96.976	95.060	-64.196	-59.516	-57.907	-53.222	26.881	-54.332	-8191	255	
1018.276	1	1	0	0	0.10965	0.10017	0.39835	0.08148	0.22679	0.1195	0.17357	0.21427	0.18565	0.21815	0.08503	0.11042	0.31797	0.066152	0.18708	0.38196	-2.0292	-2.5458	-1.6417	-2.5354	-2.325	-1.7437	-2.9333	-1.8792	-2.0563	-2.7333	-1.7833	-2.3375	-2.3021	-1.7083	-2.65	-2.1625	25.958	111.490	271.943	72.455	200.977	169.641	191.323	160.844	259.926	19.938	64.230	-26.002	-38.443	202.122	214.511	245.227	3.1455e-05	0.00025857	3.8562e-05	891.8	1.2236e-06	1.6695e-06	1323.4	192.08	2.2269e-06	2.1532e-06	352.69	94.79	42.605	13.397	3.4655e-06	33.323	0.00019932	0.00020789	6.3533e-05	734.92	2.411e-06	2.3697e-06	1096.2	159.72	2.3163e-06	2.3371e-06	292.41	79.445	35.898	11.324	2.2169e-06	28.077	228.807	-9.455	37.294	-68.000	46.685	38.005	-68.006	-63.243	47.567	50.373	-64.113	-59.607	-57.961	-52.773	55.255	-55.091	-8191	255	
1018.373	1	1	0	0	0.1303	0.14965	0.27333	0.17564	0.18854	0.19942	0.22951	0.28732	0.010013	0.19848	0.1796	0.17253	0.18473	0.067176	0.1933	0.14133	-1.5833	-2.6437	-1.8583	-2.4938	-2.3271	-2.0062	-2.7292	-2.1333	-2.0125	-2.6458	-1.8271	-2.5979	-2.6729	-1.775	-2.7	-2.1688	271.060	75.267	273.696	271.318	210.734	27.981	190.870	268.929	109.235	98.416	239.957	246.924	31.124	64.296	96.353	158.058	7.7209e-05	0.00024532	0.00017889	889.95	4.2646e-06	5.4828e-06	1317.4	192.1	1.4327e-06	7.3145e-06	352.17	94.294	42.283	13.4	2.2073e-06	33.044	0.00019095	0.00019763	6.3775e-05	738.79	2.3772e-06	2.4046e-06	1095	160.35	2.4404e-06	2.3932e-06	290.47	79.233	35.628	11.289	2.1689e-06	27.606	185.578	66.489	-10.446	-68.207	9.110	63.073	-68.353	-63.746	148.104	80.890	-64.508	-59.390	-57.872	-53.788	58.543	-54.572	-8191	255	
1018.469	1	1	0	0	0.23422	0.18479	0.31149	0.27005	0.19078	0.22474	0.43438	0.09141	0.26046	0.24348	0.1925	0.12122	0.31891	0.14566	0.11951	0.21346	-1.4333	-2.6417	-1.7104	-2.3438	-2.3708	-1.7188	-2.7896	-2.3479	-1.7646	-2.6458	-1.8	-2.2021	-2.5229	-1.7854	-2.3937	-2.3896	272.378	34.078	161.005	-20.138	152.977	251.984	231.067	232.170	185.667	167.928	261.232	228.645	186.566	-57.452	-15.008	128.126	5.8738e-05	0.00022948	0.0001054	876.08	2.4565e-06	9.1355e-06	1312.7	190.85	1.9195e-06	1.8765e-06	347.59	94.232	41.724	13.289	1.1244e-06	33.113	0.00020596	0.00020592	5.9853e-05	733.13	2.3515e-06	2.3348e-06	1089.8	159.29	2.4112e-06	2.3502e-06	286.41	78.674	35.29	11.213	2.2747e-06	27.76	181.294	31.301	30.981	-68.456	79.054	113.922	-67.993	-63.224	34.581	18.138	-64.253	-59.629	-57.991	-53.197	1.152	-54.847	-8191	255	
1018.588	1	1	0	0	0.030501	0.15479	0.19286	0.13627	0.20597	0.12993	0.25118	0.20361	0.099561	0.13755	0.29341	0.14087	0.084174	0.046983	0.13848	0.20759	-1.3	-2.7188	-1.9167	-2.0396	-2.6458	-1.8438	-2.5104	-2.4042	-1.5917	-2.7375	-2.0396	-2.1104	-2.55	-1.7333	-2.2062	-2.4813	47.210	-64.672	26.548	191.888	9.625	-43.761	211.376	97.775	164.292	44.697	234.528	214.601	212.704	102.579	267.254	269.568	7.4601e-05	0.00037237	0.0001368	888.97	2.663e-06	1.6371e-06	1314.9	190.46	5.8041e-07	6.19e-06	346.11	93.966	41.711	13.485	5.6623e-06	33.533	0.0002034	0.00020865	5.8145e-05	732.34	2.3936e-06	2.4074e-06	1089.9	158.38	2.344e-06	2.3196e-06	288.18	79.042	35.334	11.309	2.4753e-06	27.975	215.563	-0.838	-5.972	-68.571	79.898	121.075	-68.213	-63.267	145.663	85.439	-64.563	-59.454	-57.995	-53.332	40.859	-54.790	-8191	255	
1018.659	1	1	0	0	0.10603	0.10185	0.22582	0.13918	0.093961	0.22219	0.19381	0.10293	0.11047	0.045914	0.308	0.39149	0.095885	0.0080097	0.046393	0.25326	-1.25	-2.7104	-1.9021	-1.875	-2.9188	-1.5438	-2.6104	-2.45	-1.7167	-2.5208	-2.1688	-2.0187	-2.8125	-1.8583	-2.1396	-2.7083	109.640	47.412	271.556	79.549	253.636	-62.358	236.910	53.084	106.797	108.681	237.768	118.765	189.100	74.838	-70.118	146.881	4.4598e-05	0.00060694	0.00018705	886.02	1.8259e-06	3.884e-06	1314.6	189.24	3.7117e-06	6.6819e-06	346.18	93.506	41.493	13.449	3.4367e-06	33.287	0.00020962	0.00021404	6.0961e-05	728.63	2.4753e-06	2.4087e-06	1089.5	157.84	2.5205e-06	2.3916e-06	286.87	78.8	35.087	11.329	2.4154e-06	28.013	208.945	5.037	-2.025	-68.368	66.857	48.401	-67.919	-63.429	88.486	74.733	-64.442	-59.327	-57.279	-52.616	72.691	-54.839	-8191	255	
1018.757	1	1	0	0	0.03228	0.062436	0.10997	0.31838	0.20545	0.17654	0.28949	0.27781	0.20627	0.26599	0.2758	0.13792	0.47987	0.10762	0.28183	0.03821	-1.2854	-2.6	-2.0687	-1.7667	-2.7542	-1.7167	-2.2396	-2.675	-1.7271	-2.4667	-2.3438	-1.8854	-2.4583	-1.9917	-2.15	-2.7771	32.727	240.067	122.684	135.391	262.494	78.224	246.832	257.310	188.249	226.926	232.254	-67.236	277.980	226.922	-13.419	-0.770	6.9253e-05	0.00031425	9.1862e-05	883.92	2.6352e-06	1.3865e-06	1314.8	189.2	3.7556e-06	3.5283e-06	346.12	93.561	42.039	13.537	2.3801e-06	32.967	0.00020701	0.00022247	6.168e-05	730.22	2.3278e-06	2.4568e-06	1089.6	157.44	2.3896e-06	2.3581e-06	287.02	78.572	35.309	11.329	2.3272e-06	27.836	228.395	-30.722	11.937	-67.994	66.489	-74.775	-67.517	-63.806	-14.412	95.235	-63.976	-59.508	-57.705	-53.407	176.549	-54.182	-8191	255	
1018.876	1	1	0	0	0.10347	0.067736	0.17053	0.47347	0.22375	0.085449	0.52206	0.24063	0.073957	0.21721	0.25238	0.18791	0.20259	0.059558	0.24876	0.067222	-1.1396	-2.4188	-2.3125	-1.5792	-2.6	-1.9792	-2.0479	-2.6813	-1.6271	-2.3833	-2.375	-1.85	-2.6646	-2.1042	-1.8563	-2.6667	194.792	-70.188	-36.434	264.682	208.580	111.265	234.804	182.743	125.958	126.797	-54.160	-34.356	24.114	235.665	220.262	189.979	9.0815e-05	3.3746e-05	7.946e-05	880.83	1.0701e-06	7.2911e-06	1298.8	187.75	2.3627e-06	4.5642e-06	344.6	91.807	41.716	13.28	3.7861e-06	32.927	0.00020249	0.0002091	5.9164e-05	726.32	2.3604e-06	2.4561e-06	1078.4	156.42	2.4957e-06	2.4997e-06	284.72	77.524	35.019	11.245	2.3049e-06	27.762	199.111	-26.589	-3.924	-68.456	83.208	76.713	-67.672	-63.255	115.510	83.462	-64.408	-58.956	-58.458	-53.238	68.742	-54.365	-8191	255	
1018.972	1	1	0	0	0.208	0.13987	0.087539	0.33631	0.16422	0.2078	0.52357	0.33941	0.02303	0.17631	0.31689	0.25827	0.12393	0.070423	0.19636	0.13775	-1.3354	-2.3625	-2.5208	-1.6479	-2.6104	-2.0792	-2.225	-2.8354	-1.7188	-2.2708	-2.5833	-1.7146	-2.6937	-2.275	-1.7958	-2.675	-46.829	-78.218	127.982	228.032	275.876	149.486	202.969	235.961	25.549	88.343	242.929	267.973	251.169	148.941	169.186	31.862	0.00011577	3.0906e-05	0.00011184	877.3	8.9006e-07	6.1912e-06	1308.3	188.14	2.7662e-06	5.6742e-06	345.25	91.984	41.253	13.365	3.1502e-06	33.811	0.00020725	0.00021272	5.9863e-05	722.37	2.3819e-06	2.4737e-06	1082.7	157.18	2.3806e-06	2.5357e-06	285.63	77.941	34.893	11.285	2.5747e-06	28.177	199.033	194.016	50.146	-67.931	57.502	119.631	-67.516	-63.297	26.314	72.603	-64.154	-59.107	-57.479	-53.485	52.660	-53.855	-8191	255	
1019.068	1	1	0	0	0.11547	0.22475	0.15311	0.064386	0.024937	0.19992	0.28905	0.16892	0.06206	0.16983	0.30181	0.18842	0.090343	0.16855	0.074637	0.18873	-1.55	-2.2375	-2.5458	-1.6667	-2.3458	-2.2562	-1.9042	-2.5667	-1.8854	-1.9208	-2.6792	-1.85	-2.5208	-2.2625	-1.5792	-2.6521	138.037	206.935	-6.277	222.200	253.604	135.778	192.958	207.579	-59.453	63.819	249.762	193.186	212.438	175.328	130.020	226.091	4.4171e-05	8.8028e-05	1.9581e-05	884.34	3.8126e-06	4.0765e-06	1311.6	188.72	2.8626e-06	4.5521e-06	348.91	94.247	41.746	13.65	3.5884e-06	33.889	0.00019431	0.00022197	6.0981e-05	731.49	2.3483e-06	2.3917e-06	1089	157.75	2.3615e-06	2.4394e-06	287.72	79.141	35.299	11.434	2.3201e-06	28.368	202.980	130.265	-41.862	-68.422	81.524	7.330	-67.752	-63.205	89.944	88.404	-64.003	-59.754	-57.760	-53.071	138.859	-55.012	-8191	255	
1019.189	1	1	0	0	0.022604	0.1187	0.12379	0.19806	0.13899	0.23689	0.19129	0.16505	0.052639	0.019165	0.28095	0.18407	0.15193	0.1104	0.14876	0.18163	-1.6333	-1.8687	-2.3937	-1.7125	-2.2667	-2.5396	-1.7417	-2.5771	-2.0208	-2.0292	-2.8688	-1.7854	-2.4979	-2.5021	-1.8521	-2.7792	84.537	203.160	267.319	124.961	191.851	177.206	228.185	272.759	110.230	67.210	-59.589	183.889	-15.671	244.651	35.953	199.107	5.4853e-05	0.00063414	0.00020094	890.84	3.7838e-06	4.7394e-06	1319.2	193.5	2.6367e-06	3.4809e-06	348.83	93.883	42.224	13.438	4.5114e-06	33.575	0.00020968	0.00021288	6.1418e-05	735.55	2.237e-06	2.2424e-06	1099	160.43	2.5341e-06	2.3478e-06	288.7	78.851	35.62	11.405	2.4883e-06	27.975	194.150	14.784	-4.363	-67.679	68.846	45.398	-67.185	-63.137	122.962	264.955	-63.685	-59.558	-57.235	-53.280	52.288	-53.909	-8191	255	
1019.285	1	1	0	0	0.10635	0.12878	0.11494	0.063452	0.1957	0.10408	0.37513	0.051764	0.13343	0.075844	0.21911	0.2849	0.17092	0.093633	0.1419	0.057822	-1.7583	-1.8396	-2.5333	-1.7563	-2.3479	-2.6396	-1.7583	-2.775	-1.9958	-1.6042	-3.0375	-1.8292	-2.275	-2.4938	-1.4771	-2.5604	251.328	145.558	246.735	-59.590	113.295	201.251	223.297	29.372	135.382	216.088	131.566	33.375	230.971	185.444	-67.023	93.063	2.8018e-05	0.00030142	0.00016373	888.32	2.1647e-06	3.155e-06	1303.5	191.44	1.8358e-06	5.7096e-06	348.2	93.305	42.149	13.357	3.1226e-06	33.025	0.00020417	0.00021968	5.8055e-05	734.54	2.45e-06	2.3616e-06	1085.2	158.96	2.3278e-06	2.4288e-06	287.01	78.432	35.237	11.312	2.3436e-06	27.708	254.109	3.723	37.639	-67.989	22.899	71.460	-67.200	-63.638	36.061	108.501	-64.187	-59.288	-57.564	-53.381	32.732	-53.892	-8191	255	
1019.357	1	1	0	0	0.13298	0.086892	0.1627	0.4009	0.21193	0.064876	0.099589	0.13828	0.17571	0.24721	0.23366	0.23994	0.089189	0.23993	0.26013	0.27082	-1.8708	-1.85	-2.5458	-1.8604	-2.0958	-2.5458	-1.8458	-2.3937	-2.3458	-1.7667	-2.8667	-2.1063	-1.9458	-2.4833	-1.8771	-2.3208	74.412	80.233	88.352	257.906	35.761	226.856	-70.660	-80.729	-7.612	-25.620	-33.811	123.463	164.343	68.532	228.471	129.981	7.0704e-05	0.0005073	5.8444e-05	881.3	3.1862e-06	2.2615e-06	1317.9	190.43	1.2307e-06	2.3885e-06	344.13	92.77	41.489	13.587	2.9226e-06	33.482	0.00020494	0.00020091	6.2732e-05	729.85	2.3415e-06	2.2505e-06	1088.1	158.32	2.4673e-06	2.353e-06	286.32	78.252	35.049	11.39	2.4392e-06	28.008	196.989	18.879	-32.487	-67.919	59.788	83.196	-67.661	-63.019	14.120	169.984	-64.295	-59.031	-57.881	-52.674	66.008	-54.059	-8191	255	
1019.476	1	1	0	0	0.11797	0.099811	0.090613	0.24633	0.20883	0.15019	0.1606	0.064149	0.21602	0.17644	0.44593	0.15915	0.12423	0.11584	0.077843	0.13352	-1.9188	-1.5771	-2.5854	-2.2583	-2.0854	-2.8458	-2.0167	-2.4083	-2.4958	-1.7854	-2.6521	-2.3542	-2.0167	-2.7792	-1.9292	-2.2667	96.058	76.618	167.658	245.228	9.575	272.028	253.952	174.713	50.621	232.151	242.051	197.573	181.626	32.205	110.624	-57.650	7.6957e-05	0.00031406	0.00011538	876.04	3.0647e-06	3.0877e-06	1308.4	188.88	3.0956e-06	6.0568e-06	344.59	94.104	41.315	13.544	3.7239e-06	33.456	0.00020452	0.00023274	6.352e-05	728.49	2.365e-06	2.3269e-06	1085.6	157.73	2.4196e-06	2.4371e-06	286.5	78.806	35.076	11.344	2.2201e-06	27.932	153.743	-7.919	8.430	-67.332	99.194	79.611	-67.583	-63.136	24.054	39.915	-63.985	-58.863	-57.901	-53.058	65.627	-53.970	-8191	255	
1019.572	1	1	0	0	0.3337	0.12384	0.1676	0.18693	0.075088	0.10194	0.057569	0.25318	0.014922	0.1354	0.113	0.085374	0.21335	0.18857	0.28753	0.1013	-2.2958	-1.8292	-2.4396	-2.3875	-1.7104	-2.6562	-1.8667	-2.1396	-2.7729	-1.6771	-2.425	-2.35	-1.6083	-2.7604	-1.8	-2.0292	149.234	240.683	235.523	83.257	150.770	159.736	206.267	216.835	117.407	129.987	260.388	221.042	-76.005	192.933	228.345	216.508	1.7633e-05	0.0004258	0.00012108	884.82	2.7778e-06	4.9705e-06	1318.6	190.87	2.8057e-07	8.2595e-06	350.01	93.481	41.317	13.414	4.3292e-06	33.689	0.00020805	0.00022469	5.695e-05	729.98	2.4135e-06	2.3136e-06	1091.3	158.39	2.4098e-06	2.4377e-06	288.81	78.326	34.931	11.295	2.3446e-06	28.194	172.671	37.120	-11.565	-68.431	110.437	47.423	-67.837	-63.267	-66.608	21.750	-64.300	-59.268	-58.118	-52.439	40.813	-54.064	-8191	255	
1019.668	1	1	0	0	0.20107	0.12783	0.065145	0.17021	0.18155	0.23467	0.45225	0.287	0.12117	0.34086	0.32869	0.35243	0.20312	0.067413	0.18445	0.11526	-2.5167	-1.7875	-2.4979	-2.2917	-1.6458	-2.6708	-2.1688	-1.8417	-2.5396	-1.6437	-2.5625	-2.4542	-1.6708	-2.7229	-2.1188	-1.7021	126.062	245.189	196.961	-55.553	-79.769	110.616	214.568	225.052	86.640	-79.541	-65.883	266.334	68.994	168.593	-54.590	257.452	6.834e-05	0.00025678	0.00015719	887.02	5.4265e-06	5.5761e-06	1306.6	189.75	6.4277e-07	4.0861e-06	340.51	92.866	41.198	13.258	3.7537e-06	33.014	0.00020929	0.00021664	5.7324e-05	726.4	2.4482e-06	2.4186e-06	1081.5	157.98	2.35e-06	2.4284e-06	283.42	77.549	35.038	11.273	2.4424e-06	27.645	208.268	57.741	29.653	-67.966	92.158	23.698	-68.166	-63.041	142.883	101.483	-63.924	-59.257	-57.938	-52.716	84.861	-53.939	-8191	255	
1019.764	1	1	0	0	0.11236	0.24999	0.15443	0.35339	0.18949	0.1746	0.30341	0.35088	0.089961	0.19331	0.28175	0.21989	0.016583	0.1717	0.096857	0.12198	-2.2562	-1.7062	-2.2458	-2.5375	-1.8875	-2.3979	-2.3354	-1.6854	-2.7812	-1.7625	-2.3875	-2.5917	-1.6875	-2.5229	-2.1146	-1.9042	104.076	16.462	81.116	223.945	-39.796	178.591	235.714	184.515	262.360	64.163	243.621	-71.129	103.028	104.307	-25.230	-53.258	2.4702e-05	0.00035001	0.00011589	876.02	4.859e-06	4.5553e-06	1306	187.99	2.4957e-06	4.2943e-06	346.4	92.796	41.423	13.339	3.3097e-06	33.23	0.00020559	0.00021438	5.8549e-05	721.54	2.4516e-06	2.3017e-06	1080.4	156.6	2.4255e-06	2.4617e-06	285.45	77.771	34.855	11.289	2.3871e-06	27.744	203.946	39.468	41.310	-68.110	-12.790	78.610	-67.526	-63.213	-41.900	-29.987	-63.619	-59.136	-57.957	-53.117	159.921	-53.957	-8191	255	
1019.885	1	1	0	0	0.16926	0.21776	0.075716	0.14675	0.083979	0.10553	0.18969	0.23867	0.38977	0.14578	0.31747	0.131	0.25417	0.21801	0.17947	0.20408	-2.3229	-1.925	-2.0583	-2.6521	-1.6604	-2.5542	-2.4896	-1.7271	-2.5521	-1.9854	-2.1542	-2.7604	-1.65	-2.5687	-2.4396	-1.6	64.002	-11.054	101.815	153.076	-44.017	-39.125	138.220	-74.385	16.938	80.468	242.317	119.154	265.348	162.981	46.529	225.839	8.0963e-06	0.00040268	8.96e-05	885.16	1.9237e-06	4.2319e-06	1295.9	189.7	1.8375e-06	5.3745e-06	345.8	92.849	41.458	13.449	4.2713e-06	33.367	0.00020789	0.00021666	5.9866e-05	727.1	2.4915e-06	2.3107e-06	1079.6	157.85	2.4015e-06	2.3601e-06	286.69	78.121	35.135	11.277	2.3695e-06	27.851	44.570	34.912	-77.081	-67.264	126.830	24.258	-67.694	-62.766	117.467	84.252	-63.954	-58.945	-57.786	-52.980	34.820	-54.042	-8191	255	
1019.956	1	1	0	0	0.18321	0.30763	0.18718	0.14411	0.12959	0.14428	0.11213	0.10307	0.047535	0.27811	0.27695	0.015738	0.084196	0.23245	0.063425	0.2995	-2.4813	-2.0833	-1.7062	-2.6312	-1.7771	-2.4479	-2.6292	-1.8292	-2.6583	-1.9708	-1.9979	-2.7729	-1.6396	-2.3708	-2.4125	-1.725	114.632	88.201	100.968	254.331	-16.143	95.207	251.583	14.009	22.993	178.918	-80.211	187.806	33.758	190.651	76.619	265.124	5.0873e-05	0.00032682	0.00014649	891.2	2.5807e-06	4.7191e-06	1319.2	192.52	1.1334e-06	8.9958e-07	349.84	93.279	42.175	13.509	3.2704e-06	33.29	0.00020328	0.00021888	5.7132e-05	736.76	2.354e-06	2.4476e-06	1091.9	159.89	2.2515e-06	2.4038e-06	288.9	78.673	35.487	11.448	2.3389e-06	28.082	212.396	-28.876	-1.149	-67.672	63.086	-9.553	-67.727	-63.283	265.578	23.563	-63.793	-59.311	-57.699	-52.635	31.881	-53.696	-8191	255	
1020.053	1	1	0	0	0.18666	0.098926	0.13133	0.1617	0.072022	0.2457	0.2897	0.19972	0.40697	0.12281	0.33077	0.13024	0.068438	0.10312	0.029709	0.034048	-2.2021	-2.1521	-1.8042	-2.8479	-1.7521	-2.2125	-2.7208	-1.7208	-2.5312	-1.9396	-1.6979	-2.7854	-1.8354	-2.1396	-2.4458	-1.7563	224.230	28.880	-67.411	259.794	1.862	234.452	216.681	237.474	103.895	-76.206	266.164	269.885	193.823	218.498	242.977	71.988	3.3188e-05	0.00037751	3.042e-05	898.59	3.5646e-06	6.2881e-06	1309	190.69	1.7973e-06	8.1477e-06	348.14	92.628	41.836	13.476	2.8788e-06	33.517	0.00018882	0.00021689	5.6824e-05	734.87	2.3782e-06	2.3934e-06	1086	159.17	2.3008e-06	2.2201e-06	287.54	77.902	35.137	11.398	2.3732e-06	28.003	162.598	-1.603	62.131	-68.124	18.179	85.149	-68.160	-63.535	58.506	68.828	-63.529	-58.896	-58.172	-52.725	110.494	-54.047	-8191	255	
#DATA ENDS
