BOXY.EXE: ISS Imagent and Oximeter Data Acquisition Program Version 0.80
Ascii Record File

#ACQ INFORMATION
2  Detector Channels 
16  External MUX Channels 
1  Auxiliary Channels 
5000  Waveform (CCF) Frequency (Hz)
1  Waveforms Skipped 
30  Waveforms Averaged 
1  Cycles Averaged 
16  Acquisitions per Waveform 
10.0806  Updata Rate (Hz) 

#FILE INFORMATION
TRUE -- External MUX Channel results are PARSED.
FALSE -- AC DC and Phase are NOT grouped.
TRUE -- Companion Program Settings File CREATED.
FALSE -- AC data not excluded
FALSE -- DC data not excluded
FALSE -- Phase data not excluded
FALSE -- Auxillary Chn. data not excluded
Tab delimiters

#CALIBRATION STATE
TRUE -- Waveform Calibration Values APPLIED.


#AUX CALIBRATION VALUES
Val Type	aux-1	

Term	1.0000e+00	
Factor	0.0000e+00	


#WF CALIBRATION VALUES
A = Detector Channel
Val Type	A-AC1	A-AC2	A-AC3	A-AC4	A-AC5	A-AC6	A-AC7	A-AC8	A-AC9	A-AC10	A-AC11	A-AC12	A-AC13	A-AC14	A-AC15	A-AC16	A-DC1	A-DC2	A-DC3	A-DC4	A-DC5	A-DC6	A-DC7	A-DC8	A-DC9	A-DC10	A-DC11	A-DC12	A-DC13	A-DC14	A-DC15	A-DC16	A-Ph1	A-Ph2	A-Ph3	A-Ph4	A-Ph5	A-Ph6	A-Ph7	A-Ph8	A-Ph9	A-Ph10	A-Ph11	A-Ph12	A-Ph13	A-Ph14	A-Ph15	A-Ph16	

Term	0.00000e+00	0.00000e+00	0.00000e+00	0.00000e+00	0.00000e+00	0.00000e+00	0.00000e+00	0.00000e+00	0.00000e+00	0.00000e+00	0.00000e+00	0.00000e+00	0.00000e+00	0.00000e+00	0.00000e+00	0.00000e+00	0.00000e+00	0.00000e+00	0.00000e+00	0.00000e+00	0.00000e+00	0.00000e+00	0.00000e+00	0.00000e+00	0.00000e+00	0.00000e+00	0.00000e+00	0.00000e+00	0.00000e+00	0.00000e+00	0.00000e+00	0.00000e+00	0.00000e+00	0.00000e+00	0.00000e+00	0.00000e+00	0.00000e+00	0.00000e+00	0.00000e+00	0.00000e+00	0.00000e+00	0.00000e+00	0.00000e+00	0.00000e+00	0.00000e+00	0.00000e+00	0.00000e+00	0.00000e+00	
Factor	1.00000e+00	1.00000e+00	1.00000e+00	1.00000e+00	1.00000e+00	1.00000e+00	1.00000e+00	1.00000e+00	1.00000e+00	1.00000e+00	1.00000e+00	1.00000e+00	1.00000e+00	1.00000e+00	1.00000e+00	1.00000e+00	1.00000e+00	1.00000e+00	1.00000e+00	1.00000e+00	1.00000e+00	1.00000e+00	1.00000e+00	1.00000e+00	1.00000e+00	1.00000e+00	1.00000e+00	1.00000e+00	1.00000e+00	1.00000e+00	1.00000e+00	1.00000e+00	X	X	X	X	X	X	X	X	X	X	X	X	X	X	X	X	

B = Detector Channel
Val Type	B-AC1	B-AC2	B-AC3	B-AC4	B-AC5	B-AC6	B-AC7	B-AC8	B-AC9	B-AC10	B-AC11	B-AC12	B-AC13	B-AC14	B-AC15	B-AC16	B-DC1	B-DC2	B-DC3	B-DC4	B-DC5	B-DC6	B-DC7	B-DC8	B-DC9	B-DC10	B-DC11	B-DC12	B-DC13	B-DC14	B-DC15	B-DC16	B-Ph1	B-Ph2	B-Ph3	B-Ph4	B-Ph5	B-Ph6	B-Ph7	B-Ph8	B-Ph9	B-Ph10	B-Ph11	B-Ph12	B-Ph13	B-Ph14	B-Ph15	B-Ph16	

Term	0.00000e+00	0.00000e+00	0.00000e+00	0.00000e+00	0.00000e+00	0.00000e+00	0.00000e+00	0.00000e+00	0.00000e+00	0.00000e+00	0.00000e+00	0.00000e+00	0.00000e+00	0.00000e+00	0.00000e+00	0.00000e+00	0.00000e+00	0.00000e+00	0.00000e+00	0.00000e+00	0.00000e+00	0.00000e+00	0.00000e+00	0.00000e+00	0.00000e+00	0.00000e+00	0.00000e+00	0.00000e+00	0.00000e+00	0.00000e+00	0.00000e+00	0.00000e+00	-9.16924e+01	-1.29767e+02	-1.18293e+02	-1.86930e+02	-6.15527e+01	-7.43525e+01	-1.57927e+02	-1.62015e+02	-5.46448e+01	-6.47678e+01	-1.74803e+02	-1.71738e+02	-1.79902e+02	-1.78143e+02	-6.55759e+01	-1.51148e+02	
Factor	1.34725e-05	1.20035e-04	3.44946e-05	2.75324e-01	1.14839e-06	1.47898e-06	1.54831e-01	4.40518e-02	8.52034e-07	1.53134e-06	8.28116e-02	2.37421e-02	1.84838e-02	7.33700e-03	1.05337e-06	1.06775e-02	4.48628e-06	5.69377e-06	1.58866e-06	1.45487e-01	6.13995e-08	6.28015e-08	7.73109e-02	2.36346e-02	6.06459e-08	6.30374e-08	4.27097e-02	1.23527e-02	1.00779e-02	3.96030e-03	6.13034e-08	5.55185e-03	X	X	X	X	X	X	X	X	X	X	X	X	X	X	X	X	



#DISTANCE SETTINGS
A = Detector Channel
A-1	A-2	A-3	A-4	A-5	A-6	A-7	A-8	A-9	A-10	A-11	A-12	A-13	A-14	A-15	A-16	

2.5000e+00	3.0000e+00	2.5000e+00	3.0000e+00	2.0000e+00	3.0000e+00	1.5000e+00	3.0000e+00	3.0000e+00	3.0000e+00	3.0000e+00	3.0000e+00	3.0000e+00	3.0000e+00	1.5000e+00	3.0000e+00	

B = Detector Channel
B-1	B-2	B-3	B-4	B-5	B-6	B-7	B-8	B-9	B-10	B-11	B-12	B-13	B-14	B-15	B-16	

1.0000e+01	1.0000e+01	1.0000e+01	1.4400e+00	1.0000e+01	1.0000e+01	1.5100e+00	1.9400e+00	1.0000e+01	1.0000e+01	1.9900e+00	2.4900e+00	2.4100e+00	2.9000e+00	1.0000e+01	2.9800e+00	




#DATA BEGINS
time	group	step	mark	flag	A-AC1	A-AC2	A-AC3	A-AC4	A-AC5	A-AC6	A-AC7	A-AC8	A-AC9	A-AC10	A-AC11	A-AC12	A-AC13	A-AC14	A-AC15	A-AC16	A-DC1	A-DC2	A-DC3	A-DC4	A-DC5	A-DC6	A-DC7	A-DC8	A-DC9	A-DC10	A-DC11	A-DC12	A-DC13	A-DC14	A-DC15	A-DC16	A-Ph1	A-Ph2	A-Ph3	A-Ph4	A-Ph5	A-Ph6	A-Ph7	A-Ph8	A-Ph9	A-Ph10	A-Ph11	A-Ph12	A-Ph13	A-Ph14	A-Ph15	A-Ph16	B-AC1	B-AC2	B-AC3	B-AC4	B-AC5	B-AC6	B-AC7	B-AC8	B-AC9	B-AC10	B-AC11	B-AC12	B-AC13	B-AC14	B-AC15	B-AC16	B-DC1	B-DC2	B-DC3	B-DC4	B-DC5	B-DC6	B-DC7	B-DC8	B-DC9	B-DC10	B-DC11	B-DC12	B-DC13	B-DC14	B-DC15	B-DC16	B-Ph1	B-Ph2	B-Ph3	B-Ph4	B-Ph5	B-Ph6	B-Ph7	B-Ph8	B-Ph9	B-Ph10	B-Ph11	B-Ph12	B-Ph13	B-Ph14	B-Ph15	B-Ph16	aux-1	digaux	

994.267	1	1	0	768	0.12673	0.1125	0.12618	0.22389	0.1807	0.010509	0.25921	0.1897	0.095951	0.24776	0.12555	0.1401	0.051237	0.092352	0.12318	0.17341	-1.5312	-2.1771	-2.6667	-1.6938	-2.4104	-2.5271	-1.9896	-3	-1.975	-2.3125	-2.9	-1.7917	-2.4729	-2.1188	-1.8479	-2.6854	-53.038	19.175	149.151	82.445	-13.226	200.091	190.602	242.643	-69.783	106.059	269.516	-34.677	150.932	269.815	147.556	191.837	3.2483e-05	0.00063898	8.2934e-05	898.93	5.4548e-06	2.2113e-06	1366.7	205.29	8.4318e-07	2.1349e-06	355.07	93.511	44.685	12.441	2.5718e-06	29.872	0.00020896	0.00023601	6.2626e-05	742.36	2.4814e-06	2.4124e-06	1132.4	171.12	2.5037e-06	2.5801e-06	294.39	78.682	37.867	10.523	2.5129e-06	25.133	220.079	24.478	27.807	-67.784	42.498	53.764	-67.896	-63.809	211.017	-23.175	-64.239	-59.442	-58.096	-53.274	37.234	-54.835	-8191	255	
994.363	1	1	0	0	0.31608	0.1379	0.15032	0.12447	0.24106	0.17656	0.099373	0.28578	0.17178	0.054665	0.12114	0.13292	0.12267	0.17074	0.097793	0.23401	-1.7333	-1.9417	-2.7792	-1.7625	-2.3604	-2.65	-2.0104	-2.8896	-2.1375	-2.075	-2.8354	-1.9958	-2.3417	-2.5333	-1.6875	-2.6813	103.393	131.919	154.453	235.226	36.686	126.748	-47.731	245.517	96.492	-65.220	21.165	175.295	230.020	-16.232	202.161	276.119	3.8193e-05	0.00051615	0.00015642	885.97	2.7615e-06	5.7216e-06	1348.9	204.52	2.3857e-06	6.5581e-06	353.35	92.739	44.974	12.508	2.8948e-06	29.766	0.00020099	0.00022518	6.2358e-05	737.34	2.6131e-06	2.4426e-06	1121.6	170.26	2.5483e-06	2.6656e-06	291.62	78.167	37.721	10.483	2.565e-06	25.028	141.578	-3.042	0.496	-67.994	160.813	51.742	-67.633	-63.536	43.728	86.887	-64.538	-59.440	-58.137	-52.985	92.798	-54.813	-8191	255	
994.459	1	1	0	0	0.17709	0.067297	0.28353	0.13592	0.25776	0.24495	0.30844	0.1305	0.10939	0.17648	0.30419	0.057759	0.16191	0.077768	0.13178	0.082964	-1.8563	-1.8021	-2.9062	-2.0042	-2.1771	-2.6521	-1.9146	-2.7292	-2.4042	-1.7208	-2.9958	-1.9062	-2.0542	-2.7146	-1.5458	-2.55	176.245	85.491	228.037	182.928	-77.080	225.390	240.922	201.653	161.575	216.163	212.717	32.987	116.883	259.506	125.883	145.666	1.2371e-05	0.00023081	0.00011374	894.45	3.6867e-06	5.4061e-06	1353.4	204.54	2.4677e-06	2.8038e-06	357.81	93.353	44.219	12.416	7.9365e-07	29.922	0.00021238	0.00024036	6.674e-05	736.56	2.6949e-06	2.757e-06	1123.8	170.19	2.643e-06	2.7903e-06	294.09	78.146	37.436	10.466	2.6258e-06	25.014	174.433	18.528	17.828	-68.167	104.583	66.934	-68.095	-62.942	52.518	79.999	-64.165	-59.679	-58.558	-53.611	-58.043	-54.569	-8191	255	
994.555	1	1	0	0	0.23401	0.071599	0.15283	0.15747	0.12801	0.20337	0.16414	0.29698	0.31931	0.12846	0.20372	0.1749	0.22897	0.13563	0.2112	0.17227	-1.9813	-1.7771	-2.5708	-2.1583	-1.9792	-2.7104	-2.0312	-2.7729	-2.3479	-1.9729	-2.85	-2.1396	-1.9354	-2.6208	-1.8042	-2.3958	166.886	69.510	121.154	270.619	127.655	44.604	238.776	254.853	166.587	-33.025	-48.897	252.499	50.280	265.626	45.558	110.083	6.7996e-05	0.00052298	0.00017788	892.93	2.3483e-06	4.1565e-06	1363.6	205.42	1.8226e-06	5.8774e-06	357.64	93.451	45.089	12.389	1.403e-06	29.972	0.00021577	0.00026188	6.5026e-05	737.25	2.6878e-06	2.7172e-06	1132.4	170.56	2.6788e-06	2.8088e-06	295.24	78.636	38.061	10.455	2.7095e-06	25.005	216.608	-14.795	28.378	-67.721	33.550	216.006	-67.555	-63.170	126.347	128.553	-64.547	-59.937	-57.277	-54.102	43.387	-55.367	-8191	255	
994.651	1	1	0	0	0.25628	0.19229	0.16045	0.23023	0.12981	0.036897	0.14618	0.039536	0.11216	0.2342	0.22034	0.069404	0.28508	0.1007	0.22792	0.22521	-2.2854	-1.6542	-2.5896	-2.0979	-2.0458	-2.6271	-2.0604	-2.5583	-2.6146	-1.8563	-2.7333	-2.275	-1.95	-2.7646	-1.7812	-2.1813	91.153	226.344	260.042	233.272	-55.086	-58.571	194.073	58.917	86.798	-68.921	236.486	165.487	211.147	246.680	69.572	196.692	8.3297e-05	0.00054883	0.00016457	902.92	2.8429e-06	5.3439e-06	1357.1	205.34	1.4948e-06	3.4048e-06	356.77	93.357	44.627	12.356	1.9224e-06	29.343	0.00022403	0.00026397	6.5423e-05	739.79	2.7167e-06	2.5749e-06	1128.8	170.87	2.77e-06	2.7509e-06	296.17	78.015	37.989	10.39	2.7887e-06	24.715	204.853	54.378	-58.587	-67.625	122.227	-9.161	-67.808	-63.013	37.456	126.041	-64.061	-59.707	-57.789	-52.799	77.909	-54.307	-8191	255	
994.748	1	1	0	0	0.17443	0.14647	0.1178	0.17632	0.21629	0.23357	0.13424	0.2302	0.15032	0.096088	0.10161	0.054748	0.34495	0.061088	0.11692	0.16363	-2.3104	-1.9417	-2.5146	-2.4146	-1.7729	-2.7896	-2.1396	-2.4583	-2.6562	-1.9271	-2.6896	-2.4792	-1.9833	-2.7542	-1.8292	-2.1375	-68.063	266.426	-59.841	148.775	80.545	-49.199	206.057	73.854	-9.128	-64.200	-28.859	268.082	18.930	49.269	-69.014	218.976	6.0976e-05	0.00027425	0.00016475	889.18	3.8591e-06	2.5335e-06	1351.8	202.6	1.5342e-06	7.4606e-06	355.6	91.984	44.535	12.174	3.8557e-06	29.303	0.00022502	0.00025404	6.7846e-05	734.7	2.7174e-06	2.7092e-06	1124.5	169.42	2.7545e-06	2.6688e-06	292.32	77.262	37.351	10.335	2.6352e-06	24.767	232.126	8.691	20.611	-68.021	60.402	132.237	-68.251	-62.963	-20.315	73.901	-64.810	-60.459	-58.089	-53.135	86.637	-55.155	-8191	255	
994.868	1	1	0	0	0.19017	0.22893	0.11793	0.050426	0.081699	0.24698	0.35676	0.43234	0.20042	0.1289	0.35673	0.08958	0.16697	0.21947	0.062024	0.17861	-2.3375	-1.7479	-2.4979	-2.5417	-1.7917	-2.8479	-2.45	-2.0125	-2.7917	-1.8563	-2.5542	-2.6437	-1.7479	-2.7958	-2.1333	-2.0438	138.352	79.169	210.373	218.396	170.442	4.835	224.291	274.893	-34.775	203.543	211.632	196.533	56.672	208.833	206.851	160.639	4.6864e-05	0.00033134	7.9066e-05	900.09	6.8741e-06	2.9763e-06	1347.9	203.63	2.9725e-06	5.6303e-06	356.39	93.09	44.125	12.227	2.8331e-06	29.855	0.00021818	0.00025544	6.6442e-05	734.84	2.8182e-06	2.8004e-06	1121.4	168.54	2.8478e-06	2.9035e-06	292.89	77.75	37.286	10.344	2.7452e-06	24.935	210.657	72.390	-63.932	-67.793	87.637	102.281	-67.550	-63.328	129.343	65.641	-64.325	-60.276	-57.928	-52.752	50.067	-55.102	-8191	255	
994.963	1	1	0	0	0.045262	0.15537	0.085217	0.14815	0.16848	0.076355	0.21747	0.10373	0.27321	0.024981	0.055085	0.14313	0.06555	0.24288	0.08235	0.22343	-2.4083	-1.925	-2.2604	-2.6521	-1.8583	-2.7625	-2.5854	-1.9833	-2.6937	-2.1583	-2.1229	-2.8417	-1.9833	-2.5979	-2.5312	-1.7354	-24.984	119.723	-40.191	240.466	153.363	258.021	271.047	272.576	224.234	-74.904	142.458	117.011	51.174	153.671	147.284	180.605	1.9035e-05	0.00017358	0.000114	885.54	1.4053e-06	3.1469e-06	1345.4	201.79	8.9528e-07	4.3246e-06	355.85	92.959	44.109	12.327	2.5016e-07	29.553	0.00022694	0.00026276	7.4306e-05	730.19	2.7953e-06	2.8767e-06	1118.7	168.09	2.8401e-06	2.8557e-06	293.39	77.714	37.152	10.373	2.8019e-06	24.922	209.851	31.057	22.122	-68.159	116.867	-43.322	-67.868	-63.200	130.457	89.449	-64.356	-60.135	-58.414	-53.424	-14.612	-54.576	-8191	255	
995.059	1	1	0	0	0.052369	0.15183	0.18223	0.06646	0.15481	0.085055	0.13338	0.062896	0.011835	0.10043	0.17019	0.10171	0.26586	0.18941	0.27908	0.086575	-2.4292	-1.875	-2.1521	-2.6292	-1.7833	-2.7396	-2.5729	-2.0542	-2.6625	-2.0396	-1.9771	-2.9375	-1.8771	-2.6604	-2.3979	-2.1229	218.058	127.450	-2.136	52.657	-41.870	-55.768	232.246	116.581	46.258	-62.499	256.122	49.212	93.598	148.882	58.662	198.640	4.0104e-05	0.00011189	1.3888e-05	878.91	2.5047e-06	1.1571e-06	1345.8	204.13	2.1326e-06	3.9724e-06	357.28	92.101	44.231	12.463	4.5223e-06	30.09	0.00022914	0.00025328	7.2479e-05	727.87	2.8464e-06	2.7128e-06	1124.4	168.89	2.7244e-06	2.8056e-06	294.13	77.966	37.383	10.43	2.8687e-06	25.07	215.005	17.752	120.809	-67.999	57.889	170.639	-67.907	-63.100	134.139	86.919	-63.880	-59.672	-57.939	-53.192	71.438	-54.694	-8191	255	
995.155	1	1	0	0	0.13426	0.16946	0.056718	0.12204	0.078926	0.26383	0.16746	0.20288	0.16436	0.15908	0.32615	0.22784	0.10047	0.14645	0.15841	0.1985	-2.3771	-2.0708	-1.8208	-2.9583	-1.8458	-2.5125	-2.6688	-1.925	-2.525	-2.2375	-1.95	-2.9208	-2.0125	-2.2917	-2.6042	-2.2125	129.282	182.512	-61.020	113.992	85.007	147.008	258.658	263.398	18.855	50.427	-24.707	223.229	180.721	32.197	60.400	-71.089	7.9013e-05	0.00042663	0.00013542	883.59	1.6223e-06	5.8356e-07	1350.4	201.96	1.5429e-06	4.6998e-06	350.39	92.847	43.887	12.147	5.9381e-06	29.512	0.00022746	0.00026762	7.3882e-05	730.56	2.8842e-06	2.7431e-06	1116.2	168.36	2.7854e-06	2.7722e-06	288.89	77.461	37.188	10.298	2.7216e-06	24.728	204.670	-11.243	39.221	-68.051	44.105	167.987	-67.498	-62.984	238.648	86.466	-63.998	-59.010	-57.399	-52.304	131.490	-55.019	-8191	255	
995.251	1	1	0	0	0.053163	0.21069	0.060224	0.047492	0.14084	0.22063	0.2793	0.24459	0.095891	0.082354	0.12393	0.34202	0.090437	0.12052	0.20078	0.1403	-2.3042	-2.425	-1.8417	-2.8958	-1.8375	-2.2938	-2.9146	-1.8687	-2.7479	-2.4042	-1.8312	-2.9208	-2.0667	-2.1792	-2.775	-1.7062	201.644	-13.936	-59.245	241.190	261.061	169.420	172.951	255.298	5.811	270.801	222.497	276.531	73.795	256.836	-4.199	-57.162	5.4435e-05	0.00015063	2.023e-05	884.34	3.4671e-06	2.8381e-06	1350.4	200.97	1.9749e-06	1.725e-06	350.55	90.935	43.644	12.237	2.2594e-06	29.505	0.00023518	0.00027692	6.9639e-05	726.92	2.8242e-06	2.7981e-06	1116.5	167.67	2.751e-06	2.9181e-06	289.71	76.832	36.91	10.305	2.6888e-06	24.733	224.776	105.160	-78.762	-67.397	107.556	258.274	-67.631	-63.683	-22.315	85.643	-64.311	-59.981	-58.131	-52.431	83.001	-54.317	-8191	255	
995.347	1	1	0	0	0.11222	0.34228	0.089389	0.22278	0.15532	0.13094	0.19068	0.24427	0.21682	0.22624	0.32878	0.19534	0.081067	0.45746	0.09318	0.20586	-2.1958	-2.4562	-1.8542	-2.8917	-2.0563	-2.0687	-2.9396	-1.975	-2.2062	-2.6917	-1.8583	-2.7521	-2.1521	-2.0667	-2.9062	-2.0167	-14.128	200.486	-48.052	176.806	274.222	-9.199	276.334	233.552	-44.710	170.877	260.922	223.945	170.108	210.224	200.571	174.575	1.9853e-05	0.00045187	4.7865e-05	883.27	3.2245e-06	4.4343e-06	1342.9	201.41	1.284e-06	1.9949e-06	352.57	92.922	44.384	12.33	3.0491e-06	29.607	0.00023124	0.00026404	7.4247e-05	728.11	2.9735e-06	2.9939e-06	1114.9	167.94	2.9867e-06	2.8124e-06	291.39	77.424	37.269	10.39	2.8059e-06	24.8	141.308	-21.241	73.729	-68.224	86.563	84.952	-68.133	-63.069	118.132	115.004	-63.974	-59.188	-58.150	-52.222	47.474	-54.648	-8191	255	
995.468	1	1	0	0	0.24656	0.12125	0.19214	0.20177	0.17606	0.20006	0.33899	0.21144	0.053567	0.10613	0.28594	0.12872	0.1542	0.062838	0.15052	0.046834	-2.0958	-2.6104	-1.8937	-2.675	-2.3667	-1.9521	-3.0625	-1.8937	-2.2542	-2.8104	-1.9604	-2.7062	-2.3792	-1.8979	-2.8542	-1.9937	-8.526	-64.586	97.454	188.292	-68.138	155.186	241.950	240.450	3.993	55.881	144.178	-5.959	185.669	2.720	-19.469	85.633	5.3813e-05	0.00022884	0.00010443	893.2	1.6425e-06	1.0424e-05	1361.6	201.22	1.2055e-06	2.2578e-06	354.08	92.869	44.18	12.447	3.2015e-06	29.466	0.00023743	0.00028258	7.9377e-05	733.12	3.0521e-06	2.8076e-06	1125	167.74	2.9497e-06	3.0657e-06	293.49	77.903	37.364	10.432	2.9127e-06	24.85	254.344	19.050	0.716	-67.935	89.003	30.146	-67.706	-63.686	80.892	10.667	-64.367	-59.243	-57.810	-53.130	66.066	-55.202	-8191	255	
995.564	1	1	0	0	0.20196	0.33059	0.083026	0.054622	0.11497	0.2829	0.11199	0.15955	0.34897	0.15632	0.43424	0.096534	0.13139	0.20337	0.1981	0.22012	-1.7938	-2.8208	-1.7042	-2.5167	-2.3563	-1.8021	-2.9813	-2.1833	-2.1	-2.9208	-2.2229	-2.5563	-2.5104	-1.9104	-2.9542	-2.2875	-73.015	108.753	-78.345	-59.232	-54.143	238.576	128.319	133.470	97.216	114.286	242.078	176.578	-72.602	-57.943	229.257	32.018	1.7616e-05	0.00030118	3.0816e-05	887.3	1.7526e-06	6.4412e-06	1352.2	203.88	1.8031e-06	8.8783e-06	352.2	91.806	44.707	12.166	2.1548e-06	29.704	0.00023983	0.00026077	7.5868e-05	735.97	3.0265e-06	2.8851e-06	1125.3	169.1	2.9975e-06	2.9907e-06	291.97	77.241	37.445	10.327	2.8518e-06	24.699	-43.541	65.363	123.749	-68.380	72.719	99.409	-68.345	-63.617	106.684	99.578	-64.376	-60.343	-58.703	-53.098	124.185	-54.815	-8191	255	
995.660	1	1	0	0	0.14121	0.2156	0.21715	0.23394	0.21429	0.33259	0.36308	0.10671	0.058308	0.10162	0.30798	0.071931	0.21016	0.20361	0.09044	0.20548	-1.7854	-2.725	-1.8062	-2.7104	-2.6125	-1.7625	-2.8646	-2.3708	-1.9729	-2.8563	-1.9083	-2.5771	-2.5167	-1.7083	-2.8	-2.2875	-35.636	8.823	69.087	-76.686	98.112	40.470	224.151	-12.267	265.813	-50.473	14.312	6.538	27.236	-57.989	253.121	-31.578	3.9264e-05	0.00032417	0.00013375	891.59	1.1976e-06	3.6733e-06	1346.7	201.47	1.8406e-06	3.0335e-06	346.5	91.404	44.09	12.305	5.0403e-06	29.549	0.00023274	0.00026042	7.2863e-05	735.65	2.819e-06	2.7924e-06	1118.8	168.14	2.8845e-06	2.7821e-06	289.21	77.086	37.186	10.379	2.6944e-06	24.805	207.721	-29.721	20.465	-68.392	124.646	92.419	-68.432	-63.813	193.608	177.537	-65.469	-60.097	-58.880	-52.836	103.658	-54.717	-8191	255	
995.756	1	1	0	0	0.19691	0.060993	0.1129	0.21202	0.17547	0.13966	0.10517	0.1913	0.10184	0.029052	0.11671	0.17907	0.084218	0.08989	0.039328	0.075645	-1.5042	-2.8812	-1.9375	-2.4688	-2.6396	-1.7146	-2.8167	-2.1854	-2.1562	-2.7167	-2.1208	-2.3667	-2.7313	-1.8667	-2.3792	-2.5354	123.811	212.979	118.144	180.453	145.869	122.680	168.210	209.641	62.279	216.437	20.622	256.055	242.738	138.383	185.366	191.214	4.8082e-05	0.00022361	8.9352e-05	886.92	4.4893e-06	1.0188e-06	1343.2	201.27	2.4934e-06	9.9403e-07	349.26	91.348	43.479	12.306	2.6764e-06	29.937	0.00022539	0.00025119	7.0795e-05	729.97	2.7879e-06	2.7838e-06	1117.1	167.1	3.036e-06	2.8957e-06	289.22	77.231	36.909	10.342	2.73e-06	24.985	194.829	20.581	-33.938	-68.852	62.337	124.115	-68.255	-63.479	-10.302	220.010	-64.849	-60.299	-58.502	-53.695	114.123	-55.157	-8191	255	
995.852	1	1	0	0	0.30614	0.15616	0.22646	0.061873	0.43722	0.10496	0.14425	0.073702	0.23636	0.13221	0.035608	0.18673	0.068207	0.015219	0.24011	0.035163	-1.3167	-2.6792	-1.9604	-2.3729	-2.7167	-1.7667	-2.4229	-2.4396	-1.7583	-2.8438	-2.2125	-2.1917	-2.9229	-1.8542	-2.3458	-2.8563	125.445	146.643	-21.695	-19.234	-4.091	167.056	220.634	13.445	-20.183	251.009	216.064	247.769	277.347	266.309	156.965	267.415	2.3881e-05	0.00034977	3.0815e-05	890.29	4.3752e-06	2.9804e-06	1350.2	199.4	2.0587e-06	5.0806e-06	349.88	91.97	43.988	12.384	1.1793e-06	29.897	0.00024387	0.00025598	7.463e-05	731.88	2.919e-06	2.7975e-06	1118.9	166.54	2.754e-06	2.8088e-06	290.15	77.722	37.089	10.471	2.8134e-06	25.134	174.779	37.704	13.732	-68.940	135.032	60.857	-68.313	-63.881	156.865	58.311	-65.260	-60.300	-58.239	-53.319	195.429	-55.315	-8191	255	
995.947	1	1	0	0	0.16126	0.096479	0.2518	0.1568	0.22973	0.13685	0.39799	0.05264	0.2549	0.21648	0.15295	0.20781	0.19915	0.10858	0.2664	0.20436	-1.3625	-2.6729	-2.0104	-2.1958	-2.6083	-1.9375	-2.5167	-2.8646	-1.7646	-2.8063	-2.4292	-2.0146	-2.7	-1.6958	-2.3625	-2.8521	-4.346	164.178	109.659	130.505	101.732	229.636	269.109	213.208	71.784	11.776	136.722	84.357	170.014	19.059	243.342	-36.883	4.7829e-05	0.00083164	6.5683e-05	891.66	1.9584e-06	3.0558e-06	1357.9	201.39	2.3849e-06	4.5006e-06	351.84	92.752	43.325	12.441	4.455e-06	30.102	0.00023078	0.00025935	7.2294e-05	730.62	2.8383e-06	2.8715e-06	1126	168.28	2.8706e-06	2.7805e-06	292.32	77.88	36.945	10.475	2.6857e-06	25.256	231.264	58.492	18.173	-68.503	56.805	130.633	-68.123	-63.784	100.364	69.142	-65.073	-60.053	-58.022	-53.444	38.725	-55.080	-8191	255	
996.043	1	1	0	0	0.15989	0.080544	0.17178	0.058529	0.099174	0.068725	0.12076	0.2413	0.08367	0.073919	0.37303	0.26291	0.055499	0.038338	0.17527	0.026872	-1.1646	-2.6146	-2.2958	-1.9208	-2.7792	-1.8771	-2.4833	-2.6917	-1.7771	-2.5563	-2.4813	-2.0292	-2.7458	-1.9688	-2.1854	-2.7	171.154	241.143	-68.929	148.895	-80.358	204.876	151.973	246.470	84.065	11.638	158.164	227.166	-74.515	-53.558	248.731	236.308	3.8344e-05	0.00032856	7.6942e-05	893.22	3.3268e-06	1.5953e-06	1340.4	199.92	2.7299e-06	1.1449e-06	345.97	91.321	43.974	12.194	3.8881e-06	29.646	0.00023652	0.00025047	7.4511e-05	731.94	2.7772e-06	2.7587e-06	1115.8	167.37	2.8055e-06	2.8054e-06	288.76	77.055	37.016	10.36	2.8834e-06	24.842	204.192	20.232	96.059	-68.837	98.224	55.338	-68.175	-63.960	19.725	-68.736	-65.241	-59.999	-58.745	-53.649	37.309	-55.067	-8191	255	
996.139	1	1	0	0	0.23376	0.12303	0.15226	0.31475	0.073182	0.14469	0.12835	0.065586	0.18881	0.041965	0.23123	0.30549	0.26515	0.20248	0.13727	0.10421	-1.4354	-2.6	-2.5667	-2.025	-2.6979	-2.1875	-2.1646	-2.7583	-1.8833	-2.5708	-2.7188	-1.7437	-2.6583	-2.0354	-2.0271	-2.8688	83.928	241.516	68.205	69.928	44.535	135.276	45.773	266.553	69.917	276.597	215.661	173.180	165.635	135.664	274.479	-68.236	4.6148e-05	0.00060148	6.3231e-05	880.31	4.0833e-06	4.677e-06	1337.7	200.42	1.6157e-06	4.2404e-06	349.05	91.487	43.878	12.354	1.6783e-06	29.618	0.00024221	0.00025531	6.9226e-05	727	2.8413e-06	2.7342e-06	1114.2	166.41	2.9049e-06	2.8029e-06	289.55	77.217	36.879	10.392	2.8444e-06	24.887	140.908	6.266	255.579	-68.709	65.331	180.580	-68.359	-63.941	129.471	-18.444	-65.057	-60.461	-58.442	-53.607	242.284	-55.368	-8191	255	
996.237	1	1	0	0	0.059327	0.18237	0.18564	0.13896	0.25112	0.28558	0.20004	0.19074	0.13931	0.075539	0.15214	0.10536	0.1501	0.45935	0.28266	0.2167	-1.4896	-2.2875	-2.4542	-1.8271	-2.5687	-2.4583	-2.0187	-2.8979	-1.9708	-2.0875	-2.6375	-1.9021	-2.5667	-2.2938	-2.0187	-2.9208	170.830	85.420	80.528	261.233	-31.185	98.151	170.195	192.822	-50.914	107.714	184.825	-61.204	2.192	231.769	277.800	264.505	8.9479e-05	0.00011139	4.0558e-05	874.4	2.9555e-06	1.6071e-06	1350.3	201.99	2.1015e-06	4.3962e-06	353.52	92.969	43.85	12.278	2.5733e-06	30.04	0.00023318	0.00024062	7.1821e-05	726.47	2.905e-06	2.8149e-06	1119.4	167.55	3.0135e-06	2.8291e-06	292.16	77.785	37.147	10.372	2.9037e-06	25.189	194.928	-45.210	-14.424	-68.718	99.878	166.374	-68.631	-63.899	136.907	98.425	-64.887	-61.001	-58.245	-54.018	89.377	-55.691	-8191	255	
996.356	1	1	0	0	0.20694	0.15124	0.078525	0.26239	0.20944	0.24972	0.12999	0.040048	0.29098	0.081728	0.042934	0.18347	0.081332	0.25394	0.34899	0.084108	-1.6042	-1.9958	-2.5833	-1.9042	-2.6521	-2.4354	-2.025	-2.9417	-2.2125	-2.3583	-2.8729	-1.9146	-2.4021	-2.55	-1.8917	-2.8125	-25.289	214.266	128.968	7.440	139.398	9.252	-78.710	-52.157	136.775	245.914	-56.964	-58.681	-78.622	-21.481	91.413	-68.658	1.8131e-05	8.7696e-05	0.00016507	889.08	2.1214e-06	2.241e-06	1364.3	203.89	2.276e-06	5.3087e-06	352.61	92.724	44.023	12.285	1.0946e-06	30.099	0.0002346	0.00024378	7.3141e-05	733.38	2.9198e-06	2.9234e-06	1128.2	169.09	2.8685e-06	2.8832e-06	293.2	78.082	37.384	10.466	2.8825e-06	25.346	200.526	-17.971	32.899	-69.126	44.940	-45.267	-68.661	-63.992	60.522	29.296	-64.953	-60.917	-57.977	-53.285	51.935	-55.325	-8191	255	
996.428	1	1	0	0	0.030717	0.15363	0.12712	0.082689	0.24188	0.061246	0.1663	0.37247	0.40089	0.1443	0.18617	0.21939	0.14856	0.11874	0.18259	0.27344	-1.7042	-1.9646	-2.7583	-1.8521	-2.5146	-2.6354	-1.8521	-2.8583	-2.1333	-1.8833	-2.8542	-1.8354	-2.4375	-2.5292	-1.7563	-2.5812	142.990	259.907	-81.413	188.339	-53.810	94.665	195.456	195.906	185.949	203.943	202.274	230.862	-28.394	-74.343	-47.935	269.929	2.0365e-05	0.00023836	5.4307e-05	891.71	3.8599e-06	1.687e-06	1357.4	203.78	1.5415e-06	3.1529e-06	354.1	93.167	44.354	12.349	3.4855e-06	29.8	0.00024437	0.00025398	6.7108e-05	737.65	2.8688e-06	2.9196e-06	1128.4	169.43	2.9066e-06	2.6885e-06	292.66	78.073	37.52	10.436	2.7945e-06	24.939	175.680	87.117	139.801	-68.535	203.276	222.324	-68.151	-64.292	120.002	82.662	-64.508	-59.951	-58.527	-53.434	111.693	-55.242	-8191	255	
996.548	1	1	0	0	0.12295	0.054481	0.0096347	0.15218	0.34284	0.076536	0.37244	0.18399	0.086963	0.12989	0.11595	0.1998	0.21135	0.19638	0.20389	0.048481	-1.6938	-1.8375	-2.6958	-1.8708	-2.2208	-2.4813	-1.7146	-2.5333	-2.2958	-1.7687	-2.9583	-2.3312	-2.0729	-2.6333	-1.8771	-2.4354	-19.595	33.010	62.124	-75.221	119.702	86.330	203.073	118.549	49.832	148.436	-74.096	241.872	273.714	2.788	-41.078	238.358	4.4819e-05	0.00041272	0.00012545	890.87	8.1858e-07	6.1103e-06	1348.2	202.52	2.4096e-06	4.9778e-06	353.12	92.855	43.452	12.182	2.9452e-06	29.865	0.00023359	0.00026017	6.9193e-05	732.67	2.8958e-06	2.7791e-06	1120.7	168.38	2.7871e-06	2.9038e-06	291.88	77.975	37.083	10.405	2.7762e-06	25.103	221.547	-63.996	28.978	-68.497	162.086	176.367	-68.445	-63.768	72.428	130.935	-65.162	-60.526	-58.424	-53.286	63.266	-55.518	-8191	255	
996.644	1	1	0	0	0.025106	0.022619	0.044926	0.23099	0.17376	0.066206	0.1932	0.42365	0.11638	0.09443	0.21278	0.14438	0.28827	0.15291	0.081089	0.28014	-2.1167	-1.8458	-2.725	-2.0438	-2.1	-2.6042	-1.9438	-2.4688	-2.4521	-1.7188	-2.9313	-2.2	-2.1	-2.8375	-1.9729	-2.4729	105.909	17.682	241.593	-44.788	140.361	39.575	189.241	232.110	-3.035	-60.909	238.153	222.870	177.053	230.089	191.898	253.285	5.1435e-05	0.0004649	1.9459e-05	880.36	5.4558e-06	4.5786e-06	1354.4	203.45	6.6516e-07	7.141e-06	349.58	92.315	43.89	12.184	1.6289e-06	30.174	0.00022747	0.00026137	6.8117e-05	728.17	2.7946e-06	2.7922e-06	1121.3	168.39	3.0096e-06	2.8388e-06	290.81	77.693	37.135	10.391	2.8931e-06	25.238	248.437	-21.425	12.857	-68.665	40.268	46.743	-68.290	-64.010	81.324	75.825	-65.220	-60.227	-58.021	-53.327	64.751	-54.911	-8191	255	
996.741	1	1	0	0	0.17994	0.1853	0.11588	0.22355	0.24177	0.03148	0.069811	0.4695	0.38933	0.12307	0.10135	0.073291	0.24017	0.079641	0.13184	0.13905	-2.2896	-1.6562	-2.6688	-2.1229	-1.7354	-2.7271	-2.1167	-2.3063	-2.6104	-1.8	-2.5771	-2.4	-2.0167	-2.8021	-1.8354	-2.2229	172.109	-11.205	-2.631	174.785	136.199	177.362	147.609	211.310	113.727	250.486	194.145	-37.768	-79.841	232.568	62.117	109.568	7.8441e-05	0.00024248	0.00011872	879.03	1.658e-06	1.8287e-06	1360.9	203.82	1.2077e-06	3.3477e-06	355.28	93.121	44.058	12.434	2.3595e-06	30.053	0.00023252	0.00026637	7.0033e-05	730.81	2.8679e-06	2.9018e-06	1127	168.88	2.8958e-06	2.9575e-06	294.16	78.286	37.193	10.437	2.8868e-06	25.304	199.608	13.973	41.400	-68.526	53.150	54.366	-68.008	-63.773	89.803	67.207	-64.720	-60.404	-58.574	-53.733	91.795	-54.857	-8191	255	
996.837	1	1	0	0	0.18203	0.29421	0.27422	0.14993	0.15819	0.10739	0.19689	0.094331	0.088331	0.06308	0.21161	0.14968	0.08772	0.24211	0.064687	0.19673	-2.2833	-2.0458	-2.4271	-2.6396	-1.75	-2.7625	-2.2042	-2.0938	-2.4542	-1.9062	-2.6458	-2.5333	-1.8937	-2.8125	-2.0625	-2.0417	181.945	194.550	154.282	-69.926	206.586	-46.409	218.598	262.382	237.253	-17.144	186.666	-29.010	110.024	12.940	143.647	123.986	2.2069e-05	0.00011362	5.2701e-05	887.04	4.0347e-06	4.2048e-06	1350.6	202.44	2.3828e-06	2.3276e-06	352.17	92.458	44.042	12.18	2.049e-06	30.002	0.00023511	0.00025499	7.0662e-05	733.73	2.7962e-06	2.8529e-06	1128.6	169.26	2.8289e-06	2.9274e-06	293.1	78.043	37.273	10.4	2.799e-06	25.236	-42.564	21.569	31.338	-68.851	170.472	-38.051	-68.326	-64.063	112.520	-38.241	-64.813	-60.018	-57.726	-54.222	109.879	-54.700	-8191	255	
996.957	1	1	0	0	0.15146	0.15412	0.14813	0.022647	0.12243	0.14893	0.18817	0.28559	0.18435	0.15	0.078849	0.26131	0.094177	0.16756	0.095086	0.20668	-2.4917	-1.6208	-2.3	-2.6292	-1.6792	-2.7083	-2.3771	-1.9479	-2.8937	-1.6083	-2.5438	-2.6979	-1.8375	-2.6208	-2.1875	-2.0333	-13.927	109.738	191.516	191.127	124.780	7.075	220.670	-69.430	190.722	102.302	209.677	188.666	27.480	80.925	111.563	241.466	5.6457e-05	0.00042017	9.7079e-05	884.21	1.3536e-06	7.093e-06	1353.4	201.5	1.8963e-06	4.2472e-06	351.76	91.502	44.213	12.459	1.5421e-06	29.956	0.00022868	0.00026311	7.2817e-05	732.32	2.8216e-06	2.6057e-06	1118.3	168.33	2.661e-06	2.8373e-06	291.35	77.496	37.242	10.456	2.7539e-06	25.183	161.469	16.601	20.399	-68.361	138.809	116.809	-67.842	-63.999	96.696	33.038	-64.585	-59.748	-59.059	-53.880	126.770	-54.914	-8191	255	
997.052	1	1	0	0	0.22026	0.011186	0.1293	0.062119	0.032507	0.089818	0.16173	0.10463	0.14962	0.037171	0.16602	0.18607	0.12362	0.077843	0.18794	0.19577	-2.3458	-1.9417	-2.3021	-2.5854	-1.4396	-2.5938	-2.6937	-1.7542	-2.7646	-1.9208	-2.2875	-2.9083	-1.8375	-2.5229	-2.3417	-1.8292	52.021	263.122	74.859	65.401	193.881	142.204	189.855	103.604	-67.912	53.897	-29.164	135.212	77.057	-20.231	174.051	155.782	6.3063e-05	0.00033506	0.00010343	878	1.4541e-06	1.93e-06	1347.5	201.08	2.3991e-06	5.8636e-06	352.78	92.851	43.292	12.36	5.6718e-06	30.252	0.00023009	0.00024965	6.9712e-05	731.5	2.6843e-06	2.6464e-06	1123.6	167.53	2.8881e-06	2.7823e-06	293.18	78.126	37.001	10.453	2.7528e-06	25.396	220.999	14.849	20.203	-68.229	65.411	24.148	-68.371	-63.232	-55.036	95.648	-65.039	-60.332	-57.991	-54.032	68.334	-55.449	-8191	255	
997.148	1	1	0	0	0.1731	0.092944	0.12747	0.19853	0.1265	0.24073	0.35809	0.35734	0.15048	0.24896	0.16887	0.2534	0.093167	0.29524	0.1758	0.1451	-2.6083	-2.0938	-2.1688	-2.8125	-1.6729	-2.5438	-2.6333	-1.9229	-2.625	-2.1063	-2.3021	-2.8375	-1.7375	-2.5042	-2.5208	-1.8792	40.596	40.148	4.552	-30.420	260.274	38.210	241.078	246.769	20.698	165.627	269.412	-13.730	210.553	181.596	60.731	272.772	4.6286e-05	0.0001129	0.00012985	897.19	3.2406e-06	3.8064e-06	1370.9	204.82	9.7389e-07	2.9454e-06	358.25	94.131	44.401	12.479	5.7835e-06	30.257	0.00021715	0.00024386	7.1821e-05	736.65	2.8024e-06	2.7995e-06	1133.1	169.58	2.7236e-06	2.8339e-06	295.81	78.771	37.589	10.506	2.729e-06	25.532	208.741	61.139	29.035	-68.488	74.459	27.972	-68.175	-63.597	72.407	38.477	-64.638	-60.059	-58.359	-52.958	93.613	-54.844	-8191	255	
997.244	1	1	0	0	0.15243	0.16651	0.25469	0.15526	0.14985	0.19679	0.21429	0.3142	0.088027	0.1534	0.083855	0.16747	0.20437	0.18764	0.22522	0.10773	-2.3458	-2.2646	-1.9062	-2.6833	-1.8	-2.4854	-2.7833	-1.8396	-2.6042	-2.1771	-1.9438	-3.025	-1.8542	-2.1979	-2.5438	-1.9625	235.747	-16.715	128.621	-19.193	187.800	19.185	182.413	182.758	185.191	17.545	212.280	-79.000	-9.778	213.462	115.334	119.910	2.5777e-05	0.0007082	0.00014596	895.86	4.2491e-06	4.4659e-06	1376.1	204.71	1.0068e-06	3.0809e-06	360.15	94.459	44.94	12.406	2.1974e-06	30.223	0.00021901	0.00025763	7.0629e-05	738.2	2.7026e-06	2.7217e-06	1140.8	170.67	2.6385e-06	2.6242e-06	297.48	79.41	37.964	10.52	2.6645e-06	25.461	267.232	17.328	31.563	-68.297	82.147	159.148	-68.261	-63.564	140.850	64.605	-64.299	-60.530	-57.695	-54.010	103.370	-55.143	-8191	255	
997.340	1	1	0	0	0.11654	0.27048	0.18726	0.24633	0.11508	0.17337	0.31689	0.31933	0.15976	0.067516	0.03314	0.32042	0.11809	0.20483	0.16915	0.028892	-2.1458	-2.3146	-1.825	-2.7125	-2.0292	-2.1896	-2.9104	-1.7458	-2.5833	-2.4958	-2.1083	-2.7708	-1.9583	-1.9937	-2.6646	-2.0208	135.748	-54.584	89.819	147.832	113.357	119.412	239.782	192.509	221.033	127.296	-26.005	225.442	134.686	-76.647	36.334	140.377	5.686e-05	0.00021549	9.2676e-05	900.77	3.3643e-06	1.655e-06	1387.2	203.88	3.6814e-06	4.4835e-06	355.77	93.359	44.48	12.482	5.8573e-06	30.116	0.00022319	0.00024488	6.821e-05	743.2	2.8896e-06	2.7086e-06	1140.6	170.52	2.5936e-06	2.6719e-06	296.54	78.913	37.659	10.558	2.6337e-06	25.397	192.549	-15.950	21.643	-68.586	75.253	165.342	-68.213	-63.500	65.250	109.612	-64.871	-60.099	-58.404	-53.735	46.185	-55.198	-8191	255	
997.436	1	1	0	0	0.18033	0.12492	0.20929	0.17781	0.0239	0.21303	0.21475	0.63459	0.27014	0.36985	0.056018	0.25807	0.32418	0.099982	0.1551	0.34546	-2.1896	-2.4542	-1.9292	-2.6729	-2.2687	-2.0167	-2.9604	-1.9562	-2.4229	-2.7729	-1.8667	-2.7771	-2.2708	-2.0438	-2.7	-1.9771	134.577	132.452	232.338	251.793	-11.720	42.058	235.213	245.450	-51.975	100.021	248.155	-62.629	193.711	114.977	29.081	169.274	5.464e-05	0.00035467	3.9148e-05	908.43	2.8569e-06	3.0068e-06	1367.3	205.74	2.3729e-06	7.0526e-06	356.59	94.116	44.271	12.483	4.1079e-06	30.41	0.00022156	0.00024983	7.2621e-05	745.14	2.7689e-06	2.6795e-06	1136.8	170.55	2.784e-06	2.8422e-06	296.24	78.974	37.467	10.549	2.7985e-06	25.387	233.641	-9.491	45.608	-68.156	103.595	4.137	-68.247	-63.971	3.549	58.382	-64.784	-59.582	-58.093	-53.643	79.652	-54.817	-8191	255	
997.532	1	1	0	0	0.16204	0.34027	0.16959	0.11693	0.14004	0.25135	0.19435	0.28671	0.25376	0.10945	0.047753	0.25944	0.15443	0.29899	0.0852	0.21273	-2.0396	-2.5292	-1.7208	-2.8	-2.0729	-1.9458	-3.0021	-1.8917	-2.1042	-2.8229	-1.8729	-2.4062	-2.3312	-1.9438	-2.6854	-1.9479	204.588	78.906	170.271	263.258	137.636	-45.624	149.752	197.990	130.336	48.022	189.160	268.575	34.082	-57.091	22.168	126.406	8.3765e-05	0.00032711	0.00016709	894.82	8.0033e-06	3.6764e-06	1378.4	204.42	1.7151e-06	2.8151e-06	356.24	94.461	44.511	12.351	3.7407e-06	30.413	0.00022208	0.00023996	6.8256e-05	737.97	2.7736e-06	2.7987e-06	1141.7	170.07	2.7858e-06	2.745e-06	296.28	78.902	37.644	10.483	2.5805e-06	25.607	183.372	-25.361	52.804	-68.265	72.667	85.180	-68.264	-63.979	100.338	133.938	-64.964	-59.711	-58.148	-52.624	42.368	-54.894	-8191	255	
997.653	1	1	0	0	0.21253	0.043619	0.27315	0.11957	0.038571	0.12212	0.44711	0.11472	0.14018	0.05949	0.19943	0.27894	0.40064	0.27616	0.17272	0.064079	-1.9021	-2.5896	-1.7104	-2.7125	-2.2083	-1.7146	-2.8833	-2.2438	-1.8729	-2.6271	-1.7604	-2.2375	-2.5083	-1.6646	-2.5312	-2.0146	19.033	28.389	-55.914	251.402	158.790	204.228	222.319	55.038	26.542	243.445	251.446	109.577	227.260	88.750	173.517	-28.924	4.3383e-05	0.0006555	0.00013171	901.2	4.793e-06	2.735e-06	1369	203.98	3.8676e-06	2.0262e-06	361.38	94.772	44.592	12.572	1.5298e-06	30.486	0.0002201	0.00023483	6.9249e-05	743.76	2.7251e-06	2.9351e-06	1140.3	169.72	2.7291e-06	2.7189e-06	298.96	79.715	37.954	10.563	2.7783e-06	25.514	217.067	7.911	29.098	-67.992	65.738	63.912	-68.378	-64.026	130.380	12.802	-64.761	-60.439	-58.258	-53.340	79.252	-54.508	-8191	255	
997.725	1	1	0	0	0.15384	0.17156	0.35901	0.21469	0.15985	0.14499	0.19497	0.24046	0.056671	0.31259	0.3121	0.15372	0.1463	0.13857	0.13275	0.22719	-1.6917	-2.7396	-1.8146	-2.3271	-2.4375	-1.7979	-2.9313	-2.1542	-1.8	-2.7438	-1.8979	-2.3	-2.6604	-1.8333	-2.8354	-2.1437	116.816	181.078	50.671	207.576	226.263	60.818	175.311	248.266	190.595	162.095	239.751	194.660	148.468	268.854	62.029	-37.470	3.3467e-05	0.00020516	7.5889e-05	898.48	2.6462e-06	4.3543e-06	1366.4	204.79	2.6499e-06	4.3771e-06	354.43	93.961	44.486	12.207	1.1337e-06	29.841	0.00023268	0.00025521	7.1202e-05	738.31	2.8528e-06	2.8648e-06	1133.3	170.44	2.8137e-06	2.7857e-06	294.68	78.53	37.656	10.381	2.6804e-06	25.109	190.553	-34.999	-15.657	-68.332	97.272	43.194	-68.101	-63.581	111.771	84.862	-65.183	-60.331	-58.533	-53.913	36.222	-55.177	-8191	255	
997.821	1	1	0	0	0.095781	0.16082	0.25453	0.041703	0.21296	0.020583	0.22647	0.25574	0.057343	0.31656	0.26446	0.12408	0.14526	0.29509	0.25239	0.13042	-1.5667	-2.7938	-1.7437	-2.0771	-2.5521	-1.8604	-2.7104	-2.4604	-1.7375	-2.7833	-2.0646	-2.2604	-2.5187	-1.6708	-2.5458	-2.475	-18.817	173.221	0.615	19.521	-4.566	-24.055	259.160	241.897	-54.478	80.410	252.521	-44.854	194.931	4.878	184.828	146.941	2.6635e-05	0.00045046	8.8156e-05	888.45	6.1277e-06	5.8429e-06	1359.3	203.71	1.9217e-06	9.6716e-06	354.51	94.058	44.388	12.349	1.0979e-06	29.883	0.00024289	0.00026053	7.4283e-05	738.23	2.9216e-06	2.8314e-06	1128.9	169.13	2.8294e-06	2.7085e-06	293.97	78.499	37.459	10.403	2.8295e-06	25.202	178.868	26.733	97.710	-68.052	61.759	115.993	-67.915	-63.740	142.988	87.911	-64.526	-59.853	-58.691	-53.648	191.932	-55.155	-8191	255	
997.917	1	1	0	0	0.21539	0.052473	0.16117	0.075621	0.19283	0.19631	0.20314	0.079861	0.27706	0.21144	0.23406	0.084364	0.031007	0.043392	0.096634	0.18275	-1.4771	-2.6	-1.9813	-2.0167	-2.8187	-1.65	-2.6604	-2.5854	-1.5708	-2.6979	-2.15	-2.1833	-2.9896	-2.0687	-2.4167	-2.5667	80.261	132.556	-57.641	6.352	185.814	132.042	223.090	172.060	218.597	197.948	-79.912	-19.299	114.221	70.257	79.692	266.637	6.4654e-05	0.00024439	8.7088e-05	895.78	1.9205e-06	2.2233e-06	1369.6	202.59	1.2244e-06	2.3247e-06	358.67	93.417	44.945	12.564	3.5649e-07	30.519	0.00023208	0.00023614	6.9153e-05	739.1	2.7759e-06	2.8962e-06	1133.4	168.97	2.8559e-06	2.6783e-06	296.34	78.509	37.624	10.546	2.7022e-06	25.431	193.459	7.365	-10.159	-68.101	105.278	19.700	-68.175	-63.823	-24.458	116.006	-64.447	-60.156	-57.991	-53.929	166.823	-55.755	-8191	255	
998.036	1	1	0	0	0.066512	0.20763	0.11199	0.24869	0.089159	0.16395	0.15485	0.16133	0.30601	0.28762	0.10681	0.17718	0.23563	0.27976	0.22087	0.085895	-1.4375	-2.5	-2.0167	-2.0208	-2.7521	-1.8292	-2.6	-2.5687	-1.6063	-2.6292	-2.4	-2.0167	-2.6854	-1.9521	-2.3167	-2.6875	81.117	-68.835	143.235	191.409	244.354	254.480	271.332	153.137	-6.032	22.525	178.934	31.092	247.892	-10.588	33.502	121.064	2.7413e-05	0.00054705	0.00013815	902.76	1.5843e-06	4.9163e-06	1384.1	207.7	2.8363e-06	6.0683e-06	360.85	94.436	45.163	12.722	2.5527e-06	30.671	0.00023511	0.00024994	6.7048e-05	745.04	2.879e-06	2.7903e-06	1145.8	171.77	2.6567e-06	2.8116e-06	299.39	79.648	38.081	10.647	2.6685e-06	25.672	187.819	15.724	32.918	-68.274	-51.829	44.562	-67.811	-63.481	104.053	118.509	-64.796	-59.915	-57.965	-54.104	73.927	-54.964	-8191	255	
998.132	1	1	0	0	0.023311	0.27065	0.047775	0.1139	0.43627	0.10396	0.20202	0.2063	0.45081	0.15119	0.1994	0.13157	0.12258	0.13764	0.086529	0.11128	-1.4208	-2.6104	-2.2271	-1.7854	-2.8208	-1.9062	-2.3771	-2.8417	-1.5458	-2.5729	-2.5542	-1.9271	-2.6312	-1.9771	-1.9479	-2.6271	-72.934	17.163	242.350	194.922	135.388	55.614	239.868	212.987	104.352	104.136	273.781	101.247	42.529	-77.345	158.926	-72.191	3.9572e-05	0.00066597	0.00017268	907.76	4.0999e-07	3.7519e-06	1381.5	207.28	1.6944e-06	2.8468e-06	361.38	94.087	45.689	12.512	2.5519e-06	30.044	0.00022975	0.0002549	6.9742e-05	751.75	2.7307e-06	2.6659e-06	1148.5	172.03	2.6995e-06	2.6876e-06	298.98	79.393	38.338	10.539	2.7339e-06	25.228	184.564	1.172	25.382	-67.959	-47.161	92.141	-67.987	-63.499	76.381	-16.026	-64.998	-60.021	-57.858	-53.465	-3.696	-55.109	-8191	255	
998.228	1	1	0	0	0.64343	0.33283	0.18296	0.20938	0.14858	0.26038	0.049495	0.15383	0.21448	0.21404	0.29514	0.19412	0.18212	0.17461	0.042215	0.28242	-1.4813	-2.5208	-2.4062	-1.8708	-2.7042	-2.0333	-2.2042	-2.6354	-1.9646	-2.3458	-2.8292	-1.7708	-2.925	-2.1708	-1.8146	-2.9042	91.243	142.492	-2.779	246.965	-29.568	71.086	217.166	258.440	200.062	-35.233	196.629	269.422	174.817	-80.626	135.641	183.398	5.698e-05	0.00052148	8.3037e-05	901.57	1.1053e-06	4.2812e-06	1385.4	206.53	8.8412e-07	5.5218e-06	359.36	94.939	45.3	12.39	2.7708e-06	30.185	0.00022604	0.0002405	7.1145e-05	742.82	2.7681e-06	2.6375e-06	1146.6	171.81	2.7414e-06	2.8343e-06	297.69	79.516	38.158	10.501	2.6484e-06	25.379	193.981	-18.255	-15.207	-68.132	111.645	69.825	-67.558	-63.662	193.916	122.047	-64.385	-60.033	-58.362	-53.657	72.203	-55.055	-8191	255	
998.324	1	1	0	0	0.23279	0.040133	0.086282	0.10374	0.17207	0.17142	0.1975	0.059959	0.068257	0.34888	0.30693	0.18541	0.21752	0.12521	0.098834	0.061788	-1.3792	-2.4125	-2.7812	-1.8333	-2.7854	-2.3896	-2.0458	-2.9188	-2.0229	-2.1125	-2.8021	-1.8458	-2.5667	-2.2917	-1.7812	-2.7521	127.548	99.821	121.072	-2.899	165.907	232.513	236.568	-57.704	105.948	-80.545	270.681	4.901	173.241	252.308	-59.759	174.246	4.6966e-05	0.00044141	4.8281e-05	905.05	2.0286e-06	4.9417e-06	1376.9	205.97	1.2293e-06	1.8766e-06	356.77	94.25	45.2	12.281	2.7663e-06	30.305	0.00023092	0.00025378	7.0179e-05	744.89	2.7575e-06	2.8818e-06	1140.8	170.68	2.7897e-06	2.8519e-06	296	79.077	38.226	10.439	2.7862e-06	25.435	189.560	39.148	259.723	-67.774	122.110	92.374	-68.009	-63.047	147.050	-32.634	-64.770	-59.808	-57.854	-52.825	122.466	-54.679	-8191	255	
998.421	1	1	0	0	0.20339	0.24544	0.13361	0.13536	0.20846	0.19852	0.34611	0.095343	0.25127	0.083721	0.10704	0.15444	0.07362	0.19463	0.0052193	0.11093	-1.6958	-1.8583	-2.6146	-1.7229	-2.3979	-2.5292	-1.7833	-2.7729	-1.875	-2.1458	-2.5833	-1.7104	-2.4646	-2.4708	-1.9292	-2.8896	96.323	246.622	179.801	172.506	261.828	125.101	186.658	215.748	251.097	5.633	150.020	251.749	57.720	136.204	97.138	-2.092	2.0045e-05	0.00062985	0.00013181	896.77	4.9302e-06	2.7593e-06	1378.3	204.26	6.5555e-07	4.2601e-06	359.2	93.964	45.363	12.451	2.3363e-06	30.482	0.00022073	0.00025066	7.0344e-05	739.81	2.6843e-06	2.7395e-06	1147.4	170.75	2.713e-06	2.7979e-06	298.94	79.383	38.09	10.546	2.7979e-06	25.572	165.291	-14.625	20.397	-68.030	89.245	62.392	-67.960	-63.164	194.833	77.867	-64.041	-59.808	-58.377	-53.499	116.841	-54.454	-8191	255	
998.517	1	1	0	0	0.18357	0.091834	0.23497	0.31197	0.093058	0.061058	0.1494	0.082652	0.29133	0.17066	0.13343	0.35897	0.10654	0.1378	0.21882	0.0070853	-1.9062	-1.8354	-2.7583	-1.8167	-2.3375	-2.625	-1.9438	-2.7313	-1.9438	-1.9958	-2.9021	-2.0187	-2.2625	-2.7229	-1.6187	-2.5521	190.077	-57.513	150.227	244.792	-63.739	15.556	265.995	141.745	70.317	242.375	246.718	235.437	238.906	223.738	118.019	111.403	6.6849e-05	0.00028739	0.00017814	906.12	1.4021e-06	2.7064e-07	1389.4	208.08	2.117e-06	6.4893e-06	363.15	95.469	45.041	12.582	3.6762e-06	30.128	0.00023128	0.00024367	6.763e-05	746.46	2.7137e-06	2.6493e-06	1149.4	172.34	2.6798e-06	2.7293e-06	299.07	79.681	38.157	10.605	2.7488e-06	25.304	182.821	27.572	-5.421	-68.780	-71.215	138.962	-67.990	-63.629	81.853	57.933	-64.741	-59.975	-57.972	-53.450	65.264	-54.725	-8191	255	
998.637	1	1	0	0	0.1165	0.21933	0.11915	0.26114	0.22505	0.26228	0.070334	0.15446	0.12012	0.049903	0.16713	0.20857	0.13927	0.082252	0.14299	0.20044	-2.0208	-1.8833	-2.8354	-1.8813	-2.1833	-2.5854	-1.8833	-2.6167	-2.3792	-1.8583	-2.9208	-1.9333	-2.0208	-2.5875	-1.8542	-2.4437	60.948	-11.865	122.724	-18.830	36.070	-60.644	267.537	185.420	-4.658	-21.850	-32.618	-49.275	-76.832	-41.832	92.973	166.188	8.5706e-05	0.00050498	0.00016807	903.18	3.9837e-06	4.8241e-06	1370.2	205.15	3.0199e-06	1.417e-06	355.76	93.973	44.884	12.448	4.115e-06	29.835	0.00022117	0.00026357	6.3394e-05	744.02	2.6828e-06	2.6978e-06	1136.8	171.11	2.8203e-06	2.7061e-06	296.09	79.038	37.91	10.496	2.6685e-06	25.124	202.373	29.904	11.416	-68.409	121.861	99.439	-68.305	-63.276	33.406	242.726	-64.684	-60.500	-58.019	-53.778	103.095	-54.782	-8191	255	
998.733	1	1	0	0	0.19445	0.2428	0.20575	0.18363	0.056843	0.042078	0.12076	0.1732	0.36452	0.10766	0.32092	0.15453	0.074566	0.2419	0.02961	0.18714	-1.9813	-1.7021	-2.7208	-2.0792	-2.0875	-2.7042	-1.8396	-2.4625	-2.5833	-1.7833	-2.7083	-1.9708	-2.0354	-2.9729	-1.8042	-2.575	277.933	75.836	130.651	277.148	5.587	-1.304	236.789	242.991	97.231	-81.482	258.399	244.545	-78.722	183.056	-60.115	-76.971	5.2745e-05	0.00067902	0.00018326	899.85	2.176e-06	5.3313e-06	1376.2	204.36	1.693e-06	1.0919e-05	362.07	94.757	44.992	12.453	3.5132e-06	30.072	0.00022966	0.0002654	6.7108e-05	744.82	2.6841e-06	2.8711e-06	1142.7	170.2	2.7747e-06	2.6519e-06	298.05	79.324	38.04	10.482	2.7253e-06	25.307	214.543	-39.947	37.110	-68.009	151.264	13.253	-67.979	-63.626	120.618	105.755	-64.256	-59.981	-58.197	-54.211	111.500	-54.404	-8191	255	
998.830	1	1	0	0	0.075949	0.16972	0.23226	0.30468	0.022692	0.049111	0.35544	0.17982	0.25994	0.13037	0.15393	0.1258	0.055467	0.28449	0.20357	0.073791	-1.9708	-1.8333	-2.5458	-2.3875	-1.825	-2.7729	-2.3187	-2.4333	-2.6354	-1.9021	-2.6729	-2.5292	-1.8542	-2.7188	-2.0479	-2.2229	214.378	187.044	-80.678	-2.682	8.189	-35.534	215.126	148.747	257.708	-62.318	154.592	25.442	-49.523	70.517	228.576	-64.945	4.3719e-05	0.00022152	7.5315e-05	904.2	2.0771e-06	5.3781e-06	1384	207.07	1.3207e-06	3.9971e-06	362.59	95.777	45.596	12.304	1.1433e-06	30.51	0.00022118	0.00023852	7.143e-05	747.11	2.6592e-06	2.6548e-06	1149	172.49	2.7312e-06	2.8024e-06	299.56	80.046	38.423	10.402	2.7539e-06	25.562	189.944	16.475	40.476	-68.188	115.050	90.183	-68.122	-63.216	68.537	98.200	-64.378	-60.012	-58.228	-53.599	76.152	-55.089	-8191	255	
998.948	1	1	0	0	0.026521	0.19684	0.21516	0.12508	0.44713	0.080065	0.041975	0.18935	0.098051	0.10734	0.19894	0.12595	0.069496	0.076887	0.091522	0.082611	-2.3333	-1.8396	-2.4458	-2.4604	-1.8583	-2.9104	-2.1958	-2.2146	-2.6833	-1.6875	-2.4	-2.5979	-1.7417	-2.6312	-2.0875	-2.0021	192.356	109.270	262.553	-10.542	250.110	-24.309	194.820	221.255	-64.133	198.383	241.276	226.361	-44.671	34.367	196.665	210.174	6.123e-05	0.00062859	0.0001508	909.74	5.0335e-06	2.0014e-06	1400.2	209.27	2.2244e-06	5.7299e-06	368.37	96.346	45.367	12.438	4.1018e-06	30.408	0.00021211	0.00025228	7.1642e-05	750.27	2.8446e-06	2.7955e-06	1157.4	174.15	2.8083e-06	2.762e-06	303.37	80.307	38.584	10.521	2.8286e-06	25.418	249.682	38.144	8.052	-68.232	20.637	93.277	-67.658	-63.376	162.377	60.016	-64.190	-60.206	-58.349	-53.429	2.025	-55.219	-8191	255	
999.020	1	1	0	0	0.29195	0.28775	0.036708	0.21764	0.094418	0.11801	0.14852	0.0438	0.27016	0.22532	0.074984	0.21824	0.098042	0.052214	0.10152	0.22147	-2.0021	-1.8771	-2.2292	-2.6583	-1.6979	-2.7208	-2.2833	-2.1167	-2.6104	-1.8958	-2.4042	-2.8333	-1.675	-2.4188	-2.125	-1.9229	-74.690	-41.512	77.202	135.504	29.433	65.025	-71.438	6.744	-28.742	13.843	10.768	232.900	-41.106	242.939	40.954	182.540	5.7461e-05	0.00034591	3.5332e-05	912.4	3.1773e-06	1.0293e-06	1385.1	208.14	1.2005e-06	2.8175e-06	359.58	95.176	45.311	12.229	2.7236e-06	30.157	0.00022903	0.00025609	7.0454e-05	751.58	2.7526e-06	2.6795e-06	1150	173.27	2.7018e-06	2.7235e-06	299.41	79.456	38.353	10.396	2.7105e-06	25.163	230.391	23.843	-6.825	-68.041	52.314	149.953	-67.812	-63.819	83.745	121.979	-63.974	-60.304	-57.295	-53.608	44.636	-55.104	-8191	255	
999.116	1	1	0	0	0.21047	0.13811	0.2789	0.20903	0.063021	0.13346	0.089384	0.22999	0.062826	0.18146	0.059867	0.17562	0.081444	0.19723	0.19213	0.22236	-2.3979	-1.9792	-2.1646	-2.7125	-1.6792	-2.4583	-2.6604	-1.8729	-2.6021	-1.8979	-2.5438	-2.5208	-1.725	-2.5458	-2.2667	-1.7354	229.470	182.575	203.184	257.365	11.263	-80.352	149.411	107.774	168.026	245.566	267.312	244.256	240.318	239.730	125.981	255.282	4.5806e-05	0.00031532	0.00010462	910	1.4792e-06	2.5843e-06	1382.7	205.9	1.0484e-06	5.241e-06	359.68	94.275	45.956	12.343	3.3052e-06	30.521	0.00021816	0.00025247	6.6022e-05	745.91	2.7373e-06	2.7426e-06	1146.8	171.89	2.7788e-06	2.7962e-06	299.37	79.288	38.386	10.456	2.7436e-06	25.351	228.415	-19.093	10.039	-67.939	76.328	48.773	-67.989	-63.212	51.454	35.386	-64.284	-60.172	-58.075	-54.312	35.567	-54.836	-8191	255	
999.212	1	1	0	0	0.26213	0.15523	0.26491	0.078586	0.22211	0.2763	0.073201	0.29896	0.23079	0.062555	0.18462	0.15197	0.11314	0.097172	0.064493	0.2161	-2.4125	-1.9229	-2.2938	-2.6917	-1.7646	-2.3771	-2.6937	-1.8438	-2.7479	-2.0563	-1.9729	-2.8021	-1.8083	-2.4625	-2.4958	-1.7375	-69.335	169.249	33.247	-17.569	170.902	-28.164	-27.648	214.738	115.860	-78.244	212.660	270.361	255.802	36.173	82.562	142.915	3.2446e-05	3.4156e-05	0.00014354	908.63	4.7042e-06	1.4719e-06	1378.6	205.29	7.5255e-07	9.2864e-06	362.7	93.664	44.898	12.443	2.912e-06	30.608	0.0002243	0.00026248	6.8729e-05	746.63	2.9053e-06	2.6267e-06	1145.3	171.2	2.7583e-06	2.9335e-06	300.44	79.067	38.095	10.428	2.6073e-06	25.616	-76.909	153.272	2.927	-68.343	108.842	141.174	-67.853	-63.457	89.002	52.522	-64.650	-59.422	-58.251	-53.065	106.664	-54.275	-8191	255	
999.333	1	1	0	0	0.23712	0.16731	0.038045	0.18798	0.19447	0.057409	0.36239	0.053807	0.07623	0.19629	0.27527	0.032478	0.033649	0.13006	0.092927	0.056565	-2.5312	-2.1521	-1.9188	-2.9792	-1.7354	-2.3333	-2.6167	-1.8917	-2.4875	-2.3312	-1.8458	-2.9125	-1.8792	-2.3104	-2.4917	-2.0062	143.338	129.903	42.373	245.645	220.291	11.193	216.913	158.717	243.988	142.158	232.593	7.525	-3.106	51.496	183.367	216.794	4.4194e-05	0.00015402	9.8647e-05	900.54	4.6121e-06	1.9061e-06	1383.4	206.25	8.2376e-07	5.9261e-06	363.56	95.193	45.102	12.499	5.4988e-06	30.538	0.0002122	0.00024311	7.051e-05	743.07	2.8796e-06	2.814e-06	1149	170.83	2.8677e-06	2.5946e-06	301.8	79.83	38.179	10.546	2.7492e-06	25.65	272.682	45.894	4.264	-68.026	65.250	185.710	-68.113	-63.308	214.499	138.529	-64.330	-59.564	-57.941	-53.572	79.076	-54.575	-8191	255	
999.429	1	1	0	0	0.031499	0.11662	0.12854	0.068205	0.2775	0.18139	0.28778	0.093903	0.092035	0.096636	0.093738	0.0075565	0.11204	0.18199	0.28402	0.33536	-2.3229	-2.3396	-1.9083	-2.6917	-1.9583	-2.0792	-2.8583	-1.95	-2.5417	-2.1917	-1.8479	-2.7521	-2.1208	-2.2313	-2.7854	-1.975	90.429	218.860	56.367	270.484	-31.394	208.165	212.674	-79.481	127.100	253.506	125.871	213.457	271.355	121.498	-38.447	136.397	6.3287e-05	0.00041982	7.0508e-05	905.01	6.6327e-06	3.3189e-06	1369.5	205.36	2.0805e-06	4.4055e-06	359.18	93.501	44.578	12.402	6.0378e-06	30.21	0.00022297	0.00024998	7.1344e-05	743.22	2.7539e-06	2.7277e-06	1140.2	169.99	2.736e-06	2.7582e-06	295.84	78.873	37.689	10.444	2.6676e-06	25.291	210.379	-45.071	4.177	-67.637	91.609	69.545	-67.754	-63.402	85.210	44.328	-64.669	-60.042	-58.633	-53.916	76.749	-54.588	-8191	255	
999.525	1	1	0	0	0.088931	0.091589	0.063549	0.23765	0.3899	0.18986	0.20599	0.27499	0.20978	0.13912	0.3631	0.13628	0.069612	0.084058	0.26028	0.20904	-2.2313	-2.6312	-1.6771	-2.7646	-1.9562	-2.0042	-2.9688	-1.7854	-2.5896	-2.5687	-1.8292	-2.6667	-2.2771	-1.9667	-2.6562	-1.9792	-38.821	256.145	214.660	-80.731	-57.026	119.205	219.137	265.286	6.386	265.359	223.906	-79.895	222.172	62.657	202.977	196.330	7.8775e-05	0.00020168	6.353e-05	901.93	3.97e-06	8.8862e-06	1370.9	204.14	2.8565e-06	3.3729e-06	359.17	94.569	44.862	12.483	8.9956e-07	30.354	0.00024217	0.00025168	6.9716e-05	741.65	2.8058e-06	2.7495e-06	1137.7	169.88	2.6771e-06	2.7981e-06	297.64	78.848	37.853	10.476	2.651e-06	25.394	176.759	-68.540	-21.131	-67.810	104.609	96.921	-68.085	-63.937	102.231	40.419	-64.441	-59.464	-58.218	-53.846	275.944	-54.818	-8191	255	
999.597	1	1	0	0	0.073362	0.24922	0.27415	0.22651	0.1665	0.17737	0.45866	0.097366	0.228	0.13248	0.22285	0.22578	0.074248	0.2724	0.043843	0.1929	-2.1188	-2.6083	-1.725	-2.4792	-2.2062	-1.6396	-2.9208	-1.9167	-2.0687	-2.4792	-1.9729	-2.4896	-2.3187	-1.7375	-2.7271	-1.9417	52.753	59.140	-20.925	155.751	275.619	250.701	230.880	-37.697	-41.978	212.444	123.152	152.817	137.994	-49.352	52.184	180.288	3.1233e-05	0.00018096	5.6636e-05	900.88	2.1788e-06	5.8732e-06	1377.5	204.06	2.7764e-06	4.7102e-06	358.58	94.221	44.764	12.357	5.8266e-06	30.25	0.0002323	0.00025506	6.9461e-05	744.63	2.6869e-06	2.6955e-06	1142.6	170.15	2.8466e-06	2.7167e-06	297.18	79.195	37.834	10.42	2.65e-06	25.515	213.552	22.091	66.245	-68.161	80.634	68.738	-68.258	-63.465	63.521	130.083	-64.506	-59.938	-58.647	-53.918	38.186	-55.093	-8191	255	
999.718	1	1	0	0	0.35066	0.092514	0.053666	0.40514	0.084622	0.14658	0.20697	0.22146	0.08687	0.22416	0.27606	0.33793	0.21699	0.042327	0.084224	0.052786	-1.7062	-2.7875	-1.7854	-2.6542	-2.35	-1.7167	-2.8	-1.9521	-2.0229	-2.6792	-1.9271	-2.5521	-2.3583	-1.5521	-2.5187	-2.2062	65.425	-70.915	12.079	196.313	239.675	125.512	239.827	125.061	-54.935	268.766	242.058	268.646	221.169	157.461	54.918	168.151	4.3162e-05	0.0001218	9.3338e-05	899.64	1.8569e-06	3.9891e-06	1380.3	204.62	2.2875e-06	8.6306e-06	360.68	95.097	45.197	12.386	5.7081e-06	30.693	0.00022731	0.00025565	7.0755e-05	742.47	2.8054e-06	2.7889e-06	1148.8	170.41	2.6106e-06	2.6691e-06	298.85	79.402	38.113	10.439	2.7058e-06	25.652	222.919	-12.808	-80.186	-68.004	86.722	82.995	-67.898	-63.691	88.660	129.004	-64.099	-59.431	-57.731	-53.563	79.857	-54.526	-8191	255	
999.814	1	1	0	0	0.13373	0.18985	0.032495	0.079815	0.20007	0.28968	0.22356	0.17141	0.10442	0.14415	0.12833	0.24278	0.21785	0.088933	0.16498	0.096744	-1.5042	-2.7438	-1.7417	-2.2125	-2.5104	-1.8167	-2.8563	-2.2521	-1.825	-2.7625	-1.925	-2.3438	-2.5375	-1.6917	-2.5125	-2.1833	36.687	131.032	256.822	250.947	-62.323	-74.288	229.642	247.989	-28.860	26.660	225.660	204.553	213.973	172.630	159.112	245.622	6.2383e-05	0.00026202	6.865e-05	913.83	1.3804e-06	4.1269e-06	1369.7	204.86	2.8761e-06	2.7544e-06	357.55	93.449	45.2	12.32	1.9677e-06	30.268	0.00023427	0.00024558	6.8736e-05	751.66	2.8518e-06	2.7905e-06	1142.7	170.8	2.8049e-06	2.599e-06	297.09	79.219	37.978	10.451	2.7031e-06	25.308	229.717	-40.443	41.214	-68.169	78.769	43.439	-67.916	-63.174	17.313	62.119	-64.730	-59.482	-58.652	-52.787	120.126	-54.622	-8191	255	
999.910	1	1	0	0	0.19656	0.25162	0.15011	0.18995	0.020778	0.0086218	0.14998	0.22672	0.21441	0.24404	0.28433	0.2956	0.13701	0.21592	0.30514	0.14567	-1.5979	-2.6792	-1.8312	-2.1958	-2.3125	-1.8271	-2.5875	-2.2354	-1.5104	-2.7396	-1.8292	-2.0083	-2.6479	-1.7604	-2.4042	-2.5438	-23.077	274.662	14.522	251.556	22.745	-19.365	-57.786	-46.367	223.393	51.590	-71.646	258.986	226.622	-53.257	130.831	198.937	6.2418e-05	0.00010195	3.142e-05	904.06	3.8096e-06	1.595e-06	1379.9	204.2	2.9497e-06	6.9554e-06	358.3	94.347	45.353	12.387	3.2561e-06	29.971	0.00022029	0.00025179	7.0692e-05	742.5	2.777e-06	2.8669e-06	1145.6	170.25	2.8572e-06	2.6572e-06	297.56	79.233	38.134	10.453	2.8004e-06	25.002	150.631	152.864	-27.817	-68.135	99.851	-42.304	-67.713	-63.431	104.816	102.135	-64.772	-59.421	-58.243	-53.045	125.950	-54.722	-8191	255	
1000.029	1	1	0	0	0.19593	0.16597	0.17229	0.12356	0.20226	0.1086	0.38204	0.19245	0.26853	0.26082	0.2849	0.067325	0.20302	0.12567	0.027445	0.30102	-1.5229	-2.525	-1.9813	-2.1437	-2.4667	-1.6875	-2.5708	-2.3896	-1.4896	-2.7583	-2.2042	-2.0333	-2.8042	-1.8729	-2.3667	-2.5896	126.308	-30.459	2.577	191.174	248.305	-56.738	274.536	231.778	217.723	-61.917	169.472	11.969	-42.190	-35.339	-44.444	93.739	5.5237e-05	0.00034034	0.00015871	906.16	5.0179e-06	4.4387e-06	1385.5	206.07	6.3421e-07	8.2855e-06	360.23	95.028	45.272	12.269	5.4897e-06	29.947	0.00022868	0.00025744	6.6571e-05	744.32	2.6968e-06	2.6598e-06	1148.4	171.17	2.6438e-06	2.7522e-06	298.91	79.724	38.207	10.385	2.6019e-06	25.229	250.872	21.069	-20.444	-68.076	74.472	160.971	-67.741	-63.666	221.051	39.851	-64.507	-59.790	-58.816	-53.008	32.581	-54.848	-8191	255	
1000.125	1	1	0	0	0.21415	0.27867	0.16944	0.40384	0.26457	0.19794	0.32514	0.25849	0.063113	0.017417	0.28903	0.26661	0.058938	0.20755	0.026152	0.098125	-1.4354	-2.6354	-1.9229	-1.8271	-2.9083	-1.9	-2.4292	-2.7438	-1.7729	-2.8312	-2.2354	-1.8563	-2.7396	-2.0125	-2	-2.6854	162.670	183.160	-2.894	-69.347	265.071	165.889	223.610	227.784	49.046	-79.998	224.759	201.802	-40.540	211.066	-7.222	-44.060	5.3333e-05	0.00040148	3.3718e-05	904.61	2.3981e-07	6.802e-06	1388.4	206.91	1.9556e-06	4.559e-06	362.73	96.341	45.484	12.397	3.7741e-06	30.515	0.00022553	0.00023897	6.8597e-05	746.49	2.5442e-06	2.7141e-06	1153.6	172.25	2.7157e-06	2.6878e-06	300.5	80.333	38.248	10.474	2.7538e-06	25.456	230.105	-4.878	96.835	-68.255	230.269	76.245	-67.848	-63.644	115.784	102.523	-64.609	-59.687	-58.409	-53.873	83.818	-54.537	-8191	255	
1000.221	1	1	0	0	0.17888	0.10297	0.13096	0.18452	0.19524	0.17349	0.13037	0.12312	0.31269	0.12616	0.12327	0.12205	0.17978	0.079263	0.265	0.094943	-1.3438	-2.4833	-2.3958	-1.9229	-2.6333	-2.025	-2.1021	-2.6292	-1.9292	-2.4	-2.3792	-1.7104	-2.7521	-1.925	-1.925	-2.775	154.812	196.717	-52.331	222.190	6.117	-52.583	207.637	-68.379	85.832	162.151	238.600	246.908	218.046	41.050	85.145	31.295	6.089e-05	0.00034257	0.00015037	903.98	2.3793e-06	7.909e-06	1389.9	208.67	2.5498e-06	7.4532e-06	360.74	95.32	44.918	12.466	1.2395e-06	30.104	0.00022761	0.00024299	6.8382e-05	751.14	2.8098e-06	2.8126e-06	1154.8	172.71	2.8704e-06	2.7664e-06	299.72	79.904	38.101	10.492	2.6482e-06	25.291	237.290	-63.981	29.130	-67.840	57.427	106.158	-67.832	-62.840	-14.116	70.611	-64.619	-59.946	-57.999	-52.880	130.807	-54.320	-8191	255	
1000.317	1	1	0	0	0.061741	0.14535	0.13971	0.1081	0.16767	0.13495	0.12811	0.48827	0.036995	0.19105	0.33059	0.142	0.12229	0.094751	0.21332	0.22059	-1.4729	-2.4396	-2.4875	-1.9271	-2.6354	-2.1146	-2.0438	-2.7208	-1.7229	-2.3292	-2.6354	-1.7458	-2.6521	-2.1375	-1.7458	-2.8812	221.161	19.167	-30.430	237.629	152.403	16.507	264.719	158.340	110.727	94.794	188.881	219.057	-74.573	42.935	122.722	152.992	3.8729e-05	0.00027231	0.00014886	903.04	3.6081e-06	5.6409e-06	1376.7	205.34	1.2325e-06	4.0603e-06	359.54	95.133	44.479	12.279	1.4617e-06	30.175	0.00022251	0.00024715	6.6949e-05	742.45	2.6757e-06	2.6163e-06	1142.1	170.41	2.6429e-06	2.6377e-06	296.77	79.374	37.631	10.409	2.7266e-06	25.29	-77.418	-11.863	41.468	-67.987	109.277	61.208	-67.504	-63.701	40.708	42.488	-64.401	-60.019	-57.751	-53.582	58.365	-54.726	-8191	255	
1000.413	1	1	0	0	0.16935	0.12633	0.19121	0.16854	0.2364	0.26077	0.48853	0.22403	0.22814	0.16135	0.17291	0.14367	0.20896	0.16582	0.17005	0.24364	-1.4896	-2.2667	-2.7083	-1.8771	-2.4958	-2.2188	-2.0521	-2.8187	-2.0292	-2.2333	-2.6646	-1.7479	-2.7208	-2.3875	-1.7625	-2.6833	102.979	52.809	210.298	-35.669	163.290	186.738	221.685	271.255	151.400	-34.960	246.989	228.951	88.574	214.590	219.295	182.380	8.9473e-05	0.00053049	3.2417e-05	903.31	5.1105e-06	7.1741e-06	1383.6	204.16	3.3697e-06	8.3203e-06	356.44	94.565	45.527	12.231	4.8971e-06	30.652	0.00021168	0.00024072	6.6836e-05	744	2.6216e-06	2.7542e-06	1143.5	170.1	2.7484e-06	2.7681e-06	297.5	79.072	37.91	10.378	2.6841e-06	25.53	222.077	29.104	84.300	-68.033	159.026	14.490	-67.924	-63.151	79.838	35.859	-64.730	-59.804	-58.460	-53.938	110.426	-54.466	-8191	255	
1000.510	1	1	0	0	0.009357	0.080316	0.18605	0.32511	0.0953	0.10131	0.31905	0.1111	0.030455	0.34463	0.29258	0.060669	0.13238	0.23344	0.19468	0.1945	-1.6396	-1.9979	-2.525	-1.5792	-2.3979	-2.2208	-1.8042	-2.6875	-2.1021	-1.9813	-2.85	-1.7854	-2.3375	-2.2792	-1.6625	-2.825	211.453	206.498	224.191	-65.072	-36.336	212.712	252.775	234.433	-5.503	209.914	218.115	-59.293	259.191	-61.558	65.485	251.894	7.769e-05	0.00040279	0.00018556	911.67	2.9806e-06	9.1806e-06	1376.4	207.21	9.033e-07	3.1201e-06	359.94	95.069	45.339	12.49	3.4605e-06	30.436	0.00022461	0.00024943	7.008e-05	745.37	2.6535e-06	2.7128e-06	1146.7	171.42	2.556e-06	2.719e-06	298.91	79.808	38.237	10.493	2.7117e-06	25.545	186.617	4.227	63.089	-68.368	28.637	89.991	-68.008	-63.306	193.991	11.797	-64.278	-59.642	-58.008	-53.633	119.218	-54.827	-8191	255	
1000.630	1	1	0	0	0.15	0.22293	0.12529	0.11126	0.23252	0.21964	0.2319	0.16051	0.22832	0.25043	0.17027	0.23788	0.19907	0.18962	0.051312	0.066977	-1.6958	-1.8708	-2.6354	-1.8333	-2.1312	-2.6896	-1.7875	-2.8187	-2.1229	-1.9396	-2.6479	-1.8667	-2.3771	-2.4208	-1.6729	-2.6	71.551	259.478	-76.745	-80.857	185.564	-20.240	264.240	168.391	216.645	238.273	79.762	-77.804	176.709	5.054	34.297	224.874	5.4538e-05	0.00056061	0.00019952	903.25	2.6793e-06	5.2076e-06	1391.7	205.81	8.8485e-07	4.2918e-06	364.07	95.248	45.23	12.475	1.7958e-06	30.51	0.00022988	0.00024245	6.5251e-05	745.41	2.5463e-06	2.7337e-06	1153.3	171.28	2.7576e-06	2.7281e-06	299.96	79.729	38.259	10.49	2.7636e-06	25.535	191.277	10.320	63.766	-67.545	44.613	84.002	-67.699	-63.427	153.916	91.726	-64.736	-59.466	-58.580	-54.167	50.501	-54.717	-8191	255	
1000.726	1	1	0	0	0.11259	0.21881	0.19459	0.2565	0.13818	0.26254	0.34081	0.18809	0.148	0.20116	0.24024	0.20596	0.14069	0.20325	0.25714	0.1675	-1.8104	-1.7792	-2.7167	-1.8146	-2.05	-2.4771	-1.925	-2.5042	-2.3438	-1.7563	-2.7229	-2.0104	-2.0104	-2.7292	-1.8875	-2.4792	180.076	252.457	217.442	161.061	54.808	152.247	185.079	215.449	274.086	-13.607	186.039	77.258	191.163	-64.762	-47.893	-2.280	6.7333e-05	0.00020542	8.9381e-05	907.79	2.5931e-06	3.6532e-06	1374.8	205.67	9.8959e-07	3.0883e-06	357.07	95.046	44.908	12.319	3.8226e-06	30.352	0.00022106	0.00025067	6.6866e-05	748.95	2.5577e-06	2.5947e-06	1144	171.27	2.6771e-06	2.6489e-06	296.89	79.529	37.847	10.372	2.5755e-06	25.322	225.023	96.734	23.592	-68.476	34.468	60.604	-67.743	-63.407	-44.177	63.562	-64.650	-59.658	-58.277	-53.382	64.325	-54.235	-8191	255	
1000.823	1	1	0	0	0.18197	0.40005	0.10113	0.28728	0.18119	0.079914	0.078263	0.20111	0.076149	0.03045	0.0090071	0.33112	0.10486	0.031526	0.1371	0.11876	-2.0292	-1.7333	-2.7417	-1.9771	-2.0042	-2.7792	-2.025	-2.4729	-2.5229	-1.8125	-2.6854	-2.1583	-2.0208	-2.8125	-1.7792	-2.4458	247.292	267.692	258.279	265.816	-1.944	17.200	207.007	266.411	263.501	117.906	157.083	270.888	-13.933	38.629	30.051	270.924	5.0566e-05	0.00015606	7.4797e-05	898.01	3.8458e-06	5.9916e-06	1379.6	205.93	7.5146e-07	3.6091e-06	360	93.576	45.276	12.356	1.8714e-06	30.398	0.00021451	0.00023369	6.3397e-05	741.23	2.7698e-06	2.5194e-06	1145.8	170.76	2.7143e-06	2.7935e-06	297.18	78.931	37.923	10.43	2.7275e-06	25.302	204.933	28.201	21.483	-68.271	111.630	73.298	-67.704	-63.316	-61.258	-6.553	-64.241	-59.434	-58.629	-53.224	139.920	-53.832	-8191	255	
1000.894	1	1	0	0	0.26479	0.24878	0.067081	0.27428	0.16223	0.076727	0.26763	0.17646	0.16636	0.1295	0.18826	0.17909	0.1793	0.19857	0.32989	0.14495	-2.0479	-1.6458	-2.65	-2.2292	-1.9229	-2.8125	-2.1625	-2.2833	-2.6229	-1.6	-2.5604	-2.3021	-1.7271	-2.7583	-2.0104	-2.2542	59.286	-18.912	88.303	225.887	37.055	67.688	-77.862	239.915	17.455	265.130	274.282	-37.047	-76.276	262.009	-50.063	217.777	2.5525e-05	0.00025653	8.4424e-05	895.74	2.2124e-06	5.5294e-06	1379.5	206.07	3.166e-07	2.8159e-06	364.12	94.836	45.53	12.34	4.0666e-06	30.311	0.00022527	0.00025359	6.9775e-05	741.47	2.6884e-06	2.4576e-06	1148.6	171.51	2.5427e-06	2.6235e-06	300.86	79.471	38.298	10.398	2.6699e-06	25.424	205.700	34.672	28.642	-67.531	134.478	8.910	-68.058	-63.292	-26.359	126.115	-64.771	-60.365	-57.859	-53.581	25.129	-54.801	-8191	255	
1000.990	1	1	0	0	0.21587	0.25019	0.19569	0.16648	0.23696	0.21225	0.29545	0.21012	0.084247	0.18989	0.040702	0.11047	0.12552	0.21735	0.12056	0.28646	-2.3771	-1.7521	-2.3937	-2.2604	-1.6521	-2.6854	-2.2229	-2.1021	-2.7104	-1.6688	-2.4333	-2.4833	-1.8438	-2.7	-1.8687	-1.9833	255.415	59.523	-64.557	258.982	139.508	203.756	224.869	191.815	230.623	237.968	74.477	154.205	69.531	248.369	147.074	220.939	3.6018e-05	0.00030235	0.00011332	910.35	2.5707e-06	1.6908e-06	1392.8	209.11	4.1166e-07	4.5958e-06	365.32	95.663	45.768	12.337	3.847e-06	30.422	0.00021447	0.0002591	6.7998e-05	749.66	2.6513e-06	2.6725e-06	1157	173.42	2.6749e-06	2.6382e-06	302.99	80.663	38.63	10.413	2.5714e-06	25.514	207.405	0.243	29.700	-68.086	143.668	114.799	-68.136	-63.022	262.991	44.021	-64.569	-59.961	-58.255	-53.880	56.865	-54.459	-8191	255	
1001.109	1	1	0	0	0.079177	0.37632	0.090882	0.073478	0.16023	0.15667	0.1044	0.24157	0.1051	0.2732	0.14507	0.20899	0.11494	0.077793	0.0056246	0.11095	-2.4062	-1.7542	-2.3417	-2.6417	-1.8229	-2.6937	-2.2271	-1.9062	-2.5792	-1.9125	-2.3792	-2.5229	-1.7271	-2.7562	-2.1167	-1.7917	-29.951	-28.324	-58.642	263.044	54.239	152.443	212.521	241.001	-75.993	107.302	254.433	197.713	104.717	88.066	264.243	-67.441	7.008e-05	0.00035799	8.723e-05	911.27	2.024e-06	2.5131e-06	1386.4	207.15	2.4062e-06	2.199e-06	362.9	95.789	45.324	12.326	2.4967e-06	30.344	0.00021811	0.0002501	7.2151e-05	752.37	2.7334e-06	2.62e-06	1153.8	172.95	2.7892e-06	2.7768e-06	301.19	80.291	38.263	10.401	2.6082e-06	25.308	244.958	-19.947	42.457	-67.760	-56.170	112.863	-67.841	-63.147	93.030	29.237	-64.135	-60.422	-58.116	-53.973	-7.824	-55.165	-8191	255	
1001.205	1	1	0	0	0.063	0.26674	0.096607	0.096983	0.082387	0.070847	0.23537	0.37827	0.39997	0.21024	0.19305	0.1315	0.11906	0.20468	0.07372	0.12124	-2.3271	-1.9479	-1.9958	-2.6417	-1.9875	-2.5187	-2.5292	-2.0563	-2.6146	-1.8792	-2.3458	-2.7354	-1.5688	-2.4375	-2.3438	-1.8104	278.223	135.980	192.356	55.360	230.202	-8.789	230.021	229.608	22.435	35.822	32.995	-76.985	32.027	62.937	-51.001	132.774	5.6979e-05	0.00068422	0.00019089	908.37	1.4701e-06	3.5652e-06	1386.5	206.82	1.5057e-06	1.8512e-06	362.79	94.919	45.661	12.389	1.2594e-06	30.378	0.00022691	0.00025679	7.0043e-05	746.71	2.7847e-06	2.5777e-06	1151.9	172.62	2.7034e-06	2.6759e-06	300.95	79.762	38.402	10.41	2.6253e-06	25.294	193.932	-38.128	54.320	-67.581	73.650	26.875	-67.819	-63.245	131.891	225.938	-64.142	-59.802	-58.571	-52.805	8.235	-54.506	-8191	255	
1001.302	1	1	0	0	0.039139	0.1936	0.22332	0.25105	0.27491	0.19979	0.10776	0.34286	0.25394	0.19905	0.07985	0.050462	0.17163	0.055217	0.24332	0.18343	-2.3854	-1.825	-2.1937	-2.5521	-1.9292	-2.5167	-2.5667	-1.7167	-2.6604	-2.0625	-1.9062	-2.8604	-1.6333	-2.4229	-2.5542	-1.9083	140.262	137.556	71.958	196.119	115.220	-38.141	175.640	176.496	91.093	215.951	58.299	-74.041	226.611	198.731	130.644	226.777	8.102e-06	0.00039179	0.00014936	890.66	2.6934e-06	2.0866e-06	1374.2	204.92	2.9238e-06	1.7757e-06	359.15	93.514	44.895	12.2	3.4483e-06	29.992	0.0002252	0.0002651	6.9984e-05	741.54	2.7817e-06	2.7041e-06	1148.8	170.76	2.6931e-06	2.9407e-06	298.64	79.209	38.009	10.334	2.7192e-06	25.28	266.867	13.969	-6.099	-67.836	-38.318	124.728	-68.247	-63.291	28.123	85.829	-64.018	-59.294	-58.470	-53.243	106.078	-53.914	-8191	255	
1001.422	1	1	0	0	0.096204	0.16688	0.084666	0.25332	0.043824	0.13943	0.26724	0.10265	0.082192	0.11576	0.17579	0.28494	0.17489	0.068685	0.23634	0.18633	-2.3875	-2.1292	-1.8354	-2.7896	-1.7854	-2.1458	-2.6917	-1.6875	-2.5583	-2.1708	-1.9292	-2.6729	-1.7062	-2.0896	-2.4167	-1.7458	82.884	184.513	-54.420	-19.798	145.199	-77.597	96.489	273.248	143.805	-18.430	250.172	269.090	-21.162	-68.554	177.051	109.279	3.216e-05	0.00034185	6.2834e-05	896.44	3.7645e-06	5.0542e-06	1385	204.65	1.5254e-06	4.7089e-06	363.87	95.426	44.674	12.449	1.8455e-06	30.076	0.00023801	0.00024557	7.2386e-05	744.19	2.7857e-06	2.6684e-06	1149.6	170.69	2.7613e-06	2.8507e-06	300.52	79.732	37.865	10.427	2.7516e-06	25.399	269.897	73.275	-0.344	-67.620	95.020	-34.596	-67.957	-63.516	248.223	72.877	-64.379	-59.693	-57.752	-53.374	65.142	-55.031	-8191	255	
1001.494	1	1	0	0	0.2242	0.32665	0.049751	0.40615	0.11424	0.040516	0.30785	0.26135	0.3039	0.094998	0.15472	0.18391	0.16995	0.18063	0.1123	0.12106	-2.0958	-2.3354	-1.6979	-2.775	-1.8396	-1.9146	-2.85	-1.8	-2.4125	-2.2562	-1.6875	-2.7958	-2.0062	-1.8	-2.4542	-1.6458	190.086	272.818	-70.358	102.438	-72.557	51.518	164.592	265.430	20.897	128.364	-68.833	245.458	-70.952	193.311	130.194	92.423	4.1835e-05	0.00040295	0.00017441	908.78	1.897e-06	3.8563e-06	1388.2	205.98	1.8062e-06	7.7759e-06	363.59	94.406	45.376	12.212	3.1225e-06	29.682	0.000235	0.00025573	7.1582e-05	748.35	2.7446e-06	2.6937e-06	1147.5	170.46	2.7685e-06	2.7562e-06	300.29	79.286	38.019	10.302	2.8396e-06	25.05	168.661	64.648	44.071	-68.353	134.619	65.899	-68.542	-63.152	35.082	91.925	-64.198	-59.973	-58.273	-53.840	87.402	-54.760	-8191	255	
1001.590	1	1	0	0	0.15842	0.17121	0.1582	0.10773	0.20919	0.11917	0.16562	0.19644	0.3404	0.05708	0.13996	0.14198	0.28456	0.28983	0.16906	0.28066	-1.9333	-2.4271	-1.7208	-2.7479	-2.0521	-1.8729	-2.8708	-1.8229	-2.1479	-2.5208	-1.7313	-2.6729	-2.1937	-1.8417	-2.5542	-1.7167	44.751	80.713	217.844	-44.628	68.247	-21.269	207.164	139.989	189.569	129.711	75.943	12.848	48.958	2.904	139.081	192.109	4.573e-05	0.00066665	0.00012256	900.56	3.1456e-06	3.1324e-06	1378.6	203.1	1.5144e-06	3.8479e-06	358.56	93.983	44.643	12.262	3.4278e-06	29.958	0.00022795	0.00025395	7.103e-05	741.3	2.8285e-06	2.9033e-06	1142.9	169.63	2.8354e-06	2.8171e-06	296.62	78.89	37.617	10.318	2.7479e-06	25.019	234.676	21.093	-40.023	-68.115	89.024	109.939	-68.011	-63.257	-53.277	59.643	-64.323	-60.497	-57.845	-53.366	108.225	-54.959	-8191	255	
1001.711	1	1	0	0	0.17123	0.064408	0.039709	0.33782	0.063667	0.079898	0.11883	0.21255	0.25744	0.057027	0.1859	0.17618	0.18903	0.10481	0.08012	0.10047	-1.7792	-2.6854	-1.6437	-2.5167	-2.3604	-1.6	-2.8271	-2.0167	-2.1104	-2.5187	-1.8	-2.3521	-2.2146	-1.6437	-2.65	-2.0104	113.551	242.486	6.699	273.615	223.717	161.135	149.129	-33.394	96.099	13.832	108.393	-59.065	226.656	218.778	217.513	-80.669	5.5164e-05	0.00027537	0.00011112	895.75	2.2155e-06	4.2969e-06	1394.4	203.86	1.6173e-06	7.03e-06	358.35	95.007	44.93	12.211	3.7897e-06	29.963	0.00022737	0.00024824	7.2559e-05	743.48	2.738e-06	2.7948e-06	1149.5	170.35	2.7667e-06	2.6711e-06	297.24	79.401	37.882	10.318	2.7617e-06	25.141	257.360	157.614	-18.021	-67.775	65.748	98.011	-67.889	-63.718	146.845	72.343	-64.272	-59.625	-58.800	-53.483	74.959	-54.853	-8191	255	
1001.807	1	1	0	0	0.09783	0.14472	0.23989	0.18138	0.12552	0.18721	0.3939	0.35986	0.23697	0.29771	0.12854	0.25435	0.13551	0.22342	0.24892	0.1487	-1.7104	-2.6562	-1.6646	-2.3187	-2.1125	-1.4604	-2.9271	-2.0583	-1.9312	-2.8229	-1.9292	-2.4958	-2.6271	-1.5417	-2.5896	-2.0583	52.383	-54.464	11.564	-59.242	116.182	150.886	-65.546	82.658	258.045	-33.043	77.932	-66.989	222.391	68.410	57.308	187.982	4.0384e-05	0.00013091	1.1407e-05	893.11	6.0293e-06	4.933e-06	1392.5	207.05	2.6105e-06	3.4212e-06	362.01	95.175	45.56	12.257	4.0691e-06	30.098	0.0002384	0.00024795	7.383e-05	741.28	2.936e-06	2.8647e-06	1153.7	171.49	2.7993e-06	2.7101e-06	300.29	80.146	38.329	10.341	2.7201e-06	25.125	203.490	67.537	12.118	-68.187	90.530	79.021	-67.825	-63.137	29.092	25.486	-64.236	-59.976	-58.389	-53.543	18.532	-54.487	-8191	255	
1001.903	1	1	0	0	0.10616	0.11762	0.13361	0.36413	0.15576	0.14626	0.26792	0.081931	0.18604	0.067835	0.13486	0.089118	0.22903	0.047789	0.10965	0.18681	-1.6729	-2.7896	-1.7604	-2.4938	-2.6312	-1.8396	-2.4604	-2.2792	-1.7167	-2.6708	-1.9792	-2.1521	-2.5917	-1.6979	-2.4688	-2.4021	73.048	40.624	52.894	265.344	226.331	236.883	214.171	32.060	245.802	14.862	261.316	165.291	-78.391	35.011	32.579	153.488	4.3668e-05	0.00026111	0.00011335	907.17	5.6872e-06	7.0394e-06	1394	206.92	1.2371e-06	5.7707e-06	366.48	96.761	45.509	12.274	2.0618e-06	29.905	0.00023147	0.00025359	7.1602e-05	751.66	2.7737e-06	2.7983e-06	1160.3	173.18	2.9129e-06	2.9017e-06	303.05	80.751	38.374	10.328	2.7262e-06	24.909	209.845	9.127	60.980	-67.580	108.517	50.381	-67.887	-63.235	113.707	71.741	-64.162	-59.848	-58.270	-53.607	80.215	-55.048	-8191	255	
1001.999	1	1	0	0	0.22748	0.21848	0.1492	0.33823	0.21321	0.13278	0.051503	0.27976	0.26918	0.16725	0.15659	0.10975	0.27971	0.31436	0.31362	0.18294	-1.3208	-2.675	-1.6896	-2.0875	-2.6188	-1.5812	-2.7604	-2.3375	-1.8021	-2.6333	-1.8729	-1.8188	-2.8104	-1.5625	-2.5333	-2.3958	-62.256	3.550	159.098	-52.696	36.451	213.848	199.065	234.419	-32.429	170.785	225.945	28.241	-78.144	181.735	138.592	205.333	2.998e-05	0.00037921	0.00011169	914.72	5.2365e-06	5.2037e-06	1393.8	207.05	7.4431e-07	1.4957e-06	358.81	95.192	45.155	12.358	5.229e-06	29.477	0.00022773	0.00024936	7.1718e-05	753.92	2.7692e-06	2.9123e-06	1157	172.77	2.9159e-06	2.8498e-06	299.64	79.977	38.223	10.287	2.8266e-06	24.72	187.250	0.865	24.321	-67.662	58.109	79.065	-67.950	-63.538	-74.066	-24.074	-64.471	-59.744	-58.209	-53.711	92.672	-55.315	-8191	255	
1002.118	1	1	0	0	0.18855	0.099736	0.1701	0.11039	0.16947	0.14276	0.25243	0.1713	0.13899	0.17536	0.078828	0.41675	0.21487	0.22993	0.05953	0.23021	-1.3042	-2.8146	-1.8813	-2.0312	-2.5146	-1.5979	-2.6125	-2.5375	-1.8062	-2.5812	-2.0354	-1.8708	-2.6271	-1.6583	-2.2875	-2.5417	182.356	204.219	82.586	212.259	-43.354	216.623	183.637	226.175	219.923	-53.625	240.332	214.723	129.071	245.008	209.837	109.052	2.5388e-05	0.00056624	4.1959e-05	903.35	2.0223e-06	3.1608e-06	1386	206.06	2.8227e-06	6.7531e-06	360.65	94.388	44.376	12.087	2.7984e-06	28.986	0.00023296	0.00026682	7.5925e-05	749.05	2.9193e-06	2.9197e-06	1151.5	171.34	2.86e-06	2.9042e-06	298.6	79.172	37.799	10.165	2.8778e-06	24.639	197.136	38.865	-9.580	-67.969	155.475	82.537	-67.792	-63.456	85.425	72.392	-64.493	-60.045	-59.022	-53.513	87.658	-54.843	-8191	255	
1002.190	1	1	0	0	0.1753	0.042131	0.15163	0.11807	0.13126	0.40727	0.14257	0.21553	0.067887	0.29481	0.34011	0.077637	0.25492	0.060583	0.38824	0.15538	-1.2271	-2.5438	-2.125	-1.8146	-2.85	-1.7563	-2.3646	-2.6458	-1.675	-2.5	-2.375	-1.9542	-2.5875	-1.9937	-2.0229	-2.7479	103.647	15.971	51.261	271.301	93.473	-66.425	235.420	259.172	100.307	-18.532	244.509	-16.745	-13.486	139.088	-52.294	173.188	2.6086e-05	0.00041218	0.00015605	887.03	5.6771e-06	5.918e-06	1383.3	203.32	1.8021e-06	1.1992e-06	355.92	93.877	44.076	12.082	3.3827e-06	29.394	0.00024547	0.00027806	7.7841e-05	741.15	2.8695e-06	2.9501e-06	1144.9	169.29	3.0466e-06	2.9977e-06	294.97	78.83	37.443	10.226	2.924e-06	24.798	196.420	72.384	-38.550	-67.796	131.610	73.810	-68.120	-63.370	126.768	164.418	-64.690	-59.598	-58.511	-53.858	39.157	-54.629	-8191	255	
1002.310	1	1	0	0	0.1075	0.20875	0.25093	0.048369	0.05311	0.23098	0.46797	0.070058	0.08049	0.12903	0.052936	0.15119	0.19616	0.19286	0.16795	0.038652	-1.55	-2.4146	-2.1125	-1.6187	-2.5583	-1.9896	-2.1854	-2.6521	-1.8563	-2.225	-2.2833	-1.8271	-2.7229	-2.0563	-2.0229	-2.6958	91.380	32.473	207.396	273.447	12.774	267.913	211.076	276.501	33.437	210.400	171.427	145.609	-56.846	-62.401	139.087	178.611	6.1019e-05	0.00030369	0.00014887	899.45	2.9217e-06	8.8163e-06	1379.7	203.63	3.2275e-06	9.2874e-06	359.31	93.124	44.543	12.119	2.2329e-06	29.266	0.00024981	0.00026615	7.7649e-05	740.22	2.966e-06	3.141e-06	1144.3	169.06	3.0355e-06	2.9595e-06	296.7	78.605	37.552	10.161	2.9972e-06	24.616	89.593	88.883	54.600	-68.139	111.960	64.685	-68.078	-63.389	115.747	91.290	-64.164	-60.024	-58.032	-53.700	-17.573	-55.085	-8191	255	
1002.406	1	1	0	0	0.041782	0.10511	0.38873	0.20259	0.12872	0.35408	0.15936	0.20177	0.10024	0.022378	0.075262	0.1693	0.094582	0.25281	0.2093	0.18909	-1.4604	-2.3396	-2.4188	-1.5792	-2.5687	-1.9375	-1.8833	-2.8354	-1.9229	-2.1646	-2.4021	-1.8792	-2.6604	-2.2792	-1.7625	-2.7875	138.481	171.070	63.171	218.010	251.890	195.578	149.048	267.232	23.946	268.005	223.659	269.946	241.902	239.085	224.423	49.819	5.1479e-05	0.00032731	4.6655e-05	888.31	4.797e-06	5.7166e-06	1363.9	201.34	1.4968e-06	1.922e-06	354.13	92.773	43.798	11.781	4.5421e-06	28.883	0.00024552	0.0002756	7.1774e-05	736	2.8587e-06	2.8699e-06	1132.9	168.22	3.0373e-06	2.9503e-06	293.96	77.9	37.02	10.039	2.9755e-06	24.423	-57.739	82.389	58.723	-67.756	-27.702	85.174	-68.093	-63.670	102.454	30.213	-64.559	-59.719	-58.019	-53.982	49.189	-54.327	-8191	255	
1002.503	1	1	0	0	0.14053	0.23124	0.15707	0.16124	0.32305	0.2279	0.23921	0.10335	0.021328	0.18562	0.15866	0.071399	0.1534	0.16928	0.053593	0.26346	-1.6208	-2.0438	-2.6292	-1.6604	-2.6417	-2.1479	-1.9583	-2.8229	-1.8708	-2.1896	-2.7896	-1.7125	-2.2792	-2.3375	-1.8229	-2.7604	255.551	144.464	180.764	261.339	177.601	18.895	238.643	275.045	3.224	-31.176	82.847	171.378	-36.773	11.845	151.688	-41.992	5.8889e-05	8.2244e-05	6.3081e-05	874.8	2.8061e-06	2.7642e-06	1362.3	201.21	8.5297e-07	2.4326e-06	348.21	91.845	43.26	12.027	6.7083e-06	29.789	0.00023782	0.00026359	7.463e-05	729.06	2.9005e-06	2.9726e-06	1130.6	167.37	2.9608e-06	2.9373e-06	289.61	77.321	36.864	10.071	2.9645e-06	24.775	229.502	-16.338	-34.003	-67.941	130.368	45.418	-67.837	-63.364	3.563	198.978	-64.467	-59.529	-57.894	-54.211	70.180	-54.606	-8191	255	
1002.599	1	1	0	0	0.39358	0.15215	0.2229	0.22593	0.14517	0.32229	0.27589	0.07993	0.16199	0.10955	0.19287	0.064222	0.22872	0.21374	0.12345	0.18666	-1.6375	-1.8042	-2.6292	-1.8396	-2.2625	-2.4208	-1.8167	-2.5896	-2.0292	-1.9146	-2.7625	-1.7208	-2.3229	-2.5167	-1.5542	-2.8167	58.012	-63.227	-58.478	273.723	150.225	265.589	209.368	245.168	-10.171	183.634	24.124	-74.352	-10.899	108.246	121.503	-40.533	8.7568e-05	0.00066621	5.0743e-05	903.61	2.8834e-06	4.7542e-06	1370.5	202.06	2.53e-06	1.5881e-06	357.02	93.213	43.937	12.015	1.6972e-06	29.68	0.0002545	0.0002691	7.2668e-05	737.11	2.9103e-06	2.7347e-06	1137.8	167.73	2.9674e-06	2.9102e-06	293.86	78.158	37.135	10.16	2.8732e-06	24.927	229.623	39.780	55.879	-68.632	39.436	45.665	-67.733	-63.801	80.300	-79.249	-64.784	-59.773	-57.836	-53.491	-29.810	-54.644	-8191	255	
1002.695	1	1	0	0	0.36904	0.122	0.077549	0.14454	0.25519	0.062899	0.12032	0.10706	0.16758	0.12231	0.33656	0.091134	0.31189	0.42281	0.042112	0.23598	-1.7979	-1.9083	-2.6312	-1.875	-2.2208	-2.4188	-1.875	-2.7354	-2.1729	-1.7417	-2.5604	-1.7396	-2.2125	-2.3229	-1.7833	-2.5812	79.196	48.389	171.431	250.011	80.552	256.561	211.319	-45.567	18.114	200.168	256.930	111.376	259.323	-52.210	-3.679	-48.379	2.0952e-05	0.00065172	8.4e-05	902.63	6.3569e-07	3.3459e-06	1367.7	202.9	1.7361e-06	1.4873e-06	358.61	94.272	44.74	12.105	4.1516e-06	29.994	0.00023886	0.00028029	6.9911e-05	742.95	2.8455e-06	3.0841e-06	1141.2	169.56	2.796e-06	2.7849e-06	297.27	79.192	37.766	10.282	2.7768e-06	24.942	150.987	3.798	263.671	-68.412	-3.903	50.517	-67.811	-64.012	96.885	89.523	-65.247	-60.367	-58.622	-53.760	85.831	-55.248	-8191	255	
1002.791	1	1	0	0	0.16383	0.12429	0.13233	0.14489	0.33238	0.11704	0.26296	0.3442	0.12322	0.32874	0.20096	0.14262	0.23557	0.16613	0.1794	0.14043	-1.925	-1.5708	-2.7062	-1.8208	-2.0271	-2.5896	-1.9125	-2.3708	-2.3958	-1.7062	-2.8167	-1.975	-2.1958	-2.5104	-1.6958	-2.3917	-23.169	29.838	97.470	2.698	116.573	224.313	182.888	178.537	105.035	-52.214	191.584	158.471	51.921	160.859	111.632	-49.724	6.5009e-05	0.00032568	3.9163e-05	905.51	1.4642e-06	6.3358e-06	1384.9	206.07	2.9075e-06	3.5265e-06	360.05	94.065	44.506	11.924	2.8134e-06	29.291	0.0002402	0.00027246	7.0129e-05	749.66	2.9163e-06	2.9396e-06	1146.2	171.26	2.8828e-06	2.9593e-06	297.74	78.676	37.755	10.133	2.7644e-06	24.559	178.302	89.887	-29.458	-68.371	124.635	81.518	-68.806	-64.042	84.188	3.208	-65.177	-60.482	-58.656	-53.964	106.916	-55.906	-8191	255	
1002.887	1	1	0	0	0.090152	0.036157	0.015564	0.1877	0.22546	0.17621	0.18685	0.16862	0.2181	0.22723	0.12546	0.1873	0.20754	0.21736	0.070218	0.099495	-1.9917	-1.8958	-2.5438	-2.1458	-1.8792	-2.6729	-1.9979	-2.4729	-2.3479	-1.9104	-2.7	-2.4229	-1.8583	-2.7792	-1.8813	-2.2917	56.919	141.408	140.238	270.784	89.440	-29.032	202.898	214.545	122.741	167.486	-66.524	216.370	-52.774	-19.370	-52.453	195.704	3.161e-05	0.00042434	0.00016511	909.67	5.7902e-06	3.6269e-06	1387.5	206.31	5.3963e-06	6.2894e-06	359.9	93.943	44.97	12.049	3.1478e-06	29.776	0.00024153	0.00026621	7.376e-05	749.1	2.8849e-06	2.9022e-06	1151	171.83	2.8004e-06	2.954e-06	298.96	78.752	37.947	10.204	2.9248e-06	24.775	169.221	47.430	26.818	-68.842	52.899	126.497	-68.473	-64.220	53.716	89.847	-65.233	-60.184	-58.845	-53.434	120.223	-55.029	-8191	255	
1002.983	1	1	0	0	0.073202	0.15997	0.061487	0.053408	0.10551	0.074546	0.10712	0.17976	0.17657	0.1389	0.30151	0.11155	0.14646	0.091757	0.14675	0.11913	-2.1813	-1.6271	-2.4583	-2.3354	-1.9	-2.7958	-1.9813	-2.3542	-2.475	-1.5938	-2.5375	-2.2104	-1.9188	-2.7917	-1.8854	-2.1688	169.036	140.660	-18.146	188.663	169.745	-76.005	49.911	257.815	235.125	15.667	276.978	13.433	125.146	92.805	84.011	-26.150	5.0737e-05	4.1947e-05	7.0638e-05	902	2.4287e-06	3.8657e-06	1391.3	207.22	2.6089e-06	1.3314e-06	360.79	94.918	45.308	12.164	4.6626e-06	29.737	0.00022231	0.00025126	6.9285e-05	749.55	2.78e-06	2.564e-06	1159.4	172.83	2.7016e-06	2.7698e-06	299.92	79.408	38.17	10.245	2.6961e-06	24.832	219.714	71.832	-9.398	-68.199	170.853	89.876	-68.253	-64.172	151.094	10.138	-64.812	-60.901	-58.628	-54.157	36.118	-55.172	-8191	255	
1003.079	1	1	0	0	0.099573	0.075231	0.14398	0.18946	0.1812	0.35248	0.12496	0.26142	0.28398	0.087163	0.46044	0.31764	0.075741	0.32165	0.11229	0.088155	-2.3667	-1.8208	-2.5438	-2.4375	-1.6625	-2.8042	-2.075	-2.0875	-2.6729	-1.5771	-2.4792	-2.6729	-1.8354	-2.7812	-2.1625	-1.9062	59.919	41.237	111.487	115.021	110.460	88.020	204.343	196.129	248.174	194.064	232.858	149.760	80.289	38.043	212.316	168.501	6.8848e-05	0.00034892	0.00015137	917.15	2.5545e-06	4.8807e-06	1403.2	206.4	3.1297e-07	7.1612e-06	362.09	94.634	44.798	12.059	2.8064e-06	29.794	0.00022814	0.00026729	7.4952e-05	754.79	2.8411e-06	2.8802e-06	1162.3	173.03	2.8276e-06	2.8703e-06	300.51	79.5	37.926	10.246	2.8714e-06	24.96	229.817	-50.469	13.741	-68.118	67.306	71.346	-68.424	-63.881	105.230	63.501	-65.090	-60.531	-57.726	-54.101	108.823	-54.979	-8191	255	
1003.198	1	1	0	0	0.18969	0.26153	0.22604	0.22864	0.32315	0.020688	0.15142	0.17168	0.12412	0.23819	0.24814	0.182	0.16347	0.29617	0.031175	0.19158	-2.3125	-1.7604	-2.2708	-2.4417	-1.8979	-2.5417	-2.325	-2.05	-2.8187	-1.9125	-2.4062	-2.5917	-1.825	-2.4229	-2.075	-2.1833	87.804	177.991	-13.208	248.070	141.837	-40.408	274.396	208.008	163.357	-17.125	-79.992	238.333	131.067	-45.150	168.196	182.756	6.1518e-05	0.00028265	5.5207e-05	909.22	1.8183e-06	4.7421e-06	1393	207.68	3.2982e-06	6.436e-06	360.44	93.959	44.623	12.136	5.8806e-06	29.72	0.00023061	0.00027017	7.4415e-05	751.5	2.8799e-06	2.8344e-06	1158.8	172.36	2.9906e-06	3.0789e-06	298.64	79.027	37.733	10.225	2.8746e-06	24.748	197.153	-79.822	96.851	-68.472	-57.334	105.621	-68.697	-63.871	100.802	66.563	-64.915	-60.564	-58.675	-53.028	87.553	-55.146	-8191	255	
1003.294	1	1	0	0	0.38758	0.15049	0.16437	0.10879	0.11671	0.22348	0.44433	0.10872	0.21825	0.068334	0.30651	0.070072	0.31664	0.094127	0.049066	0.24776	-2.2583	-1.7521	-2.2375	-2.5312	-1.7146	-2.6854	-2.4542	-1.8687	-2.7104	-1.9042	-2.2542	-2.8021	-1.7271	-2.5042	-2.4479	-1.9833	193.261	205.467	259.358	270.332	253.005	261.461	180.025	268.960	169.327	194.317	-69.515	115.005	248.253	56.972	104.729	209.079	2.3684e-05	0.00041142	0.00012615	910.18	2.5311e-06	2.7916e-06	1384.5	204.93	2.2082e-06	5.6132e-06	358.81	93.728	44.5	12.017	5.2851e-06	28.91	0.00024568	0.00026579	7.8599e-05	750.65	2.8845e-06	2.8552e-06	1151.3	170.66	2.9527e-06	2.9927e-06	297.13	78.946	37.679	10.214	3.1257e-06	24.39	85.061	-8.796	-34.249	-68.537	66.291	-47.210	-68.369	-63.899	88.951	-14.576	-64.659	-59.804	-58.276	-54.007	60.697	-55.377	-8191	255	
1003.391	1	1	0	0	0.081664	0.24363	0.061606	0.15456	0.095296	0.073092	0.13845	0.22465	0.1171	0.046328	0.23676	0.027251	0.1007	0.17962	0.16966	0.24563	-2.4021	-2.0938	-2.0125	-2.6979	-1.7167	-2.3729	-2.7167	-1.575	-2.5458	-2.1271	-2.0542	-2.8979	-1.7167	-2.4604	-2.5521	-1.8667	94.274	253.693	29.884	-80.744	-2.423	76.402	200.184	-66.957	136.485	92.268	256.063	181.575	90.998	-20.731	21.769	120.109	3.4501e-05	4.5746e-05	0.0001312	903.65	5.3927e-06	1.1715e-06	1387.1	204.74	3.055e-06	4.8635e-08	357.61	94.051	44.229	12.056	2.0191e-06	29.254	0.00024859	0.00028398	7.9658e-05	744.51	3.1958e-06	3.0009e-06	1149.3	170.65	3.0523e-06	3.0584e-06	297.4	78.996	37.784	10.178	3.047e-06	24.593	-54.783	172.652	-38.780	-68.706	127.370	143.646	-68.547	-64.160	257.423	167.057	-64.336	-60.564	-58.248	-54.439	62.183	-54.357	-8191	255	
1003.487	1	1	0	0	0.17434	0.057225	0.30945	0.15438	0.16766	0.022407	0.20337	0.13048	0.19614	0.11087	0.1973	0.24602	0.2339	0.2597	0.129	0.19548	-2.1937	-1.9792	-1.725	-2.8479	-1.6271	-2.2729	-2.575	-2.0062	-2.3958	-2.1583	-1.9833	-2.9583	-1.8542	-2.2229	-2.6437	-1.8563	141.542	2.826	-12.083	162.414	83.734	-44.607	261.608	258.785	188.446	78.664	202.713	98.547	-31.362	201.064	237.035	-53.845	2.8487e-05	0.00030184	0.00018839	905.28	3.9623e-06	4.0448e-06	1389.6	204.66	3.8519e-07	2.5131e-06	356.24	94.253	44.203	11.874	1.3107e-06	29.269	0.00025056	0.00029062	8.3487e-05	747.16	3.2048e-06	3.2383e-06	1152.7	170.16	3.1094e-06	3.1043e-06	296.59	79.352	37.647	10.122	3.0818e-06	24.615	224.270	32.582	41.062	-68.440	60.298	148.767	-68.266	-63.745	264.255	141.791	-64.719	-59.949	-58.952	-53.776	69.241	-55.068	-8191	255	
1003.583	1	1	0	0	0.20221	0.19186	0.22483	0.17242	0.32771	0.19226	0.055843	0.44859	0.25751	0.13782	0.3516	0.18991	0.18638	0.074627	0.24682	0.10912	-2.1208	-2.3312	-1.6646	-2.4813	-1.7938	-2	-2.8854	-1.8354	-2.5396	-2.4021	-1.9417	-2.7625	-2.0146	-2.0062	-2.6083	-1.9104	121.470	81.281	10.792	231.093	224.770	276.567	248.820	262.388	123.678	-35.176	212.201	275.579	233.651	165.785	189.333	30.197	4.0723e-05	0.00052137	9.2593e-05	919.83	2.6245e-06	6.5578e-06	1387.1	205.35	2.0597e-06	3.7852e-06	356.06	93.557	44.506	11.863	2.3134e-06	29.067	0.00025722	0.00027573	7.8996e-05	755.48	3.0775e-06	3.1622e-06	1154	171.31	3.3007e-06	3.1571e-06	297	78.787	37.841	10.156	2.9377e-06	24.379	163.157	-4.888	23.238	-68.655	17.731	49.989	-68.080	-64.352	44.742	-6.129	-64.844	-60.306	-58.473	-53.898	104.024	-54.840	-8191	255	
1003.679	1	1	0	0	0.19187	0.14161	0.043546	0.14881	0.17431	0.10851	0.24393	0.13922	0.35131	0.11646	0.24507	0.10418	0.047568	0.065747	0.27647	0.17867	-1.7146	-2.5625	-1.8458	-2.6417	-2.0667	-1.9271	-2.9562	-1.9375	-2.2604	-2.5271	-1.8604	-2.6958	-2.2667	-1.9146	-2.7438	-1.8604	226.546	237.191	101.567	30.951	235.337	-39.751	213.224	218.707	198.584	-30.736	209.083	249.137	64.373	-41.003	-45.095	132.426	6.9114e-05	0.00055524	6.6874e-05	906.9	3.3685e-06	4.4704e-06	1380.4	204.47	9.1905e-07	5.032e-06	351.76	92.481	44.244	11.876	3.2222e-06	28.824	0.0002602	0.00028376	7.5292e-05	744.95	3.1674e-06	3.1161e-06	1142.8	170.14	3.0013e-06	3.0905e-06	291.8	78.031	37.441	10.025	2.9959e-06	24.177	196.011	45.892	36.808	-67.985	213.205	49.383	-67.929	-64.086	146.473	9.249	-64.358	-59.976	-58.791	-53.863	65.547	-55.182	-8191	255	
1003.800	1	1	0	0	0.21528	0.10618	0.14749	0.12795	0.24581	0.17164	0.25788	0.11344	0.062457	0.060978	0.20758	0.13415	0.23333	0.23834	0.10199	0.17987	-1.7062	-2.6458	-1.7479	-2.6271	-2.2604	-1.5042	-2.8542	-1.7583	-2.0438	-2.5542	-1.8062	-2.6479	-2.2729	-1.9521	-2.7896	-2.0062	49.982	34.389	148.153	268.925	77.453	-37.116	241.756	246.420	-71.463	173.541	-15.988	271.441	221.915	17.235	-13.920	-67.201	4.2484e-05	0.00041809	6.0232e-05	911.44	5.8925e-06	3.2746e-06	1384.6	203.22	3.3491e-06	1.2534e-06	357.14	93.053	44.56	11.854	2.2941e-06	29.374	0.00024078	0.00028693	7.9234e-05	749.8	2.9042e-06	2.9266e-06	1145.3	169.54	3.0156e-06	3.1122e-06	295.37	78.354	37.541	10.084	2.9142e-06	24.42	158.772	-49.241	65.113	-68.177	107.979	114.232	-68.206	-63.472	87.380	22.818	-64.568	-60.302	-58.719	-54.001	78.261	-55.543	-8191	255	
1003.894	1	1	0	0	0.2544	0.16423	0.29228	0.18956	0.071911	0.094507	0.082454	0.035021	0.1457	0.055023	0.13623	0.15127	0.14756	0.34337	0.16512	0.20686	-1.7313	-2.4542	-1.6167	-2.4167	-2.3625	-1.9188	-2.75	-2.0979	-1.8917	-2.7896	-1.7958	-2.325	-2.6042	-1.4937	-2.675	-2.2458	-65.278	2.345	173.359	219.773	71.526	-72.405	264.383	67.702	113.772	38.770	-81.540	89.841	123.074	203.731	241.707	198.102	5.9736e-05	0.00037168	0.00010467	916.77	5.3608e-06	1.8349e-06	1386.8	205.46	1.194e-06	6.1392e-06	361.16	93.903	44.735	11.829	3.0333e-06	28.869	0.00024279	0.00028031	7.7871e-05	754.63	2.9124e-06	3.1852e-06	1153.5	170.95	3.026e-06	3.0779e-06	298.3	79.138	37.801	10.017	2.7533e-06	24.453	194.347	38.902	30.506	-67.850	84.170	-46.750	-68.119	-63.899	71.937	50.589	-64.837	-60.453	-58.665	-53.218	66.070	-54.939	-8191	255	
1003.990	1	1	0	0	0.2529	0.29572	0.2104	0.22506	0.17577	0.16431	0.18509	0.23197	0.15785	0.25827	0.036453	0.11779	0.3105	0.20648	0.21282	0.19744	-1.6792	-2.6479	-1.6708	-2.4396	-2.3854	-1.5708	-2.8167	-2.1417	-1.8062	-2.5979	-1.9042	-2.35	-2.5187	-1.8375	-2.5687	-2.3354	-18.314	262.407	55.046	15.676	198.146	271.513	256.656	244.035	-43.920	119.143	-23.925	-50.236	234.822	176.949	272.016	142.835	2.4382e-05	0.00012871	4.3325e-05	919.42	5.3625e-06	4.9655e-06	1403.6	207.33	5.5522e-07	8.8889e-06	362.04	94.42	45.628	11.878	2.8265e-06	28.961	0.00024257	0.00025518	7.2012e-05	760.22	2.8807e-06	2.9073e-06	1164.1	172.97	2.8669e-06	2.7546e-06	299.95	79.531	38.222	10.134	2.7899e-06	24.285	230.640	-67.724	41.172	-68.158	113.147	-22.547	-68.564	-63.856	33.697	41.446	-64.917	-60.021	-58.425	-54.560	135.632	-54.934	-8191	255	
1004.086	1	1	0	0	0.18961	0.083271	0.19085	0.023772	0.21972	0.21777	0.30524	0.16164	0.22811	0.10016	0.24069	0.072735	0.20391	0.17818	0.16833	0.1974	-1.4708	-2.6667	-1.75	-2.2125	-2.6063	-1.6896	-2.4771	-2.3833	-1.5708	-2.7583	-2.0458	-1.9354	-2.7833	-1.6729	-2.425	-2.4583	233.268	160.314	-32.813	211.333	216.928	129.519	234.266	250.209	-42.296	150.435	202.432	200.400	187.144	-22.725	205.430	244.011	1.7238e-05	0.00057346	0.00014599	928.61	7.0316e-07	5.6913e-06	1399.8	208.68	6.7326e-07	4.4029e-06	359.94	94.561	45.371	11.838	2.4833e-06	28.515	0.00023713	0.00025801	7.183e-05	760.66	2.7425e-06	2.9905e-06	1160.8	172.77	2.8406e-06	2.7256e-06	298.31	79.317	38.256	9.9152	2.9449e-06	23.918	183.386	28.699	-13.182	-68.351	87.140	57.146	-67.971	-63.426	4.776	125.962	-64.812	-60.702	-58.602	-53.312	50.517	-55.630	-8191	255	
#DATA ENDS
