BOXY.EXE: ISS Imagent and Oximeter Data Acquisition Program Version 0.80
Ascii Record File

#ACQ INFORMATION
2  Detector Channels 
16  External MUX Channels 
1  Auxiliary Channels 
5000  Waveform (CCF) Frequency (Hz)
1  Waveforms Skipped 
30  Waveforms Averaged 
1  Cycles Averaged 
16  Acquisitions per Waveform 
10.0806  Updata Rate (Hz) 

#FILE INFORMATION
TRUE -- External MUX Channel results are PARSED.
FALSE -- AC DC and Phase are NOT grouped.
TRUE -- Companion Program Settings File CREATED.
FALSE -- AC data not excluded
FALSE -- DC data not excluded
FALSE -- Phase data not excluded
FALSE -- Auxillary Chn. data not excluded
Tab delimiters

#CALIBRATION STATE
TRUE -- Waveform Calibration Values APPLIED.


#AUX CALIBRATION VALUES
Val Type	aux-1	

Term	1.0000e+00	
Factor	0.0000e+00	


#WF CALIBRATION VALUES
A = Detector Channel
Val Type	A-AC1	A-AC2	A-AC3	A-AC4	A-AC5	A-AC6	A-AC7	A-AC8	A-AC9	A-AC10	A-AC11	A-AC12	A-AC13	A-AC14	A-AC15	A-AC16	A-DC1	A-DC2	A-DC3	A-DC4	A-DC5	A-DC6	A-DC7	A-DC8	A-DC9	A-DC10	A-DC11	A-DC12	A-DC13	A-DC14	A-DC15	A-DC16	A-Ph1	A-Ph2	A-Ph3	A-Ph4	A-Ph5	A-Ph6	A-Ph7	A-Ph8	A-Ph9	A-Ph10	A-Ph11	A-Ph12	A-Ph13	A-Ph14	A-Ph15	A-Ph16	

Term	0.00000e+00	0.00000e+00	0.00000e+00	0.00000e+00	0.00000e+00	0.00000e+00	0.00000e+00	0.00000e+00	0.00000e+00	0.00000e+00	0.00000e+00	0.00000e+00	0.00000e+00	0.00000e+00	0.00000e+00	0.00000e+00	0.00000e+00	0.00000e+00	0.00000e+00	0.00000e+00	0.00000e+00	0.00000e+00	0.00000e+00	0.00000e+00	0.00000e+00	0.00000e+00	0.00000e+00	0.00000e+00	0.00000e+00	0.00000e+00	0.00000e+00	0.00000e+00	0.00000e+00	0.00000e+00	0.00000e+00	0.00000e+00	0.00000e+00	0.00000e+00	0.00000e+00	0.00000e+00	0.00000e+00	0.00000e+00	0.00000e+00	0.00000e+00	0.00000e+00	0.00000e+00	0.00000e+00	0.00000e+00	
Factor	1.00000e+00	1.00000e+00	1.00000e+00	1.00000e+00	1.00000e+00	1.00000e+00	1.00000e+00	1.00000e+00	1.00000e+00	1.00000e+00	1.00000e+00	1.00000e+00	1.00000e+00	1.00000e+00	1.00000e+00	1.00000e+00	1.00000e+00	1.00000e+00	1.00000e+00	1.00000e+00	1.00000e+00	1.00000e+00	1.00000e+00	1.00000e+00	1.00000e+00	1.00000e+00	1.00000e+00	1.00000e+00	1.00000e+00	1.00000e+00	1.00000e+00	1.00000e+00	X	X	X	X	X	X	X	X	X	X	X	X	X	X	X	X	

B = Detector Channel
Val Type	B-AC1	B-AC2	B-AC3	B-AC4	B-AC5	B-AC6	B-AC7	B-AC8	B-AC9	B-AC10	B-AC11	B-AC12	B-AC13	B-AC14	B-AC15	B-AC16	B-DC1	B-DC2	B-DC3	B-DC4	B-DC5	B-DC6	B-DC7	B-DC8	B-DC9	B-DC10	B-DC11	B-DC12	B-DC13	B-DC14	B-DC15	B-DC16	B-Ph1	B-Ph2	B-Ph3	B-Ph4	B-Ph5	B-Ph6	B-Ph7	B-Ph8	B-Ph9	B-Ph10	B-Ph11	B-Ph12	B-Ph13	B-Ph14	B-Ph15	B-Ph16	

Term	0.00000e+00	0.00000e+00	0.00000e+00	0.00000e+00	0.00000e+00	0.00000e+00	0.00000e+00	0.00000e+00	0.00000e+00	0.00000e+00	0.00000e+00	0.00000e+00	0.00000e+00	0.00000e+00	0.00000e+00	0.00000e+00	0.00000e+00	0.00000e+00	0.00000e+00	0.00000e+00	0.00000e+00	0.00000e+00	0.00000e+00	0.00000e+00	0.00000e+00	0.00000e+00	0.00000e+00	0.00000e+00	0.00000e+00	0.00000e+00	0.00000e+00	0.00000e+00	-9.16924e+01	-1.29767e+02	-1.18293e+02	-1.86930e+02	-6.15527e+01	-7.43525e+01	-1.57927e+02	-1.62015e+02	-5.46448e+01	-6.47678e+01	-1.74803e+02	-1.71738e+02	-1.79902e+02	-1.78143e+02	-6.55759e+01	-1.51148e+02	
Factor	1.34725e-05	1.20035e-04	3.44946e-05	2.75324e-01	1.14839e-06	1.47898e-06	1.54831e-01	4.40518e-02	8.52034e-07	1.53134e-06	8.28116e-02	2.37421e-02	1.84838e-02	7.33700e-03	1.05337e-06	1.06775e-02	4.48628e-06	5.69377e-06	1.58866e-06	1.45487e-01	6.13995e-08	6.28015e-08	7.73109e-02	2.36346e-02	6.06459e-08	6.30374e-08	4.27097e-02	1.23527e-02	1.00779e-02	3.96030e-03	6.13034e-08	5.55185e-03	X	X	X	X	X	X	X	X	X	X	X	X	X	X	X	X	



#DISTANCE SETTINGS
A = Detector Channel
A-1	A-2	A-3	A-4	A-5	A-6	A-7	A-8	A-9	A-10	A-11	A-12	A-13	A-14	A-15	A-16	

2.5000e+00	3.0000e+00	2.5000e+00	3.0000e+00	2.0000e+00	3.0000e+00	1.5000e+00	3.0000e+00	3.0000e+00	3.0000e+00	3.0000e+00	3.0000e+00	3.0000e+00	3.0000e+00	1.5000e+00	3.0000e+00	

B = Detector Channel
B-1	B-2	B-3	B-4	B-5	B-6	B-7	B-8	B-9	B-10	B-11	B-12	B-13	B-14	B-15	B-16	

1.0000e+01	1.0000e+01	1.0000e+01	1.4400e+00	1.0000e+01	1.0000e+01	1.5100e+00	1.9400e+00	1.0000e+01	1.0000e+01	1.9900e+00	2.4900e+00	2.4100e+00	2.9000e+00	1.0000e+01	2.9800e+00	




#DATA BEGINS
time	group	step	mark	flag	A-AC1	A-AC2	A-AC3	A-AC4	A-AC5	A-AC6	A-AC7	A-AC8	A-AC9	A-AC10	A-AC11	A-AC12	A-AC13	A-AC14	A-AC15	A-AC16	A-DC1	A-DC2	A-DC3	A-DC4	A-DC5	A-DC6	A-DC7	A-DC8	A-DC9	A-DC10	A-DC11	A-DC12	A-DC13	A-DC14	A-DC15	A-DC16	A-Ph1	A-Ph2	A-Ph3	A-Ph4	A-Ph5	A-Ph6	A-Ph7	A-Ph8	A-Ph9	A-Ph10	A-Ph11	A-Ph12	A-Ph13	A-Ph14	A-Ph15	A-Ph16	B-AC1	B-AC2	B-AC3	B-AC4	B-AC5	B-AC6	B-AC7	B-AC8	B-AC9	B-AC10	B-AC11	B-AC12	B-AC13	B-AC14	B-AC15	B-AC16	B-DC1	B-DC2	B-DC3	B-DC4	B-DC5	B-DC6	B-DC7	B-DC8	B-DC9	B-DC10	B-DC11	B-DC12	B-DC13	B-DC14	B-DC15	B-DC16	B-Ph1	B-Ph2	B-Ph3	B-Ph4	B-Ph5	B-Ph6	B-Ph7	B-Ph8	B-Ph9	B-Ph10	B-Ph11	B-Ph12	B-Ph13	B-Ph14	B-Ph15	B-Ph16	aux-1	digaux	

533.566	1	1	0	256	0.19075	0.090824	0.09783	0.15156	0.019917	0.15852	0.11279	0.11837	0.18594	0.16774	0.15654	0.25065	0.25187	0.1347	0.10905	0.097143	-1.6729	-2.9729	-2.0417	-2.5062	-2.7	-1.9854	-2.7271	-2.7583	-1.7563	-2.8021	-2.3063	-2.025	-3.0854	-1.9042	-2.5833	-2.6583	-71.133	63.290	-71.212	184.720	26.396	124.427	3.030	138.388	33.307	122.417	-111.293	176.392	215.569	229.164	221.308	137.077	0.00011165	0.00017178	3.994e-05	1087.6	8.8408e-07	4.2862e-06	1174	221.71	1.3903e-06	6.9606e-06	284.64	79.811	62.927	18.462	2.6312e-06	25.728	0.00037864	0.00041485	0.00012222	1062.6	4.7386e-06	4.7583e-06	1153.5	219.69	4.7749e-06	4.6971e-06	281.24	80.301	63.104	18.688	4.6698e-06	26.109	-111.382	-8.313	148.038	-106.600	36.502	115.662	-106.720	-99.513	122.666	75.686	-99.945	-93.147	-92.566	-85.364	24.848	-86.009	-8191	255	
533.660	1	1	0	0	0.10692	0.093971	0.063617	0.095996	0.097758	0.25798	0.3266	0.26327	0.029829	0.074227	0.24297	0.36115	0.10855	0.40371	0.10997	0.15134	-1.5354	-2.8271	-2.3063	-2.2396	-3.0125	-2.0375	-2.7833	-2.9146	-1.7458	-2.9667	-2.4313	-2.0312	-3.0979	-2.0167	-2.4354	-2.975	-22.580	144.519	183.811	190.247	89.230	174.652	217.738	221.239	129.495	39.259	234.782	207.049	238.575	25.071	204.194	68.984	0.00010119	0.0006046	0.0001295	1094.6	1.4316e-06	6.7675e-06	1173	221.09	3.1641e-06	1.6985e-06	284.46	79.636	62.621	18.438	1.8854e-06	26.032	0.00036645	0.00042441	0.00011307	1064.7	4.6083e-06	4.525e-06	1154	219.62	4.5222e-06	4.4376e-06	279.96	80.098	62.792	18.612	4.4299e-06	26.192	223.590	-49.417	-26.102	-106.957	-43.475	17.337	-106.661	-98.842	6.141	-22.675	-99.796	-93.171	-92.584	-85.633	73.726	-86.346	-8191	255	
533.756	1	1	0	0	0.070329	0.1573	0.32001	0.14908	0.23655	0.30913	0.30609	0.14837	0.20661	0.11364	0.2629	0.2065	0.10589	0.11008	0.40941	0.034585	-1.5083	-2.9125	-2.4167	-2.0604	-2.7875	-1.9625	-2.3167	-2.7646	-1.9604	-2.7708	-2.4771	-2.0417	-2.9458	-2.3229	-2.0812	-3	70.648	-54.230	-94.660	232.332	233.734	-7.474	215.014	199.562	42.211	65.838	191.258	204.583	102.290	0.593	-77.836	-103.119	9.2227e-05	0.00022395	9.3089e-05	1085.4	2.1611e-06	5.0366e-06	1174.2	221.31	2.1714e-06	4.6401e-06	285.61	79.429	62.473	18.311	3.2183e-06	25.747	0.00036218	0.00039324	0.00011154	1062.7	4.2394e-06	4.4064e-06	1152.4	219.15	4.3496e-06	4.2963e-06	280.45	80.15	62.7	18.574	4.1794e-06	26.102	-98.367	-33.334	-55.502	-107.043	32.665	40.579	-106.589	-99.082	5.962	48.176	-99.657	-92.950	-92.658	-85.788	-6.603	-85.989	-8191	255	
533.854	1	1	0	0	0.15911	0.19174	0.028887	0.088283	0.096445	0.15083	0.25114	0.040334	0.10963	0.24591	0.11828	0.10238	0.35883	0.16343	0.10116	0.32029	-1.4479	-2.4313	-2.7313	-2.1	-2.8479	-2.2521	-2.325	-3.0062	-1.8125	-2.5563	-2.6792	-1.9646	-2.9104	-2.425	-2.1813	-3.0729	201.838	-31.157	-107.072	-99.669	-91.611	39.709	157.710	242.530	233.531	-30.541	-114.633	111.511	215.078	143.678	-29.980	-115.021	0.00013513	0.00021567	9.3376e-05	1095.5	2.8025e-06	7.1469e-07	1173.7	220.53	1.7346e-06	2.9981e-06	283.4	79.645	62.604	18.444	2.8781e-06	25.877	0.00035382	0.00039922	0.00010687	1065.6	4.2673e-06	4.2442e-06	1152.7	218.72	4.4792e-06	4.3262e-06	279.73	80.123	62.783	18.601	4.3736e-06	26.06	-112.206	225.716	34.674	-106.758	49.278	38.924	-106.520	-99.445	79.936	93.134	-99.347	-93.376	-92.406	-85.829	55.012	-86.184	-8191	255	
533.948	1	1	0	0	0.092341	0.13465	0.16142	0.14474	0.21115	0.03391	0.059404	0.1375	0.04283	0.24304	0.052368	0.11446	0.15618	0.23802	0.10475	0.124	-1.6125	-2.4833	-2.7375	-1.9062	-2.9437	-2.3375	-2.2438	-3.1417	-1.9521	-2.4688	-3.05	-1.9917	-2.9292	-2.5	-2.0833	-3.0271	22.404	-108.638	241.662	235.578	-88.771	92.906	115.079	-114.708	235.662	-110.316	169.444	-95.460	140.548	-50.130	9.697	170.743	8.2073e-05	0.00029568	5.9719e-05	1085.3	4.7245e-06	5.6273e-06	1171.2	221.98	2.1566e-06	3.2973e-06	283.51	79.486	62.591	18.433	3.9701e-06	25.859	0.00035944	0.00040999	0.00011063	1061.3	4.4535e-06	4.4352e-06	1152.9	219.94	4.5694e-06	4.5228e-06	280.46	80.05	62.915	18.611	4.5892e-06	26.163	-116.053	35.436	-44.294	-106.921	79.564	33.090	-106.599	-99.529	-12.125	33.505	-99.572	-92.726	-92.353	-85.877	-8.277	-85.849	-8191	255	
534.045	1	1	0	0	0.20394	0.28267	0.17072	0.10007	0.14223	0.27288	0.24423	0.099177	0.047369	0.062108	0.20217	0.18001	0.26923	0.12949	0.094362	0.29497	-1.575	-2.4458	-2.8104	-1.9188	-2.6146	-2.6021	-2.2625	-3.1396	-1.875	-2.4521	-2.9917	-2.0812	-2.9021	-2.6125	-1.925	-3.0729	113.431	-109.535	-68.433	111.253	30.587	191.538	142.421	53.623	-35.408	-112.524	177.223	-101.444	-84.649	-82.702	159.221	169.707	0.00010094	0.00043131	6.8151e-05	1090.3	3.0801e-06	2.1863e-06	1179.6	221.34	2.2575e-06	7.2712e-06	284.82	79.492	62.836	18.418	1.4192e-06	25.924	0.00035906	0.00042701	0.00011861	1062.9	4.5704e-06	4.6476e-06	1153.6	219.75	4.5567e-06	4.6067e-06	281.12	79.942	63.12	18.646	4.5909e-06	26.134	-110.810	-33.448	1.037	-106.820	-15.081	3.743	-106.528	-99.150	24.063	60.577	-99.786	-92.579	-92.725	-85.623	145.722	-85.464	-8191	255	
534.165	1	1	0	0	0.239	0.20087	0.51438	0.4068	0.18426	0.19621	0.093037	0.2135	0.18919	0.041717	0.1833	0.28841	0.026525	0.056952	0.024074	0.038885	-2.0458	-2.0812	-2.8187	-1.9813	-2.7583	-2.6021	-2.1	-3.0375	-2.1958	-2.1521	-3.0958	-2.1562	-2.5146	-2.9708	-1.9188	-2.7687	146.615	71.841	35.303	186.266	97.288	-87.652	147.521	-84.370	81.345	-45.589	162.414	207.993	116.886	-114.375	214.479	157.566	0.00010352	2.7215e-05	0.00011727	1088.5	2.1615e-06	1.2909e-06	1174.2	222.07	2.3924e-06	3.2213e-06	282.55	79.621	63.056	18.531	1.8429e-06	25.942	0.0003694	0.00043421	0.0001213	1063.9	4.6572e-06	4.7337e-06	1152.8	219.76	4.779e-06	4.8267e-06	280.69	80.239	63.118	18.685	4.8195e-06	26.215	233.494	65.531	-32.687	-106.927	28.969	55.549	-106.619	-99.267	23.082	68.201	-99.520	-92.877	-92.399	-85.539	10.872	-86.181	-8191	255	
534.261	1	1	0	0	0.2135	0.14886	0.20447	0.14644	0.12978	0.12884	0.28722	0.26254	0.040278	0.086253	0.096317	0.27719	0.25768	0.26674	0.063106	0.31125	-2.0271	-2.1188	-2.7542	-2.2646	-2.4875	-2.7625	-2.1167	-2.75	-2.5896	-2.0271	-3.0083	-2.1375	-2.55	-2.85	-1.9458	-2.7896	229.705	62.726	68.736	199.268	110.296	-47.816	121.332	-40.819	214.368	6.091	173.054	156.383	241.347	41.960	148.857	195.928	9.2758e-05	0.00031419	8.6159e-05	1094	9.9569e-07	1.9406e-06	1175.3	221.12	1.7906e-06	5.1047e-06	283.11	79.942	62.591	18.434	1.5027e-06	25.831	0.00038152	0.00044175	0.00012285	1065.5	4.9461e-06	4.9422e-06	1153.3	219.98	4.9298e-06	4.9433e-06	281.66	80.424	63.071	18.646	4.8887e-06	26.169	-114.998	-71.558	-86.777	-106.993	-98.416	-18.675	-106.598	-99.238	72.635	31.557	-99.821	-92.989	-92.551	-85.842	50.181	-85.798	-8191	255	
534.358	1	1	0	0	0.096892	0.027627	0.26899	0.17298	0.054389	0.15982	0.48993	0.12206	0.1642	0.11616	0.19983	0.13121	0.30805	0.052365	0.29517	0.13188	-2.4188	-1.9521	-2.9188	-2.3271	-2.2896	-2.9021	-2.2708	-3.0938	-2.6708	-2.0667	-2.8354	-2.4667	-2.2396	-2.9167	-1.8604	-2.75	99.981	-111.184	104.042	239.694	183.322	35.131	205.144	116.211	68.056	-57.983	161.531	49.337	140.236	-98.859	-115.476	109.389	0.00010596	0.00019699	7.4724e-05	1093.5	4.0435e-06	3.3669e-06	1172.8	222.17	2.286e-06	6.1569e-06	285.74	79.771	62.528	18.628	6.6883e-07	25.763	0.00038618	0.00044633	0.00012196	1065	5.017e-06	4.6841e-06	1152.6	220.09	4.9092e-06	5.0212e-06	282.05	80.376	62.951	18.761	5.0107e-06	26.158	-112.638	-1.513	23.013	-107.034	51.319	-22.035	-106.481	-99.269	26.981	-28.524	-99.844	-93.008	-92.457	-85.522	182.339	-85.692	-8191	255	
534.454	1	1	0	0	0.042857	0.18595	0.096609	0.1469	0.16003	0.41768	0.30595	0.094849	0.24	0.053434	0.41736	0.2518	0.19357	0.076003	0.18291	0.21758	-2.3125	-2.1688	-2.8667	-2.5312	-1.8521	-3.125	-2.175	-2.55	-2.8104	-1.85	-2.9771	-2.3854	-2.2687	-3.0146	-1.8687	-2.4958	203.655	179.842	-13.967	-90.984	113.391	128.755	111.821	-101.378	192.777	70.062	172.768	147.363	-109.933	85.313	-57.925	-26.732	0.00012843	0.00069795	0.00013218	1090.2	4.8039e-06	4.943e-06	1174.5	221.73	1.9447e-06	2.2522e-06	286.55	79.501	63.079	18.567	3.2515e-06	25.953	0.00039141	0.00046617	0.00012886	1067.4	4.9682e-06	5.001e-06	1154.2	220.11	4.7558e-06	4.9713e-06	282.34	80.264	63.257	18.712	4.9271e-06	26.213	231.608	8.630	-47.466	-107.062	33.350	37.349	-106.414	-99.209	13.610	99.726	-99.577	-93.499	-92.183	-85.577	-35.058	-85.915	-8191	255	
534.574	1	1	0	0	0.24075	0.10559	0.12793	0.36119	0.052743	0.059752	0.16127	0.29634	0.061572	0.091995	0.15839	0.10037	0.21135	0.14562	0.12999	0.11037	-2.5146	-1.9125	-2.8896	-2.6271	-2.0417	-2.9104	-2.3292	-2.4708	-3.0104	-1.8896	-2.8646	-2.6937	-2.1354	-3.1333	-2.2042	-2.4188	-84.578	115.824	128.219	-106.515	-68.079	226.816	169.688	-113.830	146.852	45.054	206.492	104.671	-50.764	-45.575	141.847	27.532	0.00010001	0.00045435	5.9632e-05	1090.3	3.1419e-06	3.2222e-06	1176.7	222.92	1.3833e-06	4.2321e-06	285.87	79.291	62.815	18.489	1.053e-06	25.936	0.00039391	0.00045362	0.00012648	1066.6	5.1201e-06	4.9877e-06	1153.9	220.69	5.0787e-06	5.2581e-06	282.17	80.336	63.205	18.704	5.1384e-06	26.314	234.887	-58.393	-66.479	-106.709	15.116	53.228	-106.601	-98.875	6.101	32.363	-99.474	-92.832	-92.359	-85.710	-19.109	-85.707	-8191	255	
534.646	1	1	0	0	0.084392	0.024348	0.18365	0.052552	0.096728	0.28078	0.2042	0.060543	0.13387	0.22442	0.16522	0.15883	0.21561	0.24173	0.13308	0.12628	-2.6083	-1.8125	-2.5104	-2.6354	-1.9917	-2.7708	-2.3937	-2.1688	-3.0625	-2.0875	-2.8937	-2.6375	-2.0625	-2.9583	-2.3271	-2.3292	-108.414	74.056	155.461	-62.591	-93.590	182.893	166.321	-31.429	-110.439	-44.870	-115.653	181.687	77.722	-108.425	186.769	128.720	9.9423e-05	0.00022926	5.8198e-05	1082.2	2.4506e-06	6.299e-06	1177.1	223.06	1.1472e-06	4.0784e-06	285.79	79.742	62.872	18.503	1.4309e-06	25.892	0.0004115	0.00047965	0.0001309	1065	5.2237e-06	5.2392e-06	1156.6	220.87	5.1889e-06	5.4891e-06	283.5	80.613	63.347	18.689	5.339e-06	26.239	239.581	-31.864	-47.126	-106.741	-42.510	48.037	-106.282	-99.184	53.363	76.055	-99.479	-93.012	-92.055	-84.949	84.707	-85.830	-8191	255	
534.742	1	1	0	0	0.10299	0.32294	0.28567	0.175	0.26061	0.090394	0.15692	0.12108	0.086411	0.21113	0.085485	0.039064	0.16617	0.27709	0.22725	0.10705	-2.7188	-1.8667	-2.3979	-2.9646	-1.9333	-2.9667	-2.6188	-2.3292	-3.0187	-2.0938	-2.5563	-2.9542	-2.0125	-2.6917	-2.7458	-1.9917	-5.635	-110.819	56.894	141.131	28.409	81.663	125.879	204.115	37.320	213.982	37.916	157.576	102.445	217.329	123.592	188.974	7.4116e-05	0.00042911	0.00012493	1092	6.863e-07	6.5244e-06	1186.2	223.27	1.5438e-06	3.7831e-06	286.46	80.027	63.125	18.404	2.066e-07	26.05	0.00042128	0.00050384	0.00014131	1069.6	5.4742e-06	5.5649e-06	1158.4	221.24	5.2953e-06	5.5292e-06	284.07	80.623	63.413	18.665	5.4114e-06	26.325	242.122	-6.651	-20.887	-106.857	34.578	-4.600	-106.548	-99.345	-2.972	29.013	-99.129	-93.167	-92.363	-85.070	238.049	-85.699	-8191	255	
534.837	1	1	0	0	0.10629	0.24734	0.28737	0.067041	0.34464	0.22157	0.10057	0.041874	0.092672	0.19225	0.12217	0.13383	0.21335	0.10717	0.1908	0.062539	-2.6833	-2.0292	-2.3458	-2.8396	-2.0625	-2.6146	-2.9625	-2.1729	-3.0625	-2.3458	-2.4792	-2.9208	-1.7979	-2.8021	-2.6729	-2.1312	228.672	74.829	195.027	187.007	67.144	-92.081	205.969	172.271	229.598	88.058	-0.246	216.846	229.668	-103.261	-65.614	-86.278	7.5808e-05	4.9367e-05	5.3734e-05	1094.4	5.8478e-07	3.6466e-06	1182.1	222.34	2.0102e-06	5.7179e-06	286.42	79.823	62.828	18.465	3.9875e-06	25.865	0.00043279	0.00050124	0.00013879	1072.5	5.5422e-06	5.4964e-06	1158.1	221.08	5.4946e-06	5.5437e-06	283.2	80.661	63.506	18.657	5.3103e-06	26.192	-113.781	-60.278	-70.581	-106.448	68.284	53.870	-106.501	-99.038	40.305	58.059	-99.463	-93.227	-92.414	-85.329	19.963	-85.567	-8191	255	
534.957	1	1	0	0	0.091674	0.24811	0.032235	0.22772	0.15984	0.16374	0.21908	0.11095	0.14213	0.26199	0.12631	0.13204	0.22861	0.13146	0.077995	0.16409	-2.5583	-2.4542	-2.0333	-3.1417	-1.9021	-2.6229	-2.9104	-2.1104	-2.9	-2.4	-2.1125	-3.1688	-2.0354	-2.6312	-2.6479	-2.0333	199.181	42.629	66.151	134.723	58.339	190.992	137.745	165.611	163.922	67.342	-64.165	-58.047	180.056	99.439	47.495	113.139	6.7729e-05	0.00044428	0.00010299	1092.8	3.1651e-06	3.689e-06	1177	224.12	2.6405e-06	4.87e-06	284.78	79.434	63.134	18.334	4.4293e-06	25.745	0.00041156	0.00050065	0.00013821	1068.8	5.2869e-06	5.4968e-06	1158.1	221.84	5.2219e-06	5.3595e-06	282.64	80.512	63.484	18.606	5.0462e-06	26.068	-101.010	-0.004	-15.277	-106.555	56.850	23.451	-106.381	-99.210	-44.899	3.139	-99.437	-92.834	-92.477	-85.645	30.054	-85.743	-8191	255	
535.053	1	1	0	0	0.13873	0.16207	0.014916	0.19949	0.069268	0.066567	0.082685	0.20605	0.078763	0.1511	0.034293	0.23559	0.10265	0.26714	0.22058	0.17735	-2.2938	-2.6667	-1.8646	-3.0563	-2.0625	-2.4979	-3.0104	-2.2604	-2.7687	-2.5479	-2.0812	-2.8042	-2.3208	-2.3208	-2.775	-1.9042	147.820	52.082	173.136	133.000	125.361	79.305	214.787	-17.079	59.517	139.253	-82.344	138.157	-103.805	-87.991	47.858	131.446	9.7578e-05	0.00036259	0.0001258	1092.8	2.3707e-06	3.9317e-06	1180.4	222.36	1.7441e-06	4.6204e-06	285.37	80.113	62.924	18.407	1.0446e-06	25.93	0.00040706	0.00046952	0.00013288	1069.4	5.2823e-06	5.2562e-06	1157.6	220.71	5.1907e-06	5.2024e-06	282.65	80.569	63.343	18.629	5.1395e-06	26.099	226.368	-84.292	-19.633	-106.948	8.378	38.587	-106.526	-99.155	36.800	90.638	-99.723	-92.886	-92.491	-85.409	5.142	-85.608	-8191	255	
535.149	1	1	0	0	0.1945	0.088962	0.052278	0.18015	0.084589	0.17723	0.077177	0.15041	0.096038	0.17253	0.15455	0.28006	0.14586	0.16591	0.12129	0.066379	-2.4583	-2.65	-2.0542	-3.1708	-2.1708	-2.3708	-3.0458	-2.1562	-2.5375	-2.8292	-1.8813	-3.0104	-2.3708	-2.3292	-2.9042	-2.05	76.967	196.002	126.405	131.502	191.259	-85.331	47.331	176.756	150.676	-36.092	217.571	190.814	108.671	218.355	162.691	212.143	0.00012217	0.00039735	0.00019395	1096.3	1.0947e-06	5.1362e-06	1187.2	221.93	3.6028e-06	2.4416e-06	285.2	79.956	62.983	18.422	3.6858e-06	25.706	0.00041062	0.00047106	0.00013097	1068.5	5.0078e-06	5.1082e-06	1161.8	220.74	5.0572e-06	5.1248e-06	283.16	80.59	63.343	18.618	5.1658e-06	26.024	231.269	-29.565	-39.462	-106.594	115.086	60.675	-106.373	-99.223	66.389	44.925	-99.068	-92.671	-92.462	-85.181	63.591	-85.807	-8191	255	
535.246	1	1	0	0	0.19026	0.24039	0.12901	0.10861	0.12663	0.18283	0.20074	0.1984	0.085542	0.19966	0.079365	0.30481	0.17299	0.12281	0.1762	0.085661	-2.1729	-2.7354	-2.0187	-3.0146	-2.4688	-1.9188	-3.1708	-2.1458	-2.3854	-2.9667	-2.0292	-2.9854	-2.7042	-2.0208	-3.0542	-2.0667	126.354	1.300	15.301	200.890	126.683	-58.863	230.429	197.822	234.000	27.706	182.292	199.124	228.558	195.758	12.946	64.479	0.00010992	0.00051463	8.0084e-05	1092.5	1.4386e-06	2.5739e-06	1182.6	223.71	1.0857e-06	1.7639e-06	287.58	80.326	62.798	18.436	2.4292e-06	25.784	0.00040002	0.00046344	0.00012896	1066.6	4.9851e-06	5.1429e-06	1159.1	221.1	4.9377e-06	4.9717e-06	282.69	80.681	63.29	18.621	4.9292e-06	26.125	-110.300	-39.661	3.635	-106.400	52.547	11.127	-106.431	-99.255	144.670	70.523	-99.442	-92.711	-92.298	-85.180	127.473	-85.556	-8191	255	
535.342	1	1	0	0	0.074145	0.10887	0.18516	0.096835	0.31502	0.17266	0.072536	0.37574	0.12426	0.21767	0.31202	0.21274	0.11473	0.12533	0.16376	0.071456	-2.125	-2.7875	-2.0229	-2.8479	-2.5333	-2.1917	-3.1063	-2.3521	-2.2833	-2.9542	-2.0646	-2.8042	-2.6583	-2.0292	-2.8896	-2.5167	3.285	-56.061	14.406	-46.964	112.583	-9.355	237.982	167.300	-29.980	-12.185	229.763	239.997	46.720	139.290	227.921	-35.849	7.9808e-05	0.00051079	0.00011641	1096.4	2.9813e-06	2.2624e-06	1179	223.31	8.841e-07	5.7831e-06	284.74	80.225	63.055	18.454	4.2682e-06	25.609	0.00039957	0.00045174	0.00013326	1070	5.1618e-06	5.0999e-06	1158.6	221.15	5.142e-06	5.2311e-06	282.18	80.705	63.508	18.679	5.0039e-06	26.062	-107.807	6.553	-12.538	-106.395	46.184	51.078	-106.215	-99.045	184.374	91.167	-99.789	-92.569	-92.515	-85.374	59.259	-85.874	-8191	255	
535.438	1	1	0	0	0.055544	0.20857	0.19839	0.17594	0.35756	0.33638	0.071251	0.14046	0.20411	0.23625	0.14755	0.087638	0.30719	0.29168	0.080292	0.18334	-1.9958	-2.8542	-1.9958	-2.7167	-2.7271	-2.0667	-3.1312	-2.4646	-2.1063	-2.7375	-2.1542	-2.5292	-2.7771	-1.8563	-2.9646	-2.4479	234.473	93.474	79.152	-49.218	-30.091	21.511	236.555	188.504	46.200	107.939	119.900	-99.429	-9.099	237.555	195.320	-115.040	9.1276e-05	0.00040242	9.1967e-05	1096	4.0071e-06	4.0225e-06	1179.6	223.42	5.9246e-07	6.5868e-06	285.87	79.74	63.15	18.475	3.0331e-06	25.829	0.00040939	0.00047704	0.00013228	1073	5.2438e-06	5.2554e-06	1159.3	221.4	5.2134e-06	5.1829e-06	283.59	80.439	63.391	18.623	5.1944e-06	26.138	224.078	-62.693	-21.393	-106.478	15.966	-26.247	-106.251	-99.304	-66.749	30.177	-99.274	-92.394	-92.101	-85.318	53.519	-85.751	-8191	255	
535.534	1	1	0	0	0.14657	0.13682	0.1308	0.23169	0.097849	0.05499	0.1393	0.061336	0.16214	0.16529	0.37912	0.052755	0.14719	0.13509	0.13609	0.11693	-1.6	-2.9542	-1.9104	-2.3917	-2.7333	-1.9646	-2.9708	-2.6271	-2.0625	-2.8979	-2.3042	-2.3792	-2.9688	-1.9958	-2.85	-2.4917	173.768	-36.945	60.811	194.553	108.134	169.602	204.289	202.579	233.085	168.640	232.217	-69.095	218.573	184.342	8.547	134.771	0.00012149	0.00015894	6.7723e-05	1097.4	2.3982e-06	4.94e-06	1182.9	222.49	1.9662e-06	8.6523e-07	287.11	79.608	62.803	18.311	3.9086e-06	25.613	0.00040744	0.00046204	0.0001315	1071.6	5.1137e-06	5.0918e-06	1159.4	221.45	5.107e-06	5.1358e-06	282.55	80.63	63.33	18.574	4.9293e-06	26.092	237.352	17.619	2.151	-106.187	52.469	16.240	-106.165	-99.330	100.341	-49.729	-99.322	-92.809	-92.465	-85.270	-23.980	-85.570	-8191	255	
535.655	1	1	0	0	0.13266	0.080342	0.093156	0.18412	0.23064	0.19012	0.19586	0.064038	0.18921	0.0265	0.15013	0.12558	0.16646	0.13867	0.16736	0.22716	-1.6562	-2.7208	-2.3417	-2.2646	-3.0375	-1.9042	-2.8229	-2.775	-1.8021	-2.9083	-2.3187	-2.1583	-3.0583	-2.0667	-2.5917	-2.6896	197.080	-10.836	7.680	84.444	-96.365	-77.468	206.480	-33.935	48.588	-105.118	239.289	98.330	182.358	225.660	165.209	-14.555	6.8955e-05	0.00017535	8.0624e-05	1094.3	1.724e-06	3.7384e-06	1180.3	223.46	1.3778e-06	1.873e-06	285.05	80.217	63.024	18.402	2.5568e-06	25.634	0.00039921	0.00046505	0.00012785	1069.6	4.969e-06	5.085e-06	1159.4	221.19	4.9344e-06	4.9289e-06	282.19	80.592	63.258	18.572	4.9204e-06	26.057	-101.464	-39.601	15.658	-106.498	120.144	-18.382	-106.307	-98.859	-43.494	16.464	-99.499	-92.600	-91.984	-85.477	62.566	-85.633	-8191	255	
535.749	1	1	0	0	0.29938	0.12324	0.21879	0.27646	0.3618	0.21271	0.26733	0.052405	0.079082	0.05948	0.054418	0.20284	0.42842	0.20812	0.47143	0.041034	-1.55	-3.0062	-2.2125	-2.1208	-2.8521	-1.9875	-2.6063	-2.8667	-1.775	-2.875	-2.4458	-2.0771	-2.9708	-2.1688	-2.3417	-3.0417	209.790	154.276	100.925	-93.069	7.644	6.776	219.579	188.550	-51.159	212.324	174.388	203.897	220.494	224.451	-50.356	-97.294	7.7047e-05	0.00051407	6.4067e-05	1094.6	2.146e-06	1.8341e-06	1185.2	222.86	2.7104e-06	2.5701e-06	285.27	80.194	63.161	18.316	3.2049e-06	25.829	0.00039209	0.00044835	0.00012677	1069.9	4.9351e-06	4.9045e-06	1158.8	220.92	4.8979e-06	5.0297e-06	282.48	80.455	63.267	18.556	4.8767e-06	26.028	-106.122	-7.623	-18.901	-106.518	26.399	140.665	-106.199	-98.969	-18.275	156.261	-99.614	-92.418	-92.122	-85.531	72.442	-85.372	-8191	255	
535.845	1	1	0	0	0.22143	0.083278	0.14908	0.24063	0.18289	0.065526	0.43044	0.19781	0.19186	0.12299	0.037442	0.15853	0.10682	0.32639	0.12698	0.06876	-1.5354	-2.9479	-2.4875	-2.175	-2.9708	-2.2042	-2.4813	-3.1396	-1.8708	-2.8521	-2.8458	-2.2	-3.0875	-2.2333	-2.225	-2.9188	-8.575	-38.795	-38.056	208.458	181.455	149.924	190.021	171.560	-60.170	-9.482	59.472	160.320	-107.139	-114.403	-39.671	-41.289	6.3936e-05	0.00050326	0.00010891	1096.4	2.3245e-06	2.6381e-06	1178.2	223.57	2.03e-06	4.3171e-06	285.21	80.006	63.176	18.309	3.9012e-07	25.655	0.00039106	0.0004536	0.00012556	1068.9	4.8283e-06	4.927e-06	1157.3	220.88	4.9701e-06	4.9604e-06	282.28	80.419	63.274	18.512	4.9587e-06	26.004	-107.353	-68.408	-22.320	-106.415	75.982	45.119	-106.222	-99.016	63.524	67.356	-99.541	-92.435	-92.480	-85.077	122.511	-85.618	-8191	255	
535.941	1	1	0	0	0.056288	0.14268	0.074082	0.10306	0.22207	0.074306	0.22805	0.090375	0.09719	0.23941	0.30539	0.073272	0.27949	0.15266	0.1439	0.092856	-1.825	-2.6688	-2.7271	-2.1604	-2.8208	-2.1083	-2.3167	-3.0625	-2.0021	-2.5771	-2.675	-1.9583	-2.9208	-2.4229	-2.0229	-3.0938	-7.738	-57.792	126.703	198.107	-22.423	99.814	-108.664	20.280	215.244	-11.227	211.099	161.691	23.190	137.430	121.266	-97.883	9.8233e-05	0.00030268	6.1411e-05	1092.7	2.0205e-06	4.4108e-06	1180.9	221.83	1.7513e-06	1.1921e-06	286.15	79.586	62.916	18.475	2.1351e-06	25.63	0.00038568	0.00046078	0.00012573	1067.8	4.9595e-06	4.927e-06	1157.7	220.55	4.9636e-06	4.9647e-06	282.13	80.057	63.189	18.493	4.9603e-06	25.988	236.615	-62.945	-14.768	-106.366	127.315	20.225	-106.097	-99.102	19.330	-100.420	-99.290	-92.737	-92.217	-85.522	149.223	-86.027	-8191	255	
536.038	1	1	0	0	0.28382	0.10551	0.34866	0.18942	0.23944	0.15252	0.21544	0.41457	0.079711	0.1111	0.20822	0.19893	0.2048	0.29366	0.18959	0.17119	-1.6292	-2.6063	-2.8375	-2.0438	-2.8312	-2.4292	-2.1708	-3.0042	-2.0833	-2.3667	-2.9167	-2.0104	-2.8187	-2.6417	-1.9833	-3.0563	242.321	-63.291	-64.728	-115.713	-87.512	45.744	187.142	183.900	-78.193	143.386	123.801	106.829	-56.386	139.133	191.034	171.429	9.4808e-05	0.00022945	3.9566e-05	1094.8	2.718e-06	3.1042e-06	1179.3	223.73	1.2204e-06	8.0789e-06	286.66	79.216	62.516	18.242	2.5936e-06	25.73	0.0003921	0.00045139	0.00012528	1069.8	4.7398e-06	4.8743e-06	1157.4	221.15	4.7459e-06	4.8825e-06	281.96	80.134	63.158	18.489	4.7953e-06	25.981	-114.143	-33.452	71.698	-106.546	1.421	231.351	-106.351	-98.811	43.903	63.882	-99.613	-92.759	-92.148	-84.923	70.566	-85.795	-8191	255	
536.134	1	1	0	0	0.16803	0.20614	0.14033	0.25236	0.043312	0.13665	0.26328	0.2416	0.10981	0.095433	0.080902	0.042629	0.15918	0.13051	0.13527	0.043702	-1.8479	-2.3958	-2.9813	-1.9625	-2.9146	-2.6562	-2.1646	-2.9021	-2.2542	-2.1146	-3.0292	-2.1208	-2.7271	-2.7062	-1.9854	-3.0938	-48.254	24.567	94.430	181.528	55.271	34.281	211.294	187.293	115.808	218.712	125.662	6.053	141.578	137.349	90.606	-94.909	6.5253e-05	0.0003189	0.0001586	1090.2	3.2403e-06	3.2596e-06	1185	222.35	2.4169e-06	4.5741e-06	286.09	79.459	62.82	18.32	1.8519e-06	25.885	0.00038439	0.00044503	0.00012339	1068	4.8005e-06	4.8139e-06	1158.8	220.36	4.93e-06	4.8715e-06	281.66	80.265	63.192	18.522	4.7847e-06	26.002	235.165	-44.041	-30.072	-106.617	129.933	22.735	-106.272	-99.011	-40.570	72.479	-99.558	-92.636	-92.163	-85.112	32.918	-85.326	-8191	255	
536.254	1	1	0	0	0.038167	0.20841	0.1181	0.23507	0.16579	0.15295	0.12471	0.13019	0.15037	0.14881	0.20298	0.13077	0.25951	0.19001	0.082825	0.26721	-2.1292	-2.1667	-3.0646	-2.0583	-2.5521	-2.9146	-2.075	-3.0854	-2.1688	-2.3875	-2.9042	-2.1833	-2.5187	-2.9146	-2.0896	-2.7521	153.143	222.085	-25.912	207.339	-74.874	225.553	80.923	33.801	109.720	145.538	240.746	25.280	232.360	-103.434	26.391	-28.968	0.00011365	0.00055729	8.7355e-05	1092.4	4.2997e-06	2.13e-06	1186.7	222.35	6.5182e-07	4.6099e-06	283.53	79.324	62.977	18.145	1.6667e-06	25.661	0.00038098	0.00043902	0.00011993	1066.3	4.7376e-06	4.5979e-06	1158.2	220.31	4.6191e-06	4.7727e-06	281.56	79.987	63.085	18.422	4.6487e-06	25.909	234.118	-17.899	-30.763	-106.486	40.914	107.906	-106.387	-98.766	52.935	28.636	-99.510	-92.800	-91.819	-84.813	46.294	-85.266	-8191	255	
536.350	1	1	0	0	0.23208	0.31851	0.061362	0.18532	0.088144	0.19162	0.17801	0.24911	0.056992	0.22191	0.20346	0.20022	0.11502	0.17581	0.13904	0.22897	-2.0938	-2.0583	-2.925	-2.0938	-2.2854	-3.0125	-1.9833	-3.0271	-2.4562	-2.0854	-3.0896	-2.3312	-2.4958	-3.1104	-1.9	-2.8688	-94.244	124.909	-105.152	169.129	123.984	174.146	146.312	199.131	112.073	-44.206	232.459	161.249	-101.898	199.809	-58.075	74.371	9.1525e-05	0.00025611	7.1501e-05	1094.7	2.6788e-06	2.8806e-06	1185.7	223.57	3.1007e-06	4.8865e-06	283.26	79.341	62.448	18.193	1.2063e-06	25.65	0.000369	0.00041226	0.00011609	1065.6	4.6359e-06	4.6686e-06	1156.8	220.6	4.6565e-06	4.6843e-06	281.06	80.096	62.968	18.468	4.5773e-06	25.968	-111.243	215.919	-23.808	-106.515	-13.613	46.363	-105.979	-98.640	25.443	39.111	-99.112	-92.135	-92.045	-84.973	101.336	-85.508	-8191	255	
536.447	1	1	0	0	0.10841	0.24174	0.24561	0.18921	0.091712	0.15363	0.30173	0.26458	0.14805	0.14491	0.22409	0.1084	0.2334	0.12145	0.22994	0.067647	-2.3604	-2.0167	-2.9813	-2.3042	-2.2458	-3.0042	-2.2104	-2.6979	-2.6688	-1.9062	-2.9125	-2.4854	-2.3375	-3.0563	-1.9542	-2.5708	112.999	90.501	29.893	-106.101	-43.817	62.597	189.649	164.453	-26.938	102.513	-68.106	168.177	156.077	-43.384	-20.108	105.558	0.00010728	0.00025892	5.2144e-06	1096.5	3.1218e-06	1.4405e-06	1179.7	221.91	1.8844e-06	3.945e-06	282.78	79.382	62.692	18.209	1.5056e-06	25.659	0.00037158	0.00042567	0.00011624	1068.4	4.6055e-06	4.533e-06	1155.1	220.47	4.444e-06	4.5665e-06	280.5	79.815	62.937	18.397	4.644e-06	25.869	-107.777	-25.161	-47.852	-106.548	23.681	-13.369	-106.149	-98.634	-70.612	116.358	-99.367	-92.741	-91.697	-85.252	5.314	-85.368	-8191	255	
536.518	1	1	0	0	0.15233	0.15457	0.31078	0.43704	0.25606	0.24551	0.24662	0.26242	0.10191	0.10614	0.044214	0.041445	0.13366	0.080048	0.14843	0.090439	-2.45	-1.7687	-2.8958	-2.5104	-2.1333	-2.9333	-2.4625	-2.6813	-2.7792	-2.0354	-3.0875	-2.5563	-2.225	-3.0792	-2.1125	-2.5417	199.046	-41.990	-105.061	228.951	153.193	55.667	201.951	174.518	-101.422	-19.607	123.228	41.708	200.791	137.710	174.469	207.874	0.0001264	0.00022236	4.6792e-05	1087.9	1.56e-06	9.2133e-07	1175.3	222.17	1.5767e-06	1.4583e-06	284.66	79.63	62.572	18.329	3.3969e-06	25.425	0.00036832	0.00042362	0.00011481	1063.4	4.809e-06	4.707e-06	1151.8	220.43	4.523e-06	4.721e-06	281.36	79.911	62.861	18.466	4.6984e-06	25.848	235.584	1.396	-34.023	-106.750	-4.804	-43.051	-106.388	-98.851	46.797	81.459	-99.348	-93.089	-92.177	-85.265	51.835	-85.397	-8191	255	
536.639	1	1	0	0	0.05367	0.13462	0.16207	0.18094	0.21738	0.057338	0.15878	0.046696	0.1391	0.11109	0.23851	0.19894	0.025712	0.12177	0.14505	0.30511	-2.4917	-2.0896	-2.9792	-2.5125	-1.7896	-2.9625	-2.4292	-2.525	-2.7083	-1.9167	-2.7458	-2.7292	-2.0458	-3.1833	-2.2729	-2.2167	115.604	236.041	229.945	176.287	68.470	-23.727	195.436	69.203	-15.123	139.449	200.505	59.709	-50.771	99.825	192.482	217.506	8.5119e-05	0.0003566	0.00016942	1087.8	2.0752e-06	2.1173e-06	1171.5	223.26	5.686e-07	3.548e-07	283.93	79.066	63.117	18.377	3.0656e-06	25.616	0.00036454	0.0004319	0.00011906	1065.3	4.7498e-06	4.7449e-06	1151.6	220.53	4.5771e-06	4.7595e-06	281	79.735	63.075	18.485	4.5462e-06	25.874	210.949	-2.644	-17.501	-106.644	-68.961	-15.764	-106.105	-99.102	214.252	54.663	-99.379	-92.711	-91.892	-85.500	42.374	-86.057	-8191	255	
536.733	1	1	0	0	0.2286	0.11653	0.30817	0.1412	0.25808	0.11307	0.19625	0.21528	0.063061	0.084244	0.17376	0.12673	0.44666	0.20172	0.17249	0.020041	-2.6521	-1.7604	-2.6917	-2.7	-1.9562	-2.9146	-2.5271	-2.325	-2.8063	-2.1813	-2.5396	-2.85	-1.8625	-2.9354	-2.5229	-2.2417	107.297	-86.901	128.264	241.132	21.501	105.466	218.789	-110.895	118.889	-53.031	180.081	-40.859	218.173	-84.219	-16.499	71.125	8.6048e-05	0.00016625	9.4803e-05	1100.8	1.269e-06	2.8301e-06	1175.7	222.26	1.8483e-06	3.051e-06	284.86	79.141	62.288	18.186	3.8584e-06	25.252	0.00035791	0.00041442	0.00011569	1066.1	4.4226e-06	4.4101e-06	1151.8	219.76	4.519e-06	4.6021e-06	281.03	79.896	62.773	18.39	4.5262e-06	25.73	238.342	-73.579	-18.720	-106.503	71.299	20.968	-106.556	-98.889	48.048	60.651	-99.654	-92.823	-92.392	-84.994	-53.425	-85.897	-8191	255	
536.829	1	1	0	0	0.22716	0.18992	0.10743	0.14999	0.040218	0.17355	0.18927	0.21988	0.1912	0.32456	0.22273	0.16358	0.23058	0.17685	0.18813	0.18148	-2.6562	-2.0792	-2.4083	-2.7458	-2.0875	-2.7812	-2.7812	-2.0729	-3.0229	-2.1208	-2.5792	-3.0417	-2.0396	-2.8375	-2.6521	-2.0583	-29.671	-16.788	49.821	74.378	212.972	224.574	200.802	-6.108	198.280	84.830	-117.054	53.980	206.649	201.202	94.298	109.517	0.00010462	0.0003312	7.9244e-05	1088.1	2.5625e-06	1.4524e-06	1174.9	222.24	9.4524e-07	4.4274e-06	284.86	79.363	62.857	18.287	1.1146e-06	25.541	0.00037005	0.00042332	0.00011601	1062.3	4.4978e-06	4.5805e-06	1152.7	219.69	4.4591e-06	4.5958e-06	281.07	79.896	62.821	18.425	4.6123e-06	25.835	238.180	52.936	32.555	-106.676	-38.856	53.439	-106.454	-99.176	-4.415	101.204	-99.044	-92.610	-91.747	-85.138	-37.812	-85.418	-8191	255	
536.927	1	1	0	0	0.096139	0.072897	0.097646	0.064447	0.039631	0.18979	0.29107	0.16371	0.28536	0.13529	0.083759	0.12826	0.1493	0.1504	0.037023	0.18775	-2.6625	-2.3417	-2.2833	-2.95	-2.0875	-2.7021	-2.9583	-1.9646	-2.95	-2.2562	-2.2167	-2.9833	-2.0438	-2.7313	-2.7083	-2.1042	44.237	198.960	-107.596	117.314	-44.256	-116.812	181.552	236.726	-48.962	-16.669	-64.360	225.077	189.732	159.980	186.721	-45.459	9.0629e-05	0.00039813	9.5868e-05	1093.1	1.521e-06	6.8246e-06	1179	222.83	7.243e-07	2.0862e-06	284.88	78.777	62.706	18.385	1.804e-06	25.529	0.00036385	0.00042006	0.00011727	1065.1	4.5345e-06	4.7177e-06	1156	220.13	4.5565e-06	4.6255e-06	281.07	79.815	62.91	18.437	4.4794e-06	25.839	-114.208	-4.032	-40.379	-106.512	67.350	3.671	-106.331	-99.105	-111.276	83.741	-99.122	-93.072	-92.276	-85.307	80.855	-85.556	-8191	255	
537.046	1	1	0	0	0.1359	0.17164	0.20912	0.025896	0.28966	0.14088	0.1168	0.10798	0.23524	0.26293	0.19415	0.14739	0.19197	0.2054	0.19515	0.12092	-2.7229	-2.2438	-2.3292	-2.8708	-2.0521	-2.6521	-3.0958	-2.1104	-2.9021	-2.4208	-2.4292	-3.175	-2.1229	-2.4333	-2.8875	-2.1083	39.533	59.270	206.047	121.467	-33.913	69.976	184.023	0.878	231.317	154.607	27.533	-83.313	144.016	176.445	50.441	55.859	0.00012876	0.00025846	0.00011276	1091.1	1.4981e-06	4.6532e-06	1167.3	221.45	2.2753e-06	4.0593e-06	285.42	79.638	62.453	18.485	2.1104e-06	25.552	0.00036677	0.00042027	0.00011622	1064.2	4.6474e-06	4.6348e-06	1150.2	219.59	4.4892e-06	4.7207e-06	281.36	80.097	62.9	18.459	4.584e-06	25.818	233.186	-50.954	-39.698	-106.618	181.756	48.719	-106.692	-98.969	37.017	44.160	-99.435	-93.123	-92.620	-85.362	81.390	-85.863	-8191	255	
537.118	1	1	0	0	0.19531	0.22793	0.12147	0.17128	0.089329	0.13374	0.12368	0.10442	0.21599	0.39506	0.18525	0.22606	0.24288	0.19978	0.10505	0.18664	-2.4813	-2.5583	-2.0062	-3.1854	-2.0917	-2.2875	-3.2167	-1.9396	-2.8896	-2.4875	-2.1667	-3.1875	-2.2729	-2.4083	-2.8458	-2.1896	50.591	137.117	163.292	-78.251	222.997	45.130	149.268	151.362	-42.099	188.593	-49.427	133.698	228.332	209.462	170.657	51.777	6.0564e-05	0.00027288	0.00012994	1097.3	3.0834e-06	3.0824e-06	1179	220.35	1.5312e-06	1.5377e-06	285.77	79.312	62.565	18.213	1.4117e-07	25.435	0.00036921	0.00042029	0.00011878	1065.1	4.5649e-06	4.6714e-06	1155.1	219.26	4.4513e-06	4.5424e-06	281.12	79.768	62.886	18.339	4.5668e-06	25.742	-97.794	-63.002	7.272	-106.704	26.292	54.993	-106.382	-99.110	33.022	79.169	-99.376	-92.997	-92.342	-85.086	-102.019	-85.418	-8191	255	
537.214	1	1	0	0	0.20854	0.043565	0.085291	0.063987	0.068697	0.2148	0.30146	0.29281	0.078293	0.19686	0.081702	0.047038	0.34539	0.25257	0.27071	0.080534	-2.3438	-2.6458	-1.9542	-2.8979	-2.3521	-2.0833	-3.1437	-2.2667	-2.5625	-2.9292	-2.075	-2.9542	-2.575	-2.1708	-3.0521	-2.1125	-59.377	39.521	20.404	229.920	-69.757	-105.325	211.039	152.251	30.143	173.209	80.030	230.933	-91.068	147.892	168.919	165.701	8.7087e-05	0.00038649	0.00010224	1097.7	4.5264e-06	8.7504e-07	1174.6	220.97	2.6072e-06	5.1277e-06	284.6	79.573	62.279	18.223	1.6249e-06	25.384	0.00036214	0.00041616	0.00012044	1068	4.7006e-06	4.7159e-06	1153.8	219.43	4.6701e-06	4.6065e-06	280.61	79.746	62.759	18.384	4.4898e-06	25.728	236.634	-38.052	-42.746	-106.726	59.007	118.914	-106.521	-98.996	17.472	21.833	-99.720	-92.726	-92.728	-85.323	64.262	-85.475	-8191	255	
537.335	1	1	0	0	0.19603	0.086917	0.38471	0.20179	0.28397	0.12263	0.056442	0.10101	0.15567	0.080002	0.24783	0.20807	0.16655	0.15078	0.05218	0.035455	-2.1396	-2.8187	-1.8062	-2.8604	-2.4979	-2.0979	-3.0542	-2.1	-2.4896	-2.8708	-1.9542	-2.9479	-2.5271	-1.9375	-3.0521	-2.2812	-98.815	-76.093	66.786	-89.248	215.700	-53.079	213.113	-80.315	3.756	142.749	96.190	219.110	18.908	134.318	189.134	210.498	9.2849e-05	0.00035244	6.4496e-05	1093.3	3.2115e-06	1.8805e-06	1172.8	222.07	6.5357e-07	4.9144e-06	283.22	79.492	62.601	18.214	2.963e-06	25.406	0.00036199	0.00040415	0.00011605	1066.2	4.6245e-06	4.7244e-06	1154	219.59	4.6162e-06	4.5631e-06	280.38	79.999	62.8	18.342	4.5428e-06	25.771	236.787	-24.438	33.007	-106.678	26.277	73.027	-106.612	-98.987	-44.081	30.177	-99.487	-92.895	-92.745	-85.251	33.191	-85.735	-8191	255	
537.431	1	1	0	0	0.18119	0.20387	0.080502	0.075939	0.20089	0.41591	0.14362	0.058156	0.23582	0.11694	0.046799	0.25628	0.076656	0.076039	0.27877	0.2937	-1.95	-2.9062	-1.9937	-2.7625	-2.5667	-1.9729	-3.0417	-2.4333	-2.125	-2.8208	-2.2646	-2.5771	-2.8688	-2.0396	-2.85	-2.4021	139.923	207.192	-55.910	187.672	200.397	8.556	192.051	223.906	154.591	34.437	211.222	133.385	91.173	175.788	197.312	183.484	0.00012469	0.00060856	9.7474e-05	1093.5	1.0047e-06	4.7226e-06	1176.2	221.33	1.5685e-06	3.8784e-06	283.78	79.151	62.641	18.17	2.5747e-06	25.675	0.00035982	0.00042517	0.00011672	1065	4.6059e-06	4.6109e-06	1154.3	219.52	4.6973e-06	4.6258e-06	280.42	79.782	62.737	18.386	4.605e-06	25.787	240.416	-2.768	7.918	-106.908	34.565	4.332	-106.450	-99.342	-38.210	88.262	-99.693	-92.832	-92.719	-85.535	51.900	-85.647	-8191	255	
537.527	1	1	0	0	0.12876	0.077245	0.098689	0.19088	0.13577	0.22852	0.038554	0.12144	0.33302	0.057327	0.30861	0.16385	0.17217	0.21514	0.27484	0.17964	-1.9146	-2.9521	-2.0938	-2.7667	-2.6979	-2.0604	-2.9521	-2.4583	-2.1708	-2.9354	-2.2021	-2.7354	-2.9646	-1.9562	-2.7646	-2.5167	-49.399	51.980	201.094	177.900	215.343	224.724	234.612	3.588	99.093	144.279	229.894	124.058	-114.908	-58.459	82.891	-68.252	0.00012516	0.00025871	3.404e-05	1091.1	2.4235e-06	2.6126e-06	1176.9	221.32	3.7867e-06	1.2949e-06	283.87	78.792	62.522	18.076	2.8977e-06	25.502	0.00036988	0.00041764	0.00011926	1067.2	4.5104e-06	4.651e-06	1155.2	219.84	4.6326e-06	4.6045e-06	281.15	79.93	62.801	18.321	4.6081e-06	25.758	241.892	64.758	6.367	-106.285	42.733	20.689	-106.500	-99.354	-34.590	-115.170	-99.618	-92.917	-92.564	-85.615	32.913	-86.181	-8191	255	
537.648	1	1	0	0	0.062513	0.14456	0.068067	0.15272	0.3163	0.20098	0.24601	0.089598	0.3003	0.099954	0.11635	0.15927	0.26064	0.052264	0.090394	0.21393	-1.6812	-3.1	-2.1479	-2.4708	-2.8208	-1.75	-3.0125	-2.7479	-1.8813	-2.9562	-2.1583	-2.4667	-3.0062	-2.0375	-2.8646	-2.4562	149.126	203.255	185.354	220.197	84.052	101.216	135.897	124.610	90.362	29.286	-94.426	2.682	233.306	163.379	-9.600	144.331	0.00012782	0.0002883	5.9315e-05	1086.1	3.9199e-06	3.4043e-06	1180.3	222.03	8.3296e-07	1.8833e-06	283.2	79.064	62.492	18.307	3.0739e-06	25.49	0.00036416	0.0004132	0.00011638	1064	4.5305e-06	4.5076e-06	1155.4	219.81	4.6073e-06	4.6277e-06	281.18	79.672	62.661	18.402	4.502e-06	25.757	240.142	-53.909	12.793	-106.792	13.546	24.396	-106.465	-99.091	-41.295	50.897	-99.593	-92.638	-92.456	-85.116	27.955	-85.881	-8191	255	
537.744	1	1	0	0	0.094515	0.12095	0.42752	0.17265	0.086596	0.10257	0.18945	0.057839	0.16797	0.14894	0.126	0.13488	0.16468	0.1534	0.13485	0.035982	-1.7062	-2.8021	-2.325	-2.4188	-2.9625	-2.3042	-2.7708	-2.7854	-1.975	-3.0354	-2.5667	-2.3312	-3.1875	-2.0354	-2.5604	-3.0125	-52.190	-88.645	46.898	212.575	89.984	146.266	92.506	140.943	212.963	202.624	-80.841	-115.483	-72.868	-64.381	-8.738	143.207	8.8493e-05	0.00034787	0.00011088	1095.6	1.6809e-06	5.3524e-06	1177.7	221.99	1.2424e-06	1.5008e-06	283.48	79.603	62.783	18.096	2.2761e-06	25.436	0.00036732	0.00040776	0.00011252	1066.1	4.3212e-06	4.4859e-06	1154.2	219.49	4.3505e-06	4.4151e-06	280.45	79.717	62.804	18.298	4.4732e-06	25.751	-110.090	-21.866	20.879	-106.576	54.921	19.535	-106.072	-99.259	236.072	38.589	-99.773	-92.690	-92.370	-85.463	19.141	-85.423	-8191	255	
537.814	1	1	0	0	0.045984	0.040713	0.31325	0.25577	0.099209	0.16646	0.35154	0.23937	0.11086	0.19851	0.099175	0.037417	0.31705	0.21794	0.20993	0.16833	-1.5438	-3.0604	-2.3542	-2.2562	-2.9854	-1.9062	-2.6604	-2.6771	-1.8167	-2.9188	-2.4062	-2.0625	-2.8583	-2.0167	-2.6417	-3.0396	97.993	121.273	104.124	-105.743	74.398	-0.484	198.301	71.158	-108.976	-52.225	176.176	171.805	215.368	-71.888	216.654	175.095	8.3128e-05	0.00047596	4.6939e-05	1093.1	1.6131e-06	3.933e-06	1175.8	220.37	1.4146e-06	2.7416e-06	284.4	78.751	62.096	18.121	7.7147e-07	25.617	0.00036688	0.00041537	0.0001141	1064.9	4.4565e-06	4.7352e-06	1153.8	219.15	4.6395e-06	4.6872e-06	280.55	79.677	62.717	18.329	4.6533e-06	25.787	223.174	-5.279	19.982	-106.893	-52.101	7.122	-106.526	-99.171	3.143	-5.149	-99.746	-92.684	-92.555	-85.417	33.283	-86.079	-8191	255	
537.934	1	1	0	0	0.10055	0.19908	0.38827	0.051917	0.25325	0.34758	0.050212	0.21182	0.23716	0.018565	0.19588	0.28501	0.24002	0.18862	0.23928	0.049535	-1.55	-2.7917	-2.5854	-1.9062	-3.1542	-2.3042	-2.4333	-3.2479	-1.7687	-2.9	-2.8187	-2.1917	-3.1854	-2.3729	-2.2792	-2.9083	98.255	-90.805	82.037	-103.556	5.547	83.345	201.258	-101.908	107.058	-47.235	84.531	52.152	148.773	241.195	146.712	40.945	9.928e-05	0.00031903	5.1938e-06	1091	2.1088e-06	3.0389e-06	1172.9	221.19	4.6708e-06	5.3397e-06	281.86	79.66	62.405	18.146	2.2938e-06	25.35	0.00035923	0.00043096	0.00011877	1064.4	4.6349e-06	4.697e-06	1152.5	219.15	4.6606e-06	4.6716e-06	280.57	79.94	62.697	18.373	4.555e-06	25.741	231.904	-101.627	22.284	-106.493	55.072	69.344	-106.363	-99.023	2.178	56.908	-99.588	-92.709	-92.205	-85.497	77.357	-85.887	-8191	255	
538.030	1	1	0	0	0.19605	0.28767	0.088845	0.13551	0.25056	0.070265	0.30558	0.28673	0.10926	0.27171	0.14356	0.18053	0.1625	0.21347	0.11785	0.26224	-1.6146	-2.6667	-2.6958	-2.2646	-2.9354	-2.3563	-2.2896	-3.0604	-2.1604	-2.4604	-3.0229	-1.9312	-2.9208	-2.4146	-2.3229	-2.9896	21.283	-72.159	-97.506	-27.008	210.533	230.218	209.714	-80.640	89.593	-3.189	99.561	-78.897	-103.531	5.433	111.791	198.412	9.7405e-05	0.00023247	0.00013173	1082.8	1.5086e-06	4.3473e-06	1179.6	221.31	2.9028e-06	5.3051e-06	283.09	78.627	62.342	18.084	1.5236e-06	25.469	0.00037397	0.00042257	0.00011879	1065.8	4.5965e-06	4.7427e-06	1153.4	219.82	4.7265e-06	4.6146e-06	280.37	79.601	62.904	18.379	4.6038e-06	25.744	219.444	-17.705	-60.587	-106.791	72.571	1.000	-106.293	-99.399	18.768	44.119	-99.490	-92.808	-92.537	-85.564	-9.923	-85.972	-8191	255	
538.127	1	1	0	0	0.26688	0.046879	0.18915	0.28704	0.20705	0.10677	0.15192	0.20445	0.01231	0.089637	0.051283	0.26335	0.02182	0.16121	0.33827	0.19519	-1.8167	-2.3375	-2.7396	-2.0563	-2.8979	-2.375	-2.2188	-2.9708	-2.1354	-2.4104	-3.1146	-1.9271	-3.0646	-2.8229	-2.1396	-2.8812	-91.654	-60.585	216.439	-94.972	42.518	172.334	106.062	-71.226	145.786	191.848	114.651	-105.213	163.643	52.623	92.307	75.051	8.4353e-05	0.00031468	6.0545e-05	1091.9	1.037e-06	5.0514e-06	1169.5	220.75	2.1123e-06	3.863e-06	284.01	79.383	62.565	18.283	1.2031e-06	25.363	0.00037373	0.00042969	0.00011769	1065.9	4.6945e-06	4.6501e-06	1152.4	219.42	4.7247e-06	4.7903e-06	281.33	79.914	62.85	18.414	4.7395e-06	25.734	-111.544	-52.475	54.292	-106.730	-61.295	32.456	-106.516	-99.163	91.432	-39.753	-99.458	-92.841	-92.128	-85.310	-7.504	-85.681	-8191	255	
538.223	1	1	0	0	0.16372	0.25713	0.077656	0.13934	0.1746	0.31889	0.22134	0.14475	0.14216	0.16077	0.25504	0.18474	0.060303	0.17972	0.13048	0.09274	-2.0438	-2.3792	-2.9229	-2.1437	-2.9313	-2.5646	-2.1167	-3.1104	-2.1125	-2.1458	-3.0312	-2.1042	-2.7146	-2.6937	-1.95	-3.1479	228.241	210.638	165.265	-114.620	197.060	124.080	216.090	40.308	54.478	60.171	72.662	160.480	147.868	215.699	213.512	212.124	9.2177e-05	0.00024075	0.00011098	1081.4	2.1613e-06	5.024e-06	1176.5	220.91	3.0639e-06	3.3325e-06	281.98	78.255	62.211	18.1	2.2808e-06	25.372	0.00037403	0.00044199	0.00011847	1062.6	4.6744e-06	4.5037e-06	1155.3	219.44	4.6662e-06	4.5839e-06	280.32	79.545	62.784	18.37	4.5399e-06	25.769	228.742	-35.067	-22.762	-106.744	-27.141	23.656	-106.514	-99.099	32.761	-27.493	-99.713	-93.035	-92.454	-85.416	47.684	-85.722	-8191	255	
538.343	1	1	0	0	0.12255	0.14613	0.16456	0.28258	0.17257	0.075453	0.29129	0.14283	0.11724	0.18142	0.16724	0.19423	0.25968	0.15162	0.2766	0.20951	-2.075	-2.225	-2.8	-2.2313	-2.6833	-2.7708	-2.1396	-3.075	-2.3833	-2.0292	-3.0458	-2.1333	-2.5042	-2.8625	-2.0417	-2.7875	29.843	95.258	170.098	169.388	14.993	-63.589	127.607	210.016	86.834	-64.947	197.741	-74.582	193.350	-24.018	176.592	182.598	9.987e-05	0.00030974	0.00011988	1087.2	3.0209e-06	5.4395e-06	1174.3	221.27	1.7646e-06	3.6945e-06	281.29	78.768	62.423	18.247	2.9928e-06	25.594	0.00036626	0.00042364	0.00011752	1064.6	4.6421e-06	4.6166e-06	1153	219.8	4.5992e-06	4.6665e-06	280.04	79.747	62.873	18.376	4.5596e-06	25.886	-115.161	-75.054	17.212	-106.728	135.455	-41.019	-106.374	-99.126	22.700	67.414	-98.934	-92.646	-92.110	-85.124	62.692	-85.557	-8191	255	
538.415	1	1	0	0	0.13994	0.10059	0.024985	0.12514	0.13515	0.071868	0.29267	0.26202	0.085744	0.13977	0.062126	0.026137	0.17648	0.18146	0.31686	0.12044	-2.0438	-2.0646	-3.0583	-2.2208	-2.4479	-3.125	-2.2167	-2.8771	-2.5729	-1.9958	-3.1771	-2.1937	-2.3521	-2.8604	-1.9271	-2.9125	120.776	224.422	11.695	99.091	196.013	147.828	153.935	-103.933	-75.016	-3.312	-1.895	-109.610	116.195	167.984	192.889	-68.877	0.0001155	0.00022527	0.00012837	1082.4	2.2693e-06	1.9371e-06	1172	222.69	1.3579e-06	3.7011e-06	283.96	78.946	62.724	18.281	2.7221e-06	25.44	0.00035786	0.00041906	0.00011706	1062.5	4.5141e-06	4.6732e-06	1152.2	219.95	4.5414e-06	4.7335e-06	280.71	79.801	62.99	18.392	4.5517e-06	25.805	230.391	-36.958	-51.800	-106.865	13.741	57.072	-106.539	-98.860	-92.737	47.716	-99.342	-93.050	-92.228	-85.243	74.296	-85.826	-8191	255	
538.511	1	1	0	0	0.21747	0.069405	0.085182	0.31422	0.16582	0.1214	0.17016	0.21431	0.01209	0.062237	0.23669	0.19302	0.045054	0.15603	0.11874	0.091161	-2.4979	-1.9521	-2.9521	-2.3583	-2.2104	-2.9896	-2.1	-2.7188	-2.65	-2.1083	-3.0125	-2.2854	-2.1917	-2.9979	-2.0042	-2.7083	7.055	72.464	133.518	-104.449	-98.625	144.484	180.043	157.970	14.478	90.152	-78.589	215.475	-99.077	140.367	-32.116	135.030	7.3488e-05	0.00032271	3.3922e-05	1089.1	1.2074e-06	3.9138e-06	1176.3	222.62	1.0751e-06	4.2222e-06	283.68	79.103	62.647	18.341	2.5183e-06	25.475	0.00035773	0.00041435	0.00011591	1063.5	4.5374e-06	4.4197e-06	1151.2	219.77	4.4269e-06	4.4624e-06	280.59	79.728	62.936	18.402	4.5409e-06	25.78	233.170	-12.432	-30.781	-106.703	32.373	20.871	-106.509	-99.024	-10.149	77.017	-99.599	-92.904	-92.206	-85.363	41.410	-86.088	-8191	255	
538.607	1	1	0	0	0.33894	0.11275	0.30267	0.16839	0.12798	0.13009	0.4412	0.10206	0.032174	0.18838	0.29763	0.17439	0.23413	0.11471	0.13873	0.065671	-2.5479	-1.9375	-2.7458	-2.6354	-2.0396	-3.0958	-2.2375	-2.6312	-2.7896	-2.0771	-2.9938	-2.55	-2.1854	-2.9854	-2.2167	-2.6771	40.312	220.084	-26.671	176.766	67.074	-18.544	207.703	118.014	161.477	154.725	-61.317	77.023	241.291	-64.510	12.776	137.593	9.3116e-05	6.5618e-05	8.4194e-06	1084.7	4.7876e-06	3.1046e-06	1171.1	221.49	2.268e-06	3.484e-06	283.23	78.91	62.809	18.226	2.8075e-06	25.369	0.00035583	0.00041166	0.00011581	1060.7	4.5361e-06	4.5538e-06	1150.9	219.7	4.4029e-06	4.5661e-06	280.32	79.541	62.858	18.372	4.3196e-06	25.76	239.236	-58.842	157.584	-106.620	61.768	70.422	-106.568	-99.108	44.220	34.192	-99.591	-93.083	-92.622	-85.280	19.740	-86.248	-8191	255	
538.726	1	1	0	0	0.068322	0.21454	0.15254	0.25454	0.14736	0.026005	0.083291	0.14267	0.032545	0.020866	0.22715	0.22724	0.13124	0.097039	0.097993	0.13781	-2.3812	-2.0771	-2.6146	-2.6583	-1.9708	-3.05	-2.2562	-2.7792	-2.9792	-1.9521	-2.8729	-2.85	-2.2229	-3.2104	-2.2687	-2.1396	124.320	193.204	-17.273	154.507	81.532	-88.415	64.037	240.488	-50.195	153.106	-94.200	-98.102	136.353	-74.298	-49.993	234.464	0.00012303	0.00038154	8.0138e-05	1091	2.053e-06	2.5323e-06	1171	220.92	3.4782e-06	5.5434e-06	284.29	78.978	62.505	18.113	1.9593e-06	25.383	0.00035292	0.00039715	0.00011425	1063.1	4.3768e-06	4.2878e-06	1150.8	219.59	4.3397e-06	4.4485e-06	280.46	79.565	62.741	18.315	4.2907e-06	25.694	-110.904	-2.553	27.871	-107.014	-32.064	15.290	-106.502	-99.099	-5.008	65.938	-99.396	-93.083	-92.409	-85.384	33.185	-85.644	-8191	255	
538.822	1	1	0	0	0.32579	0.043955	0.084062	0.023316	0.32526	0.091857	0.33881	0.016012	0.0092998	0.28697	0.11679	0.17846	0.11662	0.17898	0.054059	0.05422	-2.5229	-2.1271	-2.6583	-2.8104	-2.025	-2.9229	-2.4396	-2.3937	-3.1479	-2.0625	-2.7458	-2.9188	-2.2146	-3.0125	-2.4167	-2.0458	104.269	38.263	189.264	60.900	-4.140	125.510	206.886	217.914	173.102	29.571	-20.023	95.008	131.665	-110.338	160.724	-117.248	8.7005e-05	0.00029814	5.1419e-05	1084.1	3.3521e-06	1.347e-06	1166.2	221.63	2.4191e-06	4.8455e-06	282.6	78.305	61.929	18.173	1.488e-06	25.1	0.00034578	0.00039458	0.00010761	1061.7	4.2155e-06	4.1597e-06	1146.9	219.21	4.1523e-06	4.0898e-06	280.05	79.406	62.488	18.316	4.1188e-06	25.599	215.929	9.789	0.121	-106.805	14.712	25.718	-106.828	-99.293	109.337	-0.708	-99.168	-93.047	-92.563	-85.719	33.657	-85.534	-8191	255	
538.919	1	1	0	0	0.12455	0.19888	0.21247	0.14024	0.22123	0.17821	0.22865	0.254	0.14449	0.019057	0.064604	0.10626	0.13222	0.057541	0.1832	0.1508	-2.6688	-2.1333	-2.6125	-3.1063	-2.0354	-2.8375	-2.8167	-2.35	-2.9688	-2.125	-2.5354	-3.1146	-1.9146	-2.9333	-2.4292	-1.9917	197.343	-97.439	-10.660	-84.838	182.979	-5.683	167.094	186.790	3.943	-3.062	-21.643	213.272	196.399	-79.819	116.658	213.683	8.5179e-05	0.00025943	1.2353e-05	1077.6	1.0578e-06	2.4087e-06	1160.6	221.28	1.6255e-06	6.7286e-06	283.56	78.735	62.738	18.151	2.6278e-06	25.441	0.00032762	0.00038058	0.00010396	1058.5	4.1134e-06	3.9473e-06	1145	219.22	4.0788e-06	4.128e-06	280.15	79.486	62.685	18.298	4.1253e-06	25.677	233.189	17.500	-15.553	-107.010	74.717	-3.102	-106.638	-99.431	-4.890	7.021	-99.717	-93.126	-92.777	-85.488	42.954	-85.996	-8191	255	
539.015	1	1	0	0	0.11439	0.20596	0.2855	0.11062	0.1849	0.19071	0.27536	0.28229	0.05142	0.030244	0.082413	0.14645	0.18237	0.12037	0.26643	0.10497	-2.7229	-2.25	-2.3458	-3.0667	-2.0604	-2.8333	-2.9104	-2.3125	-2.9396	-2.3229	-2.3542	-2.9417	-2.0125	-2.7313	-2.7979	-1.9771	-44.094	142.839	-36.981	237.170	21.556	104.401	-97.663	189.273	184.439	18.595	-56.188	76.848	-78.936	60.373	105.493	24.468	9.3337e-05	0.00019356	5.2979e-05	1079.7	1.7598e-06	2.8934e-06	1165.7	220.69	2.4655e-06	8.2051e-06	282.79	79.362	61.534	18.035	2.0215e-06	25.219	0.00032857	0.00037465	0.00010646	1055.3	4.2016e-06	4.1301e-06	1147.1	218.9	4.0655e-06	4.1385e-06	279.64	79.589	62.321	18.272	4.0409e-06	25.654	-105.655	-40.217	44.918	-107.063	50.344	13.762	-106.203	-99.117	139.335	12.505	-99.486	-93.413	-92.837	-85.675	-25.045	-86.144	-8191	255	
539.111	1	1	0	0	0.22278	0.20449	0.12656	0.074825	0.069981	0.0052984	0.22597	0.13136	0.14348	0.3257	0.19037	0.23213	0.21793	0.19647	0.32527	0.090832	-2.5875	-2.4292	-2.2396	-2.9938	-2.0312	-2.5792	-3.0542	-2.1542	-2.9	-2.5458	-2.2917	-3.2354	-2.15	-2.6521	-2.9125	-2.2375	8.338	55.251	229.726	-37.696	52.420	67.441	211.430	226.839	240.367	-73.023	67.603	197.857	-101.891	38.303	71.995	-46.073	9.9739e-05	0.00031856	8.2258e-05	1076.7	2.9608e-06	4.4947e-06	1167.2	220.21	1.7626e-06	3.7867e-06	281.64	78.478	62.02	18.091	1.9449e-06	25.367	0.00033076	0.00037728	0.00010515	1055.3	4.0481e-06	4.1708e-06	1148.8	218.89	4.0511e-06	4.2323e-06	279.76	79.562	62.472	18.289	4.1002e-06	25.676	-109.440	-27.078	-38.935	-106.771	17.944	-19.332	-106.350	-99.248	12.148	53.697	-99.363	-92.835	-92.607	-85.561	15.116	-85.952	-8191	255	
539.207	1	1	0	0	0.10498	0.11718	0.18117	0.16958	0.16873	0.12941	0.1823	0.43599	0.25117	0.14306	0.22191	0.15191	0.12031	0.13971	0.11016	0.055526	-2.4604	-2.5708	-1.9958	-3.125	-2.1146	-2.5062	-3.0687	-2.2229	-2.9	-2.6583	-2.3187	-3.0896	-2.4604	-2.4479	-3.2354	-2.1333	-78.256	-0.539	148.853	224.168	165.905	203.301	170.712	179.518	184.571	227.495	104.172	151.044	-82.119	242.597	-85.222	20.783	8.4861e-05	0.0003319	0.00010736	1086.2	1.6972e-06	1.752e-06	1169.3	220.86	3.1289e-07	2.1067e-06	283.1	78.881	62.687	18.102	3.4997e-06	25.615	0.00033865	0.00038619	0.00010657	1061.5	4.1505e-06	4.1503e-06	1147.2	218.91	4.1666e-06	4.0959e-06	280.13	79.551	62.542	18.288	3.9527e-06	25.742	230.584	-3.770	28.539	-106.850	45.157	22.118	-106.572	-99.039	4.590	45.079	-99.519	-92.664	-92.358	-85.501	15.273	-85.754	-8191	255	
539.328	1	1	0	0	0.18519	0.22971	0.17352	0.04502	0.14207	0.27314	0.4446	0.15517	0.17128	0.30378	0.27674	0.18751	0.17954	0.21018	0.09018	0.096925	-2.4604	-2.6625	-2.1146	-3.0542	-2.3167	-2.4	-3.2396	-2.225	-2.4917	-2.6833	-1.9312	-3.1854	-2.6542	-2.1625	-3.0438	-2.1417	82.000	69.509	7.111	89.549	22.771	-51.333	154.889	-105.093	72.714	216.019	192.690	-71.512	-95.562	-1.084	120.835	111.414	8.595e-05	0.00031205	0.00010971	1087.9	3.2793e-06	2.6886e-06	1166.3	220.8	2.9874e-06	2.1775e-06	282.28	79.139	62.144	18.094	2.3339e-06	25.312	0.00032324	0.00037293	0.00010355	1060.6	4.0701e-06	4.0309e-06	1147.4	218.84	4.2044e-06	4.0454e-06	279.37	79.599	62.398	18.324	4.2164e-06	25.697	-114.245	-69.209	39.564	-106.583	37.462	61.952	-106.213	-99.104	-35.816	38.956	-99.413	-92.633	-92.752	-85.207	51.057	-86.452	-8191	255	
539.424	1	1	0	0	0.055003	0.10267	0.17618	0.13633	0.11726	0.20332	0.12788	0.044665	0.079629	0.18059	0.051626	0.24153	0.34401	0.1488	0.12752	0.052351	-2.1271	-2.8604	-2.1646	-2.9437	-2.5771	-2.1646	-3.3667	-2.2229	-2.6333	-2.9292	-1.95	-2.8333	-2.6625	-2.2188	-3.1208	-2.3333	18.256	80.306	-0.309	101.873	-23.019	163.604	240.026	-101.999	205.689	184.468	51.684	202.271	101.492	-108.462	173.709	-76.815	9.3633e-05	0.00011131	7.4001e-05	1085.8	3.2829e-06	2.8041e-06	1167.7	220.66	4.3082e-07	1.8401e-06	283.26	79.14	62.806	18.191	2.4251e-06	25.559	0.00033528	0.00038302	0.00011101	1060.9	4.2258e-06	4.3308e-06	1145.7	219.12	4.2776e-06	4.2658e-06	279.45	79.642	62.645	18.356	4.3639e-06	25.776	230.597	-19.223	-6.318	-106.863	40.235	66.569	-106.424	-99.209	-44.127	56.666	-99.374	-92.589	-92.297	-85.147	-62.783	-85.856	-8191	255	
539.520	1	1	0	0	0.12665	0.036947	0.18697	0.21287	0.15936	0.30236	0.31286	0.11598	0.092865	0.1957	0.070616	0.28171	0.37693	0.27503	0.19938	0.27194	-1.9125	-2.9083	-1.9729	-2.6688	-2.7125	-1.975	-3.1562	-2.4771	-2.4188	-3.0312	-2.2396	-2.8708	-2.7521	-2.0021	-2.9688	-2.4833	2.492	5.982	28.968	180.764	0.059	126.234	217.084	206.617	-114.399	193.827	215.256	239.902	-57.066	22.198	75.731	159.614	0.00010059	0.00027044	3.6672e-05	1093	4.1852e-06	2.7286e-06	1177.1	221.06	1.9977e-06	4.0275e-06	281.33	78.852	62.216	18.115	2.9401e-06	25.462	0.00035415	0.00039843	0.00011153	1061.9	4.4368e-06	4.3532e-06	1150	218.98	4.5009e-06	4.4729e-06	279.41	79.599	62.588	18.344	4.3123e-06	25.744	-112.423	5.378	31.813	-106.607	55.484	24.087	-106.371	-98.900	23.493	21.635	-99.666	-92.879	-92.365	-85.270	-34.631	-85.315	-8191	255	
539.616	1	1	0	0	0.18577	0.35836	0.1044	0.19398	0.25736	0.038852	0.065418	0.26987	0.07347	0.20502	0.21907	0.14943	0.15819	0.32311	0.062415	0.16091	-1.925	-2.8833	-1.9542	-2.5583	-2.7562	-2.0083	-3.0271	-2.6146	-2.1021	-2.9542	-2.1979	-2.6604	-2.9729	-2.0563	-2.8542	-2.5667	66.292	-108.796	28.462	-111.843	231.657	52.545	194.899	131.314	-14.686	-100.019	196.855	-75.764	157.751	190.723	127.204	81.140	7.1618e-05	0.00038904	4.6033e-05	1077.9	1.8115e-06	5.7197e-06	1164.8	220.56	2.1356e-06	3.7774e-06	282.47	79.037	62.08	18.239	3.1268e-06	25.35	0.00035444	0.00038348	0.00011125	1058.4	4.3009e-06	4.3591e-06	1148.9	218.69	4.1971e-06	4.2578e-06	279.3	79.663	62.567	18.332	4.3667e-06	25.732	-101.151	7.046	-106.329	-106.623	15.157	44.440	-106.434	-99.100	24.411	-51.626	-99.430	-92.601	-92.431	-85.752	8.760	-86.335	-8191	255	
539.712	1	1	0	0	0.064393	0.18807	0.18384	0.26387	0.10562	0.056919	0.3204	0.1191	0.36609	0.15674	0.22099	0.062899	0.17794	0.12698	0.22172	0.28689	-1.8729	-3.1208	-2.2562	-2.4521	-2.85	-2.0375	-2.9604	-2.5771	-2.1479	-2.9646	-2.3021	-2.4521	-3.1312	-2.0417	-2.7458	-2.8792	-23.383	118.417	159.976	209.273	41.244	-31.053	189.369	233.441	67.460	146.968	189.941	215.483	151.855	54.612	37.406	104.408	9.1814e-05	0.00015882	8.1177e-05	1084	2.4385e-06	1.9299e-06	1173	221.03	2.4508e-06	1.0409e-06	282.87	78.64	62.661	18.181	1.5665e-06	25.323	0.0003603	0.00041714	0.00011496	1059.1	4.5741e-06	4.6647e-06	1150.2	219.02	4.5642e-06	4.499e-06	280.27	79.416	62.653	18.351	4.3819e-06	25.733	227.001	0.752	17.549	-106.663	71.190	-3.399	-106.169	-98.993	24.252	115.809	-99.571	-92.806	-92.345	-85.182	31.222	-85.753	-8191	255	
539.807	1	1	0	0	0.076405	0.083046	0.2373	0.14825	0.31672	0.20278	0.17695	0.12305	0.15029	0.099505	0.28537	0.13659	0.14979	0.19334	0.19243	0.10703	-1.8521	-3.1125	-2.0917	-2.4708	-3	-2.125	-2.8542	-2.7583	-1.8	-2.9333	-2.2646	-2.3667	-3.0021	-2.0687	-2.4667	-2.9562	166.599	117.490	-17.563	158.505	-99.475	180.137	146.610	128.231	159.081	223.020	-56.016	-56.835	-34.941	85.622	60.723	59.911	9.1982e-05	0.00024131	4.062e-06	1085.6	2.3018e-06	4.4914e-06	1168.4	221.15	1.9408e-06	3.073e-06	280.68	78.944	62.341	18.238	2.2028e-06	25.473	0.00036282	0.00040895	0.00011525	1061.5	4.4382e-06	4.6693e-06	1150.3	219.23	4.4203e-06	4.3737e-06	279.35	79.523	62.627	18.32	4.3698e-06	25.741	-117.000	-72.798	-57.342	-106.525	95.885	44.947	-106.416	-99.244	111.227	35.121	-99.662	-92.526	-92.100	-85.334	115.199	-85.807	-8191	255	
539.903	1	1	0	0	0.19071	0.22973	0.15863	0.034541	0.053745	0.1879	0.20792	0.10836	0.36996	0.33648	0.202	0.20136	0.10594	0.17858	0.17063	0.12591	-1.5958	-2.9188	-2.3375	-2.1688	-3.0542	-2.175	-2.7042	-2.9875	-2.0771	-2.7687	-2.6542	-2.2438	-3.1479	-2.2896	-2.3438	-3.0333	-116.384	153.323	94.305	13.531	1.986	145.635	156.982	136.296	237.940	-7.658	26.237	-92.567	196.254	181.932	69.211	184.033	4.6139e-05	0.00030304	0.0001301	1082.9	2.0423e-06	2.8446e-06	1165.7	221.07	1.1687e-06	2.285e-06	283.55	78.949	62.349	18.172	1.5649e-06	25.646	0.00036102	0.00039382	0.00011288	1058	4.4311e-06	4.5455e-06	1148.3	219.15	4.5186e-06	4.4405e-06	280.19	79.515	62.628	18.35	4.3003e-06	25.81	-111.673	-0.025	-28.994	-106.677	82.777	96.718	-106.141	-99.082	-16.999	-4.159	-99.467	-92.375	-92.495	-84.872	-21.683	-86.172	-8191	255	
540.023	1	1	0	0	0.14446	0.24279	0.34537	0.12071	0.21706	0.3062	0.090163	0.19592	0.17839	0.088678	0.21916	0.10404	0.12869	0.18589	0.19558	0.0082983	-1.6792	-2.8125	-2.5875	-2.2146	-2.9854	-2.3208	-2.5854	-2.8958	-1.8937	-2.6729	-2.7271	-2.0979	-2.8812	-2.175	-2.2667	-3.0187	-13.210	220.609	-19.253	74.726	-96.669	190.029	-73.961	147.334	172.566	1.943	175.868	129.631	179.996	-111.123	-52.400	-110.899	8.5453e-05	0.00046191	0.00013455	1079.1	1.3257e-06	5.4766e-06	1171.4	221.18	1.1852e-06	2.352e-06	283.24	78.828	62.871	18.03	2.2876e-06	25.277	0.00036457	0.0004035	0.00011662	1058.4	4.5812e-06	4.6629e-06	1148.6	219.34	4.6726e-06	4.7275e-06	280.16	79.585	62.745	18.347	4.7523e-06	25.76	-107.663	-16.620	2.960	-106.550	93.165	36.636	-106.056	-99.202	-25.755	37.422	-99.431	-92.868	-92.134	-85.214	8.623	-85.679	-8191	255	
540.120	1	1	0	0	0.25033	0.21064	0.21803	0.14895	0.19524	0.18113	0.1179	0.1959	0.096745	0.057445	0.27854	0.059281	0.2358	0.24973	0.18497	0.21276	-1.7437	-2.6104	-2.7542	-2.025	-2.7625	-2.5396	-2.3625	-3.1375	-2.0792	-2.6208	-2.9625	-2.0625	-2.9	-2.5771	-2.1042	-3.1479	203.127	-47.760	125.731	163.145	88.911	-65.520	208.306	188.126	51.686	-33.016	233.242	182.366	217.485	104.437	189.834	63.856	9.5276e-05	0.00039786	0.00010428	1088.9	6.9362e-07	2.2498e-06	1169.7	221.27	2.1249e-06	3.0961e-06	282.46	78.842	62.077	18.133	2.8064e-06	25.424	0.00038205	0.00044693	0.00012001	1064.1	4.7649e-06	4.8263e-06	1149.3	219.35	4.7464e-06	4.7761e-06	279.92	79.7	62.619	18.368	4.8224e-06	25.724	240.005	-8.699	50.389	-106.869	-65.686	33.239	-106.049	-99.252	37.426	78.352	-99.775	-92.604	-92.423	-85.300	3.872	-85.488	-8191	255	
540.216	1	1	0	0	0.045799	0.21987	0.16607	0.19842	0.35857	0.21167	0.17935	0.17709	0.087214	0.2165	0.1349	0.097015	0.13903	0.17823	0.25987	0.2531	-1.7021	-2.6021	-2.7396	-2.0979	-3.0167	-2.3896	-2.2896	-3.1604	-2.1479	-2.7146	-3.0062	-2.1562	-2.6458	-2.6667	-2.0271	-2.9396	242.402	216.484	-13.136	231.540	15.540	79.549	231.354	236.354	158.988	-14.817	11.985	161.172	242.423	170.868	104.773	228.328	9.5074e-05	0.00040183	0.00016654	1073.2	2.6274e-06	1.8837e-06	1166.4	220.39	2.879e-07	3.444e-06	283.39	78.795	62.097	18.231	1.0039e-06	25.341	0.00037709	0.00044987	0.00012171	1058.1	4.6032e-06	4.8114e-06	1149.8	219.48	4.7158e-06	4.6036e-06	280.7	79.717	62.703	18.347	4.4321e-06	25.713	-112.903	77.965	-38.820	-106.842	30.921	30.600	-106.544	-98.896	-100.374	-9.858	-99.846	-92.552	-92.592	-85.310	68.025	-85.626	-8191	255	
540.287	1	1	0	0	0.12866	0.12309	0.13959	0.082449	0.12043	0.21074	0.092535	0.1908	0.068131	0.07355	0.18871	0.18235	0.21401	0.013099	0.064079	0.19069	-1.8458	-2.3312	-2.9604	-2.2417	-2.5646	-2.7875	-2.2771	-3.0292	-2.2708	-2.1646	-3.0333	-2.2104	-2.8521	-2.9125	-1.775	-3.0438	117.613	32.102	151.016	89.105	148.353	80.988	187.438	163.251	183.699	149.771	77.006	159.999	113.653	-103.877	137.112	-65.697	9.8088e-05	0.0001668	5.7783e-05	1079.2	3.099e-06	2.8404e-06	1166.2	220.35	3.6749e-06	2.852e-06	282.74	78.515	62.106	18.028	3.1386e-06	25.505	0.00036097	0.00040142	0.00011023	1058.1	4.523e-06	4.4436e-06	1148.7	219.1	4.4832e-06	4.5531e-06	280.03	79.524	62.6	18.275	4.2824e-06	25.757	232.253	-35.205	-76.054	-106.411	38.015	180.285	-106.398	-99.194	8.543	-8.141	-99.539	-92.713	-92.247	-85.411	44.276	-85.420	-8191	255	
540.408	1	1	0	0	0.18187	0.27961	0.070865	0.21079	0.22141	0.16817	0.26108	0.325	0.15704	0.11411	0.22687	0.034416	0.18009	0.1351	0.19723	0.28046	-2.0396	-1.9917	-3.1104	-2.1917	-2.4958	-2.8417	-2.2458	-3.2313	-2.3896	-2.4292	-3.0854	-2.4062	-2.5208	-3.0125	-2.0271	-2.9604	-46.976	-27.224	10.528	129.358	163.074	228.174	182.214	191.225	-21.796	-94.687	91.477	-58.808	55.193	-62.464	-7.096	241.510	8.4394e-05	0.00013168	3.9137e-05	1080.4	1.1714e-06	3.923e-06	1166.4	220.13	2.178e-06	3.9732e-06	281.96	78.919	61.799	18.04	3.534e-06	25.463	0.00035377	0.00041593	0.00010723	1057.3	4.2992e-06	4.304e-06	1147.9	219.18	4.3052e-06	4.1777e-06	279.4	79.248	62.441	18.238	4.2487e-06	25.72	230.442	14.438	-1.536	-106.584	107.090	10.545	-106.281	-99.165	33.191	6.247	-99.403	-92.748	-92.018	-85.326	29.481	-85.296	-8191	255	
540.504	1	1	0	0	0.16592	0.16214	0.12781	0.29451	0.23287	0.17809	0.17765	0.34455	0.22637	0.15956	0.24027	0.18833	0.47766	0.20332	0.11011	0.2196	-2.3229	-1.8563	-2.9208	-2.2542	-2.4188	-2.7521	-2.0708	-2.8563	-2.5687	-2.0312	-2.9521	-2.1854	-2.2729	-3.0854	-1.8375	-2.7875	-40.746	121.740	239.477	231.008	-57.873	138.900	116.244	210.095	151.030	83.747	-80.203	-55.625	185.905	193.780	-101.672	-116.050	9.0184e-05	0.00013837	0.0001152	1077	2.6566e-06	4.6894e-06	1166.8	220.29	3.5869e-06	7.6429e-06	281.13	78.42	62.051	18.087	3.0966e-06	25.351	0.00033851	0.00038503	0.00010256	1057	4.1695e-06	4.1787e-06	1146.9	218.59	4.2278e-06	4.0919e-06	279.02	79.251	62.565	18.296	4.1403e-06	25.66	235.182	-47.754	15.211	-106.731	92.862	45.721	-106.292	-98.735	14.761	21.607	-99.241	-92.563	-92.005	-84.924	21.221	-85.547	-8191	255	
540.600	1	1	0	0	0.045717	0.25297	0.079237	0.10236	0.1438	0.12483	0.06911	0.23355	0.13587	0.22295	0.04515	0.21094	0.05818	0.026308	0.057623	0.17973	-2.4542	-1.9813	-2.9125	-2.4854	-2.2833	-2.8896	-2.2062	-2.6542	-2.4896	-1.8542	-3.2333	-2.4521	-2.1333	-3.0229	-2.1063	-2.6375	147.111	-22.891	113.742	167.576	51.955	155.388	110.722	-35.347	238.937	205.331	-17.015	148.478	128.682	129.202	60.608	56.947	9.7147e-05	0.00037523	9.1168e-05	1072.1	5.7578e-07	1.8949e-06	1142.3	218.04	1.2756e-06	1.23e-06	280.34	78.297	61.492	17.886	1.182e-06	25.113	0.0003302	0.00039294	0.00010156	1056.2	4.1075e-06	4.064e-06	1138.6	217.8	4.2519e-06	4.2045e-06	278.56	79.243	62.323	18.216	4.2158e-06	25.62	228.593	-23.280	32.640	-106.386	174.287	23.306	-106.877	-99.053	-1.744	-10.429	-99.302	-92.894	-92.317	-85.293	32.515	-85.746	-8191	255	
540.696	1	1	0	0	0.37215	0.03534	0.072536	0.22822	0.15454	0.16424	0.31293	0.13616	0.17645	0.23015	0.25948	0.10426	0.016071	0.023872	0.11035	0.22594	-2.5021	-1.9875	-2.6	-2.5771	-2.1813	-3.0021	-2.35	-2.5792	-2.8937	-1.9104	-3.0104	-2.4521	-1.9646	-2.8771	-2.1625	-2.5687	33.364	208.973	209.370	16.179	-10.986	-49.023	211.117	99.385	141.962	115.522	-77.299	201.646	96.024	87.451	-54.025	-80.706	6.5867e-05	0.00033234	6.2796e-05	1083	1.2401e-06	1.3506e-06	1167.9	219.43	7.3132e-07	5.4771e-06	281.44	79.119	62.116	18.1	8.2725e-07	25.428	0.00032813	0.00037859	0.00010658	1056.6	4.1037e-06	4.1771e-06	1145.8	218.43	4.0153e-06	4.0926e-06	278.46	79.375	62.452	18.241	4.1025e-06	25.672	242.162	-59.550	-9.088	-106.598	-22.756	125.407	-106.428	-98.856	100.247	93.485	-99.237	-92.787	-92.107	-85.317	66.173	-85.741	-8191	255	
540.815	1	1	0	0	0.060619	0.074726	0.37187	0.11135	0.15743	0.093502	0.22104	0.11188	0.20177	0.21843	0.12716	0.027878	0.24681	0.32227	0.24607	0.14401	-2.5396	-2.1354	-2.7396	-2.65	-2.0208	-2.9562	-2.4875	-2.4771	-2.9562	-2.1979	-2.7542	-2.9688	-2.0687	-3.0312	-2.4021	-2.2771	-84.285	-56.831	12.863	154.158	55.367	70.689	214.807	147.334	-18.882	-1.529	229.355	109.948	93.069	-93.292	213.811	237.759	0.00014176	0.00024932	8.1404e-05	1076.2	8.046e-07	7.5811e-06	1164.2	221	2.6115e-06	5.3014e-06	282.45	78.814	61.612	18.09	1.4632e-06	25.368	0.00033016	0.0003856	0.00010532	1057.7	4.1318e-06	4.1056e-06	1145.5	218.74	4.1149e-06	4.1762e-06	279.55	79.357	62.223	18.303	4.0674e-06	25.665	-99.571	-65.691	-56.720	-106.715	16.834	76.184	-106.390	-98.887	14.507	52.284	-99.282	-92.350	-92.107	-84.984	38.668	-85.825	-8191	255	
540.912	1	1	0	0	0.084887	0.02385	0.17934	0.10928	0.23127	0.19112	0.080745	0.25504	0.20807	0.094029	0.1368	0.29847	0.081918	0.09261	0.053071	0.15929	-2.7313	-2.0792	-2.6646	-2.9542	-1.8646	-2.8604	-2.5292	-2.3042	-2.9188	-1.8646	-2.8521	-2.9958	-2.0354	-2.9083	-2.5375	-2.0875	158.158	81.677	-66.381	216.413	-116.662	240.541	152.831	-106.095	-106.075	242.696	216.139	-114.852	-109.554	221.041	-52.997	89.792	9.282e-05	6.1148e-05	3.4626e-05	1082.6	2.8983e-06	5.3755e-06	1166.7	220.71	2.1876e-06	5.5261e-06	281.17	78.475	62.172	18.023	3.2237e-06	25.28	0.00033227	0.00037561	0.00010441	1057.7	4.1172e-06	4.3211e-06	1146.9	218.85	4.1395e-06	4.1153e-06	279.28	79.145	62.481	18.262	4.08e-06	25.608	232.335	-83.487	-42.273	-106.608	28.431	3.402	-106.409	-98.904	-16.922	-13.553	-98.982	-92.383	-92.382	-85.267	27.371	-85.101	-8191	255	
541.008	1	1	0	0	0.014599	0.20942	0.10317	0.24865	0.17569	0.083413	0.30984	0.012623	0.10528	0.15524	0.098084	0.20445	0.071839	0.22204	0.11134	0.030813	-2.8146	-2.0563	-2.4104	-3.0938	-1.9167	-2.8625	-2.6437	-2.1896	-2.8583	-2.4854	-2.5896	-3.0708	-2.1479	-2.8479	-2.5708	-1.9542	168.541	223.380	-22.690	-94.389	147.732	127.036	145.497	130.791	186.591	243.017	228.425	-51.512	156.685	-96.607	-44.296	-102.089	0.00011323	0.00033178	7.579e-05	1073	3.5026e-06	2.5736e-06	1163.2	220.48	7.7227e-07	3.5901e-06	282.38	78.466	62.061	18.092	2.3323e-06	25.349	0.00032267	0.00036405	0.00010154	1055.3	3.9729e-06	4.0291e-06	1145.3	218.23	4.1038e-06	4.1204e-06	278.88	79.359	62.358	18.272	3.9341e-06	25.548	237.083	-52.846	-13.272	-106.524	58.471	-6.423	-106.447	-98.884	105.727	62.684	-99.109	-92.461	-92.115	-85.198	54.364	-85.544	-8191	255	
541.104	1	1	0	0	0.32166	0.02226	0.14941	0.13943	0.17157	0.28854	0.13929	0.19949	0.35631	0.19077	0.21105	0.09028	0.15025	0.176	0.11733	0.090754	-2.7458	-2.3396	-2.2229	-3.05	-1.8896	-2.7583	-2.975	-1.9271	-2.9042	-2.4271	-2.3271	-3.0271	-2.2083	-2.6875	-2.7292	-2.0187	-55.683	-26.745	238.907	230.467	131.619	-12.287	186.281	-92.997	-69.619	-42.862	138.788	19.196	163.171	161.169	86.320	-18.612	0.00011562	0.0006081	7.5713e-05	1084.6	2.5059e-06	3.8595e-06	1166.4	219.21	1.4071e-06	2.9464e-06	281.89	78.172	61.818	18.234	2.7033e-06	25.426	0.00032074	0.00036956	0.00010282	1057.4	3.9081e-06	3.9456e-06	1145.1	217.92	3.8451e-06	3.9173e-06	278.29	78.979	62.218	18.295	3.9937e-06	25.619	-109.675	-68.088	41.139	-106.883	190.202	74.586	-106.244	-98.736	177.624	26.136	-99.258	-92.814	-92.094	-85.255	27.671	-85.531	-8191	255	
541.200	1	1	0	0	0.23465	0.048189	0.13265	0.12345	0.10872	0.11841	0.298	0.19938	0.087511	0.064458	0.061096	0.030204	0.16399	0.27293	0.15072	0.1331	-2.5542	-2.4229	-1.9292	-2.9458	-2.0812	-2.4833	-2.9875	-2.125	-2.8479	-2.5229	-2.2938	-2.9771	-2.1729	-2.4104	-2.7438	-2.1562	-97.459	207.459	214.825	-21.587	-45.946	-28.983	171.060	208.741	116.567	33.993	-52.992	93.995	-56.522	243.126	-95.832	44.730	8.6514e-05	0.00011414	0.00011546	1084.9	2.3486e-06	3.8745e-06	1165.1	218.08	2.3661e-06	3.4108e-06	282.31	78.378	61.981	18.105	3.5476e-06	25.307	0.00031997	0.00036006	0.00010467	1056.8	4.0707e-06	4.0154e-06	1145	217.62	4.0524e-06	4.0956e-06	278.21	78.984	62.219	18.267	3.8515e-06	25.623	217.374	-115.607	-4.047	-106.527	33.983	92.363	-106.280	-98.717	29.562	20.230	-99.132	-92.573	-91.956	-85.286	65.999	-85.823	-8191	255	
541.296	1	1	0	0	0.066652	0.066143	0.1831	0.052642	0.17736	0.24574	0.18649	0.064196	0.16999	0.15846	0.23185	0.22906	0.18965	0.2637	0.085152	0.2228	-2.425	-2.5646	-2.0917	-3.0771	-2.2792	-2.4062	-3.225	-2.075	-2.6625	-2.8396	-2.0708	-3.1521	-2.25	-2.2229	-2.8396	-2.1688	79.835	173.621	159.708	-100.306	225.449	-38.287	-97.713	171.458	-38.877	11.351	96.955	214.023	-106.848	50.465	24.312	-102.575	8.8457e-05	0.0002844	0.00015755	1077.1	2.4588e-06	4.0014e-06	1158.1	218.92	2.3183e-06	7.1342e-06	281.9	78.826	61.971	17.961	1.8194e-06	25.264	0.00031256	0.00036064	0.00010193	1054.8	4.0662e-06	3.8038e-06	1143.1	217.67	3.8911e-06	3.9162e-06	278.71	79.264	62.072	18.21	3.8557e-06	25.506	-107.018	-55.807	21.785	-106.639	-29.373	39.219	-106.318	-98.949	6.831	27.467	-99.282	-92.252	-92.088	-85.209	5.425	-85.633	-8191	255	
541.417	1	1	0	0	0.18326	0.17627	0.13819	0.21059	0.16124	0.13361	0.11646	0.22701	0.16256	0.27274	0.17153	0.057073	0.18109	0.17413	0.069029	0.10382	-2.3187	-2.6042	-1.9562	-3.0271	-2.3875	-2.3604	-3.2479	-2.3458	-2.4729	-2.7812	-1.9458	-3.0167	-2.6771	-2.2625	-3.0771	-2.3667	208.680	-46.609	46.538	191.424	-45.082	36.887	206.549	139.413	241.525	-21.853	1.915	-30.037	229.009	-109.527	-39.958	-50.496	8.4966e-05	0.00045324	9.6172e-05	1081.6	1.685e-06	6.9928e-06	1159.1	220.25	1.0302e-06	5.0521e-06	281.92	78.631	62.126	18.042	1.4371e-06	25.527	0.00031653	0.00035191	0.00010013	1058.3	3.8675e-06	4.0165e-06	1143.7	217.53	3.9091e-06	3.8592e-06	278.84	79.222	62.121	18.193	3.759e-06	25.62	223.136	-28.918	-28.103	-106.243	-23.264	18.972	-106.368	-98.745	-8.272	9.476	-99.228	-92.469	-92.321	-84.953	57.542	-85.459	-8191	255	
541.513	1	1	0	0	0.18012	0.075964	0.2766	0.24724	0.34103	0.076618	0.089363	0.19646	0.18253	0.21743	0.16151	0.25707	0.14247	0.11845	0.074718	0.14139	-2.1875	-2.9229	-1.875	-2.9917	-2.5563	-2.1646	-3.125	-2.2854	-2.5417	-2.9	-2.3271	-2.9208	-2.7479	-2.0104	-2.9896	-2.4833	1.615	241.052	118.452	-93.441	203.154	-13.011	125.388	50.219	-42.512	-46.699	44.857	93.705	-60.143	241.228	207.227	-45.060	7.149e-05	6.4936e-05	9.6474e-05	1088.4	1.3597e-06	2.4465e-06	1163.3	219.72	2.8262e-06	5.8619e-06	281.85	79.139	61.526	17.896	1.8334e-06	25.299	0.00030285	0.00034618	9.8321e-05	1058.7	3.8219e-06	3.8458e-06	1143.9	217.49	3.8e-06	3.7074e-06	277.99	79.109	61.944	18.183	3.7136e-06	25.542	236.773	161.483	4.031	-106.351	0.260	65.609	-105.954	-99.093	22.753	18.540	-99.307	-92.382	-92.083	-85.157	63.962	-85.717	-8191	255	
541.585	1	1	0	0	0.097952	0.16072	0.16077	0.079416	0.11014	0.29036	0.1776	0.10864	0.15275	0.06973	0.30525	0.13977	0.13818	0.12301	0.24433	0.18361	-2.1	-2.9313	-2.0542	-2.9646	-2.5667	-2.1021	-3.1083	-2.45	-2.3146	-2.9167	-2.1479	-2.8708	-2.9146	-2.2521	-2.875	-2.4083	2.380	150.401	89.043	113.859	59.319	38.807	231.832	142.402	181.529	63.833	-30.062	94.457	-76.988	238.411	-71.959	198.524	8.6482e-05	0.0003746	8.7288e-05	1084.3	1.9935e-06	2.42e-06	1165.2	220.06	8.0162e-07	4.0824e-06	279.86	78.204	62.002	18.123	3.5124e-06	25.197	0.00031637	0.00034378	9.6527e-05	1052.2	3.8057e-06	3.8945e-06	1144.4	217.45	3.8384e-06	3.8023e-06	277.56	78.778	62.098	18.237	3.7229e-06	25.542	-106.928	-40.435	-19.186	-106.302	-4.082	73.573	-106.218	-98.775	-73.871	35.637	-99.520	-92.483	-92.110	-84.986	62.557	-85.564	-8191	255	
541.681	1	1	0	0	0.20621	0.10628	0.1245	0.055418	0.11195	0.13598	0.22863	0.22464	0.069108	0.15386	0.065358	0.07559	0.064394	0.26068	0.17599	0.096882	-1.7417	-2.9792	-2.0979	-2.7917	-2.8958	-2.0625	-3.0479	-2.3063	-2.2812	-3.2208	-2.2125	-2.6562	-2.9896	-2.1396	-2.8542	-2.5792	-88.736	177.993	20.529	24.525	-22.625	-71.093	188.755	89.438	152.415	201.708	121.720	-112.311	105.258	-107.672	78.999	145.532	0.00012206	0.0002775	0.00011413	1078.3	4.7004e-06	4.1624e-06	1164.1	219.63	6.6182e-07	5.0569e-06	282.45	78.917	61.953	18.045	1.8335e-06	25.424	0.00031229	0.00034499	9.9076e-05	1050.5	3.8341e-06	3.8454e-06	1143.6	217.3	3.8035e-06	3.7313e-06	277.61	79.039	62.151	18.157	3.8427e-06	25.518	232.820	-56.876	-9.623	-106.500	37.550	36.004	-106.263	-99.145	1.241	46.886	-99.546	-92.514	-91.888	-85.105	36.841	-85.606	-8191	255	
541.800	1	1	0	0	0.11766	0.11799	0.20925	0.039021	0.10428	0.10583	0.18415	0.17558	0.044283	0.19598	0.14707	0.13017	0.36573	0.057248	0.30069	0.23481	-1.4792	-3.1333	-2.0604	-2.7313	-2.9104	-1.8875	-3.0104	-2.5729	-2.1708	-3.0771	-2.1917	-2.6063	-3.1	-2.0521	-2.8458	-2.6167	222.175	185.567	141.171	222.301	115.188	-68.528	-68.545	-37.750	-48.095	135.348	108.982	18.754	-100.157	88.605	198.717	221.108	0.0001091	5.6093e-05	9.0481e-05	1083.5	9.7792e-07	2.6779e-06	1166.5	218.93	2.1211e-06	2.7311e-06	281.59	78.526	62.006	17.973	1.9212e-06	25.245	0.00031212	0.00034208	9.661e-05	1052.9	3.653e-06	3.7008e-06	1141.9	217.16	3.7787e-06	3.6683e-06	277.49	78.962	62.037	18.124	3.6713e-06	25.533	227.393	55.786	4.461	-106.564	137.218	135.064	-106.248	-98.891	49.590	-12.967	-99.394	-92.443	-92.004	-84.933	-11.218	-85.492	-8191	255	
541.896	1	1	0	0	0.13246	0.20614	0.1796	0.18927	0.056317	0.21471	0.166	0.010851	0.35489	0.18641	0.17803	0.12375	0.058342	0.18218	0.10876	0.10463	-1.9	-2.9792	-2.3229	-2.3458	-2.9	-2.1188	-2.8104	-2.9083	-2.2354	-2.9771	-2.3958	-2.2708	-3.1896	-2.0271	-2.6854	-2.8958	139.784	201.111	104.001	126.824	72.089	165.921	17.468	-102.776	146.519	-79.387	224.944	189.988	121.960	-112.605	-46.875	-28.705	9.7752e-05	0.00056356	0.00011406	1082.6	2.5633e-06	2.1475e-06	1165.9	219.58	2.0914e-06	3.6249e-06	280.23	78.956	61.628	17.997	2.252e-06	25.148	0.00029962	0.0003309	8.9938e-05	1053.8	3.6173e-06	3.7979e-06	1143.1	217.23	3.6635e-06	3.6776e-06	277.37	78.949	61.855	18.111	3.6322e-06	25.497	236.744	-30.980	-29.061	-106.355	24.075	30.002	-106.185	-98.718	-22.567	66.290	-99.272	-92.375	-92.093	-84.887	71.527	-85.521	-8191	255	
541.992	1	1	0	0	0.064278	0.35001	0.052504	0.18958	0.45043	0.25248	0.21907	0.13748	0.19384	0.052165	0.041721	0.14964	0.18831	0.17343	0.079477	0.12449	-1.575	-2.7938	-2.4146	-2.3167	-2.9042	-2.0979	-2.8125	-2.8438	-1.9271	-2.7729	-2.6813	-2.1125	-3.1458	-2.225	-2.4167	-3.0792	-96.188	148.947	28.649	200.370	-27.476	221.696	187.585	187.482	-39.610	-75.692	203.546	-75.073	-38.985	-6.837	-78.108	194.584	7.5841e-05	0.00042891	3.5037e-05	1081.5	2.6901e-06	2.9102e-06	1167.7	219.61	1.3278e-06	1.066e-06	279.57	78.272	61.841	18.026	1.978e-06	25.194	0.00030396	0.00033226	9.4869e-05	1054.3	3.6553e-06	3.7414e-06	1144.4	217.21	3.7324e-06	3.6971e-06	276.65	78.878	62.023	18.081	3.6843e-06	25.458	237.787	-43.286	64.681	-106.460	151.752	-11.426	-106.244	-98.817	23.050	109.964	-99.141	-92.555	-91.681	-84.658	16.320	-85.313	-8191	255	
542.088	1	1	0	0	0.21357	0.19668	0.23223	0.23961	0.097688	0.093816	0.31083	0.26783	0.088663	0.091597	0.11008	0.15163	0.18196	0.14108	0.12699	0.1572	-1.5604	-2.7708	-2.6708	-2.0875	-3.0708	-2.3479	-2.4313	-2.7812	-2.0667	-2.6	-2.5687	-2.0667	-2.9042	-2.4625	-2.3042	-3.1813	-98.163	-82.759	-42.536	149.295	-40.822	-102.433	197.297	205.387	236.701	-11.527	4.825	-56.870	158.948	103.935	135.357	-12.247	6.2746e-05	0.0001807	8.1767e-05	1084.7	2.5891e-06	4.4948e-06	1165.8	219.43	2.6548e-06	4.0592e-06	280.78	78.898	62.021	17.93	1.8097e-06	25.052	0.00029936	0.00032687	9.3436e-05	1054.4	3.5632e-06	3.6348e-06	1143.2	216.8	3.6267e-06	3.6563e-06	276.81	78.906	62.025	18.09	3.5795e-06	25.376	233.087	-83.307	-29.216	-106.259	55.424	-2.229	-105.856	-98.923	17.430	30.518	-99.417	-92.586	-92.194	-84.917	-58.480	-85.883	-8191	255	
542.184	1	1	0	0	0.16136	0.23005	0.068875	0.16715	0.1224	0.17728	0.20361	0.081223	0.06605	0.09819	0.16989	0.17436	0.10616	0.36695	0.29833	0.16328	-1.5562	-2.5833	-2.8063	-1.95	-2.8708	-2.2708	-2.4792	-3.0542	-2.1312	-2.5604	-2.8021	-2.1562	-2.8917	-2.5417	-2.0521	-2.9917	81.742	69.962	88.052	63.009	-79.846	122.578	156.718	177.073	163.217	-61.168	-104.480	-98.939	-98.844	-12.918	98.350	242.298	0.00010934	0.00053871	7.2304e-05	1081.9	2.625e-06	3.7698e-06	1164.9	219.95	2.4701e-06	2.7067e-06	279.42	78.663	62.17	18.114	2.0772e-06	25.101	0.00028908	0.00033151	8.8935e-05	1048.9	3.5998e-06	3.5667e-06	1140.7	217.24	3.6649e-06	3.709e-06	276.48	78.668	62.161	18.176	3.5255e-06	25.495	228.857	-10.891	-36.113	-106.272	-18.986	40.632	-106.323	-98.810	15.161	101.568	-99.634	-92.399	-92.200	-84.933	-29.439	-85.567	-8191	255	
542.280	1	1	0	0	0.15511	0.10952	0.33942	0.20448	0.11768	0.076233	0.27439	0.066956	0.11279	0.23181	0.12168	0.085748	0.38162	0.34157	0.14381	0.1592	-1.8563	-2.5125	-2.9146	-1.8771	-3.0438	-2.5271	-2.2479	-2.95	-2.1375	-2.3521	-2.9938	-2.2854	-2.8	-2.6437	-2.0271	-2.9667	122.260	-36.896	-45.576	160.751	42.661	172.414	158.319	37.222	-44.836	-44.472	-34.384	96.573	-29.245	217.579	110.965	45.657	0.00010009	0.00039749	0.00010128	1080.2	2.4159e-06	2.8573e-06	1166.7	219.72	2.174e-06	1.4548e-06	282.01	78.317	62.064	17.922	2.9411e-06	25.218	0.00029292	0.00033183	9.1811e-05	1051.5	3.5587e-06	3.5462e-06	1142.8	217.27	3.4676e-06	3.4906e-06	277.12	78.726	61.905	18.109	3.5335e-06	25.454	230.457	-16.165	-14.003	-106.592	45.957	4.953	-106.102	-98.814	7.357	135.311	-99.048	-92.601	-92.013	-85.278	25.529	-85.276	-8191	255	
542.376	1	1	0	0	0.20108	0.33727	0.12171	0.14244	0.057684	0.20722	0.2996	0.23005	0.049885	0.19009	0.11139	0.27363	0.11694	0.14653	0.21536	0.075139	-1.8042	-2.3312	-3.1562	-1.9708	-2.5938	-2.6896	-2.3312	-3.2188	-2.3729	-2.1937	-3.0312	-2.0646	-2.5021	-2.8125	-2.0958	-2.9208	129.773	-82.550	1.510	122.232	88.612	223.184	136.934	-108.164	80.391	13.100	142.072	15.062	138.354	192.787	-10.872	155.143	6.9935e-05	0.00012736	9.6757e-05	1076.9	2.831e-06	5.5141e-06	1160.2	219.88	1.0153e-06	3.1885e-06	281.36	77.941	61.792	18.047	2.6978e-06	25.265	0.00029242	0.00032832	8.9392e-05	1050.4	3.564e-06	3.5226e-06	1141.2	217.27	3.6271e-06	3.5473e-06	276.73	78.58	61.912	18.055	3.544e-06	25.419	219.776	-12.252	-44.422	-106.662	42.243	97.335	-106.012	-98.732	13.393	24.689	-99.721	-92.370	-92.271	-85.276	-5.148	-85.635	-8191	255	
542.497	1	1	0	0	0.27325	0.19693	0.16726	0.36933	0.066488	0.12906	0.39981	0.1878	0.017772	0.1189	0.32495	0.23893	0.20697	0.1831	0.11729	0.079469	-1.9042	-2.25	-2.9167	-2.0021	-2.7167	-2.8312	-2.1896	-2.9167	-2.5771	-2.3271	-3.2958	-2.3875	-2.7854	-3.0563	-2.0625	-3.0229	164.246	68.762	84.315	47.466	76.029	97.627	171.565	-60.241	-95.031	137.487	203.264	178.850	-29.165	-24.245	184.055	-47.797	9.6422e-05	0.00044844	0.00010606	1080.5	3.3104e-06	3.265e-06	1162.2	219.48	3.0892e-06	4.4821e-06	279.77	78.431	61.642	18.123	3.1278e-07	25.11	0.00028201	0.00031686	9.1258e-05	1049.7	3.3594e-06	3.5423e-06	1139.3	216.94	3.4753e-06	3.4475e-06	276.62	78.7	61.843	18.115	3.4967e-06	25.422	242.865	-0.476	-30.215	-106.610	20.550	68.490	-106.023	-98.814	85.276	51.082	-99.075	-92.805	-91.884	-85.289	-3.806	-85.377	-8191	255	
542.593	1	1	0	0	0.23779	0.13377	0.036283	0.13795	0.22457	0.11558	0.30247	0.24131	0.11139	0.093178	0.21906	0.2966	0.25226	0.21891	0.15522	0.17145	-2.0104	-1.8563	-2.9979	-2.2438	-2.4396	-2.9	-2.1937	-2.9667	-2.7562	-2.0583	-3.0958	-2.2583	-2.375	-3.0646	-2.0729	-2.7167	-90.387	203.293	174.883	147.243	177.739	-71.944	75.341	90.904	204.765	171.342	59.510	195.759	-79.054	176.387	110.326	-51.262	9.2848e-05	0.00016983	5.2369e-05	1078.8	3.4925e-06	3.3554e-06	1159.4	219.77	2.5744e-06	3.9917e-06	281.48	78.357	62.319	18.104	3.834e-06	25.094	0.00028576	0.0003244	9.0448e-05	1050.5	3.5832e-06	3.5165e-06	1137.9	216.86	3.5245e-06	3.6656e-06	277.25	78.733	62.132	18.091	3.4691e-06	25.383	242.405	-75.705	-7.692	-106.901	76.138	28.563	-105.997	-98.659	66.530	4.222	-99.259	-92.321	-92.019	-85.425	10.078	-85.515	-8191	255	
542.689	1	1	0	0	0.17347	0.089668	0.18593	0.21434	0.10619	0.11812	0.20131	0.1933	0.25477	0.12654	0.099725	0.29163	0.16742	0.13672	0.17727	0.18147	-2.5167	-1.9375	-2.9313	-2.5812	-2.3458	-2.9875	-2.1188	-2.7104	-2.9146	-2.0229	-3.0312	-2.6208	-2.3	-3.0771	-1.9792	-2.6813	202.712	-107.959	241.599	190.621	34.953	-53.697	-59.681	186.909	-87.066	11.007	98.548	24.551	-112.054	-57.144	158.633	120.452	0.00010826	0.00040406	0.00017391	1077.6	4.0283e-06	4.6028e-06	1162.2	219.85	1.3642e-06	2.0693e-06	278.69	78.29	61.399	18.044	4.3359e-06	25.113	0.00029044	0.00032649	8.5711e-05	1051.2	3.6235e-06	3.5285e-06	1137.9	217.11	3.5321e-06	3.5259e-06	276.18	78.796	61.708	18.074	3.5101e-06	25.425	240.240	-3.651	14.309	-106.531	20.524	52.067	-105.944	-98.513	12.570	20.667	-99.022	-92.644	-91.932	-85.137	56.327	-85.338	-8191	255	
542.808	1	1	0	0	0.11138	0.12597	0.2868	0.011861	0.17824	0.15097	0.23294	0.44647	0.08919	0.20996	0.10722	0.1084	0.055051	0.087351	0.16087	0.16735	-2.4292	-1.9625	-3.0687	-2.6813	-1.9729	-3.0146	-2.5438	-2.4938	-2.8708	-2.0271	-2.9021	-2.6813	-2.2812	-3.0292	-2.1167	-2.6042	164.208	137.193	-87.084	103.501	216.610	41.379	75.508	145.330	-29.301	-27.628	147.931	158.585	76.798	174.764	98.631	-113.720	9.1369e-05	0.00038458	4.6193e-05	1074.1	1.3333e-06	2.4218e-06	1159.3	219.06	2.0855e-06	2.5477e-06	281.97	78.103	61.825	17.976	1.7156e-06	25.111	0.0002891	0.00033063	9.2566e-05	1047.8	3.6961e-06	3.5188e-06	1139.6	216.61	3.6976e-06	3.6606e-06	276.53	78.555	61.879	18.099	3.6699e-06	25.368	235.588	-46.399	-16.261	-106.779	-34.109	50.293	-106.200	-98.613	31.402	43.286	-99.047	-92.613	-91.977	-85.066	96.039	-85.352	-8191	255	
542.880	1	1	0	0	0.14305	0.17406	0.015301	0.17629	0.40875	0.076478	0.11956	0.1635	0.21603	0.025467	0.18829	0.24202	0.012785	0.17032	0.28675	0.49506	-2.8396	-1.9375	-2.7562	-2.9271	-1.9937	-2.8375	-2.3375	-2.3187	-2.9458	-2.3187	-2.6979	-2.7979	-2.0687	-3	-2.225	-2.1937	148.978	77.530	201.722	228.241	77.133	37.129	170.136	242.171	192.636	6.483	-7.016	-52.652	53.152	222.964	95.913	193.428	8.1935e-05	0.00034657	1.843e-05	1078.4	1.3868e-06	7.6914e-06	1158.1	219.48	1.8938e-06	4.9363e-06	281.38	78.268	61.891	17.778	2.3699e-06	25.126	0.00029615	0.00033718	9.4648e-05	1049.6	3.777e-06	3.7605e-06	1136.6	216.91	3.7587e-06	3.6995e-06	276.9	78.783	61.921	18.005	3.6298e-06	25.388	235.135	-47.977	-8.994	-106.631	74.171	43.955	-106.132	-98.903	120.017	28.372	-99.043	-92.654	-92.200	-84.793	44.845	-84.800	-8191	255	
542.976	1	1	0	0	0.19001	0.32439	0.021408	0.099784	0.040954	0.066961	0.27312	0.084047	0.18183	0.35137	0.1128	0.31532	0.055516	0.06881	0.30444	0.14936	-2.8	-2.1083	-2.5292	-2.9896	-1.9667	-2.6688	-2.5521	-2.1917	-3.0083	-2.2062	-2.4313	-2.9771	-2.0896	-2.8729	-2.6125	-2.2438	216.653	104.794	195.012	111.705	71.308	-95.738	191.426	-76.731	13.193	44.925	222.918	211.078	187.423	90.306	-95.211	110.555	0.00012267	0.00048545	0.00012723	1077.8	3.9156e-06	3.3242e-06	1162.9	218.28	1.9926e-06	4.3009e-06	280.94	78.173	61.228	17.955	2.2838e-06	25.198	0.00030651	0.00034804	9.6848e-05	1049.8	3.7157e-06	3.6562e-06	1139.6	216.39	3.7953e-06	3.8002e-06	276.04	78.683	61.817	18.114	3.6631e-06	25.417	222.348	-30.311	-7.539	-106.166	60.185	0.323	-105.898	-98.748	-20.074	63.702	-99.033	-92.007	-91.822	-84.756	46.210	-85.159	-8191	255	
543.097	1	1	0	0	0.087943	0.10929	0.20048	0.26484	0.17685	0.16682	0.091523	0.15517	0.14028	0.25781	0.16775	0.14871	0.25921	0.17798	0.18631	0.091625	-2.9083	-2.225	-2.3979	-3.2042	-2.0563	-2.8604	-2.8208	-2.3021	-2.9979	-2.2729	-2.4083	-3.0333	-1.9354	-2.7812	-2.7167	-2.0625	-45.521	-67.061	86.008	220.242	84.219	53.574	158.256	-20.276	111.645	51.730	120.279	-19.025	-87.791	-67.690	147.522	188.467	0.00011163	8.3901e-05	8.6693e-05	1083.6	2.5334e-06	1.5702e-06	1157.3	218.34	5.139e-07	4.4984e-06	279.4	78.124	61.628	18.083	3.3072e-06	25.085	0.00028983	0.00033344	9.3148e-05	1052.8	3.6031e-06	3.5949e-06	1136.3	216.4	3.5584e-06	3.585e-06	276.64	78.577	61.648	18.114	3.4804e-06	25.292	234.746	23.538	11.433	-106.302	56.832	-25.813	-106.064	-98.638	59.845	32.015	-99.190	-92.638	-91.946	-85.413	22.298	-85.758	-8191	255	
543.193	1	1	0	0	0.18045	0.20004	0.10598	0.3797	0.19996	0.15067	0.12564	0.041683	0.10798	0.22922	0.14672	0.084908	0.15051	0.28801	0.17929	0.067545	-2.6896	-2.2188	-2.2542	-3.0917	-1.9167	-2.8167	-2.9188	-2.0354	-3.0542	-2.3375	-2.325	-3.0938	-2.1312	-2.7083	-2.875	-1.8396	132.984	42.856	25.375	154.935	108.986	-27.282	-75.789	66.324	126.246	-82.428	-61.704	108.066	-23.358	-96.236	126.690	110.627	6.258e-05	0.00039563	1.5946e-05	1080.3	5.9221e-07	3.9028e-06	1162.7	218.73	3.2835e-06	4.9409e-06	280.28	78.503	61.779	17.978	1.0992e-06	25.214	0.00029174	0.00033588	8.9802e-05	1050.2	3.6447e-06	3.5899e-06	1138.3	216.21	3.5478e-06	3.6505e-06	275.98	78.582	61.717	18.073	3.5293e-06	25.443	-107.424	-7.493	-14.447	-106.230	235.071	42.842	-106.444	-98.605	37.577	65.970	-98.857	-92.487	-91.971	-84.600	-1.751	-85.465	-8191	255	
543.289	1	1	0	0	0.21995	0.22645	0.19135	0.078335	0.14333	0.21142	0.22536	0.29796	0.11777	0.3404	0.17809	0.15581	0.33432	0.34486	0.021727	0.088083	-2.6813	-2.4104	-2.0042	-3.2833	-2.0417	-2.55	-3.0354	-2.1937	-2.8187	-2.6188	-2.2438	-3.2667	-2.3958	-2.3208	-3.0792	-2.1542	29.069	167.681	4.243	-8.814	50.125	121.785	197.623	222.831	-10.523	-111.837	15.332	-60.474	141.979	138.044	206.279	168.911	7.1825e-05	0.00057337	9.4305e-05	1081	3.0156e-06	4.1465e-06	1159.4	218.6	2.4896e-06	2.3752e-06	280.23	78.745	61.556	18.067	5.5007e-06	25.317	0.00029538	0.00032178	9.1444e-05	1049.4	3.541e-06	3.4833e-06	1137.7	216.13	3.3945e-06	3.3854e-06	276.4	78.69	61.617	18.129	3.4795e-06	25.369	232.127	-39.327	-52.735	-106.179	-22.816	48.648	-106.209	-98.803	16.855	41.752	-99.160	-92.323	-92.037	-85.039	-1.015	-85.428	-8191	255	
543.385	1	1	0	0	0.09209	0.27748	0.25693	0.15595	0.11949	0.13193	0.05493	0.20621	0.18461	0.064707	0.2288	0.21822	0.11617	0.1176	0.17466	0.30049	-2.4375	-2.4229	-2.0687	-3.1042	-2.2083	-2.4188	-3.0896	-2.2687	-2.6688	-2.6167	-1.9542	-3.1979	-2.5333	-2.3979	-3.0458	-1.9521	145.540	-57.494	183.887	-112.827	147.321	6.901	-73.671	186.350	-79.681	135.594	-8.547	230.505	-96.082	202.742	242.189	226.518	0.00010156	0.00028526	0.0001246	1086.4	1.4759e-06	5.378e-06	1158.3	219.03	1.5092e-06	1.8629e-06	280.24	78.019	61.801	17.956	1.8419e-06	25.23	0.00028717	0.00033427	9.1752e-05	1051	3.6132e-06	3.5721e-06	1136.3	216.11	3.5641e-06	3.5264e-06	276.49	78.528	61.785	18.058	3.4133e-06	25.381	232.922	-23.864	-23.888	-106.672	88.969	23.173	-106.142	-98.583	-48.926	-34.082	-98.815	-92.370	-92.383	-84.697	32.576	-85.215	-8191	255	
#DATA ENDS
