BOXY.EXE: ISS Imagent and Oximeter Data Acquisition Program Version 0.80
Ascii Record File

#ACQ INFORMATION
2  Detector Channels 
16  External MUX Channels 
1  Auxiliary Channels 
5000  Waveform (CCF) Frequency (Hz)
1  Waveforms Skipped 
30  Waveforms Averaged 
1  Cycles Averaged 
16  Acquisitions per Waveform 
10.0806  Updata Rate (Hz) 

#FILE INFORMATION
TRUE -- External MUX Channel results are PARSED.
FALSE -- AC DC and Phase are NOT grouped.
TRUE -- Companion Program Settings File CREATED.
FALSE -- AC data not excluded
FALSE -- DC data not excluded
FALSE -- Phase data not excluded
FALSE -- Auxillary Chn. data not excluded
Tab delimiters

#CALIBRATION STATE
TRUE -- Waveform Calibration Values APPLIED.


#AUX CALIBRATION VALUES
Val Type	aux-1	

Term	1.0000e+00	
Factor	0.0000e+00	


#WF CALIBRATION VALUES
A = Detector Channel
Val Type	A-AC1	A-AC2	A-AC3	A-AC4	A-AC5	A-AC6	A-AC7	A-AC8	A-AC9	A-AC10	A-AC11	A-AC12	A-AC13	A-AC14	A-AC15	A-AC16	A-DC1	A-DC2	A-DC3	A-DC4	A-DC5	A-DC6	A-DC7	A-DC8	A-DC9	A-DC10	A-DC11	A-DC12	A-DC13	A-DC14	A-DC15	A-DC16	A-Ph1	A-Ph2	A-Ph3	A-Ph4	A-Ph5	A-Ph6	A-Ph7	A-Ph8	A-Ph9	A-Ph10	A-Ph11	A-Ph12	A-Ph13	A-Ph14	A-Ph15	A-Ph16	

Term	0.00000e+00	0.00000e+00	0.00000e+00	0.00000e+00	0.00000e+00	0.00000e+00	0.00000e+00	0.00000e+00	0.00000e+00	0.00000e+00	0.00000e+00	0.00000e+00	0.00000e+00	0.00000e+00	0.00000e+00	0.00000e+00	0.00000e+00	0.00000e+00	0.00000e+00	0.00000e+00	0.00000e+00	0.00000e+00	0.00000e+00	0.00000e+00	0.00000e+00	0.00000e+00	0.00000e+00	0.00000e+00	0.00000e+00	0.00000e+00	0.00000e+00	0.00000e+00	0.00000e+00	0.00000e+00	0.00000e+00	0.00000e+00	0.00000e+00	0.00000e+00	0.00000e+00	0.00000e+00	0.00000e+00	0.00000e+00	0.00000e+00	0.00000e+00	0.00000e+00	0.00000e+00	0.00000e+00	0.00000e+00	
Factor	1.00000e+00	1.00000e+00	1.00000e+00	1.00000e+00	1.00000e+00	1.00000e+00	1.00000e+00	1.00000e+00	1.00000e+00	1.00000e+00	1.00000e+00	1.00000e+00	1.00000e+00	1.00000e+00	1.00000e+00	1.00000e+00	1.00000e+00	1.00000e+00	1.00000e+00	1.00000e+00	1.00000e+00	1.00000e+00	1.00000e+00	1.00000e+00	1.00000e+00	1.00000e+00	1.00000e+00	1.00000e+00	1.00000e+00	1.00000e+00	1.00000e+00	1.00000e+00	X	X	X	X	X	X	X	X	X	X	X	X	X	X	X	X	

B = Detector Channel
Val Type	B-AC1	B-AC2	B-AC3	B-AC4	B-AC5	B-AC6	B-AC7	B-AC8	B-AC9	B-AC10	B-AC11	B-AC12	B-AC13	B-AC14	B-AC15	B-AC16	B-DC1	B-DC2	B-DC3	B-DC4	B-DC5	B-DC6	B-DC7	B-DC8	B-DC9	B-DC10	B-DC11	B-DC12	B-DC13	B-DC14	B-DC15	B-DC16	B-Ph1	B-Ph2	B-Ph3	B-Ph4	B-Ph5	B-Ph6	B-Ph7	B-Ph8	B-Ph9	B-Ph10	B-Ph11	B-Ph12	B-Ph13	B-Ph14	B-Ph15	B-Ph16	

Term	0.00000e+00	0.00000e+00	0.00000e+00	0.00000e+00	0.00000e+00	0.00000e+00	0.00000e+00	0.00000e+00	0.00000e+00	0.00000e+00	0.00000e+00	0.00000e+00	0.00000e+00	0.00000e+00	0.00000e+00	0.00000e+00	0.00000e+00	0.00000e+00	0.00000e+00	0.00000e+00	0.00000e+00	0.00000e+00	0.00000e+00	0.00000e+00	0.00000e+00	0.00000e+00	0.00000e+00	0.00000e+00	0.00000e+00	0.00000e+00	0.00000e+00	0.00000e+00	-9.16924e+01	-1.29767e+02	-1.18293e+02	-1.86930e+02	-6.15527e+01	-7.43525e+01	-1.57927e+02	-1.62015e+02	-5.46448e+01	-6.47678e+01	-1.74803e+02	-1.71738e+02	-1.79902e+02	-1.78143e+02	-6.55759e+01	-1.51148e+02	
Factor	1.34725e-05	1.20035e-04	3.44946e-05	2.75324e-01	1.14839e-06	1.47898e-06	1.54831e-01	4.40518e-02	8.52034e-07	1.53134e-06	8.28116e-02	2.37421e-02	1.84838e-02	7.33700e-03	1.05337e-06	1.06775e-02	4.48628e-06	5.69377e-06	1.58866e-06	1.45487e-01	6.13995e-08	6.28015e-08	7.73109e-02	2.36346e-02	6.06459e-08	6.30374e-08	4.27097e-02	1.23527e-02	1.00779e-02	3.96030e-03	6.13034e-08	5.55185e-03	X	X	X	X	X	X	X	X	X	X	X	X	X	X	X	X	



#DISTANCE SETTINGS
A = Detector Channel
A-1	A-2	A-3	A-4	A-5	A-6	A-7	A-8	A-9	A-10	A-11	A-12	A-13	A-14	A-15	A-16	

2.5000e+00	3.0000e+00	2.5000e+00	3.0000e+00	2.0000e+00	3.0000e+00	1.5000e+00	3.0000e+00	3.0000e+00	3.0000e+00	3.0000e+00	3.0000e+00	3.0000e+00	3.0000e+00	1.5000e+00	3.0000e+00	

B = Detector Channel
B-1	B-2	B-3	B-4	B-5	B-6	B-7	B-8	B-9	B-10	B-11	B-12	B-13	B-14	B-15	B-16	

1.0000e+01	1.0000e+01	1.0000e+01	1.4400e+00	1.0000e+01	1.0000e+01	1.5100e+00	1.9400e+00	1.0000e+01	1.0000e+01	1.9900e+00	2.4900e+00	2.4100e+00	2.9000e+00	1.0000e+01	2.9800e+00	




#DATA BEGINS
time	group	step	mark	flag	A-AC1	A-AC2	A-AC3	A-AC4	A-AC5	A-AC6	A-AC7	A-AC8	A-AC9	A-AC10	A-AC11	A-AC12	A-AC13	A-AC14	A-AC15	A-AC16	A-DC1	A-DC2	A-DC3	A-DC4	A-DC5	A-DC6	A-DC7	A-DC8	A-DC9	A-DC10	A-DC11	A-DC12	A-DC13	A-DC14	A-DC15	A-DC16	A-Ph1	A-Ph2	A-Ph3	A-Ph4	A-Ph5	A-Ph6	A-Ph7	A-Ph8	A-Ph9	A-Ph10	A-Ph11	A-Ph12	A-Ph13	A-Ph14	A-Ph15	A-Ph16	B-AC1	B-AC2	B-AC3	B-AC4	B-AC5	B-AC6	B-AC7	B-AC8	B-AC9	B-AC10	B-AC11	B-AC12	B-AC13	B-AC14	B-AC15	B-AC16	B-DC1	B-DC2	B-DC3	B-DC4	B-DC5	B-DC6	B-DC7	B-DC8	B-DC9	B-DC10	B-DC11	B-DC12	B-DC13	B-DC14	B-DC15	B-DC16	B-Ph1	B-Ph2	B-Ph3	B-Ph4	B-Ph5	B-Ph6	B-Ph7	B-Ph8	B-Ph9	B-Ph10	B-Ph11	B-Ph12	B-Ph13	B-Ph14	B-Ph15	B-Ph16	aux-1	digaux	

1043.078	1	1	0	256	0.1841	0.050835	0.15248	0.2162	0.21111	0.13712	0.31196	0.16519	0.037264	0.14667	0.032513	0.13652	0.1	0.029751	0.12531	0.13328	-1.8833	-2.3333	-1.6125	-2.5479	-1.8771	-2.0708	-2.7188	-1.8021	-2.2042	-2.4354	-2.1583	-2.6458	-2.1	-1.9646	-2.6354	-2.0042	241.380	-79.695	213.011	-76.185	49.281	271.714	213.486	139.930	233.844	59.194	-42.355	195.762	263.902	129.327	67.789	-74.241	8.9757e-05	0.0010476	0.00011541	827.04	6.6572e-07	4.2738e-06	1295	173.91	2.236e-06	5.6196e-06	333.88	91.584	40.408	12.958	4.18e-06	33.117	0.00025394	0.00028118	7.8837e-05	683.68	3.0242e-06	2.9691e-06	1076.2	144.58	2.9863e-06	3.0148e-06	275.92	76.551	34.225	10.988	2.8676e-06	27.886	203.630	10.663	72.636	-68.597	143.101	80.487	-68.569	-63.718	114.414	19.774	-64.510	-59.732	-58.214	-53.483	54.250	-54.845	-8191	255	
1043.197	1	1	0	0	0.2257	0.068408	0.30541	0.084223	0.08293	0.12539	0.32728	0.094119	0.27685	0.33045	0.070179	0.13111	0.10524	0.16145	0.097065	0.1039	-1.8438	-2.3979	-1.9208	-2.6333	-2.0583	-1.9708	-2.9083	-1.7896	-2.0042	-2.4958	-1.6792	-2.425	-2.2562	-1.7292	-2.6958	-2.1229	15.087	120.067	236.241	-72.674	7.373	203.441	200.599	239.765	34.111	184.533	-32.076	232.881	266.630	216.119	150.246	149.563	6.7691e-05	0.00035585	0.00019559	839.21	1.4333e-06	6.0387e-06	1295.9	174.83	1.2424e-06	5.2271e-06	336.07	91.62	40.158	12.855	4.8314e-06	32.549	0.00025285	0.00027034	7.941e-05	690.23	2.9758e-06	3.0774e-06	1078.6	145.53	3.0684e-06	2.8654e-06	278.84	76.735	34.379	10.892	2.9958e-06	27.647	235.372	22.927	73.405	-68.153	95.021	31.969	-68.208	-63.718	20.459	76.197	-63.918	-59.921	-58.049	-52.520	74.228	-54.579	-8191	255	
1043.293	1	1	0	0	0.038598	0.18781	0.21767	0.35046	0.1534	0.16477	0.30858	0.20709	0.14269	0.040736	0.1161	0.042443	0.040731	0.18779	0.27362	0.24572	-1.7479	-2.5542	-1.7292	-2.5292	-2.2604	-1.7333	-2.8083	-1.9667	-1.8521	-2.5917	-1.9333	-2.3771	-2.5417	-1.6875	-2.4479	-2.1125	-66.342	118.318	219.331	-35.641	268.530	124.285	226.157	109.444	-68.268	110.819	-11.778	216.868	110.290	7.112	45.717	188.765	7.3509e-05	0.00063626	0.00014445	847.88	1.6348e-06	5.2086e-06	1308.2	173.19	1.5141e-06	1.7423e-06	338.41	92.424	40.726	12.844	9.7776e-07	33.118	0.00026253	0.00026431	8.0369e-05	697.91	2.8652e-06	2.9897e-06	1086.4	145.56	2.9657e-06	2.8514e-06	279.75	77.302	34.616	10.889	3.1202e-06	27.688	149.286	-0.280	26.901	-68.446	164.566	111.766	-68.056	-63.591	-2.670	33.087	-64.635	-60.073	-57.465	-53.863	6.368	-54.799	-8191	255	
1043.389	1	1	0	0	0.18501	0.19178	0.34557	0.11347	0.056363	0.28	0.21836	0.11329	0.294	0.0757	0.094833	0.098096	0.06307	0.1921	0.050744	0.21219	-1.4937	-2.5958	-1.575	-2.3229	-2.6708	-1.7604	-2.8521	-2.0292	-1.8125	-2.5583	-1.6354	-2.1333	-2.4792	-1.8438	-2.5146	-2.1729	203.397	233.492	201.032	89.592	104.013	104.910	226.922	-16.370	-17.377	7.679	-15.397	-67.980	-11.423	209.121	145.498	223.747	9.0697e-05	0.00053037	0.00014045	844.41	5.849e-07	8.7656e-07	1303.8	175.37	3.7385e-07	3.4477e-06	333.19	90.067	40.574	12.886	3.4691e-06	32.803	0.00025349	0.00026974	7.9251e-05	694.46	2.8231e-06	2.8601e-06	1082.9	146.55	2.8678e-06	3.0341e-06	276.7	76.378	34.531	10.857	2.9504e-06	27.37	192.291	-43.908	43.512	-68.849	90.463	125.942	-68.220	-63.553	86.348	-29.025	-64.901	-59.692	-57.661	-53.492	65.033	-55.040	-8191	255	
1043.485	1	1	0	0	0.27072	0.017199	0.16573	0.11109	0.47847	0.23061	0.23193	0.31796	0.10106	0.10964	0.04295	0.058741	0.086917	0.21303	0.0627	0.22538	-1.3271	-2.5021	-1.7479	-2.0417	-2.3708	-1.6708	-2.6229	-2.3292	-1.6417	-2.675	-1.9875	-2.0479	-2.5563	-1.6437	-2.35	-2.4354	251.682	-59.552	49.088	-54.869	113.332	213.021	219.140	210.986	198.476	-33.190	171.619	269.473	-49.559	1.313	222.100	138.732	5.5249e-05	0.00012751	0.0001067	835.96	3.7997e-06	3.885e-06	1293.6	175.44	5.7037e-07	2.3589e-06	334.47	90.967	40.934	12.613	4.1833e-06	32.653	0.00024624	0.0002672	7.801e-05	693.07	2.903e-06	2.8863e-06	1076.6	146.87	3.0039e-06	2.9298e-06	276.86	76.341	34.699	10.76	2.969e-06	27.493	-72.774	86.735	68.440	-68.603	100.270	45.739	-68.268	-63.597	175.520	172.389	-64.233	-59.859	-57.501	-53.367	62.418	-54.646	-8191	255	
1043.581	1	1	0	0	0.19142	0.090974	0.22503	0.17949	0.38501	0.11111	0.29127	0.45473	0.025283	0.1977	0.15043	0.16503	0.14364	0.12813	0.23704	0.14772	-1.3312	-2.6917	-1.8667	-2.1562	-2.6125	-1.7	-2.5083	-2.5375	-1.5667	-2.6375	-2.0208	-1.8646	-2.4417	-1.8292	-2.1188	-2.4938	171.148	57.150	13.597	205.868	163.744	196.096	210.184	271.139	11.308	4.321	214.659	37.657	-20.514	10.393	14.788	127.082	5.9034e-05	0.00053396	1.5992e-05	851.18	4.6566e-06	1.9234e-06	1297.5	175.49	3.3681e-06	5.8411e-06	336.98	91.831	41.36	12.98	3.3302e-06	32.766	0.00025545	0.0002809	7.4617e-05	698.76	3.0849e-06	3.0218e-06	1077.9	145.8	3.1717e-06	3.0665e-06	279.35	77.109	34.829	10.911	3.0265e-06	27.523	177.976	-34.979	7.804	-67.995	69.892	85.162	-67.981	-63.650	88.697	-1.134	-64.656	-59.829	-58.158	-53.589	-30.489	-54.586	-8191	255	
1043.678	1	1	0	0	0.073379	0.054104	0.14915	0.25357	0.31846	0.31171	0.22521	0.3393	0.20195	0.059636	0.29091	0.1898	0.17829	0.16465	0.19993	0.26773	-1.3854	-2.4479	-1.9583	-2.0604	-2.6167	-1.7625	-2.3375	-2.4646	-1.4521	-2.5062	-2.2646	-1.7062	-2.8542	-1.8771	-2.125	-2.5958	198.625	166.894	70.381	197.350	134.773	173.422	182.175	228.809	58.175	276.467	268.437	243.905	174.767	148.356	105.778	238.456	9.8836e-05	0.00023144	0.00012901	842.68	1.386e-06	4.5998e-06	1295.9	175.23	8.8643e-07	8.2408e-06	337.29	92.216	41.323	13.033	3.4278e-06	32.671	0.00024866	0.00026025	7.8265e-05	695.4	3.0207e-06	3.0155e-06	1079.4	146.29	2.9446e-06	2.9167e-06	279.34	77.33	34.896	11.01	3.0751e-06	27.687	202.490	-52.819	24.604	-68.125	88.266	16.456	-68.015	-63.000	-34.765	95.378	-64.912	-59.756	-57.956	-53.873	27.270	-54.345	-8191	255	
1043.774	1	1	0	0	0.16441	0.19464	0.18977	0.14727	0.24533	0.24715	0.21698	0.19779	0.046264	0.2212	0.26579	0.43109	0.22364	0.22385	0.30734	0.24721	-1.4188	-2.3812	-2.2438	-2.0333	-2.6771	-2.0458	-2.3458	-2.5958	-1.5708	-2.6292	-2.3292	-1.7104	-2.5417	-1.9688	-1.9875	-2.6479	218.822	35.420	255.591	231.037	131.837	57.386	260.853	226.570	172.572	24.707	236.033	171.029	33.017	211.538	-22.714	265.796	5.7153e-05	0.00044506	0.00016604	842.45	3.486e-06	9.9886e-06	1306.5	176.49	8.3138e-07	3.0879e-06	336.27	90.831	41.107	12.726	7.9833e-07	32.535	0.00024371	0.00025246	7.3317e-05	696.37	2.8892e-06	2.8556e-06	1082.1	146.94	3.0787e-06	2.9062e-06	277.69	76.381	34.729	10.831	2.9028e-06	27.349	172.779	-22.047	-4.391	-68.562	76.073	67.408	-68.177	-63.554	79.926	100.200	-64.474	-59.637	-57.533	-53.249	102.757	-54.970	-8191	255	
1043.894	1	1	0	0	0.047486	0.20823	0.071267	0.17883	0.036678	0.22959	0.23145	0.3583	0.20248	0.25544	0.25793	0.25962	0.090748	0.19855	0.24307	0.30713	-1.5292	-2.3333	-2.2792	-1.6437	-2.5938	-2.1021	-2.1104	-2.6792	-1.7167	-2.3521	-2.5708	-1.8271	-2.6229	-2.2062	-1.9146	-2.6854	167.571	204.362	226.601	179.776	48.417	75.073	250.901	221.292	25.959	-40.153	85.382	-74.425	181.058	-49.055	217.979	202.902	2.9445e-05	0.00037418	5.0708e-05	835.45	4.3798e-06	3.6432e-06	1299.2	175.54	7.3308e-07	2.2903e-06	336.65	90.318	40.272	12.79	1.353e-06	32.565	0.00024316	0.00026324	7.2813e-05	690.15	2.9804e-06	3.1305e-06	1075.6	146.37	2.883e-06	2.9544e-06	277.52	76.592	34.6	10.752	2.8859e-06	27.195	170.216	66.644	-10.189	-68.530	71.939	104.022	-68.035	-63.719	106.726	109.349	-64.236	-59.553	-57.305	-53.386	75.278	-54.236	-8191	255	
1043.989	1	1	0	0	0.14836	0.16421	0.077559	0.029342	0.037554	0.11638	0.095775	0.065663	0.093203	0.17455	0.095945	0.030045	0.014843	0.19571	0.17216	0.18076	-1.3604	-1.9771	-2.4792	-1.4958	-2.4813	-2.0729	-1.8708	-2.6917	-1.9333	-2.0396	-2.5542	-1.5458	-2.6833	-2.3312	-1.6667	-2.7271	150.025	61.257	64.489	33.399	165.742	228.421	-57.225	213.926	190.314	-31.487	256.647	27.489	215.912	4.913	241.070	215.242	5.6611e-05	0.00017197	0.00014598	836.14	3.786e-06	3.1983e-06	1299.4	176.65	1.8285e-06	3.2765e-06	337.35	91.368	41.525	12.918	3.9011e-06	32.748	0.00023852	0.00025801	7.3273e-05	692.98	2.9335e-06	2.8797e-06	1076.1	147.24	2.9794e-06	2.8471e-06	278.93	77.194	35.012	10.858	2.9395e-06	27.392	221.180	5.532	38.549	-68.204	68.979	-24.105	-68.234	-62.944	185.717	77.823	-64.537	-59.369	-58.010	-54.056	80.569	-54.571	-8191	255	
1044.062	1	1	0	0	0.2262	0.14567	0.11331	0.19182	0.10847	0.13589	0.096526	0.37264	0.24938	0.17248	0.24203	0.17225	0.24568	0.14949	0.23767	0.34454	-1.5083	-2.1375	-2.5104	-1.8042	-2.2771	-2.3146	-1.8583	-2.7646	-1.8354	-1.8146	-2.7	-1.8333	-2.2917	-2.4167	-1.6833	-2.6	234.298	-54.686	268.271	25.304	255.346	160.896	233.857	221.409	27.650	172.386	-78.978	-41.628	-73.363	171.500	164.420	-2.363	5.8164e-05	0.0004021	0.00012989	847.15	2.5921e-06	5.1507e-06	1303.7	175.95	1.8943e-06	3.892e-06	341.87	92.438	41.421	13.177	3.3914e-06	33.034	0.00022777	0.00025285	6.949e-05	697.53	2.8298e-06	2.8736e-06	1083	147.64	2.7916e-06	2.9776e-06	281.62	77.777	34.984	11.024	2.9073e-06	27.627	206.647	-32.609	74.096	-67.972	79.957	37.233	-68.434	-63.323	231.023	128.319	-64.309	-59.843	-57.517	-53.632	135.469	-54.392	-8191	255	
1044.158	1	1	0	0	0.14715	0.0451	0.33495	0.052235	0.074195	0.30578	0.058001	0.20771	0.073997	0.075484	0.22484	0.12621	0.12433	0.33263	0.20429	0.17233	-1.6104	-1.7521	-2.5187	-1.8875	-2.3875	-2.5292	-1.7437	-2.5625	-1.9583	-1.9979	-2.7062	-1.7604	-2.3104	-2.4479	-1.4958	-2.5083	136.491	88.839	149.394	38.145	-26.443	78.978	228.245	227.838	243.488	177.834	240.289	52.970	-1.962	236.012	123.030	199.836	6.7434e-05	0.00023193	7.0456e-05	844.31	1.2037e-06	5.0539e-06	1302.6	178.36	1.4282e-06	4.0478e-06	338.46	92.049	41.728	12.805	5.4294e-06	32.952	0.0002336	0.00024945	6.7382e-05	699.54	2.6773e-06	2.7353e-06	1081.1	148.35	2.78e-06	2.9079e-06	281.06	77.364	35.052	10.855	2.7988e-06	27.391	181.352	34.163	4.309	-68.341	9.748	67.212	-67.811	-63.297	18.542	28.592	-64.212	-60.322	-57.844	-53.460	87.968	-54.408	-8191	255	
1044.277	1	1	0	0	0.15593	0.22579	0.088112	0.15894	0.15444	0.10983	0.031014	0.30098	0.09886	0.21041	0.29237	0.047932	0.30425	0.27082	0.15124	0.096946	-1.8312	-1.725	-2.6333	-1.8813	-2.125	-2.6083	-1.8667	-2.525	-2.2208	-1.8062	-3.0229	-1.8458	-1.9958	-2.5938	-1.8188	-2.3896	0.298	228.369	254.105	268.005	114.006	12.902	253.510	243.482	-39.990	74.258	-19.804	207.900	165.342	211.820	154.475	253.234	7.7679e-05	7.6643e-05	0.00011577	838.4	4.425e-07	2.301e-06	1293.4	178.19	1.9178e-06	6.1316e-06	336.47	91.843	41.585	12.719	1.4896e-06	32.277	0.00024194	0.00027215	7.1771e-05	695.21	2.828e-06	2.8066e-06	1074.3	148.16	2.9034e-06	2.7803e-06	279.13	77	34.964	10.744	2.8981e-06	27.379	217.124	-77.194	-3.632	-68.256	148.812	53.428	-68.115	-63.806	176.038	64.213	-64.931	-59.808	-57.560	-53.490	12.269	-54.412	-8191	255	
1044.373	1	1	0	0	0.18603	0.19322	0.19241	0.10468	0.24665	0.25918	0.22335	0.17267	0.04674	0.15209	0.26286	0.17839	0.055335	0.35848	0.30537	0.21655	-2.1083	-1.8	-2.6042	-2.0271	-2.075	-2.6937	-1.8438	-2.3917	-2.3542	-1.6792	-2.7833	-2.0333	-1.7917	-2.6188	-1.75	-2.3833	4.081	278.517	168.331	185.158	90.720	-26.725	215.123	231.529	85.623	-9.581	237.844	275.999	18.111	49.725	89.489	148.099	3.4434e-05	0.0005012	8.9255e-05	846.71	2.4292e-06	6.1354e-06	1289.2	177.4	1.714e-06	9.8832e-07	333.84	91.638	41.409	12.983	4.4143e-06	33.134	0.00023636	0.00026603	7.3267e-05	696.5	2.704e-06	2.6883e-06	1072.8	147.09	2.8175e-06	3.0912e-06	278.26	77.113	35.01	10.906	3.0558e-06	27.818	183.591	-77.481	-40.182	-68.260	65.647	65.027	-68.430	-62.863	87.029	182.781	-64.211	-59.606	-57.297	-53.269	75.563	-54.499	-8191	255	
1044.470	1	1	0	0	0.17923	0.19081	0.11469	0.1361	0.39152	0.22609	0.25036	0.055232	0.21846	0.1556	0.17738	0.30175	0.14943	0.33334	0.15672	0.14567	-2.0604	-1.5354	-2.3771	-2.2333	-1.8167	-2.5396	-2.0062	-2.3083	-2.475	-1.7042	-2.5563	-2.2438	-1.7687	-2.6729	-1.9479	-2.1917	28.037	161.690	50.121	-12.109	193.297	20.476	229.079	0.870	132.119	65.835	-66.355	263.674	12.002	244.560	-10.891	-11.869	3.7837e-05	0.00030457	0.00011271	843.06	3.7215e-06	2.1621e-06	1300.6	175.3	2.4187e-06	5.8611e-06	336.23	92.255	41.63	12.956	2.904e-06	33.843	0.00023378	0.00027879	7.6527e-05	695.15	2.9886e-06	2.999e-06	1078.5	146.86	2.9263e-06	3.0367e-06	278.94	77.542	35.112	10.959	2.9009e-06	28.096	218.858	0.776	21.015	-67.979	70.369	70.309	-68.106	-63.341	114.971	79.849	-64.122	-59.597	-57.954	-53.125	225.904	-54.896	-8191	255	
1044.566	1	1	0	0	0.053549	0.13659	0.1523	0.19749	0.26468	0.064808	0.11733	0.27545	0.162	0.1172	0.25487	0.13678	0.16702	0.16751	0.30705	0.20021	-2.15	-1.7021	-2.1688	-2.1792	-1.5938	-2.5687	-1.8583	-1.9771	-2.5125	-1.7896	-2.4313	-2.3	-1.6	-2.5792	-2.0917	-2.0104	123.989	178.354	-18.098	-71.142	221.597	-25.325	-72.414	190.991	171.738	67.828	213.140	-76.492	202.768	-38.905	-54.637	265.197	6.1159e-05	0.0001785	5.6172e-05	841.17	2.2686e-06	6.569e-06	1298.3	178.17	3.2301e-06	5.2046e-06	331.52	92.646	40.972	13.048	1.0011e-06	32.994	0.00024549	0.00027226	7.4194e-05	696.97	2.936e-06	3.0357e-06	1080.1	147.89	3.0936e-06	3.0657e-06	277.14	77.738	34.832	11.038	3.1053e-06	27.704	268.873	56.573	-7.197	-67.818	121.376	95.704	-67.911	-62.939	121.517	146.312	-64.070	-59.600	-57.347	-53.321	229.663	-54.940	-8191	255	
1044.686	1	1	0	0	0.15625	0.14455	0.24345	0.03271	0.20572	0.10714	0.11568	0.26137	0.23622	0.14399	0.25688	0.0040941	0.16252	0.19865	0.20325	0.29121	-2.4188	-1.8708	-2.0812	-2.5625	-1.5854	-2.6292	-2.1958	-1.7354	-2.6688	-1.7604	-2.3167	-2.4688	-1.7354	-2.55	-2.1229	-1.725	-40.528	228.747	151.905	105.713	32.870	227.772	146.884	21.974	8.677	-28.470	192.551	162.062	-43.266	227.605	-39.180	228.444	8.6858e-05	0.00036445	0.00011024	835.78	5.8545e-06	5.6518e-06	1286.6	175.31	4.3898e-06	5.952e-06	336.17	91.007	40.912	13.012	3.3725e-06	33.353	0.00024161	0.00028117	7.5054e-05	692.7	3.0931e-06	2.9078e-06	1069.6	146.31	2.8459e-06	2.8635e-06	277.96	76.863	34.709	10.97	2.9783e-06	27.752	210.075	-24.540	22.057	-68.017	130.582	79.023	-68.083	-62.984	66.510	122.184	-64.563	-59.614	-57.168	-53.308	89.004	-54.137	-8191	255	
1044.758	1	1	0	0	0.20923	0.12633	0.23474	0.5811	0.20949	0.084676	0.18016	0.30967	0.29629	0.023599	0.29789	0.11233	0.11286	0.23035	0.086235	0.21106	-2.1	-1.6771	-2.1896	-2.5187	-1.6083	-2.3646	-2.3458	-1.8083	-2.6437	-1.775	-2.2687	-2.6771	-1.5604	-2.5	-2.2375	-1.7271	217.490	-50.781	125.005	267.509	177.091	187.845	186.528	239.711	271.792	225.346	251.091	210.941	181.777	230.486	-16.091	-59.712	8.8682e-05	0.00024577	0.00014387	837.63	7.984e-07	2.1437e-06	1288.9	175.6	1.0203e-06	4.755e-06	332.72	92.15	41.314	13.01	6.0174e-06	32.582	0.00023512	0.00027155	7.326e-05	691.27	2.9291e-06	2.8683e-06	1068.5	146.11	2.9437e-06	2.8699e-06	277.04	77.034	34.781	10.927	2.6354e-06	27.512	215.105	-12.684	74.159	-68.634	-4.611	60.170	-68.065	-63.596	-20.076	-4.757	-64.350	-59.596	-58.000	-53.049	90.372	-54.856	-8191	255	
1044.879	1	1	0	0	0.048517	0.18716	0.23471	0.33236	0.11547	0.17813	0.37209	0.13312	0.21339	0.12738	0.246	0.1984	0.18069	0.29037	0.13978	0.19021	-2.1417	-2.0521	-1.8271	-2.6958	-1.5208	-2.3604	-2.6188	-1.7938	-2.6	-1.9583	-1.9292	-2.7625	-1.5979	-2.1917	-2.3396	-1.8583	83.378	99.662	-57.523	272.804	219.565	159.232	222.959	244.403	77.361	134.567	253.305	241.861	-60.047	-52.631	-45.179	218.432	4.5116e-05	0.00028597	1.4518e-05	843.15	2.653e-06	4.6158e-06	1298.6	176.86	2.9867e-06	7.2522e-06	336.4	91.988	41.043	12.912	1.3904e-06	32.863	0.00024326	0.00026474	7.0824e-05	693.41	2.8552e-06	2.6449e-06	1074.1	147.01	2.6414e-06	2.8995e-06	279.42	77.478	34.927	10.928	2.7935e-06	27.619	277.247	12.468	87.450	-68.201	57.181	52.155	-68.285	-62.923	59.419	58.393	-64.487	-59.565	-57.578	-53.924	83.172	-54.459	-8191	255	
1044.975	1	1	0	0	0.15515	0.24282	0.19885	0.31945	0.23269	0.20255	0.094202	0.23799	0.26712	0.14041	0.27887	0.3759	0.1994	0.1033	0.19936	0.25574	-2.2792	-1.9417	-1.8375	-2.7792	-1.6771	-2.1229	-2.5229	-1.4937	-2.4979	-2.0542	-1.7437	-2.5792	-1.8708	-2.0333	-2.6833	-1.6354	255.904	142.235	197.361	158.240	211.498	159.531	259.880	249.640	72.605	31.881	212.807	225.798	-50.592	-30.773	233.649	200.497	2.5432e-05	0.00018495	0.00013838	849.51	1.4813e-06	3.1708e-06	1293.9	177.6	7.9771e-07	1.3107e-06	341.44	93.532	41.657	12.911	2.2922e-06	32.548	0.00022824	0.00025417	6.7922e-05	698.83	2.7765e-06	2.7739e-06	1078.4	148.37	2.8646e-06	2.6736e-06	282.16	77.617	35.342	10.855	2.7163e-06	27.352	215.320	1.958	31.639	-67.602	163.998	-3.616	-68.273	-63.388	75.342	24.995	-64.327	-59.485	-58.195	-52.509	84.766	-54.559	-8191	255	
1045.069	1	1	0	0	0.2046	0.10728	0.31922	0.16305	0.11373	0.099048	0.22464	0.09647	0.19397	0.059156	0.15168	0.40108	0.11876	0.2253	0.22898	0.097246	-2.0875	-2.1958	-1.7104	-2.6542	-1.9104	-2.2354	-2.7958	-1.7208	-2.5604	-2.5021	-1.9167	-2.6021	-1.9604	-1.9604	-2.8146	-1.7083	-18.178	270.352	266.515	275.638	58.907	-68.955	203.016	225.438	256.617	-20.754	160.372	150.580	206.911	271.568	12.897	165.392	8.7929e-05	0.00028346	2.4103e-05	849.06	4.5659e-06	5.281e-06	1291.5	176.84	4.1116e-06	6.831e-06	334.97	91.966	41.46	12.835	3.9303e-06	32.996	0.00021673	0.00024067	7.0563e-05	699.68	2.6137e-06	2.6094e-06	1070.4	147.65	2.6389e-06	2.5802e-06	278.81	77.144	35.217	10.911	2.4249e-06	27.482	221.096	24.849	-0.881	-67.536	60.563	72.436	-68.560	-63.074	78.379	112.231	-64.378	-59.028	-57.955	-52.869	55.306	-54.810	-8191	255	
1045.167	1	1	0	0	0.29387	0.18368	0.21689	0.29138	0.048478	0.11606	0.17161	0.14614	0.087301	0.087171	0.095682	0.16809	0.13618	0.22436	0.14823	0.077539	-1.9813	-2.3375	-1.6479	-2.6042	-1.9062	-1.9896	-2.9104	-1.8271	-2.2896	-2.5	-1.8396	-2.6896	-2.2104	-1.9479	-2.6208	-1.9813	239.593	5.770	104.483	234.326	268.852	191.067	224.075	187.275	272.026	-20.352	229.557	-55.348	189.663	-47.652	273.307	113.854	3.3911e-05	0.00034015	0.00013793	842.84	3.7087e-06	7.1769e-06	1301.4	178.09	9.1154e-07	3.5357e-06	340.23	92.737	42.212	12.841	3.0996e-06	31.972	0.00021443	0.00022841	6.3927e-05	694.86	2.5678e-06	2.5403e-06	1080.2	148.08	2.5154e-06	2.4508e-06	280.9	77.593	35.334	10.784	2.2884e-06	26.844	213.081	-17.377	18.095	-68.061	77.194	78.207	-67.712	-63.130	125.041	85.703	-64.848	-59.735	-58.107	-52.428	44.670	-54.593	-8191	255	
1045.286	1	1	0	0	0.1137	0.15775	0.16333	0.12951	0.41261	0.19257	0.22329	0.025021	0.21777	0.22669	0.19081	0.12411	0.2289	0.096255	0.16966	0.11144	-1.9271	-2.4125	-1.6708	-2.4458	-1.9583	-1.75	-2.7438	-1.8854	-2.0146	-2.4542	-1.7146	-2.4688	-2.3	-1.55	-2.6	-1.9354	-34.539	47.771	113.103	187.325	63.289	257.892	249.470	225.148	226.469	3.397	237.711	-65.845	-70.020	272.478	39.154	191.501	5.9142e-05	0.0001764	0.00013864	853.54	3.9616e-06	1.9944e-06	1306.6	179.11	1.8973e-06	2.1098e-06	338.48	93.525	42.057	12.776	4.8952e-06	33.151	0.00020919	0.00023738	6.0852e-05	705.29	2.5732e-06	2.594e-06	1083.8	149.23	2.5667e-06	2.5046e-06	282.16	78.373	35.503	10.87	2.4736e-06	27.752	240.909	103.470	34.841	-67.700	65.948	36.325	-67.822	-62.731	97.891	123.457	-64.420	-59.293	-57.817	-52.810	80.426	-54.688	-8191	255	
1045.358	1	1	0	0	0.15375	0.066323	0.16618	0.30954	0.27304	0.16523	0.22824	0.22348	0.17558	0.064169	0.090546	0.25735	0.12707	0.36351	0.1452	0.20614	-1.6875	-2.4271	-1.6021	-2.3292	-2.2521	-1.8042	-2.7833	-2.1021	-1.9104	-2.6083	-1.7479	-2.3208	-2.525	-1.7104	-2.6833	-2.0333	222.182	-22.888	244.220	228.166	246.108	-80.153	208.442	236.788	68.926	254.789	97.137	271.655	46.855	-80.860	4.563	181.021	6.5732e-05	0.0002479	0.00011644	847.01	2.1473e-06	4.6348e-06	1312	179.1	2.2917e-06	2.7943e-06	336.83	93.486	42.238	13.203	1.7145e-06	33.464	0.00021029	0.00020783	6.907e-05	699.78	2.407e-06	2.5531e-06	1086.1	148.91	2.5757e-06	2.4694e-06	281.21	78.183	35.515	11.106	2.4512e-06	28.216	-72.965	52.900	64.384	-67.618	78.060	138.091	-67.922	-63.641	42.711	55.867	-64.431	-59.482	-57.877	-53.271	-62.762	-55.009	-8191	255	
1045.454	1	1	0	0	0.23457	0.037207	0.12122	0.20597	0.21301	0.17222	0.21807	0.21718	0.27978	0.28488	0.24339	0.21024	0.28648	0.17316	0.16924	0.19943	-1.7354	-2.5958	-1.7771	-2.2958	-2.3667	-1.8687	-2.6937	-2.3229	-1.8583	-2.6375	-1.7854	-2.2125	-2.5771	-1.7938	-2.5542	-2.2146	257.107	201.559	276.878	48.875	41.351	127.270	278.135	233.213	203.216	-43.037	100.304	10.342	230.689	266.525	101.135	125.735	5.042e-05	0.00057905	3.544e-05	847.83	3.5032e-06	2.2418e-06	1304.5	177.93	4.9255e-07	4.586e-06	335.75	92.206	41.449	13.039	2.4124e-06	33.323	0.00021216	0.00021526	6.4135e-05	697.16	2.3589e-06	2.5533e-06	1077.8	147.65	2.702e-06	2.3718e-06	277.95	77.375	34.934	11.003	2.4871e-06	27.865	188.989	2.893	-3.851	-67.838	68.897	145.799	-67.826	-63.445	109.452	112.843	-63.754	-59.199	-58.245	-52.856	105.690	-54.879	-8191	255	
1045.574	1	1	0	0	0.42638	0.20138	0.26848	0.40669	0.086821	0.23732	0.37841	0.098738	0.22208	0.049734	0.24117	0.063277	0.072565	0.14564	0.038335	0.17494	-1.3813	-2.7667	-1.8167	-2.1333	-2.3625	-1.7146	-2.6896	-2.4104	-1.6375	-2.6354	-2.0229	-2.1021	-2.7479	-1.8083	-2.4188	-2.4083	-54.119	166.687	-58.968	-59.800	185.277	45.522	216.927	-65.891	149.395	29.016	-46.612	61.650	139.912	160.618	217.861	87.492	2.7579e-05	0.00075354	6.1995e-05	837.35	2.9236e-06	8.6227e-06	1289.7	175.41	1.856e-06	6.6596e-06	339.82	92.438	41.743	13.204	4.4122e-06	33.777	0.00022692	0.00023324	6.8822e-05	692.72	2.5613e-06	2.6101e-06	1070.5	145.73	2.6658e-06	2.5244e-06	278.93	77.33	34.96	11.081	2.4908e-06	28.215	227.809	0.436	164.254	-68.055	67.297	91.304	-67.757	-63.289	97.034	49.526	-64.266	-59.129	-58.152	-52.861	54.503	-54.868	-8191	255	
1045.671	1	1	0	0	0.11104	0.17716	0.077043	0.28857	0.14083	0.22854	0.41782	0.15747	0.029056	0.17929	0.21197	0.27608	0.049308	0.26697	0.19021	0.090149	-1.2812	-2.6875	-2.0187	-2.0333	-2.5563	-1.9292	-2.4813	-2.5979	-1.7563	-2.6937	-2.2458	-1.9542	-2.6229	-1.8646	-2.375	-2.5979	52.208	-22.894	58.186	-16.906	88.783	70.296	172.562	221.489	-32.432	227.404	175.009	265.031	-10.845	0.896	150.356	275.473	7.0472e-05	0.00013505	0.00019219	827.37	1.0706e-06	4.5052e-06	1300.8	174.97	1.2865e-06	6.3671e-06	336.47	92.348	41.191	13.461	5.5972e-06	34.176	0.00021876	0.00024018	6.6376e-05	686.27	2.5265e-06	2.5899e-06	1076	145.88	2.7521e-06	2.4602e-06	277.8	77.358	34.493	11.307	2.6115e-06	28.727	195.025	34.233	49.340	-67.362	85.898	102.002	-67.982	-63.502	-69.740	68.314	-63.868	-59.583	-57.205	-53.015	37.881	-54.847	-8191	255	
1045.767	1	1	0	0	0.058998	0.11691	0.24348	0.07704	0.10991	0.02135	0.2561	0.075572	0.11735	0.21048	0.11196	0.17424	0.32441	0.19122	0.065234	0.14012	-1.5187	-2.4938	-2.2375	-2.0312	-2.625	-1.7917	-2.2062	-2.6979	-1.6938	-2.5229	-2.4188	-2.025	-2.8021	-2.0146	-2.1833	-2.6625	222.579	143.753	-49.292	183.221	80.575	38.806	-61.303	13.187	169.132	218.629	-10.488	219.072	23.002	212.094	212.225	76.384	5.3929e-05	0.00026018	0.00010994	827.45	1.2176e-06	6.6773e-06	1302.8	175.92	2.2713e-06	2.2908e-06	336.61	93.339	40.841	13.718	1.6973e-07	35.077	0.00022517	0.00023602	6.7955e-05	684.47	2.6562e-06	2.7362e-06	1078.1	145.87	2.6965e-06	2.6615e-06	277.45	77.988	34.608	11.464	2.5625e-06	29.289	225.875	79.875	-8.986	-68.239	33.887	86.251	-67.553	-63.263	94.203	192.768	-64.173	-59.578	-57.571	-53.063	126.127	-54.582	-8191	255	
1045.863	1	1	0	0	0.12629	0.20316	0.17839	0.04987	0.27184	0.27405	0.1341	0.11862	0.16214	0.16253	0.14602	0.19464	0.21773	0.12357	0.34116	0.14524	-1.275	-2.4208	-2.1937	-1.8625	-2.7271	-1.8542	-2.2479	-2.6437	-1.5688	-2.4708	-2.5979	-1.9479	-2.6562	-2.1458	-2.0271	-2.6375	106.691	52.639	152.829	-8.980	173.820	216.896	242.366	246.459	223.532	256.223	-69.063	91.747	118.801	120.866	-80.195	192.678	3.853e-05	0.00044277	0.00011948	822.68	1.5248e-06	4.8085e-06	1294.1	176	2.1776e-06	9.623e-06	329.98	92.062	40.535	13.59	2.0322e-06	35.052	0.00021729	0.00023004	6.6578e-05	680.78	2.4313e-06	2.5599e-06	1070	145.98	2.5996e-06	2.6052e-06	273.69	76.86	34.186	11.418	2.5352e-06	29.098	235.034	28.029	40.555	-68.082	-26.256	74.055	-67.742	-63.273	51.204	56.783	-64.108	-58.986	-57.483	-53.442	83.011	-54.204	-8191	255	
1045.959	1	1	0	0	0.35962	0.070277	0.11678	0.058362	0.038772	0.17572	0.11843	0.13561	0.32315	0.10561	0.12515	0.28087	0.068065	0.26171	0.025788	0.27265	-1.475	-2.4562	-2.4458	-1.8104	-2.7083	-2.1854	-2.0604	-2.6667	-1.8542	-2.3625	-2.4479	-1.8979	-2.5958	-2.2604	-1.8563	-2.7125	30.822	145.953	-76.347	216.655	13.988	18.414	-72.766	173.174	60.734	142.016	262.119	66.156	32.621	119.806	16.800	-7.234	7.2343e-05	0.00064815	0.00017421	823.88	3.4983e-06	4.6516e-06	1287.1	173.47	4.8357e-06	4.6382e-06	330.38	90.879	40.535	13.473	3.5416e-06	34.929	0.00021093	0.00022813	6.3632e-05	682.4	2.6385e-06	2.482e-06	1064.8	144.72	2.5413e-06	2.5201e-06	274.6	76.672	34.138	11.332	2.4878e-06	29.186	228.245	18.629	13.943	-68.373	48.379	93.759	-67.864	-63.245	80.173	56.493	-63.945	-59.190	-57.293	-52.397	37.613	-54.423	-8191	255	
1046.055	1	1	0	0	0.097092	0.2578	0.3603	0.19266	0.10459	0.0024788	0.13	0.27302	0.1901	0.33518	0.1638	0.095468	0.3482	0.099957	0.20163	0.08374	-1.4854	-2.225	-2.475	-1.8896	-2.55	-2.4229	-1.875	-2.9771	-1.95	-2.2021	-2.7438	-2.0708	-2.5708	-2.2375	-1.7146	-2.7812	-76.328	208.236	-77.370	154.856	-50.683	66.977	254.429	256.901	-72.916	4.812	256.936	145.638	-71.138	275.496	232.845	229.826	5.9238e-05	0.00023385	0.00013498	830.21	5.5285e-06	5.2172e-06	1289.7	174.16	1.521e-06	2.7265e-06	332.59	92.065	40.508	13.573	3.9014e-06	35.108	0.0002152	0.00022592	6.2951e-05	683.27	2.538e-06	2.4103e-06	1071	145.15	2.6189e-06	2.5663e-06	275.6	77.176	34.327	11.399	2.4409e-06	29.28	221.684	61.841	-20.236	-68.116	114.688	18.838	-67.443	-62.857	116.511	78.859	-64.110	-59.634	-56.422	-53.342	17.633	-53.964	-8191	255	
1046.150	1	1	0	0	0.12826	0.1692	0.12017	0.33347	0.13139	0.087318	0.1845	0.06254	0.27021	0.11667	0.1435	0.098582	0.17144	0.075346	0.034305	0.071596	-1.6313	-2.1646	-2.4875	-1.8062	-2.5333	-2.3937	-1.8708	-2.6521	-2.0333	-2.1729	-2.8271	-1.8771	-2.2979	-2.4146	-1.8708	-2.55	159.703	205.902	-9.016	102.725	-18.047	147.961	208.460	220.789	134.441	216.758	-80.061	54.016	276.689	10.549	214.091	167.254	3.8372e-05	0.00054092	9.4265e-05	837.29	2.219e-06	5.5805e-06	1286.3	174.75	1.1829e-06	7.2023e-06	334.59	92.597	41.045	13.856	4.7302e-06	35.03	0.00021347	0.00022901	6.3722e-05	686.53	2.5522e-06	2.5113e-06	1069.9	144.75	2.7349e-06	2.4789e-06	276.96	77.789	34.483	11.636	2.5136e-06	29.617	174.962	65.360	68.226	-67.318	142.797	51.651	-67.680	-62.902	141.953	53.519	-64.431	-59.474	-56.644	-52.971	66.661	-54.456	-8191	255	
1046.247	1	1	0	0	0.18727	0.088576	0.25362	0.1436	0.047427	0.059228	0.22998	0.19607	0.31741	0.16895	0.33007	0.34763	0.24067	0.18093	0.12697	0.29206	-1.8125	-1.9833	-2.6542	-1.8875	-2.3396	-2.4729	-1.7938	-2.5458	-2.0521	-1.9333	-2.8167	-1.7083	-2.1875	-2.7333	-1.7542	-2.5625	-68.404	275.410	130.821	152.805	67.803	-56.187	197.441	122.476	66.443	140.934	160.946	220.752	160.791	45.538	89.416	180.574	3.7913e-05	0.00024397	0.00010902	832.65	1.7626e-06	2.6627e-06	1286.4	175	4.2156e-06	4.6317e-06	331.94	90.778	40.263	13.609	1.064e-06	34.998	0.00021858	0.00023112	6.2077e-05	686.23	2.6578e-06	2.5085e-06	1069.4	145.9	2.6866e-06	2.5256e-06	275.25	76.722	34.244	11.474	2.4793e-06	29.439	196.730	12.064	81.619	-68.047	183.594	114.525	-67.867	-63.172	71.991	81.880	-64.446	-59.223	-57.080	-53.140	87.541	-54.165	-8191	255	
1046.366	1	1	0	0	0.15811	0.12636	0.16958	0.37874	0.22296	0.21714	0.38006	0.22293	0.16462	0.080159	0.13824	0.19448	0.25913	0.0089242	0.082518	0.19319	-1.9458	-1.7583	-2.6167	-2.1021	-1.8771	-2.65	-1.85	-2.45	-2.3125	-1.6	-2.7167	-2.2438	-2.2708	-2.7646	-1.7083	-2.525	-73.624	-63.214	171.693	235.921	136.417	181.273	226.756	180.835	199.798	115.053	2.072	242.978	210.833	229.670	156.653	-53.545	7.9348e-05	0.00033437	8.38e-05	816.62	4.5818e-06	3.1654e-06	1287.6	173.51	3.5429e-06	6.5208e-06	331.15	91.389	40.109	13.655	2.2276e-06	34.751	0.00020892	0.00022745	6.0336e-05	676.99	2.5326e-06	2.3006e-06	1065.1	144.96	2.4346e-06	2.4602e-06	274.3	76.818	34.069	11.5	2.4465e-06	29.169	199.180	-7.434	-18.855	-67.552	115.083	-9.307	-67.899	-63.408	29.790	35.016	-64.119	-59.471	-57.328	-53.575	151.031	-54.096	-8191	255	
1046.461	1	1	0	0	0.097913	0.17879	0.3036	0.37874	0.12743	0.19552	0.2598	0.28806	0.20527	0.19832	0.042199	0.15292	0.16158	0.3478	0.28185	0.21216	-1.8312	-1.6583	-2.6	-2.0354	-1.9688	-2.5979	-1.9479	-2.4042	-2.2271	-1.7125	-2.7979	-2.2958	-1.9438	-2.8	-1.7521	-2.3167	138.900	185.589	213.229	277.051	247.610	133.568	209.127	180.489	252.498	63.519	254.392	215.835	-80.389	262.052	248.896	248.441	6.4591e-05	0.00046271	0.00015473	826.98	2.6534e-06	4.2023e-06	1289.3	173.73	2.7303e-06	7.1303e-06	327.5	91.251	40.347	13.604	4.8721e-06	35.295	0.000211	0.00022208	6.1577e-05	681.6	2.4835e-06	2.5637e-06	1066.2	144.9	2.4658e-06	2.5472e-06	273.57	76.999	34.125	11.455	2.6537e-06	29.47	199.151	-41.889	17.151	-67.385	150.026	2.268	-68.255	-62.641	84.690	61.264	-63.940	-58.775	-56.824	-52.742	76.700	-54.465	-8191	255	
1046.559	1	1	0	0	0.19477	0.27811	0.12955	0.21924	0.20114	0.029186	0.10458	0.12375	0.11862	0.25014	0.20175	0.24114	0.32451	0.051674	0.33668	0.089401	-2.2292	-1.9375	-2.6021	-2.1792	-1.7729	-2.6896	-2.1896	-2.3333	-2.5479	-1.7687	-2.5687	-2.3625	-1.8333	-2.8312	-1.9312	-2.1437	197.552	199.545	137.366	87.005	-25.189	33.924	206.078	249.009	268.699	-36.216	261.588	80.992	243.018	-78.752	-4.535	-49.848	5.298e-05	0.00051164	0.00014627	820.29	3.3694e-06	1.1006e-06	1301.7	175.81	2.2677e-06	1.6288e-06	332.1	91.92	40.787	13.818	2.1119e-06	35.869	0.00020975	0.00023235	6.2931e-05	682.83	2.5353e-06	2.5314e-06	1073.5	145.82	2.4348e-06	2.6176e-06	276.8	77.502	34.489	11.584	2.5535e-06	29.802	212.204	-11.232	66.494	-68.299	63.322	70.517	-67.496	-63.036	71.045	117.347	-63.803	-58.785	-57.741	-52.758	58.436	-54.035	-8191	255	
1046.653	1	1	0	0	0.070896	0.20037	0.059658	0.015887	0.14463	0.18955	0.030621	0.13933	0.24035	0.20876	0.15547	0.052644	0.15982	0.069959	0.15821	0.14607	-2.2125	-1.5833	-2.3542	-2.3042	-1.6875	-2.5604	-2.275	-1.9979	-2.4938	-1.8229	-2.4562	-2.4292	-1.6375	-2.7146	-2.2479	-2.0438	169.424	123.650	152.338	19.862	-21.314	-77.353	14.361	153.082	212.736	26.360	-76.104	-53.742	-67.939	37.521	161.636	106.940	7.4705e-05	0.00045911	5.0735e-05	828.45	1.4563e-06	4.4348e-06	1288.8	175.65	1.2483e-06	1.6528e-06	334.08	91.175	40.698	13.494	5.2653e-07	34.722	0.00022802	0.00022799	6.1772e-05	686.98	2.62e-06	2.5306e-06	1072.5	145.81	2.5651e-06	2.6344e-06	276	77.017	34.358	11.416	2.5344e-06	29.171	165.780	12.925	44.429	-67.901	148.134	46.097	-67.603	-63.067	68.713	159.361	-64.354	-58.882	-57.079	-52.805	82.398	-54.027	-8191	255	
1046.749	1	1	0	0	0.25719	0.05438	0.31613	0.079581	0.12433	0.35955	0.18186	0.016051	0.10529	0.15135	0.14403	0.11349	0.38148	0.20919	0.22627	0.34695	-2.5062	-1.8833	-2.2396	-2.5854	-1.7729	-2.5417	-2.3063	-1.8521	-2.6583	-1.7563	-2.3438	-2.6667	-1.5604	-2.4792	-2.1146	-1.8542	259.081	116.970	73.487	237.003	-38.422	211.571	198.664	79.785	-23.277	212.362	-0.107	-56.059	-63.955	-59.955	248.376	161.905	7.0703e-05	0.00021189	4.4334e-05	818.1	5.0119e-06	5.8587e-06	1278	173.27	2.1277e-06	2.5112e-06	332.77	91.498	40.305	13.459	4.4857e-06	34.68	0.00020673	0.00023439	6.5516e-05	680.12	2.6301e-06	2.4328e-06	1063.3	144.67	2.5884e-06	2.5688e-06	274.51	76.462	34.191	11.357	2.6873e-06	28.934	165.897	208.550	77.292	-67.797	101.160	91.437	-67.824	-62.780	93.200	118.418	-63.447	-58.891	-56.881	-52.989	61.914	-54.198	-8191	255	
1046.870	1	1	0	0	0.21033	0.21388	0.12011	0.14843	0.2007	0.018039	0.086043	0.089072	0.18302	0.19262	0.10444	0.00924	0.16576	0.086055	0.054491	0.3412	-2.3208	-1.8958	-2.2021	-2.4896	-1.6542	-2.425	-2.5896	-1.7604	-2.6896	-1.8292	-2.0354	-2.6125	-1.7354	-2.3646	-2.2833	-1.7437	226.143	60.757	118.686	267.813	271.554	155.172	218.934	215.965	-48.926	8.499	197.184	196.061	230.685	68.214	-4.712	252.929	0.00010676	0.0002821	0.00011349	820.6	3.3353e-06	3.1102e-06	1289.8	172.42	1.3283e-06	2.9888e-06	330.58	91.703	40.426	13.536	8.0221e-07	34.582	0.00021502	0.00022949	6.4119e-05	679.54	2.5738e-06	2.6583e-06	1066.3	144.03	2.479e-06	2.4531e-06	275.66	76.771	34.262	11.383	2.4383e-06	28.98	193.326	-29.757	29.920	-67.650	130.172	89.352	-67.531	-63.173	148.774	80.376	-64.089	-59.048	-57.046	-51.631	183.257	-53.685	-8191	255	
1046.966	1	1	0	0	0.080314	0.063219	0.04877	0.18606	0.35656	0.11032	0.18538	0.23822	0.08012	0.27777	0.10974	0.095482	0.29533	0.13171	0.18141	0.21221	-2.2042	-1.8792	-1.9646	-2.7625	-1.5979	-2.5271	-2.5833	-1.8417	-2.475	-1.9396	-2.0271	-2.6562	-1.7313	-2.375	-2.5042	-1.75	-54.219	252.231	72.871	266.825	65.390	175.126	136.876	178.847	211.237	71.970	219.629	-11.313	222.262	-4.320	171.815	181.640	5.754e-05	0.00042715	5.9972e-05	823.93	3.1979e-06	4.0238e-06	1290.3	174.51	1.805e-06	2.6574e-06	331.29	91.197	40.83	13.41	2.9538e-06	34.439	0.0002108	0.00023074	6.3586e-05	683.2	2.5843e-06	2.5569e-06	1072.2	145.17	2.5541e-06	2.5466e-06	276.61	77.049	34.337	11.35	2.5302e-06	28.892	227.063	-72.305	73.592	-67.915	13.858	-29.328	-67.504	-62.756	92.402	60.194	-63.888	-58.946	-57.931	-52.203	124.804	-53.535	-8191	255	
1047.062	1	1	0	0	0.14339	0.02929	0.13972	0.28868	0.16412	0.20459	0.16054	0.10867	0.11675	0.17612	0.22316	0.17678	0.20531	0.25731	0.23803	0.16681	-2.1854	-2.1667	-1.8792	-2.3958	-1.7313	-2.2417	-2.6646	-1.8042	-2.4667	-1.9813	-1.9333	-2.7229	-1.8583	-2.0417	-2.5792	-1.7521	63.636	98.381	152.099	247.143	225.891	99.678	146.784	245.766	272.450	222.684	256.068	191.964	131.088	-40.933	-0.290	162.789	4.2035e-05	0.00056705	6.5916e-05	837.77	3.2658e-06	5.3633e-06	1294.5	176.66	1.4888e-06	4.6877e-06	334.22	91.35	40.753	13.23	8.6238e-07	34.117	0.0002113	0.00024578	6.58e-05	690.17	2.5124e-06	2.7269e-06	1075.9	146.1	2.4871e-06	2.5588e-06	276.97	76.597	34.203	11.253	2.4848e-06	28.667	234.540	-15.199	83.559	-67.700	9.902	38.597	-67.855	-63.021	3.826	139.562	-63.904	-59.148	-57.333	-53.061	156.706	-54.102	-8191	255	
1047.158	1	1	0	0	0.12921	0.17216	0.05851	0.1308	0.19681	0.33609	0.43241	0.19918	0.022204	0.16427	0.14217	0.043826	0.022908	0.2193	0.17645	0.26324	-2.1125	-2.2229	-1.6458	-2.825	-2.0125	-2.0354	-2.8208	-1.8479	-2.3958	-2.1021	-1.9896	-2.5833	-1.9	-2.1146	-2.4979	-1.8687	-14.990	209.534	169.311	245.503	138.741	127.303	232.343	205.865	232.356	140.451	229.260	178.243	160.570	49.336	253.327	214.327	7.661e-05	0.00060562	0.00011328	825.98	5.0952e-07	4e-06	1286.4	173.46	2.4663e-06	9.3125e-06	329.71	90.879	40.052	13.384	3.3602e-06	33.918	0.00022441	0.00025188	6.5039e-05	681.72	2.5109e-06	2.6269e-06	1063.1	144.52	2.6305e-06	2.757e-06	273.91	76.3	34.13	11.198	2.7354e-06	28.351	190.748	54.740	8.482	-67.475	-31.046	44.608	-67.738	-62.994	8.868	91.431	-64.101	-59.031	-57.615	-52.761	112.240	-54.461	-8191	255	
1047.254	1	1	0	0	0.3238	0.21847	0.22983	0.19674	0.12995	0.17684	0.14861	0.13509	0.094127	0.060164	0.20899	0.044289	0.2719	0.21573	0.14221	0.36697	-2.0896	-2.3646	-1.7646	-2.6833	-2.2083	-1.8438	-2.8083	-1.6938	-2.3833	-2.5	-1.9458	-2.7208	-2.0542	-1.8458	-2.5563	-1.9688	269.114	117.511	-57.911	246.548	242.953	77.196	232.201	-58.729	274.591	138.390	251.765	209.157	205.749	222.007	152.605	247.330	4.5331e-05	0.0002921	9.9747e-05	828.88	9.4641e-07	1.5906e-06	1281.3	172.95	3.7274e-06	4.6396e-06	333.97	91.823	40.443	13.188	9.9893e-07	33.645	0.000222	0.00024291	6.9904e-05	683.58	2.7872e-06	2.8246e-06	1063.6	143.99	2.6771e-06	2.6641e-06	275.48	76.39	33.948	11.101	2.5761e-06	28.356	242.968	-46.323	65.910	-67.846	0.980	5.930	-67.959	-63.342	50.855	28.134	-63.917	-59.218	-57.277	-52.510	134.837	-54.026	-8191	255	
1047.351	1	1	0	0	0.2537	0.12268	0.23956	0.1702	0.069895	0.056521	0.32907	0.090558	0.13695	0.17847	0.11029	0.16584	0.1549	0.27509	0.14572	0.12379	-2.0271	-2.6083	-2.05	-2.4979	-2.1021	-1.8625	-2.9188	-2.05	-2.0687	-2.5667	-1.8229	-2.5917	-2.3021	-1.775	-2.4729	-2.0938	7.869	138.499	222.976	-2.891	46.573	155.868	165.617	222.286	72.878	57.667	-65.180	241.124	272.267	-37.162	30.085	252.748	2.9967e-05	0.00057323	8.1739e-05	833.22	4.8116e-06	5.894e-06	1306.5	173.74	1.3037e-06	1.8476e-06	331.11	91.235	40.343	13.197	3.5965e-07	34.053	0.00023638	0.00024316	6.9861e-05	683.84	2.6757e-06	2.5962e-06	1078.2	144.85	2.7711e-06	2.8704e-06	276.12	76.865	34.281	11.174	2.8053e-06	28.498	241.819	-1.508	12.212	-67.275	24.779	52.540	-68.074	-62.675	3.001	94.452	-63.904	-59.138	-57.707	-52.825	-13.911	-54.211	-8191	255	
1047.447	1	1	0	0	0.19162	0.028923	0.091989	0.077484	0.14472	0.12541	0.45711	0.083859	0.045884	0.38366	0.24389	0.1212	0.17012	0.21433	0.20247	0.17962	-1.8229	-2.6813	-1.7167	-2.375	-2.1479	-1.8646	-2.6208	-1.9375	-1.9125	-2.7333	-1.6063	-2.4729	-2.4542	-1.6292	-2.7479	-2.2354	220.046	261.853	99.093	-53.095	56.845	27.120	235.517	254.742	176.041	191.936	260.956	240.211	48.026	-67.063	109.687	207.906	1.7154e-05	0.00026471	7.3051e-05	836.31	5.6225e-06	5.4725e-06	1299.7	175.46	1.831e-06	6.3192e-06	335.73	91.256	40.844	13.154	3.704e-06	33.62	0.00022985	0.00024515	7.0778e-05	690.41	2.7406e-06	2.8168e-06	1079.5	146.03	2.7404e-06	2.7781e-06	277.9	77.11	34.488	11.123	2.5888e-06	28.117	256.829	5.220	24.469	-67.899	31.821	78.812	-67.865	-62.876	104.212	85.212	-64.117	-59.031	-57.154	-52.557	79.571	-54.748	-8191	255	
1047.541	1	1	0	0	0.18622	0.088519	0.28543	0.19788	0.18	0.14692	0.14989	0.19497	0.16423	0.36951	0.04257	0.094199	0.15832	0.25304	0.15753	0.11542	-1.5458	-2.7125	-1.6375	-2.6208	-2.5542	-1.5771	-2.7042	-2.1646	-1.7625	-2.7021	-1.8813	-2.2958	-2.3875	-1.925	-2.5875	-2.25	265.319	-39.442	102.107	277.385	208.138	44.506	-0.192	222.136	189.584	16.953	176.639	-62.506	67.914	-14.416	192.090	253.981	5.24e-05	0.00023657	0.00010341	836.37	5.4121e-06	3.8356e-06	1291.9	173.38	2.6682e-06	3.7779e-06	335.71	90.643	40.621	13.006	2.0325e-06	32.999	0.00023441	0.00023362	6.816e-05	691.38	2.7254e-06	2.6472e-06	1072.1	145.33	2.8252e-06	2.7666e-06	276.51	76.269	34.331	10.911	2.6102e-06	27.681	253.176	62.300	-47.288	-67.501	91.524	127.171	-67.360	-62.970	274.310	278.604	-63.923	-59.161	-57.371	-52.677	127.693	-53.633	-8191	255	
1047.662	1	1	0	0	0.30444	0.16601	0.07817	0.11235	0.30389	0.026416	0.45233	0.11454	0.073393	0.078006	0.27311	0.18411	0.13265	0.10109	0.22666	0.14359	-1.6208	-2.6458	-1.8021	-2.2062	-2.6458	-1.6479	-2.7458	-2.2958	-1.8813	-2.5396	-1.8937	-2.2708	-2.7792	-1.7333	-2.4875	-2.5021	196.907	58.800	272.679	155.294	203.710	80.072	223.773	74.458	-64.366	-26.461	178.796	217.734	129.939	8.627	236.779	-38.629	4.1941e-05	0.00013812	8.7264e-05	839.17	1.5797e-06	4.3361e-06	1291	174.92	1.0029e-06	1.4608e-06	331.76	91.154	40.732	12.969	4.004e-06	33.124	0.00022827	0.00023815	6.7402e-05	689.43	2.5893e-06	2.6367e-06	1073.6	145.51	2.6079e-06	2.4636e-06	275.33	76.453	34.387	10.913	2.632e-06	27.69	236.160	2.418	172.443	-67.717	137.250	77.405	-67.864	-63.433	-31.979	211.841	-64.017	-59.356	-57.722	-53.449	71.486	-54.333	-8191	255	
1047.758	1	1	0	0	0.11926	0.19336	0.14198	0.1491	0.080169	0.19712	0.083597	0.11393	0.17865	0.1741	0.19451	0.072523	0.18816	0.16526	0.11119	0.19312	-1.3042	-2.5292	-1.8563	-2.1917	-2.65	-1.9167	-2.6625	-2.6229	-1.8917	-2.7542	-2.1583	-1.8333	-2.65	-1.7875	-2.3396	-2.6771	-29.152	138.466	134.764	272.999	34.074	198.242	204.401	-70.634	158.565	87.157	47.944	252.450	-57.815	-42.676	121.472	138.598	2.6013e-05	0.00038189	6.6322e-05	838.7	3.449e-06	3.7794e-06	1302.4	176.34	1.876e-06	9.275e-06	334.91	91.372	40.965	12.719	3.5758e-06	32.345	0.00021665	0.00025133	6.6714e-05	691.36	2.6809e-06	2.6818e-06	1080.5	146.64	2.7632e-06	2.7501e-06	278.82	76.8	34.795	10.722	2.6652e-06	27.178	174.944	1.834	82.276	-67.869	35.784	-10.039	-67.793	-63.423	35.912	82.672	-64.530	-59.500	-58.283	-52.560	84.820	-54.113	-8191	255	
1047.854	1	1	0	0	0.12727	0.22415	0.028843	0.077091	0.10259	0.37531	0.28853	0.17122	0.11421	0.21379	0.066978	0.083742	0.036184	0.050086	0.14278	0.14247	-1.3292	-2.5521	-2.0438	-2.0625	-2.9021	-1.7417	-2.2979	-2.5292	-1.6979	-2.5812	-2.2917	-1.9042	-2.6937	-1.8292	-2.1646	-2.5417	228.600	154.660	71.901	170.124	168.231	-30.031	150.714	220.492	96.028	257.548	102.062	208.091	-74.791	50.182	-21.684	267.447	4.7012e-05	0.00011336	8.0926e-05	844.73	3.3785e-06	3.2752e-06	1317.7	175.84	8.7929e-07	6.1324e-06	342.7	92.016	41.447	12.766	4.0178e-06	31.779	0.00023473	0.00023661	7.14e-05	697.38	2.7251e-06	2.8819e-06	1086.3	147.59	2.8452e-06	2.6347e-06	281.51	77.112	35.137	10.667	2.6109e-06	26.605	182.518	-50.947	-32.375	-68.117	30.364	90.173	-67.559	-63.133	16.884	12.917	-64.089	-59.235	-57.758	-52.414	148.498	-54.288	-8191	255	
1047.950	1	1	0	0	0.17891	0.19581	0.076793	0.29768	0.15299	0.075025	0.21528	0.20746	0.10197	0.12651	0.17867	0.16667	0.15988	0.19088	0.12399	0.082301	-1.4875	-2.5062	-2.2479	-1.8792	-2.6	-1.9292	-2.2125	-2.7521	-1.6542	-2.2896	-2.4938	-1.8271	-2.7313	-2.0354	-1.8854	-2.7042	225.507	120.061	249.230	221.711	-54.238	-36.629	202.975	257.611	71.284	-64.685	13.433	200.107	121.932	227.899	232.858	49.045	3.8138e-05	0.00021987	0.00018493	839.03	2.5774e-06	5.2737e-06	1299.2	177.55	1.0885e-06	5.0282e-06	335.07	90.446	41.577	12.527	5.5129e-06	32.066	0.00022981	0.00024924	6.9639e-05	698.52	2.5454e-06	2.7847e-06	1078.3	147.38	2.5883e-06	2.612e-06	277.83	76.318	34.917	10.574	2.6318e-06	26.589	145.802	46.590	2.133	-67.416	-5.763	17.289	-67.704	-62.672	80.579	142.181	-63.932	-59.157	-57.814	-52.861	56.542	-54.380	-8191	255	
1048.046	1	1	0	0	0.19877	0.052056	0.11986	0.049684	0.17963	0.15848	0.37972	0.14291	0.11535	0.18705	0.092214	0.12726	0.080126	0.14734	0.36364	0.20497	-1.2188	-2.1854	-2.4437	-1.7375	-2.725	-2.1042	-2.1729	-2.7396	-1.7292	-2.3458	-2.625	-1.7771	-2.7229	-2.2792	-1.7396	-2.7792	-71.154	21.031	135.683	-23.230	-40.171	217.730	224.745	213.197	209.009	205.611	262.692	-41.437	233.099	201.012	263.876	203.284	3.9566e-05	0.0005378	9.9161e-05	834.66	3.6824e-06	1.2297e-06	1308.5	177.35	3.4296e-06	9.9564e-07	336.44	90.222	41.186	12.688	3.2229e-06	32.203	0.00021646	0.00024239	6.2821e-05	694.91	2.5584e-06	2.4758e-06	1083.5	147.05	2.5624e-06	2.5283e-06	278.28	76.258	34.835	10.628	2.6298e-06	26.959	252.013	11.258	91.898	-68.260	41.175	199.577	-67.564	-62.950	55.877	1.689	-64.526	-59.585	-57.873	-52.493	84.663	-54.386	-8191	255	
1048.142	1	1	0	0	0.23384	0.34063	0.22641	0.27337	0.19902	0.16726	0.36376	0.028103	0.21751	0.098709	0.19942	0.50989	0.02084	0.12006	0.11608	0.097252	-1.4125	-2.2687	-2.7188	-1.7875	-2.5875	-2.275	-1.9979	-2.7146	-2.0417	-2.2417	-2.6813	-1.8438	-2.2792	-2.2417	-1.8021	-2.8792	138.279	269.555	44.083	-58.911	65.874	165.824	231.649	60.469	84.980	34.901	-80.871	220.929	24.512	242.365	256.000	252.271	1.6948e-05	0.00071838	0.00013364	845.43	5.2638e-07	3.2794e-06	1301.9	178.68	1.2036e-06	2.3961e-06	337.25	90.901	40.862	12.754	3.6336e-06	32.876	0.00022569	0.00023312	6.5221e-05	696.96	2.7021e-06	2.5633e-06	1078.3	147.27	2.6354e-06	2.6036e-06	278	76.491	34.725	10.855	2.6429e-06	27.631	198.006	-11.321	-3.715	-67.884	57.984	44.257	-67.932	-63.365	89.433	197.453	-64.049	-59.506	-58.302	-53.062	22.674	-53.702	-8191	255	
1048.239	1	1	0	0	0.21874	0.21956	0.12636	0.20035	0.33756	0.10324	0.087616	0.30299	0.082424	0.43985	0.27309	0.22522	0.16872	0.14309	0.12802	0.22954	-1.4542	-1.9604	-2.7958	-1.95	-2.1188	-2.4292	-1.9438	-2.6646	-2.1333	-2.0375	-2.6854	-1.7542	-2.5417	-2.4313	-1.875	-2.7854	34.399	34.197	210.785	-75.722	76.363	-49.995	219.494	-36.681	154.211	102.453	200.073	212.443	260.426	-80.866	83.686	194.132	1.2986e-05	0.00031354	2.8109e-05	846.15	2.2046e-06	4.4284e-06	1300.3	175.45	1.1931e-06	2.2833e-06	336.5	92.842	40.871	12.835	2.8463e-06	33.229	0.00021948	0.00024556	6.8673e-05	693.81	2.6798e-06	2.5675e-06	1078.9	145.91	2.5061e-06	2.6414e-06	279	77.379	34.766	10.853	2.5355e-06	27.706	173.183	-55.534	122.035	-67.735	3.938	38.314	-67.676	-62.963	107.606	-4.329	-64.178	-58.654	-57.369	-53.057	31.455	-54.392	-8191	255	
1048.359	1	1	0	0	0.12976	0.10368	0.20092	0.30474	0.052744	0.22528	0.25526	0.073699	0.23595	0.29238	0.35686	0.072122	0.16033	0.16724	0.31015	0.1148	-1.6604	-2.0771	-2.6896	-1.9042	-2.1833	-2.7229	-2.0146	-2.6083	-2.1646	-1.8875	-2.8312	-2.0396	-2.3	-2.5854	-1.8021	-2.4938	268.749	73.944	173.528	-65.391	64.163	-8.601	221.184	106.611	246.705	146.388	204.429	231.874	235.919	-48.406	-61.026	-80.453	2.5458e-05	0.00045793	0.00014796	838.98	1.2703e-06	2.9959e-06	1289.4	175.56	5.2157e-06	7.5166e-06	334.36	90.92	41.177	12.827	3.5907e-06	32.432	0.00021058	0.0002303	6.6389e-05	693.72	2.6838e-06	2.4027e-06	1072	146.35	2.6007e-06	2.6654e-06	275.94	76.353	34.545	10.809	2.4528e-06	27.319	204.831	-14.739	96.772	-67.414	175.735	240.931	-67.739	-62.737	86.499	87.174	-64.077	-59.009	-57.169	-53.045	31.513	-54.077	-8191	255	
1048.454	1	1	0	0	0.15028	0.17793	0.14342	0.080722	0.36647	0.0757	0.29836	0.13924	0.228	0.05012	0.11814	0.15746	0.16034	0.12388	0.17441	0.065468	-1.9979	-1.8333	-2.5146	-1.8563	-1.9479	-2.6	-1.9229	-2.5292	-2.5271	-1.8354	-2.8583	-2.0312	-1.8875	-2.6354	-1.8542	-2.3083	58.226	65.317	110.203	184.467	260.533	-76.450	-58.966	230.305	121.721	122.892	-9.781	-2.662	125.196	232.191	85.601	228.743	6.7762e-05	0.00035379	0.00011681	824.46	2.9424e-06	1.2998e-06	1292.7	174.18	2.1135e-06	3.9237e-06	334.72	90.472	40.76	13.082	1.8245e-06	33.606	0.00021324	0.00022947	6.6247e-05	686.74	2.4374e-06	2.4061e-06	1072.5	145.19	2.3805e-06	2.3969e-06	276.63	76.417	34.545	10.972	2.3585e-06	28.072	202.443	22.965	2.049	-67.986	-14.759	226.554	-67.955	-62.438	150.385	96.554	-63.911	-58.775	-57.655	-53.364	139.253	-53.831	-8191	255	
1048.552	1	1	0	0	0.19022	0.14059	0.19343	0.12127	0.18052	0.21124	0.30264	0.28301	0.16955	0.038774	0.13223	0.39866	0.090378	0.25718	0.15792	0.092301	-2.0958	-1.8354	-2.6188	-2.0104	-1.8646	-2.7125	-1.9979	-2.2313	-2.5917	-1.7563	-2.7271	-2.2729	-1.9875	-2.8292	-1.8167	-2.3396	131.528	125.550	49.841	151.687	-10.602	125.943	233.157	231.522	-27.625	118.182	227.703	241.407	51.322	-39.349	13.726	163.752	6.1517e-05	0.00022691	3.2491e-05	839.44	2.9919e-06	2.1696e-06	1293.1	175.6	5.8639e-07	4.2791e-06	335.91	90.552	40.632	13.492	1.7912e-06	34.238	0.00020914	0.00022569	6.0339e-05	686.38	2.4706e-06	2.4992e-06	1074.1	145.73	2.3738e-06	2.3899e-06	276.98	76.797	34.536	11.245	2.3529e-06	28.707	198.368	-15.420	24.160	-68.056	57.224	57.822	-67.782	-62.515	-12.322	105.183	-64.247	-59.376	-57.393	-52.925	86.207	-54.310	-8191	255	
1048.646	1	1	0	0	0.19555	0.23472	0.19674	0.14977	0.23014	0.19884	0.16649	0.37282	0.24683	0.19544	0.23627	0.084928	0.15001	0.096484	0.2582	0.056103	-2.3187	-1.8083	-2.5396	-2.2938	-1.9521	-2.8063	-2.0021	-2.3521	-2.4167	-1.6187	-2.5417	-2.3104	-1.6396	-2.5292	-1.9021	-2.0771	266.135	-39.891	165.267	252.085	110.465	102.552	201.851	242.488	149.390	90.128	-49.403	158.499	-0.754	269.416	-48.145	230.996	4.1726e-05	0.00027231	7.1914e-05	838.93	2.8059e-06	1.9024e-06	1308.5	174.64	1.2732e-06	3.5468e-06	336.98	92.508	41.517	13.476	2.907e-06	34.24	0.00021077	0.00022736	6.0925e-05	691.77	2.5932e-06	2.3388e-06	1083.6	146.7	2.2933e-06	2.3244e-06	279.5	77.812	34.825	11.235	2.4206e-06	28.608	166.328	-28.237	30.375	-67.882	103.247	17.109	-67.794	-63.194	39.002	79.399	-64.272	-59.544	-57.694	-53.100	24.943	-54.113	-8191	255	
1048.742	1	1	0	0	0.16402	0.070774	0.19226	0.30915	0.30179	0.15472	0.32721	0.29826	0.14971	0.39594	0.3033	0.23981	0.15805	0.13512	0.28467	0.13892	-2.2438	-1.7271	-2.4854	-2.3354	-1.8229	-2.7292	-2.1333	-1.9708	-2.725	-1.6625	-2.5208	-2.6792	-1.7396	-2.4813	-2.0042	-2.0604	9.048	263.866	47.764	-0.090	23.382	-35.801	172.499	82.201	42.336	174.391	-65.522	251.454	-3.294	120.607	-73.521	277.616	6.4999e-05	0.00063685	0.00011508	837.6	4.8728e-07	5.6502e-06	1304.3	176.21	3.6745e-06	3.5913e-06	336.87	91.827	41.201	13.124	3.1273e-06	33.484	0.00021175	0.00022786	6.4195e-05	693.19	2.5043e-06	2.4511e-06	1081.1	147.16	2.5585e-06	2.3773e-06	279.42	77.13	34.709	11.079	2.4354e-06	28.091	238.496	32.313	96.017	-68.090	-77.519	30.755	-67.760	-63.076	155.220	63.208	-63.572	-59.694	-57.616	-53.064	55.052	-54.139	-8191	255	
1048.838	1	1	0	0	0.065628	0.17706	0.014305	0.15265	0.25981	0.11469	0.13707	0.13355	0.13503	0.14087	0.42907	0.15196	0.33758	0.28477	0.046896	0.02302	-2.3312	-1.9	-2.1646	-2.5812	-2.0312	-2.6229	-2.1667	-2.0417	-2.7521	-1.8875	-2.4229	-2.5438	-2.0104	-2.7271	-2.1417	-1.8687	17.819	69.197	13.003	145.111	-43.513	67.084	-79.402	256.357	40.863	52.428	245.352	79.584	116.818	191.081	-56.098	26.979	3.2163e-05	4.8293e-05	0.00020525	837.76	4.4666e-06	3.2489e-06	1301.9	175.08	2.9485e-06	2.5482e-06	337.56	92.855	41.488	13.118	3.0155e-06	33.468	0.00019141	0.00021921	6.4811e-05	693.14	2.4812e-06	2.519e-06	1078.7	145.85	2.4429e-06	2.5581e-06	278.91	77.494	34.805	11.05	2.4155e-06	28.108	201.690	56.392	25.799	-67.530	140.299	9.082	-67.732	-62.851	149.160	180.605	-63.872	-59.696	-57.677	-52.241	112.102	-54.567	-8191	255	
1048.934	1	1	0	0	0.18793	0.10468	0.16068	0.11545	0.29222	0.25541	0.27783	0.21642	0.21432	0.20714	0.1281	0.10871	0.024815	0.23617	0.07837	0.25686	-2.3896	-1.8708	-2.1688	-2.675	-1.6083	-2.4917	-2.3979	-1.7354	-2.7687	-1.9396	-2.1104	-2.7812	-1.6333	-2.4521	-2.3146	-1.9	87.814	202.523	29.336	152.485	-55.514	117.367	210.550	111.891	104.985	246.938	42.022	99.464	129.153	247.186	261.178	163.092	3.9154e-05	0.00055844	0.000127	834.84	2.7497e-06	6.0547e-06	1299	174.09	3.1695e-06	1.8871e-06	335.44	92.186	41.387	13.278	3.5838e-06	34.232	0.00021124	0.00020629	6.0968e-05	690.3	2.521e-06	2.3825e-06	1081.1	145.93	2.2896e-06	2.2831e-06	279.35	77.78	34.857	11.212	2.2451e-06	28.8	227.207	23.761	27.365	-68.320	39.916	35.569	-67.516	-63.445	77.366	105.217	-63.540	-59.559	-57.783	-53.011	78.499	-53.426	-8191	255	
1049.055	1	1	0	0	0.1085	0.075098	0.13623	0.21708	0.36015	0.047589	0.29513	0.052829	0.14489	0.19322	0.34292	0.23304	0.31461	0.26751	0.24027	0.48122	-2.2083	-1.9937	-1.9208	-2.6813	-1.7479	-2.3417	-2.5646	-1.8937	-2.3312	-2.15	-2.1146	-2.6625	-1.7292	-2.3	-2.525	-1.7042	27.063	256.979	261.183	177.012	229.699	261.348	236.507	90.384	92.560	-81.373	185.278	172.980	221.749	225.866	149.759	244.033	8.341e-05	0.00030457	0.00011624	838.34	1.3326e-06	1.3638e-07	1317.1	176.51	3.2405e-06	4.9948e-06	340.72	95.665	41.262	13.586	2.0489e-06	35.619	0.00019429	0.00020514	5.8062e-05	695.67	2.3741e-06	2.2885e-06	1092.7	147.26	2.1548e-06	2.2948e-06	282.87	79.493	35.023	11.481	2.2552e-06	29.596	224.951	28.059	4.636	-68.112	-33.006	155.260	-67.972	-63.434	68.689	43.166	-64.070	-59.895	-57.325	-52.847	-39.316	-54.104	-8191	255	
1049.127	1	1	0	0	0.1278	0.19954	0.12385	0.1942	0.19138	0.049558	0.27514	0.076382	0.14823	0.11686	0.23776	0.21157	0.20943	0.11755	0.13994	0.027429	-2.2792	-2.0229	-1.925	-2.7438	-1.5396	-2.225	-2.6146	-1.7229	-2.6063	-2.2125	-1.8542	-2.5917	-1.8396	-2.1521	-2.6437	-1.9667	80.812	-60.635	-63.625	256.689	271.633	217.791	277.060	12.940	264.445	228.911	-50.167	53.993	-0.444	224.224	171.780	115.430	5.181e-05	0.00019751	0.00013986	840.35	4.3501e-06	3.206e-06	1310.3	176.3	2.0616e-06	1.7111e-06	341.12	94.424	41.746	13.616	1.9559e-06	35.148	0.00020054	0.00021684	5.4186e-05	694.54	2.3937e-06	2.2684e-06	1088.2	146.92	2.4975e-06	2.3118e-06	281.7	79.345	35.259	11.51	2.3709e-06	29.377	219.256	61.068	-23.089	-68.017	78.573	78.482	-68.339	-63.157	4.552	56.567	-64.476	-59.052	-58.081	-53.087	69.666	-54.685	-8191	255	
1049.223	1	1	0	0	0.23772	0.28917	0.16601	0.3058	0.069823	0.1622	0.091135	0.23222	0.048222	0.18186	0.31321	0.057137	0.31183	0.023104	0.090773	0.24816	-1.8354	-2.4125	-1.7708	-2.7854	-2.075	-2.1813	-2.8812	-1.8417	-2.5271	-2.3896	-1.8	-2.7979	-2.0583	-1.9	-2.7	-1.8312	154.706	214.872	91.013	205.227	0.526	41.746	-8.571	185.458	135.332	208.459	185.082	-72.196	217.667	255.076	-1.871	238.248	7.2284e-05	0.00038369	0.00010891	835.4	1.1186e-06	3.2794e-06	1316.4	174.67	6.7492e-07	6.122e-06	339.62	94.159	40.926	14.083	1.3523e-06	35.429	0.0001996	0.00020808	5.7718e-05	692.34	2.4245e-06	2.4663e-06	1087.3	145.27	2.3189e-06	2.4944e-06	281.19	79.165	34.661	11.73	2.2948e-06	29.706	207.439	-22.778	67.516	-67.841	228.736	85.108	-67.692	-63.151	30.314	69.796	-64.411	-59.317	-57.585	-52.787	8.091	-54.951	-8191	255	
1049.319	1	1	0	0	0.1167	0.23567	0.26749	0.29225	0.11363	0.31524	0.34833	0.20901	0.075836	0.2684	0.062769	0.10265	0.1269	0.12994	0.20684	0.28791	-1.6917	-2.3771	-1.7854	-2.6917	-2.3271	-2.0312	-2.7167	-1.9458	-2.2188	-2.6688	-1.7333	-2.5167	-2.1354	-1.9708	-2.6	-1.8833	-20.651	-73.373	164.486	259.623	198.659	124.330	205.067	-11.236	276.556	-34.219	-50.536	-57.208	33.273	-42.308	226.512	148.652	6.3356e-05	0.00057407	0.00011467	830.61	2.1171e-06	3.3469e-06	1311.3	171.9	2.3002e-06	2.7152e-06	339.45	94.525	41.195	13.902	1.8738e-06	35.626	0.00020171	0.00021549	6.1944e-05	688.68	2.3402e-06	2.3309e-06	1084.3	144.68	2.2353e-06	2.3095e-06	281.08	79.586	34.765	11.75	2.2645e-06	29.949	206.433	3.808	54.735	-67.947	119.622	71.232	-68.397	-63.428	58.419	73.149	-64.087	-59.003	-57.770	-53.052	113.781	-54.610	-8191	255	
1049.440	1	1	0	0	0.25128	0.12915	0.086229	0.16386	0.16242	0.16032	0.087708	0.23635	0.080596	0.079801	0.11822	0.081097	0.21457	0.17674	0.32897	0.030698	-1.9271	-2.525	-1.7042	-2.5938	-2.1854	-2.0896	-2.8479	-2.0812	-2.1083	-2.5438	-1.6667	-2.5542	-2.2292	-1.8333	-2.5771	-2.1042	260.362	-51.890	169.293	252.224	5.893	182.451	269.538	134.006	182.033	6.447	-26.153	174.072	96.042	-16.951	145.636	110.538	9.39e-05	0.00023399	3.5745e-05	845.43	1.8454e-06	2.9257e-06	1319.6	170.55	1.6785e-06	3.3127e-06	337.11	95.59	41.831	14.449	5.7882e-06	37.087	0.00020212	0.00021327	5.9945e-05	693.78	2.2958e-06	2.2585e-06	1095.7	142.7	2.2454e-06	2.1571e-06	280.04	80.634	35.198	12.135	2.2026e-06	31.156	223.246	0.669	83.887	-67.602	99.203	12.244	-68.105	-62.827	97.965	58.305	-64.298	-59.132	-57.649	-52.753	65.995	-53.976	-8191	255	
1049.534	1	1	0	0	0.016335	0.27825	0.13546	0.11082	0.18307	0.11089	0.41022	0.1523	0.077158	0.19206	0.25711	0.11406	0.10299	0.10519	0.10265	0.040722	-1.5438	-2.4708	-1.8687	-2.4229	-2.2438	-1.6542	-2.8021	-2.0042	-1.8979	-2.6917	-1.9479	-2.5125	-2.3125	-1.8312	-2.6521	-2.3021	53.985	73.153	-76.088	8.071	26.797	139.499	205.410	243.122	-68.730	-20.044	123.907	110.438	252.420	203.332	238.421	272.151	6.9369e-05	0.00046623	6.5245e-05	846.78	2.7602e-06	5.2621e-06	1307.1	167.09	7.4189e-07	8.8038e-07	329.68	98.613	42.686	15.074	1.3025e-06	37.622	0.00019159	0.00019664	5.8148e-05	696.6	2.1609e-06	2.2195e-06	1083.7	138.48	2.1716e-06	2.2377e-06	274.05	82.238	36.004	12.627	1.953e-06	31.471	184.536	32.108	60.081	-67.818	22.420	72.580	-67.963	-63.503	90.563	73.901	-64.332	-59.540	-57.339	-52.498	21.628	-54.701	-8191	255	
1049.632	1	1	0	0	0.046556	0.11598	0.11661	0.25399	0.30408	0.10168	0.14701	0.38372	0.23745	0.18468	0.43606	0.10689	0.16427	0.16104	0.22335	0.13037	-1.5	-2.6688	-1.6833	-2.2646	-2.2396	-1.7083	-2.6979	-2.2333	-1.8333	-2.7958	-1.925	-2.2042	-2.5417	-1.7896	-2.5312	-2.2479	-1.003	79.376	69.006	262.157	65.494	127.146	84.879	183.932	118.013	62.789	133.038	-65.028	-45.910	42.751	49.857	264.184	6.2301e-05	0.00036753	0.00017077	826.1	7.1014e-06	4.2839e-06	1275.7	163.47	9.6908e-07	2.3152e-06	327.1	97.577	43.276	14.947	3.4516e-06	37.863	0.00019251	0.00020106	5.4623e-05	685	2.1515e-06	2.1875e-06	1058.8	136.25	2.2348e-06	1.9974e-06	272.82	82.281	36.396	12.642	2.216e-06	31.71	212.108	-9.290	78.344	-67.476	66.783	80.782	-67.523	-62.413	12.341	27.656	-64.354	-59.112	-57.247	-52.768	112.779	-54.194	-8191	255	
1049.751	1	1	0	0	0.11758	0.38418	0.051431	0.35312	0.12185	0.4436	0.26975	0.141	0.089653	0.036306	0.17846	0.31099	0.21713	0.11713	0.061392	0.11286	-1.3167	-2.6937	-1.7333	-2.3125	-2.4521	-1.8833	-2.7771	-2.3604	-1.6729	-2.5958	-2.175	-2.2083	-2.4854	-1.7167	-2.3833	-2.3958	101.401	218.042	-35.777	269.475	-49.425	-0.291	202.720	142.080	125.744	-66.778	-38.907	251.849	146.978	250.929	126.918	218.720	6.7238e-05	0.00041073	8.2054e-05	835.07	3.7941e-06	2.4544e-06	1273.6	163.83	4.5832e-06	4.7889e-06	330.95	98.418	42.89	15.032	2.7006e-06	37.414	0.00019008	0.00017928	5.3425e-05	686.6	2.0482e-06	2.0299e-06	1055.9	136.13	2.2138e-06	2.0858e-06	275.59	83.14	36.48	12.55	2.0649e-06	31.376	208.637	-41.672	-34.800	-67.702	108.555	93.939	-67.873	-62.799	73.938	43.866	-63.969	-58.955	-57.591	-52.642	109.540	-54.309	-8191	255	
1049.822	1	1	0	0	0.12731	0.28639	0.22849	0.10099	0.15735	0.074409	0.045255	0.14497	0.25144	0.12687	0.17533	0.27973	0.16602	0.027214	0.049082	0.17837	-1.1562	-2.4625	-2.1208	-1.9396	-2.5875	-1.9458	-2.5687	-2.625	-1.6583	-2.5875	-2.3146	-2.0125	-2.7021	-1.9417	-2.2521	-2.6937	-69.312	81.927	9.659	242.876	207.179	97.747	-74.579	213.903	45.744	80.188	221.970	150.495	-48.798	232.258	169.747	106.391	6.9775e-05	0.00024302	0.00012409	837.21	2.9022e-06	5.4356e-06	1271.5	163.85	1.1528e-07	2.2231e-06	332.76	99.217	43.767	14.81	3.3076e-06	37.572	0.00019557	0.00019012	5.2078e-05	685.11	2.1936e-06	2.2067e-06	1054.8	136.07	2.0858e-06	2.176e-06	275.75	83.029	36.762	12.512	1.9829e-06	31.408	235.987	29.168	56.885	-67.360	46.435	28.192	-67.596	-62.539	119.422	24.604	-64.505	-59.603	-56.676	-53.143	99.896	-54.762	-8191	255	
1049.919	1	1	0	0	0.11482	0.14869	0.15601	0.19852	0.12725	0.10239	0.35136	0.17427	0.22267	0.25046	0.020854	0.27965	0.13805	0.30694	0.2449	0.11577	-1.4208	-2.6333	-2.2479	-1.8104	-2.7438	-1.925	-2.1521	-2.65	-1.5812	-2.5042	-2.3521	-1.7958	-2.7521	-1.8292	-2.1292	-2.7188	160.297	-0.298	147.444	266.370	252.572	246.759	249.485	188.383	272.137	126.668	-58.673	217.377	-77.546	235.512	196.932	82.328	7.6221e-05	0.00025646	9.9979e-05	831.88	1.9249e-06	1.1179e-06	1288.1	164.77	2.12e-06	7.2278e-06	336.4	98.03	43.467	14.823	5.1816e-06	37.363	0.00019402	0.00019176	5.3452e-05	685.22	2.2755e-06	2.2899e-06	1062.1	136.81	2.182e-06	2.225e-06	276.46	82.85	36.459	12.504	2.3415e-06	31.295	190.352	11.003	34.141	-67.568	111.013	151.876	-67.555	-63.136	76.761	58.498	-63.921	-59.047	-58.013	-53.373	98.202	-54.498	-8191	255	
1050.039	1	1	0	0	0.1294	0.16527	0.33763	0.10733	0.15372	0.32068	0.23437	0.28675	0.21576	0.19173	0.17383	0.3807	0.1373	0.18437	0.15807	0.20204	-1.2854	-2.5812	-2.3854	-1.7625	-2.6396	-2.0812	-2.1604	-2.5667	-1.85	-2.3104	-2.5354	-1.7354	-2.7958	-2.1562	-1.9354	-2.7354	212.600	-75.399	109.167	-2.615	158.491	270.672	235.085	226.240	251.060	5.502	50.692	94.267	224.809	145.027	251.436	228.946	5.8765e-05	0.00050132	3.5096e-05	824.92	1.7359e-06	6.9107e-06	1270.2	162.73	3.4149e-06	7.2944e-06	327.77	97.639	42.985	14.798	2.9477e-06	37.412	0.00019589	0.00020297	5.6377e-05	682.93	2.0658e-06	2.1508e-06	1051.8	136.04	2.162e-06	2.0867e-06	271.44	81.868	36.229	12.435	2.1703e-06	31.202	206.143	32.331	35.590	-67.874	-69.043	82.322	-67.721	-63.135	93.690	83.350	-64.548	-59.202	-57.291	-53.159	136.919	-54.085	-8191	255	
1050.135	1	1	0	0	0.39231	0.068513	0.074196	0.07755	0.37071	0.22356	0.20574	0.032072	0.067144	0.24834	0.23792	0.15618	0.26976	0.15447	0.084375	0.31429	-1.3687	-2.2979	-2.4021	-2.0042	-2.5229	-2.1333	-2.0375	-2.7042	-1.5833	-2.0833	-2.7188	-1.6396	-2.5167	-1.9104	-1.8021	-2.5583	-41.959	32.242	-3.503	-49.301	271.962	-75.726	118.649	-39.163	27.724	-4.363	257.264	25.761	258.637	168.386	263.783	274.738	4.9085e-05	0.00019332	9.4611e-05	824.56	3.6758e-06	6.6939e-06	1267.5	163.28	5.1331e-07	5.9376e-06	329.03	96.797	42.282	14.704	2.5726e-06	37.394	0.00019197	0.00019062	5.229e-05	679.72	2.0099e-06	2.1941e-06	1054.6	136.28	2.1361e-06	2.1712e-06	274.99	81.392	35.941	12.397	2.1755e-06	31.159	222.107	87.748	54.224	-68.446	29.002	22.916	-67.368	-63.071	151.299	2.632	-64.471	-59.009	-57.551	-53.446	-24.422	-55.099	-8191	255	
1050.232	1	1	0	0	0.25245	0.2212	0.17548	0.024242	0.10299	0.067989	0.21172	0.11801	0.081445	0.047325	0.36606	0.28062	0.27938	0.24803	0.29813	0.077989	-1.4542	-2.0187	-2.6375	-1.7229	-2.5938	-2.3292	-1.8146	-2.7979	-1.9375	-2.0229	-2.7375	-1.9937	-2.5521	-2.3979	-1.5583	-2.6271	204.598	-49.354	185.201	157.376	45.585	218.444	-72.549	36.512	-27.130	235.955	225.188	222.924	263.999	133.418	-55.929	-1.292	5.3861e-05	3.1829e-05	4.6479e-05	825.94	4.0627e-06	3.0176e-06	1279.4	165.02	3.2025e-06	3.011e-06	333.87	97.788	42.532	14.763	2.8672e-06	37.551	0.00019027	0.00019959	5.3938e-05	677.97	2.1244e-06	2.178e-06	1063.7	137.59	2.2153e-06	2.2297e-06	276.93	81.926	35.85	12.288	2.1386e-06	31.251	210.501	188.517	57.546	-67.655	32.523	45.503	-68.317	-62.860	132.489	44.630	-64.165	-59.169	-57.238	-52.997	44.697	-54.474	-8191	255	
1050.352	1	1	0	0	0.1	0.06657	0.13616	0.26139	0.37232	0.05404	0.36753	0.29035	0.1408	0.23218	0.2073	0.076533	0.26558	0.21134	0.15445	0.089867	-1.7938	-1.8896	-2.6292	-1.6208	-2.2875	-2.3958	-1.8687	-2.7208	-2.0104	-1.8417	-2.7583	-1.9458	-2.3792	-2.5833	-1.6833	-2.8833	166.704	96.464	209.745	-41.062	-56.314	-43.281	215.567	183.963	-60.613	154.730	157.646	211.373	248.045	267.143	-57.194	218.382	7.1429e-05	0.00047047	7.185e-05	831.02	1.0618e-06	7.5255e-06	1289.9	167.09	2.3859e-06	4.1204e-06	336.92	95.095	42.937	14.604	1.6751e-06	36.82	0.00019217	0.00019913	5.0304e-05	686.09	2.2537e-06	2.2291e-06	1069.8	138.67	2.0615e-06	2.1611e-06	278.88	80.85	35.925	12.134	2.0383e-06	30.783	192.851	23.762	11.686	-68.389	137.991	50.148	-68.382	-63.398	75.589	76.621	-64.554	-59.305	-57.188	-53.371	110.506	-54.362	-8191	255	
1050.424	1	1	0	0	0.099922	0.075061	0.25088	0.1629	0.076924	0.31697	0.065376	0.21069	0.04376	0.1353	0.087741	0.097676	0.24588	0.10313	0.22524	0.17777	-1.8563	-1.8792	-2.5625	-1.8958	-2.1375	-2.5312	-2.0083	-2.6896	-2.225	-1.8	-2.7271	-1.9646	-1.9396	-2.6375	-1.8354	-2.575	-22.460	105.160	178.012	-15.107	48.186	6.008	269.429	128.997	-1.667	164.460	230.330	-76.852	240.450	11.730	149.808	254.121	1.2283e-05	0.00036954	0.00011408	838.12	3.5818e-06	4.1936e-06	1294.1	168.47	2.8182e-06	4.6359e-06	332.19	93.448	41.283	13.906	2.8714e-06	35.462	0.00018025	0.00019171	4.8464e-05	688.91	2.1411e-06	2.024e-06	1072.5	140.37	2.0995e-06	2.1342e-06	276.16	78.995	34.965	11.714	2.223e-06	29.667	255.939	0.003	80.297	-67.786	62.609	78.034	-68.369	-63.328	110.994	34.447	-64.530	-59.239	-57.435	-52.991	44.547	-54.225	-8191	255	
1050.520	1	1	0	0	0.19942	0.13801	0.10811	0.25167	0.055852	0.1854	0.19527	0.32986	0.2402	0.23698	0.123	0.17162	0.063642	0.24244	0.18719	0.083464	-2.1	-2.0292	-2.6188	-1.975	-1.8667	-2.7479	-2.0042	-2.5292	-2.3854	-1.7833	-2.7958	-1.9562	-2.1875	-2.6604	-1.6667	-2.3667	73.927	-38.915	34.061	-51.474	5.500	-15.085	204.468	248.336	84.743	107.551	137.061	166.377	266.604	241.930	-27.685	254.936	5.6559e-05	0.00029697	0.00018586	834.71	4.8484e-06	3.7555e-06	1282	170.24	9.3549e-07	5.0591e-06	335.36	94.671	41.922	13.524	1.6991e-06	34.128	0.0001888	0.00019168	5.3164e-05	688.61	2.3066e-06	2.1418e-06	1066.7	141.3	2.2938e-06	2.4516e-06	277.29	78.839	35.256	11.388	2.3589e-06	28.748	189.497	-30.710	33.959	-68.289	104.625	60.505	-68.134	-62.794	151.905	115.477	-64.324	-59.700	-57.999	-53.259	110.266	-54.537	-8191	255	
1050.614	1	1	0	0	0.087576	0.20742	0.19716	0.23592	0.23943	0.12967	0.060665	0.22149	0.18524	0.074603	0.42459	0.37945	0.19483	0.21524	0.088351	0.44091	-2.1083	-1.6688	-2.5833	-2.2708	-1.9188	-2.7417	-2.025	-2.4542	-2.4458	-1.8146	-2.7958	-2.2396	-1.9625	-2.7771	-1.6771	-2.3208	274.337	263.424	-20.566	166.236	-16.770	74.316	-76.339	20.272	232.681	64.852	238.504	202.461	-74.885	136.746	93.913	245.652	8.6721e-05	0.00028886	0.00016368	832.58	3.5568e-06	6.4477e-06	1293.3	170.11	2.9699e-06	3.3553e-06	336.06	94.042	41.677	13.148	1.1937e-06	33.669	0.00020467	0.00021308	5.9283e-05	688.57	2.3505e-06	2.3438e-06	1072.7	141.9	2.4651e-06	2.4285e-06	277.96	79.136	35.33	11.109	2.4154e-06	28.321	158.898	-14.202	38.805	-68.533	91.610	62.707	-68.211	-63.074	83.282	116.526	-64.356	-59.130	-58.308	-53.650	105.193	-54.559	-8191	255	
1050.735	1	1	0	0	0.24325	0.037952	0.037915	0.093474	0.2891	0.090023	0.132	0.26482	0.08029	0.027898	0.26599	0.21664	0.017245	0.097029	0.32249	0.11422	-2.2875	-1.6938	-2.6312	-2.0792	-1.9188	-2.7229	-2.2125	-2.0854	-2.6667	-1.6542	-2.8396	-2.3667	-1.8396	-2.8646	-1.8479	-2.1521	-78.750	-78.682	67.397	-38.920	131.287	184.668	201.329	165.794	237.892	85.790	177.651	-13.228	253.335	136.293	125.489	276.851	6.7628e-05	0.00015309	8.9959e-05	839.13	5.1491e-06	2.5268e-06	1299.1	173.93	1.3206e-06	6.9424e-06	339.86	94.015	42.13	13.587	1.4121e-06	34.946	0.00021401	0.00023101	6.4698e-05	693.24	2.5014e-06	2.418e-06	1080.5	144.02	2.2937e-06	2.4499e-06	280.43	79.453	35.576	11.419	2.3818e-06	29.424	200.102	83.587	127.647	-68.063	83.064	93.432	-68.080	-62.786	78.457	63.726	-64.440	-59.826	-57.949	-52.816	137.551	-53.968	-8191	255	
1050.831	1	1	0	0	0.18643	0.18208	0.22308	0.13019	0.23896	0.018729	0.081349	0.0807	0.47405	0.082246	0.13221	0.22977	0.17926	0.079378	0.28526	0.13325	-2.3563	-1.7167	-2.4	-2.4708	-1.6458	-2.7646	-2.1854	-1.9562	-2.5187	-1.7583	-2.3667	-2.5479	-1.6854	-2.6625	-2.0563	-2.0292	17.831	70.571	176.452	-38.798	36.799	210.840	13.796	232.146	109.868	264.927	6.118	165.442	241.486	216.484	-50.990	77.992	4.6704e-05	0.00069343	0.00013399	846.82	1.5818e-06	2.0776e-07	1302.2	172.4	3.6001e-06	4.8145e-06	332.78	94.584	41.558	13.54	3.963e-06	34.784	0.00019132	0.00020921	5.7331e-05	692.57	2.2827e-06	2.2575e-06	1078.3	143.58	2.1816e-06	2.4441e-06	277.35	79.157	35.118	11.453	2.4832e-06	29.238	231.921	-42.350	48.471	-68.632	104.035	200.170	-68.390	-63.369	55.664	23.790	-64.343	-59.653	-58.009	-53.474	33.519	-54.507	-8191	255	
1050.927	1	1	0	0	0.11214	0.080493	0.013691	0.055273	0.15422	0.059101	0.16801	0.37888	0.22171	0.281	0.21344	0.13098	0.19001	0.060475	0.17319	0.365	-2.2104	-1.7646	-2.25	-2.6875	-1.6292	-2.65	-2.3667	-1.9646	-2.65	-2	-2.2792	-2.6854	-1.6437	-2.5708	-2.1854	-2.0312	119.505	155.186	0.296	37.531	-11.052	8.924	204.150	202.978	145.358	278.723	226.745	220.877	112.374	102.753	65.676	157.530	5.3719e-05	0.00059489	0.00018059	822.82	8.9424e-07	6.6647e-06	1281.2	168.95	3.7882e-06	5.7307e-06	329.99	94.32	41.116	13.57	6.0402e-06	34.988	0.00021391	0.00023839	6.7756e-05	681.42	2.7483e-06	2.8013e-06	1068.4	140.66	2.641e-06	2.6573e-06	275.63	78.902	34.871	11.387	2.7119e-06	29.173	212.802	38.925	-6.583	-68.422	-36.719	55.747	-67.779	-62.988	142.270	104.169	-64.246	-59.332	-57.018	-52.990	42.404	-54.412	-8191	255	
1051.023	1	1	0	0	0.17492	0.25245	0.16566	0.050208	0.083305	0.10878	0.2576	0.32352	0.11322	0.08747	0.43629	0.11645	0.13155	0.062218	0.20841	0.027206	-2.3875	-1.9083	-2.15	-2.6771	-1.6896	-2.5167	-2.4938	-1.6792	-2.5875	-1.8479	-2.2146	-2.7771	-1.7875	-2.4292	-2.4792	-1.6604	107.815	88.273	170.125	-56.914	77.999	67.572	232.500	127.461	112.642	67.173	237.682	103.251	-74.125	204.928	38.521	-46.897	7.2881e-05	4.7098e-05	0.00019226	834.88	3.3051e-06	1.0096e-06	1292.8	170.07	5.8771e-07	1.345e-06	335.5	93.489	40.961	13.405	3.4299e-06	34.505	0.00021495	0.00024023	6.6035e-05	686.62	2.7446e-06	2.6048e-06	1072.3	141.21	2.8271e-06	2.7983e-06	278.14	78.838	34.77	11.307	2.7258e-06	29.087	205.217	49.696	15.527	-67.702	109.150	170.517	-68.195	-62.952	228.909	-8.466	-64.404	-59.663	-57.671	-53.078	47.274	-54.436	-8191	255	
1051.120	1	1	0	0	0.10219	0.065351	0.17888	0.2071	0.10716	0.083443	0.32804	0.21233	0.25087	0.27554	0.12485	0.081675	0.051719	0.18428	0.16941	0.17281	-2.25	-2.0687	-2.0896	-2.6271	-1.8583	-2.4625	-2.65	-1.6333	-2.5729	-2.0208	-2.225	-2.8583	-1.8354	-2.4333	-2.5854	-1.7687	266.320	256.891	19.016	-29.343	9.659	-23.914	207.872	236.587	143.094	241.989	165.190	173.846	78.111	197.634	116.614	191.183	3.34e-05	0.00032619	0.00012945	829.03	6.8982e-06	4.1718e-06	1303.7	170.07	1.25e-06	6.7177e-06	338.53	95.126	41.175	13.875	5.3845e-06	36.136	0.00023645	0.00025445	7.2059e-05	686.38	2.7379e-06	2.6472e-06	1081	141.65	2.4818e-06	2.372e-06	279.46	79.972	34.971	11.688	2.4672e-06	30.181	234.255	26.265	-2.762	-68.198	95.685	17.484	-68.059	-62.953	162.818	115.213	-64.142	-59.639	-57.577	-52.968	-3.721	-53.365	-8191	255	
1051.216	1	1	0	0	0.10313	0.23443	0.35534	0.10118	0.21311	0.20142	0.22676	0.20402	0.093214	0.068346	0.073951	0.056646	0.11408	0.096789	0.19076	0.12503	-2.3167	-2.0271	-1.9208	-2.8083	-1.6812	-2.1813	-2.7438	-1.7208	-2.6	-2.4	-1.9333	-2.6625	-2.0771	-2.2083	-2.6354	-1.7708	213.938	62.979	28.005	10.625	-76.202	167.955	251.202	60.304	34.984	99.076	227.546	-11.194	-47.788	270.493	109.621	-77.501	2.6031e-05	0.00018467	8.6344e-05	836.83	2.6728e-06	4.1079e-06	1296.1	169.68	1.3219e-06	8.0802e-07	334.18	95.172	41.354	13.936	1.1932e-06	36.023	0.00020208	0.00021799	6.1994e-05	689.46	2.4391e-06	2.3222e-06	1076.9	141.42	2.3244e-06	2.2982e-06	277.05	79.74	35.048	11.832	2.2199e-06	30.387	213.823	40.261	-17.729	-67.489	114.310	73.447	-68.042	-63.011	156.517	40.481	-64.298	-59.011	-56.954	-53.023	98.110	-53.815	-8191	255	
1051.312	1	1	0	0	0.097278	0.14399	0.1293	0.20361	0.051683	0.07145	0.071588	0.11512	0.06462	0.17989	0.16039	0.027979	0.072314	0.16052	0.20009	0.18131	-2.1708	-2.2417	-1.8042	-2.6729	-1.7188	-1.9854	-2.8854	-1.9188	-2.4417	-2.3354	-1.8687	-2.7396	-2.0333	-1.9646	-2.5917	-1.8937	22.975	-17.231	141.978	226.477	-72.956	6.652	-72.217	126.007	234.625	166.647	5.707	78.416	20.657	-40.196	246.419	222.459	5.3373e-05	0.00054323	0.00015354	830.58	1.2504e-06	3.1036e-06	1292.1	169.01	2.6876e-07	2.0177e-06	333.51	95.085	41.445	14.154	2.3005e-06	35.943	0.0001967	0.00020145	5.509e-05	686.21	2.124e-06	2.2696e-06	1074.5	140.79	2.2819e-06	2.1404e-06	277.22	79.896	34.97	11.845	2.0157e-06	30.174	165.284	18.455	23.111	-67.902	-31.796	15.259	-68.200	-63.515	156.695	187.056	-63.941	-59.618	-57.662	-53.241	71.038	-54.450	-8191	255	
1051.433	1	1	0	0	0.076294	0.11545	0.14588	0.022506	0.086927	0.21387	0.23058	0.086263	0.27243	0.1765	0.027778	0.13594	0.11251	0.25689	0.1426	0.28426	-1.9521	-2.6396	-1.6458	-2.8729	-2.2292	-2.125	-2.9688	-1.7833	-2.1646	-2.5083	-1.7125	-2.6146	-2.1104	-1.8833	-2.6917	-1.8792	158.990	125.825	4.682	27.223	171.826	257.444	262.702	-67.699	208.076	233.133	35.387	245.218	30.944	-72.702	236.502	189.636	5.263e-05	0.00040445	0.0001002	848.73	3.1836e-06	2.7523e-06	1301.5	170.8	3.2504e-06	2.3977e-06	337.34	96.025	42.08	13.965	1.1427e-06	36.355	0.00018916	0.00019263	5.7516e-05	691.36	2.0608e-06	1.9703e-06	1079	141.94	2.1673e-06	2.0858e-06	280.45	80.709	35.401	11.857	2.2194e-06	30.495	200.588	85.927	89.359	-68.173	39.835	140.427	-68.064	-62.759	59.055	125.072	-63.953	-59.405	-58.260	-52.859	100.100	-54.015	-8191	255	
1051.527	1	1	0	0	0.20043	0.25763	0.083199	0.29459	0.22164	0.088918	0.3997	0.29912	0.048362	0.13718	0.093279	0.28899	0.29527	0.1008	0.094418	0.035111	-1.8479	-2.5333	-1.6667	-2.525	-2.2271	-1.8833	-2.8625	-1.8854	-2.0354	-2.6583	-1.8708	-2.6708	-2.475	-1.7542	-2.5104	-2.2167	-20.295	96.221	59.507	-58.081	0.694	110.080	249.912	109.903	216.139	162.717	200.020	184.955	59.132	48.288	130.625	-78.746	6.9477e-05	0.00020863	0.00010542	841.05	2.671e-06	8.3467e-06	1310.3	171.18	1.9784e-06	2.4429e-06	340.47	96.194	41.987	14.114	1.6549e-06	36.311	0.00018704	0.00019184	5.5054e-05	691.21	2.077e-06	2.2484e-06	1088.6	142.18	2.1906e-06	2.2012e-06	281.68	80.954	35.32	11.86	2.0415e-06	30.515	219.038	-30.877	63.962	-68.074	46.897	41.212	-67.826	-63.099	118.615	86.888	-64.297	-59.370	-57.652	-52.966	135.750	-54.281	-8191	255	
1051.623	1	1	0	0	0.065189	0.098819	0.078996	0.11392	0.21552	0.064507	0.29691	0.12647	0.1932	0.25785	0.11705	0.086521	0.098764	0.1384	0.17248	0.29398	-1.6208	-2.8146	-1.7	-2.4833	-2.4292	-1.7667	-2.9396	-2.1542	-1.9625	-2.7104	-1.8438	-2.3833	-2.5083	-1.775	-2.7062	-1.9333	-16.512	-31.564	75.845	-62.117	130.923	-26.241	224.302	219.672	50.153	-71.366	45.954	236.904	-39.063	50.009	206.410	252.366	5.3067e-05	0.00060796	9.1771e-05	855.74	2.1984e-06	4.45e-06	1309.4	171.71	2.1174e-06	4.2354e-06	337.54	96.3	41.951	14.05	4.8693e-06	36.083	0.00019078	0.00019009	5.4365e-05	696.49	2.2399e-06	2.1151e-06	1089.6	142.59	2.2817e-06	2.1357e-06	280.41	80.821	35.273	11.813	2.154e-06	30.272	207.165	17.318	-38.085	-68.014	43.241	36.551	-67.773	-63.010	-31.249	114.584	-63.896	-59.179	-57.301	-52.221	97.810	-54.016	-8191	255	
1051.719	1	1	0	0	0.15618	0.082702	0.3802	0.20047	0.17463	0.037598	0.14182	0.1064	0.23755	0.044169	0.0016447	0.20032	0.22582	0.20621	0.24425	0.28001	-1.45	-2.85	-1.7917	-2.3229	-2.6333	-1.8917	-2.75	-2.475	-1.9813	-2.7833	-2.0229	-2.2729	-2.5062	-1.8188	-2.4458	-2.3417	135.808	63.006	77.082	234.824	-48.112	213.132	223.157	181.426	127.658	135.660	180.000	217.292	54.708	170.900	277.840	267.667	5.4321e-05	0.00028709	7.6783e-05	840.71	9.2307e-07	6.8276e-06	1296.5	168.11	3.7085e-06	1.4876e-06	334.7	95.529	41.8	14.016	2.1264e-06	35.851	0.00019327	0.00021144	5.6252e-05	692.08	2.146e-06	2.253e-06	1076.9	140.16	2.3834e-06	2.1199e-06	276.79	80.009	35.225	11.76	2.1314e-06	30.042	215.213	-26.981	52.967	-68.164	159.491	25.562	-67.448	-63.301	40.741	65.508	-63.787	-58.506	-57.148	-53.149	-19.134	-54.704	-8191	255	
1051.815	1	1	0	0	0.2839	0.41855	0.022749	0.11131	0.17463	0.37542	0.41976	0.1487	0.14787	0.36382	0.10099	0.064898	0.09846	0.30083	0.090901	0.085129	-1.5833	-2.7313	-1.85	-2.1292	-2.7125	-1.8292	-2.7354	-2.375	-1.7375	-2.8729	-2.2438	-2.275	-2.725	-1.9208	-2.3063	-2.5312	207.887	157.745	212.729	250.699	-73.812	234.843	241.524	-75.218	117.827	221.817	89.935	116.030	260.045	270.569	-59.447	106.766	6.6627e-05	0.0005948	0.00015018	838.45	3.7145e-06	5.464e-06	1303.5	168.07	1.2315e-06	2.9281e-06	336.14	95.351	41.428	13.856	2.3335e-06	35.691	0.00020197	0.00020397	6.0392e-05	689.17	2.2957e-06	2.27e-06	1077.9	140.21	2.1749e-06	2.1686e-06	277.95	80.088	34.999	11.658	2.3419e-06	29.959	191.194	15.635	16.057	-67.671	26.255	30.674	-67.753	-63.380	36.413	68.069	-64.149	-59.131	-57.761	-52.168	4.298	-54.617	-8191	255	
1051.912	1	1	0	0	0.18615	0.065346	0.13792	0.14226	0.17375	0.04756	0.1887	0.11098	0.052074	0.23642	0.064104	0.25978	0.064113	0.22514	0.41409	0.095083	-1.4833	-2.4667	-2.2729	-1.7667	-2.6521	-1.7917	-2.4833	-2.6917	-1.7167	-2.5979	-2.3604	-1.8021	-2.7292	-1.8667	-2.1646	-2.5563	19.383	184.910	63.798	137.841	175.951	-5.412	222.933	170.128	203.105	175.498	157.323	265.855	-9.427	213.468	-47.427	52.894	7.2869e-05	0.00025697	0.00011864	840.51	2.4181e-06	3.6482e-06	1301.9	169.87	1.0642e-06	4.6966e-06	336.33	95.585	41.651	13.858	4.1705e-06	36.279	0.00020476	0.00021585	6.1868e-05	690.31	2.0927e-06	2.2912e-06	1081.4	141.29	2.2534e-06	2.3743e-06	279.03	80.665	35.249	11.714	2.3252e-06	30.291	231.234	87.845	17.061	-67.871	74.937	40.691	-67.176	-63.241	23.778	144.514	-63.581	-59.252	-57.241	-53.466	83.129	-54.572	-8191	255	
1052.032	1	1	0	0	0.17923	0.20708	0.16971	0.11994	0.22139	0.20695	0.2233	0.27054	0.12738	0.14181	0.084024	0.096231	0.23655	0.080604	0.073639	0.22327	-1.2771	-2.5271	-2.2771	-1.9271	-2.7854	-1.8667	-2.175	-2.4896	-1.8229	-2.5271	-2.35	-1.9562	-2.6125	-1.9188	-2.0458	-2.7	-27.977	38.611	263.392	249.188	-74.786	234.584	23.577	-37.714	-60.050	-7.886	48.680	-79.372	190.854	164.537	-15.501	217.405	1.1195e-05	0.00044496	0.00018918	838.54	1.3031e-06	2.8941e-06	1310.3	169.03	2.5569e-07	3.5619e-06	337.11	96.208	41.961	13.959	1.5052e-06	36.081	0.00019271	0.00019394	5.4309e-05	691.35	2.3934e-06	2.2335e-06	1090.8	141.22	2.149e-06	2.2008e-06	279.57	80.769	35.267	11.752	2.0893e-06	30.04	192.680	32.804	38.741	-67.935	33.341	25.665	-68.010	-63.029	-33.548	101.479	-64.348	-58.873	-57.186	-52.750	99.410	-54.187	-8191	255	
1052.128	1	1	0	0	0.24407	0.090082	0.067674	0.055998	0.15223	0.15787	0.10178	0.31771	0.26089	0.20814	0.19907	0.1275	0.13147	0.061536	0.021046	0.27561	-1.3917	-2.4958	-2.2208	-1.9292	-2.6542	-2.0687	-2.2438	-2.625	-1.6375	-2.4083	-2.6063	-1.7729	-2.525	-2.0875	-1.8375	-2.7479	48.901	64.284	211.358	230.833	-24.087	212.007	229.856	176.431	173.500	254.109	-45.139	233.026	-58.114	260.675	86.096	-52.490	5.685e-05	0.00057587	9.4542e-05	840.07	2.4253e-06	1.9912e-06	1307	168.79	1.4565e-06	2.7346e-06	333.45	94.907	41.171	13.639	3.5098e-07	35.287	0.00019906	0.00021502	5.4455e-05	692.01	2.1215e-06	2.3773e-06	1083.9	140.48	2.3249e-06	2.2219e-06	276.71	79.761	34.896	11.508	2.3382e-06	29.6	222.145	8.404	31.728	-67.236	72.142	-27.913	-67.608	-63.128	113.635	116.300	-63.955	-58.839	-57.399	-52.610	140.217	-53.915	-8191	255	
1052.224	1	1	0	0	0.20692	0.17038	0.1389	0.025709	0.14299	0.16065	0.28887	0.022032	0.14665	0.15996	0.29456	0.19138	0.091259	0.16282	0.23234	0.14147	-1.4125	-2.2729	-2.3417	-1.6354	-2.7458	-2.1292	-2.0979	-2.7021	-1.8396	-2.1854	-2.6354	-1.8875	-2.4292	-2.3375	-1.8896	-2.7271	237.665	105.653	126.942	181.829	8.285	-73.671	227.218	129.629	148.531	-57.429	-68.295	2.778	251.969	267.594	248.141	152.202	2.5024e-05	0.00012676	6.105e-05	842.72	1.7753e-06	4.2568e-06	1298.6	168.15	4.6285e-06	1.6292e-06	334.88	95.033	41.824	13.621	2.6693e-06	35.574	0.00020486	0.0002193	6.1567e-05	692.17	2.1671e-06	2.2793e-06	1078.2	140.1	2.2951e-06	2.2133e-06	276.37	79.988	35.113	11.491	2.2746e-06	29.625	192.346	2.328	-3.442	-67.789	92.372	81.805	-67.617	-63.055	13.749	205.305	-64.336	-58.860	-56.864	-52.726	105.252	-54.357	-8191	255	
1052.296	1	1	0	0	0.15143	0.19591	0.13479	0.19274	0.27642	0.10619	0.26567	0.10249	0.13027	0.11125	0.11647	0.2075	0.087835	0.2349	0.36616	0.38379	-1.5979	-2.0125	-2.5167	-1.5958	-2.4542	-2.4646	-1.7042	-2.8708	-1.7375	-1.8979	-2.7208	-1.7833	-2.3604	-2.2708	-1.7167	-2.7021	152.058	18.312	168.097	44.157	-70.069	36.477	222.510	187.350	121.879	108.464	197.459	198.677	179.838	276.755	-5.579	229.653	5.2217e-05	0.0003789	9.1385e-05	835.12	2.4054e-06	3.1614e-06	1313.5	169.97	2.0687e-06	4.0377e-06	336.95	95.744	41.571	13.676	3.7398e-06	36.002	0.00019081	0.0002047	5.8118e-05	689.24	2.1674e-06	2.2233e-06	1085.6	140.6	2.4022e-06	2.2726e-06	279.29	79.983	34.998	11.541	2.17e-06	30.079	199.453	-34.520	6.462	-67.647	56.849	100.764	-67.658	-62.868	91.710	74.933	-63.771	-58.979	-57.022	-53.263	129.990	-54.562	-8191	255	
1052.417	1	1	0	0	0.055031	0.13099	0.35917	0.068407	0.15686	0.12093	0.093101	0.32738	0.20048	0.18321	0.052625	0.34719	0.10877	0.14028	0.17033	0.062367	-1.7104	-1.8583	-2.6875	-1.6208	-2.3792	-2.4396	-1.8563	-2.7208	-2.1542	-1.9396	-2.8458	-1.7708	-2.3229	-2.4646	-1.8646	-2.6875	170.125	251.455	241.884	1.214	-6.119	159.752	-65.273	217.560	156.748	100.615	17.976	264.126	16.720	67.736	185.558	229.311	4.2081e-05	0.00057639	5.474e-05	841.14	3.4867e-06	4.7485e-06	1304.9	169.65	1.2082e-06	3.3904e-06	337.84	95.738	42.069	13.701	2.5066e-06	35.565	0.0002005	0.00021611	5.698e-05	688.9	2.2259e-06	2.3222e-06	1087.9	141.48	2.2175e-06	2.33e-06	279.32	80.315	35.313	11.529	2.1621e-06	29.735	194.207	-30.682	-43.798	-67.139	64.263	115.948	-67.651	-62.669	77.387	96.366	-63.683	-59.100	-57.166	-52.579	129.944	-54.070	-8191	255	
1052.511	1	1	0	0	0.19465	0.22005	0.15935	0.14311	0.17474	0.25004	0.12493	0.25457	0.24133	0.11234	0.19096	0.23694	0.050161	0.21682	0.25267	0.093245	-1.7979	-1.85	-2.7229	-1.8687	-2.0375	-2.5521	-1.9583	-2.6542	-2.2229	-1.9354	-2.7313	-1.9333	-2.175	-2.7354	-1.7396	-2.5229	-11.812	225.079	56.377	210.561	-63.363	272.058	214.762	251.373	-35.956	147.183	237.439	258.571	-21.789	68.200	135.241	25.631	6.5814e-05	0.00023637	0.00010703	833.53	3.2831e-06	4.9565e-06	1296.5	168.5	2.1801e-06	1.3456e-06	333.33	94.857	41.09	13.545	2.6391e-06	34.823	0.00020036	0.00020177	6.0021e-05	688.17	2.3952e-06	2.338e-06	1075.9	140.68	2.1625e-06	2.4108e-06	275.71	79.057	34.744	11.367	2.4067e-06	29.242	232.171	27.668	11.801	-68.015	92.408	105.241	-67.861	-62.866	95.382	177.062	-63.974	-58.587	-57.376	-52.703	119.929	-54.182	-8191	255	
1052.607	1	1	0	0	0.10556	0.1973	0.1268	0.073017	0.27005	0.23667	0.42833	0.32501	0.062872	0.1705	0.040243	0.072172	0.17937	0.19945	0.23485	0.11826	-1.9479	-1.8937	-2.7292	-2.0833	-2.0125	-2.5563	-2.1	-2.5021	-2.3458	-1.8146	-2.7313	-2.0812	-2.15	-2.8625	-1.6479	-2.5583	-49.588	-55.219	224.550	266.578	25.493	196.336	190.964	241.979	99.980	243.302	-67.557	161.763	230.055	129.723	-27.202	269.128	7.123e-05	0.00014602	0.00012637	829.02	1.8919e-06	3.5288e-06	1294.5	168.76	1.9918e-06	3.6781e-06	332.28	93.97	41.077	13.46	2.5739e-06	34.994	0.00019648	0.00021356	5.7364e-05	682.35	2.2983e-06	2.3009e-06	1075.6	140.02	2.4112e-06	2.2196e-06	275.27	78.928	34.788	11.309	2.2217e-06	29.13	216.867	-31.505	-6.017	-67.833	53.009	105.648	-67.669	-63.078	181.213	105.386	-63.771	-59.717	-57.376	-52.657	38.249	-53.786	-8191	255	
1052.703	1	1	0	0	0.13532	0.35704	0.11815	0.12835	0.29459	0.068935	0.35733	0.20013	0.13691	0.31805	0.14631	0.20061	0.28996	0.13761	0.2135	0.19558	-2.1875	-1.725	-2.6479	-2.3354	-1.75	-2.6813	-1.9854	-2.3271	-2.5042	-1.7104	-2.5833	-2.0229	-2.0125	-2.8354	-1.8813	-2.3396	-69.727	66.214	-13.691	232.896	-23.025	34.283	150.504	3.255	146.673	218.770	217.791	-63.222	254.066	124.886	116.405	247.240	3.9936e-05	0.00030764	2.5994e-05	836.02	3.0682e-06	6.54e-06	1305	170.64	3.349e-07	2.7222e-06	337.72	94.808	41.072	13.508	6.5541e-06	34.756	0.00020135	0.00021585	5.8456e-05	689.63	2.2755e-06	2.3575e-06	1082.1	141.33	2.2364e-06	2.2541e-06	278.55	79.223	34.785	11.318	2.1597e-06	29.112	175.998	-77.634	27.111	-67.524	109.911	78.482	-67.997	-62.584	120.210	44.315	-63.974	-59.355	-57.732	-52.791	131.089	-53.910	-8191	255	
1052.824	1	1	0	0	0.14665	0.13028	0.35874	0.19226	0.17194	0.095379	0.28314	0.28846	0.18135	0.10188	0.22915	0.11208	0.26291	0.13186	0.067265	0.26411	-2.0771	-1.7417	-2.3937	-2.2667	-1.75	-2.7125	-2.0667	-2.2562	-2.6979	-1.8083	-2.4333	-2.5833	-1.8771	-2.5812	-2.075	-2.2083	19.817	13.595	-17.041	181.375	161.481	-32.758	236.902	-73.239	-9.850	103.285	233.164	46.129	270.397	5.342	210.887	-73.888	3.3617e-05	0.00012308	0.00017466	842.99	4.4474e-06	2.5978e-06	1306.3	168.81	8.9983e-07	7.1553e-06	336.81	94.577	41.848	13.361	4.9724e-07	34.561	0.00019415	0.0002177	5.7274e-05	694.87	2.2792e-06	2.3455e-06	1088	140.8	2.1134e-06	2.2309e-06	278.84	79.437	34.984	11.245	2.1691e-06	29.029	195.145	244.721	-11.386	-68.112	112.436	74.317	-67.801	-62.879	216.742	98.013	-64.078	-59.640	-57.171	-52.772	39.355	-54.149	-8191	255	
1052.920	1	1	0	0	0.083064	0.17804	0.12262	0.19239	0.18949	0.056897	0.33768	0.19767	0.11455	0.25211	0.29274	0.19852	0.19325	0.096204	0.048367	0.1978	-2.2333	-1.7542	-2.3688	-2.4708	-1.8604	-2.6354	-2.2313	-2.025	-2.6312	-1.8854	-2.4146	-2.4792	-1.7708	-2.5417	-2.1146	-2.0312	81.919	7.955	42.415	265.801	-0.618	239.047	175.236	160.526	-16.511	219.083	257.598	-53.883	238.221	49.742	126.437	240.261	4.3899e-05	0.00033934	0.00013228	833.34	3.4791e-06	7.9361e-06	1297.9	170.5	2.4332e-06	2.6062e-06	334.59	92.585	40.852	13.107	2.1648e-06	34.715	0.00019188	0.00020042	5.7301e-05	689.42	2.1363e-06	2.1627e-06	1078.5	141.15	2.2788e-06	2.2607e-06	277.09	78.391	34.621	11.069	2.2501e-06	28.893	252.444	1.319	-3.410	-67.915	96.238	68.085	-68.107	-63.432	100.124	151.393	-64.000	-59.141	-57.319	-52.415	101.214	-54.307	-8191	255	
#DATA ENDS
