BOXY.EXE: ISS Imagent and Oximeter Data Acquisition Program Version 0.80
Ascii Record File

#ACQ INFORMATION
2  Detector Channels 
16  External MUX Channels 
1  Auxiliary Channels 
5000  Waveform (CCF) Frequency (Hz)
1  Waveforms Skipped 
30  Waveforms Averaged 
1  Cycles Averaged 
16  Acquisitions per Waveform 
10.0806  Updata Rate (Hz) 

#FILE INFORMATION
TRUE -- External MUX Channel results are PARSED.
FALSE -- AC DC and Phase are NOT grouped.
TRUE -- Companion Program Settings File CREATED.
FALSE -- AC data not excluded
FALSE -- DC data not excluded
FALSE -- Phase data not excluded
FALSE -- Auxillary Chn. data not excluded
Tab delimiters

#CALIBRATION STATE
TRUE -- Waveform Calibration Values APPLIED.


#AUX CALIBRATION VALUES
Val Type	aux-1	

Term	1.0000e+00	
Factor	0.0000e+00	


#WF CALIBRATION VALUES
A = Detector Channel
Val Type	A-AC1	A-AC2	A-AC3	A-AC4	A-AC5	A-AC6	A-AC7	A-AC8	A-AC9	A-AC10	A-AC11	A-AC12	A-AC13	A-AC14	A-AC15	A-AC16	A-DC1	A-DC2	A-DC3	A-DC4	A-DC5	A-DC6	A-DC7	A-DC8	A-DC9	A-DC10	A-DC11	A-DC12	A-DC13	A-DC14	A-DC15	A-DC16	A-Ph1	A-Ph2	A-Ph3	A-Ph4	A-Ph5	A-Ph6	A-Ph7	A-Ph8	A-Ph9	A-Ph10	A-Ph11	A-Ph12	A-Ph13	A-Ph14	A-Ph15	A-Ph16	

Term	0.00000e+00	0.00000e+00	0.00000e+00	0.00000e+00	0.00000e+00	0.00000e+00	0.00000e+00	0.00000e+00	0.00000e+00	0.00000e+00	0.00000e+00	0.00000e+00	0.00000e+00	0.00000e+00	0.00000e+00	0.00000e+00	0.00000e+00	0.00000e+00	0.00000e+00	0.00000e+00	0.00000e+00	0.00000e+00	0.00000e+00	0.00000e+00	0.00000e+00	0.00000e+00	0.00000e+00	0.00000e+00	0.00000e+00	0.00000e+00	0.00000e+00	0.00000e+00	0.00000e+00	0.00000e+00	0.00000e+00	0.00000e+00	0.00000e+00	0.00000e+00	0.00000e+00	0.00000e+00	0.00000e+00	0.00000e+00	0.00000e+00	0.00000e+00	0.00000e+00	0.00000e+00	0.00000e+00	0.00000e+00	
Factor	1.00000e+00	1.00000e+00	1.00000e+00	1.00000e+00	1.00000e+00	1.00000e+00	1.00000e+00	1.00000e+00	1.00000e+00	1.00000e+00	1.00000e+00	1.00000e+00	1.00000e+00	1.00000e+00	1.00000e+00	1.00000e+00	1.00000e+00	1.00000e+00	1.00000e+00	1.00000e+00	1.00000e+00	1.00000e+00	1.00000e+00	1.00000e+00	1.00000e+00	1.00000e+00	1.00000e+00	1.00000e+00	1.00000e+00	1.00000e+00	1.00000e+00	1.00000e+00	X	X	X	X	X	X	X	X	X	X	X	X	X	X	X	X	

B = Detector Channel
Val Type	B-AC1	B-AC2	B-AC3	B-AC4	B-AC5	B-AC6	B-AC7	B-AC8	B-AC9	B-AC10	B-AC11	B-AC12	B-AC13	B-AC14	B-AC15	B-AC16	B-DC1	B-DC2	B-DC3	B-DC4	B-DC5	B-DC6	B-DC7	B-DC8	B-DC9	B-DC10	B-DC11	B-DC12	B-DC13	B-DC14	B-DC15	B-DC16	B-Ph1	B-Ph2	B-Ph3	B-Ph4	B-Ph5	B-Ph6	B-Ph7	B-Ph8	B-Ph9	B-Ph10	B-Ph11	B-Ph12	B-Ph13	B-Ph14	B-Ph15	B-Ph16	

Term	0.00000e+00	0.00000e+00	0.00000e+00	0.00000e+00	0.00000e+00	0.00000e+00	0.00000e+00	0.00000e+00	0.00000e+00	0.00000e+00	0.00000e+00	0.00000e+00	0.00000e+00	0.00000e+00	0.00000e+00	0.00000e+00	0.00000e+00	0.00000e+00	0.00000e+00	0.00000e+00	0.00000e+00	0.00000e+00	0.00000e+00	0.00000e+00	0.00000e+00	0.00000e+00	0.00000e+00	0.00000e+00	0.00000e+00	0.00000e+00	0.00000e+00	0.00000e+00	-9.16924e+01	-1.29767e+02	-1.18293e+02	-1.86930e+02	-6.15527e+01	-7.43525e+01	-1.57927e+02	-1.62015e+02	-5.46448e+01	-6.47678e+01	-1.74803e+02	-1.71738e+02	-1.79902e+02	-1.78143e+02	-6.55759e+01	-1.51148e+02	
Factor	1.34725e-05	1.20035e-04	3.44946e-05	2.75324e-01	1.14839e-06	1.47898e-06	1.54831e-01	4.40518e-02	8.52034e-07	1.53134e-06	8.28116e-02	2.37421e-02	1.84838e-02	7.33700e-03	1.05337e-06	1.06775e-02	4.48628e-06	5.69377e-06	1.58866e-06	1.45487e-01	6.13995e-08	6.28015e-08	7.73109e-02	2.36346e-02	6.06459e-08	6.30374e-08	4.27097e-02	1.23527e-02	1.00779e-02	3.96030e-03	6.13034e-08	5.55185e-03	X	X	X	X	X	X	X	X	X	X	X	X	X	X	X	X	



#DISTANCE SETTINGS
A = Detector Channel
A-1	A-2	A-3	A-4	A-5	A-6	A-7	A-8	A-9	A-10	A-11	A-12	A-13	A-14	A-15	A-16	

2.5000e+00	3.0000e+00	2.5000e+00	3.0000e+00	2.0000e+00	3.0000e+00	1.5000e+00	3.0000e+00	3.0000e+00	3.0000e+00	3.0000e+00	3.0000e+00	3.0000e+00	3.0000e+00	1.5000e+00	3.0000e+00	

B = Detector Channel
B-1	B-2	B-3	B-4	B-5	B-6	B-7	B-8	B-9	B-10	B-11	B-12	B-13	B-14	B-15	B-16	

1.0000e+01	1.0000e+01	1.0000e+01	1.4400e+00	1.0000e+01	1.0000e+01	1.5100e+00	1.9400e+00	1.0000e+01	1.0000e+01	1.9900e+00	2.4900e+00	2.4100e+00	2.9000e+00	1.0000e+01	2.9800e+00	




#DATA BEGINS
time	group	step	mark	flag	A-AC1	A-AC2	A-AC3	A-AC4	A-AC5	A-AC6	A-AC7	A-AC8	A-AC9	A-AC10	A-AC11	A-AC12	A-AC13	A-AC14	A-AC15	A-AC16	A-DC1	A-DC2	A-DC3	A-DC4	A-DC5	A-DC6	A-DC7	A-DC8	A-DC9	A-DC10	A-DC11	A-DC12	A-DC13	A-DC14	A-DC15	A-DC16	A-Ph1	A-Ph2	A-Ph3	A-Ph4	A-Ph5	A-Ph6	A-Ph7	A-Ph8	A-Ph9	A-Ph10	A-Ph11	A-Ph12	A-Ph13	A-Ph14	A-Ph15	A-Ph16	B-AC1	B-AC2	B-AC3	B-AC4	B-AC5	B-AC6	B-AC7	B-AC8	B-AC9	B-AC10	B-AC11	B-AC12	B-AC13	B-AC14	B-AC15	B-AC16	B-DC1	B-DC2	B-DC3	B-DC4	B-DC5	B-DC6	B-DC7	B-DC8	B-DC9	B-DC10	B-DC11	B-DC12	B-DC13	B-DC14	B-DC15	B-DC16	B-Ph1	B-Ph2	B-Ph3	B-Ph4	B-Ph5	B-Ph6	B-Ph7	B-Ph8	B-Ph9	B-Ph10	B-Ph11	B-Ph12	B-Ph13	B-Ph14	B-Ph15	B-Ph16	aux-1	digaux	

512.725	1	1	0	768	0.35015	0.040893	0.16762	0.40654	0.10434	0.099491	0.047282	0.28329	0.17629	0.16723	0.31997	0.03768	0.21275	0.11078	0.1578	0.29959	-2.1333	-3.0979	-2.2438	-3.0521	-2.7375	-2.1875	-3.5792	-2.4125	-2.5729	-3.2	-2.2188	-2.9708	-3.0229	-2.3208	-3.0687	-2.5083	225.898	-102.581	236.900	228.839	164.302	159.054	236.396	-110.265	158.799	213.976	213.616	-39.068	181.773	84.959	231.432	147.744	0.00023292	0.00058625	0.00015778	1380.5	4.6693e-06	4.4424e-06	1370.7	370.6	2.7581e-06	9.3961e-06	424.29	140.78	122.34	42.404	5.9513e-06	52.251	0.00049235	0.00053131	0.00015279	1380.9	5.8886e-06	5.8146e-06	1380.2	374.3	5.9117e-06	5.9482e-06	427.84	143.3	124.57	43.081	5.933e-06	53.202	-116.066	-76.648	31.417	-109.227	17.682	54.240	-109.221	-104.547	-11.346	28.198	-105.384	-100.955	-100.230	-95.852	14.436	-96.605	-8191	255	
512.822	1	1	0	0	0.14633	0.10272	0.22834	0.156	0.14579	0.079676	0.019741	0.29005	0.26846	0.16538	0.055139	0.093316	0.21315	0.34048	0.15895	0.27287	-2.0646	-3.025	-2.0479	-3.0646	-2.825	-2.0771	-3.2667	-2.5687	-2.1542	-2.9833	-2.3917	-2.9854	-3.1083	-2.1479	-2.8958	-2.6312	-93.515	159.518	71.291	120.682	143.688	190.632	70.883	174.132	48.116	78.546	110.795	191.268	-109.637	-89.805	-58.298	165.589	0.0002111	0.00069861	0.00012999	1376.8	4.4101e-06	3.2743e-06	1373	369.25	1.9309e-06	7.0602e-06	423.67	140.56	122.52	42.6	1.2165e-06	52.136	0.00050419	0.00054635	0.00014955	1380.5	5.9009e-06	5.9871e-06	1378.9	373.93	6.0916e-06	5.9247e-06	427.28	143.31	124.54	43.04	5.903e-06	53.138	-112.065	-44.376	-46.672	-109.507	39.504	32.683	-109.064	-104.716	28.438	53.977	-104.972	-100.801	-100.472	-95.928	-10.019	-96.263	-8191	255	
512.918	1	1	0	0	0.088032	0.17084	0.20533	0.11028	0.26431	0.16113	0.20311	0.21188	0.054622	0.27335	0.16909	0.20444	0.15033	0.13998	0.24017	0.40662	-1.9958	-3.0667	-2.2542	-2.6354	-2.9062	-2.2333	-3.1146	-2.8229	-2.1188	-3.1729	-2.4062	-2.7188	-3.125	-2.3833	-2.9833	-2.6354	69.234	194.003	20.335	177.228	82.815	89.577	171.549	154.795	215.254	157.526	232.274	-112.442	228.047	156.622	209.251	105.467	0.0002604	0.00061444	9.8747e-05	1381.1	4.4242e-06	5.2244e-06	1366.3	371.32	4.8625e-06	5.6121e-06	423.86	140.79	122.45	42.304	4.0366e-06	52.154	0.00051294	0.00054718	0.00015211	1380.1	5.8828e-06	5.9107e-06	1378.3	374.39	6.0003e-06	5.8698e-06	427.5	143.05	124.52	42.957	5.8586e-06	53.081	-116.852	-43.646	-16.864	-109.265	-6.210	10.946	-109.229	-104.789	28.677	23.952	-105.154	-100.783	-100.356	-95.824	40.756	-96.183	-8191	255	
513.014	1	1	0	0	0.1794	0.073793	0.15058	0.074476	0.32293	0.10701	0.22967	0.64624	0.17543	0.32938	0.25294	0.16073	0.15085	0.08708	0.20562	0.15403	-1.7646	-3.1396	-2.4875	-2.3458	-2.9479	-1.9771	-3.1083	-2.9875	-2.1521	-3.0521	-2.6167	-2.4542	-3.3312	-2.2042	-2.7542	-2.9896	-16.269	109.864	139.673	224.855	102.730	45.985	182.572	178.185	-107.234	-22.724	-121.351	131.206	180.296	155.911	58.297	197.638	0.00020883	0.00041654	0.00017351	1378.8	1.5606e-06	5.2608e-06	1367.3	369.99	3.8332e-06	5.4895e-06	422.41	140.23	122.19	42.348	2.9977e-06	52.433	0.00050494	0.00052634	0.00014659	1381.4	5.8805e-06	5.8869e-06	1378.6	373.93	5.8024e-06	5.9247e-06	427.35	143.18	124.5	42.989	5.9431e-06	53.24	-121.781	-29.882	-28.166	-109.145	7.554	2.249	-109.403	-104.743	33.096	46.568	-105.534	-101.029	-100.199	-95.696	13.376	-96.368	-8191	255	
513.110	1	1	0	0	0.056839	0.11475	0.078803	0.12566	0.42783	0.16415	0.33322	0.21135	0.038885	0.14549	0.13764	0.15153	0.13559	0.053355	0.16532	0.15382	-1.6604	-3.0146	-2.4917	-2.3937	-3.2417	-2.2167	-2.8312	-3.2021	-2.1396	-3.0687	-2.8063	-2.4208	-3.1583	-2.3063	-2.5687	-3.0771	231.912	-21.285	-50.469	156.573	228.987	-47.387	189.368	181.159	126.126	216.938	232.760	-99.376	138.266	-110.925	-47.353	-81.485	0.0002292	0.0004914	0.00013079	1378	3.5384e-06	5.5867e-06	1370.8	369.81	1.4907e-06	8.2014e-06	425.96	140.85	122.25	42.201	5.7398e-06	52.466	0.00050631	0.0005395	0.00015166	1381.8	5.9201e-06	6.0458e-06	1379.5	374.3	6.0192e-06	6.0387e-06	427.38	143.47	124.65	42.924	5.9878e-06	53.18	235.587	-12.447	-4.036	-109.157	16.964	43.330	-109.303	-104.740	31.518	19.736	-105.004	-100.846	-100.556	-95.738	29.565	-96.264	-8191	255	
513.206	1	1	0	0	0.26121	0.11498	0.25176	0.2232	0.12616	0.30253	0.22958	0.14902	0.099489	0.18019	0.27138	0.40542	0.18497	0.19815	0.13126	0.14918	-1.7812	-2.975	-2.6688	-2.2021	-3.1958	-2.3604	-2.7292	-3.1104	-2.2083	-3.0896	-2.9375	-2.3583	-3.5292	-2.475	-2.4854	-3.2104	214.552	45.025	197.694	140.150	-116.631	141.959	162.417	166.208	32.569	-3.310	209.410	-107.380	220.824	82.725	130.508	-15.096	0.0002444	0.0003863	5.7624e-05	1376	3.7398e-06	6.1401e-06	1375.4	370.78	1.5841e-06	8.341e-06	423.61	140.42	122.99	42.389	2.9978e-06	52.466	0.0004972	0.00053963	0.0001473	1381.8	5.9359e-06	5.9354e-06	1380.5	374.57	6.1545e-06	5.9054e-06	427.12	143.07	124.76	43.037	5.9232e-06	53.244	235.793	-12.230	2.368	-109.219	33.040	14.808	-108.934	-104.569	23.625	19.202	-105.262	-100.726	-100.421	-95.634	4.846	-96.374	-8191	255	
513.325	1	1	0	0	0.16379	0.012621	0.25302	0.20383	0.16536	0.27107	0.13839	0.20323	0.047107	0.23739	0.11512	0.11001	0.17958	0.06317	0.10557	0.29223	-1.7458	-2.7438	-2.8688	-2.1937	-3.0417	-2.4479	-2.6708	-3.2687	-2.1813	-2.7583	-3.075	-2.3688	-3.1229	-2.5583	-2.1771	-3.2479	96.182	-45.861	-20.498	147.482	147.834	6.256	156.434	164.771	167.478	-114.659	221.816	148.731	-96.329	177.935	206.800	144.851	0.00022897	0.00085563	0.00015459	1371.4	3.8589e-06	7.1833e-06	1368.9	369.45	1.8323e-06	6.1869e-06	424.19	140.21	122.52	42.496	4.6704e-06	52.609	0.00051924	0.0005412	0.0001511	1380.6	5.8825e-06	5.989e-06	1376.5	373.84	5.9429e-06	5.9528e-06	427.08	143.22	124.76	43.008	5.9627e-06	53.268	-121.251	-17.996	-23.296	-109.227	37.001	26.243	-108.941	-104.629	-0.583	41.386	-104.857	-100.660	-99.995	-95.803	3.145	-96.241	-8191	255	
513.421	1	1	0	0	0.16611	0.1312	0.10075	0.10228	0.16808	0.25953	0.33921	0.078672	0.064987	0.14297	0.025665	0.14817	0.1706	0.16055	0.065825	0.076699	-1.9083	-2.6542	-3.0646	-2.2479	-2.9167	-2.4688	-2.4979	-3.4313	-2.2667	-2.7562	-3.1833	-2.3896	-3.0042	-2.8625	-2.1479	-3.2542	200.367	-52.172	62.390	-46.085	125.377	179.832	190.099	-80.935	73.371	-60.960	-61.732	-74.978	197.153	11.965	212.273	161.226	0.00024182	0.00044725	0.00014855	1375.4	3.6574e-06	5.2418e-06	1367.2	369.85	1.0985e-06	1.0696e-05	422.78	140.04	122.81	42.115	3.7411e-06	52.19	0.00050946	0.00054883	0.00015475	1379.2	5.9753e-06	5.9583e-06	1378.1	374.1	6.0554e-06	6.0448e-06	426.98	143	124.79	42.896	5.9637e-06	53.164	-113.518	-0.253	-44.150	-109.231	48.206	44.247	-109.125	-104.452	46.515	38.706	-105.064	-100.678	-100.146	-95.496	14.831	-96.176	-8191	255	
513.517	1	1	0	0	0.1492	0.1698	0.20903	0.27524	0.29447	0.22148	0.2015	0.37311	0.13938	0.25761	0.14412	0.36616	0.50737	0.14242	0.19836	0.298	-2.0604	-2.525	-2.9813	-2.2062	-3.0812	-2.8625	-2.2542	-3.2812	-2.3021	-2.5187	-3.1625	-2.475	-2.8021	-2.8604	-2.1208	-3.0583	76.252	117.784	68.547	234.341	-76.780	106.438	202.999	180.065	215.225	42.588	170.014	214.601	218.318	-41.118	186.698	169.875	0.00024826	0.00069143	0.00015396	1372.8	5.228e-06	6.0572e-06	1367.9	369.57	3.6259e-06	7.4288e-06	424.63	140.9	122.41	42.238	5.0787e-06	52.269	0.00050097	0.00053922	0.00015239	1380.3	5.77e-06	5.9756e-06	1377.7	373.89	6.0496e-06	6.0349e-06	427.82	143.29	124.55	42.975	6.0035e-06	53.257	236.708	-35.297	-39.883	-109.317	17.738	35.189	-109.025	-104.563	14.886	31.497	-105.044	-100.455	-99.993	-95.918	18.384	-96.263	-8191	255	
513.614	1	1	0	0	0.15903	0.081782	0.10759	0.14675	0.20503	0.31307	0.3951	0.084122	0.06606	0.16803	0.24235	0.31886	0.27604	0.45214	0.3372	0.15241	-2.0583	-2.5667	-3.0312	-2.2812	-2.6813	-2.8979	-2.15	-3.1146	-2.5292	-2.0292	-3.275	-2.3167	-2.9333	-2.9375	-1.9792	-3.0812	-28.963	-26.629	115.801	-93.268	172.442	227.478	160.720	209.482	214.147	109.683	-82.317	161.867	192.179	121.073	-50.400	-94.568	0.00025897	0.00054693	0.00015115	1377.7	4.5606e-06	5.7646e-06	1371.8	369.75	1.8862e-06	4.6369e-06	424.45	140.2	122.57	42.023	3.7484e-06	52.257	0.00050403	0.00053916	0.00014836	1382.1	5.8049e-06	5.7999e-06	1378.5	374.64	6.0632e-06	6.0826e-06	428.18	143.05	124.62	42.895	5.9163e-06	53.185	237.047	-28.185	-17.925	-109.258	63.028	1.935	-109.152	-104.492	18.403	59.150	-104.994	-100.907	-100.115	-95.826	51.058	-96.515	-8191	255	
513.710	1	1	0	0	0.048842	0.19249	0.17335	0.16711	0.29378	0.23732	0.37574	0.14592	0.22469	0.16375	0.14644	0.16746	0.19888	0.043856	0.11595	0.17268	-2.0979	-2.175	-3.0771	-2.4042	-2.7	-2.9833	-2.3771	-3.2354	-2.7333	-2.3146	-3.05	-2.3396	-2.6063	-3.2188	-1.9813	-2.9708	87.028	-71.218	14.188	173.569	-77.720	25.716	172.779	129.854	159.685	-72.281	111.121	127.675	198.096	-86.866	-7.174	45.199	0.0002286	0.00032958	7.1323e-05	1377.4	5.4745e-06	6.9323e-06	1371.7	369.59	3.9169e-06	7.549e-06	425	140.37	122.5	42.164	1.7409e-06	52.362	0.00050487	0.00053743	0.00014794	1378.9	5.9029e-06	5.8103e-06	1377.5	374.06	5.9653e-06	6.0345e-06	428.13	143.2	124.48	42.971	5.9666e-06	53.319	-118.660	-30.200	-18.182	-109.209	11.277	18.921	-109.250	-104.408	-5.687	9.211	-105.209	-100.821	-100.137	-95.771	-4.149	-96.253	-8191	255	
513.806	1	1	0	0	0.10841	0.23513	0.10467	0.16299	0.1778	0.2072	0.31152	0.50359	0.14874	0.25554	0.05077	0.113	0.17265	0.18303	0.074159	0.14621	-2.2958	-2.2333	-3.1813	-2.4562	-2.3708	-2.9292	-2.2271	-2.925	-2.7958	-1.9833	-3.0938	-2.6708	-2.4042	-3.2938	-2.0771	-2.8896	28.659	97.166	219.853	105.835	-2.010	23.676	175.784	216.327	207.683	-22.235	58.173	182.299	-107.223	197.272	57.099	127.042	0.00023622	0.00043722	0.00011798	1371.3	3.2283e-06	7.9247e-06	1371	371.45	2.7624e-06	6.7275e-06	424.6	139.91	122.35	42.252	4.5747e-07	52.503	0.00050252	0.00054874	0.00014941	1379	5.7382e-06	5.8603e-06	1378.7	374.77	5.7758e-06	5.9868e-06	427.59	142.98	124.49	43.04	5.931e-06	53.213	-117.265	-40.523	-36.948	-109.261	-9.110	-6.339	-109.114	-104.518	54.073	26.470	-105.070	-100.848	-100.069	-95.508	145.606	-96.215	-8191	255	
513.927	1	1	0	0	0.22734	0.15231	0.10899	0.32607	0.18582	0.13002	0.13913	0.043661	0.09207	0.10506	0.24541	0.093268	0.089217	0.097973	0.12916	0.063324	-2.6479	-2.0062	-3.1417	-2.5125	-2.2542	-3.075	-2.4188	-2.8417	-2.8271	-1.9208	-2.9062	-2.7812	-2.2875	-3.2604	-2.3354	-2.65	76.665	186.355	213.572	198.500	140.847	86.726	198.246	-96.543	33.511	-115.222	220.746	193.443	147.290	-100.132	222.745	117.706	0.0001988	0.00040534	0.00013757	1375.4	4.7368e-06	4.5491e-06	1368.2	370.64	2.4024e-06	5.7613e-06	424.18	139.69	122.7	42.275	3.9145e-06	52.294	0.00049781	0.00053718	0.00015107	1378	5.8634e-06	5.7975e-06	1376.5	374.83	5.9654e-06	6.0184e-06	427.17	142.89	124.64	42.968	5.96e-06	53.193	232.132	-33.113	-44.881	-109.189	39.261	43.405	-109.376	-104.410	1.208	56.831	-104.928	-101.060	-100.282	-95.886	8.072	-96.268	-8191	255	
514.023	1	1	0	0	0.13705	0.11959	0.12893	0.32284	0.095735	0.13311	0.2306	0.095187	0.23593	0.12621	0.07636	0.070501	0.34887	0.041243	0.17592	0.30549	-2.6354	-1.9562	-2.9146	-2.7958	-2.0646	-3.1188	-2.4375	-2.4792	-3.1042	-1.9562	-2.8875	-2.8312	-2.0062	-3.1646	-2.3521	-2.6729	-13.802	92.535	67.102	157.403	-78.970	162.680	168.925	205.587	-59.813	-118.204	235.235	-44.588	222.541	195.169	206.503	232.820	0.00022279	0.00074242	0.00020449	1372.3	2.6157e-06	9.1915e-06	1367.4	369.62	3.6644e-06	3.4478e-06	424.1	140.75	122.54	42.096	1.7362e-06	52.241	0.00050598	0.00054101	0.00014972	1378.1	5.8652e-06	5.9234e-06	1378.2	374.06	5.8413e-06	5.953e-06	427.01	143.15	124.67	42.942	5.8526e-06	53.217	-115.981	-41.179	-56.944	-109.142	40.375	17.693	-109.082	-104.522	34.767	42.063	-104.971	-100.745	-99.952	-95.790	-3.683	-96.311	-8191	255	
514.117	1	1	0	0	0.057631	0.13945	0.21666	0.24675	0.08541	0.17796	0.11791	0.20341	0.10421	0.13253	0.23291	0.20324	0.21034	0.15821	0.039177	0.33412	-2.5792	-2.0208	-2.8104	-3.0271	-2.0021	-2.7125	-2.8354	-2.7375	-3.3104	-2.075	-2.8187	-3.1188	-2.3729	-3.1042	-2.7083	-2.325	7.261	185.024	87.088	174.013	-40.713	215.142	48.324	191.321	17.920	23.063	-104.888	203.402	-107.779	202.359	174.991	-114.760	0.00023448	0.00050755	0.00010177	1379.4	4.6422e-06	5.843e-06	1365.6	370.49	4.0626e-06	6.327e-06	425.18	140.05	122.14	42.318	5.2292e-06	52.108	0.00050615	0.00054765	0.00015094	1378.9	6.0527e-06	5.9733e-06	1374.9	374.26	5.8864e-06	5.9183e-06	427.61	143.03	124.42	43.011	5.9902e-06	53.167	237.453	-43.899	12.716	-109.104	103.466	41.064	-109.166	-104.432	-30.671	24.303	-105.194	-100.850	-100.262	-95.682	12.023	-96.069	-8191	255	
514.213	1	1	0	0	0.079278	0.17884	0.12647	0.084847	0.12647	0.092482	0.17802	0.26522	0.27255	0.14536	0.21622	0.25552	0.17983	0.35562	0.070017	0.083319	-2.5583	-2.2604	-2.5917	-3.0938	-1.8979	-2.7292	-2.8292	-2.2604	-2.8771	-2.0521	-2.4562	-3.2958	-2.2292	-3.1437	-2.85	-2.1437	-117.799	232.023	10.063	43.620	65.161	116.232	142.213	180.905	-120.072	31.407	206.807	-107.538	-76.078	212.427	-76.136	166.014	0.00021543	0.00038047	0.00011222	1371.6	5.6591e-06	4.4152e-06	1368.1	369.86	2.2436e-06	4.2207e-06	423.7	140.1	122.19	42.024	2.819e-06	52.347	0.00050025	0.00053967	0.00014911	1379.1	5.9856e-06	5.9673e-06	1377	374.28	5.9534e-06	6.0551e-06	427.46	143.12	124.28	42.878	5.8043e-06	53.138	-117.569	-45.507	2.093	-109.515	30.457	22.956	-108.943	-104.505	-3.605	13.698	-105.184	-100.794	-100.249	-95.558	125.555	-96.142	-8191	255	
514.287	1	1	0	0	0.14342	0.18052	0.12317	0.18367	0.16095	0.27503	0.43174	0.064348	0.26819	0.17972	0.1068	0.077527	0.28185	0.36128	0.10919	0.1517	-2.6917	-2.3688	-2.4958	-3.2167	-2.2229	-2.8312	-2.9958	-2.3854	-3.1875	-2.5083	-2.4146	-3.2042	-2.3146	-2.8042	-2.8771	-2.0792	140.340	183.556	-67.665	-89.276	217.658	19.015	167.557	215.158	34.277	-14.755	5.704	76.173	195.478	205.348	82.775	87.478	0.00021367	0.0004181	7.0375e-05	1372.6	4.2634e-06	5.1531e-06	1365.1	370.42	3.7001e-06	8.6817e-06	422.81	139.87	121.82	42.029	4.9772e-06	51.899	0.00050525	0.00054493	0.00014994	1378.9	5.8107e-06	5.8789e-06	1377.7	374.16	5.9581e-06	6.0176e-06	427.14	142.93	124.24	42.91	5.9323e-06	53.187	236.148	-8.633	11.161	-109.379	46.698	7.774	-109.222	-104.487	3.190	21.238	-105.158	-101.007	-100.306	-95.768	11.452	-96.469	-8191	255	
514.406	1	1	0	0	0.15912	0.2324	0.35983	0.26153	0.034741	0.071496	0.29881	0.43469	0.059092	0.17324	0.11244	0.35862	0.22234	0.11312	0.17229	0.14124	-2.6771	-2.5458	-2.3333	-3.3104	-2.2458	-2.7771	-3.1063	-2.2333	-3.275	-2.625	-2.4813	-3.1583	-2.3958	-2.8854	-2.9875	-2.2417	130.378	-7.656	-74.567	188.290	114.796	-75.277	179.584	157.917	184.443	131.705	225.484	141.432	226.288	188.122	-48.229	171.765	0.00024908	0.00041065	0.0001538	1370.6	2.7667e-06	5.8251e-06	1361	366.88	3.3402e-06	5.3639e-06	422.54	139.68	122.18	42.216	3.5679e-06	51.989	0.00050055	0.00054653	0.00015066	1380	5.9519e-06	6.0647e-06	1374.8	373.38	5.9293e-06	5.9712e-06	426.65	142.87	124.42	42.951	5.9642e-06	53.065	-121.711	-41.693	-3.077	-109.405	19.950	29.080	-109.552	-104.696	21.236	4.376	-105.248	-100.974	-100.390	-95.973	24.311	-96.765	-8191	255	
514.502	1	1	0	0	0.41547	0.044202	0.1439	0.16289	0.069917	0.071999	0.063233	0.0065501	0.025527	0.093755	0.10616	0.22692	0.28154	0.12943	0.16174	0.32505	-2.6521	-2.7021	-1.9833	-3.3292	-2.3167	-2.5667	-3.0729	-2.3625	-2.9188	-2.7708	-2.3646	-3.225	-2.5167	-2.5708	-2.9521	-2.2271	-63.726	173.028	-58.888	37.049	-3.893	174.601	61.711	-118.674	9.634	68.444	-35.165	187.859	191.699	-119.710	10.449	198.052	0.00022503	0.0007028	0.00016393	1370.3	4.7816e-06	6.2088e-06	1364.8	369.01	3.1197e-06	5.917e-06	423.16	140.46	121.29	42.074	1.6791e-06	52.22	0.00051431	0.00053805	0.00015268	1377.6	6.1517e-06	6.1315e-06	1377.5	373.83	6.0033e-06	6.094e-06	427.42	143.23	124.23	42.926	5.9485e-06	53.257	-116.565	-25.569	-19.255	-109.374	28.521	27.240	-109.439	-104.492	2.404	33.023	-105.065	-100.927	-100.610	-95.715	71.460	-96.452	-8191	255	
514.598	1	1	0	0	0.16998	0.27717	0.046521	0.26061	0.19258	0.090596	0.11696	0.12981	0.089011	0.033782	0.21607	0.1377	0.056254	0.16043	0.18101	0.10889	-2.6146	-2.7938	-1.9625	-3.2729	-2.6271	-2.3042	-3.4062	-2.3917	-2.6458	-3.0292	-2.4708	-3.0667	-2.7271	-2.3042	-3.2	-2.4792	-95.041	41.739	88.138	-106.973	172.233	217.036	183.549	208.025	-113.427	159.171	128.972	-38.762	26.247	179.355	207.353	-105.286	0.00023543	0.00071266	0.00013876	1377.3	4.7982e-06	5.6493e-06	1368	368.86	2.0303e-06	4.8704e-06	424.96	140.13	122.14	42.151	3.7516e-06	52.223	0.00051105	0.00056141	0.00015712	1380.4	5.9691e-06	6.058e-06	1376.5	373.93	6.1044e-06	6.0674e-06	427.86	143.37	124.44	42.95	6.156e-06	53.177	-120.318	-33.968	-38.928	-109.271	40.401	36.164	-109.358	-104.778	-52.737	10.473	-105.087	-100.907	-100.339	-95.777	51.826	-96.615	-8191	255	
514.694	1	1	0	0	0.34589	0.072265	0.099785	0.15621	0.27527	0.10613	0.21237	0.13221	0.093459	0.16554	0.2067	0.28213	0.080062	0.028627	0.018769	0.17361	-2.3229	-3.0083	-1.9542	-3.0958	-2.6292	-2.0167	-3.3521	-2.6354	-2.4688	-2.9396	-2.1708	-3.1521	-2.7271	-2.2812	-3.2521	-2.4813	213.534	39.889	-13.320	122.979	80.196	82.909	119.774	113.484	93.889	176.045	233.081	227.199	-2.886	112.879	-24.161	161.175	0.00023618	0.00055074	8.2264e-05	1377.7	4.0972e-06	2.4566e-06	1360.8	369.23	4.4853e-06	4.0591e-06	421.7	140.06	121.52	41.927	2.5318e-06	52.037	0.00051428	0.0005461	0.00015766	1381.9	5.9307e-06	6.0877e-06	1376.8	374.07	6.0767e-06	6.0655e-06	426.85	143.16	124.14	42.928	5.983e-06	53.061	-120.407	-30.755	-56.732	-109.340	40.050	45.092	-109.366	-104.759	12.349	-37.308	-105.244	-100.842	-100.299	-95.789	-4.753	-96.425	-8191	255	
514.815	1	1	0	0	0.15796	0.13298	0.28244	0.38281	0.24922	0.20759	0.32577	0.23778	0.086197	0.11587	0.029536	0.19916	0.011818	0.2739	0.12111	0.19397	-2.0417	-3.1312	-2.1125	-3.1312	-2.7479	-2.3583	-3.2896	-2.5958	-2.3708	-3.1083	-2.3917	-3.0125	-2.9521	-2.3354	-3.0833	-2.575	-122.087	38.688	30.714	198.568	8.080	-48.933	134.896	139.460	185.773	115.500	73.305	183.662	110.551	209.745	-122.610	97.604	0.00024834	0.00026114	0.00020015	1376.2	3.8358e-06	6.5327e-06	1366.2	367.01	2.0013e-06	6.1017e-06	423.12	139.85	121.62	41.937	4.4564e-06	51.849	0.00051292	0.00054708	0.00015209	1380.4	5.9007e-06	5.9677e-06	1375.5	373.2	6.0095e-06	5.9988e-06	427.4	142.97	124.39	42.866	5.9693e-06	53.067	-117.975	-10.850	-32.027	-109.122	13.634	32.480	-109.114	-104.738	30.702	47.890	-105.433	-100.870	-100.208	-95.980	9.164	-96.381	-8191	255	
514.886	1	1	0	0	0.080457	0.32984	0.10355	0.068839	0.17523	0.21069	0.12699	0.046197	0.12024	0.077899	0.4407	0.10145	0.092197	0.15756	0.076892	0.15431	-2.1042	-3.1104	-2.2583	-2.7375	-2.8146	-2.175	-3.2958	-2.6417	-2.1667	-3.1312	-2.425	-2.7708	-3.1583	-2.3833	-2.8458	-2.6646	-109.396	-100.893	-32.670	166.978	67.047	48.277	190.902	-86.924	-11.790	191.891	198.334	-103.973	16.051	149.665	-73.392	235.663	0.00025954	0.00015648	0.00018735	1372.7	4.6493e-06	5.8089e-06	1357.4	368.13	3.5475e-06	7.8189e-06	423.27	140.74	121.94	42.199	4.2251e-06	52.133	0.00050612	0.00053225	0.00015191	1379	5.8402e-06	6.0217e-06	1373.3	373.78	5.9159e-06	5.8775e-06	427.23	143.19	124.32	42.957	5.8943e-06	53.111	-119.916	-62.853	-37.970	-109.058	17.348	30.413	-109.169	-104.743	21.849	87.930	-105.037	-100.774	-100.169	-95.480	-10.172	-96.600	-8191	255	
515.007	1	1	0	0	0.39456	0.25982	0.1001	0.1149	0.30964	0.14233	0.2823	0.1931	0.033295	0.14864	0.29396	0.32213	0.20332	0.14968	0.027172	0.16669	-1.8333	-3.15	-2.2438	-2.7375	-3.075	-2.1417	-3.1833	-2.7771	-2.0812	-3.1667	-2.4313	-2.5854	-3.1813	-2.1104	-2.8375	-3.0021	-90.219	35.885	119.663	69.386	-36.207	39.502	201.242	221.579	202.896	208.054	234.815	-102.986	228.592	142.624	73.982	155.678	0.00026379	0.00043341	0.00018798	1375.7	2.2593e-06	5.0057e-06	1368.7	369.63	3.2884e-06	6.0606e-06	423.27	140.4	121.7	42.192	4.2123e-06	51.816	0.00050587	0.00052556	0.00015155	1381.1	5.8181e-06	6.0286e-06	1378.3	374.38	6.0413e-06	6.0516e-06	427.64	143.36	124.46	43.013	5.9551e-06	53.162	-116.735	-7.525	-56.293	-109.084	-0.477	31.385	-108.844	-104.579	-4.811	41.528	-104.918	-100.914	-100.104	-95.808	41.693	-96.378	-8191	255	
515.103	1	1	0	0	0.12355	0.10234	0.16823	0.1288	0.15079	0.078309	0.098969	0.21508	0.048418	0.27886	0.3889	0.27829	0.43306	0.12602	0.25422	0.19987	-1.6333	-3.0479	-2.4729	-2.4125	-3.1	-2.3083	-3	-2.9583	-2.0625	-3.0083	-2.6625	-2.3625	-3.2771	-2.15	-2.5938	-3.0896	44.445	4.922	150.065	133.712	87.097	220.216	224.038	-107.585	176.308	-24.642	160.915	200.216	169.434	194.995	-13.093	46.174	0.00021943	0.00058581	0.00017122	1368.4	2.1996e-06	2.7946e-06	1360.4	368.99	4.6486e-06	7.7673e-06	422.3	140.27	122.29	42.055	5.2938e-06	52.13	0.00049676	0.00053599	0.00015007	1377	5.844e-06	5.952e-06	1373.8	373.99	5.846e-06	5.9355e-06	427.26	143.23	124.66	42.924	5.7743e-06	53.164	-121.815	-53.925	-31.252	-109.150	20.076	59.101	-109.149	-104.378	-14.406	46.751	-105.019	-100.877	-100.185	-96.023	34.800	-96.462	-8191	255	
515.197	1	1	0	0	0.16585	0.15772	0.24488	0.11925	0.27387	0.18841	0.23463	0.18424	0.15031	0.1104	0.28703	0.26004	0.17245	0.14331	0.17753	0.095438	-1.8146	-3.1375	-2.5875	-2.425	-3.1667	-2.3479	-2.9083	-3.0375	-1.9417	-2.9708	-2.7854	-2.1667	-3.3667	-2.4771	-2.5542	-3.2896	-72.119	140.325	-51.539	224.858	43.303	155.181	232.847	-118.164	-117.364	-6.249	142.446	210.954	-38.947	207.384	-7.642	182.600	0.00026312	0.00051684	0.00012093	1371.4	4.8429e-06	7.034e-06	1371.4	370.19	5.0782e-06	5.8536e-06	424.69	140.76	122.61	42.089	3.3608e-06	52.213	0.0005023	0.00053033	0.00014611	1378.1	5.7593e-06	5.7186e-06	1378.8	374.7	5.8858e-06	5.7807e-06	427.68	143.15	124.52	42.87	5.8527e-06	53.096	-117.640	-34.538	-29.056	-109.037	17.840	9.077	-108.921	-104.453	6.087	2.094	-105.167	-100.541	-100.086	-95.596	36.412	-96.453	-8191	255	
515.295	1	1	0	0	0.13322	0.15207	0.012198	0.25412	0.1583	0.13277	0.31222	0.28689	0.12762	0.094184	0.23896	0.21507	0.23942	0.23934	0.13685	0.17877	-1.6771	-2.9062	-2.6917	-2.0792	-3.0625	-2.3667	-2.8187	-3.2875	-2.0875	-2.7792	-2.9604	-2.3479	-3.1271	-2.4167	-2.225	-3.3646	-86.547	195.998	-58.036	174.112	190.318	220.746	205.053	217.436	149.680	-78.212	113.526	234.246	-80.713	-65.537	52.052	136.582	0.00024264	0.00048942	8.2883e-05	1375.2	5.3745e-06	4.7306e-06	1366	370.47	4.3673e-06	1.3254e-06	424.22	139.74	122.37	42.348	2.8452e-06	52.282	0.00049663	0.00053276	0.00014827	1379.4	5.8216e-06	5.797e-06	1378	374.19	5.8834e-06	5.7816e-06	427.24	143.19	124.79	42.872	5.8028e-06	53.212	-121.629	-0.085	-8.876	-108.497	41.849	9.816	-109.041	-104.330	14.300	-9.466	-105.260	-100.640	-100.211	-95.790	-13.154	-96.167	-8191	255	
515.414	1	1	0	0	0.23908	0.13399	0.27694	0.18062	0.15314	0.10306	0.16787	0.2901	0.3068	0.13537	0.11964	0.24157	0.23922	0.058953	0.13337	0.12325	-1.9438	-2.8583	-2.9083	-2.1917	-3.0021	-2.4646	-2.4625	-3.425	-2.2146	-2.7438	-3.1813	-2.3042	-3.1792	-2.8875	-2.2104	-3.2292	-40.144	125.816	-97.031	-120.024	-2.990	180.582	126.105	199.842	-81.514	18.964	-82.788	209.919	-41.819	220.015	131.387	140.274	0.00021986	0.00052531	0.000151	1373.6	5.6149e-06	3.7872e-06	1363.4	369.82	2.5251e-06	5.928e-06	423.66	140.6	122.46	42.203	3.681e-06	52.165	0.00049834	0.00052861	0.00014961	1378	5.7246e-06	5.7944e-06	1375.9	374.09	5.8461e-06	5.9295e-06	427.59	143.18	124.6	42.924	5.7224e-06	53.202	-120.508	-41.602	-29.739	-108.952	22.616	58.399	-108.755	-104.286	18.209	56.509	-104.870	-100.480	-99.728	-95.649	3.270	-95.978	-8191	255	
515.510	1	1	0	0	0.15892	0.12302	0.11825	0.34331	0.079895	0.069439	0.065423	0.25158	0.25515	0.19163	0.20046	0.21473	0.24175	0.20722	0.071767	0.15984	-1.9208	-2.4833	-3.0146	-2.0604	-2.9667	-2.7104	-2.3854	-3.2708	-2.3542	-2.5354	-3.2292	-2.3187	-2.9688	-2.9625	-1.9688	-3.3521	-1.388	214.630	85.234	217.978	202.286	-104.739	176.399	144.183	227.216	-99.368	194.711	106.571	-103.635	32.600	80.829	108.558	0.00024534	0.00038258	0.00013723	1376.7	5.4057e-06	1.7901e-08	1368.9	369.6	2.8219e-06	8.1109e-06	424.19	139.47	122.52	42.084	4.8701e-06	52.394	0.00049408	0.00053061	0.00014643	1378.7	5.6947e-06	5.6508e-06	1377.6	374.01	5.7615e-06	5.7168e-06	427.38	143.03	124.57	42.886	5.7546e-06	53.186	-120.631	-26.935	-37.728	-108.739	23.957	190.860	-109.175	-104.606	61.702	23.548	-105.162	-100.513	-99.968	-95.378	54.008	-96.185	-8191	255	
515.582	1	1	0	0	0.25851	0.12126	0.14436	0.16911	0.16618	0.11992	0.5014	0.21274	0.11059	0.27441	0.23607	0.1709	0.1925	0.21292	0.072896	0.16016	-2.0292	-2.4938	-2.9	-2.1333	-2.8583	-2.7146	-2.3229	-3.35	-2.3312	-2.2604	-3.2583	-2.3354	-2.8417	-3.0938	-2.1354	-3.0729	216.393	79.643	112.537	194.621	151.910	101.239	222.683	179.904	82.107	75.323	-100.731	-70.134	174.484	-49.443	119.426	209.173	0.00024292	0.00058994	0.00022212	1370	3.3554e-06	6.2075e-06	1361.8	369.58	3.251e-06	7.7459e-06	422.17	139.82	122.22	42.145	5.6757e-06	52.06	0.00049238	0.00053572	0.00014576	1376.2	5.7473e-06	5.7632e-06	1375.1	374.41	5.8001e-06	5.902e-06	426.86	142.92	124.53	42.902	5.8173e-06	53.125	-118.844	-33.792	-48.749	-108.837	11.722	15.417	-109.019	-104.031	-29.707	15.388	-104.980	-100.429	-99.801	-95.674	34.431	-96.110	-8191	255	
515.703	1	1	0	0	0.13769	0.052038	0.088319	0.12501	0.14803	0.086606	0.27233	0.24366	0.10704	0.21494	0.253	0.16109	0.1627	0.089569	0.22167	0.16334	-2.3396	-2.3125	-3.1937	-2.4146	-2.6063	-2.925	-2.3708	-3.2125	-2.5583	-2.4062	-3.3333	-2.4979	-2.6937	-3.1667	-2.1	-3.1354	23.929	224.544	56.355	-30.959	-6.945	76.043	186.471	-115.310	-95.188	107.227	166.572	152.925	206.681	138.605	21.031	126.523	0.00025311	0.00058845	0.00012442	1368.3	4.3153e-06	6.6087e-06	1366.8	368	2.0886e-06	7.4171e-06	421.74	138.81	121.24	41.735	2.4994e-06	51.736	0.00050189	0.0005345	0.00014396	1377.1	5.7942e-06	5.7942e-06	1376.1	373.84	5.8149e-06	5.8756e-06	427.18	142.78	124.27	42.772	5.838e-06	53.05	-121.828	-29.491	-4.865	-109.125	38.975	20.970	-109.278	-104.373	1.660	52.316	-105.267	-100.697	-100.196	-95.974	51.255	-96.127	-8191	255	
515.799	1	1	0	0	0.23558	0.15466	0.019303	0.17167	0.18987	0.16258	0.2404	0.13798	0.25002	0.35839	0.14039	0.10821	0.28139	0.17422	0.042901	0.1715	-2.2938	-2.2146	-3.1271	-2.4646	-2.475	-2.925	-2.1542	-2.9229	-2.55	-1.9896	-3.1208	-2.4771	-2.4688	-3.1958	-2.0042	-2.9292	138.198	-79.618	-24.659	209.165	-71.945	230.168	177.557	212.036	129.218	232.283	26.568	186.982	-104.985	122.407	-104.397	180.252	0.00022677	0.00044706	0.00010784	1366.6	6.4544e-06	3.5862e-06	1358.1	369.33	3.0951e-06	6.4649e-06	416.35	138.88	122.02	42.044	2.1103e-06	52.144	0.0004873	0.0005268	0.00014638	1377.1	5.9361e-06	5.7678e-06	1373.6	374.05	5.929e-06	5.9312e-06	425.9	142.93	124.45	42.882	5.9361e-06	53.103	236.386	-30.830	-13.250	-109.503	36.579	-25.222	-109.145	-104.468	-4.410	41.261	-105.303	-100.831	-100.108	-95.700	30.430	-96.176	-8191	255	
515.895	1	1	0	0	0.3716	0.12504	0.18668	0.18329	0.076761	0.12419	0.30875	0.10063	0.10226	0.2952	0.25219	0.24099	0.22128	0.16865	0.1334	0.27097	-2.4479	-2.0687	-2.9979	-2.6104	-2.225	-3.0354	-2.2021	-2.8333	-2.7292	-2.0333	-3.1229	-2.6333	-2.3458	-3.3521	-2.1146	-2.8625	93.931	2.602	53.397	147.629	115.850	-117.235	168.729	203.482	194.264	219.503	185.122	124.123	210.369	-112.603	117.498	-37.173	0.00024703	0.00033598	0.00010467	1372.7	4.8884e-06	6.7101e-06	1365.5	369.77	4.25e-06	1.0094e-05	422.8	139.42	121.98	42.003	4.777e-06	52.093	0.00050364	0.00054226	0.00014817	1378.8	5.7559e-06	5.8472e-06	1375.6	374.47	5.995e-06	5.9212e-06	427.34	142.89	124.51	42.83	5.9638e-06	53.065	-117.337	-10.240	-23.621	-109.209	-2.236	15.725	-109.068	-104.302	5.280	36.757	-104.974	-100.510	-100.311	-95.709	51.393	-96.290	-8191	255	
515.991	1	1	0	0	0.16463	0.13182	0.028258	0.15356	0.21885	0.080523	0.19246	0.35043	0.070774	0.26113	0.13932	0.20387	0.21792	0.30464	0.15671	0.12874	-2.5896	-2.1458	-2.9167	-2.7271	-2.3063	-3.0625	-2.4458	-2.7354	-3.0875	-2.1146	-3.175	-2.9521	-2.2333	-3.2729	-2.2188	-2.5875	137.197	186.329	80.686	222.396	59.356	-27.001	156.943	157.854	108.379	-48.323	78.311	141.296	-108.963	229.241	198.346	-80.882	0.00020808	0.00041611	0.00013458	1366.9	4.6142e-06	5.9619e-06	1365.7	369.2	3.0372e-06	3.1942e-06	425.77	139.94	121.65	42.065	3.0603e-06	51.896	0.00049288	0.00054028	0.00014927	1377	5.8908e-06	5.8395e-06	1374.4	373.74	5.9721e-06	5.8466e-06	427.96	143.03	124.17	42.855	5.8817e-06	53.058	-105.590	-20.353	-27.483	-109.245	28.582	5.375	-109.258	-104.329	32.788	41.023	-104.904	-100.776	-99.842	-95.543	-22.473	-95.871	-8191	255	
516.110	1	1	0	0	0.16371	0.097766	0.11879	0.22554	0.24601	0.15634	0.29344	0.18668	0.12653	0.099292	0.25024	0.18389	0.41295	0.19393	0.04595	0.22967	-2.5979	-2.2812	-2.9833	-2.7958	-2.075	-3.1396	-2.6813	-2.4479	-3.0812	-2.0938	-2.9229	-2.9437	-2.0833	-3.2021	-2.3125	-2.3271	-32.036	111.581	181.977	134.437	100.554	-116.877	152.294	187.421	67.645	208.356	217.089	214.970	183.464	211.304	231.362	-107.899	0.00025176	0.00034239	0.000167	1371.6	6.8305e-06	5.5494e-06	1359.1	368.36	4.8686e-06	6.6815e-06	422.96	139.61	121.95	42.08	3.5701e-06	52.337	0.00050858	0.00053886	0.00014773	1378.9	6.0553e-06	5.9503e-06	1377.6	373.49	5.8928e-06	5.9341e-06	427.45	142.84	124.56	42.902	5.8072e-06	53.175	-117.156	-25.370	-21.056	-108.869	20.728	10.724	-109.004	-104.216	3.756	54.971	-104.888	-100.540	-99.793	-95.301	22.134	-95.706	-8191	255	
516.183	1	1	0	0	0.26054	0.12121	0.16874	0.22577	0.20556	0.10155	0.31197	0.41127	0.24474	0.070119	0.1371	0.29177	0.10621	0.21371	0.33207	0.26185	-2.7396	-2.1354	-2.8208	-2.9188	-1.8854	-2.9333	-2.7792	-2.4104	-2.9854	-2.1688	-2.7396	-3.3396	-2.1437	-3.0438	-2.625	-2.425	-6.205	-11.906	37.392	226.246	-37.256	92.778	182.105	204.364	63.242	149.709	137.519	190.081	236.371	-105.146	233.768	112.944	0.00023467	0.0002768	0.00012076	1362.7	5.6174e-06	4.2779e-06	1359.9	369.48	1.9908e-06	5.4091e-06	422.5	139.59	121.8	42.093	3.815e-06	51.984	0.00049877	0.00053455	0.00014953	1376.8	5.8757e-06	5.8483e-06	1374.8	374.13	5.7473e-06	5.8727e-06	427.21	143	124.32	42.857	5.9058e-06	53.109	-119.090	-29.297	-1.054	-108.812	13.491	41.965	-108.934	-104.219	17.608	13.759	-104.751	-100.402	-99.510	-95.033	6.575	-95.846	-8191	255	
516.278	1	1	0	0	0.20711	0.13743	0.23241	0.20526	0.0707	0.27237	0.2217	0.28593	0.24058	0.079158	0.0024587	0.094564	0.045487	0.10737	0.091953	0.086977	-2.9521	-2.1583	-2.6708	-3.1646	-1.9188	-2.9854	-3.0083	-2.4875	-3.0792	-2.475	-2.4146	-3.1	-2.3042	-3.0187	-2.7771	-2.2625	21.257	-104.271	-100.784	140.463	145.575	-37.151	174.877	92.879	58.276	105.089	180.000	27.801	-98.511	172.796	222.190	70.138	0.00023593	0.00031424	8.7266e-05	1370.6	4.4299e-06	5.2222e-06	1360.6	367.58	2.2566e-06	3.5382e-06	422.28	140.26	121.87	42.154	3.5518e-06	52.166	0.00050316	0.00053256	0.00015164	1376.1	5.8912e-06	5.8634e-06	1375.8	373.67	5.8405e-06	5.9497e-06	426.96	143.05	124.2	42.928	5.9435e-06	53.077	232.180	-48.586	-40.855	-109.215	18.942	14.122	-109.056	-104.383	36.039	65.770	-104.975	-100.670	-99.994	-95.423	-4.413	-96.180	-8191	255	
516.376	1	1	0	0	0.11603	0.3433	0.16693	0.030753	0.14903	0.074786	0.32386	0.3197	0.17693	0.20139	0.19787	0.07075	0.16033	0.23326	0.14524	0.048805	-2.7583	-2.2625	-2.2604	-3.1	-2.3542	-2.6667	-2.9792	-2.5375	-3.0563	-2.4604	-2.4375	-3.2771	-2.275	-2.7062	-2.8604	-1.9958	131.056	-37.596	166.298	38.055	120.692	-85.299	134.199	204.164	-43.236	29.401	221.014	99.030	182.369	-71.023	-4.460	78.812	0.00021385	0.00032523	0.00014292	1375.5	5.7335e-06	3.7326e-06	1357.5	367.98	1.9716e-06	4.0691e-06	422.22	139.75	122.24	42.242	5.1199e-06	51.984	0.00049576	0.00053128	0.00014819	1378.1	5.8388e-06	5.9168e-06	1372.9	374.04	5.7807e-06	5.8945e-06	426.65	142.93	124.49	42.992	5.8098e-06	53.072	-120.705	-30.986	1.003	-109.129	33.902	49.563	-109.033	-104.204	10.759	37.992	-104.929	-101.061	-100.274	-95.729	43.411	-96.300	-8191	255	
516.495	1	1	0	0	0.080989	0.12402	0.27453	0.059225	0.17897	0.16732	0.14256	0.23796	0.073916	0.12301	0.20642	0.17318	0.098882	0.2665	0.14399	0.073198	-2.7583	-2.6042	-2.1792	-3.1583	-2.3521	-2.5208	-3.2458	-2.2125	-2.8479	-2.7792	-2.2479	-3.1021	-2.5812	-2.6646	-3.0687	-2.0208	113.496	50.246	-52.402	184.634	115.322	46.558	235.405	204.400	63.530	63.881	142.803	191.389	206.828	-89.839	197.412	-94.920	0.00024202	0.00028609	0.00015585	1363.4	3.6213e-06	5.3174e-06	1364	368.04	2.856e-06	4.2709e-06	423.85	140.45	121.35	42.099	1.8822e-06	51.815	0.00050479	0.00053684	0.00014908	1376.3	5.8942e-06	5.8462e-06	1375.2	373.73	5.8024e-06	5.9004e-06	427.42	143.05	124.21	42.867	5.8457e-06	52.993	-119.714	-14.851	-18.688	-109.249	28.678	29.979	-109.567	-104.683	58.065	-2.666	-105.455	-101.212	-100.368	-95.990	28.453	-96.648	-8191	255	
516.591	1	1	0	0	0.074496	0.0674	0.051663	0.16002	0.2496	0.25022	0.28492	0.23209	0.14459	0.15922	0.16519	0.1335	0.31632	0.44493	0.097912	0.30741	-2.7062	-2.7771	-2.2646	-3.2229	-2.55	-2.3917	-3.3375	-2.1937	-2.8583	-2.9688	-2.2896	-3.0875	-2.5458	-2.5042	-2.9583	-2.2521	186.876	-60.895	214.902	148.128	62.771	-107.945	-85.311	-120.109	64.860	-93.660	-98.915	-121.433	191.617	234.287	35.964	159.947	0.00022451	0.00069491	0.00013075	1369.2	2.6365e-06	4.3372e-06	1363	368.33	2.1218e-06	1.019e-05	423.28	139.69	121.65	41.857	3.6134e-06	51.833	0.00049129	0.00053226	0.00014847	1377.2	5.9059e-06	5.8199e-06	1374.2	373.78	5.8281e-06	5.7917e-06	427.33	142.9	124.45	42.797	5.9151e-06	52.995	236.965	-26.613	-63.105	-109.674	38.231	58.342	-109.483	-104.812	-24.978	24.628	-105.246	-100.898	-100.522	-95.616	57.346	-96.405	-8191	255	
516.687	1	1	0	0	0.026461	0.072362	0.15208	0.27888	0.0053354	0.064343	0.13417	0.39962	0.074464	0.081789	0.11866	0.29901	0.40469	0.25483	0.19463	0.17508	-2.4708	-2.9313	-1.9708	-2.9667	-2.4583	-2.2875	-3.4208	-2.3	-2.5979	-2.8333	-2.2083	-3.1958	-2.7521	-2.2229	-3.2104	-2.3021	21.867	-55.238	-62.544	-97.098	58.187	33.374	120.197	141.963	121.700	-102.319	189.749	162.577	184.529	192.877	-41.324	181.928	0.00022922	0.00060518	0.00019631	1367.7	2.1704e-06	9.109e-06	1365.4	368.28	1.296e-06	7.5174e-06	423.49	139.51	122.48	42.209	3.4044e-06	52.208	0.00050057	0.00052888	0.00014772	1376.8	5.9285e-06	5.8273e-06	1377	373.64	5.8101e-06	5.7742e-06	427.18	143.01	124.44	42.934	5.83e-06	53.044	-119.906	-33.237	-34.007	-109.405	48.427	33.671	-109.421	-104.836	66.120	93.632	-105.192	-101.072	-100.629	-95.786	19.233	-96.578	-8191	255	
516.783	1	1	0	0	0.081043	0.057106	0.048029	0.070122	0.016686	0.16297	0.31238	0.2612	0.10192	0.23257	0.13402	0.10657	0.14361	0.32704	0.053091	0.26284	-2.4604	-2.9917	-2.075	-3.0438	-2.6646	-2.2812	-3.4542	-2.475	-2.6833	-2.9542	-2.2479	-3.0583	-2.9333	-1.9354	-3.025	-2.3333	56.817	179.938	-83.050	-46.674	-117.537	66.511	196.324	162.747	-21.262	-56.825	-114.246	132.095	110.035	230.648	181.339	-119.713	0.00020712	0.0003838	0.00012432	1374.5	3.6846e-06	6.466e-06	1360.3	369.06	3.135e-06	7.162e-06	423.84	140.1	121.91	42.129	3.3487e-06	52.074	0.00049592	0.00052721	0.00014872	1379	5.8336e-06	5.8938e-06	1373.6	373.37	5.9705e-06	5.7815e-06	427.26	142.93	124.21	42.84	5.7357e-06	53.051	-115.684	-16.797	-6.449	-109.419	5.428	23.386	-109.329	-104.715	-8.169	59.634	-105.331	-101.328	-100.608	-96.006	5.595	-96.738	-8191	255	
516.879	1	1	0	0	0.29961	0.16995	0.14041	0.25632	0.18331	0.083876	0.12408	0.16361	0.14184	0.20174	0.35257	0.188	0.2117	0.16194	0.22893	0.070416	-2.0083	-2.9583	-2.1583	-2.825	-2.8458	-1.9896	-3.475	-2.5875	-2.2938	-3.2562	-2.0792	-2.8417	-2.8333	-2.3083	-2.9625	-2.5563	26.518	140.085	70.586	213.855	-30.832	31.468	175.349	149.241	183.194	-110.066	218.024	173.145	-82.384	3.613	19.348	119.131	0.0002439	0.00036022	0.00012993	1371.2	7.4926e-06	5.072e-06	1362.7	369.88	2.6327e-06	3.2641e-06	424.14	139.9	121.74	42.246	5.0524e-06	52.024	0.00050004	0.00052319	0.00015103	1379.3	5.8949e-06	5.8053e-06	1375.1	374.39	5.8698e-06	5.8366e-06	427.17	142.92	124.32	42.914	5.7699e-06	53.059	-120.092	-102.697	-31.947	-109.549	40.900	39.548	-109.560	-104.971	25.637	44.567	-105.261	-101.086	-100.424	-96.015	58.598	-96.680	-8191	255	
516.975	1	1	0	0	0.074136	0.076774	0.14277	0.36225	0.065965	0.17458	0.35076	0.41552	0.21232	0.13489	0.10914	0.16175	0.33464	0.30537	0.1799	0.14779	-1.8354	-3.2104	-2.1417	-2.775	-2.8937	-2.1125	-3.2042	-2.7438	-2.1167	-3.025	-2.325	-2.8521	-3.0292	-2.1833	-2.8333	-2.7646	110.771	197.849	158.049	-119.192	191.725	6.799	181.374	201.907	-116.818	7.692	132.325	-97.658	142.080	190.894	-49.558	70.530	0.0002282	0.00041101	0.00022373	1373.1	1.6163e-06	5.58e-06	1361	369.17	3.6159e-06	6.8842e-06	423.42	139.69	122.16	42.017	2.6696e-06	51.976	0.00050902	0.00053295	0.00014824	1378.2	5.7351e-06	5.867e-06	1375.8	373.51	5.8291e-06	5.7945e-06	426.75	142.74	124.3	42.871	5.9277e-06	53.079	-120.854	-17.650	-44.855	-109.297	40.031	50.440	-109.195	-104.946	14.830	19.284	-105.312	-100.871	-100.385	-95.870	10.626	-96.492	-8191	255	
517.096	1	1	0	0	0.074662	0.13533	0.10835	0.063485	0.25369	0.084143	0.13276	0.23593	0.14416	0.25042	0.16644	0.097739	0.097842	0.12551	0.27423	0.082517	-1.6229	-3.1188	-2.4292	-2.6792	-3.0479	-2.0542	-2.8833	-3.0896	-2.0854	-3.05	-2.4896	-2.6146	-3.1771	-2.0812	-2.7375	-2.9521	136.760	7.823	150.161	-15.963	139.363	-65.373	199.636	161.664	214.489	-21.369	166.636	153.064	80.989	135.954	-43.554	25.121	0.00025018	0.00027629	0.00010884	1371.7	4.1308e-06	8.371e-06	1363.5	368.85	3.4581e-06	5.292e-06	424.21	140.08	122.15	41.78	2.7807e-06	51.87	0.00049782	0.00052722	0.00014774	1378.8	5.7134e-06	5.9292e-06	1376.8	373.42	5.8861e-06	5.9288e-06	427.19	142.94	124.39	42.725	5.9689e-06	53.008	-122.302	-46.123	-12.133	-109.393	28.980	26.797	-109.194	-104.765	13.074	40.528	-105.279	-100.890	-100.483	-95.799	62.710	-96.528	-8191	255	
517.190	1	1	0	0	0.099968	0.10321	0.011868	0.031063	0.12286	0.29689	0.12351	0.038449	0.15638	0.15007	0.27592	0.23832	0.28796	0.19313	0.088913	0.1399	-1.8208	-3.05	-2.4833	-2.2542	-3.1354	-2.2521	-3.0208	-2.9583	-2.1437	-2.9271	-2.7812	-2.5021	-3.2542	-2.4042	-2.6542	-3.0917	166.018	102.646	-18.492	171.982	36.484	-21.891	182.145	81.280	21.147	186.966	170.333	232.649	153.911	199.105	232.759	176.795	0.00026444	0.00044366	0.00016197	1369.8	3.4802e-06	4.7274e-06	1361.5	368.94	1.5293e-06	3.8445e-06	421.79	140.3	121.35	41.957	3.8523e-06	52.245	0.00050103	0.00052759	0.00014696	1377.7	5.7609e-06	5.8098e-06	1376.3	374	5.952e-06	5.9036e-06	426.78	143.22	124.21	42.798	5.8767e-06	53.069	226.168	-45.836	-81.905	-109.422	33.965	-4.671	-109.252	-104.843	-43.857	14.570	-105.252	-100.834	-100.296	-95.918	6.583	-96.501	-8191	255	
517.287	1	1	0	0	0.28197	0.14776	0.1922	0.11525	0.19575	0.30974	0.15016	0.26387	0.25496	0.039774	0.077206	0.12217	0.095012	0.19367	0.22292	0.26316	-1.7854	-3.0292	-2.6	-2.45	-3.15	-2.1854	-2.8896	-3.4479	-1.9604	-3.0021	-2.7292	-2.2375	-3.3125	-2.6146	-2.4083	-3.1667	78.163	216.646	-9.970	99.813	76.099	-102.208	-120.756	217.918	4.896	201.765	153.461	156.707	-76.567	206.441	235.710	219.288	0.0002356	0.00072798	0.00015833	1370.9	5.3072e-06	4.1083e-06	1365.5	368.59	2.1384e-06	6.1681e-06	423.62	139.87	122.3	42.1	4.6799e-06	52.011	0.00049834	0.0005339	0.00014723	1376.1	5.7911e-06	5.9818e-06	1376.1	373.7	5.8258e-06	5.8743e-06	427.1	143.05	124.46	42.929	5.8008e-06	53.046	-116.200	8.390	14.510	-109.460	43.046	14.052	-109.165	-104.904	17.917	15.907	-105.045	-100.850	-100.313	-95.524	7.154	-96.327	-8191	255	
517.407	1	1	0	0	0.12195	0.098643	0.083977	0.015388	0.072441	0.05016	0.2219	0.15432	0.086809	0.090504	0.32309	0.19117	0.25302	0.055619	0.14168	0.071556	-1.7979	-2.9354	-2.8438	-2.2438	-3.1	-2.4396	-2.3521	-3.2208	-1.9854	-2.6625	-3.1375	-2.3333	-3.2167	-2.7042	-2.2583	-3.2833	-40.473	226.132	160.815	53.655	-0.798	105.753	218.930	141.308	-92.147	-58.998	135.796	-62.733	209.346	204.485	-67.191	158.381	0.00020381	0.00043557	0.00016207	1381.2	1.2807e-06	2.9645e-06	1364.4	370.47	2.9537e-06	7.9108e-06	424.54	139.38	121.73	42.285	3.6051e-06	52.197	0.0004953	0.00052508	0.00014649	1380.6	5.7771e-06	5.8034e-06	1374.7	374.2	5.7065e-06	5.7234e-06	427.34	142.72	124.18	42.943	5.7587e-06	53.128	-122.207	-63.761	-26.521	-109.101	56.323	13.881	-109.132	-104.640	-24.481	34.331	-105.275	-100.780	-100.312	-95.789	27.771	-96.383	-8191	255	
517.479	1	1	0	0	0.13587	0.17499	0.28476	0.16803	0.13079	0.16821	0.17901	0.14756	0.29619	0.30114	0.031123	0.098894	0.24174	0.12882	0.18219	0.14758	-1.7354	-2.5167	-3.0042	-2.1917	-2.9708	-2.5958	-2.4396	-3.2958	-2.2271	-2.7458	-3.1792	-1.9271	-2.9375	-2.7875	-2.2271	-3.1333	-119.790	-16.825	-76.918	88.314	4.007	175.354	174.482	43.778	58.351	178.494	108.590	178.604	221.818	105.680	160.645	20.433	0.00022217	0.00083594	0.00014404	1366.1	3.9811e-06	4.6246e-06	1362.7	369.34	3.774e-06	6.1701e-06	422.12	139.71	122.07	42.192	3.649e-06	51.933	0.00049674	0.00053239	0.00014399	1376	5.6653e-06	5.7647e-06	1376.2	373.62	5.8388e-06	5.8088e-06	426.38	142.79	124.22	42.814	5.7114e-06	53.013	-119.841	-51.237	-30.408	-109.148	49.093	42.279	-109.037	-104.605	1.357	24.452	-105.166	-100.701	-100.246	-96.064	22.108	-96.296	-8191	255	
517.575	1	1	0	0	0.13369	0.13401	0.1619	0.31328	0.076815	0.15967	0.11517	0.19372	0.079072	0.035381	0.092883	0.14083	0.020799	0.15424	0.30442	0.10852	-1.8083	-2.5438	-3.0042	-2.2625	-2.8875	-2.6312	-2.4167	-3.3771	-2.1479	-2.4292	-3.3146	-2.1958	-2.7646	-2.9208	-2.2229	-3.1958	114.198	-91.168	-118.825	-80.806	234.195	214.126	226.172	234.904	6.236	81.779	91.780	-72.793	134.793	124.950	-65.086	185.712	0.00022806	0.00061204	0.00013536	1369.2	3.327e-06	7.2091e-06	1361.3	368.43	4.1138e-06	5.7787e-06	423.32	139.65	121.66	42.157	1.989e-06	52.042	0.00049151	0.00051629	0.00014179	1377.8	5.7457e-06	5.6642e-06	1374.7	373.65	5.7827e-06	5.7642e-06	426.81	142.65	124.26	42.801	5.8213e-06	52.954	-114.459	-22.831	-16.852	-109.230	45.418	14.684	-109.034	-104.379	40.910	24.134	-105.066	-100.570	-99.981	-95.492	-26.345	-96.217	-8191	255	
517.671	1	1	0	0	0.050021	0.22441	0.090969	0.24194	0.097739	0.066784	0.15371	0.052629	0.21312	0.10204	0.38388	0.39255	0.30536	0.26467	0.32726	0.37026	-2.1312	-2.2417	-3.0375	-2.1125	-2.8042	-2.8792	-2.1833	-3.2458	-2.3479	-2.15	-3.1625	-2.2708	-2.7208	-3.0458	-1.975	-3.1167	-56.047	-46.347	116.840	233.976	60.496	4.291	97.524	173.261	113.133	181.271	-106.563	209.612	220.182	-99.243	40.352	190.224	0.00024574	0.00040273	0.00019607	1367.9	5.1885e-06	5.1561e-06	1360.4	367.94	2.9098e-06	8.7741e-06	421.31	139.02	121.84	42.087	4.7269e-06	52.043	0.00048414	0.00052111	0.00014288	1375.2	5.6747e-06	5.6066e-06	1372.5	373.21	5.7476e-06	5.7166e-06	426.41	142.33	124.21	42.88	5.7056e-06	53.049	-120.949	-79.263	-29.988	-108.970	19.897	36.220	-109.018	-104.564	9.331	44.590	-105.452	-100.932	-100.093	-95.755	-13.491	-96.172	-8191	255	
517.792	1	1	0	0	0.21452	0.10987	0.17805	0.31526	0.18323	0.082921	0.062923	0.22832	0.10953	0.22635	0.11538	0.17878	0.23086	0.34049	0.28642	0.13655	-2.2583	-2.2646	-3.0396	-2.3771	-2.6437	-3.0187	-2.275	-2.9708	-2.8167	-2.1667	-3.2208	-2.4688	-2.4813	-3.1646	-2.1458	-3.0479	137.287	62.908	-61.581	215.811	63.647	138.737	139.371	195.449	-59.289	-44.404	149.144	143.917	197.534	236.862	142.520	-120.901	0.0002119	0.00040015	0.00014266	1372.1	6.616e-06	6.6836e-06	1357.4	367.63	2.9727e-06	8.4032e-06	421.88	139.04	121.34	41.834	4.8853e-06	51.79	0.00048087	0.00051376	0.0001412	1374.8	5.7053e-06	5.6062e-06	1371.8	373.16	5.7668e-06	5.7178e-06	426.26	142.44	124.14	42.717	5.7053e-06	52.949	-119.285	-33.295	-28.606	-109.239	29.013	33.815	-109.332	-104.764	33.594	15.836	-105.196	-100.946	-100.135	-95.889	19.417	-96.383	-8191	255	
517.888	1	1	0	0	0.16821	0.13712	0.16553	0.11297	0.16837	0.19389	0.3544	0.32672	0.12375	0.070104	0.14783	0.044778	0.32197	0.042795	0.24779	0.12919	-2.4104	-2.1063	-3.0438	-2.4188	-2.4333	-3.0563	-2.225	-2.95	-2.7667	-2.2917	-3.1	-2.575	-2.3125	-3.0396	-2.0667	-2.7188	20.215	66.053	-116.030	186.770	220.459	18.287	186.881	165.874	161.513	31.363	78.033	-120.236	236.208	-4.031	-99.724	-86.189	0.00024273	0.00044806	0.00015069	1357	3.2967e-06	6.0574e-06	1359.8	365.43	1.9078e-06	5.063e-06	420.64	140.06	121.86	42.246	3.3643e-06	52.303	0.00048743	0.00052986	0.00014561	1374.4	5.7409e-06	5.6202e-06	1371.6	372.82	5.7271e-06	5.8631e-06	426.43	142.76	124.26	42.903	5.7073e-06	53.058	-120.925	-41.475	-20.814	-109.590	32.380	16.111	-109.160	-104.710	11.031	44.460	-105.182	-100.728	-100.242	-95.781	0.117	-96.252	-8191	255	
517.984	1	1	0	0	0.27281	0.1194	0.22898	0.22338	0.10809	0.17198	0.17595	0.38665	0.17071	0.15476	0.25211	0.27402	0.22663	0.14561	0.17365	0.46583	-2.675	-1.9625	-3.0604	-2.5229	-2.1562	-3.0583	-2.3792	-2.8604	-2.9062	-2.0729	-2.9542	-2.5979	-2.2604	-3.1312	-2.3229	-2.8396	48.310	45.639	-71.127	-114.959	16.140	-55.595	152.087	-76.438	234.133	197.192	201.759	201.223	220.492	112.836	206.622	122.720	0.00021949	0.00055154	0.00017611	1375.5	6.4543e-06	6.3912e-06	1366.6	368.56	3.9079e-06	6.0896e-06	425.29	139.53	122.14	42.218	3.693e-06	52.482	0.00048646	0.00052647	0.00014312	1376.6	5.7231e-06	5.7365e-06	1373.3	373.08	5.7634e-06	5.8403e-06	428.03	142.81	124.23	42.933	5.8218e-06	53.131	-116.385	-44.994	-7.648	-109.417	-1.134	54.127	-109.323	-104.371	8.463	26.096	-105.007	-100.839	-100.109	-96.074	10.519	-96.317	-8191	255	
518.056	1	1	0	0	0.13249	0.18852	0.086285	0.19933	0.046566	0.10882	0.26231	0.17526	0.038144	0.054142	0.11255	0.27059	0.33708	0.26918	0.031737	0.43338	-2.775	-2.0542	-2.875	-2.8333	-2.2271	-3.0396	-2.4375	-2.5563	-3.0312	-2.1167	-2.9229	-2.7104	-2.3229	-3.2792	-2.2625	-2.4833	32.460	166.221	48.195	205.314	160.004	170.912	162.453	-63.905	-39.055	171.024	208.557	188.694	202.607	-102.246	86.732	139.873	0.00022629	0.00040382	9.4129e-05	1368.7	4.5919e-06	6.556e-06	1367.5	369.76	2.508e-06	7.0574e-06	425.34	140.08	122.1	42.119	3.2466e-06	52.194	0.00048491	0.00053262	0.00014404	1373.4	5.6178e-06	5.6736e-06	1375.2	373.83	5.7487e-06	5.7899e-06	428.19	142.82	124.23	42.865	5.7982e-06	53.09	-116.813	-13.416	-86.374	-109.354	14.512	25.460	-109.197	-104.379	-4.626	25.996	-105.021	-100.787	-100.326	-95.594	26.201	-96.240	-8191	255	
518.175	1	1	0	0	0.15239	0.049193	0.13406	0.13346	0.20962	0.11734	0.097557	0.13202	0.30707	0.082051	0.054678	0.15077	0.32326	0.19259	0.15353	0.2226	-2.8521	-2.1021	-2.7083	-2.8583	-2.0771	-2.8937	-2.6125	-2.4562	-2.9313	-2.2104	-2.8167	-2.9146	-2.1229	-2.9854	-2.6417	-2.4792	-43.818	216.238	25.052	148.375	55.608	200.141	28.230	232.178	102.614	92.521	146.832	174.918	185.451	217.439	-49.283	-117.207	0.00024319	0.00034824	0.0001138	1369.7	3.9437e-06	1.0224e-05	1363.6	369.88	2.7605e-06	7.4837e-06	424	139.98	121.92	42.127	6.302e-06	51.913	0.00048496	0.0005336	0.00014854	1374.1	5.7076e-06	5.7598e-06	1373.5	373.93	5.8033e-06	5.8539e-06	426.87	142.83	124.33	42.863	5.73e-06	53.046	-122.555	-78.821	-63.999	-109.396	47.712	22.896	-109.272	-104.616	-35.573	67.444	-105.195	-101.193	-100.577	-96.078	38.730	-96.454	-8191	255	
518.271	1	1	0	0	0.24733	0.052305	0.23964	0.1466	0.073023	0.2442	0.14337	0.12359	0.12129	0.20978	0.09981	0.081337	0.17225	0.25489	0.26611	0.1079	-2.8708	-2.2354	-2.45	-3.1083	-1.925	-2.9562	-2.8187	-2.3396	-3.1271	-2.2104	-2.7125	-3.1396	-2.2917	-3.05	-2.8187	-2.1229	215.865	-97.574	120.169	-83.929	-8.550	203.289	115.530	-89.654	164.667	128.231	136.146	215.952	129.638	236.862	11.574	103.659	0.00021792	0.00054816	0.00012535	1367.8	4.8696e-06	2.838e-06	1364.2	368.84	3.0087e-06	5.1537e-06	423.24	139.91	121.48	42.241	5.1759e-06	52.176	0.00049107	0.00053065	0.00014497	1376.4	5.8173e-06	5.8607e-06	1374.7	373.15	5.799e-06	5.8205e-06	426.66	142.91	124	42.875	5.8099e-06	53.001	-118.951	-57.642	32.827	-109.628	4.997	-27.926	-109.575	-104.695	14.117	43.172	-105.266	-101.226	-100.499	-95.934	2.620	-96.699	-8191	255	
518.369	1	1	0	0	0.14199	0.23976	0.24816	0.14772	0.1098	0.15681	0.25649	0.087532	0.093534	0.10799	0.10208	0.099402	0.25592	0.090702	0.12927	0.09059	-2.7771	-2.4875	-2.2146	-3.1562	-2.1083	-2.8354	-2.8667	-2.2896	-3.1958	-2.1917	-2.3937	-3.1833	-2.2396	-2.95	-2.8792	-2.1125	123.881	103.827	76.838	-86.187	15.542	-5.931	45.691	133.197	-74.198	7.414	130.483	113.689	224.287	49.121	-5.755	213.555	0.00024485	0.0005747	0.00011329	1374.7	5.848e-06	9.6495e-06	1362.1	369.52	3.8992e-06	4.8154e-06	424.78	139.36	121.43	42.279	4.6652e-06	52.144	0.00048726	0.00051858	0.00014715	1376.6	5.8243e-06	5.8299e-06	1371.6	373.37	5.7097e-06	5.7859e-06	428.08	142.83	124.07	42.902	5.7643e-06	53.005	235.376	-11.176	-38.139	-109.576	43.675	56.106	-109.405	-104.907	15.996	41.778	-105.436	-101.175	-100.490	-95.906	24.198	-96.285	-8191	255	
518.488	1	1	0	0	0.11056	0.20862	0.22083	0.28047	0.14826	0.16984	0.16301	0.20136	0.31392	0.12743	0.23804	0.07863	0.2174	0.039669	0.050998	0.067124	-2.7542	-2.4562	-2.1562	-3.2083	-2.1958	-2.5812	-3.1167	-2.1	-2.975	-2.5125	-2.2375	-3.2667	-2.3333	-2.7292	-2.9688	-2.1417	-20.887	57.235	-10.062	73.840	58.040	-34.300	214.331	221.514	-39.145	123.265	162.175	173.745	74.597	77.925	-107.667	106.760	0.00023959	0.00039264	0.00014121	1369.1	4.7779e-06	7.4498e-06	1364	369.97	1.7155e-06	3.4409e-06	423.6	139.95	121.94	42.081	3.0372e-06	52.119	0.00049419	0.00054328	0.00014908	1374.9	5.8901e-06	5.976e-06	1372.7	373.85	6.0154e-06	5.9836e-06	427.4	142.78	124.15	42.867	5.9483e-06	53.035	233.282	-57.226	-31.748	-109.791	30.046	5.982	-109.491	-104.800	44.070	33.701	-105.293	-101.014	-100.555	-96.147	55.007	-96.789	-8191	255	
518.584	1	1	0	0	0.26265	0.055537	0.10208	0.29679	0.16639	0.23387	0.15166	0.25047	0.21558	0.084703	0.30843	0.2848	0.19739	0.24313	0.26934	0.23544	-2.6104	-2.6917	-2.025	-3.0854	-2.3479	-2.6021	-3.2479	-2.1854	-2.8104	-2.6667	-2.2417	-3.225	-2.4167	-2.4792	-2.8792	-1.9917	138.817	-108.152	-60.294	218.316	181.989	34.836	153.292	-83.990	104.020	229.872	89.474	221.814	133.828	-108.122	74.332	158.995	0.00023874	0.000177	8.5609e-05	1367.9	4.2002e-06	4.3981e-06	1365.8	370.03	2.4466e-06	7.7375e-06	425.32	139.38	121.79	42.187	3.7773e-06	52.042	0.00050802	0.0005688	0.00015722	1375.1	6.0472e-06	6.0934e-06	1372.9	374.14	6.2165e-06	6.1844e-06	428.12	142.66	124.38	42.918	6.0628e-06	53.077	-118.770	0.567	-55.122	-109.460	34.465	25.168	-109.314	-104.731	17.217	13.556	-105.169	-100.940	-100.401	-95.715	70.812	-96.514	-8191	255	
518.680	1	1	0	0	0.48368	0.10995	0.15358	0.13762	0.12211	0.192	0.14545	0.32103	0.056954	0.043553	0.33825	0.19036	0.065269	0.10788	0.12433	0.30618	-2.5771	-2.7479	-1.9792	-3.3021	-2.3333	-2.1292	-3.4208	-2.2062	-2.6312	-2.8812	-2.1063	-3.1063	-2.5021	-2.4229	-2.925	-2.0604	65.316	-121.637	62.678	-111.500	-74.259	145.562	176.579	-70.854	64.408	162.175	193.410	161.094	-107.185	117.251	130.581	-98.937	0.00022642	0.00026719	0.00015784	1373.9	6.1917e-06	3.9257e-06	1363.5	371.59	2.9532e-06	2.6532e-06	423.29	140.16	122.19	42.017	4.308e-06	52.401	0.00051832	0.00056024	0.00015514	1378.8	6.0326e-06	6.0416e-06	1375.7	374.11	6.102e-06	6.1326e-06	427.38	143.15	124.34	42.848	6.0084e-06	53.138	-116.726	-22.633	-36.967	-109.471	14.088	21.119	-109.179	-104.852	32.970	22.528	-105.269	-100.976	-100.434	-95.592	17.364	-96.736	-8191	255	
518.776	1	1	0	0	0.27349	0.239	0.28695	0.10518	0.26238	0.11724	0.344	0.35112	0.16847	0.38984	0.18842	0.22251	0.17032	0.036091	0.21831	0.22571	-2.2438	-2.8667	-2.0833	-2.9458	-2.3583	-2.3146	-3.2812	-2.2104	-2.7083	-2.9813	-2.2	-2.9083	-2.6729	-2.2542	-3.0458	-2.4167	120.315	-29.908	220.950	232.447	147.490	64.117	147.310	-101.919	66.306	1.997	187.746	-116.479	155.337	234.273	66.725	-114.790	0.00021091	0.00059759	0.00013302	1370.4	2.2535e-06	7.0421e-06	1363.9	369.06	3.9689e-06	4.3881e-06	425.09	140.38	121.93	42.192	5.7888e-06	52.116	0.00051431	0.00055165	0.00015102	1375.5	5.9798e-06	6.0435e-06	1374	373.35	5.9583e-06	6.0831e-06	427.29	142.95	124.26	42.862	5.8084e-06	53.043	-114.521	-22.708	-5.630	-109.190	78.057	19.799	-109.332	-104.622	-5.227	29.932	-105.245	-101.080	-100.420	-95.975	10.274	-96.425	-8191	255	
518.872	1	1	0	0	0.14502	0.2121	0.10585	0.090687	0.16568	0.22396	0.24436	0.25029	0.057038	0.25628	0.19391	0.17401	0.17197	0.34941	0.16073	0.11414	-2.175	-2.8604	-2.1229	-3.0104	-2.5875	-2.1479	-3.2708	-2.4521	-2.3021	-3.0708	-2.1729	-3.0542	-2.9979	-2.1208	-2.9792	-2.6063	234.914	-110.972	170.185	-106.875	-62.270	-86.031	187.645	205.805	37.395	143.828	-48.501	-96.381	213.133	206.022	-2.551	213.257	0.00024237	0.00048577	0.00016107	1372.1	6.0661e-06	6.5842e-06	1365.5	368.31	2.4579e-06	2.7483e-06	424.94	140.04	121.78	42.169	4.7024e-06	52.049	0.00050523	0.00053257	0.00014635	1375.5	5.7915e-06	5.9412e-06	1374.7	373.33	5.8746e-06	5.9077e-06	427.29	142.95	124.13	42.879	5.9325e-06	53.068	237.121	-44.932	-18.049	-109.162	40.270	55.784	-109.375	-104.681	-2.361	47.787	-105.447	-100.934	-100.449	-95.684	24.102	-96.501	-8191	255	
518.968	1	1	0	0	0.28938	0.29875	0.28075	0.12842	0.1688	0.26015	0.47875	0.15805	0.17432	0.22152	0.23535	0.039861	0.27749	0.17723	0.10961	0.37534	-1.9021	-3.0271	-2.2562	-2.7021	-2.5958	-1.9167	-3.0187	-2.5729	-2.0875	-3.2979	-2.2938	-2.7021	-2.9375	-2.3917	-2.9708	-2.5979	100.635	131.822	150.525	88.747	112.638	-13.787	176.886	70.618	-30.956	-62.316	221.350	26.842	-88.003	190.256	223.698	111.021	0.00021874	0.0003901	0.00014003	1378	3.6169e-06	3.5692e-06	1359.9	369.27	3.1445e-06	5.7435e-06	423.82	139.57	122.11	42.081	1.9495e-06	52.06	0.00050125	0.00052943	0.00014699	1378.6	5.8491e-06	5.8507e-06	1372.7	373.25	5.8119e-06	5.769e-06	426.23	142.65	124.17	42.766	5.7616e-06	52.953	-121.589	-36.508	-38.647	-109.044	-1.667	32.333	-109.590	-104.682	28.206	25.883	-105.306	-100.982	-100.369	-95.760	68.556	-96.519	-8191	255	
519.089	1	1	0	0	0.23486	0.23139	0.31927	0.057608	0.3284	0.12596	0.2182	0.29217	0.33262	0.093625	0.13712	0.05889	0.052894	0.23211	0.028032	0.24876	-1.9729	-3.1917	-2.2479	-2.6104	-2.8812	-1.9229	-2.9083	-2.9521	-2.0667	-2.925	-2.4396	-2.4375	-3.1792	-2.2875	-2.8396	-2.7667	-25.691	201.944	217.890	160.236	-20.559	165.533	230.850	189.225	237.408	-93.621	117.543	-113.926	220.182	160.242	-77.138	155.589	0.00023359	0.00044385	0.00012552	1379.1	3.6489e-06	8.789e-06	1366.6	367.13	1.6936e-06	5.2273e-06	425.29	140.07	122.16	42.154	4.3434e-06	52.093	0.00049587	0.00053048	0.00014548	1378.1	5.6873e-06	5.9092e-06	1374.4	372.94	5.7922e-06	5.6759e-06	427.23	142.94	124.17	42.8	5.8065e-06	52.915	-114.670	-18.398	-35.322	-109.328	14.280	22.231	-109.253	-104.569	-38.558	24.149	-105.183	-100.859	-100.391	-95.866	40.763	-96.506	-8191	255	
519.183	1	1	0	0	0.11374	0.045707	0.133	0.10277	0.24666	0.22915	0.37993	0.26605	0.14515	0.12552	0.18595	0.034945	0.22961	0.19807	0.14168	0.052921	-1.7437	-2.9896	-2.3146	-2.3604	-3.0354	-1.8208	-2.8792	-2.7812	-2.1813	-3.1521	-2.4062	-2.5	-3.0958	-2.0062	-2.5958	-3.0104	-57.045	-86.948	-16.428	-70.931	122.395	99.920	200.997	139.079	-105.724	27.669	129.256	-11.329	-116.446	222.792	209.616	149.595	0.00023871	0.00048544	0.00011075	1374	4.0714e-06	4.599e-06	1363.7	371.18	2.1407e-06	4.6131e-06	423.51	139.88	121.93	42.129	5.767e-06	52.058	0.00050108	0.00051901	0.00014754	1378.8	5.7342e-06	5.7883e-06	1375.8	374.08	5.7916e-06	5.7878e-06	426.97	142.99	124.26	42.786	5.8575e-06	53.03	-117.287	-27.787	-19.345	-109.346	29.569	45.573	-109.168	-104.708	-4.338	0.302	-105.133	-100.867	-100.479	-95.686	18.822	-96.297	-8191	255	
519.279	1	1	0	0	0.11081	0.1125	0.19799	0.32684	0.054953	0.11147	0.31374	0.27546	0.21302	0.29205	0.021798	0.20539	0.091148	0.019458	0.17744	0.10526	-1.525	-3	-2.5979	-2.3854	-3.0667	-2.1229	-2.9104	-3.0917	-2.0812	-2.9313	-2.6979	-2.3937	-3.1146	-2.2917	-2.5687	-3.0583	207.365	105.052	78.753	-119.579	42.237	-76.576	178.390	-64.697	174.512	88.100	95.316	171.379	236.562	191.009	9.273	176.775	0.00023799	0.00036999	0.00016293	1376.8	3.2413e-06	5.3193e-06	1368.4	369.69	2.2111e-06	7.5468e-06	423.21	140.38	122.18	42.242	3.5326e-06	52.14	0.00050066	0.00053679	0.00014948	1378.5	5.7159e-06	5.8104e-06	1376.7	373.51	5.8766e-06	5.8729e-06	426.5	142.83	124.32	42.792	5.9407e-06	53.021	-116.003	-67.336	-34.505	-109.382	8.356	3.695	-109.375	-104.554	16.475	20.442	-105.330	-100.837	-100.637	-96.018	41.962	-96.262	-8191	255	
519.351	1	1	0	0	0.12381	0.06747	0.35844	0.13872	0.1138	0.09876	0.25671	0.2445	0.07005	0.10128	0.33754	0.17516	0.24057	0.35886	0.05651	0.092028	-1.7062	-2.8771	-2.5208	-2.1375	-2.9417	-2.1292	-2.7104	-3.1521	-2.1292	-2.7792	-2.8646	-2.0708	-3.2271	-2.6583	-2.4167	-3.1958	-5.724	-69.963	145.351	121.953	14.971	-40.811	228.535	209.474	-72.312	79.500	220.808	199.312	-103.721	229.296	-40.135	-66.252	0.00022897	0.00056448	0.00012277	1378.1	5.0454e-06	6.4262e-06	1363.5	371.27	2.0826e-06	7.5414e-06	424.88	140.23	122.04	42.14	3.6472e-06	51.887	0.00049614	0.00054205	0.00014775	1377	5.736e-06	5.8358e-06	1373.6	373.9	5.9489e-06	5.8754e-06	426.34	142.77	124.24	42.858	5.8582e-06	52.821	-118.219	-48.169	-24.475	-109.358	6.814	27.742	-109.250	-104.666	-7.035	-2.286	-105.444	-100.922	-100.200	-95.887	2.329	-96.564	-8191	255	
519.449	1	1	0	0	0.095389	0.23816	0.2928	0.31409	0.2866	0.07998	0.35576	0.21626	0.13557	0.035481	0.16875	0.15804	0.39205	0.29944	0.075356	0.39082	-1.8104	-2.6167	-2.6958	-1.9667	-2.9229	-2.4792	-2.3542	-3.1063	-2.275	-2.4708	-3.0292	-2.2438	-3.1729	-2.7542	-2.0729	-3.2083	99.267	-108.897	47.316	210.151	147.135	204.110	170.497	208.448	55.467	25.807	147.969	140.398	197.519	219.306	26.721	182.184	0.00022337	0.00032779	0.0001394	1376.4	4.2083e-06	3.9735e-06	1362.8	370.5	3.8037e-06	4.4501e-06	424.09	139.68	121.96	42.109	4.3749e-06	52.148	0.00049739	0.00054023	0.00014913	1377.5	5.9087e-06	5.8816e-06	1374.6	373.98	5.864e-06	5.945e-06	427.07	142.62	124.22	42.842	5.8649e-06	52.968	-121.386	-84.935	-40.183	-109.282	50.773	9.703	-109.424	-104.737	-19.590	-10.659	-105.212	-100.623	-100.312	-95.864	39.460	-96.292	-8191	255	
519.568	1	1	0	0	0.19528	0.14305	0.20029	0.062056	0.037433	0.071714	0.22938	0.11873	0.10722	0.21339	0.12245	0.082718	0.08085	0.20494	0.094621	0.30801	-1.8604	-2.5104	-2.8146	-1.9312	-3.0125	-2.6521	-2.4854	-3.25	-2.3312	-2.3688	-3.0354	-2.3417	-3.0271	-3.0187	-2.1625	-3.0146	41.314	-93.988	115.040	43.051	133.033	145.788	214.783	208.051	166.787	120.231	85.600	182.308	106.113	168.710	147.943	177.626	0.00022143	0.00021116	0.00017146	1374.1	3.6479e-06	5.6592e-06	1372.4	368.6	1.9781e-06	5.8101e-06	425.38	139.83	122.15	42.136	4.2793e-06	52.08	0.00050326	0.00052555	0.00014609	1376.1	5.8282e-06	5.8374e-06	1379	373.15	5.8689e-06	5.9023e-06	427.25	142.79	124.49	42.851	5.9335e-06	52.976	-120.985	-39.086	-6.736	-109.261	33.063	21.905	-109.109	-104.894	-23.981	28.432	-105.263	-100.833	-100.331	-95.799	4.692	-96.437	-8191	255	
519.664	1	1	0	0	0.16368	0.10807	0.12776	0.28308	0.13529	0.072131	0.30568	0.40731	0.098079	0.21091	0.083461	0.22448	0.22599	0.16437	0.29806	0.2385	-1.9521	-2.4771	-3.1208	-2.2104	-2.8646	-2.5917	-2.3229	-3.0521	-2.4417	-2.4646	-3.3187	-2.4083	-2.7979	-3.1146	-2.0604	-3.1625	130.606	73.570	15.786	3.177	-113.967	-94.027	180.459	194.267	-1.467	175.243	-119.952	139.454	203.529	133.378	149.513	215.236	0.0002153	0.00025718	0.0002144	1375	2.9481e-06	5.8089e-06	1367	371.57	3.8161e-06	5.4003e-06	424.35	139.86	122.26	42.377	2.3742e-06	52.123	0.00051129	0.00054157	0.00015046	1377.4	5.8768e-06	5.8909e-06	1375.6	374.35	5.9904e-06	6.0737e-06	427.94	142.89	124.34	42.898	5.8708e-06	53.08	233.095	-21.672	-5.851	-109.299	29.937	39.958	-109.349	-104.689	21.489	54.862	-105.283	-100.896	-100.286	-96.063	-21.276	-96.351	-8191	255	
519.760	1	1	0	0	0.12119	0.24129	0.27244	0.26777	0.24626	0.28904	0.30249	0.22913	0.19542	0.23047	0.071651	0.19502	0.24672	0.11091	0.17602	0.20269	-1.9583	-2.1625	-3.0708	-2.2125	-2.6458	-2.8688	-2.1688	-3.0125	-2.6437	-2.2812	-3.0396	-2.2625	-2.6625	-3.15	-2.1604	-3.1104	60.942	84.124	82.006	-87.465	-46.018	-121.921	149.281	193.783	-83.334	-46.928	46.355	102.189	-65.860	185.593	193.380	-72.586	0.0002321	0.0004785	0.00014453	1374.7	4.154e-06	5.0039e-06	1365.6	368.64	5.2308e-06	5.3858e-06	423.28	139.84	121.91	42.203	3.9677e-06	52.067	0.00049258	0.00054233	0.00015137	1379.1	5.8624e-06	5.8658e-06	1375.7	373.21	5.8988e-06	5.8705e-06	426.98	142.7	124.18	42.901	5.8107e-06	52.992	-121.514	-2.843	9.027	-109.264	23.214	39.064	-109.297	-104.592	15.910	29.697	-105.342	-101.076	-100.081	-95.757	5.100	-96.381	-8191	255	
519.856	1	1	0	0	0.17519	0.29855	0.16075	0.034052	0.064591	0.093921	0.19657	0.31875	0.19862	0.13793	0.31753	0.14866	0.24999	0.092371	0.38857	0.17547	-2.2208	-2.1625	-3.1333	-2.5167	-2.3958	-2.8104	-2.3208	-3.1917	-2.6125	-1.8937	-3.1979	-2.2687	-2.3792	-3.175	-1.8917	-2.7354	132.101	149.324	-116.668	-42.959	15.174	-106.799	81.888	193.417	208.670	-114.448	225.927	200.251	216.732	-122.183	219.401	222.319	0.00025915	0.00041697	6.5523e-05	1371.5	3.3867e-06	5.934e-06	1363.9	370.4	4.1334e-06	7.3685e-06	420.99	139.53	121.86	42.119	4.197e-06	52.169	0.0004877	0.0005213	0.00014939	1378.3	5.7659e-06	5.7225e-06	1375.1	373.99	5.7389e-06	5.7917e-06	426.34	142.63	124.19	42.796	5.7984e-06	53.098	-120.664	-15.719	4.133	-109.363	36.720	19.208	-109.269	-104.475	-2.575	7.028	-105.196	-100.980	-100.352	-95.694	11.938	-96.302	-8191	255	
519.952	1	1	0	0	0.14577	0.22948	0.10752	0.18373	0.14494	0.21183	0.39332	0.088857	0.092279	0.2066	0.27157	0.20553	0.27494	0.26297	0.19404	0.073004	-2.3771	-2.0187	-3.1	-2.5542	-2.1813	-3.0333	-2.2458	-2.9625	-2.7979	-1.9271	-3.2083	-2.7083	-2.4688	-3.2333	-2.1813	-2.7083	-8.539	90.203	-101.590	-95.987	209.066	78.196	216.637	149.493	-52.790	-59.135	199.429	7.321	230.089	-17.895	-5.089	20.995	0.00022524	0.00049687	0.00011409	1370.5	3.3479e-06	5.8208e-06	1367.6	369.13	2.3273e-06	1.8191e-06	423.16	139.6	122.44	42.149	4.4227e-06	51.973	0.00049376	0.00052882	0.00014504	1377	5.7829e-06	5.7092e-06	1375.1	373.72	5.7305e-06	5.7355e-06	426.78	142.36	124.41	42.81	5.877e-06	53.043	-116.330	-19.050	-41.385	-109.178	16.622	9.985	-109.440	-104.621	9.913	-15.563	-105.144	-100.923	-100.423	-95.692	25.425	-96.428	-8191	255	
520.049	1	1	0	0	0.13667	0.10083	0.18848	0.17898	0.097936	0.085567	0.25452	0.076823	0.22075	0.34943	0.2318	0.30223	0.35009	0.19597	0.18506	0.202	-2.4646	-2.1979	-2.9917	-2.4708	-2.1896	-3.1396	-2.4854	-2.7625	-2.9958	-2.2792	-2.9646	-2.9396	-2.3354	-3.2271	-2.4542	-2.5833	202.516	3.046	29.050	-101.193	18.757	181.692	153.124	-105.131	157.526	154.430	170.648	211.094	-97.805	200.913	159.745	54.171	0.00024308	0.00056146	0.00012144	1375.8	6.7328e-06	5.1691e-06	1366.2	368.93	4.4093e-06	8.9793e-06	423.56	139.65	122.05	42.166	3.3827e-06	52.245	0.00049328	0.00052915	0.00014691	1375.7	5.9071e-06	5.7602e-06	1372.6	374.12	5.7934e-06	5.8987e-06	426.86	142.49	124.28	42.813	5.6944e-06	53.096	-122.302	-38.292	-28.578	-109.666	-8.722	27.468	-109.386	-104.666	16.466	46.218	-105.254	-101.234	-100.579	-95.760	53.990	-96.438	-8191	255	
520.169	1	1	0	0	0.28884	0.13215	0.34988	0.1705	0.069612	0.11222	0.20262	0.39996	0.15467	0.35682	0.085179	0.1823	0.1661	0.092174	0.30103	0.28008	-2.7562	-2.1688	-2.9292	-2.7188	-2.1875	-3.125	-2.5792	-2.6167	-3.0708	-2.0687	-2.7875	-3.1208	-2.1292	-3.2479	-2.5312	-2.3229	-59.708	113.948	56.298	-74.830	-66.999	124.889	164.133	202.707	33.397	-18.545	197.264	110.439	-101.748	177.986	103.932	205.211	0.00023976	0.00077249	6.794e-05	1374.4	4.211e-06	6.0401e-06	1362.2	369.88	2.645e-06	1.1459e-05	424.88	140.46	121.72	42.13	3.4772e-06	52.383	0.00048429	0.00053005	0.00014752	1377.6	5.8029e-06	5.7114e-06	1373.3	374.4	5.6361e-06	5.9553e-06	427.45	142.76	124.12	42.829	5.8042e-06	53.14	-122.167	-58.690	-34.802	-109.722	21.992	39.810	-109.426	-104.810	-2.086	16.460	-105.115	-100.877	-100.423	-95.835	10.219	-96.233	-8191	255	
520.264	1	1	0	0	0.21767	0.038049	0.066864	0.040327	0.25205	0.10538	0.27517	0.2192	0.12672	0.11198	0.15359	0.22474	0.15285	0.27686	0.35466	0.085527	-2.7625	-1.9813	-2.7521	-2.8854	-2.1417	-2.9708	-2.6188	-2.5167	-3.1625	-2.225	-2.8458	-3.0563	-1.9188	-3.025	-2.4479	-2.2104	63.250	-8.697	212.863	168.952	215.178	46.264	234.325	158.627	210.228	84.683	-94.820	-97.404	-91.822	164.938	-13.618	1.810	0.0002397	0.0001571	0.00013793	1377.9	2.7172e-06	2.82e-06	1357.7	369.8	2.1115e-06	4.2814e-06	424.26	139.68	121.78	42.346	5.1398e-06	52.147	0.00049883	0.00053164	0.00014721	1376.9	5.7025e-06	5.7012e-06	1373.6	373.53	5.835e-06	5.8411e-06	427.33	142.71	124.31	42.93	5.8118e-06	53.019	-116.949	9.541	-16.081	-109.486	-0.572	4.716	-109.550	-104.680	14.572	9.370	-105.102	-101.050	-100.435	-95.856	7.367	-96.459	-8191	255	
520.360	1	1	0	0	0.092861	0.087506	0.17295	0.3132	0.27917	0.36235	0.030877	0.19582	0.030254	0.12423	0.1512	0.15386	0.065834	0.19756	0.14297	0.10525	-2.9833	-2.1	-2.4667	-3.0646	-2.0271	-2.9125	-2.8396	-2.5375	-3.1562	-2.4354	-2.6562	-3.0896	-2.0708	-2.9875	-2.8333	-2.2938	49.293	-84.863	-13.513	231.438	172.097	-70.492	193.505	170.486	-109.604	76.174	155.477	161.892	196.769	-79.015	89.262	104.047	0.00024284	0.00076005	0.00011875	1374.1	2.9398e-06	5.0495e-06	1362.8	369.54	2.4466e-06	5.902e-06	425.93	139.63	121.94	42.217	2.6168e-06	52.283	0.00049175	0.00053963	0.00015091	1375.8	5.9751e-06	6.0487e-06	1371.9	373.87	5.9545e-06	5.9916e-06	428.02	142.88	124.17	42.871	5.8065e-06	53.1	-112.951	-34.754	-42.708	-109.480	56.954	6.347	-109.339	-104.761	-7.174	42.150	-105.037	-100.958	-100.484	-95.838	57.623	-96.342	-8191	255	
520.456	1	1	0	0	0.13056	0.11372	0.26197	0.13746	0.28359	0.044849	0.35711	0.26051	0.16224	0.18938	0.329	0.20266	0.30057	0.15722	0.11497	0.20919	-2.9375	-2.4313	-2.4042	-3.3542	-2.2167	-2.7667	-3.1208	-2.1729	-2.9625	-2.2917	-2.3375	-3.2	-2.4	-2.7812	-2.8271	-2.2875	156.773	73.663	49.380	135.575	-97.130	-101.524	185.329	-112.776	188.859	165.493	-121.804	145.198	219.967	139.522	-43.787	119.773	0.0002366	0.00047461	0.00013105	1371.4	5.5114e-06	8.1566e-06	1365.6	370.88	2.4384e-06	6.3829e-06	424.32	140.19	121.99	42.141	3.3523e-06	52.008	0.00050757	0.00055022	0.0001494	1377.3	5.8541e-06	5.8038e-06	1374.6	374.36	5.8022e-06	5.804e-06	427.64	142.86	124.31	42.868	6.321e-06	52.999	-120.488	-41.161	-7.056	-109.398	11.573	34.931	-109.316	-104.863	8.467	21.833	-105.186	-100.862	-100.338	-95.865	54.456	-96.488	-8191	255	
520.577	1	1	0	0	0.086486	0.26011	0.12921	0.16762	0.23634	0.090564	0.26778	0.40524	0.42297	0.2393	0.35528	0.19454	0.045842	0.25076	0.19234	0.085707	-2.6958	-2.3896	-2.2646	-3.2917	-2.1521	-2.4583	-3.2167	-2.2167	-2.8563	-2.5583	-2.4271	-3.0583	-2.3271	-2.7667	-3.0354	-2.1354	17.961	2.454	229.221	227.535	-83.172	149.453	164.777	154.477	79.111	-8.746	229.765	224.617	145.010	-118.494	24.295	28.135	0.0002284	0.00029046	0.00017475	1367.7	3.8221e-06	6.7242e-06	1361.3	369.18	2.8128e-06	2.4406e-06	423.52	139.93	122.39	42.094	3.7433e-06	51.896	0.00053138	0.00059511	0.00016879	1375.8	6.5948e-06	6.7448e-06	1372.6	373.95	6.7596e-06	6.8155e-06	427.83	142.9	124.42	42.888	6.7882e-06	53.067	-115.751	-30.486	-9.876	-109.384	25.978	44.928	-109.536	-104.711	-4.427	93.811	-105.225	-100.842	-100.513	-95.860	17.161	-96.400	-8191	255	
520.648	1	1	0	0	0.17644	0.12635	0.16305	0.23768	0.30826	0.041766	0.063739	0.16897	0.10223	0.15017	0.11128	0.29857	0.17915	0.3331	0.064947	0.32112	-2.4938	-2.6167	-1.9896	-3.1417	-2.1833	-2.3187	-3.3104	-2.2875	-2.6375	-2.8688	-2.1479	-3.1208	-2.3937	-2.2896	-2.9062	-2.1521	65.504	120.687	49.739	136.875	183.204	54.507	-60.854	193.431	120.007	-64.843	67.145	106.329	124.151	227.171	-19.916	207.421	0.00022298	0.00030732	0.00017142	1373.8	5.3869e-06	4.7494e-06	1363.1	370.26	3.2071e-06	7.9775e-06	424.43	139.9	121.37	42.092	4.0014e-06	52.066	0.00055971	0.00062023	0.00017133	1377.9	6.6804e-06	6.8132e-06	1376.4	374.85	6.6585e-06	6.586e-06	428.03	143.07	124.1	42.919	6.4522e-06	53	232.895	-52.650	-7.926	-109.482	60.370	85.924	-109.417	-104.669	-48.676	24.124	-105.098	-100.852	-100.363	-95.993	42.375	-96.573	-8191	255	
520.769	1	1	0	0	0.25245	0.15187	0.13858	0.15175	0.08733	0.19678	0.17948	0.19845	0.20707	0.2214	0.30462	0.18712	0.17269	0.28404	0.16079	0.005669	-2.3729	-2.6604	-1.7083	-3.3063	-2.4646	-2.4396	-3.2104	-2.3812	-2.5687	-2.7771	-1.9875	-3.1146	-2.6354	-2.3063	-3.1979	-2.3125	65.098	235.646	38.965	86.658	117.036	-31.467	205.432	161.149	-77.932	-53.732	-107.251	90.394	-122.247	-87.632	62.165	95.385	0.00023299	0.00043391	0.0001515	1372.3	1.5271e-06	5.1025e-06	1366.3	368.67	3.2008e-06	5.7781e-06	423.09	139.22	121.59	41.889	4.1392e-06	52.022	0.00053269	0.0005663	0.00016015	1379.9	6.2571e-06	6.0649e-06	1376.6	373.66	6.1768e-06	6.0008e-06	426.92	142.58	124.17	42.796	5.8794e-06	52.94	-121.729	-29.093	-33.662	-109.445	26.763	53.180	-109.293	-104.712	-8.006	66.215	-105.365	-101.074	-100.499	-95.821	10.801	-96.624	-8191	255	
520.865	1	1	0	0	0.15214	0.18589	0.059755	0.13047	0.082986	0.14577	0.35895	0.23618	0.26929	0.14671	0.18593	0.14772	0.021428	0.21025	0.14204	0.11371	-2.475	-2.9042	-2.0229	-2.9958	-2.6292	-2.1229	-3.3875	-2.4917	-2.475	-3.0479	-2.0542	-3.1	-2.9021	-2.2875	-2.9646	-2.5375	27.032	156.940	218.903	-84.839	204.763	52.825	214.462	-55.459	212.430	153.537	235.460	-100.343	1.549	232.066	129.734	-82.009	0.00025147	0.00048665	0.00016813	1373.2	3.1377e-06	5.4874e-06	1364.7	369.69	1.7289e-06	3.6881e-06	423.27	139.53	121.35	42.048	4.2605e-06	51.813	0.00051795	0.00055601	0.0001526	1379.8	6.0312e-06	6.2116e-06	1375.6	373.9	6.1634e-06	6.0017e-06	427.12	142.79	123.94	42.799	5.9707e-06	52.927	-119.657	-26.718	-16.170	-109.289	12.269	27.758	-109.562	-104.841	-7.734	32.396	-105.324	-101.139	-100.196	-95.838	20.109	-96.411	-8191	255	
520.961	1	1	0	0	0.071453	0.069729	0.13086	0.012746	0.13449	0.22221	0.12481	0.18417	0.083394	0.12895	0.28318	0.17828	0.27106	0.095223	0.13401	0.21754	-2.1562	-2.8625	-2.1479	-2.8812	-2.7521	-2	-3.2521	-2.4125	-2.3146	-3.0771	-1.9625	-2.7417	-2.875	-2.1896	-3.1646	-2.6042	68.360	213.201	-114.701	-91.934	36.549	73.903	220.800	-104.518	48.548	97.056	153.285	167.453	183.443	26.600	94.026	109.241	0.00023908	0.00041174	0.00014543	1373.7	3.941e-06	6.989e-06	1367.4	368.79	1.7844e-06	9.4085e-06	423.67	139.4	121.79	42.152	5.261e-06	52.023	0.00051868	0.00055155	0.00015407	1382.2	6.1342e-06	6.1424e-06	1378.2	373.92	6.1719e-06	6.1438e-06	426.63	142.73	124.18	42.815	6.2722e-06	53.009	-115.230	-45.789	4.326	-109.530	59.230	11.017	-109.183	-104.808	29.704	31.029	-105.251	-100.938	-100.310	-95.915	33.806	-96.585	-8191	255	
521.057	1	1	0	0	0.41137	0.093322	0.07518	0.18324	0.18668	0.076978	0.09693	0.24595	0.20689	0.11671	0.16151	0.24603	0.091627	0.30901	0.18665	0.27521	-1.8104	-3.0229	-2.1312	-2.7083	-2.8604	-2.1167	-3.15	-2.6333	-2.1437	-3.0938	-2.2667	-2.6708	-3.0292	-2.2458	-2.8937	-2.8042	-119.019	215.987	70.316	173.523	10.259	154.759	194.565	188.173	-33.898	66.280	-82.056	196.075	149.777	169.396	190.148	160.643	0.00021042	0.00065858	0.00015198	1376.2	4.9954e-06	6.7266e-06	1367	369.49	1.7069e-06	4.1797e-06	423.93	140.03	122.09	42.118	4.6371e-06	52.044	0.00052577	0.00056974	0.00015953	1380.3	6.0843e-06	6.392e-06	1376	373.74	6.0475e-06	6.2565e-06	427.55	142.91	124.26	42.808	6.1107e-06	52.958	-119.108	-47.374	-35.975	-109.529	37.891	13.604	-109.246	-104.717	13.006	12.652	-105.373	-101.113	-100.460	-95.869	34.143	-96.534	-8191	255	
521.154	1	1	0	0	0.23755	0.24447	0.36174	0.25769	0.27199	0.31352	0.40082	0.15936	0.22173	0.11983	0.10835	0.17343	0.23878	0.13073	0.32946	0.077725	-1.9542	-3.1396	-2.2708	-2.6146	-2.875	-2.0854	-3.1583	-2.9479	-2.0292	-2.8979	-2.4125	-2.5333	-3.2167	-2.1333	-2.7646	-2.7604	62.556	100.279	203.243	-113.288	212.025	101.006	199.465	219.755	37.689	-84.286	-105.471	215.778	209.318	215.812	196.373	-0.199	0.00021364	0.00042568	0.00013287	1378.8	5.2642e-06	8.7911e-06	1373.7	370.12	1.4387e-06	5.9858e-06	422.59	140.08	122.04	42.112	5.0186e-06	52.04	0.0005223	0.00056894	0.00015736	1378.7	6.0899e-06	6.1492e-06	1379.5	373.69	6.1062e-06	6.009e-06	426.85	142.8	124.21	42.804	5.9955e-06	52.969	234.125	-29.782	-0.049	-109.119	14.872	3.086	-109.031	-104.783	55.372	38.381	-105.504	-100.931	-100.299	-95.850	32.323	-96.400	-8191	255	
521.248	1	1	0	0	0.076487	0.11648	0.087809	0.078779	0.091415	0.088347	0.26991	0.06152	0.061316	0.17758	0.25075	0.32556	0.28085	0.33354	0.17641	0.11791	-1.8292	-3.0312	-2.2	-2.3583	-3.0646	-2.025	-2.9083	-3.0979	-2	-3.0667	-2.6583	-2.3771	-3.2354	-2.2104	-2.4083	-2.9562	164.836	2.851	217.844	224.868	-77.192	134.901	147.831	-119.438	-24.244	39.246	-115.327	157.923	192.189	-105.336	-9.426	-80.821	0.00021748	0.00044007	0.00024595	1376	2.7947e-06	4.1434e-06	1368.2	369.79	2.4836e-06	5.7489e-06	422.6	139.8	122.71	41.995	2.5515e-06	51.929	0.00051967	0.00055679	0.00015513	1380.9	6.0473e-06	6.1947e-06	1377.9	374.46	6.0255e-06	6.188e-06	426.6	142.9	124.34	42.765	6.0644e-06	52.989	-119.208	-17.680	-6.796	-109.440	72.130	-5.879	-109.307	-104.663	-41.522	45.876	-105.423	-101.054	-100.322	-95.883	5.925	-96.669	-8191	255	
521.346	1	1	0	0	0.18126	0.25332	0.25168	0.14903	0.048596	0.1044	0.204	0.33725	0.22194	0.13078	0.13313	0.12841	0.19987	0.21127	0.15561	0.15723	-1.7521	-3.0187	-2.4833	-2.3458	-3.0812	-2.3229	-2.7812	-3.1167	-2.0271	-2.9375	-2.7021	-2.2896	-3.2687	-2.2354	-2.5125	-3.0625	-29.169	54.711	175.532	123.458	44.849	17.404	133.850	178.009	183.362	14.993	80.178	137.611	201.818	213.539	-45.064	105.391	0.00024227	0.00042865	0.00015352	1379	4.97e-06	7.4229e-06	1369	369.32	4.1567e-06	6.3313e-06	423.87	140.56	122.06	41.953	3.3708e-06	51.799	0.00050372	0.00055664	0.00015433	1380.1	6.032e-06	6.0155e-06	1376.8	374.24	6.2187e-06	6.0446e-06	427.28	142.94	124.29	42.819	6.1532e-06	52.874	-105.689	-2.869	-35.904	-109.350	68.658	56.650	-109.138	-104.724	-7.092	59.617	-105.327	-100.913	-100.229	-95.576	50.020	-96.671	-8191	255	
521.440	1	1	0	0	0.15909	0.059408	0.15199	0.041449	0.11654	0.20651	0.40561	0.29047	0.19751	0.064549	0.23225	0.20335	0.11264	0.24943	0.017098	0.092572	-1.7604	-2.725	-2.8167	-2.3646	-3.0187	-2.3792	-2.7062	-3.2292	-2.1188	-2.8063	-2.8396	-2.2562	-3.0625	-2.5521	-2.2938	-3.1271	46.864	-36.995	76.566	-73.786	26.102	-10.956	122.400	100.316	-106.365	197.674	166.561	166.290	42.330	-111.559	-33.321	139.342	0.00025942	0.00042869	0.0001021	1375.7	3.0253e-06	8.887e-06	1366.1	370.53	3.9272e-06	1.0247e-05	422.55	140.15	121.9	42.076	3.5687e-06	52.049	0.0005162	0.00055272	0.00015111	1377.2	5.9707e-06	6.0483e-06	1376.8	374.26	6.125e-06	6.1225e-06	426.76	142.77	124.36	42.819	6.1109e-06	52.942	-122.478	-35.332	18.928	-109.244	12.297	31.508	-108.943	-104.822	16.572	29.998	-105.366	-100.948	-100.333	-95.895	49.706	-96.459	-8191	255	
521.538	1	1	0	0	0.12563	0.20099	0.14547	0.24931	0.027204	0.1039	0.22177	0.19819	0.15691	0.22419	0.19095	0.10619	0.31329	0.31481	0.28769	0.13454	-1.8687	-2.5208	-2.825	-1.9813	-3.0271	-2.7104	-2.4354	-3.1583	-2.1937	-2.5479	-3.0062	-2.2083	-3.0438	-2.7687	-2.1771	-3.2188	82.379	28.782	-107.418	178.328	72.533	148.740	125.968	173.347	159.350	127.293	162.973	180.676	-107.949	216.555	85.040	211.283	0.00022404	0.00060378	0.00011047	1372.8	4.6689e-06	5.2659e-06	1364.7	368.35	2.859e-06	7.7872e-06	423.14	139.15	122.03	42.039	3.4149e-06	52.062	0.00050273	0.00054619	0.00015286	1379	6.0219e-06	6.0114e-06	1374.8	373.34	6.0904e-06	6.0818e-06	426.73	142.56	124.33	42.752	6.0847e-06	52.987	-115.714	-35.960	-42.104	-109.228	8.581	70.698	-109.216	-104.698	8.757	36.614	-104.947	-100.735	-100.177	-95.554	53.313	-96.614	-8191	255	
521.657	1	1	0	0	0.10516	0.099861	0.037431	0.0061683	0.44983	0.12454	0.23585	0.35473	0.28714	0.095815	0.2249	0.14179	0.17416	0.21906	0.086518	0.35414	-1.8833	-2.4792	-2.8625	-2.0833	-2.8167	-2.6896	-2.4792	-3.2646	-2.3063	-2.3979	-3.1	-2.3625	-3.0062	-2.725	-2.1771	-3.1667	225.792	215.147	-30.796	-52.798	0.905	38.425	165.925	201.595	-44.386	200.128	147.004	204.044	170.963	165.025	-58.885	178.970	0.00026049	0.00044505	0.0001076	1372.8	3.9992e-06	8.4456e-06	1360.7	368.25	3.3908e-06	5.8589e-06	423.68	138.73	122.12	42.048	5.4346e-06	51.957	0.00050727	0.0005554	0.00015323	1377.8	5.8464e-06	5.9972e-06	1373.8	373.01	6.1062e-06	5.9935e-06	426.77	142.51	124.41	42.736	5.9672e-06	52.923	-122.214	-33.657	-40.836	-109.141	-14.884	15.739	-109.346	-104.779	0.941	3.853	-105.455	-100.663	-100.219	-95.962	54.749	-96.284	-8191	255	
521.753	1	1	0	0	0.16351	0.040315	0.085086	0.24732	0.095705	0.21072	0.2438	0.19532	0.23202	0.072638	0.16975	0.10415	0.21466	0.18225	0.12483	0.29154	-2.0062	-2.3854	-2.9646	-2.1312	-2.6104	-2.5812	-2.2521	-3.2292	-2.4583	-2.2938	-3.2521	-2.2917	-2.7042	-3.0292	-2.0542	-2.9667	-51.251	32.724	-65.420	159.305	-56.350	-35.529	196.190	181.128	-80.442	100.066	198.389	-61.020	-95.728	-36.722	116.694	182.357	0.00020703	0.00044902	0.00016989	1371.4	4.7375e-06	2.3231e-06	1366	370.52	1.2262e-06	5.2715e-06	424.08	139.4	121.83	42.059	4.2087e-06	51.958	0.00050921	0.00053534	0.00015031	1378.8	5.9822e-06	6.0534e-06	1374.9	374.54	5.9662e-06	6.0924e-06	427.15	142.48	124.06	42.683	5.9911e-06	52.941	-116.389	-71.884	-35.954	-109.265	19.426	46.312	-109.380	-104.745	84.106	12.066	-105.208	-100.775	-100.247	-95.692	-3.142	-96.298	-8191	255	
521.849	1	1	0	0	0.12815	0.02961	0.089086	0.086251	0.12059	0.057381	0.33511	0.20591	0.16213	0.03458	0.15427	0.37263	0.37567	0.28939	0.10687	0.16004	-2.3021	-2.1979	-3.1667	-2.3396	-2.475	-2.9313	-2.3604	-3.2229	-2.525	-2.2562	-3.2438	-2.3125	-2.5792	-3.1521	-2.2333	-3.0938	-109.729	28.102	-104.604	97.858	-40.682	-75.120	148.008	152.394	60.273	57.516	176.616	181.609	225.161	219.012	-94.277	-43.267	0.0002519	0.00040052	0.00019185	1375.1	6.056e-06	6.0433e-06	1361.1	369.17	3.5776e-06	3.4292e-06	422.43	140.22	121.74	41.986	5.4422e-06	51.699	0.00050409	0.00054466	0.0001522	1378.7	5.9033e-06	5.9494e-06	1373.7	373.81	5.894e-06	5.8799e-06	426.4	142.55	124.02	42.731	5.9683e-06	52.891	236.536	-47.393	-23.683	-109.203	30.349	10.192	-109.334	-104.762	17.336	26.688	-105.277	-100.777	-100.223	-95.675	18.186	-96.436	-8191	255	
521.945	1	1	0	0	0.33677	0.23854	0.11061	0.040195	0.092695	0.13214	0.11688	0.20533	0.12933	0.098629	0.16589	0.38897	0.053715	0.052413	0.1469	0.24569	-2.4229	-2.0875	-3.0833	-2.2083	-2.3875	-2.9833	-2.3729	-3.0458	-2.6625	-1.9458	-3.0354	-2.5062	-2.6	-3.2333	-2.0271	-2.9562	220.061	67.872	114.140	14.463	47.286	-109.127	192.503	190.551	-5.844	-78.977	-21.030	137.441	-25.751	219.485	-73.225	207.543	0.00023852	0.00047555	0.00012635	1372.1	5.2261e-06	8.7943e-06	1365.7	368.9	3.128e-06	3.1597e-06	424.03	139.03	121.66	42.191	5.6745e-06	52.132	0.00049432	0.00053239	0.00014862	1374.7	5.8427e-06	5.7108e-06	1374.2	373.4	5.7658e-06	5.8683e-06	427.15	142.05	123.96	42.7	5.6928e-06	52.93	-117.363	-58.072	-6.404	-109.323	37.009	43.343	-109.168	-104.492	36.195	34.278	-105.038	-100.861	-100.025	-95.614	0.033	-96.194	-8191	255	
522.042	1	1	0	0	0.18754	0.16376	0.16206	0.20368	0.22242	0.28627	0.074532	0.29097	0.1423	0.2165	0.17341	0.12036	0.090037	0.16965	0.047654	0.21243	-2.6375	-1.9188	-3.0438	-2.6521	-2.3458	-3.1521	-2.3583	-2.8146	-2.8354	-2.0479	-3.0271	-2.6771	-2.4396	-3.1583	-2.1958	-2.5812	233.636	130.934	-70.791	192.364	130.170	164.247	173.128	159.981	-73.852	-52.597	218.631	189.582	102.249	-14.711	80.608	124.111	0.00025994	0.00053071	8.5438e-05	1369.5	2.8396e-06	5.1977e-06	1359.5	368.82	3.671e-06	4.4004e-06	423.27	139.45	121.97	41.987	5.1367e-06	51.856	0.00049412	0.00053166	0.00014667	1375.2	5.7823e-06	5.7305e-06	1373.1	373.44	5.6981e-06	5.8507e-06	426.19	142.25	124.04	42.718	5.7716e-06	52.875	-119.123	-23.659	-24.100	-109.509	40.276	11.552	-109.518	-104.521	10.345	43.097	-105.084	-100.871	-100.110	-95.741	18.075	-96.377	-8191	255	
522.138	1	1	0	0	0.12479	0.061672	0.28198	0.19673	0.1803	0.052426	0.20797	0.21639	0.39855	0.083318	0.16	0.15965	0.2319	0.14024	0.19793	0.19245	-2.6396	-2.1417	-3.0083	-2.7104	-2.2667	-2.9958	-2.4708	-2.5812	-2.9646	-2.2271	-2.9708	-2.7729	-2.3708	-3.1833	-2.3083	-2.7562	46.636	46.044	215.206	182.497	115.806	92.687	147.828	154.441	48.518	-69.630	158.807	193.266	-47.979	222.664	64.835	173.018	0.00020456	0.00036732	0.00016881	1372.2	1.8857e-06	5.6054e-06	1363.5	368.47	2.453e-06	6.2302e-06	424.67	139.46	121.79	41.875	3.7408e-06	51.897	0.00049959	0.00052822	0.00014494	1376	5.7586e-06	5.6613e-06	1373.8	373.45	5.8014e-06	5.8616e-06	426.48	142.44	124.02	42.678	5.898e-06	52.841	-113.837	-61.357	-7.358	-109.208	1.695	29.577	-109.420	-104.568	58.027	3.555	-105.269	-100.921	-100.115	-95.646	24.313	-96.204	-8191	255	
522.258	1	1	0	0	0.11063	0.23869	0.027243	0.12054	0.19237	0.10348	0.35582	0.34926	0.15178	0.22741	0.18959	0.046119	0.21406	0.23446	0.31329	0.29379	-2.5958	-1.9562	-2.7271	-2.8688	-2.1562	-3	-2.6271	-2.4354	-3.2854	-1.9854	-2.8583	-2.9667	-2.25	-3.2042	-2.5062	-2.3396	127.508	134.145	231.314	221.697	56.449	3.773	191.372	213.136	109.780	202.673	141.158	-109.255	206.964	195.427	105.735	203.978	0.00025491	0.00054926	0.00011113	1367.3	4.7292e-06	5.5746e-06	1367.6	370.2	1.5405e-06	5.2016e-06	423.41	139.01	121.13	42.046	3.5432e-06	52.014	0.00050022	0.00053935	0.00014834	1375.8	5.829e-06	5.6481e-06	1374.7	374.08	5.738e-06	5.7967e-06	426.99	142.13	123.74	42.721	5.5879e-06	52.773	235.291	-55.234	-6.908	-109.127	42.325	43.050	-109.410	-104.594	29.939	26.075	-105.251	-101.132	-100.037	-95.615	43.395	-96.187	-8191	255	
522.353	1	1	0	0	0.13458	0.10221	0.11014	0.11219	0.37304	0.15484	0.37077	0.13005	0.16257	0.30622	0.24116	0.3284	0.47594	0.16647	0.17072	0.22175	-2.8729	-2.0812	-2.8312	-3.0604	-2.1396	-3.0396	-2.7479	-2.2958	-3.1542	-2.2146	-2.7146	-3.2146	-2.1333	-3.0312	-2.7542	-2.2625	15.389	-4.119	-78.918	89.484	106.965	-72.973	195.387	143.181	-52.542	61.746	223.231	193.137	224.984	-101.748	219.363	-120.082	0.00023021	0.00065752	0.00016179	1370.6	3.6044e-06	6.8661e-06	1363.6	368.77	1.9561e-06	5.5308e-06	423.17	139.59	121.46	41.938	2.905e-06	51.89	0.00047509	0.00050836	0.00014046	1377.1	5.5041e-06	5.5233e-06	1373.2	372.45	5.4159e-06	5.4785e-06	425.89	142.27	123.8	42.626	5.4801e-06	52.791	-121.825	-37.618	-32.710	-109.103	5.657	5.443	-109.240	-104.504	12.215	48.075	-104.977	-100.833	-100.307	-95.594	50.723	-96.275	-8191	255	
522.449	1	1	0	0	0.049793	0.21041	0.10924	0.28749	0.10822	0.076712	0.062129	0.24583	0.13795	0.13934	0.15564	0.12511	0.33005	0.29245	0.14057	0.6067	-2.9479	-2.3896	-2.4104	-2.9958	-2.0667	-2.9875	-3.025	-2.1917	-3.1875	-2.275	-2.5	-3.2417	-2.2167	-3.0354	-2.8417	-2.1292	235.322	-96.728	198.259	221.730	200.263	132.773	222.874	224.272	88.725	137.600	56.718	172.695	-110.016	-119.406	142.311	170.517	0.00024889	0.00031826	0.00016281	1368.7	5.8866e-06	6.2481e-06	1362.3	368.16	3.4022e-06	3.9961e-06	423.56	139.71	122.15	41.956	3.3623e-06	51.839	0.00047446	0.00051602	0.00014416	1373.1	5.6193e-06	5.6952e-06	1371.2	372.73	5.6454e-06	5.6353e-06	426.45	142.51	123.82	42.692	5.7426e-06	52.847	230.692	-6.555	1.601	-109.227	31.825	51.814	-109.289	-104.532	42.968	-26.066	-105.332	-100.937	-100.129	-95.435	17.730	-96.434	-8191	255	
522.545	1	1	0	0	0.08974	0.12934	0.11289	0.13918	0.23104	0.19343	0.32835	0.23151	0.171	0.055953	0.33297	0.17061	0.11512	0.16456	0.10459	0.11861	-2.8042	-2.4188	-2.2917	-3.1667	-2.1875	-2.5604	-3.0375	-2.2354	-3.0896	-2.4646	-2.5042	-3.2354	-2.2375	-2.7438	-2.9188	-2.2833	-61.650	189.240	-48.441	174.482	-55.187	155.014	190.864	166.424	-12.347	-102.195	152.684	208.158	-4.068	217.645	-94.017	146.532	0.00024199	0.00056599	0.00019702	1369.8	2.8182e-06	6.0392e-06	1367.5	368.85	1.4542e-06	4.7617e-06	424.54	139.55	121.07	41.946	4.6904e-06	52.081	0.00048132	0.00052238	0.00014466	1374.7	5.7132e-06	5.7098e-06	1374.6	372.5	5.6843e-06	5.7759e-06	426.11	142.31	123.7	42.659	5.5504e-06	52.905	232.661	-56.334	-7.948	-109.231	75.101	1.909	-109.323	-104.540	30.815	-2.396	-105.052	-101.214	-100.569	-95.661	6.035	-96.493	-8191	255	
#DATA ENDS
