BOXY.EXE: ISS Imagent and Oximeter Data Acquisition Program Version 0.80
Ascii Record File

#ACQ INFORMATION
2  Detector Channels 
16  External MUX Channels 
1  Auxiliary Channels 
5000  Waveform (CCF) Frequency (Hz)
1  Waveforms Skipped 
30  Waveforms Averaged 
1  Cycles Averaged 
16  Acquisitions per Waveform 
10.0806  Updata Rate (Hz) 

#FILE INFORMATION
TRUE -- External MUX Channel results are PARSED.
FALSE -- AC DC and Phase are NOT grouped.
TRUE -- Companion Program Settings File CREATED.
FALSE -- AC data not excluded
FALSE -- DC data not excluded
FALSE -- Phase data not excluded
FALSE -- Auxillary Chn. data not excluded
Tab delimiters

#CALIBRATION STATE
TRUE -- Waveform Calibration Values APPLIED.


#AUX CALIBRATION VALUES
Val Type	aux-1	

Term	1.0000e+00	
Factor	0.0000e+00	


#WF CALIBRATION VALUES
A = Detector Channel
Val Type	A-AC1	A-AC2	A-AC3	A-AC4	A-AC5	A-AC6	A-AC7	A-AC8	A-AC9	A-AC10	A-AC11	A-AC12	A-AC13	A-AC14	A-AC15	A-AC16	A-DC1	A-DC2	A-DC3	A-DC4	A-DC5	A-DC6	A-DC7	A-DC8	A-DC9	A-DC10	A-DC11	A-DC12	A-DC13	A-DC14	A-DC15	A-DC16	A-Ph1	A-Ph2	A-Ph3	A-Ph4	A-Ph5	A-Ph6	A-Ph7	A-Ph8	A-Ph9	A-Ph10	A-Ph11	A-Ph12	A-Ph13	A-Ph14	A-Ph15	A-Ph16	

Term	0.00000e+00	0.00000e+00	0.00000e+00	0.00000e+00	0.00000e+00	0.00000e+00	0.00000e+00	0.00000e+00	0.00000e+00	0.00000e+00	0.00000e+00	0.00000e+00	0.00000e+00	0.00000e+00	0.00000e+00	0.00000e+00	0.00000e+00	0.00000e+00	0.00000e+00	0.00000e+00	0.00000e+00	0.00000e+00	0.00000e+00	0.00000e+00	0.00000e+00	0.00000e+00	0.00000e+00	0.00000e+00	0.00000e+00	0.00000e+00	0.00000e+00	0.00000e+00	0.00000e+00	0.00000e+00	0.00000e+00	0.00000e+00	0.00000e+00	0.00000e+00	0.00000e+00	0.00000e+00	0.00000e+00	0.00000e+00	0.00000e+00	0.00000e+00	0.00000e+00	0.00000e+00	0.00000e+00	0.00000e+00	
Factor	1.00000e+00	1.00000e+00	1.00000e+00	1.00000e+00	1.00000e+00	1.00000e+00	1.00000e+00	1.00000e+00	1.00000e+00	1.00000e+00	1.00000e+00	1.00000e+00	1.00000e+00	1.00000e+00	1.00000e+00	1.00000e+00	1.00000e+00	1.00000e+00	1.00000e+00	1.00000e+00	1.00000e+00	1.00000e+00	1.00000e+00	1.00000e+00	1.00000e+00	1.00000e+00	1.00000e+00	1.00000e+00	1.00000e+00	1.00000e+00	1.00000e+00	1.00000e+00	X	X	X	X	X	X	X	X	X	X	X	X	X	X	X	X	

B = Detector Channel
Val Type	B-AC1	B-AC2	B-AC3	B-AC4	B-AC5	B-AC6	B-AC7	B-AC8	B-AC9	B-AC10	B-AC11	B-AC12	B-AC13	B-AC14	B-AC15	B-AC16	B-DC1	B-DC2	B-DC3	B-DC4	B-DC5	B-DC6	B-DC7	B-DC8	B-DC9	B-DC10	B-DC11	B-DC12	B-DC13	B-DC14	B-DC15	B-DC16	B-Ph1	B-Ph2	B-Ph3	B-Ph4	B-Ph5	B-Ph6	B-Ph7	B-Ph8	B-Ph9	B-Ph10	B-Ph11	B-Ph12	B-Ph13	B-Ph14	B-Ph15	B-Ph16	

Term	0.00000e+00	0.00000e+00	0.00000e+00	0.00000e+00	0.00000e+00	0.00000e+00	0.00000e+00	0.00000e+00	0.00000e+00	0.00000e+00	0.00000e+00	0.00000e+00	0.00000e+00	0.00000e+00	0.00000e+00	0.00000e+00	0.00000e+00	0.00000e+00	0.00000e+00	0.00000e+00	0.00000e+00	0.00000e+00	0.00000e+00	0.00000e+00	0.00000e+00	0.00000e+00	0.00000e+00	0.00000e+00	0.00000e+00	0.00000e+00	0.00000e+00	0.00000e+00	-9.16924e+01	-1.29767e+02	-1.18293e+02	-1.86930e+02	-6.15527e+01	-7.43525e+01	-1.57927e+02	-1.62015e+02	-5.46448e+01	-6.47678e+01	-1.74803e+02	-1.71738e+02	-1.79902e+02	-1.78143e+02	-6.55759e+01	-1.51148e+02	
Factor	1.34725e-05	1.20035e-04	3.44946e-05	2.75324e-01	1.14839e-06	1.47898e-06	1.54831e-01	4.40518e-02	8.52034e-07	1.53134e-06	8.28116e-02	2.37421e-02	1.84838e-02	7.33700e-03	1.05337e-06	1.06775e-02	4.48628e-06	5.69377e-06	1.58866e-06	1.45487e-01	6.13995e-08	6.28015e-08	7.73109e-02	2.36346e-02	6.06459e-08	6.30374e-08	4.27097e-02	1.23527e-02	1.00779e-02	3.96030e-03	6.13034e-08	5.55185e-03	X	X	X	X	X	X	X	X	X	X	X	X	X	X	X	X	



#DISTANCE SETTINGS
A = Detector Channel
A-1	A-2	A-3	A-4	A-5	A-6	A-7	A-8	A-9	A-10	A-11	A-12	A-13	A-14	A-15	A-16	

2.5000e+00	3.0000e+00	2.5000e+00	3.0000e+00	2.0000e+00	3.0000e+00	1.5000e+00	3.0000e+00	3.0000e+00	3.0000e+00	3.0000e+00	3.0000e+00	3.0000e+00	3.0000e+00	1.5000e+00	3.0000e+00	

B = Detector Channel
B-1	B-2	B-3	B-4	B-5	B-6	B-7	B-8	B-9	B-10	B-11	B-12	B-13	B-14	B-15	B-16	

1.0000e+01	1.0000e+01	1.0000e+01	1.4400e+00	1.0000e+01	1.0000e+01	1.5100e+00	1.9400e+00	1.0000e+01	1.0000e+01	1.9900e+00	2.4900e+00	2.4100e+00	2.9000e+00	1.0000e+01	2.9800e+00	




#DATA BEGINS
time	group	step	mark	flag	A-AC1	A-AC2	A-AC3	A-AC4	A-AC5	A-AC6	A-AC7	A-AC8	A-AC9	A-AC10	A-AC11	A-AC12	A-AC13	A-AC14	A-AC15	A-AC16	A-DC1	A-DC2	A-DC3	A-DC4	A-DC5	A-DC6	A-DC7	A-DC8	A-DC9	A-DC10	A-DC11	A-DC12	A-DC13	A-DC14	A-DC15	A-DC16	A-Ph1	A-Ph2	A-Ph3	A-Ph4	A-Ph5	A-Ph6	A-Ph7	A-Ph8	A-Ph9	A-Ph10	A-Ph11	A-Ph12	A-Ph13	A-Ph14	A-Ph15	A-Ph16	B-AC1	B-AC2	B-AC3	B-AC4	B-AC5	B-AC6	B-AC7	B-AC8	B-AC9	B-AC10	B-AC11	B-AC12	B-AC13	B-AC14	B-AC15	B-AC16	B-DC1	B-DC2	B-DC3	B-DC4	B-DC5	B-DC6	B-DC7	B-DC8	B-DC9	B-DC10	B-DC11	B-DC12	B-DC13	B-DC14	B-DC15	B-DC16	B-Ph1	B-Ph2	B-Ph3	B-Ph4	B-Ph5	B-Ph6	B-Ph7	B-Ph8	B-Ph9	B-Ph10	B-Ph11	B-Ph12	B-Ph13	B-Ph14	B-Ph15	B-Ph16	aux-1	digaux	

622.823	1	1	0	768	0.10128	0.2499	0.2207	0.048416	0.18542	0.28956	0.33657	0.17577	0.19203	0.081126	0.094331	0.046332	0.049655	0.070909	0.10193	0.092675	-2.6146	-2.4375	-2.0729	-2.9917	-1.8583	-2.4125	-2.9375	-1.8917	-2.7188	-2.4229	-2.0687	-2.9354	-1.975	-2.3979	-2.7146	-2.0854	239.983	203.872	249.257	239.876	295.764	458.869	440.644	473.829	456.227	497.317	261.229	341.991	412.839	180.240	273.092	482.456	0.00016958	0.00079003	7.5644e-05	1053.3	4.6397e-06	1.0174e-05	1133.7	211.45	3.8968e-06	6.6843e-06	269.62	76.954	60.189	17.361	1.3031e-06	24.189	0.0010159	0.0012215	0.00033938	1047.2	1.3236e-05	1.3493e-05	1120.5	211.97	1.2975e-05	1.3555e-05	274.67	78.436	61.333	18.066	1.327e-05	25.391	228.971	311.889	522.786	183.142	280.368	308.583	182.673	190.414	277.742	360.951	189.980	196.921	197.716	204.740	396.499	203.978	-8191	255	
622.919	1	1	0	0	0.042853	0.16871	0.1625	0.12264	0.32906	0.35788	0.14931	0.29919	0.036338	0.23139	0.015857	0.11276	0.14944	0.079342	0.12461	0.17955	-2.4958	-2.4271	-1.7875	-3.1375	-2.0479	-2.375	-2.9042	-1.9583	-2.5354	-2.6604	-2.1021	-3.0812	-2.1625	-2.3542	-2.8479	-1.9229	411.256	480.722	501.941	485.975	483.955	463.996	460.081	482.349	261.933	281.572	324.952	322.508	236.724	205.980	241.738	175.542	0.0002036	0.00023158	7.391e-05	1050.9	4.082e-06	6.0538e-06	1133.5	210.52	1.1116e-06	1.1797e-06	272.22	76.576	60.105	17.319	3.3383e-06	24.274	0.0010116	0.0012026	0.00034031	1043.4	1.3045e-05	1.3307e-05	1119.6	212.3	1.3045e-05	1.3395e-05	274.4	78.277	61.451	18.048	1.2741e-05	25.347	236.488	371.588	294.143	183.029	366.600	303.540	182.928	190.593	408.548	430.456	190.038	196.655	196.743	204.456	314.450	203.721	-8191	255	
623.015	1	1	0	0	0.019584	0.13618	0.17477	0.22835	0.17671	0.12075	0.20115	0.18895	0.085143	0.14059	0.13232	0.040232	0.23329	0.074754	0.18189	0.10708	-2.1896	-2.5917	-1.8687	-2.9188	-2.1458	-2.0625	-3.0792	-2.0812	-2.5375	-2.6771	-1.9167	-2.9313	-2.4208	-2.1521	-2.8104	-1.7896	453.014	486.305	358.292	219.402	483.047	449.319	382.336	479.260	234.031	488.932	424.709	329.873	472.969	439.519	396.818	361.748	0.00015798	0.00041547	0.00016122	1044.1	4.7343e-06	1.8579e-06	1135.7	211.37	3.3457e-06	2.8705e-06	270.44	76.179	59.817	17.368	4.2756e-06	24.192	0.00097572	0.0011789	0.00032601	1042.7	1.2484e-05	1.2489e-05	1120.6	211.69	1.2182e-05	1.2606e-05	273.69	78.099	60.946	17.952	1.2048e-05	25.222	229.445	284.222	239.573	182.587	271.995	228.653	182.805	190.180	293.830	423.826	190.091	197.033	196.877	204.888	368.058	204.168	-8191	255	
623.111	1	1	0	0	0.086092	0.10933	0.19361	0.12213	0.1124	0.052935	0.015368	0.12686	0.35315	0.14177	0.14381	0.1281	0.12553	0.10972	0.089985	0.1272	-2.1417	-2.8563	-2.0938	-3.0312	-2.2292	-1.9417	-3.2417	-2.1229	-2.4333	-2.7458	-1.6958	-2.9229	-2.5521	-2.05	-2.9958	-2.1833	468.671	462.251	343.782	480.649	403.740	228.546	205.875	470.812	430.326	184.401	280.702	286.339	256.821	193.635	254.810	414.953	0.00024886	0.00035025	6.5973e-05	1050.1	4.1135e-06	3.1379e-06	1131.5	210.48	1.4421e-06	2.935e-06	269.72	76.519	59.694	17.182	6.2337e-06	24.215	0.00093535	0.0011122	0.00031002	1041.2	1.1867e-05	1.205e-05	1115.8	211.02	1.1403e-05	1.1602e-05	272.63	77.881	60.789	17.84	1.1381e-05	25.126	227.730	311.039	371.524	182.878	270.791	306.241	182.957	190.512	208.064	319.559	189.945	196.512	196.740	203.371	350.944	204.146	-8191	255	
623.207	1	1	0	0	0.21222	0.1481	0.13366	0.028852	0.10736	0.094827	0.11048	0.22468	0.17916	0.094269	0.15126	0.37326	0.18568	0.21124	0.027955	0.15291	-1.9271	-2.9021	-1.8563	-2.7771	-2.6063	-1.9042	-3.1979	-2.5708	-2.1458	-2.9833	-1.7958	-2.7396	-2.7854	-2.0542	-2.7417	-2.6021	493.273	444.003	256.303	457.371	502.829	221.323	519.519	496.950	271.529	358.930	450.905	491.998	470.433	511.421	252.157	343.971	0.00018211	0.00077463	8.8408e-05	1035.6	3.0062e-06	5.4583e-06	1127.9	210.15	1.5675e-06	9.8254e-06	270.32	76.647	59.703	17.191	2.6601e-06	24.213	0.00087946	0.0010369	0.00028652	1034.4	1.1223e-05	1.1529e-05	1116.3	210.7	1.1119e-05	1.1469e-05	272.58	77.797	60.754	17.797	1.1283e-05	25.121	235.773	217.126	363.682	182.535	328.109	261.071	182.657	190.395	363.915	351.259	190.140	196.844	196.968	204.347	234.977	203.643	-8191	255	
623.304	1	1	0	0	0.055279	0.29207	0.23953	0.28491	0.14325	0.26761	0.27577	0.16669	0.18045	0.019485	0.30974	0.26542	0.074329	0.15136	0.17869	0.087703	-1.8563	-3.1188	-1.8375	-2.6083	-2.5708	-2.0167	-3.1083	-2.4604	-2.1417	-2.9813	-2.1021	-2.6479	-2.8521	-2.0083	-2.775	-2.5417	342.145	358.764	429.098	519.076	192.432	224.083	356.005	190.562	244.938	307.150	482.680	531.038	381.282	182.831	319.152	506.911	0.00020486	0.00056373	0.00015715	1046.5	5.7672e-06	1.9519e-06	1128	208.41	3.2193e-06	1.6981e-06	269.44	75.692	59.665	17.136	1.9184e-06	24.193	0.00084823	0.0010262	0.00028372	1036.2	1.1059e-05	1.1189e-05	1114.9	209.97	1.081e-05	1.1103e-05	271.15	77.372	60.654	17.756	1.0743e-05	25.096	230.804	267.005	179.321	183.158	378.874	386.812	182.882	190.326	312.163	373.777	190.187	196.561	197.187	204.741	322.930	203.487	-8191	255	
623.424	1	1	0	0	0.2182	0.18253	0.066318	0.20412	0.31562	0.275	0.069459	0.083437	0.21333	0.1866	0.19749	0.14037	0.14106	0.072032	0.15065	0.04472	-1.7229	-3.0146	-2.0479	-2.3271	-2.8104	-1.8312	-2.9437	-2.5875	-1.8833	-3.0333	-2.0292	-2.4688	-2.9396	-1.8271	-2.675	-2.6312	239.656	172.766	423.632	417.511	232.484	291.434	242.712	437.818	222.284	325.564	193.874	521.930	221.876	268.974	525.595	260.687	0.00022328	0.0006252	2.0408e-05	1036.1	4.4687e-06	4.6594e-06	1125.1	209.01	2.6446e-06	1.287e-06	269.65	76.436	59.916	17.142	2.0853e-06	24.22	0.00083015	0.00097365	0.00027884	1033.8	1.0663e-05	1.0774e-05	1114.2	209.68	1.0503e-05	1.0912e-05	271.38	77.575	60.64	17.758	1.0597e-05	24.951	228.563	244.183	260.512	183.234	262.553	330.508	183.012	190.542	366.539	281.088	189.855	196.761	196.641	204.647	263.504	203.467	-8191	255	
623.519	1	1	0	0	0.13624	0.039863	0.19761	0.14798	0.14612	0.038854	0.37208	0.1182	0.082508	0.22036	0.17525	0.094096	0.17006	0.17943	0.11374	0.35645	-1.6583	-2.8896	-2.1146	-2.2313	-3.0021	-1.8917	-2.6813	-2.7792	-1.7521	-3.0167	-2.4333	-1.9708	-3.0729	-2.1125	-2.3646	-2.8104	221.807	528.283	287.496	528.287	309.061	488.171	486.099	471.783	469.990	419.815	432.050	414.590	529.651	405.775	434.931	190.252	0.0002207	0.00036967	0.00015633	1043.3	3.1641e-06	6.5451e-06	1130.7	210.46	3.4222e-06	4.1895e-06	270.26	76.109	59.15	17.226	3.3782e-06	23.996	0.00082709	0.00097907	0.00027506	1031.1	1.0507e-05	1.0897e-05	1114.1	210.13	1.0651e-05	1.0688e-05	271.19	77.249	60.438	17.759	1.0615e-05	24.927	247.510	279.253	282.960	182.606	283.744	309.022	182.959	190.258	275.719	340.967	190.028	196.428	197.070	203.863	346.695	203.972	-8191	255	
623.615	1	1	0	0	0.15201	0.1764	0.12132	0.16478	0.18454	0.17758	0.27334	0.11679	0.069877	0.047537	0.094254	0.16622	0.30058	0.070606	0.12782	0.14591	-1.4625	-2.7521	-2.3208	-2.1583	-2.7812	-2.1813	-2.6271	-2.9417	-1.9	-2.8396	-2.5229	-2.1312	-2.975	-2.1729	-2.2146	-2.8917	302.874	239.693	174.277	307.418	365.450	173.368	516.158	502.498	236.993	484.572	261.366	453.530	512.736	172.986	446.511	395.967	0.00019377	0.00011315	0.00015143	1047.8	3.3707e-06	6.7489e-06	1123.8	208.84	1.8297e-06	1.8127e-06	270.77	76.308	59.535	17.081	2.4778e-06	24.056	0.00080615	0.00096465	0.00027312	1035.9	1.0388e-05	1.0656e-05	1110.5	209.38	1.0505e-05	1.0759e-05	271.22	77.379	60.548	17.742	1.0511e-05	25.022	243.770	370.605	271.076	182.587	329.022	317.765	182.830	190.337	387.793	326.339	190.200	197.003	197.232	204.707	270.686	203.664	-8191	255	
623.711	1	1	0	0	0.10147	0.059894	0.2521	0.13889	0.29537	0.070962	0.26304	0.064866	0.12495	0.33384	0.24061	0.23308	0.12215	0.17193	0.037733	0.12261	-1.5458	-2.6792	-2.6562	-2.2313	-2.9167	-2.25	-2.1604	-2.9896	-1.8583	-2.7125	-2.6125	-1.8792	-3.0354	-2.0729	-2.525	-2.9521	354.790	463.494	490.183	423.899	298.494	473.323	424.116	187.251	465.681	218.293	205.317	228.920	502.069	384.488	393.992	529.680	0.0002151	0.00058884	0.00022714	1045.6	1.697e-06	1.1581e-06	1128.9	209.26	4.7818e-06	3.9373e-06	269.06	75.572	59.742	17.062	6.0426e-06	23.996	0.00080508	0.00097002	0.00026888	1031	1.034e-05	1.0368e-05	1113.3	209.32	1.0146e-05	1.0271e-05	270.47	76.951	60.377	17.649	1.0011e-05	24.857	230.958	263.378	262.871	183.194	345.922	346.095	183.186	190.357	298.628	320.367	189.772	196.493	197.081	203.985	333.806	203.805	-8191	255	
623.807	1	1	0	0	0.31005	0.18038	0.11026	0.10032	0.054446	0.34723	0.069195	0.33487	0.17381	0.092114	0.029002	0.23321	0.050727	0.19762	0.13505	0.25189	-1.8875	-2.4771	-2.6625	-2.1521	-2.7521	-2.1646	-2.4271	-3.1021	-1.8042	-2.5812	-2.7833	-1.9604	-2.875	-2.4104	-2.1458	-2.9	439.960	300.198	525.477	201.017	512.245	382.334	207.298	183.803	201.379	305.687	493.265	504.701	374.453	233.397	431.120	452.390	0.00020407	0.00024264	0.00013149	1036.6	1.3337e-06	7.2355e-06	1126.4	209.83	3.8079e-06	1.4956e-06	270.23	76.431	59.603	17.197	2.9301e-06	24.165	0.00077953	0.00092742	0.00026151	1030.3	1.0301e-05	1.0384e-05	1111.2	209.6	1.0413e-05	1.0557e-05	270.97	77.447	60.404	17.685	1.0362e-05	24.972	235.361	212.912	289.097	182.609	496.021	273.440	182.697	190.469	285.031	233.252	189.689	196.550	197.513	204.082	340.745	203.794	-8191	255	
623.903	1	1	0	0	0.21904	0.12345	0.063472	0.30762	0.14994	0.10679	0.27198	0.064889	0.14717	0.15434	0.19413	0.23702	0.24991	0.22873	0.28828	0.17575	-1.8354	-2.3375	-2.6083	-1.8729	-2.5708	-2.6792	-2.2729	-3.2458	-2.2146	-2.3896	-3.0312	-2.2167	-2.8792	-2.4917	-2.1229	-3.1792	471.131	218.903	434.986	320.163	215.239	376.147	457.618	245.658	360.543	178.324	455.423	474.965	430.959	517.381	397.135	385.807	0.00021287	0.00050915	0.00010922	1033.8	9.3849e-07	3.3688e-06	1125.5	209.61	4.5489e-07	6.6043e-06	268.6	75.421	59.421	17.215	1.9227e-06	24.165	0.00081152	0.00096635	0.00026605	1028.6	1.0464e-05	1.0453e-05	1112.1	209.35	1.0511e-05	1.0783e-05	270.35	77.208	60.566	17.784	1.0731e-05	25.002	225.212	234.334	330.472	182.390	312.825	340.784	182.638	190.176	497.687	315.993	189.623	196.275	196.857	204.417	231.106	203.711	-8191	255	
624.024	1	1	0	0	0.09803	0.32814	0.13873	0.17775	0.19446	0.20661	0.20483	0.040622	0.052346	0.28422	0.090861	0.02416	0.062096	0.12582	0.27246	0.11191	-1.7229	-2.3792	-2.8354	-1.9354	-2.7354	-2.6625	-2.2188	-2.8646	-2.2313	-2.275	-3	-2.0479	-2.6229	-2.7417	-1.7958	-3.1104	291.932	241.451	467.348	256.027	259.059	444.946	396.934	418.041	177.784	212.772	230.907	439.105	501.278	405.179	188.453	301.801	0.00019571	0.000392	9.6592e-05	1038.8	4.4305e-06	5.2427e-06	1128	208.9	2.3143e-06	4.4593e-06	270.14	75.305	59.307	17.159	1.8861e-06	24.122	0.00085645	0.00099172	0.00027974	1032.1	1.086e-05	1.1088e-05	1111.9	209.82	1.0838e-05	1.1218e-05	271.88	77.203	60.688	17.777	1.126e-05	24.956	245.137	231.086	266.036	182.659	373.598	350.986	182.736	190.112	358.176	257.399	190.040	196.451	197.085	204.008	395.857	203.614	-8191	255	
624.120	1	1	0	0	0.11998	0.2569	0.10001	0.23371	0.13794	0.063054	0.13735	0.069929	0.33388	0.28513	0.1318	0.19999	0.31606	0.29481	0.27887	0.33161	-1.7792	-2.2625	-2.8333	-2.1333	-2.4521	-2.7729	-2.3896	-3.0208	-2.4208	-2.2	-2.85	-2.2042	-2.3854	-3.0417	-1.7083	-2.9479	455.851	217.294	231.247	465.282	308.239	340.604	436.708	275.150	366.624	221.396	230.153	469.499	510.985	482.968	193.699	255.172	0.00019986	0.00029344	0.00020725	1043.7	6.5576e-06	3.5699e-06	1130	209.02	1.9444e-06	2.0522e-06	268.34	75.842	59.548	17.029	2.0111e-06	23.891	0.00086797	0.0010342	0.00028874	1031.2	1.135e-05	1.1252e-05	1114.2	209.99	1.1287e-05	1.1327e-05	271.43	77.252	60.635	17.737	1.1233e-05	25.091	231.432	190.934	245.330	182.753	252.837	283.977	182.573	190.329	339.475	457.585	190.115	196.614	197.164	204.304	351.796	203.694	-8191	255	
624.216	1	1	0	0	0.11111	0.26195	0.089665	0.20082	0.13011	0.13815	0.094263	0.25104	0.1608	0.21805	0.18308	0.050866	0.20168	0.13545	0.053092	0.19282	-1.9542	-1.7792	-3.0104	-1.9542	-2.4396	-2.7833	-2.1437	-3.05	-2.5312	-1.9958	-3.0125	-2.225	-2.2625	-3.0146	-1.7938	-2.7292	202.908	347.705	473.395	481.665	242.668	226.633	462.466	524.864	222.140	345.353	418.866	284.681	197.068	515.282	395.959	220.854	0.00025222	0.00026445	6.9081e-05	1030.3	3.0806e-06	3.5459e-06	1121.3	209.14	3.4967e-06	4.3898e-06	268.79	75.951	59.506	17.083	5.4464e-06	24.157	0.00086639	0.0010443	0.00028904	1028.6	1.1302e-05	1.1436e-05	1111.5	209.65	1.1083e-05	1.173e-05	271.1	77.207	60.682	17.766	1.1403e-05	25.041	230.049	253.460	216.997	182.685	293.275	290.031	182.513	190.151	278.572	435.141	189.423	196.609	197.330	204.465	378.546	203.563	-8191	255	
624.310	1	1	0	0	0.18811	0.2625	0.15094	0.12247	0.27487	0.11777	0.23233	0.093031	0.14546	0.1344	0.093944	0.26241	0.13263	0.33402	0.13811	0.062483	-2.425	-1.8625	-2.7562	-2.2708	-2.1625	-2.8729	-2.175	-2.5875	-2.7042	-1.8854	-2.9813	-2.3979	-2.1292	-2.9875	-1.9937	-2.6104	357.502	215.263	201.116	415.158	532.208	199.098	491.673	196.574	512.643	490.904	515.784	433.661	184.741	220.772	239.595	216.529	0.00018005	0.00041467	0.00012238	1035.3	3.6503e-06	9.5481e-07	1119.3	209.75	7.2943e-06	2.3588e-06	269.97	75.976	59.296	17.073	2.5954e-06	24.152	0.00086874	0.0010697	0.00029553	1031.7	1.1424e-05	1.1557e-05	1110.7	209.62	1.1234e-05	1.1587e-05	270.85	77.374	60.549	17.724	1.1331e-05	25.064	229.649	298.972	262.410	182.505	264.766	302.695	182.646	190.235	264.493	287.382	189.846	196.259	196.914	204.381	343.942	203.291	-8191	255	
624.384	1	1	0	0	0.11501	0.22959	0.081529	0.045339	0.15291	0.22865	0.30342	0.18981	0.20249	0.25538	0.33478	0.20414	0.19741	0.11846	0.11273	0.29133	-2.3271	-1.8917	-2.8438	-2.3896	-2.2104	-2.7479	-2.3875	-2.5687	-2.8771	-2.0104	-2.6917	-2.3125	-2.1292	-2.9833	-2.1208	-2.3812	513.291	504.625	528.461	203.673	345.790	315.742	483.180	527.674	267.566	173.955	459.669	228.806	206.519	259.176	357.569	299.629	0.00023607	0.00038936	7.1574e-05	1038.7	3.2957e-06	2.0179e-06	1122.3	209.49	3.9443e-06	8.5663e-06	270.88	75.733	59.231	17.093	7.1098e-06	23.963	0.00085482	0.0010329	0.00028378	1029.8	1.1051e-05	1.1257e-05	1110.2	209.71	1.1063e-05	1.1306e-05	271.54	77.278	60.435	17.72	1.1025e-05	24.991	226.444	263.692	227.479	182.357	302.456	219.411	182.538	190.382	286.267	336.570	189.925	196.088	196.842	204.252	276.952	203.775	-8191	255	
624.503	1	1	0	0	0.40791	0.19219	0.21916	0.069801	0.25165	0.23693	0.096166	0.22311	0.1255	0.19741	0.31029	0.20433	0.1155	0.18704	0.31412	0.19657	-2.4396	-1.9562	-2.7875	-2.4021	-2.0208	-2.8542	-2.4542	-2.4375	-2.8812	-2.0854	-2.5792	-2.75	-1.925	-3.0083	-2.3	-2.2229	398.212	434.472	210.590	461.181	520.537	389.317	200.787	506.147	217.895	218.407	175.261	213.123	511.459	198.735	522.025	426.568	0.00017921	0.00063867	0.00011305	1046.4	5.2875e-06	3.2339e-06	1122.4	210.72	4.549e-06	5.6175e-06	270.2	75.692	59.302	17.079	4.3191e-06	24.212	0.00084667	0.0010226	0.0002813	1032.3	1.1325e-05	1.1218e-05	1110.2	209.75	1.099e-05	1.1406e-05	271.5	77.211	60.518	17.722	1.1294e-05	25.008	228.658	251.788	215.767	182.325	238.986	409.198	182.607	190.150	371.523	304.778	190.022	196.523	196.878	204.772	319.661	203.417	-8191	255	
624.599	1	1	0	0	0.17715	0.11801	0.28833	0.1932	0.13212	0.12696	0.22447	0.049804	0.23316	0.12484	0.2285	0.60489	0.18368	0.14022	0.10571	0.17148	-2.5729	-2.0083	-2.4188	-2.9104	-1.8937	-2.9333	-2.4479	-2.3542	-2.7854	-2.0979	-2.6312	-2.7396	-2.0917	-2.8563	-2.4562	-1.9125	366.511	203.618	323.110	393.912	410.525	532.459	511.582	424.378	407.595	315.983	477.895	515.023	496.874	448.745	414.069	461.923	0.00015221	0.00048826	0.00014852	1040.6	3.4775e-06	4.7787e-06	1118.2	209.95	2.2165e-06	4.7764e-06	270.25	75.422	59.643	17.018	2.7088e-06	24.242	0.00085049	0.0010365	0.00028459	1031.5	1.1117e-05	1.1453e-05	1109.4	209.58	1.0871e-05	1.1391e-05	271.5	76.953	60.527	17.697	1.0868e-05	25.071	231.692	299.463	252.969	182.486	273.914	260.913	182.609	190.476	340.256	304.069	189.840	196.541	197.233	204.405	287.701	204.013	-8191	255	
624.695	1	1	0	0	0.13537	0.17906	0.080364	0.092837	0.22259	0.13799	0.23191	0.10699	0.14868	0.016584	0.2113	0.32692	0.14345	0.24109	0.15313	0.24112	-2.5167	-2.0687	-2.3812	-2.9938	-1.7188	-2.8187	-2.6937	-2.1708	-2.8604	-2.275	-2.6083	-2.8896	-2.1354	-2.7354	-2.4437	-2	313.949	431.053	359.658	394.309	259.214	213.673	495.943	312.204	265.249	251.868	227.769	460.556	507.244	267.445	364.295	434.139	0.00020534	0.00041841	0.00010048	1034.3	2.3648e-06	3.8745e-06	1122	209.69	4.403e-06	5.399e-06	269.91	75.569	59.275	17.154	2.9153e-06	24.025	0.00084714	0.0010343	0.00028464	1026.7	1.0942e-05	1.1134e-05	1109.6	209.44	1.0895e-05	1.1241e-05	271.68	77.091	60.409	17.738	1.0814e-05	25.017	241.256	248.657	297.485	182.455	358.989	531.019	182.550	190.241	344.468	320.598	189.887	196.366	196.869	204.244	286.139	203.785	-8191	255	
624.816	1	1	0	0	0.038102	0.28786	0.079031	0.25536	0.26881	0.24427	0.25199	0.21262	0.20579	0.080766	0.2344	0.12021	0.10471	0.06209	0.20373	0.33974	-2.675	-2.1479	-2.2979	-2.9062	-2.0042	-2.7896	-2.6188	-2.1229	-3.0167	-2.2188	-2.2313	-2.9917	-2.0521	-2.5438	-2.7542	-2.0792	286.912	327.520	268.956	196.233	377.357	302.480	466.053	423.290	399.891	383.603	468.595	532.176	267.555	328.835	181.716	187.954	0.00021477	0.00057372	4.0841e-05	1030.2	6.5146e-06	2.991e-06	1124	209.2	2.6304e-06	9.773e-07	268.99	75.693	59.281	17.156	3.8682e-06	24.099	0.00085528	0.0010126	0.00027986	1026.3	1.0782e-05	1.1084e-05	1110.8	209.4	1.068e-05	1.0991e-05	270.91	77.256	60.319	17.768	1.0481e-05	24.959	239.635	234.231	360.488	182.723	321.075	264.053	182.600	190.423	344.546	329.989	189.730	196.372	196.891	204.664	305.803	203.355	-8191	255	
624.912	1	1	0	0	0.065432	0.10051	0.27015	0.20427	0.32587	0.10362	0.19554	0.15724	0.17603	0.12345	0.14484	0.30137	0.16517	0.10279	0.13078	0.60613	-2.6229	-2.1708	-2.0708	-3.1125	-1.9438	-2.4833	-2.8812	-1.9813	-2.8729	-2.5312	-2.0521	-3.05	-2.2208	-2.5625	-2.8354	-2.025	301.672	219.835	335.095	179.884	189.419	223.381	414.026	474.365	261.652	333.293	301.452	520.486	507.813	506.186	337.571	499.212	0.00021409	0.00024786	7.2577e-05	1040.8	3.5086e-06	4.2747e-06	1120.3	208.7	2.6166e-06	5.4799e-06	269	76.047	59.731	16.985	3.1679e-06	24.044	0.00082802	0.00098813	0.00027625	1028.8	1.069e-05	1.0847e-05	1108.1	209.12	1.0653e-05	1.1024e-05	270.27	77.467	60.428	17.693	1.0497e-05	24.951	224.020	172.629	507.139	182.428	389.466	262.081	182.618	190.212	300.081	240.418	189.652	196.279	196.883	203.937	332.518	203.563	-8191	255	
624.984	1	1	0	0	0.052983	0.3061	0.16578	0.20471	0.40573	0.13916	0.11755	0.09283	0.27532	0.17824	0.29245	0.071753	0.19858	0.21145	0.35666	0.2025	-2.4771	-2.5	-1.7979	-2.9229	-2.1875	-2.2917	-3.0333	-2.0396	-2.5979	-2.6312	-1.9729	-3.0375	-2.1917	-2.4562	-3.0375	-1.8417	406.780	180.011	414.631	189.987	179.547	326.666	435.786	249.596	201.703	449.673	261.134	523.814	506.113	446.451	184.277	317.700	0.00019647	0.00044291	0.00012537	1042.1	6.4758e-06	3.4468e-06	1127.3	209.25	1.7487e-06	1.986e-06	268.56	75.386	59.483	17.153	4.4436e-06	24.15	0.00080925	0.00097165	0.00027327	1029.9	1.0515e-05	1.079e-05	1110	209.07	1.0324e-05	1.0725e-05	270.78	77.129	60.4	17.743	1.0574e-05	24.963	233.329	331.037	229.470	182.292	321.896	382.286	182.471	189.956	354.675	252.320	189.695	196.460	196.810	204.373	321.427	203.445	-8191	255	
625.104	1	1	0	0	0.10661	0.20366	0.067225	0.22446	0.23409	0.059302	0.1779	0.34368	0.048196	0.15049	0.016042	0.080751	0.24531	0.21685	0.070453	0.22412	-2.6354	-2.5021	-1.9125	-3.0292	-2.2042	-2.2146	-3.0521	-2.1229	-2.5979	-2.6396	-2.1729	-3.1042	-2.2917	-2.1583	-2.9104	-2.1625	368.795	376.206	185.273	492.229	456.953	503.227	508.854	464.938	215.735	336.257	332.763	238.457	377.288	213.062	225.306	177.027	0.00017722	0.00053164	0.00016424	1033	3.5089e-06	3.204e-06	1120	209.58	1.5201e-06	6.92e-06	268.58	75.411	59.534	17.081	1.7723e-06	24.104	0.00080635	0.00096927	0.00026718	1028.7	1.0514e-05	1.0832e-05	1109.5	209.32	1.0429e-05	1.0543e-05	270.74	77.136	60.338	17.747	1.0475e-05	24.939	234.503	227.799	314.933	182.465	365.224	199.420	182.184	189.965	350.947	307.532	189.960	196.049	196.715	204.210	271.211	203.334	-8191	255	
625.200	1	1	0	0	0.15881	0.15756	0.28105	0.23692	0.21514	0.197	0.22259	0.16871	0.078788	0.12101	0.24913	0.3593	0.069179	0.1519	0.07103	0.24396	-2.2167	-2.7542	-1.975	-2.9188	-2.5917	-1.8604	-3.1021	-2.2604	-2.3771	-2.8042	-1.8854	-2.9396	-2.8229	-1.8667	-3.0125	-2.2875	506.792	255.438	364.080	182.807	444.496	394.377	490.476	373.727	286.185	400.289	334.505	464.016	529.594	430.996	359.898	450.884	0.00021849	0.00017537	0.00014498	1037.1	3.3639e-06	4.323e-06	1119.7	209.75	4.7044e-06	3.9025e-06	268.72	76.208	59.53	17.2	3.6992e-06	24.042	0.00081427	0.00097529	0.00027053	1029.4	1.0387e-05	1.0725e-05	1108	208.8	1.0614e-05	1.067e-05	270.67	77.343	60.388	17.761	1.0539e-05	24.895	235.940	198.432	325.446	182.544	261.621	294.451	182.321	190.092	313.785	378.682	189.701	196.147	196.525	203.989	340.540	203.495	-8191	255	
625.296	1	1	0	0	0.076963	0.10753	0.16848	0.075197	0.051232	0.1029	0.29088	0.10896	0.17477	0.25705	0.28427	0.21376	0.02003	0.25289	0.31605	0.20643	-2.075	-2.9938	-1.9208	-2.7458	-2.6229	-2.1667	-3.0271	-2.4062	-2.3	-2.8292	-2.175	-2.7854	-2.8021	-1.95	-3.0729	-2.2292	318.751	396.504	456.189	236.644	445.783	335.758	367.071	512.262	431.459	267.649	442.518	444.845	500.677	235.648	349.272	172.234	0.00020143	0.00064074	0.00016414	1031.4	3.6103e-06	4.2963e-06	1124.1	208.65	4.6843e-06	5.8646e-06	270.15	75.918	59.479	17.151	3.6825e-06	23.974	0.00082835	0.00099412	0.00028026	1027.8	1.0824e-05	1.0958e-05	1110	209.12	1.0831e-05	1.0963e-05	270.7	77.376	60.392	17.806	1.0567e-05	24.993	248.278	283.894	241.491	182.684	199.183	339.972	182.415	189.961	286.528	345.400	189.564	196.532	196.618	204.172	289.342	203.293	-8191	255	
625.417	1	1	0	0	0.096061	0.12104	0.16896	0.12231	0.17195	0.12186	0.25904	0.054693	0.17749	0.1403	0.15553	0.26441	0.15551	0.2141	0.11952	0.12504	-1.9438	-3.0771	-1.8875	-2.775	-2.7667	-1.8417	-3.1021	-2.5938	-1.875	-3.0292	-2.2687	-2.5583	-2.7104	-2.0479	-2.7646	-2.5583	218.504	355.508	341.770	510.235	424.263	313.140	445.847	253.821	213.798	495.537	480.731	454.348	210.322	180.177	491.666	189.486	0.00022027	0.00064105	0.00012456	1035.8	2.4315e-06	3.1478e-06	1124.7	209.18	1.5427e-06	7.1385e-06	267.46	76.1	59.388	17.241	4.8631e-06	23.804	0.00083188	0.0009882	0.00027409	1027.9	1.0924e-05	1.08e-05	1112	209.55	1.0823e-05	1.0967e-05	270.69	77.495	60.552	17.811	1.1121e-05	24.962	247.821	333.322	268.209	182.699	262.200	295.408	182.524	190.095	390.207	337.933	189.347	196.736	196.848	203.906	349.874	203.677	-8191	255	
625.511	1	1	0	0	0.0525	0.24704	0.23915	0.22719	0.082436	0.085586	0.25121	0.12083	0.33671	0.14334	0.021539	0.069145	0.18808	0.17762	0.18396	0.12016	-1.6562	-2.8417	-2.0458	-2.6896	-2.7042	-2.1021	-2.8333	-2.6167	-1.8875	-2.9854	-2.0021	-2.5	-2.8896	-1.9583	-2.8563	-2.6688	204.960	369.321	475.326	441.630	398.080	436.933	472.692	479.711	337.458	432.101	370.910	480.152	407.893	458.534	358.272	404.281	0.00021906	0.00029708	4.5723e-05	1039.3	3.7123e-06	2.8652e-06	1120.7	209.34	1.0738e-06	8.3893e-06	269.13	75.806	59.242	16.983	3.5943e-06	23.912	0.0008561	0.0010221	0.00028633	1034.1	1.101e-05	1.1111e-05	1111.5	209.35	1.0815e-05	1.0901e-05	270.47	77.245	60.53	17.689	1.052e-05	24.955	230.505	233.117	245.140	182.512	426.361	310.613	182.429	190.344	380.276	335.803	189.453	196.345	196.416	204.056	314.303	203.392	-8191	255	
625.608	1	1	0	0	0.161	0.17169	0.14997	0.045507	0.05434	0.23424	0.28161	0.14186	0.14979	0.18781	0.06873	0.16824	0.072371	0.11962	0.1463	0.23975	-1.675	-3.1333	-2.0458	-2.2812	-2.9292	-2.0917	-2.7771	-2.8208	-1.8521	-2.7833	-2.3396	-2.325	-3.1625	-2.05	-2.5875	-2.7979	316.462	401.106	191.488	410.369	267.029	218.998	463.911	450.179	242.577	390.834	293.944	528.123	321.189	323.700	194.383	221.143	0.00020406	0.00027797	0.00010265	1047.7	3.2173e-06	3.1831e-06	1126.8	209.21	4.9471e-06	2.9423e-06	271.38	75.984	59.647	17.124	4.7721e-06	24.084	0.0008244	0.0009847	0.00027881	1035.5	1.0924e-05	1.105e-05	1115	209.95	1.0986e-05	1.12e-05	272.3	77.54	60.637	17.808	1.1361e-05	25.022	232.652	301.430	285.938	182.844	368.220	322.587	182.549	189.895	313.457	397.597	189.579	196.164	196.911	204.107	303.717	203.624	-8191	255	
625.679	1	1	0	0	0.14128	0.16128	0.31971	0.1515	0.29362	0.11502	0.064848	0.24524	0.12665	0.17184	0.23226	0.32008	0.24707	0.31693	0.14604	0.10069	-1.5521	-3.0271	-2.4125	-2.2854	-2.9604	-2.0729	-2.5479	-2.775	-1.9833	-2.8396	-2.2833	-2.0792	-3.1	-2.0104	-2.3958	-2.925	414.515	279.393	377.608	198.482	509.681	349.552	439.906	485.991	251.497	224.898	363.975	492.255	199.313	428.709	177.324	224.203	0.00020515	0.00041053	9.1796e-05	1038.9	5.5261e-06	2.2645e-06	1128.7	210.56	6.0346e-06	1.8644e-06	268.04	75.822	59.755	17.245	3.6465e-06	23.93	0.000894	0.0010818	0.00029777	1035.4	1.1967e-05	1.2139e-05	1115.6	210.29	1.188e-05	1.2184e-05	271.98	77.658	60.73	17.903	1.2043e-05	25.066	246.866	314.813	241.667	182.479	357.395	525.916	182.571	190.147	303.607	343.021	189.603	196.621	196.877	204.322	374.061	203.337	-8191	255	
625.800	1	1	0	0	0.098762	0.03385	0.20495	0.073055	0.05688	0.065409	0.27074	0.16404	0.154	0.089248	0.27603	0.077459	0.17862	0.3878	0.24913	0.18683	-1.7083	-2.7146	-2.5271	-2.2188	-2.7708	-2.1833	-2.4958	-2.9542	-2.0458	-2.8438	-2.4979	-2.0583	-3.0521	-2.2687	-2.4417	-3.1917	341.685	399.974	280.440	240.390	516.069	298.292	471.423	484.738	518.534	371.877	409.180	453.903	230.187	495.618	187.786	501.234	0.00025706	0.00045275	0.00010883	1041.9	9.5978e-06	8.2015e-07	1123.1	209.46	5.593e-06	1.8706e-06	269.74	75.653	59.44	17.204	3.1948e-06	24.03	0.00092649	0.0011155	0.00031516	1035.1	1.2086e-05	1.2345e-05	1115.8	210.36	1.2072e-05	1.2479e-05	272.24	77.608	60.894	17.847	1.2198e-05	25.147	237.148	475.391	225.869	182.630	321.963	322.074	182.646	189.991	294.121	313.113	189.669	196.362	197.032	203.980	195.708	203.407	-8191	255	
625.896	1	1	0	0	0.098445	0.07248	0.16789	0.088797	0.1428	0.040925	0.29751	0.26294	0.11634	0.18551	0.090545	0.079392	0.3403	0.26624	0.18837	0.059086	-1.5792	-2.6708	-2.75	-2.1479	-2.8792	-2.175	-2.4396	-2.9583	-2.1667	-2.7458	-2.6625	-2.0396	-3.0167	-2.3	-1.9292	-3.15	337.900	390.736	217.310	229.879	324.706	355.358	512.394	437.537	388.017	318.155	389.096	519.241	481.203	504.808	403.590	526.265	0.00023023	0.00071263	0.00015072	1046.3	3.698e-06	3.8864e-06	1124.6	210.24	2.2962e-06	2.7468e-06	269.71	75.74	59.65	17.284	4.815e-06	24.004	0.00093691	0.0011296	0.00031342	1038.3	1.2384e-05	1.255e-05	1116.5	210.67	1.2325e-05	1.2812e-05	273.34	77.886	61.142	17.932	1.249e-05	25.19	244.499	282.461	276.962	182.540	301.698	289.944	182.771	190.102	310.321	280.487	189.795	196.533	196.577	203.551	306.247	203.848	-8191	255	
625.992	1	1	0	0	0.096546	0.17175	0.22072	0.18642	0.27599	0.12996	0.44148	0.11259	0.29116	0.19347	0.12844	0.19693	0.27793	0.33525	0.23833	0.11255	-1.6729	-2.4083	-2.6562	-2.1771	-2.7792	-2.5146	-2.2375	-3.1146	-1.9438	-2.4521	-2.9292	-2.0333	-2.8979	-2.4646	-1.9062	-2.95	388.577	230.326	340.071	286.207	238.979	397.391	529.788	458.879	440.187	450.119	355.023	434.423	494.002	495.807	172.863	523.490	0.0001907	0.00054233	5.1318e-05	1038.8	2.1192e-06	7.9097e-06	1126.2	210.43	2.1662e-06	4.9183e-06	271.07	76.216	59.799	17.156	4.2406e-06	24.359	0.00095618	0.0011579	0.00031792	1037.9	1.2469e-05	1.2652e-05	1118.1	210.95	1.2356e-05	1.2764e-05	273.23	77.86	61.156	17.914	1.258e-05	25.28	227.157	230.543	211.854	182.379	398.315	295.071	182.624	190.067	289.103	274.704	190.195	196.015	196.860	204.228	308.375	203.604	-8191	255	
626.088	1	1	0	0	0.079713	0.088777	0.10758	0.36532	0.10062	0.082821	0.44393	0.11246	0.070918	0.18481	0.20486	0.058281	0.2108	0.25065	0.19347	0.20587	-1.7854	-2.1979	-3.0125	-2.0479	-2.5583	-2.7896	-2.2313	-2.9771	-2.1729	-2.175	-3.0125	-2.2208	-2.7417	-2.5312	-2.1604	-2.9854	239.036	347.432	183.851	488.603	439.216	301.596	492.839	483.089	293.682	392.030	436.168	493.398	196.911	512.010	449.273	480.594	0.00018908	0.00036303	0.00010127	1042.9	4.5101e-06	7.5197e-06	1130.4	209.72	2.202e-06	6.7092e-06	271.45	76.126	60.014	17.091	9.3021e-07	24.28	0.00098207	0.0011651	0.00032318	1039.7	1.2477e-05	1.2814e-05	1116.1	211.03	1.2381e-05	1.2916e-05	273.39	77.857	61.148	17.901	1.2261e-05	25.237	237.215	219.344	250.997	182.714	341.675	310.102	182.410	190.412	292.377	365.970	189.800	196.830	197.120	204.437	488.216	203.717	-8191	255	
626.207	1	1	0	0	0.088463	0.17005	0.1082	0.24286	0.16973	0.12436	0.16912	0.069866	0.25865	0.030167	0.31077	0.29085	0.084091	0.23956	0.20699	0.14874	-1.7958	-2.2854	-2.7229	-1.9542	-2.5917	-2.6708	-1.8958	-3.0292	-2.5083	-2.3646	-2.8917	-2.0687	-2.6688	-2.9667	-1.9229	-2.9354	410.864	310.329	423.095	382.858	458.479	309.072	430.045	529.275	462.882	267.075	455.753	221.581	530.348	448.739	264.840	308.513	0.00024923	0.00034846	9.9737e-05	1041.4	4.6274e-06	2.6877e-06	1125.8	211.23	4.0762e-06	3.85e-06	269.93	76.501	59.785	17.286	6.0356e-06	24.072	0.00095097	0.0011225	0.00031629	1038.6	1.2398e-05	1.2585e-05	1115.7	211.54	1.2248e-05	1.2777e-05	273.01	77.947	60.991	18.019	1.2601e-05	25.219	237.504	299.581	297.924	182.869	295.935	311.502	182.516	190.301	276.049	320.651	189.597	196.240	197.210	204.296	353.315	203.744	-8191	255	
626.281	1	1	0	0	0.15336	0.24627	0.11381	0.23553	0.2037	0.028188	0.16575	0.078564	0.18262	0.08093	0.17579	0.12438	0.34023	0.26579	0.25799	0.0087162	-2.1417	-2.0917	-2.8833	-2.3125	-2.2958	-2.6625	-2.1417	-2.9604	-2.6208	-1.9292	-2.9229	-2.3438	-2.3417	-2.7521	-1.8083	-2.7896	341.631	225.968	466.620	506.237	422.711	207.780	348.478	424.995	346.383	495.659	478.923	506.101	437.140	457.483	377.147	302.233	0.00020606	0.00046241	6.3245e-05	1050.4	3.4734e-06	3.8634e-06	1130.1	210.88	2.6486e-06	3.5396e-06	268.51	76.256	60.182	17.303	4.3285e-06	24.381	0.00095192	0.0011467	0.00032249	1040.8	1.2134e-05	1.2573e-05	1119	211.41	1.2469e-05	1.2921e-05	273.03	78.086	61.344	18.003	1.253e-05	25.283	235.768	258.417	288.988	182.456	293.590	262.029	182.545	190.227	349.677	254.206	190.004	196.776	197.198	204.161	344.122	204.058	-8191	255	
626.377	1	1	0	0	0.18446	0.14368	0.089233	0.28812	0.35265	0.1593	0.24669	0.19287	0.1536	0.1402	0.32902	0.16275	0.050679	0.26068	0.10604	0.1543	-2.1417	-2.0208	-2.7521	-2.1583	-2.2271	-2.8625	-2.0958	-2.7438	-2.6688	-1.7354	-2.6729	-2.2625	-2.3667	-2.8438	-2.0312	-2.7271	384.047	525.225	503.024	212.739	232.816	328.527	471.488	306.890	369.584	479.392	524.942	385.050	197.861	427.690	232.345	444.879	0.0002128	0.00024217	5.7788e-05	1039.5	4.2123e-06	8.1899e-06	1127.1	210.95	3.3017e-06	2.625e-06	271.92	75.707	60.004	17.305	9.3342e-07	24.153	0.00095787	0.0011511	0.00032598	1036.4	1.2651e-05	1.2897e-05	1118.1	210.94	1.248e-05	1.2868e-05	274.31	77.918	61.157	17.993	1.2474e-05	25.318	242.289	480.055	508.793	182.449	243.449	319.544	182.438	190.407	315.496	237.993	189.606	196.227	197.251	204.202	473.381	203.861	-8191	255	
626.497	1	1	0	0	0.15581	0.23775	0.14502	0.21547	0.164	0.088947	0.10473	0.01602	0.033699	0.14311	0.076838	0.24679	0.34965	0.27786	0.38385	0.20749	-2.4667	-2.0458	-2.9646	-2.3312	-1.9917	-2.8729	-2.175	-2.5271	-2.9	-1.725	-2.7333	-2.5271	-2.3354	-3.2125	-1.9646	-2.4479	501.830	497.783	302.479	518.117	481.727	189.896	187.928	506.548	317.690	433.689	509.953	496.343	478.305	482.163	186.709	282.987	0.00013732	0.00025732	7.794e-05	1041.9	6.7069e-06	7.6141e-06	1124.8	210.13	1.7488e-06	2.9863e-06	271.08	76.36	59.984	17.351	3.1195e-06	24.083	0.00094728	0.0011368	0.00030999	1038.7	1.227e-05	1.2255e-05	1117.4	210.93	1.1773e-05	1.2365e-05	272.96	78.031	61.206	17.952	1.2108e-05	25.228	221.160	268.375	243.135	182.551	373.659	244.611	182.667	190.655	298.093	327.012	190.137	196.661	196.721	203.922	383.538	203.901	-8191	255	
626.594	1	1	0	0	0.27026	0.18689	0.23064	0.10585	0.17171	0.12497	0.17979	0.09533	0.12283	0.24941	0.22742	0.072019	0.08892	0.15779	0.18969	0.21333	-2.425	-1.8583	-2.7167	-2.6958	-2.0104	-2.9083	-2.1396	-2.4354	-3.1063	-1.9021	-2.7438	-2.6958	-2.2021	-3.1917	-2.2458	-2.1542	508.993	438.896	224.094	449.709	272.009	209.312	467.174	238.346	245.803	182.096	240.420	207.412	423.020	514.189	231.246	438.709	0.00024361	0.00078136	0.00013403	1045.1	2.7081e-06	6.9094e-06	1130.6	209.8	4.1919e-06	8.8282e-06	270.73	76.428	59.877	17.286	1.4115e-06	24.531	0.00091702	0.0011157	0.00031002	1039.7	1.2051e-05	1.2356e-05	1117.7	211.09	1.1803e-05	1.2503e-05	273.97	77.986	61.111	17.985	1.2266e-05	25.348	244.207	210.081	267.672	182.964	258.940	509.971	182.921	190.724	339.626	338.932	190.005	196.469	196.849	204.231	388.595	203.816	-8191	255	
626.688	1	1	0	0	0.068862	0.14879	0.07579	0.13121	0.094765	0.20757	0.39764	0.15441	0.23828	0.28347	0.31853	0.096462	0.010517	0.23475	0.039039	0.15077	-2.5938	-1.8417	-2.7333	-2.7042	-1.8458	-2.9458	-2.5917	-2.2729	-2.7667	-1.9958	-2.6896	-2.6729	-2.0979	-2.8896	-2.2938	-2.4104	399.779	522.930	214.292	531.592	528.854	320.588	484.195	472.699	235.854	276.603	442.702	512.019	485.717	247.446	317.033	424.497	0.00021385	0.00054752	0.00014445	1040.8	3.3936e-06	6.5921e-06	1129.6	210.35	2.1167e-06	4.8493e-06	270.08	76.008	59.979	17.205	2.9711e-06	24.184	0.00091439	0.0011174	0.00031035	1039.3	1.208e-05	1.209e-05	1117.4	211.1	1.1852e-05	1.2013e-05	272.92	77.75	61.105	17.948	1.1823e-05	25.146	235.473	261.880	393.352	182.865	311.317	354.605	182.510	190.309	376.433	191.215	189.794	196.077	196.660	204.384	481.519	203.438	-8191	255	
626.784	1	1	0	0	0.21199	0.35101	0.15364	0.17735	0.23489	0.1715	0.3331	0.1731	0.050327	0.10107	0.1049	0.17599	0.1629	0.14423	0.1472	0.21444	-2.625	-2.0104	-2.2792	-2.6458	-1.7563	-2.8458	-2.4583	-2.0125	-2.7604	-2.1792	-2.5667	-2.8333	-1.8875	-2.8917	-2.4458	-2.075	397.208	286.567	281.855	512.823	212.439	419.345	438.251	445.628	310.266	364.043	437.245	294.243	304.578	267.839	210.243	532.112	0.00025304	0.00052281	7.085e-05	1045.2	4.437e-06	2.5069e-06	1128	210.65	3.5938e-06	5.2209e-06	270.73	75.84	59.88	17.316	6.8872e-06	24.199	0.00089142	0.0010905	0.00030384	1037	1.1841e-05	1.1755e-05	1116.9	211.32	1.1497e-05	1.193e-05	273.4	77.755	61.196	17.949	1.1575e-05	25.239	232.575	282.093	246.989	182.918	293.001	257.790	182.889	190.526	338.930	310.745	189.952	196.417	196.687	204.429	380.096	203.549	-8191	255	
626.880	1	1	0	0	0.038953	0.10919	0.053964	0.2397	0.10019	0.13239	0.22866	0.086242	0.20581	0.056083	0.14748	0.22409	0.21083	0.065742	0.18651	0.066085	-2.3708	-2.1875	-2.375	-2.9271	-2.0979	-2.7896	-2.6312	-2.1	-2.7667	-1.9188	-2.1125	-3.1083	-1.9896	-2.7792	-2.4979	-1.8792	199.329	267.920	195.072	460.554	405.172	222.139	466.734	209.035	270.954	508.467	398.392	529.922	314.039	468.726	500.350	218.403	0.00021506	0.0003357	0.00015912	1041.8	4.0013e-06	6.127e-06	1130.6	209.15	2.2718e-06	8.476e-06	270.73	76.641	59.938	17.299	2.7597e-06	24.181	0.00089939	0.0010979	0.00030254	1037.4	1.1832e-05	1.198e-05	1119	210.81	1.1704e-05	1.2018e-05	273.27	77.947	61.111	17.945	1.1884e-05	25.267	244.614	259.865	294.075	182.865	251.199	273.088	182.731	190.235	355.353	365.520	190.034	196.623	197.644	204.493	269.129	204.475	-8191	255	
626.976	1	1	0	0	0.068621	0.23895	0.26897	0.1125	0.035796	0.10099	0.15474	0.10594	0.20816	0.087942	0.25858	0.27338	0.13736	0.1341	0.13918	0.069509	-2.6979	-2.2938	-2.1771	-2.9375	-1.9604	-2.4979	-2.9083	-2.075	-2.8396	-2.275	-2.1375	-3.05	-2.15	-2.7396	-2.8708	-1.7521	281.593	420.559	510.728	254.382	293.184	200.554	476.909	360.801	322.312	483.738	499.342	319.498	440.635	508.301	470.370	362.919	0.00022406	0.00030785	0.00010147	1046.8	3.2927e-06	2.3351e-06	1131.8	211.35	1.4092e-06	4.6446e-07	270.68	76.285	60.063	17.139	4.0682e-06	24.197	0.0009156	0.0010958	0.00030635	1039	1.1847e-05	1.1974e-05	1116.8	211.36	1.1938e-05	1.2111e-05	273.58	77.935	61.063	17.917	1.1838e-05	25.218	245.832	346.408	211.921	182.849	454.949	242.523	182.730	190.490	337.201	178.305	189.962	196.972	197.203	204.635	357.650	204.249	-8191	255	
627.097	1	1	0	0	0.3029	0.037739	0.29052	0.1752	0.15277	0.080206	0.48469	0.19479	0.12279	0.17341	0.16765	0.13426	0.18665	0.093259	0.1432	0.3161	-2.5854	-2.5146	-2.2104	-3.0458	-1.9417	-2.4917	-2.8271	-1.8188	-2.7125	-2.4813	-2.2042	-3.2229	-2.125	-2.3208	-2.6833	-2.0292	271.243	496.198	297.588	261.396	315.263	423.571	521.872	460.979	353.618	398.919	206.961	284.519	400.280	424.389	507.506	495.636	0.00019138	0.00025727	0.00012515	1042.3	4.4378e-06	5.5925e-06	1128.1	210.64	8.7927e-07	7.8441e-06	272.24	76.89	60.231	17.288	3.6848e-06	24.49	0.00093187	0.0011148	0.00030779	1039.4	1.2094e-05	1.2263e-05	1117.9	211.22	1.1973e-05	1.2682e-05	273.92	78.228	61.244	17.994	1.2452e-05	25.33	233.209	188.991	308.628	182.915	340.701	372.692	182.561	190.757	325.701	337.996	190.002	196.345	197.268	204.591	190.238	203.809	-8191	255	
627.193	1	1	0	0	0.15525	0.15637	0.12279	0.30171	0.32535	0.26544	0.23222	0.15318	0.17266	0.17592	0.08858	0.094956	0.12987	0.1758	0.016488	0.34322	-2.3333	-2.4229	-1.8312	-3.1208	-2.0146	-2.1771	-3.1458	-1.9312	-2.6083	-2.7271	-2.0979	-3.0167	-2.3729	-2.1688	-3.2021	-2.0833	463.289	249.688	285.305	422.265	384.588	211.290	411.575	417.204	319.219	358.103	504.654	522.235	184.475	408.164	394.738	438.381	0.00017366	0.00042457	0.00016496	1042.4	5.4061e-07	5.5404e-06	1132	211.18	5.8745e-06	8.8554e-06	271.14	75.914	59.754	17.237	4.5894e-06	24.295	0.00094466	0.0011301	0.00032024	1037.4	1.2358e-05	1.2559e-05	1119.1	211.6	1.2279e-05	1.2482e-05	273.66	77.895	61.181	17.93	1.24e-05	25.363	242.131	223.990	241.057	182.819	352.006	254.644	183.029	190.514	301.529	326.599	190.265	196.851	197.389	204.046	337.046	203.558	-8191	255	
627.288	1	1	0	0	0.075599	0.44178	0.087574	0.039781	0.043879	0.10653	0.27925	0.11162	0.29111	0.10962	0.20669	0.13228	0.28431	0.11998	0.22549	0.16746	-2.3542	-2.7125	-1.8167	-2.8292	-2.2917	-2.0458	-2.9708	-2.0354	-2.2875	-2.825	-1.9021	-3.0271	-2.4604	-2.1562	-2.7812	-2.1208	338.248	220.339	217.929	343.539	408.581	296.327	438.657	510.747	335.333	270.826	454.829	519.497	484.764	407.456	508.609	438.154	0.00018298	0.00047312	3.8687e-05	1044.5	3.2021e-06	1.4599e-06	1130.1	209.61	1.8357e-06	4.1572e-06	272.14	76.162	59.831	17.317	3.5086e-06	24.286	0.00098474	0.0011722	0.00033576	1040.8	1.29e-05	1.314e-05	1118.6	210.99	1.2671e-05	1.3114e-05	274.14	78.232	61.336	18.071	1.2735e-05	25.408	245.152	213.652	443.420	182.397	232.709	294.054	182.632	190.227	302.796	336.787	189.967	196.699	197.215	204.138	354.305	203.819	-8191	255	
627.386	1	1	0	0	0.11469	0.13979	0.14682	0.29906	0.14463	0.065241	0.49311	0.23216	0.23976	0.08391	0.049008	0.08178	0.12849	0.10399	0.059866	0.07409	-1.95	-3.0062	-1.95	-2.7104	-2.5	-2.1542	-3	-2.2229	-2.5667	-2.8167	-2.1646	-2.6396	-2.6458	-2.2062	-2.9646	-2.2292	333.261	508.684	512.711	301.601	446.172	216.476	456.467	439.255	230.063	486.164	526.645	313.575	503.458	445.115	271.458	484.551	0.0001617	0.00038733	0.00017768	1050.5	2.812e-06	1.1463e-05	1130.1	210.78	1.8669e-06	1.9376e-06	269.49	76.454	59.847	17.245	1.975e-06	24.309	0.00098877	0.0012044	0.00033591	1042.6	1.317e-05	1.347e-05	1119.8	211.38	1.2966e-05	1.3424e-05	273.45	78.375	61.355	18.091	1.3127e-05	25.406	231.995	255.199	242.062	182.370	287.988	331.178	182.723	190.337	304.759	286.528	189.845	196.624	196.887	203.889	486.160	203.589	-8191	255	
627.504	1	1	0	0	0.076634	0.093392	0.36946	0.080462	0.22508	0.08332	0.1516	0.22398	0.20099	0.12349	0.14357	0.12361	0.25409	0.26187	0.074806	0.048142	-1.9312	-3.0625	-1.9375	-2.7521	-2.3708	-1.9688	-3.1646	-2.3438	-1.9521	-3.0083	-2.1604	-2.7792	-2.5187	-1.8208	-2.8688	-2.5083	181.039	199.409	448.973	205.725	186.043	307.857	523.044	505.876	400.793	438.948	395.108	356.841	377.439	355.365	440.119	189.440	0.00023898	0.00047903	0.00019956	1050.4	5.6067e-06	4.7579e-06	1126.5	210.7	4.6125e-06	2.1584e-06	270.78	76.41	59.658	17.302	6.462e-06	24.077	0.0010138	0.0012124	0.00034141	1042.9	1.3314e-05	1.3599e-05	1121.1	211.36	1.3392e-05	1.3698e-05	275.08	78.323	61.243	18.034	1.3301e-05	25.341	246.939	285.068	240.843	182.762	288.303	344.578	182.861	190.281	337.694	207.120	189.934	197.023	197.234	204.052	344.066	204.099	-8191	255	
627.576	1	1	0	0	0.33117	0.25615	0.41481	0.13367	0.25496	0.2029	0.16444	0.30926	0.21379	0.092623	0.13512	0.061589	0.33199	0.10908	0.092779	0.028366	-1.5542	-2.7938	-2.0479	-2.5833	-2.7854	-1.9208	-2.9437	-2.4708	-2.0958	-2.9917	-2.0417	-2.2854	-2.8042	-1.8354	-2.825	-2.5396	235.364	523.299	479.943	219.718	398.411	451.723	387.583	436.619	202.035	231.741	340.669	523.941	506.669	518.624	460.198	236.061	0.00020504	7.3657e-05	0.00014098	1041.4	5.1181e-06	4.5394e-06	1126.9	210.79	3.5214e-06	3.2205e-06	271.6	76.929	59.82	17.273	2.4219e-06	24.352	0.001025	0.0012295	0.00034783	1042.2	1.3381e-05	1.3859e-05	1120.1	212.39	1.345e-05	1.3683e-05	274.93	78.657	61.408	18.073	1.3469e-05	25.363	226.755	315.669	282.321	183.205	363.096	375.375	182.961	190.555	177.501	352.274	190.293	196.881	197.310	203.969	330.222	203.906	-8191	255	
627.672	1	1	0	0	0.18817	0.24367	0.15903	0.20311	0.11806	0.09685	0.15548	0.063497	0.062078	0.06161	0.22603	0.16118	0.14237	0.45723	0.19908	0.069636	-1.6417	-2.8021	-1.9188	-2.3187	-2.85	-1.8937	-3.1688	-2.7771	-1.9208	-2.8083	-2.3312	-2.2938	-3.0708	-2.0938	-2.7125	-2.8229	401.651	341.578	335.625	329.831	283.814	177.136	495.524	515.405	251.013	432.931	463.289	508.230	500.988	472.643	193.983	438.743	0.00022927	0.00042408	0.00022192	1045.7	2.0998e-06	6.3503e-06	1136.3	211.14	1.8272e-06	4.1121e-06	271.67	76.498	59.913	17.376	3.5021e-06	24.436	0.0010266	0.0012401	0.00034645	1043	1.3685e-05	1.3757e-05	1123.7	212.14	1.3664e-05	1.3677e-05	275.58	78.406	61.476	18.103	1.3522e-05	25.429	231.048	238.502	252.087	183.028	240.096	425.161	183.133	190.462	313.798	286.741	189.949	196.869	197.000	204.424	268.745	203.921	-8191	255	
627.768	1	1	0	0	0.2674	0.092738	0.22157	0.10733	0.23863	0.10705	0.29063	0.21642	0.26014	0.064232	0.10371	0.18487	0.15849	0.089439	0.25121	0.14232	-1.7938	-2.7917	-2.0708	-2.2042	-2.7396	-1.9375	-2.7313	-2.8937	-1.8937	-2.8	-2.5375	-2.1896	-3.0792	-2.0875	-2.3333	-2.7438	364.410	526.779	483.269	279.372	317.087	214.228	529.182	497.609	390.573	498.634	462.916	304.614	347.934	475.047	477.886	268.574	0.00014354	0.00022534	0.0001408	1047.1	3.8036e-06	9.8809e-06	1128.4	211.3	3.4844e-06	5.9692e-06	272.22	75.822	60.128	17.302	2.4426e-06	24.237	0.0010421	0.0012506	0.00034643	1044.5	1.3454e-05	1.3911e-05	1122.3	212.1	1.3386e-05	1.392e-05	275.18	78.236	61.543	18.065	1.3478e-05	25.406	241.838	230.699	241.619	182.787	312.823	307.717	182.958	190.285	324.085	275.748	189.899	196.599	197.565	204.418	214.909	203.740	-8191	255	
627.889	1	1	0	0	0.23071	0.11408	0.14862	0.21778	0.10487	0.17262	0.40601	0.29042	0.13483	0.041926	0.20715	0.2603	0.068349	0.3317	0.12887	0.12809	-1.6458	-2.8458	-2.5438	-2.0667	-2.8125	-2.2062	-2.6146	-3.0792	-1.9521	-2.7687	-2.4813	-1.9771	-3.0729	-2.1292	-2.2313	-2.7854	283.518	367.340	302.653	415.472	453.413	378.634	412.732	446.855	362.641	286.529	361.696	518.123	529.956	476.421	305.856	397.791	0.0002055	0.00023662	0.00012919	1044.7	1.5671e-06	1.1732e-06	1129.4	210.06	4.6025e-06	8.7483e-06	271.47	77.004	60.328	17.385	3.5438e-06	24.309	0.0010298	0.0012686	0.00034954	1043.1	1.3582e-05	1.4001e-05	1120.7	211.83	1.3429e-05	1.3796e-05	275.42	78.745	61.684	18.131	1.3509e-05	25.493	238.944	190.682	416.149	183.141	288.199	398.489	183.195	190.464	296.772	386.879	190.369	196.777	197.335	203.968	256.212	203.992	-8191	255	
627.985	1	1	0	0	0.21473	0.14379	0.26069	0.24051	0.070898	0.097202	0.11071	0.13081	0.37726	0.064528	0.035812	0.10866	0.16576	0.12883	0.35275	0.093813	-1.4937	-2.4771	-2.6104	-2.1146	-2.8396	-2.1125	-2.2333	-3.0958	-2.2042	-2.8458	-2.5854	-1.9104	-2.9938	-2.3479	-2.3125	-3.0917	176.813	181.351	469.803	401.578	461.182	332.437	510.178	495.897	235.557	352.955	427.230	275.732	472.978	208.473	350.433	219.341	0.00020027	0.00039027	0.00015377	1042.1	1.0641e-06	2.5594e-06	1136.4	211.59	1.5642e-06	6.1963e-06	271.9	76.2	60.095	17.339	5.151e-06	24.244	0.001049	0.0012594	0.00035106	1044.9	1.3652e-05	1.4094e-05	1124.5	212.23	1.3753e-05	1.3887e-05	275.54	78.511	61.469	18.101	1.3563e-05	25.485	246.056	325.911	294.863	182.753	442.663	469.519	183.022	190.349	388.873	353.417	190.094	196.680	197.049	204.578	295.481	203.909	-8191	255	
628.081	1	1	0	0	0.095422	0.41329	0.10014	0.23606	0.17416	0.12496	0.20331	0.068204	0.21402	0.23011	0.29446	0.10363	0.13501	0.19475	0.10411	0.34043	-1.4458	-2.4354	-2.875	-1.9937	-2.9042	-2.3708	-2.2438	-2.9979	-2.1104	-2.725	-2.9833	-2.0125	-2.9708	-2.3812	-1.9875	-3.1	253.244	322.037	367.506	422.296	290.186	241.044	508.761	335.861	433.612	471.953	503.814	439.175	519.078	409.707	317.429	201.505	0.00012357	0.00014446	0.00012807	1045.4	7.539e-06	1.2658e-06	1129.4	210.97	3.9896e-06	6.3255e-06	271.31	76.369	60.014	17.377	3.8458e-06	24.233	0.0010535	0.0012707	0.00034668	1045.4	1.3513e-05	1.3814e-05	1122.1	212.17	1.3284e-05	1.3665e-05	275.12	78.411	61.464	18.114	1.3561e-05	25.405	234.231	242.734	260.624	183.069	237.739	250.012	183.012	190.680	312.622	297.530	189.934	196.621	197.122	204.592	241.255	203.668	-8191	255	
628.177	1	1	0	0	0.11772	0.072774	0.26672	0.28485	0.09439	0.32796	0.3412	0.24262	0.12963	0.22421	0.25238	0.21577	0.18834	0.25754	0.22012	0.053826	-1.7542	-2.5438	-2.9083	-2.0062	-2.5917	-2.5542	-2.2167	-2.9896	-2.1667	-2.55	-3.1917	-2.0583	-2.6354	-2.45	-1.8083	-3.1104	527.789	501.128	344.866	495.460	188.373	343.110	524.705	219.304	265.480	181.518	499.967	307.367	369.622	434.274	454.637	499.964	0.00015588	0.00038975	0.00012815	1052.3	3.8072e-06	1.0566e-06	1135.4	211.25	2.5723e-06	3.6252e-06	271.36	76.141	60.314	17.355	4.2528e-06	24.394	0.0010334	0.0012345	0.00035239	1045.4	1.3546e-05	1.36e-05	1123.1	212.12	1.342e-05	1.3936e-05	275.36	78.468	61.635	18.121	1.3478e-05	25.477	224.103	289.276	213.161	182.826	283.873	246.183	182.713	190.416	257.555	332.297	189.813	196.331	196.949	204.276	278.485	203.401	-8191	255	
628.274	1	1	0	0	0.1316	0.14489	0.19398	0.069168	0.04316	0.068003	0.11815	0.097165	0.18249	0.33862	0.15197	0.15088	0.18349	0.14209	0.053116	0.20724	-1.9271	-2.2062	-2.7208	-2.1354	-2.5375	-2.5438	-1.9854	-2.8292	-2.2833	-2.2229	-3.1333	-2.125	-2.6104	-2.8312	-1.5917	-3.0271	253.948	468.522	481.567	484.009	235.834	363.355	518.575	530.918	251.270	307.267	506.920	321.075	221.446	500.440	178.205	177.289	0.00019401	0.0007182	8.8318e-05	1040.7	1.0176e-06	9.4164e-07	1129.9	211.46	2.4237e-06	9.1916e-06	271.96	76.165	59.94	17.286	1.3124e-06	24.049	0.0010221	0.0012678	0.00034742	1042.8	1.3473e-05	1.3844e-05	1121.5	212.09	1.3331e-05	1.3785e-05	275.28	78.424	61.634	18.102	1.3456e-05	25.502	230.562	322.081	343.982	182.575	316.961	412.311	182.841	189.964	303.938	314.331	189.650	195.972	197.002	204.180	396.445	203.396	-8191	255	
628.370	1	1	0	0	0.16026	0.04232	0.15132	0.20105	0.088642	0.12609	0.19455	0.18302	0.20193	0.19036	0.21074	0.19131	0.1501	0.15935	0.17181	0.033453	-2.0375	-2.1979	-2.8896	-2	-2.475	-2.6292	-1.9854	-2.9042	-2.5333	-2.0167	-2.9188	-2.1083	-2.5312	-2.8646	-1.8062	-2.7333	313.252	328.308	205.658	370.832	346.276	490.674	190.791	420.319	291.901	500.266	483.497	351.086	269.415	204.419	487.216	371.041	0.00018371	0.00035742	0.00021562	1052	2.514e-06	1.1235e-05	1134.1	210.93	3.8841e-06	5.8329e-06	272.2	76.491	60.515	17.304	2.9526e-06	24.363	0.0010459	0.0012586	0.00034858	1047.1	1.3758e-05	1.3794e-05	1123.4	212.16	1.3276e-05	1.352e-05	275.32	78.658	61.706	18.163	1.3367e-05	25.587	239.552	271.997	261.259	182.265	489.166	367.814	182.571	189.903	306.416	356.969	189.577	196.441	196.773	204.000	263.175	203.800	-8191	255	
628.466	1	1	0	0	0.078486	0.46653	0.23253	0.24146	0.13163	0.085752	0.24332	0.17552	0.26056	0.17789	0.048029	0.22832	0.15347	0.10054	0.064976	0.069746	-2.0938	-2.1208	-3.1375	-2.2438	-2.1	-2.875	-2.0729	-2.6479	-2.6417	-1.9479	-3.1375	-2.1729	-2.1875	-3.0479	-2.0833	-2.7667	340.006	473.159	212.034	492.350	416.666	442.097	497.175	506.869	386.209	243.471	524.178	366.572	457.000	262.625	276.264	521.131	0.00019605	0.00030716	0.00021247	1049.1	3.5595e-06	1.101e-06	1131.6	211.65	3.9918e-06	1.449e-06	271.36	76.369	59.822	17.288	1.0168e-05	24.314	0.001035	0.0012335	0.00034383	1044.8	1.3581e-05	1.3549e-05	1122.3	212.71	1.3258e-05	1.3679e-05	275.63	78.334	61.456	18.105	1.3145e-05	25.43	233.637	337.959	309.515	182.428	400.646	351.774	182.219	190.052	297.089	451.058	189.394	196.346	196.950	203.861	356.964	203.001	-8191	255	
628.585	1	1	0	0	0.22158	0.10899	0.15845	0.062722	0.15456	0.034684	0.09224	0.16475	0.27005	0.080354	0.14687	0.21741	0.2497	0.16388	0.24359	0.1993	-2.1417	-1.7542	-2.8979	-2.4396	-2.3063	-3.1813	-2.2938	-2.7167	-2.5458	-1.8104	-2.7583	-2.4708	-2.1729	-3.1396	-2.0938	-2.6417	329.992	478.233	346.959	511.398	422.076	313.475	430.196	493.280	469.332	498.606	290.621	450.015	496.120	471.475	356.928	510.792	0.00029228	0.00011186	6.4502e-05	1045.8	3.5821e-06	8.0408e-06	1131.4	210.57	4.1837e-06	1.1089e-06	272.24	76.467	59.881	17.294	2.6592e-06	24.189	0.0010142	0.0012049	0.00033774	1042.9	1.3189e-05	1.3234e-05	1120.9	212.21	1.2828e-05	1.3426e-05	275.22	78.406	61.356	18.11	1.3369e-05	25.383	233.972	176.158	311.095	182.575	273.407	403.519	182.427	189.966	331.962	430.113	189.386	196.147	196.881	203.744	271.537	203.680	-8191	255	
628.681	1	1	0	0	0.21106	0.076056	0.43609	0.1346	0.089683	0.058067	0.18818	0.27697	0.073286	0.16241	0.29233	0.063485	0.13165	0.10946	0.14264	0.1877	-2.4021	-1.7437	-2.8438	-2.4479	-2.0187	-2.9167	-2.1208	-2.4125	-2.9396	-1.8333	-2.7771	-2.55	-2.0917	-3.0604	-2.1625	-2.3333	219.202	243.462	358.033	484.729	299.652	491.689	513.209	389.953	188.258	336.830	430.211	260.291	518.444	199.569	530.265	321.165	0.00016684	0.00036293	0.00012043	1041.7	2.4078e-06	4.6642e-06	1131.9	212.13	5.1707e-06	3.9099e-06	272.51	77.254	60.039	17.28	1.7056e-06	24.48	0.0009856	0.0012018	0.00033919	1043.1	1.3072e-05	1.3416e-05	1122.8	212.95	1.2983e-05	1.3221e-05	275.31	78.609	61.46	18.064	1.3e-05	25.516	236.090	237.411	339.059	182.272	371.985	185.176	182.577	190.278	406.071	403.965	189.433	196.031	197.145	203.906	249.131	204.278	-8191	255	
628.777	1	1	0	0	0.27174	0.11044	0.22847	0.12525	0.18734	0.040305	0.1288	0.10012	0.20369	0.11515	0.20815	0.089552	0.088784	0.30982	0.096286	0.17612	-2.6604	-1.8188	-2.6917	-2.9562	-2.1417	-2.8521	-2.2792	-2.4792	-3.0042	-1.8	-2.725	-2.6021	-1.9604	-2.925	-2.3396	-1.9583	279.856	192.378	495.952	375.219	316.995	391.469	466.016	247.366	356.269	381.178	519.867	339.806	237.913	497.632	376.488	450.331	0.00020559	0.00036697	9.8511e-05	1050.7	6.0445e-06	3.7428e-06	1134.1	212.8	2.0945e-06	2.7358e-06	272.11	76.84	59.662	17.393	2.7574e-06	24.543	0.0010062	0.0012011	0.00033786	1045	1.3125e-05	1.3199e-05	1122	212.71	1.2903e-05	1.3296e-05	275.05	78.51	61.493	18.099	1.2824e-05	25.498	250.902	527.710	320.276	182.695	404.253	216.704	182.235	190.225	241.680	418.638	189.724	196.333	196.926	203.924	294.852	203.198	-8191	255	
628.873	1	1	0	0	0.097711	0.15159	0.12446	0.22875	0.20954	0.15969	0.082244	0.060055	0.15774	0.15196	0.32623	0.14499	0.22818	0.15772	0.10296	0.17572	-2.4833	-2.1083	-2.5062	-2.6042	-1.8021	-2.8771	-2.5708	-2.3667	-2.9437	-2.0979	-2.6688	-2.9708	-2.1312	-2.8604	-2.2458	-2.0875	529.794	404.006	495.504	174.656	292.529	172.305	182.615	443.681	454.214	371.739	493.211	360.008	503.306	382.614	352.928	445.681	0.00020898	0.00029258	0.00015242	1049.9	2.3378e-06	4.486e-06	1133.8	211.16	8.6121e-07	3.4991e-06	271.35	76.797	59.888	17.52	2.0903e-06	24.118	0.00098187	0.001191	0.00033119	1046.8	1.2863e-05	1.308e-05	1121.6	212.16	1.2589e-05	1.3225e-05	275.01	78.518	61.343	18.155	1.275e-05	25.383	230.635	247.757	262.773	182.779	276.705	359.042	182.473	190.268	483.574	342.936	189.956	196.360	196.736	203.965	333.758	203.511	-8191	255	
628.969	1	1	0	0	0.27714	0.52467	0.21425	0.16495	0.022763	0.036467	0.13367	0.25876	0.081569	0.15057	0.22081	0.089592	0.016156	0.28378	0.12152	0.18682	-2.5583	-2.0958	-2.2958	-3.0271	-2.0208	-2.9167	-2.7042	-2.0104	-3.0375	-2.2562	-2.2687	-2.9417	-2.0708	-2.6312	-2.4604	-1.9417	392.064	267.219	339.382	452.505	201.837	524.713	361.136	365.215	510.316	204.822	432.938	508.530	393.415	452.957	311.741	401.456	0.00018673	0.00028672	3.5864e-05	1049.7	7.5173e-06	2.2795e-06	1132.2	211.01	6.1305e-06	6.2355e-06	270.5	76.329	60.429	17.359	1.3108e-06	24.382	0.00098015	0.0011974	0.00032864	1043.6	1.2624e-05	1.2881e-05	1120.7	212.42	1.2558e-05	1.3056e-05	274.95	78.326	61.647	18.098	1.2835e-05	25.434	242.195	252.589	287.551	182.430	297.855	183.042	182.857	190.076	335.227	520.244	189.638	196.324	196.700	203.957	356.340	203.302	-8191	255	
629.066	1	1	0	0	0.19719	0.053678	0.13343	0.021478	0.1675	0.13296	0.13173	0.082971	0.085254	0.29675	0.22232	0.2742	0.15809	0.20216	0.14298	0.18769	-2.6	-2.0625	-2.1646	-3.1833	-1.8625	-2.3771	-2.6312	-2.1063	-2.7167	-2.1688	-2.3625	-2.9625	-1.7417	-2.5604	-2.7333	-1.8521	309.675	389.275	206.807	327.553	326.766	352.780	178.043	361.318	457.320	249.697	441.919	493.872	491.295	395.843	425.845	479.679	0.00020654	0.00023618	8.5639e-05	1045.9	2.1498e-06	5.4486e-06	1131.8	210.47	5.9542e-06	7.6827e-06	271.91	76.432	60.339	17.303	4.3143e-06	24.398	0.00097579	0.0012004	0.00033564	1043	1.3055e-05	1.3179e-05	1121	212.15	1.308e-05	1.3562e-05	275.36	78.578	61.659	18.099	1.3167e-05	25.488	240.795	296.589	365.047	182.528	308.828	292.341	182.275	189.999	280.743	309.904	189.850	195.972	196.652	203.820	194.800	203.193	-8191	255	
629.186	1	1	0	0	0.14143	0.21797	0.032277	0.17416	0.11258	0.1261	0.21175	0.43129	0.017806	0.17493	0.17805	0.13718	0.27393	0.2051	0.079458	0.13435	-2.4104	-2.3979	-1.7687	-3.0167	-2.1	-2.5021	-2.8937	-1.9146	-2.6562	-2.3396	-2.3312	-3.0583	-2.1	-2.1875	-2.9729	-2.0187	286.957	354.783	383.269	383.028	272.449	367.084	518.602	511.487	193.497	182.611	484.785	193.894	391.008	241.771	277.896	343.828	0.00024681	0.0004233	4.3176e-05	1045.3	3.8268e-06	8.1729e-06	1132.9	211.38	2.9524e-06	1.683e-06	271.84	76.213	60.083	17.223	3.357e-06	24.304	0.00102	0.0012403	0.00035228	1045.5	1.3502e-05	1.3407e-05	1124.3	212.37	1.3383e-05	1.3447e-05	275.6	78.51	61.586	18.095	1.3377e-05	25.473	244.255	231.189	413.211	182.016	360.962	300.146	182.535	189.867	306.252	425.764	189.812	196.116	196.715	203.908	331.910	203.021	-8191	255	
629.281	1	1	0	0	0.26085	0.097607	0.042905	0.14601	0.091498	0.121	0.30679	0.09192	0.28502	0.16285	0.1048	0.14798	0.15296	0.2155	0.027779	0.25186	-2.3354	-2.4458	-2.1146	-3.0646	-2.2333	-2.1521	-2.9958	-1.9792	-2.4833	-2.7354	-2.0521	-2.9188	-2.1875	-2.0604	-2.8771	-2.1021	225.923	452.818	406.621	495.254	451.759	467.392	460.650	464.511	404.715	432.975	381.848	202.111	289.615	442.400	468.869	394.504	0.00021321	0.00026995	8.8522e-05	1046.7	4.1391e-06	4.0413e-06	1133.6	209.67	3.5055e-06	3.2878e-06	272.09	76.345	59.95	17.377	7.1089e-07	24.436	0.0010345	0.0012393	0.00034787	1045.5	1.3274e-05	1.3799e-05	1123	212.3	1.3423e-05	1.3724e-05	275.67	78.531	61.607	18.162	1.3559e-05	25.504	232.501	211.061	361.319	182.121	243.741	312.526	182.335	190.045	306.221	378.650	189.584	195.900	196.301	203.828	458.779	203.570	-8191	255	
629.377	1	1	0	0	0.0089232	0.16251	0.13618	0.25723	0.1132	0.049275	0.20479	0.12006	0.27038	0.23462	0.1477	0.21021	0.14272	0.15897	0.28557	0.16196	-2.2771	-2.6479	-1.8813	-2.9354	-2.4188	-1.9813	-2.8979	-2.25	-2.4479	-2.5312	-1.9396	-3.0375	-2.3979	-2.1208	-2.7542	-2.0042	408.084	368.396	248.883	488.082	416.187	463.356	530.663	508.265	489.745	408.315	374.216	186.187	522.625	430.964	351.957	308.252	0.00021591	0.00052579	8.665e-05	1048.2	7.4914e-06	5.1781e-06	1129.5	210.63	3.3895e-06	7.1741e-06	270.49	76.916	59.809	17.395	5.6063e-06	24.363	0.0010445	0.0012533	0.00035807	1044.9	1.3784e-05	1.4043e-05	1123.1	212.22	1.3725e-05	1.4126e-05	275.34	78.806	61.451	18.202	1.402e-05	25.548	234.662	309.962	258.913	181.913	341.014	173.669	182.248	189.857	502.787	346.653	189.263	196.062	196.643	203.984	232.024	203.240	-8191	255	
629.450	1	1	0	0	0.14128	0.16245	0.066638	0.10731	0.21029	0.22579	0.13215	0.14495	0.19309	0.10292	0.024212	0.038243	0.15938	0.13536	0.042265	0.084436	-2.0729	-2.8292	-1.9333	-2.9125	-2.3771	-1.8042	-3.1771	-2.2604	-2.2313	-2.8625	-2.1146	-2.8125	-2.6167	-1.8917	-3.0042	-2.3563	470.841	441.945	412.642	251.049	530.894	494.323	399.296	444.023	483.654	481.365	357.357	400.319	196.830	199.754	229.038	422.867	0.00014503	9.6993e-05	0.00016642	1048.8	3.4243e-06	2.2979e-06	1133.8	210.54	4.199e-06	5.8838e-06	272.01	76.345	59.925	17.342	4.8385e-07	24.226	0.0010564	0.0013022	0.00036335	1044.7	1.4165e-05	1.4434e-05	1121.4	212.32	1.3926e-05	1.4296e-05	275.49	78.652	61.575	18.137	1.3968e-05	25.566	242.097	185.083	265.595	182.585	355.544	410.059	182.451	190.155	295.663	319.608	189.754	195.944	196.354	203.987	407.380	203.682	-8191	255	
629.569	1	1	0	0	0.20907	0.18091	0.034563	0.15167	0.099354	0.081557	0.061324	0.012515	0.14608	0.053511	0.05968	0.28253	0.12129	0.13548	0.20235	0.28488	-1.9354	-3.0187	-1.7125	-2.7021	-2.6583	-1.8208	-3.0583	-2.2771	-2.2083	-2.8812	-2.2062	-2.6771	-2.8187	-2.0125	-2.6437	-2.4729	214.761	433.222	336.526	314.018	524.210	239.205	384.308	195.300	477.881	434.363	253.822	175.826	388.632	450.515	216.040	450.212	0.00020753	0.00063184	0.00016519	1046.1	1.1114e-06	6.1252e-06	1133.4	211.37	3.4636e-06	5.1798e-06	272.76	76.751	60.513	17.268	3.8613e-06	24.335	0.0010628	0.0013022	0.00036288	1045.4	1.4159e-05	1.4225e-05	1123.7	213.14	1.3864e-05	1.4119e-05	275.52	78.894	61.847	18.127	1.3747e-05	25.472	231.390	453.886	263.017	182.394	439.024	322.936	182.472	189.828	312.667	314.038	189.408	195.944	196.581	203.475	337.210	202.800	-8191	255	
629.665	1	1	0	0	0.22527	0.24302	0.20269	0.12903	0.040597	0.15912	0.16461	0.31282	0.098937	0.19843	0.10582	0.26772	0.11261	0.25335	0.15608	0.1686	-1.7396	-2.8646	-2.0083	-2.5333	-2.5958	-1.8229	-2.7917	-2.4958	-2.1083	-2.8458	-2.2313	-2.6292	-2.9271	-1.9542	-2.8563	-2.4437	263.619	244.348	401.079	445.496	366.284	470.322	172.798	450.011	400.394	383.490	494.028	499.772	492.219	296.960	280.772	427.736	0.00020423	0.00025409	4.412e-05	1049.8	4.873e-06	6.5536e-06	1135.3	211.2	3.1818e-06	7.0072e-06	272.27	76.207	59.928	17.163	2.8281e-06	24.272	0.00105	0.0012766	0.00035516	1046.9	1.4004e-05	1.4073e-05	1124.5	212.31	1.3874e-05	1.4453e-05	275.85	78.576	61.626	18.142	1.4114e-05	25.583	245.351	262.359	226.575	182.671	301.559	339.010	182.350	189.781	248.171	340.625	189.884	196.629	196.922	204.003	289.069	203.499	-8191	255	
629.761	1	1	0	0	0.49695	0.09476	0.16768	0.14001	0.054955	0.042835	0.22748	0.23582	0.085861	0.10957	0.10785	0.17332	0.14317	0.22361	0.13386	0.17298	-1.5938	-2.9542	-2.1437	-2.3125	-2.8375	-1.7771	-2.9917	-2.6292	-1.9396	-2.9437	-2.0938	-2.3771	-2.8979	-1.9479	-2.8167	-2.7604	373.886	282.834	391.459	328.598	176.571	354.396	471.106	175.197	513.811	399.582	184.612	237.184	242.966	409.094	250.650	433.080	0.00023801	0.00041568	0.00022016	1042.4	5.1739e-06	6.4836e-06	1130.2	212.1	2.8755e-06	2.3432e-06	271.99	76.3	60.083	17.363	4.2901e-06	24.431	0.0010648	0.0013024	0.00036659	1046.5	1.4193e-05	1.448e-05	1125.3	213.17	1.3842e-05	1.4159e-05	276.53	78.941	61.784	18.198	1.379e-05	25.501	241.816	231.613	223.929	182.489	180.607	366.868	182.361	189.728	460.665	242.643	189.422	196.274	197.159	203.950	299.877	203.070	-8191	255	
629.857	1	1	0	0	0.16905	0.27348	0.13243	0.070362	0.1631	0.027663	0.1175	0.1109	0.16503	0.089637	0.22631	0.29291	0.23206	0.19252	0.29873	0.089366	-1.4229	-2.9729	-2.1125	-2.1646	-2.9542	-2.2021	-2.8583	-2.8125	-2.0125	-3.0812	-2.2417	-2.1625	-2.8563	-1.9042	-2.5542	-2.9333	321.531	497.724	358.976	425.101	397.980	419.807	203.232	174.121	467.231	186.498	441.091	529.063	526.787	185.528	417.540	455.760	0.00018193	0.00066095	3.5624e-05	1050.7	4.7094e-06	4.4265e-07	1130.8	209.91	4.0342e-06	1.3809e-06	269.74	76.268	60.307	17.241	1.3322e-06	24.351	0.001044	0.0012737	0.00034988	1051.6	1.365e-05	1.372e-05	1123.3	212.17	1.3618e-05	1.3797e-05	275.18	78.675	61.704	18.146	1.3848e-05	25.487	245.991	251.969	398.573	182.386	299.207	320.991	182.455	190.115	261.163	515.840	189.664	196.085	196.745	203.725	327.705	203.203	-8191	255	
629.978	1	1	0	0	0.036403	0.4091	0.13554	0.17604	0.15822	0.26036	0.29319	0.20681	0.067191	0.042641	0.12921	0.21709	0.13232	0.067484	0.16856	0.24689	-1.5833	-2.6625	-2.3708	-2.2667	-2.7938	-2.2104	-2.7562	-2.6896	-1.9208	-2.725	-2.4188	-2.1083	-2.7812	-2.2438	-2.3708	-2.7542	233.918	406.400	493.480	527.543	505.942	245.977	426.603	431.344	385.432	394.332	419.323	468.357	461.855	465.175	257.662	448.537	0.00019592	0.00073885	0.00014311	1052.4	2.8964e-06	4.7146e-06	1138.3	212.66	1.8371e-06	3.6916e-06	273.03	76.837	60.064	17.418	2.8261e-06	24.386	0.0010649	0.0012866	0.00035923	1049.7	1.4032e-05	1.4501e-05	1126.6	213.25	1.389e-05	1.4371e-05	276.34	78.862	61.79	18.137	1.4071e-05	25.523	239.535	213.027	300.577	182.491	309.476	359.251	182.462	189.901	189.835	268.387	189.282	196.406	196.625	203.737	352.096	202.864	-8191	255	
630.050	1	1	0	0	0.066132	0.13499	0.22433	0.064719	0.059795	0.18103	0.1936	0.40063	0.16924	0.20651	0.075622	0.23276	0.12574	0.2572	0.15866	0.28164	-1.4708	-2.7396	-2.45	-2.0208	-3.1771	-2.0167	-2.6083	-3.0083	-1.8	-2.7292	-2.575	-2.0146	-3.0812	-2.2438	-2.0417	-3.1	401.586	426.726	241.335	514.918	200.147	468.056	531.309	464.838	409.848	362.319	219.585	294.806	265.406	174.990	233.488	466.745	0.00021443	0.00032305	0.00012633	1046.6	2.4312e-06	3.5069e-06	1131.7	210.9	2.3254e-06	1.1358e-05	271.87	76.415	59.995	17.408	2.6648e-06	24.356	0.0010553	0.0012873	0.00036199	1046.9	1.3998e-05	1.4227e-05	1123.9	212.49	1.4118e-05	1.4244e-05	275.77	78.742	61.744	18.265	1.3788e-05	25.547	235.207	184.269	331.208	182.211	475.189	372.586	182.559	190.017	322.169	267.515	189.617	196.370	197.091	203.753	343.469	203.532	-8191	255	
630.146	1	1	0	0	0.15431	0.25291	0.24222	0.20875	0.082143	0.29602	0.23273	0.19719	0.062094	0.1633	0.1831	0.038573	0.12725	0.10786	0.095957	0.10737	-1.4813	-2.475	-2.6104	-2.0625	-2.7333	-2.3708	-2.2562	-3.1604	-2.0583	-2.4333	-2.8208	-1.9417	-2.9	-2.4604	-2.0896	-3.0812	213.610	524.068	326.161	295.441	174.725	206.838	355.200	456.255	340.793	433.256	246.303	462.358	246.324	203.392	283.894	207.271	0.00021168	0.00013855	1.6777e-05	1048	2.5544e-06	3.1373e-06	1132	211.95	2.296e-06	5.9592e-06	272.36	76.342	60.478	17.404	1.3524e-06	24.3	0.0010622	0.0012881	0.00035591	1047	1.3894e-05	1.4033e-05	1125.4	213.31	1.4118e-05	1.4282e-05	275.98	78.705	61.962	18.227	1.4287e-05	25.54	248.180	220.055	478.394	182.201	435.772	343.049	182.602	189.961	245.811	346.339	189.752	196.486	196.956	203.915	457.438	203.467	-8191	255	
630.267	1	1	0	0	0.18393	0.10042	0.12424	0.23138	0.1144	0.27906	0.1445	0.11871	0.32444	0.099803	0.094068	0.092999	0.38039	0.27782	0.19193	0.075154	-1.6729	-2.5021	-2.6542	-2.1083	-2.7771	-2.4479	-2.1604	-3.0125	-2.0833	-2.2729	-2.8479	-1.8833	-2.5896	-2.65	-1.8875	-3.1	240.119	358.536	384.208	277.587	180.415	312.523	439.744	178.961	298.988	307.372	524.787	258.981	518.065	466.866	530.714	418.068	0.0002403	0.00030921	4.9551e-05	1047.4	3.3517e-06	5.2213e-06	1137.4	211.93	4.2075e-06	5.9025e-06	271.76	76.382	60.129	17.369	4.5492e-06	24.506	0.001086	0.0013356	0.00036437	1047.5	1.426e-05	1.4301e-05	1124.8	213.58	1.4219e-05	1.4686e-05	276.04	78.84	61.859	18.286	1.4374e-05	25.641	240.206	531.440	513.479	182.298	336.620	350.591	182.570	190.166	325.076	386.253	189.482	196.751	196.819	204.392	386.006	203.622	-8191	255	
630.361	1	1	0	0	0.19975	0.25576	0.092224	0.14601	0.088139	0.16784	0.23292	0.11137	0.16058	0.24172	0.29537	0.27837	0.23259	0.1204	0.094127	0.082058	-1.7604	-2.0104	-2.8083	-1.9396	-2.6146	-2.5125	-2.1042	-3.0646	-2.075	-2.1729	-2.9	-2.0604	-2.6688	-2.5604	-1.8208	-3	424.995	452.224	434.306	278.386	327.335	426.017	463.442	215.669	240.769	296.508	185.000	524.072	187.954	173.499	328.328	198.002	0.00018244	0.00020019	5.123e-05	1048.4	4.3147e-06	1.0546e-05	1128.8	211.69	1.8682e-06	4.7842e-06	273.03	76.36	59.677	17.313	1.0181e-06	24.077	0.0011066	0.0013431	0.00037516	1048.1	1.4541e-05	1.4887e-05	1124.2	213.56	1.4163e-05	1.453e-05	276.67	78.775	61.792	18.206	1.4245e-05	25.576	242.188	360.792	361.754	182.559	250.729	381.463	182.451	190.026	500.371	530.727	189.650	196.429	196.886	204.314	353.763	203.591	-8191	255	
630.459	1	1	0	0	0.43358	0.11179	0.10064	0.38408	0.24533	0.067904	0.29337	0.084051	0.11443	0.14927	0.15601	0.21749	0.21908	0.23787	0.35939	0.10549	-2.1083	-1.9729	-2.7958	-2.2583	-2.4604	-2.8333	-1.9333	-2.8812	-2.2375	-2.0417	-3.0125	-2.1063	-2.3521	-2.8229	-1.6042	-2.9062	366.898	509.133	359.527	477.490	291.642	356.276	454.413	452.749	285.591	430.091	512.368	473.610	192.199	209.513	345.663	484.740	0.00020356	0.00046231	2.2907e-05	1049.6	3.0343e-06	3.5591e-06	1134.6	213.48	1.9221e-06	4.3747e-06	272.8	76.811	60.405	17.455	2.6258e-06	24.269	0.001093	0.0013138	0.00037522	1051.4	1.4513e-05	1.4895e-05	1125	214.04	1.4455e-05	1.4976e-05	277.05	78.934	62.047	18.309	1.4485e-05	25.688	245.966	288.860	247.241	182.558	216.608	375.135	182.588	190.127	409.488	322.500	189.449	196.344	196.580	203.437	319.648	203.766	-8191	255	
630.578	1	1	0	0	0.1918	0.19525	0.18844	0.38352	0.043202	0.12591	0.26741	0.4047	0.18194	0.26389	0.10814	0.11115	0.15356	0.19992	0.16042	0.20383	-2.0729	-1.9646	-2.8521	-2.0812	-2.1479	-2.8083	-2.1042	-2.8208	-2.3458	-1.9604	-2.9938	-2.1104	-2.1833	-2.9437	-1.7375	-2.5563	193.345	520.416	501.923	525.142	430.572	279.136	488.166	516.792	239.311	450.250	509.616	522.551	400.252	427.864	279.305	215.575	0.00019623	0.00041316	0.00017318	1054.5	8.5752e-06	9.1901e-06	1131.3	212.42	9.7143e-07	3.7571e-06	271.44	77.323	60.414	17.415	3.0709e-06	24.52	0.0011081	0.0013579	0.0003764	1051.9	1.4816e-05	1.4786e-05	1124.7	214.09	1.4531e-05	1.4897e-05	276.45	79.083	62.039	18.26	1.4509e-05	25.676	227.845	293.256	317.068	182.343	341.321	337.771	182.519	190.047	311.991	323.003	189.740	196.324	196.827	204.071	407.832	203.288	-8191	255	
630.674	1	1	0	0	0.27949	0.03761	0.26273	0.27177	0.12961	0.28431	0.10548	0.22656	0.017507	0.41144	0.21082	0.043007	0.14388	0.18919	0.30427	0.20701	-2.2625	-2.0229	-2.7313	-2.3063	-2.1146	-2.7812	-1.8729	-2.8375	-2.8063	-1.8208	-2.7604	-2.3146	-2.0625	-2.9021	-2.0542	-2.7354	281.104	410.537	291.311	397.451	460.025	452.282	459.407	519.721	200.890	331.874	424.287	359.822	480.788	488.831	198.492	333.622	0.00022947	0.00023338	0.00013404	1048.3	3.5874e-06	3.215e-06	1129.5	212.78	3.1168e-06	2.5274e-06	273.35	76.637	60.037	17.485	1.2083e-06	24.497	0.001116	0.0013634	0.00037363	1048.5	1.4541e-05	1.4615e-05	1125.6	213.61	1.4323e-05	1.4668e-05	277.16	78.864	61.891	18.284	1.4478e-05	25.721	244.086	445.304	261.475	182.380	410.669	205.568	182.508	190.093	281.419	354.607	189.639	196.611	197.109	203.859	302.607	204.076	-8191	255	
630.746	1	1	0	0	0.08641	0.25654	0.020132	0.16408	0.22604	0.2037	0.12456	0.20966	0.19279	0.1174	0.036917	0.19954	0.052717	0.25563	0.18147	0.091223	-2.5333	-1.7792	-2.6271	-2.5208	-1.8917	-2.8083	-1.9917	-2.6271	-2.8396	-1.6896	-2.7375	-2.5667	-2.1896	-2.7521	-1.9688	-2.5125	505.627	499.845	364.977	194.697	407.821	266.531	417.213	192.022	204.018	489.206	267.552	436.721	376.389	495.182	274.709	438.127	0.00023873	0.00069921	0.00010475	1046	2.2751e-06	6.7588e-06	1132.8	212.58	3.6933e-06	2.4404e-06	270.19	76.569	59.936	17.475	3.8497e-06	24.467	0.0010928	0.0013418	0.00037532	1050.2	1.4736e-05	1.4808e-05	1123.9	213.92	1.4539e-05	1.5198e-05	276.61	79.017	61.967	18.267	1.4681e-05	25.737	252.565	531.826	229.169	182.507	366.771	346.650	182.740	190.039	367.850	270.399	189.458	196.309	196.763	204.008	381.818	203.421	-8191	255	
630.866	1	1	0	0	0.088002	0.12151	0.2077	0.11452	0.3386	0.17969	0.16732	0.17002	0.4218	0.22651	0.093393	0.15096	0.024131	0.21009	0.20392	0.18499	-2.4042	-1.875	-2.9125	-2.5521	-1.7437	-2.8896	-2.2167	-2.425	-2.7854	-1.9625	-2.7292	-2.7542	-1.8958	-2.875	-2.0938	-2.3625	344.881	180.728	476.598	306.636	282.322	387.423	461.684	493.689	427.265	334.275	413.404	462.275	491.511	522.117	342.552	395.744	0.00020824	0.00025501	6.8511e-05	1047.3	7.057e-06	5.4875e-06	1132.6	212.31	3.6393e-06	9.549e-07	273.38	76.941	60.042	17.367	5.7924e-06	24.205	0.0011163	0.0013615	0.00037674	1051.2	1.4589e-05	1.5122e-05	1126.8	213.89	1.4341e-05	1.4679e-05	276.92	78.997	61.801	18.237	1.4724e-05	25.651	251.622	228.328	273.646	182.701	340.452	298.906	182.682	190.200	323.918	236.533	189.832	196.198	196.886	204.136	321.964	203.162	-8191	255	
630.962	1	1	0	0	0.18514	0.19402	0.24745	0.3171	0.1518	0.21122	0.059636	0.14718	0.042584	0.16297	0.25675	0.2375	0.17867	0.077843	0.12285	0.23515	-2.5187	-1.8875	-2.4646	-2.9062	-1.875	-2.9604	-2.5771	-2.175	-3.0104	-2.0042	-2.3479	-2.9688	-1.7687	-2.8854	-2.2354	-2.0021	467.398	431.284	491.145	498.946	354.851	192.234	331.752	494.695	327.183	335.614	177.550	187.380	175.692	498.363	394.234	246.598	0.0001819	0.00062989	0.00015222	1048.1	3.3274e-06	3.102e-06	1133.4	212.24	1.7148e-06	4.8882e-06	271.34	76.808	60.341	17.473	8.8918e-06	24.5	0.0011204	0.001352	0.00038012	1051.8	1.4916e-05	1.5048e-05	1124.8	214.12	1.4504e-05	1.5142e-05	277.03	78.929	61.923	18.299	1.4747e-05	25.69	229.256	190.723	264.892	182.881	340.922	333.436	182.609	190.122	370.019	296.876	189.459	196.270	197.195	204.682	301.239	203.350	-8191	255	
631.058	1	1	0	0	0.078323	0.046414	0.061378	0.14453	0.22029	0.40198	0.13075	0.37865	0.27243	0.16255	0.17129	0.047481	0.35165	0.15331	0.30443	0.13304	-2.8458	-1.8687	-2.3625	-2.9917	-1.8312	-2.8208	-2.7458	-1.9396	-2.7	-2.2313	-2.4375	-2.8083	-2.1021	-2.6917	-2.3792	-2.1646	509.601	187.197	254.642	474.456	411.715	520.041	530.760	490.223	353.480	228.737	263.745	354.479	522.067	456.742	435.754	181.507	0.00021519	0.00011023	8.7372e-05	1046.6	3.0164e-06	1.7027e-06	1131.3	211.97	2.4197e-06	5.5419e-06	271.89	76.496	59.844	17.431	1.5338e-06	24.487	0.0011092	0.0013387	0.00037741	1048.1	1.447e-05	1.4817e-05	1122.9	213.34	1.409e-05	1.4362e-05	275.83	78.586	61.689	18.221	1.4129e-05	25.584	249.796	375.788	239.550	182.714	336.235	232.110	182.688	190.256	329.414	281.155	190.023	196.504	197.042	204.240	251.553	203.816	-8191	255	
631.155	1	1	0	0	0.042112	0.12143	0.021136	0.31574	0.089623	0.11885	0.23306	0.20024	0.17836	0.12057	0.25268	0.31541	0.25192	0.015333	0.25972	0.06201	-2.5271	-2.2458	-2.4104	-2.8042	-2.1729	-2.6896	-2.4958	-2.0583	-2.8937	-2.2687	-2.1583	-3.15	-2.125	-2.6104	-2.7271	-1.9771	184.751	273.566	439.393	500.237	280.293	471.050	432.787	442.095	377.184	518.053	454.291	413.896	367.575	465.636	289.889	476.127	0.00021941	0.00063629	5.9191e-05	1058.9	4.8063e-06	5.8136e-06	1135.5	211.55	3.4057e-06	1.6216e-06	273.3	76.681	60.231	17.48	4.1461e-06	24.26	0.0010577	0.0013023	0.00036392	1050	1.3829e-05	1.4166e-05	1123.9	213.5	1.3889e-05	1.4336e-05	277.35	78.648	61.724	18.19	1.3539e-05	25.508	238.736	294.341	373.236	182.667	278.098	288.278	182.803	190.220	378.278	338.474	189.701	196.142	196.964	203.819	294.076	204.007	-8191	255	
631.251	1	1	0	0	0.075298	0.12254	0.19509	0.094021	0.085604	0.46075	0.099337	0.15432	0.21781	0.09658	0.18183	0.3163	0.25248	0.0813	0.088203	0.078625	-2.4979	-2.5458	-1.9771	-2.9729	-2.2062	-2.4146	-2.9125	-1.9208	-2.9729	-2.2917	-2.0667	-2.9771	-2.325	-2.6708	-2.6396	-1.8729	448.737	487.872	250.898	242.517	196.786	305.498	384.403	446.610	181.809	434.088	452.511	482.264	348.623	510.766	201.509	507.755	0.0002707	0.00020438	0.00021073	1048.5	4.2724e-06	1.0076e-05	1133.8	211.66	4.8203e-06	1.4897e-06	273	76.711	60.491	17.57	2.796e-06	24.366	0.0010542	0.0012755	0.00035294	1045.6	1.3586e-05	1.3742e-05	1121.4	212.72	1.3376e-05	1.3553e-05	276.4	78.651	61.806	18.206	1.3445e-05	25.524	236.409	280.794	283.708	182.849	298.644	362.691	182.667	190.284	333.865	368.177	190.466	196.078	196.807	204.492	273.349	203.245	-8191	255	
631.347	1	1	0	0	0.22928	0.063839	0.1796	0.17978	0.18895	0.13281	0.21012	0.18484	0.17087	0.083532	0.03365	0.15052	0.044739	0.13623	0.21597	0.18281	-2.3104	-2.3875	-2.15	-3.0812	-2.0062	-2.3312	-3.2167	-2.1937	-2.625	-2.5104	-2.1188	-3.1	-2.1854	-2.3375	-2.8958	-2.0208	457.068	375.483	187.815	505.261	243.900	363.280	509.796	451.874	365.355	472.475	266.641	517.810	467.972	193.513	487.760	380.409	0.00021888	0.00028879	0.00013105	1043.7	4.7552e-06	1.3411e-06	1131.9	211.24	6.0834e-07	6.5998e-06	272.04	76.828	60.059	17.386	2.3215e-06	24.373	0.001036	0.0012249	0.00035253	1041.4	1.347e-05	1.371e-05	1121.3	213.16	1.3228e-05	1.3723e-05	275.62	78.628	61.646	18.157	1.333e-05	25.499	238.088	292.730	237.443	182.597	256.129	215.142	182.952	190.417	446.338	356.595	189.573	196.505	196.862	204.340	227.349	203.773	-8191	255	
631.443	1	1	0	0	0.0633	0.12216	0.13048	0.14166	0.21729	0.20428	0.23866	0.1396	0.20901	0.37913	0.14879	0.10134	0.23078	0.13091	0.14156	0.30348	-2.2771	-2.4792	-1.925	-3.0354	-2.3271	-2.1625	-3.1729	-2.1542	-2.5563	-2.6708	-1.9771	-3.0104	-2.6813	-2.2062	-2.8438	-2.2458	328.490	469.261	409.573	359.892	423.453	283.745	431.108	482.225	295.787	405.155	515.015	450.338	485.414	318.228	268.116	313.649	0.00018538	0.00066969	0.00015826	1041.8	3.0753e-06	2.9211e-06	1130.7	211.84	5.4479e-06	7.6703e-06	273.06	76.057	59.877	17.463	2.5812e-06	24.52	0.001016	0.0012506	0.00034138	1042.6	1.3278e-05	1.378e-05	1120.1	212.86	1.3352e-05	1.3847e-05	274.99	78.376	61.388	18.138	1.3388e-05	25.508	231.277	273.201	255.531	182.887	341.952	275.328	182.693	190.025	296.477	319.392	190.050	196.251	197.299	204.150	254.296	203.534	-8191	255	
631.539	1	1	0	0	0.17924	0.29461	0.057295	0.045607	0.13462	0.19158	0.1808	0.34115	0.081535	0.11009	0.2921	0.10857	0.27165	0.13313	0.19789	0.33541	-2.2458	-2.7771	-1.8563	-2.8563	-2.3771	-2.2875	-3.2875	-2.375	-2.4979	-2.8833	-1.9917	-2.8729	-2.7438	-2.2104	-3.0771	-2.2271	422.230	481.992	490.994	211.806	319.310	515.678	443.490	486.307	359.680	411.221	206.290	462.940	385.408	268.765	456.195	493.490	0.00019941	0.00042861	8.2271e-05	1045.7	3.2682e-06	4.7629e-06	1126.4	211.91	2.698e-06	3.1301e-06	271.97	76.257	60.662	17.516	2.8162e-06	24.324	0.0010145	0.0012305	0.00034693	1044.7	1.3469e-05	1.3631e-05	1120.7	212.63	1.3341e-05	1.3708e-05	275.77	78.607	61.647	18.228	1.3556e-05	25.491	232.193	259.236	305.389	182.651	384.584	414.005	182.790	190.419	342.432	475.676	189.846	196.726	197.218	204.638	344.407	203.878	-8191	255	
631.658	1	1	0	0	0.15382	0.13427	0.12734	0.15746	0.14597	0.16031	0.21034	0.20837	0.064214	0.058361	0.28766	0.19951	0.15507	0.077969	0.10156	0.078507	-1.9042	-2.8104	-2.0521	-2.8542	-2.4521	-1.9167	-3.1521	-2.3229	-2.2083	-2.9604	-2.0187	-2.6458	-2.8292	-1.8604	-2.7687	-2.3771	243.362	496.349	260.107	439.341	456.627	226.223	451.678	492.572	519.213	484.164	442.857	447.565	465.438	203.757	204.067	230.912	0.00018713	0.00044472	9.9222e-05	1039.2	4.7432e-06	3.5148e-06	1134.7	211.69	1.4951e-06	5.0077e-07	272.35	76.874	60.091	17.291	1.2115e-06	24.216	0.0010545	0.0012625	0.00035065	1043.4	1.3562e-05	1.3911e-05	1122.8	212.82	1.3473e-05	1.3744e-05	275.83	78.719	61.604	18.13	1.3767e-05	25.528	242.662	188.320	239.609	182.938	317.097	366.131	182.804	190.236	517.072	327.077	189.839	196.906	197.310	204.321	343.155	203.243	-8191	255	
631.754	1	1	0	0	0.043241	0.17994	0.13822	0.1596	0.085133	0.080772	0.18376	0.2224	0.27656	0.20973	0.1535	0.24448	0.31629	0.14859	0.15847	0.30264	-1.8146	-2.9813	-2.1437	-2.5021	-2.5896	-1.8563	-3.0125	-2.6562	-2.025	-2.8563	-2.0292	-2.4167	-2.9667	-1.9771	-2.6875	-2.3604	288.616	500.021	523.472	410.567	301.796	221.906	466.578	426.289	474.437	248.048	390.468	492.770	517.583	509.284	308.405	485.519	0.00022099	0.00029759	0.00017062	1043.4	3.6223e-06	4.6673e-06	1137.7	211.13	4.6004e-06	5.8457e-06	274.1	76.693	59.99	17.471	4.7374e-06	24.319	0.0010388	0.0012344	0.00035099	1043	1.3635e-05	1.3738e-05	1124.5	212.97	1.3429e-05	1.3652e-05	276.2	78.692	61.681	18.205	1.3474e-05	25.581	239.808	355.405	271.061	183.017	370.066	366.248	182.794	190.069	331.906	384.435	190.348	196.867	196.885	204.335	364.706	203.551	-8191	255	
631.850	1	1	0	0	0.2528	0.15785	0.066256	0.14655	0.24642	0.21173	0.054336	0.1621	0.24642	0.10896	0.3216	0.13406	0.032553	0.19964	0.060659	0.16493	-1.5229	-2.9292	-2.0583	-2.4813	-2.8875	-1.8167	-2.9458	-2.4354	-1.95	-3.1042	-2.3354	-2.3583	-2.9188	-1.9479	-2.7167	-2.8125	278.783	463.593	404.392	489.270	453.914	421.661	423.376	226.579	191.099	377.754	476.913	303.801	470.684	182.329	335.763	447.667	0.0001645	1.0269e-05	0.00010359	1041.8	1.5121e-06	5.0619e-06	1129.7	210.92	7.1274e-07	6.128e-06	272.63	76.291	60.129	17.276	2.2042e-06	24.34	0.0010555	0.001256	0.00035563	1045.2	1.3466e-05	1.386e-05	1121	212.26	1.3609e-05	1.3905e-05	275.46	78.706	61.598	18.136	1.3689e-05	25.452	235.054	175.948	399.584	182.710	339.598	319.422	182.714	190.346	229.767	350.211	190.067	196.617	197.247	204.085	338.552	203.644	-8191	255	
631.947	1	1	0	0	0.044838	0.049653	0.23172	0.17802	0.079678	0.12174	0.17936	0.31692	0.091941	0.32225	0.22064	0.20886	0.10186	0.3456	0.09699	0.011866	-1.4083	-2.8458	-2.3812	-2.4125	-2.9125	-1.7708	-2.8458	-2.7062	-1.8521	-2.9292	-2.3417	-2.2875	-3.0896	-2.0563	-2.4479	-2.6771	429.326	395.810	357.845	446.609	456.764	480.293	515.419	500.088	468.292	403.448	505.821	368.160	502.407	531.782	460.157	522.241	0.00019174	0.00022004	7.6561e-05	1052.2	2.9931e-06	5.4288e-06	1130.2	212.01	4.9982e-06	2.4675e-06	273.52	76.837	60.104	17.268	8.4464e-06	24.308	0.0010487	0.0012499	0.00035495	1045.6	1.3662e-05	1.3792e-05	1122.2	213.08	1.3551e-05	1.405e-05	276.43	78.663	61.643	18.152	1.3764e-05	25.524	237.041	270.265	371.240	182.621	395.737	387.135	182.862	190.010	306.935	422.561	189.853	196.967	197.000	204.059	303.895	203.585	-8191	255	
632.043	1	1	0	0	0.1212	0.23116	0.29499	0.15854	0.104	0.237	0.11663	0.17755	0.39927	0.13863	0.046009	0.18286	0.20322	0.20534	0.051662	0.19276	-1.6542	-2.9146	-2.2417	-2.1188	-2.9021	-2.0062	-2.6583	-2.7208	-1.6396	-2.9104	-2.65	-2.0146	-2.8438	-2.2042	-2.325	-2.825	306.047	435.769	201.138	278.081	191.066	279.036	489.776	477.407	405.604	505.879	471.671	513.579	186.760	344.136	455.892	459.967	0.00017235	0.00082155	0.00010686	1045.8	1.4977e-06	2.7816e-06	1133.5	211.29	3.3555e-06	8.321e-06	273.28	76.732	60.496	17.276	1.009e-06	24.353	0.0010671	0.0012832	0.00035887	1043.6	1.3667e-05	1.4054e-05	1122	212.96	1.3766e-05	1.3917e-05	276.56	78.711	61.799	18.091	1.3553e-05	25.46	232.082	254.009	257.370	182.760	285.800	303.420	182.872	190.180	330.556	324.922	190.205	196.736	196.890	204.287	229.960	203.424	-8191	255	
632.139	1	1	0	0	0.079776	0.27059	0.38274	0.29736	0.21398	0.13835	0.24292	0.26812	0.39573	0.16424	0.2389	0.11313	0.12885	0.084159	0.1603	0.19133	-1.6562	-2.8625	-2.1813	-1.9042	-2.9562	-2.1271	-2.3563	-2.7646	-1.8646	-2.6229	-2.6562	-2.15	-3.0187	-2.05	-2.0729	-2.8854	433.424	424.285	421.375	528.607	337.460	208.924	515.515	474.400	325.470	397.881	507.790	472.898	233.731	332.103	341.173	190.378	0.00022396	0.00014713	8.9234e-05	1046.2	1.2982e-06	4.8584e-06	1126.6	211.67	2.6094e-06	6.4864e-06	272.59	76.606	60.077	17.37	5.5943e-06	24.436	0.0010261	0.0012338	0.0003419	1042.2	1.3349e-05	1.3704e-05	1120.9	212.4	1.3291e-05	1.35e-05	275.83	78.508	61.595	18.114	1.3176e-05	25.501	238.529	273.098	261.806	182.837	528.678	384.339	182.793	190.453	268.606	404.332	189.572	196.680	197.072	204.390	306.139	203.308	-8191	255	
632.259	1	1	0	0	0.064209	0.13709	0.18264	0.37892	0.056936	0.15178	0.11232	0.26402	0.13219	0.25402	0.29178	0.094438	0.062203	0.099736	0.23985	0.12287	-1.4917	-2.7583	-2.6125	-1.7354	-2.7354	-2.2396	-2.4021	-3.1479	-2.1562	-2.5792	-2.8104	-2.0271	-2.8312	-2.4688	-2.2687	-3.0604	320.807	399.900	489.553	242.680	365.359	174.615	522.023	463.940	458.996	249.571	525.171	402.444	346.009	281.404	504.706	531.924	0.0002178	0.00041753	0.00010449	1042	6.0856e-06	8.438e-06	1131.2	212.14	2.4534e-06	3.4839e-06	271	76.825	60.183	17.264	2.4908e-06	24.31	0.0010159	0.0012172	0.00034092	1041.8	1.3152e-05	1.3443e-05	1120.4	212.65	1.305e-05	1.3578e-05	274.63	78.655	61.591	18.111	1.3318e-05	25.43	247.197	273.766	306.860	183.028	306.943	254.373	182.714	190.556	336.829	397.273	189.949	196.752	197.466	204.090	324.478	203.883	-8191	255	
632.356	1	1	0	0	0.039235	0.13075	0.37189	0.067976	0.18042	0.15406	0.11755	0.13838	0.14989	0.083803	0.083661	0.13247	0.13099	0.12466	0.17234	0.16591	-1.7188	-2.2958	-2.7708	-1.9917	-2.8021	-2.4521	-2.2167	-3.1063	-2.1729	-2.2292	-2.675	-1.9083	-2.9667	-2.6104	-2.1646	-2.9542	233.756	225.297	389.819	186.290	244.229	365.116	392.348	257.288	222.027	512.768	466.220	527.067	444.769	266.862	404.279	419.348	0.00020226	0.00042614	0.00016248	1050.2	1.3346e-06	2.4746e-06	1126.7	212.58	3.9834e-06	9.2607e-06	272.36	76.607	60.277	17.366	1.7069e-06	24.215	0.0010249	0.0012227	0.00034352	1043.9	1.3176e-05	1.3382e-05	1120.8	212.92	1.3175e-05	1.3737e-05	275.38	78.441	61.625	18.137	1.349e-05	25.391	240.185	307.121	418.020	182.851	221.515	254.249	182.941	190.722	269.932	327.977	189.873	196.627	197.176	204.034	295.400	203.835	-8191	255	
632.450	1	1	0	0	0.15249	0.24422	0.057904	0.24016	0.25131	0.13071	0.053988	0.08151	0.046454	0.14398	0.17656	0.055001	0.22329	0.22239	0.21923	0.19997	-1.9375	-2.1771	-2.7938	-1.9292	-2.6167	-2.4396	-2.2062	-3.1208	-2.0667	-2.2417	-2.9854	-1.8021	-2.7438	-2.6229	-1.8188	-2.7604	345.117	307.314	412.061	446.351	372.588	186.391	260.976	375.273	417.125	195.208	520.925	447.140	241.525	464.854	343.396	326.077	0.0002271	0.00045781	0.0001031	1045.8	4.2646e-06	5.0924e-06	1133.7	210.81	4.3023e-06	5.7702e-06	271.97	76.012	59.877	17.405	1.1772e-06	24.498	0.0010189	0.0012485	0.00034231	1045.6	1.3295e-05	1.3564e-05	1123.7	212.78	1.3233e-05	1.3755e-05	275.36	78.488	61.622	18.132	1.3679e-05	25.544	251.268	280.563	257.953	182.688	304.094	355.748	182.834	190.550	361.973	361.182	190.158	196.731	197.224	203.980	256.783	203.732	-8191	255	
632.546	1	1	0	0	0.14724	0.2668	0.10106	0.043238	0.14656	0.12399	0.20975	0.33661	0.16483	0.24101	0.093964	0.16791	0.13015	0.17596	0.15199	0.19194	-1.7	-2.2167	-2.8563	-2.1583	-2.5167	-2.5417	-1.8813	-2.9813	-2.2188	-2.0771	-3.0146	-1.9937	-2.5	-2.8896	-1.9771	-2.8688	491.301	439.083	247.435	456.307	531.324	438.729	219.366	468.954	257.906	505.485	204.335	242.187	527.475	189.873	216.676	515.258	0.00019657	0.00023577	2.9882e-05	1045.3	2.9793e-06	7.9964e-07	1134.6	210.34	5.4728e-06	8.8469e-07	273.08	77.116	60.309	17.42	6.4182e-06	24.276	0.0010435	0.0012537	0.00035	1045.6	1.3727e-05	1.3945e-05	1125.3	212.66	1.3573e-05	1.4091e-05	276.3	78.742	61.717	18.249	1.3791e-05	25.522	240.838	291.054	413.896	182.700	364.100	210.178	182.820	190.314	324.123	347.217	189.755	196.319	196.830	203.946	277.918	203.645	-8191	255	
632.642	1	1	0	0	0.30914	0.14012	0.17483	0.13515	0.10863	0.12071	0.19422	0.24274	0.21067	0.10469	0.2656	0.19056	0.16225	0.009373	0.11806	0.035052	-2.075	-1.9104	-3.0458	-2.1208	-2.4938	-2.9417	-2.0167	-2.6792	-2.4354	-2.1813	-3.0271	-2.1333	-2.3354	-2.9271	-2	-2.9542	483.934	412.486	325.452	403.262	378.927	343.977	462.705	327.878	363.048	383.709	257.283	509.307	295.519	401.383	367.285	260.217	0.00026993	0.00038249	5.9622e-05	1049.7	1.7074e-06	3.8778e-06	1137.5	211.35	1.8073e-06	3.8519e-06	271.39	77.277	60.549	17.35	2.0309e-06	24.365	0.0010723	0.0013015	0.00035958	1046.6	1.389e-05	1.4181e-05	1126.2	213.05	1.3631e-05	1.4169e-05	276.04	78.858	61.968	18.17	1.3728e-05	25.543	231.852	275.643	382.359	182.549	344.255	275.130	182.762	190.276	372.713	385.729	189.733	196.216	196.995	204.172	296.826	203.957	-8191	255	
#DATA ENDS
