BOXY.EXE: ISS Imagent and Oximeter Data Acquisition Program Version 0.80
Ascii Record File

#ACQ INFORMATION
2  Detector Channels 
16  External MUX Channels 
1  Auxiliary Channels 
5000  Waveform (CCF) Frequency (Hz)
1  Waveforms Skipped 
30  Waveforms Averaged 
1  Cycles Averaged 
16  Acquisitions per Waveform 
10.0806  Updata Rate (Hz) 

#FILE INFORMATION
TRUE -- External MUX Channel results are PARSED.
FALSE -- AC DC and Phase are NOT grouped.
TRUE -- Companion Program Settings File CREATED.
FALSE -- AC data not excluded
FALSE -- DC data not excluded
FALSE -- Phase data not excluded
FALSE -- Auxillary Chn. data not excluded
Tab delimiters

#CALIBRATION STATE
TRUE -- Waveform Calibration Values APPLIED.


#AUX CALIBRATION VALUES
Val Type	aux-1	

Term	1.0000e+00	
Factor	0.0000e+00	


#WF CALIBRATION VALUES
A = Detector Channel
Val Type	A-AC1	A-AC2	A-AC3	A-AC4	A-AC5	A-AC6	A-AC7	A-AC8	A-AC9	A-AC10	A-AC11	A-AC12	A-AC13	A-AC14	A-AC15	A-AC16	A-DC1	A-DC2	A-DC3	A-DC4	A-DC5	A-DC6	A-DC7	A-DC8	A-DC9	A-DC10	A-DC11	A-DC12	A-DC13	A-DC14	A-DC15	A-DC16	A-Ph1	A-Ph2	A-Ph3	A-Ph4	A-Ph5	A-Ph6	A-Ph7	A-Ph8	A-Ph9	A-Ph10	A-Ph11	A-Ph12	A-Ph13	A-Ph14	A-Ph15	A-Ph16	

Term	0.00000e+00	0.00000e+00	0.00000e+00	0.00000e+00	0.00000e+00	0.00000e+00	0.00000e+00	0.00000e+00	0.00000e+00	0.00000e+00	0.00000e+00	0.00000e+00	0.00000e+00	0.00000e+00	0.00000e+00	0.00000e+00	0.00000e+00	0.00000e+00	0.00000e+00	0.00000e+00	0.00000e+00	0.00000e+00	0.00000e+00	0.00000e+00	0.00000e+00	0.00000e+00	0.00000e+00	0.00000e+00	0.00000e+00	0.00000e+00	0.00000e+00	0.00000e+00	0.00000e+00	0.00000e+00	0.00000e+00	0.00000e+00	0.00000e+00	0.00000e+00	0.00000e+00	0.00000e+00	0.00000e+00	0.00000e+00	0.00000e+00	0.00000e+00	0.00000e+00	0.00000e+00	0.00000e+00	0.00000e+00	
Factor	1.00000e+00	1.00000e+00	1.00000e+00	1.00000e+00	1.00000e+00	1.00000e+00	1.00000e+00	1.00000e+00	1.00000e+00	1.00000e+00	1.00000e+00	1.00000e+00	1.00000e+00	1.00000e+00	1.00000e+00	1.00000e+00	1.00000e+00	1.00000e+00	1.00000e+00	1.00000e+00	1.00000e+00	1.00000e+00	1.00000e+00	1.00000e+00	1.00000e+00	1.00000e+00	1.00000e+00	1.00000e+00	1.00000e+00	1.00000e+00	1.00000e+00	1.00000e+00	X	X	X	X	X	X	X	X	X	X	X	X	X	X	X	X	

B = Detector Channel
Val Type	B-AC1	B-AC2	B-AC3	B-AC4	B-AC5	B-AC6	B-AC7	B-AC8	B-AC9	B-AC10	B-AC11	B-AC12	B-AC13	B-AC14	B-AC15	B-AC16	B-DC1	B-DC2	B-DC3	B-DC4	B-DC5	B-DC6	B-DC7	B-DC8	B-DC9	B-DC10	B-DC11	B-DC12	B-DC13	B-DC14	B-DC15	B-DC16	B-Ph1	B-Ph2	B-Ph3	B-Ph4	B-Ph5	B-Ph6	B-Ph7	B-Ph8	B-Ph9	B-Ph10	B-Ph11	B-Ph12	B-Ph13	B-Ph14	B-Ph15	B-Ph16	

Term	0.00000e+00	0.00000e+00	0.00000e+00	0.00000e+00	0.00000e+00	0.00000e+00	0.00000e+00	0.00000e+00	0.00000e+00	0.00000e+00	0.00000e+00	0.00000e+00	0.00000e+00	0.00000e+00	0.00000e+00	0.00000e+00	0.00000e+00	0.00000e+00	0.00000e+00	0.00000e+00	0.00000e+00	0.00000e+00	0.00000e+00	0.00000e+00	0.00000e+00	0.00000e+00	0.00000e+00	0.00000e+00	0.00000e+00	0.00000e+00	0.00000e+00	0.00000e+00	-1.50301e+02	-1.43373e+02	-1.49792e+02	-1.82306e+02	-7.93885e+01	-7.58284e+01	-1.59027e+02	-1.62015e+02	-9.78180e+01	-8.34192e+01	-1.70563e+02	-1.71693e+02	-1.81003e+02	-1.76539e+02	-7.99657e+01	-1.49547e+02	
Factor	2.19586e-05	8.39436e-05	3.41424e-05	1.49821e-01	8.35295e-07	9.81461e-07	1.65141e-01	4.79080e-02	1.03987e-06	1.07697e-06	8.44516e-02	2.96454e-02	2.29630e-02	8.60919e-03	9.99734e-07	1.26421e-02	8.08318e-07	8.29617e-07	2.31217e-07	7.45948e-02	9.07046e-09	9.09328e-09	7.73629e-02	2.38309e-02	9.06268e-09	9.06799e-09	3.98886e-02	1.40138e-02	1.13350e-02	4.22160e-03	9.04165e-09	5.95415e-03	X	X	X	X	X	X	X	X	X	X	X	X	X	X	X	X	



#DISTANCE SETTINGS
A = Detector Channel
A-1	A-2	A-3	A-4	A-5	A-6	A-7	A-8	A-9	A-10	A-11	A-12	A-13	A-14	A-15	A-16	

2.5000e+00	3.0000e+00	2.5000e+00	3.0000e+00	2.0000e+00	3.0000e+00	1.5000e+00	3.0000e+00	3.0000e+00	3.0000e+00	3.0000e+00	3.0000e+00	3.0000e+00	3.0000e+00	1.5000e+00	3.0000e+00	

B = Detector Channel
B-1	B-2	B-3	B-4	B-5	B-6	B-7	B-8	B-9	B-10	B-11	B-12	B-13	B-14	B-15	B-16	

1.0000e+01	1.0000e+01	1.0000e+01	1.4400e+00	1.0000e+01	1.0000e+01	1.5100e+00	1.9400e+00	1.0000e+01	1.0000e+01	1.9900e+00	2.4900e+00	2.4100e+00	2.9000e+00	1.0000e+01	2.9800e+00	




#DATA BEGINS
time	group	step	mark	flag	A-AC1	A-AC2	A-AC3	A-AC4	A-AC5	A-AC6	A-AC7	A-AC8	A-AC9	A-AC10	A-AC11	A-AC12	A-AC13	A-AC14	A-AC15	A-AC16	A-DC1	A-DC2	A-DC3	A-DC4	A-DC5	A-DC6	A-DC7	A-DC8	A-DC9	A-DC10	A-DC11	A-DC12	A-DC13	A-DC14	A-DC15	A-DC16	A-Ph1	A-Ph2	A-Ph3	A-Ph4	A-Ph5	A-Ph6	A-Ph7	A-Ph8	A-Ph9	A-Ph10	A-Ph11	A-Ph12	A-Ph13	A-Ph14	A-Ph15	A-Ph16	B-AC1	B-AC2	B-AC3	B-AC4	B-AC5	B-AC6	B-AC7	B-AC8	B-AC9	B-AC10	B-AC11	B-AC12	B-AC13	B-AC14	B-AC15	B-AC16	B-DC1	B-DC2	B-DC3	B-DC4	B-DC5	B-DC6	B-DC7	B-DC8	B-DC9	B-DC10	B-DC11	B-DC12	B-DC13	B-DC14	B-DC15	B-DC16	B-Ph1	B-Ph2	B-Ph3	B-Ph4	B-Ph5	B-Ph6	B-Ph7	B-Ph8	B-Ph9	B-Ph10	B-Ph11	B-Ph12	B-Ph13	B-Ph14	B-Ph15	B-Ph16	aux-1	digaux	

696.657	1	1	0	256	0.070559	0.06893	0.19979	0.18425	0.16273	0.19232	0.16138	0.29728	0.16533	0.13801	0.21094	0.18269	0.12326	0.10942	0.032242	0.2436	-1.9667	-2.5	-2.2	-2.65	-2.4083	-2.3229	-2.8021	-2.1875	-2.1979	-2.5	-2.4354	-2.7938	-2.5396	-2.3771	-2.5958	-2.3396	303.331	198.225	463.154	446.827	417.383	280.993	440.921	465.460	269.487	395.600	421.850	463.617	477.143	186.449	468.173	412.495	0.00080134	0.00018823	0.00025633	1401.1	7.9788e-06	6.1737e-06	1402.9	378.4	4.4411e-06	7.1542e-06	429.34	144.15	125.69	42.519	4.8277e-06	52.403	0.00086992	0.00087591	0.00024351	1455.9	9.4929e-06	9.5417e-06	1458.3	394.03	9.453e-06	9.5189e-06	453.12	152.27	132.53	45.301	9.347e-06	56.247	164.699	493.802	197.480	150.556	232.267	333.815	149.833	154.643	267.688	256.031	154.329	158.144	158.807	163.788	267.995	163.141	-8191	255	
696.754	1	1	0	0	0.14386	0.14473	0.28616	0.19976	0.13569	0.056356	0.19192	0.27047	0.18263	0.012034	0.12484	0.27489	0.12004	0.14969	0.24041	0.18406	-1.825	-2.4292	-2.1479	-2.6813	-2.4042	-2.1625	-2.7854	-2.4854	-2.3125	-2.6063	-2.0875	-2.4396	-2.7604	-2.2708	-2.5125	-2.3417	341.734	355.692	353.652	484.958	374.351	395.521	440.630	438.238	262.544	137.854	446.994	408.751	169.669	458.601	355.296	449.549	0.00071424	0.00058782	0.00011661	1398.9	2.6185e-06	5.1567e-06	1404.4	377.15	3.8948e-06	5.615e-06	429.74	143.59	125.82	42.502	6.6112e-06	52.165	0.00084992	0.00085529	0.00023661	1451.6	9.1484e-06	9.1383e-06	1452.2	392.44	8.9188e-06	8.9049e-06	451.14	151.34	131.77	45.07	8.9145e-06	55.864	161.116	241.276	271.002	150.313	303.172	325.542	149.677	154.855	254.213	303.544	154.345	158.302	158.640	163.941	190.333	163.101	-8191	255	
696.850	1	1	0	0	0.2129	0.27915	0.080837	0.17131	0.093128	0.13434	0.15048	0.15751	0.1783	0.14551	0.23376	0.34339	0.1314	0.33996	0.045262	0.17507	-1.7042	-2.4854	-2.1375	-2.6396	-2.4479	-2.15	-2.5958	-2.6167	-2.1875	-2.425	-2.4417	-2.5979	-2.6375	-2.0708	-2.4896	-2.3729	304.585	408.054	180.640	146.362	195.828	351.442	431.889	166.431	258.203	410.637	456.313	455.432	431.827	447.344	358.539	356.010	0.00070759	0.00063237	0.00015248	1398.6	1.5863e-06	7.2611e-06	1403.7	378.21	3.5303e-06	6.5408e-06	430.52	143.98	125.88	42.717	5.9935e-06	52.735	0.00082265	0.00082994	0.00023219	1446.8	9.2132e-06	9.2658e-06	1455.3	393.08	9.3638e-06	9.4158e-06	453.59	152.43	132.79	45.49	9.5619e-06	56.55	173.714	182.406	256.435	150.233	380.578	262.417	149.843	154.909	174.056	253.246	154.362	158.194	158.937	163.982	197.418	162.993	-8191	255	
696.946	1	1	0	0	0.18695	0.075636	0.066119	0.183	0.39395	0.115	0.21796	0.31851	0.11703	0.20284	0.18662	0.11881	0.072129	0.1667	0.10775	0.12385	-1.9104	-2.4979	-2.25	-2.5896	-2.6042	-2.1042	-2.5625	-2.4354	-2.1375	-2.5417	-2.425	-2.3417	-2.5042	-2.2354	-2.3458	-2.4979	369.572	335.708	344.754	162.077	485.150	337.432	209.073	478.440	283.158	316.313	387.905	396.579	164.350	388.599	182.014	459.299	0.00082412	0.00036663	9.2057e-05	1407	3.6817e-06	4.8244e-06	1411.1	379.2	1.3095e-05	3.2882e-06	430.81	145.2	126.29	42.677	5.6383e-06	52.748	0.00087866	0.00088765	0.00024609	1460.1	9.6717e-06	9.6148e-06	1463.7	395.13	9.4821e-06	9.4391e-06	454.24	152.63	132.93	45.434	9.1754e-06	56.26	168.800	154.413	218.327	150.363	436.811	270.915	149.954	154.757	230.237	441.333	154.312	158.352	158.899	164.184	264.825	163.154	-8191	255	
697.042	1	1	0	0	0.26746	0.079684	0.43333	0.39474	0.080217	0.26953	0.27004	0.32508	0.027636	0.27239	0.19939	0.13779	0.3537	0.2027	0.1011	0.36301	-1.4896	-2.4896	-2.2854	-2.3833	-2.5229	-2.2521	-2.6646	-2.5875	-2.2354	-2.6312	-2.3896	-2.5083	-2.7854	-2.1083	-2.3521	-2.6958	168.097	412.852	489.281	147.256	180.942	154.722	397.797	482.232	398.116	251.542	377.130	384.928	169.413	215.241	328.561	389.768	0.00054125	0.00011283	0.00018265	1403.5	8.5086e-06	4.0286e-06	1411.2	377.64	3.1668e-06	1.0306e-06	432.2	144.18	126.16	42.856	6.638e-06	52.511	0.00083107	0.000836	0.00023221	1450.6	9.0431e-06	9.0774e-06	1458.2	393.29	9.1187e-06	9.1456e-06	453.97	152.16	132.54	45.465	9.2958e-06	56.384	156.146	331.926	151.856	150.465	295.383	349.771	149.828	154.655	172.888	445.847	154.310	158.371	158.859	163.847	237.242	162.863	-8191	255	
697.163	1	1	0	0	0.1039	0.072675	0.16115	0.22244	0.045916	0.26152	0.24684	0.10648	0.23121	0.40941	0.16525	0.2896	0.20161	0.20909	0.35486	0.043259	-1.925	-2.4938	-2.1875	-2.2375	-2.7292	-2.2604	-2.4646	-2.4917	-2.1188	-2.5958	-2.5604	-2.3229	-2.6479	-2.2354	-2.3625	-2.6604	306.480	193.418	327.976	458.480	302.069	451.495	462.515	408.891	243.318	446.531	387.114	444.697	172.629	481.780	269.730	250.825	0.00075472	0.00037822	0.00033128	1403.8	5.3604e-06	2.8266e-06	1409.9	378.17	6.1596e-06	1.9898e-06	431.18	144.59	125.57	42.974	8.0781e-06	52.73	0.00085074	0.00085439	0.00023766	1453.6	9.3234e-06	9.4301e-06	1460.1	394.08	9.3575e-06	9.3816e-06	454.13	152.88	132.93	45.563	9.5058e-06	56.686	156.015	152.484	209.079	150.459	283.883	242.530	149.861	154.527	271.603	459.417	154.299	158.002	158.877	163.609	270.807	162.621	-8191	255	
697.259	1	1	0	0	0.11627	0.099926	0.11655	0.23623	0.1111	0.09876	0.22533	0.45689	0.074463	0.20803	0.21893	0.13196	0.21084	0.39121	0.30307	0.21542	-1.6313	-2.2771	-2.3937	-2.3646	-2.5542	-2.3458	-2.5854	-2.6854	-2.2271	-2.5229	-2.4396	-2.3187	-2.7167	-2.6292	-2.3812	-2.7062	304.311	174.410	450.078	173.882	253.506	495.100	433.831	446.543	337.477	404.917	475.931	325.386	255.946	139.040	388.217	417.298	0.00076152	0.00039916	0.00029751	1401.9	8.0246e-06	7.4201e-06	1408.3	380.09	9.779e-06	1.3544e-05	431.17	144.51	126.38	42.741	1.0633e-05	52.796	0.00087689	0.00088302	0.00024554	1457	9.7106e-06	9.7362e-06	1463.8	395.52	9.6827e-06	9.6736e-06	456.35	153.09	133.23	45.643	9.4967e-06	56.54	169.033	164.969	217.599	150.290	248.620	258.594	149.786	154.719	237.091	312.799	154.295	158.331	158.868	163.750	271.982	163.109	-8191	255	
697.355	1	1	0	0	0.1005	0.19392	0.13989	0.24671	0.26885	0.14774	0.1832	0.22385	0.23549	0.073865	0.095099	0.10805	0.10461	0.34395	0.021158	0.046277	-1.8021	-2.4271	-2.3875	-2.2812	-2.6688	-2.1917	-2.4021	-2.8958	-2.1979	-2.3896	-2.6688	-2.2313	-2.7958	-2.4333	-2.1292	-2.6521	402.571	221.752	206.785	202.811	374.894	396.994	457.123	460.570	261.016	323.110	192.058	338.056	435.524	447.852	428.447	409.961	0.00079446	0.00048886	0.00031976	1407.4	9.0519e-06	4.3738e-06	1405.9	378.48	2.6681e-06	1.2397e-05	430.19	144.45	125.54	42.549	4.1147e-06	52.371	0.00086403	0.00086665	0.00023835	1455.4	9.3793e-06	9.4212e-06	1459.2	394.59	9.4857e-06	9.4971e-06	454.64	152.75	132.84	45.501	9.6247e-06	56.584	156.920	230.338	162.011	150.312	238.190	297.772	149.981	154.919	282.135	248.335	154.322	158.326	158.753	163.888	316.581	162.897	-8191	255	
697.451	1	1	0	0	0.091617	0.15637	0.080241	0.27289	0.017193	0.18805	0.46941	0.15448	0.24005	0.1047	0.39264	0.53804	0.21043	0.066112	0.11363	0.087719	-1.7104	-2.25	-2.4958	-2.2687	-2.4333	-2.3375	-2.0792	-2.7958	-2.1375	-2.1958	-2.5938	-1.9667	-2.6312	-2.5875	-2.3042	-2.775	296.542	486.030	465.712	471.531	467.191	316.938	437.054	183.681	388.772	315.239	432.633	148.255	431.305	138.995	361.675	401.298	0.00071096	0.00033485	0.00017132	1400.5	2.0369e-06	7.8286e-06	1405.1	378.36	7.3841e-06	1.0831e-05	430.82	144.28	125.83	42.753	5.4137e-06	52.257	0.00088314	0.00088819	0.00024832	1454.6	9.783e-06	9.824e-06	1461.6	395.18	9.8384e-06	9.8012e-06	455.92	153.3	133.16	45.667	9.7516e-06	56.584	164.061	232.775	285.199	150.300	286.398	264.447	149.890	154.781	209.581	338.694	154.414	158.130	158.600	163.822	243.180	162.954	-8191	255	
697.570	1	1	0	0	0.10537	0.17249	0.016597	0.32887	0.12755	0.11764	0.23178	0.28235	0.21522	0.31056	0.21494	0.23838	0.18839	0.16843	0.22882	0.15013	-1.8646	-2.2333	-2.5271	-2.5333	-2.5062	-2.4938	-2.3937	-2.5458	-2.2333	-2.2625	-2.6458	-2.4021	-2.4229	-2.4646	-2.1896	-2.6167	173.510	214.927	288.045	457.811	242.519	203.421	423.287	492.743	335.931	434.381	444.522	420.065	444.844	355.734	274.369	389.333	0.00057559	0.00076324	6.9946e-05	1407	7.8719e-06	1.3175e-05	1407.8	378.33	9.2697e-06	4.2331e-06	431.34	143.95	125.84	42.618	2.8729e-06	52.311	0.00088219	0.0008881	0.00024663	1456.4	9.6186e-06	9.6196e-06	1461.2	395.04	9.4745e-06	9.4688e-06	453.5	152.23	132.64	45.386	9.2222e-06	56.229	159.200	150.333	176.649	150.371	235.085	289.993	150.020	154.705	225.913	265.065	154.360	158.315	158.940	163.878	250.703	163.089	-8191	255	
697.642	1	1	0	0	0.21422	0.098213	0.29903	0.41503	0.28364	0.14424	0.26388	0.22826	0.33805	0.2525	0.066995	0.15665	0.22428	0.33776	0.23405	0.27136	-1.8417	-2.2	-2.5625	-2.3146	-2.35	-2.475	-2.3104	-2.6125	-2.4	-2.2708	-2.7521	-2.3625	-2.6104	-2.5979	-2.2521	-2.5875	310.278	291.966	183.560	487.768	450.010	312.532	447.216	444.618	146.193	299.792	160.580	227.689	339.027	464.855	218.779	485.982	0.00079161	0.00026547	0.00016382	1398.8	3.6598e-06	6.9718e-06	1400.3	377.7	7.125e-06	2.4624e-06	430.5	144.73	126.17	42.437	3.0854e-06	52.281	0.00084145	0.00084048	0.00023347	1447	9.1724e-06	9.1468e-06	1452.7	392.82	9.1266e-06	9.13e-06	452.05	152.25	132.25	45.17	9.073e-06	56.032	177.578	359.677	221.267	150.388	316.969	255.523	149.904	154.730	323.384	316.592	154.161	158.277	158.809	163.868	180.935	162.987	-8191	255	
697.738	1	1	0	0	0.19803	0.37914	0.21743	0.36752	0.26461	0.046579	0.35025	0.22288	0.25769	0.16533	0.2258	0.028	0.16612	0.10848	0.12747	0.38488	-1.8813	-2.1208	-2.6958	-2.5646	-2.3458	-2.5479	-2.3708	-2.6792	-2.375	-2.4021	-2.9583	-2.4062	-2.45	-2.6271	-2.1708	-2.5542	487.383	441.176	265.142	375.042	383.607	476.899	451.564	422.666	165.357	349.747	212.570	177.560	467.414	463.940	195.928	409.505	0.00070788	0.00036419	0.00015784	1398.7	7.8317e-06	1.0273e-05	1402.3	377.31	5.0861e-06	7.2108e-06	428.76	144.21	125.67	42.41	3.7749e-06	52.56	0.00083155	0.00083284	0.00023362	1445.7	9.1603e-06	9.1728e-06	1451.7	393	9.2472e-06	9.1675e-06	451.91	152.01	132.15	45.193	9.158e-06	56.159	178.234	416.370	202.411	150.333	232.512	290.264	149.934	154.728	227.909	261.363	154.355	158.010	158.738	163.902	263.174	162.946	-8191	255	
697.834	1	1	0	0	0.26441	0.098691	0.14618	0.30117	0.16307	0.26425	0.24752	0.27733	0.048643	0.057595	0.16836	0.40118	0.017062	0.37996	0.21888	0.30758	-2.0438	-2.0187	-2.4625	-2.4688	-2.3438	-2.6354	-2.2833	-2.4458	-2.4833	-2.1	-2.6854	-2.4771	-2.4521	-2.8563	-2.3271	-2.5042	417.146	331.275	254.012	476.988	361.394	364.543	477.250	352.171	429.744	332.147	482.237	446.347	204.355	401.092	190.954	468.404	0.00067913	0.00052685	0.00011259	1390.3	3.8343e-06	5.1996e-06	1395.1	376.53	5.0779e-06	5.1407e-06	428.34	144.17	125.48	42.713	1.2037e-06	52.174	0.00083273	0.00083874	0.00023405	1440.5	9.132e-06	9.1504e-06	1445.2	391.86	9.0688e-06	9.0732e-06	451.36	151.62	132.02	45.226	9.0696e-06	55.926	175.004	173.399	485.267	150.265	266.194	346.273	150.074	154.843	233.130	368.211	154.208	158.077	159.034	164.048	403.071	162.995	-8191	255	
697.955	1	1	0	0	0.23006	0.13132	0.061531	0.27086	0.08933	0.18161	0.10094	0.17478	0.14233	0.31289	0.13865	0.14271	0.092588	0.13693	0.094902	0.34138	-1.9208	-2.0875	-2.4396	-2.5896	-2.2292	-2.5667	-2.3417	-2.4354	-2.5479	-1.9896	-2.6104	-2.5271	-2.1646	-2.7021	-2.1562	-2.425	257.696	366.061	466.743	442.762	323.440	225.173	367.434	437.607	488.485	254.792	418.302	478.669	375.036	175.599	416.194	394.605	0.0007071	0.00016766	0.00014306	1396.7	6.9577e-06	1.0207e-05	1396.8	376.79	4.0323e-07	1.2683e-06	430.71	143.71	125.44	42.442	3.1152e-06	52.282	0.00082737	0.00083216	0.00023407	1442.5	9.1989e-06	9.2273e-06	1448.6	392.66	9.2611e-06	9.2697e-06	452.44	151.88	132.15	45.238	9.2866e-06	56.201	171.531	295.598	140.446	150.256	290.043	205.735	150.076	154.643	479.980	375.097	154.623	158.349	158.882	163.797	350.882	163.040	-8191	255	
698.051	1	1	0	0	0.26316	0.26971	0.16109	0.13985	0.11648	0.11404	0.18126	0.082376	0.1036	0.20342	0.25893	0.10659	0.25513	0.13132	0.21568	0.19876	-2.025	-2.1312	-2.3438	-2.5812	-2.0938	-2.6208	-2.4	-2.4229	-2.5167	-2.0187	-2.6708	-2.3354	-2.3708	-2.7938	-2.2542	-2.4938	190.633	408.181	287.050	391.956	316.727	204.875	455.342	356.143	468.281	459.359	443.807	158.046	448.000	314.445	476.604	464.828	0.00080676	0.00089274	9.3472e-05	1392.8	5.6555e-06	3.5068e-06	1401.4	377.39	3.1811e-06	4.53e-06	428.84	144.14	125.6	42.487	7.1753e-06	52.504	0.00085073	0.00085847	0.00023907	1443.5	9.3935e-06	9.4501e-06	1451.6	393.56	9.4693e-06	9.438e-06	452.51	152.45	132.81	45.344	9.5344e-06	56.37	170.378	236.062	400.443	150.406	256.215	164.875	149.842	154.767	238.478	165.844	154.372	158.609	158.491	164.190	224.536	162.870	-8191	255	
698.147	1	1	0	0	0.19464	0.21247	0.2775	0.052937	0.2402	0.13217	0.41732	0.2853	0.25573	0.28853	0.2004	0.14322	0.34697	0.089251	0.20687	0.26706	-2.2208	-2.275	-2.3979	-2.5875	-2.2229	-2.4333	-2.3979	-2.5479	-2.5917	-2.3042	-2.7125	-2.6312	-2.1729	-2.575	-2.4208	-2.4062	184.610	420.999	288.926	473.381	354.172	427.918	452.165	398.751	416.736	327.579	385.939	477.450	161.379	143.168	284.328	423.058	0.00079675	0.00034945	0.00028801	1394.6	8.0154e-06	5.3788e-06	1400.9	376.59	6.9018e-06	7.7572e-06	430.48	143.81	126.14	42.562	7.1799e-06	52.311	0.00086787	0.00087676	0.00024598	1445.9	9.6063e-06	9.6193e-06	1455	393.61	9.5746e-06	9.5654e-06	453.78	152.6	132.79	45.394	9.4611e-06	56.373	168.802	209.078	199.897	150.241	300.602	295.989	149.893	154.741	251.453	301.090	154.466	158.304	158.668	164.151	256.892	163.014	-8191	255	
698.243	1	1	0	0	0.11044	0.12143	0.20035	0.11757	0.14389	0.11157	0.32777	0.31731	0.20886	0.031915	0.24445	0.18042	0.086924	0.18509	0.26587	0.217	-2.0667	-2.1917	-2.4188	-2.6688	-2.2167	-2.4625	-2.6479	-2.5312	-2.6417	-2.1542	-2.3917	-2.5521	-2.1917	-2.6063	-2.3708	-2.4938	275.898	256.077	184.643	469.253	456.550	272.865	455.269	451.767	445.256	398.925	445.504	495.908	203.446	413.885	458.133	189.846	0.00083328	0.00010638	0.00020312	1392.2	5.4308e-06	8.7254e-06	1394.3	376.43	6.8053e-06	3.6119e-06	428.65	143.33	124.97	42.436	7.5576e-06	52.434	0.00085699	0.00085985	0.0002398	1441	9.2891e-06	9.3211e-06	1447.1	392.74	9.2494e-06	9.2862e-06	452.05	151.69	132.02	45.2	9.2859e-06	56.156	171.332	327.614	162.040	150.417	239.468	365.388	149.897	154.694	250.646	293.799	154.506	158.210	158.663	163.789	230.393	163.186	-8191	255	
698.339	1	1	0	0	0.31186	0.066769	0.22667	0.29708	0.14248	0.079251	0.12261	0.17024	0.11778	0.050428	0.33665	0.15551	0.29447	0.16831	0.19893	0.33995	-2.0104	-2.2771	-2.0979	-2.6458	-2.2083	-2.4542	-2.75	-2.3542	-2.6521	-2.3271	-2.1437	-2.5896	-2.1354	-2.4104	-2.3812	-2.0938	215.602	192.795	300.916	485.213	188.448	234.508	390.340	470.552	436.984	208.264	422.637	401.031	496.759	162.495	282.849	404.342	0.00074315	0.00047219	0.00022415	1391.9	9.284e-06	1.1446e-05	1391.9	378.26	5.3871e-06	5.1734e-06	429.24	143.9	125.99	42.714	6.5786e-06	52.511	0.00084515	0.00084754	0.00023624	1439.2	9.2576e-06	9.278e-06	1446.3	392.73	9.2268e-06	9.2203e-06	452.46	151.93	132.25	45.238	9.1696e-06	56.11	149.260	220.464	417.591	150.438	323.963	325.191	149.881	154.771	236.283	262.645	154.257	158.297	158.991	164.050	410.292	162.873	-8191	255	
698.435	1	1	0	0	0.1949	0.33509	0.27817	0.21316	0.080595	0.1929	0.065472	0.22041	0.072955	0.11273	0.16428	0.15847	0.11015	0.050267	0.18795	0.11941	-2.0917	-2.2771	-2.1188	-2.6146	-2.1271	-2.3688	-2.6604	-2.3625	-2.4625	-2.3125	-2.2625	-2.475	-2.1354	-2.525	-2.6271	-2.2667	387.200	286.020	236.846	437.881	211.067	163.316	407.714	351.268	309.649	391.849	256.559	203.104	328.010	205.330	451.822	266.257	0.00071085	0.00071094	0.00039791	1389.9	3.6938e-06	2.9899e-07	1394.5	376.83	4.9931e-06	6.4503e-06	429	144.19	125.68	42.499	8.4224e-06	52.314	0.00083306	0.00083826	0.00023477	1439.3	9.1308e-06	9.1256e-06	1444.6	391.82	9.0595e-06	9.0536e-06	451.31	151.81	132.05	45.143	8.999e-06	56.069	163.777	149.844	254.352	150.312	291.893	387.309	149.862	154.743	213.857	234.178	154.393	158.270	158.792	163.919	252.317	163.031	-8191	255	
698.531	1	1	0	0	0.098358	0.12412	0.20596	0.28315	0.055323	0.12011	0.12139	0.16059	0.048374	0.27527	0.029898	0.24367	0.16885	0.1378	0.078294	0.19103	-1.7563	-2.3729	-2.1583	-2.8167	-2.3771	-2.4	-2.6854	-2.2812	-2.4562	-2.4792	-2.4125	-2.8083	-2.4604	-2.2417	-2.6208	-2.2583	392.609	423.059	431.894	145.503	494.915	368.339	206.343	423.324	427.231	163.057	230.198	415.013	445.961	382.194	252.884	477.286	0.00065875	0.00076927	9.2322e-05	1387.3	4.1212e-06	1.6262e-05	1393.7	377.97	7.3107e-06	6.9934e-06	430.11	143.56	125.04	42.673	6.1426e-06	52.367	0.00082941	0.00083389	0.00023162	1437.4	9.1263e-06	9.1206e-06	1443.1	392.79	9.0965e-06	9.0867e-06	450.96	151.68	131.93	45.283	8.9895e-06	56.006	157.522	220.637	180.869	150.396	247.267	278.865	149.803	154.904	239.583	236.273	154.247	158.689	158.684	163.915	337.937	162.742	-8191	255	
698.650	1	1	0	0	0.093659	0.049016	0.24051	0.17115	0.19452	0.31151	0.33515	0.35198	0.35224	0.18227	0.28204	0.10841	0.27949	0.35384	0.10875	0.036193	-1.8125	-2.3458	-2.0396	-2.875	-2.3042	-2.2062	-2.9354	-2.5312	-2.275	-2.5458	-2.2729	-2.6167	-2.35	-2.0917	-2.5312	-2.3542	373.367	471.593	458.790	470.267	163.285	368.557	431.260	443.654	253.723	339.360	439.613	485.786	465.283	485.910	352.405	330.827	0.00061508	0.00040518	0.00014216	1385.7	2.5219e-06	3.5309e-06	1394.1	378.73	4.3014e-06	7.0268e-06	428.62	144.43	125.7	42.585	3.4871e-06	52.383	0.00082585	0.00083234	0.00023259	1435.2	9.0606e-06	9.1065e-06	1446	392.3	9.0976e-06	9.0587e-06	451.51	151.88	132.23	45.259	9.0342e-06	56.03	173.449	173.563	242.809	150.374	209.043	364.068	150.249	154.766	222.627	293.024	154.215	158.324	158.726	164.072	309.739	162.986	-8191	255	
698.746	1	1	0	0	0.13319	0.11041	0.21305	0.28474	0.18481	0.16827	0.12705	0.12275	0.11856	0.09273	0.23896	0.35005	0.16317	0.39101	0.12797	0.39814	-1.9125	-2.3563	-1.9625	-2.6125	-2.5583	-2.0479	-2.85	-2.225	-2.3208	-2.5042	-2.2396	-2.4604	-2.4521	-2.2375	-2.5333	-2.4792	486.681	428.188	339.185	435.960	213.488	376.365	437.492	416.719	394.591	332.369	140.271	409.924	463.475	429.609	243.593	424.716	0.00066673	0.0005851	0.00012016	1389.5	5.7996e-06	3.949e-06	1397.3	379.22	1.154e-05	1.4214e-05	428.4	144.56	125.79	42.722	2.3921e-06	52.418	0.00081785	0.00081946	0.000228	1435.8	8.8724e-06	8.8926e-06	1443.6	391.8	8.8364e-06	8.8425e-06	450.45	151.53	131.83	45.22	8.8109e-06	56.008	181.778	216.477	184.674	150.317	313.023	388.489	149.787	154.836	225.515	272.253	154.382	158.611	158.770	163.949	251.968	163.024	-8191	255	
698.843	1	1	0	0	0.023149	0.15415	0.18745	0.32472	0.19192	0.27497	0.29924	0.35917	0.14462	0.21612	0.22164	0.049857	0.22069	0.24559	0.11434	0.096529	-1.875	-2.525	-2.1729	-2.4604	-2.4188	-2.2979	-2.8563	-2.5583	-2.1333	-2.6042	-2.2729	-2.5521	-2.4792	-2.2771	-2.5042	-2.4729	471.566	314.323	356.406	449.005	309.218	259.863	438.281	400.368	182.172	214.577	416.701	144.597	475.232	389.479	209.915	410.003	0.00074	0.00049213	0.00016622	1391.2	6.3302e-06	8.3785e-06	1392.6	377.67	9.7676e-06	5.7287e-06	428.72	144.57	125.51	42.724	6.1732e-06	52.255	0.00080522	0.00081557	0.00022668	1436.2	8.8576e-06	8.8383e-06	1441.6	391.54	8.8162e-06	8.8178e-06	449.52	151.6	131.69	45.146	8.8324e-06	55.887	162.682	184.833	228.192	150.406	202.162	305.282	149.994	154.731	235.663	241.364	154.323	158.376	159.056	164.081	277.661	162.999	-8191	255	
698.939	1	1	0	0	0.11905	0.16299	0.094297	0.13626	0.016285	0.16538	0.28844	0.24516	0.1568	0.11231	0.23966	0.17331	0.092339	0.1164	0.33456	0.19717	-1.7854	-2.4583	-2.0333	-2.5375	-2.4646	-2.2979	-2.6896	-2.4562	-2.2875	-2.6021	-2.3521	-2.3417	-2.6625	-2.1688	-2.3396	-2.325	437.735	187.999	341.558	467.126	243.662	423.331	402.454	363.377	317.467	493.042	186.205	192.357	496.075	467.656	458.318	283.424	0.00070113	0.00046211	0.00015566	1384.5	1.0209e-05	1.7763e-06	1390.1	377.19	1.5183e-05	4.3403e-06	427.53	143.94	125.73	42.651	7.9616e-06	52.513	0.00080595	0.00081101	0.000226	1433.5	8.8869e-06	8.9429e-06	1440.9	391.25	8.8726e-06	8.8422e-06	449.58	151.23	131.66	45.107	8.8915e-06	55.879	174.106	220.217	140.612	150.352	253.038	147.889	150.036	154.649	276.256	239.611	154.162	158.485	158.938	163.970	324.624	162.807	-8191	255	
699.035	1	1	0	0	0.15631	0.3497	0.16098	0.61216	0.12411	0.29881	0.079127	0.20545	0.069963	0.1689	0.044081	0.15416	0.18966	0.29788	0.15459	0.11379	-1.9125	-2.4854	-2.0917	-2.4521	-2.6229	-2.2292	-2.5938	-2.4417	-2.2646	-2.5062	-2.4854	-2.4896	-2.4375	-2.2313	-2.4146	-2.475	268.683	480.890	209.194	483.415	438.006	189.914	150.053	488.501	182.354	248.663	234.347	187.001	154.529	439.921	484.350	447.573	0.00065152	0.00037699	0.00011104	1389.2	4.7525e-06	2.1023e-06	1398.3	376.71	7.4282e-06	1.1245e-05	428.01	143.6	125.27	42.546	2.3553e-06	52.409	0.00081299	0.00081256	0.00022687	1435.9	8.9542e-06	8.9482e-06	1442.6	391.13	8.9942e-06	8.935e-06	450.19	151.42	131.78	45.158	8.9496e-06	55.934	174.971	200.914	478.571	150.438	226.442	459.666	149.825	154.596	216.131	285.194	154.501	158.404	158.786	164.191	311.663	163.051	-8191	255	
699.131	1	1	0	0	0.1355	0.32209	0.1287	0.10073	0.12815	0.044732	0.19934	0.089007	0.080163	0.075052	0.24377	0.23241	0.011155	0.18931	0.10392	0.11506	-1.6583	-2.6604	-2.2917	-2.4604	-2.4979	-2.0938	-2.5333	-2.65	-2.2542	-2.7167	-2.5229	-2.4042	-2.7708	-2.3583	-2.4938	-2.8479	480.975	205.177	142.486	401.459	157.622	445.754	476.432	437.954	494.116	469.850	407.031	174.359	153.829	138.528	241.479	473.204	0.00076802	0.00054319	0.00022245	1388.7	5.6195e-06	5.08e-06	1387.4	377.39	9.4194e-06	5.8146e-06	430.29	144.73	125.14	42.359	7.0012e-06	52.134	0.0008178	0.00082255	0.00022955	1434.8	9.0053e-06	9.0569e-06	1442.3	392.13	9.0466e-06	9.035e-06	451.58	151.85	131.78	45.114	9.0846e-06	55.961	173.553	275.332	146.727	150.393	268.189	344.262	150.028	154.910	213.913	368.100	154.313	158.451	158.812	163.970	222.066	162.857	-8191	255	
699.252	1	1	0	0	0.23094	0.23966	0.15061	0.1444	0.18652	0.22763	0.23743	0.23511	0.03358	0.27207	0.23865	0.19143	0.21678	0.28623	0.22623	0.076409	-1.6583	-2.5333	-2.4354	-2.3458	-2.525	-2.3208	-2.6396	-2.6646	-2.2271	-2.4042	-2.475	-2.3937	-2.6604	-2.4167	-2.3708	-2.8125	304.693	346.135	411.283	471.153	435.129	326.555	431.322	445.361	370.417	495.481	390.365	461.818	396.215	442.544	385.995	467.475	0.00078287	4.3495e-05	0.00016409	1385.3	4.0319e-06	4.9194e-06	1387.3	377.14	1.1413e-05	7.756e-06	427.94	144.64	125.49	42.468	7.8351e-06	52.234	0.00083372	0.00083907	0.00023426	1436.6	9.1693e-06	9.1723e-06	1442.6	392.12	9.1978e-06	9.1992e-06	450.8	151.97	131.87	45.167	9.0889e-06	55.99	175.048	324.223	407.891	150.564	332.158	237.979	149.992	154.819	283.631	304.756	154.495	158.333	158.852	163.783	267.825	163.084	-8191	255	
699.348	1	1	0	0	0.18938	0.31304	0.19661	0.25319	0.067246	0.11886	0.013051	0.36093	0.19926	0.013462	0.045795	0.36779	0.21368	0.12478	0.16881	0.14835	-1.6354	-2.4521	-2.3792	-2.2792	-2.4646	-2.2208	-2.575	-2.8625	-2.0396	-2.5458	-2.7271	-2.1979	-2.7333	-2.4125	-2.1021	-2.5229	439.672	450.831	379.754	442.598	264.677	258.009	392.541	485.807	346.662	331.906	247.549	449.309	463.481	256.470	185.889	357.230	0.00075381	0.00055803	0.00037573	1390	4.6778e-06	8.1241e-06	1393.7	377.74	8.4597e-06	7.204e-06	428.37	143.69	125.81	42.613	8.6839e-06	52.599	0.00082996	0.00083583	0.00023262	1435	9.1002e-06	9.0861e-06	1443.3	392.12	9.0935e-06	9.1593e-06	450.9	151.76	131.94	45.172	9.1271e-06	56.01	177.589	176.470	217.177	150.186	178.215	297.165	149.864	154.574	249.648	210.660	154.525	158.435	158.752	164.081	259.627	162.846	-8191	255	
699.442	1	1	0	0	0.12953	0.31428	0.17596	0.13458	0.22632	0.25718	0.28598	0.36099	0.11952	0.18794	0.19132	0.086893	0.23415	0.22264	0.072406	0.28004	-1.7167	-2.3146	-2.4896	-2.3396	-2.6125	-2.5167	-2.4521	-2.9167	-2.2313	-2.3146	-2.7	-2.3438	-2.5062	-2.2646	-1.9479	-2.7667	455.226	342.277	463.484	160.258	438.279	187.227	462.087	476.838	452.347	149.870	415.023	451.422	416.728	159.807	420.095	430.837	0.00066729	0.00036645	6.0179e-05	1387.1	7.089e-06	5.524e-06	1392.4	376.53	5.3872e-06	1.0327e-05	428.15	144.5	125.66	42.527	6.5142e-06	52.025	0.00083686	0.00084141	0.00023502	1437.6	9.2863e-06	9.2627e-06	1445.2	392.17	9.2231e-06	9.2323e-06	450.53	151.78	131.76	45.072	8.9948e-06	55.907	176.013	249.111	449.680	150.628	239.958	234.926	149.855	154.441	217.055	359.945	153.982	158.187	159.041	163.908	265.607	163.109	-8191	255	
699.516	1	1	0	0	0.12354	0.15814	0.10252	0.34528	0.24815	0.1765	0.17345	0.1899	0.02412	0.31049	0.32887	0.063131	0.37926	0.10696	0.1033	0.28038	-1.7229	-2.3542	-2.4167	-2.3417	-2.5104	-2.3937	-2.2583	-2.6479	-2.4313	-2.4688	-2.6271	-2.1375	-2.5917	-2.4562	-2.3125	-2.5375	176.670	454.919	168.690	480.425	464.013	426.854	450.549	494.719	378.689	488.712	160.973	399.094	237.552	430.702	371.266	172.427	0.00051207	0.00035451	0.0003154	1383.1	6.6911e-06	2.2766e-06	1389.6	377.09	2.883e-06	6.446e-06	426.63	144.29	125.74	42.553	1.0833e-06	52.347	0.00081652	0.00081566	0.00022686	1431.2	8.8493e-06	8.8426e-06	1438.7	390.85	8.8319e-06	8.8499e-06	448.86	151.45	131.6	45.078	8.8552e-06	55.897	176.036	136.954	311.732	150.616	270.210	404.650	149.942	154.549	376.616	312.898	154.304	158.668	159.140	163.822	353.096	163.204	-8191	255	
699.635	1	1	0	0	0.12809	0.37843	0.22198	0.30208	0.17317	0.067624	0.28418	0.12754	0.37861	0.23123	0.15711	0.31298	0.18323	0.086693	0.014799	0.071182	-1.6583	-2.2687	-2.3896	-2.4375	-2.4042	-2.5667	-2.2896	-2.7438	-2.3063	-2.1937	-2.6292	-2.3021	-2.5229	-2.3729	-2.1708	-2.5167	190.284	162.983	141.156	456.396	183.245	298.222	386.881	172.266	350.693	410.235	434.384	461.722	476.697	437.057	448.587	467.757	0.00080763	3.8099e-05	0.00047503	1381.8	3.9748e-06	7.622e-06	1387.5	375.99	6.8791e-06	5.6909e-06	427.24	143.81	124.84	42.532	1.7049e-06	52.505	0.00081018	0.00081401	0.00022726	1430.8	8.9717e-06	8.9902e-06	1438.6	391.59	9.0396e-06	9.0365e-06	449.91	151.53	131.55	45.146	9.0718e-06	55.931	165.559	200.990	206.479	150.214	286.931	251.733	150.115	154.948	269.626	316.458	154.421	158.363	158.868	163.745	226.383	162.942	-8191	255	
699.731	1	1	0	0	0.25317	0.18573	0.069122	0.19384	0.23855	0.26027	0.33607	0.31754	0.10504	0.17119	0.23476	0.15625	0.27103	0.13996	0.46892	0.1249	-1.975	-2.125	-2.5479	-2.3875	-2.3021	-2.4062	-2.3771	-2.625	-2.2833	-2.1562	-2.8	-2.4521	-2.5021	-2.4813	-2.1271	-2.5438	266.726	297.276	212.860	174.150	363.908	464.008	404.108	418.807	261.044	423.827	440.986	432.568	485.121	472.867	240.395	237.863	0.00074197	0.00061179	0.00015528	1378.2	3.3498e-06	1.255e-06	1386	375.34	1.0776e-05	6.0494e-06	428.04	143.68	125.06	42.431	3.418e-06	52.266	0.00082885	0.00083423	0.00023168	1429.8	9.0581e-06	9.0302e-06	1437.1	390.68	9.0211e-06	8.9911e-06	449.94	151.44	131.61	45.097	8.9447e-06	55.947	162.902	155.405	228.610	150.420	261.763	443.951	149.844	154.801	227.519	248.163	154.583	158.269	158.869	163.956	254.645	163.083	-8191	255	
699.827	1	1	0	0	0.036796	0.29046	0.086186	0.25892	0.12374	0.10338	0.25357	0.16802	0.065239	0.091019	0.22831	0.12733	0.18271	0.012899	0.16917	0.21227	-2.025	-2.0604	-2.6333	-2.4708	-2.1375	-2.4875	-2.4271	-2.625	-2.4667	-2.1437	-2.5958	-2.3688	-2.3583	-2.5438	-2.0854	-2.5792	210.144	385.377	137.590	451.324	427.995	234.895	455.999	410.891	283.390	338.020	457.767	400.496	147.237	290.792	317.051	370.316	0.00078471	0.00018102	6.7624e-05	1385.5	5.8541e-06	3.0963e-06	1390.9	377.25	8.2674e-06	7.3324e-06	430.44	143.85	125.44	42.558	7.4186e-06	52.376	0.00081685	0.00082264	0.00023043	1432.2	9.0282e-06	9.0324e-06	1441.4	392.01	9.0483e-06	9.0747e-06	451.66	151.8	132.02	45.271	9.1307e-06	56.15	160.998	197.259	357.440	150.411	278.970	142.551	149.931	154.710	253.674	398.391	154.421	158.137	158.705	164.035	469.920	163.014	-8191	255	
699.923	1	1	0	0	0.22669	0.11326	0.17693	0.099917	0.26724	0.10588	0.12519	0.17942	0.10343	0.38066	0.19792	0.17407	0.36786	0.24042	0.040984	0.090651	-2.0583	-1.9479	-2.5708	-2.4792	-2.1562	-2.4437	-2.4208	-2.4229	-2.4375	-2.1937	-2.7479	-2.2083	-2.3542	-2.7125	-2.2042	-2.4917	222.937	137.657	433.892	378.273	315.740	364.538	404.289	393.443	325.823	385.688	418.477	437.965	438.020	488.476	257.605	329.618	0.00066241	0.00046116	0.0002504	1389.6	8.043e-06	2.11e-06	1393.5	377.32	5.6956e-06	3.73e-06	428.23	144.05	125.62	42.651	9.4593e-06	52.421	0.00084323	0.00085017	0.00023703	1439.4	9.3015e-06	9.337e-06	1445.5	392.8	9.2693e-06	9.2255e-06	451.78	151.97	132.26	45.231	9.0388e-06	56.044	160.754	253.635	245.928	150.596	249.531	260.088	149.975	154.606	242.447	243.514	154.495	158.252	158.943	163.735	249.010	163.048	-8191	255	
700.044	1	1	0	0	0.10834	0.20617	0.28418	0.23584	0.12118	0.1081	0.29335	0.30186	0.21566	0.09512	0.14136	0.20637	0.26363	0.24446	0.14967	0.15332	-2.0062	-2.1146	-2.4938	-2.625	-2.0938	-2.5	-2.4167	-2.6208	-2.3917	-2.1104	-2.725	-2.6083	-2.1792	-2.7229	-2.2875	-2.4271	360.658	463.383	217.330	412.079	242.834	175.996	415.752	142.161	477.834	371.644	169.592	183.752	397.856	175.030	384.720	291.249	0.00079731	0.00016293	0.0001099	1387.5	8.5558e-06	3.9443e-06	1390	376.64	6.9522e-06	4.6973e-06	430.75	143.8	125.62	42.666	1.0678e-05	52.512	0.00081904	0.00082116	0.00022713	1433	8.8939e-06	8.9281e-06	1438.5	391.4	8.8382e-06	8.8214e-06	450.05	151.25	131.74	45.146	8.8534e-06	55.907	171.103	180.657	359.555	150.270	266.258	283.420	149.909	154.671	366.772	329.837	154.292	158.618	158.928	164.076	294.404	163.017	-8191	255	
700.115	1	1	0	0	0.27829	0.19428	0.30816	0.32216	0.078929	0.24138	0.17979	0.11352	0.24254	0.23758	0.11434	0.038533	0.1738	0.11677	0.10784	0.094546	-2.0479	-2.2125	-2.3375	-2.6688	-2.1146	-2.7021	-2.6292	-2.4458	-2.5687	-2.0917	-2.475	-2.5812	-2.3187	-2.6437	-2.3063	-2.3688	308.146	473.783	371.676	469.186	326.689	264.898	442.957	205.162	329.571	223.418	482.622	465.276	445.711	216.870	172.261	272.018	0.00073476	0.00030061	0.00019312	1379.9	5.3424e-06	2.7527e-06	1387.2	377.86	1.1814e-05	6.0314e-06	427.16	143.64	125.83	42.559	3.9502e-06	52.421	0.0008094	0.00081807	0.00022652	1429	8.896e-06	8.9443e-06	1438.1	391.72	8.9307e-06	8.9613e-06	449.91	151.42	132.01	45.161	8.9468e-06	56.053	156.457	239.222	257.001	150.349	257.144	281.245	149.932	154.904	264.259	337.256	154.333	158.184	158.795	164.144	233.487	163.131	-8191	255	
700.211	1	1	0	0	0.17439	0.066938	0.021882	0.19746	0.11964	0.13913	0.33389	0.18331	0.2857	0.05155	0.39779	0.24298	0.11494	0.119	0.2047	0.22153	-1.9292	-2.1833	-2.3417	-2.5812	-2.0854	-2.625	-2.6125	-2.1458	-2.5833	-2.4188	-2.5625	-2.6312	-2.3604	-2.6354	-2.4854	-2.5042	313.692	461.136	156.470	136.968	486.619	428.118	142.183	442.088	380.296	422.320	137.732	403.899	399.646	474.742	269.043	341.380	0.00085115	0.00038263	0.00027432	1384	5.4391e-06	2.8624e-06	1387.3	376.89	2.2596e-06	6.4336e-06	429.17	144.4	125.41	42.453	6.0962e-06	52.462	0.00081813	0.00082173	0.00022894	1432.4	8.9791e-06	8.9823e-06	1438.8	391.59	8.961e-06	8.8853e-06	450.34	151.6	131.68	45.107	8.8307e-06	55.93	169.505	244.931	496.165	150.414	284.817	200.121	150.138	154.891	210.632	293.442	154.300	158.375	158.915	163.681	268.444	163.204	-8191	255	
700.332	1	1	0	0	0.22712	0.1741	0.15021	0.12796	0.18118	0.07119	0.39109	0.057806	0.12279	0.26609	0.078741	0.29827	0.2938	0.25115	0.066296	0.13994	-2.0667	-2.3187	-2.1792	-2.7125	-2.2062	-2.6667	-2.5479	-2.2812	-2.7375	-2.3208	-2.4938	-2.6396	-2.3021	-2.3229	-2.5229	-2.3083	254.871	425.099	278.143	479.431	389.281	303.427	427.177	447.244	449.139	483.255	168.163	211.381	145.814	251.728	445.740	484.138	0.00075401	0.00023497	0.00011398	1386	7.3165e-06	6.2942e-06	1390.9	377.35	6.6316e-06	4.0673e-06	427.79	143.81	125.45	42.618	8.9006e-06	52.528	0.00081086	0.00081323	0.00022601	1430.8	8.8707e-06	8.8663e-06	1438.3	391.8	8.8391e-06	8.8469e-06	449.42	151.18	131.67	45.08	8.8081e-06	55.839	176.700	171.381	246.588	150.344	345.929	312.615	149.991	154.919	263.697	380.114	154.393	158.398	158.811	164.054	254.717	163.179	-8191	255	
700.428	1	1	0	0	0.13023	0.22837	0.14435	0.28203	0.15991	0.3525	0.36653	0.23214	0.30767	0.13708	0.11657	0.24944	0.090124	0.20933	0.15526	0.31381	-2.0083	-2.3146	-2.2583	-2.8625	-2.3083	-2.3521	-2.7208	-2.3312	-2.5104	-2.4188	-2.3521	-2.6083	-2.3292	-2.4979	-2.5042	-2.1063	407.880	307.978	443.142	468.436	486.171	324.913	425.076	460.704	299.952	344.627	446.149	280.174	460.303	168.699	483.030	152.585	0.00068845	0.0011372	0.00036182	1378.1	1.7677e-06	7.8133e-06	1384.7	376.25	5.3228e-06	1.2047e-05	428.64	144.07	125.22	42.602	1.9851e-06	52.416	0.0008042	0.00080655	0.00022507	1427.3	8.8123e-06	8.8797e-06	1435.1	390.65	8.7981e-06	8.834e-06	448.89	151.43	131.53	45.071	8.7103e-06	55.848	166.284	149.146	232.721	150.586	256.381	272.444	150.005	154.886	205.890	321.210	154.405	158.232	158.876	164.247	295.885	163.259	-8191	255	
700.524	1	1	0	0	0.2275	0.22461	0.16028	0.18162	0.063767	0.069942	0.34427	0.30716	0.052649	0.12392	0.10028	0.16104	0.36376	0.22383	0.065276	0.060574	-2.2229	-2.2333	-2.1417	-2.8146	-2.1729	-2.3604	-2.8542	-2.3	-2.5354	-2.4146	-2.3958	-2.5062	-2.3708	-2.5667	-2.5792	-2.2042	253.549	245.773	165.983	460.423	294.220	365.754	378.727	490.771	469.717	372.313	211.869	451.800	379.109	219.937	385.945	166.590	0.00077843	0.00045451	0.00010376	1383.5	1.1512e-05	6.3151e-06	1386.8	377.07	1.0201e-05	6.2578e-06	430.89	143.91	125.27	42.525	4.6625e-06	52.306	0.00079774	0.00079868	0.00022223	1427.6	8.7168e-06	8.6907e-06	1436.3	390.56	8.6176e-06	8.6426e-06	449.75	150.97	131.43	45.051	8.5866e-06	55.712	165.852	235.195	238.416	150.481	266.980	244.515	149.925	155.016	254.855	263.693	154.822	158.133	158.823	163.958	251.022	162.976	-8191	255	
700.643	1	1	0	0	0.18291	0.074729	0.23228	0.2253	0.11344	0.089776	0.20411	0.44254	0.061007	0.11084	0.25106	0.19693	0.14992	0.11306	0.13602	0.1014	-1.9937	-2.3396	-2.15	-2.8229	-2.2333	-2.4062	-2.7812	-2.1021	-2.4729	-2.4542	-2.2708	-2.5812	-2.3958	-2.2896	-2.6188	-2.2208	257.453	291.045	200.014	464.649	201.887	439.190	481.049	411.240	441.342	364.193	140.828	461.409	496.257	224.350	299.524	320.609	0.00064035	0.00070757	0.00010276	1381.7	7.1251e-06	4.5027e-06	1387.1	377.68	4.9546e-06	1.5251e-06	429.17	143.96	125	42.666	5.1082e-06	52.269	0.00078051	0.00078723	0.00021857	1426.2	8.5584e-06	8.5635e-06	1433.1	390.63	8.5272e-06	8.5232e-06	448.03	150.87	131.06	44.936	8.5481e-06	55.773	166.352	233.739	194.896	150.280	251.336	175.912	149.927	154.664	245.069	408.892	154.354	158.442	158.723	164.098	240.508	163.240	-8191	255	
700.739	1	1	0	0	0.14072	0.19458	0.16624	0.27437	0.25268	0.15882	0.12684	0.089705	0.17438	0.17065	0.39862	0.11948	0.22072	0.092825	0.32861	0.16827	-1.9958	-2.5062	-2.15	-2.8937	-2.4708	-2.375	-2.8854	-2.3771	-2.475	-2.3521	-2.1604	-2.75	-2.4229	-2.3729	-2.5729	-2.3229	354.629	315.224	289.306	465.029	261.562	343.070	422.064	425.516	366.162	337.951	459.426	414.758	311.237	420.294	355.371	241.994	0.00084553	0.00031597	0.00012421	1382.2	4.7932e-06	5.8907e-06	1385.3	376.27	8.0155e-06	7.288e-06	428.04	144.08	125.78	42.606	4.1367e-06	52.173	0.00078319	0.00078702	0.00021991	1425.5	8.6592e-06	8.6212e-06	1433.6	390.12	8.6303e-06	8.6943e-06	447.93	151.01	131.41	44.997	8.6132e-06	55.661	163.640	137.634	168.986	150.478	190.192	342.291	149.916	154.832	263.098	377.394	154.439	158.369	158.956	163.888	198.626	163.204	-8191	255	
700.811	1	1	0	0	0.12563	0.118	0.035893	0.010242	0.088933	0.15518	0.36112	0.30495	0.073159	0.097948	0.15245	0.21714	0.16082	0.06464	0.2183	0.032014	-1.8479	-2.5042	-2.1896	-2.7083	-2.5854	-2.2062	-2.6875	-2.3729	-2.2583	-2.4375	-2.3771	-2.5208	-2.5229	-2.4667	-2.5	-2.4688	274.723	138.478	322.866	152.586	479.390	327.842	444.647	444.663	250.182	193.767	494.431	451.293	318.898	245.983	338.322	430.805	0.00072106	5.2571e-05	0.0001598	1383.1	6.323e-06	5.1542e-06	1386.1	376.31	2.5046e-06	2.1018e-06	425.2	143.92	125.64	42.378	6.1649e-06	52.418	0.00079063	0.00079009	0.00021935	1425.6	8.571e-06	8.635e-06	1430.6	389.95	8.5604e-06	8.5497e-06	446.98	150.68	131.15	44.911	8.4869e-06	55.689	168.167	444.902	346.631	150.418	281.788	225.020	150.093	154.924	257.889	410.404	154.197	158.363	158.772	163.871	217.714	162.727	-8191	255	
700.932	1	1	0	0	0.3183	0.29887	0.17826	0.19652	0.11724	0.14365	0.11357	0.38469	0.032734	0.22115	0.30477	0.031116	0.13687	0.1439	0.054647	0.19287	-2.0396	-2.4167	-2.0417	-2.6083	-2.4938	-2.2875	-2.6521	-2.2667	-2.0938	-2.6646	-2.1063	-2.4021	-2.5833	-2.1479	-2.7479	-2.3875	423.248	276.393	403.282	478.460	374.670	235.972	402.104	463.377	247.759	354.286	449.151	427.992	459.955	145.393	262.166	422.653	0.00081881	0.00053921	0.00013089	1379.1	3.7904e-06	5.6486e-06	1388.5	376.75	4.5276e-06	7.7338e-06	429.45	144	125.58	42.378	5.3439e-06	52.583	0.00077845	0.00078339	0.00021652	1424.4	8.5257e-06	8.5408e-06	1431.7	389.92	8.4696e-06	8.5166e-06	447.59	150.83	131.13	44.86	8.6343e-06	55.776	170.780	230.137	236.028	150.385	151.154	394.724	149.908	154.742	271.054	292.308	154.386	158.164	158.927	164.235	216.743	163.082	-8191	255	
701.028	1	1	0	0	0.21681	0.19626	0.14624	0.059047	0.092703	0.14786	0.43676	0.079332	0.033642	0.2144	0.22699	0.23324	0.26129	0.23359	0.21996	0.010415	-1.7396	-2.4417	-2.1042	-2.5042	-2.5917	-2.175	-2.6333	-2.6	-2.3208	-2.5812	-2.375	-2.6917	-2.6021	-2.2771	-2.5312	-2.575	219.055	444.709	346.778	332.545	292.847	295.983	427.481	305.320	173.849	496.719	492.845	483.126	436.235	488.091	194.180	411.737	0.00069321	0.00066622	0.00013813	1380.8	1.6328e-06	8.4e-07	1383.9	375.48	6.6036e-06	8.5563e-06	427.21	144.19	125.88	42.827	4.6213e-06	52.634	0.00078966	0.00079505	0.00022172	1425.1	8.6995e-06	8.697e-06	1433.9	390.05	8.6755e-06	8.7187e-06	447.82	151.06	131.33	45.022	8.6735e-06	55.862	165.121	321.653	202.382	150.506	327.266	197.954	149.911	154.832	174.042	258.392	154.517	158.170	158.714	164.118	282.667	163.043	-8191	255	
701.124	1	1	0	0	0.04993	0.13507	0.029392	0.22142	0.035496	0.18563	0.37639	0.24735	0.18221	0.15374	0.15698	0.12037	0.17698	0.27446	0.026695	0.10276	-1.5708	-2.7271	-2.4062	-2.6562	-2.5417	-2.4271	-2.4896	-2.5896	-2.2208	-2.6583	-2.5	-2.4688	-2.6958	-2.3125	-2.3604	-2.3521	177.502	391.141	149.562	448.928	195.798	217.178	436.415	402.152	350.104	138.380	140.260	472.859	352.306	458.384	465.599	228.412	0.0006306	0.00024083	0.00024604	1384.3	6.9169e-06	5.4908e-06	1388.3	375.73	9.7098e-06	3.6092e-06	427.16	144.08	125.81	42.634	4.9026e-06	52.518	0.00079765	0.00080066	0.00022369	1427.2	8.7442e-06	8.788e-06	1436.3	390.65	8.6537e-06	8.6249e-06	448	150.77	131.33	44.91	8.4552e-06	55.656	175.652	244.112	164.423	150.501	284.954	347.433	149.985	154.863	178.105	293.105	154.329	158.388	158.676	164.183	307.010	163.052	-8191	255	
701.220	1	1	0	0	0.11802	0.13969	0.1492	0.21816	0.23868	0.15528	0.33399	0.41758	0.20897	0.1935	0.14273	0.084032	0.044872	0.18145	0.15503	0.31061	-1.6104	-2.4792	-2.2333	-2.4979	-2.5521	-2.2375	-2.3875	-2.6042	-2.1437	-2.6708	-2.3896	-2.4562	-2.7542	-2.3917	-2.5583	-2.7271	229.774	417.617	287.828	392.495	282.096	179.783	416.506	450.864	252.991	218.824	179.746	434.552	460.804	392.249	391.228	421.516	0.00068106	0.00018946	3.6317e-05	1378.2	3.9587e-06	2.6523e-06	1386.3	376.88	4.5517e-06	6.8713e-06	426.86	143.61	125.25	42.513	9.4083e-06	52.35	0.00077951	0.00077783	0.00021698	1423.6	8.4217e-06	8.4773e-06	1430	389.95	8.4193e-06	8.4278e-06	446.53	150.34	130.81	44.841	8.4807e-06	55.614	167.909	251.715	248.978	150.564	280.193	264.059	150.001	154.577	172.806	279.900	154.436	158.301	158.806	164.115	270.462	163.111	-8191	255	
701.339	1	1	0	0	0.10072	0.19356	0.10833	0.28252	0.17546	0.3007	0.14726	0.32223	0.20647	0.13412	0.11333	0.23387	0.12938	0.039348	0.1644	0.11294	-1.7021	-2.3083	-2.3833	-2.3354	-2.65	-2.2938	-2.4479	-2.6479	-2.3167	-2.4896	-2.6604	-2.4167	-2.8042	-2.275	-2.3292	-2.8583	164.981	153.303	305.009	385.743	435.825	465.359	160.741	411.501	147.281	329.968	434.259	150.123	482.725	223.166	462.832	451.229	0.00079137	0.00027588	0.00017088	1377.9	4.5391e-06	8.8872e-07	1384.6	375.8	7.638e-06	4.2048e-06	428.14	143.35	125.43	42.542	6.6847e-06	52.27	0.00077705	0.00078021	0.00021784	1422.9	8.5744e-06	8.6128e-06	1431.1	389.94	8.5529e-06	8.5713e-06	447.56	150.63	130.98	44.931	8.5611e-06	55.677	167.883	180.378	169.188	150.496	260.250	257.928	150.006	154.850	169.197	203.743	154.299	158.471	158.929	164.042	336.432	163.179	-8191	255	
701.412	1	1	0	0	0.2306	0.23507	0.2034	0.12368	0.14052	0.026288	0.50243	0.10162	0.31646	0.15373	0.064113	0.0994	0.14362	0.19081	0.1876	0.13317	-1.6	-2.1521	-2.4188	-2.3812	-2.4062	-2.3583	-2.625	-2.7708	-2.2021	-2.4854	-2.5458	-2.1396	-2.6417	-2.3604	-2.2104	-2.6688	179.435	376.649	235.466	470.163	415.301	352.551	432.951	444.082	161.597	304.721	477.529	494.712	488.158	429.425	144.718	384.051	0.00070484	0.00068858	0.00027832	1381	1.7802e-06	8.0339e-06	1384.7	376.35	7.7314e-06	8.1919e-06	425.89	143.64	125.15	42.442	7.4024e-06	52.31	0.00077991	0.00077905	0.00021643	1422.5	8.5229e-06	8.4805e-06	1429.5	389.2	8.4776e-06	8.4235e-06	445.86	150.21	130.62	44.735	8.4275e-06	55.542	167.521	219.248	206.797	150.542	412.016	249.909	149.874	154.716	181.584	172.337	154.386	158.551	158.892	163.994	303.257	162.953	-8191	255	
701.509	1	1	0	0	0.25005	0.13989	0.19256	0.18959	0.011965	0.1272	0.22143	0.030968	0.1506	0.22013	0.19974	0.34055	0.19354	0.22806	0.27673	0.059857	-1.675	-2.4542	-2.45	-2.1896	-2.6458	-2.4292	-2.3083	-2.7875	-2.1958	-2.4604	-2.6583	-2.25	-2.6146	-2.5542	-2.2542	-2.7417	339.638	475.074	205.942	469.884	411.204	438.547	370.266	485.778	491.968	151.172	481.275	149.713	378.986	153.657	187.369	445.809	0.00072013	0.00037268	0.00037606	1377.3	6.3402e-06	7.0815e-06	1382.9	375.08	1.4562e-06	6.0532e-06	427.6	143.23	124.38	42.297	1.3632e-05	52.033	0.00077378	0.00077639	0.00021623	1418.4	8.4746e-06	8.5102e-06	1428.1	388.71	8.5541e-06	8.5133e-06	446.5	149.83	130.57	44.745	8.5492e-06	55.524	169.479	211.270	239.230	150.402	316.133	169.117	149.962	155.046	324.337	212.137	154.408	158.572	158.788	164.064	311.656	163.007	-8191	255	
701.605	1	1	0	0	0.045008	0.15353	0.10944	0.25874	0.072843	0.073589	0.39131	0.33244	0.1596	0.18448	0.30851	0.21209	0.06699	0.25105	0.15941	0.2911	-1.7563	-2.2792	-2.3187	-2.3292	-2.425	-2.3292	-2.2792	-2.925	-2.1458	-2.1958	-2.5833	-2.2104	-2.5229	-2.6875	-2.0708	-2.6562	438.021	157.340	407.797	458.852	327.231	313.855	393.802	448.211	443.376	296.303	147.010	398.539	436.957	404.747	476.309	429.101	0.00070957	0.00048784	7.7483e-05	1376	4.0905e-06	4.9964e-06	1379.3	375.08	2.4386e-06	2.788e-06	427.23	143.99	124.91	42.389	2.3905e-06	52.355	0.00077827	0.00078321	0.00021849	1419.9	8.5783e-06	8.5472e-06	1426.2	388.39	8.523e-06	8.5458e-06	446.63	150.45	130.7	44.836	8.4699e-06	55.599	156.267	247.696	491.945	150.324	168.562	224.081	150.113	154.821	288.062	440.195	154.463	158.474	158.833	164.214	189.499	163.033	-8191	255	
701.724	1	1	0	0	0.29368	0.1416	0.14899	0.19766	0.1969	0.157	0.15296	0.29673	0.18822	0.10255	0.33926	0.34586	0.3068	0.082978	0.27924	0.18024	-2.0833	-2.1646	-2.4875	-2.3354	-2.475	-2.4604	-2.4354	-2.7479	-2.4625	-2.3438	-2.7979	-2.1625	-2.5083	-2.5146	-2.0729	-2.4521	485.232	324.715	443.504	435.275	496.492	476.932	437.441	421.425	204.370	190.132	442.947	464.297	353.229	385.266	141.590	465.005	0.0007372	0.00019498	0.00015128	1376.8	2.8792e-06	5.4942e-06	1386.5	376.42	3.3164e-06	5.9934e-07	426.28	144.05	125.13	42.373	3.2592e-06	52.204	0.00077523	0.00077482	0.00021572	1419.5	8.4333e-06	8.4533e-06	1428.5	389.09	8.3616e-06	8.3559e-06	445.74	150.26	130.6	44.719	8.3945e-06	55.34	178.422	403.255	231.491	150.458	255.053	174.563	149.929	154.967	252.198	219.305	154.386	158.315	158.879	163.869	222.820	163.036	-8191	255	
701.820	1	1	0	0	0.35269	0.21631	0.1452	0.081616	0.1552	0.22866	0.21984	0.19234	0.18182	0.091056	0.028989	0.13363	0.041686	0.036255	0.26592	0.14324	-2.0021	-2.1875	-2.3312	-2.3771	-2.2604	-2.5917	-2.2229	-2.6625	-2.4688	-2.1104	-2.8271	-2.2958	-2.4896	-2.7583	-2.1667	-2.3771	244.695	335.537	178.299	492.220	328.284	249.660	449.363	488.184	407.779	282.575	201.012	274.402	226.067	325.745	430.384	374.376	0.00068255	0.00028303	0.00020488	1380	4.667e-06	4.6428e-06	1387.4	375.39	3.8581e-06	6.1258e-06	426.64	144.06	125.22	42.474	4.4048e-06	52.354	0.0007675	0.00077371	0.00021512	1421	8.3871e-06	8.3954e-06	1429.1	388.76	8.3462e-06	8.361e-06	445.5	150.25	130.8	44.787	8.3587e-06	55.538	163.601	390.806	234.524	150.457	261.277	324.382	150.201	154.962	275.044	214.216	154.435	158.278	158.798	163.896	230.611	163.190	-8191	255	
701.916	1	1	0	0	0.02075	0.12047	0.10148	0.20576	0.21518	0.31334	0.34983	0.12856	0.39437	0.14076	0.2251	0.176	0.11486	0.23338	0.15827	0.31232	-1.9396	-2.0521	-2.6417	-2.3354	-2.3458	-2.3042	-2.3042	-2.6333	-2.3958	-1.9958	-2.7625	-2.5542	-2.55	-2.5729	-2.0187	-2.4833	149.315	451.477	432.788	452.686	284.795	426.928	474.984	433.964	493.612	484.680	137.291	441.077	187.229	422.031	465.827	453.618	0.00073266	0.0002964	0.00034554	1375.1	4.7174e-06	6.2351e-06	1385.9	375.6	3.9498e-06	1.2011e-05	426.99	143.94	125.2	42.643	6.4565e-07	52.323	0.00076494	0.00077436	0.0002143	1421.3	8.4457e-06	8.4483e-06	1429	389.13	8.4037e-06	8.3577e-06	446.44	150.28	130.7	44.784	8.3455e-06	55.457	163.655	490.966	211.946	150.457	293.974	338.589	150.026	154.909	472.076	246.366	154.516	158.087	158.822	164.098	175.779	163.379	-8191	255	
702.012	1	1	0	0	0.12524	0.53673	0.17059	0.22028	0.093835	0.11203	0.21854	0.46239	0.17975	0.1755	0.11735	0.34427	0.37106	0.23695	0.12356	0.25638	-1.9896	-2.1312	-2.5146	-2.5729	-2.1917	-2.5938	-2.2146	-2.4062	-2.6813	-2.1792	-2.7333	-2.5187	-2.3167	-2.7687	-2.45	-2.2521	353.808	364.966	137.168	468.483	287.051	459.319	459.385	466.775	375.172	233.387	191.005	472.892	469.883	481.252	397.068	466.478	0.00079237	0.00036924	6.559e-05	1375.2	4.2794e-06	7.9123e-06	1386	375.32	5.8397e-06	8.7534e-06	428.33	143.91	125.31	42.344	6.1914e-06	52.336	0.00076347	0.00076736	0.00021319	1420.3	8.3518e-06	8.3258e-06	1428.2	388.77	8.2622e-06	8.3187e-06	446.3	150.35	130.56	44.685	8.2827e-06	55.352	171.571	243.153	465.651	150.376	344.831	269.589	149.852	155.020	315.014	290.614	154.409	158.407	158.906	164.146	265.939	162.997	-8191	255	
702.108	1	1	0	0	0.10639	0.17311	0.11681	0.15002	0.20007	0.077745	0.29559	0.13117	0.32318	0.13092	0.30335	0.095793	0.13156	0.13342	0.076022	0.23648	-1.7687	-1.9062	-2.3708	-2.5396	-2.1125	-2.6437	-2.3979	-2.4708	-2.4167	-2.0375	-2.5271	-2.3771	-2.2188	-2.4562	-2.1562	-2.3354	439.317	334.050	326.931	430.178	150.233	162.607	435.586	433.349	470.634	200.880	318.106	414.649	442.038	418.679	291.781	432.638	0.00065341	0.00073704	7.2579e-05	1378.8	2.3736e-06	2.1308e-06	1379.5	375.85	6.7014e-06	1.7057e-06	426.86	143.97	125.01	42.346	3.2837e-06	52.373	0.00075488	0.00075637	0.00021109	1418.4	8.2823e-06	8.2019e-06	1423.8	388.47	8.2344e-06	8.2651e-06	445.41	149.95	130.31	44.659	8.3311e-06	55.401	165.963	143.516	304.965	150.502	191.308	340.934	150.125	155.004	231.247	148.333	154.522	158.440	159.044	163.929	301.371	163.170	-8191	255	
702.204	1	1	0	0	0.10953	0.23642	0.10662	0.16437	0.19991	0.10222	0.22333	0.13967	0.12795	0.14517	0.347	0.059139	0.18391	0.54834	0.11928	0.12524	-2.0938	-1.975	-2.2583	-2.525	-1.975	-2.4667	-2.3833	-2.3063	-2.5646	-2.2125	-2.5896	-2.3896	-2.1021	-2.5896	-2.3396	-2.1021	299.823	240.236	211.566	472.765	474.082	492.685	443.563	215.467	210.126	143.189	175.411	340.719	443.556	485.961	298.732	146.573	0.00073501	0.00061818	0.00036401	1376.6	6.2137e-06	3.2658e-06	1387.3	376.14	6.2561e-06	7.3017e-06	426.62	143.5	124.9	42.475	8.2207e-06	52.231	0.00076335	0.00076489	0.00021201	1418.7	8.3227e-06	8.3366e-06	1427.7	388.76	8.3719e-06	8.3578e-06	445.41	150.05	130.55	44.77	8.2963e-06	55.475	172.927	156.720	227.250	150.539	203.605	299.303	150.139	154.763	230.568	168.888	154.430	158.414	158.936	164.139	251.265	163.155	-8191	255	
702.325	1	1	0	0	0.24563	0.21778	0.036169	0.30678	0.18671	0.054534	0.39816	0.52272	0.46427	0.1699	0.10477	0.065036	0.03997	0.20288	0.14799	0.14733	-2.1333	-2.0917	-2.3542	-2.8688	-2.15	-2.3812	-2.8104	-2.4271	-2.4125	-2.275	-2.4792	-2.6021	-2.1875	-2.5604	-2.2583	-2.4104	411.790	464.872	368.590	480.854	318.500	376.077	401.194	451.096	469.042	403.502	269.191	256.774	186.865	407.551	430.046	425.766	0.00077838	0.00029642	8.8664e-05	1379	7.7978e-06	3.1962e-06	1385.8	374.39	8.3434e-06	1.9216e-06	425.24	143.79	124.66	42.35	5.0695e-06	52.102	0.00075776	0.00075827	0.00021184	1419.4	8.2722e-06	8.2975e-06	1427.3	387.97	8.2732e-06	8.2906e-06	445.88	149.92	130.28	44.654	8.2631e-06	55.333	163.831	174.872	150.790	150.435	213.891	351.316	149.876	154.831	193.470	294.040	154.253	158.142	158.728	164.121	256.572	162.811	-8191	255	
702.419	1	1	0	0	0.13335	0.091371	0.23036	0.29098	0.16617	0.14685	0.34276	0.18889	0.078611	0.15544	0.038327	0.13375	0.23212	0.16764	0.16474	0.099018	-2.1167	-2.2667	-2.1937	-2.7646	-1.9583	-2.425	-2.625	-2.1813	-2.5833	-2.4833	-2.3667	-2.6208	-2.2562	-2.575	-2.4625	-2.3229	155.876	190.695	241.233	458.600	265.059	463.995	446.950	477.502	385.733	154.790	264.216	416.215	334.401	316.962	368.231	460.424	0.00065393	0.00037176	0.00013875	1375.2	4.6032e-06	4.9074e-06	1381.9	374.28	6.986e-06	5.9941e-06	426.61	143.16	125.39	42.336	5.5771e-06	52.222	0.00075865	0.00076037	0.00021243	1417	8.3228e-06	8.323e-06	1425.3	388.39	8.3225e-06	8.37e-06	445.95	149.83	130.59	44.651	8.3205e-06	55.375	165.080	245.113	201.140	150.437	205.489	276.857	149.877	154.814	265.729	336.620	154.263	158.257	159.015	163.892	264.843	163.367	-8191	255	
702.516	1	1	0	0	0.11514	0.12465	0.11236	0.33144	0.11284	0.061824	0.20824	0.41096	0.10346	0.074606	0.26851	0.18963	0.19012	0.2017	0.12582	0.10711	-2.2208	-2.3625	-2.2396	-2.825	-2.0438	-2.5292	-2.6333	-2.125	-2.4062	-2.3875	-2.4104	-2.7521	-2.375	-2.4979	-2.4917	-2.1708	271.086	160.409	260.722	456.879	479.959	339.669	426.871	436.116	270.172	264.601	488.273	487.098	155.383	452.514	404.573	421.664	0.00074973	0.00067879	0.00027293	1377.3	1.2108e-05	9.4016e-07	1383.3	375.86	9.3814e-06	3.7889e-06	426.78	143.63	124.85	42.288	3.3974e-06	52.356	0.00076036	0.00075983	0.00021192	1417.2	8.2478e-06	8.2867e-06	1423.8	388.39	8.1524e-06	8.2274e-06	444.91	149.81	130.34	44.59	8.215e-06	55.35	165.176	495.099	206.292	150.356	245.483	416.169	149.958	155.008	208.188	440.612	154.573	158.349	158.938	164.112	231.207	163.094	-8191	255	
702.636	1	1	0	0	0.065012	0.21868	0.1796	0.057972	0.040861	0.11919	0.27896	0.037471	0.097622	0.22187	0.16698	0.23225	0.33077	0.29686	0.27682	0.11722	-1.9896	-2.3958	-2.0167	-2.7292	-2.4125	-2.1792	-2.5687	-2.4021	-2.5833	-2.4354	-2.3625	-2.7188	-2.3271	-2.2375	-2.4104	-2.3521	299.317	253.652	330.839	231.618	316.333	433.728	494.147	251.625	356.966	450.404	361.067	453.341	416.955	173.223	296.990	330.344	0.00065897	0.00039366	0.00012167	1378.1	4.2588e-06	4.5842e-06	1385.1	376.31	4.9522e-06	6.7897e-06	426.67	143.71	125.34	42.479	8.9435e-06	52.222	0.00075088	0.00075819	0.00021264	1418.7	8.2663e-06	8.3467e-06	1425.3	388.55	8.3605e-06	8.3212e-06	445.79	150.37	130.56	44.698	8.2985e-06	55.411	173.515	242.921	163.099	150.502	271.050	263.702	150.009	154.821	295.444	257.856	154.381	158.456	159.015	164.086	295.261	162.917	-8191	255	
702.708	1	1	0	0	0.17377	0.14571	0.02961	0.22618	0.1472	0.20697	0.12896	0.20354	0.12524	0.20248	0.17188	0.14402	0.062157	0.10133	0.28591	0.15011	-1.7875	-2.3542	-2.0583	-2.6937	-2.2542	-2.1667	-2.8667	-2.2229	-2.4104	-2.5333	-2.3063	-2.6854	-2.3729	-2.2	-2.5812	-2.2812	201.783	442.103	262.477	493.466	288.317	357.466	481.621	375.782	390.090	387.663	423.438	463.316	325.706	378.774	489.576	419.357	0.00079255	0.00049043	0.00013175	1373.8	3.0542e-06	8.4849e-06	1384.9	375.64	5.373e-06	4.5366e-06	425.85	143.88	125.01	42.467	5.1164e-06	52.123	0.00075867	0.0007579	0.00021291	1419	8.3124e-06	8.3302e-06	1426.8	388.49	8.2951e-06	8.2876e-06	445.33	150.1	130.27	44.705	8.1712e-06	55.219	169.765	166.081	492.390	150.426	254.577	239.390	150.060	155.001	214.532	222.133	154.128	158.532	158.956	163.773	260.817	162.853	-8191	255	
702.804	1	1	0	0	0.1107	0.36515	0.1006	0.40623	0.32886	0.047892	0.14957	0.13712	0.27943	0.24565	0.16725	0.24736	0.24432	0.071768	0.12406	0.093749	-1.6854	-2.5375	-2.0312	-2.6729	-2.3063	-2.2375	-2.8208	-2.2833	-2.4625	-2.5146	-2.4146	-2.6312	-2.4042	-2.3083	-2.4375	-2.4125	142.291	471.849	199.711	462.484	397.173	164.984	436.923	488.245	489.574	201.453	348.504	451.932	188.618	395.213	205.355	153.153	0.00072152	0.00075988	9.3959e-05	1374	2.3327e-06	5.2895e-06	1385.4	374.38	2.5577e-06	4.8076e-06	427.45	143.49	124.91	42.478	1.6005e-06	52.274	0.00074293	0.00074398	0.00020763	1414	8.1035e-06	8.1111e-06	1422.7	387.21	8.0713e-06	8.1127e-06	445.4	149.7	130.07	44.676	8.1414e-06	55.245	165.253	240.824	159.986	150.631	358.625	253.664	150.122	154.786	221.472	222.506	154.457	158.394	158.747	163.982	307.660	162.989	-8191	255	
702.900	1	1	0	0	0.27676	0.051641	0.14936	0.34207	0.24535	0.26568	0.31758	0.22203	0.11033	0.035999	0.061573	0.32646	0.081617	0.040895	0.35565	0.28427	-1.9708	-2.4708	-2.0667	-2.5812	-2.425	-2.2646	-2.7833	-2.3937	-2.3292	-2.65	-2.2208	-2.5729	-2.6917	-2.3229	-2.5271	-2.3	333.006	214.852	276.691	415.209	219.863	270.128	425.131	147.194	215.984	228.719	483.597	444.846	265.592	330.973	236.946	450.328	0.00078079	0.00034545	0.00019903	1376.6	3.6511e-06	2.964e-06	1382.7	375.39	3.9694e-06	8.3331e-06	425.24	143.05	125.38	42.453	2.8369e-06	51.925	0.00074403	0.00075098	0.00020903	1415.2	8.2216e-06	8.2386e-06	1424.7	387.47	8.1986e-06	8.1533e-06	444.62	149.88	130.33	44.636	8.1613e-06	55.233	161.990	407.006	158.618	150.502	273.889	264.375	149.944	154.960	258.035	328.662	154.332	158.409	158.756	163.932	255.045	163.126	-8191	255	
702.996	1	1	0	0	0.12982	0.3675	0.29074	0.34464	0.040563	0.2271	0.1655	0.19245	0.11381	0.098463	0.034099	0.065668	0.32366	0.20746	0.23311	0.23657	-1.9167	-2.5854	-2.0771	-2.4979	-2.5792	-2.0708	-2.8542	-2.5438	-2.25	-2.6271	-2.1833	-2.6375	-2.4708	-2.2438	-2.6312	-2.4292	285.084	202.550	338.875	475.672	273.703	402.063	411.112	449.608	369.707	188.924	419.195	253.642	455.899	165.662	288.668	226.355	0.00064856	0.00020241	0.00041599	1373.2	5.572e-06	3.5396e-06	1381.3	375.62	4.9806e-06	1.9945e-06	428	143.62	124.98	42.404	6.3824e-06	52.125	0.00074913	0.00074636	0.00020827	1414.2	8.1521e-06	8.188e-06	1424.3	387.87	8.0872e-06	8.0933e-06	444.76	149.4	130.12	44.607	8.0415e-06	55.19	163.848	252.864	190.698	150.426	242.728	369.963	150.034	154.958	244.057	169.038	154.513	158.566	159.127	164.161	293.463	163.154	-8191	255	
703.115	1	1	0	0	0.076647	0.19483	0.11822	0.2019	0.19599	0.038693	0.27293	0.29479	0.12086	0.075949	0.16336	0.35342	0.13354	0.12469	0.21134	0.095298	-1.7854	-2.6708	-2.325	-2.4688	-2.5792	-2.2646	-2.5687	-2.5521	-2.2062	-2.6021	-2.5187	-2.1771	-2.5771	-2.3771	-2.6688	-2.4896	197.079	405.855	355.413	462.220	152.663	149.170	307.990	463.066	327.956	256.305	486.396	419.510	293.247	495.611	252.619	273.980	0.00086735	0.0002695	0.00013365	1374.7	2.0577e-06	1.2352e-05	1379.5	375.76	6.5911e-06	8.2727e-06	426.76	144.27	125.21	42.441	5.0643e-06	52.023	0.00073793	0.00073984	0.00020789	1414.5	8.1096e-06	8.1992e-06	1422.4	387.59	8.1844e-06	8.1748e-06	445.31	149.93	130.46	44.654	8.2162e-06	55.343	158.304	139.235	194.830	150.652	270.570	290.802	149.968	154.813	253.462	273.674	154.405	158.288	158.831	163.969	197.511	163.104	-8191	255	
703.211	1	1	0	0	0.18439	0.36272	0.25165	0.2752	0.22096	0.15503	0.21608	0.15503	0.29476	0.20922	0.1127	0.16123	0.14111	0.21551	0.046033	0.015153	-1.6375	-2.5083	-2.3688	-2.5187	-2.3604	-2.1542	-2.5146	-2.5312	-2.1188	-2.7062	-2.525	-2.35	-2.6562	-2.2812	-2.5104	-2.5646	229.401	291.975	365.395	478.397	340.747	172.341	434.741	404.404	427.554	138.571	459.957	467.270	476.792	446.801	280.160	204.209	0.00081831	9.7942e-05	0.0002011	1378.3	1.8962e-06	5.4525e-06	1382.2	374.12	6.589e-06	4.3365e-06	427.44	143.52	124.8	42.411	8.2191e-06	52.234	0.00075511	0.00075695	0.00021031	1417.1	8.2309e-06	8.2222e-06	1423.8	387.19	8.1812e-06	8.1774e-06	445.46	149.89	130.36	44.59	8.1308e-06	55.262	170.821	463.098	196.007	150.664	235.923	347.528	150.028	154.911	171.337	273.874	154.575	158.417	158.860	163.799	321.569	163.151	-8191	255	
703.285	1	1	0	0	0.39384	0.20955	0.040484	0.17433	0.26813	0.21948	0.14303	0.25937	0.30396	0.091249	0.34159	0.037717	0.25091	0.1854	0.16936	0.076864	-1.6646	-2.6417	-2.25	-2.4396	-2.7021	-2.2417	-2.6167	-2.7667	-2.0479	-2.4313	-2.3646	-2.4125	-2.7438	-2.4042	-2.2583	-2.6333	162.901	188.471	313.066	423.278	202.832	232.210	479.708	486.346	172.240	357.390	140.588	320.400	470.206	423.005	191.389	278.731	0.00076443	3.0537e-05	0.00021919	1374.8	3.8e-06	4.6631e-06	1378.1	375.1	7.881e-06	8.9896e-06	426.86	142.5	125.02	42.427	4.9821e-06	52.286	0.00074141	0.00074469	0.00020844	1414.5	8.1277e-06	8.1786e-06	1422.1	387.53	8.1455e-06	8.1752e-06	445.17	149.56	130.29	44.613	8.2021e-06	55.26	167.683	433.132	159.641	150.534	145.909	349.651	150.223	154.894	239.601	305.541	154.476	158.301	158.861	163.941	146.055	163.131	-8191	255	
703.404	1	1	0	0	0.23729	0.12713	0.15319	0.19848	0.2615	0.12155	0.4488	0.1341	0.21432	0.14945	0.24956	0.16932	0.32597	0.24451	0.1006	0.11442	-1.6479	-2.45	-2.3708	-2.3667	-2.7854	-2.2396	-2.5583	-2.7583	-2.2625	-2.4062	-2.6188	-2.1333	-2.4771	-2.3667	-2.4542	-2.6208	350.758	301.635	145.637	475.752	264.202	151.100	475.076	416.873	284.158	201.824	137.356	308.462	439.677	456.412	149.650	402.097	0.00062447	0.00064963	0.00013794	1373	2.4371e-06	4.6221e-06	1379.7	374.92	4.4125e-06	7.3269e-06	426.97	143.4	125.22	42.583	2.0576e-06	52.17	0.00074571	0.00075073	0.00020913	1415.6	8.1701e-06	8.1919e-06	1424.1	387.75	8.1443e-06	8.1847e-06	444.47	149.34	130.16	44.645	8.0387e-06	55.121	174.352	239.597	228.310	150.555	311.514	260.402	150.049	154.949	260.230	204.705	154.405	158.172	158.928	164.056	156.648	163.433	-8191	255	
703.500	1	1	0	0	0.18014	0.21377	0.11351	0.44472	0.088781	0.10019	0.31382	0.14672	0.18845	0.064208	0.28047	0.11094	0.20374	0.22942	0.088873	0.24866	-1.4937	-2.2938	-2.5167	-2.4375	-2.7021	-2.3042	-2.5021	-2.7708	-2.0958	-2.3271	-2.7646	-2.1146	-2.5125	-2.4271	-2.3229	-2.7188	411.816	296.742	423.502	450.758	417.201	363.915	420.477	137.686	306.993	252.516	455.365	487.674	468.913	397.887	396.762	468.832	0.00059108	0.00028066	6.0597e-05	1380.6	3.2346e-06	4.9758e-06	1382.4	375.08	1.1734e-05	4.6023e-06	424.92	143.12	125.41	42.308	8.8233e-06	52.091	0.00073558	0.00073878	0.000205	1415.3	8.0456e-06	8.0517e-06	1422.6	387.27	7.9864e-06	8.0539e-06	443.68	149.58	130.08	44.541	7.9775e-06	55.105	161.799	251.585	260.147	150.514	275.270	217.250	150.124	154.849	229.745	487.816	154.328	158.425	158.828	164.123	267.093	162.895	-8191	255	
703.596	1	1	0	0	0.11129	0.065094	0.14102	0.36466	0.12336	0.058001	0.32369	0.16404	0.26749	0.10294	0.11222	0.2481	0.067692	0.040408	0.07222	0.17498	-1.6417	-2.2146	-2.5812	-2.2646	-2.5687	-2.4208	-2.5042	-2.6625	-2.1479	-2.4875	-2.6813	-2.2792	-2.4188	-2.3729	-2.0292	-2.7271	160.185	412.694	471.977	470.944	177.399	210.757	435.161	146.214	328.507	333.973	493.203	176.921	317.799	348.853	259.640	452.398	0.00073244	0.00049252	0.00016648	1373.6	1.0661e-06	4.5015e-06	1378.2	374.87	7.487e-06	4.2362e-06	426.92	143.41	125.12	42.415	3.0249e-06	51.979	0.0007348	0.00073941	0.00020428	1414.3	8.0004e-06	8.0005e-06	1419.4	387.07	8.0282e-06	7.9991e-06	444.57	149.57	129.98	44.54	7.9471e-06	55.029	167.709	157.197	187.924	150.440	423.371	357.490	150.034	154.831	181.775	257.498	154.457	158.198	159.021	164.176	277.211	163.098	-8191	255	
703.717	1	1	0	0	0.17843	0.11317	0.13886	0.21283	0.068301	0.079856	0.28148	0.23218	0.21881	0.26373	0.34127	0.13724	0.23135	0.1324	0.19138	0.15886	-1.5958	-2.2917	-2.4437	-2.4146	-2.3542	-2.375	-2.2479	-2.7042	-2.275	-2.3271	-2.5938	-2.2583	-2.6188	-2.5979	-2.2208	-2.5917	276.975	408.678	311.306	458.258	300.163	481.642	427.302	453.772	325.487	254.589	139.275	483.391	170.958	479.552	408.190	226.964	0.00080355	0.00020255	0.00017174	1373.4	2.7527e-06	4.4507e-06	1378.1	373.7	1.0967e-05	2.4043e-06	426.64	143.12	125.11	42.554	8.4795e-06	52.341	0.00073128	0.00072708	0.00020312	1411.7	7.9088e-06	7.9155e-06	1418.6	386.94	7.9034e-06	7.8859e-06	443.65	149.2	129.71	44.442	7.7821e-06	54.92	168.255	210.883	493.270	150.515	260.377	155.784	150.083	154.907	205.998	244.252	154.331	158.248	159.030	164.134	265.743	162.920	-8191	255	
703.813	1	1	0	0	0.1466	0.17521	0.26627	0.39043	0.044324	0.33672	0.11207	0.083338	0.22922	0.16769	0.25035	0.063788	0.089721	0.35811	0.14978	0.11843	-1.6896	-2.1646	-2.5333	-2.1875	-2.2854	-2.4625	-2.2833	-2.4938	-2.3583	-2.3833	-2.6167	-2.2208	-2.5333	-2.6167	-2.0583	-2.5604	361.987	326.596	412.132	471.752	233.313	407.268	435.839	429.273	313.336	265.197	333.189	275.245	428.891	454.731	203.505	139.511	0.00061722	0.00070313	0.00020486	1370.7	8.0297e-06	6.646e-06	1380.6	374.99	1.1075e-05	2.5266e-06	426.45	143.43	124.47	42.313	4.1236e-06	52.047	0.00070642	0.00070596	0.00019724	1405.3	7.7037e-06	7.7562e-06	1416.3	385.74	7.7841e-06	7.7974e-06	442.41	148.96	129.45	44.422	7.8311e-06	54.983	153.277	184.985	164.942	150.451	295.850	280.762	150.141	154.997	257.074	348.116	154.543	158.581	159.028	164.017	238.881	162.821	-8191	255	
703.907	1	1	0	0	0.21163	0.093929	0.10785	0.13581	0.2196	0.25866	0.12261	0.14708	0.093549	0.065938	0.27117	0.099677	0.30985	0.1084	0.039072	0.12243	-1.8333	-2.1063	-2.5271	-2.3458	-2.4042	-2.4167	-2.3167	-2.5687	-2.4271	-2.1188	-2.5333	-2.3146	-2.4854	-2.5146	-2.0167	-2.4562	389.161	396.048	193.740	494.294	373.692	423.211	387.556	467.869	337.638	379.992	171.122	165.274	139.801	426.093	267.902	485.797	0.00073584	0.000398	0.00012046	1372.3	1.0358e-06	1.4553e-06	1372.4	375.7	9.761e-06	2.643e-06	425.94	143.14	125.62	42.438	7.4498e-06	51.874	0.00072265	0.0007239	0.00020273	1409.3	7.9447e-06	7.9769e-06	1416.1	386.92	7.9931e-06	7.9703e-06	442.97	149.23	129.95	44.512	7.9287e-06	55.014	165.499	183.798	469.142	150.554	311.484	356.730	150.001	154.924	238.025	306.529	154.519	158.475	158.949	163.983	270.122	163.163	-8191	255	
704.005	1	1	0	0	0.15443	0.13222	0.1903	0.21227	0.13107	0.093823	0.45591	0.34156	0.26783	0.12146	0.29569	0.19451	0.17278	0.2038	0.22282	0.053284	-1.8208	-2.0229	-2.3063	-2.2646	-2.1792	-2.6354	-2.3542	-2.4104	-2.4396	-2.1458	-2.6188	-2.2375	-2.2646	-2.6708	-2.3458	-2.4979	168.985	313.882	137.687	455.099	199.427	432.656	437.014	322.966	379.308	386.897	415.455	443.332	438.666	435.904	410.436	167.703	0.00078471	0.00033695	6.3508e-05	1376.8	4.1017e-06	6.3039e-06	1378.8	374.79	2.0464e-06	8.1939e-06	425.37	142.76	125.02	42.448	4.5289e-06	52.096	0.00072639	0.00072894	0.00020142	1413.4	7.9116e-06	7.9123e-06	1419.4	386.46	7.9014e-06	7.8536e-06	442.91	149.06	129.77	44.463	7.8101e-06	55.022	171.682	173.398	496.842	150.534	285.644	254.624	149.914	154.951	167.118	358.332	154.396	158.434	158.806	164.064	285.697	163.179	-8191	255	
704.099	1	1	0	0	0.14443	0.045098	0.12879	0.11321	0.33808	0.12926	0.25192	0.17939	0.20142	0.17783	0.13393	0.25184	0.1084	0.13219	0.23293	0.1268	-2.1354	-2.2604	-2.5417	-2.6042	-2.1521	-2.6167	-2.4375	-2.5271	-2.4229	-2.1188	-2.5875	-2.3937	-2.4604	-2.6958	-2.1063	-2.5896	454.097	317.220	252.787	454.178	460.871	228.087	447.417	471.735	390.195	490.096	139.198	482.766	412.887	446.933	160.923	455.866	0.00067942	0.00049612	0.00012488	1371.5	4.2792e-06	1.9411e-06	1374.8	374.15	5.9721e-06	3.5007e-06	426.04	142.72	124.96	42.127	7.2584e-06	52.344	0.00071772	0.00071781	0.00020003	1408.1	7.8074e-06	7.8324e-06	1414.6	386.06	7.7546e-06	7.7886e-06	442.05	148.92	129.51	44.346	7.7349e-06	54.959	158.736	157.516	420.175	150.502	258.824	348.835	150.044	154.837	223.875	446.094	154.196	158.278	158.863	164.311	222.110	163.118	-8191	255	
704.196	1	1	0	0	0.13318	0.10256	0.040797	0.18374	0.23728	0.026714	0.052001	0.23029	0.10512	0.095991	0.18049	0.17872	0.1387	0.22279	0.22006	0.22972	-1.9604	-2.075	-2.5021	-2.5979	-1.9958	-2.5646	-2.4542	-2.3646	-2.5896	-2.1167	-2.6583	-2.5208	-2.2313	-2.5229	-2.3229	-2.3271	398.835	373.623	200.471	473.357	280.961	154.931	469.264	456.006	313.911	214.796	455.887	294.413	304.751	449.602	405.957	461.392	0.00069994	0.00038869	0.00018876	1369.7	7.1725e-06	4.9015e-06	1376.4	374.17	7.9258e-06	4.0159e-06	423.78	143.07	125	42.58	3.1772e-06	52.291	0.00070974	0.00070939	0.00019838	1406.5	7.695e-06	7.747e-06	1414.9	385.95	7.6753e-06	7.6872e-06	441.63	148.8	129.4	44.424	7.6675e-06	55.006	156.272	166.915	196.766	150.502	367.560	253.590	149.982	155.031	275.889	154.534	154.485	158.749	159.364	164.012	315.692	163.155	-8191	255	
704.292	1	1	0	0	0.21331	0.078532	0.0507	0.27676	0.1172	0.26027	0.33796	0.0095818	0.10202	0.21355	0.1049	0.27538	0.32731	0.16593	0.10652	0.10392	-2.3625	-2.3125	-2.4479	-2.6958	-2.1188	-2.4521	-2.6188	-2.2479	-2.5708	-2.2292	-2.4125	-2.4146	-2.2687	-2.5583	-2.3917	-2.0958	413.817	492.878	422.455	437.664	240.201	144.091	406.982	384.634	417.506	333.846	365.784	448.312	459.725	352.916	200.109	484.679	0.00078546	0.00073524	0.00023316	1371.6	5.8301e-06	1.2041e-06	1381.4	374.98	8.7997e-06	3.1416e-06	426.79	144.16	125.77	42.53	7.0091e-06	52.224	0.0007016	0.00070348	0.00019389	1408.6	7.6523e-06	7.7097e-06	1417.2	386.07	7.5844e-06	7.5652e-06	442.28	149.24	129.54	44.344	7.3636e-06	54.782	165.374	190.345	486.468	150.571	292.197	271.977	149.840	155.057	282.468	257.990	154.516	158.489	158.904	163.862	296.110	163.160	-8191	255	
704.412	1	1	0	0	0.24502	0.017381	0.28599	0.46289	0.065035	0.25823	0.37841	0.17368	0.17988	0.17107	0.14765	0.20373	0.17581	0.2666	0.23901	0.20128	-2.2771	-2.2354	-2.2208	-2.8104	-2.2333	-2.3146	-2.5187	-2.2333	-2.5083	-2.0125	-2.3896	-2.7354	-2.1271	-2.4708	-2.4479	-2.1917	256.988	367.300	294.974	495.826	276.652	226.889	327.889	460.661	467.780	211.896	170.390	284.972	160.343	492.919	254.934	368.797	0.00078559	0.00042579	7.0184e-05	1371.7	4.0958e-06	6.7746e-06	1378	374.01	1.0006e-05	4.597e-06	426.15	143.58	124.91	42.537	4.5722e-06	52.3	0.00067159	0.00066803	0.00018612	1403.3	7.2431e-06	7.2052e-06	1409.2	383.96	7.125e-06	7.1719e-06	439.71	148.37	128.82	44.191	7.093e-06	54.576	167.003	139.728	239.690	150.351	333.125	234.684	150.181	154.891	220.870	277.831	154.640	158.307	159.004	164.002	265.767	163.017	-8191	255	
704.509	1	1	0	0	0.097328	0.17882	0.029461	0.18096	0.19029	0.14277	0.19995	0.35227	0.15748	0.13573	0.28023	0.11838	0.16884	0.038048	0.19297	0.24788	-2.0792	-2.2146	-2.2625	-2.8125	-2.0625	-2.5354	-2.6792	-2.2604	-2.3042	-2.4354	-2.3729	-2.4646	-2.1833	-2.4708	-2.5083	-2.0563	378.880	358.647	271.935	439.015	229.235	161.949	196.100	448.450	286.685	351.488	140.563	474.190	208.467	319.909	276.622	475.768	0.00074576	0.00017155	0.00014007	1367.7	7.338e-06	2.7935e-06	1374.5	374.15	6.5918e-06	2.2183e-06	426.68	144.11	125.41	42.404	3.8484e-06	52.253	0.00064998	0.00065183	0.00018175	1397.9	7.1572e-06	7.1762e-06	1408.8	384.1	7.163e-06	7.1743e-06	439.79	148.67	129.04	44.148	7.1236e-06	54.638	167.903	238.916	173.768	150.515	224.978	325.010	149.847	154.832	253.813	219.184	154.307	158.508	158.859	164.036	277.954	163.229	-8191	255	
704.580	1	1	0	0	0.07055	0.30452	0.12595	0.2793	0.097686	0.081521	0.23586	0.13548	0.11184	0.033513	0.16236	0.23307	0.20787	0.027372	0.06071	0.31521	-2.0917	-2.2375	-2.275	-2.5646	-2.2875	-2.4792	-2.9188	-2.3021	-2.4479	-2.5333	-2.4229	-2.5521	-2.2938	-2.3708	-2.425	-2.25	210.199	287.027	290.952	427.829	207.557	472.361	416.774	419.561	338.159	396.193	225.560	198.388	450.864	401.772	416.481	484.456	0.00080352	0.00011996	0.00015949	1366.3	1.6483e-06	6.9454e-06	1378.2	374.7	1.1644e-05	6.1673e-06	425.06	143.53	124.87	42.504	2.2208e-06	52.219	0.00065495	0.00065754	0.00018314	1400.6	7.2081e-06	7.2429e-06	1411.7	383.87	7.2603e-06	7.2293e-06	439.46	148.45	129.01	44.268	7.2153e-06	54.699	168.809	429.066	247.720	150.538	310.447	218.724	150.202	154.966	251.014	197.968	154.505	158.536	158.923	164.028	298.308	163.225	-8191	255	
704.676	1	1	0	0	0.32025	0.16056	0.15157	0.063216	0.28689	0.13649	0.10215	0.34332	0.20411	0.21733	0.12876	0.085208	0.2592	0.21979	0.090407	0.092204	-2	-2.3833	-2.0667	-2.6562	-2.2417	-2.1729	-2.7687	-2.125	-2.4542	-2.5438	-2.1312	-2.6229	-2.2646	-2.2958	-2.5	-2.1354	274.892	281.647	393.713	456.836	139.745	477.392	424.327	430.722	206.157	457.240	228.134	393.632	474.059	380.268	432.344	450.748	0.00072641	0.00034447	0.00018513	1367.1	2.8322e-06	5.6296e-06	1383.4	372.55	6.7676e-06	4.5368e-06	424.14	143.41	124.66	42.47	8.1428e-06	52.245	0.0006663	0.00066374	0.00018456	1401.3	7.2785e-06	7.2685e-06	1414.5	383.88	7.2131e-06	7.2528e-06	439.08	148.58	129.35	44.302	7.2001e-06	54.705	157.472	306.140	220.784	150.496	183.343	315.498	149.945	154.722	271.879	357.398	154.410	158.433	158.914	164.002	231.878	163.018	-8191	255	
704.797	1	1	0	0	0.2184	0.19622	0.13209	0.27635	0.097059	0.18793	0.13439	0.085041	0.27328	0.16325	0.23468	0.056657	0.24786	0.14779	0.13424	0.099373	-2.0271	-2.4958	-2.2292	-2.6333	-2.3021	-2.2396	-2.6896	-2.3917	-2.3375	-2.4375	-2.1667	-2.5812	-2.575	-2.3417	-2.6958	-2.2771	189.147	397.731	250.038	453.287	362.620	425.947	442.154	450.843	234.292	475.910	153.489	324.927	173.791	427.640	468.533	383.198	0.00094414	0.00015135	9.2073e-05	1370.5	1.8874e-06	5.8565e-06	1380.9	373.8	7.0115e-06	3.3727e-06	425.47	143.82	124.69	42.527	3.965e-06	52.536	0.0006569	0.00065737	0.00018323	1403	7.1866e-06	7.2103e-06	1414.1	384.11	7.1757e-06	7.1791e-06	439.79	148.76	129.02	44.317	7.1691e-06	54.784	171.350	207.272	179.980	150.711	277.110	351.165	149.991	154.791	238.085	157.281	154.432	158.198	159.115	163.928	209.373	163.008	-8191	255	
704.893	1	1	0	0	0.23673	0.13646	0.14809	0.28115	0.23086	0.11863	0.14841	0.25805	0.19145	0.19911	0.20996	0.27774	0.31393	0.54109	0.11282	0.43019	-1.8167	-2.4833	-2.2125	-2.7854	-2.3208	-2.2333	-2.6604	-2.4792	-2.4562	-2.6625	-2.2833	-2.5875	-2.6708	-2.4021	-2.5667	-2.2917	295.059	150.826	326.185	456.505	262.280	291.704	381.080	455.194	191.455	464.352	465.847	451.855	147.367	457.417	412.275	419.857	0.00067673	0.00022792	0.00027744	1375.3	1.5285e-06	3.4551e-06	1378.8	374.52	4.0672e-06	9.0745e-07	425.94	144.23	125.26	42.559	8.2254e-06	52.362	0.00066102	0.00065992	0.00018401	1405.1	7.1889e-06	7.2566e-06	1413.2	383.94	7.2336e-06	7.2255e-06	439.02	148.84	129.28	44.319	7.1474e-06	54.714	157.666	474.068	228.791	150.586	422.046	221.064	150.051	154.813	231.346	180.902	154.276	158.188	158.930	164.094	261.462	163.289	-8191	255	
704.988	1	1	0	0	0.13974	0.083202	0.23885	0.17791	0.034895	0.1216	0.56158	0.15054	0.16055	0.038963	0.3417	0.054084	0.18521	0.2667	0.17855	0.19748	-1.6667	-2.5792	-2.0979	-2.5625	-2.4104	-2.1937	-2.6312	-2.6104	-2.3583	-2.4646	-2.1312	-2.3667	-2.475	-2.3438	-2.5708	-2.2875	154.750	424.989	330.122	163.492	372.991	139.647	442.064	295.375	491.875	294.490	475.918	496.411	159.166	421.112	142.684	215.359	0.00069514	0.00027439	9.523e-05	1369.5	4.4404e-06	6.6292e-06	1379.8	374.5	5.03e-06	1.1016e-06	424.49	143.68	125.29	42.472	5.3451e-06	52.312	0.0006611	0.00065864	0.00018257	1404.1	7.1575e-06	7.1725e-06	1412.4	383.53	7.1222e-06	7.081e-06	438.06	148.52	129.12	44.155	6.9847e-06	54.614	167.739	263.654	142.582	150.757	275.088	248.069	150.069	155.008	267.029	293.062	154.451	158.653	159.056	163.965	297.284	163.120	-8191	255	
705.085	1	1	0	0	0.10614	0.35751	0.048403	0.31077	0.20626	0.037051	0.23652	0.23407	0.25311	0.1928	0.032937	0.23322	0.079495	0.095425	0.10713	0.29949	-1.6688	-2.4958	-2.1	-2.5292	-2.4188	-1.9625	-2.7042	-2.4	-2.1271	-2.7313	-2.3375	-2.4604	-2.6354	-2.1833	-2.5229	-2.375	305.763	186.795	350.601	423.922	289.679	207.343	443.903	404.236	414.815	461.833	280.146	488.135	189.148	297.734	219.332	258.448	0.00062031	8.6126e-05	0.00028589	1369	4.1206e-06	1.5057e-06	1380.1	372.4	5.7877e-06	5.7281e-06	424.14	144.03	124.97	42.672	6.9571e-06	52.4	0.00064247	0.00063664	0.00017761	1399.5	6.936e-06	6.9654e-06	1409.3	381.89	6.8793e-06	6.8781e-06	436.09	148.32	128.66	44.136	6.929e-06	54.654	173.791	368.536	198.935	150.423	316.301	398.432	150.143	154.967	216.737	344.176	154.504	158.596	158.924	164.077	283.961	163.049	-8191	255	
705.180	1	1	0	0	0.27989	0.20992	0.051485	0.26623	0.13871	0.13556	0.31228	0.1723	0.26034	0.12136	0.13874	0.33831	0.038755	0.35851	0.12434	0.38356	-1.8896	-2.4729	-2.2542	-2.7146	-2.5104	-2.2146	-2.7583	-2.5646	-2.1896	-2.7562	-2.3375	-2.2708	-2.675	-2.2042	-2.3229	-2.4479	137.918	452.860	278.195	455.547	407.588	374.138	389.045	418.201	351.204	264.820	153.861	453.589	428.948	439.615	376.512	462.148	0.00064047	0.0004452	0.00018023	1372.1	3.3288e-06	3.0018e-06	1381	373.76	6.483e-06	4.9814e-06	424.67	143.73	124.76	42.397	5.385e-06	52.175	0.00064359	0.00064298	0.00018163	1400.8	7.103e-06	7.2127e-06	1413.4	382.98	7.306e-06	7.3603e-06	439.02	148.55	129.12	44.192	7.4091e-06	54.721	161.359	238.524	190.013	150.472	223.409	216.941	149.789	154.975	182.539	350.974	154.793	158.229	158.920	164.009	258.595	163.256	-8191	255	
705.278	1	1	0	0	0.16135	0.20568	0.060004	0.2555	0.11873	0.30356	0.45731	0.22989	0.049231	0.20167	0.19901	0.098807	0.058965	0.25802	0.094631	0.21218	-1.6771	-2.6	-2.3208	-2.3146	-2.675	-2.3729	-2.7479	-2.6562	-2.1188	-2.4813	-2.3792	-2.3479	-2.8354	-2.3312	-2.3667	-2.6042	397.749	351.314	458.288	460.619	245.240	470.948	399.782	464.256	225.187	341.656	448.241	481.466	214.013	244.160	449.413	399.822	0.00061396	0.00040906	0.00018644	1368.4	5.665e-07	6.2933e-06	1380	372.58	6.4189e-06	5.3148e-06	422.37	143.89	124.5	42.273	1.0192e-05	51.963	0.00068346	0.00068472	0.00019144	1404.9	7.4965e-06	7.4769e-06	1415.8	382.79	7.4929e-06	7.4318e-06	438.49	148.88	129.02	44.273	7.4822e-06	54.709	165.860	155.060	179.358	150.680	243.858	324.025	150.129	155.058	270.508	361.184	154.741	158.315	158.812	164.090	212.608	163.128	-8191	255	
705.397	1	1	0	0	0.27263	0.056954	0.2084	0.43978	0.089119	0.33923	0.30207	0.35291	0.1944	0.11632	0.35227	0.25864	0.21053	0.32259	0.23556	0.12526	-1.5833	-2.2938	-2.35	-2.4208	-2.75	-2.4083	-2.5208	-2.6521	-1.9917	-2.6333	-2.5917	-2.3646	-2.7146	-2.4604	-2.3333	-2.7375	364.259	495.822	485.742	423.173	382.771	347.420	427.622	426.383	243.688	480.953	163.407	431.782	441.219	479.067	291.353	138.862	0.00075677	0.00050796	5.0388e-05	1371.3	1.1082e-05	7.4612e-06	1383.9	372.99	2.921e-06	5.0658e-06	425.34	144.35	125.41	42.4	5.6657e-06	52.018	0.00068559	0.00068773	0.00019269	1408.6	7.6673e-06	7.6442e-06	1419.8	383.95	7.6262e-06	7.6396e-06	440.77	149.39	129.59	44.383	7.5166e-06	54.845	157.581	229.594	260.397	150.393	231.008	257.347	149.913	154.892	272.924	192.605	154.681	158.531	158.824	163.923	321.028	163.218	-8191	255	
705.493	1	1	0	0	0.16826	0.15247	0.18314	0.4711	0.21688	0.12395	0.14076	0.047765	0.078873	0.39751	0.246	0.24208	0.12585	0.16824	0.09524	0.092246	-1.7167	-2.3625	-2.4083	-2.3187	-2.725	-2.2188	-2.4062	-2.6583	-2.1292	-2.4604	-2.5542	-2.2917	-2.5958	-2.3563	-2.2188	-2.7021	368.307	322.054	137.491	484.066	260.033	494.757	138.515	425.516	171.942	375.992	200.632	355.311	153.654	231.031	172.603	463.640	0.00070163	0.00014174	0.00017937	1373.3	3.2199e-06	4.1058e-06	1385.2	372.2	6.4619e-06	4.6871e-06	423.95	143.69	124.9	42.083	8.201e-06	52.022	0.00069073	0.00069015	0.00019285	1410.6	7.5495e-06	7.5592e-06	1418.6	383.6	7.5323e-06	7.6133e-06	439.65	148.9	129.39	44.253	7.6536e-06	54.756	170.620	187.922	207.124	150.710	295.450	306.538	150.112	154.893	276.704	306.593	154.486	158.333	158.989	164.237	280.289	162.895	-8191	255	
705.589	1	1	0	0	0.20884	0.15776	0.15452	0.32886	0.23566	0.060143	0.49413	0.093304	0.025892	0.15658	0.20237	0.49546	0.2042	0.32176	0.071244	0.23043	-1.8312	-2.0792	-2.4792	-2.3146	-2.4562	-2.1937	-2.4688	-2.7271	-2.0312	-2.2771	-2.7396	-2.2042	-2.5438	-2.5687	-2.2604	-2.5479	223.212	226.516	375.872	466.766	481.112	346.608	422.857	327.895	185.422	375.361	157.433	411.828	431.308	173.454	302.518	388.271	0.00073027	0.00015295	5.5699e-05	1371.6	3.2388e-06	4.1116e-06	1378.5	371.22	1.0262e-05	1.7815e-06	426.09	142.97	125.34	42.372	7.6576e-06	52.156	0.00070393	0.00070477	0.00019607	1408.9	7.7315e-06	7.7788e-06	1421.1	383.74	7.7384e-06	7.7233e-06	441.15	148.82	129.79	44.381	7.6432e-06	54.802	171.763	202.584	427.120	150.581	237.850	293.907	150.084	154.894	273.041	462.504	154.512	158.178	158.835	163.963	231.500	163.013	-8191	255	
705.685	1	1	0	0	0.177	0.065679	0.025993	0.10882	0.11726	0.0085975	0.27434	0.044804	0.18144	0.1425	0.16909	0.3449	0.19026	0.12959	0.18	0.31061	-1.7771	-2.2938	-2.4188	-2.2021	-2.5625	-2.3125	-2.275	-2.8208	-2.4313	-2.2917	-2.5896	-2.2854	-2.5708	-2.5979	-2.15	-2.7375	406.208	344.268	235.162	457.288	300.576	171.785	409.169	222.484	252.709	241.043	399.448	423.904	162.041	159.940	264.707	462.171	0.00083172	0.00082124	0.00010479	1374.9	7.5267e-06	6.5665e-06	1383.1	373.78	5.2727e-06	1.0687e-05	422.88	143.68	125.05	42.378	7.8764e-06	52.255	0.00069701	0.00070173	0.00019701	1411.4	7.7205e-06	7.7641e-06	1422.8	384.1	7.6683e-06	7.7411e-06	440.05	148.97	129.29	44.31	7.6578e-06	54.784	170.725	186.709	219.061	150.421	250.603	266.413	150.065	154.948	256.570	295.444	154.383	158.463	159.142	164.186	280.037	163.093	-8191	255	
705.806	1	1	0	0	0.087937	0.18385	0.091126	0.33461	0.12763	0.10162	0.079103	0.17331	0.20928	0.21186	0.17109	0.34146	0.44421	0.20887	0.22897	0.15209	-1.7271	-2.1167	-2.4688	-2.4208	-2.4042	-2.3958	-2.2708	-2.7896	-2.4062	-2.1896	-2.5979	-2.1583	-2.2604	-2.5333	-2.0396	-2.625	198.175	141.798	222.587	474.209	422.489	355.206	396.859	486.142	439.792	157.557	161.881	487.256	406.009	459.211	343.505	485.592	0.00070994	0.00045476	0.00016833	1372.6	2.0124e-06	7.8809e-06	1376.2	372.26	8.2146e-06	3.6831e-07	421.96	142.77	124.44	42.261	6.6597e-06	51.875	0.00069835	0.00070174	0.0001964	1407.3	7.732e-06	7.7609e-06	1417.7	382.96	7.6696e-06	7.6845e-06	438.12	148.29	128.75	44.118	7.5796e-06	54.673	164.998	159.092	252.541	150.439	224.421	278.545	150.137	155.048	221.056	222.586	154.523	158.455	159.031	164.028	252.367	162.940	-8191	255	
705.877	1	1	0	0	0.1293	0.085374	0.14777	0.18706	0.27865	0.070065	0.18788	0.13454	0.2734	0.099753	0.087353	0.23298	0.34201	0.3269	0.10076	0.026639	-2.1	-2.1104	-2.4771	-2.4417	-2.1813	-2.5417	-2.2521	-2.5354	-2.3812	-2.225	-2.7687	-2.4458	-2.3896	-2.5062	-2.1937	-2.5229	162.274	475.610	303.826	457.908	285.617	196.229	392.235	480.901	190.883	323.087	278.177	483.675	257.230	471.529	180.085	472.342	0.00087857	0.00053398	0.00020713	1370.1	1.0843e-06	4.9277e-06	1378.2	371.47	7.7281e-06	6.5181e-06	423.87	143	124.15	42.16	1.677e-06	51.731	0.0006981	0.0006985	0.00019547	1404.8	7.6457e-06	7.6917e-06	1416	382.6	7.6812e-06	7.6945e-06	439.6	148.52	129	44.202	7.6828e-06	54.688	162.305	165.658	146.220	150.405	489.872	311.932	149.927	154.978	243.634	224.001	154.724	158.491	159.072	164.020	236.458	163.229	-8191	255	
705.973	1	1	0	0	0.24486	0.32088	0.056571	0.1346	0.15733	0.073347	0.21116	0.065701	0.11573	0.023587	0.12795	0.15064	0.046266	0.3027	0.14353	0.34034	-1.8875	-2.0354	-2.5229	-2.4354	-2.2583	-2.5125	-2.5229	-2.5875	-2.5187	-2.2417	-2.6333	-2.3708	-2.1125	-2.6125	-2.1	-2.45	346.219	362.021	479.717	190.950	196.376	404.827	404.694	384.852	314.969	212.429	453.020	428.057	201.193	416.927	232.657	441.327	0.0006753	0.00043807	0.00021755	1367.8	6.4957e-06	5.2894e-06	1378.5	371.57	7.3726e-06	8.2896e-06	422.1	142.79	124.17	42.197	3.9369e-06	51.947	0.00070233	0.00070508	0.00019679	1404.8	7.7042e-06	7.792e-06	1415.4	382.91	7.7652e-06	7.7672e-06	438.5	148.52	128.86	44.156	7.8076e-06	54.776	159.104	190.425	212.903	150.340	239.383	258.879	150.105	154.888	251.404	257.882	154.468	158.254	159.027	164.337	197.241	162.968	-8191	255	
706.092	1	1	0	0	0.11738	0.24292	0.10672	0.21668	0.035435	0.22754	0.18472	0.17295	0.15885	0.1014	0.21335	0.095709	0.10752	0.28851	0.27302	0.23021	-2.0667	-2.1104	-2.3854	-2.4229	-2.0667	-2.575	-2.2396	-2.6396	-2.6708	-2.0979	-2.4854	-2.4604	-2.3104	-2.6604	-2.0625	-2.5125	180.241	349.797	213.419	459.720	228.733	196.392	451.488	145.471	247.056	410.640	391.259	198.340	421.542	144.663	208.907	471.508	0.00072095	0.00087606	0.0001693	1367	3.0074e-06	3.1271e-06	1377.5	370.57	5.3719e-06	1.0302e-05	422.61	142.48	123.52	42.148	5.1037e-06	51.38	0.00071734	0.00071973	0.00020086	1406.9	7.9487e-06	7.9109e-06	1418	382.73	7.98e-06	7.9859e-06	439.4	148.21	128.77	44.261	8.0223e-06	54.655	165.685	207.711	245.636	150.273	238.644	173.730	150.100	155.017	226.994	375.531	154.500	158.446	158.736	164.328	347.373	163.411	-8191	255	
706.189	1	1	0	0	0.15535	0.13502	0.43297	0.18884	0.069399	0.32947	0.10991	0.051272	0.22672	0.31129	0.15091	0.12568	0.27724	0.16041	0.095814	0.20553	-2.0833	-1.8937	-2.4396	-2.4833	-2.2833	-2.6375	-2.5021	-2.5812	-2.5021	-2.1229	-2.5875	-2.5167	-2.1729	-2.6521	-2.1354	-2.3729	272.706	137.649	425.246	459.532	246.737	343.606	398.202	445.224	468.691	290.867	152.028	435.519	476.242	491.885	288.793	309.210	0.00089373	6.0285e-05	0.00016451	1367.8	4.6756e-06	1.4235e-06	1376.8	369.12	3.7206e-06	4.6275e-06	420.22	142.46	124	42.212	7.2598e-06	51.524	0.00073835	0.00073505	0.00020445	1407.4	7.9912e-06	8.0207e-06	1418.4	382.19	7.9532e-06	7.9334e-06	439.31	148.13	128.75	44.156	7.8225e-06	54.564	173.109	229.281	236.427	150.455	253.431	376.236	149.901	155.187	185.300	300.399	154.459	158.240	158.958	164.077	230.815	163.379	-8191	255	
706.285	1	1	0	0	0.019445	0.021239	0.10419	0.20673	0.18457	0.19506	0.26807	0.082891	0.049185	0.33974	0.13813	0.18947	0.22638	0.11184	0.070378	0.15698	-1.9604	-2.1479	-2.4646	-2.475	-2.0687	-2.4958	-2.3563	-2.3729	-2.6875	-2.2667	-2.5792	-2.6375	-2.3875	-2.5896	-2.2458	-2.4646	387.987	172.093	322.366	462.958	388.919	187.818	144.870	145.260	279.467	263.070	366.220	416.193	493.185	174.648	190.682	444.814	0.00069799	0.00037713	9.077e-05	1365.7	5.583e-06	3.0606e-06	1371.3	371.22	3.633e-06	2.8906e-06	421.73	142.03	123.93	42.108	4.3429e-06	51.772	0.00070996	0.00071299	0.00019828	1402.4	7.75e-06	7.7655e-06	1411	382.14	7.665e-06	7.7105e-06	437.65	147.83	128.55	44.109	7.7027e-06	54.644	174.522	198.517	206.539	150.398	245.428	191.103	150.122	154.891	187.014	373.777	154.519	158.196	159.087	164.262	294.737	162.941	-8191	255	
706.381	1	1	0	0	0.19226	0.047244	0.062054	0.29993	0.23552	0.23854	0.14948	0.12458	0.082422	0.097827	0.1982	0.24321	0.1597	0.17565	0.20238	0.16498	-2.2458	-2.3167	-2.5333	-2.6792	-1.9625	-2.525	-2.525	-2.5708	-2.6	-2.1708	-2.5479	-2.4917	-2.3417	-2.6771	-2.4396	-2.3292	233.370	264.511	355.028	491.240	161.596	202.622	442.461	356.387	160.289	484.452	433.552	363.544	464.474	420.309	379.133	193.594	0.00072949	0.00045368	0.00016476	1367.9	1.7632e-06	5.0138e-06	1373.3	370.64	5.8963e-06	3.9643e-06	421.78	142.92	123.85	42.074	1.3918e-06	51.902	0.00070442	0.00070592	0.00019704	1404.3	7.7046e-06	7.7322e-06	1413.9	382.28	7.6991e-06	7.6423e-06	437.93	148.13	128.68	44.092	7.6703e-06	54.593	161.362	427.530	157.628	150.460	347.375	215.501	150.103	155.183	236.779	278.414	154.501	158.511	158.990	164.108	466.554	163.332	-8191	255	
706.477	1	1	0	0	0.074444	0.092383	0.13313	0.24509	0.13685	0.27404	0.41628	0.20407	0.1128	0.30334	0.092162	0.060498	0.19558	0.29835	0.11353	0.29943	-2.1354	-2.1292	-2.2104	-2.6604	-2.1437	-2.5083	-2.7104	-2.2833	-2.5938	-2.4083	-2.4208	-2.725	-2.1729	-2.5312	-2.4583	-2.1875	347.295	319.731	264.634	477.372	139.942	173.679	420.932	448.627	370.924	329.857	421.505	454.040	327.491	495.251	194.846	422.796	0.00073456	0.0010122	0.00024416	1367.7	4.3298e-06	2.8702e-06	1377.2	371.42	8.3482e-06	5.4882e-06	421.93	142.92	124.13	42.054	1.3216e-06	51.755	0.00069958	0.00069769	0.00019385	1402.8	7.5629e-06	7.5672e-06	1412.6	381.9	7.5097e-06	7.429e-06	436.78	147.9	128.44	43.997	7.4067e-06	54.455	159.213	229.430	268.926	150.644	293.223	306.118	150.028	155.039	268.995	339.577	154.606	158.509	159.126	164.206	169.167	163.157	-8191	255	
#DATA ENDS
