BOXY.EXE: ISS Imagent and Oximeter Data Acquisition Program Version 0.80
Ascii Record File

#ACQ INFORMATION
2  Detector Channels 
16  External MUX Channels 
1  Auxiliary Channels 
5000  Waveform (CCF) Frequency (Hz)
1  Waveforms Skipped 
30  Waveforms Averaged 
1  Cycles Averaged 
16  Acquisitions per Waveform 
10.0806  Updata Rate (Hz) 

#FILE INFORMATION
TRUE -- External MUX Channel results are PARSED.
FALSE -- AC DC and Phase are NOT grouped.
TRUE -- Companion Program Settings File CREATED.
FALSE -- AC data not excluded
FALSE -- DC data not excluded
FALSE -- Phase data not excluded
FALSE -- Auxillary Chn. data not excluded
Tab delimiters

#CALIBRATION STATE
TRUE -- Waveform Calibration Values APPLIED.


#AUX CALIBRATION VALUES
Val Type	aux-1	

Term	1.0000e+00	
Factor	0.0000e+00	


#WF CALIBRATION VALUES
A = Detector Channel
Val Type	A-AC1	A-AC2	A-AC3	A-AC4	A-AC5	A-AC6	A-AC7	A-AC8	A-AC9	A-AC10	A-AC11	A-AC12	A-AC13	A-AC14	A-AC15	A-AC16	A-DC1	A-DC2	A-DC3	A-DC4	A-DC5	A-DC6	A-DC7	A-DC8	A-DC9	A-DC10	A-DC11	A-DC12	A-DC13	A-DC14	A-DC15	A-DC16	A-Ph1	A-Ph2	A-Ph3	A-Ph4	A-Ph5	A-Ph6	A-Ph7	A-Ph8	A-Ph9	A-Ph10	A-Ph11	A-Ph12	A-Ph13	A-Ph14	A-Ph15	A-Ph16	

Term	0.00000e+00	0.00000e+00	0.00000e+00	0.00000e+00	0.00000e+00	0.00000e+00	0.00000e+00	0.00000e+00	0.00000e+00	0.00000e+00	0.00000e+00	0.00000e+00	0.00000e+00	0.00000e+00	0.00000e+00	0.00000e+00	0.00000e+00	0.00000e+00	0.00000e+00	0.00000e+00	0.00000e+00	0.00000e+00	0.00000e+00	0.00000e+00	0.00000e+00	0.00000e+00	0.00000e+00	0.00000e+00	0.00000e+00	0.00000e+00	0.00000e+00	0.00000e+00	0.00000e+00	0.00000e+00	0.00000e+00	0.00000e+00	0.00000e+00	0.00000e+00	0.00000e+00	0.00000e+00	0.00000e+00	0.00000e+00	0.00000e+00	0.00000e+00	0.00000e+00	0.00000e+00	0.00000e+00	0.00000e+00	
Factor	1.00000e+00	1.00000e+00	1.00000e+00	1.00000e+00	1.00000e+00	1.00000e+00	1.00000e+00	1.00000e+00	1.00000e+00	1.00000e+00	1.00000e+00	1.00000e+00	1.00000e+00	1.00000e+00	1.00000e+00	1.00000e+00	1.00000e+00	1.00000e+00	1.00000e+00	1.00000e+00	1.00000e+00	1.00000e+00	1.00000e+00	1.00000e+00	1.00000e+00	1.00000e+00	1.00000e+00	1.00000e+00	1.00000e+00	1.00000e+00	1.00000e+00	1.00000e+00	X	X	X	X	X	X	X	X	X	X	X	X	X	X	X	X	

B = Detector Channel
Val Type	B-AC1	B-AC2	B-AC3	B-AC4	B-AC5	B-AC6	B-AC7	B-AC8	B-AC9	B-AC10	B-AC11	B-AC12	B-AC13	B-AC14	B-AC15	B-AC16	B-DC1	B-DC2	B-DC3	B-DC4	B-DC5	B-DC6	B-DC7	B-DC8	B-DC9	B-DC10	B-DC11	B-DC12	B-DC13	B-DC14	B-DC15	B-DC16	B-Ph1	B-Ph2	B-Ph3	B-Ph4	B-Ph5	B-Ph6	B-Ph7	B-Ph8	B-Ph9	B-Ph10	B-Ph11	B-Ph12	B-Ph13	B-Ph14	B-Ph15	B-Ph16	

Term	0.00000e+00	0.00000e+00	0.00000e+00	0.00000e+00	0.00000e+00	0.00000e+00	0.00000e+00	0.00000e+00	0.00000e+00	0.00000e+00	0.00000e+00	0.00000e+00	0.00000e+00	0.00000e+00	0.00000e+00	0.00000e+00	0.00000e+00	0.00000e+00	0.00000e+00	0.00000e+00	0.00000e+00	0.00000e+00	0.00000e+00	0.00000e+00	0.00000e+00	0.00000e+00	0.00000e+00	0.00000e+00	0.00000e+00	0.00000e+00	0.00000e+00	0.00000e+00	-1.50301e+02	-1.43373e+02	-1.49792e+02	-1.82306e+02	-7.93885e+01	-7.58284e+01	-1.59027e+02	-1.62015e+02	-9.78180e+01	-8.34192e+01	-1.70563e+02	-1.71693e+02	-1.81003e+02	-1.76539e+02	-7.99657e+01	-1.49547e+02	
Factor	2.19586e-05	8.39436e-05	3.41424e-05	1.49821e-01	8.35295e-07	9.81461e-07	1.65141e-01	4.79080e-02	1.03987e-06	1.07697e-06	8.44516e-02	2.96454e-02	2.29630e-02	8.60919e-03	9.99734e-07	1.26421e-02	8.08318e-07	8.29617e-07	2.31217e-07	7.45948e-02	9.07046e-09	9.09328e-09	7.73629e-02	2.38309e-02	9.06268e-09	9.06799e-09	3.98886e-02	1.40138e-02	1.13350e-02	4.22160e-03	9.04165e-09	5.95415e-03	X	X	X	X	X	X	X	X	X	X	X	X	X	X	X	X	



#DISTANCE SETTINGS
A = Detector Channel
A-1	A-2	A-3	A-4	A-5	A-6	A-7	A-8	A-9	A-10	A-11	A-12	A-13	A-14	A-15	A-16	

2.5000e+00	3.0000e+00	2.5000e+00	3.0000e+00	2.0000e+00	3.0000e+00	1.5000e+00	3.0000e+00	3.0000e+00	3.0000e+00	3.0000e+00	3.0000e+00	3.0000e+00	3.0000e+00	1.5000e+00	3.0000e+00	

B = Detector Channel
B-1	B-2	B-3	B-4	B-5	B-6	B-7	B-8	B-9	B-10	B-11	B-12	B-13	B-14	B-15	B-16	

1.0000e+01	1.0000e+01	1.0000e+01	1.4400e+00	1.0000e+01	1.0000e+01	1.5100e+00	1.9400e+00	1.0000e+01	1.0000e+01	1.9900e+00	2.4900e+00	2.4100e+00	2.9000e+00	1.0000e+01	2.9800e+00	




#DATA BEGINS
time	group	step	mark	flag	A-AC1	A-AC2	A-AC3	A-AC4	A-AC5	A-AC6	A-AC7	A-AC8	A-AC9	A-AC10	A-AC11	A-AC12	A-AC13	A-AC14	A-AC15	A-AC16	A-DC1	A-DC2	A-DC3	A-DC4	A-DC5	A-DC6	A-DC7	A-DC8	A-DC9	A-DC10	A-DC11	A-DC12	A-DC13	A-DC14	A-DC15	A-DC16	A-Ph1	A-Ph2	A-Ph3	A-Ph4	A-Ph5	A-Ph6	A-Ph7	A-Ph8	A-Ph9	A-Ph10	A-Ph11	A-Ph12	A-Ph13	A-Ph14	A-Ph15	A-Ph16	B-AC1	B-AC2	B-AC3	B-AC4	B-AC5	B-AC6	B-AC7	B-AC8	B-AC9	B-AC10	B-AC11	B-AC12	B-AC13	B-AC14	B-AC15	B-AC16	B-DC1	B-DC2	B-DC3	B-DC4	B-DC5	B-DC6	B-DC7	B-DC8	B-DC9	B-DC10	B-DC11	B-DC12	B-DC13	B-DC14	B-DC15	B-DC16	B-Ph1	B-Ph2	B-Ph3	B-Ph4	B-Ph5	B-Ph6	B-Ph7	B-Ph8	B-Ph9	B-Ph10	B-Ph11	B-Ph12	B-Ph13	B-Ph14	B-Ph15	B-Ph16	aux-1	digaux	

1210.131	1	1	0	256	0.136	0.30637	0.29895	0.2361	0.26104	0.3485	0.48884	0.11978	0.3375	0.11365	0.22763	0.19044	0.13965	0.24131	0.048902	0.14835	-2.2125	-2.0396	-2.4313	-2.4396	-2.0375	-2.4813	-2.2812	-2.4021	-2.6625	-2.4396	-2.4875	-2.5896	-2.4625	-2.6521	-2.2146	-2.45	-42.127	110.561	-12.248	-101.907	120.256	150.353	219.094	-50.747	63.640	97.629	132.842	138.701	178.287	206.535	167.780	204.953	0.0009386	0.00016067	0.00025132	626.89	3.711e-06	6.9347e-06	823.4	284.15	5.2288e-06	1.1041e-05	398.01	194.55	144.96	74.491	3.4657e-06	103.88	0.00084495	0.0008465	0.00023609	668.48	9.2447e-06	9.2661e-06	857.54	293.79	9.2612e-06	9.2926e-06	410.25	195.27	147.39	74.252	9.28e-06	102.31	180.847	-84.279	-34.931	-112.994	162.198	42.685	-114.011	-108.322	46.769	83.883	-110.436	-107.377	-105.669	-99.123	-41.936	-102.365	-8191	255	
1210.252	1	1	0	0	0.088317	0.14865	0.065273	0.22902	0.027466	0.095814	0.26414	0.18227	0.21155	0.32596	0.10638	0.075808	0.19903	0.25748	0.23979	0.1339	-2.0854	-2.1	-2.4333	-2.5625	-1.9021	-2.3229	-2.4688	-2.2333	-2.6042	-2.2667	-2.4125	-2.6354	-2.1646	-2.7687	-2.2583	-2.3208	10.862	-86.965	176.568	200.742	8.703	49.238	230.768	195.666	139.668	-56.010	145.623	167.754	135.937	201.572	-125.250	205.620	0.00077613	0.0010451	0.00035805	630.61	4.2928e-06	3.5886e-06	824.34	283.87	9.3316e-06	5.0312e-06	398.51	193.97	145.22	74.821	2.2029e-06	104.54	0.00085107	0.00085343	0.00023629	671.47	9.3145e-06	9.2778e-06	860.63	293.79	9.2393e-06	9.3043e-06	411.14	195.34	147.67	74.498	9.2576e-06	102.85	186.023	-35.378	-58.075	-113.040	79.567	-79.096	-113.976	-108.187	-10.808	149.213	-110.303	-107.298	-105.611	-98.947	211.642	-102.475	-8191	255	
1210.348	1	1	0	0	0.13339	0.082206	0.18951	0.14413	0.20203	0.018989	0.12613	0.2045	0.25672	0.35667	0.16998	0.047437	0.411	0.29702	0.12358	0.37441	-2.2313	-2.2417	-2.4313	-2.5896	-2.0604	-2.4729	-2.4562	-2.2021	-2.6271	-2.2938	-2.5625	-2.8979	-2.1979	-2.5479	-2.4042	-2.3812	-15.999	-83.789	63.217	-120.317	115.454	82.074	207.868	-88.602	-64.802	3.810	141.278	187.783	-106.412	171.700	117.423	133.303	0.00078076	7.8944e-05	0.00043898	626.38	3.5913e-06	3.4906e-06	829.37	285.48	3.2305e-06	7.6459e-06	402.17	194.45	145.24	75.138	7.5423e-06	105.04	0.00085139	0.00085327	0.00023776	671.93	9.3576e-06	9.3812e-06	864.75	294.66	9.3082e-06	9.3521e-06	412.89	196.44	148.21	74.802	9.3661e-06	103.47	178.652	2.724	-66.378	-113.174	7.547	186.790	-114.225	-108.043	-2.470	-52.210	-110.447	-107.313	-105.593	-99.052	68.448	-102.440	-8191	255	
1210.420	1	1	0	0	0.0526	0.13793	0.054281	0.025667	0.062948	0.05271	0.075296	0.12136	0.09299	0.43148	0.21281	0.29564	0.19888	0.30559	0.15488	0.17359	-2.175	-2.4146	-2.0792	-2.6396	-2.2292	-2.5062	-2.6833	-2.2104	-2.65	-2.325	-2.3146	-2.5729	-2.25	-2.5563	-1.9896	-2.4292	63.748	-63.066	-18.579	82.101	126.482	81.409	57.197	204.428	210.638	1.266	157.131	173.268	-58.909	208.636	100.213	198.354	0.00065069	0.0013388	3.2712e-05	631.2	5.8929e-06	9.6504e-06	828.09	285.77	8.1749e-06	1.0028e-05	399.69	194.44	143.82	74.645	6.2982e-06	104.32	0.00085994	0.00085267	0.00023926	675.56	9.3777e-06	9.3314e-06	864.23	294.13	9.289e-06	9.3286e-06	410.41	195.54	147.13	74.279	9.324e-06	102.59	166.075	-75.354	-72.789	-113.081	-51.650	56.819	-113.887	-107.964	224.888	6.541	-110.461	-107.089	-105.503	-98.997	43.744	-102.596	-8191	255	
1210.516	1	1	0	0	0.1463	0.23006	0.11008	0.067255	0.18583	0.15856	0.15289	0.19707	0.19389	0.08496	0.23709	0.077395	0.34564	0.10229	0.045246	0.20074	-2.0917	-2.3688	-2.3187	-2.7271	-2.1333	-2.2062	-2.5396	-2.2167	-2.5521	-2.5646	-2.2667	-2.7271	-2.3979	-2.5812	-2.5167	-2.375	-5.571	127.553	160.935	186.468	87.504	227.551	152.434	214.774	-34.764	97.301	208.343	195.467	233.664	-96.665	222.046	200.971	0.000722	0.00020102	0.00018493	628	1.0209e-05	6.4871e-06	820.5	282.48	2.3985e-06	3.1781e-06	397.44	192.57	144.61	74.149	2.8485e-06	103.4	0.00085045	0.00084963	0.00023655	669.76	9.3037e-06	9.3156e-06	860.05	293.21	9.2519e-06	9.3265e-06	409.47	194.47	146.81	73.931	9.2296e-06	102.01	170.413	-54.068	-25.398	-113.187	-29.687	17.935	-114.065	-108.056	121.585	-114.790	-110.706	-107.368	-105.459	-99.226	10.228	-102.446	-8191	255	
1210.636	1	1	0	0	0.19952	0.099087	0.075798	0.051653	0.053558	0.099776	0.33998	0.071341	0.21144	0.060403	0.12229	0.19701	0.25174	0.32109	0.12231	0.042645	-2.0833	-2.3063	-2.1458	-2.9396	-2.4771	-2.3583	-2.6042	-2.4208	-2.5146	-2.4167	-2.3708	-2.7042	-2.3771	-2.4479	-2.6417	-2.1479	-43.586	-32.703	32.278	9.531	123.889	-12.506	110.252	200.919	103.725	-19.529	205.804	114.269	232.902	199.807	27.408	-114.087	0.00052391	0.00098764	0.00020792	627.61	7.1916e-06	6.3799e-06	825.5	283.33	4.3604e-06	1.3127e-05	397.29	193.27	144.35	74.392	4.9391e-06	103.08	0.0008465	0.00084741	0.00023691	668.9	9.2598e-06	9.3044e-06	861.68	293.49	9.3272e-06	9.3189e-06	409.56	194.5	146.79	73.999	9.2625e-06	101.96	175.204	-59.116	24.025	-112.911	64.978	-18.264	-114.312	-107.849	34.613	-15.967	-110.521	-107.153	-105.772	-99.138	-39.069	-102.506	-8191	255	
1210.732	1	1	0	0	0.2161	0.2316	0.02903	0.10772	0.17433	0.064259	0.10583	0.33157	0.20746	0.16724	0.28759	0.20681	0.32504	0.33564	0.034113	0.24725	-1.8167	-2.4437	-1.9979	-2.6354	-2.2875	-2.3958	-2.6833	-2.2125	-2.4417	-2.4688	-2.3604	-2.5125	-2.425	-2.3771	-2.6354	-2.4375	43.021	184.433	-37.058	-91.245	59.445	-125.693	-97.352	213.684	-85.854	209.335	192.966	199.670	214.875	190.907	207.118	115.550	0.00080764	0.00062691	0.00016572	626.07	2.7664e-06	6.2727e-06	824.71	285.56	4.8294e-06	5.5494e-06	401.04	193.81	144.21	74.414	1.6348e-05	104.26	0.00085037	0.00085037	0.00023775	668.51	9.3251e-06	9.3393e-06	861.67	293.86	9.3044e-06	9.2982e-06	410.83	194.91	146.84	74.063	9.2656e-06	102.47	187.091	-110.000	-89.055	-113.043	-73.587	33.628	-114.067	-108.087	32.258	-8.355	-110.391	-107.285	-105.697	-99.114	-26.327	-102.423	-8191	255	
1210.829	1	1	0	0	0.09386	0.19856	0.20759	0.048268	0.26939	0.091579	0.15248	0.07901	0.017241	0.064366	0.067277	0.21818	0.19482	0.17815	0.046263	0.31278	-1.975	-2.4354	-2.0521	-2.6917	-2.4188	-2.1979	-2.7979	-2.4958	-2.5458	-2.6875	-2.4	-2.7292	-2.4938	-2.3021	-2.4813	-2.5604	-19.468	108.623	3.788	186.712	-82.846	-37.455	-53.167	8.777	165.480	176.191	-123.562	215.799	9.581	199.546	-35.266	171.911	0.00079866	0.00028465	0.0002669	629.89	1.1269e-05	9.5624e-06	828.14	285.6	5.8427e-07	4.8061e-06	400.93	195.86	145.24	74.951	9.3487e-06	104.81	0.00085789	0.00085488	0.00023688	670.66	9.3726e-06	9.3836e-06	864.92	295.43	9.348e-06	9.3829e-06	413.65	197.06	148.21	74.783	9.3378e-06	103.3	186.077	-64.218	-51.582	-112.714	-3.543	-24.732	-114.164	-107.995	90.172	-4.250	-110.514	-107.390	-105.570	-99.151	-15.686	-102.134	-8191	255	
1210.925	1	1	0	0	0.2852	0.19197	0.18522	0.2799	0.2904	0.24523	0.10611	0.21747	0.075254	0.20576	0.059567	0.26484	0.30621	0.28061	0.15748	0.11469	-1.5917	-2.6437	-2.0729	-2.6333	-2.4083	-2.0792	-2.7021	-2.4313	-2.2708	-2.7521	-2.1937	-2.5667	-2.6604	-2.3937	-2.6542	-2.5458	215.298	-35.592	-52.496	-125.774	17.457	-104.027	158.365	113.597	193.210	-47.875	216.477	125.953	-112.880	215.088	123.397	196.743	0.00063055	0.0006086	0.00024325	629.46	5.447e-06	1.4779e-06	835.8	287.63	3.8772e-06	5.5086e-06	405.84	197.48	147.14	75.259	9.8095e-06	105.07	0.00085893	0.00085938	0.00024053	674.07	9.3598e-06	9.447e-06	869.98	297.89	9.4074e-06	9.395e-06	415.89	198.07	149.48	74.883	9.3755e-06	103.33	177.426	-42.164	-112.265	-112.997	14.279	-93.949	-114.069	-108.182	-24.309	26.029	-110.544	-107.218	-105.513	-99.062	18.866	-102.629	-8191	255	
1211.021	1	1	0	0	0.21468	0.1791	0.24476	0.090822	0.095785	0.35098	0.027633	0.20817	0.14649	0.25005	0.30466	0.29809	0.12103	0.2069	0.12672	0.18637	-1.9667	-2.6354	-2.25	-2.4437	-2.55	-2.2438	-2.6896	-2.4083	-2.1417	-2.5042	-2.2188	-2.3333	-2.5708	-2.3583	-2.4833	-2.4562	211.474	211.002	-93.622	209.696	168.503	-57.934	190.487	123.394	75.567	143.512	219.943	170.314	222.772	227.999	-79.639	102.279	0.00090054	0.00019435	0.00019596	633.82	5.8929e-06	2.8503e-06	829.1	288.76	4.1171e-06	6.4502e-06	406.59	197.91	147.42	75.541	4.6143e-06	105.67	0.00086177	0.0008532	0.00023992	675.8	9.4129e-06	9.409e-06	869.21	298.31	9.3685e-06	9.4444e-06	417.82	198.84	150.28	75.411	9.424e-06	104.04	172.304	-27.675	-80.536	-113.078	4.497	-3.092	-113.962	-108.178	-20.248	-71.752	-110.686	-107.272	-105.466	-99.169	165.573	-102.218	-8191	255	
1211.115	1	1	0	0	0.074221	0.18372	0.21735	0.4797	0.11468	0.1937	0.029907	0.20652	0.16071	0.081961	0.17067	0.12876	0.1282	0.20773	0.15471	0.2021	-1.8563	-2.5396	-2.1625	-2.2958	-2.5292	-2.1354	-2.5417	-2.6458	-2.1021	-2.5667	-2.3604	-2.3396	-2.7708	-2.3875	-2.4333	-2.5875	105.350	220.009	-93.057	207.070	81.982	75.560	84.610	169.768	117.276	-124.757	152.380	-27.628	-52.440	215.784	15.714	183.256	0.0007761	0.0002805	7.0683e-05	638.16	8.5133e-06	5.323e-06	838.42	289.3	1.5112e-05	1.16e-05	407.62	197.6	148.25	75.85	6.1956e-06	106.28	0.00086511	0.00086793	0.00024251	681.96	9.5258e-06	9.4796e-06	873.61	299.77	9.5112e-06	9.4978e-06	419.79	199.77	150.99	75.616	9.565e-06	104.84	179.531	-76.849	-21.187	-112.904	42.543	-35.063	-114.207	-108.085	14.588	-28.371	-110.674	-107.590	-105.760	-99.125	79.495	-102.285	-8191	255	
1211.213	1	1	0	0	0.062199	0.12159	0.10679	0.39391	0.24419	0.10874	0.114	0.11681	0.29492	0.15823	0.10235	0.11015	0.3343	0.099874	0.11173	0.42037	-1.6208	-2.4479	-2.3187	-2.2812	-2.4042	-2.0792	-2.5604	-2.6	-2.0271	-2.4479	-2.4958	-2.3458	-2.8042	-2.4271	-2.3271	-2.6396	124.530	180.893	32.907	219.816	35.244	142.173	160.228	198.521	216.239	137.065	73.286	135.402	226.153	226.302	-49.769	152.756	0.00067274	0.00013409	0.00035056	636.73	5.5171e-06	9.7592e-06	845.42	290.11	5.5092e-06	9.3349e-06	406.87	197.38	147.49	75.612	5.3237e-06	106.27	0.00087195	0.00087938	0.00024382	680.48	9.5478e-06	9.5938e-06	875.77	299.28	9.5272e-06	9.4952e-06	418.37	199.01	149.92	75.415	9.521e-06	104.75	176.777	228.849	-103.629	-112.831	152.176	46.476	-113.970	-107.835	-47.290	7.385	-110.312	-107.415	-105.472	-98.872	3.026	-102.335	-8191	255	
1211.332	1	1	0	0	0.11405	0.17347	0.1797	0.087738	0.14703	0.24423	0.17799	0.041269	0.32009	0.12656	0.2653	0.17491	0.059163	0.18819	0.018977	0.16477	-1.4688	-2.4646	-2.325	-2.0854	-2.5187	-2.2167	-2.25	-2.7313	-2.1521	-2.5125	-2.5146	-2.4833	-2.7667	-2.3563	-2.2646	-2.6562	-23.892	-80.346	11.796	54.097	-20.686	4.777	-112.343	-15.615	-32.656	162.429	203.847	194.438	1.219	-105.775	-86.354	-113.229	0.0009367	4.8783e-05	0.00011922	633.61	6.5493e-06	1.1941e-05	832.03	289.41	6.6464e-06	8.7809e-06	403.82	195.02	145.08	74.21	5.5116e-06	104.67	0.00087736	0.00087273	0.00024494	678.1	9.563e-06	9.5067e-06	872.14	298.26	9.4728e-06	9.4349e-06	415.53	196.71	147.75	74.047	9.3471e-06	103.06	167.259	124.981	-1.753	-112.943	36.227	3.368	-113.815	-108.080	209.073	5.220	-110.419	-107.486	-105.573	-98.887	56.884	-102.192	-8191	255	
1211.428	1	1	0	0	0.11546	0.28015	0.12144	0.19654	0.06905	0.15799	0.28449	0.25661	0.11857	0.07539	0.16265	0.1169	0.048468	0.11019	0.40765	0.39303	-1.5312	-2.35	-2.5187	-2.1396	-2.5146	-2.2875	-2.1875	-2.6562	-2.2938	-2.3854	-2.3875	-2.35	-2.7083	-2.6375	-2.1333	-2.7917	205.348	-2.929	93.471	-117.189	225.160	-29.923	72.439	152.841	-50.353	57.786	67.782	212.117	-68.359	198.759	54.129	170.150	0.00074669	0.00036396	0.00013834	631.69	7.4302e-06	3.767e-06	823.51	284.69	2.1233e-06	6.9225e-06	398.64	193.83	143.5	73.497	4.9555e-06	102.93	0.00085594	0.0008546	0.00024074	671.13	9.3542e-06	9.4184e-06	862.45	294.62	9.3156e-06	9.3682e-06	410.79	194.68	146.12	73.266	9.2312e-06	101.45	175.344	83.709	-97.870	-113.162	42.158	135.745	-113.994	-107.982	-97.716	21.381	-110.289	-107.214	-105.402	-98.826	24.722	-102.445	-8191	255	
1211.524	1	1	0	0	0.27056	0.26807	0.18818	0.075686	0.25782	0.30613	0.1696	0.29764	0.22536	0.24112	0.1273	0.13013	0.26996	0.15804	0.064318	0.33844	-1.5375	-2.3542	-2.4479	-2.2396	-2.525	-2.4229	-2.3854	-2.6188	-2.2229	-2.4333	-2.6021	-2.2542	-2.5812	-2.5438	-2.2104	-2.7313	54.396	-110.166	-111.110	99.945	-94.946	49.966	-97.981	164.516	98.775	-3.291	220.168	190.004	151.670	196.309	140.110	171.141	0.00089334	0.0002331	0.00013379	625.14	8.1404e-07	1.9939e-06	816.96	284.22	4.9447e-06	8.8695e-06	398.79	193.48	142.81	73.285	1.2722e-05	102.82	0.00084326	0.00084416	0.00023655	666.83	9.2527e-06	9.2585e-06	856.87	293.14	9.2445e-06	9.3111e-06	409.8	194.01	145.65	73.013	9.221e-06	101.22	180.727	161.681	-20.959	-112.763	192.246	-13.088	-114.245	-108.215	73.104	-10.632	-110.240	-106.956	-105.452	-99.162	-21.079	-102.562	-8191	255	
1211.645	1	1	0	0	0.19649	0.19405	0.18038	0.34287	0.085083	0.052825	0.18832	0.18892	0.016209	0.13044	0.030438	0.19076	0.28989	0.22768	0.11277	0.077592	-1.8188	-2.3417	-2.5083	-2.2604	-2.4708	-2.4521	-2.3042	-2.7771	-2.3229	-2.3604	-2.6042	-2.1333	-2.5021	-2.6979	-2.0792	-2.7708	67.044	-38.801	-91.813	209.161	63.921	40.612	-87.168	-98.838	24.729	-31.999	83.051	-60.354	-107.179	-86.189	175.186	98.158	0.00076187	0.00044477	0.00015861	624.28	1.1794e-05	1.1005e-05	824.38	283.13	1.0799e-05	6.7114e-06	399.04	192.91	143.06	73.222	3.7334e-06	103.07	0.00084372	0.00083982	0.00023414	665.54	9.1556e-06	9.1373e-06	855.73	291.52	9.1294e-06	9.182e-06	408.97	193.75	145.58	73.051	9.1906e-06	101.7	175.297	210.449	-99.918	-113.016	-17.946	-32.843	-114.148	-108.154	5.987	13.491	-110.249	-107.182	-105.548	-98.889	81.624	-102.339	-8191	255	
1211.717	1	1	0	0	0.050415	0.10678	0.13667	0.082832	0.26974	0.20461	0.17607	0.17073	0.13178	0.27193	0.13778	0.45764	0.25536	0.4147	0.038856	0.23139	-1.8333	-2.4542	-2.6375	-2.0187	-2.4708	-2.5563	-2.1604	-2.6437	-2.2438	-2.2979	-2.5979	-2.375	-2.6354	-2.6396	-2.1021	-2.7188	159.113	-77.133	-47.418	38.330	157.160	71.811	198.639	163.951	51.327	-22.673	206.601	171.129	228.805	205.941	57.799	173.369	0.00078446	0.00045996	0.0001679	623.08	2.3478e-06	5.3428e-06	825.17	282.68	8.0739e-06	1.6008e-06	401.1	194.27	143.97	73.657	6.7196e-06	103.58	0.00084511	0.00084521	0.00023443	666.12	9.2217e-06	9.2163e-06	860.57	292.84	9.2334e-06	9.2424e-06	411.69	195.66	146.6	73.416	9.2813e-06	102.1	184.243	-121.966	-54.732	-112.799	178.627	-28.612	-114.244	-108.177	-7.760	187.655	-110.481	-107.214	-105.578	-98.910	4.297	-102.322	-8191	255	
1211.813	1	1	0	0	0.09188	0.13641	0.27822	0.18408	0.086881	0.11847	0.22921	0.14352	0.26161	0.11762	0.18153	0.17797	0.28064	0.25649	0.25605	0.20805	-1.7625	-2.1229	-2.5729	-2.2687	-2.4667	-2.6979	-2.3271	-2.6896	-2.2667	-2.1667	-2.8979	-2.4938	-2.375	-2.7604	-2.1083	-2.7375	64.904	-24.052	-40.373	122.080	218.435	20.188	186.036	178.657	43.377	168.352	221.055	125.037	-107.027	186.296	40.231	221.727	0.00065537	0.00069779	0.00035657	625.34	5.9694e-06	1.3693e-05	819.08	281.46	7.6256e-06	3.0528e-06	398.4	192.74	142.75	73.006	3.3446e-06	102.65	0.00084738	0.00084912	0.00023361	664.34	9.1881e-06	9.2065e-06	855.96	291.1	9.2009e-06	9.179e-06	409.39	193.4	145.05	72.714	9.1297e-06	101.17	184.789	-73.435	-85.215	-113.196	7.072	-6.892	-114.086	-108.008	34.213	-66.127	-110.360	-107.078	-105.524	-99.068	200.342	-102.136	-8191	255	
1211.933	1	1	0	0	0.20024	0.27082	0.1611	0.18255	0.0734	0.11058	0.11659	0.17864	0.16155	0.19923	0.19918	0.18491	0.057342	0.31058	0.24886	0.32321	-1.9104	-2.1583	-2.625	-2.2542	-2.4604	-2.4542	-2.3979	-2.6479	-2.575	-2.2687	-2.6229	-2.4875	-2.575	-2.8187	-2.1292	-2.6104	-50.035	-69.402	85.871	-74.546	121.751	214.295	48.949	82.670	128.139	140.397	172.709	153.960	107.502	200.302	-78.713	226.621	0.00081711	0.0001365	0.00012302	622.67	2.0677e-06	7.4359e-06	817.75	280.13	4.2468e-06	1.0474e-05	395.56	191.06	141.76	73.011	2.8007e-06	102.22	0.0008403	0.00083977	0.00023256	662.47	9.1675e-06	9.1478e-06	852.03	289.17	9.154e-06	9.1614e-06	406.6	192.46	144.57	72.595	9.1762e-06	100.89	180.253	-57.961	-76.003	-112.858	31.383	105.181	-114.312	-107.760	-31.948	-25.886	-110.246	-107.132	-105.619	-98.914	64.634	-102.218	-8191	255	
1212.028	1	1	0	0	0.17228	0.29645	0.35842	0.29724	0.021698	0.15104	0.22637	0.1827	0.21162	0.25511	0.17929	0.12719	0.077266	0.24312	0.092223	0.15563	-1.8021	-1.9604	-2.5062	-2.3104	-2.1729	-2.4938	-2.4271	-2.6292	-2.5458	-2.0125	-2.7542	-2.4813	-2.4396	-2.6479	-2.275	-2.4583	-19.673	-74.104	98.984	160.005	168.813	145.585	223.529	170.733	210.621	196.736	-76.631	-80.337	220.357	131.065	229.206	149.862	0.00067499	0.00015994	9.9331e-05	624.85	6.2196e-06	3.2081e-06	820.12	280.66	8.6567e-06	5.5122e-06	395.64	192.39	142.21	73.18	1.1552e-06	103.09	0.000841	0.00084482	0.00023355	664.25	9.2059e-06	9.2346e-06	854.23	289.82	9.153e-06	9.25e-06	407.54	193.38	145.11	72.999	9.2989e-06	101.77	172.818	-100.794	3.401	-112.778	34.933	22.014	-114.213	-107.698	-34.038	11.525	-110.375	-107.064	-105.731	-98.937	-109.017	-102.229	-8191	255	
1212.124	1	1	0	0	0.059891	0.18229	0.14244	0.13655	0.2388	0.090946	0.13933	0.23669	0.11809	0.099159	0.27517	0.2872	0.068815	0.029107	0.14545	0.50297	-2.0271	-2.0917	-2.4437	-2.425	-2.2375	-2.6646	-2.4875	-2.4708	-2.55	-2.2375	-2.4896	-2.5292	-2.1417	-2.7375	-2.3646	-2.3583	211.862	-102.055	-65.418	164.484	232.456	-125.402	-22.379	133.772	196.068	52.301	227.422	172.201	100.254	-53.906	-107.464	163.739	0.00060364	0.00092898	0.0001528	628.35	8.7717e-06	7.7773e-06	826.38	283.27	4.6182e-06	2.421e-06	399.16	193.79	143.28	73.594	1.8002e-06	103.62	0.00085398	0.00085237	0.00023899	669.47	9.3368e-06	9.3186e-06	861.4	293.09	9.3027e-06	9.3433e-06	410.34	194.63	146.14	73.452	9.3396e-06	102.35	187.082	-53.431	-115.192	-113.082	86.339	-93.851	-114.123	-107.940	-62.349	-77.483	-110.473	-107.598	-105.605	-98.950	-5.597	-102.273	-8191	255	
1212.220	1	1	0	0	0.37717	0.11279	0.16893	0.1521	0.31723	0.06204	0.1518	0.19288	0.11854	0.15532	0.17394	0.25281	0.11642	0.24351	0.2644	0.29916	-2.1104	-2.1771	-2.325	-2.2667	-2.1479	-2.5812	-2.45	-2.3771	-2.7375	-2.2146	-2.3438	-2.8125	-2.1937	-2.6667	-2.3708	-2.4958	160.334	-76.233	41.286	-32.424	-86.880	223.280	228.588	-120.497	137.325	214.647	53.096	182.414	56.971	171.332	126.109	-109.839	0.00091032	0.00056636	0.00018822	629.62	1.8127e-07	5.5165e-06	833.26	285.31	4.8935e-06	8.948e-06	402	195.31	145.11	74.158	7.5895e-06	103.96	0.00086254	0.00086063	0.00024059	672.22	9.4595e-06	9.4315e-06	869.15	295.35	9.456e-06	9.4415e-06	414.56	196.42	147.17	73.898	9.3849e-06	102.71	182.545	-62.287	-40.801	-112.843	180.015	106.027	-114.048	-108.273	-58.942	-73.849	-110.677	-107.352	-105.722	-98.904	-59.136	-102.205	-8191	255	
1212.316	1	1	0	0	0.16055	0.13904	0.11382	0.039426	0.012086	0.01483	0.21932	0.13062	0.27135	0.29442	0.31757	0.34639	0.33294	0.36342	0.083102	0.24372	-2.0625	-2.0312	-2.525	-2.6333	-2.1188	-2.4792	-2.4479	-2.3708	-2.6833	-2.0938	-2.5979	-2.6896	-2.2646	-2.4875	-2.5187	-2.4042	113.794	-105.104	86.859	-122.783	-108.673	66.193	147.900	204.082	-106.458	35.290	107.654	227.765	219.572	232.021	20.237	149.657	0.00083899	0.00065486	0.00027035	627.16	9.0424e-06	5.0991e-06	824.52	283.03	9.0449e-06	8.4509e-06	401.09	194.38	143.12	73.765	4.7983e-06	104.07	0.00085881	0.00085905	0.0002399	670.83	9.4334e-06	9.3877e-06	862.21	293.82	9.354e-06	9.3591e-06	411.31	195.34	146.48	73.638	9.2852e-06	102.2	180.330	224.585	-105.658	-112.946	46.352	-84.548	-114.120	-108.293	1.492	31.239	-110.451	-107.139	-105.771	-98.710	-70.570	-102.272	-8191	255	
1212.413	1	1	0	0	0.1373	0.18107	0.096375	0.21476	0.056374	0.07581	0.22947	0.21414	0.20182	0.057555	0.10721	0.09272	0.22676	0.18049	0.13882	0.22999	-2.1667	-2.3021	-2.2021	-2.6063	-2.3271	-2.2583	-2.7438	-2.0938	-2.675	-2.4	-2.5458	-2.6229	-2.4083	-2.6875	-2.6146	-2.275	75.639	3.204	113.907	26.455	13.719	38.017	66.555	163.121	-19.250	81.102	49.468	71.516	170.469	174.326	68.665	159.981	0.00070287	0.0001139	0.0001978	627.96	1.9631e-06	4.7849e-06	831.88	287.83	9.0141e-06	1.6175e-06	404.53	196.07	145.96	74.511	1.026e-06	104.44	0.00085737	0.00085465	0.00024004	670.39	9.394e-06	9.4714e-06	867.49	297.15	9.4303e-06	9.391e-06	415.55	197.19	148.05	74.356	9.3521e-06	103.17	177.617	165.525	25.694	-112.910	-87.555	-53.297	-114.026	-108.389	56.591	170.835	-110.537	-107.246	-105.519	-98.869	84.513	-102.319	-8191	255	
1212.509	1	1	0	0	0.13882	0.17547	0.08297	0.18439	0.21914	0.035562	0.2803	0.12744	0.13491	0.14315	0.33531	0.22044	0.14432	0.40752	0.10573	0.11542	-2.1458	-2.1375	-2.1813	-2.6708	-2.1688	-2.4167	-2.4417	-2.3375	-2.3667	-2.5271	-2.1354	-2.75	-2.4958	-2.4792	-2.6562	-2.25	-28.276	132.697	-43.102	213.028	170.885	71.141	138.413	109.796	190.987	-63.402	214.691	191.724	-38.167	167.760	57.331	61.396	0.0008613	0.00015315	0.00038385	634.59	7.3997e-06	6.4213e-06	838.37	290.5	6.1229e-06	5.2367e-06	409.09	199.01	147.63	75.218	8.1117e-06	106.16	0.00086456	0.00086472	0.00024368	677.15	9.5351e-06	9.5192e-06	876.95	300.18	9.6069e-06	9.5823e-06	420.58	199.95	149.96	75.129	9.4996e-06	104.29	191.192	211.247	-69.121	-113.016	53.755	-47.425	-113.998	-108.139	-24.636	29.009	-110.638	-107.340	-105.830	-98.925	29.713	-102.356	-8191	255	
1212.605	1	1	0	0	0.10155	0.18195	0.14279	0.26528	0.079083	0.12498	0.11793	0.28438	0.11929	0.11182	0.05104	0.18705	0.096859	0.18345	0.041471	0.23248	-2.2146	-2.3438	-2.3583	-2.5792	-2.4375	-2.2792	-2.8937	-2.1813	-2.5812	-2.45	-2.4229	-2.7521	-2.2979	-2.5667	-2.6521	-2.3563	99.219	41.290	-114.184	131.422	224.681	-109.433	-59.903	187.581	-23.390	-105.306	221.054	-96.603	-87.822	217.110	-49.184	162.397	0.00064826	0.00065582	0.00015216	635.32	6.3527e-06	3.1521e-06	836.03	289.57	4.4924e-06	2.7708e-06	410.67	198.71	147.68	75.465	1.5114e-06	105.87	0.00087623	0.00087483	0.00024359	676.89	9.5514e-06	9.6476e-06	877.46	300.4	9.6158e-06	9.6739e-06	422.12	200	150.19	75.299	9.6076e-06	104.63	173.219	-30.255	-102.344	-112.916	5.667	-39.088	-114.170	-107.967	104.419	-23.966	-110.630	-107.667	-105.528	-98.946	-22.658	-102.204	-8191	255	
1212.725	1	1	0	0	0.080478	0.31118	0.014007	0.22012	0.10564	0.2746	0.19523	0.25826	0.14318	0.21639	0.086853	0.018382	0.25113	0.14293	0.32631	0.3176	-2	-2.525	-1.9062	-2.7188	-2.1854	-2.3917	-2.7562	-2.4521	-2.6625	-2.5167	-2.3125	-2.8083	-2.4437	-2.3625	-2.7229	-2.3771	205.760	24.008	147.356	-79.933	-61.291	-39.764	174.611	-0.377	-39.371	-52.203	178.484	33.511	126.321	230.553	191.782	127.151	0.0008928	0.0007684	0.00028311	631.11	2.0012e-06	1.1828e-05	831.94	286.59	1.0179e-05	6.5663e-06	403.48	194.12	144	73.503	6.1385e-06	103.98	0.00088361	0.00088102	0.00024696	676.58	9.6478e-06	9.6454e-06	872.51	296.52	9.5948e-06	9.5252e-06	415.17	195.97	146.76	73.623	9.4517e-06	102.47	173.763	-38.565	-33.395	-113.406	-53.703	-16.083	-114.127	-107.971	-10.419	-59.904	-110.338	-107.639	-105.496	-99.102	40.678	-102.250	-8191	255	
1212.822	1	1	0	0	0.27794	0.16084	0.11226	0.21425	0.050021	0.084275	0.14057	0.11022	0.06427	0.10334	0.28413	0.14736	0.17594	0.17864	0.038478	0.10896	-2.0187	-2.5208	-2.0833	-2.7687	-2.2104	-2.4688	-2.7083	-2.5542	-2.4042	-2.6146	-2.3875	-2.55	-2.5958	-2.2854	-2.8583	-2.1854	143.478	97.027	42.734	-91.894	-109.876	132.273	161.358	-15.578	-99.291	193.580	149.035	-99.658	146.730	171.633	212.486	159.811	0.00075384	0.00073	0.00031796	619.63	5.4536e-06	8.8076e-06	812.74	280.06	3.0624e-06	1.084e-05	393.67	191.13	141.3	72.095	2.4913e-06	101.62	0.00086655	0.00086678	0.00024021	662.66	9.4285e-06	9.4392e-06	851.95	289.24	9.433e-06	9.3393e-06	405.58	191.81	143.37	71.984	9.2881e-06	100.24	183.843	-76.045	-58.217	-112.968	179.474	-25.114	-114.096	-108.096	44.662	33.258	-110.163	-107.268	-105.440	-98.833	108.768	-102.558	-8191	255	
1212.918	1	1	0	0	0.28428	0.15378	0.3109	0.091606	0.13783	0.32788	0.093473	0.31351	0.24956	0.1195	0.19773	0.31365	0.087121	0.36625	0.17296	0.27131	-1.9479	-2.5375	-2.1188	-2.5104	-2.6208	-2.3438	-2.8021	-2.4708	-2.3542	-2.7354	-2.375	-2.5625	-2.5812	-2.3396	-2.5521	-2.6937	33.762	-77.684	-74.812	71.374	108.526	95.051	-106.632	190.020	-42.019	-94.197	137.034	192.059	170.877	-51.228	186.991	166.493	0.00081794	0.00034604	0.00029114	614.04	4.7545e-06	8.6807e-06	810.58	276.98	6.0693e-06	6.6597e-06	393.24	188.44	139.52	71.45	7.3142e-06	101.25	0.00084929	0.00085189	0.00023803	655.59	9.3961e-06	9.284e-06	846.73	286.78	9.3124e-06	9.2851e-06	403.92	190.28	142.6	71.595	9.3021e-06	99.907	180.984	-34.330	-77.664	-113.053	-33.617	-13.817	-114.009	-108.132	-84.778	70.257	-110.286	-107.316	-105.537	-98.958	44.186	-102.486	-8191	255	
1213.014	1	1	0	0	0.036706	0.12581	0.18222	0.062577	0.28925	0.16124	0.033242	0.19952	0.24824	0.22679	0.25883	0.051903	0.10354	0.45259	0.25958	0.22765	-1.7375	-2.3729	-2.3625	-2.5771	-2.4062	-1.9542	-2.6021	-2.45	-2.3208	-2.325	-2.5375	-2.5667	-2.7708	-2.25	-2.6583	-2.4604	-122.575	221.630	-8.903	187.189	166.910	223.462	188.716	190.051	57.555	59.552	187.057	197.473	186.456	-109.740	200.775	-112.680	0.00066016	0.00083295	0.00021512	609.89	4.0176e-06	8.4987e-06	810.14	276.08	2.026e-06	1.3934e-05	393	188.66	139.86	71.698	8.4809e-06	101.07	0.00085286	0.00084814	0.00023793	654.32	9.3046e-06	9.3263e-06	845.98	285.82	9.3643e-06	9.3216e-06	403.29	190.63	142.7	71.595	9.3341e-06	100.03	189.179	-49.162	-16.939	-112.994	32.385	19.386	-113.965	-107.996	-118.210	-27.286	-110.702	-107.142	-105.700	-98.945	6.403	-102.165	-8191	255	
1213.108	1	1	0	0	0.12989	0.26987	0.20325	0.10982	0.039452	0.13162	0.22593	0.36504	0.21441	0.21124	0.017053	0.50534	0.13976	0.29797	0.17572	0.22365	-1.8583	-2.4	-2.2229	-2.4146	-2.5708	-2.1646	-2.5396	-2.4562	-2.2042	-2.3854	-2.3396	-2.4875	-2.5271	-2.4521	-2.3521	-2.8917	103.999	84.938	-123.867	210.218	86.224	-114.221	159.142	-116.309	56.796	39.296	-8.726	220.845	-71.169	183.566	65.798	182.900	0.0007202	0.0008107	0.00031465	608.46	7.6047e-06	2.6444e-06	811.96	275.55	4.0059e-06	3.1706e-06	390.98	189.17	139.58	71.589	5.7064e-06	101.58	0.00085821	0.00085625	0.0002376	656.1	9.3422e-06	9.3825e-06	847.51	285.06	9.3398e-06	9.3151e-06	403.02	190.89	142.6	71.611	9.4467e-06	100.44	182.219	-56.581	-111.178	-112.831	38.131	27.993	-114.094	-108.004	98.554	129.603	-110.410	-107.180	-105.517	-98.890	27.382	-102.129	-8191	255	
1213.206	1	1	0	0	0.10534	0.1304	0.21452	0.26565	0.20788	0.074638	0.404	0.11483	0.27451	0.17823	0.053167	0.32096	0.4206	0.16719	0.033986	0.085318	-1.7104	-2.4583	-2.1312	-2.45	-2.4375	-2.3937	-2.5125	-2.6354	-2.1833	-2.5021	-2.3396	-2.1813	-2.6917	-2.2708	-2.5104	-2.6042	0.747	-1.275	-15.246	-79.633	36.398	71.215	156.325	153.596	-102.680	-30.052	186.012	189.493	-121.962	169.216	-116.940	131.616	0.0006669	0.00054946	0.00028353	612.29	4.3201e-06	3.745e-06	807.91	274.45	1.2587e-05	1.0647e-05	390.69	188.24	140	71.211	2.3925e-06	100.92	0.00086133	0.00085849	0.00023913	658.41	9.3579e-06	9.394e-06	846.2	284.82	9.3631e-06	9.3501e-06	401.89	189.97	142.31	71.236	9.3446e-06	99.66	179.784	-23.278	17.261	-112.943	48.285	-35.639	-114.155	-107.914	-13.333	31.505	-110.442	-107.152	-105.753	-98.847	-64.266	-102.469	-8191	255	
1213.325	1	1	0	0	0.25502	0.096785	0.070494	0.046499	0.1407	0.16473	0.20879	0.18553	0.1341	0.11666	0.18732	0.24905	0.13484	0.53792	0.23688	0.070909	-1.8271	-2.4979	-2.3104	-2.3708	-2.75	-2.3146	-2.4583	-2.5417	-2.2083	-2.5042	-2.5333	-2.3458	-2.6979	-2.2729	-2.2271	-2.5667	153.257	183.427	20.380	-116.273	109.398	-90.271	199.584	187.211	-26.749	175.012	204.529	161.258	165.583	-115.523	85.318	129.083	0.0008279	0.00074308	0.00017992	610.01	7.7865e-06	5.8435e-06	807.93	272.64	1.8962e-05	5.6e-06	386.68	187.21	138.42	71.077	4.4485e-06	100.5	0.00086213	0.00085917	0.00023824	654.43	9.3182e-06	9.3042e-06	842.73	283.07	9.3215e-06	9.3035e-06	398.58	188.54	141.11	70.821	9.3584e-06	99.068	174.076	-112.135	-89.890	-113.107	14.494	-33.287	-114.018	-108.074	-43.894	57.186	-110.478	-107.199	-105.731	-98.982	-8.588	-102.289	-8191	255	
1213.421	1	1	0	0	0.12278	0.14407	0.19998	0.20119	0.22816	0.085022	0.35523	0.11643	0.1444	0.12884	0.15226	0.065406	0.10553	0.21607	0.19583	0.31798	-1.5917	-2.575	-2.325	-2.2062	-2.4792	-2.2333	-2.3896	-2.6625	-2.2104	-2.3146	-2.4792	-2.5333	-2.5083	-2.425	-2.1437	-2.6729	-8.990	-82.201	-102.320	-70.733	84.654	-68.639	154.411	185.844	27.130	-124.528	172.103	-120.101	-51.514	205.666	-42.625	189.394	0.00077108	0.0010522	0.00020048	611.91	4.4574e-06	2.8284e-06	804.8	275.64	1.1185e-05	3.2381e-06	387.77	188.17	138.98	71.512	1.485e-05	101.01	0.00085006	0.00085466	0.00023803	656.09	9.3434e-06	9.4211e-06	847.02	284.45	9.3929e-06	9.3594e-06	401.13	190.04	142.29	71.388	9.4319e-06	99.803	162.577	42.522	-85.020	-112.946	-6.007	122.131	-114.052	-108.219	-28.993	217.754	-110.602	-107.332	-105.602	-98.934	7.717	-102.433	-8191	255	
1213.517	1	1	0	0	0.1346	0.15466	0.13184	0.3127	0.17997	0.12308	0.13331	0.20058	0.21027	0.14872	0.30146	0.31505	0.265	0.27981	0.081729	0.066827	-1.9021	-2.3083	-2.5271	-2.05	-2.6167	-2.1667	-2.3167	-2.875	-2.1208	-2.4375	-2.6937	-2.3	-2.6083	-2.4646	-2.2208	-2.8271	-119.242	-37.855	137.246	130.264	-90.470	42.155	164.753	199.824	87.223	115.674	193.804	189.055	207.932	210.615	52.679	182.333	0.00075799	0.0006304	0.00021026	614.92	7.7832e-06	3.6707e-06	810.82	275.73	5.8427e-06	9.6654e-07	391.63	189.31	140.35	71.852	2.9779e-06	101.64	0.00086667	0.00087327	0.00024091	659.51	9.4728e-06	9.5124e-06	851.78	286.46	9.4913e-06	9.4828e-06	404.24	191.25	143.27	71.913	9.5239e-06	100.64	181.744	200.981	-85.002	-112.998	-28.884	-23.894	-114.098	-108.107	-49.864	60.277	-110.522	-107.415	-105.552	-99.047	33.928	-102.187	-8191	255	
1213.614	1	1	0	0	0.12451	0.10221	0.066876	0.11588	0.084326	0.23337	0.10734	0.20348	0.28377	0.18562	0.18404	0.35465	0.029928	0.1369	0.19985	0.10981	-1.6896	-2.6042	-2.5042	-2.2292	-2.5	-2.6146	-2.4875	-2.8083	-2.2	-2.2438	-2.7146	-2.2042	-2.4979	-2.5354	-2.2417	-2.6521	168.907	178.808	76.037	-94.664	-52.600	-4.876	166.761	208.606	212.458	16.581	149.410	229.798	188.179	216.600	-99.946	60.171	0.00081907	0.00088182	0.00029708	617.42	1.0434e-06	1.3765e-05	819.11	276.66	5.1343e-06	5.4735e-06	392.27	189.02	139.65	71.817	8.1997e-06	101.49	0.00087523	0.00087585	0.0002446	664.4	9.639e-06	9.6123e-06	856	287.79	9.5278e-06	9.6361e-06	405.06	190.95	143.08	71.787	9.545e-06	100.24	174.465	-99.000	-49.110	-112.767	-99.385	-33.152	-113.699	-107.983	-49.929	173.961	-110.348	-107.247	-105.612	-98.830	33.702	-102.143	-8191	255	
1213.710	1	1	0	0	0.087714	0.088172	0.14278	0.15545	0.24948	0.26411	0.11332	0.39488	0.13863	0.17735	0.2768	0.18169	0.30942	0.11103	0.11195	0.38368	-1.7188	-2.1417	-2.5271	-2.1083	-2.35	-2.3896	-2.3583	-2.5729	-2.2	-2.2521	-2.5687	-2.1	-2.4375	-2.65	-2.2271	-2.7313	232.578	-108.759	-82.094	-67.994	-64.640	120.222	-69.173	221.831	179.469	226.033	229.213	150.919	-34.407	161.804	-21.795	200.973	0.00066108	0.00028834	0.00022795	618.86	4.9365e-06	8.4015e-06	812.72	277.34	6.896e-06	1.2938e-05	391.72	187.89	139.35	71.507	4.4054e-06	100.89	0.00087011	0.00088107	0.00024353	662.79	9.6019e-06	9.5753e-06	852.05	287.79	9.5308e-06	9.5939e-06	403.73	190.32	142.61	71.577	9.5386e-06	99.822	175.725	35.648	145.604	-112.943	52.665	-88.230	-114.138	-108.163	-39.049	-11.957	-110.116	-107.273	-105.540	-99.035	-33.512	-102.282	-8191	255	
1213.806	1	1	0	0	0.37565	0.27388	0.1276	0.3366	0.043825	0.1063	0.41211	0.13135	0.21294	0.22669	0.26347	0.14606	0.16752	0.18892	0.22805	0.16979	-1.8	-2.2229	-2.5917	-2.3042	-2.4708	-2.5167	-2.1604	-2.4854	-2.3271	-2.0812	-2.7687	-2.25	-2.5146	-2.6562	-2.2354	-2.8063	-20.073	195.883	70.589	186.988	-12.839	-103.454	227.529	171.671	-9.828	192.825	-113.626	-113.084	121.837	86.451	63.324	-94.315	0.00095134	0.00025926	0.0002423	620.81	1.14e-05	7.0943e-06	818.74	280.07	4.7733e-06	1.4002e-05	399.61	191.13	141.59	72.563	2.5413e-06	102.58	0.00087817	0.00088488	0.00024491	664.41	9.6851e-06	9.6953e-06	859.83	291.43	9.7394e-06	9.6949e-06	409.38	193.12	144.94	72.575	9.6877e-06	101.17	184.302	46.759	-15.682	-112.846	58.911	172.332	-114.251	-108.385	-56.327	-14.790	-110.767	-107.135	-105.421	-98.906	125.686	-102.131	-8191	255	
1213.902	1	1	0	0	0.19674	0.44304	0.063796	0.035026	0.12015	0.1404	0.058844	0.087917	0.16681	0.040086	0.13766	0.020744	0.10908	0.32731	0.22975	0.20944	-2.0979	-2.1583	-2.4667	-2.3625	-2.3042	-2.5438	-2.3417	-2.6375	-2.3688	-2.1104	-2.7417	-2.4354	-2.3083	-2.7229	-2.3146	-2.7625	109.346	51.956	40.192	178.641	-28.230	89.420	-82.637	163.945	210.123	-64.094	-112.605	105.804	162.540	147.359	92.031	78.976	0.00075577	0.0003687	0.00029092	624.28	1.5093e-06	3.3903e-06	823.05	284.75	9.4574e-06	2.7321e-06	399.3	193.55	143.92	73.698	6.1141e-06	103.35	0.00088843	0.00088559	0.00024892	671.49	9.8499e-06	9.8532e-06	865.72	295.46	9.7545e-06	9.8592e-06	413.71	195.47	147.12	73.558	9.7369e-06	102.23	183.934	233.080	-110.149	-112.869	121.217	-7.754	-114.337	-108.089	-46.846	90.318	-110.696	-107.334	-105.588	-98.941	-80.415	-102.545	-8191	255	
1214.021	1	1	0	0	0.23227	0.12189	0.16917	0.20503	0.13978	0.033964	0.25303	0.26953	0.076833	0.23715	0.10726	0.4347	0.061433	0.17358	0.17717	0.16935	-2.0667	-2.1667	-2.5792	-2.4333	-2.2646	-2.5958	-2.4	-2.3563	-2.725	-2.0208	-2.6271	-2.5771	-2.2958	-2.6875	-2.3	-2.5812	-83.807	64.460	-27.705	120.244	67.961	-93.617	161.738	189.437	-46.476	-86.395	45.392	142.507	177.291	166.775	24.516	164.645	0.00072131	0.00080074	0.00051426	635.05	3.2549e-06	7.7715e-06	834.89	287.95	8.9717e-06	8.1592e-06	404.94	196.31	146.91	74.371	7.4095e-06	104.51	0.00089821	0.00090092	0.00025132	678.01	9.881e-06	9.9902e-06	874.18	298.97	9.9067e-06	9.9572e-06	420.23	198.64	149.78	74.443	9.9645e-06	103.28	177.783	-78.635	-40.281	-113.287	-28.292	121.051	-114.129	-107.995	-29.902	-10.645	-110.262	-107.508	-105.684	-98.865	119.952	-102.416	-8191	255	
1214.117	1	1	0	0	0.31797	0.215	0.27774	0.21993	0.1339	0.1632	0.08648	0.18619	0.11525	0.17953	0.16427	0.278	0.22284	0.19391	0.1748	0.046938	-1.8958	-2.1625	-2.525	-2.5646	-2.2917	-2.5917	-2.2938	-2.4792	-2.4625	-2.2458	-2.5667	-2.5312	-2.1188	-2.6479	-2.2125	-2.5229	-54.787	148.624	-23.646	166.949	56.320	11.442	160.917	189.381	151.402	22.623	218.169	12.142	221.235	204.157	-19.411	193.073	0.00080259	0.00024108	0.000302	630.8	1.2413e-05	2.8555e-06	828.28	283.94	1.1178e-05	7.2932e-06	403.16	193.72	144.74	73.212	4.458e-06	102.88	0.00090334	0.00090983	0.00025158	678.02	9.9051e-06	9.9061e-06	869.46	296.18	9.8032e-06	9.8553e-06	416.7	196.28	147.97	73.524	9.7816e-06	101.77	174.588	91.703	2.459	-113.104	-18.336	176.725	-113.851	-107.988	-63.458	100.880	-110.715	-107.290	-105.529	-98.965	-112.789	-102.480	-8191	255	
1214.189	1	1	0	0	0.26263	0.086937	0.39335	0.30722	0.2711	0.39169	0.12965	0.16965	0.22627	0.12109	0.29145	0.22596	0.15675	0.25035	0.34852	0.11674	-1.7833	-1.9979	-2.5312	-2.2583	-2.0125	-2.4958	-2.5104	-2.1854	-2.3833	-2.1208	-2.5646	-2.7583	-2.1875	-2.7042	-2.1813	-2.5812	155.506	2.308	83.778	214.542	-104.253	129.869	171.052	-92.631	3.231	113.733	217.702	194.695	-46.700	188.356	-83.389	167.014	0.00088142	0.00059654	0.00022605	621.66	3.0567e-06	9.9741e-07	815.06	279.6	7.4076e-06	2.5871e-06	393.34	189.13	141.23	71.799	5.1089e-06	100.35	0.00089301	0.00089143	0.00024778	669.12	9.7111e-06	9.6717e-06	854.61	290.13	9.703e-06	9.6279e-06	406.56	191.37	144.14	71.855	9.6611e-06	99.475	169.111	-17.302	-2.662	-113.084	-54.947	158.150	-114.116	-107.632	-11.935	-54.910	-110.590	-107.288	-105.955	-98.729	61.697	-102.571	-8191	255	
1214.287	1	1	0	0	0.18364	0.21376	0.19467	0.17954	0.061326	0.073403	0.22512	0.45753	0.17915	0.12403	0.35702	0.35676	0.04549	0.14811	0.16939	0.23461	-2.1542	-2.25	-2.3604	-2.6458	-2.2854	-2.4562	-2.5521	-2.0333	-2.5521	-2.1458	-2.4479	-2.7021	-1.8958	-2.7938	-2.1896	-2.5271	-63.179	58.180	179.616	231.086	18.899	-1.176	210.166	184.681	-125.172	-48.941	225.534	196.018	223.366	-93.105	91.941	176.374	0.00082769	0.00054584	0.00026505	618.34	1.0007e-06	4.3383e-06	813.02	276.67	6.9379e-06	6.7676e-06	390.01	187.29	139.41	71.394	7.6506e-06	100.31	0.0008811	0.00088299	0.0002454	663.56	9.6274e-06	9.6113e-06	850.62	287.02	9.5191e-06	9.5498e-06	402.08	189.66	142.61	71.451	9.5641e-06	99.39	176.620	-67.265	-107.203	-112.849	57.089	-16.650	-114.144	-107.846	46.133	-12.694	-110.470	-107.309	-105.644	-98.954	-17.055	-102.329	-8191	255	
1214.405	1	1	0	0	0.040395	0.17605	0.099517	0.13947	0.15937	0.086107	0.21373	0.26086	0.13659	0.086747	0.12587	0.17243	0.2877	0.12802	0.19513	0.23517	-2.1417	-2.1792	-2.1958	-2.6167	-2.2521	-2.475	-2.6833	-2.2708	-2.6583	-2.3438	-2.4667	-2.6083	-2.2396	-2.5417	-2.5396	-2.2062	218.528	-26.360	-25.304	186.520	107.137	-60.729	-78.516	206.117	2.753	-49.356	155.980	154.003	232.386	205.956	61.972	169.967	0.00078201	0.00014486	0.00045893	616.44	8.9138e-07	1.5325e-06	812.25	276.37	6.6567e-06	4.6219e-06	389.55	189.14	140.52	71.736	9.9303e-06	100.6	0.00087811	0.00088325	0.00024533	662.93	9.5486e-06	9.6442e-06	850.34	287.25	9.5505e-06	9.5899e-06	403.96	190.7	143.14	71.724	9.5859e-06	99.619	174.821	-40.298	-18.927	-112.722	95.397	48.904	-113.982	-107.937	-65.082	66.198	-110.322	-107.406	-105.326	-98.961	10.895	-102.439	-8191	255	
1214.502	1	1	0	0	0.22267	0.10075	0.21967	0.36379	0.20078	0.13376	0.087068	0.17273	0.076008	0.34629	0.13947	0.12874	0.17723	0.21691	0.15471	0.18914	-2.225	-2.2542	-2.2	-2.625	-2.1146	-2.4562	-2.4521	-2.3542	-2.6583	-2.4125	-2.4854	-2.6958	-2.35	-2.6042	-2.4729	-2.3375	-59.155	196.082	-54.941	180.893	21.218	46.829	141.837	112.803	-73.250	105.889	188.731	199.672	-10.136	221.808	17.347	-125.494	0.00083651	0.00078294	8.4072e-05	619.14	2.4206e-06	6.2953e-06	808.31	275.61	4.8941e-06	5.8194e-06	392.22	188.42	140.46	71.986	3.4782e-06	101.19	0.00087835	0.0008824	0.00024544	662.63	9.6193e-06	9.6418e-06	852.27	287.29	9.611e-06	9.6318e-06	405.38	191.07	143.54	72.084	9.5564e-06	100.22	189.278	-21.865	185.507	-113.208	77.077	22.007	-114.472	-108.115	-95.039	-0.535	-110.487	-106.966	-105.708	-98.808	-36.580	-102.292	-8191	255	
1214.598	1	1	0	0	0.08843	0.23279	0.095571	0.37417	0.20312	0.28307	0.022711	0.15049	0.035487	0.23026	0.28771	0.13568	0.10919	0.24424	0.045832	0.14582	-1.975	-2.2542	-2.3167	-2.5583	-2.2771	-2.1792	-2.7333	-2.2396	-2.6937	-2.3604	-2.3604	-2.6854	-2.4979	-2.5417	-2.5958	-2.3292	0.557	88.099	-67.540	-115.475	128.449	-22.503	53.795	157.311	111.046	-70.925	192.719	139.771	45.564	-118.029	169.017	230.461	0.00072229	0.0011055	0.00015331	620.52	6.3718e-06	4.0087e-06	813.75	277.46	4.5176e-06	1.0186e-05	390.6	188.71	139.91	71.66	3.6718e-06	100.88	0.0008776	0.00087912	0.00024618	665.01	9.5845e-06	9.5785e-06	852.81	287.76	9.5873e-06	9.4772e-06	402.84	190.16	143.18	71.652	9.5025e-06	99.485	192.750	-46.438	-32.984	-112.955	48.204	-24.311	-114.084	-108.124	212.847	38.906	-110.518	-107.095	-105.288	-99.019	184.531	-102.258	-8191	255	
1214.694	1	1	0	0	0.34623	0.10484	0.29413	0.21506	0.20949	0.090746	0.33534	0.025611	0.13066	0.32025	0.15481	0.14949	0.22793	0.1587	0.12272	0.16344	-2.2083	-2.4458	-1.9958	-2.6479	-2.2458	-2.6688	-2.6125	-2.3917	-2.5833	-2.4813	-2.2313	-2.7542	-2.45	-2.4896	-2.6542	-2.3563	96.758	-58.045	-32.694	-94.844	224.512	-46.982	214.136	46.710	160.304	-104.170	227.238	162.262	-125.821	-120.687	111.146	133.433	0.00063767	0.00055061	0.00015992	618.53	7.2613e-06	2.7752e-06	811.71	276.03	6.7681e-06	8.3878e-06	387.93	187.09	139.74	71.607	4.4621e-06	100.6	0.00087249	0.00087311	0.00024448	664.27	9.5668e-06	9.5509e-06	848.57	287.03	9.5154e-06	9.4469e-06	401.31	189.22	142.65	71.547	9.526e-06	99.401	176.966	-68.945	-57.953	-112.848	-2.235	111.765	-113.968	-107.886	-73.178	-27.636	-110.364	-107.299	-105.808	-98.983	51.097	-102.585	-8191	255	
1214.815	1	1	0	0	0.28246	0.30751	0.29292	0.15461	0.13171	0.083061	0.24806	0.15639	0.11661	0.070243	0.40333	0.31594	0.27165	0.19192	0.14845	0.074335	-1.9188	-2.4208	-2.1646	-2.65	-2.3854	-2.4917	-2.5146	-2.425	-2.5563	-2.5979	-2.3083	-2.7958	-2.3896	-2.5083	-2.7208	-2.4354	50.205	12.323	129.070	214.700	199.467	1.119	170.480	170.422	116.960	-49.178	185.896	161.347	-87.443	-120.335	-30.700	7.063	0.00081917	0.00045477	0.00020781	619.9	4.2345e-06	6.4168e-06	814.5	279.82	9.4788e-06	9.3763e-06	389.53	188.8	139.45	71.848	8.1935e-06	100.84	0.00087275	0.00087751	0.00024351	665.2	9.5854e-06	9.5742e-06	853.11	289.94	9.5298e-06	9.5462e-06	403.69	190.44	142.83	71.813	9.4615e-06	99.531	169.421	-71.247	107.948	-113.177	-12.224	-50.018	-114.256	-108.132	-74.371	76.701	-110.329	-107.257	-105.467	-98.968	142.229	-102.411	-8191	255	
1214.886	1	1	0	0	0.21185	0.44318	0.17437	0.16008	0.20774	0.12554	0.075294	0.35065	0.089359	0.12085	0.23044	0.20845	0.10105	0.20605	0.30258	0.31488	-1.9188	-2.3583	-2.1437	-2.5396	-2.5604	-2.3187	-2.8312	-2.3854	-2.6104	-2.5708	-2.4521	-2.4146	-2.6271	-2.5187	-2.7167	-2.4437	33.851	228.422	-124.679	148.546	193.832	54.144	179.294	187.526	156.864	22.557	156.535	208.084	153.515	-75.686	204.323	229.827	0.0006086	0.00014263	0.00011443	621.37	1.0041e-05	5.6564e-06	820.76	279.35	7.7368e-06	4.5378e-06	391.63	188.82	140.11	71.769	4.5462e-06	101.2	0.00087332	0.00087963	0.00024513	665.03	9.6047e-06	9.6679e-06	856.77	289.81	9.6025e-06	9.6418e-06	404.6	190.67	143.08	71.885	9.6075e-06	100.04	177.474	216.504	-117.522	-112.498	-103.205	61.916	-114.018	-108.217	-88.929	94.687	-110.423	-107.286	-105.398	-99.133	125.220	-102.422	-8191	255	
1215.007	1	1	0	0	0.12687	0.071308	0.16418	0.21073	0.18401	0.32706	0.23294	0.12704	0.15844	0.090458	0.24999	0.096328	0.4094	0.2144	0.16636	0.066199	-1.8667	-2.5042	-2.1667	-2.6292	-2.4688	-2.1896	-2.8958	-2.5229	-2.3958	-2.5396	-2.6146	-2.6167	-2.4958	-2.35	-2.6521	-2.6312	-115.222	89.901	-12.636	159.851	102.132	137.601	205.697	232.229	-108.928	88.048	230.896	202.665	140.602	-107.196	175.854	113.194	0.00073958	0.00038378	0.0003005	623.79	6.8871e-06	4.5254e-06	820.5	280.35	2.4875e-06	7.5799e-06	394.41	189.08	141.13	72.295	2.3045e-06	100.65	0.00088441	0.00088477	0.00024628	667.33	9.7626e-06	9.7706e-06	860.16	291.39	9.6635e-06	9.7114e-06	406.51	191.29	143.98	72.253	9.5227e-06	99.649	183.207	19.212	-116.698	-112.933	21.355	192.127	-114.203	-107.985	-97.974	-73.167	-110.554	-107.281	-105.679	-99.020	-87.744	-102.313	-8191	255	
1215.101	1	1	0	0	0.31343	0.17759	0.17467	0.074457	0.22961	0.25093	0.15886	0.046101	0.034015	0.074036	0.1536	0.27451	0.19042	0.31755	0.1317	0.27636	-1.7625	-2.5729	-2.1146	-2.6042	-2.4562	-2.2833	-2.6229	-2.4938	-2.4729	-2.5375	-2.4479	-2.5187	-2.5812	-2.2208	-2.3167	-2.5708	-0.922	73.972	-65.953	181.225	-85.251	94.683	155.655	66.957	67.792	107.946	179.165	225.423	-123.460	-96.396	-62.227	126.371	0.00068357	0.00060828	0.0002508	622.12	7.5281e-06	6.2075e-06	819.48	283.23	5.6903e-06	7.7366e-06	394.85	191.24	142.62	72.363	7.5466e-06	100.96	0.00087515	0.00088385	0.0002468	667	9.6519e-06	9.7389e-06	858.28	293.14	9.6646e-06	9.659e-06	408.99	192.84	145.41	72.64	9.6091e-06	99.924	195.658	-32.300	32.722	-113.130	-55.090	-9.598	-114.297	-108.258	-99.188	-53.596	-110.441	-107.302	-105.638	-99.098	43.819	-102.436	-8191	255	
1215.197	1	1	0	0	0.21832	0.053534	0.13712	0.070577	0.26582	0.11324	0.18885	0.23681	0.10988	0.24992	0.18491	0.252	0.38875	0.3103	0.082374	0.17817	-1.7208	-2.7208	-2.175	-2.5625	-2.4729	-1.8771	-2.6437	-2.7396	-1.9875	-2.7292	-2.4625	-2.3438	-2.7896	-2.3083	-2.4208	-2.6917	24.378	153.439	-75.795	227.069	-99.695	-69.998	133.047	90.752	105.039	-16.112	115.489	-105.729	195.713	145.629	184.550	209.396	0.00095186	0.00049077	0.0001479	625.33	1.5147e-06	4.0018e-06	826.98	284.02	1.1421e-05	1.0131e-05	400.26	192.6	143.91	73.765	4.6884e-06	101.51	0.00088438	0.00088227	0.00024867	670.77	9.6963e-06	9.7334e-06	863.94	295.23	9.8054e-06	9.744e-06	413.73	195.29	147.68	73.718	9.7442e-06	100.9	186.367	-73.036	-73.177	-112.955	216.962	21.200	-114.087	-108.190	-5.842	-7.213	-110.453	-107.379	-105.707	-99.185	-73.266	-102.392	-8191	255	
1215.294	1	1	0	0	0.29133	0.22358	0.058882	0.1361	0.12369	0.21152	0.31298	0.14122	0.30218	0.21453	0.17246	0.48432	0.13068	0.10781	0.25059	0.18163	-1.5583	-2.6667	-2.1229	-2.5438	-2.3438	-2.1708	-2.6063	-2.6354	-2.2479	-2.6979	-2.5708	-2.3458	-2.8771	-2.225	-2.5292	-2.7479	-28.707	73.951	5.852	-88.242	-18.732	48.525	110.791	150.589	157.791	134.705	164.759	187.689	-75.692	222.308	130.202	179.917	0.0006822	0.00069867	0.00022025	627.85	4.5501e-06	5.673e-06	826.19	285.56	1.2715e-05	7.6706e-06	400.27	194.46	144.7	73.531	9.7283e-06	102.48	0.00089322	0.0008935	0.00024763	673.39	9.7919e-06	9.7905e-06	866.59	296.44	9.8056e-06	9.8955e-06	415.26	196	148.22	73.72	9.7613e-06	101.44	179.504	-21.509	-60.496	-112.660	25.401	94.963	-114.316	-108.105	-3.029	44.203	-110.754	-107.290	-105.278	-99.088	-74.477	-102.465	-8191	255	
1215.414	1	1	0	0	0.13719	0.10364	0.064375	0.38796	0.080515	0.13303	0.049913	0.036202	0.20131	0.28386	0.20777	0.11181	0.11928	0.17771	0.14318	0.25486	-1.6896	-2.5667	-2.3604	-2.4396	-2.475	-2.3937	-2.55	-2.8063	-2.1875	-2.8083	-2.4958	-2.3792	-2.575	-2.3771	-2.3063	-2.6646	-6.795	156.172	-125.533	2.310	56.622	137.008	205.041	128.626	220.418	231.917	105.009	125.826	2.885	126.954	-83.879	183.233	0.000736	0.00071129	0.00013617	629.73	2.4808e-06	1.1008e-05	820.96	284.33	7.4904e-06	8.1476e-06	400.49	193.52	144.75	73.096	2.6733e-06	102.11	0.00089811	0.00089647	0.00024965	675.28	9.8441e-06	9.8119e-06	866.31	295.94	9.7964e-06	9.8093e-06	414.91	195.85	147.79	73.429	9.8418e-06	101.31	171.558	-9.088	-62.652	-112.816	-49.632	78.783	-114.051	-107.982	-37.471	30.555	-110.285	-107.215	-105.444	-98.918	155.336	-102.224	-8191	255	
1215.486	1	1	0	0	0.15087	0.24505	0.12518	0.13525	0.0015119	0.1036	0.25362	0.14522	0.046655	0.13174	0.18589	0.11116	0.22925	0.17817	0.18468	0.42344	-1.5125	-2.3958	-2.4104	-2.3812	-2.6375	-2.3688	-2.3875	-2.5938	-2.2958	-2.5646	-2.4354	-2.2729	-2.6937	-2.4042	-2.2958	-2.6937	27.439	115.606	110.120	89.662	180.000	23.690	116.066	229.680	-21.256	172.591	1.815	135.245	197.940	-112.728	94.180	157.025	0.00076891	0.00044087	0.00011898	623.09	9.0442e-07	6.0769e-06	818.74	278.98	9.2214e-07	4.2735e-06	394.16	189.53	141.27	71.862	1.1993e-05	100.38	0.00089189	0.00089607	0.0002491	668.26	9.7885e-06	9.728e-06	856.83	291.11	9.6593e-06	9.6637e-06	407.23	191.64	144.27	71.954	9.5993e-06	99.149	184.646	232.654	-111.147	-113.032	-13.697	38.908	-114.149	-108.012	-63.487	-66.860	-110.427	-107.182	-105.563	-99.094	-3.242	-102.091	-8191	255	
1215.582	1	1	0	0	0.11569	0.16642	0.099146	0.27134	0.071735	0.25299	0.27426	0.046177	0.18284	0.2032	0.13991	0.1737	0.19033	0.14835	0.32753	0.28303	-1.7625	-2.2625	-2.6479	-2.1063	-2.6	-2.3187	-2.3458	-2.5854	-2.1146	-2.4	-2.7083	-2.4479	-2.8354	-2.5396	-2.3521	-2.6917	62.873	36.016	-2.285	-125.158	-48.125	98.353	166.665	-115.971	-52.885	191.633	94.429	221.096	227.793	168.187	-86.230	146.659	0.00080263	0.00074692	0.00017255	615.91	6.222e-06	7.9304e-06	801.83	274.32	6.8979e-06	1.4886e-05	382.57	184.27	137.23	70.459	5.7906e-06	98.234	0.00087879	0.00088108	0.00024504	661.7	9.6271e-06	9.6464e-06	841.23	284.52	9.5289e-06	9.5563e-06	396.2	186.27	140.48	70.412	9.4454e-06	97.271	180.790	-3.893	-33.307	-112.752	-65.478	43.447	-113.816	-107.983	-71.563	26.582	-110.231	-107.071	-105.568	-98.716	-35.031	-102.182	-8191	255	
1215.678	1	1	0	0	0.09365	0.043063	0.14048	0.10498	0.044632	0.23709	0.11651	0.1706	0.045511	0.090095	0.19349	0.34329	0.038993	0.24993	0.13028	0.28804	-1.7938	-2.4229	-2.6188	-2.3896	-2.5333	-2.4104	-2.0917	-2.6417	-2.3604	-2.2646	-2.4958	-2.2917	-2.6146	-2.5708	-2.1833	-2.7292	36.304	168.291	-60.284	135.311	233.945	-38.755	34.551	-99.021	165.858	70.622	28.964	204.183	91.350	-117.625	203.163	-106.688	0.00071008	0.00072055	0.00035993	615.07	2.7603e-06	1.2318e-06	803.93	274.39	7.5894e-06	3.9608e-06	383.31	184.69	137.65	70.546	2.1296e-06	98.695	0.00087444	0.00087815	0.00024466	659.42	9.6213e-06	9.7251e-06	843.6	285.04	9.5995e-06	9.633e-06	397.54	186.72	140.97	70.726	9.5324e-06	97.714	176.796	-66.215	-20.889	-112.909	85.173	-55.424	-114.019	-107.918	25.716	45.436	-110.399	-107.131	-105.361	-98.965	66.761	-102.425	-8191	255	
1215.799	1	1	0	0	0.38907	0.094119	0.0022178	0.3788	0.18092	0.15304	0.17813	0.027406	0.10552	0.04734	0.25311	0.21799	0.36949	0.22516	0.2941	0.26156	-1.6708	-2.2812	-2.3812	-2.1188	-2.3771	-2.5771	-2.2417	-2.7812	-2.3875	-2.2542	-2.7604	-2.2938	-2.5042	-2.7229	-2.0708	-2.6917	-106.513	155.088	80.410	205.049	56.490	119.275	192.418	18.439	34.059	72.012	-4.452	157.008	205.526	155.268	123.101	226.169	0.0006903	0.00041711	0.00012423	611.97	5.3751e-06	6.3009e-06	804.68	272.96	5.8185e-06	5.3694e-06	384.15	186.05	138.5	70.675	1.7891e-06	98.875	0.00087447	0.00087782	0.00024653	659.09	9.6306e-06	9.6511e-06	843.85	284.64	9.6659e-06	9.6935e-06	397.57	187.17	141.36	70.801	9.6311e-06	97.901	171.771	-53.320	185.261	-113.086	-90.117	20.083	-114.067	-107.861	158.230	-17.160	-110.530	-107.231	-105.589	-98.941	44.845	-102.351	-8191	255	
1215.895	1	1	0	0	0.034427	0.23482	0.25508	0.21925	0.034303	0.1002	0.11259	0.1714	0.17821	0.18106	0.19958	0.10931	0.060729	0.32469	0.008824	0.24954	-1.8958	-2.1896	-2.6167	-2.4104	-2.1646	-2.4104	-2.2458	-2.7104	-2.5125	-2.4271	-2.6417	-2.2292	-2.6854	-2.5563	-2.2125	-2.3854	138.492	-9.552	37.684	198.303	59.896	57.847	9.780	134.336	-40.376	40.858	146.267	77.285	102.564	-65.986	25.101	161.074	0.00062138	0.00088045	0.00040537	613.05	3.4938e-06	8.8776e-06	806.99	273.97	5.5072e-06	4.666e-06	386.92	185.38	138.75	70.565	7.5974e-06	99.02	0.00088009	0.00088275	0.0002473	659.96	9.6657e-06	9.7202e-06	845.6	284.74	9.658e-06	9.6503e-06	399.96	187.97	142.04	71.039	9.5685e-06	98.18	177.085	31.734	-64.967	-112.569	72.248	-60.203	-114.226	-107.966	-8.942	-37.193	-110.393	-107.183	-105.333	-98.773	228.127	-102.322	-8191	255	
1215.991	1	1	0	0	0.12599	0.19334	0.33952	0.17614	0.14583	0.2102	0.28556	0.32258	0.36617	0.20926	0.10463	0.26717	0.19866	0.44654	0.074397	0.22498	-2.0833	-2.1063	-2.6396	-2.2646	-2.2646	-2.4458	-2.3708	-2.5458	-2.5187	-2.1083	-2.6229	-2.5875	-2.3667	-2.7146	-2.1625	-2.5542	90.289	-93.298	131.239	229.498	224.097	21.271	159.773	167.487	-55.632	69.675	156.192	197.686	-114.075	201.117	-124.846	194.861	0.00076315	0.00064619	0.00013159	613.49	1.0999e-05	1.0386e-05	801.2	274.66	6.5906e-06	3.5056e-06	385.72	186.14	138.08	70.402	2.7182e-06	97.988	0.00088397	0.00088296	0.00024601	660.35	9.5804e-06	9.6344e-06	842.31	285.24	9.6575e-06	9.6498e-06	399.07	187.5	141.71	70.693	9.606e-06	97.313	175.464	-93.912	-54.442	-112.866	29.735	-69.126	-113.976	-107.903	18.125	54.281	-110.507	-107.372	-105.520	-98.826	-10.100	-102.241	-8191	255	
1216.087	1	1	0	0	0.16587	0.11671	0.022557	0.28226	0.15141	0.060295	0.17035	0.23036	0.20191	0.083531	0.13504	0.24489	0.22655	0.26917	0.21173	0.24016	-2.0667	-2.0667	-2.5687	-2.3229	-2.4854	-2.4208	-2.4271	-2.5917	-2.6562	-2.0333	-2.7229	-2.5396	-2.5646	-2.7146	-2.1312	-2.6708	-93.094	229.710	5.600	214.563	227.337	-102.620	177.251	69.471	204.861	-88.191	144.169	101.588	144.454	227.905	-125.660	156.745	0.00086558	0.00068606	0.00017961	616.7	2.4371e-06	7.33e-06	802.59	273.4	2.3303e-06	3.0563e-06	385.68	185.84	139.08	70.882	4.337e-06	98.87	0.00088234	0.00088416	0.0002452	659.78	9.5489e-06	9.6933e-06	841.21	285.6	9.6491e-06	9.6903e-06	399.63	188.19	142.74	71.226	9.7037e-06	97.894	182.077	-20.924	-77.043	-112.841	85.351	-3.443	-114.267	-107.933	156.909	-23.030	-110.231	-107.424	-105.453	-98.867	1.836	-102.284	-8191	255	
1216.182	1	1	0	0	0.31986	0.13826	0.068224	0.087065	0.21317	0.1772	0.2162	0.072845	0.23286	0.2904	0.14139	0.21155	0.27962	0.26135	0.1499	0.079164	-1.9292	-2.1521	-2.4062	-2.6271	-2.2354	-2.6521	-2.2958	-2.4938	-2.3479	-1.9958	-2.6354	-2.675	-2.3833	-2.8875	-2.1896	-2.4542	-40.590	-89.169	92.487	-124.539	213.417	216.546	146.318	-118.896	177.968	187.940	170.896	117.001	209.750	166.174	125.911	169.162	0.00080249	0.00068982	0.00017808	617.4	5.4766e-06	1.3194e-05	802.13	275.6	1.1579e-05	6.7125e-06	387.27	187.26	140.38	71.592	3.035e-06	100.04	0.00088709	0.000883	0.00024758	662.86	9.6518e-06	9.6583e-06	843.38	285.82	9.66e-06	9.6738e-06	401.6	189.51	143.38	71.735	9.7011e-06	98.858	184.096	-77.016	26.838	-113.016	57.978	-5.738	-114.269	-107.867	131.755	5.697	-110.344	-107.196	-105.580	-98.961	-48.280	-102.232	-8191	255	
1216.278	1	1	0	0	0.21782	0.26475	0.19088	0.27496	0.077847	0.11519	0.092433	0.20517	0.28352	0.19665	0.33024	0.357	0.22182	0.30784	0.14193	0.45178	-1.8813	-2.1188	-2.3771	-2.7	-2.2479	-2.3854	-2.4271	-2.4229	-2.4729	-2.0979	-2.4021	-2.4542	-2.3667	-2.7292	-2.4146	-2.3208	-110.032	138.168	-44.142	155.310	80.811	-72.232	-117.127	-99.438	45.365	-120.931	221.794	176.676	-78.900	233.733	-0.993	175.518	0.0006522	0.00058607	1.1767e-05	618.73	4.4058e-06	2.118e-06	809.72	274.37	8.9897e-06	6.4135e-06	388.77	187.86	140.75	72.019	5.158e-06	100.81	0.0008876	0.00088858	0.00024958	665.78	9.7375e-06	9.7573e-06	848.22	286.46	9.616e-06	9.7905e-06	402.53	189.83	143.68	72.105	9.7847e-06	99.824	173.664	-57.218	-35.118	-113.033	-34.718	1.692	-113.743	-107.723	37.952	91.985	-110.283	-107.233	-105.320	-98.777	173.657	-102.185	-8191	255	
1216.398	1	1	0	0	0.17728	0.10342	0.18435	0.071488	0.17291	0.1507	0.047093	0.37864	0.075574	0.032903	0.088075	0.27807	0.14619	0.38535	0.055444	0.16838	-2.1292	-2.3479	-2.3167	-2.5208	-2.2	-2.5583	-2.5667	-2.2438	-2.6146	-2.0687	-2.4729	-2.5438	-2.4042	-2.575	-2.5833	-2.1792	163.680	205.666	-12.389	-119.168	-57.490	-37.360	173.797	176.697	44.627	162.159	41.058	154.095	109.575	209.424	10.527	96.358	0.00046765	0.00071531	0.00015103	626.96	3.0209e-06	2.9478e-06	812.62	278.96	3.3595e-06	6.6034e-06	390.62	188.6	141.01	71.978	1.1995e-05	100.82	0.00089783	0.00090441	0.0002517	672.5	9.7993e-06	9.8835e-06	855.71	290.04	9.7433e-06	9.7252e-06	404.24	190.72	144.31	72.249	9.7205e-06	99.793	184.750	128.424	88.156	-113.115	-108.166	95.947	-113.999	-107.972	-9.785	43.861	-110.661	-107.378	-105.359	-99.009	69.229	-102.319	-8191	255	
1216.495	1	1	0	0	0.1354	0.10873	0.24566	0.23201	0.093864	0.12762	0.22419	0.095416	0.098908	0.24881	0.024257	0.13251	0.32179	0.33191	0.11565	0.23973	-2.2104	-2.0958	-2.2625	-2.7479	-2.1458	-2.4333	-2.55	-2.2958	-2.6104	-2.3917	-2.3729	-2.7521	-2.3583	-2.5458	-2.4792	-2.4646	193.954	123.641	-59.719	-102.351	211.301	-79.551	-98.883	-95.125	2.180	120.409	163.780	182.276	199.464	211.084	83.394	162.628	0.00069834	0.00061816	0.00016134	625.03	6.2595e-06	3.8402e-06	819.18	283.08	7.7634e-06	5.4793e-06	395.36	189.56	141.69	72.548	4.116e-06	100.79	0.0008961	0.00089626	0.00025074	674.25	9.883e-06	9.8441e-06	861.61	294.06	9.8314e-06	9.8004e-06	407.72	191.98	145.37	72.73	9.7813e-06	99.811	175.417	-53.727	-23.748	-113.061	-49.979	26.643	-114.079	-108.068	-40.498	-73.709	-110.439	-107.249	-105.325	-99.042	11.971	-102.223	-8191	255	
1216.589	1	1	0	0	0.21786	0.13236	0.15402	0.21388	0.056699	0.062046	0.12833	0.14158	0.20357	0.088207	0.096778	0.2259	0.075096	0.38656	0.12278	0.093573	-2.0979	-2.0417	-2.425	-2.4979	-2.2396	-2.5812	-2.6562	-2.1542	-2.5687	-2.275	-2.1354	-2.6771	-2.2896	-2.6688	-2.4896	-2.2583	171.578	218.346	50.473	232.274	-53.034	83.095	-94.231	206.594	-40.551	54.794	104.297	180.939	214.222	171.844	68.113	142.969	0.00074825	0.00010398	0.00023404	631.23	1.0283e-05	4.4036e-06	821.83	285.57	9.6752e-06	6.4255e-06	397.27	190.54	143.58	73.608	9.6871e-06	101.74	0.00089945	0.00090313	0.00025131	675.51	9.9009e-06	9.8664e-06	863.11	296.89	9.8862e-06	9.8945e-06	411.29	193.5	147.02	73.433	9.8506e-06	100.79	187.458	223.539	-63.197	-112.842	24.889	133.294	-114.090	-107.953	-56.177	-13.887	-110.698	-107.256	-105.442	-99.120	-29.742	-102.266	-8191	255	
1216.685	1	1	0	0	0.080751	0.095303	0.071099	0.16808	0.17467	0.12882	0.24403	0.21343	0.16813	0.11687	0.2105	0.26473	0.42699	0.013289	0.0525	0.19182	-1.8396	-2.3229	-2.3042	-2.6	-2.2208	-2.2313	-2.6333	-2.3771	-2.4625	-2.2625	-2.2687	-2.7729	-2.3021	-2.5042	-2.4	-2.3042	223.487	-55.217	-111.499	205.785	9.134	174.134	157.466	202.561	-2.132	-99.655	-3.799	196.838	209.245	112.488	-63.910	144.943	0.00073816	0.00042305	7.6453e-05	632.43	3.984e-06	8.2738e-06	826.39	289.41	6.2706e-06	5.0758e-06	402.32	193.96	145.47	73.8	8.4404e-06	102.9	0.00090588	0.00090828	0.00025324	679.77	1.0045e-05	1.009e-05	871.85	300.92	1.0039e-05	1.0071e-05	416.81	196.44	149.03	74.183	9.96e-06	101.91	191.270	-29.653	153.348	-113.061	7.033	58.907	-114.485	-107.956	29.192	35.055	-110.526	-107.204	-105.310	-98.800	-0.882	-102.174	-8191	255	
1216.781	1	1	0	0	0.10713	0.1461	0.19504	0.28132	0.20192	0.15484	0.19688	0.24074	0.11059	0.27319	0.20067	0.066774	0.17423	0.14696	0.27175	0.36116	-1.9708	-2.4271	-1.8167	-2.7208	-2.2396	-2.1854	-2.6646	-2.4229	-2.3833	-2.4	-2.2917	-2.8021	-2.4437	-2.4375	-2.5708	-2.3521	71.637	69.437	40.781	-9.881	221.034	33.190	-97.339	166.082	-79.807	-54.140	-73.686	-110.500	122.579	200.383	202.201	187.081	0.00093046	0.00092098	5.8384e-05	633.87	1.0805e-05	2.1759e-06	831.94	287.77	7.9769e-06	2.7558e-06	401.5	193.57	144.36	73.162	6.4546e-06	102.23	0.0009161	0.00091385	0.00025697	682.13	9.9991e-06	1.0092e-05	872.88	300.16	1.0053e-05	1.0082e-05	416.35	195.96	148	73.494	9.9772e-06	100.95	184.622	-94.462	-55.572	-113.227	12.109	-118.717	-114.204	-107.780	215.825	0.975	-110.842	-107.352	-105.666	-98.921	34.921	-102.342	-8191	255	
1216.877	1	1	0	0	0.20981	0.026032	0.12487	0.098266	0.14467	0.25444	0.055331	0.09366	0.18228	0.16822	0.17706	0.32335	0.21124	0.37765	0.2198	0.20162	-1.9917	-2.3958	-2.225	-2.625	-2.4542	-2.1292	-2.75	-2.3271	-2.2708	-2.5521	-2.1	-2.7292	-2.4188	-2.3979	-2.2687	-2.4271	62.072	136.334	39.546	-107.599	-86.862	176.757	207.882	181.045	-63.486	69.969	-60.775	-107.173	225.667	213.250	-101.732	200.718	0.00082197	0.00044842	0.00020367	624.84	2.408e-06	9.9102e-06	816.78	280.87	3.8642e-06	3.2792e-06	395.26	190.04	141.02	71.877	3.9121e-06	99.654	0.00090462	0.0009048	0.00025136	671.54	9.8212e-06	9.9324e-06	859.48	292.96	9.8334e-06	9.8548e-06	408.19	191.65	144.63	72.118	9.6957e-06	98.627	181.704	201.951	-49.248	-112.820	112.858	-10.989	-114.046	-107.984	-10.211	211.232	-110.302	-107.067	-105.647	-99.015	-72.108	-102.329	-8191	255	
1216.974	1	1	0	0	0.10964	0.24277	0.14844	0.256	0.090264	0.24557	0.35185	0.24164	0.19979	0.04984	0.19874	0.2922	0.17562	0.34263	0.29363	0.32959	-1.7979	-2.5021	-1.9646	-2.5958	-2.4896	-2.1417	-2.7458	-2.3771	-2.4021	-2.5687	-2.2896	-2.6479	-2.4792	-2.4938	-2.4313	-2.4562	-82.937	175.704	14.074	-124.349	-120.036	-14.586	161.777	207.011	-92.222	-57.616	-14.632	170.356	146.163	216.750	62.647	221.607	0.0007035	0.0004781	0.00027646	615.42	7.3122e-06	2.102e-06	805.84	276.9	4.3848e-06	1.0157e-05	389.57	186.16	139.71	71.587	1.0052e-05	98.623	0.00088322	0.0008918	0.00024561	661.88	9.6928e-06	9.6845e-06	846.06	288.21	9.6666e-06	9.7201e-06	403.5	189.14	143.45	71.661	9.6251e-06	97.975	187.718	-93.546	-77.585	-112.827	33.135	42.675	-114.254	-107.958	-69.198	-65.759	-110.600	-107.262	-105.370	-98.803	37.071	-102.557	-8191	255	
1217.094	1	1	0	0	0.047306	0.23201	0.41333	0.1831	0.068315	0.12248	0.086089	0.25513	0.16561	0.2911	0.10757	0.22122	0.2363	0.12156	0.195	0.14285	-1.7458	-2.4146	-2.1188	-2.5187	-2.3937	-2.2458	-2.6833	-2.1896	-2.3667	-2.55	-2.1792	-2.4583	-2.55	-2.3146	-2.275	-2.5479	-112.903	-44.890	-59.881	114.658	18.471	-108.532	-102.794	199.585	61.929	37.198	37.798	178.788	106.419	-102.473	86.073	160.197	0.00063114	0.00040076	0.00037312	614.7	2.3014e-06	4.1436e-06	802.66	275.77	1.8723e-06	1.064e-05	388.02	186.34	139.84	71.332	1.7551e-06	98.624	0.00088495	0.00087867	0.00024694	660.51	9.62e-06	9.6349e-06	843.62	286.34	9.6128e-06	9.7182e-06	402.16	188.63	143.41	71.555	9.655e-06	98.204	181.362	231.252	-118.343	-112.804	-8.864	-42.903	-113.996	-107.815	13.876	-8.054	-110.615	-107.144	-105.517	-98.899	-123.313	-102.367	-8191	255	
1217.190	1	1	0	0	0.1571	0.15081	0.17163	0.25589	0.22334	0.16581	0.19003	0.11188	0.077122	0.069359	0.20563	0.29719	0.1995	0.19461	0.099947	0.34819	-1.8083	-2.6625	-2.3292	-2.4667	-2.5583	-2.1063	-2.7958	-2.6	-2.2	-2.5729	-2.475	-2.3521	-2.9333	-2.2083	-2.4479	-2.5333	36.672	184.010	155.592	174.411	-15.142	137.585	199.592	150.374	123.904	36.062	175.996	-107.931	158.774	216.617	34.082	199.466	0.00074403	0.0004026	0.00018656	618.88	6.7989e-06	7.7663e-06	805.46	275.36	9.4658e-06	2.1412e-06	389.68	187.14	140.45	71.935	4.2232e-06	99.94	0.00088659	0.00088769	0.00024551	663.46	9.6715e-06	9.6906e-06	845.95	286.9	9.7107e-06	9.6425e-06	402.41	189.36	143.82	71.874	9.7395e-06	98.936	181.321	15.035	-50.877	-113.006	-43.119	96.652	-114.037	-107.778	1.367	-25.947	-110.480	-107.270	-105.497	-99.020	-43.300	-102.281	-8191	255	
1217.286	1	1	0	0	0.3338	0.43229	0.2474	0.067897	0.041737	0.19886	0.17619	0.0068557	0.32805	0.079778	0.12556	0.33454	0.41165	0.067755	0.14329	0.16936	-1.7667	-2.625	-2.3625	-2.3125	-2.7021	-2.2292	-2.4771	-2.3479	-2.0604	-2.5646	-2.4146	-2.2104	-2.5667	-2.3583	-2.3917	-2.6042	58.701	183.135	13.124	-92.026	162.973	214.525	117.944	217.613	73.037	-96.764	-0.993	228.141	217.053	-40.260	-107.051	165.921	0.00080764	0.00040956	0.00015675	622.45	8.0622e-06	1.0422e-05	807.11	276.28	7.5095e-06	3.8625e-06	388.49	186.44	139.55	71.401	8.1808e-06	99.193	0.00089018	0.00089777	0.000248	667.93	9.7517e-06	9.7283e-06	849.53	287.4	9.7084e-06	9.6391e-06	401.91	188.79	143.1	71.507	9.6383e-06	98.558	184.554	-75.190	-51.931	-112.785	-15.852	6.601	-114.377	-107.795	-6.497	201.073	-110.293	-107.145	-105.260	-98.852	-70.815	-102.165	-8191	255	
1217.358	1	1	0	0	0.083325	0.1128	0.22381	0.05154	0.1036	0.089907	0.19588	0.1452	0.25255	0.21693	0.17743	0.25178	0.16261	0.21615	0.14917	0.16324	-1.6396	-2.6542	-2.2313	-2.3292	-2.4708	-2.1437	-2.4354	-2.6	-2.0792	-2.5854	-2.4125	-2.4479	-2.7583	-2.3771	-2.3958	-2.6813	-84.443	158.804	148.913	-41.680	129.770	-45.434	230.877	-114.690	209.446	-78.038	202.182	-107.459	122.751	-75.094	227.787	175.204	0.00074917	0.00043247	0.00019943	618.43	8.6283e-06	4.6334e-06	804.78	274.41	2.1058e-06	9.2944e-06	385.37	185.57	138.85	70.786	1.0358e-05	98.444	0.00088219	0.00088417	0.00024728	664.69	9.6382e-06	9.6979e-06	844.65	286.08	9.5232e-06	9.5535e-06	398.12	187.12	142.17	70.922	9.5699e-06	97.46	171.653	3.950	-38.143	-112.941	7.665	34.013	-114.206	-108.118	-25.437	87.663	-110.556	-107.219	-105.436	-98.791	4.193	-102.225	-8191	255	
1217.477	1	1	0	0	0.024608	0.15176	0.26467	0.15839	0.090478	0.074847	0.204	0.22854	0.23032	0.14625	0.050016	0.34559	0.23697	0.40432	0.065292	0.17857	-1.6771	-2.4354	-2.4896	-2.225	-2.6188	-2.3812	-2.5146	-2.5604	-2.1958	-2.6146	-2.4417	-2.3625	-2.6667	-2.4313	-2.1979	-2.6958	233.848	75.038	-32.137	-16.604	102.655	-79.099	82.049	-28.635	68.566	169.179	22.313	83.209	-81.854	203.231	108.588	153.547	0.00072427	0.0011758	0.0002049	615.68	3.2813e-06	1.1517e-05	806.86	276.15	2.3678e-06	4.2939e-06	386.25	185.16	139.01	71.177	6.2679e-06	98.63	0.00087611	0.00088528	0.0002463	662.6	9.6566e-06	9.7179e-06	844.67	287.08	9.5927e-06	9.5969e-06	398.81	187.51	142.22	71.199	9.5798e-06	97.65	171.833	-26.546	209.639	-112.946	-100.469	72.784	-114.058	-107.942	215.232	23.636	-110.314	-107.254	-105.421	-98.898	-14.750	-102.404	-8191	255	
1217.573	1	1	0	0	0.16648	0.11429	0.11045	0.35304	0.017272	0.22272	0.20587	0.24876	0.32999	0.0059148	0.2096	0.12198	0.26765	0.3213	0.24032	0.23077	-1.6854	-2.2521	-2.5187	-2.2	-2.7625	-2.1437	-2.425	-2.6688	-2.1521	-2.2875	-2.4562	-2.225	-2.6292	-2.5729	-2.1229	-2.7792	9.184	-113.952	227.749	173.187	186.111	122.116	199.627	123.971	148.440	-106.879	186.885	203.950	119.741	214.682	2.102	208.103	0.00068464	0.00063175	0.00043182	615.02	9.5582e-06	6.7525e-06	808.88	277.7	2.7629e-06	5.0558e-06	388.34	185.19	139.42	71.186	4.9973e-06	98.827	0.00088079	0.0008867	0.00024838	663.98	9.6797e-06	9.7375e-06	849.85	288.3	9.6225e-06	9.6436e-06	400.64	188.02	142.65	71.28	9.6093e-06	97.762	175.741	-72.942	-104.912	-112.450	-47.163	-28.822	-114.001	-107.940	125.950	11.938	-110.434	-107.397	-105.319	-98.737	-11.950	-102.204	-8191	255	
1217.669	1	1	0	0	0.16106	0.17535	0.11122	0.071696	0.10712	0.048778	0.13862	0.35817	0.24983	0.085145	0.28624	0.16367	0.1819	0.38552	0.046132	0.13343	-1.8396	-2.2021	-2.5146	-2.0417	-2.2188	-2.5	-2.3542	-2.8104	-2.2771	-2.2458	-2.6146	-2.1542	-2.5667	-2.6042	-2.0292	-2.925	69.930	99.689	-22.800	23.594	76.165	160.894	185.184	192.877	102.788	149.943	137.563	179.007	220.510	192.720	-109.974	122.166	0.00082913	0.0006286	0.00028702	618.17	5.7061e-06	1.1009e-05	804.31	278.18	5.112e-06	7.5418e-06	385.64	185.76	139.47	71.02	7.6602e-06	98.905	0.00087469	0.00088736	0.00024772	662.59	9.6839e-06	9.7262e-06	845.45	289.08	9.7064e-06	9.6568e-06	400.29	188.05	142.64	71.138	9.5326e-06	97.912	178.413	-111.947	-24.223	-112.860	17.407	-19.883	-113.899	-107.803	-2.725	-16.395	-110.659	-107.209	-105.059	-98.694	130.610	-102.426	-8191	255	
1217.765	1	1	0	0	0.31035	0.16234	0.21536	0.11401	0.026967	0.13344	0.19279	0.13818	0.074248	0.11338	0.22131	0.28691	0.30706	0.34478	0.08037	0.035782	-1.775	-2.2	-2.7188	-2.4833	-2.4271	-2.5438	-2.4375	-2.8333	-2.4417	-2.1	-2.7208	-2.2479	-2.5104	-2.6813	-1.9292	-2.7292	-48.433	-108.394	49.026	177.394	-78.788	5.422	194.337	-123.151	-57.151	-122.190	187.734	133.091	190.321	183.714	-70.699	-7.637	0.0006655	0.0011059	0.00023461	613.52	4.6551e-06	3.9251e-06	804.78	277.11	8.5472e-06	4.3049e-06	388.3	185.14	139.52	71.088	6.4628e-06	98.136	0.00087928	0.00088339	0.0002457	660.29	9.6567e-06	9.6617e-06	845.45	288.04	9.6669e-06	9.5685e-06	400.52	187.52	142.49	70.987	9.4876e-06	97.336	175.385	-100.420	100.832	-113.049	141.032	4.276	-114.020	-107.940	-54.090	-2.843	-110.420	-107.191	-105.500	-98.649	26.167	-102.296	-8191	255	
1217.886	1	1	0	0	0.21013	0.10174	0.27059	0.15662	0.22772	0.17434	0.091627	0.25936	0.3743	0.10798	0.09676	0.32484	0.19124	0.22489	0.11581	0.10811	-1.8542	-2.2146	-2.3958	-2.2604	-2.3833	-2.4938	-2.1083	-2.8104	-2.1417	-2.2333	-2.4938	-2.1188	-2.5229	-2.6646	-2.0875	-2.8333	54.587	-122.371	70.886	91.903	3.636	113.677	149.347	-73.247	57.774	-1.023	177.700	229.070	197.628	205.543	-50.564	176.726	0.00071106	0.00065004	2.5998e-05	616.31	7.9291e-06	1.9728e-06	804.73	277.7	8.0966e-06	2.5041e-06	387.96	185.47	140.37	71.418	4.4658e-06	98.651	0.00087269	0.00087587	0.00024239	658.37	9.5857e-06	9.6803e-06	841.86	289.05	9.6347e-06	9.6047e-06	401.78	188.47	143.69	71.386	9.5354e-06	97.782	187.663	-67.840	27.592	-112.815	-10.355	-37.944	-114.343	-107.978	-87.256	190.850	-110.292	-107.011	-105.361	-98.517	-15.671	-102.237	-8191	255	
1217.982	1	1	0	0	0.089185	0.23632	0.18016	0.089966	0.20173	0.056429	0.1857	0.1213	0.18169	0.16239	0.21254	0.2639	0.31139	0.26808	0.067498	0.14153	-1.9792	-2.1396	-2.6813	-2.1958	-2.325	-2.5625	-2.2583	-2.6688	-2.5208	-2.0958	-2.8063	-2.6854	-2.5438	-2.6979	-2.075	-2.6479	136.693	204.277	178.505	200.740	20.976	-59.027	-108.854	184.138	4.640	-13.731	-81.558	171.698	177.598	-116.912	130.216	212.219	0.00072252	0.00073719	0.00011363	612.6	5.0735e-06	6.1014e-06	804.94	279.55	6.4005e-06	1.2601e-05	393.26	187.15	142.18	71.876	9.7442e-06	99.621	0.00087368	0.00088006	0.00024506	659.15	9.6651e-06	9.662e-06	846.01	290.5	9.6964e-06	9.7818e-06	405.57	189.89	144.97	72.155	9.7879e-06	98.629	183.881	-34.653	103.021	-112.918	-63.169	40.870	-113.812	-107.896	-54.853	25.706	-110.754	-107.297	-105.607	-98.836	25.116	-102.339	-8191	255	
1218.078	1	1	0	0	0.07177	0.11382	0.19385	0.31225	0.18384	0.23888	0.14297	0.20491	0.14894	0.24756	0.07438	0.3435	0.25814	0.31857	0.1284	0.23798	-1.6979	-2.2208	-2.5396	-2.4708	-2.2792	-2.5417	-2.3208	-2.4583	-2.5958	-2.3271	-2.7771	-2.4813	-2.3625	-2.8521	-2.2354	-2.7167	-10.131	71.960	105.753	181.214	-6.999	221.261	168.921	173.582	-38.252	-100.013	-5.951	160.952	180.667	177.002	72.052	154.067	0.00068901	0.00030613	0.00035773	618.85	2.6513e-06	3.6305e-06	811.43	281.23	5.5016e-06	1.0733e-05	394.1	189.5	142.43	72.473	7.1829e-06	100.02	0.00089221	0.00089286	0.00024955	668.06	9.743e-06	9.835e-06	852.49	292.66	9.7752e-06	9.7714e-06	407.66	191.55	145.83	72.642	9.7833e-06	99.21	178.504	-41.837	-62.369	-112.815	3.400	82.395	-113.794	-108.210	31.906	21.117	-110.346	-107.331	-105.546	-98.856	-52.943	-102.180	-8191	255	
1218.175	1	1	0	0	0.042411	0.037672	0.16189	0.079398	0.14285	0.17175	0.18615	0.20798	0.29115	0.29701	0.1056	0.028908	0.18971	0.14997	0.022853	0.1823	-2.0333	-2.1604	-2.6104	-2.4583	-2.3	-2.6625	-2.425	-2.6917	-2.5604	-2.1021	-2.6771	-2.6125	-2.2812	-2.8396	-2.175	-2.7562	93.830	80.708	122.631	117.719	-120.810	-38.382	171.735	-98.845	47.905	209.952	214.178	-113.551	209.810	-104.629	148.594	-79.268	0.00087433	0.00073086	0.00019893	624.5	2.6716e-06	3.6507e-06	815.87	283.86	8.5664e-06	7.8165e-06	396.45	190.62	142.78	72.363	7.0177e-06	99.982	0.00089783	0.00089789	0.00025183	671.64	9.8467e-06	9.8688e-06	857.09	295.26	9.8795e-06	9.9015e-06	410.42	192.49	146.39	72.807	9.7789e-06	99.377	176.380	-23.860	-76.725	-112.993	-46.024	73.518	-114.061	-107.908	42.540	25.689	-110.450	-107.071	-105.438	-98.738	-9.307	-102.300	-8191	255	
1218.271	1	1	0	0	0.18049	0.19571	0.11231	0.20862	0.37082	0.20483	0.13791	0.14109	0.092054	0.12398	0.25841	0.15873	0.18287	0.025296	0.1539	0.34965	-2.15	-2.1021	-2.3708	-2.6375	-2.2	-2.5771	-2.3396	-2.3521	-2.7583	-2.2646	-2.5021	-2.6125	-2.3229	-2.9667	-2.3187	-2.4146	-94.610	60.488	175.201	175.206	116.975	-13.976	216.907	106.952	54.011	122.359	139.112	232.336	-123.983	180.476	-91.139	158.776	0.00064652	0.00072703	8.641e-05	618.05	1.2402e-06	6.9157e-06	808.13	282.66	7.6747e-06	2.9339e-06	393.04	188.67	142.53	72.569	9.4612e-06	99.361	0.00089053	0.00089376	0.00024876	666.74	9.7933e-06	9.7552e-06	852.04	293.15	9.708e-06	9.6564e-06	406.64	190.6	145.87	72.503	9.6431e-06	98.621	187.420	-72.696	-9.074	-113.047	109.718	79.654	-114.099	-107.791	87.416	-33.959	-110.347	-107.115	-105.409	-98.679	78.163	-102.486	-8191	255	
1218.367	1	1	0	0	0.067525	0.35024	0.10347	0.064513	0.17223	0.16456	0.27822	0.12095	0.10852	0.0696	0.082171	0.20372	0.068455	0.28636	0.096857	0.13982	-1.9813	-2.0229	-2.3583	-2.2833	-2.1958	-2.4	-2.3604	-2.3896	-2.5208	-2.1833	-2.375	-2.6208	-2.0771	-2.8792	-2.3292	-2.5062	22.713	25.894	-16.927	49.560	-87.142	151.641	181.519	183.498	171.048	75.670	74.878	162.184	-92.403	199.924	-111.768	-117.540	0.00061609	0.00066243	0.00032303	625.12	3.1859e-06	5.6516e-06	810.9	283.48	6.4875e-06	4.4504e-06	398.36	190.21	143.85	73.249	7.7148e-06	100.87	0.00088719	0.00088499	0.00024819	669.86	9.7626e-06	9.7856e-06	854.09	295.99	9.7174e-06	9.8669e-06	410.56	192.46	147.46	73.291	9.8371e-06	99.723	189.252	-32.840	-91.609	-112.808	47.304	40.472	-114.092	-107.934	-22.467	19.087	-110.736	-107.557	-105.247	-98.748	137.865	-102.340	-8191	255	
1218.487	1	1	0	0	0.11416	0.15369	0.38974	0.22822	0.3344	0.30347	0.1649	0.29974	0.16912	0.15009	0.12866	0.45506	0.17624	0.32879	0.17493	0.32075	-2.1021	-2.2188	-2.225	-2.5833	-2.2104	-2.2958	-2.4396	-2.25	-2.6625	-2.1979	-2.4542	-2.6813	-2.4146	-2.6	-2.4583	-2.4688	-0.940	11.313	38.496	-99.498	-96.320	-74.297	181.731	182.271	30.959	-99.658	-102.455	209.262	214.221	210.598	54.666	197.476	0.00070088	0.00090679	0.00019413	631.43	4.8086e-06	7.7574e-06	822.6	287.85	1.4559e-05	5.4397e-06	399.8	192.62	146.45	73.931	3.9321e-06	101.34	0.00089413	0.00089082	0.00024755	675.28	9.6774e-06	9.7636e-06	859.19	297.87	9.7667e-06	9.8059e-06	413.55	194.83	149.39	73.99	9.8033e-06	100.51	181.642	-20.222	-83.706	-112.421	117.093	11.840	-113.941	-107.982	-1.724	-108.659	-110.575	-107.294	-105.380	-98.793	37.679	-102.279	-8191	255	
1218.582	1	1	0	0	0.0069068	0.13496	0.084018	0.34104	0.06545	0.20226	0.24298	0.24795	0.11933	0.16707	0.18948	0.29013	0.29946	0.21385	0.0086295	0.30377	-2.2208	-2.2708	-2.3458	-2.5208	-2.3187	-2.3312	-2.5125	-2.3458	-2.5771	-2.4146	-2.4146	-2.6833	-2.3292	-2.4896	-2.5396	-2.375	160.706	63.240	53.935	189.434	-17.735	-3.957	194.145	188.530	-30.533	146.077	-102.990	-109.674	205.903	208.366	-120.643	167.204	0.00065017	0.00064625	0.00026988	630.43	5.7444e-06	3.484e-06	818.75	286.59	1.6251e-05	7.6274e-06	401.43	193.63	146.07	73.872	8.5855e-06	101.7	0.00088874	0.00088853	0.00024925	675.22	9.6599e-06	9.7288e-06	859.27	297.52	9.7012e-06	9.6938e-06	414.58	194.94	149.09	73.8	9.7095e-06	100.86	173.483	-58.175	-69.674	-112.793	49.334	-98.662	-114.130	-108.115	-23.365	-6.742	-110.267	-107.469	-105.298	-98.776	12.446	-102.352	-8191	255	
1218.654	1	1	0	0	0.044639	0.070215	0.13723	0.43292	0.062983	0.35362	0.27542	0.17307	0.039343	0.075227	0.23372	0.23201	0.20556	0.061043	0.1174	0.23388	-2.0792	-2.2958	-2.4208	-2.5625	-2.0417	-2.55	-2.3979	-2.3271	-2.5833	-2.4521	-2.2042	-2.725	-2.2812	-2.5104	-2.6167	-2.2458	-16.153	26.455	87.186	179.735	-83.256	-87.616	152.941	-66.488	117.270	42.103	153.275	69.716	131.378	-120.509	18.260	112.108	0.00070668	0.00060902	0.00025673	628.28	5.3381e-06	8.6138e-06	820.03	284.22	3.9918e-06	2.7763e-06	395.38	190.09	143.98	72.354	7.4161e-06	100.56	0.00088751	0.00088411	0.00024877	674.45	9.6897e-06	9.7385e-06	856.64	294.49	9.6478e-06	9.5672e-06	409.24	191.86	146.77	72.544	9.5665e-06	99.327	185.704	-66.639	-5.309	-112.939	34.343	71.051	-114.010	-107.946	-81.073	-29.709	-110.431	-107.196	-105.231	-98.890	-43.850	-102.379	-8191	255	
1218.774	1	1	0	0	0.29561	0.088199	0.092714	0.20665	0.14565	0.26493	0.15758	0.22422	0.059153	0.14592	0.23226	0.10739	0.12898	0.14773	0.10101	0.28799	-2.0521	-2.4667	-2.3083	-2.7	-2.2792	-2.4354	-2.6458	-2.15	-2.475	-2.5792	-2.2083	-2.8917	-2.6021	-2.4688	-2.6813	-2.2438	46.932	-39.747	74.178	15.034	-33.319	61.584	101.846	171.910	157.289	1.732	-16.555	76.469	160.413	171.098	208.568	144.401	0.00067279	0.00029931	0.00030767	618.54	5.4368e-06	2.8137e-06	800.12	276.94	6.5248e-06	3.9939e-06	388.62	185.74	139.22	70.42	7.4342e-06	97.684	0.0008753	0.00088083	0.00024369	663.55	9.47e-06	9.5433e-06	842.27	288.35	9.4662e-06	9.5095e-06	400.41	187.39	142.39	70.7	9.3988e-06	96.838	171.995	-58.158	-78.421	-112.891	94.644	-44.824	-114.225	-107.919	36.303	-21.480	-110.202	-107.222	-105.155	-98.635	-15.067	-102.165	-8191	255	
1218.870	1	1	0	0	0.11905	0.14149	0.12054	0.14716	0.2751	0.1465	0.16797	0.31317	0.11709	0.080736	0.17006	0.055507	0.040305	0.31238	0.11531	0.16057	-2.1063	-2.4667	-2.2521	-2.6813	-2.3646	-2.1333	-2.7354	-2.3854	-2.4542	-2.525	-2.2188	-2.7417	-2.3729	-2.5354	-2.6292	-2.5375	156.621	-64.084	-50.485	-82.699	-15.834	-57.592	150.309	155.355	4.345	125.257	-59.729	-90.259	-59.628	181.858	7.301	144.371	0.00065386	0.00068019	0.00010519	613.47	6.0253e-06	7.8686e-06	797.7	274.96	9.3016e-06	7.6166e-06	381.8	183.57	138.25	70.055	4.2769e-06	97.168	0.00086504	0.0008609	0.00024063	657.73	9.421e-06	9.4646e-06	837.91	285.22	9.4225e-06	9.4131e-06	396.23	185.33	141.19	70.213	9.3074e-06	96.154	186.290	-39.731	-60.213	-112.697	-23.054	-7.907	-114.110	-107.791	-37.906	3.511	-110.104	-107.209	-105.077	-98.696	-22.400	-102.324	-8191	255	
1218.966	1	1	0	0	0.15221	0.36775	0.42944	0.080913	0.14027	0.061235	0.10811	0.19476	0.051294	0.15727	0.18935	0.14786	0.092135	0.30347	0.093912	0.30681	-1.8854	-2.3729	-2.1708	-2.6688	-2.5687	-2.2583	-2.8458	-2.2708	-2.4354	-2.5271	-2.3438	-2.8375	-2.5667	-2.3479	-2.6688	-2.4417	189.687	107.019	11.582	147.265	143.206	43.774	131.776	125.410	-51.550	175.075	-113.383	149.776	-48.982	223.638	-100.740	202.844	0.0007643	0.00059317	9.6403e-05	609.27	4.8844e-06	1.2457e-05	800.17	272.96	5.4445e-06	5.9096e-06	381.25	182.09	136.8	69.592	7.1845e-06	96.31	0.0008606	0.00086519	0.00024054	654.59	9.4418e-06	9.5102e-06	838.05	284.23	9.42e-06	9.4434e-06	394.52	184.86	140.21	69.807	9.3542e-06	95.689	173.197	-31.506	-100.510	-112.745	-14.505	37.940	-114.089	-107.957	-41.470	118.747	-110.307	-107.141	-105.236	-98.675	50.215	-102.218	-8191	255	
1219.063	1	1	0	0	0.26815	0.092476	0.30319	0.11399	0.33013	0.17612	0.13542	0.4195	0.29348	0.077343	0.087221	0.1365	0.18691	0.086794	0.30543	0.20193	-1.8958	-2.55	-2.1813	-2.6229	-2.4396	-2.6167	-2.5958	-2.5646	-2.2667	-2.4938	-2.4708	-2.575	-2.5875	-2.0479	-2.6083	-2.3812	142.275	-12.664	-61.058	-113.149	-76.950	39.835	107.960	213.507	-90.896	-81.093	116.141	155.905	192.501	193.639	-46.194	166.079	0.00073169	0.00089939	0.00032819	607.68	2.6336e-06	1.4001e-05	799.07	272.17	7.5633e-06	1.1257e-05	381.78	182.96	137.32	69.782	3.1405e-06	96.667	0.0008577	0.00085888	0.00023962	653.41	9.4168e-06	9.4188e-06	837.43	283.25	9.4683e-06	9.4663e-06	394.57	185.13	140.32	69.821	9.3787e-06	95.685	179.371	-19.251	-45.687	-112.658	-22.039	-6.804	-113.813	-107.661	-115.032	-12.577	-110.274	-106.919	-105.151	-98.563	-18.157	-102.359	-8191	255	
1219.183	1	1	0	0	0.16978	0.13222	0.063495	0.11315	0.39432	0.35111	0.12167	0.13943	0.29229	0.26011	0.21718	0.037187	0.32422	0.11701	0.1845	0.28404	-1.8333	-2.6042	-2.2354	-2.5354	-2.4583	-2.0646	-2.7167	-2.5646	-2.3354	-2.5687	-2.5229	-2.3187	-2.8583	-2.1125	-2.3667	-2.6333	22.068	-38.433	-104.949	-52.443	124.796	110.234	121.489	93.489	-14.764	45.039	112.354	151.922	233.937	-117.696	120.305	173.132	0.00074187	0.00027048	0.00028453	606.94	3.7095e-06	1.8258e-06	799.96	271.06	4.3218e-06	7.0349e-06	378.24	181.26	135.02	68.782	1.4207e-06	95.729	0.0008566	0.00085836	0.00023871	652.16	9.4018e-06	9.4254e-06	833.82	281.98	9.3641e-06	9.2959e-06	390.88	183.03	138.63	69.133	9.2725e-06	94.692	177.720	26.888	138.464	-112.957	50.224	183.229	-114.218	-107.964	48.282	50.424	-110.567	-106.871	-105.259	-98.663	222.279	-102.270	-8191	255	
1219.279	1	1	0	0	0.082645	0.087285	0.33701	0.18383	0.032662	0.21372	0.29915	0.42332	0.20984	0.19235	0.16324	0.30212	0.073768	0.18284	0.14627	0.24215	-1.6125	-2.625	-2.1521	-2.4208	-2.5271	-2.1292	-2.7708	-2.6646	-2.2313	-2.6771	-2.4083	-2.4042	-2.4562	-2.4625	-2.4896	-2.7812	149.096	27.868	229.385	210.412	116.288	186.169	167.037	193.046	-106.809	150.904	145.910	-115.195	-22.167	214.149	109.709	156.410	0.00078357	0.00099647	0.000333	606.81	7.4675e-06	3.3664e-06	793.95	271.74	2.9538e-06	5.3539e-06	378.48	181.32	136.33	69.739	6.3074e-06	95.821	0.00085403	0.0008576	0.00023794	650.49	9.3663e-06	9.3615e-06	832.32	282.19	9.3364e-06	9.437e-06	392.77	183.77	139.84	69.84	9.3367e-06	95.112	178.663	-80.899	-64.512	-112.824	17.117	65.289	-113.988	-107.692	-78.868	17.251	-110.334	-107.277	-105.212	-98.512	4.341	-102.491	-8191	255	
1219.351	1	1	0	0	0.090243	0.12262	0.15352	0.18894	0.10941	0.029384	0.12811	0.10673	0.10638	0.1911	0.39298	0.21363	0.19856	0.34237	0.22175	0.11657	-1.8875	-2.4542	-2.5375	-2.3	-2.475	-2.2854	-2.3583	-2.7354	-2.2062	-2.6771	-2.5563	-2.3604	-2.6813	-2.6021	-2.3187	-2.8063	179.059	-51.349	229.059	222.138	141.945	-77.324	131.663	-96.148	187.255	-1.680	157.612	201.836	-22.444	209.496	23.212	72.762	0.00074834	0.00062242	8.4897e-05	613.22	5.7389e-06	3.7397e-06	793.9	273.78	3.8776e-06	1.2895e-05	383.46	182.73	138.72	70.137	4.2235e-07	97.065	0.00085858	0.00085534	0.00023883	655.73	9.3884e-06	9.4335e-06	835.85	284.24	9.4436e-06	9.485e-06	395.41	185.11	141.24	70.308	9.3922e-06	95.917	172.477	-74.689	24.604	-112.960	-118.501	6.354	-113.739	-107.845	-65.621	43.391	-110.430	-107.182	-105.033	-98.731	46.332	-102.306	-8191	255	
1219.447	1	1	0	0	0.37886	0.20743	0.16396	0.29641	0.21502	0.10103	0.21032	0.18929	0.015336	0.26939	0.10006	0.1544	0.18766	0.23153	0.29694	0.18595	-1.7146	-2.4813	-2.3688	-2.1937	-2.6583	-2.1875	-2.4104	-2.6396	-2.0875	-2.6396	-2.6958	-2.2917	-2.7167	-2.5042	-2.2125	-2.8021	227.939	-76.542	150.456	179.633	73.405	186.511	64.640	229.655	-45.029	-19.311	-124.412	233.164	177.355	195.564	-70.448	180.205	0.00067192	0.00035924	0.00026897	614.06	1.1917e-05	1.1833e-06	804.1	276.25	7.3686e-06	7.2222e-06	384.93	185.63	138.64	70.781	7.1152e-06	97.728	0.00085794	0.00086681	0.00023984	657.06	9.4706e-06	9.4524e-06	840.18	286.15	9.5124e-06	9.5721e-06	398.23	187.25	142.46	71.017	9.4579e-06	96.879	174.123	-6.550	-31.561	-112.869	20.656	170.333	-113.821	-107.883	-2.419	0.886	-110.916	-107.159	-105.240	-98.783	42.659	-102.359	-8191	255	
1219.566	1	1	0	0	0.093186	0.058812	0.11697	0.15485	0.21646	0.27762	0.20788	0.078177	0.0080504	0.0423	0.013514	0.072195	0.22868	0.17078	0.085753	0.3257	-1.8813	-2.4604	-2.4229	-2.3521	-2.5792	-2.4771	-2.4458	-2.7667	-2.4	-2.5792	-2.4813	-2.4125	-2.6229	-2.5563	-2.1521	-2.7562	138.794	133.509	85.370	22.514	-65.910	-99.984	-75.085	200.937	-84.389	198.730	-100.031	201.136	218.021	-92.651	195.176	157.062	0.00056206	0.00036517	0.00023359	616.97	2.0584e-06	8.5841e-07	801.78	274.22	2.4743e-06	3.7837e-06	383.52	183.84	138.82	70.545	4.2013e-06	97.374	0.0008746	0.00087391	0.0002446	661.69	9.5047e-06	9.5631e-06	841.59	285.34	9.4386e-06	9.549e-06	397.05	186.53	141.76	70.761	9.4887e-06	96.545	168.889	-90.041	-75.343	-113.069	-31.738	39.547	-113.993	-107.915	72.699	52.819	-110.212	-107.109	-105.126	-98.559	-105.893	-102.406	-8191	255	
1219.662	1	1	0	0	0.064385	0.090859	0.13309	0.43223	0.18936	0.10018	0.17605	0.15134	0.1447	0.039303	0.30618	0.31817	0.29085	0.10279	0.36838	0.14618	-2.0417	-2.4333	-2.5771	-2.2354	-2.6562	-2.3604	-2.3792	-2.8896	-2.3563	-2.4875	-2.55	-2.2333	-2.7458	-2.5625	-2.1813	-3.125	-10.277	17.974	-91.946	224.836	70.358	41.862	207.719	169.624	108.161	207.299	-22.017	217.485	209.371	-120.636	41.136	169.510	0.00068114	0.00090054	0.0002719	614.99	1.7908e-06	6.192e-06	801.3	273.82	1.022e-05	9.4147e-06	380.94	182.26	136.99	70.413	4.7219e-06	96.385	0.0008706	0.00087327	0.00024305	661.55	9.4621e-06	9.4705e-06	839.77	284.23	9.5259e-06	9.4608e-06	393.49	184.61	141.05	70.481	9.3986e-06	95.94	191.084	-75.353	-105.461	-112.774	192.863	13.086	-114.228	-107.871	-56.846	26.378	-110.355	-107.039	-105.273	-98.647	-22.723	-102.174	-8191	255	
1219.758	1	1	0	0	0.13539	0.061732	0.1582	0.14966	0.33852	0.17181	0.024185	0.12489	0.052399	0.097822	0.15888	0.32038	0.24026	0.14453	0.1067	0.28329	-1.8188	-2.475	-2.4167	-2.1458	-2.4062	-2.4458	-2.15	-2.7458	-2.4167	-2.4542	-2.5958	-2.4062	-2.4875	-2.7146	-2.0708	-2.9333	61.378	-53.654	-32.952	140.381	-73.533	-11.762	174.888	219.055	165.670	-88.046	158.581	-91.986	159.199	-70.919	-4.432	188.510	0.00069633	0.00045592	0.00026965	621.94	1.4148e-06	7.0855e-06	801.03	274.43	4.4691e-06	5.2166e-06	380.48	183.49	138.64	70.507	2.2026e-06	97.036	0.00086429	0.00087155	0.00024444	664.46	9.5145e-06	9.5186e-06	840.07	285.6	9.4867e-06	9.5339e-06	394.08	185.14	141.75	70.671	9.4771e-06	96.315	175.406	-110.116	-110.291	-112.784	-124.619	-26.390	-113.810	-107.840	-45.756	106.504	-110.562	-107.248	-105.067	-98.924	6.429	-102.274	-8191	255	
1219.879	1	1	0	0	0.17696	0.12221	0.089229	0.24711	0.085758	0.18162	0.12027	0.13118	0.24976	0.25773	0.24022	0.26212	0.25797	0.086199	0.11779	0.18066	-1.6979	-2.2146	-2.5021	-2.0687	-2.3937	-2.5812	-2.3542	-2.7062	-2.3042	-2.3937	-2.7292	-2.325	-2.5417	-2.6708	-2.0646	-2.6292	-39.414	97.781	65.870	163.680	147.554	150.185	91.992	112.592	117.411	233.769	161.630	225.038	233.717	54.923	-36.677	203.302	0.00064708	0.00061259	0.00044012	622.39	7.7708e-06	4.2785e-06	805.27	277.65	8.4572e-06	6.8042e-06	385.19	184.73	139.78	71.084	3.3826e-06	97.619	0.00087285	0.00087459	0.00024324	665.8	9.5484e-06	9.5405e-06	843.52	287.33	9.5684e-06	9.5527e-06	398.12	186.76	142.62	71.229	9.4775e-06	96.884	179.856	-27.118	-6.417	-112.780	-1.860	-33.595	-114.045	-107.726	29.373	-33.960	-110.361	-107.047	-105.415	-98.659	-42.933	-102.308	-8191	255	
1219.951	1	1	0	0	0.086869	0.20776	0.067933	0.34314	0.27262	0.25799	0.19516	0.2091	0.24804	0.16532	0.16077	0.21475	0.24893	0.096364	0.20571	0.38559	-1.95	-2.3812	-2.625	-2.1146	-2.3021	-2.5521	-2.2167	-2.6333	-2.4188	-2.1437	-2.625	-2.3292	-2.4104	-2.7979	-2.0771	-2.9	43.720	213.238	215.821	-119.623	176.273	196.749	186.867	-102.243	89.975	-120.418	208.099	-114.627	194.936	-115.037	220.642	170.504	0.0007498	0.0010466	0.00021558	622.91	1.2203e-06	7.3799e-06	811.68	278.8	7.7489e-06	1.4622e-05	384.99	186.15	140.33	71.611	1.2611e-05	98.882	0.00087553	0.00087531	0.00024471	667.49	9.6279e-06	9.6603e-06	849.1	290.01	9.6127e-06	9.6587e-06	400.62	187.98	143.85	71.772	9.5524e-06	97.576	175.314	-51.201	-72.855	-112.595	13.748	-50.683	-114.112	-107.872	149.916	-6.267	-110.422	-107.417	-105.739	-98.796	-27.937	-102.441	-8191	255	
#DATA ENDS
