BOXY.EXE: ISS Imagent and Oximeter Data Acquisition Program Version 0.80
Ascii Record File

#ACQ INFORMATION
2  Detector Channels 
16  External MUX Channels 
1  Auxiliary Channels 
5000  Waveform (CCF) Frequency (Hz)
1  Waveforms Skipped 
30  Waveforms Averaged 
1  Cycles Averaged 
16  Acquisitions per Waveform 
10.0806  Updata Rate (Hz) 

#FILE INFORMATION
TRUE -- External MUX Channel results are PARSED.
FALSE -- AC DC and Phase are NOT grouped.
TRUE -- Companion Program Settings File CREATED.
FALSE -- AC data not excluded
FALSE -- DC data not excluded
FALSE -- Phase data not excluded
FALSE -- Auxillary Chn. data not excluded
Tab delimiters

#CALIBRATION STATE
TRUE -- Waveform Calibration Values APPLIED.


#AUX CALIBRATION VALUES
Val Type	aux-1	

Term	1.0000e+00	
Factor	0.0000e+00	


#WF CALIBRATION VALUES
A = Detector Channel
Val Type	A-AC1	A-AC2	A-AC3	A-AC4	A-AC5	A-AC6	A-AC7	A-AC8	A-AC9	A-AC10	A-AC11	A-AC12	A-AC13	A-AC14	A-AC15	A-AC16	A-DC1	A-DC2	A-DC3	A-DC4	A-DC5	A-DC6	A-DC7	A-DC8	A-DC9	A-DC10	A-DC11	A-DC12	A-DC13	A-DC14	A-DC15	A-DC16	A-Ph1	A-Ph2	A-Ph3	A-Ph4	A-Ph5	A-Ph6	A-Ph7	A-Ph8	A-Ph9	A-Ph10	A-Ph11	A-Ph12	A-Ph13	A-Ph14	A-Ph15	A-Ph16	

Term	0.00000e+00	0.00000e+00	0.00000e+00	0.00000e+00	0.00000e+00	0.00000e+00	0.00000e+00	0.00000e+00	0.00000e+00	0.00000e+00	0.00000e+00	0.00000e+00	0.00000e+00	0.00000e+00	0.00000e+00	0.00000e+00	0.00000e+00	0.00000e+00	0.00000e+00	0.00000e+00	0.00000e+00	0.00000e+00	0.00000e+00	0.00000e+00	0.00000e+00	0.00000e+00	0.00000e+00	0.00000e+00	0.00000e+00	0.00000e+00	0.00000e+00	0.00000e+00	0.00000e+00	0.00000e+00	0.00000e+00	0.00000e+00	0.00000e+00	0.00000e+00	0.00000e+00	0.00000e+00	0.00000e+00	0.00000e+00	0.00000e+00	0.00000e+00	0.00000e+00	0.00000e+00	0.00000e+00	0.00000e+00	
Factor	1.00000e+00	1.00000e+00	1.00000e+00	1.00000e+00	1.00000e+00	1.00000e+00	1.00000e+00	1.00000e+00	1.00000e+00	1.00000e+00	1.00000e+00	1.00000e+00	1.00000e+00	1.00000e+00	1.00000e+00	1.00000e+00	1.00000e+00	1.00000e+00	1.00000e+00	1.00000e+00	1.00000e+00	1.00000e+00	1.00000e+00	1.00000e+00	1.00000e+00	1.00000e+00	1.00000e+00	1.00000e+00	1.00000e+00	1.00000e+00	1.00000e+00	1.00000e+00	X	X	X	X	X	X	X	X	X	X	X	X	X	X	X	X	

B = Detector Channel
Val Type	B-AC1	B-AC2	B-AC3	B-AC4	B-AC5	B-AC6	B-AC7	B-AC8	B-AC9	B-AC10	B-AC11	B-AC12	B-AC13	B-AC14	B-AC15	B-AC16	B-DC1	B-DC2	B-DC3	B-DC4	B-DC5	B-DC6	B-DC7	B-DC8	B-DC9	B-DC10	B-DC11	B-DC12	B-DC13	B-DC14	B-DC15	B-DC16	B-Ph1	B-Ph2	B-Ph3	B-Ph4	B-Ph5	B-Ph6	B-Ph7	B-Ph8	B-Ph9	B-Ph10	B-Ph11	B-Ph12	B-Ph13	B-Ph14	B-Ph15	B-Ph16	

Term	0.00000e+00	0.00000e+00	0.00000e+00	0.00000e+00	0.00000e+00	0.00000e+00	0.00000e+00	0.00000e+00	0.00000e+00	0.00000e+00	0.00000e+00	0.00000e+00	0.00000e+00	0.00000e+00	0.00000e+00	0.00000e+00	0.00000e+00	0.00000e+00	0.00000e+00	0.00000e+00	0.00000e+00	0.00000e+00	0.00000e+00	0.00000e+00	0.00000e+00	0.00000e+00	0.00000e+00	0.00000e+00	0.00000e+00	0.00000e+00	0.00000e+00	0.00000e+00	-1.50301e+02	-1.43373e+02	-1.49792e+02	-1.82306e+02	-7.93885e+01	-7.58284e+01	-1.59027e+02	-1.62015e+02	-9.78180e+01	-8.34192e+01	-1.70563e+02	-1.71693e+02	-1.81003e+02	-1.76539e+02	-7.99657e+01	-1.49547e+02	
Factor	2.19586e-05	8.39436e-05	3.41424e-05	1.49821e-01	8.35295e-07	9.81461e-07	1.65141e-01	4.79080e-02	1.03987e-06	1.07697e-06	8.44516e-02	2.96454e-02	2.29630e-02	8.60919e-03	9.99734e-07	1.26421e-02	8.08318e-07	8.29617e-07	2.31217e-07	7.45948e-02	9.07046e-09	9.09328e-09	7.73629e-02	2.38309e-02	9.06268e-09	9.06799e-09	3.98886e-02	1.40138e-02	1.13350e-02	4.22160e-03	9.04165e-09	5.95415e-03	X	X	X	X	X	X	X	X	X	X	X	X	X	X	X	X	



#DISTANCE SETTINGS
A = Detector Channel
A-1	A-2	A-3	A-4	A-5	A-6	A-7	A-8	A-9	A-10	A-11	A-12	A-13	A-14	A-15	A-16	

2.5000e+00	3.0000e+00	2.5000e+00	3.0000e+00	2.0000e+00	3.0000e+00	1.5000e+00	3.0000e+00	3.0000e+00	3.0000e+00	3.0000e+00	3.0000e+00	3.0000e+00	3.0000e+00	1.5000e+00	3.0000e+00	

B = Detector Channel
B-1	B-2	B-3	B-4	B-5	B-6	B-7	B-8	B-9	B-10	B-11	B-12	B-13	B-14	B-15	B-16	

1.0000e+01	1.0000e+01	1.0000e+01	1.4400e+00	1.0000e+01	1.0000e+01	1.5100e+00	1.9400e+00	1.0000e+01	1.0000e+01	1.9900e+00	2.4900e+00	2.4100e+00	2.9000e+00	1.0000e+01	2.9800e+00	




#DATA BEGINS
time	group	step	mark	flag	A-AC1	A-AC2	A-AC3	A-AC4	A-AC5	A-AC6	A-AC7	A-AC8	A-AC9	A-AC10	A-AC11	A-AC12	A-AC13	A-AC14	A-AC15	A-AC16	A-DC1	A-DC2	A-DC3	A-DC4	A-DC5	A-DC6	A-DC7	A-DC8	A-DC9	A-DC10	A-DC11	A-DC12	A-DC13	A-DC14	A-DC15	A-DC16	A-Ph1	A-Ph2	A-Ph3	A-Ph4	A-Ph5	A-Ph6	A-Ph7	A-Ph8	A-Ph9	A-Ph10	A-Ph11	A-Ph12	A-Ph13	A-Ph14	A-Ph15	A-Ph16	B-AC1	B-AC2	B-AC3	B-AC4	B-AC5	B-AC6	B-AC7	B-AC8	B-AC9	B-AC10	B-AC11	B-AC12	B-AC13	B-AC14	B-AC15	B-AC16	B-DC1	B-DC2	B-DC3	B-DC4	B-DC5	B-DC6	B-DC7	B-DC8	B-DC9	B-DC10	B-DC11	B-DC12	B-DC13	B-DC14	B-DC15	B-DC16	B-Ph1	B-Ph2	B-Ph3	B-Ph4	B-Ph5	B-Ph6	B-Ph7	B-Ph8	B-Ph9	B-Ph10	B-Ph11	B-Ph12	B-Ph13	B-Ph14	B-Ph15	B-Ph16	aux-1	digaux	

1227.898	1	1	0	256	0.36339	0.063462	0.34624	0.45443	0.032946	0.071022	0.21864	0.11172	0.16613	0.25392	0.058331	0.2074	0.21018	0.20821	0.31933	0.37313	-1.825	-2.3563	-2.45	-2.1729	-2.3438	-2.4417	-2.3396	-2.4625	-2.2104	-2.2562	-2.6604	-2.2271	-2.4792	-2.5917	-1.9771	-2.4625	215.433	55.813	5.176	-42.874	113.045	109.191	230.799	189.074	158.280	122.731	192.156	223.580	-98.629	199.492	221.853	159.009	0.00065591	0.00074832	6.4332e-05	625.66	8.0026e-06	1.0541e-05	809.76	227.83	3.3927e-06	2.6908e-06	308.16	125.17	94.464	45.667	1.0652e-05	63.435	0.00078506	0.00079147	0.00022083	664.53	8.6135e-06	8.6794e-06	840.9	237.88	8.6559e-06	8.6191e-06	322.53	129.77	99.035	46.732	8.5535e-06	64.293	177.750	-38.849	207.071	-112.552	77.640	-7.000	-113.748	-106.635	-51.208	-73.766	-109.549	-105.081	-102.613	-96.639	-53.569	-100.689	-8191	255	
1227.994	1	1	0	0	0.21083	0.12947	0.094923	0.19974	0.23913	0.22032	0.22892	0.20952	0.11795	0.22424	0.081233	0.070016	0.16962	0.23245	0.036328	0.14587	-1.8188	-2.025	-2.6063	-2.2667	-2.3125	-2.6333	-2.15	-2.5229	-2.375	-2.1188	-2.6125	-2.3438	-2.3729	-2.5125	-2.2438	-2.5687	-1.422	229.157	-3.361	206.803	-45.153	70.574	195.051	-78.396	-64.615	180.085	153.209	199.686	124.713	194.298	-17.371	150.874	0.0003507	0.00077772	0.00028225	623.05	7.8358e-06	3.1416e-06	805.67	227.51	8.3439e-06	4.0984e-06	308.19	124.94	94.849	45.754	7.4653e-06	63.931	0.00077848	0.00078491	0.00021817	659.85	8.5931e-06	8.6085e-06	837.37	237.65	8.6218e-06	8.6634e-06	323.9	130.44	99.453	46.949	8.5314e-06	64.602	184.464	14.516	-9.246	-112.707	-37.657	-0.045	-113.728	-106.711	5.888	-6.915	-109.121	-104.904	-102.795	-96.646	-88.973	-100.450	-8191	255	
1228.115	1	1	0	0	0.14552	0.12127	0.29929	0.058022	0.21388	0.30527	0.21152	0.20772	0.31754	0.20893	0.045448	0.1187	0.24142	0.20529	0.18319	0.31833	-1.9583	-2.3083	-2.3063	-2.1792	-2.2438	-2.4146	-2.2375	-2.7667	-2.2917	-2.0687	-2.4792	-2.4354	-2.4604	-2.6917	-2.0125	-2.3354	-86.760	-122.976	-5.493	-88.185	226.946	-86.861	141.101	229.666	-10.556	61.064	46.416	202.708	182.890	201.403	224.975	221.103	0.00051368	0.00017634	0.00014688	628.39	5.7553e-06	6.2289e-06	805.44	227.02	4.4812e-06	1.1655e-05	308.95	126.9	95.115	46.91	1.2537e-05	65.697	0.00076808	0.00077453	0.00021659	660.42	8.5493e-06	8.6006e-06	837.24	237.48	8.6494e-06	8.6821e-06	325.88	131.81	100.15	48.053	8.7457e-06	66.412	186.430	43.611	-64.234	-112.515	-28.268	-31.782	-113.578	-107.100	180.113	-51.271	-109.080	-105.078	-102.710	-96.629	-32.414	-100.533	-8191	255	
1228.186	1	1	0	0	0.097893	0.22414	0.16905	0.25891	0.32539	0.17437	0.39237	0.19459	0.15972	0.067121	0.08955	0.097078	0.43257	0.22593	0.15974	0.19757	-1.7167	-2.1312	-2.4562	-2.4604	-2.2292	-2.4188	-2.2479	-2.5292	-2.3563	-2.0062	-2.7542	-2.3688	-2.3042	-2.5042	-2.1771	-2.4917	-112.292	-15.778	3.362	229.197	79.133	28.765	211.955	158.249	208.318	-75.104	203.819	151.199	-107.171	-103.802	42.491	67.183	0.00043313	0.00048698	7.1551e-06	621.05	3.3944e-06	2.576e-06	809.07	226.56	4.8254e-06	5.5242e-07	309.41	126.37	94.469	46.273	1.2808e-05	64.627	0.00079152	0.00079909	0.0002214	657.71	8.6147e-06	8.5941e-06	842.19	236.52	8.4645e-06	8.5005e-06	323.5	130.8	99.135	47.154	8.5098e-06	65.484	180.159	-33.235	-28.415	-112.432	104.077	80.380	-113.504	-106.569	-5.541	-21.492	-109.181	-104.996	-102.807	-96.596	12.434	-100.776	-8191	255	
1228.283	1	1	0	0	0.11732	0.10691	0.19801	0.10409	0.14913	0.079493	0.068578	0.070673	0.17728	0.13768	0.13883	0.14669	0.15305	0.099896	0.11675	0.2083	-1.8167	-1.875	-2.4875	-2.2771	-2.0458	-2.5187	-2.1917	-2.4771	-2.4458	-2.0396	-2.3688	-2.4188	-2.1354	-2.6104	-2.1646	-2.3792	25.640	54.314	-67.659	-91.042	-13.108	-111.476	106.258	92.823	81.945	-19.090	94.730	201.831	177.819	-111.874	163.153	-62.356	0.00030701	0.00024933	0.00010565	618.89	3.2793e-06	4.3086e-06	809.11	224.22	7.4247e-06	6.6677e-06	307.09	125.43	93.79	44.986	7.8011e-06	62.814	0.00077613	0.00078641	0.00021746	656.78	8.5583e-06	8.5667e-06	837.64	235.23	8.5038e-06	8.5299e-06	321.41	129.67	98.491	46.091	8.4368e-06	63.594	167.163	28.700	230.549	-112.944	186.901	-77.714	-113.523	-106.681	68.633	-63.123	-109.261	-105.079	-102.832	-96.668	-70.627	-100.473	-8191	255	
1228.403	1	1	0	0	0.18004	0.18698	0.11535	0.10522	0.066633	0.15332	0.16579	0.39945	0.25709	0.18427	0.25079	0.29559	0.11726	0.11918	0.10764	0.27234	-1.8854	-2.3146	-2.1771	-2.4708	-2.0021	-2.3104	-2.4833	-2.2521	-2.3333	-2.2938	-2.4917	-2.3937	-2.2583	-2.6208	-2.2479	-2.3583	-87.228	-87.390	-118.334	220.605	46.232	-111.846	227.376	183.215	42.746	-46.138	-77.575	159.331	157.386	215.145	41.941	210.184	0.00033095	0.00044676	0.00019651	621.25	2.043e-06	6.4593e-06	804.67	223.5	4.1855e-06	8.6715e-06	305.29	124.69	92.919	45.466	5.7128e-06	63.439	0.00076001	0.00076888	0.00021472	657.15	8.4223e-06	8.4763e-06	832.73	233.99	8.4517e-06	8.5537e-06	320.03	129.06	98.069	46.485	8.5597e-06	64.438	172.137	-45.524	-53.408	-112.544	44.324	-52.570	-113.737	-106.968	208.833	28.832	-109.383	-105.121	-102.691	-96.821	-14.148	-100.472	-8191	255	
1228.499	1	1	0	0	0.18082	0.15629	0.025162	0.19255	0.053273	0.16313	0.15255	0.26295	0.051811	0.14722	0.25447	0.040713	0.1374	0.048098	0.083351	0.26596	-2.1167	-2.2167	-2.3604	-2.4604	-2.1208	-2.3021	-2.6354	-2.1396	-2.675	-2.1083	-2.2771	-2.8688	-2.125	-2.4729	-2.3688	-2.3083	113.084	94.006	175.023	211.230	-17.371	152.928	9.031	143.995	-75.183	33.593	91.548	229.328	174.061	224.877	191.648	210.748	0.00025088	0.00019974	0.00016282	618.48	1.3688e-06	8.1364e-06	809.12	226.38	3.317e-06	2.5133e-06	308.2	125.78	94.458	45.617	1.2662e-06	63.608	0.00077125	0.00078022	0.00021723	656.88	8.4574e-06	8.4817e-06	839	236.17	8.4654e-06	8.4413e-06	322.03	130.02	98.996	46.597	8.4904e-06	64.43	175.725	111.058	-88.767	-112.710	164.059	-13.260	-113.848	-106.899	-0.414	-19.982	-109.244	-105.196	-102.683	-96.777	35.377	-100.340	-8191	255	
1228.594	1	1	0	0	0.1502	0.24905	0.28981	0.18965	0.20223	0.32129	0.21888	0.20165	0.056368	0.15989	0.13716	0.3084	0.14092	0.21468	0.26004	0.35491	-1.9167	-2.2479	-2.25	-2.5625	-2.175	-2.3042	-2.2292	-2.3083	-2.3292	-2.1104	-2.3417	-2.6708	-2.1083	-2.4479	-2.4188	-1.9146	47.830	128.155	158.401	-114.030	170.258	32.441	-111.822	159.414	230.298	103.512	145.901	-84.974	67.759	213.459	-83.121	167.790	0.00059822	0.00098382	0.00017469	624.32	6.6468e-06	6.5563e-06	809.17	228.02	4.7613e-06	2.1991e-06	310.7	125.94	95.276	45.392	1.3473e-05	63.258	0.00076935	0.00078151	0.00021673	658.77	8.5099e-06	8.4543e-06	840.29	237.46	8.3338e-06	8.3902e-06	324.23	130.73	99.685	46.515	8.4113e-06	64.349	181.649	-49.032	216.542	-112.774	212.510	125.079	-113.940	-106.612	-21.766	66.004	-109.092	-105.273	-102.514	-96.665	-19.352	-100.602	-8191	255	
1228.692	1	1	0	0	0.16357	0.13959	0.35843	0.31326	0.037464	0.062337	0.32684	0.091689	0.14477	0.052876	0.13061	0.13261	0.19938	0.15404	0.36775	0.22974	-2.0896	-2.2271	-2.1354	-2.4437	-2.1229	-2.3021	-2.5042	-1.9854	-2.5146	-2.4813	-2.3917	-2.5292	-2.3	-2.4938	-2.3375	-2.2167	121.471	76.952	-42.836	167.223	-34.698	193.750	115.358	132.867	174.655	210.639	145.537	-75.171	203.072	-18.789	-70.083	216.291	0.00038803	0.00089453	0.00021206	623.52	5.7114e-06	3.5635e-06	811.12	228.13	4.0457e-06	7.6513e-06	310.6	127.4	95.739	46.111	2.5423e-06	64.524	0.00076668	0.000778	0.00021826	662.75	8.5304e-06	8.5653e-06	841.99	238.1	8.5709e-06	8.5375e-06	324.27	131.39	100.19	47.302	8.4504e-06	65.311	209.690	-23.204	-4.268	-112.793	42.031	53.322	-113.800	-106.639	-71.217	30.817	-109.222	-104.819	-102.751	-96.972	108.590	-100.558	-8191	255	
1228.810	1	1	0	0	0.10713	0.074386	0.099721	0.18522	0.16906	0.33565	0.136	0.28021	0.079452	0.24435	0.14181	0.15802	0.38139	0.10652	0.14602	0.267	-2.1417	-2.2917	-2.0271	-2.8396	-1.9896	-2.1688	-2.6437	-2.1854	-2.3312	-2.5062	-2.2729	-2.5271	-2.3	-2.4	-2.5125	-2.2104	93.931	-45.329	-94.718	226.209	-0.237	-38.486	220.209	224.966	22.420	-105.670	-92.446	-65.492	-52.395	175.601	-114.470	124.178	0.00048615	0.00054654	0.00024033	625.61	6.9179e-06	1.2703e-06	813.73	228.15	5.9957e-06	8.4137e-06	309.8	127.29	96.969	46.891	8.0629e-06	65.079	0.0007613	0.00077319	0.0002155	660.93	8.4226e-06	8.4842e-06	843.09	237.95	8.4385e-06	8.5419e-06	324.09	131.75	101.44	47.848	8.5275e-06	65.709	189.160	186.351	-26.190	-112.724	-112.599	124.396	-113.770	-106.856	-12.337	45.829	-109.406	-104.936	-103.121	-96.586	-63.188	-100.620	-8191	255	
1228.882	1	1	0	0	0.102	0.21053	0.25225	0.11524	0.26432	0.21599	0.22385	0.20688	0.098357	0.13817	0.13387	0.26377	0.23813	0.079597	0.2005	0.060629	-1.8292	-2.1729	-2.2458	-2.8063	-2.0167	-2.3125	-2.6521	-2.1813	-2.4333	-2.2271	-1.9729	-2.625	-2.1854	-2.3917	-2.5708	-2.2021	39.864	-53.506	29.347	130.336	-18.000	112.009	-100.630	91.220	120.280	-32.693	-76.826	171.988	-3.509	72.102	107.726	84.042	0.000368	0.00030879	6.1346e-05	629.67	3.3868e-06	2.054e-06	814.51	232.94	2.7824e-06	4.0971e-06	314.89	129.07	98.24	47.145	4.0112e-06	65.621	0.00077908	0.00078682	0.00021993	665.94	8.5916e-06	8.6259e-06	844.72	242.96	8.5914e-06	8.6069e-06	328.84	133.42	102.82	48.151	8.6175e-06	66.241	177.734	-88.032	12.159	-112.547	80.110	-42.654	-113.691	-106.520	140.526	46.245	-109.240	-105.004	-102.917	-96.966	147.137	-100.821	-8191	255	
1228.978	1	1	0	0	0.24072	0.06593	0.12283	0.042493	0.16923	0.52556	0.11249	0.3262	0.28814	0.15223	0.12278	0.011037	0.038153	0.23129	0.25928	0.077284	-1.9292	-2.2562	-1.8396	-2.45	-2.2896	-2.0729	-2.8417	-2.2083	-2.3792	-2.575	-2.1917	-2.5187	-2.0708	-2.0917	-2.6521	-2.3042	216.782	102.614	164.540	215.102	103.387	-92.987	-124.282	159.400	-23.042	-59.224	222.955	208.675	154.700	227.819	-94.536	-43.449	0.00039816	0.00020489	0.00014424	632.93	3.5408e-06	7.7117e-06	814.81	236.95	5.4811e-06	2.9208e-06	321.48	132.63	100.84	48.569	4.8829e-06	67.285	0.00078996	0.0007973	0.00022143	669.91	8.7714e-06	8.759e-06	846.68	247.38	8.7075e-06	8.7534e-06	335.62	137	105.39	49.688	8.7614e-06	67.831	169.863	55.831	-50.598	-112.683	41.885	-3.215	-113.533	-106.961	25.652	-98.562	-109.386	-105.078	-103.268	-96.840	37.719	-100.539	-8191	255	
1229.099	1	1	0	0	0.084641	0.23221	0.11718	0.15523	0.088387	0.18723	0.15231	0.18109	0.17439	0.040968	0.18572	0.20512	0.019736	0.10655	0.063082	0.093539	-1.7021	-2.3042	-1.9937	-2.4583	-2.2521	-2.0729	-2.7167	-2.1937	-2.2938	-2.6771	-2.2458	-2.4479	-2.4854	-2.2542	-2.4542	-2.4271	59.477	190.005	154.778	227.385	70.498	65.838	-34.150	219.817	221.326	216.276	123.309	61.884	71.263	-117.220	-57.704	201.886	0.00058047	0.00024811	0.00011659	641.21	3.5648e-06	6.5412e-06	823.79	239.43	7.0613e-06	5.5548e-06	324.59	133.4	100.35	48.921	1.1713e-06	67.539	0.00080039	0.00080629	0.00022494	676.41	8.7912e-06	8.8743e-06	853.69	249.28	8.8202e-06	8.8291e-06	338.03	137.6	105.29	50.037	8.7888e-06	68.338	170.359	31.195	-28.154	-112.723	39.835	-15.362	-113.882	-107.142	7.780	175.973	-108.992	-105.116	-102.901	-96.673	-2.797	-100.607	-8191	255	
1229.195	1	1	0	0	0.1243	0.13051	0.26364	0.34489	0.067356	0.21873	0.097259	0.21009	0.16282	0.1186	0.071837	0.26122	0.21925	0.20936	0.036547	0.23912	-1.7479	-2.375	-2.0375	-2.3729	-2.5438	-2.1896	-2.3125	-2.1729	-2.2667	-2.6208	-2.2729	-2.3979	-2.4604	-2.3375	-2.4271	-2.275	214.418	203.813	-0.805	195.957	209.166	172.384	209.732	185.794	-89.373	-3.848	195.245	-104.181	7.171	176.853	219.529	206.450	0.00060705	0.00052448	0.0004389	627.33	3.7867e-06	3.6308e-06	811.8	233.09	9.9449e-06	9.7327e-06	313.79	128.21	96.928	47.372	5.5775e-06	65.682	0.00080262	0.00080623	0.00022443	664.3	8.7037e-06	8.7124e-06	840.74	242.66	8.5905e-06	8.57e-06	327.97	132.77	101.55	48.215	8.4794e-06	66.264	187.835	217.035	-63.334	-112.643	21.949	132.595	-113.781	-107.065	24.214	-29.406	-108.894	-105.005	-103.174	-96.581	-21.285	-100.221	-8191	255	
1229.291	1	1	0	0	0.19226	0.20814	0.15413	0.28285	0.23093	0.31741	0.21044	0.15869	0.20919	0.089963	0.060933	0.32333	0.26825	0.20536	0.43045	0.16292	-1.7333	-2.4417	-2.0438	-2.3167	-2.5729	-2.1104	-2.4958	-2.5312	-2.0271	-2.5333	-2.4146	-2.3833	-2.4125	-2.0896	-2.6	-2.4062	-63.056	-122.721	-123.534	206.102	3.651	32.368	176.520	184.180	-33.083	87.399	11.230	168.484	-80.150	117.777	100.909	164.453	0.0003858	0.00058878	0.00016916	614.13	1.7456e-06	1.4065e-05	796.11	225.54	5.8561e-06	1.0879e-06	306.18	125.17	94.342	46.056	8.6998e-06	64.297	0.00077889	0.00078218	0.0002185	650.43	8.5864e-06	8.5615e-06	823.16	235.81	8.4318e-06	8.5074e-06	319.67	129.64	99.025	47.109	8.3558e-06	64.935	189.433	-57.115	173.516	-112.620	-14.552	79.219	-113.607	-106.740	-73.560	27.461	-109.416	-105.017	-102.983	-96.724	-45.166	-100.421	-8191	255	
1229.387	1	1	0	0	0.022005	0.33161	0.12336	0.25569	0.13789	0.15909	0.11221	0.32595	0.17231	0.094111	0.26214	0.13073	0.14046	0.37546	0.17544	0.33426	-1.5833	-2.4188	-2.1083	-2.3667	-2.5896	-2.3	-2.4	-2.4375	-2.2146	-2.3917	-2.2417	-2.3479	-2.6917	-1.9875	-2.2458	-2.6	-20.060	186.470	165.302	111.848	176.076	120.036	118.052	103.715	-66.276	25.348	144.428	-107.955	198.256	-124.314	6.412	176.119	0.00035938	0.0004972	7.9692e-05	611.26	4.7221e-06	1.0158e-05	786.57	224.85	6.2669e-06	9.7158e-06	305.62	124.74	93.835	46.178	4.2322e-06	64.534	0.00077362	0.00077717	0.0002174	647.78	8.5478e-06	8.6226e-06	817.98	235.77	8.6061e-06	8.559e-06	320.98	129.24	98.859	47.317	8.43e-06	65.258	178.508	-25.174	94.571	-112.502	119.532	15.125	-113.562	-106.769	27.047	65.022	-109.101	-104.698	-102.887	-96.543	74.549	-100.679	-8191	255	
1229.484	1	1	0	0	0.13049	0.12116	0.053886	0.15023	0.11946	0.20861	0.22924	0.1952	0.086739	0.13289	0.30964	0.091354	0.13779	0.11194	0.24383	0.079939	-1.6729	-2.4	-2.4188	-2.0521	-2.5229	-2.1854	-2.4021	-2.5187	-2.1292	-2.4188	-2.2313	-2.2729	-2.4104	-2.3354	-2.2083	-2.5625	3.210	-67.591	-32.685	-115.234	145.339	7.467	194.776	224.631	-79.978	-32.557	-120.652	150.616	210.709	217.952	151.538	159.438	0.00044691	0.00028691	0.00037921	619.05	5.4455e-06	4.0568e-06	790.07	226.24	1.7811e-06	1.0685e-05	309.04	127.25	95.133	47.783	6.3348e-06	66.6	0.00076549	0.00077248	0.00021457	654.45	8.5199e-06	8.5792e-06	822.03	236.42	8.69e-06	8.7269e-06	324.24	132	100.3	48.836	8.7828e-06	67.343	179.959	-6.694	-25.279	-112.771	13.382	-31.207	-113.678	-106.867	3.373	-51.473	-109.315	-105.128	-102.854	-96.739	60.217	-100.504	-8191	255	
1229.580	1	1	0	0	0.11813	0.33075	0.13868	0.14969	0.075194	0.21564	0.1746	0.36742	0.11055	0.16725	0.10496	0.22179	0.18236	0.10078	0.12237	0.18992	-1.6833	-2.5271	-2.1188	-2.225	-2.6854	-2.2812	-2.2583	-2.5375	-2.1437	-2.1729	-2.475	-2.3917	-2.5646	-2.2417	-2.3521	-2.5771	-46.525	-92.515	210.498	-52.626	42.742	-31.897	149.363	164.318	48.034	-4.534	40.951	211.821	176.998	154.337	-91.954	121.399	0.00056788	0.00043664	0.00018147	615.94	1.0081e-05	7.813e-06	797.79	227.81	2.8459e-06	2.6924e-06	308.83	127.13	95.796	46.827	4.2442e-06	65.765	0.00079382	0.0007935	0.00021886	653.26	8.5003e-06	8.5018e-06	830.2	237.71	8.4455e-06	8.4473e-06	323.22	131.47	100.3	47.974	8.5566e-06	66.322	203.214	-24.977	-65.007	-112.531	27.411	75.381	-113.720	-107.039	35.181	103.789	-109.257	-105.102	-102.918	-96.607	116.691	-100.569	-8191	255	
1229.674	1	1	0	0	0.0091853	0.29923	0.19421	0.31719	0.24059	0.17436	0.19457	0.13597	0.14183	0.1087	0.1468	0.047807	0.27289	0.11045	0.056442	0.21335	-1.6667	-2.3312	-2.4688	-2.3979	-2.3583	-2.3771	-2.2562	-2.7542	-2.0917	-2.4667	-2.6833	-2.0062	-2.55	-2.3479	-2.1417	-2.7729	9.715	207.667	133.468	-103.069	33.228	-51.984	-120.385	-92.809	60.604	-4.181	-80.443	121.069	65.955	-14.367	220.589	-72.871	0.00055556	0.0010331	0.00021694	618.21	6.4182e-06	1.3067e-06	787.9	224.29	1.1179e-05	1.4221e-05	304.52	124.69	94.825	45.831	1.277e-06	63.468	0.00077782	0.00078597	0.00021823	652.64	8.516e-06	8.5562e-06	819.98	235.11	8.4525e-06	8.4537e-06	318.43	129.25	99.023	46.837	8.2825e-06	64.209	188.600	-56.333	0.408	-112.729	-90.196	-118.976	-113.566	-106.662	-28.512	-3.464	-109.321	-105.048	-102.947	-96.677	-52.946	-100.553	-8191	255	
1229.772	1	1	0	0	0.038867	0.032928	0.17682	0.23367	0.12956	0.31179	0.13536	0.11178	0.089582	0.069475	0.13246	0.34031	0.18408	0.32531	0.15192	0.19092	-1.4792	-2.1458	-2.3583	-2.1042	-2.5375	-2.2438	-2.3375	-2.575	-2.25	-2.3688	-2.3979	-2.2021	-2.5396	-2.5625	-2.0854	-2.5521	-109.419	56.286	-93.138	139.341	207.047	206.718	225.837	207.642	-95.736	-4.281	155.594	229.113	-121.196	-110.438	213.622	189.379	0.00050832	0.00025823	0.00015454	615.7	3.3565e-06	1.1777e-05	785.65	222.97	4.1933e-06	2.3079e-06	301.78	123.59	93.683	44.907	3.457e-06	62.03	0.00076012	0.00076984	0.00021477	649.06	8.4151e-06	8.4486e-06	815.14	232.95	8.491e-06	8.4241e-06	316.22	127.78	97.938	45.984	8.3195e-06	62.824	180.857	21.663	-83.562	-112.312	45.805	120.541	-113.610	-106.993	-69.047	68.765	-109.112	-105.028	-102.543	-96.555	-50.264	-100.845	-8191	255	
1229.891	1	1	0	0	0.15983	0.21679	0.27664	0.14191	0.051652	0.14675	0.063144	0.31971	0.18812	0.17124	0.16777	0.28766	0.19441	0.19158	0.047683	0.12129	-1.8375	-2.0646	-2.5417	-2.1792	-2.2875	-2.3021	-2.1375	-2.6354	-2.2125	-2.4042	-2.4875	-2.2375	-2.375	-2.5875	-2.2708	-2.5687	-101.209	121.338	52.517	14.994	-44.728	-64.806	4.101	104.833	42.530	167.189	30.081	120.611	176.803	173.627	174.661	23.179	0.00048297	0.00057747	0.00021583	620.85	5.314e-06	7.0448e-06	791.32	223.86	4.6084e-06	9.024e-06	304.63	125.29	94.974	45.96	4.1545e-06	63.505	0.00075126	0.00076399	0.00021262	653.36	8.3447e-06	8.4406e-06	821.6	233.84	8.5339e-06	8.5504e-06	319.35	129.7	99.231	46.927	8.4914e-06	64.523	159.190	214.460	-10.907	-112.592	3.407	15.273	-113.666	-106.796	25.193	200.014	-109.297	-105.096	-102.739	-96.903	31.034	-100.474	-8191	255	
1229.987	1	1	0	0	0.23634	0.17966	0.15518	0.20065	0.071472	0.12035	0.36808	0.11556	0.23088	0.13622	0.26591	0.11638	0.25296	0.13981	0.10556	0.27615	-1.7708	-2.4354	-2.4625	-2.2646	-2.4021	-2.5458	-2.1813	-2.5438	-2.4542	-2.1625	-2.7646	-2.125	-2.6063	-2.7687	-2.0958	-2.6917	-110.852	177.491	-39.716	-58.249	80.338	112.755	173.845	-77.727	-85.427	71.509	114.004	-124.722	-77.802	-61.175	83.998	-111.643	0.00026006	0.0004432	0.00031774	617.26	6.5782e-06	9.8918e-06	793.45	224.97	6.1969e-06	9.1974e-06	306.99	125.46	95.079	45.95	9.7067e-06	64.334	0.00076832	0.00077937	0.00021596	655.02	8.5456e-06	8.5288e-06	826.54	235.37	8.5484e-06	8.5183e-06	321.43	129.8	99.707	46.968	8.5e-06	65.003	171.919	-20.862	73.602	-112.547	-54.443	35.751	-113.744	-106.988	14.823	65.332	-109.013	-105.054	-102.967	-96.662	37.330	-100.579	-8191	255	
1230.083	1	1	0	0	0.24483	0.13016	0.064296	0.11455	0.049564	0.1989	0.25195	0.23992	0.15208	0.26406	0.27239	0.05673	0.12154	0.049823	0.2561	0.10954	-1.6313	-2.1333	-2.3812	-2.2125	-2.2375	-2.4875	-2.3583	-2.3458	-2.4688	-2.0729	-2.7292	-2.2521	-2.3833	-2.3708	-2.275	-2.3854	182.234	18.451	-59.538	188.301	24.169	222.343	84.418	227.872	-39.223	124.431	167.510	18.592	145.824	-91.566	-115.843	207.824	0.00049177	0.0011495	0.00010953	615.88	2.8204e-06	6.8517e-06	794.89	226.76	9.3539e-06	1.7593e-06	309.26	126.52	96.211	45.66	5.4043e-06	63.112	0.00077817	0.00077809	0.00021572	653.97	8.528e-06	8.5163e-06	823.11	237.54	8.4986e-06	8.5078e-06	322.74	130.6	100.57	46.847	8.4234e-06	64.169	179.873	-88.686	106.267	-112.573	141.031	138.194	-113.403	-106.777	-106.265	-20.695	-109.335	-105.214	-103.257	-96.574	-106.847	-100.792	-8191	255	
1230.179	1	1	0	0	0.090383	0.30671	0.13729	0.18206	0.2559	0.30569	0.047192	0.05868	0.11967	0.14316	0.30557	0.06106	0.32398	0.096239	0.026141	0.27725	-2.0417	-2.0667	-2.5583	-2.2479	-2.2083	-2.6646	-2.0917	-2.4021	-2.2521	-2.1333	-2.4229	-2.3208	-2.1896	-2.5271	-2.15	-2.3604	-49.873	209.761	234.227	226.420	-1.634	-63.103	-65.433	-93.826	-100.317	150.333	154.973	-89.581	57.732	207.405	-41.490	181.053	0.00057219	0.0006118	9.2521e-05	619.09	3.3198e-06	4.9735e-06	788.15	227.82	3.7468e-06	8.2812e-06	309.5	126.62	97.025	46.244	9.8246e-07	63.806	0.00077059	0.00077816	0.0002163	654.98	8.4892e-06	8.5304e-06	820.17	238.87	8.6262e-06	8.6295e-06	324.25	131.21	101.68	47.459	8.5871e-06	64.686	186.894	-4.153	-28.151	-112.613	-8.215	60.723	-113.507	-106.814	11.622	8.493	-109.279	-105.022	-102.687	-96.922	-58.793	-100.910	-8191	255	
1230.275	1	1	0	0	0.22678	0.10751	0.17533	0.13241	0.1928	0.3801	0.18133	0.16327	0.37417	0.061604	0.17416	0.24302	0.17734	0.081397	0.19287	0.53975	-1.8479	-2.0917	-2.5375	-2.2542	-2.1125	-2.625	-2.3729	-2.5667	-2.5583	-2.0042	-2.5479	-2.4771	-2.2167	-2.6021	-2.175	-2.3146	217.239	55.447	-43.034	232.825	122.519	226.325	99.426	108.089	-28.964	223.895	177.199	-112.502	226.443	-8.691	230.535	173.630	0.00044978	0.00081201	4.5616e-05	623.49	6.4762e-06	3.2882e-06	796.68	230.99	2.6672e-07	1.2344e-06	309.79	128.54	96.971	46.743	8.2319e-06	64.442	0.00077462	0.00078259	0.00021785	659.95	8.55e-06	8.5615e-06	825.99	241.14	8.5605e-06	8.6634e-06	325.9	132.48	102.05	47.864	8.689e-06	65.207	169.073	-27.800	66.020	-112.886	31.752	-0.861	-113.841	-106.965	199.262	144.178	-109.495	-105.041	-102.840	-96.724	-0.726	-100.628	-8191	255	
1230.372	1	1	0	0	0.13738	0.068572	0.19923	0.070786	0.25528	0.15617	0.19727	0.12976	0.239	0.19417	0.2978	0.17095	0.28693	0.21751	0.20479	0.070036	-2.0875	-2.1646	-2.3479	-2.5333	-2.2854	-2.4917	-2.4938	-2.3167	-2.5292	-2.2792	-2.4417	-2.4583	-2.0333	-2.575	-2.1792	-2.4021	112.807	34.262	161.706	-17.974	117.567	112.826	206.217	199.657	147.675	22.267	-25.545	222.970	220.952	-94.418	-53.016	207.613	0.00047455	0.00063463	0.00022339	623.02	1.1419e-05	5.6731e-06	800.98	231.94	9.1352e-06	6.1778e-06	311.44	127.45	97.536	46.372	8.3279e-06	64.337	0.00078986	0.00079611	0.00022	660.43	8.6236e-06	8.6508e-06	829.71	242.38	8.5985e-06	8.5437e-06	326.92	132.23	102.36	47.684	8.7124e-06	65.342	180.302	-63.478	-108.437	-112.765	6.673	0.488	-113.710	-106.741	-1.273	26.336	-108.982	-104.769	-103.005	-96.841	-13.429	-100.945	-8191	255	
1230.492	1	1	0	0	0.1983	0.0835	0.072179	0.079204	0.12846	0.064723	0.12857	0.24755	0.25494	0.048149	0.16537	0.084703	0.11316	0.23768	0.061445	0.35104	-2.2229	-2.2	-2.3271	-2.6688	-2.0312	-2.5938	-2.3521	-2.3083	-2.4896	-2.3083	-2.1937	-2.5	-2.1437	-2.4708	-2.075	-2.4313	42.286	-62.127	-97.636	198.045	230.480	104.777	114.182	-103.292	125.880	-24.517	190.704	200.806	-36.821	230.306	223.758	189.652	0.00039889	0.00032144	0.00022904	618.83	5.806e-07	6.976e-06	792.78	230.23	5.1477e-06	6.4626e-06	310.2	126.21	96.43	45.664	4.3057e-06	62.585	0.00079899	0.00081033	0.00022547	658.91	8.8579e-06	8.8398e-06	825.81	241.57	8.7077e-06	8.6139e-06	325.43	131.11	100.69	46.62	8.5222e-06	63.619	198.336	31.686	160.244	-112.402	-30.108	19.780	-113.742	-106.821	-87.699	7.240	-108.824	-105.468	-102.968	-96.521	15.776	-100.587	-8191	255	
1230.587	1	1	0	0	0.18203	0.12993	0.12481	0.035557	0.16747	0.16194	0.28741	0.20851	0.19541	0.049063	0.18381	0.33082	0.10424	0.24457	0.14296	0.090675	-2.0042	-2.0208	-2.2438	-2.4521	-2.025	-2.2875	-2.3521	-2.0687	-2.5917	-2.1937	-2.2854	-2.4875	-2.2854	-2.6188	-2.3292	-2.1604	-18.726	155.827	228.414	209.558	118.863	217.129	-77.268	56.213	160.818	185.712	52.364	191.749	-83.881	184.638	176.738	136.273	0.00042267	0.00042597	0.0001083	614.14	5.316e-06	3.4681e-06	784.72	225.41	3.8608e-06	1.1301e-05	304.89	124.19	93.712	45.191	2.2492e-06	61.925	0.00078105	0.00079088	0.00022198	651.64	8.6852e-06	8.7317e-06	816.23	236.63	8.61e-06	8.6435e-06	319.92	128.73	98.704	46.156	8.5168e-06	62.86	169.202	-112.581	104.799	-112.935	141.559	-86.331	-113.729	-106.945	-70.269	-7.510	-109.247	-105.083	-102.939	-96.760	-24.796	-100.619	-8191	255	
1230.683	1	1	0	0	0.11576	0.11024	0.04696	0.1616	0.19804	0.17726	0.17755	0.096935	0.036242	0.033519	0.19651	0.25117	0.073672	0.38883	0.25619	0.094153	-2	-2.3458	-2.3125	-2.5833	-2.0229	-2.5062	-2.4583	-2.3875	-2.4042	-2.3708	-2.2917	-2.8292	-2.2687	-2.5687	-2.3937	-2.2521	221.213	194.930	184.869	181.048	-61.204	-49.365	-122.045	117.893	-57.105	66.832	-110.572	96.511	66.750	226.476	-83.942	205.227	0.00041893	0.00032599	9.9411e-05	608.1	4.5547e-06	4.8692e-06	778.46	222.97	6.1203e-06	9.1718e-06	302.61	123.64	93.45	45.158	3.6473e-06	62.122	0.00077491	0.00078398	0.00021789	646.79	8.5383e-06	8.6027e-06	810.49	233.76	8.6169e-06	8.5522e-06	318.1	128.18	98.586	46.173	8.5038e-06	63.329	145.237	111.693	6.079	-112.495	-82.614	-5.561	-113.592	-106.819	94.697	-69.176	-109.196	-105.201	-103.079	-96.514	183.029	-100.620	-8191	255	
1230.779	1	1	0	0	0.12486	0.14603	0.048104	0.28039	0.24784	0.17871	0.082581	0.12727	0.049979	0.10352	0.3236	0.22775	0.11907	0.15451	0.083667	0.050271	-2.075	-2.2729	-2.2229	-2.5958	-2.0375	-2.3729	-2.5958	-2.0229	-2.5521	-2.4458	-2.1542	-2.7833	-2.6042	-2.5292	-2.4313	-2.3583	41.704	84.986	28.663	125.185	1.078	182.647	216.284	-33.933	139.262	61.123	-57.236	-33.598	198.555	-110.374	-112.531	46.485	0.00031608	0.00015824	0.0003262	606.75	2.4531e-06	3.7403e-06	774.92	225.04	6.5575e-06	4.9359e-06	304.85	124.42	94.705	45.398	3.9507e-06	62.554	0.00077618	0.00078611	0.00021941	644.84	8.5555e-06	8.6657e-06	808.46	235.17	8.5235e-06	8.6107e-06	320.14	128.99	99.739	46.593	8.4752e-06	63.816	163.109	-68.217	-61.366	-112.464	85.187	28.050	-113.680	-106.779	37.517	96.368	-109.339	-105.206	-102.607	-96.452	-63.379	-100.336	-8191	255	
1230.875	1	1	0	0	0.043646	0.063812	0.17351	0.17144	0.24072	0.28983	0.083207	0.080913	0.064329	0.09794	0.15006	0.25026	0.10888	0.12098	0.29082	0.052343	-2.2229	-2.3792	-1.9833	-2.4833	-2.3021	-2.4062	-2.6771	-2.3542	-2.4208	-2.4667	-2.0104	-2.5042	-2.1542	-2.3729	-2.475	-2.3354	198.224	-54.169	78.212	209.058	92.276	108.537	129.973	187.128	225.172	-101.364	195.977	194.536	119.917	219.766	-61.709	80.821	0.00045491	0.00065016	0.00013343	610.47	5.707e-06	6.4472e-06	778.46	225.32	1.5006e-06	3.7638e-06	306.74	125.2	95.613	45.737	5.7577e-06	62.891	0.00077649	0.0007802	0.00021931	648.11	8.6403e-06	8.7039e-06	811.09	236.39	8.7015e-06	8.6897e-06	321.67	129.98	100.16	46.722	8.4924e-06	64.048	160.699	-70.822	4.269	-112.779	-45.791	-2.852	-113.696	-106.791	-31.126	219.933	-109.080	-105.171	-102.912	-96.718	-1.696	-100.639	-8191	255	
1230.971	1	1	0	0	0.20431	0.050923	0.39708	0.22241	0.22924	0.12079	0.18123	0.37111	0.078438	0.17075	0.13281	0.19686	0.39741	0.17888	0.16318	0.054049	-2.0333	-2.4146	-2.0104	-2.525	-2.2854	-2.3812	-2.7396	-2.2542	-2.5083	-2.5375	-1.9062	-2.6396	-2.3812	-2.2313	-2.4229	-2.3812	36.935	156.131	222.655	62.790	26.160	-116.640	-116.425	165.128	19.388	2.835	-16.693	162.851	164.624	217.029	-49.217	-47.735	0.00049813	0.00035232	0.00015423	617.39	7.155e-06	8.5054e-07	777.76	226.21	2.8989e-06	2.0377e-06	308.55	126.15	95.611	46.296	5.7424e-06	64.166	0.00077402	0.00077739	0.00021857	651.81	8.5795e-06	8.6198e-06	810.92	236.82	8.6858e-06	8.7795e-06	322.78	130.64	100.36	47.414	8.6941e-06	64.852	173.895	-38.325	36.562	-112.773	-77.950	115.206	-113.697	-106.773	-27.262	-25.058	-109.379	-104.911	-102.773	-96.706	-16.710	-100.741	-8191	255	
1231.067	1	1	0	0	0.21321	0.2328	0.12308	0.093281	0.2367	0.28126	0.26184	0.27928	0.22722	0.20485	0.063742	0.11313	0.090311	0.049112	0.26349	0.25269	-1.8792	-2.4792	-1.8979	-2.8458	-2.3063	-2.2188	-2.6292	-2.3771	-2.3	-2.2854	-2.3438	-2.3396	-2.475	-2.2958	-2.5312	-2.3417	49.358	212.421	169.724	142.484	-4.649	-83.743	-124.414	201.829	147.688	113.573	209.895	-102.332	14.931	150.034	187.756	112.710	0.00048466	0.00054234	0.00029557	609.43	4.9416e-06	5.9417e-06	774.94	225.49	4.2523e-06	2.002e-06	307.21	125.55	95.995	46.699	9.2925e-06	64.951	0.00078091	0.00078719	0.00021985	648.06	8.5492e-06	8.5619e-06	807.93	236.54	8.5855e-06	8.6412e-06	321.52	130.4	100.64	47.919	8.7362e-06	65.742	163.994	-72.881	-31.408	-112.412	118.459	17.842	-113.667	-106.959	46.336	84.477	-109.269	-104.830	-102.808	-96.473	96.256	-100.738	-8191	255	
1231.188	1	1	0	0	0.30567	0.2011	0.30344	0.10045	0.11244	0.061902	0.13184	0.13247	0.086261	0.2592	0.13296	0.18241	0.043627	0.31679	0.13864	0.15967	-1.7542	-2.3271	-1.8958	-2.4979	-2.3104	-2.0792	-2.7146	-2.35	-2.2583	-2.4729	-2.2021	-2.4688	-2.6104	-2.1667	-2.3708	-2.4188	100.156	-89.110	72.079	15.741	221.550	150.578	149.455	97.252	-100.668	-48.626	28.977	132.318	-57.174	218.540	229.105	126.358	0.00043475	0.00093736	0.00015819	613.22	4.0946e-06	3.8304e-06	772.77	228.6	6.3952e-06	7.6953e-06	308.15	127.42	96.599	46.55	3.3977e-06	63.914	0.00079822	0.00080256	0.00022503	650.55	8.7585e-06	8.7432e-06	809.33	239.4	8.6286e-06	8.6033e-06	322.88	131.14	101.32	47.541	8.56e-06	64.687	184.405	-76.299	17.094	-112.664	-41.936	7.091	-113.346	-106.941	-95.567	42.408	-109.366	-105.138	-102.730	-96.511	-113.669	-100.751	-8191	255	
1231.284	1	1	0	0	0.096115	0.06269	0.071874	0.23337	0.23553	0.20566	0.044935	0.23049	0.22205	0.30071	0.22848	0.066473	0.32291	0.080282	0.15249	0.25702	-1.6063	-2.4917	-2.3771	-2.2146	-2.3583	-2.1833	-2.4896	-2.5	-2.2104	-2.6229	-2.4458	-2.2208	-2.4792	-2.2812	-2.4583	-2.4979	94.512	17.707	83.161	120.380	124.502	73.631	160.126	174.739	-98.896	-16.186	206.894	-109.057	-109.372	6.680	36.538	113.378	0.00035769	0.00064299	0.00029891	615.63	9.6797e-07	3.4962e-06	784.47	229.28	7.0324e-06	5.383e-06	309.41	129.05	98.145	47.441	2.376e-06	64.888	0.00078516	0.00078724	0.00022026	653.65	8.6397e-06	8.711e-06	815.19	240	8.6762e-06	8.7218e-06	325.21	133.15	102.66	48.496	8.7344e-06	65.931	203.950	132.720	29.728	-112.482	81.709	-77.424	-113.648	-106.957	-117.580	4.295	-109.291	-105.263	-103.014	-96.570	77.026	-100.497	-8191	255	
1231.356	1	1	0	0	0.12106	0.12453	0.22935	0.41965	0.15981	0.30581	0.1217	0.2484	0.17011	0.18967	0.095136	0.18191	0.087033	0.39449	0.12495	0.021685	-1.6479	-2.6333	-2.1708	-2.3271	-2.4792	-2.1458	-2.4125	-2.4521	-2.1604	-2.3521	-2.3688	-2.1396	-2.6	-2.2021	-2.3875	-2.4188	225.236	-110.047	196.550	225.811	9.325	-73.872	213.052	142.895	106.511	166.144	162.372	159.429	196.113	213.947	41.853	163.990	0.00048501	0.00061018	0.00019923	622.3	3.4886e-06	7.2122e-06	792.24	234.2	4.6786e-06	3.2835e-06	316.03	131.64	100.74	48.984	2.8719e-06	67.389	0.00079561	0.00079599	0.00022289	662.25	8.7155e-06	8.6865e-06	827.67	245.09	8.7113e-06	8.7201e-06	331.32	136.25	105.17	50.03	8.9515e-06	68.169	178.413	-49.696	-17.586	-112.824	38.707	28.696	-113.750	-107.079	-16.079	39.990	-109.433	-105.123	-103.081	-96.644	28.277	-100.503	-8191	255	
1231.452	1	1	0	0	0.26739	0.089481	0.094872	0.11762	0.10868	0.1657	0.12853	0.27845	0.06669	0.14823	0.16509	0.34971	0.060981	0.20792	0.11079	0.36043	-1.6958	-2.3479	-2.2583	-2.3542	-2.5542	-2.1063	-2.4229	-2.4188	-2.2542	-2.5187	-2.3146	-2.3792	-2.7042	-2.075	-2.1167	-2.7354	190.849	218.653	2.438	181.182	69.401	142.365	197.085	-113.253	151.562	211.335	-49.174	209.026	58.268	-90.215	225.724	158.259	0.00046469	0.00048407	0.00032927	622.74	2.5133e-06	4.8084e-06	790.11	236.16	5.2387e-06	6.2682e-06	316.96	131.56	101.48	48.684	1.701e-06	67.588	0.00081654	0.00082005	0.00022745	663.23	8.8315e-06	8.8762e-06	825.29	247.7	8.713e-06	8.6802e-06	332.29	136.42	105.85	49.916	8.7805e-06	68.03	186.627	222.905	-55.427	-112.536	-91.220	-9.171	-113.566	-106.867	3.830	-84.796	-109.142	-105.209	-103.166	-96.940	-93.783	-100.766	-8191	255	
1231.571	1	1	0	0	0.23017	0.18807	0.067708	0.17176	0.15558	0.14591	0.11783	0.10624	0.091254	0.039354	0.14118	0.22446	0.08605	0.11501	0.16062	0.25534	-1.5771	-2.3854	-2.4104	-2.2792	-2.5854	-2.2958	-2.7104	-2.6729	-2.1	-2.375	-2.6375	-2.2542	-2.6333	-2.3604	-2.5042	-2.7583	178.065	1.927	226.921	195.056	-47.374	54.468	-29.778	181.989	23.363	127.639	159.756	206.770	191.050	148.265	102.256	129.481	0.00040521	0.0001412	7.5387e-05	620.12	7.1403e-06	8.9354e-06	787.05	238.55	6.157e-06	3.0117e-06	320.96	132.76	102.6	49.934	6.9439e-07	68.044	0.00081165	0.00081821	0.00023101	660.28	9.0173e-06	9.0321e-06	822.86	249.36	8.9861e-06	9.0168e-06	335.17	138.04	107.17	51.176	8.9045e-06	69.072	160.786	46.651	3.090	-112.343	50.615	-74.072	-113.743	-106.871	-69.908	31.003	-108.708	-105.262	-103.216	-96.832	-59.171	-100.643	-8191	255	
1231.667	1	1	0	0	0.15383	0.15686	0.056331	0.39718	0.079207	0.18024	0.13925	0.082511	0.14209	0.11305	0.28781	0.16842	0.15034	0.29451	0.15144	0.15546	-1.5583	-2.3229	-2.4667	-2.0667	-2.6562	-2.5146	-2.3563	-2.5792	-2.0938	-2.425	-2.5187	-2.1271	-2.5708	-2.4708	-2.0438	-2.575	127.479	-25.324	57.633	-109.808	91.545	-79.530	230.557	-0.307	213.613	24.108	197.234	111.756	78.976	132.733	33.419	-117.398	0.00031466	0.00023611	9.7807e-05	628.93	2.1535e-06	9.1272e-06	788.92	238.33	4.2194e-06	8.7842e-06	319.28	133.04	101.52	49.78	4.9833e-06	68.391	0.00081198	0.0008178	0.00022812	666.3	8.8598e-06	8.9131e-06	825.62	248.91	8.8774e-06	8.8903e-06	333.4	137.35	106.3	51.008	8.9276e-06	69.048	170.365	165.750	-121.578	-112.532	-25.388	45.513	-113.641	-106.800	-4.270	7.110	-109.233	-105.163	-103.295	-96.932	12.035	-100.865	-8191	255	
1231.765	1	1	0	0	0.10099	0.021798	0.33005	0.25498	0.15968	0.20367	0.090397	0.16228	0.1397	0.30603	0.17095	0.1678	0.14467	0.30706	0.081755	0.19043	-1.5542	-2.5083	-2.3187	-2.3542	-2.5375	-2.4562	-2.2729	-2.7583	-2.1146	-2.3708	-2.4625	-2.3625	-2.6167	-2.6229	-2.1729	-2.7521	137.016	15.137	101.563	69.949	-113.420	45.950	129.052	148.092	105.899	113.267	-68.181	104.561	201.830	-105.994	156.090	227.037	0.00050748	0.00043378	0.0002701	624.88	5.0386e-06	1.1337e-05	794.99	233.68	5.7668e-06	4.8008e-06	313.6	130.17	99.516	48.356	3.3496e-06	66.831	0.00081758	0.00082176	0.00022965	663.56	8.9301e-06	8.9091e-06	825.94	244.57	8.7484e-06	8.7533e-06	329.14	134.82	104.07	49.443	8.7084e-06	67.346	190.085	-29.532	-94.293	-112.700	-86.385	-89.759	-113.540	-106.869	-65.994	-40.468	-109.055	-105.134	-102.820	-96.770	74.063	-100.688	-8191	255	
1231.884	1	1	0	0	0.25209	0.12209	0.082136	0.31483	0.1798	0.065813	0.041421	0.18033	0.14515	0.12484	0.42202	0.19344	0.17092	0.059425	0.13699	0.30296	-1.725	-2.3063	-2.5354	-2.2896	-2.4833	-2.3292	-2.3271	-2.8083	-2.3104	-2.1417	-2.5833	-2.3521	-2.5687	-2.6917	-2.2	-2.7146	60.718	227.741	17.814	-107.430	76.261	116.077	222.432	216.069	-97.265	-4.583	-114.953	155.276	151.235	-85.148	5.893	180.461	0.00063144	0.00041747	7.6801e-05	617.98	1.8155e-06	1.9709e-06	787.13	232.63	7.643e-06	6.5036e-06	310.64	127.72	98.911	47.746	4.7875e-06	65.011	0.00079446	0.0007979	0.00022267	656.75	8.7756e-06	8.8919e-06	819.68	243.29	8.8604e-06	8.7801e-06	326.15	133.32	103.59	48.867	8.6647e-06	65.926	185.597	-7.308	126.936	-112.746	201.705	-118.412	-113.568	-107.234	-73.751	-49.982	-109.055	-105.001	-102.977	-96.699	213.051	-100.487	-8191	255	
1231.980	1	1	0	0	0.11041	0.17562	0.13857	0.37874	0.15439	0.16524	0.17441	0.177	0.18739	0.20109	0.15006	0.11045	0.11761	0.3579	0.17944	0.25761	-1.7521	-2.2979	-2.5896	-2.2646	-2.4	-2.25	-2.35	-2.5167	-2.4542	-2.1417	-2.7542	-2.2583	-2.4396	-2.5771	-2.2188	-2.6188	43.803	21.464	-15.861	-108.780	88.605	114.218	157.732	-58.190	22.639	-88.809	-109.015	-37.915	207.403	218.587	59.698	146.841	0.0003776	0.0006704	0.00010749	617.23	6.9978e-06	6.8032e-06	777.35	228.97	1.6394e-06	4.3135e-06	309.31	127.56	97.707	47.619	9.071e-06	64.45	0.00078272	0.00079008	0.00022167	655.81	8.6625e-06	8.7405e-06	810.74	240.7	8.7614e-06	8.8164e-06	324.98	132.21	102.77	48.697	8.7825e-06	65.492	189.150	133.593	-45.427	-112.671	-44.392	95.662	-113.804	-106.832	-28.830	56.543	-109.137	-104.799	-103.086	-96.681	-59.125	-100.692	-8191	255	
1232.052	1	1	0	0	0.18371	0.076524	0.18647	0.084873	0.24698	0.21537	0.081084	0.023898	0.092458	0.34898	0.40584	0.19316	0.16485	0.27589	0.17893	0.21607	-2.025	-2.1229	-2.6167	-2.3542	-2.3979	-2.55	-2.2875	-2.3812	-2.1458	-2.0979	-2.8167	-2.2938	-2.3854	-2.4938	-2.0312	-2.5292	161.398	161.039	50.117	-8.429	138.755	158.594	223.791	199.059	-76.456	-22.810	166.960	228.554	57.373	218.560	-43.177	220.284	0.00050043	0.0002558	0.00020614	619.52	6.5368e-06	5.19e-06	780.44	229	2.5424e-06	8.246e-06	306.97	126.74	96.698	47.324	2.355e-06	64.853	0.00078923	0.00079206	0.00021891	655.94	8.6306e-06	8.6387e-06	811.63	239.14	8.6617e-06	8.7051e-06	322.25	131.84	101.83	48.572	8.8467e-06	66.048	182.878	109.854	196.397	-112.719	-62.619	33.217	-113.599	-107.035	-30.925	151.290	-108.992	-105.013	-102.724	-96.596	-37.771	-100.669	-8191	255	
1232.172	1	1	0	0	0.076364	0.15373	0.055284	0.097857	0.042437	0.19271	0.10157	0.16815	0.21516	0.073904	0.13723	0.098167	0.12149	0.25834	0.070509	0.19061	-2.0104	-2.0646	-2.5917	-2.3333	-2.2875	-2.5563	-2.3167	-2.4042	-2.3875	-2.1333	-2.8354	-2.5958	-2.4771	-2.875	-2.2354	-2.8417	-61.819	-124.560	-105.581	-42.531	133.402	136.898	55.374	6.422	226.776	112.817	208.373	54.922	-93.865	171.578	135.344	185.519	0.00051639	0.0002258	0.00045712	614.74	4.2385e-06	4.7771e-06	782.77	229.37	1.8594e-06	3.8484e-06	310.35	127.63	97.843	47.492	1.1255e-05	65.53	0.00080387	0.00080886	0.00022312	654.35	8.7514e-06	8.7435e-06	813.5	240.26	8.6351e-06	8.6677e-06	324.39	132.4	102.47	48.452	8.6094e-06	66.194	167.217	84.406	-85.578	-112.689	23.446	53.758	-113.625	-106.897	5.750	11.379	-109.220	-104.827	-102.848	-96.673	11.310	-100.471	-8191	255	
1232.268	1	1	0	0	0.12768	0.14413	0.246	0.32018	0.18954	0.24732	0.15357	0.11992	0.19456	0.17334	0.19466	0.27381	0.35725	0.24096	0.35784	0.1576	-1.8792	-2.1021	-2.6042	-2.4958	-2.2854	-2.7333	-2.3104	-2.4625	-2.5104	-1.9	-2.6167	-2.4792	-2.4167	-2.5521	-2.2479	-2.4271	52.115	-85.994	138.992	141.231	-101.977	160.157	222.208	228.280	102.893	-18.669	117.233	185.576	227.435	193.031	145.090	170.460	0.00041218	0.00053088	0.00023293	616.66	1.7008e-06	1.3297e-06	779.47	231.94	3.5414e-06	6.7574e-06	311.28	129.56	98.482	49.125	3.7991e-06	67.457	0.00078933	0.00080345	0.00022498	654.1	8.9449e-06	9.005e-06	814.36	243.18	9.0287e-06	9.0685e-06	328.62	134.62	103.55	50.176	8.9038e-06	68.39	177.230	-76.527	27.920	-112.431	-102.022	-33.073	-113.710	-106.677	-37.841	-18.502	-109.202	-105.047	-102.913	-96.718	-37.603	-100.397	-8191	255	
1232.365	1	1	0	0	0.20806	0.23718	0.17466	0.2498	0.23539	0.20897	0.086342	0.12226	0.22548	0.11674	0.25821	0.1582	0.22675	0.17012	0.33038	0.14347	-2.0375	-1.9854	-2.5062	-2.5146	-2.2021	-2.3896	-2.3958	-2.3083	-2.5646	-2.0417	-2.4104	-2.4417	-2.1667	-2.5979	-2.1437	-2.4083	-40.536	189.632	72.398	185.179	77.229	174.097	20.653	221.767	-74.210	232.677	159.561	-0.187	209.860	216.266	-45.981	146.636	0.00058084	0.00026059	0.00010519	621.86	6.6428e-06	6.9038e-06	790.59	235.89	2.5623e-06	1.1222e-05	317.06	131.8	101.26	49.86	2.4679e-06	68.197	0.00080001	0.00080838	0.00022415	660.07	8.8172e-06	8.7766e-06	823.39	246.7	8.7413e-06	8.8163e-06	331.86	136.86	106.09	50.856	8.8664e-06	68.945	177.694	-31.846	218.476	-112.767	-36.276	199.395	-113.634	-106.956	-55.149	12.017	-109.262	-105.473	-103.207	-96.816	-62.251	-100.853	-8191	255	
1232.485	1	1	0	0	0.17938	0.066633	0.083706	0.19399	0.10005	0.20062	0.49013	0.050227	0.23912	0.13791	0.32842	0.048908	0.22779	0.32197	0.14637	0.139	-2.0479	-2.2396	-2.4375	-2.4604	-2.0333	-2.5458	-2.3583	-2.3812	-2.2292	-2.3229	-2.3292	-2.5438	-2.0896	-2.7333	-2.1729	-2.3354	115.182	48.865	-24.156	-115.630	-82.992	104.039	197.388	86.151	-12.189	-59.682	199.696	-67.394	215.902	-113.200	-94.977	180.758	0.00032876	0.00044002	7.477e-06	621.45	8.2359e-06	9.0469e-06	787.09	238.3	4.2166e-06	6.3573e-06	318.73	133.84	103.21	50.156	3.2208e-06	68.502	0.00081168	0.00082334	0.00023012	659.97	8.9718e-06	8.9246e-06	822.41	249.06	8.8356e-06	8.8383e-06	333.96	138.06	107.72	51.202	8.7991e-06	69.176	192.338	-7.131	-97.141	-112.553	52.934	94.481	-113.756	-106.838	-58.000	-12.003	-109.434	-105.237	-103.051	-96.854	16.011	-100.655	-8191	255	
1232.580	1	1	0	0	0.29937	0.14763	0.23306	0.17874	0.07974	0.33026	0.1289	0.049458	0.16315	0.1981	0.18356	0.15776	0.21605	0.25543	0.17913	0.29037	-2.0958	-2.2146	-2.4167	-2.7958	-2.1771	-2.5812	-2.3646	-2.3104	-2.5167	-2.175	-2.3812	-2.7646	-2.1458	-2.7208	-2.3396	-2.3563	93.338	92.814	193.377	-87.861	43.500	-81.236	99.124	189.299	-100.096	199.458	-60.875	-105.244	-119.502	187.272	133.046	183.934	0.00052711	0.00033924	0.00026011	623.49	2.987e-06	8.1846e-06	787.92	239.59	5.9502e-06	5.2752e-06	320.81	134.32	103.91	50.824	1.5313e-06	69.42	0.00080652	0.00081688	0.00022886	663.87	9.0948e-06	9.1029e-06	821.49	250.86	9.0678e-06	9.0628e-06	337.21	139.34	108.44	51.866	8.8201e-06	69.916	183.566	166.890	-99.305	-112.612	176.851	-17.552	-113.612	-106.878	-56.509	43.232	-109.052	-105.446	-103.050	-96.543	-96.944	-100.675	-8191	255	
1232.651	1	1	0	0	0.20139	0.041929	0.2697	0.026292	0.20607	0.24104	0.17147	0.13945	0.19852	0.28968	0.32673	0.15023	0.31307	0.19025	0.082747	0.25951	-2.0667	-2.3167	-2.2354	-2.6125	-2.0792	-2.4688	-2.4688	-2.3083	-2.525	-2.1208	-2.3417	-2.5146	-2.275	-2.5292	-2.4229	-2.1146	60.036	140.559	42.486	49.383	10.150	-3.883	145.028	110.724	-117.061	14.710	216.710	-38.954	-62.619	231.282	231.507	119.974	0.00040236	0.00050263	0.00021883	624.39	4.6741e-06	4.5704e-06	789.99	237.45	4.2693e-06	6.3192e-06	319.64	134.05	102.35	50.056	5.4409e-06	69.091	0.00079854	0.00080116	0.00022445	664.63	8.8562e-06	8.8005e-06	824.23	248.23	8.9454e-06	8.9029e-06	334.42	138.21	106.7	51.21	8.8545e-06	69.481	178.203	-26.673	29.725	-112.539	26.025	-0.294	-113.749	-106.653	198.169	14.993	-109.176	-104.909	-103.039	-96.581	176.186	-100.718	-8191	255	
1232.747	1	1	0	0	0.16622	0.10729	0.028759	0.044166	0.24803	0.2953	0.22338	0.15348	0.13333	0.27101	0.11135	0.29371	0.33274	0.19461	0.11147	0.030611	-1.9583	-2.1771	-2.3	-2.5521	-2.2188	-2.2	-2.7854	-2.3271	-2.6729	-2.4333	-2.4271	-2.8104	-2.1229	-2.6146	-2.5771	-2.3375	198.019	128.848	141.089	178.395	101.814	-118.350	31.962	130.344	-91.943	180.067	68.709	222.376	121.701	-98.267	34.114	105.585	0.00060121	0.0004076	0.00016562	620.6	3.4091e-06	4.3118e-06	795.37	230.99	6.3064e-06	1.0407e-05	309.6	129.42	98.223	48.369	7.1446e-06	66.69	0.00080206	0.00080894	0.00022377	659.43	8.6745e-06	8.6949e-06	821.92	242.17	8.6155e-06	8.6436e-06	326.12	133.99	103.15	49.432	8.6679e-06	67.498	194.107	-62.510	-102.043	-112.878	139.393	9.141	-114.089	-106.703	-10.761	79.966	-109.153	-105.261	-102.823	-96.278	-12.301	-100.898	-8191	255	
1232.868	1	1	0	0	0.21166	0.12091	0.14467	0.021897	0.006847	0.15036	0.18816	0.33898	0.03135	0.15388	0.22985	0.30272	0.15481	0.11383	0.15616	0.26861	-2.1333	-2.3563	-2.125	-2.5292	-2.3104	-2.4104	-2.4875	-2.3146	-2.4229	-2.3875	-2.0375	-2.5521	-2.3104	-2.2896	-2.6854	-2.4042	179.742	64.138	96.469	233.460	120.029	130.189	201.699	162.816	134.039	14.576	-96.098	174.253	87.231	-114.969	49.181	105.306	0.00057103	0.0006222	8.1588e-05	613.85	4.3125e-06	1.3872e-05	772.26	230.57	1.0446e-05	4.8202e-07	308.57	127.65	97.408	47.506	2.2734e-07	64.665	0.00079484	0.00080301	0.0002229	650.68	8.7326e-06	8.7634e-06	808.21	241.15	8.7627e-06	8.7905e-06	323.92	132.44	102.37	48.707	8.6026e-06	65.557	174.988	-91.382	181.223	-112.757	80.445	1.150	-113.610	-106.817	-14.653	85.781	-109.362	-105.085	-102.771	-96.739	-94.208	-100.688	-8191	255	
1232.964	1	1	0	0	0.128	0.14942	0.066875	0.064076	0.024826	0.029081	0.10753	0.081288	0.29432	0.024106	0.16207	0.13864	0.33366	0.35136	0.11366	0.21399	-1.925	-2.4917	-1.9375	-2.5917	-2.3729	-2.3312	-2.7104	-2.2271	-2.3646	-2.4667	-2.1917	-2.5042	-2.6833	-2.2542	-2.3292	-2.2896	206.363	-58.411	64.071	108.965	59.508	222.749	173.029	185.759	12.241	132.491	211.362	221.186	192.409	-50.022	111.074	149.148	0.00032671	0.00070723	0.00014773	617.22	1.3532e-06	4.7052e-06	775.9	228.28	7.8518e-06	3.1396e-06	309.5	127.02	97.959	47.815	8.021e-06	65.109	0.00077664	0.00078786	0.00021932	654.18	8.5804e-06	8.6958e-06	809.13	239.23	8.7333e-06	8.7711e-06	324.13	132.22	102.84	48.987	8.7821e-06	65.975	190.036	-66.222	230.416	-112.744	53.190	51.740	-113.629	-106.568	27.182	-89.116	-109.206	-105.290	-102.904	-96.943	-25.561	-100.521	-8191	255	
1233.060	1	1	0	0	0.12633	0.12368	0.03225	0.37226	0.036091	0.048006	0.15134	0.21254	0.28767	0.26199	0.37909	0.076514	0.25937	0.3108	0.22046	0.19529	-1.8312	-2.5292	-1.9646	-2.6833	-2.3438	-1.9417	-2.6188	-2.4833	-2.275	-2.6042	-2.1667	-2.6562	-2.4042	-2.25	-2.5958	-2.2792	153.813	58.209	63.492	-89.192	38.223	60.086	186.125	197.618	66.995	171.432	178.232	59.487	212.859	193.084	222.279	152.944	0.00043337	0.00072316	0.00017731	620.74	4.3069e-06	8.5503e-07	786.73	228.41	8.0307e-06	2.065e-06	309.62	127.57	97.763	47.636	9.1308e-06	65.335	0.00079889	0.00079527	0.00022247	657.33	8.5627e-06	8.6094e-06	816.13	238.91	8.5764e-06	8.6312e-06	323.29	132.25	102.62	48.801	8.8227e-06	66.367	160.657	-42.277	-20.962	-112.414	209.255	43.051	-113.816	-106.775	109.523	62.151	-108.838	-105.175	-102.996	-96.555	39.474	-100.661	-8191	255	
1233.156	1	1	0	0	0.23794	0.069362	0.24208	0.18802	0.38548	0.20787	0.25693	0.21151	0.21397	0.25481	0.033501	0.1725	0.071423	0.032053	0.045179	0.26525	-1.6375	-2.4313	-2.2021	-2.4958	-2.2958	-2.3312	-2.5417	-2.6521	-2.0042	-2.8479	-2.1958	-2.6021	-2.7354	-2.1875	-2.4708	-2.1854	-7.848	111.959	142.583	59.974	-94.774	-1.403	228.486	211.070	78.574	-31.093	216.227	202.327	55.467	-110.170	66.404	137.445	0.00047441	0.00040167	0.00019447	619.69	4.2933e-06	1.8471e-06	783.38	231.49	1.403e-06	6.303e-06	308.84	127.78	98.182	47.783	4.5436e-06	65.099	0.00080273	0.00081783	0.00022671	656.95	8.7404e-06	8.792e-06	816.84	241.15	8.6653e-06	8.664e-06	324.39	132.56	102.77	48.758	8.6268e-06	66.114	183.853	-56.331	224.127	-112.422	-88.319	0.084	-113.822	-106.897	-12.237	-41.428	-109.169	-105.032	-102.934	-96.402	-13.058	-100.700	-8191	255	
1233.253	1	1	0	0	0.30715	0.077643	0.22984	0.13638	0.090507	0.0559	0.22322	0.070592	0.075136	0.1621	0.14455	0.15047	0.25294	0.23223	0.2805	0.21358	-1.7104	-2.5646	-2.2208	-2.3812	-2.5896	-2.1604	-2.85	-2.45	-2.2875	-2.6771	-2.2583	-2.6813	-2.5167	-2.2333	-2.5292	-2.7917	209.673	69.459	160.677	232.206	164.926	-46.949	-86.385	185.848	50.592	-85.459	-116.239	117.814	-46.198	-104.825	88.594	89.509	0.00048534	0.00044309	0.00019105	618.03	5.9782e-07	5.804e-06	774.65	230.2	1.1095e-06	1.2619e-05	307.2	127.04	98.346	47.616	6.0177e-06	64.394	0.00079638	0.00079717	0.00022323	656.34	8.7236e-06	8.8124e-06	812.47	241.39	8.7624e-06	8.7264e-06	323.15	131.93	102.78	48.608	8.5964e-06	65.336	186.960	-55.164	-55.084	-112.462	1.233	4.744	-113.604	-106.740	223.165	14.351	-109.165	-105.141	-102.862	-96.728	47.664	-100.682	-8191	255	
1233.349	1	1	0	0	0.11663	0.1293	0.14739	0.24106	0.29132	0.22338	0.12566	0.097596	0.059705	0.24881	0.087788	0.12386	0.27899	0.033701	0.17597	0.16383	-1.6958	-2.7646	-2.2417	-2.3958	-2.5375	-1.8917	-2.6458	-2.6	-2.0792	-2.65	-2.2604	-2.3417	-2.7917	-2.0917	-2.4146	-2.3563	-103.637	122.594	-35.521	15.698	154.932	225.715	178.023	52.554	218.633	24.444	96.213	112.112	175.670	156.182	220.548	-103.124	0.00041929	0.00025197	5.7743e-05	620.78	1.0306e-05	7.5648e-06	781.1	232.04	5.5688e-06	6.7649e-06	311.54	129.48	100.49	49.133	4.8976e-06	66.189	0.00078432	0.00078363	0.0002209	657.53	8.7118e-06	8.6981e-06	813.44	243.14	8.7107e-06	8.7295e-06	327.2	134.47	105.07	49.997	8.7512e-06	67.135	183.975	167.597	184.141	-112.556	28.024	-17.828	-113.637	-106.773	201.631	-16.225	-109.258	-105.111	-103.083	-96.771	-56.059	-100.926	-8191	255	
1233.445	1	1	0	0	0.1013	0.24836	0.29141	0.24413	0.042463	0.098144	0.08025	0.13576	0.33623	0.10764	0.065178	0.033054	0.082318	0.28477	0.24022	0.23085	-1.7042	-2.4313	-2.3042	-2.3229	-2.6854	-2.375	-2.5292	-2.5375	-2.325	-2.5208	-2.2646	-2.6063	-2.6521	-2.1562	-2.4083	-2.5542	206.621	-112.044	-64.878	-121.590	99.594	-75.940	121.724	92.589	174.207	66.031	-33.448	51.135	182.912	192.340	96.281	226.951	0.0005439	0.00026594	7.3405e-05	626.26	4.7442e-06	1.1508e-05	793.2	237.75	5.2192e-06	4.2636e-06	316.7	131.68	101.53	49.147	6.6029e-06	67.158	0.0008056	0.00080617	0.00022436	663.93	8.7769e-06	8.713e-06	826.77	247.04	8.6567e-06	8.6632e-06	330.48	135.99	106.08	50.196	8.7348e-06	67.871	181.321	-109.346	-98.580	-112.626	-15.193	17.223	-113.829	-106.612	-84.228	44.689	-109.726	-105.200	-103.067	-96.966	-8.304	-100.863	-8191	255	
1233.566	1	1	0	0	0.15342	0.2374	0.15113	0.1652	0.286	0.16363	0.048852	0.047542	0.22177	0.085371	0.29382	0.53996	0.12955	0.29866	0.16865	0.11296	-1.7333	-2.4333	-2.275	-2.0771	-2.6104	-2.1688	-2.4396	-2.5854	-2.0687	-2.5812	-2.3271	-2.2229	-2.7271	-2.1146	-2.4667	-2.6271	163.488	-82.471	18.637	154.495	93.292	-121.075	73.364	168.064	85.832	186.687	172.030	171.966	164.365	122.837	-26.747	107.191	0.00058077	0.00060536	0.00014077	624.19	7.2983e-06	2.5552e-06	792.94	239.29	4.6912e-06	3.2115e-06	316.95	132.15	101.99	49.179	6.381e-06	67.04	0.00080336	0.00082049	0.00022854	665.2	9.0091e-06	9.0483e-06	826.1	249.36	8.9262e-06	8.8534e-06	333.05	136.76	106.36	50.306	8.758e-06	68.013	183.132	-102.243	-27.020	-112.562	15.489	-56.651	-113.442	-106.944	-123.091	168.642	-109.283	-105.029	-103.148	-96.903	26.152	-100.897	-8191	255	
1233.660	1	1	0	0	0.096437	0.17474	0.21881	0.17192	0.02421	0.23445	0.39009	0.0093159	0.090804	0.087362	0.1345	0.093034	0.084274	0.11064	0.057503	0.23653	-1.6167	-2.3063	-2.2042	-2.2	-2.6896	-2.4	-2.3521	-2.5729	-2.2146	-2.3479	-2.6042	-2.3	-2.5604	-2.3542	-2.2708	-2.4771	-64.669	218.985	199.300	181.958	-42.181	157.804	165.465	211.560	213.660	10.721	194.658	227.277	-63.798	8.939	34.361	-122.083	0.00052623	0.00088781	0.00017534	623.73	5.3111e-06	7.48e-06	789.03	235.54	3.5237e-06	7.6195e-06	311.65	129.69	98.965	48.063	5.8113e-06	65.203	0.00080363	0.00081074	0.00022737	664.15	8.942e-06	9.0422e-06	823.4	246.59	8.8944e-06	8.8323e-06	327.52	133.94	103.58	48.951	8.6511e-06	65.804	180.917	-115.979	136.343	-112.607	-93.408	-5.320	-113.521	-106.730	48.223	92.091	-109.291	-104.968	-102.860	-96.588	40.515	-100.591	-8191	255	
1233.756	1	1	0	0	0.11438	0.14712	0.35998	0.022984	0.062472	0.13377	0.034449	0.31428	0.383	0.026131	0.17543	0.09198	0.18933	0.10936	0.26297	0.24639	-1.5688	-2.3479	-2.375	-2.2562	-2.4792	-2.3292	-2.2083	-2.6688	-2.0771	-2.3208	-2.5062	-2.1833	-2.65	-2.4313	-2.1417	-2.6271	191.123	104.544	-7.038	26.407	31.342	141.977	25.575	162.477	90.272	18.471	195.774	-90.345	140.095	109.215	-24.689	77.892	0.00031171	0.00059222	0.00016922	617.73	3.3986e-06	6.2471e-06	786.05	227.84	4.3074e-06	7.5985e-06	306.21	125.57	96.15	46.219	8.4068e-06	63.521	0.00078461	0.00078622	0.00021798	655.63	8.5057e-06	8.485e-06	814.63	238.62	8.4923e-06	8.4762e-06	319.37	130.06	100.78	47.444	8.5163e-06	64.361	162.372	5.938	25.032	-112.799	208.873	-61.251	-113.682	-106.937	199.572	68.424	-109.212	-105.277	-102.903	-96.663	-69.261	-100.848	-8191	255	
1233.852	1	1	0	0	0.14289	0.04853	0.28064	0.16637	0.24476	0.0534	0.10247	0.019987	0.29757	0.18078	0.29381	0.11066	0.38155	0.15975	0.2117	0.2601	-1.6167	-2.2875	-2.3354	-2.0979	-2.3833	-2.4313	-2.2979	-2.5687	-2.2333	-2.3125	-2.6333	-1.9583	-2.4583	-2.4875	-2.0167	-2.6167	77.529	66.961	107.735	-12.898	125.070	80.984	-19.574	-7.753	150.553	175.996	56.688	-108.513	-75.324	227.180	-101.614	193.373	0.00032291	0.00062605	0.00034867	617.78	7.6355e-06	5.5719e-06	776.55	227.88	3.9695e-06	2.7096e-06	307.06	125.73	97.361	46.616	7.8516e-06	63.383	0.00077813	0.00079053	0.00021829	653.18	8.5608e-06	8.5902e-06	810.77	238.7	8.5451e-06	8.4954e-06	321.28	130.39	101.56	47.673	8.5861e-06	64.337	171.617	-84.784	-82.481	-112.492	-6.230	31.139	-113.790	-106.898	11.856	-117.130	-109.085	-105.320	-102.664	-96.754	58.017	-100.783	-8191	255	
1233.948	1	1	0	0	0.32993	0.098152	0.20511	0.16799	0.064074	0.20506	0.24804	0.052546	0.15435	0.31	0.16391	0.18855	0.10788	0.16536	0.17125	0.24101	-1.75	-2.375	-2.3312	-2.1542	-2.4688	-2.4771	-2.3521	-2.5708	-2.2042	-2.3208	-2.5542	-2.2292	-2.6708	-2.4958	-2.1646	-2.5708	221.703	-95.022	193.370	204.082	203.704	-117.992	170.253	227.339	-57.467	123.233	191.332	164.203	212.247	221.066	-67.482	87.832	0.00055644	3.9788e-05	0.00026332	619.41	9.7531e-07	4.2531e-06	781.82	228.59	2.3902e-06	3.6673e-06	306.89	126.06	97.488	46.583	6.0634e-06	63.112	0.00077926	0.00078816	0.00021764	654.77	8.572e-06	8.6152e-06	812.82	239.46	8.5709e-06	8.5331e-06	322.11	130.68	101.49	47.619	8.4992e-06	64.091	167.558	194.614	-8.886	-112.573	-32.372	-13.999	-113.532	-107.034	231.989	18.909	-109.241	-105.379	-103.022	-96.689	230.200	-100.624	-8191	255	
1234.043	1	1	0	0	0.15074	0.31136	0.16183	0.27277	0.20014	0.054237	0.16946	0.21813	0.01679	0.15534	0.16406	0.098602	0.086332	0.4257	0.19881	0.2516	-2.0521	-2.2583	-2.5979	-2.4437	-2.2417	-2.6375	-2.2125	-2.3667	-2.2854	-2.2979	-2.55	-2.3812	-2.2521	-2.5958	-2.2271	-2.6146	188.424	-57.010	-97.154	212.781	130.826	133.742	-20.309	-71.664	201.958	127.973	-52.135	142.752	173.689	-113.384	166.746	170.257	0.00044235	0.00079261	0.00014852	623.46	1.8178e-06	6.1433e-06	782.71	226.73	2.1479e-06	3.1823e-06	306.17	125.82	96.113	46.483	6.6932e-06	63.725	0.00077505	0.00078013	0.00021689	656.81	8.5469e-06	8.5831e-06	814.13	237.98	8.6241e-06	8.6466e-06	320.82	130.57	101.12	47.673	8.6969e-06	64.734	198.124	-34.169	231.697	-112.728	192.891	28.826	-113.727	-106.691	152.499	-67.929	-109.427	-104.982	-102.880	-96.863	24.244	-100.567	-8191	255	
1234.163	1	1	0	0	0.26528	0.23691	0.1233	0.12752	0.10433	0.094583	0.23672	0.08703	0.37512	0.10468	0.29493	0.22092	0.058132	0.15507	0.12913	0.20671	-1.825	-2.0771	-2.5917	-2.3229	-2.3271	-2.5479	-2.2208	-2.3583	-2.5	-2.2021	-2.6979	-2.3083	-2.2062	-2.7687	-1.9625	-2.5479	87.110	58.758	183.450	187.307	-75.812	67.338	126.753	231.736	104.553	-67.100	112.557	197.831	139.077	-123.244	169.171	199.781	0.00041461	0.00065292	0.00010568	615.17	6.8724e-07	8.9056e-06	778.05	226.51	3.6724e-06	9.4778e-06	303.57	124	95.528	45.944	2.3181e-06	62.507	0.00078813	0.00079691	0.00022133	652.03	8.6102e-06	8.5567e-06	808.42	236.84	8.4574e-06	8.4715e-06	318.44	129.01	100.22	47.026	8.5307e-06	63.548	168.506	-43.417	-92.158	-113.029	-60.553	56.704	-113.615	-106.829	-75.096	-2.796	-109.188	-105.294	-102.920	-96.718	-34.302	-100.761	-8191	255	
1234.260	1	1	0	0	0.21099	0.1683	0.1915	0.31418	0.23093	0.16405	0.10878	0.20008	0.071158	0.18534	0.17402	0.07185	0.11649	0.085961	0.31973	0.13027	-2.2208	-2.1229	-2.5812	-2.3625	-2.2208	-2.6167	-2.1813	-2.5271	-2.5	-2.2042	-2.5354	-2.5458	-2.4	-2.5583	-2.2062	-2.5687	59.863	93.448	-23.529	146.091	-39.850	155.276	203.406	113.513	66.323	-83.261	-48.539	208.882	-108.609	-71.813	149.882	192.529	0.0005843	0.00060738	0.00017293	612.49	5.2405e-06	7.5896e-06	776.37	226.21	8.3576e-06	3.1382e-06	304.03	124.13	95.666	45.555	7.0016e-06	62.257	0.00077646	0.00078737	0.00022004	650.91	8.5593e-06	8.6061e-06	807.37	236.64	8.4625e-06	8.4687e-06	317.96	128.44	100.24	46.714	8.4643e-06	63.066	174.776	23.463	-30.210	-112.734	-37.465	24.884	-113.448	-107.031	136.380	189.752	-109.365	-105.284	-102.523	-96.659	-5.898	-100.637	-8191	255	
1234.356	1	1	0	0	0.10205	0.19245	0.30165	0.031876	0.16492	0.20138	0.10433	0.26073	0.081434	0.11137	0.41666	0.22147	0.28271	0.19412	0.27331	0.16477	-1.9729	-2.0125	-2.4521	-2.5292	-2.225	-2.5687	-2.4479	-2.3187	-2.5479	-2.0542	-2.5	-2.2646	-2.3458	-2.7938	-2.3604	-2.3104	103.377	-58.249	217.819	67.008	-113.636	80.839	-64.670	114.059	110.626	-57.601	215.474	154.587	-37.728	133.902	30.882	189.962	0.00046605	0.00074076	0.00033069	615.57	9.9161e-07	7.7804e-06	775.32	226.7	3.4522e-06	4.973e-06	307.87	126.02	96.564	46.934	4.4131e-06	64.078	0.00076912	0.00078212	0.00022063	650.93	8.7164e-06	8.7361e-06	806.99	237.91	8.6887e-06	8.6998e-06	321.8	130.76	101.54	48.02	8.6152e-06	65.044	190.074	189.393	37.490	-112.504	-40.674	84.803	-113.674	-106.879	-32.849	21.609	-108.926	-105.160	-102.938	-96.609	42.454	-100.495	-8191	255	
1234.452	1	1	0	0	0.090134	0.271	0.17126	0.10973	0.054304	0.15471	0.34501	0.12243	0.075178	0.23911	0.18264	0.34972	0.011738	0.18016	0.077736	0.17134	-2.0604	-2.225	-2.4146	-2.5729	-2.1688	-2.4875	-2.3396	-2.3146	-2.6896	-1.8792	-2.6042	-2.5667	-2.1958	-2.625	-2.4521	-2.3333	86.029	-48.857	182.949	197.188	61.262	-3.124	206.007	4.366	-64.340	-90.025	170.159	24.699	142.862	136.463	52.462	150.927	0.0002865	0.00025911	0.00016278	622.52	2.0437e-06	3.3159e-06	779.45	234.79	2.1389e-06	5.4498e-06	314.86	130.18	100.32	49.348	6.7224e-06	67.922	0.00078524	0.00079758	0.00022453	658.56	8.831e-06	8.9089e-06	816.07	245.22	8.9885e-06	8.9995e-06	330.52	135.17	105.33	50.527	9.043e-06	68.794	163.166	-18.781	-13.500	-112.633	-69.266	-98.759	-113.604	-106.905	-27.600	12.210	-109.381	-105.345	-103.191	-96.799	-22.312	-101.019	-8191	255	
1234.524	1	1	0	0	0.19045	0.12116	0.22686	0.17518	0.12478	0.21432	0.23568	0.067704	0.14779	0.093648	0.44588	0.098689	0.15004	0.28407	0.13233	0.2638	-2.0458	-2.2333	-2.3229	-2.6875	-2.2292	-2.3375	-2.5125	-2.3979	-2.4771	-2.2083	-2.3521	-2.4688	-2.1958	-2.6146	-2.1896	-2.3479	91.708	162.213	207.683	81.611	11.660	181.429	-97.416	6.607	194.091	-29.063	178.831	-81.526	-62.068	215.733	-34.180	132.524	0.00048463	0.00047406	0.00017405	621.76	5.9223e-06	6.2584e-06	787.35	237.85	5.8609e-06	3.9647e-06	316.63	132.08	101.7	49.645	3.5457e-06	68.27	0.00082794	0.00082478	0.00023256	660.64	9.0703e-06	9.0168e-06	822.12	248.15	8.8553e-06	8.853e-06	332.24	136.54	106.48	50.785	8.8461e-06	68.852	176.605	-82.831	-68.352	-112.731	7.842	-24.467	-113.744	-106.970	43.716	-57.100	-109.325	-105.350	-103.025	-96.821	-49.039	-100.915	-8191	255	
1234.644	1	1	0	0	0.028915	0.13611	0.10426	0.055297	0.2219	0.178	0.15582	0.18486	0.026925	0.26625	0.21161	0.23972	0.14006	0.10676	0.25154	0.089246	-2.2021	-2.0938	-2.15	-2.6562	-2.2062	-2.4396	-2.4938	-2.4562	-2.6667	-2.3104	-2.2833	-2.6917	-2.3688	-2.5958	-2.2333	-2.2708	-43.564	117.862	-63.631	-115.405	83.193	204.112	98.625	134.820	-100.253	186.235	122.231	222.561	69.540	51.650	43.670	223.752	0.00059081	0.00025055	0.00035331	618.79	3.5157e-06	1.2242e-05	775.04	235.45	4.4962e-06	6.7013e-06	313.05	131.3	101.46	49.118	5.2156e-06	66.405	0.000809	0.00081661	0.00022872	658.49	8.986e-06	9.025e-06	815.33	246.93	8.8934e-06	8.8858e-06	330.04	135.67	106.07	50.264	8.6551e-06	67.206	180.369	-34.833	-62.939	-112.791	58.884	-36.950	-113.653	-106.897	80.896	133.379	-109.468	-105.232	-102.814	-96.851	162.966	-100.781	-8191	255	
1234.740	1	1	0	0	0.10661	0.071832	0.23413	0.19835	0.17256	0.17651	0.14703	0.22657	0.088322	0.24982	0.18101	0.0018566	0.24184	0.26534	0.11298	0.1209	-2.0521	-2.4333	-2.1396	-2.6979	-2.2479	-2.3312	-2.7	-2.2792	-2.6271	-2.1354	-2.4167	-2.5146	-2.3312	-2.4833	-2.6333	-2.0125	228.774	101.958	-121.125	224.064	116.796	-41.565	118.987	91.294	-77.170	197.993	-49.582	180.000	214.391	170.674	-117.590	170.670	0.00038224	0.00031847	0.00044582	617.11	6.8756e-07	5.7349e-06	771.34	232.62	5.7952e-06	1.719e-05	311.35	128.72	98.034	48.964	8.9449e-06	67.426	0.00079707	0.0007981	0.00022386	658.01	8.8606e-06	8.9983e-06	810.82	243.96	9.1165e-06	9.1625e-06	327.46	133.68	103.44	50.303	9.1515e-06	68.235	170.031	-82.416	-89.460	-112.387	-3.163	-91.561	-113.709	-106.852	-54.995	-25.565	-109.304	-105.035	-103.030	-96.571	227.876	-100.470	-8191	255	
1234.836	1	1	0	0	0.11656	0.16612	0.33082	0.15511	0.27011	0.24813	0.19253	0.064828	0.071464	0.21162	0.20983	0.13074	0.21508	0.17218	0.21184	0.27668	-2.0604	-2.3937	-2.0708	-2.7812	-2.1396	-2.2896	-2.4396	-1.8563	-2.5875	-2.2458	-2.2438	-2.6688	-2.0771	-2.5062	-2.4458	-2.2812	91.957	34.678	20.256	181.730	-111.816	155.338	127.792	-57.581	184.446	102.691	134.871	143.662	-95.380	181.706	-107.136	-56.762	0.00049315	0.00033428	0.00015528	608.64	4.6903e-06	1.3444e-05	774.29	229.98	1.1427e-05	6.0806e-06	308.51	128.06	97.802	48.745	3.7108e-06	66.923	0.00082675	0.00082824	0.00022917	648.94	8.8058e-06	8.8282e-06	807.76	240.57	8.7403e-06	8.7309e-06	323.7	132.5	102.64	49.738	8.7713e-06	67.544	179.790	228.619	57.804	-112.868	94.165	35.240	-113.601	-106.885	18.012	16.962	-109.401	-104.953	-102.754	-96.665	-114.431	-100.773	-8191	255	
1234.933	1	1	0	0	0.17469	0.12072	0.083576	0.21691	0.16602	0.18802	0.2636	0.26283	0.13762	0.044726	0.19624	0.024009	0.28903	0.098706	0.092226	0.24031	-2.0333	-2.4958	-2.1083	-2.6667	-2.4604	-2.0687	-2.6646	-2.3104	-2.4042	-2.4125	-2.1292	-2.7104	-2.2625	-2.3917	-2.5125	-2.2625	200.859	179.270	-14.448	223.200	-99.679	93.372	216.327	156.765	-59.537	29.607	213.877	-50.499	175.082	19.028	-62.091	146.775	0.00049272	0.00040915	0.00022682	609.89	7.4918e-06	4.7001e-06	773.54	229.67	8.609e-06	4.9818e-06	309.81	128.36	97.656	48.3	2.2096e-06	65.739	0.00080446	0.0008138	0.00022745	650.52	8.9588e-06	8.9676e-06	808.53	240.46	8.8407e-06	8.7844e-06	324.26	132.73	102.56	49.264	8.579e-06	66.463	160.685	-73.995	-50.733	-112.482	-4.046	68.596	-113.299	-106.881	-21.012	83.030	-109.181	-104.951	-103.306	-96.721	42.445	-100.524	-8191	255	
1235.052	1	1	0	0	0.13076	0.21106	0.081031	0.21009	0.15836	0.23246	0.12889	0.14032	0.092427	0.12346	0.37197	0.20785	0.082026	0.13446	0.0043199	0.078051	-1.7604	-2.2812	-1.9271	-2.5583	-2.2771	-2.2271	-2.55	-2.2208	-2.2229	-2.7104	-2.2	-2.7313	-2.3354	-2.2958	-2.5271	-2.1958	-19.079	189.187	169.650	158.717	45.869	-77.384	231.377	-100.613	-64.758	144.784	182.552	222.222	226.928	47.380	78.087	92.093	0.00055479	0.00031014	0.00016074	610.19	3.2198e-06	5.692e-06	766.64	227.15	9.148e-06	1.368e-05	303.85	126.47	97.418	48.387	4.4009e-06	65.191	0.00078392	0.00078884	0.00022143	649.31	8.7165e-06	8.834e-06	802.36	237.7	8.8435e-06	8.8802e-06	321.53	131.55	101.8	49.348	8.6901e-06	66.158	162.108	-71.706	230.176	-112.541	-68.509	202.416	-113.826	-106.749	47.668	17.112	-109.279	-105.162	-102.838	-96.819	-47.725	-100.579	-8191	255	
1235.148	1	1	0	0	0.21891	0.071084	0.14317	0.37687	0.13085	0.16336	0.029192	0.43283	0.14738	0.13624	0.22448	0.21541	0.17751	0.21413	0.29242	0.19524	-1.9	-2.3396	-2.0354	-2.6417	-2.3333	-2.1542	-2.7083	-2.2417	-2.5333	-2.5625	-2.3604	-2.4771	-2.3563	-2.2375	-2.4958	-2.4604	187.374	156.122	20.328	8.823	-96.217	23.883	-12.567	203.670	95.062	23.926	8.008	175.888	188.314	72.871	6.546	159.438	0.00047069	0.00013609	0.00026338	607.87	2.5542e-06	1.1052e-06	770.56	226.3	2.5117e-06	1.7144e-06	303.31	124.91	96.665	48.195	4.6122e-06	65.105	0.00078118	0.00078738	0.00021872	647.57	8.5811e-06	8.6356e-06	801.98	236.16	8.6333e-06	8.6643e-06	318.35	130.08	101.26	49.227	8.8092e-06	66.376	169.262	224.857	-64.820	-112.730	-33.750	-107.447	-113.712	-106.932	71.947	132.106	-108.945	-105.051	-102.882	-96.610	-45.436	-100.681	-8191	255	
1235.244	1	1	0	0	0.2365	0.14388	0.20868	0.10129	0.29571	0.15465	0.098746	0.23778	0.085322	0.30919	0.069673	0.068769	0.06948	0.24471	0.18966	0.16238	-1.6417	-2.5042	-2.1958	-2.5271	-2.5292	-1.9438	-2.7833	-2.3479	-2.3854	-2.5	-2.1833	-2.3667	-2.5542	-2.2333	-2.4313	-2.5917	28.536	41.148	137.476	-111.406	-77.974	-15.757	156.290	146.514	48.783	197.144	194.717	171.216	6.410	194.624	-67.594	162.991	0.00040672	0.0011127	0.00012562	606.15	9.2145e-06	4.1078e-06	767	226.14	6.2921e-06	3.2361e-06	303.74	126.37	97.562	48.511	6.9084e-06	65.608	0.00080408	0.00080523	0.00022611	645.37	8.7657e-06	8.7996e-06	799.76	237.23	8.6611e-06	8.651e-06	319.4	131.26	102	49.254	8.5678e-06	66.32	177.161	-102.848	3.961	-113.092	-10.413	-8.078	-113.853	-106.927	49.470	11.820	-109.534	-105.029	-103.244	-96.521	-35.996	-100.555	-8191	255	
1235.340	1	1	0	0	0.27039	0.097093	0.16423	0.1759	0.080368	0.20466	0.21124	0.14767	0.22346	0.19073	0.096638	0.16407	0.16751	0.21892	0.10474	0.33232	-1.6437	-2.5229	-2.2	-2.4437	-2.3542	-2.1917	-2.5604	-2.6021	-2.3021	-2.6292	-2.2833	-2.3875	-2.5958	-2.1521	-2.3875	-2.6146	-51.307	33.435	133.852	220.280	-22.276	152.532	-124.051	209.931	195.696	131.565	215.770	233.107	118.745	167.361	165.465	214.386	0.00064897	0.00065827	4.7808e-05	610.76	7.1156e-06	3.439e-06	768.95	226.24	2.1728e-06	4.6608e-06	305.38	127.64	98.452	48.249	3.9258e-06	65.585	0.00078896	0.00079266	0.0002226	648.73	8.675e-06	8.8099e-06	803.46	238.42	8.7799e-06	8.8204e-06	321.47	131.9	102.8	49.437	8.6511e-06	66.323	184.174	225.637	232.416	-112.561	-58.317	-71.193	-113.787	-106.819	70.572	116.816	-109.184	-105.296	-102.826	-96.802	-107.784	-100.531	-8191	255	
1235.436	1	1	0	0	0.068611	0.093588	0.13477	0.1271	0.21581	0.11465	0.21353	0.26803	0.20545	0.29459	0.15526	0.19769	0.11009	0.22873	0.15885	0.038724	-1.5875	-2.6979	-2.0187	-2.2542	-2.6958	-2.0104	-2.6625	-2.4333	-2.2042	-2.5104	-2.1667	-2.3021	-2.7979	-2.4	-2.3667	-2.575	26.779	-112.913	-71.257	-71.079	29.263	104.423	-116.812	224.727	-61.504	3.276	138.049	-56.622	-76.176	-63.701	-12.184	138.191	0.00034595	0.00038989	0.00015769	618.38	5.1945e-06	1.0403e-05	773.89	229.6	3.6931e-06	5.1889e-06	309.99	129.11	100.02	49.645	3.9776e-06	66.878	0.00077989	0.0007829	0.00021992	655.29	8.6006e-06	8.7272e-06	808.45	240.24	8.6931e-06	8.7675e-06	324.73	133.76	104.69	50.584	8.7943e-06	67.512	187.809	-32.663	52.265	-112.720	-40.151	-39.782	-113.753	-107.047	221.609	-20.886	-109.599	-105.059	-103.072	-96.651	-119.817	-100.611	-8191	255	
1235.532	1	1	0	0	0.26563	0.11857	0.083693	0.28465	0.12259	0.23451	0.18149	0.10733	0.054748	0.18096	0.078127	0.12283	0.37228	0.25202	0.028776	0.21414	-1.6792	-2.6	-2.3896	-2.2625	-2.5917	-2.1333	-2.4062	-2.6542	-2.0375	-2.6667	-2.3333	-2.4604	-2.7708	-2.4125	-2.4333	-2.5521	111.158	7.252	-33.744	-60.271	-26.952	166.000	149.795	-122.122	187.673	118.068	142.394	-20.015	-103.260	186.464	19.725	127.434	0.00054908	0.00031733	0.00016913	621.82	5.3714e-06	2.9112e-06	784.58	232.55	5.9625e-06	1.1755e-05	309.58	129.51	99.874	49.863	1.9895e-06	66.662	0.00079186	0.00079424	0.00022265	657.79	8.6166e-06	8.6804e-06	813.97	242.54	8.6382e-06	8.639e-06	324.53	133.78	104.73	50.7	8.7928e-06	67.557	174.555	65.553	208.555	-112.276	207.846	-39.285	-113.903	-107.284	11.521	18.552	-109.186	-105.108	-102.816	-96.661	219.352	-100.479	-8191	255	
1235.653	1	1	0	0	0.11605	0.314	0.12756	0.15898	0.24304	0.057919	0.050542	0.32364	0.32633	0.19448	0.22841	0.19753	0.24706	0.05213	0.041752	0.070758	-1.6646	-2.3604	-2.4354	-2.2021	-2.5062	-2.4292	-2.2833	-2.5229	-2.0521	-2.6125	-2.3458	-2.3083	-2.6688	-2.2875	-2.0958	-2.675	33.526	16.337	-30.537	225.158	215.923	143.102	84.160	194.944	102.748	134.994	119.789	-72.193	-52.443	214.948	49.210	169.813	0.00036924	0.0008601	0.00016939	619.36	5.2052e-06	3.1436e-06	777.9	234.06	5.4404e-06	3.5975e-06	312.75	130.36	101.65	49.999	7.6812e-06	67.497	0.0008009	0.00080874	0.00022557	657.97	8.7227e-06	8.7649e-06	813.27	243.97	8.7164e-06	8.6905e-06	326.89	134.85	105.94	51.13	8.7594e-06	68.192	179.429	17.216	64.171	-112.755	203.278	-84.024	-113.780	-107.029	-36.894	92.825	-109.230	-105.513	-103.051	-96.491	-51.872	-100.567	-8191	255	
1235.749	1	1	0	0	0.050531	0.085631	0.11784	0.10975	0.13348	0.20364	0.1401	0.14965	0.27266	0.081796	0.19975	0.21246	0.075182	0.25227	0.094275	0.13415	-1.5396	-2.5354	-2.3937	-2.1937	-2.5	-2.2458	-2.2229	-2.5354	-2.2146	-2.6146	-2.5687	-2.3354	-2.5229	-2.5021	-2.1583	-2.6583	-64.937	65.824	-36.610	219.579	25.609	234.131	149.580	188.786	9.405	182.216	212.483	86.366	-51.868	195.228	188.194	-81.975	0.00051369	0.00068636	0.00033083	620	1.1912e-06	6.5972e-06	777.66	235.72	1.7164e-06	6.5784e-06	312.65	131.21	101.49	50.026	6.1374e-06	67.593	0.00080974	0.00081349	0.00022741	659.48	8.9381e-06	9.0061e-06	813.62	246.45	8.921e-06	8.9782e-06	329.1	136.01	106.26	51.206	8.9073e-06	68.089	167.588	-30.556	-92.347	-112.618	88.860	13.297	-113.802	-106.758	167.946	10.026	-109.635	-105.332	-102.866	-96.682	-63.242	-100.402	-8191	255	
1235.845	1	1	0	0	0.062348	0.11267	0.11673	0.25601	0.16589	0.26171	0.15462	0.22517	0.1964	0.18994	0.33503	0.21849	0.13944	0.18109	0.33641	0.085617	-1.8708	-2.1479	-2.4938	-2.0021	-2.6021	-2.2729	-2.1937	-2.6083	-2.475	-2.3333	-2.4354	-2.1604	-2.5	-2.4813	-2.1354	-2.8688	-36.544	132.577	3.661	211.501	102.252	53.223	-7.826	210.146	-66.590	-77.533	148.774	96.862	-107.608	-75.043	100.637	57.435	0.00039173	0.00060461	7.1805e-05	621.58	3.2499e-06	1.2988e-05	783.48	233.69	7.8655e-06	5.4003e-06	309.46	129.38	99.647	49.228	4.9223e-06	65.937	0.00081041	0.00081008	0.00022628	659.54	8.8933e-06	8.9385e-06	814.28	243.44	8.873e-06	8.9124e-06	326.32	133.78	104.2	50.283	8.8479e-06	66.95	181.290	-25.669	6.683	-112.773	196.549	-76.437	-113.604	-106.913	26.430	-121.775	-108.955	-105.128	-102.785	-96.721	145.719	-100.460	-8191	255	
1235.940	1	1	0	0	0.12121	0.15281	0.037046	0.21065	0.037613	0.25538	0.33145	0.15661	0.086769	0.10717	0.087912	0.090806	0.2711	0.18183	0.12957	0.1666	-1.5562	-2.3896	-2.5167	-2.1875	-2.4104	-2.55	-2.2687	-2.6271	-2.2583	-2.2604	-2.6	-2.2604	-2.5375	-2.8167	-2.1354	-2.6625	-116.772	18.577	-122.532	110.444	-98.886	-78.631	218.135	-113.944	93.991	234.227	190.928	176.838	154.073	204.310	-108.842	199.061	0.00048915	0.0010313	0.00025846	614.19	4.9477e-06	1.1069e-05	774.45	226.86	7.2429e-06	8.8796e-06	305.63	126.22	97.539	48.338	8.0151e-06	65.149	0.00079962	0.00080053	0.00022391	652.19	8.6817e-06	8.7184e-06	807.16	237.83	8.6806e-06	8.6845e-06	320.44	130.87	101.99	49.329	8.7379e-06	66.233	167.469	-32.730	175.988	-113.031	-62.124	-36.378	-113.444	-106.998	8.958	-68.984	-109.193	-105.487	-102.848	-96.662	28.661	-100.739	-8191	255	
1236.036	1	1	0	0	0.20511	0.10689	0.23434	0.1244	0.16608	0.15089	0.36619	0.12011	0.12536	0.20266	0.21499	0.17428	0.38128	0.38189	0.074573	0.28014	-1.8625	-2.3812	-2.7167	-2.3167	-2.5167	-2.4167	-2.0792	-2.6625	-2.2271	-2.225	-2.5771	-2.4188	-2.5021	-2.5792	-2.0625	-2.6854	-15.553	-33.725	-79.606	-53.857	32.672	173.847	231.479	29.186	228.427	-85.175	180.248	-93.923	-121.645	148.332	-96.573	-121.620	0.00046494	0.00084204	0.00022001	605.53	8.22e-06	7.9612e-06	762.62	225.8	3.2565e-06	9.499e-06	302.06	125.09	96.874	47.954	1.0229e-05	64.105	0.00079931	0.00081243	0.00022616	644.7	8.7976e-06	8.7811e-06	797.01	236.7	8.7141e-06	8.6238e-06	317.37	129.56	101.52	48.823	8.5546e-06	64.89	176.837	20.502	-89.107	-112.950	7.752	-48.210	-113.644	-106.743	-79.148	-18.822	-108.970	-105.142	-102.744	-96.592	41.284	-100.497	-8191	255	
1236.132	1	1	0	0	0.043134	0.12212	0.16204	0.16463	0.16063	0.23305	0.089768	0.29115	0.18285	0.041515	0.30127	0.19257	0.17265	0.19549	0.10206	0.18996	-2.05	-2.2583	-2.4229	-2.3812	-2.2812	-2.7313	-2.2521	-2.4396	-2.4437	-2.4354	-2.6729	-2.4854	-2.3063	-2.7188	-2.0958	-2.5417	-94.948	59.796	41.240	-122.161	-68.570	17.790	234.164	171.693	-77.609	26.913	-122.824	183.141	190.293	-100.869	-111.121	-109.314	0.00046528	0.00068449	0.00034945	608.92	7.4265e-06	4.5923e-06	766.76	226.49	7.4673e-06	8.3827e-06	304	125.45	97.088	47.818	6.1839e-06	63.595	0.0007751	0.00078877	0.00022126	647.96	8.7477e-06	8.7572e-06	800.03	237.34	8.6998e-06	8.7022e-06	318.08	129.75	101.75	48.774	8.5515e-06	64.784	161.369	-53.907	-102.060	-112.862	-4.846	2.218	-113.855	-106.694	-8.115	21.881	-109.529	-105.273	-102.877	-96.900	140.830	-100.491	-8191	255	
1236.228	1	1	0	0	0.12629	0.15194	0.23051	0.10619	0.15716	0.34064	0.34994	0.31642	0.091953	0.048489	0.17934	0.036107	0.11347	0.40097	0.1645	0.19528	-2.0083	-2.1333	-2.5417	-2.2417	-2.2104	-2.6792	-2.1854	-2.4417	-2.45	-2.05	-2.7542	-2.4146	-2.2958	-2.5854	-2.1646	-2.2833	-43.617	178.681	-0.781	-97.808	-108.507	60.863	94.805	199.607	122.659	-71.623	215.588	157.544	193.891	182.560	87.146	82.460	0.00047957	0.00030173	0.00010096	617.35	4.6092e-06	4.0823e-06	770.77	228.14	2.2232e-06	6.0438e-06	305.41	125.71	97.881	48.293	6.3306e-06	65.222	0.00077131	0.00078171	0.00021899	653.72	8.6108e-06	8.6863e-06	805.1	238.53	8.7352e-06	8.6985e-06	321.03	130.92	102.74	49.434	8.7189e-06	66.097	186.608	-114.943	189.537	-112.442	36.117	-66.468	-113.515	-106.880	-61.731	28.768	-109.161	-105.171	-102.781	-96.402	137.879	-100.729	-8191	255	
1236.349	1	1	0	0	0.064892	0.087055	0.14638	0.072176	0.16161	0.14605	0.13295	0.23952	0.14995	0.29994	0.23088	0.26161	0.20772	0.2041	0.17186	0.30074	-1.95	-2.1333	-2.6979	-2.4083	-2.2958	-2.6021	-2.3125	-2.3896	-2.6125	-2.0875	-2.6542	-2.3542	-2.2583	-2.8708	-2.1583	-2.45	74.335	-96.241	28.929	186.619	-45.201	165.110	101.260	169.756	-37.618	-50.306	-51.747	220.647	-117.912	-47.908	116.250	168.597	0.00041182	0.00051226	0.00019153	616.24	1.9198e-06	4.6824e-06	773.13	226.7	2.6762e-06	1.0246e-05	305.58	125.67	97.792	48.417	2.7184e-06	65.137	0.00078966	0.0007954	0.00022289	653.04	8.6487e-06	8.6701e-06	807.1	237.94	8.6316e-06	8.6259e-06	320.22	130.67	102.33	49.283	8.6101e-06	66.054	188.285	-38.670	-81.971	-112.644	171.723	-5.949	-113.676	-107.065	219.882	114.731	-109.491	-105.160	-102.888	-96.641	44.810	-100.647	-8191	255	
1236.420	1	1	0	0	0.10729	0.19261	0.19797	0.17631	0.34299	0.1896	0.14064	0.21043	0.2454	0.075549	0.2081	0.12468	0.14222	0.046069	0.19943	0.19801	-1.9646	-2.1833	-2.3583	-2.6146	-2.3375	-2.7854	-2.275	-2.5604	-2.3688	-2.1042	-2.5604	-2.5979	-2.1146	-2.6542	-2.4375	-2.4354	-118.846	52.551	221.978	-101.252	227.734	-91.046	129.495	227.873	-72.131	74.987	189.994	136.825	-40.045	170.285	70.702	181.669	0.00050915	0.001192	0.00010792	616.11	7.4652e-06	1.0597e-05	772.93	229.91	8.3113e-06	6.8878e-06	304.87	126.52	98.398	48.581	4.7881e-06	65.043	0.00079016	0.0008011	0.00022356	653.9	8.7974e-06	8.7892e-06	804.35	240.09	8.6462e-06	8.6285e-06	319.74	130.81	103.04	49.467	8.5416e-06	65.756	177.365	129.424	-112.396	-112.436	49.594	76.424	-113.573	-106.662	71.272	9.133	-109.321	-105.099	-102.842	-96.552	137.825	-100.647	-8191	255	
1236.516	1	1	0	0	0.1617	0.11784	0.12643	0.19048	0.12432	0.33928	0.19762	0.23449	0.13011	0.18721	0.15176	0.21741	0.33714	0.22934	0.22439	0.19175	-2.2417	-2.0312	-2.3583	-2.4021	-2.1979	-2.4979	-2.3917	-2.3021	-2.5458	-2.25	-2.5792	-2.5708	-2.0708	-2.5687	-2.4396	-2.5375	175.967	159.016	207.119	110.618	-90.747	202.912	156.140	177.578	36.331	-79.673	-43.814	-114.447	-103.006	197.021	-123.613	119.783	0.00045	0.00057686	0.0002146	621.26	7.1773e-06	6.3735e-06	777.62	235.45	3.4158e-06	4.0043e-06	310.08	128.51	101.12	49.466	1.6386e-06	65.904	0.00078264	0.0007953	0.00022122	658.3	8.7637e-06	8.8639e-06	811.68	245.24	8.8257e-06	8.7761e-06	326.1	133.59	105.93	50.41	8.6857e-06	66.554	176.753	16.650	201.772	-112.736	32.903	-30.104	-113.745	-106.641	-59.158	49.802	-109.299	-105.377	-102.981	-96.459	157.170	-100.597	-8191	255	
1236.613	1	1	0	0	0.078198	0.033277	0.092295	0.13846	0.072084	0.12831	0.28279	0.24465	0.19064	0.22081	0.088177	0.17799	0.10596	0.12996	0.24583	0.086485	-2.2208	-2.1958	-2.3396	-2.7208	-2.0479	-2.6437	-2.5563	-2.4562	-2.4167	-2.2417	-2.4396	-2.5708	-2.1271	-2.6604	-2.2771	-2.3708	-98.824	133.597	-8.167	131.775	198.210	-35.267	163.303	180.328	-102.658	213.300	229.937	97.319	-108.653	21.723	91.886	56.749	0.00067347	0.00029455	0.00037502	627.62	6.1933e-06	3.9519e-06	781.9	237.85	7.7929e-06	6.6148e-06	315.82	131.77	103.18	50.914	3.8577e-06	67.488	0.00079334	0.00079646	0.00022354	666.07	8.8599e-06	8.8655e-06	814.03	248.18	8.9429e-06	9.0532e-06	331.64	136.6	108.11	51.982	8.9226e-06	68.445	172.634	-6.008	-97.994	-112.840	8.205	42.717	-113.828	-106.978	38.066	-45.518	-109.278	-105.267	-102.722	-97.031	-120.574	-100.634	-8191	255	
1236.733	1	1	0	0	0.18371	0.23922	0.27065	0.27354	0.10493	0.304	0.18761	0.39917	0.1994	0.061575	0.19317	0.17049	0.35106	0.085304	0.21784	0.1869	-1.925	-2.4729	-2.1625	-2.6146	-2.1271	-2.4	-2.3229	-2.2062	-2.475	-2.3875	-2.3438	-2.6125	-2.15	-2.5792	-2.3771	-2.3854	-82.205	116.706	5.753	-111.094	222.271	23.023	122.522	-109.241	123.556	231.090	126.136	150.825	-121.322	171.944	126.127	88.647	0.00052839	0.00027642	7.1083e-05	634.33	3.9491e-06	7.3561e-06	791.15	238.93	3.2038e-06	1.1839e-05	316.48	132.2	103.85	51.221	3.3884e-06	68.733	0.00080549	0.00080657	0.00022487	671.42	8.7764e-06	8.8423e-06	823.36	249.8	8.9191e-06	9.0031e-06	332.19	137.4	108.18	52.272	9.0589e-06	69.514	189.736	-45.024	200.560	-112.583	-51.143	78.049	-113.577	-107.027	115.465	39.072	-109.525	-105.200	-102.931	-96.633	154.265	-100.709	-8191	255	
1236.829	1	1	0	0	0.099711	0.12607	0.13998	0.3167	0.16158	0.23603	0.14723	0.35979	0.28579	0.12956	0.1754	0.085865	0.10373	0.17528	0.20494	0.38036	-2.0771	-2.4083	-2.0833	-2.7167	-2.0542	-2.2875	-2.5521	-2.0458	-2.5563	-2.2854	-2.2687	-2.6792	-2.4208	-2.4396	-2.6458	-2.2417	38.491	0.692	43.514	115.430	-82.175	-57.240	224.871	101.853	-88.255	-62.908	-22.299	202.187	122.610	-64.987	-35.930	190.410	0.00054644	0.00042857	0.00012094	625.91	4.0303e-06	1.2653e-06	778.43	233.92	5.5495e-06	4.3489e-06	310.02	127.98	99.976	49.326	3.6832e-06	65.938	0.00082095	0.000826	0.00022912	662.74	8.8671e-06	8.8275e-06	814.05	244.39	8.6889e-06	8.6933e-06	325.2	133.31	104.82	50.214	8.7066e-06	66.684	181.357	-111.143	0.440	-112.356	195.390	40.554	-113.458	-106.894	195.863	-7.620	-109.026	-105.268	-103.183	-96.602	209.634	-100.458	-8191	255	
1236.926	1	1	0	0	0.17571	0.17228	0.18784	0.04384	0.1097	0.22749	0.16501	0.2353	0.12978	0.14675	0.14527	0.24379	0.24945	0.17283	0.14753	0.30355	-1.9458	-2.2458	-2.1188	-2.5375	-2.3396	-2.2375	-2.5833	-2.2917	-2.4708	-2.4021	-2.1729	-2.7729	-2.3542	-2.4229	-2.4417	-2.325	213.446	55.984	51.988	73.085	-113.049	63.986	173.927	120.710	143.006	58.028	140.952	130.248	-67.474	214.984	205.657	-122.663	0.00046357	0.0010093	7.896e-05	613.13	2.0243e-06	5.2962e-06	768.42	228.31	4.9632e-06	2.2035e-06	302.15	125.41	97.874	48.027	2.4615e-06	64.141	0.00079832	0.0008	0.00022431	652.75	8.7696e-06	8.7962e-06	801.92	239.24	8.7685e-06	8.7974e-06	319.3	130.66	102.88	49.242	8.6505e-06	65.016	151.086	-12.128	-10.660	-112.713	178.314	-57.188	-113.629	-106.819	-47.834	19.044	-109.307	-105.036	-102.611	-96.797	-21.560	-100.787	-8191	255	
1237.044	1	1	0	0	0.056988	0.22696	0.126	0.17621	0.14833	0.23347	0.23325	0.41955	0.098711	0.12909	0.083032	0.21295	0.13491	0.2076	0.079817	0.2179	-1.9104	-2.425	-2.1542	-2.5875	-2.3229	-2.3917	-2.5625	-2.3	-2.3521	-2.475	-2.125	-2.5833	-2.5396	-2.1917	-2.5208	-2.4021	-88.486	144.924	-73.721	16.260	-39.700	165.245	-34.883	154.386	67.155	219.839	13.036	221.440	-50.482	221.805	51.930	-84.725	0.00039729	0.00041454	0.00025844	617.75	3.4614e-06	5.2307e-06	773.62	228.14	3.2488e-06	4.688e-06	306.53	125.88	98.11	48.331	6.1896e-06	64.544	0.00078533	0.00079111	0.00022092	654.45	8.5962e-06	8.6855e-06	805.59	238.94	8.7292e-06	8.7463e-06	321.66	131.15	103.16	49.502	8.9008e-06	65.838	186.243	-30.396	-46.271	-112.158	30.052	14.983	-113.186	-107.178	12.125	105.169	-109.128	-105.090	-103.070	-96.660	211.193	-100.764	-8191	255	
1237.116	1	1	0	0	0.27981	0.11531	0.10314	0.030108	0.23978	0.061431	0.25581	0.17393	0.11592	0.27513	0.34788	0.071252	0.26489	0.28491	0.25712	0.32454	-1.8813	-2.4813	-2.0146	-2.5229	-2.2	-2.0875	-2.6021	-2.2896	-2.4208	-2.6583	-2.2729	-2.4646	-2.4375	-2.1646	-2.7521	-2.2146	-103.456	-111.378	212.833	9.947	-20.796	223.589	159.332	228.404	201.009	194.951	138.984	142.869	191.455	-105.567	195.360	145.595	0.00043307	0.00045692	0.00014982	616.18	5.0026e-06	6.0518e-06	772.98	228.47	6.9382e-06	4.5145e-06	306.82	126.48	98.448	48.462	6.5432e-06	65.241	0.00080658	0.00081129	0.00022503	655.86	8.751e-06	8.7483e-06	810.15	239.78	8.703e-06	8.6663e-06	321.51	131.47	103.29	49.54	8.7942e-06	66.234	175.097	-61.132	233.994	-112.748	86.756	27.882	-113.505	-106.869	-51.951	-59.705	-108.931	-104.748	-103.144	-96.523	212.054	-100.142	-8191	255	
1237.214	1	1	0	0	0.30454	0.087023	0.24249	0.16923	0.19332	0.15207	0.17821	0.1141	0.091207	0.28866	0.34882	0.090239	0.36973	0.09847	0.30347	0.15523	-1.7708	-2.2625	-2.0938	-2.4896	-2.2875	-2.2667	-2.7021	-2.4271	-2.1937	-2.5667	-2.2104	-2.4854	-2.6146	-2.1896	-2.5	-2.4042	100.679	65.255	169.589	44.842	-96.049	5.872	211.450	180.556	164.754	-91.522	158.058	209.075	204.693	205.718	-81.623	136.539	0.00060107	0.0004717	0.00031382	612.21	7.4128e-06	5.7827e-06	777.53	229.64	4.2213e-06	4.3271e-06	305.89	126.94	98.409	48.223	7.7742e-06	63.871	0.00080501	0.0008166	0.00022683	655.81	8.921e-06	8.9691e-06	809.66	241.05	8.8903e-06	8.8322e-06	322.44	131.39	103.03	49.174	8.6842e-06	65.221	172.570	-76.916	118.558	-112.558	-84.680	75.851	-113.598	-106.800	156.493	77.139	-109.348	-105.009	-102.785	-96.781	7.537	-100.612	-8191	255	
1237.333	1	1	0	0	0.080346	0.087031	0.32878	0.12391	0.28523	0.27314	0.03175	0.26869	0.23849	0.20835	0.2159	0.4083	0.18757	0.14237	0.099496	0.04305	-1.5708	-2.6417	-2.2917	-2.5167	-2.475	-2.3	-2.5292	-2.5396	-2.2792	-2.4542	-2.3375	-2.4417	-2.6292	-2.1625	-2.4896	-2.4479	-44.682	-77.303	70.838	154.266	77.305	-82.939	5.732	180.218	139.683	-76.720	220.113	-99.330	171.326	-71.673	14.499	32.767	0.00053967	0.00067112	0.0001846	617.18	5.7506e-06	5.9801e-06	769.46	227.92	4.9051e-06	1.0134e-05	304.51	125.72	98.379	47.905	4.5593e-06	63.784	0.000789	0.00079593	0.00022143	655.58	8.6737e-06	8.6803e-06	803.51	238.5	8.8008e-06	8.7733e-06	320.05	130.47	102.65	48.995	8.6873e-06	64.783	165.693	-47.874	-112.128	-112.943	135.706	20.943	-113.637	-106.993	157.000	64.141	-109.318	-105.546	-102.752	-96.706	-6.950	-100.339	-8191	255	
1237.429	1	1	0	0	0.12081	0.094027	0.092498	0.093072	0.17341	0.093155	0.38045	0.22994	0.20828	0.34247	0.057341	0.29898	0.10596	0.24985	0.12705	0.17322	-1.6292	-2.4479	-2.2458	-2.3604	-2.7042	-2.1083	-2.5812	-2.3063	-2.2438	-2.525	-2.3667	-2.2521	-2.5333	-2.2708	-2.3646	-2.4229	69.164	57.025	-25.119	62.283	-11.947	-41.332	189.457	61.835	-14.656	223.958	30.112	205.266	218.591	140.582	131.338	185.862	0.00049349	0.00038077	6.8878e-05	616.48	3.3688e-06	1.2884e-06	775.86	226.93	4.4735e-06	5.8785e-06	304.09	125.46	97.991	48.183	2.2981e-06	63.839	0.00078626	0.00078054	0.00021722	655.32	8.5782e-06	8.506e-06	804.55	237.86	8.5916e-06	8.6095e-06	318.9	129.97	102.59	49.06	8.643e-06	64.814	170.829	200.051	-35.689	-112.723	167.583	98.759	-113.714	-106.612	53.384	139.270	-109.240	-105.256	-102.823	-96.452	100.286	-100.695	-8191	255	
1237.525	1	1	0	0	0.2279	0.035917	0.13052	0.20071	0.30146	0.16983	0.15558	0.2824	0.1088	0.11359	0.069583	0.18948	0.20545	0.11399	0.084998	0.1362	-1.7313	-2.4167	-2.2729	-2.4875	-2.5854	-2.2313	-2.4875	-2.4375	-2.125	-2.5042	-2.3229	-2.2854	-2.6771	-2.2958	-2.2542	-2.5521	207.465	-99.972	30.849	214.166	113.195	-87.103	216.992	-116.262	36.911	-23.039	178.192	142.965	-116.604	-43.954	-41.987	125.162	0.00059791	0.00063842	0.00018123	619.24	3.629e-06	1.0063e-06	774.59	227.59	5.3376e-06	5.2155e-06	304.33	124.95	98.066	47.284	5.6807e-06	63.169	0.00078668	0.00079277	0.00022076	656.38	8.5387e-06	8.546e-06	808.72	238.62	8.4974e-06	8.4856e-06	318.43	129.71	102.23	48.185	8.4846e-06	64.129	190.507	-0.620	233.608	-112.728	-55.878	-49.860	-113.689	-106.807	224.949	52.046	-109.458	-105.298	-102.854	-96.530	1.671	-100.374	-8191	255	
1237.646	1	1	0	0	0.067688	0.096131	0.12077	0.07349	0.04334	0.22338	0.17381	0.18776	0.088587	0.07946	0.15972	0.13021	0.10794	0.26352	0.11855	0.079442	-1.4792	-2.4875	-2.3729	-2.2917	-2.6625	-2.2208	-2.3292	-2.6792	-2.2479	-2.4854	-2.5812	-2.2167	-2.775	-2.2104	-2.4542	-2.6292	-28.073	-56.499	174.390	-101.168	21.554	-111.588	-110.755	215.229	15.216	42.830	184.429	125.282	201.021	177.877	72.346	207.310	0.0004214	0.00055438	0.00027607	620.73	1.2134e-06	8.5571e-06	776.58	231.69	3.0804e-06	3.3018e-06	308.23	127.44	99.103	48.875	7.3729e-06	64.784	0.00078542	0.00079226	0.00022234	658.96	8.8607e-06	8.8648e-06	809.85	242.49	8.8128e-06	8.8324e-06	324.73	132.47	104.23	49.942	8.7893e-06	65.952	183.542	-65.062	10.021	-112.582	-37.008	20.562	-113.552	-106.966	-42.928	-100.409	-109.233	-104.900	-102.654	-96.636	-8.441	-100.719	-8191	255	
1237.717	1	1	0	0	0.34556	0.23559	0.15313	0.017728	0.18638	0.25623	0.11139	0.15937	0.21177	0.1393	0.24065	0.13553	0.16755	0.068128	0.10692	0.20789	-1.6167	-2.4958	-2.3104	-2.2771	-2.6437	-2.2125	-2.3979	-2.7417	-1.9917	-2.4583	-2.4417	-2.2938	-2.8229	-2.5146	-2.3708	-2.5729	44.457	-52.156	141.180	118.574	134.284	-28.480	-123.171	-46.185	-9.599	140.810	-48.151	213.483	149.099	176.651	46.347	128.248	0.00037719	0.00075872	0.00024034	626.49	3.9968e-06	2.139e-06	784.82	232.37	7.2414e-06	1.8664e-06	309.46	128.61	100.05	48.62	2.3455e-06	64.942	0.00079541	0.00080557	0.00022354	664.68	8.7459e-06	8.728e-06	818.68	243.39	8.6923e-06	8.6764e-06	324.6	132.94	104.75	49.839	8.7285e-06	65.921	181.229	-67.192	-71.310	-112.848	162.290	102.500	-113.659	-106.712	-97.894	-76.444	-109.229	-105.007	-102.911	-96.592	-44.996	-100.805	-8191	255	
#DATA ENDS
