BOXY.EXE: ISS Imagent and Oximeter Data Acquisition Program Version 0.80
Ascii Record File

#ACQ INFORMATION
2  Detector Channels 
16  External MUX Channels 
1  Auxiliary Channels 
5000  Waveform (CCF) Frequency (Hz)
1  Waveforms Skipped 
30  Waveforms Averaged 
1  Cycles Averaged 
16  Acquisitions per Waveform 
10.0806  Updata Rate (Hz) 

#FILE INFORMATION
TRUE -- External MUX Channel results are PARSED.
FALSE -- AC DC and Phase are NOT grouped.
TRUE -- Companion Program Settings File CREATED.
FALSE -- AC data not excluded
FALSE -- DC data not excluded
FALSE -- Phase data not excluded
FALSE -- Auxillary Chn. data not excluded
Tab delimiters

#CALIBRATION STATE
TRUE -- Waveform Calibration Values APPLIED.


#AUX CALIBRATION VALUES
Val Type	aux-1	

Term	1.0000e+00	
Factor	0.0000e+00	


#WF CALIBRATION VALUES
A = Detector Channel
Val Type	A-AC1	A-AC2	A-AC3	A-AC4	A-AC5	A-AC6	A-AC7	A-AC8	A-AC9	A-AC10	A-AC11	A-AC12	A-AC13	A-AC14	A-AC15	A-AC16	A-DC1	A-DC2	A-DC3	A-DC4	A-DC5	A-DC6	A-DC7	A-DC8	A-DC9	A-DC10	A-DC11	A-DC12	A-DC13	A-DC14	A-DC15	A-DC16	A-Ph1	A-Ph2	A-Ph3	A-Ph4	A-Ph5	A-Ph6	A-Ph7	A-Ph8	A-Ph9	A-Ph10	A-Ph11	A-Ph12	A-Ph13	A-Ph14	A-Ph15	A-Ph16	

Term	0.00000e+00	0.00000e+00	0.00000e+00	0.00000e+00	0.00000e+00	0.00000e+00	0.00000e+00	0.00000e+00	0.00000e+00	0.00000e+00	0.00000e+00	0.00000e+00	0.00000e+00	0.00000e+00	0.00000e+00	0.00000e+00	0.00000e+00	0.00000e+00	0.00000e+00	0.00000e+00	0.00000e+00	0.00000e+00	0.00000e+00	0.00000e+00	0.00000e+00	0.00000e+00	0.00000e+00	0.00000e+00	0.00000e+00	0.00000e+00	0.00000e+00	0.00000e+00	0.00000e+00	0.00000e+00	0.00000e+00	0.00000e+00	0.00000e+00	0.00000e+00	0.00000e+00	0.00000e+00	0.00000e+00	0.00000e+00	0.00000e+00	0.00000e+00	0.00000e+00	0.00000e+00	0.00000e+00	0.00000e+00	
Factor	1.00000e+00	1.00000e+00	1.00000e+00	1.00000e+00	1.00000e+00	1.00000e+00	1.00000e+00	1.00000e+00	1.00000e+00	1.00000e+00	1.00000e+00	1.00000e+00	1.00000e+00	1.00000e+00	1.00000e+00	1.00000e+00	1.00000e+00	1.00000e+00	1.00000e+00	1.00000e+00	1.00000e+00	1.00000e+00	1.00000e+00	1.00000e+00	1.00000e+00	1.00000e+00	1.00000e+00	1.00000e+00	1.00000e+00	1.00000e+00	1.00000e+00	1.00000e+00	X	X	X	X	X	X	X	X	X	X	X	X	X	X	X	X	

B = Detector Channel
Val Type	B-AC1	B-AC2	B-AC3	B-AC4	B-AC5	B-AC6	B-AC7	B-AC8	B-AC9	B-AC10	B-AC11	B-AC12	B-AC13	B-AC14	B-AC15	B-AC16	B-DC1	B-DC2	B-DC3	B-DC4	B-DC5	B-DC6	B-DC7	B-DC8	B-DC9	B-DC10	B-DC11	B-DC12	B-DC13	B-DC14	B-DC15	B-DC16	B-Ph1	B-Ph2	B-Ph3	B-Ph4	B-Ph5	B-Ph6	B-Ph7	B-Ph8	B-Ph9	B-Ph10	B-Ph11	B-Ph12	B-Ph13	B-Ph14	B-Ph15	B-Ph16	

Term	0.00000e+00	0.00000e+00	0.00000e+00	0.00000e+00	0.00000e+00	0.00000e+00	0.00000e+00	0.00000e+00	0.00000e+00	0.00000e+00	0.00000e+00	0.00000e+00	0.00000e+00	0.00000e+00	0.00000e+00	0.00000e+00	0.00000e+00	0.00000e+00	0.00000e+00	0.00000e+00	0.00000e+00	0.00000e+00	0.00000e+00	0.00000e+00	0.00000e+00	0.00000e+00	0.00000e+00	0.00000e+00	0.00000e+00	0.00000e+00	0.00000e+00	0.00000e+00	-1.50301e+02	-1.43373e+02	-1.49792e+02	-1.82306e+02	-7.93885e+01	-7.58284e+01	-1.59027e+02	-1.62015e+02	-9.78180e+01	-8.34192e+01	-1.70563e+02	-1.71693e+02	-1.81003e+02	-1.76539e+02	-7.99657e+01	-1.49547e+02	
Factor	2.19586e-05	8.39436e-05	3.41424e-05	1.49821e-01	8.35295e-07	9.81461e-07	1.65141e-01	4.79080e-02	1.03987e-06	1.07697e-06	8.44516e-02	2.96454e-02	2.29630e-02	8.60919e-03	9.99734e-07	1.26421e-02	8.08318e-07	8.29617e-07	2.31217e-07	7.45948e-02	9.07046e-09	9.09328e-09	7.73629e-02	2.38309e-02	9.06268e-09	9.06799e-09	3.98886e-02	1.40138e-02	1.13350e-02	4.22160e-03	9.04165e-09	5.95415e-03	X	X	X	X	X	X	X	X	X	X	X	X	X	X	X	X	



#DISTANCE SETTINGS
A = Detector Channel
A-1	A-2	A-3	A-4	A-5	A-6	A-7	A-8	A-9	A-10	A-11	A-12	A-13	A-14	A-15	A-16	

2.5000e+00	3.0000e+00	2.5000e+00	3.0000e+00	2.0000e+00	3.0000e+00	1.5000e+00	3.0000e+00	3.0000e+00	3.0000e+00	3.0000e+00	3.0000e+00	3.0000e+00	3.0000e+00	1.5000e+00	3.0000e+00	

B = Detector Channel
B-1	B-2	B-3	B-4	B-5	B-6	B-7	B-8	B-9	B-10	B-11	B-12	B-13	B-14	B-15	B-16	

1.0000e+01	1.0000e+01	1.0000e+01	1.4400e+00	1.0000e+01	1.0000e+01	1.5100e+00	1.9400e+00	1.0000e+01	1.0000e+01	1.9900e+00	2.4900e+00	2.4100e+00	2.9000e+00	1.0000e+01	2.9800e+00	




#DATA BEGINS
time	group	step	mark	flag	A-AC1	A-AC2	A-AC3	A-AC4	A-AC5	A-AC6	A-AC7	A-AC8	A-AC9	A-AC10	A-AC11	A-AC12	A-AC13	A-AC14	A-AC15	A-AC16	A-DC1	A-DC2	A-DC3	A-DC4	A-DC5	A-DC6	A-DC7	A-DC8	A-DC9	A-DC10	A-DC11	A-DC12	A-DC13	A-DC14	A-DC15	A-DC16	A-Ph1	A-Ph2	A-Ph3	A-Ph4	A-Ph5	A-Ph6	A-Ph7	A-Ph8	A-Ph9	A-Ph10	A-Ph11	A-Ph12	A-Ph13	A-Ph14	A-Ph15	A-Ph16	B-AC1	B-AC2	B-AC3	B-AC4	B-AC5	B-AC6	B-AC7	B-AC8	B-AC9	B-AC10	B-AC11	B-AC12	B-AC13	B-AC14	B-AC15	B-AC16	B-DC1	B-DC2	B-DC3	B-DC4	B-DC5	B-DC6	B-DC7	B-DC8	B-DC9	B-DC10	B-DC11	B-DC12	B-DC13	B-DC14	B-DC15	B-DC16	B-Ph1	B-Ph2	B-Ph3	B-Ph4	B-Ph5	B-Ph6	B-Ph7	B-Ph8	B-Ph9	B-Ph10	B-Ph11	B-Ph12	B-Ph13	B-Ph14	B-Ph15	B-Ph16	aux-1	digaux	

1244.752	1	1	0	256	0.079109	0.13301	0.18688	0.10975	0.053105	0.17936	0.30798	0.41382	0.083636	0.17373	0.20015	0.027308	0.15095	0.11804	0.097509	0.2617	-2.1312	-2.2958	-2.4042	-2.5729	-2.3625	-2.3729	-2.7417	-2.2854	-2.7292	-2.2021	-2.5458	-2.6917	-2.2021	-2.5854	-2.2667	-2.2812	166.129	92.964	141.200	-82.101	110.057	-18.611	153.914	-118.856	162.086	-46.670	158.551	77.295	203.474	183.467	-44.886	174.685	0.00038346	0.00067722	0.00049497	530.56	3.8716e-06	8.0575e-06	674.58	198.41	3.2435e-07	6.244e-06	273.32	123.76	93.379	49.005	6.0584e-06	64.736	0.0011275	0.0011329	0.00031579	603.76	1.2329e-05	1.2318e-05	741.73	220.91	1.2349e-05	1.2344e-05	306.99	134.04	102.94	51.75	1.2313e-05	68.216	165.876	-119.560	5.179	-112.436	148.869	-1.424	-113.400	-106.477	192.830	-37.408	-109.330	-105.547	-102.962	-96.754	-12.806	-100.719	-8191	255	
1244.873	1	1	0	0	0.073899	0.12441	0.0075064	0.21396	0.18588	0.1778	0.23466	0.066398	0.18471	0.26323	0.24233	0.077464	0.16411	0.2094	0.21107	0.15438	-1.9896	-2.3292	-2.0375	-2.5396	-2.0604	-2.4167	-2.4708	-2.0625	-2.5979	-2.3229	-2.4313	-2.6646	-2.1854	-2.4271	-2.3708	-2.025	-76.631	-16.200	24.120	219.013	-36.556	29.919	170.959	-15.502	136.264	-71.943	-63.529	-20.706	179.891	172.307	-92.117	-116.633	0.00054129	0.0003487	0.00022429	526.41	4.8185e-06	4.1954e-06	669.65	196.66	6.1015e-06	3.7678e-06	273.88	122.91	91.967	48.602	3.8448e-06	64.725	0.0011206	0.0011289	0.0003181	598.63	1.2407e-05	1.242e-05	738.55	219.03	1.2355e-05	1.2339e-05	305.35	133.5	101.8	51.357	1.2284e-05	68.165	169.041	181.990	-71.222	-112.407	76.040	24.409	-113.119	-106.694	-6.945	58.107	-109.171	-105.696	-103.063	-96.900	-6.999	-101.107	-8191	255	
1244.969	1	1	0	0	0.091011	0.16959	0.15939	0.10567	0.083376	0.13473	0.21954	0.35655	0.11237	0.061752	0.52798	0.21451	0.11568	0.34594	0.18189	0.23697	-2.0542	-2.2167	-2.3375	-2.575	-2.2396	-2.2708	-2.6667	-2.2146	-2.5	-2.5521	-2.275	-2.7396	-2.5438	-2.4667	-2.4688	-2.1833	54.464	149.098	-49.569	54.688	233.223	5.889	214.626	142.727	60.361	166.662	152.524	222.956	106.583	221.610	54.221	179.605	0.00045313	0.00035976	0.00018908	524.12	2.525e-06	4.7837e-06	662.52	196.59	4.0776e-06	8.2035e-06	270.98	121.86	91.902	48.107	4.9941e-06	63.781	0.0011195	0.001134	0.00031765	597.63	1.2394e-05	1.2536e-05	734.76	219.06	1.2386e-05	1.2399e-05	303.96	132.48	101.62	50.975	1.2255e-05	67.297	159.270	-100.272	214.829	-112.162	-37.770	16.813	-113.583	-106.674	-110.850	83.849	-109.161	-105.402	-102.771	-96.836	205.196	-100.859	-8191	255	
1245.063	1	1	0	0	0.17092	0.2433	0.22617	0.09374	0.19209	0.12714	0.41108	0.22857	0.074996	0.080655	0.078727	0.094142	0.27609	0.36129	0.097837	0.26513	-2.0917	-2.3438	-2.1542	-2.6979	-2.3396	-2.4042	-2.5292	-2.15	-2.7729	-2.325	-2.2125	-2.7104	-2.3708	-2.4854	-2.5563	-2.3	120.746	122.476	198.643	235.006	17.697	107.740	186.211	-116.590	80.556	146.555	156.248	213.870	211.431	230.358	131.670	-69.527	0.00039947	0.00033907	0.00025359	523.3	3.4006e-06	7.5126e-06	657.22	195.38	5.7636e-06	1.9418e-06	269.48	121.88	92.071	48.138	9.8962e-06	63.771	0.0011063	0.0011233	0.00031327	594.19	1.2294e-05	1.2344e-05	729.03	217.22	1.2303e-05	1.232e-05	302.36	132.16	101.57	51.056	1.2352e-05	67.158	176.642	150.744	30.917	-111.874	217.128	197.800	-113.507	-106.739	-7.545	-65.614	-109.114	-105.305	-103.069	-96.708	31.490	-101.047	-8191	255	
1245.160	1	1	0	0	0.27093	0.20385	0.29821	0.15601	0.10278	0.31469	0.18428	0.14812	0.20176	0.21328	0.24561	0.19504	0.093722	0.25214	0.13091	0.039229	-1.875	-2.5021	-2.0583	-2.5729	-2.3625	-2.2438	-2.8104	-2.2562	-2.5417	-2.3958	-2.2292	-2.6042	-2.5062	-2.4146	-2.7604	-2.35	0.404	-6.690	17.793	4.472	-115.755	34.827	137.156	160.675	212.851	-23.575	170.394	156.892	201.969	156.315	117.226	43.238	0.00048319	0.00058544	0.00030182	522.62	5.0033e-06	9.7451e-06	659.22	194.08	6.8597e-06	7.752e-06	267.26	118.84	91.213	47.623	7.6301e-06	63.238	0.0011066	0.0011198	0.00031254	592.45	1.2239e-05	1.2213e-05	728.52	215.65	1.2295e-05	1.2275e-05	301.51	130.68	100.81	50.549	1.2308e-05	67	195.492	-37.208	-12.693	-112.363	19.116	-0.721	-113.284	-106.468	84.052	-4.091	-109.260	-105.621	-103.015	-97.038	-40.769	-100.872	-8191	255	
1245.280	1	1	0	0	0.24155	0.15898	0.25355	0.22087	0.094199	0.32632	0.044376	0.39183	0.36981	0.28677	0.2457	0.30656	0.072868	0.23496	0.027794	0.26164	-1.8604	-2.6188	-1.9896	-2.5896	-2.2667	-2.1729	-2.6479	-2.2771	-2.2604	-2.4521	-2.0604	-2.6104	-2.3854	-2.3771	-2.7417	-2.0938	199.851	37.783	-121.321	-102.724	232.408	-10.963	152.514	126.460	229.294	95.810	231.127	149.648	8.966	-8.828	-38.152	157.093	0.00029505	0.00037	0.00039633	515.63	2.4476e-06	8.9005e-06	659.56	195.31	8.2539e-06	6.8088e-06	267.9	119.1	90.867	47.689	7.9991e-06	63.287	0.0011207	0.0011409	0.00031799	591.36	1.25e-05	1.2433e-05	730.58	216.97	1.2385e-05	1.2279e-05	301.89	131.01	100.39	50.585	1.2295e-05	67.015	192.127	-62.479	-78.445	-112.423	-23.073	66.926	-113.419	-106.534	-81.566	-16.618	-108.944	-105.089	-103.059	-96.720	161.481	-100.923	-8191	255	
1245.352	1	1	0	0	0.13636	0.093158	0.11712	0.18581	0.033422	0.29902	0.069422	0.056671	0.16436	0.067629	0.11025	0.13471	0.20601	0.2292	0.1437	0.1901	-1.9833	-2.4313	-2.0271	-2.575	-2.5104	-2.0771	-2.4708	-2.2917	-2.1667	-2.6937	-2.3125	-2.3854	-2.6521	-2.1917	-2.5479	-2.5417	-92.917	-79.963	180.787	166.646	-106.934	-0.446	121.358	165.208	180.584	225.003	179.686	208.346	154.460	173.926	-102.128	198.923	0.00049456	0.00061459	8.0085e-06	516.52	3.2342e-06	8.0768e-06	657.35	195.35	1.0695e-05	9.4072e-06	267.85	120.32	90.669	47.881	4.5093e-06	62.909	0.0011164	0.0011385	0.00031811	589.57	1.243e-05	1.2471e-05	727.51	216.98	1.2367e-05	1.2417e-05	301.13	131.06	100.67	50.542	1.2273e-05	66.476	194.916	44.969	-28.508	-112.452	-65.125	-56.335	-113.029	-106.502	7.706	188.754	-108.824	-104.934	-103.102	-96.708	83.198	-100.980	-8191	255	
1245.448	1	1	0	0	0.25	0.17137	0.21254	0.16419	0.2186	0.14859	0.26894	0.17124	0.37073	0.30389	0.14473	0.17231	0.033674	0.12021	0.21843	0.3525	-1.5708	-2.3479	-2.3187	-2.4333	-2.7188	-2.1042	-2.4125	-2.4792	-2.1479	-2.7229	-2.225	-2.4958	-2.5396	-2.3021	-2.4729	-2.3792	202.270	-33.672	80.259	-45.810	90.630	-12.561	-86.157	209.417	14.645	46.648	199.081	-20.512	-82.528	171.457	85.921	220.083	0.00061485	0.00031778	0.0001118	513.66	6.6953e-06	5.8916e-06	644.82	191.72	7.5534e-06	4.7497e-06	262.44	118.18	90.211	47.36	9.6515e-06	62.769	0.00111	0.0011215	0.00031292	588.08	1.2256e-05	1.2318e-05	717.35	213.74	1.2214e-05	1.2273e-05	298.46	129.48	99.744	50.245	1.223e-05	66.46	193.771	-74.423	-32.669	-112.333	76.459	173.172	-113.896	-106.578	154.959	-33.569	-109.479	-105.265	-103.214	-96.640	-0.573	-100.691	-8191	255	
1245.569	1	1	0	0	0.080825	0.11492	0.20382	0.15869	0.16326	0.06681	0.1195	0.18112	0.25887	0.12077	0.30521	0.013186	0.17755	0.34306	0.17006	0.25212	-1.7021	-2.5333	-2.325	-2.4	-2.4542	-2.1146	-2.5438	-2.625	-2.2875	-2.7167	-2.3083	-2.3042	-2.9458	-2.175	-2.6083	-2.55	-40.317	41.003	-123.260	-83.601	230.409	-13.913	38.876	197.361	-73.375	-112.256	16.537	168.015	-115.306	-55.623	16.643	167.020	0.000387	0.00061066	0.00013468	513.03	5.0075e-06	1.3184e-05	648.08	192.94	5.1781e-06	9.6137e-06	265.31	119.61	90.078	47.6	1.3353e-05	63.531	0.00111	0.001124	0.00031325	584.45	1.226e-05	1.2368e-05	720.08	214.83	1.2151e-05	1.2199e-05	298.19	129.88	99.506	50.281	1.2193e-05	66.864	157.963	-61.311	164.237	-112.462	44.435	62.882	-113.176	-106.127	157.913	133.906	-108.984	-105.057	-102.954	-96.823	-66.601	-100.724	-8191	255	
1245.665	1	1	0	0	0.21752	0.08582	0.071558	0.23111	0.30273	0.027656	0.27962	0.20541	0.12015	0.16753	0.16483	0.27419	0.08705	0.13946	0.012911	0.17461	-1.5812	-2.4958	-2.1208	-2.4729	-2.4792	-2.175	-2.3854	-2.6792	-1.9312	-2.5125	-2.2604	-2.1688	-2.4896	-2.4208	-2.5021	-2.5708	131.771	136.669	53.570	181.792	192.641	-98.929	217.296	179.694	58.064	58.378	155.219	-90.174	181.101	145.711	-101.790	107.281	0.00037629	0.00054459	0.00020388	512.19	4.2845e-06	8.8498e-06	649.74	196.37	5.3978e-06	8.8686e-06	270.54	121.67	91.897	48.613	2.3887e-06	64.594	0.001105	0.0011191	0.00031488	585.48	1.2343e-05	1.2475e-05	722	217.85	1.2289e-05	1.233e-05	303.69	132.4	101.7	51.341	1.2183e-05	67.858	168.852	31.442	112.825	-112.145	59.270	39.104	-113.425	-106.734	33.720	-97.496	-109.126	-105.241	-102.571	-96.617	100.596	-100.996	-8191	255	
1245.761	1	1	0	0	0.056347	0.13206	0.43969	0.14936	0.30537	0.097537	0.14008	0.13119	0.1425	0.1408	0.24082	0.22726	0.13972	0.12143	0.14736	0.15502	-1.6979	-2.5062	-2.4729	-2.2042	-2.675	-2.4562	-2.4104	-2.5854	-2.1437	-2.4896	-2.5479	-2.2625	-2.7	-2.3438	-2.3292	-2.6437	46.613	38.751	63.015	-8.726	150.723	-120.520	124.590	155.218	-87.267	178.219	234.163	180.952	225.512	215.138	41.324	131.284	0.00025833	0.0007291	4.7032e-05	512.28	3.0746e-06	6.0048e-06	651.91	195.75	3.5829e-06	9.3605e-06	271.32	122.11	92.143	48.927	7.484e-06	64.513	0.0011069	0.0011197	0.0003129	584.82	1.2295e-05	1.2329e-05	722.61	217.77	1.2417e-05	1.2441e-05	304.38	132.83	101.81	51.509	1.2302e-05	67.774	168.277	-103.217	-1.051	-112.139	-103.639	118.621	-113.471	-106.559	-73.109	-35.598	-109.226	-105.448	-103.047	-96.460	5.431	-100.973	-8191	255	
1245.857	1	1	0	0	0.19901	0.11301	0.14638	0.042707	0.14257	0.094385	0.059931	0.312	0.16377	0.16333	0.20913	0.20608	0.38082	0.14861	0.095512	0.17319	-1.7896	-2.5792	-2.4729	-2.2458	-2.5104	-2.2417	-2.4	-2.6021	-2.1833	-2.3917	-2.5896	-2.3438	-2.6333	-2.2083	-2.0625	-2.8042	26.201	-93.551	144.327	-68.048	57.860	34.689	164.489	210.564	-95.061	136.076	103.513	212.991	-114.157	74.902	117.606	120.287	0.00054485	0.00014737	0.00025771	512.66	4.7499e-06	7.4327e-06	646.11	194.33	3.8954e-06	1.0074e-05	265.78	121.18	92.223	48.576	9.8338e-06	64.672	0.0011062	0.0011226	0.00031138	586.13	1.2087e-05	1.2245e-05	717.67	215.98	1.2239e-05	1.2245e-05	301.15	131.81	101.56	51.286	1.2236e-05	67.924	168.979	102.701	-48.662	-112.298	-37.416	155.559	-113.177	-106.487	-77.130	69.344	-109.193	-105.475	-103.263	-96.745	-38.537	-100.978	-8191	255	
1245.953	1	1	0	0	0.10255	0.13282	0.28774	0.23461	0.046434	0.089785	0.19704	0.12742	0.16035	0.097404	0.14384	0.24537	0.3168	0.10278	0.077256	0.20681	-1.4792	-2.3708	-2.3333	-2.2146	-2.2792	-2.3042	-2.1542	-2.5833	-2.0875	-2.525	-2.6688	-2.2646	-2.5833	-2.3896	-2.1354	-2.7854	3.281	-105.513	43.478	226.185	17.111	144.104	183.092	101.188	-60.369	87.115	151.304	188.293	-112.113	-78.159	-35.637	101.795	0.00055785	0.00046543	0.00041541	510.55	2.9659e-06	5.7779e-06	644.78	194.06	8.5734e-06	1.1636e-05	268.42	120.61	91.461	48.024	1.0379e-05	64.369	0.0011149	0.001128	0.00031518	584.4	1.2319e-05	1.2408e-05	715.88	216.08	1.2217e-05	1.2272e-05	302.25	131.55	101.16	50.976	1.2296e-05	67.449	162.572	-83.047	-76.686	-112.284	-48.773	162.953	-113.342	-106.672	-19.325	-13.021	-109.179	-105.396	-102.989	-96.713	28.687	-100.934	-8191	255	
1246.049	1	1	0	0	0.21056	0.21517	0.12959	0.35749	0.14233	0.07814	0.28307	0.15693	0.14781	0.10762	0.22853	0.1205	0.26225	0.088773	0.34151	0.27744	-1.8583	-2.4229	-2.3937	-2.2208	-2.5583	-2.3063	-2.3042	-2.7208	-2.3146	-2.2188	-2.6625	-2.1208	-2.4021	-2.4146	-2.2062	-2.5042	119.641	-115.410	-27.295	212.440	102.809	-97.004	71.109	55.007	166.272	166.916	-84.539	-109.814	201.035	208.664	58.532	203.716	0.00047495	0.0010892	0.00014635	511.53	3.3439e-06	7.2011e-06	648.17	193.86	7.705e-06	1.1792e-06	266.84	120.84	90.976	48.394	8.2796e-06	64.025	0.0011124	0.0011236	0.00031479	583.64	1.2338e-05	1.2414e-05	718.79	215.75	1.2296e-05	1.233e-05	301.86	131.44	100.78	50.935	1.2262e-05	67.39	166.217	-104.034	234.351	-112.546	216.262	80.031	-113.270	-106.603	53.443	221.490	-109.123	-105.278	-102.775	-96.877	-101.077	-100.768	-8191	255	
1246.168	1	1	0	0	0.0033837	0.21907	0.044024	0.16742	0.093242	0.070702	0.1571	0.24841	0.044869	0.099883	0.11779	0.25813	0.26408	0.14478	0.21229	0.020402	-2.0208	-2.1063	-2.5083	-2.1854	-2.3417	-2.6479	-2.1604	-2.7875	-2.3417	-2.3917	-2.7771	-2.05	-2.4792	-2.3896	-2.1417	-2.3187	87.558	183.390	199.127	-6.234	121.569	-97.314	-120.741	75.755	33.410	-74.824	100.990	-117.374	144.878	102.734	153.495	-119.953	0.00052116	0.00037538	9.2477e-05	506.71	4.1598e-06	1.2259e-05	645.55	191.11	1.3103e-05	6.0577e-06	265.52	119.44	89.828	47.175	9.2576e-06	63.349	0.0011096	0.0011218	0.00031419	581.86	1.2275e-05	1.2312e-05	716.75	213.28	1.231e-05	1.2287e-05	299.44	130.11	99.567	50.177	1.2227e-05	66.721	172.255	135.606	-90.120	-112.301	-50.058	91.090	-113.365	-106.589	-32.710	-26.899	-108.915	-105.380	-103.281	-96.504	17.768	-100.645	-8191	255	
1246.264	1	1	0	0	0.28822	0.24823	0.053656	0.32268	0.38116	0.09849	0.08539	0.41008	0.18293	0.14148	0.26315	0.25342	0.14487	0.40896	0.30683	0.20959	-1.6812	-2.1354	-2.4417	-2.2625	-2.3292	-2.5667	-2.1875	-2.4896	-2.4437	-2.1063	-2.7979	-2.2042	-2.525	-2.6771	-2.1896	-2.5667	-61.310	110.673	-77.168	176.882	106.609	72.104	-28.841	183.074	-115.780	53.601	-91.687	-90.602	-112.294	157.143	117.691	99.678	0.00046919	0.0010041	0.00011722	510.88	1.3943e-06	7.5802e-06	643.98	191.21	2.8975e-06	1.1328e-07	264.16	117.9	89.158	46.547	5.3008e-06	62.21	0.0011076	0.0011157	0.00031186	581.92	1.2162e-05	1.2186e-05	715.75	212.47	1.2142e-05	1.2169e-05	296.85	128.56	98.621	49.561	1.2099e-05	65.746	152.730	-79.134	137.746	-112.232	21.022	-54.278	-113.306	-106.794	223.382	177.545	-109.537	-105.057	-103.264	-96.800	34.558	-100.900	-8191	255	
1246.361	1	1	0	0	0.022186	0.072541	0.17841	0.34119	0.35164	0.29601	0.33364	0.17003	0.085204	0.0088566	0.31015	0.17583	0.27961	0.23602	0.05008	0.091792	-1.7667	-2.1104	-2.6604	-2.3	-2.2062	-2.6375	-2.0687	-2.5938	-2.5458	-2.0896	-2.6021	-2.2979	-2.1667	-2.5729	-2.2896	-2.6521	-79.106	221.348	-65.016	228.208	-123.878	96.939	140.302	47.571	230.316	208.900	123.095	174.802	-63.238	207.470	-45.143	108.204	0.00039799	0.0009527	0.0001971	510.1	4.8252e-06	3.9846e-06	644.4	190.72	3.7248e-06	2.9683e-06	261.82	117.19	89.034	46.732	2.6123e-06	62.758	0.0011022	0.0011176	0.00031132	580.49	1.2222e-05	1.2256e-05	714.05	212.4	1.2223e-05	1.2224e-05	295.92	128.42	98.715	49.743	1.2213e-05	65.873	176.064	7.200	-31.387	-112.080	36.640	-26.699	-113.293	-106.553	168.758	103.317	-109.255	-105.073	-102.693	-96.734	-68.823	-100.754	-8191	255	
1246.457	1	1	0	0	0.054649	0.06425	0.13759	0.14482	0.15276	0.12523	0.11736	0.42393	0.041858	0.074829	0.090936	0.15618	0.18024	0.16919	0.3888	0.33802	-1.8542	-2.1708	-2.5104	-2.3937	-2.1771	-2.5687	-2.1562	-2.575	-2.4417	-2.3896	-2.6021	-2.5396	-2.3479	-2.8229	-2.2458	-2.5396	91.173	12.163	193.749	-97.838	-119.131	179.902	141.083	192.637	-16.956	138.310	4.548	226.519	148.997	47.232	-107.855	172.523	0.00052809	0.00079614	9.8957e-05	506.44	1.7723e-06	8.2615e-06	641.53	191.21	4.2837e-06	6.9835e-06	262.15	118.47	89.774	47.069	1.1813e-05	62.944	0.0011056	0.0011192	0.00031251	579.25	1.2293e-05	1.2341e-05	712.22	212.88	1.2261e-05	1.2281e-05	296.53	128.75	99.133	49.939	1.2225e-05	66.355	186.369	205.052	214.812	-112.461	92.035	39.194	-113.597	-106.478	-22.829	-10.447	-109.215	-105.173	-102.829	-96.756	5.773	-100.717	-8191	255	
1246.577	1	1	0	0	0.30846	0.2578	0.06855	0.10335	0.21828	0.10848	0.13809	0.1839	0.144	0.21515	0.17235	0.14789	0.14245	0.15438	0.23345	0.17211	-1.9438	-2.2792	-2.3958	-2.45	-2.0479	-2.8354	-2.1875	-2.5812	-2.5062	-2.0667	-2.7562	-2.4646	-2.3729	-2.8104	-2.5292	-2.5625	168.179	-80.347	-96.569	4.801	154.193	-8.496	228.542	-84.521	-103.029	-96.701	220.663	137.232	138.744	217.159	66.348	150.153	0.00033926	0.00053405	6.4373e-05	509.25	6.9223e-06	5.1772e-06	643.22	190.86	5.6094e-06	3.9737e-06	264.62	118.38	89.218	47.01	7.4516e-06	63.142	0.0011102	0.0011231	0.00031388	581.33	1.2232e-05	1.2323e-05	715.2	213.3	1.2298e-05	1.2295e-05	298.29	129.36	98.905	49.982	1.23e-05	66.647	178.163	-18.670	-2.034	-112.305	-21.662	-12.221	-113.275	-106.709	-99.263	6.575	-108.825	-105.333	-103.169	-96.538	43.571	-100.793	-8191	255	
1246.649	1	1	0	0	0.094966	0.061034	0.13914	0.27104	0.15611	0.18902	0.27375	0.01673	0.39277	0.12995	0.17961	0.069485	0.23551	0.32484	0.20383	0.072021	-2.0354	-2.1667	-2.3	-2.8479	-2.1792	-2.6583	-2.5146	-2.4021	-2.6146	-2.1771	-2.5563	-2.6562	-2.3917	-2.6896	-2.5729	-2.5479	-62.721	-38.786	210.505	-108.834	24.794	204.286	106.918	-17.684	-21.088	225.971	194.050	-66.167	61.685	179.353	112.585	83.713	0.00044842	0.00062301	0.00017798	505.39	4.3405e-06	3.9843e-06	644.59	190.44	7.6716e-06	2.6751e-06	262.4	117.42	89.166	46.8	6.8201e-06	62.591	0.0011175	0.0011308	0.00031773	579.06	1.2339e-05	1.2365e-05	714.52	212.91	1.2365e-05	1.2241e-05	296.29	128.42	98.724	49.681	1.2175e-05	65.746	180.105	6.407	-6.713	-112.449	39.219	116.904	-113.221	-106.628	30.706	-42.936	-109.457	-105.371	-102.458	-97.003	5.663	-100.973	-8191	255	
1246.745	1	1	0	0	0.15833	0.13663	0.059143	0.045871	0.24597	0.071478	0.16596	0.45966	0.18324	0.25667	0.31651	0.20238	0.11872	0.3227	0.060763	0.052064	-2.0958	-2.2333	-2.3333	-2.4417	-2.2208	-2.5604	-2.475	-2.2021	-2.8	-2.3896	-2.4313	-2.5375	-2.2625	-2.6188	-2.3792	-2.6271	185.568	-89.535	-57.783	-120.177	138.704	81.683	234.561	203.325	-103.625	32.457	-95.099	-55.623	213.933	-105.175	-98.506	226.605	0.00059257	0.00075597	0.00016834	501.94	7.384e-06	1.6762e-06	637.45	189.93	7.9014e-06	6.9236e-07	260.76	117.9	89.432	47.313	9.6386e-06	63.232	0.0011011	0.0011148	0.00031336	575.89	1.227e-05	1.2354e-05	709	212.41	1.223e-05	1.2319e-05	296.63	129.06	99.417	50.162	1.2223e-05	66.514	176.690	-93.805	-15.297	-112.241	34.784	-116.330	-112.942	-106.582	3.213	216.752	-109.159	-105.246	-102.972	-96.561	214.837	-100.819	-8191	255	
1246.841	1	1	0	0	0.24468	0.06738	0.087108	0.28749	0.096621	0.090334	0.33776	0.34679	0.12026	0.12131	0.12863	0.16383	0.08085	0.3561	0.10342	0.12114	-2.175	-2.2646	-2.3417	-2.7708	-2.1312	-2.5354	-2.4792	-2.5104	-2.7771	-2.4771	-2.325	-2.6729	-2.2646	-2.5417	-2.525	-2.3917	202.483	135.026	-14.039	-70.061	131.112	-2.313	105.268	231.062	9.248	76.191	-98.780	84.957	63.697	190.340	-49.184	224.515	0.00049935	0.00051682	0.00016608	504.5	2.3216e-06	1.2443e-05	644.16	194.13	1.1726e-05	1.1155e-05	267.77	120.54	91.552	48.689	1.1048e-06	64.622	0.0011059	0.0011224	0.00031407	579.64	1.232e-05	1.2405e-05	713.31	215.93	1.2379e-05	1.2368e-05	302.21	131.45	101.28	51.242	1.228e-05	67.884	198.769	-46.678	145.507	-112.212	67.994	27.343	-113.415	-106.585	129.903	97.519	-109.285	-105.393	-103.383	-96.621	27.233	-100.852	-8191	255	
1246.937	1	1	0	0	0.28417	0.33927	0.15974	0.35663	0.064311	0.19877	0.044825	0.12435	0.17336	0.20331	0.25831	0.062678	0.10434	0.055225	0.12297	0.20194	-2.225	-2.3042	-2.45	-2.5396	-2.4021	-2.4688	-2.5938	-2.2812	-2.7396	-2.2667	-2.3417	-2.6875	-2.3896	-2.5104	-2.6771	-2.3958	-84.081	-97.655	-35.197	201.814	-91.418	54.333	-120.411	178.237	72.817	-114.376	234.792	144.732	-100.821	-24.468	99.940	152.894	0.00031065	0.00086798	0.00032606	508.21	2.1558e-06	1.1691e-05	647.3	194.81	5.9936e-06	7.9314e-06	269.75	122.04	92.399	48.955	5.2373e-06	65.098	0.0011174	0.0011352	0.00031563	582.19	1.2456e-05	1.2457e-05	717.46	217.4	1.2429e-05	1.2436e-05	304.48	133.02	102.25	51.716	1.2512e-05	68.569	171.852	169.227	-57.968	-112.381	52.061	100.905	-113.496	-106.521	214.514	116.806	-108.656	-105.220	-103.020	-96.729	3.616	-100.918	-8191	255	
1247.056	1	1	0	0	0.12847	0.2382	0.075	0.19373	0.21549	0.38097	0.20376	0.14262	0.13151	0.19381	0.16457	0.3024	0.14651	0.21943	0.28724	0.095304	-2.0938	-2.3792	-2.2042	-2.7396	-2.3958	-2.4208	-2.7687	-2.1688	-2.5625	-2.5292	-2.1771	-2.7292	-2.3771	-2.6042	-2.6708	-2.225	137.440	99.633	15.657	196.517	-105.154	158.810	167.671	137.628	140.439	0.960	153.350	173.477	-87.461	-42.188	182.994	106.601	0.00033348	0.00041426	0.00011206	512.44	8.248e-06	6.8733e-06	644.13	194.72	9.0818e-06	1.1019e-05	269.44	121.78	92.258	48.477	5.8909e-06	64.783	0.0011256	0.0011467	0.00031842	584.78	1.2522e-05	1.2507e-05	717.42	217.24	1.2469e-05	1.2455e-05	303.75	132.67	101.96	51.442	1.2497e-05	68.332	170.992	-39.553	-48.836	-112.486	-102.176	10.904	-113.530	-106.818	41.055	89.878	-108.956	-105.135	-102.921	-96.591	-66.813	-100.942	-8191	255	
1247.152	1	1	0	0	0.2034	0.32043	0.12401	0.15726	0.26888	0.3405	0.18816	0.12308	0.21555	0.12392	0.25249	0.21653	0.18413	0.17271	0.074618	0.03941	-2.0583	-2.5146	-2.2562	-2.7271	-2.3417	-2.3854	-2.7188	-2.2708	-2.4062	-2.6625	-2.2896	-2.8146	-2.5312	-2.3812	-2.8583	-2.3896	-63.242	199.685	111.334	173.332	-84.036	-68.681	64.306	137.042	78.222	152.169	209.961	225.736	167.995	203.908	21.517	45.440	0.00037991	0.00058992	6.3984e-05	508.54	6.1189e-06	1.1402e-06	644.81	195.43	6.4889e-06	6.4521e-06	266.67	119.89	91.166	48.014	4.0617e-06	63.337	0.0011266	0.001144	0.00031857	582.86	1.244e-05	1.2514e-05	715.8	217.65	1.2393e-05	1.2431e-05	302.24	131.22	101.01	50.961	1.2338e-05	67.101	212.007	-49.233	-57.280	-112.693	22.943	151.108	-113.457	-106.587	-1.289	11.624	-108.831	-105.392	-103.033	-97.078	-107.059	-101.013	-8191	255	
1247.249	1	1	0	0	0.16688	0.077657	0.25451	0.20249	0.27499	0.24741	0.21914	0.23418	0.23638	0.19265	0.14772	0.31365	0.079908	0.26269	0.032816	0.39473	-2.1375	-2.5729	-2.3812	-2.6021	-2.6125	-2.4437	-2.6146	-2.2396	-2.4104	-2.7354	-2.2271	-2.7542	-2.3812	-2.4833	-2.5187	-2.6562	76.890	43.234	-119.117	235.376	-38.259	-17.647	-35.535	212.458	-81.168	17.784	-61.288	-93.221	-55.149	171.930	214.967	224.713	0.00044705	0.0011891	0.00016448	506.07	5.8437e-06	5.5033e-06	641.57	191.8	1.1513e-05	2.3056e-06	264.8	118.9	90.188	47.619	4.5095e-06	63.455	0.0011195	0.0011423	0.00031781	580.19	1.2385e-05	1.2482e-05	712.74	214.64	1.242e-05	1.2365e-05	299.48	130.02	99.756	50.456	1.2398e-05	66.915	185.993	-68.789	69.468	-112.262	-102.914	-50.594	-113.221	-106.354	15.240	85.469	-109.281	-105.486	-103.255	-96.876	-113.785	-100.777	-8191	255	
1247.345	1	1	0	0	0.38487	0.14532	0.16017	0.15945	0.13393	0.13629	0.30731	0.086676	0.35253	0.35862	0.11679	0.12383	0.091879	0.071614	0.1875	0.10143	-2.025	-2.5417	-2.0812	-2.6188	-2.3688	-2.1958	-2.8396	-2.4417	-2.4271	-2.6854	-2.4833	-2.7313	-2.5438	-2.5417	-2.575	-2.4479	-91.340	167.372	235.054	42.280	-29.809	-99.877	-80.205	-86.146	15.856	49.311	66.371	161.275	28.704	-111.018	-56.210	230.110	0.00050691	0.00042733	0.00030395	503.95	8.8727e-07	8.1444e-06	640.74	193.15	1.0305e-05	1.0251e-05	265.57	119.35	90.509	47.771	8.9716e-06	63.812	0.0011202	0.001135	0.00031835	579.86	1.2391e-05	1.2514e-05	714.64	215.38	1.2426e-05	1.2444e-05	301.1	130.75	100.45	50.763	1.2403e-05	67.208	176.069	-61.053	-123.056	-112.531	-117.446	20.084	-113.381	-106.414	-17.563	10.322	-108.988	-105.472	-102.943	-96.871	47.358	-100.729	-8191	255	
1247.441	1	1	0	0	0.20228	0.16514	0.13153	0.36824	0.0896	0.15039	0.081226	0.12404	0.167	0.19684	0.16985	0.14245	0.10219	0.36433	0.21713	0.15327	-1.7917	-2.5458	-1.9979	-2.5958	-2.5875	-2.1937	-2.6625	-2.6333	-2.2396	-2.8937	-2.225	-2.5167	-2.5875	-2.3521	-2.5167	-2.4979	90.321	-30.946	-64.714	132.817	186.479	121.684	113.795	171.816	124.907	-55.917	220.327	-96.178	-90.924	-98.654	-121.424	150.946	0.00030349	9.4767e-05	0.00024473	504.57	6.1139e-06	8.0134e-06	643.73	193.28	4.9108e-06	8.1999e-06	268.12	120.43	90.381	47.808	8.2101e-06	63.434	0.0011176	0.0011422	0.00031777	580.4	1.2447e-05	1.2418e-05	717.74	215.47	1.2417e-05	1.25e-05	302.23	131.12	100.27	50.71	1.2349e-05	66.88	182.625	-59.460	-58.184	-112.187	-14.160	14.855	-113.367	-106.626	-53.814	-14.990	-108.994	-105.629	-103.106	-96.691	-81.014	-100.917	-8191	255	
1247.537	1	1	0	0	0.15572	0.1527	0.062862	0.17822	0.091893	0.18737	0.20054	0.17585	0.29835	0.12497	0.24904	0.13405	0.21707	0.15232	0.19538	0.11964	-1.7292	-2.7	-2.1646	-2.6208	-2.5	-2.2625	-2.7375	-2.5729	-2.3854	-2.7333	-2.325	-2.5187	-2.5521	-2.2458	-2.6937	-2.5417	-95.936	-114.459	131.292	-112.561	21.181	60.342	220.800	-118.887	-73.074	-122.137	75.308	30.550	186.383	-8.394	106.197	214.113	0.00062468	0.00064929	7.9916e-05	505.19	1.1754e-05	1.1068e-05	642.27	190.22	1.0683e-06	8.6352e-06	262.83	118.28	89.812	46.971	4.5917e-06	62.275	0.0011183	0.0011377	0.00031564	580.2	1.2422e-05	1.2431e-05	714.04	213.56	1.2376e-05	1.2483e-05	298.35	129.55	99.421	49.949	1.2321e-05	65.88	172.659	-12.187	193.652	-112.410	-48.925	-11.945	-113.225	-106.545	-116.103	-55.955	-109.216	-105.262	-103.035	-96.666	129.170	-100.791	-8191	255	
1247.658	1	1	0	0	0.081525	0.015389	0.067398	0.11547	0.14815	0.17187	0.20583	0.32276	0.06558	0.10913	0.19661	0.16285	0.10486	0.03279	0.18224	0.15789	-1.7896	-2.725	-2.1646	-2.5479	-2.6854	-2.2042	-2.5687	-2.6063	-2.1833	-2.7062	-2.4646	-2.3958	-2.575	-2.4958	-2.5292	-2.6292	87.812	-52.165	174.496	-112.681	34.540	198.076	128.739	179.866	-107.018	147.610	-74.664	219.976	-121.824	172.184	137.150	75.539	0.00031277	3.5117e-05	0.00023889	503.02	5.3163e-06	1.7831e-06	634.64	189.13	1.382e-06	3.7124e-06	260.34	117.04	88.39	46.803	3.7887e-06	62.33	0.0011151	0.0011289	0.00031489	577.11	1.2303e-05	1.2364e-05	706.54	210.92	1.2362e-05	1.2448e-05	295.76	128.18	98.668	49.762	1.2351e-05	65.888	166.359	-59.618	-65.848	-112.218	96.880	177.409	-113.167	-106.644	19.827	63.551	-109.228	-105.234	-103.185	-96.433	-42.050	-101.089	-8191	255	
1247.754	1	1	0	0	0.17295	0.21016	0.075539	0.37611	0.17427	0.25706	0.29456	0.14071	0.14719	0.28727	0.21345	0.34846	0.047111	0.2909	0.11311	0.24096	-1.8521	-2.4958	-2.4146	-2.4208	-2.8396	-2.2521	-2.7146	-2.5875	-2.3271	-2.625	-2.6521	-2.2083	-2.7479	-2.3875	-2.2687	-2.7354	-64.425	-32.375	-72.795	228.422	-30.547	130.417	226.383	204.105	90.963	-112.253	-30.533	-91.375	140.579	166.992	232.764	206.517	0.00025254	0.00041969	5.124e-05	498.06	1.0361e-06	6.9081e-06	636.88	189.83	9.7466e-06	5.5521e-06	263.28	117.42	88.532	47.057	8.0701e-06	62.251	0.0011213	0.0011353	0.00031762	576.08	1.2369e-05	1.242e-05	709.15	211.89	1.242e-05	1.2461e-05	296.52	128.57	98.715	49.887	1.2378e-05	65.981	176.294	205.082	-5.911	-112.241	46.287	61.414	-113.105	-106.408	107.423	43.500	-108.662	-105.422	-103.076	-96.532	-31.638	-100.836	-8191	255	
1247.850	1	1	0	0	0.247	0.19493	0.11196	0.14111	0.051187	0.24383	0.12616	0.23663	0.090742	0.087504	0.1015	0.19511	0.097579	0.17989	0.022278	0.055239	-1.5729	-2.5875	-2.3646	-2.3042	-2.6354	-2.4688	-2.4	-2.875	-2.0125	-2.5583	-2.4896	-2.2208	-2.8667	-2.3688	-2.5875	-2.7104	233.471	217.243	235.091	-99.090	117.725	113.376	143.726	159.561	56.682	74.411	141.733	-67.836	-109.602	-31.631	118.887	-31.410	0.00050042	0.00057876	0.0001801	504.49	2.844e-06	1.8004e-06	638.92	189.77	2.1751e-06	7.558e-06	262.23	117.65	89.087	46.878	4.6377e-06	62.485	0.0011184	0.0011329	0.00031644	579.6	1.2425e-05	1.2455e-05	711.79	212	1.2437e-05	1.2431e-05	296.76	128.51	98.822	49.765	1.2513e-05	66.15	168.020	194.287	91.935	-112.337	74.475	65.902	-113.805	-106.309	82.471	-32.242	-108.912	-105.076	-103.066	-96.692	123.965	-100.820	-8191	255	
1247.946	1	1	0	0	0.096268	0.12441	0.17438	0.26976	0.12162	0.11327	0.0021559	0.16689	0.16353	0.071525	0.044384	0.26531	0.14197	0.091832	0.25657	0.20448	-1.6271	-2.4833	-2.35	-2.3979	-2.6354	-2.2646	-2.4396	-2.7396	-2.2687	-2.5312	-2.6479	-2.1292	-2.6396	-2.4729	-2.3646	-2.9625	117.503	36.823	118.595	-109.668	54.252	-95.402	-93.700	-105.477	95.812	79.811	-27.057	95.810	143.849	158.088	104.094	213.043	0.00052103	0.00051785	0.0003663	504.76	5.7339e-06	8.2773e-06	639.66	190.7	1.0113e-05	8.4728e-06	263.59	117.26	88.764	46.692	1.0288e-05	62.329	0.0011334	0.0011501	0.00031983	582.08	1.2562e-05	1.2581e-05	715.03	213.57	1.2477e-05	1.2511e-05	296.88	128.42	98.5	49.47	1.2407e-05	65.72	174.224	50.946	31.085	-112.331	48.001	62.711	-113.679	-106.620	-31.573	-2.002	-109.451	-105.513	-102.700	-96.804	225.967	-101.022	-8191	255	
1248.041	1	1	0	0	0.12408	0.041374	0.12162	0.1976	0.18695	0.30015	0.1342	0.18129	0.21577	0.042071	0.094646	0.22314	0.31184	0.29437	0.17096	0.34892	-1.6625	-2.4521	-2.5083	-2.3021	-2.6354	-2.4062	-2.3896	-2.8354	-2.3521	-2.4542	-2.7042	-2.2271	-2.8271	-2.5625	-2.4	-2.8979	11.209	-51.670	41.766	135.991	-38.750	134.507	-116.427	178.962	165.734	44.477	-90.753	217.186	-113.445	208.011	-60.233	114.764	0.00033171	0.00061029	0.00017854	503	6.4169e-06	2.6352e-06	635.75	188.9	3.7079e-06	4.7629e-06	260.19	116.13	87.895	46.356	2.8558e-06	61.473	0.0011215	0.0011434	0.0003175	576.79	1.2451e-05	1.2508e-05	710.47	211.52	1.2469e-05	1.2508e-05	295.49	127.61	97.796	49.208	1.2342e-05	65.093	163.864	-103.347	-15.163	-112.306	-10.700	106.589	-113.261	-106.357	9.793	15.041	-108.622	-105.292	-103.029	-96.754	71.743	-100.580	-8191	255	
1248.137	1	1	0	0	0.10792	0.25622	0.12933	0.14616	0.32693	0.22534	0.1141	0.25039	0.11886	0.25428	0.23626	0.22425	0.19864	0.16105	0.16892	0.20564	-1.8896	-2.3438	-2.775	-2.2417	-2.7292	-2.5	-2.4292	-2.6542	-2.4896	-2.4979	-2.8104	-2.3771	-2.625	-2.5187	-2.1437	-2.6875	-88.931	-29.801	123.996	-77.075	116.379	-88.030	76.033	215.351	155.037	-8.807	208.869	158.462	106.975	140.654	148.332	169.774	0.00059487	0.00052187	0.00018257	499.98	4.3299e-06	1.995e-06	639.05	188.18	6.3263e-06	4.6535e-06	262.05	116.68	87.794	46.307	8.1694e-06	61.826	0.0011182	0.0011352	0.00031719	575.99	1.2481e-05	1.2434e-05	710.12	211.56	1.2506e-05	1.2506e-05	297.08	128.34	98.058	49.408	1.2409e-05	65.696	180.940	-53.029	-1.129	-112.297	-49.770	31.366	-113.363	-106.423	233.942	-29.807	-109.161	-104.873	-102.934	-96.725	94.136	-100.946	-8191	255	
1248.235	1	1	0	0	0.24044	0.24496	0.30285	0.24419	0.14689	0.065973	0.10114	0.090052	0.1145	0.29489	0.1131	0.2117	0.11102	0.26313	0.26308	0.16567	-1.8625	-2.4062	-2.7771	-2.1875	-2.6333	-2.6063	-2.2417	-2.6917	-2.2896	-2.3354	-2.8229	-2.3771	-2.6125	-2.7333	-2.2833	-2.7417	17.242	94.003	103.117	70.740	-77.785	-65.083	94.311	218.119	137.888	-9.509	143.984	188.515	-15.273	200.308	101.665	161.521	0.00034514	5.9976e-05	0.00025555	499.53	9.636e-06	4.7681e-06	635.62	190.54	9.6177e-06	2.8137e-06	262.52	118.42	89.307	47.134	2.14e-06	63.051	0.0011266	0.001142	0.0003204	575.38	1.2492e-05	1.2578e-05	711.23	212.82	1.2601e-05	1.2538e-05	299.27	129.77	99.278	50.071	1.2513e-05	66.612	182.940	134.733	-96.269	-112.421	-74.064	-12.339	-113.544	-106.812	-33.220	171.970	-108.963	-105.269	-103.325	-96.800	227.222	-100.706	-8191	255	
1248.353	1	1	0	0	0.13961	0.21458	0.092013	0.26277	0.091494	0.29732	0.15264	0.13654	0.32449	0.15158	0.26051	0.23659	0.068788	0.30267	0.11245	0.43392	-2.0146	-2.2188	-2.6333	-2.5021	-2.5104	-2.6146	-2.4458	-2.6583	-2.6667	-2.4	-2.7042	-2.5417	-2.4625	-2.725	-2.2917	-2.675	-57.779	209.094	12.876	94.996	-101.795	163.271	233.089	-101.869	192.756	47.558	137.063	-121.493	197.975	-108.971	16.111	160.634	0.00043421	0.00034949	0.00017075	503.04	7.4116e-06	5.5151e-06	640.98	191.07	1.0192e-05	1.2897e-06	265.32	119.5	90.635	47.476	3.3838e-06	63.656	0.0011286	0.0011496	0.00032075	578.12	1.261e-05	1.2612e-05	715.74	214.62	1.2613e-05	1.2624e-05	301.45	130.94	100.38	50.564	1.2588e-05	67.17	193.880	73.310	-18.709	-112.298	-21.246	6.965	-113.575	-106.371	-112.577	-42.398	-109.173	-105.288	-103.115	-96.691	-26.332	-100.625	-8191	255	
1248.450	1	1	0	0	0.14679	0.131	0.31957	0.099278	0.092742	0.12398	0.14849	0.18086	0.33095	0.11859	0.30207	0.1994	0.066779	0.097185	0.13327	0.15771	-2.0458	-2.2708	-2.6604	-2.3833	-2.4708	-2.6104	-2.4375	-2.6333	-2.4917	-2.2188	-2.6146	-2.5146	-2.5625	-2.8667	-2.3812	-2.625	203.954	72.979	181.184	151.994	155.323	-38.758	187.187	155.103	230.721	234.269	172.539	225.526	-40.930	-60.796	-17.413	-74.926	0.00038678	0.000302	0.00027631	500.07	5.8908e-06	4.931e-06	637.94	190.73	1.1874e-05	4.934e-06	263.99	118.31	89.906	47.326	5.5791e-06	62.658	0.001139	0.0011469	0.00031875	577.24	1.251e-05	1.2568e-05	712.4	214.21	1.2505e-05	1.2497e-05	299.31	129.73	99.728	50.249	1.2499e-05	66.419	165.241	112.794	-65.903	-112.544	65.177	117.246	-113.286	-106.696	-107.615	-101.609	-109.009	-105.221	-103.180	-96.843	-1.133	-100.883	-8191	255	
1248.521	1	1	0	0	0.21886	0.059486	0.1402	0.29226	0.21933	0.25175	0.32139	0.16382	0.048478	0.13332	0.12416	0.052464	0.12334	0.33661	0.1311	0.11577	-2.15	-2.2708	-2.575	-2.6125	-2.4417	-2.7188	-2.3375	-2.6688	-2.6042	-2.1875	-2.6542	-2.5271	-2.2812	-2.9396	-2.425	-2.6542	31.741	-109.660	25.651	-98.262	78.486	180.102	234.529	80.245	-69.591	100.956	137.255	-84.989	220.753	-108.438	19.928	233.809	0.00037105	0.00060887	0.00027161	503.06	4.6116e-06	9.0101e-06	639.72	190.81	4.7502e-06	5.4693e-06	263.38	118.92	90.159	47.587	4.5386e-06	63.2	0.0011265	0.0011464	0.00031842	579.98	1.2529e-05	1.2478e-05	712.89	213.75	1.2482e-05	1.2593e-05	299.32	129.94	100.23	50.551	1.2452e-05	66.863	157.955	-51.877	-66.696	-112.793	16.197	-21.083	-113.134	-106.547	20.475	-35.791	-109.120	-105.692	-103.030	-96.992	6.976	-101.101	-8191	255	
1248.617	1	1	0	0	0.099726	0.28499	0.14556	0.31733	0.20052	0.20153	0.15098	0.01764	0.11961	0.22422	0.21241	0.035259	0.038034	0.16504	0.16375	0.2914	-2.1958	-2.2271	-2.5042	-2.6562	-2.3021	-2.3771	-2.3875	-2.1437	-2.7292	-2.1229	-2.6958	-2.6021	-2.2958	-2.625	-2.4229	-2.525	-25.565	-43.790	55.251	206.774	35.062	-39.507	186.003	110.097	20.642	82.636	170.198	5.435	137.017	132.948	-55.433	184.036	0.00063355	0.00037442	0.00053433	508.12	1.2476e-06	1.3892e-05	642.94	190.94	9.1564e-06	1.0576e-05	263.97	118.99	89.372	47.18	5.954e-06	62.835	0.0011296	0.0011504	0.00032156	583.3	1.2511e-05	1.2598e-05	715.25	214.35	1.253e-05	1.2613e-05	300.09	129.93	99.81	50.237	1.2506e-05	66.556	190.245	-44.800	-22.613	-112.836	-75.765	23.337	-113.133	-106.397	35.291	47.226	-108.980	-105.229	-102.904	-96.682	47.839	-100.896	-8191	255	
1248.738	1	1	0	0	0.27693	0.20004	0.20831	0.13895	0.13038	0.048396	0.18588	0.30509	0.026994	0.14986	0.10573	0.14781	0.52383	0.27131	0.29568	0.45724	-2.2146	-2.1437	-2.3354	-2.7771	-2.125	-2.6396	-2.5958	-2.5708	-2.6021	-2.4792	-2.6604	-2.6542	-2.3479	-2.5292	-2.5958	-2.3854	-45.873	154.091	3.539	-112.562	54.937	111.299	142.339	163.462	-98.229	187.406	58.094	56.493	-111.973	-97.860	219.879	189.265	0.00056192	0.00053716	7.4264e-05	506.09	4.7515e-06	5.2865e-06	642.76	189.55	1.3306e-06	3.1691e-06	262.53	116.4	88.224	46.573	1.3614e-05	61.911	0.0011332	0.001154	0.00032269	581.05	1.2598e-05	1.2637e-05	716.07	213.11	1.2564e-05	1.2604e-05	298.48	128.38	98.436	49.602	1.2591e-05	65.876	188.729	-3.623	46.753	-112.535	31.389	160.903	-113.388	-106.493	-121.130	31.603	-108.787	-105.011	-103.160	-96.679	-8.405	-100.364	-8191	255	
1248.834	1	1	0	0	0.088097	0.13326	0.093318	0.11704	0.096749	0.05744	0.14951	0.029765	0.31449	0.28205	0.1868	0.31887	0.21386	0.19732	0.24473	0.34862	-2.15	-2.4917	-2.2646	-2.8271	-2.1875	-2.6667	-2.4854	-2.2333	-2.7104	-2.3583	-2.525	-2.6292	-2.35	-2.6104	-2.4625	-2.475	47.279	171.184	130.749	-123.314	128.239	43.676	190.261	117.650	176.198	183.688	103.867	176.364	73.293	-94.436	95.886	188.963	0.00025867	0.0011214	0.00010885	499.17	3.0314e-06	2.667e-06	641.46	189.02	3.0079e-06	8.4321e-06	261.46	115.88	88.031	46.255	4.0367e-06	61.589	0.0011372	0.0011632	0.0003229	578.49	1.2678e-05	1.2688e-05	713.19	212.68	1.2568e-05	1.2596e-05	297.75	127.86	98.251	49.273	1.2549e-05	65.262	146.778	-30.221	-116.262	-112.675	46.544	-21.604	-113.364	-106.269	-7.229	-5.260	-108.690	-105.127	-103.021	-96.409	-2.426	-100.759	-8191	255	
1248.930	1	1	0	0	0.16841	0.10599	0.19141	0.16804	0.13676	0.18757	0.048211	0.06206	0.32125	0.21942	0.33387	0.19969	0.20194	0.12528	0.10177	0.33303	-2.3104	-2.4813	-2.3604	-2.7708	-2.2188	-2.5521	-2.6833	-2.2042	-2.7729	-2.55	-2.4938	-2.7104	-2.425	-2.4813	-2.5792	-2.2292	11.718	15.774	69.613	41.901	21.307	113.155	48.667	160.902	123.039	-5.989	183.065	140.125	-57.527	100.195	-92.383	184.403	0.00047012	0.0006258	0.00020827	498.09	8.7523e-06	4.4089e-06	634.79	187.79	8.4325e-06	6.2484e-06	260.91	116.45	88.676	46.328	7.6168e-07	61.612	0.0011381	0.0011565	0.00032173	577.36	1.2656e-05	1.2633e-05	709.26	211.61	1.2609e-05	1.2575e-05	296.89	127.75	98.769	49.403	1.246e-05	65.361	162.461	-91.841	37.306	-112.361	-95.164	-107.331	-113.172	-106.518	-104.246	-89.833	-109.517	-105.257	-102.820	-96.698	-116.794	-101.074	-8191	255	
1249.049	1	1	0	0	0.20351	0.14602	0.3317	0.057093	0.20571	0.15355	0.33215	0.28137	0.22895	0.076823	0.13352	0.15682	0.31281	0.18124	0.10551	0.21998	-2.2021	-2.5521	-2.3688	-2.85	-2.1042	-2.3833	-2.6771	-2.1604	-2.7896	-2.3021	-2.2938	-2.7521	-2.5	-2.4292	-2.5896	-2.3604	210.205	-14.207	192.393	52.349	-45.995	122.878	166.077	194.643	180.385	-81.603	-12.385	159.904	227.375	-120.818	179.317	156.505	0.00038694	0.00023424	0.00029906	504.05	4.0568e-06	9.8315e-06	637.56	188.83	1.04e-05	6.9248e-06	261.53	116.75	88.714	46.323	8.3174e-06	61.239	0.001133	0.001155	0.00032175	577.05	1.2638e-05	1.2743e-05	708.93	212.06	1.2594e-05	1.2614e-05	297.22	127.62	98.562	49.404	1.2475e-05	65.211	187.726	-72.048	9.858	-112.264	99.099	-76.305	-113.511	-106.819	-26.865	-10.098	-109.095	-105.310	-102.788	-96.427	28.172	-100.930	-8191	255	
1249.123	1	1	0	0	0.079643	0.31987	0.23878	0.16884	0.11457	0.13922	0.026984	0.19415	0.25853	0.20327	0.10572	0.15881	0.19466	0.11131	0.29391	0.26151	-2.1375	-2.5187	-2.2396	-2.6188	-2.4062	-2.4062	-2.6375	-2.2875	-2.7583	-2.6	-2.2458	-2.6854	-2.4021	-2.5938	-2.5083	-2.3271	183.063	220.101	-26.818	-48.642	90.406	96.920	189.851	81.731	-37.828	109.000	-51.542	-90.725	123.932	-111.174	-15.644	219.223	0.00046308	0.00038038	0.00029923	499.91	9.2076e-06	2.4939e-06	637.73	188	3.1554e-06	5.9522e-06	262.43	116.72	88.401	46.343	5.1672e-06	61.536	0.0011323	0.001143	0.00032022	577.66	1.2508e-05	1.2608e-05	710.88	211.66	1.2576e-05	1.2658e-05	297.9	128.06	98.774	49.473	1.26e-05	65.395	193.958	168.258	-87.873	-112.175	111.814	185.429	-113.245	-106.285	196.406	158.090	-108.530	-105.301	-103.142	-96.677	-71.296	-100.769	-8191	255	
1249.219	1	1	0	0	0.18837	0.17447	0.072016	0.17662	0.12351	0.2611	0.25509	0.14776	0.051416	0.093368	0.23331	0.17161	0.23956	0.15427	0.11369	0.33788	-2.3125	-2.2708	-2.3688	-2.6104	-2.3917	-2.1417	-2.8229	-2.2542	-2.275	-2.5687	-2.1896	-2.7521	-2.5667	-2.2917	-2.8	-2.5229	-82.743	143.237	58.543	151.199	48.013	-108.787	151.473	162.205	19.322	155.142	191.448	-101.512	172.689	-24.887	199.561	154.415	0.000412	0.00032614	9.4956e-05	497.73	4.4651e-06	3.8342e-06	636.02	186.29	8.6507e-06	1.3528e-05	261.71	116.81	88.19	46.308	7.6186e-06	61.223	0.0011327	0.0011495	0.00032009	578.09	1.2527e-05	1.2538e-05	711.96	210.44	1.2585e-05	1.2576e-05	296.28	127.28	98.362	49.162	1.2515e-05	65.051	159.669	88.561	-62.126	-112.454	39.851	-101.636	-113.437	-106.502	-43.254	-11.776	-108.699	-105.071	-103.192	-96.506	117.247	-100.623	-8191	255	
1249.338	1	1	0	0	0.17444	0.12377	0.19675	0.44447	0.065085	0.13099	0.067762	0.06465	0.11054	0.13174	0.24108	0.15716	0.052846	0.22667	0.35384	0.28588	-1.7208	-2.4854	-2.0187	-2.7125	-2.5229	-2.1979	-2.6	-2.3438	-2.4083	-2.6479	-2.3292	-2.7083	-2.3854	-2.5333	-2.3896	-2.6896	-31.312	131.006	91.210	161.115	111.942	101.505	228.627	173.595	-69.535	7.970	206.550	208.913	213.576	-120.945	-48.168	209.118	0.00048389	0.0012066	0.00014572	504.78	8.6819e-06	4.1095e-06	633.22	187.22	4.3756e-06	9.1525e-06	257.04	114.16	85.892	45.347	5.6094e-06	60.351	0.0011379	0.0011484	0.00032137	578.97	1.2517e-05	1.2625e-05	708.49	210.04	1.252e-05	1.2525e-05	293.34	125.68	96.358	48.44	1.262e-05	64.318	190.599	-52.816	-48.152	-112.190	-101.773	39.848	-112.941	-106.699	118.751	90.227	-109.179	-105.555	-102.634	-96.375	-35.163	-100.857	-8191	255	
1249.434	1	1	0	0	0.10666	0.19465	0.05908	0.14734	0.13174	0.19166	0.30803	0.14561	0.24182	0.096015	0.2215	0.016022	0.37481	0.23517	0.24068	0.25964	-1.7542	-2.7521	-2.2396	-2.4313	-2.4813	-2.1021	-2.8021	-2.3563	-2.4729	-2.6604	-2.1354	-2.5521	-2.4625	-2.1688	-2.4917	-2.5208	106.484	210.759	220.970	-93.129	5.204	-63.384	235.106	-106.290	-84.282	128.920	-71.150	-121.230	170.307	-104.909	-55.625	213.497	0.00052501	0.00067034	0.00028381	502.83	6.7436e-06	1.1059e-05	638.67	185.77	8.0192e-06	3.1229e-06	258.31	114.18	86.335	45.096	9.4533e-06	60.532	0.0011337	0.0011536	0.00032012	576.7	1.2536e-05	1.255e-05	709.82	209.87	1.2432e-05	1.2498e-05	293.91	125.56	96.426	48.208	1.2451e-05	64.338	165.714	24.490	135.037	-112.070	45.872	56.644	-113.572	-106.292	-98.289	95.864	-108.444	-105.136	-103.010	-96.389	-62.947	-100.828	-8191	255	
1249.530	1	1	0	0	0.071294	0.11862	0.16836	0.14515	0.046646	0.23186	0.14308	0.16623	0.08238	0.18994	0.30122	0.22709	0.12273	0.062478	0.13167	0.18014	-1.6667	-2.7292	-2.3875	-2.3521	-2.5167	-2.2604	-2.7604	-2.5896	-2.2417	-2.9167	-2.325	-2.4458	-2.7083	-2.15	-2.5854	-2.5271	21.847	-18.316	-44.835	142.676	69.911	140.198	206.842	147.148	101.842	189.167	182.538	-76.677	-96.298	215.482	-16.370	181.780	0.00048153	0.0005136	0.00021143	498.62	5.4342e-06	6.3997e-06	637.8	186.28	7.0229e-06	1.0014e-05	259.04	115.75	87.277	45.645	1.3899e-06	61.39	0.0011262	0.0011467	0.00031904	573.72	1.2563e-05	1.2663e-05	710.77	210.68	1.2507e-05	1.2531e-05	295.12	126.96	97.217	48.668	1.2527e-05	64.987	193.681	234.734	61.841	-112.173	-73.057	114.041	-113.724	-106.419	35.064	-39.056	-109.081	-105.268	-102.933	-96.436	-94.610	-100.823	-8191	255	
1249.651	1	1	0	0	0.16818	0.032643	0.11015	0.16315	0.39908	0.071852	0.048178	0.075385	0.18933	0.12347	0.29488	0.15562	0.049713	0.066024	0.085958	0.18415	-1.6646	-2.7146	-2.4333	-2.4583	-2.45	-2.3354	-2.5812	-2.6104	-2.2542	-2.7062	-2.4229	-2.4271	-2.7375	-2.4625	-2.4083	-2.7333	212.102	220.046	162.467	117.030	202.853	31.820	-19.035	30.153	-91.239	-58.819	184.244	52.739	138.395	-56.367	-81.304	210.987	0.00056554	0.0003552	0.00021493	501.84	9.9361e-06	4.0178e-06	637.71	187.38	9.3897e-06	6.7584e-06	259.89	116.64	87.114	45.75	1.2005e-06	61.109	0.0011357	0.0011454	0.00032311	575.52	1.2585e-05	1.2605e-05	710.61	211.15	1.2652e-05	1.2597e-05	296.69	127.68	97.528	48.89	1.2575e-05	64.924	182.444	185.485	-60.120	-112.615	87.278	45.375	-112.834	-106.637	-79.476	120.907	-109.094	-105.101	-103.234	-96.733	41.586	-100.908	-8191	255	
1249.747	1	1	0	0	0.14921	0.31875	0.072212	0.2332	0.092108	0.074271	0.28717	0.15255	0.30482	0.11019	0.092683	0.17253	0.22676	0.038075	0.06618	0.11976	-1.7563	-2.5958	-2.4604	-2.3375	-2.7313	-2.3688	-2.7396	-2.6729	-2.1958	-2.6583	-2.3688	-2.4313	-2.6958	-2.3688	-2.2583	-2.6729	83.744	-45.610	161.674	219.362	235.331	182.467	-79.205	132.381	-3.581	37.548	136.350	202.595	171.023	164.295	136.815	-4.633	0.00058924	0.00055484	0.00017138	496.92	3.7048e-06	5.3849e-06	638.38	185.75	1.3905e-05	8.9114e-06	258.77	115.11	86.833	45.429	5.9779e-06	60.71	0.001139	0.0011497	0.00032017	575.48	1.2557e-05	1.263e-05	708.72	209.87	1.2545e-05	1.2513e-05	294.72	126.54	97.167	48.642	1.2578e-05	64.637	176.312	55.984	72.725	-112.552	-59.504	71.183	-113.322	-106.473	-115.042	-15.630	-109.129	-105.058	-102.843	-96.426	199.495	-100.993	-8191	255	
1249.818	1	1	0	0	0.080427	0.18013	0.18617	0.27941	0.09301	0.032037	0.20221	0.20284	0.28685	0.18111	0.15074	0.11728	0.08061	0.34033	0.09316	0.44529	-1.8604	-2.6333	-2.5083	-2.3583	-2.7062	-2.5021	-2.5167	-2.6333	-2.2104	-2.5667	-2.3729	-2.4208	-2.7292	-2.4042	-2.5354	-2.6917	159.321	132.009	159.951	221.231	184.617	51.936	-77.845	216.384	216.382	46.517	121.010	207.595	117.718	232.111	-34.334	169.526	0.00028866	0.00060233	0.00025529	494.93	4.0687e-06	5.2533e-06	633.6	187.04	1.7787e-06	4.5877e-06	258.09	115.16	87.368	45.809	1.1748e-05	60.809	0.0011302	0.0011512	0.00032009	573.79	1.2572e-05	1.2598e-05	706.34	209.9	1.2588e-05	1.255e-05	294.86	126.57	97.372	48.938	1.253e-05	64.571	189.529	-53.161	-59.585	-112.515	89.813	59.896	-113.237	-106.416	21.111	16.689	-108.943	-104.948	-103.156	-96.921	-61.040	-100.815	-8191	255	
1249.915	1	1	0	0	0.39727	0.22069	0.15746	0.372	0.032461	0.16117	0.14695	0.26093	0.038248	0.10597	0.1183	0.1999	0.15459	0.20115	0.29873	0.064317	-1.7354	-2.5229	-2.4583	-2.3937	-2.6333	-2.4562	-2.3688	-2.7354	-1.925	-2.4688	-2.5229	-2.2667	-2.6854	-2.5833	-2.3146	-2.7938	115.885	110.754	61.473	165.049	-16.447	174.087	-70.999	188.581	135.911	175.786	-105.729	132.193	-118.716	227.715	-41.959	90.159	0.00040736	0.0003268	0.00021934	499.28	2.3405e-06	6.6062e-06	633.75	187.12	9.4828e-06	1.4088e-06	257.79	114.85	87.421	46.005	9.0252e-06	61.251	0.0011346	0.0011517	0.00032058	576.69	1.2559e-05	1.2624e-05	707.45	210.54	1.2561e-05	1.258e-05	294.49	126.63	97.543	48.994	1.2548e-05	65.052	181.406	100.010	-27.052	-112.380	61.904	3.902	-113.138	-106.654	107.863	14.017	-109.010	-105.044	-102.899	-96.545	-124.558	-100.611	-8191	255	
1250.033	1	1	0	0	0.091912	0.34555	0.06282	0.13863	0.13316	0.27848	0.13364	0.024365	0.18624	0.04683	0.076045	0.077183	0.14576	0.19022	0.068459	0.31514	-1.7854	-2.3417	-2.5042	-2.2354	-2.7625	-2.5417	-2.2542	-2.9062	-2.5021	-2.425	-2.7604	-2.3625	-2.5958	-2.7833	-2.1542	-2.85	-49.729	84.843	96.054	-117.011	162.715	147.474	-83.436	-34.962	183.778	187.472	-48.137	98.755	-70.809	211.898	23.295	123.862	0.00053184	0.00070063	0.00032358	499.73	7.4139e-06	1.5819e-05	639.13	186.52	1.7863e-05	1.0604e-05	260.09	115.16	87.081	45.66	6.9731e-06	61.35	0.0011411	0.0011525	0.00032164	576.86	1.2648e-05	1.2707e-05	710.8	210.64	1.2591e-05	1.2621e-05	295.71	127.07	97.318	48.863	1.2639e-05	65.1	181.361	-114.041	-111.355	-112.490	56.413	32.466	-113.484	-106.673	-31.707	59.329	-108.899	-105.230	-102.597	-96.805	-48.915	-100.706	-8191	255	
1250.130	1	1	0	0	0.069467	0.21091	0.047097	0.15571	0.20339	0.18679	0.2958	0.35828	0.20711	0.086234	0.25778	0.27259	0.074843	0.22154	0.064805	0.10139	-1.7896	-2.5354	-2.5854	-2.275	-2.4417	-2.5146	-2.3937	-2.8542	-2.2062	-2.4	-2.6854	-2.3312	-2.6354	-2.6542	-2.1979	-2.8417	-39.196	66.212	116.382	214.265	167.338	-2.377	-92.755	163.655	-34.540	125.512	165.409	212.321	207.612	-87.556	-116.050	172.138	0.00041084	0.00076566	0.00019118	500.67	2.6875e-06	8.0664e-06	634.62	188.21	7.4258e-06	6.1277e-06	257.57	114.46	86.773	45.5	1.0144e-05	60.65	0.0011391	0.00116	0.00032131	576.68	1.263e-05	1.2698e-05	710.1	210.9	1.2566e-05	1.2595e-05	294.4	126.61	97.119	48.67	1.2542e-05	64.503	174.152	-95.801	-84.851	-112.486	119.578	120.375	-113.487	-106.594	182.000	159.735	-109.284	-105.067	-103.072	-96.715	-93.081	-100.990	-8191	255	
1250.226	1	1	0	0	0.1805	0.21355	0.23606	0.29651	0.20207	0.056248	0.13124	0.075913	0.1821	0.11472	0.2057	0.28672	0.15821	0.12518	0.1355	0.31179	-1.7146	-2.4708	-2.6771	-2.2729	-2.4708	-2.6104	-2.3729	-2.5812	-2.4917	-2.2896	-2.7812	-2.4625	-2.5229	-2.725	-2.4417	-2.6646	-73.019	128.038	-5.288	-60.867	122.664	45.776	-96.762	-47.564	-46.874	-8.660	188.911	187.509	-33.315	154.807	-41.867	190.009	0.0005538	0.00051876	0.00014074	499.8	5.6218e-06	3.8697e-06	631.61	187.43	8.4379e-06	5.2776e-06	256.37	114.51	86.825	45.47	3.1247e-06	60.464	0.0011367	0.0011494	0.00032241	577	1.2628e-05	1.2605e-05	705	210.43	1.2605e-05	1.2548e-05	293.41	125.82	97.15	48.572	1.2553e-05	64.358	179.963	-55.731	41.340	-112.415	-102.960	192.284	-113.557	-106.373	-106.925	-62.426	-108.878	-105.159	-102.978	-96.657	-45.867	-100.710	-8191	255	
1250.322	1	1	0	0	0.12576	0.21308	0.2098	0.24864	0.13089	0.2873	0.093893	0.15266	0.10307	0.021051	0.10452	0.22385	0.069875	0.24518	0.076348	0.13411	-1.9708	-2.3354	-2.5812	-2.3688	-2.3937	-2.7146	-2.1688	-2.5417	-2.3479	-2.3187	-2.5771	-2.6208	-2.4188	-2.6354	-2.2292	-2.5708	71.157	199.454	-33.109	183.017	-49.943	-64.005	230.441	52.911	-103.783	-79.630	-98.639	120.049	100.329	-99.553	-99.780	57.890	0.00049954	0.00030357	0.00013408	498.07	1.8357e-06	9.8863e-06	628.49	187.78	1.0864e-05	5.3639e-06	257.98	115.73	87.526	46.197	6.0712e-06	61.552	0.0011351	0.001155	0.00032142	575.21	1.2542e-05	1.2585e-05	704.52	210.18	1.2622e-05	1.2644e-05	294.07	126.93	97.794	49.177	1.2614e-05	65.149	171.148	-46.322	-53.496	-112.569	-18.053	7.483	-113.653	-106.629	-122.987	-31.079	-109.286	-105.310	-102.954	-96.731	-46.533	-100.972	-8191	255	
1250.418	1	1	0	0	0.088195	0.15146	0.10403	0.051646	0.31783	0.1703	0.28376	0.10638	0.021399	0.1143	0.22	0.077983	0.2433	0.21939	0.04299	0.1448	-1.9979	-2.2	-2.6479	-2.15	-2.3771	-2.6437	-2.1542	-2.7208	-2.4833	-2.3167	-2.7396	-2.3125	-2.4167	-2.7271	-2.2271	-2.6583	-10.239	181.313	127.875	-111.112	-29.082	224.508	102.719	211.245	199.457	-63.201	-85.166	176.188	153.031	166.630	123.332	211.815	0.00058754	0.00088712	0.0001687	503.63	9.9638e-06	6.0498e-06	636.47	190	5.3619e-06	1.374e-06	262.93	117.95	90.062	47.122	1.9269e-06	62.693	0.0011391	0.0011545	0.00032361	579.47	1.2648e-05	1.2676e-05	709.87	213.81	1.2607e-05	1.2742e-05	299.49	129.35	100	50.288	1.2669e-05	66.39	163.321	-57.310	204.948	-112.319	-19.837	-6.452	-113.184	-106.138	221.648	127.862	-109.157	-104.894	-102.845	-96.818	48.243	-100.843	-8191	255	
1250.514	1	1	0	0	0.16103	0.3054	0.32697	0.25969	0.059545	0.26315	0.12219	0.13534	0.29966	0.15928	0.10381	0.029909	0.11673	0.24207	0.089463	0.19711	-2.0625	-2.2188	-2.6083	-2.4062	-2.3542	-2.8167	-2.225	-2.7042	-2.5854	-2.3063	-2.6271	-2.5396	-2.3292	-2.9625	-2.3187	-2.6688	-94.783	-28.962	20.102	200.153	-64.028	-98.783	-29.593	178.743	-54.294	-56.281	-90.312	-17.414	185.309	-26.757	-37.552	138.790	0.00071557	0.00027383	4.569e-05	507.03	4.2605e-06	4.8387e-06	639.35	191.3	3.8712e-06	1.1823e-05	263.16	118.52	89.862	47.273	4.5866e-06	62.809	0.0011467	0.0011633	0.00032468	583.95	1.274e-05	1.2714e-05	714.19	215.19	1.2781e-05	1.2754e-05	300.32	129.8	100.22	50.372	1.2692e-05	66.402	186.578	-46.190	-88.786	-112.610	180.069	-110.531	-113.180	-106.334	-98.216	26.274	-109.237	-105.344	-103.056	-96.630	-107.138	-100.562	-8191	255	
1250.610	1	1	0	0	0.085589	0.16063	0.21097	0.18042	0.042671	0.16571	0.1038	0.10093	0.29102	0.12254	0.26281	0.1554	0.17974	0.056092	0.092049	0.082149	-2.0958	-2.1	-2.5958	-2.4854	-2.2979	-2.6792	-2.3708	-2.4271	-2.5187	-2.2479	-2.6104	-2.6583	-2.3125	-2.9854	-2.3063	-2.3521	65.837	187.051	101.743	-105.689	161.667	-31.424	-42.984	129.707	-105.190	0.797	149.599	176.251	-92.467	84.536	-70.165	31.541	0.00032336	0.00020096	0.00026218	506.42	8.2715e-06	1.5436e-05	636.51	190.75	7.8701e-06	5.3523e-06	262.86	116.61	88.375	46.274	4.0972e-06	61.503	0.0011498	0.0011661	0.00032491	583.47	1.2736e-05	1.2804e-05	712.07	214.46	1.2651e-05	1.2722e-05	298.49	128.36	98.657	49.496	1.2601e-05	65.553	196.202	-89.207	202.014	-112.286	73.126	0.045	-113.205	-106.739	6.134	-30.787	-109.405	-105.494	-102.852	-96.656	-93.772	-100.710	-8191	255	
1250.731	1	1	0	0	0.29094	0.1208	0.15587	0.15001	0.20889	0.10635	0.16016	0.10756	0.47479	0.10807	0.28318	0.05179	0.11013	0.24771	0.046802	0.28866	-2.3312	-2.2188	-2.4125	-2.4729	-2.4979	-2.7396	-2.4688	-2.4354	-2.5271	-2.325	-2.7542	-2.65	-2.3292	-2.725	-2.4917	-2.4417	155.618	76.567	-56.868	219.614	80.170	214.227	198.722	-107.930	68.869	-52.187	-81.831	23.848	-88.401	195.190	-34.133	138.626	0.00069165	0.00029704	0.00025948	504.02	6.5214e-06	8.6305e-06	633.9	187.24	1.0266e-05	8.7881e-06	258.04	115.08	86.441	45.503	5.0608e-06	60.716	0.0011423	0.0011625	0.00032486	578.43	1.2718e-05	1.2662e-05	709.24	211.45	1.2694e-05	1.2647e-05	295.04	126.89	97.233	48.658	1.2653e-05	64.8	166.708	-18.226	-76.958	-112.480	50.953	-4.713	-113.460	-106.487	183.632	2.373	-109.100	-105.475	-102.994	-96.653	-81.256	-100.632	-8191	255	
1250.827	1	1	0	0	0.12887	0.25741	0.22067	0.25408	0.23041	0.076853	0.30562	0.18188	0.23243	0.29791	0.18043	0.31252	0.14138	0.19485	0.15968	0.30241	-2.0458	-2.3625	-2.4333	-2.8729	-2.3271	-2.5896	-2.5062	-2.4938	-2.675	-2.2313	-2.3563	-2.8292	-2.4313	-2.4146	-2.5479	-2.5146	-105.868	-78.994	123.925	157.490	63.205	4.221	-66.703	212.106	-16.139	-117.428	72.256	179.408	130.939	195.020	-95.664	125.878	0.00044821	0.00036323	0.00017124	497.6	6.1386e-06	7.2562e-06	629.17	187.29	5.1753e-06	5.6575e-06	258.02	114.71	86.575	45.183	3.7945e-06	60.621	0.0011462	0.0011648	0.00032409	574.22	1.2651e-05	1.2775e-05	706.07	210.34	1.2682e-05	1.2642e-05	295.2	126.39	96.686	48.378	1.2574e-05	64.465	188.917	-96.659	137.887	-112.188	30.931	-12.749	-113.240	-106.382	162.105	23.969	-108.897	-105.042	-102.602	-96.611	23.343	-100.811	-8191	255	
1250.923	1	1	0	0	0.20729	0.33933	0.10626	0.12108	0.19922	0.15276	0.28346	0.071145	0.07084	0.17612	0.18978	0.16695	0.033234	0.0095891	0.32972	0.21356	-1.9917	-2.5	-2.2396	-2.9521	-2.1688	-2.6729	-2.5583	-2.3875	-2.5958	-2.325	-2.2021	-2.5479	-2.2146	-2.6417	-2.6292	-2.3688	181.653	159.605	5.897	168.633	-109.804	27.449	175.727	232.164	-120.218	94.285	-121.461	183.690	195.417	168.141	2.953	105.887	0.00048025	0.00010786	0.00015931	497.52	3.5956e-06	9.8998e-06	631.75	187.33	2.5734e-06	6.0458e-06	257.73	114.85	86.365	45.473	2.1836e-06	61.379	0.0011402	0.0011578	0.00032585	575.01	1.2727e-05	1.2716e-05	707.55	210.13	1.275e-05	1.2791e-05	295.56	127.02	97.093	48.568	1.2675e-05	64.98	186.666	18.353	125.857	-112.652	46.998	109.134	-113.209	-106.550	-21.525	-25.292	-108.888	-105.368	-102.691	-96.274	128.863	-100.784	-8191	255	
1251.019	1	1	0	0	0.23826	0.027953	0.041831	0.18667	0.24847	0.2663	0.20191	0.14128	0.043137	0.2533	0.039785	0.14694	0.069011	0.24122	0.1858	0.5025	-2.2208	-2.3875	-2.2938	-2.6042	-2.3083	-2.6833	-2.6708	-2.3812	-2.775	-2.4437	-2.325	-2.6188	-2.5375	-2.6042	-2.5187	-2.3104	-88.672	60.517	-88.038	-119.230	-43.921	161.853	157.677	212.189	123.307	62.258	95.781	173.791	-56.536	190.183	134.383	141.834	0.00044927	0.00044514	0.00020966	496.77	5.844e-06	1.0592e-06	630.41	185.13	6.1066e-07	8.9718e-06	257.89	114.09	85.968	45.032	4.9254e-06	60.805	0.0011434	0.0011649	0.00032336	574.65	1.2674e-05	1.2734e-05	706.73	208.24	1.2663e-05	1.2722e-05	293.79	125.76	96.133	48.054	1.2616e-05	64.426	185.932	-43.853	21.078	-112.466	86.420	-49.782	-113.363	-106.361	70.094	208.689	-108.905	-104.950	-102.673	-96.981	144.368	-100.812	-8191	255	
1251.114	1	1	0	0	0.12746	0.2491	0.18142	0.079382	0.13659	0.11106	0.15061	0.12954	0.19928	0.069652	0.067872	0.058084	0.22173	0.23266	0.17584	0.060766	-2.2083	-2.5708	-2.1813	-2.6792	-2.2125	-2.3688	-2.65	-2.1917	-2.5187	-2.5604	-2.35	-2.7229	-2.4229	-2.5896	-2.6417	-2.2562	-76.152	99.257	156.975	-106.010	195.050	-47.590	179.660	81.121	228.651	52.500	122.082	171.562	150.715	-43.405	-56.883	108.269	0.00024154	0.00084551	0.00019803	494.18	1.2317e-06	5.7368e-06	624.38	183.09	5.521e-06	6.1969e-06	254.07	112.49	84.783	44.517	1.1804e-05	60.179	0.0011469	0.001167	0.00032262	573.3	1.2664e-05	1.2706e-05	702.96	207.4	1.2605e-05	1.2596e-05	291.04	124.66	95.379	47.723	1.2585e-05	64.088	129.341	-46.173	-8.653	-112.337	212.825	225.950	-113.537	-106.321	-56.711	-115.145	-109.232	-105.138	-103.117	-96.649	118.994	-100.970	-8191	255	
1251.210	1	1	0	0	0.041622	0.077074	0.20551	0.17176	0.1212	0.22227	0.23469	0.17681	0.12461	0.10213	0.14017	0.28839	0.2501	0.36317	0.19954	0.15459	-2.0667	-2.5042	-2.1625	-2.525	-2.4479	-2.4729	-2.8563	-2.2396	-2.4333	-2.7729	-2.1375	-2.7625	-2.7229	-2.1792	-2.7188	-2.5187	-83.637	31.833	64.306	-117.615	231.394	-73.945	-35.398	162.060	146.619	154.258	173.073	157.026	201.912	173.029	235.139	115.876	0.00046651	0.00027498	0.00041024	492.13	5.9314e-06	4.5436e-06	629.87	182.93	2.9533e-06	3.5299e-06	255.72	113.27	84.602	44.607	9.62e-06	60.14	0.0011411	0.0011632	0.00032179	571.53	1.2632e-05	1.2663e-05	703.86	206.74	1.2722e-05	1.2666e-05	291.52	124.94	95.327	47.733	1.2629e-05	64.128	176.428	-62.129	-25.902	-112.588	166.954	-10.880	-113.493	-106.632	-42.263	87.658	-108.970	-105.083	-102.795	-96.422	55.759	-100.746	-8191	255	
1251.331	1	1	0	0	0.11897	0.1591	0.20463	0.037383	0.11266	0.1504	0.32645	0.29071	0.085548	0.13113	0.22029	0.21736	0.013882	0.20155	0.2022	0.20718	-2.025	-2.6125	-2.0958	-2.6771	-2.2958	-2.5438	-2.625	-2.35	-2.6083	-2.5229	-2.4104	-2.6104	-2.6917	-2.2833	-2.6208	-2.4188	-68.008	-97.130	220.079	40.121	139.159	226.466	161.498	163.081	179.879	-66.397	181.347	-88.371	203.137	126.210	30.160	-115.940	0.00052362	0.00068079	0.00025622	495.53	7.0522e-06	4.9776e-06	629.43	183.54	1.0313e-05	8.7313e-06	255.25	113.59	84.975	44.519	7.3258e-06	60.176	0.0011415	0.0011608	0.00032257	571.9	1.2681e-05	1.2743e-05	703.54	207.25	1.2639e-05	1.2672e-05	292.31	125.4	95.546	47.776	1.2604e-05	64.127	183.664	30.128	-97.799	-112.124	27.035	93.710	-113.136	-106.425	143.372	-81.712	-108.724	-105.618	-102.884	-96.405	-7.390	-100.967	-8191	255	
1251.425	1	1	0	0	0.32357	0.21725	0.1645	0.25799	0.15235	0.21884	0.39351	0.15606	0.27117	0.14174	0.17542	0.25898	0.3651	0.19754	0.27376	0.21562	-1.8896	-2.4938	-2.1771	-2.7167	-2.4813	-2.2396	-2.8208	-2.4583	-2.375	-2.5729	-2.3563	-2.7833	-2.55	-2.4479	-2.6208	-2.4875	71.157	93.808	10.060	130.846	208.865	-69.843	107.993	-26.638	173.186	132.550	-120.575	-81.889	187.387	-48.559	83.168	217.786	0.00052316	0.00058631	0.00019938	490.32	4.3224e-06	2.3772e-06	627.61	183.73	5.4748e-06	1.5966e-05	254.96	113.08	84.122	44.176	2.3534e-06	60.12	0.0011512	0.0011676	0.00032429	570.07	1.2789e-05	1.276e-05	704.52	207.44	1.2749e-05	1.2694e-05	292.73	125.05	95.094	47.512	1.2654e-05	64.039	184.637	-30.687	-26.836	-112.390	134.138	-27.407	-113.323	-106.368	89.367	37.593	-109.076	-105.230	-102.514	-96.339	52.655	-100.628	-8191	255	
1251.521	1	1	0	0	0.19437	0.046528	0.23075	0.072198	0.15024	0.14308	0.087082	0.37576	0.24958	0.020959	0.12693	0.098517	0.16043	0.17632	0.18643	0.14455	-1.7625	-2.6667	-2.3625	-2.4958	-2.6875	-2.3771	-2.5104	-2.6875	-2.2667	-2.8667	-2.3229	-2.4562	-2.6562	-2.2625	-2.6354	-2.5271	-55.956	-20.339	93.273	136.363	64.914	-7.135	138.968	89.047	155.856	-95.339	-88.672	6.314	190.356	-87.437	29.188	192.770	0.00037809	0.00043915	0.00022908	491.53	1.0503e-06	1.2394e-05	626.7	182.63	1.2828e-05	1.6623e-05	255.39	112.79	84.981	44.33	6.1865e-06	59.762	0.001149	0.0011637	0.00032357	569.7	1.2709e-05	1.2728e-05	701.17	206.08	1.2646e-05	1.2689e-05	291.6	124.72	95.327	47.496	1.2655e-05	63.722	160.356	124.089	-63.654	-112.111	231.403	-40.579	-113.421	-106.356	-28.939	2.781	-109.043	-104.984	-103.067	-96.736	-3.539	-100.929	-8191	255	
1251.617	1	1	0	0	0.10308	0.25089	0.27356	0.10687	0.20863	0.1911	0.13422	0.32907	0.073628	0.21856	0.10782	0.1879	0.14782	0.21083	0.18278	0.05202	-1.9438	-2.7104	-2.4042	-2.5687	-2.675	-2.3229	-2.8021	-2.4354	-2.25	-2.5229	-2.4521	-2.3542	-2.7604	-2.4771	-2.5333	-2.5625	-69.408	-103.284	69.009	159.953	57.788	137.081	208.194	172.549	-47.368	-113.406	74.017	-86.973	-2.962	229.801	-28.127	199.980	0.0004697	0.0004261	0.00020969	489.12	1.8815e-06	4.7717e-06	625.75	182.18	6.4412e-06	1.3189e-05	250.93	112.67	84.46	44.216	3.905e-06	59.326	0.0011468	0.0011598	0.00032307	569.49	1.2712e-05	1.2684e-05	699.23	205.52	1.2642e-05	1.2744e-05	289.54	124.02	94.699	47.307	1.2584e-05	63.36	174.157	176.625	69.132	-112.384	220.801	-49.877	-112.844	-106.551	194.117	-76.863	-109.012	-105.215	-102.684	-96.679	77.705	-100.688	-8191	255	
1251.713	1	1	0	0	0.23723	0.21025	0.096599	0.26096	0.10825	0.04175	0.14461	0.19012	0.15138	0.047636	0.21199	0.20383	0.291	0.28879	0.044623	0.20437	-1.7729	-2.6771	-2.4104	-2.4062	-2.7396	-2.4125	-2.5667	-2.625	-2.3042	-2.5958	-2.5312	-2.5417	-2.6271	-2.5271	-2.3896	-2.7417	18.677	153.950	36.723	213.912	139.034	-6.477	24.996	-11.269	96.205	37.466	-64.402	230.888	-76.775	235.008	-18.198	160.305	0.00041255	0.00039467	0.00022132	488.56	7.6703e-06	1.239e-05	628.75	182.25	5.2441e-06	4.9467e-06	255.49	112.17	84.285	44.065	5.6029e-06	59.966	0.001138	0.001154	0.00032318	569.42	1.2608e-05	1.2737e-05	701.48	205.65	1.2625e-05	1.2655e-05	290.95	124.19	94.923	47.442	1.2603e-05	63.838	182.962	-47.200	-14.833	-112.164	33.034	20.859	-113.353	-106.486	166.299	24.451	-109.301	-105.414	-103.218	-96.584	3.682	-100.895	-8191	255	
1251.810	1	1	0	0	0.070184	0.041606	0.28123	0.10332	0.030154	0.25991	0.17851	0.068941	0.27196	0.13255	0.15477	0.27733	0.0064258	0.049132	0.17114	0.14643	-1.8333	-2.6271	-2.4354	-2.1937	-2.7646	-2.1542	-2.5938	-2.85	-2.2979	-2.5292	-2.5646	-2.425	-2.8979	-2.3792	-2.7188	-2.7396	-67.947	191.267	-19.758	108.375	-115.083	-35.225	69.923	209.274	37.220	-58.853	158.583	121.822	91.469	30.855	-43.939	202.764	0.00039435	0.00052947	0.00010927	491.18	5.032e-06	6.4746e-06	629.09	182.08	8.6683e-06	8.1129e-06	253.48	113.67	84.774	43.976	1.1765e-05	59.877	0.0011494	0.0011608	0.00032428	569.39	1.2672e-05	1.2791e-05	703.72	206.54	1.2729e-05	1.2682e-05	291.28	124.72	95.247	47.443	1.2635e-05	63.77	194.322	-73.735	-79.140	-112.258	214.463	44.642	-113.535	-106.459	17.679	9.845	-108.787	-105.295	-103.024	-96.337	-11.586	-100.918	-8191	255	
1251.906	1	1	0	0	0.21784	0.13316	0.15569	0.12985	0.1072	0.20197	0.096077	0.094332	0.37806	0.17674	0.11227	0.13088	0.25503	0.10712	0.21676	0.30523	-1.6938	-2.6958	-2.6208	-2.4875	-2.35	-2.3958	-2.4271	-2.5083	-2.2958	-2.4708	-2.4979	-2.2854	-2.7042	-2.375	-2.4458	-2.6813	-91.897	228.531	59.010	68.770	-32.852	-53.723	49.301	234.514	144.942	31.654	133.102	82.524	-62.084	200.165	89.934	100.321	0.00043159	0.00089129	0.00017208	491.74	1.5269e-06	4.7311e-06	624.88	182.81	2.7366e-06	1.2294e-05	253.9	112.35	83.764	44.107	4.7546e-06	59.415	0.0011405	0.0011638	0.00032584	570.52	1.2832e-05	1.2714e-05	703.71	206.07	1.2637e-05	1.2761e-05	290.31	124.04	94.676	47.382	1.2664e-05	63.34	175.820	-43.286	44.703	-112.380	80.454	48.825	-113.297	-106.699	-90.222	12.656	-108.923	-105.296	-102.882	-96.315	52.665	-101.026	-8191	255	
1252.002	1	1	0	0	0.16113	0.046428	0.095792	0.22321	0.05317	0.12559	0.11569	0.15038	0.086625	0.12161	0.091182	0.20433	0.2532	0.17069	0.064199	0.25069	-1.7271	-2.4313	-2.6875	-2.2687	-2.6875	-2.5083	-2.6167	-2.6125	-2.5021	-2.525	-2.775	-2.1688	-2.5396	-2.5062	-2.2917	-2.9437	-119.618	-36.204	105.642	188.508	-5.807	42.696	-34.877	145.393	-38.797	-55.496	-11.008	153.846	221.847	67.052	127.002	217.664	0.0004762	0.0011777	0.00015617	493.62	3.697e-06	1.1534e-05	625.07	181.08	9.2007e-06	1.0876e-05	251.42	111.68	83.499	44.021	7.7827e-06	59.454	0.0011409	0.0011575	0.00032447	569.1	1.272e-05	1.2744e-05	699.68	205.65	1.2667e-05	1.2676e-05	288.86	123.36	94.265	47.065	1.2663e-05	63.081	204.365	-46.179	26.274	-112.466	226.063	90.078	-113.402	-106.359	-36.985	-15.080	-109.073	-104.877	-102.694	-96.762	9.600	-100.800	-8191	255	
1252.123	1	1	0	0	0.12809	0.1676	0.10935	0.28352	0.26003	0.43115	0.040728	0.074026	0.22795	0.043555	0.23758	0.14078	0.18002	0.2276	0.030647	0.16822	-1.85	-2.4896	-2.7167	-2.3625	-2.6646	-2.5187	-2.2125	-2.775	-2.4729	-2.4604	-2.5958	-2.075	-2.5917	-2.5875	-2.3187	-2.6708	40.931	-70.766	121.476	100.810	-23.586	-74.605	54.882	132.630	189.370	-98.196	105.256	217.593	232.248	-107.687	186.775	172.331	0.00043343	0.0010154	0.00016639	489.78	7.1541e-06	3.7995e-06	626.48	182.36	3.677e-06	4.323e-06	252.81	112.02	84.19	44.184	8.4299e-06	59.233	0.0011489	0.0011631	0.00032329	569.65	1.2737e-05	1.2771e-05	699.3	205.45	1.2683e-05	1.2733e-05	289.86	123.81	94.719	47.468	1.2604e-05	63.313	151.627	12.484	16.455	-112.284	7.516	105.758	-113.435	-106.722	-63.779	-65.695	-109.590	-104.975	-102.642	-96.582	-17.311	-100.646	-8191	255	
1252.219	1	1	0	0	0.22545	0.36659	0.22431	0.092883	0.30852	0.11032	0.3424	0.20389	0.12126	0.36521	0.18174	0.33902	0.25166	0.090023	0.07497	0.13121	-1.8417	-2.35	-2.6771	-2.1937	-2.5833	-2.4979	-2.2625	-2.7917	-2.3167	-2.5396	-2.6792	-2.3521	-2.5417	-2.6958	-2.2854	-2.7625	-55.368	-122.382	76.832	115.662	-17.521	225.040	199.180	211.205	180.387	219.016	179.648	-109.946	135.957	198.713	93.431	220.648	0.00028299	0.00019821	0.00020077	495	2.0744e-06	2.503e-06	624.87	184.17	8.3103e-06	1.5233e-05	254.48	113.11	84.799	44.25	7.238e-06	59.855	0.0011439	0.001164	0.00032546	571.7	1.2776e-05	1.2727e-05	702.93	207.3	1.2748e-05	1.277e-05	291.86	124.96	95.567	47.717	1.2722e-05	63.88	199.031	-52.322	165.733	-112.738	-71.665	-9.481	-113.772	-106.423	144.787	57.237	-109.168	-105.031	-102.768	-96.657	-37.521	-100.572	-8191	255	
1252.290	1	1	0	0	0.24194	0.097902	0.21721	0.30928	0.014666	0.2076	0.11636	0.10062	0.038248	0.11893	0.15641	0.13584	0.086964	0.1635	0.17494	0.078253	-1.6792	-2.3563	-2.5208	-2.3667	-2.6437	-2.6458	-2.2354	-2.7042	-2.5042	-2.2854	-2.7812	-2.3792	-2.4042	-2.7396	-2.1854	-2.8812	85.992	25.002	232.149	190.638	60.787	-79.691	136.207	171.238	186.905	-89.086	-106.344	161.879	202.667	-116.987	-50.543	53.921	0.00030496	0.00032136	0.00036233	494.5	4.2842e-06	6.2067e-06	629.39	183.56	8.5383e-06	9.4555e-06	255.47	112.95	84.325	44.381	1.0339e-05	59.512	0.0011556	0.0011651	0.00032454	571.48	1.271e-05	1.2779e-05	704.24	207.09	1.2755e-05	1.2731e-05	291.62	124.65	95.132	47.583	1.2682e-05	63.615	164.156	151.993	-95.706	-112.148	-12.421	232.528	-113.313	-106.803	226.946	10.060	-108.985	-105.080	-102.991	-96.620	29.288	-100.687	-8191	255	
1252.411	1	1	0	0	0.18154	0.21272	0.061367	0.056763	0.1044	0.022951	0.20143	0.18896	0.16045	0.12244	0.32016	0.17051	0.11748	0.25327	0.10628	0.23279	-2.0125	-2.3146	-2.8771	-2.5958	-2.4979	-2.7792	-2.2958	-2.5583	-2.5438	-2.1771	-2.4792	-2.6042	-2.45	-2.6688	-2.2771	-2.8167	89.333	-68.107	19.941	81.550	-70.236	25.242	149.501	189.921	77.595	-81.393	191.842	196.095	96.646	199.978	120.978	140.261	0.00044473	0.00036114	0.00027451	496.75	3.9541e-06	1.7568e-05	626.89	182.2	9.3263e-06	8.0531e-06	253.45	111.48	84.433	44.327	9.0289e-06	59.261	0.0011478	0.0011617	0.00032429	572.62	1.2731e-05	1.2779e-05	700.88	206.12	1.2747e-05	1.2805e-05	290.14	123.62	94.7	47.351	1.2612e-05	63.165	163.855	-16.984	-65.762	-112.446	-2.725	15.902	-113.579	-106.121	4.874	231.301	-109.046	-105.006	-102.829	-96.495	71.270	-100.682	-8191	255	
1252.507	1	1	0	0	0.22972	0.15381	0.24756	0.28999	0.14122	0.12298	0.15395	0.10038	0.039431	0.39185	0.050272	0.1947	0.1011	0.25126	0.073098	0.088043	-2.1479	-2.3625	-2.6458	-2.4375	-2.45	-2.7729	-2.2771	-2.6604	-2.5729	-2.2375	-2.7021	-2.5271	-2.3688	-2.825	-2.3542	-2.7042	-82.305	191.800	-84.955	179.395	-55.714	-107.049	210.996	108.360	158.807	-57.552	205.940	177.865	-17.299	156.377	-114.063	-56.769	0.00032071	0.000355	0.00030304	492.77	5.2103e-06	9.3798e-06	625.1	182.13	8.7554e-06	1.3221e-05	251.15	110.72	83.926	43.689	2.7831e-06	58.793	0.0011477	0.0011645	0.00032492	570.29	1.2694e-05	1.2692e-05	700.03	205.39	1.2622e-05	1.2712e-05	287.75	122.79	94.138	46.928	1.2583e-05	62.708	148.497	-30.442	219.031	-112.480	9.330	-73.744	-113.652	-106.172	53.949	26.493	-109.052	-105.313	-102.595	-96.404	33.960	-100.465	-8191	255	
1252.603	1	1	0	0	0.19846	0.23533	0.33286	0.12899	0.031772	0.045683	0.28383	0.15525	0.21266	0.21678	0.1845	0.1289	0.17873	0.32182	0.13673	0.10898	-2.2271	-2.2938	-2.4938	-2.6271	-2.2313	-2.6813	-2.45	-2.5833	-2.6625	-2.3667	-2.7167	-2.7	-2.2812	-2.8875	-2.4479	-2.4354	-46.540	19.902	170.295	150.488	-70.545	127.672	157.201	218.870	-16.784	56.448	161.171	137.396	42.620	-117.562	59.140	76.567	0.00038771	0.00065554	0.00021273	494.48	3.2695e-06	1.9885e-06	629.64	182.68	8.7161e-06	1.1711e-05	253.19	111.23	83.904	44.187	5.2288e-06	58.929	0.0011415	0.0011615	0.00032291	570.14	1.2742e-05	1.2728e-05	701.3	205.87	1.2688e-05	1.274e-05	289.55	123.53	94.54	47.297	1.2624e-05	63.093	177.837	-18.854	-97.826	-112.400	215.380	165.771	-113.632	-106.206	-95.010	52.958	-108.526	-105.005	-102.532	-96.364	225.210	-100.333	-8191	255	
1252.722	1	1	0	0	0.23192	0.23811	0.1139	0.12975	0.028866	0.20405	0.26325	0.15364	0.20777	0.18092	0.29709	0.028939	0.20942	0.23908	0.19859	0.086522	-2.2729	-2.1417	-2.4521	-2.7042	-2.1917	-2.8438	-2.3604	-2.3521	-2.8875	-2.1979	-2.5667	-2.4062	-2.4083	-2.7	-2.4062	-2.5146	10.386	164.255	81.818	155.013	60.869	60.857	168.065	109.052	228.230	232.225	-60.457	-57.989	176.910	173.356	-19.838	129.458	0.00049188	0.00047478	0.00044525	492.1	1.1211e-05	5.4383e-06	626.65	181.43	1.2469e-06	8.6046e-06	252.28	112.04	83.998	44.146	9.9856e-06	59.172	0.0011414	0.0011587	0.00032466	571.19	1.2694e-05	1.2722e-05	702.58	205.95	1.2711e-05	1.2811e-05	290.61	123.92	94.698	47.38	1.2732e-05	63.282	160.194	-120.329	-52.994	-112.616	20.253	103.884	-113.180	-106.262	167.941	154.365	-109.297	-105.001	-102.711	-96.583	-84.876	-100.410	-8191	255	
1252.818	1	1	0	0	0.11182	0.096845	0.17468	0.049649	0.10336	0.073156	0.15574	0.28704	0.14373	0.10094	0.33517	0.099947	0.099517	0.21379	0.3111	0.13618	-2.1542	-2.2708	-2.1583	-2.8312	-2.1688	-2.6104	-2.4208	-2.4583	-2.7188	-2.2687	-2.4458	-2.6979	-2.1958	-2.6083	-2.6771	-2.35	-15.534	-123.171	-43.436	198.400	150.270	-112.707	179.182	173.719	64.485	40.008	-115.030	226.813	-84.178	185.082	38.300	212.156	0.00061002	0.00096124	0.00039311	492.61	4.0039e-06	1.0736e-06	623.82	180.61	5.0142e-06	5.7192e-06	253.72	111.51	83.992	44.148	6.9562e-06	58.98	0.0011482	0.0011694	0.0003243	570.45	1.2795e-05	1.2815e-05	701.84	205.99	1.2781e-05	1.2742e-05	290.16	123.77	94.769	47.451	1.2685e-05	63.109	177.601	-42.890	-15.596	-112.321	95.287	202.407	-113.317	-106.609	6.679	112.133	-108.992	-104.780	-102.693	-96.274	41.069	-100.779	-8191	255	
1252.914	1	1	0	0	0.19684	0.16606	0.1072	0.12898	0.090334	0.018414	0.13078	0.15937	0.15633	0.066415	0.06658	0.17715	0.16036	0.23666	0.20925	0.1615	-2.2354	-2.1083	-2.4104	-2.6333	-2.3708	-2.45	-2.7208	-2.2729	-2.4646	-2.525	-2.3917	-2.6542	-2.2083	-2.5875	-2.3208	-2.375	59.644	89.635	128.863	150.638	-83.577	76.607	87.399	149.553	13.593	176.178	-83.295	-101.129	198.722	199.860	16.947	121.523	0.0002302	0.00090182	0.00012732	493.7	7.4604e-06	7.0822e-06	623.25	181.54	4.8484e-06	6.3944e-06	249.37	110.42	83.176	43.687	9.7471e-06	58.831	0.0011425	0.0011673	0.00032569	570.89	1.2688e-05	1.276e-05	698.56	204.95	1.2763e-05	1.2681e-05	287.67	122.51	93.935	46.962	1.2659e-05	62.898	185.487	231.063	-68.504	-112.093	-47.756	47.061	-113.369	-106.336	-8.727	29.285	-109.540	-105.245	-103.119	-96.404	-17.075	-100.596	-8191	255	
1253.011	1	1	0	0	0.064077	0.079826	0.22704	0.030234	0.072511	0.10898	0.064332	0.14435	0.065226	0.14892	0.15556	0.091177	0.32731	0.10487	0.067083	0.44027	-2.1375	-2.475	-2.35	-2.6562	-2.4	-2.5625	-2.6688	-2.2229	-2.7313	-2.4479	-2.3646	-2.9771	-2.2667	-2.6104	-2.5479	-2.4125	169.935	148.763	-57.774	215.953	-65.262	118.076	-13.189	-79.625	85.559	88.045	-124.033	21.277	218.514	87.655	-26.487	170.463	0.00043117	0.0008017	8.0305e-05	492.33	9.8919e-06	9.8247e-06	621.12	181.73	5.0092e-06	5.843e-06	252.46	111.9	83.352	44.049	3.0849e-06	58.884	0.0011469	0.0011627	0.00032652	570.9	1.2774e-05	1.275e-05	698.98	205.34	1.281e-05	1.2684e-05	288.47	123.27	94.475	47.258	1.2712e-05	63.268	204.854	-26.575	-96.693	-112.236	-0.469	77.217	-113.446	-106.423	-95.245	93.591	-108.914	-104.628	-103.157	-96.532	89.441	-100.727	-8191	255	
1253.107	1	1	0	0	0.20594	0.13984	0.1504	0.18147	0.30402	0.086546	0.11028	0.21053	0.12439	0.19445	0.13406	0.19445	0.24969	0.10677	0.10869	0.10857	-2.1271	-2.4833	-2.1937	-2.6417	-2.4979	-2.5646	-2.6771	-2.2083	-2.6063	-2.4146	-2.3771	-2.6562	-2.3771	-2.375	-2.6063	-2.2583	-44.134	-77.566	196.311	170.671	232.349	171.855	202.034	136.659	-74.743	-14.900	-1.724	-111.223	116.465	-117.914	143.993	167.335	0.00026152	0.0004371	6.906e-05	493	6.6804e-06	2.6446e-06	626.04	181.74	1.5886e-05	1.5158e-06	253.02	111.72	83.754	44.291	2.694e-06	59.369	0.0011546	0.0011685	0.00032546	571.72	1.2779e-05	1.2796e-05	701.08	205.92	1.2749e-05	1.2774e-05	290.03	123.88	94.628	47.4	1.2736e-05	63.683	216.920	-48.364	93.159	-112.138	58.449	99.709	-113.248	-106.432	-116.603	142.002	-108.885	-105.207	-102.992	-97.022	200.044	-100.799	-8191	255	
1253.203	1	1	0	0	0.19454	0.15054	0.1746	0.17975	0.21994	0.32509	0.20361	0.22068	0.094418	0.38972	0.12095	0.1244	0.17364	0.073631	0.13606	0.14211	-1.8729	-2.4313	-2.1854	-2.5438	-2.4542	-2.3292	-2.6896	-2.475	-2.325	-2.5375	-2.4354	-2.5229	-2.3	-2.425	-2.6979	-2.4833	-105.280	155.641	165.762	-57.185	228.397	25.604	180.019	174.731	41.455	66.329	66.048	-41.316	-32.181	146.124	-22.950	157.271	0.00055251	0.0010221	0.00032601	493.61	4.3325e-07	7.1391e-06	627.88	182.41	4.43e-07	1.4015e-05	257.02	112.88	85.334	44.526	1.1402e-05	60.409	0.0011511	0.0011787	0.00032692	571.91	1.286e-05	1.2831e-05	702.91	207.32	1.2865e-05	1.2861e-05	293.22	124.88	95.717	47.999	1.2843e-05	64.454	179.556	-82.499	-75.648	-112.530	-14.389	-75.544	-113.595	-106.082	233.192	49.236	-108.864	-104.880	-102.723	-96.657	-5.260	-100.698	-8191	255	
1253.299	1	1	0	0	0.063933	0.24287	0.18489	0.23032	0.071663	0.19157	0.1705	0.2512	0.093969	0.11343	0.18105	0.39943	0.093289	0.26156	0.12159	0.14635	-1.8604	-2.5479	-2.1167	-2.7875	-2.55	-2.3396	-2.6	-2.4354	-2.325	-2.6417	-2.1458	-2.6562	-2.7708	-2.3542	-2.9146	-2.3333	-45.099	-102.122	152.524	127.607	-46.625	3.041	160.448	111.987	-34.502	225.664	225.676	156.213	20.150	157.221	-104.709	188.244	0.00029093	0.00027242	0.00017539	495.02	1.2143e-05	8.622e-06	627.18	185.47	7.8012e-06	5.4661e-06	257.41	113.61	85.407	44.727	2.5635e-06	60.472	0.0011629	0.0011694	0.00032768	574.56	1.2859e-05	1.2887e-05	702.5	209.09	1.2822e-05	1.2855e-05	294.43	125.71	96.249	48.119	1.2768e-05	64.5	208.442	-110.701	227.447	-112.313	-10.938	3.514	-113.283	-106.382	23.234	6.234	-108.636	-105.088	-102.800	-96.287	94.491	-100.732	-8191	255	
1253.420	1	1	0	0	0.15309	0.052187	0.44403	0.16158	0.092439	0.20186	0.1282	0.31081	0.27001	0.13086	0.21875	0.14272	0.2638	0.29469	0.062063	0.17299	-1.95	-2.4708	-2.2833	-2.55	-2.4667	-2.3771	-2.8104	-2.5604	-2.4542	-2.6792	-2.3979	-2.7958	-2.6646	-2.2854	-2.7354	-2.4333	56.400	-1.676	105.554	228.556	-67.046	46.332	-90.725	126.021	-87.004	-62.468	-37.696	-12.066	188.233	187.224	98.324	-95.393	0.00048028	0.00043155	0.00051632	493.09	8.329e-06	1.1562e-05	624.87	185.14	2.7751e-06	4.4307e-06	256.08	114.43	85.982	45.359	4.8642e-06	60.74	0.0011536	0.0011741	0.00032762	572.81	1.2831e-05	1.284e-05	701.96	208.8	1.2841e-05	1.2849e-05	294.39	126.17	96.816	48.515	1.2841e-05	64.71	183.556	-80.790	-15.682	-112.270	31.639	71.748	-113.525	-106.339	35.972	42.619	-109.127	-105.117	-102.734	-96.804	-61.390	-100.859	-8191	255	
1253.514	1	1	0	0	0.17281	0.074393	0.02719	0.25324	0.27842	0.20668	0.15826	0.076565	0.096086	0.10633	0.14679	0.2166	0.23867	0.08212	0.26216	0.1655	-1.7771	-2.8854	-2.1354	-2.5208	-2.4396	-2.3083	-2.6292	-2.4208	-2.3625	-2.8417	-2.1583	-2.7604	-2.4562	-2.25	-2.6458	-2.5271	171.464	222.726	167.193	185.545	230.288	132.999	-10.325	-19.636	130.888	148.527	-45.553	161.007	181.480	172.852	19.526	145.152	0.00049227	0.0007515	0.0001599	493.44	3.4865e-06	5.8414e-06	625.93	183.1	1.2536e-05	6.0882e-06	255.31	111.94	84.674	44.563	8.5183e-06	59.756	0.0011617	0.0011769	0.00032858	573.16	1.2892e-05	1.2901e-05	702.36	207.72	1.2913e-05	1.2881e-05	293.01	124.84	95.468	47.753	1.2806e-05	63.928	170.756	9.384	42.883	-112.270	-33.917	7.063	-113.473	-106.509	-14.140	3.771	-108.979	-104.889	-102.924	-96.887	94.665	-101.002	-8191	255	
1253.588	1	1	0	0	0.041504	0.24803	0.11227	0.48028	0.14464	0.17361	0.22262	0.055573	0.10271	0.02261	0.29132	0.33124	0.3436	0.1282	0.12128	0.091476	-1.6812	-2.6188	-2.3271	-2.3542	-2.5542	-2.3563	-2.7875	-2.5417	-2.2646	-2.5812	-2.2729	-2.4833	-2.4271	-2.4167	-2.5667	-2.5854	184.021	-74.563	22.231	-90.911	-18.637	174.781	-99.229	228.768	143.329	98.647	143.758	182.032	235.104	-122.983	-69.310	177.417	0.00053146	0.00039453	8.0096e-05	488.79	5.4372e-06	8.1909e-06	630.42	183.98	6.3994e-06	9.4802e-06	254.43	112.72	84.978	44.387	3.9416e-06	60.285	0.0011547	0.0011784	0.00032768	571.09	1.2854e-05	1.2954e-05	702.73	207.22	1.2905e-05	1.2832e-05	292.76	125.01	95.649	47.615	1.279e-05	64.018	168.308	144.685	221.163	-112.228	26.503	2.127	-113.257	-106.826	233.367	21.316	-109.117	-105.119	-102.737	-96.600	30.868	-100.502	-8191	255	
1253.684	1	1	0	0	0.19498	0.17857	0.020012	0.17109	0.08307	0.37038	0.081555	0.15501	0.18495	0.18088	0.36646	0.16279	0.074653	0.14293	0.085907	0.22747	-1.7896	-2.5333	-2.2208	-2.5354	-2.4021	-2.35	-2.5062	-2.4125	-2.2687	-2.6188	-2.5438	-2.3771	-2.6646	-2.3208	-2.5	-2.7625	-111.606	-28.659	147.002	196.036	-45.532	49.537	33.110	-67.753	-91.085	145.439	209.993	-97.050	-92.259	184.935	-82.617	213.532	0.00042287	0.00058115	0.00021822	494.18	2.7749e-06	5.7052e-07	627.01	182.03	1.082e-05	5.8474e-06	253.18	111.53	83.419	43.662	1.7013e-06	59.154	0.0011616	0.0011773	0.00032838	571.35	1.2893e-05	1.2948e-05	704.12	206.14	1.288e-05	1.2834e-05	291.07	124	94.392	47.163	1.2804e-05	63.217	188.553	188.369	83.821	-112.514	-44.242	-29.954	-113.426	-106.289	-67.049	-10.562	-108.789	-104.928	-102.977	-96.439	162.305	-100.289	-8191	255	
1253.803	1	1	0	0	0.16451	0.1896	0.04087	0.30504	0.028006	0.23059	0.21019	0.29927	0.059721	0.09762	0.14511	0.005623	0.1438	0.0095072	0.027911	0.20068	-1.5812	-2.5292	-2.45	-2.4167	-2.3729	-2.2604	-2.4875	-2.5354	-2.1104	-2.6021	-2.5458	-2.2958	-2.6521	-2.3417	-2.3646	-2.9188	10.388	-96.987	110.849	160.957	115.127	-41.245	146.691	-91.320	60.038	-16.056	171.235	-14.401	220.647	-33.502	169.646	24.023	0.00067469	0.0009842	0.0004484	489.71	4.2371e-06	1.2075e-06	623.46	180.25	6.4608e-06	1.6106e-05	251.46	110.74	82.562	43.255	2.3053e-06	58.268	0.0011474	0.0011703	0.00032646	568.85	1.2743e-05	1.2825e-05	699.39	204.96	1.2731e-05	1.2744e-05	288.92	122.72	93.595	46.688	1.2668e-05	62.45	175.981	9.855	-53.631	-112.106	176.694	-60.748	-113.752	-106.241	208.925	54.680	-109.199	-105.240	-102.533	-96.159	154.707	-100.646	-8191	255	
1253.899	1	1	0	0	0.21751	0.3103	0.091284	0.10959	0.20795	0.28936	0.04663	0.022416	0.081855	0.072569	0.1851	0.20999	0.093898	0.21841	0.08167	0.16187	-1.6125	-2.7292	-2.4313	-2.3	-2.575	-2.0521	-2.4542	-2.5542	-2.1958	-2.5917	-2.5333	-2.4437	-2.6125	-2.3146	-2.3021	-2.6354	78.079	234.254	149.639	190.167	232.126	96.259	220.910	-70.154	-35.344	175.242	-117.828	-94.803	77.636	185.370	208.392	-32.977	0.0003915	0.0004857	0.0003117	490.64	4.5946e-06	5.5151e-06	622.47	179.5	6.0247e-06	4.2811e-06	252.75	110.48	83.278	43.336	3.8847e-06	58.687	0.0011498	0.0011688	0.00032472	567.9	1.279e-05	1.2829e-05	697.64	204.5	1.2771e-05	1.2797e-05	289.89	122.89	93.86	46.715	1.2778e-05	62.716	181.124	225.151	-60.741	-112.153	-63.988	-21.924	-113.289	-106.843	-4.801	84.918	-108.897	-105.402	-102.692	-96.331	-5.403	-100.897	-8191	255	
1253.995	1	1	0	0	0.16975	0.028204	0.21019	0.13303	0.23409	0.019924	0.095125	0.14855	0.090264	0.06993	0.15281	0.09855	0.11264	0.28166	0.092423	0.11653	-1.5375	-2.3729	-2.5646	-2.1646	-2.5583	-2.3167	-2.3396	-2.5458	-2.2854	-2.5917	-2.4167	-2.1417	-2.6833	-2.2875	-2.3583	-2.8104	-32.121	-1.662	173.058	211.829	58.533	-26.849	163.554	130.261	-6.017	3.255	-93.322	-73.677	105.496	-78.344	172.653	75.707	0.00043932	0.0013104	0.0002962	490.03	1.1383e-06	5.8536e-06	624.56	181.12	3.1923e-06	9.368e-06	253.22	111.34	83.532	43.902	6.8531e-06	58.858	0.0011475	0.001169	0.00032524	567.02	1.2693e-05	1.2753e-05	699.45	204.42	1.2731e-05	1.2748e-05	289.26	123.46	94.249	47.093	1.2843e-05	63.123	184.587	-66.685	-33.836	-112.196	38.511	3.069	-113.525	-106.384	27.966	98.756	-109.007	-104.871	-102.534	-96.354	-85.034	-100.618	-8191	255	
1254.091	1	1	0	0	0.1059	0.10222	0.26074	0.1717	0.26433	0.46375	0.067112	0.24616	0.31912	0.18723	0.31186	0.24834	0.23264	0.28963	0.3019	0.074954	-1.65	-2.4708	-2.5292	-2.3854	-2.6854	-2.4062	-2.5187	-2.7	-2.2646	-2.5708	-2.7771	-2.2042	-2.5271	-2.65	-2.2458	-2.8896	235.009	4.359	-63.487	-109.301	118.790	136.835	33.298	223.190	-35.607	54.135	105.564	179.876	226.253	189.460	139.165	146.395	0.0003903	0.00020851	0.00015032	489.38	4.0649e-06	9.4048e-06	623.25	179.75	5.8248e-06	1.0661e-05	252.81	111.08	82.966	43.388	2.6468e-06	59.105	0.001158	0.0011712	0.00032895	569.22	1.2803e-05	1.2836e-05	700.36	204.57	1.2861e-05	1.29e-05	289.99	123.16	93.87	46.863	1.2898e-05	63.121	177.345	118.850	185.632	-112.630	20.157	199.312	-113.411	-106.432	62.298	32.653	-108.931	-104.923	-102.750	-96.790	-52.175	-100.792	-8191	255	
1254.212	1	1	0	0	0.055069	0.28534	0.2452	0.23316	0.14361	0.098339	0.064474	0.016072	0.13874	0.075279	0.11821	0.047145	0.084209	0.35559	0.35038	0.044773	-1.9937	-2.325	-2.6083	-2.3167	-2.2229	-2.675	-2.2708	-2.7646	-2.4667	-2.1417	-2.7021	-2.375	-2.4146	-2.6167	-2.2167	-2.6375	82.921	-75.023	-67.626	113.225	-27.439	-70.914	35.599	-101.411	101.203	210.543	-30.029	-102.793	11.911	174.679	-46.246	88.627	0.00061769	0.00078791	0.00024254	484.79	5.1454e-06	1.1754e-06	620.34	181.24	8.5567e-06	9.5475e-06	251.24	110.38	82.567	43.417	6.9425e-06	58.479	0.0011626	0.0011792	0.00032977	566.43	1.2954e-05	1.2943e-05	698.67	205.03	1.2852e-05	1.2876e-05	289.08	122.62	93.633	46.776	1.2876e-05	62.806	189.712	-123.570	-83.643	-112.433	136.728	121.408	-113.470	-106.256	-120.059	46.007	-109.012	-105.029	-102.548	-96.283	36.719	-100.486	-8191	255	
1254.283	1	1	0	0	0.11807	0.081121	0.20761	0.30733	0.17946	0.19431	0.27996	0.059049	0.069712	0.085317	0.080746	0.19312	0.2527	0.28971	0.12888	0.13812	-1.7979	-2.2729	-2.4125	-2.3104	-2.5062	-2.5563	-2.3896	-2.6458	-2.4417	-2.3	-2.4875	-2.3312	-2.5667	-2.7271	-2.3479	-2.6792	38.207	227.783	98.075	189.909	70.042	150.375	-112.130	71.091	-45.473	-44.729	170.406	162.388	150.053	139.275	-71.805	131.439	0.00036493	0.00039986	0.00027594	484.01	1.5006e-05	3.7887e-06	615.18	179.61	7.1164e-06	6.1257e-06	249.77	109.97	83.018	43.367	2.3177e-06	58.607	0.0011624	0.0011853	0.00032967	565.1	1.2866e-05	1.288e-05	693.3	203.91	1.2919e-05	1.2957e-05	288.18	122.17	93.644	46.771	1.2904e-05	62.832	157.941	-37.955	-103.036	-112.280	-80.927	75.016	-113.595	-106.313	53.876	23.094	-108.695	-105.231	-102.616	-96.498	0.386	-100.753	-8191	255	
1254.404	1	1	0	0	0.2107	0.35689	0.31954	0.079586	0.16554	0.029312	0.14021	0.081614	0.2786	0.20203	0.17969	0.13886	0.1788	0.20991	0.24977	0.15399	-1.8937	-2.3708	-2.7188	-2.4646	-2.3854	-2.6708	-1.9917	-2.7708	-2.6917	-2.1167	-2.6312	-2.4875	-2.3958	-2.8875	-2.0292	-2.4583	166.121	20.376	90.439	-117.154	9.631	112.171	139.446	171.519	3.698	-78.163	120.887	89.085	-110.587	208.667	196.371	-85.529	0.0004149	0.00035122	0.0002677	484.47	6.3104e-06	7.9076e-06	616.9	178.68	3.9794e-06	1.5005e-06	248.71	110.65	82.98	43.331	5.3512e-06	58.729	0.0011627	0.0011874	0.00032869	565.8	1.2862e-05	1.2921e-05	695.15	203.97	1.2946e-05	1.2843e-05	288.4	122.61	93.874	46.795	1.2822e-05	62.983	184.042	-14.841	-23.485	-112.788	85.347	-66.823	-113.476	-106.634	65.805	-108.312	-108.821	-105.254	-102.973	-96.521	-50.332	-100.778	-8191	255	
1254.500	1	1	0	0	0.10782	0.088108	0.13571	0.14632	0.26432	0.068374	0.12524	0.23506	0.11026	0.16969	0.10804	0.2213	0.13675	0.3892	0.15985	0.41708	-2.0312	-2.1104	-2.4896	-2.2167	-2.1542	-2.6937	-2.3583	-2.5646	-2.4917	-2.3125	-2.6333	-2.3833	-2.2729	-2.9146	-2.1083	-2.5062	204.552	26.258	68.794	195.769	-71.330	-32.976	42.436	175.951	-108.853	83.407	-16.885	177.281	219.424	173.519	143.744	-109.523	0.00033675	0.0001721	0.00016741	485.7	8.4227e-08	5.8332e-06	620.14	180.51	8.0515e-06	9.0684e-06	251.38	110.25	82.553	43.472	1.5319e-06	58.977	0.0011588	0.0011758	0.00032858	565.3	1.283e-05	1.2901e-05	696.63	204.33	1.2914e-05	1.2915e-05	288.76	122.52	93.57	46.717	1.2872e-05	62.988	166.187	-103.305	207.518	-112.285	7.021	-102.627	-113.206	-106.122	-84.725	-26.806	-108.743	-104.978	-102.473	-96.343	107.836	-100.432	-8191	255	
1254.594	1	1	0	0	0.1864	0.20115	0.18527	0.18781	0.19555	0.20154	0.303	0.21555	0.13969	0.10967	0.20453	0.14884	0.10086	0.31204	0.14921	0.30333	-2.1354	-2.0938	-2.5375	-2.4958	-2.4354	-2.825	-2.2938	-2.2438	-2.6063	-2.3667	-2.6083	-2.3917	-2.3521	-2.4875	-2.3875	-2.5292	179.577	196.076	-102.507	-83.476	-93.958	202.385	101.347	206.140	-91.237	-57.400	-64.734	164.982	-107.256	197.703	225.904	-94.112	0.00024853	0.00061151	0.00016196	487.99	4.5948e-06	5.5894e-06	616.9	180.51	6.0496e-06	1.1167e-05	251.51	110.41	82.46	43.609	1.1858e-05	58.929	0.0011588	0.0011829	0.00032741	566.33	1.2876e-05	1.289e-05	696.72	204.32	1.2889e-05	1.2888e-05	289.2	122.62	93.539	46.878	1.2906e-05	63.128	183.542	59.494	-117.692	-112.247	-102.216	-56.997	-113.101	-106.390	-96.533	-23.848	-109.310	-105.316	-102.733	-96.441	57.212	-100.527	-8191	255	
#DATA ENDS
