BOXY.EXE: ISS Imagent and Oximeter Data Acquisition Program Version 0.80
Ascii Record File

#ACQ INFORMATION
2  Detector Channels 
16  External MUX Channels 
1  Auxiliary Channels 
5000  Waveform (CCF) Frequency (Hz)
1  Waveforms Skipped 
30  Waveforms Averaged 
1  Cycles Averaged 
16  Acquisitions per Waveform 
10.0806  Updata Rate (Hz) 

#FILE INFORMATION
TRUE -- External MUX Channel results are PARSED.
FALSE -- AC DC and Phase are NOT grouped.
TRUE -- Companion Program Settings File CREATED.
FALSE -- AC data not excluded
FALSE -- DC data not excluded
FALSE -- Phase data not excluded
FALSE -- Auxillary Chn. data not excluded
Tab delimiters

#CALIBRATION STATE
TRUE -- Waveform Calibration Values APPLIED.


#AUX CALIBRATION VALUES
Val Type	aux-1	

Term	1.0000e+00	
Factor	0.0000e+00	


#WF CALIBRATION VALUES
A = Detector Channel
Val Type	A-AC1	A-AC2	A-AC3	A-AC4	A-AC5	A-AC6	A-AC7	A-AC8	A-AC9	A-AC10	A-AC11	A-AC12	A-AC13	A-AC14	A-AC15	A-AC16	A-DC1	A-DC2	A-DC3	A-DC4	A-DC5	A-DC6	A-DC7	A-DC8	A-DC9	A-DC10	A-DC11	A-DC12	A-DC13	A-DC14	A-DC15	A-DC16	A-Ph1	A-Ph2	A-Ph3	A-Ph4	A-Ph5	A-Ph6	A-Ph7	A-Ph8	A-Ph9	A-Ph10	A-Ph11	A-Ph12	A-Ph13	A-Ph14	A-Ph15	A-Ph16	

Term	0.00000e+00	0.00000e+00	0.00000e+00	0.00000e+00	0.00000e+00	0.00000e+00	0.00000e+00	0.00000e+00	0.00000e+00	0.00000e+00	0.00000e+00	0.00000e+00	0.00000e+00	0.00000e+00	0.00000e+00	0.00000e+00	0.00000e+00	0.00000e+00	0.00000e+00	0.00000e+00	0.00000e+00	0.00000e+00	0.00000e+00	0.00000e+00	0.00000e+00	0.00000e+00	0.00000e+00	0.00000e+00	0.00000e+00	0.00000e+00	0.00000e+00	0.00000e+00	0.00000e+00	0.00000e+00	0.00000e+00	0.00000e+00	0.00000e+00	0.00000e+00	0.00000e+00	0.00000e+00	0.00000e+00	0.00000e+00	0.00000e+00	0.00000e+00	0.00000e+00	0.00000e+00	0.00000e+00	0.00000e+00	
Factor	1.00000e+00	1.00000e+00	1.00000e+00	1.00000e+00	1.00000e+00	1.00000e+00	1.00000e+00	1.00000e+00	1.00000e+00	1.00000e+00	1.00000e+00	1.00000e+00	1.00000e+00	1.00000e+00	1.00000e+00	1.00000e+00	1.00000e+00	1.00000e+00	1.00000e+00	1.00000e+00	1.00000e+00	1.00000e+00	1.00000e+00	1.00000e+00	1.00000e+00	1.00000e+00	1.00000e+00	1.00000e+00	1.00000e+00	1.00000e+00	1.00000e+00	1.00000e+00	X	X	X	X	X	X	X	X	X	X	X	X	X	X	X	X	

B = Detector Channel
Val Type	B-AC1	B-AC2	B-AC3	B-AC4	B-AC5	B-AC6	B-AC7	B-AC8	B-AC9	B-AC10	B-AC11	B-AC12	B-AC13	B-AC14	B-AC15	B-AC16	B-DC1	B-DC2	B-DC3	B-DC4	B-DC5	B-DC6	B-DC7	B-DC8	B-DC9	B-DC10	B-DC11	B-DC12	B-DC13	B-DC14	B-DC15	B-DC16	B-Ph1	B-Ph2	B-Ph3	B-Ph4	B-Ph5	B-Ph6	B-Ph7	B-Ph8	B-Ph9	B-Ph10	B-Ph11	B-Ph12	B-Ph13	B-Ph14	B-Ph15	B-Ph16	

Term	0.00000e+00	0.00000e+00	0.00000e+00	0.00000e+00	0.00000e+00	0.00000e+00	0.00000e+00	0.00000e+00	0.00000e+00	0.00000e+00	0.00000e+00	0.00000e+00	0.00000e+00	0.00000e+00	0.00000e+00	0.00000e+00	0.00000e+00	0.00000e+00	0.00000e+00	0.00000e+00	0.00000e+00	0.00000e+00	0.00000e+00	0.00000e+00	0.00000e+00	0.00000e+00	0.00000e+00	0.00000e+00	0.00000e+00	0.00000e+00	0.00000e+00	0.00000e+00	-1.50301e+02	-1.43373e+02	-1.49792e+02	-1.82306e+02	-7.93885e+01	-7.58284e+01	-1.59027e+02	-1.62015e+02	-9.78180e+01	-8.34192e+01	-1.70563e+02	-1.71693e+02	-1.81003e+02	-1.76539e+02	-7.99657e+01	-1.49547e+02	
Factor	2.19586e-05	8.39436e-05	3.41424e-05	1.49821e-01	8.35295e-07	9.81461e-07	1.65141e-01	4.79080e-02	1.03987e-06	1.07697e-06	8.44516e-02	2.96454e-02	2.29630e-02	8.60919e-03	9.99734e-07	1.26421e-02	8.08318e-07	8.29617e-07	2.31217e-07	7.45948e-02	9.07046e-09	9.09328e-09	7.73629e-02	2.38309e-02	9.06268e-09	9.06799e-09	3.98886e-02	1.40138e-02	1.13350e-02	4.22160e-03	9.04165e-09	5.95415e-03	X	X	X	X	X	X	X	X	X	X	X	X	X	X	X	X	



#DISTANCE SETTINGS
A = Detector Channel
A-1	A-2	A-3	A-4	A-5	A-6	A-7	A-8	A-9	A-10	A-11	A-12	A-13	A-14	A-15	A-16	

2.5000e+00	3.0000e+00	2.5000e+00	3.0000e+00	2.0000e+00	3.0000e+00	1.5000e+00	3.0000e+00	3.0000e+00	3.0000e+00	3.0000e+00	3.0000e+00	3.0000e+00	3.0000e+00	1.5000e+00	3.0000e+00	

B = Detector Channel
B-1	B-2	B-3	B-4	B-5	B-6	B-7	B-8	B-9	B-10	B-11	B-12	B-13	B-14	B-15	B-16	

1.0000e+01	1.0000e+01	1.0000e+01	1.4400e+00	1.0000e+01	1.0000e+01	1.5100e+00	1.9400e+00	1.0000e+01	1.0000e+01	1.9900e+00	2.4900e+00	2.4100e+00	2.9000e+00	1.0000e+01	2.9800e+00	




#DATA BEGINS
time	group	step	mark	flag	A-AC1	A-AC2	A-AC3	A-AC4	A-AC5	A-AC6	A-AC7	A-AC8	A-AC9	A-AC10	A-AC11	A-AC12	A-AC13	A-AC14	A-AC15	A-AC16	A-DC1	A-DC2	A-DC3	A-DC4	A-DC5	A-DC6	A-DC7	A-DC8	A-DC9	A-DC10	A-DC11	A-DC12	A-DC13	A-DC14	A-DC15	A-DC16	A-Ph1	A-Ph2	A-Ph3	A-Ph4	A-Ph5	A-Ph6	A-Ph7	A-Ph8	A-Ph9	A-Ph10	A-Ph11	A-Ph12	A-Ph13	A-Ph14	A-Ph15	A-Ph16	B-AC1	B-AC2	B-AC3	B-AC4	B-AC5	B-AC6	B-AC7	B-AC8	B-AC9	B-AC10	B-AC11	B-AC12	B-AC13	B-AC14	B-AC15	B-AC16	B-DC1	B-DC2	B-DC3	B-DC4	B-DC5	B-DC6	B-DC7	B-DC8	B-DC9	B-DC10	B-DC11	B-DC12	B-DC13	B-DC14	B-DC15	B-DC16	B-Ph1	B-Ph2	B-Ph3	B-Ph4	B-Ph5	B-Ph6	B-Ph7	B-Ph8	B-Ph9	B-Ph10	B-Ph11	B-Ph12	B-Ph13	B-Ph14	B-Ph15	B-Ph16	aux-1	digaux	

1181.561	1	1	0	768	0.051753	0.41924	0.31989	0.19711	0.1352	0.0892	0.23605	0.09576	0.23956	0.27505	0.24429	0.089533	0.20135	0.19024	0.45144	0.21403	-1.9333	-2.3187	-2.0146	-2.6604	-2.4479	-2.2375	-2.8354	-2.3063	-2.4208	-2.5146	-2.2	-2.6604	-2.5333	-2.3688	-2.5583	-2.6	-0.919	223.365	108.133	226.228	-122.948	-4.599	211.881	148.318	-92.738	118.118	154.689	-55.103	67.993	233.184	135.765	138.081	0.00065397	0.00010213	0.00010331	645.75	2.3671e-06	6.9037e-06	815.05	257.38	2.6597e-06	6.0734e-06	356.99	164.28	110.46	60.678	5.5911e-06	97.677	0.00023335	0.00021743	6.0421e-05	628.35	2.3817e-06	2.3738e-06	791.5	249.84	2.3873e-06	2.3867e-06	339.71	156.52	106.36	57.878	2.388e-06	91.619	182.963	-50.973	-100.788	-112.800	13.081	-32.070	-113.614	-107.514	-2.388	-3.949	-109.350	-105.637	-104.032	-98.364	4.576	-101.133	-8191	255	
1181.657	1	1	0	0	0.29566	0.12283	0.12282	0.15384	0.20555	0.059137	0.18662	0.18946	0.32569	0.14968	0.3064	0.2701	0.096958	0.36833	0.19541	0.30167	-1.8354	-2.5229	-2.1479	-2.6542	-2.4479	-2.2625	-2.4792	-2.3792	-2.3042	-2.6542	-2.4875	-2.5208	-2.4354	-2.3354	-2.45	-2.1646	94.700	187.565	70.275	31.045	-37.811	41.175	115.077	199.191	203.428	229.222	219.121	199.030	75.727	233.515	139.537	106.977	0.00068336	0.00020328	0.00013495	644.81	5.0553e-06	5.27e-06	819.44	261.01	4.3813e-06	1.0513e-06	359.89	165.25	110.93	61.039	3.8496e-06	98.126	0.00023826	0.00021907	6.1127e-05	629.88	2.3925e-06	2.4217e-06	795.17	251.87	2.3783e-06	2.366e-06	342.62	157.68	107.07	58.16	2.3719e-06	92.268	173.457	-89.644	7.780	-112.219	-4.882	1.607	-113.587	-107.733	-8.986	46.911	-109.462	-106.009	-104.221	-98.109	5.349	-101.351	-8191	255	
1181.753	1	1	0	0	0.13701	0.12142	0.036783	0.11154	0.029798	0.18743	0.19442	0.33464	0.26159	0.048316	0.29858	0.25846	0.39344	0.34427	0.1843	0.2937	-1.7354	-2.4313	-2.1188	-2.6229	-2.6375	-2.3396	-2.8042	-2.6	-2.5417	-2.6542	-2.3521	-2.5958	-2.6437	-2.2146	-2.4688	-2.475	162.931	8.457	50.582	192.965	174.663	-98.854	146.072	187.835	73.235	-118.252	174.563	-124.736	129.947	218.721	143.964	213.715	0.00071632	0.00043291	0.000134	650.4	2.7469e-06	5.5091e-06	825.54	259.81	3.5901e-06	2.8637e-06	359.9	166.59	111.99	61.352	6.7282e-06	98.447	0.00023504	0.00021791	6.058e-05	631.89	2.398e-06	2.3973e-06	800.09	252.33	2.4179e-06	2.4096e-06	344.17	158.57	107.58	58.493	2.437e-06	92.613	173.924	-49.287	-7.544	-112.660	38.037	23.634	-113.621	-107.745	-31.254	7.384	-109.827	-105.758	-104.138	-98.222	4.686	-101.208	-8191	255	
1181.849	1	1	0	0	0.17471	0.072054	0.047218	0.26523	0.24623	0.089068	0.29859	0.12263	0.32939	0.23816	0.068569	0.13551	0.053382	0.17514	0.16136	0.13158	-1.9146	-2.7958	-2.4271	-2.5271	-2.4521	-2.0104	-2.7958	-2.6771	-2.0812	-2.4979	-2.3563	-2.3563	-2.5125	-2.1104	-2.2146	-2.5812	85.937	-112.770	228.948	153.472	120.984	87.266	149.388	2.632	1.766	109.815	232.164	155.241	-49.900	196.293	-3.767	125.197	0.00070358	0.00012075	5.1487e-05	649.39	3.7846e-06	6.0552e-06	821.51	260.45	2.3582e-06	4.8067e-06	359.13	166.89	110.95	61.138	3.5537e-06	98.416	0.00023752	0.0002184	6.0458e-05	633.14	2.4066e-06	2.4215e-06	798.74	252.3	2.4107e-06	2.4356e-06	342.93	158.35	106.93	58.313	2.3693e-06	92.263	178.884	233.122	208.595	-112.603	6.052	-14.561	-113.775	-107.806	212.109	-26.754	-109.649	-105.816	-103.970	-98.212	31.534	-101.069	-8191	255	
1181.945	1	1	0	0	0.11169	0.042809	0.30661	0.19329	0.2228	0.10458	0.16104	0.35506	0.30315	0.04043	0.52065	0.13604	0.14925	0.25637	0.30087	0.098761	-1.9083	-2.7583	-2.2583	-2.4813	-2.6979	-2.3688	-2.6729	-2.5125	-2.1979	-2.4167	-2.4458	-2.3187	-2.7875	-2.3063	-2.4875	-2.9021	-96.564	-87.512	-16.798	216.774	137.170	215.526	26.427	128.084	-85.242	-121.846	159.576	119.823	231.908	155.555	-89.740	113.359	0.00077223	0.00049839	8.4669e-05	650.27	4.3811e-06	4.0893e-06	821.5	258.57	4.4337e-06	6.0619e-06	357.13	164.57	110.52	60.749	3.7849e-06	97.3	0.00022958	0.00021629	6.0024e-05	632.9	2.3653e-06	2.3656e-06	796.31	250.72	2.4213e-06	2.3801e-06	340.01	156.63	106.24	57.92	2.3754e-06	91.353	177.855	-101.669	-56.588	-112.784	89.242	61.708	-113.644	-107.566	-78.464	39.073	-109.576	-105.613	-104.087	-98.080	-8.924	-101.362	-8191	255	
1182.041	1	1	0	0	0.23237	0.10134	0.18783	0.23537	0.2907	0.30446	0.27827	0.068464	0.20448	0.13758	0.31152	0.38572	0.092058	0.20085	0.11429	0.27247	-1.5667	-2.4313	-2.2083	-2.2792	-2.6646	-2.2021	-2.4021	-2.6437	-2.3417	-2.7188	-2.425	-2.4021	-2.7958	-2.3625	-2.7	-2.8312	-7.790	-101.651	-94.487	170.469	-49.484	162.369	143.159	-116.762	221.940	-107.730	190.008	231.496	197.122	213.008	-6.835	197.814	0.00062805	0.0003731	0.00024571	645.64	5.5075e-06	5.3065e-06	821.05	257.95	6.0576e-06	4.9603e-06	355.69	164.42	110.47	60.733	3.0189e-06	96.647	0.00023008	0.00021481	5.9527e-05	628.63	2.3267e-06	2.3426e-06	794.41	249.84	2.3566e-06	2.3513e-06	339.34	156.18	106.24	57.779	2.3857e-06	91.013	180.932	-67.000	-83.503	-112.719	43.378	14.635	-113.523	-107.712	-22.228	7.567	-109.621	-105.844	-103.933	-98.182	-27.005	-101.146	-8191	255	
1182.162	1	1	0	0	0.19329	0.24801	0.20026	0.29418	0.12954	0.049144	0.035541	0.11663	0.13869	0.05822	0.20025	0.16183	0.13881	0.25355	0.14886	0.21534	-1.6187	-2.5667	-2.3896	-2.2104	-2.6354	-2.2208	-2.2042	-2.7521	-2.0167	-2.3896	-2.6688	-2.4396	-2.7521	-2.475	-2.4167	-2.4688	-43.861	190.242	-30.957	201.670	-49.797	150.475	0.929	-87.814	-73.511	-46.090	111.881	154.326	230.262	-111.835	-20.567	146.249	0.00066762	0.00014123	9.6501e-05	648.28	4.1208e-06	1.0635e-06	817.46	256.74	5.2955e-07	6.8628e-06	355.48	164.25	110.47	60.801	4.3335e-06	97.413	0.00023435	0.00021425	6.0583e-05	629.09	2.3476e-06	2.3583e-06	792.75	248.95	2.3854e-06	2.354e-06	338.76	156.06	106.2	57.9	2.3619e-06	91.244	173.018	229.278	-44.557	-112.805	-7.441	7.933	-113.632	-107.503	39.647	-12.388	-109.218	-105.833	-104.174	-97.928	-11.104	-101.292	-8191	255	
1182.258	1	1	0	0	0.12049	0.13282	0.11945	0.34136	0.12759	0.1723	0.049958	0.13034	0.14936	0.14195	0.12155	0.2072	0.013862	0.32937	0.26488	0.12567	-1.6375	-2.525	-2.5	-2.2292	-2.8625	-2.2604	-2.4208	-2.3896	-1.9708	-2.4417	-2.6833	-2.2167	-2.65	-2.5917	-2.5312	-2.8208	-31.711	-26.854	70.812	59.949	102.556	180.735	121.764	221.944	66.918	40.714	178.441	-79.719	67.478	209.956	-39.823	-79.806	0.00068458	0.0003693	0.00019439	645.75	6.9666e-06	4.5049e-06	818.52	259.53	6.8742e-06	4.6712e-06	355.47	165.04	110.26	60.932	4.4124e-06	97.395	0.0002307	0.00021533	5.9912e-05	628.37	2.3376e-06	2.3436e-06	792.76	250.11	2.3515e-06	2.331e-06	338.96	156.57	106.23	58.031	2.355e-06	91.632	182.399	-99.548	-33.711	-112.706	-11.304	-29.888	-113.590	-107.464	-98.475	14.028	-109.253	-105.843	-104.251	-98.083	-13.994	-101.377	-8191	255	
1182.354	1	1	0	0	0.1647	0.074767	0.15609	0.17326	0.077528	0.19003	0.28378	0.058304	0.195	0.045264	0.23849	0.11986	0.052098	0.20658	0.22712	0.25513	-2.0333	-2.3063	-2.5625	-2.1521	-2.4292	-2.4688	-2.5042	-2.5125	-2.1458	-2.3979	-2.4125	-2.1813	-2.7167	-2.4562	-2.2333	-2.3875	210.515	-79.613	25.790	205.732	10.735	35.517	126.372	1.565	11.734	197.990	-97.359	226.329	48.671	233.093	-50.396	-123.357	0.00073714	0.00023523	0.00016937	646.98	3.1616e-06	6.8572e-06	811.64	257.76	1.9606e-06	2.9864e-06	355.89	163.35	110.46	60.464	1.2053e-06	96.684	0.0002327	0.00021334	5.9739e-05	628.69	2.343e-06	2.3541e-06	790.98	249.22	2.361e-06	2.3551e-06	337.99	155.49	105.85	57.661	2.3556e-06	90.78	177.203	-50.655	-45.267	-112.464	-4.207	42.178	-113.766	-107.748	-62.390	-4.878	-109.617	-105.772	-103.985	-97.806	-20.778	-101.240	-8191	255	
1182.450	1	1	0	0	0.14626	0.1273	0.16862	0.26433	0.14518	0.065089	0.30385	0.046881	0.016727	0.09903	0.088145	0.19192	0.18449	0.38822	0.30081	0.31417	-1.6479	-2.4292	-2.5833	-2.4271	-2.3875	-2.4167	-2.2542	-2.6083	-2.4146	-2.5438	-2.8187	-2.2333	-2.7521	-2.7229	-2.125	-2.7625	-27.290	72.544	90.738	195.071	123.999	-46.937	175.102	181.576	-5.335	114.781	160.738	-101.309	232.882	179.632	163.814	-125.174	0.00065227	0.0005461	0.00025438	641.89	3.9106e-06	5.5147e-06	812.95	257.39	2.1935e-06	4.823e-06	355.89	162.69	109.77	60.584	3.2128e-06	96.598	0.00022849	0.00020994	5.9158e-05	626.07	2.2962e-06	2.3378e-06	789.26	248.78	2.3632e-06	2.3277e-06	337.03	154.84	105.6	57.65	2.311e-06	90.679	185.059	-27.883	-57.398	-112.666	-11.506	-4.848	-113.755	-107.581	-99.775	60.836	-109.227	-105.602	-104.274	-97.910	50.639	-101.310	-8191	255	
1182.545	1	1	0	0	0.33784	0.20722	0.16039	0.13115	0.1386	0.33238	0.03635	0.29396	0.33822	0.043122	0.30982	0.15931	0.16359	0.20943	0.19129	0.11577	-1.725	-2.2062	-2.8271	-2.4042	-2.6542	-2.4104	-2.3688	-2.6375	-2.4	-2.2667	-2.7938	-2.4333	-2.3958	-2.3292	-2.3083	-2.8375	81.946	-94.986	18.214	-27.523	103.009	233.929	21.226	214.974	221.606	-28.993	186.443	195.020	220.610	144.641	-118.305	202.932	0.00069621	0.00040202	0.0001145	642.37	3.5625e-06	1.5968e-06	812.54	256.33	1.8052e-06	4.7171e-06	353.69	163.02	110.49	60.746	6.1753e-07	97.215	0.00022752	0.00021052	5.815e-05	625.8	2.279e-06	2.2931e-06	787.47	248.47	2.2813e-06	2.2767e-06	336.91	155.32	105.73	57.909	2.2852e-06	91.28	178.854	-121.778	-29.004	-112.492	2.193	12.161	-113.841	-107.636	157.359	-2.007	-109.667	-105.823	-103.959	-98.297	39.949	-101.367	-8191	255	
1182.641	1	1	0	0	0.020039	0.10375	0.18332	0.29719	0.16593	0.27326	0.12395	0.086614	0.11866	0.10243	0.35802	0.1685	0.10251	0.083751	0.34121	0.47856	-1.8417	-2.1562	-2.575	-2.1771	-2.375	-2.6437	-2.3104	-2.6604	-2.3583	-1.9167	-2.575	-2.2229	-2.2896	-2.5271	-2.2417	-2.8104	38.221	114.376	-26.753	221.094	27.035	64.228	-67.974	204.063	80.016	-17.243	-120.846	-91.950	200.934	112.946	-60.862	154.642	0.00067399	0.00063061	7.1437e-05	644.39	3.4697e-06	5.3979e-06	813.07	257.95	3.8719e-06	2.0562e-06	354.94	163.63	110.07	61.024	5.2997e-06	97.67	0.00022591	0.00020866	5.8215e-05	626.57	2.2643e-06	2.2756e-06	788.79	249.2	2.2762e-06	2.2749e-06	337.95	155.46	105.75	57.975	2.2994e-06	91.49	177.873	-64.097	-92.946	-112.525	27.127	38.625	-113.636	-107.561	-32.815	6.509	-109.693	-106.074	-103.866	-98.056	-31.974	-101.329	-8191	255	
1182.737	1	1	0	0	0.14736	0.23689	0.30676	0.051767	0.30871	0.10168	0.23122	0.10159	0.053562	0.25352	0.15281	0.073419	0.2445	0.2498	0.14672	0.30958	-2.0729	-2.3042	-2.3896	-2.3021	-2.4146	-2.5438	-2.0687	-2.45	-2.3979	-2.25	-2.7417	-2.4833	-2.4792	-2.8979	-2.1625	-2.475	211.816	-3.966	-90.326	180.371	207.345	35.504	144.756	159.617	207.412	196.100	147.898	-113.876	231.244	121.612	162.623	186.024	0.00072627	0.0004381	0.00012551	646.19	6.0998e-06	2.2249e-06	815.61	256.68	3.5912e-06	3.3519e-06	353.1	162.85	110.16	60.785	3.2075e-06	96.904	0.00022289	0.00021079	5.7915e-05	626.89	2.3196e-06	2.3008e-06	790.56	249.3	2.2912e-06	2.2494e-06	336.62	155.12	105.37	57.892	2.2261e-06	91.165	173.100	-62.175	-60.884	-112.552	20.448	-71.175	-113.511	-107.687	-109.521	-32.189	-109.600	-105.867	-104.191	-98.106	-81.248	-101.145	-8191	255	
1182.858	1	1	0	0	0.053762	0.05541	0.12774	0.28318	0.11221	0.036959	0.10667	0.15106	0.25307	0.096904	0.19599	0.12164	0.22756	0.11925	0.09235	0.18975	-1.9042	-2.2562	-2.6542	-2.5062	-2.3521	-2.7375	-2.2896	-2.3917	-2.4458	-2.1896	-2.8042	-2.5	-2.2917	-2.5854	-2.1583	-2.5583	-29.359	234.060	-87.898	197.569	195.885	90.313	193.918	140.181	156.068	-66.702	169.607	224.844	196.364	-35.070	157.405	181.019	0.00070127	0.00041662	0.00022671	643.58	4.6075e-06	4.1488e-06	814.28	256.07	3.6743e-06	2.4706e-06	353.58	162.73	109.39	60.479	3.7663e-06	96.52	0.00022018	0.0002063	5.7634e-05	624.04	2.2862e-06	2.2497e-06	788.5	248.03	2.2502e-06	2.2549e-06	336.12	154.37	105.03	57.647	2.2838e-06	90.683	183.438	-50.197	-44.293	-112.642	25.073	-2.589	-113.619	-107.538	-59.107	-12.969	-109.438	-106.019	-104.273	-97.989	82.783	-101.355	-8191	255	
1182.954	1	1	0	0	0.092956	0.066942	0.50057	0.083067	0.25433	0.094024	0.19814	0.19068	0.18432	0.09974	0.33216	0.33913	0.17234	0.27974	0.1607	0.20874	-2.1937	-1.8687	-2.2833	-2.3229	-2.3104	-2.725	-2.3646	-2.3333	-2.7042	-2.2417	-2.5563	-2.4583	-2.4396	-2.7146	-2.3521	-2.3333	188.583	134.225	188.737	-96.492	21.263	47.879	0.380	231.509	107.005	91.381	-106.324	213.250	135.987	-113.774	-92.055	162.263	0.00068776	0.00037591	6.7438e-05	642.9	4.8789e-06	5.0494e-06	810.07	257.56	6.446e-06	4.6052e-06	353.34	163.07	110.3	60.866	6.4178e-06	96.918	0.00021832	0.00020366	5.7119e-05	622.74	2.2463e-06	2.2076e-06	786.42	248.55	2.2567e-06	2.2414e-06	335.8	154.9	105.68	57.933	2.2636e-06	90.999	176.720	-16.196	-73.699	-113.021	-20.402	-18.117	-113.709	-107.814	-43.385	47.078	-109.634	-105.790	-103.981	-98.211	-32.842	-101.312	-8191	255	
1183.050	1	1	0	0	0.23123	0.12773	0.31588	0.28076	0.25194	0.25548	0.087347	0.24625	0.25669	0.29725	0.13449	0.35777	0.1655	0.058469	0.31628	0.29188	-1.8917	-2.0438	-2.4688	-2.4875	-2.0687	-2.5771	-2.7083	-2.4896	-2.375	-2.0833	-2.45	-2.6979	-2.3542	-2.7	-2.4833	-2.5333	125.884	133.647	-104.866	-99.465	-18.249	162.518	-124.695	-116.314	20.948	-105.447	231.033	205.362	66.693	-34.871	150.087	184.030	0.00069581	0.00028054	0.00015542	642.42	2.473e-06	4.633e-06	812.19	257.2	4.4888e-06	3.4291e-06	353.64	162.62	110.1	61.388	4.1215e-06	97.267	0.00022401	0.0002067	5.6825e-05	624.81	2.2521e-06	2.229e-06	788.36	248.72	2.2479e-06	2.22e-06	336.02	155.01	105.75	58.253	2.2774e-06	91.415	177.277	-50.746	-67.403	-112.650	-13.364	-8.313	-113.824	-107.583	-83.344	62.578	-109.499	-106.006	-104.228	-98.024	5.818	-101.372	-8191	255	
1183.122	1	1	0	0	0.14739	0.22207	0.030676	0.27898	0.17087	0.33677	0.25002	0.037698	0.1211	0.29431	0.27011	0.089443	0.20004	0.29186	0.2461	0.10665	-2.15	-1.9937	-2.4333	-2.6417	-2.1771	-2.4708	-2.5438	-2.2708	-2.6063	-2.2729	-2.4667	-2.7188	-2.3854	-2.6437	-2.4396	-2.5125	-14.898	218.590	-111.521	205.653	-37.318	39.108	-47.378	123.213	192.023	193.704	199.610	-23.869	206.038	-105.325	-61.239	207.700	0.00066995	0.00046212	0.00017681	642.28	2.2465e-06	7.0115e-06	817.33	258.02	5.1785e-06	1.6347e-06	354.97	163.91	111.33	61.658	4.8617e-06	97.591	0.00022192	0.00020953	5.844e-05	625.19	2.2598e-06	2.2594e-06	791.82	250.21	2.2713e-06	2.2387e-06	338.15	156.01	106.45	58.606	2.2481e-06	91.979	174.283	-31.001	-38.251	-112.601	75.740	31.197	-113.570	-107.402	-24.695	31.259	-109.528	-105.801	-103.967	-98.195	7.860	-101.136	-8191	255	
1183.242	1	1	0	0	0.041796	0.12364	0.13584	0.11453	0.16233	0.13355	0.16174	0.29662	0.062743	0.24138	0.19086	0.11901	0.23222	0.2035	0.23403	0.18132	-2.0333	-2.0792	-2.3708	-2.6937	-2.1333	-2.2458	-2.4792	-2.3729	-2.6688	-2.2896	-2.5563	-2.7229	-2.3063	-2.6125	-2.6229	-2.4896	30.218	-106.407	188.153	-5.402	195.693	113.633	84.109	113.159	-75.614	-31.712	200.469	124.947	64.045	205.670	-117.416	198.106	0.00066225	0.00017988	0.00023345	643.94	5.6929e-06	3.6495e-06	819.12	259.6	4.6768e-06	8.1523e-06	356.43	164.18	110.87	61.597	3.6336e-06	97.455	0.00022146	0.00020648	5.8036e-05	627.19	2.2635e-06	2.2762e-06	793.07	251	2.2438e-06	2.2552e-06	339.24	156.35	106.7	58.609	2.2446e-06	91.704	182.806	2.745	-70.647	-112.695	-13.557	-5.976	-113.312	-107.807	-31.030	46.691	-109.722	-105.907	-103.993	-97.999	3.451	-101.235	-8191	255	
1183.338	1	1	0	0	0.16484	0.15619	0.21743	0.24987	0.19509	0.34429	0.11962	0.12866	0.16263	0.19148	0.24216	0.12314	0.12716	0.09908	0.072673	0.14064	-2.1417	-2.325	-2.0521	-2.7104	-2.0896	-2.6437	-2.7521	-2.3021	-2.475	-2.1021	-2.2479	-2.8875	-2.4667	-2.5438	-2.5375	-2.2833	87.312	88.151	52.799	147.587	178.223	-14.690	90.955	228.404	66.429	-39.620	129.536	-80.101	155.665	198.202	90.408	147.164	0.00077375	0.00049693	0.0001432	645.63	1.5266e-06	3.1271e-06	814.44	259.56	5.0642e-06	1.9843e-06	356.71	164.97	111.52	61.559	5.3806e-06	97.748	0.00022286	0.00020831	5.7644e-05	627.64	2.3029e-06	2.2552e-06	790.31	250.92	2.291e-06	2.2555e-06	338.52	156.45	106.7	58.588	2.2281e-06	91.897	179.076	-54.253	-78.907	-112.558	11.144	-17.173	-113.733	-107.586	-0.433	-21.321	-109.503	-105.863	-104.603	-98.204	-7.999	-101.284	-8191	255	
1183.435	1	1	0	0	0.11212	0.17012	0.19884	0.090722	0.1608	0.092272	0.10908	0.17857	0.13934	0.040962	0.21413	0.12	0.23759	0.33591	0.16108	0.12179	-2.0167	-2.4667	-2.2396	-2.5667	-1.9813	-2.2938	-2.4917	-2.3063	-2.5333	-2.475	-2.4021	-2.7146	-2.0938	-2.5687	-2.5604	-2.4396	26.884	111.961	93.519	95.937	126.646	-47.903	213.186	201.556	94.623	98.601	128.302	-32.555	-96.947	130.457	-60.399	205.203	0.00073768	0.00014997	0.000163	646.05	1.2531e-06	3.5395e-06	818.31	259.16	3.8603e-06	4.7779e-06	356.44	164.63	111.52	61.75	5.1422e-06	98.299	0.00022273	0.0002056	5.7202e-05	628.89	2.2381e-06	2.2553e-06	792.46	251.15	2.2856e-06	2.2677e-06	338.98	156.55	106.72	58.763	2.2563e-06	92.156	178.478	30.665	-65.255	-112.505	70.039	9.515	-113.708	-107.801	-12.330	30.240	-109.629	-105.770	-104.192	-98.160	19.349	-101.389	-8191	255	
1183.553	1	1	0	0	0.052286	0.085728	0.17566	0.44744	0.064931	0.12514	0.17265	0.2412	0.23186	0.10815	0.14366	0.13638	0.1025	0.28323	0.36728	0.19903	-1.9396	-2.3708	-2.0208	-2.8604	-2.4021	-2.45	-2.5687	-2.1854	-2.5687	-2.4396	-2.2771	-2.6312	-2.3292	-2.5208	-2.5812	-2.3125	174.885	8.015	-63.337	226.888	-39.653	69.019	47.792	131.161	80.963	190.349	143.344	228.252	228.960	220.471	-94.408	165.545	0.00067581	0.00029779	0.00020989	647.58	2.3457e-06	2.7198e-06	819.18	259.01	2.3407e-06	4.4039e-06	357.54	164.3	110.76	61.47	4.552e-06	98.057	0.000225	0.00020814	5.7527e-05	629.97	2.2589e-06	2.2969e-06	793.56	250.93	2.2951e-06	2.2619e-06	339.13	156.42	106.47	58.549	2.3066e-06	91.959	177.030	-73.713	-46.846	-112.497	39.209	20.769	-113.738	-107.650	-37.285	7.949	-109.572	-105.987	-104.187	-98.169	7.971	-101.077	-8191	255	
1183.650	1	1	0	0	0.21372	0.039215	0.15377	0.1005	0.35398	0.093886	0.073724	0.10422	0.21845	0.019202	0.1913	0.13471	0.1695	0.11748	0.30347	0.10757	-1.7708	-2.5187	-2.1896	-2.8042	-2.2354	-2.2812	-2.6979	-2.3667	-2.3729	-2.5792	-2.1625	-2.6271	-2.7438	-2.4625	-2.6104	-2.3042	-117.016	214.713	31.099	161.411	104.774	204.497	81.577	164.696	69.225	188.722	192.350	-96.877	-117.944	196.763	147.372	81.917	0.00066137	0.00028077	7.6348e-05	647.82	4.1105e-06	1.1248e-06	816.71	258.74	1.3677e-06	3.9022e-06	355.52	163.39	109.88	61.461	5.9052e-06	97.159	0.00022775	0.00020808	5.7974e-05	628.23	2.2763e-06	2.313e-06	792.79	250.2	2.3114e-06	2.2858e-06	337.79	155.52	105.67	58.478	2.272e-06	91.453	174.382	225.277	225.621	-112.722	111.067	15.421	-113.735	-107.582	66.034	-56.666	-109.519	-105.609	-104.062	-97.892	-53.282	-101.271	-8191	255	
1183.723	1	1	0	0	0.067536	0.081448	0.2321	0.26015	0.25291	0.093979	0.066384	0.22129	0.054962	0.16124	0.25628	0.13632	0.078047	0.22945	0.33065	0.29662	-1.9854	-2.5125	-2.1771	-2.4	-2.2792	-2.2667	-2.6792	-2.1646	-2.5125	-2.6354	-2.0583	-2.5479	-2.5854	-2.3417	-2.4708	-2.4333	-122.732	-36.723	2.895	176.371	97.257	-37.336	159.993	206.856	73.850	231.250	117.087	83.885	188.996	209.199	179.324	175.640	0.0006993	0.00033881	6.6813e-05	643.49	4.2671e-06	4.6458e-06	811.66	256.56	4.0678e-06	2.6887e-06	352.33	162.89	109.82	61.264	2.2408e-06	97.006	0.00022795	0.000208	5.7621e-05	625.96	2.2777e-06	2.2844e-06	790.12	248.77	2.2987e-06	2.2531e-06	335.46	154.95	105.54	58.265	2.2792e-06	91.052	182.039	-40.934	-103.735	-112.926	32.661	98.525	-113.520	-107.671	-7.504	27.200	-109.546	-106.052	-103.962	-98.205	81.038	-101.363	-8191	255	
1183.842	1	1	0	0	0.30874	0.13131	0.33014	0.063297	0.2004	0.18832	0.13825	0.092225	0.22971	0.066856	0.25593	0.15862	0.040297	0.3305	0.24138	0.24226	-1.9188	-2.3688	-2.1271	-2.75	-2.3625	-2.3812	-2.7729	-2.3646	-2.2812	-2.6146	-2.0583	-2.4646	-2.5646	-2.1229	-2.5958	-2.4083	3.549	-1.278	-96.271	187.523	223.766	-26.831	173.517	162.420	42.726	191.393	212.802	11.160	103.440	221.863	167.048	191.474	0.00069407	0.00039813	5.6384e-05	643.78	6.243e-06	3.8065e-06	812.99	257.5	1.9853e-06	6.2186e-06	352.68	163.27	110.94	61.27	6.0161e-06	97.102	0.00022428	0.00020654	5.7358e-05	625.37	2.26e-06	2.3088e-06	788.29	249.46	2.287e-06	2.2724e-06	336.01	155	105.93	58.24	2.2787e-06	91.322	168.695	-92.611	-118.468	-112.611	21.247	-3.179	-113.702	-107.809	-5.341	21.796	-109.449	-106.031	-104.080	-97.959	-36.980	-101.393	-8191	255	
1183.938	1	1	0	0	0.27586	0.12198	0.041325	0.23842	0.010503	0.29535	0.27969	0.16309	0.10477	0.18998	0.16638	0.20768	0.33544	0.14408	0.026979	0.23717	-1.7062	-2.7271	-2.05	-2.6146	-2.6146	-2.2021	-2.7396	-2.4333	-2.2521	-2.5354	-2.4229	-2.4271	-2.5146	-2.3021	-2.4979	-2.4437	15.873	183.289	62.505	126.446	155.541	-63.336	231.651	206.778	15.383	-116.717	-89.311	201.810	185.980	-91.264	144.146	66.614	0.00072484	0.00025683	0.00017084	643.75	3.0524e-06	5.9069e-07	814.51	256.29	2.0671e-06	5.7845e-06	351.84	163.02	110.25	61.585	5.8925e-06	97.063	0.00022417	0.00020688	5.8355e-05	624.85	2.2641e-06	2.2952e-06	789.54	248.55	2.2702e-06	2.2802e-06	335.68	155.16	105.82	58.45	2.2836e-06	91.465	179.420	-85.292	-29.457	-112.410	-17.364	-2.752	-113.644	-107.931	-34.097	-64.602	-109.620	-106.057	-104.259	-98.093	43.867	-101.441	-8191	255	
1184.034	1	1	0	0	0.072967	0.035825	0.02847	0.17186	0.10791	0.1293	0.10461	0.077738	0.07552	0.101	0.14331	0.2212	0.11904	0.30336	0.31796	0.19413	-1.8271	-2.5354	-2.1646	-2.4313	-2.6271	-1.9875	-2.7313	-2.6354	-2.1771	-2.6479	-2.4271	-2.4688	-2.5333	-2.2021	-2.7854	-2.4896	141.881	-10.462	21.716	-116.330	139.713	-32.615	-89.769	129.291	232.811	132.142	189.666	160.215	212.587	-119.893	-105.636	181.646	0.00068469	0.00012859	0.00014219	642.13	4.7389e-06	2.7126e-06	814.21	257.93	2.5676e-06	6.634e-06	354.23	163.2	110.16	61.434	6.7281e-06	97.614	0.00022505	0.0002074	5.6939e-05	625.34	2.268e-06	2.2714e-06	790.35	249.83	2.3057e-06	2.2843e-06	336.31	155.39	106.05	58.487	2.2886e-06	91.575	183.666	-78.580	-51.405	-112.807	27.369	-12.710	-113.701	-107.689	-62.313	14.024	-109.672	-105.995	-104.481	-97.838	6.802	-101.292	-8191	255	
1184.155	1	1	0	0	0.2832	0.049305	0.068146	0.22946	0.080193	0.16947	0.25888	0.16191	0.13648	0.12551	0.17262	0.090509	0.1878	0.3069	0.15657	0.25417	-1.5354	-2.7583	-2.1458	-2.2583	-2.525	-2.3083	-2.5625	-2.6729	-2.3688	-2.7333	-2.3854	-2.5625	-2.5687	-2.1562	-2.5271	-2.6813	-105.815	-18.597	32.754	-85.908	207.073	110.611	177.818	103.780	228.324	153.286	-108.335	111.934	112.236	-111.892	231.750	157.658	0.00079124	0.00041124	0.00014954	643.48	6.6595e-07	4.1782e-06	813.82	257.25	5.545e-06	1.8797e-06	353.09	162.95	110.62	61.194	2.4494e-06	96.675	0.00022318	0.00020814	5.7838e-05	626.15	2.2667e-06	2.2454e-06	787.56	249.35	2.2462e-06	2.2388e-06	336	155	105.98	58.309	2.29e-06	91.023	174.879	-42.036	-8.978	-112.873	-108.203	-39.526	-113.729	-107.692	-32.625	-47.200	-109.444	-105.827	-103.867	-98.005	-17.761	-101.386	-8191	255	
1184.251	1	1	0	0	0.053407	0.081126	0.273	0.2012	0.12861	0.173	0.27822	0.30862	0.14574	0.18085	0.16255	0.1049	0.12258	0.38282	0.06734	0.1259	-1.6875	-2.4917	-2.3688	-2.5042	-2.7042	-2.1188	-2.4375	-2.5208	-2.1125	-2.7146	-2.425	-2.4646	-2.6833	-2.5875	-2.175	-2.7542	-14.599	-15.817	135.686	160.613	92.388	-63.550	208.613	68.982	-60.380	9.666	228.910	194.989	84.807	177.275	145.230	129.243	0.00068828	0.00013234	0.00025887	645.34	6.0025e-06	1.9545e-06	811.32	257.26	1.023e-06	3.3131e-06	352.25	162.99	109.85	61.281	8.7405e-06	96.813	0.00022309	0.00020644	5.8555e-05	624.72	2.2585e-06	2.2524e-06	787.43	248.95	2.2617e-06	2.2348e-06	334.87	154.79	105.75	58.276	2.268e-06	90.865	179.177	-96.883	-57.102	-112.826	12.344	88.843	-113.619	-107.816	-107.122	66.641	-109.802	-105.829	-103.894	-97.976	6.719	-101.309	-8191	255	
1184.345	1	1	0	0	0.16907	0.17974	0.18237	0.12949	0.1513	0.14459	0.094925	0.19095	0.058382	0.28966	0.12717	0.24956	0.18948	0.11186	0.18689	0.18481	-1.5917	-2.3646	-2.425	-2.4	-2.6083	-2.2104	-2.4042	-2.6875	-2.2917	-2.3604	-2.3104	-2.3729	-2.6813	-2.5104	-2.4688	-2.8542	181.438	-102.240	138.507	14.466	72.165	170.407	169.701	232.561	94.273	31.519	173.207	195.069	209.874	193.352	-52.349	133.220	0.00075695	0.00046513	0.00015486	642.45	4.8571e-06	1.0511e-06	809.59	257.7	4.2229e-06	8.8599e-06	354.19	164.06	111.33	61.859	1.1265e-06	97.275	0.00022276	0.00020501	5.7691e-05	624.45	2.2708e-06	2.2313e-06	787.8	249.58	2.2725e-06	2.2482e-06	336.24	155.59	106.4	58.695	2.2545e-06	91.355	177.321	-84.644	-67.926	-112.934	10.875	40.454	-113.813	-107.664	108.544	-6.627	-109.569	-105.793	-104.098	-98.286	158.575	-101.319	-8191	255	
1184.443	1	1	0	0	0.2484	0.24809	0.11154	0.067531	0.084621	0.10481	0.17475	0.36574	0.16649	0.046587	0.35915	0.12835	0.16994	0.10773	0.29005	0.1538	-1.6854	-2.3792	-2.575	-2.3729	-2.6708	-2.5167	-2.4938	-2.6396	-2.2562	-2.2792	-2.5625	-2.4292	-2.4729	-2.6583	-2.3354	-2.7917	102.774	-27.551	-3.054	203.243	-50.947	-28.864	-48.650	175.573	168.343	202.645	225.474	62.780	-94.848	174.493	142.913	-102.491	0.00072114	0.000279	0.00021051	641.87	5.3656e-06	2.3535e-06	815.43	258.61	5.1818e-06	5.3015e-06	356.24	163.73	111.28	61.766	4.6723e-06	97.899	0.00022272	0.00020559	5.6993e-05	625.63	2.2568e-06	2.2388e-06	789.87	250.22	2.2647e-06	2.2562e-06	337.59	155.79	106.57	58.829	2.2488e-06	91.922	181.434	-58.528	-38.446	-112.882	-5.575	45.433	-113.524	-107.656	2.094	44.457	-109.887	-105.887	-104.300	-97.975	80.030	-101.522	-8191	255	
1184.538	1	1	0	0	0.25472	0.13957	0.21278	0.53348	0.10605	0.041386	0.21533	0.23074	0.081025	0.1367	0.28762	0.14696	0.42681	0.26896	0.36584	0.097218	-1.8604	-2.3354	-2.5938	-2.2354	-2.5812	-2.3958	-2.4708	-2.6833	-2.3021	-2.3771	-2.5708	-2.3187	-2.5125	-2.5771	-1.9083	-2.7229	32.242	-19.313	38.694	-108.483	169.602	187.218	213.326	112.422	-101.848	146.761	-89.293	208.337	204.506	-104.595	147.944	180.513	0.00070706	0.00016391	0.00024423	646.27	2.3219e-06	3.2521e-06	814.47	259.52	8.2599e-07	7.9666e-06	355.44	164.28	111.47	61.932	5.6454e-06	98.032	0.00022096	0.000204	5.6927e-05	626.38	2.2401e-06	2.2268e-06	790.83	251.08	2.2531e-06	2.2384e-06	337.79	155.96	107.07	58.901	2.2737e-06	91.991	176.637	-56.993	-34.769	-112.441	-8.065	-27.011	-113.514	-107.781	94.457	-0.526	-109.348	-105.926	-104.038	-98.102	0.315	-101.339	-8191	255	
1184.634	1	1	0	0	0.1215	0.22797	0.053396	0.14051	0.28645	0.17269	0.28377	0.2537	0.1155	0.11067	0.12177	0.22203	0.060533	0.27804	0.12078	0.15926	-1.8792	-2.0875	-2.4729	-2.3833	-2.675	-2.4125	-2.2292	-2.8104	-2.25	-2.125	-2.8417	-2.2917	-2.6333	-2.7833	-2.1229	-2.8167	80.542	113.313	16.814	50.786	-49.415	96.607	166.042	96.956	-79.741	-42.340	-81.940	217.993	142.707	211.940	199.265	144.877	0.00075134	0.00039742	0.0002479	645.83	5.0618e-06	3.9428e-06	814.76	261.07	1.8588e-06	4.6689e-06	355.78	163.48	111.49	61.95	1.0761e-06	97.637	0.00022402	0.00020632	5.7728e-05	628.61	2.2662e-06	2.2642e-06	790.23	251.98	2.2488e-06	2.2556e-06	338.07	155.97	107.09	59.036	2.2826e-06	91.748	173.838	-39.455	-62.695	-112.676	21.233	-15.386	-113.605	-107.777	141.163	-2.497	-109.632	-105.759	-104.195	-98.297	40.296	-101.362	-8191	255	
1184.730	1	1	0	0	0.056652	0.065817	0.12731	0.43562	0.11467	0.13504	0.10448	0.18825	0.0494	0.16409	0.12457	0.048825	0.21973	0.41189	0.26301	0.06918	-1.7604	-2.2542	-2.5708	-2.3042	-2.4583	-2.5333	-2.3333	-2.6646	-2.3979	-2.125	-2.6354	-2.6188	-2.3292	-2.6917	-2.1229	-2.7667	105.244	61.838	171.165	205.632	151.950	-29.653	-102.095	223.760	-110.110	224.447	-82.952	169.057	228.294	217.328	160.665	138.745	0.00064303	0.00029063	0.00014211	645.75	3.6048e-06	1.9646e-06	815.48	262.23	4.8428e-06	5.1509e-06	356.45	164.5	111.94	62.26	5.7325e-06	98.237	0.0002238	0.00020628	5.7369e-05	628.69	2.2693e-06	2.2673e-06	792.57	253.45	2.2883e-06	2.291e-06	339.23	156.8	107.51	59.245	2.2669e-06	92.142	178.583	-60.347	-71.487	-112.719	7.235	43.058	-113.517	-107.799	-37.851	-5.829	-109.510	-106.151	-104.327	-98.152	46.200	-101.254	-8191	255	
1184.826	1	1	0	0	0.10544	0.19396	0.25675	0.038685	0.38821	0.13736	0.42107	0.052479	0.10048	0.2049	0.16334	0.2605	0.2442	0.21287	0.087618	0.15356	-2.0229	-2.2188	-2.6063	-2.4208	-2.45	-2.4896	-2.3	-2.5458	-2.4521	-2.2854	-2.6646	-2.35	-2.5312	-2.8354	-2.0438	-2.7479	118.141	-120.259	99.054	83.719	-22.300	188.135	128.485	191.076	100.056	223.034	144.540	225.895	204.892	213.662	177.695	162.168	0.0006549	0.00039542	6.0218e-05	645.8	2.3837e-06	5.7567e-06	823.81	262.82	3.8035e-06	3.5792e-06	359.15	165.39	112.49	62.567	7.0313e-06	98.265	0.00022591	0.00020777	5.7446e-05	628.63	2.2863e-06	2.2595e-06	794.09	254.04	2.2826e-06	2.2597e-06	340.72	157.14	108.08	59.478	2.2792e-06	92.538	174.857	-65.346	2.115	-112.510	62.724	11.740	-113.754	-107.551	-60.365	-27.974	-109.554	-105.842	-104.339	-98.182	-9.996	-101.153	-8191	255	
1184.947	1	1	0	0	0.087095	0.12148	0.22083	0.015815	0.090289	0.05484	0.24512	0.1982	0.21474	0.19045	0.2368	0.32578	0.13867	0.24939	0.054419	0.061048	-2.0812	-2.0875	-2.5667	-2.4333	-2.3875	-2.45	-2.3625	-2.5938	-2.4729	-2.2375	-2.5854	-2.1063	-2.2771	-2.7417	-2.1688	-2.8063	88.607	126.835	31.864	212.165	40.307	2.560	200.398	155.356	104.308	-46.490	-92.931	218.749	165.708	209.325	-67.364	-117.159	0.00063807	0.00031649	0.000134	649.64	4.4041e-06	2.149e-06	824.05	263.72	2.277e-06	5.0722e-06	359.15	166.16	111.82	62.658	2.1754e-06	98.918	0.00022565	0.00020828	5.8704e-05	631.59	2.2888e-06	2.2796e-06	797.88	254.99	2.3159e-06	2.2799e-06	341.58	157.92	107.91	59.631	2.2686e-06	92.714	177.977	-23.851	-26.865	-112.545	16.548	-52.294	-113.717	-107.778	-90.485	-2.741	-109.274	-106.141	-104.171	-98.355	28.243	-101.523	-8191	255	
1185.018	1	1	0	0	0.14268	0.12483	0.28816	0.26505	0.15221	0.16232	0.17225	0.14564	0.16684	0.0916	0.25673	0.335	0.19679	0.15954	0.059764	0.14531	-1.7437	-1.9062	-2.5021	-2.5187	-2.2208	-2.6562	-2.1562	-2.4979	-2.6854	-2.2792	-2.7938	-2.3646	-2.3229	-2.8271	-2.1396	-2.7292	99.676	-116.713	-33.970	220.245	119.167	-102.439	-102.818	172.057	83.361	3.472	154.992	164.478	201.283	16.789	-50.837	179.086	0.00062424	0.00067792	0.0001544	651.55	2.9163e-06	5.3849e-06	815.65	262.29	3.8911e-06	7.0298e-06	355.19	164.58	112.11	62.008	4.9456e-06	97.66	0.00022748	0.0002106	5.7538e-05	630.86	2.3088e-06	2.2727e-06	794.48	253.2	2.2651e-06	2.2576e-06	338.98	156.57	107.46	59.065	2.2506e-06	91.752	182.537	-47.634	-70.852	-112.531	63.664	61.082	-113.661	-107.626	-74.267	5.374	-109.884	-105.861	-104.265	-98.151	-5.439	-101.335	-8191	255	
1185.115	1	1	0	0	0.067204	0.12627	0.12596	0.036204	0.21324	0.31875	0.13746	0.28867	0.16207	0.12031	0.2178	0.093162	0.16584	0.12378	0.12577	0.2406	-2.0354	-2.1292	-2.6479	-2.5167	-2.1542	-2.4521	-2.3917	-2.2979	-2.725	-2.1125	-2.7042	-2.5167	-2.3917	-2.6167	-2.4729	-2.4313	-6.594	137.392	158.881	60.883	-7.447	9.119	109.718	154.513	47.340	81.939	144.098	-123.920	197.061	139.961	-107.111	-78.367	0.00076359	0.00032608	0.00016002	645.5	1.801e-06	2.8536e-06	813.33	258.7	5.673e-06	2.323e-06	353.41	163.18	111.64	61.924	2.8211e-06	97.696	0.00022382	0.00020722	5.7642e-05	627.33	2.2585e-06	2.2807e-06	789.2	250.67	2.2561e-06	2.2762e-06	336.71	155.21	106.74	58.792	2.2119e-06	91.35	185.084	-60.146	-47.741	-112.952	-81.045	6.041	-113.805	-107.477	-11.116	213.643	-109.872	-106.095	-104.138	-98.117	11.104	-101.549	-8191	255	
1185.235	1	1	0	0	0.1465	0.048181	0.19261	0.078798	0.15961	0.079699	0.092495	0.24312	0.11765	0.28557	0.17725	0.15008	0.33509	0.17528	0.077504	0.17526	-2.25	-2.1667	-2.4667	-2.5521	-2.1813	-2.4708	-2.3271	-2.2583	-2.7583	-2.2271	-2.7354	-2.65	-2.0854	-2.7625	-2.4042	-2.3458	13.032	88.470	7.889	221.565	79.930	-86.673	-96.641	216.967	224.441	78.724	200.466	-18.609	209.490	111.131	194.896	213.613	0.00074411	0.00054559	0.00028547	646.64	1.5945e-06	2.4865e-06	814.77	260.15	1.9737e-06	5.182e-06	352.7	162.9	111.4	62.065	3.08e-06	97.373	0.00022097	0.00020119	5.7288e-05	626.75	2.242e-06	2.2398e-06	789.35	251.24	2.2549e-06	2.2449e-06	336.49	155.04	106.81	58.981	2.2305e-06	91.567	179.486	-57.377	-50.925	-112.562	12.121	21.772	-113.699	-107.657	-6.050	-4.768	-109.501	-105.916	-104.268	-98.088	23.418	-101.142	-8191	255	
1185.331	1	1	0	0	0.26327	0.11002	0.15652	0.23748	0.15724	0.29531	0.025546	0.034657	0.1896	0.092025	0.10001	0.091523	0.12062	0.44644	0.11146	0.19144	-2.2354	-2.0917	-2.2812	-2.6896	-2.1792	-2.6542	-2.3479	-2.4104	-2.4667	-2.3542	-2.5604	-2.7979	-2.1437	-2.475	-2.675	-2.2583	76.235	174.374	-72.692	-101.558	89.274	-63.580	-100.516	186.088	202.302	28.069	199.503	-81.048	225.733	202.528	-57.960	-117.060	0.00067614	0.00056972	0.00019217	645.29	4.1827e-06	5.013e-06	816.52	260.6	4.1781e-06	5.2147e-06	355.61	163.68	112.11	62.149	2.7293e-06	98.082	0.00021971	0.00020467	5.5627e-05	626.46	2.2085e-06	2.2287e-06	790.21	252.14	2.2573e-06	2.1946e-06	337.89	155.9	107.29	59.205	2.257e-06	91.958	174.327	-72.296	-30.520	-112.747	-12.762	19.927	-113.639	-107.890	-58.963	44.259	-109.658	-105.651	-104.102	-97.859	-47.485	-101.544	-8191	255	
1185.426	1	1	0	0	0.13263	0.25276	0.090179	0.16957	0.093078	0.0477	0.18585	0.29069	0.2241	0.088401	0.35946	0.25505	0.31652	0.23217	0.065634	0.052185	-2.1312	-2.1729	-2.2396	-2.5896	-1.925	-2.5146	-2.2313	-2.2062	-2.5104	-2.4458	-2.275	-2.8771	-2.4333	-2.4354	-2.5458	-2.4104	229.732	85.672	106.968	114.772	46.419	81.216	145.289	233.259	51.553	90.965	75.877	205.508	-94.839	95.110	-100.851	-30.180	0.0006523	0.00061491	0.0001814	644.29	3.9596e-06	4.9763e-06	815.81	259.63	1.5809e-06	3.7521e-06	353.99	163.94	112.31	62.163	4.5551e-06	97.601	0.00021947	0.0002034	5.6833e-05	627.31	2.2012e-06	2.2092e-06	791.08	251.41	2.2092e-06	2.1836e-06	336.91	155.55	107.25	59.074	2.1956e-06	91.703	181.011	-54.763	-14.997	-112.560	21.648	26.895	-113.791	-107.746	-3.283	0.804	-109.646	-105.950	-104.142	-98.165	-1.951	-101.180	-8191	255	
1185.524	1	1	0	0	0.05493	0.085966	0.2289	0.14041	0.21488	0.10189	0.069535	0.20276	0.19548	0.080015	0.1819	0.11203	0.029077	0.18421	0.18091	0.22367	-2.1521	-2.3708	-2.1729	-2.5771	-2.2562	-2.5521	-2.5229	-2.2833	-2.4437	-2.4813	-2.2229	-2.5396	-2.3667	-2.4958	-2.6896	-2.3917	168.765	-42.766	-53.586	128.699	-62.680	-4.429	22.525	107.466	-104.932	122.133	144.779	108.116	205.536	146.776	216.524	-110.364	0.00069103	0.00020258	5.8111e-05	641.1	4.7617e-06	6.8988e-06	815.6	259.35	4.1844e-06	7.204e-06	351.22	163.08	111.1	61.712	1.2579e-06	97.258	0.00021914	0.00019932	5.5307e-05	625.64	2.1971e-06	2.198e-06	788.87	251.13	2.178e-06	2.1581e-06	335.24	154.67	106.46	58.834	2.1826e-06	91.191	180.554	-75.141	-101.381	-112.784	4.848	39.695	-113.828	-107.658	-67.678	47.550	-109.818	-105.625	-104.090	-98.227	39.407	-101.365	-8191	255	
1185.618	1	1	0	0	0.15211	0.13407	0.02129	0.025016	0.21387	0.12659	0.050017	0.26379	0.033149	0.22551	0.14238	0.14727	0.25966	0.24176	0.25672	0.23791	-2.0062	-2.2938	-2.2792	-2.5812	-2.2896	-2.4875	-2.5396	-2.4979	-2.7396	-2.3812	-2.2604	-2.8875	-2.4688	-2.4167	-2.5312	-2.2042	105.733	212.904	224.870	46.182	75.964	90.604	64.287	165.418	114.979	-60.475	9.463	209.637	221.130	198.989	201.486	94.103	0.00057315	0.00041218	5.5286e-05	641.87	5.1645e-06	4.6512e-06	813.92	258.87	2.7709e-06	6.2477e-06	353.14	162.75	110.91	62.301	5.5636e-06	97.165	0.00021878	0.00020131	5.5541e-05	624.11	2.1791e-06	2.1692e-06	788.27	250.6	2.1507e-06	2.1673e-06	336.29	154.99	106.73	59.032	2.2084e-06	91.243	187.254	-22.252	1.226	-112.744	48.525	36.386	-113.734	-107.588	-14.317	21.216	-109.479	-105.925	-104.278	-98.162	-26.193	-101.396	-8191	255	
1185.714	1	1	0	0	0.16507	0.25519	0.089025	0.15032	0.17237	0.13151	0.12791	0.24514	0.16114	0.087291	0.18886	0.16772	0.26665	0.35924	0.029948	0.07691	-2.0042	-2.3875	-2.2333	-2.4604	-2.3271	-2.3688	-2.7958	-2.3312	-2.3542	-2.5833	-2.1667	-2.65	-2.5833	-2.5083	-2.6667	-2.4333	127.531	59.834	-15.467	-80.984	18.548	-61.992	154.047	-91.157	113.046	144.922	-103.961	-113.202	212.360	220.715	25.812	93.192	0.00068008	0.00042103	0.0001657	645.25	1.939e-06	8.624e-06	811.3	259.86	2.7476e-06	3.7813e-06	351.79	163.82	111.49	62.2	2.882e-06	97.104	0.00021832	0.00020105	5.6323e-05	625.5	2.2176e-06	2.1908e-06	787.36	251.21	2.2193e-06	2.1897e-06	335.47	155.34	106.87	59.057	2.2298e-06	91.293	180.587	-96.697	-90.211	-112.442	70.196	59.908	-113.559	-107.787	-51.587	-33.922	-109.647	-105.732	-103.872	-98.201	-51.872	-101.420	-8191	255	
1185.835	1	1	0	0	0.17972	0.19599	0.058559	0.15057	0.20542	0.31276	0.17997	0.12013	0.077512	0.14115	0.2038	0.31803	0.30261	0.28848	0.072383	0.36437	-1.875	-2.5958	-2.2417	-2.575	-2.5542	-2.1229	-2.7542	-2.1333	-2.4479	-2.6854	-2.1771	-2.6063	-2.4646	-2.3708	-2.4354	-2.525	-1.731	3.018	94.289	58.983	38.724	66.965	178.993	142.795	-46.931	-47.982	-73.897	233.959	195.542	224.965	164.399	176.838	0.00066475	0.00031767	0.00029014	642.14	3.0027e-06	5.7055e-06	812.68	259.75	6.4167e-06	9.237e-06	354.89	163.78	112.19	62.481	3.8698e-06	97.864	0.00022068	0.0002012	5.652e-05	623.83	2.2298e-06	2.2318e-06	788.23	251.14	2.2507e-06	2.2006e-06	336.91	155.79	107.17	59.194	2.2229e-06	91.656	176.409	-44.395	-29.333	-112.628	5.415	18.860	-113.681	-108.026	-7.933	-26.432	-109.583	-105.819	-104.284	-97.893	157.602	-101.517	-8191	255	
1185.931	1	1	0	0	0.20658	0.044593	0.081167	0.2231	0.3657	0.25012	0.060731	0.18464	0.22239	0.22905	0.16442	0.1407	0.12131	0.15823	0.15572	0.29539	-1.8917	-2.6	-2.1104	-2.5292	-2.6063	-2.3354	-2.5458	-2.4333	-2.2104	-2.6562	-2.2792	-2.5146	-2.5687	-2.3146	-2.3875	-2.6	3.403	216.097	210.310	148.651	-71.501	-101.227	-112.375	-44.953	-72.297	-46.330	-94.758	106.027	-97.687	207.940	126.624	110.362	0.00066237	0.00045195	0.00020588	645.86	3.8855e-06	3.7168e-06	811.85	260.24	2.1136e-06	1.3526e-06	350.81	164.5	112.14	62.143	3.937e-06	97.332	0.00022267	0.00020292	5.6563e-05	625.19	2.2108e-06	2.2215e-06	787.74	251.52	2.2145e-06	2.1889e-06	336.51	156.08	107.41	59.18	2.234e-06	91.56	178.930	-81.612	-2.247	-112.557	56.294	-29.946	-113.487	-107.684	-29.977	32.075	-109.483	-106.086	-104.081	-98.169	-79.782	-101.369	-8191	255	
1186.027	1	1	0	0	0.24434	0.23046	0.085899	0.11731	0.15804	0.049179	0.19406	0.16554	0.11762	0.17822	0.040421	0.10216	0.1277	0.1855	0.30761	0.20874	-1.8062	-2.6146	-2.0771	-2.5917	-2.4688	-2.1521	-2.5875	-2.4146	-2.2188	-2.4854	-2.425	-2.5312	-2.5125	-2.1979	-2.4125	-2.5396	-96.955	26.641	-29.528	173.346	14.713	-82.564	187.575	142.529	-52.429	147.788	206.017	67.283	-99.483	222.224	218.178	-123.874	0.00080463	0.00027877	0.0001342	639.78	3.8081e-06	2.7405e-06	809.43	259.76	3.5966e-06	3.6315e-06	354.59	163.97	111.82	62.265	4.3434e-06	97.427	0.00022069	0.00020162	5.6522e-05	624.79	2.2205e-06	2.1973e-06	785.89	251.49	2.2207e-06	2.1729e-06	337.34	155.61	107.21	59.245	2.2306e-06	91.584	179.617	-79.033	-79.597	-112.705	29.232	18.623	-113.801	-107.833	-94.957	72.861	-109.801	-105.776	-103.802	-98.139	-1.817	-101.458	-8191	255	
1186.123	1	1	0	0	0.1028	0.11211	0.26886	0.30389	0.25612	0.079819	0.1487	0.21534	0.10402	0.076451	0.28131	0.31146	0.080709	0.098644	0.12894	0.30694	-1.7437	-2.6167	-2.0917	-2.3604	-2.5396	-1.9646	-2.5438	-2.2604	-2.1729	-2.5354	-2.4	-2.4562	-2.7229	-2.2521	-2.6354	-2.6625	-50.739	-53.795	-36.931	216.531	156.784	20.081	177.795	174.311	-84.885	1.339	218.798	182.376	-69.412	73.794	-71.583	187.685	0.00071979	0.00038328	0.00011422	643.82	3.7147e-06	4.1349e-06	818.58	261.37	2.1788e-06	5.468e-06	355.86	163.61	112.39	62.587	6.3709e-06	97.952	0.00021966	0.00020355	5.6928e-05	625.9	2.223e-06	2.2785e-06	790.61	252.65	2.201e-06	2.222e-06	337.79	156.13	107.82	59.511	2.2342e-06	92.049	174.688	-47.081	-64.975	-112.592	7.752	-11.935	-113.632	-107.719	13.151	38.703	-109.525	-105.904	-104.109	-98.124	23.653	-101.365	-8191	255	
1186.244	1	1	0	0	0.13734	0.44444	0.22762	0.1451	0.30042	0.15674	0.19931	0.11253	0.15071	0.29446	0.096867	0.014266	0.27151	0.10993	0.15582	0.1686	-1.6729	-2.525	-2.3667	-2.4333	-2.5792	-2.2854	-2.55	-2.5521	-2.3104	-2.6063	-2.4833	-2.4375	-2.65	-2.6646	-2.5521	-2.5187	-33.472	161.844	103.068	-9.117	83.899	-107.608	-61.590	217.760	69.140	48.392	182.987	125.441	-118.046	176.677	116.143	206.335	0.00064607	0.00036649	0.00024493	644.8	3.5548e-06	2.9889e-06	815.65	262.22	4.4459e-06	5.9017e-06	357.28	165.03	112.68	62.767	4.8555e-06	97.582	0.00022143	0.00020577	5.7433e-05	627.21	2.2582e-06	2.2609e-06	790.23	253.25	2.265e-06	2.216e-06	339.21	156.86	108.05	59.599	2.2601e-06	92.023	176.431	-19.917	-34.798	-112.503	24.741	102.895	-113.633	-107.676	-20.370	26.174	-109.483	-105.805	-104.138	-98.057	-77.424	-101.420	-8191	255	
1186.316	1	1	0	0	0.18258	0.043003	0.025451	0.081867	0.071441	0.23364	0.22088	0.20694	0.084313	0.16787	0.24541	0.16223	0.065934	0.17806	0.09624	0.36581	-1.7604	-2.3917	-2.3354	-2.3521	-2.7833	-2.1354	-2.5708	-2.6292	-2.1229	-2.6417	-2.5354	-2.225	-2.6875	-2.5062	-2.3083	-2.6417	-38.107	-22.323	-88.773	-57.447	-70.786	20.625	-124.827	195.042	91.452	-38.478	217.715	159.303	203.215	137.617	-88.191	50.213	0.00069199	0.00045924	0.00014815	644.24	2.9112e-06	5.9611e-06	814.18	261.5	2.5536e-06	3.3494e-06	355.88	164.23	111.99	62.516	2.9176e-06	97.558	0.00022145	0.00020604	5.7697e-05	625.7	2.2663e-06	2.2822e-06	790.89	252.66	2.2574e-06	2.2317e-06	337.08	156.28	107.55	59.463	2.2245e-06	91.739	180.038	-48.452	-83.138	-112.553	43.126	38.764	-113.411	-107.573	-2.026	24.145	-109.642	-105.839	-104.278	-98.154	-80.324	-101.198	-8191	255	
1186.412	1	1	0	0	0.28417	0.13867	0.14628	0.2229	0.088709	0.39798	0.061389	0.1943	0.13886	0.12146	0.12852	0.30355	0.077562	0.17295	0.20443	0.024811	-1.7542	-2.4813	-2.2313	-2.3667	-2.7958	-2.4188	-2.2646	-2.7646	-2.3042	-2.2562	-2.5208	-2.4813	-2.7375	-2.4354	-2.3583	-2.6792	130.453	-57.526	-103.816	-70.692	-99.513	130.129	183.674	138.952	107.121	-115.657	-88.771	214.940	-104.959	-94.440	167.712	-37.054	0.00079855	0.00031896	0.00012406	641.22	4.3466e-06	1.5148e-06	809.91	258.43	5.1536e-06	7.6953e-06	350.76	162.73	110.73	61.994	3.8788e-06	97.324	0.00022032	0.00020092	5.6364e-05	623.84	2.2346e-06	2.225e-06	785.78	250.4	2.2187e-06	2.2327e-06	333.76	154.63	106.39	59.027	2.2316e-06	90.989	182.584	-44.503	-94.645	-112.692	9.152	30.702	-113.636	-107.834	-64.517	-30.487	-109.646	-106.133	-103.803	-97.853	-23.296	-101.474	-8191	255	
1186.508	1	1	0	0	0.1168	0.19251	0.15732	0.089107	0.21954	0.1308	0.19433	0.29342	0.25639	0.17624	0.18587	0.18497	0.23655	0.067023	0.1076	0.28346	-1.7563	-2.5292	-2.6354	-2.3292	-2.6833	-2.5563	-2.4437	-2.8479	-2.1083	-2.4833	-2.5167	-2.4417	-2.5542	-2.5521	-2.5333	-2.8375	5.781	-117.655	-32.456	-7.372	-42.057	-69.685	-105.339	204.326	101.744	-1.815	179.878	-117.211	-92.470	230.498	206.873	-121.349	0.00079095	0.00075296	8.9523e-05	640.33	3.1856e-06	2.3258e-06	808.62	256.95	5.6405e-06	3.9053e-06	350.61	162.25	111.11	62.179	6.4877e-06	96.897	0.00021629	0.00020178	5.5499e-05	620.65	2.1894e-06	2.2237e-06	783.73	249.23	2.2539e-06	2.182e-06	334.07	154.27	106.33	58.995	2.2172e-06	91.058	180.154	-51.081	-101.246	-112.577	-23.729	-3.161	-113.688	-107.510	7.497	3.995	-109.649	-105.905	-104.019	-98.099	6.349	-101.312	-8191	255	
1186.627	1	1	0	0	0.307	0.19797	0.16472	0.20924	0.23739	0.13527	0.1053	0.19827	0.083373	0.059186	0.1875	0.067013	0.30432	0.22311	0.23961	0.19391	-1.8146	-2.3958	-2.6	-2.2812	-2.5979	-2.6125	-2.4958	-2.8208	-2.1958	-2.3292	-2.4313	-2.3375	-2.6354	-2.6562	-2.4021	-2.9354	219.294	25.913	-27.014	161.494	118.515	4.652	177.081	229.323	84.987	-50.126	154.921	190.581	206.652	127.326	-92.973	99.515	0.00077869	0.0006556	0.00014446	638.88	3.2675e-06	2.23e-06	811.22	258.19	6.3206e-06	6.9589e-06	349.67	162.4	110.92	61.745	2.9098e-06	96.889	0.00021821	0.00020192	5.58e-05	620.96	2.1904e-06	2.1697e-06	783.73	249.41	2.2304e-06	2.2077e-06	332.84	154.1	106.03	58.809	2.2215e-06	91.139	179.090	-32.239	-101.237	-112.615	-31.057	74.393	-113.811	-107.748	3.958	16.871	-109.716	-105.851	-104.122	-97.977	-8.896	-101.576	-8191	255	
1186.723	1	1	0	0	0.2017	0.031298	0.22395	0.34357	0.080966	0.22044	0.085582	0.222	0.18369	0.22828	0.076818	0.23357	0.17183	0.24017	0.10327	0.2988	-1.8625	-2.2917	-2.5708	-2.0812	-2.8021	-2.3125	-2.3063	-2.5667	-2.3708	-2.2583	-2.7188	-2.4083	-2.7354	-2.6729	-2.2583	-2.8375	37.123	-123.571	14.142	-82.247	32.195	85.989	120.416	105.963	-18.686	62.164	-121.600	137.469	-3.565	205.259	27.679	193.286	0.00068959	0.00013748	0.00013643	638.56	5.113e-06	1.2797e-06	811.92	258.05	3.7161e-06	6.0398e-06	351.97	162.02	111.39	62.079	9.7941e-06	96.984	0.00021851	0.00020178	5.7014e-05	620.69	2.2164e-06	2.2139e-06	785.31	249.59	2.1979e-06	2.1999e-06	334.3	154.37	106.45	59.015	2.222e-06	91.265	184.318	147.206	25.355	-112.524	40.997	-62.259	-113.782	-107.661	-28.587	24.166	-109.693	-105.657	-104.215	-98.164	1.859	-101.437	-8191	255	
1186.819	1	1	0	0	0.13988	0.40222	0.068143	0.17519	0.19752	0.073266	0.40199	0.11041	0.20192	0.17059	0.035881	0.17833	0.050853	0.26023	0.10337	0.13196	-2.0042	-2.2625	-2.6792	-2.2438	-2.45	-2.7167	-2.2583	-2.7083	-2.2396	-2.2875	-2.8187	-2.4396	-2.5812	-2.7417	-2.1542	-2.7313	38.554	-115.906	-122.356	111.326	127.125	-7.327	-116.957	150.740	104.664	-102.097	170.711	212.203	81.951	173.723	103.925	151.814	0.00068212	0.00025545	8.8275e-05	636.32	2.5732e-06	2.016e-06	811.85	258.83	3.9495e-06	6.6614e-06	351.19	162.59	110.31	61.841	4.0426e-06	96.826	0.00022039	0.00020045	5.6279e-05	619.8	2.2223e-06	2.1967e-06	783.68	250.19	2.2114e-06	2.1908e-06	333.37	154.32	106.24	58.797	2.1691e-06	90.755	187.758	0.089	212.079	-112.622	92.157	143.881	-113.610	-107.687	-49.055	-12.211	-109.779	-105.976	-104.074	-98.282	-40.880	-101.342	-8191	255	
1186.915	1	1	0	0	0.054092	0.049878	0.25192	0.048119	0.26004	0.29048	0.20527	0.20999	0.07135	0.20435	0.1882	0.31056	0.24551	0.20584	0.25752	0.1967	-1.9604	-2.1896	-2.6312	-2.4208	-2.3292	-2.5146	-2.3417	-2.6083	-2.6063	-2.2188	-2.8667	-2.5958	-2.3792	-2.7417	-2.3333	-2.9146	196.561	-73.909	135.687	18.187	146.887	2.450	185.684	149.215	63.199	52.235	-76.910	230.795	-28.763	-56.479	-56.580	123.027	0.00070909	0.00028899	7.5192e-05	635.47	2.4569e-06	6.4582e-06	805.53	257.46	2.1512e-06	3.0134e-06	349.85	162.24	110.53	61.658	3.7742e-06	96.553	0.00021668	0.00019978	5.5163e-05	617.33	2.1731e-06	2.1955e-06	778.46	249.17	2.2148e-06	2.1749e-06	332.81	154.07	106.02	58.794	2.1783e-06	90.709	177.435	-61.203	-96.901	-112.457	42.150	10.490	-113.686	-107.315	-52.320	-1.431	-109.468	-106.062	-104.284	-98.371	14.259	-101.397	-8191	255	
1187.011	1	1	0	0	0.086784	0.11542	0.17129	0.065214	0.15092	0.05472	0.39845	0.17178	0.1708	0.021268	0.35541	0.10143	0.068483	0.43654	0.081194	0.10103	-1.8354	-2.2729	-2.7812	-2.6646	-2.225	-2.6583	-2.1646	-2.6021	-2.4938	-2.1188	-2.8604	-2.3792	-2.45	-2.8021	-2.4313	-2.6771	173.308	174.141	-17.175	207.843	-112.527	-68.328	153.217	121.475	234.332	-10.217	62.050	162.860	154.349	-113.424	143.945	79.444	0.00067796	0.00039761	4.4474e-05	636.29	3.6766e-06	4.3814e-06	805.83	258.24	2.0249e-06	6.2324e-06	350.03	162.48	111.34	62.063	5.2829e-06	97.406	0.00021906	0.00020347	5.6081e-05	618.65	2.2249e-06	2.215e-06	780.74	249.17	2.2027e-06	2.1847e-06	332.98	154.29	106.55	58.946	2.1996e-06	91.228	176.432	-43.607	-64.933	-112.562	-18.836	63.922	-113.822	-107.594	35.279	16.725	-109.605	-106.168	-104.006	-98.042	3.376	-101.261	-8191	255	
1187.108	1	1	0	0	0.078922	0.18486	0.16913	0.26005	0.18586	0.12523	0.184	0.057349	0.23805	0.19152	0.11337	0.3393	0.28058	0.13771	0.17587	0.2752	-2.1271	-2.1396	-2.4604	-2.4896	-2.1708	-2.7542	-2.4437	-2.7313	-2.6354	-2.1833	-2.7271	-2.5771	-2.4583	-2.6604	-2.2042	-2.8187	75.380	16.343	49.634	132.089	48.128	167.785	168.729	233.162	139.992	-105.549	-103.752	111.000	209.518	-103.541	44.344	221.512	0.00060709	0.00013666	0.00021721	635.65	5.1845e-06	6.6128e-06	805.01	259.31	7.5609e-06	2.4131e-06	349.32	162.36	111.12	61.877	6.4213e-06	97.369	0.0002176	0.00020212	5.6359e-05	619.54	2.2098e-06	2.1943e-06	782.16	250.08	2.2278e-06	2.173e-06	333.44	154.43	106.58	58.938	2.2167e-06	91.264	179.456	-31.309	-59.754	-112.649	-41.198	0.691	-113.858	-107.636	-4.946	117.587	-109.688	-105.923	-104.252	-98.265	-10.608	-101.351	-8191	255	
1187.204	1	1	0	0	0.10693	0.27926	0.21914	0.16593	0.1098	0.28504	0.18351	0.29346	0.1101	0.1296	0.27586	0.18378	0.12221	0.083739	0.17306	0.29907	-2.0729	-2.2292	-2.4625	-2.5354	-2.1354	-2.8271	-2.5521	-2.3479	-2.6708	-2.0417	-2.6813	-2.5	-2.2104	-2.7625	-2.2854	-2.4688	-117.092	201.658	122.401	224.199	47.390	133.928	-111.807	163.251	65.979	220.353	131.380	-121.087	127.618	-62.712	10.304	178.060	0.00079226	0.0004327	9.116e-05	636.75	3.2868e-06	5.3887e-06	809.33	259.16	4.3436e-06	4.051e-06	349.76	162.32	110.93	61.959	3.8311e-06	97.175	0.00022	0.00020002	5.6496e-05	620.67	2.2084e-06	2.1971e-06	783.66	250.3	2.1771e-06	2.1947e-06	333.7	154.4	106.31	58.878	2.1848e-06	90.955	178.809	-66.791	-102.616	-112.686	-17.637	80.667	-113.451	-107.486	-11.648	41.141	-109.610	-105.768	-104.224	-98.135	18.209	-101.449	-8191	255	
1187.324	1	1	0	0	0.17053	0.05612	0.25533	0.068845	0.22089	0.2242	0.18172	0.15618	0.24401	0.25399	0.10001	0.37078	0.036288	0.12654	0.042361	0.17301	-2.1688	-2.2729	-2.5646	-2.7083	-2.0792	-2.7354	-2.325	-2.4917	-2.5792	-2.2313	-2.6021	-2.5292	-2.3187	-2.6813	-2.3563	-2.2687	131.863	14.968	218.801	223.862	141.394	73.563	185.286	230.239	49.666	202.306	190.989	214.307	-113.548	152.363	42.762	196.022	0.00056938	0.00026385	0.00027727	637.5	4.5543e-06	3.8415e-06	803.61	257.65	1.7231e-06	1.0186e-06	350.95	163.29	110.74	62.11	1.5571e-06	96.544	0.00021546	0.00020021	5.6264e-05	619	2.1905e-06	2.2065e-06	780.66	249.38	2.1924e-06	2.1903e-06	333.83	154.39	106.46	58.93	2.1848e-06	90.83	176.122	16.188	-54.332	-112.440	57.955	-1.923	-113.466	-107.629	197.532	202.191	-109.463	-105.818	-104.277	-97.737	177.725	-101.377	-8191	255	
1187.419	1	1	0	0	0.37352	0.1357	0.1059	0.23704	0.2263	0.19015	0.20236	0.21157	0.12762	0.047358	0.20747	0.10573	0.12364	0.1944	0.082882	0.40938	-2.0896	-2.3187	-2.5104	-2.6937	-2.0271	-2.6729	-2.2521	-2.3063	-2.55	-2.2604	-2.4417	-2.5417	-2.1646	-2.3479	-2.4396	-2.6021	-46.384	89.210	35.125	217.388	-73.135	-86.099	205.983	216.142	-23.950	-38.094	231.135	213.006	-90.669	-57.880	123.566	62.265	0.00068832	0.00026782	0.0002187	635.62	4.145e-06	4.4215e-06	807.05	258.54	5.491e-06	2.9107e-06	352.44	162.65	111.78	62.587	2.6266e-06	97.46	0.00021546	0.00020014	5.6229e-05	618.06	2.1832e-06	2.1828e-06	780.14	250.13	2.1967e-06	2.1938e-06	335.23	155.02	107.07	59.292	2.1791e-06	91.382	178.275	-119.339	-52.784	-112.774	-3.871	29.802	-113.667	-107.888	-30.618	42.630	-109.541	-105.902	-103.955	-98.129	-20.783	-101.608	-8191	255	
1187.517	1	1	0	0	0.032657	0.073943	0.21366	0.26508	0.036936	0.26895	0.32794	0.21802	0.068788	0.052761	0.2505	0.3305	0.11222	0.2919	0.039354	0.18873	-1.9479	-2.2708	-2.4062	-2.5292	-2.3708	-2.5208	-2.5229	-2.4458	-2.55	-2.2167	-2.6083	-2.7062	-2.4604	-2.6833	-2.3167	-2.2708	-104.211	169.717	-7.423	213.359	103.976	72.309	200.204	-98.058	-119.864	71.069	200.145	110.122	115.521	173.195	210.390	170.719	0.00071269	0.00053365	0.00024618	640.06	2.2088e-06	7.6716e-07	807.33	261.48	4.4895e-06	3.637e-06	353.81	163.64	111.93	62.441	7.2727e-06	98.011	0.00021689	0.00020113	5.6689e-05	620.88	2.2017e-06	2.2275e-06	783.15	251.51	2.2549e-06	2.2464e-06	336.25	155.77	107.64	59.467	2.2311e-06	91.932	175.003	-49.730	-11.310	-112.784	48.363	87.956	-113.683	-107.543	-10.489	67.752	-109.405	-105.998	-104.207	-98.146	12.464	-101.436	-8191	255	
1187.613	1	1	0	0	0.20683	0.089588	0.33166	0.35219	0.23016	0.11239	0.14975	0.22552	0.25244	0.12414	0.16965	0.14692	0.22835	0.19921	0.22783	0.16696	-2.2396	-2.3396	-2.3604	-2.6417	-2.1875	-2.4729	-2.5896	-2.3125	-2.6375	-2.3146	-2.4167	-2.6354	-2.25	-2.6521	-2.6271	-2.3979	-5.849	104.067	91.374	160.008	73.771	190.369	212.408	184.964	67.577	-99.436	-97.933	134.798	-51.465	-119.981	219.486	158.431	0.00072802	0.00036067	0.00015116	638.76	2.0588e-06	4.4075e-06	811.79	260.03	5.8689e-06	6.0088e-06	355.08	165.15	112.92	62.657	3.9381e-06	97.886	0.00021847	0.00019969	5.63e-05	621.72	2.2203e-06	2.2196e-06	787.39	252.58	2.233e-06	2.2507e-06	337.9	156.98	108.16	59.664	2.2378e-06	91.929	172.860	-55.337	-41.024	-112.540	-15.410	-4.508	-113.379	-107.787	-56.847	9.053	-109.735	-105.904	-104.029	-98.031	17.085	-101.531	-8191	255	
1187.707	1	1	0	0	0.20629	0.13563	0.049085	0.13711	0.10366	0.36344	0.4247	0.34077	0.1764	0.19567	0.11888	0.083519	0.26645	0.15405	0.14056	0.053311	-2.2188	-2.5229	-1.9625	-2.7354	-2.4167	-2.5812	-2.6583	-2.3417	-2.7271	-2.4042	-2.3396	-2.7104	-2.4542	-2.4271	-2.6083	-2.4896	92.771	-13.995	29.313	-24.487	-111.987	-88.505	-116.601	-97.991	181.661	106.396	74.234	26.307	195.907	170.409	154.632	158.541	0.00070786	0.00063396	0.00011871	640.06	4.6212e-06	4.8201e-06	811.92	261.37	5.2643e-06	5.3708e-06	356.75	164.86	112.1	62.551	1.7405e-06	97.242	0.00022059	0.00020592	5.6604e-05	623.68	2.2394e-06	2.2217e-06	786.59	252.66	2.2375e-06	2.2482e-06	337.29	156.21	107.64	59.428	2.2406e-06	91.418	181.590	-108.840	-73.479	-112.468	-13.028	-24.450	-113.734	-107.569	-39.424	21.235	-109.663	-105.856	-104.242	-98.098	115.039	-101.471	-8191	255	
1187.803	1	1	0	0	0.11663	0.066755	0.22032	0.19956	0.15244	0.21311	0.068645	0.19291	0.1014	0.30847	0.16875	0.40758	0.021063	0.092657	0.057548	0.12363	-1.975	-2.4938	-2.0146	-2.725	-2.425	-2.2812	-2.7479	-2.5312	-2.2917	-2.55	-2.4042	-2.6667	-2.5563	-2.5625	-2.6104	-2.5021	131.104	54.330	150.746	-22.793	47.625	-85.256	206.729	159.991	136.677	-108.439	224.214	223.894	229.093	193.234	226.388	-88.292	0.00075684	0.00025453	0.00012315	637.57	2.9988e-06	4.1e-06	806.3	259.67	5.3748e-06	2.5789e-06	354.89	163.87	112.19	62.708	5.6099e-06	97.813	0.00022049	0.00020629	5.7027e-05	620.58	2.2359e-06	2.2506e-06	781.08	251.15	2.2241e-06	2.2045e-06	336.12	155.8	107.45	59.661	2.2357e-06	91.779	177.585	-0.878	-9.775	-112.506	-26.365	4.509	-113.584	-107.715	-34.689	58.141	-109.492	-106.174	-104.275	-98.143	-59.855	-101.210	-8191	255	
1187.924	1	1	0	0	0.19412	0.14061	0.1977	0.46931	0.073017	0.094744	0.029962	0.14949	0.18842	0.18519	0.22966	0.18747	0.34019	0.157	0.2569	0.23017	-2.1729	-2.45	-2.2125	-2.8187	-2.2333	-2.2687	-2.7979	-2.1813	-2.4667	-2.5812	-2.3021	-2.5854	-2.5083	-2.3167	-2.7542	-2.6021	119.680	216.549	149.993	153.650	-55.258	38.637	0.911	155.609	161.552	-44.191	130.935	172.791	234.450	-83.738	167.061	219.115	0.00070456	0.00041254	0.00012065	635.33	2.1519e-06	4.2292e-06	807.68	261.72	1.8283e-06	5.3686e-06	356.51	164.96	113.13	63.416	4.0196e-06	98.595	0.00022169	0.00020333	5.7085e-05	618.35	2.2387e-06	2.2145e-06	782.57	253.27	2.228e-06	2.2171e-06	339.15	156.96	108.3	60.105	2.2176e-06	92.432	179.396	-39.885	-58.121	-112.645	-8.500	124.182	-113.773	-107.461	-58.269	27.705	-109.438	-105.857	-104.087	-98.115	-78.393	-101.474	-8191	255	
1188.020	1	1	0	0	0.11142	0.10035	0.12566	0.11063	0.11333	0.21666	0.16176	0.16268	0.18999	0.11232	0.087451	0.15642	0.20748	0.062533	0.050293	0.47414	-1.8604	-2.5833	-2.0771	-2.6333	-2.6063	-2.0729	-2.7854	-2.3917	-2.4104	-2.75	-2.2375	-2.6896	-2.5104	-2.3604	-2.6604	-2.3438	-1.452	76.907	228.467	-96.840	-55.198	15.295	-91.025	173.988	125.275	-93.450	98.250	-38.868	214.217	-65.615	107.523	143.341	0.00070822	0.00037262	0.00012299	633.97	5.5047e-06	3.3764e-06	808.79	265.56	2.8997e-06	6.9277e-06	359.97	166.04	113.48	63.426	7.0071e-06	98.641	0.0002213	0.00020347	5.6906e-05	618.2	2.2388e-06	2.2536e-06	783.45	256.12	2.2599e-06	2.2373e-06	342.01	157.76	108.6	60.223	2.2243e-06	92.836	175.407	-64.740	-25.768	-112.403	12.953	-15.246	-113.613	-107.640	9.806	20.587	-109.508	-105.930	-104.062	-97.890	1.791	-101.419	-8191	255	
1188.116	1	1	0	0	0.19524	0.20828	0.21453	0.29474	0.11341	0.082205	0.06841	0.34067	0.17248	0.24424	0.32801	0.1281	0.2897	0.13614	0.17303	0.3192	-1.7396	-2.5646	-2.2458	-2.5104	-2.325	-2.2	-2.7938	-2.6562	-2.325	-2.6042	-2.4292	-2.7625	-2.8167	-2.5271	-2.6292	-2.6979	-79.959	-37.135	10.781	227.595	43.639	91.836	221.568	177.838	145.882	61.373	-45.387	219.714	124.026	-51.917	65.500	117.048	0.00067871	0.0004848	0.0001236	635.97	5.9948e-06	2.6333e-06	811.35	264.37	2.3058e-06	7.0533e-06	359.41	164.69	112.57	63.065	5.137e-06	98.248	0.00022292	0.00020489	5.6707e-05	618.79	2.2315e-06	2.2495e-06	786.42	255.88	2.2413e-06	2.2451e-06	341.76	157.17	108.15	60.096	2.2237e-06	92.387	181.054	-93.869	-41.696	-112.394	-37.579	49.169	-113.794	-107.750	-105.293	17.640	-109.929	-105.784	-104.295	-97.852	-27.420	-101.320	-8191	255	
1188.188	1	1	0	0	0.23264	0.17889	0.094401	0.37359	0.076002	0.12928	0.32733	0.27733	0.082837	0.11775	0.18058	0.10477	0.030365	0.23347	0.24526	0.28818	-1.7563	-2.6979	-2.175	-2.5271	-2.725	-2.4229	-2.5729	-2.5438	-2.5021	-2.7104	-2.0729	-2.7167	-2.7854	-2.1521	-2.6875	-2.5271	-123.526	155.566	72.622	-76.340	48.956	58.833	98.936	158.840	46.157	35.403	17.640	149.567	-91.219	189.687	44.348	137.851	0.00080715	0.00013165	0.00014726	635.02	3.1522e-06	3.1129e-06	809.17	262.93	6.2732e-06	3.8571e-06	357.58	164.35	112.67	63.021	3.4581e-06	97.782	0.00022106	0.00020247	5.6752e-05	619.01	2.2194e-06	2.2093e-06	783.51	254.87	2.2284e-06	2.204e-06	340.29	156.1	107.77	59.861	2.2034e-06	91.805	180.990	-13.946	-80.566	-112.500	21.979	-3.384	-113.548	-107.567	-15.946	-61.984	-109.770	-106.171	-103.880	-97.923	-16.476	-101.386	-8191	255	
1188.309	1	1	0	0	0.175	0.076201	0.32345	0.20682	0.29101	0.087328	0.071565	0.1155	0.22122	0.045228	0.15326	0.053001	0.34873	0.14131	0.16889	0.16963	-1.8188	-2.7125	-2.2417	-2.5208	-2.6708	-2.3042	-2.8083	-2.5354	-2.3396	-2.7104	-2.4938	-2.3521	-2.8063	-2.3646	-2.4313	-2.8208	19.363	116.776	-83.746	195.091	85.099	185.914	-74.723	226.142	158.263	130.296	49.785	-36.320	-119.446	121.447	87.225	210.210	0.00072384	0.0003648	0.00012045	637.75	1.0409e-06	3.2163e-06	807.09	264.51	4.5516e-06	7.2159e-06	360.27	163.81	112.75	62.946	5.6495e-06	97.474	0.00022116	0.00020288	5.6835e-05	618.29	2.2508e-06	2.2029e-06	781.93	255.17	2.2469e-06	2.2101e-06	340.66	156.19	107.98	59.854	2.2344e-06	91.744	177.420	-34.303	-22.661	-112.427	-5.860	60.161	-113.359	-107.786	-83.132	-3.778	-109.686	-106.029	-103.905	-98.027	-21.309	-101.290	-8191	255	
1188.405	1	1	0	0	0.19486	0.19633	0.084038	0.090353	0.10836	0.062603	0.072939	0.42373	0.15149	0.16071	0.092949	0.19235	0.23633	0.24145	0.21562	0.3333	-1.7458	-2.45	-2.3563	-2.3458	-2.7062	-2.3083	-2.5187	-2.6688	-2.0979	-2.7	-2.4313	-2.3771	-2.7458	-2.3854	-2.3563	-2.8042	-91.521	-111.152	163.584	203.745	187.268	60.206	101.504	156.954	105.505	57.795	-86.959	200.701	162.185	175.323	106.903	210.968	0.00067473	0.00023151	0.00013047	636.12	3.1675e-06	1.8169e-06	812.74	263.45	3.624e-06	1.484e-06	359.04	164.01	112.97	62.731	2.3058e-06	97.84	0.00021769	0.00020286	5.6729e-05	617.04	2.2207e-06	2.2139e-06	783.01	255.32	2.2412e-06	2.2095e-06	341.39	156.11	107.91	59.777	2.2504e-06	91.91	174.679	-42.117	-31.545	-112.482	46.199	17.414	-113.505	-107.711	-29.447	18.520	-109.746	-105.804	-104.104	-97.906	32.385	-101.387	-8191	255	
1188.499	1	1	0	0	0.093346	0.12104	0.25702	0.29767	0.075862	0.077684	0.07733	0.073813	0.050898	0.19472	0.17983	0.16102	0.15071	0.22043	0.19304	0.39559	-1.6458	-2.6771	-2.5167	-2.25	-2.7521	-2.3667	-2.1813	-2.6854	-2.1937	-2.4771	-2.4146	-2.2458	-2.8292	-2.6417	-2.4646	-2.7042	27.589	197.217	183.005	156.485	58.606	192.855	108.613	104.592	175.996	-105.897	121.598	-90.004	-118.461	188.533	-85.645	105.258	0.00069191	0.00011183	0.00010999	631.99	4.7181e-06	3.5889e-06	809.12	264.4	4.2385e-06	3.9916e-06	359.86	165.04	113.28	63.04	4.9468e-06	97.997	0.00022122	0.00020384	5.669e-05	616.37	2.2335e-06	2.209e-06	785.1	256.07	2.21e-06	2.2102e-06	342.42	157.09	108.44	59.997	2.2023e-06	92.045	178.077	12.644	-56.177	-112.150	-0.355	-24.438	-113.765	-107.575	-59.947	-85.494	-109.457	-105.845	-104.104	-97.957	21.718	-101.512	-8191	255	
1188.597	1	1	0	0	0.44422	0.2051	0.14823	0.1583	0.049161	0.2158	0.25089	0.22917	0.22493	0.12832	0.071058	0.21306	0.14962	0.42387	0.05934	0.073596	-1.7812	-2.6167	-2.4292	-2.1417	-2.6083	-2.3979	-2.6354	-2.8479	-2.2812	-2.5354	-2.5167	-2.3042	-2.7333	-2.4688	-2.4229	-2.9146	-89.204	2.848	23.882	168.550	136.332	86.948	129.159	194.166	-115.657	182.543	225.620	124.866	165.684	228.428	113.603	82.018	0.00071178	0.00020762	5.5817e-05	635.64	5.1282e-06	2.0542e-06	806.21	265.01	4.0114e-06	7.0795e-06	361.21	165.37	112.48	62.893	4.8796e-06	98.4	0.00021814	0.00020383	5.6825e-05	616.92	2.23e-06	2.2093e-06	783.65	256.11	2.2055e-06	2.2126e-06	341.87	157.01	108.13	59.969	2.2139e-06	92.295	174.684	-17.908	-31.586	-112.568	-19.286	-67.114	-114.057	-107.687	-17.203	10.004	-109.990	-105.888	-104.091	-98.050	-68.852	-101.238	-8191	255	
1188.716	1	1	0	0	0.20094	0.053949	0.21185	0.19888	0.094469	0.036404	0.23169	0.0043734	0.14802	0.074449	0.16993	0.37053	0.094045	0.19052	0.026338	0.18358	-1.85	-2.6417	-2.4062	-2.0083	-2.4417	-2.475	-2.4062	-2.8688	-2.2771	-2.5333	-2.8292	-2.1146	-2.6188	-2.6583	-2.3021	-2.7958	-116.382	173.719	-12.374	225.358	85.391	-35.234	53.929	84.575	153.819	84.687	170.179	167.660	136.072	230.710	-89.869	175.004	0.00073079	0.00060979	0.00029086	631.17	4.6784e-06	3.7013e-06	807.19	263.34	2.0588e-06	5.4641e-06	357.46	164.27	113.04	63.25	2.0037e-06	98.644	0.00021854	0.00020148	5.6041e-05	614.7	2.2237e-06	2.2216e-06	781.41	254.7	2.2255e-06	2.205e-06	340.72	156.27	107.98	60.173	2.2106e-06	92.29	177.039	-73.673	-23.754	-112.656	10.643	-2.307	-113.742	-107.809	-50.563	-26.941	-109.679	-105.781	-104.001	-98.045	22.410	-101.474	-8191	255	
1188.788	1	1	0	0	0.1464	0.1138	0.068113	0.20682	0.04408	0.16556	0.13969	0.14525	0.25716	0.11389	0.12793	0.23577	0.092333	0.13632	0.24258	0.11423	-1.6021	-2.2917	-2.4792	-2.1979	-2.5854	-2.5271	-2.5375	-2.6437	-2.3063	-2.5271	-2.5187	-2.3708	-2.5229	-2.5312	-2.0771	-2.6979	-66.869	198.288	175.931	197.362	91.264	-99.244	78.257	225.806	25.246	-53.660	130.796	-82.806	-107.527	194.354	145.443	221.672	0.00066256	0.00038905	0.0001297	632.92	4.0129e-06	3.7563e-06	804.08	264.34	2.6666e-06	8.2624e-06	360.02	163.24	112.58	63.222	1.085e-06	98.371	0.00021988	0.00020232	5.6726e-05	616.37	2.2484e-06	2.2263e-06	781.79	255.7	2.2402e-06	2.2149e-06	341.11	156.19	107.52	60.097	2.238e-06	92.502	182.223	-56.020	-2.457	-112.425	-0.593	-19.684	-113.618	-107.548	212.863	7.486	-109.590	-106.174	-104.154	-98.037	32.166	-101.567	-8191	255	
1188.884	1	1	0	0	0.25505	0.076817	0.16504	0.21599	0.059594	0.075374	0.26725	0.088777	0.19813	0.16776	0.2392	0.27367	0.25048	0.35277	0.0907	0.057604	-1.7896	-2.2417	-2.6917	-2.2333	-2.6063	-2.6021	-2.3937	-2.8021	-2.3333	-2.3104	-2.8438	-2.2354	-2.6146	-2.6937	-2.2125	-2.9313	-118.283	63.324	78.222	199.138	-119.208	184.393	-112.087	-113.309	195.903	225.799	136.476	-111.405	190.441	210.518	-0.175	73.406	0.00071509	0.00040554	0.00011516	635.45	4.452e-06	4.2454e-06	810.97	264.55	2.0623e-06	2.7004e-06	362.11	165.08	112.31	63.512	4.1223e-06	98.544	0.00022178	0.00020968	5.7452e-05	618.01	2.2562e-06	2.255e-06	785.1	256.01	2.2876e-06	2.2372e-06	342.69	156.94	107.79	60.354	2.2616e-06	92.677	172.629	-63.190	-77.616	-112.526	35.593	34.905	-113.618	-107.659	-48.046	72.172	-109.680	-105.789	-104.141	-98.078	-49.141	-101.577	-8191	255	
1189.004	1	1	0	0	0.0125	0.2041	0.12641	0.046169	0.13755	0.25163	0.15602	0.054989	0.22081	0.20997	0.37976	0.19221	0.21135	0.22845	0.13327	0.10965	-1.9729	-2.2833	-2.5667	-2.4125	-2.5042	-2.4	-2.3833	-2.625	-2.4062	-2.2938	-2.5667	-2.4542	-2.3792	-2.7646	-2.1729	-2.4792	61.917	-82.887	46.796	-92.110	44.058	219.323	195.663	225.023	90.927	78.752	161.992	208.954	199.175	218.373	21.906	162.695	0.00070513	0.00022383	0.00015537	637.84	3.0172e-06	5.5621e-06	810.39	263.61	3.0696e-06	4.6304e-06	357.65	164.69	112.1	63.123	6.9428e-07	98.272	0.00022514	0.00020756	5.7937e-05	620.36	2.295e-06	2.2968e-06	785.6	255.61	2.293e-06	2.2668e-06	341.21	156.49	107.35	60.107	2.2766e-06	92.412	172.941	-32.286	-71.584	-112.534	18.316	37.062	-113.679	-107.691	-17.591	-15.240	-109.703	-105.960	-104.253	-98.114	13.470	-101.303	-8191	255	
1189.100	1	1	0	0	0.27797	0.11751	0.076015	0.068124	0.061531	0.09603	0.078364	0.079336	0.21699	0.33632	0.028613	0.048539	0.08123	0.10263	0.20523	0.39016	-1.9979	-2.1188	-2.6208	-2.3896	-2.6521	-2.5396	-2.2542	-2.5896	-2.4229	-1.9583	-2.6167	-2.4917	-2.2708	-2.7729	-2.2938	-2.5979	-65.826	51.394	131.725	17.424	79.702	-56.484	-96.231	205.123	-57.601	-42.115	107.391	226.433	231.336	165.953	227.891	211.744	0.00065513	0.00038372	0.00023524	632.52	3.6646e-06	1.9826e-06	805.96	262.82	2.3728e-06	5.8792e-06	354.62	163.1	110.93	62.92	3.9692e-06	97.865	0.00022481	0.00020661	5.7815e-05	614.04	2.2563e-06	2.2348e-06	779.86	253.96	2.2989e-06	2.2449e-06	338.83	155.27	106.75	59.878	2.2548e-06	91.866	180.232	-2.805	-49.356	-112.308	24.666	75.512	-113.399	-107.522	-73.037	55.487	-109.800	-105.973	-104.191	-98.068	4.642	-101.413	-8191	255	
1189.197	1	1	0	0	0.027229	0.057709	0.22369	0.31949	0.1933	0.15008	0.070308	0.14081	0.12823	0.12063	0.14641	0.20943	0.21972	0.10901	0.076837	0.21504	-2.0563	-1.9792	-2.6146	-2.4771	-2.2146	-2.675	-2.3875	-2.6417	-2.7	-1.9708	-2.7625	-2.6042	-2.4958	-2.9208	-2.3187	-2.7438	170.489	87.036	218.166	132.139	229.640	-41.130	45.053	-11.745	123.763	151.418	196.691	178.395	-82.400	155.214	-108.815	201.554	0.00071	0.00033846	5.8828e-05	628.34	7.6023e-06	1.8935e-06	799.27	261.27	1.7112e-06	7.5053e-06	354.83	162.62	111.11	62.883	4.508e-06	97.726	0.00022229	0.00020637	5.8018e-05	611.63	2.2397e-06	2.2436e-06	776.44	253.08	2.26e-06	2.2692e-06	337.83	154.9	106.77	59.885	2.2762e-06	91.738	178.932	-75.162	199.129	-112.451	18.682	90.686	-113.762	-107.781	46.990	-40.852	-109.653	-105.768	-104.018	-98.179	59.251	-101.386	-8191	255	
1189.317	1	1	0	0	0.24708	0.11225	0.10515	0.1991	0.33931	0.15533	0.24636	0.21315	0.12275	0.0045278	0.20991	0.15818	0.13204	0.060158	0.033798	0.060026	-2.1917	-2.1625	-2.6833	-2.5292	-2.3563	-2.6479	-2.5042	-2.5229	-2.6021	-2.0771	-2.5312	-2.6813	-2.0187	-2.7958	-2.3854	-2.6312	102.684	194.979	51.177	-74.975	82.204	182.743	-117.207	214.055	129.811	-28.264	149.710	126.411	-83.546	180.963	-105.299	132.029	0.00075877	0.0003722	0.00018025	631.22	4.3834e-06	6.1783e-06	799.51	260.65	7.089e-06	5.1191e-06	354.87	162.91	111.49	62.829	8.2983e-06	97.996	0.00022247	0.00020673	5.718e-05	613.63	2.2437e-06	2.2313e-06	777.19	252.71	2.2692e-06	2.2802e-06	337.71	155.04	106.96	59.896	2.2872e-06	91.939	177.363	-62.747	-100.925	-112.542	-11.989	26.326	-113.619	-107.650	-26.781	23.667	-109.826	-106.167	-104.198	-98.213	13.351	-101.405	-8191	255	
1189.413	1	1	0	0	0.14342	0.094418	0.17581	0.023864	0.10198	0.14602	0.097155	0.23646	0.25545	0.19467	0.20103	0.094256	0.24659	0.084936	0.32921	0.25044	-1.8271	-2.2188	-2.4833	-2.5792	-2.2375	-2.6979	-2.2729	-2.5542	-2.6604	-2.2292	-2.2667	-2.6292	-2.1667	-2.7854	-2.3063	-2.3979	79.099	168.449	15.619	95.583	126.494	-32.393	-118.836	141.751	-3.262	160.895	204.765	88.992	205.532	-39.256	58.551	194.571	0.00074831	0.0001311	8.8523e-05	630.1	2.0796e-06	1.9087e-06	803.89	262.82	1.1641e-06	2.9701e-06	352.34	162.73	110.97	62.898	1.8242e-06	98.112	0.00022497	0.00020825	5.7678e-05	614.54	2.2586e-06	2.2425e-06	777.82	253.64	2.2477e-06	2.2321e-06	337.15	154.62	106.39	59.934	2.2594e-06	92.198	178.026	-59.606	153.380	-112.731	16.618	-19.366	-113.306	-107.787	9.555	4.562	-109.421	-105.827	-104.156	-98.041	-18.601	-101.528	-8191	255	
1189.485	1	1	0	0	0.11994	0.38816	0.086988	0.17953	0.10761	0.073276	0.36238	0.27331	0.28168	0.26128	0.17861	0.18565	0.11095	0.1954	0.052278	0.19115	-2.0604	-2.3417	-2.3167	-2.6417	-2.1604	-2.6021	-2.4854	-2.4	-2.5375	-2.3417	-2.4896	-2.6854	-2.3438	-2.5125	-2.6458	-2.3563	-61.023	70.787	-108.329	222.743	67.981	-17.899	146.508	176.606	59.493	106.078	150.645	84.426	-72.454	-123.308	63.926	-117.252	0.00065738	0.00023834	0.00024317	628.53	5.9443e-06	5.0243e-06	810.75	261.87	5.8325e-06	6.8379e-06	355.68	161.38	109.75	62.625	5.8318e-06	97.177	0.00022306	0.00020764	5.7942e-05	611.87	2.2563e-06	2.2437e-06	779.75	253.04	2.2429e-06	2.2212e-06	337.11	153.74	105.41	59.552	2.2357e-06	91.264	178.483	-61.945	13.947	-112.259	-29.482	4.903	-113.625	-107.805	-12.975	27.219	-109.768	-106.044	-104.107	-98.267	-20.326	-101.330	-8191	255	
1189.604	1	1	0	0	0.19043	0.096558	0.30657	0.35289	0.20089	0.03779	0.16312	0.14741	0.16785	0.18464	0.21167	0.030639	0.17607	0.39586	0.045487	0.25028	-2.0958	-2.3167	-2.3146	-2.6896	-2.225	-2.5875	-2.4396	-2.2667	-2.5167	-2.2604	-2.6021	-2.75	-2.3896	-2.6479	-2.4313	-2.4271	5.651	152.092	160.037	207.098	76.516	207.804	129.612	27.607	34.160	97.821	162.232	-62.683	146.706	227.316	-77.022	164.789	0.00073291	0.00031008	0.00020575	625.61	2.5346e-06	3.2288e-06	803.69	260	4.8567e-06	6.6018e-06	352.88	161.8	110	62.394	5.5116e-06	97.066	0.0002195	0.00020244	5.6767e-05	607.88	2.2624e-06	2.2546e-06	775.35	251.78	2.2437e-06	2.2212e-06	335.58	153.36	105.29	59.412	2.2233e-06	91.183	180.815	-34.629	-83.094	-112.568	28.816	26.425	-113.518	-107.655	-47.909	35.139	-109.598	-106.122	-104.102	-98.018	60.681	-101.364	-8191	255	
1189.700	1	1	0	0	0.14834	0.2598	0.12109	0.16383	0.22351	0.31918	0.082715	0.069132	0.21001	0.16856	0.13786	0.18627	0.11463	0.11616	0.15611	0.12931	-2.0625	-2.3417	-2.2313	-2.6688	-2.2229	-2.5542	-2.6896	-2.1875	-2.5625	-2.1813	-2.6562	-2.6333	-2.3688	-2.6271	-2.6104	-2.4354	115.271	-89.543	34.920	227.515	169.440	52.628	219.517	-22.680	-29.520	209.399	127.847	102.476	130.357	-83.787	136.657	-86.391	0.00062648	0.00054746	0.00022198	626.61	4.6604e-06	6.1008e-06	801.36	260.59	6.17e-06	2.607e-06	353.58	160.69	109.81	62.666	5.4706e-06	97.289	0.00022014	0.00020348	5.6555e-05	609.23	2.214e-06	2.2457e-06	774.25	252	2.2429e-06	2.2366e-06	335.99	153.29	105.38	59.659	2.23e-06	91.422	182.543	-59.848	-79.995	-112.638	19.900	44.807	-113.446	-107.875	-18.178	-1.125	-109.870	-105.939	-104.221	-97.918	40.371	-101.322	-8191	255	
1189.796	1	1	0	0	0.087706	0.081909	0.06805	0.11507	0.21408	0.15726	0.14659	0.095194	0.13257	0.26943	0.072859	0.34389	0.18262	0.29377	0.15223	0.062393	-2.2021	-2.2646	-2.2104	-2.7479	-2.2708	-2.5729	-2.7438	-2.3271	-2.6937	-2.5708	-2.3417	-2.7687	-2.6729	-2.4833	-2.6688	-2.5375	155.546	-15.836	25.133	169.882	136.871	31.543	170.053	191.004	96.788	8.860	88.590	-122.708	203.469	186.267	-62.810	85.743	0.00071618	0.00046811	9.373e-05	627.88	3.1718e-06	1.1164e-06	799.39	260.89	6.0566e-06	4.7599e-06	352.99	161.26	109.94	62.876	2.7608e-06	98.154	0.00022215	0.00020519	5.6128e-05	610.25	2.2366e-06	2.2541e-06	776.22	252.27	2.241e-06	2.2422e-06	336.86	153.62	105.49	59.733	2.2896e-06	91.72	180.561	-47.265	-82.312	-112.407	77.739	71.644	-113.728	-107.695	-56.491	-10.622	-109.540	-105.937	-104.084	-97.861	15.347	-101.453	-8191	255	
1189.892	1	1	0	0	0.068443	0.21778	0.17169	0.23268	0.10601	0.11023	0.051397	0.37668	0.30074	0.15735	0.059986	0.17329	0.27114	0.38416	0.42735	0.17788	-1.9958	-2.4917	-2.0667	-2.8604	-2.3958	-2.4188	-3.0042	-2.2125	-2.4375	-2.4688	-2.125	-2.8167	-2.3812	-2.3083	-2.7625	-2.4938	-20.776	168.972	96.410	-98.686	125.854	-43.806	128.373	185.479	190.245	72.826	-54.444	99.246	233.596	208.209	65.920	138.806	0.0007069	0.00038915	0.00024919	625.37	5.5376e-06	4.2026e-06	802.56	260.5	1.2223e-06	3.2468e-06	355.5	161.65	110.01	62.886	8.26e-06	97.636	0.00022516	0.00020703	5.7575e-05	610.98	2.2931e-06	2.2658e-06	778.9	252.68	2.2606e-06	2.2596e-06	337.74	153.85	105.4	59.684	2.2607e-06	91.67	178.519	-28.314	-68.551	-112.787	58.205	8.116	-113.489	-107.567	-11.277	33.592	-109.680	-106.067	-104.092	-98.032	-19.194	-101.501	-8191	255	
1189.989	1	1	0	0	0.11717	0.082418	0.14424	0.14991	0.1975	0.18276	0.16086	0.15183	0.33711	0.10787	0.17496	0.1319	0.1982	0.2502	0.26435	0.18382	-2.0479	-2.5708	-1.9979	-2.5792	-2.4292	-2.5833	-2.7604	-2.4167	-2.6375	-2.5333	-2.3438	-2.8417	-2.6667	-2.1583	-2.7313	-2.4229	103.681	207.710	216.731	-78.597	56.435	2.555	182.738	145.884	44.004	-68.323	25.429	190.552	165.142	-93.687	174.881	208.208	0.00063363	0.00042813	0.00022279	625.22	2.7361e-06	4.5251e-06	802.08	260.36	2.1181e-06	2.1871e-06	353.88	160.89	109.33	62.74	2.5118e-06	96.978	0.00022362	0.00020695	5.733e-05	608.66	2.2393e-06	2.2417e-06	777.06	252.32	2.2482e-06	2.2444e-06	336.04	152.75	104.82	59.493	2.2163e-06	91.22	179.601	-79.906	-25.851	-112.676	38.714	21.795	-113.480	-107.792	-17.584	85.414	-109.945	-105.897	-104.217	-98.043	15.698	-101.604	-8191	255	
1190.085	1	1	0	0	0.16094	0.29311	0.14086	0.25701	0.05462	0.21138	0.21966	0.075732	0.098623	0.23317	0.1949	0.090442	0.31613	0.20657	0.31402	0.14822	-2.0458	-2.7375	-2.0229	-2.5833	-2.5938	-2.3646	-2.7604	-2.5125	-2.6208	-2.6125	-2.1708	-2.7771	-2.8104	-2.4521	-2.575	-2.5292	216.262	37.484	99.206	196.237	2.932	198.251	222.019	55.998	138.279	-114.844	168.645	212.261	-4.301	-85.935	-70.335	121.698	0.00068748	0.00032787	0.00021462	626.44	4.7868e-06	4.8533e-06	797.37	260.08	1.3745e-06	1.5232e-06	354.64	160.62	108.67	62.554	1.1442e-06	96.926	0.00022039	0.00020186	5.6951e-05	606.93	2.2718e-06	2.2619e-06	773.19	251.66	2.2856e-06	2.2695e-06	336.42	152.72	104.53	59.453	2.2573e-06	91.121	170.740	-31.666	-52.054	-112.550	66.118	33.371	-113.880	-107.675	-28.355	32.645	-109.441	-106.085	-104.221	-98.068	33.673	-101.553	-8191	255	
1190.181	1	1	0	0	0.17327	0.2514	0.047907	0.11362	0.1488	0.016521	0.070304	0.093327	0.11877	0.17805	0.068949	0.049172	0.2336	0.43933	0.12752	0.2536	-2.0021	-2.775	-2.3896	-2.5208	-2.3896	-2.3	-2.9542	-2.3979	-2.0938	-2.6667	-2.3458	-2.5042	-2.4854	-2.4792	-2.6833	-2.5625	100.852	177.624	-84.160	16.034	46.032	16.666	135.798	81.473	-13.177	99.818	-87.094	146.673	-124.198	-95.459	-91.935	164.805	0.00061544	0.00025762	0.00016207	624.98	1.6391e-06	3.3062e-06	795.76	260.79	2.3598e-06	2.2402e-06	353.15	160.54	108.99	62.481	2.0276e-06	96.872	0.00021974	0.00020326	5.6432e-05	607.85	2.2289e-06	2.2461e-06	771.55	252.32	2.2923e-06	2.2139e-06	335.61	153.06	104.76	59.474	2.2922e-06	91.094	180.096	-87.086	-26.760	-112.595	-122.421	3.760	-113.527	-107.787	-94.343	-1.536	-109.960	-105.947	-104.246	-98.225	-49.624	-101.232	-8191	255	
1190.277	1	1	0	0	0.13564	0.10493	0.1842	0.18817	0.091863	0.19395	0.21673	0.14896	0.052582	0.33347	0.16146	0.13626	0.049291	0.18964	0.22381	0.11156	-1.6667	-2.4542	-2.2833	-2.6292	-2.5687	-2.0833	-2.7833	-2.6146	-2.3646	-2.5625	-2.4625	-2.4396	-2.7604	-2.3833	-2.5479	-2.5792	206.154	31.981	112.834	129.468	-61.783	-5.183	97.468	223.777	-113.483	220.897	-71.899	160.211	-63.507	-93.438	124.114	-44.376	0.00067289	7.3326e-05	0.00025486	629.42	2.5402e-06	4.3103e-06	799.49	261.69	3.9748e-06	6.8812e-06	357.3	161.57	110.24	62.488	2.4602e-06	97.343	0.0002243	0.00020613	5.7446e-05	611.88	2.2391e-06	2.238e-06	777.66	253.35	2.2697e-06	2.2799e-06	338.27	153.88	105.68	59.692	2.278e-06	91.701	178.557	-90.479	-83.864	-112.658	27.343	-23.371	-114.017	-107.675	-53.386	-40.803	-109.807	-106.039	-104.354	-98.040	27.423	-101.537	-8191	255	
1190.398	1	1	0	0	0.11175	0.15218	0.29012	0.11791	0.10917	0.22022	0.24269	0.011207	0.2447	0.20004	0.076045	0.3569	0.37696	0.38373	0.17303	0.16007	-1.7188	-2.8812	-2.4771	-2.3417	-2.6	-2.1729	-2.7042	-2.6896	-2.1354	-2.9292	-2.4896	-2.3583	-2.8479	-2.4188	-2.5292	-2.8896	-24.348	26.099	74.832	175.703	207.898	19.474	-112.355	209.257	140.830	-7.138	-61.347	208.670	177.403	172.611	95.231	158.520	0.00056134	0.00062695	8.107e-05	632.94	5.1258e-06	7.4772e-06	808.8	263.04	4.0542e-06	4.5259e-06	355.21	161.51	109.84	62.418	3.7823e-06	96.771	0.00022665	0.00020664	5.8324e-05	614.63	2.268e-06	2.2821e-06	781.52	254.65	2.2887e-06	2.2555e-06	339.08	153.88	105.42	59.5	2.2977e-06	91.181	181.311	-55.446	-27.297	-112.599	41.926	-4.242	-113.551	-107.818	-49.789	64.810	-109.645	-106.249	-104.046	-97.932	-51.187	-101.246	-8191	255	
1190.492	1	1	0	0	0.18873	0.1924	0.071277	0.17687	0.3021	0.245	0.2017	0.32387	0.17055	0.11062	0.20543	0.40627	0.15585	0.08108	0.14054	0.1396	-1.9062	-2.7021	-2.4896	-2.6875	-2.7062	-2.0083	-2.7292	-2.9229	-2.1229	-2.6979	-2.6937	-2.5083	-2.9229	-2.4437	-2.5271	-2.7271	225.851	-94.018	233.896	119.287	-92.447	-101.868	-104.745	124.879	120.447	197.115	174.503	184.919	195.335	222.418	-106.578	112.255	0.00072265	0.00026562	9.7374e-05	629.96	3.244e-06	3.9382e-06	803.3	263.39	4.2655e-06	7.4624e-06	356.3	160.61	109.92	62.716	4.6998e-06	97.353	0.00022466	0.00020628	5.8159e-05	614.59	2.2913e-06	2.2952e-06	781.13	254.54	2.3391e-06	2.2957e-06	339.17	153.53	105.68	59.655	2.2965e-06	91.225	181.170	-34.558	-58.265	-112.374	-40.006	48.364	-113.775	-107.881	2.213	23.824	-109.839	-106.172	-104.022	-97.877	4.259	-101.602	-8191	255	
1190.588	1	1	0	0	0.32611	0.059979	0.30532	0.28605	0.15208	0.056335	0.05761	0.16603	0.11584	0.2192	0.018952	0.1368	0.11486	0.057996	0.074674	0.35127	-1.8583	-2.6292	-2.3104	-2.3563	-2.6229	-2.3104	-2.5938	-2.9771	-2.3333	-2.6396	-2.5	-2.5792	-2.7792	-2.475	-2.575	-3.0771	-68.902	115.077	209.097	166.061	212.758	-27.492	104.934	148.021	218.078	120.141	135.013	219.462	54.383	-120.106	-71.891	160.394	0.00063621	0.00048481	4.5628e-05	632.35	5.6591e-06	1.5296e-06	804.04	262.35	2.4189e-06	6.0392e-06	354.5	162.04	110.2	62.773	4.638e-06	97.4	0.00022503	0.00020601	5.8505e-05	615.2	2.2965e-06	2.3001e-06	778.58	254.47	2.3328e-06	2.3009e-06	338.95	154.19	105.96	59.689	2.2995e-06	91.417	182.482	-44.250	-15.785	-112.425	33.086	-1.222	-113.669	-107.599	-13.377	-6.402	-109.769	-106.064	-104.029	-97.941	-28.503	-101.611	-8191	255	
1190.684	1	1	0	0	0.29428	0.041061	0.21341	0.22977	0.22352	0.03998	0.071082	0.22984	0.26159	0.022709	0.21155	0.073723	0.21187	0.10961	0.11052	0.25318	-1.7292	-2.7167	-2.5292	-2.2042	-2.6312	-2.4729	-2.3438	-2.6958	-2.2938	-2.5896	-2.6375	-2.2146	-2.8063	-2.8708	-2.4167	-2.8792	87.066	-56.488	34.489	232.679	10.171	69.083	131.708	-80.695	-65.502	213.542	224.260	177.853	-25.095	164.859	84.542	45.103	0.00071412	0.00051887	0.00024766	633.19	4.4325e-06	2.3963e-06	806.28	263.59	4.6254e-06	8.0404e-07	358.62	163.08	110.65	62.943	4.2306e-06	97.973	0.00022493	0.00020769	5.8141e-05	614.42	2.2706e-06	2.2799e-06	782.45	254.93	2.3065e-06	2.3103e-06	340.31	154.73	106.26	59.901	2.3447e-06	91.986	180.342	-22.304	-58.693	-112.555	17.145	16.407	-113.708	-107.484	-11.226	11.086	-109.796	-105.950	-104.122	-98.034	-74.747	-101.526	-8191	255	
1190.780	1	1	0	0	0.18353	0.30928	0.062583	0.13599	0.26091	0.064571	0.26747	0.10371	0.072431	0.17638	0.19158	0.18901	0.15116	0.14115	0.17183	0.18113	-1.9271	-2.2646	-2.5417	-2.1354	-2.6708	-2.325	-2.4208	-2.8937	-2.2896	-2.6521	-2.7104	-2.3271	-2.675	-2.6271	-2.3375	-2.9271	8.841	-32.843	-89.912	210.554	-37.543	-100.109	123.809	164.148	-17.582	198.634	-92.788	185.537	-103.386	-66.115	24.687	230.333	0.00063151	0.00027535	9.5546e-05	635.23	1.0782e-06	3.5841e-06	809.92	264.38	2.8842e-06	6.6564e-06	357.84	162.72	110.16	63.12	3.7806e-06	98.262	0.00022837	0.00021194	5.9005e-05	619	2.3062e-06	2.2792e-06	784.13	256.13	2.2967e-06	2.2957e-06	340.79	154.77	106.02	60.067	2.3027e-06	92.019	180.675	-83.434	-52.475	-112.621	-16.924	15.242	-113.548	-107.563	-108.158	1.235	-109.900	-106.036	-104.061	-97.999	-57.927	-101.338	-8191	255	
1190.877	1	1	0	0	0.35589	0.16436	0.19858	0.05209	0.12384	0.06788	0.09036	0.0017304	0.30383	0.14538	0.22922	0.11209	0.078649	0.24679	0.17666	0.058156	-1.65	-2.6396	-2.65	-2.1354	-2.5042	-2.4417	-2.4021	-2.6688	-2.2021	-2.4042	-2.7021	-2.3896	-2.7833	-2.6875	-2.2667	-2.9437	-31.677	94.706	32.674	-3.251	13.358	191.607	-106.372	180.000	54.247	220.956	88.510	109.922	159.486	187.694	-59.884	144.883	0.00067966	0.0004764	0.0002372	638.74	5.332e-06	2.1953e-06	804.38	263.01	4.0015e-06	7.9835e-06	356.02	161.36	109.81	62.612	1.6574e-06	96.752	0.00022818	0.00020918	5.8708e-05	619.17	2.2916e-06	2.3021e-06	782.63	254.84	2.2827e-06	2.2885e-06	339.12	153.69	105.3	59.592	2.3284e-06	91.092	178.723	-89.535	-55.444	-112.473	15.122	-53.846	-113.713	-107.711	-55.565	-20.928	-109.948	-105.867	-104.272	-98.018	59.204	-101.374	-8191	255	
1190.997	1	1	0	0	0.17704	0.11435	0.055837	0.14883	0.14404	0.097057	0.23967	0.13077	0.12414	0.089505	0.15832	0.19895	0.22711	0.32627	0.23044	0.10453	-1.9917	-2.5229	-2.6583	-2.2792	-2.6437	-2.5958	-2.2729	-2.8104	-2.3729	-2.4	-2.925	-2.5396	-2.85	-2.7	-2.4688	-2.8229	192.522	18.344	206.326	117.254	-18.246	232.365	94.068	-38.680	57.476	-34.428	-102.109	-27.094	194.992	196.717	-77.714	200.250	0.00070079	0.00040512	0.00015303	633.05	2.6237e-06	2.2823e-06	805.67	264.34	5.9301e-06	7.3206e-06	357.58	161.84	109.98	62.773	7.5178e-06	96.675	0.00022882	0.00021018	5.9011e-05	616.66	2.3043e-06	2.2757e-06	781.64	255.19	2.3392e-06	2.3362e-06	340.12	154.18	105.84	59.754	2.2916e-06	91.112	184.283	-29.404	-54.002	-112.603	-17.850	70.159	-113.787	-107.623	-49.617	18.708	-109.869	-106.114	-104.040	-98.116	-9.983	-101.555	-8191	255	
1191.093	1	1	0	0	0.08423	0.19746	0.19156	0.14724	0.025356	0.17512	0.33222	0.035657	0.24194	0.18755	0.12463	0.27787	0.043129	0.1932	0.35935	0.21319	-1.925	-2.1229	-2.6125	-2.0875	-2.5187	-2.5854	-2.3417	-2.775	-2.6396	-2.2062	-2.9021	-2.3688	-2.6125	-2.6292	-2.3125	-2.6667	-54.138	-91.752	-111.830	192.094	-40.543	9.636	195.342	204.592	152.647	52.056	200.441	154.046	106.440	201.758	176.856	185.058	0.00063484	4.2751e-05	0.00020367	633.06	5.3598e-06	4.9333e-06	806.15	265.95	1.091e-06	6.4838e-06	357.82	162.77	110.98	62.93	5.9882e-06	97.112	0.00023095	0.00021262	5.8839e-05	616.32	2.3225e-06	2.3214e-06	781.99	256.41	2.2896e-06	2.3038e-06	341.29	154.76	106.82	59.853	2.326e-06	91.367	174.088	13.485	-44.854	-112.257	-72.415	18.264	-113.747	-107.680	-34.358	52.605	-109.868	-105.769	-104.077	-97.810	6.794	-101.524	-8191	255	
1191.190	1	1	0	0	0.1572	0.15145	0.1821	0.25438	0.14504	0.064308	0.25231	0.43075	0.096353	0.20429	0.108	0.11427	0.16055	0.24243	0.011193	0.22921	-2.0167	-2.0521	-2.6312	-2.3812	-2.4708	-2.6188	-2.3917	-2.8458	-2.5458	-2.4437	-2.6729	-2.4708	-2.5146	-2.775	-1.925	-2.8521	-32.578	59.285	153.231	-110.556	-109.016	-56.156	147.859	179.428	87.176	33.089	200.779	-92.140	230.838	224.416	226.465	211.761	0.00069788	0.0006001	6.6598e-05	630.62	3.5265e-06	2.754e-06	805.69	266.1	1.1025e-06	6.7137e-06	360.44	163.51	112.04	62.852	4.7021e-06	98.192	0.00023203	0.00021307	5.8852e-05	616.4	2.3419e-06	2.3145e-06	784.28	256.96	2.3508e-06	2.3411e-06	342.95	155.8	107.06	60.036	2.362e-06	92.066	183.976	-40.992	-71.342	-112.433	38.074	52.024	-113.708	-107.654	-98.128	4.676	-109.990	-106.010	-104.200	-97.956	58.589	-101.273	-8191	255	
1191.286	1	1	0	0	0.28865	0.13571	0.0513	0.22559	0.13168	0.30035	0.22183	0.23482	0.14549	0.13322	0.20814	0.1019	0.11653	0.052826	0.243	0.40466	-2.1688	-2.375	-2.6042	-2.5792	-2.3688	-2.6458	-2.2729	-2.6896	-2.525	-2.1833	-2.8438	-2.4542	-2.4917	-2.925	-2.2604	-2.5854	-92.900	-69.348	204.868	202.607	114.444	-84.908	157.358	139.649	22.487	-125.149	194.029	68.416	216.930	-57.686	-53.791	227.285	0.00075097	0.00027775	0.00012454	634.81	6.0372e-06	2.5562e-06	813.06	266.94	1.3228e-06	7.1381e-06	361.67	163.66	110.84	63.101	6.303e-06	97.834	0.00023019	0.00021454	5.9155e-05	619.27	2.3138e-06	2.3151e-06	788.09	257.85	2.3168e-06	2.2927e-06	344.01	155.69	106.7	60.123	2.3333e-06	92.016	179.794	-35.869	-65.508	-112.389	16.638	71.759	-113.474	-107.388	-22.534	-34.277	-109.760	-106.004	-104.068	-97.766	9.186	-101.427	-8191	255	
1191.382	1	1	0	0	0.28861	0.026197	0.032752	0.10074	0.09067	0.25419	0.16081	0.070605	0.26824	0.22901	0.14374	0.11982	0.21933	0.27317	0.24845	0.034907	-2.2625	-2.1833	-2.5187	-2.5938	-2.2208	-2.8104	-2.3167	-2.5375	-2.5271	-2.3021	-2.7396	-2.4792	-2.55	-2.7687	-2.4521	-2.5104	148.584	219.973	49.719	181.894	148.982	143.463	-108.192	217.222	152.115	107.153	133.021	225.253	170.385	195.554	223.759	29.564	0.00073094	0.00044641	0.00018065	636.94	2.7584e-06	4.4929e-06	806.33	266.63	3.3306e-06	7.5222e-06	360.19	162.29	109.87	62.931	4.2143e-06	97.813	0.00023049	0.00021288	5.8504e-05	619.88	2.3123e-06	2.2757e-06	783.76	257.75	2.2967e-06	2.302e-06	341.76	154.34	106	59.979	2.3041e-06	91.809	175.025	-67.196	-79.643	-112.395	59.320	-27.601	-113.585	-107.700	-73.306	-56.116	-109.447	-105.911	-104.083	-97.829	-9.876	-101.448	-8191	255	
#DATA ENDS
