BOXY.EXE: ISS Imagent and Oximeter Data Acquisition Program Version 0.80
Ascii Record File

#ACQ INFORMATION
2  Detector Channels 
16  External MUX Channels 
1  Auxiliary Channels 
5000  Waveform (CCF) Frequency (Hz)
1  Waveforms Skipped 
30  Waveforms Averaged 
1  Cycles Averaged 
16  Acquisitions per Waveform 
10.0806  Updata Rate (Hz) 

#FILE INFORMATION
TRUE -- External MUX Channel results are PARSED.
FALSE -- AC DC and Phase are NOT grouped.
TRUE -- Companion Program Settings File CREATED.
FALSE -- AC data not excluded
FALSE -- DC data not excluded
FALSE -- Phase data not excluded
FALSE -- Auxillary Chn. data not excluded
Tab delimiters

#CALIBRATION STATE
TRUE -- Waveform Calibration Values APPLIED.


#AUX CALIBRATION VALUES
Val Type	aux-1	

Term	1.0000e+00	
Factor	0.0000e+00	


#WF CALIBRATION VALUES
A = Detector Channel
Val Type	A-AC1	A-AC2	A-AC3	A-AC4	A-AC5	A-AC6	A-AC7	A-AC8	A-AC9	A-AC10	A-AC11	A-AC12	A-AC13	A-AC14	A-AC15	A-AC16	A-DC1	A-DC2	A-DC3	A-DC4	A-DC5	A-DC6	A-DC7	A-DC8	A-DC9	A-DC10	A-DC11	A-DC12	A-DC13	A-DC14	A-DC15	A-DC16	A-Ph1	A-Ph2	A-Ph3	A-Ph4	A-Ph5	A-Ph6	A-Ph7	A-Ph8	A-Ph9	A-Ph10	A-Ph11	A-Ph12	A-Ph13	A-Ph14	A-Ph15	A-Ph16	

Term	0.00000e+00	0.00000e+00	0.00000e+00	0.00000e+00	0.00000e+00	0.00000e+00	0.00000e+00	0.00000e+00	0.00000e+00	0.00000e+00	0.00000e+00	0.00000e+00	0.00000e+00	0.00000e+00	0.00000e+00	0.00000e+00	0.00000e+00	0.00000e+00	0.00000e+00	0.00000e+00	0.00000e+00	0.00000e+00	0.00000e+00	0.00000e+00	0.00000e+00	0.00000e+00	0.00000e+00	0.00000e+00	0.00000e+00	0.00000e+00	0.00000e+00	0.00000e+00	0.00000e+00	0.00000e+00	0.00000e+00	0.00000e+00	0.00000e+00	0.00000e+00	0.00000e+00	0.00000e+00	0.00000e+00	0.00000e+00	0.00000e+00	0.00000e+00	0.00000e+00	0.00000e+00	0.00000e+00	0.00000e+00	
Factor	1.00000e+00	1.00000e+00	1.00000e+00	1.00000e+00	1.00000e+00	1.00000e+00	1.00000e+00	1.00000e+00	1.00000e+00	1.00000e+00	1.00000e+00	1.00000e+00	1.00000e+00	1.00000e+00	1.00000e+00	1.00000e+00	1.00000e+00	1.00000e+00	1.00000e+00	1.00000e+00	1.00000e+00	1.00000e+00	1.00000e+00	1.00000e+00	1.00000e+00	1.00000e+00	1.00000e+00	1.00000e+00	1.00000e+00	1.00000e+00	1.00000e+00	1.00000e+00	X	X	X	X	X	X	X	X	X	X	X	X	X	X	X	X	

B = Detector Channel
Val Type	B-AC1	B-AC2	B-AC3	B-AC4	B-AC5	B-AC6	B-AC7	B-AC8	B-AC9	B-AC10	B-AC11	B-AC12	B-AC13	B-AC14	B-AC15	B-AC16	B-DC1	B-DC2	B-DC3	B-DC4	B-DC5	B-DC6	B-DC7	B-DC8	B-DC9	B-DC10	B-DC11	B-DC12	B-DC13	B-DC14	B-DC15	B-DC16	B-Ph1	B-Ph2	B-Ph3	B-Ph4	B-Ph5	B-Ph6	B-Ph7	B-Ph8	B-Ph9	B-Ph10	B-Ph11	B-Ph12	B-Ph13	B-Ph14	B-Ph15	B-Ph16	

Term	0.00000e+00	0.00000e+00	0.00000e+00	0.00000e+00	0.00000e+00	0.00000e+00	0.00000e+00	0.00000e+00	0.00000e+00	0.00000e+00	0.00000e+00	0.00000e+00	0.00000e+00	0.00000e+00	0.00000e+00	0.00000e+00	0.00000e+00	0.00000e+00	0.00000e+00	0.00000e+00	0.00000e+00	0.00000e+00	0.00000e+00	0.00000e+00	0.00000e+00	0.00000e+00	0.00000e+00	0.00000e+00	0.00000e+00	0.00000e+00	0.00000e+00	0.00000e+00	-1.50301e+02	-1.43373e+02	-1.49792e+02	-1.82306e+02	-7.93885e+01	-7.58284e+01	-1.59027e+02	-1.62015e+02	-9.78180e+01	-8.34192e+01	-1.70563e+02	-1.71693e+02	-1.81003e+02	-1.76539e+02	-7.99657e+01	-1.49547e+02	
Factor	2.19586e-05	8.39436e-05	3.41424e-05	1.49821e-01	8.35295e-07	9.81461e-07	1.65141e-01	4.79080e-02	1.03987e-06	1.07697e-06	8.44516e-02	2.96454e-02	2.29630e-02	8.60919e-03	9.99734e-07	1.26421e-02	8.08318e-07	8.29617e-07	2.31217e-07	7.45948e-02	9.07046e-09	9.09328e-09	7.73629e-02	2.38309e-02	9.06268e-09	9.06799e-09	3.98886e-02	1.40138e-02	1.13350e-02	4.22160e-03	9.04165e-09	5.95415e-03	X	X	X	X	X	X	X	X	X	X	X	X	X	X	X	X	



#DISTANCE SETTINGS
A = Detector Channel
A-1	A-2	A-3	A-4	A-5	A-6	A-7	A-8	A-9	A-10	A-11	A-12	A-13	A-14	A-15	A-16	

2.5000e+00	3.0000e+00	2.5000e+00	3.0000e+00	2.0000e+00	3.0000e+00	1.5000e+00	3.0000e+00	3.0000e+00	3.0000e+00	3.0000e+00	3.0000e+00	3.0000e+00	3.0000e+00	1.5000e+00	3.0000e+00	

B = Detector Channel
B-1	B-2	B-3	B-4	B-5	B-6	B-7	B-8	B-9	B-10	B-11	B-12	B-13	B-14	B-15	B-16	

1.0000e+01	1.0000e+01	1.0000e+01	1.4400e+00	1.0000e+01	1.0000e+01	1.5100e+00	1.9400e+00	1.0000e+01	1.0000e+01	1.9900e+00	2.4900e+00	2.4100e+00	2.9000e+00	1.0000e+01	2.9800e+00	




#DATA BEGINS
time	group	step	mark	flag	A-AC1	A-AC2	A-AC3	A-AC4	A-AC5	A-AC6	A-AC7	A-AC8	A-AC9	A-AC10	A-AC11	A-AC12	A-AC13	A-AC14	A-AC15	A-AC16	A-DC1	A-DC2	A-DC3	A-DC4	A-DC5	A-DC6	A-DC7	A-DC8	A-DC9	A-DC10	A-DC11	A-DC12	A-DC13	A-DC14	A-DC15	A-DC16	A-Ph1	A-Ph2	A-Ph3	A-Ph4	A-Ph5	A-Ph6	A-Ph7	A-Ph8	A-Ph9	A-Ph10	A-Ph11	A-Ph12	A-Ph13	A-Ph14	A-Ph15	A-Ph16	B-AC1	B-AC2	B-AC3	B-AC4	B-AC5	B-AC6	B-AC7	B-AC8	B-AC9	B-AC10	B-AC11	B-AC12	B-AC13	B-AC14	B-AC15	B-AC16	B-DC1	B-DC2	B-DC3	B-DC4	B-DC5	B-DC6	B-DC7	B-DC8	B-DC9	B-DC10	B-DC11	B-DC12	B-DC13	B-DC14	B-DC15	B-DC16	B-Ph1	B-Ph2	B-Ph3	B-Ph4	B-Ph5	B-Ph6	B-Ph7	B-Ph8	B-Ph9	B-Ph10	B-Ph11	B-Ph12	B-Ph13	B-Ph14	B-Ph15	B-Ph16	aux-1	digaux	

1427.474	1	1	0	512	0.12943	0.13461	0.040837	0.09105	0.15988	0.18633	0.12674	0.072454	0.13931	0.28831	0.27621	0.094675	0.055199	0.18224	0.089689	0.29387	-1.775	-2.1542	-2.0167	-2.5354	-2.1104	-2.5625	-2.5208	-2.0604	-2.6104	-2.0979	-2.2812	-2.4104	-2.0312	-2.3771	-2.3271	-2.0854	-138.384	79.103	-105.071	-111.753	-66.902	50.384	132.182	102.926	33.499	184.351	7.583	-114.439	198.191	27.527	-3.647	200.931	0.00012557	7.2651e-05	4.4336e-05	262.73	1.9645e-06	2.8683e-06	406.6	102.72	4.1586e-06	3.1736e-07	180.45	48.991	26.2	8.2662	4.6039e-06	17.861	0.00018849	0.00018899	5.255e-05	265.84	2.0717e-06	2.0985e-06	402.07	102.5	2.0541e-06	2.0639e-06	175.87	48.832	27.131	8.6827	2.0422e-06	17.905	169.508	29.380	-114.122	-136.049	-22.721	61.962	-138.216	-130.645	-110.784	-85.978	-134.446	-129.827	-128.103	-122.316	-14.908	-125.531	-8191	255	
1427.569	1	1	0	0	0.19844	0.13664	0.11449	0.1598	0.10081	0.15084	0.08976	0.11594	0.077443	0.1396	0.096884	0.16043	0.23532	0.25944	0.21262	0.088513	-2.075	-2.2313	-2.1813	-2.6542	-2.1542	-2.2792	-2.4854	-2.05	-2.4292	-2.4104	-2.2104	-2.3875	-2.1	-2.3229	-2.3312	-1.9542	161.238	2.354	-84.392	70.493	115.978	-113.439	-117.849	26.020	-10.644	-55.754	52.951	-121.466	209.176	-20.479	135.860	-130.077	0.00021329	8.7276e-05	5.535e-05	263.42	3.6572e-06	3.3896e-06	405.39	102.26	1.6991e-06	2.3186e-06	178.72	49.068	26.079	8.1698	3.3427e-06	17.989	0.00019112	0.00019013	5.2845e-05	265	2.0916e-06	2.0748e-06	401.99	102.18	2.1003e-06	2.0728e-06	174.66	48.492	27.047	8.6508	2.0683e-06	18.033	178.501	-70.906	105.067	-136.126	-76.492	19.948	-138.083	-131.165	-115.799	130.625	-134.549	-130.562	-127.899	-122.001	-51.683	-125.225	-8191	255	
1427.665	1	1	0	0	0.078993	0.11369	0.13545	0.14918	0.10828	0.07709	0.041999	0.042942	0.3564	0.24018	0.076587	0.2156	0.40747	0.15482	0.25759	0.061922	-2.0958	-2.2812	-1.9854	-2.625	-2.1562	-2.1729	-2.5167	-1.8521	-2.5292	-2.3333	-2.1604	-2.5	-2.1875	-2.2167	-2.5229	-2.075	178.405	178.177	188.187	-118.929	7.391	126.089	82.000	68.675	39.887	-145.907	-97.066	170.797	116.063	196.365	184.385	-55.333	0.00012312	0.00012444	9.9586e-05	263.7	3.4283e-06	2.2367e-06	407.61	103.37	2.9902e-06	2.5875e-06	179.03	48.785	26.037	8.28	1.7067e-06	17.906	0.00018842	0.00018923	5.3145e-05	267.08	2.0973e-06	2.0852e-06	404.78	103.11	2.1031e-06	2.0944e-06	175.33	48.849	27.084	8.6739	2.0638e-06	17.973	190.196	6.693	-68.941	-136.195	-39.935	88.077	-138.414	-130.684	-40.193	18.136	-134.431	-129.745	-127.805	-122.031	-0.750	-125.329	-8191	255	
1427.786	1	1	0	0	0.17072	0.2249	0.096821	0.22406	0.06959	0.23035	0.17319	0.078227	0.18084	0.11026	0.14816	0.0196	0.38492	0.1866	0.12319	0.20688	-1.8563	-2.3187	-1.9875	-2.3479	-2.1146	-2.0542	-2.4688	-2.0604	-2.3104	-2.5104	-2.0646	-2.3333	-2.2292	-2.0812	-2.55	-2.1875	152.221	59.351	-54.776	133.080	-103.908	21.018	108.026	112.641	-117.810	-19.141	105.342	208.830	-82.460	39.504	-66.814	-132.963	0.00013641	0.00037588	0.00010478	264.59	4.5144e-06	3.4235e-06	408.88	103.37	4.383e-06	2.1449e-06	178.57	48.373	26.221	8.1794	7.0864e-06	17.597	0.00019222	0.00019345	5.2741e-05	266.7	2.0927e-06	2.1067e-06	404.97	103.19	2.0938e-06	2.0953e-06	174.53	48.331	26.991	8.6332	2.1164e-06	17.772	177.934	-62.139	-58.810	-136.338	4.434	24.197	-138.512	-130.699	-14.390	67.104	-134.437	-130.126	-127.702	-121.153	-121.907	-124.957	-8191	255	
1427.882	1	1	0	0	0.12198	0.12894	0.097518	0.096272	0.16218	0.15906	0.12145	0.19513	0.18864	0.1931	0.29145	0.061858	0.20348	0.022187	0.19205	0.35378	-1.9188	-2.5125	-2.1375	-2.5167	-2.325	-2.1875	-2.6167	-2.0917	-2.2896	-2.6312	-2.0563	-2.4229	-2.5479	-2.0625	-2.3104	-2.1333	-112.814	200.846	191.203	77.882	-105.178	-139.667	144.285	-62.721	-1.004	-120.740	161.964	-118.548	-67.038	192.281	93.270	192.479	0.0002624	0.00033705	0.00010237	262.68	1.1502e-06	4.0943e-06	400.7	102.05	3.5176e-06	3.2082e-06	176.48	48.582	26.116	8.1115	1.3829e-06	17.527	0.00019285	0.00019179	5.2727e-05	265.37	2.1159e-06	2.1002e-06	399.39	102.35	2.0955e-06	2.0796e-06	172.82	48.296	26.851	8.5609	2.1042e-06	17.649	193.780	-65.046	-116.202	-136.380	159.333	-94.884	-137.848	-131.114	-102.779	-2.688	-134.479	-130.374	-128.015	-121.592	194.432	-125.477	-8191	255	
1427.978	1	1	0	0	0.16607	0.13672	0.14009	0.14051	0.19835	0.25784	0.11159	0.32265	0.18581	0.14049	0.089911	0.145	0.1036	0.14329	0.20007	0.1843	-1.7938	-2.2979	-2.2208	-2.4667	-2.3458	-2.0667	-2.5896	-2.1771	-2.325	-2.3937	-2.1854	-2.5	-2.2104	-2.2042	-2.5687	-2.2417	-137.283	-30.878	-73.856	63.957	135.667	-21.491	144.584	180.831	193.529	-119.178	189.875	-62.919	24.573	36.615	199.400	181.344	0.00014873	0.00037577	5.1068e-05	265.11	1.3838e-06	4.2133e-06	404.87	103.29	1.8932e-06	2.8401e-06	179.97	48.448	26.214	8.1597	2.6397e-06	17.478	0.00019207	0.00019232	5.3693e-05	266.43	2.088e-06	2.0968e-06	401.61	103.14	2.0824e-06	2.116e-06	175.02	48.477	27.151	8.6026	2.0946e-06	17.721	166.246	-39.604	-138.007	-135.921	-147.130	-11.134	-137.978	-131.139	74.756	103.274	-134.416	-129.526	-127.553	-122.181	-137.775	-125.713	-8191	255	
1428.050	1	1	0	0	0.11821	0.15117	0.084591	0.23446	0.2062	0.20881	0.082476	0.18627	0.08113	0.23318	0.020768	0.26467	0.16542	0.17167	0.12142	0.10085	-1.8104	-2.4375	-2	-2.2667	-2.2438	-2.1688	-2.4833	-2.3521	-2.1375	-2.5771	-2.1583	-2.4	-2.3604	-2.1229	-2.2687	-2.3063	124.069	136.420	-32.111	202.638	-85.065	-123.466	-148.555	179.112	-130.051	111.261	-77.297	-121.137	25.159	143.629	-125.909	145.564	0.00010957	0.00011286	7.3863e-05	265.1	1.9793e-06	2.5853e-06	407.03	104.71	3.2227e-06	2.7644e-06	178.95	48.604	26.157	8.2156	7.3619e-07	17.474	0.0001925	0.00019068	5.3443e-05	266.96	2.0988e-06	2.1323e-06	403.92	104.33	2.1336e-06	2.0672e-06	175.63	48.511	27.088	8.6215	2.1111e-06	17.624	194.396	-21.711	169.173	-136.107	23.166	34.177	-138.130	-131.416	-34.832	-115.143	-134.685	-129.659	-127.781	-121.461	-5.025	-125.449	-8191	255	
1428.170	1	1	0	0	0.11598	0.1073	0.18216	0.26218	0.20338	0.17093	0.1107	0.045093	0.15447	0.16664	0.31344	0.061603	0.30638	0.25021	0.091122	0.25374	-1.7583	-2.4875	-2.1875	-2.1229	-2.3125	-2.1125	-2.4875	-2.1167	-2.0208	-2.3854	-2.1	-2.2083	-2.4521	-1.875	-2.425	-2.2396	210.361	124.048	-33.960	142.628	8.213	29.053	189.138	153.044	-88.275	23.348	130.787	-20.280	159.169	69.725	120.896	165.550	0.00015152	0.00031499	0.00017749	263.65	9.018e-07	3.7885e-06	405.91	104.51	2.7494e-06	5.1986e-06	181.86	48.713	26.236	8.1341	1.7368e-06	17.678	0.00019173	0.00019425	5.3236e-05	266.27	2.0985e-06	2.1134e-06	402.64	104.46	2.1065e-06	2.0982e-06	176.72	48.686	27.184	8.6584	2.1164e-06	17.738	188.511	-63.519	-72.846	-136.554	39.855	66.485	-138.200	-130.864	-87.694	-114.392	-134.425	-130.024	-128.006	-121.697	79.875	-125.781	-8191	255	
1428.266	1	1	0	0	0.053055	0.077665	0.034956	0.18627	0.21914	0.076888	0.17266	0.15823	0.24017	0.19172	0.19905	0.11831	0.26193	0.081131	0.16078	0.12997	-1.5104	-2.5229	-2.1146	-2.3312	-2.4521	-1.9562	-2.3625	-2.4042	-2.0583	-2.4333	-2.1167	-2.1792	-2.4479	-2.1437	-2.125	-2.2083	-33.821	-138.856	83.953	-127.498	209.459	127.009	100.237	91.915	-48.859	76.055	-109.094	139.978	46.311	-102.525	-1.395	-129.163	0.00021091	0.00041183	6.4601e-05	262.87	1.7429e-06	7.9151e-07	410.41	104.21	4.2422e-06	1.5495e-06	181.33	48.773	26.22	8.0583	4.6094e-06	17.256	0.00019123	0.00019007	5.2794e-05	267.33	2.095e-06	2.0779e-06	406.88	104.45	2.0896e-06	2.1146e-06	176.29	48.483	27.004	8.5744	2.0724e-06	17.428	176.818	-81.354	121.214	-135.993	53.408	114.551	-138.357	-131.262	53.569	-62.937	-134.831	-129.620	-127.189	-121.388	-18.617	-125.706	-8191	255	
1428.362	1	1	0	0	0.24024	0.23141	0.13827	0.16013	0.04921	0.27029	0.10059	0.18492	0.070784	0.24949	0.11471	0.18604	0.071041	0.16672	0.26122	0.14786	-1.4979	-2.3792	-2.2812	-2.1083	-2.3667	-2.2667	-2.3917	-2.4146	-2.0396	-2.5583	-2.1146	-2.1375	-2.4437	-2.1021	-2.2104	-2.6333	193.244	90.153	57.260	-18.490	108.773	8.823	-101.499	159.703	-44.675	177.195	166.107	152.055	-99.253	80.852	-46.138	139.027	0.00013754	0.00021283	4.8429e-05	262.66	2.4287e-06	8.3958e-07	401.23	104.01	1.4068e-06	5.0875e-06	176.91	47.454	25.549	8.0534	9.3972e-07	17.043	0.00019041	0.00019181	5.3444e-05	264.96	2.0649e-06	2.1139e-06	398.01	103.15	2.1204e-06	2.0749e-06	172.79	47.351	26.493	8.433	2.0895e-06	17.182	166.442	-33.769	-34.034	-136.110	-79.999	29.766	-137.922	-131.202	180.532	-65.660	-134.292	-129.641	-127.347	-120.722	67.611	-125.442	-8191	255	
1428.481	1	1	0	0	0.15025	0.11761	0.067315	0.18609	0.21943	0.26227	0.038939	0.096658	0.09843	0.17565	0.12515	0.15967	0.095289	0.071405	0.070527	0.1615	-1.4937	-2.4667	-2.3063	-2.2708	-2.5771	-2.1125	-2.2146	-2.55	-2.1271	-2.4938	-2.3604	-2.0187	-2.3396	-2.475	-2.4021	-2.3812	85.997	190.443	100.221	-100.105	-117.207	-3.669	-143.087	77.116	-145.071	147.263	56.599	91.080	-129.757	-111.110	-68.246	183.104	0.00012162	0.00044445	0.0001678	262.1	2.3341e-06	2.3456e-06	403.41	103.98	1.6942e-06	3.117e-06	178.18	48.04	25.603	8.0834	1.4729e-06	17.449	0.00018878	0.00019104	5.2999e-05	264.52	2.0684e-06	2.0513e-06	399.75	103.74	2.0761e-06	2.0616e-06	174	47.873	26.67	8.4921	2.0813e-06	17.392	154.803	-78.314	-90.809	-136.188	-77.268	137.941	-138.300	-131.059	17.527	121.997	-134.586	-130.212	-126.894	-121.993	-31.534	-125.655	-8191	255	
1428.577	1	1	0	0	0.068318	0.28949	0.33638	0.34348	0.031495	0.18649	0.24447	0.22511	0.22323	0.26339	0.25147	0.10779	0.0099081	0.038348	0.14669	0.19266	-1.6167	-2.2729	-2.3729	-2.1562	-2.5542	-2.2521	-2.1417	-2.5062	-2.1063	-2.4958	-2.4104	-2.0104	-2.6208	-2.2188	-2.1729	-2.7917	91.091	-70.131	-95.590	110.535	-135.143	192.154	-52.890	145.458	42.696	-92.345	40.715	192.556	186.419	-23.470	-5.345	-146.531	0.00021479	0.00017156	1.8664e-05	265.45	1.9998e-06	1.1868e-06	403.64	103.94	3.133e-06	6.3926e-07	180.82	47.93	25.759	8.0659	3.9458e-06	17.003	0.00018907	0.00018909	5.2873e-05	266.82	2.0909e-06	2.0904e-06	402.39	104.26	2.0821e-06	2.0523e-06	175.73	48.055	26.804	8.5356	2.0642e-06	17.305	210.331	31.879	-69.468	-136.081	-107.171	9.926	-137.980	-131.028	159.043	138.569	-134.557	-129.807	-127.164	-121.813	80.270	-125.275	-8191	255	
1428.674	1	1	0	0	0.049646	0.028476	0.19358	0.55448	0.31919	0.28996	0.27391	0.13425	0.06599	0.064545	0.053275	0.23313	0.065309	0.10026	0.206	0.16991	-1.7292	-2.1979	-2.3521	-2.1333	-2.5521	-2.3042	-2.3167	-2.5917	-2.0646	-2.2687	-2.4708	-2.1625	-2.4292	-2.4083	-2.1292	-2.525	-139.861	54.643	196.938	171.835	-54.115	-121.347	-30.486	205.017	-15.863	-68.447	42.701	157.640	39.621	-13.087	93.938	110.382	0.00010567	0.00037476	6.683e-05	264.94	1.1748e-06	3.8001e-06	408.94	104.82	1.0734e-06	1.8571e-06	179.89	48.186	25.719	8.0913	1.8147e-06	17.103	0.00019183	0.00018787	5.2104e-05	267.32	2.0903e-06	2.0932e-06	404.28	105.05	2.0914e-06	2.0526e-06	175.71	48.196	26.842	8.5515	2.0612e-06	17.259	202.250	-36.351	-100.026	-136.244	190.765	78.539	-138.051	-130.943	-50.000	79.110	-134.558	-130.009	-127.609	-121.969	43.565	-125.755	-8191	255	
1428.770	1	1	0	0	0.23366	0.059321	0.22224	0.32928	0.20091	0.17185	0.31234	0.24701	0.07361	0.09247	0.088439	0.18067	0.34865	0.029811	0.29343	0.26969	-1.6083	-2.2188	-2.3958	-2.2438	-2.3771	-2.325	-2.1375	-2.3542	-1.9937	-2.1854	-2.3229	-2.2542	-2.2625	-2.1917	-1.9542	-2.6271	134.255	-48.783	16.214	175.181	122.171	47.063	105.521	-107.247	-108.553	181.819	-48.233	-74.912	177.583	100.623	153.821	167.946	0.00019175	0.00017619	0.00010697	263.57	2.9283e-06	3.0113e-06	406.27	105.46	2.4112e-06	1.9065e-06	180.86	48.169	25.604	8.2038	4.1554e-06	17.172	0.00018793	0.00018959	5.2821e-05	265.71	2.0899e-06	2.0889e-06	401.95	104.44	2.0901e-06	2.0697e-06	175.93	48.131	26.868	8.6036	2.0901e-06	17.382	169.836	-21.987	-68.080	-135.986	-113.181	36.227	-137.872	-130.968	-20.349	195.187	-134.351	-129.978	-127.314	-121.075	48.220	-125.513	-8191	255	
1428.866	1	1	0	0	0.12179	0.19727	0.26258	0.08994	0.27215	0.1579	0.24699	0.0072821	0.098771	0.17763	0.32341	0.18742	0.2009	0.1332	0.29383	0.20229	-1.75	-2.1354	-2.4542	-2.0417	-2.4062	-2.4083	-1.925	-2.4542	-2.2604	-2.3396	-2.5458	-1.9833	-2.2771	-2.4792	-2.0646	-2.3521	164.122	47.224	195.970	106.574	-79.257	117.194	205.089	-117.717	-118.679	-126.305	-126.284	-39.849	-103.502	35.795	89.895	-127.861	0.00016127	0.00040752	7.6029e-05	266.65	3.1085e-06	1.9806e-06	405.89	104.66	1.4299e-06	4.5884e-06	180.34	47.93	25.978	8.1095	2.7468e-06	17.16	0.00019001	0.00018965	5.2257e-05	267.08	2.0827e-06	2.0678e-06	401.23	104.24	2.0627e-06	2.0639e-06	174.95	47.796	26.856	8.5437	2.07e-06	17.361	184.332	-86.246	25.961	-135.838	-43.140	7.393	-138.196	-130.922	51.433	56.793	-134.370	-129.758	-127.941	-121.925	-28.718	-125.636	-8191	255	
1428.962	1	1	0	0	0.13928	0.016585	0.17606	0.095881	0.12156	0.2038	0.10859	0.16669	0.15284	0.1044	0.19611	0.089123	0.072134	0.28843	0.083056	0.15783	-1.9021	-2.0729	-2.6729	-2.0563	-2.1896	-2.3708	-2.2479	-2.5729	-2.3146	-2.2479	-2.4917	-2.1063	-2.2208	-2.3896	-1.9417	-2.4792	179.012	-79.317	125.746	124.868	-136.530	209.972	58.277	115.003	111.831	182.353	-41.648	-125.454	122.326	45.659	136.587	-17.791	0.0001534	0.00037965	4.5075e-05	261.53	9.0513e-08	9.8909e-07	403.32	104.54	2.0229e-06	5.9464e-07	178.44	48.319	26.107	8.0449	2.8463e-06	17.171	0.00018893	0.00018842	5.2135e-05	265.53	2.0805e-06	2.0575e-06	399.43	104.23	2.076e-06	2.0809e-06	174.37	47.998	26.757	8.5391	2.0214e-06	17.255	197.532	-51.559	30.332	-135.720	146.331	166.316	-138.437	-131.261	123.655	116.562	-134.237	-130.042	-126.896	-121.518	-40.450	-125.627	-8191	255	
1429.083	1	1	0	0	0.12104	0.12098	0.16484	0.18449	0.094536	0.35296	0.091783	0.081614	0.30485	0.13697	0.1451	0.10165	0.059836	0.15932	0.12244	0.12137	-1.9667	-2.2021	-2.5438	-2.0958	-2.2479	-2.2958	-2.1729	-2.4646	-2.4042	-2.1729	-2.3917	-2.3417	-2.1333	-2.3229	-2.3187	-2.2417	59.548	61.727	-86.260	98.209	-82.559	102.608	159.823	141.637	125.349	-58.082	15.273	171.560	-64.434	154.141	-142.129	94.024	4.4818e-05	0.00011453	8.2896e-05	262.94	1.7114e-06	2.819e-06	403.48	105.02	3.3306e-06	9.6982e-07	179.45	47.948	25.919	8.0698	1.9353e-06	17.043	0.00018837	0.00018627	5.229e-05	266.01	2.0631e-06	2.0736e-06	402.03	104.83	2.0808e-06	2.0843e-06	175.53	47.864	26.821	8.5263	2.0653e-06	17.209	181.142	-66.731	-41.739	-136.040	165.114	32.176	-138.233	-131.231	-73.753	45.703	-134.452	-130.209	-127.874	-121.877	-90.185	-125.689	-8191	255	
1429.179	1	1	0	0	0.26013	0.1853	0.1199	0.088349	0.031955	0.21326	0.23503	0.13658	0.11936	0.07741	0.047694	0.14676	0.12744	0.077135	0.15701	0.11369	-1.9208	-2.1083	-2.5563	-2.2646	-2.2375	-2.3896	-2.1	-2.5083	-2.5312	-1.9375	-2.5104	-2.2708	-2.0792	-2.5062	-2.2646	-2.3563	102.620	172.957	69.638	-69.016	-41.061	-129.380	-96.494	94.961	-93.417	189.121	177.276	60.391	90.407	140.434	115.483	59.806	0.00017838	0.00011283	5.3714e-05	261.94	1.6234e-06	1.8932e-06	401.71	103.26	3.4268e-06	4.2527e-06	176.72	47.657	25.288	7.9629	1.1785e-06	16.804	0.00018901	0.00018934	5.2993e-05	265.07	2.0842e-06	2.0522e-06	398.91	103.2	2.0349e-06	2.0703e-06	172.74	47.193	26.35	8.4064	2.0584e-06	17.015	172.189	113.423	-48.574	-136.046	-31.755	-30.470	-138.249	-130.979	-120.407	-72.226	-134.011	-129.582	-127.749	-122.037	-27.505	-125.793	-8191	255	
1429.275	1	1	0	0	0.27235	0.11312	0.1819	0.22028	0.050406	0.12126	0.12336	0.069756	0.15168	0.13742	0.029603	0.19555	0.10594	0.022041	0.07302	0.25871	-1.9458	-1.9396	-2.3688	-2.4188	-2.1646	-2.6646	-2.2792	-2.1479	-2.4833	-2.0208	-2.2938	-2.1479	-2.1958	-2.425	-2.1813	-2.2375	12.614	25.197	9.973	116.023	51.645	132.791	122.816	151.542	-13.080	206.505	207.726	181.473	48.193	-70.850	143.286	165.758	0.00018483	0.00018515	0.00010531	260.78	5.5075e-07	7.9419e-07	394.09	102.33	7.9121e-07	3.6872e-06	174.41	46.116	24.721	7.8205	1.6111e-06	16.519	0.00018993	0.00018904	5.2211e-05	263.42	2.0713e-06	2.0606e-06	393.92	102.09	2.062e-06	2.0497e-06	169.94	45.981	25.765	8.2209	2.0574e-06	16.633	198.574	-56.331	-100.773	-135.821	40.958	-59.921	-138.115	-131.173	-127.732	54.710	-134.251	-129.507	-127.427	-120.996	80.678	-125.585	-8191	255	
1429.347	1	1	0	0	0.060812	0.19699	0.19258	0.16372	0.074789	0.21801	0.26865	0.18611	0.18515	0.09395	0.19121	0.099013	0.0099088	0.21071	0.18149	0.14903	-1.9833	-1.9312	-2.2833	-2.4354	-2.1604	-2.4188	-2.3063	-2.1917	-2.5438	-2.1979	-2.2604	-2.3333	-2.0292	-2.5854	-2.1854	-2.0146	43.194	57.504	47.815	190.168	6.179	91.924	113.403	189.906	82.035	97.214	162.633	106.028	-81.181	209.797	136.214	-107.447	0.00022606	0.00038608	7.5594e-05	256.23	1.6441e-06	1.9549e-06	389.79	102.8	3.3868e-06	3.5683e-06	176.37	46.05	25.087	7.7536	1.763e-06	16.428	0.00019014	0.00018892	5.3163e-05	260.14	2.1116e-06	2.0851e-06	388.95	102.64	2.0745e-06	2.0655e-06	171.76	46.177	25.862	8.248	2.0906e-06	16.601	197.093	29.270	-148.180	-136.206	-57.751	54.705	-137.912	-131.076	-16.724	-107.626	-134.529	-129.434	-127.701	-121.098	152.247	-125.006	-8191	255	
1429.443	1	1	0	0	0.11807	0.17344	0.20376	0.27503	0.17878	0.096169	0.13887	0.2349	0.11605	0.086412	0.067339	0.023085	0.18566	0.21729	0.10597	0.35692	-2.1104	-2.0375	-2.2375	-2.375	-1.8188	-2.5458	-2.475	-2.1604	-2.4792	-2.2042	-2.1375	-2.5396	-2.0583	-2.4833	-2.3104	-1.9979	55.883	-49.402	120.165	166.703	159.339	-144.224	161.760	93.364	54.083	32.399	81.815	-147.074	-42.993	85.925	133.464	119.224	0.00018983	0.0002244	0.00018799	257.08	2.5558e-06	2.2257e-06	394.02	103.09	2.2436e-06	2.5623e-06	174.83	46.538	24.327	7.7818	1.7157e-06	16.658	0.00019166	0.00019103	5.3071e-05	260.28	2.0924e-06	2.0566e-06	389.37	102.44	2.0599e-06	2.0657e-06	171.24	46.282	25.613	8.2384	2.0759e-06	16.794	188.271	-12.730	-33.639	-136.067	-26.267	-71.333	-138.095	-130.790	-86.849	47.564	-134.002	-129.761	-127.130	-121.638	-147.292	-125.179	-8191	255	
1429.562	1	1	0	0	0.18725	0.18936	0.11942	0.15269	0.2011	0.18728	0.088793	0.18345	0.10003	0.15153	0.15199	0.19881	0.13954	0.12194	0.20274	0.007052	-2.05	-2.2729	-2.1042	-2.4271	-1.9708	-2.5687	-2.5229	-2.0438	-2.5042	-2.4458	-2.3375	-2.5812	-2.2	-2.4479	-2.3479	-2.2917	136.279	-33.969	-112.692	107.130	69.740	140.247	34.425	-15.655	1.907	44.786	171.449	111.854	174.023	33.000	163.499	-66.240	0.00013472	0.00031054	2.8446e-05	256.84	2.2943e-06	1.8434e-06	392.37	101.95	3.2936e-06	1.8211e-06	174.55	46.227	24.583	7.7776	4.3021e-06	16.444	0.00019058	0.00018965	5.2423e-05	259.64	2.0719e-06	2.0811e-06	388.82	101.96	2.074e-06	2.0562e-06	171.49	46.352	25.68	8.2466	2.0824e-06	16.721	202.256	49.522	93.650	-136.309	-33.342	19.858	-137.911	-130.877	-129.491	-113.085	-134.334	-129.861	-127.315	-121.607	-8.071	-125.575	-8191	255	
1429.658	1	1	0	0	0.094559	0.028939	0.053213	0.22033	0.22182	0.11776	0.25512	0.10917	0.14268	0.23197	0.21713	0.14434	0.1253	0.075677	0.17923	0.20234	-1.9146	-2.1312	-2.0896	-2.6542	-2.2396	-2.4917	-2.3375	-1.9813	-2.4104	-2.4313	-2.025	-2.5375	-2.1396	-2.2729	-2.4583	-1.9896	37.536	191.321	75.614	113.526	143.783	76.238	103.001	184.704	168.430	65.656	-135.492	43.156	132.190	-129.351	113.683	105.168	0.00012844	0.00024044	0.00011092	256.62	7.873e-07	2.7536e-06	391.27	100.75	1.5123e-06	1.1666e-06	173.36	45.856	24.567	7.7349	2.5239e-06	16.421	0.00018843	0.0001875	5.2695e-05	259.18	2.0985e-06	2.0621e-06	387.16	101.26	2.0929e-06	2.0704e-06	170.46	45.98	25.408	8.1881	2.0507e-06	16.61	166.751	-136.214	-135.506	-136.020	-115.605	80.345	-138.183	-130.757	169.890	18.407	-134.345	-130.013	-127.394	-121.965	17.694	-125.442	-8191	255	
1429.754	1	1	0	0	0.22214	0.085742	0.029125	0.20285	0.16924	0.11571	0.19412	0.080182	0.08916	0.17548	0.07169	0.11695	0.24523	0.25293	0.21565	0.071898	-1.9042	-2.1979	-2.1688	-2.6146	-2.1396	-2.3375	-2.5104	-2.1625	-2.3	-2.3063	-2.0979	-2.6021	-2.2021	-2.3417	-2.4854	-2.2229	-56.134	87.702	-33.367	100.816	48.009	-115.796	76.779	100.795	-123.337	12.540	-129.547	-116.772	205.561	-92.520	44.226	85.907	0.00015272	0.0001562	0.00015444	255.79	2.5699e-06	2.2473e-06	386.09	100.81	2.1104e-06	6.834e-07	174.17	46.084	24.59	7.698	3.0543e-06	16.513	0.00018612	0.00018828	5.2217e-05	258	2.0625e-06	2.0419e-06	384.88	100.64	2.06e-06	2.0571e-06	170.19	46.098	25.501	8.2261	2.067e-06	16.795	181.986	78.172	-59.246	-136.109	17.157	-47.707	-137.648	-131.103	-54.088	141.950	-134.127	-129.442	-127.551	-121.353	80.294	-125.450	-8191	255	
1429.875	1	1	0	0	0.18504	0.10481	0.23263	0.12452	0.16208	0.20282	0.20754	0.2168	0.19297	0.10692	0.058014	0.18594	0.17576	0.31967	0.20598	0.22029	-1.9312	-2.3292	-1.9813	-2.7083	-2.3396	-2.3146	-2.3896	-2.0104	-2.3583	-2.5104	-2.1146	-2.3854	-2.2667	-2.2396	-2.6042	-2.1542	-115.873	-97.367	178.254	-55.301	-60.133	163.411	135.061	-113.832	-124.600	141.493	87.759	154.023	-41.138	-137.557	91.060	-61.044	0.00014705	0.00020694	4.3138e-05	256.49	1.9845e-06	2.7563e-06	392.5	102.33	4.2044e-06	2.3736e-06	176.57	46.517	24.63	7.7431	2.4247e-06	16.761	0.0001859	0.00018811	5.2387e-05	259.51	2.0329e-06	2.0559e-06	389.07	102.15	2.064e-06	2.0614e-06	171.92	46.384	25.585	8.2195	2.0454e-06	16.862	208.371	-139.134	179.624	-135.836	-48.633	-102.592	-138.070	-131.136	-123.737	-68.255	-134.451	-129.634	-127.695	-120.584	27.324	-125.290	-8191	255	
1429.946	1	1	0	0	0.29485	0.046311	0.3068	0.20072	0.13476	0.23192	0.11194	0.18274	0.12159	0.27445	0.066613	0.29369	0.13824	0.25032	0.23295	0.22214	-1.8979	-2.4646	-2.0229	-2.5708	-2.4292	-2.05	-2.6875	-2.2083	-2.3458	-2.575	-2.1188	-2.4604	-2.3708	-2.0125	-2.5042	-2.0854	-132.998	145.052	-17.162	159.644	-80.496	-122.176	53.153	34.007	109.817	130.134	-85.896	-76.835	-79.240	135.161	5.390	163.665	0.00016807	0.00018948	3.9599e-05	259.7	3.0821e-06	2.9436e-06	400.35	104.15	3.842e-06	1.2894e-06	180.13	47.65	25.088	7.9872	2.1528e-06	16.953	0.00018704	0.0001862	5.2478e-05	261.91	2.0337e-06	2.0517e-06	396.01	103.79	2.0537e-06	2.028e-06	175.54	47.506	26.047	8.4244	2.0192e-06	17.14	167.174	-8.241	29.553	-136.441	-38.964	-17.116	-138.084	-130.953	-147.470	-130.549	-134.546	-129.625	-127.641	-121.461	-45.383	-125.800	-8191	255	
1430.042	1	1	0	0	0.24176	0.20503	0.27376	0.24381	0.24033	0.28868	0.24775	0.074973	0.18449	0.20529	0.19752	0.20625	0.13521	0.22436	0.1235	0.067363	-1.9229	-2.2979	-2.1479	-2.4396	-2.2333	-2.0542	-2.5625	-2.0979	-2.1396	-2.4625	-2.1312	-2.4271	-2.3937	-2.0979	-2.6063	-2.3229	107.880	199.551	-104.517	9.886	149.094	-136.191	114.299	-24.958	186.697	-131.837	133.008	-46.229	-13.174	49.325	-39.378	-91.013	0.0001935	0.00028651	0.00014015	259.93	2.0611e-06	1.8946e-07	401.9	103.49	2.4893e-06	2.3704e-06	179.7	46.909	24.902	7.9101	4.2393e-06	16.846	0.00018841	0.00018825	5.1303e-05	261.43	2.0431e-06	2.0513e-06	396.43	103.67	2.0491e-06	2.0446e-06	174.31	47.167	25.878	8.3547	2.06e-06	17.059	181.077	24.939	-56.043	-135.927	-97.087	-53.756	-137.660	-131.457	-39.266	-61.594	-134.240	-130.170	-127.725	-121.717	3.340	-125.444	-8191	255	
1430.163	1	1	0	0	0.11133	0.11688	0.097306	0.19003	0.17994	0.35335	0.063185	0.31446	0.21593	0.094621	0.30729	0.14556	0.13615	0.42119	0.28762	0.20094	-1.7604	-2.5458	-2.0458	-2.4458	-2.3104	-1.9146	-2.4021	-2.2833	-2.2229	-2.4479	-2.175	-2.3104	-2.4521	-1.9271	-2.2875	-2.2313	177.650	-63.771	-0.636	112.838	58.575	-117.975	-109.020	176.242	-70.345	158.025	-28.931	10.172	123.657	-63.372	-14.126	98.017	7.2445e-05	0.00014295	0.00010476	257.33	2.7466e-06	3.1328e-06	392.07	101.9	1.2872e-06	3.4065e-06	175.75	47.531	24.735	7.9283	2.732e-06	17.089	0.0001899	0.00018785	5.2121e-05	259.93	2.0481e-06	2.0397e-06	389.05	102.1	2.0758e-06	2.0096e-06	172	46.95	25.823	8.4194	2.0604e-06	17.188	156.910	-48.485	173.182	-135.966	-38.655	33.812	-138.177	-131.422	140.517	106.611	-134.038	-130.122	-126.812	-121.986	103.107	-125.743	-8191	255	
1430.259	1	1	0	0	0.27713	0.21719	0.22004	0.19524	0.15758	0.17184	0.098504	0.15266	0.47283	0.06175	0.057161	0.27896	0.18715	0.071855	0.23177	0.085828	-1.6688	-2.4062	-2.0687	-2.3167	-2.3563	-1.925	-2.475	-2.4042	-1.9937	-2.7	-2.1229	-2.2875	-2.7354	-1.9854	-2.4625	-2.4042	176.886	154.328	184.412	142.306	192.482	-19.479	80.559	180.673	115.066	-13.778	-68.968	94.783	28.433	-94.171	176.769	-76.854	0.00018082	0.00034019	4.6897e-05	257.46	2.5681e-06	2.092e-06	393.13	102.45	6.118e-07	2.4917e-06	176.57	47.142	24.771	7.9262	3.7991e-06	16.972	0.00018684	0.00018654	5.2581e-05	261.28	2.0895e-06	2.0675e-06	390.49	102.36	2.0668e-06	2.0501e-06	171.89	46.852	25.865	8.4207	2.0502e-06	17.119	189.409	-127.128	-132.109	-136.306	30.776	51.249	-138.111	-131.090	-63.739	97.811	-134.469	-129.832	-127.709	-120.962	83.523	-125.717	-8191	255	
1430.355	1	1	0	0	0.082295	0.099298	0.082395	0.1471	0.044221	0.15784	0.072607	0.099743	0.12865	0.18827	0.17413	0.070216	0.022306	0.29941	0.15454	0.25829	-1.5688	-2.4583	-2.2292	-2.1708	-2.3979	-2.2917	-2.5104	-2.4833	-2.1417	-2.4271	-2.2729	-2.2188	-2.5062	-1.9083	-2.3292	-2.5292	172.069	125.563	-4.311	83.660	194.094	-89.734	69.902	152.719	92.816	62.726	97.261	179.839	40.857	16.297	-50.335	-18.454	0.00018891	0.00014518	4.7217e-05	258.68	2.743e-06	2.9934e-06	393.07	102.14	2.6023e-07	2.0023e-06	178.26	47.621	24.987	7.9618	1.2102e-06	16.987	0.00019024	0.00019125	5.2907e-05	260.56	2.0995e-06	2.0672e-06	390.54	102.14	2.1062e-06	2.0722e-06	172.97	47.163	26.047	8.4459	2.0716e-06	17.276	204.326	-63.174	-34.047	-136.127	2.128	99.997	-138.404	-130.987	-143.163	-35.687	-134.095	-130.179	-127.476	-122.003	-147.979	-125.673	-8191	255	
1430.452	1	1	0	0	0.054538	0.10961	0.19206	0.0069574	0.074345	0.17046	0.14024	0.058626	0.1867	0.047265	0.24271	0.11834	0.075875	0.20192	0.093306	0.17568	-1.6229	-2.5396	-2.0792	-2.2146	-2.3917	-2.1521	-2.4667	-2.4125	-1.9958	-2.3729	-2.3438	-2.1646	-2.5042	-2.0521	-2.1021	-2.6958	203.369	-50.544	17.861	67.892	23.194	-58.792	-102.017	43.100	-62.027	-117.937	183.181	129.422	66.763	61.804	81.929	-124.284	0.00017465	0.00024175	0.00016671	257.64	2.957e-06	1.8594e-06	393.57	101.76	2.8448e-06	3.4971e-07	177.62	47.766	25.142	8.0191	2.8002e-06	16.946	0.00019024	0.00019207	5.4021e-05	260.96	2.0772e-06	2.1164e-06	390	102.08	2.125e-06	2.0632e-06	173.31	47.332	26.032	8.4601	2.108e-06	17.306	189.763	-7.765	-49.769	-135.954	-13.682	-85.138	-138.100	-130.978	-21.578	-42.489	-134.206	-129.853	-127.563	-121.430	-17.526	-125.628	-8191	255	
1430.570	1	1	0	0	0.15297	0.26294	0.12086	0.22019	0.22861	0.10638	0.17273	0.08878	0.2554	0.099454	0.12484	0.26818	0.063297	0.38508	0.17029	0.10878	-1.5729	-2.4813	-2.2313	-2.125	-2.475	-2.3229	-2.3229	-2.4813	-2.2792	-2.4646	-2.3875	-2.15	-2.4771	-2.3104	-2.3187	-2.6521	-82.001	159.273	20.992	32.867	-15.694	79.604	-94.751	-92.729	128.231	-54.632	90.206	12.276	1.870	140.435	-65.616	-131.288	0.00016706	0.00035699	0.00012733	259.52	5.0744e-07	6.9526e-07	395.23	103.17	4.3268e-06	3.0034e-06	177.3	47.039	25.105	7.8948	3.2034e-06	16.756	0.00019163	0.00018801	5.27e-05	263.3	2.1142e-06	2.0739e-06	392.98	102.52	2.0894e-06	2.0831e-06	173.28	46.982	25.919	8.3177	2.1038e-06	16.997	166.918	-109.330	-51.197	-136.317	-74.752	-101.957	-138.122	-130.827	11.207	-49.815	-134.540	-129.695	-128.173	-121.697	134.240	-125.694	-8191	255	
1430.642	1	1	0	0	0.11608	0.4007	0.33063	0.29257	0.17521	0.11096	0.066614	0.24213	0.096023	0.14233	0.10974	0.25605	0.16922	0.27697	0.34218	0.26878	-1.525	-2.4125	-2.3167	-2.0021	-2.4917	-2.3146	-2.1854	-2.5812	-2.0917	-2.3312	-2.4375	-1.975	-2.5812	-2.2521	-2.1021	-2.6146	101.918	-52.396	186.091	-34.179	-92.204	-121.290	-74.706	155.482	81.660	103.538	-70.904	133.406	65.491	188.112	94.254	-115.995	0.00023724	9.921e-05	0.00016888	259.22	1.8948e-06	2.0005e-06	393.8	101.64	2.6924e-06	1.2889e-06	174.48	46.365	24.55	7.8043	6.1813e-06	16.655	0.00019372	0.00019164	5.2915e-05	261.9	2.1076e-06	2.0906e-06	389.91	101.74	2.1058e-06	2.1168e-06	170.78	46.287	25.602	8.2627	2.1e-06	16.804	182.986	204.130	-31.373	-136.254	50.070	48.863	-137.994	-131.074	8.864	-113.205	-134.423	-130.226	-127.054	-121.493	-102.321	-124.912	-8191	255	
1430.763	1	1	0	0	0.10447	0.24358	0.32565	0.15225	0.30652	0.32216	0.12731	0.033143	0.1281	0.176	0.27089	0.16492	0.040334	0.15782	0.19993	0.049161	-1.5542	-2.0521	-2.3979	-1.9833	-2.4042	-2.3063	-2.075	-2.7083	-2.1896	-2.3937	-2.3438	-2.0292	-2.3396	-2.2292	-1.9875	-2.5375	-119.845	-0.110	-94.510	-60.490	-77.903	-78.027	136.224	122.834	-148.558	-73.478	122.265	-94.318	-143.131	-33.735	-144.077	-27.063	0.00014188	7.0482e-05	5.6892e-05	254.09	5.7396e-06	2.862e-06	389.04	101.94	2.1865e-06	7.6179e-06	175.46	46.209	24.453	7.7989	3.0103e-06	16.528	0.00019028	0.00019129	5.3704e-05	259.11	2.1139e-06	2.1205e-06	386.85	101.62	2.0906e-06	2.0841e-06	171	46.296	25.519	8.2639	2.0801e-06	16.775	153.584	-145.390	2.417	-135.453	-47.371	33.481	-137.762	-131.060	-95.411	-86.281	-134.232	-129.939	-127.115	-121.279	-124.566	-125.739	-8191	255	
1430.859	1	1	0	0	0.1303	0.19518	0.12033	0.049605	0.165	0.1841	0.079502	0.38593	0.19199	0.43534	0.10313	0.10042	0.14462	0.17919	0.2714	0.1613	-1.6938	-2.3	-2.4646	-1.9271	-2.4625	-2.3375	-2.0438	-2.4792	-2.3937	-2.2729	-2.4583	-2.0021	-2.3917	-2.3812	-2.1312	-2.6688	56.662	38.653	52.915	101.885	158.846	-69.357	-12.306	38.930	-14.852	44.293	10.188	74.715	94.032	193.193	-43.817	109.369	0.00015337	0.00022306	4.8558e-05	255.23	1.1486e-06	6.8052e-07	386.04	100.78	5.3697e-06	9.5023e-07	173.6	45.711	24.364	7.6832	7.4685e-07	16.505	0.00018998	0.00019094	5.3168e-05	258.14	2.1167e-06	2.1072e-06	384.89	100.82	2.0915e-06	2.0857e-06	169.81	45.98	25.458	8.1408	2.0781e-06	16.826	158.783	-83.624	188.128	-136.018	-21.881	200.666	-138.242	-130.972	-111.729	24.526	-134.208	-129.875	-127.290	-121.913	-36.471	-125.548	-8191	255	
1430.955	1	1	0	0	0.075186	0.08946	0.15163	0.22534	0.13658	0.092241	0.19682	0.37251	0.17214	0.16656	0.15304	0.18424	0.09111	0.30126	0.14775	0.17497	-1.6958	-2.1833	-2.4062	-2.0771	-2.4313	-2.475	-2.1229	-2.5354	-2.2687	-2.3021	-2.6437	-2.1708	-2.2875	-2.2771	-2.1833	-2.6667	179.492	12.095	63.056	-96.398	-133.101	2.729	165.207	126.623	85.700	-72.892	182.422	55.671	-34.834	82.387	160.454	30.875	0.00015864	0.00028086	8.9147e-06	254.99	1.697e-06	2.4727e-06	392.43	101.54	3.4656e-06	2.0646e-06	175.34	46.349	24.479	7.6683	3.7091e-06	16.665	0.00018961	0.00018983	5.3379e-05	259.4	2.0785e-06	2.1068e-06	387.91	101.64	2.118e-06	2.1251e-06	171.44	46.23	25.404	8.1349	2.0827e-06	16.647	175.047	97.412	19.850	-136.033	66.269	-34.589	-138.034	-131.215	-63.248	66.439	-134.855	-129.406	-127.404	-121.830	20.744	-125.345	-8191	255	
1431.051	1	1	0	0	0.15624	0.20564	0.11649	0.20752	0.094789	0.089751	0.23328	0.19687	0.1408	0.098508	0.078585	0.13084	0.2083	0.14231	0.071383	0.60142	-1.9854	-2.15	-2.4875	-2.0021	-2.3583	-2.4688	-2.1104	-2.4354	-2.225	-2.0896	-2.5104	-2.2208	-2.05	-2.4688	-2.1375	-2.4437	-34.182	139.698	-70.442	66.395	-57.079	-58.060	-57.814	-145.248	-116.619	-53.383	148.837	72.256	75.694	-55.920	-54.505	164.395	0.00017694	0.00024815	2.0413e-05	253.4	2.4939e-06	1.4335e-06	382.24	99.528	3.2617e-06	4.5662e-06	173.33	45.174	24.024	7.6762	1.1476e-06	16.468	0.00019208	0.00019054	5.308e-05	256.73	2.0784e-06	2.1055e-06	382.02	100.17	2.0936e-06	2.0731e-06	168.9	45.66	25.163	8.1019	2.0927e-06	16.632	191.886	-127.578	51.657	-136.263	-11.107	62.624	-137.913	-130.985	-75.550	-23.779	-134.370	-129.634	-127.525	-121.429	45.586	-125.303	-8191	255	
1431.172	1	1	0	0	0.2161	0.18213	0.26776	0.12196	0.11418	0.09879	0.099284	0.15285	0.18692	0.21385	0.13971	0.13391	0.087845	0.16527	0.18889	0.14035	-1.9188	-2.0771	-2.4792	-2.175	-2.0854	-2.4958	-1.9813	-2.4917	-2.5354	-2.0938	-2.525	-2.1208	-2.0458	-2.3896	-2.2083	-2.3146	-58.799	-54.912	86.306	-17.344	190.935	-57.837	-124.193	107.269	-105.859	160.505	4.192	-43.924	76.539	144.230	201.135	-69.914	0.00019358	0.00040397	6.8077e-05	254.11	2.4667e-06	1.3874e-06	388.28	102.34	3.2843e-06	9.6715e-07	174.53	46.148	24.325	7.767	4.4531e-07	16.459	0.00019029	0.00018882	5.2333e-05	257.64	2.0925e-06	2.0664e-06	384.42	101.84	2.0735e-06	2.0622e-06	170.62	46.07	25.411	8.1729	2.0595e-06	16.564	175.949	45.860	85.069	-136.123	-23.598	63.089	-137.876	-131.450	-27.282	-44.281	-133.986	-129.899	-127.112	-121.638	173.311	-125.428	-8191	255	
1431.243	1	1	0	0	0.21446	0.256	0.14545	0.1665	0.34053	0.1473	0.083744	0.25795	0.063448	0.044143	0.093707	0.10454	0.16729	0.11425	0.089071	0.025212	-1.7104	-2.0958	-2.5208	-2.2396	-2.075	-2.4625	-2.0375	-2.2896	-2.4021	-1.9729	-2.6562	-2.2	-1.9625	-2.5021	-2.1813	-2.3167	30.744	-47.318	49.501	104.613	189.980	210.603	101.096	99.042	-54.532	-147.103	-115.324	93.005	-50.100	97.416	60.130	98.570	9.5144e-05	4.5582e-05	7.4613e-05	253.31	2.1693e-06	1.7697e-06	386.09	101.02	6.9863e-07	1.3477e-06	173.99	45.856	23.972	7.6287	2.4487e-06	16.437	0.00018905	0.00019077	5.2759e-05	257	2.1013e-06	2.0574e-06	382.55	100.84	2.0766e-06	2.0709e-06	169.27	45.688	25.146	8.1205	2.0772e-06	16.685	204.292	-119.105	107.518	-136.171	-22.214	-12.684	-137.598	-130.857	-15.933	185.361	-134.283	-129.678	-126.658	-120.944	-80.114	-125.819	-8191	255	
1431.340	1	1	0	0	0.24686	0.28036	0.09689	0.076601	0.39532	0.19651	0.22254	0.13001	0.07017	0.25645	0.13926	0.065162	0.21168	0.016854	0.11452	0.19325	-2.0812	-2.1958	-2.2938	-2.2604	-2.1125	-2.4813	-2.25	-2.15	-2.5167	-2.1042	-2.3521	-2.5438	-2.2875	-2.4938	-2.2938	-2.0771	-21.023	196.411	10.319	116.658	-88.708	140.053	150.590	-130.818	-48.945	175.669	170.866	193.588	127.544	166.123	-5.103	156.629	0.00018472	0.00012913	0.00019662	253.61	8.2169e-07	1.8024e-06	387.57	100.77	1.8918e-06	3.5607e-06	173.05	45.696	24.196	7.6399	8.5119e-07	16.496	0.00018895	0.00018958	5.222e-05	257.08	2.0911e-06	2.1047e-06	382.91	101.08	2.069e-06	2.0769e-06	169.58	45.65	25.207	8.1543	2.0782e-06	16.675	162.912	175.007	-42.263	-135.890	44.781	115.592	-137.655	-130.925	81.573	157.356	-134.309	-129.336	-127.585	-121.625	-28.978	-124.925	-8191	255	
1431.436	1	1	0	0	0.16044	0.18047	0.16902	0.095525	0.18928	0.21962	0.28853	0.15749	0.26406	0.14469	0.10055	0.17861	0.34691	0.12023	0.16491	0.021773	-2.0333	-1.7938	-2.4229	-2.2812	-2.0104	-2.5687	-2.175	-2.1604	-2.4729	-2.1958	-2.2854	-2.3083	-1.8687	-2.375	-2.3417	-2.1604	-43.625	121.454	0.386	-81.475	167.670	11.946	80.407	-78.750	-31.562	95.560	169.852	207.015	0.427	58.815	84.706	-109.486	0.00015019	0.00026166	8.0663e-05	254.44	2.83e-06	1.7885e-06	385.96	102.11	2.3379e-06	2.2477e-06	171.97	45.684	24.274	7.7394	1.3354e-06	16.374	0.00018833	0.00019036	5.2827e-05	257.38	2.0818e-06	2.0896e-06	383.41	101.31	2.0683e-06	2.0687e-06	168.75	45.68	25.317	8.1552	2.075e-06	16.543	163.695	-57.236	14.879	-135.799	32.981	45.248	-137.831	-131.231	103.903	-135.988	-133.902	-129.497	-127.547	-121.231	-133.758	-125.616	-8191	255	
1431.532	1	1	0	0	0.18539	0.3269	0.19933	0.32201	0.057798	0.12639	0.10032	0.073455	0.147	0.11529	0.15576	0.067217	0.16221	0.16569	0.19958	0.094665	-1.9833	-1.9646	-2.3208	-2.4375	-2.175	-2.4708	-2.2979	-2.2292	-2.4417	-2.1292	-2.3021	-2.2854	-1.825	-2.3187	-2.2958	-1.9792	-136.454	-104.706	18.271	166.596	-23.467	-86.558	88.527	-119.316	10.256	88.159	16.874	-145.562	-20.017	-4.074	199.565	-20.858	0.00014159	0.00044273	6.6141e-05	253.31	2.1943e-06	1.4235e-06	385.74	100.71	3.6332e-06	4.754e-06	171.94	44.833	24.174	7.6665	6.554e-06	16.138	0.00019099	0.00019018	5.2706e-05	256.11	2.076e-06	2.1071e-06	381.42	100.36	2.0651e-06	2.0732e-06	168.02	45.346	25.117	8.0992	2.0869e-06	16.347	158.927	-80.549	11.012	-136.193	-10.116	58.918	-137.820	-131.017	-106.308	-96.180	-134.087	-130.122	-127.042	-121.143	188.020	-125.538	-8191	255	
1431.651	1	1	0	0	0.44163	0.11861	0.028108	0.13996	0.17684	0.045447	0.36909	0.18401	0.24411	0.20169	0.14808	0.16588	0.20936	0.020184	0.16202	0.044005	-1.9417	-2.0812	-2.2667	-2.5167	-2.0438	-2.4125	-2.4437	-2.1396	-2.4708	-2.1167	-2.3146	-2.4792	-2.0667	-2.3396	-2.4083	-2.2333	58.302	-74.797	160.345	176.770	150.077	-19.956	47.110	129.478	-52.108	-102.067	156.414	157.646	9.525	-3.432	-121.729	84.214	0.00016854	3.0319e-05	2.1672e-05	249.5	2.1208e-06	2.6608e-06	379.16	100.36	3.1244e-06	1.8683e-06	169.23	45.135	23.962	7.6622	4.5204e-06	16.253	0.00019094	0.00018987	5.2673e-05	253.79	2.06e-06	2.0873e-06	377.5	100.6	2.0892e-06	2.0764e-06	167.25	45.121	25.067	8.1237	2.0432e-06	16.52	189.787	-79.437	-7.429	-136.352	143.689	22.116	-138.236	-130.984	-82.154	-98.882	-134.531	-129.633	-127.186	-121.059	-5.790	-125.138	-8191	255	
1431.747	1	1	0	0	0.19077	0.16961	0.070637	0.21431	0.15145	0.25662	0.10286	0.17412	0.0084154	0.11606	0.076284	0.1193	0.051299	0.2867	0.14723	0.04767	-2.0187	-2.2687	-2.1	-2.4646	-1.9958	-2.3146	-2.5542	-2.1479	-2.4396	-2.4917	-2.2687	-2.4146	-2.0187	-2.2479	-2.3271	-2.2042	32.961	-12.696	-100.963	41.915	139.720	198.884	-136.179	104.994	64.671	-88.843	172.936	93.309	15.101	45.599	80.417	-131.570	0.00020775	0.00017761	4.1355e-05	253.47	3.2063e-06	4.7813e-06	384.64	101.46	3.4818e-06	7.2718e-07	170.92	44.577	23.785	7.5842	2.7911e-06	16.166	0.00018955	0.00018829	5.2651e-05	257.77	2.0823e-06	2.0586e-06	381.8	101.67	2.0631e-06	2.0921e-06	167.35	44.886	24.941	8.0619	2.1022e-06	16.294	178.174	-119.552	37.809	-136.536	-21.393	-110.641	-137.908	-131.268	5.556	71.637	-134.689	-129.727	-126.907	-120.868	-76.182	-125.611	-8191	255	
1431.843	1	1	0	0	0.18837	0.11846	0.1399	0.16243	0.10979	0.29028	0.10394	0.13273	0.10735	0.25025	0.11927	0.114	0.11764	0.11666	0.10595	0.091792	-1.975	-2.3854	-2.1354	-2.5604	-2.2604	-2.3187	-2.4437	-2.0375	-2.4521	-2.4188	-2.1562	-2.5708	-2.2583	-2.2771	-2.4813	-1.9375	131.244	-2.503	47.354	-92.856	-91.001	201.628	114.624	178.082	-105.637	187.278	123.174	105.820	91.502	-124.274	206.753	-7.231	0.00018604	5.6523e-05	0.00012343	250.9	2.4611e-06	4.8143e-06	376.79	100.07	9.0343e-07	5.925e-06	169.74	44.738	23.647	7.5031	4.4737e-06	16.214	0.00019352	0.00019177	5.3949e-05	253.33	2.0957e-06	2.0955e-06	375.44	100.44	2.0914e-06	2.0913e-06	166.25	44.656	24.756	8.0417	2.0911e-06	16.401	179.418	30.705	-78.207	-135.969	10.929	77.963	-137.311	-130.945	110.474	-38.421	-134.003	-129.492	-127.663	-120.271	-57.203	-125.205	-8191	255	
1431.939	1	1	0	0	0.1842	0.13424	0.18119	0.21986	0.067668	0.20965	0.10155	0.14265	0.1714	0.25669	0.26332	0.27453	0.21592	0.22256	0.20975	0.28742	-1.9667	-2.4333	-2.1083	-2.5187	-2.1437	-2.3271	-2.5854	-2.2812	-2.3771	-2.4271	-2.1458	-2.3333	-2.3125	-2.0896	-2.4333	-2.2521	198.020	-145.222	-20.733	205.747	-115.305	-16.037	-125.334	159.463	-135.263	67.182	120.824	164.536	164.253	120.819	133.346	205.124	0.00021374	0.00012289	0.00011584	249.81	4.6411e-07	3.3182e-06	373.72	99.569	7.269e-07	2.4878e-06	168.52	43.615	23.422	7.5263	3.4438e-06	15.911	0.00019345	0.00019289	5.3679e-05	252.84	2.1228e-06	2.1001e-06	371.83	99.84	2.0946e-06	2.1255e-06	164.81	44.001	24.596	8.0608	2.1063e-06	16.259	193.504	-19.024	57.639	-135.966	-105.029	-132.221	-138.216	-131.377	-145.096	71.089	-134.170	-129.539	-126.761	-121.252	-38.827	-125.273	-8191	255	
1432.035	1	1	0	0	0.10033	0.17708	0.20591	0.15696	0.26264	0.26118	0.1132	0.15288	0.15359	0.017486	0.010082	0.060682	0.31231	0.17326	0.12662	0.060049	-1.9833	-2.3604	-2.1104	-2.4771	-2.1354	-2.2083	-2.5042	-2.0479	-2.3083	-2.4458	-2.0604	-2.5187	-2.3896	-2.1917	-2.4042	-2.0271	69.425	-114.729	106.406	-22.860	-80.077	-40.054	16.086	-148.961	21.509	-72.565	-31.031	-68.434	-108.234	194.147	50.539	42.471	0.00013584	0.00037181	0.00010396	251.17	2.0788e-06	6.3678e-07	372.03	99.089	3.1087e-06	2.101e-06	165.84	44.058	23.549	7.6121	6.0825e-06	16.212	0.0001915	0.00019212	5.4083e-05	252.15	2.1209e-06	2.1047e-06	369.61	99.502	2.1042e-06	2.1199e-06	163.35	44.145	24.756	8.1062	2.1121e-06	16.432	157.218	81.868	124.333	-135.731	3.982	186.076	-138.340	-131.325	-35.233	21.716	-133.814	-128.869	-126.834	-121.149	-72.909	-125.283	-8191	255	
1432.132	1	1	0	0	0.25344	0.027923	0.24159	0.099912	0.15998	0.21428	0.08905	0.055751	0.36093	0.22741	0.32089	0.12086	0.34128	0.098017	0.24939	0.12222	-1.7542	-2.4833	-2.1188	-2.3937	-2.3271	-2.1375	-2.4813	-2.1229	-2.2604	-2.5187	-2.1917	-2.3063	-2.2917	-2.1562	-2.5021	-2.1688	52.135	111.623	184.880	118.225	170.909	49.274	12.092	-134.951	-33.025	161.649	177.327	13.940	4.985	-16.830	58.403	3.749	0.00012982	0.00031331	0.00014586	249.38	9.268e-07	1.333e-06	375.73	101.2	1.3967e-06	2.9782e-06	170.06	44.333	23.574	7.6443	3.2638e-07	16.007	0.00019144	0.00019325	5.3359e-05	254.3	2.0838e-06	2.1229e-06	374.55	101.12	2.1141e-06	2.1215e-06	165.91	44.435	24.748	8.0712	2.1132e-06	16.286	187.504	-30.864	-85.452	-135.986	71.007	114.499	-137.760	-131.539	-98.556	5.547	-134.133	-129.664	-126.866	-121.265	-146.001	-125.607	-8191	255	
1432.252	1	1	0	0	0.14456	0.060459	0.20347	0.14514	0.098323	0.32691	0.06252	0.082415	0.17243	0.060636	0.088033	0.22765	0.19829	0.29155	0.18347	0.12455	-1.7292	-2.3979	-2.1042	-2.2938	-2.2125	-2.2104	-2.575	-2.3958	-2.2167	-2.5604	-2.1646	-2.4125	-2.4771	-2.0625	-2.5458	-2.4125	1.420	-124.583	-40.287	22.290	-11.611	200.536	98.138	-7.588	-82.464	153.755	102.499	99.870	5.669	-23.131	123.919	31.446	0.00022075	0.00010432	4.9217e-05	249.57	2.7381e-06	1.6972e-06	379.77	101.59	4.6642e-06	4.5923e-06	172.66	44.541	23.622	7.5502	1.8974e-06	16.31	0.00019027	0.00019391	5.4245e-05	253.52	2.1196e-06	2.1234e-06	375.44	101.37	2.0884e-06	2.1091e-06	167.27	44.532	24.822	8.0956	2.119e-06	16.453	174.440	-42.149	-71.727	-136.127	-59.731	-14.873	-137.527	-131.015	169.403	4.304	-134.351	-129.727	-127.209	-121.184	191.404	-125.559	-8191	255	
1432.348	1	1	0	0	0.16299	0.2058	0.1002	0.15755	0.081958	0.13816	0.14055	0.0054032	0.2649	0.16763	0.24186	0.05673	0.22282	0.077801	0.11476	0.126	-1.5438	-2.5208	-2.1437	-2.3688	-2.4188	-2.0292	-2.4354	-2.2542	-1.9771	-2.7	-2.2375	-2.2896	-2.4938	-1.975	-2.4042	-2.2021	16.308	-61.609	-141.381	92.664	-139.156	-44.110	150.522	-17.342	-141.039	-77.492	57.992	-111.650	-75.649	-75.740	141.358	-109.731	0.00014251	0.00024491	0.00019481	251.33	2.784e-06	1.997e-06	379.87	101.22	1.0497e-06	1.9192e-06	169.48	44.491	23.844	7.4501	4.0649e-07	16.22	0.00019456	0.00019138	5.3561e-05	255.06	2.1006e-06	2.0985e-06	376.87	101.33	2.079e-06	2.1123e-06	166.74	44.81	24.747	8.004	2.0885e-06	16.366	147.440	74.796	-17.143	-135.879	103.901	-90.244	-137.757	-130.561	-50.105	20.177	-134.278	-129.623	-127.111	-121.740	34.848	-125.041	-8191	255	
1432.444	1	1	0	0	0.13455	0.10847	0.10138	0.11862	0.10397	0.11953	0.19017	0.24842	0.093443	0.04217	0.16214	0.25231	0.24658	0.27322	0.28736	0.26558	-1.5396	-2.3396	-2.2292	-2.2167	-2.2792	-2.2083	-2.3917	-2.3042	-2.1	-2.5687	-2.2875	-2.2292	-2.6167	-2.0333	-2.4562	-2.4583	115.450	-0.005	189.488	-95.180	128.366	192.729	163.965	73.471	-115.180	-73.501	-84.819	56.204	-117.599	134.348	20.409	-106.092	0.0001764	9.1496e-05	7.3157e-05	248.62	2.4082e-06	2.0846e-06	373.56	99.317	2.752e-06	2.9496e-06	168.23	43.725	23.529	7.4614	2.1546e-06	15.913	0.00018973	0.00019173	5.4094e-05	252.59	2.0924e-06	2.1071e-06	371.64	99.711	2.0964e-06	2.0901e-06	164.14	43.789	24.52	7.9789	2.0948e-06	16.259	195.092	121.497	-143.111	-136.409	-97.941	-103.270	-138.120	-131.162	-9.648	-89.174	-134.267	-130.044	-126.650	-121.362	-64.537	-125.452	-8191	255	
1432.539	1	1	0	0	0.092284	0.15954	0.16063	0.32846	0.17473	0.05277	0.21297	0.32448	0.12303	0.042765	0.22947	0.18876	0.16163	0.10971	0.1147	0.18895	-1.7062	-2.5646	-2.3458	-2.2667	-2.6167	-2.175	-2.5125	-2.4542	-1.9625	-2.3771	-2.3542	-2.1813	-2.5271	-2.1542	-2.3667	-2.3521	-99.453	24.369	-12.438	45.986	205.826	19.934	-139.120	133.514	-145.865	91.103	105.934	197.872	90.764	-137.911	161.049	75.882	0.00015225	0.00028425	0.00015174	246.38	3.0318e-06	3.0717e-06	371.27	99.712	1.3969e-06	5.294e-06	166.51	43.8	23.278	7.584	2.5124e-06	16.257	0.00019115	0.00018934	5.3027e-05	251.92	2.0669e-06	2.0774e-06	369.67	99.573	2.0827e-06	2.0875e-06	163.73	43.825	24.445	8.0218	2.0515e-06	16.387	157.245	50.170	-136.072	-136.159	-6.207	-34.680	-137.830	-131.331	209.859	27.069	-133.857	-129.625	-127.442	-121.375	184.213	-124.867	-8191	255	
1432.635	1	1	0	0	0.16996	0.21992	0.1232	0.18119	0.03171	0.14169	0.16293	0.30714	0.21039	0.23375	0.27414	0.090384	0.19426	0.075069	0.16383	0.11006	-1.5396	-2.4417	-2.2812	-2.0833	-2.6146	-2.1917	-2.2292	-2.5333	-1.9479	-2.4313	-2.3979	-2.0604	-2.5583	-2.3604	-2.1625	-2.6188	-21.471	-3.713	118.066	105.522	-110.976	115.742	-114.569	107.836	125.399	94.510	92.485	43.591	-25.058	161.543	77.682	-68.619	0.00010104	0.00043225	3.8245e-05	249.41	3.1184e-07	1.1674e-06	376.63	101.26	5.1985e-06	3.5487e-06	170.3	44.771	23.883	7.6565	1.1989e-06	16.298	0.00018975	0.00018961	5.308e-05	253.94	2.0733e-06	2.0813e-06	374.74	101.11	2.085e-06	2.0733e-06	166.26	44.795	24.951	8.1407	2.0645e-06	16.531	197.748	-55.028	-0.084	-135.682	41.076	8.740	-137.964	-131.473	-1.345	54.997	-134.207	-129.447	-127.575	-121.509	-33.220	-124.869	-8191	255	
1432.731	1	1	0	0	0.27381	0.054413	0.26275	0.085419	0.27774	0.18689	0.049463	0.15472	0.077952	0.28006	0.14393	0.070033	0.07093	0.1324	0.16521	0.048202	-1.5333	-2.2687	-2.3833	-2.0438	-2.5354	-2.2	-2.4208	-2.55	-2.1083	-2.2375	-2.3208	-1.9542	-2.4125	-2.3312	-2.2771	-2.4562	-98.236	203.658	-46.138	-84.796	-94.137	27.387	-79.563	121.552	-14.072	174.251	-47.969	143.539	-142.257	30.158	197.024	71.000	0.00014776	0.00022994	7.6626e-05	251.04	2.186e-06	8.542e-07	381.44	102.2	2.0363e-06	2.0589e-06	172.66	44.581	23.974	7.8026	3.1423e-06	16.491	0.00018663	0.00018692	5.247e-05	254.67	2.0683e-06	2.0584e-06	377.44	102.11	2.0833e-06	2.0696e-06	168.35	44.925	25.082	8.2109	2.073e-06	16.692	-147.395	-11.544	-115.569	-135.455	123.650	5.439	-137.670	-131.015	-119.196	-8.507	-134.471	-129.671	-127.495	-121.475	45.898	-125.697	-8191	255	
1432.827	1	1	0	0	0.34582	0.067199	0.23676	0.03493	0.040142	0.059654	0.21352	0.19648	0.029859	0.062782	0.12439	0.0071807	0.14222	0.16175	0.17217	0.10019	-1.6917	-2.3021	-2.3229	-2.0563	-2.4667	-2.2812	-2.2292	-2.6375	-2.2	-2.2833	-2.5208	-1.975	-2.3812	-2.4292	-2.1167	-2.5167	60.934	124.816	-22.459	-115.138	118.995	-108.218	168.766	-58.718	9.923	189.143	31.211	206.462	210.181	-128.661	206.122	174.030	8.9628e-05	0.00014695	0.00010255	258.08	1.6957e-06	3.5256e-06	384.23	104.66	5.0893e-06	6.6222e-06	176.68	45.974	24.518	7.8185	1.8502e-06	16.644	0.00018737	0.00018809	5.2356e-05	258.72	2.0561e-06	2.0788e-06	382.15	104.04	2.0587e-06	2.0369e-06	172	46.045	25.573	8.3187	2.0485e-06	16.839	188.825	-76.264	-29.321	-135.888	-119.628	-59.654	-137.478	-131.266	-30.831	-39.400	-134.272	-129.985	-127.023	-121.253	-8.285	-125.137	-8191	255	
1432.948	1	1	0	0	0.022664	0.12372	0.071488	0.17902	0.15955	0.13965	0.37012	0.058971	0.06933	0.071843	0.11405	0.1402	0.33807	0.29616	0.045252	0.16026	-1.6417	-2.1937	-2.4333	-1.9937	-2.3771	-2.3104	-2.0146	-2.5917	-2.2146	-2.1958	-2.4583	-2.0312	-2.1937	-2.4333	-2.1021	-2.3812	-98.937	-5.091	27.233	-10.040	73.278	-9.420	154.876	170.633	-18.721	185.550	-108.728	56.669	179.073	5.046	151.340	196.619	0.00016926	5.3275e-05	6.5551e-05	253.42	1.841e-06	2.2699e-06	380.26	103.56	2.7298e-06	2.6512e-06	172.12	45.377	24.222	7.611	3.6264e-06	16.284	0.00018869	0.00018863	5.1034e-05	256.67	2.0354e-06	2.0566e-06	378.04	102.91	2.0402e-06	2.0479e-06	168.52	45.222	25.219	8.207	2.0411e-06	16.529	186.561	-18.209	104.413	-135.687	-60.062	-37.543	-137.862	-131.459	-8.128	35.033	-134.393	-129.618	-127.344	-121.237	92.017	-125.805	-8191	255	
1433.044	1	1	0	0	0.27529	0.08576	0.22855	0.0081035	0.20679	0.049271	0.17542	0.17802	0.11762	0.19213	0.15665	0.11691	0.082026	0.094222	0.26099	0.15429	-1.7771	-2.1771	-2.6813	-2.1042	-2.3354	-2.4813	-1.8958	-2.4062	-2.0938	-2.2062	-2.6667	-2.2042	-2.2875	-2.4437	-1.9208	-2.4708	133.835	145.327	147.726	124.119	-9.032	-101.273	-65.600	133.742	83.716	112.723	9.957	81.766	-30.851	-44.870	-26.780	-116.818	6.3534e-05	6.2218e-05	6.15e-05	251.09	2.7507e-06	3.175e-06	376.02	101.86	7.9968e-07	3.0778e-06	170.1	44.636	24.312	7.8083	2.6217e-06	16.502	0.00018775	0.00018766	5.233e-05	255.32	2.0476e-06	2.0331e-06	374.54	101.48	2.0345e-06	2.0619e-06	166.85	44.828	25.24	8.2718	2.0458e-06	16.663	182.133	-131.283	198.656	-136.261	54.389	-128.460	-137.706	-131.145	-34.962	-1.403	-134.434	-129.281	-127.119	-121.692	37.151	-125.759	-8191	255	
1433.116	1	1	0	0	0.08879	0.33842	0.096397	0.25806	0.20931	0.14485	0.27642	0.40651	0.16108	0.28747	0.14972	0.16818	0.10288	0.22195	0.17225	0.24841	-1.8312	-2.0667	-2.4813	-2.2042	-2.3708	-2.5958	-1.95	-2.3667	-2.3021	-2.1188	-2.5792	-2.2313	-2.1958	-2.4458	-2.25	-2.4125	-76.287	-70.834	-138.989	-107.707	-18.971	142.729	183.951	146.884	-130.551	-93.653	161.753	-17.267	103.983	105.751	-62.551	44.006	0.00016744	0.00020499	6.3875e-05	252.83	2.1785e-06	3.0317e-06	377.56	101.78	1.7517e-06	6.6143e-06	170.18	45.12	24.188	7.7855	2.3363e-06	16.696	0.00018666	0.00018513	5.1406e-05	256.22	2.0413e-06	2.0666e-06	374.13	101.61	2.0103e-06	2.0387e-06	166.41	44.996	25.36	8.2569	2.0217e-06	16.763	194.082	-31.589	123.542	-135.544	35.000	93.270	-137.956	-130.867	-92.855	-63.147	-134.272	-129.906	-127.060	-121.298	-97.125	-125.664	-8191	255	
1433.212	1	1	0	0	0.215	0.065567	0.13046	0.18771	0.13612	0.25754	0.30717	0.023067	0.083156	0.14718	0.031448	0.052701	0.23308	0.080695	0.12327	0.15576	-1.9479	-1.9396	-2.5208	-2.2125	-2.2125	-2.5229	-1.9896	-2.3896	-2.4188	-1.9417	-2.4896	-2.3042	-2.175	-2.5604	-2.2146	-2.3896	185.195	-14.198	-21.324	-115.701	34.975	-52.697	-144.960	199.297	-104.729	145.136	115.204	-63.793	37.648	203.693	105.771	136.969	0.00010294	0.00018287	0.00015426	254.89	2.374e-06	1.0745e-06	377.52	102.73	1.7489e-06	1.0731e-06	172.76	45.632	24.75	7.9962	8.2013e-07	17.046	0.00018717	0.00018565	5.1564e-05	257.23	2.0428e-06	2.0151e-06	374.62	102.51	2.0292e-06	2.0148e-06	169.04	45.727	25.675	8.4052	2.0424e-06	17.058	157.884	16.512	-3.658	-136.427	-86.702	95.057	-138.101	-131.391	-97.316	-57.559	-133.938	-129.889	-127.633	-121.113	-122.640	-125.360	-8191	255	
1433.333	1	1	0	0	0.19283	0.12038	0.23813	0.2811	0.076319	0.12818	0.10395	0.095082	0.31372	0.12523	0.21987	0.064724	0.2701	0.27594	0.099679	0.26754	-1.8833	-2.0479	-2.5625	-2.2208	-2.2479	-2.5521	-2.1083	-2.3854	-2.3125	-2.075	-2.4271	-2.475	-1.9854	-2.3917	-2.1667	-2.3021	74.185	99.916	134.221	177.738	-27.159	142.619	90.939	115.857	140.730	149.805	172.059	85.208	198.952	4.532	7.954	25.958	0.00022407	0.00020473	5.3007e-05	255.01	3.1898e-06	4.8955e-06	380.96	104.18	4.451e-06	4.0368e-06	175.25	46.055	25.036	7.9951	1.6012e-06	16.955	0.00018615	0.0001864	5.1856e-05	258.88	2.0436e-06	2.0503e-06	379.53	103.79	2.0495e-06	2.0424e-06	171.15	45.94	25.92	8.4419	2.0143e-06	17.06	180.692	-55.411	-4.476	-136.011	139.239	-54.628	-138.085	-130.670	-102.733	184.139	-134.569	-129.661	-127.413	-121.402	-74.960	-125.570	-8191	255	
1433.429	1	1	0	0	0.18409	0.19441	0.22716	0.081088	0.2985	0.22873	0.20962	0.14381	0.19019	0.19306	0.10004	0.11794	0.095654	0.20688	0.12377	0.21285	-1.9583	-1.9688	-2.4813	-2.2583	-2.0792	-2.5771	-2.1375	-2.1708	-2.4458	-2.0938	-2.4562	-2.2875	-1.9	-2.3833	-2.1104	-2.0938	-36.253	-111.131	-87.321	205.189	-125.788	-64.297	-120.507	127.432	-60.809	-7.006	-94.566	53.530	-124.250	99.786	182.728	90.671	0.00014249	0.00023961	3.2347e-05	259.92	1.497e-06	1.5247e-06	385.94	105.75	3.2858e-06	2.3409e-06	177.81	46.699	25.438	8.0668	2.6699e-06	16.772	0.00018354	0.00018848	5.1577e-05	262.29	2.0424e-06	2.0341e-06	383.18	105.48	2.0548e-06	2.0278e-06	173.13	46.586	26.331	8.5464	2.0254e-06	16.969	175.602	-70.839	184.864	-135.549	-8.758	-148.205	-137.965	-130.912	-45.140	-79.892	-134.779	-130.258	-127.183	-121.905	-64.285	-125.232	-8191	255	
1433.525	1	1	0	0	0.047633	0.18027	0.17107	0.19664	0.27534	0.098694	0.096041	0.35105	0.11484	0.2098	0.051933	0.12515	0.051914	0.17958	0.22314	0.03035	-1.9062	-2.0229	-2.1708	-2.2396	-1.9937	-2.3917	-2.2875	-2.3625	-2.3375	-2.0187	-2.3542	-2.3812	-2.0146	-2.4562	-2.4313	-2.2938	-141.197	95.333	-120.029	145.502	43.130	-1.574	-93.613	-130.048	172.971	106.342	194.170	-78.132	-11.517	189.335	62.691	169.779	0.00014161	0.0002008	4.1997e-05	259.88	1.8728e-06	2.3699e-06	389.25	106.12	3.5048e-06	1.3841e-06	178.84	47.179	25.56	8.1101	1.2889e-06	16.914	0.00018671	0.00018614	5.2513e-05	262.56	2.0465e-06	2.0556e-06	385.65	106.02	2.0479e-06	2.0587e-06	173.54	46.98	26.421	8.5616	2.0459e-06	17.09	201.402	-88.460	8.592	-136.141	115.872	-113.173	-138.114	-130.858	-63.075	-136.892	-134.468	-130.133	-127.413	-121.891	92.770	-125.883	-8191	255	
1433.644	1	1	0	0	0.18226	0.16333	0.17099	0.096737	0.31991	0.10169	0.29426	0.049873	0.25396	0.13318	0.29722	0.035345	0.083061	0.1703	0.065603	0.11251	-2.1208	-1.9896	-2.3208	-2.6771	-1.9667	-2.3854	-2.3	-2.1063	-2.7313	-2.2646	-2.3479	-2.4854	-2.0479	-2.5271	-2.3375	-2.15	158.946	17.247	-51.551	4.976	-52.939	79.161	179.224	-0.828	-11.440	3.648	35.378	133.498	110.042	142.890	-141.249	-19.778	0.00014975	0.00025202	9.8368e-05	262.55	2.0685e-06	2.7046e-06	389.55	106.24	1.5002e-06	5.8419e-07	179.16	47.489	25.509	8.1735	1.3324e-06	17.053	0.00018809	0.00018652	5.2067e-05	262.91	2.0449e-06	2.0482e-06	385.86	106.32	2.0493e-06	2.0446e-06	174.7	47.163	26.519	8.6479	2.0323e-06	17.216	-148.036	-137.088	-62.450	-135.697	-17.453	-46.796	-138.561	-131.012	-95.212	13.336	-134.439	-130.167	-126.891	-121.398	-57.871	-125.944	-8191	255	
1433.740	1	1	0	0	0.16647	0.29615	0.13687	0.11285	0.21648	0.15046	0.11462	0.25564	0.053159	0.058368	0.17387	0.18057	0.04945	0.25202	0.18368	0.22607	-2.0312	-2.3625	-2.2562	-2.4729	-2.0125	-2.3063	-2.4417	-2.1354	-2.5312	-2.3021	-2.3292	-2.375	-2.2167	-2.2833	-2.3208	-2.0521	187.515	-66.014	41.862	-42.902	72.031	-37.859	93.814	129.270	85.778	150.958	155.262	159.790	-90.144	154.833	-31.525	-134.189	9.6735e-05	0.00041241	6.4127e-05	263.25	9.1257e-07	3.766e-06	388.54	106.38	2.9296e-06	3.6066e-06	179.64	47.627	25.771	8.1862	1.5757e-06	17.243	0.00018566	0.00018701	5.2362e-05	264.4	2.0558e-06	2.0609e-06	385.88	106.27	2.042e-06	2.0803e-06	174.63	47.266	26.74	8.7074	2.0725e-06	17.428	172.934	-121.616	200.887	-136.635	56.788	-22.977	-138.199	-131.263	55.953	-50.659	-134.405	-129.907	-127.998	-121.539	-52.887	-125.587	-8191	255	
1433.813	1	1	0	0	0.12041	0.091516	0.26833	0.13689	0.17945	0.065166	0.24497	0.12433	0.12922	0.19434	0.17764	0.17712	0.022924	0.070713	0.33734	0.30611	-1.9062	-2.0542	-2.0167	-2.5292	-2.2208	-2.1917	-2.4771	-2.1688	-2.4833	-2.2708	-2.1729	-2.5729	-2.2	-2.3812	-2.3667	-2.0812	152.903	181.128	198.699	201.876	175.553	68.416	172.926	174.732	-64.477	-27.936	148.680	100.330	209.200	-74.056	-64.913	19.153	0.00016446	0.00015374	5.5034e-05	262.69	1.7193e-06	4.8477e-07	387.06	106.34	2.7636e-06	3.6778e-06	178.78	47.383	25.78	8.3334	4.094e-06	16.923	0.0001881	0.00018942	5.2631e-05	264.54	2.0692e-06	2.0772e-06	384.44	106.3	2.0894e-06	2.0754e-06	174.2	47.089	26.731	8.706	2.0887e-06	17.178	157.240	-127.436	-71.736	-135.977	77.315	151.662	-138.031	-131.237	58.757	-28.857	-134.300	-129.959	-127.703	-121.691	-52.275	-125.364	-8191	255	
1433.932	1	1	0	0	0.028764	0.26776	0.39158	0.24319	0.16043	0.14792	0.073372	0.20625	0.15737	0.16864	0.025597	0.12473	0.079708	0.066689	0.13804	0.085746	-1.9083	-2.3542	-2.25	-2.2875	-2.1688	-2.2833	-2.4062	-2	-2.2729	-2.3333	-2.1562	-2.5583	-2.075	-2.2167	-2.4062	-2.1333	3.439	-75.118	183.532	-135.449	120.449	140.458	124.683	87.061	147.841	-43.542	-86.226	-26.389	141.870	68.363	-84.307	-124.164	0.00011942	0.00015293	5.4076e-05	259.64	2.3345e-06	3.3616e-06	386.93	106.82	5.4577e-06	9.0523e-07	178.92	46.912	25.809	8.1841	1.2365e-06	17.206	0.00018945	0.00019031	5.3417e-05	262.99	2.0956e-06	2.0672e-06	383.78	106.04	2.0762e-06	2.1016e-06	173.69	46.926	26.571	8.7132	2.0719e-06	17.286	-125.397	-15.548	-71.004	-135.895	-1.168	-29.480	-138.124	-130.976	-42.029	200.659	-134.043	-130.039	-127.685	-122.042	-108.981	-125.465	-8191	255	
1434.028	1	1	0	0	0.06099	0.075898	0.20593	0.043592	0.22964	0.075966	0.23854	0.079723	0.097624	0.23438	0.35483	0.017983	0.15393	0.17673	0.38961	0.19317	-1.7604	-2.3042	-2.1042	-2.4625	-2.3	-2.2625	-2.6521	-2.125	-2.4542	-2.3958	-2.0687	-2.4646	-2.4021	-2.1667	-2.6312	-2.3958	137.534	45.877	-113.612	155.566	-90.693	-32.380	168.901	-70.132	154.471	-82.439	-129.533	85.629	-67.167	172.332	-144.147	121.651	0.00019384	0.00050635	2.6164e-05	261.2	4.1445e-06	3.4412e-06	390.17	105.53	4.0723e-06	2.632e-06	177.51	47.07	25.334	8.1722	3.5715e-06	16.916	0.00019301	0.00018937	5.3719e-05	264.09	2.0981e-06	2.0889e-06	385.39	105.77	2.1017e-06	2.0786e-06	173.44	46.819	26.397	8.6217	2.0652e-06	17.112	176.806	-33.013	-83.305	-136.639	20.691	112.395	-138.048	-131.546	135.796	81.953	-134.231	-129.329	-127.409	-121.012	146.365	-125.453	-8191	255	
1434.124	1	1	0	0	0.074466	0.22429	0.10154	0.26183	0.075913	0.14142	0.2404	0.12222	0.074935	0.12051	0.20186	0.0098486	0.0042305	0.32615	0.25538	0.17345	-1.8729	-2.65	-2.0167	-2.4375	-2.2313	-2.3042	-2.4729	-2.1104	-2.2958	-2.5687	-2.3438	-2.4021	-2.4667	-2.1604	-2.5875	-2.2562	136.531	-134.641	139.664	66.772	42.224	95.191	104.717	118.874	-42.196	-123.185	-126.544	124.325	147.529	-142.505	167.478	-94.976	0.00018732	0.00012107	2.7349e-05	259.93	5.0624e-06	1.1434e-06	386.04	105.92	4.6878e-06	1.024e-06	176.51	47.03	25.351	8.0882	4.0403e-06	16.944	0.00019038	0.00019038	5.3562e-05	263.81	2.1039e-06	2.0793e-06	385.35	105.73	2.0859e-06	2.1112e-06	173.35	46.748	26.402	8.6218	2.1037e-06	17.18	-141.136	25.804	120.468	-135.936	54.367	-79.730	-137.792	-131.148	-46.826	-5.943	-134.142	-130.043	-127.830	-121.532	-88.030	-125.119	-8191	255	
1434.245	1	1	0	0	0.16106	0.32891	0.24216	0.12771	0.1815	0.058877	0.22194	0.2117	0.16569	0.18183	0.14901	0.14599	0.12858	0.11555	0.14564	0.16341	-1.8229	-2.2396	-1.9333	-2.2646	-2.5854	-2.1917	-2.4646	-2.3312	-2.175	-2.4021	-2.0417	-2.4208	-2.4938	-1.8771	-2.5438	-2.325	189.642	197.512	152.873	176.740	57.955	-48.653	110.459	75.100	-70.612	-14.899	32.779	204.312	80.961	-108.986	34.849	113.642	0.00015256	0.00041486	0.00017551	261.02	1.9745e-06	4.5847e-06	391.64	106.52	5.1255e-06	3.1831e-06	179.26	47.537	25.47	8.2251	2.8111e-06	17.042	0.00019218	0.00019312	5.3475e-05	264.99	2.1009e-06	2.1236e-06	388.75	106.55	2.0929e-06	2.0821e-06	175.27	47.365	26.579	8.6394	2.0986e-06	17.167	192.085	10.275	-68.592	-136.159	54.881	12.790	-138.165	-131.519	-104.534	76.660	-134.609	-130.091	-126.950	-121.333	108.431	-125.427	-8191	255	
1434.339	1	1	0	0	0.16743	0.087354	0.2324	0.11102	0.15703	0.085474	0.16818	0.22061	0.22167	0.14388	0.23618	0.19016	0.072562	0.03354	0.31686	0.26186	-1.7104	-2.2729	-1.9417	-2.6042	-2.4042	-2.0479	-2.5625	-2.2042	-2.1896	-2.5083	-2.2604	-2.325	-2.4083	-2.1917	-2.3396	-2.5083	-23.068	142.019	-26.047	-10.959	55.029	7.415	55.710	186.817	-90.237	-117.855	103.328	41.185	115.976	-90.853	-76.562	-94.563	0.00014326	8.0889e-05	0.0001031	261.32	2.4294e-07	1.0378e-06	393.66	106.28	5.3603e-06	1.4087e-06	177.75	47.076	25.269	8.0635	2.1614e-06	16.711	0.00019298	0.00019335	5.3717e-05	264.8	2.1045e-06	2.1268e-06	388.56	106.27	2.1027e-06	2.0957e-06	174.27	46.997	26.297	8.5185	2.0983e-06	16.932	155.677	-12.374	14.858	-135.766	-27.060	-26.015	-137.778	-130.982	-57.033	17.609	-134.429	-129.764	-127.307	-121.623	-102.284	-125.896	-8191	255	
1434.413	1	1	0	0	0.12575	0.19868	0.3039	0.24741	0.18665	0.2067	0.1154	0.30612	0.08508	0.21561	0.18436	0.095545	0.29108	0.29996	0.19245	0.053527	-1.7354	-2.4333	-2.2687	-2.3083	-2.4562	-2.1375	-2.6188	-2.2396	-2.0896	-2.3729	-2.3438	-2.3312	-2.4979	-2.0604	-2.3458	-2.4396	32.125	-14.198	-11.518	155.686	108.464	182.353	208.029	121.114	146.750	172.895	-129.388	21.554	111.972	180.186	-33.066	-14.073	0.00021653	0.00034702	6.9833e-05	261.91	1.4768e-06	8.8717e-07	390.28	105.37	1.7043e-06	1.5913e-06	178.01	46.777	25.208	8.0193	3.3415e-06	16.445	0.00019139	0.00019435	5.3664e-05	264.48	2.1006e-06	2.1188e-06	387.46	105.59	2.14e-06	2.104e-06	172.97	46.542	26.089	8.4292	2.1058e-06	16.674	175.983	38.282	198.275	-135.902	-61.654	19.077	-138.093	-130.581	168.605	83.792	-134.434	-130.184	-126.704	-121.122	-27.002	-125.593	-8191	255	
1434.509	1	1	0	0	0.16506	0.26255	0.16172	0.17041	0.072403	0.051383	0.030933	0.16822	0.34142	0.24954	0.11679	0.121	0.054424	0.26069	0.11206	0.10515	-1.5396	-2.5021	-2.3187	-2.1875	-2.5021	-2.1979	-2.4542	-2.5604	-1.9583	-2.6958	-2.3292	-2.3625	-2.6188	-2.1146	-2.2896	-2.5292	-88.695	-21.346	95.755	-131.750	-34.136	36.252	42.618	173.828	-56.588	18.041	-105.842	-55.276	-43.251	-64.536	-48.679	89.913	0.00012188	0.00038929	9.7225e-05	258.26	1.5562e-06	4.8328e-06	392.69	105.73	3.5887e-06	3.6207e-06	175.32	46.627	25.163	7.916	3.5614e-06	16.716	0.00019246	0.00019349	5.3985e-05	261.8	2.1205e-06	2.1023e-06	387.99	105.49	2.1235e-06	2.1262e-06	172.07	46.516	26.046	8.4172	2.103e-06	16.752	177.742	-62.163	-24.125	-136.323	80.574	16.957	-138.195	-131.312	-92.062	-72.365	-134.293	-129.840	-127.539	-120.755	-25.185	-125.676	-8191	255	
1434.628	1	1	0	0	0.09634	0.15702	0.15373	0.2329	0.085408	0.078991	0.14146	0.15299	0.18969	0.29504	0.27816	0.25611	0.076238	0.080291	0.15399	0.17549	-1.4521	-2.2854	-2.3083	-2.0396	-2.5104	-2.1271	-2.3542	-2.5146	-2.1063	-2.4688	-2.325	-1.8792	-2.5833	-2.0542	-2.4708	-2.5583	-25.762	2.515	-93.457	181.478	-92.321	-59.742	199.732	-79.942	-99.091	186.351	149.420	-128.782	145.288	46.581	-92.177	92.094	0.00022161	0.00037317	7.4582e-05	260.32	2.8729e-06	1.0478e-06	388.96	105	1.3597e-06	2.6709e-06	176.32	45.687	24.759	7.8197	5.6689e-06	16.34	0.00019376	0.00019353	5.4532e-05	262.27	2.1085e-06	2.1074e-06	387.38	105	2.1299e-06	2.114e-06	171.87	45.791	25.825	8.3064	2.1508e-06	16.484	194.200	-30.146	12.316	-135.973	133.253	63.459	-137.771	-131.486	25.171	0.783	-134.868	-129.161	-127.066	-121.707	-137.680	-125.255	-8191	255	
1434.724	1	1	0	0	0.37969	0.15782	0.15873	0.21722	0.19608	0.094631	0.1065	0.13884	0.29836	0.25609	0.27898	0.078591	0.071002	0.16652	0.20552	0.11816	-1.5167	-2.4229	-2.3042	-2.1875	-2.6688	-2.2562	-2.3438	-2.6229	-2.175	-2.4083	-2.5208	-2.1396	-2.4833	-2.2896	-2.3542	-2.5938	156.895	-112.315	128.579	160.345	-57.631	-25.511	-46.437	-117.630	-3.784	11.485	78.980	69.089	-51.759	167.273	85.200	91.678	0.00021266	0.00013313	0.00013192	257.76	1.8045e-06	1.6758e-06	391.4	104.89	4.7231e-07	7.6525e-07	174.32	45.64	24.666	7.7955	1.7491e-06	16.033	0.00019454	0.00019508	5.438e-05	260.79	2.14e-06	2.1327e-06	388.41	105.13	2.158e-06	2.1275e-06	171.43	45.86	25.688	8.296	2.1147e-06	16.439	179.493	15.359	10.701	-135.913	155.861	-70.378	-137.986	-130.926	-74.556	-124.378	-134.007	-129.850	-127.285	-121.540	-103.294	-126.014	-8191	255	
1434.820	1	1	0	0	0.40026	0.078849	0.041055	0.29367	0.12642	0.081291	0.095202	0.18692	0.171	0.10966	0.19863	0.1821	0.1582	0.13257	0.14744	0.34693	-1.5417	-2.2896	-2.4562	-1.9688	-2.5417	-2.2604	-2.2396	-2.6729	-2.4125	-2.4	-2.5042	-2.0062	-2.3375	-2.2896	-2.1667	-2.6333	-129.049	-18.832	116.065	148.145	13.487	180.757	75.308	-108.522	83.187	-134.792	142.610	64.484	35.344	-45.447	-55.475	-106.596	0.00012348	0.00014413	0.00016651	254.93	2.0785e-06	2.706e-06	389.59	104.49	3.6425e-06	2.8887e-06	174.3	45.349	24.585	7.7913	2.3883e-06	16.265	0.00019456	0.00019559	5.3732e-05	259.19	2.1524e-06	2.1099e-06	386.18	104.34	2.1321e-06	2.1239e-06	170.9	45.568	25.669	8.284	2.1466e-06	16.396	195.728	-84.600	29.672	-135.485	59.053	-130.648	-137.659	-131.772	-117.391	6.882	-134.585	-129.385	-127.139	-121.135	-37.347	-125.203	-8191	255	
1434.916	1	1	0	0	0.10984	0.16661	0.089685	0.21011	0.47593	0.19849	0.17995	0.090384	0.094377	0.086647	0.19818	0.13783	0.21178	0.19247	0.35686	0.29534	-1.6458	-2.2562	-2.4437	-2.1063	-2.3688	-2.3167	-2.2438	-2.6146	-2.2771	-2.4375	-2.4021	-2.0938	-2.5021	-2.325	-2.2271	-2.6729	36.734	-93.944	-27.198	105.099	143.977	94.210	185.603	-54.846	4.600	37.179	36.264	-30.324	-144.923	190.103	23.676	106.442	0.0001652	3.815e-05	0.00011613	258.39	3.3235e-06	4.1387e-06	389.54	105.92	3.3329e-06	4.1941e-06	176.02	46.017	24.722	7.8443	1.7659e-06	16.286	0.00019535	0.00019393	5.4127e-05	261.58	2.127e-06	2.134e-06	387.79	105.85	2.126e-06	2.1344e-06	172.25	46.082	25.93	8.3695	2.118e-06	16.465	182.953	-15.737	-47.215	-135.438	-18.268	-32.805	-137.695	-131.364	-118.158	-137.011	-134.933	-129.579	-127.062	-121.486	162.577	-125.149	-8191	255	
1435.037	1	1	0	0	0.14249	0.21457	0.14573	0.15527	0.27035	0.23457	0.28536	0.36767	0.11767	0.22703	0.098404	0.16079	0.33647	0.17225	0.26797	0.038219	-1.8167	-2.3063	-2.3479	-2.1604	-2.2062	-2.5667	-2.1188	-2.5354	-2.1188	-2.2708	-2.5542	-2.1271	-2.3396	-2.3917	-2.2687	-2.7479	-105.020	140.932	196.006	-118.231	-62.836	157.782	115.614	-110.964	-0.333	74.302	-91.791	63.524	106.162	79.129	-50.906	54.987	0.0002459	7.7694e-05	2.6261e-05	260.56	3.768e-06	2.6359e-06	392.8	106.41	2.4733e-06	1.9109e-06	175.57	45.29	24.167	7.6777	2.9018e-06	15.911	0.00019673	0.00019478	5.4263e-05	263.17	2.1293e-06	2.1539e-06	390.14	106.3	2.1564e-06	2.1327e-06	171.55	45.449	25.541	8.2199	2.1625e-06	16.262	182.959	78.873	-5.930	-136.031	-54.313	-24.221	-138.011	-131.517	-21.070	12.407	-134.448	-129.837	-126.553	-121.335	25.290	-125.484	-8191	255	
1435.109	1	1	0	0	0.16003	0.072082	0.31544	0.20601	0.21232	0.1673	0.13642	0.032061	0.1802	0.074838	0.17013	0.072346	0.086076	0.12166	0.026162	0.29644	-1.6875	-2.3312	-2.7875	-2.0833	-2.2292	-2.5604	-1.9896	-2.5563	-2.2354	-2.0792	-2.5521	-2.1854	-2.1833	-2.5208	-2.0896	-2.5312	-5.535	197.851	101.074	89.854	63.271	70.021	20.047	-121.550	73.992	6.397	146.831	-83.675	-74.639	200.004	153.369	172.604	0.00013569	0.00028195	6.2614e-05	257.84	1.4567e-06	2.366e-06	392.25	105.9	4.0831e-06	1.0405e-06	175.97	45.508	24.802	7.8929	1.5001e-06	16.272	0.00019389	0.00019447	5.365e-05	260.3	2.1199e-06	2.1388e-06	388.87	106.35	2.1375e-06	2.1308e-06	172.6	45.781	25.893	8.3299	2.1722e-06	16.397	190.440	27.160	105.203	-135.867	-41.409	31.132	-137.502	-131.116	-75.022	-90.944	-134.485	-129.520	-127.572	-121.407	-65.738	-124.707	-8191	255	
1435.205	1	1	0	0	0.37241	0.30184	0.1856	0.033338	0.25151	0.061133	0.096748	0.17101	0.18551	0.098549	0.093093	0.18278	0.1284	0.1109	0.10328	0.16114	-1.8354	-2.2146	-2.5854	-2.1813	-2.2083	-2.5229	-2.2146	-2.5708	-2.3688	-2.0417	-2.8708	-2.225	-2.3833	-2.4938	-2.1	-2.4979	-85.494	-130.810	129.824	-40.572	-108.458	-138.107	163.348	162.331	-147.485	128.454	141.628	18.391	-139.121	92.516	-92.841	-69.264	0.000179	0.00020041	0.00014753	260.46	8.2234e-07	3.1418e-06	392.52	106.35	2.216e-06	2.5416e-06	175.87	45.561	24.26	7.6725	1.4695e-06	15.883	0.00019382	0.00019523	5.5486e-05	262.54	2.1337e-06	2.1547e-06	390.63	106.45	2.1353e-06	2.1539e-06	172.46	45.584	25.598	8.2116	2.1594e-06	16.129	187.773	-148.356	-14.510	-135.759	-22.982	0.839	-138.083	-131.019	-125.330	197.965	-134.544	-129.770	-127.154	-121.658	-79.299	-125.347	-8191	255	
1435.325	1	1	0	0	0.15738	0.11193	0.13119	0.12954	0.020753	0.21959	0.2175	0.10647	0.063116	0.11127	0.15141	0.17579	0.13806	0.11437	0.30452	0.26537	-1.8792	-2.0854	-2.4458	-2.1833	-2.3563	-2.3688	-2.0604	-2.2125	-2.525	-2.1813	-2.7771	-2.2625	-2.1854	-2.4958	-2.2625	-2.4021	-118.389	140.294	-123.890	148.273	-121.446	-53.502	29.937	97.224	13.574	38.677	-107.848	-121.289	105.753	-72.841	-13.257	-56.407	0.00017623	0.0001922	0.00013587	253.93	3.5322e-06	2.4194e-06	385.34	104.8	5.1823e-07	6.3317e-06	171.66	44.232	23.845	7.5942	1.3061e-06	15.483	0.00019494	0.00019714	5.3522e-05	259.08	2.153e-06	2.1416e-06	382.35	104.74	2.152e-06	2.1092e-06	168.48	44.418	25.091	8.0741	2.1102e-06	15.917	185.647	-96.946	144.234	-135.565	206.160	17.803	-137.752	-131.100	-138.343	6.489	-134.154	-129.293	-126.488	-121.092	49.164	-125.360	-8191	255	
1435.422	1	1	0	0	0.2428	0.10996	0.29749	0.01934	0.14797	0.092329	0.13102	0.061513	0.15221	0.083378	0.077104	0.10848	0.24047	0.18598	0.19796	0.085264	-1.9979	-2.0771	-2.6125	-2.3646	-2.2083	-2.575	-2.35	-2.3917	-2.4208	-2.1437	-2.4292	-2.3354	-2.3812	-2.4688	-2.3958	-2.2167	-50.067	-51.112	81.650	195.510	47.295	-68.033	9.114	47.209	-91.252	83.373	-89.008	181.281	-62.828	32.664	154.341	69.127	0.00010152	0.00015877	0.00010267	254.83	1.6889e-06	5.5764e-06	381.23	104.56	4.2827e-06	1.3024e-06	170.98	43.672	23.754	7.5413	4.1713e-06	15.542	0.00019362	0.00019585	5.3712e-05	257.73	2.156e-06	2.1278e-06	377.99	104.36	2.1358e-06	2.1211e-06	167.02	43.937	24.948	8.0277	2.121e-06	15.822	175.392	-144.410	-2.244	-136.044	14.215	160.797	-137.685	-131.467	-66.431	-14.103	-134.254	-129.331	-126.487	-121.253	-27.327	-125.481	-8191	255	
1435.516	1	1	0	0	0.04544	0.087222	0.22204	0.17436	0.12797	0.021494	0.16929	0.3092	0.24996	0.18741	0.18001	0.10458	0.20526	0.19365	0.055936	0.23273	-1.9958	-2.1188	-2.3583	-2.3292	-2.1604	-2.4833	-2.1813	-2.25	-2.5792	-2.1292	-2.5438	-2.5021	-2.1271	-2.575	-2.1917	-2.3354	18.023	-137.609	-13.283	-59.034	86.654	-54.851	44.597	141.020	42.450	144.458	191.400	-12.372	187.573	152.441	-5.600	51.994	0.00018971	0.00017341	2.7341e-05	252.39	1.6899e-06	5.3568e-06	378.1	104.22	4.8477e-06	3.4205e-06	171.17	43.761	23.463	7.4408	1.5292e-06	15.157	0.000193	0.00019326	5.348e-05	256.19	2.1249e-06	2.1259e-06	375.7	104.21	2.1444e-06	2.1438e-06	167.26	43.914	24.747	7.9593	2.1592e-06	15.654	181.590	-55.378	30.752	-135.610	-36.644	-13.271	-138.031	-130.968	14.145	41.542	-133.821	-129.471	-127.051	-121.044	-57.583	-125.318	-8191	255	
1435.614	1	1	0	0	0.36068	0.15471	0.18625	0.06385	0.15853	0.015742	0.21846	0.19743	0.2374	0.08724	0.28805	0.029839	0.1323	0.17728	0.079066	0.22119	-2.1917	-2.1271	-2.375	-2.4313	-2.0146	-2.4646	-2.275	-2.2687	-2.5146	-2.1896	-2.375	-2.3937	-1.9562	-2.4229	-2.2833	-2.2188	122.944	192.734	78.183	-133.752	-36.249	86.077	109.233	-108.677	150.143	62.528	170.807	70.024	153.002	32.054	84.483	146.931	0.00017062	0.00011789	8.4839e-05	250.84	2.6416e-06	2.7552e-06	368.12	104.33	1.0895e-06	4.4913e-06	171.6	43.152	23.591	7.4252	1.3907e-06	15.362	0.00019587	0.00019789	5.4512e-05	253.88	2.1562e-06	2.1326e-06	368.24	104.05	2.1434e-06	2.1212e-06	167.83	43.651	24.787	7.9219	2.1506e-06	15.724	188.924	162.651	2.718	-135.853	-93.868	45.371	-137.558	-131.102	-115.760	-32.622	-133.999	-129.465	-126.739	-121.764	-80.941	-125.860	-8191	255	
1435.708	1	1	0	0	0.12978	0.15387	0.076702	0.087443	0.22454	0.089609	0.17419	0.19522	0.17877	0.13333	0.063317	0.086024	0.052191	0.04347	0.076114	0.163	-2.0167	-2.0604	-2.1646	-2.4521	-2.1063	-2.5708	-2.4396	-2.1	-2.5333	-2.2458	-2.4062	-2.4771	-2.2667	-2.4313	-2.4354	-2.2417	101.930	43.146	13.263	-11.485	-47.652	78.472	146.180	172.555	-80.883	28.275	147.543	-100.068	-101.199	-41.046	55.630	-33.083	0.0001183	0.00017123	7.3586e-05	251.68	7.4805e-07	3.9629e-06	374.56	106.78	1.3446e-06	1.62e-06	174.45	43.806	24.032	7.6553	2.465e-06	15.755	0.00019505	0.00019493	5.461e-05	255.97	2.125e-06	2.1357e-06	375.13	106.07	2.1048e-06	2.1315e-06	170.53	44.293	25.084	8.0399	2.1469e-06	15.906	196.310	80.695	-40.184	-135.899	-32.707	100.030	-137.610	-131.287	-43.695	61.746	-134.613	-129.598	-126.537	-121.623	-33.123	-125.120	-8191	255	
1435.804	1	1	0	0	0.17516	0.08663	0.23857	0.18447	0.10756	0.25641	0.17405	0.1857	0.11462	0.094757	0.069559	0.032268	0.26287	0.28417	0.082051	0.14413	-1.9125	-2.1146	-2.2896	-2.5208	-2.1167	-2.4458	-2.5438	-2.075	-2.625	-2.2271	-2.4146	-2.5458	-2.1083	-2.2938	-2.5563	-2.0458	177.214	-47.624	-17.910	119.605	-1.339	43.157	83.717	-58.188	175.256	104.902	61.479	200.935	188.112	55.367	-94.734	-130.295	0.00010134	0.00011226	0.00011501	252.58	1.3309e-06	3.3002e-06	374.51	105.37	5.6387e-06	2.3166e-06	171.32	42.89	23.379	7.3599	1.5682e-06	15.283	0.00019408	0.00019354	5.4399e-05	255.8	2.1573e-06	2.1539e-06	372.2	105.12	2.148e-06	2.1219e-06	167.45	43.434	24.614	7.9616	2.1521e-06	15.604	177.157	-79.195	-116.589	-135.744	43.233	-145.945	-137.602	-131.396	-8.160	-59.342	-134.358	-129.801	-126.959	-121.001	-148.145	-125.552	-8191	255	
1435.925	1	1	0	0	0.11552	0.18088	0.20321	0.023148	0.11817	0.32317	0.15634	0.062307	0.19612	0.19762	0.18929	0.13736	0.23134	0.20094	0.0065594	0.31645	-1.9375	-2.4313	-2.0583	-2.6917	-2.4854	-2.2896	-2.5083	-2.1542	-2.5563	-2.2875	-2.1542	-2.5875	-2.3312	-2.3583	-2.45	-2.1792	145.978	160.312	202.199	51.098	169.976	-9.690	163.370	155.596	195.742	-17.255	155.333	82.579	-72.203	-47.875	-93.117	92.099	0.00014039	0.00042126	0.0002503	248.71	3.2378e-06	3.2645e-06	363.03	102.35	1.5935e-06	4.8755e-06	167.67	42.214	23.093	7.3522	4.0468e-06	15.089	0.00019552	0.00019659	5.475e-05	252.15	2.1345e-06	2.1393e-06	361.74	102.42	2.141e-06	2.1469e-06	164.51	42.668	24.259	7.8289	2.0866e-06	15.452	188.292	-52.436	184.875	-135.946	-14.351	27.367	-137.521	-131.008	184.174	-77.697	-133.844	-129.088	-126.758	-121.298	125.767	-125.248	-8191	255	
1436.021	1	1	0	0	0.054878	0.16958	0.1112	0.21025	0.11531	0.11578	0.26157	0.030337	0.21469	0.16509	0.14034	0.051335	0.17351	0.16374	0.25011	0.25411	-1.9583	-2.3917	-2.1542	-2.8021	-2.3833	-2.2833	-2.7062	-2.1146	-2.3375	-2.3396	-1.9896	-2.6458	-2.3479	-2.1854	-2.4458	-2.2812	62.614	-128.630	182.564	152.598	17.786	77.784	-128.770	150.122	-141.511	47.212	22.298	121.334	16.877	79.137	-65.461	164.598	0.00020341	0.00014003	9.8269e-05	243.73	2.0524e-06	4.1166e-07	348.01	100.71	3.7429e-06	4.8305e-06	165.88	41.414	22.892	7.1246	2.7708e-06	15.007	0.00019281	0.00019328	5.3513e-05	247.69	2.134e-06	2.1354e-06	350.14	101.14	2.0972e-06	2.1264e-06	162.41	42.041	24.037	7.695	2.1138e-06	15.436	190.987	179.424	-79.529	-135.909	2.755	-124.530	-137.767	-131.282	-41.374	-5.426	-134.137	-128.939	-125.763	-121.098	30.430	-124.687	-8191	255	
1436.117	1	1	0	0	0.075816	0.20127	0.26563	0.14671	0.22392	0.063858	0.03787	0.17479	0.06669	0.15516	0.17323	0.11886	0.1357	0.20437	0.2157	0.10067	-1.8708	-2.2458	-2.1396	-2.5083	-2.3271	-2.2208	-2.575	-2.125	-2.3479	-2.3667	-2.1167	-2.3625	-2.3646	-2.2771	-2.6	-2.1708	95.316	172.590	47.872	-37.020	48.374	-94.761	193.817	-71.986	-106.778	16.551	-140.689	-61.576	52.984	-98.177	14.393	-48.101	0.00022107	0.00027985	3.8348e-05	243.15	1.5962e-06	3.9323e-06	354.86	103.3	4.2666e-06	5.0074e-06	168.45	42.432	23.179	7.2538	2.301e-06	15.195	0.00019074	0.00019199	5.3911e-05	248.58	2.1084e-06	2.1079e-06	353.85	102.61	2.1117e-06	2.1069e-06	165.17	42.788	24.304	7.8087	2.134e-06	15.472	-144.491	82.241	-80.433	-135.701	162.957	-124.897	-137.736	-130.935	-7.152	-37.693	-134.329	-128.474	-126.265	-120.312	22.255	-124.596	-8191	255	
1436.214	1	1	0	0	0.2254	0.11342	0.24266	0.14279	0.047108	0.19528	0.13562	0.11469	0.22371	0.20462	0.12908	0.10031	0.17923	0.17246	0.12012	0.16966	-1.7167	-2.5563	-2.1479	-2.4667	-2.2833	-2.1167	-2.6625	-2.1937	-2.2667	-2.4708	-2.1417	-2.3229	-2.4542	-2.0271	-2.4958	-2.2917	-123.241	-22.928	193.671	-81.112	-84.816	-141.542	34.584	-101.654	93.004	93.427	103.836	111.505	200.401	-17.418	-5.650	83.876	0.0001771	0.00012395	0.0001187	243.68	1.3234e-06	1.909e-06	357.05	103.65	2.2404e-06	4.9645e-06	169.24	42.479	23.12	7.2553	3.6081e-06	15.239	0.00019529	0.00019468	5.3788e-05	249	2.1214e-06	2.1552e-06	356.97	103.35	2.1398e-06	2.1211e-06	166.06	42.902	24.265	7.7936	2.1113e-06	15.486	184.314	-82.905	-22.356	-136.043	68.507	-125.227	-137.442	-131.112	-77.383	169.903	-133.865	-128.787	-126.776	-121.005	-0.511	-125.273	-8191	255	
1436.310	1	1	0	0	0.11833	0.15714	0.17034	0.18806	0.10653	0.17381	0.077882	0.0296	0.20238	0.19226	0.19061	0.24473	0.22197	0.23836	0.29362	0.14422	-1.7771	-2.5187	-2.0667	-2.3771	-2.4146	-2.1437	-2.6875	-2.2125	-2.1646	-2.3771	-2.1937	-2.6708	-2.4354	-2.0938	-2.4625	-2.3187	203.968	34.763	176.491	203.673	105.733	-48.814	207.565	5.966	-55.933	72.966	-146.765	205.888	-86.329	34.243	-31.601	140.130	0.00011445	0.00017676	0.00010337	244.73	1.6364e-06	2.3301e-06	353.79	102.28	4.131e-06	1.4557e-06	168.33	42.255	22.932	7.2106	1.3586e-06	14.902	0.00019179	0.00019246	5.4613e-05	248.77	2.14e-06	2.1262e-06	353.91	102.65	2.1432e-06	2.1076e-06	164.99	42.474	24.018	7.6989	2.1297e-06	15.184	188.571	-34.868	-84.977	-136.164	120.890	44.739	-137.462	-131.342	-66.741	28.176	-133.909	-129.409	-126.522	-121.386	95.720	-124.766	-8191	255	
1436.406	1	1	0	0	0.31659	0.034327	0.039609	0.12555	0.28604	0.077589	0.043932	0.072514	0.056833	0.16545	0.15232	0.075591	0.20862	0.148	0.15701	0.18041	-1.7458	-2.6667	-2.1042	-2.2104	-2.4646	-2.1042	-2.5312	-2.3979	-2.3167	-2.6333	-2.2271	-2.4042	-2.6583	-2.1479	-2.5146	-2.4292	14.767	-34.975	132.360	-110.497	-32.530	-148.867	-42.107	-3.930	-27.063	3.487	202.976	123.957	94.952	-31.792	-68.521	195.556	0.00015147	5.7994e-05	8.0059e-05	241.27	1.6987e-06	3.7965e-06	345.67	99.845	6.7053e-06	4.4473e-06	165.93	41.516	22.692	7.1687	4.5094e-06	14.934	0.00019689	0.00019548	5.4962e-05	245.51	2.1561e-06	2.1533e-06	346.43	100.35	2.1597e-06	2.1305e-06	162.43	41.854	23.753	7.6467	2.1333e-06	15.228	172.072	44.712	-123.355	-135.568	-86.419	-30.130	-136.942	-131.153	-54.445	161.287	-134.261	-129.122	-126.133	-120.586	-12.793	-124.810	-8191	255	
1436.502	1	1	0	0	0.10518	0.039344	0.10295	0.25595	0.28843	0.17852	0.14517	0.12845	0.29882	0.053536	0.088608	0.12072	0.19826	0.1835	0.16995	0.20835	-1.6396	-2.7146	-2.3063	-2.2812	-2.2583	-2.1583	-2.4667	-2.3563	-2.0812	-2.6646	-2.2687	-2.3063	-2.4646	-2.3708	-2.3812	-2.4458	184.555	-33.282	89.460	163.090	-10.449	130.491	78.509	-26.696	-36.265	-114.162	-127.900	206.556	133.617	-14.846	-100.463	68.989	0.00018725	9.9242e-05	2.4463e-05	239.73	1.22e-06	4.1734e-06	354.06	101.83	6.8575e-06	3.4524e-06	168.66	42.224	23.016	7.2483	2.4111e-06	15.057	0.00019723	0.00019365	5.4234e-05	245.31	2.1264e-06	2.152e-06	352.97	102.48	2.1206e-06	2.1143e-06	165.12	42.532	24.148	7.7584	2.1331e-06	15.386	188.840	176.424	-16.386	-135.607	-144.351	-69.480	-137.463	-131.438	-63.334	38.603	-134.272	-129.008	-125.644	-121.001	86.661	-125.212	-8191	255	
1436.596	1	1	0	0	0.09118	0.011083	0.13626	0.21488	0.04902	0.091666	0.24136	0.1205	0.3119	0.16356	0.21959	0.27722	0.25213	0.24446	0.16652	0.24216	-1.4542	-2.5062	-2.2708	-2.2875	-2.5979	-2.1333	-2.4958	-2.3521	-1.9375	-2.3438	-2.2583	-2.35	-2.4104	-2.2479	-2.4396	-2.4208	122.364	85.254	-29.661	47.052	81.312	96.175	86.522	177.184	-110.088	105.663	123.010	-130.588	-28.401	100.186	64.769	-27.601	0.00013047	0.00029038	0.00010287	242.37	1.4303e-06	1.02e-06	359.95	104.89	4.8103e-06	3.0512e-06	171.34	43.121	23.113	7.3721	1.8975e-06	15.239	0.00019604	0.00019414	5.4598e-05	246.71	2.1108e-06	2.1163e-06	359.38	104.65	2.1263e-06	2.1298e-06	168.6	43.44	24.542	7.8983	2.1042e-06	15.649	-130.188	55.759	-12.363	-135.624	-117.830	-80.476	-137.732	-131.797	-43.476	-114.633	-134.220	-129.626	-126.662	-121.337	-75.390	-125.058	-8191	255	
1436.717	1	1	0	0	0.081056	0.093995	0.073855	0.3219	0.17573	0.078233	0.1454	0.21322	0.070689	0.080452	0.13932	0.069669	0.17111	0.14566	0.077541	0.11304	-1.65	-2.6667	-2.3333	-1.9958	-2.5417	-2.2375	-2.3375	-2.6104	-2.1604	-2.5625	-2.5083	-2.0438	-2.4792	-2.2083	-2.3833	-2.3396	178.771	168.172	107.861	-16.464	-29.784	-30.098	-147.376	-109.925	-125.139	154.791	106.702	-26.522	170.992	202.406	-16.978	74.297	0.00014696	0.00026807	6.4996e-05	246.14	7.1822e-07	3.5322e-06	362.19	104.22	2.0176e-06	4.1942e-06	172.26	42.919	23.348	7.3483	3.1137e-06	15.163	0.00019417	0.00019566	5.4679e-05	249.97	2.1255e-06	2.1249e-06	361.23	105.24	2.1321e-06	2.1188e-06	168.65	43.32	24.547	7.8623	2.1114e-06	15.488	-148.801	-51.652	-90.217	-136.442	81.462	-21.409	-138.042	-131.637	50.157	151.872	-134.689	-129.395	-126.636	-120.933	64.553	-124.512	-8191	255	
1436.813	1	1	0	0	0.14012	0.35197	0.17208	0.29918	0.21873	0.3612	0.18481	0.16117	0.043551	0.25347	0.3716	0.32492	0.14276	0.063172	0.1195	0.255	-1.7687	-2.3979	-2.4458	-2.2208	-2.5083	-2.2292	-2.4292	-2.4667	-2.0292	-2.4042	-2.4208	-2.1042	-2.5417	-2.3917	-2.275	-2.4729	-121.851	-30.545	-97.517	-138.614	39.919	108.348	-4.947	-15.983	12.994	170.233	190.229	120.955	194.960	-104.369	0.325	-132.729	0.00020581	0.00030793	1.3352e-05	244.49	1.1139e-06	1.1086e-06	354.99	102.81	3.4391e-06	2.5331e-06	168.1	42.064	22.965	7.3585	3.1882e-06	15.124	0.00019373	0.00019408	5.5254e-05	247.27	2.1516e-06	2.1627e-06	355.96	103.12	2.1682e-06	2.1075e-06	165.4	42.563	24.203	7.8318	2.108e-06	15.405	180.204	-28.268	204.954	-135.640	-22.440	199.869	-137.467	-131.904	-132.676	-32.412	-134.303	-129.081	-126.279	-121.259	16.144	-125.852	-8191	255	
1436.909	1	1	0	0	0.097446	0.2362	0.3606	0.18814	0.15955	0.056919	0.11431	0.076011	0.11243	0.17921	0.22124	0.096196	0.10091	0.13161	0.28127	0.13946	-1.6479	-2.3563	-2.4604	-2.1312	-2.6083	-2.2083	-2.2167	-2.6708	-2.2354	-2.5771	-2.575	-2.0542	-2.5312	-2.3854	-2.0687	-2.5458	50.041	-131.655	21.408	155.960	207.718	-101.335	73.678	183.099	12.799	-3.938	76.194	169.819	-62.989	151.965	-99.457	39.339	0.00021457	0.00013573	0.00013904	245.49	1.1191e-06	3.5643e-06	359.69	104.14	9.8259e-07	1.9509e-06	170.99	42.262	23.125	7.3408	2.4453e-06	15.093	0.00019189	0.00019299	5.4473e-05	248.08	2.1196e-06	2.1436e-06	358.54	104.53	2.1366e-06	2.1268e-06	166.73	43.015	24.398	7.8501	2.1371e-06	15.443	172.813	-94.147	192.266	-135.577	107.915	-2.023	-137.580	-131.623	192.412	-58.162	-134.365	-129.344	-126.653	-121.066	-104.491	-125.269	-8191	255	
1437.005	1	1	0	0	0.13982	0.25107	0.11685	0.15542	0.10459	0.15309	0.21688	0.33756	0.077361	0.20858	0.15168	0.22009	0.22161	0.09038	0.14651	0.13394	-1.6896	-2.3312	-2.5271	-2.0354	-2.5479	-2.2979	-2.1125	-2.5167	-2.2396	-2.2479	-2.7375	-2.1292	-2.3896	-2.4771	-2.0771	-2.5812	-18.742	-124.911	-3.944	106.100	-2.647	-79.601	108.698	-141.368	69.180	-134.403	142.606	135.343	-125.820	-7.311	-9.964	-27.628	0.00015885	0.00034725	6.211e-05	241.77	1.222e-06	4.1118e-06	359.29	104.41	5.1302e-06	1.6628e-06	171.82	43.045	23.565	7.4081	2.8596e-06	15.519	0.00019673	0.00019505	5.483e-05	246.82	2.1137e-06	2.1232e-06	357.39	104.61	2.1503e-06	2.1005e-06	167.95	43.342	24.603	7.9681	2.1082e-06	15.751	187.759	-105.266	-42.626	-135.707	-32.270	-55.654	-137.587	-131.224	-11.831	-65.468	-134.460	-129.305	-126.774	-120.579	-94.932	-125.201	-8191	255	
1437.102	1	1	0	0	0.2582	0.40701	0.11596	0.24322	0.17945	0.23372	0.20552	0.075126	0.061642	0.39373	0.13863	0.22775	0.11955	0.12877	0.032804	0.13075	-1.8333	-2.1646	-2.6917	-2.1625	-2.4146	-2.2396	-2.1208	-2.5333	-2.2333	-2.2292	-2.6229	-1.9021	-2.2354	-2.4062	-2.0021	-2.6063	-133.304	170.508	-81.019	-94.330	39.219	-59.624	-149.137	-124.173	-17.881	-41.208	-65.482	-148.232	194.183	-68.584	-26.945	-121.833	4.6382e-05	0.00023334	5.183e-05	245.04	1.9588e-06	9.3194e-07	361.32	106.77	3.7631e-06	4.2406e-06	172.33	43.185	23.675	7.4419	2.0383e-06	15.28	0.00019585	0.00019404	5.4496e-05	250.82	2.1163e-06	2.125e-06	361.97	106.2	2.1512e-06	2.1446e-06	169.02	43.573	24.743	7.9596	2.1317e-06	15.639	208.998	-137.736	177.488	-135.600	-51.536	-9.877	-137.395	-131.755	-114.144	25.215	-134.255	-129.349	-126.629	-121.262	-123.448	-125.335	-8191	255	
1437.198	1	1	0	0	0.18001	0.046522	0.22641	0.28193	0.42163	0.19186	0.44119	0.15684	0.1479	0.24668	0.10805	0.10521	0.032057	0.24063	0.096606	0.085522	-1.8458	-2.0729	-2.5792	-2.175	-2.3146	-2.5312	-2.0375	-2.3833	-2.3229	-2.1167	-2.6042	-2.2271	-2.4021	-2.4562	-2.0062	-2.4979	147.594	-7.282	34.107	120.456	-142.833	32.464	153.810	198.840	-81.110	176.631	-128.545	78.777	-113.071	-119.367	126.459	-3.191	0.00019363	7.6797e-05	7.7388e-05	245.12	1.1149e-06	3.8915e-06	359.75	105.6	1.5596e-06	3.0619e-06	171.05	43.057	23.602	7.3568	1.4795e-06	15.335	0.0001969	0.00019708	5.4276e-05	249.41	2.1238e-06	2.1239e-06	358.47	105.14	2.1579e-06	2.1366e-06	167.27	43.343	24.588	7.892	2.128e-06	15.505	175.932	-135.062	-26.046	-136.255	170.437	-29.737	-137.344	-131.391	13.144	-6.950	-134.584	-128.871	-126.810	-121.414	4.746	-124.810	-8191	255	
1437.294	1	1	0	0	0.24844	0.041512	0.046208	0.12113	0.18169	0.072599	0.016937	0.13951	0.072627	0.31566	0.34537	0.026651	0.10064	0.29249	0.11327	0.22088	-1.7521	-2.0875	-2.6104	-2.2104	-2.2896	-2.3646	-2.3042	-2.2958	-2.2438	-2.1854	-2.6417	-2.2062	-2.1854	-2.5312	-2.0812	-2.4417	-120.268	19.015	8.099	32.622	54.344	35.973	128.243	136.199	167.711	-122.058	-81.956	126.531	-67.797	-111.701	-115.035	80.888	0.00012475	0.00026388	9.1018e-05	244.51	2.3473e-06	2.2465e-06	356.82	103.59	5.4426e-06	2.4395e-06	168.81	42.014	23.104	7.1788	3.405e-06	14.905	0.00019528	0.00019567	5.4525e-05	248.19	2.133e-06	2.1186e-06	356.2	104.03	2.1582e-06	2.1452e-06	165.02	42.457	24.307	7.7244	2.1458e-06	15.302	182.331	-69.514	-88.943	-136.023	42.845	19.281	-137.745	-131.509	-65.441	83.206	-134.020	-129.577	-126.165	-121.562	107.417	-125.119	-8191	255	
#DATA ENDS
