BOXY.EXE: ISS Imagent and Oximeter Data Acquisition Program Version 0.80
Ascii Record File

#ACQ INFORMATION
2  Detector Channels 
16  External MUX Channels 
1  Auxiliary Channels 
5000  Waveform (CCF) Frequency (Hz)
1  Waveforms Skipped 
30  Waveforms Averaged 
1  Cycles Averaged 
16  Acquisitions per Waveform 
10.0806  Updata Rate (Hz) 

#FILE INFORMATION
TRUE -- External MUX Channel results are PARSED.
FALSE -- AC DC and Phase are NOT grouped.
TRUE -- Companion Program Settings File CREATED.
FALSE -- AC data not excluded
FALSE -- DC data not excluded
FALSE -- Phase data not excluded
FALSE -- Auxillary Chn. data not excluded
Tab delimiters

#CALIBRATION STATE
TRUE -- Waveform Calibration Values APPLIED.


#AUX CALIBRATION VALUES
Val Type	aux-1	

Term	1.0000e+00	
Factor	0.0000e+00	


#WF CALIBRATION VALUES
A = Detector Channel
Val Type	A-AC1	A-AC2	A-AC3	A-AC4	A-AC5	A-AC6	A-AC7	A-AC8	A-AC9	A-AC10	A-AC11	A-AC12	A-AC13	A-AC14	A-AC15	A-AC16	A-DC1	A-DC2	A-DC3	A-DC4	A-DC5	A-DC6	A-DC7	A-DC8	A-DC9	A-DC10	A-DC11	A-DC12	A-DC13	A-DC14	A-DC15	A-DC16	A-Ph1	A-Ph2	A-Ph3	A-Ph4	A-Ph5	A-Ph6	A-Ph7	A-Ph8	A-Ph9	A-Ph10	A-Ph11	A-Ph12	A-Ph13	A-Ph14	A-Ph15	A-Ph16	

Term	0.00000e+00	0.00000e+00	0.00000e+00	0.00000e+00	0.00000e+00	0.00000e+00	0.00000e+00	0.00000e+00	0.00000e+00	0.00000e+00	0.00000e+00	0.00000e+00	0.00000e+00	0.00000e+00	0.00000e+00	0.00000e+00	0.00000e+00	0.00000e+00	0.00000e+00	0.00000e+00	0.00000e+00	0.00000e+00	0.00000e+00	0.00000e+00	0.00000e+00	0.00000e+00	0.00000e+00	0.00000e+00	0.00000e+00	0.00000e+00	0.00000e+00	0.00000e+00	0.00000e+00	0.00000e+00	0.00000e+00	0.00000e+00	0.00000e+00	0.00000e+00	0.00000e+00	0.00000e+00	0.00000e+00	0.00000e+00	0.00000e+00	0.00000e+00	0.00000e+00	0.00000e+00	0.00000e+00	0.00000e+00	
Factor	1.00000e+00	1.00000e+00	1.00000e+00	1.00000e+00	1.00000e+00	1.00000e+00	1.00000e+00	1.00000e+00	1.00000e+00	1.00000e+00	1.00000e+00	1.00000e+00	1.00000e+00	1.00000e+00	1.00000e+00	1.00000e+00	1.00000e+00	1.00000e+00	1.00000e+00	1.00000e+00	1.00000e+00	1.00000e+00	1.00000e+00	1.00000e+00	1.00000e+00	1.00000e+00	1.00000e+00	1.00000e+00	1.00000e+00	1.00000e+00	1.00000e+00	1.00000e+00	X	X	X	X	X	X	X	X	X	X	X	X	X	X	X	X	

B = Detector Channel
Val Type	B-AC1	B-AC2	B-AC3	B-AC4	B-AC5	B-AC6	B-AC7	B-AC8	B-AC9	B-AC10	B-AC11	B-AC12	B-AC13	B-AC14	B-AC15	B-AC16	B-DC1	B-DC2	B-DC3	B-DC4	B-DC5	B-DC6	B-DC7	B-DC8	B-DC9	B-DC10	B-DC11	B-DC12	B-DC13	B-DC14	B-DC15	B-DC16	B-Ph1	B-Ph2	B-Ph3	B-Ph4	B-Ph5	B-Ph6	B-Ph7	B-Ph8	B-Ph9	B-Ph10	B-Ph11	B-Ph12	B-Ph13	B-Ph14	B-Ph15	B-Ph16	

Term	0.00000e+00	0.00000e+00	0.00000e+00	0.00000e+00	0.00000e+00	0.00000e+00	0.00000e+00	0.00000e+00	0.00000e+00	0.00000e+00	0.00000e+00	0.00000e+00	0.00000e+00	0.00000e+00	0.00000e+00	0.00000e+00	0.00000e+00	0.00000e+00	0.00000e+00	0.00000e+00	0.00000e+00	0.00000e+00	0.00000e+00	0.00000e+00	0.00000e+00	0.00000e+00	0.00000e+00	0.00000e+00	0.00000e+00	0.00000e+00	0.00000e+00	0.00000e+00	-1.50301e+02	-1.43373e+02	-1.49792e+02	-1.82306e+02	-7.93885e+01	-7.58284e+01	-1.59027e+02	-1.62015e+02	-9.78180e+01	-8.34192e+01	-1.70563e+02	-1.71693e+02	-1.81003e+02	-1.76539e+02	-7.99657e+01	-1.49547e+02	
Factor	2.19586e-05	8.39436e-05	3.41424e-05	1.49821e-01	8.35295e-07	9.81461e-07	1.65141e-01	4.79080e-02	1.03987e-06	1.07697e-06	8.44516e-02	2.96454e-02	2.29630e-02	8.60919e-03	9.99734e-07	1.26421e-02	8.08318e-07	8.29617e-07	2.31217e-07	7.45948e-02	9.07046e-09	9.09328e-09	7.73629e-02	2.38309e-02	9.06268e-09	9.06799e-09	3.98886e-02	1.40138e-02	1.13350e-02	4.22160e-03	9.04165e-09	5.95415e-03	X	X	X	X	X	X	X	X	X	X	X	X	X	X	X	X	



#DISTANCE SETTINGS
A = Detector Channel
A-1	A-2	A-3	A-4	A-5	A-6	A-7	A-8	A-9	A-10	A-11	A-12	A-13	A-14	A-15	A-16	

2.5000e+00	3.0000e+00	2.5000e+00	3.0000e+00	2.0000e+00	3.0000e+00	1.5000e+00	3.0000e+00	3.0000e+00	3.0000e+00	3.0000e+00	3.0000e+00	3.0000e+00	3.0000e+00	1.5000e+00	3.0000e+00	

B = Detector Channel
B-1	B-2	B-3	B-4	B-5	B-6	B-7	B-8	B-9	B-10	B-11	B-12	B-13	B-14	B-15	B-16	

1.0000e+01	1.0000e+01	1.0000e+01	1.4400e+00	1.0000e+01	1.0000e+01	1.5100e+00	1.9400e+00	1.0000e+01	1.0000e+01	1.9900e+00	2.4900e+00	2.4100e+00	2.9000e+00	1.0000e+01	2.9800e+00	




#DATA BEGINS
time	group	step	mark	flag	A-AC1	A-AC2	A-AC3	A-AC4	A-AC5	A-AC6	A-AC7	A-AC8	A-AC9	A-AC10	A-AC11	A-AC12	A-AC13	A-AC14	A-AC15	A-AC16	A-DC1	A-DC2	A-DC3	A-DC4	A-DC5	A-DC6	A-DC7	A-DC8	A-DC9	A-DC10	A-DC11	A-DC12	A-DC13	A-DC14	A-DC15	A-DC16	A-Ph1	A-Ph2	A-Ph3	A-Ph4	A-Ph5	A-Ph6	A-Ph7	A-Ph8	A-Ph9	A-Ph10	A-Ph11	A-Ph12	A-Ph13	A-Ph14	A-Ph15	A-Ph16	B-AC1	B-AC2	B-AC3	B-AC4	B-AC5	B-AC6	B-AC7	B-AC8	B-AC9	B-AC10	B-AC11	B-AC12	B-AC13	B-AC14	B-AC15	B-AC16	B-DC1	B-DC2	B-DC3	B-DC4	B-DC5	B-DC6	B-DC7	B-DC8	B-DC9	B-DC10	B-DC11	B-DC12	B-DC13	B-DC14	B-DC15	B-DC16	B-Ph1	B-Ph2	B-Ph3	B-Ph4	B-Ph5	B-Ph6	B-Ph7	B-Ph8	B-Ph9	B-Ph10	B-Ph11	B-Ph12	B-Ph13	B-Ph14	B-Ph15	B-Ph16	aux-1	digaux	

715.914	1	1	0	256	0.31077	0.081004	0.093386	0.061935	0.10588	0.16793	0.30544	0.13462	0.2544	0.1605	0.16873	0.091148	0.11263	0.16508	0.21057	0.17474	-1.8083	-2.1813	-2.55	-2.3208	-2.3937	-2.4979	-2.5104	-2.4917	-2.4375	-2.2333	-2.5979	-2.1667	-2.5875	-2.5812	-2.2875	-2.4667	336.912	457.524	163.422	379.039	346.030	275.605	484.112	486.226	462.686	342.766	489.047	441.546	272.196	335.313	500.203	159.186	0.00037115	0.00038576	6.616e-05	1093.7	2.6122e-06	7.7874e-07	1191	224.8	4.6706e-06	4.8402e-06	280.83	80.675	63.57	18.334	2.2304e-06	25.258	0.00040333	0.00040794	0.00011288	1082.8	4.45e-06	4.5015e-06	1173.3	225.11	4.4387e-06	4.4182e-06	282.43	82.356	65.234	19.472	4.3644e-06	26.829	179.319	494.770	489.100	152.845	338.630	278.389	152.555	160.457	315.895	237.473	159.633	166.356	166.143	174.823	345.093	173.547	-8191	255	
716.010	1	1	0	0	0.14523	0.046248	0.04601	0.17884	0.21023	0.16551	0.11267	0.13807	0.20524	0.11106	0.22884	0.11303	0.10424	0.27059	0.19851	0.14718	-1.9062	-2.1625	-2.4958	-2.3354	-2.3479	-2.6	-2.2562	-2.5896	-2.3542	-2.2438	-2.5062	-2.45	-2.2833	-2.4542	-2.0458	-2.5646	179.668	306.149	410.256	154.514	389.468	399.840	272.066	501.959	486.481	425.417	485.630	361.157	194.532	481.478	414.273	441.323	0.00032126	0.00040991	0.00020124	1094.3	3.4435e-06	2.3294e-06	1191.8	223.49	2.1752e-06	2.1026e-06	281.04	80.809	63.171	18.239	2.1597e-06	25.158	0.00039434	0.00039252	0.00010897	1078.6	4.2251e-06	4.1552e-06	1169.6	223.64	4.1257e-06	4.0623e-06	281.35	81.862	64.7	19.278	4.0771e-06	26.629	192.962	176.816	170.445	152.737	304.994	264.413	152.759	160.284	367.444	295.551	159.784	165.928	166.480	175.106	490.667	173.521	-8191	255	
716.104	1	1	0	0	0.034478	0.26099	0.16024	0.30452	0.071405	0.32526	0.25177	0.063905	0.070179	0.16195	0.15519	0.14253	0.15154	0.13082	0.062256	0.0010827	-2.0583	-2.0833	-2.5292	-2.5229	-2.0438	-2.6833	-2.3333	-2.2917	-2.4792	-2.0417	-2.4646	-2.4021	-2.0125	-2.6042	-1.9813	-2.2458	202.936	232.388	493.230	491.588	474.258	211.973	438.266	311.736	435.550	468.467	406.045	214.879	391.786	480.425	452.455	180.000	0.00038	0.00044874	4.9999e-05	1086.5	4.2748e-06	5.4959e-06	1188.3	224.23	3.3146e-06	4.5243e-06	280.53	80.726	63.568	18.185	2.947e-06	25.285	0.00037126	0.0003801	0.00010541	1073.4	4.1113e-06	4.1233e-06	1166.2	224.13	4.0325e-06	3.9844e-06	280.69	81.819	64.634	19.218	3.9988e-06	26.622	171.119	356.629	250.973	152.728	312.143	312.864	152.613	160.335	162.907	338.231	160.031	166.370	166.405	174.998	300.168	174.004	-8191	255	
716.200	1	1	0	0	0.12803	0.18461	0.1519	0.19858	0.16988	0.12223	0.27301	0.25357	0.13342	0.14382	0.09857	0.23422	0.2071	0.50012	0.13362	0.19167	-2.1396	-1.9917	-2.5	-2.3583	-2.3271	-2.7521	-2.3958	-2.3688	-2.4125	-2.2167	-2.5042	-2.5229	-2.275	-2.5854	-2.0271	-2.4271	425.905	220.883	183.693	148.693	408.505	378.187	380.099	433.521	187.306	391.905	147.841	401.396	312.300	411.105	364.607	433.126	0.00044036	0.00036713	0.00016732	1092.4	2.0481e-06	4.0615e-06	1189.1	225.36	4.3005e-06	6.0192e-06	281.38	80.788	63.352	18.324	4.1348e-06	25.444	0.0003688	0.00037424	0.0001031	1072.9	4.1646e-06	4.1415e-06	1166.5	224.57	4.1578e-06	4.1503e-06	281.87	82.077	64.759	19.298	4.0871e-06	26.633	168.526	492.818	196.271	152.948	144.333	193.393	152.516	160.174	294.174	284.627	159.930	166.325	166.847	174.744	344.529	173.698	-8191	255	
716.321	1	1	0	0	0.14738	0.16677	0.16063	0.057302	0.20427	0.11087	0.19268	0.27213	0.21891	0.094761	0.079592	0.2405	0.18103	0.26911	0.2199	0.22958	-2.1083	-2.1	-2.4292	-2.6271	-2.1188	-2.6271	-2.4729	-2.2833	-2.4646	-2.2479	-2.5146	-2.5021	-2.2583	-2.5458	-2.2	-2.3792	235.092	441.327	299.182	491.460	248.884	284.625	438.824	437.546	336.862	494.482	496.266	427.521	235.414	219.854	464.815	296.129	0.00032591	0.00065765	7.131e-05	1089.5	2.8511e-06	3.8465e-06	1189.4	223.14	2.1909e-06	2.8949e-06	282.47	80.912	63.265	18.359	6.5539e-06	25.447	0.00037382	0.00037715	0.00010575	1073.9	4.1846e-06	4.1886e-06	1167.7	224.27	4.1804e-06	4.1477e-06	281.65	82.146	64.735	19.279	4.1047e-06	26.666	164.950	175.922	226.905	152.886	236.787	276.632	152.698	160.275	383.520	217.113	160.107	166.103	166.257	174.928	324.168	174.117	-8191	255	
716.417	1	1	0	0	0.24527	0.12322	0.16218	0.41308	0.078672	0.20513	0.13741	0.28886	0.088531	0.10161	0.10162	0.17408	0.22886	0.35302	0.063297	0.39327	-2.0333	-2.1958	-2.5125	-2.5292	-2.3354	-2.4229	-2.4354	-2.5479	-2.5729	-2.4333	-2.5938	-2.2917	-2.1688	-2.4708	-2.3625	-2.3854	250.798	482.312	300.221	433.633	406.821	166.228	500.033	162.934	371.801	387.093	235.703	205.838	213.566	442.196	263.966	434.378	0.00034559	0.00029661	0.00014394	1094.6	1.14e-06	3.3624e-06	1187.3	223.57	3.5165e-06	3.8157e-06	280.39	80.387	63.308	18.384	2.1736e-06	25.439	0.00037336	0.00037889	0.00010489	1075.4	4.1567e-06	4.1392e-06	1166.9	223.95	4.1839e-06	4.1524e-06	281.97	81.866	64.758	19.348	4.1542e-06	26.771	170.657	297.307	224.006	152.953	362.521	373.223	152.569	160.189	210.809	230.320	159.666	166.415	166.452	174.400	213.136	173.738	-8191	255	
716.513	1	1	0	0	0.27968	0.14789	0.21922	0.16115	0.12002	0.21287	0.30185	0.23812	0.2936	0.052823	0.18092	0.051131	0.38265	0.10786	0.080146	0.22017	-2.2812	-2.2625	-2.5896	-2.3604	-2.2812	-2.6188	-2.3771	-2.2771	-2.7354	-2.2896	-2.5167	-2.5833	-2.0563	-2.5125	-2.5812	-2.0479	345.924	352.974	477.961	472.178	435.527	310.006	385.397	435.815	346.512	155.542	493.841	480.108	150.927	179.763	344.948	384.175	0.0003185	0.0004938	3.6759e-05	1092.1	1.5706e-06	3.795e-06	1187.2	223.67	8.9026e-06	4.188e-06	280.7	81.236	63.493	18.46	1.0208e-06	25.247	0.00037911	0.00038069	0.00010506	1077.8	4.1178e-06	4.1076e-06	1165.4	223.86	4.0573e-06	3.9969e-06	280.5	81.866	64.508	19.254	3.9543e-06	26.522	171.582	226.872	253.026	152.919	172.320	229.804	152.792	160.349	246.646	203.518	160.371	165.967	166.397	174.499	161.073	173.646	-8191	255	
716.609	1	1	0	0	0.044452	0.061978	0.16256	0.27317	0.12249	0.16757	0.27971	0.13941	0.098101	0.4172	0.26957	0.20189	0.16692	0.1141	0.29935	0.1658	-2.0062	-2.2812	-2.2687	-2.7854	-2.2562	-2.4417	-2.6833	-2.2958	-2.4229	-2.2646	-2.4583	-2.725	-2.2375	-2.4833	-2.3958	-2.3042	191.410	181.122	318.596	423.755	498.148	454.591	439.705	285.040	312.048	351.269	380.839	491.776	431.812	327.688	409.725	409.571	0.00037625	0.00017455	5.5226e-05	1094.2	9.3096e-06	4.6333e-06	1184.7	224.09	3.0321e-06	4.5695e-06	280.87	81.345	63.469	18.257	8.5505e-07	25.271	0.00036539	0.00036572	0.00010189	1073.3	4.0031e-06	4.0161e-06	1164.8	224.11	4.0386e-06	4.035e-06	280.8	82.251	64.702	19.2	4.0047e-06	26.532	168.453	277.365	330.516	152.994	257.858	305.915	152.847	160.400	236.022	287.524	159.883	166.262	166.673	174.683	298.052	173.888	-8191	255	
716.681	1	1	0	0	0.11106	0.18081	0.081801	0.28893	0.15169	0.16106	0.10192	0.5245	0.26033	0.13534	0.15063	0.084886	0.19502	0.061415	0.14553	0.15796	-2.0708	-2.3292	-2.2292	-2.6125	-2.2375	-2.4021	-2.6167	-2.3229	-2.5	-2.4938	-2.2896	-2.5833	-2.3208	-2.3021	-2.5208	-2.1271	248.167	205.910	312.613	469.194	420.913	415.790	278.089	451.900	389.882	474.252	380.337	349.581	421.182	427.055	470.961	479.747	0.00042912	0.00026909	0.00010841	1088.7	3.7308e-06	7.3592e-06	1183.4	224.8	3.0191e-06	3.9372e-06	278.62	80.843	63.416	18.395	2.6133e-06	25.582	0.00035925	0.00035828	9.9352e-05	1071.8	3.8983e-06	3.8866e-06	1162.8	223.35	3.8293e-06	3.8352e-06	279.6	81.469	64.36	19.133	3.7401e-06	26.469	166.909	223.328	247.104	152.868	260.603	452.291	152.729	160.450	317.368	345.225	160.066	166.155	166.560	174.705	275.535	173.744	-8191	255	
716.802	1	1	0	0	0.090036	0.36616	0.30945	0.26738	0.058823	0.023856	0.081893	0.042055	0.18102	0.25777	0.32051	0.15546	0.14909	0.21364	0.12308	0.16606	-2.0979	-2.3521	-2.0292	-2.7021	-2.3417	-2.1854	-2.5771	-2.2104	-2.4479	-2.4292	-2.1333	-2.5771	-2.2625	-2.2729	-2.6104	-2.3708	349.161	397.725	451.278	447.997	224.488	400.218	443.840	418.460	392.182	391.589	394.501	267.143	176.626	387.750	469.941	175.697	0.00041901	0.00048889	0.0001784	1090.1	1.3652e-06	1.2222e-06	1183.6	223.54	4.5471e-06	4.261e-06	280.32	80.387	63.087	18.296	2.5035e-06	25.389	0.00034022	0.00033729	9.4984e-05	1068.2	3.6799e-06	3.6692e-06	1157.8	222.2	3.665e-06	3.6055e-06	278.31	81.012	63.917	19.036	3.5513e-06	26.27	163.591	205.879	191.898	152.985	244.408	339.160	152.728	160.113	290.734	151.719	159.789	166.298	166.904	174.669	159.199	173.728	-8191	255	
716.898	1	1	0	0	0.31624	0.25344	0.12393	0.069148	0.085092	0.11376	0.1608	0.19475	0.10804	0.10094	0.035139	0.12623	0.1323	0.21774	0.19638	0.081392	-2.0646	-2.4479	-2.2354	-2.75	-2.3104	-2.2792	-2.7771	-2.3271	-2.3812	-2.5687	-2.1792	-2.5479	-2.225	-2.3083	-2.4708	-2.2083	206.593	153.980	167.339	356.836	202.439	413.340	195.397	435.338	320.804	359.668	225.110	148.044	305.935	444.814	256.531	332.662	0.00037259	0.00030212	7.8546e-05	1081.4	1.1597e-07	5.4974e-06	1177.5	224.64	1.5685e-06	4.5684e-06	279.65	80.043	63.198	18.131	2.6514e-06	25.077	0.00032548	0.00032153	8.9431e-05	1062.3	3.5417e-06	3.5148e-06	1154.5	222.6	3.5667e-06	3.5504e-06	277.52	80.671	63.994	18.901	3.5135e-06	26.182	184.748	473.079	496.403	153.076	241.963	316.650	152.733	160.404	259.841	481.775	160.107	166.346	166.534	174.581	339.744	174.003	-8191	255	
716.994	1	1	0	0	0.10648	0.22117	0.17104	0.30309	0.16276	0.25148	0.23668	0.17425	0.12715	0.12962	0.35938	0.17168	0.1183	0.20849	0.22612	0.39464	-1.7646	-2.475	-2.0125	-2.6396	-2.35	-2.3583	-2.8271	-2.2375	-2.3146	-2.6813	-2.0396	-2.6562	-2.3688	-2.3521	-2.5875	-2.35	457.429	475.106	185.422	411.382	371.311	219.806	404.542	463.800	267.797	221.225	154.849	459.363	147.788	459.263	248.155	412.022	0.00036219	0.00053853	0.00019129	1080.1	2.0299e-06	7.6344e-07	1178.9	223.68	7.2247e-07	7.8087e-07	277.8	80.352	63.533	18.261	2.9736e-06	25.373	0.00032276	0.00032168	9.047e-05	1063	3.5407e-06	3.5034e-06	1152.9	221.82	3.476e-06	3.4994e-06	276.74	80.629	63.65	18.876	3.4184e-06	26.141	177.931	170.207	178.780	152.760	253.864	462.995	152.535	160.413	393.061	357.350	160.388	166.349	166.620	174.484	339.078	174.374	-8191	255	
717.090	1	1	0	0	0.19138	0.12056	0.2122	0.32441	0.090993	0.081221	0.39803	0.28752	0.36952	0.11118	0.12153	0.12338	0.29713	0.069652	0.146	0.29396	-1.8021	-2.5563	-1.925	-2.6083	-2.4125	-2.2604	-2.6125	-2.2708	-2.1854	-2.7188	-2.1167	-2.3187	-2.3229	-2.1479	-2.4875	-1.9875	242.961	442.997	181.549	470.490	227.612	328.868	162.765	451.563	185.624	231.900	144.005	496.042	159.723	147.144	427.642	417.787	0.00034349	0.00058094	0.00010334	1083.3	5.4009e-06	1.9538e-06	1172.7	223.75	8.7728e-06	3.1107e-06	279.16	79.713	63.072	18.215	2.8966e-06	25.27	0.00031405	0.00031626	8.8506e-05	1060.7	3.49e-06	3.4789e-06	1149.6	221.36	3.4621e-06	3.407e-06	276.16	80.201	63.624	18.813	3.2919e-06	26.01	182.231	194.517	303.256	153.018	250.019	340.264	152.736	160.608	269.048	199.348	159.927	166.006	167.366	174.835	257.728	173.710	-8191	255	
717.209	1	1	0	0	0.072476	0.06846	0.10512	0.22024	0.13102	0.18299	0.35018	0.22378	0.11191	0.094291	0.099095	0.08713	0.15242	0.1393	0.22097	0.045642	-1.7	-2.5729	-2.1354	-2.4562	-2.4625	-2.3229	-2.6792	-2.6188	-2.375	-2.5292	-2.4229	-2.3937	-2.3917	-2.0521	-2.3187	-2.4437	265.705	306.222	371.022	474.471	469.328	216.201	481.437	478.303	240.313	292.036	449.977	488.812	198.707	424.882	377.395	242.715	0.00033313	5.831e-05	7.0431e-05	1076.6	1.446e-06	2.2377e-06	1169.1	222.89	4.8304e-06	3.3571e-06	277.81	79.683	63.136	18.195	3.3994e-06	25.239	0.00030105	0.00029813	8.3945e-05	1054.8	3.2817e-06	3.2939e-06	1145.1	220.38	3.2939e-06	3.275e-06	275.77	79.966	63.321	18.818	3.2739e-06	25.963	176.811	276.627	264.889	153.005	297.510	358.788	153.053	160.538	289.284	371.927	160.166	166.298	166.803	174.719	200.603	173.677	-8191	255	
717.282	1	1	0	0	0.15741	0.34761	0.11711	0.29219	0.11572	0.17946	0.32714	0.2206	0.21078	0.17878	0.38405	0.18768	0.097863	0.14538	0.29117	0.22778	-1.7604	-2.3979	-2.3312	-2.3688	-2.5917	-2.1583	-2.4917	-2.7125	-2.35	-2.5104	-2.2917	-2.1917	-2.6	-2.0521	-2.4625	-2.5833	286.789	299.132	211.088	440.471	357.815	195.404	150.842	470.382	233.057	320.373	443.944	496.780	272.247	204.395	347.031	228.163	0.00028601	0.0003862	0.00015429	1077.6	3.7075e-06	3.0188e-06	1168.3	222.78	3.0472e-06	4.6311e-06	281.11	80.043	62.698	18.31	6.7903e-06	25.344	0.00030346	0.00030515	8.4955e-05	1054.5	3.3006e-06	3.3377e-06	1143.8	220.38	3.2943e-06	3.2697e-06	275.89	80.005	63.219	18.797	3.2527e-06	26.013	172.667	366.554	241.016	152.987	486.355	296.430	152.592	160.111	292.374	291.477	160.010	166.241	166.734	174.424	259.463	173.812	-8191	255	
717.401	1	1	0	0	0.22264	0.25999	0.070677	0.23131	0.28447	0.099931	0.16209	0.14155	0.16015	0.22629	0.040516	0.20771	0.24376	0.14725	0.22846	0.31466	-1.6667	-2.4875	-2.3271	-2.4396	-2.6646	-2.1833	-2.5458	-2.6	-2.1813	-2.4604	-2.5271	-2.3875	-2.5396	-2.2458	-2.5958	-2.4417	251.766	286.251	379.536	408.750	256.867	382.853	457.905	178.785	434.426	210.946	180.473	387.248	370.323	321.064	225.001	454.486	0.00039059	0.00047906	8.601e-05	1077.6	1.7907e-06	2.6759e-06	1170.1	221.96	3.7876e-06	5.7505e-06	278.89	79.847	62.745	18.377	5.2341e-06	25.457	0.00029745	0.00029826	8.257e-05	1053.5	3.2361e-06	3.2537e-06	1143.4	219.63	3.2883e-06	3.2654e-06	275.48	79.984	63.176	18.825	3.2486e-06	26.084	180.283	306.495	445.496	153.160	430.014	274.539	152.690	160.532	205.441	277.418	160.129	166.018	166.716	174.770	276.767	173.988	-8191	255	
717.498	1	1	0	0	0.22425	0.19625	0.45576	0.064163	0.26622	0.13253	0.3459	0.0399	0.2295	0.078632	0.21143	0.10641	0.10254	0.092976	0.064196	0.14874	-1.7021	-2.4396	-2.2354	-2.5312	-2.6	-2.1271	-2.7396	-2.4167	-2.1437	-2.5146	-2.4958	-2.3792	-2.5583	-2.3688	-2.3021	-2.4604	369.543	287.692	406.119	371.825	234.363	430.064	419.658	200.114	252.386	246.849	337.804	377.719	292.127	423.333	165.427	405.664	0.00032668	0.00036047	0.00012791	1075.3	3.0384e-06	6.8566e-06	1167.5	222.24	3.9973e-06	3.2827e-06	278.67	79.514	63.166	18.445	4.908e-06	25.23	0.00030071	0.00029334	8.3184e-05	1052.1	3.2257e-06	3.1778e-06	1142.8	219.46	3.1187e-06	3.0846e-06	273.98	79.638	63.132	18.783	3.0855e-06	25.796	162.562	228.596	489.350	153.086	146.312	292.375	152.883	160.325	173.126	242.976	160.132	165.912	166.722	175.024	233.740	173.967	-8191	255	
717.594	1	1	0	0	0.075318	0.20584	0.12613	0.18892	0.31792	0.077323	0.32089	0.18926	0.28979	0.027354	0.15464	0.17457	0.099475	0.2362	0.082466	0.34469	-1.5833	-2.4313	-2.4313	-2.2354	-2.5687	-2.3604	-2.5938	-2.5917	-2.1042	-2.3875	-2.6042	-2.2188	-2.7208	-2.525	-2.3042	-2.6979	359.832	411.314	408.735	380.358	277.916	478.976	379.280	360.116	323.941	272.485	480.507	143.925	250.880	399.146	222.225	403.220	0.00026983	0.00022957	0.00020832	1073.4	3.9457e-06	2.5646e-06	1165.2	221.2	6.2779e-06	3.5556e-06	278.1	79.607	63.116	18.289	3.7887e-06	25.414	0.00028589	0.00028196	7.812e-05	1048.5	3.0888e-06	3.0749e-06	1137.9	218.7	3.1218e-06	3.0921e-06	273.91	79.549	62.955	18.666	3.0275e-06	25.792	156.606	451.039	313.439	153.074	317.123	215.115	152.829	160.205	230.171	366.009	159.798	166.399	166.981	174.658	256.296	173.801	-8191	255	
717.690	1	1	0	0	0.02817	0.16097	0.20458	0.37536	0.2602	0.089393	0.15881	0.14046	0.1791	0.11805	0.18261	0.29899	0.095407	0.075136	0.11733	0.23948	-1.6063	-2.3375	-2.2979	-2.2125	-2.4792	-2.4417	-2.3083	-2.6396	-2.1729	-2.5625	-2.6562	-2.1917	-2.6604	-2.3667	-2.2667	-2.5729	333.242	397.795	375.853	477.822	415.253	364.352	480.415	429.872	360.450	459.871	418.993	353.145	213.281	384.803	307.809	147.964	0.00039671	0.00026929	0.00010649	1072.8	1.562e-06	3.8764e-06	1167.4	221	2.2006e-06	5.017e-06	276.98	80.187	62.505	18.003	4.1379e-06	25.355	0.00027968	0.00027528	7.6924e-05	1046.3	3.0095e-06	3.0467e-06	1136.3	218.36	2.9941e-06	3.0087e-06	272.58	79.32	62.705	18.551	2.9999e-06	25.815	154.479	244.596	164.685	153.118	209.811	245.635	152.585	160.624	189.302	279.303	160.147	166.139	166.516	174.981	325.542	174.049	-8191	255	
717.810	1	1	0	0	0.33554	0.19737	0.19335	0.088258	0.19932	0.099415	0.30811	0.26556	0.32525	0.4158	0.26409	0.26863	0.17446	0.10879	0.022884	0.1208	-1.8146	-2.275	-2.5521	-2.2104	-2.4854	-2.5	-2.1958	-2.625	-2.1458	-2.4875	-2.6458	-2.2292	-2.525	-2.5771	-1.8729	-2.675	332.176	248.658	291.800	465.970	270.367	456.848	416.582	407.281	233.960	152.838	196.620	201.422	180.829	407.000	195.688	143.502	0.00039894	0.00034794	0.00016828	1074.3	4.187e-06	2.5921e-06	1162.8	220.68	2.7341e-06	6.246e-06	276.43	79.133	62.872	18.077	5.8432e-06	25.182	0.00027617	0.00027137	7.5819e-05	1044.5	2.977e-06	2.9909e-06	1134.9	218.2	2.9801e-06	2.9628e-06	271.65	78.961	62.675	18.565	2.9768e-06	25.655	169.765	461.727	161.587	153.074	252.974	304.220	152.752	160.437	244.138	246.765	160.163	166.580	167.071	174.908	359.771	173.933	-8191	255	
717.882	1	1	0	0	0.15136	0.24788	0.14812	0.14901	0.23894	0.068736	0.24155	0.22505	0.08533	0.12352	0.033438	0.19515	0.10297	0.15425	0.14044	0.24788	-1.7375	-2.3063	-2.5375	-2.3312	-2.6167	-2.5938	-2.5583	-2.6312	-2.3417	-2.2104	-2.7917	-2.2313	-2.4042	-2.5271	-2.1708	-2.5667	407.722	490.357	493.908	236.954	462.280	346.165	444.865	452.080	209.634	351.971	482.806	396.038	313.189	448.033	345.574	358.899	0.0003179	0.00021058	6.5584e-05	1070.1	2.56e-06	2.5356e-06	1162.8	220.6	2.765e-06	2.2692e-06	275.41	79.029	62.151	18.073	2.6505e-06	25.093	0.0002699	0.00026719	7.4246e-05	1043.1	2.9168e-06	2.903e-06	1134.3	217.48	2.8531e-06	2.7884e-06	270.71	78.707	62.2	18.425	2.8006e-06	25.45	178.637	456.303	156.782	152.931	301.645	346.535	152.955	160.409	408.958	154.710	160.295	166.470	166.534	174.668	240.239	173.578	-8191	255	
718.003	1	1	0	0	0.17307	0.29055	0.14805	0.38717	0.26685	0.24596	0.45214	0.29974	0.1167	0.19027	0.3272	0.3722	0.1285	0.18679	0.087571	0.015928	-1.8104	-2.2042	-2.6792	-2.575	-2.2146	-2.5375	-2.1937	-2.4021	-2.3688	-2.3917	-2.6063	-2.1542	-2.3688	-2.6583	-2.0479	-2.5	488.920	407.585	170.304	439.210	356.445	374.864	480.555	381.723	427.884	409.325	453.370	471.037	241.502	333.005	267.450	466.051	0.0003734	0.000266	0.00011784	1068.1	6.9356e-06	1.6531e-06	1162.7	220.09	3.722e-06	3.4614e-06	275.68	79.021	62.546	18.029	3.4056e-06	25.173	0.00025505	0.00025273	7.0544e-05	1037.9	2.748e-06	2.724e-06	1129	216.79	2.6957e-06	2.7301e-06	270.52	78.483	62.109	18.367	2.7395e-06	25.468	175.031	316.323	241.895	153.154	258.367	208.933	153.059	160.268	248.623	245.307	159.644	166.591	166.927	175.023	383.010	173.930	-8191	255	
718.099	1	1	0	0	0.17986	0.059199	0.056376	0.17032	0.1956	0.30636	0.13239	0.17528	0.22815	0.085345	0.19836	0.14173	0.24936	0.25097	0.090609	0.020144	-1.8479	-1.975	-2.425	-2.2958	-2.4562	-2.5729	-2.5312	-2.5083	-2.3396	-2.1562	-2.6354	-2.3063	-2.5146	-2.5812	-2.15	-2.3833	224.726	402.853	418.333	441.400	262.170	410.383	235.538	442.522	263.240	375.812	368.401	362.673	268.682	166.044	142.786	299.825	0.0002756	0.00011389	0.00011939	1066.7	1.7948e-06	3.2084e-06	1157.6	219.86	2.3767e-06	1.3997e-06	276.33	78.853	62.475	18.034	4.5654e-06	24.959	0.0002543	0.00025073	7.026e-05	1038.4	2.7903e-06	2.7546e-06	1126.4	216.44	2.7356e-06	2.7892e-06	270.29	78.47	61.999	18.378	2.742e-06	25.452	177.780	284.566	291.284	152.927	254.771	317.849	152.604	160.530	162.253	392.351	159.896	166.451	166.937	174.588	238.155	174.176	-8191	255	
718.193	1	1	0	0	0.13437	0.09031	0.2279	0.013923	0.20291	0.25847	0.054	0.23127	0.1525	0.21244	0.1136	0.23818	0.14433	0.20112	0.16236	0.040507	-1.8062	-2.1813	-2.575	-2.4729	-2.3125	-2.5854	-2.3771	-2.4333	-2.5479	-2.2875	-2.6688	-2.3458	-2.2667	-2.6917	-2.4208	-2.4771	231.112	217.779	195.071	410.562	201.645	337.856	497.859	147.001	396.305	242.730	402.001	283.359	277.269	412.621	146.822	259.431	0.00030914	0.00015473	0.00017579	1061	3.4364e-06	2.5459e-06	1161.1	220.87	7.3348e-07	4.015e-06	275.33	79.584	62.153	18.081	3.7984e-07	25.151	0.00025543	0.00025223	7.0068e-05	1035.3	2.7693e-06	2.8009e-06	1127.8	216.88	2.7442e-06	2.7519e-06	270.41	78.604	62.075	18.433	2.7359e-06	25.439	182.818	249.324	293.634	152.971	498.771	264.384	153.011	160.552	478.427	253.482	160.006	166.414	166.869	174.433	195.527	173.705	-8191	255	
718.289	1	1	0	0	0.24569	0.15596	0.19143	0.19398	0.084879	0.037716	0.086246	0.26478	0.10962	0.3484	0.13613	0.32209	0.23043	0.14318	0.16849	0.18062	-2.0875	-1.9583	-2.5167	-2.5	-2.1667	-2.55	-2.5646	-2.6375	-2.6	-2.2667	-2.5375	-2.5375	-2.2875	-2.6125	-2.2979	-2.1875	499.113	288.053	152.180	492.598	342.396	299.227	152.291	453.924	453.002	497.843	500.741	462.560	484.344	350.014	309.810	212.943	0.00027687	0.0002352	9.1396e-05	1063.7	6.0339e-06	4.991e-06	1152.2	219.14	2.1973e-06	3.4448e-06	276.6	79.599	62.058	18.066	2.9128e-06	25.127	0.00024872	0.00024918	6.9221e-05	1036.5	2.7234e-06	2.6948e-06	1125.8	216.11	2.7137e-06	2.7075e-06	270.04	78.422	61.9	18.347	2.6848e-06	25.438	148.813	321.011	162.798	152.895	295.298	334.926	152.916	160.394	189.678	359.897	160.095	166.421	166.677	174.501	260.342	173.891	-8191	255	
718.386	1	1	0	0	0.19799	0.049657	0.18922	0.21159	0.15264	0.20958	0.18739	0.058513	0.20463	0.28981	0.27876	0.052692	0.20442	0.18076	0.043442	0.018571	-2.0479	-2.2292	-2.4688	-2.5271	-2.1792	-2.4958	-2.3458	-2.4792	-2.4833	-2.2292	-2.5979	-2.4292	-2.2271	-2.4333	-2.3667	-2.4188	318.006	195.930	385.398	438.191	466.771	240.932	376.246	222.624	418.139	247.508	240.818	291.768	442.714	192.547	380.209	259.973	0.00030272	0.00028593	9.6247e-05	1062.5	4.9183e-06	4.1836e-06	1152.8	219.94	4.452e-06	6.9983e-06	274.82	79.029	62.484	18.112	3.7718e-06	25.13	0.00025155	0.00024807	6.9536e-05	1035	2.7556e-06	2.7536e-06	1124.5	216	2.7317e-06	2.7044e-06	269.9	78.371	61.969	18.357	2.723e-06	25.436	174.965	279.485	283.326	153.084	205.486	409.657	152.626	160.525	145.897	286.740	160.182	166.306	166.795	174.804	305.459	174.011	-8191	255	
718.506	1	1	0	0	0.13986	0.061956	0.1609	0.30418	0.24125	0.22033	0.039892	0.14402	0.11903	0.12392	0.090033	0.29778	0.11648	0.017318	0.2044	0.21239	-2.0958	-2.5042	-2.2667	-2.5604	-2.0375	-2.5521	-2.5917	-2.4479	-2.6042	-2.4021	-2.4708	-2.5208	-2.2125	-2.5083	-2.1937	-2.4667	267.923	157.559	174.856	407.745	271.232	250.148	456.586	434.531	462.435	148.067	481.922	397.020	181.088	482.992	453.648	416.494	0.00033604	0.00056685	0.0001025	1066.5	3.2278e-06	2.906e-06	1154.6	219.78	2.9147e-06	1.6065e-06	274.27	79.322	62.461	17.938	6.2191e-06	25.134	0.00024624	0.00024641	6.8803e-05	1035.4	2.7081e-06	2.7256e-06	1124.3	215.99	2.7399e-06	2.7598e-06	269.68	78.418	61.952	18.353	2.6935e-06	25.427	172.291	260.752	296.377	152.981	292.551	236.744	152.911	160.330	360.293	274.293	160.254	166.269	166.566	174.690	272.468	173.815	-8191	255	
718.578	1	1	0	0	0.20581	0.23034	0.15852	0.17126	0.21772	0.42456	0.23358	0.087235	0.17404	0.27944	0.22157	0.16788	0.18855	0.063572	0.14582	0.31038	-2.0417	-2.2896	-2.3958	-2.7438	-2.1562	-2.5646	-2.6479	-2.2083	-2.7146	-2.1125	-2.2917	-2.5771	-2.2042	-2.5104	-2.6667	-2.1854	251.159	446.032	458.376	425.288	430.342	297.354	184.852	360.424	409.843	434.683	421.510	473.266	355.657	260.224	381.532	343.654	0.00037289	0.00017157	0.00018516	1056.7	1.3216e-06	3.2052e-06	1152.4	220.16	3.4999e-06	1.6694e-06	274.42	79.363	62.091	18.068	3.2738e-06	24.899	0.00025131	0.00024836	6.9186e-05	1032.8	2.7197e-06	2.7145e-06	1122	215.91	2.718e-06	2.71e-06	269.89	78.377	61.86	18.318	2.693e-06	25.359	170.051	212.354	167.290	153.094	142.320	314.754	152.906	160.303	168.712	485.326	160.435	166.121	167.012	174.929	449.223	174.185	-8191	255	
718.674	1	1	0	0	0.28266	0.13613	0.18329	0.22781	0.18958	0.11722	0.089661	0.36817	0.10453	0.1404	0.15186	0.24835	0.15255	0.066716	0.11202	0.049074	-2.1083	-2.4042	-2.3312	-2.6896	-2.1771	-2.2083	-2.6479	-2.1688	-2.5125	-2.3333	-2.2854	-2.6562	-2.25	-2.3812	-2.5896	-2.1646	152.354	159.044	268.237	384.137	216.506	252.177	427.359	407.640	165.169	152.144	290.459	439.065	285.157	450.866	200.468	279.551	0.0003996	0.00052936	0.0002197	1058	2.5751e-06	1.5328e-06	1154.7	219.88	5.5064e-06	3.6471e-06	275.43	79.138	62	18.079	1.4327e-06	25.295	0.00024752	0.00024517	6.7398e-05	1031.8	2.6747e-06	2.6429e-06	1120.8	215.75	2.6684e-06	2.6403e-06	269.38	78.371	61.814	18.325	2.6049e-06	25.383	176.178	212.668	227.320	153.168	263.905	268.452	152.590	160.541	276.948	449.826	159.904	166.295	166.958	174.949	362.085	173.804	-8191	255	
718.770	1	1	0	0	0.17504	0.097839	0.2345	0.20085	0.10358	0.064197	0.18482	0.028913	0.19474	0.14644	0.1398	0.13933	0.20825	0.19556	0.07042	0.15091	-2.0563	-2.4188	-2.1042	-2.8375	-2.2542	-2.3292	-2.6646	-2.2104	-2.5146	-2.35	-2.1917	-2.7042	-2.3729	-2.4417	-2.6646	-2.0729	235.485	146.197	299.812	422.158	311.999	462.480	467.634	147.855	253.048	221.884	254.506	344.542	494.325	174.707	218.829	151.415	0.00036418	0.00018028	9.0113e-05	1055.8	1.882e-06	2.7786e-06	1149.4	219.39	4.0779e-06	5.2984e-06	276.37	78.667	62.307	18.033	1.9242e-06	24.865	0.00024445	0.00024342	6.7865e-05	1029.3	2.6869e-06	2.662e-06	1119	215.49	2.6624e-06	2.6728e-06	269.6	78.402	61.754	18.291	2.6345e-06	25.312	153.503	277.974	144.440	153.144	240.624	260.543	152.885	160.519	263.109	293.176	160.011	166.567	166.855	174.508	260.609	173.872	-8191	255	
718.891	1	1	0	0	0.13058	0.15012	0.31051	0.32763	0.28089	0.18508	0.28034	0.25686	0.1937	0.20247	0.21056	0.079055	0.11541	0.24366	0.14868	0.21558	-1.9896	-2.4542	-2.1104	-2.7792	-2.375	-2.4333	-2.6562	-2.4375	-2.4188	-2.3625	-2.45	-2.5062	-2.2125	-2.2313	-2.5333	-2.1271	264.090	202.914	231.681	445.181	187.686	395.071	395.115	443.453	434.849	449.873	470.821	307.047	209.847	186.542	326.301	182.118	0.00046239	0.00041468	0.00016058	1058.5	3.7612e-06	4.4253e-06	1152.1	219.03	4.8544e-06	4.2851e-06	274.65	79.181	62.252	18.003	4.933e-06	25.058	0.00024052	0.00023901	6.6479e-05	1030.4	2.6392e-06	2.622e-06	1120.9	215.47	2.6824e-06	2.6698e-06	268.96	78.339	61.852	18.321	2.662e-06	25.413	173.635	258.448	217.908	153.117	249.385	370.770	152.709	160.673	175.875	244.799	160.083	166.400	166.778	175.050	398.674	173.586	-8191	255	
718.987	1	1	0	0	0.16139	0.21416	0.086077	0.16687	0.37472	0.17601	0.22439	0.28466	0.13469	0.2065	0.18261	0.0797	0.26491	0.22328	0.20126	0.065181	-1.8729	-2.4708	-1.9396	-2.4542	-2.3083	-2.3125	-2.6562	-2.425	-2.4083	-2.4833	-2.2188	-2.5333	-2.4354	-2.0146	-2.5792	-2.1375	218.229	448.614	351.347	420.170	374.151	206.305	415.362	474.847	461.794	448.004	451.145	455.662	495.718	460.183	388.939	436.768	0.00029959	0.000228	0.00012285	1058.8	4.6076e-06	3.7135e-06	1151	218.11	5.1137e-07	3.8387e-06	275.12	79.093	61.861	18.105	3.6369e-06	24.997	0.00024773	0.00024354	6.8822e-05	1030.2	2.6621e-06	2.6664e-06	1118.3	215.29	2.6397e-06	2.6228e-06	268.96	78.225	61.641	18.365	2.6436e-06	25.335	159.261	210.264	210.084	153.259	221.608	306.364	152.991	160.439	227.513	227.592	160.086	166.235	166.926	174.956	329.066	173.748	-8191	255	
719.083	1	1	0	0	0.16233	0.03313	0.11781	0.21598	0.18422	0.23501	0.33934	0.093885	0.089615	0.088917	0.18889	0.0701	0.18355	0.12981	0.1517	0.27744	-1.8563	-2.4708	-2.0771	-2.6083	-2.4979	-2.1979	-2.7125	-2.3417	-2.2208	-2.6521	-2.2896	-2.675	-2.3625	-2.0542	-2.5458	-2.3583	243.615	386.524	425.608	184.586	267.400	366.490	420.296	206.232	465.194	314.765	346.549	362.613	174.981	452.793	275.345	370.660	0.00036315	5.2734e-05	0.00022107	1059.6	4.3692e-06	2.5999e-06	1153.5	218.85	6.5193e-06	4.0075e-06	273.32	78.875	62.045	17.982	5.9301e-07	25.088	0.00024651	0.0002436	6.8351e-05	1030.1	2.7034e-06	2.6776e-06	1120.6	215.99	2.7088e-06	2.7023e-06	269.03	78.265	61.771	18.327	2.673e-06	25.425	170.977	349.059	203.265	153.331	152.036	202.745	152.948	160.445	257.685	235.676	160.877	166.651	167.099	174.570	415.043	174.264	-8191	255	
719.179	1	1	0	0	0.24823	0.17832	0.22053	0.10041	0.018086	0.08726	0.17701	0.32209	0.13651	0.31562	0.17197	0.053261	0.072543	0.096817	0.23061	0.074633	-1.85	-2.4562	-2.2917	-2.5458	-2.4313	-2.1729	-2.5062	-2.425	-2.2771	-2.7229	-2.2313	-2.4958	-2.5687	-2.3042	-2.725	-2.3917	433.127	334.893	154.011	158.702	485.377	340.116	179.883	428.251	222.819	316.690	184.065	309.964	153.979	182.398	502.069	432.130	0.00036495	3.0501e-05	2.975e-05	1057.7	4.2508e-06	4.2177e-06	1146.3	218.68	3.1555e-06	4.7963e-06	275.26	79.416	62.115	17.97	1.9123e-06	25.018	0.00025005	0.00024402	6.8382e-05	1030.9	2.6801e-06	2.6864e-06	1118.1	215.61	2.6905e-06	2.6854e-06	269.91	78.284	61.835	18.333	2.6182e-06	25.342	170.771	340.726	203.898	153.224	199.926	335.694	152.640	160.477	204.231	271.304	159.990	166.460	166.801	174.802	245.804	173.710	-8191	255	
719.274	1	1	0	0	0.10472	0.20843	0.085645	0.17217	0.047758	0.079843	0.14446	0.097332	0.16285	0.27892	0.19691	0.15476	0.095833	0.19881	0.049519	0.31754	-1.7333	-2.4104	-2.1375	-2.5438	-2.4313	-2.1771	-2.5958	-2.5271	-2.2458	-2.6729	-2.3771	-2.4479	-2.6021	-2.0583	-2.6292	-2.6063	429.498	397.188	248.964	407.004	175.031	391.552	398.769	454.469	225.772	327.385	254.263	424.106	304.289	488.983	426.442	370.848	0.00038569	0.00012318	1.5266e-05	1058.5	1.2157e-06	4.9089e-06	1154.5	219.31	6.9383e-07	9.8693e-07	274.62	78.898	61.923	18.049	4.3889e-06	25.055	0.00024628	0.00024274	6.7211e-05	1030.8	2.6573e-06	2.6723e-06	1121.7	215.4	2.678e-06	2.6356e-06	268.99	78.228	61.795	18.34	2.6481e-06	25.347	177.358	459.024	264.787	153.148	143.966	213.411	152.705	160.208	436.543	500.753	159.988	166.760	167.382	175.139	316.775	174.079	-8191	255	
719.370	1	1	0	0	0.062927	0.15534	0.14002	0.16434	0.042373	0.18128	0.35047	0.11344	0.13531	0.14459	0.20698	0.23245	0.17072	0.28221	0.21004	0.31726	-1.6229	-2.4813	-2.3021	-2.3021	-2.7229	-2.2479	-2.4417	-2.5	-2.2646	-2.9062	-2.2917	-2.2792	-2.7938	-2.3208	-2.4146	-2.6771	368.686	476.465	229.778	449.888	450.786	165.021	459.996	453.829	333.018	164.869	469.337	391.508	458.447	421.021	412.573	490.251	0.00031145	0.00025325	0.00023019	1057.7	1.4288e-06	2.8919e-06	1147.7	219.53	2.003e-06	1.3494e-06	275.29	79.333	62.391	18.09	2.8402e-06	25.105	0.00024838	0.00024365	6.7405e-05	1030.9	2.6758e-06	2.645e-06	1121.3	215.36	2.6492e-06	2.6121e-06	268.59	78.241	61.763	18.364	2.5512e-06	25.308	191.750	325.509	262.539	153.066	213.761	498.961	152.847	160.459	218.731	361.131	160.147	166.898	166.741	175.147	161.491	173.671	-8191	255	
719.490	1	1	0	0	0.28775	0.062736	0.1364	0.24794	0.23727	0.23326	0.18399	0.072283	0.17487	0.28052	0.077181	0.080159	0.18263	0.2139	0.15448	0.10278	-1.8563	-2.4646	-2.2958	-2.3833	-2.5979	-2.325	-2.4667	-2.6229	-2.1063	-2.4479	-2.4542	-2.1792	-2.6833	-2.2229	-2.3583	-2.5396	162.582	396.096	211.673	414.215	393.450	466.833	164.497	475.237	468.614	294.991	158.058	142.531	471.367	429.665	272.901	236.840	0.00034813	0.00028566	9.0606e-05	1060.7	5.569e-06	2.2706e-06	1146.7	219.65	2.2091e-06	3.1168e-06	275.15	79.012	61.849	18.005	3.0895e-06	24.931	0.00023774	0.00023238	6.4656e-05	1029.9	2.5284e-06	2.5352e-06	1117	215.13	2.5128e-06	2.4741e-06	268.42	77.858	61.354	18.176	2.4833e-06	25.186	157.488	254.399	284.207	152.876	200.054	243.636	152.736	160.273	306.450	253.181	160.426	166.664	167.125	174.580	314.632	173.690	-8191	255	
719.587	1	1	0	0	0.082114	0.11884	0.16815	0.30881	0.09809	0.15686	0.24277	0.14131	0.37359	0.33094	0.21513	0.23763	0.17721	0.15886	0.080677	0.27003	-1.6938	-2.4188	-2.3625	-2.325	-2.7896	-2.4521	-2.4729	-2.675	-2.1667	-2.525	-2.3812	-2.125	-2.5187	-2.3667	-2.3937	-2.55	286.826	502.035	396.544	450.261	383.543	156.979	155.210	408.538	448.040	460.034	457.785	172.948	412.278	468.519	345.753	341.992	0.00033747	0.00072366	3.4869e-05	1056.5	3.1192e-06	3.2599e-06	1146.4	218.33	6.0256e-06	2.9532e-06	275.96	79.072	62.018	18.157	4.7207e-06	25.023	0.00023103	0.00022687	6.3365e-05	1027	2.5016e-06	2.4984e-06	1115.2	214.66	2.4599e-06	2.4422e-06	268.05	77.81	61.387	18.269	2.4666e-06	25.175	164.852	206.404	309.313	153.026	271.468	275.945	152.822	160.503	258.546	205.873	159.937	166.097	166.506	175.076	292.594	173.707	-8191	255	
719.683	1	1	0	0	0.15307	0.17581	0.086814	0.46166	0.11646	0.06269	0.20855	0.26312	0.13689	0.23773	0.26216	0.12277	0.093323	0.04115	0.14605	0.055084	-1.5833	-2.2958	-2.4125	-2.2229	-2.5396	-2.2479	-2.3958	-2.6896	-2.1937	-2.4896	-2.5687	-2.075	-2.7042	-2.4437	-2.0542	-2.6979	320.948	197.455	155.176	490.621	143.530	244.382	452.239	435.297	334.610	168.518	418.554	412.555	472.984	346.414	384.089	328.474	0.00040147	0.00051503	9.0429e-05	1054.9	1.9531e-06	1.4306e-06	1146.4	218.32	5.7081e-06	4.082e-06	274.05	79.07	61.669	17.914	2.8955e-06	24.876	0.00022749	0.00022445	6.1842e-05	1025.8	2.4228e-06	2.4121e-06	1113.7	214.16	2.4198e-06	2.3906e-06	267.23	77.706	61.222	18.14	2.4336e-06	25.103	159.791	207.608	208.179	153.070	311.632	292.298	152.810	160.402	278.632	384.503	160.295	166.297	166.812	174.999	464.509	174.350	-8191	255	
719.803	1	1	0	0	0.17486	0.21321	0.20526	0.13929	0.085012	0.25109	0.27943	0.25472	0.1701	0.15184	0.31796	0.16505	0.17616	0.11911	0.060469	0.089196	-1.6521	-2.4083	-2.6667	-2.3146	-2.5375	-2.5812	-2.3312	-2.6729	-2.2979	-2.3854	-2.6063	-2.2083	-2.6542	-2.4583	-2.2062	-2.6271	340.765	459.657	436.836	435.519	398.323	476.111	417.763	354.510	460.656	365.747	438.333	172.838	374.613	150.098	412.200	450.161	0.00041853	0.00050107	0.00028609	1056.4	3.6548e-06	3.1896e-06	1141.8	218.49	2.517e-06	6.458e-06	274.09	78.566	61.587	17.925	3.1742e-06	24.844	0.00022294	0.00022231	6.1119e-05	1025.9	2.4112e-06	2.3901e-06	1113.2	213.67	2.4076e-06	2.417e-06	266.96	77.537	61.189	18.136	2.4599e-06	25.182	176.887	201.414	235.541	152.978	275.507	295.772	152.746	160.539	229.189	308.301	160.328	166.503	166.527	174.637	261.820	174.300	-8191	255	
719.875	1	1	0	0	0.23062	0.12386	0.14035	0.14324	0.049444	0.18575	0.16703	0.11669	0.070073	0.277	0.037147	0.1424	0.17615	0.17803	0.11647	0.16055	-1.8563	-2.1917	-2.6104	-2.3708	-2.4458	-2.7083	-2.3167	-2.5979	-2.4062	-2.2854	-2.7188	-2.3417	-2.475	-2.2917	-2.2479	-2.6083	265.589	272.920	400.087	365.902	288.252	237.049	455.421	456.926	203.993	265.092	170.680	313.434	197.671	251.159	213.137	164.864	0.00032739	0.00047443	0.00015253	1053	2.7152e-06	2.6448e-06	1145.5	218.44	6.5748e-06	7.2838e-07	273.9	78.662	61.897	17.978	4.906e-06	24.766	0.00022751	0.00022534	6.2525e-05	1023	2.4666e-06	2.4534e-06	1113.1	214.31	2.4626e-06	2.4067e-06	267.2	77.646	61.268	18.121	2.3471e-06	25.02	174.957	191.284	456.490	153.264	282.254	460.031	152.898	160.516	275.041	165.782	160.234	166.545	166.905	174.640	319.006	173.837	-8191	255	
719.969	1	1	0	0	0.18806	0.07344	0.15671	0.25793	0.2356	0.23908	0.104	0.18772	0.042337	0.232	0.22537	0.30166	0.088722	0.11714	0.090098	0.2009	-2.0438	-2.1979	-2.6125	-2.2771	-2.2979	-2.5687	-2.45	-2.4958	-2.6104	-2.2646	-2.5708	-2.4229	-2.3396	-2.5125	-2.3125	-2.6375	170.125	343.056	338.272	482.883	287.218	267.563	450.895	446.287	153.361	339.549	399.973	416.548	350.862	477.451	186.324	328.080	0.00035288	0.00012619	7.4274e-05	1052.4	2.1613e-06	4.9238e-06	1146.3	218.17	5.2242e-06	3.3729e-06	274.11	78.998	61.81	18.001	4.8384e-06	25.06	0.00021574	0.000213	5.9045e-05	1022.8	2.3491e-06	2.3796e-06	1111.6	213.59	2.4179e-06	2.3967e-06	266.93	77.694	61.219	18.144	2.4445e-06	25.113	164.091	151.887	267.270	153.188	288.177	283.866	152.950	160.492	222.213	266.363	160.022	166.380	166.803	174.631	272.622	174.223	-8191	255	
720.066	1	1	0	0	0.023563	0.12368	0.29923	0.23887	0.021511	0.048622	0.24561	0.076885	0.092751	0.20389	0.22276	0.13193	0.2448	0.066088	0.22711	0.17512	-2.0042	-2.1833	-2.6188	-2.4792	-2.3271	-2.5896	-2.3312	-2.6354	-2.4104	-2.0625	-2.5563	-2.3688	-2.2479	-2.6021	-2.1875	-2.3042	498.794	381.097	413.898	400.531	227.331	353.954	175.336	464.926	217.662	465.377	425.912	358.574	208.740	149.885	498.887	497.880	0.00032412	0.00017605	0.00019561	1051.4	9.4146e-07	1.8455e-06	1144.2	217.28	2.1785e-06	1.8842e-06	273.08	79.026	61.657	18.002	2.9148e-06	25.024	0.00022917	0.00022596	6.3138e-05	1023.7	2.4912e-06	2.4727e-06	1112.7	213.7	2.4635e-06	2.4232e-06	266.43	77.428	61.112	18.088	2.3663e-06	25.087	168.736	388.201	230.083	153.119	164.850	160.712	152.832	160.535	317.833	228.237	160.299	166.320	166.695	174.540	237.428	173.783	-8191	255	
720.186	1	1	0	0	0.25017	0.05273	0.24948	0.14655	0.027521	0.10926	0.41285	0.11214	0.29729	0.061217	0.19218	0.29808	0.12055	0.47975	0.13116	0.23265	-1.8542	-2.1667	-2.5042	-2.6188	-2.3354	-2.6083	-2.3583	-2.5187	-2.5312	-2.3125	-2.6583	-2.5083	-2.4167	-2.7333	-2.2	-2.5771	459.704	270.391	390.832	186.324	495.216	183.146	445.410	436.498	362.364	339.647	259.181	169.652	458.103	341.411	281.430	276.873	0.0003129	6.1843e-05	7.7281e-05	1051.3	1.6992e-06	3.326e-06	1143.3	217.97	5.2267e-06	3.3747e-06	272.34	79.061	61.603	17.923	5.8949e-06	24.921	0.00021695	0.00021373	5.9158e-05	1021	2.3286e-06	2.2955e-06	1108.9	213.08	2.3217e-06	2.2945e-06	265.33	77.437	61.046	18.039	2.3083e-06	25.001	168.136	428.075	478.348	153.154	287.830	249.105	153.071	160.640	208.492	371.252	160.344	166.537	166.828	174.640	303.480	173.832	-8191	255	
720.282	1	1	0	0	0.16838	0.14313	0.070398	0.23489	0.17013	0.09918	0.23535	0.24236	0.055825	0.12822	0.15754	0.269	0.22552	0.20142	0.20441	0.29717	-2.2646	-1.9417	-2.3854	-2.5917	-2.1208	-2.6229	-2.5146	-2.5958	-2.6354	-2.1396	-2.6458	-2.5771	-2.2438	-2.6167	-2.2812	-2.3937	314.037	327.830	280.100	377.039	345.719	230.034	419.368	385.036	348.643	459.641	450.933	184.097	167.949	312.943	341.046	365.875	0.0003439	0.00017502	0.00016056	1049.1	1.4799e-06	3.5064e-06	1144.5	218.04	3.2088e-06	2.6434e-06	273.03	78.994	61.798	17.914	3.2903e-06	24.954	0.00021659	0.0002145	5.9974e-05	1021.9	2.381e-06	2.3853e-06	1109.7	213.73	2.3981e-06	2.376e-06	266.43	77.529	61.169	18.071	2.3328e-06	25.085	167.954	247.357	178.838	153.109	185.350	303.527	152.893	160.262	234.218	213.366	160.326	166.232	167.082	174.673	252.883	173.908	-8191	255	
720.379	1	1	0	0	0.038805	0.17292	0.29687	0.33401	0.13484	0.20739	0.069709	0.0957	0.040453	0.06477	0.16742	0.25706	0.20406	0.30958	0.16709	0.17841	-1.9375	-2.1188	-2.3542	-2.5646	-2.075	-2.6771	-2.45	-2.4104	-2.3688	-2.2979	-2.6292	-2.3187	-2.1229	-2.6396	-2.2188	-2.4	403.733	471.561	478.538	180.234	251.779	290.684	294.413	447.108	238.969	147.384	384.609	400.323	419.439	337.028	231.615	412.623	0.00039689	0.00014093	0.00019468	1050.7	2.4721e-06	2.319e-06	1142	218.29	4.3893e-06	4.375e-06	273.51	78.211	61.662	17.828	2.8597e-06	24.75	0.00021445	0.00021004	5.8682e-05	1019.9	2.2772e-06	2.2357e-06	1106.6	213.19	2.2285e-06	2.2089e-06	264.82	76.729	60.738	17.883	2.1028e-06	24.777	175.421	204.863	249.835	153.208	241.624	304.717	152.772	160.571	258.093	350.256	160.042	166.092	166.787	174.447	226.220	174.298	-8191	255	
720.450	1	1	0	0	0.069027	0.17	0.16474	0.17307	0.10156	0.094782	0.25718	0.13688	0.23334	0.25834	0.15449	0.20717	0.29667	0.011154	0.19322	0.046797	-2.2396	-2.1042	-2.3479	-2.6917	-2.1479	-2.4708	-2.4813	-2.2396	-2.7188	-2.2583	-2.5896	-2.5792	-1.9604	-2.6167	-2.6292	-2.2625	257.740	308.036	288.427	217.361	237.484	167.280	447.912	222.269	414.283	312.869	379.534	472.913	219.359	361.536	225.581	479.809	0.00032735	0.00019534	4.2218e-05	1043.7	1.9327e-06	2.5282e-06	1135.3	216.11	6.1987e-06	4.0871e-06	272.09	78.636	61.673	17.822	1.6117e-06	24.667	0.00019604	0.00019263	5.371e-05	1012.9	2.1022e-06	2.0984e-06	1098.9	211.45	2.1219e-06	2.0756e-06	263.67	76.683	60.55	17.876	2.1704e-06	24.809	174.874	197.091	197.685	153.133	293.482	357.248	152.957	160.586	300.405	300.534	160.108	166.330	166.574	174.865	248.105	173.944	-8191	255	
720.569	1	1	0	0	0.017322	0.10476	0.12096	0.42569	0.14314	0.12377	0.21387	0.18383	0.087814	0.19818	0.16424	0.044191	0.062417	0.25964	0.13757	0.089997	-2.1917	-2.1896	-2.0125	-2.65	-2.2313	-2.5312	-2.5187	-2.1021	-2.5354	-2.3958	-2.2479	-2.7167	-2.3896	-2.4042	-2.5854	-2.35	156.888	194.019	418.029	468.557	418.215	479.385	362.057	462.013	217.066	260.552	390.652	353.488	364.295	441.379	178.922	431.233	0.00037087	0.00014538	2.7343e-05	1045.2	3.284e-06	4.9821e-06	1135	216.58	1.9367e-06	3.2483e-06	271.85	78.748	61.71	17.727	1.264e-06	24.92	0.00020685	0.00020282	5.7576e-05	1012.7	2.2689e-06	2.244e-06	1101.6	212.02	2.3284e-06	2.3123e-06	264.83	77.052	60.684	17.985	2.3157e-06	24.975	168.384	149.142	192.946	153.280	257.203	308.148	152.986	160.616	254.601	441.794	160.487	166.138	166.942	174.855	268.529	173.997	-8191	255	
720.665	1	1	0	0	0.16937	0.11362	0.095337	0.077732	0.21576	0.08657	0.13055	0.12924	0.23828	0.19535	0.15969	0.23981	0.17293	0.20455	0.065208	0.095457	-2.0521	-2.4479	-2.1771	-2.7542	-2.3063	-2.5542	-2.6875	-2.2271	-2.3354	-2.3187	-2.3583	-2.7542	-2.2229	-2.4417	-2.5333	-2.0958	455.579	372.115	387.345	401.701	498.831	330.339	438.359	461.494	257.370	352.634	352.510	410.071	234.830	331.141	471.602	147.525	0.00031118	0.00012684	9.6174e-05	1042.3	1.167e-06	2.2476e-06	1133.6	216.78	3.1034e-06	1.7628e-06	271.64	78.321	61.476	17.843	4.3101e-06	24.845	0.00021491	0.00021169	5.9084e-05	1013.4	2.3578e-06	2.3616e-06	1102.1	212.31	2.3418e-06	2.303e-06	264.75	77.066	60.833	17.979	2.3029e-06	24.966	163.596	501.946	236.013	153.208	366.179	274.271	152.786	160.385	264.533	468.531	159.903	166.277	167.210	174.774	243.719	174.342	-8191	255	
720.761	1	1	0	0	0.24831	0.18821	0.073005	0.14011	0.10294	0.070462	0.11132	0.27057	0.045459	0.10736	0.44676	0.28899	0.24527	0.25367	0.041583	0.029297	-1.8979	-2.2562	-2.0875	-2.6875	-2.2125	-2.2771	-2.8771	-2.1312	-2.5083	-2.4208	-2.3229	-2.6604	-2.4042	-2.3438	-2.5333	-2.1208	222.822	295.959	411.746	432.820	332.424	491.027	328.020	440.415	388.218	209.611	152.432	447.599	387.334	475.035	421.405	308.958	0.00040431	0.00024939	8.6577e-05	1047.8	1.8045e-06	3.4251e-07	1133.4	216.29	4.5002e-06	6.3139e-06	271.56	78.392	61.653	17.87	3.9954e-06	24.81	0.00021582	0.00021164	5.8261e-05	1013.8	2.3275e-06	2.3128e-06	1101.4	212.13	2.3765e-06	2.3971e-06	265.52	77.244	61.005	18.061	2.4862e-06	25.015	165.424	226.451	290.086	153.060	223.110	463.418	152.822	160.319	241.207	320.538	160.309	166.192	166.819	175.309	267.386	173.802	-8191	255	
720.882	1	1	0	0	0.1666	0.065545	0.20537	0.31597	0.27072	0.18885	0.10708	0.2948	0.054756	0.21268	0.061172	0.10205	0.054425	0.33515	0.11699	0.047733	-1.9896	-2.3354	-2.1104	-2.7021	-2.3896	-2.2375	-2.7438	-2.1021	-2.5125	-2.4854	-2.1813	-2.5583	-2.4229	-2.2583	-2.7854	-2.3063	147.190	427.301	382.920	472.106	366.952	452.839	316.105	474.737	144.749	467.749	409.592	461.322	320.744	145.288	350.490	352.037	0.00033112	5.7626e-05	5.6138e-05	1048	4.6573e-06	1.8016e-06	1142.7	216.69	5.9586e-06	1.081e-06	271.47	78.122	61.334	17.984	3.4351e-06	24.968	0.00022994	0.00022961	6.4425e-05	1018.9	2.5437e-06	2.5501e-06	1109.1	212.89	2.5695e-06	2.5259e-06	266.42	77.32	61.13	18.155	2.4877e-06	25.106	175.220	246.929	151.887	153.055	224.710	153.080	152.640	160.444	241.470	245.416	159.947	166.426	167.085	174.899	289.128	173.933	-8191	255	
720.978	1	1	0	0	0.070858	0.20056	0.10228	0.23995	0.16111	0.23607	0.33091	0.31028	0.12236	0.14428	0.24687	0.17131	0.078765	0.1542	0.18827	0.10129	-1.9	-2.4813	-1.9729	-2.8208	-2.3396	-2.3542	-2.9021	-2.325	-2.5729	-2.5708	-2.1417	-2.6	-2.325	-2.3917	-2.6896	-2.4458	223.311	352.096	265.928	463.904	487.206	342.567	408.962	459.533	264.528	444.408	383.710	216.436	155.512	145.891	347.301	172.736	0.00037474	0.00042606	0.00017212	1049.1	7.7637e-07	3.8757e-06	1142.9	217.2	6.5585e-06	2.0279e-06	272.49	78.352	61.503	17.899	5.3551e-07	25.018	0.00022743	0.00022553	6.2405e-05	1019.9	2.4215e-06	2.4187e-06	1106.5	212.98	2.3853e-06	2.3514e-06	265.87	77.262	60.775	18.082	2.3942e-06	25.083	182.395	236.299	364.591	153.298	437.227	379.330	152.963	160.331	254.501	271.852	160.258	166.362	167.052	174.829	363.763	173.954	-8191	255	
721.050	1	1	0	0	0.27971	0.14905	0.21556	0.076404	0.053426	0.41807	0.3387	0.19484	0.21479	0.1402	0.39752	0.079014	0.2467	0.048331	0.2432	0.2214	-1.8792	-2.4958	-2.1458	-2.4	-2.4771	-2.225	-2.8208	-2.2958	-2.5521	-2.6083	-2.1396	-2.5104	-2.4458	-2.1396	-2.5542	-2.3187	488.981	458.615	305.755	404.694	183.367	175.749	454.847	451.169	473.471	489.797	452.674	457.906	147.386	473.516	301.312	375.271	0.00038615	0.00029474	0.00018482	1048.8	5.355e-06	2.1567e-06	1138.6	217.16	5.1871e-06	1.9296e-06	271.99	78.181	61.901	17.866	1.0999e-06	24.83	0.00022321	0.0002197	6.1525e-05	1017.2	2.446e-06	2.432e-06	1106.8	213.38	2.4455e-06	2.4544e-06	266.06	77.206	61.083	18.072	2.4572e-06	25.032	173.755	209.366	244.089	153.275	226.997	308.986	152.750	160.103	285.809	338.106	160.313	166.721	166.528	175.159	455.593	173.860	-8191	255	
721.170	1	1	0	0	0.24558	0.015148	0.2706	0.098532	0.1688	0.13381	0.29729	0.12205	0.20397	0.28659	0.13555	0.14134	0.14506	0.080037	0.18233	0.13462	-1.8333	-2.5792	-2.0479	-2.3271	-2.4479	-2.0687	-2.7542	-2.2625	-2.275	-2.6437	-2.2479	-2.4979	-2.4813	-2.225	-2.5062	-2.2729	429.549	202.534	392.380	417.034	166.177	280.523	430.622	416.413	388.873	415.981	217.857	172.290	243.647	466.560	252.414	464.153	0.00034387	0.00037421	3.2096e-05	1045.3	4.0249e-06	1.9754e-06	1139.9	216.85	4.9611e-06	2.4755e-06	272.36	78.794	61.5	17.819	3.3228e-06	24.877	0.00022604	0.00022297	6.1989e-05	1019.4	2.4589e-06	2.4916e-06	1107.3	212.95	2.448e-06	2.4448e-06	265.74	77.552	61.186	18.068	2.441e-06	25.044	179.031	261.029	304.222	153.532	305.282	456.221	152.895	160.587	273.965	245.695	160.301	166.630	166.956	174.784	226.672	173.782	-8191	255	
721.267	1	1	0	0	0.066334	0.22068	0.21915	0.2536	0.13763	0.33675	0.098397	0.28207	0.23127	0.22706	0.038456	0.054681	0.16983	0.12791	0.29183	0.047028	-1.6896	-2.6	-2.1771	-2.4583	-2.4938	-2.1979	-2.7375	-2.5	-1.9167	-2.8417	-2.475	-2.3354	-2.475	-2.1708	-2.4062	-2.4083	421.182	308.093	428.725	361.106	485.740	441.102	430.943	217.161	217.547	229.621	328.735	145.089	489.371	362.387	370.976	256.248	0.00026515	0.00031389	0.00018753	1044.9	2.3014e-06	1.6823e-06	1136.6	218.04	1.6266e-06	2.026e-06	273	78.601	61.655	18.032	2.4002e-06	25.081	0.00022698	0.0002249	6.2555e-05	1019.3	2.4667e-06	2.4838e-06	1107.3	213.64	2.4974e-06	2.4576e-06	266.51	77.487	61.009	18.108	2.4573e-06	25.127	177.661	324.250	150.886	153.150	253.782	254.788	152.734	160.755	294.825	283.121	160.287	166.278	166.924	174.668	285.784	174.254	-8191	255	
721.363	1	1	0	0	0.019076	0.30607	0.20849	0.38408	0.14287	0.18794	0.26475	0.2213	0.12392	0.23387	0.33221	0.041199	0.30426	0.0091255	0.14126	0.28291	-1.5729	-2.5104	-2.2479	-2.2708	-2.4313	-2.125	-2.4208	-2.6021	-2.2667	-2.5604	-2.2979	-2.2292	-2.6104	-2.3604	-2.2438	-2.7188	180.334	358.250	500.671	455.258	180.721	312.575	435.536	426.513	277.039	197.634	348.581	277.460	459.408	385.950	165.326	417.332	0.00031965	0.00018966	3.7235e-05	1044.8	3.235e-06	2.5034e-06	1136.9	216.71	3.3289e-06	2.7089e-06	271.04	78.283	61.49	17.915	2.3008e-06	24.857	0.00022799	0.00022374	6.2388e-05	1016	2.4315e-06	2.4419e-06	1105.8	213.11	2.4149e-06	2.4222e-06	265.3	77.226	60.866	18.067	2.416e-06	25.011	179.745	151.306	225.986	153.134	296.075	353.830	152.971	160.655	228.153	206.235	160.258	166.439	166.635	174.760	304.280	174.144	-8191	255	
721.483	1	1	0	0	0.1246	0.14513	0.15722	0.22129	0.082373	0.14747	0.082041	0.21505	0.31418	0.1131	0.33411	0.093181	0.129	0.15955	0.062317	0.14472	-1.6083	-2.5646	-2.0687	-2.4292	-2.7125	-2.1271	-2.3312	-2.5146	-2.1688	-2.5208	-2.3375	-2.175	-2.5563	-2.1979	-2.25	-2.5687	205.978	418.247	211.149	147.748	494.244	336.281	430.508	399.140	225.395	314.873	500.914	495.250	307.494	413.298	338.090	424.609	0.00030909	2.4352e-05	0.00011504	1051	1.9469e-06	3.5429e-06	1139.7	217.72	6.4397e-06	2.0225e-06	271.5	78.747	61.8	17.994	1.7557e-07	24.899	0.00022471	0.00022431	6.3299e-05	1018.8	2.4725e-06	2.4766e-06	1106.1	213.24	2.4921e-06	2.5022e-06	266.37	77.489	61.106	18.136	2.4896e-06	25.062	168.746	426.412	279.135	153.234	350.624	246.933	152.739	160.590	251.278	146.069	160.036	166.467	166.929	175.075	457.749	173.889	-8191	255	
721.578	1	1	0	0	0.17242	0.28632	0.051721	0.065778	0.13837	0.26731	0.2458	0.19022	0.44517	0.075019	0.081897	0.21645	0.071007	0.088661	0.12379	0.053491	-1.7854	-2.2646	-2.4625	-2.0729	-2.5792	-2.1958	-2.4333	-2.5	-2.0708	-2.5229	-2.5271	-2.1375	-2.5958	-2.3354	-2.2354	-2.5812	181.007	260.770	169.477	496.165	397.712	442.710	494.644	389.735	236.421	226.437	497.259	422.401	406.669	384.024	426.657	231.605	0.00035771	0.0004423	0.00010189	1044.6	1.4695e-06	4.5293e-06	1136.7	217.3	7.5466e-06	2.5227e-06	272.33	78.178	61.74	17.871	4.8811e-06	24.682	0.00022829	0.00022486	6.1767e-05	1015.9	2.4103e-06	2.3989e-06	1105	213.04	2.3949e-06	2.3577e-06	265.84	77.164	60.873	18.031	2.3668e-06	24.914	177.163	291.750	154.972	153.006	303.416	280.561	152.832	160.682	271.006	481.287	160.006	166.409	166.775	175.210	279.439	174.220	-8191	255	
721.674	1	1	0	0	0.30426	0.2188	0.11518	0.11811	0.13998	0.11965	0.15156	0.26678	0.069777	0.051121	0.35754	0.10399	0.13431	0.23048	0.15515	0.31102	-1.6917	-2.3396	-2.2583	-2.2958	-2.7583	-2.3646	-2.4292	-2.7979	-2.2083	-2.2729	-2.4042	-2.1063	-2.6146	-2.5208	-2.1458	-2.6146	495.023	450.522	196.487	452.859	190.320	489.720	451.564	379.625	373.557	232.817	371.574	156.628	409.391	344.610	142.714	468.334	0.00037397	0.00046425	0.0001093	1048.1	1.4938e-06	4.3621e-06	1135.4	218.07	2.3207e-06	2.2474e-06	272.46	77.761	61.672	17.904	1.9452e-06	24.852	0.00022123	0.00022055	6.1026e-05	1016.2	2.3492e-06	2.3608e-06	1102.6	212.69	2.3566e-06	2.395e-06	265.56	77.172	60.876	18.043	2.4082e-06	25.023	169.068	173.788	258.254	153.148	207.092	331.731	152.818	160.387	259.566	263.066	160.163	166.562	166.653	174.863	322.495	173.898	-8191	255	
721.746	1	1	0	0	0.19074	0.31335	0.18367	0.20829	0.19497	0.18793	0.33443	0.12512	0.29491	0.12687	0.20409	0.13867	0.14706	0.29938	0.14435	0.18095	-1.6063	-2.2792	-2.3583	-2.5167	-2.4958	-2.3229	-2.3875	-2.7083	-2.3063	-2.2646	-2.5458	-2.1458	-2.4604	-2.4375	-2.0833	-2.6854	368.398	418.046	451.839	467.562	216.430	172.731	420.409	390.928	388.108	447.872	437.022	363.298	465.908	146.849	319.137	164.152	0.00031876	0.00023236	0.00011464	1047.2	3.1993e-06	5.2469e-06	1137.1	217.92	3.9994e-06	4.363e-06	271.19	78.612	61.293	17.767	5.9242e-06	24.861	0.0002215	0.00021836	6.1089e-05	1015.1	2.3621e-06	2.3737e-06	1102.7	212.85	2.3268e-06	2.3255e-06	264.85	77.277	60.791	17.964	2.3395e-06	25.016	164.394	213.028	205.195	153.050	201.107	286.629	152.826	160.454	226.192	283.801	160.236	166.433	166.870	174.623	346.984	173.774	-8191	255	
721.866	1	1	0	0	0.16961	0.11226	0.15179	0.27234	0.068122	0.12611	0.33954	0.22343	0.11614	0.2914	0.058786	0.11853	0.085488	0.087521	0.045458	0.081705	-1.675	-2.2729	-2.2062	-2.1833	-2.4354	-2.4354	-2.2479	-2.8354	-2.1188	-2.2021	-2.6229	-2.2562	-2.2646	-2.3812	-2.1688	-2.6208	316.639	219.738	395.365	477.388	465.795	413.809	440.885	465.192	350.163	502.233	351.839	212.156	301.701	425.051	312.921	424.595	0.00034322	0.0006839	3.3103e-05	1041.4	4.2821e-06	4.5346e-06	1135.1	217.08	7.9304e-06	3.7263e-06	270.02	77.749	61.304	17.682	1.5926e-06	24.711	0.00021374	0.00021495	5.8337e-05	1012.8	2.3609e-06	2.3241e-06	1102.1	212.38	2.329e-06	2.3094e-06	264.05	76.85	60.67	17.958	2.3224e-06	24.881	167.114	209.733	300.218	153.034	266.144	327.905	152.837	160.702	280.442	292.828	160.343	166.469	166.619	174.701	229.869	173.501	-8191	255	
721.962	1	1	0	0	0.034062	0.2031	0.16625	0.49251	0.14266	0.26502	0.22713	0.12429	0.10001	0.18303	0.20118	0.13496	0.090939	0.24385	0.089195	0.18018	-2.0667	-2.1708	-2.4229	-2.1188	-2.2479	-2.4708	-2.2208	-2.6312	-2.2729	-2.2583	-2.6208	-2.1042	-2.4229	-2.4229	-2.0667	-2.5354	325.594	295.219	374.348	468.453	334.521	176.378	475.576	341.167	419.593	363.134	473.828	438.862	304.496	480.675	386.961	429.762	0.00028946	9.4791e-05	3.7177e-05	1039.3	2.6973e-06	2.2046e-06	1136.4	216.1	4.7417e-06	1.0791e-06	270.93	77.838	61.329	17.897	1.8965e-06	24.755	0.00021728	0.00021655	5.9445e-05	1012.8	2.374e-06	2.3505e-06	1101.1	212.72	2.3571e-06	2.3318e-06	264.82	76.921	60.676	17.99	2.312e-06	24.893	179.687	361.217	436.540	153.281	323.008	434.338	152.668	160.325	211.997	351.021	160.323	166.321	166.818	174.531	466.478	174.009	-8191	255	
722.059	1	1	0	0	0.16725	0.25666	0.14268	0.14539	0.18825	0.14851	0.32697	0.26474	0.079217	0.16041	0.60205	0.1574	0.17968	0.41175	0.23751	0.20169	-1.7917	-2.1542	-2.5417	-2.3479	-2.4333	-2.4896	-2.3375	-2.4479	-2.4375	-2.2604	-2.6937	-2.3417	-2.4604	-2.5833	-2.1021	-2.5146	234.618	227.752	285.391	163.672	148.401	399.284	409.231	429.053	215.366	235.696	486.278	212.175	485.603	457.792	439.955	147.956	0.00023417	0.00037085	0.00017226	1037.3	1.268e-06	3.0323e-06	1132.9	216.82	4.715e-06	1.6802e-06	272.12	78.124	61.359	17.782	2.4911e-06	25.025	0.00021532	0.00020991	5.8894e-05	1007.8	2.3103e-06	2.3098e-06	1097.9	212.07	2.3026e-06	2.3268e-06	264.06	76.924	60.568	17.919	2.3034e-06	24.966	161.634	235.752	340.366	153.145	256.133	285.265	152.790	160.467	211.839	294.986	160.421	166.374	167.168	174.416	419.335	173.917	-8191	255	
722.155	1	1	0	0	0.10986	0.10043	0.3028	0.16016	0.041632	0.10628	0.38204	0.11077	0.10845	0.055553	0.10142	0.27356	0.10653	0.305	0.13166	0.098744	-1.9583	-1.9646	-2.4938	-2.3917	-2.2479	-2.6063	-2.3125	-2.6021	-2.6417	-2.2062	-2.6063	-2.3187	-2.2292	-2.5396	-2.1125	-2.475	442.415	339.046	151.477	146.592	410.323	273.850	429.364	415.872	229.658	362.767	423.480	408.525	166.161	393.352	275.259	150.330	0.00033866	0.0003367	5.5388e-05	1043.4	1.5145e-06	5.1799e-06	1135.6	217.07	3.314e-06	4.4379e-06	270.11	78.107	61.938	17.877	2.9413e-06	24.735	0.00021036	0.00020567	5.7164e-05	1011.7	2.2595e-06	2.2565e-06	1101.4	212.2	2.2842e-06	2.2725e-06	264.19	76.929	60.775	17.965	2.3036e-06	24.951	165.192	292.607	365.076	153.101	220.273	329.392	152.960	160.288	244.041	320.804	160.248	166.813	167.183	174.922	297.105	174.162	-8191	255	
722.251	1	1	0	0	0.084128	0.19396	0.15489	0.41414	0.089086	0.13234	0.18396	0.30244	0.48457	0.10651	0.15853	0.07196	0.42276	0.074629	0.069016	0.23552	-1.9375	-2.1083	-2.3479	-2.3063	-2.4208	-2.5042	-2.3979	-2.5104	-2.3688	-2.3167	-2.6437	-2.3604	-2.0687	-2.5396	-2.4188	-2.4437	363.108	318.596	497.480	486.268	466.928	411.852	461.930	443.443	275.772	304.406	144.174	477.406	421.573	344.862	169.209	353.069	0.00038571	0.00040975	9.4203e-05	1043.4	5.7494e-06	3.1372e-06	1138.4	216.01	1.3885e-06	3.1148e-06	271.02	78.199	61.789	17.829	3.7161e-06	24.763	0.00021714	0.00021302	5.9197e-05	1013.8	2.3231e-06	2.3338e-06	1101.9	212.09	2.3332e-06	2.3014e-06	264.04	76.899	60.702	17.912	2.2542e-06	24.836	176.446	185.824	204.714	153.293	251.534	301.787	152.690	160.365	270.731	315.611	159.863	166.805	167.224	175.064	202.984	173.877	-8191	255	
722.347	1	1	0	0	0.13061	0.14914	0.2435	0.091343	0.32909	0.33437	0.12194	0.23468	0.27092	0.24294	0.22346	0.035453	0.10313	0.17629	0.072395	0.38674	-2.2896	-1.9292	-2.3333	-2.4562	-2.1729	-2.5542	-2.4146	-2.4479	-2.5458	-2.1021	-2.5812	-2.4562	-2.225	-2.5021	-2.1896	-2.2729	349.632	143.100	195.275	156.121	264.480	367.449	474.783	472.329	185.467	395.104	457.534	287.920	232.547	337.664	301.040	412.808	0.00038495	0.00041297	7.0848e-05	1039.3	4.0911e-07	2.2332e-06	1126.9	216.61	1.379e-06	6.3076e-06	270.62	77.91	61.337	17.728	4.0766e-06	24.874	0.00020676	0.00020452	5.7271e-05	1008.1	2.1899e-06	2.1922e-06	1093.9	211.72	2.1716e-06	2.1599e-06	263.21	76.512	60.322	17.839	2.151e-06	24.765	163.828	182.062	231.868	153.121	490.846	208.990	152.755	160.663	230.713	314.818	160.122	166.065	167.024	175.101	311.650	174.093	-8191	255	
722.443	1	1	0	0	0.11318	0.078304	0.12038	0.31025	0.39544	0.085769	0.060394	0.074183	0.28908	0.031823	0.096308	0.32428	0.21175	0.10338	0.16	0.22412	-2.3917	-2.0875	-2.1	-2.5771	-2	-2.3812	-2.3208	-2.2938	-2.5	-2.2083	-2.4708	-2.5375	-1.9979	-2.4979	-2.3458	-2.2167	349.851	411.599	375.599	476.120	300.264	200.531	478.411	289.796	486.068	297.731	301.103	472.656	152.922	200.774	341.341	325.652	0.00033133	0.00017265	1.8639e-05	1038.2	3.7241e-06	1.2924e-06	1130.2	215.8	2.4767e-06	2.074e-06	271.27	77.628	60.991	18.008	2.2458e-06	24.922	0.00020207	0.00019779	5.5596e-05	1006.4	2.1957e-06	2.1974e-06	1094.5	211.03	2.1919e-06	2.1884e-06	263.47	76.39	60.313	17.878	2.1956e-06	24.833	169.917	356.093	306.143	153.239	223.472	153.542	152.758	160.581	261.109	239.233	160.318	166.697	166.866	174.515	308.125	174.274	-8191	255	
722.564	1	1	0	0	0.33584	0.25748	0.28147	0.057297	0.10953	0.10799	0.31324	0.12121	0.15891	0.071624	0.14985	0.13846	0.083203	0.039574	0.094947	0.14057	-2.1771	-2.1542	-2.2833	-2.5083	-1.9604	-2.4958	-2.5208	-2.1396	-2.625	-2.2021	-2.3646	-2.4688	-2.2396	-2.4688	-2.3896	-2.2167	484.903	349.992	298.534	384.621	252.896	411.226	428.744	312.815	204.057	501.756	198.783	205.678	348.586	280.255	205.097	340.154	0.00032069	0.00024961	0.00016382	1038.8	4.1383e-06	3.08e-06	1126.2	215.82	6.1549e-06	3.7265e-06	270.28	77.229	61.159	17.66	1.482e-06	24.719	0.00020237	0.00020227	5.5841e-05	1007.7	2.2063e-06	2.1805e-06	1094	211.38	2.1908e-06	2.1747e-06	263	76.325	60.15	17.835	2.1568e-06	24.714	172.166	221.817	190.682	153.293	282.207	297.311	152.810	160.712	283.035	440.536	160.155	166.726	167.142	174.779	293.305	173.971	-8191	255	
722.658	1	1	0	0	0.019223	0.14909	0.088989	0.31666	0.067071	0.10929	0.21765	0.052174	0.33586	0.2055	0.30797	0.075225	0.42262	0.31876	0.18445	0.24705	-1.8792	-2.2396	-2.4688	-2.6375	-2.275	-2.425	-2.5333	-2.3042	-2.6792	-2.1937	-2.1562	-2.6312	-2.2167	-2.5333	-2.4146	-1.9688	229.714	494.243	287.333	152.239	440.597	477.620	412.293	150.932	211.292	412.435	161.848	184.134	447.183	500.942	236.162	382.504	0.00035943	0.00031698	8.2056e-05	1034.5	1.8392e-06	3.1009e-06	1126.8	216.59	3.9711e-06	2.6004e-06	270.9	77.55	61.219	17.732	6.954e-06	24.875	0.00019912	0.00019428	5.4584e-05	1003.9	2.1484e-06	2.1143e-06	1091.4	210.86	2.1444e-06	2.1277e-06	262.72	76.413	60.274	17.81	2.1813e-06	24.758	170.961	174.041	280.618	153.181	210.265	320.713	152.809	160.517	202.751	313.702	160.040	165.957	166.814	174.995	337.191	173.697	-8191	255	
722.754	1	1	0	0	0.26918	0.12855	0.15018	0.12191	0.25424	0.23499	0.1017	0.10116	0.23834	0.40951	0.12864	0.38113	0.044553	0.2754	0.21243	0.058205	-2.0792	-2.4146	-2.1562	-2.6146	-2.25	-2.3167	-2.5708	-2.1333	-2.4	-2.3937	-2.2854	-2.5042	-2.3438	-2.4667	-2.5875	-2.0396	301.080	421.636	317.031	481.160	277.954	264.785	148.742	488.655	284.295	362.980	349.590	153.069	296.349	421.351	256.900	278.295	0.00045253	0.00028531	0.00017373	1031.7	1.6989e-06	4.5542e-06	1117	216.15	2.4322e-06	1.3086e-06	269.62	77.679	61.184	17.714	3.29e-06	24.641	0.0002044	0.00019957	5.5499e-05	1001.8	2.1719e-06	2.1556e-06	1085	210.36	2.133e-06	2.1316e-06	262.46	76.244	59.986	17.754	2.138e-06	24.615	181.980	311.738	454.126	153.223	210.558	284.460	152.932	160.401	359.247	282.783	160.265	166.428	166.927	174.351	395.273	174.068	-8191	255	
722.850	1	1	0	0	0.12425	0.10726	0.17158	0.13758	0.228	0.1778	0.10368	0.065383	0.1499	0.12504	0.25731	0.23378	0.21808	0.12425	0.12894	0.12196	-1.9438	-2.3833	-2.2708	-2.7104	-2.4104	-2.2938	-2.5687	-2.0854	-2.4917	-2.4625	-2.0583	-2.625	-2.15	-2.4146	-2.5521	-2.0938	458.643	182.928	301.560	143.187	307.360	403.741	427.257	181.707	464.404	313.173	480.761	460.316	325.461	362.665	481.828	405.505	0.00037282	0.00028246	6.2613e-05	1030.7	3.0536e-06	2.7168e-06	1122	215.65	3.3586e-06	9.2927e-07	269.52	77.456	60.903	17.673	1.8579e-06	24.705	0.00019851	0.00019242	5.3377e-05	998.16	2.1386e-06	2.1252e-06	1086.7	210.96	2.1411e-06	2.1325e-06	262.08	75.924	60.09	17.736	2.1248e-06	24.678	168.934	225.626	236.231	153.142	262.653	237.902	152.796	160.377	288.479	147.045	160.187	166.295	166.642	174.898	274.586	173.673	-8191	255	
722.971	1	1	0	0	0.053579	0.20538	0.22139	0.12045	0.066693	0.11191	0.3949	0.21661	0.18565	0.079636	0.054293	0.23599	0.32991	0.10044	0.053856	0.25405	-1.8438	-2.3812	-1.9708	-2.5563	-2.3667	-2.0833	-2.6854	-2.2625	-2.2854	-2.4604	-2.1875	-2.4917	-2.3833	-2.3667	-2.4875	-2.2521	250.492	310.287	237.361	407.928	235.570	486.311	460.018	402.369	315.663	271.322	394.854	416.266	499.520	239.386	184.613	492.073	0.0003608	2.7174e-05	8.9846e-05	1030	8.9855e-07	2.4549e-06	1121.2	216.19	1.7441e-06	5.1967e-07	269.58	78.159	61.256	17.727	5.2837e-06	24.455	0.00020114	0.00019474	5.4501e-05	999.8	2.166e-06	2.1369e-06	1088.2	210.7	2.1044e-06	2.0922e-06	261.53	76.282	60.005	17.755	2.057e-06	24.548	172.483	177.341	254.132	153.038	204.412	300.373	152.792	160.485	365.077	338.509	160.411	166.405	166.736	175.179	342.753	174.240	-8191	255	
723.043	1	1	0	0	0.34698	0.023004	0.058336	0.047032	0.051598	0.11763	0.12557	0.20307	0.15581	0.18836	0.22859	0.30981	0.17149	0.24264	0.14443	0.1116	-1.8208	-2.5833	-2.1583	-2.6646	-2.6979	-2.1813	-2.7438	-2.3271	-2.2896	-2.8063	-2.0646	-2.5687	-2.3458	-2.3	-2.6	-2.2625	185.873	158.630	188.658	348.450	226.564	175.398	438.126	346.973	303.385	457.355	443.599	380.454	396.682	379.173	179.332	341.792	0.00033016	6.2284e-05	2.8193e-05	1032.3	4.1102e-06	1.4368e-06	1123.9	215.54	4.086e-06	2.8025e-06	268.23	77.944	60.866	17.728	4.3867e-06	24.513	0.00019267	0.00018993	5.2714e-05	1000.1	2.0856e-06	2.079e-06	1086.7	210.23	2.0937e-06	2.0605e-06	260.83	76.089	59.927	17.77	2.0862e-06	24.599	173.644	410.226	185.449	153.211	222.062	359.280	152.819	160.681	220.063	371.847	160.288	166.571	167.016	175.163	309.903	173.737	-8191	255	
723.163	1	1	0	0	0.1144	0.12736	0.38268	0.25412	0.13177	0.11534	0.28409	0.065703	0.10631	0.1746	0.18185	0.17402	0.089356	0.239	0.1727	0.19026	-1.8521	-2.6479	-2.1708	-2.5708	-2.3208	-2.3354	-2.6333	-2.2917	-2.3	-2.7146	-2.1813	-2.4062	-2.5479	-2.1333	-2.7542	-2.4604	478.973	176.765	322.915	487.400	417.378	427.746	461.267	177.049	361.603	415.680	355.155	415.164	244.348	315.817	366.988	477.387	0.00031689	0.0001782	0.00012945	1031.4	2.2454e-06	2.6678e-06	1117.6	213.68	3.4945e-06	2.8664e-06	268.82	78.067	61.389	17.653	1.8436e-07	24.537	0.00019708	0.00019135	5.3708e-05	997.52	2.1241e-06	2.1163e-06	1083.7	209.82	2.1422e-06	2.1076e-06	261.82	76.286	60.153	17.74	2.1518e-06	24.578	171.539	273.375	178.696	153.220	272.610	496.975	152.822	160.527	210.571	337.060	160.460	166.246	166.747	174.762	353.867	174.129	-8191	255	
723.260	1	1	0	0	0.11848	0.080328	0.12242	0.39079	0.098516	0.19746	0.2909	0.16006	0.15247	0.27533	0.10221	0.18173	0.090207	0.1224	0.18379	0.17858	-1.6688	-2.7583	-2.0375	-2.5563	-2.6083	-2.0563	-2.8396	-2.3063	-2.1958	-2.5062	-2.1021	-2.4396	-2.4938	-2.1917	-2.3521	-2.5958	258.128	284.929	307.529	439.811	168.479	179.135	447.546	418.861	229.201	209.085	206.264	244.886	469.437	143.565	241.096	445.863	0.00035468	0.0001216	0.00010374	1027.4	2.2207e-06	3.692e-06	1119	214.55	6.4731e-06	2.6666e-06	268.56	78.101	60.902	17.688	3.0403e-06	24.799	0.00019811	0.0001948	5.4151e-05	998.29	2.1386e-06	2.1253e-06	1086.2	209.86	2.135e-06	2.1215e-06	261.37	76.223	60.183	17.785	2.0827e-06	24.66	165.389	215.409	220.292	153.186	291.604	298.617	152.849	160.497	223.464	325.279	160.511	166.649	167.021	174.920	312.080	174.355	-8191	255	
723.356	1	1	0	0	0.14481	0.28094	0.19047	0.19827	0.15898	0.23101	0.17144	0.050075	0.1603	0.34081	0.14185	0.10742	0.070384	0.099827	0.10276	0.18551	-1.5417	-2.6646	-2.0958	-2.4479	-2.4583	-2.1562	-2.6	-2.475	-2.125	-2.4104	-2.3563	-2.325	-2.6479	-2.1688	-2.3521	-2.625	378.745	150.296	232.840	471.682	453.271	247.037	472.454	191.943	349.708	401.218	446.702	255.103	444.655	225.637	482.563	355.659	0.00030362	0.00044097	0.00014086	1031	4.1525e-06	3.5262e-06	1122.2	214.24	2.3315e-06	4.6568e-06	270.18	77.682	60.862	17.656	4.1419e-06	24.757	0.00019469	0.00019245	5.3427e-05	999.6	2.0891e-06	2.1113e-06	1086.2	209.97	2.0846e-06	2.0454e-06	261.68	76.215	59.951	17.751	2.0716e-06	24.637	186.340	212.883	220.523	153.260	181.043	266.169	152.919	160.486	331.119	311.478	160.164	166.306	166.806	174.992	315.115	173.534	-8191	255	
723.452	1	1	0	0	0.19606	0.24044	0.12977	0.098274	0.15238	0.19384	0.078312	0.20549	0.25706	0.17848	0.18108	0.18156	0.11552	0.11608	0.23136	0.10855	-1.7208	-2.6229	-2.2375	-2.5146	-2.4792	-2.1229	-2.5021	-2.6479	-2.0479	-2.5167	-2.3208	-2.1208	-2.6875	-2.1167	-2.2708	-2.4479	298.995	339.338	254.393	238.388	473.242	406.429	390.597	215.980	146.885	249.649	403.911	285.339	356.513	178.350	366.762	389.995	0.00031239	0.00027004	5.6201e-05	1030.3	8.6117e-07	1.7588e-06	1119.7	215.43	6.8811e-06	2.4451e-06	268.83	77.383	61.14	17.74	3.9004e-06	24.496	0.00019178	0.00019006	5.3335e-05	998.8	2.1051e-06	2.0979e-06	1085.7	210.16	2.0773e-06	2.0612e-06	260.92	75.95	59.936	17.754	2.0843e-06	24.542	187.556	308.721	191.590	153.114	220.094	253.000	152.894	160.406	250.807	452.178	160.375	166.429	167.080	174.906	216.134	174.271	-8191	255	
723.546	1	1	0	0	0.077102	0.010568	0.13068	0.09052	0.062072	0.25215	0.21473	0.23508	0.1183	0.084497	0.098172	0.36823	0.11765	0.21311	0.097607	0.28187	-1.6646	-2.4146	-2.2167	-2.3187	-2.625	-2.0042	-2.4708	-2.6479	-2.1458	-2.3917	-2.4604	-2.1458	-2.7167	-2.0604	-2.4583	-2.6063	301.066	309.350	397.194	227.562	177.965	487.386	422.409	203.400	482.663	339.315	221.244	339.479	192.072	155.100	372.979	345.023	0.00041883	0.0001981	0.00010049	1027.2	2.1321e-06	3.0115e-06	1119.6	214.65	2.6397e-06	4.8054e-06	267.38	78.045	61.028	17.772	4.3503e-06	24.721	0.00019428	0.00018657	5.2141e-05	996.8	2.0382e-06	2.0467e-06	1085.8	209.83	2.0686e-06	2.051e-06	260.53	76.249	60.031	17.783	2.0863e-06	24.564	173.812	472.359	199.040	153.385	266.605	270.570	152.931	160.478	249.154	259.094	160.490	166.412	167.001	174.324	233.910	173.731	-8191	255	
723.642	1	1	0	0	0.15255	0.25024	0.31194	0.23848	0.28465	0.4115	0.2619	0.065775	0.20105	0.33323	0.21885	0.052022	0.096946	0.23265	0.077552	0.2021	-1.5979	-2.4896	-2.1458	-2.5354	-2.3771	-2.3833	-2.1562	-2.6063	-1.9896	-2.3708	-2.3708	-2.1167	-2.5333	-2.2583	-2.2229	-2.4146	211.186	242.631	375.105	145.340	348.180	271.829	422.460	169.706	375.037	282.249	215.439	155.723	209.258	180.591	371.040	423.398	0.00030981	0.00015563	0.0001874	1028.4	2.6353e-06	1.4325e-06	1117.9	214.9	3.3708e-06	4.4542e-06	268.71	77.168	60.966	17.765	3.3127e-06	24.569	0.000195	0.00018815	5.2468e-05	998.06	2.0973e-06	2.0526e-06	1084.4	209.77	2.0485e-06	2.0339e-06	261.26	75.831	59.903	17.716	2.0384e-06	24.558	163.923	215.900	203.632	153.339	196.973	280.588	152.965	160.561	259.395	248.496	160.133	166.450	166.937	175.053	231.003	174.410	-8191	255	
723.739	1	1	0	0	0.18321	0.20557	0.12896	0.17957	0.23188	0.21222	0.50748	0.34528	0.1896	0.16386	0.054328	0.16096	0.25177	0.13901	0.2707	0.24855	-1.7521	-2.5187	-2.3333	-2.3542	-2.3833	-2.375	-2.2375	-2.5896	-2.2375	-2.4021	-2.4708	-2.1	-2.5042	-2.3208	-2.2104	-2.6646	379.034	284.393	264.910	417.449	473.786	433.142	450.188	439.631	255.615	468.286	269.665	492.458	155.738	203.526	212.673	172.308	0.00032048	4.7773e-05	2.2553e-05	1031.5	4.5203e-06	2.6729e-06	1121.7	215.1	1.7733e-06	1.9447e-06	267.53	78.162	60.924	17.586	4.81e-06	24.574	0.00018622	0.00018583	5.1737e-05	997.76	2.0255e-06	2.0299e-06	1086.3	209.45	2.0224e-06	1.9887e-06	259.87	75.978	59.838	17.651	1.9798e-06	24.487	160.149	500.384	381.101	153.282	283.332	307.243	153.035	160.555	288.632	434.799	159.915	166.620	167.010	174.550	465.437	174.063	-8191	255	
723.835	1	1	0	0	0.12229	0.2602	0.046023	0.3491	0.14839	0.15728	0.15466	0.25148	0.13509	0.34917	0.17339	0.16471	0.17265	0.15086	0.068109	0.17828	-1.6854	-2.2396	-2.5687	-2.2271	-2.5812	-2.3521	-2.1979	-2.6333	-2.2188	-2.2313	-2.5563	-2.1188	-2.4917	-2.4062	-2.1979	-2.5604	459.644	295.474	175.233	462.946	194.286	222.809	286.636	441.292	474.981	177.067	199.847	343.751	467.967	226.028	374.151	494.639	0.00033746	6.6012e-05	2.6649e-05	1027.3	3.5343e-06	2.1953e-06	1116.6	213.42	2.9204e-06	2.9291e-06	268.18	77.381	60.884	17.723	3.4733e-06	24.686	0.00018539	0.0001812	5.0265e-05	995.59	1.9939e-06	1.9823e-06	1082.1	208.89	1.977e-06	1.9303e-06	260.44	75.654	59.721	17.682	1.9599e-06	24.489	162.112	282.093	343.124	153.271	247.509	211.506	152.963	160.613	282.674	189.822	160.270	166.565	167.369	175.013	213.634	174.037	-8191	255	
723.931	1	1	0	0	0.18083	0.10454	0.15244	0.050972	0.1334	0.054379	0.2793	0.32801	0.13649	0.19253	0.29332	0.26403	0.13434	0.18897	0.24362	0.12708	-1.8333	-2.225	-2.2729	-2.4083	-2.4667	-2.6229	-2.1917	-2.6583	-2.3354	-2.4292	-2.5833	-2.3	-2.4938	-2.5187	-2.1583	-2.3583	484.294	355.034	282.942	419.350	328.674	280.260	403.249	469.256	377.884	242.319	255.373	458.104	221.863	382.991	193.392	493.515	0.00033952	5.8847e-05	0.00011399	1024.9	4.4724e-06	1.1095e-06	1114.9	215.64	5.0955e-06	4.9758e-06	269.61	78.143	60.823	17.719	1.8831e-06	24.396	0.00018194	0.000179	4.952e-05	993.61	1.9563e-06	1.9434e-06	1080.1	209.32	1.9517e-06	1.9637e-06	260.3	75.816	59.683	17.658	1.9784e-06	24.432	171.768	286.690	187.250	153.272	267.303	156.872	153.031	160.824	187.418	249.350	160.216	166.805	166.747	174.956	269.969	173.730	-8191	255	
724.051	1	1	0	0	0.10467	0.067845	0.21379	0.32882	0.34751	0.021391	0.19673	0.067469	0.097502	0.20918	0.21374	0.18958	0.29282	0.22362	0.21648	0.082299	-1.9833	-2.1729	-2.5708	-2.3479	-2.5396	-2.6792	-2.1854	-2.6125	-2.3667	-1.9917	-2.7917	-2.1688	-2.45	-2.4792	-2.2292	-2.3729	143.375	419.947	371.467	458.875	401.332	216.217	427.878	432.734	480.194	356.369	473.726	387.175	475.235	163.432	314.887	424.443	0.00032908	0.0001967	7.5809e-05	1025.7	1.2096e-06	5.6686e-06	1114	214.24	3.5676e-07	2.2332e-06	268.64	77.37	60.714	17.626	1.7678e-06	24.864	0.00018526	0.00018108	4.9866e-05	992.56	1.9864e-06	1.9805e-06	1079.9	209.21	1.9851e-06	1.978e-06	260.42	75.661	59.664	17.585	1.954e-06	24.486	176.142	353.282	251.311	153.223	459.682	230.671	153.125	160.509	298.989	283.627	160.323	166.799	167.295	175.114	214.935	173.980	-8191	255	
724.148	1	1	0	0	0.17919	0.14148	0.16635	0.23847	0.15391	0.11825	0.074067	0.38092	0.13324	0.11185	0.33195	0.30296	0.31441	0.15215	0.082082	0.17785	-1.9146	-2.1958	-2.6708	-2.2938	-2.3479	-2.6375	-2.1917	-2.5271	-2.3771	-2.3708	-2.6646	-2.2708	-2.2354	-2.4146	-2.3354	-2.4375	382.751	283.507	330.623	439.544	429.179	198.525	187.616	416.444	438.598	350.896	402.543	149.969	472.967	143.043	153.178	422.531	0.00029318	0.0001364	6.9431e-05	1020.9	3.231e-06	1.5766e-06	1115.5	214.47	3.4157e-06	4.057e-06	269	77.145	61.077	17.737	2.4745e-06	24.498	0.0001807	0.00017997	4.921e-05	991.76	1.9392e-06	1.9378e-06	1078.1	208.37	1.9352e-06	1.9314e-06	259.38	75.603	59.658	17.633	1.9097e-06	24.42	161.071	292.465	460.094	153.317	298.666	270.176	152.866	160.274	264.389	315.462	160.076	166.634	166.755	175.096	190.166	174.050	-8191	255	
724.244	1	1	0	0	0.034874	0.3126	0.066614	0.1064	0.17293	0.31999	0.1702	0.15587	0.1024	0.26694	0.33651	0.35768	0.18786	0.27955	0.093618	0.086192	-1.9188	-2.15	-2.5646	-2.2812	-2.1479	-2.625	-2.3458	-2.3125	-2.6208	-2.2458	-2.5375	-2.4938	-2.4083	-2.5229	-2.25	-2.3104	308.487	320.739	167.795	461.780	465.615	464.847	472.124	230.211	485.583	424.136	456.376	440.158	289.320	441.759	351.500	282.936	0.00035919	0.00028299	7.858e-05	1022.4	3.4577e-06	3.1335e-06	1114.6	214.34	3.1465e-06	1.2565e-06	268.82	77.18	60.921	17.571	2.7666e-06	24.526	0.0001784	0.00017281	4.8501e-05	987.76	1.9444e-06	1.8929e-06	1077.1	208.7	1.9459e-06	1.9349e-06	260.01	75.465	59.607	17.601	1.9428e-06	24.388	169.508	245.519	193.837	153.183	273.528	207.417	153.054	160.591	229.549	255.127	160.210	166.472	166.870	174.798	272.161	173.882	-8191	255	
724.340	1	1	0	0	0.25948	0.12072	0.1831	0.19568	0.13988	0.049668	0.23274	0.134	0.2003	0.093792	0.13661	0.075484	0.075396	0.12642	0.19239	0.055314	-2.1	-1.9896	-2.325	-2.5521	-2.2229	-2.5771	-2.3833	-2.3104	-2.6125	-2.0208	-2.7354	-2.3729	-2.2167	-2.4	-2.2104	-2.1312	397.638	182.001	413.571	397.860	313.764	475.326	402.832	457.079	435.024	236.803	149.966	197.372	401.084	478.257	495.625	284.590	0.00033543	8.3396e-05	4.9712e-05	1024.9	1.6725e-06	4.0743e-06	1110.5	215.07	3.3596e-06	8.2115e-07	267.6	77.509	60.911	17.671	2.1173e-06	24.331	0.00018167	0.00017758	4.9386e-05	992.07	1.9502e-06	1.9423e-06	1077.3	209.08	1.942e-06	1.9647e-06	259.35	75.717	59.629	17.602	1.9178e-06	24.387	156.036	227.541	216.812	153.241	469.347	270.598	153.025	160.437	238.523	240.506	160.264	166.639	167.032	175.116	456.979	173.766	-8191	255	
724.436	1	1	0	0	0.016724	0.056684	0.11312	0.231	0.19585	0.1964	0.22342	0.27928	0.23	0.15148	0.068299	0.097118	0.26049	0.12284	0.10479	0.31726	-1.9146	-2.1417	-2.4396	-2.6521	-2.0938	-2.5854	-2.3021	-2.4562	-2.4667	-2.1708	-2.4188	-2.4979	-2.1167	-2.4729	-2.4854	-2.2833	165.160	225.516	407.019	440.995	154.786	247.449	461.045	435.657	144.576	502.053	368.111	205.884	433.389	312.416	303.565	415.517	0.00035732	0.00036124	2.8987e-05	1019.8	2.0231e-06	4.471e-06	1109.4	213.91	4.0136e-06	8.7959e-07	267.31	77.067	60.573	17.492	3.0455e-06	24.442	0.00018054	0.00017634	4.9801e-05	987.99	1.9501e-06	1.936e-06	1076.5	208.28	1.927e-06	1.9315e-06	259.6	75.423	59.5	17.531	1.9023e-06	24.419	156.850	248.220	435.976	153.340	233.446	361.802	153.082	160.518	241.933	206.334	160.037	166.702	166.908	175.189	322.051	173.501	-8191	255	
724.532	1	1	0	0	0.081718	0.18808	0.26279	0.42326	0.19004	0.090691	0.16123	0.33205	0.25561	0.19058	0.2046	0.081855	0.23129	0.0078184	0.094343	0.21607	-2.2604	-2.1104	-2.5229	-2.575	-2.2625	-2.7042	-2.5625	-2.3937	-2.6083	-2.3729	-2.3438	-2.4146	-2.1458	-2.7083	-2.1958	-2.4625	369.679	212.474	435.734	441.044	162.672	381.846	401.432	439.728	182.502	446.097	475.373	500.780	487.532	467.592	393.699	176.929	0.00038322	0.00014807	9.7673e-05	1025.2	3.2944e-06	2.7047e-06	1108.3	213.86	2.1873e-06	3.583e-06	267.66	77.479	61.327	17.532	4.2051e-06	24.59	0.00018087	0.000176	4.9099e-05	990.56	2.0081e-06	1.9429e-06	1075.9	208.38	1.9466e-06	1.9747e-06	259.49	75.625	59.761	17.578	1.9615e-06	24.419	172.622	318.669	265.506	153.107	303.349	258.287	153.106	160.596	235.228	305.128	160.062	166.327	166.622	174.997	277.952	173.941	-8191	255	
724.651	1	1	0	0	0.12704	0.24171	0.31678	0.25907	0.16998	0.18893	0.18411	0.28824	0.19508	0.19087	0.28114	0.26032	0.35908	0.057715	0.14853	0.088296	-1.9417	-2.1167	-2.3812	-2.4854	-2.2562	-2.6354	-2.4833	-2.2896	-2.4708	-2.4167	-2.4062	-2.5729	-2.1208	-2.4771	-2.5604	-2.0021	301.700	257.638	298.677	454.868	260.405	300.320	389.399	460.509	326.766	277.491	146.961	498.626	231.446	394.981	500.384	463.493	0.00027606	0.00017814	0.00010083	1025.6	2.5215e-06	1.2274e-06	1111.2	212.5	4.7128e-06	2.7319e-06	268.82	77.103	60.257	17.693	4.4432e-06	24.403	0.00017825	0.00017554	4.9361e-05	991.58	1.9499e-06	1.9341e-06	1077.9	208.39	1.9277e-06	1.9095e-06	260.15	75.493	59.464	17.612	1.9247e-06	24.357	171.538	149.298	222.414	153.105	287.281	419.039	152.791	160.544	253.719	306.118	160.282	166.532	166.995	175.091	337.954	174.350	-8191	255	
724.747	1	1	0	0	0.18087	0.23065	0.17636	0.12048	0.22693	0.1938	0.17924	0.20379	0.14977	0.025645	0.15304	0.070709	0.29728	0.10399	0.2892	0.060461	-2.1229	-2.1854	-2.2083	-2.6542	-2.0771	-2.525	-2.5458	-2.2583	-2.6312	-2.3271	-2.2062	-2.5687	-2.2375	-2.5812	-2.5833	-2.2896	246.545	415.845	187.592	453.688	161.961	384.256	432.359	447.510	483.005	471.442	488.628	454.992	412.117	407.426	217.963	287.528	0.00031797	0.00014851	5.6366e-05	1022.2	5.0412e-06	1.7194e-06	1112.8	213.82	2.07e-06	3.2464e-06	268.43	77.383	60.799	17.627	3.8447e-06	24.464	0.00017989	0.00017752	4.9263e-05	990.09	1.9387e-06	1.9565e-06	1078.1	208.24	1.9612e-06	1.9189e-06	259.47	75.652	59.499	17.62	1.9335e-06	24.367	167.150	465.407	487.834	153.179	267.268	220.787	152.876	160.589	222.847	466.381	160.440	166.577	167.129	174.938	265.173	173.863	-8191	255	
724.843	1	1	0	0	0.10551	0.02642	0.10809	0.23777	0.17065	0.25286	0.17311	0.34417	0.138	0.17983	0.3185	0.21958	0.16544	0.12146	0.22749	0.087318	-1.9521	-2.4771	-2.2562	-2.5375	-2.3292	-2.2333	-2.6604	-2.1708	-2.6104	-2.3292	-2.2729	-2.5812	-2.1708	-2.2104	-2.3563	-2.0729	159.123	358.138	208.363	408.121	387.435	259.377	472.036	458.698	427.466	384.356	201.352	335.852	428.278	219.369	151.683	413.671	0.00034825	0.00040223	8.1809e-05	1023	2.0294e-06	2.4528e-06	1113.5	213.7	3.172e-06	2.8673e-06	267.96	77.608	61.14	17.566	1.4107e-06	24.767	0.00018093	0.00017726	4.9387e-05	990.24	1.9497e-06	1.919e-06	1077.1	208.5	1.9535e-06	1.9396e-06	259.48	75.743	59.676	17.63	1.8593e-06	24.517	176.950	244.686	160.452	153.133	352.327	444.143	152.703	160.493	269.535	299.755	160.021	166.475	166.543	174.803	234.723	174.030	-8191	255	
724.940	1	1	0	0	0.1521	0.037585	0.28966	0.43805	0.16383	0.20071	0.13792	0.01816	0.22828	0.18907	0.33045	0.20053	0.1429	0.092175	0.046631	0.18164	-1.8062	-2.1833	-2.3521	-2.6771	-2.3146	-2.1729	-2.75	-2.0938	-2.4479	-2.5229	-2.1063	-2.4437	-2.25	-2.1437	-2.6	-2.1583	438.221	314.587	363.342	488.832	407.388	392.570	157.177	352.049	407.093	458.319	434.260	325.142	270.256	288.878	313.261	496.163	0.00030503	0.00037564	9.3755e-05	1029	4.615e-06	1.1018e-06	1115.7	213.49	3.9712e-06	1.7707e-06	268.72	77.741	60.553	17.588	3.2349e-06	24.361	0.00017011	0.00016467	4.5448e-05	992.66	1.7467e-06	1.7555e-06	1078	207.98	1.7725e-06	1.7915e-06	259.12	75.203	59.29	17.558	1.7834e-06	24.273	164.986	209.233	200.224	153.249	287.909	402.632	152.832	160.627	186.794	265.483	160.378	166.525	166.840	174.748	302.190	174.251	-8191	255	
725.036	1	1	0	0	0.061711	0.056922	0.089707	0.23935	0.089918	0.34754	0.3851	0.12729	0.22275	0.21443	0.027289	0.12723	0.25638	0.21185	0.38045	0.15452	-1.8021	-2.1229	-2.1479	-2.6833	-2.2188	-2.2083	-2.6708	-2.2417	-2.3542	-2.5521	-2.1604	-2.5312	-2.4833	-2.1937	-2.6625	-2.2917	224.153	277.646	322.105	479.174	346.036	472.972	397.068	455.581	285.630	144.720	280.790	156.880	412.472	457.607	448.234	144.841	0.0003722	0.00043278	6.4195e-05	1018.6	1.8994e-06	2.8783e-06	1113.2	212.19	8.2408e-06	1.8135e-06	268.14	77.371	61.062	17.675	2.817e-06	24.457	0.00016749	0.00016601	4.6206e-05	985.19	1.8324e-06	1.8303e-06	1072.8	207.36	1.8574e-06	1.8416e-06	258.45	75.127	59.368	17.556	1.8449e-06	24.266	170.115	197.846	416.928	153.182	304.355	335.917	152.891	160.543	288.681	374.876	160.222	166.522	167.400	174.679	327.216	174.025	-8191	255	
725.132	1	1	0	0	0.19907	0.24599	0.15548	0.16023	0.19605	0.1089	0.19929	0.093353	0.12843	0.080391	0.11264	0.097298	0.11011	0.077947	0.11563	0.10751	-1.8458	-2.2729	-2.0687	-2.5583	-2.5042	-2.0646	-2.6042	-2.4521	-2.2604	-2.6729	-2.15	-2.3792	-2.3396	-2.1604	-2.6979	-2.3667	234.808	403.289	281.485	373.396	183.527	387.150	369.019	395.565	389.912	318.034	453.533	166.614	207.406	179.719	222.973	330.204	0.00027305	0.00034923	0.00015742	1022.4	4.7176e-06	2.9638e-06	1111.2	212.6	3.4577e-06	2.348e-06	265.54	76.864	60.493	17.547	3.5557e-06	24.533	0.00017406	0.00016872	4.6542e-05	987.64	1.8339e-06	1.8311e-06	1075.1	207.37	1.8107e-06	1.7836e-06	258.07	74.998	59.244	17.531	1.801e-06	24.243	148.835	212.697	281.701	153.158	274.358	356.265	152.912	160.638	250.072	221.937	160.019	166.573	166.918	174.911	303.893	174.201	-8191	255	
725.228	1	1	0	0	0.3403	0.079037	0.21782	0.2881	0.090902	0.088098	0.077745	0.13057	0.19043	0.15974	0.12433	0.1435	0.39347	0.056926	0.079009	0.26634	-1.7625	-2.4833	-2.1979	-2.4604	-2.275	-2.2313	-2.6604	-2.4083	-2.3458	-2.5812	-2.1625	-2.4188	-2.6792	-2.1083	-2.5854	-2.2458	438.241	409.964	411.017	409.529	288.138	490.398	407.602	418.710	231.339	201.911	374.314	154.055	424.970	320.454	367.308	447.614	0.00031125	0.00028285	4.7245e-05	1013.7	3.7329e-06	1.7086e-06	1106.6	212.09	2.6913e-06	2.1104e-06	266.76	77.241	60.741	17.657	4.3135e-06	24.713	0.0001713	0.00016763	4.6406e-05	984.73	1.8633e-06	1.8664e-06	1072.5	207.58	1.8408e-06	1.8102e-06	258.26	75.252	59.209	17.521	1.7981e-06	24.299	167.747	220.205	449.646	153.143	260.613	357.927	152.783	160.614	321.216	285.714	160.110	166.523	167.184	174.698	308.805	174.135	-8191	255	
725.349	1	1	0	0	0.27923	0.12972	0.064012	0.1874	0.14861	0.18976	0.1954	0.11908	0.13276	0.23123	0.15946	0.15379	0.088625	0.23318	0.26417	0.19233	-1.7979	-2.5354	-2.1125	-2.5604	-2.5708	-1.925	-2.5479	-2.2792	-2.2458	-2.6271	-2.3167	-2.3417	-2.7271	-2.1667	-2.4188	-2.3563	426.884	306.264	253.108	165.821	192.267	179.147	147.346	327.985	171.592	238.100	219.308	413.495	416.278	471.775	319.480	356.643	0.00029668	0.00017812	0.00013046	1014.5	8.3796e-07	2.4516e-06	1105.5	212.71	5.1815e-06	2.803e-06	266.58	76.905	60.6	17.562	6.2798e-06	24.295	0.00016624	0.00016359	4.4882e-05	981.43	1.7577e-06	1.752e-06	1068.5	206.97	1.8014e-06	1.7882e-06	257.51	74.969	59.035	17.455	1.8769e-06	24.245	170.928	184.478	340.273	153.172	453.015	308.396	153.076	160.502	283.247	321.428	160.619	166.606	167.198	175.310	293.023	174.131	-8191	255	
725.443	1	1	0	0	0.080398	0.15358	0.1245	0.30461	0.12642	0.099058	0.25486	0.29343	0.11272	0.068788	0.21238	0.23954	0.10651	0.13966	0.1357	0.199	-1.7479	-2.5625	-2.0563	-2.4229	-2.7333	-2.1125	-2.5604	-2.6375	-2.35	-2.5604	-2.3688	-2.5083	-2.4437	-2.2208	-2.3438	-2.5229	341.774	490.433	331.796	446.397	364.512	329.900	414.473	451.998	479.789	339.274	196.627	445.712	182.818	244.803	167.916	493.169	0.00041256	0.00045253	5.5749e-05	1010.5	2.9945e-06	1.6371e-06	1099.5	212.81	5.6028e-06	8.6175e-07	264.71	77.335	60.371	17.578	1.3563e-06	24.429	0.00017664	0.00017519	4.8937e-05	979.79	1.929e-06	1.9003e-06	1069.9	207.19	1.9365e-06	1.9354e-06	258.08	75.328	59.38	17.546	2.0138e-06	24.343	175.361	172.714	171.980	153.428	259.956	316.752	152.844	160.578	251.257	216.133	160.119	166.536	166.835	175.072	221.009	174.098	-8191	255	
725.516	1	1	0	0	0.11329	0.18693	0.11416	0.08225	0.16152	0.048541	0.17973	0.044577	0.33918	0.18443	0.10931	0.16257	0.13566	0.27094	0.21552	0.12445	-1.4937	-2.6521	-2.05	-2.4833	-2.5604	-2.175	-2.3458	-2.5687	-2.3521	-2.4521	-2.4792	-1.9854	-2.6292	-1.9396	-2.3917	-2.5479	180.987	344.606	359.839	422.514	297.769	345.696	485.776	490.143	251.411	356.844	174.630	288.592	231.768	487.952	305.613	468.281	0.00031434	2.3948e-05	0.00026027	1021	2.5123e-06	2.6604e-06	1111.5	212.81	2.5853e-06	1.876e-06	267.92	77.502	60.815	17.652	1.5129e-06	24.39	0.00018817	0.00018636	5.1209e-05	990.22	2.0488e-06	2.0696e-06	1078.4	208.23	2.1065e-06	2.0927e-06	259.98	75.644	59.79	17.633	2.0848e-06	24.478	160.721	302.570	239.013	153.275	258.963	427.368	152.994	160.436	325.901	189.088	160.256	166.958	166.662	175.391	193.098	174.210	-8191	255	
725.613	1	1	0	0	0.14926	0.22183	0.064193	0.23041	0.1808	0.33701	0.19184	0.10628	0.036806	0.14529	0.034183	0.26218	0.1866	0.23419	0.01338	0.10046	-1.5917	-2.4021	-2.425	-2.3563	-2.5375	-2.35	-2.5542	-2.5187	-2.1792	-2.4521	-2.4042	-2.2542	-2.4625	-2.3396	-2.2146	-2.6646	354.426	375.962	223.382	182.381	495.492	429.779	447.464	222.619	257.896	316.371	193.425	444.672	147.620	490.669	298.600	298.460	0.00037246	0.00028156	4.1678e-05	1024.6	4.6456e-06	2.7359e-07	1113.3	213.29	5.2355e-06	2.2777e-06	267.55	77.541	60.341	17.686	2.0282e-06	24.642	0.00019344	0.00018881	5.2584e-05	991.5	2.0474e-06	2.0322e-06	1079.3	208.61	1.9837e-06	1.9622e-06	259.09	75.658	59.435	17.623	1.939e-06	24.442	161.688	501.148	218.439	153.310	251.428	497.214	153.040	160.635	364.072	228.276	160.392	166.507	166.731	174.771	247.835	174.015	-8191	255	
725.731	1	1	0	0	0.1411	0.082732	0.070532	0.30399	0.10924	0.16885	0.20793	0.20533	0.29525	0.16793	0.16562	0.077124	0.077678	0.23404	0.14155	0.11852	-1.55	-2.3312	-2.4771	-2.3125	-2.5125	-2.3229	-2.4271	-2.7812	-2.3083	-2.4833	-2.5833	-2.1979	-2.6937	-2.2687	-2.2125	-2.4688	351.944	375.873	472.126	457.168	274.093	143.325	441.605	170.781	173.838	220.875	181.915	148.824	240.109	359.139	432.803	174.760	0.00029786	0.00013376	7.3282e-05	1021.5	9.7797e-07	3.9466e-06	1110.7	213.16	4.2479e-06	3.2987e-07	267.15	77.284	60.912	17.576	5.3766e-06	24.433	0.00018156	0.0001746	4.8814e-05	989.66	1.954e-06	1.9005e-06	1076.6	208.09	1.9031e-06	1.8828e-06	258.94	75.414	59.545	17.513	1.8628e-06	24.351	167.318	188.737	204.318	153.318	281.851	389.128	152.937	160.541	240.836	354.527	160.441	166.780	166.883	174.701	182.967	174.126	-8191	255	
#DATA ENDS
