BOXY.EXE: ISS Imagent and Oximeter Data Acquisition Program Version 0.80
Ascii Record File

#ACQ INFORMATION
2  Detector Channels 
16  External MUX Channels 
1  Auxiliary Channels 
5000  Waveform (CCF) Frequency (Hz)
1  Waveforms Skipped 
30  Waveforms Averaged 
1  Cycles Averaged 
16  Acquisitions per Waveform 
10.0806  Updata Rate (Hz) 

#FILE INFORMATION
TRUE -- External MUX Channel results are PARSED.
FALSE -- AC DC and Phase are NOT grouped.
TRUE -- Companion Program Settings File CREATED.
FALSE -- AC data not excluded
FALSE -- DC data not excluded
FALSE -- Phase data not excluded
FALSE -- Auxillary Chn. data not excluded
Tab delimiters

#CALIBRATION STATE
TRUE -- Waveform Calibration Values APPLIED.


#AUX CALIBRATION VALUES
Val Type	aux-1	

Term	1.0000e+00	
Factor	0.0000e+00	


#WF CALIBRATION VALUES
A = Detector Channel
Val Type	A-AC1	A-AC2	A-AC3	A-AC4	A-AC5	A-AC6	A-AC7	A-AC8	A-AC9	A-AC10	A-AC11	A-AC12	A-AC13	A-AC14	A-AC15	A-AC16	A-DC1	A-DC2	A-DC3	A-DC4	A-DC5	A-DC6	A-DC7	A-DC8	A-DC9	A-DC10	A-DC11	A-DC12	A-DC13	A-DC14	A-DC15	A-DC16	A-Ph1	A-Ph2	A-Ph3	A-Ph4	A-Ph5	A-Ph6	A-Ph7	A-Ph8	A-Ph9	A-Ph10	A-Ph11	A-Ph12	A-Ph13	A-Ph14	A-Ph15	A-Ph16	

Term	0.00000e+00	0.00000e+00	0.00000e+00	0.00000e+00	0.00000e+00	0.00000e+00	0.00000e+00	0.00000e+00	0.00000e+00	0.00000e+00	0.00000e+00	0.00000e+00	0.00000e+00	0.00000e+00	0.00000e+00	0.00000e+00	0.00000e+00	0.00000e+00	0.00000e+00	0.00000e+00	0.00000e+00	0.00000e+00	0.00000e+00	0.00000e+00	0.00000e+00	0.00000e+00	0.00000e+00	0.00000e+00	0.00000e+00	0.00000e+00	0.00000e+00	0.00000e+00	0.00000e+00	0.00000e+00	0.00000e+00	0.00000e+00	0.00000e+00	0.00000e+00	0.00000e+00	0.00000e+00	0.00000e+00	0.00000e+00	0.00000e+00	0.00000e+00	0.00000e+00	0.00000e+00	0.00000e+00	0.00000e+00	
Factor	1.00000e+00	1.00000e+00	1.00000e+00	1.00000e+00	1.00000e+00	1.00000e+00	1.00000e+00	1.00000e+00	1.00000e+00	1.00000e+00	1.00000e+00	1.00000e+00	1.00000e+00	1.00000e+00	1.00000e+00	1.00000e+00	1.00000e+00	1.00000e+00	1.00000e+00	1.00000e+00	1.00000e+00	1.00000e+00	1.00000e+00	1.00000e+00	1.00000e+00	1.00000e+00	1.00000e+00	1.00000e+00	1.00000e+00	1.00000e+00	1.00000e+00	1.00000e+00	X	X	X	X	X	X	X	X	X	X	X	X	X	X	X	X	

B = Detector Channel
Val Type	B-AC1	B-AC2	B-AC3	B-AC4	B-AC5	B-AC6	B-AC7	B-AC8	B-AC9	B-AC10	B-AC11	B-AC12	B-AC13	B-AC14	B-AC15	B-AC16	B-DC1	B-DC2	B-DC3	B-DC4	B-DC5	B-DC6	B-DC7	B-DC8	B-DC9	B-DC10	B-DC11	B-DC12	B-DC13	B-DC14	B-DC15	B-DC16	B-Ph1	B-Ph2	B-Ph3	B-Ph4	B-Ph5	B-Ph6	B-Ph7	B-Ph8	B-Ph9	B-Ph10	B-Ph11	B-Ph12	B-Ph13	B-Ph14	B-Ph15	B-Ph16	

Term	0.00000e+00	0.00000e+00	0.00000e+00	0.00000e+00	0.00000e+00	0.00000e+00	0.00000e+00	0.00000e+00	0.00000e+00	0.00000e+00	0.00000e+00	0.00000e+00	0.00000e+00	0.00000e+00	0.00000e+00	0.00000e+00	0.00000e+00	0.00000e+00	0.00000e+00	0.00000e+00	0.00000e+00	0.00000e+00	0.00000e+00	0.00000e+00	0.00000e+00	0.00000e+00	0.00000e+00	0.00000e+00	0.00000e+00	0.00000e+00	0.00000e+00	0.00000e+00	4.69284e+01	-1.27582e+02	-1.30931e+02	-1.83936e+02	-7.62020e+01	-6.69807e+01	-1.56989e+02	-1.62015e+02	-5.22494e+01	-7.94096e+01	-1.78987e+02	-1.72875e+02	-1.82137e+02	-1.78866e+02	-7.23244e+01	-1.51154e+02	
Factor	6.73214e-05	1.82383e-04	5.06034e-05	1.89429e-01	1.93940e-06	2.29934e-06	1.72175e-01	6.05181e-02	3.16237e-06	2.20276e-06	1.07814e-01	3.31898e-02	2.86066e-02	1.08537e-02	2.29806e-06	1.49911e-02	5.72136e-06	6.42153e-06	1.79335e-06	9.47223e-02	6.88599e-08	7.09668e-08	8.12099e-02	3.03370e-02	6.85387e-08	7.09561e-08	5.23066e-02	1.61085e-02	1.44478e-02	5.47581e-03	6.95704e-08	7.34234e-03	X	X	X	X	X	X	X	X	X	X	X	X	X	X	X	X	



#DISTANCE SETTINGS
A = Detector Channel
A-1	A-2	A-3	A-4	A-5	A-6	A-7	A-8	A-9	A-10	A-11	A-12	A-13	A-14	A-15	A-16	

2.5000e+00	3.0000e+00	2.5000e+00	3.0000e+00	2.0000e+00	3.0000e+00	1.5000e+00	3.0000e+00	3.0000e+00	3.0000e+00	3.0000e+00	3.0000e+00	3.0000e+00	3.0000e+00	1.5000e+00	3.0000e+00	

B = Detector Channel
B-1	B-2	B-3	B-4	B-5	B-6	B-7	B-8	B-9	B-10	B-11	B-12	B-13	B-14	B-15	B-16	

1.0000e+01	1.0000e+01	1.0000e+01	1.4400e+00	1.0000e+01	1.0000e+01	1.5100e+00	1.9400e+00	1.0000e+01	1.0000e+01	1.9900e+00	2.4900e+00	2.4100e+00	2.9000e+00	1.0000e+01	2.9800e+00	




#DATA BEGINS
time	group	step	mark	flag	A-AC1	A-AC2	A-AC3	A-AC4	A-AC5	A-AC6	A-AC7	A-AC8	A-AC9	A-AC10	A-AC11	A-AC12	A-AC13	A-AC14	A-AC15	A-AC16	A-DC1	A-DC2	A-DC3	A-DC4	A-DC5	A-DC6	A-DC7	A-DC8	A-DC9	A-DC10	A-DC11	A-DC12	A-DC13	A-DC14	A-DC15	A-DC16	A-Ph1	A-Ph2	A-Ph3	A-Ph4	A-Ph5	A-Ph6	A-Ph7	A-Ph8	A-Ph9	A-Ph10	A-Ph11	A-Ph12	A-Ph13	A-Ph14	A-Ph15	A-Ph16	B-AC1	B-AC2	B-AC3	B-AC4	B-AC5	B-AC6	B-AC7	B-AC8	B-AC9	B-AC10	B-AC11	B-AC12	B-AC13	B-AC14	B-AC15	B-AC16	B-DC1	B-DC2	B-DC3	B-DC4	B-DC5	B-DC6	B-DC7	B-DC8	B-DC9	B-DC10	B-DC11	B-DC12	B-DC13	B-DC14	B-DC15	B-DC16	B-Ph1	B-Ph2	B-Ph3	B-Ph4	B-Ph5	B-Ph6	B-Ph7	B-Ph8	B-Ph9	B-Ph10	B-Ph11	B-Ph12	B-Ph13	B-Ph14	B-Ph15	B-Ph16	aux-1	digaux	

604.011	1	1	0	256	0.12329	0.31788	0.12857	0.37446	0.077326	0.18576	0.37023	0.32175	0.1015	0.027414	0.26754	0.15385	0.10366	0.27381	0.18149	0.12627	-3.0083	-2.8375	-3.3729	-3.3812	-2.9437	-3.4979	-3.3104	-3.2271	-3.3812	-3.1042	-3.4437	-3.3708	-3.0229	-3.5917	-3.1333	-3.1667	-153.217	-107.936	-151.361	123.172	-37.353	162.314	163.529	114.953	-52.298	63.157	102.265	140.899	-66.868	-139.654	183.904	113.143	0.0016712	0.00047118	0.00023524	1560.8	8.846e-06	6.9344e-06	1547.7	416.9	1.0657e-05	7.5234e-06	464.82	159.54	138.79	46.756	6.0802e-06	56.595	0.0008703	0.00086256	0.00024067	1594.5	9.6232e-06	9.5498e-06	1583.2	428.35	9.609e-06	9.7182e-06	479.82	163.96	142.54	48.48	9.4977e-06	59.033	16.772	-38.662	-75.159	-159.150	-69.545	-39.479	-159.575	-155.017	-64.915	-25.156	-155.186	-151.720	-150.922	-145.800	-2.003	-146.819	-8191	255	
604.107	1	1	0	0	0.096751	0.16504	0.12218	0.21026	0.25967	0.10212	0.26741	0.073849	0.1827	0.2585	0.33245	0.18824	0.142	0.24532	0.065614	0.058833	-3.1063	-2.9854	-3.3438	-3.6375	-2.925	-3.4729	-3.5896	-3.2687	-3.4042	-2.9021	-3.3583	-3.4896	-3.0938	-3.4083	-3.2188	-3.0938	-148.257	-59.756	-106.171	170.684	52.880	75.830	96.713	-154.913	-82.158	-125.819	169.328	103.022	-155.271	83.331	-143.050	9.151	0.0017714	0.00042594	0.00024979	1558	4.0789e-06	8.6028e-06	1546.2	418.55	7.3097e-06	5.7572e-06	465.79	159.56	138.86	46.723	1.0159e-05	56.656	0.00087825	0.00087903	0.00024133	1593.6	9.4921e-06	9.4755e-06	1582.6	428.22	9.4265e-06	9.6066e-06	480.13	163.66	142.48	48.385	9.4069e-06	59.13	12.686	-114.513	-91.230	-159.247	-43.087	4.911	-159.489	-154.915	-38.748	-55.670	-155.358	-151.666	-150.960	-145.938	-60.863	-146.665	-8191	255	
604.203	1	1	0	0	0.2586	0.082223	0.22127	0.13629	0.010473	0.080195	0.35148	0.15498	0.048332	0.34157	0.15939	0.16491	0.014765	0.19815	0.30679	0.11794	-2.9896	-3.1458	-3.2771	-3.5896	-3.1063	-3.3667	-3.5771	-3.1021	-3.5271	-3.0521	-3.3875	-3.6229	-3.0229	-3.3542	-3.3104	-3.0667	3.047	-137.983	-135.642	-154.646	163.997	-17.357	99.005	164.671	-140.404	-18.850	-124.799	151.855	15.563	-29.121	177.980	25.966	0.0016159	0.00024024	0.00015877	1559.1	5.1383e-06	6.1013e-06	1544.7	417.72	1.1469e-05	1.1042e-05	467	159.3	138.37	46.579	6.65e-06	56.659	0.00087079	0.00087454	0.00024336	1592.3	9.5018e-06	9.5492e-06	1580.9	428.36	9.4474e-06	9.5782e-06	480.56	163.79	142.41	48.307	9.3991e-06	59.042	11.861	-67.450	-64.266	-159.279	-41.161	-66.393	-159.658	-154.768	-30.705	-53.240	-155.306	-151.341	-150.860	-146.071	-59.710	-147.108	-8191	255	
604.299	1	1	0	0	0.30867	0.23119	0.10522	0.12414	0.16112	0.054695	0.31238	0.05609	0.25096	0.11586	0.10019	0.18347	0.15239	0.17912	0.23145	0.24504	-3.1188	-3.0875	-3.3187	-3.7875	-2.9396	-3.2667	-3.6708	-3.2958	-3.4958	-3.1458	-3.2125	-3.6229	-3.0208	-3.2396	-3.4917	-3.2333	-95.887	-23.472	-130.001	76.323	37.266	6.103	94.150	148.423	8.829	-134.924	118.321	167.911	170.583	-170.895	-136.371	-151.595	0.0015979	0.00064102	0.00020311	1557.8	6.8575e-06	9.4132e-06	1550.9	418.41	5.9913e-06	4.9018e-06	467.27	159.74	138.16	46.694	4.8069e-06	56.833	0.00086918	0.0008785	0.00024208	1593.6	9.5781e-06	9.5249e-06	1584	428.61	9.4552e-06	9.5219e-06	480.29	163.99	142.16	48.401	9.3904e-06	59.079	20.081	-41.824	-72.786	-159.276	-32.893	-28.299	-159.594	-154.922	-40.251	-68.539	-155.050	-151.536	-150.933	-145.693	-52.102	-146.585	-8191	255	
604.395	1	1	0	0	0.18482	0.035123	0.05737	0.31407	0.27855	0.16424	0.26739	0.037407	0.4368	0.02728	0.15513	0.11491	0.16442	0.35901	0.03977	0.10679	-2.8854	-3.2271	-3.0875	-3.7042	-2.8271	-3.2417	-3.6604	-3.2854	-3.2875	-3.2021	-3.0687	-3.6042	-2.9458	-3.3333	-3.3563	-3.0833	-47.995	-49.918	-7.766	172.414	148.056	-150.329	106.032	137.508	61.810	85.122	64.759	132.782	-65.436	-160.592	-130.182	139.656	0.0015414	0.00050174	0.00022693	1557.4	6.7574e-06	8.8813e-06	1547.7	418.6	1.4072e-05	8.0358e-06	466.62	159.81	138.89	46.511	8.5317e-06	56.798	0.0008731	0.00086135	0.00024278	1592.3	9.4239e-06	9.3351e-06	1581.1	428.15	9.286e-06	9.505e-06	480.09	163.86	142.45	48.382	9.5943e-06	59.157	19.026	-99.358	-93.645	-159.001	-38.669	13.818	-159.621	-154.799	-30.046	-27.410	-155.313	-151.561	-151.004	-145.646	-27.136	-146.574	-8191	255	
604.516	1	1	0	0	0.3663	0.12204	0.10341	0.1707	0.2055	0.23474	0.18606	0.064097	0.23452	0.12058	0.46058	0.10895	0.071192	0.30237	0.16821	0.12223	-3.1021	-3.3479	-2.9417	-3.8208	-3.1562	-3.2625	-3.7479	-3.1875	-3.4021	-3.2646	-2.9125	-3.4854	-3.3792	-3.175	-3.4354	-3.1979	31.841	97.884	70.127	147.060	-41.937	-79.824	139.333	-164.855	-132.133	-153.998	174.423	155.905	164.955	-150.537	-139.136	92.696	0.0018471	0.00089765	9.1428e-05	1556.7	7.6452e-06	5.7281e-06	1546.6	419.03	1.0378e-05	9.0174e-06	466.53	159.57	138.51	46.632	7.9104e-06	56.88	0.00087492	0.00088181	0.00024475	1594	9.5446e-06	9.615e-06	1581.6	428.75	9.3842e-06	9.5763e-06	480.25	163.73	142.1	48.345	9.4494e-06	59.114	16.062	-112.847	-86.016	-159.277	-41.510	-18.665	-159.541	-155.032	-33.586	-23.069	-155.275	-151.678	-150.927	-145.926	-46.062	-146.910	-8191	255	
604.610	1	1	0	0	0.13416	0.21305	0.16176	0.15917	0.17495	0.25407	0.1244	0.2966	0.19922	0.15008	0.062386	0.043911	0.0752	0.21165	0.093136	0.35047	-2.8937	-3.4458	-2.8417	-3.5208	-3.2458	-3.2188	-3.5792	-3.1979	-3.2854	-3.2021	-2.9417	-3.7354	-3.4125	-3.0958	-3.6188	-3.2354	137.975	43.932	139.300	130.189	126.045	-104.006	121.895	93.026	134.389	-165.564	145.851	80.780	101.114	125.200	-148.892	-155.138	0.0014579	0.00057773	0.00016277	1557.4	7.8286e-06	1.9088e-06	1546.5	417.95	1.3908e-05	6.5596e-06	465.9	159.53	139.05	46.678	8.0441e-06	56.856	0.00086912	0.00087242	0.0002435	1591.5	9.4687e-06	9.4903e-06	1581.4	428.34	9.3166e-06	9.7098e-06	480	163.69	142.36	48.335	9.6268e-06	59.135	19.035	-96.191	-102.146	-159.173	-57.217	-68.575	-159.358	-154.884	-61.332	-33.885	-155.244	-151.538	-151.028	-145.791	-51.069	-146.834	-8191	255	
604.706	1	1	0	0	0.0556	0.16319	0.14152	0.13496	0.20037	0.19721	0.40245	0.096077	0.072732	0.085605	0.16706	0.074295	0.29766	0.024466	0.0624	0.18592	-2.9167	-3.4771	-2.9292	-3.5438	-3.2708	-2.8729	-3.7604	-3.2062	-3.1688	-3.6125	-3.1271	-3.3917	-3.4437	-3.1188	-3.6875	-3.3375	-73.269	-43.700	-92.371	153.561	164.579	161.843	117.206	-157.083	182.135	-78.608	101.072	56.374	177.415	-144.135	80.152	-154.856	0.0016287	0.00037112	0.00019315	1557.2	5.9967e-06	4.1563e-06	1547.7	418.25	7.2533e-06	9.5318e-06	467	159.11	139.03	46.541	5.6551e-06	56.792	0.00088735	0.00087323	0.00024571	1593.6	9.4489e-06	9.4826e-06	1581.8	428.14	9.5078e-06	9.7463e-06	480.08	163.46	142.38	48.373	9.4891e-06	59.031	14.050	-73.302	-43.614	-159.028	-79.882	-31.051	-159.554	-154.866	-42.115	-32.578	-155.268	-151.690	-150.844	-145.854	-62.370	-146.823	-8191	255	
604.802	1	1	0	0	0.25136	0.15359	0.14478	0.12002	0.079757	0.24464	0.18321	0.24068	0.32092	0.063645	0.19734	0.18679	0.16701	0.21763	0.21768	0.067749	-2.8646	-3.6667	-3.0104	-3.6437	-3.3125	-2.8396	-3.5646	-3.4229	-3.1979	-3.6146	-3.1521	-3.4542	-3.6021	-3.2625	-3.4188	-3.2625	-67.113	-138.454	-48.034	106.092	-16.735	-156.923	118.089	123.936	163.744	-36.145	-127.400	-170.874	-108.229	-89.954	-96.629	69.335	0.0016535	0.00075298	0.00021277	1559.6	6.3644e-06	6.8502e-06	1546.5	416.33	5.9777e-06	6.96e-06	465.95	158.97	138.35	46.269	7.4402e-06	56.844	0.00088871	0.00088071	0.00024269	1592.5	9.6404e-06	9.7392e-06	1581.9	427.89	9.6413e-06	9.6663e-06	480.28	163.66	142.37	48.264	9.5571e-06	59.095	17.467	-91.831	-92.408	-159.151	-70.536	-12.730	-159.472	-155.028	-55.239	-62.265	-155.241	-151.391	-150.733	-145.780	-39.894	-146.766	-8191	255	
604.899	1	1	0	0	0.056516	0.27585	0.045371	0.21571	0.0089989	0.043144	0.025835	0.13539	0.099041	0.2568	0.26793	0.25156	0.072072	0.31014	0.24324	0.12488	-2.6063	-3.6875	-3.0646	-3.2875	-3.4813	-2.9854	-3.6604	-3.3	-3.1063	-3.5104	-3.2104	-3.3667	-3.6271	-3.1708	-3.2792	-3.2771	26.532	-109.347	-106.426	115.084	-83.393	112.786	-126.619	96.673	-94.295	-37.812	-102.318	167.964	-160.447	-168.424	166.997	121.121	0.0016797	0.00034303	0.00020526	1556.8	3.0347e-06	1.0863e-05	1541	419.02	1.0869e-05	4.1277e-06	466.06	159.18	138.98	46.795	8.9412e-06	56.78	0.00089535	0.00088923	0.00024944	1592.1	9.8536e-06	9.971e-06	1580.3	428.87	9.8624e-06	9.7884e-06	480.37	163.65	142.49	48.454	9.8564e-06	59.012	12.393	-119.982	-78.010	-159.181	-79.827	-27.469	-159.534	-154.896	-44.918	-50.270	-155.113	-151.631	-151.016	-146.139	-61.031	-146.613	-8191	255	
604.995	1	1	0	0	0.080374	0.20631	0.17506	0.25635	0.083508	0.043084	0.29473	0.27767	0.21199	0.16615	0.090696	0.10131	0.022758	0.084755	0.23927	0.26108	-2.6688	-3.3958	-3.2125	-3.1958	-3.3917	-3.1063	-3.6771	-3.4417	-2.8792	-3.5104	-3.2667	-3.3	-3.4938	-3.0083	-3.2396	-3.4229	-62.123	51.812	103.034	-172.449	-50.091	-170.140	-166.132	149.862	-75.749	-139.396	159.701	-84.821	-116.231	-164.567	75.281	40.812	0.0015844	0.0004222	0.00010796	1558.1	4.1884e-06	8.4564e-06	1545.9	418.82	1.6037e-05	1.0355e-05	467.29	159.02	138.33	46.57	4.9311e-06	56.44	0.00091905	0.0008796	0.00024913	1592.5	9.7494e-06	9.8487e-06	1581	428.3	9.7925e-06	9.8174e-06	480.51	163.46	142.22	48.324	9.6112e-06	59.023	11.655	-97.692	-101.311	-159.074	-21.689	-25.450	-159.621	-154.893	-13.517	5.932	-155.139	-151.499	-151.040	-145.857	-45.112	-146.584	-8191	255	
605.091	1	1	0	0	0.050458	0.13639	0.1779	0.29856	0.086183	0.15912	0.30217	0.22763	0.11083	0.089552	0.062499	0.13462	0.32312	0.14054	0.1898	0.18161	-2.7438	-3.4708	-3.1729	-3.3396	-3.5708	-3.1188	-3.5604	-3.4979	-3.1063	-3.5396	-3.3042	-3.2521	-3.625	-3.0479	-3.2896	-3.3375	24.164	-136.869	-161.009	113.515	24.669	-91.610	116.930	-132.859	154.208	-22.560	-80.453	35.803	-138.955	-149.664	55.906	108.136	0.0016465	0.00040337	0.00016711	1556.5	2.0576e-06	7.116e-06	1545	417.24	1.7662e-05	6.5827e-06	465.83	158.67	138.19	46.686	5.7385e-06	56.606	0.00089753	0.00089009	0.00025072	1594.4	9.7257e-06	9.7967e-06	1581	428.39	9.7502e-06	9.7526e-06	479.92	163.33	142.08	48.316	9.5685e-06	58.995	15.875	-74.252	-65.255	-159.158	-24.051	1.969	-159.495	-155.055	-31.715	2.075	-155.066	-151.504	-151.034	-145.952	-63.064	-146.608	-8191	255	
605.187	1	1	0	0	0.063965	0.23654	0.040149	0.052564	0.11928	0.21214	0.11294	0.43856	0.17381	0.047436	0.26383	0.25916	0.24568	0.24892	0.16529	0.3039	-2.6312	-3.4521	-3.1229	-3.2771	-3.6396	-3.075	-3.5687	-3.5229	-3.0292	-3.4188	-3.3583	-3.175	-3.625	-3.2146	-3.1937	-3.6042	-125.110	52.619	-14.740	84.489	3.622	-158.853	79.410	121.636	180.694	63.688	129.691	-138.139	-82.319	105.161	110.377	128.142	0.0017853	0.00087449	0.00015146	1558.4	6.2672e-06	5.9809e-06	1544.4	417.22	7.1841e-06	9.206e-06	465.09	159.1	138.15	46.508	9.9525e-06	56.927	0.00089939	0.00088066	0.00024606	1592.7	9.5813e-06	9.6303e-06	1580.3	427.86	9.6717e-06	9.7143e-06	479.98	163.54	142.14	48.291	9.7557e-06	59.098	17.604	-68.242	-88.212	-159.213	-53.500	-55.237	-159.577	-155.106	9.418	-33.240	-155.287	-151.621	-150.979	-145.727	-103.098	-146.790	-8191	255	
605.306	1	1	0	0	0.08113	0.13036	0.12448	0.40517	0.059446	0.19734	0.37591	0.047469	0.089753	0.29538	0.22523	0.17587	0.16943	0.068453	0.29127	0.20656	-2.5292	-3.325	-3.3917	-3.2708	-3.4792	-3.1667	-3.3854	-3.6125	-3.1229	-3.2667	-3.3083	-2.9375	-3.7938	-3.3417	-3.1167	-3.7458	-139.910	15.840	83.982	133.191	-61.102	106.862	129.195	167.947	-44.092	-37.220	81.336	-79.103	164.617	-39.243	-8.517	48.222	0.0014322	0.00046245	0.00015442	1552.4	3.2876e-06	7.2746e-06	1544.4	419	1.3156e-05	5.756e-06	466.25	159	138.02	46.507	1.0663e-05	56.734	0.00091088	0.00089754	0.00025266	1591.4	9.8639e-06	9.96e-06	1580	428.76	9.8297e-06	9.8554e-06	480.11	163.57	142.12	48.313	9.8477e-06	59.021	16.285	-74.279	-46.165	-159.051	-84.742	-13.936	-159.638	-155.038	-13.521	-20.965	-155.321	-151.571	-150.906	-146.037	-46.149	-147.036	-8191	255	
605.402	1	1	0	0	0.10923	0.17074	0.30138	0.29224	0.19456	0.21681	0.29646	0.23737	0.072323	0.060653	0.19891	0.11226	0.05816	0.1138	0.068304	0.19184	-2.6625	-3.3083	-3.3021	-3.0854	-3.4437	-3.3063	-3.4208	-3.6896	-3.0792	-3.4896	-3.5938	-3.0438	-3.3187	-3.4188	-3.1083	-3.6146	1.005	172.275	-59.895	-138.846	-152.762	-153.661	168.339	104.514	43.877	150.927	134.885	-9.304	91.344	81.068	173.672	149.785	0.0015183	0.00090013	0.0001876	1560.8	6.3759e-06	1.0013e-05	1544.5	418.7	1.1132e-05	4.6793e-06	466.64	158.86	138.31	46.465	6.4112e-06	56.465	0.0008933	0.00089251	0.00025013	1594.8	9.5358e-06	9.7634e-06	1582	428.67	9.6344e-06	9.867e-06	479.66	163.56	142.17	48.287	9.8728e-06	58.929	12.323	-81.757	-136.910	-159.315	-37.538	2.630	-159.548	-154.871	-47.844	-15.296	-155.426	-151.381	-150.641	-145.759	-28.073	-146.791	-8191	255	
605.476	1	1	0	0	0.21638	0.18454	0.16291	0.13184	0.164	0.14314	0.25887	0.081961	0.030492	0.14797	0.15512	0.17068	0.30593	0.35976	0.16812	0.21587	-2.7083	-3.2438	-3.2875	-3.2292	-3.4688	-3.2562	-3.3187	-3.7396	-3.1688	-3.4125	-3.5687	-3.1292	-3.75	-3.4688	-3.0479	-3.5812	46.708	-12.370	-52.522	-145.061	90.047	-85.647	128.689	99.878	-104.638	128.662	118.355	186.032	156.167	-128.334	-142.986	108.714	0.0015558	0.00065509	9.1281e-05	1558.1	9.0263e-06	5.6947e-06	1545.5	417.97	1.1631e-05	6.8814e-06	466.18	158.42	138.56	46.405	4.8204e-06	56.401	0.00090177	0.00088949	0.00025003	1592.1	9.6682e-06	9.8248e-06	1579.6	428.57	9.6942e-06	9.7124e-06	480.39	163.13	142.17	48.25	9.6177e-06	58.913	13.681	-74.878	-8.266	-159.032	-45.459	-32.515	-159.436	-154.808	-37.034	-4.889	-155.356	-151.597	-150.899	-145.882	-10.223	-146.640	-8191	255	
605.596	1	1	0	0	0.091188	0.11227	0.1777	0.17782	0.075225	0.19722	0.20298	0.31519	0.29119	0.17307	0.16861	0.30824	0.18928	0.11138	0.29177	0.23855	-2.8333	-2.9354	-3.5021	-3.1167	-3.3521	-3.4896	-3.2812	-3.5896	-3.2333	-3.0771	-3.6437	-3.0854	-3.3167	-3.5354	-2.9688	-3.5292	102.523	-20.727	-167.879	-148.087	-156.810	120.904	94.962	162.188	-57.318	70.057	62.820	164.124	104.678	-169.340	39.923	165.768	0.0017426	0.00047875	0.00018537	1552.3	3.3128e-06	6.6746e-06	1539.2	416.77	5.0786e-06	1.1202e-05	465.97	159.17	138.2	46.585	5.6354e-06	56.733	0.00089614	0.00087865	0.00024584	1588.6	9.544e-06	9.6438e-06	1577.5	428.33	9.3687e-06	9.6282e-06	479.77	163.17	141.81	48.221	9.5409e-06	58.886	19.922	-78.527	-94.612	-159.054	-50.369	-49.429	-159.470	-154.759	-30.551	-48.316	-155.209	-151.646	-150.764	-145.809	-14.755	-146.772	-8191	255	
605.691	1	1	0	0	0.086332	0.080708	0.12492	0.16526	0.14625	0.11705	0.029813	0.12345	0.31701	0.0078083	0.086393	0.11435	0.073746	0.14856	0.044119	0.16313	-2.7979	-2.8979	-3.3063	-3.1604	-3.3187	-3.4792	-3.1333	-3.5875	-3.3625	-3.0208	-3.7125	-3.3083	-3.4229	-3.5375	-3.0062	-3.4104	175.913	168.746	-124.759	151.429	-52.255	-32.781	153.950	128.097	163.530	-20.815	169.535	-153.439	181.619	122.229	22.224	185.135	0.0017549	0.00077072	0.00013661	1552.7	5.8967e-06	8.9008e-06	1539.7	417.56	8.704e-06	1.0069e-05	464.79	158.9	138.14	46.502	6.7026e-06	56.83	0.00088111	0.00087176	0.00024233	1589.1	9.584e-06	9.6253e-06	1577.4	427.97	9.4332e-06	9.6596e-06	479.11	163.37	142.1	48.239	9.5582e-06	58.985	17.048	-32.419	-82.623	-158.892	-29.877	-27.620	-159.572	-154.879	-44.201	-2.221	-155.016	-151.495	-151.180	-145.890	-37.107	-146.926	-8191	255	
605.787	1	1	0	0	0.12461	0.1396	0.21514	0.16993	0.18269	0.1983	0.56465	0.19105	0.46749	0.24324	0.028437	0.25549	0.21711	0.21841	0.11572	0.10128	-2.8333	-3.1188	-3.5604	-3.2021	-3.2104	-3.6604	-3.2562	-3.5896	-3.1958	-3.0229	-3.4854	-3.1479	-3.3438	-3.7229	-3.0458	-3.2687	-20.305	-100.627	41.489	138.164	124.123	88.145	94.123	-169.084	122.159	57.839	149.275	-133.140	177.941	-159.776	85.940	-36.145	0.0016062	0.00058889	0.00025098	1553	5.6678e-06	5.8515e-06	1548.2	416.84	7.4573e-06	9.309e-06	466.17	158.6	138.14	46.429	9.1936e-06	56.495	0.00088998	0.0008933	0.00024475	1588.3	9.6087e-06	9.7279e-06	1580.2	427.74	9.5532e-06	9.7868e-06	479.41	163.07	141.91	48.221	9.5193e-06	58.83	11.358	-94.229	-99.994	-159.270	-59.906	-4.388	-159.448	-154.751	-4.870	-32.836	-155.300	-151.614	-150.849	-145.556	-30.307	-146.878	-8191	255	
605.907	1	1	0	0	0.064751	0.1359	0.18601	0.18727	0.10254	0.22508	0.18008	0.23465	0.15265	0.14435	0.043067	0.1714	0.063842	0.19108	0.086848	0.074138	-3.0583	-2.9	-3.5146	-3.4813	-2.9625	-3.4583	-3.2458	-3.5333	-3.3563	-3.0333	-3.4208	-3.3812	-3.2021	-3.6979	-3.0667	-3.4958	163.440	182.243	128.024	37.429	128.302	-72.773	89.805	-167.945	116.691	163.355	159.981	-123.800	85.555	63.120	119.497	-84.898	0.0015757	0.0005169	5.3456e-05	1552.1	4.4669e-06	4.8514e-06	1544.9	417.83	1.6399e-05	9.2648e-06	465.39	159.55	138.27	46.486	3.913e-06	56.521	0.00087823	0.00087258	0.00024407	1589.7	9.5745e-06	9.7185e-06	1578.2	427.93	9.4661e-06	9.9244e-06	479.45	163.35	142.14	48.221	9.6172e-06	58.768	14.250	-83.617	-92.232	-159.115	-83.149	-52.727	-159.512	-154.814	-53.323	-22.479	-155.377	-151.523	-150.796	-145.780	-94.489	-146.677	-8191	255	
606.003	1	1	0	0	0.15263	0.24661	0.15159	0.15511	0.22966	0.2173	0.19045	0.2023	0.030666	0.24697	0.21472	0.2119	0.25428	0.10896	0.33748	0.12063	-3.1958	-3.0708	-3.3979	-3.4833	-3.3167	-3.6417	-3.4604	-3.4833	-3.5167	-3.0812	-3.6458	-3.3854	-3.2021	-3.6542	-3.2042	-3.3708	3.282	-37.238	-161.164	116.814	76.368	-84.586	84.290	123.648	-19.567	-148.254	177.465	186.343	166.519	-141.158	101.160	137.947	0.0017389	0.00067782	0.00013948	1552.2	3.6438e-06	5.8324e-06	1542.1	415.57	1.3014e-05	6.0968e-06	463.85	158.71	138.26	46.482	8.7049e-06	56.353	0.00089203	0.00088628	0.00024611	1586.7	9.7253e-06	9.6558e-06	1577.2	427.05	9.5172e-06	9.7461e-06	479.22	163.12	141.87	48.201	9.6478e-06	58.739	15.789	-88.868	-77.651	-159.119	-48.409	-31.952	-159.511	-154.935	-58.375	-82.782	-155.274	-151.489	-150.953	-145.681	-72.232	-146.775	-8191	255	
606.075	1	1	0	0	0.09519	0.2568	0.14431	0.11757	0.065906	0.064541	0.27571	0.12018	0.07111	0.21036	0.096764	0.0803	0.28677	0.097031	0.032845	0.22195	-3.1125	-2.9938	-3.3979	-3.5771	-2.9542	-3.3854	-3.5042	-3.2625	-3.6146	-3.1292	-3.4188	-3.5917	-3.0208	-3.5875	-3.1937	-3.2896	-45.871	179.822	115.254	162.469	180.641	151.842	121.978	158.050	115.635	131.356	-23.017	-129.227	160.028	179.508	123.335	60.679	0.0015594	0.00052954	9.178e-05	1551.6	8.6278e-06	8.4871e-06	1539.2	418.87	7.3919e-06	8.555e-06	464.46	158.13	138.25	46.452	9.1052e-06	56.611	0.0008885	0.00090099	0.00024872	1588.3	9.829e-06	9.9309e-06	1578.9	428.29	9.6865e-06	9.9832e-06	479.5	163.19	142.06	48.213	9.9467e-06	58.911	14.454	-58.640	-84.559	-159.239	-52.029	-13.030	-159.657	-155.042	-40.217	-16.119	-155.163	-151.468	-151.037	-145.665	-36.353	-146.776	-8191	255	
606.196	1	1	0	0	0.18188	0.13646	0.23832	0.20479	0.25034	0.17616	0.22219	0.2164	0.082384	0.15307	0.12518	0.055775	0.29268	0.084411	0.10974	0.23745	-3.0938	-3.0604	-3.2812	-3.6979	-3.1333	-3.3604	-3.5354	-3.35	-3.5125	-3.0604	-3.4708	-3.3875	-3.0938	-3.4062	-3.2438	-3.0354	73.508	48.499	-35.694	-165.387	-111.371	52.257	131.732	149.404	145.828	-67.242	-48.300	-10.441	112.352	-8.035	-144.856	96.179	0.0017112	0.00051577	0.00017955	1558.8	6.3832e-06	6.7881e-06	1541.3	418.46	1.0317e-05	3.638e-06	467.07	158.64	138.24	46.31	4.3293e-06	56.42	0.0009176	0.00090609	0.00025319	1590.9	9.9114e-06	9.9875e-06	1578.3	428.56	9.8884e-06	1.0059e-05	480.18	163.25	142.12	48.188	9.9323e-06	58.906	18.720	-103.405	-90.344	-159.057	-66.736	18.268	-159.647	-154.849	-7.819	-14.447	-155.141	-151.669	-150.884	-145.792	47.838	-146.895	-8191	255	
606.292	1	1	0	0	0.15818	0.20075	0.1903	0.27474	0.22856	0.12385	0.31853	0.17188	0.10254	0.090699	0.12344	0.22206	0.3111	0.15737	0.14456	0.16396	-3.2521	-3.0687	-3.1333	-3.7854	-3.1333	-3.5292	-3.5812	-3.075	-3.5896	-3.2021	-3.2938	-3.475	-3.075	-3.3792	-3.2875	-3.2229	69.686	-71.963	-104.654	172.084	2.900	-84.493	141.928	21.807	109.862	-47.178	153.791	26.380	128.531	-140.529	161.765	-120.948	0.0016149	0.00043819	0.00013168	1553.8	9.7658e-06	7.87e-06	1537.3	417.27	1.4371e-05	5.0865e-06	464.28	158.54	137.69	46.385	1.1489e-05	56.391	0.00090471	0.00089211	0.00025392	1590.8	9.7091e-06	9.8771e-06	1577.7	428.32	9.7636e-06	9.9562e-06	479.44	163.06	141.92	48.209	9.7858e-06	58.823	14.314	-61.938	-110.194	-159.276	-45.859	12.856	-159.445	-154.939	-83.317	-44.693	-155.328	-151.387	-150.903	-145.946	-56.238	-146.870	-8191	255	
606.388	1	1	0	0	0.15855	0.098567	0.11817	0.14789	0.077034	0.31509	0.22374	0.073348	0.19385	0.27958	0.13545	0.26445	0.11777	0.14405	0.13244	0.30898	-2.9604	-2.9542	-3.1604	-3.6646	-2.9896	-3.3812	-3.6833	-3.3583	-3.4938	-3.2812	-3.2771	-3.6167	-3.1917	-3.3438	-3.2646	-3.1021	174.033	84.458	-103.392	138.414	-133.321	42.045	88.528	118.550	-50.836	-25.708	25.780	150.681	-142.885	-30.466	38.530	101.191	0.0017226	0.00040123	0.00010402	1548.4	5.2651e-06	5.9742e-06	1544.1	416.85	9.3152e-06	6.8678e-06	465.62	158.31	137.61	46.395	4.8599e-06	56.565	0.00090287	0.00090232	0.0002534	1589.9	9.7194e-06	9.9318e-06	1579.1	428.22	9.7374e-06	9.9648e-06	480.28	162.94	141.85	48.219	9.8639e-06	58.831	15.780	-65.060	-63.733	-159.335	-37.672	27.706	-159.552	-155.058	-15.496	-15.343	-155.175	-151.791	-151.044	-145.940	-18.291	-146.759	-8191	255	
606.484	1	1	0	0	0.034334	0.21931	0.21697	0.20513	0.11743	0.16823	0.3059	0.13344	0.33355	0.22626	0.27846	0.16027	0.14826	0.1982	0.12406	0.12532	-3.0812	-3.2458	-3.0333	-3.7313	-3.1729	-3.1875	-3.75	-3.0312	-3.4417	-3.2687	-3.1292	-3.7292	-3.2542	-3.2938	-3.4667	-3.1792	-114.515	-128.623	-133.908	147.546	97.167	-65.831	157.078	143.811	184.414	81.872	89.970	112.026	47.554	181.540	-55.825	98.977	0.0015549	0.00044935	0.00014254	1549.6	1.157e-05	1.0263e-05	1538.7	416.61	1.3234e-05	2.8759e-06	464.92	158.12	137.58	46.289	9.7939e-06	56.165	0.00089294	0.00089469	0.00025034	1591.3	9.795e-06	9.9086e-06	1577.5	428.1	9.7528e-06	9.7291e-06	479.8	162.8	141.82	48.143	9.7726e-06	58.701	17.191	-92.996	-112.538	-159.153	-48.850	-5.142	-159.633	-154.819	-30.587	-53.170	-155.331	-151.551	-150.856	-145.840	-8.235	-146.750	-8191	255	
606.603	1	1	0	0	0.1353	0.088842	0.10549	0.28753	0.17529	0.16326	0.20394	0.034518	0.16448	0.19976	0.037678	0.044625	0.14497	0.10108	0.24399	0.2269	-3.2208	-3.4042	-3.0458	-3.775	-3.2562	-3.4292	-3.9042	-3.1417	-3.5875	-3.4583	-3.2	-3.7333	-3.2833	-3.2438	-3.4083	-3.3	-43.694	-126.402	16.102	165.952	96.512	54.202	100.145	51.739	66.875	-82.694	174.083	-51.212	34.566	73.885	186.824	132.077	0.0016629	0.00074184	0.00014883	1549.8	5.6706e-06	9.5171e-06	1537.8	415.2	9.6493e-06	4.2942e-06	464.75	158.23	137.69	46.415	8.4943e-06	56.41	0.0008878	0.00088771	0.00024878	1588.2	9.5394e-06	9.7322e-06	1577.2	427.55	9.4738e-06	9.6287e-06	479.31	162.93	141.69	48.205	9.7951e-06	58.8	15.197	-84.863	-100.900	-159.192	-52.663	-37.826	-159.604	-154.811	-50.392	-61.909	-155.070	-151.777	-150.903	-145.712	-39.058	-146.702	-8191	255	
606.699	1	1	0	0	0.30479	0.23776	0.13081	0.21065	0.15495	0.1127	0.13415	0.16628	0.21432	0.22391	0.28883	0.091865	0.024931	0.31109	0.17429	0.22586	-2.9542	-3.4708	-2.925	-3.6729	-3.1333	-3.0604	-3.7292	-3.4583	-3.3438	-3.3958	-3.1521	-3.5	-3.3833	-3.2375	-3.4771	-3.2854	-45.355	-93.120	-133.008	107.834	-26.877	-153.697	112.540	-114.226	-171.392	146.329	166.589	156.466	174.228	-110.764	55.009	151.791	0.0017261	0.00066231	0.00014667	1549.9	9.1779e-06	4.4555e-06	1535.6	416.48	4.505e-06	5.5161e-06	464.74	159.06	137.92	46.297	9.3091e-06	56.388	0.00089302	0.00089833	0.00025007	1588.7	9.6517e-06	9.7324e-06	1576.5	427.68	9.7612e-06	9.7785e-06	479.31	163.13	141.72	48.168	9.6374e-06	58.797	22.414	-91.038	-36.827	-159.145	-57.326	-2.428	-159.697	-154.897	-13.915	38.140	-155.434	-151.701	-150.881	-145.976	-73.471	-146.768	-8191	255	
606.771	1	1	0	0	0.11663	0.15378	0.13297	0.15022	0.2935	0.15332	0.18795	0.24924	0.20179	0.1836	0.14418	0.28008	0.40222	0.22758	0.026337	0.26069	-2.9542	-3.45	-2.9229	-3.4958	-3.2896	-3.2	-3.6458	-3.0979	-3.2479	-3.6437	-3.0875	-3.4313	-3.4083	-3.1292	-3.4854	-3.1646	-154.607	175.122	123.056	-157.873	57.661	-166.493	115.031	176.020	-15.004	-63.400	-118.737	143.013	186.969	116.459	110.472	146.768	0.0017746	0.00048616	0.00011142	1547	5.2902e-06	6.6319e-06	1531.6	416.64	9.3602e-06	4.2069e-06	464.98	157.86	137.29	46.458	4.8086e-06	56.733	0.00089872	0.00089117	0.00024753	1586.5	9.6199e-06	9.8317e-06	1576.2	427.8	9.5079e-06	9.7384e-06	479.32	162.75	141.63	48.101	9.5793e-06	58.886	17.474	-75.746	-79.160	-159.208	-74.432	3.839	-159.516	-154.995	-57.825	8.306	-155.200	-151.373	-150.861	-145.729	7.217	-146.810	-8191	255	
606.867	1	1	0	0	0.083079	0.20847	0.10704	0.19016	0.18188	0.22204	0.25317	0.33101	0.061805	0.12132	0.073897	0.18175	0.24987	0.42512	0.071259	0.22697	-2.9667	-3.55	-3.1375	-3.5125	-3.4229	-3.1813	-3.6646	-3.4875	-3.2021	-3.7896	-3.2125	-3.5083	-3.3646	-2.9792	-3.5229	-3.2812	174.419	-119.532	-7.245	-126.385	66.040	-94.167	109.159	109.957	6.154	182.844	-7.890	71.247	108.428	-164.873	-132.071	150.400	0.0016797	0.00093101	0.00023178	1549.1	7.0118e-06	6.4882e-06	1535.5	415.12	1.352e-05	5.6353e-06	464.79	158.39	137.77	46.149	1.122e-05	56.404	0.00089231	0.00088873	0.00024506	1587.2	9.6989e-06	9.8055e-06	1575.3	427.38	9.4909e-06	9.6571e-06	479.16	163	141.61	48.036	9.6235e-06	58.803	14.295	-56.772	-55.995	-159.098	-54.558	18.279	-159.551	-154.953	-31.643	-7.494	-155.217	-151.581	-150.916	-145.788	0.341	-146.774	-8191	255	
606.988	1	1	0	0	0.21732	0.19289	0.20943	0.18622	0.11931	0.13648	0.066122	0.13514	0.23954	0.037115	0.19128	0.28511	0.060062	0.21209	0.083924	0.20584	-2.6604	-3.5521	-3.1229	-3.6625	-3.4375	-3.1146	-3.6875	-3.3583	-3.2146	-3.4042	-3.3063	-3.4688	-3.575	-3.1562	-3.5187	-3.4417	167.810	-134.609	113.823	154.010	-145.852	-83.319	-37.481	-152.432	-98.919	-151.967	151.266	135.429	-116.621	142.553	147.161	130.896	0.0016039	0.00047643	0.00016397	1551.8	5.6313e-06	5.5978e-06	1535.1	416.47	1.3139e-05	1.9645e-06	464.49	157.82	137.65	46.47	6.3521e-06	56.11	0.00088204	0.00087646	0.00024457	1588.6	9.4701e-06	9.5951e-06	1573.7	427.31	9.4765e-06	9.4988e-06	478.35	162.59	141.65	48.085	9.4655e-06	58.732	14.683	-90.250	-65.922	-159.341	-50.526	-43.105	-159.523	-154.877	-25.323	-32.256	-155.184	-151.505	-150.854	-145.912	-21.139	-146.749	-8191	255	
607.084	1	1	0	0	0.22303	0.088871	0.22131	0.17958	0.1398	0.085483	0.16122	0.20224	0.12787	0.1707	0.16766	0.11014	0.17165	0.30017	0.026921	0.23424	-2.6271	-3.4625	-3.0687	-3.4333	-3.525	-2.9271	-3.7583	-3.5687	-2.9958	-3.5812	-3.2771	-3.425	-3.5062	-3.175	-3.4042	-3.325	-27.184	-20.028	-46.108	139.046	-22.778	-73.473	138.595	-111.994	-1.254	6.390	-157.489	-121.575	91.062	-105.969	-107.414	183.117	0.0015307	0.00069561	0.00023166	1549.1	5.478e-06	8.1162e-06	1537	415.96	1.3731e-05	5.0584e-06	463.01	158.15	137.32	46.112	6.817e-06	56.605	0.00088444	0.00087618	0.00024521	1587	9.3855e-06	9.5569e-06	1573	427.3	9.3625e-06	9.4824e-06	478.89	162.87	141.6	48.023	9.4007e-06	58.829	12.178	-118.449	-82.746	-159.142	-16.831	9.256	-159.425	-155.037	-55.093	-20.071	-155.498	-151.518	-151.009	-145.935	-39.132	-146.804	-8191	255	
607.180	1	1	0	0	0.41743	0.037258	0.096165	0.048907	0.15475	0.45377	0.34016	0.35202	0.095133	0.16232	0.14839	0.21405	0.028795	0.29961	0.30303	0.11631	-2.5646	-3.5146	-3.2396	-3.5292	-3.5896	-3.0958	-3.4854	-3.7521	-3.1229	-3.6229	-3.3125	-3.3521	-3.6583	-3.1646	-3.4542	-3.6979	-82.496	142.766	-24.016	-10.440	-118.323	79.060	175.640	123.694	140.563	146.706	5.605	-153.877	182.049	-167.108	-144.713	125.964	0.0018514	0.00073711	0.00014947	1544.4	3.6427e-06	8.5205e-06	1535.8	416.5	1.3062e-05	7.3151e-06	462.7	158.32	137.49	46.217	6.677e-06	56.078	0.0008943	0.00087079	0.00024122	1583.7	9.5291e-06	9.6639e-06	1574.1	427.56	9.6184e-06	9.7341e-06	478.43	162.99	141.55	48.076	9.6188e-06	58.594	18.236	-54.351	-66.507	-159.238	-125.764	-40.987	-159.562	-154.894	-20.794	-59.743	-155.426	-151.575	-150.849	-145.839	-58.035	-146.674	-8191	255	
607.276	1	1	0	0	0.12141	0.21179	0.14155	0.18115	0.16999	0.03701	0.30815	0.27295	0.15244	0.13873	0.28206	0.4167	0.46342	0.13335	0.051479	0.32427	-2.7771	-3.5125	-3.3042	-3.1063	-3.4896	-3.3125	-3.7	-3.7	-2.9542	-3.5896	-3.3646	-3.2104	-3.5771	-3.1604	-3.3271	-3.6979	-152.357	-26.534	87.701	171.349	-82.714	-100.361	130.816	166.751	172.218	71.776	-153.167	168.259	118.950	-150.302	-138.364	185.784	0.00162	0.0004556	0.00019504	1547.4	6.4256e-06	2.9019e-06	1543	415.24	9.082e-06	5.9542e-06	465.61	158.35	137.76	46.344	5.6115e-06	56.25	0.0008867	0.00087252	0.00024278	1586	9.552e-06	9.4736e-06	1575.8	426.72	9.4305e-06	9.568e-06	479.21	162.66	141.7	48.108	9.5609e-06	58.648	21.550	-53.567	-81.276	-159.200	-61.040	-6.186	-159.660	-154.888	-45.812	-29.615	-155.083	-151.655	-151.045	-145.706	22.335	-146.619	-8191	255	
607.372	1	1	0	0	0.32334	0.12653	0.22287	0.21275	0.10022	0.07795	0.28373	0.32113	0.22316	0.075621	0.2943	0.24552	0.12098	0.22439	0.17329	0.16886	-2.75	-3.4896	-3.375	-3.1583	-3.5604	-3.3979	-3.5208	-3.5812	-2.9958	-3.4604	-3.5292	-3.2167	-3.6458	-3.2958	-3.2229	-3.6208	-76.353	113.176	-90.162	89.895	92.639	161.213	136.023	107.536	125.854	-31.133	101.701	185.258	146.396	109.191	111.057	-147.725	0.0014633	0.00061056	0.00014733	1545	8.7808e-06	1.0678e-05	1532.9	417.98	1.7177e-05	7.4756e-06	465.35	158.47	137.94	46.394	4.8566e-06	56.209	0.00087875	0.00086327	0.00024507	1584.7	9.5151e-06	9.7083e-06	1574.3	427.79	9.5953e-06	9.597e-06	478.98	162.92	141.72	48.046	9.4923e-06	58.662	10.274	-72.874	-110.479	-159.150	-52.874	-18.942	-159.485	-154.723	-17.251	-44.174	-155.172	-151.626	-151.261	-145.855	-63.553	-146.647	-8191	255	
607.468	1	1	0	0	0.10345	0.14318	0.095416	0.25461	0.075332	0.14106	0.28607	0.11183	0.051072	0.12518	0.19586	0.16187	0.056453	0.25469	0.29296	0.024863	-2.5083	-3.2167	-3.4188	-3.0396	-3.5771	-3.3396	-3.3583	-3.7958	-3.2375	-3.2917	-3.6229	-3.2271	-3.6354	-3.3438	-3.0167	-3.5625	-126.309	14.134	20.695	180.091	102.489	-65.239	120.728	41.219	69.538	11.187	180.614	171.072	-167.786	179.502	12.742	29.970	0.0016612	0.00064604	0.00015332	1545.8	8.4196e-06	1.0512e-05	1531.8	415.05	6.5123e-06	2.9101e-06	463.3	157.57	136.86	45.962	8.7964e-06	56.184	0.00085568	0.00084673	0.00023639	1581.8	8.9905e-06	9.0524e-06	1569.6	426.09	8.8108e-06	9.1702e-06	477.68	162.25	140.96	47.899	9.0546e-06	58.583	15.413	-74.909	-106.463	-159.120	-44.195	-5.665	-159.404	-154.945	-3.822	-31.372	-155.183	-151.575	-151.064	-145.814	-57.934	-146.821	-8191	255	
607.589	1	1	0	0	0.10109	0.27151	0.19496	0.27289	0.12454	0.1278	0.1194	0.060693	0.09933	0.029112	0.094955	0.067346	0.094441	0.091275	0.22284	0.18605	-2.7042	-3.2146	-3.5146	-3.1937	-3.5333	-3.3229	-3.3312	-3.7375	-3.1333	-3.1813	-3.6312	-3.2271	-3.5792	-3.3937	-3.1	-3.6646	27.789	2.859	57.185	115.282	-88.128	59.134	63.543	110.786	123.981	-104.006	-135.341	29.949	-128.230	154.557	31.740	32.341	0.0016138	0.00073743	0.0001616	1542.8	3.2429e-06	1.236e-05	1537.7	415.94	1.0035e-05	4.8862e-06	463.94	158.46	137.76	46.269	9.8824e-06	56.372	0.00084143	0.00082101	0.00023087	1580.4	8.86e-06	8.9596e-06	1570.7	426.27	8.8685e-06	8.9495e-06	477.49	162.45	141.31	47.892	8.905e-06	58.532	17.208	-76.769	-84.155	-159.300	-48.245	-62.773	-159.382	-154.781	-35.742	-83.203	-155.289	-151.482	-150.955	-145.902	-72.882	-146.759	-8191	255	
607.683	1	1	0	0	0.16751	0.047938	0.24726	0.13416	0.13267	0.2563	0.30928	0.078894	0.22331	0.27996	0.13723	0.31471	0.20014	0.11739	0.41253	0.3735	-2.775	-3.2771	-3.4542	-3.3667	-3.5021	-3.5438	-3.4125	-3.6625	-3.25	-3.1521	-3.6688	-3.1688	-3.5438	-3.5729	-2.9813	-3.6542	-135.532	8.691	-10.851	-37.379	-81.190	112.911	109.749	108.351	-41.676	-24.863	148.111	168.610	184.602	28.581	-93.992	151.099	0.0015618	0.00036458	0.00014952	1547.3	7.4467e-06	8.3397e-06	1536.9	416.63	1.5382e-05	6.0419e-06	465.86	158.33	137.47	46.233	9.3211e-06	56.446	0.00082271	0.0008173	0.00022506	1580	8.8716e-06	8.9631e-06	1571.6	426	8.8314e-06	8.9081e-06	477.96	162.4	141.12	47.948	8.9373e-06	58.612	10.165	-92.831	-128.018	-159.279	-51.187	16.804	-159.460	-154.899	-41.909	-58.441	-155.189	-151.306	-151.150	-145.731	-45.785	-146.870	-8191	255	
607.780	1	1	0	0	0.088311	0.18938	0.069509	0.24253	0.15205	0.19123	0.12151	0.11675	0.26498	0.27865	0.28319	0.23374	0.19671	0.18404	0.081595	0.11329	-2.8792	-3.1292	-3.3312	-3.2875	-3.3667	-3.5812	-3.2313	-3.5208	-3.4167	-3.0833	-3.7792	-3.0979	-3.2833	-3.6604	-3.1917	-3.6167	20.543	123.630	86.839	177.709	134.439	37.625	148.200	78.516	19.935	-97.690	106.637	145.027	153.126	148.518	134.562	46.345	0.00155	0.00060535	0.000216	1542.8	1.0252e-05	3.5997e-06	1533.7	415.15	1.0637e-05	8.8846e-06	464.72	158.27	137.3	46.343	5.6152e-06	56.388	0.00082119	0.00080725	0.00022105	1579.3	8.6094e-06	8.8731e-06	1569.2	426.13	8.665e-06	8.9793e-06	477.12	162.27	141.2	47.881	8.9194e-06	58.567	11.880	-109.109	-55.531	-159.114	-80.751	21.378	-159.402	-154.939	-16.654	-2.157	-155.221	-151.502	-150.852	-145.671	-34.992	-146.832	-8191	255	
607.876	1	1	0	0	0.18093	0.13576	0.22009	0.18573	0.18376	0.25228	0.052482	0.23064	0.12439	0.20252	0.1465	0.2687	0.08814	0.21554	0.085795	0.33281	-2.9979	-3.0875	-3.5917	-3.4562	-3.3688	-3.5167	-3.3833	-3.5187	-3.2354	-3.0667	-3.5042	-3.2979	-3.2771	-3.5104	-3.1479	-3.5458	85.640	8.292	-105.647	176.618	114.871	-122.118	100.056	130.876	66.541	-150.584	114.521	163.493	-134.866	9.028	-61.387	167.329	0.001668	0.00072106	0.00011112	1540.3	4.8554e-06	7.1322e-06	1534.5	416.61	1.8575e-05	9.5101e-06	465.87	158.08	137.47	46.072	8.9263e-06	56.246	0.00084193	0.00083406	0.000232	1577.6	9.0713e-06	9.1161e-06	1571.5	426.42	9.0158e-06	9.1669e-06	478.35	162.33	141.24	47.913	8.9797e-06	58.522	18.264	-70.411	-75.847	-159.217	-52.058	-13.954	-159.425	-154.711	-46.743	-58.934	-155.250	-151.609	-151.037	-145.430	-7.840	-146.891	-8191	255	
607.996	1	1	0	0	0.17715	0.077642	0.10589	0.40284	0.15786	0.29921	0.20248	0.12222	0.10979	0.16493	0.21448	0.1515	0.077519	0.17693	0.21528	0.095969	-3.125	-3.0646	-3.5375	-3.4125	-3.2687	-3.7292	-3.3208	-3.5771	-3.4896	-3.1125	-3.7604	-3.4021	-3.3354	-3.7562	-3.1562	-3.3063	107.186	-125.791	-145.264	112.574	-56.146	7.613	165.756	33.112	181.379	-0.477	95.904	133.475	70.728	-139.778	85.398	93.371	0.0015977	0.00027335	0.00024174	1544.5	5.1179e-06	6.2535e-06	1528.2	414.8	1.1107e-05	4.8355e-06	463.54	157.51	137.27	46.169	4.3082e-06	56.22	0.00082895	0.00082046	0.00022912	1579.6	8.8101e-06	9.0224e-06	1568.2	426.13	8.7071e-06	8.7403e-06	476.99	162	140.86	47.828	8.519e-06	58.467	19.787	-2.686	-109.507	-159.227	-51.484	-8.720	-159.521	-155.005	-70.428	-17.656	-155.126	-151.470	-150.894	-145.775	-32.614	-146.828	-8191	255	
608.068	1	1	0	0	0.16951	0.093058	0.31332	0.37341	0.22535	0.14587	0.24457	0.26455	0.18314	0.15902	0.13397	0.24032	0.20593	0.29528	0.11585	0.22957	-3.1208	-2.9229	-3.3937	-3.5521	-2.9938	-3.6667	-3.5771	-3.35	-3.4833	-3.1437	-3.4688	-3.4292	-3.275	-3.6146	-3.1688	-3.4146	-89.072	-130.626	-146.024	86.454	123.326	31.954	143.937	128.650	-164.783	-91.038	-66.393	120.996	-169.116	178.153	-97.318	132.232	0.0016991	0.00061875	0.00019329	1542.3	1.2888e-06	6.5354e-06	1528.6	415.03	1.2771e-05	6.9577e-06	463.74	158.03	137.89	46.105	5.26e-06	56.095	0.00079713	0.000795	0.00021617	1576.2	8.5698e-06	8.6964e-06	1566.3	425.59	8.5329e-06	8.7513e-06	476.79	161.89	141.1	47.743	8.5188e-06	58.39	16.052	-82.458	-78.644	-159.122	-20.098	17.487	-159.668	-155.030	-50.460	-64.875	-155.052	-151.794	-150.908	-145.784	-84.530	-146.770	-8191	255	
608.164	1	1	0	0	0.18036	0.044216	0.4159	0.17312	0.13783	0.12763	0.3439	0.19115	0.099433	0.059099	0.011996	0.21986	0.21131	0.16288	0.06495	0.12776	-3.1104	-2.9042	-3.5042	-3.4229	-3.0021	-3.5104	-3.4437	-3.5083	-3.6875	-3.1063	-3.6021	-3.3125	-2.9792	-3.5021	-3.2625	-3.1083	-8.923	166.304	-87.826	139.198	-106.674	-167.239	78.990	83.733	111.954	-71.479	-27.459	132.191	-62.676	-132.334	-29.843	145.422	0.0016812	0.00064291	0.000186	1534.9	6.246e-06	2.8153e-06	1528.2	415	1.5317e-05	6.7361e-06	463.54	157.6	136.31	45.978	6.7139e-06	55.802	0.00078999	0.00077422	0.00021598	1572	8.5171e-06	8.5031e-06	1562.7	425.19	8.2631e-06	8.349e-06	476.08	161.68	140.52	47.728	8.2599e-06	58.319	17.061	-87.223	-110.986	-159.057	-19.177	-59.476	-159.578	-154.892	-28.829	-44.537	-155.246	-151.462	-150.876	-145.678	-17.279	-146.798	-8191	255	
608.260	1	1	0	0	0.18602	0.12377	0.089004	0.2421	0.066776	0.076244	0.37373	0.12406	0.16511	0.19165	0.027254	0.050944	0.19947	0.11313	0.14747	0.078884	-3.1729	-3.0958	-3.2	-3.5167	-3.0292	-3.5167	-3.45	-3.1667	-3.575	-3.1667	-3.3583	-3.6125	-3.2375	-3.5646	-3.325	-3.1521	-97.820	171.488	154.742	174.859	34.040	183.473	133.735	181.778	101.326	0.253	-124.369	106.796	114.520	155.987	16.530	121.607	0.0015048	0.00082032	0.00020229	1534.3	4.3772e-06	7.7297e-06	1521.2	413.8	1.7919e-05	2.7116e-06	460.82	157.25	136.47	45.856	4.546e-06	56.282	0.00077654	0.00076312	0.00021112	1570.8	8.2156e-06	8.215e-06	1557.7	424.05	8.1351e-06	8.2021e-06	475.14	161.39	140.29	47.625	8.2679e-06	58.404	20.412	-56.689	-87.275	-159.153	-32.155	-44.681	-159.594	-154.836	-58.967	-105.216	-155.525	-151.637	-151.034	-145.810	-81.167	-146.577	-8191	255	
608.379	1	1	0	0	0.12266	0.25504	0.1751	0.21818	0.014812	0.12838	0.0066581	0.20542	0.14241	0.21897	0.15815	0.14052	0.12303	0.28415	0.14349	0.18754	-3.0542	-3.025	-3.1333	-3.65	-3.0021	-3.5521	-3.625	-3.1312	-3.5083	-3.3354	-3.2979	-3.6667	-3.0208	-3.6042	-3.3937	-3.1875	-151.963	123.413	-145.305	144.709	-121.554	-85.216	-39.277	145.590	172.112	-150.616	-69.414	-155.788	180.891	-148.117	-40.439	84.492	0.001654	0.00051196	0.00018194	1535.2	5.0427e-06	5.6514e-06	1521.9	413.06	1.1892e-05	8.9751e-06	461.43	157.24	136.75	45.894	6.5601e-06	55.961	0.00077961	0.00076701	0.00021307	1569.3	8.4442e-06	8.4034e-06	1558.6	424.11	8.1244e-06	8.3842e-06	474.98	161.49	140.39	47.642	8.4295e-06	58.262	13.936	-45.066	-59.801	-159.313	-0.146	-35.652	-159.514	-154.787	-39.179	-31.497	-155.081	-151.475	-150.919	-145.995	-0.334	-146.456	-8191	255	
608.475	1	1	0	0	0.086008	0.34114	0.18395	0.22327	0.097309	0.3093	0.26726	0.32069	0.29038	0.13814	0.11348	0.32385	0.2311	0.15699	0.18957	0.20395	-3.2062	-3.2167	-3.25	-3.7313	-3.1521	-3.4604	-3.6417	-2.9979	-3.3917	-3.3104	-3.1583	-3.5062	-3.0917	-3.4729	-3.4667	-3.1937	-11.023	-170.481	119.813	164.384	168.789	162.633	109.430	131.616	-48.908	-158.479	182.834	103.471	124.237	-50.654	-167.012	131.183	0.0016719	0.00081537	0.00020674	1526.1	6.7245e-06	2.9555e-06	1517.4	411.59	1.004e-05	8.2559e-06	459.3	157.2	136.59	45.85	9.6553e-06	56.02	0.00078231	0.000767	0.00021391	1567.9	8.314e-06	8.3574e-06	1556.8	423.89	8.2896e-06	8.2826e-06	474.08	161.27	140.23	47.578	8.1276e-06	58.2	16.728	-63.189	-99.400	-159.049	-53.288	-17.515	-159.484	-154.978	-7.164	-14.475	-155.270	-151.628	-150.805	-145.677	-54.854	-146.610	-8191	255	
608.572	1	1	0	0	0.16673	0.075591	0.1795	0.13298	0.13061	0.18347	0.14452	0.030646	0.092007	0.20129	0.31579	0.24827	0.18448	0.090888	0.010643	0.20522	-3.1042	-3.3083	-3.1979	-3.6375	-3.1792	-3.4271	-3.7062	-3.2313	-3.6146	-3.2833	-3.2208	-3.6229	-3.1813	-3.3375	-3.4688	-3.1063	-131.999	-82.197	90.613	-164.631	-110.212	95.665	77.688	-32.518	68.256	-100.926	182.777	40.117	159.193	60.760	20.366	-135.664	0.0015775	0.00053268	0.00018288	1527.1	4.5903e-06	6.2982e-06	1518.1	412.18	1.0464e-05	6.0077e-06	460.41	156.94	135.76	45.745	1.4363e-06	55.971	0.00075158	0.00072599	0.00020442	1564.1	7.9327e-06	8.0914e-06	1555.8	422.71	7.9078e-06	8.0173e-06	473.4	161.2	139.73	47.479	7.8533e-06	58.182	16.546	-84.931	-102.562	-159.255	-79.530	-47.567	-159.605	-154.800	-23.712	-45.060	-155.269	-151.675	-150.827	-145.863	-82.173	-146.707	-8191	255	
608.668	1	1	0	0	0.095902	0.061539	0.14331	0.1801	0.25202	0.096311	0.4589	0.050707	0.1164	0.22053	0.072801	0.071162	0.27591	0.34066	0.14014	0.17691	-2.9896	-3.3333	-3.1688	-3.7875	-3.3438	-3.1312	-3.5646	-3.225	-3.4479	-3.2792	-3.1271	-3.6937	-3.4	-3.1833	-3.6063	-3.0875	159.792	70.802	-110.954	-159.086	120.666	-37.960	126.431	124.098	143.303	102.527	-115.946	79.314	-166.523	95.667	155.664	77.241	0.0016872	0.00058255	0.00016762	1529.5	4.3931e-06	6.7934e-06	1518.9	412.09	1.4142e-05	6.03e-06	461.73	156.38	136.39	45.63	9.5486e-06	56.027	0.0007523	0.00073189	0.00020483	1564.1	8.0648e-06	8.0442e-06	1554.8	423.11	7.986e-06	8.3045e-06	474.13	161.05	140.12	47.45	8.0926e-06	58.22	15.049	-90.171	-97.631	-159.301	-79.491	-26.633	-159.715	-154.911	-53.325	-23.161	-155.450	-151.461	-150.994	-145.726	-17.048	-146.899	-8191	255	
608.764	1	1	0	0	0.022985	0.049181	0.13659	0.31179	0.026891	0.19662	0.13478	0.15321	0.18495	0.067364	0.074991	0.10319	0.274	0.086237	0.15106	0.29813	-2.9917	-3.3021	-2.8937	-3.6229	-3.2271	-3.0771	-3.8063	-3.2	-3.45	-3.5167	-3.0292	-3.6063	-3.2646	-3.2583	-3.5479	-3.175	-38.407	104.498	4.754	174.707	-26.413	23.286	84.499	105.024	7.351	45.826	144.742	-56.641	136.297	-70.037	161.637	127.478	0.0018134	0.0006123	0.00019242	1528.3	5.0898e-06	1.0212e-05	1517.6	411.64	1.2567e-05	8.0734e-06	458.94	156.73	136.72	45.885	7.2387e-06	56.228	0.00076706	0.00074815	0.0002092	1565.9	8.0219e-06	8.1598e-06	1557.9	422.81	8.0085e-06	7.9839e-06	474.56	160.94	140.2	47.562	8.0151e-06	58.236	15.586	-138.700	-95.430	-159.344	-6.360	-15.845	-159.524	-154.943	-15.089	-56.382	-155.415	-151.761	-150.942	-145.713	-57.763	-146.729	-8191	255	
608.860	1	1	0	0	0.20392	0.23987	0.040125	0.093243	0.11894	0.099259	0.12981	0.39491	0.19788	0.14777	0.16367	0.11707	0.16278	0.14779	0.080271	0.08989	-2.9104	-3.5354	-3.0521	-3.6333	-3.3583	-3.1042	-3.6146	-3.2479	-3.2271	-3.4896	-3.1354	-3.4292	-3.5896	-3.2479	-3.5042	-3.1813	103.591	174.959	113.683	153.349	-8.793	-93.754	153.800	126.349	-104.387	-27.549	53.000	0.769	-158.634	185.941	-149.410	74.259	0.0016639	0.00048898	0.00016687	1535.2	6.9173e-06	6.559e-06	1524.4	413.54	9.6241e-06	7.5473e-06	459.88	157.09	136.73	46.146	2.0351e-06	56.104	0.00075329	0.00073917	0.00020436	1566.5	7.9799e-06	8.1595e-06	1555.5	422.87	8.0157e-06	8.148e-06	472.95	161.05	139.91	47.628	7.9941e-06	58.18	17.890	-64.592	-116.693	-159.002	-61.315	-48.910	-159.507	-154.759	-8.566	-59.609	-155.271	-151.226	-150.899	-145.957	-76.815	-146.631	-8191	255	
608.956	1	1	0	0	0.13709	0.080746	0.42446	0.07949	0.31712	0.12081	0.15496	0.26047	0.25462	0.22693	0.11893	0.2986	0.13717	0.11835	0.25031	0.20693	-2.7604	-3.3917	-3.0417	-3.6188	-3.4021	-3.0833	-3.7167	-3.5396	-3.2938	-3.5771	-3.2646	-3.4958	-3.5875	-3.0938	-3.6604	-3.3563	-32.042	-104.079	-76.166	175.683	-123.609	-44.012	68.634	115.894	54.005	147.062	-167.077	-105.886	-128.181	-117.470	41.204	25.513	0.0017118	0.00042248	0.00015394	1534.7	9.3241e-06	7.4632e-06	1521.6	413.04	1.3307e-05	6.6528e-06	464.16	157.62	136.39	45.914	4.7628e-06	56.106	0.00076011	0.00073402	0.000207	1565.2	7.9867e-06	8.1485e-06	1555.2	423.1	8.1066e-06	8.0789e-06	474.83	161.18	140.13	47.567	8.0815e-06	58.224	17.801	-102.052	-81.207	-159.178	-57.625	-44.264	-159.500	-154.936	-24.589	-9.521	-155.122	-151.409	-150.843	-145.743	-45.873	-146.937	-8191	255	
609.077	1	1	0	0	0.20233	0.10008	0.12356	0.10305	0.2428	0.1819	0.10752	0.29503	0.075453	0.24536	0.16299	0.18657	0.037903	0.23762	0.15677	0.18538	-2.7854	-3.4646	-3.1104	-3.5708	-3.3792	-2.9917	-3.6667	-3.2812	-3.0312	-3.4958	-3.2438	-3.3979	-3.4708	-2.9521	-3.4354	-3.1937	-85.319	16.107	-17.667	44.559	8.980	-96.313	133.357	130.379	34.143	60.311	163.053	169.826	64.215	-123.356	-142.745	107.500	0.0016169	0.00042709	0.00016229	1538	9.6414e-06	4.8392e-06	1523.6	413.13	1.339e-05	8.2863e-06	461.9	157.56	136.83	46.125	5.0511e-06	56.262	0.00076447	0.00074401	0.00020605	1565.3	7.9186e-06	8.0198e-06	1552.9	422.48	7.9596e-06	7.9985e-06	473.33	161.07	139.89	47.549	7.9986e-06	58.272	18.710	-47.761	-82.990	-159.024	-54.668	-29.353	-159.444	-154.722	-31.418	-7.727	-155.111	-151.553	-150.515	-145.622	-72.580	-146.669	-8191	255	
609.173	1	1	0	0	0.08923	0.17698	0.13414	0.23785	0.20626	0.13733	0.17059	0.23812	0.22976	0.18869	0.06573	0.2703	0.24584	0.25878	0.045159	0.27403	-2.7833	-3.5417	-3.1125	-3.3542	-3.5417	-3.0771	-3.8271	-3.4813	-3.1542	-3.4979	-3.3625	-3.2687	-3.5354	-3.0729	-3.2146	-3.5292	29.072	-163.300	32.352	157.549	-103.303	37.212	79.140	145.206	134.454	-126.996	-71.358	179.378	109.973	-168.690	-14.239	123.804	0.0016199	0.00058478	0.00016546	1528.8	6.3411e-06	6.0793e-06	1522.6	413.39	9.9635e-06	9.5773e-06	461.26	156.91	136.66	45.918	9.9571e-06	55.923	0.0007464	0.00072717	0.00020473	1560.7	7.8192e-06	8.0735e-06	1553.3	422.83	8.0673e-06	7.8424e-06	473.75	160.99	139.86	47.465	7.88e-06	58.063	10.828	-89.526	-99.102	-159.018	-22.715	-25.133	-159.382	-154.980	-35.303	-21.985	-155.080	-151.366	-151.031	-145.574	-28.671	-146.617	-8191	255	
609.269	1	1	0	0	0.10058	0.10063	0.19794	0.40227	0.079918	0.14313	0.055252	0.39058	0.24999	0.1638	0.24083	0.046936	0.20194	0.10289	0.21267	0.16373	-2.7188	-3.7812	-3.2125	-3.2687	-3.6542	-3.1146	-3.625	-3.5854	-2.7958	-3.5396	-3.3771	-3.3208	-3.5	-3.0708	-3.4021	-3.6771	96.448	-9.656	-22.710	179.886	126.068	-123.674	26.849	123.080	162.299	-85.259	-131.668	-138.312	-138.228	-142.771	136.070	-155.458	0.0017187	0.00068423	0.00025816	1531.7	7.2413e-06	6.62e-06	1523.2	413.71	1.6781e-05	9.3958e-06	462.55	156.86	136.85	45.981	8.8706e-06	56.261	0.00074536	0.000717	0.00020163	1561.5	7.8606e-06	7.9648e-06	1554.2	422.68	7.9358e-06	7.787e-06	474.18	160.94	139.8	47.507	7.8531e-06	58.146	19.297	-74.296	-87.029	-159.225	-31.922	-28.390	-159.413	-154.697	-35.437	-53.465	-155.158	-151.395	-150.835	-145.685	-36.196	-146.476	-8191	255	
609.365	1	1	0	0	0.17881	0.18293	0.048972	0.13315	0.05457	0.30394	0.20449	0.17862	0.31891	0.16311	0.16841	0.1705	0.025899	0.10038	0.085842	0.10058	-2.5229	-3.5458	-3.2875	-3.2792	-3.5417	-3.1625	-3.4938	-3.75	-3.0625	-3.5333	-3.4542	-3.225	-3.6229	-3.3063	-3.4083	-3.5	156.988	33.688	-48.080	-136.104	57.918	-45.415	126.565	106.739	-79.060	135.428	162.718	-170.674	75.995	-158.345	-170.684	65.922	0.0016905	0.0005819	0.00014071	1532.3	6.4928e-06	8.0763e-06	1520.9	412.75	1.1263e-05	5.4063e-06	461.65	157.47	136.79	45.804	3.5513e-06	56.083	0.00073455	0.00071288	0.00019676	1561.9	7.9136e-06	7.9394e-06	1552	421.75	7.9418e-06	8.0176e-06	473.93	160.91	139.84	47.465	8.0191e-06	58.113	20.227	-61.215	-82.356	-158.975	-59.691	-28.551	-159.410	-154.773	-24.882	7.632	-155.038	-151.485	-150.794	-145.630	-22.071	-146.462	-8191	255	
609.461	1	1	0	0	0.1763	0.074211	0.035938	0.25152	0.09248	0.19985	0.44063	0.26784	0.047827	0.14955	0.24089	0.29442	0.062225	0.1708	0.13521	0.13513	-2.6625	-3.2938	-3.3104	-3.1792	-3.4104	-3.1625	-3.475	-3.6542	-3.1271	-3.3083	-3.4958	-3.0979	-3.5125	-3.2562	-3.1771	-3.5896	-78.521	186.655	66.426	127.326	-19.258	-105.714	126.669	95.876	123.117	6.602	121.039	159.732	184.686	161.936	105.917	-107.186	0.0015243	0.0008265	5.3348e-05	1535.5	5.1763e-06	5.6804e-06	1522.2	413.74	8.4542e-06	4.5246e-06	462.18	157.59	136.9	46.214	8.5855e-06	56.404	0.00075909	0.00072308	0.00020513	1563	8.0116e-06	8.1857e-06	1553.9	423.01	8.0562e-06	8.0803e-06	474.18	161.06	139.94	47.558	7.997e-06	58.2	14.417	-50.756	-41.458	-159.093	-14.001	-31.635	-159.420	-154.818	-60.199	18.755	-155.018	-151.397	-150.793	-145.483	-7.337	-146.640	-8191	255	
609.556	1	1	0	0	0.21809	0.041591	0.065342	0.090575	0.11311	0.03575	0.23736	0.32848	0.020329	0.31362	0.15479	0.15814	0.035479	0.15695	0.18317	0.26981	-2.6625	-3.3396	-3.4042	-3.2812	-3.6333	-3.4188	-3.4354	-3.6958	-3.0833	-3.4646	-3.575	-3.2458	-3.4917	-3.3167	-3.1833	-3.5396	-56.124	-122.283	-82.596	144.222	-51.620	93.654	134.526	180.424	-151.645	-154.488	-141.035	84.542	-146.190	185.174	104.268	80.426	0.0017244	0.00057103	0.00010801	1530.3	6.07e-06	8.7842e-06	1520.6	414.56	8.9346e-06	3.657e-06	459.49	157.44	136.96	46.168	1.8296e-06	56.24	0.00074776	0.00072531	0.00020139	1561.7	7.7704e-06	7.8347e-06	1552.6	422.28	7.8058e-06	7.9243e-06	472.99	161.01	139.8	47.532	8.0348e-06	58.05	19.418	-66.055	-63.043	-158.999	-44.342	-35.264	-159.540	-154.698	-28.584	-95.513	-155.272	-151.557	-150.834	-145.654	40.044	-146.734	-8191	255	
609.676	1	1	0	0	0.023799	0.036536	0.26481	0.31759	0.11585	0.10409	0.44184	0.20949	0.050251	0.12171	0.06038	0.19052	0.009268	0.14025	0.052776	0.37701	-2.8625	-3.3083	-3.3979	-3.1125	-3.5208	-3.4062	-3.3812	-3.5625	-3.3354	-3.3042	-3.5771	-3.1646	-3.5229	-3.4437	-3.0521	-3.6375	-69.420	-123.858	26.260	94.698	10.265	-115.055	109.258	145.843	179.462	152.871	99.587	156.450	88.860	146.298	-141.084	158.597	0.0016268	0.00067463	0.00017364	1532.8	7.6773e-06	5.1445e-06	1522.9	414.28	1.2284e-05	6.2293e-06	460.14	157.28	135.99	45.878	9.6091e-06	56.024	0.00075465	0.00072817	0.0002005	1562.1	7.8876e-06	7.9682e-06	1550.2	423.04	7.8861e-06	8.0311e-06	472.99	160.87	139.62	47.515	7.8604e-06	57.995	13.590	-105.091	-81.996	-159.083	-53.922	-18.051	-159.367	-154.746	-13.007	-44.861	-155.248	-151.528	-150.781	-145.713	-56.974	-146.495	-8191	255	
609.773	1	1	0	0	0.010384	0.043259	0.1217	0.10227	0.045014	0.090598	0.2296	0.15638	0.09283	0.23385	0.27118	0.19667	0.13685	0.12853	0.14193	0.043059	-2.9479	-3.1521	-3.4479	-3.1896	-3.425	-3.425	-3.4313	-3.825	-3.1271	-3.2271	-3.6979	-3.2646	-3.4938	-3.6646	-2.9875	-3.5333	103.452	7.202	121.046	184.593	58.264	-92.616	140.428	68.229	-20.686	186.221	116.208	185.038	-137.349	112.746	184.773	-112.818	0.0018156	0.00089002	0.00017961	1528.7	4.9564e-06	5.38e-06	1519.2	414.21	1.5383e-05	8.3553e-06	462.82	157.42	136.66	45.935	5.9857e-06	56.051	0.00075198	0.00073675	0.00020335	1559.2	7.9664e-06	8.0181e-06	1552.3	422.31	8.0173e-06	8.0761e-06	474.24	160.93	139.84	47.501	8.2524e-06	58.222	15.734	-86.604	-50.162	-159.102	-63.707	-10.473	-159.518	-154.799	-28.003	-61.734	-155.208	-151.538	-150.920	-145.799	-37.061	-146.723	-8191	255	
609.869	1	1	0	0	0.16669	0.30022	0.30096	0.21901	0.021057	0.24806	0.19408	0.16818	0.38311	0.22723	0.29324	0.11836	0.10753	0.19691	0.20061	0.038	-2.9104	-3.1333	-3.4125	-3.2896	-3.5062	-3.5021	-3.2375	-3.7167	-3.3896	-2.9854	-3.6708	-3.4208	-3.3792	-3.6625	-2.8396	-3.5417	-94.723	-82.724	-106.712	178.539	-171.256	-106.591	166.501	25.793	175.253	-27.295	105.169	101.243	97.284	-111.162	79.902	-3.897	0.0014391	0.00089937	7.9893e-05	1523.3	7.0092e-06	4.0105e-06	1519.3	413.38	1.0296e-05	9.2832e-06	463.53	157.13	136.59	45.976	5.7723e-06	56.06	0.00076707	0.00073841	0.00020525	1560.2	8.1341e-06	8.245e-06	1550.9	422.57	8.0276e-06	8.1747e-06	474.29	160.69	139.91	47.51	8.1783e-06	58.1	15.581	-76.507	-129.211	-159.191	-44.399	-0.713	-159.587	-154.742	-33.250	-19.506	-155.427	-151.390	-150.862	-145.599	-42.381	-146.553	-8191	255	
609.940	1	1	0	0	0.22381	0.27931	0.20356	0.062228	0.16501	0.11109	0.30555	0.32085	0.06739	0.26326	0.14272	0.059203	0.064938	0.17869	0.22321	0.10333	-2.9479	-3.1417	-3.4688	-3.4229	-3.3375	-3.5167	-3.1208	-3.6396	-3.5521	-3.1458	-3.7292	-3.3187	-3.2875	-3.5667	-3.0438	-3.4729	15.988	-20.474	-85.772	98.168	5.529	-6.636	178.795	154.884	33.198	39.197	-118.012	-122.498	74.167	-167.868	-91.768	-115.875	0.0015569	0.00058181	0.00016447	1527.6	9.1407e-06	6.9926e-06	1520.3	413.49	1.3047e-05	3.0776e-06	462.34	157.23	136.36	45.962	5.5033e-06	56.273	0.00076763	0.00074051	0.00020571	1561.2	7.9928e-06	8.0259e-06	1550.9	422.69	8.1003e-06	8.0974e-06	474.12	161.03	139.68	47.485	8.028e-06	58.051	18.804	-74.577	-48.503	-158.946	-64.953	0.373	-159.476	-154.856	-17.737	-67.832	-155.215	-151.621	-150.664	-145.787	-53.669	-146.609	-8191	255	
610.061	1	1	0	0	0.2456	0.29392	0.28157	0.29167	0.28329	0.25468	0.1385	0.090501	0.24476	0.14445	0.15029	0.24231	0.10032	0.27072	0.17703	0.11001	-2.9229	-3.0187	-3.4167	-3.3979	-3.2021	-3.6437	-3.2667	-3.3583	-3.3271	-3.0417	-3.525	-3.2896	-3.3104	-3.5792	-2.9833	-3.3583	57.257	-27.465	-122.720	83.743	162.910	-141.541	129.734	8.913	-27.850	109.878	169.464	155.698	87.850	160.937	85.363	1.594	0.0016434	0.00058901	0.00011497	1528.6	7.4016e-06	3.7973e-06	1521.9	413.84	1.1079e-05	7.6203e-06	461.24	157.63	136.76	45.896	6.0761e-06	56.274	0.00075001	0.00072388	0.0002052	1561.6	7.9839e-06	8.0473e-06	1552.6	423.51	8.0594e-06	8.2615e-06	473.11	161.08	139.87	47.487	7.9829e-06	58.198	16.053	-28.408	-94.500	-159.117	-43.386	-36.862	-159.282	-154.708	-30.544	-37.157	-155.362	-151.593	-151.002	-145.776	-68.185	-146.512	-8191	255	
610.157	1	1	0	0	0.19448	0.10698	0.088669	0.24564	0.044022	0.034136	0.11638	0.33843	0.090685	0.14582	0.29152	0.025798	0.13189	0.10202	0.091916	0.053174	-3.0146	-2.9917	-3.4292	-3.5312	-3.1146	-3.5208	-3.3875	-3.4271	-3.5542	-3.0875	-3.6542	-3.6292	-3.2188	-3.5479	-3.1792	-3.2146	102.111	-119.327	6.361	81.536	132.301	17.686	99.329	95.111	127.659	89.154	69.323	28.904	110.133	-94.463	183.816	-170.506	0.0015594	0.00047224	0.00016419	1530.6	6.5098e-06	4.5496e-06	1521.9	413.44	1.0543e-05	4.1129e-06	461.2	156.84	136.61	45.677	5.1436e-06	55.975	0.00074286	0.00071912	0.00020108	1560.1	8.0162e-06	7.9115e-06	1551.1	421.92	7.9111e-06	7.9885e-06	473.18	160.87	139.56	47.379	7.9657e-06	57.995	19.808	-127.285	-57.995	-159.147	-41.567	13.962	-159.311	-154.762	-68.828	-39.121	-155.119	-151.549	-150.490	-145.820	-81.079	-146.869	-8191	255	
610.253	1	1	0	0	0.084333	0.16693	0.16811	0.14712	0.0629	0.080274	0.039855	0.21228	0.10242	0.16081	0.04663	0.272	0.033287	0.30944	0.23746	0.21735	-3.0687	-2.9646	-3.3104	-3.5896	-3.1542	-3.5	-3.4146	-3.3375	-3.5396	-3.0479	-3.5312	-3.5229	-3.1188	-3.4833	-3.2062	-3.3208	1.004	-63.293	-119.691	-72.930	-132.974	-60.671	167.628	126.413	89.689	-143.880	-65.312	-162.614	-25.010	-171.666	122.701	-51.585	0.0015309	0.00059778	0.00017104	1533.8	7.8236e-06	4.7847e-06	1514.1	413.34	9.6169e-06	5.1651e-06	459.93	157.05	136.33	45.93	8.1756e-06	55.965	0.00074144	0.00072627	0.00020272	1559.3	7.8483e-06	7.962e-06	1547.8	422.08	7.7856e-06	7.9574e-06	473.1	160.67	139.44	47.407	7.7767e-06	58.074	16.993	-61.491	-59.031	-159.112	-59.247	-64.178	-159.582	-154.653	-26.698	-32.255	-155.193	-151.558	-150.876	-145.864	-30.634	-146.572	-8191	255	
610.349	1	1	0	0	0.1133	0.26031	0.12294	0.2347	0.22308	0.10837	0.17537	0.27597	0.16412	0.096439	0.27057	0.16881	0.23053	0.053659	0.11096	0.14644	-3.0729	-3.075	-3.4188	-3.6125	-2.9583	-3.4292	-3.5542	-3.1792	-3.6104	-3.2271	-3.4229	-3.5167	-3.2479	-3.6833	-3.2562	-3.1875	-34.058	74.934	-135.247	164.718	171.550	-53.660	115.069	127.033	147.597	-31.785	-79.852	55.879	-158.671	-129.726	-130.032	143.947	0.0016	0.00020452	0.00022857	1525	1.719e-06	3.4851e-06	1519.7	412.45	1.2288e-05	1.0516e-05	461.92	157.26	136.82	45.769	4.4689e-06	55.95	0.00073975	0.00070708	0.00019846	1554.3	7.7736e-06	7.8281e-06	1548.8	421.42	7.9701e-06	7.9316e-06	473.36	160.67	139.51	47.404	8.0044e-06	58.048	18.225	-107.554	-57.380	-159.086	-115.603	-17.939	-159.359	-154.846	-48.518	-40.049	-155.152	-151.437	-150.823	-145.905	-61.440	-146.764	-8191	255	
610.468	1	1	0	0	0.13094	0.1398	0.31071	0.20321	0.2277	0.11876	0.2866	0.12153	0.16111	0.093154	0.16868	0.064598	0.15089	0.20597	0.044541	0.27074	-2.9562	-3.0958	-3.1437	-3.5625	-3.0062	-3.4062	-3.4521	-3.1	-3.4458	-3.1562	-3.4313	-3.6562	-2.9813	-3.5646	-3.2917	-3.0896	-141.383	-16.858	-138.250	78.784	66.541	-161.501	146.350	-9.672	-154.900	-23.690	179.031	93.046	159.768	-133.768	150.751	39.923	0.0014867	0.00072788	0.00016555	1520.1	6.3412e-06	7.5174e-06	1521.9	412.95	7.3585e-06	7.5979e-06	462.03	157.03	136.26	45.645	6.3705e-06	56.001	0.00074771	0.00071976	0.00020067	1555.6	7.8374e-06	7.8109e-06	1550	422.05	7.699e-06	7.6186e-06	472.68	160.66	139.38	47.287	7.4459e-06	57.927	18.781	-116.224	-70.374	-158.987	-65.177	-34.271	-159.397	-154.784	-24.355	-26.606	-155.244	-151.574	-151.000	-145.769	-54.535	-146.527	-8191	255	
610.542	1	1	0	0	0.22683	0.095108	0.1471	0.16502	0.18811	0.10544	0.38603	0.06484	0.1364	0.10192	0.10451	0.39193	0.14896	0.3152	0.17181	0.26786	-3.1042	-3.0583	-3.2208	-3.6396	-3.1063	-3.3229	-3.4417	-3.275	-3.5187	-3.2687	-3.2042	-3.6333	-3.25	-3.3083	-3.4396	-3.1354	46.529	168.776	77.797	164.997	157.366	-145.336	96.706	63.257	68.125	-145.653	-119.583	124.099	152.142	-172.556	-148.061	60.224	0.0015411	0.00087054	0.0001348	1526.5	9.9159e-06	2.1665e-06	1519	414.41	1.3782e-05	3.1862e-06	463.68	156.93	136.34	45.946	8.1067e-06	56.041	0.00070999	0.00068724	0.00018904	1555.7	7.4717e-06	7.3937e-06	1547.3	421.78	7.429e-06	7.5032e-06	473.48	160.6	139.44	47.349	7.8041e-06	58.075	15.856	-79.719	-89.931	-158.990	-46.338	-43.488	-159.268	-154.779	-37.154	-85.515	-155.086	-151.351	-150.966	-145.588	-12.377	-146.812	-8191	255	
610.638	1	1	0	0	0.35982	0.0584	0.062675	0.14964	0.16181	0.064127	0.31245	0.22553	0.13955	0.202	0.42509	0.19693	0.18085	0.13449	0.10432	0.03273	-3.1271	-3.1375	-2.9896	-3.725	-3.0646	-3.4021	-3.725	-3.2146	-3.4583	-3.1896	-3.1604	-3.4583	-3.1813	-3.2438	-3.4958	-2.9792	-41.109	132.882	151.342	-168.337	56.413	-54.819	135.502	148.356	110.015	-124.768	165.816	120.544	170.663	157.056	82.595	-60.834	0.0014698	0.00059713	0.00013789	1529.7	6.713e-06	8.5012e-06	1523	413.7	5.6428e-06	6.7049e-06	459.91	156.64	136.19	45.806	3.3842e-06	55.984	0.00073449	0.00070578	0.00019888	1557.6	7.8714e-06	7.8522e-06	1548.8	421.78	7.8457e-06	7.7691e-06	471.96	160.57	139.38	47.331	7.648e-06	57.956	16.717	-97.542	-35.385	-159.045	-28.560	-4.588	-159.412	-154.772	-45.387	-50.257	-155.145	-151.374	-150.952	-145.755	-35.307	-146.763	-8191	255	
610.757	1	1	0	0	0.29745	0.10089	0.067164	0.37765	0.1696	0.15709	0.26383	0.14638	0.17817	0.055021	0.11362	0.13339	0.17166	0.22532	0.089746	0.37226	-3.0417	-3.1833	-2.9708	-3.6958	-3.1229	-3.2042	-3.6979	-3.0021	-3.4229	-3.2958	-3.2125	-3.7104	-3.3229	-3.1479	-3.4375	-3.0292	-6.064	130.617	40.953	135.052	-125.019	61.903	114.973	73.374	141.671	-111.012	-162.620	-73.117	163.044	166.020	-121.269	69.096	0.0015255	0.00062344	0.00010793	1523.4	5.8322e-06	6.808e-06	1509.8	413.67	5.4905e-06	7.4772e-06	462.73	156.95	136.38	45.887	5.4465e-06	55.75	0.00071715	0.00068412	0.00019298	1553.9	7.5021e-06	7.5074e-06	1544.5	421.5	7.4315e-06	7.6466e-06	473.22	160.47	139.13	47.309	7.5243e-06	57.89	18.597	-63.176	-111.550	-158.920	-53.835	-5.458	-159.419	-154.782	-31.375	-25.595	-155.157	-151.602	-150.675	-145.681	-30.365	-146.807	-8191	255	
610.853	1	1	0	0	0.09966	0.2093	0.03267	0.29299	0.12106	0.30722	0.17939	0.2247	0.13369	0.25036	0.061273	0.097518	0.224	0.053316	0.15448	0.13607	-2.8521	-3.4146	-3.0167	-3.6042	-3.2375	-3.0792	-3.6792	-3.175	-3.4083	-3.4021	-3.225	-3.4854	-3.3583	-3.2292	-3.6167	-3.1417	142.441	-21.466	-26.232	152.714	-118.170	-97.881	114.116	55.688	149.055	37.378	154.793	-22.421	131.080	-1.524	-88.283	-17.125	0.0015801	0.0006184	0.00014921	1528.2	5.5164e-06	7.7055e-06	1513.5	412.25	1.1817e-05	5.1359e-06	460.04	157.11	136.12	45.823	8.228e-06	55.768	0.00071046	0.00067861	0.0001911	1553.4	7.4753e-06	7.4911e-06	1544.2	420.65	7.3932e-06	7.5315e-06	471.39	160.39	139.07	47.222	7.3875e-06	57.829	19.760	-105.022	-83.820	-158.986	-66.613	-12.137	-159.432	-154.798	-50.243	-45.323	-155.239	-151.336	-150.911	-145.884	-10.061	-146.830	-8191	255	
610.949	1	1	0	0	0.21315	0.14677	0.060893	0.24197	0.13645	0.021433	0.13005	0.34199	0.21088	0.098217	0.13476	0.10872	0.07199	0.32473	0.063757	0.12501	-2.725	-3.5208	-2.8458	-3.6542	-3.2271	-3.1104	-3.6583	-3.1771	-3.2146	-3.5375	-3.2188	-3.6437	-3.4604	-3.175	-3.4854	-3.2458	-89.541	-171.015	-104.366	101.279	148.032	-126.951	143.742	121.810	82.403	70.666	112.391	180.418	97.187	144.803	-169.523	162.786	0.0015626	0.00065289	0.00025057	1525.3	2.3784e-06	7.7242e-06	1505.3	411.25	1.4313e-05	3.1226e-06	461.76	156.59	136.32	45.673	8.5012e-06	55.994	0.00070225	0.00068767	0.00019156	1552.7	7.5087e-06	7.5695e-06	1540.5	420.94	7.4706e-06	7.4539e-06	471.52	160.22	139.08	47.171	7.4587e-06	57.938	14.418	-87.213	-79.252	-159.108	-57.212	-58.403	-159.415	-154.815	-11.000	-94.139	-155.066	-151.394	-150.670	-145.680	-46.201	-146.647	-8191	255	
611.070	1	1	0	0	0.17575	0.1759	0.059059	0.33325	0.10483	0.19247	0.16188	0.29028	0.20596	0.17591	0.08243	0.11116	0.12325	0.30697	0.19142	0.17016	-2.8375	-3.5271	-3.1771	-3.85	-3.4792	-3.0375	-3.8146	-3.2396	-3.3292	-3.6	-3.0667	-3.3063	-3.3854	-3.1083	-3.4875	-3.3146	61.946	-9.097	5.722	114.684	151.247	52.276	123.316	156.534	112.619	113.262	135.571	-130.594	155.375	145.419	-55.254	90.971	0.0015693	0.00074797	0.00016863	1518.3	4.7465e-06	6.5163e-06	1507.5	411.4	1.1258e-05	4.1212e-06	459.03	156.24	135.82	45.69	8.4902e-06	55.85	0.00070234	0.00068701	0.00019012	1549.8	7.365e-06	7.407e-06	1538.7	419.85	7.3471e-06	7.2604e-06	471.21	160.16	138.89	47.211	7.2687e-06	57.905	15.296	-56.778	-107.625	-159.135	-50.526	-5.893	-159.278	-154.833	-42.639	-31.281	-155.251	-151.341	-150.946	-145.703	-28.210	-146.494	-8191	255	
611.166	1	1	0	0	0.144	0.20113	0.095488	0.27189	0.18942	0.19018	0.26712	0.16082	0.14568	0.1306	0.2068	0.27006	0.18896	0.050091	0.093063	0.17385	-2.7396	-3.5833	-2.9833	-3.6125	-3.3125	-2.8958	-3.7042	-3.3917	-3.1896	-3.6063	-3.3063	-3.4271	-3.6458	-3.2083	-3.4104	-3.3083	171.061	-111.963	-72.679	94.134	154.435	-122.216	103.111	133.770	-75.802	-121.309	-156.044	176.898	181.442	144.690	-133.230	71.532	0.0017105	0.00054996	0.00012632	1519.6	1.1112e-05	7.3599e-06	1510.8	412.32	4.1412e-06	7.5288e-06	459.19	157.03	135.57	45.751	4.4692e-06	55.644	0.00069702	0.00065588	0.00018461	1548	7.2563e-06	7.3609e-06	1539	419.71	7.2978e-06	7.4253e-06	470.49	160.15	138.83	47.18	7.2997e-06	57.742	15.055	-113.058	-88.423	-158.985	-20.792	-26.324	-159.427	-154.729	-16.709	10.896	-155.177	-151.422	-150.760	-145.731	-49.506	-146.695	-8191	255	
611.238	1	1	0	0	0.12685	0.12667	0.13464	0.32903	0.12625	0.07758	0.15088	0.19818	0.039349	0.13043	0.23865	0.090255	0.15843	0.14591	0.19945	0.052023	-2.7438	-3.5	-3.1417	-3.3604	-3.5021	-3.0875	-3.7833	-3.4813	-3.2292	-3.5396	-3.2188	-3.3458	-3.5792	-3.1437	-3.375	-3.4479	21.914	107.312	100.522	88.456	-18.580	-52.865	-124.460	68.077	-44.996	-54.639	162.051	134.263	95.567	84.790	-16.759	-46.953	0.0016899	0.00065089	2.2445e-05	1520	9.0806e-06	6.3348e-06	1509	411.55	1.8911e-05	5.6494e-06	459	156.68	135.96	45.886	3.3366e-06	56.263	0.00070989	0.0006747	0.00018677	1548	7.4729e-06	7.4293e-06	1539.3	420.35	7.4242e-06	7.4628e-06	470.86	160.08	138.95	47.274	7.5323e-06	57.928	13.493	-79.000	-134.876	-159.067	-24.531	-41.701	-159.421	-154.702	-30.930	-19.085	-155.333	-151.478	-150.747	-145.688	-20.521	-146.441	-8191	255	
611.358	1	1	0	0	0.27893	0.048825	0.082485	0.27165	0.32073	0.28083	0.22103	0.3263	0.20167	0.09556	0.1719	0.055999	0.041805	0.21539	0.07244	0.20023	-2.8063	-3.5792	-3.275	-3.3958	-3.6021	-2.9729	-3.6021	-3.5771	-3.1021	-3.425	-3.4437	-3.05	-3.5479	-3.0542	-3.1854	-3.575	-43.435	-71.061	179.707	-169.534	-172.095	164.340	146.000	117.930	-51.802	20.156	88.055	33.893	2.996	148.002	-151.242	100.412	0.0016773	0.00064583	0.00012312	1517	3.5572e-06	3.9498e-06	1514.2	410.51	1.5137e-05	9.3955e-06	459.76	156.79	135.81	45.806	8.6066e-06	55.948	0.00072643	0.00069513	0.0001932	1547.4	7.6806e-06	7.5467e-06	1541.3	420.45	7.5977e-06	7.3889e-06	471.26	160.13	138.9	47.216	7.4085e-06	57.732	15.040	-105.542	-126.872	-159.093	-45.943	43.619	-159.418	-154.824	-22.520	-75.161	-155.050	-151.261	-150.628	-145.728	-36.796	-146.571	-8191	255	
611.453	1	1	0	0	0.38159	0.15066	0.040545	0.17542	0.044953	0.050226	0.21661	0.31857	0.43414	0.16963	0.092706	0.028714	0.42225	0.094331	0.059502	0.15373	-2.6146	-3.525	-3.1417	-3.3063	-3.6792	-3.1562	-3.4271	-3.6396	-2.9542	-3.6125	-3.475	-3.3229	-3.6437	-3.0938	-3.425	-3.6208	160.331	-119.509	70.429	157.339	28.914	108.731	124.342	92.504	76.139	-172.730	-114.001	65.784	-165.928	123.089	-124.801	161.269	0.0017029	0.0003811	5.6563e-05	1516.4	5.4749e-06	7.4459e-06	1512.9	411	1.4031e-05	9.2368e-06	459.85	156.67	136.1	45.643	6.8453e-06	55.937	0.00071183	0.00067926	0.00018696	1546.5	7.3951e-06	7.4522e-06	1540.4	420	7.4686e-06	7.4093e-06	470.82	160.02	138.87	47.151	7.3063e-06	57.826	17.261	-63.856	-103.807	-159.118	-24.403	-12.887	-159.531	-154.794	-22.420	-34.441	-155.237	-151.476	-150.826	-145.705	-76.494	-146.746	-8191	255	
611.549	1	1	0	0	0.22875	0.05184	0.10974	0.34669	0.14586	0.031955	0.27173	0.32144	0.13701	0.087538	0.16261	0.08377	0.12903	0.15142	0.52661	0.18727	-2.6375	-3.3833	-3.2875	-3.3583	-3.5875	-3.1646	-3.5146	-3.6125	-3.175	-3.7271	-3.5979	-3.2229	-3.6646	-3.2188	-3.1521	-3.5896	-110.759	142.797	169.878	154.387	176.856	-143.324	143.351	95.284	-92.311	87.343	53.869	177.900	-171.966	126.450	121.590	21.145	0.001527	0.00065694	0.00016887	1513.5	5.8048e-06	9.5529e-06	1507.1	412.01	1.4156e-05	8.1809e-06	459.16	156.67	135.53	45.625	2.7348e-06	55.951	0.00070052	0.00067009	0.00018637	1546.3	7.3917e-06	7.3248e-06	1538.8	419.98	7.3593e-06	7.431e-06	470.54	159.96	138.69	47.153	7.3463e-06	57.828	16.629	-83.261	-66.111	-159.025	-60.495	-7.665	-159.433	-154.827	-24.302	-9.543	-155.332	-151.545	-150.982	-145.784	-63.120	-146.618	-8191	255	
611.645	1	1	0	0	0.12629	0.14287	0.017732	0.16036	0.034349	0.24391	0.26648	0.31679	0.061954	0.24022	0.13019	0.19665	0.16054	0.18756	0.16101	0.072746	-2.8521	-3.4354	-3.4958	-3.325	-3.4458	-3.2542	-3.2375	-3.7188	-3.2292	-3.3438	-3.5187	-2.9875	-3.5354	-3.3125	-2.9583	-3.6813	83.413	-13.555	110.323	-154.312	-93.057	-10.111	128.784	149.846	78.676	-139.017	184.965	73.984	186.406	154.408	104.047	-3.205	0.0015661	0.00056574	0.00017668	1515.3	4.5611e-06	7.5037e-06	1512.5	411.36	1.1322e-05	5.5791e-06	459.52	156.39	135.87	45.603	3.6942e-06	55.822	0.00070491	0.00066805	0.00018887	1547.6	7.3567e-06	7.2535e-06	1540.1	420	7.2611e-06	7.4619e-06	471.13	160.01	138.79	47.09	7.5329e-06	57.83	19.840	-95.784	-105.529	-159.042	-28.344	25.538	-159.323	-154.660	-44.000	-47.643	-155.167	-151.359	-150.788	-145.676	-26.708	-146.755	-8191	255	
611.765	1	1	0	0	0.15464	0.27677	0.052877	0.34688	0.070336	0.066567	0.30237	0.14107	0.057463	0.089034	0.27726	0.09693	0.27691	0.073656	0.14785	0.2548	-2.7021	-3.2396	-3.5729	-3.2604	-3.6458	-3.3479	-3.3646	-3.8812	-3.2146	-3.2687	-3.5687	-3.125	-3.5958	-3.325	-3.2458	-3.7021	2.639	-127.437	6.290	143.766	96.919	-105.846	151.091	94.149	119.141	132.575	137.266	98.401	-139.213	-58.791	49.125	149.412	0.0015947	0.00041666	0.00021207	1518	5.298e-06	5.8871e-06	1502.4	411.42	1.3612e-05	8.0964e-06	459.3	157.12	135.97	45.716	1.1021e-05	55.977	0.00069816	0.0006758	0.00018631	1549.2	7.372e-06	7.4076e-06	1539	420.05	7.4215e-06	7.5772e-06	470.99	160.25	138.79	47.235	7.5613e-06	57.825	18.810	-69.818	-68.418	-159.028	-29.071	-27.452	-159.445	-154.820	-19.992	-36.930	-155.014	-151.408	-150.834	-145.634	-37.674	-146.664	-8191	255	
611.837	1	1	0	0	0.3803	0.32144	0.018388	0.13131	0.10788	0.11908	0.11017	0.090103	0.06655	0.25553	0.26236	0.41414	0.085575	0.2555	0.38693	0.32832	-2.9833	-3.0021	-3.4708	-3.2167	-3.4458	-3.5312	-3.2646	-3.5792	-3.1521	-3.2375	-3.6354	-3.1896	-3.4708	-3.5	-3.05	-3.7	-161.340	167.180	-172.667	73.801	141.793	-80.878	142.896	163.260	60.658	-127.423	143.433	117.951	-153.074	-159.840	-92.778	167.595	0.0016056	0.00034837	0.00013759	1520.6	5.3184e-06	5.2977e-06	1509.5	411.94	1.1235e-05	3.3942e-06	460.35	156.38	135.56	45.809	8.9058e-06	55.858	0.0007054	0.0006894	0.00019027	1549.9	7.4376e-06	7.4774e-06	1540.6	420.53	7.3266e-06	7.4609e-06	470.85	159.9	138.75	47.187	7.3826e-06	57.813	15.738	-87.065	-59.416	-159.184	-36.637	8.450	-159.436	-154.777	-30.052	7.374	-154.998	-151.423	-151.096	-145.723	-61.171	-146.364	-8191	255	
611.933	1	1	0	0	0.39472	0.21433	0.083487	0.47143	0.13384	0.090236	0.24702	0.14292	0.04161	0.038741	0.072936	0.11791	0.19725	0.089968	0.32649	0.23747	-2.6875	-3.0187	-3.5625	-3.3604	-3.2396	-3.4083	-3.2438	-3.7313	-3.3083	-3.0083	-3.5417	-3.1833	-3.2771	-3.4271	-2.9792	-3.6625	-170.105	71.773	3.258	116.302	58.407	-119.938	170.113	98.746	-79.389	113.223	70.681	52.347	128.486	173.311	-152.765	46.362	0.0016237	0.00055835	0.00011149	1518.3	3.4551e-06	6.8872e-06	1512.4	410.77	9.286e-06	1.0197e-05	458.76	156.46	136.2	45.602	7.0831e-06	55.801	0.00069537	0.00067128	0.00018935	1549	7.2482e-06	7.3742e-06	1539.1	420.2	7.3436e-06	7.4003e-06	470.26	159.94	139.03	47.113	7.2856e-06	57.872	20.010	-72.876	-83.426	-158.956	-29.833	-18.281	-159.292	-154.910	-21.662	-36.578	-155.136	-151.466	-150.891	-145.684	-73.096	-146.540	-8191	255	
612.029	1	1	0	0	0.033462	0.14015	0.16761	0.42622	0.15326	0.045145	0.20021	0.23144	0.23981	0.16486	0.17685	0.2584	0.13723	0.16624	0.060961	0.14765	-2.9229	-3.05	-3.425	-3.2125	-3.2333	-3.425	-3.3396	-3.6875	-3.2125	-3.2292	-3.8125	-3.3354	-3.3375	-3.6229	-3.0875	-3.5833	76.883	96.195	82.088	102.337	-114.577	74.698	-111.519	137.445	19.586	-70.474	-121.430	173.575	-155.241	145.348	123.524	-129.110	0.0015568	0.00069267	0.00016769	1521.9	7.4466e-06	4.1355e-06	1508.6	411.48	1.3005e-05	4.9651e-06	461.36	156.6	135.19	45.567	8.3259e-06	55.877	0.0006976	0.00067723	0.00018792	1549.3	7.3588e-06	7.4416e-06	1539.9	420.09	7.4774e-06	7.5471e-06	471.24	159.96	138.92	47.151	7.5053e-06	57.877	15.908	-117.525	-71.826	-159.133	-40.695	-27.695	-159.477	-154.805	-31.797	-41.385	-155.109	-151.408	-150.848	-145.850	-49.575	-146.509	-8191	255	
612.150	1	1	0	0	0.37647	0.11908	0.10289	0.1897	0.33737	0.10405	0.28185	0.083881	0.073338	0.1933	0.17931	0.25341	0.10932	0.14732	0.037149	0.054189	-2.95	-2.9729	-3.5271	-3.1208	-3.3667	-3.5187	-3.1854	-3.5208	-3.4125	-3.1896	-3.6458	-3.2812	-3.2687	-3.6063	-3.1479	-3.2896	-82.290	138.354	-15.301	53.664	-157.115	-90.436	93.067	-57.785	116.727	90.872	-50.248	185.226	174.077	138.617	163.285	-9.291	0.0016681	0.00027867	0.00012111	1524.7	5.7949e-06	6.8735e-06	1512.7	412.13	1.2573e-05	1.2425e-05	459.8	156.57	136.04	45.589	6.4841e-06	56.144	0.00072033	0.00070063	0.00019168	1551.1	7.7452e-06	7.6168e-06	1541.4	420.64	7.577e-06	7.6704e-06	471.25	159.95	138.96	47.188	7.6213e-06	57.9	15.894	-115.608	-115.598	-159.030	-19.787	-48.794	-159.397	-154.670	-7.251	-25.470	-155.269	-151.601	-150.818	-145.836	-17.587	-146.762	-8191	255	
612.246	1	1	0	0	0.11198	0.23075	0.12001	0.13489	0.10477	0.18257	0.19784	0.10328	0.25801	0.13409	0.093081	0.22062	0.26881	0.17045	0.13412	0.1709	-2.8958	-2.9354	-3.475	-3.4292	-3.1625	-3.6063	-3.3333	-3.3417	-3.425	-3.0104	-3.65	-3.4458	-3.0479	-3.6375	-3.1667	-3.4917	-80.934	79.666	30.569	-141.198	-80.625	161.777	80.646	-135.139	-17.881	-8.201	-166.941	162.648	179.319	147.485	185.773	-107.450	0.0016082	0.00061133	0.00018129	1516.7	4.5261e-06	6.894e-06	1510.8	410.95	6.93e-06	6.3645e-06	458.81	156.78	135.51	45.647	8.1048e-06	55.775	0.00071536	0.00071046	0.00019282	1548.9	7.6757e-06	7.7002e-06	1540.9	420.31	7.7483e-06	7.7598e-06	470.53	160.2	138.91	47.185	7.4966e-06	57.836	17.784	-115.082	-68.473	-159.020	-39.849	-25.905	-159.433	-154.714	-42.211	-21.707	-155.195	-151.395	-150.894	-145.626	-42.588	-146.622	-8191	255	
612.342	1	1	0	0	0.29417	0.26746	0.12718	0.43657	0.035275	0.19261	0.38396	0.13849	0.14744	0.1847	0.1275	0.30927	0.20545	0.080636	0.22455	0.14301	-3.0792	-3.2292	-3.4354	-3.4646	-3.1229	-3.6271	-3.3875	-3.3958	-3.5146	-3.1104	-3.4958	-3.3604	-3.0812	-3.5917	-3.1625	-3.2104	-13.782	-89.963	166.639	167.199	-4.794	54.720	145.895	-165.220	95.885	-20.192	-71.979	92.744	-171.493	91.125	-111.545	94.883	0.0016131	0.00074178	0.00023109	1523.5	6.2814e-06	8.6087e-06	1509.1	411.37	1.6415e-05	8.1815e-06	460.43	156.01	135.9	45.657	4.4359e-06	55.341	0.00071671	0.00068795	0.00019357	1551	7.61e-06	7.5642e-06	1540.5	420.48	7.5534e-06	7.6065e-06	471.18	159.77	138.84	47.203	7.4748e-06	57.636	19.367	-61.329	-74.423	-159.099	-43.452	-10.111	-159.387	-154.736	-46.757	-3.001	-155.309	-151.472	-150.788	-145.616	-75.630	-146.486	-8191	255	
612.439	1	1	0	0	0.070525	0.23536	0.050092	0.43167	0.03161	0.037239	0.43997	0.068035	0.11218	0.029987	0.016846	0.19184	0.27188	0.27947	0.064547	0.11159	-3.1479	-2.8937	-3.5896	-3.6333	-2.9688	-3.5896	-3.5146	-3.3458	-3.6542	-3.1208	-3.425	-3.5687	-3.0625	-3.6271	-3.2083	-3.1396	-96.804	146.940	-145.140	150.561	-48.213	166.379	154.891	-56.324	81.861	-136.979	-70.102	52.644	161.807	100.946	54.748	114.416	0.0016584	0.00039006	9.638e-05	1522.2	5.0487e-06	7.6777e-06	1507.5	409.39	1.4257e-05	7.2241e-06	458.77	156.32	135.86	45.433	4.294e-06	55.765	0.00072089	0.00068229	0.00018786	1549	7.4858e-06	7.4497e-06	1539.5	419.18	7.3571e-06	7.4542e-06	470.19	159.7	138.74	47.042	7.2539e-06	57.723	19.679	-80.001	-62.856	-159.019	-46.136	-14.569	-159.358	-154.866	-13.887	-52.646	-155.177	-151.462	-151.094	-145.838	-64.459	-146.748	-8191	255	
612.533	1	1	0	0	0.15661	0.088488	0.083986	0.16581	0.20301	0.070305	0.038821	0.15875	0.24602	0.19106	0.214	0.051394	0.18192	0.18031	0.084341	0.27027	-3.2042	-2.975	-3.3521	-3.6312	-3.0021	-3.4042	-3.4938	-3.3271	-3.5729	-3.1646	-3.425	-3.8063	-3.1625	-3.4125	-3.3542	-3.1458	-129.947	-18.844	-12.439	169.229	13.110	-144.679	147.471	-118.860	-1.901	131.386	144.435	127.368	155.997	-88.140	13.017	161.105	0.0016915	0.00048583	0.00015961	1512.3	3.4124e-06	8.1103e-06	1508.3	412.35	9.1241e-06	9.535e-06	459.04	156.56	135.32	45.651	4.5968e-06	55.941	0.00069476	0.00066999	0.0001864	1544.3	7.5023e-06	7.4055e-06	1537.9	420.08	7.4303e-06	7.5734e-06	470.06	159.88	138.5	47.115	7.4287e-06	57.813	16.400	-61.203	-109.005	-159.046	-50.419	-1.942	-159.457	-154.819	-69.790	-22.047	-155.109	-151.532	-150.933	-145.776	-39.623	-146.544	-8191	255	
612.631	1	1	0	0	0.2324	0.21729	0.10597	0.12236	0.22467	0.10332	0.15977	0.045781	0.26484	0.063076	0.06121	0.23851	0.27204	0.082454	0.3489	0.036456	-3.1437	-3.2958	-3.275	-3.6479	-3.2083	-3.3771	-3.6021	-3.3667	-3.5271	-3.2958	-3.2292	-3.5875	-3.0812	-3.5708	-3.4542	-3.1833	179.645	95.459	69.027	89.404	-89.585	-172.704	94.770	-66.928	43.539	-66.807	-100.921	142.677	-144.267	157.873	-66.899	-63.079	0.0016085	0.00057093	0.00019685	1515.1	6.2235e-06	5.8636e-06	1505.9	411.9	9.8244e-06	7.0178e-06	458.33	156.59	135.89	45.868	1.2612e-05	55.689	0.00069366	0.00068249	0.00019494	1544.6	7.599e-06	7.4965e-06	1537.4	420.24	7.5645e-06	7.5942e-06	470.34	159.88	138.76	47.271	7.5597e-06	57.841	16.852	-86.990	-89.725	-159.201	-31.235	-19.893	-159.527	-154.826	-3.413	-42.690	-155.176	-151.680	-151.027	-145.711	-31.928	-146.809	-8191	255	
612.750	1	1	0	0	0.22088	0.097728	0.081762	0.2702	0.2036	0.11949	0.2879	0.34708	0.13085	0.26068	0.03717	0.22503	0.20723	0.012867	0.14123	0.18806	-3.1854	-3.0208	-3.1292	-3.6375	-3.0292	-3.3042	-3.6562	-3.05	-3.5396	-3.1521	-3.1625	-3.7542	-3.1833	-3.35	-3.4625	-3.1979	178.625	38.144	-111.448	172.450	-38.965	82.442	168.159	140.559	182.404	126.031	-53.680	95.112	24.427	68.990	171.605	-169.821	0.0016558	0.00052574	0.00014409	1518.7	2.6931e-06	1.2071e-05	1511.9	411.17	7.5994e-06	1.1708e-05	460.55	156.55	135.3	45.656	4.5964e-06	55.734	0.00071425	0.0006859	0.00019245	1549.9	7.5749e-06	7.6174e-06	1540	419.95	7.2857e-06	7.5781e-06	471.38	159.85	138.66	47.178	7.5064e-06	57.797	16.722	-56.145	-63.087	-158.926	-50.259	-7.207	-159.345	-154.805	-47.600	-22.613	-155.260	-151.503	-150.874	-145.738	-28.114	-146.508	-8191	255	
612.846	1	1	0	0	0.063299	0.21173	0.016518	0.14818	0.16224	0.095265	0.2719	0.24775	0.046165	0.11903	0.11308	0.20746	0.35659	0.22401	0.064598	0.059044	-3.0854	-3.3083	-2.9854	-3.7	-3.2125	-3.2792	-3.7667	-3.1917	-3.4771	-3.3083	-3.1458	-3.5604	-3.125	-3.3625	-3.4896	-3.0938	-69.602	2.402	4.499	164.123	-65.964	-131.977	167.247	184.884	15.047	44.678	-146.236	116.797	123.879	155.655	154.474	62.818	0.0015878	0.00016018	0.00011932	1526.1	6.6483e-06	2.4181e-06	1506.1	411.32	7.0258e-06	9.8803e-06	457.83	156.34	135.91	45.622	7.1099e-06	55.879	0.00071395	0.00068333	0.00018954	1551.3	7.411e-06	7.5596e-06	1538.5	420.21	7.5667e-06	7.6126e-06	470.26	159.78	138.68	47.163	7.6712e-06	57.811	15.109	-72.672	-89.149	-159.075	-88.855	20.171	-159.565	-154.613	-34.281	-20.533	-155.177	-151.405	-150.818	-145.778	-61.861	-146.858	-8191	255	
612.942	1	1	0	0	0.16142	0.06767	0.22638	0.20258	0.14505	0.11761	0.25299	0.20975	0.11391	0.31679	0.27055	0.25649	0.22864	0.13741	0.14546	0.088111	-3.0187	-3.2521	-2.9167	-3.6479	-3.2292	-3.1979	-3.7979	-3.2458	-3.4167	-3.5	-3.1667	-3.6437	-3.5396	-3.2771	-3.4042	-3.2188	-139.466	108.051	-41.895	-144.173	160.790	-117.521	160.485	135.148	125.631	-36.398	96.188	182.623	159.538	2.618	-78.000	-58.911	0.0016493	0.00063228	0.00015429	1523.7	1.421e-07	8.2483e-06	1508	411.7	4.6837e-06	2.6887e-06	459.61	156.71	135.66	45.675	7.6295e-06	55.846	0.00071672	0.00069976	0.00019462	1549.9	7.6046e-06	7.7805e-06	1539.5	420.47	7.6548e-06	7.711e-06	470.82	160.08	138.86	47.183	7.687e-06	57.835	16.341	-85.168	-82.261	-159.138	-69.607	-13.793	-159.479	-154.885	-11.573	-46.773	-155.123	-151.429	-150.894	-145.707	-47.873	-146.739	-8191	255	
613.038	1	1	0	0	0.19328	0.15038	0.43623	0.20575	0.093457	0.21907	0.28739	0.39414	0.11595	0.12263	0.20618	0.21807	0.13955	0.14183	0.17385	0.17631	-3.0542	-3.4875	-3.0146	-3.625	-3.25	-3.1188	-3.6958	-3.3229	-3.3271	-3.5417	-3.1333	-3.5729	-3.2979	-3.2625	-3.5521	-3.3292	-32.384	145.613	-135.130	-148.837	168.224	9.298	177.068	160.566	-107.265	-137.986	34.258	137.754	124.042	-23.210	120.063	114.550	0.0015049	0.00058822	0.00021695	1518.5	4.7931e-06	4.3038e-06	1511.2	411.1	1.1288e-05	8.6877e-06	459.8	156.61	135.9	45.7	1.0427e-05	55.724	0.00073454	0.00070813	0.0001971	1550.3	7.7869e-06	7.8937e-06	1541.2	420.18	7.8384e-06	7.8327e-06	471.05	160.11	138.99	47.214	7.8246e-06	57.843	14.072	-113.895	-69.480	-158.978	-40.526	-99.289	-159.349	-154.613	4.902	-26.758	-155.180	-151.282	-150.977	-145.574	-27.269	-146.780	-8191	255	
613.134	1	1	0	0	0.016343	0.28812	0.28704	0.27197	0.12185	0.13591	0.17655	0.065819	0.16636	0.031382	0.11527	0.27799	0.28343	0.23556	0.21797	0.084846	-2.9625	-3.5687	-3.0021	-3.6354	-3.2938	-3.0187	-3.7625	-3.3083	-3.4271	-3.4062	-3.1917	-3.5396	-3.475	-2.9917	-3.4646	-3.2854	-116.354	-171.919	65.848	-155.465	146.908	-156.125	116.513	-164.993	-87.552	31.626	-3.812	81.359	-169.202	186.531	-135.292	13.320	0.0015672	0.0005354	0.00018683	1521.7	6.438e-06	9.768e-06	1513.6	413.11	1.7354e-05	5.2002e-06	462.14	156.5	136.17	45.89	5.1004e-06	55.919	0.00074933	0.0007192	0.00020354	1550.7	8.0325e-06	8.0852e-06	1541.5	421.07	7.9356e-06	8.1057e-06	472.39	160.19	139.17	47.365	7.8894e-06	58.015	21.717	-34.907	-98.101	-159.102	-0.247	-10.607	-159.512	-154.814	-37.473	-27.820	-155.360	-151.206	-150.831	-145.462	-29.638	-146.555	-8191	255	
613.230	1	1	0	0	0.3004	0.24382	0.11701	0.079042	0.10316	0.19707	0.22974	0.18583	0.21857	0.069708	0.18302	0.21721	0.10611	0.32263	0.23977	0.11198	-2.6896	-3.5	-3.0667	-3.4958	-3.4979	-3.1688	-3.7833	-3.3833	-3.1604	-3.6063	-3.3021	-3.3438	-3.4979	-3.0167	-3.3958	-3.3479	-17.722	93.327	151.803	61.111	120.717	43.899	-146.851	171.222	-147.232	-111.719	-139.178	140.308	-41.973	-142.879	-140.960	23.204	0.0015153	0.00040364	0.00022081	1523.3	6.967e-06	7.3377e-06	1514	411.54	1.3393e-05	6.6578e-06	458.36	156.78	136.32	45.66	4.7877e-06	55.804	0.00075564	0.00073342	0.00020075	1553.3	7.8761e-06	8.0463e-06	1542.9	421.14	7.8625e-06	8.0243e-06	471.62	160.23	139.26	47.281	7.987e-06	57.883	15.894	-80.225	-61.747	-159.088	-47.211	20.335	-159.488	-154.651	-43.382	-39.579	-155.265	-151.523	-151.052	-145.635	-61.435	-146.850	-8191	255	
613.327	1	1	0	0	0.2908	0.093875	0.22986	0.30252	0.048391	0.1082	0.046767	0.22653	0.1139	0.22645	0.057106	0.16234	0.070989	0.15946	0.32219	0.019002	-2.7875	-3.5792	-2.9896	-3.5458	-3.4896	-3.15	-3.5438	-3.5104	-2.9813	-3.5708	-3.1562	-3.2667	-3.4354	-3.0396	-3.275	-3.3146	31.353	-12.727	62.347	153.576	26.817	66.494	-135.925	123.891	65.966	-15.427	-1.944	-32.830	-156.513	168.949	163.975	187.117	0.0016747	0.00045182	0.00014023	1520.9	5.923e-06	1.1889e-05	1514.2	412.22	1.0143e-05	1.0905e-05	460.45	156.84	135.87	45.692	8.4548e-06	55.843	0.00075905	0.00073427	0.0002039	1553.6	8.0961e-06	8.199e-06	1543.1	421.41	8.2603e-06	8.1767e-06	471.76	160.39	139.17	47.35	8.1352e-06	57.953	12.018	-76.585	-76.602	-158.900	-22.852	-8.600	-159.474	-154.710	-41.666	-12.930	-155.152	-151.419	-150.879	-145.697	-17.201	-146.751	-8191	255	
613.447	1	1	0	0	0.13935	0.1203	0.10659	0.15804	0.1284	0.28095	0.22095	0.12526	0.17904	0.1387	0.21662	0.1496	0.23382	0.042087	0.16136	0.29133	-2.6021	-3.4313	-3.1729	-3.275	-3.4813	-3	-3.6125	-3.4833	-2.9833	-3.625	-3.3271	-3.1271	-3.6833	-3.2792	-3.5021	-3.3583	-81.195	153.098	-120.328	66.833	97.951	-73.179	134.214	168.582	-115.776	116.156	27.212	154.004	117.168	124.234	-85.957	-166.389	0.0015442	0.00072412	0.00015171	1523.5	7.4702e-06	5.7885e-06	1510	413.13	9.0032e-06	7.0389e-06	462.75	157.38	136.13	45.685	1.1061e-05	55.998	0.00077503	0.00074617	0.00020653	1556.1	8.1273e-06	8.2398e-06	1543.1	421.63	8.2089e-06	7.9928e-06	473.03	160.32	139.25	47.337	8.1663e-06	58.039	13.348	-75.440	-104.946	-159.036	-41.652	-63.719	-159.320	-154.794	-13.006	-46.422	-155.259	-151.510	-150.999	-145.619	-53.023	-146.680	-8191	255	
613.542	1	1	0	0	0.063247	0.16949	0.18165	0.017812	0.077374	0.16633	0.095585	0.29895	0.026741	0.29053	0.30557	0.22091	0.3321	0.3397	0.040105	0.365	-2.5458	-3.4479	-3.1792	-3.2438	-3.5042	-3.15	-3.6229	-3.6104	-2.9313	-3.4646	-3.3937	-3.1354	-3.4917	-3.2667	-3.2083	-3.5687	184.386	-162.257	1.104	-10.711	-83.480	-44.559	-168.298	-164.195	47.349	145.019	114.553	-169.842	135.960	99.227	123.774	-157.134	0.0017095	0.00067141	0.00023987	1522.2	7.8084e-06	8.1589e-06	1517.1	412.59	7.0935e-06	4.4145e-06	460.97	156.77	136.01	45.608	6.413e-06	55.81	0.00075462	0.0007449	0.00020799	1554.4	8.0656e-06	8.186e-06	1544.2	421.07	8.0864e-06	8.085e-06	472.69	160.24	139.26	47.246	8.0129e-06	57.86	16.669	-91.535	-80.670	-159.029	-35.027	2.316	-159.541	-154.804	-12.073	-20.615	-155.263	-151.528	-150.661	-145.709	-26.466	-146.752	-8191	255	
613.638	1	1	0	0	0.24588	0.094596	0.17752	0.062601	0.10267	0.17272	0.18142	0.12215	0.16225	0.18108	0.34749	0.33134	0.17609	0.11391	0.050616	0.078246	-2.5062	-3.4708	-3.2562	-3.3542	-3.5458	-3.1625	-3.5021	-3.5979	-2.8479	-3.4146	-3.3667	-3.1208	-3.6875	-3.2938	-3.2396	-3.6104	121.362	-6.800	63.197	75.937	-132.737	133.920	90.868	126.579	32.057	-58.662	137.806	-140.151	126.350	113.778	-143.592	176.485	0.0016125	0.00027239	0.00010935	1525	4.5452e-06	5.8957e-06	1509.2	412.42	1.5555e-05	3.5143e-06	460.68	156.78	135.95	45.729	5.7845e-06	56.028	0.00074727	0.00071746	0.00019863	1553.5	7.7442e-06	7.8525e-06	1542.9	420.97	7.8507e-06	7.7979e-06	472.16	160.43	139.04	47.257	7.9612e-06	57.924	17.937	-123.011	-104.921	-159.101	-95.753	-51.057	-159.388	-154.883	-9.839	-56.923	-155.134	-151.437	-150.855	-145.680	-50.667	-146.619	-8191	255	
613.711	1	1	0	0	0.30066	0.22027	0.23593	0.23223	0.25236	0.32072	0.23608	0.2589	0.078991	0.11365	0.36802	0.27044	0.19842	0.075594	0.10282	0.09088	-2.6604	-3.2771	-3.4792	-3.1458	-3.575	-3.2917	-3.4354	-3.7125	-3.2667	-3.3187	-3.55	-3.2938	-3.6479	-3.5104	-3.125	-3.625	23.529	-147.167	185.787	179.921	-25.549	-58.594	179.433	126.925	26.144	-83.323	141.957	-95.074	-162.827	-41.175	33.676	65.989	0.0016578	0.00066499	0.00022613	1526.1	3.0912e-06	7.0142e-06	1510.9	412.61	1.6405e-05	6.3421e-06	460.26	156.45	136.58	45.894	6.9779e-06	55.937	0.00075099	0.00072428	0.00020306	1554.1	8.0282e-06	8.0966e-06	1544.3	421.43	8.0687e-06	8.0336e-06	471.82	160.15	139.37	47.296	8.0712e-06	57.929	12.674	-78.726	-100.163	-159.077	-88.093	-29.816	-159.378	-154.897	5.850	-56.192	-154.999	-151.559	-150.860	-145.831	-43.361	-146.591	-8191	255	
613.830	1	1	0	0	0.2144	0.12912	0.16602	0.16294	0.11193	0.06813	0.19411	0.18238	0.19066	0.22816	0.18868	0.30282	0.043581	0.22743	0.20667	0.12391	-2.8146	-3.3271	-3.45	-3.2188	-3.425	-3.3625	-3.4896	-3.5938	-3.0646	-3.3271	-3.6583	-3.0375	-3.4875	-3.2562	-3.1167	-3.7042	169.715	28.878	164.762	-139.654	-157.726	139.080	99.643	-122.137	-16.346	56.948	169.383	92.347	-106.073	-19.048	56.763	78.713	0.0016275	0.00080405	0.00019183	1524.2	6.2928e-06	9.1296e-06	1514.1	412.28	6.7189e-06	8.3434e-06	460.48	156.99	136.08	45.804	5.4796e-06	55.77	0.00075765	0.00074716	0.00020581	1553.6	8.045e-06	8.0939e-06	1544.2	420.94	8.0336e-06	8.0744e-06	471.85	160.07	139.23	47.299	8.0893e-06	57.868	14.935	-87.406	-91.751	-159.041	-26.504	-20.463	-159.444	-154.936	-57.012	-17.984	-155.174	-151.432	-150.642	-145.531	-59.571	-146.528	-8191	255	
#DATA ENDS
