BOXY.EXE: ISS Imagent and Oximeter Data Acquisition Program Version 0.80
Ascii Record File

#ACQ INFORMATION
2  Detector Channels 
16  External MUX Channels 
1  Auxiliary Channels 
5000  Waveform (CCF) Frequency (Hz)
1  Waveforms Skipped 
30  Waveforms Averaged 
1  Cycles Averaged 
16  Acquisitions per Waveform 
10.0806  Updata Rate (Hz) 

#FILE INFORMATION
TRUE -- External MUX Channel results are PARSED.
FALSE -- AC DC and Phase are NOT grouped.
TRUE -- Companion Program Settings File CREATED.
FALSE -- AC data not excluded
FALSE -- DC data not excluded
FALSE -- Phase data not excluded
FALSE -- Auxillary Chn. data not excluded
Tab delimiters

#CALIBRATION STATE
TRUE -- Waveform Calibration Values APPLIED.


#AUX CALIBRATION VALUES
Val Type	aux-1	

Term	1.0000e+00	
Factor	0.0000e+00	


#WF CALIBRATION VALUES
A = Detector Channel
Val Type	A-AC1	A-AC2	A-AC3	A-AC4	A-AC5	A-AC6	A-AC7	A-AC8	A-AC9	A-AC10	A-AC11	A-AC12	A-AC13	A-AC14	A-AC15	A-AC16	A-DC1	A-DC2	A-DC3	A-DC4	A-DC5	A-DC6	A-DC7	A-DC8	A-DC9	A-DC10	A-DC11	A-DC12	A-DC13	A-DC14	A-DC15	A-DC16	A-Ph1	A-Ph2	A-Ph3	A-Ph4	A-Ph5	A-Ph6	A-Ph7	A-Ph8	A-Ph9	A-Ph10	A-Ph11	A-Ph12	A-Ph13	A-Ph14	A-Ph15	A-Ph16	

Term	0.00000e+00	0.00000e+00	0.00000e+00	0.00000e+00	0.00000e+00	0.00000e+00	0.00000e+00	0.00000e+00	0.00000e+00	0.00000e+00	0.00000e+00	0.00000e+00	0.00000e+00	0.00000e+00	0.00000e+00	0.00000e+00	0.00000e+00	0.00000e+00	0.00000e+00	0.00000e+00	0.00000e+00	0.00000e+00	0.00000e+00	0.00000e+00	0.00000e+00	0.00000e+00	0.00000e+00	0.00000e+00	0.00000e+00	0.00000e+00	0.00000e+00	0.00000e+00	0.00000e+00	0.00000e+00	0.00000e+00	0.00000e+00	0.00000e+00	0.00000e+00	0.00000e+00	0.00000e+00	0.00000e+00	0.00000e+00	0.00000e+00	0.00000e+00	0.00000e+00	0.00000e+00	0.00000e+00	0.00000e+00	
Factor	1.00000e+00	1.00000e+00	1.00000e+00	1.00000e+00	1.00000e+00	1.00000e+00	1.00000e+00	1.00000e+00	1.00000e+00	1.00000e+00	1.00000e+00	1.00000e+00	1.00000e+00	1.00000e+00	1.00000e+00	1.00000e+00	1.00000e+00	1.00000e+00	1.00000e+00	1.00000e+00	1.00000e+00	1.00000e+00	1.00000e+00	1.00000e+00	1.00000e+00	1.00000e+00	1.00000e+00	1.00000e+00	1.00000e+00	1.00000e+00	1.00000e+00	1.00000e+00	X	X	X	X	X	X	X	X	X	X	X	X	X	X	X	X	

B = Detector Channel
Val Type	B-AC1	B-AC2	B-AC3	B-AC4	B-AC5	B-AC6	B-AC7	B-AC8	B-AC9	B-AC10	B-AC11	B-AC12	B-AC13	B-AC14	B-AC15	B-AC16	B-DC1	B-DC2	B-DC3	B-DC4	B-DC5	B-DC6	B-DC7	B-DC8	B-DC9	B-DC10	B-DC11	B-DC12	B-DC13	B-DC14	B-DC15	B-DC16	B-Ph1	B-Ph2	B-Ph3	B-Ph4	B-Ph5	B-Ph6	B-Ph7	B-Ph8	B-Ph9	B-Ph10	B-Ph11	B-Ph12	B-Ph13	B-Ph14	B-Ph15	B-Ph16	

Term	0.00000e+00	0.00000e+00	0.00000e+00	0.00000e+00	0.00000e+00	0.00000e+00	0.00000e+00	0.00000e+00	0.00000e+00	0.00000e+00	0.00000e+00	0.00000e+00	0.00000e+00	0.00000e+00	0.00000e+00	0.00000e+00	0.00000e+00	0.00000e+00	0.00000e+00	0.00000e+00	0.00000e+00	0.00000e+00	0.00000e+00	0.00000e+00	0.00000e+00	0.00000e+00	0.00000e+00	0.00000e+00	0.00000e+00	0.00000e+00	0.00000e+00	0.00000e+00	-1.61556e+02	-1.24365e+02	-1.24460e+02	-1.82575e+02	-7.77226e+01	-7.02735e+01	-1.54563e+02	-1.62015e+02	-7.99118e+01	-7.08945e+01	-1.79593e+02	-1.70828e+02	-1.78793e+02	-1.75846e+02	-8.48453e+01	-1.49068e+02	
Factor	2.31970e-05	1.41556e-04	4.23880e-05	1.51486e-01	1.25884e-06	1.81699e-06	1.63316e-01	6.36777e-02	1.50327e-06	1.86341e-06	9.72382e-02	2.82179e-02	2.41845e-02	8.33549e-03	1.21540e-06	1.19969e-02	3.25825e-06	3.66651e-06	1.02321e-06	7.89026e-02	3.94916e-08	4.01200e-08	7.99932e-02	3.30394e-02	3.96832e-08	4.01801e-08	4.87438e-02	1.42351e-02	1.27408e-02	4.36714e-03	3.97856e-08	6.09645e-03	X	X	X	X	X	X	X	X	X	X	X	X	X	X	X	X	



#DISTANCE SETTINGS
A = Detector Channel
A-1	A-2	A-3	A-4	A-5	A-6	A-7	A-8	A-9	A-10	A-11	A-12	A-13	A-14	A-15	A-16	

2.5000e+00	3.0000e+00	2.5000e+00	3.0000e+00	2.0000e+00	3.0000e+00	1.5000e+00	3.0000e+00	3.0000e+00	3.0000e+00	3.0000e+00	3.0000e+00	3.0000e+00	3.0000e+00	1.5000e+00	3.0000e+00	

B = Detector Channel
B-1	B-2	B-3	B-4	B-5	B-6	B-7	B-8	B-9	B-10	B-11	B-12	B-13	B-14	B-15	B-16	

1.0000e+01	1.0000e+01	1.0000e+01	1.4400e+00	1.0000e+01	1.0000e+01	1.5100e+00	1.9400e+00	1.0000e+01	1.0000e+01	1.9900e+00	2.4900e+00	2.4100e+00	2.9000e+00	1.0000e+01	2.9800e+00	




#DATA BEGINS
time	group	step	mark	flag	A-AC1	A-AC2	A-AC3	A-AC4	A-AC5	A-AC6	A-AC7	A-AC8	A-AC9	A-AC10	A-AC11	A-AC12	A-AC13	A-AC14	A-AC15	A-AC16	A-DC1	A-DC2	A-DC3	A-DC4	A-DC5	A-DC6	A-DC7	A-DC8	A-DC9	A-DC10	A-DC11	A-DC12	A-DC13	A-DC14	A-DC15	A-DC16	A-Ph1	A-Ph2	A-Ph3	A-Ph4	A-Ph5	A-Ph6	A-Ph7	A-Ph8	A-Ph9	A-Ph10	A-Ph11	A-Ph12	A-Ph13	A-Ph14	A-Ph15	A-Ph16	B-AC1	B-AC2	B-AC3	B-AC4	B-AC5	B-AC6	B-AC7	B-AC8	B-AC9	B-AC10	B-AC11	B-AC12	B-AC13	B-AC14	B-AC15	B-AC16	B-DC1	B-DC2	B-DC3	B-DC4	B-DC5	B-DC6	B-DC7	B-DC8	B-DC9	B-DC10	B-DC11	B-DC12	B-DC13	B-DC14	B-DC15	B-DC16	B-Ph1	B-Ph2	B-Ph3	B-Ph4	B-Ph5	B-Ph6	B-Ph7	B-Ph8	B-Ph9	B-Ph10	B-Ph11	B-Ph12	B-Ph13	B-Ph14	B-Ph15	B-Ph16	aux-1	digaux	

1375.490	1	1	0	768	0.067651	0.15686	0.29225	0.35272	0.12947	0.32109	0.16246	0.30014	0.093858	0.020365	0.14942	0.1131	0.10891	0.38039	0.074522	0.27081	-2.2875	-2.45	-2.1208	-3.0438	-2.4667	-2.5854	-2.8917	-2.175	-2.6833	-2.65	-2.5417	-2.8229	-2.7083	-2.6854	-2.6813	-2.3958	301.536	368.593	228.940	159.783	254.155	166.224	473.263	494.691	404.090	308.796	446.420	240.872	494.194	462.136	378.605	365.119	0.0011649	0.00063069	0.00024587	1503.2	5.1099e-06	1.1121e-05	1685.4	598.86	3.872e-06	5.1402e-06	703.37	214.81	190.01	65.938	5.7218e-06	82.879	0.00066753	0.00060635	0.00017139	1352.7	6.6859e-06	6.6779e-06	1511.5	537.52	6.3826e-06	6.1555e-06	631.07	193.62	171.7	60.069	6.5748e-06	75.116	159.852	276.869	247.024	167.019	305.607	319.671	164.976	171.684	170.136	298.629	169.777	173.843	176.539	182.896	272.389	178.878	-8191	255	
1375.586	1	1	0	0	0.28839	0.18655	0.15586	0.16616	0.22116	0.18211	0.17324	0.16647	0.21769	0.25615	0.2371	0.082413	0.10505	0.29575	0.29974	0.34219	-2.3271	-2.6708	-2.4	-2.9042	-2.2417	-2.4792	-2.8604	-2.4688	-2.5958	-2.4875	-2.3792	-2.8729	-2.4021	-2.4562	-2.6688	-2.4646	505.370	213.605	418.198	466.073	337.964	256.070	415.965	448.188	329.187	382.393	196.583	306.987	451.744	396.558	397.864	399.856	0.0011764	0.00073781	0.00020211	1506.4	8.477e-06	6.135e-06	1684.6	598.93	2.9346e-07	8.0946e-06	702.66	218.88	191.65	66.945	1.1763e-05	83.483	0.00063522	0.00058906	0.00016417	1355.6	6.528e-06	6.4632e-06	1513.3	538.84	6.2784e-06	6.3735e-06	632.34	196.38	173.12	61.063	6.1437e-06	75.923	164.798	235.224	218.170	166.870	301.311	274.707	165.175	171.620	442.152	289.533	169.582	174.129	176.584	182.674	280.396	178.899	-8191	255	
1375.683	1	1	0	0	0.18012	0.14556	0.18196	0.24928	0.13202	0.23091	0.055815	0.21525	0.3153	0.19005	0.1321	0.44814	0.41588	0.34386	0.11165	0.25628	-2.1937	-2.4958	-2.2292	-3.0417	-2.4688	-2.2812	-2.8229	-2.5187	-2.5083	-2.5271	-2.375	-2.7	-2.7667	-2.3583	-2.6813	-2.4292	431.127	325.096	228.738	477.360	426.967	209.756	417.940	387.156	224.795	348.826	458.135	173.646	481.267	479.544	280.651	489.486	0.001063	0.00075226	0.0002438	1502	4.986e-06	1.5259e-05	1676.4	593.53	8.4134e-06	2.7688e-06	699.95	215.4	189.9	65.993	8.5981e-06	81.703	0.0006054	0.00057307	0.00015656	1350.9	6.3719e-06	6.3713e-06	1506.9	536.99	6.6333e-06	6.6033e-06	629.14	193.99	171.39	60.142	6.7819e-06	74.348	159.579	248.806	272.980	167.078	301.175	293.725	165.243	171.509	242.343	297.166	169.900	174.114	176.552	182.935	298.697	178.914	-8191	255	
1375.779	1	1	0	0	0.11305	0.081772	0.10487	0.24731	0.21249	0.15352	0.4495	0.44216	0.253	0.153	0.19717	0.32131	0.19602	0.23588	0.10602	0.22876	-1.95	-2.5979	-2.2229	-2.8896	-2.5521	-2.4333	-2.9208	-2.5875	-2.4188	-2.5583	-2.3896	-2.5812	-2.6875	-2.3083	-2.5125	-2.5521	427.076	163.802	434.596	445.552	286.491	231.524	477.256	444.708	294.193	217.534	441.156	443.174	450.411	494.854	347.507	427.345	0.0011715	0.00042541	0.00025587	1491.6	7.311e-06	1.2192e-05	1669.9	591.78	1.479e-05	1.0891e-05	698.06	211.56	186.02	64.592	9.175e-06	79.963	0.00065112	0.00061338	0.00016605	1341.9	6.8415e-06	6.861e-06	1501.5	531.05	6.8492e-06	7.0155e-06	624.92	190.42	168.64	58.922	7.3104e-06	72.684	163.938	241.606	271.499	167.026	275.794	287.056	165.139	171.621	260.127	286.113	169.463	174.237	176.645	182.775	284.598	178.851	-8191	255	
1375.873	1	1	0	0	0.17039	0.025283	0.061231	0.29629	0.36246	0.032166	0.26121	0.15472	0.19088	0.17314	0.16311	0.015104	0.42699	0.38723	0.16261	0.30102	-2.0229	-2.5042	-2.1354	-2.6667	-2.6542	-2.3917	-2.85	-2.6063	-2.4813	-2.6292	-2.4021	-2.7188	-2.5958	-2.2021	-2.8979	-2.6229	480.816	505.741	421.477	497.148	479.439	361.244	444.462	443.919	417.443	373.697	221.162	427.078	482.774	513.595	170.822	422.163	0.0012239	0.00029173	0.00032541	1480.2	4.9016e-06	9.2197e-06	1652.8	583.18	1.3121e-05	5.5259e-06	678.75	205.86	182.5	62.856	5.6273e-06	77.516	0.00070786	0.00067408	0.00018854	1331.9	7.2738e-06	7.3096e-06	1488.3	525.26	7.6469e-06	7.5265e-06	612.54	185.49	165.86	57.511	7.8525e-06	70.591	161.808	270.520	232.271	166.938	300.329	245.471	165.075	171.779	265.962	486.069	169.623	174.128	176.572	182.801	277.758	179.129	-8191	255	
1375.971	1	1	0	0	0.20593	0.15048	0.12939	0.13486	0.22411	0.29969	0.55181	0.16214	0.27634	0.14493	0.13835	0.093116	0.17306	0.14157	0.11014	0.22039	-2.0042	-2.6396	-2.3312	-2.7896	-2.6188	-2.375	-2.8479	-2.8208	-2.2708	-2.6604	-2.4562	-2.7375	-2.7479	-2.2104	-2.7188	-2.6979	191.672	331.028	204.523	474.860	344.051	264.265	457.411	498.300	380.967	456.381	307.781	512.086	454.107	187.051	332.312	404.178	0.0011272	0.00069834	0.00047435	1454.1	1.3626e-05	1.0706e-05	1625.2	579.23	1.6203e-05	8.4553e-06	672.12	202.65	182.06	62.515	5.7278e-06	76.667	0.00075513	0.00074189	0.00020039	1310.6	7.8749e-06	8.1032e-06	1464.4	521.98	7.9481e-06	7.9938e-06	606.87	183.41	165.29	57.122	8.0996e-06	69.988	163.779	231.027	248.204	166.807	255.254	291.365	165.071	171.582	286.479	263.957	169.719	174.313	176.360	182.951	341.565	178.780	-8191	255	
1376.090	1	1	0	0	0.066213	0.067778	0.23275	0.38397	0.16638	0.014624	0.3362	0.34168	0.25584	0.18537	0.2471	0.14568	0.087032	0.26804	0.33159	0.09084	-1.7958	-2.75	-2.4042	-2.5333	-2.4354	-2.3917	-2.925	-2.6146	-2.175	-2.8979	-2.6312	-2.5479	-2.7167	-2.3521	-2.75	-2.5938	338.791	218.702	248.077	501.875	266.702	401.622	445.637	477.108	425.298	369.951	495.495	363.931	431.075	471.155	404.979	457.790	0.0011618	0.00087205	0.00032111	1442.2	4.3514e-06	7.2109e-06	1627.8	576.8	1.881e-06	1.1254e-05	676.2	203.63	182.12	62.014	9.4494e-06	76.371	0.00076113	0.00074891	0.00020399	1300.6	8.1785e-06	8.3618e-06	1460.5	520.16	8.4247e-06	8.3535e-06	607.17	183.8	165.37	57.061	8.4936e-06	69.984	158.316	250.597	230.275	167.041	335.290	278.778	164.995	171.467	289.816	265.596	169.761	173.953	176.616	182.671	317.728	178.739	-8191	255	
1376.186	1	1	0	0	0.12175	0.09047	0.15986	0.35023	0.024952	0.25351	0.26179	0.227	0.21884	0.094567	0.32317	0.35451	0.41186	0.1419	0.052518	0.09401	-1.6292	-2.5812	-2.5354	-2.7333	-2.5521	-2.2062	-2.625	-2.7896	-1.9958	-2.7521	-2.5292	-2.5646	-2.8792	-2.3854	-2.7917	-2.8667	428.488	433.724	393.673	155.986	278.920	430.202	471.451	477.849	429.340	200.964	463.661	494.322	474.994	241.972	310.432	455.148	0.0012069	0.0010227	0.00014416	1436.6	9.0585e-06	1.7145e-05	1619.1	580.39	9.9216e-06	7.2704e-06	677.95	205.74	183.58	62.284	1.3834e-05	76.383	0.00079327	0.00077854	0.00021955	1296	8.4986e-06	8.6203e-06	1459.6	522.26	8.572e-06	8.5343e-06	608.86	185.11	166.11	57.265	8.0436e-06	69.877	162.467	289.704	240.214	167.215	290.230	327.240	165.323	171.703	253.487	314.027	169.526	174.444	176.381	182.606	274.473	178.731	-8191	255	
1376.282	1	1	0	0	0.28728	0.10348	0.311	0.29857	0.069009	0.14723	0.15451	0.27154	0.113	0.16091	0.44805	0.2478	0.070479	0.060327	0.25825	0.029344	-1.6917	-2.5646	-2.5563	-2.4896	-2.7042	-2.4042	-2.7313	-2.7271	-2.4458	-2.7208	-2.5812	-2.3417	-3.0583	-2.5521	-2.5062	-2.5646	202.396	413.102	174.528	438.975	351.735	507.137	386.617	446.815	388.401	298.533	502.042	488.237	477.886	446.930	336.842	461.083	0.00099742	0.00079917	0.0002569	1432.3	5.3325e-06	1.2652e-05	1607.6	574.86	1.226e-05	3.286e-06	671.51	202.9	182.79	62.283	7.4779e-06	75.948	0.00076894	0.00074909	0.00020747	1291.7	8.2336e-06	8.3376e-06	1447.1	519.47	8.4018e-06	8.5926e-06	605.23	183.13	165.8	57.079	8.4597e-06	69.728	160.501	256.113	289.108	167.152	241.233	329.205	165.139	171.673	288.937	334.285	169.647	174.225	176.429	182.571	320.962	178.885	-8191	255	
1376.378	1	1	0	0	0.26335	0.050715	0.14022	0.10293	0.22439	0.15994	0.1451	0.14685	0.084228	0.062247	0.18936	0.038228	0.47054	0.2716	0.30925	0.34834	-1.8937	-2.6292	-2.5062	-2.3958	-2.85	-2.4229	-2.5542	-2.7979	-2.3854	-2.6146	-2.6917	-2.4354	-2.7771	-2.6188	-2.2562	-3.0792	267.255	386.855	353.123	419.731	244.448	233.743	455.936	455.912	158.877	362.059	476.013	482.372	493.746	504.149	360.556	446.374	0.0011076	0.00057738	0.00025249	1424.7	5.1002e-06	1.175e-05	1606.7	578.31	9.724e-06	9.285e-06	678.97	204.49	184.64	63.281	7.2651e-06	77.164	0.00077891	0.0007709	0.00021273	1287.7	8.2682e-06	8.1805e-06	1445.9	522.21	8.3995e-06	8.4048e-06	610.53	185.08	167.54	58.015	8.5122e-06	70.58	160.757	210.283	251.983	167.275	178.048	329.497	165.432	171.732	309.940	342.804	169.771	174.072	176.595	182.785	285.364	178.753	-8191	255	
1376.475	1	1	0	0	0.15116	0.12814	0.31158	0.16348	0.022382	0.14156	0.11713	0.10485	0.068411	0.15438	0.14507	0.18711	0.15881	0.15403	0.090466	0.11048	-1.7542	-2.3771	-2.6521	-2.5021	-2.6292	-2.4562	-2.7687	-3.0083	-2.3333	-2.6979	-2.7687	-2.3792	-2.7417	-2.6417	-2.4792	-2.9208	318.842	472.048	170.093	159.615	478.762	410.559	435.178	494.697	302.210	219.835	431.887	417.146	504.616	428.987	483.382	419.631	0.0010286	0.0010348	0.00018909	1431.9	3.437e-06	6.9719e-06	1600.1	582	8.3523e-06	5.2546e-06	676.51	203.6	183.12	63.086	4.8265e-06	76.663	0.00079524	0.00077072	0.00021698	1289.9	8.5304e-06	8.5336e-06	1442.5	525.04	8.7512e-06	8.5669e-06	610.29	184.55	166.62	57.747	8.8157e-06	70.301	163.757	266.659	343.757	166.948	298.617	252.082	165.136	171.566	247.596	392.477	169.708	174.348	176.827	183.170	306.513	179.137	-8191	255	
1376.571	1	1	0	0	0.24635	0.081955	0.16317	0.18335	0.13837	0.080068	0.1369	0.1735	0.15688	0.1022	0.13995	0.36712	0.085859	0.41444	0.16665	0.13668	-1.7646	-2.4396	-2.575	-2.35	-2.6708	-2.2792	-2.2625	-2.8937	-2.5771	-2.7333	-2.9021	-2.275	-2.8021	-2.6917	-2.1937	-2.5771	335.199	394.300	280.273	448.867	377.784	432.897	498.758	401.986	281.447	157.096	501.678	458.402	430.598	476.356	154.738	369.639	0.0012073	0.0004973	0.00021914	1416.7	1.8724e-06	9.321e-06	1585.6	573.49	7.8286e-06	6.6278e-06	672.15	203.4	182.77	62.226	2.4199e-06	75.782	0.00085345	0.00083792	0.00023376	1276.6	9.325e-06	9.3461e-06	1431	520.52	9.4251e-06	9.441e-06	605.09	183.88	166.02	57.19	9.5989e-06	69.529	160.535	478.352	279.423	167.141	265.815	223.496	165.120	171.724	302.884	267.077	169.807	174.237	176.658	182.807	251.359	178.930	-8191	255	
1376.691	1	1	0	0	0.10367	0.31223	0.25559	0.36928	0.2184	0.26234	0.14583	0.15354	0.11812	0.26607	0.21812	0.043094	0.40505	0.23581	0.19938	0.063285	-1.8646	-2.5354	-2.7	-2.5312	-2.5833	-2.4875	-2.3167	-2.8917	-2.4917	-2.4083	-2.8563	-2.5187	-2.6667	-2.6521	-2.4188	-2.7521	456.747	214.915	249.622	457.014	322.047	289.911	401.964	181.783	211.437	241.876	484.318	392.655	513.459	434.892	410.430	493.482	0.00099684	0.00088176	0.00011598	1390.7	8.5377e-06	1.0702e-05	1573.1	575.33	1.2816e-05	6.3906e-06	664.32	201.81	182.36	62.336	1.3797e-06	75.718	0.00089741	0.00089868	0.00025066	1259.5	9.7484e-06	1.0002e-05	1417	519.33	1.0175e-05	1.031e-05	602.07	183.29	166.16	57.448	1.0101e-05	69.357	163.007	254.651	358.091	167.006	276.579	355.942	165.235	171.785	278.075	250.045	169.686	174.256	176.621	183.156	335.804	178.860	-8191	255	
1376.786	1	1	0	0	0.27504	0.066974	0.0626	0.078462	0.22286	0.066657	0.24133	0.080987	0.066428	0.043437	0.11324	0.085362	0.35415	0.057311	0.050803	0.068596	-1.7729	-2.2917	-2.8542	-2.3438	-2.5125	-2.7042	-2.3937	-2.7521	-2.4042	-2.2271	-2.6979	-2.4375	-2.5208	-2.8042	-2.2521	-2.8438	380.416	446.344	351.653	504.245	304.028	288.231	467.423	319.129	491.491	267.860	508.098	475.049	490.626	436.975	480.894	367.692	0.0011693	0.00071528	0.0001408	1380.1	9.222e-06	8.3673e-06	1557.4	575.01	8.8604e-06	1.9221e-05	673.09	204.38	183.6	63.278	7.9226e-06	76.388	0.00092447	0.00093378	0.00026127	1252.9	1.0137e-05	1.0493e-05	1409.1	520.07	1.0325e-05	1.0275e-05	605.98	185.21	167.76	58.226	1.0147e-05	70.261	163.277	243.658	227.603	167.344	272.531	303.077	165.278	171.776	290.679	297.989	169.818	174.290	176.851	182.643	261.733	179.331	-8191	255	
1376.882	1	1	0	0	0.075608	0.20509	0.17523	0.14497	0.14397	0.25302	0.087841	0.055648	0.12517	0.18429	0.29686	0.1215	0.1514	0.16056	0.15342	0.39459	-2.0542	-2.3042	-2.8167	-2.8146	-2.4667	-2.6083	-2.4104	-2.8083	-2.6125	-2.3729	-2.7542	-2.4562	-2.8375	-2.9521	-2.2167	-2.5771	462.155	348.046	462.408	166.225	302.398	265.561	415.447	417.346	430.166	361.392	475.223	394.746	506.117	156.743	282.681	431.251	0.0012314	0.00053607	0.00025786	1394.8	4.3955e-06	1.2304e-05	1578.3	580.88	9.9376e-06	8.2045e-06	673.73	207.2	185.91	64.542	1.0864e-05	78.036	0.00092773	0.00094234	0.00026033	1259.3	1.0055e-05	1.0068e-05	1421.7	524.79	9.8135e-06	9.9738e-06	610.42	187.92	169.31	59.241	9.6102e-06	71.815	165.237	323.149	203.845	167.116	248.496	299.449	165.077	171.757	290.852	315.884	169.859	174.319	176.741	182.661	273.310	179.053	-8191	255	
1376.978	1	1	0	0	0.070472	0.15717	0.32908	0.3138	0.23009	0.19581	0.15383	0.16579	0.12473	0.08082	0.28699	0.023443	0.18752	0.2475	0.13585	0.22025	-2.1	-2.2313	-2.6729	-2.5708	-2.3146	-2.8083	-2.5042	-2.7979	-2.6188	-2.1813	-2.9542	-2.6708	-2.3896	-2.6479	-2.4333	-2.6958	324.014	513.775	166.606	461.971	251.472	402.365	419.146	452.782	388.654	445.102	166.806	482.287	501.106	456.702	463.851	411.086	0.0011907	0.0014658	0.00018093	1408.7	7.5585e-06	1.474e-05	1583	586.34	1.2293e-05	1.2425e-05	681.32	209.98	188.01	65.65	8.2057e-06	79.384	0.00088814	0.00088117	0.00024394	1270	9.6103e-06	9.5527e-06	1430	530.21	9.3328e-06	9.4304e-06	616.53	190.31	171.17	60.287	9.1461e-06	72.456	161.257	233.412	271.378	167.427	337.833	291.267	165.278	172.007	292.566	278.950	169.992	173.897	176.447	183.019	227.720	178.798	-8191	255	
1377.051	1	1	0	0	0.21876	0.1177	0.042967	0.23775	0.12995	0.08222	0.35436	0.48713	0.0080869	0.20723	0.061588	0.10342	0.15817	0.38358	0.10173	0.093365	-2.0521	-2.1979	-2.7146	-2.7938	-2.3167	-2.5979	-2.3833	-2.4583	-2.6188	-2.1937	-2.6771	-2.6125	-2.4167	-2.6646	-2.3	-2.7646	451.987	194.770	438.230	467.909	508.681	401.032	461.498	450.900	482.738	375.442	286.543	468.593	467.897	157.589	173.218	183.788	0.00094183	0.0010087	0.00041903	1409.6	1.1515e-05	9.28e-06	1586.8	583.64	6.1901e-06	9.164e-06	686.96	210.19	187.52	65.745	7.7203e-06	79.037	0.00083405	0.00083521	0.00022893	1273.3	8.9332e-06	8.8388e-06	1431	530.14	8.7375e-06	8.8893e-06	617.55	189.7	170.78	60.215	8.7507e-06	72.6	163.272	292.714	215.381	166.904	311.983	256.805	165.290	171.695	214.949	253.751	169.652	174.251	176.596	182.877	298.826	179.069	-8191	255	
1377.170	1	1	0	0	0.068389	0.13337	0.28934	0.039545	0.12681	0.37856	0.3311	0.25109	0.18998	0.19572	0.02	0.16883	0.33501	0.18985	0.17606	0.14424	-2.0646	-2.3312	-2.6	-2.6375	-2.3708	-2.7708	-2.6479	-2.5354	-2.7146	-2.3438	-2.8021	-2.7854	-2.2917	-2.8667	-2.2333	-2.4667	232.832	337.697	509.245	253.838	358.726	180.380	441.886	477.934	187.080	436.946	497.359	494.211	503.583	390.182	499.742	256.581	0.00098097	0.00062622	0.00012801	1414.6	1.6723e-06	1.1518e-05	1599.7	593.22	1.0666e-05	2.6443e-06	688.98	211.18	188.4	66.596	6.1669e-06	79.613	0.00081738	0.00080456	0.00022598	1274.3	8.6159e-06	8.6276e-06	1436.9	534.18	8.6421e-06	8.7257e-06	622.04	190.66	171.57	60.774	8.6368e-06	72.95	160.388	262.956	357.195	167.301	273.993	272.396	165.191	171.733	311.758	230.585	169.567	174.141	176.601	182.962	331.440	179.184	-8191	255	
1377.266	1	1	0	0	0.23902	0.079896	0.095749	0.19975	0.26342	0.055627	0.33944	0.26859	0.19496	0.23259	0.073333	0.093922	0.34871	0.047581	0.062621	0.26127	-2.1208	-2.1771	-2.6292	-2.7583	-2.4042	-2.8271	-2.7375	-2.8729	-2.7208	-2.2896	-2.6312	-2.8042	-2.4521	-2.7083	-2.2667	-2.3083	307.101	281.365	249.927	472.682	326.098	248.960	462.343	437.765	290.820	178.619	439.720	169.002	493.806	482.167	349.015	481.877	0.00097638	0.00095963	0.00045423	1422.1	8.655e-06	6.8011e-06	1601.7	595.09	5.7559e-06	7.4937e-06	693.3	211.86	189.53	66.956	5.4585e-06	80.696	0.00081218	0.00080032	0.00021871	1282.3	8.6177e-06	8.6652e-06	1441.5	535.86	8.8066e-06	8.7238e-06	625.06	191.24	172.04	61.3	8.9308e-06	73.795	155.596	229.673	231.387	167.257	300.698	338.906	165.320	171.759	270.674	262.252	169.812	174.194	176.953	182.860	312.966	179.164	-8191	255	
1377.363	1	1	0	0	0.098227	0.28757	0.29686	0.24968	0.082218	0.10179	0.59295	0.17559	0.1603	0.25896	0.069052	0.17054	0.45848	0.19871	0.17527	0.24646	-2.3937	-2.2562	-2.4562	-2.8667	-2.4083	-2.8	-2.8354	-2.5729	-2.775	-2.2625	-2.5292	-2.7687	-2.25	-2.6021	-2.3604	-2.3167	325.511	265.038	188.364	476.861	220.481	302.516	428.729	312.195	425.640	247.453	493.105	471.057	170.529	509.483	326.801	400.291	0.0011958	0.0002976	0.00016803	1421.7	6.7864e-06	6.0237e-06	1604.3	593.42	1.7042e-05	1.4223e-05	690.43	210.35	188.84	66.946	7.044e-06	80.823	0.00083376	0.00080743	0.00022812	1283.6	8.9431e-06	8.9688e-06	1441.3	535.53	8.955e-06	8.9418e-06	622.53	190.3	171.95	61.527	9.0854e-06	73.992	155.496	500.945	254.668	167.229	202.658	297.533	165.272	171.982	296.706	351.099	169.579	174.283	176.550	183.222	302.633	179.121	-8191	255	
1377.483	1	1	0	0	0.193	0.17854	0.21983	0.13849	0.080946	0.13908	0.17505	0.22123	0.22579	0.16958	0.092001	0.26352	0.18829	0.42619	0.10194	0.31807	-2.1417	-2.4188	-2.5125	-2.9958	-2.3083	-2.4958	-2.7229	-2.4771	-2.7646	-2.4708	-2.6562	-2.7604	-2.2896	-2.5375	-2.4021	-2.3083	486.997	179.604	381.659	432.146	359.671	205.157	456.515	457.428	285.398	197.570	507.424	476.479	432.357	172.189	401.529	429.653	0.0011021	0.00098466	0.00038132	1413.2	5.3688e-06	7.1967e-06	1578.7	592.13	1.4143e-05	1.4628e-05	691.22	211.44	190.71	68.574	5.5228e-06	81.989	0.0008494	0.00082283	0.00023211	1276.1	9.0752e-06	9.1044e-06	1429.9	537.39	9.3947e-06	9.4326e-06	625.1	192.02	173.4	62.676	9.3029e-06	74.821	161.317	231.789	286.503	167.330	290.338	290.068	165.301	172.143	266.337	276.105	169.783	174.232	176.781	182.970	289.584	179.427	-8191	255	
1377.579	1	1	0	0	0.17013	0.068677	0.082837	0.48596	0.10304	0.10225	0.29054	0.26472	0.0896	0.35145	0.081169	0.30227	0.30217	0.2207	0.24483	0.24839	-2.1229	-2.5104	-2.3438	-2.7229	-2.1896	-2.4	-2.8479	-2.5125	-2.6125	-2.5771	-2.4562	-2.9042	-2.5229	-2.5375	-2.6833	-2.5646	444.787	287.752	512.363	403.192	215.776	485.980	413.861	456.565	358.896	472.657	162.101	511.438	488.934	477.315	227.337	473.241	0.0011343	0.00049496	0.00021774	1412.2	1.0961e-05	1.5932e-05	1583	596.48	9.5248e-06	1.1419e-05	699.16	212.84	191.34	68.231	7.6061e-06	81.141	0.00087931	0.00086116	0.0002441	1274.3	9.4094e-06	9.4131e-06	1430	538.97	9.5699e-06	9.564e-06	628.12	192.93	173.65	62.384	9.8573e-06	74.479	162.083	285.833	294.459	167.177	300.143	283.313	165.450	171.898	391.278	293.479	169.498	174.436	176.202	183.127	231.823	179.160	-8191	255	
1377.651	1	1	0	0	0.22873	0.1699	0.15559	0.30093	0.14093	0.19823	0.32681	0.32558	0.27009	0.064374	0.13189	0.30873	0.048515	0.028126	0.042581	0.37492	-2.2417	-2.2875	-2.1104	-2.8208	-2.6104	-2.5979	-2.8771	-2.3708	-2.6063	-2.7396	-2.4021	-2.8729	-2.6375	-2.4479	-2.6229	-2.4333	310.443	424.808	176.389	457.374	257.161	218.170	442.272	439.589	492.861	306.850	408.888	469.818	357.416	237.764	156.946	436.294	0.0012164	0.0011265	0.00035563	1404.4	1.0785e-05	9.8178e-06	1571.7	595.58	1.4214e-05	5.2899e-06	687.99	211.98	189.89	67.685	5.3476e-06	80.512	0.00090141	0.00089342	0.00025069	1269.1	9.82e-06	9.8393e-06	1424.2	537.26	9.9096e-06	9.8953e-06	624.67	192.38	172.94	62.157	1.0102e-05	73.91	156.840	232.363	287.777	167.413	311.212	291.294	165.334	171.913	316.318	232.658	169.451	174.252	176.798	183.213	284.528	179.275	-8191	255	
1377.772	1	1	0	0	0.29495	0.17558	0.17962	0.2858	0.25516	0.06344	0.23404	0.30621	0.15322	0.15925	0.22978	0.24881	0.10029	0.099003	0.21565	0.41279	-1.9479	-2.5979	-2.4708	-2.9375	-2.4729	-2.4271	-2.6958	-2.5146	-2.6604	-2.8625	-2.6229	-2.7354	-2.3229	-2.2812	-2.5958	-2.3812	387.296	390.641	448.395	162.265	324.334	386.278	513.979	441.235	446.647	243.554	498.884	491.522	436.467	270.118	179.356	464.779	0.0011406	0.00084522	0.0001615	1390.3	7.5459e-06	1.1407e-05	1572.7	585.42	5.3515e-06	7.4293e-06	681.2	206.13	187.32	65.929	6.5272e-06	78.711	0.00094656	0.00093737	0.00026845	1259.7	1.0245e-05	1.0331e-05	1420.1	530.11	1.0041e-05	1.0259e-05	615.55	188.07	170.39	60.72	1.0315e-05	72.393	163.509	250.289	367.260	167.146	210.408	327.199	165.476	172.123	332.729	275.546	169.676	174.223	176.645	183.049	229.357	178.887	-8191	255	
1377.866	1	1	0	0	0.064235	0.16778	0.11122	0.2002	0.054384	0.10675	0.28127	0.21792	0.23528	0.30125	0.32667	0.24209	0.088413	0.12966	0.057903	0.39007	-2.15	-2.6271	-2.2667	-2.8958	-2.5687	-2.1813	-2.8125	-2.3771	-2.5271	-2.7062	-2.5104	-2.9271	-2.8146	-2.5771	-2.7708	-2.3896	490.690	447.038	417.691	204.258	497.384	203.377	480.314	456.752	413.739	476.224	480.564	511.173	478.796	479.667	178.534	398.231	0.0010359	0.0010766	0.00015654	1387.8	9.3444e-06	1.76e-05	1561.9	580.43	1.0261e-05	1.123e-05	674.14	205.03	185.71	64.825	1.2015e-05	77.444	0.00093755	0.00094525	0.00026542	1256.7	1.03e-05	1.04e-05	1410.5	525.59	1.0273e-05	1.0449e-05	610.36	186.22	168.93	59.802	1.0492e-05	71.271	157.458	289.574	224.584	167.295	231.238	300.432	165.414	172.127	253.609	275.395	169.946	174.391	176.812	182.970	277.825	179.229	-8191	255	
1377.962	1	1	0	0	0.28539	0.052412	0.20981	0.20898	0.083969	0.13792	0.26203	0.3135	0.14979	0.033378	0.12608	0.079826	0.24269	0.31663	0.045939	0.067919	-1.9958	-2.6271	-2.3396	-2.8625	-2.7083	-2.5	-2.9979	-2.5	-2.3333	-2.6542	-2.6083	-2.6125	-2.7583	-2.4958	-2.7167	-2.4792	447.908	316.921	233.087	461.933	292.902	222.753	446.482	461.887	266.272	234.309	173.231	209.550	170.027	469.042	431.286	444.408	0.0011253	0.0012754	0.00027811	1389.3	1.5704e-06	6.8531e-06	1553	575.19	8.0176e-06	1.0331e-05	673.72	207.14	185.16	64.756	4.6789e-06	77.868	0.00095137	0.00094733	0.00026968	1253.7	1.0346e-05	1.0522e-05	1409.7	522.89	1.0623e-05	1.0785e-05	610.35	187.33	168.96	59.839	1.045e-05	71.531	158.232	247.900	214.550	167.354	338.358	189.117	165.361	171.646	237.637	249.430	169.913	174.289	176.690	182.888	212.853	179.153	-8191	255	
1378.083	1	1	0	0	0.11403	0.22215	0.23023	0.18504	0.17075	0.057411	0.28049	0.40984	0.10802	0.11443	0.29502	0.26336	0.18969	0.32358	0.015229	0.16419	-1.7458	-2.7104	-2.2125	-2.5333	-2.8604	-2.2896	-3.0312	-2.5021	-2.4708	-2.6583	-2.6333	-2.775	-2.8292	-2.4229	-2.5792	-2.6021	336.486	383.199	482.683	488.636	352.850	427.331	457.987	472.262	312.438	368.973	454.305	435.347	504.051	476.459	198.434	443.457	0.0011041	0.00057662	8.3956e-05	1383.8	5.1096e-06	7.6092e-06	1562.6	576.24	1.2776e-05	2.4112e-05	671.47	205.44	183.84	65.021	1.3423e-05	77.178	0.00095608	0.00096654	0.00027051	1253.7	1.049e-05	1.0815e-05	1409.7	522.89	1.0775e-05	1.0857e-05	608.41	187.01	168.63	59.75	1.0668e-05	71.003	159.502	233.557	273.336	167.311	264.710	310.406	165.439	171.972	240.126	275.779	169.739	174.501	176.854	182.943	329.725	179.032	-8191	255	
1378.179	1	1	0	0	0.1344	0.21158	0.18305	0.11383	0.22378	0.13009	0.2556	0.29117	0.12272	0.18662	0.15876	0.26088	0.25174	0.15464	0.15855	0.16509	-1.8625	-2.6896	-2.2687	-2.6354	-2.6771	-2.2854	-2.8521	-2.8729	-2.425	-2.8854	-2.4688	-2.5062	-2.6125	-2.2958	-2.5771	-2.875	338.554	388.836	261.666	444.083	181.942	371.041	421.875	437.488	511.850	289.775	433.632	478.478	155.323	466.593	457.724	163.951	0.0010927	0.0013434	0.00029278	1375.9	4.2859e-06	4.8874e-06	1550.6	572.56	1.2103e-05	4.9211e-06	665.56	202.5	182.21	64.447	8.423e-06	77.296	0.00097547	0.00099118	0.00027298	1246.7	1.0659e-05	1.0904e-05	1400.7	519.01	1.0859e-05	1.0734e-05	602.26	184.69	166.85	59.317	1.0893e-05	70.608	163.827	230.526	253.178	167.096	293.411	365.924	165.184	172.228	288.791	420.914	169.895	174.188	176.841	183.220	270.507	179.122	-8191	255	
1378.275	1	1	0	0	0.16236	0.087697	0.13311	0.11126	0.041635	0.17995	0.11198	0.12757	0.21549	0.14353	0.13889	0.16326	0.16124	0.18786	0.20317	0.16788	-1.7646	-2.7458	-2.3042	-2.5563	-2.7938	-2.3104	-2.8563	-2.8	-2.125	-2.5917	-2.7646	-2.7188	-2.8187	-2.3979	-2.5271	-2.6	452.110	161.858	388.057	465.243	330.134	512.549	482.358	168.296	491.538	446.280	463.429	197.494	504.554	509.538	467.317	477.097	0.0011316	0.0014202	0.00055763	1362.8	6.4747e-06	8.8782e-06	1535.2	571.52	1.2727e-05	1.8821e-05	660.32	203.81	183.73	64.322	8.7013e-06	76.596	0.00099675	0.00099696	0.00028311	1237.2	1.1096e-05	1.0976e-05	1389.8	517.31	1.1051e-05	1.1066e-05	599.42	184.63	167.52	59.279	1.0779e-05	70.273	158.046	262.982	238.591	167.480	288.125	340.102	165.268	171.897	254.142	245.554	169.808	174.348	176.865	183.049	302.634	179.172	-8191	255	
1378.347	1	1	0	0	0.19229	0.064808	0.12301	0.25956	0.24923	0.21961	0.34731	0.16414	0.12691	0.015556	0.18181	0.099268	0.3517	0.17246	0.1023	0.18161	-1.7604	-2.8146	-2.4458	-2.3646	-2.7313	-2.5375	-2.9208	-2.8667	-2.3792	-2.6188	-2.6229	-2.5958	-3.0083	-2.4833	-2.3688	-2.8812	376.824	347.236	420.092	450.474	466.290	245.691	155.194	488.864	160.207	290.344	158.249	484.234	432.181	475.795	461.622	394.880	0.0010054	0.0010862	0.00016304	1367.4	3.8195e-06	4.5218e-06	1536.4	572.52	1.0269e-05	1.3054e-05	659.65	204.02	184.97	64.311	1.1771e-05	76.237	0.0010079	0.0010146	0.00027914	1237.7	1.0857e-05	1.0861e-05	1390.9	516.21	1.0868e-05	1.0899e-05	600.47	185.47	167.97	59.401	1.0554e-05	70.42	166.348	263.521	509.440	167.428	170.745	387.691	165.319	171.758	236.671	370.733	169.765	174.611	176.682	183.183	311.776	179.084	-8191	255	
1378.467	1	1	0	0	0.15424	0.13918	0.17463	0.13833	0.16532	0.068217	0.2573	0.33689	0.27138	0.10324	0.25518	0.2786	0.10138	0.35528	0.18624	0.19308	-1.8167	-2.7521	-2.5646	-2.4104	-2.5917	-2.4208	-2.65	-2.9958	-2.3187	-2.4583	-2.7729	-2.4938	-2.8792	-2.2292	-2.2708	-2.8167	243.787	240.004	306.153	493.125	210.778	373.420	456.922	462.507	325.349	445.606	467.421	484.284	500.525	465.191	505.233	419.967	0.0012121	0.00042191	0.00011909	1371.8	1.7673e-06	6.9866e-06	1552.8	574.87	5.1711e-06	7.939e-06	670.06	205.64	185.93	65.606	4.0103e-06	77.606	0.00099083	0.00097071	0.00027595	1241.8	1.0511e-05	1.0658e-05	1401.8	521.47	1.0461e-05	1.0276e-05	606.48	187.35	169.45	60.304	1.0376e-05	71.37	160.388	191.410	237.419	167.606	413.555	265.003	165.583	171.766	302.407	316.715	170.058	174.257	176.753	182.743	274.695	179.160	-8191	255	
1378.564	1	1	0	0	0.10201	0.16431	0.15177	0.058649	0.19345	0.080213	0.41904	0.25255	0.13663	0.057765	0.068383	0.16323	0.16637	0.31454	0.079889	0.21214	-1.9542	-2.5708	-2.3958	-2.4354	-2.7604	-2.4458	-2.6667	-2.6708	-2.2729	-2.5229	-2.8021	-2.6042	-2.7958	-2.7875	-2.3333	-2.7479	513.540	283.703	423.896	193.728	301.863	405.587	440.964	442.132	437.939	182.507	269.047	374.625	423.538	472.645	230.983	460.583	0.0010615	7.9738e-05	0.00030395	1381.1	2.3607e-06	7.2459e-06	1556	580.09	8.6146e-06	1.0643e-05	679.12	208.38	186.78	66.588	1.4633e-05	78.423	0.00093302	0.00090686	0.00025838	1248.5	9.917e-06	9.8444e-06	1405.6	524.41	9.6461e-06	9.6071e-06	611.64	188.64	170.66	61.257	9.3494e-06	72.084	164.173	387.226	306.720	167.225	483.572	329.601	165.392	171.533	353.078	312.255	169.651	174.178	176.689	183.192	267.900	179.317	-8191	255	
1378.660	1	1	0	0	0.23833	0.24072	0.074955	0.30886	0.10497	0.10304	0.40731	0.1463	0.11699	0.085376	0.21189	0.18461	0.4876	0.13158	0.085328	0.18174	-1.7708	-2.5417	-2.6604	-2.4125	-2.525	-2.5687	-2.5979	-3.0792	-2.4271	-2.5187	-2.8208	-2.4146	-2.6625	-2.6229	-2.3812	-2.8708	187.635	494.564	513.528	160.881	285.402	240.880	469.117	438.686	476.795	494.043	468.673	445.006	504.863	157.929	476.955	482.134	0.0011098	0.00051429	0.00028011	1384	5.1545e-06	7.898e-06	1557.8	581.45	4.917e-06	5.9038e-06	676.56	208.57	188.04	66.524	7.4112e-06	78.152	0.00087994	0.00085082	0.00023514	1251.5	9.064e-06	9.1154e-06	1407.9	527.66	9.1363e-06	9.2873e-06	611.24	188.88	170.69	60.854	9.0401e-06	72.025	156.096	220.612	223.825	167.208	327.998	274.650	165.695	171.792	295.302	289.902	169.757	174.100	176.954	183.178	297.940	178.768	-8191	255	
1378.756	1	1	0	0	0.20316	0.23739	0.22437	0.30039	0.12214	0.20046	0.09224	0.24266	0.097612	0.17171	0.16146	0.14891	0.20826	0.2431	0.088752	0.1603	-1.8979	-2.3708	-2.9188	-2.5104	-2.6354	-2.7542	-2.5708	-2.8979	-2.3542	-2.3354	-2.5687	-2.2938	-2.4479	-2.6813	-2.2042	-2.9229	328.647	497.196	235.106	496.704	449.809	184.534	399.830	171.036	290.415	197.207	188.681	173.958	446.435	466.811	172.834	430.621	0.001143	0.0010824	0.00034026	1390.8	1.0162e-05	5.517e-06	1563.4	587.87	7.711e-06	1.4766e-05	684.54	209.78	187.94	66.423	3.9753e-06	79.029	0.0008436	0.00084793	0.00023094	1255.2	8.7541e-06	8.7676e-06	1412.2	531.22	9.0148e-06	8.9505e-06	614.92	189.78	170.94	60.859	8.8309e-06	72.259	162.055	253.398	202.249	167.340	291.843	319.995	165.428	172.060	280.219	317.079	169.876	174.264	176.883	183.226	249.790	179.266	-8191	255	
1378.875	1	1	0	0	0.13293	0.057544	0.086931	0.10852	0.29637	0.21938	0.035392	0.031331	0.1292	0.3083	0.093288	0.18267	0.17509	0.065016	0.11956	0.1656	-1.8604	-2.3021	-2.5312	-2.3229	-2.3812	-2.6688	-2.5146	-2.8417	-2.6063	-2.2208	-2.6146	-2.2062	-2.65	-2.6833	-2.0812	-2.6688	259.754	495.686	155.839	354.564	357.732	326.970	489.002	246.849	396.311	394.853	504.455	377.154	461.548	218.282	196.541	474.233	0.00098708	0.0015528	0.00046771	1391.5	1.0975e-05	1.4043e-05	1566.1	587.86	1.1827e-05	1.4658e-05	680.92	209.81	187.83	65.623	8.3887e-06	77.806	0.00083417	0.00080191	0.00022333	1256.7	8.8659e-06	8.797e-06	1414.7	531	8.8308e-06	9.0749e-06	615.08	189.34	170.4	60.176	8.9976e-06	71.317	158.679	260.312	254.709	167.339	298.587	354.866	165.445	171.789	271.078	296.837	169.913	174.250	176.657	182.840	263.770	179.121	-8191	255	
1378.946	1	1	0	0	0.25173	0.16774	0.072344	0.16682	0.2348	0.16711	0.37883	0.11518	0.10805	0.15964	0.10781	0.23619	0.3163	0.063384	0.15339	0.22184	-2.2	-2.275	-2.6854	-2.6583	-2.4542	-2.7792	-2.2875	-2.5	-2.5	-2.4667	-2.7417	-2.4958	-2.6229	-2.9521	-2.0625	-2.6354	302.115	323.309	457.966	496.843	335.166	204.982	409.897	496.157	377.121	229.255	157.921	460.692	492.660	362.416	351.972	459.708	0.0011531	0.0010311	0.00043636	1387.6	7.8612e-06	4.3151e-06	1554	578.42	1.0649e-05	1.2984e-05	674.99	205.29	185.42	64.395	1.08e-05	76.537	0.0008408	0.00082711	0.00023032	1250.1	9.0265e-06	9.1607e-06	1399.8	524.08	9.404e-06	9.0595e-06	608.48	185.67	167.91	59.04	9.3884e-06	70.218	159.646	238.801	219.047	167.573	286.372	304.846	165.551	171.848	291.631	307.094	169.746	174.220	176.509	183.169	270.177	179.298	-8191	255	
1379.044	1	1	0	0	0.15677	0.1507	0.19792	0.38573	0.2472	0.10091	0.34644	0.28624	0.21257	0.30202	0.11184	0.048254	0.40757	0.40377	0.32702	0.11361	-2.0312	-2.2792	-2.6813	-2.6896	-2.5687	-2.9396	-2.5271	-2.7229	-2.6646	-2.4292	-2.8208	-2.5229	-2.7125	-2.6833	-2.2521	-2.6354	345.454	481.931	336.106	496.612	300.488	189.616	441.734	502.590	436.082	168.749	255.024	379.087	483.346	438.458	473.143	429.178	0.0010976	0.0011492	0.0001805	1364.7	9.1901e-06	1.9502e-05	1538.3	576.58	9.8831e-06	1.7114e-05	666.22	202.37	182.91	62.732	9.4904e-06	75.172	0.000856	0.00084537	0.00023416	1238.7	9.3815e-06	9.3409e-06	1393.1	519.63	9.3684e-06	9.358e-06	601.56	182.89	165.56	57.804	9.5655e-06	69.056	165.097	241.260	266.751	167.408	299.509	272.084	165.361	171.783	242.475	305.589	169.757	174.453	176.696	182.947	261.975	179.050	-8191	255	
1379.163	1	1	0	0	0.081468	0.028832	0.19105	0.19311	0.20318	0.091957	0.26392	0.27774	0.14415	0.13608	0.055571	0.26925	0.24793	0.26986	0.10928	0.080159	-2.1979	-2.15	-2.5396	-2.6063	-2.2083	-2.7104	-2.5229	-2.525	-2.7188	-2.3021	-2.7792	-2.3917	-2.4917	-2.9021	-2.3875	-2.7	305.697	415.084	403.263	493.263	355.048	327.401	404.848	467.643	301.991	415.515	228.319	490.403	156.164	441.871	249.592	227.540	0.0010167	0.00059281	0.00013801	1365.2	1.2151e-05	1.3789e-05	1535.8	573.31	4.3721e-06	4.9928e-06	664.18	200.99	180.94	62.665	4.5049e-06	74.798	0.00087626	0.00086124	0.00024567	1232.7	9.5716e-06	9.497e-06	1386.8	517	9.2512e-06	9.4347e-06	601.08	181.58	164.39	57.453	9.2282e-06	68.747	167.034	285.141	369.538	167.298	264.902	301.730	165.529	171.757	397.794	328.216	170.026	174.446	176.686	183.015	221.728	179.279	-8191	255	
1379.259	1	1	0	0	0.23645	0.1924	0.12781	0.38535	0.2023	0.32208	0.26363	0.26834	0.085432	0.24752	0.27747	0.42701	0.40281	0.15271	0.16593	0.18449	-2.2458	-2.175	-2.4792	-2.6875	-2.2917	-2.625	-2.5354	-2.5104	-2.7958	-2.2521	-2.8792	-2.7	-2.2042	-2.7604	-2.5458	-2.6333	471.781	501.315	225.140	491.659	300.174	507.021	442.825	475.038	438.012	433.180	419.708	440.772	485.471	486.517	474.273	161.296	0.0012205	0.00056265	0.00023391	1356.7	3.6713e-06	1.1215e-05	1549.5	570.7	1.341e-05	1.2466e-05	666.05	198.63	178.64	61.412	1.5661e-05	73.274	0.00083651	0.00085753	0.00023823	1231.4	9.2976e-06	9.2377e-06	1391.2	515.64	9.2966e-06	9.0774e-06	598.99	179.9	162.72	56.439	9.0336e-06	67.366	161.911	223.171	300.790	167.581	269.754	327.348	165.160	171.958	297.816	364.992	169.926	174.391	176.391	183.188	272.461	179.103	-8191	255	
1379.356	1	1	0	0	0.22805	0.072159	0.17212	0.36699	0.29255	0.17256	0.67815	0.42092	0.1512	0.2722	0.42794	0.16728	0.33182	0.2209	0.10068	0.11697	-2.3229	-2.1729	-2.4417	-2.7542	-2.3333	-2.7333	-2.5333	-2.5417	-2.8333	-2.3625	-2.6375	-2.8063	-2.3458	-2.5771	-2.2875	-2.3583	454.665	489.450	319.576	166.911	165.259	218.581	457.216	429.972	183.940	435.046	176.211	454.912	488.296	154.561	405.481	505.807	0.0011905	0.00082542	0.00038958	1360.5	9.8964e-06	1.1667e-05	1532.7	566.24	1.4115e-05	6.6272e-06	656.46	196.89	177.58	60.793	5.9236e-06	73.071	0.00084254	0.00083711	0.00023175	1228.3	8.9926e-06	8.9558e-06	1384.5	510.3	8.9901e-06	9.013e-06	592.62	178.05	161.43	55.863	8.8447e-06	66.846	165.944	280.886	269.785	167.390	294.165	308.496	165.302	171.747	244.480	407.479	169.711	174.258	176.684	183.192	274.248	179.096	-8191	255	
1379.452	1	1	0	0	0.076705	0.19826	0.21143	0.37323	0.073343	0.1344	0.27098	0.43686	0.020842	0.18366	0.12548	0.28459	0.26102	0.25738	0.19256	0.096117	-2.3854	-2.35	-2.35	-2.6354	-2.1042	-2.4479	-2.7062	-2.5812	-2.7333	-2.2604	-2.2479	-2.7542	-2.4146	-2.6813	-2.6312	-2.4667	284.110	197.970	335.176	462.028	321.249	344.141	475.091	476.740	214.841	268.788	410.043	505.604	466.178	508.901	271.823	414.520	0.00099299	0.00050209	0.00017997	1359.2	6.2917e-06	6.7985e-06	1533.3	561.86	1.3692e-05	1.2157e-05	651.55	193.83	176.23	59.813	4.7646e-06	72.428	0.00082396	0.00081322	0.00022647	1225	8.7201e-06	8.7072e-06	1380.1	507.64	8.963e-06	8.8576e-06	588.51	176.04	160	55.03	8.9565e-06	66.15	162.241	211.181	286.238	167.617	266.728	421.667	165.254	171.693	271.054	323.284	169.804	174.403	176.686	182.962	400.338	179.081	-8191	255	
1379.548	1	1	0	0	0.23999	0.11	0.07242	0.32519	0.26238	0.15829	0.083534	0.20157	0.13807	0.10471	0.10736	0.24772	0.26684	0.10142	0.33305	0.052854	-2.1521	-2.475	-2.3708	-2.7771	-2.2604	-2.4333	-2.6417	-2.4021	-2.7646	-2.55	-2.475	-2.9771	-2.2792	-2.5854	-2.3896	-2.2958	474.739	343.762	401.972	482.508	186.823	236.207	466.271	500.969	489.763	164.239	432.437	499.580	165.335	461.247	200.899	360.769	0.0010652	0.00064657	0.00046531	1352.7	1.2204e-05	1.171e-05	1533	563.82	6.4858e-06	7.1943e-06	656.5	195.14	175.68	60.563	7.1737e-06	72.566	0.00082144	0.00081576	0.0002245	1223.6	8.8145e-06	8.8852e-06	1386	505.93	8.8525e-06	8.8904e-06	591.62	176.85	159.72	55.447	8.7071e-06	66.534	162.808	223.784	266.255	167.216	300.168	309.453	165.347	171.940	244.024	330.623	169.701	174.182	176.595	182.835	275.507	179.180	-8191	255	
1379.644	1	1	0	0	0.23952	0.31049	0.072434	0.12625	0.14456	0.11173	0.30569	0.2186	0.13488	0.20922	0.18654	0.28163	0.41566	0.20938	0.15627	0.27577	-2.125	-2.6208	-2.3042	-3.1604	-2.2833	-2.3688	-2.7687	-2.35	-2.5333	-2.4354	-2.6375	-2.8854	-2.3771	-2.5979	-2.6333	-2.4479	293.687	231.641	435.877	224.661	495.049	227.827	442.313	496.986	373.179	323.401	486.957	435.879	485.305	176.327	422.999	445.960	0.00099393	0.00094466	0.00033049	1357.5	7.154e-06	1.6749e-05	1535	558.28	8.6016e-06	1.4809e-05	651.72	195.58	175.67	60.203	4.7105e-06	72.742	0.00082257	0.0008117	0.00022463	1226	8.95e-06	8.8693e-06	1384.6	504.58	8.903e-06	8.7419e-06	589.34	176.2	159.55	55.328	8.8314e-06	66.411	157.380	261.587	300.894	167.303	297.296	326.516	165.412	171.845	245.754	243.611	169.894	174.309	176.832	182.846	334.475	179.208	-8191	255	
1379.765	1	1	0	0	0.26823	0.14422	0.11455	0.17218	0.20696	0.089554	0.46006	0.22864	0.040315	0.14651	0.10774	0.14867	0.35489	0.11425	0.2594	0.18691	-2.1229	-2.3479	-2.1229	-2.6771	-2.3958	-2.4104	-2.7604	-2.4292	-2.6208	-2.6271	-2.4729	-2.7146	-2.5583	-2.6583	-2.6875	-2.3792	475.977	195.549	492.871	486.670	210.909	424.590	475.879	481.127	386.604	474.345	483.745	508.150	170.919	473.087	294.011	177.896	0.0011435	0.00060867	0.00016307	1346.8	7.2258e-06	9.263e-06	1518.3	559.04	1.1342e-05	6.7054e-06	644.36	192.46	173.37	59.621	7.1743e-06	71.793	0.0008192	0.00081611	0.0002301	1217.7	8.9673e-06	9.127e-06	1373.5	503.55	9.1596e-06	9.134e-06	584.23	174.96	158.33	54.867	9.2608e-06	65.623	164.136	221.984	241.212	167.512	284.434	308.169	165.700	171.797	315.608	269.830	169.862	174.364	176.823	182.994	208.109	178.858	-8191	255	
1379.861	1	1	0	0	0.17302	0.052789	0.15528	0.41604	0.21801	0.12678	0.29458	0.44453	0.19351	0.32656	0.08792	0.22203	0.18545	0.4026	0.12492	0.13829	-1.9167	-2.4646	-2.2646	-2.9125	-2.575	-2.3354	-2.875	-2.4083	-2.65	-2.7021	-2.4646	-2.8063	-2.4729	-2.475	-2.6625	-2.2458	284.671	322.868	497.176	463.168	496.763	490.468	413.640	509.455	193.932	513.535	318.610	188.741	501.668	478.407	173.895	436.413	0.0011478	0.00044808	0.00021016	1336.4	8.5119e-06	6.7742e-06	1514.6	552.67	7.4507e-06	9.5176e-06	641.45	191.08	173.62	59.309	7.8337e-06	71.234	0.00083929	0.00085044	0.00023586	1208.8	9.3061e-06	9.1783e-06	1366.5	498.9	9.245e-06	9.3886e-06	580.49	173.37	157.54	54.616	9.4174e-06	65.24	160.263	296.369	226.536	167.272	275.200	328.557	165.242	171.691	223.614	303.654	169.698	174.159	176.655	183.011	293.777	179.202	-8191	255	
1379.955	1	1	0	0	0.17462	0.23321	0.14874	0.15443	0.080981	0.09293	0.35222	0.065687	0.06774	0.14799	0.13599	0.044942	0.1341	0.43948	0.35185	0.19229	-2.0458	-2.5187	-2.3104	-2.8417	-2.5167	-2.2021	-2.6396	-2.7917	-2.5312	-2.7854	-2.2875	-2.5792	-2.5708	-2.4625	-2.7458	-2.6271	154.057	288.627	397.082	497.879	209.254	451.842	401.137	458.099	406.251	324.374	427.078	228.825	460.193	469.896	487.281	453.703	0.0011021	0.00041098	0.00029986	1329.9	5.3124e-06	2.9828e-06	1514.3	547.27	9.4062e-06	9.0823e-06	641.38	191.31	173.42	59.771	3.6596e-06	71.678	0.00085516	0.00085097	0.00023541	1205.6	9.1504e-06	9.3196e-06	1368.4	495.95	9.1958e-06	9.1357e-06	579.6	173.87	157.43	54.872	9.5201e-06	65.627	161.583	284.528	226.561	167.269	233.329	336.063	165.396	171.819	318.427	220.046	169.879	174.259	176.807	183.201	387.627	179.307	-8191	255	
1380.051	1	1	0	0	0.15624	0.16919	0.10218	0.41119	0.074312	0.38369	0.22493	0.26418	0.29401	0.17934	0.32967	0.1777	0.46384	0.28301	0.17144	0.16188	-1.9875	-2.7458	-2.4667	-2.6167	-2.5042	-2.1833	-2.8104	-2.6167	-2.4625	-2.725	-2.4	-2.7375	-2.5854	-2.1688	-2.6396	-2.7208	421.000	190.176	245.677	467.050	324.203	235.007	401.262	487.916	371.476	262.592	453.345	477.822	478.320	497.221	349.129	413.619	0.0010631	0.00071027	0.0002917	1334.9	7.2351e-06	1.1317e-05	1517.2	551.82	4.489e-06	3.8078e-06	638.01	190.86	171.91	59.369	8.0395e-06	70.706	0.00086391	0.00085604	0.00024166	1210.2	9.4322e-06	9.4656e-06	1369.7	498.38	9.4465e-06	9.4166e-06	577.17	172.92	156.69	54.49	9.6591e-06	64.981	512.598	213.053	189.250	167.316	303.476	344.275	165.565	171.896	260.168	162.306	169.766	174.439	176.814	183.094	268.101	179.154	-8191	255	
1380.172	1	1	0	0	0.28222	0.17934	0.15164	0.39133	0.10733	0.061939	0.12906	0.26906	0.17238	0.24122	0.20344	0.064889	0.096999	0.015208	0.23056	0.18575	-1.7917	-2.4583	-2.2104	-2.6312	-2.55	-2.1229	-2.6833	-2.7083	-2.3771	-2.5917	-2.2292	-2.6437	-2.8125	-2.4021	-2.4708	-2.7292	399.292	376.589	425.228	442.398	409.779	391.621	483.362	476.648	304.165	224.916	465.158	195.845	184.034	370.957	340.850	447.014	0.00099521	0.0010711	0.00042161	1330.4	1.1295e-05	5.8446e-06	1498.3	545.92	7.0709e-06	1.5486e-05	630.59	189.37	171.93	59.051	8.7549e-06	69.851	0.00087048	0.0008824	0.0002445	1201.6	9.8822e-06	9.7039e-06	1355.6	493.22	9.643e-06	9.9072e-06	571.42	171.39	156.14	54.161	9.7576e-06	64.324	167.601	255.143	237.074	167.438	253.464	219.754	165.448	171.833	216.754	289.998	169.885	174.260	176.779	182.793	339.485	179.061	-8191	255	
1380.244	1	1	0	0	0.11108	0.21508	0.23254	0.25999	0.095513	0.15445	0.19162	0.37478	0.075795	0.1495	0.11547	0.17418	0.32975	0.45992	0.13886	0.21111	-1.7458	-2.7958	-2.3729	-2.5646	-2.6542	-2.3021	-2.7292	-2.4062	-2.3312	-2.6875	-2.4833	-2.6833	-2.6833	-2.2562	-2.5396	-2.7458	408.296	244.357	159.556	448.955	306.251	216.644	505.171	472.400	250.767	326.194	392.069	423.366	468.607	494.686	513.040	490.934	0.00092508	0.00090092	6.7298e-05	1320.6	1.4474e-05	4.625e-06	1495.9	543.15	8.3223e-06	1.3221e-05	631.71	188.48	171.2	59.046	3.3667e-06	70.063	0.00087456	0.00088577	0.00024905	1197.2	9.7659e-06	9.7612e-06	1353.1	491.38	9.8246e-06	9.6895e-06	569.46	170.61	155.94	54.365	9.7538e-06	64.273	158.691	237.283	228.742	167.279	302.623	414.054	165.209	171.894	310.947	293.454	169.727	174.490	176.769	183.164	344.621	179.301	-8191	255	
1380.340	1	1	0	0	0.12565	0.079693	0.052559	0.40564	0.21737	0.17017	0.087948	0.087378	0.082886	0.20862	0.042818	0.349	0.14392	0.14933	0.13772	0.21187	-1.6729	-2.4833	-2.2979	-2.4458	-2.65	-2.2562	-2.5979	-2.9562	-2.2292	-2.7458	-2.5458	-2.475	-3.0083	-2.4292	-2.4688	-2.6708	157.941	233.975	226.532	416.074	214.741	222.813	386.365	378.021	420.327	343.466	384.993	425.856	444.654	494.780	329.216	403.218	0.00097559	0.0007612	0.00020119	1328.2	1.4087e-06	7.7154e-06	1508.2	548.04	1.0304e-05	1.1375e-05	638.11	189.36	173.29	59.84	6.2068e-06	71.18	0.00089408	0.00088924	0.00024975	1202.8	9.6929e-06	9.7887e-06	1362.3	495.51	9.8062e-06	9.693e-06	577.26	172.55	157.88	55.043	9.6546e-06	65.335	163.379	473.535	175.046	167.626	276.633	281.022	165.438	171.877	239.995	317.249	169.626	174.273	176.712	183.115	317.333	179.020	-8191	255	
1380.436	1	1	0	0	0.090892	0.4087	0.24644	0.0858	0.15625	0.28848	0.37101	0.33971	0.23895	0.020389	0.23868	0.26351	0.1748	0.13542	0.12065	0.079691	-1.5208	-2.475	-2.4479	-2.5833	-2.5563	-2.2521	-2.7667	-2.5438	-2.2125	-2.6542	-2.5438	-2.2958	-2.9396	-2.4688	-2.475	-2.825	391.378	501.589	274.532	252.978	396.841	318.526	435.488	439.265	476.644	198.541	184.862	435.780	508.936	420.674	324.246	434.030	0.00097244	0.00076882	0.0002281	1342.8	1.093e-05	1.1788e-05	1518.9	547.76	1.0181e-05	1.4545e-05	640.06	189.08	173.03	60.236	4.2333e-06	70.608	0.00088058	0.00089499	0.00024345	1215.2	9.4647e-06	9.4131e-06	1372.7	497.21	9.4821e-06	9.4276e-06	576.79	172.06	157.82	55.372	9.608e-06	64.841	156.998	289.604	206.531	167.387	288.230	342.044	165.492	171.984	325.453	324.050	170.129	174.508	176.560	183.123	242.111	179.027	-8191	255	
1380.557	1	1	0	0	0.2333	0.11116	0.057772	0.16437	0.17296	0.22904	0.30697	0.3463	0.13318	0.31617	0.03634	0.10826	0.24568	0.19756	0.2653	0.27167	-1.9333	-2.7313	-2.5542	-2.4375	-2.825	-2.5563	-2.6292	-2.7313	-2.3542	-2.6604	-2.8458	-2.5	-2.8583	-2.5021	-2.1958	-2.7333	364.174	244.045	199.964	479.561	467.401	352.433	488.649	450.052	245.590	360.049	359.003	238.977	449.001	500.510	253.124	435.054	0.00095769	0.0012208	0.00016709	1342	1.1156e-05	1.1748e-05	1517.4	550.57	1.2576e-05	8.3187e-06	633.79	189.3	173.34	59.796	1.003e-05	70.366	0.00087416	0.00086533	0.0002385	1215.9	9.3732e-06	9.4626e-06	1368.7	497.58	9.381e-06	9.4918e-06	573.77	171.32	157.62	54.967	9.3796e-06	64.508	159.563	223.658	249.647	167.182	279.156	368.853	165.392	172.059	300.618	262.436	170.112	174.242	176.462	183.032	298.884	179.233	-8191	255	
1380.653	1	1	0	0	0.25904	0.16465	0.15855	0.20579	0.14933	0.085007	0.18297	0.19633	0.14631	0.18117	0.1436	0.42021	0.065445	0.16498	0.2395	0.35396	-1.7208	-2.6667	-2.6542	-2.6229	-2.7479	-2.4958	-2.5875	-2.8312	-2.3667	-2.6625	-2.8292	-2.525	-2.725	-2.4313	-2.1271	-2.8312	339.844	375.249	228.654	153.857	165.563	262.187	476.252	283.539	343.559	292.088	453.720	192.843	512.145	155.593	268.411	499.545	0.00094537	0.00060479	0.00017914	1342.3	9.4604e-06	7.7733e-06	1519.4	549.41	1.5376e-05	6.8332e-06	635	190.26	173.15	60.809	5.3772e-06	71.393	0.00086481	0.00086347	0.00023848	1217.8	9.2579e-06	9.3734e-06	1367.9	496.71	9.485e-06	9.2689e-06	575.67	172.6	158.33	55.695	9.3664e-06	65.423	160.112	201.180	258.258	167.609	290.723	250.582	165.223	171.564	279.331	345.379	169.788	174.472	177.016	183.167	327.254	179.296	-8191	255	
1380.747	1	1	0	0	0.20741	0.33326	0.032481	0.44658	0.097448	0.23061	0.39528	0.23675	0.29405	0.12158	0.33002	0.2391	0.084309	0.11246	0.11232	0.27599	-2.1292	-2.5396	-2.4833	-2.1979	-2.7792	-2.5417	-2.6604	-3.0417	-2.375	-2.2542	-3.0438	-2.4521	-3.0417	-2.5479	-2.3417	-2.9313	489.377	352.289	298.478	477.594	450.467	193.642	462.111	493.555	412.912	480.556	476.035	449.205	211.631	507.398	313.248	405.831	0.001072	0.0016428	0.00010617	1358	1.004e-05	1.7899e-05	1534	557.54	1.6912e-05	1.5693e-05	645.01	194.82	176.73	61.63	8.3409e-06	72.593	0.00086346	0.00084236	0.00023922	1228	9.3955e-06	9.2498e-06	1386.5	503.98	9.1848e-06	9.4387e-06	581.49	176.13	161	56.764	9.6059e-06	66.603	169.052	243.666	303.868	167.329	274.044	337.574	165.274	171.984	301.480	274.513	169.798	174.411	176.942	182.748	255.330	179.149	-8191	255	
1380.845	1	1	0	0	0.092513	0.086184	0.074044	0.63175	0.042163	0.22574	0.32285	0.2578	0.19694	0.16209	0.20485	0.057726	0.26995	0.027816	0.08284	0.20906	-2.1229	-2.3958	-2.7479	-2.3875	-2.425	-2.5563	-2.5687	-3.0479	-2.5146	-2.1854	-2.8833	-2.5146	-2.8375	-2.5854	-2.0563	-2.8	329.536	340.884	221.188	492.918	448.230	295.877	468.245	511.554	382.497	487.879	438.509	409.877	511.672	341.106	174.386	446.758	0.00098373	0.00080236	0.00041478	1368.1	9.115e-06	7.1492e-06	1531	562.1	1.3169e-05	8.2223e-06	647.9	194.71	177.85	62.252	5.0231e-06	73.386	0.00086429	0.0008647	0.00023611	1235.6	9.2471e-06	9.2472e-06	1385.9	506.9	9.0312e-06	9.2761e-06	584.16	176.73	162.11	57.29	9.4311e-06	67.328	171.211	230.711	225.581	167.281	248.868	298.072	165.238	172.132	325.563	282.166	170.035	174.327	176.712	182.979	318.910	178.961	-8191	255	
1380.939	1	1	0	0	0.36846	0.26637	0.25637	0.38016	0.23947	0.2225	0.16522	0.27798	0.20366	0.24287	0.29368	0.18475	0.1375	0.17582	0.14872	0.25996	-2.2417	-2.3479	-2.4458	-2.4729	-2.6896	-2.7521	-2.5667	-2.8333	-2.4271	-2.6708	-2.7667	-2.3583	-2.6542	-2.9792	-1.9917	-2.8	200.714	477.072	485.569	481.970	290.059	481.772	416.834	458.582	337.422	202.934	158.538	428.203	463.184	495.449	399.180	433.450	0.0010372	0.001003	4.7778e-05	1367.5	1.3382e-05	1.4804e-05	1536	562.2	7.3519e-06	6.9828e-06	648.04	197.96	179.04	63.266	8.1831e-06	73.963	0.00086405	0.0008638	0.00023997	1238.6	9.2579e-06	9.3587e-06	1387.9	507.43	9.2793e-06	9.4481e-06	585.61	178.73	163.1	58.035	9.2782e-06	67.818	156.361	254.740	259.762	167.436	266.702	276.858	165.237	172.063	263.903	284.299	169.459	174.103	176.834	183.344	262.689	178.986	-8191	255	
1381.036	1	1	0	0	0.28182	0.30105	0.17218	0.21621	0.18086	0.23206	0.18136	0.33885	0.19879	0.084427	0.096183	0.094061	0.083584	0.29299	0.26326	0.12766	-1.8104	-2.2938	-2.7812	-2.4417	-2.4667	-2.8646	-2.4542	-2.9542	-2.3854	-2.325	-2.95	-2.5896	-2.4625	-2.7042	-2.2792	-2.6708	326.246	292.943	259.165	464.421	386.815	161.275	391.513	487.979	316.707	234.723	240.802	288.876	467.608	437.334	422.255	484.264	0.0010077	0.0003234	0.00027388	1367.4	1.2296e-05	4.3759e-06	1527.6	563.69	1.7101e-05	8.0078e-06	651.24	200.11	182.23	64.467	4.5968e-06	75.555	0.00086174	0.00086066	0.00024427	1234.4	9.4151e-06	9.772e-06	1383.9	510.58	9.8809e-06	9.8191e-06	589.01	180.56	165.58	59.346	9.9314e-06	69.372	159.674	284.162	280.237	167.418	286.534	284.017	165.334	171.931	265.545	292.274	169.829	174.334	176.740	183.100	181.212	179.112	-8191	255	
1381.132	1	1	0	0	0.03675	0.17581	0.21619	0.219	0.033511	0.24975	0.26425	0.20973	0.070493	0.28828	0.15374	0.12426	0.19856	0.28166	0.25561	0.15475	-2.0583	-2.3625	-2.5062	-2.6437	-2.3812	-2.75	-2.6458	-2.7062	-2.4646	-2.1354	-2.8021	-2.4833	-2.5083	-2.9771	-2.3438	-2.5646	386.784	237.722	238.996	188.204	248.273	247.261	170.625	295.365	229.206	419.201	493.721	392.675	476.700	431.520	470.646	192.649	0.0011407	0.0017359	0.00025241	1352.1	1.1057e-05	5.3281e-06	1527.4	569.63	1.4373e-05	1.5786e-05	658.46	202.07	182.84	65.18	2.5637e-06	75.598	0.00091376	0.00091295	0.00025876	1226	1.0122e-05	1.0152e-05	1381.6	515.65	1.0327e-05	1.0359e-05	595.37	183.53	166.77	59.884	1.0517e-05	69.751	159.497	232.667	274.730	167.268	272.072	289.017	165.636	171.965	229.126	313.857	169.604	174.330	176.959	183.099	336.810	179.206	-8191	255	
1381.252	1	1	0	0	0.12312	0.13951	0.13713	0.24117	0.10226	0.25299	0.24317	0.32561	0.1793	0.077568	0.029579	0.26812	0.35084	0.17187	0.1472	0.18708	-2.1188	-2.2625	-2.6479	-2.5521	-2.225	-2.7417	-2.5458	-2.6292	-2.6813	-2.1562	-2.9104	-2.6146	-2.4125	-2.6792	-2.3083	-2.5896	193.363	169.812	456.546	451.466	357.682	324.325	453.163	454.166	223.391	207.458	281.350	498.306	445.925	505.736	351.896	508.403	0.0011088	0.001311	0.00023126	1347.1	8.4539e-06	1.4281e-05	1507.3	565.8	1.2675e-05	8.2816e-06	649.48	200.7	181.93	65.094	9.3884e-06	75.421	0.00094768	0.00096896	0.0002651	1220.1	1.0233e-05	1.042e-05	1366.7	512.82	1.068e-05	1.0823e-05	589.45	182.44	166.27	59.895	1.0806e-05	69.472	159.264	272.367	247.199	167.402	257.160	287.225	165.282	172.131	310.829	248.806	170.050	174.177	176.981	183.286	302.999	179.145	-8191	255	
1381.348	1	1	0	0	0.22878	0.12198	0.1259	0.19302	0.15862	0.24269	0.13318	0.34274	0.12144	0.049493	0.19307	0.23023	0.48591	0.30081	0.12551	0.29876	-2.2	-2.1792	-2.5333	-2.5708	-2.3625	-2.7667	-2.6625	-2.6292	-2.7646	-2.1896	-2.7271	-2.7354	-2.5667	-2.7062	-2.3937	-2.5146	185.375	305.853	346.277	465.639	378.033	492.543	168.985	497.940	241.436	422.660	426.580	440.211	440.084	469.834	482.249	443.445	0.0010784	0.0016608	0.00031175	1335.1	5.4342e-06	1.5743e-05	1502.7	561.91	8.1512e-06	6.9516e-06	642.19	199.5	181.56	64.415	8.9305e-06	75.154	0.00098705	0.00099174	0.00028153	1211.4	1.1065e-05	1.1334e-05	1358	509.74	1.1419e-05	1.1582e-05	584.7	181.61	165.42	59.449	1.1667e-05	69.031	512.944	245.739	275.402	167.701	214.150	318.541	165.522	172.327	293.041	410.707	169.901	174.385	176.868	183.046	269.766	179.291	-8191	255	
1381.445	1	1	0	0	0.16124	0.1932	0.069906	0.1129	0.027328	0.25764	0.13617	0.16732	0.1703	0.09887	0.19153	0.14357	0.40851	0.41161	0.12888	0.077614	-2.125	-2.1125	-2.4958	-2.8937	-2.3312	-2.6229	-2.5292	-2.3792	-2.5521	-2.3771	-2.9167	-2.8083	-2.3792	-2.7708	-2.5104	-2.5083	343.059	189.015	272.944	463.920	198.403	322.130	484.519	477.501	421.138	385.441	231.132	501.246	412.961	469.232	164.850	183.511	0.0010268	0.00068476	0.00011808	1315.7	6.8943e-06	1.6864e-06	1483.2	553.77	1.4384e-05	1.0436e-05	639.67	199.86	180.94	64.757	3.8009e-06	75.27	0.0010533	0.0010969	0.00030303	1195.8	1.219e-05	1.2229e-05	1344.2	504.08	1.2485e-05	1.2731e-05	582.57	182.48	165.52	59.754	1.2838e-05	69.523	161.813	290.087	297.894	167.539	310.251	420.209	165.559	172.018	266.218	299.204	169.873	174.254	176.992	182.984	344.649	179.260	-8191	255	
1381.541	1	1	0	0	0.1261	0.083169	0.083399	0.39469	0.087262	0.053426	0.16592	0.38869	0.14555	0.15621	0.0088356	0.4639	0.37029	0.099638	0.18148	0.061283	-2.2542	-2.275	-2.2	-2.7375	-2.2687	-2.8417	-2.7833	-2.45	-2.7333	-2.3917	-2.6271	-2.7583	-2.2708	-2.9146	-2.6292	-2.5354	356.933	479.473	188.725	462.734	511.583	399.985	477.622	461.008	401.634	324.508	230.621	461.096	403.587	166.399	393.091	196.534	0.00099013	0.00092062	0.00019052	1313.9	1.0602e-05	1.4105e-05	1487.1	559.47	5.0067e-06	1.1604e-05	640.75	203.08	182.41	65.127	3.8476e-06	75.977	0.0011378	0.0011655	0.0003266	1195.9	1.2542e-05	1.2698e-05	1347.9	506.15	1.2508e-05	1.2684e-05	585.29	184.35	166.46	60.156	1.2698e-05	70.251	165.087	222.037	280.971	167.624	302.642	371.222	165.326	172.115	276.683	242.446	169.764	174.361	177.153	182.862	392.462	179.224	-8191	255	
1381.637	1	1	0	0	0.022445	0.21502	0.073643	0.25706	0.49745	0.074011	0.20732	0.45966	0.16002	0.23728	0.19548	0.33385	0.097717	0.22941	0.23943	0.27872	-2.1875	-2.1479	-2.3	-2.7646	-2.1625	-2.6562	-2.9583	-2.5208	-2.6729	-2.2188	-2.4938	-2.9271	-2.6229	-2.6708	-2.4604	-2.2521	232.816	226.209	420.626	503.521	225.737	488.618	467.286	490.182	400.192	267.559	492.058	446.285	161.120	501.098	344.942	164.806	0.0010199	0.0011885	0.00043165	1310.2	8.4404e-06	1.8025e-05	1499.4	557.47	1.7516e-05	1.1472e-05	646	203.59	183.01	65.892	5.2347e-06	76.757	0.0011143	0.0011245	0.00031037	1197.6	1.2123e-05	1.2071e-05	1355.6	506.94	1.1909e-05	1.1928e-05	587.57	185.47	167.47	60.919	1.1983e-05	70.808	167.704	211.561	298.688	167.588	297.273	320.571	165.673	172.201	262.690	297.095	170.001	174.430	176.988	183.382	280.218	179.158	-8191	255	
1381.731	1	1	0	0	0.21312	0.057335	0.0065172	0.15224	0.060397	0.079802	0.25205	0.21086	0.090143	0.088745	0.036271	0.04377	0.15665	0.4434	0.051291	0.34287	-2.3021	-2.5833	-2.3563	-2.8208	-2.3708	-2.6792	-2.8042	-2.1562	-2.775	-2.6667	-2.2146	-2.5958	-2.5312	-2.7812	-2.5792	-2.2125	284.121	158.176	329.373	468.370	235.382	313.902	375.888	483.532	292.453	501.847	238.516	341.245	493.912	503.237	324.816	464.655	0.0010448	0.0016964	0.00046486	1331.7	1.1852e-06	3.4242e-06	1506.6	564.29	7.1754e-06	6.6911e-06	656.1	206.64	185.22	67.069	4.7747e-06	78.047	0.0010747	0.0010924	0.00030473	1208.2	1.1709e-05	1.1527e-05	1365.4	510.12	1.1195e-05	1.1152e-05	592.13	188.3	169.53	61.854	1.0822e-05	71.984	162.112	292.770	280.703	167.437	442.201	248.682	165.364	172.148	299.317	351.234	169.955	174.473	176.777	183.274	245.245	178.710	-8191	255	
1381.852	1	1	0	0	0.047871	0.23501	0.1984	0.26049	0.27771	0.016919	0.23029	0.36998	0.12076	0.11331	0.51277	0.28667	0.045853	0.047718	0.1626	0.18956	-2.1646	-2.5333	-2.3104	-2.9146	-2.2771	-2.2938	-2.9833	-2.3708	-2.7417	-2.5521	-2.3937	-2.7917	-2.4375	-2.6146	-2.7021	-2.5854	185.230	476.977	216.267	488.117	194.695	321.662	419.751	163.186	302.951	155.839	497.101	411.085	298.481	201.286	241.974	472.121	0.001186	0.0013086	0.00021873	1343.7	8.0061e-06	7.1066e-06	1535.8	568.99	1.0582e-05	9.3655e-06	665.09	211.16	188.22	67.907	1.7103e-06	79.49	0.00099741	0.00099011	0.00027645	1220.2	1.0672e-05	1.0507e-05	1386.7	514.73	1.0313e-05	1.0299e-05	600.73	190.82	171.24	62.554	9.6496e-06	73.013	159.726	287.144	249.634	167.539	282.011	310.493	165.274	172.129	334.119	329.240	169.763	174.361	176.776	182.863	315.851	178.946	-8191	255	
1381.948	1	1	0	0	0.20923	0.1032	0.16704	0.2455	0.29035	0.36107	0.12979	0.47527	0.27713	0.18177	0.14249	0.35276	0.34675	0.27373	0.10214	0.24541	-2.0667	-2.5187	-2.2542	-2.8104	-2.5333	-2.5333	-3.0187	-2.3958	-2.4938	-2.5938	-2.3271	-2.725	-2.5229	-2.5375	-2.7396	-2.5854	266.725	216.579	313.889	469.791	326.168	218.486	366.434	450.416	430.710	504.171	502.088	458.711	204.527	460.176	501.247	486.917	0.001165	0.0010046	0.00025213	1372.5	6.3011e-06	8.23e-06	1573.6	578.26	3.48e-06	2.5681e-06	678.66	213.55	190.71	68.603	5.0276e-06	80.018	0.00089385	0.0008685	0.00024685	1243.8	9.4211e-06	9.4447e-06	1416.3	522.53	9.2218e-06	9.1965e-06	611.78	192.95	173.08	62.782	8.8839e-06	73.345	157.616	225.502	190.237	167.592	232.282	299.095	165.094	172.136	308.004	369.901	170.180	174.354	176.745	183.056	325.264	179.209	-8191	255	
1382.044	1	1	0	0	0.21655	0.16982	0.12452	0.34803	0.17759	0.094678	0.46673	0.36681	0.087033	0.13793	0.071337	0.37915	0.46283	0.33555	0.10824	0.3771	-1.7812	-2.5	-2.2146	-2.7521	-2.425	-2.3208	-2.9813	-2.2833	-2.3208	-2.6104	-2.4396	-2.8396	-2.6896	-2.3396	-2.5896	-2.3063	308.612	376.494	478.274	505.375	309.336	425.191	496.240	440.552	325.187	276.610	367.297	482.987	168.542	477.708	158.832	426.011	0.0010989	0.00054318	0.00038243	1403	7.1034e-06	5.1995e-06	1579.2	578.57	2.2285e-05	1.1289e-05	670.03	210.31	188.99	67.674	3.8692e-06	78.848	0.00082571	0.00080584	0.00022429	1264.7	8.665e-06	8.761e-06	1426.1	522.2	8.7002e-06	8.7351e-06	607.98	191.27	171.88	61.995	8.6695e-06	72.359	161.400	283.625	233.188	167.209	237.872	316.615	165.466	171.882	287.579	270.739	169.641	174.311	176.910	182.844	377.781	179.243	-8191	255	
1382.116	1	1	0	0	0.22396	0.19282	0.078386	0.3598	0.17459	0.11027	0.16581	0.20813	0.039767	0.13504	0.13359	0.14256	0.21512	0.21923	0.17337	0.26197	-2.0604	-2.5938	-2.1167	-2.6562	-2.5896	-2.1208	-2.9208	-2.55	-2.5542	-2.9729	-2.4583	-2.6979	-2.6729	-2.3479	-2.7938	-2.65	437.997	175.893	229.454	454.021	337.495	249.077	431.886	462.133	319.707	304.486	474.767	505.587	159.849	178.628	482.427	198.067	0.001135	0.0011218	0.00046347	1402.2	6.535e-06	1.3003e-05	1585.8	573.58	8.8744e-06	6.593e-06	671.19	211.44	188.71	66.865	9.9957e-06	78.411	0.00082546	0.00081092	0.00023113	1265.5	8.8311e-06	8.9493e-06	1429	520.21	8.649e-06	8.7196e-06	608.01	190.73	170.9	61.294	8.9096e-06	71.83	163.239	224.283	264.289	167.453	291.866	315.798	165.354	171.944	281.993	349.886	169.593	174.110	176.698	183.205	202.814	178.970	-8191	255	
1382.212	1	1	0	0	0.25369	0.03805	0.20419	0.26686	0.14668	0.17483	0.068576	0.27991	0.15743	0.29117	0.48241	0.25016	0.22181	0.22245	0.16538	0.30596	-1.8396	-2.4292	-2.0854	-2.6771	-2.6292	-2.2896	-2.85	-2.3333	-2.3	-2.85	-2.6292	-2.9271	-2.8458	-2.4354	-2.6604	-2.5583	274.844	292.012	355.346	481.443	359.824	466.392	450.443	489.585	369.813	437.937	449.390	423.203	428.322	512.170	319.248	481.438	0.0011175	0.00054313	0.0002665	1400.8	9.3851e-06	1.2593e-05	1594.2	576.62	8.4449e-06	5.2674e-06	679.41	210.28	188.45	66.919	6.6804e-06	78.882	0.00082342	0.00078909	0.00022344	1267	8.7133e-06	8.6347e-06	1436.2	521.17	8.7066e-06	8.4611e-06	611.25	190.52	170.76	61.276	8.4577e-06	72.186	166.697	220.710	272.615	167.360	244.401	255.180	165.367	171.932	280.811	337.309	169.847	174.322	177.111	183.127	298.097	179.010	-8191	255	
1382.333	1	1	0	0	0.11203	0.26595	0.17384	0.30036	0.13045	0.085475	0.32418	0.31419	0.084193	0.171	0.31748	0.12784	0.16822	0.43528	0.21084	0.19457	-1.9458	-2.6792	-2.3583	-2.6417	-2.8479	-2.1646	-3.0938	-2.8125	-2.1167	-2.7958	-2.7375	-2.7042	-2.7792	-2.3958	-2.5312	-2.7146	260.957	429.868	346.580	455.267	358.262	418.546	476.013	471.271	513.311	196.938	488.099	461.606	501.263	484.487	466.886	481.409	0.0011465	0.0004953	0.00041159	1415.5	2.1407e-06	1.4434e-05	1605	575.12	7.9748e-06	8.2845e-06	670.31	209.21	186.69	65.499	7.8189e-06	77.976	0.00081365	0.00075835	0.00021484	1274.6	8.0883e-06	8.4258e-06	1447.8	519.65	8.2133e-06	8.1724e-06	606.54	188.48	169.64	60.326	8.2876e-06	71.148	161.314	278.134	275.945	167.362	462.814	283.730	165.607	171.917	302.561	337.597	169.843	174.104	177.061	183.514	267.938	179.127	-8191	255	
1382.429	1	1	0	0	0.27924	0.057513	0.35786	0.2099	0.20814	0.16012	0.21308	0.25659	0.072002	0.13777	0.15002	0.091802	0.14572	0.34754	0.035245	0.10157	-1.8542	-2.7667	-2.4229	-2.5354	-2.7333	-2.3917	-2.7646	-2.7917	-2.1	-2.8104	-2.7604	-2.5938	-2.6646	-2.5	-2.4979	-2.7604	280.347	507.471	165.715	492.834	296.194	375.663	433.693	467.132	182.473	305.316	244.838	401.373	441.119	476.385	272.594	472.565	0.0011416	0.00045869	0.00027121	1418.9	8.8342e-06	6.1194e-06	1604.1	578.65	9.174e-06	8.4983e-06	679.73	209.48	189.03	66.831	4.8375e-06	78.816	0.00078272	0.00075381	0.00021193	1276.5	8.1088e-06	8.1121e-06	1447	520.6	8.1228e-06	7.9973e-06	610.79	189.95	170.9	61.09	7.717e-06	72.138	158.743	243.533	225.865	167.463	296.654	356.925	165.613	171.966	251.686	272.213	169.824	174.449	176.829	183.124	214.912	178.935	-8191	255	
1382.525	1	1	0	0	0.088299	0.14299	0.21441	0.20468	0.052691	0.13789	0.20227	0.25646	0.14338	0.1817	0.23144	0.27975	0.10956	0.18811	0.11842	0.14489	-1.7917	-2.5042	-2.5	-2.6688	-2.8312	-2.275	-2.6771	-2.8104	-2.2021	-2.6354	-2.8229	-2.5312	-2.9396	-2.3937	-2.3958	-2.7542	213.969	211.694	387.262	162.288	332.051	343.720	167.556	426.080	255.685	220.524	482.920	407.543	328.745	450.720	334.907	482.261	0.0010555	0.00121	0.00022529	1430.8	2.8824e-06	8.418e-06	1618.9	583.94	9.3988e-06	4.729e-06	685.57	210.91	188.33	66.782	9.239e-06	79.299	0.00074391	0.00070523	0.00020348	1290	7.677e-06	7.7284e-06	1457	525.04	7.7428e-06	7.5546e-06	615.26	190.88	170.9	61.066	7.4343e-06	72.202	159.213	262.218	251.852	167.561	247.362	304.623	165.645	172.017	297.755	284.563	169.940	174.344	176.401	183.094	264.695	179.239	-8191	255	
1382.644	1	1	0	0	0.15352	0.15217	0.21966	0.25727	0.077472	0.058197	0.31327	0.23492	0.1294	0.19008	0.26645	0.26305	0.35367	0.23494	0.46511	0.16743	-1.6938	-2.5833	-2.5021	-2.5708	-2.8167	-2.3729	-2.7	-2.6937	-2.1146	-2.7646	-2.75	-2.5625	-3.0062	-2.5542	-2.3333	-2.725	196.804	433.100	284.095	490.887	425.925	229.926	448.047	163.677	223.921	465.962	487.662	425.251	492.065	206.705	231.735	424.635	0.0010635	0.00057293	0.00015355	1438.7	4.3981e-06	1.2678e-05	1651.4	587.18	1.2396e-05	9.4081e-06	696.33	215.38	190.87	67.87	9.9583e-06	81.146	0.00071456	0.00067846	0.0001853	1296.2	7.4213e-06	7.3869e-06	1476.1	528.91	7.3824e-06	7.3618e-06	623.16	193.84	173.27	62.168	7.6102e-06	73.693	161.527	309.428	228.360	167.219	322.151	344.917	165.236	172.060	295.279	344.926	169.916	174.370	177.006	182.940	280.658	178.884	-8191	255	
1382.717	1	1	0	0	0.19305	0.069153	0.30242	0.064058	0.039796	0.096216	0.16319	0.25659	0.12232	0.040437	0.32265	0.16837	0.35261	0.13455	0.13115	0.33222	-1.8188	-2.8	-2.525	-2.3271	-2.525	-2.7021	-2.6729	-2.85	-2.1562	-2.3875	-2.7979	-2.4625	-2.7375	-2.5812	-2.0104	-2.8542	269.593	288.766	214.345	229.467	494.072	184.112	422.150	460.419	260.938	269.921	459.716	480.270	468.490	449.789	366.462	475.288	0.0010209	0.0008724	0.00011778	1450.9	7.546e-06	8.2503e-06	1660.3	592.63	9.6074e-06	1.2538e-05	696.16	217.6	191.79	69.001	9.3772e-06	81.981	0.00073092	0.00068923	0.00019058	1309.6	7.3767e-06	7.4959e-06	1488.1	533.24	7.4565e-06	7.295e-06	626.51	196.29	174.42	63.254	7.4242e-06	74.862	168.012	268.229	275.279	167.285	311.220	265.910	165.144	171.685	271.269	287.750	169.520	174.309	176.853	183.074	256.845	178.908	-8191	255	
1382.813	1	1	0	0	0.30312	0.12308	0.073298	0.25905	0.14215	0.26337	0.25538	0.28832	0.15149	0.1483	0.086861	0.38746	0.23942	0.056235	0.40716	0.40269	-2.0833	-2.6083	-2.5979	-2.3833	-2.75	-2.5542	-2.6625	-2.8875	-2.3667	-2.3563	-2.925	-2.1917	-2.6729	-2.7583	-2.2042	-2.8146	452.013	235.711	497.811	506.103	303.769	323.879	454.649	481.001	325.154	458.122	479.384	424.909	437.996	337.677	179.828	464.936	0.0011225	0.00068945	0.00026258	1465.6	1.0392e-05	1.0965e-05	1656.4	595.35	1.1058e-05	1.2585e-05	694.77	216.9	192.09	69.417	2.6325e-06	80.882	0.00070509	0.00067257	0.00018776	1316.7	7.2905e-06	7.2842e-06	1488.7	534.01	7.3069e-06	7.1939e-06	623.46	195.4	174.21	63.101	7.0197e-06	73.848	162.151	254.648	236.826	167.340	262.210	314.276	165.303	171.953	268.658	279.008	169.933	174.415	176.925	183.150	285.555	179.018	-8191	255	
1382.932	1	1	0	0	0.040857	0.16997	0.14148	0.50871	0.23449	0.074026	0.17339	0.062269	0.2727	0.080379	0.16805	0.30285	0.039586	0.2426	0.10041	0.15768	-1.9458	-2.4333	-2.5146	-2.3146	-2.5042	-2.4146	-2.2917	-2.8896	-2.4417	-2.4083	-2.7687	-2.4167	-2.7833	-2.7104	-2.2417	-2.7896	270.261	406.666	158.301	459.178	447.797	430.794	456.162	473.395	182.034	336.807	397.216	465.807	417.186	159.800	272.163	456.349	0.0011278	0.00078397	0.00021652	1469.7	5.7801e-06	1.4638e-05	1659.3	593.07	8.7472e-06	8.1012e-06	694.76	216.14	191.89	68.349	6.134e-06	81.046	0.00069082	0.00062998	0.00017579	1319.2	6.858e-06	6.8652e-06	1494.1	532.89	6.8268e-06	6.8358e-06	622.53	194.82	173.75	62.332	6.6735e-06	73.556	163.177	230.569	210.298	167.022	220.481	291.035	165.283	171.848	284.059	241.356	169.878	174.165	176.914	183.320	240.510	179.209	-8191	255	
1383.028	1	1	0	0	0.12822	0.11666	0.17712	0.42332	0.31923	0.13896	0.26745	0.20944	0.28725	0.12304	0.10201	0.1346	0.23648	0.33525	0.083059	0.34528	-1.7854	-2.1625	-2.5604	-2.3542	-2.4313	-2.6917	-2.4	-2.4375	-2.425	-2.4229	-3.0771	-2.2625	-2.6854	-2.7417	-2.2271	-2.6	194.688	375.590	180.609	463.292	496.684	196.401	431.943	425.917	318.056	404.145	493.565	496.073	154.779	483.005	481.394	437.479	0.0011194	0.00046546	0.00031193	1482.4	8.2794e-06	4.7667e-06	1684.6	591.83	6.7336e-06	6.7649e-06	701.78	219.13	193.72	69.624	4.9971e-06	82.692	0.00065612	0.00060284	0.00016908	1331.3	6.5448e-06	6.6233e-06	1512.8	532.71	6.5118e-06	6.5184e-06	630.06	197.21	175.07	63.55	6.4037e-06	75.371	161.065	312.288	259.514	167.119	298.722	403.792	165.289	171.853	297.995	330.794	170.205	174.210	176.948	183.271	274.620	179.391	-8191	255	
1383.125	1	1	0	0	0.068415	0.13138	0.078512	0.26577	0.10921	0.11405	0.27141	0.15223	0.097858	0.18882	0.081524	0.18147	0.07626	0.27798	0.2985	0.066377	-1.9771	-2.2812	-2.5792	-2.425	-2.45	-2.7417	-2.6625	-2.8063	-2.3229	-2.4042	-2.9458	-2.4167	-2.4104	-2.7479	-2.2604	-2.5854	445.746	195.100	406.758	485.931	199.556	451.667	480.399	483.813	421.352	476.695	430.246	469.265	170.461	449.223	185.296	489.021	0.0011671	0.00060928	0.00022894	1506	6.9422e-06	9.9005e-06	1707.3	597.54	6.5532e-06	2.4872e-06	705.77	219.17	193.77	70.265	1.0237e-05	83.471	0.00064355	0.00059497	0.00015791	1351.5	6.1772e-06	6.2171e-06	1532.7	537.41	6.311e-06	6.3454e-06	632.45	197.53	175.1	64.148	6.249e-06	75.869	159.845	293.171	224.952	167.119	255.344	310.939	165.012	171.856	284.259	278.502	169.656	174.344	176.837	183.092	300.608	178.957	-8191	255	
1383.245	1	1	0	0	0.27074	0.11438	0.27501	0.17884	0.22488	0.079149	0.38024	0.24051	0.031998	0.10362	0.083939	0.04603	0.28268	0.45407	0.13034	0.15526	-2.0354	-2.0979	-2.6833	-2.7083	-2.4417	-2.775	-2.4917	-2.4417	-2.4396	-2.175	-2.8792	-2.6896	-2.2458	-2.7604	-2.2646	-2.6979	357.125	479.519	345.227	233.227	179.809	213.721	444.401	455.992	450.706	174.938	477.816	436.844	350.315	170.161	172.363	251.207	0.0012058	0.00052183	0.00031758	1512.9	7.3149e-06	1.3333e-05	1697.7	595.05	1.1868e-05	1.3774e-05	704.11	218.69	193.69	70.354	8.3037e-06	83.25	0.00062446	0.00056948	0.00016003	1355.6	6.2539e-06	6.2742e-06	1527.7	535.92	6.3642e-06	6.5147e-06	631.36	196.95	175.43	64.03	6.4707e-06	75.758	158.192	313.184	242.706	167.094	307.700	287.946	165.251	171.967	299.629	301.731	170.128	174.253	176.720	183.169	245.668	179.149	-8191	255	
1383.341	1	1	0	0	0.068134	0.20379	0.3299	0.47248	0.17699	0.027347	0.25376	0.20581	0.18585	0.05616	0.3427	0.31594	0.33671	0.28446	0.29727	0.25906	-2.2146	-2.1542	-2.65	-2.5021	-2.4146	-2.8146	-2.7188	-2.8396	-2.6167	-2.3333	-2.7021	-2.6667	-2.5667	-2.9604	-2.2354	-2.5062	229.509	374.178	390.010	505.749	173.039	164.658	509.887	423.609	159.554	195.162	439.119	436.667	504.332	484.931	194.455	459.134	0.0011692	0.00073284	0.0002818	1498.2	1.2595e-05	2.5553e-06	1695.7	593.27	2.108e-05	1.1359e-05	701.92	219.98	193.84	70.246	6.4272e-06	83.115	0.00063281	0.00060086	0.00016736	1346.2	6.664e-06	6.87e-06	1519.2	534.07	7.0252e-06	6.8882e-06	630.28	197.2	174.96	64.124	7.2885e-06	75.83	158.799	224.897	278.883	167.126	290.893	358.523	165.271	171.922	255.584	345.004	169.642	174.108	176.584	183.128	271.267	179.243	-8191	255	
1383.413	1	1	0	0	0.1301	0.2029	0.018974	0.1942	0.19378	0.15951	0.20721	0.30109	0.31748	0.28686	0.1916	0.23419	0.20083	0.19607	0.32757	0.12611	-2.1646	-2.3312	-2.75	-2.6188	-2.2562	-2.7292	-2.5438	-2.6146	-2.6167	-2.4271	-2.9229	-2.8292	-2.35	-2.7583	-2.3417	-2.3958	172.593	260.646	282.474	474.439	341.435	268.814	491.642	484.783	305.884	229.873	511.793	494.469	424.312	157.568	486.178	165.575	0.0011286	0.00081567	0.00030833	1478.6	6.9703e-06	1.7824e-05	1674.6	594.08	1.0839e-05	4.1657e-06	699.52	220.36	194.31	71.614	6.2397e-06	84.886	0.00070075	0.00067797	0.00019137	1332.2	7.6932e-06	7.6825e-06	1504	535.32	8.0177e-06	8.0074e-06	630.58	198.42	175.89	65.486	8.0696e-06	77.292	165.385	224.044	279.432	167.011	283.145	327.534	165.418	171.920	242.731	277.441	170.031	174.442	177.010	183.155	301.879	179.253	-8191	255	
1383.534	1	1	0	0	0.14673	0.1177	0.22378	0.22198	0.15037	0.17292	0.25065	0.17141	0.18663	0.28321	0.20745	0.10635	0.29858	0.090041	0.072049	0.12045	-2.1792	-2.3542	-2.5667	-2.6333	-2.3417	-2.7667	-2.7562	-2.4729	-2.7375	-2.3812	-2.425	-2.7625	-2.2521	-2.7812	-2.4521	-2.6063	328.939	190.198	170.838	485.404	175.257	301.489	385.390	348.334	370.363	280.968	235.542	155.508	187.556	201.498	381.499	509.437	0.0013305	0.00090637	0.00029678	1459.7	5.5678e-06	2.083e-05	1644.3	592.1	1.5703e-05	1.0933e-05	695.36	216.36	191.29	69.971	9.0221e-06	82.243	0.00079188	0.00075726	0.00021654	1318.1	8.2546e-06	8.4968e-06	1482.8	532.55	8.4438e-06	8.3618e-06	624.48	195.19	173.49	63.808	8.2808e-06	75.214	164.988	289.576	202.906	166.758	185.343	310.138	165.365	171.799	268.110	350.526	169.890	174.261	176.833	183.304	244.961	179.227	-8191	255	
1383.630	1	1	0	0	0.10048	0.056096	0.13828	0.23643	0.11727	0.22887	0.27595	0.44502	0.11449	0.12852	0.34808	0.097966	0.36684	0.28241	0.15482	0.25404	-2.2833	-2.2729	-2.4208	-2.7375	-2.0625	-2.5604	-2.925	-2.4646	-2.5938	-2.2354	-2.4313	-2.7333	-2.4667	-2.5292	-2.3521	-2.5729	383.674	398.193	252.017	477.656	495.049	204.851	458.981	458.510	310.587	481.410	420.499	451.747	159.598	504.058	386.679	473.403	0.0010528	0.00054817	0.00024895	1455.2	9.7565e-06	9.8988e-06	1646.4	583.31	1.1719e-05	8.2656e-06	687.49	214.12	189.65	68.813	1.1309e-05	81.348	0.00078013	0.00075469	0.00021241	1313.3	8.3462e-06	8.3053e-06	1481.7	525.25	8.4033e-06	8.2327e-06	619.53	193.22	171.79	62.791	8.372e-06	74.207	166.016	254.393	232.084	167.318	274.795	347.039	165.302	172.028	248.177	271.587	169.949	174.385	176.929	182.945	274.017	179.189	-8191	255	
1383.726	1	1	0	0	0.15618	0.22204	0.25705	0.19076	0.14055	0.12001	0.2913	0.08015	0.15553	0.16921	0.14817	0.16363	0.29732	0.26398	0.028662	0.22512	-2.2146	-2.5062	-2.3104	-2.6958	-2.2875	-2.7396	-2.925	-2.5958	-2.5646	-2.4458	-2.6646	-2.9	-2.3729	-2.5646	-2.425	-2.3792	380.085	500.013	322.767	461.619	409.424	341.046	406.640	478.205	247.318	219.112	461.210	477.917	513.244	157.729	241.987	457.590	0.0011385	0.00097222	0.00016143	1470.8	9.9999e-06	5.0402e-06	1666.9	579.46	1.5196e-05	1.7785e-05	682.85	212.55	188.23	67.507	1.0818e-05	81.388	0.00079246	0.0007582	0.00021313	1324.9	8.2835e-06	8.4455e-06	1498.5	523.11	8.3759e-06	8.4755e-06	616.04	191.97	170.58	61.811	8.5804e-06	74.078	157.283	276.378	225.893	167.334	279.410	228.876	164.888	171.807	285.475	253.992	169.821	174.597	176.796	183.206	270.717	179.422	-8191	255	
1383.820	1	1	0	0	0.10345	0.14187	0.24265	0.18258	0.096123	0.29096	0.36396	0.093472	0.0907	0.12219	0.10665	0.08486	0.19233	0.24012	0.25764	0.054474	-2.2083	-2.5146	-2.4125	-2.7167	-2.1271	-2.5354	-2.9292	-2.3604	-2.5646	-2.3104	-2.4146	-2.8125	-2.6958	-2.5854	-2.6667	-2.3	499.010	392.674	256.163	479.108	209.538	254.734	169.050	395.401	485.007	507.345	509.168	501.531	428.170	496.505	199.489	491.657	0.0012331	0.00070256	0.00017882	1470.5	1.0405e-05	1.2195e-05	1667.7	579.98	9.3617e-06	3.201e-06	687.33	215.13	188.9	68.661	8.171e-06	82.24	0.00080285	0.00077583	0.00022034	1326.7	8.4965e-06	8.6222e-06	1502.1	523.31	8.5454e-06	8.503e-06	621.46	194.97	171.57	62.952	8.4485e-06	75.084	158.213	293.363	255.072	166.808	237.746	333.907	165.290	171.631	308.435	272.896	170.295	174.202	176.833	183.213	311.598	179.089	-8191	255	
1383.917	1	1	0	0	0.25433	0.10408	0.098207	0.26772	0.28843	0.18208	0.2253	0.20396	0.2474	0.11012	0.25839	0.10473	0.2456	0.062366	0.2523	0.17494	-1.9813	-2.3458	-2.2375	-2.9	-2.3958	-2.4292	-2.9417	-2.5604	-2.7729	-2.6063	-2.3146	-2.9437	-2.6229	-2.6458	-2.7667	-2.5208	175.760	445.036	163.998	474.877	246.164	186.572	511.953	485.755	316.348	187.785	510.595	377.682	489.384	468.699	174.418	444.673	0.0012284	0.00095797	0.0003106	1471.5	5.3438e-07	8.7805e-06	1675.3	575.2	1.1748e-05	1.3571e-05	681.35	212.04	186.72	68.186	5.7837e-06	81.306	0.00080262	0.00077871	0.0002145	1327.8	8.2664e-06	8.3999e-06	1504.2	519.52	8.3169e-06	8.281e-06	616.12	192.12	169.83	62.282	8.3773e-06	74.256	513.427	264.671	202.865	167.191	463.166	291.729	165.204	171.987	285.617	356.494	169.995	174.672	176.896	183.458	274.424	178.969	-8191	255	
1384.013	1	1	0	0	0.07242	0.21882	0.26666	0.42688	0.097108	0.22805	0.09883	0.14505	0.17551	0.11646	0.04936	0.37681	0.19606	0.60489	0.18543	0.39476	-2.2292	-2.5458	-2.0687	-2.8812	-2.5563	-2.5583	-3.0896	-2.3937	-2.5792	-2.3937	-2.5	-2.9292	-2.7292	-2.4125	-2.6375	-2.4125	325.188	306.491	265.528	468.118	510.154	409.290	159.958	456.052	256.413	281.324	175.632	456.617	242.234	489.779	259.601	427.854	0.0011727	0.00052185	0.00039971	1463.4	4.8367e-06	5.3867e-06	1663.9	573.27	2.1137e-05	5.8622e-06	675.41	210.3	184.77	66.255	3.5449e-06	79.114	0.00078673	0.00076709	0.00022219	1319.7	8.515e-06	8.5606e-06	1499.3	516.83	8.5752e-06	8.4909e-06	609.66	189.89	167.88	60.84	8.6846e-06	72.816	160.640	235.179	262.436	167.261	287.989	329.650	165.293	171.755	266.588	306.670	169.982	174.265	176.747	183.166	249.365	179.205	-8191	255	
1384.109	1	1	0	0	0.31649	0.15914	0.098673	0.14392	0.18664	0.3196	0.28901	0.3761	0.10468	0.10146	0.16972	0.31113	0.19056	0.11304	0.2751	0.35252	-2.1542	-2.8083	-2.1458	-2.9437	-2.5979	-2.2313	-2.7812	-2.3104	-2.3396	-2.725	-2.4688	-2.8479	-2.7292	-2.3583	-2.4854	-2.4167	407.580	266.562	220.267	402.606	174.434	363.532	441.319	457.726	362.050	438.391	499.699	464.195	174.544	482.644	290.132	423.149	0.0010995	0.0014272	0.00038807	1463.6	5.8728e-06	5.7002e-06	1661.6	570.04	2.6949e-06	8.2866e-06	680.31	210.04	183.81	66.322	2.152e-06	79.383	0.00083032	0.00080766	0.00022639	1318.7	8.812e-06	8.9626e-06	1497.5	515.87	8.9203e-06	9.0016e-06	614.09	190.19	167.65	60.888	8.9939e-06	73.073	161.645	217.477	242.532	167.166	265.454	322.401	165.393	171.717	355.607	287.910	170.063	174.349	176.777	183.119	299.548	179.279	-8191	255	
1384.205	1	1	0	0	0.13098	0.1256	0.07326	0.4618	0.25275	0.098952	0.16855	0.1634	0.35806	0.11005	0.28909	0.14605	0.16613	0.25963	0.24596	0.10424	-2.075	-2.6063	-2.2083	-2.4479	-2.5312	-2.1437	-2.9354	-2.7292	-2.2479	-2.7083	-2.175	-2.5833	-2.5312	-2.1312	-2.5208	-2.55	446.482	261.787	247.577	481.324	426.366	268.301	426.395	424.479	487.504	419.315	454.467	432.898	496.009	494.782	509.508	439.359	0.0012458	0.00021922	0.00011324	1459.2	6.369e-06	7.8237e-06	1664.5	570.65	8.841e-06	8.1652e-06	675.54	208.73	182.33	65.229	2.3267e-06	78.473	0.00085916	0.00083968	0.0002371	1315	9.2159e-06	9.4363e-06	1499.5	513.87	9.3609e-06	9.3246e-06	610.45	189.26	166.3	59.745	9.2879e-06	71.707	159.409	159.688	252.198	167.084	269.521	331.796	165.078	171.556	253.390	273.037	169.664	174.110	176.839	183.101	274.188	179.237	-8191	255	
1384.326	1	1	0	0	0.3016	0.055128	0.16621	0.21288	0.21029	0.28113	0.11046	0.27536	0.16418	0.25357	0.21649	0.37292	0.35314	0.20955	0.18663	0.034773	-2.0333	-2.8083	-2.1125	-2.625	-2.5146	-2.1396	-2.9333	-2.6	-2.3688	-2.8458	-2.2917	-2.525	-2.8021	-2.5458	-2.6458	-2.55	180.046	401.875	454.145	479.553	264.724	322.797	459.151	189.614	274.764	282.589	403.232	441.639	441.688	479.918	254.071	334.646	0.001148	0.00087721	0.00035859	1446.7	4.0025e-06	2.3743e-06	1653.1	565.01	1.3589e-05	1.843e-05	671.02	207.41	181.41	65.055	8.2093e-06	78.549	0.00087358	0.00084763	0.00024211	1306.3	9.4903e-06	9.3926e-06	1490.9	510	9.6028e-06	9.5081e-06	607.91	188.13	165.7	59.665	9.5064e-06	71.829	165.151	300.099	257.355	167.209	283.731	292.106	165.263	171.840	278.556	321.670	169.784	174.273	176.922	183.292	306.707	179.340	-8191	255	
1384.422	1	1	0	0	0.084315	0.16292	0.25534	0.22995	0.12031	0.064725	0.04217	0.24693	0.064287	0.094172	0.046031	0.24898	0.34336	0.11658	0.15316	0.078578	-1.7417	-2.8708	-2.4917	-2.6208	-2.6188	-2.4375	-3.0521	-2.7125	-2.0667	-2.6271	-2.6104	-2.5667	-2.7625	-2.1917	-2.5625	-2.6708	458.509	291.371	177.871	458.838	477.495	388.472	418.471	176.358	358.865	491.278	219.257	456.943	433.786	159.460	328.946	491.265	0.00116	0.000341	0.00027734	1437.8	8.8701e-06	2.4429e-06	1647.1	564.08	5.9341e-06	6.114e-06	672.98	206.84	181.64	64.407	9.1269e-06	77.558	0.00089446	0.00088191	0.0002482	1304.2	9.5381e-06	9.7192e-06	1487	510.09	9.9131e-06	9.6437e-06	608.73	187.46	165.51	59.292	9.6744e-06	71.214	157.429	249.297	232.748	167.200	267.739	214.648	165.181	172.077	220.595	333.874	169.993	174.364	176.889	183.213	307.980	179.074	-8191	255	
1384.518	1	1	0	0	0.29122	0.11439	0.228	0.34734	0.21524	0.16921	0.31735	0.41799	0.24644	0.098456	0.067671	0.36611	0.1166	0.26431	0.12317	0.15118	-1.7396	-2.6146	-2.3312	-2.6	-2.6312	-2.1104	-2.8792	-2.6312	-2.2625	-2.425	-2.45	-2.425	-2.9188	-2.4604	-2.5396	-2.6042	371.530	331.556	316.816	490.954	513.273	465.638	477.920	427.966	460.125	491.029	469.509	478.526	509.521	450.354	261.851	251.209	0.0011454	0.00050656	0.00027843	1434.9	1.2873e-05	1.6171e-05	1640.2	563.69	9.3143e-06	9.8976e-06	670.18	205.98	180.53	64.113	1.0648e-05	77.028	0.00090863	0.00088485	0.00025311	1300.4	9.8578e-06	1.0074e-05	1486	507.62	1.0168e-05	9.8777e-06	607.36	186.68	164.54	58.868	1.0031e-05	71.013	161.605	256.409	238.839	167.279	307.514	261.722	165.031	171.851	288.051	330.587	169.783	174.213	176.650	182.935	247.932	179.064	-8191	255	
1384.614	1	1	0	0	0.082506	0.090117	0.15877	0.23233	0.083862	0.21126	0.20703	0.20368	0.017141	0.1767	0.23042	0.16158	0.18081	0.09552	0.059348	0.24614	-1.6792	-2.6917	-2.3646	-2.7313	-2.8521	-2.4708	-2.8438	-2.6792	-2.0396	-2.6312	-2.7896	-2.3417	-2.7354	-2.5083	-2.4875	-2.9021	495.752	199.688	440.961	469.677	224.996	498.395	398.039	469.874	478.128	390.688	472.000	419.899	209.365	210.166	163.569	468.333	0.001169	0.001892	0.00010735	1430.9	1.0113e-05	1.1972e-05	1642	563.61	6.991e-06	9.8033e-06	670.14	204.3	180.28	63.631	5.2261e-06	77.381	0.00092691	0.00091515	0.00025559	1295.9	1.0063e-05	1.0195e-05	1482	509.13	1.0125e-05	1.0033e-05	608.42	185.95	164.29	58.405	1.0065e-05	70.722	162.893	278.829	303.653	167.271	267.492	254.120	165.183	171.799	327.285	316.844	170.120	174.334	176.994	182.929	209.721	179.159	-8191	255	
1384.710	1	1	0	0	0.02634	0.039478	0.23135	0.30339	0.12427	0.12928	0.12146	0.26764	0.3108	0.013403	0.31994	0.18659	0.13193	0.45549	0.106	0.065466	-1.5979	-2.3479	-2.2729	-2.3708	-2.75	-2.4021	-2.4437	-2.6083	-2.1292	-2.6167	-2.8083	-2.4875	-2.7708	-2.4583	-2.3271	-2.8021	351.979	454.002	512.726	496.351	346.585	442.847	510.971	495.967	494.802	186.263	331.765	328.386	495.989	481.095	438.185	475.472	0.0010704	0.0018265	0.00024739	1423.9	6.047e-06	6.8568e-06	1629.7	562.26	1.0811e-05	1.1247e-05	672.96	204.47	180.5	64.331	8.1824e-06	77.314	0.00093399	0.00095302	0.00025732	1290.3	1.0237e-05	1.0446e-05	1470.3	509.01	1.0509e-05	1.0406e-05	608.07	185.52	165.16	59.237	1.0427e-05	71.035	163.528	242.673	241.131	167.352	238.786	288.270	165.075	171.652	299.770	353.337	169.989	174.479	176.724	183.180	249.717	179.197	-8191	255	
1384.806	1	1	0	0	0.059447	0.3246	0.08005	0.30371	0.042343	0.11432	0.33566	0.22546	0.1672	0.12112	0.20454	0.020739	0.36444	0.30779	0.32454	0.24453	-2.1042	-2.3333	-2.4708	-2.4938	-2.8312	-2.5979	-2.5958	-2.6208	-2.2021	-2.6188	-2.9396	-2.4813	-2.675	-2.75	-2.325	-2.8	185.119	187.220	403.750	496.702	500.079	379.291	472.833	464.884	251.045	187.648	188.684	421.189	472.019	481.027	222.042	343.649	0.0012346	0.0015178	0.00042338	1414.5	1.0432e-05	4.7935e-06	1618.4	568.08	6.4749e-06	5.4736e-06	677.54	205.42	180.34	64.279	6.885e-07	77.269	0.00096886	0.00097193	0.00026829	1279.2	1.0404e-05	1.0443e-05	1466.2	513.86	1.0462e-05	1.0449e-05	612.3	186.15	165.55	59.069	1.0677e-05	71.19	163.362	248.600	283.723	167.157	274.375	338.743	165.508	171.765	297.432	299.032	169.599	174.341	176.922	183.136	320.403	179.206	-8191	255	
1384.925	1	1	0	0	0.22498	0.17417	0.092823	0.16845	0.29462	0.25099	0.40678	0.26782	0.32406	0.023846	0.2093	0.034025	0.20798	0.31412	0.16878	0.1186	-1.8958	-2.3542	-2.4292	-2.3458	-2.6542	-2.4813	-2.4542	-2.8458	-2.175	-2.2646	-2.9667	-2.275	-2.4437	-2.4854	-2.3354	-2.7958	445.599	242.302	238.678	430.413	387.152	459.324	430.275	453.332	502.971	467.347	425.920	415.417	415.155	470.692	434.873	425.052	0.0010643	0.0011026	0.00015805	1421.8	6.126e-06	1.5092e-05	1634.2	576.43	8.4214e-06	5.3098e-06	692.21	208.84	185.93	65.933	6.3336e-06	80.143	0.00096551	0.00095722	0.00026754	1286.1	1.0095e-05	1.0325e-05	1475.7	522.5	1.0447e-05	1.019e-05	625.51	189.84	169.06	60.624	1.0485e-05	73.622	158.235	242.857	282.699	167.147	197.192	287.662	165.385	171.987	247.805	306.351	169.996	174.604	176.849	183.201	253.031	179.164	-8191	255	
1385.021	1	1	0	0	0.16078	0.2971	0.14505	0.17861	0.16173	0.11341	0.26166	0.072969	0.23911	0.25127	0.18681	0.10547	0.069445	0.1284	0.16098	0.24249	-1.7687	-2.4083	-2.8563	-2.3417	-2.3771	-2.6437	-2.5563	-2.7625	-2.3708	-2.3375	-2.6875	-2.3896	-2.7292	-2.5333	-1.9875	-2.8979	217.643	300.050	337.352	165.578	362.233	219.607	471.648	356.117	483.476	326.455	443.215	485.193	176.408	207.862	335.745	424.568	0.0010506	0.0012787	0.00015617	1441.5	1.5629e-05	9.3125e-06	1651.7	588.03	1.4628e-05	1.2451e-05	700.74	210.44	186.45	66.162	9.8516e-06	80.068	0.00095698	0.00096158	0.00026598	1302.5	1.0372e-05	1.0615e-05	1493.5	532.77	1.0702e-05	1.0871e-05	634.69	191.1	170.17	60.957	1.1158e-05	73.778	168.653	216.958	277.299	167.658	315.982	248.755	165.442	171.589	287.858	356.279	170.212	174.333	176.655	183.148	301.316	178.946	-8191	255	
1385.118	1	1	0	0	0.1342	0.092405	0.19897	0.36162	0.084811	0.37241	0.10009	0.40521	0.085963	0.11197	0.24734	0.30442	0.0089152	0.29858	0.25267	0.11204	-1.9562	-2.2833	-2.5854	-2.6479	-2.6854	-2.4542	-2.2896	-2.5854	-2.5229	-2.2417	-2.8458	-2.2646	-2.5667	-2.8354	-2.3063	-2.6771	496.172	434.992	498.529	159.677	399.404	307.305	222.376	487.045	226.195	502.869	446.436	503.452	208.392	449.754	446.356	443.155	0.001002	0.00080301	0.00033933	1457.6	9.9533e-06	2.5805e-06	1667.4	590.01	1.1001e-05	8.8179e-06	701.24	210.08	187.48	66.442	5.3816e-06	80.365	0.0010122	0.0010422	0.00027904	1318	1.1043e-05	1.1232e-05	1508.9	535.32	1.1204e-05	1.1287e-05	636.98	191.16	171.58	61.282	1.1471e-05	73.918	158.664	240.544	246.922	167.293	263.357	471.122	165.461	171.729	228.178	256.361	169.859	174.329	177.066	183.187	273.354	179.339	-8191	255	
1385.214	1	1	0	0	0.19238	0.10752	0.4179	0.30143	0.19675	0.41626	0.5219	0.34895	0.14517	0.084024	0.3637	0.25735	0.15228	0.20017	0.076604	0.11406	-2.0521	-2.425	-2.6063	-2.4604	-2.2479	-2.7146	-2.4229	-2.8104	-2.3333	-2.3187	-2.875	-2.5458	-2.3937	-2.7562	-2.2125	-2.6604	272.950	359.030	408.252	503.022	438.618	347.142	462.530	478.056	348.093	301.083	477.225	472.007	444.631	158.680	502.692	172.504	0.0010447	2.9252e-05	0.00031287	1474.4	3.3561e-06	1.4345e-05	1682.5	591.44	1.4504e-05	1.4444e-05	700.93	209	187.21	65.996	8.4329e-06	79.294	0.0010365	0.0010683	0.00030373	1336.6	1.1737e-05	1.1827e-05	1524.7	534.9	1.1872e-05	1.1894e-05	637	190.34	171.25	60.813	1.2264e-05	73.064	157.108	244.548	221.836	167.326	273.371	307.573	165.269	171.869	252.897	340.287	169.777	174.147	176.918	183.044	300.610	179.128	-8191	255	
1385.310	1	1	0	0	0.020847	0.11404	0.19968	0.19568	0.29335	0.11519	0.11406	0.42239	0.27008	0.090399	0.14029	0.26092	0.18385	0.38422	0.027048	0.30708	-1.8417	-2.0042	-2.4396	-2.5312	-2.1792	-2.7042	-2.4604	-2.3667	-2.5979	-2.2104	-2.7229	-2.4771	-2.2833	-2.7938	-2.3104	-2.4875	498.746	210.238	223.357	445.265	307.942	289.672	453.706	500.664	199.519	223.429	210.093	472.629	504.422	488.177	158.191	496.391	0.0011248	0.00048189	0.00035788	1487.4	1.344e-05	5.8953e-06	1688	584	1.8098e-05	1.3407e-05	693.7	207.5	184.72	66.363	9.0416e-06	79.578	0.001112	0.0011691	0.00032683	1349.4	1.2982e-05	1.3113e-05	1533.8	532.93	1.3525e-05	1.3762e-05	632.27	190.02	170.69	61.39	1.4393e-05	73.811	160.468	292.181	267.270	166.690	309.870	316.904	165.188	171.470	302.993	255.183	169.536	174.027	176.444	183.208	290.067	179.159	-8191	255	
#DATA ENDS
