BOXY.EXE: ISS Imagent and Oximeter Data Acquisition Program Version 0.80
Ascii Record File

#ACQ INFORMATION
2  Detector Channels 
16  External MUX Channels 
1  Auxiliary Channels 
5000  Waveform (CCF) Frequency (Hz)
1  Waveforms Skipped 
30  Waveforms Averaged 
1  Cycles Averaged 
16  Acquisitions per Waveform 
10.0806  Updata Rate (Hz) 

#FILE INFORMATION
TRUE -- External MUX Channel results are PARSED.
FALSE -- AC DC and Phase are NOT grouped.
TRUE -- Companion Program Settings File CREATED.
FALSE -- AC data not excluded
FALSE -- DC data not excluded
FALSE -- Phase data not excluded
FALSE -- Auxillary Chn. data not excluded
Tab delimiters

#CALIBRATION STATE
TRUE -- Waveform Calibration Values APPLIED.


#AUX CALIBRATION VALUES
Val Type	aux-1	

Term	1.0000e+00	
Factor	0.0000e+00	


#WF CALIBRATION VALUES
A = Detector Channel
Val Type	A-AC1	A-AC2	A-AC3	A-AC4	A-AC5	A-AC6	A-AC7	A-AC8	A-AC9	A-AC10	A-AC11	A-AC12	A-AC13	A-AC14	A-AC15	A-AC16	A-DC1	A-DC2	A-DC3	A-DC4	A-DC5	A-DC6	A-DC7	A-DC8	A-DC9	A-DC10	A-DC11	A-DC12	A-DC13	A-DC14	A-DC15	A-DC16	A-Ph1	A-Ph2	A-Ph3	A-Ph4	A-Ph5	A-Ph6	A-Ph7	A-Ph8	A-Ph9	A-Ph10	A-Ph11	A-Ph12	A-Ph13	A-Ph14	A-Ph15	A-Ph16	

Term	0.00000e+00	0.00000e+00	0.00000e+00	0.00000e+00	0.00000e+00	0.00000e+00	0.00000e+00	0.00000e+00	0.00000e+00	0.00000e+00	0.00000e+00	0.00000e+00	0.00000e+00	0.00000e+00	0.00000e+00	0.00000e+00	0.00000e+00	0.00000e+00	0.00000e+00	0.00000e+00	0.00000e+00	0.00000e+00	0.00000e+00	0.00000e+00	0.00000e+00	0.00000e+00	0.00000e+00	0.00000e+00	0.00000e+00	0.00000e+00	0.00000e+00	0.00000e+00	0.00000e+00	0.00000e+00	0.00000e+00	0.00000e+00	0.00000e+00	0.00000e+00	0.00000e+00	0.00000e+00	0.00000e+00	0.00000e+00	0.00000e+00	0.00000e+00	0.00000e+00	0.00000e+00	0.00000e+00	0.00000e+00	
Factor	1.00000e+00	1.00000e+00	1.00000e+00	1.00000e+00	1.00000e+00	1.00000e+00	1.00000e+00	1.00000e+00	1.00000e+00	1.00000e+00	1.00000e+00	1.00000e+00	1.00000e+00	1.00000e+00	1.00000e+00	1.00000e+00	1.00000e+00	1.00000e+00	1.00000e+00	1.00000e+00	1.00000e+00	1.00000e+00	1.00000e+00	1.00000e+00	1.00000e+00	1.00000e+00	1.00000e+00	1.00000e+00	1.00000e+00	1.00000e+00	1.00000e+00	1.00000e+00	X	X	X	X	X	X	X	X	X	X	X	X	X	X	X	X	

B = Detector Channel
Val Type	B-AC1	B-AC2	B-AC3	B-AC4	B-AC5	B-AC6	B-AC7	B-AC8	B-AC9	B-AC10	B-AC11	B-AC12	B-AC13	B-AC14	B-AC15	B-AC16	B-DC1	B-DC2	B-DC3	B-DC4	B-DC5	B-DC6	B-DC7	B-DC8	B-DC9	B-DC10	B-DC11	B-DC12	B-DC13	B-DC14	B-DC15	B-DC16	B-Ph1	B-Ph2	B-Ph3	B-Ph4	B-Ph5	B-Ph6	B-Ph7	B-Ph8	B-Ph9	B-Ph10	B-Ph11	B-Ph12	B-Ph13	B-Ph14	B-Ph15	B-Ph16	

Term	0.00000e+00	0.00000e+00	0.00000e+00	0.00000e+00	0.00000e+00	0.00000e+00	0.00000e+00	0.00000e+00	0.00000e+00	0.00000e+00	0.00000e+00	0.00000e+00	0.00000e+00	0.00000e+00	0.00000e+00	0.00000e+00	0.00000e+00	0.00000e+00	0.00000e+00	0.00000e+00	0.00000e+00	0.00000e+00	0.00000e+00	0.00000e+00	0.00000e+00	0.00000e+00	0.00000e+00	0.00000e+00	0.00000e+00	0.00000e+00	0.00000e+00	0.00000e+00	-1.61556e+02	-1.24365e+02	-1.24460e+02	-1.82575e+02	-7.77226e+01	-7.02735e+01	-1.54563e+02	-1.62015e+02	-7.99118e+01	-7.08945e+01	-1.79593e+02	-1.70828e+02	-1.78793e+02	-1.75846e+02	-8.48453e+01	-1.49068e+02	
Factor	2.31970e-05	1.41556e-04	4.23880e-05	1.51486e-01	1.25884e-06	1.81699e-06	1.63316e-01	6.36777e-02	1.50327e-06	1.86341e-06	9.72382e-02	2.82179e-02	2.41845e-02	8.33549e-03	1.21540e-06	1.19969e-02	3.25825e-06	3.66651e-06	1.02321e-06	7.89026e-02	3.94916e-08	4.01200e-08	7.99932e-02	3.30394e-02	3.96832e-08	4.01801e-08	4.87438e-02	1.42351e-02	1.27408e-02	4.36714e-03	3.97856e-08	6.09645e-03	X	X	X	X	X	X	X	X	X	X	X	X	X	X	X	X	



#DISTANCE SETTINGS
A = Detector Channel
A-1	A-2	A-3	A-4	A-5	A-6	A-7	A-8	A-9	A-10	A-11	A-12	A-13	A-14	A-15	A-16	

2.5000e+00	3.0000e+00	2.5000e+00	3.0000e+00	2.0000e+00	3.0000e+00	1.5000e+00	3.0000e+00	3.0000e+00	3.0000e+00	3.0000e+00	3.0000e+00	3.0000e+00	3.0000e+00	1.5000e+00	3.0000e+00	

B = Detector Channel
B-1	B-2	B-3	B-4	B-5	B-6	B-7	B-8	B-9	B-10	B-11	B-12	B-13	B-14	B-15	B-16	

1.0000e+01	1.0000e+01	1.0000e+01	1.4400e+00	1.0000e+01	1.0000e+01	1.5100e+00	1.9400e+00	1.0000e+01	1.0000e+01	1.9900e+00	2.4900e+00	2.4100e+00	2.9000e+00	1.0000e+01	2.9800e+00	




#DATA BEGINS
time	group	step	mark	flag	A-AC1	A-AC2	A-AC3	A-AC4	A-AC5	A-AC6	A-AC7	A-AC8	A-AC9	A-AC10	A-AC11	A-AC12	A-AC13	A-AC14	A-AC15	A-AC16	A-DC1	A-DC2	A-DC3	A-DC4	A-DC5	A-DC6	A-DC7	A-DC8	A-DC9	A-DC10	A-DC11	A-DC12	A-DC13	A-DC14	A-DC15	A-DC16	A-Ph1	A-Ph2	A-Ph3	A-Ph4	A-Ph5	A-Ph6	A-Ph7	A-Ph8	A-Ph9	A-Ph10	A-Ph11	A-Ph12	A-Ph13	A-Ph14	A-Ph15	A-Ph16	B-AC1	B-AC2	B-AC3	B-AC4	B-AC5	B-AC6	B-AC7	B-AC8	B-AC9	B-AC10	B-AC11	B-AC12	B-AC13	B-AC14	B-AC15	B-AC16	B-DC1	B-DC2	B-DC3	B-DC4	B-DC5	B-DC6	B-DC7	B-DC8	B-DC9	B-DC10	B-DC11	B-DC12	B-DC13	B-DC14	B-DC15	B-DC16	B-Ph1	B-Ph2	B-Ph3	B-Ph4	B-Ph5	B-Ph6	B-Ph7	B-Ph8	B-Ph9	B-Ph10	B-Ph11	B-Ph12	B-Ph13	B-Ph14	B-Ph15	B-Ph16	aux-1	digaux	

1466.289	1	1	0	768	0.088855	0.26187	0.19211	0.24094	0.20583	0.25956	0.029239	0.5532	0.30547	0.13427	0.14582	0.31255	0.32753	0.09354	0.041724	0.27593	-1.9042	-2.5896	-2.5708	-2.6646	-2.7625	-2.1271	-2.6646	-2.6646	-2.3063	-2.4604	-2.5062	-2.8	-2.7917	-2.2604	-2.6167	-2.7188	410.072	297.248	291.976	445.775	362.614	233.126	495.163	418.680	522.689	381.846	185.873	178.495	512.725	179.040	335.676	488.866	0.0010179	0.00067855	0.00016386	1043.8	4.651e-06	7.8428e-06	1242.9	418.64	9.2197e-06	6.3187e-06	519.84	200.66	171.98	63.694	7.2888e-06	80.459	0.00023362	0.00015206	4.027e-05	980.71	1.5995e-06	1.5496e-06	1164.4	391.75	1.6712e-06	1.5478e-06	483.33	187.87	161.26	60.432	1.6782e-06	75.848	528.465	266.524	270.332	189.785	308.758	320.041	187.374	194.745	305.522	357.751	191.884	195.921	198.548	205.080	324.537	200.996	-8191	255	
1466.385	1	1	0	0	0.16374	0.062674	0.14391	0.084905	0.16363	0.13002	0.10581	0.2011	0.028151	0.37868	0.095839	0.27562	0.14991	0.034977	0.14111	0.33278	-1.8833	-2.5938	-2.3146	-2.475	-2.7417	-2.3958	-2.575	-2.7604	-2.3333	-2.5062	-2.5458	-2.4521	-2.85	-2.4521	-2.5875	-2.7479	312.833	400.890	273.388	535.426	295.558	278.106	298.470	186.130	373.066	399.296	202.190	473.607	477.950	228.066	347.673	463.753	0.0010464	0.00042283	0.00021398	1048.8	5.7529e-06	3.5582e-06	1241.8	416.43	6.7098e-06	7.4817e-06	512.95	197.02	169.22	62.41	6.8646e-06	79.003	0.00023553	0.00014613	4.1257e-05	984.1	1.7108e-06	1.588e-06	1163.3	389.13	1.7114e-06	1.585e-06	478.29	184.53	158.34	59.316	1.7292e-06	74.468	525.150	278.111	265.483	189.929	304.955	299.183	187.650	194.838	312.447	321.579	192.081	196.001	198.676	205.019	297.808	200.988	-8191	255	
1466.483	1	1	0	0	0.0941	0.053764	0.087692	0.19731	0.19313	0.19076	0.13903	0.16245	0.30486	0.30162	0.3747	0.097308	0.16502	0.091407	0.27289	0.097877	-1.9062	-2.5479	-2.3563	-2.4375	-2.7229	-2.25	-2.5646	-2.8312	-2.2854	-2.6479	-2.6479	-2.3875	-2.7438	-2.5729	-2.4875	-2.6396	263.485	363.985	224.346	431.906	531.841	445.305	445.598	499.445	366.004	515.278	448.855	343.505	282.056	372.647	221.324	221.996	0.0010194	0.00020915	0.00021168	1049.6	5.2302e-06	4.6369e-06	1244.1	415.11	7.9332e-06	7.9352e-06	516.47	199.03	170.02	63.374	6.9209e-06	79.527	0.00023631	0.00014566	4.0329e-05	981.54	1.608e-06	1.5348e-06	1162.8	388.11	1.675e-06	1.5073e-06	479.07	186.32	159.79	60.085	1.6649e-06	75.375	524.624	282.357	253.897	189.578	309.121	322.757	187.373	194.606	293.327	306.799	192.089	196.200	198.663	205.153	288.312	201.069	-8191	255	
1466.578	1	1	0	0	0.18116	0.079864	0.1445	0.33833	0.15048	0.15631	0.16608	0.071303	0.26218	0.25698	0.3176	0.21637	0.19487	0.15907	0.13676	0.18827	-1.8625	-2.3083	-2.4958	-2.2167	-2.5604	-2.3479	-2.3667	-2.7792	-2.2125	-2.7521	-2.5625	-2.2354	-2.8125	-2.5854	-2.3833	-2.6917	346.963	491.671	306.133	224.935	247.287	355.157	536.523	456.713	178.009	185.576	508.071	460.830	471.413	425.346	381.211	195.430	0.0010808	0.00076639	0.00018444	1044	7.9534e-06	9.3182e-06	1240.6	412.61	7.7992e-06	8.5341e-06	514.01	198.45	168.84	62.576	6.6299e-06	79.544	0.00023248	0.00013273	3.9372e-05	977.01	1.5607e-06	1.4492e-06	1157.2	385.68	1.6006e-06	1.4806e-06	478.28	185.08	158.69	59.434	1.5361e-06	75.171	525.789	273.234	288.779	189.649	303.834	313.952	187.248	194.619	306.982	328.778	192.064	195.955	198.610	205.117	298.277	201.005	-8191	255	
1466.674	1	1	0	0	0.23011	0.24132	0.18704	0.17642	0.14513	0.24929	0.18206	0.12633	0.23548	0.34736	0.24166	0.055956	0.093418	0.05377	0.18878	0.24039	-1.9229	-2.4354	-2.3542	-2.2875	-2.7979	-2.2875	-2.3812	-2.8187	-2.2958	-2.4542	-2.7812	-2.4292	-2.7333	-2.6354	-2.3333	-2.6604	498.641	362.696	191.535	431.743	206.125	271.062	493.091	505.978	336.621	386.451	463.160	501.196	327.873	275.549	478.917	513.864	0.0010691	0.00065335	0.00020393	1039.8	3.5887e-06	8.9891e-06	1235.4	410.54	8.5114e-06	5.5193e-06	511.74	201	170.75	63.312	6.1446e-06	80.439	0.00022416	0.00012703	3.8319e-05	968.65	1.5069e-06	1.4753e-06	1153.7	384.88	1.5503e-06	1.4688e-06	477.83	187.42	159.98	60.069	1.5606e-06	75.912	524.744	272.057	281.565	189.548	262.039	301.477	187.355	194.718	298.751	319.241	192.292	195.992	198.808	205.193	282.520	201.175	-8191	255	
1466.770	1	1	0	0	0.037017	0.25889	0.15861	0.20225	0.03657	0.2019	0.30441	0.029497	0.21137	0.052245	0.08732	0.25405	0.14452	0.2913	0.21623	0.33485	-1.8375	-2.3458	-2.4396	-2.0833	-2.5083	-2.4354	-2.3688	-2.9417	-2.2833	-2.4479	-2.8083	-2.5125	-2.7771	-2.5979	-2.2667	-2.7583	424.418	429.516	180.794	486.490	203.841	187.417	419.106	205.164	270.200	240.478	471.527	504.357	296.670	527.256	244.233	448.557	0.0010849	0.00076874	0.00014025	1030.3	6.2032e-06	6.904e-06	1225.8	408.2	9.3806e-06	7.9238e-06	506.07	197.21	167.85	62.219	7.0671e-06	78.985	0.00023015	0.00013349	3.7829e-05	962.8	1.5259e-06	1.3678e-06	1146.2	381.6	1.5242e-06	1.4688e-06	472.02	184.14	157.61	58.826	1.5196e-06	74.393	525.376	270.157	283.752	189.484	318.642	334.146	187.567	194.537	302.423	329.559	192.158	195.881	198.581	205.212	285.132	201.358	-8191	255	
1466.891	1	1	0	0	0.043928	0.20541	0.019325	0.25269	0.19399	0.15675	0.17184	0.18977	0.16044	0.10472	0.29618	0.1271	0.21879	0.21786	0.12558	0.2213	-1.8833	-2.3104	-2.7562	-2.575	-2.6604	-2.4542	-2.5729	-2.8104	-2.4771	-2.3187	-2.9167	-2.4562	-2.5417	-2.6042	-2.1833	-2.7604	217.761	435.883	345.790	488.688	265.654	194.615	181.014	476.524	528.949	428.200	515.156	500.592	192.628	497.451	199.042	460.892	0.0011115	0.00051461	0.00017264	1021	5.8648e-06	6.5368e-06	1205.7	399.32	8.7787e-06	5.7089e-06	498.05	191.93	164.61	60.718	3.7397e-06	77.34	0.00022684	0.00013174	3.7298e-05	953.82	1.4607e-06	1.4365e-06	1126.4	373.27	1.4852e-06	1.4299e-06	463.25	179.75	154.56	57.565	1.5454e-06	72.934	523.504	277.992	263.836	189.575	315.718	325.073	187.629	194.930	316.907	322.086	192.167	195.940	198.543	205.250	265.469	200.933	-8191	255	
1466.987	1	1	0	0	0.16988	0.25193	0.067556	0.069211	0.10184	0.14856	0.19389	0.21031	0.15739	0.19487	0.13471	0.14859	0.30529	0.059665	0.072226	0.035348	-1.8813	-2.1792	-2.6229	-2.4458	-2.4896	-2.6833	-2.3104	-2.8583	-2.3792	-2.4104	-2.8563	-2.3625	-2.5854	-2.8625	-2.3125	-2.6813	373.998	270.989	370.189	534.920	256.539	512.963	497.576	486.906	276.175	349.528	430.478	257.754	200.037	189.001	446.965	494.814	0.0010395	0.0006738	0.00016999	1018.2	6.4599e-06	7.0515e-06	1196.2	395.23	1.0113e-05	6.8481e-06	493.15	190.48	162.2	59.57	4.8591e-06	76.042	0.0002205	0.00013601	3.5776e-05	948.93	1.4702e-06	1.4192e-06	1119.9	370.82	1.4657e-06	1.4326e-06	459.26	177.82	152.74	56.625	1.4594e-06	71.842	525.962	272.364	262.351	189.659	310.075	310.330	187.217	194.655	288.165	313.663	192.353	195.875	198.568	205.397	268.690	201.075	-8191	255	
1467.083	1	1	0	0	0.14427	0.1419	0.13448	0.41497	0.11863	0.12931	0.20541	0.089978	0.1213	0.22342	0.30182	0.10578	0.048296	0.23488	0.13785	0.15262	-2.2188	-2.2229	-2.6146	-2.425	-2.6312	-2.6875	-2.5021	-2.7333	-2.4542	-2.1833	-2.8229	-2.325	-2.6208	-2.8083	-2.3458	-2.5375	307.736	336.534	186.533	193.836	385.657	417.173	459.667	376.020	235.607	424.577	408.824	511.846	526.024	517.496	314.765	427.542	0.001024	0.00049967	0.00019028	1013.1	7.1047e-06	1.0074e-05	1208.2	396.35	8.0619e-06	6.703e-06	499.63	193.21	164.45	61.05	5.2171e-06	77.723	0.00021813	0.00012694	3.5324e-05	947.65	1.4307e-06	1.3345e-06	1125.9	372.26	1.4485e-06	1.3378e-06	464.27	180.38	154.64	57.83	1.5089e-06	73.46	525.402	251.580	264.486	189.806	315.057	327.619	187.351	194.922	295.832	325.390	192.018	195.612	198.463	205.621	297.985	201.288	-8191	255	
1467.179	1	1	0	0	0.19381	0.010543	0.31274	0.34675	0.14159	0.22898	0.10243	0.19614	0.15167	0.0157	0.16341	0.17692	0.30926	0.35397	0.22727	0.35083	-1.8833	-2.2562	-2.5687	-2.5104	-2.4375	-2.5687	-2.3688	-2.6354	-2.4458	-2.2917	-2.7167	-2.5354	-2.0958	-2.6937	-2.3688	-2.6167	451.411	382.791	222.935	513.844	492.157	393.980	442.814	460.919	521.891	254.552	514.775	177.434	412.343	190.084	391.882	469.470	0.00098855	0.00059597	0.00022478	1022.6	3.4884e-06	6.307e-06	1203.5	399.22	7.047e-06	5.6917e-06	497.8	193.02	165.26	61.201	6.7863e-06	78.197	0.00021478	0.00013174	3.48e-05	953.88	1.4385e-06	1.3871e-06	1128.8	373.41	1.5087e-06	1.3873e-06	463.44	180.62	155.11	58.062	1.4701e-06	73.74	522.992	291.659	273.817	189.749	320.108	315.668	187.353	194.864	302.642	343.388	192.069	195.876	198.761	205.126	302.123	201.153	-8191	255	
1467.275	1	1	0	0	0.27631	0.22028	0.18804	0.37053	0.13498	0.24568	0.093408	0.40327	0.14533	0.082118	0.32634	0.28238	0.14234	0.26669	0.11783	0.24285	-2.0604	-2.2958	-2.4521	-2.5938	-2.4458	-2.6208	-2.3167	-2.4458	-2.6333	-2.2604	-2.7729	-2.65	-2.2	-2.6354	-2.3146	-2.35	351.019	402.881	427.829	503.229	399.366	453.483	421.430	460.589	399.972	507.840	493.764	451.972	459.348	512.990	430.071	451.416	0.001042	0.0007067	0.00015847	1021.2	4.4361e-06	8.7838e-06	1199.4	396.58	8.1594e-06	7.7384e-06	496.99	191.48	162.82	60.502	4.8053e-06	77.148	0.00022127	0.00012736	3.6852e-05	948.9	1.4744e-06	1.3647e-06	1121.6	371.33	1.4925e-06	1.3936e-06	462.34	179.18	153.13	57.508	1.5043e-06	72.68	524.595	261.263	270.811	189.468	303.162	303.871	187.349	194.896	306.829	316.348	192.259	195.953	198.607	205.718	323.987	201.140	-8191	255	
1467.371	1	1	0	0	0.1658	0.19918	0.099509	0.068472	0.15434	0.12771	0.28017	0.1189	0.11461	0.067379	0.24715	0.20954	0.24676	0.40197	0.10783	0.059784	-2.1896	-2.0333	-2.5792	-2.7521	-2.2417	-2.5229	-2.5229	-2.5042	-2.6479	-2.3229	-2.6688	-2.6583	-2.4521	-2.6083	-2.4896	-2.3708	255.349	305.639	467.185	480.164	379.996	339.378	479.419	469.467	441.635	524.211	425.057	462.947	224.507	529.280	406.762	407.211	0.00099262	0.00050819	0.00018928	1000.1	6.9536e-06	9.4436e-06	1185.3	388.5	8.5329e-06	7.5764e-06	485.87	183.96	157.59	58.192	6.7525e-06	74.859	0.00021894	0.0001347	3.7547e-05	936.16	1.5185e-06	1.3962e-06	1107.3	363.7	1.5114e-06	1.3449e-06	451.08	172.55	147.74	55.371	1.4731e-06	70.532	526.579	293.348	272.706	189.592	302.576	330.196	187.556	194.613	283.343	363.426	192.428	195.766	198.657	205.632	294.684	201.208	-8191	255	
1467.466	1	1	0	0	0.15092	0.25352	0.43515	0.11369	0.11158	0.080129	0.28086	0.11284	0.16705	0.043629	0.27117	0.12664	0.2609	0.17934	0.11723	0.21671	-2.1063	-2.2646	-2.3667	-2.6562	-2.3333	-2.8354	-2.6208	-2.5729	-2.8812	-2.3604	-2.6479	-2.7646	-2.425	-2.65	-2.5812	-2.4521	415.008	231.943	535.233	497.417	234.497	378.458	469.134	405.425	214.383	233.772	528.297	411.749	211.780	439.147	446.115	508.765	0.000979	0.00047453	0.00022044	986.05	4.4479e-06	9.4033e-06	1168.5	383.41	5.3593e-06	1.035e-05	479.87	179.66	154.64	57.98	3.693e-06	74.632	0.00021554	0.00012819	3.5198e-05	922.03	1.4246e-06	1.3931e-06	1093.4	357.49	1.4244e-06	1.3562e-06	445.9	168.2	145.32	55.167	1.4266e-06	70.518	523.611	272.351	258.201	189.635	325.471	329.317	187.386	195.127	299.926	295.741	192.279	196.050	198.866	205.521	287.014	201.584	-8191	255	
1467.586	1	1	0	0	0.058767	0.17708	0.091511	0.195	0.17019	0.14682	0.18526	0.10917	0.45552	0.28387	0.098616	0.13546	0.17011	0.31647	0.14099	0.060816	-2.2625	-2.2375	-2.5187	-2.8375	-2.1604	-2.5104	-2.525	-2.0083	-2.7771	-2.4042	-2.3604	-2.8042	-2.3292	-2.5312	-2.3833	-2.3917	467.834	527.339	359.826	221.223	321.733	210.859	502.186	340.542	520.659	180.524	193.873	532.099	200.371	240.826	449.919	469.018	0.0010214	0.00061042	0.00019426	982.31	3.5118e-06	9.2238e-06	1168.6	385.87	7.5909e-06	7.5469e-06	480.33	180.99	156.84	59.567	5.1307e-06	76.307	0.00021153	0.00012382	3.3744e-05	921.12	1.3699e-06	1.3036e-06	1093.7	360.66	1.3529e-06	1.2534e-06	447.1	169.27	146.81	56.313	1.4634e-06	71.887	527.029	262.379	256.336	189.495	296.724	311.565	187.419	195.004	278.882	307.097	192.322	195.927	198.752	205.831	307.475	201.535	-8191	255	
1467.683	1	1	0	0	0.080052	0.094197	0.079536	0.33805	0.28294	0.16671	0.018335	0.41787	0.11399	0.075583	0.2149	0.27556	0.062503	0.221	0.40069	0.16168	-1.8833	-2.2667	-2.3417	-2.9062	-2.1896	-2.4604	-2.8083	-2.3333	-2.6896	-2.325	-2.3	-2.775	-2.5021	-2.7792	-2.5833	-2.3021	440.154	279.296	513.332	482.682	209.492	346.137	491.051	473.940	487.811	478.679	519.011	428.439	475.154	509.782	332.163	518.960	0.0010074	0.00069061	0.00016893	980.61	4.3712e-06	6.7067e-06	1157.9	384.85	6.9504e-06	5.3427e-06	481.87	181.63	156.72	59.581	7.7716e-06	75.843	0.00021666	0.00013215	3.7321e-05	917.07	1.5069e-06	1.4633e-06	1085.9	360.09	1.6255e-06	1.4995e-06	448.21	169.88	147.22	56.637	1.8094e-06	71.735	523.306	288.640	265.398	189.540	295.870	308.922	187.324	194.932	299.977	332.116	192.181	196.111	198.382	205.857	281.995	201.204	-8191	255	
1467.779	1	1	0	0	0.12633	0.091018	0.14836	0.40098	0.15232	0.10173	0.13557	0.17107	0.10296	0.10817	0.095866	0.14105	0.13857	0.21298	0.067562	0.17482	-2.1375	-2.5042	-2.3167	-2.8125	-2.2313	-2.575	-2.7417	-2.5354	-2.6542	-2.35	-2.3292	-2.9042	-2.3896	-2.5521	-2.6104	-2.1021	243.278	485.686	463.502	475.261	285.880	322.616	398.797	534.375	524.438	520.444	329.640	176.925	534.242	443.608	317.338	193.418	0.00099222	0.00057846	0.00012302	982.33	6.4655e-06	8.6102e-06	1158.6	383.6	8.3054e-06	5.2271e-06	482.55	180.52	157.7	59.83	7.687e-06	76.052	0.00024926	0.00017293	4.9227e-05	917.42	2.1538e-06	2.1682e-06	1086.2	359.83	2.4935e-06	2.4119e-06	447.81	169.78	147.75	56.649	2.7353e-06	71.824	526.731	253.641	288.113	189.709	285.410	331.027	187.262	194.797	294.998	301.186	192.228	195.931	198.777	205.639	329.412	201.389	-8191	255	
1467.850	1	1	0	0	0.35502	0.11386	0.34637	0.091709	0.15471	0.29666	0.091282	0.082888	0.13961	0.082348	0.1249	0.19387	0.033985	0.46312	0.17665	0.20307	-2.0917	-2.6	-2.3333	-2.8583	-2.4479	-2.3646	-2.7729	-2.1917	-2.6354	-2.5375	-2.3354	-2.8396	-2.3979	-2.2208	-2.725	-2.4688	296.188	531.044	358.097	504.577	337.860	312.405	516.432	201.485	454.711	297.219	227.460	521.255	426.861	527.620	371.677	439.807	0.0011149	0.00055581	0.00020341	977.92	5.0243e-06	9.1624e-06	1160.7	384.44	8.2451e-06	8.8709e-06	477.9	182.18	156.85	58.918	5.2316e-06	75.529	0.00033326	0.00025688	7.2882e-05	918.8	2.9803e-06	2.9453e-06	1089.3	360.03	3.0254e-06	3.0329e-06	447.61	170.75	148.01	56.299	3.0191e-06	71.618	527.301	248.422	279.528	189.740	298.592	364.563	187.273	194.958	287.179	312.409	192.286	196.029	198.835	205.836	250.355	201.332	-8191	255	
1467.971	1	1	0	0	0.16573	0.083503	0.082218	0.10765	0.11362	0.076662	0.16425	0.26429	0.2943	0.091376	0.22738	0.10614	0.075517	0.27831	0.10933	0.13057	-2.1521	-2.4875	-2.0938	-2.6417	-2.4271	-2.3354	-2.7958	-2.2417	-2.5208	-2.625	-2.4833	-2.8063	-2.4208	-2.3563	-2.9521	-2.4188	412.573	243.943	208.041	427.654	331.154	385.526	247.293	441.900	200.427	490.142	187.042	422.913	404.125	244.097	356.375	316.070	0.00099315	0.00062457	0.00014469	982.66	3.231e-06	5.8588e-06	1162.6	382.56	3.6173e-06	6.1704e-06	475.58	182.87	156.68	58.887	4.1295e-06	75.168	0.0003498	0.00026935	7.9497e-05	921.71	3.1246e-06	3.0692e-06	1088.8	359.49	3.1701e-06	3.1803e-06	444.73	171.3	147.55	56.13	3.2026e-06	71.119	526.857	279.213	300.137	189.739	296.731	323.739	187.297	195.001	313.547	332.508	192.200	196.110	198.880	205.794	331.974	201.156	-8191	255	
1468.067	1	1	0	0	0.058015	0.22743	0.11185	0.033299	0.34702	0.15055	0.13449	0.072544	0.02263	0.19542	0.31771	0.092189	0.15565	0.12363	0.26742	0.013943	-1.8083	-2.6813	-2.0625	-2.6833	-2.3937	-2.1667	-2.8208	-2.3979	-2.3167	-2.5667	-2.4417	-2.8979	-2.425	-2.2104	-2.7125	-2.5625	205.756	447.887	213.425	453.507	342.008	509.717	504.512	482.000	347.463	240.155	207.836	519.129	501.502	291.705	408.599	438.518	0.0010385	0.00042501	0.00022947	979.9	2.6865e-06	7.2856e-06	1151.6	378.96	4.7416e-06	9.4601e-06	474.55	180.62	155.39	58.597	4.5943e-06	74.487	0.00035818	0.00029144	7.9252e-05	918.04	3.1062e-06	3.1471e-06	1080.9	357.27	3.2093e-06	3.1575e-06	443.27	169.47	146.79	55.749	3.2792e-06	70.626	527.258	248.266	258.166	189.368	335.638	328.249	187.275	194.763	276.715	358.281	192.140	195.974	198.752	205.626	314.856	201.176	-8191	255	
1468.163	1	1	0	0	0.17301	0.26682	0.156	0.10158	0.056092	0.08071	0.080628	0.30432	0.1504	0.28343	0.15153	0.052038	0.22151	0.13395	0.10679	0.2776	-1.8583	-2.7417	-2.2042	-2.7229	-2.5958	-2.0812	-2.6979	-2.3458	-2.5125	-2.8375	-2.3167	-2.3354	-2.8146	-2.3	-2.7062	-2.7042	449.074	504.535	342.837	483.976	267.906	199.230	379.217	466.000	396.923	335.496	518.954	248.868	502.941	245.091	366.453	452.787	0.00096924	0.00048992	0.00028055	979.62	5.273e-06	1.1766e-05	1154	378.11	1.0467e-05	6.5205e-06	473.05	180.9	154.92	58.481	6.5491e-06	74.309	0.00036481	0.00030273	8.3769e-05	921.16	3.2885e-06	3.321e-06	1085	355.7	3.3617e-06	3.2379e-06	441.88	169.72	146.71	55.646	3.3476e-06	70.526	522.085	223.889	285.702	189.776	328.221	313.480	187.275	194.753	294.008	328.490	192.101	195.760	199.010	205.427	313.340	200.834	-8191	255	
1468.284	1	1	0	0	0.35063	0.41065	0.17809	0.16784	0.090161	0.064639	0.31625	0.20553	0.12401	0.070167	0.1747	0.27422	0.088437	0.16695	0.14426	0.095828	-1.6667	-2.6021	-2.3479	-2.6125	-2.5896	-2.1458	-2.6437	-2.5792	-2.2729	-2.8312	-2.5771	-2.6542	-2.7104	-2.3104	-2.6312	-2.4896	209.515	276.165	277.687	511.165	317.437	451.388	480.232	477.412	397.062	411.531	469.150	505.353	528.813	187.279	234.894	422.311	0.00093912	0.00083697	5.5987e-05	985.86	5.955e-06	2.7067e-06	1166.9	380.12	5.0626e-06	1.2823e-06	477.82	182.11	157.13	58.817	4.0637e-06	74.441	0.00036454	0.00029592	8.3541e-05	924.85	3.3129e-06	3.2482e-06	1095.4	358.31	3.3156e-06	3.1901e-06	446.58	171.31	147.98	56.067	3.3586e-06	70.86	526.216	257.009	243.228	189.584	272.486	265.349	187.290	194.944	283.133	364.300	192.184	196.349	198.679	205.601	264.299	201.201	-8191	255	
1468.378	1	1	0	0	0.096572	0.20042	0.097812	0.22909	0.21101	0.18877	0.2624	0.13266	0.15914	0.084729	0.027674	0.34398	0.26999	0.27664	0.23117	0.28626	-1.9688	-2.6833	-2.3688	-2.5708	-2.5771	-2.15	-2.5896	-2.6271	-2.0875	-2.7812	-2.6625	-2.5458	-2.8458	-2.5042	-2.65	-2.5917	240.740	520.521	464.395	496.522	177.864	328.227	458.633	224.206	208.050	323.377	239.446	514.150	464.242	432.798	359.866	513.674	0.00098658	0.00063379	0.00020862	983.81	5.5044e-06	4.2432e-06	1170.5	385.12	9.9976e-06	3.4639e-06	480.53	184.65	158.19	59.545	2.6363e-06	75.724	0.00035308	0.00029263	8.3357e-05	926.01	3.2395e-06	3.2266e-06	1098.5	360.52	3.2819e-06	3.1895e-06	448.93	172.88	149.13	56.521	3.197e-06	71.676	522.275	293.041	272.517	189.745	282.982	342.023	187.442	194.894	304.770	308.313	191.790	195.928	198.881	205.375	266.838	201.060	-8191	255	
1468.452	1	1	0	0	0.16429	0.046127	0.28362	0.27964	0.088244	0.054309	0.22509	0.20263	0.034594	0.12404	0.095921	0.19455	0.28882	0.21344	0.237	0.29749	-1.8396	-2.8542	-2.5312	-2.5687	-2.7583	-2.1833	-2.7146	-2.6667	-2.2229	-2.7146	-2.575	-2.6708	-2.925	-2.4188	-2.4958	-2.5604	439.279	464.029	384.098	526.800	464.773	376.768	470.415	501.601	365.103	369.218	272.746	211.653	484.103	506.040	176.916	528.831	0.0010439	0.00060474	0.00022983	993.18	3.3771e-06	5.1931e-06	1177.4	386.61	8.7034e-06	9.3811e-06	484.22	187.48	159.64	60.167	5.9094e-06	76.22	0.00036429	0.00028381	7.9441e-05	932.98	3.1684e-06	3.1202e-06	1105.4	363.74	3.1983e-06	3.2119e-06	452.66	175.71	151.04	57.263	3.0829e-06	72.329	525.992	288.966	265.378	189.801	338.942	321.130	187.294	194.880	311.712	328.471	192.231	195.573	198.726	205.587	273.707	200.970	-8191	255	
1468.571	1	1	0	0	0.046977	0.27705	0.24947	0.13868	0.18359	0.093783	0.15342	0.16502	0.10398	0.12286	0.31129	0.1832	0.28459	0.076754	0.13275	0.13816	-1.7479	-2.5375	-2.55	-2.5917	-2.7958	-2.2313	-2.475	-2.6729	-2.1958	-2.3458	-2.45	-2.2896	-2.9917	-2.4396	-2.35	-2.75	490.170	474.131	393.910	188.970	532.209	472.097	526.660	448.429	494.314	348.600	457.734	521.220	190.083	217.095	360.585	415.924	0.00099131	0.00069828	0.00031675	995.73	5.8292e-06	5.5327e-06	1191.2	390.55	9.2663e-06	6.3328e-06	490.78	189.92	161.54	60.398	4.7825e-06	77.146	0.000353	0.00027862	8.033e-05	936.31	3.0973e-06	3.0695e-06	1115.5	366.78	3.2391e-06	3.0744e-06	457.67	177.66	152.46	57.614	3.1863e-06	73.172	521.014	247.417	264.167	189.314	312.257	335.576	187.537	194.912	282.692	309.570	192.113	196.050	198.706	205.552	263.773	201.373	-8191	255	
1468.667	1	1	0	0	0.24592	0.17581	0.028217	0.35864	0.15228	0.28694	0.25818	0.22716	0.21021	0.30375	0.13643	0.20973	0.10661	0.21817	0.083454	0.12626	-1.6354	-2.4604	-2.55	-2.3958	-2.9729	-2.4437	-2.6167	-2.8771	-2.3063	-2.3812	-2.3708	-2.2812	-2.5812	-2.4583	-2.5125	-2.85	531.432	182.211	489.674	522.134	454.310	361.202	504.750	441.140	303.832	429.172	484.027	473.967	513.121	214.628	522.187	301.615	0.0010046	0.00055284	0.00014195	1001.7	4.2999e-06	3.9171e-06	1194.5	394.11	4.4908e-06	9.8318e-06	493.63	192.25	162.52	60.723	5.7006e-06	77.47	0.00035074	0.00028949	7.9569e-05	943.28	3.0576e-06	3.1198e-06	1122.3	370.25	3.0965e-06	3.0506e-06	461.78	179.7	153.21	57.737	3.1565e-06	73.339	527.226	278.524	241.879	189.497	327.016	311.672	187.309	194.625	293.670	308.889	191.925	195.638	198.666	205.452	316.652	201.365	-8191	255	
1468.763	1	1	0	0	0.22708	0.027108	0.14521	0.037504	0.12143	0.21672	0.18685	0.32	0.072369	0.069981	0.27398	0.048044	0.14756	0.077007	0.019183	0.15551	-1.8875	-2.5792	-2.5333	-2.2021	-2.3375	-2.3417	-2.4021	-2.8229	-2.2583	-2.5563	-2.8688	-2.5438	-2.9229	-2.4521	-2.2188	-2.775	509.631	222.278	452.021	178.364	473.832	266.258	178.011	460.898	223.873	518.044	177.823	492.559	491.958	473.969	496.519	482.239	0.0010462	0.00047136	6.1142e-05	1005.6	6.9683e-06	6.693e-06	1204.2	396.86	1.1068e-05	7.7682e-06	496.82	191.9	163.89	61.309	3.8622e-06	78.318	0.00035786	0.00028131	7.7435e-05	946.72	2.9712e-06	3.0055e-06	1129.2	371.74	3.0447e-06	2.9312e-06	464.99	180.49	154.38	58.282	2.9626e-06	74.063	526.666	295.976	270.145	189.485	301.722	324.437	187.478	194.988	281.049	330.521	192.243	195.823	198.814	205.313	311.166	201.142	-8191	255	
1468.884	1	1	0	0	0.11122	0.1625	0.14636	0.16391	0.19714	0.11779	0.018882	0.11473	0.22516	0.15404	0.093306	0.24582	0.25518	0.12201	0.080012	0.35559	-1.7896	-2.4437	-2.6604	-2.5187	-2.6875	-2.7604	-2.3187	-2.8854	-2.4313	-2.4146	-2.825	-2.2479	-2.5646	-2.5521	-2.125	-2.7687	424.252	183.755	186.641	521.918	241.868	300.362	522.187	458.022	325.827	217.965	466.447	501.930	353.194	417.987	420.220	482.200	0.0010223	0.00066316	0.00022594	1022.1	6.8916e-06	5.9599e-06	1209.1	399.81	5.9086e-06	5.9601e-06	497.67	192.62	164.23	61.249	5.5607e-06	78.015	0.00034548	0.00026886	7.5886e-05	953.67	2.9935e-06	3.0016e-06	1135.4	374.91	2.9775e-06	3.0537e-06	466.11	181.28	154.93	58.378	3.1187e-06	73.828	524.210	269.396	271.656	189.476	308.407	328.907	187.378	194.907	281.265	349.967	192.269	195.763	198.590	205.580	302.071	201.251	-8191	255	
1468.980	1	1	0	0	0.04551	0.1818	0.14631	0.35555	0.20242	0.18155	0.12991	0.22714	0.086154	0.084059	0.16432	0.20812	0.1387	0.26466	0.071345	0.16887	-2.0979	-2.2583	-2.5083	-2.2188	-2.6833	-2.6521	-2.3312	-2.7042	-2.4146	-2.5458	-2.8854	-2.4833	-2.4188	-2.5062	-2.1188	-2.7208	419.991	432.628	225.131	268.239	438.785	396.907	182.234	481.970	300.153	262.450	527.276	520.046	416.105	481.167	216.305	433.322	0.0010639	0.00077579	0.00034307	1024	4.7634e-06	6.8662e-06	1223.4	401.67	6.2203e-06	1.0945e-05	501.3	195.11	166.36	62.259	5.7455e-06	79.058	0.00035447	0.00027852	7.9296e-05	959.59	3.115e-06	3.0435e-06	1145.7	377.33	3.2263e-06	3.104e-06	470.22	183.31	156.56	59.085	3.2327e-06	74.797	525.946	262.771	267.999	189.585	289.269	315.107	187.453	194.782	299.627	342.628	192.186	196.172	198.563	205.027	330.400	201.423	-8191	255	
1469.076	1	1	0	0	0.17756	0.52616	0.1867	0.14544	0.37372	0.23319	0.20894	0.38371	0.091826	0.1403	0.18849	0.071875	0.1488	0.22742	0.022111	0.014972	-2.0979	-2.2562	-2.7208	-2.3042	-2.275	-2.5312	-2.3583	-2.7875	-2.5938	-2.3771	-2.7938	-2.3688	-2.35	-2.7708	-1.9479	-2.4979	245.438	384.342	204.928	517.293	324.056	235.838	494.179	497.885	505.543	247.877	517.476	509.999	483.685	517.483	274.076	445.691	0.0010627	0.00090583	8.3661e-05	1035	3.5152e-06	9.1635e-06	1239	408.91	9.4569e-06	1.1351e-05	511.6	198.45	167.89	62.621	7.3059e-06	79.546	0.00036184	0.00028027	7.7785e-05	973.63	3.1687e-06	3.0784e-06	1160.1	382.62	3.2229e-06	3.0368e-06	477.15	185.88	158.38	59.646	3.2479e-06	75.287	526.866	283.318	223.116	189.679	296.469	344.630	187.666	194.493	296.681	340.752	192.219	195.731	198.701	204.965	281.111	200.952	-8191	255	
1469.148	1	1	0	0	0.17922	0.25788	0.03092	0.1538	0.14463	0.44457	0.11244	0.18624	0.14333	0.2551	0.30118	0.14489	0.21435	0.43236	0.19719	0.27474	-1.9021	-2.1437	-2.6917	-2.6083	-2.5958	-2.6312	-2.3812	-2.4813	-2.4333	-2.2021	-2.6604	-2.2792	-2.2854	-2.7292	-2.2042	-2.525	407.622	258.590	285.515	474.270	441.786	243.547	510.089	460.573	512.357	378.976	530.416	509.251	177.881	491.867	326.613	417.172	0.00099448	0.00081052	0.00024443	1050.3	5.8645e-06	9.3459e-06	1237.6	410.43	1.1141e-05	4.9804e-06	511.56	198.49	167.84	63.192	4.7473e-06	79.702	0.00035212	0.0002879	7.9465e-05	984.55	3.1467e-06	2.9961e-06	1165.1	384.82	3.298e-06	3.1238e-06	478.94	185.49	158.65	60.007	3.2572e-06	75.389	523.736	297.248	269.660	189.322	321.532	369.645	187.345	194.646	315.527	311.556	191.728	195.894	198.575	205.379	305.120	201.127	-8191	255	
1469.268	1	1	0	0	0.14617	0.24541	0.2958	0.31265	0.13686	0.0887	0.17835	0.3483	0.22762	0.21852	0.1921	0.16528	0.08793	0.097859	0.083057	0.16231	-2.2687	-2.3104	-2.5729	-2.6667	-2.3333	-2.5333	-2.2667	-2.3417	-2.5521	-2.1917	-2.6583	-2.5646	-2.4708	-2.9208	-2.2083	-2.5167	523.461	195.994	221.623	490.553	212.672	443.768	484.830	456.892	362.749	525.119	449.266	496.950	191.019	238.961	386.868	177.425	0.0010768	0.00041338	0.00022874	1048.4	4.896e-06	8.8804e-06	1237.6	410.42	6.0506e-06	8.3608e-06	512.41	197.02	168.44	63.081	6.2654e-06	78.558	0.0003571	0.00029848	8.2234e-05	986.18	3.3034e-06	3.2516e-06	1166.1	386.84	3.3679e-06	3.3207e-06	479.56	184.82	158.26	59.923	3.2751e-06	74.824	528.760	249.164	276.970	189.404	276.984	364.610	187.374	194.779	296.904	308.525	191.907	195.457	198.591	205.102	279.101	201.173	-8191	255	
1469.363	1	1	0	0	0.06494	0.063489	0.21852	0.18784	0.066756	0.11546	0.37316	0.058251	0.16917	0.17306	0.14995	0.29223	0.24108	0.041281	0.027218	0.26627	-2.075	-2.1646	-2.5938	-2.5896	-2.1312	-2.4729	-2.4271	-2.4604	-2.6125	-2.4833	-2.7646	-2.5625	-2.3854	-2.9271	-2.3792	-2.5104	366.392	507.951	259.042	471.243	234.395	183.584	480.667	304.563	360.039	204.499	504.170	197.443	177.280	507.098	438.056	500.168	0.0010046	0.0005917	0.00013202	1057	8.0945e-06	1.0755e-05	1254.8	415.03	5.8158e-06	7.5195e-06	513.3	197.41	168.15	63.215	8.3542e-06	79.439	0.00036903	0.00031175	8.2283e-05	991.42	3.3333e-06	3.3778e-06	1174	389.59	3.449e-06	3.3217e-06	480.95	184.71	158.18	60.144	3.4148e-06	75.223	524.076	303.745	267.761	189.451	300.507	312.737	187.403	194.708	299.896	305.603	192.150	195.826	198.360	205.121	302.152	201.301	-8191	255	
1469.459	1	1	0	0	0.13356	0.076906	0.19977	0.11244	0.20379	0.16087	0.17482	0.33974	0.26763	0.022186	0.1107	0.26571	0.13462	0.24179	0.089724	0.20678	-2.2229	-2.1792	-2.5771	-2.625	-2.3083	-2.5896	-2.3667	-2.3271	-2.7875	-2.3292	-2.7354	-2.7792	-2.2979	-2.725	-2.2375	-2.4604	471.603	329.083	306.891	525.274	409.233	314.272	435.726	480.678	446.328	398.963	195.490	505.294	442.076	527.163	461.328	524.290	0.0010606	0.00023936	0.00019879	1066.3	4.6044e-06	7.4929e-06	1261.3	418.46	8.8313e-06	8.7934e-06	518.09	196.66	168.38	63.545	5.7772e-06	79.207	0.00038045	0.00030033	8.4073e-05	999.3	3.3908e-06	3.3649e-06	1183.1	392.62	3.4619e-06	3.3156e-06	484.08	185.08	158.61	60.548	3.3746e-06	75.313	522.839	257.226	267.835	189.633	337.201	332.965	187.463	194.546	282.137	352.008	192.094	195.670	198.739	205.118	316.876	200.863	-8191	255	
1469.555	1	1	0	0	0.11831	0.076968	0.19786	0.1528	0.12171	0.13373	0.19423	0.30539	0.14041	0.14302	0.21005	0.39921	0.1245	0.20011	0.046284	0.14044	-2.3167	-2.375	-2.4833	-2.7042	-2.2646	-2.6083	-2.4021	-2.4646	-2.5667	-2.2146	-2.4938	-2.9208	-2.3833	-2.6937	-2.2354	-2.2417	198.130	355.473	424.020	494.371	227.858	472.959	439.167	454.730	419.958	453.065	251.506	189.473	267.774	178.642	180.835	455.849	0.0009832	0.00081489	0.00014679	1062.2	4.1351e-06	7.9816e-06	1253.6	417.04	9.0919e-06	4.73e-07	511.43	194.85	166.43	63.833	6.0477e-06	78.46	0.00036721	0.00031042	8.6698e-05	998.11	3.5083e-06	3.4152e-06	1175.5	391.36	3.5031e-06	3.4766e-06	478.86	182.58	157.57	60.652	3.3934e-06	74.518	525.947	263.545	253.652	189.654	300.204	319.001	187.146	194.415	317.029	298.385	192.230	195.905	198.586	205.211	320.426	201.213	-8191	255	
1469.676	1	1	0	0	0.23633	0.10283	0.16561	0.20304	0.10212	0.1412	0.17051	0.19895	0.25654	0.17668	0.10617	0.35323	0.19438	0.094861	0.22789	0.2794	-2.2521	-2.3292	-2.2896	-2.6562	-1.9792	-2.475	-2.5563	-2.4208	-2.5333	-2.2	-2.4333	-2.9	-2.3708	-2.5417	-2.3417	-2.3354	204.807	259.880	504.990	422.386	518.796	448.568	181.730	512.982	374.309	240.866	216.732	521.314	486.564	400.475	411.968	193.469	0.0010363	0.00067041	0.00022523	1063	5.443e-06	2.4639e-06	1254.1	416.87	7.0527e-06	1.0419e-05	512.91	193.24	166.6	63.316	2.5721e-06	77.971	0.00038146	0.00031226	9.0157e-05	998.03	3.4781e-06	3.5179e-06	1173.9	391.68	3.5247e-06	3.5808e-06	478.33	181.44	157.48	60.354	3.7187e-06	74.026	526.391	278.486	224.736	189.533	313.550	330.383	187.289	194.642	283.012	340.185	191.962	196.091	198.567	205.196	293.367	201.019	-8191	255	
1469.747	1	1	0	0	0.27978	0.32295	0.076014	0.21049	0.18476	0.15135	0.21523	0.24041	0.25487	0.15037	0.15251	0.1271	0.23443	0.11027	0.21271	0.1536	-2.2938	-2.2708	-2.2771	-2.5083	-2.2146	-2.5542	-2.7521	-2.1771	-2.4062	-2.4062	-2.3125	-2.9292	-2.375	-2.525	-2.675	-2.3625	414.984	358.228	196.091	515.117	520.158	430.713	461.219	476.605	341.247	358.825	469.152	486.080	187.560	514.102	530.456	520.755	0.0010167	0.00068694	0.00022613	1063.3	1.0133e-05	1.1587e-05	1255.6	416.8	7.4781e-06	8.8994e-06	510.91	192.24	166.09	63.094	5.7351e-06	77.874	0.00039931	0.00033395	9.4041e-05	999.32	3.633e-06	3.6056e-06	1176.3	392.18	3.7122e-06	3.7141e-06	478.26	180.87	156.86	60.139	3.7504e-06	73.877	524.247	275.083	269.584	189.256	329.794	313.985	187.394	194.523	267.996	332.338	192.036	195.951	198.598	204.647	322.215	201.139	-8191	255	
1469.843	1	1	0	0	0.50906	0.13857	0.041805	0.23827	0.23316	0.24508	0.24581	0.10711	0.24272	0.29098	0.38108	0.32167	0.35333	0.02401	0.20569	0.12627	-1.9813	-2.3458	-2.2479	-2.85	-2.4833	-2.5646	-2.65	-2.1771	-2.4208	-2.5042	-2.35	-2.6479	-2.5896	-2.6375	-2.4104	-2.3792	252.943	242.149	270.045	184.691	373.559	372.752	500.964	476.852	476.512	244.765	489.424	534.997	484.593	413.975	244.646	517.475	0.00099209	0.00072575	9.3673e-05	1065.1	4.1265e-06	1.0219e-05	1256.6	414.99	4.1971e-06	9.8601e-06	509.14	191.79	166.75	63.218	6.9634e-06	77.84	0.00040675	0.00034346	9.4361e-05	1002.2	3.8322e-06	3.5996e-06	1177.3	391.59	3.8604e-06	3.7025e-06	477.06	180.53	156.93	60.259	3.7888e-06	73.752	526.842	291.786	277.864	189.555	330.789	327.186	187.326	194.502	325.608	343.939	191.820	195.600	198.502	204.962	313.526	201.173	-8191	255	
1469.964	1	1	0	0	0.13909	0.33431	0.050947	0.2261	0.17701	0.11392	0.20753	0.23667	0.083655	0.092743	0.16417	0.26329	0.39468	0.045689	0.23102	0.23539	-2.1021	-2.525	-2.2104	-2.5646	-2.1875	-2.4833	-3.0354	-2.3667	-2.5604	-2.4896	-2.2458	-2.7188	-2.7417	-2.4771	-2.6521	-2.4354	231.272	405.448	530.451	467.371	481.134	500.219	453.042	495.060	179.946	468.952	187.397	517.964	488.051	187.963	288.946	418.143	0.00097983	0.0006808	0.00025262	1064.4	5.7082e-06	8.9259e-06	1244.2	415.33	5.7162e-06	1.2544e-06	506.11	190.09	164.83	63.921	5.5178e-06	77.678	0.00040483	0.00032555	9.5237e-05	1001.1	3.7362e-06	3.7461e-06	1168.2	390.82	3.7588e-06	3.6839e-06	472.88	177.92	155.68	60.579	3.7436e-06	73.567	527.511	259.756	238.659	189.793	316.640	341.903	187.614	194.389	280.524	327.721	192.005	195.856	198.943	205.270	295.942	201.099	-8191	255	
1470.060	1	1	0	0	0.071948	0.15252	0.17407	0.072499	0.11084	0.066334	0.14429	0.12686	0.16315	0.023862	0.019688	0.099384	0.22756	0.095269	0.18761	0.21565	-1.7313	-2.2812	-2.2	-2.975	-2.2271	-2.2104	-2.7333	-2.4375	-2.3937	-2.8	-2.3125	-2.6625	-2.5979	-2.4292	-2.6104	-2.4646	425.870	393.776	301.890	446.845	309.008	245.115	284.571	501.271	402.129	197.350	390.484	214.594	523.718	473.703	383.630	248.490	0.0010088	0.00085976	0.00017788	1066.8	5.958e-06	2.4743e-06	1246.3	416.97	9.6698e-06	1.0483e-05	505.54	188.41	162.69	63.957	6.1262e-06	77.177	0.00039793	0.00032842	9.3404e-05	1001	3.6307e-06	3.7086e-06	1169.5	392.78	3.7399e-06	3.6766e-06	473.92	177.44	154.74	60.7	3.7863e-06	73.318	526.877	276.925	296.073	189.820	303.934	353.433	187.326	194.675	305.317	313.644	191.728	195.824	198.767	205.057	307.108	200.860	-8191	255	
1470.156	1	1	0	0	0.3093	0.092717	0.14559	0.18196	0.33233	0.21636	0.33512	0.21433	0.22624	0.1656	0.4266	0.25259	0.043851	0.32332	0.12636	0.19162	-2.0229	-2.3583	-2.3271	-2.7896	-2.4729	-2.3854	-2.8229	-2.6146	-2.2625	-2.8229	-2.1396	-2.475	-2.5271	-2.2854	-2.6875	-2.5104	268.816	461.022	330.914	394.123	413.950	246.152	417.034	179.268	501.113	388.670	492.408	442.179	468.267	532.049	484.848	481.699	0.0011104	0.00038991	0.00010805	1067	6.1527e-06	8.2628e-06	1242.2	417.5	8.8005e-06	7.4842e-06	511.27	187.63	163.4	63.928	4.9344e-06	78.058	0.00041806	0.00034791	9.6804e-05	1001.8	3.8444e-06	3.7626e-06	1169.9	393.38	3.8469e-06	3.7492e-06	475.94	176.72	154.46	60.887	3.9616e-06	73.87	523.592	525.465	244.963	189.648	315.308	321.256	187.779	194.690	264.021	323.202	192.322	195.923	198.582	204.936	276.629	200.978	-8191	255	
1470.252	1	1	0	0	0.24011	0.17956	0.089448	0.18571	0.056518	0.19796	0.13442	0.13482	0.09174	0.18919	0.22575	0.10283	0.18938	0.10738	0.14242	0.15744	-1.8521	-2.7625	-2.0042	-2.5438	-2.475	-2.1979	-2.6583	-2.4854	-2.3167	-2.6917	-2.4521	-2.5438	-2.4792	-2.3292	-2.4083	-2.4146	475.788	213.404	516.600	186.017	505.140	221.253	200.052	423.862	227.180	521.929	481.041	450.092	526.385	534.143	267.284	212.577	0.0010517	0.0001753	0.00014101	1058.9	5.6255e-06	1.1465e-05	1245.8	419.01	3.1921e-06	3.2575e-06	513.08	187.89	164.36	64.665	4.879e-06	78.034	0.00042944	0.00036233	0.00010131	996.69	4.0059e-06	3.9527e-06	1167.3	395.23	3.907e-06	3.7882e-06	479.47	176.84	155.17	61.682	3.7876e-06	74.333	529.695	265.276	258.102	189.619	310.192	336.757	187.645	194.424	304.502	259.009	192.434	196.151	198.531	204.872	267.859	200.894	-8191	255	
1470.349	1	1	0	0	0.037728	0.083616	0.18983	0.25228	0.066797	0.078923	0.048653	0.13366	0.14747	0.3462	0.1559	0.18191	0.07984	0.12161	0.25407	0.30987	-2.0083	-2.8479	-2.2375	-2.5687	-2.6042	-2.2479	-2.7062	-2.6542	-2.2458	-2.7771	-2.4833	-2.6521	-2.5375	-2.1625	-2.4333	-2.5438	248.247	224.505	441.585	205.543	222.025	524.926	446.861	490.696	494.266	376.501	264.927	512.435	448.566	206.345	215.399	526.449	0.00096949	0.00049859	0.00011438	1068.9	5.8647e-06	6.9087e-06	1247.9	422.87	1.0636e-05	1.0336e-06	515.6	188.94	165.59	65.063	6.9933e-06	78.863	0.0004041	0.00033834	9.6164e-05	1001.1	3.7914e-06	3.7307e-06	1171	398.97	3.8111e-06	3.6409e-06	481.2	177.86	155.95	61.969	3.6148e-06	74.838	525.996	272.726	236.228	189.311	301.900	311.816	187.526	194.275	284.673	223.830	191.892	195.911	198.377	205.017	290.464	201.209	-8191	255	
1470.445	1	1	0	0	0.14152	0.25844	0.20768	0.1826	0.2054	0.079598	0.18193	0.10132	0.018532	0.096276	0.15072	0.29691	0.36752	0.22681	0.22581	0.1161	-1.7417	-2.8937	-2.3375	-2.4771	-2.7583	-2.15	-2.7646	-2.6104	-2.4062	-2.6917	-2.6667	-2.3729	-2.8875	-2.5104	-2.575	-2.6167	290.344	495.688	215.634	526.868	326.609	442.723	458.795	400.423	224.786	336.773	525.594	249.387	487.902	190.475	472.308	267.391	0.0010964	0.00092695	0.00013719	1078	6.7125e-06	7.6334e-06	1265.5	427.12	8.2029e-06	8.7801e-06	522.6	192.63	167.4	65.129	4.5492e-06	78.964	0.00039364	0.000324	8.9499e-05	1010.4	3.4658e-06	3.4135e-06	1188.5	402	3.381e-06	3.3869e-06	488.47	181.63	158.3	61.674	3.4066e-06	74.955	525.637	283.033	282.272	189.697	283.179	291.449	187.387	194.336	277.035	293.308	192.333	195.631	198.548	204.994	301.884	201.062	-8191	255	
1470.564	1	1	0	0	0.24982	0.17842	0.1617	0.10659	0.27909	0.05089	0.39348	0.21628	0.09091	0.20381	0.24632	0.34499	0.10455	0.19111	0.09018	0.34873	-1.925	-2.6208	-2.3438	-2.3333	-2.5354	-2.2417	-2.8604	-2.8542	-2.3521	-2.5396	-2.3937	-2.0458	-2.6625	-2.2812	-2.6229	-2.775	303.852	202.422	222.690	447.519	457.804	266.806	430.195	354.624	317.746	236.082	455.850	460.615	199.538	465.398	421.616	474.409	0.0010527	0.00077303	0.0001468	1079.7	8.1217e-06	8.9501e-06	1270.6	430.89	9.747e-06	8.3396e-06	526.99	194	168.29	64.909	4.2264e-06	79.443	0.0003767	0.00030806	8.5964e-05	1014.2	3.3354e-06	3.3071e-06	1192.8	403.6	3.4163e-06	3.3463e-06	488.77	182.22	158.24	61.728	3.4465e-06	75.34	526.854	325.543	307.238	189.761	289.572	309.303	187.407	194.202	298.561	317.822	191.998	196.021	198.400	204.891	278.159	200.920	-8191	255	
1470.660	1	1	0	0	0.15486	0.1571	0.32051	0.36194	0.27013	0.19967	0.15385	0.4038	0.28691	0.20477	0.12734	0.40057	0.24451	0.39079	0.20416	0.21279	-1.6646	-2.5958	-2.3021	-2.3729	-2.7438	-2.4813	-2.6333	-2.5333	-2.1208	-2.5583	-2.7375	-2.4792	-2.8583	-2.4437	-2.45	-2.5729	472.138	225.625	393.000	533.472	305.451	429.930	518.531	186.582	512.850	501.750	457.200	489.159	533.122	531.308	254.564	457.089	0.0010427	0.00042369	0.00016868	1082.1	2.7431e-06	9.3514e-06	1276.2	428.2	8.4885e-06	9.7832e-06	521.27	193.51	166.26	63.948	9.0242e-06	77.993	0.00038859	0.00031375	8.6966e-05	1016.4	3.4247e-06	3.4418e-06	1197.4	402.71	3.5812e-06	3.513e-06	487.3	181.36	157.3	60.912	3.4717e-06	74.145	530.483	222.522	255.126	189.681	328.490	339.379	187.375	194.448	274.220	324.985	192.014	195.901	198.542	205.278	294.786	201.216	-8191	255	
1470.756	1	1	0	0	0.13257	0.16956	0.051525	0.10048	0.086278	0.25495	0.15254	0.29792	0.12621	0.10632	0.1396	0.28102	0.090666	0.22114	0.098387	0.10803	-1.7125	-2.3396	-2.5708	-2.5667	-2.7208	-2.5646	-2.5083	-2.8375	-2.1208	-2.5521	-2.7542	-2.4562	-2.7604	-2.6646	-2.0458	-2.9792	215.218	351.828	436.900	474.146	223.620	339.659	475.212	527.438	466.016	459.913	435.939	491.700	480.880	469.005	284.001	362.805	0.0010447	0.00025704	9.0823e-05	1072	4.9277e-06	8.8485e-06	1261.1	423.15	5.8654e-06	1.2157e-05	517.24	189.91	166.11	63.715	5.6056e-06	77.615	0.00037627	0.00031154	8.9349e-05	1008	3.4354e-06	3.4773e-06	1182.8	398.54	3.5872e-06	3.3858e-06	481.44	178.45	156.49	60.864	3.5368e-06	73.528	523.717	280.105	298.340	189.806	331.137	350.106	187.452	194.446	287.217	326.753	192.045	195.987	198.750	205.128	290.188	200.937	-8191	255	
1470.852	1	1	0	0	0.18458	0.31989	0.16806	0.18666	0.1567	0.048774	0.096235	0.029797	0.094766	0.16035	0.23184	0.10389	0.45142	0.43433	0.19823	0.083316	-1.8625	-2.6375	-2.6896	-2.2458	-2.6167	-2.3417	-2.1208	-2.7167	-2.3646	-2.4396	-2.9104	-2.2333	-2.8187	-2.5979	-2.2833	-2.8833	405.230	504.011	335.104	530.402	348.345	265.381	491.565	383.243	218.343	499.593	528.438	451.700	510.523	515.500	292.423	408.638	0.0010013	0.00043173	0.00018032	1065	4.7286e-06	1.0983e-05	1258.6	424.65	1.0148e-05	7.2201e-06	517.36	193.78	167.79	63.897	2.7499e-06	78.329	0.00039028	0.00032345	8.6629e-05	1004.7	3.3803e-06	3.3479e-06	1181.9	397.74	3.3261e-06	3.227e-06	482.41	181.36	158.14	60.769	3.3007e-06	74.278	521.421	254.062	253.034	189.413	307.654	334.511	187.305	194.477	289.656	323.236	192.066	196.124	198.690	204.917	295.787	200.947	-8191	255	
1470.973	1	1	0	0	0.31263	0.17526	0.058018	0.23967	0.18864	0.18559	0.41259	0.19096	0.27869	0.18719	0.012185	0.3029	0.33182	0.4561	0.28401	0.18971	-2.125	-2.4417	-2.6917	-2.2667	-2.5792	-2.4417	-2.2375	-2.6167	-2.2458	-2.3937	-2.7792	-2.5167	-2.6708	-2.5875	-2.1771	-2.5104	295.244	180.813	504.558	186.298	483.340	498.252	459.886	446.071	318.216	511.552	535.743	473.307	497.774	454.569	480.949	406.132	0.0010043	0.0005374	0.00017325	1076.9	7.8532e-06	6.3952e-06	1276.3	424.47	8.0169e-06	5.3507e-06	522.29	198.13	170.22	64.443	6.4879e-06	80.632	0.00036263	0.00028975	7.9595e-05	1011.1	3.2223e-06	3.1869e-06	1193.8	398.73	3.1233e-06	2.9183e-06	487.63	185.48	160.32	61.257	3.0308e-06	76.167	525.318	250.047	285.880	189.571	314.146	358.394	187.355	194.414	312.216	315.072	192.051	196.024	198.564	205.000	276.155	201.159	-8191	255	
1471.044	1	1	0	0	0.14764	0.11845	0.12485	0.31673	0.17478	0.055778	0.29852	0.34431	0.25694	0.19602	0.076901	0.48033	0.24218	0.11537	0.13638	0.058038	-1.6979	-2.2708	-2.5542	-2.4042	-2.375	-2.475	-2.475	-2.8312	-2.5542	-2.3312	-2.7812	-2.2062	-2.3187	-2.5687	-2.2687	-2.8729	203.340	483.386	523.826	199.593	225.913	316.120	457.993	461.433	507.891	414.732	196.997	517.370	476.653	478.534	224.216	182.354	0.0010768	0.00067179	0.00019655	1070.3	6.7628e-06	1.241e-05	1271.8	426.13	8.7468e-06	6.9138e-06	522.73	201.15	171.07	64.745	6.5063e-06	80.362	0.00034354	0.00026506	7.1985e-05	1004.5	2.8966e-06	2.8867e-06	1192.2	399.35	2.9945e-06	2.8237e-06	489.1	188.59	161.34	61.498	2.9153e-06	76.271	524.541	265.960	249.971	189.534	322.727	315.682	187.181	194.475	291.169	312.346	192.091	195.671	198.761	204.901	279.040	200.985	-8191	255	
1471.141	1	1	0	0	0.21837	0.13776	0.059531	0.19196	0.015254	0.29031	0.081699	0.25067	0.19327	0.25701	0.15074	0.12004	0.15631	0.41092	0.2739	0.32325	-2.1	-2.1729	-2.5875	-2.4458	-2.3146	-2.6792	-2.2021	-2.5687	-2.6146	-2.3208	-2.8875	-2.4271	-2.3917	-2.6833	-2.2333	-2.7021	333.301	500.487	210.512	522.642	533.850	409.382	415.706	459.692	333.412	442.052	261.660	292.372	205.483	179.470	399.824	514.550	0.0010216	0.000767	0.0002037	1063.2	6.0506e-06	1.0718e-05	1251.2	421.12	6.3315e-06	9.932e-06	520.52	201.57	172.14	65.102	6.6049e-06	81.109	0.0003396	0.00026007	7.4995e-05	995.99	2.9536e-06	2.7648e-06	1174.5	395.96	2.9843e-06	2.7554e-06	484.72	188.65	162.4	61.914	2.8958e-06	76.717	525.051	306.978	257.160	189.738	315.638	323.050	187.579	194.433	303.246	319.558	192.171	195.859	198.538	205.183	302.486	201.321	-8191	255	
1471.237	1	1	0	0	0.19979	0.055589	0.15162	0.30811	0.22337	0.15044	0.18518	0.16713	0.20291	0.16629	0.11913	0.22135	0.2681	0.15602	0.11858	0.25744	-1.9042	-2.0604	-2.6625	-2.3375	-2.2167	-2.7833	-2.5646	-2.7625	-2.5708	-2.3896	-2.8479	-2.5208	-2.3583	-2.625	-2.1708	-2.65	230.749	241.487	304.025	479.337	510.592	182.973	485.678	455.053	193.657	207.463	521.835	418.826	188.578	488.629	204.963	462.986	0.0010679	0.00048741	0.00011322	1055.9	8.3946e-06	6.856e-06	1248.4	420.49	1.0549e-05	7.8586e-06	519.98	202.5	172.62	65.091	6.9173e-06	80.707	0.00034687	0.00026665	7.2684e-05	989.71	2.8293e-06	2.8871e-06	1171.1	394.59	2.8895e-06	2.8566e-06	484.19	189.65	162.8	61.929	2.9646e-06	76.593	526.421	261.395	271.203	189.644	312.897	333.623	187.388	194.387	300.926	340.674	191.797	195.648	198.567	205.370	272.013	201.075	-8191	255	
1471.356	1	1	0	0	0.17272	0.088308	0.38015	0.30331	0.14997	0.23002	0.25409	0.1159	0.38736	0.024432	0.061024	0.074767	0.20773	0.18529	0.23807	0.12051	-2.2938	-2.1792	-2.4188	-2.4542	-2.3812	-2.6875	-2.4146	-2.6542	-2.7062	-2.3042	-2.6375	-2.6813	-2.3063	-2.9875	-2.2604	-2.5354	483.566	357.271	388.941	188.217	362.702	498.624	484.153	396.229	215.879	344.151	212.289	242.101	500.820	476.696	362.744	473.107	0.0011206	0.0003561	0.00019857	1047.9	7.6674e-06	6.722e-06	1247.2	420.71	7.857e-06	4.6581e-06	518.62	201.3	173.58	65.364	6.533e-06	81.689	0.0003334	0.0002716	7.5613e-05	985.69	2.9001e-06	2.8758e-06	1169	394.04	2.9753e-06	2.8314e-06	483.69	189.19	163.16	62.14	2.9165e-06	77.16	525.538	267.827	270.390	189.704	308.777	320.428	187.506	194.472	294.483	290.040	192.347	195.720	198.349	205.152	287.170	200.972	-8191	255	
1471.452	1	1	0	0	0.12263	0.037748	0.053872	0.21079	0.040005	0.20892	0.22583	0.038495	0.1868	0.20851	0.35638	0.32151	0.1181	0.12587	0.13749	0.17475	-2.1292	-1.9917	-2.3583	-2.6042	-2.2396	-2.625	-2.4167	-2.6312	-2.4771	-2.2125	-2.5417	-2.5708	-2.3063	-2.8354	-2.4479	-2.6917	472.184	371.497	505.381	485.018	422.353	256.445	466.231	514.209	321.391	280.507	498.809	499.915	522.697	220.139	386.755	324.156	0.0010321	0.00046078	0.00012291	1047.9	5.2399e-06	4.5833e-06	1247.4	419.82	1.0142e-05	9.3191e-06	520.46	203.27	174.01	65.728	5.6045e-06	81.875	0.00033861	0.00025959	7.3298e-05	984.7	2.8924e-06	2.8271e-06	1168.3	394.92	2.9066e-06	2.8442e-06	485.79	190.88	164	62.414	2.8273e-06	77.614	523.412	269.632	240.995	189.634	331.093	337.031	187.406	194.704	281.197	311.103	192.001	195.935	198.827	205.400	286.377	201.158	-8191	255	
1471.548	1	1	0	0	0.16524	0.17351	0.13971	0.17382	0.17887	0.066249	0.23187	0.15238	0.06291	0.044575	0.058204	0.18409	0.17818	0.27213	0.122	0.06643	-2.0812	-2.1562	-2.4667	-2.7583	-2.3187	-2.5625	-2.6083	-2.1813	-2.4562	-2.3958	-2.6937	-2.7542	-2.5333	-2.6937	-2.2896	-2.5271	502.453	316.325	351.804	499.095	505.465	193.370	488.783	467.974	239.099	509.552	527.672	497.484	468.483	490.970	526.022	383.231	0.0010913	0.00028726	0.00017003	1043	5.988e-06	8.4488e-06	1240.5	418.24	9.056e-06	9.3685e-06	517.67	202.31	173.8	65.616	5.5997e-06	81.567	0.00032842	0.00025417	6.8299e-05	977.28	2.752e-06	2.6973e-06	1162	393.12	2.8348e-06	2.6735e-06	484.05	190.49	163.77	62.275	2.8545e-06	77.342	522.670	265.605	285.163	189.746	282.900	305.953	187.591	194.764	270.475	305.851	192.246	195.914	198.797	205.455	266.830	200.894	-8191	255	
1471.644	1	1	0	0	0.37612	0.13879	0.19163	0.38718	0.074491	0.18309	0.46319	0.27704	0.12415	0.10129	0.22448	0.22755	0.31134	0.21501	0.15837	0.31499	-2.1104	-2.0479	-2.1958	-2.775	-2.0542	-2.3542	-2.4333	-2.2396	-2.6125	-2.4229	-2.6458	-2.7396	-2.275	-2.5292	-2.4917	-2.1979	516.602	278.599	242.097	516.149	319.183	410.743	462.782	488.235	510.106	375.833	211.025	489.752	453.793	535.438	271.103	474.506	0.001113	0.00091107	0.00019753	1031.4	6.4489e-06	5.5355e-06	1230.2	416.92	5.3895e-06	9.6753e-06	519.75	202.21	173.37	65.156	7.1643e-06	81.139	0.000333	0.00025448	7.2102e-05	971.67	2.8464e-06	2.7237e-06	1155.4	391.88	2.8191e-06	2.7123e-06	483.24	189.68	163.27	61.921	2.7654e-06	77.026	524.418	260.982	296.407	189.706	305.221	314.957	187.215	194.780	305.894	320.160	192.163	195.948	198.662	205.414	312.545	200.939	-8191	255	
1471.740	1	1	0	0	0.088373	0.27553	0.035904	0.026522	0.075347	0.21401	0.0987	0.15044	0.24264	0.10641	0.14676	0.1195	0.14037	0.20961	0.11735	0.25609	-2.1042	-2.3104	-2.4479	-2.8375	-2.1417	-2.3937	-2.6417	-2.0625	-2.6042	-2.4792	-2.6875	-2.8438	-2.3563	-2.4417	-2.6708	-2.3271	528.059	421.272	302.688	530.819	215.941	380.985	183.843	405.706	331.660	439.335	195.465	245.321	494.661	516.454	489.539	449.441	0.0010448	0.00076829	0.00025644	1038.2	6.4815e-06	6.1136e-06	1240.3	419.38	8.6064e-06	9.9484e-06	519.13	203.66	174	65.736	8.5132e-06	82.343	0.00032894	0.00025452	7.0454e-05	975.38	2.761e-06	2.7276e-06	1160.4	392.36	2.8582e-06	2.7716e-06	484.39	190.63	164.03	62.32	2.8594e-06	78.038	529.089	297.478	282.070	189.636	319.718	326.492	187.484	194.825	289.471	323.728	192.209	195.926	198.690	205.078	286.759	200.770	-8191	255	
1471.836	1	1	0	0	0.133	0.036277	0.21762	0.22069	0.17862	0.033845	0.37995	0.17646	0.1133	0.11814	0.1327	0.026418	0.24742	0.28014	0.16571	0.25499	-2.0417	-2.1729	-2.3521	-2.9271	-2.1354	-2.4979	-2.7625	-2.5604	-2.5938	-2.6021	-2.5646	-2.8271	-2.4	-2.5354	-2.6375	-2.2771	448.581	366.989	257.731	495.054	456.465	455.742	507.129	452.577	295.493	470.303	489.564	282.844	340.835	497.356	262.214	501.139	0.0010557	0.00069614	0.00024214	1045.6	3.8154e-06	6.0828e-06	1243.5	421.22	1.0556e-05	8.0008e-06	521.6	203.81	174.14	65.423	7.2045e-06	81.75	0.00033519	0.00026618	7.2466e-05	981.23	2.797e-06	2.817e-06	1165.9	394.72	2.7939e-06	2.7622e-06	487.03	191.3	164.15	62.206	2.8132e-06	77.275	524.561	290.585	252.418	189.685	328.802	318.585	187.588	195.002	288.761	322.619	192.104	195.652	198.873	205.240	305.448	200.966	-8191	255	
1471.932	1	1	0	0	0.18019	0.081093	0.24744	0.39924	0.10436	0.29057	0.26832	0.036195	0.1161	0.14994	0.41475	0.29375	0.13094	0.40258	0.03014	0.19145	-2.0771	-2.3896	-2.1708	-2.5687	-2.1646	-2.2479	-2.7667	-2.3833	-2.5812	-2.575	-2.3125	-2.8937	-2.3229	-2.4062	-2.5854	-2.3708	437.297	449.961	254.610	195.577	461.834	494.767	478.985	235.314	328.733	448.573	482.724	486.890	455.066	185.482	282.536	431.458	0.0010262	0.00055659	0.0002639	1041.9	5.8945e-06	8.3811e-06	1232.9	417.3	6.2831e-06	5.9078e-06	517.63	202.15	172.68	64.804	7.5102e-06	81.248	0.00033061	0.00025754	7.126e-05	978.13	2.8106e-06	2.7655e-06	1160.5	393.15	2.8405e-06	2.7848e-06	483.86	189.88	163.2	61.72	2.8134e-06	76.904	524.338	279.159	286.445	189.589	308.570	334.035	187.298	194.779	303.112	356.944	192.177	195.827	198.549	205.400	290.818	200.869	-8191	255	
1472.053	1	1	0	0	0.23733	0.21631	0.28503	0.28437	0.1418	0.24027	0.14528	0.089894	0.18222	0.2159	0.28182	0.022616	0.33171	0.21793	0.027813	0.13809	-2.1688	-2.5917	-2.175	-2.5833	-2.2229	-2.2625	-2.8854	-2.4333	-2.5854	-2.4583	-2.4354	-2.7167	-2.3396	-2.3771	-2.5417	-2.5521	253.928	382.145	325.656	517.931	357.384	229.962	203.152	442.002	494.171	286.402	217.175	404.801	530.075	180.444	357.258	247.515	0.0010446	0.00038516	0.00019249	1042.9	3.5845e-06	7.8501e-06	1245.4	419.2	8.7207e-06	7.7497e-06	520.69	202.96	173.64	65.184	8.5145e-06	81.297	0.00033515	0.0002602	7.1021e-05	980.09	2.8752e-06	2.7924e-06	1164	394.42	2.8369e-06	2.8496e-06	485.47	189.96	163.27	61.923	2.9268e-06	76.929	525.965	275.707	270.223	189.560	285.561	334.560	187.290	194.748	306.163	319.140	192.511	195.575	198.788	205.464	323.364	200.914	-8191	255	
1472.149	1	1	0	0	0.13868	0.12292	0.076959	0.074682	0.059963	0.13551	0.19173	0.40586	0.27089	0.13668	0.22534	0.097185	0.22974	0.067933	0.041195	0.2839	-1.9875	-2.5208	-2.0583	-2.675	-2.55	-2.3208	-3.0271	-2.5146	-2.325	-2.4062	-2.2646	-2.825	-2.7167	-2.5833	-2.6104	-2.5375	483.043	224.134	425.887	177.013	444.354	298.307	407.526	464.675	240.284	392.584	511.055	515.404	207.442	485.862	276.766	495.832	0.0011132	0.0007939	0.00011303	1046.5	5.7757e-06	6.2857e-06	1245.2	423.55	9.2495e-06	9.7545e-06	518.8	203.25	173.54	65.464	5.3572e-06	81.403	0.00034616	0.00026474	7.5609e-05	983.4	2.9812e-06	3.0031e-06	1166.6	395.17	3.1329e-06	3.0462e-06	485.18	190.15	163.04	62.264	3.1368e-06	77.194	526.949	285.287	304.286	189.761	318.915	331.218	187.323	194.506	285.504	334.424	192.186	195.914	198.440	205.255	312.009	200.971	-8191	255	
1472.245	1	1	0	0	0.3118	0.20817	0.022435	0.12985	0.23573	0.091738	0.16145	0.4215	0.15511	0.17087	0.116	0.13385	0.31798	0.090419	0.15741	0.18436	-1.8271	-2.5062	-2.2188	-2.6125	-2.3458	-2.25	-2.8167	-2.6792	-2.2438	-2.5625	-2.2104	-2.75	-2.7438	-2.4958	-2.7167	-2.4354	388.138	311.094	179.570	218.506	429.178	482.094	485.241	489.383	229.426	200.379	462.924	466.747	473.463	505.258	460.795	532.027	0.0010558	0.00049715	0.00021125	1057.8	6.8652e-06	1.1057e-05	1249.8	422.55	6.2869e-06	9.146e-06	515.41	198.66	170.51	64.773	4.2096e-06	79.971	0.00035875	0.00027555	8.0569e-05	991.13	3.1558e-06	3.2032e-06	1169.5	395.69	3.1801e-06	3.1669e-06	482.37	186.89	161.12	61.646	3.1763e-06	75.761	525.072	263.276	281.574	190.036	321.701	325.516	187.534	194.627	324.729	337.002	191.922	195.751	198.750	205.067	274.034	201.260	-8191	255	
1472.342	1	1	0	0	0.20581	0.18702	0.0803	0.22507	0.16107	0.12957	0.3194	0.045981	0.33484	0.1357	0.088783	0.072924	0.29411	0.3626	0.061658	0.21003	-1.7333	-2.3854	-2.0271	-2.4188	-2.5042	-2.1958	-2.8271	-2.7	-2.3125	-2.7667	-2.5187	-2.6042	-2.7896	-2.3479	-2.4521	-2.4417	225.083	184.818	244.701	514.763	390.375	451.058	487.006	230.739	308.733	240.127	489.237	395.639	532.657	454.086	259.466	501.796	0.0010574	0.00052651	0.00016386	1043.2	7.7624e-06	6.3872e-06	1239.6	416.42	4.6112e-06	6.6995e-06	510.84	195.97	170.52	64.862	6.5303e-06	79.128	0.00037182	0.00029023	8.2961e-05	981.33	3.2224e-06	3.275e-06	1158	391.97	3.2881e-06	3.1587e-06	476.81	184.67	160.28	61.583	3.3206e-06	75.271	524.038	281.830	280.602	189.641	318.331	364.819	187.693	194.650	285.238	297.071	191.956	195.946	198.697	205.101	330.807	200.840	-8191	255	
1472.436	1	1	0	0	0.3867	0.0028361	0.20719	0.33775	0.0076478	0.036228	0.37678	0.17105	0.14683	0.3891	0.14504	0.17038	0.23633	0.065471	0.052551	0.23501	-1.6708	-2.6146	-2.1417	-2.7167	-2.5229	-2.1354	-2.7979	-2.5521	-2.2562	-2.8021	-2.4729	-2.6521	-2.5812	-2.125	-2.5042	-2.4646	528.581	424.975	444.662	378.510	253.099	189.164	466.137	235.720	312.765	375.043	503.637	483.705	179.774	190.222	342.786	511.162	0.0011035	0.00088123	0.00014909	1051.2	5.7644e-06	1.0301e-05	1229.9	417.84	9.3307e-06	1.1857e-05	512.22	196.24	169.52	64.788	6.3326e-06	79.078	0.00036957	0.00029909	8.3894e-05	986.76	3.238e-06	3.3755e-06	1158.3	392.71	3.3182e-06	3.2846e-06	477.92	184.35	159.86	61.613	3.4076e-06	75.034	521.271	269.938	279.707	189.936	296.480	314.699	187.600	194.469	290.948	327.976	192.123	195.671	198.562	205.191	286.593	201.053	-8191	255	
1472.532	1	1	0	0	0.31206	0.095611	0.17643	0.19991	0.1458	0.16776	0.046441	0.039137	0.088665	0.16243	0.14985	0.096261	0.27867	0.21436	0.18348	0.088747	-1.775	-2.5604	-2.3833	-2.4229	-2.6854	-2.5812	-2.5042	-2.5062	-1.9979	-2.5271	-2.4771	-2.2438	-2.6646	-2.0208	-2.2667	-2.6167	404.848	461.496	499.328	242.524	377.556	405.680	238.853	215.432	341.226	276.009	500.787	494.289	189.130	186.555	383.442	439.782	0.0010909	0.00075874	9.0179e-05	1052.8	7.7813e-06	1.39e-06	1244.7	423.41	5.2606e-06	9.7284e-06	515.99	198.7	171.64	65.815	3.9717e-06	81.246	0.00037874	0.00028916	8.3123e-05	990.73	3.2349e-06	3.2683e-06	1167.5	396.52	3.277e-06	3.1206e-06	483.97	186.64	161.75	62.579	3.2846e-06	76.811	522.665	278.995	220.031	189.758	304.291	429.672	187.500	194.529	289.385	332.531	192.138	196.088	198.559	205.149	321.123	200.865	-8191	255	
1472.630	1	1	0	0	0.089607	0.19011	0.082357	0.30032	0.20364	0.031747	0.10493	0.30049	0.24931	0.091365	0.19619	0.15288	0.17444	0.11583	0.1682	0.076644	-1.5875	-2.7125	-2.4667	-2.4188	-2.5104	-2.1979	-2.5917	-2.6688	-2	-2.375	-2.6208	-2.2854	-2.7729	-2.3771	-2.3896	-2.6458	245.687	185.853	197.771	181.574	422.709	314.041	418.029	483.348	435.352	337.920	523.552	506.416	194.666	512.043	270.796	504.704	0.0010635	0.00062027	0.00019221	1066.3	4.6386e-06	5.1806e-06	1258.7	427.41	1.3257e-05	5.3778e-06	522.13	201.28	172.86	66.323	6.8519e-06	81.324	0.00036742	0.00029128	8.2206e-05	998.73	3.2579e-06	3.1748e-06	1178.4	400.98	3.2114e-06	3.1631e-06	488.64	188.02	162.61	62.99	3.2151e-06	77.011	523.155	271.851	267.418	189.641	311.890	359.754	187.545	194.412	304.922	349.784	192.016	195.965	198.786	205.199	275.995	200.986	-8191	255	
1472.749	1	1	0	0	0.18942	0.14359	0.19997	0.21807	0.15639	0.012537	0.26501	0.36516	0.28381	0.17932	0.066233	0.033677	0.096597	0.057009	0.11337	0.23465	-1.4396	-2.5438	-2.3937	-2.1417	-2.7521	-2.3812	-2.2479	-2.5646	-2.2167	-2.1771	-2.7562	-2.2438	-2.7625	-2.2708	-2.4958	-2.7854	450.987	523.585	313.705	188.496	502.798	228.168	188.336	498.119	525.252	267.261	462.693	446.791	417.479	430.548	400.710	514.909	0.00103	0.00084164	0.00020814	1054.5	7.4982e-06	1.0556e-05	1233.5	425.25	8.7032e-06	1.6608e-06	515.78	195.83	170.78	66.271	7.2888e-06	80.211	0.00036579	0.00028939	8.246e-05	992	3.2711e-06	3.3256e-06	1160.2	399.12	3.3406e-06	3.2835e-06	482.5	183.76	160.86	63.026	3.1768e-06	76.122	520.462	251.942	292.050	189.476	324.836	324.918	187.736	194.704	269.348	331.506	192.027	195.744	198.373	204.989	284.506	200.662	-8191	255	
1472.845	1	1	0	0	0.21015	0.01469	0.10946	0.42463	0.24201	0.2592	0.1214	0.10816	0.16499	0.086473	0.05269	0.099552	0.39196	0.043882	0.14347	0.33359	-1.7125	-2.4042	-2.3708	-2.3708	-2.5354	-2.5563	-2.3333	-2.5667	-2.3958	-2.7208	-2.575	-2.4437	-2.6167	-2.5979	-2.2958	-2.9229	396.825	535.440	471.664	467.479	460.448	471.210	528.170	460.531	458.915	494.990	428.188	282.151	473.757	372.015	353.892	429.806	0.0010931	0.00045628	0.00027394	1050.9	4.5995e-06	1.4848e-05	1231.2	426.46	6.3338e-06	5.862e-06	516.53	194.27	169.25	66.218	7.1464e-06	80.408	0.00036145	0.00029496	8.0982e-05	989.03	3.2146e-06	3.2646e-06	1157.4	400.67	3.4077e-06	3.2653e-06	484.12	182.47	159.68	63.177	3.3581e-06	76.153	524.092	205.226	281.331	189.799	337.960	333.096	187.687	194.589	298.191	316.359	191.973	195.922	198.713	205.037	309.596	200.822	-8191	255	
1472.917	1	1	0	0	0.33695	0.092633	0.29377	0.44211	0.10474	0.16781	0.24228	0.033936	0.035737	0.1874	0.18022	0.15135	0.10608	0.46065	0.28289	0.070064	-1.7979	-2.5167	-2.5812	-2.2479	-2.5938	-2.7083	-2.5438	-2.7	-2.2375	-2.5729	-2.6083	-2.2083	-2.5729	-2.4229	-2.2167	-2.5917	304.712	229.208	221.811	464.113	404.175	301.261	406.828	444.071	305.157	391.548	521.165	493.787	191.474	500.173	465.508	468.409	0.0010788	0.00045559	0.00023809	1055.5	2.683e-06	1.0307e-05	1242.8	431.51	1.1463e-05	8.7598e-06	519.11	194.84	170.13	67.277	2.4262e-06	81.326	0.00038207	0.00029559	8.2462e-05	992.98	3.3161e-06	3.3034e-06	1165.7	404.82	3.3339e-06	3.3424e-06	487.62	183.12	160.41	63.971	3.4669e-06	77.015	526.618	284.047	254.006	189.806	308.429	324.396	187.860	194.604	283.219	327.453	192.003	196.015	198.416	204.945	300.932	200.929	-8191	255	
1473.037	1	1	0	0	0.19425	0.073597	0.16854	0.065593	0.16782	0.019752	0.20904	0.10481	0.16289	0.22571	0.31183	0.1894	0.22423	0.25179	0.27621	0.30431	-1.8104	-2.3438	-2.6979	-2.2062	-2.45	-2.4333	-2.3542	-2.7396	-2.2875	-2.3208	-2.7854	-2.3417	-2.6271	-2.525	-2.1583	-2.9688	392.910	392.512	353.483	446.420	490.091	500.369	426.549	179.324	392.911	333.286	207.545	492.001	195.508	194.020	200.009	499.401	0.0010882	0.0005205	0.00022629	1061.8	4.2698e-06	4.2953e-06	1250	431.23	9.8118e-06	1.0786e-05	515.77	191.31	168.29	66.466	5.0479e-06	80.023	0.00038526	0.00031576	8.5986e-05	998.58	3.4356e-06	3.4178e-06	1170.8	405.39	3.5679e-06	3.4528e-06	485.28	179.97	158.69	63.417	3.5225e-06	75.646	527.073	232.576	278.635	189.757	337.576	336.723	187.834	194.584	281.137	324.578	192.022	195.987	198.676	204.860	267.542	200.958	-8191	255	
1473.133	1	1	0	0	0.14281	0.1264	0.35911	0.50513	0.1012	0.22871	0.13041	0.13373	0.018286	0.14561	0.14941	0.060248	0.2383	0.20728	0.075336	0.057908	-1.8208	-2.2812	-2.625	-2.3917	-2.5687	-2.4917	-2.5333	-2.7438	-2.175	-2.3792	-2.8333	-2.3646	-2.4375	-2.675	-2.2521	-2.6729	389.258	265.264	381.058	506.309	229.744	422.619	430.568	476.156	418.044	425.112	184.221	237.066	471.379	199.782	363.674	505.490	0.0010683	0.000229	0.00023815	1061.4	5.17e-06	8.1172e-06	1234.3	430.79	1.2318e-05	6.2577e-06	517.05	190.18	167.03	67.178	7.3347e-06	80.252	0.00039633	0.00032244	9.046e-05	997.86	3.6482e-06	3.5385e-06	1160.1	404.35	3.7691e-06	3.6333e-06	484.18	178.21	157.91	63.925	3.5879e-06	76.015	526.755	192.650	264.448	189.841	266.294	320.463	187.741	194.802	293.642	304.771	192.221	196.104	198.767	205.053	265.306	200.792	-8191	255	
1473.230	1	1	0	0	0.066769	0.22698	0.047592	0.11049	0.11469	0.039058	0.16801	0.22217	0.19575	0.14865	0.20338	0.18368	0.23378	0.18158	0.21734	0.40244	-1.8792	-2.3021	-2.6208	-2.35	-2.3917	-2.7479	-2.5458	-2.7146	-2.2729	-2.3625	-2.8292	-2.3	-2.4813	-2.8104	-2.1833	-2.5271	408.315	438.839	272.196	480.263	248.170	506.673	215.493	475.706	299.503	516.798	465.529	484.206	193.737	471.514	244.780	502.974	0.0010413	0.00092773	0.00021154	1061.7	7.9672e-06	7.8917e-06	1237.4	435.79	7.7684e-06	7.7868e-06	523.34	189.96	167.75	67.489	8.2839e-06	80.048	0.00039795	0.00033287	9.2242e-05	998.45	3.5817e-06	3.468e-06	1163.1	409.23	3.6446e-06	3.5707e-06	489.34	178.76	158.49	64.225	3.6497e-06	76.279	522.701	291.381	271.515	189.701	319.836	321.023	187.724	194.693	295.384	331.105	191.829	195.889	198.815	204.676	268.499	201.008	-8191	255	
1473.326	1	1	0	0	0.1246	0.31381	0.077531	0.18215	0.11087	0.14776	0.20153	0.24617	0.1872	0.30087	0.073062	0.13553	0.25147	0.13011	0.18209	0.2337	-2.05	-2.1042	-2.6458	-2.2438	-2.5479	-2.5104	-2.3333	-2.5479	-2.4833	-2.2188	-2.8312	-2.5354	-2.2875	-2.6896	-2.375	-2.6667	255.430	222.104	496.401	435.846	442.648	465.501	440.891	424.063	519.647	315.123	525.237	482.993	454.983	469.919	289.742	471.385	0.0011329	0.00079026	0.00022994	1071.2	7.0048e-06	4.2548e-06	1250.8	437.78	8.8442e-06	6.4525e-06	527.89	190.49	168.38	68.011	6.5267e-06	81.149	0.00040191	0.00031608	9.0609e-05	1005.3	3.7617e-06	3.5685e-06	1175.1	412.15	3.6892e-06	3.7124e-06	493.12	179	159.11	64.569	3.5921e-06	76.841	526.476	298.299	290.069	189.606	323.641	322.222	187.902	194.599	305.779	328.510	192.056	195.830	198.706	204.673	299.781	200.839	-8191	255	
1473.445	1	1	0	0	0.069609	0.039067	0.11557	0.2163	0.0406	0.024177	0.18918	0.12637	0.19922	0.10829	0.016726	0.072908	0.22795	0.15023	0.36577	0.18882	-1.8208	-1.9604	-2.4333	-2.5187	-2.1104	-2.6375	-2.3958	-2.7313	-2.7229	-2.1125	-2.8771	-2.6521	-2.2479	-2.8542	-2.3438	-2.5312	530.936	479.476	199.471	453.127	279.306	293.286	503.646	514.388	466.190	438.934	322.452	262.202	517.519	491.077	362.295	199.647	0.0010595	0.00058591	0.00030075	1078	6.2126e-06	2.8687e-06	1268	440.17	1.076e-05	6.4344e-06	528.04	189.93	168.2	67.388	6.1166e-06	80.547	0.00040095	0.00032496	9.2368e-05	1013.3	3.5879e-06	3.6082e-06	1186.4	414.59	3.5916e-06	3.552e-06	494.11	178.4	158.76	64.247	3.6479e-06	76.434	528.377	296.133	285.053	189.813	284.027	335.162	187.565	194.654	291.845	289.114	192.010	195.837	198.380	204.620	307.509	200.842	-8191	255	
1473.516	1	1	0	0	0.34795	0.36681	0.28627	0.20772	0.16222	0.22695	0.31462	0.23842	0.19074	0.1358	0.21475	0.28189	0.14255	0.20405	0.088107	0.12973	-2.3937	-2.1542	-2.5062	-2.5271	-2.2604	-2.5958	-2.5729	-2.3604	-2.5875	-2.2833	-2.5667	-2.4375	-2.3271	-2.7979	-2.3354	-2.3958	333.701	448.695	187.532	476.164	411.441	390.506	510.503	497.450	182.762	230.491	485.464	478.837	487.375	422.959	361.038	260.018	0.0010135	0.00093563	0.00020762	1075.1	4.9663e-06	8.8331e-06	1258.4	444.08	9.5483e-06	5.8446e-06	534.56	192.17	169.76	68.649	7.9921e-06	81.867	0.00038301	0.00032124	8.7719e-05	1008.7	3.6053e-06	3.3854e-06	1181	417.38	3.5739e-06	3.4019e-06	499.16	180.42	160.18	65.322	3.5944e-06	77.64	521.601	266.264	280.681	189.942	287.547	319.094	187.610	194.370	302.692	355.142	191.813	196.228	198.662	204.950	306.201	200.843	-8191	255	
1473.614	1	1	0	0	0.01498	0.20832	0.053982	0.06809	0.099596	0.082801	0.32516	0.38573	0.057294	0.15163	0.15377	0.30549	0.28291	0.57602	0.21223	0.1476	-2.3417	-2.3458	-2.3583	-2.6229	-2.2271	-2.3729	-2.5625	-2.3646	-2.9708	-2.3729	-2.5479	-2.6	-2.2646	-2.7896	-2.4854	-2.3583	270.846	431.917	265.326	496.160	510.886	304.080	485.480	246.262	340.603	403.538	477.568	452.358	527.323	526.280	373.209	471.267	0.0011099	0.00041715	6.9339e-05	1076.4	5.5616e-06	7.9623e-06	1262.2	449.52	9.9227e-06	5.7764e-06	541.41	193.19	171.24	69.382	1.1094e-05	82.792	0.00038627	0.00031795	8.8075e-05	1009.4	3.5654e-06	3.3632e-06	1184.2	422.5	3.5277e-06	3.4184e-06	506.26	181.96	161.31	66.165	3.5153e-06	78.756	526.767	269.027	230.574	189.832	303.318	342.731	187.744	194.533	288.874	319.778	192.157	195.854	198.909	204.893	296.030	200.604	-8191	255	
1473.733	1	1	0	0	0.03703	0.25412	0.046377	0.14058	0.18333	0.1469	0.2279	0.13016	0.3747	0.12513	0.30367	0.39134	0.31252	0.21099	0.27042	0.14456	-2.3396	-2.1917	-2.2771	-2.8438	-2.2542	-2.4875	-2.4042	-2.4896	-2.4354	-2.0646	-2.6625	-2.7396	-2.5042	-2.6146	-2.2167	-2.2708	502.641	406.113	487.248	191.268	436.736	360.760	465.793	493.384	292.109	482.735	482.273	468.230	407.931	187.654	510.204	413.553	0.0010996	0.00090418	8.7319e-05	1078.9	4.2501e-06	8.1752e-06	1275.8	454.17	5.3684e-06	1.3186e-05	547.72	195.51	172.48	70.093	5.7999e-06	83.355	0.00038943	0.00031795	8.9752e-05	1013.6	3.4526e-06	3.4363e-06	1196.6	426.41	3.4351e-06	3.4203e-06	511.94	183.74	162.58	66.67	3.5812e-06	79.365	523.085	298.884	236.909	189.912	306.455	313.581	187.652	194.575	324.630	324.441	192.240	195.977	198.562	204.727	264.997	200.967	-8191	255	
1473.829	1	1	0	0	0.11999	0.11647	0.19292	0.21312	0.13724	0.16604	0.37801	0.46452	0.084385	0.24791	0.14161	0.186	0.24182	0.19117	0.23726	0.073546	-2.1604	-2.4354	-2.225	-2.5792	-2.2604	-2.4062	-2.6479	-2.2792	-2.6688	-2.2417	-2.3208	-2.9396	-2.2396	-2.4521	-2.6688	-2.3229	287.715	458.429	529.973	489.550	307.736	400.689	468.651	525.218	319.892	402.627	435.134	536.179	189.182	529.768	417.771	492.220	0.0011673	0.00065613	0.00033006	1086.6	5.0568e-06	1.2655e-05	1272.6	455.09	1.1541e-05	1.0442e-05	542.97	193.96	170.29	69.692	3.2974e-06	82.872	0.00040013	0.00032707	9.0247e-05	1020.7	3.4779e-06	3.5428e-06	1197.7	428.28	3.5564e-06	3.4073e-06	509.91	182.12	160.99	66.072	3.5661e-06	78.454	523.733	275.840	253.677	190.020	331.636	294.835	187.771	194.304	298.730	323.366	191.791	195.751	198.895	204.881	310.634	200.860	-8191	255	
1473.925	1	1	0	0	0.22177	0.069197	0.24309	0.39252	0.1362	0.23535	0.23227	0.088797	0.19469	0.076381	0.061057	0.16328	0.33051	0.30554	0.22467	0.21304	-2.1375	-2.4771	-2.2542	-2.5979	-2.2	-2.4521	-2.6354	-2.2771	-2.4938	-2.6271	-2.3146	-2.65	-2.3833	-2.5667	-2.5458	-2.4354	461.914	453.631	359.764	530.623	310.754	435.527	513.939	205.477	275.526	272.302	485.657	445.148	509.485	470.092	430.933	466.484	0.0011452	0.0010127	0.00022756	1080.4	8.6292e-06	8.0442e-06	1274.6	456.03	1.3614e-05	5.4168e-06	545.81	192.46	170.44	69.561	7.8514e-06	82.697	0.00039863	0.0003203	8.9631e-05	1018	3.5791e-06	3.5325e-06	1198.3	428.04	3.6858e-06	3.6213e-06	509.82	180.5	160.81	66.223	3.602e-06	78.42	521.982	334.648	278.345	189.842	325.488	301.935	187.704	194.538	273.966	325.954	192.273	195.972	198.650	204.922	278.106	201.122	-8191	255	
1474.046	1	1	0	0	0.017235	0.17071	0.051706	0.21418	0.056962	0.18312	0.23234	0.16896	0.13066	0.12297	0.22944	0.29626	0.036419	0.087425	0.13653	0.24072	-1.9438	-2.2458	-2.4375	-2.9062	-2.0917	-2.4833	-2.7917	-2.2562	-2.5021	-2.5812	-2.375	-2.6646	-2.5292	-2.5604	-2.6333	-2.1958	401.813	453.308	525.572	481.638	317.347	517.320	536.293	503.653	215.648	272.649	496.482	448.772	356.918	508.798	455.122	424.362	0.0010591	0.00072019	0.00025131	1092.8	5.7924e-06	1.2237e-05	1281.1	457.82	8.7986e-06	8.553e-06	548.52	190.98	170.27	69.108	9.5074e-06	82.535	0.00039851	0.00033118	9.2216e-05	1024.3	3.5329e-06	3.5902e-06	1203.3	430.17	3.627e-06	3.5824e-06	512.36	179.78	160.88	66.009	3.6148e-06	78.113	523.607	274.928	272.375	189.732	291.721	339.466	187.690	194.308	291.908	320.740	192.027	195.927	198.715	204.932	302.712	200.674	-8191	255	
1474.142	1	1	0	0	0.064167	0.13072	0.10443	0.42384	0.081714	0.064648	0.04946	0.24651	0.17149	0.098321	0.19942	0.22807	0.22411	0.32893	0.0864	0.1972	-2.05	-2.6125	-2.075	-2.6604	-2.6854	-2.5729	-2.6771	-2.3292	-2.3667	-2.7375	-2.2646	-2.5187	-2.5979	-2.4833	-2.5604	-2.2687	420.718	478.729	435.706	516.247	191.478	482.443	459.694	443.198	248.938	503.261	219.969	177.464	495.451	495.910	531.419	420.667	0.0010378	0.00063986	0.00016331	1094.1	7.0768e-06	6.1929e-06	1285.4	458.75	1.0839e-05	6.9738e-06	550.92	193.59	171.12	70.585	7.6652e-06	84.041	0.00040744	0.00033649	9.2651e-05	1027.3	3.6439e-06	3.5993e-06	1207.9	431.4	3.8037e-06	3.714e-06	515.26	181.46	161.56	67.018	3.7474e-06	79.629	525.920	257.200	283.400	189.890	298.286	332.031	187.799	194.433	335.602	321.510	192.177	195.850	198.806	204.797	300.137	200.649	-8191	255	
1474.214	1	1	0	0	0.52669	0.17338	0.15262	0.38201	0.22304	0.21091	0.2206	0.066364	0.16004	0.19507	0.31346	0.29332	0.23838	0.064588	0.084713	0.32448	-1.9229	-2.4833	-2.3312	-2.8292	-2.3312	-2.2792	-2.9688	-2.25	-2.4188	-2.7438	-2.4104	-2.7062	-2.3125	-2.3208	-2.7792	-2.5083	322.143	463.789	483.811	475.153	196.585	348.452	217.080	310.036	288.397	362.867	481.695	518.357	384.295	453.730	231.216	492.147	0.0011641	0.0006334	0.00026191	1090.8	8.5448e-06	1.1183e-05	1284	460.55	8.0562e-06	1.1944e-05	552.43	192.65	170.86	70.584	8.6411e-06	83.743	0.00041592	0.00033376	9.4962e-05	1024.5	3.6405e-06	3.6346e-06	1206	432.59	3.7914e-06	3.6928e-06	515.83	180.67	161.39	66.997	3.7849e-06	79.343	525.160	276.547	292.076	189.711	321.578	318.373	187.772	194.596	289.800	361.993	191.917	195.919	199.022	204.614	327.830	200.900	-8191	255	
1474.310	1	1	0	0	0.23108	0.08928	0.23975	0.057161	0.087067	0.0569	0.25722	0.27993	0.18367	0.078726	0.26936	0.16803	0.21106	0.20728	0.091597	0.12013	-1.7667	-2.5521	-2.2521	-2.6083	-2.4354	-2.0896	-2.7104	-2.6333	-2.1771	-2.6583	-2.1125	-2.4833	-2.6188	-2.4062	-2.7708	-2.4354	343.845	379.281	189.340	380.344	377.406	209.272	505.949	478.933	407.814	215.604	517.753	181.575	451.549	203.130	217.851	502.365	0.0010508	0.00073311	0.00010233	1084.9	6.4871e-06	7.4074e-06	1275	458.57	8.7415e-06	4.3974e-06	548.4	191.79	169.99	70.26	7.0502e-06	83.196	0.00040861	0.00034252	9.7426e-05	1018.8	3.6932e-06	3.7254e-06	1196.6	431.85	3.9052e-06	3.7347e-06	514.19	180.37	161.29	66.775	3.8432e-06	79.036	526.018	277.333	258.791	189.794	286.117	320.821	187.479	194.646	316.055	326.265	192.093	195.954	198.551	205.017	348.065	200.764	-8191	255	
1474.429	1	1	0	0	0.19446	0.24933	0.10786	0.16341	0.23224	0.064564	0.28672	0.2564	0.19637	0.088513	0.18418	0.30017	0.35988	0.23591	0.10106	0.10166	-1.6437	-2.5396	-2.3604	-2.4813	-2.4062	-2.0187	-2.7062	-2.5646	-2.1646	-2.5333	-2.3479	-2.5812	-2.7938	-2.2958	-2.3937	-2.4938	260.782	456.080	374.924	494.954	223.499	343.582	238.988	470.010	335.429	390.628	257.412	183.000	531.750	533.091	258.342	202.780	0.001092	0.00090988	0.00021633	1086.2	6.2427e-06	5.5324e-06	1281.5	461.48	8.7607e-06	9.3301e-06	552.74	193.07	170.95	70.198	8.5707e-06	83.116	0.00042	0.00034191	9.58e-05	1022.5	3.705e-06	3.7115e-06	1202.5	432.83	3.814e-06	3.6657e-06	516.54	180.94	161.64	66.82	3.9678e-06	78.964	524.147	273.523	251.513	189.826	320.603	292.685	188.173	194.553	316.949	326.530	192.423	196.113	198.645	204.868	281.289	200.843	-8191	255	
1474.525	1	1	0	0	0.3076	0.20714	0.2148	0.28759	0.19465	0.060741	0.27083	0.24432	0.066024	0.1212	0.14254	0.068569	0.30705	0.32127	0.17383	0.18673	-1.7812	-2.5917	-2.2479	-2.4229	-2.6958	-2.3146	-2.775	-2.4646	-2.0208	-2.55	-2.3146	-2.6146	-2.9688	-2.2	-2.4042	-2.5104	204.820	290.640	287.135	482.170	211.101	283.892	487.408	492.948	299.394	517.125	535.608	522.023	183.185	207.888	282.365	491.384	0.0011202	0.00063311	0.00019676	1100.7	5.2365e-06	5.9679e-06	1291.2	464.54	8.3297e-06	9.6569e-06	555.03	194.79	172.62	70.676	6.2317e-06	83.776	0.00042237	0.00035162	9.5506e-05	1029.4	3.7458e-06	3.6914e-06	1211.6	435.89	3.7445e-06	3.7543e-06	519.84	182.16	162.89	67.229	3.8164e-06	79.697	528.950	276.225	302.929	189.741	285.668	330.207	187.723	194.501	272.664	315.442	192.084	195.841	198.527	204.988	267.007	201.300	-8191	255	
1474.621	1	1	0	0	0.15045	0.14573	0.15852	0.16869	0.089548	0.26535	0.18051	0.29159	0.044521	0.14266	0.16809	0.23825	0.2707	0.23224	0.10608	0.059643	-1.5208	-2.5125	-2.3646	-2.4875	-2.7271	-2.0125	-2.5396	-2.5604	-2.0521	-2.6458	-2.6	-2.4729	-2.7938	-2.3333	-2.1625	-2.6604	522.927	319.845	452.555	424.263	432.381	178.263	517.267	461.481	487.835	345.614	463.976	495.812	465.777	482.483	256.012	511.166	0.0010444	0.00093619	0.00027754	1096.2	5.3109e-06	7.7324e-06	1295.4	465.26	1.1542e-05	5.4626e-06	555.15	191.32	170.25	69.877	3.8281e-06	83.373	0.00041408	0.00033235	9.6554e-05	1032.6	3.7014e-06	3.7297e-06	1215.8	436.54	3.7396e-06	3.7602e-06	519.62	179.73	161.1	66.677	3.8553e-06	79.062	526.268	255.026	270.350	189.751	305.316	310.111	187.585	194.500	266.152	367.044	192.050	195.906	198.486	205.106	267.272	200.935	-8191	255	
1474.717	1	1	0	0	0.090005	0.077845	0.093663	0.095474	0.17177	0.13302	0.088598	0.15806	0.35309	0.12061	0.27875	0.27934	0.2462	0.2973	0.027347	0.32318	-1.7687	-2.5917	-2.5771	-2.3187	-2.6958	-2.2375	-2.6479	-2.4896	-2.1229	-2.6042	-2.5729	-2.3396	-2.9604	-2.4354	-2.4813	-2.7833	454.788	480.653	326.670	492.589	513.042	186.478	186.598	452.209	517.131	244.817	491.932	505.494	188.973	188.165	436.689	440.729	0.0011565	0.0010643	0.00022079	1086.2	7.7955e-06	7.427e-06	1277.1	461.54	8.8646e-06	1.1087e-05	549.07	187.33	168.75	69.929	7.9919e-06	83.127	0.00042634	0.00036001	0.00010002	1022.7	3.8931e-06	3.9292e-06	1197.7	432.97	4.1521e-06	3.9156e-06	513.87	176.65	159.32	66.66	4.158e-06	78.918	523.279	284.809	236.047	189.822	273.444	301.056	187.526	194.565	305.327	291.490	191.911	195.927	198.793	205.063	312.788	200.475	-8191	255	
1474.813	1	1	0	0	0.20443	0.083441	0.048534	0.34718	0.10378	0.14052	0.33955	0.1934	0.15391	0.037804	0.2066	0.38566	0.11711	0.21552	0.075207	0.33201	-1.5854	-2.6104	-2.4938	-2.2271	-2.5729	-2.2687	-2.4083	-2.6604	-2.1771	-2.6542	-2.6896	-2.4062	-2.8104	-2.6937	-2.1625	-2.6667	445.686	504.418	324.597	436.847	190.172	473.197	478.300	479.537	407.016	250.080	496.056	481.140	274.133	441.984	317.893	512.665	0.0011212	0.00063146	0.00019606	1085.2	6.2359e-06	9.5165e-06	1271.5	459.71	7.7398e-06	3.9495e-06	550.41	187.62	169.21	70.708	4.7172e-06	83.657	0.00043295	0.00036231	0.00010342	1020.4	4.0645e-06	4.1921e-06	1197.1	433.71	4.1187e-06	4.0772e-06	516.36	176.01	159.84	66.915	4.044e-06	79.46	524.680	230.147	281.416	189.634	328.415	298.230	187.819	194.743	259.458	283.048	192.502	195.760	198.538	204.601	322.597	201.026	-8191	255	
1474.910	1	1	0	0	0.088057	0.098173	0.24137	0.197	0.11351	0.30659	0.25568	0.20338	0.19254	0.12814	0.36468	0.14806	0.30631	0.24564	0.22126	0.14744	-1.5104	-2.3854	-2.425	-2.2104	-2.5917	-2.4042	-2.5438	-2.8146	-2.4313	-2.7333	-2.6375	-2.2375	-2.7646	-2.4604	-2.2375	-2.6479	490.334	274.840	522.940	482.158	499.334	523.426	271.574	374.946	346.192	261.802	520.281	462.770	489.097	451.358	298.578	481.391	0.0011848	0.0006597	0.00023527	1092.5	9.0811e-06	5.0659e-06	1291.6	467.3	1.0268e-05	9.886e-06	562.8	191.93	172.24	71.961	5.0963e-06	85.817	0.0004272	0.00036212	9.8209e-05	1024.1	3.8666e-06	3.8213e-06	1209.3	439.84	3.9549e-06	3.8027e-06	525.43	180.51	162.75	68.353	3.8328e-06	81.341	526.893	262.659	294.129	189.975	321.330	312.333	187.943	194.714	284.543	348.751	192.315	196.099	198.569	205.104	305.801	200.730	-8191	255	
1475.006	1	1	0	0	0.25881	0.14872	0.13527	0.25175	0.15101	0.057324	0.36765	0.19713	0.12086	0.20835	0.14789	0.14252	0.42776	0.205	0.13181	0.12978	-1.6708	-2.4604	-2.5854	-2.3563	-2.625	-2.4792	-2.3875	-2.8667	-2.4437	-2.45	-2.8708	-2.1229	-2.6167	-2.3708	-2.1333	-2.8063	506.195	191.892	490.604	177.471	348.475	400.744	483.926	532.891	210.076	193.803	204.256	190.278	496.299	302.267	268.994	517.714	0.0011353	0.001069	0.00022638	1101.9	7.9342e-06	9.699e-06	1297.4	471.49	1.3359e-05	9.7042e-06	563.93	194.53	173.46	71.628	8.9383e-06	85.543	0.00040742	0.00033758	9.4459e-05	1032.3	3.6153e-06	3.5599e-06	1221	442.3	3.7653e-06	3.6129e-06	527.91	182.6	163.91	68.253	3.591e-06	81.263	525.497	258.569	267.566	189.845	307.215	340.094	187.988	194.533	291.641	318.613	191.768	195.753	198.560	204.888	310.938	200.701	-8191	255	
1475.126	1	1	0	0	0.23349	0.14584	0.14636	0.38132	0.084801	0.19894	0.027131	0.16237	0.23607	0.06086	0.33996	0.073922	0.25889	0.16842	0.215	0.14345	-2.0333	-2.4313	-2.7375	-2.4542	-2.4188	-2.6021	-2.5104	-2.7083	-2.4479	-2.2208	-2.5958	-2.5229	-2.8542	-2.5625	-2.1479	-2.8104	451.203	371.446	315.397	478.680	341.468	202.834	319.494	503.280	514.021	304.835	183.721	423.144	176.570	511.285	395.968	441.604	0.0011391	0.0005773	0.00023992	1100.3	6.7256e-06	1.3375e-05	1294	471.12	7.7623e-06	7.081e-06	560.77	193.2	172.42	71.436	3.2408e-06	85.299	0.00040494	0.00032443	9.0206e-05	1032	3.6143e-06	3.5065e-06	1214	441.2	3.6929e-06	3.647e-06	524.65	181.29	162.51	68.101	3.8516e-06	80.721	525.834	289.399	218.250	189.796	331.319	319.962	187.867	194.502	304.482	315.343	192.017	195.786	198.474	204.644	345.222	201.080	-8191	255	
1475.223	1	1	0	0	0.25497	0.044908	0.060515	0.18797	0.13445	0.078168	0.15064	0.20449	0.039871	0.20412	0.081904	0.39969	0.11621	0.12114	0.072276	0.18195	-1.9708	-2.3479	-2.5625	-2.1625	-2.2958	-2.4708	-2.3854	-2.6146	-2.5125	-2.2271	-2.6646	-2.2354	-2.4646	-2.6688	-2.2542	-2.7188	440.805	337.061	463.228	523.934	311.054	366.634	487.889	451.123	392.418	359.210	418.055	466.796	431.591	504.165	455.561	531.076	0.0011737	0.00088557	0.00015449	1084.6	1.2494e-05	8.8764e-06	1280.2	468.04	9.4286e-06	1.1427e-05	559.34	189.79	170.76	71.637	5.7504e-06	85.756	0.00041702	0.00034818	9.7117e-05	1019.9	3.9613e-06	3.8604e-06	1200	439.88	4.013e-06	3.9433e-06	523.24	178.3	161.19	68.078	4.0892e-06	81.109	523.895	266.112	235.251	189.939	301.415	300.876	187.985	194.558	317.083	327.809	192.144	195.713	198.597	204.684	357.161	200.824	-8191	255	
1475.319	1	1	0	0	0.047894	0.12669	0.029769	0.17631	0.040634	0.28473	0.25474	0.059126	0.11675	0.12982	0.091089	0.14824	0.071754	0.10828	0.23843	0.14976	-1.7208	-2.0125	-2.3979	-2.4771	-2.3812	-2.5896	-2.475	-2.6229	-2.4271	-2.1188	-2.5979	-2.2667	-2.4437	-2.7917	-2.2812	-2.6063	196.659	259.026	419.847	327.092	265.381	294.923	463.155	516.096	477.991	334.120	459.989	508.997	531.354	478.573	410.043	296.308	0.0011089	0.00085889	0.00025711	1082.4	6.5516e-06	1.1068e-05	1272.9	469.96	4.3245e-06	5.3854e-06	561.79	189.11	170.53	71.589	4.9977e-06	85.753	0.00044058	0.00036447	0.00010283	1016.5	4.0402e-06	3.9132e-06	1197.4	442.37	4.0937e-06	4.1496e-06	525.96	177.79	161.11	68.116	4.0341e-06	81.277	525.332	266.629	241.949	190.139	278.391	345.642	187.919	194.843	324.026	286.377	192.172	196.330	198.698	204.626	286.106	200.788	-8191	255	
1475.415	1	1	0	0	0.20559	0.11402	0.12128	0.21698	0.211	0.053003	0.10234	0.32567	0.028471	0.11021	0.24861	0.26973	0.21367	0.18508	0.28649	0.081048	-1.8333	-2.1417	-2.7042	-2.4917	-2.3042	-2.4437	-2.2271	-2.6271	-2.5042	-2.0729	-2.8396	-2.6833	-2.4833	-2.7542	-2.4083	-2.6312	405.350	343.380	521.900	502.740	271.235	481.581	204.439	489.037	402.540	426.219	520.213	508.629	392.303	474.108	297.485	443.079	0.0011037	0.00042481	0.00022542	1085	6.3502e-06	1.0246e-05	1277.7	467.79	8.3521e-06	4.6897e-06	557.04	187.47	169.59	71.172	8.3968e-06	85.226	0.00044071	0.00037424	0.00010403	1019.1	4.0654e-06	4.0305e-06	1199.2	440.47	4.0867e-06	3.9628e-06	523.04	176.34	160.29	67.789	4.1675e-06	80.633	524.648	244.267	229.407	189.972	294.008	333.661	187.684	194.619	268.621	334.036	192.299	195.960	198.688	204.699	282.994	201.039	-8191	255	
1475.509	1	1	0	0	0.13608	0.21744	0.12442	0.34349	0.22551	0.053205	0.3624	0.34691	0.079949	0.11774	0.20203	0.28351	0.28528	0.12556	0.06371	0.49801	-2.0875	-2.2979	-2.6146	-2.5542	-2.3083	-2.7042	-2.5625	-2.4979	-2.6375	-2.3021	-2.8271	-2.5	-2.5542	-2.7562	-2.2521	-2.5042	396.855	212.388	476.968	536.500	394.234	215.345	465.950	487.561	337.108	480.690	344.621	524.987	467.898	448.824	254.138	485.912	0.0010635	0.0013681	0.00027338	1076.5	5.413e-06	7.8159e-06	1267.8	471.03	6.1498e-06	8.2682e-06	560.77	187.63	170.23	71.179	9.5091e-06	84.867	0.0004353	0.00036805	0.00010539	1014	4.0903e-06	3.931e-06	1191.9	442.71	4.1214e-06	3.9762e-06	525.37	176.17	160.61	67.747	4.0811e-06	80.753	525.777	277.880	257.501	189.950	308.599	285.879	188.020	194.550	299.823	313.612	192.252	196.063	198.651	204.867	260.200	200.929	-8191	255	
1475.605	1	1	0	0	0.28418	0.17122	0.25354	0.28687	0.27116	0.1887	0.26802	0.32221	0.045033	0.20917	0.16509	0.22239	0.21425	0.34596	0.12038	0.48842	-2.0646	-2.2396	-2.6583	-2.4833	-2.3021	-2.6708	-2.5708	-2.4667	-2.5083	-2.4833	-2.5958	-2.9375	-2.45	-2.6562	-2.4083	-2.3542	252.854	482.169	216.150	204.554	191.932	345.550	480.725	457.520	323.934	273.660	515.119	488.686	494.090	494.151	392.745	480.277	0.001161	0.0008025	6.5202e-05	1080	8.0983e-06	3.8106e-06	1273.9	471.7	6.7814e-06	9.9716e-06	556.87	187.32	169.98	71.192	3.5528e-06	85.208	0.00043405	0.00037763	0.00010504	1014.5	4.0213e-06	3.9159e-06	1194.5	443.32	4.0201e-06	3.9299e-06	524.39	176.17	160.6	67.701	3.9303e-06	80.885	522.346	271.443	241.802	189.936	315.765	244.774	187.878	194.745	306.864	326.103	192.618	195.905	198.668	204.917	322.465	200.733	-8191	255	
1475.726	1	1	0	0	0.14776	0.19332	0.15913	0.17545	0.22527	0.12217	0.11706	0.13756	0.1263	0.31395	0.12405	0.24922	0.21108	0.16725	0.1196	0.32851	-2.4062	-2.4333	-2.4958	-2.6375	-2.2542	-2.6583	-2.5708	-2.3563	-2.5729	-2.3917	-2.6583	-2.7313	-2.4146	-2.8896	-2.3292	-2.4375	219.094	514.837	201.261	190.394	263.819	235.649	443.785	191.957	213.427	370.489	466.760	501.013	188.476	499.564	489.565	439.464	0.0010938	0.00059179	0.00031523	1082.3	3.9437e-06	4.1587e-06	1276.5	472.77	8.7112e-06	9.0828e-06	564.82	188.19	171.59	71.897	7.0532e-06	85.834	0.00042733	0.00036169	0.00010161	1016.2	4.0392e-06	3.9674e-06	1199.6	445.07	3.9926e-06	4.0577e-06	530.49	177.57	161.95	68.348	4.0435e-06	81.806	527.397	258.104	291.043	189.931	272.274	315.513	188.039	194.530	303.230	298.431	192.401	196.058	198.513	204.885	296.512	200.824	-8191	255	
1475.822	1	1	0	0	0.16481	0.18488	0.28371	0.19672	0.076033	0.2026	0.18684	0.073798	0.20509	0.21941	0.2241	0.18332	0.095574	0.20714	0.083332	0.2916	-2.2542	-2.1583	-2.4354	-2.5875	-2.1958	-2.6146	-2.5375	-2.3187	-2.4813	-2.2062	-2.4833	-2.9125	-2.1562	-2.6479	-2.5646	-2.3792	355.680	258.879	521.105	500.730	421.891	290.461	469.590	189.412	399.580	510.518	461.396	532.756	462.910	478.814	262.416	482.605	0.001175	0.00046528	0.00030629	1081.4	6.0222e-06	9.2009e-06	1274.8	471.92	1.0064e-05	7.419e-06	563.88	187.61	170.18	71.986	8.6477e-06	85.648	0.00043035	0.00035826	0.00010138	1016.8	3.9735e-06	3.8753e-06	1198.9	443.63	4.007e-06	3.9941e-06	526.84	176.82	161.12	68.2	3.9248e-06	81.269	525.137	254.432	279.476	189.776	291.014	327.681	187.910	194.842	308.747	335.729	192.439	196.029	198.467	204.678	300.554	201.076	-8191	255	
1475.918	1	1	0	0	0.15242	0.16625	0.21781	0.10017	0.25303	0.094933	0.070478	0.14132	0.09062	0.32765	0.16529	0.2175	0.38158	0.17636	0.13347	0.27819	-2.0792	-2.3792	-2.4708	-2.5729	-2.2354	-2.4146	-2.6063	-1.9667	-2.4667	-2.1771	-2.3187	-3.0292	-2.2146	-2.4521	-2.5125	-2.4437	451.411	504.973	208.523	434.991	520.907	297.543	489.013	495.724	198.474	457.587	505.000	464.996	532.184	509.057	404.621	417.317	0.0011605	0.00014182	0.00018526	1079	4.1028e-06	5.0221e-06	1271.2	468.12	8.0204e-06	1.355e-05	561.45	187.25	170.55	71.57	6.3354e-06	85.228	0.00043062	0.00034852	0.00010151	1013.7	4.0314e-06	3.9958e-06	1195.7	442.1	4.1396e-06	3.9655e-06	525.31	176.27	160.83	67.997	4.1257e-06	80.936	528.139	204.758	263.821	190.042	274.724	308.054	187.935	194.942	290.920	358.239	192.154	196.110	198.480	204.830	290.408	200.856	-8191	255	
1476.014	1	1	0	0	0.25654	0.10833	0.16813	0.28277	0.11304	0.089424	0.26368	0.40427	0.037536	0.06365	0.24017	0.30726	0.21957	0.26188	0.16363	0.29275	-1.9667	-2.3375	-2.3271	-2.7646	-2.3229	-2.4062	-2.8208	-2.35	-2.5375	-2.2562	-2.1375	-2.8396	-2.4375	-2.4792	-2.525	-2.3771	375.880	286.706	445.350	508.265	312.166	520.130	442.721	460.737	443.804	258.248	290.785	504.400	474.878	500.323	273.777	517.667	0.001095	0.00037983	0.00018577	1084.7	9.4396e-06	2.4137e-06	1280.2	470.88	7.9951e-06	1.0879e-05	563.57	187.62	170.59	71.466	5.5113e-06	86.002	0.00044579	0.00036229	0.00010233	1018.2	3.9918e-06	3.9839e-06	1199.1	444.29	3.9926e-06	3.9173e-06	527.37	176.68	161.27	68.042	4.0768e-06	81.317	520.004	250.637	248.255	190.184	314.435	346.987	187.741	194.514	269.192	308.142	192.534	195.775	198.393	204.968	302.000	200.818	-8191	255	
1476.111	1	1	0	0	0.15802	0.26359	0.16702	0.20815	0.032021	0.098221	0.31081	0.31499	0.39227	0.22016	0.28887	0.10773	0.089673	0.19105	0.041756	0.096049	-2.3208	-2.5938	-2.1	-2.7125	-2.2271	-2.4854	-2.8354	-2.4083	-2.4521	-2.4229	-2.4104	-2.8021	-2.6396	-2.5854	-2.4917	-2.2354	367.760	414.534	184.350	510.078	236.474	295.494	473.282	427.085	258.371	411.699	451.193	457.893	196.172	515.992	426.869	434.733	0.00116	0.00097199	0.00017968	1087.2	3.142e-06	9.3929e-06	1283.6	472.11	1.2801e-05	8.3253e-06	565.06	190.97	172.16	72.061	6.8401e-06	86.422	0.00044533	0.00036622	0.00010228	1020.6	4.0536e-06	3.973e-06	1205.6	445.52	4.0477e-06	3.9335e-06	530.34	178.75	162.5	68.443	3.9375e-06	81.765	524.463	269.786	218.034	189.905	324.142	311.155	187.998	194.533	293.855	283.492	192.252	196.040	198.553	204.944	317.664	200.952	-8191	255	
#DATA ENDS
