BOXY.EXE: ISS Imagent and Oximeter Data Acquisition Program Version 0.80
Ascii Record File

#ACQ INFORMATION
2  Detector Channels 
16  External MUX Channels 
1  Auxiliary Channels 
5000  Waveform (CCF) Frequency (Hz)
1  Waveforms Skipped 
30  Waveforms Averaged 
1  Cycles Averaged 
16  Acquisitions per Waveform 
10.0806  Updata Rate (Hz) 

#FILE INFORMATION
TRUE -- External MUX Channel results are PARSED.
FALSE -- AC DC and Phase are NOT grouped.
TRUE -- Companion Program Settings File CREATED.
FALSE -- AC data not excluded
FALSE -- DC data not excluded
FALSE -- Phase data not excluded
FALSE -- Auxillary Chn. data not excluded
Tab delimiters

#CALIBRATION STATE
TRUE -- Waveform Calibration Values APPLIED.


#AUX CALIBRATION VALUES
Val Type	aux-1	

Term	1.0000e+00	
Factor	0.0000e+00	


#WF CALIBRATION VALUES
A = Detector Channel
Val Type	A-AC1	A-AC2	A-AC3	A-AC4	A-AC5	A-AC6	A-AC7	A-AC8	A-AC9	A-AC10	A-AC11	A-AC12	A-AC13	A-AC14	A-AC15	A-AC16	A-DC1	A-DC2	A-DC3	A-DC4	A-DC5	A-DC6	A-DC7	A-DC8	A-DC9	A-DC10	A-DC11	A-DC12	A-DC13	A-DC14	A-DC15	A-DC16	A-Ph1	A-Ph2	A-Ph3	A-Ph4	A-Ph5	A-Ph6	A-Ph7	A-Ph8	A-Ph9	A-Ph10	A-Ph11	A-Ph12	A-Ph13	A-Ph14	A-Ph15	A-Ph16	

Term	0.00000e+00	0.00000e+00	0.00000e+00	0.00000e+00	0.00000e+00	0.00000e+00	0.00000e+00	0.00000e+00	0.00000e+00	0.00000e+00	0.00000e+00	0.00000e+00	0.00000e+00	0.00000e+00	0.00000e+00	0.00000e+00	0.00000e+00	0.00000e+00	0.00000e+00	0.00000e+00	0.00000e+00	0.00000e+00	0.00000e+00	0.00000e+00	0.00000e+00	0.00000e+00	0.00000e+00	0.00000e+00	0.00000e+00	0.00000e+00	0.00000e+00	0.00000e+00	0.00000e+00	0.00000e+00	0.00000e+00	0.00000e+00	0.00000e+00	0.00000e+00	0.00000e+00	0.00000e+00	0.00000e+00	0.00000e+00	0.00000e+00	0.00000e+00	0.00000e+00	0.00000e+00	0.00000e+00	0.00000e+00	
Factor	1.00000e+00	1.00000e+00	1.00000e+00	1.00000e+00	1.00000e+00	1.00000e+00	1.00000e+00	1.00000e+00	1.00000e+00	1.00000e+00	1.00000e+00	1.00000e+00	1.00000e+00	1.00000e+00	1.00000e+00	1.00000e+00	1.00000e+00	1.00000e+00	1.00000e+00	1.00000e+00	1.00000e+00	1.00000e+00	1.00000e+00	1.00000e+00	1.00000e+00	1.00000e+00	1.00000e+00	1.00000e+00	1.00000e+00	1.00000e+00	1.00000e+00	1.00000e+00	X	X	X	X	X	X	X	X	X	X	X	X	X	X	X	X	

B = Detector Channel
Val Type	B-AC1	B-AC2	B-AC3	B-AC4	B-AC5	B-AC6	B-AC7	B-AC8	B-AC9	B-AC10	B-AC11	B-AC12	B-AC13	B-AC14	B-AC15	B-AC16	B-DC1	B-DC2	B-DC3	B-DC4	B-DC5	B-DC6	B-DC7	B-DC8	B-DC9	B-DC10	B-DC11	B-DC12	B-DC13	B-DC14	B-DC15	B-DC16	B-Ph1	B-Ph2	B-Ph3	B-Ph4	B-Ph5	B-Ph6	B-Ph7	B-Ph8	B-Ph9	B-Ph10	B-Ph11	B-Ph12	B-Ph13	B-Ph14	B-Ph15	B-Ph16	

Term	0.00000e+00	0.00000e+00	0.00000e+00	0.00000e+00	0.00000e+00	0.00000e+00	0.00000e+00	0.00000e+00	0.00000e+00	0.00000e+00	0.00000e+00	0.00000e+00	0.00000e+00	0.00000e+00	0.00000e+00	0.00000e+00	0.00000e+00	0.00000e+00	0.00000e+00	0.00000e+00	0.00000e+00	0.00000e+00	0.00000e+00	0.00000e+00	0.00000e+00	0.00000e+00	0.00000e+00	0.00000e+00	0.00000e+00	0.00000e+00	0.00000e+00	0.00000e+00	-1.61556e+02	-1.24365e+02	-1.24460e+02	-1.82575e+02	-7.77226e+01	-7.02735e+01	-1.54563e+02	-1.62015e+02	-7.99118e+01	-7.08945e+01	-1.79593e+02	-1.70828e+02	-1.78793e+02	-1.75846e+02	-8.48453e+01	-1.49068e+02	
Factor	2.31970e-05	1.41556e-04	4.23880e-05	1.51486e-01	1.25884e-06	1.81699e-06	1.63316e-01	6.36777e-02	1.50327e-06	1.86341e-06	9.72382e-02	2.82179e-02	2.41845e-02	8.33549e-03	1.21540e-06	1.19969e-02	3.25825e-06	3.66651e-06	1.02321e-06	7.89026e-02	3.94916e-08	4.01200e-08	7.99932e-02	3.30394e-02	3.96832e-08	4.01801e-08	4.87438e-02	1.42351e-02	1.27408e-02	4.36714e-03	3.97856e-08	6.09645e-03	X	X	X	X	X	X	X	X	X	X	X	X	X	X	X	X	



#DISTANCE SETTINGS
A = Detector Channel
A-1	A-2	A-3	A-4	A-5	A-6	A-7	A-8	A-9	A-10	A-11	A-12	A-13	A-14	A-15	A-16	

2.5000e+00	3.0000e+00	2.5000e+00	3.0000e+00	2.0000e+00	3.0000e+00	1.5000e+00	3.0000e+00	3.0000e+00	3.0000e+00	3.0000e+00	3.0000e+00	3.0000e+00	3.0000e+00	1.5000e+00	3.0000e+00	

B = Detector Channel
B-1	B-2	B-3	B-4	B-5	B-6	B-7	B-8	B-9	B-10	B-11	B-12	B-13	B-14	B-15	B-16	

1.0000e+01	1.0000e+01	1.0000e+01	1.4400e+00	1.0000e+01	1.0000e+01	1.5100e+00	1.9400e+00	1.0000e+01	1.0000e+01	1.9900e+00	2.4900e+00	2.4100e+00	2.9000e+00	1.0000e+01	2.9800e+00	




#DATA BEGINS
time	group	step	mark	flag	A-AC1	A-AC2	A-AC3	A-AC4	A-AC5	A-AC6	A-AC7	A-AC8	A-AC9	A-AC10	A-AC11	A-AC12	A-AC13	A-AC14	A-AC15	A-AC16	A-DC1	A-DC2	A-DC3	A-DC4	A-DC5	A-DC6	A-DC7	A-DC8	A-DC9	A-DC10	A-DC11	A-DC12	A-DC13	A-DC14	A-DC15	A-DC16	A-Ph1	A-Ph2	A-Ph3	A-Ph4	A-Ph5	A-Ph6	A-Ph7	A-Ph8	A-Ph9	A-Ph10	A-Ph11	A-Ph12	A-Ph13	A-Ph14	A-Ph15	A-Ph16	B-AC1	B-AC2	B-AC3	B-AC4	B-AC5	B-AC6	B-AC7	B-AC8	B-AC9	B-AC10	B-AC11	B-AC12	B-AC13	B-AC14	B-AC15	B-AC16	B-DC1	B-DC2	B-DC3	B-DC4	B-DC5	B-DC6	B-DC7	B-DC8	B-DC9	B-DC10	B-DC11	B-DC12	B-DC13	B-DC14	B-DC15	B-DC16	B-Ph1	B-Ph2	B-Ph3	B-Ph4	B-Ph5	B-Ph6	B-Ph7	B-Ph8	B-Ph9	B-Ph10	B-Ph11	B-Ph12	B-Ph13	B-Ph14	B-Ph15	B-Ph16	aux-1	digaux	

631.539	1	1	0	768	0.39177	0.16654	0.21751	0.33463	0.1203	0.041161	0.12381	0.13044	0.20643	0.26082	0.24199	0.20926	0.088701	0.36134	0.037279	0.21648	-2.8333	-2.7417	-2.9062	-3.4708	-2.8688	-3.0708	-3.0812	-2.9292	-3.3063	-2.8083	-2.9938	-3.2625	-2.7771	-3.0417	-3.1854	-2.7375	114.978	-23.147	328.012	332.524	261.489	193.735	191.001	293.420	273.734	195.989	1.442	293.557	226.920	272.299	243.244	324.853	0.00029472	0.00042512	0.00011612	1367.8	2.152e-06	6.23e-06	1362.5	369.42	5.1201e-06	1.4727e-06	420.82	140.5	122.5	42.047	4.1701e-06	52.018	0.00051149	0.00052379	0.0001453	1381.8	5.6851e-06	5.7124e-06	1378.3	374.97	5.6395e-06	5.6703e-06	427.51	143.58	125.19	43.05	5.5461e-06	53.368	94.258	85.573	31.916	-11.968	69.597	118.910	-12.137	-7.582	121.045	183.886	-8.000	-3.849	-2.943	1.289	120.320	0.759	-8191	255	
631.635	1	1	0	0	0.15034	0.10445	0.39008	0.11074	0.14666	0.20848	0.24886	0.22774	0.11901	0.14545	0.31222	0.10417	0.17544	0.11823	0.1652	0.32002	-2.8187	-3.0187	-2.9938	-3.3521	-2.6375	-3.0521	-3.4354	-2.8812	-3.1854	-3.0187	-3.0938	-3.3854	-2.9562	-3.0417	-3.1604	-2.7646	18.050	261.835	59.768	259.627	86.360	208.876	230.275	284.970	211.105	285.124	7.279	201.189	204.043	109.404	143.931	275.038	0.00028925	0.00037665	0.00010169	1364.8	1.8155e-06	4.6817e-06	1364.8	370.43	3.6632e-06	1.1353e-05	422.59	140.34	122.46	42.271	1.7081e-06	51.943	0.00049813	0.00050885	0.0001419	1379.1	5.5412e-06	5.5279e-06	1379.5	375.19	5.581e-06	5.5638e-06	428.51	143.59	125.13	43.18	5.5632e-06	53.337	97.206	127.399	93.339	-12.060	11.648	133.331	-11.997	-7.253	154.471	105.897	-7.992	-3.716	-3.132	1.383	94.473	0.659	-8191	255	
631.732	1	1	0	0	0.0096192	0.15902	0.19203	0.3104	0.074078	0.29892	0.20524	0.13227	0.29184	0.16587	0.13	0.073941	0.20994	0.089675	0.20559	0.26598	-2.8125	-2.975	-2.8354	-3.3792	-2.7542	-3.0375	-3.2583	-2.7792	-3.0958	-2.8479	-2.9646	-3.1688	-2.8333	-3.1063	-3.1396	-2.9104	217.822	5.906	263.363	332.725	276.461	240.829	274.820	261.367	111.291	162.725	331.855	-0.774	292.786	237.046	74.667	201.056	0.00029152	0.00063447	0.00017637	1364.1	1.9348e-06	3.6865e-06	1366.1	369.52	2.0392e-06	4.3331e-06	423.4	140.87	122.25	42.138	3.1162e-06	52.166	0.00049965	0.00052256	0.0001433	1379.4	5.5032e-06	5.4963e-06	1380.7	375.46	5.5366e-06	5.5984e-06	428.36	143.8	124.94	43.184	5.5968e-06	53.367	102.738	81.677	98.221	-12.211	171.117	86.377	-12.100	-7.566	161.811	94.477	-7.873	-3.691	-3.061	1.512	109.721	0.817	-8191	255	
631.828	1	1	0	0	0.054023	0.17213	0.17234	0.25664	0.16313	0.10832	0.26845	0.17174	0.099743	0.14022	0.1938	0.16733	0.21565	0.13354	0.10418	0.19279	-2.5542	-3.05	-2.9208	-3.3042	-2.8271	-2.8708	-3.3896	-2.775	-3.1042	-2.9813	-2.9188	-3.1333	-3.1458	-3.0375	-3.1542	-2.7479	256.567	34.181	140.946	272.330	320.895	294.801	280.209	331.224	37.364	331.515	282.688	261.200	281.841	270.108	230.454	296.359	0.00028975	0.0002884	0.00014601	1369.6	2.8472e-06	8.4169e-06	1360.9	369.07	9.9298e-06	5.6473e-06	422.7	140.72	122.46	42.261	2.2904e-06	52.156	0.00050174	0.00051208	0.00014291	1380.9	5.6451e-06	5.5394e-06	1379.4	375.03	5.6092e-06	5.512e-06	428.68	143.8	125.19	43.208	5.5414e-06	53.359	106.748	72.152	85.140	-12.155	58.160	120.224	-12.307	-7.351	140.476	122.387	-8.141	-3.642	-3.144	1.577	142.755	0.718	-8191	255	
631.924	1	1	0	0	0.22063	0.14956	0.15082	0.15202	0.11269	0.17547	0.42795	0.038419	0.094635	0.12544	0.31926	0.19511	0.18144	0.23629	0.21374	0.12769	-2.5396	-3.0479	-2.6854	-3.3354	-2.8771	-2.8	-3.2938	-3.0146	-2.8125	-3.0146	-2.7438	-3.3229	-3.075	-3.0583	-3.3375	-2.9729	126.910	137.188	119.289	308.430	34.086	41.149	291.597	20.635	130.560	44.356	-18.696	307.186	263.932	217.354	122.550	232.373	0.000336	0.00064945	0.00015368	1366.6	2.5513e-06	7.6083e-06	1366.6	369.19	4.6494e-06	3.754e-06	420.99	140.94	123.05	42.181	3.5943e-06	52.063	0.0004988	0.0005036	0.00014104	1381.2	5.5359e-06	5.5168e-06	1380.7	375.04	5.558e-06	5.5615e-06	428.77	143.96	125.32	43.188	5.5749e-06	53.36	96.181	41.451	76.813	-12.052	125.245	128.718	-12.087	-7.600	118.840	120.782	-7.975	-3.330	-3.226	1.276	131.190	0.728	-8191	255	
632.020	1	1	0	0	0.056028	0.26176	0.10952	0.38537	0.054988	0.27216	0.33433	0.16968	0.10839	0.10665	0.19501	0.068756	0.29221	0.10082	0.25346	0.23375	-2.6625	-3	-2.7542	-3.3708	-2.8958	-2.9333	-3.3604	-2.8208	-2.8542	-3.2083	-2.9208	-3.1375	-3.1167	-2.775	-3.1708	-2.9354	182.504	308.422	126.906	299.983	75.958	327.068	276.675	290.797	86.117	242.461	255.120	140.316	289.807	228.688	-19.740	328.623	0.0003164	0.00039707	0.00023543	1367.3	1.175e-06	2.5765e-06	1366	369.46	4.8427e-06	6.9343e-06	423.06	141.25	122.44	42.122	1.8247e-06	52.027	0.00050379	0.00050503	0.00014128	1379.8	5.5398e-06	5.5061e-06	1381.4	374.87	5.4893e-06	5.4447e-06	428.74	143.88	124.93	43.113	5.4259e-06	53.323	94.672	50.659	69.700	-11.903	116.036	172.086	-12.028	-7.442	120.113	110.619	-7.987	-3.650	-3.095	1.425	149.150	0.918	-8191	255	
632.141	1	1	0	0	0.12369	0.1669	0.090448	0.15366	0.17017	0.085386	0.12207	0.12652	0.17863	0.05499	0.13593	0.28797	0.14344	0.251	0.084966	0.16312	-2.3396	-3.0271	-2.9021	-3.15	-3.1333	-2.675	-3.5896	-2.9854	-2.6979	-3.1354	-2.9	-3.1646	-3.1521	-2.8458	-3.125	-2.9021	74.977	52.652	291.758	312.112	85.844	122.725	190.035	227.627	249.503	93.601	-4.702	256.579	220.432	266.255	32.099	324.010	0.00027673	0.00042334	5.6885e-05	1370.8	3.6084e-06	7.3827e-06	1363.9	370.13	3.9378e-06	6.643e-06	422.46	140.96	122.35	42.078	2.4861e-06	52.291	0.00049096	0.00048525	0.00013884	1382	5.4005e-06	5.4333e-06	1379.7	375	5.4936e-06	5.5053e-06	428.42	143.81	125.04	43.133	5.5447e-06	53.422	92.707	75.063	23.121	-12.031	100.083	140.215	-12.342	-7.348	144.761	125.168	-8.072	-3.696	-3.165	1.570	83.332	0.600	-8191	255	
632.237	1	1	0	0	0.10007	0.20906	0.30043	0.25118	0.22953	0.22616	0.30493	0.15422	0.25939	0.23247	0.25505	0.37913	0.15434	0.047796	0.11683	0.19267	-2.3375	-2.9688	-2.7479	-3.1521	-3.1521	-2.8479	-3.3083	-2.9792	-2.7938	-3.2438	-2.9792	-3.2958	-3.1229	-2.7396	-3.0687	-3.075	-3.054	6.750	198.206	-24.915	332.386	93.285	296.514	240.362	333.583	1.454	326.329	-9.049	329.614	280.557	149.189	83.085	0.00034834	0.00037353	0.00010789	1369.1	2.3184e-06	6.4285e-06	1365.5	370.47	4.5802e-06	4.4281e-06	422.83	141.13	122.77	42.247	4.9838e-06	52.134	0.00049918	0.00050892	0.00014175	1382.7	5.5575e-06	5.5797e-06	1379.5	375.45	5.594e-06	5.5307e-06	428.42	143.71	125.19	43.168	5.5741e-06	53.329	102.345	77.546	63.537	-11.952	178.591	102.776	-12.252	-7.523	119.750	76.651	-7.983	-3.812	-3.089	1.271	74.523	0.801	-8191	255	
632.333	1	1	0	0	0.088982	0.1107	0.22676	0.1363	0.1825	0.057831	0.2364	0.37205	0.33619	0.16388	0.27489	0.13221	0.093763	0.1096	0.16742	0.25933	-2.3354	-3.25	-2.8167	-3.0583	-3.0687	-2.65	-3.3625	-3.1646	-2.8271	-3.2458	-2.9458	-3.125	-3.1542	-2.7646	-3.0938	-3.1542	187.277	180.216	312.395	248.442	132.223	251.568	252.788	238.761	266.747	265.990	270.535	284.368	20.834	199.760	-25.220	247.281	0.00031617	0.00051051	0.00022373	1368.7	5.5047e-06	4.2364e-06	1367.7	370.23	3.2171e-06	4.6245e-06	422.16	140.73	122.62	42.247	4.2422e-06	52.229	0.00050299	0.00051185	0.00014263	1382.3	5.5798e-06	5.6165e-06	1380.4	375.47	5.5723e-06	5.5224e-06	427.99	143.76	125.15	43.163	5.5659e-06	53.445	97.919	107.856	76.014	-12.106	94.188	150.380	-12.238	-7.651	135.406	93.667	-8.149	-3.774	-3.166	1.527	167.101	0.589	-8191	255	
632.429	1	1	0	0	0.15558	0.063051	0.12259	0.1976	0.070276	0.078057	0.05668	0.46997	0.11369	0.1372	0.28488	0.12961	0.15198	0.18505	0.11289	0.085156	-2.3083	-3.0875	-2.8542	-3.1292	-3.1583	-2.7521	-3.2062	-3.4938	-2.8875	-3.1188	-3.0458	-2.8208	-3.3063	-2.9042	-2.9125	-3.1458	185.652	235.147	38.367	303.641	48.681	75.817	-7.129	295.579	-16.130	265.054	226.696	54.466	291.894	333.517	319.617	205.390	0.00032991	0.00058216	0.00010679	1371.8	5.0092e-06	9.3375e-06	1363.3	369.17	1.3563e-06	7.8229e-06	421.04	141.12	122.19	42.359	1.6022e-06	51.979	0.00050618	0.00050909	0.00014124	1383.2	5.5192e-06	5.4757e-06	1379.8	375.11	5.5082e-06	5.5219e-06	427.93	143.96	125	43.217	5.5333e-06	53.37	104.432	51.860	27.943	-11.815	163.338	151.820	-12.110	-7.356	96.380	69.998	-7.889	-3.489	-3.118	1.529	198.135	1.003	-8191	255	
632.523	1	1	0	0	0.13	0.29697	0.2192	0.070239	0.18984	0.030207	0.24493	0.30631	0.14602	0.15562	0.013191	0.19517	0.1478	0.22339	0.19663	0.084451	-2.1417	-2.9229	-3.0167	-3.0417	-3.2354	-2.8125	-3.0521	-3.2562	-2.5646	-3.1958	-2.9938	-2.9208	-3.2396	-2.9875	-2.9583	-3.3104	175.640	153.876	251.037	44.247	146.808	99.944	247.849	326.524	82.019	17.502	320.591	328.695	-18.896	312.984	139.026	110.545	0.00025811	0.00025643	0.00018499	1369.6	2.786e-06	4.458e-06	1365.9	367.55	5.4e-06	3.7924e-06	422.61	140.61	122.11	42.285	4.9634e-06	52.009	0.00050888	0.00051695	0.00014187	1382.5	5.6895e-06	5.6064e-06	1380.6	374.43	5.6714e-06	5.5336e-06	428.16	143.64	124.86	43.144	5.6273e-06	53.336	95.238	5.760	92.617	-11.945	161.189	99.644	-11.908	-7.461	69.227	129.713	-8.127	-3.550	-3.148	1.248	94.887	0.760	-8191	255	
632.620	1	1	0	0	0.10548	0.18673	0.14451	0.4935	0.22437	0.20429	0.28197	0.20029	0.095136	0.075352	0.15288	0.22454	0.34361	0.07315	0.22026	0.074253	-2.1813	-3.1583	-2.9417	-2.8792	-3.1958	-2.8958	-3.1271	-3.1854	-2.6854	-2.9813	-3.1417	-2.8563	-3.4208	-2.95	-2.7229	-3.3604	22.544	166.862	129.829	301.736	175.681	-13.930	102.721	239.568	54.173	43.737	36.726	270.257	330.122	122.648	262.852	208.681	0.00030143	0.0002169	3.2472e-05	1365.6	6.1169e-06	8.2695e-06	1367.4	369.2	1.0623e-06	4.5289e-06	423.98	141.58	122.08	42.131	4.2301e-06	52.036	0.00051159	0.00051773	0.00014441	1380.6	5.6599e-06	5.641e-06	1380.3	375.04	5.6474e-06	5.5594e-06	429.02	143.96	124.91	43.119	5.5879e-06	53.27	106.978	79.920	70.672	-11.862	139.489	127.631	-12.206	-7.494	52.623	114.613	-7.869	-3.542	-3.118	1.344	142.047	0.743	-8191	255	
632.716	1	1	0	0	0.14525	0.18444	0.16667	0.23376	0.16454	0.22816	0.26575	0.071477	0.057428	0.018141	0.094	0.26944	0.16221	0.32166	0.184	0.31381	-2.4813	-2.9188	-3.0229	-2.8792	-2.9917	-2.9292	-3.1042	-3.2812	-2.7917	-3.0875	-3.1521	-2.9021	-3.2604	-3.1063	-2.8583	-3.3479	283.930	38.336	43.316	255.246	15.295	184.527	285.973	12.887	241.362	41.723	47.310	17.635	313.997	-15.943	236.429	294.385	0.00033005	0.00051578	0.00015909	1372.6	4.1929e-06	5.783e-06	1367.6	370.34	2.9917e-06	3.7778e-06	422.6	141.02	122.83	42.209	5.478e-06	52.331	0.00051103	0.00052038	0.00014253	1381.6	5.7155e-06	5.5684e-06	1380.3	374.54	5.6488e-06	5.6415e-06	428.18	143.86	125.22	43.138	5.5774e-06	53.438	102.236	63.699	80.180	-11.988	107.293	99.393	-12.101	-7.383	129.928	105.844	-8.138	-3.776	-3.081	1.563	108.603	0.628	-8191	255	
632.836	1	1	0	0	0.13978	0.17106	0.16799	0.17011	0.053678	0.16453	0.2885	0.05369	0.087597	0.096351	0.054725	0.029034	0.26581	0.22133	0.15774	0.14753	-2.3146	-2.8563	-2.9958	-2.8083	-2.9583	-3.075	-2.8146	-3.3312	-3.0062	-2.9396	-3.1104	-2.8979	-3.0146	-3.0167	-2.5667	-3.2417	248.989	58.955	174.096	297.009	75.405	123.222	285.406	202.827	79.933	40.913	123.497	40.184	250.443	269.870	198.016	-14.190	0.00029268	0.0006155	0.00011461	1366.6	6.635e-06	5.9382e-06	1360	369.09	5.2103e-06	4.9571e-06	423.95	141.22	123.07	42.269	5.3418e-06	52.035	0.00051131	0.00051796	0.0001463	1381.4	5.7061e-06	5.7129e-06	1380.6	375.12	5.7594e-06	5.7248e-06	428.86	143.98	125.29	43.156	5.8061e-06	53.401	106.289	66.936	61.903	-12.096	106.684	99.827	-11.927	-7.619	143.479	126.525	-7.859	-3.741	-3.088	1.395	162.159	0.911	-8191	255	
632.933	1	1	0	0	0.11828	0.18366	0.17697	0.26681	0.28822	0.050221	0.075484	0.18439	0.1028	0.29647	0.16081	0.33994	0.21283	0.063753	0.10016	0.2003	-2.3937	-2.6604	-3.1646	-2.9792	-2.9208	-3.0208	-2.9708	-3.2938	-3.0667	-2.7667	-3.2979	-2.8875	-3.0271	-3.1125	-2.5792	-3.0708	220.868	248.734	118.914	329.181	297.394	82.660	317.552	10.564	-20.681	92.448	299.179	291.745	289.289	-2.234	91.751	333.349	0.00026201	0.00032635	0.00011068	1369.2	5.0818e-06	1.6707e-06	1367.7	370.09	1.9073e-06	9.4411e-06	421.87	141.2	122.84	42.127	4.1167e-06	52.164	0.00051387	0.00052578	0.00014564	1382.9	5.7842e-06	5.7489e-06	1383	375.48	5.7658e-06	5.7417e-06	427.92	144.08	125.26	43.136	5.8112e-06	53.384	92.409	78.852	-0.344	-11.935	110.975	265.880	-11.968	-7.453	6.296	137.439	-7.971	-3.583	-2.824	1.437	107.234	0.607	-8191	255	
633.029	1	1	0	0	0.21554	0.16516	0.079295	0.15408	0.14093	0.075333	0.23919	0.18794	0.070738	0.084129	0.40802	0.019767	0.21117	0.17261	0.28848	0.13423	-2.4875	-2.7771	-3.0187	-2.8812	-2.9833	-2.9729	-2.9542	-3.0646	-2.8812	-2.7521	-3.3187	-2.8083	-2.9271	-3.2458	-2.6521	-3.1104	45.538	-20.068	236.818	54.462	176.008	105.353	284.513	218.949	131.998	89.596	281.114	-1.768	327.749	317.769	84.872	129.519	0.00023675	0.00040104	9.0137e-05	1368.5	3.9098e-06	3.7239e-06	1363.3	370.98	4.6227e-06	7.569e-06	422.77	141.26	122.62	42.197	4.38e-06	52.121	0.00051523	0.00052948	0.000145	1382.8	5.698e-06	5.6741e-06	1381.3	375.32	5.7413e-06	5.6947e-06	427.91	144.09	125.16	43.17	5.798e-06	53.466	106.075	43.977	215.823	-12.208	153.406	60.292	-11.990	-7.548	138.016	127.221	-8.151	-3.665	-2.948	1.410	141.363	0.668	-8191	255	
633.100	1	1	0	0	0.29055	0.21023	0.26062	0.14596	0.19731	0.073897	0.29274	0.18053	0.080041	0.12203	0.27535	0.13325	0.18777	0.20258	0.10341	0.14493	-2.625	-2.7354	-3.1937	-3.0271	-2.9417	-3.0771	-2.9104	-2.9667	-3.0833	-2.5812	-3.2729	-3.1229	-2.875	-3.0938	-2.9688	-3.05	231.640	119.671	189.238	280.461	323.975	85.910	221.972	222.716	334.232	269.969	225.799	-7.664	251.657	285.641	292.173	298.747	0.00029733	0.00058255	0.00014766	1372.2	3.4213e-06	3.5323e-06	1364.2	369.32	6.9139e-06	4.0902e-06	422.05	140.32	122.21	42.13	3.6982e-06	52.293	0.00051601	0.00053241	0.00014741	1383.2	5.7855e-06	5.7197e-06	1382	375.46	5.7627e-06	5.7951e-06	428.4	143.81	125.1	43.247	5.7407e-06	53.351	102.697	87.818	90.766	-11.918	107.836	115.192	-11.943	-7.395	119.909	106.132	-8.089	-3.654	-2.915	1.603	92.470	0.925	-8191	255	
633.221	1	1	0	0	0.12506	0.17164	0.15417	0.2608	0.22482	0.03181	0.21755	0.074781	0.18499	0.24193	0.098309	0.11695	0.25366	0.079164	0.20655	0.086432	-2.7458	-2.4979	-3.2021	-3.075	-2.7021	-3.1312	-3.1021	-3.1146	-2.975	-2.5271	-3.2583	-3.0979	-2.9396	-3.2938	-2.7396	-3.0104	33.848	221.369	260.800	273.755	211.759	280.938	233.292	-4.361	136.944	42.151	88.027	-16.243	268.415	28.613	42.990	313.247	0.00036846	0.00044568	6.8816e-05	1369.8	5.2314e-06	7.6079e-06	1363.4	369.25	5.2115e-06	6.7647e-06	423.51	141.35	122.78	42.285	7.4296e-06	52.212	0.00051387	0.00052293	0.00014665	1382.2	5.8139e-06	5.7741e-06	1381.1	375.26	5.803e-06	5.7983e-06	429.19	143.96	125.17	43.132	5.674e-06	53.417	94.519	42.741	114.347	-12.004	131.559	94.484	-12.093	-7.434	175.392	128.797	-7.784	-3.604	-3.277	1.459	127.790	0.837	-8191	255	
633.317	1	1	0	0	0.016011	0.058274	0.13559	0.32776	0.055412	0.08349	0.15668	0.21079	0.27215	0.29882	0.30353	0.11637	0.3755	0.18577	0.13234	0.13203	-2.7333	-2.6667	-2.9583	-3.1312	-2.5104	-2.9292	-2.9896	-3.0917	-3.0187	-2.7062	-3.2	-2.9792	-2.9562	-3.1937	-2.8354	-2.7687	146.493	58.516	-4.056	254.022	114.494	114.812	331.268	212.639	57.474	-6.263	277.957	5.321	290.689	29.187	294.216	263.222	0.00026628	0.00044994	0.00015593	1364.4	4.4613e-06	7.4131e-06	1359.1	369.41	6.515e-06	4.5267e-06	422.47	140.75	122.36	42.156	1.1232e-06	51.917	0.00051518	0.00051705	0.00014485	1381.4	5.6783e-06	5.6224e-06	1380	374.97	5.6711e-06	5.7144e-06	428.17	143.88	125.17	43.132	5.7459e-06	53.312	95.076	44.614	60.233	-11.909	169.653	113.082	-12.043	-7.251	146.753	135.815	-8.094	-3.766	-3.161	1.274	118.107	0.767	-8191	255	
633.413	1	1	0	0	0.14443	0.087167	0.078819	0.096961	0.1905	0.23812	0.36912	0.058178	0.22063	0.099404	0.068031	0.27581	0.22345	0.23057	0.25738	0.17183	-2.7417	-2.5479	-2.8354	-3.1479	-2.5958	-3.1333	-2.8458	-2.7729	-3.1417	-2.6854	-2.9917	-3.0542	-2.6708	-3.2167	-2.9062	-2.7562	16.396	-24.166	46.519	29.356	107.566	-22.732	264.698	302.403	170.834	215.677	261.911	-14.992	10.622	290.155	-16.131	266.275	0.00028842	0.00043138	0.00021553	1369.9	3.2565e-06	4.3746e-06	1365.9	370.77	4.1768e-06	8.1118e-06	422.11	141.03	122.58	42.293	4.3e-06	51.99	0.000511	0.00051904	0.00014254	1382.8	5.6881e-06	5.6659e-06	1382	375.23	5.7297e-06	5.6683e-06	428.05	143.89	125.32	43.159	5.803e-06	53.333	102.683	58.095	73.725	-11.947	155.942	120.310	-12.162	-7.556	73.449	122.315	-7.880	-3.690	-3.223	1.552	110.320	0.740	-8191	255	
633.532	1	1	0	0	0.23907	0.076363	0.13497	0.28084	0.16425	0.17703	0.17538	0.22361	0.063404	0.24903	0.31475	0.36101	0.12121	0.35105	0.11936	0.15015	-2.5917	-2.7146	-2.9208	-3.2979	-2.5979	-3.0375	-3.1625	-2.9771	-3.2792	-2.85	-3.0729	-3.2375	-2.7521	-3.3229	-2.9646	-2.8125	47.631	5.355	109.761	287.112	88.052	265.878	249.113	200.848	129.835	84.085	315.138	299.618	44.633	288.022	-19.269	205.262	0.00032369	0.0008424	0.00012587	1372.9	7.6334e-06	5.7497e-06	1364.9	369.48	2.3725e-06	4.9794e-06	423.56	141.32	122.69	42.11	4.5498e-06	52.046	0.00052289	0.0005364	0.00014784	1383.2	5.7595e-06	5.794e-06	1382	375.38	5.767e-06	5.7227e-06	429	143.98	125.4	43.125	5.7538e-06	53.391	102.908	83.036	112.991	-12.029	156.001	118.846	-12.210	-7.567	123.005	149.820	-8.139	-3.717	-2.857	1.593	103.912	0.801	-8191	255	
633.628	1	1	0	0	0.22701	0.2737	0.11435	0.37805	0.14956	0.17779	0.03427	0.28555	0.15582	0.16585	0.4136	0.22729	0.35465	0.051878	0.16876	0.42115	-2.6229	-2.9813	-2.85	-3.4354	-2.9104	-3.0187	-3.2188	-2.8521	-2.925	-2.8917	-2.9229	-3.1417	-2.7521	-3.0125	-3.0396	-2.8688	295.548	178.491	33.703	309.497	320.980	150.762	256.784	273.411	163.770	102.776	293.471	305.758	305.697	-8.693	243.250	296.885	0.00032956	0.00045963	0.00017838	1367	4.9731e-06	5.843e-06	1362.3	369.58	7.8134e-07	4.2825e-06	422.23	141.09	122.02	42.218	3.4216e-06	51.953	0.00051432	0.00052844	0.00014733	1382.6	5.7572e-06	5.7957e-06	1381.5	375.64	5.7973e-06	5.7274e-06	429.29	144.03	124.99	43.18	5.7396e-06	53.37	112.440	78.912	41.432	-11.954	130.326	171.524	-12.287	-7.489	145.031	133.983	-7.856	-3.649	-3.349	1.382	107.289	0.633	-8191	255	
633.702	1	1	0	0	0.13149	0.21321	0.22499	0.35013	0.096891	0.27508	0.2563	0.048286	0.20612	0.088772	0.3671	0.45964	0.15298	0.097703	0.11165	0.18396	-2.6958	-2.7687	-2.9146	-3.2771	-2.6688	-2.9771	-3.2021	-2.8812	-3.1292	-3.0542	-2.7396	-3.325	-3.0292	-3.0333	-3.0125	-2.9146	-21.880	62.948	113.769	-10.384	291.067	4.736	236.787	29.839	136.501	1.450	299.977	286.533	299.112	16.623	293.147	285.710	0.00023345	0.00040665	0.00010255	1363.9	5.65e-06	5.9046e-06	1368.7	370.09	3.7645e-06	3.6008e-06	421.58	140.79	122.44	42.182	1.7472e-06	52.33	0.00051698	0.00052403	0.00014681	1381.5	5.7223e-06	5.7164e-06	1382.1	375.81	5.734e-06	5.6689e-06	428.53	143.78	125.02	43.175	5.7123e-06	53.484	96.715	82.605	51.975	-12.139	94.407	109.504	-12.218	-7.481	132.950	101.989	-8.338	-3.544	-2.913	1.301	163.827	0.917	-8191	255	
633.821	1	1	0	0	0.099904	0.25922	0.11052	0.25391	0.1354	0.13522	0.11586	0.049591	0.13203	0.070017	0.25631	0.12311	0.1754	0.021702	0.090026	0.12024	-2.7833	-2.8729	-2.5896	-3.4938	-2.8021	-2.9375	-3.2562	-2.6542	-3.0833	-3.0375	-2.7313	-3.2542	-2.95	-2.8604	-3.2958	-2.8625	-10.461	68.892	39.782	309.544	327.654	61.031	209.144	250.254	250.268	37.316	315.535	64.732	288.015	174.142	90.453	289.231	0.00025045	0.00030931	8.5763e-05	1371.7	7.4751e-07	3.5208e-06	1366.5	370.86	1.5254e-06	5.9775e-06	423.03	141	122.13	42.203	3.0548e-06	52.515	0.00051	0.00053041	0.00014557	1385.2	5.79e-06	5.657e-06	1382.7	375.55	5.6835e-06	5.6596e-06	428.6	143.97	125.08	43.18	5.6724e-06	53.579	95.566	7.834	106.608	-12.096	23.172	147.443	-12.143	-7.670	180.505	121.695	-7.774	-3.494	-3.339	1.573	147.433	0.639	-8191	255	
633.917	1	1	0	0	0.1077	0.16586	0.027624	0.36109	0.096109	0.17016	0.095139	0.3087	0.1397	0.24522	0.20481	0.13571	0.24518	0.28578	0.19113	0.28072	-2.5042	-2.6937	-2.4625	-3.2	-2.7625	-2.8063	-3.3021	-2.725	-2.8625	-3.0333	-2.6792	-3.2687	-2.8646	-3.05	-3.2333	-2.9354	289.640	263.373	195.578	276.891	124.458	6.295	240.604	266.816	169.265	6.036	299.491	265.504	32.745	246.049	33.523	303.483	0.00032237	0.00031486	0.00014137	1372.6	2.5498e-06	2.2702e-06	1368.3	369.29	3.7117e-06	4.3399e-06	421.49	141.08	122.39	42.154	2.7069e-06	51.997	0.00051567	0.00052107	0.00014811	1384.6	5.7266e-06	5.6667e-06	1383.9	375.31	5.8293e-06	5.7372e-06	428.42	144.2	125.15	43.224	5.7527e-06	53.422	101.741	130.110	145.717	-12.170	123.186	185.090	-12.119	-7.321	149.143	84.755	-8.014	-3.772	-2.954	1.557	127.514	0.979	-8191	255	
634.013	1	1	0	0	0.11707	0.085759	0.17248	0.38531	0.21816	0.13435	0.185	0.096199	0.11706	0.29914	0.18204	0.10348	0.20512	0.11082	0.073075	0.18409	-2.5854	-2.9188	-2.6104	-3.2375	-2.7188	-2.6104	-3.4292	-2.8042	-2.8417	-3.2375	-2.8958	-3.3292	-2.8896	-2.9021	-3.1292	-3.1167	34.199	-10.038	296.552	321.322	187.642	-10.704	251.505	113.310	32.913	147.789	264.345	49.230	294.973	317.358	205.330	333.569	0.00030688	0.00073936	9.5943e-05	1373.6	4.5693e-06	6.0134e-06	1367.3	369.23	4.946e-06	6.0262e-06	421.28	141.14	122.39	42.43	4.5399e-06	52.067	0.00052023	0.00053415	0.00014785	1384.8	5.8027e-06	5.8411e-06	1383.7	375.26	5.9126e-06	5.799e-06	428.8	143.94	125.22	43.192	5.9044e-06	53.42	98.203	106.450	94.524	-12.141	128.746	100.700	-12.097	-7.643	81.980	124.451	-7.775	-3.601	-3.257	1.366	116.909	0.789	-8191	255	
634.134	1	1	0	0	0.1531	0.17562	0.11752	0.17663	0.013526	0.15133	0.11475	0.17091	0.25283	0.066623	0.037355	0.23657	0.19012	0.07721	0.081146	0.04505	-2.5812	-3.2792	-2.6937	-3.1292	-2.8771	-2.7	-3.2792	-3.025	-2.9583	-3.0917	-2.7687	-3.0792	-3.0062	-2.7771	-3.0833	-3.1042	68.872	65.098	311.770	311.886	30.784	172.368	73.439	29.399	-2.185	260.456	297.225	319.657	-9.250	236.601	168.954	198.435	0.00029861	0.00039319	0.00019655	1372.4	1.9809e-06	5.9163e-06	1366.6	370.48	4.028e-06	2.4819e-06	422.9	141.33	123.09	42.399	5.2968e-06	52.099	0.0005212	0.00054529	0.00015003	1385.2	5.9093e-06	5.9093e-06	1384	375.52	5.8652e-06	5.8236e-06	429.15	144	125.41	43.203	5.7691e-06	53.363	106.999	80.521	109.607	-12.144	73.557	107.695	-12.366	-7.201	103.416	75.582	-7.928	-3.655	-3.291	1.366	113.930	0.863	-8191	255	
634.230	1	1	0	0	0.20248	0.3246	0.12797	0.42426	0.083461	0.0973	0.10277	0.27079	0.31552	0.24297	0.24554	0.22712	0.29589	0.25436	0.12641	0.094929	-2.2625	-3.0062	-2.9562	-3.2104	-2.9333	-2.8187	-3.4208	-3.0563	-2.8229	-3.0625	-2.9479	-2.9979	-3.2625	-2.9188	-2.9229	-3.025	293.975	84.320	287.303	270.695	88.429	92.898	259.303	266.210	183.851	301.881	284.630	-1.369	286.850	268.783	219.909	42.567	0.00033488	0.00038073	0.00018542	1369.6	7.0768e-06	4.122e-06	1364.2	370.87	5.0244e-06	5.2791e-06	422.58	141.23	122.54	42.353	3.6833e-06	52.04	0.00051531	0.00053155	0.00014792	1384.7	5.7931e-06	5.73e-06	1382.6	375.97	5.8023e-06	5.759e-06	428.72	144.21	125.24	43.207	5.808e-06	53.414	103.439	35.518	48.040	-12.163	146.940	78.085	-12.193	-7.439	146.665	161.896	-7.888	-3.690	-2.980	1.623	52.140	0.948	-8191	255	
634.324	1	1	0	0	0.26601	0.14707	0.14957	0.15579	0.06686	0.11565	0.14545	0.17818	0.10224	0.086824	0.17028	0.060016	0.022981	0.20269	0.1298	0.22473	-2.2562	-3.0854	-2.7938	-3.1229	-3.0896	-2.7208	-3.2604	-3.0542	-2.7438	-3.225	-2.7354	-2.8708	-3.2417	-2.7146	-3.0583	-3.2313	94.637	324.299	238.312	228.233	288.379	124.132	312.952	109.294	146.569	119.187	239.774	250.922	141.103	-21.676	200.986	218.394	0.00029753	5.2592e-05	0.00010907	1372.1	3.9565e-06	5.0973e-06	1365.1	369.77	4.1776e-06	8.3617e-06	421.78	141.18	122.72	42.389	2.7611e-06	52.1	0.00051636	0.00052693	0.00014449	1385.8	5.6987e-06	5.7447e-06	1382.5	375.34	5.768e-06	5.7493e-06	428.54	144	125.29	43.204	5.6462e-06	53.397	110.341	6.899	53.394	-12.188	131.959	121.734	-12.281	-7.277	87.785	127.960	-7.875	-3.696	-3.064	1.410	87.365	0.784	-8191	255	
634.397	1	1	0	0	0.051191	0.14053	0.23256	0.20288	0.16548	0.14892	0.21558	0.18869	0.12791	0.092092	0.010492	0.33692	0.13898	0.24321	0.069577	0.12627	-2.4042	-3.0146	-2.8292	-2.9917	-3.1542	-2.8833	-3.0771	-3.1146	-2.65	-3.1604	-2.8229	-2.9521	-3.125	-2.7146	-2.8937	-3.2167	331.560	191.090	102.835	231.856	294.719	118.525	327.674	264.827	63.967	-21.700	266.467	3.207	332.299	286.826	-4.682	145.388	0.00024249	0.00049018	6.4513e-05	1376.6	4.1796e-06	1.0071e-05	1367.8	369.24	4.3365e-06	3.6318e-06	423.15	141.24	122.83	42.239	5.4618e-06	52.062	0.0005043	0.00052268	0.00014361	1386.4	5.6254e-06	5.6242e-06	1381.9	375.33	5.6347e-06	5.5621e-06	428.55	144.08	125.4	43.212	5.5531e-06	53.324	107.549	52.401	119.007	-12.022	82.843	151.846	-12.187	-7.503	141.315	134.796	-7.993	-3.546	-3.076	1.363	125.384	0.666	-8191	255	
634.516	1	1	0	0	0.050404	0.044377	0.10721	0.10452	0.022369	0.32881	0.19079	0.14073	0.16163	0.19202	0.16181	0.0713	0.059313	0.22159	0.083444	0.30441	-2.1792	-3.0521	-2.9188	-3.0938	-3.1771	-2.7125	-3.2167	-3.0271	-2.5917	-3.0812	-2.9604	-2.8208	-3.1792	-2.7958	-2.9271	-3.025	59.443	233.112	319.736	-22.318	167.876	73.010	289.887	243.085	23.022	260.928	86.297	192.522	126.639	283.398	224.412	333.555	0.00031751	0.00060497	0.00019003	1369.3	5.8276e-06	6.6919e-06	1364.6	368.14	3.9839e-06	5.818e-06	422.54	141.24	122.62	42.282	2.4496e-06	52.101	0.00051214	0.00052224	0.00014535	1383.9	5.5872e-06	5.5981e-06	1382.5	374.77	5.6595e-06	5.6524e-06	428.65	143.9	125.15	43.188	5.6457e-06	53.395	96.021	85.873	80.343	-11.993	156.373	163.296	-12.249	-7.484	99.626	144.780	-7.743	-3.761	-3.236	1.594	159.480	0.711	-8191	255	
634.613	1	1	0	0	0.025446	0.10984	0.1763	0.19116	0.066881	0.091063	0.20825	0.032175	0.23186	0.2946	0.32976	0.3062	0.13313	0.18688	0.13697	0.13638	-2.3021	-3.0375	-2.8396	-2.7958	-3.2687	-2.7146	-2.9938	-3.1917	-2.6083	-2.9917	-3.1167	-2.7333	-3.2354	-2.9917	-2.7479	-3.1688	118.067	58.524	269.738	-11.895	38.293	268.639	250.847	204.724	216.045	10.175	288.967	309.165	250.250	11.995	57.930	307.422	0.00033191	0.00044241	7.7441e-05	1367.9	1.6156e-06	6.4364e-06	1365.6	369.45	4.6274e-06	7.9949e-06	422.39	140.99	122.77	42.149	4.6364e-06	52.343	0.00051736	0.00051433	0.00014725	1382.2	5.7005e-06	5.6428e-06	1383.2	375.33	5.7413e-06	5.747e-06	428.54	143.97	125.36	43.173	5.7976e-06	53.432	95.689	60.079	47.087	-12.090	174.062	125.495	-12.060	-7.547	124.751	91.503	-7.816	-3.509	-2.976	1.515	136.680	0.813	-8191	255	
634.709	1	1	0	0	0.24567	0.086711	0.23337	0.24967	0.10687	0.030638	0.059332	0.13628	0.011693	0.15556	0.20282	0.12953	0.23377	0.36178	0.1474	0.18348	-2.25	-2.9688	-2.9875	-3.0062	-3.0896	-2.8979	-3.0979	-3.2021	-2.7521	-2.9167	-2.9458	-2.8333	-3.1792	-2.9313	-2.6667	-3.2375	244.370	307.185	86.268	299.079	91.337	185.006	83.204	291.445	307.445	-3.340	130.729	261.966	330.933	296.868	30.709	34.734	0.00030148	0.00031381	0.00022911	1369.3	4.1192e-06	5.5376e-06	1366.6	370.1	4.3466e-06	3.7308e-06	423.07	141.26	122.76	42.159	4.201e-06	52.201	0.00051406	0.00052311	0.00014543	1384.4	5.761e-06	5.7199e-06	1384.3	375.02	5.7585e-06	5.7715e-06	429.25	144.09	125.4	43.22	5.7295e-06	53.404	104.152	66.048	47.899	-12.163	160.653	83.020	-12.116	-7.345	154.606	118.064	-7.825	-3.661	-3.367	1.392	63.580	0.691	-8191	255	
634.805	1	1	0	0	0.14038	0.065999	0.12676	0.15521	0.15895	0.16754	0.24304	0.1133	0.12198	0.40702	0.2537	0.30718	0.38741	0.27267	0.19331	0.24441	-2.4375	-2.7875	-3.0583	-2.825	-3.1312	-2.925	-3.1167	-3.2979	-2.7208	-2.7229	-3.35	-2.7062	-3.0563	-3.1396	-2.7021	-3.2375	203.460	24.065	-8.992	-18.371	154.869	247.771	327.865	323.359	-9.415	-0.955	286.240	249.440	311.132	294.655	179.801	310.674	0.000331	0.00065423	0.00018901	1369.7	5.2452e-06	4.8719e-06	1371	371.25	3.6761e-06	6.5107e-06	420.91	141.08	122.67	42.119	3.5168e-06	52.13	0.00051314	0.00052737	0.00014651	1385.6	5.809e-06	5.8307e-06	1386	375.95	5.8772e-06	6.0436e-06	428.58	144.07	125.28	43.195	5.9404e-06	53.498	111.926	36.656	20.562	-11.907	162.652	170.532	-12.058	-7.485	139.645	104.890	-8.106	-3.750	-3.324	1.551	138.244	0.731	-8191	255	
634.925	1	1	0	0	0.22081	0.20326	0.093645	0.20256	0.16297	0.090862	0.087113	0.14321	0.059897	0.15217	0.19622	0.26037	0.19259	0.13458	0.13728	0.18707	-2.4042	-2.8688	-3.0271	-2.75	-2.8833	-2.8229	-2.8646	-3.2375	-2.8563	-2.8833	-3.1125	-2.6229	-2.9958	-3.2104	-2.8375	-3.0521	178.248	310.925	126.766	296.400	256.005	319.414	318.216	290.426	291.993	316.111	256.763	276.791	218.696	38.764	85.033	-9.783	0.00029357	0.00022992	0.00017542	1375.3	5.2753e-06	5.1008e-06	1372.7	370.3	1.8488e-06	4.1397e-06	420.87	140.73	122.57	42.339	6.064e-06	52.205	0.00053008	0.00054262	0.00015096	1387	5.884e-06	5.7943e-06	1386.2	375.65	5.8424e-06	5.864e-06	428.29	143.88	125.2	43.279	5.8146e-06	53.457	95.451	33.889	76.276	-12.116	146.972	157.954	-12.076	-7.387	166.794	110.707	-7.945	-3.810	-3.195	1.503	113.852	0.832	-8191	255	
634.997	1	1	0	0	0.17383	0.1542	0.096426	0.17733	0.20504	0.24888	0.1852	0.17118	0.10972	0.21554	0.10961	0.20223	0.15104	0.034237	0.14503	0.12977	-2.4771	-2.6292	-2.9313	-2.8479	-2.9604	-2.9938	-2.8979	-3.2271	-2.8125	-2.8896	-3.0938	-2.8375	-2.8521	-3.2375	-2.5375	-3.1583	56.783	41.052	15.379	286.719	164.220	148.573	112.636	251.709	181.393	127.672	278.659	253.582	54.224	55.200	203.612	263.326	0.00032429	0.00056833	0.00013984	1372.4	2.538e-06	6.4702e-06	1368.3	369.54	4.1118e-06	5.4637e-06	422.27	141.23	122.93	42.059	4.7666e-06	52.026	0.00052424	0.00053698	0.00014533	1386	5.7756e-06	5.7607e-06	1383.9	375.58	5.7825e-06	5.7274e-06	428.57	144.01	125.3	43.075	5.8e-06	53.331	108.400	79.888	70.826	-12.122	172.138	98.472	-12.105	-7.537	123.831	144.619	-7.873	-3.585	-2.857	1.493	124.146	0.823	-8191	255	
635.093	1	1	0	0	0.33196	0.13288	0.045238	0.047434	0.25632	0.12252	0.11673	0.20858	0.09653	0.090749	0.38112	0.36817	0.17968	0.16964	0.0775	0.12129	-2.4542	-2.7771	-3.1479	-2.9437	-3.0917	-3.0271	-2.9479	-3.1292	-2.9625	-2.6188	-3.1542	-2.8083	-3.0396	-3.1354	-2.6542	-3.0896	-13.775	-15.955	297.774	47.344	-10.359	-17.838	220.481	217.054	244.361	37.435	311.178	316.059	-21.395	266.790	269.234	65.312	0.00033851	0.00078696	0.0001675	1368.2	6.1271e-06	2.1968e-06	1367.3	368.93	4.2281e-06	5.9842e-06	423.02	141.12	122.62	42.173	5.8292e-06	52.037	0.00052428	0.00053703	0.0001485	1384.1	5.7531e-06	5.809e-06	1383.3	375.29	5.7942e-06	5.8586e-06	428.88	144.08	125.21	43.087	5.8691e-06	53.326	105.565	67.567	85.200	-12.099	146.908	63.223	-12.091	-7.369	167.049	125.326	-8.150	-3.687	-3.338	1.437	136.387	0.913	-8191	255	
635.214	1	1	0	0	0.033871	0.12897	0.24814	0.36949	0.12761	0.070307	0.21625	0.16303	0.15682	0.076391	0.23652	0.1128	0.047215	0.12189	0.10313	0.24079	-2.6083	-2.8021	-3.1083	-2.8792	-2.9604	-3.125	-2.9562	-2.9437	-2.9562	-2.5458	-2.9792	-2.9437	-3.0521	-3.2062	-2.7979	-3.0792	121.604	-13.780	47.594	272.721	181.803	310.990	266.325	-19.858	262.062	233.253	329.305	111.691	46.261	286.968	45.262	-5.051	0.0003077	0.00083208	8.4536e-05	1369.3	3.308e-06	8.3266e-06	1370.1	370.45	7.0811e-06	1.003e-06	422.95	141.17	122.75	42.241	4.3297e-06	52.03	0.0005273	0.00053591	0.00014878	1384.6	5.8876e-06	5.7887e-06	1384.1	376.29	5.83e-06	5.831e-06	429.22	144	125.14	43.172	5.937e-06	53.397	108.141	83.749	55.676	-12.015	17.158	107.210	-12.185	-7.337	111.831	91.304	-7.684	-3.763	-3.046	1.420	128.953	0.884	-8191	255	
635.310	1	1	0	0	0.17176	0.11411	0.018094	0.26021	0.11018	0.22431	0.28008	0.2155	0.090745	0.21266	0.067932	0.18862	0.39581	0.407	0.22966	0.099866	-2.4292	-2.8083	-3.1292	-2.9813	-2.5729	-3.2146	-2.9896	-3.0292	-2.9521	-2.7125	-3.1521	-2.9479	-2.7646	-3.0958	-2.7062	-2.8229	329.253	102.697	135.431	290.482	215.729	307.243	292.383	310.834	174.012	223.641	44.573	257.013	299.092	303.318	111.139	188.237	0.00032796	0.00071738	0.0001138	1375.4	2.7566e-06	4.3543e-06	1369.3	369.73	4.6832e-06	4.835e-06	421.18	140.85	122.68	42.085	2.7731e-06	52.235	0.00052502	0.00054357	0.00015075	1386.7	5.8886e-06	5.8561e-06	1384.4	375.24	5.9031e-06	5.8919e-06	428.96	143.82	125.28	43.16	6.0031e-06	53.463	96.869	82.438	334.690	-11.993	97.907	133.813	-12.179	-7.288	94.476	51.432	-7.730	-3.705	-3.008	1.482	176.084	0.756	-8191	255	
635.404	1	1	0	0	0.29899	0.072407	0.031779	0.24151	0.057145	0.1997	0.057359	0.28592	0.12892	0.16808	0.20858	0.12982	0.3344	0.1853	0.14327	0.32973	-2.6188	-2.7042	-2.9083	-3.0521	-2.6083	-3.1083	-2.8896	-2.8542	-3.2167	-2.7042	-3.2521	-2.9604	-2.8917	-3.3167	-3.0479	-2.9208	170.437	-11.125	23.920	288.639	-7.122	133.651	-4.522	290.255	206.497	278.314	151.892	322.984	316.265	313.449	122.286	279.720	0.00027467	0.0006757	0.000296	1369.5	4.1956e-06	7.0655e-06	1370.2	369.82	3.7415e-06	4.6716e-06	423.74	141.01	122.56	42.226	3.3087e-06	52.152	0.0005256	0.00054327	0.00015002	1384.4	5.9123e-06	5.8968e-06	1384.9	375.99	5.8951e-06	5.9207e-06	429.84	144	125.34	43.143	5.9147e-06	53.465	108.982	46.379	101.386	-12.120	157.612	126.447	-12.177	-7.446	127.929	87.093	-7.858	-3.684	-3.079	1.512	72.668	0.668	-8191	255	
635.502	1	1	0	0	0.10932	0.051301	0.0954	0.14106	0.31602	0.035024	0.21782	0.25672	0.042406	0.12722	0.19118	0.17365	0.16218	0.48687	0.31997	0.10144	-2.7188	-2.6958	-2.9792	-3.3125	-2.8271	-3.1604	-3.0979	-2.7479	-3.1021	-2.9167	-3.0687	-2.9542	-2.9125	-3.2812	-2.9458	-2.8979	235.210	-10.918	48.968	198.105	245.717	153.467	212.381	274.110	152.944	278.105	287.568	328.861	280.045	19.196	126.587	55.583	0.00034955	0.00045356	0.00013334	1370.7	4.8507e-06	6.2246e-06	1372.1	369.17	3.5074e-06	6.7766e-06	422.05	140.89	121.82	42.237	6.389e-06	52.216	0.00052007	0.00055284	0.0001497	1386.6	5.8721e-06	5.8176e-06	1386.9	375.66	5.8212e-06	5.8308e-06	429.11	144.01	124.98	43.184	5.8389e-06	53.453	99.965	50.595	35.792	-12.077	118.269	89.685	-12.057	-7.122	129.681	150.262	-7.923	-3.630	-3.408	1.354	116.601	0.761	-8191	255	
635.597	1	1	0	0	0.13364	0.12281	0.15206	0.4767	0.15862	0.078304	0.17097	0.2326	0.20685	0.17804	0.16776	0.10698	0.046403	0.058727	0.084226	0.11659	-2.8937	-2.9229	-2.7021	-3.2083	-2.6958	-3.1521	-3.1813	-2.9437	-3.2708	-2.8708	-2.8292	-3.1875	-2.9208	-3.0354	-3.025	-2.6562	40.409	123.947	187.125	322.725	221.502	241.718	12.234	270.871	81.165	139.024	286.106	273.758	30.744	283.308	129.215	218.230	0.0003326	0.00034047	0.00012484	1369.7	3.9008e-06	2.1656e-06	1369.9	370.29	5.4174e-06	8.0192e-06	425.69	141.24	122.59	42.086	2.2412e-06	52.174	0.00052013	0.00053794	0.00014756	1385.9	5.8064e-06	5.7909e-06	1384	376.12	5.8615e-06	5.8185e-06	429.58	144.18	125.41	43.163	5.822e-06	53.437	104.512	54.723	64.442	-12.039	90.152	87.537	-12.025	-7.388	123.150	146.835	-7.772	-3.604	-3.177	1.520	96.374	0.472	-8191	255	
635.693	1	1	0	0	0.18174	0.17116	0.19342	0.21809	0.12545	0.10076	0.096863	0.17011	0.17078	0.25092	0.079532	0.17509	0.35973	0.35553	0.090785	0.35802	-2.6542	-2.7479	-2.7625	-3.1063	-2.5771	-2.9583	-3.0708	-2.9333	-3.0979	-2.7542	-3.0021	-3.2354	-2.6813	-3.1375	-2.9562	-2.7604	37.683	200.027	146.665	290.853	163.392	-3.430	247.462	304.255	46.528	284.795	285.016	307.242	324.185	16.426	177.568	187.137	0.00034854	0.00060518	0.00012667	1371.7	5.7737e-06	4.2151e-06	1371.2	369.4	2.511e-06	5.065e-06	422.64	141.44	122.84	42.229	3.2193e-06	51.95	0.00051694	0.00053132	0.0001489	1384.2	5.879e-06	5.7737e-06	1384.2	375.93	5.8259e-06	5.9245e-06	429.08	144.24	125.17	43.222	5.8323e-06	53.357	98.898	59.891	72.691	-12.084	114.342	141.523	-12.182	-7.407	59.998	121.448	-8.002	-3.572	-2.978	1.582	74.320	0.502	-8191	255	
635.814	1	1	0	0	0.079022	0.2815	0.11138	0.30577	0.15934	0.19177	0.093247	0.22305	0.11729	0.20491	0.17137	0.34524	0.080937	0.057375	0.18423	0.099248	-2.6	-2.7458	-2.6542	-3.4333	-2.6292	-3.0438	-3.1417	-2.7729	-3.1292	-2.9792	-2.875	-3.075	-2.9938	-2.9708	-3.1167	-2.9688	57.040	217.019	158.500	273.808	288.961	128.779	242.276	196.627	166.062	314.913	247.307	253.367	9.005	0.298	45.870	144.001	0.00032729	0.00017896	0.00023989	1370.5	5.5621e-06	3.1852e-06	1373.6	370.79	2.6379e-06	9.0435e-06	420.92	141.26	122.54	42.236	4.4044e-06	52.141	0.00052207	0.00052997	0.00014513	1385.2	5.7988e-06	5.8482e-06	1384.5	375.41	5.8681e-06	5.7705e-06	429.01	144.15	125.26	43.263	5.7967e-06	53.379	103.770	69.874	68.820	-11.964	108.460	109.362	-12.054	-7.597	92.545	79.301	-8.025	-3.604	-3.068	1.651	129.751	0.771	-8191	255	
635.910	1	1	0	0	0.24841	0.189	0.2137	0.22951	0.14261	0.043745	0.18318	0.26162	0.033655	0.037455	0.0035333	0.19374	0.28713	0.093497	0.054231	0.21761	-2.7167	-2.9646	-2.5521	-3.0708	-2.7958	-2.8563	-3.3146	-2.6937	-3.1312	-3.0479	-2.7313	-3.1958	-3.0333	-2.8625	-3.1479	-2.8229	35.715	203.828	249.764	268.793	84.808	207.205	255.328	275.258	226.225	325.283	108.695	281.328	286.203	217.834	182.776	222.445	0.00027725	0.0006198	0.00014008	1373.4	5.9438e-06	6.8859e-06	1371.8	369.55	5.4051e-06	6.8691e-06	422.78	140.86	122.4	42.217	2.0489e-06	52.225	0.00051946	0.00053616	0.00014997	1385.9	5.8574e-06	5.8619e-06	1386.4	376	5.8469e-06	5.912e-06	429.22	143.97	125.21	43.191	5.7643e-06	53.475	103.087	58.655	72.791	-11.938	164.710	125.123	-12.252	-7.355	120.032	93.254	-7.992	-3.645	-3.213	1.372	107.013	0.767	-8191	255	
636.006	1	1	0	0	0.27463	0.25424	0.12818	0.18848	0.07356	0.15716	0.22655	0.11223	0.14087	0.22567	0.054083	0.081594	0.15097	0.11728	0.034039	0.15291	-2.5833	-2.9833	-2.6208	-3.2646	-2.8229	-2.9021	-3.1771	-2.7229	-3.0563	-2.9917	-2.8083	-3.0604	-2.8583	-2.8187	-3.0875	-2.7604	208.820	197.422	212.927	305.111	-7.414	91.693	280.195	277.045	201.326	257.351	297.984	317.483	31.757	273.704	244.037	264.667	0.00026664	0.00028399	0.00016761	1368.4	3.7968e-06	6.9054e-06	1370	370.55	3.2292e-06	8.5556e-06	426.55	141.61	122.43	42.359	3.8333e-06	52.065	0.00052183	0.00051887	0.00014908	1384.4	5.7889e-06	5.6994e-06	1384.1	375.7	5.7333e-06	5.6896e-06	430.13	144.16	125.22	43.303	5.7178e-06	53.42	117.135	154.403	71.805	-11.963	125.098	150.543	-12.188	-7.429	124.227	86.850	-8.053	-3.530	-3.221	1.560	130.282	0.886	-8191	255	
636.102	1	1	0	0	0.10853	0.014033	0.098354	0.23639	0.17761	0.25913	0.23657	0.3509	0.13664	0.22751	0.26811	0.42913	0.13034	0.16135	0.086492	0.30481	-2.2938	-3.1292	-2.6542	-3.1646	-3.0229	-2.6312	-3.3	-3.1021	-2.8021	-3.2604	-2.7771	-3.3312	-3.1458	-2.7875	-3.1646	-2.9292	34.285	68.082	250.652	284.746	-8.947	201.058	289.970	262.076	323.065	317.576	318.958	332.552	68.238	296.302	89.848	88.942	0.00034018	0.00049875	0.00011706	1372.9	4.6808e-06	6.8487e-06	1365.7	370.33	4.5924e-06	6.4176e-06	423.79	141.48	122.06	42.296	3.243e-06	52.203	0.00051721	0.00051482	0.00014695	1386.3	5.7434e-06	5.7408e-06	1382.4	375.91	5.7667e-06	5.6802e-06	429.28	144.17	125.12	43.223	5.7502e-06	53.444	100.071	91.364	90.885	-11.921	118.469	130.057	-12.087	-7.573	80.160	123.958	-7.799	-3.579	-3.164	1.322	92.791	0.795	-8191	255	
636.223	1	1	0	0	0.17796	0.2663	0.14158	0.077606	0.10828	0.12286	0.091143	0.18645	0.18245	0.10294	0.12316	0.3651	0.14771	0.32722	0.060025	0.052905	-2.5021	-3.0667	-2.6729	-3.3333	-2.9583	-2.7938	-3.4313	-2.9896	-2.7875	-3.1854	-2.7771	-2.9437	-3.1458	-2.8042	-3.0833	-2.85	106.447	124.195	221.111	253.036	4.428	117.000	-5.644	307.445	163.489	270.417	332.584	249.397	330.706	243.413	269.439	331.953	0.00032831	0.00046139	0.00013439	1373.6	5.3773e-06	7.1708e-06	1368.9	370.7	4.2046e-06	6.7172e-06	421.36	141.31	122.48	42.384	1.7246e-06	52.117	0.00050867	0.00051468	0.00014529	1386.4	5.7362e-06	5.6087e-06	1384.3	375.87	5.6682e-06	5.6335e-06	428.81	144.23	125.15	43.261	5.7413e-06	53.45	106.271	87.724	104.384	-12.133	119.557	96.355	-12.068	-7.365	121.711	114.993	-8.011	-3.466	-3.073	1.435	36.002	0.556	-8191	255	
636.294	1	1	0	0	0.16669	0.15787	0.1204	0.32152	0.13622	0.093581	0.35711	0.47044	0.21533	0.14802	0.084499	0.13691	0.082506	0.033469	0.2406	0.15809	-2.1625	-3.075	-2.5312	-3.2188	-2.95	-2.4854	-3.3417	-2.9938	-2.7229	-3.0312	-2.95	-2.9708	-3.0396	-2.9625	-3.0604	-3.0875	302.721	112.066	70.682	305.222	291.932	169.692	300.860	287.147	258.232	151.552	159.001	47.286	240.388	314.696	191.262	154.110	0.00032214	0.00028368	0.0001395	1375.2	3.9514e-06	3.7238e-06	1370.7	369.82	2.024e-06	3.802e-06	423.59	141.42	122.74	42.183	2.1525e-06	52.21	0.00051586	0.00052248	0.00014496	1387.8	5.8311e-06	5.7532e-06	1386	375.54	5.7188e-06	5.7051e-06	429.27	144.13	125.36	43.2	5.7609e-06	53.546	112.941	89.417	67.405	-12.107	134.450	189.342	-12.049	-7.498	81.659	100.520	-8.075	-3.541	-3.024	1.538	152.786	1.061	-8191	255	
636.390	1	1	0	0	0.10856	0.21091	0.057593	0.083509	0.041123	0.060961	0.19444	0.021784	0.040525	0.13631	0.15194	0.18664	0.15209	0.096283	0.15576	0.15439	-2.3042	-3.2354	-2.8146	-2.9396	-3.2271	-2.6375	-3.1708	-3.1833	-2.75	-3.1854	-2.8937	-2.9604	-3.15	-2.9833	-2.975	-2.9313	314.397	309.626	80.019	251.302	145.205	87.727	322.204	19.199	251.001	30.514	225.799	288.461	-15.815	-16.145	224.124	-7.173	0.00028489	0.00060309	0.00015298	1374.5	2.7444e-06	1.2391e-05	1369.9	370.4	6.3912e-06	3.1906e-06	422.58	140.51	122.54	42.274	2.9721e-06	52.183	0.00051649	0.00051576	0.00014582	1387.1	5.6405e-06	5.6755e-06	1383.2	375.53	5.7036e-06	5.6014e-06	428.7	143.8	125.22	43.184	5.6161e-06	53.432	107.816	56.432	82.970	-12.006	166.099	79.746	-11.994	-7.496	151.660	105.177	-8.109	-3.868	-2.986	1.583	122.386	0.815	-8191	255	
636.487	1	1	0	0	0.15695	0.12125	0.10732	0.25453	0.017787	0.012284	0.32741	0.22056	0.018162	0.20506	0.12541	0.068013	0.20788	0.16773	0.30772	0.18162	-2.2479	-3.2167	-2.9625	-3.0417	-3.0062	-2.7479	-3.2833	-3.225	-2.6521	-3.1458	-3.1021	-3.0292	-3.3146	-2.8063	-3.075	-3.0438	223.598	115.891	192.705	315.032	282.285	279.796	245.621	272.749	-22.426	134.312	315.695	299.333	251.301	279.355	286.184	33.385	0.00031979	0.00051101	0.00019616	1373	6.1714e-06	6.1952e-06	1370.9	370.8	3.823e-06	5.6689e-06	423.49	140.62	122.83	42.067	6.9717e-06	52.039	0.0005042	0.00051411	0.00014356	1385.6	5.6185e-06	5.6191e-06	1384.1	376.47	5.58e-06	5.5226e-06	428.72	143.92	125.24	43.174	5.479e-06	53.392	103.677	52.513	109.309	-11.901	124.768	86.454	-12.100	-7.359	174.502	128.847	-8.022	-3.314	-3.095	1.407	122.155	0.792	-8191	255	
636.605	1	1	0	0	0.097082	0.08088	0.0794	0.32445	0.092968	0.26524	0.10352	0.24218	0.18725	0.12186	0.13685	0.17114	0.066349	0.066383	0.2874	0.16201	-2.2792	-3.1125	-2.8375	-2.9479	-3.1188	-2.9583	-3.0625	-3.2708	-2.7438	-3.0333	-3.1396	-2.8396	-3.3833	-3.0271	-2.7917	-3.2896	325.921	288.576	-2.894	299.630	259.862	-1.803	271.995	232.913	222.016	325.229	303.122	-24.788	95.702	208.741	275.837	0.180	0.00027674	0.00066022	0.00015871	1373.2	4.2363e-06	5.7652e-06	1369.5	370.2	1.0363e-06	3.1208e-06	423.23	141.84	122.32	42.268	6.5952e-07	52.215	0.00048913	0.00050123	0.000138	1384	5.3904e-06	5.3849e-06	1382.2	375.56	5.3481e-06	5.3439e-06	428.72	144.3	125.2	43.222	5.4181e-06	53.462	99.610	78.672	73.571	-11.922	127.414	132.613	-11.882	-7.495	248.323	139.029	-7.731	-3.535	-3.093	1.481	57.177	0.721	-8191	255	
636.702	1	1	0	0	0.14339	0.04525	0.19052	0.40065	0.16352	0.10598	0.17785	0.45925	0.20888	0.14603	0.26115	0.079569	0.32036	0.21932	0.062759	0.12274	-2.1813	-3.0417	-3.0417	-2.8479	-3.1771	-2.9062	-3.1417	-3.2667	-2.5354	-2.8833	-3.0479	-2.8167	-3.1271	-3.0292	-2.9333	-3.2917	75.291	165.880	163.565	291.936	112.838	163.511	261.531	266.631	333.301	34.501	274.594	-1.266	328.886	175.111	152.098	151.499	0.00026396	0.00061082	0.00016245	1373.4	2.4812e-06	5.1166e-06	1370.6	370.84	5.6779e-06	5.5166e-06	423.1	141.53	122.59	42.473	3.2613e-06	52.387	0.00048529	0.00049353	0.00013596	1385.1	5.3944e-06	5.4389e-06	1384	375.22	5.4954e-06	5.4435e-06	428.55	144.23	125.27	43.276	5.4861e-06	53.456	108.165	81.524	61.906	-12.057	94.328	89.722	-12.016	-7.383	128.511	132.323	-7.831	-3.688	-3.344	1.706	104.039	0.512	-8191	255	
636.798	1	1	0	0	0.066355	0.075762	0.13731	0.0846	0.11761	0.29063	0.20446	0.23576	0.22312	0.22916	0.1401	0.088094	0.029056	0.1806	0.097644	0.099766	-2.2	-2.9062	-3.0979	-2.8875	-3.025	-2.9062	-3.1063	-3.2938	-2.6896	-2.9104	-3.2125	-2.7792	-3.1792	-3.1188	-2.6063	-3.2083	274.364	197.324	333.374	272.814	258.547	206.991	155.093	251.979	132.333	52.425	333.328	94.346	294.077	265.801	124.295	222.987	0.00024308	0.00060025	0.00028689	1371.8	4.4378e-06	4.0487e-06	1366.4	370.24	3.9638e-06	2.2971e-06	424.29	141.33	123.04	42.407	4.7389e-06	52.445	0.00049115	0.00050316	0.00013766	1385.3	5.387e-06	5.4225e-06	1381.8	375.54	5.3758e-06	5.3353e-06	429.17	144.09	125.32	43.288	5.4116e-06	53.562	89.304	55.272	88.561	-11.931	100.115	127.211	-12.290	-7.303	137.408	88.500	-7.785	-3.617	-2.983	1.412	136.154	0.741	-8191	255	
636.894	1	1	0	0	0.042344	0.28381	0.17663	0.15959	0.25345	0.17763	0.30939	0.27207	0.10375	0.096952	0.12447	0.16588	0.13597	0.19711	0.077287	0.26507	-2.1	-2.8396	-3.0917	-2.7792	-2.9958	-2.8812	-2.8937	-3.1917	-2.9375	-2.9188	-3.3396	-2.6937	-3.3354	-3.0396	-2.7792	-3.325	122.209	222.532	271.906	257.085	193.265	116.030	275.570	294.099	214.943	72.984	31.556	-10.115	31.738	13.994	44.661	207.294	0.00032493	0.00040247	9.0182e-05	1370.2	5.3779e-06	1.3539e-06	1371.4	370.42	6.0196e-06	5.5199e-06	423.94	142.07	123.01	42.379	1.1804e-06	52.422	0.000488	0.00049444	0.00013679	1385.2	5.4748e-06	5.4064e-06	1386.1	376.03	5.4431e-06	5.3193e-06	429.29	144.7	125.54	43.342	5.0897e-06	53.548	100.932	60.160	57.009	-12.034	136.750	65.352	-12.159	-7.461	106.887	124.609	-7.770	-3.590	-3.262	1.478	135.972	0.584	-8191	255	
636.990	1	1	0	0	0.17936	0.27351	0.14282	0.52958	0.083743	0.20834	0.19059	0.064018	0.19722	0.18733	0.3004	0.27584	0.15514	0.18019	0.28675	0.18786	-2.4688	-2.9521	-3.1417	-3.0563	-2.9229	-2.9104	-2.9646	-3.1937	-2.8521	-2.8542	-3.0771	-2.8021	-3.1562	-3.1354	-2.6979	-3.3042	303.961	140.970	216.906	303.155	10.283	164.040	160.410	279.502	312.993	268.623	30.866	289.484	146.485	203.239	96.672	267.005	0.00032718	0.00055694	0.00013442	1372.3	1.6132e-06	2.4052e-06	1364.7	370.36	2.9596e-06	3.8614e-06	423.38	141.68	122.58	42.135	3.0525e-06	52.34	0.00046584	0.0004615	0.00012943	1384.8	5.1181e-06	5.0565e-06	1382.9	375.61	5.2805e-06	5.2996e-06	428.3	144.35	125.2	43.201	5.4643e-06	53.477	103.803	17.143	52.947	-11.940	133.625	119.420	-12.173	-7.631	140.355	94.439	-7.994	-3.291	-2.889	1.422	110.467	1.039	-8191	255	
637.086	1	1	0	0	0.33181	0.15499	0.24532	0.39945	0.2314	0.13976	0.3151	0.26851	0.3438	0.068671	0.24217	0.49537	0.026468	0.13233	0.2592	0.33959	-2.5417	-2.8	-3.0792	-3.0812	-2.9562	-3.175	-2.9542	-3.2854	-2.9	-2.7271	-3.2938	-2.8417	-3.0438	-3.1917	-2.6604	-3.1229	199.120	-24.365	210.814	303.817	242.570	38.261	266.657	296.071	78.036	224.863	263.344	307.558	260.693	18.069	288.703	286.790	0.0003406	0.00078134	8.5278e-05	1371.1	3.9213e-06	5.3401e-06	1372.9	370.78	4.263e-06	4.8992e-06	423.34	142.31	123.31	42.44	3.4088e-06	52.379	0.00050658	0.00051365	0.00014242	1384.1	5.5875e-06	5.5324e-06	1385.9	376	5.4084e-06	5.3395e-06	428.91	144.91	125.69	43.389	5.0654e-06	53.599	102.051	60.048	19.866	-12.139	96.528	137.601	-12.159	-7.324	92.210	140.288	-8.187	-3.856	-3.149	1.458	139.902	0.810	-8191	255	
637.182	1	1	0	0	0.17191	0.09616	0.15342	0.37779	0.068803	0.14218	0.14545	0.096314	0.15677	0.16309	0.093699	0.25956	0.11833	0.066241	0.12586	0.13467	-2.5875	-2.6375	-3.25	-3.1479	-2.8667	-3.2479	-3.0062	-3.1458	-3.075	-2.9042	-3.2125	-2.8917	-2.9104	-3.2979	-2.6833	-2.9271	77.814	-18.794	249.059	303.191	164.431	26.167	230.477	299.144	137.995	122.349	249.542	286.228	315.727	33.243	105.765	-23.014	0.00036677	0.00047432	0.00015527	1369.7	3.9117e-06	6.4201e-06	1369.5	371.68	1.5725e-06	5.0139e-06	423.83	142.33	123.13	42.548	2.1623e-06	52.412	0.00044827	0.00043989	0.00012181	1382.8	4.7953e-06	4.7408e-06	1385.7	375.64	4.8247e-06	4.8032e-06	429.17	144.96	125.9	43.355	4.9414e-06	53.558	97.628	38.096	79.348	-12.178	122.456	122.640	-12.157	-7.299	269.985	112.670	-8.051	-3.661	-3.209	1.614	112.602	0.852	-8191	255	
637.303	1	1	0	0	0.2058	0.10204	0.033479	0.30217	0.18923	0.15442	0.31244	0.24567	0.19511	0.054672	0.098592	0.061095	0.24962	0.041058	0.16454	0.18618	-2.45	-2.7062	-3.2458	-3.1458	-2.8771	-3.1521	-2.8521	-2.9021	-2.8	-2.7375	-3.2083	-3.0875	-2.9104	-3.1771	-2.8896	-3.0458	303.654	275.641	222.015	272.800	180.986	233.374	224.407	294.845	274.978	212.641	273.627	174.175	298.958	327.636	-22.607	255.760	0.00029296	0.0005959	0.00014166	1372	4.449e-06	1.7211e-06	1368.4	371.3	6.6706e-06	3.2804e-06	425.11	142.33	123.61	42.394	1.1158e-06	52.408	0.00045157	0.00045802	0.00012725	1385.4	5.0311e-06	4.982e-06	1387.3	377.15	5.0764e-06	5.079e-06	429.88	144.97	125.96	43.406	5.2093e-06	53.603	113.733	69.817	72.928	-12.143	143.563	69.762	-12.230	-7.424	105.881	88.602	-8.011	-3.494	-3.165	1.592	110.459	0.750	-8191	255	
637.397	1	1	0	0	0.15797	0.20447	0.3172	0.23621	0.10007	0.15136	0.52248	0.29095	0.034186	0.10886	0.15554	0.11652	0.36738	0.3571	0.15452	0.072923	-2.8042	-2.6646	-3.0875	-3.0958	-2.8042	-3.1042	-3.0125	-2.9354	-2.925	-2.5521	-2.9292	-2.9854	-2.8063	-3.1583	-2.8833	-3.0167	80.760	319.959	289.554	242.494	222.768	67.490	294.330	333.925	101.231	79.910	297.047	316.370	-9.805	330.272	164.651	244.639	0.00036891	0.00077918	0.00016041	1378	4.3319e-06	5.232e-07	1376.7	369.54	4.2999e-06	6.5963e-06	422.61	141.87	123.19	42.427	2.0334e-06	52.454	0.00047767	0.00048454	0.00013321	1388.8	5.2051e-06	5.2823e-06	1387.2	375.92	5.244e-06	5.3324e-06	429.14	144.45	125.49	43.262	5.2834e-06	53.538	102.415	51.182	134.081	-12.042	176.543	160.923	-12.105	-7.340	138.317	129.380	-7.995	-3.612	-3.093	1.495	173.960	0.820	-8191	255	
637.495	1	1	0	0	0.054856	0.30362	0.17419	0.21204	0.23104	0.061841	0.11242	0.14811	0.042721	0.10905	0.26598	0.051852	0.055811	0.04722	0.21369	0.063351	-2.6688	-2.6417	-3.0625	-3.1542	-2.6375	-3.1229	-2.9208	-2.9875	-3.1833	-2.8021	-3.025	-3.0583	-2.7229	-3.3083	-2.8208	-2.8292	18.310	197.495	108.783	-5.710	170.073	55.847	227.186	321.058	64.898	76.279	308.547	-16.520	73.131	200.029	308.317	232.867	0.00034962	0.00047616	0.00013552	1371.4	6.399e-06	6.9274e-06	1369.4	372.54	4.5597e-06	2.3521e-06	425.16	142.2	123.27	42.438	1.8994e-06	52.522	0.00046823	0.00047633	0.00013119	1385.9	5.1779e-06	5.0689e-06	1385.4	376.23	5.0451e-06	5.0645e-06	429.53	144.93	125.81	43.394	5.0658e-06	53.577	102.653	73.615	65.967	-12.002	134.694	137.002	-12.151	-7.436	133.453	43.637	-7.738	-3.484	-3.007	1.315	72.304	0.572	-8191	255	
637.591	1	1	0	0	0.087031	0.10046	0.20481	0.27906	0.12666	0.23749	0.20575	0.060454	0.098426	0.32297	0.10606	0.15832	0.21919	0.1227	0.27903	0.29335	-2.7396	-2.7583	-2.8792	-3.2167	-2.7021	-2.9417	-3.0938	-2.8292	-3.1667	-2.8167	-3.1458	-3.1354	-2.8	-3.1625	-2.7979	-2.9125	115.680	102.781	115.728	-10.605	179.420	312.998	205.815	223.827	20.416	47.066	32.600	278.598	318.887	329.652	97.166	279.487	0.0003346	0.00049159	0.0002676	1374.3	4.9496e-06	1.9749e-06	1367.5	371.21	4.9897e-06	6.0446e-06	426.89	142.61	123.38	42.505	4.948e-06	52.168	0.00046119	0.0004648	0.00012822	1386.2	5.0172e-06	5.0196e-06	1384.6	376.11	4.9984e-06	5.0522e-06	429.91	144.78	125.8	43.329	5.1641e-06	53.453	100.306	105.530	77.001	-11.911	137.445	82.122	-12.033	-7.386	150.306	131.808	-7.946	-3.612	-2.983	1.416	98.876	0.928	-8191	255	
637.686	1	1	0	0	0.043204	0.26292	0.16487	0.31245	0.068623	0.11585	0.014587	0.36981	0.031025	0.23885	0.12659	0.27123	0.19925	0.2754	0.08077	0.11531	-2.7167	-2.7792	-2.8521	-3.1813	-2.5896	-2.8688	-3.2625	-2.9583	-3.1958	-2.7562	-3.1042	-3.0812	-2.825	-3.1188	-2.8083	-2.8812	136.186	227.021	268.443	0.230	141.036	251.102	235.987	289.745	58.308	148.826	192.655	257.774	259.731	316.113	280.405	69.053	0.00037188	0.00076515	0.00010963	1369.9	3.8073e-06	9.9602e-06	1370.7	371.51	3.9282e-06	5.3192e-06	425.66	142.26	123.12	42.288	3.5404e-06	52.514	0.0004629	0.00046863	0.00013161	1384.1	5.2242e-06	5.2041e-06	1386.7	375.58	5.1863e-06	5.2583e-06	429.67	144.97	125.67	43.33	5.3082e-06	53.619	96.930	83.548	50.379	-11.974	152.244	90.164	-12.210	-7.493	130.317	102.024	-7.976	-3.686	-3.241	1.158	187.757	0.633	-8191	255	
637.782	1	1	0	0	0.44091	0.15928	0.19248	0.13962	0.079923	0.06608	0.14878	0.060904	0.026162	0.22156	0.13045	0.028345	0.2988	0.1929	0.052629	0.10191	-2.4521	-2.8917	-2.7708	-3.3333	-2.6083	-2.9479	-3.1792	-2.825	-3.25	-2.9833	-2.7021	-3.1875	-2.8271	-3	-3.0458	-2.8896	278.472	37.055	277.544	297.382	267.473	242.966	101.723	28.546	208.818	194.806	81.287	-9.816	18.699	237.264	267.954	284.130	0.00030435	0.00074913	0.00015454	1377.3	2.8227e-06	7.6902e-06	1376.3	371.23	4.1755e-06	4.2238e-06	422.54	142.2	123.37	42.31	3.7252e-06	52.325	0.00047483	0.00048349	0.00013757	1386.6	5.3667e-06	5.2396e-06	1388.7	376.21	5.3648e-06	5.2976e-06	428.92	144.69	125.63	43.302	5.1776e-06	53.561	97.313	89.849	75.402	-12.043	184.963	155.920	-12.237	-7.318	83.097	60.306	-7.654	-3.577	-2.956	1.430	86.518	0.691	-8191	255	
637.903	1	1	0	0	0.069889	0.16927	0.4542	0.2426	0.26065	0.23359	0.04251	0.014245	0.15981	0.29464	0.11375	0.062055	0.13733	0.33389	0.23098	0.23221	-2.6729	-2.85	-2.7417	-3.2938	-2.8208	-2.9521	-3.2583	-2.8146	-3.0479	-2.9354	-2.8083	-3.3	-3.1771	-3.0396	-3.0771	-2.9437	-1.541	103.809	65.972	292.462	37.151	72.082	198.409	127.312	42.824	51.731	274.761	251.295	316.237	313.523	131.269	299.793	0.00031057	0.0006367	0.00021811	1373.9	3.6092e-06	5.4027e-06	1370.8	370.48	1.9532e-06	3.9357e-06	423.26	141.41	123.31	42.567	3.0592e-06	52.38	0.0004598	0.00046864	0.00013176	1387.1	5.2315e-06	5.1804e-06	1387.2	376.47	5.3215e-06	5.3532e-06	429.11	144.85	125.89	43.408	5.2551e-06	53.517	107.414	69.225	60.116	-12.070	164.016	156.295	-12.249	-7.357	84.602	129.053	-8.057	-3.608	-3.162	1.532	100.803	0.864	-8191	255	
637.999	1	1	0	0	0.26126	0.23051	0.19283	0.25125	0.3036	0.13047	0.35015	0.13585	0.10291	0.16271	0.113	0.37426	0.36655	0.15819	0.13357	0.32022	-2.5854	-3.0542	-2.6604	-3.3146	-2.9	-2.7521	-3.3438	-2.825	-2.9104	-3.1521	-2.8083	-3.1917	-3.0417	-2.9479	-3.2292	-2.8896	302.886	85.368	48.645	324.096	-13.612	184.876	257.995	320.424	224.437	34.801	-17.173	317.105	291.502	244.599	290.443	-22.613	0.00034947	0.00072863	0.0001667	1370.1	3.8599e-06	6.138e-06	1372.2	372.86	3.9731e-06	4.8094e-06	425.36	142.13	123.44	42.357	4.116e-06	52.625	0.00048155	0.00047652	0.00013263	1384.7	5.2324e-06	5.1358e-06	1386.7	376.67	5.1856e-06	5.1807e-06	430	144.92	125.75	43.257	5.1548e-06	53.629	91.454	89.747	82.359	-11.955	133.189	138.236	-12.135	-7.613	191.783	154.067	-7.826	-3.500	-3.081	1.636	122.495	0.591	-8191	255	
638.095	1	1	0	0	0.1589	0.15236	0.35095	0.30471	0.17243	0.20441	0.25802	0.16668	0.023443	0.27945	0.087747	0.044078	0.2678	0.18124	0.29012	0.10057	-2.5187	-2.9979	-2.5646	-3.2479	-2.8812	-2.6854	-3.4979	-2.8458	-2.9396	-3.1354	-2.7208	-3.1417	-3.0167	-2.8271	-3.0271	-3.0042	202.950	69.990	96.752	321.019	286.010	62.953	260.136	39.027	269.819	287.950	246.660	190.431	233.614	-14.489	176.684	255.105	0.00028486	0.0010525	0.00014079	1377.4	2.3285e-06	9.2257e-06	1367.7	371.59	5.7477e-06	5.3538e-06	425.4	142.42	123.98	42.53	3.7864e-06	52.346	0.00047017	0.00046817	0.00013018	1387.6	5.1215e-06	5.0534e-06	1387.8	376.17	4.9821e-06	4.8968e-06	429.93	145.11	126.06	43.414	4.9396e-06	53.649	97.628	47.637	72.180	-12.081	128.729	114.278	-12.131	-7.264	133.137	151.900	-7.874	-3.720	-3.247	1.458	135.115	1.098	-8191	255	
638.167	1	1	0	0	0.44898	0.068034	0.021404	0.4153	0.18496	0.30609	0.094926	0.078348	0.24902	0.13417	0.27125	0.24097	0.095648	0.17903	0.32007	0.16241	-2.4771	-3.0833	-2.6312	-3.2188	-2.9437	-2.8125	-3.3333	-2.8896	-2.9104	-2.9875	-2.5729	-2.9333	-3.2167	-2.7938	-3.1417	-2.9854	215.860	20.689	17.286	282.453	296.048	328.251	294.638	334.371	181.995	238.634	-22.013	298.898	302.017	291.181	316.434	332.964	0.0002641	0.00015392	0.00022319	1373.2	3.5391e-06	3.4612e-06	1374.6	371.31	5.6877e-06	5.5525e-06	425.21	142.28	123.43	42.726	1.5176e-06	52.666	0.00045307	0.00044835	0.00012722	1386.9	4.9865e-06	4.8801e-06	1386.9	375.79	4.9234e-06	4.8733e-06	429.98	145.29	125.9	43.472	4.8471e-06	53.771	96.831	29.273	74.079	-12.085	144.596	75.214	-12.062	-7.360	138.610	71.907	-7.824	-3.637	-2.884	1.651	223.408	0.598	-8191	255	
638.263	1	1	0	0	0.087161	0.19483	0.24337	0.17974	0.16368	0.1522	0.29732	0.39367	0.11237	0.27507	0.14276	0.20255	0.17122	0.33907	0.18799	0.027409	-2.3896	-3.0438	-2.7646	-3.1792	-2.8979	-2.7542	-3.2229	-2.9417	-2.8104	-3.2313	-2.7875	-2.9625	-3.0792	-2.8354	-3.0979	-3.1625	170.773	170.019	6.189	318.843	76.739	267.488	238.423	-11.902	-19.082	190.959	72.897	262.038	-10.583	15.865	242.450	44.520	0.00037457	0.00034587	0.00010268	1378.2	4.1683e-06	5.8397e-06	1374	370.94	4.4739e-06	7.057e-06	423.62	142.95	123.86	42.613	2.2713e-06	52.536	0.00044439	0.00044088	0.00012422	1387.3	4.8789e-06	4.8971e-06	1387.8	376.16	4.8404e-06	4.7146e-06	429.47	145.54	126.18	43.524	4.7106e-06	53.653	102.165	90.361	39.534	-12.174	122.079	52.440	-11.915	-7.311	115.204	107.950	-7.787	-3.482	-3.275	1.390	84.407	0.825	-8191	255	
638.383	1	1	0	0	0.11212	0.089749	0.12615	0.20039	0.094957	0.046437	0.27803	0.2364	0.2286	0.19324	0.26399	0.15669	0.11138	0.12278	0.17813	0.24703	-2.0708	-3.0854	-2.6583	-2.9521	-2.9479	-2.7104	-3.1813	-3.0042	-2.7271	-3.2062	-2.7896	-2.8979	-3.1208	-2.6417	-2.8042	-3.0292	79.757	32.394	15.017	279.194	136.095	16.699	262.039	96.375	-22.594	54.132	281.229	261.361	253.203	77.499	55.901	313.999	0.00033654	0.0008308	8.0043e-05	1375.4	4.1409e-06	5.1307e-06	1376	373.23	5.4488e-06	3.7071e-06	423.23	143.49	123.81	42.534	2.8101e-06	52.916	0.00043498	0.00042912	0.00012079	1386.6	4.7087e-06	4.7255e-06	1389.2	376.86	4.6817e-06	4.5852e-06	429.23	145.61	126.23	43.517	4.5888e-06	53.792	102.440	116.773	80.004	-12.086	130.570	158.118	-12.197	-7.529	149.854	115.811	-8.059	-3.864	-3.129	1.440	156.835	0.713	-8191	255	
638.478	1	1	0	0	0.1782	0.19914	0.032539	0.33908	0.22577	0.11647	0.1488	0.25386	0.1737	0.067564	0.067232	0.25047	0.27329	0.32945	0.049978	0.16286	-2.2687	-3.0625	-2.6625	-3.025	-3.1729	-2.7125	-3.1521	-3.1312	-2.6167	-3.2604	-2.9271	-2.9521	-3.1833	-2.9313	-2.9813	-3.0417	63.735	265.146	44.365	270.593	71.856	242.487	227.124	307.169	159.122	-24.919	331.556	250.851	308.223	11.568	32.357	210.058	0.00029705	0.00046883	0.000155	1377.6	3.7463e-06	8.3131e-06	1374	371.19	3.8088e-06	5.8034e-06	425.57	142.7	123.59	42.633	4.0986e-06	52.68	0.00041746	0.00041616	0.00011485	1386.9	4.5383e-06	4.4963e-06	1387.7	376.43	4.564e-06	4.5934e-06	429.85	145.44	126.23	43.556	4.7361e-06	53.733	102.378	71.980	62.835	-11.949	130.327	102.100	-12.081	-7.595	174.258	119.928	-7.774	-3.453	-3.240	1.623	90.563	0.654	-8191	255	
638.576	1	1	0	0	0.13256	0.12784	0.19538	0.26077	0.14372	0.1664	0.21912	0.23503	0.41585	0.14924	0.30675	0.11635	0.077488	0.16281	0.13258	0.04316	-2.3417	-3.0375	-2.6562	-3.0438	-3.1729	-2.6792	-3.25	-3.2313	-2.6021	-3.1146	-2.9521	-2.9125	-3.2375	-2.7375	-2.8792	-3.075	165.002	298.371	128.837	271.251	256.395	163.096	251.686	218.085	125.873	266.302	289.334	295.682	322.810	-24.919	327.229	-15.630	0.00032715	0.00070296	8.2985e-05	1380.4	3.7837e-06	3.5459e-06	1376.8	372.76	4.837e-06	6.8354e-06	424.64	143.06	123.96	42.745	4.9193e-06	52.664	0.00043388	0.00043333	0.00012191	1390.3	4.8826e-06	4.7499e-06	1392.4	377.34	4.8197e-06	4.7569e-06	430.21	145.72	126.49	43.552	4.7465e-06	53.863	106.205	97.769	89.389	-11.871	111.808	115.681	-12.173	-7.529	105.097	124.018	-7.949	-3.783	-3.028	1.587	132.073	0.819	-8191	255	
638.695	1	1	0	0	0.11872	0.10952	0.18726	0.25827	0.13258	0.25524	0.20661	0.15631	0.13487	0.19752	0.24939	0.19616	0.1172	0.16204	0.24148	0.12783	-2.3292	-3.1042	-2.7917	-2.875	-3.1792	-2.7708	-3.2042	-3.3458	-2.5312	-3.0146	-3.1958	-2.8354	-3.0854	-2.6167	-2.7958	-3.1958	8.462	262.091	127.283	-23.136	321.840	7.004	289.886	145.078	314.845	101.484	309.323	326.876	289.484	288.994	183.037	160.186	0.00030429	0.00040747	5.8021e-05	1377.3	5.507e-07	7.1933e-06	1376.7	372.42	1.83e-06	4.676e-06	424.84	142.88	123.81	42.679	2.659e-06	52.645	0.00043219	0.00042462	0.00011786	1389.9	4.6951e-06	4.5712e-06	1390.8	377.05	4.5991e-06	4.6752e-06	429.48	145.75	126.36	43.598	4.6722e-06	53.707	103.799	64.087	35.891	-11.865	56.125	138.693	-12.100	-7.341	41.864	131.307	-7.891	-3.535	-2.969	1.459	140.553	0.804	-8191	255	
638.766	1	1	0	0	0.034653	0.18675	0.26056	0.40379	0.084481	0.10806	0.22141	0.31936	0.031895	0.26794	0.041333	0.19911	0.26924	0.043439	0.21383	0.053306	-2.1771	-3.0542	-2.9396	-2.7542	-3.175	-2.8042	-3.0729	-3.2146	-2.6833	-2.8688	-3.175	-2.7792	-3.1146	-2.9396	-2.9104	-3.2062	13.356	-2.563	191.283	241.475	120.691	220.030	285.318	290.359	31.839	293.298	34.368	-15.311	18.262	67.116	174.295	86.450	0.00032797	0.00043195	0.00010544	1378.4	3.4417e-06	9.8671e-06	1374.2	372.11	4.9333e-06	4.4228e-06	425.78	142.9	123.63	42.822	2.4417e-06	52.548	0.00043035	0.00043415	0.00011831	1389.5	4.6498e-06	4.5954e-06	1389.2	376.98	4.5682e-06	4.4177e-06	429.23	145.46	126.27	43.504	4.3607e-06	53.667	105.856	63.449	83.045	-11.857	100.296	157.565	-12.171	-7.187	75.739	127.552	-7.902	-3.763	-3.260	1.314	81.407	0.707	-8191	255	
638.862	1	1	0	0	0.24493	0.13774	0.12663	0.14241	0.20122	0.073545	0.11483	0.24534	0.2852	0.26133	0.22322	0.22225	0.066963	0.02324	0.11982	0.20371	-2.2062	-2.85	-3.0146	-2.7167	-2.9583	-2.8583	-2.9938	-3.2417	-2.7396	-2.7687	-3.1333	-2.8625	-3.0563	-2.9396	-2.6521	-3.4021	93.868	256.163	303.711	319.152	136.447	156.468	271.230	301.367	229.225	322.975	314.071	-25.306	218.694	160.999	122.938	274.492	0.00033502	0.00046364	0.00017479	1375.1	6.8335e-06	2.141e-06	1375.5	372.15	6.351e-06	8.4892e-06	425.9	142.67	123.96	42.451	2.4836e-06	52.611	0.00039365	0.00039468	0.00010822	1387.4	4.3658e-06	4.288e-06	1388.4	376.7	4.3993e-06	4.3441e-06	429.18	145.44	126.25	43.431	4.4589e-06	53.72	99.564	46.287	51.454	-12.103	138.246	77.218	-12.041	-7.735	114.403	121.638	-7.915	-3.773	-2.855	1.553	89.569	0.715	-8191	255	
638.983	1	1	0	0	0.38754	0.081975	0.15543	0.37228	0.21024	0.22144	0.19594	0.045035	0.10611	0.10172	0.12952	0.049477	0.093774	0.19026	0.16587	0.096121	-2.4646	-2.8	-2.8542	-3.1396	-2.9083	-3.0729	-2.8333	-3.1854	-2.8271	-3.0708	-3.2021	-2.6437	-3.0042	-2.9625	-2.6604	-3.1375	-0.492	215.186	201.104	321.164	282.730	109.754	285.910	303.703	266.834	317.312	113.826	144.310	312.496	252.665	135.537	106.840	0.00035201	0.00063614	8.3962e-05	1376.1	2.4345e-06	8.7773e-06	1373.5	372.24	4.0555e-06	7.2087e-06	424.25	142.39	124.11	42.635	3.2876e-06	52.492	0.00040336	0.00039939	0.00011218	1385.8	4.4937e-06	4.391e-06	1386.4	376.72	4.3585e-06	4.3587e-06	428.58	145.27	126.32	43.492	4.2948e-06	53.572	99.082	62.132	82.962	-12.060	133.376	118.937	-12.221	-7.292	146.938	119.955	-7.704	-3.761	-3.123	1.405	120.651	0.995	-8191	255	
639.079	1	1	0	0	0.15263	0.17914	0.093746	0.24817	0.28658	0.20713	0.16663	0.098775	0.16662	0.065251	0.096359	0.11141	0.44968	0.17105	0.14412	0.33478	-2.6417	-2.9021	-3.0083	-3.0229	-2.8625	-3.0417	-2.9688	-3.2292	-2.8792	-2.8708	-3.3479	-3.0187	-3.0396	-3.1125	-2.5208	-3.1125	1.881	121.484	134.301	311.902	32.046	322.905	228.518	175.534	277.044	255.166	83.978	203.802	317.407	272.648	40.264	272.526	0.00029569	0.000676	0.00012589	1373.2	4.7741e-06	3.3106e-06	1373.7	372.4	5.1932e-06	6.2183e-06	423.79	142.62	124.03	42.572	4.7033e-06	52.432	0.00040777	0.00039817	0.00011146	1383.8	4.411e-06	4.2616e-06	1387.1	376.64	4.4477e-06	4.375e-06	429.01	145.38	126.31	43.51	4.5429e-06	53.576	102.223	78.643	69.327	-11.977	113.927	138.873	-12.194	-7.236	56.528	120.590	-7.796	-3.569	-2.942	1.455	106.311	1.115	-8191	255	
639.175	1	1	0	0	0.32227	0.068201	0.24566	0.36877	0.15812	0.074983	0.055636	0.12869	0.12356	0.20042	0.049907	0.32405	0.12397	0.25021	0.046284	0.10977	-2.3688	-2.6688	-3.1333	-3.0854	-2.9417	-3.2562	-2.9208	-3.2042	-2.9979	-2.9188	-3.0667	-2.9917	-2.95	-3.35	-2.6125	-3.075	234.238	136.381	99.743	295.523	23.926	97.624	215.033	269.462	278.379	176.917	192.015	219.430	28.674	318.978	276.657	205.338	0.00030248	0.00041234	5.1422e-05	1374.8	2.8436e-06	7.7863e-06	1373	371.8	5.0183e-06	1.6217e-06	424.06	142.65	123.95	42.741	2.8116e-06	52.575	0.00041832	0.00042351	0.00011569	1386.6	4.6673e-06	4.6034e-06	1387.3	376.62	4.6737e-06	4.681e-06	429.4	145.36	126.26	43.504	4.8075e-06	53.624	94.130	70.469	52.941	-12.112	129.843	116.228	-12.121	-7.325	142.310	157.014	-7.899	-3.593	-3.313	1.478	150.526	0.756	-8191	255	
639.296	1	1	0	0	0.13719	0.20101	0.22436	0.34639	0.090256	0.15679	0.1703	0.24226	0.084801	0.083941	0.24969	0.3157	0.18958	0.27639	0.097316	0.12593	-2.4479	-2.7125	-3.2521	-3.0792	-2.7062	-3.0979	-2.8396	-3.1188	-2.9042	-2.7167	-3.2438	-2.9208	-2.9167	-3.0771	-2.7	-3.0333	172.213	75.487	-12.989	326.952	70.638	268.354	278.759	-17.583	178.655	185.036	2.189	-11.923	287.589	317.028	311.382	257.341	0.00033104	0.00067648	8.1255e-05	1374	4.4601e-06	4.6974e-06	1376.1	371.57	4.2765e-06	5.1807e-06	423.27	142.78	123.62	42.714	2.399e-06	52.291	0.00043565	0.00043239	0.00012233	1387.2	4.9389e-06	4.8005e-06	1389.5	376.03	4.8758e-06	4.7785e-06	428.7	145.34	126.03	43.413	4.7998e-06	53.565	107.193	88.137	56.695	-11.939	155.268	140.511	-12.141	-7.362	116.684	83.778	-7.854	-3.725	-3.195	1.415	135.196	0.944	-8191	255	
639.392	1	1	0	0	0.11487	0.1902	0.28565	0.26907	0.12709	0.27084	0.30837	0.24886	0.22661	0.067345	0.3504	0.40388	0.14488	0.092142	0.11654	0.15548	-2.6208	-2.4562	-2.8521	-2.9938	-2.6042	-3.1521	-2.8646	-3.1104	-3.0521	-2.7521	-3.1146	-2.9062	-2.7479	-3.2792	-2.8083	-2.9958	186.527	244.537	318.026	262.157	235.503	116.781	236.400	-2.829	-17.549	101.567	157.740	237.621	281.187	310.293	62.712	275.750	0.00030178	0.00027554	0.00018728	1375.2	4.6638e-06	5.5871e-06	1380	371.57	5.2609e-06	4.0144e-06	425.17	142.38	123.31	42.502	3.1556e-06	52.343	0.00043105	0.00043917	0.00012075	1387.7	4.74e-06	4.6488e-06	1389	376.4	4.711e-06	4.6885e-06	429.12	145.05	125.79	43.409	4.7913e-06	53.516	96.159	74.464	56.390	-12.114	129.848	128.622	-12.212	-7.414	92.568	78.743	-7.861	-3.589	-3.186	1.514	156.922	0.647	-8191	255	
639.464	1	1	0	0	0.15914	0.16697	0.13191	0.49835	0.21736	0.060979	0.35224	0.10186	0.20249	0.059712	0.29456	0.34024	0.11576	0.21211	0.13752	0.059276	-2.4792	-2.6521	-2.9562	-2.975	-2.7542	-3.0958	-2.9708	-2.8187	-3.0792	-2.7812	-2.9708	-3.1271	-2.5854	-3.2354	-2.9667	-2.8521	208.305	118.350	17.844	258.942	28.368	199.785	309.540	0.655	263.696	253.164	-23.306	214.320	217.510	252.404	281.717	143.117	0.00030762	0.00041092	0.00011682	1376.1	5.7676e-06	8.0429e-07	1373.9	373.1	4.1213e-06	5.2993e-06	424.45	142.87	124.52	42.737	3.9684e-06	52.351	0.00043406	0.00043834	0.00012067	1386.5	4.8407e-06	4.8129e-06	1386.6	376.36	4.8171e-06	4.7568e-06	429.1	145.19	126.1	43.429	4.7456e-06	53.554	104.987	57.149	38.149	-11.894	155.012	142.812	-12.044	-7.235	172.823	125.261	-7.575	-3.386	-3.175	1.394	114.522	0.892	-8191	255	
639.583	1	1	0	0	0.024667	0.10592	0.12465	0.47461	0.15849	0.27787	0.25917	0.3092	0.071575	0.13373	0.11137	0.16782	0.42804	0.33796	0.025597	0.11364	-2.6688	-2.4604	-2.9896	-3.3167	-2.5042	-2.9521	-3.0771	-3.0021	-2.9917	-2.6771	-2.9333	-3.0833	-2.7417	-3.2625	-2.9854	-2.8167	20.439	11.077	49.777	294.829	52.065	256.589	282.259	245.816	16.179	68.975	136.542	298.000	226.418	331.936	252.984	173.198	0.00032839	0.00042436	0.0001411	1373.5	3.2641e-06	2.7032e-06	1371.7	371.04	6.948e-06	1.1195e-05	423.13	142.5	123.45	42.351	2.3946e-06	52.698	0.00043279	0.00043579	0.00012333	1387.7	4.8148e-06	4.8073e-06	1386.6	376.53	4.8328e-06	4.7708e-06	429.62	145.26	125.75	43.319	4.8451e-06	53.589	103.143	120.076	47.907	-11.921	127.140	104.897	-11.849	-7.347	149.954	157.893	-7.891	-3.541	-3.018	1.497	107.729	0.758	-8191	255	
639.679	1	1	0	0	0.24602	0.23139	0.14476	0.158	0.099098	0.16258	0.3694	0.33732	0.095401	0.12772	0.14112	0.17494	0.056961	0.41769	0.20032	0.32707	-2.7771	-2.6146	-2.7125	-3.3312	-2.5271	-3.1188	-3.025	-2.9	-3.0312	-2.7396	-2.9646	-3.1042	-2.775	-3.0708	-2.9958	-2.875	129.882	36.080	-16.149	316.854	192.961	32.378	245.706	227.099	319.221	197.345	99.299	309.561	115.471	306.997	160.738	269.200	0.00029642	0.00057205	0.00013834	1375.8	4.4196e-06	3.6423e-06	1370.3	371.38	4.4798e-06	2.7344e-06	422.61	142.42	123.53	42.418	5.3965e-06	52.27	0.000443	0.0004517	0.00012398	1387.8	4.8789e-06	4.7596e-06	1386.6	376.1	4.8418e-06	4.849e-06	428.16	145.14	125.96	43.341	4.8325e-06	53.503	99.212	48.492	43.739	-12.020	156.606	117.955	-12.237	-7.434	175.054	222.276	-7.772	-3.496	-3.064	1.428	134.846	0.969	-8191	255	
639.775	1	1	0	0	0.11292	0.24122	0.14794	0.24339	0.090817	0.25797	0.10891	0.37898	0.23218	0.10262	0.29035	0.19012	0.40518	0.22798	0.21869	0.46058	-2.4875	-2.9021	-2.8354	-3.2229	-2.6562	-2.9708	-3.2062	-2.8063	-3.0729	-2.8125	-2.9375	-3.3354	-2.7354	-2.9917	-2.9521	-2.5479	198.550	63.430	290.452	263.590	232.232	98.900	232.981	229.944	153.034	220.792	10.579	287.235	319.325	141.281	219.872	292.742	0.00031366	0.00014293	0.00015782	1367.9	2.2064e-06	5.3561e-06	1375.4	369.76	4.8275e-06	7.2167e-06	423.81	142.43	123.18	42.532	3.8032e-06	52.494	0.00043777	0.00044689	0.00012283	1384.6	4.8868e-06	4.8849e-06	1386.8	375.64	4.9872e-06	4.8463e-06	429.37	145.18	125.52	43.367	4.8457e-06	53.515	110.489	134.058	39.502	-11.946	319.887	59.614	-12.094	-7.507	154.166	168.007	-8.066	-3.626	-3.000	1.611	106.008	0.668	-8191	255	
639.871	1	1	0	0	0.26718	0.055086	0.026739	0.39931	0.29964	0.048108	0.3013	0.17064	0.29402	0.039242	0.19405	0.17205	0.19376	0.19035	0.1174	0.26821	-2.5771	-2.7062	-2.6729	-3.1937	-2.7042	-2.925	-3.1771	-2.6771	-2.95	-2.8708	-2.8521	-3.25	-2.9021	-3.0083	-3.0583	-2.8167	-5.474	8.492	199.352	-23.313	250.137	163.650	195.609	77.935	176.281	319.908	333.361	28.033	302.713	287.920	305.187	-14.671	0.00032255	0.00031142	8.0899e-05	1377.7	1.4902e-06	5.9446e-06	1369.4	371.13	6.3012e-06	5.5164e-06	424.09	142.52	123.16	42.477	5.121e-06	52.346	0.00045134	0.00044728	0.00012337	1387.1	4.8994e-06	4.8576e-06	1386.8	376.14	4.9635e-06	4.8745e-06	428.35	145.12	125.84	43.357	4.9157e-06	53.58	111.026	125.898	95.470	-12.082	152.423	134.836	-12.071	-7.281	138.875	165.208	-7.960	-3.667	-2.959	1.516	89.776	0.711	-8191	255	
639.967	1	1	0	0	0.24314	0.37695	0.10842	0.091474	0.15672	0.18102	0.11105	0.2929	0.30339	0.13474	0.06494	0.11247	0.1803	0.2381	0.077929	0.22921	-2.65	-2.8187	-2.6354	-3.2	-2.6604	-2.95	-3.1125	-2.7646	-2.925	-2.9188	-2.7042	-3.2479	-2.8208	-2.85	-3.0917	-2.7542	42.948	307.780	179.074	293.272	312.996	157.572	98.709	253.672	141.609	200.652	314.987	177.450	5.183	49.521	210.324	207.126	0.00032123	0.00083505	0.00010171	1374.1	4.605e-06	5.7633e-06	1372.3	370.3	6.276e-06	2.3863e-06	424.27	142.85	123.68	42.451	3.4165e-06	52.374	0.00044372	0.00045118	0.00012606	1387	5.0284e-06	4.9333e-06	1386.7	375.98	4.8466e-06	4.9011e-06	429.22	145.28	125.98	43.32	4.9779e-06	53.497	97.878	60.111	71.259	-11.922	126.276	128.317	-11.918	-7.491	171.272	170.861	-7.700	-3.563	-3.241	1.547	112.780	0.993	-8191	255	
640.063	1	1	0	0	0.16795	0.026182	0.16025	0.24075	0.15553	0.046455	0.23717	0.32672	0.10408	0.12224	0.26574	0.19272	0.37771	0.3591	0.20329	0.16651	-2.5687	-2.8917	-2.5958	-3.3167	-2.7938	-2.8	-3.1604	-2.8833	-2.8583	-3.0271	-2.875	-3.1896	-3.1208	-2.8063	-3.1354	-2.9542	297.909	151.838	317.490	282.102	117.572	31.386	269.250	249.853	-19.225	84.942	201.668	-23.326	-2.346	258.077	166.793	291.088	0.00027773	0.00042992	0.00011683	1375.8	6.726e-06	4.1858e-06	1375.9	372.27	2.941e-06	3.0599e-06	423.67	143.14	123.29	42.464	2.6885e-06	52.556	0.00045177	0.00045462	0.00012681	1387.2	5.0591e-06	4.8783e-06	1388	376.36	4.9011e-06	4.8659e-06	428.8	145.46	125.94	43.351	4.8335e-06	53.608	102.205	79.758	47.848	-12.061	137.548	143.815	-12.136	-7.497	135.402	84.028	-7.913	-3.881	-3.291	1.328	41.198	0.998	-8191	255	
640.160	1	1	0	0	0.2752	0.11417	0.23994	0.34686	0.021084	0.26732	0.32903	0.17505	0.0071974	0.11511	0.076112	0.43067	0.13271	0.17025	0.15793	0.22609	-2.4292	-2.9771	-2.6979	-3.1708	-2.7896	-2.4646	-3.2354	-2.8646	-2.8917	-3.0438	-2.8	-3.1875	-3.0354	-2.9104	-3.2104	-2.9042	-4.949	167.267	157.518	324.101	105.645	316.148	250.669	261.051	59.642	212.408	244.906	325.446	287.826	213.595	115.415	293.987	0.00034813	0.00058044	0.00014968	1376.1	3.5182e-06	6.1782e-06	1372.5	369.29	4.2555e-06	3.6228e-06	423.04	141.91	122.84	42.488	2.6218e-06	52.596	0.00043984	0.00043281	0.00012254	1388	4.8963e-06	4.856e-06	1385.1	375.59	4.9478e-06	4.8273e-06	428.57	144.9	125.58	43.379	5.0044e-06	53.528	95.234	78.194	93.107	-11.996	155.799	126.218	-12.129	-7.332	198.583	112.751	-7.782	-3.555	-3.355	1.360	128.262	0.883	-8191	255	
640.256	1	1	0	0	0.39175	0.115	0.075128	0.10184	0.22694	0.11718	0.079258	0.22848	0.14911	0.14306	0.15456	0.37806	0.076835	0.35909	0.11	0.24892	-2.4625	-2.9125	-2.8042	-3.0563	-2.9229	-2.6417	-3.1625	-3.1208	-2.8458	-3.2313	-2.975	-3.1083	-3.1042	-2.7167	-3.2062	-2.7958	301.532	300.382	178.132	124.627	131.988	304.767	-1.361	182.543	10.887	325.491	284.608	298.632	-18.000	224.769	258.892	291.877	0.00027544	0.00045074	0.00014548	1371.4	5.8669e-06	5.9405e-06	1371.2	371.61	4.102e-06	3.4644e-06	423.77	142.4	123.59	42.754	2.8962e-06	52.299	0.00045528	0.00046228	0.00012911	1386.2	5.0446e-06	5.1044e-06	1388.2	376.49	5.0911e-06	5.0478e-06	429.68	144.94	125.95	43.424	5.0491e-06	53.52	105.639	111.253	82.597	-12.078	153.584	94.799	-11.970	-7.490	153.828	187.735	-8.115	-3.454	-3.169	1.621	101.768	0.756	-8191	255	
640.376	1	1	0	0	0.21086	0.23719	0.1099	0.15795	0.17102	0.041946	0.10314	0.1056	0.20762	0.1695	0.14104	0.04009	0.29595	0.17276	0.31336	0.14177	-2.3271	-3.1479	-2.65	-3.1729	-2.9771	-2.8042	-3.2958	-2.9021	-2.6604	-3.1292	-2.7917	-3.0333	-3.1813	-2.7854	-3.0021	-2.9875	31.874	102.698	332.022	323.672	260.090	-12.697	303.479	294.470	250.289	166.460	320.836	257.450	229.452	-23.145	129.439	260.125	0.00032182	0.00029155	0.00012878	1377.8	2.2554e-06	5.171e-06	1373.6	370.28	3.0136e-06	8.0695e-06	424.27	142.32	123.04	42.477	2.3128e-06	52.476	0.00046351	0.00046921	0.00013037	1389.6	5.1165e-06	5.114e-06	1388.3	376.31	5.0087e-06	4.9599e-06	429.7	144.99	125.84	43.416	5.0335e-06	53.529	105.845	8.857	73.961	-11.854	187.080	160.600	-12.081	-7.384	76.704	109.376	-7.769	-3.494	-3.189	1.417	99.848	0.784	-8191	255	
640.471	1	1	0	0	0.08045	0.062176	0.10763	0.31521	0.083664	0.066642	0.27726	0.17708	0.28054	0.14536	0.2234	0.10906	0.023989	0.38919	0.11479	0.3236	-2.4417	-3.1063	-2.8875	-3.1562	-3.0542	-2.8542	-3.2333	-3.0646	-2.7375	-3.1375	-2.8063	-3.0646	-3.1229	-2.8958	-2.9292	-3.0604	193.668	282.861	198.166	230.151	315.489	49.208	329.441	174.795	227.266	17.198	200.953	6.489	55.125	-25.043	229.062	281.043	0.00035011	0.00059091	0.0001968	1379.9	3.6097e-06	9.3244e-06	1374	371.03	1.1208e-06	6.9675e-06	424.03	142.62	123.56	42.586	3.271e-06	52.27	0.00046344	0.00045897	0.00012913	1389.4	5.0815e-06	4.9644e-06	1390.3	376.36	5.0876e-06	5.0082e-06	429.11	145.01	126.01	43.398	4.9637e-06	53.548	100.378	79.608	81.404	-12.148	98.299	111.974	-12.005	-7.262	186.745	115.148	-7.697	-3.573	-2.997	1.600	132.832	0.717	-8191	255	
640.567	1	1	0	0	0.1707	0.06674	0.068718	0.27086	0.08504	0.23	0.063084	0.16	0.19673	0.22216	0.18093	0.15161	0.19402	0.24203	0.28493	0.078382	-2.2083	-3.0979	-2.8187	-2.9292	-3.1021	-2.5729	-3.2604	-3.1	-2.825	-3.1937	-2.9104	-2.9354	-3.3167	-2.7812	-2.8229	-3.1458	38.834	-24.038	59.672	273.887	61.677	52.052	113.588	298.383	102.945	7.840	266.103	159.241	285.787	317.456	266.552	321.597	0.00033713	0.00035512	0.00010222	1379.7	6.412e-06	4.1046e-06	1373	370.83	6.8812e-06	6.1732e-06	423.11	141.19	123.48	42.5	2.7943e-06	52.475	0.00045751	0.00046141	0.00012685	1389.3	4.9935e-06	5.066e-06	1387.5	376.24	5.0928e-06	5.0571e-06	429.65	144.84	125.97	43.408	5.1851e-06	53.53	106.106	94.851	91.724	-11.981	142.304	165.429	-11.909	-7.298	175.746	122.980	-7.976	-3.279	-2.959	1.593	158.788	0.659	-8191	255	
640.665	1	1	0	0	0.19022	0.098744	0.053177	0.1638	0.1977	0.073651	0.18805	0.010826	0.12875	0.10874	0.36455	0.14674	0.25271	0.23074	0.20362	0.059175	-2.1625	-2.9062	-2.7354	-2.9938	-3.1042	-2.7417	-2.9917	-2.9542	-2.6833	-2.9625	-3.125	-2.8438	-3.3167	-2.9062	-2.8854	-3.1542	210.570	292.110	219.251	251.859	186.513	320.986	286.585	22.412	147.502	57.583	316.235	-13.505	297.564	310.312	266.388	125.149	0.00031294	0.00016183	0.00024539	1378.4	5.6364e-06	4.1521e-06	1373.8	371.53	4.2058e-06	3.9375e-06	424.07	142.19	123.18	42.494	3.5993e-06	52.209	0.00047013	0.00047403	0.00013296	1390.6	5.2179e-06	5.1487e-06	1389.4	376.86	5.2132e-06	5.2428e-06	429.04	145.07	125.73	43.341	5.1862e-06	53.562	99.882	27.132	41.541	-11.883	125.536	78.496	-12.098	-7.318	155.075	125.725	-7.814	-3.524	-3.126	1.475	123.699	1.242	-8191	255	
640.759	1	1	0	0	0.17172	0.1907	0.33677	0.12404	0.11215	0.2752	0.2615	0.10985	0.10447	0.13758	0.028801	0.27293	0.18469	0.17606	0.20035	0.38253	-2.1875	-2.8438	-2.7979	-2.7792	-2.9813	-2.8438	-3.0521	-3.1417	-2.625	-2.9958	-3.0312	-2.7854	-3.2458	-2.875	-2.65	-3.1688	83.516	234.638	101.271	329.476	227.796	20.892	265.922	242.767	2.920	51.212	172.607	9.814	289.938	76.396	125.889	223.983	0.00027459	0.0007427	9.647e-05	1380.8	4.2834e-06	3.7961e-06	1375.2	371.5	2.5718e-06	5.8388e-06	426.05	142.43	122.95	42.395	2.8504e-06	52.371	0.00047017	0.00046746	0.00013156	1390.4	5.1351e-06	5.1104e-06	1389.6	376.34	5.2541e-06	5.1282e-06	431.25	145	125.72	43.271	5.2451e-06	53.492	102.461	55.937	51.908	-12.048	160.840	84.114	-12.122	-7.421	125.886	112.089	-8.042	-3.637	-3.330	1.418	155.890	0.655	-8191	255	
640.855	1	1	0	0	0.10724	0.23061	0.067152	0.29216	0.09381	0.095102	0.29547	0.1284	0.051716	0.096935	0.32843	0.2114	0.069288	0.12634	0.072893	0.053972	-2.4229	-2.9688	-3.0729	-2.8083	-2.9854	-2.7792	-3.0187	-3.2042	-2.6063	-2.8292	-3.0479	-2.7438	-2.9208	-2.9667	-2.5938	-3.2313	36.824	2.871	175.611	279.749	154.955	165.830	280.046	-4.123	130.244	223.007	308.110	222.701	321.539	178.785	20.412	289.428	0.00031031	0.00061422	0.00014244	1382.8	3.8414e-06	8.3174e-06	1380.7	372.8	2.9893e-06	7.5162e-06	425.68	142.59	123.57	42.613	1.1375e-06	52.619	0.00047792	0.00047915	0.00013403	1391.3	5.266e-06	5.2471e-06	1391.3	376.64	5.211e-06	5.2623e-06	429.63	145.07	125.95	43.439	5.2152e-06	53.644	108.533	97.809	83.879	-12.053	158.852	119.832	-12.061	-7.327	205.557	118.315	-8.088	-3.579	-3.082	1.539	63.016	0.906	-8191	255	
640.976	1	1	0	0	0.15437	0.24483	0.342	0.18839	0.25193	0.17611	0.24303	0.2218	0.048729	0.18715	0.14029	0.20264	0.087912	0.081487	0.089066	0.3194	-2.2458	-2.8854	-3.0521	-2.9229	-3.125	-3.0833	-2.8375	-3.2333	-2.7687	-2.8708	-3.3063	-2.7625	-3.0917	-3.1521	-2.7188	-3.1854	-2.327	126.945	261.202	324.195	240.479	100.161	315.725	-24.905	28.194	186.944	310.581	316.213	-9.460	265.604	87.528	265.116	0.00030905	0.00034411	0.00018966	1378.8	2.59e-06	6.4553e-06	1371.6	372.02	3.8168e-06	2.11e-06	423.07	142.04	123.32	42.348	1.0493e-06	52.52	0.00046733	0.00047455	0.00013051	1389.9	5.1333e-06	5.1652e-06	1390.8	376.62	5.1395e-06	5.1251e-06	429.63	144.95	125.97	43.295	5.1971e-06	53.608	107.789	16.675	77.131	-11.996	106.001	140.689	-12.057	-7.199	111.316	52.426	-8.115	-3.589	-3.138	1.781	140.625	0.574	-8191	255	
641.072	1	1	0	0	0.093811	0.079223	0.11102	0.099653	0.088997	0.1531	0.3787	0.3725	0.27392	0.21392	0.26044	0.033631	0.25014	0.42638	0.095666	0.40897	-2.4479	-2.8979	-3.1292	-2.7979	-3.0208	-2.8708	-2.9042	-3.1312	-2.8563	-2.8729	-3.3396	-2.825	-3.0521	-3.1479	-2.6417	-3.2854	108.234	288.663	-13.250	285.367	15.967	74.092	224.169	269.818	-2.033	272.058	259.366	270.509	244.005	291.190	99.121	280.597	0.00033727	0.00038937	0.00021147	1376.2	4.9068e-06	8.2432e-06	1375.4	371.52	5.0346e-06	4.8075e-06	424.69	142.42	123.22	42.672	3.6013e-06	52.248	0.00047498	0.00046918	0.00013162	1389.1	5.2484e-06	5.1245e-06	1390.5	377.03	5.1854e-06	5.1184e-06	430.27	145.1	125.69	43.452	5.3007e-06	53.532	99.189	73.344	83.636	-11.866	151.305	166.292	-12.024	-7.293	138.202	149.696	-7.847	-3.620	-3.031	1.347	135.473	0.754	-8191	255	
641.168	1	1	0	0	0.23317	0.080172	0.19505	0.17615	0.10751	0.23807	0.18586	0.32438	0.21297	0.21509	0.23152	0.14147	0.26138	0.074862	0.2488	0.054716	-2.4125	-2.7354	-3.1604	-2.9021	-2.9833	-3.1833	-2.9375	-3.2438	-3.0667	-2.7792	-3.3271	-2.8896	-2.9458	-3.2062	-2.6271	-3.1813	113.743	237.945	181.407	320.211	126.767	69.431	217.987	291.714	320.462	319.513	257.546	326.628	328.641	224.177	284.550	48.939	0.00027052	0.00029855	0.00017539	1378.4	5.9581e-06	2.1018e-06	1375.9	371.95	4.0719e-06	5.8274e-06	424.8	142.31	123.59	42.391	3.7314e-06	52.379	0.00046771	0.00047887	0.00013212	1391.4	5.2023e-06	5.1202e-06	1391.4	376.97	5.2102e-06	5.1158e-06	430.05	145.24	125.96	43.34	5.1842e-06	53.488	106.460	63.576	56.562	-11.733	120.710	68.272	-12.199	-7.197	143.613	108.660	-7.965	-3.461	-3.136	1.435	133.486	0.736	-8191	255	
641.264	1	1	0	0	0.27144	0.095308	0.19546	0.076723	0.051168	0.13777	0.29092	0.34323	0.22706	0.085665	0.1072	0.16813	0.21931	0.17006	0.12176	0.17564	-2.6396	-2.6188	-3.1771	-3.0917	-2.7562	-3.2479	-2.9458	-3.1458	-2.9542	-2.6708	-3.1083	-3.1479	-2.9375	-3.1417	-2.675	-3.1208	115.778	189.695	290.187	36.979	255.192	170.273	290.035	312.753	161.369	33.336	107.919	274.998	273.162	214.522	-21.211	233.733	0.00031024	0.00059928	4.3404e-05	1378.5	3.9347e-06	6.7203e-06	1379.9	370.85	2.7568e-06	7.2742e-06	424.22	142.2	122.95	42.449	2.041e-06	52.551	0.00047316	0.00047332	0.00013174	1390.6	5.1381e-06	5.103e-06	1392.1	376.28	5.1136e-06	5.1231e-06	429.89	145	125.7	43.368	5.2054e-06	53.622	104.140	79.674	64.774	-11.894	139.495	71.130	-12.196	-7.416	103.354	93.022	-8.095	-3.748	-3.319	1.544	149.611	0.674	-8191	255	
641.361	1	1	0	0	0.17442	0.13214	0.097502	0.4362	0.11769	0.14126	0.12523	0.22102	0.19612	0.16985	0.098395	0.073982	0.30382	0.12829	0.095839	0.11838	-2.6792	-2.6833	-3.2167	-2.9333	-2.8438	-3.1813	-2.8812	-2.9042	-3.1813	-2.8458	-3.1333	-3	-3.0542	-3.2229	-2.675	-3.0438	-18.020	221.818	72.952	271.182	290.646	88.427	290.840	261.364	135.696	333.374	131.315	239.796	324.185	11.379	124.755	196.725	0.00028065	0.00064676	0.00010571	1378.1	5.5128e-06	6.9223e-06	1374.4	371.99	1.6797e-06	3.4634e-06	423.16	142.09	123.49	42.422	3.5769e-06	52.327	0.00047632	0.00048131	0.00013172	1390	5.2146e-06	5.0728e-06	1390.1	377.19	5.1487e-06	5.058e-06	428.75	144.99	125.87	43.367	5.0732e-06	53.603	111.476	35.644	66.246	-11.999	154.312	81.374	-12.130	-7.546	106.947	80.922	-7.657	-3.690	-3.021	1.513	123.098	0.805	-8191	255	
#DATA ENDS
