BOXY.EXE: ISS Imagent and Oximeter Data Acquisition Program Version 0.80
Ascii Record File

#ACQ INFORMATION
2  Detector Channels 
16  External MUX Channels 
1  Auxiliary Channels 
5000  Waveform (CCF) Frequency (Hz)
1  Waveforms Skipped 
30  Waveforms Averaged 
1  Cycles Averaged 
16  Acquisitions per Waveform 
10.0806  Updata Rate (Hz) 

#FILE INFORMATION
TRUE -- External MUX Channel results are PARSED.
FALSE -- AC DC and Phase are NOT grouped.
TRUE -- Companion Program Settings File CREATED.
FALSE -- AC data not excluded
FALSE -- DC data not excluded
FALSE -- Phase data not excluded
FALSE -- Auxillary Chn. data not excluded
Tab delimiters

#CALIBRATION STATE
TRUE -- Waveform Calibration Values APPLIED.


#AUX CALIBRATION VALUES
Val Type	aux-1	

Term	1.0000e+00	
Factor	0.0000e+00	


#WF CALIBRATION VALUES
A = Detector Channel
Val Type	A-AC1	A-AC2	A-AC3	A-AC4	A-AC5	A-AC6	A-AC7	A-AC8	A-AC9	A-AC10	A-AC11	A-AC12	A-AC13	A-AC14	A-AC15	A-AC16	A-DC1	A-DC2	A-DC3	A-DC4	A-DC5	A-DC6	A-DC7	A-DC8	A-DC9	A-DC10	A-DC11	A-DC12	A-DC13	A-DC14	A-DC15	A-DC16	A-Ph1	A-Ph2	A-Ph3	A-Ph4	A-Ph5	A-Ph6	A-Ph7	A-Ph8	A-Ph9	A-Ph10	A-Ph11	A-Ph12	A-Ph13	A-Ph14	A-Ph15	A-Ph16	

Term	0.00000e+00	0.00000e+00	0.00000e+00	0.00000e+00	0.00000e+00	0.00000e+00	0.00000e+00	0.00000e+00	0.00000e+00	0.00000e+00	0.00000e+00	0.00000e+00	0.00000e+00	0.00000e+00	0.00000e+00	0.00000e+00	0.00000e+00	0.00000e+00	0.00000e+00	0.00000e+00	0.00000e+00	0.00000e+00	0.00000e+00	0.00000e+00	0.00000e+00	0.00000e+00	0.00000e+00	0.00000e+00	0.00000e+00	0.00000e+00	0.00000e+00	0.00000e+00	0.00000e+00	0.00000e+00	0.00000e+00	0.00000e+00	0.00000e+00	0.00000e+00	0.00000e+00	0.00000e+00	0.00000e+00	0.00000e+00	0.00000e+00	0.00000e+00	0.00000e+00	0.00000e+00	0.00000e+00	0.00000e+00	
Factor	1.00000e+00	1.00000e+00	1.00000e+00	1.00000e+00	1.00000e+00	1.00000e+00	1.00000e+00	1.00000e+00	1.00000e+00	1.00000e+00	1.00000e+00	1.00000e+00	1.00000e+00	1.00000e+00	1.00000e+00	1.00000e+00	1.00000e+00	1.00000e+00	1.00000e+00	1.00000e+00	1.00000e+00	1.00000e+00	1.00000e+00	1.00000e+00	1.00000e+00	1.00000e+00	1.00000e+00	1.00000e+00	1.00000e+00	1.00000e+00	1.00000e+00	1.00000e+00	X	X	X	X	X	X	X	X	X	X	X	X	X	X	X	X	

B = Detector Channel
Val Type	B-AC1	B-AC2	B-AC3	B-AC4	B-AC5	B-AC6	B-AC7	B-AC8	B-AC9	B-AC10	B-AC11	B-AC12	B-AC13	B-AC14	B-AC15	B-AC16	B-DC1	B-DC2	B-DC3	B-DC4	B-DC5	B-DC6	B-DC7	B-DC8	B-DC9	B-DC10	B-DC11	B-DC12	B-DC13	B-DC14	B-DC15	B-DC16	B-Ph1	B-Ph2	B-Ph3	B-Ph4	B-Ph5	B-Ph6	B-Ph7	B-Ph8	B-Ph9	B-Ph10	B-Ph11	B-Ph12	B-Ph13	B-Ph14	B-Ph15	B-Ph16	

Term	0.00000e+00	0.00000e+00	0.00000e+00	0.00000e+00	0.00000e+00	0.00000e+00	0.00000e+00	0.00000e+00	0.00000e+00	0.00000e+00	0.00000e+00	0.00000e+00	0.00000e+00	0.00000e+00	0.00000e+00	0.00000e+00	0.00000e+00	0.00000e+00	0.00000e+00	0.00000e+00	0.00000e+00	0.00000e+00	0.00000e+00	0.00000e+00	0.00000e+00	0.00000e+00	0.00000e+00	0.00000e+00	0.00000e+00	0.00000e+00	0.00000e+00	0.00000e+00	-1.61556e+02	-1.24365e+02	-1.24460e+02	-1.82575e+02	-7.77226e+01	-7.02735e+01	-1.54563e+02	-1.62015e+02	-7.99118e+01	-7.08945e+01	-1.79593e+02	-1.70828e+02	-1.78793e+02	-1.75846e+02	-8.48453e+01	-1.49068e+02	
Factor	2.31970e-05	1.41556e-04	4.23880e-05	1.51486e-01	1.25884e-06	1.81699e-06	1.63316e-01	6.36777e-02	1.50327e-06	1.86341e-06	9.72382e-02	2.82179e-02	2.41845e-02	8.33549e-03	1.21540e-06	1.19969e-02	3.25825e-06	3.66651e-06	1.02321e-06	7.89026e-02	3.94916e-08	4.01200e-08	7.99932e-02	3.30394e-02	3.96832e-08	4.01801e-08	4.87438e-02	1.42351e-02	1.27408e-02	4.36714e-03	3.97856e-08	6.09645e-03	X	X	X	X	X	X	X	X	X	X	X	X	X	X	X	X	



#DISTANCE SETTINGS
A = Detector Channel
A-1	A-2	A-3	A-4	A-5	A-6	A-7	A-8	A-9	A-10	A-11	A-12	A-13	A-14	A-15	A-16	

2.5000e+00	3.0000e+00	2.5000e+00	3.0000e+00	2.0000e+00	3.0000e+00	1.5000e+00	3.0000e+00	3.0000e+00	3.0000e+00	3.0000e+00	3.0000e+00	3.0000e+00	3.0000e+00	1.5000e+00	3.0000e+00	

B = Detector Channel
B-1	B-2	B-3	B-4	B-5	B-6	B-7	B-8	B-9	B-10	B-11	B-12	B-13	B-14	B-15	B-16	

1.0000e+01	1.0000e+01	1.0000e+01	1.4400e+00	1.0000e+01	1.0000e+01	1.5100e+00	1.9400e+00	1.0000e+01	1.0000e+01	1.9900e+00	2.4900e+00	2.4100e+00	2.9000e+00	1.0000e+01	2.9800e+00	




#DATA BEGINS
time	group	step	mark	flag	A-AC1	A-AC2	A-AC3	A-AC4	A-AC5	A-AC6	A-AC7	A-AC8	A-AC9	A-AC10	A-AC11	A-AC12	A-AC13	A-AC14	A-AC15	A-AC16	A-DC1	A-DC2	A-DC3	A-DC4	A-DC5	A-DC6	A-DC7	A-DC8	A-DC9	A-DC10	A-DC11	A-DC12	A-DC13	A-DC14	A-DC15	A-DC16	A-Ph1	A-Ph2	A-Ph3	A-Ph4	A-Ph5	A-Ph6	A-Ph7	A-Ph8	A-Ph9	A-Ph10	A-Ph11	A-Ph12	A-Ph13	A-Ph14	A-Ph15	A-Ph16	B-AC1	B-AC2	B-AC3	B-AC4	B-AC5	B-AC6	B-AC7	B-AC8	B-AC9	B-AC10	B-AC11	B-AC12	B-AC13	B-AC14	B-AC15	B-AC16	B-DC1	B-DC2	B-DC3	B-DC4	B-DC5	B-DC6	B-DC7	B-DC8	B-DC9	B-DC10	B-DC11	B-DC12	B-DC13	B-DC14	B-DC15	B-DC16	B-Ph1	B-Ph2	B-Ph3	B-Ph4	B-Ph5	B-Ph6	B-Ph7	B-Ph8	B-Ph9	B-Ph10	B-Ph11	B-Ph12	B-Ph13	B-Ph14	B-Ph15	B-Ph16	aux-1	digaux	

1197.583	1	1	0	768	0.141	0.068669	0.21282	0.036675	0.10048	0.192	0.38943	0.10016	0.4323	0.1495	0.10996	0.19166	0.17654	0.2965	0.081688	0.22371	-1.725	-2.5521	-2.2958	-2.3937	-2.5979	-2.1042	-2.3125	-2.5375	-2.2417	-2.5979	-2.4229	-2.3333	-2.7771	-2.4229	-2.4146	-2.8125	30.977	280.677	263.638	122.741	251.879	162.266	198.180	-51.293	24.916	-17.287	280.880	247.389	200.929	227.610	25.573	223.610	0.00031353	0.000276	0.00010918	608.85	6.9787e-06	9.7293e-06	720.78	264.63	5.42e-06	5.3205e-06	348.92	156.48	118.36	66.356	3.1725e-06	90.078	0.00050257	0.00049453	0.00013894	571.39	5.3105e-06	5.5622e-06	681.81	250.6	5.429e-06	5.494e-06	328.57	147.89	112.02	62.994	5.515e-06	84.928	133.818	11.499	11.055	-64.348	36.479	89.040	-65.681	-58.508	56.276	56.503	-61.854	-57.567	-54.671	-49.109	20.740	-53.625	-8191	255	
1197.679	1	1	0	0	0.022849	0.099206	0.15725	0.10805	0.087675	0.16859	0.14797	0.087045	0.00078593	0.097645	0.17951	0.077742	0.10537	0.30277	0.17822	0.26709	-1.65	-2.45	-2.4396	-2.2271	-2.8333	-2.3042	-2.4792	-2.6063	-2.1646	-2.4979	-2.2896	-2.3417	-2.6354	-2.4	-2.2604	-2.8563	267.036	153.997	209.454	-14.154	220.259	-36.305	208.274	161.243	180.000	46.027	233.917	104.974	-22.031	219.414	-7.222	202.264	0.00022532	0.00048202	0.0001846	609.31	2.5896e-06	2.1662e-06	731.32	266.5	6.3093e-06	6.102e-06	347.96	155.86	117.09	66.021	6.1269e-07	90.087	0.00051586	0.00049533	0.00014118	572.98	5.3462e-06	5.5991e-06	683.98	250.41	5.4787e-06	5.5328e-06	326.35	147.07	111.27	62.542	5.5409e-06	84.515	149.176	9.408	-39.419	-64.135	14.084	15.978	-65.475	-58.343	111.061	58.946	-61.669	-57.314	-54.612	-49.073	99.758	-53.275	-8191	255	
1197.775	1	1	0	0	0.17709	0.12327	0.030182	0.017272	0.10924	0.18102	0.33007	0.18533	0.24163	0.19932	0.25104	0.15605	0.047522	0.2693	0.11589	0.17303	-1.575	-2.5542	-2.4938	-2.1625	-2.5479	-2.1667	-2.45	-3.0229	-2.4354	-2.4625	-2.6437	-2.3438	-2.7792	-2.6896	-1.9937	-2.7479	-1.046	270.036	33.509	0.085	149.800	117.729	113.992	-71.949	206.442	61.010	202.014	231.438	206.463	-60.198	-72.500	200.400	0.00032782	0.00050546	0.00024424	603.99	5.2289e-06	7.0679e-06	719.33	260.95	9.9767e-06	4.96e-06	345.01	154.61	115.39	65.29	2.6101e-06	88.778	0.00052845	0.00050813	0.00014087	568.32	5.4481e-06	5.4531e-06	676.49	246.87	5.5216e-06	5.4956e-06	322.89	145.45	109.95	61.965	5.4644e-06	83.517	140.889	18.739	-10.263	-64.117	99.100	55.451	-65.682	-58.803	56.936	57.505	-61.788	-57.717	-54.941	-48.918	65.939	-53.278	-8191	255	
1197.871	1	1	0	0	0.15895	0.13515	0.054476	0.33925	0.029657	0.20462	0.22184	0.12617	0.032536	0.23767	0.27819	0.075224	0.21008	0.083729	0.12043	0.24809	-1.5875	-2.625	-2.6958	-2.3729	-2.6646	-2.2896	-2.4417	-2.7396	-2.3604	-2.5	-2.6667	-2.3104	-2.7083	-2.4646	-2.2104	-2.8354	32.906	52.878	-10.428	263.368	252.751	116.385	217.200	-66.439	7.710	98.464	-36.999	171.226	232.679	281.761	40.952	228.801	0.00042459	0.00050674	0.00017774	590.55	5.0433e-06	1.1488e-05	702.88	254.8	1.3765e-06	1.0631e-05	335.35	151.62	114.86	64.792	3.2628e-06	88.204	0.00050962	0.0005027	0.00013905	557.07	5.4375e-06	5.445e-06	662.87	241.65	5.4976e-06	5.3918e-06	316.08	143.15	109	61.515	5.5942e-06	83.136	141.681	-20.651	22.427	-64.120	64.167	54.489	-65.609	-58.880	47.498	73.564	-61.514	-57.606	-54.670	-48.862	31.593	-53.159	-8191	255	
1197.967	1	1	0	0	0.12188	0.15453	0.020932	0.38636	0.14493	0.14215	0.24404	0.078895	0.11106	0.25857	0.1748	0.19924	0.1352	0.24392	0.12556	0.10338	-1.7	-2.3479	-2.4583	-2.1208	-2.4437	-2.5375	-2.2646	-2.8604	-2.3729	-2.5375	-2.7375	-2.0271	-2.4813	-2.7313	-2.3208	-2.7271	163.185	227.078	39.549	234.903	138.097	-60.642	268.722	-58.664	6.894	91.452	-62.860	-38.491	210.677	253.780	25.644	184.050	0.0003036	0.00057072	0.00020924	583.46	4.1645e-06	5.4914e-06	692.02	253.3	4.4279e-06	9.1789e-06	332.96	150.83	114.23	64.791	4.2987e-06	87.809	0.00051102	0.00050694	0.00014059	551.35	5.4427e-06	5.4688e-06	651.76	238.86	5.5645e-06	5.5423e-06	312.78	142.25	108.03	61.271	5.4953e-06	83.011	136.181	22.381	-27.679	-63.901	103.369	41.623	-65.416	-58.275	70.776	67.105	-61.604	-57.576	-55.046	-49.104	19.390	-53.404	-8191	255	
1198.063	1	1	0	0	0.20148	0.11507	0.11562	0.18641	0.081743	0.22247	0.16341	0.13458	0.127	0.041426	0.27906	0.14071	0.33458	0.19076	0.32617	0.31987	-1.7958	-2.0938	-2.5625	-2.5396	-2.5021	-2.5542	-2.2854	-2.6854	-2.4083	-2.3854	-2.7729	-2.4417	-2.3229	-2.4979	-2.3563	-2.7438	111.388	12.202	260.436	260.890	54.932	67.249	214.392	280.824	-55.960	120.317	269.600	173.764	218.954	256.882	156.041	230.417	0.00033624	0.00062885	0.00016592	579.32	1.0931e-05	7.788e-06	693.78	256.8	4.115e-06	2.8503e-06	337.32	152.52	115.19	65.576	2.6154e-06	89.357	0.00051581	0.00049488	0.00013879	547.4	5.552e-06	5.4739e-06	656.27	241.86	5.5537e-06	5.5268e-06	317.62	144.36	109.59	62.263	5.5688e-06	84.301	150.409	71.074	8.189	-63.791	38.219	69.425	-65.354	-58.484	-39.479	29.288	-61.182	-57.611	-54.679	-48.838	30.646	-53.182	-8191	255	
1198.182	1	1	0	0	0.21387	0.14731	0.19903	0.10151	0.11416	0.12525	0.2936	0.27463	0.071057	0.053292	0.27192	0.14971	0.17864	0.23358	0.24966	0.13393	-1.8563	-2.3083	-2.6167	-2.4083	-2.3958	-2.4021	-1.9562	-2.675	-2.2875	-2.275	-2.7812	-2.1104	-2.2333	-2.7583	-2.3396	-2.6229	140.701	52.826	90.659	249.301	209.331	37.891	150.770	222.289	104.449	142.864	174.744	263.949	225.960	240.941	116.992	199.409	0.00036808	0.00089936	0.00022733	585.24	4.9392e-06	1.4528e-05	708.32	259.01	9.3505e-06	5.0918e-06	343.01	156.76	117.96	66.881	2.4597e-06	91.274	0.00052047	0.0005078	0.00014276	553.1	5.4932e-06	5.7272e-06	667.47	245.55	5.6199e-06	5.4919e-06	322.53	147.71	112	63.38	5.5713e-06	85.691	145.179	1.106	-8.564	-64.072	64.845	78.097	-65.639	-58.706	51.299	101.011	-61.545	-57.548	-54.781	-49.104	14.398	-53.480	-8191	255	
1198.278	1	1	0	0	0.17799	0.1302	0.30138	0.15569	0.017224	0.15253	0.035178	0.31172	0.16669	0.12982	0.20882	0.045348	0.091183	0.28544	0.14733	0.12674	-2.0021	-2.1937	-2.525	-2.3229	-2.2417	-2.6583	-2.3854	-2.6854	-2.5833	-2.25	-2.6979	-2.4458	-2.425	-2.95	-2.225	-2.4521	80.985	154.821	200.383	262.714	204.885	62.171	216.691	-50.768	196.719	277.333	3.643	-62.119	237.999	261.720	73.984	247.981	0.00036901	0.00035263	0.0001817	595.98	3.1767e-06	8.8598e-06	717.08	263.41	8.458e-06	8.986e-07	343.45	155.55	117.29	66.121	2.348e-06	90.274	0.00051353	0.00050169	0.00014082	561.76	5.3871e-06	5.5829e-06	674.42	248.08	5.3575e-06	5.5197e-06	323.13	147.25	111.66	62.93	5.5867e-06	85.067	147.292	32.768	-1.907	-64.194	49.749	75.611	-65.531	-58.166	68.558	73.013	-61.633	-57.309	-54.722	-49.226	262.827	-53.437	-8191	255	
1198.375	1	1	0	0	0.056505	0.12434	0.26704	0.2294	0.15508	0.25925	0.23478	0.15602	0.14152	0.15728	0.087765	0.088308	0.14911	0.26122	0.19482	0.30928	-1.7854	-2.0375	-2.4396	-2.4792	-2.3021	-2.7062	-2.2292	-2.5062	-2.4042	-2.0458	-2.5458	-2.275	-2.2542	-2.7583	-2.2208	-2.7333	17.713	155.349	-28.038	250.895	276.317	242.955	224.063	255.825	-33.911	-28.448	262.330	252.285	277.266	235.066	161.417	202.543	0.00035204	0.00043253	0.00013095	598.16	6.4952e-06	1.075e-05	713.62	262.29	3.4248e-06	2.3531e-06	348.19	157.58	118.11	66.808	7.7281e-06	90.848	0.00051586	0.00050481	0.00014269	562.95	5.3722e-06	5.4887e-06	674.71	248.26	5.381e-06	5.2753e-06	326.38	148.52	112.3	63.438	5.5266e-06	85.659	130.864	75.962	17.704	-63.988	-12.831	74.049	-65.616	-58.576	54.350	21.245	-61.391	-57.345	-54.687	-49.029	61.607	-53.466	-8191	255	
1198.471	1	1	0	0	0.15411	0.12383	0.23533	0.073011	0.13233	0.03725	0.19478	0.18085	0.28127	0.035015	0.23269	0.21202	0.069045	0.25602	0.10436	0.32614	-2.1312	-2.0979	-2.4208	-2.4458	-2.1688	-2.6375	-2.5333	-2.4146	-2.5521	-2.0917	-2.5333	-2.4146	-2.2646	-2.8292	-2.3542	-2.4708	20.767	-73.059	32.037	203.038	76.358	-40.318	131.536	166.683	241.294	116.675	-37.773	-66.660	247.941	240.149	69.448	199.258	0.00027455	0.0003581	0.00010158	601.77	5.2702e-06	1.7393e-06	716.86	262.58	8.3244e-06	1.3787e-05	350.2	157.86	118.93	67.086	5.6969e-06	91.515	0.0005077	0.00050247	0.00013935	567.41	5.4257e-06	5.4784e-06	677.89	249.55	5.5309e-06	5.5499e-06	328.51	149.02	112.76	63.67	5.5226e-06	86.369	153.778	-15.546	-39.838	-64.231	44.458	49.116	-65.335	-58.862	47.309	25.489	-61.468	-57.510	-54.804	-49.059	98.307	-53.386	-8191	255	
1198.567	1	1	0	0	0.32726	0.25286	0.20552	0.14953	0.36543	0.21978	0.10603	0.0611	0.11056	0.069448	0.27482	0.19601	0.21947	0.43615	0.27662	0.10514	-2.1333	-2.0417	-2.4917	-2.4729	-2.3167	-2.5979	-2.3125	-2.3312	-2.5479	-2.1333	-2.5021	-2.575	-2.2771	-2.8479	-2.3521	-2.3792	187.551	-74.538	16.221	239.835	137.543	80.515	-61.399	249.014	283.322	210.262	258.921	221.015	235.387	279.618	-36.604	238.459	0.00040691	0.00020102	0.00019205	615.16	3.0959e-06	6.4015e-06	729.15	268.75	6.2836e-06	7.8825e-06	350.12	157.92	118.27	66.9	4.4165e-06	91.041	0.00050865	0.00050198	0.0001423	575.99	5.3165e-06	5.4297e-06	686.83	252.7	5.4496e-06	5.528e-06	327.51	148.6	112.53	63.317	5.4631e-06	85.842	136.739	28.369	-11.192	-63.909	64.719	111.078	-65.547	-58.288	85.476	33.027	-61.502	-57.349	-54.827	-49.028	68.416	-53.487	-8191	255	
1198.663	1	1	0	0	0.14545	0.17923	0.11913	0.2265	0.32058	0.21311	0.12231	0.095779	0.083925	0.22629	0.31697	0.222	0.16571	0.18607	0.09363	0.29191	-2.1312	-2.2625	-2.5125	-2.6083	-2.0854	-2.5333	-2.5104	-2.3896	-2.6708	-2.3312	-2.4021	-2.725	-2.4125	-2.675	-2.4333	-2.3042	77.418	233.469	48.822	281.683	-2.242	-2.914	184.853	142.613	96.843	-22.082	250.159	-68.493	-65.302	-59.446	-14.450	224.132	0.0002921	0.0002892	0.00025802	603.88	2.9758e-06	4.928e-06	719.85	262.01	2.6387e-06	7.1906e-06	345.1	154.98	117.45	66.326	8.7068e-06	90.341	0.00051085	0.00051503	0.00014007	571.75	5.4373e-06	5.3841e-06	676.96	248.13	5.3786e-06	5.3517e-06	324.98	146.54	111.39	62.918	5.4787e-06	85.11	127.552	74.290	42.121	-63.974	61.877	117.830	-65.627	-58.830	19.633	34.918	-61.429	-57.606	-54.812	-49.061	29.869	-53.483	-8191	255	
1198.784	1	1	0	0	0.074277	0.24774	0.15177	0.11632	0.13771	0.17145	0.16185	0.46532	0.16763	0.25451	0.35707	0.096226	0.18486	0.18895	0.21608	0.23163	-2.1479	-2.0375	-2.2042	-2.5479	-2.2021	-2.6646	-2.8187	-2.3417	-2.6771	-2.1437	-2.2417	-2.6833	-2.225	-2.7479	-2.4021	-2.5229	50.937	-13.644	116.249	203.530	62.704	9.204	-68.332	278.639	164.187	49.931	221.720	12.900	212.469	-29.148	203.224	-63.105	0.00038547	0.00051207	0.00023931	601.29	5.1186e-06	1.0783e-05	721.08	265.72	5.0933e-06	7.8197e-06	346.11	156.76	118.2	66.545	1.9238e-06	91.03	0.00051041	0.00049586	0.00013992	570.4	5.3992e-06	5.475e-06	680.3	250.34	5.4443e-06	5.4006e-06	326.06	147.57	112.25	63.152	5.4545e-06	85.827	149.611	-39.560	16.023	-63.807	53.943	33.098	-65.299	-58.691	27.763	69.230	-61.503	-57.741	-54.873	-48.867	63.890	-53.243	-8191	255	
1198.878	1	1	0	0	0.032213	0.17973	0.14033	0.34437	0.17553	0.069088	0.28647	0.13399	0.085273	0.16579	0.16223	0.15207	0.12625	0.063921	0.21014	0.42772	-2.1146	-2.2354	-2.2562	-2.7646	-2.2354	-2.5438	-2.6646	-2.1729	-2.5208	-2.125	-2.35	-2.7333	-2.2438	-2.65	-2.5938	-2.4813	-18.874	265.972	268.829	225.552	130.650	203.821	165.519	6.169	69.516	160.708	166.906	175.248	-69.015	-37.456	-10.212	212.084	0.00041105	0.00068013	0.00026145	607.01	7.3792e-06	9.6781e-06	729.77	268.91	5.5689e-06	6.8084e-06	351.9	159.48	119.13	67.576	3.2266e-06	92.233	0.00051778	0.00049535	0.00013804	572.24	5.351e-06	5.39e-06	683.53	252.92	5.263e-06	5.3936e-06	329.55	149.83	113.24	64.024	5.4567e-06	86.82	137.349	3.208	55.728	-64.035	47.776	85.064	-65.685	-58.869	52.541	62.814	-61.430	-57.550	-54.570	-49.171	78.829	-53.667	-8191	255	
1198.974	1	1	0	0	0.022216	0.21474	0.074895	0.056973	0.17546	0.074097	0.17093	0.042468	0.21748	0.26058	0.054222	0.25681	0.35549	0.32052	0.21766	0.2118	-2.1917	-2.2896	-2.45	-2.8438	-2.3646	-2.4979	-2.5958	-2.1688	-2.6771	-2.6604	-2.3438	-2.4854	-2.1729	-2.3438	-2.5563	-2.1396	19.092	194.602	202.644	233.415	150.026	22.097	248.303	190.071	-56.925	-5.381	122.574	218.261	254.943	231.062	207.370	229.193	0.00040164	0.00054022	0.00014509	607.29	2.2135e-06	8.5191e-06	729.83	269.27	2.804e-06	4.5508e-06	353.9	160.21	119.6	67.856	4.9412e-06	92.411	0.00051515	0.00049573	0.00013817	574	5.2912e-06	5.3076e-06	687.77	254.24	5.4044e-06	5.3318e-06	331.99	150.38	113.71	64.37	5.3969e-06	86.951	150.108	49.009	15.137	-63.955	49.611	62.041	-65.270	-58.730	56.813	98.286	-61.729	-57.702	-55.015	-49.125	93.066	-53.510	-8191	255	
1199.070	1	1	0	0	0.097718	0.19638	0.04834	0.055656	0.16332	0.18266	0.19827	0.10671	0.16033	0.21966	0.42959	0.077511	0.22962	0.18552	0.060105	0.10349	-1.9792	-2.35	-1.975	-2.5812	-2.1688	-2.2188	-2.5896	-2.3417	-2.5167	-2.5292	-2.3312	-2.6312	-2.3438	-2.4437	-2.7188	-2.6083	143.936	25.133	136.390	-8.659	68.377	93.568	-58.350	-20.281	123.441	129.056	219.112	215.844	267.071	256.987	-66.335	250.056	0.00041086	0.00086135	0.00012672	613.34	1.6174e-06	4.6859e-06	737.06	270.42	4.2812e-06	7.6592e-06	354.34	159.93	121.69	68.304	4.559e-07	92.276	0.00050407	0.00048024	0.00013727	575.47	5.2777e-06	5.2423e-06	689.31	255.37	5.2523e-06	5.3304e-06	332.73	150.79	115.05	64.618	5.3748e-06	86.844	143.193	-21.849	4.537	-64.045	127.378	41.899	-65.712	-58.418	52.623	53.799	-61.393	-57.395	-54.587	-49.141	13.906	-53.412	-8191	255	
1199.166	1	1	0	0	0.19292	0.15449	0.1698	0.075326	0.23843	0.097244	0.23661	0.26402	0.13542	0.093618	0.0777	0.086133	0.068428	0.19916	0.18299	0.096839	-2.0292	-2.4146	-2.2146	-2.7271	-2.2292	-2.1271	-2.6417	-2.3125	-2.4375	-2.625	-2.3146	-2.7604	-2.4	-2.3146	-2.6917	-2.5938	-14.826	77.464	279.870	139.700	72.591	59.631	21.420	196.128	278.068	119.898	-73.284	-69.527	104.089	218.760	-65.426	126.999	0.00034649	0.0011258	6.2854e-05	615.06	7.4001e-06	5.8557e-06	738.41	272.6	4.991e-06	5.8817e-06	357.43	160.7	120.82	68.25	6.1988e-06	92.553	0.0005088	0.00048467	0.00013668	579.57	5.2565e-06	5.2956e-06	693.28	257.11	5.257e-06	5.1474e-06	335.41	151.52	115.08	64.927	5.2831e-06	87.097	158.656	12.109	61.481	-63.888	112.688	5.187	-65.676	-58.555	55.289	113.986	-61.397	-57.369	-54.959	-49.087	87.874	-53.341	-8191	255	
1199.263	1	1	0	0	0.19454	0.19764	0.20572	0.13115	0.10804	0.17333	0.14143	0.090613	0.077324	0.16978	0.20004	0.14925	0.14514	0.2684	0.24074	0.10611	-1.7062	-2.4313	-1.8354	-2.7167	-2.5563	-2.2417	-2.6354	-2.0542	-2.3438	-2.5208	-2.3146	-2.6333	-2.5187	-2.2375	-2.825	-2.4188	191.796	237.519	40.619	208.245	140.688	238.995	261.333	170.004	11.327	59.462	131.180	149.062	-26.318	275.599	16.222	280.309	0.00026865	0.00030275	0.00020105	618.99	4.9948e-06	4.8054e-06	746.21	273.75	5.0286e-06	2.4384e-06	358.78	161.55	121.37	68.865	8.7715e-06	92.695	0.00049542	0.00047462	0.00012996	582.6	5.1801e-06	5.2033e-06	698.71	258.57	5.1614e-06	5.2023e-06	336.51	152.15	115.38	65.124	5.1445e-06	87.369	127.868	24.462	25.081	-64.019	91.322	131.663	-65.608	-58.832	53.097	84.971	-61.619	-57.781	-54.990	-49.271	45.531	-53.839	-8191	255	
1199.359	1	1	0	0	0.062504	0.043856	0.042374	0.26847	0.18732	0.095415	0.15151	0.22184	0.14819	0.11189	0.14838	0.018413	0.19732	0.40589	0.070233	0.14379	-1.7604	-2.3896	-2.2396	-2.5542	-2.5521	-2.1396	-2.625	-2.5042	-2.2458	-2.6625	-2.2687	-2.6646	-2.4979	-2.1542	-2.4083	-2.6104	223.888	136.009	-7.327	273.056	21.170	189.142	161.428	-20.033	59.299	186.330	239.807	91.082	243.804	206.927	21.373	169.491	0.00030088	0.00044874	0.00013802	619.05	5.5644e-06	9.5886e-06	738.99	273.31	3.4816e-06	4.6767e-06	357.71	160.46	120.82	68.205	5.5089e-06	91.984	0.00049942	0.0004647	0.00013519	582.44	5.1527e-06	5.0723e-06	692.92	257.12	5.1698e-06	5.12e-06	334.73	151.19	114.77	64.663	5.1282e-06	86.732	133.350	8.610	17.289	-64.043	11.776	42.059	-65.419	-58.819	16.418	-33.682	-61.503	-57.680	-54.779	-49.075	60.905	-53.430	-8191	255	
1199.455	1	1	0	0	0.16542	0.18295	0.070616	0.25689	0.22217	0.13662	0.13991	0.21956	0.17269	0.17719	0.084896	0.18008	0.18012	0.32787	0.23186	0.61682	-1.8312	-2.6979	-2.1521	-2.2542	-2.6208	-2.2521	-2.5604	-2.3208	-2.0812	-2.6	-2.3583	-2.3208	-2.6333	-2.2021	-2.5583	-2.6958	247.817	-13.516	231.978	-74.322	1.967	63.717	-55.700	52.240	279.442	198.890	-14.903	172.746	227.307	246.563	-40.650	220.136	0.00039957	0.00059479	0.0001827	614.83	7.2987e-06	1.123e-05	727.91	268.55	7.8924e-06	6.4394e-06	346.66	156.43	118.53	67.292	6.9745e-06	90.751	0.00049232	0.00047891	0.00013356	578.86	5.1699e-06	5.1768e-06	682.77	252.69	5.2512e-06	5.3008e-06	326.79	147.67	112.63	63.845	5.2393e-06	85.593	140.086	-4.991	29.763	-63.959	99.976	14.720	-65.514	-58.556	54.436	87.995	-61.544	-57.646	-54.697	-49.084	49.050	-53.511	-8191	255	
1199.551	1	1	0	0	0.094943	0.2178	0.24498	0.5167	0.26362	0.089643	0.22869	0.30499	0.095609	0.14326	0.069478	0.06835	0.389	0.38825	0.050442	0.19087	-1.7313	-2.5312	-2.4833	-2.3229	-2.5583	-1.9958	-2.6667	-2.6979	-2.3167	-2.625	-2.3875	-2.5146	-2.9562	-2.3833	-2.6146	-2.6542	159.053	149.212	222.831	248.351	98.653	-8.381	-74.245	201.772	254.386	145.255	199.092	258.024	240.464	-68.601	64.414	246.883	0.00040287	0.00060184	0.00021291	608.79	6.1898e-06	1.1968e-05	726.68	265.15	2.2142e-06	9.2401e-06	342.76	155.72	118.1	66.889	6.2718e-06	90.236	0.00050164	0.0004653	0.00013544	574.39	5.2057e-06	5.1883e-06	681.29	250.34	5.2081e-06	5.2475e-06	323.14	146.82	111.83	63.311	5.3626e-06	85.172	149.088	7.770	8.136	-64.210	103.454	93.720	-65.522	-58.650	-30.710	5.342	-61.043	-57.134	-54.754	-48.820	93.880	-53.516	-8191	255	
1199.672	1	1	0	0	0.060287	0.3692	0.054545	0.42819	0.18086	0.24271	0.24944	0.2108	0.16396	0.19986	0.13798	0.36683	0.30028	0.15171	0.10015	0.24687	-1.4375	-2.4896	-2.1583	-2.4437	-2.5167	-2.0646	-2.4021	-2.5521	-2.0833	-2.6104	-2.3583	-2.3375	-2.7062	-2.4667	-2.3479	-2.6146	169.121	101.933	-41.534	215.004	23.417	211.138	273.556	243.568	-69.016	209.643	263.152	246.717	237.147	175.042	-64.790	257.960	0.00032815	0.00057225	0.00014745	606.76	4.7531e-06	6.4685e-06	720.03	265.07	1.6746e-06	7.0324e-06	347.31	158.18	120.01	67.939	2.048e-06	92.247	0.00049666	0.00048723	0.00013541	569.37	5.1477e-06	5.1914e-06	677.47	250.58	5.3061e-06	5.3359e-06	326.72	149.01	113.57	64.46	5.3579e-06	86.965	142.962	-6.892	51.863	-63.435	73.009	96.183	-65.377	-58.475	189.552	38.216	-61.819	-57.428	-54.769	-48.933	111.938	-53.300	-8191	255	
1199.743	1	1	0	0	0.03517	0.15008	0.12979	0.12736	0.18138	0.10523	0.064684	0.35346	0.27025	0.15937	0.17109	0.17811	0.38398	0.36484	0.17733	0.1844	-1.6333	-2.6125	-2.2979	-2.4062	-2.8708	-2.1146	-2.5	-2.6937	-2.1458	-2.5229	-2.5271	-2.4062	-2.75	-2.3271	-2.1958	-2.8625	161.500	-73.257	275.028	218.484	198.497	-72.772	242.209	147.293	74.198	16.883	280.853	251.740	260.422	260.808	212.489	223.009	0.00033573	0.00028755	0.00018389	610.85	1.8026e-06	1.4288e-05	730.96	270.13	4.0638e-06	1.2395e-05	354.4	160.85	121.54	69.103	2.647e-06	93.764	0.00049522	0.00048085	0.00013443	575.09	5.25e-06	5.2735e-06	684.22	254.61	5.105e-06	5.2491e-06	332.27	151.58	115.38	65.469	5.3173e-06	88.277	139.533	17.417	82.078	-63.873	117.882	52.785	-65.194	-59.034	118.919	70.575	-61.312	-57.640	-54.941	-49.038	37.412	-53.195	-8191	255	
1199.864	1	1	0	0	0.17176	0.085129	0.10398	0.20611	0.16208	0.13904	0.1868	0.3762	0.19556	0.2448	0.023965	0.052469	0.1414	0.27935	0.087434	0.09808	-1.8188	-2.6396	-2.4771	-2.1271	-2.5458	-2.4083	-2.4938	-2.7062	-2.0833	-2.4313	-2.5083	-2.4104	-2.5896	-2.3438	-2.2292	-2.9646	88.114	-68.724	-20.398	225.920	-38.816	163.972	-50.786	262.091	262.463	274.072	115.738	48.951	260.496	264.230	58.791	171.954	0.00030385	0.00074417	0.00016214	618.35	5.9111e-06	4.2901e-06	733.15	272.95	4.04e-06	1.1231e-05	354.87	161.53	122.41	69.795	4.8607e-06	94.227	0.00049602	0.00048334	0.00013552	581.3	5.2448e-06	5.2643e-06	690.03	257.17	5.1985e-06	5.2105e-06	333.55	152.5	116.8	66.019	5.2058e-06	88.658	146.400	-19.172	-7.617	-63.999	15.915	87.076	-65.723	-58.725	69.504	17.966	-61.498	-57.528	-55.156	-49.069	20.757	-53.550	-8191	255	
1199.960	1	1	0	0	0.37256	0.047415	0.19577	0.1549	0.24374	0.22324	0.19065	0.06109	0.11863	0.17741	0.1513	0.21153	0.18714	0.22358	0.12331	0.15876	-1.7729	-2.2771	-2.325	-2.1542	-2.4813	-2.3604	-2.5938	-2.6375	-2.2479	-2.3729	-2.3667	-2.1833	-2.7646	-2.5208	-2.3479	-2.9021	85.912	118.519	112.931	270.221	56.656	58.360	-70.464	122.333	259.512	121.158	211.066	264.410	-41.079	207.204	242.681	260.188	0.00033206	0.00067478	0.00024271	625.32	4.7741e-06	6.3151e-06	744.52	275.33	1.0685e-05	2.3388e-06	357.14	162.78	123.53	69.931	6.9137e-06	94.031	0.00049938	0.0004847	0.00013177	587.4	5.0581e-06	5.241e-06	698.97	259.96	5.1967e-06	5.1992e-06	335.28	153.4	117.18	66.182	5.1768e-06	88.778	150.299	-6.673	4.672	-63.799	122.593	67.180	-65.263	-58.722	76.870	46.946	-61.443	-57.705	-54.972	-49.125	79.762	-53.725	-8191	255	
1200.055	1	1	0	0	0.19953	0.24678	0.20814	0.17845	0.098591	0.33317	0.14889	0.062279	0.26126	0.2691	0.10291	0.33044	0.25882	0.03274	0.21437	0.22983	-1.5417	-2.2729	-2.6188	-2.3083	-2.3604	-2.1771	-2.4396	-2.7771	-2.3979	-2.1625	-2.5	-2.1688	-2.6813	-2.8063	-2.3063	-2.7354	106.765	82.959	214.463	235.309	6.163	-39.814	173.442	138.293	250.382	252.645	34.082	236.799	199.018	-34.652	280.615	268.600	0.00037792	0.0010439	0.0002311	623.03	7.6568e-06	6.6069e-06	742.08	277.06	5.8315e-06	7.9687e-06	360.45	165.42	124.83	70.576	4.0264e-06	95.389	0.00049193	0.00047531	0.00012603	587.41	5.1396e-06	5.0025e-06	698.44	261.42	5.1286e-06	5.1785e-06	338.67	155.43	118.26	66.945	5.1131e-06	89.871	141.814	39.462	-6.504	-64.035	68.609	64.960	-65.322	-58.452	17.039	60.685	-61.142	-57.447	-54.771	-49.006	42.557	-53.375	-8191	255	
1200.152	1	1	0	0	0.15099	0.01654	0.2588	0.10103	0.068096	0.088256	0.26017	0.23235	0.19888	0.13306	0.20696	0.26038	0.29506	0.20892	0.26855	0.32875	-1.7167	-2.2792	-2.5542	-2.3021	-2.5271	-2.3792	-2.0979	-2.875	-2.4625	-2.4417	-2.7542	-2.0646	-2.5563	-2.9042	-2.4313	-2.9854	265.284	231.255	-37.135	83.985	264.237	-65.350	162.791	162.586	136.467	101.424	206.137	269.113	260.351	-64.208	-34.171	206.091	0.00032832	0.00096821	0.00025699	615.69	6.2964e-06	7.6863e-06	734.16	273.42	3.5552e-06	1.4296e-05	360.35	163.96	124.3	70.398	3.2022e-06	95.616	0.00048548	0.00046125	0.00012911	581.04	4.9423e-06	4.9909e-06	692.04	258.66	5.0912e-06	4.9561e-06	337.64	154.54	118	66.63	5.1308e-06	89.604	144.482	11.116	48.679	-64.114	60.773	49.282	-65.411	-58.436	57.229	52.966	-61.413	-57.381	-54.551	-49.089	9.550	-53.532	-8191	255	
1200.271	1	1	0	0	0.30052	0.17284	0.094638	0.18214	0.17111	0.13537	0.15599	0.16632	0.23692	0.12628	0.10754	0.053064	0.056372	0.23759	0.31524	0.34815	-1.8021	-2.25	-2.525	-2.4604	-2.5625	-2.65	-2.4042	-2.8854	-2.5563	-2.0854	-2.6771	-2.6833	-2.6854	-2.7417	-2.4625	-2.7417	96.948	-14.661	168.980	-73.796	102.583	102.129	173.520	-59.656	51.689	136.812	-11.767	-31.838	90.068	221.475	79.491	197.991	0.0003946	0.00072609	0.00017754	617.81	4.2576e-06	6.8194e-06	734.51	272.57	3.335e-06	1.0157e-05	353.52	162.43	123.53	70.094	2.0724e-06	95.053	0.00048252	0.00045549	0.00012785	581.31	4.8468e-06	5.0168e-06	690.84	257.43	5.0933e-06	5.0652e-06	333.48	153.29	117.29	66.417	5.1421e-06	89.381	143.216	14.418	35.383	-64.148	61.039	49.953	-65.502	-58.486	26.836	53.918	-61.836	-57.555	-54.895	-49.091	69.000	-53.355	-8191	255	
1200.368	1	1	0	0	0.10896	0.17395	0.20563	0.24146	0.2585	0.26569	0.17328	0.12235	0.1645	0.23186	0.13393	0.4467	0.28311	0.32371	0.19141	0.16802	-1.7958	-2.0667	-2.5312	-2.4646	-2.4229	-2.7708	-2.4146	-2.7646	-2.5292	-2.2125	-2.7771	-2.6583	-2.4562	-2.5687	-2.1208	-2.8271	-12.026	24.435	228.038	225.492	236.997	233.284	226.342	39.773	-23.995	-29.708	144.819	248.478	-35.430	263.360	115.418	207.307	0.00030935	0.00055456	0.00010888	619.23	4.9646e-06	6.8502e-06	734.73	274.36	5.9013e-06	2.025e-06	356.2	162.79	123.84	69.814	4.7421e-06	94.655	0.0004742	0.00045994	0.0001255	581.71	4.8932e-06	4.9943e-06	689.6	258.29	4.9645e-06	4.9756e-06	333.79	153.56	117.08	66.414	5.0612e-06	89.191	139.946	-26.142	34.848	-63.907	21.012	97.096	-65.369	-58.694	55.558	163.965	-61.515	-57.855	-55.008	-49.154	61.903	-53.351	-8191	255	
1200.439	1	1	0	0	0.17916	0.14349	0.28082	0.35736	0.18146	0.27528	0.057672	0.2222	0.10884	0.16358	0.37873	0.13431	0.13347	0.15775	0.1741	0.22622	-1.9438	-2.0292	-2.7646	-2.6521	-2.225	-2.5687	-2.4729	-2.7417	-2.5208	-2.3333	-2.6604	-2.6813	-2.4271	-2.9646	-2.3354	-2.6771	97.163	102.310	267.118	-63.772	204.985	100.234	-44.664	190.070	156.632	-68.547	237.829	153.401	157.052	222.178	-67.178	224.460	0.00039297	0.00094539	0.00015787	613.38	4.6223e-06	1.1368e-05	735.87	276.1	6.4273e-06	2.9827e-06	361.53	165.08	125.36	70.506	1.6197e-06	95.504	0.00046985	0.00046843	0.00013025	577.29	4.9986e-06	4.972e-06	690.56	259.21	5.0041e-06	4.9829e-06	337.46	155.78	118.62	67.055	5.1873e-06	90.084	130.602	17.017	-12.729	-63.932	-21.778	88.444	-65.569	-58.662	34.805	49.101	-61.338	-57.435	-54.646	-48.764	88.437	-53.408	-8191	255	
1200.560	1	1	0	0	0.40272	0.29778	0.21196	0.26224	0.064382	0.46466	0.42959	0.40971	0.018878	0.14007	0.32904	0.23478	0.21607	0.085373	0.060137	0.028902	-1.9312	-2.0438	-2.5833	-2.4437	-2.3104	-2.9229	-2.2833	-2.2625	-2.6042	-2.4875	-2.95	-2.7104	-2.1979	-2.85	-2.4292	-2.7021	60.124	120.251	254.595	263.353	249.099	122.151	220.044	235.602	27.885	212.459	250.357	-37.686	144.528	277.833	-17.791	170.297	0.00034656	0.00056831	0.00014774	612.02	4.0411e-06	5.0452e-06	733.1	275.13	6.2417e-06	8.1137e-06	356.6	164.3	124.75	70.704	6.5994e-06	95.301	0.00048754	0.00045614	0.00012909	576.86	5.0222e-06	4.9489e-06	686.84	258.03	5.1234e-06	5.0765e-06	336.31	154.87	118.13	67.063	5.1359e-06	89.86	129.069	-21.335	31.594	-64.042	45.218	76.008	-65.483	-58.423	123.699	69.924	-61.486	-57.542	-54.719	-49.196	71.597	-53.437	-8191	255	
1200.656	1	1	0	0	0.16373	0.16725	0.19768	0.23611	0.060198	0.11837	0.1189	0.17117	0.11336	0.13455	0.26923	0.50779	0.15399	0.20918	0.18996	0.36515	-1.9354	-2.2417	-2.6833	-2.5958	-2.1604	-2.7729	-2.3229	-2.3104	-2.6292	-2.375	-2.6521	-2.7625	-2.3063	-2.9062	-2.5479	-2.525	112.258	6.211	207.357	152.518	-29.462	97.160	110.800	274.307	155.242	0.877	206.462	-61.926	113.607	277.670	-67.675	180.025	0.00035774	0.00091126	0.00023228	619.35	7.4467e-06	3.9553e-06	734.1	276.01	6.2171e-06	8.0914e-06	357.91	163.16	123.78	70.46	5.64e-06	94.364	0.0004855	0.00045866	0.00012892	582.51	4.9847e-06	5.0703e-06	691.11	260.13	5.0039e-06	5.1717e-06	335.92	154.14	117.57	66.679	5.1435e-06	89.108	144.392	0.858	44.353	-64.100	63.212	52.861	-65.329	-58.378	63.595	99.515	-61.361	-57.845	-54.868	-49.103	40.466	-53.387	-8191	255	
1200.752	1	1	0	0	0.20329	0.17292	0.13573	0.19471	0.16829	0.18084	0.36931	0.10782	0.23061	0.032223	0.14833	0.315	0.35242	0.17986	0.057527	0.22161	-2.2271	-2.0958	-2.525	-2.5417	-2.3729	-2.6625	-2.3979	-2.525	-2.8104	-2.35	-2.6354	-2.5083	-2.2583	-2.8812	-2.6354	-2.5958	251.233	80.616	230.972	-6.660	-34.274	147.007	198.754	74.766	0.820	8.438	-6.849	216.233	249.228	-61.693	108.033	222.986	0.00039385	0.00010627	0.00010114	618.88	3.7506e-06	8.0659e-06	740.71	275.72	5.6713e-06	7.6296e-06	360.49	165.07	124.8	70.795	5.2004e-06	95.47	0.00049329	0.00046484	0.00013019	582.18	5.0938e-06	5.0589e-06	692.32	259.53	5.0846e-06	5.174e-06	338.19	155.28	118.35	67.256	5.2218e-06	90.132	139.614	55.375	45.659	-63.985	6.926	76.279	-65.350	-58.394	-1.577	127.886	-61.329	-57.443	-54.813	-49.004	42.477	-53.649	-8191	255	
1200.848	1	1	0	0	0.094901	0.038302	0.18956	0.0045233	0.15609	0.019801	0.15489	0.16766	0.1174	0.27219	0.19766	0.34787	0.16973	0.29602	0.29969	0.25828	-2.1688	-2.1708	-2.4604	-2.5687	-2.0583	-2.5396	-2.7958	-2.4896	-2.6708	-2.4917	-2.4667	-2.9437	-2.2771	-2.5708	-2.5292	-2.3479	89.201	-16.423	221.895	234.940	72.127	114.869	193.944	-52.904	46.819	180.365	162.200	253.840	222.259	260.902	247.011	197.274	0.00041705	0.00027944	0.00016687	619.3	4.3452e-06	6.3339e-06	735.81	276.21	4.1301e-06	5.3732e-06	362.04	166.32	125.28	71.402	5.0042e-06	96.691	0.00048266	0.00046934	0.00013217	583.26	5.078e-06	5.1242e-06	691.78	259.46	5.1296e-06	5.0841e-06	339.34	156.3	118.96	67.637	5.0942e-06	90.785	142.548	31.323	7.607	-63.836	77.482	67.834	-65.488	-58.522	118.535	59.437	-61.410	-57.453	-55.059	-49.178	40.274	-53.373	-8191	255	
1200.967	1	1	0	0	0.16865	0.11435	0.037077	0.37019	0.13791	0.23156	0.17532	0.16579	0.12472	0.24392	0.10124	0.13143	0.070841	0.20684	0.11204	0.18152	-2.4458	-2.3271	-2.4896	-2.7125	-2.35	-2.4938	-2.7188	-2.3917	-2.7354	-2.4125	-2.4583	-2.8438	-2.4583	-2.6146	-2.5042	-2.5125	-59.325	55.713	221.897	232.260	55.314	264.886	148.730	198.109	-65.888	222.891	238.657	213.052	35.863	-64.565	63.263	270.984	0.00032667	0.00040079	9.5777e-05	625.95	9.251e-06	5.0824e-06	741.42	278.36	1.3509e-06	5.0362e-06	361.81	166.08	125.88	71.64	2.4083e-06	96.292	0.00048896	0.00046251	0.00012969	587.98	5.0348e-06	5.1924e-06	697.07	261.98	5.13e-06	5.1507e-06	339.19	156.56	119.27	67.752	5.2488e-06	90.525	154.718	34.920	19.008	-63.982	60.660	79.109	-65.478	-58.792	154.673	11.615	-61.743	-57.584	-55.120	-49.076	110.652	-53.622	-8191	255	
1201.041	1	1	0	0	0.32289	0.098246	0.22945	0.23127	0.23154	0.13445	0.14998	0.10279	0.24651	0.22699	0.17116	0.16751	0.18335	0.16567	0.22518	0.17706	-2.0354	-2.4333	-2.1792	-2.85	-2.2313	-2.5708	-2.5292	-2.1604	-2.6625	-2.4958	-2.2625	-2.6083	-2.4979	-2.6458	-2.5875	-2.1396	220.443	23.450	234.412	273.041	87.736	74.780	259.090	47.849	39.377	66.256	228.058	219.085	187.882	211.861	110.855	-37.655	0.00032549	0.00083551	0.00019252	623.89	4.3835e-06	5.676e-06	736.83	277.16	7.6522e-06	6.9601e-06	355.54	162.92	123.39	70.084	7.6413e-06	94.481	0.0005062	0.00046754	0.00013089	588.54	5.0645e-06	5.1985e-06	696.76	261.42	5.2051e-06	5.1771e-06	336.36	153.83	117.09	66.394	5.3045e-06	88.683	137.228	-1.114	23.608	-63.892	57.348	79.205	-65.506	-58.686	63.165	63.437	-61.147	-57.554	-54.819	-48.927	72.091	-53.504	-8191	255	
1201.135	1	1	0	0	0.11831	0.13467	0.11938	0.044236	0.25695	0.21002	0.30548	0.11293	0.090801	0.34515	0.1018	0.20899	0.38845	0.26982	0.17994	0.33907	-2.1083	-2.0854	-2.0479	-2.5563	-2.4729	-2.6375	-2.8458	-2.3417	-2.575	-2.6875	-2.4437	-2.7604	-2.525	-2.6021	-2.7021	-2.3333	96.973	-7.531	257.918	248.767	51.890	101.802	177.223	268.583	-75.718	7.795	233.766	270.079	247.625	-63.680	137.713	180.088	0.00034335	0.00037084	0.00014592	617.74	1.6571e-06	1.2878e-05	731.57	275.11	7.9944e-06	1.1533e-05	360.03	163.89	124.03	70.934	4.2448e-06	94.925	0.00050289	0.00047737	0.00013411	578.91	5.1017e-06	5.2275e-06	688.58	258.69	5.1953e-06	5.1424e-06	336.55	154.47	117.8	67.023	5.1909e-06	89.462	125.484	-51.663	-31.061	-63.966	51.126	67.744	-65.432	-58.273	63.675	83.387	-61.434	-57.423	-54.593	-49.040	18.623	-53.531	-8191	255	
1201.233	1	1	0	0	0.055296	0.18541	0.09951	0.19695	0.29572	0.16814	0.10048	0.32251	0.29896	0.11856	0.056717	0.12209	0.57989	0.23786	0.21409	0.16214	-2	-2.6813	-2.2062	-2.7438	-2.5771	-2.2708	-2.7229	-2.4958	-2.4333	-2.4688	-2.4354	-2.7958	-2.5458	-2.4688	-2.7833	-2.5646	188.284	203.341	192.676	-34.815	-14.769	32.765	241.062	168.205	4.209	-57.943	283.699	258.466	239.058	-68.781	193.659	193.086	0.00043045	0.00050752	0.00013678	615.83	6.1057e-06	6.0518e-06	735.1	272.63	3.4244e-06	9.8977e-06	358.57	163.78	124.84	70.527	3.5469e-06	95.404	0.0005013	0.00047388	0.00013238	580.97	5.1195e-06	5.1947e-06	692.05	258.01	5.1674e-06	4.9936e-06	337.27	154.57	118.24	66.91	5.1813e-06	89.857	146.220	39.946	-21.474	-64.069	79.882	84.198	-65.539	-58.236	120.745	67.469	-61.742	-57.286	-54.780	-49.222	49.139	-53.525	-8191	255	
1201.352	1	1	0	0	0.18602	0.30715	0.12958	0.09255	0.15242	0.27339	0.19942	0.17312	0.041609	0.044873	0.19903	0.10779	0.077855	0.23135	0.10722	0.12808	-2.0354	-2.4125	-2.1083	-2.7875	-2.6646	-2.3917	-2.8167	-2.2792	-2.6	-2.8646	-2.4062	-2.6875	-2.6375	-2.2854	-2.5729	-2.4062	271.745	190.545	194.645	97.851	58.393	99.729	227.118	8.596	29.892	-55.323	183.603	-31.777	240.283	279.851	275.945	157.869	0.00032287	0.00043243	0.00014273	628.69	4.3584e-06	9.0354e-06	745.23	279.3	5.3661e-06	1.3249e-05	364.77	165.87	125.84	71.472	2.6989e-06	96.496	0.00049879	0.00046446	0.00013231	591.94	5.0595e-06	5.1208e-06	699.63	262.9	5.1215e-06	5.0409e-06	341.74	156.2	119.52	67.657	5.1646e-06	90.818	135.828	19.431	-46.359	-64.149	105.543	90.756	-65.369	-58.384	47.315	60.216	-61.582	-57.635	-54.701	-49.203	-5.536	-53.511	-8191	255	
1201.448	1	1	0	0	0.12576	0.025807	0.24064	0.13165	0.14485	0.29444	0.068293	0.19875	0.14812	0.18197	0.075626	0.22493	0.055762	0.15062	0.14048	0.11088	-1.8896	-2.3417	-2.1063	-2.7604	-2.6104	-2.1583	-2.7979	-2.5208	-2.5729	-2.6813	-2.3937	-2.5396	-2.6354	-2.2833	-2.5979	-2.3583	283.210	178.811	237.286	258.259	85.445	39.809	199.616	-74.223	-10.466	2.386	-12.210	227.623	239.233	176.929	-61.352	186.031	0.00032387	0.00049016	0.00015876	634.35	7.8758e-06	7.8326e-06	754.74	282.75	7.084e-06	1.153e-05	367.21	168.43	127.37	72.182	6.2537e-06	97.458	0.00049274	0.00045491	0.00013082	597.39	5.0541e-06	5.0825e-06	708.32	266.77	5.1358e-06	5.0778e-06	345.82	158.68	120.74	68.317	5.164e-06	91.772	138.149	9.917	-20.771	-64.421	28.063	89.118	-65.533	-58.776	85.694	113.996	-61.243	-57.426	-54.797	-49.387	49.907	-53.672	-8191	255	
1201.544	1	1	0	0	0.037633	0.21862	0.092097	0.099863	0.18384	0.12747	0.33947	0.21718	0.16546	0.30437	0.17664	0.20326	0.069248	0.29267	0.14563	0.37502	-2.0292	-2.8042	-2.375	-2.7479	-2.5729	-2.0896	-2.6375	-2.5125	-2.2438	-2.8708	-2.5479	-2.6	-2.6625	-2.1854	-2.6458	-2.5646	-35.465	6.878	257.861	32.726	-9.503	67.812	-72.559	-45.886	206.684	237.121	276.121	251.547	-42.396	230.639	156.937	261.505	0.00030665	0.00043646	0.00016864	632.55	4.6989e-06	4.3815e-06	754.21	282.67	3.3452e-06	4.8833e-06	369.86	170.43	128.38	72.971	3.4085e-06	99.195	0.00049048	0.00047062	0.00013156	594.91	4.993e-06	5.1166e-06	708.31	267.21	5.0265e-06	5.0233e-06	347.38	160.56	122.06	69.209	5.2184e-06	93.356	137.532	23.558	-5.049	-63.794	85.293	57.751	-65.146	-58.410	100.096	107.858	-61.886	-57.826	-54.792	-49.152	36.464	-53.661	-8191	255	
1201.640	1	1	0	0	0.056231	0.26276	0.036557	0.23428	0.19136	0.19042	0.077627	0.13075	0.12882	0.14704	0.1015	0.20888	0.20231	0.13632	0.11599	0.062505	-1.7188	-2.7521	-2.2812	-2.4896	-2.6042	-2.2958	-2.7438	-2.5375	-2.2833	-2.7146	-2.4104	-2.5146	-2.8	-2.4646	-2.5833	-2.6625	164.819	-68.494	63.422	-71.680	238.395	45.236	258.638	250.635	232.651	26.902	236.955	-4.697	271.638	280.703	-68.052	106.030	0.00034889	0.00034451	0.00022228	636.83	4.3233e-06	5.7953e-06	767.01	287.74	3.6359e-06	7.9313e-06	376.44	172.51	130.41	73.785	3.7026e-06	100.05	0.0004863	0.00046669	0.0001279	598.35	5.0297e-06	5e-06	716.3	270.91	4.933e-06	4.931e-06	352.18	162.32	123.86	69.854	5.078e-06	94.014	143.860	-0.831	60.878	-64.107	47.584	77.173	-65.608	-58.826	29.709	62.097	-61.830	-57.682	-54.949	-49.222	77.622	-53.391	-8191	255	
1201.736	1	1	0	0	0.27801	0.16047	0.15497	0.22666	0.42106	0.096007	0.19236	0.2413	0.14734	0.19469	0.086595	0.12379	0.21951	0.53477	0.20744	0.41631	-1.8083	-2.9208	-2.2708	-2.6771	-2.8958	-2.2333	-2.8542	-2.65	-2.2396	-2.7562	-2.45	-2.3521	-2.6688	-2.3688	-2.7083	-2.7646	-33.905	267.721	226.881	271.999	242.510	151.145	266.610	207.740	4.543	-72.813	-67.706	-36.578	233.101	278.622	250.908	259.698	0.00038863	0.00022174	0.00026669	638.58	6.3034e-06	7.0881e-06	762.35	287.8	8.8705e-06	8.1077e-06	377.02	172.56	130.9	73.974	5.7821e-06	99.799	0.00048299	0.00046166	0.00012769	600.73	5.0662e-06	5.0142e-06	716.63	271.59	5.0031e-06	4.9929e-06	352.59	162.01	124.01	69.926	5.0393e-06	93.833	139.114	15.861	26.935	-63.971	60.194	16.804	-65.134	-58.449	82.129	25.082	-61.759	-57.765	-54.966	-49.489	103.520	-53.744	-8191	255	
1201.832	1	1	0	0	0.1184	0.15316	0.053653	0.039723	0.11398	0.057191	0.29942	0.12205	0.13943	0.35871	0.098639	0.19024	0.23705	0.25833	0.047361	0.052445	-1.8375	-2.6917	-2.6979	-2.475	-2.4958	-2.2396	-2.6458	-2.7958	-2.2042	-2.6958	-2.5479	-2.4021	-2.9	-2.5812	-2.5438	-2.6292	209.049	73.760	-44.731	85.782	24.050	22.660	-65.416	200.422	99.557	195.372	-62.586	-8.752	280.089	248.096	227.301	8.013	0.00037073	0.00040416	0.00024038	640.05	3.1427e-06	8.8849e-06	764.33	287.2	4.4403e-06	7.3045e-06	370.89	169.19	127.98	72.411	2.6056e-06	97.956	0.0004857	0.000451	0.00013063	601.57	5.019e-06	5.0821e-06	716.45	269.32	5.1762e-06	5.0912e-06	347.45	159.44	121.47	68.588	5.2096e-06	92.199	140.476	-3.735	57.908	-64.072	113.995	76.044	-65.626	-58.756	42.684	105.255	-61.510	-57.732	-54.853	-49.433	86.882	-53.367	-8191	255	
1201.953	1	1	0	0	0.13932	0.29191	0.15939	0.19723	0.26184	0.17121	0.27265	0.11916	0.15515	0.33181	0.33448	0.54389	0.23232	0.085839	0.17539	0.18582	-1.4708	-2.4583	-2.6188	-2.4042	-2.7938	-2.4146	-2.3229	-2.5667	-2.3125	-2.675	-2.6437	-2.225	-2.7167	-2.6312	-2.5062	-3.0104	231.936	-34.957	253.961	16.365	184.288	-48.672	244.470	210.425	105.091	241.405	27.343	244.853	196.981	254.333	135.579	182.974	0.00040854	0.00038816	0.00022084	634.41	3.6487e-06	7.6604e-06	754.11	282.67	1.68e-06	1.0353e-05	368.56	169.11	126.84	72.302	4.2128e-06	97.393	0.00048462	0.00046924	0.00013012	594.21	5.074e-06	5.2058e-06	708.28	266.86	5.2486e-06	5.2515e-06	346.07	159.03	120.45	68.472	5.2132e-06	91.895	138.345	13.502	-4.290	-63.897	41.165	37.051	-65.502	-58.386	71.866	74.022	-61.775	-57.707	-55.027	-49.381	70.506	-53.272	-8191	255	
1202.048	1	1	0	0	0.18031	0.2321	0.17641	0.19488	0.19056	0.20027	0.41936	0.1649	0.076507	0.22851	0.18113	0.1895	0.21938	0.21696	0.15738	0.1017	-1.8438	-2.6813	-2.6	-2.4562	-2.8083	-2.2542	-2.2812	-2.7375	-2.3646	-2.5125	-2.7833	-2.3646	-2.8167	-2.4688	-2.2062	-2.7833	89.765	14.943	42.963	147.172	173.888	144.240	241.560	227.691	182.375	106.682	251.379	-16.905	234.915	161.324	107.113	240.429	0.00035237	0.00063929	0.00024478	626.65	2.7652e-06	1.7045e-05	743.85	278.81	1.8026e-06	3.1081e-06	365.18	166.75	126.42	71.179	3.7703e-06	96.123	0.00050051	0.00048991	0.0001329	590.67	5.3017e-06	5.2318e-06	702.47	263.29	5.2617e-06	5.1391e-06	342.38	156.97	119.51	67.584	5.1251e-06	90.646	138.448	18.912	-23.227	-63.910	9.444	77.016	-65.321	-58.694	175.706	26.082	-61.636	-57.622	-54.879	-49.179	48.220	-53.357	-8191	255	
1202.144	1	1	0	0	0.090291	0.1996	0.15157	0.18781	0.23162	0.26203	0.23352	0.2574	0.127	0.10532	0.10472	0.42882	0.27684	0.19376	0.054225	0.1959	-1.6917	-2.3333	-2.5625	-2.4437	-2.6396	-2.4708	-2.6208	-3.0396	-2.3688	-2.5938	-2.6063	-2.0875	-2.6583	-2.5021	-2.3354	-2.5646	162.976	235.899	216.211	169.584	64.725	-17.909	-36.047	54.858	32.236	196.545	100.266	249.464	211.698	213.914	256.500	-70.739	0.00030378	0.00060613	0.00018188	615.33	4.4639e-06	1.128e-05	737.86	275.87	4.1304e-06	4.6609e-06	362.59	165.35	125.34	71.597	3.108e-06	96.471	0.00050375	0.0004775	0.00013175	582.8	5.1321e-06	5.1774e-06	692.04	259.99	5.1995e-06	5.1388e-06	339.5	155.97	118.99	67.749	5.2048e-06	90.677	145.111	20.228	-10.543	-63.791	13.520	41.251	-65.532	-58.767	22.406	61.009	-61.450	-57.352	-54.843	-49.219	29.161	-53.629	-8191	255	
1202.264	1	1	0	0	0.22399	0.10317	0.20986	0.10846	0.18609	0.15736	0.32196	0.29778	0.10186	0.22586	0.15706	0.26613	0.25035	0.10406	0.18312	0.27135	-1.5479	-2.5979	-2.6771	-2.5021	-2.7521	-2.6562	-2.525	-2.9104	-2.3458	-2.4917	-2.7125	-2.4313	-2.5396	-2.6979	-2.1646	-2.8729	250.162	-7.785	-40.629	211.161	85.098	56.249	282.248	112.219	-58.882	148.183	-57.900	228.280	206.789	237.223	157.886	-75.461	0.00039339	0.0012092	0.00019312	617.35	1.6081e-06	4.8561e-06	730.77	273.39	8.167e-06	7.6866e-06	353.95	163.92	124.06	70.573	2.7193e-06	95.867	0.0004923	0.00046903	0.00012867	581.21	5.1906e-06	5.0608e-06	685.06	257.21	5.2675e-06	5.1142e-06	332.76	154.15	117.5	67.001	5.2358e-06	90.257	129.523	5.822	75.644	-63.884	21.562	104.424	-65.312	-58.420	59.673	31.635	-61.389	-57.602	-55.102	-49.048	52.417	-53.804	-8191	255	
1202.336	1	1	0	0	0.30195	0.10316	0.01564	0.089109	0.17659	0.20069	0.31649	0.18361	0.090776	0.14389	0.1386	0.08794	0.3837	0.46124	0.18786	0.23657	-1.8729	-2.2083	-2.7292	-2.3979	-2.6396	-2.7333	-2.4375	-2.9688	-2.4042	-2.4	-2.7042	-2.2875	-2.4604	-3.0208	-2.4146	-2.9188	114.503	118.641	-46.555	186.068	196.549	129.321	266.834	-72.160	-71.152	-39.145	275.665	234.709	273.816	256.178	187.084	210.335	0.00036491	0.00059726	0.00010922	616.73	1.8475e-06	8.8873e-06	737.89	275.79	2.9065e-06	2.0023e-06	358.77	164.64	124.33	70.524	4.9668e-06	95.963	0.00049333	0.00047196	0.00012939	580.26	5.231e-06	5.1771e-06	691.33	259.67	5.1949e-06	5.1816e-06	336.28	155.15	118.02	67.111	5.2153e-06	90.205	152.714	44.890	44.926	-63.554	38.889	17.696	-65.187	-58.241	1.410	239.731	-61.294	-57.883	-54.968	-49.078	91.439	-53.379	-8191	255	
1202.432	1	1	0	0	0.22455	0.1436	0.24446	0.23428	0.046051	0.17116	0.53477	0.20174	0.18713	0.15094	0.063275	0.083141	0.2398	0.14844	0.21185	0.30465	-1.8854	-2.3	-2.5771	-2.325	-2.3792	-2.575	-2.3292	-2.6625	-2.5583	-2.0125	-2.7938	-2.2458	-2.1458	-2.6083	-2.2354	-2.7562	153.967	201.194	-52.225	-49.713	-7.144	162.470	188.279	-26.261	125.202	238.070	-16.401	218.087	200.174	10.814	213.405	-46.725	0.00035518	0.00024852	0.00023933	617.33	1.5671e-06	9.4454e-06	738.46	275.36	4.3761e-06	7.4387e-06	359.73	164.44	125.35	70.754	4.0085e-06	95.448	0.00049065	0.00047383	0.00013161	581.84	4.9832e-06	5.0229e-06	691.28	259.97	5.106e-06	5.0862e-06	336.55	154.57	118.21	67.087	5.1429e-06	89.861	139.193	62.054	-27.034	-63.961	-21.458	89.309	-64.966	-58.420	100.081	51.576	-61.560	-57.674	-54.859	-49.143	15.904	-53.456	-8191	255	
1202.528	1	1	0	0	0.2974	0.23372	0.12862	0.17543	0.25745	0.058939	0.084231	0.095139	0.092846	0.22986	0.25056	0.2815	0.075652	0.11999	0.0070732	0.20963	-2.0021	-2.3042	-2.5708	-2.4792	-2.4479	-2.5771	-2.1604	-2.3292	-2.5146	-2.2292	-2.7	-2.3417	-2.3854	-2.7458	-2.1208	-2.5438	-41.120	-16.209	257.328	237.998	58.802	261.625	150.244	278.954	23.533	-35.696	122.653	143.587	139.879	244.305	78.854	169.765	0.00037134	0.00062917	0.00011077	620.53	4.5525e-06	7.5374e-06	732.09	272.77	4.0832e-06	7.016e-06	353.04	162.65	123.89	70.381	1.8172e-06	94.811	0.00048941	0.00046723	0.00013237	580.95	5.1533e-06	5.113e-06	687.14	257.65	5.0872e-06	5.2191e-06	332.29	152.83	117.31	66.694	5.1865e-06	89.293	141.411	-1.217	64.750	-64.017	47.194	65.467	-65.603	-58.747	114.890	69.229	-61.511	-57.613	-54.846	-48.965	173.453	-53.194	-8191	255	
1202.649	1	1	0	0	0.052122	0.12968	0.10032	0.14231	0.034862	0.16633	0.13341	0.16256	0.25841	0.056777	0.022047	0.1884	0.36865	0.34846	0.091378	0.20117	-2.1104	-2.2271	-2.6917	-2.425	-2.1437	-2.4771	-2.3208	-2.6188	-2.5917	-2.2667	-2.4729	-2.3229	-2.2146	-2.8812	-2.1562	-2.6833	-72.962	66.849	192.560	226.976	184.735	56.623	279.070	189.741	270.083	172.375	-19.936	204.878	235.384	248.348	219.900	204.151	0.00030846	0.00035665	0.00027131	613.73	2.9658e-06	1.4849e-05	722.49	269.77	4.9214e-06	2.7462e-06	348.22	161.12	122.75	69.658	3.6479e-06	94.273	0.00050531	0.00048197	0.00013066	577.55	5.0984e-06	5.1598e-06	679.25	255.05	5.162e-06	5.2868e-06	327.32	151.49	116.32	66.169	5.3648e-06	88.653	126.917	30.933	12.251	-63.527	77.190	71.804	-65.376	-58.570	44.709	42.610	-61.518	-57.590	-54.877	-48.807	38.281	-53.197	-8191	255	
1202.745	1	1	0	0	0.16328	0.13962	0.10904	0.092303	0.078431	0.19742	0.070339	0.060825	0.11484	0.25671	0.28208	0.081176	0.12828	0.11649	0.10073	0.4322	-2.1167	-1.9771	-2.2812	-2.4479	-2.2271	-2.7167	-2.3646	-2.4979	-2.7292	-2.1708	-2.5042	-2.4479	-2.4437	-2.6688	-2.3229	-2.4875	213.707	162.256	144.960	138.101	200.179	131.013	264.289	233.883	95.992	-31.108	10.846	23.941	227.551	225.386	162.802	218.312	0.00032348	0.00058853	0.00016902	611.85	3.9562e-06	3.3505e-07	727.13	271.57	1.9436e-06	8.2166e-06	352.34	160.79	122.76	69.612	4.3838e-06	94.221	0.00049726	0.00048771	0.00013618	575.7	5.1362e-06	5.1795e-06	683.41	256.29	5.0921e-06	5.1842e-06	330.77	152	116.35	66.09	5.2523e-06	88.621	143.945	-15.033	-34.685	-64.001	62.128	-26.170	-65.247	-58.442	130.884	56.114	-61.237	-57.472	-54.587	-49.163	63.612	-53.443	-8191	255	
1202.841	1	1	0	0	0.24922	0.087154	0.1174	0.13043	0.094178	0.12022	0.12163	0.24358	0.12709	0.10466	0.3496	0.29768	0.2008	0.084616	0.016233	0.098542	-2.1063	-2.25	-2.4354	-2.5292	-1.9458	-2.5312	-2.5646	-2.2896	-2.5875	-2.4417	-2.6271	-2.7875	-2.2146	-2.6125	-2.2083	-2.5771	240.381	258.510	129.414	164.068	177.375	-30.625	152.239	223.039	137.600	36.968	-62.822	257.706	256.586	276.360	112.399	-23.565	0.00037761	0.0010348	0.00030382	608.74	4.1415e-06	7.666e-06	722.83	268.49	6.7574e-06	9.818e-06	352.56	160.89	122.17	69.734	2.8031e-06	94.082	0.00048788	0.00048332	0.00013452	572.76	5.1432e-06	5.3094e-06	678.28	253.78	5.0125e-06	5.2084e-06	330.07	151.45	116.11	66.093	5.152e-06	88.484	151.018	18.560	46.394	-64.252	126.285	80.257	-65.403	-58.659	26.690	72.201	-61.725	-57.390	-54.629	-48.973	135.375	-53.458	-8191	255	
1202.913	1	1	0	0	0.18069	0.2027	0.1513	0.26997	0.070419	0.017669	0.18067	0.18604	0.19612	0.15608	0.093154	0.3903	0.24067	0.21373	0.20656	0.36035	-2.4854	-2.1417	-2.4229	-2.5854	-2.1646	-2.4479	-2.5563	-2.2104	-2.6771	-2.2771	-2.425	-2.4604	-2.4479	-2.5708	-2.2938	-2.4146	245.635	200.723	-57.403	205.344	63.538	61.864	177.783	149.492	197.851	201.141	221.437	236.482	219.523	242.038	15.046	214.858	0.00043253	0.0012663	0.00016006	605.87	4.9116e-06	6.9462e-06	712.16	267.14	7.7241e-06	6.9124e-06	346.91	158.5	121.48	69.298	1.413e-06	93.526	0.00049264	0.00047765	0.00013016	571.26	5.1569e-06	5.1801e-06	671.34	252.07	5.12e-06	5.0973e-06	325.79	149.74	115.19	65.666	5.1189e-06	88.01	139.701	5.233	-17.539	-63.815	73.818	84.620	-65.274	-58.522	76.003	92.513	-61.765	-57.379	-54.588	-49.195	22.025	-53.294	-8191	255	
1203.032	1	1	0	0	0.10221	0.16813	0.22206	0.036051	0.17659	0.06824	0.11256	0.33135	0.30387	0.26263	0.32538	0.068268	0.4883	0.080535	0.048343	0.076086	-2.2042	-2.2313	-2.2625	-2.6521	-2.1854	-2.7208	-2.5812	-2.3292	-2.6146	-2.2792	-2.4646	-2.9729	-2.2833	-2.525	-2.6104	-2.2396	169.265	28.128	71.646	248.161	133.787	62.378	150.658	170.128	256.225	-75.884	209.700	163.879	225.976	34.138	102.997	165.182	0.00036076	0.00010863	0.00014334	602.35	3.3835e-06	9.3308e-06	714.31	267.95	4.2801e-06	1.1513e-05	344.78	159.06	121.23	68.934	1.4637e-06	93.57	0.00049506	0.00047242	0.00013085	567.23	5.1324e-06	5.1685e-06	671.03	252.2	5.2374e-06	5.1166e-06	324.66	150.36	115.01	65.5	5.2572e-06	87.95	155.985	-40.213	49.760	-63.902	-29.319	88.785	-65.438	-58.098	101.482	22.346	-61.217	-57.310	-54.792	-49.026	11.286	-53.356	-8191	255	
1203.128	1	1	0	0	0.25816	0.089827	0.16498	0.046348	0.099422	0.19364	0.21812	0.13141	0.1224	0.15808	0.16422	0.082374	0.10125	0.11513	0.09983	0.27094	-2.0396	-2.1771	-2.2792	-2.6604	-2.1396	-2.5292	-2.6937	-2.2708	-2.425	-2.3312	-2.5271	-2.8208	-2.2333	-2.3042	-2.5083	-2.3083	-57.286	-35.071	5.038	8.926	-6.636	202.483	188.764	1.645	107.721	-45.181	269.515	-74.765	-43.997	281.860	-70.202	167.176	0.00035139	0.00081513	0.00026333	600.21	1.8073e-06	3.5475e-06	710.79	268.3	8.3402e-06	4.7592e-06	349.81	160.82	122.02	69.77	3.0299e-06	93.82	0.00050242	0.00048033	0.00013394	565.81	5.1582e-06	5.2561e-06	669.76	252.78	5.1878e-06	5.2002e-06	328.45	151.46	115.93	65.943	5.2087e-06	88.368	140.537	17.057	7.281	-63.879	93.207	57.312	-65.304	-58.361	12.451	74.288	-61.089	-57.749	-54.694	-48.959	9.677	-53.508	-8191	255	
1203.226	1	1	0	0	0.38308	0.085789	0.083627	0.40565	0.14883	0.14092	0.17526	0.26155	0.059231	0.22015	0.22373	0.18047	0.060273	0.20452	0.053275	0.13009	-2.1125	-2.4479	-1.9896	-2.5563	-2.2229	-2.3625	-2.5083	-2.0312	-2.5021	-2.3937	-2.2	-2.7167	-2.4167	-2.25	-2.6188	-2.3187	-72.990	220.811	138.919	261.240	40.877	-60.433	86.218	254.018	165.043	184.918	204.452	10.279	253.552	248.007	256.186	217.972	0.00036097	0.00059875	0.00024399	607.91	6.1119e-06	5.8981e-06	721.18	269.94	8.026e-06	1.0796e-05	352.48	160.95	124.03	70.129	5.0875e-06	94.815	0.00050265	0.00047972	0.00013117	574.12	5.2607e-06	5.1641e-06	679.88	255.52	5.1317e-06	5.127e-06	330.67	152.2	117.44	66.479	5.0447e-06	89.179	128.567	-24.243	-23.782	-63.834	78.082	56.606	-65.459	-58.154	88.829	58.287	-61.518	-57.562	-54.750	-49.095	71.278	-53.582	-8191	255	
1203.345	1	1	0	0	0.059065	0.24979	0.26426	0.28444	0.34092	0.15387	0.21395	0.1419	0.24929	0.046242	0.42471	0.36039	0.10981	0.29209	0.29291	0.042163	-2.0812	-2.2687	-2.0208	-2.5771	-2.3521	-2.25	-2.6292	-2.2542	-2.6271	-2.5167	-2.2479	-2.5396	-2.5208	-2.4958	-2.6146	-2.4354	244.054	223.843	136.969	269.048	63.393	44.174	265.785	75.308	-38.527	-46.873	181.349	224.223	215.630	257.708	93.557	32.959	0.00035308	0.001118	0.00019867	618.76	4.14e-06	7.6574e-06	727.89	273.27	6.4951e-06	3.113e-06	355.21	161.9	123.3	70.118	6.65e-06	93.95	0.00049201	0.0004639	0.00012776	584.11	5.0186e-06	4.9979e-06	687.82	258.52	5.0804e-06	5.0117e-06	332.73	152.74	117.32	66.472	5.0703e-06	88.66	136.287	20.135	43.437	-63.915	76.606	77.907	-65.402	-58.594	112.819	90.743	-61.553	-57.426	-54.627	-49.014	35.336	-53.621	-8191	255	
1203.441	1	1	0	0	0.067528	0.22262	0.1802	0.14009	0.17298	0.17323	0.17663	0.0044505	0.11859	0.21907	0.1164	0.3119	0.08029	0.48695	0.064606	0.24271	-1.9792	-2.4313	-2.0312	-2.6708	-2.4271	-2.3979	-2.6333	-2.1604	-2.4896	-2.6583	-2.2438	-2.725	-2.6479	-2.5	-2.6104	-2.4083	-48.170	-2.283	198.439	280.100	-17.654	66.542	67.861	216.067	281.610	188.100	-74.068	271.356	-57.829	237.373	-2.674	210.553	0.00038402	0.00083851	0.00010495	615.66	6.3075e-06	6.9306e-06	729.63	273.07	6.9135e-06	6.2938e-06	354.68	162	123.64	70.462	1.6757e-06	94.388	0.00048981	0.00047131	0.00013269	582	5.1655e-06	5.04e-06	685.85	257.25	5.2079e-06	5.2284e-06	333	152.63	117.2	66.544	5.3278e-06	88.77	133.256	-14.009	-27.875	-63.745	25.735	131.734	-65.461	-58.540	37.068	43.097	-61.318	-57.656	-54.686	-49.253	-49.378	-53.206	-8191	255	
1203.537	1	1	0	0	0.33912	0.12741	0.17231	0.35171	0.087809	0.2415	0.097657	0.12034	0.1293	0.036669	0.11241	0.27514	0.29573	0.28713	0.20549	0.38344	-1.6604	-2.5396	-2.3854	-2.6562	-2.3917	-2.1458	-2.7521	-2.4167	-2.25	-2.4896	-1.9271	-2.5938	-2.6354	-2.5	-2.5187	-2.4417	80.287	-51.502	104.421	139.353	238.642	36.268	235.042	172.037	142.910	226.078	210.331	-68.876	280.962	235.182	-49.139	223.033	0.00032626	0.00072314	0.00012079	615.44	4.0768e-06	1.2101e-05	728.2	273.59	8.3739e-07	9.5586e-06	356.56	163.41	124.83	70.175	1.8145e-06	94.501	0.00051277	0.00047597	0.00013384	579.18	5.1458e-06	5.1267e-06	684.96	257.98	5.1138e-06	5.0983e-06	334.56	153.93	118.44	66.771	5.2008e-06	89.236	142.199	13.243	48.066	-64.004	10.859	61.957	-65.605	-58.170	8.107	64.146	-61.443	-57.508	-54.585	-48.941	59.740	-53.264	-8191	255	
1203.633	1	1	0	0	0.12512	0.27792	0.24979	0.28284	0.095068	0.24861	0.15713	0.40141	0.16843	0.18366	0.20183	0.098112	0.20474	0.25757	0.22099	0.23133	-1.9833	-2.55	-2.2396	-2.6417	-2.4208	-2.3208	-2.9229	-2.3792	-2.3563	-2.6271	-2.2125	-2.5417	-2.8604	-2.1833	-2.4542	-2.5375	-42.927	164.561	219.086	198.069	202.005	275.684	220.160	-61.860	248.314	1.102	76.516	210.100	-40.652	221.229	42.772	-49.134	0.00032155	0.00045778	0.00014462	624.03	6.0879e-06	9.5977e-06	735.67	275.79	4.1865e-06	1.3425e-05	358.84	163.63	125.05	70.875	7.9585e-06	94.868	0.00047985	0.00045894	0.00013382	584.69	5.0401e-06	5.0545e-06	691.09	260.2	5.1525e-06	5.1232e-06	336.63	154.08	118.71	67.043	5.1865e-06	89.262	147.010	3.246	31.139	-64.064	60.466	57.898	-65.406	-58.156	67.322	83.113	-61.709	-57.782	-54.860	-49.212	79.129	-53.521	-8191	255	
1203.729	1	1	0	0	0.21951	0.26182	0.22714	0.30172	0.16904	0.046277	0.12595	0.32533	0.13511	0.17838	0.23161	0.27582	0.15341	0.18678	0.22982	0.23411	-2.0417	-2.5125	-2.0958	-2.5521	-2.7625	-2.2146	-2.5667	-2.6583	-2.2021	-2.6042	-2.3937	-2.5521	-2.5521	-1.9667	-2.5229	-2.5271	-71.098	50.562	129.995	-60.358	-1.218	15.273	-70.653	254.849	230.713	192.538	201.750	266.732	240.652	219.980	9.494	271.333	0.00040384	0.00069604	0.00024941	624.09	3.1735e-06	8.1811e-06	731.17	276.42	2.4893e-06	1.0508e-05	359.87	163.57	124.81	70.868	1.8288e-06	94.735	0.00049136	0.0004749	0.00013016	586.87	5.1227e-06	5.117e-06	690.59	259.94	5.1375e-06	5.1877e-06	336.66	153.63	118.45	66.99	5.2614e-06	89.119	143.877	-40.555	-0.588	-63.750	123.159	27.335	-65.433	-58.270	76.472	71.711	-61.462	-57.575	-54.709	-48.881	155.853	-53.596	-8191	255	
1203.825	1	1	0	0	0.21383	0.065833	0.16755	0.31332	0.35954	0.15185	0.12567	0.059289	0.14617	0.24204	0.32149	0.076467	0.12191	0.28474	0.076044	0.19978	-1.5104	-2.4646	-2.4979	-2.4729	-2.4625	-2.1104	-2.8208	-2.4896	-1.9479	-2.5896	-2.4417	-2.4375	-2.4271	-2.1562	-2.3187	-2.5625	269.864	-46.545	181.673	-56.518	157.131	254.340	38.138	1.278	75.805	-65.517	105.070	171.192	-70.013	240.220	39.979	262.430	0.0003745	0.0006136	0.00022078	628.53	2.1475e-06	4.611e-06	741.17	277.63	1.0717e-06	3.7429e-06	360.19	165.31	126.04	71.4	7.8078e-06	95.476	0.00048905	0.00046067	0.00013133	592.22	5.1147e-06	5.1061e-06	696.03	262.49	5.1212e-06	5.0738e-06	339.16	155.41	119.5	67.656	5.0569e-06	90.187	134.623	13.645	29.248	-63.990	28.977	-7.063	-65.743	-58.927	66.534	103.182	-61.448	-57.673	-54.863	-49.036	104.159	-53.397	-8191	255	
1203.946	1	1	0	0	0.061973	0.16043	0.14095	0.3598	0.14584	0.16358	0.088729	0.18949	0.14941	0.2486	0.20722	0.014135	0.20408	0.41905	0.13294	0.14715	-1.55	-2.5917	-2.1625	-2.2062	-2.3333	-2.3854	-2.5354	-2.65	-2.1688	-2.5667	-2.3688	-2.1104	-2.6417	-2.3583	-2.3208	-2.4729	65.407	-51.120	260.150	262.332	246.538	13.032	205.957	-22.242	101.813	-47.045	251.007	26.262	-41.859	-49.661	-27.447	-67.527	0.00033447	0.00011147	3.4219e-05	632.27	2.5574e-06	5.9523e-06	741.34	280.77	1.4215e-06	5.1388e-06	363.09	166.65	127.07	72.005	5.331e-06	96.178	0.00047998	0.000465	0.00012885	594.14	4.97e-06	5.0201e-06	699.77	264.12	5.0437e-06	5.0767e-06	341.02	157.01	120.71	68.243	5.0638e-06	90.784	140.104	139.588	-64.222	-63.777	63.779	112.498	-65.244	-58.322	172.996	65.416	-61.173	-57.860	-54.685	-49.282	110.108	-53.467	-8191	255	
1204.040	1	1	0	0	0.12702	0.14869	0.088195	0.31094	0.16081	0.10487	0.026538	0.17104	0.27865	0.16183	0.18692	0.30681	0.37469	0.24438	0.20576	0.10374	-1.7271	-2.5229	-2.2396	-2.1229	-2.6396	-2.1208	-2.4562	-2.4313	-1.9312	-2.5854	-2.5604	-2.4667	-2.675	-2.4021	-2.3125	-2.6583	91.364	-24.880	80.549	237.749	95.832	33.789	190.846	93.077	121.938	-16.493	-13.789	247.959	227.919	272.591	-63.168	265.798	0.00035335	0.00038114	0.00027607	631.3	4.5345e-06	6.7089e-06	744.33	282.22	4.9651e-06	7.1322e-06	366.17	168.08	128	72.777	1.0851e-06	96.847	0.00048585	0.00046242	0.00013048	592.9	5.0786e-06	5.1036e-06	700.45	265.48	5.0147e-06	5.0102e-06	343.01	158.07	121.43	68.759	4.9591e-06	91.29	144.048	12.173	8.200	-63.806	51.710	65.354	-65.014	-58.420	25.746	38.947	-61.644	-57.398	-54.863	-49.062	-8.484	-53.562	-8191	255	
1204.137	1	1	0	0	0.090494	0.14993	0.15261	0.13051	0.11627	0.085601	0.19656	0.20185	0.15963	0.13556	0.24646	0.18533	0.4145	0.22092	0.31845	0.37768	-1.7271	-2.4667	-2.3771	-2.2146	-2.7104	-2.3646	-2.0646	-2.7062	-2.1813	-2.2125	-2.4208	-2.2875	-2.5687	-2.6083	-2.2417	-2.6188	107.413	-57.666	236.879	40.880	169.467	243.447	240.502	193.312	50.128	33.659	228.242	262.748	227.645	-57.621	154.025	264.297	0.00038231	0.00069968	0.00010599	631.5	4.3978e-06	1.2195e-05	745.91	281.58	5.39e-06	4.3823e-06	369.76	168.92	128.68	73.004	3.7633e-06	97.962	0.00047982	0.00045784	0.00012828	596.45	4.9434e-06	5.0594e-06	701.82	265.63	4.9578e-06	4.92e-06	344.68	158.78	122.05	69.105	5.0722e-06	92.274	139.689	1.768	8.755	-63.656	47.306	67.130	-65.656	-58.577	25.511	53.728	-61.599	-57.647	-54.701	-48.904	67.026	-53.850	-8191	255	
1204.208	1	1	0	0	0.098213	0.059389	0.085851	0.11492	0.32364	0.14566	0.40043	0.072054	0.073759	0.1579	0.11557	0.15961	0.57233	0.14351	0.22522	0.075718	-1.6375	-2.325	-2.3688	-2.0187	-2.625	-2.3438	-2.2938	-2.6125	-2.2479	-2.4625	-2.5354	-2.1792	-2.6437	-2.5521	-2.0729	-2.75	-2.220	145.749	74.291	-74.326	223.250	168.957	180.891	259.575	182.774	71.184	239.725	262.978	250.046	17.797	-75.810	176.887	0.00035922	0.00030834	0.00032739	641.92	6.9595e-06	1.2953e-05	756.07	288.74	1.8993e-06	1.6434e-05	371.62	171.82	130.13	73.412	3.3782e-06	98.993	0.00048433	0.00044797	0.00012946	602.63	4.8854e-06	5.0414e-06	713.1	271.18	5.0677e-06	5.1448e-06	349.01	160.79	123.35	69.681	5.2283e-06	93.101	149.897	-6.696	18.573	-64.071	91.590	64.344	-65.398	-58.355	-46.290	72.969	-61.286	-57.259	-54.523	-49.333	114.822	-53.633	-8191	255	
1204.329	1	1	0	0	0.17757	0.10814	0.099927	0.16595	0.026142	0.33713	0.18145	0.067941	0.074871	0.2903	0.27636	0.25857	0.23651	0.29744	0.26091	0.22494	-1.7521	-2.2375	-2.4125	-2.2396	-2.5083	-2.4292	-2.1813	-2.7208	-2.3521	-2.2479	-2.7875	-2.3812	-2.4146	-2.5104	-2.1667	-2.8521	-6.260	151.790	97.938	254.024	164.537	264.494	179.504	-5.351	197.546	272.251	278.965	222.593	219.411	211.090	145.297	-69.969	0.00033714	0.00078514	0.00029651	643.51	4.6734e-06	5.165e-06	762.45	288.16	1.0291e-05	5.248e-06	375.63	172.35	131.52	74.272	6.0406e-06	99.378	0.000485	0.00046818	0.00012928	605.38	5.1035e-06	4.9804e-06	716.42	272.41	5.09e-06	4.9773e-06	352.3	162.24	124.76	70.353	5.1517e-06	93.786	146.657	15.172	5.381	-63.961	30.200	112.864	-65.547	-58.774	86.448	39.501	-61.130	-57.792	-54.976	-49.371	63.532	-53.597	-8191	255	
1204.425	1	1	0	0	0.2361	0.3117	0.10832	0.14851	0.016931	0.23328	0.1953	0.20495	0.09765	0.16955	0.25178	0.11522	0.31525	0.23253	0.26618	0.16901	-1.7313	-2.2375	-2.4333	-2.2396	-2.4604	-2.3979	-2.3042	-2.775	-2.1875	-2.3667	-2.7479	-2.3354	-2.6521	-2.8312	-1.9792	-2.4729	118.251	-53.631	85.614	203.427	124.371	-6.437	185.410	202.683	31.697	279.908	271.615	223.375	-74.568	251.766	229.623	121.220	0.00036093	8.92e-05	0.00022799	647.03	3.686e-06	7.2485e-06	762.47	290.58	4.5815e-06	1.2157e-05	377.47	173.82	132.09	74.401	3.199e-06	99.546	0.00049417	0.00047281	0.00012922	606.06	5.097e-06	5.0691e-06	717.22	274.12	5.0496e-06	4.8926e-06	354.23	162.92	125.41	70.515	5.1446e-06	93.916	149.742	21.467	-18.384	-63.789	184.779	78.837	-65.517	-58.630	128.275	58.022	-61.641	-58.258	-54.791	-49.263	22.502	-53.739	-8191	255	
1204.521	1	1	0	0	0.051635	0.17132	0.12716	0.16569	0.23062	0.18093	0.21165	0.22914	0.12448	0.13754	0.25514	0.23046	0.17628	0.21253	0.10471	0.16693	-1.9521	-2.0938	-2.6146	-2.2708	-2.5312	-2.5417	-2.1271	-2.5771	-2.3792	-2.1562	-2.6958	-2.4146	-2.1479	-2.5229	-2.3021	-2.6104	-62.706	129.308	-26.053	-31.574	-3.697	4.093	195.234	-69.526	70.131	171.816	-49.927	-75.229	212.251	278.101	119.943	205.653	0.0003688	0.00033201	9.2374e-05	647.69	3.1937e-06	1.0707e-05	771.04	292.49	5.3404e-06	3.7196e-06	380.26	173.64	132.94	74.434	4.6325e-06	100.14	0.00049775	0.00046466	0.00013031	609.53	5.1047e-06	5.0289e-06	723.78	276.41	5.1212e-06	5.1139e-06	355.95	163.43	125.84	70.621	5.0881e-06	94.291	147.019	44.316	40.215	-63.918	76.010	68.861	-66.038	-59.269	69.851	64.237	-61.338	-57.612	-54.735	-49.230	59.200	-53.526	-8191	255	
1204.617	1	1	0	0	0.27005	0.084971	0.14514	0.17331	0.41998	0.071041	0.13477	0.10134	0.0064207	0.27535	0.19155	0.21914	0.16064	0.30571	0.12557	0.1869	-1.7646	-2.1229	-2.6	-2.5083	-2.4167	-2.5146	-2.2938	-2.6021	-2.375	-2.0812	-2.6083	-2.5604	-2.2667	-2.8792	-2.2854	-2.65	156.103	-62.364	275.519	202.819	187.218	150.957	179.617	61.386	213.374	123.457	189.664	246.945	265.151	274.453	219.816	239.502	0.00032286	0.00091513	0.00028033	657.24	7.508e-06	6.3847e-06	780.07	297.47	9.0891e-06	7.8285e-06	384.99	175.87	133.61	75.342	2.866e-06	100.87	0.00049544	0.0004623	0.00013251	617.04	5.0721e-06	5.1314e-06	731.85	280.11	5.1114e-06	4.9717e-06	360.9	165.35	126.86	71.286	5.2256e-06	94.806	134.429	-1.841	37.000	-63.901	93.957	56.861	-65.366	-58.701	20.754	67.897	-61.481	-57.691	-54.814	-49.504	32.711	-53.738	-8191	255	
1204.713	1	1	0	0	0.021486	0.24246	0.10174	0.39861	0.22492	0.14129	0.17008	0.31499	0.1366	0.11382	0.15822	0.19599	0.19441	0.20506	0.19267	0.29926	-2.1646	-2.1458	-2.4979	-2.4562	-2.0312	-2.4167	-2.4146	-2.7979	-2.5521	-2.1188	-2.4646	-2.3854	-2.3833	-2.7896	-2.0396	-2.6312	54.980	156.153	116.102	176.107	86.088	-25.079	99.520	-61.290	79.000	-26.328	-50.948	-58.805	272.165	-58.700	19.505	223.280	0.00034468	0.00075575	0.00024645	654.69	4.1341e-06	9.9991e-06	774.49	296.14	7.3194e-06	1.0518e-05	384.62	176.13	134.39	75.161	5.2245e-06	101.09	0.00049295	0.00045826	0.00012913	613.92	4.9881e-06	5.0761e-06	728.54	279.17	5.0228e-06	5.0167e-06	360.35	165.72	127.48	71.495	4.9998e-06	94.979	126.601	15.291	29.945	-63.755	78.152	94.664	-65.782	-58.636	106.507	78.839	-61.393	-57.879	-55.258	-49.555	67.872	-53.796	-8191	255	
1204.810	1	1	0	0	0.061145	0.1496	0.098494	0.093394	0.19532	0.13632	0.087415	0.20503	0.1468	0.041163	0.18566	0.33822	0.046203	0.35141	0.28574	0.098895	-2.2271	-2.2229	-2.4479	-2.3667	-2.1729	-2.6667	-2.2667	-2.5333	-2.5792	-1.9083	-2.5812	-2.5917	-2.35	-2.8667	-2.2542	-2.2083	82.760	6.395	166.943	57.307	164.138	69.479	151.345	111.663	221.488	227.131	165.675	238.877	244.864	-71.506	36.290	250.904	0.00040981	0.00081956	0.00014809	652.68	3.1408e-06	6.1278e-06	770.06	294.65	3.8465e-06	2.0093e-06	383.95	175.08	134.72	75.365	2.0502e-06	100.71	0.00048587	0.00045773	0.00012951	613.65	5.057e-06	5.0647e-06	724.28	278.26	4.943e-06	4.988e-06	359.59	164.97	127.22	71.443	5.0129e-06	94.678	139.781	2.021	-0.032	-64.008	53.335	82.410	-65.248	-58.710	3.777	67.718	-61.370	-57.724	-54.978	-49.182	45.917	-53.735	-8191	255	
1204.906	1	1	0	0	0.16917	0.16445	0.15192	0.050028	0.21148	0.070977	0.079813	0.24578	0.16442	0.20917	0.16607	0.17351	0.10406	0.14381	0.33321	0.24688	-1.9833	-2.15	-2.4188	-2.5021	-2.3167	-2.6125	-2.2917	-2.3271	-2.6937	-2.3354	-2.4396	-2.4875	-2.2292	-2.8917	-2.5729	-2.3646	188.416	65.906	180.664	114.983	-24.732	230.518	257.984	185.598	264.010	162.389	260.922	-68.919	252.037	212.868	12.717	196.575	0.00037781	0.0010289	0.00024858	657.47	7.3041e-06	8.266e-06	768.74	297.39	2.2872e-06	5.409e-06	381.78	175.69	134.73	75.769	3.0968e-06	101.25	0.00049043	0.00045297	0.00012649	615.32	4.9279e-06	4.8951e-06	724.8	279.97	5.0666e-06	5.1973e-06	358.58	165.36	127.28	71.677	5.097e-06	95.066	151.726	26.844	48.758	-64.143	55.032	33.240	-65.498	-58.586	56.539	56.862	-61.601	-57.687	-54.975	-49.309	17.405	-53.578	-8191	255	
1205.026	1	1	0	0	0.16902	0.19142	0.14306	0.2051	0.20055	0.28022	0.23511	0.18193	0.1501	0.15213	0.30665	0.18921	0.19145	0.26227	0.27785	0.28359	-2.0312	-2.125	-2.6104	-2.8187	-2.3625	-2.6042	-2.5417	-2.2042	-2.625	-2.1063	-2.4292	-2.8792	-2.2396	-2.6312	-2.3833	-2.3375	190.650	20.543	93.283	-61.023	-14.532	133.931	14.861	211.804	142.298	25.621	197.114	243.837	239.779	-62.386	14.975	218.694	0.00044876	0.00027186	0.00031863	652.81	4.6441e-06	1.7292e-06	769.11	295.51	2.6081e-06	9.2842e-06	382.97	175.95	133.67	75.272	4.7124e-06	99.908	0.0004883	0.00045057	0.00012838	613.01	4.9988e-06	5.0755e-06	725.31	278.69	5.0036e-06	5.0974e-06	358.65	164.69	126.68	71.292	5.1715e-06	93.964	141.560	-9.682	-24.663	-63.960	59.075	66.182	-65.534	-58.582	-11.666	30.499	-61.610	-57.926	-55.141	-49.383	30.963	-53.468	-8191	255	
1205.121	1	1	0	0	0.14752	0.17872	0.19433	0.25456	0.37965	0.15758	0.14089	0.22237	0.1307	0.22112	0.14709	0.15516	0.11646	0.35189	0.18767	0.23957	-2.0667	-2.4646	-2.4062	-2.6	-2.0833	-2.4688	-2.6813	-2.375	-2.4375	-2.2438	-2.4208	-2.8438	-2.2375	-2.6396	-2.3333	-2.3271	121.649	235.186	104.113	249.390	153.308	-63.461	272.802	122.474	211.015	-38.643	193.444	-62.785	53.087	-74.144	-0.715	226.881	0.00033605	0.00077747	0.00014725	644.67	6.9409e-06	6.5545e-06	759.16	290.06	2.8707e-06	1.1367e-05	375.62	172.08	131.77	74.802	1.5377e-06	99.524	0.00048888	0.00046551	0.0001296	605.49	5.1012e-06	5.0512e-06	711.9	272.84	5.1722e-06	5.082e-06	351.48	161.75	124.91	70.706	5.0698e-06	93.347	148.560	8.617	-9.719	-63.694	67.094	35.950	-65.740	-58.637	2.266	74.483	-61.612	-57.978	-54.833	-49.057	8.320	-53.631	-8191	255	
1205.217	1	1	0	0	0.14399	0.10011	0.24663	0.1859	0.36246	0.2567	0.054408	0.051133	0.19832	0.2841	0.028565	0.23482	0.18563	0.2119	0.19113	0.26376	-2.1375	-2.1625	-2.2958	-2.8417	-2.0792	-2.4583	-2.6521	-2.175	-2.525	-2.4604	-2.3167	-2.8292	-2.3438	-2.5958	-2.5938	-2.2833	168.545	6.030	238.987	-21.429	75.438	206.977	-43.510	-2.835	64.684	252.981	219.155	77.778	165.998	225.044	38.726	263.825	0.00034345	0.00065147	0.00023572	634	4.1702e-06	4.78e-06	736.59	284.43	1.9639e-06	8.7933e-06	365.04	168.09	129.07	73.494	2.4168e-06	97.631	0.00048483	0.00047059	0.00013249	598.2	5.15e-06	5.1431e-06	696.07	267.42	5.0976e-06	5.115e-06	341.82	158.71	122.54	69.652	5.0991e-06	91.935	136.396	67.713	22.066	-63.763	40.381	125.209	-65.399	-58.595	80.488	52.568	-61.373	-57.554	-54.772	-48.983	-6.078	-53.461	-8191	255	
1205.313	1	1	0	0	0.098133	0.15861	0.1072	0.18757	0.052904	0.10681	0.16042	0.12922	0.35387	0.082064	0.10864	0.27276	0.4498	0.31231	0.2958	0.18966	-2.3458	-2.35	-2.2542	-2.7438	-2.1937	-2.4958	-2.5521	-2.3646	-2.5	-2.4229	-2.2625	-2.7562	-2.4417	-2.4771	-2.5979	-2.2833	-14.591	135.372	-47.333	200.016	78.890	228.389	-75.629	14.219	11.993	78.616	-48.143	238.856	265.727	-38.731	113.389	163.659	0.00033995	0.00060603	0.00018426	626.9	5.0938e-06	1.1017e-05	741.11	282.98	3.8414e-06	1.1173e-05	365.06	170.11	130.76	74.032	3.8805e-06	98.862	0.00049318	0.00047128	0.00012974	589.45	5.1479e-06	5.1569e-06	695.45	266.95	5.1322e-06	5.1936e-06	344.26	159.75	123.53	70.245	5.1599e-06	92.914	141.865	6.990	-11.091	-63.679	51.358	68.147	-65.683	-58.616	88.893	80.322	-61.669	-57.366	-54.775	-48.961	17.702	-53.735	-8191	255	
1205.434	1	1	0	0	0.11653	0.098443	0.10022	0.31835	0.17628	0.18634	0.074312	0.43289	0.28561	0.19568	0.13735	0.11374	0.32603	0.31924	0.14346	0.076469	-2.1521	-2.4125	-2.0417	-2.7021	-2.3292	-2.3	-2.9604	-2.4	-2.5	-2.6312	-2.0938	-2.7417	-2.5542	-2.475	-2.5375	-2.3521	119.368	100.787	86.403	-61.761	254.116	42.363	97.543	220.629	155.673	132.098	273.097	268.809	13.377	-72.338	270.183	250.007	0.00031843	0.00032892	0.00024762	630.19	6.3665e-06	6.8383e-06	750	286.34	3.1651e-06	5.8607e-06	371.13	170.96	131.25	74.462	9.3163e-06	98.438	0.00050171	0.00048365	0.00013462	594.31	5.1617e-06	5.1265e-06	701.75	270.12	5.1733e-06	5.1963e-06	347.57	161.13	124.24	70.657	5.1797e-06	92.68	148.992	-1.801	27.439	-63.909	87.421	70.320	-65.436	-58.362	-1.016	30.443	-61.590	-57.857	-54.774	-49.084	89.636	-53.590	-8191	255	
1205.505	1	1	0	0	0.23929	0.20827	0.22882	0.14444	0.092304	0.054286	0.27651	0.36184	0.21407	0.11731	0.12165	0.30787	0.072632	0.23252	0.086823	0.4129	-2.0583	-2.4833	-2.0479	-2.5542	-2.4688	-2.5375	-2.7062	-2.1875	-2.5417	-2.6896	-2.1958	-2.6729	-2.5312	-2.3854	-2.7604	-2.6	34.547	161.176	48.728	-31.990	181.344	151.511	189.405	183.554	-46.147	-72.701	-30.599	-75.995	211.990	275.396	6.166	225.934	0.00029391	0.00071915	0.00023191	628.62	4.0061e-06	9.4486e-06	747.54	283.63	4.0788e-06	1.0669e-05	368.57	171.14	131.44	74.255	3.0277e-07	98.52	0.00050098	0.00046787	0.0001303	591.39	5.1244e-06	5.1971e-06	699.22	268.62	5.1243e-06	5.1681e-06	346.22	160.93	124.35	70.463	5.1935e-06	92.623	142.810	16.237	1.994	-63.928	30.817	77.735	-65.568	-58.120	77.604	123.451	-61.671	-57.859	-54.764	-48.988	-0.840	-53.688	-8191	255	
1205.626	1	1	0	0	0.12454	0.26934	0.0054453	0.1472	0.036229	0.090917	0.1322	0.22681	0.076087	0.051983	0.20242	0.098235	0.11278	0.33267	0.13809	0.34327	-1.6562	-2.4417	-2.1375	-2.6625	-2.4833	-2.2104	-2.8583	-2.5583	-2.4021	-2.6979	-2.0625	-2.6312	-2.6521	-2.4083	-2.6833	-2.4708	188.122	128.312	168.735	234.908	21.329	240.823	95.904	159.401	34.041	126.843	-6.781	233.845	84.592	239.053	-57.527	236.446	0.00041756	0.00067622	4.9562e-05	629.36	5.0151e-06	3.3566e-06	739.55	285.18	1.8385e-06	4.1327e-06	364.72	168.71	129.61	74.1	2.2309e-06	97.851	0.00049493	0.00046767	0.00013122	592.85	5.1176e-06	5.1726e-06	696.84	268.43	5.181e-06	5.0942e-06	343.76	159.37	123.58	70.185	5.2873e-06	92.164	146.453	10.361	89.714	-63.779	20.136	77.203	-65.755	-58.527	162.334	101.854	-61.632	-57.774	-54.767	-48.807	16.083	-53.564	-8191	255	
1205.722	1	1	0	0	0.10816	0.26983	0.13432	0.1516	0.062014	0.085702	0.097799	0.16928	0.055951	0.156	0.13371	0.25416	0.22198	0.16404	0.10803	0.15055	-2.1521	-2.5354	-2.1	-2.6813	-2.2854	-2.2562	-2.5542	-2.4167	-2.5417	-2.8187	-2.3438	-2.6542	-2.6771	-2.35	-2.6104	-2.7062	250.518	222.933	56.437	190.208	-20.079	-71.314	33.947	235.308	264.768	33.950	261.501	184.089	233.510	-29.471	42.880	245.964	0.0003297	0.00056526	0.00010442	626.07	5.4336e-06	3.242e-06	737.26	282.55	3.5352e-06	7.532e-06	365.63	169.97	129.95	74.005	2.0016e-06	97.978	0.00049612	0.00047746	0.00013527	589.52	5.2264e-06	5.2103e-06	693.02	266.99	5.2061e-06	5.1632e-06	342.97	159.33	123.51	70.029	5.214e-06	92.168	135.134	18.739	11.131	-63.876	87.915	161.801	-65.739	-58.219	77.005	42.897	-61.403	-57.913	-54.978	-48.939	60.172	-53.656	-8191	255	
1205.818	1	1	0	0	0.15198	0.18572	0.11373	0.061203	0.099257	0.14574	0.21313	0.16538	0.13185	0.076464	0.06476	0.047013	0.16433	0.18187	0.19614	0.33691	-1.8979	-2.7292	-2.0938	-2.5229	-2.6104	-2.2562	-2.5917	-2.4125	-2.2333	-2.7917	-2.5979	-2.6104	-2.6792	-2.1937	-2.4375	-2.7771	159.385	168.251	-24.578	261.109	226.956	89.543	133.487	237.370	-33.587	-7.188	-65.112	-4.835	242.907	241.230	-68.901	230.935	0.00039067	0.0010278	0.00012042	620.79	4.3573e-06	7.8081e-06	725.51	277.92	7.1671e-06	1.1102e-05	354.52	165.22	127.38	72.406	3.3564e-06	96.089	0.00049781	0.00048413	0.00013527	584.34	5.1831e-06	5.2801e-06	684.49	262.1	5.2716e-06	5.2464e-06	334.56	155.83	120.61	68.439	5.2538e-06	90.497	139.356	-11.170	-6.739	-64.091	79.603	3.447	-65.149	-58.363	71.968	62.543	-61.478	-57.648	-54.926	-49.043	114.679	-53.422	-8191	255	
1205.914	1	1	0	0	0.2389	0.17646	0.096408	0.21194	0.29003	0.026481	0.41413	0.023418	0.28587	0.22097	0.09291	0.21665	0.17672	0.41622	0.13454	0.14532	-1.9021	-2.4437	-2.1396	-2.4688	-2.5208	-2.3083	-2.7542	-2.6063	-2	-2.6542	-2.4625	-2.425	-2.5896	-2.1708	-2.3729	-2.7792	146.735	270.746	-55.757	-17.357	87.462	178.582	137.093	77.527	-63.564	123.737	137.278	-24.237	-61.758	222.324	19.960	243.389	0.00031893	0.00079716	3.6937e-05	607.83	1.9685e-06	7.0602e-06	717.24	274.98	1.8935e-06	4.8948e-06	356.06	164.3	126.14	72.103	7.5471e-06	95.813	0.00048958	0.00048607	0.00013539	573.8	5.119e-06	5.2128e-06	673.63	259.13	5.243e-06	5.2582e-06	332.8	154.91	120.01	68.409	5.1794e-06	90.175	143.473	29.074	64.230	-63.849	96.651	119.445	-65.206	-58.287	51.761	89.031	-61.353	-57.140	-54.964	-49.090	70.844	-53.469	-8191	255	
1206.033	1	1	0	0	0.16077	0.18067	0.2182	0.26673	0.14455	0.12856	0.24891	0.14326	0.2536	0.27063	0.027397	0.063741	0.31953	0.19698	0.14371	0.1098	-1.7271	-2.7938	-2.3187	-2.0896	-2.7896	-2.4	-2.5854	-2.5125	-2.2938	-2.7854	-2.2604	-2.4188	-2.8438	-2.4604	-2.5958	-2.5354	111.036	98.444	-65.245	-45.734	84.345	250.144	195.379	130.774	187.575	275.823	243.091	211.874	171.574	-36.584	172.959	213.817	0.00038185	0.00087747	0.00017143	607.5	2.1977e-06	6.5513e-06	715.83	276.38	4.7247e-06	4.859e-06	359.07	166.81	127.63	72.53	4.8378e-06	96.792	0.00049907	0.00047257	0.00013036	573.55	5.0595e-06	5.271e-06	676.98	260.22	5.132e-06	5.118e-06	334.97	156.63	121.05	68.889	5.3256e-06	91.095	156.909	-27.288	-36.326	-63.925	112.870	99.082	-65.564	-58.271	73.612	142.298	-61.658	-57.479	-54.876	-49.174	77.612	-53.581	-8191	255	
1206.105	1	1	0	0	0.069133	0.068351	0.083836	0.30519	0.1645	0.12213	0.16685	0.13581	0.07718	0.038212	0.11323	0.32639	0.20883	0.10343	0.13171	0.24041	-1.7667	-2.6104	-2.2792	-2.1542	-2.5667	-2.3563	-2.55	-2.5333	-2.1833	-2.3146	-2.5708	-2.3583	-2.7062	-2.3625	-2.1312	-2.7458	259.661	266.822	276.585	260.313	85.435	74.434	101.286	-25.393	65.318	29.359	-30.095	194.932	-76.028	-49.803	273.498	169.360	0.00042896	0.00058329	0.00012583	611.92	2.5358e-06	9.2105e-06	718.59	280.13	2.5806e-06	8.618e-06	361.74	169.49	130.84	73.881	5.5081e-06	98.364	0.00050071	0.00046837	0.0001321	577.17	5.1077e-06	5.1294e-06	678.71	263.73	5.1463e-06	5.2544e-06	340.3	159.46	123.83	70.054	5.1561e-06	92.642	132.112	2.127	6.350	-63.733	117.692	11.095	-65.214	-58.500	76.493	60.383	-61.424	-57.608	-54.579	-49.189	51.334	-53.641	-8191	255	
1206.201	1	1	0	0	0.099225	0.14531	0.16279	0.07763	0.14907	0.15735	0.20884	0.22653	0.14506	0.19025	0.094347	0.10694	0.10327	0.21228	0.052534	0.11133	-1.8312	-2.5104	-2.5354	-2.2354	-2.4104	-2.2479	-2.3292	-2.7687	-2.2542	-2.2854	-2.4896	-2.3458	-2.7875	-2.6521	-2.1979	-2.725	246.687	38.617	-67.201	279.794	-29.109	210.563	134.511	277.086	161.770	185.209	240.844	-27.552	-12.744	270.207	222.510	-62.200	0.00034606	0.0007035	0.00018786	613.44	2.2139e-06	1.3062e-05	719.8	276.72	6.3695e-06	7.9942e-06	359.79	168.79	129.59	73.33	7.9206e-06	97.599	0.0005028	0.00048053	0.0001304	576.65	5.1723e-06	5.1185e-06	678.43	262.28	5.1584e-06	5.0343e-06	338.73	158.72	122.98	69.582	5.1977e-06	91.773	142.738	50.826	30.470	-64.092	71.121	77.176	-65.525	-58.256	27.442	96.201	-61.396	-57.809	-54.701	-49.002	77.678	-53.597	-8191	255	
1206.297	1	1	0	0	0.26136	0.13634	0.086885	0.31966	0.13391	0.37565	0.11572	0.072803	0.24668	0.15003	0.081167	0.089414	0.076477	0.16087	0.035413	0.12069	-1.6396	-2.3479	-2.4	-1.9979	-2.475	-2.3125	-2.5479	-2.8125	-2.1771	-2.2083	-2.5729	-2.3125	-2.7479	-2.6792	-2.1813	-2.5771	76.294	-26.190	257.326	267.708	25.096	132.365	252.654	211.409	135.799	149.639	-57.250	235.558	-52.206	263.150	90.812	248.282	0.00041657	0.00080889	4.2912e-05	614.78	6.1591e-06	3.5205e-06	722.65	281.1	3.6939e-06	8.2158e-06	358.04	167.73	129.35	73.227	7.6361e-06	96.943	0.0004936	0.00047393	0.00013317	578.08	5.0369e-06	5.0937e-06	679.7	263.89	5.2086e-06	5.1079e-06	338.06	158.19	122.54	69.425	5.1063e-06	91.263	153.051	48.739	-37.029	-63.919	70.349	65.115	-65.274	-58.411	150.607	94.435	-61.561	-57.768	-54.740	-48.961	42.101	-53.569	-8191	255	
1206.393	1	1	0	0	0.18696	0.12939	0.27434	0.071985	0.051545	0.087295	0.06453	0.080939	0.096462	0.038106	0.13669	0.079689	0.17704	0.27674	0.19829	0.31081	-1.7875	-2.2646	-2.5708	-2.1875	-2.7896	-2.375	-2.1208	-2.5687	-2.1021	-2.325	-2.6771	-2.3125	-2.5625	-2.5646	-2.1458	-2.8792	51.673	54.481	71.210	260.344	-55.861	265.019	206.070	53.445	76.479	206.186	157.882	205.463	240.908	264.438	236.246	251.368	0.00039897	0.00077128	0.0002198	618.46	4.9277e-06	8.0052e-06	722.31	278.65	5.8787e-06	9.271e-06	357.26	166.53	128.49	72.77	6.133e-06	96.542	0.00050267	0.00045946	0.00013106	578.73	5.1469e-06	5.1772e-06	679.26	263.39	5.1706e-06	5.092e-06	335.84	157.13	121.83	68.899	5.1451e-06	90.833	139.868	10.598	0.441	-63.513	37.792	59.572	-65.110	-58.276	10.091	93.713	-61.450	-57.394	-54.464	-49.243	60.251	-53.555	-8191	255	
1206.514	1	1	0	0	0.16776	0.059217	0.054606	0.18045	0.16015	0.35919	0.42346	0.10053	0.12443	0.45231	0.078403	0.11573	0.13684	0.17819	0.23431	0.47314	-2.0104	-2.3333	-2.4938	-2.3208	-2.2875	-2.6479	-2.4354	-2.7646	-2.1896	-2.1875	-2.7542	-2.4958	-2.5625	-2.6792	-1.9937	-2.4875	-36.469	264.274	-39.133	221.906	222.076	15.459	-75.289	157.554	171.585	271.164	-68.153	95.901	-15.166	281.482	113.574	197.655	0.00043464	0.00061478	0.00018702	606.73	7.5442e-06	5.3816e-06	709.07	274.44	3.5424e-06	1.1179e-05	355	165.42	126.73	72.722	5.1975e-06	95.825	0.00049084	0.00046557	0.00013119	570.07	5.114e-06	5.1383e-06	668.79	259.31	5.2844e-06	5.2197e-06	331.95	155.89	120.62	68.698	5.3211e-06	90.533	144.006	1.526	28.607	-63.863	46.154	42.461	-65.154	-58.074	48.336	47.957	-61.686	-57.325	-54.846	-49.027	65.489	-53.480	-8191	255	
1206.610	1	1	0	0	0.14481	0.12269	0.18031	0.1417	0.11425	0.073884	0.03804	0.2875	0.058672	0.45995	0.03809	0.1462	0.35529	0.24776	0.29457	0.29846	-1.775	-2.1437	-2.5896	-2.1521	-2.2917	-2.4875	-2.2646	-2.5375	-2.3042	-2.0687	-2.4917	-2.3208	-2.525	-2.5375	-1.975	-2.775	115.018	249.677	20.428	260.203	31.484	11.088	159.102	165.184	192.259	102.469	179.145	79.755	-64.120	267.460	122.660	255.562	0.00033573	0.00033569	0.00016085	599.51	5.5981e-06	8.3944e-06	698.96	268.43	4.2304e-06	4.1482e-06	344.35	160.24	123.86	70.67	4.4522e-06	93.165	0.0004981	0.00047762	0.00013557	564.4	5.1685e-06	5.2142e-06	657.8	253.44	5.2444e-06	5.305e-06	322.5	151.29	117.56	67.01	5.3557e-06	88.076	139.920	34.444	43.313	-63.665	171.276	11.438	-65.613	-58.156	119.786	90.984	-61.228	-57.568	-54.578	-49.027	60.961	-53.356	-8191	255	
1206.706	1	1	0	0	0.24075	0.091104	0.2762	0.19456	0.21236	0.11999	0.27309	0.1721	0.27872	0.20407	0.18228	0.23235	0.39511	0.21036	0.25229	0.12256	-1.8521	-2.1437	-2.6625	-2.2687	-2.2208	-2.7417	-2.2667	-2.6312	-2.2542	-2.0917	-2.7417	-2.4042	-2.5208	-2.85	-2.1146	-2.7854	231.578	9.347	219.333	283.193	185.299	53.960	-40.324	206.023	75.320	181.707	106.182	182.480	245.975	-68.931	155.037	269.576	0.00044789	0.00071097	0.00012087	590.81	5.2486e-06	4.0512e-06	692.92	266.62	9.7782e-06	7.2298e-06	342.38	160.74	124.23	70.487	4.9669e-06	93.283	0.00050925	0.0004926	0.00013726	556.41	5.1428e-06	5.4207e-06	650.37	252.24	5.3939e-06	5.2773e-06	321.62	151.1	117.97	66.994	5.4766e-06	87.564	142.147	25.007	18.309	-63.936	84.107	90.428	-65.530	-58.185	112.564	122.804	-61.121	-57.779	-54.550	-48.783	51.694	-53.425	-8191	255	
1206.803	1	1	0	0	0.055427	0.087611	0.10783	0.27137	0.060122	0.22282	0.30559	0.29303	0.19193	0.30037	0.24701	0.3772	0.10342	0.26488	0.044623	0.5264	-2.3167	-2.1521	-2.5375	-2.2208	-2.4688	-2.6979	-2.4583	-2.5333	-2.4104	-2.175	-2.8479	-2.5563	-2.6271	-3.0021	-2.3875	-2.6917	-31.349	42.670	18.685	196.887	71.075	273.193	213.307	254.298	84.774	207.930	243.589	258.168	-37.514	-48.898	8.284	249.908	0.00041203	0.00029349	0.00016999	584.1	2.8506e-06	5.2658e-06	691.84	267.23	6.689e-06	9.9159e-06	345.9	161.26	124.6	71.513	3.3516e-06	94.176	0.00049974	0.0004903	0.00013514	552.09	5.2329e-06	5.3047e-06	651.85	252.02	5.2624e-06	5.3264e-06	325.1	152.1	118.44	67.769	5.3734e-06	88.861	150.882	40.277	-35.842	-63.421	55.252	35.213	-65.457	-58.337	73.632	76.288	-61.267	-57.516	-54.478	-48.866	47.252	-53.079	-8191	255	
1206.899	1	1	0	0	0.14374	0.17841	0.22809	0.12741	0.30801	0.28188	0.26782	0.21467	0.18622	0.22924	0.32272	0.17243	0.24336	0.30165	0.10951	0.046224	-2.1312	-1.9688	-2.5542	-2.5187	-2.1604	-2.5458	-2.3667	-2.575	-2.4792	-2.175	-2.6792	-2.4146	-2.2542	-2.7917	-2.3521	-2.4667	-18.702	89.477	135.167	279.613	49.316	3.124	158.892	254.143	139.222	33.910	193.641	110.563	217.791	267.531	99.718	123.747	0.00036148	0.00052355	0.000218	602.12	6.9952e-06	8.5793e-06	705.57	272.44	3.384e-06	1.2849e-05	347.14	162.64	125.72	71.803	2.3176e-06	94.763	0.00051574	0.0004956	0.00013737	566.34	5.3419e-06	5.3312e-06	664.53	257.13	5.4301e-06	5.3877e-06	327.76	153.39	119.74	68.142	5.3696e-06	89.196	147.266	-1.172	58.077	-64.167	72.010	56.764	-65.211	-58.336	40.116	74.650	-61.245	-57.348	-54.648	-48.862	-18.453	-53.529	-8191	255	
1206.995	1	1	0	0	0.14135	0.16199	0.24241	0.33492	0.21912	0.1018	0.12359	0.21034	0.20685	0.067495	0.22007	0.30121	0.27525	0.32004	0.073956	0.24012	-1.9146	-2.3833	-2.3542	-2.5146	-2.0187	-2.6083	-2.4375	-2.5708	-2.4375	-2.1708	-2.4437	-2.7833	-2.2583	-2.5312	-2.3125	-2.4688	225.235	267.191	-18.270	150.740	26.536	144.636	-28.278	248.320	87.479	79.365	170.840	261.113	263.836	241.615	232.449	277.276	0.0003355	0.00044087	0.00011549	606.3	2.7104e-06	3.7921e-06	716.79	274.75	5.2825e-06	2.3798e-06	349.56	163.38	126.36	71.961	2.1194e-06	94.326	0.00049291	0.00048182	0.00013548	572.53	5.2029e-06	5.1536e-06	670.56	259.26	5.2566e-06	5.3512e-06	329.33	153.62	119.87	68.32	5.2257e-06	88.898	139.022	21.551	-50.911	-63.967	35.496	67.208	-65.368	-58.015	49.188	10.931	-61.220	-57.813	-54.437	-48.839	74.357	-53.394	-8191	255	
1207.114	1	1	0	0	0.30387	0.2118	0.16755	0.44485	0.35228	0.15546	0.15554	0.22095	0.057881	0.040667	0.1066	0.1726	0.24166	0.046949	0.057209	0.47256	-2.2979	-1.9438	-2.3583	-2.5375	-2.2229	-2.4708	-2.4479	-2.4	-2.6271	-2.2667	-2.3708	-2.8708	-2.3042	-2.7396	-2.3063	-2.1688	80.107	143.627	141.521	200.822	242.296	20.309	-55.860	191.774	199.362	230.232	171.378	280.245	240.219	263.951	216.346	262.783	0.00034714	0.00070818	0.00029252	607.07	4.7791e-06	1.2856e-06	712.21	274.47	5.7821e-06	1.1627e-05	351.83	164.28	127.86	72.349	4.5172e-06	95.072	0.00051514	0.00048917	0.00013581	570.89	5.1193e-06	5.3524e-06	667.24	258.38	5.2436e-06	5.3344e-06	330.37	154.09	120.65	68.629	5.2838e-06	89.304	151.510	34.933	23.610	-64.130	92.759	66.281	-65.381	-58.090	55.408	36.717	-61.591	-57.716	-54.510	-49.050	36.627	-53.538	-8191	255	
1207.210	1	1	0	0	0.14257	0.18565	0.050283	0.27428	0.15077	0.147	0.11999	0.083454	0.35865	0.34673	0.13563	0.15925	0.11958	0.26774	0.091131	0.32385	-2.3625	-2.3479	-2.5208	-2.8146	-2.1354	-2.3688	-2.6042	-2.2021	-2.5917	-2.1813	-2.4562	-2.6354	-2.3312	-2.5958	-2.2542	-2.3708	246.779	37.786	82.480	165.046	93.291	258.908	188.050	22.276	-46.549	45.151	177.038	40.335	156.171	-71.418	236.421	194.146	0.00040345	0.00091313	0.0001564	605.93	4.3952e-06	7.3442e-06	713.21	275.08	9.1013e-06	7.0093e-06	353.33	164.02	128.82	73.223	6.3958e-06	96.518	0.00050252	0.00048457	0.00013101	571.66	5.1689e-06	5.2203e-06	670.21	259.24	5.2543e-06	5.255e-06	332.55	154.94	121.95	69.418	5.2597e-06	90.645	147.469	-20.814	31.804	-63.681	67.877	60.587	-65.615	-58.234	130.805	12.114	-61.332	-57.779	-54.791	-48.979	6.450	-53.822	-8191	255	
1207.306	1	1	0	0	0.17733	0.19828	0.19588	0.087191	0.13007	0.099699	0.25409	0.37935	0.14163	0.15456	0.10365	0.10397	0.069596	0.221	0.25822	0.15734	-2.3417	-2.5	-2.3833	-2.6542	-2.0438	-2.5708	-2.5667	-2.3417	-2.4729	-2.4229	-2.5104	-2.6479	-2.1375	-2.6583	-2.6271	-2.2958	281.118	-57.692	75.012	160.025	213.167	17.525	221.461	267.910	65.058	57.904	-45.676	129.094	283.783	201.897	131.471	192.856	0.0003506	0.00064189	0.00028535	615.75	7.4525e-06	7.5787e-06	718.96	275.13	6.4421e-06	9.3159e-06	353.04	164.69	126.83	73.107	5.2166e-06	95.848	0.00049514	0.00048131	0.00013106	580.34	5.1855e-06	5.2346e-06	674.35	259.76	5.225e-06	5.1438e-06	332.45	155.02	121.2	69.254	5.2141e-06	90.01	133.578	70.279	9.086	-63.449	49.775	103.670	-65.451	-58.104	115.831	77.503	-61.061	-57.573	-54.311	-49.128	35.225	-53.515	-8191	255	
1207.402	1	1	0	0	0.23881	0.18013	0.13715	0.32232	0.2633	0.4338	0.10227	0.23622	0.18586	0.13247	0.25288	0.13854	0.023694	0.36963	0.057051	0.14571	-1.7604	-2.3958	-2.25	-2.5979	-2.1875	-2.1479	-2.7313	-2.3042	-2.6562	-2.45	-2.4729	-2.5792	-2.4104	-2.4562	-2.6312	-2.2938	241.301	68.436	-67.675	278.186	267.880	32.626	-58.491	201.679	267.943	-71.923	171.704	199.858	-30.066	206.824	89.473	241.338	0.00024233	0.00088322	0.00012176	619.07	7.4873e-06	6.1682e-06	726.81	281.23	6.5842e-06	7.5064e-06	355.11	164.9	128.48	72.708	2.2154e-06	95.055	0.00048705	0.00046422	0.00012941	584.97	5.0381e-06	5.0941e-06	682.56	264.27	5.1418e-06	5.0879e-06	334.57	155.27	122.05	69.041	5.1584e-06	89.581	123.365	-3.170	39.586	-63.663	77.154	34.802	-65.571	-57.996	91.747	21.754	-61.221	-57.487	-54.901	-48.878	0.303	-53.681	-8191	255	
#DATA ENDS
