BOXY.EXE: ISS Imagent and Oximeter Data Acquisition Program Version 0.80
Ascii Record File

#ACQ INFORMATION
2  Detector Channels 
16  External MUX Channels 
1  Auxiliary Channels 
5000  Waveform (CCF) Frequency (Hz)
1  Waveforms Skipped 
30  Waveforms Averaged 
1  Cycles Averaged 
16  Acquisitions per Waveform 
10.0806  Updata Rate (Hz) 

#FILE INFORMATION
TRUE -- External MUX Channel results are PARSED.
FALSE -- AC DC and Phase are NOT grouped.
TRUE -- Companion Program Settings File CREATED.
FALSE -- AC data not excluded
FALSE -- DC data not excluded
FALSE -- Phase data not excluded
FALSE -- Auxillary Chn. data not excluded
Tab delimiters

#CALIBRATION STATE
TRUE -- Waveform Calibration Values APPLIED.


#AUX CALIBRATION VALUES
Val Type	aux-1	

Term	1.0000e+00	
Factor	0.0000e+00	


#WF CALIBRATION VALUES
A = Detector Channel
Val Type	A-AC1	A-AC2	A-AC3	A-AC4	A-AC5	A-AC6	A-AC7	A-AC8	A-AC9	A-AC10	A-AC11	A-AC12	A-AC13	A-AC14	A-AC15	A-AC16	A-DC1	A-DC2	A-DC3	A-DC4	A-DC5	A-DC6	A-DC7	A-DC8	A-DC9	A-DC10	A-DC11	A-DC12	A-DC13	A-DC14	A-DC15	A-DC16	A-Ph1	A-Ph2	A-Ph3	A-Ph4	A-Ph5	A-Ph6	A-Ph7	A-Ph8	A-Ph9	A-Ph10	A-Ph11	A-Ph12	A-Ph13	A-Ph14	A-Ph15	A-Ph16	

Term	0.00000e+00	0.00000e+00	0.00000e+00	0.00000e+00	0.00000e+00	0.00000e+00	0.00000e+00	0.00000e+00	0.00000e+00	0.00000e+00	0.00000e+00	0.00000e+00	0.00000e+00	0.00000e+00	0.00000e+00	0.00000e+00	0.00000e+00	0.00000e+00	0.00000e+00	0.00000e+00	0.00000e+00	0.00000e+00	0.00000e+00	0.00000e+00	0.00000e+00	0.00000e+00	0.00000e+00	0.00000e+00	0.00000e+00	0.00000e+00	0.00000e+00	0.00000e+00	0.00000e+00	0.00000e+00	0.00000e+00	0.00000e+00	0.00000e+00	0.00000e+00	0.00000e+00	0.00000e+00	0.00000e+00	0.00000e+00	0.00000e+00	0.00000e+00	0.00000e+00	0.00000e+00	0.00000e+00	0.00000e+00	
Factor	1.00000e+00	1.00000e+00	1.00000e+00	1.00000e+00	1.00000e+00	1.00000e+00	1.00000e+00	1.00000e+00	1.00000e+00	1.00000e+00	1.00000e+00	1.00000e+00	1.00000e+00	1.00000e+00	1.00000e+00	1.00000e+00	1.00000e+00	1.00000e+00	1.00000e+00	1.00000e+00	1.00000e+00	1.00000e+00	1.00000e+00	1.00000e+00	1.00000e+00	1.00000e+00	1.00000e+00	1.00000e+00	1.00000e+00	1.00000e+00	1.00000e+00	1.00000e+00	X	X	X	X	X	X	X	X	X	X	X	X	X	X	X	X	

B = Detector Channel
Val Type	B-AC1	B-AC2	B-AC3	B-AC4	B-AC5	B-AC6	B-AC7	B-AC8	B-AC9	B-AC10	B-AC11	B-AC12	B-AC13	B-AC14	B-AC15	B-AC16	B-DC1	B-DC2	B-DC3	B-DC4	B-DC5	B-DC6	B-DC7	B-DC8	B-DC9	B-DC10	B-DC11	B-DC12	B-DC13	B-DC14	B-DC15	B-DC16	B-Ph1	B-Ph2	B-Ph3	B-Ph4	B-Ph5	B-Ph6	B-Ph7	B-Ph8	B-Ph9	B-Ph10	B-Ph11	B-Ph12	B-Ph13	B-Ph14	B-Ph15	B-Ph16	

Term	0.00000e+00	0.00000e+00	0.00000e+00	0.00000e+00	0.00000e+00	0.00000e+00	0.00000e+00	0.00000e+00	0.00000e+00	0.00000e+00	0.00000e+00	0.00000e+00	0.00000e+00	0.00000e+00	0.00000e+00	0.00000e+00	0.00000e+00	0.00000e+00	0.00000e+00	0.00000e+00	0.00000e+00	0.00000e+00	0.00000e+00	0.00000e+00	0.00000e+00	0.00000e+00	0.00000e+00	0.00000e+00	0.00000e+00	0.00000e+00	0.00000e+00	0.00000e+00	-1.61556e+02	-1.24365e+02	-1.24460e+02	-1.82575e+02	-7.77226e+01	-7.02735e+01	-1.54563e+02	-1.62015e+02	-7.99118e+01	-7.08945e+01	-1.79593e+02	-1.70828e+02	-1.78793e+02	-1.75846e+02	-8.48453e+01	-1.49068e+02	
Factor	2.31970e-05	1.41556e-04	4.23880e-05	1.51486e-01	1.25884e-06	1.81699e-06	1.63316e-01	6.36777e-02	1.50327e-06	1.86341e-06	9.72382e-02	2.82179e-02	2.41845e-02	8.33549e-03	1.21540e-06	1.19969e-02	3.25825e-06	3.66651e-06	1.02321e-06	7.89026e-02	3.94916e-08	4.01200e-08	7.99932e-02	3.30394e-02	3.96832e-08	4.01801e-08	4.87438e-02	1.42351e-02	1.27408e-02	4.36714e-03	3.97856e-08	6.09645e-03	X	X	X	X	X	X	X	X	X	X	X	X	X	X	X	X	



#DISTANCE SETTINGS
A = Detector Channel
A-1	A-2	A-3	A-4	A-5	A-6	A-7	A-8	A-9	A-10	A-11	A-12	A-13	A-14	A-15	A-16	

2.5000e+00	3.0000e+00	2.5000e+00	3.0000e+00	2.0000e+00	3.0000e+00	1.5000e+00	3.0000e+00	3.0000e+00	3.0000e+00	3.0000e+00	3.0000e+00	3.0000e+00	3.0000e+00	1.5000e+00	3.0000e+00	

B = Detector Channel
B-1	B-2	B-3	B-4	B-5	B-6	B-7	B-8	B-9	B-10	B-11	B-12	B-13	B-14	B-15	B-16	

1.0000e+01	1.0000e+01	1.0000e+01	1.4400e+00	1.0000e+01	1.0000e+01	1.5100e+00	1.9400e+00	1.0000e+01	1.0000e+01	1.9900e+00	2.4900e+00	2.4100e+00	2.9000e+00	1.0000e+01	2.9800e+00	




#DATA BEGINS
time	group	step	mark	flag	A-AC1	A-AC2	A-AC3	A-AC4	A-AC5	A-AC6	A-AC7	A-AC8	A-AC9	A-AC10	A-AC11	A-AC12	A-AC13	A-AC14	A-AC15	A-AC16	A-DC1	A-DC2	A-DC3	A-DC4	A-DC5	A-DC6	A-DC7	A-DC8	A-DC9	A-DC10	A-DC11	A-DC12	A-DC13	A-DC14	A-DC15	A-DC16	A-Ph1	A-Ph2	A-Ph3	A-Ph4	A-Ph5	A-Ph6	A-Ph7	A-Ph8	A-Ph9	A-Ph10	A-Ph11	A-Ph12	A-Ph13	A-Ph14	A-Ph15	A-Ph16	B-AC1	B-AC2	B-AC3	B-AC4	B-AC5	B-AC6	B-AC7	B-AC8	B-AC9	B-AC10	B-AC11	B-AC12	B-AC13	B-AC14	B-AC15	B-AC16	B-DC1	B-DC2	B-DC3	B-DC4	B-DC5	B-DC6	B-DC7	B-DC8	B-DC9	B-DC10	B-DC11	B-DC12	B-DC13	B-DC14	B-DC15	B-DC16	B-Ph1	B-Ph2	B-Ph3	B-Ph4	B-Ph5	B-Ph6	B-Ph7	B-Ph8	B-Ph9	B-Ph10	B-Ph11	B-Ph12	B-Ph13	B-Ph14	B-Ph15	B-Ph16	aux-1	digaux	

1165.857	1	1	0	768	0.095194	0.22182	0.17734	0.063619	0.23146	0.25056	0.059368	0.10832	0.04644	0.32987	0.3329	0.11911	0.17101	0.15824	0.12453	0.35583	-1.7313	-2.5854	-2.6729	-2.2167	-2.5875	-2.5042	-2.6042	-2.7896	-2.2896	-2.5729	-2.8479	-2.5021	-2.6312	-2.5875	-2.3271	-2.85	-27.776	-36.365	-70.728	183.692	-135.335	-26.268	-140.742	177.214	-29.739	9.995	-118.951	-147.068	123.716	136.693	128.539	157.029	0.0012446	0.00079343	0.00021954	806.46	9.1622e-06	1.5265e-05	986.5	344.57	1.1964e-05	6.7723e-06	478.96	215.46	153.58	81.597	5.3955e-06	114.64	0.00070811	0.00064375	0.0001842	736.89	7.0258e-06	6.9913e-06	903.5	315.78	6.9795e-06	7.0626e-06	439.04	197.53	141.11	75.505	7.1188e-06	105.42	164.290	-96.261	-90.799	-160.265	-30.018	5.086	-161.803	-155.417	-44.203	1.537	-157.468	-153.686	-151.421	-145.546	-38.880	-149.501	-8191	255	
1165.953	1	1	0	0	0.27783	0.11033	0.047213	0.12882	0.21829	0.062341	0.26904	0.29389	0.1303	0.15817	0.11879	0.43201	0.22686	0.26165	0.31526	0.39642	-2.1125	-2.2396	-2.4021	-2.1604	-2.5792	-2.5354	-2.5375	-2.5479	-2.2521	-2.3646	-2.8833	-2.65	-2.5354	-2.7125	-2.2146	-2.6813	-80.085	-159.588	127.430	-87.142	-111.211	17.599	173.530	86.997	145.565	-7.370	60.070	138.079	-159.559	154.322	60.043	126.773	0.0014581	0.00082549	0.00022128	803.3	4.8208e-06	1.3129e-05	986.76	340.7	5.8344e-06	7.1619e-06	475.74	214.18	151.84	81.206	3.7037e-06	114.43	0.00071996	0.00063288	0.00018034	733.36	6.8269e-06	6.8856e-06	899.36	312.29	7.094e-06	7.0934e-06	434.03	196.06	139.48	74.838	7.2983e-06	105.11	165.347	-76.599	-99.741	-159.944	-35.478	-32.797	-161.823	-155.063	-73.723	-8.064	-157.651	-153.945	-151.278	-145.373	-67.726	-149.230	-8191	255	
1166.049	1	1	0	0	0.20272	0.23748	0.11544	0.14284	0.22519	0.17129	0.2857	0.21355	0.1653	0.2079	0.23045	0.27605	0.25569	0.24273	0.16872	0.31449	-1.7604	-2.3208	-2.7479	-2.5187	-2.4062	-2.4646	-2.2792	-2.7875	-2.5646	-2.1458	-2.6979	-2.2812	-2.6	-2.6083	-2.1063	-2.825	-44.128	71.809	-105.124	136.026	54.166	7.822	115.314	-108.628	35.456	75.900	101.256	149.146	-103.776	128.846	118.535	94.118	0.0013659	0.00071299	0.00028595	803.04	7.096e-06	6.9437e-06	987.5	344	6.7292e-06	5.174e-06	482	215.33	153.22	81.365	7.5406e-06	114.99	0.0007132	0.00063732	0.00018086	736	7.0009e-06	7.1927e-06	904.89	314.2	7.1684e-06	7.0643e-06	439.43	196.95	140.22	74.926	7.1281e-06	105.43	163.431	-116.582	-81.744	-160.074	-48.874	-43.704	-161.531	-155.127	-106.637	-3.757	-158.097	-153.865	-151.667	-145.589	-86.999	-149.209	-8191	255	
1166.145	1	1	0	0	0.34789	0.012773	0.18156	0.15857	0.13475	0.15797	0.13833	0.18576	0.16306	0.16898	0.17775	0.2363	0.14821	0.39482	0.19656	0.30978	-1.9729	-2.2625	-2.7083	-2.4188	-2.4708	-2.4604	-2.3542	-2.9062	-2.5771	-2.4396	-2.9104	-2.4833	-2.75	-2.7562	-2.1	-2.7875	178.492	-15.193	29.468	172.037	-81.868	43.053	53.727	116.852	-146.709	142.024	11.869	111.257	-43.315	176.261	76.137	138.703	0.0013655	0.0011986	0.00027018	814.9	8.8205e-06	1.3145e-05	1000.8	351.97	5.0369e-06	1.2384e-05	493.65	220.84	158.48	84.455	7.5034e-06	117.23	0.00071412	0.00064246	0.00018118	746.7	6.9237e-06	6.9899e-06	918.17	322.26	6.9791e-06	7.0638e-06	450.94	202.88	145.94	77.773	7.2285e-06	108.02	165.765	-78.609	-67.235	-160.397	-49.683	-30.593	-161.905	-155.316	-45.302	-65.674	-157.868	-153.695	-151.385	-145.700	-32.040	-149.026	-8191	255	
1166.241	1	1	0	0	0.094507	0.18881	0.21747	0.12376	0.1723	0.043159	0.33727	0.20219	0.23363	0.12412	0.13254	0.25555	0.23112	0.38661	0.31192	0.33396	-2.0833	-2.4354	-2.3208	-2.6604	-2.4	-2.5854	-2.3563	-2.5729	-2.6604	-1.9604	-2.7438	-2.625	-2.2062	-2.8354	-2.3667	-2.8375	88.996	160.611	164.410	104.340	153.749	-127.113	59.055	-124.663	-57.817	-86.969	180.731	87.549	181.630	172.400	174.941	167.798	0.0013797	0.0010007	0.00019145	826.87	5.5144e-06	7.8864e-06	1031	367.24	6.9734e-06	8.9272e-06	513.54	229.99	164.98	87.683	8.291e-06	120.43	0.00072876	0.00066485	0.00018159	760.83	7.0743e-06	7.1087e-06	943.33	336.08	7.1589e-06	7.1868e-06	468.09	210.59	151.95	80.501	7.1345e-06	110.95	166.632	-69.411	-81.650	-160.190	-53.868	-29.153	-161.612	-155.238	-61.559	-73.245	-157.587	-153.981	-151.581	-145.730	-46.989	-149.365	-8191	255	
1166.337	1	1	0	0	0.15269	0.089995	0.03161	0.11531	0.19381	0.032438	0.16485	0.14649	0.027415	0.10237	0.022695	0.36334	0.29915	0.35483	0.063388	0.16452	-2.0521	-2.4813	-2.7938	-2.3937	-2.25	-2.7708	-2.4792	-2.6896	-2.425	-2.1896	-2.65	-2.4854	-2.3083	-3.0792	-2.2979	-2.5312	75.017	114.607	-99.239	151.180	-87.999	183.990	112.795	166.370	27.384	-13.587	127.091	160.557	180.753	131.374	83.788	133.690	0.0014055	0.00039538	0.00012114	843.03	3.7803e-06	5.1449e-06	1036.6	369.41	1.2221e-05	8.3493e-06	513.32	230.48	165.49	87.326	4.7031e-06	121.38	0.00072869	0.0006727	0.00018654	771.86	7.2655e-06	7.2462e-06	948.16	338.54	7.3354e-06	7.143e-06	467.83	210.55	151.77	80.588	7.2648e-06	111.45	168.853	-57.963	-45.535	-160.096	-128.905	-102.877	-161.814	-155.291	-51.521	-5.512	-157.728	-154.133	-151.436	-145.731	-63.936	-149.229	-8191	255	
1166.456	1	1	0	0	0.14615	0.17899	0.11845	0.13542	0.061904	0.031717	0.41327	0.22043	0.14161	0.18232	0.26412	0.26685	0.23273	0.15019	0.11487	0.33411	-2.2625	-2.2458	-2.4083	-2.4083	-2.1646	-2.7313	-2.3896	-2.4062	-2.5729	-2.3354	-2.6458	-2.7333	-2.2812	-2.6958	-2.5833	-2.4583	22.874	14.546	153.334	144.966	52.018	-122.066	136.260	85.041	67.459	80.960	-120.026	162.324	107.257	-139.643	-171.316	151.564	0.0014454	0.00061536	0.00027368	834.08	5.1162e-06	1.4945e-05	1026.4	361.9	1.1321e-05	1.2395e-05	505.1	227.9	163.53	86.631	8.4278e-06	120.4	0.00072361	0.00065657	0.00018494	764.86	7.0538e-06	7.1456e-06	939.83	332.79	7.1926e-06	7.1455e-06	460.94	208.05	150.04	79.853	7.0614e-06	110.56	166.806	-60.199	-104.867	-160.407	-76.011	-51.660	-161.942	-155.365	-81.109	-32.204	-157.666	-154.028	-151.763	-145.591	-84.409	-149.213	-8191	255	
1166.552	1	1	0	0	0.23272	0.22834	0.13117	0.22539	0.23063	0.11361	0.019906	0.026636	0.074897	0.1813	0.14515	0.093454	0.35063	0.1691	0.1707	0.32655	-1.9875	-2.2625	-2.475	-2.5042	-2.0708	-2.4396	-2.3812	-2.5187	-2.675	-2.1063	-2.4854	-2.8021	-2.4292	-2.8979	-2.2062	-2.5146	85.909	-145.916	80.456	147.655	57.869	29.108	-113.090	94.026	-141.762	163.560	158.075	48.163	182.049	169.120	-108.940	132.876	0.0014159	0.0012363	0.00030156	835.26	8.2472e-06	1.372e-05	1025.1	367.39	8.0988e-06	7.5204e-06	508.46	229.48	164.93	87.741	4.7923e-06	121.24	0.00071593	0.00065494	0.00017893	764.56	7.0318e-06	7.0243e-06	939.71	334.79	7.0434e-06	7.0002e-06	463.41	209.91	151.28	80.794	7.1902e-06	111.43	167.369	-108.687	-86.587	-160.197	-37.037	-27.590	-161.651	-155.419	-60.452	-54.481	-157.946	-153.923	-151.829	-145.560	-83.124	-149.064	-8191	255	
1166.648	1	1	0	0	0.15716	0.11678	0.26023	0.17321	0.12338	0.32434	0.15406	0.50323	0.14589	0.11409	0.22348	0.19537	0.18108	0.18694	0.10173	0.23139	-2.3479	-2.1167	-2.2625	-2.6708	-2.3104	-2.7417	-2.6396	-2.2458	-2.4729	-2.2229	-2.5521	-2.8354	-2.2188	-2.8292	-2.4646	-2.6375	-126.310	-162.325	111.838	-153.529	-16.674	-171.433	52.904	90.719	49.078	-38.085	169.027	122.888	-134.888	161.546	90.907	149.202	0.0015066	0.00071301	0.0003241	834.53	7.959e-06	1.131e-05	1037.4	369.24	8.0085e-06	1.885e-05	517.2	234.74	167.24	89.036	5.8147e-06	123.14	0.00072923	0.00065403	0.0001812	763.64	6.839e-06	7.0369e-06	948.61	337.95	6.8941e-06	7.0671e-06	470.97	213.76	153.66	81.969	7.2703e-06	113.13	168.227	-89.184	-80.908	-160.278	-22.845	-13.270	-161.438	-155.208	-88.240	-19.341	-157.568	-154.116	-151.881	-145.987	-79.272	-149.551	-8191	255	
1166.745	1	1	0	0	0.18634	0.072882	0.13606	0.27171	0.050279	0.19672	0.11808	0.13456	0.33639	0.14002	0.014345	0.16874	0.15401	0.33741	0.2489	0.32901	-2.0938	-2.1917	-2.3625	-2.7771	-2.2812	-2.6854	-2.5833	-2.2979	-2.6583	-2.3333	-2.3646	-2.7604	-2.2292	-2.6604	-2.5812	-2.4146	59.844	-119.461	-19.973	125.538	-70.026	38.818	173.653	-173.028	-66.944	112.166	165.773	125.370	86.364	173.606	-3.942	95.162	0.0014677	0.00078686	1.5368e-05	830.44	1.865e-06	1.0588e-05	1034.6	373	1.6215e-05	3.9562e-06	517.04	235.68	169.82	89.927	4.6945e-06	124.41	0.00071257	0.0006449	0.00018381	764.66	6.9294e-06	7.1933e-06	949.22	340.59	7.043e-06	6.9615e-06	474.42	215.58	155.43	82.791	7.0603e-06	114.33	167.030	-45.789	-150.037	-159.980	-71.947	-12.279	-161.562	-155.449	-35.475	-4.301	-157.421	-153.789	-151.872	-146.070	-61.681	-149.033	-8191	255	
1166.841	1	1	0	0	0.087032	0.098735	0.17737	0.24388	0.077384	0.20033	0.32143	0.20372	0.41078	0.22927	0.084032	0.17113	0.16415	0.071	0.44692	0.17031	-2.0896	-2.2708	-2.0104	-2.9229	-2.1396	-2.35	-2.4646	-2.2208	-2.7042	-2.5021	-2.3271	-2.7896	-2.4875	-2.5604	-2.5604	-2.2542	-14.350	-26.265	-32.694	118.752	160.414	-57.793	117.414	138.683	-36.229	81.698	123.916	86.104	-129.757	143.556	-13.819	105.671	0.0014957	0.00080918	0.00042005	843.91	6.1185e-06	1.5671e-05	1038.4	372.62	7.4998e-06	1.148e-05	518.12	235.18	167.9	88.999	6.8541e-06	122.95	0.00072286	0.00064177	0.00017991	772.73	6.9604e-06	7.1394e-06	950.63	340.33	7.0934e-06	7.1883e-06	471.03	214.23	153.81	81.977	7.1742e-06	112.82	167.654	-75.921	-34.852	-160.329	-50.318	-31.739	-161.840	-155.349	-73.889	-22.626	-157.812	-154.120	-151.807	-145.761	-83.083	-149.269	-8191	255	
1166.937	1	1	0	0	0.20566	0.034896	0.1936	0.21927	0.16215	0.11748	0.23462	0.42001	0.21038	0.26389	0.24221	0.27147	0.097142	0.54744	0.17958	0.17586	-2.0021	-2.2896	-2.1667	-2.6958	-2.2542	-2.3646	-2.6542	-2.1229	-2.6	-2.4437	-2.3542	-2.8146	-2.4313	-2.4979	-2.5375	-2.3583	-33.861	-57.045	153.474	-166.612	104.708	-68.626	183.776	117.034	78.715	33.965	49.982	102.763	173.413	142.574	14.305	173.300	0.0013628	0.0007827	0.00027117	841.84	1.0319e-05	3.4063e-06	1036.8	370.78	9.8538e-06	7.3111e-06	513.43	231.35	166.43	88.416	5.6232e-06	121.95	0.00074054	0.0006652	0.00018755	769.38	7.1704e-06	7.2098e-06	946.91	339.81	7.4461e-06	7.4205e-06	468.96	211.6	152.94	81.242	7.602e-06	111.81	167.053	-82.440	-25.658	-160.108	-49.591	-113.291	-161.759	-155.458	-78.145	-27.820	-157.529	-153.904	-151.425	-145.760	-36.656	-149.434	-8191	255	
1167.033	1	1	0	0	0.29378	0.086916	0.16961	0.25149	0.29717	0.06669	0.34328	0.2518	0.25053	0.1696	0.19696	0.18181	0.11913	0.12307	0.18957	0.15224	-2.0854	-2.4917	-2.0958	-2.3979	-2.3458	-2.3208	-2.8438	-2.35	-2.6792	-2.4292	-2.2083	-2.7396	-2.3708	-2.5729	-2.6104	-2.6562	-79.695	25.525	47.052	133.062	-133.176	122.047	67.549	154.501	-44.038	-78.520	-165.252	-148.835	128.426	105.506	147.226	98.033	0.0014525	0.0010482	0.00013405	834.11	7.5189e-06	5.6495e-06	1033.5	369.74	8.6914e-06	1.4551e-05	512.95	229.72	164.44	87.167	9.4747e-06	121.05	0.00074691	0.00068907	0.00019387	766.29	7.418e-06	7.4406e-06	943.62	338.23	7.5215e-06	7.4665e-06	466.95	210.81	151.59	80.602	7.5874e-06	111.22	164.705	-57.818	-105.602	-160.209	-50.461	-42.385	-161.723	-155.303	-22.539	-40.231	-157.819	-153.795	-151.909	-145.646	-53.859	-149.351	-8191	255	
1167.152	1	1	0	0	0.15358	0.14932	0.16007	0.28351	0.12717	0.29869	0.21023	0.32976	0.18514	0.13405	0.073011	0.1357	0.2947	0.18914	0.11413	0.30039	-2.1208	-2.5229	-2.2583	-2.5292	-2.0333	-2.125	-2.6771	-2.2938	-2.3438	-2.7042	-2.2062	-2.6958	-2.5354	-2.2604	-2.6417	-2.5542	-112.595	105.623	-167.054	98.024	163.017	45.497	127.247	66.438	25.495	-92.821	-45.927	-142.201	-168.293	158.496	150.025	168.124	0.0014844	0.00071297	0.00022173	840.02	6.2623e-06	9.7723e-06	1029.8	366.06	9.4004e-06	3.467e-06	511.28	229.58	163.74	87.24	6.7958e-06	121.17	0.00076405	0.0007039	0.00019299	766.68	7.5998e-06	7.5969e-06	943.7	336.62	7.6374e-06	7.5119e-06	465.57	210.02	150.87	80.421	7.5979e-06	111.04	168.104	-61.406	-111.261	-160.040	-52.122	3.264	-161.664	-155.345	-19.991	100.932	-157.570	-153.840	-151.716	-145.649	-61.818	-149.317	-8191	255	
1167.248	1	1	0	0	0.0821	0.089152	0.18511	0.27339	0.14108	0.065715	0.11569	0.17321	0.16292	0.16865	0.18659	0.18895	0.50146	0.21245	0.11166	0.29985	-1.9208	-2.4083	-2.0833	-2.7958	-2.3771	-2.0062	-2.6604	-2.4188	-2.1063	-2.6083	-2.2542	-2.65	-2.6521	-2.3229	-2.7042	-2.6229	43.907	153.884	10.691	94.783	-129.349	186.698	26.672	69.928	147.410	128.372	-51.257	157.252	-166.255	178.394	127.915	91.971	0.0014044	0.00077663	0.00014958	829.43	8.9407e-06	6.1933e-06	1023.6	362.19	2.0555e-06	4.1043e-06	502.49	227.51	161.71	86.269	3.2823e-06	120.07	0.00075928	0.00069806	0.00019327	758.33	7.5774e-06	7.6524e-06	934.88	332.08	7.6105e-06	7.6967e-06	458.81	207.75	148.94	79.598	7.6125e-06	110.27	164.823	-88.972	-55.984	-160.200	5.301	-91.557	-161.878	-155.115	-62.039	-38.180	-157.722	-153.644	-151.421	-145.611	-70.875	-149.203	-8191	255	
1167.344	1	1	0	0	0.29755	0.21667	0.1621	0.04668	0.074338	0.1476	0.24629	0.11642	0.07908	0.16157	0.12234	0.28147	0.097825	0.37914	0.15898	0.37428	-1.9604	-2.5917	-1.9688	-2.6604	-2.575	-2.2375	-2.5292	-2.5583	-2.5083	-2.6	-2.3708	-2.7521	-2.8458	-2.2229	-2.4708	-2.5729	-17.822	-96.773	-119.584	142.923	-147.836	53.109	155.683	106.765	131.425	115.197	-156.220	115.997	24.335	160.138	164.327	125.273	0.0015081	0.00023998	0.00034362	822.32	5.2286e-06	1.5464e-05	1017.1	361.64	1.2399e-05	6.5216e-06	502.23	229.79	163.56	87.31	8.413e-06	121.48	0.00076161	0.00068971	0.00019479	753.89	7.438e-06	7.4718e-06	932.15	331.97	7.361e-06	7.4884e-06	459.97	209.15	150	80.505	7.4057e-06	111.3	167.647	-118.828	-89.533	-160.170	-60.794	-23.537	-161.749	-155.183	-20.412	11.729	-157.249	-154.047	-151.656	-145.604	-74.893	-149.442	-8191	255	
1167.418	1	1	0	0	0.15199	0.11692	0.15393	0.19268	0.42545	0.062039	0.35993	0.13644	0.29804	0.21303	0.22392	0.32201	0.18491	0.34964	0.16747	0.36357	-1.7667	-2.55	-2.0625	-2.5667	-2.6271	-2.0479	-2.5333	-2.5354	-2.2313	-2.5312	-2.3021	-2.4583	-2.7479	-2.2104	-2.7125	-2.6208	-163.153	-166.745	85.245	167.049	-162.507	-111.244	77.811	182.940	-149.871	22.206	138.292	160.348	175.708	163.453	-41.265	98.080	0.0014432	0.0005448	0.00015146	823.13	9.2263e-06	7.7708e-06	1024.9	364.05	1.1339e-05	7.3095e-06	514.09	232.11	165.44	88.349	6.3017e-06	122.89	0.00075849	0.00068928	0.0001895	755.65	7.4915e-06	7.6353e-06	937	334.29	7.3711e-06	7.4557e-06	466.71	211.9	152.01	81.628	7.5285e-06	112.98	162.898	-30.843	-87.340	-160.092	-23.677	-28.145	-161.607	-154.957	6.090	-22.003	-157.600	-154.089	-151.602	-145.575	-60.064	-149.330	-8191	255	
1167.537	1	1	0	0	0.14572	0.13311	0.12179	0.10168	0.10863	0.01833	0.28227	0.034774	0.30779	0.22737	0.2405	0.08771	0.16732	0.46019	0.21557	0.23395	-1.85	-2.425	-2.3667	-2.4771	-2.3063	-2.3042	-2.675	-2.4646	-2.2438	-2.3729	-2.3688	-2.4167	-2.7938	-2.3771	-2.0667	-2.725	66.294	171.014	105.894	-0.225	15.372	28.149	180.041	110.730	-88.105	-122.457	-142.045	148.190	85.247	156.880	57.780	151.435	0.0015548	0.00084311	0.00039901	825.77	8.8389e-06	1.1371e-05	1020.7	365.78	1.2747e-05	1.2098e-05	510.09	231.32	164.4	88.099	4.9213e-06	122.06	0.00076083	0.0006745	0.00018942	757.44	7.434e-06	7.315e-06	934.38	334.26	7.4084e-06	7.2603e-06	464.08	210.75	151.2	81.15	7.5501e-06	111.96	163.069	-105.260	-87.695	-160.086	-43.072	-39.621	-161.595	-155.217	-78.466	-20.291	-157.399	-153.850	-151.585	-145.580	-15.050	-149.479	-8191	255	
1167.633	1	1	0	0	0.20678	0.20847	0.099956	0.36716	0.12423	0.2532	0.13735	0.11296	0.13028	0.088073	0.10564	0.051621	0.034319	0.28385	0.1616	0.35623	-1.6708	-2.5333	-2.2625	-2.3604	-2.6271	-1.9688	-2.4646	-2.6	-2.2771	-2.4562	-2.6979	-2.5812	-2.6417	-2.5042	-2.4479	-2.8625	124.702	83.084	136.545	117.170	-20.778	-144.142	72.572	117.126	100.375	-142.569	-47.079	-161.486	160.726	174.563	-145.824	130.987	0.001432	0.00064105	0.00021823	824.16	9.0528e-06	1.4021e-05	1015.8	361.82	7.9765e-06	7.3907e-06	500.8	227.77	162.9	86.808	5.4537e-06	120.49	0.00074712	0.00067387	0.00018915	755.82	7.3785e-06	7.5185e-06	929.99	331.67	7.3718e-06	7.2881e-06	458.68	208.32	149.8	80.197	7.366e-06	110.66	170.476	-46.753	-122.675	-160.446	-45.308	-26.043	-161.810	-155.451	-19.839	-5.321	-157.321	-153.836	-151.520	-145.562	-78.223	-149.325	-8191	255	
1167.729	1	1	0	0	0.22036	0.10594	0.10888	0.065481	0.11167	0.1174	0.26907	0.087092	0.042078	0.13643	0.074717	0.11548	0.31047	0.13387	0.084718	0.091916	-1.6333	-2.4938	-2.5375	-2.0771	-2.6646	-2.1521	-2.5333	-2.8125	-2.2042	-2.3729	-2.5021	-2.425	-2.6875	-2.2438	-2.2542	-2.8833	89.955	103.226	108.495	-127.620	136.023	-19.331	170.544	108.043	-139.076	-60.651	147.573	65.108	69.124	67.854	96.686	61.537	0.001406	0.00089309	0.0001386	824.45	6.429e-06	5.5646e-06	1010.7	359.64	9.8458e-06	1.0303e-05	500.37	227.17	162.42	86.059	7.7705e-06	120	0.00074723	0.00066842	0.0001863	753.48	7.2253e-06	7.3381e-06	928.31	330.55	7.4244e-06	7.2998e-06	458.58	207.56	148.71	79.497	7.491e-06	110.02	164.617	-91.269	-102.043	-159.848	-33.800	44.626	-161.601	-155.375	-48.441	-33.394	-157.707	-153.628	-151.692	-145.523	-20.487	-149.307	-8191	255	
1167.849	1	1	0	0	0.12316	0.28521	0.13648	0.036876	0.044123	0.073887	0.25299	0.27325	0.3205	0.23218	0.2927	0.32363	0.15427	0.19574	0.18378	0.32307	-1.6479	-2.3333	-2.5167	-2.075	-2.475	-2.4042	-2.5104	-2.7146	-2.0854	-2.3521	-2.7667	-2.5167	-2.5958	-2.3917	-2.225	-2.9604	-56.579	17.703	-154.748	-85.961	-109.398	72.412	117.769	49.880	106.636	148.418	-141.605	-160.730	180.674	133.461	-44.761	88.434	0.0014881	0.00046295	0.00014399	814.9	8.7303e-06	9.724e-06	1000.6	353.48	1.3952e-05	9.1459e-06	491.52	223.36	158.36	84.695	1.1507e-05	118.62	0.00074602	0.00068811	0.0001933	744.2	7.5339e-06	7.5457e-06	918.95	324.73	7.516e-06	7.5416e-06	451.62	204.27	145.12	77.99	7.7552e-06	108.87	165.409	-73.529	-73.276	-160.102	4.012	7.230	-161.811	-155.012	-60.755	-0.551	-157.883	-153.740	-151.591	-145.533	-50.687	-149.400	-8191	255	
1167.946	1	1	0	0	0.29619	0.20219	0.33032	0.10781	0.1204	0.21178	0.13365	0.11004	0.06516	0.10711	0.20828	0.14032	0.18617	0.32353	0.15516	0.38071	-1.9333	-2.1937	-2.4042	-2.1229	-2.6292	-2.5292	-2.5354	-2.7375	-2.1167	-2.3688	-2.6437	-2.3604	-2.7208	-2.6396	-2.3063	-2.8812	-164.126	-87.601	134.557	179.218	-96.531	129.333	-156.384	60.890	14.914	-124.259	117.497	-147.672	159.847	170.148	-74.597	111.857	0.0014864	0.00026765	0.00025828	798.35	6.6759e-06	1.5375e-05	988.33	347.43	6.3149e-06	1.5671e-05	490.5	220.15	156.7	84.001	1.0276e-05	117.47	0.00076206	0.00069924	0.00019657	734.55	7.6022e-06	7.5617e-06	907.53	319.16	7.7537e-06	7.6391e-06	447.46	202.09	143.81	77.251	7.6781e-06	108.05	170.527	0.563	-52.534	-160.316	4.539	-31.564	-161.950	-155.148	-0.021	-37.117	-157.591	-153.614	-151.103	-145.699	-28.271	-149.320	-8191	255	
1168.017	1	1	0	0	0.13641	0.16774	0.0076547	0.13267	0.3223	0.05173	0.32744	0.089899	0.10956	0.059641	0.22906	0.38951	0.10874	0.34444	0.16204	0.13648	-1.6604	-2.2062	-2.6063	-2.3688	-2.3729	-2.4417	-2.2083	-2.8396	-2.3021	-2.225	-2.5021	-2.3208	-2.4229	-2.7479	-2.3104	-2.8729	-80.372	-119.884	10.465	149.611	51.315	53.277	183.661	89.300	118.826	74.286	-110.995	99.256	120.921	145.975	144.075	39.687	0.0013725	0.00087479	0.00024462	803.42	1.0248e-05	9.0424e-06	997.27	353.57	2.2244e-06	7.1875e-06	491.14	221.73	158.15	84.994	7.3192e-06	119.09	0.00076286	0.00070023	0.00019682	735.91	7.4749e-06	7.4998e-06	915.38	323.62	7.6168e-06	7.5171e-06	450.54	203.66	145.38	78.091	7.6197e-06	109.23	168.147	-91.435	-114.691	-159.977	-71.927	-25.814	-161.297	-154.874	-28.780	-42.381	-157.803	-153.826	-151.691	-145.704	-87.038	-149.143	-8191	255	
1168.138	1	1	0	0	0.064981	0.22058	0.060061	0.18191	0.2766	0.2186	0.097189	0.10252	0.11096	0.23613	0.12636	0.1017	0.19982	0.45245	0.04903	0.40543	-1.9604	-2.2875	-2.6021	-2.1583	-2.4604	-2.5438	-2.3375	-2.5396	-2.3271	-2.3937	-2.9708	-2.3354	-2.5917	-2.4521	-2.075	-2.7188	-136.420	-87.684	-167.280	-101.868	69.773	-45.459	163.666	171.474	-106.267	-101.806	43.093	143.293	101.590	172.282	3.264	99.944	0.0012751	0.00081521	4.3161e-05	803.98	7.3926e-06	1.4371e-05	997.46	356.14	8.0886e-06	1.4972e-05	494.48	225.34	158.57	84.596	6.4302e-06	118.71	0.00075169	0.00068335	0.00019117	738.83	7.4949e-06	7.5847e-06	917.29	325.46	7.5476e-06	7.5915e-06	452.29	205.56	145.32	78.041	7.8811e-06	109.16	165.847	-63.509	-167.862	-160.269	-38.465	-4.795	-161.815	-155.394	-45.194	16.673	-157.519	-153.659	-151.756	-145.547	-96.282	-149.441	-8191	255	
1168.234	1	1	0	0	0.24632	0.18046	0.19072	0.37028	0.14549	0.11203	0.40161	0.19598	0.091115	0.10145	0.17891	0.057692	0.14706	0.26934	0.15916	0.21831	-1.9146	-2.2542	-2.5396	-2.1958	-2.4667	-2.7354	-2.3104	-2.6688	-2.1708	-2.1167	-2.8146	-2.6417	-2.5771	-2.6979	-2.1562	-2.8812	-85.728	156.354	-65.979	-151.778	-86.766	159.008	129.378	126.247	-20.261	113.339	42.214	-61.114	150.192	103.285	24.612	-130.072	0.001408	0.00077227	0.00027483	798.05	3.6105e-06	1.7365e-05	999.17	349.82	1.0787e-05	1.4027e-05	495.39	224.72	159.01	84.784	4.881e-06	119.13	0.00078663	0.00071518	0.00019389	733.19	7.6309e-06	7.8516e-06	916.3	323.39	7.6928e-06	7.777e-06	453.23	206.17	146.15	78.222	7.6465e-06	109.52	168.949	-49.268	-114.807	-160.193	-61.131	9.872	-161.609	-155.139	-47.393	-27.643	-157.528	-153.757	-151.297	-145.522	-42.518	-149.217	-8191	255	
1168.328	1	1	0	0	0.15086	0.095785	0.072648	0.31408	0.15353	0.14524	0.18082	0.15218	0.17389	0.18206	0.17748	0.092357	0.11985	0.28321	0.063541	0.17984	-2.0229	-2.1583	-2.4667	-2.3812	-2.25	-2.7583	-2.3208	-2.5062	-2.5875	-2.1042	-2.8625	-2.7188	-2.5687	-3.0125	-2.2083	-2.6479	-129.831	134.919	-149.690	144.872	75.138	36.164	91.151	124.945	112.454	-123.201	142.013	142.268	-154.154	90.259	-72.317	164.985	0.001488	0.0013437	0.00037649	800.46	7.2767e-06	4.974e-06	988.09	347.28	9.6662e-06	1.0064e-05	491.59	223.71	156.37	84.546	7.2244e-06	118.64	0.0007789	0.00070843	0.00019735	732.05	7.6243e-06	7.6e-06	906.43	319.47	7.5107e-06	7.5965e-06	449.03	204.29	144.7	77.92	7.6545e-06	108.86	164.204	-101.725	-98.827	-160.085	-54.282	4.045	-161.577	-155.109	-77.337	-6.875	-157.681	-153.875	-151.374	-145.723	-13.729	-149.413	-8191	255	
1168.449	1	1	0	0	0.0098522	0.25682	0.15744	0.24102	0.36087	0.11529	0.10588	0.12104	0.23019	0.041428	0.13042	0.14975	0.23448	0.16183	0.049463	0.088941	-2.2208	-2.0979	-2.4313	-2.4396	-2.45	-2.6688	-2.2875	-2.4458	-2.5125	-2.0792	-2.8292	-2.4771	-2.4292	-2.8979	-2.3625	-2.4146	-141.823	-81.396	-30.778	139.504	-85.710	-90.231	90.003	-35.284	-72.949	178.790	-117.049	78.306	96.649	134.651	182.863	144.797	0.0014978	0.0015348	0.00026364	793.92	6.2506e-06	6.5374e-06	990.63	348.46	1.2669e-05	2.1847e-05	489.75	222.2	155.43	83.578	7.2627e-06	117.57	0.00076485	0.00069198	0.00019099	730.45	7.3653e-06	7.4451e-06	905.76	320.44	7.4245e-06	7.4335e-06	447.01	202.84	143.04	76.95	7.4699e-06	107.85	166.774	-70.290	-92.550	-160.035	-7.899	19.976	-161.527	-154.881	-56.509	-52.191	-157.545	-154.221	-151.648	-145.458	-20.413	-149.437	-8191	255	
1168.545	1	1	0	0	0.16578	0.039175	0.26708	0.29849	0.3077	0.26799	0.2596	0.13965	0.13645	0.40434	0.15786	0.4203	0.27227	0.19044	0.085	0.2873	-2.1417	-2.3417	-2.3854	-2.4354	-2.2687	-2.6729	-2.5854	-2.4792	-2.7292	-2.05	-2.6729	-2.8729	-2.375	-2.8604	-2.4458	-2.8083	166.545	-23.094	-118.830	134.893	-50.226	-142.767	82.556	-160.715	163.920	-161.688	167.965	127.464	127.959	-90.823	-102.320	130.395	0.0014592	0.00083327	0.00031466	790.51	9.0579e-06	1.4354e-05	982.46	347.33	4.3753e-06	7.883e-06	485.67	221.25	155.61	84.217	1.1915e-05	118.32	0.00074885	0.00067162	0.00018831	727.62	7.463e-06	7.297e-06	902.92	317.41	7.352e-06	7.4377e-06	445.59	202.13	143.23	77.333	7.5447e-06	109	163.678	-92.629	-56.705	-160.335	5.810	-24.030	-161.915	-155.130	-40.381	-26.046	-157.529	-153.715	-151.679	-145.209	-70.471	-149.327	-8191	255	
1168.641	1	1	0	0	0.10232	0.14104	0.3375	0.21873	0.19091	0.21504	0.13156	0.15187	0.0099031	0.31229	0.099737	0.21708	0.14079	0.16787	0.30102	0.43734	-2.3729	-2.1354	-2.3667	-2.625	-2.2896	-2.5646	-2.3771	-2.5021	-2.7125	-2.1292	-2.6146	-2.7958	-2.2938	-2.6958	-2.5125	-2.5729	-27.274	121.880	-101.163	129.508	111.483	-61.676	-152.871	63.119	145.197	131.692	-152.898	157.436	-168.807	132.980	-25.792	148.676	0.0015913	0.00085352	0.0002491	802.28	4.9046e-06	1.8908e-06	1000.4	350.72	1.2735e-05	6.6407e-06	502.67	230.33	161.22	87.12	7.4693e-06	122.5	0.00076058	0.0006807	0.00019474	734.77	7.3069e-06	7.3461e-06	916.97	323.65	7.5008e-06	7.5732e-06	458.39	209.26	148.32	80.262	7.4719e-06	112.12	167.754	-72.314	-100.011	-160.182	-90.253	-7.184	-161.898	-155.145	-69.748	-13.453	-157.477	-154.001	-151.714	-145.678	-116.557	-149.437	-8191	255	
1168.713	1	1	0	0	0.054193	0.14654	0.2335	0.29043	0.10089	0.24895	0.27368	0.2599	0.23976	0.17077	0.18789	0.081877	0.36497	0.097907	0.11043	0.18285	-2.2	-2.2292	-2.3958	-2.5312	-2.2354	-2.6708	-2.5875	-2.3187	-2.6479	-2.175	-2.3583	-2.5458	-2.4771	-2.7833	-2.5271	-2.3167	-49.547	99.337	-14.916	114.196	-4.173	135.290	148.644	110.829	-116.427	-85.123	119.793	72.534	160.008	153.654	-90.785	120.148	0.0014937	0.0010362	0.00018046	810.87	6.2981e-06	8.6865e-06	1018.2	358.42	1.4328e-05	3.2249e-06	500.93	229.92	162.05	87.273	1.2084e-05	122.35	0.00075663	0.00066245	0.00019033	742.14	7.2691e-06	7.2937e-06	927.01	328.76	7.2708e-06	7.2739e-06	459.63	209.37	149.18	80.355	7.2728e-06	112.22	169.320	-53.097	-39.424	-159.818	-31.616	-68.091	-161.499	-154.977	-67.099	-113.334	-157.719	-153.971	-151.599	-145.843	-77.252	-149.473	-8191	255	
1168.834	1	1	0	0	0.37812	0.13389	0.082699	0.28289	0.1685	0.23319	0.37558	0.10459	0.27917	0.11062	0.25574	0.30427	0.15727	0.43942	0.19143	0.090925	-2.0333	-2.2792	-2.2917	-2.7125	-2.1271	-2.3792	-2.5021	-2.3625	-2.7208	-2.3729	-2.3375	-2.75	-2.2333	-2.5458	-2.4417	-2.4375	-146.235	61.154	163.264	99.013	-136.431	-53.353	151.997	138.229	123.437	-136.869	-158.712	179.807	127.092	-167.132	-45.534	9.952	0.0015087	0.00078008	0.00033917	814.35	3.8504e-06	1.2166e-05	1007	359.9	1.2961e-05	7.5587e-06	505.82	230.08	162.47	87.167	7.7834e-06	121.73	0.00074499	0.00066086	0.00018384	743.38	7.111e-06	7.1304e-06	925.07	329.79	7.0608e-06	7.075e-06	460.49	209.81	149.35	80.31	7.1644e-06	112.06	169.250	-102.543	-85.618	-159.902	-66.222	-39.086	-161.478	-155.273	-41.947	9.017	-157.660	-153.728	-151.332	-145.787	-89.378	-149.342	-8191	255	
1168.930	1	1	0	0	0.31172	0.2254	0.15441	0.2293	0.060488	0.12917	0.29472	0.28205	0.19864	0.1355	0.3055	0.25971	0.034588	0.19803	0.042569	0.2947	-2.2562	-2.4417	-2.2146	-2.8542	-2.2812	-2.5646	-2.6292	-2.4625	-2.575	-2.2521	-2.3229	-2.8521	-2.2313	-2.4979	-2.5333	-2.2271	164.583	-138.815	-85.578	-172.240	80.447	56.016	129.474	149.494	-41.080	157.182	-112.415	151.862	26.203	-173.025	-43.292	89.202	0.0015026	0.0011207	0.00043262	812.44	7.3316e-06	1.1012e-05	1009.2	362.39	5.7966e-06	1.3697e-05	508.97	231.62	163.82	87.354	7.0777e-06	122.53	0.00071061	0.00064628	0.00018195	744.78	6.9227e-06	7.1305e-06	926.86	331.03	7.0166e-06	7.1315e-06	464.14	211.36	150.01	80.651	7.2752e-06	112.56	165.380	-86.154	-90.644	-159.876	-23.098	-27.501	-161.443	-155.374	-39.556	1.237	-157.458	-153.876	-151.742	-145.683	-50.043	-149.322	-8191	255	
1169.026	1	1	0	0	0.21983	0.12114	0.084019	0.31731	0.26288	0.045058	0.33602	0.16051	0.19817	0.22561	0.28078	0.20663	0.23542	0.43777	0.055338	0.25116	-2.0667	-2.4542	-2.2292	-2.7687	-2.3375	-2.4896	-2.7812	-2.3104	-2.5708	-2.2667	-2.4521	-2.9562	-2.4688	-2.6229	-2.5354	-2.3375	-135.460	161.139	16.372	139.674	96.012	136.528	84.416	103.910	-34.355	-53.889	158.798	43.058	-144.855	154.032	-2.145	-156.325	0.0014692	0.00083286	0.00034475	811.62	7.3052e-06	7.9286e-06	1010.2	358.93	9.3205e-06	4.7904e-06	507.52	232.39	163.83	88.276	8.4239e-06	124.3	0.00072874	0.00065316	0.00018258	741.34	6.9649e-06	6.9666e-06	926.71	329.95	6.9535e-06	7.0222e-06	465.14	212.5	150.47	81.185	6.9872e-06	113.77	160.565	-94.688	-97.426	-159.763	-70.010	6.270	-161.475	-155.066	-49.926	-68.619	-157.443	-154.146	-151.855	-145.922	-21.498	-149.599	-8191	255	
1169.122	1	1	0	0	0.18404	0.24688	0.2455	0.195	0.098597	0.018021	0.45975	0.11261	0.072203	0.059514	0.27143	0.24403	0.065428	0.22734	0.014126	0.38426	-2.1063	-2.6521	-2.1917	-2.7229	-2.2333	-2.4646	-2.8354	-2.1104	-2.6312	-2.6813	-2.2208	-2.6958	-2.6354	-2.3667	-2.5604	-2.4479	22.438	18.611	-63.348	171.420	-127.053	-62.610	108.525	110.715	114.091	-68.226	87.916	125.298	170.167	183.686	49.221	141.237	0.0014182	0.00050853	7.8707e-05	810.35	8.7279e-06	9.0489e-06	1015	358.56	1.4518e-05	1.3196e-05	504.9	229.76	162.18	87.424	9.7092e-06	122.7	0.00071385	0.00064534	0.00018052	742.1	7.0894e-06	7.107e-06	927.27	328.04	7.0316e-06	7.0058e-06	461.18	209.78	149.01	80.452	7.0227e-06	112.44	166.158	-79.986	-57.608	-160.242	-18.924	0.974	-161.560	-155.204	-32.811	-15.412	-157.546	-153.817	-151.439	-145.652	-76.898	-149.166	-8191	255	
1169.241	1	1	0	0	0.12057	0.064771	0.081581	0.072573	0.26713	0.03287	0.22384	0.10482	0.10838	0.20122	0.30218	0.24513	0.204	0.21972	0.086288	0.42878	-1.9333	-2.3729	-2.0833	-2.7687	-2.4396	-2.1625	-2.9292	-2.5917	-2.275	-2.5208	-2.3812	-2.8312	-2.625	-2.3187	-2.6625	-2.8	-92.851	79.898	-122.221	-83.664	60.240	127.990	-123.206	171.046	179.596	38.760	112.417	-89.925	120.847	133.646	-138.870	172.567	0.0013818	0.00029065	0.00025496	800.37	8.6304e-06	1.23e-05	994.23	353.09	9.4765e-06	1.0238e-05	498.34	226.19	159.1	86.642	8.4204e-06	122.36	0.00072444	0.00065755	0.00018127	734.29	7.0448e-06	7.1062e-06	913.4	322.92	7.071e-06	7.0403e-06	454.41	207.54	146.37	79.622	7.2913e-06	112.68	166.642	-112.894	-105.676	-160.105	-26.354	-34.510	-161.392	-155.125	-40.490	1.351	-158.074	-153.861	-151.620	-145.645	-52.085	-149.437	-8191	255	
1169.314	1	1	0	0	0.32224	0.11152	0.11891	0.19535	0.19718	0.1176	0.33424	0.12649	0.18438	0.064015	0.23787	0.20958	0.3092	0.17462	0.086969	0.26792	-1.9417	-2.5792	-2.0958	-2.5979	-2.4688	-2.2229	-2.8125	-2.4875	-2.3812	-2.4521	-2.3187	-2.75	-2.6708	-2.4333	-2.7104	-2.6333	2.556	-119.889	17.996	184.527	147.544	-63.009	58.642	-154.858	-38.669	-6.028	73.650	110.106	153.019	116.725	97.401	126.582	0.0014944	0.00099184	0.00023951	801.99	9.2294e-06	5.3798e-06	1007.1	360.4	7.0324e-06	6.9212e-06	508.27	231.28	162.29	87.533	1.6264e-06	124.17	0.00072044	0.00064702	0.00018322	737.6	6.9934e-06	7.179e-06	926.22	329.06	7.3267e-06	7.3395e-06	462.69	211.76	149.02	80.831	7.2881e-06	114.17	168.404	-73.506	-42.420	-160.107	-15.242	-47.716	-161.983	-155.394	-72.072	34.564	-157.646	-153.593	-151.582	-145.847	-45.074	-149.322	-8191	255	
1169.411	1	1	0	0	0.061192	0.0968	0.13616	0.15533	0.083071	0.088472	0.36635	0.15008	0.17307	0.20843	0.12097	0.18983	0.046833	0.2885	0.4548	0.40328	-1.7521	-2.8042	-2.1979	-2.6854	-2.2104	-2.4583	-2.7375	-2.4167	-2.3563	-2.7417	-2.5792	-2.4354	-2.7104	-2.3583	-2.6042	-2.6542	82.231	145.411	-46.516	145.777	150.409	109.034	151.601	65.219	-87.440	-27.603	108.507	130.122	14.270	156.660	175.548	163.933	0.0014539	0.00041166	0.00014925	810.82	6.7354e-06	3.0968e-06	1019.6	362.81	7.7901e-06	9.346e-06	508.56	233.03	164.34	88.349	6.8697e-06	124.72	0.00074771	0.00065652	0.00018444	741.2	7.2467e-06	7.3513e-06	930.16	331.86	7.1928e-06	7.2196e-06	465.28	213.54	150.8	81.438	7.1324e-06	114.23	168.934	-109.749	-89.580	-159.778	-9.898	87.368	-161.853	-155.255	-98.153	-58.510	-157.569	-153.719	-151.727	-145.731	-98.527	-149.520	-8191	255	
1169.529	1	1	0	0	0.16607	0.20707	0.094404	0.28289	0.1506	0.060678	0.13838	0.13364	0.10986	0.12725	0.20506	0.40805	0.16352	0.26494	0.16875	0.31768	-1.7583	-2.5938	-2.1771	-2.4583	-2.4896	-2.35	-2.5625	-2.5521	-2.2167	-2.5104	-2.2583	-2.5812	-2.8104	-2.4125	-2.3604	-2.5375	64.298	-78.210	33.910	147.666	51.200	-114.166	154.270	-131.192	109.430	-160.525	128.434	179.197	172.526	118.484	21.393	113.765	0.0016218	0.00060204	0.00015128	804.18	1.0042e-05	3.96e-06	1010	359.35	7.9502e-06	4.8957e-06	508.46	231.78	164.39	88.37	1.2652e-05	124.4	0.00074192	0.0006427	0.0001841	738.72	7.0688e-06	7.0798e-06	922.69	329.41	7.0199e-06	6.8641e-06	463.85	212.09	150.42	81.214	7.0299e-06	114.06	162.124	-72.637	-79.339	-160.040	-19.858	-34.528	-161.741	-154.893	-69.349	0.056	-157.544	-153.922	-151.651	-145.593	-42.761	-149.359	-8191	255	
1169.626	1	1	0	0	0.18224	0.14141	0.10849	0.31275	0.13436	0.31543	0.19737	0.32149	0.12877	0.20127	0.29962	0.12603	0.39576	0.1126	0.12635	0.30721	-1.7875	-2.6833	-2.2812	-2.4917	-2.7792	-2.1979	-2.5646	-2.6104	-2.1583	-2.5125	-2.2438	-2.4917	-2.6771	-2.1417	-2.5187	-2.9479	161.823	-55.682	-111.793	30.220	153.652	76.499	111.914	84.683	180.902	146.965	152.216	-66.155	173.765	176.206	-68.702	99.352	0.0015079	0.00083577	0.00025601	805.66	6.3541e-06	5.3174e-06	1004.6	357.68	1.3851e-05	1.8273e-05	503.75	229.86	161.1	87.242	7.7517e-06	122.8	0.0007394	0.00063273	0.00017748	739.43	6.9085e-06	6.9938e-06	918.34	327.13	6.9374e-06	6.9591e-06	458.58	209.75	147.93	80.124	7.1377e-06	113.07	166.801	-39.106	-69.759	-160.045	-35.790	46.874	-161.673	-155.277	-51.299	-56.658	-158.143	-154.056	-151.941	-145.435	-86.829	-149.438	-8191	255	
1169.722	1	1	0	0	0.2437	0.055398	0.040215	0.32801	0.29943	0.20134	0.26885	0.22816	0.11782	0.18996	0.24687	0.1177	0.16173	0.28804	0.22758	0.29884	-1.6	-2.5625	-2.2792	-2.4708	-2.4708	-2.1562	-2.6042	-2.9875	-2.2021	-2.6729	-2.3833	-2.4146	-2.8104	-2.4542	-2.5	-2.6271	94.065	-155.460	-40.634	-159.916	34.496	73.119	42.849	124.242	95.406	-145.545	121.622	-120.598	92.718	133.060	97.719	99.272	0.0015588	0.00093808	0.00013168	806.25	6.1373e-06	6.9225e-06	996.59	352.24	7.7357e-06	7.0522e-06	497.32	226.69	156.39	84.676	7.8752e-06	120.71	0.00071836	0.00064219	0.00018185	736.13	6.9583e-06	7.0169e-06	915.01	323.26	7.1893e-06	7.2626e-06	452.95	206.79	144.13	77.918	7.2204e-06	110.91	164.868	-65.751	-64.357	-159.990	-48.323	-30.691	-161.609	-154.992	-50.022	-25.166	-157.546	-154.070	-151.441	-145.553	-3.635	-149.236	-8191	255	
1169.818	1	1	0	0	0.21483	0.036689	0.2326	0.15683	0.20489	0.041895	0.12451	0.12785	0.17281	0.27965	0.2179	0.17298	0.20453	0.10349	0.086461	0.31656	-1.8146	-2.5833	-2.2417	-2.2042	-2.5979	-2.2375	-2.4771	-2.6333	-2.2313	-2.5479	-2.3917	-2.3125	-2.9271	-2.3417	-2.3583	-2.675	86.927	117.500	-64.786	102.998	134.371	-48.304	7.240	110.021	58.211	31.792	-151.731	152.688	155.969	175.021	-92.772	92.126	0.0013624	0.0010131	0.00020582	783.6	8.6596e-06	1.1008e-05	985.73	345.24	9.223e-06	6.2719e-06	488.53	223.45	154.56	84.316	1.0295e-05	120.53	0.00073728	0.00066525	0.00018588	721.24	7.1152e-06	7.235e-06	902.1	316.3	7.2543e-06	7.1861e-06	448.16	204.26	142.3	77.788	7.4167e-06	111.03	164.696	-76.060	-81.069	-159.902	-16.978	-19.718	-161.902	-155.216	-64.651	-31.131	-157.670	-153.662	-151.510	-145.526	-44.737	-149.202	-8191	255	
1169.914	1	1	0	0	0.17501	0.33468	0.21781	0.13464	0.11406	0.12703	0.41971	0.25963	0.17791	0.11	0.11419	0.096408	0.17761	0.35049	0.26066	0.13074	-1.5396	-2.4813	-2.5521	-2.1104	-2.3396	-2.2333	-2.4542	-2.7521	-2.3042	-2.4313	-2.6917	-2.3625	-2.6937	-2.425	-2.3208	-2.9354	67.906	-107.916	-165.212	7.675	-132.165	-96.601	106.007	111.205	-172.664	-27.903	61.083	154.000	-138.671	175.453	-2.519	34.016	0.001403	0.0012133	0.00036127	782.02	1.2466e-06	7.3696e-06	983.41	347.14	1.1775e-05	1.4257e-05	496.12	227.1	157.83	86.418	4.8195e-06	123.84	0.00074712	0.00066651	0.00018804	716.63	7.2935e-06	7.2784e-06	901.48	317.7	7.1858e-06	7.2447e-06	454.33	207.95	145.28	79.845	7.456e-06	114.26	162.702	-64.959	-55.567	-159.991	-111.721	4.124	-161.872	-155.163	-15.467	-34.122	-157.894	-153.638	-151.761	-145.545	-21.541	-149.324	-8191	255	
1170.010	1	1	0	0	0.25215	0.20924	0.13276	0.16672	0.13549	0.28077	0.098982	0.22006	0.0436	0.1144	0.17497	0.074595	0.14845	0.39789	0.13928	0.21444	-1.7604	-2.3167	-2.5938	-2.0792	-2.7729	-2.2062	-2.2062	-2.8708	-2.0729	-2.3167	-2.6979	-2.3104	-2.5458	-2.4958	-2.325	-2.8583	-74.311	-9.138	83.909	-156.075	-113.635	-98.136	-147.933	-169.789	29.750	168.529	182.668	166.698	161.253	165.648	134.152	132.138	0.0015205	0.0012321	0.00027903	791.84	1.0325e-05	5.8823e-06	1001.6	354.44	1.521e-05	1.2925e-05	504.98	233.07	161.7	88.429	6.6138e-06	125.96	0.0007579	0.00066834	0.00018217	727.67	7.0223e-06	7.3103e-06	917.69	324.32	7.2741e-06	7.1588e-06	461.33	212.89	148.37	81.337	7.3292e-06	116.13	165.535	-72.395	-70.893	-159.836	15.675	-7.306	-161.703	-154.896	-74.454	-43.964	-157.540	-153.858	-151.441	-145.752	-36.427	-149.076	-8191	255	
1170.131	1	1	0	0	0.26485	0.18923	0.22534	0.30138	0.22478	0.089077	0.09362	0.1371	0.19878	0.16666	0.080064	0.22565	0.21918	0.27581	0.25205	0.36335	-1.8083	-2.2854	-2.5604	-2.325	-2.4792	-2.4729	-2.3312	-2.8438	-2.3458	-2.3063	-2.6375	-2.4271	-2.6542	-2.4917	-2.1479	-2.9625	7.376	-134.851	-59.031	-145.257	-143.524	28.397	-100.751	156.787	-159.525	90.726	-103.408	157.288	173.862	96.883	-105.280	133.656	0.0015344	0.0012113	0.00023765	808.41	6.3646e-06	6.1365e-06	1008.8	359.18	1.172e-05	3.5645e-06	510.86	235.42	161.66	88.571	8.2432e-06	126.34	0.00073311	0.0006695	0.00017962	735.53	7.0384e-06	7.1227e-06	926.44	328.67	7.0673e-06	7.0616e-06	465.19	214.65	148.6	81.504	7.3186e-06	115.81	167.354	-64.147	-92.461	-159.838	-31.631	5.469	-161.765	-155.455	-33.115	-100.171	-157.622	-153.947	-151.639	-145.576	-76.168	-149.467	-8191	255	
1170.227	1	1	0	0	0.053719	0.056424	0.085739	0.36913	0.22661	0.16517	0.22649	0.34022	0.0081869	0.14808	0.12245	0.11006	0.16862	0.36219	0.17296	0.10407	-1.9062	-2.1521	-2.5708	-2.2021	-2.5604	-2.5958	-2.3479	-2.7125	-2.2812	-2.1729	-2.6333	-2.5146	-2.7958	-2.7646	-2.0875	-2.7104	50.302	-76.338	22.063	122.994	60.030	178.611	80.497	121.529	-166.650	39.570	122.889	-56.550	168.315	154.311	161.984	83.815	0.001565	0.0012272	0.00017924	801.11	8.176e-06	1.6904e-05	1002	354.8	8.2533e-06	3.7063e-06	505.88	232.77	162.3	88.396	7.7352e-06	126.03	0.00073383	0.00066693	0.00018267	732.35	7.2396e-06	7.1892e-06	917.45	325.76	7.2867e-06	7.2154e-06	462.33	212.65	148.52	81.452	7.4375e-06	115.79	165.661	-64.135	-97.390	-160.245	-48.687	-44.796	-161.820	-155.274	-82.581	3.770	-157.913	-154.029	-151.650	-146.024	-46.063	-149.041	-8191	255	
1170.321	1	1	0	0	0.24861	0.15948	0.073347	0.10254	0.25826	0.20148	0.06514	0.17073	0.036695	0.20036	0.19778	0.20432	0.12802	0.30472	0.21851	0.25165	-1.7708	-2.1958	-2.6146	-2.3771	-2.5187	-2.4583	-2.3271	-2.525	-2.2708	-2.1521	-2.5771	-2.5125	-2.5667	-2.9979	-2.1292	-2.7417	36.813	9.317	-121.055	108.896	132.920	-164.892	-158.191	70.362	99.416	128.242	-163.169	176.199	123.683	125.846	18.679	111.158	0.0015259	0.00081462	3.1963e-05	799.13	8.57e-06	9.0393e-06	1003.1	355.05	1.1639e-05	1.4662e-05	505.52	233.63	161.24	88.984	7.2966e-06	126.42	0.00074105	0.00067345	0.00018675	731.45	7.2362e-06	7.2963e-06	918.64	327.04	7.3621e-06	7.3351e-06	463.2	213.57	148.21	81.774	7.3893e-06	116.1	166.192	-72.301	161.011	-159.909	-41.689	52.830	-161.556	-154.972	-68.105	-21.222	-157.504	-154.053	-151.621	-145.677	-72.083	-149.174	-8191	255	
1170.418	1	1	0	0	0.19633	0.16779	0.13315	0.26175	0.25822	0.084313	0.2296	0.17627	0.081669	0.13651	0.1579	0.14487	0.062997	0.32326	0.24371	0.32911	-2.1042	-2.1813	-2.5896	-2.3396	-2.2583	-2.7854	-2.3542	-2.5563	-2.5521	-2.3063	-2.6542	-2.4667	-2.2771	-2.8104	-1.9062	-2.5938	94.727	-138.285	43.936	123.271	9.456	89.328	144.800	149.524	-128.988	-11.676	115.051	145.564	-172.499	158.929	166.278	186.221	0.0015833	0.00080622	0.00024098	794.02	1.0034e-05	8.9352e-06	1007.2	355.81	8.3607e-06	8.1737e-06	507.65	233.96	160.5	88.719	6.1189e-06	126.35	0.00075059	0.00066713	0.00018198	727.27	7.1931e-06	7.2902e-06	921.22	327.09	7.2514e-06	7.4153e-06	464.22	213.28	147.94	81.609	7.312e-06	116.1	167.686	-74.559	-78.474	-160.251	-44.020	-15.401	-161.788	-155.368	-93.503	-6.154	-157.722	-153.667	-151.764	-145.742	-21.412	-149.509	-8191	255	
1170.538	1	1	0	0	0.19198	0.034234	0.086272	0.26329	0.15861	0.26847	0.28675	0.22974	0.30152	0.19718	0.21712	0.1445	0.19364	0.31569	0.16518	0.14282	-1.875	-2.1417	-2.4542	-2.5542	-2.2354	-2.8396	-2.3396	-2.3646	-2.7188	-2.3646	-2.5396	-2.3563	-2.1437	-2.9479	-2.3167	-2.6063	-108.577	-52.368	-2.599	123.888	-86.888	179.241	142.616	170.659	95.275	69.385	-122.417	73.600	186.045	-157.839	-113.582	118.770	0.001406	0.000781	0.00023631	796.78	9.1249e-06	1.7524e-05	1001.9	356.2	9.6266e-06	1.7849e-05	505.63	232.11	160.7	88.062	1.1268e-05	125.44	0.00073757	0.00066698	0.00018457	727.36	7.1672e-06	7.3538e-06	917.67	326.5	7.1396e-06	7.2212e-06	462.63	211.97	147.47	81.123	7.2738e-06	115.15	164.246	-28.385	-78.821	-159.969	-7.223	-4.636	-161.523	-155.108	-32.343	-48.346	-157.561	-154.222	-151.513	-145.889	-76.952	-149.360	-8191	255	
1170.610	1	1	0	0	0.22899	0.040652	0.082681	0.11448	0.31281	0.36816	0.18001	0.095794	0.12538	0.12689	0.14363	0.22652	0.23132	0.30358	0.1169	0.25068	-2.1354	-2.0104	-2.5583	-2.7625	-2.2917	-2.675	-2.4208	-2.2979	-2.7562	-2.2521	-2.7646	-2.4062	-2.0458	-2.6	-2.0521	-2.4021	150.264	-120.145	82.132	-48.798	-105.659	-31.336	62.449	177.841	-71.844	132.977	171.412	108.568	138.320	167.842	-46.752	115.005	0.0015802	0.0013305	0.00012623	792.92	6.5604e-06	8.3309e-06	1007.9	357.43	9.2648e-06	1.4101e-05	508.27	233.21	160.85	88.803	1.2006e-05	126.78	0.00073899	0.00065863	0.00018338	729.25	7.2396e-06	7.219e-06	920.02	327.46	7.2251e-06	7.3402e-06	464.21	213.37	148.5	81.832	7.1769e-06	116.58	166.262	-72.796	-66.427	-160.017	-27.564	-37.826	-161.704	-155.088	-77.907	-36.360	-157.524	-153.958	-151.594	-145.753	-78.533	-149.328	-8191	255	
1170.706	1	1	0	0	0.22121	0.052182	0.28817	0.22504	0.19822	0.20001	0.15353	0.21656	0.083475	0.20906	0.25993	0.12274	0.26362	0.23034	0.078736	0.58316	-2.25	-2.2083	-2.4	-2.4854	-2.2208	-2.5854	-2.55	-2.3479	-2.5792	-2.1604	-2.3063	-2.5333	-2.275	-2.8208	-2.3854	-2.3208	-157.024	-57.429	-80.029	-8.943	135.025	-110.336	80.236	-154.108	-2.386	-110.224	-127.280	67.352	163.557	117.192	54.046	184.650	0.0014845	0.00083957	0.00026824	802.94	7.2873e-06	1.3552e-05	1011.6	360.16	4.1763e-06	1.3881e-05	513.15	237.69	163.51	89.506	7.02e-06	127.94	0.00074735	0.00066782	0.00018534	734.57	7.1875e-06	7.0467e-06	926.38	331.48	7.2694e-06	7.2551e-06	469.32	215.87	150.1	82.637	7.3428e-06	117.45	164.805	-95.234	-85.353	-159.985	-26.355	-32.578	-161.637	-155.082	-75.335	-16.947	-157.492	-153.930	-151.710	-146.144	-50.973	-149.480	-8191	255	
1170.802	1	1	0	0	0.023874	0.20201	0.12917	0.018503	0.15532	0.035447	0.13302	0.4116	0.091099	0.23742	0.17746	0.30926	0.33229	0.26226	0.18612	0.33587	-2.2562	-2.25	-2.5229	-2.5479	-2.1	-2.4146	-2.4354	-2.3354	-2.625	-2.5458	-2.6917	-2.8021	-2.3583	-3.0021	-2.45	-2.1667	-91.162	-90.438	-113.485	179.221	-159.128	119.591	134.858	-168.479	120.267	-143.746	162.334	107.539	63.527	158.825	-30.489	129.875	0.0015137	0.00082758	0.00023513	808.09	3.8082e-06	6.0029e-06	1012.8	364.63	1.22e-05	1.3811e-05	519.28	239.23	166.11	91.273	3.9977e-06	129.25	0.00074842	0.00065872	0.00018469	738.07	7.0471e-06	7.0864e-06	927.86	334.36	7.0948e-06	7.3193e-06	474.17	218.63	152.49	84.055	7.102e-06	118.86	164.910	-95.909	-113.873	-159.798	-11.236	-3.498	-161.515	-155.224	-63.826	-18.894	-157.806	-153.831	-151.746	-145.843	-55.569	-149.359	-8191	255	
1170.898	1	1	0	0	0.099937	0.12845	0.18443	0.34089	0.2133	0.28223	0.069569	0.068161	0.12477	0.18438	0.11221	0.14064	0.26824	0.29452	0.16393	0.20642	-2.2229	-2.2146	-2.3646	-2.6021	-2.3354	-2.3042	-2.25	-2.2583	-2.7667	-2.4521	-2.4313	-2.6021	-2.2083	-2.6562	-2.5167	-2.4542	-51.726	-141.253	-68.516	-165.233	0.661	86.563	143.092	139.696	-132.065	19.536	158.398	-33.883	148.159	180.510	-169.514	145.181	0.0014841	0.0013199	0.00035593	806.63	6.2309e-06	9.5224e-06	1012.8	364.39	8.1944e-06	1.6379e-05	516.62	238.49	165.42	90.896	4.3926e-07	128.86	0.00073499	0.0006561	0.00018264	737.7	6.9626e-06	7.1856e-06	928.52	333.69	6.9999e-06	7.1868e-06	471.4	217.94	152.28	83.654	7.1911e-06	118.18	170.657	-96.790	-102.096	-159.739	-30.804	6.664	-161.685	-155.450	-17.352	-41.064	-157.411	-154.084	-151.464	-145.885	47.675	-149.476	-8191	255	
1171.019	1	1	0	0	0.27492	0.17756	0.11739	0.15772	0.15327	0.11576	0.15169	0.37589	0.14641	0.14127	0.3255	0.20677	0.35269	0.052939	0.098153	0.42733	-1.9875	-2.1417	-2.0417	-2.6542	-2.3771	-2.4813	-2.6646	-2.3146	-2.5771	-2.2375	-2.2583	-2.7062	-2.3146	-2.5875	-2.4792	-2.2833	97.031	-29.140	-6.754	103.309	-46.075	-64.395	-138.103	133.055	160.796	65.751	-136.573	137.764	-150.610	127.147	97.416	108.965	0.0015576	0.0013095	0.0001764	800.87	8.6258e-06	1.6369e-05	1010.9	361.7	1.0343e-05	6.6239e-06	512.84	237.75	166.41	90.866	8.6733e-06	129.02	0.000721	0.00065602	0.00018379	737.81	6.8775e-06	7.0058e-06	925.01	332.07	7.0102e-06	6.9589e-06	470.31	217.36	152.72	83.857	7.0982e-06	118.51	164.008	-62.155	-103.595	-160.212	-43.751	-38.688	-161.567	-155.150	-43.390	-5.512	-157.512	-153.845	-151.818	-146.059	-98.253	-149.450	-8191	255	
1171.115	1	1	0	0	0.12796	0.20354	0.16073	0.17753	0.11457	0.17258	0.35865	0.2621	0.18836	0.12954	0.28711	0.15539	0.13847	0.20623	0.16389	0.26714	-2.0187	-2.2313	-2.0167	-2.9938	-2.1063	-2.3375	-2.5792	-2.0833	-2.4771	-2.3312	-2.1979	-2.6396	-2.3208	-2.1958	-2.6396	-2.3958	35.229	-56.786	-75.149	47.076	-61.761	-15.630	85.546	128.074	-8.106	-123.107	124.195	-111.203	-146.969	-122.072	123.002	135.593	0.0015084	0.00083328	0.00027166	809.75	1.363e-05	1.2651e-05	1021.6	370.42	6.7801e-06	9.6218e-06	519.59	241.01	167.78	91.664	1.2965e-05	129.82	0.00072301	0.00064362	0.00017727	744.42	6.7294e-06	6.9128e-06	933.8	337.7	6.9874e-06	6.9675e-06	474.16	219.75	153.77	84.377	6.9757e-06	118.84	168.638	-92.273	-80.659	-159.907	-2.310	-29.295	-161.560	-155.140	-67.145	-83.039	-157.423	-154.031	-151.814	-145.890	-56.401	-149.430	-8191	255	
1171.211	1	1	0	0	0.060818	0.085809	0.21624	0.24011	0.088317	0.089288	0.14907	0.1433	0.071906	0.3608	0.26199	0.1155	0.3775	0.64319	0.12531	0.098993	-2.1937	-2.175	-2.0021	-2.5708	-2.3312	-2.4042	-2.6458	-2.3458	-2.3688	-2.2979	-2.1583	-2.6083	-2.3979	-2.3479	-2.6063	-2.5146	81.798	-62.200	45.800	161.761	-83.433	121.750	106.921	184.636	-111.182	-137.374	166.594	-171.317	141.036	167.700	-88.905	175.527	0.0015334	0.00041729	0.00025383	814.05	1.1837e-05	8.5739e-06	1028.4	369.65	1.3001e-05	2.2352e-06	526.13	243.31	169.77	93.16	3.453e-06	130.49	0.0007285	0.00064572	0.00017743	746.41	6.8186e-06	7.0144e-06	940.22	339.42	6.9988e-06	6.9741e-06	479.9	222.65	156.38	85.402	6.9374e-06	120.01	163.132	-78.684	-33.854	-159.824	0.586	-32.417	-161.562	-155.001	-32.499	-139.271	-157.446	-154.015	-151.549	-145.873	-3.054	-149.262	-8191	255	
1171.307	1	1	0	131072	0.10682	0.20382	0.20306	0.2133	0.038713	0.2029	0.24433	0.1529	0.24012	0.19449	0.28477	0.32458	0.11778	0.097766	0.20606	0.25582	-1.925	-2.575	-2.1979	-2.65	-2.0979	-1.9875	-2.6146	-2.3229	-2.1833	-2.25	-1.9375	-2.5292	-2.5021	-2.1	-2.4688	-2.5062	115.170	9.235	28.580	-124.765	157.418	54.132	166.933	175.387	-71.800	150.128	141.351	161.919	-167.846	157.179	-14.778	156.599	0.0016117	0.0005338	0.00025833	816.01	1.1445e-05	8.1993e-06	1025.2	369.28	8.9034e-06	1.0918e-05	528.38	244.99	172.69	94.143	5.0306e-06	131.72	0.00071152	0.00062191	0.00017566	747.09	6.7982e-06	6.9842e-06	939.12	339.56	6.9632e-06	6.7974e-06	481.33	224.17	158.34	86.331	6.8545e-06	120.89	166.679	-103.748	-102.816	-159.872	-58.094	-55.946	-161.847	-155.128	-38.571	-87.740	-157.918	-153.993	-151.437	-145.723	-62.995	-149.296	-8191	255	
1171.402	1	1	0	131072	0.21794	0.10236	0.063917	0.15118	0.098815	0.23195	0.35272	0.32318	0.023285	0.11253	0.22199	0.28963	0.19119	0.40231	0.20202	0.21037	-1.9208	-2.6271	-2.1979	-2.5833	-2.3417	-2.1792	-2.7292	-2.4521	-2.2854	-2.3021	-2.2021	-2.4667	-2.6021	-2.2792	-2.4437	-2.25	-105.748	-128.947	-103.267	168.049	139.219	-86.107	99.721	141.734	129.508	157.906	26.106	-171.256	144.490	168.622	-64.969	186.221	0.0015803	0.00076351	0.00024286	825.16	8.9962e-06	2.7338e-06	1035.6	373.16	6.2937e-06	8.903e-06	531.12	246.42	173.01	94.168	9.9753e-06	132.94	0.00070866	0.00062682	0.00017542	755.83	6.7276e-06	6.9319e-06	946.06	342.81	6.8851e-06	6.8714e-06	484.71	225.17	158.95	86.695	6.8325e-06	121.72	162.149	-71.181	-106.791	-159.917	-66.585	-46.278	-161.630	-155.069	-114.620	-16.336	-157.827	-153.987	-151.441	-145.888	-63.902	-149.609	-8191	255	
1171.500	1	1	0	131072	0.14356	0.36024	0.10148	0.17369	0.19481	0.095397	0.33834	0.07001	0.16693	0.27969	0.12773	0.16243	0.23871	0.41259	0.036901	0.25535	-1.8521	-2.5667	-2.1562	-2.5729	-2.4729	-2.0146	-2.9	-2.5458	-2.35	-2.7438	-2.2292	-2.4562	-2.4625	-2.225	-2.3354	-2.4771	-142.395	42.215	-78.768	-119.968	-68.010	-127.212	170.206	-120.477	-145.632	-155.616	-17.388	117.246	171.230	150.067	60.929	140.477	0.0014935	0.0007014	0.00028102	828.26	4.6573e-06	1.4053e-05	1045.6	376.42	4.2998e-06	6.7825e-06	533.51	246.76	172.18	93.735	7.9046e-06	132.58	0.00071734	0.00062871	0.00017394	759.66	6.8199e-06	6.9097e-06	952.17	344.45	6.9822e-06	7.0018e-06	485.71	225.22	158.24	86.407	6.9085e-06	121.5	167.538	-35.751	-84.402	-160.027	-35.401	12.112	-161.917	-155.065	-61.611	-12.874	-157.472	-153.921	-151.697	-145.931	-54.647	-149.477	-8191	255	
1171.619	1	1	0	131072	0.18267	0.11073	0.15597	0.13414	0.21578	0.35562	0.18718	0.34756	0.056051	0.055511	0.066472	0.22001	0.16268	0.27444	0.099416	0.32282	-1.9146	-2.6188	-2.1688	-2.4542	-2.5896	-2.1167	-2.5125	-2.2375	-2.1458	-2.5958	-2.3646	-2.4938	-2.9	-2.2375	-2.4229	-2.4875	-137.763	115.603	-110.888	116.139	-93.912	16.662	98.001	159.863	71.544	13.274	-165.052	72.957	-135.646	167.396	-83.057	117.166	0.0015651	0.00083603	0.00028835	831.68	5.6093e-06	1.3888e-05	1040.9	374.6	5.7237e-06	1.1903e-05	527.24	247.08	171.99	93.444	6.2798e-06	132.07	0.00073567	0.00063731	0.00017601	756.05	6.8557e-06	6.8186e-06	950.05	343.03	6.8111e-06	6.6875e-06	484.54	225.78	157.84	86.26	6.9462e-06	121.08	169.404	-38.231	-94.804	-159.952	-37.644	-45.696	-162.121	-155.539	-78.494	-16.953	-157.782	-154.017	-151.852	-145.895	-16.631	-149.499	-8191	255	
1171.715	1	1	0	131072	0.11687	0.30644	0.14567	0.30796	0.062574	0.30659	0.16564	0.12532	0.072964	0.15493	0.13914	0.10885	0.14421	0.37769	0.24804	0.46362	-1.4167	-2.4208	-2.1437	-2.5354	-2.6604	-2.3354	-2.6813	-2.6937	-2.0104	-2.475	-2.4729	-2.3958	-2.7354	-2.3125	-2.425	-2.5938	158.979	-22.398	-154.756	94.033	-33.682	174.384	-157.431	98.058	-162.568	178.919	-29.748	159.964	121.505	136.088	175.056	138.868	0.0016588	0.00097008	0.00017555	819.09	1.381e-05	1.5693e-05	1032.9	372.72	6.2362e-06	1.6324e-05	527.54	245.54	171.29	93.557	8.4523e-06	131.23	0.00072863	0.00062692	0.00017326	751.87	6.8762e-06	6.8572e-06	943.96	340.03	6.8144e-06	6.8795e-06	482.91	224.64	157.42	85.927	6.8216e-06	120.49	166.473	-43.211	-56.530	-159.782	-66.713	-11.373	-161.664	-155.169	-55.012	0.657	-157.761	-153.792	-151.606	-145.772	-60.778	-149.344	-8191	255	
1171.811	1	1	0	131072	0.14419	0.21228	0.20605	0.29895	0.2898	0.15082	0.25131	0.13056	0.13833	0.21028	0.046608	0.36745	0.3131	0.22153	0.28484	0.38001	-1.4958	-2.6562	-2.0917	-2.1688	-2.5208	-2.2104	-2.4208	-2.6417	-2.1667	-2.5312	-2.1958	-2.3167	-2.8042	-2.6083	-2.2583	-2.6021	21.658	-112.733	31.862	-172.700	-153.057	-15.904	80.743	17.628	-56.622	53.317	-121.617	131.902	154.443	91.585	100.744	173.121	0.0014586	0.00085969	0.00020873	818.45	8.425e-06	1.2191e-05	1032.9	372.7	8.5039e-06	1.4637e-05	527.69	245.57	172.33	93.497	6.9331e-06	131.96	0.00070828	0.00062392	0.00017315	748.68	6.7136e-06	6.6553e-06	943.24	341.25	6.7927e-06	6.6265e-06	481.68	224.23	157.54	85.984	6.7536e-06	120.97	167.987	-69.972	-77.089	-159.747	6.416	-83.890	-161.745	-155.130	-69.727	-21.488	-157.677	-153.926	-151.707	-145.802	-54.638	-149.531	-8191	255	
1171.907	1	1	0	0	0.20436	0.065306	0.17064	0.3014	0.049264	0.057282	0.22589	0.16978	0.15788	0.20699	0.27093	0.1098	0.18117	0.35474	0.24726	0.092956	-1.4771	-2.3042	-2.1833	-2.3229	-2.5625	-2.1229	-2.5812	-2.5271	-1.9229	-2.5021	-2.4125	-2.3354	-2.5687	-2.4146	-2.1708	-2.7146	-12.541	50.699	-27.689	129.539	68.512	-30.241	103.163	62.438	-51.158	-141.219	164.237	151.190	156.116	143.645	176.727	116.137	0.0016496	0.00049628	0.00023887	821.82	8.7944e-06	1.3211e-05	1032.8	371.96	1.2926e-05	1.1685e-05	528.2	244.99	169.48	92.795	8.8641e-06	131.09	0.00069504	0.0005917	0.00016867	750.42	6.5519e-06	6.5303e-06	941.93	340.08	6.5644e-06	6.5345e-06	480.4	222.9	155.61	85.39	6.6943e-06	120.47	165.858	-81.041	-60.469	-160.248	-60.815	-18.723	-161.534	-155.342	-51.576	-0.922	-157.748	-153.966	-151.742	-145.698	-31.668	-149.358	-8191	255	
1172.003	1	1	0	0	0.1223	0.19935	0.24097	0.24431	0.19493	0.10684	0.30466	0.26899	0.25115	0.19336	0.24254	0.46766	0.10846	0.392	0.26933	0.33192	-1.5417	-2.4313	-2.5708	-2.1354	-2.2979	-2.0479	-2.25	-2.5792	-2.1896	-2.6042	-2.5604	-2.1688	-2.6604	-2.4688	-2.0042	-2.7354	66.520	-109.290	-37.210	-149.213	-9.993	-114.270	99.935	-146.181	1.277	176.268	-160.741	138.912	85.772	152.734	-24.278	174.724	0.0016587	0.001122	0.00025734	822.37	8.9597e-06	1.6722e-05	1032.2	374.11	1.2447e-05	1.3925e-05	528.65	244.09	170.13	92.545	5.0165e-06	130.45	0.00069577	0.0006046	0.00016859	751.41	6.484e-06	6.5482e-06	943.91	341.31	6.4059e-06	6.5373e-06	482.09	223.03	155.93	85.14	6.7126e-06	119.7	165.030	-113.295	-79.326	-160.015	-35.590	-44.421	-161.201	-155.320	-69.804	-7.470	-157.503	-153.825	-151.733	-145.892	-121.985	-149.368	-8191	255	
1172.099	1	1	0	0	0.040695	0.16408	0.19006	0.054334	0.092745	0.44429	0.34474	0.29606	0.073276	0.1383	0.26514	0.32946	0.35087	0.18424	0.14255	0.42493	-1.8312	-2.3479	-2.5854	-2.0396	-2.5583	-2.4354	-2.4521	-2.675	-2.1271	-2.3958	-2.5625	-2.2188	-2.6125	-2.4	-2.15	-3	72.541	56.129	162.063	-16.581	183.075	161.474	125.674	155.108	173.647	-121.443	129.184	-150.466	166.812	-152.829	138.484	123.506	0.0016328	0.00057036	0.0002436	813.79	9.0413e-06	3.8617e-06	1025.3	368.65	1.426e-05	9.7097e-06	523.85	242.59	169.04	92.351	6.1989e-06	130.38	0.00068258	0.00057595	0.00016811	744.18	6.4164e-06	6.4096e-06	937.51	337.71	6.3305e-06	6.6389e-06	478.01	221.73	155.23	84.838	6.5117e-06	119.3	165.095	-92.711	-96.015	-160.013	-58.389	-65.659	-161.577	-155.208	-66.432	-34.725	-157.921	-153.919	-151.779	-145.778	-74.489	-149.404	-8191	255	
1172.220	1	1	0	0	0.086056	0.32725	0.12959	0.13079	0.13445	0.18196	0.041011	0.26817	0.26539	0.33432	0.24488	0.21781	0.13909	0.13245	0.088316	0.44203	-1.6667	-2.1792	-2.7188	-2.1	-2.5438	-2.3438	-2.2104	-2.4979	-2.1958	-2.1063	-2.7229	-2.3396	-2.6312	-2.6292	-1.9958	-2.7583	120.460	-37.906	102.018	-35.790	81.054	-5.134	107.499	157.839	-156.269	-2.674	120.164	158.708	-169.722	149.013	34.852	133.998	0.0015338	0.00063861	0.00027599	809.84	6.7733e-06	5.6372e-06	1020	364.66	1.1695e-05	1.2608e-05	515.9	238.03	164.93	89.979	9.3225e-06	127.8	0.00068651	0.00059999	0.00016734	740.18	6.4294e-06	6.4727e-06	929	332.84	6.6069e-06	6.6307e-06	470.17	217.46	151.36	82.772	6.6884e-06	117.23	168.775	-68.423	-85.428	-159.834	-24.868	-9.505	-161.857	-155.240	-58.995	-25.584	-157.450	-154.040	-151.867	-145.747	-65.376	-149.277	-8191	255	
1172.314	1	1	0	0	0.11813	0.03901	0.14289	0.12586	0.15194	0.14866	0.27245	0.029942	0.12052	0.03826	0.1711	0.43087	0.20571	0.40992	0.10822	0.2494	-1.9667	-2.1458	-2.5604	-2.125	-2.2188	-2.4354	-2.1208	-2.6688	-2.2938	-2.1042	-2.8333	-2.3104	-2.25	-2.6271	-2.0521	-2.7208	155.284	-144.602	-119.458	134.569	-6.488	-102.661	118.031	65.977	-133.311	183.408	84.591	116.305	150.589	184.198	162.905	81.054	0.0015853	0.00080752	0.00024588	801.21	3.3862e-06	9.1527e-06	1011.6	359.49	9.0263e-06	1.5617e-05	510.48	235.13	162.27	89.09	1.0507e-05	126.95	0.00068513	0.00060593	0.00016918	734.36	6.403e-06	6.6892e-06	924.67	329.96	6.732e-06	6.8438e-06	466.01	215	149.3	81.823	6.7976e-06	116.45	165.556	-99.316	-64.657	-160.083	-19.711	-33.886	-161.962	-155.146	-47.603	-65.141	-157.599	-154.199	-151.498	-145.764	-50.676	-149.592	-8191	255	
1172.411	1	1	0	0	0.20068	0.053583	0.0093042	0.26152	0.18385	0.11273	0.15587	0.1631	0.13423	0.14417	0.092076	0.12752	0.35579	0.16437	0.23473	0.14696	-1.9646	-2.0229	-2.3542	-2.2125	-2.3896	-2.6583	-2.0854	-2.3958	-2.5708	-2.2	-2.7229	-2.3063	-2.2458	-2.6437	-2.1875	-2.7271	-139.408	93.204	68.754	120.445	65.391	160.786	150.758	104.323	-56.960	-90.968	140.305	-163.850	160.948	144.959	57.436	69.285	0.0015535	0.00089744	0.00027709	799	7.5842e-06	5.6797e-06	1008	358.1	2.4745e-06	1.2425e-05	509.12	236.12	162.51	88.751	6.2162e-06	126.95	0.00069686	0.0006226	0.00017463	730.6	6.564e-06	6.4982e-06	920.3	328.17	6.6962e-06	6.7927e-06	465.06	215.14	149.33	81.897	6.9061e-06	116.45	162.624	-62.414	-77.575	-159.911	-81.403	-4.617	-161.668	-154.966	-14.855	-1.193	-157.457	-153.919	-151.781	-146.059	-13.981	-149.285	-8191	255	
1172.482	1	1	0	0	0.30797	0.15091	0.073504	0.17318	0.19404	0.087008	0.068525	0.27372	0.11684	0.25988	0.34349	0.26764	0.043838	0.11642	0.064905	0.34962	-2.0187	-2.1312	-2.8146	-2.25	-2.15	-2.5417	-2.1854	-2.5604	-2.4813	-2.1437	-2.7417	-2.6229	-2.3312	-2.5563	-2.0292	-2.5604	36.889	-118.586	-18.540	-161.476	-110.563	67.396	163.248	-138.756	59.617	-138.510	-164.601	153.251	105.125	117.648	177.790	125.964	0.0014979	0.0012813	0.00031377	796.33	5.0064e-06	1.0094e-05	1001.5	356.55	5.7288e-06	6.4878e-06	510.37	234.93	162.06	89.784	1.0195e-05	127.01	0.00071533	0.0006336	0.00017204	728.8	6.8001e-06	6.9591e-06	916.96	325.89	6.9073e-06	6.96e-06	465.34	214.38	149.33	82.214	6.9387e-06	116.88	162.269	-74.051	-86.932	-160.327	78.884	-15.353	-161.571	-155.036	-78.153	16.675	-157.314	-153.945	-151.722	-145.543	-63.900	-149.514	-8191	255	
1172.580	1	1	0	0	0.22918	0.10452	0.12329	0.25812	0.12188	0.010309	0.25818	0.31838	0.032471	0.10885	0.52936	0.2632	0.25614	0.13937	0.35866	0.3751	-2.1083	-2.0208	-2.4667	-2.2938	-2.2687	-2.6167	-2.0979	-2.4208	-2.5875	-2.1542	-2.4479	-2.2562	-2.2792	-2.8083	-2.2021	-2.5979	31.963	-26.149	-139.205	-127.003	-157.200	-80.393	150.481	23.754	14.899	165.683	125.252	-138.515	132.532	-139.249	23.314	72.183	0.0016117	0.00056745	0.00023163	799.51	9.0339e-06	6.8025e-06	1002.8	356.82	3.0449e-06	7.1149e-06	515.76	236.76	163.88	90.134	9.0865e-06	128.84	0.00072132	0.00064638	0.00017328	731.93	6.8477e-06	6.8499e-06	921	327.41	6.8375e-06	6.8404e-06	469.17	216.47	150.59	82.861	6.7319e-06	118	161.996	-82.523	-91.622	-160.277	-46.766	-5.707	-161.866	-154.864	-23.872	-69.875	-157.688	-154.170	-151.376	-146.002	-100.074	-149.336	-8191	255	
1172.699	1	1	0	0	0.13483	0.29002	0.077754	0.036961	0.11019	0.02045	0.08393	0.30441	0.29264	0.18623	0.11543	0.196	0.26959	0.14241	0.096097	0.027083	-1.8479	-2	-2.4062	-2.3146	-2.1729	-2.6333	-2.3063	-2.3542	-2.6	-2.3125	-2.3917	-2.4333	-2.3625	-2.7062	-2.1833	-2.5812	74.673	-36.252	57.007	137.625	183.420	25.585	-133.934	146.225	-3.905	15.208	-134.270	104.080	168.711	179.650	-100.111	155.310	0.0014513	0.0010654	0.00025604	803.16	9.1311e-06	1.0153e-05	1006	359.55	1.3109e-05	1.4182e-06	511.02	234.95	162.34	89.227	1.0064e-05	127.83	0.00071962	0.00062477	0.00017382	734.17	6.8673e-06	6.8622e-06	922.2	329.54	6.8103e-06	6.9093e-06	466.1	215.12	149.18	82.135	6.8293e-06	116.87	168.552	-53.286	-80.685	-159.898	-43.018	-64.224	-161.923	-155.171	-29.897	95.044	-157.960	-154.200	-151.646	-145.819	-68.277	-149.483	-8191	255	
1172.795	1	1	0	0	0.094013	0.099679	0.087916	0.19907	0.044533	0.2105	0.19231	0.099191	0.17713	0.21492	0.19957	0.32859	0.31043	0.082408	0.45385	0.28231	-2.0729	-1.8521	-2.2854	-2.5312	-2.0229	-2.4292	-2.3479	-2.325	-2.5438	-2.1583	-2.3792	-2.4813	-2.275	-2.4521	-2.1583	-2.1771	84.006	122.996	-108.163	-77.039	78.506	174.745	81.495	85.891	156.822	-7.829	-171.765	183.904	75.193	64.636	-155.580	104.707	0.0015165	0.00031502	0.00039019	797.38	6.0448e-06	1.0014e-05	1005.6	358.69	1.0069e-05	1.6321e-05	508.08	233.08	160.91	88.914	6.2099e-06	125.41	0.00072548	0.00063422	0.00017524	732.05	6.8024e-06	6.8074e-06	918.9	327.45	6.8761e-06	6.9741e-06	462.63	213.04	147.76	81.345	7.01e-06	115.55	168.027	170.431	-76.413	-159.944	-35.413	-7.712	-161.700	-155.335	-49.714	-30.763	-157.489	-153.954	-152.000	-145.874	-62.118	-149.525	-8191	255	
1172.891	1	1	0	0	0.067647	0.13414	0.066266	0.35745	0.093777	0.013692	0.21037	0.12404	0.1164	0.20057	0.40472	0.44506	0.45958	0.29357	0.32633	0.1327	-2.2479	-2.1479	-2.1937	-2.2333	-2.0271	-2.5292	-2.3708	-2.2667	-2.525	-2.2729	-2.4896	-2.8042	-2.2062	-2.3708	-2.3292	-2.5625	183.861	-8.214	115.741	150.664	-118.674	157.535	90.454	112.735	102.810	57.680	99.008	162.754	154.821	151.285	96.390	104.266	0.0014842	0.00079995	0.00010575	790.55	7.5219e-06	1.5552e-05	1003.6	354.02	3.4068e-06	7.5307e-06	504.96	232.21	160.45	87.639	1.0262e-05	125.57	0.00071641	0.00064346	0.00017772	725.46	6.9676e-06	7.0292e-06	916.18	324.79	6.9709e-06	6.9637e-06	462.02	212	147.12	80.802	7.1339e-06	115	164.383	-34.685	-113.327	-160.506	-38.959	-25.282	-161.547	-155.148	-40.281	-37.990	-157.442	-153.920	-151.640	-145.730	-64.315	-149.490	-8191	255	
1173.012	1	1	0	0	0.1323	0.14132	0.21158	0.24524	0.31223	0.048204	0.2303	0.13051	0.083166	0.063798	0.11543	0.23371	0.33577	0.31286	0.18694	0.31453	-2.1583	-2.0958	-2.1562	-2.4521	-2.2417	-2.65	-2.5396	-2.1729	-2.3937	-2.3021	-2.5792	-2.7313	-2.0375	-2.7625	-2.5833	-2.4271	-146.676	123.877	-2.024	151.454	94.530	-0.879	182.588	78.048	-11.237	95.869	-148.404	-158.327	158.640	-164.303	-138.135	165.648	0.0014961	0.00018787	0.00034201	793.41	2.8904e-06	1.0439e-05	990.92	352.47	5.0925e-06	1.622e-05	506.08	230.54	158.87	86.991	7.1694e-06	124.36	0.00070657	0.00063667	0.00017667	723.67	6.9298e-06	6.9798e-06	911.35	323.63	7.0443e-06	7.0135e-06	459.3	210.95	145.66	80.144	7.2069e-06	114.31	169.186	-100.192	-106.595	-160.160	-36.792	-49.224	-161.614	-155.019	-74.997	-32.515	-157.719	-154.016	-151.832	-145.621	-51.691	-149.451	-8191	255	
1173.084	1	1	0	0	0.079722	0.16231	0.15327	0.20739	0.16345	0.20432	0.081052	0.26548	0.33528	0.27047	0.23748	0.25211	0.2652	0.19806	0.077496	0.33272	-1.9229	-2.3792	-2.1063	-2.4458	-2.0354	-2.5271	-2.5604	-2.2042	-2.6771	-2.1312	-2.3792	-2.8146	-2.1854	-2.4	-2.5021	-2.3688	107.265	-4.628	-141.745	173.634	-167.276	160.927	-97.536	91.562	-88.033	-38.078	148.067	158.831	133.833	144.740	-97.524	74.262	0.0014909	0.00058207	0.00027446	787.19	3.0586e-06	8.3604e-06	994.53	353.28	1.5827e-05	8.7589e-06	504.87	231.67	158.15	87.099	8.7539e-06	123.69	0.00072623	0.00064691	0.0001822	720.21	6.9456e-06	7.1304e-06	911.85	322.69	6.9017e-06	7.0862e-06	460.25	211.51	145.76	80.13	7.154e-06	113.93	170.194	-94.209	-68.693	-159.995	23.961	1.375	-161.466	-155.118	-45.600	-33.873	-157.404	-153.911	-151.484	-145.500	-66.359	-149.534	-8191	255	
1173.180	1	1	0	0	0.091085	0.11359	0.23664	0.20203	0.11332	0.224	0.1704	0.16336	0.2389	0.036749	0.087528	0.21757	0.25259	0.29103	0.093722	0.21822	-2.0021	-2.2854	-2.3688	-2.7354	-2.0771	-2.2167	-2.5542	-1.9417	-2.6792	-2.3292	-2.4354	-2.7562	-2.3604	-2.4708	-2.4188	-2.425	104.059	-55.092	-151.282	-138.867	36.508	149.452	-130.897	177.826	45.386	-129.836	80.943	90.788	118.807	131.746	-66.712	158.489	0.001502	0.0007089	0.00033264	786.52	1.1475e-05	9.2434e-06	993.3	350.95	6.3497e-06	1.0629e-05	503.26	230.37	158.4	86.737	4.93e-06	123.96	0.00072998	0.00065823	0.00018247	720.58	6.9801e-06	7.2646e-06	908.76	321.04	7.1037e-06	7.1603e-06	457.66	210.31	145.86	79.942	7.1944e-06	113.78	163.507	-80.026	-75.196	-160.145	-26.876	-28.209	-161.540	-154.841	10.152	-61.659	-157.533	-153.761	-151.622	-145.866	-68.457	-149.369	-8191	255	
1173.300	1	1	0	0	0.23043	0.15215	0.30825	0.18335	0.11235	0.15892	0.45508	0.13923	0.164	0.15915	0.19751	0.072478	0.25374	0.37163	0.15901	0.21491	-2.0542	-2.4062	-1.8771	-2.5542	-2.1854	-2.4125	-2.4896	-2.1479	-2.4958	-2.3937	-1.9917	-2.5938	-2.3958	-2.4042	-2.5625	-2.3896	-82.958	-32.259	68.065	178.333	22.449	51.595	100.475	35.074	14.282	-74.116	183.045	-155.052	92.158	164.692	-5.985	122.418	0.0015751	0.00080333	0.00022432	790.25	9.2675e-06	1.173e-05	1000.8	352.83	2.6818e-06	2.8124e-06	502.26	231.47	160.05	87.098	6.5706e-06	124.08	0.00073992	0.00066005	0.00018435	724.99	7.0932e-06	7.0915e-06	914.2	323.06	7.251e-06	7.3959e-06	460.18	211.56	147.09	80.478	7.4551e-06	114.34	162.672	-138.376	-90.371	-159.784	-50.021	37.587	-161.685	-155.226	-33.155	28.746	-157.666	-153.761	-151.598	-145.575	-98.356	-149.380	-8191	255	
1173.395	1	1	0	0	0.12455	0.24814	0.2439	0.15984	0.035637	0.21878	0.44634	0.175	0.26302	0.11507	0.085107	0.31908	0.18007	0.35456	0.19797	0.51356	-1.95	-2.25	-1.9979	-2.8167	-2.225	-2.1	-2.6688	-2.4104	-2.3937	-2.4292	-2.1167	-2.8083	-2.5875	-2.2313	-2.4604	-2.4437	-125.109	98.275	-59.739	40.949	148.937	-99.442	115.507	95.940	51.504	126.333	-58.658	155.310	180.826	152.294	-137.929	128.833	0.0013718	0.00098792	0.00031195	796.16	9.4869e-06	1.6255e-05	1003.8	354.53	4.8833e-06	7.5795e-06	510.07	234.99	163.02	89.063	8.1862e-06	126.76	0.00075359	0.00068632	0.00018714	728.99	7.3998e-06	7.5038e-06	918.48	324.85	7.3645e-06	7.2945e-06	465.38	214.56	149.52	82.063	7.4246e-06	116.8	167.622	-83.936	-84.197	-159.828	-67.558	0.467	-161.747	-155.415	-62.717	-36.697	-157.543	-153.714	-152.131	-145.766	-16.455	-149.137	-8191	255	
1173.491	1	1	0	0	0.095907	0.12134	0.16882	0.070746	0.20804	0.088751	0.36343	0.06876	0.011522	0.17135	0.12202	0.36185	0.12308	0.28503	0.14943	0.19173	-1.9188	-2.55	-2.2083	-2.5021	-2.1167	-2.0729	-2.7125	-2.5938	-2.2	-2.6042	-2.2083	-2.6208	-2.4875	-2.2854	-2.6063	-2.4792	-33.033	91.923	-27.017	110.254	34.633	161.374	153.276	66.454	-130.412	-75.267	45.675	152.286	110.043	-173.158	11.936	156.541	0.0015155	0.00094376	0.00015946	809.94	5.0393e-06	6.0166e-06	1017.9	360.78	7.3359e-06	5.5378e-06	517.57	237.4	164.38	89.741	4.9129e-06	127.15	0.00074969	0.00068393	0.00018772	738.24	7.2003e-06	7.5114e-06	930	330.22	7.3055e-06	7.3477e-06	469.84	216.74	150.73	82.5	7.3155e-06	116.86	166.418	-29.673	-58.921	-160.194	-80.185	26.659	-161.465	-155.294	-67.108	-28.841	-157.753	-153.869	-151.758	-145.673	-81.030	-149.496	-8191	255	
1173.612	1	1	0	0	0.4006	0.15654	0.23564	0.29994	0.079732	0.33378	0.027469	0.19847	0.052745	0.26803	0.32169	0.055723	0.057131	0.14616	0.29174	0.40228	-1.8125	-2.5979	-2.0458	-2.4125	-2.5417	-2.0542	-2.5771	-2.2417	-2.2521	-2.7708	-2.1688	-2.3667	-2.5167	-2.2854	-2.6875	-2.4562	111.664	-162.020	-96.340	67.420	-130.119	46.254	87.388	77.961	-139.513	-114.372	174.631	-112.276	-104.320	-144.336	-163.386	161.809	0.0016261	0.0011283	0.00024715	794.39	8.6173e-06	1.4722e-05	1008.5	359.66	9.903e-06	1.0729e-05	515.75	238.01	165.53	89.915	7.1034e-06	126.82	0.00073344	0.0006716	0.00017999	733.28	7.1803e-06	7.2458e-06	926.91	329.35	7.2332e-06	7.1239e-06	469.38	217.32	151.68	82.621	7.2005e-06	116.63	165.094	-92.652	-63.361	-160.001	-33.329	13.165	-161.541	-155.407	-58.856	-31.931	-157.702	-153.709	-151.398	-145.752	-71.197	-149.348	-8191	255	
1173.708	1	1	0	0	0.13368	0.027191	0.15431	0.19719	0.18066	0.10439	0.15459	0.054516	0.12817	0.14428	0.13822	0.33638	0.28406	0.24982	0.15681	0.3012	-1.7396	-2.5687	-1.9937	-2.4146	-2.4521	-2.2208	-2.7396	-2.3896	-2.3417	-2.4437	-2.2958	-2.5625	-2.7125	-2.1542	-2.5333	-2.6542	16.147	148.879	40.030	166.392	155.136	-119.878	155.595	139.531	124.688	-77.117	34.305	-123.784	-169.503	159.539	-16.891	165.548	0.0015504	0.00053792	0.00043081	800.56	6.4273e-06	1.734e-05	1002.4	357.35	5.7793e-06	8.7127e-06	509.81	235.66	163.74	88.685	9.8082e-06	125.82	0.00073792	0.00063786	0.00018355	734.5	7.1189e-06	6.9979e-06	920.95	327.94	7.1413e-06	6.9863e-06	464.69	214.82	149.86	81.7	6.992e-06	115.75	166.953	-54.757	-76.808	-159.954	-33.970	-6.056	-161.750	-155.086	-58.117	-13.801	-157.592	-153.943	-151.928	-145.652	-59.951	-149.303	-8191	255	
1173.779	1	1	0	0	0.21183	0.19008	0.2015	0.15336	0.18752	0.25074	0.26138	0.21242	0.28729	0.13262	0.26571	0.34317	0.1365	0.44618	0.22741	0.17122	-1.7396	-2.4604	-2.2229	-2.5542	-2.4417	-2.0521	-2.4917	-2.3521	-2.2833	-2.8083	-2.5187	-2.4313	-2.6	-2.1146	-2.5438	-2.8417	-19.970	-163.307	127.462	132.793	-84.717	-150.209	148.341	171.034	36.810	69.408	85.457	94.006	81.972	-170.199	-82.347	112.469	0.0015876	0.0002728	9.0503e-05	805.89	6.8963e-06	1.0601e-05	1005.2	356.68	1.4273e-05	1.2877e-05	506.15	234.45	162.99	89.091	9.4167e-06	126.11	0.00072402	0.00063932	0.00018173	734.11	6.9586e-06	6.9385e-06	922.01	326.93	7.1656e-06	7.1141e-06	463.77	214.36	149.57	81.894	7.1715e-06	115.94	168.564	-95.266	-98.889	-159.707	-50.282	-37.400	-161.569	-155.121	-50.424	-16.170	-157.483	-153.988	-151.724	-145.678	-82.447	-149.243	-8191	255	
1173.900	1	1	0	0	0.20846	0.1925	0.07427	0.308	0.12732	0.12673	0.26585	0.36851	0.036168	0.093642	0.21008	0.4236	0.23275	0.28529	0.38057	0.19233	-1.8625	-2.7021	-2.0792	-2.3917	-2.5729	-2.3521	-2.5062	-2.4896	-2.1188	-2.6875	-2.525	-2.2938	-2.6271	-2.5	-2.5042	-2.9021	-8.935	-5.162	-107.547	117.028	146.700	-37.092	142.465	166.480	15.935	25.064	101.275	171.343	149.121	105.640	-127.770	99.328	0.0014534	0.0010353	0.00022048	803.08	4.0457e-06	5.0427e-06	1006.6	356.24	7.8653e-06	9.8073e-06	508.96	233.87	162.36	88.7	1.0617e-05	125.17	0.00073142	0.00065578	0.00017895	733.79	7.0056e-06	7.0615e-06	923.34	327.31	7.0323e-06	6.9534e-06	464.36	213.79	149.33	81.558	7.2191e-06	115.06	164.244	-66.502	-41.073	-159.770	-78.561	7.233	-161.427	-154.977	-50.831	-2.012	-157.472	-153.596	-151.780	-145.516	-39.643	-149.334	-8191	255	
1173.996	1	1	0	0	0.25901	0.22106	0.0013774	0.18424	0.1459	0.23963	0.21925	0.17772	0.15629	0.13737	0.23785	0.29876	0.29958	0.22705	0.077768	0.34428	-1.6479	-2.4854	-2.1063	-2.1854	-2.6292	-2.3854	-2.7146	-2.6354	-2.125	-2.5021	-2.4021	-2.3542	-2.8979	-2.5042	-2.2833	-2.5604	105.303	-75.081	180.000	170.952	-55.248	143.705	183.689	124.987	-17.207	123.553	52.917	138.812	151.031	-160.798	112.788	107.037	0.0015183	0.00065509	0.00037263	799.16	7.5871e-06	2.4119e-06	1001	354.81	1.1791e-05	7.9071e-06	500.28	231.01	160.77	87.607	9.21e-06	124.4	0.00072379	0.00064223	0.00018436	732.73	7.0833e-06	6.9393e-06	918.23	324.88	7.0749e-06	7.3003e-06	459.53	211.06	147.65	80.555	7.1274e-06	114.08	169.617	-72.716	-63.159	-160.027	-75.209	-62.849	-161.402	-155.069	-38.304	-59.332	-157.729	-153.851	-151.575	-145.779	-33.893	-149.170	-8191	255	
1174.092	1	1	0	0	0.31128	0.26124	0.22496	0.17116	0.15348	0.066732	0.22366	0.11018	0.095398	0.16326	0.23473	0.10632	0.13703	0.42188	0.019892	0.085117	-1.5562	-2.3917	-2.4083	-2.3292	-2.6292	-2.2562	-2.0979	-2.6854	-2.0729	-2.4479	-2.4417	-2.4667	-2.8563	-2.4229	-2.2854	-2.8792	-129.913	151.957	149.223	-49.455	118.816	89.802	134.594	-100.638	-100.219	-163.384	110.455	165.543	-141.455	-171.190	-150.210	156.773	0.0015765	0.00096299	0.00019775	794.66	4.2629e-06	1.0729e-05	997.84	352.96	1.0278e-05	1.0564e-05	503.61	231.5	161.22	87.905	7.1991e-06	124.75	0.00071719	0.00065989	0.00018251	729.35	7.0411e-06	7.1993e-06	915.07	323.5	7.0947e-06	7.1614e-06	458.73	211.66	147.75	80.7	7.2566e-06	114.5	168.714	-53.809	-25.574	-160.150	-54.557	-58.496	-161.654	-155.185	-69.620	-77.931	-157.936	-153.856	-151.947	-145.756	-51.327	-149.457	-8191	255	
1174.188	1	1	0	0	0.20832	0.14046	0.30689	0.22546	0.032058	0.11157	0.28767	0.203	0.20259	0.089235	0.222	0.14704	0.24114	0.20193	0.16487	0.24725	-1.9542	-2.4521	-2.4396	-2.0479	-2.3	-2.3146	-2.3937	-2.7333	-2.0917	-2.2	-2.7042	-2.3396	-2.9396	-2.5438	-2.3312	-2.7521	-140.542	59.399	120.832	178.830	75.771	-2.122	34.969	144.830	115.755	123.916	138.683	-75.910	180.992	151.185	-57.779	115.930	0.0014566	0.00066179	0.00015659	802.57	7.0006e-06	8.3651e-06	1007.7	358.95	1.115e-05	9.0963e-06	511.61	235.83	164.03	88.987	1.0964e-05	126.93	0.00073144	0.00064042	0.00018294	734.87	6.8935e-06	6.9556e-06	924.1	328.13	7.0918e-06	7.2091e-06	466.23	215.32	150.27	82.165	7.1449e-06	116.5	165.363	-65.791	-84.570	-160.011	11.982	-9.364	-161.529	-155.145	-47.939	-20.568	-157.388	-153.839	-151.617	-145.699	-25.169	-149.410	-8191	255	
1174.307	1	1	0	0	0.20511	0.2158	0.067232	0.27257	0.2799	0.06107	0.042633	0.13656	0.33421	0.15642	0.20988	0.33901	0.35141	0.44869	0.08634	0.28099	-1.5583	-2.3167	-2.4917	-2.1562	-2.4813	-2.4792	-2.6271	-2.8396	-2.2687	-2.5229	-2.5125	-2.4042	-2.8083	-2.6333	-2.1667	-2.8708	-19.938	-68.677	77.268	94.849	79.489	12.982	92.848	84.718	165.708	-52.094	167.977	150.349	145.590	183.432	-126.991	117.278	0.0014595	0.00024053	0.00018825	804.43	5.7305e-06	4.6638e-06	1018.1	363.91	7.4773e-06	1.6916e-05	512.78	237.84	165.72	89.822	4.0668e-06	127.67	0.00072888	0.0006335	0.00018288	737.41	6.9667e-06	6.9799e-06	930.58	332.12	6.9686e-06	7.0742e-06	469.27	217.42	151.72	82.647	7.128e-06	117.18	167.582	-172.398	5.850	-159.551	-53.684	-54.931	-162.036	-155.099	-50.311	-19.495	-157.589	-153.930	-151.513	-145.838	-76.503	-149.443	-8191	255	
1174.379	1	1	0	0	0.098962	0.13792	0.21034	0.05974	0.21114	0.071867	0.28311	0.16328	0.45026	0.34514	0.0902	0.33074	0.10756	0.37113	0.27344	0.32866	-1.8438	-1.9562	-2.4396	-2.3396	-2.475	-2.3563	-2.5083	-2.7375	-2.3479	-2.2354	-2.5646	-2.2021	-2.5604	-2.6937	-2	-2.6188	-105.251	-5.886	-83.760	162.400	-136.410	-70.816	127.137	100.319	125.199	51.484	-164.809	124.607	181.805	167.845	98.330	91.495	0.0015396	0.00052935	0.00040727	804.17	7.3017e-06	1.617e-05	1011.1	359.64	1.284e-05	6.7233e-06	511.4	236.21	163.95	89.237	8.9568e-06	126.35	0.00073622	0.00064516	0.00018147	736.63	6.9236e-06	7.0696e-06	925.54	329.6	7.1121e-06	7.0089e-06	466.58	215.73	150.74	82.024	6.963e-06	116.11	165.567	-84.356	-82.332	-159.920	-52.427	-7.708	-161.610	-155.327	-23.273	-20.712	-157.741	-153.852	-151.840	-145.930	-84.695	-149.377	-8191	255	
1174.475	1	1	0	0	0.21491	0.074	0.057535	0.10127	0.15094	0.14112	0.24971	0.23632	0.15556	0.15634	0.13178	0.33071	0.3031	0.13009	0.10063	0.2719	-1.9583	-2.2167	-2.4271	-2.475	-2.3542	-2.3833	-2.0687	-2.7604	-2.25	-2.2167	-2.6583	-2.4104	-2.5271	-2.6437	-2.0271	-2.9771	10.848	-90.901	-33.383	-93.189	-27.462	171.603	175.445	135.322	-108.371	-21.402	159.178	144.770	174.644	-162.048	156.678	120.663	0.0015376	0.00076564	0.00031026	798.94	2.3401e-06	1.0572e-05	1008.2	359.14	1.0538e-05	1.1761e-05	508.59	235.38	163.47	88.464	3.8499e-06	126.24	0.00072455	0.00063864	0.00017775	734.39	6.9487e-06	6.8642e-06	923.42	328.82	6.8422e-06	6.8682e-06	464.99	214.84	149.84	81.611	6.9043e-06	115.93	165.187	-48.641	-67.486	-159.967	176.389	-12.181	-161.757	-155.249	-78.466	-45.459	-158.025	-153.658	-151.555	-145.625	-32.660	-149.265	-8191	255	
1174.573	1	1	0	0	0.10831	0.073516	0.10694	0.27598	0.1498	0.070268	0.17035	0.091365	0.19981	0.08472	0.14413	0.25477	0.10457	0.18313	0.095053	0.28458	-1.9896	-1.8729	-2.6604	-2.5229	-2.2104	-2.5563	-2.5125	-2.4417	-2.3396	-2.2062	-2.6854	-2.5542	-2.5333	-2.675	-2.1479	-2.7771	-80.620	-156.363	-97.694	125.014	126.355	66.531	110.706	127.910	-131.869	119.385	-142.680	164.197	-154.991	177.902	-158.572	116.841	0.0014629	0.00097231	0.00019448	806.36	5.7909e-06	9.197e-06	1011.4	360.4	8.0029e-06	1.194e-05	515.68	237.6	164.94	89.632	7.3971e-06	125.98	0.00071894	0.00061908	0.00017429	738.04	6.882e-06	6.7635e-06	928.29	330.5	6.8324e-06	6.8303e-06	468.18	217.18	151.15	82.386	6.8639e-06	116.2	166.343	-122.103	-45.055	-159.744	-20.631	0.501	-161.511	-154.932	-56.339	-50.859	-157.581	-153.919	-151.679	-145.834	-28.053	-149.329	-8191	255	
1174.692	1	1	0	0	0.13594	0.24973	0.18009	0.10584	0.25942	0.096409	0.27291	0.049667	0.024923	0.1637	0.25042	0.39483	0.033062	0.20492	0.081022	0.26974	-2.1813	-2.2583	-2.4562	-2.2292	-2.4062	-2.6125	-1.9167	-2.3396	-2.3708	-2.1	-2.5875	-2.4042	-2.2542	-2.5979	-2.0563	-2.6188	-62.354	-125.938	152.708	67.924	-141.873	160.484	140.474	80.505	104.975	-155.958	-166.131	125.179	-166.723	126.965	4.829	154.671	0.0016834	0.00052586	0.00016591	806.04	1.0187e-05	1.1785e-05	1008.4	357.59	7.9966e-06	1.0727e-05	504.05	235.3	162.01	87.539	3.6176e-06	125.15	0.00070659	0.00062692	0.00016743	736.7	6.8168e-06	6.7242e-06	923.57	326.51	6.7195e-06	6.7392e-06	461.89	213.55	148.72	80.615	6.8941e-06	114.42	167.491	-82.377	-68.753	-160.157	-47.976	-15.860	-161.811	-155.026	-56.653	-30.866	-157.564	-153.611	-151.546	-145.801	-1.007	-149.287	-8191	255	
1174.788	1	1	0	0	0.055025	0.042952	0.27456	0.23794	0.12846	0.22389	0.27288	0.24689	0.060641	0.10705	0.23907	0.35294	0.30107	0.37108	0.014928	0.29798	-2.0979	-2.2083	-2.4771	-2.5271	-2.0167	-2.6646	-2.4542	-2.4271	-2.4167	-2.1542	-2.6208	-2.6792	-2.4125	-2.8688	-2.3063	-2.7875	173.828	142.500	-168.500	152.312	-29.394	115.616	136.081	34.255	91.952	127.342	-170.413	147.392	165.041	155.015	-137.566	108.881	0.0015598	0.00048351	0.00030461	798.32	7.3571e-06	1.2744e-05	999.91	355.44	8.1092e-06	6.8509e-06	503.75	230.13	159.31	86.574	6.9271e-06	123.88	0.00071757	0.00061856	0.00017075	732.47	6.7098e-06	6.7039e-06	916.62	324.42	6.9251e-06	6.809e-06	458.57	210.61	146.52	79.838	6.8295e-06	113.73	167.945	-103.756	-56.864	-159.693	-50.615	-21.886	-161.551	-155.007	-37.985	15.909	-157.363	-153.740	-151.584	-145.688	-66.124	-149.234	-8191	255	
1174.884	1	1	0	0	0.05159	0.20634	0.17774	0.18036	0.20507	0.20282	0.29688	0.054588	0.21254	0.22621	0.2584	0.33952	0.25155	0.44729	0.024432	0.2541	-2.1125	-1.8729	-2.4542	-2.7021	-2.1604	-2.4646	-2.5604	-2.3042	-2.5146	-2.425	-2.575	-2.8146	-2.3229	-2.5771	-2.3167	-2.6875	-27.692	-51.125	-115.987	152.046	30.557	58.285	97.075	-68.196	-150.500	20.793	149.807	130.168	138.236	163.420	132.075	104.326	0.0015003	0.00069658	0.00017189	794.81	7.9785e-06	1.5278e-06	1012.9	356.07	7.25e-06	6.2372e-06	509.1	233.3	161.31	87.564	1.8117e-06	124.36	0.00071177	0.00062661	0.00017732	731.08	6.7501e-06	6.7696e-06	924.61	326.57	6.8409e-06	6.6836e-06	462.78	213.08	148.39	80.682	6.8144e-06	114.5	165.078	-87.005	-75.413	-160.244	-44.461	-7.152	-161.668	-155.441	-65.544	-11.681	-157.375	-153.733	-151.386	-145.773	-28.207	-149.107	-8191	255	
1174.980	1	1	0	0	0.14323	0.21931	0.13143	0.19922	0.16156	0.19898	0.24451	0.20687	0.050048	0.21202	0.30789	0.12697	0.10948	0.26834	0.17588	0.29744	-2.3312	-2.1437	-2.6063	-2.6021	-2.3229	-2.6146	-2.5354	-2.3104	-2.6188	-2.1021	-2.4354	-2.4854	-2.3063	-2.8104	-2.25	-2.5563	38.091	79.234	183.431	-160.284	-85.172	32.721	124.358	173.427	-173.262	108.576	167.104	111.280	-91.715	-153.092	30.950	109.042	0.0014796	0.00097697	0.00024778	795.2	9.318e-06	1.7411e-05	1004.5	355.93	3.9043e-06	1.8248e-06	503.68	232.64	161.1	87.769	4.8142e-06	125.11	0.00070352	0.00061476	0.00017433	730.53	6.7944e-06	6.6898e-06	920.5	325.32	6.7923e-06	6.6887e-06	461.87	212.67	147.94	80.755	6.6871e-06	114.82	168.362	-58.815	-64.274	-160.020	-17.062	-40.364	-161.762	-155.420	-94.203	-8.789	-157.405	-154.091	-151.325	-145.600	-83.669	-149.520	-8191	255	
1175.076	1	1	0	0	0.25278	0.22909	0.082129	0.062565	0.079328	0.21301	0.21497	0.29838	0.026914	0.018378	0.24613	0.2731	0.052963	0.3485	0.042758	0.38031	-2.1708	-2.2687	-2.4375	-2.7833	-2.1958	-2.5479	-2.7479	-2.4625	-2.475	-2.2521	-2.5292	-2.7938	-2.1458	-2.6896	-2.5854	-2.3646	-168.460	44.109	84.124	159.968	-153.711	-172.045	73.496	137.566	-86.143	-98.941	173.933	-164.389	11.163	87.098	-149.539	184.011	0.0015198	0.001022	0.00019367	801.5	5.2595e-06	8.2193e-06	1007.4	351.08	1.2896e-05	5.1119e-06	499.86	229.65	159.07	86.676	6.7283e-06	123.3	0.00070124	0.00061393	0.0001685	731.33	6.5911e-06	6.6676e-06	919.88	322.71	6.592e-06	6.6961e-06	457.36	209.9	146.03	79.713	6.6274e-06	113.16	165.155	-88.935	-78.127	-160.151	28.096	-68.080	-161.963	-155.183	-65.436	-44.521	-157.534	-153.803	-151.783	-145.741	-58.438	-149.348	-8191	255	
1175.173	1	1	0	0	0.15056	0.087583	0.16201	0.056061	0.21937	0.36999	0.13267	0.057427	0.30538	0.10092	0.23429	0.10104	0.21689	0.16305	0.20265	0.16633	-2.0333	-2.3438	-2.1521	-2.7604	-2.2104	-2.5271	-2.6063	-2.3937	-2.4354	-2.3125	-2.5333	-2.8229	-2.1833	-2.7479	-2.5729	-2.4042	168.929	25.242	110.945	-123.948	-52.768	114.234	108.212	93.419	141.347	52.789	-116.920	134.193	160.218	-159.158	183.496	90.696	0.0015237	0.00056847	0.00035361	796.18	1.0638e-05	9.4275e-06	1006.2	353.26	9.0963e-06	8.2794e-06	503.38	230.78	159.07	86.831	3.4222e-06	123.28	0.00068602	0.00061033	0.00017172	729.62	6.5969e-06	6.5521e-06	918.28	323.52	6.5175e-06	6.6691e-06	458.36	210.65	146.3	79.844	6.5911e-06	113.17	163.877	-30.711	-110.110	-160.156	-32.095	-63.664	-161.639	-155.157	-49.294	-58.070	-157.568	-153.819	-151.329	-145.586	-80.051	-149.187	-8191	255	
1175.293	1	1	0	0	0.20153	0.19729	0.28067	0.12016	0.13883	0.032849	0.2362	0.20394	0.066394	0.049003	0.34591	0.23526	0.19819	0.29904	0.27131	0.14315	-2.0187	-2.4396	-2.1562	-2.6833	-2.1813	-2.3042	-2.4458	-2.2917	-2.5104	-2.2021	-2.4542	-2.7042	-2.4062	-2.6854	-2.4562	-2.3083	158.827	26.429	-70.643	-144.051	-15.505	107.455	90.258	119.638	-121.289	-9.697	174.655	163.525	160.408	-116.239	-10.224	64.488	0.0014932	0.00040701	0.00014537	795.22	7.2278e-06	4.4627e-06	1006.7	355.68	1.1558e-05	8.3044e-06	506.21	232.45	160.66	87.242	6.7919e-06	124.34	0.00068943	0.00061583	0.00017225	728.06	6.46e-06	6.6396e-06	919.19	325.48	6.6059e-06	6.5259e-06	462.59	212.61	147.8	80.419	6.7808e-06	113.84	166.343	-104.755	-71.124	-160.174	-79.809	18.467	-161.721	-155.365	-29.702	-32.445	-157.924	-153.752	-151.799	-145.709	-101.271	-149.240	-8191	255	
1175.388	1	1	0	0	0.075424	0.15817	0.073466	0.11528	0.14497	0.16061	0.44666	0.23468	0.43232	0.049314	0.18276	0.14992	0.056868	0.30674	0.12901	0.31598	-2.0542	-2.3771	-2.2208	-2.5687	-2.1646	-2.575	-2.8375	-2.1688	-2.3917	-2.5167	-2.2062	-2.55	-2.4458	-2.7271	-2.5229	-2.1104	101.949	95.917	43.918	138.903	-25.577	160.656	145.949	140.191	-161.274	170.980	-163.327	150.221	104.038	134.841	-52.190	69.876	0.0014564	0.0010506	9.3276e-05	800.68	4.2538e-06	7.6891e-06	1011.7	353.04	1.2328e-05	1.6362e-05	511.35	234.25	162.74	88.209	6.9686e-06	124.77	0.00069622	0.00061765	0.00016873	729.79	6.5155e-06	6.6171e-06	922.59	324.71	6.6304e-06	6.59e-06	464.11	213.65	149.13	81.085	6.5891e-06	114.8	167.551	-75.975	-30.720	-159.844	-19.011	-29.050	-161.674	-154.978	-61.538	-33.339	-157.887	-154.029	-152.021	-145.599	-89.454	-149.424	-8191	255	
1175.484	1	1	0	0	0.13294	0.45218	0.08768	0.099235	0.22542	0.12487	0.042479	0.15343	0.27662	0.070991	0.32314	0.30514	0.24845	0.22471	0.062406	0.36978	-2.0042	-2.4688	-2.1125	-2.6729	-2.2208	-2.3604	-2.7896	-2.3438	-2.5104	-2.4521	-2.3	-2.7583	-2.5542	-2.4646	-2.5042	-2.3104	-93.756	83.264	183.901	56.604	55.018	63.550	-10.765	-127.319	-54.681	-172.677	-156.723	182.110	156.264	171.965	123.984	129.844	0.0014772	0.0011148	0.00023287	797.84	4.3284e-06	5.55e-06	1010.5	357.82	6.9572e-06	1.0266e-05	509.53	235.81	162.75	87.745	4.5666e-06	125.42	0.00068933	0.00061995	0.00016693	733.52	6.5904e-06	6.6341e-06	926.52	327.44	6.5942e-06	6.7739e-06	464.38	214.4	149.41	81.206	6.6563e-06	114.78	161.065	-85.952	-55.985	-160.099	-57.532	53.578	-161.657	-155.208	-51.050	-76.402	-157.401	-154.049	-151.625	-145.726	-42.487	-149.389	-8191	255	
1175.580	1	1	0	0	0.23078	0.31702	0.094606	0.3066	0.22059	0.13345	0.41147	0.57719	0.11441	0.29561	0.19746	0.37598	0.30229	0.21019	0.15593	0.2991	-1.9958	-2.5125	-2.0583	-2.5646	-2.1354	-2.2938	-2.7	-2.3125	-2.3229	-2.6188	-2.2229	-2.6396	-2.4542	-2.2979	-2.6583	-2.2771	26.726	-89.642	107.827	183.389	147.025	123.319	124.054	-140.682	-13.227	-4.284	-128.425	163.424	126.800	157.172	-68.514	31.828	0.0015336	0.0010945	0.00032265	806.23	7.5239e-06	5.1294e-06	1015.3	358.12	7.5713e-06	9.048e-06	508.07	234.98	162.08	88.256	4.9726e-06	124.73	0.00070039	0.0006127	0.00016959	737.15	6.5843e-06	6.657e-06	928.36	328.22	6.693e-06	6.6515e-06	463.96	214.22	148.92	81.05	6.7581e-06	114.49	168.300	-69.945	-53.637	-159.868	-61.216	-61.008	-161.649	-155.257	-91.169	-66.034	-157.718	-153.845	-151.807	-145.577	-47.071	-149.182	-8191	255	
1175.676	1	1	0	0	0.11099	0.15616	0.18726	0.079784	0.093177	0.25894	0.076875	0.32453	0.12796	0.078517	0.13731	0.14895	0.06586	0.3075	0.043869	0.17602	-1.8583	-2.6458	-1.9521	-2.6229	-2.45	-2.0521	-2.6042	-2.5	-2.2854	-2.6208	-2.2812	-2.8271	-2.3333	-2.1771	-2.7146	-2.6958	79.863	-2.473	-103.006	-84.783	116.787	-19.343	160.932	81.972	142.224	-66.047	36.132	72.750	-122.552	173.441	177.198	156.579	0.0015161	0.00074423	0.00036018	800.48	7.6614e-06	1.0654e-05	1008.3	357.39	1.2093e-05	1.6333e-05	515.1	237.81	165.15	89.376	6.7732e-06	127.36	0.00069757	0.00061231	0.00016843	731.8	6.5238e-06	6.7122e-06	922.97	327.16	6.6314e-06	6.5514e-06	466.61	216.08	151.52	82.464	6.5188e-06	116.9	165.658	-79.721	-100.590	-159.960	-24.671	-4.089	-161.719	-155.011	-50.560	-24.579	-157.595	-154.082	-151.402	-145.765	-81.325	-149.329	-8191	255	
#DATA ENDS
