BOXY.EXE: ISS Imagent and Oximeter Data Acquisition Program Version 0.80
Ascii Record File

#ACQ INFORMATION
2  Detector Channels 
16  External MUX Channels 
1  Auxiliary Channels 
5000  Waveform (CCF) Frequency (Hz)
1  Waveforms Skipped 
30  Waveforms Averaged 
1  Cycles Averaged 
16  Acquisitions per Waveform 
10.0806  Updata Rate (Hz) 

#FILE INFORMATION
TRUE -- External MUX Channel results are PARSED.
FALSE -- AC DC and Phase are NOT grouped.
TRUE -- Companion Program Settings File CREATED.
FALSE -- AC data not excluded
FALSE -- DC data not excluded
FALSE -- Phase data not excluded
FALSE -- Auxillary Chn. data not excluded
Tab delimiters

#CALIBRATION STATE
TRUE -- Waveform Calibration Values APPLIED.


#AUX CALIBRATION VALUES
Val Type	aux-1	

Term	1.0000e+00	
Factor	0.0000e+00	


#WF CALIBRATION VALUES
A = Detector Channel
Val Type	A-AC1	A-AC2	A-AC3	A-AC4	A-AC5	A-AC6	A-AC7	A-AC8	A-AC9	A-AC10	A-AC11	A-AC12	A-AC13	A-AC14	A-AC15	A-AC16	A-DC1	A-DC2	A-DC3	A-DC4	A-DC5	A-DC6	A-DC7	A-DC8	A-DC9	A-DC10	A-DC11	A-DC12	A-DC13	A-DC14	A-DC15	A-DC16	A-Ph1	A-Ph2	A-Ph3	A-Ph4	A-Ph5	A-Ph6	A-Ph7	A-Ph8	A-Ph9	A-Ph10	A-Ph11	A-Ph12	A-Ph13	A-Ph14	A-Ph15	A-Ph16	

Term	0.00000e+00	0.00000e+00	0.00000e+00	0.00000e+00	0.00000e+00	0.00000e+00	0.00000e+00	0.00000e+00	0.00000e+00	0.00000e+00	0.00000e+00	0.00000e+00	0.00000e+00	0.00000e+00	0.00000e+00	0.00000e+00	0.00000e+00	0.00000e+00	0.00000e+00	0.00000e+00	0.00000e+00	0.00000e+00	0.00000e+00	0.00000e+00	0.00000e+00	0.00000e+00	0.00000e+00	0.00000e+00	0.00000e+00	0.00000e+00	0.00000e+00	0.00000e+00	0.00000e+00	0.00000e+00	0.00000e+00	0.00000e+00	0.00000e+00	0.00000e+00	0.00000e+00	0.00000e+00	0.00000e+00	0.00000e+00	0.00000e+00	0.00000e+00	0.00000e+00	0.00000e+00	0.00000e+00	0.00000e+00	
Factor	1.00000e+00	1.00000e+00	1.00000e+00	1.00000e+00	1.00000e+00	1.00000e+00	1.00000e+00	1.00000e+00	1.00000e+00	1.00000e+00	1.00000e+00	1.00000e+00	1.00000e+00	1.00000e+00	1.00000e+00	1.00000e+00	1.00000e+00	1.00000e+00	1.00000e+00	1.00000e+00	1.00000e+00	1.00000e+00	1.00000e+00	1.00000e+00	1.00000e+00	1.00000e+00	1.00000e+00	1.00000e+00	1.00000e+00	1.00000e+00	1.00000e+00	1.00000e+00	X	X	X	X	X	X	X	X	X	X	X	X	X	X	X	X	

B = Detector Channel
Val Type	B-AC1	B-AC2	B-AC3	B-AC4	B-AC5	B-AC6	B-AC7	B-AC8	B-AC9	B-AC10	B-AC11	B-AC12	B-AC13	B-AC14	B-AC15	B-AC16	B-DC1	B-DC2	B-DC3	B-DC4	B-DC5	B-DC6	B-DC7	B-DC8	B-DC9	B-DC10	B-DC11	B-DC12	B-DC13	B-DC14	B-DC15	B-DC16	B-Ph1	B-Ph2	B-Ph3	B-Ph4	B-Ph5	B-Ph6	B-Ph7	B-Ph8	B-Ph9	B-Ph10	B-Ph11	B-Ph12	B-Ph13	B-Ph14	B-Ph15	B-Ph16	

Term	0.00000e+00	0.00000e+00	0.00000e+00	0.00000e+00	0.00000e+00	0.00000e+00	0.00000e+00	0.00000e+00	0.00000e+00	0.00000e+00	0.00000e+00	0.00000e+00	0.00000e+00	0.00000e+00	0.00000e+00	0.00000e+00	0.00000e+00	0.00000e+00	0.00000e+00	0.00000e+00	0.00000e+00	0.00000e+00	0.00000e+00	0.00000e+00	0.00000e+00	0.00000e+00	0.00000e+00	0.00000e+00	0.00000e+00	0.00000e+00	0.00000e+00	0.00000e+00	-1.61556e+02	-1.24365e+02	-1.24460e+02	-1.82575e+02	-7.77226e+01	-7.02735e+01	-1.54563e+02	-1.62015e+02	-7.99118e+01	-7.08945e+01	-1.79593e+02	-1.70828e+02	-1.78793e+02	-1.75846e+02	-8.48453e+01	-1.49068e+02	
Factor	2.31970e-05	1.41556e-04	4.23880e-05	1.51486e-01	1.25884e-06	1.81699e-06	1.63316e-01	6.36777e-02	1.50327e-06	1.86341e-06	9.72382e-02	2.82179e-02	2.41845e-02	8.33549e-03	1.21540e-06	1.19969e-02	3.25825e-06	3.66651e-06	1.02321e-06	7.89026e-02	3.94916e-08	4.01200e-08	7.99932e-02	3.30394e-02	3.96832e-08	4.01801e-08	4.87438e-02	1.42351e-02	1.27408e-02	4.36714e-03	3.97856e-08	6.09645e-03	X	X	X	X	X	X	X	X	X	X	X	X	X	X	X	X	



#DISTANCE SETTINGS
A = Detector Channel
A-1	A-2	A-3	A-4	A-5	A-6	A-7	A-8	A-9	A-10	A-11	A-12	A-13	A-14	A-15	A-16	

2.5000e+00	3.0000e+00	2.5000e+00	3.0000e+00	2.0000e+00	3.0000e+00	1.5000e+00	3.0000e+00	3.0000e+00	3.0000e+00	3.0000e+00	3.0000e+00	3.0000e+00	3.0000e+00	1.5000e+00	3.0000e+00	

B = Detector Channel
B-1	B-2	B-3	B-4	B-5	B-6	B-7	B-8	B-9	B-10	B-11	B-12	B-13	B-14	B-15	B-16	

1.0000e+01	1.0000e+01	1.0000e+01	1.4400e+00	1.0000e+01	1.0000e+01	1.5100e+00	1.9400e+00	1.0000e+01	1.0000e+01	1.9900e+00	2.4900e+00	2.4100e+00	2.9000e+00	1.0000e+01	2.9800e+00	




#DATA BEGINS
time	group	step	mark	flag	A-AC1	A-AC2	A-AC3	A-AC4	A-AC5	A-AC6	A-AC7	A-AC8	A-AC9	A-AC10	A-AC11	A-AC12	A-AC13	A-AC14	A-AC15	A-AC16	A-DC1	A-DC2	A-DC3	A-DC4	A-DC5	A-DC6	A-DC7	A-DC8	A-DC9	A-DC10	A-DC11	A-DC12	A-DC13	A-DC14	A-DC15	A-DC16	A-Ph1	A-Ph2	A-Ph3	A-Ph4	A-Ph5	A-Ph6	A-Ph7	A-Ph8	A-Ph9	A-Ph10	A-Ph11	A-Ph12	A-Ph13	A-Ph14	A-Ph15	A-Ph16	B-AC1	B-AC2	B-AC3	B-AC4	B-AC5	B-AC6	B-AC7	B-AC8	B-AC9	B-AC10	B-AC11	B-AC12	B-AC13	B-AC14	B-AC15	B-AC16	B-DC1	B-DC2	B-DC3	B-DC4	B-DC5	B-DC6	B-DC7	B-DC8	B-DC9	B-DC10	B-DC11	B-DC12	B-DC13	B-DC14	B-DC15	B-DC16	B-Ph1	B-Ph2	B-Ph3	B-Ph4	B-Ph5	B-Ph6	B-Ph7	B-Ph8	B-Ph9	B-Ph10	B-Ph11	B-Ph12	B-Ph13	B-Ph14	B-Ph15	B-Ph16	aux-1	digaux	

1312.858	1	1	0	512	0.29502	0.16298	0.066752	0.13698	0.17219	0.12246	0.11301	0.29374	0.263	0.088291	0.29407	0.054081	0.084904	0.012401	0.07138	0.19639	-2.0146	-2.2812	-2.0687	-2.6229	-2.2938	-2.3104	-2.7375	-2.4146	-2.4417	-2.6021	-2.2896	-2.925	-2.4979	-2.375	-2.7771	-2.4646	170.337	189.232	98.244	44.780	226.991	249.749	-22.621	241.876	275.380	35.565	284.354	126.097	182.240	187.859	250.841	258.985	0.00028238	0.00057824	9.8078e-05	654.78	2.722e-06	5.0647e-06	683.87	274.62	8.7715e-06	3.7453e-06	332.56	149.11	122.15	59.443	1.5641e-06	75.757	0.00024265	0.00021791	5.8259e-05	613.42	2.3154e-06	2.285e-06	639	256.19	2.3175e-06	2.2809e-06	308.73	139.96	115.03	56.248	2.2524e-06	71.398	113.633	53.053	15.040	-37.661	135.446	101.283	-39.258	-31.753	78.038	97.979	-34.802	-30.647	-27.783	-22.621	102.857	-26.683	-8191	255	
1312.954	1	1	0	0	0.14621	0.16086	0.32331	0.049058	0.2347	0.13405	0.044781	0.11648	0.23612	0.040619	0.064941	0.18875	0.10361	0.16444	0.11867	0.033449	-1.9479	-2.6146	-2.1646	-2.6396	-2.3271	-2.2208	-2.6312	-2.3104	-2.2375	-2.2917	-2.225	-2.4833	-2.5479	-2.1083	-2.525	-2.3146	127.394	-14.774	128.801	15.533	13.099	91.806	32.340	183.064	34.818	222.865	299.068	265.092	-39.084	232.686	199.524	297.200	0.00029282	0.00061528	0.00019253	658.3	4.6765e-06	7.949e-06	681.9	272.98	7.6954e-06	7.0989e-06	330.37	148.43	122.1	59.283	4.1983e-06	76.067	0.00024294	0.00020552	5.8304e-05	611.64	2.3089e-06	2.283e-06	637.04	254.91	2.3969e-06	2.3077e-06	305.68	139.31	114.5	56.217	2.375e-06	71.392	122.881	26.065	46.141	-37.191	50.078	110.918	-39.174	-31.721	83.688	126.301	-34.890	-30.638	-27.840	-22.754	64.034	-27.094	-8191	255	
1313.050	1	1	0	0	0.19471	0.27011	0.1215	0.16859	0.19943	0.23682	0.051339	0.17295	0.14457	0.1127	0.026611	0.36499	0.11794	0.13439	0.15366	0.099016	-1.675	-2.4437	-2.0604	-2.3354	-2.4854	-2.2333	-2.6708	-2.1646	-2.3667	-2.5333	-2.1854	-2.6521	-2.4958	-2.2729	-2.5229	-2.2542	104.400	157.349	252.222	274.530	33.331	111.196	245.135	288.434	-47.283	247.373	-37.244	239.948	-39.217	-18.911	-8.011	261.033	0.00031243	0.00030451	0.00011946	657.46	6.2938e-06	4.8531e-06	685	272.26	5.1826e-06	7.4628e-06	330.79	148.98	121.56	59.111	1.7335e-06	75.802	0.00024886	0.00020778	5.7683e-05	613.96	2.3242e-06	2.3215e-06	639.19	256.02	2.3616e-06	2.3274e-06	307.18	139.32	114.46	56.066	2.374e-06	71.347	115.688	64.346	73.645	-37.337	83.690	131.774	-39.031	-31.557	111.426	86.659	-34.837	-30.847	-27.812	-22.874	141.394	-26.756	-8191	255	
1313.171	1	1	0	0	0.085041	0.33504	0.095918	0.22688	0.20529	0.2045	0.033922	0.075402	0.17662	0.11543	0.21664	0.074538	0.15575	0.29012	0.11048	0.11061	-1.6187	-2.5	-1.8875	-2.3937	-2.4354	-2.0542	-2.6	-2.3271	-2.3167	-2.5708	-2.2167	-2.3688	-2.4375	-2.1292	-2.4396	-2.4333	73.581	-7.511	301.011	262.022	215.064	146.410	175.916	288.704	206.599	286.611	-49.251	108.617	213.626	-45.871	153.017	279.230	0.00028003	0.00042189	0.00014646	658.35	6.5249e-06	3.8777e-06	688.46	273.62	6.0135e-06	5.2938e-06	330.43	149.71	121.81	59.442	5.7338e-06	76.234	0.00024736	0.00020868	5.9785e-05	613.59	2.3373e-06	2.3084e-06	639.89	255.97	2.3243e-06	2.2711e-06	307.93	139.62	114.77	56.26	2.4047e-06	71.621	118.706	32.831	75.679	-37.332	93.855	69.428	-39.542	-31.572	71.297	71.487	-35.178	-30.741	-27.873	-22.600	75.794	-26.856	-8191	255	
1313.265	1	1	0	0	0.059518	0.27397	0.039408	0.12463	0.22792	0.19783	0.4269	0.094489	0.38503	0.033285	0.17158	0.16107	0.1777	0.18399	0.068958	0.16412	-1.8833	-2.6896	-2.25	-2.5062	-2.5083	-2.0854	-2.6813	-2.4604	-2.2021	-2.7687	-2.5	-2.3792	-2.6208	-2.3187	-2.675	-2.6625	-18.218	-5.384	-45.703	22.520	28.656	151.636	202.215	208.815	-11.086	-47.642	210.587	-40.117	152.449	266.463	-28.627	246.889	0.000274	0.00064333	0.00016141	658.72	2.226e-06	6.1294e-06	684.24	274.53	6.1548e-06	2.0466e-06	330.24	149.23	122.16	59.576	1.8507e-06	76.072	0.00025655	0.0002076	6.015e-05	612.65	2.3547e-06	2.2587e-06	637.78	255.87	2.4033e-06	2.2852e-06	307.13	139.53	115.04	56.377	2.3409e-06	71.566	124.777	34.216	38.082	-37.828	89.047	107.783	-39.287	-31.557	54.162	108.895	-34.804	-30.533	-27.792	-22.676	111.438	-26.939	-8191	255	
1313.362	1	1	0	0	0.16169	0.18873	0.22428	0.1914	0.21428	0.11745	0.22252	0.091384	0.20441	0.23626	0.32426	0.27759	0.093088	0.11721	0.16923	0.28131	-1.7104	-2.7354	-2.3646	-2.4979	-2.5708	-2.275	-2.4333	-2.5563	-2.0521	-2.5521	-2.3667	-2.2604	-2.6333	-2.2062	-2.3187	-2.3688	205.029	267.397	70.143	291.007	42.700	245.134	215.037	230.032	-12.256	42.031	64.969	277.678	-20.612	127.690	130.756	242.487	0.00028312	0.00043152	0.00015761	655.96	2.3865e-06	7.0096e-06	677.98	274.92	5.1195e-06	7.0579e-06	331.33	149.09	122.77	60.024	5.3142e-06	77.068	0.00024571	0.00020863	5.9521e-05	613.17	2.3175e-06	2.2559e-06	637	256.11	2.3466e-06	2.2539e-06	307.49	140.05	115.75	56.763	2.3023e-06	72.143	130.788	33.589	53.260	-37.642	115.195	84.407	-39.369	-31.650	72.710	88.408	-34.721	-30.687	-27.892	-22.904	121.731	-26.602	-8191	255	
1313.458	1	1	0	0	0.17264	0.18006	0.21908	0.063615	0.13557	0.26075	0.16285	0.068866	0.13265	0.20053	0.14234	0.24935	0.18325	0.24691	0.10113	0.17912	-1.6271	-2.375	-2.1562	-2.125	-2.425	-1.9979	-2.3771	-2.3146	-2.0604	-2.625	-2.3438	-2.5292	-2.8417	-2.3688	-2.4417	-2.7979	221.643	146.473	-2.049	164.696	194.850	271.926	297.276	-44.992	130.485	244.050	-29.130	253.195	304.314	-38.396	88.230	153.304	0.00028785	0.00055051	0.00015249	663.7	3.428e-06	6.7509e-06	680.35	271.95	1.8099e-06	7.7833e-06	328	149.32	122.59	60.213	3.5346e-06	77.02	0.00024391	0.00021089	5.7994e-05	616.29	2.2773e-06	2.2275e-06	636.73	255.43	2.344e-06	2.2806e-06	305.77	140.16	115.52	56.724	2.3534e-06	72.123	106.094	38.793	66.718	-37.550	56.661	91.172	-39.285	-31.620	112.068	77.802	-35.066	-30.779	-27.805	-22.666	99.038	-27.291	-8191	255	
1313.554	1	1	0	0	0.17881	0.21098	0.30251	0.082066	0.18609	0.1456	0.1225	0.11937	0.10356	0.11412	0.33688	0.2794	0.17932	0.18286	0.18606	0.37007	-1.8604	-2.6792	-2.4958	-2.4562	-2.6083	-2.3417	-2.5729	-2.4792	-2.1229	-2.7458	-2.5208	-2.15	-2.8896	-2.6083	-2.2687	-2.625	178.779	-45.212	137.193	-32.690	241.511	109.182	305.802	298.707	88.255	167.937	299.888	213.858	295.054	287.119	-36.624	277.336	0.00029667	0.00046362	0.00013588	659.45	3.7767e-06	5.4395e-06	682.72	274.3	4.381e-06	2.8276e-06	329.73	149.68	122.74	60.094	4.367e-06	77.269	0.00024379	0.00020712	5.8794e-05	612.3	2.3125e-06	2.3111e-06	639.51	255.46	2.2805e-06	2.3001e-06	306.49	140.46	115.59	56.845	2.3373e-06	72.146	108.404	35.004	-2.622	-37.429	92.116	62.883	-39.271	-31.311	92.960	101.425	-35.186	-31.114	-28.121	-22.943	126.938	-27.135	-8191	255	
1313.650	1	1	0	0	0.33439	0.043241	0.070184	0.22201	0.12889	0.13709	0.24666	0.084599	0.29733	0.097311	0.15526	0.27079	0.21122	0.20662	0.055053	0.30572	-1.8083	-2.6562	-2.4542	-2.3563	-2.5458	-2.4188	-2.425	-2.525	-2.3583	-2.6604	-2.6792	-2.2562	-2.7792	-2.5792	-2.3312	-2.7687	163.502	97.512	-16.622	226.304	51.305	162.641	164.513	-25.078	249.922	288.178	253.940	-19.986	-30.165	221.581	27.127	214.707	0.00028449	0.00082399	0.00022816	653.27	2.7321e-06	3.3148e-06	683.42	269.18	8.059e-06	4.1018e-06	327.04	146.28	120.88	59.155	5.2078e-06	76.137	0.00024706	0.0002104	5.9369e-05	611.28	2.3262e-06	2.3377e-06	635.69	252.52	2.3995e-06	2.329e-06	301.86	137.62	114.41	56.03	2.3771e-06	71.334	109.703	35.300	48.545	-37.835	32.242	109.139	-39.109	-32.112	97.620	70.384	-34.817	-31.029	-27.739	-22.877	81.393	-26.959	-8191	255	
1313.771	1	1	0	0	0.078693	0.32312	0.077651	0.11276	0.12836	0.21761	0.044514	0.15467	0.12662	0.28021	0.071262	0.052655	0.11139	0.14314	0.073952	0.060001	-1.6542	-2.4625	-2.5438	-2.2479	-2.7042	-2.5875	-2.3312	-2.8333	-2.3708	-2.6521	-2.8104	-2.2562	-2.8521	-2.65	-2.3625	-2.8042	246.198	179.150	62.700	274.062	309.859	185.147	-40.516	167.151	268.389	220.797	178.935	160.272	222.234	293.171	215.632	285.825	0.00027739	0.0004261	0.00019598	651.58	4.2473e-06	1.3616e-06	678.35	270.73	2.6854e-06	4.9337e-06	322.85	147.47	121.2	59.488	2.3934e-06	75.784	0.00024903	0.00021495	5.9875e-05	608.91	2.3006e-06	2.3731e-06	632.34	252.93	2.3972e-06	2.3193e-06	301.52	137.8	114.08	56.199	2.4202e-06	71.123	112.411	49.509	34.297	-37.481	115.934	41.119	-39.262	-31.595	94.571	63.842	-34.865	-30.811	-27.917	-22.652	134.232	-26.920	-8191	255	
1313.867	1	1	0	0	0.13826	0.069402	0.058572	0.13426	0.26117	0.15615	0.14857	0.19823	0.11249	0.20393	0.25357	0.12996	0.28333	0.24224	0.053854	0.080672	-1.8208	-2.3542	-2.6229	-2.4646	-2.4854	-2.4667	-2.3292	-2.6333	-2.2396	-2.4146	-2.7521	-2.4813	-2.5958	-2.7479	-2.2458	-2.7792	237.776	292.400	29.659	301.249	186.528	284.279	84.657	279.450	33.702	289.846	269.084	-26.405	202.100	-46.716	65.842	-48.029	0.00029643	0.00063927	0.00014564	653.84	3.8857e-06	4.794e-06	674.95	270.08	6.6522e-06	2.0166e-06	325.44	147.48	122.09	59.275	3.6591e-06	76.484	0.00024835	0.00021517	5.8704e-05	609.74	2.365e-06	2.3196e-06	631.11	252.54	2.4311e-06	2.3229e-06	302.58	138.3	114.56	56.259	2.3675e-06	71.379	101.320	31.152	18.510	-37.595	94.154	92.512	-39.462	-31.558	64.918	135.114	-35.346	-30.741	-27.667	-22.664	114.693	-26.920	-8191	255	
1313.963	1	1	0	0	0.25006	0.23775	0.29927	0.197	0.13809	0.13665	0.06249	0.32625	0.16168	0.21432	0.1228	0.12577	0.069663	0.071159	0.18354	0.14221	-1.9667	-2.3354	-2.5229	-2.3146	-2.6021	-2.7417	-2.3229	-2.5917	-2.4562	-2.5229	-2.6646	-2.1854	-2.4813	-2.5854	-2.1146	-2.6813	64.964	239.836	141.386	300.409	36.362	26.705	256.945	240.124	24.477	161.241	-34.233	-43.552	284.012	144.929	-33.014	-42.185	0.00027251	0.00059038	0.00016418	650.2	4.9103e-06	8.4088e-06	672.93	269.89	3.0087e-06	5.7126e-06	326.66	147.93	122.51	59.711	1.1625e-06	76.334	0.00025139	0.00022631	5.8129e-05	608.24	2.2837e-06	2.3638e-06	630.56	251.72	2.4256e-06	2.3587e-06	301.82	138.5	114.95	56.337	2.4268e-06	71.548	105.207	35.800	49.810	-37.752	125.265	97.239	-39.234	-31.716	77.098	119.431	-35.190	-30.725	-27.888	-22.837	112.063	-26.904	-8191	255	
1314.035	1	1	0	0	0.078774	0.14893	0.11039	0.14783	0.23574	0.21427	0.15445	0.1855	0.047753	0.065293	0.15061	0.18394	0.038217	0.27384	0.16378	0.20827	-1.9062	-2.0792	-2.5062	-2.1896	-2.4104	-2.4938	-2.3396	-2.5521	-2.4313	-2.225	-2.7396	-2.4521	-2.6354	-2.6417	-2.1708	-2.7521	285.665	-33.029	38.707	261.008	173.834	287.784	276.840	236.190	48.194	147.632	161.435	235.545	-0.711	260.166	156.850	243.605	0.00030894	0.00042789	0.00018074	651.62	4.5874e-06	7.2088e-06	673.27	268.73	4.1157e-06	6.2697e-06	321.39	146.89	121.49	59.47	9.7316e-07	75.95	0.000249	0.0002223	5.9491e-05	606.53	2.3524e-06	2.3478e-06	627.04	250.26	2.3936e-06	2.3428e-06	299.63	137.85	114.39	56.292	2.4626e-06	71.366	126.447	60.366	2.807	-37.410	91.810	93.492	-39.062	-31.952	73.549	82.367	-34.906	-30.863	-27.430	-22.780	127.102	-26.831	-8191	255	
1314.131	1	1	0	0	0.23131	0.18845	0.25977	0.11082	0.14829	0.083492	0.32879	0.12246	0.20677	0.083871	0.11503	0.074169	0.12474	0.41455	0.12486	0.15695	-2.1042	-2.2104	-2.6208	-2.5104	-2.5167	-2.4667	-2.3146	-2.4833	-2.4333	-2.0104	-2.4521	-2.3375	-2.2604	-2.6063	-2.0125	-2.5292	-32.787	40.038	307.036	215.840	157.191	307.337	210.155	160.340	-17.183	25.252	273.614	-2.063	244.742	243.379	81.588	158.794	0.00029871	0.00037208	0.00013088	653.26	4.4056e-06	5.4037e-06	675.95	269.87	2.504e-06	2.2192e-06	326.09	148.81	122.34	59.728	4.9934e-06	76.303	0.00025289	0.00021451	6.0226e-05	609.64	2.2684e-06	2.2539e-06	631.46	253.17	2.3458e-06	2.3667e-06	303.39	139.13	115.28	56.554	2.4018e-06	71.604	106.975	60.634	63.628	-37.416	119.138	65.233	-39.250	-31.750	102.982	67.128	-35.297	-31.005	-27.710	-22.745	87.172	-26.877	-8191	255	
1314.251	1	1	0	0	0.12523	0.026342	0.097934	0.12055	0.27633	0.20733	0.046365	0.1206	0.13341	0.13645	0.14523	0.083857	0.23045	0.27384	0.16133	0.19116	-1.8104	-1.925	-2.5271	-2.4958	-2.1771	-2.7	-2.225	-2.6083	-2.475	-2.0167	-2.4542	-2.3479	-2.3479	-2.7208	-2.3667	-2.6625	109.572	-35.295	301.732	261.152	66.962	-3.319	304.387	-40.947	188.588	107.861	27.105	210.778	304.899	264.636	280.320	217.578	0.00029214	0.00055975	9.6331e-05	656.79	5.3184e-06	6.3439e-06	679.67	273.46	3.4875e-06	6.2616e-06	330.35	149.96	123.05	59.974	3.5307e-06	76.791	0.00024752	0.00021269	6.1247e-05	613	2.3604e-06	2.2547e-06	634.96	255.38	2.4318e-06	2.4129e-06	306.67	139.94	116.04	56.814	2.5255e-06	72.228	117.238	51.556	43.611	-37.837	78.246	98.544	-39.116	-31.938	31.703	85.475	-34.912	-30.886	-27.754	-22.788	93.181	-26.975	-8191	255	
1314.346	1	1	0	0	0.27677	0.23523	0.26342	0.11159	0.24007	0.10577	0.17546	0.16032	0.26794	0.27751	0.22964	0.11589	0.34447	0.21103	0.16517	0.2941	-2.1188	-2.0521	-2.4083	-2.4958	-2.3229	-2.7208	-2.3438	-2.6271	-2.7313	-2.1771	-2.6396	-2.3958	-2.2375	-2.6125	-2.15	-2.4771	72.082	150.674	246.177	259.805	111.161	220.143	205.936	253.417	-15.463	144.089	-42.183	124.114	-46.332	285.163	163.677	243.276	0.00028798	0.00067879	0.00010832	663.26	1.3839e-06	6.2744e-06	690.22	275.03	2.5014e-06	3.6618e-06	332.34	149.79	123.42	60.329	1.0813e-06	77.257	0.00024622	0.00021244	5.8817e-05	616.26	2.3121e-06	2.2972e-06	639.72	257.63	2.2727e-06	2.2582e-06	308.37	140.58	116.35	57.067	2.4148e-06	72.138	121.971	46.936	33.190	-37.673	109.849	81.270	-39.306	-31.724	17.237	74.963	-34.900	-31.090	-27.898	-23.002	195.801	-27.083	-8191	255	
1314.442	1	1	0	0	0.282	0.21391	0.11728	0.16128	0.14428	0.11349	0.26947	0.1524	0.097994	0.0098757	0.21453	0.082959	0.11717	0.043344	0.027263	0.22099	-2.0271	-2.1083	-2.2083	-2.5229	-2.0417	-2.6458	-2.4313	-2.3146	-2.5604	-2.2042	-2.7271	-2.5646	-2.3312	-2.7375	-2.2854	-2.5563	-44.846	21.420	-22.968	263.487	186.207	134.874	260.054	268.098	183.924	167.629	-45.946	-49.584	84.391	19.371	141.350	268.343	0.00027184	0.00010472	0.00016272	658.31	3.5168e-06	7.6461e-06	682.42	276.72	5.7725e-06	3.9894e-06	333.55	149.38	123.66	60.173	3.3489e-06	76.438	0.00024789	0.00021901	6.1198e-05	612.74	2.3484e-06	2.2317e-06	637.4	258.3	2.3267e-06	2.3409e-06	309.33	139.74	116.51	56.938	2.4718e-06	71.764	114.658	-11.211	29.168	-37.646	90.543	121.855	-39.233	-31.766	119.501	122.175	-35.160	-31.241	-27.921	-22.796	75.312	-27.057	-8191	255	
1314.540	1	1	0	0	0.053371	0.069181	0.18723	0.1848	0.13766	0.19546	0.16691	0.23775	0.2355	0.090562	0.090596	0.17528	0.26745	0.23332	0.060029	0.33989	-2.3958	-2.1604	-2.4229	-2.6229	-2.2062	-2.4396	-2.4229	-2.1063	-2.3854	-2.0417	-2.3042	-2.6188	-2.0646	-2.6625	-2.0917	-2.2417	267.310	99.887	75.850	219.420	150.646	17.253	234.469	293.543	99.404	-25.771	201.113	230.483	298.419	257.324	5.322	226.560	0.00028279	0.00027399	0.00013565	656.87	6.5206e-06	5.1142e-06	687.71	277.85	5.92e-06	3.7595e-06	333.18	149.99	123.66	60.085	5.2352e-06	76.175	0.00023929	0.00021523	5.9467e-05	615.48	2.3082e-06	2.3221e-06	639.16	259.1	2.3768e-06	2.3085e-06	309.93	140.37	116.58	56.855	2.35e-06	71.661	122.406	103.284	67.392	-37.771	86.691	135.051	-39.460	-31.601	120.453	95.459	-34.939	-30.883	-27.737	-22.999	90.050	-26.878	-8191	255	
1314.634	1	1	0	0	0.33478	0.2132	0.22862	0.15719	0.2155	0.16612	0.073041	0.14309	0.44478	0.15886	0.18831	0.25665	0.25257	0.2167	0.16502	0.20794	-2.2083	-2.0958	-2.0833	-2.5396	-2.3646	-2.6896	-2.6917	-2.5083	-2.6167	-2.3271	-2.3958	-2.5083	-2.3771	-2.6479	-2.4938	-2.4313	266.575	298.983	267.667	244.489	290.332	174.232	-3.898	134.778	30.806	278.788	309.690	243.772	291.150	-23.891	227.547	-14.323	0.00029721	0.00044323	0.00017553	662.01	1.7128e-06	7.0469e-06	688.49	278.7	2.5386e-06	6.0885e-06	339.06	151.56	125.2	60.43	2.8783e-06	76.975	0.00024854	0.00021402	6.0599e-05	617.41	2.3194e-06	2.3205e-06	642.38	260.9	2.3125e-06	2.2763e-06	314.16	141.79	117.8	57.407	2.4103e-06	72.357	114.824	33.818	53.721	-37.604	58.667	87.439	-39.253	-31.964	107.565	85.774	-35.090	-31.196	-28.043	-22.458	68.766	-26.944	-8191	255	
1314.730	1	1	0	0	0.12321	0.21424	0.18151	0.40636	0.074023	0.021641	0.21943	0.2244	0.20389	0.15318	0.2848	0.19941	0.24969	0.30528	0.16809	0.073912	-2.175	-2.2146	-2.1458	-2.6917	-2.0833	-2.3479	-2.3479	-2.15	-2.3583	-2.375	-2.4667	-2.8625	-2.4792	-2.7292	-2.5667	-2.3271	123.934	194.974	-14.979	280.724	212.200	132.157	223.714	216.078	164.998	182.554	277.026	230.705	229.699	-49.409	92.819	224.954	0.00032231	0.00039138	0.00010641	665.36	2.2343e-06	4.3816e-06	693.6	282.94	3.3094e-06	7.2064e-06	342.32	152.53	125.94	61.037	3.2119e-06	77.19	0.00025664	0.00021559	5.9043e-05	619.75	2.3625e-06	2.301e-06	648.49	264.55	2.4109e-06	2.2506e-06	317.35	142.73	118.5	57.791	2.372e-06	72.59	117.357	27.909	34.409	-37.738	93.087	108.756	-39.273	-31.539	76.022	73.735	-35.019	-30.692	-27.799	-22.694	82.054	-26.912	-8191	255	
1314.851	1	1	0	0	0.37089	0.12698	0.18457	0.14218	0.15813	0.15956	0.096934	0.22337	0.076697	0.12336	0.18209	0.37573	0.12454	0.30547	0.17404	0.10469	-2.1875	-2.2604	-2.1063	-2.6167	-2.1542	-2.1229	-2.5417	-2.2562	-2.6729	-2.3688	-2.0354	-2.3479	-2.2958	-2.5062	-2.5354	-2.3	198.931	273.716	301.265	229.938	127.847	202.756	158.804	230.610	87.190	-0.846	28.837	223.636	122.092	232.857	241.212	-24.816	0.00028204	0.00043367	0.0001983	662.26	4.0269e-06	5.819e-06	694.11	283.63	3.5448e-06	5.5073e-06	340.77	152.64	125.69	61.274	3.137e-06	77.385	0.00024693	0.00022014	6.1124e-05	619.9	2.3359e-06	2.3239e-06	646.77	265.53	2.3378e-06	2.2936e-06	317.2	142.68	118.73	58.018	2.3904e-06	72.531	114.366	52.941	28.808	-37.652	86.683	94.009	-39.326	-31.657	69.074	80.539	-34.963	-31.074	-27.993	-23.031	124.476	-26.796	-8191	255	
1314.947	1	1	0	0	0.14703	0.23943	0.087728	0.159	0.13836	0.26119	0.14467	0.19961	0.27266	0.059243	0.23087	0.1695	0.26472	0.17649	0.022824	0.50122	-2.2292	-2.3812	-2.175	-2.6958	-2.4208	-2.3563	-2.6375	-2.2271	-2.4562	-2.3792	-2.2896	-2.7458	-2.4604	-2.5146	-2.5729	-2.1396	197.582	239.111	4.833	252.254	58.857	16.468	244.046	185.783	-31.370	2.215	125.492	4.383	-35.854	125.539	75.648	280.039	0.00033068	0.00055513	0.00022298	662.11	2.4712e-06	4.2052e-06	692.3	286.51	6.2347e-06	6.0566e-06	344.51	153.21	126.97	61.436	2.5136e-06	78.235	0.00024831	0.00021244	5.9414e-05	621.47	2.3507e-06	2.3163e-06	650.66	267.16	2.3539e-06	2.2948e-06	320.31	143.65	119.59	58.151	2.3536e-06	73.075	120.465	11.737	41.582	-37.663	103.102	76.947	-39.289	-31.704	79.427	78.404	-34.980	-31.016	-27.975	-23.107	98.540	-26.852	-8191	255	
1315.043	1	1	0	0	0.062463	0.14909	0.04909	0.016699	0.17532	0.043005	0.36128	0.40748	0.4598	0.25537	0.10523	0.28255	0.32098	0.16679	0.15696	0.21384	-1.8771	-2.4208	-1.9896	-2.6917	-2.3937	-2.2708	-2.7229	-2.3063	-2.3667	-2.4854	-2.3354	-2.8167	-2.675	-2.4646	-2.6125	-2.2125	43.589	72.839	92.556	214.594	-7.431	185.681	225.923	283.586	144.732	179.513	305.201	233.558	267.895	302.316	188.965	259.902	0.00032099	0.00060994	0.00014991	668.82	5.6156e-06	6.2793e-06	698.14	287.49	1.7407e-06	1.1726e-05	346.03	154.45	126.8	61.87	4.1394e-06	78.324	0.00024452	0.00021331	5.8295e-05	624.99	2.3438e-06	2.3228e-06	651.14	268.78	2.3944e-06	2.3621e-06	321.71	144.3	119.92	58.61	2.3813e-06	73.44	110.855	32.976	67.735	-37.344	65.830	108.539	-39.213	-31.735	86.355	99.466	-35.031	-30.710	-28.081	-22.902	103.382	-27.135	-8191	255	
1315.139	1	1	0	0	0.2149	0.22285	0.12926	0.09672	0.27631	0.28806	0.072604	0.20448	0.13067	0.29052	0.10721	0.20773	0.15662	0.043675	0.17558	0.27956	-1.6396	-2.6708	-2.2771	-2.8854	-2.3271	-2.1979	-2.6562	-2.2271	-2.3729	-2.5479	-2.2292	-2.7146	-2.6521	-2.4188	-2.5646	-2.3937	-48.495	30.828	57.091	182.159	240.352	75.807	74.975	-37.040	-48.329	165.923	227.297	238.295	306.248	0.713	252.597	287.402	0.00033436	0.00053109	0.00021033	674.13	3.2719e-06	5.8597e-06	694.82	286.6	1.802e-06	3.853e-06	342.82	153.01	126.8	61.62	3.7238e-06	77.468	0.0002507	0.0002125	5.8137e-05	625.65	2.4048e-06	2.3023e-06	648.43	267.38	2.396e-06	2.3685e-06	318.85	143.27	119.35	58.258	2.3648e-06	72.553	110.256	16.737	66.640	-37.488	118.814	82.934	-39.505	-31.797	53.038	105.207	-34.880	-30.874	-28.308	-22.664	132.217	-26.795	-8191	255	
1315.260	1	1	0	0	0.27348	0.13418	0.058289	0.23293	0.27459	0.17253	0.25625	0.16564	0.19335	0.16803	0.23346	0.048562	0.031235	0.32094	0.14367	0.14309	-1.8604	-2.5792	-2.125	-2.6042	-2.5187	-2.2708	-2.4375	-2.3896	-2.0917	-2.4229	-2.3958	-2.6437	-2.7396	-2.2708	-2.5979	-2.5563	125.974	174.088	118.099	167.448	69.204	98.245	251.441	261.670	23.271	299.008	257.478	166.847	189.844	274.639	33.199	32.850	0.00032315	0.00052883	9.8488e-05	667.19	3.1564e-06	8.4117e-06	688.99	283.62	4.4836e-06	4.839e-06	339.14	151.22	125.72	61.474	5.3694e-06	77.146	0.00024541	0.00020639	6.0361e-05	621.55	2.3729e-06	2.3257e-06	645.56	264.67	2.3917e-06	2.2298e-06	315.44	142.39	118.86	58.178	2.3997e-06	72.471	118.019	47.374	53.996	-37.411	69.366	65.583	-39.370	-31.873	136.335	100.100	-35.251	-31.238	-28.101	-22.786	101.069	-26.741	-8191	255	
1315.332	1	1	0	0	0.1434	0.12282	0.11139	0.24242	0.11497	0.068709	0.18796	0.11593	0.22983	0.071787	0.22168	0.11996	0.045475	0.080548	0.17993	0.20119	-1.7313	-2.6063	-2.2	-2.2979	-2.5312	-2.1667	-2.575	-2.3917	-2.3479	-2.7625	-2.2833	-2.3896	-2.5042	-2.4	-2.5771	-2.7875	85.445	57.530	287.720	218.310	107.940	-3.811	203.543	76.556	28.977	31.788	14.522	28.505	158.987	205.985	14.411	176.131	0.00032049	0.00052333	0.00012508	662.65	2.3935e-06	4.564e-06	693.46	280.92	6.7463e-06	1.0265e-05	338.78	152.31	125.88	61.239	2.3974e-06	77.121	0.0002534	0.00020414	5.9482e-05	620.35	2.3298e-06	2.3047e-06	645.79	264.05	2.3526e-06	2.241e-06	315.86	142.12	118.83	58.062	2.3521e-06	72.321	109.665	27.765	51.507	-37.587	100.149	165.651	-39.124	-31.985	106.234	85.331	-35.065	-30.916	-28.072	-22.685	108.236	-26.797	-8191	255	
1315.428	1	1	0	0	0.27179	0.19433	0.23702	0.11296	0.29485	0.12689	0.20751	0.19842	0.13121	0.044433	0.14796	0.13988	0.14768	0.24333	0.26516	0.1521	-1.8	-2.5729	-2.1688	-2.4375	-2.4792	-2.1208	-2.6292	-2.5125	-2.2521	-2.6875	-2.6292	-2.5312	-2.6292	-2.1188	-2.2979	-2.5458	112.233	52.683	7.698	-44.397	253.068	63.959	98.549	307.967	232.774	217.167	15.467	127.496	204.861	247.858	24.303	250.961	0.0002985	0.00075589	0.00021706	660.22	6.1621e-06	9.3197e-06	690.92	281.4	2.6965e-06	5.0694e-06	337.33	152.58	126.35	61.301	3.9127e-06	77.386	0.00025213	0.00021172	6.0721e-05	619.47	2.2824e-06	2.3002e-06	644.14	263.08	2.4389e-06	2.3439e-06	313.69	142.17	118.78	58.129	2.4268e-06	72.519	104.111	58.695	68.893	-37.348	96.814	95.022	-39.291	-31.787	91.853	75.230	-35.008	-30.939	-28.028	-22.862	99.979	-26.919	-8191	255	
1315.547	1	1	0	0	0.059247	0.11619	0.099734	0.084665	0.24284	0.27197	0.098018	0.1711	0.064388	0.2429	0.19887	0.26192	0.39336	0.35416	0.39027	0.26287	-1.6812	-2.6437	-2.3979	-2.3458	-2.7125	-2.2229	-2.3812	-2.4792	-2.1	-2.4625	-2.2875	-2.2854	-2.6417	-2.2438	-2.4333	-2.3958	227.075	-31.051	78.963	284.004	258.909	121.840	264.637	7.845	9.877	41.247	228.785	289.607	304.678	267.346	17.875	200.536	0.00030272	0.00034317	0.00015992	664.51	3.1768e-06	6.3419e-06	687.32	280.89	2.5889e-06	5.7694e-06	336.8	151.1	125.31	61.056	4.6048e-06	76.506	0.00025437	0.00021099	5.9653e-05	618.77	2.249e-06	2.277e-06	640.44	261.24	2.3066e-06	2.2947e-06	312.08	141.28	118.15	57.827	2.3284e-06	71.779	108.315	46.150	54.054	-37.303	81.201	42.251	-39.233	-31.459	126.210	62.503	-35.258	-31.035	-28.010	-22.957	92.471	-26.967	-8191	255	
1315.643	1	1	0	0	0.14833	0.087689	0.14099	0.18119	0.31528	0.30722	0.30845	0.0089599	0.031579	0.19573	0.12975	0.4124	0.50333	0.07856	0.090604	0.070484	-1.4104	-2.3563	-2.4521	-2.3104	-2.5917	-2.3271	-2.4458	-2.5229	-2.0208	-2.5375	-2.4396	-2.4917	-2.8979	-2.5958	-2.3917	-2.6333	173.276	38.045	35.533	252.618	-21.017	119.069	270.668	273.644	265.012	-42.884	249.568	-43.381	300.249	-11.979	-41.456	140.436	0.00027343	0.00045449	0.00019304	657.57	1.3299e-06	1.6715e-07	679.76	276.14	3.478e-06	5.1959e-06	327.26	149.54	125.82	60.978	3.667e-06	76.754	0.00024854	0.00020886	6.0469e-05	615.02	2.2824e-06	2.2719e-06	633.88	258.58	2.3183e-06	2.3159e-06	306.32	140.17	117.7	57.676	2.3081e-06	71.797	117.814	60.834	45.804	-37.615	73.466	255.888	-39.365	-31.646	164.544	98.589	-35.446	-30.832	-28.069	-22.798	107.307	-27.210	-8191	255	
1315.739	1	1	0	0	0.30922	0.17824	0.39352	0.42833	0.085146	0.053239	0.12568	0.063035	0.31021	0.14786	0.22611	0.2875	0.10666	0.20891	0.16089	0.25492	-1.8021	-2.6583	-2.3604	-2.1854	-2.6458	-2.2729	-2.4083	-2.5958	-2.1063	-2.475	-2.4375	-2.0417	-2.5354	-2.4354	-2.2354	-2.8333	151.155	76.654	137.793	232.906	216.597	46.697	132.102	215.001	50.653	-9.399	31.350	232.926	160.142	281.255	89.839	-2.827	0.00029949	0.00056123	0.00012772	655.9	2.6699e-06	9.7863e-06	680.71	276.38	4.2604e-06	3.5736e-06	329.64	149.22	124.6	60.854	5.5939e-06	76.695	0.00024467	0.00020803	5.7589e-05	613.74	2.2577e-06	2.244e-06	635.39	258.25	2.2858e-06	2.2861e-06	306.02	139.75	117.34	57.734	2.3725e-06	71.932	126.572	38.467	27.478	-37.559	90.650	88.131	-39.258	-31.600	91.820	99.329	-35.054	-30.849	-27.841	-22.786	35.840	-26.913	-8191	255	
1315.835	1	1	0	0	0.30457	0.066225	0.063224	0.12587	0.22836	0.15327	0.41928	0.34034	0.030162	0.092652	0.073983	0.22267	0.15065	0.18434	0.10119	0.2352	-1.8792	-2.5542	-2.3312	-2.3354	-2.5333	-2.4271	-2.0479	-2.7646	-2.0646	-2.3333	-2.3521	-2.0146	-2.6021	-2.2833	-2.0229	-2.6063	305.563	194.047	-44.424	211.051	299.483	187.776	256.125	283.477	141.809	59.565	0.270	280.802	272.715	196.923	286.421	246.181	0.00023218	0.00030814	0.00015272	654.79	5.1102e-06	5.2115e-06	679.95	275.52	4.3913e-06	6.2269e-06	330.3	149.89	124.77	61.1	4.1818e-06	77.169	0.00025196	0.00021292	5.7922e-05	612.63	2.2767e-06	2.2177e-06	634.09	257.98	2.3584e-06	2.2923e-06	306.94	140.14	117.55	57.85	2.347e-06	72.126	107.233	29.130	4.805	-37.265	78.823	72.785	-39.078	-31.980	83.785	92.455	-34.915	-31.086	-27.864	-22.566	84.066	-26.925	-8191	255	
1315.931	1	1	0	0	0.35342	0.088151	0.13167	0.18491	0.22842	0.22962	0.2607	0.26081	0.12909	0.17296	0.14913	0.19652	0.019866	0.24975	0.028535	0.1003	-1.8604	-2.3521	-2.7083	-2.3979	-2.6813	-2.4813	-2.3417	-2.7938	-1.9917	-2.4062	-2.7521	-2.4854	-2.6458	-2.6146	-2.2708	-2.7062	225.269	209.181	193.155	215.590	202.385	265.523	235.973	85.292	217.690	-9.387	-28.980	241.432	131.508	-19.453	276.711	266.670	0.00032582	0.00042438	0.0001275	651.54	5.7645e-06	7.136e-06	675.19	273.12	4.0783e-06	7.3627e-06	325.4	148.59	123.66	60.624	3.7005e-06	75.881	0.00025042	0.00021455	5.8235e-05	609.46	2.2541e-06	2.3393e-06	629	255.1	2.3012e-06	2.2337e-06	302.16	138.99	116.75	57.4	2.3159e-06	71.185	114.682	54.882	53.981	-37.525	110.336	125.357	-38.893	-31.655	58.753	135.457	-35.126	-30.762	-27.910	-22.822	109.318	-26.794	-8191	255	
1316.027	1	1	0	0	0.19984	0.16428	0.18051	0.18783	0.28011	0.076833	0.24743	0.28344	0.10944	0.11947	0.044364	0.21912	0.22861	0.31348	0.27725	0.13567	-1.8292	-2.3021	-2.3083	-2.0771	-2.5479	-2.5542	-2.2604	-2.625	-2.3063	-2.4938	-2.8625	-2.4688	-2.4542	-2.5104	-2.1813	-2.9062	3.298	97.861	160.539	212.326	279.001	210.701	246.101	210.689	156.804	186.713	229.381	281.646	275.742	239.876	170.420	-19.468	0.00031617	0.00029195	0.00016242	655.42	4.9241e-06	9.0581e-06	672.91	273.37	3.9736e-06	4.1812e-06	327.68	148.86	124.36	60.712	4.8139e-06	75.533	0.00024254	0.00020629	5.7133e-05	611.62	2.371e-06	2.2727e-06	628.51	256.13	2.286e-06	2.2227e-06	304.6	138.97	117.1	57.521	2.3749e-06	71.036	119.785	47.659	49.599	-37.871	107.007	90.099	-39.408	-31.841	131.225	159.595	-34.985	-31.232	-27.704	-22.800	98.162	-26.946	-8191	255	
1316.124	1	1	0	0	0.34993	0.23473	0.20022	0.19996	0.1882	0.16156	0.2041	0.36362	0.45099	0.21983	0.12069	0.13731	0.24902	0.41606	0.11082	0.21286	-1.9125	-1.85	-2.6375	-2.4188	-2.6229	-2.7042	-2.2146	-2.5146	-2.1771	-2.2042	-2.6625	-2.1375	-2.3563	-2.6875	-1.9729	-2.4854	259.517	244.191	201.880	195.080	-21.993	116.547	250.854	279.662	46.314	203.280	283.961	221.688	-33.041	306.746	201.814	234.635	0.00028875	0.00029736	0.00019918	655.9	4.5874e-06	6.8815e-06	671.59	274.29	2.1625e-06	7.9005e-06	327.52	148.14	124.75	60.883	3.7907e-06	75.763	0.00024569	0.00021076	5.8129e-05	610.96	2.3065e-06	2.2597e-06	629.37	256.59	2.2922e-06	2.3489e-06	304.46	138.95	117.15	57.516	2.3907e-06	71.265	122.362	0.766	29.038	-37.242	72.174	37.367	-39.542	-31.563	62.435	109.985	-34.982	-30.928	-27.857	-22.721	90.619	-26.801	-8191	255	
1316.220	1	1	0	0	0.14832	0.24687	0.18166	0.24892	0.31728	0.20887	0.38369	0.30393	0.27443	0.13875	0.17847	0.30349	0.25454	0.23046	0.13246	0.18858	-1.8375	-2.1625	-2.7438	-2.4021	-2.5417	-2.7667	-2.2542	-2.6646	-2.4583	-2.1875	-2.6604	-2.4667	-2.5521	-2.8583	-2.3396	-2.6208	10.911	68.628	33.455	-17.721	89.917	297.686	201.435	110.702	-45.102	65.366	-4.687	193.281	260.174	-47.620	29.970	251.608	0.00025161	0.00049351	0.00017187	657.3	2.8157e-06	7.7723e-06	674.33	275.36	4.0194e-06	6.6963e-06	330.27	149.84	125.55	61.073	4.548e-06	77.254	0.0002463	0.00020913	5.8913e-05	613.31	2.3114e-06	2.223e-06	632.01	257.61	2.314e-06	2.2946e-06	304.88	140.06	117.83	57.935	2.3731e-06	72.037	128.810	60.392	12.132	-38.021	85.390	76.334	-39.322	-31.608	91.824	86.354	-35.135	-31.063	-27.706	-22.794	67.562	-26.929	-8191	255	
1316.339	1	1	0	0	0.20784	0.090801	0.051739	0.037003	0.16291	0.16669	0.18606	0.30815	0.14649	0.088533	0.096235	0.25994	0.31947	0.10237	0.09288	0.13874	-2.0667	-2.0979	-2.5354	-2.3104	-2.3167	-2.4854	-2.3604	-2.375	-2.4979	-2.25	-2.6021	-2.3729	-2.4396	-2.7812	-2.4396	-2.6104	137.193	14.068	160.201	-44.530	160.945	211.033	254.510	226.477	42.985	259.124	90.107	-18.581	275.828	292.539	223.414	181.625	0.00025834	0.00058816	0.00019627	656.79	1.7385e-06	7.115e-06	677.11	275.07	3.4268e-06	4.4679e-06	328.85	148.31	125.48	61.304	3.7629e-06	76.062	0.00023662	0.00020667	5.8421e-05	611.83	2.3116e-06	2.2914e-06	630.21	256.53	2.3331e-06	2.3744e-06	305.35	139.56	117.86	58.142	2.4055e-06	71.827	126.047	37.716	18.342	-37.551	40.845	77.554	-39.221	-31.878	55.442	80.521	-35.055	-30.783	-27.834	-22.711	51.683	-26.954	-8191	255	
1316.435	1	1	0	0	0.21242	0.21464	0.18119	0.058084	0.10169	0.30851	0.22897	0.16595	0.1391	0.084645	0.22231	0.35254	0.072623	0.20795	0.34345	0.26558	-2.1042	-2.25	-2.4229	-2.4625	-2.1562	-2.55	-2.3438	-2.7062	-2.6688	-2.2875	-2.75	-2.4708	-2.3625	-2.8917	-2.2938	-2.4146	268.721	141.831	129.059	65.813	151.373	260.203	243.065	223.812	198.781	82.226	270.463	245.007	217.407	282.298	21.910	280.457	0.00028732	0.00059217	0.00013539	658.16	3.7844e-06	9.747e-06	677.1	275.82	5.3064e-06	5.8799e-06	331.84	150.34	125.75	61.368	5.0763e-06	77.077	0.00024399	0.00021788	5.8745e-05	614.25	2.2669e-06	2.2637e-06	631.76	258.21	2.3051e-06	2.3172e-06	308.05	140.59	118.25	58.268	2.388e-06	72.211	109.413	41.083	5.192	-37.461	95.775	125.674	-39.316	-31.818	60.585	85.023	-35.102	-30.785	-27.732	-22.706	77.414	-27.132	-8191	255	
1316.531	1	1	0	0	0.075805	0.083985	0.097612	0.016611	0.16412	0.22541	0.15862	0.074653	0.11798	0.084036	0.022046	0.021054	0.17584	0.31235	0.22852	0.22757	-1.9479	-2.2729	-2.6521	-2.3979	-2.1	-2.6188	-2.4229	-2.4062	-2.6542	-2.0938	-2.5167	-2.6396	-2.3125	-2.6813	-2.2417	-2.3063	-37.916	92.226	95.988	114.842	-30.630	81.970	232.920	254.784	263.468	31.577	262.332	97.710	242.220	269.851	308.070	207.911	0.00028747	0.00083437	0.00019886	655.49	5.1322e-06	8.7006e-06	677.83	275.89	4.4525e-06	5.539e-06	326.58	149.56	124.62	61.478	3.4549e-06	76.955	0.00024235	0.00021426	6.0252e-05	614.18	2.3228e-06	2.2679e-06	632.45	258.11	2.3063e-06	2.3481e-06	304.6	139.95	117.69	58.314	2.4429e-06	72.358	115.175	65.497	42.386	-37.456	112.449	122.898	-39.325	-31.676	80.740	96.654	-34.852	-30.787	-27.751	-22.619	97.696	-26.691	-8191	255	
1316.627	1	1	0	0	0.036282	0.046327	0.063519	0.24548	0.1463	0.13307	0.15832	0.22535	0.12315	0.10649	0.2009	0.11682	0.3081	0.13646	0.18577	0.16669	-2.2687	-2.1	-2.4375	-2.6146	-2.2146	-2.6521	-2.5187	-2.2104	-2.6979	-2.2479	-2.4896	-2.5417	-2.2292	-2.9313	-2.6083	-2.2958	-27.030	43.210	192.667	295.154	243.405	146.752	262.730	-5.981	115.800	76.819	-9.132	154.454	234.654	264.997	194.072	240.056	0.00029417	0.00067789	0.0001096	653.34	2.9177e-06	6.1513e-06	674.08	272.03	6.3844e-06	5.7219e-06	323.1	148.22	122.99	61.374	7.9848e-07	76.672	0.00024876	0.00021521	6.0109e-05	609.96	2.3314e-06	2.3698e-06	629.48	255.32	2.4127e-06	2.4156e-06	300.83	138.58	116.21	57.974	2.4535e-06	72.014	120.801	23.556	63.364	-37.405	99.735	101.902	-39.681	-31.503	101.569	116.802	-35.326	-30.849	-27.667	-22.517	109.448	-26.828	-8191	255	
1316.723	1	1	0	0	0.17011	0.1805	0.093363	0.13735	0.25191	0.15291	0.019702	0.13377	0.3024	0.11679	0.30693	0.12491	0.23421	0.24998	0.28973	0.4077	-2.2229	-2.2021	-2.3771	-2.6021	-2.0896	-2.5625	-2.5667	-2.1542	-2.6063	-2.4125	-2.4104	-2.7604	-2.0396	-2.6	-2.4542	-2.225	28.809	52.123	58.899	-46.139	47.631	255.492	302.867	-48.945	-41.174	161.752	256.407	306.142	291.543	-10.943	38.893	288.798	0.00029528	0.00033324	0.00010285	652.9	5.7725e-06	8.3089e-06	674.4	273.93	2.3984e-06	1.0152e-05	324.77	149.51	123.98	61.422	3.4434e-06	76.926	0.00025244	0.00022089	5.9785e-05	608.07	2.3687e-06	2.3669e-06	627.22	255.91	2.327e-06	2.4267e-06	302.27	139.82	117.2	58.163	2.4822e-06	72.16	123.974	27.526	24.779	-37.580	84.894	93.618	-38.981	-31.457	66.857	90.511	-35.070	-30.635	-27.888	-22.947	95.698	-26.636	-8191	255	
1316.819	1	1	0	0	0.27522	0.046389	0.15951	0.054538	0.1849	0.26231	0.20533	0.10757	0.13693	0.078366	0.15322	0.059676	0.19846	0.12192	0.095361	0.24318	-1.9854	-2.1083	-2.1958	-2.5021	-2.1458	-2.4771	-2.3667	-1.9604	-2.4604	-2.275	-2.2958	-2.6167	-2.275	-2.5292	-2.5875	-2.3979	19.748	286.378	39.163	206.664	55.454	50.334	272.759	52.302	167.557	158.671	31.410	274.663	236.159	135.984	283.494	289.703	0.00028558	0.0005986	9.575e-05	656.45	4.0509e-06	2.5131e-06	678.44	276.84	3.8717e-06	2.9924e-06	333.79	151.09	126.53	62.514	2.6999e-06	78.166	0.00025221	0.0002214	6.0911e-05	610.81	2.3546e-06	2.337e-06	632.48	258.44	2.3935e-06	2.3524e-06	309.45	141.84	119.42	59.222	2.4131e-06	73.301	108.468	61.144	39.291	-37.777	106.797	159.684	-39.498	-31.617	87.792	116.724	-35.233	-30.946	-27.992	-22.669	95.147	-26.839	-8191	255	
1316.940	1	1	0	0	0.11212	0.085863	0.087358	0.19032	0.070847	0.12123	0.30897	0.049617	0.23803	0.085609	0.042155	0.32957	0.22339	0.37734	0.059245	0.43578	-2.0333	-2.1333	-2.1729	-2.6729	-2.0375	-2.4146	-2.5167	-2.3354	-2.5312	-2.4729	-2.3688	-2.6271	-2.2125	-2.4021	-2.4646	-2.1896	128.576	95.261	268.376	0.107	191.503	-1.110	210.598	202.090	220.249	-24.685	125.553	280.879	34.235	237.988	253.192	272.288	0.00031455	0.00059413	0.00020142	659.08	4.4516e-06	5.9832e-06	683.06	282.75	6.3177e-06	5.7806e-06	338.91	154.1	128.58	63.172	4.8187e-06	78.825	0.00025457	0.00023021	6.0314e-05	616.45	2.476e-06	2.3903e-06	639.33	264.42	2.4164e-06	2.3539e-06	315.23	143.94	120.85	59.861	2.4176e-06	74.059	117.245	60.212	20.099	-37.733	65.934	60.948	-39.506	-31.990	69.401	95.636	-35.133	-30.975	-28.125	-22.762	85.076	-26.838	-8191	255	
1317.036	1	1	0	0	0.066723	0.096449	0.20976	0.29199	0.10378	0.12092	0.14911	0.22837	0.31266	0.121	0.13003	0.27891	0.19723	0.13318	0.074474	0.074091	-2.0396	-2.3187	-2.2458	-2.9333	-2.2667	-2.6167	-2.7687	-2.0479	-2.6542	-2.4625	-2.2687	-2.7042	-2.4	-2.2812	-2.6083	-2.3604	160.202	204.092	35.728	307.804	161.971	260.699	307.297	279.660	122.464	163.412	10.322	232.648	-23.534	275.037	9.777	262.619	0.00026274	0.00055843	0.00014044	667.09	5.9261e-06	5.4083e-06	687.02	284.66	5.7369e-06	7.5736e-06	345.74	154.12	129.15	63.403	5.1975e-06	79.832	0.00025592	0.00022653	6.1623e-05	623.56	2.4212e-06	2.4237e-06	643.98	267.41	2.4785e-06	2.3948e-06	319.03	144.91	121.74	60.147	2.447e-06	74.615	110.966	65.500	30.732	-37.382	93.414	104.810	-39.324	-31.900	81.779	89.427	-35.134	-31.229	-27.882	-22.567	106.020	-26.904	-8191	255	
1317.132	1	1	0	0	0.036401	0.10168	0.080957	0.15852	0.016067	0.042453	0.17865	0.40291	0.074076	0.15675	0.01245	0.2784	0.23304	0.2881	0.19255	0.24425	-1.9271	-2.5667	-2.1125	-2.6188	-2.4792	-2.45	-2.7479	-2.275	-2.5833	-2.4875	-2.2646	-2.5187	-2.4333	-2.4833	-2.3771	-2.2458	134.607	75.977	183.963	201.567	-25.509	277.289	305.843	160.557	157.966	35.658	68.529	277.183	286.795	268.435	18.103	288.332	0.00029541	0.00081155	0.00022687	668.61	3.5033e-06	5.2444e-06	687.7	288.88	5.7217e-06	5.6356e-06	345.97	154.84	128.99	63.735	5.0115e-06	79.73	0.00025871	0.00022035	6.0058e-05	623.73	2.4467e-06	2.427e-06	642.77	268.3	2.5136e-06	2.3369e-06	319.67	145.06	121.56	60.18	2.4122e-06	74.566	118.024	45.250	17.476	-37.379	68.617	100.024	-39.255	-31.363	92.602	92.121	-34.512	-30.940	-27.867	-22.541	93.080	-26.928	-8191	255	
1317.228	1	1	0	0	0.14977	0.10603	0.15084	0.1166	0.16872	0.12334	0.14777	0.084506	0.18624	0.29861	0.14115	0.27159	0.10014	0.34671	0.12122	0.16792	-1.6292	-2.4271	-2.0583	-2.4458	-2.4521	-2.1875	-2.825	-2.3021	-2.6042	-2.5729	-2.3667	-2.7104	-2.4604	-2.4104	-2.5708	-2.3979	-42.882	251.532	170.515	115.255	98.419	178.035	221.941	-42.684	23.301	184.576	268.613	-43.703	-5.501	255.652	264.465	241.810	0.00032384	0.00037416	0.00023619	668.23	4.5889e-06	3.3915e-06	688.84	287.22	6.7261e-06	6.3393e-06	343.12	155.18	129.93	64.058	3.7275e-06	80.083	0.0002598	0.00021551	6.2919e-05	623.69	2.4658e-06	2.3348e-06	643.47	268.35	2.4571e-06	2.3822e-06	319.74	145.8	122.54	60.558	2.4495e-06	75.155	108.205	9.479	37.039	-37.581	115.139	65.748	-39.181	-32.188	88.559	67.898	-35.059	-31.159	-27.978	-22.957	129.659	-27.132	-8191	255	
1317.323	1	1	0	0	0.14203	0.19041	0.19708	0.21112	0.075674	0.17832	0.064316	0.20123	0.059524	0.14908	0.13322	0.1224	0.1443	0.21114	0.19478	0.19811	-1.8	-2.5042	-2.0417	-2.4813	-2.4396	-2.1729	-2.6562	-2.3146	-2.3125	-2.6458	-2.2896	-2.4042	-2.6479	-2.2542	-2.4583	-2.5792	24.163	245.488	185.250	224.870	95.594	290.904	308.551	196.942	-14.807	218.347	-2.808	91.227	-43.310	225.005	198.403	261.559	0.00030881	0.0006067	0.0001062	666.14	3.9544e-06	8.8477e-06	690.22	286.29	4.5372e-06	3.8403e-06	341.2	156	130.53	64.064	2.0955e-06	80.698	0.00026179	0.00021916	6.2213e-05	621.36	2.4185e-06	2.4347e-06	643.27	268.7	2.4962e-06	2.4359e-06	318.56	146.02	122.85	60.614	2.5264e-06	75.671	114.168	46.090	20.377	-37.601	106.209	77.586	-39.642	-31.722	81.946	114.912	-35.282	-31.087	-28.152	-22.847	135.598	-27.050	-8191	255	
1317.419	1	1	0	0	0.14506	0.15415	0.19983	0.3378	0.32769	0.11615	0.25928	0.17631	0.17865	0.095302	0.060689	0.26181	0.13804	0.34115	0.0487	0.56834	-2.0021	-2.5542	-2.1479	-2.7333	-2.8125	-2.4521	-3.0687	-2.3729	-2.5646	-2.7667	-2.2917	-2.6333	-2.6667	-2.2146	-2.4688	-2.4333	44.431	137.610	239.275	135.079	116.569	31.236	216.313	242.080	-41.104	170.306	3.670	274.859	-44.833	226.758	170.312	254.448	0.00028181	0.00046101	0.00019154	660.01	6.1625e-06	8.157e-06	684.41	284.54	5.0735e-06	4.8594e-06	342.71	157.11	129.29	63.629	3.2408e-06	80.231	0.00026151	0.00022485	6.3091e-05	619.21	2.4264e-06	2.3607e-06	640.42	266.97	2.4842e-06	2.4076e-06	318.36	146.17	122.17	60.29	2.5126e-06	75.19	116.388	73.719	33.353	-37.206	108.092	66.755	-39.597	-31.441	91.426	171.205	-35.162	-31.050	-28.048	-22.946	142.939	-26.997	-8191	255	
1317.515	1	1	0	0	0.22004	0.055662	0.13992	0.16667	0.2246	0.075748	0.12992	0.099808	0.27277	0.1526	0.20827	0.15721	0.05867	0.28801	0.1359	0.22956	-1.625	-2.5729	-2.1729	-2.3708	-2.3812	-2.0625	-2.5833	-2.3063	-2.1	-2.4979	-2.3021	-2.4062	-2.575	-2.1271	-2.3875	-2.6437	173.021	57.130	80.053	211.301	168.477	-12.752	-28.096	184.552	267.928	131.474	-10.328	-3.975	-1.081	250.274	253.123	219.746	0.00031141	0.00052742	0.00015681	659.56	4.278e-06	9.6305e-06	677.05	282.05	3.6476e-06	6.0649e-06	332.69	152.42	128.12	62.757	3.9517e-06	78.766	0.00025943	0.00021567	6.382e-05	615.26	2.3818e-06	2.2997e-06	632.35	263.08	2.4628e-06	2.3489e-06	308.95	142.96	120.6	59.519	2.4675e-06	73.92	122.996	70.256	7.931	-37.708	67.396	116.568	-39.327	-31.794	73.060	91.624	-34.996	-31.089	-27.811	-22.820	75.791	-26.711	-8191	255	
1317.636	1	1	0	0	0.063859	0.27873	0.20399	0.15016	0.29185	0.14676	0.16437	0.2272	0.0871	0.14264	0.17049	0.14114	0.10606	0.4185	0.21697	0.2688	-1.6292	-2.575	-2.2792	-2.5312	-2.675	-2.3521	-2.5958	-2.6167	-2.2375	-2.7333	-2.4083	-2.5854	-2.6396	-2.3937	-2.5958	-2.5146	226.861	54.365	128.542	247.527	0.120	108.482	236.061	185.834	-41.999	219.664	74.877	24.940	-45.469	288.303	191.575	242.993	0.00031838	0.00039231	0.00019104	652.43	4.0678e-06	3.0481e-06	670.23	274	5.1416e-06	3.398e-06	327.6	151.1	126.74	62.573	5.6027e-06	78.962	0.00025585	0.00022153	6.274e-05	608.99	2.3851e-06	2.417e-06	626.37	257.87	2.4488e-06	2.4112e-06	305.72	141.67	119.27	59.176	2.5336e-06	73.847	119.787	35.721	67.078	-37.611	97.193	45.879	-39.328	-31.913	103.104	83.444	-35.620	-30.914	-27.963	-23.073	62.899	-27.294	-8191	255	
1317.732	1	1	0	0	0.20739	0.12545	0.060331	0.19088	0.2013	0.17771	0.072768	0.064293	0.2196	0.17969	0.19519	0.28822	0.13637	0.094562	0.28728	0.18071	-1.6521	-2.6167	-2.2812	-2.3417	-2.5792	-2.0104	-2.4354	-2.3833	-2.125	-2.6354	-2.3958	-2.1083	-2.7458	-2.3458	-2.3729	-2.6375	240.141	86.177	269.768	244.300	104.426	15.856	239.505	84.767	63.981	89.857	-36.791	244.386	246.904	-30.154	-43.387	216.675	0.00028349	0.00065582	0.00022193	645.78	2.7072e-06	5.6877e-06	668.15	277.48	6.6385e-06	9.4401e-06	328.84	152.12	127.15	62.641	4.6508e-06	78.894	0.0002599	0.00022396	6.2309e-05	606.6	2.3795e-06	2.3581e-06	624.45	259.48	2.4601e-06	2.4291e-06	306.06	142.4	119.76	59.407	2.5443e-06	74.045	125.610	16.304	26.795	-37.444	71.948	85.976	-39.604	-31.725	107.400	94.629	-35.169	-30.955	-27.965	-22.921	74.389	-26.934	-8191	255	
1317.804	1	1	0	0	0.099685	0.14106	0.19528	0.44863	0.18949	0.076013	0.10021	0.20764	0.093372	0.085557	0.039587	0.20974	0.084793	0.18246	0.071217	0.20432	-1.6333	-2.4479	-2.3479	-2.2667	-2.6667	-2.4396	-2.4604	-2.4667	-2.3083	-2.6896	-2.4313	-2.3979	-2.6271	-2.5583	-2.1375	-2.825	91.338	36.523	228.691	223.503	98.563	308.206	269.059	208.464	144.423	-15.094	100.180	172.936	145.060	310.009	198.305	234.044	0.00032514	0.00056111	0.00013782	653.42	5.9835e-06	7.5439e-06	678.86	278.09	7.1104e-06	6.5852e-06	333.17	154.44	127.77	63.012	4.969e-06	79.274	0.00026193	0.00021601	6.1778e-05	611.02	2.3386e-06	2.3545e-06	630.18	260.12	2.4199e-06	2.3662e-06	309.24	143.74	120.7	59.638	2.4566e-06	74.386	113.015	37.562	39.039	-37.760	106.368	101.900	-39.201	-31.856	107.591	118.205	-35.180	-30.808	-27.944	-22.744	104.315	-26.883	-8191	255	
1317.900	1	1	0	0	0.19256	0.026164	0.15149	0.23577	0.16724	0.17632	0.26423	0.32709	0.12727	0.14437	0.32945	0.33846	0.32715	0.21413	0.12446	0.25251	-1.7687	-2.3875	-2.4771	-2.0708	-2.575	-2.6208	-2.3771	-2.8896	-2.2146	-2.4417	-2.8625	-2.4625	-2.7313	-2.3979	-2.2771	-2.8979	122.897	-36.329	34.360	233.250	256.031	98.631	13.038	291.233	118.490	129.498	290.217	309.722	-3.767	-43.700	155.094	277.074	0.00030423	0.00060973	7.7082e-05	650.98	5.4106e-06	4.2712e-06	673.81	278.58	4.9958e-06	7.3781e-06	333.63	153.24	128.19	62.754	1.9391e-06	78.776	0.0002475	0.00022019	5.9389e-05	610.1	2.3689e-06	2.4561e-06	629.43	261.67	2.4155e-06	2.3212e-06	309.43	143.33	120.79	59.393	2.4024e-06	74.082	108.655	70.653	-0.916	-37.943	72.964	54.292	-39.274	-31.970	123.337	74.179	-35.065	-31.442	-28.097	-23.108	82.649	-26.993	-8191	255	
1318.020	1	1	0	0	0.091377	0.17145	0.16206	0.040027	0.097073	0.29386	0.26694	0.32524	0.076828	0.17911	0.17959	0.2326	0.24676	0.13779	0.25891	0.14585	-1.7625	-2.4542	-2.3646	-2.0229	-2.3229	-2.2021	-2.2625	-2.7188	-2.2833	-2.4437	-2.7979	-2.2938	-2.6021	-2.4792	-2.0812	-2.7396	162.587	257.795	53.700	9.132	149.361	218.522	245.657	250.573	233.268	246.989	264.335	210.421	-19.315	33.433	168.840	214.163	0.00031233	0.00060957	8.2409e-05	650.19	3.9257e-06	3.5757e-06	670.3	276.66	1.8206e-06	6.7411e-06	327.75	150.8	125.41	61.71	5.6295e-06	77.754	0.00025471	0.00021901	5.9585e-05	608.13	2.4065e-06	2.2861e-06	623.31	258.01	2.3923e-06	2.3772e-06	303.44	140.92	118.31	58.46	2.4335e-06	72.94	117.548	31.763	44.067	-37.767	79.634	152.299	-39.493	-32.040	164.347	96.112	-34.951	-31.132	-28.220	-22.901	66.994	-27.101	-8191	255	
1318.117	1	1	0	0	0.13487	0.093921	0.19957	0.060843	0.077931	0.32198	0.13568	0.37136	0.10521	0.28578	0.15418	0.34162	0.40612	0.17994	0.039226	0.20264	-1.8729	-2.3833	-2.3875	-2.0042	-2.4042	-2.425	-2.2979	-2.5958	-2.3979	-2.2917	-2.4833	-2.15	-2.4958	-2.6292	-1.9854	-2.6937	147.180	72.186	202.493	-10.667	15.561	132.484	226.741	-39.548	-40.165	152.907	8.946	307.150	259.658	234.017	100.962	245.370	0.00034113	0.00071428	8.7279e-05	637.52	4.1363e-06	3.0051e-06	652.6	265.16	4.7625e-06	5.4517e-06	315.35	146.45	122.75	60.533	5.7812e-06	76.359	0.00024864	0.0002187	6.0056e-05	596.83	2.4047e-06	2.37e-06	608.74	249.33	2.4372e-06	2.3701e-06	291.96	137.22	115.57	57.331	2.4493e-06	71.659	117.634	36.741	27.327	-37.682	88.195	83.981	-39.150	-31.729	110.412	82.465	-35.128	-30.839	-28.011	-23.065	74.128	-26.644	-8191	255	
1318.213	1	1	0	0	0.15114	0.095337	0.17889	0.096391	0.2393	0.25718	0.081358	0.12087	0.048399	0.12247	0.19689	0.17642	0.18741	0.16432	0.030748	0.41156	-1.8458	-2.0146	-2.5125	-2.1354	-2.5396	-2.5667	-2.325	-2.4188	-2.225	-2.1688	-2.4583	-2.2667	-2.4229	-2.4771	-1.9667	-2.4625	60.142	152.788	93.468	217.981	219.341	44.072	11.926	30.282	-7.675	116.863	240.564	242.541	287.800	262.383	133.112	261.179	0.00028681	0.00061489	0.00012334	640.5	8.463e-07	8.2504e-06	653.42	263.89	5.5498e-06	4.8221e-06	312.44	146.17	122.85	60.537	2.9939e-06	76.096	0.00025623	0.00021696	5.9691e-05	593.39	2.3725e-06	2.2796e-06	604.89	246.16	2.424e-06	2.3051e-06	290.35	136.68	115.69	57.198	2.3789e-06	71.417	124.938	66.894	51.877	-37.731	279.211	105.749	-39.174	-31.656	112.840	128.894	-34.995	-30.919	-27.780	-23.094	92.964	-27.145	-8191	255	
1318.333	1	1	0	0	0.11877	0.040584	0.055266	0.03547	0.15663	0.12907	0.19595	0.149	0.059264	0.25112	0.2019	0.19206	0.14259	0.0081262	0.19912	0.21221	-1.85	-2.1542	-2.4604	-2.3833	-2.4021	-2.7062	-2.2458	-2.7854	-2.3667	-2.2625	-2.7438	-2.6104	-2.4958	-2.7042	-2.3771	-2.6979	116.280	130.714	19.651	226.810	65.887	60.025	-32.848	285.152	-38.996	296.081	10.367	212.363	256.747	121.704	255.482	183.715	0.0003058	0.00042425	0.00011729	635.97	5.7209e-06	7.7548e-06	658.71	269.63	4.624e-06	5.8471e-06	321.72	149.67	125.83	61.471	3.1056e-06	77.51	0.00024782	0.00021305	5.9459e-05	595.81	2.359e-06	2.222e-06	610.79	251.98	2.3805e-06	2.2802e-06	299.37	140.06	118.45	58.298	2.3646e-06	72.744	113.269	39.049	72.152	-37.299	86.551	121.030	-39.267	-31.904	80.509	84.102	-35.241	-30.907	-27.911	-22.673	86.586	-27.015	-8191	255	
1318.428	1	1	0	0	0.10382	0.1391	0.11696	0.1127	0.3159	0.33754	0.49859	0.13475	0.2273	0.18122	0.18591	0.13449	0.3016	0.2944	0.1965	0.30432	-1.8146	-2.1083	-2.5729	-2.3187	-2.5125	-2.5	-2.1146	-2.5333	-2.3042	-2.1021	-2.6437	-2.3625	-2.375	-2.7583	-2.1979	-2.5583	224.672	29.925	293.177	142.790	271.533	277.971	295.738	285.439	304.788	300.711	203.982	289.405	278.686	238.518	51.748	294.253	0.00031558	0.00078452	0.00012835	649.38	1.9377e-06	8.8415e-06	664.49	274.6	4.5174e-06	5.3408e-06	324.7	150.94	126.26	62.116	2.401e-06	77.767	0.00024736	0.00021538	5.8167e-05	606.79	2.3624e-06	2.3516e-06	621.38	256.48	2.3067e-06	2.2267e-06	302.97	141.37	118.93	58.757	2.4184e-06	73.007	117.910	32.281	39.063	-37.205	160.122	89.136	-39.385	-31.673	99.044	83.647	-35.332	-31.203	-27.996	-22.738	87.500	-26.997	-8191	255	
1318.501	1	1	0	0	0.21718	0.25098	0.11876	0.11322	0.30106	0.11076	0.14341	0.14215	0.17168	0.22475	0.06512	0.099983	0.26003	0.11264	0.16949	0.19077	-2.1604	-2.2521	-2.4896	-2.4021	-2.2979	-2.7271	-2.3833	-2.4771	-2.6312	-2.3563	-2.75	-2.5292	-2.5104	-2.7708	-2.4354	-2.7625	236.543	190.134	8.790	-4.261	-19.422	291.672	207.620	230.564	57.550	261.372	259.889	262.088	-28.701	271.836	114.352	280.023	0.00025244	0.00030915	0.00015692	649.67	4.9736e-06	2.8184e-06	660.46	274.07	6.1042e-06	7.1303e-06	325.56	150.94	126.05	62.323	6.1171e-06	78.017	0.00024843	0.00021664	5.838e-05	606.86	2.2916e-06	2.2631e-06	618.81	256.17	2.2759e-06	2.3183e-06	302.35	141.56	118.86	58.865	2.4742e-06	73.311	108.477	-6.892	40.360	-37.760	110.548	138.712	-39.500	-31.924	59.533	127.507	-35.142	-30.963	-28.094	-22.801	89.873	-26.988	-8191	255	
1318.620	1	1	0	0	0.16582	0.12428	0.15439	0.24464	0.16737	0.18857	0.053583	0.52558	0.052084	0.081102	0.27193	0.26857	0.18241	0.174	0.19671	0.17883	-2.3271	-2.4	-2.6063	-2.55	-2.2021	-2.4562	-2.225	-2.3229	-2.4271	-2.1375	-2.5229	-2.5312	-2.2812	-2.6937	-2.3375	-2.6	135.692	225.486	237.959	11.711	191.776	150.895	219.030	290.158	147.087	44.080	247.938	223.036	198.164	46.431	67.995	253.016	0.00036521	0.00030319	0.00017767	647.59	3.826e-06	2.4453e-06	662.66	272.03	5.0925e-06	2.975e-06	322.36	150.45	125.42	62.063	3.4255e-06	77.982	0.0002508	0.00021102	6.0898e-05	606.18	2.2891e-06	2.3326e-06	619.64	254.23	2.3087e-06	2.3602e-06	300.88	140.87	118.16	58.778	2.434e-06	72.968	117.567	71.178	61.682	-37.973	80.405	107.412	-39.102	-31.624	89.078	84.624	-35.067	-30.752	-27.927	-23.074	121.146	-27.012	-8191	255	
1318.716	1	1	0	0	0.14953	0.15695	0.1627	0.25719	0.2493	0.13809	0.27613	0.06094	0.13507	0.13404	0.22325	0.19302	0.096697	0.34758	0.07239	0.24763	-2.2708	-2.2792	-2.725	-2.7625	-2.3146	-2.5354	-2.3833	-2.3896	-2.6667	-2.3167	-2.6625	-2.7417	-2.325	-2.8458	-2.2938	-2.3312	164.191	94.574	77.457	306.249	65.172	28.976	238.284	101.413	43.981	209.224	177.329	296.274	273.306	239.091	271.982	238.478	0.00029314	0.00063184	0.00011355	649.48	4.5436e-06	8.2208e-06	658.47	270.51	2.6933e-06	7.149e-06	317.46	148.34	124.41	61.929	1.1084e-06	77.261	0.00024717	0.00021943	6.1337e-05	605.58	2.3542e-06	2.3231e-06	615.54	252.43	2.468e-06	2.3724e-06	296.36	139.11	116.86	58.459	2.5049e-06	72.426	116.993	71.069	80.098	-37.815	108.611	94.034	-39.266	-31.830	98.491	115.528	-34.824	-30.703	-28.099	-22.912	78.761	-26.871	-8191	255	
1318.812	1	1	0	0	0.26703	0.024683	0.19284	0.050474	0.076889	0.15687	0.1289	0.15816	0.097652	0.037549	0.24725	0.11617	0.17285	0.060738	0.13185	0.14249	-2.3208	-2.2625	-2.4542	-2.7229	-2.1625	-2.5417	-2.6	-2.3625	-2.7687	-2.2562	-2.5646	-2.8708	-2.3438	-2.8417	-2.5646	-2.4417	183.630	57.767	238.783	-14.574	150.933	272.592	244.696	308.773	61.030	235.667	275.305	102.303	21.821	34.911	127.215	198.368	0.00031773	0.00041369	0.0001754	640.7	2.2679e-06	9.4192e-06	648.02	262.59	6.6483e-06	4.8894e-06	306.68	145.94	121.31	60.975	5.4018e-06	76.54	0.00025557	0.0002313	6.4421e-05	595.56	2.4888e-06	2.4505e-06	604.56	245.84	2.4557e-06	2.4985e-06	287.53	136.46	114.51	57.623	2.4975e-06	71.997	108.296	42.531	1.641	-37.824	60.117	91.178	-39.608	-31.453	106.626	138.854	-35.092	-30.813	-27.733	-22.823	87.518	-26.923	-8191	255	
1318.933	1	1	0	0	0.27934	0.18016	0.074983	0.066476	0.15034	0.085298	0.21823	0.08988	0.185	0.064176	0.13909	0.24551	0.14907	0.23555	0.10199	0.11076	-2.175	-2.3271	-2.2479	-2.7188	-2.1729	-2.5062	-2.5438	-2.0958	-2.6125	-2.175	-2.2979	-2.4188	-2.1708	-2.6854	-2.525	-2.3563	198.332	160.731	137.612	250.651	93.983	-44.524	234.765	-9.668	218.746	58.042	257.267	167.676	3.550	-22.465	219.383	184.806	0.00031074	0.00065582	0.00026434	630.98	5.9707e-06	5.7322e-06	637.05	260.21	6.2933e-06	9.2553e-06	309.43	146	120.62	61.074	2.7322e-06	76.677	0.00025321	0.00023544	6.2761e-05	588.85	2.5032e-06	2.6035e-06	596.88	243.42	2.5165e-06	2.5066e-06	287.27	135.79	113.9	57.841	2.6474e-06	72.102	113.299	19.788	47.280	-37.747	92.893	91.635	-39.205	-31.440	102.321	82.056	-34.252	-30.824	-27.799	-22.770	104.640	-26.762	-8191	255	
1319.029	1	1	0	0	0.2671	0.19224	0.30394	0.22859	0.03743	0.29426	0.24124	0.04945	0.10665	0.27214	0.06359	0.10441	0.18478	0.30005	0.10389	0.077795	-2.1312	-2.2167	-2.375	-2.6917	-2.3854	-2.6021	-2.6375	-2.2833	-2.8396	-2.5333	-2.3667	-2.6958	-2.3937	-2.5292	-2.5563	-2.3271	138.931	75.481	205.316	272.339	-24.224	9.450	247.141	159.446	28.297	18.948	188.017	307.963	214.547	-26.904	108.388	303.004	0.00030211	0.00049177	0.00011477	628.37	1.8977e-06	8.763e-06	637.06	259.08	6.8176e-06	9.5366e-06	305.41	143.6	121.26	60.583	4.0948e-06	76.235	0.0002643	0.00023729	6.4215e-05	584.32	2.5698e-06	2.5363e-06	595.13	242.46	2.5741e-06	2.6044e-06	283.49	134.45	113.46	57.443	2.6251e-06	71.508	106.262	51.939	28.576	-37.650	57.577	67.727	-39.346	-31.695	83.835	78.136	-35.028	-30.414	-27.634	-22.924	96.305	-26.998	-8191	255	
1319.101	1	1	0	0	0.22492	0.067219	0.15595	0.11887	0.08975	0.24016	0.14995	0.29332	0.30679	0.075729	0.10249	0.24457	0.15605	0.21574	0.31405	0.10335	-1.9833	-2.5125	-2.1875	-2.7229	-2.2917	-2.4333	-2.7792	-2.2958	-2.7229	-2.5458	-2.5042	-2.7104	-2.3646	-2.4208	-2.7646	-2.6083	26.339	-9.009	110.521	298.253	263.544	49.525	278.079	219.571	172.319	276.952	120.814	287.033	304.275	-27.307	-48.631	298.057	0.00032379	0.00052289	0.00018414	616.28	4.8049e-06	1.8307e-06	627.39	256.14	5.3291e-06	6.6416e-06	300.72	142.47	119.36	60.416	6.1496e-06	75.87	0.0002656	0.00023696	6.3545e-05	575.73	2.5827e-06	2.6069e-06	585.81	239.05	2.5753e-06	2.5264e-06	280.51	133.67	112.39	57.082	2.5506e-06	71.323	122.429	50.411	22.354	-37.447	146.944	144.367	-39.242	-31.259	41.760	89.982	-34.880	-31.019	-27.697	-22.918	104.254	-26.732	-8191	255	
1319.197	1	1	0	0	0.10334	0.46629	0.1443	0.1985	0.049642	0.11986	0.095747	0.12297	0.067678	0.095832	0.085489	0.10557	0.17543	0.18302	0.16074	0.27936	-2.1042	-2.3792	-2.1021	-2.5625	-2.3937	-2.4396	-2.7375	-2.3208	-2.5792	-2.6375	-2.25	-2.675	-2.4646	-2.4917	-2.6042	-2.1521	87.746	288.316	77.782	-44.319	284.624	81.758	180.297	-4.888	60.050	301.548	64.372	-32.631	208.891	-40.709	269.118	229.364	0.00032252	0.00088812	7.9994e-05	612.26	3.5381e-06	1.0789e-05	627.78	255.97	3.9338e-06	5.9608e-06	301.43	142.37	118.84	60.584	4.4372e-06	76.533	0.00026572	0.00023415	6.3292e-05	574.56	2.5552e-06	2.4505e-06	586.21	238.88	2.4599e-06	2.499e-06	281.47	133.89	112.5	57.296	2.5768e-06	71.692	122.632	15.556	22.078	-37.601	109.356	93.786	-39.021	-31.288	47.890	52.187	-35.137	-30.905	-27.702	-22.894	69.220	-26.816	-8191	255	
1319.316	1	1	0	0	0.2187	0.24956	0.2911	0.10906	0.10983	0.066187	0.15327	0.12365	0.23912	0.053536	0.3571	0.19212	0.094003	0.19496	0.099359	0.21862	-1.9604	-2.4521	-2.1458	-2.9042	-2.4542	-2.5771	-2.9292	-2.3063	-2.425	-2.5167	-2.2938	-2.7271	-2.6042	-2.5396	-2.7104	-2.5438	75.483	184.607	-6.276	286.455	137.168	41.251	208.183	216.314	30.087	276.769	269.631	303.670	16.613	-23.379	-5.915	265.998	0.00025068	0.00037879	0.0001535	615.87	8.5872e-06	9.5059e-06	625.86	253.59	8.3112e-06	4.1405e-06	299.33	142.09	118.32	60.455	3.1497e-06	76.198	0.0002629	0.00022205	6.3618e-05	576.38	2.5182e-06	2.4288e-06	587.03	238.16	2.4929e-06	2.4899e-06	278.9	133.65	111.86	56.996	2.4752e-06	71.377	114.152	107.181	29.691	-37.547	113.390	81.972	-39.495	-31.857	53.859	83.007	-34.738	-30.850	-28.015	-22.945	28.830	-26.774	-8191	255	
1319.412	1	1	0	0	0.25846	0.37452	0.13818	0.10694	0.084397	0.20776	0.13491	0.16497	0.14353	0.17775	0.17026	0.25513	0.1511	0.18934	0.13987	0.16247	-2.2917	-2.4813	-2.1021	-2.5187	-2.4	-2.4292	-2.7583	-2.3208	-2.4938	-2.6104	-2.1854	-2.4792	-2.575	-2.1396	-2.5542	-2.2375	157.165	67.062	82.246	258.190	254.810	74.893	77.503	302.698	226.344	197.624	208.870	257.324	-37.499	199.842	211.960	170.590	0.00031683	0.00050952	0.000151	614.43	3.4121e-06	3.1962e-06	629.32	256.44	4.9331e-06	5.7101e-06	301.92	142.62	118.84	60.139	2.9346e-06	75.66	0.0002623	0.0002237	6.1591e-05	575	2.4675e-06	2.4516e-06	588.41	239.67	2.4742e-06	2.4212e-06	280.77	133.82	112.26	57.015	2.5127e-06	71.271	114.463	11.159	74.959	-37.687	103.551	88.341	-39.124	-31.555	107.123	126.977	-34.712	-30.706	-27.936	-23.139	51.302	-26.694	-8191	255	
1319.508	1	1	0	0	0.11257	0.16966	0.22549	0.17853	0.066533	0.22956	0.15315	0.14992	0.20922	0.11897	0.22162	0.26512	0.36238	0.32292	0.13368	0.35773	-1.8875	-2.5417	-2.2313	-2.625	-2.6125	-2.3688	-2.7917	-2.2354	-2.3312	-2.4875	-2.1417	-2.4917	-2.4583	-2.2667	-2.4938	-2.4104	151.438	15.063	248.584	-8.520	213.347	165.048	105.435	286.507	273.587	-30.140	157.876	196.568	274.255	254.076	184.027	280.281	0.00023881	0.00043148	7.1713e-05	616.46	2.9341e-06	7.2547e-06	633.71	258.12	3.6279e-06	5.8739e-06	302.8	143.93	120.06	60.602	6.7857e-07	76.668	0.00026192	0.0002204	6.3317e-05	577.6	2.4714e-06	2.4171e-06	590.55	240.53	2.5724e-06	2.5023e-06	283.36	134.86	113.36	57.4	2.5509e-06	71.986	111.683	55.963	66.714	-37.221	114.063	36.123	-39.392	-31.815	66.762	54.850	-35.285	-30.740	-27.827	-22.908	222.146	-26.835	-8191	255	
1319.604	1	1	0	0	0.17457	0.12777	0.10402	0.05399	0.39235	0.37721	0.14565	0.029299	0.18196	0.35021	0.16132	0.12384	0.31204	0.44274	0.11859	0.31676	-1.8479	-2.5354	-2.2229	-2.6146	-2.7125	-2.2979	-2.7438	-2.4271	-2.3187	-2.7562	-2.4042	-2.5021	-2.6396	-2.2792	-2.6792	-2.6667	145.334	210.944	15.876	86.165	-11.481	25.700	277.300	241.010	78.069	162.215	125.291	246.762	220.437	279.851	195.793	247.381	0.000336	0.00058171	2.8735e-05	619.09	5.5896e-06	7.905e-06	631.48	257.35	2.4147e-06	6.8118e-06	305.53	144.77	120.43	60.958	3.3508e-06	77.686	0.00025987	0.00022884	6.6461e-05	580.36	2.4717e-06	2.4497e-06	591.56	241.02	2.5869e-06	2.5457e-06	284.29	135.58	113.55	57.691	2.6049e-06	72.647	115.918	13.104	95.732	-37.323	63.054	101.078	-39.618	-31.370	1.131	67.117	-35.029	-30.735	-27.765	-22.586	90.063	-26.916	-8191	255	
1319.725	1	1	0	0	0.1385	0.11078	0.10619	0.12046	0.067759	0.055246	0.078658	0.20824	0.1856	0.14956	0.031122	0.23694	0.13731	0.31145	0.21245	0.2086	-1.7062	-2.5646	-2.2208	-2.3854	-2.4042	-1.9104	-2.6458	-2.7313	-2.1917	-2.5833	-2.2167	-2.3146	-2.7458	-2.0938	-2.4021	-2.675	156.150	-33.201	64.356	286.402	41.885	-26.325	203.554	101.763	8.771	-40.674	53.141	252.677	220.713	301.948	208.732	227.958	0.00028935	0.00070639	0.00016613	622.45	3.0947e-06	4.9081e-06	635.12	258.42	3.2906e-07	2.1038e-06	311.41	146.91	121.6	61.327	4.9733e-06	77.861	0.00026379	0.00023731	6.5824e-05	580.66	2.5472e-06	2.6597e-06	594.82	243.08	2.616e-06	2.6195e-06	289.02	137.56	114.85	58.095	2.6002e-06	73.29	120.494	60.870	50.923	-37.462	98.361	45.918	-39.408	-31.648	102.261	97.438	-34.949	-30.968	-28.165	-22.917	111.414	-27.118	-8191	255	
1319.797	1	1	0	0	0.10588	0.099652	0.19633	0.095268	0.05243	0.13763	0.11429	0.062916	0.19834	0.12938	0.22418	0.27394	0.26692	0.15983	0.048673	0.29268	-1.7563	-2.6146	-2.4917	-2.475	-2.7458	-2.2646	-2.4688	-2.4688	-2.3917	-2.6375	-2.45	-2.3396	-2.5229	-2.3438	-2.1958	-2.5604	246.530	309.127	53.113	171.591	-22.462	-0.049	54.598	-46.207	-40.230	31.420	197.340	301.945	308.720	-12.856	43.402	268.464	0.00028706	0.00074731	0.00018332	628.71	5.3397e-06	8.5176e-06	650.8	265.95	3.2285e-06	8.3275e-06	318.98	150.36	124.93	62.458	2.0252e-06	78.861	0.00027236	0.00023078	6.7154e-05	587.63	2.6533e-06	2.5703e-06	606.19	249.77	2.59e-06	2.5713e-06	297.48	140.9	117.72	59.121	2.7008e-06	74.023	98.955	16.827	68.161	-37.509	110.783	89.588	-39.473	-31.756	79.751	74.312	-34.823	-30.962	-27.607	-22.954	44.410	-27.058	-8191	255	
1319.893	1	1	0	0	0.095267	0.10284	0.14193	0.16429	0.10729	0.21541	0.3738	0.44747	0.21642	0.1488	0.30791	0.12594	0.16687	0.22787	0.01164	0.022256	-1.5812	-2.5354	-2.3354	-2.3896	-2.7479	-2.3792	-2.6562	-2.7229	-2.3146	-2.8021	-2.6167	-2.4083	-2.8729	-2.5833	-2.2208	-2.7875	152.521	189.871	48.081	252.788	35.451	163.114	219.980	206.757	178.243	-0.456	277.409	296.959	-30.794	282.434	255.892	178.123	0.00028458	0.00063213	0.00016753	647.29	2.2995e-06	4.4085e-06	661.45	273.21	3.0461e-06	6.3815e-06	326.18	152.37	126.45	63.083	6.1591e-06	79.605	0.00026752	0.00023754	6.7135e-05	602.08	2.5518e-06	2.5435e-06	618.61	256.35	2.6308e-06	2.5498e-06	303.8	142.6	119.24	59.696	2.646e-06	74.819	118.313	30.782	38.988	-37.529	78.636	67.635	-39.428	-31.907	2.182	120.353	-35.261	-31.046	-27.887	-22.689	73.576	-26.926	-8191	255	
1320.013	1	1	0	0	0.018254	0.26658	0.19642	0.26434	0.079789	0.17216	0.2411	0.32548	0.25975	0.091085	0.16875	0.2638	0.3019	0.41747	0.13046	0.1074	-1.6729	-2.4167	-2.2729	-2.1646	-2.6333	-2.1771	-2.3479	-2.6375	-2.1063	-2.3604	-2.7354	-2.2104	-2.6937	-2.3979	-2.3208	-2.8792	-17.737	156.693	218.394	-22.432	37.772	131.006	208.567	231.243	-47.255	-18.806	197.280	36.792	-48.353	294.703	132.837	78.449	0.00025103	0.00051435	0.00017139	648.37	3.4784e-06	5.111e-06	667.87	278.24	5.3193e-06	7.9317e-06	331.04	153.8	128	63.448	5.7258e-06	80.171	0.00027245	0.00023389	6.5253e-05	607.84	2.5611e-06	2.5475e-06	623.52	260.1	2.628e-06	2.5998e-06	309.46	144.46	120.3	60.137	2.6649e-06	75.389	111.775	39.068	36.314	-36.996	98.375	98.913	-39.298	-31.610	69.438	104.774	-35.330	-31.168	-27.883	-22.912	92.348	-27.192	-8191	255	
1320.110	1	1	0	0	0.12322	0.13363	0.066526	0.10034	0.24308	0.22739	0.3129	0.096534	0.13223	0.21405	0.078062	0.18019	0.016092	0.28467	0.084685	0.067647	-1.6729	-2.5479	-2.5042	-2.0187	-2.5062	-2.4375	-2.3958	-2.85	-2.2333	-2.6708	-2.7208	-2.4833	-2.8333	-2.4271	-2.1396	-2.8625	158.443	182.183	191.388	147.187	192.170	-36.216	222.893	300.454	186.612	159.679	100.836	266.029	73.238	232.001	304.506	206.702	0.0002888	0.00014946	0.00012237	654.66	4.8787e-06	8.2264e-06	678.75	282.44	3.6084e-06	6.6933e-06	335.77	154.94	128.69	63.733	1.5072e-06	81.033	0.00026989	0.00023657	6.4257e-05	611.29	2.5901e-06	2.53e-06	632.12	263.44	2.6104e-06	2.5261e-06	312.97	145.79	121.05	60.402	2.629e-06	75.972	109.938	50.044	48.045	-37.423	95.164	88.401	-39.250	-31.896	94.316	96.105	-34.769	-30.828	-28.175	-23.313	123.014	-26.897	-8191	255	
1320.206	1	1	0	0	0.15702	0.20983	0.023455	0.24329	0.071562	0.027926	0.36764	0.21325	0.17346	0.262	0.30436	0.27707	0.15491	0.013836	0.16972	0.25766	-1.5688	-2.2188	-2.4667	-2.2771	-2.5271	-2.2875	-2.1208	-2.4667	-2.1542	-2.4938	-2.7417	-2.3104	-2.6917	-2.6229	-2.2458	-2.7562	37.464	83.351	-36.951	-12.024	86.861	111.996	266.757	176.538	184.227	-44.508	283.831	186.707	171.956	117.919	172.411	245.158	0.00034296	0.00025226	0.00017872	654.79	4.4127e-06	7.9646e-06	674.53	282.09	6.8121e-06	7.8711e-06	339.83	156.21	128.8	63.834	2.4621e-06	80.492	0.00027356	0.0002344	6.3119e-05	612.44	2.4642e-06	2.5673e-06	630.2	263.15	2.5943e-06	2.4992e-06	313.89	146.1	121.2	60.349	2.6221e-06	75.626	113.617	39.875	62.979	-37.218	26.154	96.185	-38.912	-31.935	108.502	104.193	-35.567	-30.922	-28.013	-23.059	87.765	-26.963	-8191	255	
1320.302	1	1	0	0	0.038051	0.11769	0.20441	0.24822	0.07193	0.13083	0.21205	0.17117	0.17223	0.046755	0.091417	0.34702	0.096626	0.35337	0.067356	0.21592	-2.0792	-2.4104	-2.6167	-2.15	-2.2062	-2.3	-2.1729	-2.6833	-2.1312	-2.2438	-2.4771	-2.1	-2.3854	-2.5333	-2.0521	-2.7646	116.483	135.085	179.525	296.270	170.115	47.729	284.006	270.711	69.432	169.193	262.220	276.961	-23.499	-20.671	193.480	240.626	0.00035911	0.00036937	0.00013398	651.3	4.3935e-06	7.7335e-06	671.98	279.97	3.1179e-06	6.7752e-06	333.48	155.96	128.63	63.355	3.7391e-06	81.183	0.00027505	0.00023149	6.3867e-05	610.58	2.6757e-06	2.5367e-06	627.44	262.16	2.5107e-06	2.4941e-06	311.37	146.07	120.88	60.09	2.5343e-06	75.766	119.653	70.146	62.223	-37.586	115.499	88.090	-39.286	-32.106	81.009	60.998	-35.347	-31.376	-28.504	-22.996	98.321	-27.247	-8191	255	
1320.396	1	1	0	0	0.14362	0.18924	0.040211	0.24386	0.12021	0.19558	0.19836	0.19914	0.19322	0.073401	0.32373	0.19095	0.36056	0.19465	0.17223	0.32119	-1.8083	-2.3667	-2.7188	-2.6333	-2.4875	-2.5604	-2.3104	-2.8167	-2.5938	-2.4	-2.9188	-2.5479	-2.4708	-2.7396	-2.0833	-2.6271	13.596	-11.525	305.760	292.772	174.604	184.266	262.507	293.151	161.431	72.290	208.322	8.395	281.045	256.769	171.860	-31.753	0.00030933	0.0006515	0.00013064	653.31	1.7786e-06	6.39e-06	671.02	278.95	3.2966e-06	9.3946e-06	333.35	155.33	128.17	63.295	4.1511e-06	80.446	0.00027537	0.0002303	6.5519e-05	610.78	2.5252e-06	2.4693e-06	625.58	261.23	2.5868e-06	2.5853e-06	309.8	145.64	120.78	59.885	2.5832e-06	75.654	104.022	11.905	18.915	-37.705	79.531	101.223	-39.214	-31.525	138.040	109.100	-35.198	-31.251	-28.074	-23.072	74.379	-26.924	-8191	255	
1320.492	1	1	0	0	0.21535	0.22607	0.16902	0.072495	0.14861	0.12744	0.097421	0.13146	0.114	0.31925	0.1648	0.16791	0.28697	0.16207	0.11748	0.19009	-1.7271	-2.05	-2.4771	-2.2458	-2.3625	-2.375	-2.1042	-2.6125	-2.4917	-2.3375	-2.7521	-2.4833	-2.4313	-2.4688	-2.1813	-2.7667	-39.056	149.079	37.587	233.022	303.946	27.902	188.917	305.817	166.230	87.840	158.864	270.272	259.500	6.773	-23.939	181.557	0.00032391	0.00043112	4.0079e-05	650.37	2.4233e-06	7.3697e-06	674.59	279.69	4.4362e-06	6.0942e-06	337.64	156.84	128.41	63.011	3.7401e-06	80.414	0.0002697	0.00023393	6.6564e-05	609.12	2.5509e-06	2.5588e-06	627.93	261.36	2.5715e-06	2.5339e-06	312.95	146.37	121.13	59.863	2.6548e-06	75.566	124.224	44.662	-0.951	-37.610	56.464	65.993	-39.217	-31.745	41.216	98.707	-35.278	-31.179	-28.246	-22.913	64.859	-27.320	-8191	255	
1320.613	1	1	0	0	0.21977	0.099558	0.081763	0.18054	0.4272	0.27928	0.080812	0.20768	0.17107	0.14321	0.050626	0.2486	0.28402	0.13262	0.12771	0.1626	-2.0167	-2.2208	-2.7375	-2.3438	-2.1312	-2.5187	-2.325	-2.4125	-2.4854	-2.2479	-2.7583	-2.4604	-2.5521	-2.8542	-2.1937	-2.6354	139.141	59.693	48.496	0.174	214.672	100.558	-38.206	305.784	62.549	8.996	44.292	-26.809	-1.463	265.288	158.166	288.038	0.00025969	0.00045099	0.00017395	649.41	4.3524e-06	2.1775e-06	674.92	280.05	4.9485e-06	4.1891e-06	336.48	155.8	128.82	63.295	2.4413e-06	80.692	0.00027061	0.00023673	6.5666e-05	608.08	2.6065e-06	2.5449e-06	627.41	262.42	2.6111e-06	2.5146e-06	312.73	145.79	121.25	60.001	2.681e-06	75.646	122.794	45.710	28.124	-37.579	120.648	95.850	-39.112	-31.921	105.436	100.860	-34.919	-31.235	-28.255	-22.976	103.288	-26.977	-8191	255	
1320.709	1	1	0	0	0.20624	0.13854	0.095949	0.20339	0.052787	0.21586	0.12556	0.21423	0.30662	0.20016	0.15886	0.049273	0.19199	0.1769	0.29156	0.1701	-1.9167	-2.0625	-2.3187	-2.4437	-2.1937	-2.6813	-2.4208	-2.4375	-2.6021	-2.2604	-2.75	-2.425	-2.4229	-2.8958	-2.3812	-2.3208	141.494	187.562	-9.751	-49.451	-10.788	91.762	256.844	-28.866	-41.894	14.538	277.681	165.246	244.811	-30.739	118.146	-25.597	0.00033015	0.00065868	0.00011298	653.48	7.5075e-06	7.298e-06	671.96	281.46	6.7007e-06	6.5265e-06	335.22	155.91	129.02	63.681	3.9607e-06	80.573	0.00026903	0.00023515	6.6461e-05	609.74	2.5251e-06	2.5323e-06	627.05	262.81	2.6107e-06	2.5686e-06	312.13	145.92	121.08	60.128	2.6363e-06	75.545	118.605	6.373	21.701	-37.590	99.700	93.709	-39.497	-31.797	96.120	104.766	-35.509	-30.876	-27.884	-22.999	132.398	-26.852	-8191	255	
1320.805	1	1	0	0	0.25682	0.056658	0.10938	0.055777	0.30537	0.11835	0.10613	0.22736	0.048029	0.247	0.13789	0.031893	0.40377	0.08845	0.037141	0.26784	-1.9646	-2.0875	-2.5542	-2.5708	-2.0771	-2.6792	-2.4062	-2.4396	-2.5229	-2.0021	-2.6458	-2.3854	-2.3521	-2.9333	-2.3042	-2.5417	164.912	32.069	257.231	149.984	307.328	264.179	77.321	159.998	169.763	111.858	200.745	58.098	270.794	108.463	144.604	-40.418	0.00027948	0.00070172	8.6523e-05	651.33	2.0614e-06	8.0408e-06	669.72	278.87	4.8332e-06	3.2866e-06	333.48	154.81	127.49	63.615	2.0246e-06	80.685	0.00027623	0.000241	6.6014e-05	609.35	2.6345e-06	2.5122e-06	626.07	260.9	2.5767e-06	2.5283e-06	310.35	144.97	120.13	60.085	2.7452e-06	75.556	119.010	27.575	58.040	-37.657	49.174	103.767	-39.319	-31.798	77.854	97.173	-35.350	-31.052	-28.144	-23.038	76.979	-27.209	-8191	255	
1320.901	1	1	0	0	0.19333	0.14205	0.066561	0.23998	0.19782	0.0080799	0.17723	0.20124	0.099781	0.13718	0.077538	0.2294	0.13161	0.33194	0.15679	0.097256	-2.1417	-2.1958	-2.4979	-2.6521	-2.1833	-2.7521	-2.6021	-2.4458	-2.6	-2.3833	-2.5479	-2.7271	-2.3708	-2.6125	-2.7188	-2.4833	138.084	-22.892	146.963	288.236	270.791	-22.588	89.929	-36.312	14.702	62.078	63.010	218.785	279.996	282.625	27.241	264.080	0.00033375	0.00040102	0.00023576	657.57	2.4241e-06	2.7499e-06	671.86	275.74	6.7354e-06	7.7404e-06	327.78	153.43	127.13	63.432	2.7612e-06	80.073	0.00026919	0.00024034	6.7078e-05	609.82	2.625e-06	2.605e-06	627.05	259.99	2.5682e-06	2.5872e-06	307.75	144.33	119.68	59.885	2.659e-06	74.982	121.053	23.089	28.993	-37.662	77.112	139.284	-39.234	-31.824	94.359	110.006	-34.980	-31.083	-28.166	-23.101	85.840	-26.955	-8191	255	
1320.998	1	1	0	0	0.2527	0.27583	0.38133	0.099408	0.1047	0.086362	0.18688	0.092154	0.27687	0.28533	0.41123	0.039506	0.051282	0.085419	0.10109	0.23901	-2.1979	-2.1771	-2.225	-2.6146	-2.1917	-2.5104	-2.4021	-2.5271	-2.7542	-2.2479	-2.4042	-2.6729	-2.2083	-2.7146	-2.5229	-2.4271	26.151	35.715	19.891	84.683	200.921	30.329	41.121	237.624	41.512	257.165	13.754	285.028	307.905	140.194	142.802	220.900	0.00030947	0.00047923	0.00014982	647.43	5.9523e-06	8.3191e-06	667.13	277.52	2.3587e-06	8.7346e-06	331.27	153.85	127.17	63.135	3.0716e-06	79.666	0.00026804	0.00023941	6.725e-05	604.54	2.567e-06	2.5459e-06	622.73	258.37	2.6019e-06	2.5364e-06	307.38	143.65	119.61	59.752	2.6661e-06	74.66	108.363	8.642	-14.106	-37.788	88.353	108.387	-39.256	-31.457	29.448	84.874	-34.934	-31.315	-28.067	-22.981	41.805	-27.049	-8191	255	
1321.094	1	1	0	0	0.10365	0.30286	0.11467	0.25715	0.058045	0.18108	0.11545	0.21442	0.22518	0.18122	0.2919	0.18062	0.16833	0.20489	0.34907	0.3201	-2.2125	-2.1208	-2.3563	-2.7354	-2.1688	-2.6312	-2.3792	-2.2188	-2.55	-2.1083	-2.5292	-2.8542	-2.4417	-2.6813	-2.1771	-2.2646	-17.104	193.120	-40.849	-33.019	-34.590	282.683	163.308	300.899	17.516	160.527	239.312	249.139	237.375	308.092	190.304	257.168	0.00032223	0.00063404	0.00024791	647.56	3.8685e-06	5.0188e-06	665.63	273.44	9.0351e-06	4.2996e-06	326.16	151.14	124.99	62.846	5.8713e-06	78.932	0.00026801	0.00023155	6.4927e-05	602.75	2.6022e-06	2.5613e-06	620.12	256.03	2.5902e-06	2.5061e-06	303.83	142.3	118.27	59.469	2.6e-06	74.397	115.404	27.457	41.737	-37.550	77.605	78.405	-39.168	-31.371	87.159	88.221	-34.925	-31.098	-28.314	-22.870	92.307	-26.962	-8191	255	
1321.190	1	1	0	0	0.11357	0.086474	0.17607	0.15736	0.25365	0.066739	0.16134	0.10093	0.064117	0.22788	0.1349	0.20033	0.29053	0.41094	0.07249	0.19145	-2.1146	-2.4313	-2.3438	-2.7125	-2.1021	-2.45	-2.625	-2.225	-2.4146	-2.2396	-2.2167	-2.6771	-2.1958	-2.5958	-2.6917	-2.3396	227.437	117.514	111.913	297.319	-21.616	299.604	167.114	225.833	74.327	-14.193	7.873	235.386	211.239	229.725	78.673	281.731	0.0002708	0.00054561	0.00018267	645.01	4.5443e-06	5.1331e-06	658.83	272.07	6.4058e-06	6.2222e-06	321.57	151.91	125.6	62.261	4.8821e-06	79.026	0.00026566	0.000234	6.5445e-05	600.89	2.5317e-06	2.5755e-06	615.62	254.6	2.5389e-06	2.4588e-06	301.11	141.77	117.64	59.117	2.5861e-06	74.142	121.117	53.650	37.804	-37.799	111.937	149.200	-39.572	-31.746	81.287	121.582	-34.971	-31.031	-27.885	-23.003	76.620	-26.976	-8191	255	
1321.286	1	1	0	0	0.054788	0.17113	0.14847	0.12001	0.20296	0.26598	0.11827	0.12418	0.016438	0.19989	0.10943	0.21324	0.17644	0.14482	0.031288	0.1311	-2.0104	-2.1396	-2.1562	-2.7292	-2.3917	-2.5687	-2.7167	-2.2604	-2.4333	-2.275	-2.3417	-2.9021	-2.2	-2.4375	-2.6521	-2.3854	218.283	67.650	6.128	-11.710	122.872	141.367	128.223	112.241	163.710	-26.087	8.462	262.250	20.919	-46.462	246.627	282.280	0.00029366	0.00054807	0.00020086	640.39	4.6456e-06	5.3598e-06	656.77	269.57	4.6948e-06	6.2171e-06	319.01	149.62	123.63	62.069	3.0061e-06	78.204	0.0002654	0.00023102	6.4291e-05	597.24	2.5219e-06	2.3935e-06	612.8	251.45	2.5613e-06	2.4304e-06	296.87	140.52	116.45	58.616	2.5595e-06	73.42	121.385	22.760	52.262	-37.407	66.646	119.960	-39.466	-31.854	81.866	111.129	-35.319	-30.749	-28.086	-23.151	94.302	-27.179	-8191	255	
1321.382	1	1	0	0	0.1578	0.1168	0.34224	0.060564	0.14646	0.28879	0.16153	0.1176	0.047299	0.36835	0.44161	0.058655	0.18346	0.31716	0.24222	0.075307	-2.1	-2.5229	-1.9896	-2.5854	-2.0083	-2.3521	-2.5104	-2.2583	-2.4354	-2.6333	-2.3292	-2.9646	-2.3042	-2.3833	-2.4271	-2.2604	224.882	44.343	309.698	8.650	139.946	48.534	224.603	293.286	307.968	156.357	238.015	-31.062	270.639	26.162	-34.027	244.787	0.00033848	0.00046841	0.00019694	632.58	4.6244e-06	8.1085e-06	646.54	266.18	3.2082e-06	5.3285e-06	316.92	149.25	123.46	61.439	4.1822e-06	78.295	0.00026664	0.00022248	6.3812e-05	591.11	2.4499e-06	2.4797e-06	603.57	247.95	2.508e-06	2.4837e-06	293.98	139.44	116.2	58.2	2.5403e-06	73.266	105.266	34.175	49.677	-37.440	113.436	103.384	-39.421	-31.413	62.269	107.311	-35.435	-31.082	-27.760	-23.188	70.744	-26.981	-8191	255	
1321.501	1	1	0	0	0.045455	0.20415	0.11568	0.0088866	0.13943	0.11007	0.30376	0.16112	0.17601	0.07726	0.19218	0.22821	0.20489	0.17818	0.066963	0.090546	-1.9667	-2.4396	-2.4354	-2.7208	-2.3375	-2.2292	-2.6625	-2.5	-2.525	-2.6542	-2.4104	-2.4729	-2.3688	-2.4667	-2.7396	-2.2958	204.622	-4.248	184.059	286.269	50.073	234.459	300.846	-29.925	19.452	-28.240	-43.203	-18.772	60.554	305.141	201.301	215.248	0.00029927	0.00058545	0.00013039	630.86	5.1318e-06	1.138e-05	642.18	263.6	7.5488e-06	8.0094e-06	313.65	147.21	122.2	61.208	2.8173e-06	77.567	0.0002608	0.00021987	6.3938e-05	589.43	2.4043e-06	2.4782e-06	600.37	247.16	2.4815e-06	2.3118e-06	291.99	138.2	115.29	57.814	2.5151e-06	72.912	112.157	42.270	44.985	-37.601	85.921	113.650	-39.213	-31.548	87.358	107.980	-34.865	-31.092	-27.912	-22.847	57.765	-26.787	-8191	255	
1321.597	1	1	0	0	0.30072	0.26728	0.1945	0.2428	0.37611	0.063577	0.051816	0.13095	0.19823	0.16453	0.0986	0.1959	0.17658	0.11742	0.16699	0.44342	-1.8792	-2.5354	-1.9667	-2.5312	-2.4708	-2.3729	-2.8812	-2.3979	-2.525	-2.6813	-2.4104	-2.5875	-2.3521	-2.3854	-2.625	-2.5521	-11.507	-4.548	211.432	12.819	68.679	150.227	98.781	124.734	25.205	17.334	-6.092	290.601	235.647	219.992	-37.936	226.543	0.00030899	0.00061009	0.00011814	633.29	3.7668e-06	4.0001e-06	642.17	263.84	5.0191e-06	2.349e-06	315.37	147.76	122.66	61.558	4.2826e-06	77.768	0.00025974	0.00022273	6.2209e-05	589.8	2.4385e-06	2.3846e-06	600.76	246.89	2.4174e-06	2.3504e-06	292.66	138.88	115.61	58.049	2.465e-06	73.139	114.295	63.773	8.999	-37.541	69.833	71.834	-39.413	-31.902	95.666	89.896	-35.259	-30.836	-28.201	-23.161	87.769	-26.898	-8191	255	
1321.693	1	1	0	0	0.27075	0.10924	0.071939	0.22999	0.034426	0.2189	0.12496	0.15294	0.15724	0.088687	0.25809	0.32222	0.075741	0.37197	0.19199	0.2518	-2.0208	-2.575	-1.9438	-2.6167	-2.4083	-2.0604	-2.6646	-2.6771	-2.4625	-2.6417	-2.1542	-2.7125	-2.5083	-2.2479	-2.7	-2.5667	100.290	182.539	99.027	-48.700	226.477	-1.620	-1.793	-13.011	45.150	53.033	-40.809	304.164	49.968	295.856	126.930	223.809	0.0003033	0.00031453	0.0002131	632.58	6.812e-06	3.9135e-06	648.89	262.64	4.0036e-06	7.8445e-06	314.25	148.23	121.6	60.961	3.9184e-06	78.031	0.00025384	0.00021639	6.2156e-05	590.45	2.4046e-06	2.3808e-06	605.12	245.98	2.3807e-06	2.3187e-06	291.86	138.66	115.16	57.819	2.4921e-06	72.742	108.744	42.148	61.963	-37.761	110.298	103.350	-39.134	-31.651	66.640	63.380	-35.344	-30.867	-27.951	-23.023	63.368	-27.118	-8191	255	
1321.790	1	1	0	0	0.23173	0.17885	0.14331	0.14469	0.16989	0.18127	0.15988	0.19703	0.22687	0.22652	0.13438	0.23936	0.2266	0.24774	0.19068	0.31014	-1.8604	-2.6917	-1.9833	-2.6	-2.3854	-2.125	-2.5292	-2.1875	-2.1979	-2.575	-2.1813	-2.5604	-2.7083	-2.3333	-2.5292	-2.6125	75.369	-13.075	191.041	-39.812	114.575	52.724	4.336	-14.638	-10.055	268.219	14.545	305.179	-43.357	302.965	-39.353	238.217	0.00027971	0.00039766	0.00019821	628.21	5.1924e-06	5.336e-06	643.67	261.21	5.4655e-07	7.7511e-06	313.02	147.38	122.11	61.29	2.8739e-06	77.306	0.00024913	0.00022124	6.1273e-05	588.93	2.3326e-06	2.3472e-06	599.95	245.68	2.3987e-06	2.4084e-06	290.65	137.96	115.25	57.973	2.5417e-06	72.536	124.115	14.643	55.805	-37.381	77.817	99.476	-39.138	-31.513	182.682	75.143	-35.171	-30.859	-28.099	-22.998	103.412	-27.244	-8191	255	
1321.886	1	1	0	0	0.16709	0.42436	0.11277	0.25724	0.1569	0.04284	0.17675	0.085797	0.071355	0.16669	0.18608	0.036338	0.13802	0.36144	0.29412	0.16732	-1.7812	-2.5292	-2.4229	-2.5271	-2.6354	-2.1729	-2.6188	-2.7271	-2.3125	-2.5958	-2.5292	-2.4417	-2.6167	-2.225	-2.2812	-2.6146	212.324	-2.921	239.946	283.890	223.399	211.629	286.482	-28.889	207.935	-46.698	261.513	140.488	286.053	309.507	84.322	-10.314	0.00031193	0.00048827	9.3967e-05	630.49	3.0506e-06	4.3832e-06	645.28	261.13	1.798e-06	9.7587e-06	310.57	146.69	122.68	61.213	2.9668e-06	77.504	0.00026491	0.00022062	6.4061e-05	589.57	2.4492e-06	2.4291e-06	600.79	245.36	2.4089e-06	2.428e-06	289.08	137.51	115.04	57.826	2.5164e-06	72.521	106.026	22.461	22.162	-37.376	97.860	73.762	-39.310	-31.485	29.666	91.570	-35.403	-30.836	-27.714	-23.114	118.476	-26.929	-8191	255	
1321.982	1	1	0	0	0.13957	0.28128	0.16362	0.13762	0.23286	0.179	0.14187	0.22243	0.34602	0.056815	0.1166	0.23156	0.35123	0.29562	0.3906	0.18194	-1.5083	-2.6104	-2.3104	-2.1958	-2.5625	-2.2687	-2.5667	-2.7458	-2.2021	-2.6063	-2.2354	-2.2979	-2.7938	-2.4437	-2.4896	-2.4396	157.422	-0.350	252.339	175.085	26.957	204.690	186.330	245.976	234.834	294.659	264.473	-38.873	267.866	291.227	75.805	209.942	0.000318	0.00038714	0.00025549	629.63	5.1927e-06	6.9512e-06	640.05	260.81	5.982e-06	6.2312e-06	307.8	146.8	121.33	61.218	2.0579e-06	77.302	0.00025833	0.00022397	6.1648e-05	588.3	2.481e-06	2.4121e-06	598.28	244.21	2.4823e-06	2.409e-06	287.45	136.86	114.36	57.885	2.4731e-06	72.436	115.387	54.375	86.209	-37.491	82.050	113.557	-39.106	-31.753	91.333	134.658	-35.019	-30.661	-27.807	-22.924	85.675	-27.030	-8191	255	
1322.102	1	1	0	0	0.17268	0.27245	0.019671	0.10402	0.21893	0.17976	0.12148	0.12175	0.18634	0.21287	0.11006	0.099595	0.20594	0.18814	0.21122	0.20631	-1.6458	-2.5604	-2.5708	-2.4125	-2.7375	-2.0333	-2.2083	-2.575	-2.2271	-2.6271	-2.5	-2.0979	-2.6958	-2.0646	-2.25	-2.9417	89.318	114.451	38.541	14.604	169.662	154.911	218.792	298.236	33.031	31.615	173.477	187.471	-26.892	217.914	280.588	299.325	0.00030546	0.00040891	0.00013044	630.02	3.5438e-06	5.0789e-06	639.51	262.69	6.2372e-06	3.6684e-06	311.42	146.63	122.21	60.725	3.9827e-06	77.21	0.00025321	0.00022701	6.2708e-05	587.74	2.4978e-06	2.4766e-06	598.18	245.19	2.4799e-06	2.351e-06	289.47	137.49	114.7	57.733	2.439e-06	72.301	116.321	54.405	53.741	-37.303	95.340	111.349	-39.557	-31.643	97.373	51.652	-35.117	-31.084	-27.980	-23.021	67.327	-27.204	-8191	255	
1322.199	1	1	0	0	0.1277	0.12539	0.065196	0.17693	0.16969	0.1637	0.058106	0.080966	0.12059	0.21086	0.09881	0.35029	0.36932	0.29236	0.15664	0.27229	-1.7437	-2.3271	-2.5938	-2.0312	-2.4333	-2.3104	-2.6562	-2.5083	-2.2313	-2.5521	-2.5062	-2.1625	-2.7188	-2.5771	-2.2458	-2.8333	292.564	210.320	138.581	39.087	222.675	79.254	230.528	164.056	69.011	267.693	43.586	289.403	46.443	-40.136	-37.670	231.816	0.00027406	0.00055502	0.00017312	630.4	2.3811e-06	8.8707e-06	641.63	262.81	3.9212e-06	6.3312e-06	310.7	146.3	122.64	61.239	4.0493e-06	76.628	0.00026276	0.00022891	6.1537e-05	587.65	2.4104e-06	2.4773e-06	600.5	245.67	2.5124e-06	2.4446e-06	289.09	136.96	114.66	57.923	2.4477e-06	72.159	122.098	81.615	16.516	-37.408	92.250	80.597	-39.411	-31.957	75.380	101.066	-35.174	-30.744	-28.092	-22.944	84.513	-27.244	-8191	255	
1322.295	1	1	0	0	0.24735	0.13418	0.30057	0.22599	0.02083	0.16982	0.075012	0.14403	0.18451	0.26404	0.29884	0.26196	0.26807	0.24977	0.15977	0.24783	-1.9542	-2.6	-2.4833	-2.2771	-2.5646	-2.3375	-2.3292	-2.7875	-2.4458	-2.35	-2.5708	-1.9354	-2.5521	-2.3812	-2.3396	-2.7917	101.746	293.304	136.576	296.693	-1.511	300.172	30.129	306.770	47.785	255.085	5.681	-0.847	240.308	268.915	34.476	204.317	0.00029847	0.00046289	0.00012233	628.94	3.4358e-06	8.9152e-06	644.37	261.96	7.2581e-06	6.6513e-06	308.8	146.32	121.83	61.445	7.6975e-07	76.964	0.00026066	0.00022923	6.1733e-05	588.39	2.5066e-06	2.4731e-06	599.23	245.41	2.5267e-06	2.4126e-06	288.77	136.8	114.65	58.031	2.531e-06	72.272	110.914	29.552	27.637	-37.790	79.400	88.228	-39.225	-31.674	100.626	83.569	-34.915	-30.972	-27.915	-22.786	131.360	-26.949	-8191	255	
1322.389	1	1	0	0	0.13195	0.24015	0.36713	0.14846	0.099103	0.19007	0.13893	0.11442	0.093235	0.29072	0.12937	0.22364	0.24047	0.23936	0.24815	0.19142	-2.0625	-2.3917	-2.5854	-2.3146	-2.4938	-2.5	-2.3104	-2.6542	-2.1813	-2.3375	-2.8771	-2.4396	-2.7396	-2.6292	-2.1917	-2.8271	227.978	233.959	296.972	242.570	110.039	35.767	229.616	-1.156	22.441	307.182	130.554	243.478	299.869	271.809	175.036	200.789	0.00025779	0.00051473	0.00016324	632.5	4.4978e-06	9.1728e-06	648.5	264.5	4.5546e-06	4.2377e-06	311.63	148.79	122.26	61.828	1.994e-06	77.451	0.00026269	0.00022872	6.2247e-05	590.23	2.4825e-06	2.455e-06	604.46	247.67	2.4731e-06	2.4359e-06	291.26	138.73	115.48	58.329	2.5052e-06	72.602	119.250	14.529	24.280	-37.596	84.665	73.232	-39.034	-31.599	91.211	92.509	-35.165	-30.871	-28.057	-22.936	65.974	-26.769	-8191	255	
1322.485	1	1	0	0	0.12903	0.22345	0.22431	0.09998	0.079671	0.2149	0.17626	0.03731	0.13241	0.24281	0.075342	0.16784	0.055028	0.074687	0.15385	0.36161	-1.8208	-2.4313	-2.6021	-2.2979	-2.4979	-2.5667	-2.4	-2.6333	-2.2521	-2.3667	-2.7833	-2.3979	-2.4437	-2.5583	-2.3583	-2.6979	176.750	212.160	53.095	264.484	49.345	6.957	-20.785	253.921	-37.579	-44.888	-39.628	-16.775	221.586	-29.096	236.978	227.456	0.00030609	0.00058418	0.00018295	634.33	2.15e-06	7.4972e-06	642.23	265.29	3.7683e-06	7.2226e-06	315.21	147.91	123.28	61.851	3.4107e-06	77.531	0.0002596	0.0002232	6.2686e-05	591.66	2.4354e-06	2.4342e-06	602.51	247.89	2.416e-06	2.3407e-06	293.24	138.74	116.44	58.431	2.5459e-06	72.828	113.564	32.333	16.028	-37.645	13.806	161.661	-39.104	-31.812	122.219	109.451	-35.287	-31.294	-28.024	-23.021	91.701	-27.028	-8191	255	
1322.581	1	1	0	0	0.023657	0.10803	0.31131	0.18553	0.19117	0.095224	0.13044	0.089522	0.16591	0.12717	0.23336	0.13958	0.10408	0.17155	0.12145	0.18795	-1.9875	-2.1292	-2.3708	-2.2917	-2.5646	-2.6688	-2.1979	-2.7708	-2.2479	-2.1375	-2.5667	-2.3063	-2.3542	-2.7438	-2.0458	-2.6688	248.276	-42.963	219.069	77.455	87.212	236.074	289.332	-45.413	12.266	260.048	-39.286	-39.877	151.474	-23.673	144.707	283.069	0.00030801	0.00026016	0.00016988	636.87	3.2933e-06	6.3694e-06	649.51	266.3	3.6072e-06	1.042e-05	318	150.09	124.97	62.126	3.074e-06	77.681	0.00025178	0.00022482	6.0207e-05	595.54	2.3899e-06	2.3677e-06	607.89	250.69	2.4524e-06	2.3184e-06	297.08	140.54	117.66	58.778	2.5182e-06	73.122	121.312	80.665	80.822	-37.257	131.302	71.001	-39.288	-31.412	117.801	107.717	-35.064	-31.161	-27.889	-23.012	104.883	-27.121	-8191	255	
1322.678	1	1	0	0	0.06332	0.10343	0.25129	0.18952	0.11685	0.17134	0.21224	0.1113	0.2249	0.2386	0.071387	0.26841	0.12685	0.27396	0.18087	0.039099	-1.7917	-2.2438	-2.6521	-2.3083	-2.2958	-2.5833	-2.1792	-2.6417	-2.6417	-2.1312	-2.6417	-2.4062	-2.3604	-2.8146	-2.2958	-2.7333	1.673	22.675	207.930	285.597	105.783	260.363	-48.679	294.800	270.984	257.392	140.644	-24.265	270.741	77.219	225.531	250.418	0.00030598	0.00046485	0.00019658	642.02	3.6828e-06	4.6843e-06	658.35	269.82	4.3514e-06	5.9605e-06	322.23	149.75	125.99	62.302	4.3689e-06	78.391	0.000249	0.00021751	6.0521e-05	600.1	2.3342e-06	2.3688e-06	613.58	253.47	2.4083e-06	2.3891e-06	298.82	140.87	118.27	58.848	2.4376e-06	73.408	111.994	34.307	21.639	-37.770	77.312	76.580	-39.655	-31.707	110.390	86.596	-35.049	-30.899	-28.052	-22.980	100.216	-26.952	-8191	255	
#DATA ENDS
