BOXY.EXE: ISS Imagent and Oximeter Data Acquisition Program Version 0.80
Ascii Record File

#ACQ INFORMATION
2  Detector Channels 
16  External MUX Channels 
1  Auxiliary Channels 
5000  Waveform (CCF) Frequency (Hz)
1  Waveforms Skipped 
30  Waveforms Averaged 
1  Cycles Averaged 
16  Acquisitions per Waveform 
10.0806  Updata Rate (Hz) 

#FILE INFORMATION
TRUE -- External MUX Channel results are PARSED.
FALSE -- AC DC and Phase are NOT grouped.
TRUE -- Companion Program Settings File CREATED.
FALSE -- AC data not excluded
FALSE -- DC data not excluded
FALSE -- Phase data not excluded
FALSE -- Auxillary Chn. data not excluded
Tab delimiters

#CALIBRATION STATE
TRUE -- Waveform Calibration Values APPLIED.


#AUX CALIBRATION VALUES
Val Type	aux-1	

Term	1.0000e+00	
Factor	0.0000e+00	


#WF CALIBRATION VALUES
A = Detector Channel
Val Type	A-AC1	A-AC2	A-AC3	A-AC4	A-AC5	A-AC6	A-AC7	A-AC8	A-AC9	A-AC10	A-AC11	A-AC12	A-AC13	A-AC14	A-AC15	A-AC16	A-DC1	A-DC2	A-DC3	A-DC4	A-DC5	A-DC6	A-DC7	A-DC8	A-DC9	A-DC10	A-DC11	A-DC12	A-DC13	A-DC14	A-DC15	A-DC16	A-Ph1	A-Ph2	A-Ph3	A-Ph4	A-Ph5	A-Ph6	A-Ph7	A-Ph8	A-Ph9	A-Ph10	A-Ph11	A-Ph12	A-Ph13	A-Ph14	A-Ph15	A-Ph16	

Term	0.00000e+00	0.00000e+00	0.00000e+00	0.00000e+00	0.00000e+00	0.00000e+00	0.00000e+00	0.00000e+00	0.00000e+00	0.00000e+00	0.00000e+00	0.00000e+00	0.00000e+00	0.00000e+00	0.00000e+00	0.00000e+00	0.00000e+00	0.00000e+00	0.00000e+00	0.00000e+00	0.00000e+00	0.00000e+00	0.00000e+00	0.00000e+00	0.00000e+00	0.00000e+00	0.00000e+00	0.00000e+00	0.00000e+00	0.00000e+00	0.00000e+00	0.00000e+00	0.00000e+00	0.00000e+00	0.00000e+00	0.00000e+00	0.00000e+00	0.00000e+00	0.00000e+00	0.00000e+00	0.00000e+00	0.00000e+00	0.00000e+00	0.00000e+00	0.00000e+00	0.00000e+00	0.00000e+00	0.00000e+00	
Factor	1.00000e+00	1.00000e+00	1.00000e+00	1.00000e+00	1.00000e+00	1.00000e+00	1.00000e+00	1.00000e+00	1.00000e+00	1.00000e+00	1.00000e+00	1.00000e+00	1.00000e+00	1.00000e+00	1.00000e+00	1.00000e+00	1.00000e+00	1.00000e+00	1.00000e+00	1.00000e+00	1.00000e+00	1.00000e+00	1.00000e+00	1.00000e+00	1.00000e+00	1.00000e+00	1.00000e+00	1.00000e+00	1.00000e+00	1.00000e+00	1.00000e+00	1.00000e+00	X	X	X	X	X	X	X	X	X	X	X	X	X	X	X	X	

B = Detector Channel
Val Type	B-AC1	B-AC2	B-AC3	B-AC4	B-AC5	B-AC6	B-AC7	B-AC8	B-AC9	B-AC10	B-AC11	B-AC12	B-AC13	B-AC14	B-AC15	B-AC16	B-DC1	B-DC2	B-DC3	B-DC4	B-DC5	B-DC6	B-DC7	B-DC8	B-DC9	B-DC10	B-DC11	B-DC12	B-DC13	B-DC14	B-DC15	B-DC16	B-Ph1	B-Ph2	B-Ph3	B-Ph4	B-Ph5	B-Ph6	B-Ph7	B-Ph8	B-Ph9	B-Ph10	B-Ph11	B-Ph12	B-Ph13	B-Ph14	B-Ph15	B-Ph16	

Term	0.00000e+00	0.00000e+00	0.00000e+00	0.00000e+00	0.00000e+00	0.00000e+00	0.00000e+00	0.00000e+00	0.00000e+00	0.00000e+00	0.00000e+00	0.00000e+00	0.00000e+00	0.00000e+00	0.00000e+00	0.00000e+00	0.00000e+00	0.00000e+00	0.00000e+00	0.00000e+00	0.00000e+00	0.00000e+00	0.00000e+00	0.00000e+00	0.00000e+00	0.00000e+00	0.00000e+00	0.00000e+00	0.00000e+00	0.00000e+00	0.00000e+00	0.00000e+00	-1.61556e+02	-1.24365e+02	-1.24460e+02	-1.82575e+02	-7.77226e+01	-7.02735e+01	-1.54563e+02	-1.62015e+02	-7.99118e+01	-7.08945e+01	-1.79593e+02	-1.70828e+02	-1.78793e+02	-1.75846e+02	-8.48453e+01	-1.49068e+02	
Factor	2.31970e-05	1.41556e-04	4.23880e-05	1.51486e-01	1.25884e-06	1.81699e-06	1.63316e-01	6.36777e-02	1.50327e-06	1.86341e-06	9.72382e-02	2.82179e-02	2.41845e-02	8.33549e-03	1.21540e-06	1.19969e-02	3.25825e-06	3.66651e-06	1.02321e-06	7.89026e-02	3.94916e-08	4.01200e-08	7.99932e-02	3.30394e-02	3.96832e-08	4.01801e-08	4.87438e-02	1.42351e-02	1.27408e-02	4.36714e-03	3.97856e-08	6.09645e-03	X	X	X	X	X	X	X	X	X	X	X	X	X	X	X	X	



#DISTANCE SETTINGS
A = Detector Channel
A-1	A-2	A-3	A-4	A-5	A-6	A-7	A-8	A-9	A-10	A-11	A-12	A-13	A-14	A-15	A-16	

2.5000e+00	3.0000e+00	2.5000e+00	3.0000e+00	2.0000e+00	3.0000e+00	1.5000e+00	3.0000e+00	3.0000e+00	3.0000e+00	3.0000e+00	3.0000e+00	3.0000e+00	3.0000e+00	1.5000e+00	3.0000e+00	

B = Detector Channel
B-1	B-2	B-3	B-4	B-5	B-6	B-7	B-8	B-9	B-10	B-11	B-12	B-13	B-14	B-15	B-16	

1.0000e+01	1.0000e+01	1.0000e+01	1.4400e+00	1.0000e+01	1.0000e+01	1.5100e+00	1.9400e+00	1.0000e+01	1.0000e+01	1.9900e+00	2.4900e+00	2.4100e+00	2.9000e+00	1.0000e+01	2.9800e+00	




#DATA BEGINS
time	group	step	mark	flag	A-AC1	A-AC2	A-AC3	A-AC4	A-AC5	A-AC6	A-AC7	A-AC8	A-AC9	A-AC10	A-AC11	A-AC12	A-AC13	A-AC14	A-AC15	A-AC16	A-DC1	A-DC2	A-DC3	A-DC4	A-DC5	A-DC6	A-DC7	A-DC8	A-DC9	A-DC10	A-DC11	A-DC12	A-DC13	A-DC14	A-DC15	A-DC16	A-Ph1	A-Ph2	A-Ph3	A-Ph4	A-Ph5	A-Ph6	A-Ph7	A-Ph8	A-Ph9	A-Ph10	A-Ph11	A-Ph12	A-Ph13	A-Ph14	A-Ph15	A-Ph16	B-AC1	B-AC2	B-AC3	B-AC4	B-AC5	B-AC6	B-AC7	B-AC8	B-AC9	B-AC10	B-AC11	B-AC12	B-AC13	B-AC14	B-AC15	B-AC16	B-DC1	B-DC2	B-DC3	B-DC4	B-DC5	B-DC6	B-DC7	B-DC8	B-DC9	B-DC10	B-DC11	B-DC12	B-DC13	B-DC14	B-DC15	B-DC16	B-Ph1	B-Ph2	B-Ph3	B-Ph4	B-Ph5	B-Ph6	B-Ph7	B-Ph8	B-Ph9	B-Ph10	B-Ph11	B-Ph12	B-Ph13	B-Ph14	B-Ph15	B-Ph16	aux-1	digaux	

1658.854	1	1	0	768	0.10765	0.13024	0.092664	0.14083	0.022233	0.18438	0.18069	0.21918	0.24586	0.10832	0.092308	0.25147	0.135	0.12383	0.10627	0.25428	-1.6729	-2.3792	-2.5042	-2.4167	-2.425	-2.7583	-2.0604	-2.8229	-2.2375	-2.525	-2.6167	-2.1125	-2.5667	-2.6813	-2.0021	-2.6979	244.331	363.393	325.146	423.972	173.171	290.041	298.217	467.566	198.008	260.490	164.678	346.362	417.106	193.345	164.882	447.442	0.00097214	0.00052752	5.7211e-05	620.29	2.5341e-06	4.8202e-06	788.62	281.63	7.2027e-06	3.377e-06	365.08	145.94	114.33	43.316	2.4628e-06	61.023	0.00030865	0.00024188	6.1535e-05	613.77	2.5401e-06	2.4579e-06	778.32	278.37	2.656e-06	2.6703e-06	360.24	144.29	113.1	43.31	2.7612e-06	60.834	148.719	223.564	162.458	133.106	217.647	239.827	132.039	138.968	247.839	199.682	137.029	141.113	142.773	148.782	269.249	145.573	-8191	255	
1658.950	1	1	0	0	0.23286	0.13912	0.18181	0.1511	0.088777	0.17749	0.21249	0.18571	0.29684	0.24638	0.43479	0.25877	0.33731	0.065959	0.16947	0.061698	-1.9292	-2.15	-2.5875	-2.3833	-2.5021	-2.4583	-2.3458	-2.7854	-2.4979	-2.2062	-2.9771	-2.3396	-2.4688	-2.6208	-2.1083	-2.7229	125.778	395.228	303.005	425.400	392.589	130.939	460.711	391.903	377.433	439.514	436.324	396.269	137.929	234.160	204.835	127.645	0.00093656	0.00024304	0.00012247	625.03	6.3555e-06	5.7642e-06	793.8	282.2	6.9056e-06	5.8368e-06	365.59	146.5	114.78	43.157	3.4704e-06	61.408	0.00030632	0.00025426	6.695e-05	616.47	2.7048e-06	2.6106e-06	780.97	278.47	2.6746e-06	2.6696e-06	360.36	144.29	113.51	43.252	2.6897e-06	61.187	146.911	225.901	209.845	132.988	254.529	272.314	131.711	139.199	262.734	277.489	136.626	140.926	143.083	148.988	220.761	145.490	-8191	255	
1659.046	1	1	0	0	0.13054	0.048524	0.14784	0.20016	0.29045	0.18603	0.22085	0.16067	0.22621	0.05653	0.082085	0.10766	0.14258	0.19255	0.21609	0.035185	-2.0167	-2.1021	-2.5812	-2.5125	-2.4062	-2.5917	-2.2646	-2.6625	-2.5875	-2.2687	-2.8438	-2.3146	-2.4708	-2.7062	-2.325	-2.7313	168.293	413.047	249.722	337.033	419.361	320.980	387.161	404.384	434.264	420.312	462.826	374.635	359.165	320.172	291.891	131.381	0.00092322	0.00044961	0.00016706	622.96	6.0513e-06	6.4111e-06	790.86	282	5.9177e-06	7.6592e-06	366.45	146.85	114.48	43.123	4.5992e-06	61.032	0.00030632	0.00024948	6.641e-05	615.18	2.6716e-06	2.5216e-06	778.4	278.56	2.6085e-06	2.5891e-06	361.03	144.64	113.18	43.164	2.7027e-06	60.843	147.178	190.625	239.797	133.481	258.050	261.324	131.817	139.026	249.210	258.400	137.109	141.011	142.677	148.817	216.656	145.255	-8191	255	
1659.142	1	1	0	0	0.13793	0.16282	0.037272	0.18632	0.20799	0.13767	0.17367	0.29629	0.16675	0.19841	0.14539	0.31227	0.29282	0.24141	0.36957	0.28851	-1.8625	-2.1146	-2.5479	-2.4688	-2.3354	-2.4521	-2.4562	-2.6521	-2.5146	-2.4917	-2.6875	-2.2771	-2.6	-2.8333	-2.1375	-2.575	141.450	295.507	229.664	410.487	216.204	148.269	335.151	336.884	465.225	431.669	420.419	420.459	411.648	168.732	127.446	415.380	0.00088914	0.00066363	0.00015375	620.93	5.7341e-06	5.4099e-06	791.74	283.63	7.7249e-06	5.9885e-06	365.93	146.18	114.88	43.116	5.6214e-06	61.467	0.0002961	0.00023523	6.5521e-05	615.09	2.6176e-06	2.4393e-06	780.5	279.77	2.5615e-06	2.5714e-06	359.82	144.44	113.55	43.174	2.7076e-06	61.202	151.792	204.934	197.583	133.108	243.282	232.232	131.826	138.903	254.775	291.029	136.628	140.738	142.713	148.878	255.871	145.167	-8191	255	
1659.238	1	1	0	0	0.1593	0.34335	0.20355	0.16567	0.15256	0.080472	0.13628	0.012553	0.10059	0.26791	0.079133	0.3502	0.11892	0.20646	0.18934	0.013474	-2.1521	-2.4437	-2.6271	-2.5583	-2.2396	-2.7833	-2.3792	-2.5146	-2.5854	-2.4146	-2.725	-2.5979	-2.1958	-2.875	-2	-2.4729	234.419	167.323	316.845	403.770	392.073	472.673	457.031	367.242	234.366	432.701	441.510	407.177	300.953	396.441	473.094	148.884	0.00093616	0.00045145	0.00010315	621.46	4.5509e-06	4.7656e-06	793.38	281.54	7.2637e-06	8.6696e-06	366.91	147.48	115.29	43.66	3.6016e-06	62.273	0.00030568	0.00024878	7.0051e-05	614.86	2.7787e-06	2.6092e-06	779.11	279.07	2.6565e-06	2.7485e-06	361.78	145.6	114.03	43.742	2.8092e-06	61.981	146.825	226.451	225.714	133.516	249.366	287.911	131.891	139.325	261.436	264.977	136.844	141.059	142.768	148.609	270.517	145.147	-8191	255	
1659.335	1	1	0	0	0.18431	0.053391	0.19477	0.10678	0.12359	0.036121	0.20322	0.05737	0.23111	0.14354	0.070648	0.04477	0.29245	0.20102	0.10366	0.15531	-2.1042	-2.2458	-2.6063	-2.4708	-2.3667	-2.5417	-2.2583	-2.5979	-2.6	-2.3917	-2.5958	-2.6354	-2.2417	-2.7938	-2.4688	-2.4396	204.506	395.247	153.596	450.216	444.147	311.366	164.433	171.525	209.640	465.787	358.948	238.557	149.688	455.807	288.784	414.659	0.00093265	0.00049817	0.0001656	621.58	4.0208e-06	4.9943e-06	791.74	281.38	6.7125e-06	8.0711e-06	368.05	147.71	115	43.677	4.943e-06	62.419	0.00030564	0.00025572	7.2507e-05	614.59	2.8426e-06	2.7504e-06	778.21	278.68	2.7109e-06	2.7919e-06	362.54	146.24	114.17	43.842	2.8028e-06	62.223	154.614	204.608	216.066	133.590	242.837	270.597	131.835	139.202	265.676	286.342	136.865	140.900	142.819	148.861	253.181	145.103	-8191	255	
1659.455	1	1	0	0	0.026448	0.23165	0.087667	0.36695	0.28493	0.083521	0.21828	0.16142	0.13851	0.20357	0.14174	0.080789	0.096388	0.084575	0.062866	0.16013	-2.1292	-2.0875	-2.6188	-2.5479	-2.3563	-2.5625	-2.6979	-2.4292	-2.7333	-2.3583	-2.4875	-2.8583	-2.1771	-2.7625	-2.4167	-2.3479	296.634	290.001	420.183	435.976	121.956	322.651	450.141	148.990	425.536	181.950	380.775	461.909	441.740	384.436	167.561	439.143	0.00096295	0.00033358	0.00010546	620.68	5.171e-06	2.9951e-06	787.95	282.44	7.0722e-06	8.1268e-06	365.33	148.07	114.64	43.372	5.2955e-06	61.946	0.00032458	0.00025325	7.3021e-05	614	2.8303e-06	2.7979e-06	778.63	278.92	2.758e-06	2.759e-06	361.1	145.67	113.49	43.487	2.7621e-06	61.719	152.950	199.081	200.400	133.180	276.503	276.582	131.956	139.136	267.856	245.641	137.159	141.084	142.917	148.841	263.119	145.555	-8191	255	
1659.550	1	1	0	0	0.26161	0.18149	0.20692	0.12183	0.26187	0.20081	0.26437	0.21522	0.16402	0.10167	0.11404	0.13547	0.45264	0.085102	0.28614	0.037756	-2.2833	-2.1229	-2.5042	-2.6146	-2.1604	-2.5958	-2.4062	-2.3667	-2.8396	-2.2458	-2.6354	-2.4875	-2.2271	-2.7896	-2.4437	-2.6208	365.638	371.862	229.842	126.334	451.108	137.722	400.133	457.827	412.109	142.013	479.456	479.732	441.516	232.197	183.866	393.795	0.00088329	0.0004062	9.6528e-05	619.83	4.0269e-06	6.4836e-06	784.85	280.36	6.4971e-06	8.8862e-06	364.9	147.74	115.11	43.34	3.6077e-06	61.93	0.00031655	0.00025908	7.1294e-05	612.19	2.8226e-06	2.8493e-06	774.13	277.29	2.7731e-06	2.7875e-06	360.33	145.42	113.71	43.554	2.8283e-06	61.661	149.497	218.574	216.341	133.245	217.379	243.130	132.115	139.404	223.347	258.768	137.107	140.830	142.957	148.868	256.006	145.441	-8191	255	
1659.646	1	1	0	0	0.15718	0.15308	0.16638	0.3196	0.035141	0.087139	0.078446	0.051402	0.12506	0.10862	0.24028	0.18083	0.10427	0.18905	0.17253	0.20968	-2.0625	-2.3208	-2.3458	-2.5146	-2.3146	-2.5625	-2.6396	-2.3667	-2.6833	-2.4	-2.5812	-2.6833	-2.3354	-2.5792	-2.6979	-2.3688	451.755	322.390	370.478	128.269	284.596	205.405	423.033	205.648	396.651	381.199	167.007	445.067	417.463	320.909	221.075	441.077	0.00084934	0.00037684	0.00016002	616.41	4.3281e-06	7.3152e-06	785.21	281.65	6.1249e-06	7.6156e-06	364.8	147.68	114.66	43.597	5.3092e-06	61.965	0.00031399	0.00025818	7.4332e-05	611.68	2.8158e-06	2.8136e-06	774.48	278.64	2.8223e-06	2.7364e-06	360.06	145.64	113.39	43.619	2.7873e-06	61.81	152.049	233.263	235.934	133.410	264.256	303.078	131.895	139.140	257.894	283.394	137.030	141.217	142.975	148.869	269.065	145.473	-8191	255	
1659.742	1	1	0	0	0.26288	0.01791	0.081838	0.10213	0.082114	0.13454	0.17968	0.084804	0.10599	0.1297	0.30565	0.24122	0.10395	0.12159	0.1379	0.27107	-1.9062	-2.4354	-2.2542	-2.8063	-2.2875	-2.375	-2.5625	-2.2812	-2.5896	-2.2708	-2.5271	-2.6146	-2.5271	-2.4292	-2.5417	-2.3167	261.135	159.067	125.536	443.448	151.429	184.095	437.395	384.249	127.976	303.483	348.908	464.427	132.586	421.875	249.386	464.280	0.00087152	0.00044543	0.00014272	622.12	3.529e-06	8.0896e-06	790	280.18	6.454e-06	3.808e-06	368.06	148.75	115.55	43.816	4.8999e-06	62.453	0.00032176	0.00025096	7.3051e-05	612.59	2.7299e-06	2.7777e-06	778.42	277.89	2.8057e-06	2.7271e-06	362.56	146.44	113.82	43.784	2.7768e-06	62.271	147.269	229.185	215.664	133.180	288.015	278.405	131.930	139.397	253.414	292.776	136.932	140.951	142.776	148.966	279.454	145.383	-8191	255	
1659.838	1	1	0	0	0.30756	0.21099	0.15193	0.1417	0.11128	0.14858	0.19824	0.03632	0.23874	0.1278	0.048693	0.095074	0.12744	0.14473	0.15228	0.14441	-2.1979	-2.3604	-2.4271	-2.5896	-2.3146	-2.3896	-2.8563	-2.125	-2.5667	-2.4813	-2.4042	-2.7812	-2.5062	-2.3333	-2.6292	-1.9646	147.861	278.872	281.573	466.017	131.395	248.968	272.733	327.268	326.573	318.736	402.193	479.233	420.154	371.840	260.412	341.788	0.0009103	0.00059229	0.00014037	619.4	4.8406e-06	3.7433e-06	790.13	281.27	5.2115e-06	6.3914e-06	366.28	147.93	114.59	43.36	5.2122e-06	61.66	0.00032992	0.00025494	7.081e-05	612.02	2.7051e-06	2.7906e-06	777.43	277.67	2.8575e-06	2.7485e-06	361.45	145.61	113.4	43.406	2.6974e-06	61.607	149.199	225.444	220.328	133.341	242.821	230.206	131.964	139.405	259.976	271.182	137.063	141.071	143.151	148.982	258.636	145.218	-8191	255	
1659.934	1	1	0	0	0.27989	0.12457	0.23301	0.34236	0.051779	0.17144	0.175	0.049981	0.29448	0.13788	0.36403	0.11317	0.21849	0.086833	0.11453	0.38767	-2.0104	-2.2958	-2.0604	-2.7604	-2.1937	-2.45	-2.4458	-2.2583	-2.4458	-2.5667	-2.3167	-2.6833	-2.3396	-2.3979	-2.6146	-2.3917	201.928	422.762	286.927	412.898	424.982	349.668	421.533	317.684	299.061	193.956	323.730	374.007	351.531	186.017	426.312	434.518	0.00094851	0.0005306	0.00014704	618.22	4.5469e-06	5.821e-06	789.35	280.6	4.3053e-06	4.545e-06	365.88	147.98	114.21	43.461	7.1091e-06	61.875	0.0003216	0.00024874	6.9591e-05	613.27	2.6464e-06	2.6925e-06	776.87	277.62	2.821e-06	2.597e-06	360.85	145.79	113.4	43.408	2.6794e-06	61.79	148.469	207.473	207.575	133.191	239.394	259.894	131.710	139.248	259.199	265.109	136.771	140.881	142.884	149.137	249.153	145.497	-8191	255	
1660.055	1	1	0	0	0.19122	0.23884	0.074858	0.22351	0.12985	0.21099	0.13855	0.13614	0.096503	0.18577	0.11968	0.092179	0.073793	0.054913	0.010366	0.2269	-2.0042	-2.3729	-2.1354	-2.6375	-2.25	-2.3667	-2.7104	-2.4208	-2.425	-2.5792	-2.0396	-2.8021	-2.4938	-2.3542	-2.5687	-2.2188	306.734	277.702	341.771	165.014	373.119	256.664	426.285	453.582	377.933	472.889	230.516	414.669	213.466	428.715	187.521	422.367	0.00099876	0.00057945	0.00019371	621.46	4.8948e-06	8.2892e-06	794.65	282.06	7.3863e-06	3.9301e-06	367.93	148.42	115.06	43.565	4.993e-06	62.164	0.00031579	0.0002388	6.9109e-05	614.06	2.6746e-06	2.6556e-06	780.69	279.04	2.8641e-06	2.6017e-06	362.38	146.18	113.94	43.6	2.7199e-06	61.881	151.470	223.945	179.142	133.456	253.444	277.287	131.813	139.527	260.551	250.217	136.585	140.949	142.956	149.361	251.111	145.238	-8191	255	
1660.151	1	1	0	0	0.25221	0.10831	0.12234	0.11758	0.072687	0.23439	0.043448	0.088969	0.13901	0.15565	0.19278	0.15915	0.14436	0.20513	0.14224	0.21076	-1.8062	-2.4854	-2.025	-2.4479	-2.4708	-2.2708	-2.6188	-2.3854	-2.2292	-2.7146	-2.2188	-2.5958	-2.7229	-2.3042	-2.8146	-2.5083	203.532	403.131	355.600	159.651	179.576	392.669	122.352	432.163	355.993	310.222	334.180	415.765	370.179	145.036	158.442	201.944	0.00095243	0.00044394	9.4148e-05	622.87	5.8831e-06	3.8576e-06	791.45	283.22	5.9324e-06	7.5508e-06	372	148.36	115.51	43.615	2.099e-06	62.35	0.00031868	0.0002421	6.8118e-05	615.1	2.6705e-06	2.6664e-06	781.13	279.38	2.7861e-06	2.644e-06	363.68	146.66	114.27	43.672	2.755e-06	62.176	147.354	229.992	219.576	133.329	240.205	289.323	131.711	139.011	267.505	271.778	136.786	141.127	143.201	149.191	256.396	145.388	-8191	255	
1660.247	1	1	0	0	0.083086	0.3184	0.034053	0.12297	0.041685	0.086638	0.060198	0.28731	0.05013	0.20453	0.35353	0.27457	0.27464	0.047507	0.19211	0.12978	-1.7771	-2.6854	-2.075	-2.6583	-2.5375	-2.3583	-2.8083	-2.4729	-2.2562	-2.4562	-2.3292	-2.6417	-2.6604	-2.225	-2.5375	-2.5375	335.127	324.959	158.066	469.554	143.843	333.767	388.256	418.627	367.053	348.478	458.561	465.147	131.640	413.917	472.220	256.275	0.00093525	0.00058713	0.00023901	621.34	4.0931e-06	3.0755e-06	794.68	281.88	6.0989e-06	6.651e-06	366.57	147.85	114.93	43.663	5.7895e-06	61.843	0.00032045	0.00024272	6.7709e-05	614.71	2.5968e-06	2.6452e-06	782.12	278.65	2.714e-06	2.5751e-06	361.9	146.02	113.82	43.62	2.7173e-06	61.751	147.774	199.319	212.209	133.297	255.961	281.546	131.857	139.113	239.039	267.874	137.114	141.036	142.921	149.050	233.680	145.517	-8191	255	
1660.341	1	1	0	0	0.19797	0.13188	0.29982	0.025405	0.13824	0.091313	0.086971	0.2815	0.08999	0.10643	0.27891	0.35306	0.10692	0.2807	0.1762	0.18767	-1.5479	-2.5979	-2.0563	-2.5292	-2.5604	-2.1375	-2.7	-2.2542	-2.2812	-2.85	-2.375	-2.5146	-2.65	-2.1479	-2.6521	-2.425	471.777	123.093	202.619	342.684	180.393	463.393	231.300	421.764	428.987	378.648	193.267	394.947	415.838	122.773	450.292	427.941	0.00090786	0.00042809	0.00016309	622.23	4.7459e-06	8.2314e-06	790.61	281.54	4.4566e-06	4.9452e-06	367.51	148.13	115.33	43.842	4.6723e-06	61.977	0.00030184	0.00023852	6.5304e-05	614.93	2.5193e-06	2.6184e-06	779.89	278.51	2.6146e-06	2.5321e-06	362.04	146.45	114.18	43.81	2.6869e-06	61.939	147.889	224.071	242.032	133.495	269.610	257.616	131.825	139.546	266.716	309.480	136.915	140.931	142.899	149.050	264.081	145.583	-8191	255	
1660.415	1	1	0	0	0.14645	0.035996	0.082447	0.12186	0.087803	0.22186	0.45132	0.043343	0.19206	0.099731	0.20866	0.11298	0.061352	0.31149	0.15868	0.16596	-1.7979	-2.6188	-2.2292	-2.3417	-2.6396	-2.075	-2.6354	-2.6417	-2.1583	-2.7167	-2.4062	-2.4813	-2.7354	-2.3104	-2.4646	-2.4875	136.377	302.027	123.057	184.116	397.885	328.911	410.947	220.359	182.023	310.107	443.631	233.828	415.655	136.296	354.568	456.102	0.00092348	0.00074036	0.00013561	618.28	5.6342e-06	7.2289e-06	792	283.4	3.8449e-06	6.7823e-06	369.5	149.46	115.82	43.804	7.2883e-06	62.558	0.0003019	0.00023714	6.4321e-05	614.49	2.5062e-06	2.5421e-06	782.76	279.95	2.5136e-06	2.5473e-06	363.8	147.22	114.81	43.933	2.5794e-06	62.276	150.199	195.332	223.537	133.353	246.729	260.564	131.949	139.550	227.661	269.512	136.909	140.786	142.783	148.959	233.064	145.475	-8191	255	
1660.534	1	1	0	0	0.18872	0.031417	0.23919	0.092575	0.10547	0.11001	0.16303	0.17582	0.13713	0.061719	0.40568	0.24196	0.068972	0.10178	0.11233	0.13251	-1.5875	-2.6458	-2.4271	-2.4125	-2.7042	-2.2542	-2.65	-2.6396	-2.1875	-2.6229	-2.4604	-2.3563	-2.7812	-2.3312	-2.4021	-2.7438	404.187	232.796	319.638	470.621	350.735	185.968	349.392	406.779	252.020	477.094	445.560	408.936	444.285	377.463	389.501	412.858	0.00088964	0.00018303	7.2307e-05	627.76	3.649e-06	4.3599e-06	794.51	283.85	5.0097e-06	6.6982e-06	371.7	150.53	116.85	44.333	4.9827e-06	63.354	0.00029525	0.00022687	6.1254e-05	618.47	2.4507e-06	2.4349e-06	786.25	280.65	2.548e-06	2.5858e-06	365.69	148.08	115.35	44.253	2.5856e-06	62.751	149.467	167.315	201.320	133.590	255.408	288.800	131.857	139.343	234.344	262.980	136.929	140.932	143.166	149.540	228.656	145.493	-8191	255	
1660.630	1	1	0	0	0.1634	0.28768	0.099874	0.31045	0.025667	0.050105	0.15218	0.24084	0.241	0.027925	0.078475	0.1619	0.076832	0.34171	0.10128	0.2076	-1.6229	-2.4167	-2.4062	-2.2333	-2.5833	-2.3479	-2.3312	-2.8083	-2.0875	-2.6771	-2.4729	-2.3083	-2.6271	-2.4875	-2.1146	-2.7271	129.912	271.429	408.012	174.535	419.192	478.404	389.573	456.821	319.741	436.162	126.108	142.991	229.365	446.159	424.863	443.592	0.00090773	0.00051619	0.00021893	623.88	4.8996e-06	2.8174e-06	798.15	283.54	1.0046e-05	8.7109e-06	369.43	150.47	116.07	44.053	4.0418e-06	62.632	0.00029721	0.00023381	6.2714e-05	616.73	2.4465e-06	2.4507e-06	785.62	279.55	2.5014e-06	2.5322e-06	363.97	147.39	114.82	44.125	2.5591e-06	62.536	150.696	205.666	238.451	133.612	267.505	272.596	131.868	139.225	272.302	234.561	136.831	141.081	143.207	149.085	236.950	145.195	-8191	255	
1660.726	1	1	0	0	0.070632	0.10405	0.1083	0.238	0.16901	0.16062	0.097018	0.15754	0.13874	0.061325	0.33698	0.21795	0.1725	0.2425	0.40035	0.14255	-1.7	-2.475	-2.3646	-2.2458	-2.6771	-2.2833	-2.475	-2.6958	-2.2167	-2.4646	-2.5271	-2.2812	-2.8375	-2.3438	-2.325	-2.8583	147.719	123.722	320.370	433.747	457.961	164.404	431.042	144.858	465.681	208.916	128.939	332.476	385.646	453.195	271.375	321.035	0.00092131	0.00068224	0.00020274	624.37	3.2837e-06	7.1554e-06	791.54	282.09	4.4785e-06	6.8379e-06	365.47	149.8	116.6	44.207	2.5693e-06	62.975	0.00029491	0.00023212	6.2889e-05	617.04	2.5414e-06	2.4471e-06	781.35	278.65	2.5292e-06	2.476e-06	361.21	147.36	115.12	44.258	2.5458e-06	62.633	151.157	243.899	212.508	133.649	279.534	256.246	131.993	139.100	264.007	244.098	136.895	140.839	143.072	148.943	259.717	145.433	-8191	255	
1660.847	1	1	0	0	0.092916	0.3487	0.26666	0.31125	0.044633	0.25422	0.050657	0.22021	0.29583	0.0085847	0.051877	0.17	0.20346	0.21217	0.27751	0.11493	-1.7125	-2.4542	-2.5875	-2.4062	-2.6896	-2.3438	-2.4062	-2.7146	-2.4021	-2.3771	-2.8479	-2.1875	-2.8354	-2.3333	-2.5396	-2.8417	320.171	404.000	197.749	153.681	252.580	314.854	194.211	478.653	459.027	388.013	143.433	480.149	385.679	218.419	163.123	125.434	0.00091918	0.00052703	0.00014869	621.57	3.4151e-06	6.6485e-06	798.28	281.15	6.6298e-06	3.7042e-06	367.17	149.02	115.67	44.169	1.8729e-06	62.81	0.00029438	0.00023035	6.1154e-05	615.42	2.5254e-06	2.3767e-06	782.17	277.85	2.4959e-06	2.5173e-06	361.96	147.23	114.81	44.149	2.4938e-06	62.622	150.201	219.873	216.135	133.477	307.835	265.479	131.913	139.056	242.603	250.863	136.734	141.050	142.923	148.955	239.728	145.425	-8191	255	
1660.943	1	1	0	0	0.095246	0.064087	0.16342	0.1778	0.12445	0.031591	0.14218	0.052526	0.1715	0.21322	0.30223	0.33734	0.26741	0.13603	0.04835	0.18256	-1.8125	-2.3104	-2.6729	-2.0958	-2.4813	-2.4813	-2.3563	-2.5417	-2.2271	-2.5667	-2.7438	-2.4833	-2.5771	-2.5271	-2.1833	-2.7667	206.709	423.621	461.393	131.358	216.405	310.756	432.050	136.611	443.578	133.453	293.387	136.618	400.124	170.972	368.989	337.439	0.00094203	0.00036524	0.00011506	621.98	4.2332e-06	5.918e-06	792.79	280.78	4.7963e-06	5.9244e-06	366.07	150.24	116.57	44.203	4.846e-06	62.996	0.00029402	0.0002314	6.219e-05	614.07	2.4816e-06	2.4144e-06	781.75	277.64	2.4585e-06	2.4113e-06	361.26	147.73	114.86	44.305	2.4679e-06	62.854	147.599	199.955	247.247	133.792	254.749	265.800	132.101	139.192	248.597	240.770	136.884	140.971	143.267	148.778	254.369	145.568	-8191	255	
1661.015	1	1	0	0	0.21738	0.13783	0.30247	0.10816	0.1171	0.11211	0.31068	0.30296	0.15237	0.28683	0.24887	0.18766	0.25164	0.19405	0.18886	0.24537	-1.8062	-2.2812	-2.7271	-2.1708	-2.3521	-2.6604	-2.3021	-2.5521	-2.3812	-2.2438	-2.6792	-2.4708	-2.625	-2.5021	-2.3354	-2.7604	404.940	214.656	152.537	446.841	356.233	426.912	385.735	400.418	455.971	217.112	364.012	358.597	436.516	128.337	232.534	332.279	0.00098932	0.00012183	0.00013551	619.26	5.8431e-06	1.0194e-05	792.43	279.95	5.7446e-06	3.1447e-06	364.28	148.74	115.57	43.954	3.6645e-06	62.861	0.00029127	0.00022654	6.1424e-05	612.71	2.4806e-06	2.3856e-06	778.32	276.26	2.393e-06	2.4157e-06	359.65	146.54	114.2	43.938	2.411e-06	62.446	148.373	219.529	248.948	133.388	261.414	282.897	131.847	139.812	229.232	242.437	136.990	140.817	143.217	148.946	259.882	145.417	-8191	255	
1661.135	1	1	0	0	0.24779	0.089085	0.18963	0.26869	0.27607	0.13824	0.23747	0.20971	0.13665	0.16895	0.10523	0.12065	0.32993	0.21569	0.14283	0.26596	-2.0396	-2.2521	-2.4813	-2.3792	-2.4625	-2.5271	-2.3229	-2.6583	-2.2542	-2.2083	-2.6458	-2.1708	-2.4688	-2.6604	-2.0583	-2.7021	310.284	445.520	173.733	475.794	200.378	430.824	426.243	330.690	339.787	302.832	197.469	165.089	135.520	437.461	321.894	122.796	0.00089468	0.00025925	0.00018355	618.5	1.9188e-06	2.9791e-06	790.32	279.72	5.9071e-06	4.6892e-06	367.35	149.36	116.16	44.103	3.3708e-06	62.955	0.00027972	0.00021888	6.1429e-05	609.27	2.4673e-06	2.3769e-06	777.59	276.15	2.4556e-06	2.3619e-06	360.62	147.16	114.39	44.148	2.463e-06	62.66	147.088	197.048	200.995	133.234	309.675	269.672	132.194	139.369	247.128	326.436	136.935	140.973	142.842	148.854	244.981	145.244	-8191	255	
1661.231	1	1	0	0	0.18825	0.10753	0.013234	0.3132	0.076406	0.25159	0.28917	0.42538	0.1238	0.178	0.046824	0.17269	0.38774	0.39651	0.22375	0.12208	-2.025	-2.025	-2.5917	-2.1521	-2.4	-2.5792	-2.2042	-2.4792	-2.5417	-2.0979	-2.6625	-2.3688	-2.3625	-2.575	-2.0792	-2.6083	411.106	277.174	287.758	403.961	323.509	333.559	392.083	365.051	141.877	341.058	386.594	462.655	405.875	471.353	207.977	164.544	0.00089781	0.00051082	0.00012458	619.98	2.3724e-06	7.6141e-06	795.9	280.62	7.9576e-06	3.5976e-06	368.02	149.35	116.11	44.209	6.1459e-06	63.161	0.00028707	0.00022078	6.2141e-05	612.48	2.3853e-06	2.3004e-06	780.35	277.45	2.3217e-06	2.3099e-06	362.26	147.57	114.64	44.165	2.3749e-06	62.78	148.053	232.642	216.596	133.170	285.103	272.330	131.861	139.076	268.938	288.338	137.082	141.086	142.820	149.084	241.067	145.442	-8191	255	
1661.327	1	1	0	0	0.11715	0.094812	0.18575	0.40726	0.081772	0.24858	0.078893	0.086723	0.11316	0.097269	0.065726	0.23996	0.35732	0.24809	0.10248	0.072089	-1.9583	-2.15	-2.5646	-2.5312	-2.3063	-2.6125	-2.2396	-2.4479	-2.3292	-2.2167	-2.6979	-2.5625	-2.1833	-2.6292	-2.0958	-2.6375	371.503	347.431	380.959	478.970	138.243	384.436	239.893	239.066	459.497	125.532	443.249	444.735	336.331	122.387	181.862	132.228	0.00092527	0.00050048	0.00016945	623.18	2.7927e-06	3.6875e-06	790.78	282.34	5.0436e-06	4.1477e-06	371.36	151.1	116.32	44.281	4.3404e-06	63.234	0.00027951	0.00021143	6.1177e-05	613.64	2.3567e-06	2.3171e-06	782.61	278.46	2.3541e-06	2.3327e-06	364.87	148.71	115.19	44.306	2.3342e-06	63.108	149.909	224.977	243.608	133.297	229.841	251.653	131.875	139.303	255.149	309.046	136.728	140.840	142.845	148.975	280.507	145.245	-8191	255	
1661.446	1	1	0	0	0.067477	0.17828	0.2825	0.12941	0.17594	0.19037	0.33375	0.27285	0.23676	0.044109	0.1987	0.22449	0.28129	0.25413	0.016188	0.18507	-2.0396	-2.0604	-2.5563	-2.5062	-2.1542	-2.7812	-2.3583	-2.4458	-2.5646	-2.3063	-2.5479	-2.5042	-2.0354	-2.6146	-2.375	-2.6458	188.128	160.246	175.065	401.914	319.583	464.281	440.109	427.160	477.333	300.662	195.305	444.009	414.669	125.176	431.766	411.658	0.0010149	0.00050815	0.00017889	621.61	5.6438e-06	4.7357e-06	797.53	282.11	6.7211e-06	8.2908e-06	369.96	149.67	116	44.311	6.5791e-06	63.169	0.00028712	0.00021369	6.0651e-05	614.8	2.3285e-06	2.2772e-06	783.44	278.86	2.2979e-06	2.2836e-06	364.17	147.94	114.44	44.175	2.2771e-06	62.961	150.449	226.527	230.514	133.447	222.180	279.642	132.039	139.462	248.968	256.329	136.937	140.987	143.052	149.083	249.418	145.447	-8191	255	
1661.542	1	1	0	0	0.046465	0.23044	0.20347	0.2368	0.13815	0.12354	0.26222	0.15322	0.16847	0.1568	0.08897	0.27116	0.41375	0.25488	0.10676	0.12389	-2.0417	-2.1333	-2.4396	-2.4208	-2.2396	-2.375	-2.5521	-2.2896	-2.5271	-2.1979	-2.4917	-2.4708	-2.3292	-2.7479	-2.2875	-2.5208	418.788	372.441	280.451	350.850	362.528	137.038	444.222	463.366	322.637	233.698	464.650	129.814	451.424	437.340	186.141	352.947	0.00092448	0.0006018	0.0001639	623.3	4.1257e-06	7.1522e-06	798.97	280.04	7.762e-06	5.2007e-06	368.54	151.29	116.08	44.175	5.273e-06	63.738	0.00027487	0.00020704	5.8248e-05	612.96	2.266e-06	2.321e-06	783.12	276.9	2.3021e-06	2.2369e-06	363.95	148.39	114.67	44.115	2.2655e-06	63.183	151.421	207.001	226.998	133.517	241.570	260.411	131.826	139.406	255.040	261.971	136.949	140.729	143.124	148.884	245.130	145.334	-8191	255	
1661.639	1	1	0	0	0.16346	0.041098	0.25525	0.41147	0.14182	0.24665	0.067334	0.072234	0.19464	0.11414	0.11497	0.11441	0.13974	0.030988	0.021745	0.040125	-2.2083	-2.2021	-2.3854	-2.5292	-2.0667	-2.6813	-2.2708	-2.3667	-2.6021	-2.125	-2.6292	-2.5333	-2.0833	-2.5563	-2.3958	-2.4396	203.903	281.603	163.868	342.562	244.504	336.990	241.389	241.212	425.953	368.449	476.505	471.491	466.314	472.306	394.131	279.555	0.00090743	0.00030936	0.00012861	619.11	4.8597e-06	6.8079e-06	794.51	280.49	7.5132e-06	5.3283e-06	369.1	150.31	115.39	44.184	5.3766e-06	63.862	0.00028064	0.00020548	6.0192e-05	611.99	2.2788e-06	2.2914e-06	780.96	276.99	2.3645e-06	2.2487e-06	363.79	148.06	114.18	44.134	2.281e-06	63.44	152.727	179.479	235.413	133.407	245.218	284.271	131.639	139.320	270.344	269.500	136.877	141.285	143.117	148.784	254.278	145.353	-8191	255	
1661.710	1	1	0	0	0.093733	0.079293	0.15498	0.071366	0.15087	0.062609	0.234	0.17888	0.23102	0.22401	0.25994	0.078777	0.20079	0.22565	0.033268	0.22903	-2.1333	-2.3021	-2.3	-2.325	-2.1479	-2.4854	-2.5896	-2.275	-2.7021	-2.3104	-2.5271	-2.5458	-2.3187	-2.6188	-2.375	-2.2875	310.501	143.878	433.719	442.981	202.508	266.961	473.468	134.948	421.317	202.112	461.266	453.981	284.868	397.539	143.010	437.888	0.0009863	0.0003305	0.00015369	615.92	3.8646e-06	7.6432e-06	793.61	280.47	5.7051e-06	6.7889e-06	372.32	150.77	115.94	44.022	5.565e-06	63.56	0.00028415	0.00021357	6.0378e-05	611.18	2.2788e-06	2.3029e-06	782.12	276.93	2.3623e-06	2.1774e-06	365.43	148.61	114.23	44.137	2.246e-06	63.238	150.155	196.768	222.468	133.313	270.864	269.088	131.956	139.561	257.328	273.269	136.797	140.918	142.797	148.888	235.105	145.356	-8191	255	
1661.831	1	1	0	0	0.18658	0.10693	0.081463	0.1058	0.11003	0.24077	0.1831	0.10712	0.235	0.25955	0.21183	0.048597	0.27782	0.32046	0.097152	0.24446	-2.0375	-2.2854	-2.2458	-2.6542	-2.2292	-2.5146	-2.5875	-2.2812	-2.4708	-2.2708	-2.2396	-2.725	-2.3146	-2.7792	-2.4875	-2.2708	182.195	369.471	123.661	407.830	213.097	452.325	386.008	430.193	344.834	253.398	248.762	415.963	434.846	479.147	406.396	480.925	0.00092504	0.00046984	0.00010408	619.71	5.1586e-06	7.1455e-06	794.92	278.35	5.007e-06	6.057e-06	370.95	149.47	115.39	43.672	3.8432e-06	63.276	0.00028149	0.00020088	5.8798e-05	609.26	2.2507e-06	2.2383e-06	779.59	275.07	2.2681e-06	2.1547e-06	364.53	147.62	113.77	43.688	2.2227e-06	62.793	150.799	188.331	241.744	133.260	267.820	276.221	131.975	139.092	253.511	272.739	137.058	141.057	142.809	148.811	223.851	145.282	-8191	255	
1661.927	1	1	0	0	0.11648	0.11641	0.02956	0.11698	0.20206	0.067948	0.10453	0.21457	0.32631	0.10461	0.47098	0.26277	0.12714	0.3178	0.13963	0.099428	-2.0667	-2.1667	-2.3146	-2.4875	-2.325	-2.3667	-2.6188	-2.2896	-2.5667	-2.4083	-2.3583	-2.6562	-2.4042	-2.5542	-2.7062	-2.2917	260.478	345.596	363.881	364.895	459.454	339.218	137.194	386.122	378.618	444.700	411.286	147.435	429.218	365.592	262.527	422.158	0.0009699	0.00060762	0.00023685	615.37	4.9099e-06	5.8917e-06	788.67	278.97	3.8684e-06	8.7774e-06	370.02	150.41	115.01	43.837	5.3971e-06	63.509	0.00028117	0.00019966	5.6189e-05	607.73	2.195e-06	2.1783e-06	775.8	275.45	2.373e-06	2.1481e-06	364.39	148.09	113.52	43.773	2.2463e-06	63.018	151.798	194.897	229.348	133.553	277.712	243.721	132.012	139.144	239.440	222.450	136.880	140.976	142.767	148.693	246.733	145.494	-8191	255	
1662.023	1	1	0	0	0.18192	0.051918	0.14032	0.10791	0.035453	0.23951	0.1884	0.19717	0.12886	0.2752	0.3047	0.12141	0.17458	0.16054	0.15324	0.2377	-2.0104	-2.5792	-2.1	-2.7479	-2.1188	-2.3063	-2.8271	-2.1437	-2.5687	-2.4833	-2.1104	-2.6354	-2.1792	-2.4521	-2.5438	-2.3458	148.608	439.439	181.557	135.586	301.597	362.226	145.594	297.540	425.378	163.900	445.572	196.335	424.680	397.134	205.144	426.261	0.00092427	0.00037196	8.3076e-05	615.36	3.8088e-06	3.0283e-06	791.1	279	7.6864e-06	3.9851e-06	372.51	150.4	115.29	43.771	3.9933e-06	63.224	0.00027668	0.00020092	5.6602e-05	607.37	2.1686e-06	2.2364e-06	778.4	275.92	2.2621e-06	2.1845e-06	365.54	148.05	113.61	43.733	2.241e-06	63.053	150.173	221.749	220.619	133.344	255.080	274.139	131.931	139.276	270.089	225.369	136.739	140.719	142.834	148.831	241.606	145.300	-8191	255	
1662.119	1	1	0	0	0.20727	0.30912	0.23471	0.1957	0.064421	0.097439	0.19806	0.09471	0.016724	0.20347	0.10682	0.30658	0.065928	0.091498	0.19085	0.18229	-1.8583	-2.5146	-2.0792	-2.7646	-2.2125	-2.4188	-2.7708	-2.1625	-2.3333	-2.5292	-2.0458	-2.4562	-2.4938	-2.2104	-2.5875	-2.1521	364.621	201.469	428.979	357.150	239.896	254.237	373.921	478.031	364.956	410.065	449.627	393.385	168.682	125.433	261.711	145.829	0.00095446	0.00048502	0.00016484	612.93	4.6951e-06	2.4619e-06	792.84	280.1	4.9397e-06	4.2893e-06	370.47	150.52	115.07	43.627	5.0891e-06	63.145	0.00027907	0.00019694	5.604e-05	605.43	2.1945e-06	2.2094e-06	779.15	276.3	2.2462e-06	2.1621e-06	365.63	148.36	113.47	43.728	2.251e-06	62.961	149.775	225.385	195.364	133.278	248.639	269.164	132.225	139.369	298.227	300.716	137.195	140.745	142.795	148.651	238.829	144.832	-8191	255	
1662.238	1	1	0	0	0.16423	0.10631	0.11164	0.064623	0.18475	0.19014	0.026837	0.22206	0.073444	0.06968	0.42107	0.26201	0.24874	0.3148	0.16913	0.2573	-1.8375	-2.3854	-2.1979	-2.5021	-2.35	-2.0062	-2.6729	-2.2625	-2.3688	-2.5458	-2.2833	-2.4771	-2.4979	-2.0687	-2.7083	-2.2333	135.222	307.381	467.315	414.191	435.367	251.498	182.580	432.487	333.692	226.424	358.434	472.252	444.622	372.168	127.691	383.972	0.00089593	0.00024753	0.00016193	611.09	3.5607e-06	5.7815e-06	786.43	279.58	3.2918e-06	4.5665e-06	369.51	148.77	113.91	43.408	5.9012e-06	62.871	0.00027662	0.00020025	5.5434e-05	603.17	2.1665e-06	2.1998e-06	775.48	274.4	2.2633e-06	2.1424e-06	363.73	147.06	112.86	43.364	2.2029e-06	62.735	147.435	187.834	201.320	133.384	283.670	256.971	131.759	138.861	287.924	280.892	136.919	141.041	142.595	148.700	239.745	145.061	-8191	255	
1662.312	1	1	0	0	0.14868	0.1433	0.22529	0.056416	0.10373	0.23751	0.12025	0.093402	0.16827	0.043279	0.07668	0.11745	0.27888	0.14224	0.14346	0.11978	-1.8813	-2.5792	-2.2458	-2.6167	-2.3604	-2.0438	-2.9083	-2.3833	-2.5229	-2.65	-2.2354	-2.4583	-2.5479	-2.0646	-2.8104	-2.3604	367.695	442.097	471.027	249.703	374.783	340.864	391.608	145.470	149.273	351.307	413.984	479.574	156.572	433.471	442.465	197.999	0.00094101	0.00052211	0.00011264	610.05	4.1466e-06	6.0033e-06	788.96	278.3	6.5333e-06	7.5725e-06	371.3	149.85	114.7	43.675	4.3081e-06	63.184	0.00027322	0.00020545	5.3569e-05	602.65	2.1504e-06	2.105e-06	775.37	274.51	2.1999e-06	2.1524e-06	364.85	147.85	113.2	43.563	2.2442e-06	62.872	149.576	234.127	174.627	133.508	264.654	260.235	132.078	139.401	256.054	231.270	136.764	140.914	142.179	148.718	250.723	145.524	-8191	255	
1662.408	1	1	0	0	0.24026	0.12598	0.027241	0.23177	0.13962	0.15935	0.23765	0.14972	0.18937	0.12695	0.23998	0.26734	0.39193	0.17443	0.27436	0.21824	-1.8563	-2.4542	-2.15	-2.4146	-2.4333	-2.0563	-2.6542	-2.3083	-2.0604	-2.7125	-2.1521	-2.4604	-2.6646	-2.2125	-2.3167	-2.4771	159.197	347.799	421.561	456.866	444.205	464.003	475.057	176.742	325.663	175.154	127.518	449.985	446.453	167.994	188.871	437.280	0.00085764	0.00035442	0.00017318	607.06	4.7447e-06	4.8279e-06	790.06	277.51	5.5543e-06	4.2787e-06	373	150.5	114.42	43.483	3.8414e-06	63.579	0.00026745	0.00019917	5.4202e-05	601.03	2.1705e-06	2.0862e-06	774.6	273.78	2.1311e-06	2.1552e-06	364.73	147.94	113.02	43.455	2.25e-06	63.123	149.097	159.478	192.868	133.493	260.100	276.669	132.041	139.226	235.774	270.944	136.690	140.852	142.844	148.952	249.013	145.146	-8191	255	
1662.527	1	1	0	0	0.21187	0.13281	0.19724	0.19683	0.27708	0.17825	0.21786	0.21011	0.1652	0.13104	0.29509	0.093602	0.10849	0.026014	0.032305	0.18294	-1.7292	-2.5042	-2.1854	-2.4188	-2.6521	-2.2979	-2.4917	-2.525	-2.1479	-2.5687	-2.3271	-2.1979	-2.5583	-2.0625	-2.4542	-2.5583	433.043	439.164	438.715	456.274	184.435	135.541	346.322	391.609	357.144	232.941	469.156	475.888	254.386	436.185	437.045	132.722	0.0009539	0.0005133	0.00014908	607.67	4.46e-06	1.8734e-06	779.63	277.9	4.9291e-06	6.3612e-06	368.38	149.87	114.05	43.329	4.6499e-06	63.089	0.00027032	0.00020055	5.4533e-05	598.44	2.153e-06	2.0874e-06	768.85	272.67	2.2066e-06	2.1085e-06	363.16	147.66	112.66	43.268	2.207e-06	62.772	147.443	227.165	214.732	133.269	270.668	238.215	131.697	139.035	255.239	239.447	136.924	140.680	142.743	148.707	253.792	145.104	-8191	255	
1662.623	1	1	0	0	0.18288	0.18707	0.086623	0.21147	0.014336	0.27082	0.29128	0.38837	0.059962	0.13049	0.29032	0.28575	0.073373	0.18308	0.11567	0.2142	-1.5063	-2.4479	-2.1188	-2.0708	-2.6083	-2.0896	-2.5812	-2.4292	-1.8937	-2.5021	-2.2458	-2.35	-2.6562	-2.05	-2.3354	-2.4938	327.072	275.481	291.980	461.078	331.889	310.407	429.147	389.359	192.679	470.813	430.508	441.765	212.689	454.103	399.558	344.167	0.00094852	0.00046924	0.00016515	604.04	2.66e-06	6.1335e-06	778.08	272.62	6.5436e-06	5.0905e-06	366.07	148.8	112.87	42.996	4.6479e-06	62.69	0.0002661	0.00019694	5.4302e-05	594.51	2.173e-06	2.0131e-06	765.49	270.11	2.1167e-06	2.1587e-06	361.09	146.58	111.83	42.976	2.192e-06	62.42	147.877	205.285	230.179	133.185	262.359	257.236	132.030	139.094	251.974	280.500	136.786	140.700	142.733	148.628	232.158	145.268	-8191	255	
1662.719	1	1	0	0	0.031949	0.031976	0.13275	0.24107	0.18877	0.2465	0.32279	0.2328	0.077908	0.074099	0.16601	0.21996	0.22412	0.32276	0.10715	0.17795	-1.5729	-2.5271	-2.1771	-2.2562	-2.7104	-2.2562	-2.4458	-2.4833	-1.9854	-2.5208	-2.4313	-2.1604	-2.6063	-2.4083	-2.3	-2.5375	255.434	471.171	383.522	456.279	333.861	434.093	441.663	375.301	312.484	320.544	268.516	479.499	210.280	464.176	278.271	387.999	0.00093288	0.00040611	0.00014314	600.53	2.3214e-06	2.0618e-06	773.82	274.69	6.9479e-06	4.6465e-06	366.35	149.01	113	43.102	4.8574e-06	62.932	0.00026279	0.00019698	5.3465e-05	590.74	2.1464e-06	2.0231e-06	764.33	270.42	2.1225e-06	2.1723e-06	360.41	146.67	111.67	43.003	2.141e-06	62.587	149.364	197.321	218.526	133.548	264.740	271.196	131.941	139.284	267.456	227.003	136.878	140.680	142.744	148.610	246.602	144.847	-8191	255	
1662.815	1	1	0	0	0.18522	0.060163	0.1241	0.2323	0.22146	0.17981	0.19535	0.27262	0.16005	0.23776	0.17136	0.43145	0.099812	0.34162	0.21752	0.069254	-1.5354	-2.6375	-2.2917	-2.1771	-2.7021	-2.2833	-2.3125	-2.5979	-2.0542	-2.4583	-2.5146	-2.1917	-2.5521	-2.1792	-2.2625	-2.6708	432.610	322.203	162.990	181.155	371.043	360.652	397.093	406.913	328.267	225.880	448.002	434.423	429.441	446.293	273.710	372.710	0.00087928	0.00048341	0.0001598	599.22	4.5072e-06	5.4606e-06	777.15	276.33	4.4069e-06	5.777e-06	367.26	148.86	113.32	42.885	4.326e-06	62.939	0.00026221	0.00019763	5.3823e-05	593.08	2.1506e-06	2.0302e-06	764.92	271.15	2.0527e-06	2.1517e-06	361.66	146.69	111.88	42.932	2.1144e-06	62.592	150.656	197.519	222.278	133.257	258.809	271.805	131.993	139.296	239.041	249.867	136.656	140.914	142.774	148.692	259.105	145.252	-8191	255	
1662.911	1	1	0	0	0.14472	0.070899	0.1815	0.37867	0.22111	0.25112	0.30618	0.33788	0.11978	0.10191	0.12526	0.45967	0.050293	0.13343	0.21321	0.33496	-1.6	-2.3812	-2.1937	-2.1646	-2.5333	-2.3729	-2.0646	-2.6229	-2.1625	-2.2125	-2.4917	-2.0521	-2.4667	-2.4229	-2.1625	-2.5458	476.746	323.096	413.034	151.471	194.656	224.488	423.821	460.432	402.182	138.834	160.362	466.685	359.147	235.245	232.099	403.792	0.00094285	8.8747e-05	0.00014114	601.61	4.8683e-06	3.2917e-06	776.02	275.04	6.9452e-06	4.6253e-06	369.49	148.35	113.25	42.901	4.2941e-06	62.711	0.00026283	0.00019486	5.3296e-05	593.24	2.1267e-06	2.0786e-06	766.52	271.37	2.1189e-06	2.0207e-06	362.22	146.67	111.67	42.899	2.1149e-06	62.316	148.275	213.335	212.975	133.647	258.588	287.862	131.982	138.982	254.122	298.490	137.038	140.450	142.347	148.678	272.685	145.209	-8191	255	
1663.007	1	1	0	0	0.23968	0.19653	0.15108	0.22516	0.31287	0.22117	0.31232	0.35822	0.089295	0.1653	0.12745	0.15272	0.071563	0.1691	0.04049	0.16333	-1.8354	-2.3292	-2.2792	-2.175	-2.3688	-2.2917	-2.325	-2.7062	-2.225	-2.3063	-2.6792	-2.4104	-2.4688	-2.5646	-2.1771	-2.5187	404.448	178.703	431.493	473.303	159.026	370.001	374.271	389.252	424.673	395.395	385.271	454.087	352.954	397.277	467.187	349.827	0.0009392	0.00033672	0.00018472	603.54	2.2526e-06	2.746e-06	782.4	275.49	5.6059e-06	4.4465e-06	367.2	147.67	113.12	42.89	4.9012e-06	62.624	0.00026058	0.00019821	5.3422e-05	594.84	2.1103e-06	2.0165e-06	767.61	271.2	2.0924e-06	2.0608e-06	361.94	146.02	111.54	42.766	2.1086e-06	62.285	149.814	262.087	197.434	133.604	233.003	255.852	131.832	139.023	247.732	262.464	136.953	140.724	142.817	148.567	250.558	145.170	-8191	255	
1663.128	1	1	0	0	0.21213	0.079091	0.18081	0.31446	0.25133	0.1329	0.15949	0.17962	0.13069	0.080066	0.17428	0.14379	0.13323	0.06722	0.093737	0.11623	-1.6792	-2.2979	-2.6271	-2.0729	-2.4437	-2.5167	-2.1667	-2.5812	-2.4542	-2.4146	-2.6146	-2.3063	-2.6167	-2.5312	-2.125	-2.7188	195.655	170.351	229.552	144.554	333.995	433.986	410.613	386.331	335.726	455.624	127.734	450.338	144.841	131.938	235.010	134.979	0.00090983	0.00035427	0.00020552	603.22	5.1707e-06	9.228e-06	784.53	275.53	8.7861e-06	7.6019e-06	369.23	149.04	113.8	42.738	2.3381e-06	62.853	0.00026339	0.00019086	5.268e-05	595.25	2.1249e-06	1.9944e-06	769.82	272.32	2.0809e-06	2.0397e-06	363.33	146.4	112.19	42.92	2.0924e-06	62.463	149.874	264.979	216.666	133.464	233.243	260.410	132.016	139.465	262.504	290.484	136.678	140.809	142.814	148.868	261.725	145.077	-8191	255	
1663.224	1	1	0	0	0.42203	0.065844	0.012714	0.14428	0.19718	0.28215	0.38305	0.25349	0.20779	0.12665	0.16543	0.19347	0.24317	0.20778	0.090295	0.074452	-1.8	-2.2417	-2.525	-2.2438	-2.4042	-2.3729	-2.1542	-2.5125	-2.3625	-2.0292	-2.675	-2.3208	-2.3479	-2.5542	-2.1375	-2.5354	397.036	135.953	416.047	195.010	360.267	308.341	445.784	451.660	357.071	172.226	399.749	465.745	462.560	445.633	430.557	417.796	0.00085255	0.00040743	0.00018412	607.54	4.5345e-06	7.9586e-06	786.72	278.14	4.4424e-06	2.5417e-06	370.43	149.52	114.36	43.002	4.2396e-06	63.048	0.00025334	0.00019215	5.436e-05	599.89	2.139e-06	2.0698e-06	773.24	274.45	2.0925e-06	2.0046e-06	364.11	147	112.54	43.152	2.0883e-06	62.599	148.192	231.112	223.112	133.259	257.614	271.586	131.981	139.127	252.770	245.837	137.169	140.713	142.559	148.789	239.558	145.394	-8191	255	
1663.319	1	1	0	0	0.25402	0.34013	0.10532	0.031825	0.09656	0.062978	0.25367	0.18536	0.029756	0.029918	0.1419	0.23388	0.083537	0.22512	0.22286	0.25915	-1.7854	-2.075	-2.4542	-2.1021	-2.2646	-2.6271	-2.2521	-2.5729	-2.4354	-1.9813	-2.4646	-2.3	-2.3042	-2.7042	-2.0771	-2.4417	230.668	333.317	244.127	277.833	199.838	264.202	448.837	420.349	174.413	149.710	132.741	171.397	159.279	459.324	310.573	277.410	0.00091873	0.000655	0.00018652	610.71	4.9503e-06	3.9289e-06	792.47	277.62	6.4723e-06	7.3793e-06	372.28	149.12	113.59	42.902	4.4018e-06	62.809	0.00026194	0.00019249	5.4377e-05	602.41	2.1737e-06	2.1218e-06	776.86	274.44	2.1028e-06	2.0865e-06	364.72	147.11	112.55	43.047	2.2325e-06	62.537	149.079	216.644	217.310	133.591	263.696	252.282	131.953	139.189	246.821	247.671	136.611	141.015	142.895	148.629	235.838	145.344	-8191	255	
1663.415	1	1	0	0	0.19867	0.1979	0.13759	0.22462	0.29137	0.088658	0.098795	0.33915	0.23715	0.11491	0.20465	0.12213	0.27108	0.10793	0.13698	0.043714	-1.7667	-1.9521	-2.2812	-2.3625	-2.0917	-2.7188	-1.9625	-2.3125	-2.1188	-2.2062	-2.5646	-2.2354	-2.3583	-2.6417	-2.2708	-2.4625	155.299	247.499	292.195	448.983	204.048	170.100	387.421	378.384	380.559	176.101	303.206	415.412	472.539	315.935	316.393	168.417	0.00092044	0.00057066	9.7328e-05	612.69	3.1264e-06	7.9602e-06	788.03	278.92	6.5349e-06	3.1971e-06	368.8	149.08	113.19	43.053	4.7314e-06	62.862	0.00027043	0.00019743	5.5503e-05	602.53	2.1089e-06	2.1381e-06	773.49	274.2	2.1716e-06	2.0935e-06	362.66	147.19	112.11	43.009	2.1753e-06	62.451	151.403	229.849	190.497	133.299	290.018	291.439	131.960	139.329	254.529	251.472	136.847	140.930	142.811	148.705	231.230	145.481	-8191	255	
1663.535	1	1	0	0	0.2619	0.20417	0.058076	0.22472	0.14545	0.052533	0.38642	0.080828	0.1062	0.21742	0.34641	0.24727	0.23467	0.062826	0.048842	0.10092	-1.9979	-1.9979	-2.575	-2.2687	-2.0333	-2.4875	-2.1208	-2.2958	-2.5396	-1.95	-2.5375	-2.6	-2.1729	-2.5708	-2.2729	-2.2375	393.871	317.407	479.180	374.708	308.668	384.777	415.276	205.796	192.611	383.283	144.465	412.836	427.520	357.798	404.223	423.891	0.00089976	0.00050748	0.0001737	608.84	5.0101e-06	1.9043e-06	783.84	275.75	6.2673e-06	4.2251e-06	371.62	149.02	113.64	43.37	5.4983e-06	62.878	0.0002658	0.00019609	5.6257e-05	601.83	2.1086e-06	2.0887e-06	772.69	272.94	2.152e-06	2.0383e-06	363.86	147.18	112.47	43.176	2.1639e-06	62.693	147.945	209.360	211.765	133.526	241.128	267.538	131.924	139.322	228.749	266.629	136.834	140.775	142.818	148.899	252.428	145.219	-8191	255	
1663.607	1	1	0	0	0.19964	0.050016	0.25197	0.18871	0.14566	0.13242	0.34132	0.22768	0.17644	0.28222	0.29371	0.25163	0.21112	0.071021	0.059785	0.15224	-2.0521	-1.975	-2.4792	-2.3896	-1.9604	-2.5021	-2.2604	-2.0687	-2.55	-2.0417	-2.3083	-2.5875	-1.9229	-2.7562	-2.1042	-2.4521	221.954	456.798	394.675	473.721	367.607	339.473	444.118	380.926	297.669	145.352	463.319	396.663	435.734	192.350	391.275	371.993	0.00089298	0.00038946	7.4329e-05	606.93	5.2934e-06	4.2774e-06	788.74	276.23	5.7707e-06	7.1101e-06	370.42	149.93	114.02	43.192	3.4224e-06	63.368	0.00026561	0.00018953	5.43e-05	601.9	2.1046e-06	2.1626e-06	774.41	273.32	2.1861e-06	2.1075e-06	364.05	147.77	112.66	43.211	2.1417e-06	63	149.767	184.061	234.983	133.539	243.184	280.601	131.835	139.210	223.724	249.318	136.590	140.567	143.038	148.573	242.909	145.090	-8191	255	
1663.703	1	1	0	0	0.060908	0.13662	0.13447	0.21301	0.29763	0.017263	0.082517	0.22148	0.24723	0.22785	0.19182	0.2751	0.053239	0.11849	0.19553	0.24434	-1.8021	-2.2021	-2.3146	-2.5646	-1.9875	-2.4437	-2.4062	-2.2062	-2.5812	-1.9479	-2.3792	-2.4542	-2.1646	-2.5021	-2.4938	-2.3375	139.971	232.032	452.768	143.823	168.188	438.222	445.005	357.502	295.348	189.374	165.251	370.563	405.339	129.231	473.156	428.727	0.0009294	0.00025954	8.9277e-05	612.12	5.5444e-06	4.7751e-06	793.09	278.11	7.8502e-06	5.5561e-06	372.86	150.51	115.11	43.327	7.0201e-06	63.368	0.00026676	0.00018254	5.414e-05	604.46	2.0239e-06	1.9709e-06	780.2	274.5	2.114e-06	2.0285e-06	365.02	148.29	113.12	43.259	2.0588e-06	62.936	148.277	206.322	241.173	133.538	265.850	277.743	131.948	139.424	245.598	293.025	136.956	140.885	142.859	148.773	240.514	145.358	-8191	255	
1663.799	1	1	0	0	0.074574	0.18755	0.11933	0.10883	0.15774	0.069941	0.14987	0.1638	0.03208	0.091216	0.13246	0.27332	0.16311	0.22323	0.068098	0.27445	-2.0667	-2.2042	-2.1688	-2.6104	-2.0125	-2.4208	-2.3958	-2.2812	-2.5625	-2.2917	-2.2125	-2.8125	-2.0896	-2.6354	-2.3917	-2.3333	133.275	416.560	479.906	355.744	296.003	471.916	376.356	125.431	408.189	205.357	181.789	456.494	137.413	420.551	125.559	464.140	0.000939	0.00031744	9.7996e-05	613.39	4.6758e-06	4.5327e-06	793.16	278.68	4.9686e-06	4.4318e-06	367.19	150.2	114.68	43.398	3.9376e-06	63.447	0.00026045	0.00018161	5.264e-05	603.25	1.9707e-06	2.1122e-06	777.45	274	2.1218e-06	2.0378e-06	361.31	147.65	112.96	43.378	2.0906e-06	63.04	150.496	236.105	230.089	133.462	264.454	296.057	131.868	139.198	261.293	283.832	137.213	140.967	143.187	148.667	230.022	145.197	-8191	255	
1663.920	1	1	0	0	0.25049	0.12032	0.26527	0.15906	0.13253	0.31528	0.17365	0.18386	0.1464	0.29637	0.058138	0.16574	0.33729	0.25704	0.14739	0.17898	-1.9625	-2.2292	-2.1813	-2.6521	-2.1	-2.5625	-2.6437	-2.2062	-2.5479	-2.3604	-2.3604	-2.5729	-2.1021	-2.5667	-2.3917	-2.2229	458.856	389.301	131.189	159.276	243.861	249.732	466.796	408.117	410.166	463.532	474.454	298.087	147.725	124.889	168.359	433.412	0.00091113	0.00061962	0.00011486	611.41	4.721e-06	5.1728e-06	790.36	278.07	1.8697e-06	4.2416e-06	370.34	150.72	115.31	43.858	4.758e-06	63.844	0.00026944	0.00018704	5.31e-05	603.47	2.0766e-06	2.0722e-06	780.69	274.26	2.1373e-06	2.0411e-06	363.17	148.88	113.98	43.826	2.1832e-06	63.593	150.256	205.516	214.624	133.560	254.171	294.789	132.180	139.304	245.646	253.855	137.331	140.949	142.821	149.068	251.901	145.438	-8191	255	
1664.016	1	1	0	0	0.099195	0.11152	0.1801	0.15845	0.27325	0.093924	0.1967	0.23886	0.10762	0.26116	0.16464	0.3451	0.19407	0.21028	0.11401	0.16915	-1.9604	-2.2833	-2.0042	-2.4854	-2.2104	-2.1833	-2.6813	-2.0958	-2.5729	-2.4	-2.4125	-2.6104	-2.1688	-2.4042	-2.65	-2.2396	389.568	465.177	403.845	359.500	336.919	392.934	338.951	415.983	203.481	403.266	401.262	149.284	410.741	466.227	313.535	405.980	0.00099381	0.00062155	0.00011336	614.45	3.9666e-06	5.5483e-06	798.39	279.94	5.9591e-06	1.0021e-05	370.12	151.94	115.78	44.152	6.3709e-06	64.585	0.00027088	0.00019032	5.4599e-05	608.15	2.0843e-06	2.0913e-06	783.76	276.09	2.1797e-06	2.0655e-06	365.05	149.69	114.48	44.216	2.0965e-06	64.191	148.477	236.417	206.142	133.552	238.563	244.721	132.013	139.269	254.578	253.691	137.452	141.195	143.410	148.883	248.659	145.565	-8191	255	
1664.112	1	1	0	0	0.23038	0.30374	0.22465	0.080861	0.16494	0.043029	0.22059	0.10339	0.1993	0.19621	0.33652	0.21707	0.17199	0.03817	0.096363	0.2714	-1.9792	-2.4625	-1.9229	-2.4958	-2.2104	-2.0563	-2.6604	-2.1	-2.4521	-2.4396	-2.1854	-2.4125	-2.2354	-2.2854	-2.3833	-2.25	220.367	318.789	396.156	328.579	413.068	469.553	464.668	187.679	212.025	235.998	430.385	471.254	441.902	429.146	282.924	421.207	0.00097107	0.00019779	9.7895e-05	619.28	4.6779e-06	2.9024e-06	797.63	280.9	3.2484e-06	4.8866e-06	373.08	152.47	116.09	44.403	4.8535e-06	64.602	0.00027213	0.00018695	5.1759e-05	609.86	2.0177e-06	2.0739e-06	786.47	277.16	2.1017e-06	2.0131e-06	366.85	150.28	114.81	44.381	2.1382e-06	64.18	149.045	252.504	225.086	133.389	260.098	258.075	132.039	139.230	267.248	296.678	136.954	141.030	143.179	148.914	223.836	145.661	-8191	255	
1664.208	1	1	0	0	0.12514	0.20091	0.16019	0.095124	0.10131	0.031583	0.080947	0.2834	0.32283	0.045725	0.18839	0.16265	0.11745	0.16709	0.12795	0.04726	-1.875	-2.2896	-1.9854	-2.5438	-2.3458	-2.1271	-2.6396	-2.1958	-2.2854	-2.4979	-2.0521	-2.4208	-2.3	-2.1708	-2.5958	-2.2417	267.730	332.004	468.204	460.150	452.884	249.025	324.004	437.213	311.528	281.568	325.483	369.024	408.379	197.543	444.267	469.242	0.0009899	0.00052977	0.00012117	617.47	2.6317e-06	5.2053e-06	800.97	281.23	7.9182e-06	4.8834e-06	374.35	153.28	116.75	44.815	5.3868e-06	64.817	0.00027084	0.00019373	5.1395e-05	609.59	2.0494e-06	2.0672e-06	786.89	277.11	2.1085e-06	2.0478e-06	366.65	150.71	115.4	44.768	2.1515e-06	64.474	148.735	256.058	190.635	133.681	242.512	269.962	131.768	139.449	292.482	221.350	137.202	141.060	143.077	148.907	242.394	145.259	-8191	255	
1664.305	1	1	0	0	0.17899	0.12144	0.25636	0.08464	0.046866	0.11695	0.17658	0.26048	0.36592	0.23804	0.28173	0.23879	0.1315	0.042192	0.27678	0.49446	-1.8521	-2.2896	-1.9937	-2.6188	-2.3208	-2.2708	-2.5583	-2.1958	-2.2104	-2.6188	-2.1542	-2.6667	-2.4458	-2.1437	-2.4917	-2.4688	141.603	426.560	344.038	203.191	235.227	182.773	434.724	378.085	264.540	472.558	479.222	460.427	444.412	475.803	449.964	471.477	0.0009754	0.00033379	0.00016704	619	4.7447e-06	3.3303e-06	801.45	280.74	8.2803e-06	7.7794e-06	372.89	154.1	117.53	45.063	3.6063e-06	65.186	0.00027271	0.00018336	5.0525e-05	613.02	2.0185e-06	1.9147e-06	788.75	278.68	2.0944e-06	2.0139e-06	367.51	151.56	115.84	45.001	2.1347e-06	64.826	150.597	206.216	206.037	133.289	255.675	275.594	132.092	139.485	269.162	267.855	136.826	141.242	143.276	149.181	240.914	145.292	-8191	255	
1664.401	1	1	0	0	0.064291	0.082731	0.21231	0.091496	0.26049	0.12824	0.2283	0.074034	0.040165	0.089444	0.18817	0.38253	0.06302	0.17182	0.17173	0.10428	-1.775	-2.4313	-1.9771	-2.5167	-2.2812	-2.0854	-2.7083	-2.3104	-2.2271	-2.4708	-2.0771	-2.4292	-2.6521	-2.2125	-2.6521	-2.2854	308.458	325.075	212.878	389.224	388.380	358.034	387.358	227.716	170.491	373.349	182.023	403.704	195.737	472.737	222.954	241.659	0.00095476	0.00049612	0.00016623	622.71	4.2363e-06	7.3803e-06	803.16	282.45	7.0977e-06	5.8005e-06	375.57	154.7	118.08	45.326	4.4887e-06	65.641	0.00026175	0.00019168	5.1516e-05	614.37	2.0417e-06	1.9495e-06	790.78	279.53	2.106e-06	2.0574e-06	369.56	152.4	116.69	45.3	2.2085e-06	65.378	151.235	199.873	216.819	133.551	233.383	262.855	131.833	139.407	254.134	224.583	137.154	141.377	143.232	149.139	243.831	145.543	-8191	255	
1664.497	1	1	0	0	0.042822	0.15108	0.063187	0.12148	0.2159	0.094619	0.25065	0.13793	0.24903	0.048259	0.22937	0.11118	0.26858	0.15309	0.13969	0.15764	-1.525	-2.4417	-2.0479	-2.3854	-2.5187	-2.1021	-2.5854	-2.2708	-2.2625	-2.5563	-2.2042	-2.4688	-2.4313	-2.125	-2.3458	-2.4771	357.119	383.678	148.378	386.092	187.598	458.834	310.959	368.751	332.480	428.156	478.434	196.220	443.374	475.904	176.136	409.549	0.00097157	0.00049925	0.00014698	624.78	6.0122e-06	3.4626e-06	808.5	283.15	5.5766e-06	6.1243e-06	374.09	154.31	117.99	45.058	5.8422e-06	65.3	0.00026437	0.00019706	5.0877e-05	615.8	2.0286e-06	2.0206e-06	793.37	279.89	2.0806e-06	2.062e-06	368.99	152.12	116.56	45.094	2.1381e-06	64.938	149.492	236.936	233.958	133.504	243.092	291.028	131.943	139.175	241.534	267.085	136.662	141.247	142.995	148.775	241.319	145.457	-8191	255	
1664.616	1	1	0	0	0.30954	0.32015	0.29958	0.10664	0.21688	0.078934	0.28386	0.13514	0.019919	0.22442	0.22529	0.092736	0.24357	0.38007	0.079996	0.11004	-1.5562	-2.4042	-2.1479	-2.425	-2.4688	-2.1562	-2.4729	-2.5146	-2.15	-2.5938	-2.2479	-2.2354	-2.6333	-1.9833	-2.4604	-2.6604	470.241	214.810	338.602	444.415	402.719	378.946	397.383	299.784	335.991	172.926	415.318	477.267	426.636	424.341	172.716	185.031	0.00091045	0.00044781	8.8962e-05	619.06	4.7065e-06	4.9677e-06	798.07	283.29	7.5058e-06	4.5999e-06	374.41	154.47	117.89	45.31	2.4153e-06	65.145	0.00026178	0.00019694	5.2906e-05	612.35	2.1579e-06	2.0228e-06	788.54	279.67	2.1105e-06	2.1614e-06	367.32	151.94	116.47	45.223	2.1465e-06	64.902	148.705	242.328	217.178	133.521	270.400	280.667	132.173	139.312	261.384	284.136	137.201	141.322	142.965	149.129	248.956	145.502	-8191	255	
1664.712	1	1	0	0	0.093248	0.26851	0.23894	0.062612	0.12133	0.23931	0.36536	0.33399	0.030874	0.24447	0.25537	0.07267	0.080534	0.16008	0.27012	0.30466	-1.6938	-2.4729	-2.4	-2.1583	-2.4146	-2.3417	-2.3937	-2.575	-2.2	-2.4688	-2.4333	-2.2417	-2.4333	-2.3021	-2.2021	-2.4604	423.092	462.772	363.915	254.938	303.006	447.017	134.970	466.436	249.228	404.643	421.216	345.659	458.292	461.923	344.990	439.964	0.00095958	0.00051465	0.00017795	621.46	5.0144e-06	4.1994e-06	803.67	283.96	5.6835e-06	5.0265e-06	373.14	154.46	118.18	45.171	6.1761e-06	65.46	0.00026876	0.00019798	5.488e-05	612.46	2.1536e-06	2.0644e-06	789.89	280.46	2.079e-06	2.159e-06	368.25	152.34	116.79	45.271	2.1286e-06	65.122	150.594	218.550	212.761	133.310	237.413	230.387	131.929	139.270	250.573	282.696	137.029	141.518	142.872	148.785	262.090	145.626	-8191	255	
1664.808	1	1	0	0	0.093113	0.17673	0.14995	0.16964	0.077039	0.16294	0.4279	0.055342	0.19696	0.13841	0.1568	0.20549	0.1927	0.24198	0.17474	0.15229	-1.6167	-2.5187	-2.2875	-2.25	-2.5812	-2.0458	-2.4167	-2.5646	-2.0438	-2.5333	-2.4688	-2.3042	-2.6583	-2.1875	-2.3688	-2.5917	387.069	342.921	156.954	432.900	121.609	328.435	451.886	454.259	282.021	401.290	407.270	427.135	481.038	450.125	411.759	398.221	0.00099094	0.00047513	0.00017425	623.86	3.5263e-06	8.9239e-06	806.79	286.17	5.6424e-06	6.5874e-06	377.61	155.61	118.09	45.431	4.8063e-06	65.743	0.00026429	0.00019853	5.3358e-05	614.57	2.121e-06	2.0223e-06	794.13	281.85	2.1097e-06	2.0605e-06	371.24	152.94	117.11	45.368	2.0363e-06	65.402	151.963	211.082	235.696	133.513	256.483	287.097	131.686	139.329	255.305	291.248	137.157	141.171	143.440	148.978	270.253	145.625	-8191	255	
1664.904	1	1	0	0	0.1611	0.10429	0.07622	0.12614	0.27524	0.18759	0.097113	0.16419	0.077707	0.10084	0.13817	0.22418	0.07149	0.3388	0.058443	0.16897	-1.5417	-2.3896	-2.4208	-2.4417	-2.4896	-2.2917	-2.2896	-2.5312	-2.0479	-2.4875	-2.5917	-2.2042	-2.5896	-2.25	-2.1083	-2.6875	346.593	377.057	380.465	164.729	444.377	389.207	288.689	466.046	325.565	341.116	369.778	154.278	134.182	363.042	353.273	403.116	0.00091122	0.00049849	0.00019681	625.34	3.8196e-06	4.6336e-06	807.05	287.34	8.0996e-06	2.6777e-06	379.55	154.62	118.35	44.901	4.302e-06	65.135	0.00026284	0.00018785	5.371e-05	616.8	2.0936e-06	2.0526e-06	794.93	283.35	2.0813e-06	2.0139e-06	372.26	152.24	117.04	45.025	2.0205e-06	64.66	148.657	236.803	247.085	133.549	228.361	265.186	131.811	139.258	250.805	269.463	136.874	141.153	143.116	148.994	251.623	145.399	-8191	255	
1665.000	1	1	0	0	0.11034	0.17833	0.057675	0.079362	0.158	0.1938	0.17224	0.1261	0.043504	0.22984	0.067725	0.1573	0.12125	0.12197	0.064217	0.15457	-1.5812	-2.4104	-2.4688	-2.2458	-2.525	-2.2438	-2.4042	-2.6792	-2.15	-2.2042	-2.6958	-2.0875	-2.5292	-2.3292	-2.0312	-2.6875	274.594	298.054	374.228	182.857	280.681	181.837	390.332	193.246	365.721	184.772	373.546	457.421	132.556	139.840	480.094	416.388	0.00099287	0.00038764	0.00013978	625.65	4.497e-06	8.1864e-06	807.09	287.45	4.4803e-06	5.4693e-06	375.81	154.81	118.46	44.998	3.0922e-06	64.886	0.00026707	0.00018395	5.264e-05	616.18	2.0861e-06	2.0617e-06	792.41	282.72	2.15e-06	2.0201e-06	370.04	152.05	116.99	45.08	2.086e-06	64.6	149.166	223.134	244.926	133.465	278.829	248.434	132.096	138.926	246.956	271.413	137.063	141.326	143.262	148.978	272.448	145.254	-8191	255	
1665.097	1	1	0	0	0.14799	0.13149	0.30154	0.25614	0.24172	0.069547	0.15564	0.12139	0.13794	0.18689	0.16	0.16623	0.052166	0.066428	0.016557	0.071462	-1.6583	-2.3625	-2.4	-1.9896	-2.5583	-2.1792	-2.5479	-2.6792	-2.0646	-2.2292	-2.4688	-2.3167	-2.5854	-2.5208	-2.1167	-2.6021	370.867	428.900	131.750	179.791	275.270	381.323	360.983	437.518	231.478	325.701	377.062	403.553	395.519	127.193	191.363	475.929	0.00099458	0.00048029	0.0001591	627.3	4.5359e-06	5.9499e-06	810.69	288.51	4.0156e-06	4.8153e-06	376.25	155.29	118.62	45.091	5.7305e-06	65.111	0.00026502	0.00018941	5.2149e-05	618.41	2.0658e-06	2.0716e-06	795.83	284.48	2.0924e-06	2.0307e-06	372.36	152.93	117.45	45.186	2.0733e-06	64.849	149.741	229.958	227.836	133.346	246.705	272.355	131.658	139.142	246.533	272.384	137.157	140.910	143.235	148.862	230.307	145.295	-8191	255	
1665.217	1	1	0	0	0.16759	0.2108	0.36441	0.2317	0.27285	0.069252	0.25741	0.24334	0.26071	0.022713	0.1367	0.11544	0.22732	0.066154	0.026377	0.073128	-1.7625	-2.2521	-2.3875	-2.2521	-2.3458	-2.3438	-2.1917	-2.6479	-2.2396	-2.2917	-2.5938	-2.4313	-2.4125	-2.3708	-1.9521	-2.4604	291.186	366.900	404.405	464.213	231.743	218.148	334.607	451.460	178.351	373.257	153.957	207.271	364.041	473.334	172.559	391.625	0.00099047	0.00036509	0.00016764	630.6	2.9105e-06	3.6762e-06	812.6	288.44	6.7723e-06	2.8584e-06	383.12	156.53	120.15	45.245	6.9813e-06	65.732	0.00027199	0.00018873	5.2932e-05	620.06	2.0702e-06	2.0523e-06	799.08	285.16	2.1161e-06	2.0073e-06	375.12	153.77	118.07	45.453	2.0843e-06	65.344	149.529	220.977	207.708	133.495	235.614	315.015	131.788	139.164	236.967	232.942	136.992	141.180	143.047	149.247	246.940	145.698	-8191	255	
1665.312	1	1	0	0	0.19304	0.12453	0.15801	0.18331	0.14423	0.25824	0.12679	0.22899	0.024529	0.23514	0.029416	0.062822	0.24555	0.15456	0.12793	0.36786	-1.9188	-2.1479	-2.7021	-2.1375	-2.3688	-2.6167	-2.1208	-2.6167	-2.3646	-2.3063	-2.6437	-2.3042	-2.4875	-2.5312	-2.1771	-2.4542	279.630	138.412	289.299	440.750	411.958	342.251	424.807	444.633	217.524	478.915	246.755	217.676	415.194	471.018	260.883	426.544	0.00097417	0.00066667	0.0001582	628.37	4.9489e-06	5.6425e-06	809.8	290.4	4.1688e-06	6.2774e-06	380.14	155.65	118.74	45.309	4.329e-06	65.381	0.00025985	0.00018684	5.2107e-05	618.99	2.0518e-06	2.0899e-06	796.1	285.37	2.1254e-06	2.0259e-06	373.78	153.2	117.71	45.203	2.0872e-06	64.989	149.584	225.322	229.402	133.612	243.882	277.337	132.037	139.277	230.413	281.368	137.136	141.228	143.494	148.997	294.237	145.747	-8191	255	
1665.408	1	1	0	0	0.13646	0.022346	0.14638	0.08717	0.25058	0.13449	0.21802	0.28918	0.18072	0.22038	0.31334	0.069912	0.18623	0.1834	0.089203	0.19424	-1.6292	-2.05	-2.5042	-2.3896	-2.2292	-2.6437	-2.0833	-2.675	-2.4708	-2.3438	-2.5354	-2.2542	-2.2625	-2.6958	-2.0687	-2.5042	150.154	133.531	352.252	442.280	217.909	380.360	400.236	432.426	323.766	384.212	410.620	383.347	462.609	439.246	140.116	373.390	0.00094945	0.00071385	9.404e-05	627.89	3.581e-06	6.2948e-06	806.73	287.88	6.0726e-06	3.486e-06	379.86	155.14	119.01	45.134	3.8106e-06	65.157	0.0002633	0.00018139	5.2094e-05	619.28	2.0326e-06	2.0649e-06	795.73	284.22	2.1236e-06	1.962e-06	372.06	152.94	117.61	45.201	2.1055e-06	64.959	149.997	205.615	224.760	133.587	271.746	269.139	131.734	139.509	265.327	246.599	137.288	141.139	143.332	148.880	257.738	145.332	-8191	255	
1665.481	1	1	0	0	0.14146	0.083637	0.1814	0.13421	0.14944	0.10323	0.14639	0.099458	0.19938	0.20014	0.034641	0.16203	0.22383	0.039877	0.059113	0.11511	-1.8208	-2.1312	-2.5646	-2.2771	-2.1458	-2.7125	-2.2417	-2.55	-2.2917	-2.0271	-2.5792	-2.3167	-2.3187	-2.4625	-2.2562	-2.2542	471.280	135.145	185.450	414.637	288.309	377.392	188.627	456.803	409.264	411.474	349.164	139.083	169.713	169.030	378.123	398.140	0.00097509	0.00051705	0.00014182	626.15	5.9075e-06	6.1002e-06	810.88	288.51	6.7258e-06	5.1376e-06	378.63	155.52	119.06	45.236	4.6907e-06	65.495	0.00026852	0.00018854	5.2725e-05	619.08	2.0223e-06	2.0139e-06	798.43	285.37	2.0602e-06	1.9963e-06	373.29	153.33	117.65	45.21	2.1047e-06	65.048	152.091	219.650	221.528	133.448	253.638	238.327	131.917	139.342	256.448	280.358	137.072	141.146	143.395	149.034	270.489	145.359	-8191	255	
1665.577	1	1	0	0	0.2343	0.086052	0.31371	0.30829	0.15441	0.2679	0.21866	0.10347	0.20353	0.22102	0.055778	0.21774	0.30762	0.11819	0.15057	0.19468	-2.0708	-2.0208	-2.5625	-2.5333	-2.0292	-2.5729	-2.3563	-2.4688	-2.5563	-2.1396	-2.6312	-2.45	-2.1917	-2.5146	-2.3542	-2.4062	366.858	136.940	400.073	190.491	185.331	153.123	478.842	345.367	441.512	449.543	313.996	404.148	430.552	197.540	290.763	379.158	0.00097414	0.00049914	0.00010018	625.65	4.5193e-06	5.1555e-06	813.7	289.29	5.8332e-06	6.4599e-06	381.04	156.21	119.55	45.077	4.368e-06	65.298	0.00026198	0.00018669	5.2335e-05	619.03	2.0143e-06	2.0242e-06	800.76	285.49	2.0972e-06	2.027e-06	374.78	153.65	117.91	45.195	2.1328e-06	65.1	150.534	208.624	171.285	133.522	278.016	252.951	132.115	139.548	247.290	253.168	137.202	141.422	143.029	149.205	231.145	145.599	-8191	255	
1665.696	1	1	0	0	0.15879	0.037627	0.20966	0.1838	0.11812	0.18436	0.19091	0.12769	0.21295	0.022697	0.20595	0.16301	0.22517	0.23247	0.20499	0.04308	-1.9396	-2.3271	-2.4562	-2.3792	-2.1083	-2.5	-2.2792	-2.3708	-2.55	-2.3104	-2.4896	-2.7396	-2.2896	-2.6	-2.2729	-2.1917	274.524	427.675	207.479	351.732	247.817	421.168	253.353	400.255	202.268	351.545	394.190	417.504	462.554	455.720	300.908	270.043	0.00091694	0.00055323	8.8534e-05	630.19	5.9638e-06	5.8749e-06	810.36	286.85	5.6257e-06	6.4762e-06	378.92	154.94	118.83	44.903	5.4058e-06	65.157	0.00026428	0.00018924	5.2795e-05	620.46	1.9993e-06	2.0587e-06	797.57	283.84	2.0372e-06	1.9875e-06	372.52	152.25	117.04	44.838	2.0896e-06	64.641	148.905	234.127	211.211	133.538	271.330	272.261	131.835	139.372	240.939	255.813	136.609	141.212	143.218	149.174	257.644	145.178	-8191	255	
1665.792	1	1	0	0	0.16474	0.096221	0.12791	0.11357	0.15726	0.19013	0.10806	0.23757	0.14747	0.29115	0.24798	0.24658	0.062062	0.48224	0.15067	0.22382	-2.0312	-2.1896	-2.4771	-2.5	-2.0125	-2.6417	-2.4021	-2.3958	-2.5208	-2.2229	-2.3042	-2.5687	-2.0812	-2.6292	-2.2708	-2.5	410.256	431.862	277.410	252.999	271.999	431.862	399.449	311.311	253.623	385.868	420.785	436.587	396.537	476.115	330.224	190.387	0.00092312	0.00030253	8.8497e-05	623.25	5.6926e-06	4.4192e-06	808.29	288.13	6.4245e-06	2.8111e-06	379.27	154.09	118.11	44.925	6.2849e-06	64.998	0.0002605	0.00018681	5.2638e-05	615.69	2.0279e-06	2.0549e-06	793.83	283.36	2.0957e-06	1.9748e-06	371.89	152	116.76	44.956	2.1115e-06	64.596	150.262	169.490	215.495	133.564	271.839	260.111	132.057	139.236	256.141	254.029	136.616	141.155	143.092	149.156	248.944	145.535	-8191	255	
1665.888	1	1	0	0	0.1297	0.21472	0.10991	0.13829	0.03822	0.2158	0.13856	0.18257	0.14496	0.095996	0.0756	0.21633	0.10085	0.136	0.025267	0.18678	-2.15	-2	-2.2958	-2.4833	-2.1146	-2.3937	-2.4271	-2.3688	-2.7	-2.1646	-2.2375	-2.6854	-2.0687	-2.6437	-2.3792	-2.1021	122.883	394.340	432.843	407.614	292.738	195.170	251.813	325.026	301.802	229.642	264.468	451.716	422.440	455.464	364.959	399.773	0.00093487	0.00042942	8.2332e-05	622.45	3.9731e-06	6.0044e-06	808.94	289.04	4.0948e-06	6.3844e-06	381.6	155.28	118.77	44.977	4.1583e-06	64.801	0.00026238	0.00018642	4.9947e-05	616.91	2.0504e-06	2.0165e-06	797.77	284.49	2.057e-06	2.017e-06	373.53	152.94	117.23	44.943	2.1025e-06	64.72	148.966	203.021	162.948	133.316	261.524	232.892	131.843	139.173	254.371	243.188	136.699	141.095	143.028	149.035	260.289	145.432	-8191	255	
1666.009	1	1	0	0	0.20042	0.20085	0.20257	0.16049	0.15549	0.2017	0.31992	0.26107	0.2767	0.24616	0.20439	0.10894	0.028227	0.19222	0.087167	0.22949	-1.9813	-2.2896	-2.0854	-2.4979	-2.0583	-2.4833	-2.4146	-2.175	-2.5604	-2.3063	-2.3729	-2.7417	-2.3063	-2.5187	-2.3875	-2.2146	342.181	447.055	332.797	290.299	265.749	325.239	415.656	465.439	230.002	247.119	467.127	425.726	425.952	438.647	128.584	397.893	0.00098199	0.00040977	0.00015939	630.87	4.4619e-06	4.3604e-06	808.56	290.63	6.4166e-06	3.2454e-06	380.9	155.22	118.72	45.06	5.9277e-06	65.542	0.0002621	0.00018837	5.1842e-05	619.01	2.0193e-06	2.0032e-06	797.99	285.68	2.0953e-06	2.0868e-06	375.1	153.19	117.36	45.093	2.1192e-06	65.016	149.757	217.611	214.052	133.376	251.121	294.510	131.942	139.384	247.680	268.092	137.146	141.449	143.039	149.032	239.848	145.526	-8191	255	
1666.081	1	1	0	0	0.26549	0.13643	0.17135	0.1711	0.074571	0.13913	0.4127	0.13756	0.35637	0.12921	0.07709	0.21779	0.1888	0.16823	0.12489	0.26922	-1.9792	-2.3417	-1.9375	-2.5646	-2.2625	-2.3292	-2.4667	-1.9937	-2.4771	-2.2604	-2.2521	-2.65	-2.1417	-2.2854	-2.4562	-2.1042	276.258	423.269	126.973	438.121	467.809	390.670	423.415	440.343	333.036	381.152	186.261	175.012	243.003	479.336	368.825	431.844	0.0010104	0.00066689	0.00013109	626.96	3.7406e-06	4.915e-06	810.48	287.34	7.7737e-06	5.9175e-06	379.99	154.73	118.37	44.922	4.97e-06	64.849	0.00026342	0.00018507	5.199e-05	618.14	2.0608e-06	2.0054e-06	795.26	283.85	2.0453e-06	2.0446e-06	373.3	152.08	116.7	44.881	2.0637e-06	64.653	148.942	231.513	216.192	133.709	240.757	279.942	132.071	139.228	244.642	236.769	136.889	141.128	143.129	149.013	237.965	145.634	-8191	255	
1666.177	1	1	0	0	0.31014	0.10903	0.2545	0.24543	0.28425	0.14995	0.17197	0.32012	0.14789	0.25767	0.12796	0.29355	0.12387	0.25245	0.15388	0.28781	-1.9542	-2.7042	-2.1229	-2.7521	-2.2167	-2.4437	-2.6104	-2.2104	-2.5854	-2.4167	-2.3354	-2.6146	-2.4833	-2.4479	-2.5979	-2.2917	443.795	247.101	333.252	371.849	251.384	230.563	398.217	130.667	366.999	187.916	413.524	138.595	466.287	474.320	270.884	420.279	0.00099381	0.00048554	0.00013028	621.95	3.5715e-06	4.3944e-06	810.1	287.14	8.365e-06	6.9831e-06	381.72	155.5	118.68	44.757	4.2073e-06	65.235	0.00026185	0.00018702	5.0163e-05	615.7	2.051e-06	1.9966e-06	794.89	283.82	2.0388e-06	2.0817e-06	373.85	152.87	117.02	44.848	2.0809e-06	64.954	150.428	236.998	213.720	133.479	262.148	271.701	131.938	139.218	254.685	279.451	137.181	141.116	143.164	149.233	287.103	145.507	-8191	255	
1666.298	1	1	0	0	0.176	0.22012	0.04908	0.089773	0.11618	0.09327	0.10201	0.092001	0.19826	0.17777	0.30394	0.24333	0.39269	0.18051	0.21952	0.20093	-1.7604	-2.3417	-2.1604	-2.4021	-2.1312	-2.0687	-2.8625	-2.3292	-2.4479	-2.7062	-2.0229	-2.6667	-2.3917	-2.3833	-2.5292	-2.4562	403.917	396.761	374.103	182.443	156.350	177.453	443.229	371.278	204.076	262.383	139.559	437.863	380.770	448.496	142.366	413.588	0.00097251	0.00046241	0.00015582	622.84	6.1327e-06	7.6645e-06	811.28	287.65	4.3347e-06	6.2053e-06	379.85	154.83	118.18	45.062	4.5806e-06	65.371	0.00026571	0.00018491	5.2714e-05	615.93	2.0885e-06	1.9932e-06	796.12	283.91	2.0769e-06	2.0478e-06	374.05	153.08	116.84	45.01	2.111e-06	65.253	149.198	232.885	210.056	133.462	249.702	265.792	131.964	139.261	248.644	265.359	136.984	141.330	143.152	148.947	259.317	145.438	-8191	255	
1666.392	1	1	0	0	0.16266	0.29474	0.15875	0.16456	0.066216	0.31449	0.28248	0.31507	0.24011	0.26985	0.08967	0.071881	0.20136	0.24096	0.25739	0.26217	-1.8917	-2.5687	-1.9333	-2.4313	-2.3792	-2.2021	-2.5938	-2.1312	-2.3458	-2.5375	-2.3958	-2.6958	-2.6979	-2.2417	-2.5208	-2.4437	471.984	251.776	244.269	459.504	282.775	350.351	440.984	476.750	429.863	285.574	125.896	136.793	215.191	415.619	165.770	281.645	0.00090474	0.00054668	0.00012045	625.58	3.9241e-06	3.4114e-06	810.23	287.4	4.8606e-06	6.7163e-06	382.42	155.63	118.47	44.775	4.644e-06	65.585	0.00026488	0.00018821	5.3377e-05	617.47	2.1201e-06	2.0217e-06	798.11	284.15	2.0351e-06	2.0884e-06	374.73	153.19	117.14	45.048	2.0574e-06	65.208	146.710	235.401	209.452	133.683	264.385	240.654	131.946	139.222	235.866	223.018	136.840	141.381	143.014	148.924	244.085	145.520	-8191	255	
1666.488	1	1	0	0	0.13247	0.29243	0.32002	0.1016	0.074392	0.19778	0.061794	0.1916	0.18407	0.17007	0.048826	0.22264	0.089498	0.028745	0.15632	0.062887	-1.925	-2.4958	-1.9688	-2.5146	-2.4771	-1.9042	-2.6125	-2.2125	-2.2854	-2.5542	-2.05	-2.4583	-2.5	-2.05	-2.6125	-2.5708	439.332	477.939	168.501	352.019	236.408	400.570	456.458	449.681	399.619	479.796	218.716	445.310	151.053	475.828	190.418	400.376	0.00096235	0.00068971	0.00015231	626.06	3.6969e-06	6.7825e-06	808.04	286.78	5.0305e-06	7.1423e-06	378.15	154.52	117.94	44.721	7.287e-06	64.793	0.00026019	0.00019335	5.2849e-05	616.57	2.0834e-06	1.9476e-06	794.74	282.9	2.021e-06	2.0037e-06	371.11	152.28	116.32	44.787	2.0912e-06	64.672	149.317	219.666	236.630	133.558	244.830	259.201	132.090	139.503	223.803	263.664	137.209	141.161	143.182	148.966	261.166	145.511	-8191	255	
1666.609	1	1	0	0	0.13358	0.23353	0.063687	0.025252	0.10196	0.15616	0.27903	0.045475	0.054373	0.10628	0.10276	0.16533	0.20057	0.468	0.31973	0.25986	-1.6729	-2.5229	-2.3896	-2.3563	-2.3812	-2.0625	-2.6146	-2.45	-1.9979	-2.5542	-2.4646	-2.6146	-2.7333	-2.2604	-2.6604	-2.4646	177.091	381.632	435.452	236.497	313.962	124.649	435.531	416.549	126.234	266.147	371.927	453.234	168.438	447.022	338.269	315.623	0.00097699	0.00058767	0.00018179	620.81	5.2559e-06	3.3272e-06	809.49	284.77	7.2481e-06	5.4355e-06	377.65	155.06	117.72	45.201	5.4416e-06	65.248	0.00025956	0.00018932	5.336e-05	614.26	2.1005e-06	2.0349e-06	792.8	281.7	2.0472e-06	2.0183e-06	371.07	152.35	116.29	44.951	2.0361e-06	64.936	150.485	231.737	222.811	133.444	245.239	261.765	131.799	139.208	257.527	271.207	137.030	141.276	143.155	148.907	239.254	145.649	-8191	255	
1666.705	1	1	0	0	0.34944	0.037812	0.16844	0.19614	0.25312	0.13753	0.11857	0.39152	0.1797	0.29413	0.055926	0.045126	0.25311	0.13859	0.19557	0.14282	-1.6604	-2.6375	-2.2687	-2.3875	-2.4333	-2.1125	-2.5979	-2.4542	-2.0604	-2.4792	-2.2562	-2.4354	-2.6167	-2.1	-2.4271	-2.5958	206.157	427.452	238.354	344.430	413.422	456.256	245.948	457.802	132.063	164.383	400.980	194.661	436.523	140.815	374.275	460.827	0.00096629	0.00054912	0.00014378	623.49	3.9359e-06	5.7953e-06	813.68	286.1	5.7368e-06	6.8196e-06	379.26	155.9	118.77	45.094	4.9741e-06	65.812	0.00025921	0.00018823	5.3912e-05	615.78	2.0698e-06	2.0585e-06	797.2	282.67	2.0775e-06	1.9733e-06	373.31	153.33	117.03	44.999	2.0065e-06	65.258	151.500	185.126	209.312	133.488	252.270	290.879	131.982	139.418	254.066	252.398	137.131	141.299	143.175	149.252	252.518	145.424	-8191	255	
1666.777	1	1	0	0	0.062955	0.25674	0.0083242	0.12111	0.21947	0.045251	0.068174	0.29912	0.10985	0.16157	0.22481	0.23181	0.098602	0.31214	0.019053	0.13296	-1.4125	-2.6104	-2.0917	-2.2292	-2.4792	-2.1646	-2.4896	-2.5	-2.1083	-2.5729	-2.3708	-2.1813	-2.5417	-2.2333	-2.4562	-2.4437	303.227	401.841	191.650	335.429	128.369	258.482	366.395	123.161	335.851	177.803	401.793	468.781	459.311	464.210	171.490	446.704	0.00092916	0.00056179	0.00015124	624.97	5.5488e-06	7.2205e-06	812.71	286.64	8.2793e-06	5.6319e-06	380.24	155.97	118.72	44.806	4.9295e-06	65.782	0.00026339	0.00018538	5.252e-05	617.87	1.9975e-06	1.9716e-06	800.55	283.5	2.0484e-06	1.9735e-06	374.07	153.66	117.18	44.896	2.011e-06	65.282	149.801	219.229	241.052	133.336	258.419	246.851	131.834	139.229	249.557	252.287	136.686	141.088	143.370	148.909	271.083	145.681	-8191	255	
1666.873	1	1	0	0	0.12984	0.11764	0.22396	0.24885	0.12921	0.11632	0.35863	0.12643	0.35352	0.23957	0.13087	0.13644	0.25172	0.22531	0.29745	0.067198	-1.5	-2.2792	-2.4958	-2.1979	-2.3479	-2.2354	-2.3563	-2.5417	-2.1146	-2.6833	-2.4229	-2.1396	-2.6937	-2.4	-2.3521	-2.6458	284.696	442.597	124.914	417.147	297.561	166.020	364.171	385.601	302.350	174.093	468.983	394.771	356.809	469.783	339.070	238.575	0.0010049	0.00038977	0.00010952	627.19	2.8734e-06	5.1301e-06	810.69	286.09	3.6802e-06	4.425e-06	380.76	155.54	118.47	44.779	6.4117e-06	65.197	0.00025926	0.00018339	5.2616e-05	617.95	1.9312e-06	1.9497e-06	798.39	283.54	2.0208e-06	1.9369e-06	374.62	153.06	116.87	44.822	1.9382e-06	64.871	151.489	217.912	212.794	133.642	274.550	263.143	132.081	139.222	243.440	277.616	136.953	141.094	142.886	149.190	261.734	145.481	-8191	255	
1666.993	1	1	0	0	0.26457	0.075329	0.20136	0.018249	0.10664	0.087492	0.19866	0.20549	0.14407	0.16077	0.26009	0.11949	0.39652	0.44567	0.073787	0.3013	-1.6979	-2.2083	-2.4208	-2.1646	-2.6688	-2.2229	-2.4688	-2.7021	-2.1542	-2.5104	-2.4875	-2.2542	-2.7292	-2.2917	-2.025	-2.9188	143.364	166.476	165.554	235.992	156.896	394.763	380.766	183.102	143.646	378.167	413.055	399.244	429.168	134.409	365.996	363.479	0.00098447	0.00046631	0.00010928	625.4	6.4292e-06	4.7761e-06	818.35	288.33	6.3798e-06	4.073e-06	383.15	156.4	118.83	44.873	4.2663e-06	65.783	0.00025488	0.00018017	5.0423e-05	618.22	1.9401e-06	1.9905e-06	801.17	285.01	2.0234e-06	1.9052e-06	376.3	153.65	117.38	44.972	1.9305e-06	65.313	149.361	205.419	224.958	133.357	260.670	229.689	132.125	139.133	253.539	274.793	136.955	141.138	142.877	148.945	232.284	145.679	-8191	255	
1667.089	1	1	0	0	0.11268	0.24863	0.013199	0.28671	0.1495	0.18308	0.028158	0.15437	0.13683	0.040682	0.026441	0.28313	0.38641	0.14675	0.25946	0.2558	-1.6667	-2.3792	-2.4958	-2.0646	-2.3875	-2.3146	-2.2833	-2.5146	-2.275	-2.3458	-2.5833	-2.0938	-2.3646	-2.4875	-2.1729	-2.7042	439.155	300.853	440.682	435.403	413.206	170.357	470.210	380.282	354.638	221.518	413.247	439.895	362.767	417.181	123.781	437.621	0.00098863	0.00064629	0.00019058	629.15	3.993e-06	5.8904e-06	814.91	289.89	8.738e-06	2.107e-06	384.25	156.54	119.04	45.125	4.3719e-06	66.18	0.00026054	0.00017223	5.0468e-05	620.23	1.9203e-06	1.9561e-06	804.43	285.3	1.9885e-06	1.9071e-06	377.31	154.22	117.41	45.08	1.9808e-06	65.691	146.796	235.133	216.792	133.455	252.954	292.688	131.776	139.379	261.007	268.175	136.758	141.357	143.123	149.244	258.531	145.678	-8191	255	
1667.186	1	1	0	0	0.20206	0.15325	0.15008	0.37726	0.31825	0.25695	0.13513	0.3447	0.18727	0.37681	0.32892	0.28323	0.0024095	0.32905	0.1071	0.15168	-1.6125	-2.45	-2.3187	-2.3292	-2.3625	-2.3896	-2.3333	-2.7979	-2.2938	-2.3146	-2.6333	-2.0542	-2.6312	-2.3771	-2.3229	-2.8563	318.409	468.210	249.280	472.444	479.423	375.438	351.825	433.399	306.062	349.601	398.366	134.736	353.453	467.311	234.889	419.774	0.00098429	0.0005068	8.1361e-05	634.08	2.6414e-06	5.276e-06	819.58	290.49	5.8741e-06	4.3043e-06	383.62	156.83	119.01	44.861	4.8387e-06	65.282	0.00026462	0.00017646	4.9382e-05	622.97	1.8834e-06	1.9302e-06	805.69	286.32	1.9986e-06	1.9231e-06	377.8	154.37	117.53	44.88	1.9442e-06	65.023	149.399	215.850	213.387	133.334	260.464	274.382	131.995	139.235	268.116	291.732	136.990	141.029	142.850	149.154	253.712	145.371	-8191	255	
1667.282	1	1	0	0	0.13203	0.22512	0.30729	0.23263	0.14857	0.24227	0.036747	0.29254	0.16867	0.148	0.070767	0.17984	0.17188	0.12256	0.12569	0.24705	-1.9125	-2.3271	-2.4604	-2.3417	-2.2438	-2.5208	-2.0958	-2.5833	-2.3583	-2.2479	-2.725	-2.1229	-2.4417	-2.3854	-2.1146	-2.6458	480.445	304.462	334.463	387.004	138.347	295.015	463.080	455.277	397.628	215.540	178.049	413.823	153.898	234.676	345.982	400.381	0.0009537	0.00058807	0.00017523	631.76	5.1356e-06	6.1545e-06	821.77	289.89	5.7007e-06	8.0547e-06	385.1	155.63	118.89	44.468	5.1643e-06	65.294	0.00025691	0.00017644	4.876e-05	623.02	1.8604e-06	1.8828e-06	805.88	286.25	1.9942e-06	1.9106e-06	377.56	153.04	117.36	44.565	1.9501e-06	64.889	151.911	206.105	199.454	133.238	255.065	275.515	132.070	139.319	262.318	280.348	136.716	140.877	142.930	149.206	256.143	145.696	-8191	255	
1667.378	1	1	0	0	0.13184	0.19949	0.25155	0.36011	0.1738	0.098701	0.20113	0.31656	0.072087	0.029	0.14295	0.2027	0.16558	0.1609	0.20854	0.29124	-1.8354	-2.1354	-2.6104	-2.225	-2.2396	-2.4792	-2.2438	-2.725	-2.2958	-2.0875	-2.5125	-2.3167	-2.425	-2.6688	-2.0583	-2.5938	475.362	383.508	258.670	395.057	171.848	429.951	459.657	348.081	171.451	379.727	395.394	334.017	150.542	435.931	442.656	391.876	0.00092786	0.00056077	0.00011372	633.63	5.3479e-06	6.3378e-06	819.36	291.94	6.8683e-06	5.8746e-06	386.41	156.27	119.54	44.77	4.7561e-06	65.407	0.00025127	0.00017436	4.8123e-05	624.01	1.8921e-06	1.8769e-06	806.03	287.41	1.9966e-06	1.8382e-06	379.66	153.78	117.7	44.771	1.9782e-06	64.943	149.848	239.205	210.742	133.370	262.682	281.027	131.986	139.060	254.772	278.516	136.866	141.257	142.903	149.041	231.947	145.416	-8191	255	
1667.474	1	1	0	0	0.20063	0.010608	0.16136	0.073379	0.14865	0.21041	0.34175	0.068816	0.13666	0.14435	0.086865	0.33357	0.10287	0.23829	0.030283	0.41597	-1.8979	-2.2104	-2.5542	-2.2438	-2.3979	-2.5625	-2.1312	-2.5583	-2.4562	-2.0938	-2.4396	-2.4854	-2.2875	-2.6375	-2.0917	-2.6771	297.139	465.954	328.290	465.494	391.937	478.128	353.262	285.742	200.151	260.312	315.632	423.644	135.862	467.887	210.951	434.588	0.00092139	0.00033957	0.00012666	634.33	3.8606e-06	4.5702e-06	821.17	293.83	5.9576e-06	5.2403e-06	388.73	157.25	119.82	44.757	4.5605e-06	65.556	0.0002548	0.00017894	4.9061e-05	625.61	1.8663e-06	1.8784e-06	810.48	289.59	1.9623e-06	1.8615e-06	381.54	154.64	118.2	44.764	1.9855e-06	65.153	149.826	247.547	212.365	133.391	255.560	303.924	131.992	139.088	256.633	254.573	137.138	141.199	142.843	149.142	243.448	145.315	-8191	255	
1667.570	1	1	0	0	0.20824	0.28624	0.29444	0.53506	0.13816	0.20337	0.15563	0.23884	0.17392	0.23329	0.16795	0.1803	0.43061	0.082049	0.13195	0.27075	-1.9688	-1.9062	-2.575	-2.3896	-2.1813	-2.7396	-2.2979	-2.4854	-2.3604	-1.9354	-2.5938	-2.4708	-2.1583	-2.4813	-2.0875	-2.6521	350.015	455.772	467.476	474.413	258.298	415.245	268.396	440.888	440.004	210.903	151.489	367.675	423.003	316.989	393.242	396.408	0.0010361	0.00048326	0.00013217	635.89	2.4065e-06	7.3472e-06	825.63	292.94	6.3786e-06	3.9559e-06	391.91	156.93	119.94	44.713	6.8659e-06	65.011	0.00026156	0.00017822	4.9414e-05	628.3	1.9032e-06	1.9178e-06	813.39	290.15	1.9937e-06	1.8491e-06	383.36	154.65	118.09	44.705	2.0311e-06	64.772	150.260	226.943	237.602	133.405	237.737	268.068	131.980	139.003	265.213	270.406	136.956	141.110	143.068	148.914	239.845	145.207	-8191	255	
1667.689	1	1	0	0	0.12718	0.18314	0.19576	0.12478	0.24156	0.054257	0.27381	0.041478	0.19583	0.21506	0.34606	0.18989	0.22431	0.15016	0.067849	0.1609	-2.0042	-1.9146	-2.4437	-2.5583	-1.9958	-2.6604	-2.4021	-2.5958	-2.5146	-2.1375	-2.3542	-2.4688	-2.2188	-2.3708	-2.125	-2.5021	283.338	272.155	409.326	478.334	185.882	142.310	451.275	130.885	425.538	283.331	423.389	157.403	355.002	450.311	438.277	426.526	0.00094366	0.0004171	0.0002007	635.68	5.4601e-06	4.9458e-06	824.23	292.68	4.7561e-06	6.2818e-06	389.88	156.02	120.33	44.523	6.4576e-06	65.211	0.00025555	0.00017655	4.9444e-05	627.37	1.9086e-06	1.9764e-06	812	289.91	1.9519e-06	1.8716e-06	381.85	153.63	118.08	44.616	2.0058e-06	64.894	148.794	218.447	229.588	133.693	246.624	254.809	131.980	139.230	250.067	238.161	136.969	140.801	142.821	149.068	248.195	145.624	-8191	255	
1667.785	1	1	0	0	0.085176	0.026911	0.064034	0.044935	0.23855	0.26733	0.31369	0.16369	0.14393	0.046087	0.20576	0.24795	0.19869	0.028472	0.048537	0.44595	-1.8146	-1.9333	-2.4458	-2.4625	-2.1417	-2.6708	-2.5229	-2.2812	-2.6333	-2.1813	-2.5458	-2.7292	-2.2438	-2.5	-2.2583	-2.4688	317.868	173.122	339.300	368.663	468.775	238.920	395.698	365.500	322.780	423.413	455.938	458.333	121.152	433.999	206.947	409.517	0.00095095	0.0004079	0.00018146	634.4	2.942e-06	4.2251e-06	827.63	296.6	6.2373e-06	6.059e-06	390.72	156.8	119.84	44.778	2.2054e-06	65.472	0.00025748	0.00017909	4.8839e-05	627.93	1.8746e-06	1.885e-06	812.07	291.84	1.9001e-06	1.8952e-06	383.99	154.22	118.33	44.805	1.9689e-06	64.986	147.557	206.630	215.972	133.277	275.982	276.318	131.791	138.986	246.562	253.472	136.996	140.935	142.781	149.109	251.275	145.431	-8191	255	
1667.881	1	1	0	0	0.25431	0.046282	0.17601	0.03368	0.1743	0.023935	0.10499	0.13327	0.21566	0.11193	0.23355	0.068119	0.29906	0.016285	0.11726	0.05155	-2.1292	-2.0958	-2.3583	-2.2646	-2.175	-2.4417	-2.3875	-2.3854	-2.6146	-2.1354	-2.5646	-2.6604	-2.3167	-2.5812	-2.4125	-2.3458	273.518	386.641	215.463	238.727	292.163	479.603	127.205	182.303	459.741	443.601	451.342	410.891	436.568	415.663	433.768	463.725	0.00095356	0.00046482	9.2499e-05	639.78	4.1952e-06	8.3051e-06	826.85	297.77	5.4639e-06	6.4062e-06	395.87	157.65	121.17	44.802	2.5994e-06	66.003	0.00025135	0.00017533	4.7266e-05	629.8	1.9062e-06	1.9035e-06	815.21	294.11	1.954e-06	1.9212e-06	387.43	155.2	119.07	44.803	1.9825e-06	65.546	150.345	212.311	209.688	133.514	229.678	280.961	131.841	138.972	233.507	252.425	136.773	140.892	142.711	149.101	271.386	145.473	-8191	255	
1667.978	1	1	0	0	0.14835	0.34727	0.035697	0.12684	0.074376	0.14824	0.39405	0.033845	0.11113	0.14251	0.077639	0.22658	0.209	0.090739	0.13269	0.49096	-2.0542	-2.1188	-2.4729	-2.5438	-2.2667	-2.5417	-2.3833	-2.125	-2.5458	-2.2958	-2.3479	-2.9938	-2.3167	-2.5292	-2.4792	-2.1521	139.458	282.306	290.587	258.159	203.741	212.109	359.842	211.792	220.181	339.636	316.875	439.658	431.310	142.941	270.050	398.217	0.00097359	0.00030027	0.00013091	641.74	6.2118e-06	5.0813e-06	832.53	299.46	4.7818e-06	4.6805e-06	394.36	157.42	120.3	44.662	4.7291e-06	66.137	0.00025884	0.00017999	4.721e-05	633.12	1.942e-06	1.8934e-06	818.34	294.64	2.0066e-06	1.9722e-06	387.16	155.2	118.69	44.763	2.0272e-06	65.359	148.906	215.090	216.181	133.498	255.199	299.557	131.867	138.987	256.799	250.436	136.363	140.874	142.867	148.855	233.190	145.354	-8191	255	
1668.074	1	1	0	0	0.2065	0.15796	0.255	0.13106	0.070056	0.2283	0.19994	0.24332	0.16707	0.11441	0.14329	0.15792	0.25898	0.061816	0.13207	0.10205	-2.1875	-2.4979	-2.1125	-2.6979	-2.2979	-2.5062	-2.7104	-2.3187	-2.325	-2.3542	-2.5167	-2.7104	-2.3563	-2.5271	-2.4125	-2.3042	385.572	274.440	443.710	185.260	388.031	286.234	444.017	425.178	199.858	397.167	130.910	439.434	472.288	124.766	176.200	434.792	0.00096579	0.00043472	0.00018236	642.72	4.988e-06	5.8787e-06	825.71	297.7	5.2423e-06	5.5251e-06	391.92	157.77	119.49	44.597	3.4682e-06	65.738	0.00025539	0.00018528	4.9246e-05	632.35	2.0935e-06	1.9375e-06	813.44	293.55	2.0195e-06	2.0166e-06	384.93	154.61	118.09	44.65	2.0364e-06	65.223	148.192	231.879	239.738	133.590	256.990	259.786	131.976	139.102	234.973	270.277	136.760	141.058	142.936	149.034	269.457	145.586	-8191	255	
1668.170	1	1	0	0	0.1249	0.026741	0.14287	0.16475	0.21808	0.1286	0.32873	0.23785	0.12712	0.091494	0.23363	0.35783	0.27751	0.099187	0.097267	0.038565	-2.0083	-2.3521	-2.1417	-2.8396	-2.2938	-2.2958	-2.6708	-2.2583	-2.5938	-2.4583	-2.2438	-2.7521	-2.2271	-2.5271	-2.6562	-2.2979	420.737	422.124	317.791	346.527	269.513	194.752	468.748	480.976	440.978	286.975	311.570	416.186	460.049	181.500	355.229	435.940	0.001017	0.00052017	0.0001184	639.9	5.0274e-06	5.9331e-06	825.51	299.04	7.5357e-06	6.9695e-06	392.85	157.22	120.05	44.622	4.6236e-06	65.328	0.00025402	0.00018573	4.8656e-05	632.66	1.9445e-06	1.897e-06	815.84	294.55	1.9236e-06	1.8608e-06	386.05	154.5	118.63	44.675	1.9347e-06	65.081	150.919	244.831	200.209	133.311	263.956	271.141	131.969	139.100	242.499	258.210	136.593	140.925	142.902	149.006	237.651	145.493	-8191	255	
1668.290	1	1	0	0	0.28634	0.1594	0.13876	0.092401	0.14737	0.2814	0.059884	0.10504	0.18088	0.089451	0.12998	0.17005	0.28145	0.15273	0.22869	0.22096	-2.0042	-2.3187	-2.0208	-2.7167	-2.2458	-2.15	-2.8438	-2.0146	-2.6042	-2.2479	-2.1437	-2.5958	-2.2875	-2.3708	-2.4333	-2.3271	222.309	272.857	343.835	376.395	319.302	267.453	174.817	353.483	215.983	381.331	372.802	462.633	431.635	415.299	152.911	458.165	0.00098384	0.00050532	0.00014449	639.55	4.1117e-06	7.0644e-06	834.87	298.2	9.1342e-06	3.0671e-06	394.4	157.97	120.45	44.758	4.0335e-06	65.713	0.00024976	0.00017737	4.8504e-05	631.27	2.0095e-06	1.8484e-06	818.62	294.31	1.9363e-06	1.9139e-06	387.01	155.59	118.99	44.75	1.9947e-06	65.376	148.851	201.214	233.902	133.550	258.869	284.526	131.619	138.914	254.650	272.382	136.890	140.892	142.805	149.024	259.996	145.270	-8191	255	
1668.387	1	1	0	0	0.13096	0.086772	0.17414	0.097844	0.18656	0.089658	0.085914	0.24353	0.095893	0.2072	0.10879	0.069976	0.15874	0.38592	0.15502	0.065172	-1.9854	-2.4313	-2.0708	-2.4979	-2.3312	-2.2833	-2.8542	-2.1521	-2.4792	-2.55	-2.1479	-2.6021	-2.3521	-2.4292	-2.5896	-2.3354	250.508	252.042	377.123	444.593	227.778	122.736	139.964	184.799	254.608	462.917	381.018	444.821	132.829	432.207	218.379	151.270	0.00099894	0.00060473	0.00013911	641.97	4.843e-06	4.3357e-06	831.77	297.13	6.5431e-06	3.9319e-06	393.12	156.92	119.61	44.412	4.5979e-06	64.984	0.00025568	0.00017833	4.8656e-05	632.73	2.0064e-06	1.9823e-06	817.77	293.76	1.8945e-06	1.909e-06	386.34	154.47	117.83	44.289	1.9205e-06	64.772	146.532	208.235	218.801	133.398	285.242	249.468	131.856	139.088	256.590	300.637	136.767	140.738	142.800	148.692	237.308	145.701	-8191	255	
1668.481	1	1	0	0	0.16578	0.26206	0.26534	0.24692	0.29019	0.05657	0.21289	0.19653	0.036275	0.17616	0.16436	0.083369	0.31486	0.073758	0.22559	0.23793	-1.8833	-2.5604	-1.9458	-2.4104	-2.4542	-2.1604	-2.7208	-2.2396	-2.3688	-2.5187	-2.3354	-2.6708	-2.5438	-2.1917	-2.7562	-2.2667	159.674	128.122	399.422	377.359	355.191	213.131	414.306	425.523	193.052	286.635	473.089	144.830	451.129	387.065	194.132	381.971	0.00092839	0.00057473	7.6339e-05	640.7	3.9008e-06	5.8741e-06	826.77	297.82	4.4669e-06	6.0698e-06	391.92	156.17	119.22	44.271	5.2431e-06	65.078	0.00024783	0.00017013	4.8894e-05	630.53	1.9081e-06	1.9084e-06	813.25	292.67	1.8171e-06	1.8542e-06	384.78	153.98	117.8	44.272	1.8615e-06	64.605	148.330	217.291	209.968	133.634	275.787	288.809	131.708	138.973	265.145	233.362	136.749	140.955	142.841	149.201	239.393	145.633	-8191	255	
1668.577	1	1	0	0	0.53474	0.094675	0.11908	0.034162	0.071148	0.12867	0.16031	0.12634	0.25288	0.24222	0.14899	0.078681	0.15823	0.083631	0.3178	0.16094	-2.0042	-2.4813	-2.2313	-2.5458	-2.4313	-2.0417	-2.6271	-2.4833	-2.1437	-2.7458	-2.1125	-2.5354	-2.4562	-2.3688	-2.85	-2.2562	278.793	264.983	230.574	461.525	125.986	357.131	273.856	432.487	297.758	241.198	365.437	318.644	472.147	477.436	480.560	429.716	0.00096488	0.00049076	0.00020214	639.35	3.7269e-06	4.9993e-06	828.92	297.45	4.5484e-06	6.0227e-06	393.28	156.69	118.98	44.402	3.4051e-06	65.005	0.00024603	0.00017081	4.8268e-05	629.94	1.8754e-06	1.8997e-06	815.6	292.84	1.8918e-06	1.8079e-06	385.01	154.22	117.76	44.281	1.9057e-06	64.669	149.845	213.619	211.131	133.549	261.996	255.553	131.903	138.897	258.777	297.514	136.846	141.211	142.832	148.916	226.329	145.810	-8191	255	
1668.673	1	1	0	0	0.24948	0.15529	0.083862	0.22781	0.17197	0.19093	0.31076	0.23821	0.14627	0.2177	0.23346	0.23861	0.15218	0.10638	0.20521	0.29906	-1.7333	-2.5979	-2.1771	-2.3271	-2.2979	-2.1646	-2.7396	-2.3479	-2.1437	-2.6792	-2.3958	-2.25	-2.5417	-1.8875	-2.4479	-2.4333	461.227	392.114	256.273	121.226	470.856	462.435	366.221	128.631	344.639	234.936	370.463	344.316	134.501	420.946	291.788	408.642	0.0010177	0.00053217	6.0962e-05	639.12	4.7237e-06	6.9104e-06	830.2	297.47	6.3527e-06	4.9558e-06	392.35	156.92	119.62	44.174	5.1999e-06	65.403	0.00025047	0.00016519	4.7882e-05	630.4	1.9064e-06	1.844e-06	815.52	293.47	1.9238e-06	1.807e-06	385.96	154.64	118.03	44.225	1.8263e-06	64.871	148.511	232.927	202.414	133.348	259.680	243.261	132.033	139.017	258.729	280.022	136.932	140.923	142.641	148.908	231.215	145.511	-8191	255	
#DATA ENDS
