BOXY.EXE: ISS Imagent and Oximeter Data Acquisition Program Version 0.80
Ascii Record File

#ACQ INFORMATION
2  Detector Channels 
16  External MUX Channels 
1  Auxiliary Channels 
5000  Waveform (CCF) Frequency (Hz)
1  Waveforms Skipped 
30  Waveforms Averaged 
1  Cycles Averaged 
16  Acquisitions per Waveform 
10.0806  Updata Rate (Hz) 

#FILE INFORMATION
TRUE -- External MUX Channel results are PARSED.
FALSE -- AC DC and Phase are NOT grouped.
TRUE -- Companion Program Settings File CREATED.
FALSE -- AC data not excluded
FALSE -- DC data not excluded
FALSE -- Phase data not excluded
FALSE -- Auxillary Chn. data not excluded
Tab delimiters

#CALIBRATION STATE
TRUE -- Waveform Calibration Values APPLIED.


#AUX CALIBRATION VALUES
Val Type	aux-1	

Term	1.0000e+00	
Factor	0.0000e+00	


#WF CALIBRATION VALUES
A = Detector Channel
Val Type	A-AC1	A-AC2	A-AC3	A-AC4	A-AC5	A-AC6	A-AC7	A-AC8	A-AC9	A-AC10	A-AC11	A-AC12	A-AC13	A-AC14	A-AC15	A-AC16	A-DC1	A-DC2	A-DC3	A-DC4	A-DC5	A-DC6	A-DC7	A-DC8	A-DC9	A-DC10	A-DC11	A-DC12	A-DC13	A-DC14	A-DC15	A-DC16	A-Ph1	A-Ph2	A-Ph3	A-Ph4	A-Ph5	A-Ph6	A-Ph7	A-Ph8	A-Ph9	A-Ph10	A-Ph11	A-Ph12	A-Ph13	A-Ph14	A-Ph15	A-Ph16	

Term	0.00000e+00	0.00000e+00	0.00000e+00	0.00000e+00	0.00000e+00	0.00000e+00	0.00000e+00	0.00000e+00	0.00000e+00	0.00000e+00	0.00000e+00	0.00000e+00	0.00000e+00	0.00000e+00	0.00000e+00	0.00000e+00	0.00000e+00	0.00000e+00	0.00000e+00	0.00000e+00	0.00000e+00	0.00000e+00	0.00000e+00	0.00000e+00	0.00000e+00	0.00000e+00	0.00000e+00	0.00000e+00	0.00000e+00	0.00000e+00	0.00000e+00	0.00000e+00	0.00000e+00	0.00000e+00	0.00000e+00	0.00000e+00	0.00000e+00	0.00000e+00	0.00000e+00	0.00000e+00	0.00000e+00	0.00000e+00	0.00000e+00	0.00000e+00	0.00000e+00	0.00000e+00	0.00000e+00	0.00000e+00	
Factor	1.00000e+00	1.00000e+00	1.00000e+00	1.00000e+00	1.00000e+00	1.00000e+00	1.00000e+00	1.00000e+00	1.00000e+00	1.00000e+00	1.00000e+00	1.00000e+00	1.00000e+00	1.00000e+00	1.00000e+00	1.00000e+00	1.00000e+00	1.00000e+00	1.00000e+00	1.00000e+00	1.00000e+00	1.00000e+00	1.00000e+00	1.00000e+00	1.00000e+00	1.00000e+00	1.00000e+00	1.00000e+00	1.00000e+00	1.00000e+00	1.00000e+00	1.00000e+00	X	X	X	X	X	X	X	X	X	X	X	X	X	X	X	X	

B = Detector Channel
Val Type	B-AC1	B-AC2	B-AC3	B-AC4	B-AC5	B-AC6	B-AC7	B-AC8	B-AC9	B-AC10	B-AC11	B-AC12	B-AC13	B-AC14	B-AC15	B-AC16	B-DC1	B-DC2	B-DC3	B-DC4	B-DC5	B-DC6	B-DC7	B-DC8	B-DC9	B-DC10	B-DC11	B-DC12	B-DC13	B-DC14	B-DC15	B-DC16	B-Ph1	B-Ph2	B-Ph3	B-Ph4	B-Ph5	B-Ph6	B-Ph7	B-Ph8	B-Ph9	B-Ph10	B-Ph11	B-Ph12	B-Ph13	B-Ph14	B-Ph15	B-Ph16	

Term	0.00000e+00	0.00000e+00	0.00000e+00	0.00000e+00	0.00000e+00	0.00000e+00	0.00000e+00	0.00000e+00	0.00000e+00	0.00000e+00	0.00000e+00	0.00000e+00	0.00000e+00	0.00000e+00	0.00000e+00	0.00000e+00	0.00000e+00	0.00000e+00	0.00000e+00	0.00000e+00	0.00000e+00	0.00000e+00	0.00000e+00	0.00000e+00	0.00000e+00	0.00000e+00	0.00000e+00	0.00000e+00	0.00000e+00	0.00000e+00	0.00000e+00	0.00000e+00	-1.61556e+02	-1.24365e+02	-1.24460e+02	-1.82575e+02	-7.77226e+01	-7.02735e+01	-1.54563e+02	-1.62015e+02	-7.99118e+01	-7.08945e+01	-1.79593e+02	-1.70828e+02	-1.78793e+02	-1.75846e+02	-8.48453e+01	-1.49068e+02	
Factor	2.31970e-05	1.41556e-04	4.23880e-05	1.51486e-01	1.25884e-06	1.81699e-06	1.63316e-01	6.36777e-02	1.50327e-06	1.86341e-06	9.72382e-02	2.82179e-02	2.41845e-02	8.33549e-03	1.21540e-06	1.19969e-02	3.25825e-06	3.66651e-06	1.02321e-06	7.89026e-02	3.94916e-08	4.01200e-08	7.99932e-02	3.30394e-02	3.96832e-08	4.01801e-08	4.87438e-02	1.42351e-02	1.27408e-02	4.36714e-03	3.97856e-08	6.09645e-03	X	X	X	X	X	X	X	X	X	X	X	X	X	X	X	X	



#DISTANCE SETTINGS
A = Detector Channel
A-1	A-2	A-3	A-4	A-5	A-6	A-7	A-8	A-9	A-10	A-11	A-12	A-13	A-14	A-15	A-16	

2.5000e+00	3.0000e+00	2.5000e+00	3.0000e+00	2.0000e+00	3.0000e+00	1.5000e+00	3.0000e+00	3.0000e+00	3.0000e+00	3.0000e+00	3.0000e+00	3.0000e+00	3.0000e+00	1.5000e+00	3.0000e+00	

B = Detector Channel
B-1	B-2	B-3	B-4	B-5	B-6	B-7	B-8	B-9	B-10	B-11	B-12	B-13	B-14	B-15	B-16	

1.0000e+01	1.0000e+01	1.0000e+01	1.4400e+00	1.0000e+01	1.0000e+01	1.5100e+00	1.9400e+00	1.0000e+01	1.0000e+01	1.9900e+00	2.4900e+00	2.4100e+00	2.9000e+00	1.0000e+01	2.9800e+00	




#DATA BEGINS
time	group	step	mark	flag	A-AC1	A-AC2	A-AC3	A-AC4	A-AC5	A-AC6	A-AC7	A-AC8	A-AC9	A-AC10	A-AC11	A-AC12	A-AC13	A-AC14	A-AC15	A-AC16	A-DC1	A-DC2	A-DC3	A-DC4	A-DC5	A-DC6	A-DC7	A-DC8	A-DC9	A-DC10	A-DC11	A-DC12	A-DC13	A-DC14	A-DC15	A-DC16	A-Ph1	A-Ph2	A-Ph3	A-Ph4	A-Ph5	A-Ph6	A-Ph7	A-Ph8	A-Ph9	A-Ph10	A-Ph11	A-Ph12	A-Ph13	A-Ph14	A-Ph15	A-Ph16	B-AC1	B-AC2	B-AC3	B-AC4	B-AC5	B-AC6	B-AC7	B-AC8	B-AC9	B-AC10	B-AC11	B-AC12	B-AC13	B-AC14	B-AC15	B-AC16	B-DC1	B-DC2	B-DC3	B-DC4	B-DC5	B-DC6	B-DC7	B-DC8	B-DC9	B-DC10	B-DC11	B-DC12	B-DC13	B-DC14	B-DC15	B-DC16	B-Ph1	B-Ph2	B-Ph3	B-Ph4	B-Ph5	B-Ph6	B-Ph7	B-Ph8	B-Ph9	B-Ph10	B-Ph11	B-Ph12	B-Ph13	B-Ph14	B-Ph15	B-Ph16	aux-1	digaux	

1490.203	1	1	0	256	0.19771	0.13178	0.21914	0.042676	0.16918	0.16346	0.14612	0.18373	0.15075	0.088548	0.22821	0.098786	0.21459	0.14889	0.23296	0.10396	-2.1604	-2.4188	-2.5333	-2.4979	-2.3792	-2.4979	-2.5521	-2.5271	-2.5646	-2.2667	-2.4708	-2.7062	-2.2521	-2.6875	-2.2146	-2.4583	347.928	262.129	311.029	536.396	350.249	320.031	511.748	522.296	326.937	262.729	511.626	495.529	298.065	493.882	275.303	287.631	0.0010964	0.00015874	0.000217	820.14	4.8355e-06	7.5366e-06	1021.9	418.93	8.6737e-06	4.8623e-06	535.8	196.27	157.41	68.094	4.1293e-06	85.935	0.00025483	0.0001692	4.6394e-05	770.75	1.8145e-06	1.8467e-06	952.03	392.65	1.9403e-06	1.8336e-06	496.13	183.47	148.15	64.22	1.9873e-06	81.078	525.112	294.220	284.628	190.715	301.578	327.470	188.865	195.238	277.973	296.535	192.908	196.487	198.605	204.731	306.027	200.881	-8191	255	
1490.299	1	1	0	0	0.18289	0.21224	0.022093	0.071796	0.11825	0.046914	0.11518	0.3632	0.17048	0.20724	0.098936	0.26314	0.28029	0.14565	0.21499	0.17534	-2.1479	-2.1729	-2.5458	-2.7083	-2.0208	-2.5938	-2.4417	-2.3375	-2.4354	-2.2542	-2.5792	-2.6458	-2.3729	-2.7083	-2.325	-2.5125	510.315	226.870	397.256	333.817	252.658	300.256	495.437	481.131	260.100	251.520	511.007	419.083	470.679	471.434	385.604	260.952	0.0011598	0.00059038	0.00015009	838.71	6.4048e-06	8.2815e-06	1019.8	421.18	9.1411e-06	7.352e-06	529.28	194.49	155.23	66.416	5.4313e-06	84.402	0.00026528	0.00017181	4.7649e-05	784.24	1.8894e-06	1.8194e-06	956.06	394.16	1.7972e-06	1.7826e-06	493.17	181.9	145.79	62.828	1.886e-06	79.55	527.350	278.770	254.814	190.873	313.008	341.895	188.666	195.565	280.260	335.702	192.555	196.435	198.623	204.752	309.948	201.047	-8191	255	
1490.395	1	1	0	0	0.22714	0.2341	0.14302	0.28085	0.054593	0.11551	0.060762	0.13563	0.15051	0.081895	0.10032	0.19345	0.13569	0.14862	0.15317	0.28411	-2.4875	-2.2313	-2.2833	-2.7729	-2.0396	-2.6312	-2.7542	-2.3167	-2.6937	-2.2062	-2.6854	-2.7771	-2.2604	-2.6958	-2.3458	-2.2833	332.873	186.293	364.017	499.804	360.430	445.244	436.009	202.318	443.087	332.066	533.903	480.324	214.899	443.989	449.896	452.323	0.0010264	0.00068136	0.00018434	814.04	5.1352e-06	9.5887e-06	1007.6	411.82	9.7929e-06	9.1004e-06	521.52	191.29	152.41	64.947	8.3453e-06	83.037	0.00025636	0.00016427	4.6611e-05	761.9	1.7928e-06	1.7649e-06	940.34	384.2	1.8856e-06	1.7938e-06	485.92	179.66	143.3	61.528	1.9831e-06	78.436	525.186	265.952	270.286	190.883	320.260	323.618	188.899	195.434	305.870	319.130	192.828	196.547	198.631	205.043	310.115	201.289	-8191	255	
1490.491	1	1	0	0	0.025761	0.23149	0.27233	0.41107	0.083027	0.18262	0.24343	0.089303	0.4136	0.22617	0.15504	0.20769	0.23209	0.051952	0.024535	0.12362	-2.3	-2.2292	-2.2208	-2.6479	-2.0354	-2.5792	-2.8167	-2.3542	-2.4771	-2.5646	-2.4646	-2.6063	-2.5271	-2.6208	-2.4083	-2.3083	305.340	432.496	330.266	509.754	355.361	535.174	463.598	388.809	522.327	303.278	214.364	464.090	528.444	341.393	387.990	451.893	0.0010912	0.00080824	0.00021135	821.37	6.0994e-06	4.606e-06	1016.6	417.43	6.4715e-06	8.2106e-06	534.05	195.62	157.82	67.207	6.5602e-06	85.748	0.00026627	0.000179	5.2657e-05	770.53	2.0107e-06	2.0402e-06	954.76	392.25	2.2023e-06	2.123e-06	496.32	183.76	148.47	63.666	2.3449e-06	81.014	523.427	276.012	283.709	190.727	304.984	296.574	189.016	195.537	294.102	312.346	192.803	196.394	198.574	204.736	282.849	201.079	-8191	255	
1490.612	1	1	0	0	0.079771	0.20586	0.004655	0.21049	0.25752	0.21396	0.1396	0.24062	0.26215	0.1748	0.30003	0.25315	0.254	0.14006	0.21116	0.22341	-1.975	-2.4437	-2.2917	-2.6979	-2.4271	-2.1875	-2.7687	-2.2667	-2.4938	-2.3229	-2.5208	-2.6708	-2.5521	-2.4437	-2.5979	-2.4292	187.061	291.354	529.386	430.272	497.618	267.825	362.889	450.530	191.575	531.570	518.569	481.008	192.043	185.961	431.630	517.951	0.0010818	0.00061247	0.00020964	854.83	6.1232e-06	6.9963e-06	1059.3	434.52	1.1978e-05	6.9053e-06	541.2	203.36	165.27	69.834	2.7644e-06	87.272	0.00029761	0.00021816	6.135e-05	802.31	2.5361e-06	2.5571e-06	991.23	406	2.8558e-06	2.7829e-06	506.74	191.03	156.5	66.288	3.3923e-06	82.656	525.131	251.820	286.913	190.810	311.678	296.221	188.701	195.438	315.808	298.246	192.994	196.416	198.799	204.957	259.218	201.046	-8191	255	
1490.684	1	1	0	0	0.10753	0.11856	0.11133	0.1287	0.087278	0.11847	0.44834	0.19001	0.050161	0.10713	0.10981	0.14884	0.20522	0.3927	0.14403	0.179	-2.2896	-2.3271	-2.0854	-2.7833	-2.3583	-2.3917	-2.8021	-2.1708	-2.4562	-2.6479	-2.1833	-2.7812	-2.5417	-2.2729	-2.6521	-2.35	378.285	207.789	406.249	190.704	306.724	286.324	430.575	471.763	325.439	457.901	385.273	217.523	425.880	221.423	511.485	503.635	0.0010878	0.00067313	0.00021364	913.37	6.9357e-06	6.5193e-06	1110	446.52	9.3243e-06	1.1434e-05	556.1	209.66	175.08	72.398	4.1728e-06	88.369	0.00039087	0.0003229	9.2747e-05	857.7	3.7665e-06	3.744e-06	1043.8	420.28	3.8571e-06	3.9287e-06	520.45	196.79	165.31	68.775	3.9405e-06	83.874	526.481	248.106	287.282	190.486	332.012	321.806	188.696	195.415	278.493	308.963	193.083	196.580	198.907	204.920	286.856	201.288	-8191	255	
1490.780	1	1	0	0	0.053001	0.043921	0.17006	0.21402	0.047024	0.29882	0.40973	0.027477	0.12155	0.1359	0.18733	0.088576	0.20284	0.18131	0.43767	0.39975	-1.8854	-2.4375	-2.0896	-2.7021	-2.2917	-2.2375	-2.8479	-2.2979	-2.375	-2.475	-1.9354	-2.6958	-2.4479	-2.3604	-2.7458	-2.3688	422.010	197.039	305.044	202.659	346.149	285.182	488.021	476.267	233.277	354.053	481.349	443.072	468.815	463.669	329.914	461.848	0.00121	0.00043394	0.00031019	944.76	2.0799e-06	1.0538e-05	1127.1	450.82	8.1347e-06	7.5461e-06	563.51	216.86	179.89	74.134	6.1394e-06	90.074	0.00043236	0.00035949	9.9549e-05	885.51	3.8369e-06	3.8758e-06	1060.3	424.73	4.064e-06	3.8069e-06	524.9	203.99	169.89	70.473	3.8831e-06	85.31	526.656	246.261	262.515	190.224	328.269	312.096	188.217	195.424	313.529	332.232	192.861	196.527	199.003	204.691	289.294	201.369	-8191	255	
1490.900	1	1	0	0	0.067645	0.16679	0.21629	0.18153	0.30836	0.14766	0.20333	0.20369	0.37158	0.14612	0.029529	0.16252	0.36058	0.28999	0.32156	0.44733	-1.9604	-2.6604	-2.1	-2.8167	-2.3917	-2.0812	-2.8042	-2.3146	-2.4083	-2.6937	-2.3833	-2.6271	-2.5417	-2.4667	-2.7958	-2.3833	513.034	315.866	428.864	527.140	497.805	438.301	472.334	202.940	237.451	402.737	214.777	469.677	489.240	511.411	403.359	442.754	0.0011912	0.00062822	0.00021632	933.87	7.1489e-06	1.6198e-05	1117.6	446.58	1.3341e-05	1.0979e-05	562.37	219.53	181.45	75.853	7.0147e-06	93.079	0.00042885	0.00035027	9.9328e-05	878.53	3.8564e-06	3.8483e-06	1053.4	421.61	3.9156e-06	3.8254e-06	524.82	206.2	171.47	71.877	4.0312e-06	88.315	522.795	264.316	285.789	190.368	331.686	315.386	188.221	195.654	316.500	297.236	192.916	196.628	198.878	204.893	315.391	200.920	-8191	255	
1490.995	1	1	0	0	0.17209	0.081899	0.28822	0.27336	0.20383	0.079011	0.18238	0.20049	0.18706	0.15619	0.28857	0.044028	0.23449	0.14758	0.054436	0.20197	-1.9188	-2.5958	-2.0479	-2.8229	-2.425	-2.1875	-2.7812	-2.4625	-2.3583	-2.7771	-2.2604	-2.6063	-2.8688	-2.2417	-2.6708	-2.5187	472.495	256.455	487.726	500.894	246.998	360.945	478.944	244.785	185.075	448.742	478.190	483.310	497.576	532.361	203.880	505.249	0.0011594	0.00071895	0.00013315	919.5	5.5372e-06	1.1642e-05	1092.6	442.23	9.733e-06	3.5414e-06	547.73	215.42	178.07	75.222	1.1022e-05	93.932	0.0004474	0.00037073	0.00010715	864.11	4.2796e-06	4.198e-06	1025.3	416.24	4.4222e-06	4.4444e-06	514.14	203.23	168.14	71.655	4.5661e-06	88.845	523.012	267.517	281.308	190.120	326.948	315.257	188.604	195.786	302.693	291.402	193.148	196.355	198.878	204.589	272.206	201.053	-8191	255	
1491.093	1	1	0	0	0.28559	0.32353	0.23278	0.25569	0.085107	0.23427	0.40375	0.14906	0.24959	0.15843	0.35637	0.15312	0.22208	0.1142	0.16279	0.23232	-1.7167	-2.5667	-1.9333	-2.7021	-2.5375	-2.2042	-2.7917	-2.5312	-2.1479	-2.6437	-2.3625	-2.5938	-2.6917	-2.3625	-2.5812	-2.5021	384.355	527.165	242.171	450.657	505.349	191.245	470.622	452.677	292.543	359.552	512.408	464.930	514.240	481.054	268.346	485.292	0.0012287	0.00038767	0.00021213	880.46	1.1729e-05	6.0529e-06	1054.7	436.3	4.8883e-06	8.1633e-06	538.48	215.79	177.27	75.658	5.3951e-06	93.803	0.00049143	0.00041281	0.0001157	830.24	4.6215e-06	4.5339e-06	992.84	411.5	4.8996e-06	4.8237e-06	505.74	202.55	167.06	71.943	5.2423e-06	89.127	526.702	304.512	267.636	190.394	291.129	362.791	188.638	195.588	303.008	330.763	193.192	196.634	198.650	204.347	293.164	201.043	-8191	255	
1491.211	1	1	0	0	0.068306	0.090558	0.070681	0.069885	0.14835	0.18821	0.09172	0.23279	0.23964	0.2219	0.11219	0.18907	0.40194	0.31303	0.12123	0.16455	-1.8813	-2.4938	-2.3396	-2.4021	-2.5917	-2.1688	-2.5646	-2.5667	-2.2208	-2.5708	-2.4417	-2.5833	-2.6625	-2.3375	-2.4479	-2.7125	358.068	358.293	263.568	271.185	282.642	490.397	181.859	475.887	335.950	328.174	420.490	488.542	534.363	488.176	282.156	516.035	0.0012376	0.00054523	0.00026617	849.28	6.9074e-06	4.7156e-06	1015.1	411.92	1.0857e-05	3.4055e-06	512.56	210.57	172.5	74.99	8.1439e-06	93.732	0.00055454	0.00048493	0.00013811	801.1	5.5012e-06	5.4918e-06	960.01	388.06	5.734e-06	5.7903e-06	481.57	198.26	162.7	71.608	6.0176e-06	89.112	523.551	260.852	252.888	190.379	398.970	355.290	188.200	195.487	298.117	401.122	193.121	196.679	198.710	204.527	321.997	200.544	-8191	255	
1491.308	1	1	0	0	0.21083	0.17461	0.16604	0.21772	0.022853	0.18129	0.27018	0.25014	0.10883	0.087365	0.2727	0.075003	0.40554	0.45795	0.12622	0.22975	-1.6625	-2.3708	-2.2083	-2.6896	-2.7562	-2.2729	-2.6271	-2.3812	-2.225	-2.7896	-2.2729	-2.6229	-2.8875	-2.2062	-2.5417	-2.775	281.756	338.373	531.734	536.146	383.797	497.966	480.353	464.669	343.193	213.244	469.795	490.010	522.539	507.263	249.928	186.525	0.0011306	0.00067673	0.00046127	844.95	6.3271e-06	8.0054e-06	1013.4	399.44	9.2441e-06	1.1213e-05	506.47	208.86	170.33	79.75	6.4238e-06	97.797	0.00063074	0.00057563	0.00016285	798.64	6.4013e-06	6.5235e-06	960.24	378.34	6.3016e-06	6.3882e-06	477.06	197.19	161.22	75.718	5.6259e-06	92.808	525.409	303.166	275.543	190.191	329.525	330.915	188.235	195.573	315.959	298.382	193.305	196.742	199.216	204.296	330.212	200.462	-8191	255	
1491.379	1	1	0	0	0.042763	0.045793	0.27323	0.22485	0.15043	0.18702	0.12974	0.11272	0.086715	0.059185	0.10244	0.23705	0.11914	0.31735	0.10278	0.088303	-1.6854	-2.5312	-2.4708	-2.325	-2.6104	-2.1958	-2.5	-2.7104	-2.1958	-2.7938	-2.4729	-2.2167	-2.9604	-2.5333	-2.2042	-3.05	413.468	224.606	361.862	494.415	231.024	287.083	454.543	445.105	210.360	406.509	516.876	516.264	492.176	185.472	372.461	465.290	0.0013053	0.0010664	0.00026361	854.42	5.0807e-06	9.5002e-06	1015.4	392.5	1.4774e-05	1.0225e-05	493.79	206.28	166.33	78.612	6.5864e-06	94.999	0.0005608	0.00046529	0.00012966	802.64	4.6855e-06	4.5415e-06	956.03	370.74	4.1901e-06	4.1904e-06	462.79	193.82	157.04	74.537	4.2052e-06	90.254	525.583	268.136	247.636	189.719	267.077	372.994	188.279	195.493	308.834	303.509	193.391	197.145	199.142	204.533	280.685	200.734	-8191	255	
1491.500	1	1	0	0	0.095903	0.1642	0.27977	0.28127	0.035375	0.26581	0.28386	0.14491	0.29353	0.11157	0.027556	0.19051	0.19694	0.16398	0.056683	0.31425	-1.6458	-2.6	-2.5229	-2.3563	-2.6458	-2.2875	-2.425	-2.8438	-2.0729	-2.4875	-2.6208	-2.2958	-2.6292	-2.4562	-2.2458	-2.7854	286.806	378.973	448.063	497.558	477.998	352.118	508.870	432.694	317.924	445.304	378.054	464.858	417.270	500.586	511.368	410.965	0.0013023	0.00055566	0.00025576	810.98	4.4446e-06	8.0495e-06	968.99	364.33	9.6378e-06	5.9304e-06	460.53	195.56	156.01	72.655	7.1672e-06	89.577	0.00046116	0.00037728	0.00010399	760.47	4.0695e-06	4.1876e-06	908.46	344.35	4.5126e-06	4.5652e-06	433.69	184.98	147.66	69.281	5.0203e-06	85.365	522.371	273.050	275.658	189.865	288.249	365.090	188.017	196.041	279.617	287.041	193.042	196.937	199.267	204.224	288.589	200.560	-8191	255	
1491.596	1	1	0	0	0.2914	0.05593	0.058064	0.27524	0.11077	0.12289	0.1885	0.14308	0.079272	0.17992	0.25232	0.15914	0.31963	0.3859	0.23229	0.34389	-1.7938	-2.4562	-2.5812	-2.3312	-2.5146	-2.5542	-2.3125	-2.6063	-2.3875	-2.4813	-2.4708	-2.4271	-2.7271	-2.6063	-2.4417	-2.9521	358.880	252.742	385.295	413.663	357.021	312.129	443.917	479.497	211.709	267.920	525.198	228.515	486.781	508.436	218.812	492.271	0.0011274	0.00067563	0.00020341	718.14	4.5032e-06	6.6899e-06	877.14	321.53	6.0153e-06	1.1368e-05	424.73	185.33	144.62	66.033	7.3527e-06	84.833	0.0005325	0.00046594	0.0001298	679.1	5.2314e-06	5.1945e-06	826.59	304.19	5.3303e-06	5.2797e-06	399.31	174.71	136.7	62.878	5.3648e-06	80.722	524.477	290.694	300.482	189.981	296.621	283.887	188.468	196.211	278.179	323.575	193.835	197.109	199.267	204.231	313.404	200.868	-8191	255	
1491.692	1	1	0	0	0.39592	0.38397	0.16242	0.069916	0.15799	0.032638	0.41292	0.13826	0.12963	0.031381	0.13852	0.18624	0.051896	0.24048	0.10993	0.10558	-1.7604	-2.475	-2.4792	-2.2167	-2.6854	-2.3542	-2.2625	-2.7812	-2.2229	-2.5896	-2.7917	-2.3125	-2.7125	-2.6604	-2.1604	-2.9208	440.169	415.331	197.906	462.476	269.689	526.066	500.984	355.834	508.530	505.107	182.498	474.108	481.988	506.143	485.151	243.046	0.0011504	0.00067009	0.00021206	676.87	5.7271e-06	1.0163e-05	865.48	319.81	2.5437e-06	7.5326e-06	433.61	186.15	144.38	63.467	5.7228e-06	82.652	0.00054663	0.00048499	0.00013247	643	5.1449e-06	5.1289e-06	815.35	303.22	5.0779e-06	5.0985e-06	407.6	175.24	136.68	60.375	4.9259e-06	78.311	523.210	251.299	269.133	190.223	300.504	317.146	188.593	196.210	317.447	279.502	193.271	196.539	198.922	204.157	262.254	200.561	-8191	255	
1491.788	1	1	0	0	0.11321	0.19915	0.30224	0.34787	0.15554	0.19099	0.22694	0.10432	0.023786	0.078676	0.21376	0.13685	0.14821	0.28066	0.0041606	0.22377	-1.8979	-2.2812	-2.6688	-2.1104	-2.3583	-2.7458	-2.1521	-2.7521	-2.2479	-2.1958	-2.7313	-2.1333	-2.85	-2.5292	-2.2479	-2.8042	256.104	451.345	489.113	450.331	247.407	502.723	483.464	473.708	418.879	458.761	536.084	499.293	203.291	450.205	281.180	410.394	0.0010569	0.00033497	0.00014149	674.69	4.8724e-06	1.3901e-05	866.03	323.76	6.8273e-06	9.4591e-06	433.64	177.31	139.39	60.931	7.6221e-06	79.868	0.00050246	0.00043641	0.00012013	638.72	4.6134e-06	4.6128e-06	813.47	305.95	4.7955e-06	4.8266e-06	407.02	167.45	131.6	57.984	5.4471e-06	76.268	526.055	318.695	239.862	190.494	321.028	336.574	188.546	196.292	306.424	304.596	193.251	196.618	198.523	204.104	336.347	200.734	-8191	255	
1491.885	1	1	0	0	0.1678	0.10366	0.17052	0.057235	0.13582	0.12916	0.068557	0.35651	0.19523	0.52791	0.16892	0.30233	0.232	0.23458	0.045939	0.24301	-1.9458	-2.3875	-2.6312	-2.2708	-2.5354	-2.5125	-2.3896	-2.6937	-2.4333	-2.3708	-2.8063	-2.3167	-2.5563	-2.6667	-2.0396	-2.7833	458.837	527.345	287.750	314.320	434.978	260.005	498.938	472.435	359.061	378.576	425.284	433.062	287.877	488.370	291.079	449.474	0.0010403	0.00075528	0.00015482	682.07	5.4148e-06	8.3872e-06	862.15	318.85	5.2998e-06	8.8272e-06	417.94	173	134.21	59.166	6.4984e-06	77.67	0.00055109	0.00051213	0.00014119	645.43	5.5191e-06	5.4791e-06	811.46	301.18	5.5798e-06	5.6058e-06	393.84	163.74	127.32	56.557	6.3698e-06	74.046	520.315	277.411	274.841	190.265	301.979	297.802	188.726	196.078	324.432	367.341	193.625	196.596	199.077	204.375	283.069	200.740	-8191	255	
1491.981	1	1	0	0	0.077661	0.22045	0.13393	0.17278	0.21059	0.1896	0.15486	0.093509	0.16775	0.098248	0.13538	0.25573	0.22756	0.26232	0.043393	0.080448	-1.95	-2.1604	-2.5604	-2.3146	-2.4146	-2.7687	-2.2042	-2.725	-2.4417	-1.9229	-2.7562	-2.5438	-2.4396	-2.7917	-2.2146	-2.3937	368.101	406.869	262.822	202.997	372.102	483.774	528.128	451.920	496.665	532.410	286.809	499.582	450.088	508.575	321.313	328.639	0.0010697	0.00062784	0.00017708	657.14	8.3933e-06	6.8976e-06	830.27	279.02	1.1533e-05	8.9013e-06	370.09	154.2	117.68	55.207	8.748e-06	71.481	0.00062443	0.00061407	0.00017544	625.89	7.3816e-06	7.7315e-06	788.33	267.75	8.1725e-06	8.0296e-06	352.47	146.78	112.4	52.706	8.279e-06	68.683	521.693	237.319	327.990	190.402	305.540	408.297	188.241	196.244	305.867	301.385	193.736	197.329	199.523	204.360	284.246	201.150	-8191	255	
1492.075	1	1	0	0	0.0879	0.10797	0.065486	0.053249	0.2132	0.18633	0.33524	0.12289	0.13266	0.051582	0.12525	0.21103	0.17326	0.29364	0.14384	0.10172	-2.0438	-2.1688	-2.6729	-2.3563	-2.1979	-2.875	-2.3979	-2.5604	-2.6604	-2.45	-2.5667	-2.5771	-2.4583	-2.7042	-2.3	-2.6396	359.774	418.891	215.481	452.417	478.681	496.572	509.860	197.858	427.022	267.415	361.317	361.816	513.509	529.518	331.460	487.427	0.00089806	0.0009482	9.5913e-05	638.02	7.0065e-06	1.0469e-05	814.2	260.6	4.0656e-06	7.141e-06	353.28	145.53	109.83	51.17	5.0544e-06	63.189	0.00075019	0.00073315	0.00019804	608.19	7.3542e-06	6.9764e-06	771.06	247.91	6.3875e-06	6.1961e-06	332.96	137.14	104.46	48.681	4.4628e-06	60.003	521.768	287.431	325.963	189.936	271.764	375.980	187.774	195.906	301.582	335.528	193.765	197.293	199.907	204.653	310.185	201.084	-8191	255	
1492.173	1	1	0	0	0.17219	0.15967	0.14874	0.25954	0.10635	0.14601	0.069914	0.14767	0.35218	0.14199	0.097505	0.11058	0.13482	0.39743	0.36555	0.22784	-2.0917	-2.3438	-2.4854	-2.4729	-2.3125	-2.7	-2.3604	-2.5062	-2.7979	-2.4458	-2.6958	-2.5458	-2.2854	-2.875	-2.3021	-2.3833	308.723	236.494	294.372	495.618	437.958	338.641	384.841	496.728	210.218	319.008	415.706	466.045	499.779	509.410	463.407	480.009	0.00083047	0.00052309	0.0001899	634.13	2.7899e-06	6.1412e-06	800.15	247.75	5.8778e-06	7.7497e-06	331.33	122.58	94.586	43.718	2.5711e-06	54.572	0.00040776	0.00036893	9.8275e-05	595.22	3.5873e-06	3.3574e-06	753.86	233.6	3.2452e-06	3.0586e-06	310.3	114.96	89.015	41.545	2.986e-06	51.558	529.030	294.516	291.956	189.495	275.345	336.510	187.849	196.114	292.380	291.353	193.468	197.663	199.877	204.657	351.263	200.830	-8191	255	
1492.292	1	1	0	0	0.38045	0.05499	0.3142	0.26066	0.25889	0.13691	0.30524	0.18475	0.3256	0.27095	0.10974	0.26701	0.23024	0.16655	0.16613	0.020336	-2.2562	-2.1813	-2.4042	-2.6063	-2.0354	-2.5854	-2.4562	-2.4833	-2.4208	-2.1396	-2.7	-2.4792	-2.3042	-2.7062	-2.2833	-2.4104	422.742	455.478	307.313	381.297	224.848	268.574	527.934	486.094	374.518	513.057	488.626	466.465	484.690	240.211	523.378	382.826	0.00074843	0.00072724	0.00012778	654.24	4.7284e-06	5.8911e-06	818.87	251.12	5.6636e-06	3.8209e-06	323.7	102.63	80.683	38.878	2.5059e-06	49.597	0.000294	0.00023617	6.5357e-05	613.36	2.2884e-06	2.1162e-06	766.65	234.99	1.9202e-06	1.889e-06	299.92	96.036	75.805	36.651	1.6623e-06	47.026	523.304	264.994	232.160	189.333	278.718	317.501	187.917	195.568	316.191	327.909	193.703	197.366	200.373	205.163	313.231	200.734	-8191	255	
1492.388	1	1	0	0	0.10192	0.083709	0.049769	0.2398	0.2134	0.26837	0.081113	0.099852	0.062786	0.22717	0.16735	0.085455	0.29389	0.19978	0.20639	0.24396	-2.0542	-2.125	-2.5	-2.4771	-2.2375	-2.6458	-2.45	-2.2208	-2.6708	-2.3229	-2.6562	-2.5104	-2.3187	-2.7146	-2.2687	-2.525	200.602	269.960	435.537	190.947	297.703	532.654	195.689	300.960	507.653	486.005	536.413	393.335	179.352	472.601	344.741	423.382	0.00062737	0.00033043	0.00011841	646.78	1.5717e-06	4.3346e-06	825.33	238.03	3.9039e-06	4.3611e-06	304.46	92.18	73.262	41.556	2.7179e-06	52.765	0.00019253	0.00014357	3.9306e-05	604.25	1.6538e-06	1.5407e-06	768.57	222.89	1.6291e-06	1.6637e-06	284.95	86.441	69.114	39.325	1.8131e-06	49.788	524.151	264.270	242.889	189.360	311.661	340.028	188.109	195.415	307.680	324.726	193.174	197.689	200.038	205.030	288.941	200.840	-8191	255	
1492.484	1	1	0	0	0.076633	0.13371	0.062585	0.10112	0.070003	0.17613	0.10544	0.22261	0.19741	0.27437	0.22675	0.10819	0.15557	0.26565	0.16768	0.099385	-2.0625	-2.4062	-2.3646	-2.8021	-2.1	-2.6063	-2.7458	-2.3292	-2.6063	-2.3833	-2.2875	-2.6583	-2.1188	-2.5854	-2.4896	-2.1063	361.772	511.479	501.395	431.098	188.903	289.524	209.449	372.390	429.353	367.919	508.695	520.671	442.189	178.183	263.659	481.293	0.00068345	0.00050082	9.1326e-05	676.52	3.4233e-06	2.5238e-06	848.11	242.85	6.5778e-07	5.4462e-06	314.25	96.203	78.166	42.795	4.414e-06	51.755	0.00022123	0.0001785	5.1201e-05	630.37	1.9285e-06	1.9839e-06	793.59	227.64	2.1808e-06	2.2529e-06	294.08	90.292	73.736	40.651	2.3075e-06	49.086	524.294	315.712	288.074	188.918	329.201	319.469	187.771	195.498	306.618	298.884	193.443	197.224	199.683	204.648	253.488	201.113	-8191	255	
1492.580	1	1	0	0	0.20942	0.092245	0.22766	0.14062	0.083442	0.15206	0.12429	0.11543	0.18844	0.092432	0.12972	0.23727	0.31329	0.1372	0.1849	0.065902	-2.1188	-2.5667	-2.3063	-2.6292	-2.4458	-2.3229	-2.575	-2.2979	-2.575	-2.3875	-2.5354	-2.7292	-2.4333	-2.5292	-2.5604	-2.2458	269.740	417.875	452.154	200.617	411.602	183.788	445.865	498.952	259.647	515.608	405.476	276.338	531.455	183.663	297.534	508.972	0.00067646	0.00046388	0.00019095	653.99	3.0969e-06	5.6641e-06	830.18	243.42	3.2888e-06	5.8406e-06	312.63	99.276	79.052	42.726	4.6754e-06	51.137	0.00025341	0.00022118	6.2243e-05	614	2.522e-06	2.5434e-06	777.91	229.18	2.4852e-06	2.5735e-06	293.71	93.156	74.561	40.598	2.6873e-06	48.573	525.212	270.953	267.560	189.805	370.067	326.844	187.810	195.433	311.292	359.912	193.315	197.294	199.726	204.521	331.501	200.977	-8191	255	
1492.676	1	1	0	0	0.05143	0.099189	0.33633	0.13585	0.26474	0.094058	0.29229	0.061733	0.061702	0.16382	0.30656	0.23157	0.36425	0.24709	0.25413	0.31814	-2.1292	-2.6188	-2.3292	-2.5667	-2.2646	-2.4646	-2.6271	-2.3021	-2.4792	-2.4646	-2.3312	-2.6542	-2.4083	-2.5104	-2.4021	-2.2417	330.151	487.489	207.219	515.785	241.608	464.463	418.911	378.794	271.249	520.203	514.465	437.942	212.731	205.088	213.790	475.754	0.00073394	0.00046665	0.00011829	632.84	5.4669e-06	4.8256e-06	806.1	233.58	2.1655e-06	3.243e-06	301.24	94.21	74.448	40.933	3.2362e-06	49.809	0.00027926	0.00024445	6.5464e-05	593.87	2.6113e-06	2.6101e-06	755.33	219.3	2.5488e-06	2.5473e-06	280.7	88.771	70.681	38.952	2.6057e-06	46.998	523.348	293.719	255.652	189.191	307.761	280.202	188.050	195.580	271.397	334.213	192.994	197.391	199.877	204.769	303.952	200.682	-8191	255	
1492.773	1	1	0	0	0.15712	0.053473	0.030697	0.13836	0.25872	0.28719	0.11886	0.14646	0.11232	0.02892	0.053398	0.061169	0.040562	0.2643	0.18655	0.40916	-2.0958	-2.5729	-2.2667	-2.9271	-2.3521	-2.3563	-2.7	-2.3625	-2.6417	-2.4562	-2.1875	-2.8	-2.0979	-2.3604	-2.7042	-2.2396	490.458	496.797	371.154	533.271	324.101	293.074	496.844	309.136	293.382	289.571	276.403	194.285	224.917	468.735	435.832	500.554	0.0006597	0.00025998	0.00013614	626.69	3.7775e-06	6.8756e-06	793.87	222.99	4.43e-06	1.6028e-06	286.3	88.87	70.106	39.564	2.6491e-06	47.881	0.00028375	0.00023713	6.7011e-05	585.37	2.631e-06	2.5684e-06	744.14	209.28	2.5334e-06	2.5028e-06	266.95	83.678	66.429	37.373	2.4464e-06	45.357	525.328	290.048	263.588	189.381	307.743	336.504	188.049	195.400	320.658	179.901	193.230	197.664	199.838	204.831	325.690	200.755	-8191	255	
1492.893	1	1	0	0	0.060233	0.19406	0.10341	0.11084	0.058425	0.16158	0.072611	0.057182	0.31376	0.17099	0.24589	0.029962	0.20683	0.13901	0.059847	0.25669	-2.0125	-2.5771	-2.0729	-2.6437	-2.1646	-2.4562	-2.7417	-2.2958	-2.4521	-2.3583	-2.3771	-2.525	-2.4375	-2.325	-2.6312	-2.3521	239.308	183.173	515.525	426.733	481.164	183.157	438.596	519.282	184.813	384.547	528.247	481.894	443.928	490.485	484.590	507.202	0.00063192	0.00034322	0.00025456	627.84	2.1356e-06	5.5795e-06	796.29	221.82	4.3224e-06	7.6258e-06	285.68	86.018	68.904	40.738	6.0659e-06	50.076	0.000262	0.00021732	6.3332e-05	587.08	2.4043e-06	2.3579e-06	748.56	207.33	2.2175e-06	2.2066e-06	264.98	80.836	65.165	38.543	2.1972e-06	46.933	523.597	256.351	278.926	189.419	322.994	334.606	187.800	195.180	297.462	315.981	193.055	197.035	199.771	204.705	276.989	200.654	-8191	255	
1492.988	1	1	0	0	0.0719	0.12843	0.24652	0.2674	0.22709	0.22082	0.081862	0.11917	0.072254	0.21298	0.28942	0.10093	0.15318	0.19893	0.053166	0.19264	-2.1333	-2.4125	-1.9917	-2.675	-2.3729	-2.3854	-2.8083	-2.3458	-2.3937	-2.6021	-2.0958	-2.6063	-2.5458	-2.2646	-2.6625	-2.3292	204.027	236.617	467.196	502.021	181.824	516.428	198.990	288.723	374.321	530.631	348.424	423.117	428.163	225.497	341.331	508.407	0.00063517	0.00069221	0.0001028	643.83	3.2995e-06	5.4877e-06	816.22	227.21	6.2455e-06	3.5924e-06	297.44	90.195	73.681	45.043	2.2944e-06	54.83	0.00024544	0.00021002	5.8105e-05	600.61	2.1375e-06	2.1466e-06	765.15	213.59	2.1068e-06	2.0187e-06	275.86	84.14	69.27	42.716	2.0776e-06	51.753	527.606	288.370	272.794	189.063	286.191	320.214	187.770	195.139	287.580	360.897	192.960	197.325	199.516	204.794	306.379	200.659	-8191	255	
1493.084	1	1	0	0	0.21265	0.02183	0.34965	0.22722	0.13214	0.17522	0.29497	0.09431	0.13371	0.071422	0.076382	0.060103	0.17121	0.18303	0.083951	0.32356	-1.7313	-2.5938	-2.175	-2.4417	-2.5625	-2.4521	-2.8021	-2.4104	-2.4979	-2.875	-2.1937	-2.6875	-2.575	-2.2375	-2.6646	-2.7021	526.651	500.466	469.196	500.749	273.047	299.826	490.480	414.931	195.476	282.559	534.459	209.632	243.199	369.033	355.597	488.982	0.00074128	0.00018866	7.031e-05	673.37	1.5991e-06	7.3489e-06	852.9	241.31	3.2252e-06	4.4223e-06	306.08	92.627	76.777	46.48	3.6603e-06	55.881	0.00023986	0.00018126	5.3226e-05	629.83	2.0826e-06	2.0689e-06	794.29	226.88	2.0742e-06	2.0348e-06	286.52	87.072	72.298	44.07	2.1531e-06	52.914	527.338	200.825	317.190	188.990	254.403	338.738	187.548	195.083	258.236	329.111	192.940	197.182	199.528	204.546	303.708	200.563	-8191	255	
1493.180	1	1	0	0	0.16534	0.23075	0.052598	0.23683	0.15546	0.18186	0.11502	0.24301	0.14329	0.1682	0.29154	0.077679	0.065638	0.19546	0.31588	0.20253	-1.8375	-2.6583	-2.2021	-2.4104	-2.6729	-2.1437	-2.9167	-2.5062	-2.1958	-2.8979	-2.3167	-2.5271	-2.6271	-2.2917	-2.6708	-2.5125	479.855	216.994	356.542	492.035	381.667	404.403	387.432	408.097	206.801	408.179	265.446	202.995	189.794	460.200	285.016	459.655	0.00072788	0.00040841	8.6479e-05	687.52	2.4238e-06	6.8199e-06	864.77	253.28	5.5427e-06	5.6413e-06	321.09	97.802	80.64	47.706	2.765e-06	57.112	0.00025285	0.0002081	5.5788e-05	643.59	2.2509e-06	2.3038e-06	808.49	238.37	2.3456e-06	2.3263e-06	300.38	91.553	76.1	45.234	2.3411e-06	53.932	528.407	243.974	220.411	189.284	287.326	326.209	187.540	194.879	322.870	301.279	193.000	197.396	199.576	204.285	241.441	200.380	-8191	255	
1493.276	1	1	0	0	0.051177	0.05592	0.24386	0.22176	0.098451	0.041522	0.32198	0.093587	0.1294	0.14457	0.19927	0.078578	0.39554	0.12424	0.19929	0.37495	-1.7313	-2.6063	-2.2604	-2.4646	-2.6167	-2.225	-2.7438	-2.6146	-2.2687	-2.8354	-2.3083	-2.4021	-2.8208	-2.0542	-2.4479	-2.4958	519.810	474.502	340.616	537.248	403.042	486.325	423.668	487.571	332.067	198.402	489.742	519.114	521.823	217.442	453.993	500.030	0.0007828	0.00052172	0.00012166	692.59	3.9601e-07	7.2569e-06	874.15	265.8	6.7292e-06	6.2063e-06	337.69	105.27	88.32	50.145	4.4377e-06	59.279	0.00026617	0.00022492	6.3682e-05	648.08	2.6359e-06	2.7064e-06	816.76	249.22	2.8835e-06	2.811e-06	317.61	99.096	83.401	47.476	2.8894e-06	56.027	518.256	249.980	297.894	189.016	329.320	272.905	187.748	195.322	281.203	333.490	192.690	197.125	199.455	204.469	299.403	200.581	-8191	255	
1493.372	1	1	0	0	0.095405	0.0753	0.25225	0.13824	0.19364	0.19988	0.28451	0.18504	0.13962	0.11749	0.069759	0.3371	0.31352	0.13953	0.17587	0.032311	-1.6917	-2.65	-2.2438	-2.2313	-2.5208	-2.1771	-2.5062	-2.5646	-2.2521	-2.5292	-2.4979	-2.2771	-2.6292	-2.5021	-2.3042	-2.7375	352.087	279.451	328.551	521.875	186.320	330.319	385.926	440.761	325.876	309.875	187.480	458.227	530.665	468.646	356.367	302.779	0.0006902	0.00039675	1.4553e-05	703.26	3.0119e-06	8.0806e-06	883	278.13	5.878e-06	6.2562e-06	354.53	113.92	93.892	51.482	2.7287e-06	60.056	0.00030002	0.00025474	7.007e-05	656.93	2.7356e-06	2.6927e-06	828.48	261.01	2.7101e-06	2.6203e-06	331.73	106.75	88.478	48.478	2.6104e-06	56.752	530.494	209.863	357.522	189.382	340.481	354.759	187.876	195.421	295.620	296.672	193.298	197.443	199.869	204.405	262.157	200.725	-8191	255	
1493.468	1	1	0	0	0.097881	0.24495	0.11516	0.08539	0.12934	0.42381	0.1115	0.090034	0.14685	0.18783	0.11333	0.15899	0.26493	0.065515	0.1564	0.20556	-1.4396	-2.6917	-2.4938	-2.2875	-2.8542	-2.4271	-2.3583	-2.4188	-2.2104	-2.5271	-2.5	-2.2396	-2.4583	-2.2542	-2.3438	-2.5896	429.463	180.802	191.221	276.422	230.692	358.615	294.342	214.424	508.748	459.086	531.719	531.841	500.010	434.458	473.583	531.622	0.00081251	0.00039161	0.00026831	692.89	5.645e-06	4.5238e-06	877.02	279.45	6.599e-06	2.2394e-06	366.04	122.66	100.13	53.884	6.5009e-06	63.62	0.00028071	0.00022431	6.1552e-05	648.17	2.4658e-06	2.4018e-06	823.51	262.47	2.4863e-06	2.3585e-06	342.47	115.22	94.653	51.067	2.7153e-06	59.848	526.091	232.520	258.750	189.376	303.348	331.292	187.812	195.510	255.008	275.206	193.141	197.349	199.662	204.919	302.654	200.782	-8191	255	
1493.589	1	1	0	0	0.22832	0.24067	0.31785	0.060367	0.39295	0.27655	0.34293	0.20704	0.31623	0.074875	0.061227	0.051506	0.24169	0.14818	0.2091	0.32724	-1.7375	-2.6104	-2.4854	-2.1562	-2.6125	-2.2313	-2.5354	-2.5729	-2.1646	-2.6167	-2.5396	-2.3208	-2.6708	-2.3292	-2.3625	-2.5167	237.115	458.414	382.574	465.586	318.548	396.198	509.022	520.161	498.699	387.686	296.148	537.306	535.156	517.142	500.086	429.370	0.00083513	0.00054538	0.00019049	688.31	2.2696e-06	4.6406e-06	870.63	275.05	5.4861e-06	9.1438e-06	357.01	122.41	98.052	52.141	6.3781e-06	61.998	0.00031526	0.00026009	7.2637e-05	647.19	2.7951e-06	2.8057e-06	818.11	258.15	2.8875e-06	2.829e-06	335.32	114.76	92.477	49.486	2.8053e-06	58.628	524.793	251.303	274.343	189.506	260.774	336.476	188.000	195.853	340.903	329.903	193.325	197.443	199.921	204.622	285.476	200.853	-8191	255	
1493.685	1	1	0	0	0.096797	0.14151	0.044202	0.2686	0.15768	0.18902	0.21303	0.10818	0.20191	0.22367	0.28787	0.11666	0.15269	0.25682	0.21484	0.15379	-1.5375	-2.4854	-2.4813	-2.1646	-2.6104	-2.4458	-2.4104	-2.8708	-2.1729	-2.4562	-2.8042	-2.2208	-2.7354	-2.6063	-2.2042	-2.9979	534.413	234.311	274.500	506.510	334.324	204.755	516.906	516.436	481.468	462.249	415.523	213.492	214.401	534.695	375.579	437.694	0.00079146	0.00027045	0.00019467	670.14	4.4567e-06	4.6522e-06	852.94	261.52	8.5194e-06	7.5794e-06	339.43	114.69	91.788	48.901	2.7662e-06	58.054	0.00032042	0.00026067	7.3291e-05	628.95	2.8068e-06	2.8221e-06	799.2	247.17	2.8433e-06	2.8278e-06	318.88	107.69	86.213	46.329	2.9064e-06	54.939	520.964	313.278	274.802	189.798	289.053	337.325	188.417	195.930	284.365	298.137	193.110	197.304	199.843	204.417	276.105	200.895	-8191	255	
1493.781	1	1	0	0	0.087762	0.22129	0.23227	0.22675	0.21208	0.237	0.22793	0.1496	0.14675	0.08288	0.18472	0.03505	0.17185	0.27906	0.14188	0.18653	-1.9833	-2.3479	-2.6604	-2.2271	-2.625	-2.5521	-2.2021	-2.4458	-2.3375	-2.3229	-2.6562	-2.2313	-2.6771	-2.6229	-2.1063	-2.7062	464.585	507.198	452.273	477.998	243.014	258.506	441.041	525.031	497.314	338.429	473.823	432.635	493.549	524.734	303.894	218.193	0.00067482	0.00056673	0.00010633	641.08	3.617e-06	8.7421e-06	820.41	250.06	4.5383e-06	5.8104e-06	323.95	106.37	83.847	44.813	5.3688e-06	53.556	0.00031085	0.00025776	7.1991e-05	600.87	2.9098e-06	2.7671e-06	769.69	235.45	2.9449e-06	2.7728e-06	303.86	100.27	79.352	42.445	2.9898e-06	50.625	527.473	240.111	238.238	190.081	257.029	371.947	188.203	196.022	280.460	296.905	194.009	197.759	200.295	204.842	263.307	201.054	-8191	255	
1493.853	1	1	0	0	0.16328	0.11737	0.19378	0.030665	0.13012	0.10822	0.14102	0.011836	0.025448	0.18613	0.14158	0.34095	0.46272	0.17919	0.052913	0.23789	-1.6396	-2.2646	-2.6271	-2.1937	-2.5438	-2.4333	-2.15	-2.7854	-2.1354	-2.4042	-2.8229	-2.1	-2.5854	-2.5479	-2.3292	-2.6437	248.866	286.656	512.867	245.503	330.892	492.882	400.738	532.744	448.739	459.875	313.847	193.147	488.874	507.502	191.784	468.473	0.00075261	0.00044764	0.00018954	607.26	4.2141e-06	3.7723e-06	787.43	231.59	5.2197e-06	7.6221e-06	302.6	100.5	78.714	41.64	3.8212e-06	51.061	0.00031173	0.00026628	7.3036e-05	568.74	2.8453e-06	2.7868e-06	740.59	218.13	2.8254e-06	2.7404e-06	284.43	94.448	74.302	39.458	2.6027e-06	48.294	529.327	208.318	247.749	189.918	327.981	319.818	188.260	196.039	293.384	310.396	193.710	197.446	199.686	204.913	327.405	201.339	-8191	255	
1493.974	1	1	0	0	0.12821	0.0547	0.057957	0.10175	0.19659	0.21507	0.25462	0.13816	0.06986	0.077607	0.071546	0.12245	0.19628	0.28758	0.27824	0.059468	-1.8875	-2.2854	-2.6271	-2.3792	-2.5729	-2.6813	-2.2396	-2.5333	-2.4	-2.4729	-2.6021	-2.3229	-2.5667	-2.7479	-2.1729	-2.8167	441.167	424.186	207.192	373.250	288.196	524.203	530.611	450.619	480.306	281.719	250.366	489.637	404.597	499.013	301.633	525.804	0.00065721	0.0002361	6.0379e-05	592.94	4.8222e-06	7.703e-06	780.17	226.51	6.2756e-06	2.7426e-06	295.79	98.381	77.556	39.802	2.7205e-06	49.916	0.00027599	0.00022929	6.4863e-05	556.4	2.4769e-06	2.4109e-06	733.78	212.77	2.3509e-06	2.42e-06	278.31	92.64	72.959	37.876	2.3052e-06	47.386	523.302	280.574	425.066	190.167	336.341	361.958	188.496	196.299	281.793	308.086	193.787	197.706	199.677	204.811	303.609	200.936	-8191	255	
1494.068	1	1	0	0	0.1273	0.14865	0.16603	0.49016	0.044688	0.20576	0.32417	0.10546	0.46147	0.1996	0.11258	0.11843	0.1061	0.076366	0.21473	0.10317	-1.8958	-2.3396	-2.6667	-2.5021	-2.5167	-2.4313	-2.4292	-2.7375	-2.5042	-2.2687	-2.7333	-2.3396	-2.3812	-2.7458	-2	-2.6146	376.174	212.110	341.969	506.466	292.702	244.929	423.342	220.107	180.870	496.230	202.034	354.080	345.888	254.812	220.511	425.263	0.00062113	0.00028015	7.5531e-05	597.06	3.1638e-06	4.1718e-06	775.9	229.72	2.9761e-06	1.8226e-06	298.62	99.828	79.105	40.187	3.3672e-06	50.175	0.00024325	0.00019444	5.3529e-05	558.85	2.0929e-06	2.0713e-06	730.21	215.56	2.1462e-06	2.062e-06	279.29	93.456	74.341	37.99	2.132e-06	47.663	525.079	255.396	283.382	190.197	309.882	337.944	188.423	196.182	298.189	268.249	193.368	197.280	199.422	204.875	304.195	200.802	-8191	255	
1494.164	1	1	0	0	0.26606	0.032978	0.14243	0.13174	0.22847	0.25716	0.27945	0.18052	0.16549	0.2874	0.19925	0.28892	0.11817	0.20025	0.081299	0.36375	-2.0729	-2.0958	-2.6854	-2.3542	-2.3854	-2.6771	-2.1583	-2.5417	-2.5208	-2.1667	-2.7771	-2.5625	-2.3021	-2.6833	-2.3438	-2.6729	473.141	239.865	196.030	459.160	443.164	464.789	432.127	327.092	535.873	395.369	238.563	503.668	509.826	536.361	269.814	472.637	0.00060475	0.00034683	6.1799e-05	606.38	4.2342e-06	7.6536e-06	790.91	239.88	5.3243e-06	4.5198e-06	309.43	102.91	82.091	41.093	1.9701e-06	51.729	0.00022125	0.0001908	5.1039e-05	564.97	1.9673e-06	1.9502e-06	739.88	224.2	1.9446e-06	1.889e-06	288.19	96.529	77.075	38.902	1.9133e-06	48.699	522.189	264.781	312.727	189.986	296.926	309.927	188.629	195.837	298.714	329.745	193.185	196.756	199.365	204.773	293.069	201.100	-8191	255	
1494.260	1	1	0	0	0.40341	0.084509	0.1175	0.23945	0.040927	0.10795	0.11688	0.1414	0.20216	0.10674	0.15403	0.22947	0.16233	0.34072	0.21274	0.11592	-1.8792	-2.0604	-2.5792	-2.5187	-2.1562	-2.75	-2.4813	-2.5	-2.4167	-2.0979	-2.7208	-2.6229	-2.0667	-2.6708	-2.3646	-2.5833	196.480	397.414	196.904	440.051	313.973	256.658	353.741	441.823	243.219	386.064	318.248	434.068	382.155	510.120	304.557	450.803	0.0006737	0.00042036	9.6985e-05	619.2	1.3494e-06	5.5214e-06	812.28	254.02	4.5395e-06	7.5585e-06	325.43	108.89	87.596	42.972	4.3696e-06	53.297	0.00021332	0.00016274	4.5349e-05	578.58	1.7254e-06	1.6726e-06	758.78	237.68	1.6384e-06	1.6262e-06	303.31	102.1	82.071	40.528	1.5724e-06	50.515	527.832	237.596	290.068	190.196	281.762	334.800	188.814	196.065	286.086	352.447	193.434	196.644	198.817	204.673	286.888	200.988	-8191	255	
1494.381	1	1	0	0	0.25018	0.19523	0.021969	0.22012	0.28176	0.094253	0.20529	0.2004	0.2219	0.13102	0.061943	0.32886	0.097621	0.26714	0.29586	0.22932	-1.9937	-1.9854	-2.6479	-2.375	-2.0604	-2.4479	-2.3208	-2.4625	-2.6	-2.0521	-2.5375	-2.5417	-2.1771	-2.7896	-2.3688	-2.4437	418.050	442.947	479.298	443.776	192.607	446.045	465.513	191.616	249.490	430.131	423.562	449.958	387.833	215.061	180.330	419.078	0.00073524	0.00038308	0.00014957	658.38	6.7399e-06	4.4851e-06	840.26	278.5	8.2251e-06	6.6498e-06	344.12	114.5	92.413	43.21	4.653e-06	53.283	0.00018818	0.00013396	3.7601e-05	611.98	1.4769e-06	1.3541e-06	786.14	259.99	1.4112e-06	1.2692e-06	320.24	106.98	86.869	40.868	1.2635e-06	50.201	521.962	271.100	296.125	190.347	323.039	304.725	188.606	195.477	283.115	337.849	192.498	196.304	198.301	204.538	275.471	201.169	-8191	255	
1494.477	1	1	0	0	0.14486	0.10168	0.1445	0.26681	0.27305	0.079411	0.20111	0.22023	0.19523	0.041754	0.24586	0.21526	0.11475	0.09108	0.24083	0.10994	-2.3167	-2.3646	-2.5396	-2.4292	-2.3646	-2.9396	-2.3708	-2.4	-2.6729	-2.3042	-2.65	-2.775	-2.1292	-2.5875	-2.6104	-2.4333	491.869	281.944	215.924	493.438	515.847	434.100	458.608	363.222	489.986	410.434	203.596	514.201	181.257	525.962	469.347	220.007	0.00070485	0.00038719	0.00012061	686.67	3.1865e-06	5.7197e-06	856.4	291.4	7.1338e-06	3.5955e-06	347.04	114.55	93.63	43.001	4.7929e-06	52.547	0.00016257	0.00010719	2.9854e-05	640.5	1.1776e-06	1.0863e-06	797.11	271.22	1.1378e-06	1.0844e-06	322.32	107.12	87.971	40.467	1.0999e-06	49.6	524.030	272.812	257.766	190.363	329.623	325.432	188.183	194.919	269.108	327.338	192.511	195.980	198.451	204.688	324.368	201.167	-8191	255	
1494.573	1	1	0	0	0.29075	0.11544	0.072562	0.18211	0.096222	0.31522	0.15937	0.17606	0.18897	0.29059	0.21786	0.17716	0.2487	0.22215	0.17422	0.097257	-2.0062	-2.3708	-2.5042	-2.6333	-1.9958	-2.6208	-2.6083	-2.225	-2.6729	-2.4	-2.5187	-2.5792	-2.1125	-2.6021	-2.4896	-2.2333	431.668	494.120	479.708	219.070	508.689	293.010	434.201	433.112	517.149	194.084	438.814	432.481	503.465	201.041	415.646	489.772	0.00070332	0.00034609	0.00010407	690.85	2.2654e-06	4.6931e-06	843.42	293.98	8.1536e-06	3.8152e-06	347.88	114.81	94.303	43.834	3.0168e-06	53.477	0.00015435	0.00010037	2.8673e-05	643.53	1.1343e-06	1.0566e-06	792.2	274.35	1.1677e-06	1.1209e-06	323.83	107.58	88.185	41.257	1.1311e-06	50.576	526.463	253.806	244.266	190.466	261.769	326.112	188.580	195.040	296.797	333.403	192.753	195.926	198.334	204.571	277.075	201.211	-8191	255	
1494.669	1	1	0	0	0.18679	0.19425	0.21789	0.34845	0.13562	0.13497	0.16091	0.19583	0.19202	0.1026	0.060829	0.16929	0.11983	0.081276	0.30687	0.17771	-2.1042	-2.2938	-2.2812	-2.4896	-2.0687	-2.4083	-2.5104	-2.2125	-2.6583	-2.4083	-2.3646	-2.5812	-2.4	-2.5021	-2.5146	-2.0375	408.102	221.078	229.059	489.758	279.091	323.455	485.276	468.111	517.836	497.044	473.098	416.584	339.670	502.845	423.321	397.389	0.00069668	0.00065236	0.00016483	668.35	5.2888e-06	5.3206e-06	829.55	284.7	3.6507e-06	5.161e-06	351.09	114.53	93.916	46.039	6.0539e-06	58.11	0.00015648	9.7926e-05	2.8837e-05	622.51	1.138e-06	1.0721e-06	774.37	264.66	1.1133e-06	1.1458e-06	324.24	107.42	88.145	43.461	1.2585e-06	54.591	525.433	275.339	251.622	190.529	305.921	349.411	188.325	195.632	274.373	330.370	193.159	196.821	198.465	204.382	288.846	201.021	-8191	255	
1494.766	1	1	0	0	0.21623	0.22067	0.20124	0.35864	0.11449	0.042173	0.3232	0.36816	0.20677	0.1323	0.19857	0.15563	0.086058	0.36593	0.19766	0.086441	-2.1833	-2.3479	-2.0833	-2.7333	-2.1667	-2.5208	-2.7333	-2.3479	-2.5896	-2.4271	-2.3625	-2.6396	-2.3563	-2.3333	-2.6333	-2.5083	217.787	365.338	378.057	522.493	333.253	229.445	440.339	191.069	233.289	487.819	416.490	532.820	421.508	516.388	434.478	449.739	0.00074485	0.00042088	0.00010269	667.89	3.5441e-06	2.8689e-06	855.81	296.2	7.341e-06	3.8693e-06	373.65	121.09	100.28	49.194	3.3752e-06	59.436	0.00016865	0.00011216	2.9428e-05	623.51	1.2269e-06	1.1758e-06	796.09	276.63	1.2238e-06	1.1448e-06	346.44	113.54	94.661	46.518	1.1776e-06	56.143	522.986	280.663	338.727	190.679	306.799	327.413	188.587	195.714	304.524	324.392	193.279	196.671	199.161	204.653	284.019	201.060	-8191	255	
1494.862	1	1	0	0	0.2179	0.17621	0.12835	0.15011	0.17881	0.15515	0.29303	0.21786	0.23158	0.29347	0.13327	0.10192	0.2473	0.35523	0.064333	0.25216	-1.775	-2.3979	-2.1417	-2.6562	-2.3354	-2.4292	-2.7479	-2.1896	-2.5833	-2.5187	-2.2438	-2.6375	-2.3146	-2.2333	-2.7313	-2.3937	472.562	535.405	380.739	290.705	236.711	178.239	454.945	446.341	306.396	480.049	253.986	517.772	494.794	500.589	223.451	492.661	0.00079119	0.00037834	0.00013297	679.91	2.2882e-06	3.5944e-06	859.68	298.24	5.3456e-06	5.7581e-06	377.62	124.36	103.06	50.61	5.0664e-06	61.247	0.00016923	9.7094e-05	2.6987e-05	633.13	1.0898e-06	1.0248e-06	803.69	278.4	1.0488e-06	9.8517e-07	352.08	116.33	96.882	47.666	1.1009e-06	57.703	525.911	280.928	254.287	190.716	325.242	309.482	188.187	195.837	307.981	330.452	193.002	196.892	199.062	204.543	287.768	200.922	-8191	255	
1494.981	1	1	0	0	0.22914	0.22183	0.099566	0.31509	0.24952	0.24638	0.2594	0.12084	0.1017	0.18114	0.084538	0.22644	0.13318	0.24	0.23985	0.16431	-1.9167	-2.4333	-2.0146	-2.9396	-2.5021	-2.4708	-2.9437	-2.5875	-2.3063	-2.4021	-2.2354	-2.5521	-2.3979	-2.2333	-2.3417	-2.4188	370.797	264.893	357.506	519.497	518.679	329.479	409.251	512.252	365.757	485.284	430.987	524.692	489.588	477.886	211.413	430.353	0.00080664	0.00048981	0.00017988	687.38	2.3613e-06	3.2659e-06	872.35	309.83	6.5724e-06	5.1522e-06	392.12	131.38	108.96	53.065	5.1201e-06	65.701	0.00016513	9.5612e-05	2.7803e-05	643.62	1.0501e-06	1.0844e-06	814.85	288.89	1.0741e-06	1.0089e-06	365.64	122.6	101.88	50.155	1.1305e-06	62.064	524.067	280.055	285.335	190.540	262.676	342.738	188.720	196.179	299.201	321.140	193.313	196.553	199.262	204.293	301.590	200.607	-8191	255	
1495.077	1	1	0	0	0.13451	0.18344	0.16355	0.20007	0.20131	0.13257	0.20442	0.34418	0.13908	0.052746	0.02632	0.21277	0.099761	0.35228	0.013824	0.14873	-1.975	-2.4979	-2.1937	-2.7062	-2.2458	-2.1583	-2.7208	-2.3583	-2.4167	-2.5708	-2.0396	-2.7167	-2.5187	-2.0396	-2.6229	-2.3708	444.269	516.408	428.075	509.377	268.617	230.619	399.318	433.280	229.953	507.665	353.037	524.951	515.436	218.487	513.662	502.002	0.00083598	0.00031705	9.3833e-05	704.37	3.3369e-06	5.605e-06	883.37	324.08	5.5586e-06	5.8426e-06	399.82	133.54	109.53	52.921	5.4683e-06	66.26	0.0001719	9.5665e-05	2.6716e-05	655.8	1.0686e-06	1.009e-06	827.31	302.39	1.049e-06	9.8341e-07	372.01	124.81	102.3	49.993	1.0419e-06	62.285	526.959	260.953	251.456	190.657	305.650	323.878	188.669	195.299	279.762	311.720	192.990	196.361	198.382	204.115	297.455	200.905	-8191	255	
1495.148	1	1	0	0	0.092612	0.076224	0.088525	0.19557	0.081099	0.077125	0.083052	0.15539	0.043608	0.19795	0.24775	0.10654	0.2129	0.23551	0.14545	0.27889	-1.8708	-2.7	-1.9896	-2.625	-2.5625	-2.3917	-2.8438	-2.4917	-2.2458	-2.4854	-2.425	-2.575	-2.425	-2.2146	-2.8104	-2.2521	335.034	258.895	508.887	507.419	530.927	299.184	435.108	473.149	428.021	510.029	298.547	532.528	472.801	472.227	182.037	527.774	0.00091492	0.00051624	0.00011847	705.67	3.9758e-06	6.5056e-06	882.86	325.75	7.0221e-06	7.8123e-06	402.04	133.18	109.43	52.271	3.5428e-06	65.218	0.00016892	9.0181e-05	2.386e-05	658.74	9.9618e-07	9.7115e-07	828.6	305.3	1.0521e-06	9.5528e-07	373.63	124.26	102.08	49.483	1.0227e-06	61.536	524.250	251.421	266.301	190.652	305.477	347.177	188.573	195.447	300.233	316.601	192.758	196.205	198.436	204.320	285.190	200.886	-8191	255	
1495.245	1	1	0	0	0.22015	0.14659	0.078347	0.31668	0.11811	0.098809	0.16916	0.32946	0.13942	0.26411	0.36885	0.073652	0.17928	0.040946	0.1519	0.13526	-1.8417	-2.7833	-2.1583	-2.2396	-2.6188	-2.2479	-2.7479	-2.3167	-2.375	-2.6354	-2.2833	-2.3583	-2.6437	-2.3375	-2.5771	-2.4583	469.162	511.997	238.362	211.485	235.567	242.444	497.287	526.165	226.102	184.546	518.759	209.627	535.794	224.605	377.598	265.691	0.00083069	0.00053118	0.0001662	704.14	4.7458e-06	2.7791e-06	885.26	327.19	7.3711e-06	3.9009e-06	401.38	132.45	108.88	52.727	4.3706e-06	65.856	0.00016566	8.4398e-05	2.4734e-05	659.08	1.0049e-06	9.0738e-07	824.81	305.08	1.0347e-06	9.1996e-07	370.65	123.88	101.66	49.652	9.7839e-07	62.162	523.308	259.703	283.668	190.698	307.409	343.354	188.480	195.512	306.541	339.182	192.437	196.143	198.513	204.223	275.628	200.596	-8191	255	
1495.365	1	1	0	0	0.10841	0.21904	0.049584	0.2294	0.2817	0.12098	0.25977	0.052911	0.11121	0.22167	0.11858	0.14308	0.053921	0.21073	0.29434	0.2307	-1.8021	-2.7354	-2.1875	-2.3208	-2.5125	-2.2521	-2.7	-2.4667	-2.2979	-2.8146	-2.3208	-2.4917	-2.8333	-2.3396	-2.4417	-2.3896	530.427	535.032	316.528	464.043	280.459	239.190	454.520	509.144	259.382	348.469	506.538	498.326	225.584	498.178	445.505	205.895	0.00083774	0.00061339	0.00012176	697.53	4.5091e-06	6.5217e-06	872.96	321.22	7.4808e-06	3.1774e-06	392.67	130.13	105.93	51.44	3.2265e-06	65.05	0.00015906	8.1312e-05	2.4067e-05	654.08	9.6804e-07	1.0128e-06	815.9	299.76	1.0146e-06	8.9844e-07	363.34	121.57	98.909	48.541	1.0108e-06	60.897	524.804	271.360	267.431	190.928	305.279	324.111	188.512	195.439	301.344	305.656	192.699	196.357	198.364	204.170	272.857	200.660	-8191	255	
1495.461	1	1	0	0	0.23343	0.20618	0.11141	0.21398	0.082523	0.26267	0.040718	0.17935	0.22599	0.17988	0.10573	0.33689	0.16765	0.24527	0.19022	0.010312	-1.775	-2.5646	-2.1521	-2.2062	-2.8375	-2.35	-2.5229	-2.4813	-2.1042	-2.7771	-2.5438	-2.2417	-2.6437	-2.0021	-2.4625	-2.6583	526.523	426.050	400.066	440.151	311.791	409.922	182.323	471.450	449.069	526.417	303.460	504.578	389.264	406.506	275.058	453.442	0.0008314	0.00043283	0.00013732	686.57	3.3956e-06	4.1565e-06	871.95	315.41	5.6416e-06	3.5567e-06	387.16	127.32	103.85	49.459	5.1405e-06	62.183	0.00015826	8.174e-05	2.3244e-05	643.67	9.2106e-07	8.8682e-07	813.62	294.4	9.7323e-07	8.437e-07	360.26	119.28	96.716	46.491	9.7732e-07	58.609	524.076	273.982	255.514	190.619	328.906	339.963	188.553	195.379	280.862	327.321	192.654	196.307	198.535	204.234	302.456	200.628	-8191	255	
1495.557	1	1	0	0	0.20504	0.059462	0.13315	0.14882	0.12814	0.17088	0.22294	0.14831	0.22324	0.026054	0.19718	0.081131	0.36342	0.26711	0.27361	0.11227	-1.7167	-2.6667	-2.2625	-2.1875	-2.8104	-2.2562	-2.2479	-2.3604	-2.3667	-2.6375	-2.3333	-2.2687	-2.6792	-2.4104	-2.5417	-2.725	212.983	259.820	433.708	196.331	304.564	284.847	363.515	524.609	491.993	235.537	454.546	423.954	378.723	471.030	323.549	516.055	0.00082811	0.00032653	0.00010436	676.95	3.1821e-06	4.9008e-06	862.6	303.27	4.6642e-06	5.0479e-06	375.37	122.69	98.398	46.172	5.85e-06	58.826	0.00015436	7.8731e-05	2.2035e-05	634.5	8.4603e-07	8.5213e-07	801.36	283.2	9.4148e-07	8.3365e-07	348.77	114.11	91.961	43.624	9.832e-07	55.316	524.516	261.550	286.963	190.490	307.551	303.835	188.669	195.141	291.413	281.063	192.786	196.097	198.443	204.364	295.027	201.003	-8191	255	
1495.654	1	1	0	0	0.16648	0.098316	0.23042	0.25192	0.21565	0.14437	0.083577	0.34099	0.20867	0.14557	0.4	0.23641	0.11171	0.20742	0.085879	0.16526	-1.6896	-2.5146	-2.5958	-2.0167	-2.7292	-2.2833	-2.4396	-2.5958	-2.2229	-2.4604	-2.4417	-2.3646	-2.6937	-2.4729	-2.1063	-2.6521	188.417	533.794	386.670	269.308	270.152	298.121	534.257	482.017	249.332	415.073	477.438	405.865	481.856	517.929	514.946	532.508	0.00080773	0.00048158	0.00018829	669.08	1.6932e-06	9.2813e-06	851.53	300.86	2.3053e-06	5.2178e-06	372.78	121.71	97.332	45.811	5.6127e-06	59.204	0.00014966	8.0999e-05	2.3018e-05	624.23	9.2353e-07	9.1131e-07	795.01	280.31	1.0287e-06	8.9392e-07	345.32	113.15	91.147	43.43	1.0287e-06	55.63	524.633	277.658	264.145	190.689	286.542	322.396	188.751	195.485	339.814	327.224	192.862	196.288	198.320	204.150	293.113	201.069	-8191	255	
1495.750	1	1	0	0	0.20691	0.3305	0.17472	0.26304	0.18384	0.051613	0.099475	0.3317	0.27247	0.25301	0.32297	0.54019	0.02947	0.046696	0.096822	0.20749	-1.6917	-2.5208	-2.6979	-2.0729	-2.6083	-2.2667	-2.5271	-2.8	-2.2062	-2.4875	-2.7229	-2.1375	-2.4229	-2.5417	-2.1708	-2.8021	343.620	519.698	292.885	246.490	235.819	382.992	431.099	415.928	249.500	529.887	203.150	506.665	214.328	308.963	200.444	297.376	0.00073452	0.00042978	0.00011854	669.01	4.5167e-06	3.3272e-06	847.21	298.94	6.06e-06	6.5468e-06	368.56	121.14	96.309	46.347	3.2688e-06	59.502	0.00015554	8.5941e-05	2.3875e-05	624.7	9.9848e-07	9.6087e-07	793.95	278.67	1.063e-06	9.6022e-07	343.31	112.84	90.412	43.634	1.0578e-06	55.886	524.769	279.088	273.830	190.595	320.844	320.691	188.835	195.272	308.590	313.185	192.756	196.076	198.553	204.440	289.763	200.452	-8191	255	
1495.846	1	1	0	0	0.1961	0.22108	0.05637	0.34468	0.16244	0.26997	0.12525	0.31046	0.076439	0.095361	0.10523	0.038944	0.27488	0.3908	0.14796	0.13441	-1.6917	-2.3375	-2.5333	-2.2188	-2.3312	-2.5667	-2.3375	-2.625	-2.1792	-2.3312	-2.7333	-2.2521	-2.5312	-2.6292	-2.1792	-2.5542	321.273	297.641	478.903	188.051	430.871	293.904	411.453	495.449	261.170	296.983	454.262	248.684	290.913	511.483	323.212	400.644	0.00082154	0.00018113	0.00013696	653.02	4.0052e-06	6.7015e-06	833.42	288.82	5.8082e-06	4.5278e-06	362.01	119.97	95.058	46.546	4.6194e-06	60.113	0.00016176	9.4481e-05	2.603e-05	610.51	1.0733e-06	1.0043e-06	780.4	269.97	1.1321e-06	1.0248e-06	336.77	111.78	89.427	43.818	1.1235e-06	56.5	522.998	274.638	305.311	190.280	315.402	321.801	188.611	196.033	299.902	337.120	193.375	196.687	198.522	204.003	273.848	200.534	-8191	255	
1495.942	1	1	0	0	0.091734	0.09885	0.15534	0.28539	0.13473	0.1299	0.077933	0.29416	0.026229	0.36114	0.060329	0.059996	0.2429	0.31445	0.22798	0.21895	-1.8396	-2.2	-2.5833	-2.0875	-2.4542	-2.4688	-2.4021	-2.5312	-2.2562	-2.2687	-2.9083	-2.2562	-2.6604	-2.525	-2.2021	-2.6292	533.822	246.132	478.965	470.889	207.701	192.956	517.691	523.132	326.828	246.435	483.361	475.619	515.615	464.347	459.071	489.950	0.00081236	0.00015136	0.00016847	650.64	4.1247e-06	3.4982e-06	831.77	291.36	8.044e-06	4.8449e-06	368.35	120.89	98.15	47.69	3.3378e-06	61.496	0.00016838	0.000101	2.7803e-05	610.88	1.1306e-06	1.1274e-06	780.04	271.43	1.1369e-06	1.0523e-06	341.78	113.07	91.515	45.04	1.194e-06	57.895	527.257	336.872	280.619	190.445	315.568	321.796	188.800	195.752	300.290	334.652	193.050	196.630	198.833	204.292	306.637	200.606	-8191	255	
1496.063	1	1	0	0	0.20225	0.25432	0.10626	0.15381	0.062285	0.31002	0.092181	0.35048	0.080007	0.19326	0.20708	0.25226	0.1707	0.16814	0.0893	0.36984	-2.0333	-2.2188	-2.5667	-2.2771	-2.3479	-2.4792	-2.3937	-2.7958	-2.2792	-2.2417	-2.7458	-2.3688	-2.4313	-2.7896	-2.2729	-2.6813	315.507	507.921	375.450	377.673	499.392	312.811	500.263	510.244	520.358	264.919	516.077	479.116	474.016	223.244	461.649	486.936	0.00077029	0.00059788	0.00016609	665.33	4.4105e-06	4.9028e-06	845.88	296.19	5.0232e-06	7.507e-06	374.76	122.37	98.976	47.329	2.8834e-06	60.89	0.00016837	9.7972e-05	2.6518e-05	620.68	1.0791e-06	1.0469e-06	792.14	276.74	1.1637e-06	1.0503e-06	347.66	113.97	92.809	44.785	1.1875e-06	57.228	525.704	265.505	304.368	190.541	320.735	313.705	188.496	195.439	284.525	325.750	193.019	196.485	198.476	204.587	297.552	200.513	-8191	255	
1496.157	1	1	0	0	0.033382	0.17808	0.31165	0.30385	0.17486	0.1154	0.087768	0.18704	0.088477	0.20679	0.11607	0.1888	0.18058	0.34305	0.013742	0.13654	-2.0292	-2.1771	-2.6375	-2.4	-2.2542	-2.9083	-2.2771	-2.6271	-2.5938	-2.2812	-2.9646	-2.4021	-2.3667	-2.7042	-2.3083	-2.725	409.740	198.863	211.116	458.227	255.124	348.756	534.007	184.624	431.251	194.975	284.982	496.371	188.929	226.058	482.095	329.349	0.00081071	0.00041072	0.00010001	670.99	4.8608e-06	4.7558e-06	850.02	291.16	5.8041e-06	6.3556e-06	368.1	118.48	96.225	45.899	5.0724e-06	58.819	0.00017102	0.0001034	2.9722e-05	623.42	1.2071e-06	1.1623e-06	794.22	273.33	1.275e-06	1.2166e-06	341.33	110.81	90.049	43.549	1.2146e-06	55.537	525.777	248.686	293.288	190.562	322.835	322.527	188.515	195.885	315.269	308.252	193.402	196.158	198.759	204.191	276.355	200.931	-8191	255	
1496.253	1	1	0	0	0.16309	0.057795	0.20232	0.16696	0.27172	0.23406	0.29102	0.13794	0.32864	0.1101	0.1483	0.19005	0.12591	0.093364	0.14203	0.22859	-2.1208	-1.8646	-2.6583	-2.3583	-2.3542	-2.65	-2.3854	-2.675	-2.3604	-2.2396	-2.7	-2.4813	-2.4562	-2.5896	-2.1417	-2.4833	295.789	460.382	525.943	228.735	524.536	191.088	495.738	358.250	389.851	347.379	384.016	379.987	206.785	429.806	490.524	524.044	0.0007479	0.00052483	7.9437e-05	662.89	4.121e-06	6.5272e-06	846.64	288.38	5.4877e-06	3.3308e-06	360.77	115.16	92.38	44.981	3.623e-06	57.209	0.00017485	0.00011341	3.0283e-05	620.07	1.2222e-06	1.2278e-06	792.03	268.85	1.2761e-06	1.2459e-06	335.72	107.65	87.166	42.395	1.24e-06	53.925	525.755	284.324	270.569	190.535	313.693	298.596	188.375	195.960	274.353	308.412	193.184	196.413	198.646	204.253	298.980	200.864	-8191	255	
1496.374	1	1	0	0	0.10498	0.029358	0.19109	0.22955	0.26616	0.085938	0.1848	0.018778	0.098654	0.11221	0.27742	0.13936	0.13804	0.35583	0.22503	0.24656	-1.9813	-2.0604	-2.5958	-2.3833	-2.1937	-2.5062	-2.6021	-2.3583	-2.4729	-2.3479	-2.525	-2.5542	-2.3229	-2.8812	-2.3458	-2.2062	521.944	208.951	269.168	518.526	336.824	473.352	535.868	409.067	226.355	358.034	180.484	289.035	504.867	515.685	457.220	476.023	0.0007586	0.00036801	0.0001338	656.29	5.4727e-06	5.7103e-06	833.08	279.09	4.2645e-06	3.3585e-06	345.22	110.39	88.67	43.221	3.0773e-06	54.432	0.00017523	0.00011313	3.209e-05	614.77	1.2635e-06	1.2057e-06	778.55	260.71	1.253e-06	1.2393e-06	322.36	103.13	83.073	40.86	1.3318e-06	51.448	524.404	285.376	269.112	190.280	318.702	333.279	188.670	195.697	290.906	330.808	193.099	196.462	198.468	204.437	296.467	200.713	-8191	255	
1496.446	1	1	0	0	0.2316	0.050253	0.32377	0.29659	0.078094	0.093598	0.3959	0.26193	0.18518	0.27238	0.12831	0.16977	0.12571	0.22819	0.13042	0.25107	-2.3604	-2.0542	-2.3937	-2.6583	-2.25	-2.7542	-2.5	-2.3375	-2.6396	-2.4229	-2.6354	-2.4313	-2.2708	-2.5958	-2.3063	-2.3708	319.331	394.036	253.636	457.202	404.757	493.420	440.460	492.024	353.130	306.904	517.362	224.698	469.358	467.691	460.791	519.752	0.0007233	0.00019581	0.00011801	651.45	2.3023e-06	2.4647e-06	825.04	276.54	3.8608e-06	6.9194e-06	342.56	108.08	87.834	43.129	4.0231e-06	54.437	0.00017805	0.00012293	3.2263e-05	610.72	1.3388e-06	1.2874e-06	771.52	257.5	1.3852e-06	1.2664e-06	319.28	100.96	82.64	40.758	1.2831e-06	51.381	528.534	245.411	230.716	190.506	284.700	336.073	188.719	195.829	306.407	318.835	192.607	196.028	198.433	204.122	296.180	200.730	-8191	255	
1496.542	1	1	0	0	0.33398	0.032809	0.34873	0.018602	0.095717	0.27527	0.16688	0.28238	0.14782	0.1719	0.23117	0.14123	0.10652	0.26366	0.10989	0.070804	-2.275	-1.9958	-2.2708	-2.8521	-2.2062	-2.5583	-2.4792	-2.55	-2.7958	-2.2333	-2.5563	-2.9667	-2.1396	-2.6542	-2.5333	-2.35	463.952	492.883	392.930	433.036	278.972	437.824	436.036	463.166	387.021	476.078	457.780	179.474	188.518	302.386	430.498	443.589	0.00069718	0.00049906	0.0001156	660.44	2.8817e-06	3.6304e-06	829.38	280.83	4.2166e-06	8.6428e-06	342.99	108.38	88.43	43.656	5.45e-06	55.215	0.00017725	0.00012145	3.4787e-05	619.09	1.3205e-06	1.2996e-06	774.91	262.04	1.4234e-06	1.3223e-06	321.51	101.56	83.258	41.399	1.3603e-06	51.953	523.716	247.841	273.920	190.502	295.698	300.005	188.945	195.432	290.393	317.374	192.982	196.329	198.021	204.227	286.960	200.721	-8191	255	
1496.662	1	1	0	0	0.23359	0.14855	0.22783	0.30304	0.21533	0.070384	0.37476	0.017625	0.15221	0.22034	0.15616	0.23095	0.27913	0.22406	0.17909	0.077205	-2.0042	-2.2896	-2.3771	-2.7604	-2.2042	-2.6229	-2.4437	-2.3438	-2.6333	-2.2604	-2.4542	-2.5875	-2.3042	-2.6667	-2.3333	-2.3187	501.142	283.541	276.794	453.108	426.087	463.197	499.173	424.831	489.072	456.522	520.074	449.205	209.195	380.278	328.161	535.243	0.00069631	0.0005252	0.00017644	677.8	3.3849e-06	5.9868e-06	838.07	289.2	5.7314e-06	5.8659e-06	355.65	110.55	91.058	44.563	4.899e-06	56.002	0.00018052	0.00012544	3.2905e-05	630.62	1.4063e-06	1.3235e-06	784.39	269.91	1.4149e-06	1.384e-06	330.18	103.33	85.285	42.22	1.3948e-06	52.813	523.440	235.400	237.758	190.212	290.687	332.578	188.380	195.575	298.879	355.972	192.948	196.300	198.664	203.760	262.160	200.659	-8191	255	
1496.758	1	1	0	0	0.14213	0.30779	0.11576	0.27961	0.036579	0.062745	0.11048	0.073199	0.099254	0.11223	0.17431	0.15776	0.055883	0.13617	0.15243	0.092302	-1.9438	-2.2354	-2.325	-2.6792	-2.3792	-2.4667	-2.7208	-2.1583	-2.6312	-2.3708	-2.4104	-2.8625	-2.1875	-2.6604	-2.3937	-2.4813	392.041	181.684	296.997	475.418	347.114	272.192	287.651	238.807	249.890	509.796	429.758	327.304	367.105	252.851	385.471	373.260	0.0007322	0.0003366	0.00015335	688.51	2.7764e-06	5.1741e-06	856.4	301.37	6.2897e-06	6.5117e-06	369.5	113.81	94.303	46.254	4.4458e-06	57.266	0.00017914	0.00011705	3.3293e-05	643.78	1.3627e-06	1.2643e-06	799.66	282.46	1.3298e-06	1.3126e-06	344.08	106.57	88.686	43.621	1.4216e-06	54.137	524.716	273.665	266.122	190.521	283.753	329.772	188.686	195.426	276.711	334.614	192.764	196.241	198.335	204.195	303.179	200.643	-8191	255	
1496.855	1	1	0	0	0.041959	0.073689	0.12927	0.43024	0.13112	0.22164	0.1878	0.16853	0.30893	0.19067	0.090547	0.092671	0.1655	0.33513	0.1938	0.17617	-2.1542	-2.4479	-2.075	-2.8167	-2.2062	-2.5938	-2.8042	-2.3271	-2.4333	-2.4437	-2.2583	-2.6104	-2.575	-2.4229	-2.5	-2.1625	235.683	520.272	341.163	501.943	388.139	276.468	453.369	180.093	348.141	263.066	277.823	530.723	177.609	473.437	393.638	377.586	0.00074258	0.00024365	0.00012574	716.21	4.8447e-06	7.0708e-06	889.47	319.09	8.5696e-06	5.6841e-06	393.73	120.24	102.57	50.201	3.8728e-06	61.807	0.00018491	0.00012074	3.5235e-05	669.65	1.4316e-06	1.3564e-06	830.9	299.15	1.4577e-06	1.4491e-06	366.02	112.59	96.304	47.481	1.6824e-06	58.327	524.720	288.012	251.278	190.778	295.611	325.827	188.619	195.080	288.029	344.274	193.022	196.369	198.288	204.241	303.515	201.011	-8191	255	
1496.949	1	1	0	0	0.22458	0.16961	0.10574	0.075596	0.13645	0.17969	0.091791	0.28973	0.044633	0.16617	0.11656	0.07664	0.13802	0.35193	0.33056	0.14362	-2.0896	-2.2417	-2.3292	-2.6729	-2.3604	-2.4354	-2.7104	-2.3958	-2.55	-2.5958	-2.4833	-2.7354	-2.1521	-2.3771	-2.6667	-2.2229	382.432	359.179	280.021	191.809	321.991	217.761	526.854	189.246	494.970	423.026	457.514	215.210	202.281	505.765	402.972	451.789	0.00076255	0.0004172	0.00015496	817.88	5.0304e-06	6.153e-06	1000.4	364.85	4.5979e-06	6.423e-06	447.11	140.8	122.31	56.494	5.6563e-06	68.859	0.00021516	0.00015191	4.1627e-05	766.17	1.6754e-06	1.6189e-06	936.84	341.56	1.6818e-06	1.616e-06	416.31	132.31	114.9	53.594	1.7085e-06	64.962	522.779	267.713	251.802	190.204	305.578	355.401	188.306	195.446	258.303	324.463	192.635	196.583	198.689	204.389	328.372	200.976	-8191	255	
1497.045	1	1	0	0	0.18792	0.12428	0.082628	0.20896	0.1721	0.19331	0.21497	0.059122	0.20486	0.15671	0.2236	0.090246	0.23442	0.40775	0.10624	0.11324	-2.1	-2.375	-2.0875	-2.7604	-2.2375	-2.4437	-2.7854	-2.4021	-2.4313	-2.4792	-2.5021	-2.7313	-2.4792	-2.4562	-2.4958	-2.4854	321.446	486.399	231.071	501.804	396.468	498.977	501.444	248.211	377.637	422.533	490.483	453.535	462.219	513.962	333.628	446.627	0.00092475	0.00031924	0.00021932	836.5	5.2078e-06	6.9412e-06	1021	375.99	4.0522e-06	6.8527e-06	470.17	162.92	139.71	62.112	5.2244e-06	72.761	0.00022507	0.0001493	4.2126e-05	781.23	1.6874e-06	1.6885e-06	954.5	352.8	1.7392e-06	1.6798e-06	437.79	152.94	131.75	58.553	1.6926e-06	68.636	526.607	268.445	256.056	190.069	299.933	316.637	188.178	195.634	287.017	325.619	193.178	196.736	199.546	204.442	316.095	201.015	-8191	255	
1497.141	1	1	0	0	0.1177	0.21681	0.058563	0.18614	0.18526	0.098481	0.14352	0.096707	0.060017	0.20946	0.078773	0.1992	0.2794	0.089726	0.20863	0.22068	-2.1312	-2.3708	-2.1604	-2.4667	-2.6146	-2.3021	-2.7229	-2.5938	-2.3208	-2.6104	-2.0917	-2.5479	-2.6479	-2.2771	-2.6063	-2.45	199.909	463.254	446.903	511.577	346.819	210.576	497.622	534.885	280.154	461.569	446.570	472.329	423.023	506.671	480.026	483.901	0.00089187	0.00066709	0.00022913	842.96	3.4894e-06	1.0426e-05	1029.6	386.09	7.6805e-06	7.093e-06	469.99	154.63	134.69	58.574	6.3227e-06	68.515	0.00022713	0.00014354	3.9937e-05	789.32	1.4947e-06	1.4737e-06	963.28	360.88	1.4523e-06	1.2725e-06	438.49	145.41	126.62	55.526	1.3281e-06	64.722	525.231	278.702	257.146	190.178	318.912	330.455	188.388	195.604	286.809	316.811	193.274	196.915	198.964	204.487	301.614	201.198	-8191	255	
1497.237	1	1	0	0	0.13424	0.31261	0.14764	0.17724	0.10292	0.16629	0.1912	0.098423	0.044845	0.25925	0.20634	0.17273	0.068728	0.0084132	0.15816	0.32298	-1.95	-2.6208	-2.3167	-2.4458	-2.5021	-2.1562	-2.6042	-2.4313	-2.3937	-2.5458	-2.2875	-2.5896	-2.4542	-2.3563	-2.6771	-2.4813	213.876	316.434	428.541	196.988	225.756	264.859	469.242	495.160	213.441	307.201	505.176	246.448	516.060	472.491	335.169	483.713	0.00088449	0.00038972	0.00017322	845.17	5.1626e-06	5.6388e-06	1033.7	384.46	4.5591e-06	4.0239e-06	462.79	147.84	126.3	56.328	3.8124e-06	67.387	0.00019059	0.00011284	3.2881e-05	790.6	1.2709e-06	1.1652e-06	963.93	359.45	1.3619e-06	1.167e-06	430.13	138.14	118.41	53.433	1.2487e-06	63.506	526.444	277.932	296.063	190.159	337.982	343.509	188.496	195.501	318.788	362.269	193.030	196.843	198.730	204.720	291.120	201.139	-8191	255	
1497.334	1	1	0	0	0.12699	0.14624	0.46779	0.34136	0.18778	0.2261	0.32192	0.13649	0.20562	0.17557	0.062501	0.1484	0.20086	0.14105	0.13372	0.036673	-1.9438	-2.5646	-2.4583	-2.4938	-2.3542	-2.2708	-2.7146	-2.3771	-2.5062	-2.6708	-2.2729	-2.5375	-2.8812	-2.2354	-2.5833	-2.7104	186.987	526.101	498.398	521.634	358.650	360.440	511.447	445.645	207.608	530.668	178.078	237.428	476.707	491.875	467.434	367.979	0.00087616	0.00051182	0.00017815	829.62	3.829e-06	6.9746e-06	1004.3	379.25	8.6068e-06	4.0057e-06	458.83	144.5	122.51	55.985	5.8492e-06	68.642	0.00018864	0.00010581	3.0182e-05	774.23	1.1966e-06	1.1798e-06	944.56	355.17	1.207e-06	1.1435e-06	426.9	135.2	114.86	52.985	1.1565e-06	64.619	523.760	280.033	273.148	190.534	315.305	322.135	188.415	195.322	296.645	333.009	192.960	196.638	198.795	204.545	315.761	200.967	-8191	255	
1497.454	1	1	0	0	0.12941	0.18094	0.051798	0.13743	0.17907	0.23062	0.085195	0.24781	0.31547	0.12091	0.47108	0.23607	0.22773	0.18488	0.21349	0.14828	-1.6167	-2.675	-2.3958	-2.3271	-2.7792	-2.1729	-2.55	-2.6646	-2.1937	-2.6437	-2.4104	-2.6333	-3.0771	-2.3937	-2.5354	-2.5521	212.958	272.318	442.051	191.135	426.830	184.784	224.815	409.897	224.793	363.931	457.650	222.400	179.720	417.610	319.889	472.358	0.00090605	0.00040082	0.00023097	791.43	2.752e-06	5.6423e-06	975.78	369.04	6.5019e-06	5.261e-06	451.37	147.08	121.83	57.334	6.8054e-06	73.038	0.00017536	9.6781e-05	2.8102e-05	740.53	1.1483e-06	1.0422e-06	913.27	344.61	1.1716e-06	1.0897e-06	421.11	137.68	114.01	54.131	1.1264e-06	68.82	524.655	273.877	279.507	190.581	305.280	316.414	188.692	195.662	292.974	332.856	192.959	196.554	198.429	204.216	282.308	201.266	-8191	255	
1497.550	1	1	0	0	0.14675	0.22114	0.17153	0.29962	0.032344	0.32514	0.28943	0.066467	0.25824	0.076738	0.21276	0.27511	0.16717	0.17098	0.15693	0.24001	-1.9	-2.6583	-2.45	-2.4667	-2.6479	-2.2042	-2.6417	-2.4229	-2.2667	-2.5896	-2.575	-2.4833	-2.6354	-2.5667	-2.3458	-2.6583	536.330	407.251	413.357	506.891	370.893	268.023	400.717	415.189	500.869	345.726	215.241	493.741	521.196	487.865	412.949	509.436	0.00099738	0.00064609	0.00019409	782.89	3.6478e-06	8.3089e-06	989.12	381.45	7.1794e-06	8.6876e-06	472.03	155.22	125.73	59.913	5.5134e-06	75.939	0.00018381	9.3786e-05	2.6674e-05	733.97	1.0851e-06	1.1081e-06	922.13	356.46	1.2122e-06	1.1471e-06	439.09	144.81	118.39	56.499	1.2595e-06	71.827	526.679	276.562	295.075	190.807	314.359	290.391	188.870	195.413	291.432	311.677	192.785	196.416	198.290	204.330	308.415	200.944	-8191	255	
1497.647	1	1	0	0	0.17857	0.2282	0.13818	0.095231	0.069731	0.030365	0.23467	0.1769	0.12137	0.30498	0.27932	0.24694	0.18916	0.24359	0.2358	0.10296	-1.7146	-2.7042	-2.3479	-2.5354	-2.5979	-2.3875	-2.525	-2.65	-2.1333	-2.675	-2.5458	-2.3187	-2.7938	-2.3396	-2.55	-2.7917	473.493	466.846	269.166	511.647	436.709	190.790	441.900	431.025	426.821	232.160	306.844	485.301	457.559	434.352	486.770	458.950	0.0010173	0.00083592	0.0001714	790.93	5.3626e-06	5.9191e-06	983.2	381.18	8.1489e-06	5.334e-06	472.94	157.31	127.09	60.925	5.1605e-06	78.67	0.00020213	0.0001131	3.1508e-05	740.46	1.2205e-06	1.1574e-06	919.04	356.16	1.2403e-06	1.1442e-06	438.07	146.75	119.62	57.68	1.3903e-06	74.181	524.822	283.552	269.449	190.258	299.704	293.105	188.595	195.240	314.413	325.652	192.676	196.334	198.318	204.574	286.784	200.674	-8191	255	
1497.743	1	1	0	0	0.14952	0.21483	0.077984	0.14731	0.010973	0.1012	0.23645	0.089596	0.10397	0.24399	0.33885	0.15774	0.17095	0.16365	0.20352	0.32965	-1.9042	-2.3312	-2.5312	-2.2396	-2.6708	-2.45	-2.4229	-2.8146	-2.1396	-2.5187	-2.6958	-2.2521	-2.6479	-2.6604	-2.4354	-2.7854	384.166	423.932	375.264	424.130	358.986	449.019	530.323	333.419	386.068	366.930	501.694	378.784	404.794	260.276	262.470	460.848	0.001003	0.00048643	0.00020049	809.54	6.0182e-06	3.9766e-06	1011.5	390.03	4.5626e-06	7.7838e-06	485.46	166.46	137.46	63.842	7.8738e-06	80.108	0.0002142	0.00012422	3.4022e-05	756.25	1.3651e-06	1.2792e-06	944.87	365.45	1.3182e-06	1.354e-06	451.79	155.13	129.42	60.286	1.5576e-06	75.679	526.156	266.431	274.061	190.582	305.427	322.786	188.620	195.323	328.880	333.343	192.888	196.427	198.398	204.383	308.330	200.967	-8191	255	
1497.839	1	1	0	0	0.096273	0.15015	0.069629	0.18071	0.17934	0.23056	0.30519	0.1434	0.14117	0.11012	0.30685	0.10858	0.18198	0.26996	0.10794	0.18528	-1.8646	-2.4625	-2.5167	-2.3125	-2.45	-2.1104	-2.4437	-2.8104	-2.2562	-2.5687	-2.6396	-2.2521	-2.8146	-2.4729	-2.2833	-2.8708	481.309	243.621	372.870	445.693	466.766	387.433	410.624	451.862	241.969	237.795	509.062	444.111	526.329	191.287	469.701	435.243	0.0010377	0.00066331	0.00017242	847.56	3.6981e-06	6.6436e-06	1019.3	392.93	9.5277e-06	7.7225e-06	478.94	161.6	136.03	59.301	3.8415e-06	70.061	0.00022183	0.00014117	3.781e-05	789.61	1.5923e-06	1.6005e-06	956.45	368.42	1.6917e-06	1.5363e-06	446.14	151.57	127.88	55.979	1.6372e-06	66.01	524.790	281.464	284.936	190.495	288.530	326.654	188.456	195.568	295.416	298.684	193.030	196.390	198.901	204.855	311.560	201.145	-8191	255	
1497.935	1	1	0	0	0.10643	0.042279	0.20731	0.36434	0.051828	0.10813	0.1147	0.21786	0.19524	0.15971	0.17991	0.14872	0.17977	0.22724	0.16415	0.11268	-1.5458	-2.4062	-2.5042	-2.2583	-2.5875	-2.7104	-2.2729	-2.6583	-2.4979	-2.3563	-2.6	-2.4396	-2.5521	-2.5167	-2.4125	-2.7896	287.666	508.881	249.174	489.187	390.105	245.292	200.049	472.891	382.041	377.950	183.403	523.962	526.934	216.558	289.203	418.196	0.0008767	0.00029758	0.00016056	840.04	3.3654e-06	6.284e-06	990.82	377.88	6.4658e-06	5.9592e-06	443.98	137.98	120.14	53.933	5.7886e-06	63.174	0.00021566	0.00013638	3.6637e-05	780.63	1.4461e-06	1.5026e-06	929.74	354.33	1.6219e-06	1.4872e-06	413.02	129.23	112.76	51.061	1.7094e-06	59.615	525.263	278.559	298.614	190.270	301.445	352.962	188.381	195.438	296.671	304.621	192.851	196.497	198.815	204.788	304.017	201.225	-8191	255	
1498.054	1	1	0	0	0.32844	0.14142	0.1848	0.18814	0.2027	0.11769	0.25193	0.14123	0.16807	0.19525	0.10703	0.05065	0.21607	0.065223	0.16016	0.098393	-1.8854	-2.2583	-2.6854	-2.4083	-2.2042	-2.7938	-2.3854	-2.575	-2.3792	-2.3583	-2.8792	-2.3625	-2.5292	-2.7562	-2.0417	-2.7438	320.268	188.076	241.690	435.099	393.312	216.726	451.487	506.651	393.372	387.734	399.866	290.780	515.982	466.677	426.346	277.657	0.00082169	0.00041606	0.00011487	821.63	5.8319e-06	6.8313e-06	960.68	359.27	2.9055e-06	9.466e-06	410.98	125	109.43	49.185	4.8546e-06	58.202	0.0002302	0.00017939	4.928e-05	765.58	2.0808e-06	2.0661e-06	905.08	336.44	2.2388e-06	2.2161e-06	383.13	116.73	103.17	46.788	2.3583e-06	55.19	527.530	277.744	304.030	190.190	343.680	310.785	188.540	195.266	322.401	322.275	193.069	196.490	198.700	204.776	267.881	201.284	-8191	255	
1498.150	1	1	0	0	0.44561	0.25755	0.10139	0.1361	0.061216	0.061405	0.21602	0.192	0.14081	0.095509	0.19194	0.2292	0.25222	0.31076	0.023272	0.12933	-1.9583	-2.1042	-2.6729	-2.1437	-2.4417	-2.7083	-2.3083	-2.7708	-2.2375	-2.375	-2.8354	-2.2417	-2.5708	-2.7854	-2.1021	-2.6417	343.322	304.316	362.405	530.954	442.502	258.618	518.538	449.059	257.414	479.279	500.100	484.466	505.655	465.898	300.485	431.231	0.00076245	0.00034328	7.5601e-05	787.67	4.9116e-06	6.2189e-06	938.19	346.01	6.9186e-06	6.1255e-06	405.88	122.83	107.76	49.083	4.9629e-06	58.053	0.00027128	0.00021732	6.1601e-05	741.72	2.4123e-06	2.457e-06	880.89	325.21	2.584e-06	2.5324e-06	377.99	115.74	101.39	46.58	2.6812e-06	54.961	525.065	238.736	306.007	190.175	316.618	341.579	188.670	195.614	282.759	346.056	193.007	196.476	198.567	205.052	271.622	201.480	-8191	255	
1498.246	1	1	0	0	0.20618	0.25133	0.15687	0.020269	0.13747	0.19936	0.18584	0.19059	0.32589	0.22022	0.13443	0.46294	0.049299	0.13292	0.03934	0.10511	-1.9146	-2.2604	-2.5604	-2.2979	-2.375	-2.5208	-2.1979	-2.6708	-2.5333	-2.0917	-3.0687	-2.3812	-2.3354	-2.7313	-2.2562	-2.7771	438.409	296.485	230.615	349.652	435.962	218.391	475.470	491.232	182.986	204.628	179.213	494.226	501.004	229.856	341.629	205.094	0.00074598	0.00062266	0.00018008	784.56	4.9354e-06	4.3703e-06	925.48	346.25	4.4607e-06	3.6054e-06	402.57	122.95	107.87	49.373	2.0037e-06	58.794	0.00028411	0.00023501	6.4428e-05	734.17	2.5029e-06	2.508e-06	867.99	323.46	2.4424e-06	2.3824e-06	376.63	115.68	101.29	46.72	1.9932e-06	55.644	519.866	291.828	224.505	190.201	309.731	258.729	188.248	195.415	298.626	369.435	192.974	196.653	198.914	205.033	296.671	201.525	-8191	255	
1498.342	1	1	0	0	0.16168	0.053585	0.086839	0.22653	0.25485	0.056231	0.072812	0.13051	0.25297	0.16134	0.26679	0.30236	0.19528	0.24848	0.12133	0.29127	-1.9188	-2.175	-2.5563	-2.5812	-2.3583	-2.7396	-2.5917	-2.6354	-2.7229	-2.1958	-2.6208	-2.525	-2.1458	-3.0896	-2.2958	-2.5896	360.304	187.210	440.948	470.655	282.446	274.524	503.495	522.321	353.143	212.102	184.689	450.520	442.227	488.687	429.425	488.493	0.00070969	0.00022973	0.00016009	791.53	2.675e-06	7.2138e-06	927.43	351.95	5.1232e-06	4.8897e-06	411.74	124.34	107.93	48.592	4.1965e-06	58.095	0.00023453	0.00018901	5.2473e-05	739.78	2.2349e-06	2.1447e-06	871.38	331.32	2.0923e-06	2.0351e-06	384.61	117.06	101.86	46.088	1.9187e-06	54.714	524.913	284.916	292.669	190.480	305.867	366.437	188.473	195.311	279.966	308.339	193.138	196.778	198.825	204.853	265.561	201.631	-8191	255	
1498.438	1	1	0	0	0.22245	0.2586	0.054037	0.079325	0.17243	0.14863	0.35758	0.10938	0.22494	0.23194	0.26699	0.26815	0.045899	0.12588	0.091958	0.22962	-2.2021	-2.2083	-2.7104	-2.525	-2.4583	-2.6604	-2.5604	-2.7208	-2.5521	-2.1875	-2.5542	-2.6458	-2.2125	-2.7812	-2.4021	-2.325	510.492	454.243	233.455	475.244	360.516	225.025	444.714	219.839	466.392	347.221	489.607	181.687	527.524	429.260	298.441	468.370	0.00079789	0.00067568	0.00022369	785.7	7.4351e-07	5.99e-06	928.76	351.82	6.7843e-06	3.832e-06	415.78	125.98	109.28	48.281	5.6191e-06	56.789	0.00022147	0.00016626	4.5707e-05	736.63	1.791e-06	1.74e-06	872.17	331.14	2.0146e-06	2.0138e-06	387.1	118.04	103.63	45.522	2.6525e-06	53.946	523.228	252.577	287.559	189.955	442.989	311.586	188.405	195.303	284.508	308.336	192.674	196.552	198.778	204.964	291.584	201.776	-8191	255	
1498.535	1	1	0	0	0.06099	0.17261	0.15917	0.35217	0.22331	0.2018	0.29972	0.16688	0.15231	0.20615	0.18026	0.19901	0.18238	0.09559	0.13613	0.095682	-2.3187	-2.275	-2.4729	-2.5208	-2.3604	-2.8146	-2.4021	-2.4854	-2.8979	-2.1396	-2.6437	-2.5792	-2.3375	-2.7292	-2.3729	-2.4333	389.011	516.005	469.185	513.067	274.401	220.621	178.877	516.162	438.309	450.192	407.734	473.363	520.032	524.106	536.249	362.633	0.00071245	0.00076574	0.00014587	789.31	3.2301e-06	9.1785e-06	923.02	345.71	7.2919e-06	7.8125e-06	391.93	113.77	100.04	43.811	3.0528e-06	51.546	0.00030114	0.00026856	7.3686e-05	739.45	2.374e-06	2.1419e-06	862.71	323.56	1.4797e-06	1.3069e-06	364.96	106.58	93.747	41.473	1.1519e-06	48.665	524.547	257.781	264.660	190.065	281.476	303.721	188.102	195.628	274.452	320.211	192.660	196.740	198.917	204.812	294.181	201.253	-8191	255	
1498.631	1	1	0	0	0.22035	0.10413	0.050607	0.20274	0.36718	0.20266	0.18623	0.20737	0.17999	0.15298	0.12855	0.32079	0.39197	0.15614	0.093415	0.17718	-2.2917	-2.1437	-2.3896	-2.5021	-2.1396	-2.8229	-2.4875	-2.4146	-2.6042	-2.3063	-2.5583	-2.7812	-2.1125	-2.7583	-2.275	-2.4208	417.901	504.034	531.239	193.343	352.903	227.766	527.452	444.068	199.139	203.991	512.114	534.403	491.999	197.035	529.074	400.837	0.00068663	0.00057023	9.9695e-05	761.55	5.3685e-06	5.3055e-06	887.81	324.32	5.6337e-06	4.7618e-06	356.12	103.79	90.788	38.909	6.0632e-06	44.716	0.00015625	0.00011249	3.2777e-05	711.98	1.4413e-06	1.423e-06	828.25	303.74	1.7394e-06	1.7807e-06	330.89	97.119	85.408	36.873	2.3804e-06	42.576	524.042	266.044	250.278	190.215	299.065	322.300	188.366	195.345	268.215	309.073	192.475	196.547	198.592	204.654	280.369	200.941	-8191	255	
1498.751	1	1	0	0	0.22226	0.30398	0.081401	0.10989	0.20863	0.06304	0.21134	0.21211	0.11881	0.26104	0.17742	0.40088	0.19717	0.18369	0.097957	0.087652	-2.25	-2.0542	-2.4562	-2.7896	-2.1833	-2.6208	-2.7542	-2.4542	-2.6188	-2.3271	-2.4167	-2.7417	-2.0708	-2.6333	-2.6333	-2.2771	519.434	331.013	291.560	331.194	468.915	221.128	484.952	197.882	281.083	527.120	496.221	185.017	497.041	519.050	404.210	362.749	0.00056681	0.00048873	0.00012547	743.45	5.1942e-06	4.2476e-06	852.84	300.08	3.0569e-06	2.2e-06	331.83	112.23	98.626	38.255	8.9479e-06	45.628	0.00026974	0.0002501	7.0431e-05	700.89	2.9369e-06	2.9517e-06	800.57	281.23	3.3838e-06	3.5174e-06	310.35	105.7	93.411	36.307	4.3056e-06	43.599	527.051	254.397	237.511	190.331	297.411	300.616	188.352	195.043	340.927	315.939	192.398	196.473	198.096	204.357	319.648	200.823	-8191	255	
1498.846	1	1	0	0	0.17362	0.096498	0.070871	0.34908	0.22256	0.21661	0.23599	0.14125	0.043026	0.37198	0.045264	0.17853	0.14902	0.042535	0.28815	0.14323	-2.1271	-2.5625	-2.3438	-2.7979	-2.4	-2.55	-2.9208	-2.425	-2.6	-2.5729	-2.525	-2.7625	-2.4	-2.6833	-2.6292	-2.4146	247.998	530.564	488.325	425.704	189.294	522.066	463.564	523.834	435.999	412.265	309.427	478.939	204.857	332.657	524.604	193.158	0.0005946	0.0006682	0.00015652	739.28	8.187e-06	3.8716e-06	836.05	293.33	5.8038e-06	6.9827e-06	327.6	122.22	106.26	44.941	2.196e-06	55.154	0.00044003	0.00045478	0.00013248	699.3	5.6502e-06	5.9305e-06	793.52	278.06	6.6092e-06	6.9138e-06	310.95	116.65	101.66	43.169	9.9317e-06	53.467	530.042	266.227	219.875	190.490	325.089	370.758	188.427	194.911	303.128	284.093	192.482	196.295	197.973	204.389	198.463	200.230	-8191	255	
1498.919	1	1	0	0	0.28074	0.2031	0.074013	0.13182	0.078702	0.17909	0.052814	0.051087	0.20397	0.25434	0.28155	0.34826	0.19847	0.20205	0.22144	0.040324	-2.1583	-2.6125	-2.3292	-2.8917	-2.3667	-2.4021	-2.5604	-2.4792	-2.7562	-2.3792	-2.2792	-2.9646	-2.4875	-2.4104	-2.5771	-2.4979	278.187	447.914	374.782	185.869	359.652	411.553	265.541	445.165	277.088	418.523	505.925	534.007	488.343	506.900	430.307	432.130	0.00070188	0.00068513	0.00015358	737.31	8.223e-06	2.0673e-06	832.22	286.25	1.7173e-05	8.8169e-06	328.54	137.08	118.91	49.188	1.0551e-05	59.181	0.0010793	0.0012365	0.000371	716.7	1.7381e-05	1.954e-05	820.82	287.81	2.6355e-05	2.9392e-05	343.97	140.29	123.61	51.022	4.4282e-05	63.013	527.759	234.374	253.947	190.165	303.080	512.153	188.221	195.024	312.411	254.878	192.188	196.011	197.948	203.976	254.144	200.348	-8191	255	
1499.015	1	1	0	0	0.096146	0.15563	0.25786	0.093378	0.079172	0.2678	0.21331	0.14217	0.20618	0.20143	0.17937	0.2015	0.22703	0.18856	0.051775	0.34564	-2.1896	-2.4958	-2.3208	-2.7562	-2.4146	-2.3583	-2.9521	-2.4813	-2.5687	-2.6625	-2.325	-2.675	-2.5792	-2.5125	-2.6813	-2.4708	193.885	488.168	185.322	228.970	214.458	323.310	207.375	422.987	476.619	277.137	511.107	528.053	507.686	441.919	193.972	181.115	0.00074138	0.00082159	0.00022995	741.14	9.5801e-06	9.5559e-06	833.63	286.69	1.7619e-05	1.2289e-05	334.3	150.04	131.62	51.655	6.0738e-06	62.974	0.0040331	0.0045595	0.0013055	792.93	5.3166e-05	5.4966e-05	887.69	313.13	5.6077e-05	5.7233e-05	380.85	160.94	141.73	55.393	5.8919e-05	68.384	521.164	353.347	294.054	190.253	389.003	178.246	187.985	194.634	376.742	323.160	191.841	195.750	197.542	203.782	273.572	200.461	-8191	255	
1499.134	1	1	0	0	0.22964	0.19667	0.20932	0.11179	0.18798	0.25937	0.076483	0.24144	0.25357	0.19083	0.37247	0.18882	0.21595	0.19921	0.26334	0.26739	-2.1188	-2.2521	-2.1979	-2.7479	-2.4437	-2.2333	-2.9021	-2.4729	-2.475	-2.5708	-2.1104	-2.9729	-2.6562	-2.4313	-2.8146	-2.1667	509.633	492.907	317.804	497.609	355.035	471.640	265.998	450.047	275.172	518.796	233.951	536.185	531.648	371.929	341.188	429.485	0.00091755	0.0015294	0.00022527	758.12	6.7643e-06	1.7125e-05	846.15	303.06	3.3933e-05	9.6517e-06	361.11	164.15	142.9	54.846	2.7959e-06	66.412	0.0049885	0.0055607	0.0015536	825.15	6.1192e-05	6.2314e-05	913.72	333.26	6.2019e-05	6.2914e-05	409.74	175.14	154.03	58.433	6.1845e-05	72.06	532.912	219.222	230.582	190.111	410.271	320.768	188.170	194.703	290.013	486.666	191.883	195.397	197.288	203.757	511.766	200.563	-8191	255	
1499.230	1	1	0	0	0.19425	0.18666	0.31188	0.088369	0.1993	0.17574	0.18506	0.30768	0.34509	0.27354	0.15962	0.14414	0.25919	0.22002	0.20181	0.31828	-2.0229	-2.7979	-2.2375	-2.5271	-2.4333	-2.5438	-2.9021	-2.4562	-2.4792	-2.6937	-2.3812	-2.8479	-2.7354	-2.4021	-2.7333	-2.875	476.779	501.582	305.104	235.282	243.933	518.203	465.274	496.822	227.168	392.987	529.560	449.772	504.816	390.373	369.331	186.635	0.00080312	0.0011372	0.0002705	762.53	1.0433e-05	1.0622e-05	857.7	327.24	8.1206e-06	9.458e-06	390.97	177.53	155.14	56.962	1.6758e-05	69.537	0.005114	0.0056441	0.0015865	837.91	6.0005e-05	6.1004e-05	917.9	354.38	5.8864e-05	5.9152e-05	436.32	186.79	163.35	60.074	5.7979e-05	74.207	535.471	284.025	318.240	189.831	229.352	312.640	187.814	194.337	233.215	303.211	191.664	195.338	197.162	203.402	386.252	200.509	-8191	255	
1499.327	1	1	0	0	0.45085	0.30858	0.056075	0.22584	0.14593	0.15349	0.036019	0.37492	0.094481	0.25669	0.17527	0.16498	0.3015	0.25887	0.17561	0.24001	-1.9021	-2.6042	-2.3292	-2.2875	-2.7062	-2.2583	-2.625	-2.7021	-2.3479	-2.7938	-2.4333	-2.6333	-2.7646	-2.7229	-2.6729	-2.5771	351.111	455.456	265.993	435.882	225.908	280.101	255.049	434.156	302.693	418.113	485.804	459.840	486.325	500.965	471.053	472.580	0.00084979	0.0012898	0.00012034	771.51	2.4372e-06	1.4741e-05	862.75	369.42	1.4888e-05	2.0546e-05	430.3	184.59	159.34	58.074	5.9331e-06	70.2	0.0048017	0.0052784	0.0014659	835.48	5.5958e-05	5.6953e-05	918.34	391.22	5.6088e-05	5.725e-05	470.11	192.99	167.53	60.937	5.6176e-05	74.983	534.758	327.452	290.010	190.109	455.316	199.886	188.009	194.010	180.907	312.367	191.647	195.520	197.429	203.701	291.950	200.309	-8191	255	
1499.423	1	1	0	0	0.050891	0.25395	0.13756	0.21364	0.030189	0.16184	0.42464	0.21944	0.14509	0.057734	0.20144	0.22359	0.13378	0.28327	0.14072	0.16404	-1.8875	-2.7021	-2.1937	-2.6	-2.6854	-2.1688	-2.7604	-2.6979	-2.2375	-2.6021	-2.45	-2.3896	-2.8417	-2.3958	-2.5083	-2.7188	364.309	373.945	369.833	447.799	391.845	495.472	462.703	476.067	344.484	346.920	453.845	515.185	417.449	310.598	296.750	207.719	0.00081173	0.00056936	0.00046863	771.6	6.1648e-06	1.863e-05	861.01	404.43	1.1351e-05	1.3317e-05	465.05	192.07	165.81	61.035	1.5746e-05	74.399	0.0046534	0.0051527	0.0014342	831.75	5.4737e-05	5.4973e-05	913.11	422.32	5.2468e-05	5.2573e-05	493.26	197.77	171.66	63.064	4.8504e-05	77.446	509.470	285.571	187.711	189.923	244.600	390.023	188.036	193.756	183.458	358.643	191.459	195.248	197.276	203.791	236.180	200.199	-8191	255	
1499.543	1	1	0	0	0.15068	0.19983	0.24168	0.14896	0.22174	0.24634	0.18595	0.21799	0.16235	0.10305	0.22544	0.32687	0.077172	0.34523	0.079777	0.036354	-2.0792	-2.5104	-2.3937	-2.6146	-2.7854	-2.15	-2.7979	-2.6813	-1.9688	-2.6688	-2.4646	-2.4354	-2.8104	-2.65	-2.7125	-2.7562	513.808	483.818	312.512	275.784	399.285	328.636	490.894	461.001	238.179	493.276	509.178	508.689	473.428	182.395	454.102	529.518	0.00096477	0.0013163	0.00020918	770.06	9.8416e-06	1.4317e-05	858.42	438.41	3.0021e-05	4.9223e-06	496.21	206.98	177.74	64.751	7.1764e-06	80.482	0.0039987	0.0043931	0.0012168	811.43	4.6144e-05	4.6539e-05	890.73	447.01	4.4459e-05	4.4636e-05	513.93	208.24	178.95	65.538	4.0915e-05	81.99	523.281	434.976	292.985	190.052	214.952	404.966	187.964	193.794	272.811	461.328	191.690	195.149	197.121	203.466	217.849	200.349	-8191	255	
1499.615	1	1	0	0	0.135	0.20741	0.22754	0.12462	0.034112	0.1147	0.24858	0.33498	0.36838	0.13747	0.22332	0.2522	0.31406	0.16789	0.17456	0.20639	-1.9208	-2.5958	-2.525	-2.5167	-2.6688	-2.1646	-2.7646	-2.8042	-2.1312	-2.6875	-2.425	-2.5208	-3.0563	-2.3958	-2.2562	-2.9062	311.274	485.349	281.550	456.233	489.158	445.980	468.649	491.587	453.717	262.386	496.602	485.635	208.050	477.558	227.673	501.461	0.0011025	0.0022266	0.00027677	875.41	9.0569e-06	4.0066e-06	1134.2	468.53	8.9365e-06	1.9394e-05	518.32	226.52	191.92	70.62	7.7857e-06	85.544	0.0033264	0.0036058	0.001008	893.37	3.779e-05	3.8511e-05	1134.7	468.54	3.706e-05	3.76e-05	528.78	224.6	191.16	70.448	3.5375e-05	85.948	175.885	306.135	317.743	189.655	365.965	196.581	187.774	193.737	347.876	334.982	191.718	194.912	196.729	203.279	290.309	200.099	-8191	255	
1499.736	1	1	0	0	0.2164	0.080723	0.083084	0.25523	0.14544	0.13078	0.62322	0.20792	0.14018	0.21749	0.076159	0.35997	0.40382	0.17854	0.15129	0.19226	-1.9771	-2.4521	-2.6437	-2.5792	-2.6354	-2.325	-2.5812	-2.85	-2.3688	-2.6979	-2.7396	-2.3896	-2.8646	-2.4562	-2.5854	-2.8354	423.047	496.643	388.735	479.998	388.137	534.725	469.775	489.077	525.393	184.263	203.757	489.353	183.755	495.115	333.610	402.769	0.0009752	0.0006534	7.3138e-05	1156.9	3.293e-06	2.1001e-05	1333.4	455.36	3.8431e-06	1.454e-05	506.88	224.43	191.1	70.563	7.462e-06	84.953	0.0029199	0.003145	0.00086953	1146.5	3.2566e-05	3.2717e-05	1309.4	452.31	3.2341e-05	3.2701e-05	510.03	221.52	188.55	70.249	3.088e-05	84.561	525.442	194.948	244.683	189.955	259.539	344.646	187.793	193.680	371.584	263.739	192.031	194.938	196.479	202.874	335.915	200.147	-8191	255	
1499.832	1	1	0	0	0.14057	0.21409	0.030244	0.24282	0.18813	0.1137	0.16252	0.23163	0.14933	0.12784	0.10344	0.1885	0.17044	0.038629	0.13378	0.31385	-1.7542	-2.8583	-2.4521	-2.5271	-2.5938	-2.5021	-2.5458	-2.8563	-2.375	-2.5563	-2.6271	-2.2396	-2.7562	-2.4688	-2.3354	-2.9146	437.226	185.557	343.565	470.190	361.622	303.341	398.252	456.138	451.095	223.679	188.123	425.261	210.115	230.133	299.912	462.266	0.0010322	0.0012213	9.8542e-05	1167.9	1.1245e-05	6.7686e-06	1325.3	442.76	9.9348e-06	1.579e-05	496.23	220.68	186.55	69.16	1.3963e-05	82.792	0.0025974	0.0027536	0.00076154	1147.3	2.922e-05	2.971e-05	1296.3	437.13	2.9351e-05	3.0048e-05	497.09	216	184.5	68.678	3.1142e-05	82.711	523.755	229.538	264.461	189.795	373.655	286.936	187.855	193.940	328.040	320.376	191.819	195.043	197.001	202.772	323.686	200.256	-8191	255	
1499.928	1	1	0	0	0.30842	0.061978	0.40667	0.14443	0.049422	0.2259	0.12065	0.31791	0.14117	0.027068	0.14019	0.22075	0.14141	0.0023932	0.093467	0.40425	-1.8563	-2.4062	-2.8333	-2.3375	-2.5542	-2.5125	-2.5708	-2.9646	-2.2521	-2.3375	-2.7583	-2.5208	-2.7583	-2.6417	-2.3833	-2.7958	453.546	499.380	243.025	502.847	259.432	415.414	506.845	498.515	308.022	184.697	377.470	484.434	473.779	355.606	244.900	501.007	0.0012904	0.0002863	0.00050734	1131	4.9527e-06	8.7507e-06	1278.2	432.33	1.1975e-05	5.469e-06	483.08	208.12	176.92	67.27	3.6398e-06	80.333	0.0027381	0.0029804	0.00082913	1121.5	3.2262e-05	3.3036e-05	1257.9	429.84	3.2374e-05	3.2778e-05	488.06	205.18	176.27	67.094	3.2801e-05	80.848	528.521	256.038	241.441	189.631	483.937	244.706	187.793	194.069	310.875	243.798	191.663	194.886	196.983	203.326	195.142	200.106	-8191	255	
1500.022	1	1	0	0	0.14837	0.14293	0.21756	0.32764	0.22349	0.097606	0.27128	0.26617	0.18146	0.10034	0.15339	0.19669	0.25773	0.073069	0.068114	0.31529	-1.9062	-2.5417	-2.4188	-2.3896	-2.5208	-2.6042	-2.2708	-3.0229	-2.4208	-2.3563	-2.5896	-2.4396	-2.8479	-2.7479	-2.1479	-2.7854	222.231	306.856	188.248	485.373	534.133	186.677	461.027	473.778	187.731	277.969	355.933	486.138	481.220	491.414	431.096	522.591	0.0013278	0.0017101	0.00024166	1078.9	9.6897e-06	2.3861e-05	1223	423.5	1.7498e-05	9.6878e-06	470.15	196.72	168.9	65.417	1.1753e-05	79.748	0.0029042	0.0031765	0.00090013	1080.2	3.6181e-05	3.7891e-05	1218.8	426.82	3.9916e-05	4.0945e-05	487.53	198.28	171.3	66.261	4.1001e-05	81.57	516.742	267.798	234.631	189.838	330.921	295.299	187.947	194.084	285.327	205.873	191.834	195.398	197.108	203.303	273.889	200.209	-8191	255	
#DATA ENDS
