BOXY.EXE: ISS Imagent and Oximeter Data Acquisition Program Version 0.80
Ascii Record File

#ACQ INFORMATION
2  Detector Channels 
16  External MUX Channels 
1  Auxiliary Channels 
5000  Waveform (CCF) Frequency (Hz)
1  Waveforms Skipped 
30  Waveforms Averaged 
1  Cycles Averaged 
16  Acquisitions per Waveform 
10.0806  Updata Rate (Hz) 

#FILE INFORMATION
TRUE -- External MUX Channel results are PARSED.
FALSE -- AC DC and Phase are NOT grouped.
TRUE -- Companion Program Settings File CREATED.
FALSE -- AC data not excluded
FALSE -- DC data not excluded
FALSE -- Phase data not excluded
FALSE -- Auxillary Chn. data not excluded
Tab delimiters

#CALIBRATION STATE
TRUE -- Waveform Calibration Values APPLIED.


#AUX CALIBRATION VALUES
Val Type	aux-1	

Term	1.0000e+00	
Factor	0.0000e+00	


#WF CALIBRATION VALUES
A = Detector Channel
Val Type	A-AC1	A-AC2	A-AC3	A-AC4	A-AC5	A-AC6	A-AC7	A-AC8	A-AC9	A-AC10	A-AC11	A-AC12	A-AC13	A-AC14	A-AC15	A-AC16	A-DC1	A-DC2	A-DC3	A-DC4	A-DC5	A-DC6	A-DC7	A-DC8	A-DC9	A-DC10	A-DC11	A-DC12	A-DC13	A-DC14	A-DC15	A-DC16	A-Ph1	A-Ph2	A-Ph3	A-Ph4	A-Ph5	A-Ph6	A-Ph7	A-Ph8	A-Ph9	A-Ph10	A-Ph11	A-Ph12	A-Ph13	A-Ph14	A-Ph15	A-Ph16	

Term	0.00000e+00	0.00000e+00	0.00000e+00	0.00000e+00	0.00000e+00	0.00000e+00	0.00000e+00	0.00000e+00	0.00000e+00	0.00000e+00	0.00000e+00	0.00000e+00	0.00000e+00	0.00000e+00	0.00000e+00	0.00000e+00	0.00000e+00	0.00000e+00	0.00000e+00	0.00000e+00	0.00000e+00	0.00000e+00	0.00000e+00	0.00000e+00	0.00000e+00	0.00000e+00	0.00000e+00	0.00000e+00	0.00000e+00	0.00000e+00	0.00000e+00	0.00000e+00	0.00000e+00	0.00000e+00	0.00000e+00	0.00000e+00	0.00000e+00	0.00000e+00	0.00000e+00	0.00000e+00	0.00000e+00	0.00000e+00	0.00000e+00	0.00000e+00	0.00000e+00	0.00000e+00	0.00000e+00	0.00000e+00	
Factor	1.00000e+00	1.00000e+00	1.00000e+00	1.00000e+00	1.00000e+00	1.00000e+00	1.00000e+00	1.00000e+00	1.00000e+00	1.00000e+00	1.00000e+00	1.00000e+00	1.00000e+00	1.00000e+00	1.00000e+00	1.00000e+00	1.00000e+00	1.00000e+00	1.00000e+00	1.00000e+00	1.00000e+00	1.00000e+00	1.00000e+00	1.00000e+00	1.00000e+00	1.00000e+00	1.00000e+00	1.00000e+00	1.00000e+00	1.00000e+00	1.00000e+00	1.00000e+00	X	X	X	X	X	X	X	X	X	X	X	X	X	X	X	X	

B = Detector Channel
Val Type	B-AC1	B-AC2	B-AC3	B-AC4	B-AC5	B-AC6	B-AC7	B-AC8	B-AC9	B-AC10	B-AC11	B-AC12	B-AC13	B-AC14	B-AC15	B-AC16	B-DC1	B-DC2	B-DC3	B-DC4	B-DC5	B-DC6	B-DC7	B-DC8	B-DC9	B-DC10	B-DC11	B-DC12	B-DC13	B-DC14	B-DC15	B-DC16	B-Ph1	B-Ph2	B-Ph3	B-Ph4	B-Ph5	B-Ph6	B-Ph7	B-Ph8	B-Ph9	B-Ph10	B-Ph11	B-Ph12	B-Ph13	B-Ph14	B-Ph15	B-Ph16	

Term	0.00000e+00	0.00000e+00	0.00000e+00	0.00000e+00	0.00000e+00	0.00000e+00	0.00000e+00	0.00000e+00	0.00000e+00	0.00000e+00	0.00000e+00	0.00000e+00	0.00000e+00	0.00000e+00	0.00000e+00	0.00000e+00	0.00000e+00	0.00000e+00	0.00000e+00	0.00000e+00	0.00000e+00	0.00000e+00	0.00000e+00	0.00000e+00	0.00000e+00	0.00000e+00	0.00000e+00	0.00000e+00	0.00000e+00	0.00000e+00	0.00000e+00	0.00000e+00	-1.10555e+02	-1.34345e+02	-1.25139e+02	-1.80823e+02	-5.89411e+01	-6.68562e+01	-1.57214e+02	-1.62015e+02	-6.37752e+01	-6.71530e+01	-1.71625e+02	-1.71796e+02	-1.86365e+02	-1.76693e+02	-6.41196e+01	-1.49516e+02	
Factor	1.50243e-05	1.53827e-04	4.66076e-05	1.58271e-01	1.18790e-06	1.74034e-06	1.59010e-01	4.50898e-02	9.43242e-07	1.55460e-06	7.52501e-02	2.87934e-02	3.64718e-02	8.42465e-03	1.35339e-06	1.23474e-02	7.15820e-06	1.04250e-05	2.89429e-06	7.88315e-02	1.08082e-07	1.15196e-07	7.45083e-02	2.26350e-02	1.07536e-07	1.15117e-07	3.64779e-02	1.40814e-02	1.83450e-02	4.24814e-03	1.11129e-07	6.03331e-03	X	X	X	X	X	X	X	X	X	X	X	X	X	X	X	X	



#DISTANCE SETTINGS
A = Detector Channel
A-1	A-2	A-3	A-4	A-5	A-6	A-7	A-8	A-9	A-10	A-11	A-12	A-13	A-14	A-15	A-16	

2.5000e+00	3.0000e+00	2.5000e+00	3.0000e+00	2.0000e+00	3.0000e+00	1.5000e+00	3.0000e+00	3.0000e+00	3.0000e+00	3.0000e+00	3.0000e+00	3.0000e+00	3.0000e+00	1.5000e+00	3.0000e+00	

B = Detector Channel
B-1	B-2	B-3	B-4	B-5	B-6	B-7	B-8	B-9	B-10	B-11	B-12	B-13	B-14	B-15	B-16	

1.0000e+01	1.0000e+01	1.0000e+01	1.4400e+00	1.0000e+01	1.0000e+01	1.5100e+00	1.9400e+00	1.0000e+01	1.0000e+01	1.9900e+00	2.4900e+00	2.4100e+00	2.9000e+00	1.0000e+01	2.9800e+00	




#DATA BEGINS
time	group	step	mark	flag	A-AC1	A-AC2	A-AC3	A-AC4	A-AC5	A-AC6	A-AC7	A-AC8	A-AC9	A-AC10	A-AC11	A-AC12	A-AC13	A-AC14	A-AC15	A-AC16	A-DC1	A-DC2	A-DC3	A-DC4	A-DC5	A-DC6	A-DC7	A-DC8	A-DC9	A-DC10	A-DC11	A-DC12	A-DC13	A-DC14	A-DC15	A-DC16	A-Ph1	A-Ph2	A-Ph3	A-Ph4	A-Ph5	A-Ph6	A-Ph7	A-Ph8	A-Ph9	A-Ph10	A-Ph11	A-Ph12	A-Ph13	A-Ph14	A-Ph15	A-Ph16	B-AC1	B-AC2	B-AC3	B-AC4	B-AC5	B-AC6	B-AC7	B-AC8	B-AC9	B-AC10	B-AC11	B-AC12	B-AC13	B-AC14	B-AC15	B-AC16	B-DC1	B-DC2	B-DC3	B-DC4	B-DC5	B-DC6	B-DC7	B-DC8	B-DC9	B-DC10	B-DC11	B-DC12	B-DC13	B-DC14	B-DC15	B-DC16	B-Ph1	B-Ph2	B-Ph3	B-Ph4	B-Ph5	B-Ph6	B-Ph7	B-Ph8	B-Ph9	B-Ph10	B-Ph11	B-Ph12	B-Ph13	B-Ph14	B-Ph15	B-Ph16	aux-1	digaux	

878.287	1	1	0	512	0.102	0.18155	0.10179	0.1499	0.12346	0.091027	0.11966	0.21061	0.20839	0.18651	0.19143	0.15138	0.03618	0.31456	0.076212	0.32139	-2.8021	-3.0792	-3.3958	-3.1104	-3.5021	-3.4979	-3.1167	-3.3208	-3.3937	-3.1354	-3.4188	-3.1063	-3.0396	-3.4188	-3.05	-3.35	150.607	315.385	305.852	410.100	198.783	413.688	480.274	256.785	358.744	398.943	324.105	446.941	416.717	455.518	278.245	496.251	0.00032302	9.3573e-05	5.5441e-05	285.31	1.6549e-06	2.0083e-06	395.13	75.53	1.3276e-06	9.2663e-07	155.13	59.114	22.434	10.16	2.1687e-06	33.65	0.00014828	5.4861e-05	1.6588e-05	277.79	6.0458e-07	5.4478e-07	386.35	74.034	6.0019e-07	5.859e-07	152.08	58.255	21.989	10.058	6.3112e-07	33.35	206.481	226.822	219.277	150.093	307.172	272.417	150.433	155.960	278.859	303.637	156.000	160.400	160.160	165.568	273.537	164.994	-8191	255	
878.383	1	1	0	0	0.17841	0.13634	0.13835	0.20848	0.1149	0.14624	0.20881	0.072121	0.11955	0.16482	0.051051	0.16708	0.20725	0.087595	0.20598	0.069104	-2.6729	-3.1312	-3.3146	-3.4	-3.1771	-3.45	-3.2812	-3.3979	-3.475	-3.3354	-3.3	-3.1521	-3.0729	-3.3271	-2.9938	-3.3479	371.815	261.407	171.338	494.598	294.690	424.042	483.604	179.484	405.756	363.793	388.124	406.992	420.276	422.676	321.988	433.300	0.00032013	0.00018441	7.8619e-05	284.36	1.3791e-06	2.4183e-06	395.2	75.615	1.4491e-06	1.8422e-06	153.67	58.641	22.658	10.082	1.5802e-06	33.204	0.00014894	5.6903e-05	1.5726e-05	277.81	6.289e-07	5.359e-07	387.8	73.722	5.9638e-07	6.2595e-07	150.77	58.06	21.919	9.933	6.075e-07	32.995	205.811	218.292	218.355	150.214	304.660	283.262	150.845	155.452	311.250	297.429	155.517	160.457	160.784	165.687	305.302	164.612	-8191	255	
878.479	1	1	0	0	0.16107	0.1893	0.029704	0.12414	0.046811	0.14787	0.070408	0.15106	0.080817	0.15284	0.24798	0.19864	0.16465	0.17709	0.09402	0.17325	-3.1188	-3.1354	-3.2917	-3.1479	-2.8542	-3.4396	-3.3833	-3.2938	-3.5208	-3.2104	-3.3979	-3.1854	-2.9708	-3.3333	-3.1521	-3.1312	147.847	197.068	187.225	448.819	192.004	440.137	441.295	451.586	488.342	381.344	234.158	336.005	216.618	460.086	248.655	476.988	0.00031179	0.00020142	5.2247e-05	286.53	1.771e-06	2.6498e-06	397.76	76.044	1.9335e-06	1.724e-06	154.01	58.707	22.427	10.024	2.046e-06	33.285	0.00014771	5.5166e-05	1.5466e-05	278.9	6.6763e-07	5.8966e-07	388.97	74.087	6.3805e-07	5.7798e-07	151.41	58.085	21.937	9.9062	6.3343e-07	33.01	207.263	225.319	256.863	150.233	293.580	289.588	150.572	155.579	296.042	297.147	155.683	160.195	158.869	165.746	307.742	164.815	-8191	255	
878.575	1	1	0	0	0.1361	0.1452	0.099094	0.059805	0.13925	0.11578	0.1671	0.10746	0.12612	0.035976	0.29749	0.081105	0.15691	0.065574	0.099143	0.35771	-3.0687	-3.1813	-3.2896	-3.1792	-3.0979	-3.3	-3.2313	-3.1854	-3.2938	-3.2833	-3.325	-3.3438	-3.3208	-3.4979	-3.3917	-3.3292	415.854	260.670	483.399	387.923	345.655	286.547	379.421	322.406	490.670	183.085	309.352	220.189	352.350	409.274	474.868	470.803	0.00031171	0.00016371	4.8987e-05	284.77	2.1612e-06	3.0237e-06	397.24	75.133	1.6078e-06	1.505e-06	152.55	58.387	21.961	9.8208	1.4806e-06	32.356	0.00014513	6.1377e-05	1.4592e-05	278.89	6.2305e-07	5.5558e-07	387.08	73.353	6.7367e-07	5.6863e-07	149.6	57.401	21.592	9.683	6.0171e-07	32.099	205.858	213.811	205.571	149.902	290.752	310.820	150.858	155.789	273.006	257.320	155.659	160.360	159.734	165.448	267.856	164.604	-8191	255	
878.672	1	1	0	0	0.067229	0.0060483	0.20487	0.13263	0.10492	0.15838	0.2533	0.24629	0.096118	0.29465	0.1295	0.12948	0.18446	0.049497	0.15051	0.031094	-2.8021	-3.2521	-3.15	-3.3083	-2.9604	-3.2521	-3.2375	-3.0375	-3.6229	-3.2042	-3.3229	-3.2583	-3.1271	-3.1229	-3.4604	-3.3312	271.786	313.898	188.137	333.746	497.107	482.559	412.286	220.409	420.752	205.602	492.131	310.962	284.132	323.089	421.465	409.619	0.00031488	0.00024662	6.0149e-05	281.36	1.3484e-06	2.5925e-06	388.53	74.133	1.1653e-06	2.163e-06	150.12	56.632	21.841	9.5635	1.7991e-06	31.677	0.00014087	5.4514e-05	1.6208e-05	276.04	6.6718e-07	5.4598e-07	380.98	72.695	5.7913e-07	5.5136e-07	146.9	55.996	21.353	9.4544	6.0241e-07	31.387	202.377	237.189	241.627	150.528	286.730	275.857	150.967	155.776	266.653	286.422	155.746	160.347	159.276	165.410	276.945	164.966	-8191	255	
878.768	1	1	0	0	0.053407	0.11872	0.047185	0.054911	0.18055	0.077169	0.256	0.12866	0.16151	0.095073	0.10142	0.4166	0.25569	0.1994	0.09347	0.14628	-3.0104	-2.9813	-3.3875	-3.4896	-3.0438	-3.3521	-3.3083	-3.1354	-3.4604	-3.0583	-3.2396	-3.2812	-2.9083	-3.0521	-3.3229	-3.3	427.186	454.001	252.817	445.055	427.866	382.251	414.256	431.247	138.852	325.837	454.887	413.318	478.534	443.421	383.829	448.599	0.00029912	0.00016234	4.785e-05	287.39	2.2469e-06	2.3878e-06	393.88	73.751	1.2864e-06	1.4685e-06	150.76	57.384	21.893	9.6066	1.0194e-06	32.082	0.00013781	5.4362e-05	1.4459e-05	278.3	6.4354e-07	5.467e-07	383.86	72.598	5.4709e-07	5.3577e-07	147.76	56.62	21.406	9.464	5.7555e-07	31.751	202.841	211.245	240.725	150.007	312.128	300.014	150.826	156.128	301.135	335.020	155.424	160.569	159.817	165.288	291.957	164.606	-8191	255	
878.887	1	1	0	0	0.092679	0.072283	0.21756	0.10131	0.073072	0.17062	0.21252	0.092266	0.074233	0.11899	0.057267	0.1443	0.02503	0.24569	0.24874	0.050672	-2.9708	-3.2208	-3.2438	-3.3625	-3.1792	-3.2271	-3.4604	-3.2104	-3.3521	-3.1437	-3.4188	-3.4208	-3.3083	-3.1833	-3.2458	-3.0583	479.061	463.130	149.366	299.637	156.005	289.674	142.903	186.499	350.249	418.189	260.325	142.189	342.042	185.729	189.949	286.284	0.00029318	0.00015502	6.9585e-05	283.7	1.5772e-06	2.0427e-06	396.8	74.21	1.1874e-06	1.7836e-06	151.17	57.574	21.858	9.5864	1.6446e-06	31.919	0.0001386	5.4427e-05	1.6063e-05	277.05	6.289e-07	6.4054e-07	386.19	72.872	5.6479e-07	5.3793e-07	148.54	56.877	21.302	9.417	5.7741e-07	31.591	204.623	207.592	243.454	150.585	322.365	304.258	150.721	155.632	277.907	306.113	155.886	160.387	158.981	165.941	281.999	164.876	-8191	255	
878.983	1	1	0	0	0.21049	0.12821	0.19109	0.19872	0.14052	0.16004	0.11947	0.080695	0.17421	0.13613	0.15733	0.1302	0.22648	0.22671	0.069109	0.31904	-2.7854	-3.2646	-3	-3.5563	-3.1	-3.1917	-3.5062	-2.9958	-3.2729	-3.1917	-2.9729	-3.2604	-3.2083	-3.1896	-3.5896	-3.2958	464.053	422.482	427.720	189.829	261.164	162.262	151.023	460.675	441.742	490.617	235.382	332.829	330.830	278.540	406.160	456.557	0.00030619	0.00018729	5.9905e-05	283.99	1.0373e-06	2.6798e-06	393.2	73.99	1.5106e-06	1.9602e-06	148.47	56.722	21.752	9.3726	1.826e-06	31.194	0.00014038	5.7837e-05	1.5774e-05	277.24	5.985e-07	5.0158e-07	384.08	72.494	5.7353e-07	5.2642e-07	146.45	56.038	21.276	9.265	5.575e-07	30.92	202.707	231.766	250.128	149.834	314.713	232.826	150.807	155.598	280.666	308.131	155.652	160.454	159.007	165.449	302.186	164.627	-8191	255	
879.079	1	1	0	0	0.1598	0.06093	0.10508	0.18475	0.085108	0.39567	0.14945	0.3258	0.1647	0.06547	0.10126	0.26888	0.095648	0.39481	0.069835	0.29843	-3.15	-3.4354	-3.1667	-3.6729	-3.3021	-3.1937	-3.4562	-3.1312	-3.3104	-3.5083	-3.1437	-3.6	-3.1708	-3.1396	-3.3646	-3.2458	249.813	437.123	488.098	436.288	154.226	226.355	438.993	432.615	190.831	145.811	194.971	417.358	384.275	141.261	242.570	431.448	0.00027394	0.00017364	7.8438e-05	280.96	1.4806e-06	2.8329e-06	389.34	73.308	1.5023e-06	9.4196e-07	148.37	56.498	22.1	9.4747	2.4237e-06	31.346	0.00013177	4.4741e-05	1.3639e-05	274.98	5.6991e-07	5.575e-07	379.9	71.92	6.0444e-07	4.8589e-07	146.33	56.199	21.268	9.3543	5.5379e-07	31.189	202.845	216.644	243.052	149.945	316.037	299.460	150.513	155.693	303.091	287.382	155.805	160.260	160.194	165.377	290.116	164.565	-8191	255	
879.175	1	1	0	0	0.17949	0.19282	0.05536	0.05184	0.089398	0.17571	0.31234	0.054139	0.18744	0.071449	0.063737	0.21049	0.18457	0.10652	0.2415	0.24721	-3.0708	-3.4625	-2.9479	-3.3375	-3.2271	-3.3125	-3.5062	-3.2458	-3.3312	-3.425	-3.1688	-3.2292	-3.1104	-3.0979	-3.5375	-3.3583	191.124	412.823	196.944	434.954	480.627	320.482	474.386	358.694	292.131	429.872	466.522	355.573	149.380	179.617	254.350	160.116	0.00030874	0.00013681	4.4228e-05	282.21	1.4142e-06	2.8029e-06	393.1	74.073	1.6513e-06	1.278e-06	149.13	56.824	21.748	9.3557	2.0641e-06	31.137	0.00014099	5.1929e-05	1.4707e-05	275.42	5.7981e-07	5.7358e-07	382.3	72.407	6.1744e-07	4.6838e-07	146.44	56.013	21.157	9.2478	5.8088e-07	30.928	205.496	234.535	227.277	150.349	298.235	295.320	150.486	155.653	281.369	283.592	156.044	160.489	159.195	165.430	303.476	164.683	-8191	255	
879.271	1	1	0	0	0.029753	0.17054	0.1529	0.31995	0.19794	0.34013	0.10232	0.076584	0.1398	0.071514	0.11321	0.1919	0.14095	0.19551	0.24911	0.18583	-2.7938	-3.2104	-3.1167	-3.2875	-3.1188	-2.9583	-3.2625	-3.1292	-3.05	-3.4333	-3.1729	-3.35	-3.4292	-3.2083	-3.3146	-3.0875	154.952	302.758	155.724	387.935	382.628	384.304	398.602	343.911	445.565	201.002	314.370	331.287	467.842	456.880	486.583	441.844	0.00029155	0.00023922	6.0004e-05	283.11	1.4012e-06	1.977e-06	392.94	73.781	1.2345e-06	1.3109e-06	149.92	56.882	21.809	9.3568	2.515e-06	31.354	0.00013681	5.1061e-05	1.669e-05	276.34	5.4806e-07	5.7814e-07	383.31	72.293	6.2685e-07	5.7127e-07	146.84	56.285	21.316	9.2383	5.5634e-07	31.041	204.575	203.628	233.510	150.068	295.382	292.072	150.576	155.823	285.878	308.972	155.308	160.347	160.044	165.259	285.316	164.792	-8191	255	
879.392	1	1	0	0	0.089137	0.023929	0.20192	0.16679	0.21761	0.033592	0.24476	0.1816	0.29687	0.097992	0.22505	0.19955	0.23854	0.20275	0.21683	0.20195	-2.85	-3.4292	-2.9917	-3.4896	-3.3833	-2.9979	-3.2417	-3.3104	-3.2917	-3.4979	-3.1875	-3.2229	-3.325	-3.0854	-3.5062	-3.4813	371.033	226.121	371.918	375.737	308.184	256.344	395.348	372.364	349.179	414.411	400.488	442.735	371.631	175.788	472.997	445.503	0.00029939	0.00020037	2.3531e-05	284.35	1.7133e-06	2.2221e-06	393.22	73.623	1.5889e-06	2.7025e-06	149.72	56.576	21.577	9.2618	2.1151e-06	31.005	0.00014057	4.9649e-05	1.3802e-05	277.15	6.0909e-07	6.0934e-07	383.7	72.153	5.9727e-07	5.739e-07	145.91	55.818	21.146	9.1401	5.9037e-07	30.699	207.430	216.598	253.435	150.172	288.131	286.194	150.605	155.752	269.295	299.074	155.760	160.598	160.379	165.260	279.167	164.688	-8191	255	
879.488	1	1	0	0	0.13971	0.1311	0.21954	0.10404	0.25324	0.036838	0.097314	0.23581	0.27676	0.13111	0.3593	0.10774	0.069209	0.092475	0.24559	0.2474	-2.7458	-3.3292	-3.2167	-3.275	-3.3917	-3.3187	-3.4333	-3.3375	-3.2167	-3.3792	-3.3312	-3.3167	-3.4083	-3.2146	-3.5	-3.45	163.998	252.901	281.287	279.028	392.355	396.397	161.844	446.001	199.052	264.836	370.707	455.543	336.505	287.968	341.996	356.319	0.00028394	0.00019851	5.8335e-05	281.9	2.1975e-06	1.9832e-06	389.23	73.325	1.3492e-06	2.3316e-06	147.01	56.151	21.574	9.2971	2.3426e-06	30.918	0.00013647	4.9779e-05	1.5605e-05	274.79	5.6698e-07	5.7574e-07	378.87	71.604	6.8017e-07	5.4129e-07	145.13	55.586	21.104	9.1755	6.2232e-07	30.718	205.047	239.573	229.554	150.420	303.215	298.426	150.662	155.422	293.544	276.411	155.694	160.264	159.609	165.451	289.065	164.815	-8191	255	
879.582	1	1	0	0	0.22004	0.063308	0.051857	0.17449	0.099705	0.16332	0.12142	0.15354	0.14882	0.11985	0.24315	0.11645	0.12211	0.13888	0.29804	0.29392	-2.7042	-3.3229	-3.2229	-3.2	-3.6354	-3.3333	-3.6083	-3.3583	-3.0979	-3.3646	-3.1542	-2.9313	-3.2479	-3.1937	-3.3187	-3.6	462.707	147.080	457.249	368.051	239.268	351.811	355.672	414.599	436.178	186.538	483.873	374.675	384.832	416.715	273.323	213.664	0.00028628	0.00012884	7.7666e-05	283.55	1.8929e-06	1.8926e-06	391.82	73.168	1.0511e-06	1.364e-06	148.93	56.752	21.796	9.3562	1.8487e-06	31.166	0.00014237	4.7238e-05	1.4236e-05	275.7	5.591e-07	5.7862e-07	381.61	71.897	6.0332e-07	5.6191e-07	146.21	55.97	21.037	9.1714	5.6467e-07	30.79	203.522	199.370	237.009	149.856	293.041	285.603	150.438	155.801	301.304	289.886	155.928	160.154	159.603	165.778	266.872	164.762	-8191	255	
879.678	1	1	0	0	0.19945	0.11908	0.081053	0.29845	0.089667	0.092751	0.13666	0.077858	0.060342	0.066628	0.13623	0.12311	0.043121	0.061093	0.13175	0.08482	-2.6813	-3.3458	-3.0521	-3.0396	-3.3563	-3.1771	-3.3979	-3.5187	-3.1792	-3.4958	-3.2062	-3.1375	-3.275	-3.0208	-3.2938	-3.2208	467.405	377.517	196.208	211.631	490.512	199.470	396.365	249.872	478.945	207.876	443.697	270.915	288.107	400.609	478.090	468.248	0.00029112	0.00014286	7.6362e-05	281.79	1.8504e-06	2.0191e-06	391.37	73.525	1.8365e-06	2.2551e-06	149.3	56.063	21.367	9.1894	1.2843e-06	30.793	0.00014	4.8932e-05	1.4803e-05	275.31	6.0143e-07	5.5246e-07	382.44	72.016	5.8831e-07	4.9428e-07	146.18	55.724	20.924	9.0868	5.5148e-07	30.559	205.132	181.109	214.987	150.020	287.732	293.490	150.773	155.595	258.963	276.590	155.055	160.244	159.357	165.614	309.321	164.926	-8191	255	
879.775	1	1	0	0	0.25163	0.041376	0.071872	0.12099	0.10998	0.21789	0.070507	0.09914	0.029943	0.16888	0.23461	0.27009	0.19985	0.23625	0.085828	0.11593	-2.7687	-2.9875	-3.1521	-2.95	-3.2646	-3.0771	-3.2667	-3.4188	-3.2438	-3.3937	-3.4104	-3.1688	-3.2583	-3.2271	-3.0354	-3.3833	243.584	220.238	421.084	229.394	285.822	290.819	415.100	315.691	343.388	155.719	417.375	486.850	443.644	414.119	351.666	399.271	0.00029294	0.00022805	6.7381e-05	283	1.3356e-06	1.6519e-06	392.84	73.227	1.2847e-06	2.5412e-06	149.13	55.909	21.041	9.1581	2.1898e-06	30.503	0.00013632	5.1777e-05	1.4146e-05	275.83	6.5682e-07	6.0622e-07	383.26	71.756	6.2013e-07	5.8038e-07	145.45	55.362	20.824	9.0142	5.8667e-07	30.158	202.677	223.819	232.171	150.455	266.806	282.594	150.776	155.634	277.228	287.119	155.537	160.512	159.478	165.828	286.884	164.777	-8191	255	
879.871	1	1	0	0	0.19199	0.14395	0.23355	0.084217	0.30625	0.18756	0.20576	0.19759	0.34133	0.15682	0.21221	0.1308	0.067008	0.11789	0.13237	0.052671	-2.7854	-3.3438	-3.3917	-3.0292	-3.2687	-3.0854	-2.9208	-3.3208	-3.0312	-3.075	-3.3479	-2.9229	-3.2812	-3.2917	-2.9104	-3.3	245.390	311.122	328.004	178.577	310.343	355.991	416.209	191.037	335.688	246.596	392.511	402.396	139.224	343.102	455.034	180.732	0.00029428	0.00020397	2.3929e-05	279.96	9.7764e-07	1.4417e-06	385.91	72.908	1.5052e-06	1.4793e-06	145.31	55.093	21.101	8.9939	1.3615e-06	30.063	0.00013921	4.6934e-05	1.1565e-05	273.04	5.5009e-07	4.8646e-07	376.72	71.285	6.0489e-07	5.4896e-07	142.78	54.466	20.801	8.8623	5.487e-07	29.813	205.130	199.550	248.274	150.361	284.693	278.084	150.786	155.495	295.426	295.564	155.512	160.114	160.011	165.405	294.883	164.421	-8191	255	
879.967	1	1	0	0	0.19415	0.21482	0.063851	0.32172	0.071086	0.084316	0.31757	0.11976	0.086648	0.034555	0.050133	0.17485	0.37361	0.22953	0.13135	0.24743	-2.6958	-2.9646	-3.0625	-3.0771	-3.4292	-3.3438	-3.0875	-3.2917	-3.1562	-3.0312	-3.4417	-2.9562	-3.2396	-3.1125	-3.025	-3.2229	459.567	468.264	285.656	154.131	221.994	269.152	407.130	171.624	436.345	402.587	385.343	431.682	470.169	172.290	332.029	375.026	0.00028292	0.00020024	6.8891e-05	280.39	1.1252e-06	2.0827e-06	388.73	72.516	1.2988e-06	1.945e-06	147.09	55.784	21.235	8.8924	1.407e-06	30.216	0.00013369	4.8932e-05	1.2367e-05	273.15	5.886e-07	5.515e-07	379.36	71.082	6.255e-07	5.9165e-07	143.88	54.829	20.719	8.8551	5.9292e-07	29.858	205.201	232.349	222.756	150.248	312.975	274.151	150.831	155.632	305.529	268.103	155.464	160.351	159.496	165.411	287.996	164.809	-8191	255	
880.063	1	1	0	0	0.069117	0.15721	0.09546	0.1553	0.072031	0.31187	0.16425	0.2292	0.042304	0.34718	0.11195	0.19464	0.36325	0.19296	0.17564	0.1252	-2.5479	-2.7708	-3.2479	-3.0271	-3.2271	-3.3542	-3.0083	-3.2667	-3.1937	-3.1188	-3.4062	-3.1188	-3.2979	-3.325	-3.2354	-3.3854	250.542	420.326	164.697	325.257	316.442	250.153	204.171	334.342	318.447	369.403	348.524	231.921	192.974	462.987	241.674	492.458	0.00028047	0.00021266	6.2319e-05	282	1.9972e-06	1.4339e-06	388.42	72.849	1.1272e-06	1.1823e-06	146.18	55.119	21.335	8.916	1.0611e-06	29.989	0.00013101	4.9671e-05	1.4411e-05	274.32	5.7824e-07	5.3086e-07	379.96	71.223	5.9974e-07	5.775e-07	143.38	54.671	20.651	8.7711	6.2186e-07	29.742	205.439	230.279	211.483	150.470	282.978	267.232	150.719	155.683	279.000	297.112	155.721	160.049	159.800	165.138	307.157	165.054	-8191	255	
880.159	1	1	0	0	0.076284	0.17438	0.15073	0.07432	0.04535	0.20568	0.22162	0.15107	0.1567	0.10333	0.23576	0.078995	0.21362	0.05516	0.11933	0.058086	-2.7083	-2.9521	-3.2562	-3.0187	-3.0354	-3.35	-3.0396	-3.4188	-3.3708	-3.1542	-3.4917	-3.2917	-3.2062	-3.4229	-3.0771	-3.1604	301.698	354.490	164.970	311.745	146.017	145.649	379.198	406.020	167.540	410.456	173.067	234.287	343.194	447.584	310.368	271.915	0.00029019	0.00023877	7.1235e-05	281.81	1.0042e-06	1.7359e-06	390.08	72.371	1.1998e-06	2.4452e-06	144.26	55.031	20.998	8.8086	2.2215e-06	29.689	0.00013393	5.2711e-05	1.2518e-05	274.77	6.1539e-07	4.8766e-07	381.24	70.947	5.8988e-07	5.468e-07	142.76	54.331	20.506	8.7141	5.9546e-07	29.435	206.078	211.728	218.637	149.908	331.542	292.810	150.754	155.464	268.546	303.597	155.617	160.331	159.846	165.555	279.006	164.527	-8191	255	
880.280	1	1	0	0	0.14398	0.17522	0.28766	0.075953	0.10307	0.14426	0.12331	0.24793	0.24056	0.1105	0.21506	0.047048	0.10462	0.32816	0.24336	0.1401	-2.6708	-2.8667	-3.3458	-3.3021	-3.0896	-3.3833	-3.1771	-3.375	-3.2958	-3.1458	-3.4313	-3.1146	-2.9042	-3.3604	-3.1021	-3.4083	176.629	357.752	249.892	159.087	403.355	248.393	470.169	355.724	165.424	267.278	383.272	366.949	244.027	340.640	182.274	201.252	0.0002731	0.00014716	5.8929e-05	281.69	1.3053e-06	1.8703e-06	385.05	71.717	1.1067e-06	1.2572e-06	143.62	54.284	20.864	8.7946	1.1962e-06	29.28	0.00013	5.2494e-05	1.2319e-05	273.37	5.9558e-07	4.7878e-07	374.93	70.342	5.1595e-07	5.2618e-07	140.84	53.413	20.359	8.5968	5.7231e-07	29.044	204.199	238.989	198.699	150.142	301.246	308.035	150.802	155.271	251.743	291.215	155.763	160.416	159.728	164.999	289.800	164.805	-8191	255	
880.374	1	1	0	0	0.077029	0.12782	0.025583	0.14581	0.21351	0.17682	0.29098	0.1407	0.3408	0.21835	0.20573	0.098594	0.22334	0.21754	0.215	0.12555	-2.9188	-3.0604	-3.3375	-3.2396	-3.2354	-3.3625	-3.3146	-3.3458	-3.3521	-2.9875	-3.3875	-3.3021	-3.2708	-3.3125	-3.0438	-3.2917	408.283	413.593	309.354	470.402	461.802	268.298	389.593	291.356	313.061	324.229	471.404	418.453	299.824	412.104	309.707	415.928	0.00027995	9.8753e-05	5.8551e-05	282.66	2.3888e-06	2.0592e-06	385.03	71.677	1.521e-06	3.1623e-06	142.5	54.388	20.869	8.7191	1.3351e-06	29.411	0.00013295	5.4883e-05	1.3651e-05	274.18	5.8882e-07	4.7182e-07	375.86	70.315	6.4432e-07	5.3889e-07	140.76	53.573	20.366	8.5838	5.9894e-07	29.071	203.862	234.377	248.107	150.166	293.320	285.855	150.383	155.563	278.413	278.066	155.566	160.154	159.715	166.015	271.799	164.682	-8191	255	
880.472	1	1	0	0	0.12455	0.076356	0.12093	0.33263	0.10175	0.068431	0.2245	0.038007	0.11877	0.11863	0.29152	0.11085	0.067627	0.26914	0.095593	0.13669	-2.7833	-2.9646	-3.3708	-3.1	-2.8875	-3.2792	-3.1	-2.9833	-3.4167	-3.125	-3.4042	-3.3917	-3.1271	-3.3521	-3.0625	-3.15	295.839	277.970	277.864	138.766	211.099	360.840	478.867	215.078	330.389	454.411	208.440	255.621	496.636	465.015	322.482	432.765	0.00028897	0.00018479	3.5292e-05	283.77	1.5674e-06	1.5313e-06	387.51	71.666	1.4943e-06	2.4554e-06	144.09	54.131	21.052	8.6496	1.6195e-06	29.39	0.00013105	5.2755e-05	1.2934e-05	274.98	5.9603e-07	4.999e-07	377.74	70.368	6.0198e-07	5.5496e-07	141.13	53.603	20.425	8.5403	5.9199e-07	29.116	205.182	212.976	205.407	149.741	276.970	288.141	150.866	155.439	289.841	289.575	155.430	160.432	159.464	165.269	285.206	164.716	-8191	255	
880.568	1	1	0	0	0.15061	0.14925	0.035426	0.08918	0.047925	0.22815	0.054447	0.035328	0.015949	0.12877	0.047551	0.24297	0.15919	0.14866	0.33785	0.19398	-2.8521	-2.85	-3.2875	-3.3021	-3.0083	-3.4896	-3.3458	-3.1583	-3.5833	-3.2521	-3.4354	-3.4979	-3.1333	-3.5417	-3.1479	-3.2375	427.178	328.445	454.649	143.723	407.744	228.874	148.439	395.861	299.619	344.299	210.281	151.355	426.758	202.644	251.456	413.693	0.00028567	0.00016806	2.9418e-05	281.5	1.0348e-06	2.4777e-06	390.23	71.842	1.376e-06	1.7298e-06	144.62	54.402	20.681	8.5395	1.6236e-06	29.208	0.0001321	5.1582e-05	1.3663e-05	274.33	5.5752e-07	5.2726e-07	380.98	70.151	5.1393e-07	4.9044e-07	141.5	53.531	20.284	8.4552	5.2022e-07	28.811	207.622	226.018	280.593	149.945	267.621	323.293	150.604	155.300	297.172	301.709	155.582	160.435	159.199	166.003	310.014	164.338	-8191	255	
880.663	1	1	0	0	0.25389	0.1386	0.068644	0.20546	0.10888	0.12289	0.26529	0.10809	0.11604	0.13748	0.15549	0.059395	0.30616	0.24345	0.20933	0.28877	-3.0979	-3.1667	-3.225	-3.4188	-3.0167	-3.2521	-3.225	-3.2	-3.4104	-3.3875	-3.4729	-3.4583	-2.9708	-3.2167	-3.2042	-3.0792	383.362	197.511	191.043	419.973	142.936	315.731	416.043	433.218	298.654	205.506	146.121	358.829	453.186	456.372	488.286	176.202	0.00027316	0.00020694	5.2427e-05	279.92	1.5481e-06	2.621e-06	384.55	70.993	1.0248e-06	1.221e-06	141.8	53.298	20.413	8.5051	9.702e-07	28.837	0.00013089	5.3319e-05	1.3199e-05	272.38	6.1854e-07	4.9942e-07	375.72	69.775	5.6837e-07	5.468e-07	138.61	52.547	19.965	8.3933	4.9753e-07	28.517	206.633	229.162	230.075	150.140	302.075	308.203	150.453	156.132	261.916	269.246	155.646	160.576	159.371	165.460	297.181	164.921	-8191	255	
880.759	1	1	0	0	0.069537	0.030485	0.044316	0.062934	0.14004	0.32112	0.30733	0.1857	0.14255	0.26107	0.3049	0.097766	0.052313	0.14672	0.06691	0.29372	-2.9229	-3.0083	-3.1292	-3.375	-2.9667	-3.1979	-3.2021	-3.1854	-3.375	-3.3583	-3.2021	-3.6208	-3.4479	-3.4208	-3.4688	-3.2542	278.038	304.499	158.974	392.404	496.970	279.430	445.170	387.329	249.657	254.865	399.537	170.897	387.822	356.057	338.309	206.037	0.00025708	0.00014847	4.6583e-05	280.82	1.0303e-06	2.2802e-06	383.37	71.187	1.6397e-06	1.1055e-06	142.43	54.236	20.704	8.6241	1.2446e-06	29.412	0.00012397	4.8997e-05	1.414e-05	272.77	6.0819e-07	5.0998e-07	375.82	69.807	5.5381e-07	5.1946e-07	140.04	53.425	20.298	8.5293	5.1165e-07	29.117	203.217	203.508	217.684	150.220	245.406	300.515	150.809	155.643	295.773	297.756	155.571	160.215	159.440	165.705	281.761	164.561	-8191	255	
880.880	1	1	0	0	0.053058	0.28587	0.17045	0.17787	0.10633	0.11293	0.21145	0.21637	0.039497	0.052839	0.14443	0.13442	0.063116	0.063532	0.15681	0.15661	-2.9021	-3.2646	-3.3563	-3.5187	-3.1833	-3.3458	-3.5854	-3.1458	-3.5604	-3.3021	-3.2333	-3.4667	-3.2229	-3.2875	-3.6937	-3.2042	341.908	433.684	393.340	398.623	227.969	247.395	395.238	166.712	200.589	192.252	253.796	146.259	178.253	375.014	272.653	409.254	0.00028233	0.00011112	2.1314e-05	279.94	1.9924e-06	2.508e-06	388.84	71.03	3.6131e-07	1.7345e-06	142.6	54.056	20.54	8.5713	1.9195e-06	29.212	0.00012903	4.8064e-05	1.4194e-05	272.71	5.6675e-07	5.8486e-07	379.13	69.994	5.8921e-07	5.3337e-07	140.48	53.362	20.178	8.4696	5.2022e-07	28.961	205.825	218.900	259.671	150.408	299.981	288.844	150.567	155.794	209.710	259.770	155.391	160.313	159.535	164.930	302.715	164.771	-8191	255	
880.976	1	1	0	0	0.21576	0.21449	0.05102	0.32365	0.22033	0.070492	0.14534	0.13615	0.28592	0.23182	0.066651	0.10694	0.13844	0.1483	0.12365	0.14012	-2.925	-3.3667	-2.9875	-3.4729	-2.9833	-3.2562	-3.2604	-3.0958	-3.2292	-3.1	-3.1479	-3.5417	-3.2083	-3.3521	-3.4813	-3.1479	367.538	239.975	202.905	416.934	169.030	297.162	398.389	402.038	302.258	178.368	338.641	259.562	167.714	398.827	466.964	317.437	0.00026996	0.000195	5.6851e-05	282.24	2.0398e-06	1.7234e-06	390.62	71.392	1.7331e-06	1.306e-06	143.77	54.159	20.604	8.657	1.0465e-06	29.145	0.00013016	4.8693e-05	1.4176e-05	273.94	5.7689e-07	5.4022e-07	380.35	69.786	6.3021e-07	5.0723e-07	140.96	53.531	20.197	8.4807	5.1906e-07	28.975	206.390	221.950	212.223	150.318	302.257	309.064	150.463	155.600	288.136	288.978	155.665	160.462	159.291	165.103	250.552	164.707	-8191	255	
881.072	1	1	0	0	0.22916	0.028182	0.29039	0.21613	0.23797	0.086876	0.029872	0.097856	0.072215	0.21618	0.2654	0.061684	0.033728	0.074719	0.27749	0.089861	-2.8042	-3.2438	-3.1896	-3.4375	-3.2708	-3.2604	-3.4604	-3.2167	-3.3875	-3.4146	-3.1708	-3.3875	-3.4021	-3.2604	-3.4562	-3.3604	384.316	145.556	382.440	441.217	163.077	191.987	480.630	269.240	162.082	490.384	493.200	237.229	308.729	438.823	333.680	269.959	0.00027589	0.00012456	5.2903e-05	279.99	9.2122e-07	9.6359e-07	385.1	70.756	1.5764e-06	1.8841e-06	142.23	53.537	20.818	8.6604	2.1586e-06	29.347	0.0001312	4.435e-05	1.5967e-05	272.64	5.645e-07	5.0974e-07	376.4	69.487	5.9503e-07	5.5855e-07	139.28	53.094	20.267	8.5357	5.6768e-07	29.036	204.938	205.666	248.271	149.978	293.922	255.433	150.878	155.852	284.068	270.133	155.311	159.976	159.668	164.990	299.325	164.704	-8191	255	
881.168	1	1	0	0	0.12187	0.16539	0.059074	0.31251	0.061213	0.29931	0.11727	0.29325	0.076748	0.15018	0.082777	0.34577	0.17837	0.15994	0.088366	0.22675	-2.8146	-3.4021	-3.1167	-3.2375	-3.125	-3.0646	-3.2521	-3.1125	-3.2375	-3.6146	-3.2583	-3.2458	-3.2479	-3.15	-3.2125	-2.8875	169.448	436.532	371.639	439.367	376.317	231.939	166.437	485.955	321.638	466.566	242.463	414.968	291.734	316.903	285.935	431.608	0.00029218	0.00014941	4.9914e-05	280.44	1.5163e-06	2.5619e-06	386.97	70.849	1.5652e-06	1.2807e-06	142.84	54.388	20.757	8.7115	9.3615e-07	29.477	0.00013483	4.7955e-05	1.3688e-05	272.17	5.7779e-07	5.5942e-07	377.52	69.593	5.7375e-07	4.8277e-07	140.37	53.805	20.205	8.6249	6.0519e-07	29.263	206.414	236.735	237.024	150.175	274.541	300.777	150.912	155.683	299.946	308.723	155.537	159.961	159.527	165.317	273.192	164.427	-8191	255	
881.264	1	1	0	0	0.20183	0.2463	0.14965	0.14086	0.04034	0.11802	0.30007	0.24327	0.12891	0.25219	0.01577	0.42592	0.054818	0.13854	0.26835	0.13036	-2.7292	-3.2812	-2.975	-3.3042	-3.3021	-3.0521	-3.4667	-3.1042	-3.1188	-3.4521	-3.3333	-3.4125	-3.4771	-3.0625	-3.375	-3.2354	379.132	485.267	330.911	138.371	487.995	174.269	446.066	491.651	349.031	270.766	449.832	151.148	317.131	484.831	182.303	468.773	0.0002702	0.00023027	4.3973e-05	280.61	1.3185e-06	2.5321e-06	388.71	71.726	9.8077e-07	2.2744e-06	143.19	54.649	21.045	8.7916	2.2863e-06	29.865	0.00013411	5.2451e-05	1.4321e-05	273.66	5.654e-07	5.3398e-07	379.56	69.848	5.7599e-07	5.185e-07	140.74	54.216	20.418	8.6859	5.6907e-07	29.657	204.349	218.659	206.629	150.148	276.725	266.194	150.525	155.695	273.844	277.356	155.502	159.933	159.584	165.653	269.679	164.368	-8191	255	
881.360	1	1	0	0	0.25021	0.096507	0.11428	0.16261	0.22831	0.050717	0.10807	0.092486	0.093277	0.19895	0.19433	0.10836	0.21554	0.26387	0.12596	0.17654	-2.6625	-3.125	-2.9562	-3.3896	-3.5104	-3.25	-3.3625	-3.1104	-3.0271	-3.5062	-3.1042	-3.3521	-3.3875	-3.1479	-3.4771	-3.5	384.325	454.866	168.700	260.122	335.447	219.260	144.351	407.653	241.023	301.988	384.950	478.753	242.722	420.687	233.951	451.047	0.00028188	0.00015415	2.6468e-05	281.38	1.915e-06	2.0101e-06	390.16	71.65	1.3241e-06	1.3078e-06	144.51	55.348	21.149	8.8628	1.1992e-06	29.86	0.00013483	4.4762e-05	1.4508e-05	273.24	5.8544e-07	5.3422e-07	381.84	70.015	6.3984e-07	5.5184e-07	142.48	54.785	20.483	8.7607	5.9616e-07	29.641	205.731	204.324	227.729	150.458	296.054	308.660	150.817	155.268	294.310	290.568	155.764	160.431	160.229	165.303	273.459	164.924	-8191	255	
881.456	1	1	0	0	0.12175	0.1599	0.11422	0.13204	0.20254	0.076127	0.047551	0.20558	0.16571	0.19459	0.086805	0.12878	0.18324	0.16869	0.2355	0.062023	-2.8979	-3.4083	-3.0333	-3.1875	-3.475	-3.075	-3.3542	-3.2375	-3.0187	-3.6396	-3.2313	-3.2896	-3.4542	-3.2104	-3.4333	-3.2708	423.838	257.647	316.028	340.008	233.930	395.899	271.754	468.292	492.925	440.313	477.968	229.088	260.818	490.062	357.419	438.635	0.00027132	0.00011784	4.2407e-05	278.98	1.5943e-06	2.8885e-06	386.77	71.334	1.4475e-06	1.3777e-06	141.14	54.492	21.016	8.7482	1.2724e-06	29.318	0.00013451	4.7369e-05	1.505e-05	272.87	5.6968e-07	6.391e-07	377.2	69.652	5.9638e-07	4.8157e-07	139.45	53.652	20.365	8.6329	6.0542e-07	29.148	205.848	198.854	242.149	150.345	305.959	287.727	150.693	155.527	275.821	299.810	155.170	160.426	159.584	165.518	287.436	164.592	-8191	255	
881.575	1	1	0	0	0.2326	0.071389	0.1886	0.057117	0.11531	0.30871	0.19801	0.049248	0.16854	0.23242	0.22789	0.27311	0.22415	0.12022	0.063701	0.14187	-2.5938	-3.2979	-3.1813	-3.0812	-3.2917	-3.1354	-3.075	-3.3417	-3.0938	-3.5021	-3.4396	-3.3187	-3.6375	-3.1	-3.2333	-3.4771	427.731	290.666	143.106	293.428	186.982	444.902	412.968	446.503	343.076	477.402	422.425	267.901	141.333	402.829	328.307	390.524	0.00028496	0.00016964	5.0716e-05	278.3	1.704e-06	2.4267e-06	388.49	70.862	8.7699e-07	1.1259e-06	142.87	54.56	20.767	8.8365	1.174e-06	29.848	0.00013862	5.5622e-05	1.5563e-05	272.31	5.9603e-07	6.1678e-07	377.69	69.235	6.2842e-07	5.7031e-07	139.82	53.878	20.352	8.6897	6.0195e-07	29.487	206.520	220.464	224.865	150.475	318.594	303.042	150.877	155.564	302.619	274.754	155.690	160.283	159.765	165.479	299.998	164.448	-8191	255	
881.647	1	1	0	0	0.2144	0.2136	0.045331	0.065285	0.2591	0.25428	0.054917	0.094048	0.16611	0.11311	0.12895	0.13769	0.10382	0.12549	0.17845	0.18395	-2.6833	-3.4333	-3.2875	-3.3187	-3.4667	-3.225	-3.3792	-3.4521	-3.0375	-3.6	-3.45	-3.3625	-3.5396	-3.0542	-3.2708	-3.5833	346.180	441.680	336.443	241.559	485.435	304.073	360.334	494.455	329.575	362.213	466.209	138.172	179.155	389.730	444.783	183.684	0.00028412	0.00026721	6.7202e-05	281.07	2.2106e-06	1.5342e-06	386.54	70.646	1.5203e-06	2.0166e-06	144.01	55.101	21.219	8.9023	1.5504e-06	30.187	0.00013856	5.5708e-05	1.5557e-05	272.66	5.9648e-07	6.3166e-07	378.92	69.433	6.7389e-07	6.0196e-07	141.76	54.624	20.612	8.805	6.7441e-07	29.918	207.018	195.443	241.839	150.506	298.240	280.118	150.696	155.641	265.900	296.322	155.740	160.301	158.936	165.383	290.655	164.617	-8191	255	
881.743	1	1	0	0	0.22417	0.11322	0.18964	0.16699	0.20088	0.14308	0.065754	0.031515	0.037981	0.26045	0.11898	0.23731	0.09004	0.35247	0.13508	0.17414	-2.6312	-3.0687	-3.125	-3.1354	-3.3833	-3.2354	-3.0979	-3.3438	-3.1437	-3.3688	-3.2458	-3.2188	-3.4062	-3.3208	-3.1937	-3.4833	435.095	165.613	322.375	148.919	351.460	475.791	148.341	175.514	287.276	262.607	146.957	173.579	148.871	351.026	218.099	455.597	0.00028778	0.00020707	2.5588e-05	281.21	1.676e-06	1.8949e-06	391.85	70.952	1.5077e-06	2.0882e-06	143.19	55.214	21.023	8.8844	1.5277e-06	30.072	0.00014026	5.5665e-05	1.6063e-05	272.54	6.4016e-07	6.0142e-07	381.98	69.451	6.4522e-07	5.8877e-07	141.21	54.49	20.502	8.7325	5.8389e-07	29.814	206.281	236.556	241.833	150.708	287.212	296.126	150.976	155.547	286.922	286.052	155.762	160.576	159.949	165.440	274.954	164.971	-8191	255	
881.839	1	1	0	0	0.16983	0.10653	0.14262	0.073402	0.23026	0.10144	0.13099	0.064645	0.18779	0.23955	0.15694	0.066421	0.26722	0.042413	0.17843	0.052514	-2.7729	-3.3479	-3.2438	-3.1667	-3.3688	-3.2729	-3.2188	-3.4625	-3	-3.1896	-3.4458	-2.9333	-3.25	-3.1875	-2.9938	-3.375	286.583	285.343	375.158	456.969	466.443	277.001	390.660	192.729	392.804	443.997	228.416	294.854	346.014	370.735	228.546	452.765	0.00028895	6.5635e-05	5.7156e-05	278.69	1.4148e-06	1.9739e-06	388.51	70.795	9.0808e-07	1.4685e-06	143.05	54.647	21.077	8.8694	2.2082e-06	30.041	0.00013724	5.1104e-05	1.5044e-05	272.39	6.2079e-07	5.923e-07	378.84	69.27	6.2304e-07	5.8326e-07	140.19	54.055	20.474	8.777	6.3459e-07	29.812	205.282	238.383	240.821	150.418	283.795	283.173	150.899	155.495	297.382	274.600	155.466	160.336	160.188	165.278	282.004	164.599	-8191	255	
881.960	1	1	0	0	0.077757	0.11522	0.2064	0.071127	0.33367	0.092196	0.32385	0.15275	0.15409	0.085992	0.068199	0.30853	0.039924	0.25152	0.2646	0.18043	-2.6312	-3.1813	-3.3542	-3.0333	-3.2125	-3.3333	-3.2229	-3.4458	-3.2208	-3.1188	-3.1479	-2.8521	-3.1583	-3.225	-3.2229	-3.4437	458.583	300.649	164.747	145.432	200.777	162.059	394.629	443.139	327.430	345.444	485.969	167.789	215.198	310.736	253.671	466.405	0.00029647	0.00018136	6.2264e-05	278.51	1.9565e-06	2.3678e-06	386.68	71.229	2.0278e-06	1.4514e-06	145.02	55.51	21.24	9.1942	1.546e-06	30.815	0.00013997	5.8119e-05	1.5008e-05	271.16	6.4579e-07	5.7382e-07	378.69	69.685	6.432e-07	6.5209e-07	141.92	55.029	20.727	9.0589	6.721e-07	30.554	203.815	232.269	251.392	150.267	265.478	293.012	150.924	155.296	277.907	272.381	155.816	160.366	159.800	165.860	293.609	164.654	-8191	255	
882.056	1	1	0	0	0.030465	0.06655	0.20454	0.34382	0.31505	0.18877	0.18532	0.20197	0.2038	0.043179	0.14759	0.19961	0.13681	0.25549	0.13642	0.23726	-2.8354	-3.2229	-3.2979	-3.2146	-3.4292	-3.3417	-3.1271	-3.3438	-3.1542	-3.1063	-3.4688	-3.1417	-3.3354	-3.3604	-3.1917	-3.6688	344.712	452.320	249.096	482.539	381.030	329.283	146.672	492.316	171.342	260.405	324.371	174.431	324.920	175.799	406.840	475.589	0.00030477	0.00017481	5.5609e-05	279.31	9.8681e-07	1.0324e-06	390.49	70.857	1.3403e-06	2.0946e-06	144.79	55.632	21.264	8.9602	1.6585e-06	30.171	0.00014606	6.3006e-05	1.616e-05	271.91	6.4151e-07	5.6206e-07	381.45	69.54	6.7143e-07	6.0964e-07	141.09	54.722	20.607	8.8944	6.5589e-07	29.927	205.582	208.508	245.214	150.220	294.452	272.551	150.796	155.774	303.654	253.197	155.615	160.341	159.957	165.257	278.986	164.534	-8191	255	
882.152	1	1	0	0	0.43004	0.2344	0.388	0.059834	0.13862	0.18795	0.25097	0.044407	0.18722	0.11782	0.047587	0.12014	0.17197	0.12602	0.096946	0.051468	-2.9083	-3.0542	-3.4417	-3.0458	-3.0958	-3.2896	-3.05	-3.3	-3.2333	-3.0812	-3.5583	-3.2833	-3.4792	-3.25	-3.1833	-3.3812	263.111	149.741	373.185	177.464	253.867	154.646	479.612	312.151	164.424	477.268	207.946	440.875	311.040	458.630	306.533	459.767	0.00027839	0.00024571	5.1496e-05	279.49	2.4188e-06	1.5045e-06	390.12	71.051	1.2778e-06	1.0904e-06	143.79	55.218	20.921	8.9126	1.3407e-06	30.094	0.00013443	5.6121e-05	1.5279e-05	273.16	6.4714e-07	6.1558e-07	382.47	69.592	6.4074e-07	5.5664e-07	141.11	54.688	20.485	8.7949	6.6191e-07	29.841	206.860	206.114	223.164	150.111	281.713	332.434	150.702	155.606	303.936	292.708	155.870	160.360	159.926	165.771	277.071	164.717	-8191	255	
882.271	1	1	0	0	0.089777	0.093842	0.18605	0.13062	0.29693	0.45275	0.057377	0.1196	0.1136	0.20631	0.16206	0.28764	0.22173	0.12701	0.13245	0.10586	-2.7208	-2.8375	-3.2479	-3.0187	-3.0271	-3.3167	-3.1958	-3.3521	-3.3875	-3.1271	-3.35	-3.1854	-3.0708	-3.4167	-3.1562	-3.3083	237.494	368.026	151.388	368.888	248.135	269.445	188.999	279.361	147.628	447.814	348.193	292.755	448.776	201.191	329.650	405.828	0.00026693	0.00030245	5.1675e-05	279.49	1.8579e-06	1.6767e-06	388.54	70.881	1.6141e-06	8.6707e-07	143.51	54.992	20.921	8.9142	1.5617e-06	29.626	0.00013213	6.5308e-05	1.531e-05	272.73	6.7078e-07	5.1694e-07	379.32	69.203	6.2573e-07	6.7343e-07	140.03	54.241	20.431	8.7782	5.6652e-07	29.522	206.303	200.962	234.270	149.936	278.357	333.624	150.869	155.557	295.650	313.270	155.641	160.103	159.672	165.311	278.884	164.490	-8191	255	
882.344	1	1	0	0	0.28767	0.14671	0.042898	0.25883	0.036631	0.25669	0.21243	0.14821	0.20201	0.16728	0.24305	0.10297	0.047084	0.28254	0.25606	0.15306	-2.9271	-2.9625	-3.4188	-3.3	-3.3604	-3.4	-3.0708	-3.2729	-3.4417	-3.0917	-3.3875	-3.2771	-3.1229	-3.4479	-3.1729	-3.1479	404.758	359.839	279.238	217.675	230.011	434.775	377.735	380.534	373.567	463.285	464.838	380.074	424.968	365.222	220.680	172.196	0.00027386	0.00019759	7.1496e-05	279.07	1.1768e-06	2.0665e-06	384.87	70.345	1.2253e-06	2.1726e-06	141.32	54.523	21.056	8.844	1.471e-06	29.636	0.00013017	5.7164e-05	1.3362e-05	271.92	6.0323e-07	5.5126e-07	376.67	68.796	6.0489e-07	5.9573e-07	139.15	53.825	20.458	8.7594	5.7393e-07	29.489	205.425	270.293	209.647	150.336	277.745	274.621	150.633	155.720	301.080	281.030	155.621	160.478	159.593	165.268	304.107	164.691	-8191	255	
882.441	1	1	0	0	0.30204	0.2002	0.15265	0.21641	0.19934	0.077614	0.076751	0.24128	0.21975	0.10978	0.040022	0.16051	0.25455	0.20536	0.15642	0.10614	-2.9688	-3.0208	-3.2438	-3.3021	-3.1417	-3.4271	-3.2354	-3.0479	-3.1958	-3.2542	-3.4188	-3.1833	-3.1583	-3.3771	-3.0917	-3.1312	451.034	314.664	418.679	311.041	167.004	202.230	419.563	452.083	176.266	459.211	254.242	486.545	395.840	447.831	282.246	387.473	0.00027663	0.00018251	6.2857e-05	281.15	1.3735e-06	2.0574e-06	386.77	70.387	1.5031e-06	1.5407e-06	141.95	54.352	21.006	8.8999	1.485e-06	29.796	0.00013411	5.5861e-05	1.4031e-05	273.24	6.4444e-07	5.6974e-07	379.19	68.905	6.1408e-07	5.6767e-07	139.1	53.793	20.44	8.7305	5.8574e-07	29.505	205.629	209.713	256.700	150.246	281.839	274.465	150.324	155.766	293.252	288.593	155.815	160.235	159.802	165.526	279.879	164.411	-8191	255	
882.561	1	1	0	0	0.15338	0.13415	0.038401	0.26367	0.069511	0.24324	0.14905	0.15623	0.22897	0.20656	0.28852	0.38145	0.21974	0.13462	0.12331	0.030036	-2.9146	-3.2021	-3.3875	-3.3688	-2.9854	-3.4208	-3.1708	-3.3	-3.4708	-3.4396	-3.4333	-3.4417	-3.2188	-3.4437	-3.325	-3.275	141.556	162.906	414.161	470.978	226.837	191.318	468.678	447.579	410.869	449.877	147.822	433.984	289.813	482.494	247.403	391.703	0.00027369	0.00025178	8.6305e-05	279.02	1.1927e-06	2.0791e-06	391.28	70.857	1.2669e-06	2.3871e-06	142.75	54.718	20.985	8.9788	1.0857e-06	30.189	0.00013674	5.5665e-05	1.3977e-05	272.59	5.8769e-07	5.8462e-07	381.24	69.126	6.3917e-07	5.7462e-07	139.64	54.375	20.511	8.8184	5.5518e-07	29.888	205.473	244.912	240.320	150.251	288.940	259.529	150.593	155.460	293.577	287.708	155.259	160.088	159.589	165.698	306.636	164.386	-8191	255	
882.656	1	1	0	0	0.073111	0.1235	0.076831	0.14287	0.30372	0.07101	0.13705	0.25475	0.12097	0.18447	0.1444	0.14151	0.331	0.086804	0.1804	0.1431	-3.1979	-3.1125	-3.2354	-3.275	-2.9938	-3.4833	-3.4083	-3.1813	-3.5917	-3.3896	-3.3729	-3.3875	-2.8688	-3.2417	-3.3833	-3.0583	443.196	371.368	380.207	420.242	169.644	322.837	386.764	405.061	314.780	254.285	427.370	222.191	156.524	172.201	471.801	247.516	0.00029932	0.00015788	9.4519e-05	280.29	2.0434e-06	2.2346e-06	388.68	70.293	7.2749e-07	1.0724e-06	143.18	55.541	21.239	9.0175	1.7725e-06	30.303	0.00014005	5.5795e-05	1.6944e-05	272.85	6.9375e-07	5.5774e-07	380.16	68.96	5.8092e-07	6.5233e-07	140.1	54.688	20.628	8.9091	5.9523e-07	30.123	205.257	206.881	209.514	150.368	306.691	298.054	150.723	155.633	272.939	315.905	155.658	160.218	159.698	165.050	274.066	164.679	-8191	255	
882.752	1	1	0	0	0.25042	0.12278	0.040312	0.094599	0.046989	0.053426	0.21086	0.093319	0.097072	0.11109	0.13834	0.10294	0.048639	0.054975	0.22245	0.20109	-3.0646	-3.1167	-3.0396	-3.2542	-3.0771	-3.5083	-3.3479	-2.9938	-3.3937	-3.2188	-3.1437	-3.2938	-3.0979	-3.3354	-3.4875	-3.1125	458.817	288.969	449.160	194.130	270.470	478.095	417.982	490.690	168.620	472.677	386.394	478.042	205.186	172.404	238.181	482.202	0.00029287	0.0002064	6.9826e-05	276.8	2.062e-06	2.1467e-06	384.83	70.369	1.4022e-06	1.3845e-06	142.11	55.095	21.203	8.9467	2.0727e-06	30.294	0.00014257	6.0986e-05	1.4767e-05	270.09	7.4937e-07	6.4606e-07	377.24	68.798	6.4903e-07	6.5089e-07	139.82	54.395	20.66	8.8993	6.2464e-07	30.095	207.083	230.419	229.074	149.951	296.694	298.522	150.727	155.152	279.241	330.611	155.886	160.271	158.902	165.024	269.114	164.794	-8191	255	
882.872	1	1	0	0	0.21321	0.12903	0.018218	0.28573	0.23403	0.004944	0.14379	0.27722	0.052956	0.067244	0.14012	0.23625	0.026947	0.18612	0.075245	0.31703	-3.1458	-3.1667	-3.2729	-3.2354	-3.0812	-3.2313	-3.3438	-3.1375	-3.325	-3.275	-3.3583	-3.4542	-3.0708	-3.1562	-3.3479	-3.3063	181.648	427.025	452.588	439.100	269.915	448.666	427.468	450.191	464.269	289.604	211.121	451.289	276.474	282.306	442.120	453.821	0.00028977	0.00023865	4.9163e-05	278.83	1.7379e-06	1.5707e-06	388.16	70.196	1.1542e-06	1.3483e-06	143.37	55.114	21.039	8.92	1.1341e-06	29.937	0.00013762	5.4362e-05	1.587e-05	269.93	7.0884e-07	6.2302e-07	378.9	68.881	6.441e-07	6.0916e-07	139.95	54.454	20.471	8.8008	5.8528e-07	29.71	207.162	231.701	219.682	150.112	274.869	273.742	150.698	155.782	277.678	283.487	155.033	160.444	159.254	165.879	285.443	164.372	-8191	255	
882.944	1	1	0	0	0.058086	0.19039	0.081771	0.11646	0.092831	0.033998	0.1746	0.12045	0.16734	0.2038	0.12833	0.20268	0.03045	0.10457	0.38373	0.31114	-3.1458	-3.3979	-3.2396	-3.3521	-3.0854	-3.0792	-3.5583	-3.1625	-3.3958	-3.3104	-3.3167	-3.5938	-3.4396	-3.2229	-3.4667	-3.1562	312.622	235.558	357.964	407.898	196.893	404.313	272.462	366.573	317.518	216.658	155.191	497.604	354.795	228.529	457.043	442.009	0.00028149	0.00023499	6.0116e-05	276.15	1.3931e-06	1.7716e-06	386.52	69.337	9.7072e-07	1.8476e-06	141.36	54.62	20.383	8.7718	2.2448e-06	29.776	0.00013465	5.3754e-05	1.7577e-05	270.76	6.3813e-07	5.911e-07	379.25	68.361	6.0332e-07	5.7127e-07	138.5	53.82	20.119	8.6888	5.524e-07	29.429	206.258	217.196	230.769	150.201	322.188	293.826	150.522	156.161	280.553	269.631	155.574	160.220	159.709	165.780	289.730	164.695	-8191	255	
883.040	1	1	0	0	0.082683	0.083105	0.2037	0.22198	0.22457	0.14661	0.10007	0.18624	0.10785	0.092094	0.15247	0.081156	0.24888	0.10393	0.1241	0.11825	-2.7708	-3.2104	-3.1	-3.3896	-2.9667	-2.9875	-3.2062	-3.0208	-3.2938	-3.3875	-3.1417	-3.4562	-3.2792	-3.1229	-3.4667	-3.3	177.073	230.998	295.666	448.298	274.042	284.598	183.963	186.504	299.637	372.035	372.145	415.262	375.443	369.475	149.526	426.199	0.00027672	0.00017533	5.0675e-05	279.74	1.6776e-06	1.6897e-06	387.5	69.081	2.0015e-06	8.1854e-07	139.53	53.629	20.506	8.6279	1.8153e-06	29.195	0.00012847	4.878e-05	1.5647e-05	272.21	6.4939e-07	6.0046e-07	378.46	67.868	6.1273e-07	5.6551e-07	136.6	52.856	19.956	8.541	5.8435e-07	28.94	204.066	221.838	270.598	150.553	284.840	307.844	150.758	155.735	272.792	323.606	155.912	160.400	160.014	165.458	294.538	164.657	-8191	255	
883.136	1	1	0	0	0.20279	0.037294	0.046491	0.075747	0.019779	0.060477	0.044143	0.25814	0.27121	0.113	0.32561	0.047988	0.26412	0.12562	0.13149	0.02502	-2.75	-3.1979	-2.8563	-3.3229	-3.0292	-3.0812	-3.4458	-3.0146	-3.2583	-3.3875	-3.0292	-3.3146	-3.3271	-3.1583	-3.5917	-3.1833	416.660	289.190	316.395	272.525	225.197	143.592	343.762	408.579	432.927	247.810	439.351	197.074	475.057	272.645	394.067	249.371	0.00028146	0.00016954	5.8599e-05	277.71	1.5406e-06	2.0203e-06	381.22	69.169	1.2932e-06	1.8344e-06	138.62	53.366	20.594	8.637	2.0578e-06	29.095	0.00013475	5.4384e-05	1.6118e-05	270.51	6.4939e-07	5.9998e-07	372.57	67.533	6.0646e-07	5.245e-07	135.73	52.67	20.063	8.5467	5.862e-07	28.921	205.252	228.066	246.066	150.498	299.465	288.578	150.774	155.658	250.679	286.305	155.585	160.215	158.818	165.225	266.825	164.583	-8191	255	
883.257	1	1	0	0	0.14689	0.16454	0.053684	0.32762	0.24378	0.18927	0.2185	0.083994	0.040494	0.10345	0.043443	0.17146	0.082056	0.29621	0.19761	0.10392	-2.775	-3.2708	-3.0812	-3.3271	-3.3271	-2.9854	-3.3396	-3.1875	-3.1479	-3.2938	-3.0333	-3.4479	-3.2708	-3.2167	-3.35	-3.3167	410.099	492.969	139.319	417.347	444.904	460.872	421.880	282.770	217.260	283.636	421.842	245.274	468.568	141.398	238.375	267.912	0.00028226	0.00015401	6.1194e-05	277.08	9.6353e-07	1.548e-06	384.1	69.552	1.7646e-06	8.5889e-07	139.64	53.442	20.452	8.7427	1.9794e-06	29.388	0.00013416	5.3254e-05	1.4839e-05	270.26	5.9355e-07	6.1534e-07	375.31	67.719	6.4298e-07	5.1107e-07	136.58	52.995	20.015	8.5801	5.9639e-07	29.094	205.636	220.745	228.746	150.060	310.416	322.574	150.613	155.728	306.944	279.845	155.349	160.681	160.218	165.852	276.976	164.735	-8191	255	
883.353	1	1	0	0	0.40904	0.12038	0.12625	0.16187	0.13119	0.15184	0.17662	0.057604	0.044985	0.20625	0.43649	0.073613	0.043364	0.19639	0.18438	0.034669	-2.7375	-3.2812	-2.9729	-3.2687	-3.4521	-3.1771	-3.4958	-3.325	-2.8958	-3.2333	-3.1188	-3.2167	-3.4458	-3.0333	-3.2958	-3.4208	283.991	383.395	244.209	231.991	467.152	160.176	431.605	454.919	490.737	444.946	463.245	312.783	336.464	209.628	202.166	308.915	0.00027754	0.00014998	5.7022e-05	277.95	1.2634e-06	1.456e-06	386.93	68.996	2.013e-06	2.0696e-06	139.01	53.835	20.586	8.6228	1.98e-06	29.288	0.00013777	5.0192e-05	1.6329e-05	271.66	6.1359e-07	6.1606e-07	377.2	67.757	6.2595e-07	5.7942e-07	136.79	52.999	20.024	8.5457	6.1121e-07	28.968	205.235	208.571	224.336	150.285	277.063	310.741	150.824	155.458	278.688	275.673	155.728	159.998	159.400	165.681	280.104	164.746	-8191	255	
883.448	1	1	0	0	0.29873	0.19939	0.11943	0.10841	0.17073	0.1655	0.16016	0.1332	0.068246	0.14234	0.052236	0.21002	0.13827	0.21963	0.084553	0.085571	-2.7104	-3.1542	-2.9188	-2.975	-3.2792	-3.1833	-3.3771	-3.3771	-2.9875	-3.3083	-3.0375	-3.0833	-3.4562	-3.0208	-3.4521	-3.4083	415.003	224.625	344.103	214.138	159.626	236.436	421.597	356.648	188.432	447.225	238.084	425.463	183.148	293.425	373.488	163.502	0.00029151	0.00026308	4.867e-05	278.7	1.706e-06	1.7426e-06	387.45	69.219	1.6401e-06	2.2183e-06	138.57	53.85	20.432	8.633	2.4245e-06	28.927	0.00013563	5.9314e-05	1.5478e-05	271.58	6.0053e-07	5.9014e-07	377.56	67.94	6.4925e-07	5.6167e-07	136.55	53.035	19.98	8.514	5.8018e-07	28.729	205.369	236.424	207.779	150.067	308.854	299.752	150.665	155.572	298.922	294.043	155.587	160.599	159.501	165.480	282.447	164.658	-8191	255	
883.544	1	1	0	0	0.073919	0.21905	0.14842	0.13819	0.14885	0.15774	0.31514	0.11258	0.074288	0.10098	0.14866	0.16106	0.36239	0.055838	0.10707	0.096763	-2.4958	-3.1542	-3.1083	-3.1792	-3.4813	-3.225	-3.3375	-3.35	-2.9188	-3.3312	-3.2083	-3.1708	-3.275	-2.9792	-3.275	-3.3688	141.703	437.613	452.239	295.669	397.253	449.205	493.900	358.417	227.138	171.018	432.167	437.642	257.557	249.775	278.419	318.405	0.00028624	0.00015335	5.0413e-05	275.24	1.1521e-06	1.0852e-06	380.79	69.291	1.5946e-06	1.9841e-06	137.71	52.933	20.498	8.6352	2.1073e-06	28.974	0.00013663	5.1886e-05	1.4405e-05	269.93	5.8589e-07	5.6566e-07	372.75	67.454	6.1744e-07	5.811e-07	134.94	52.354	19.916	8.4945	6.2186e-07	28.696	203.613	214.813	225.508	150.776	251.289	290.375	150.581	155.553	275.435	293.709	155.283	160.256	159.019	165.114	300.988	165.015	-8191	255	
883.640	1	1	0	0	0.15407	0.099586	0.13074	0.3537	0.047222	0.064774	0.24626	0.16765	0.20913	0.25745	0.25189	0.12238	0.19644	0.12899	0.14363	0.19048	-2.75	-3.5938	-3.3667	-3.025	-3.3312	-3.1271	-3.0312	-3.3021	-3.1562	-3.4021	-3.3792	-3.0521	-3.3812	-3.3125	-3.2292	-3.4042	352.920	251.085	144.033	159.316	302.144	160.286	461.019	402.629	282.634	234.764	176.638	318.200	395.181	477.571	209.658	451.820	0.00029297	0.00018062	4.5982e-05	274.96	1.6941e-06	2.4443e-06	382.38	68.215	1.7755e-06	1.8978e-06	138.18	53.069	20.505	8.5949	1.7286e-06	28.949	0.00013985	5.4731e-05	1.4152e-05	269.89	6.1944e-07	5.851e-07	373.82	67.251	6.4387e-07	5.4129e-07	135.42	52.627	19.981	8.5103	6.1653e-07	28.729	205.198	212.614	243.985	150.378	299.192	277.352	150.464	155.535	304.147	317.948	155.412	160.487	160.300	165.544	296.551	164.859	-8191	255	
883.736	1	1	0	0	0.17178	0.15336	0.20648	0.16536	0.043351	0.20942	0.10579	0.11867	0.20959	0.088539	0.28654	0.2014	0.16972	0.17093	0.1074	0.15023	-2.7396	-3.3604	-3.125	-3.1	-3.3187	-3.1208	-2.9583	-3.2458	-2.9771	-3.05	-3.1167	-2.9167	-3.475	-3.1479	-3.3167	-3.5438	389.820	442.484	210.079	290.082	350.602	229.646	292.335	406.408	289.287	373.062	384.531	493.954	348.960	166.089	435.493	373.618	0.00027027	0.0001433	4.7808e-05	276.85	1.2305e-06	1.657e-06	383.03	68.545	1.4376e-06	1.5125e-06	138.68	53.576	20.62	8.662	1.3164e-06	29.161	0.00012898	5.3949e-05	1.4743e-05	270.63	6.1562e-07	6.175e-07	375.63	67.399	6.4611e-07	5.7582e-07	136.25	52.997	20.071	8.5505	6.4385e-07	28.943	205.018	223.706	235.295	150.419	287.951	263.993	150.503	156.266	298.207	308.011	155.317	160.468	159.557	165.706	315.225	164.361	-8191	255	
883.832	1	1	0	0	0.12128	0.2109	0.15664	0.081982	0.15941	0.21581	0.050215	0.1936	0.037294	0.19778	0.10049	0.11386	0.17785	0.047137	0.178	0.19066	-2.7146	-3.3312	-3.3667	-3.15	-3.4313	-3.3354	-3.2417	-3.5208	-3.1729	-3.2396	-3.3229	-3.0271	-3.3438	-3.2562	-3.0208	-3.5	319.903	471.912	429.759	163.503	149.629	401.308	348.226	154.225	248.671	195.298	478.815	332.881	246.934	480.568	156.788	429.671	0.00026584	0.00021999	4.7658e-05	277.23	1.54e-06	2.2635e-06	387.54	68.568	1.2412e-06	2.105e-06	138.58	53.581	20.772	8.5868	1.5848e-06	29.008	0.00013261	5.3233e-05	1.3525e-05	271.58	6.1809e-07	5.6782e-07	377.81	67.375	6.0064e-07	6.1755e-07	136.11	52.888	20.049	8.5181	6.1537e-07	28.749	206.597	218.142	246.989	150.004	285.416	301.570	150.499	155.451	256.849	285.789	156.031	160.459	159.541	165.388	276.893	164.805	-8191	255	
883.953	1	1	0	0	0.14688	0.12973	0.043571	0.025681	0.22292	0.23607	0.27453	0.17376	0.079334	0.21796	0.080249	0.21285	0.24935	0.12165	0.10637	0.16119	-2.8229	-2.9958	-3.3792	-3.3333	-3.5333	-3.3917	-3.3354	-3.2958	-3.2292	-3.1708	-3.4104	-3.0417	-3.3083	-3.4146	-3.2375	-3.575	345.387	443.779	453.616	185.113	271.235	471.907	228.689	359.255	174.365	199.440	195.227	395.444	210.405	432.014	179.393	369.783	0.00025681	0.00017401	5.6473e-05	275.54	1.3959e-06	2.3577e-06	382.67	68.62	1.594e-06	1.8882e-06	137.1	52.769	20.107	8.4584	1.5347e-06	28.684	0.00013152	5.7012e-05	1.5358e-05	269.17	5.7666e-07	5.9854e-07	372.31	67.028	6.1856e-07	5.9573e-07	134.1	52.125	19.624	8.3823	6.031e-07	28.19	205.969	224.554	263.240	150.220	296.128	304.509	150.440	155.435	288.450	292.314	155.402	160.125	160.085	166.079	277.113	164.873	-8191	255	
884.049	1	1	0	0	0.090024	0.22795	0.24107	0.12365	0.11713	0.075903	0.25417	0.17406	0.24779	0.099974	0.1296	0.16904	0.26373	0.13863	0.14933	0.093478	-2.7979	-3.325	-3.4708	-3.2104	-3.2542	-3.1854	-2.8521	-3.2	-3.0833	-3.1729	-3.525	-3.1708	-3.2938	-3.3354	-3.2292	-3.5125	144.837	440.533	434.842	326.041	383.536	418.662	407.783	350.724	427.802	395.287	338.922	153.499	463.666	236.429	340.955	304.395	0.00027364	0.00012225	5.6724e-05	278.04	9.1505e-07	2.2837e-06	380.43	67.977	8.7204e-07	1.0035e-06	136.88	52.882	20.062	8.4342	1.8218e-06	28.627	0.0001274	5.1691e-05	1.3489e-05	270.74	6.0211e-07	5.515e-07	371.79	66.732	6.0915e-07	5.5352e-07	134.08	51.876	19.699	8.3345	6.5774e-07	28.272	201.954	278.192	230.907	150.559	313.912	284.744	150.638	156.064	272.184	279.064	155.666	160.513	160.226	165.241	286.723	164.653	-8191	255	
884.145	1	1	0	0	0.46851	0.15977	0.27368	0.068351	0.13936	0.11268	0.2009	0.13686	0.15961	0.17405	0.21167	0.2282	0.1501	0.16781	0.054741	0.25057	-2.7042	-3.2146	-3.3958	-3.1833	-3.3187	-3.4167	-3.1521	-3.4667	-3.2896	-3.1688	-3.6188	-3.1979	-3.2625	-3.5187	-3.0625	-3.3292	319.635	329.763	267.782	251.324	321.317	320.237	213.888	191.452	342.638	157.174	434.763	212.365	155.085	286.044	154.509	445.836	0.00025819	0.00017538	5.6046e-05	276.61	2.0364e-06	1.4894e-06	380.78	68.529	1.1291e-06	1.9007e-06	137.61	52.781	20.336	8.4593	2.2073e-06	28.718	0.00013006	5.2581e-05	1.3772e-05	270.04	6.1314e-07	6.0166e-07	372.38	67.015	5.4821e-07	5.7606e-07	134.52	52.163	19.802	8.3986	6.2788e-07	28.412	203.576	238.199	237.790	150.175	300.993	298.281	150.681	155.712	312.714	301.523	155.985	160.524	159.323	165.236	306.557	164.566	-8191	255	
884.241	1	1	0	0	0.068001	0.24164	0.20073	0.24647	0.12578	0.055547	0.13899	0.26953	0.11887	0.11515	0.025244	0.19287	0.089063	0.16502	0.14891	0.083937	-2.7271	-2.8563	-3.0458	-3.1667	-2.9958	-3.1396	-3.075	-3.4083	-3.1937	-3.025	-3.4604	-3.2438	-2.9396	-3.3625	-3.1479	-3.375	366.753	295.547	416.381	433.220	260.141	273.275	199.584	393.217	293.311	460.846	359.697	488.097	461.381	195.004	373.490	411.949	0.00028695	0.00021247	4.3332e-05	277.8	1.5675e-06	1.4529e-06	384.88	68.496	1.3156e-06	2.59e-06	137.23	53.118	20.18	8.57	1.8331e-06	28.742	0.00013777	5.6447e-05	1.3392e-05	270.69	6.1697e-07	5.4238e-07	375.51	67.066	6.1385e-07	5.8542e-07	134.65	52.336	19.75	8.4407	6.1676e-07	28.48	205.218	247.556	248.858	150.248	305.633	300.525	150.346	155.639	296.140	256.376	155.383	160.336	159.778	165.879	271.317	164.690	-8191	255	
884.337	1	1	0	0	0.11005	0.1422	0.042929	0.16657	0.11025	0.12085	0.096947	0.29964	0.046853	0.22148	0.050718	0.062772	0.33237	0.137	0.15188	0.3015	-2.9146	-2.8833	-3.2917	-3.45	-3.1667	-3.4875	-3.1771	-3.2271	-3.3458	-2.9792	-3.3583	-3.4562	-3.1021	-3.4021	-3.1792	-3.3042	353.053	175.144	346.358	286.388	223.972	216.081	453.111	430.033	265.957	183.881	311.605	198.263	371.955	166.372	261.469	440.138	0.00027529	0.00017626	4.0964e-05	275.99	1.4654e-06	3.8478e-07	380.47	68.133	1.1243e-06	2.0071e-06	136.25	52.458	20.291	8.5272	1.2999e-06	28.672	0.0001318	5.9726e-05	1.4652e-05	270.2	6.3768e-07	5.2894e-07	371.27	66.764	5.6345e-07	6.2259e-07	133.46	51.772	19.779	8.426	6.2301e-07	28.434	205.712	208.942	209.321	150.266	284.796	325.633	150.581	156.005	282.163	293.281	155.808	160.204	159.752	164.874	284.989	164.501	-8191	255	
884.434	1	1	0	0	0.11256	0.10018	0.15178	0.24416	0.041881	0.032289	0.12674	0.28896	0.17163	0.10866	0.3181	0.17616	0.11188	0.13061	0.32031	0.16648	-2.7938	-2.9479	-2.8646	-3.1896	-3.0021	-3.5812	-3.1792	-3.3021	-3.1792	-3.1646	-3.2458	-3.2313	-3.2313	-3.3479	-3.15	-3.3417	448.628	379.814	222.461	331.363	365.675	418.838	480.105	432.777	177.481	456.902	340.806	366.231	401.465	222.827	462.379	409.534	0.00028037	0.00019485	3.4873e-05	277.61	1.7625e-06	1.0208e-06	379.4	68.106	1.1747e-06	1.0218e-06	136.59	53.168	20.195	8.5086	1.593e-06	29.144	0.00013173	5.9422e-05	1.3995e-05	269.96	6.4556e-07	5.3278e-07	371.9	66.89	5.7442e-07	6.1923e-07	134.02	52.212	19.829	8.4233	6.1144e-07	28.611	206.047	222.843	221.837	150.622	280.569	302.760	150.606	155.634	273.568	328.783	155.628	160.311	160.394	165.610	268.997	164.950	-8191	255	
884.554	1	1	0	0	0.14676	0.092809	0.12773	0.17347	0.12145	0.17707	0.28381	0.062748	0.16543	0.052097	0.12882	0.40498	0.14713	0.19	0.02443	0.22773	-2.8542	-2.95	-3.2167	-3.2604	-3.0438	-3.3167	-3.3125	-3.1667	-3.5458	-3.3396	-3.2271	-3.2	-2.7938	-3.3229	-3.2729	-3.2729	208.169	261.847	157.069	378.387	444.246	412.994	355.444	454.801	423.634	417.630	496.814	342.378	166.710	201.393	395.063	405.250	0.00027243	0.0001871	5.4831e-05	279.14	1.0794e-06	2.9032e-06	382.09	68.103	1.4474e-06	1.7984e-06	137.48	52.984	20.48	8.5392	2.048e-06	28.944	0.00013334	5.699e-05	1.4074e-05	269.81	6.9668e-07	5.9686e-07	373.73	66.86	6.3222e-07	6.0484e-07	134.54	52.324	19.787	8.4651	5.7648e-07	28.59	204.097	233.789	239.088	150.359	311.296	296.639	150.476	155.659	278.660	272.833	155.941	159.982	158.777	165.767	305.330	164.558	-8191	255	
884.649	1	1	0	0	0.12904	0.18033	0.29929	0.098529	0.18653	0.13027	0.20839	0.24747	0.19676	0.050802	0.044561	0.06718	0.20391	0.098172	0.055821	0.043434	-3.0604	-3.0833	-2.8854	-3.4667	-3.1063	-3.5417	-3.4354	-2.8646	-3.2562	-3.1958	-3.2521	-3.4896	-3.0083	-3.1771	-3.1396	-3.1312	239.130	171.331	427.165	372.976	178.060	175.976	162.785	495.380	183.492	375.735	411.261	359.395	470.309	293.587	433.948	440.098	0.00028366	0.00010474	5.0559e-05	276.29	1.6217e-06	3.1058e-06	385.99	68.303	1.2384e-06	1.5767e-06	136.96	52.999	20.118	8.4504	1.0385e-06	28.389	0.00013026	4.9367e-05	1.6051e-05	269.56	6.915e-07	5.5798e-07	375.02	66.889	6.5821e-07	5.3337e-07	133.96	52.213	19.66	8.3544	5.9732e-07	28.104	205.631	234.723	213.515	149.839	290.625	300.896	150.341	155.827	278.824	304.166	155.778	160.228	159.602	165.633	261.915	164.813	-8191	255	
884.745	1	1	0	0	0.20841	0.23764	0.1382	0.22295	0.048968	0.21132	0.20087	0.22976	0.21591	0.17042	0.15799	0.36475	0.13416	0.050355	0.06681	0.10579	-3.0792	-3.1979	-3.2375	-3.2479	-3.2333	-3.2958	-3.5312	-3.1708	-3.4437	-2.9625	-3.1292	-3.4562	-3.2375	-3.475	-3.2792	-3.0812	348.828	190.004	171.963	220.068	319.033	364.363	366.299	478.808	436.417	205.057	154.284	469.527	403.611	408.709	221.258	388.850	0.00027958	0.00020272	6.362e-05	276.73	1.6622e-06	3.1467e-06	379.87	67.526	9.2398e-07	8.2198e-07	135.56	52.474	20.188	8.4221	2.073e-06	28.612	0.0001351	5.1517e-05	1.4701e-05	269.41	6.5457e-07	5.8702e-07	369.3	66.073	5.8002e-07	5.468e-07	132.5	51.467	19.571	8.352	6.4015e-07	28.209	206.216	203.516	204.622	150.390	296.071	286.499	150.482	155.849	294.035	270.929	155.696	160.287	159.940	165.591	283.042	164.790	-8191	255	
884.816	1	1	0	0	0.08268	0.11139	0.042836	0.16455	0.081287	0.26331	0.20826	0.23783	0.18799	0.23922	0.058645	0.093592	0.16711	0.18022	0.12676	0.2001	-2.9292	-3.1937	-3.0354	-3.4833	-3.1979	-3.4292	-3.6104	-3.2042	-3.2562	-3.2125	-3.2375	-3.4375	-3.2188	-3.2875	-3.2521	-3.1333	447.797	141.205	197.824	153.401	236.717	446.285	450.119	396.629	163.794	162.328	438.471	268.993	158.059	186.827	139.473	395.434	0.00027044	0.00029202	7.1142e-05	276.67	1.1699e-06	2.4198e-06	381.11	67.769	1.2063e-06	1.0338e-06	135.81	52.777	19.988	8.6274	1.3051e-06	28.976	0.00013332	6.2333e-05	1.4954e-05	268.86	6.2732e-07	5.7262e-07	371.09	66.392	5.9548e-07	5.7702e-07	133.18	51.905	19.693	8.4427	6.1908e-07	28.524	206.874	220.787	225.726	149.999	280.421	295.735	150.790	155.387	291.262	281.527	155.395	160.670	159.279	165.388	300.140	164.563	-8191	255	
884.937	1	1	0	0	0.18338	0.071338	0.16984	0.21425	0.13985	0.13065	0.18866	0.18105	0.24557	0.061484	0.14956	0.13113	0.18832	0.26557	0.079856	0.17521	-3.0708	-3.2562	-3.2292	-3.2896	-3.1333	-3.3667	-3.4604	-3	-3.2	-3.2604	-3.1125	-3.5479	-3.2417	-2.9542	-3.4625	-3.2062	475.517	287.226	154.191	231.672	470.783	266.763	185.791	327.668	496.454	307.629	173.666	431.550	260.299	304.007	170.867	391.212	0.0002663	0.00013407	5.7979e-05	276.93	8.8903e-07	2.7029e-06	381.73	67.265	1.0368e-06	1.0035e-06	135.03	52.237	20.337	8.461	1.592e-06	28.524	0.00013132	5.2429e-05	1.5503e-05	269.3	6.0256e-07	5.6542e-07	372.5	66.216	6.5037e-07	5.7438e-07	133.17	51.702	19.567	8.3418	5.7254e-07	28.214	206.966	203.715	237.813	150.188	256.179	286.469	150.716	155.479	245.718	306.624	155.913	160.491	160.132	165.517	318.007	164.655	-8191	255	
885.033	1	1	0	0	0.17461	0.15092	0.18769	0.2432	0.05359	0.057759	0.36266	0.26937	0.35042	0.0038539	0.05257	0.14475	0.23519	0.22478	0.089602	0.28898	-3.0062	-3.2562	-2.9125	-3.3396	-3.1771	-3.225	-3.5354	-3.2208	-3.3542	-3.35	-3.0187	-3.2917	-2.9979	-3.0958	-3.4437	-3.2146	452.009	461.642	443.220	325.302	316.133	232.119	369.927	400.768	316.539	216.748	349.880	497.464	233.484	465.722	148.519	406.426	0.00027085	9.7826e-05	3.8957e-05	277.99	1.0651e-06	1.5347e-06	379.47	68.029	1.2309e-06	1.5537e-06	136.64	52.791	20.123	8.3732	1.4992e-06	28.464	0.00013177	5.3254e-05	1.6389e-05	269.87	5.9603e-07	6.3454e-07	371.82	66.588	5.9951e-07	5.3937e-07	133.29	51.793	19.582	8.3066	5.6189e-07	28.011	207.192	220.226	208.535	150.424	314.108	280.713	150.483	155.673	291.807	284.472	155.760	160.206	159.171	165.940	301.468	164.677	-8191	255	
885.129	1	1	0	0	0.1243	0.077501	0.25571	0.066003	0.21338	0.29924	0.37003	0.18904	0.099378	0.11009	0.065572	0.38855	0.17892	0.11496	0.20024	0.16774	-2.7458	-3.175	-2.9979	-3.4813	-3.1688	-3.1896	-3.5042	-3.225	-3.3063	-3.4729	-3.1896	-3.1813	-3.0708	-3.0292	-3.3146	-3.1562	441.203	431.223	486.771	402.227	291.844	297.786	419.215	197.526	166.082	418.697	481.325	493.750	282.178	324.420	275.519	477.948	0.00028309	0.00021529	7.8748e-05	277.59	1.0237e-06	1.2098e-06	376.65	67.392	9.779e-07	2.2982e-06	134.52	52.078	20.108	8.3967	1.194e-06	28.336	0.00013238	5.3515e-05	1.5285e-05	268.96	5.8814e-07	6.2062e-07	367.99	66.081	6.1856e-07	5.4177e-07	131.72	51.281	19.576	8.3275	6.0496e-07	28.148	204.698	230.029	234.320	150.003	294.448	317.308	150.575	155.344	283.240	296.766	155.459	160.771	159.766	165.999	288.254	164.514	-8191	255	
885.225	1	1	0	0	0.14759	0.16662	0.07867	0.14216	0.084969	0.030872	0.17405	0.20106	0.11513	0.085575	0.34334	0.20499	0.31551	0.22333	0.16419	0.23227	-2.8812	-3.4125	-2.8875	-3.2896	-3.1333	-3.0521	-3.1312	-3.2167	-3.1229	-3.5687	-2.9771	-3.3042	-3.1667	-2.8958	-3.4458	-3.1021	187.031	421.468	358.930	447.386	451.414	151.702	203.518	310.014	262.762	213.462	437.914	139.995	139.521	183.154	173.733	364.881	0.00025788	0.00019998	7.5459e-05	275.19	1.2989e-06	1.284e-06	379.79	67.957	1.0538e-06	2.3038e-06	136.67	53.211	20.685	8.8062	1.8899e-06	29.77	0.00012856	5.6556e-05	1.6419e-05	268.37	6.2845e-07	5.719e-07	371.77	66.6	6.4813e-07	6.0028e-07	133.82	52.746	20.083	8.6802	6.5265e-07	29.367	203.572	208.383	232.804	150.290	281.556	283.451	150.672	155.271	279.535	272.553	155.645	160.590	159.623	165.196	291.310	164.826	-8191	255	
885.344	1	1	0	0	0.13286	0.12	0.15266	0.02993	0.094616	0.144	0.063363	0.13458	0.13652	0.21749	0.25537	0.48066	0.14608	0.12103	0.11024	0.10697	-2.7229	-3.1	-3.0896	-3.2667	-3.4729	-3.2792	-3.3729	-3.2021	-2.9083	-3.1542	-3.0938	-3.125	-3.4208	-2.9771	-3.2958	-3.0771	332.639	486.988	379.025	423.183	387.368	431.375	464.109	203.498	417.628	139.640	280.840	464.193	239.603	172.917	290.924	474.642	0.00027025	0.00014116	3.1618e-05	278.58	1.3646e-06	2.0721e-06	383.81	68.51	1.0728e-06	2.1577e-06	138.98	55.363	20.886	9.1484	1.6444e-06	30.568	0.00013975	6.0834e-05	1.7022e-05	269.84	6.8632e-07	6.5278e-07	375.12	67.256	7.6754e-07	6.2858e-07	137.07	54.69	20.41	9.0263	7.5729e-07	30.318	205.883	223.482	197.459	150.418	280.710	283.222	150.831	155.889	294.533	286.891	155.741	160.229	159.705	165.301	294.565	164.730	-8191	255	
885.441	1	1	0	0	0.20118	0.12496	0.14178	0.13154	0.066946	0.13667	0.3493	0.10761	0.12265	0.1299	0.22041	0.26336	0.044651	0.1389	0.1508	0.15067	-2.5667	-3.2958	-3.2479	-3.2042	-3.2812	-3.1958	-3.4542	-3.3583	-3.0229	-3.2833	-3.1708	-3.3229	-3.3792	-3.0604	-3.1667	-3.2292	326.363	149.786	202.148	425.667	176.356	324.039	359.107	311.176	414.602	255.682	334.581	328.823	380.684	440.016	421.918	497.389	0.00028756	0.00025215	8.3381e-05	276.7	1.8031e-06	2.4166e-06	385.94	69.499	1.1696e-06	1.4693e-06	140.49	55.841	21.049	9.1352	1.6096e-06	30.411	0.00014559	6.6199e-05	1.8318e-05	268.64	7.246e-07	7.2285e-07	377	67.623	7.5836e-07	6.4465e-07	138.12	54.878	20.439	9.0376	7.4271e-07	30.125	208.181	218.500	218.368	150.555	294.269	268.194	150.674	155.974	294.279	250.096	155.939	160.515	159.411	165.659	289.047	164.780	-8191	255	
885.514	1	1	0	0	0.098123	0.12724	0.15675	0.14008	0.073723	0.092934	0.087935	0.11136	0.1862	0.08261	0.14982	0.068285	0.1577	0.21249	0.053501	0.27779	-2.5687	-3.4437	-3.2083	-3.2125	-3.2062	-3.0375	-3.4062	-3.5062	-3.1833	-3.4354	-3.2375	-3.0333	-3.3604	-3.3479	-3.4167	-3.5229	234.878	276.612	230.565	143.108	398.192	193.861	473.647	429.938	215.598	301.596	494.548	331.709	306.210	171.735	254.884	410.429	0.00029293	8.8623e-05	4.6377e-05	275.68	2.0656e-06	1.7599e-06	382.63	68.205	1.8411e-06	1.2142e-06	137.72	53.999	20.764	8.9709	1.4898e-06	29.971	0.00015022	6.1247e-05	1.8692e-05	267.99	7.2212e-07	7.4565e-07	372.01	66.895	7.084e-07	6.0052e-07	135.16	53.314	20.23	8.9023	6.9803e-07	29.667	204.873	236.787	218.108	150.062	287.117	253.785	150.616	155.878	279.851	268.010	155.642	160.021	159.738	165.263	282.753	164.857	-8191	255	
885.633	1	1	0	0	0.2161	0.041731	0.10123	0.11734	0.11147	0.065956	0.16883	0.24766	0.014176	0.22704	0.12766	0.13985	0.10291	0.22569	0.10932	0.23679	-2.6729	-3.3	-3.2167	-3.2125	-3.5667	-3.0125	-3.1729	-3.2729	-2.9833	-3.4979	-3.3812	-3.0667	-3.2562	-3.3729	-3.1562	-3.4792	463.243	344.147	243.167	389.833	265.283	473.809	242.139	423.804	230.236	253.497	450.496	277.561	349.983	459.305	421.976	165.047	0.00028066	0.00017147	5.0448e-05	273.06	1.1905e-06	2.03e-06	382.59	68.347	9.4101e-07	1.3269e-06	138.87	54.275	20.876	9.0643	1.1618e-06	30.185	0.00014194	5.4014e-05	1.7824e-05	267.26	6.3183e-07	6.4246e-07	371.63	66.896	7.2072e-07	6.8087e-07	135.7	53.742	20.269	8.9618	7.3229e-07	29.78	207.316	224.613	227.568	149.978	279.463	271.900	150.634	156.076	278.771	293.824	155.673	160.313	159.787	165.271	279.039	164.718	-8191	255	
885.729	1	1	0	0	0.13459	0.11216	0.35652	0.086756	0.26337	0.12827	0.16343	0.17749	0.077108	0.10529	0.064114	0.13096	0.032372	0.12249	0.037705	0.16388	-2.6458	-3.0271	-3.1896	-3.2687	-3.4542	-2.9521	-3.0146	-3.4125	-3.2229	-3.3646	-3.0979	-3.0667	-3.4521	-3.2604	-3.1479	-3.3333	333.327	301.283	208.763	189.073	318.643	489.900	349.978	152.387	478.328	189.480	404.810	480.660	275.648	226.124	347.911	442.104	0.00027795	9.0138e-05	3.1221e-05	276.24	1.7452e-06	2.2418e-06	381.01	67.923	1.2381e-06	2.5261e-06	136.76	54.024	20.771	9.0148	1.9321e-06	29.777	0.00014131	6.533e-05	1.6721e-05	268.69	7.0884e-07	6.5422e-07	373.8	66.939	6.9316e-07	6.8614e-07	135.53	53.667	20.166	8.8746	7.1585e-07	29.588	203.799	223.709	236.846	150.159	272.937	325.011	150.491	155.583	277.557	287.800	155.698	160.268	159.663	165.227	303.415	164.572	-8191	255	
885.825	1	1	0	0	0.030655	0.18241	0.21565	0.054328	0.12129	0.13352	0.20183	0.2365	0.052091	0.29196	0.11305	0.30763	0.086205	0.17894	0.13118	0.14677	-2.5458	-3.1854	-3.2375	-3.1771	-3.3438	-3.2708	-3.0062	-3.5375	-3.1083	-3.2354	-3.3604	-3.0958	-3.4437	-3.1792	-3.3021	-3.2083	160.340	276.935	241.086	306.008	142.542	207.089	337.855	155.090	190.083	435.258	454.082	166.141	271.940	220.081	155.022	363.450	0.00028269	0.00021257	9.622e-05	275.35	1.4081e-06	2.359e-06	383.78	67.984	1.1692e-06	1.1195e-06	138.47	54.392	20.628	9.0615	1.5639e-06	30.355	0.00014545	6.3201e-05	1.6932e-05	267.72	6.5187e-07	6.3166e-07	374.1	66.761	7.2341e-07	6.8758e-07	136.05	53.841	20.171	8.9369	6.8645e-07	30.051	207.036	228.516	211.694	150.061	320.123	295.900	150.468	155.894	267.400	285.543	155.524	160.411	159.862	165.370	294.574	164.553	-8191	255	
885.921	1	1	0	0	0.051815	0.22993	0.22684	0.30372	0.092148	0.1468	0.29794	0.054298	0.078756	0.081168	0.2465	0.13687	0.10127	0.080504	0.21705	0.18377	-2.7313	-3.0375	-3.2896	-3.0583	-3.2854	-3.3854	-3.2188	-3.5104	-3.2146	-3.0771	-3.3438	-3.1521	-3.3833	-3.3521	-3.1979	-3.4375	232.890	410.575	271.556	434.421	463.091	303.656	225.298	342.674	190.234	143.027	480.241	224.452	292.448	143.344	414.772	340.876	0.00030188	0.00015109	5.7276e-05	275.25	1.5339e-06	2.2533e-06	379	67.702	1.9516e-06	1.3977e-06	138.27	53.955	20.576	9.0661	1.4015e-06	30.105	0.00014479	6.4396e-05	1.8132e-05	267.05	7.1964e-07	6.6454e-07	370.82	66.656	7.308e-07	6.847e-07	135.03	53.613	20.13	8.9822	7.272e-07	29.837	204.340	217.404	242.913	150.417	284.632	290.491	150.919	155.865	304.241	265.388	155.584	160.221	160.043	165.934	305.796	164.760	-8191	255	
886.042	1	1	0	0	0.059127	0.31861	0.16869	0.083484	0.14615	0.15858	0.18472	0.19403	0.17039	0.16012	0.18746	0.036657	0.050802	0.2309	0.2116	0.22364	-2.6937	-3.0021	-3.5	-3.125	-3.2771	-3.5771	-3.0187	-3.3604	-3.2292	-3.0542	-3.4375	-3.075	-3.4208	-3.5292	-3.0333	-3.4333	281.355	161.083	233.086	494.458	286.062	280.378	313.761	378.005	176.939	224.715	442.483	211.555	158.975	371.142	354.170	448.253	0.00028417	0.00018191	5.6705e-05	274.3	2.0561e-06	2.0514e-06	378.75	68.247	7.673e-07	1.8239e-06	138.81	54.551	20.665	9.1176	9.7651e-07	30.679	0.00014287	6.2767e-05	1.7547e-05	266.64	6.8587e-07	6.2302e-07	371.05	66.801	6.8666e-07	7.3123e-07	135.71	53.921	20.238	9.0223	7.6494e-07	30.226	207.344	239.882	231.724	150.253	305.154	269.337	150.573	155.647	306.064	294.651	155.850	160.370	160.019	165.385	330.093	164.535	-8191	255	
886.114	1	1	0	0	0.095736	0.20058	0.14225	0.146	0.13224	0.17323	0.097069	0.047764	0.12765	0.19408	0.28042	0.13988	0.19833	0.18738	0.2383	0.13119	-2.7583	-3.0292	-3.1729	-3.4083	-3.5312	-3.3979	-3.3479	-3.575	-3.2625	-3.1708	-3.3646	-3.1604	-3.2271	-3.3021	-2.8937	-3.3104	392.936	343.587	348.890	442.070	447.152	171.065	476.297	367.556	487.103	489.314	456.503	445.531	328.531	287.114	208.731	357.162	0.00029081	0.00024599	3.5859e-05	272.48	1.0604e-06	1.5361e-06	379.94	68.481	1.2635e-06	1.8055e-06	137.77	54.852	20.779	9.1087	1.2029e-06	30.521	0.00014142	6.4896e-05	1.6859e-05	266.51	6.9172e-07	6.8277e-07	373.18	66.845	6.9809e-07	7.1132e-07	135.72	54.145	20.25	9.0267	7.0127e-07	30.253	204.239	212.655	205.564	150.265	311.640	313.262	150.554	155.863	278.099	304.345	155.702	160.666	159.408	165.061	260.280	164.746	-8191	255	
886.234	1	1	0	0	0.30992	0.25846	0.093763	0.12065	0.11067	0.11647	0.14558	0.14415	0.090406	0.182	0.11533	0.11504	0.09108	0.13811	0.12771	0.13278	-2.9854	-3.2438	-3.3875	-3.0896	-3.0375	-3.5833	-3.2208	-3.3021	-3.1604	-3.1562	-3.5062	-3.3229	-3.0667	-3.3229	-3.1896	-3.2833	325.547	180.966	292.454	256.069	479.757	224.470	191.419	484.259	430.951	176.373	492.447	488.117	388.411	406.060	363.738	449.304	0.00028072	0.00017049	7.2597e-05	274.09	1.7805e-06	3.3367e-06	384.75	68.407	1.0566e-06	1.982e-06	138.92	54.968	20.625	9.2103	2.1651e-06	30.496	0.00014822	7.1216e-05	1.748e-05	267.37	7.4824e-07	6.1726e-07	373.48	66.916	7.1937e-07	7.2164e-07	136.24	54.411	20.294	9.0186	7.1632e-07	30.12	205.953	215.364	229.159	150.099	292.394	278.216	150.501	156.004	309.728	316.639	155.670	160.325	159.851	165.782	284.193	164.746	-8191	255	
886.330	1	1	0	0	0.052784	0.24843	0.034913	0.096605	0.15918	0.13363	0.12902	0.085633	0.23542	0.14463	0.092717	0.16583	0.11148	0.14018	0.22714	0.28057	-2.8625	-3.0521	-3.4646	-3.2438	-3.025	-3.3187	-3.0625	-3.4042	-3.5229	-3.0438	-3.2896	-3.2229	-3.1271	-3.4625	-3.3104	-3.2792	157.587	233.306	310.518	457.044	277.938	257.850	399.749	385.303	351.090	370.348	471.419	234.263	281.358	395.859	154.313	253.749	0.0002807	0.00018178	1.2674e-05	271.85	1.6968e-06	1.3012e-06	378.67	67.677	1.0712e-06	1.3903e-06	136.62	53.593	20.481	8.8917	8.6396e-07	29.854	0.00014248	6.3853e-05	1.5484e-05	265.93	7.3293e-07	6.5662e-07	369.59	66.527	6.8958e-07	7.389e-07	134.29	53.069	20.077	8.8275	6.5381e-07	29.469	204.443	205.665	196.667	150.255	301.844	301.233	150.636	155.872	267.713	302.714	155.502	160.583	159.585	165.570	298.976	164.823	-8191	255	
886.426	1	1	0	0	0.21407	0.27077	0.18625	0.012543	0.12807	0.22449	0.23259	0.19979	0.2033	0.12977	0.31491	0.082971	0.19453	0.137	0.03914	0.12907	-2.9708	-2.9833	-2.9792	-3.2417	-3.0625	-3.3312	-3.3771	-3.2812	-3.5667	-3.0875	-3.1271	-3.0979	-2.8354	-3.3937	-3.4146	-3.3125	401.714	341.063	147.327	245.345	453.042	486.985	174.394	258.996	190.189	387.346	216.031	395.928	301.180	417.898	452.210	148.948	0.00028326	0.00013998	3.3645e-05	271.22	1.7903e-06	1.9316e-06	375.98	67.439	1.5145e-06	2.2038e-06	136.37	54.118	20.691	9.1479	1.6387e-06	30.216	0.00014225	6.0117e-05	1.7408e-05	265.23	7.8877e-07	6.4822e-07	368.34	66.216	6.7412e-07	7.3387e-07	134.9	53.486	20.207	8.9937	7.6331e-07	30.006	203.966	188.598	281.907	150.352	283.390	310.743	150.826	155.661	278.899	273.825	155.525	160.664	159.631	165.673	299.887	164.905	-8191	255	
886.521	1	1	0	0	0.18094	0.18087	0.21208	0.14642	0.098518	0.098826	0.084603	0.26422	0.23967	0.0059534	0.25636	0.30652	0.13672	0.12158	0.047235	0.16202	-2.8646	-3.0417	-3.1312	-3.1792	-3.1958	-3.5042	-3.3729	-3.0229	-3.3729	-3.0438	-3.2812	-3.5	-3.0854	-3.4333	-3.0125	-3.1562	228.543	322.554	336.211	464.004	137.827	232.470	369.526	356.774	240.511	462.686	429.665	152.097	330.309	206.697	455.828	439.561	0.00030039	0.00015507	5.6506e-05	272.31	1.942e-06	2.6123e-06	379.31	68.111	1.51e-06	1.5517e-06	137.94	54.482	20.521	8.9145	1.157e-06	29.962	0.00014882	6.5764e-05	1.8445e-05	266.21	7.8787e-07	6.5998e-07	370.5	66.463	6.9137e-07	6.9454e-07	134.98	53.501	20.08	8.873	7.0474e-07	29.683	205.490	231.575	241.965	150.060	288.189	292.295	150.473	155.549	279.636	262.105	155.777	160.175	160.531	165.489	285.520	164.526	-8191	255	
886.642	1	1	0	0	0.059783	0.10364	0.15788	0.065578	0.10401	0.20198	0.11274	0.18963	0.1505	0.15487	0.16725	0.17442	0.09216	0.1994	0.17203	0.11079	-3.0938	-3.2188	-3.2667	-3.4479	-3.0083	-3.3375	-3.2167	-3.0208	-3.2708	-3.2	-3.3021	-3.3417	-2.7917	-3.0458	-3.2458	-3.1	184.197	294.361	152.171	283.251	309.624	303.530	346.090	457.814	346.484	346.366	190.857	444.332	248.669	291.428	418.447	228.343	0.00027406	9.5363e-05	2.2849e-05	274.44	1.3203e-06	2.2362e-06	380.27	67.511	1.4623e-06	1.873e-06	137.3	54.252	20.885	9.044	2.6343e-06	30.321	0.00013954	6.4309e-05	1.742e-05	267.23	7.881e-07	7.2693e-07	371.63	66.357	6.7277e-07	7.166e-07	135.55	53.771	20.223	8.9267	7.6794e-07	29.982	206.723	272.908	285.726	150.284	283.888	296.098	150.614	155.371	289.578	268.866	155.432	160.238	160.019	165.636	285.473	164.659	-8191	255	
886.738	1	1	0	0	0.087449	0.17746	0.20394	0.31549	0.046074	0.20629	0.16603	0.073436	0.10742	0.078292	0.058534	0.15253	0.068899	0.25996	0.16248	0.19267	-2.9938	-3.1479	-3.2854	-3.3875	-3.0104	-3.2125	-3.3104	-3.1375	-3.3021	-3.1146	-3.025	-3.2021	-3.0438	-3.0542	-3.3583	-3.1188	348.111	138.522	404.641	377.210	219.301	182.733	165.557	335.114	342.247	370.268	283.879	286.060	478.283	199.981	412.488	213.256	0.00027653	0.00018593	4.1088e-05	273.92	1.4252e-06	1.4107e-06	378.85	68.162	1.0727e-06	1.9621e-06	137.39	53.813	20.835	9.1254	2.2177e-06	30.185	0.00014178	6.672e-05	1.95e-05	266.13	7.3338e-07	6.7941e-07	370.18	66.572	6.6762e-07	7.5689e-07	134.69	53.367	20.336	8.9902	7.6933e-07	29.823	205.001	197.337	242.735	149.902	295.694	320.415	150.664	156.060	287.741	295.689	156.095	160.429	160.340	165.493	274.331	164.653	-8191	255	
886.809	1	1	0	0	0.069193	0.19278	0.24666	0.092284	0.10255	0.14859	0.22439	0.14668	0.033935	0.20138	0.20079	0.1583	0.092271	0.1027	0.086134	0.21716	-3.0563	-3.2	-2.9813	-3.4938	-3.1708	-3.2542	-3.325	-3.0271	-3.2062	-3.1083	-3.0854	-3.4458	-3.2583	-3.2687	-3.3229	-2.9625	251.336	228.240	323.818	472.293	164.728	163.690	258.242	283.189	419.703	205.995	413.091	370.000	246.258	235.848	239.015	401.111	0.00028606	0.00015171	6.5882e-05	271.87	2.114e-06	1.3149e-06	375.95	67.997	1.394e-06	1.2054e-06	138.38	54.273	20.687	9.0697	2.5621e-06	30.297	0.00014603	6.6264e-05	2.196e-05	265.54	8.2367e-07	7.3245e-07	366.86	66.412	7.83e-07	8.015e-07	135.02	53.631	20.225	8.9848	7.2025e-07	30.065	204.871	207.136	225.733	150.459	296.121	278.195	150.989	155.760	291.586	326.968	155.591	160.468	159.617	165.484	301.895	164.660	-8191	255	
886.905	1	1	0	0	0.2413	0.20676	0.033112	0.037847	0.072882	0.1723	0.14397	0.097245	0.057973	0.031085	0.25753	0.28107	0.19428	0.26291	0.32002	0.1626	-2.8375	-3.2938	-3.1646	-3.425	-3.2354	-3.1146	-3.4271	-2.9333	-3.4833	-3.1875	-2.9979	-3.475	-3.0708	-3.0396	-3.35	-3.2	264.041	448.481	212.975	173.262	360.084	292.116	417.838	193.333	472.981	460.871	235.237	145.575	476.311	366.443	459.614	383.108	0.00028572	0.00017766	6.3517e-05	274.38	1.2856e-06	2.7508e-06	377.75	67.732	1.2172e-06	1.1783e-06	137.22	54.491	20.689	9.1326	1.3807e-06	30.249	0.00014364	7.3996e-05	1.8409e-05	265.61	7.9463e-07	8.2869e-07	369.85	66.324	8.2198e-07	7.2763e-07	135.13	53.907	20.223	9.0072	7.5405e-07	30.023	204.696	243.447	228.994	150.429	294.767	287.114	150.624	155.705	304.381	303.223	156.047	160.264	160.116	165.634	285.345	164.758	-8191	255	
887.026	1	1	0	0	0.21591	0.20177	0.043055	0.13706	0.25989	0.24514	0.12259	0.10152	0.18227	0.029955	0.20418	0.23284	0.12291	0.062547	0.11381	0.13142	-2.8708	-3.4375	-3.1667	-3.3333	-3.1375	-3.1208	-3.3583	-3.0917	-3.2313	-3.2188	-2.875	-3.4333	-3.4229	-2.8354	-3.2604	-3.0875	362.057	440.061	481.592	366.896	333.973	345.622	472.571	294.335	359.684	164.171	195.438	475.769	241.183	360.681	446.452	290.675	0.00029343	0.00024914	7.2777e-05	272.71	1.7841e-06	2.1253e-06	379.9	67.963	1.1552e-06	1.6904e-06	138.31	54.564	20.955	9.1928	1.8348e-06	30.43	0.00014944	7.3083e-05	1.9663e-05	265.86	8.4461e-07	7.8213e-07	370.6	66.466	8.6656e-07	7.214e-07	135.81	53.989	20.313	9.0352	7.8276e-07	30.26	206.158	209.250	238.772	150.210	308.837	286.541	150.467	155.577	275.146	291.421	156.090	160.573	159.798	165.932	308.782	164.508	-8191	255	
887.122	1	1	0	0	0.077384	0.23183	0.26694	0.083874	0.29901	0.22079	0.26794	0.16153	0.064582	0.14666	0.077442	0.19921	0.075108	0.21539	0.2212	0.10451	-2.7583	-3.3479	-3.1	-3.1458	-3.1479	-2.9833	-3.4708	-3.0646	-3.1458	-3.3042	-2.975	-3.1979	-3.3521	-3.0292	-3.4667	-3.0479	485.552	389.579	381.569	387.775	370.885	299.375	394.324	421.589	200.855	317.768	382.069	263.138	464.537	471.302	173.792	191.560	0.00028852	0.00016161	6.5306e-05	273.13	1.5424e-06	2.3792e-06	377.11	67.487	1.149e-06	1.0428e-06	136.01	53.985	20.351	9.0409	1.4434e-06	29.878	0.00015174	7.291e-05	2.0369e-05	266.07	7.6468e-07	7.9149e-07	368.9	66.163	7.8277e-07	7.389e-07	134.33	53.173	20.017	8.8891	7.478e-07	29.547	206.728	215.343	227.914	150.475	297.019	286.941	150.965	155.873	291.719	299.022	155.989	160.300	159.141	165.839	296.643	164.629	-8191	255	
887.218	1	1	0	0	0.23926	0.097487	0.075415	0.036504	0.17298	0.094211	0.10394	0.16966	0.087169	0.21135	0.041746	0.15786	0.15134	0.13471	0.14949	0.16353	-2.5708	-3.3542	-3.2292	-3.2	-3.2667	-2.9	-3.4	-3.1542	-3.2333	-3.2917	-3.1333	-3.3563	-3.1688	-2.9271	-3.4458	-3.2208	160.316	362.311	468.443	474.600	146.998	324.253	381.767	293.746	446.927	291.875	358.867	460.709	487.057	435.321	417.654	436.991	0.00028072	0.00013792	4.3558e-05	270.68	1.58e-06	2.2494e-06	375.58	67.134	1.0598e-06	1.6223e-06	135.44	53.034	20.464	8.904	1.5902e-06	29.62	0.00014911	6.748e-05	1.6853e-05	263.92	7.1649e-07	7.6533e-07	366.44	65.561	7.9062e-07	6.2643e-07	132.75	52.691	19.863	8.7684	7.0335e-07	29.333	206.395	215.051	226.760	150.421	293.860	315.016	150.701	156.070	286.954	302.254	155.948	160.640	159.161	165.601	298.388	164.701	-8191	255	
887.315	1	1	0	0	0.18111	0.22752	0.080274	0.078821	0.08401	0.051168	0.25939	0.088787	0.10294	0.041596	0.14072	0.10761	0.10139	0.12388	0.24048	0.17417	-2.5646	-3.3479	-3.1208	-3.4062	-3.2271	-2.8438	-3.3333	-3.3396	-3.2313	-3.425	-3.2271	-3.1604	-3.3146	-2.9375	-3.3187	-3.2333	268.833	418.199	459.088	173.112	258.662	184.791	332.237	403.571	137.845	294.757	429.337	174.995	365.310	426.610	364.577	273.626	0.00026595	0.00028935	4.2126e-05	273.21	1.2149e-06	1.5082e-06	376.96	66.749	1.3871e-06	1.5704e-06	136.89	53.677	20.529	8.8668	2.2618e-06	29.845	0.00014094	6.4374e-05	1.7637e-05	265.49	7.4329e-07	7.1277e-07	368.38	65.767	7.0772e-07	6.2547e-07	133.88	53.052	20.009	8.8	7.6077e-07	29.519	202.599	194.569	211.446	150.231	270.688	306.263	150.446	155.329	314.181	298.496	155.771	160.937	160.226	165.803	284.979	164.731	-8191	255	
887.411	1	1	0	0	0.16983	0.22979	0.10669	0.11777	0.0099274	0.091115	0.065193	0.14386	0.16434	0.084137	0.17491	0.12662	0.17593	0.17229	0.27995	0.13426	-2.6854	-3.2521	-2.9792	-2.8021	-3.4292	-3.2542	-3.5375	-3.5167	-3.2354	-3.4562	-3.2208	-3.225	-3.5479	-3.1937	-3.2313	-3.4208	473.539	447.536	250.808	484.372	185.003	433.324	284.404	430.729	308.317	287.258	193.523	324.194	413.225	191.832	298.127	326.320	0.00026953	0.00018498	5.9692e-05	272.03	9.9706e-07	1.5621e-06	379.38	67.264	1.6693e-06	1.2571e-06	137.27	53.924	20.728	8.9466	2.1274e-06	29.853	0.00014421	6.8153e-05	1.8276e-05	265.25	7.5094e-07	7.0797e-07	370.39	66.028	7.653e-07	6.7487e-07	134.92	53.464	20.128	8.8681	6.7881e-07	29.701	202.446	219.502	219.373	150.596	321.717	322.158	150.561	155.952	300.526	257.625	155.756	160.121	160.009	165.265	283.249	164.837	-8191	255	
887.507	1	1	0	0	0.16855	0.28385	0.23886	0.11935	0.16622	0.10211	0.12443	0.092624	0.080526	0.10465	0.28655	0.2409	0.24981	0.19176	0.048254	0.15451	-2.6271	-3.4042	-3.3937	-3.1875	-3.3937	-2.9479	-3.4708	-3.4042	-2.9375	-3.2625	-3.3312	-3.2562	-3.5729	-3.0917	-3.1437	-3.35	429.176	359.066	467.455	163.565	480.933	369.988	315.263	233.248	411.661	411.918	466.355	358.928	437.874	462.624	180.452	423.161	0.00027763	0.00016651	4.1067e-05	272.19	2.3155e-06	2.3824e-06	375.88	67.552	9.7684e-07	1.9898e-06	134.96	53.433	20.47	8.8786	1.0067e-06	29.62	0.00014214	6.2376e-05	1.818e-05	265.78	6.8632e-07	7.0173e-07	368.05	66.01	7.3416e-07	7.0677e-07	133.56	52.784	19.919	8.7887	7.6123e-07	29.316	205.820	271.341	249.496	150.270	279.716	297.831	150.684	155.678	309.319	288.561	155.742	160.820	159.589	165.703	293.052	164.699	-8191	255	
887.603	1	1	0	0	0.16012	0.27027	0.14711	0.099247	0.073727	0.10385	0.12222	0.11896	0.248	0.25155	0.20567	0.11074	0.1235	0.36158	0.073853	0.23041	-2.6937	-3.3167	-3.1271	-3.1063	-3.3979	-3.3375	-3.0729	-3.2354	-3.1958	-3.4375	-3.4333	-3.1458	-3.4313	-3.1292	-3.1437	-3.4229	223.665	472.740	166.030	426.112	162.108	185.666	468.282	446.664	445.956	327.909	475.803	210.495	476.460	462.152	468.684	249.364	0.00029318	0.00020773	5.9668e-05	272.76	1.8814e-06	2.4518e-06	375.2	67.072	1.7094e-06	1.7784e-06	135.78	53.864	20.683	8.8684	1.66e-06	29.535	0.00014625	6.066e-05	1.6986e-05	264.44	7.6806e-07	7.4565e-07	365.85	65.595	7.5948e-07	6.4993e-07	132.95	53.058	20.075	8.8221	6.8946e-07	29.317	206.104	230.710	225.930	150.582	286.192	260.345	150.825	155.898	274.613	300.130	156.437	160.552	159.724	165.330	297.207	164.986	-8191	255	
887.722	1	1	0	0	0.26218	0.22479	0.20966	0.14188	0.11158	0.12679	0.11001	0.35273	0.14922	0.10935	0.14459	0.18951	0.20849	0.20864	0.098682	0.2459	-2.5792	-3.0354	-3.2167	-3.0187	-3.2438	-3.2542	-3.2271	-3.4167	-3.1375	-3.2958	-3.3063	-3.4083	-3.4646	-3.3292	-3.2167	-3.4083	312.351	322.002	424.429	380.665	404.469	396.890	365.826	388.315	462.539	165.416	427.514	368.938	410.476	469.675	495.361	452.660	0.00028894	0.00026371	7.3924e-05	271.89	1.1227e-06	9.6192e-07	374.09	66.719	8.7118e-07	2.0717e-06	133.55	52.263	19.879	8.6095	2.1856e-06	28.808	0.00014504	5.9922e-05	1.6733e-05	264.52	6.7506e-07	6.331e-07	365.99	65.154	6.8106e-07	5.9861e-07	131.45	51.696	19.508	8.4489	5.9871e-07	28.373	206.759	246.718	243.772	150.092	286.097	326.591	150.841	155.483	292.291	255.467	155.823	160.772	160.117	165.532	278.890	165.055	-8191	255	
887.818	1	1	0	0	0.039999	0.27509	0.10197	0.36584	0.23355	0.051067	0.046133	0.10574	0.086859	0.13549	0.17928	0.014664	0.27076	0.30426	0.19103	0.075141	-2.7333	-3.1875	-3.1375	-3.0187	-3.3521	-3.2583	-3.0271	-3.5458	-3.2313	-3.35	-3.6063	-3.3583	-3.4458	-3.4938	-3.1646	-3.6208	140.123	388.945	277.602	153.805	307.804	310.891	452.499	145.467	212.378	417.547	364.781	430.191	371.023	146.275	147.185	352.458	0.00027716	0.00013577	5.1783e-05	273.57	1.0656e-06	1.2134e-06	377.63	67.115	1.2099e-06	1.7321e-06	133.54	51.924	19.884	8.5354	1.2867e-06	28.612	0.00013389	5.7012e-05	1.4924e-05	266.24	5.949e-07	6.1366e-07	368.68	65.433	5.9974e-07	5.8518e-07	131.13	51.374	19.528	8.4116	6.1028e-07	28.409	204.418	223.556	228.290	149.817	286.544	282.764	150.550	155.960	262.193	323.325	155.364	160.645	159.698	165.736	288.040	164.880	-8191	255	
887.914	1	1	0	0	0.14704	0.157	0.029193	0.086678	0.14819	0.33401	0.28053	0.18395	0.1156	0.14855	0.066667	0.20349	0.055344	0.091616	0.1691	0.30022	-2.775	-3.3875	-3.5104	-3.1083	-3.1271	-3.075	-2.9896	-3.5292	-3.2896	-3.2021	-3.4333	-2.8875	-3.1917	-3.0771	-2.9062	-3.2292	483.900	428.626	486.271	431.882	489.219	292.117	209.243	364.836	207.108	340.572	170.815	199.719	434.091	194.443	279.420	491.939	0.00025498	0.00014648	7.9287e-05	273.07	1.578e-06	1.6599e-06	377.91	67.369	1.0793e-06	1.3956e-06	134.79	52.421	20.326	8.7355	2.1727e-06	29.209	0.00012706	5.6382e-05	1.5249e-05	267.02	6.2665e-07	6.2134e-07	370.2	65.75	6.2393e-07	6.1683e-07	132.48	52.101	19.701	8.6342	7.3183e-07	28.8	207.076	228.263	217.501	150.312	282.642	266.746	150.694	155.571	267.984	250.490	155.945	160.437	159.568	165.711	292.438	164.638	-8191	255	
888.010	1	1	0	0	0.17662	0.11925	0.080065	0.16713	0.079097	0.079023	0.11603	0.09195	0.1167	0.13369	0.085684	0.16604	0.33382	0.29228	0.0038489	0.11467	-2.5708	-2.9354	-3.2708	-3.1521	-3.2771	-3.2687	-3.0729	-3.3333	-3.3292	-3.2333	-3.4542	-3.2271	-3.3083	-3.2729	-3.1042	-3.3708	197.999	301.668	294.187	429.525	486.188	183.537	372.982	202.767	267.141	192.320	467.925	273.856	488.484	456.139	284.204	206.545	0.00027362	0.00017994	6.6778e-05	274.21	1.4277e-06	3.5292e-06	374.37	67.042	1.1196e-06	2.1341e-06	134.03	52.509	20.044	8.6983	1.9657e-06	28.931	0.00013355	6.3267e-05	1.5545e-05	265.17	6.8947e-07	6.5782e-07	365	65.374	6.9809e-07	7.1612e-07	130.99	51.707	19.72	8.5644	6.846e-07	28.657	205.539	195.804	237.784	150.362	290.584	311.892	150.840	155.265	287.941	307.232	155.881	160.487	159.826	165.632	299.766	164.802	-8191	255	
888.107	1	1	0	0	0.1773	0.12577	0.081315	0.29158	0.11985	0.017178	0.08481	0.067855	0.25727	0.4163	0.15067	0.11426	0.25652	0.045986	0.14575	0.15317	-2.9521	-3.15	-3.5792	-3.1708	-3.2354	-3.2062	-3.05	-3.2125	-3.2146	-3.0771	-3.4771	-3.2458	-3.0771	-3.2333	-2.8521	-3.1271	283.586	146.963	215.334	492.385	416.401	193.632	484.153	465.294	429.911	478.616	150.034	150.985	396.340	438.645	331.802	276.607	0.00028408	0.00029523	5.7969e-05	273.48	1.9255e-06	9.8324e-07	377.16	67.029	1.0235e-06	1.3078e-06	133.97	52.713	20.135	8.6803	2.8617e-06	29.12	0.0001355	6.2376e-05	1.5997e-05	266.34	6.7123e-07	5.9254e-07	367.06	65.714	6.7009e-07	6.7391e-07	132.22	52.17	19.637	8.6071	7.1053e-07	28.871	205.991	220.294	253.113	150.310	307.574	324.132	150.627	155.922	310.316	261.458	155.897	160.736	159.690	165.211	286.709	164.757	-8191	255	
#DATA ENDS
