BOXY.EXE: ISS Imagent and Oximeter Data Acquisition Program Version 0.80
Ascii Record File

#ACQ INFORMATION
2  Detector Channels 
16  External MUX Channels 
1  Auxiliary Channels 
5000  Waveform (CCF) Frequency (Hz)
1  Waveforms Skipped 
30  Waveforms Averaged 
1  Cycles Averaged 
16  Acquisitions per Waveform 
10.0806  Updata Rate (Hz) 

#FILE INFORMATION
TRUE -- External MUX Channel results are PARSED.
FALSE -- AC DC and Phase are NOT grouped.
TRUE -- Companion Program Settings File CREATED.
FALSE -- AC data not excluded
FALSE -- DC data not excluded
FALSE -- Phase data not excluded
FALSE -- Auxillary Chn. data not excluded
Tab delimiters

#CALIBRATION STATE
TRUE -- Waveform Calibration Values APPLIED.


#AUX CALIBRATION VALUES
Val Type	aux-1	

Term	1.0000e+00	
Factor	0.0000e+00	


#WF CALIBRATION VALUES
A = Detector Channel
Val Type	A-AC1	A-AC2	A-AC3	A-AC4	A-AC5	A-AC6	A-AC7	A-AC8	A-AC9	A-AC10	A-AC11	A-AC12	A-AC13	A-AC14	A-AC15	A-AC16	A-DC1	A-DC2	A-DC3	A-DC4	A-DC5	A-DC6	A-DC7	A-DC8	A-DC9	A-DC10	A-DC11	A-DC12	A-DC13	A-DC14	A-DC15	A-DC16	A-Ph1	A-Ph2	A-Ph3	A-Ph4	A-Ph5	A-Ph6	A-Ph7	A-Ph8	A-Ph9	A-Ph10	A-Ph11	A-Ph12	A-Ph13	A-Ph14	A-Ph15	A-Ph16	

Term	0.00000e+00	0.00000e+00	0.00000e+00	0.00000e+00	0.00000e+00	0.00000e+00	0.00000e+00	0.00000e+00	0.00000e+00	0.00000e+00	0.00000e+00	0.00000e+00	0.00000e+00	0.00000e+00	0.00000e+00	0.00000e+00	0.00000e+00	0.00000e+00	0.00000e+00	0.00000e+00	0.00000e+00	0.00000e+00	0.00000e+00	0.00000e+00	0.00000e+00	0.00000e+00	0.00000e+00	0.00000e+00	0.00000e+00	0.00000e+00	0.00000e+00	0.00000e+00	0.00000e+00	0.00000e+00	0.00000e+00	0.00000e+00	0.00000e+00	0.00000e+00	0.00000e+00	0.00000e+00	0.00000e+00	0.00000e+00	0.00000e+00	0.00000e+00	0.00000e+00	0.00000e+00	0.00000e+00	0.00000e+00	
Factor	1.00000e+00	1.00000e+00	1.00000e+00	1.00000e+00	1.00000e+00	1.00000e+00	1.00000e+00	1.00000e+00	1.00000e+00	1.00000e+00	1.00000e+00	1.00000e+00	1.00000e+00	1.00000e+00	1.00000e+00	1.00000e+00	1.00000e+00	1.00000e+00	1.00000e+00	1.00000e+00	1.00000e+00	1.00000e+00	1.00000e+00	1.00000e+00	1.00000e+00	1.00000e+00	1.00000e+00	1.00000e+00	1.00000e+00	1.00000e+00	1.00000e+00	1.00000e+00	X	X	X	X	X	X	X	X	X	X	X	X	X	X	X	X	

B = Detector Channel
Val Type	B-AC1	B-AC2	B-AC3	B-AC4	B-AC5	B-AC6	B-AC7	B-AC8	B-AC9	B-AC10	B-AC11	B-AC12	B-AC13	B-AC14	B-AC15	B-AC16	B-DC1	B-DC2	B-DC3	B-DC4	B-DC5	B-DC6	B-DC7	B-DC8	B-DC9	B-DC10	B-DC11	B-DC12	B-DC13	B-DC14	B-DC15	B-DC16	B-Ph1	B-Ph2	B-Ph3	B-Ph4	B-Ph5	B-Ph6	B-Ph7	B-Ph8	B-Ph9	B-Ph10	B-Ph11	B-Ph12	B-Ph13	B-Ph14	B-Ph15	B-Ph16	

Term	0.00000e+00	0.00000e+00	0.00000e+00	0.00000e+00	0.00000e+00	0.00000e+00	0.00000e+00	0.00000e+00	0.00000e+00	0.00000e+00	0.00000e+00	0.00000e+00	0.00000e+00	0.00000e+00	0.00000e+00	0.00000e+00	0.00000e+00	0.00000e+00	0.00000e+00	0.00000e+00	0.00000e+00	0.00000e+00	0.00000e+00	0.00000e+00	0.00000e+00	0.00000e+00	0.00000e+00	0.00000e+00	0.00000e+00	0.00000e+00	0.00000e+00	0.00000e+00	-1.10555e+02	-1.34345e+02	-1.25139e+02	-1.80823e+02	-5.89411e+01	-6.68562e+01	-1.57214e+02	-1.62015e+02	-6.37752e+01	-6.71530e+01	-1.71625e+02	-1.71796e+02	-1.86365e+02	-1.76693e+02	-6.41196e+01	-1.49516e+02	
Factor	1.50243e-05	1.53827e-04	4.66076e-05	1.58271e-01	1.18790e-06	1.74034e-06	1.59010e-01	4.50898e-02	9.43242e-07	1.55460e-06	7.52501e-02	2.87934e-02	3.64718e-02	8.42465e-03	1.35339e-06	1.23474e-02	7.15820e-06	1.04250e-05	2.89429e-06	7.88315e-02	1.08082e-07	1.15196e-07	7.45083e-02	2.26350e-02	1.07536e-07	1.15117e-07	3.64779e-02	1.40814e-02	1.83450e-02	4.24814e-03	1.11129e-07	6.03331e-03	X	X	X	X	X	X	X	X	X	X	X	X	X	X	X	X	



#DISTANCE SETTINGS
A = Detector Channel
A-1	A-2	A-3	A-4	A-5	A-6	A-7	A-8	A-9	A-10	A-11	A-12	A-13	A-14	A-15	A-16	

2.5000e+00	3.0000e+00	2.5000e+00	3.0000e+00	2.0000e+00	3.0000e+00	1.5000e+00	3.0000e+00	3.0000e+00	3.0000e+00	3.0000e+00	3.0000e+00	3.0000e+00	3.0000e+00	1.5000e+00	3.0000e+00	

B = Detector Channel
B-1	B-2	B-3	B-4	B-5	B-6	B-7	B-8	B-9	B-10	B-11	B-12	B-13	B-14	B-15	B-16	

1.0000e+01	1.0000e+01	1.0000e+01	1.4400e+00	1.0000e+01	1.0000e+01	1.5100e+00	1.9400e+00	1.0000e+01	1.0000e+01	1.9900e+00	2.4900e+00	2.4100e+00	2.9000e+00	1.0000e+01	2.9800e+00	




#DATA BEGINS
time	group	step	mark	flag	A-AC1	A-AC2	A-AC3	A-AC4	A-AC5	A-AC6	A-AC7	A-AC8	A-AC9	A-AC10	A-AC11	A-AC12	A-AC13	A-AC14	A-AC15	A-AC16	A-DC1	A-DC2	A-DC3	A-DC4	A-DC5	A-DC6	A-DC7	A-DC8	A-DC9	A-DC10	A-DC11	A-DC12	A-DC13	A-DC14	A-DC15	A-DC16	A-Ph1	A-Ph2	A-Ph3	A-Ph4	A-Ph5	A-Ph6	A-Ph7	A-Ph8	A-Ph9	A-Ph10	A-Ph11	A-Ph12	A-Ph13	A-Ph14	A-Ph15	A-Ph16	B-AC1	B-AC2	B-AC3	B-AC4	B-AC5	B-AC6	B-AC7	B-AC8	B-AC9	B-AC10	B-AC11	B-AC12	B-AC13	B-AC14	B-AC15	B-AC16	B-DC1	B-DC2	B-DC3	B-DC4	B-DC5	B-DC6	B-DC7	B-DC8	B-DC9	B-DC10	B-DC11	B-DC12	B-DC13	B-DC14	B-DC15	B-DC16	B-Ph1	B-Ph2	B-Ph3	B-Ph4	B-Ph5	B-Ph6	B-Ph7	B-Ph8	B-Ph9	B-Ph10	B-Ph11	B-Ph12	B-Ph13	B-Ph14	B-Ph15	B-Ph16	aux-1	digaux	

660.568	1	1	0	256	0.16387	0.13447	0.36844	0.19316	0.21811	0.16369	0.13001	0.22106	0.053733	0.02025	0.11893	0.059167	0.11706	0.13447	0.31	0.14089	-2.7188	-3.2042	-3.2562	-3.0646	-3.525	-3.1896	-3.3208	-3.65	-3.0042	-3.1312	-3.475	-3.1188	-3.5187	-3.4146	-3.0625	-3.4646	116.882	296.761	129.572	248.694	136.562	164.864	231.232	31.037	103.728	331.956	253.157	247.438	323.709	312.120	-4.457	-8.288	0.0002157	0.0003861	0.00015832	1285.7	3.9755e-06	5.1816e-06	1288.4	350.42	1.9498e-06	4.8722e-06	402.45	132.97	114.13	40.323	3.9201e-06	50.23	0.00066922	0.00080796	0.00022706	1295.4	8.8767e-06	8.7438e-06	1299.5	355.31	8.5077e-06	8.7721e-06	407.39	136.92	117.29	41.161	8.5858e-06	51.416	159.563	93.282	80.517	-4.704	156.256	120.411	-4.861	-0.150	175.754	125.719	-0.860	3.816	4.360	8.729	155.915	8.125	-8191	255	
660.664	1	1	0	0	0.16928	0.085421	0.12132	0.18016	0.086792	0.12345	0.12874	0.25704	0.11668	0.12793	0.13592	0.11177	0.16722	0.22367	0.32893	0.14917	-2.6021	-3.1292	-3.275	-3.2208	-3.5896	-3.2958	-3.2313	-3.4875	-3.0729	-3.3812	-3.5917	-3.1521	-3.2792	-3.3438	-2.9229	-3.5854	31.205	221.083	198.973	336.026	176.013	-15.881	306.183	15.056	92.110	-2.489	195.643	328.028	92.923	-10.426	117.601	263.062	0.00021577	0.00048818	0.0001275	1283.4	4.9499e-06	5.129e-06	1280.8	347.18	1.3956e-06	5.5126e-06	401.01	132.44	113.58	40.109	2.9071e-06	50.212	0.00064325	0.00078342	0.00021494	1291	8.3196e-06	8.4647e-06	1291.5	353.59	8.2335e-06	8.5771e-06	406.49	136.37	116.75	40.973	8.7199e-06	51.27	159.770	53.570	87.032	-4.917	163.940	112.058	-4.798	-0.077	190.517	134.475	-0.765	3.778	4.206	8.702	133.707	7.839	-8191	255	
660.760	1	1	0	0	0.12947	0.2611	0.13405	0.2592	0.097672	0.24529	0.051743	0.15485	0.21006	0.13174	0.13606	0.064091	0.015981	0.24367	0.23739	0.29149	-2.575	-3.2729	-3.2708	-3.3333	-3.3896	-3.1896	-3.2229	-3.6083	-3.05	-3.0667	-3.6042	-3.05	-3.2479	-3.4083	-2.8812	-3.5521	257.144	193.157	152.844	285.534	78.119	11.975	253.242	300.417	75.445	235.857	88.318	276.956	116.566	-4.301	279.703	260.075	0.00021007	0.00056253	0.00014953	1271.4	3.5035e-06	6.3087e-06	1275.1	347.6	2.4148e-06	5.1809e-06	399.85	132.81	113.68	39.941	4.618e-06	50.12	0.0006556	0.00082184	0.00022329	1284.1	8.5531e-06	9.0489e-06	1288.8	353.09	8.8596e-06	9.2285e-06	405.48	136.37	116.79	40.902	9.3962e-06	51.199	152.198	48.179	63.137	-4.940	169.024	148.082	-4.792	-0.159	174.378	114.050	-0.780	3.945	4.232	8.520	144.610	8.234	-8191	255	
660.856	1	1	0	0	0.029725	0.067951	0.037202	0.19889	0.18442	0.11118	0.21561	0.25996	0.053873	0.14114	0.075834	0.21324	0.17634	0.092519	0.19258	0.13594	-2.8875	-3.0229	-3.3229	-3.1312	-3.1958	-3.2958	-3.225	-3.3979	-3.1063	-3.0812	-3.5125	-3.0083	-3.3	-3.4562	-3.0167	-3.375	44.107	265.519	151.541	266.551	310.599	237.471	296.931	326.721	134.733	175.735	273.070	3.682	10.185	315.324	-0.434	-15.390	0.00019402	0.00050788	9.1103e-05	1279.2	3.5098e-06	3.9036e-06	1285.9	347.84	1.7739e-06	6.5263e-06	400.43	132.42	113.6	39.995	4.3896e-06	50.287	0.00068309	0.0008697	0.00023976	1289.8	8.9933e-06	9.5161e-06	1294.1	353.8	9.0947e-06	9.4753e-06	406.68	136.45	116.84	40.915	9.3096e-06	51.32	159.262	74.228	61.985	-4.780	162.414	139.092	-4.782	-0.210	181.421	133.260	-0.772	4.075	4.337	8.675	141.011	8.089	-8191	255	
660.952	1	1	0	0	0.2194	0.13652	0.16916	0.29706	0.16926	0.19967	0.152	0.23413	0.18609	0.18065	0.2324	0.16375	0.039613	0.3438	0.11177	0.084484	-2.6042	-2.8812	-3.3542	-3.0521	-3.0896	-3.2875	-3.1292	-3.6813	-3.1562	-3.1417	-3.3937	-3.2292	-3.2271	-3.3229	-2.8667	-3.4521	36.334	312.428	123.689	-3.832	184.966	206.141	302.522	264.146	262.413	328.862	39.980	146.676	152.245	246.561	254.694	295.262	0.00023184	0.00055	0.00010316	1282.1	3.504e-06	4.18e-06	1283.8	349.62	3.3818e-06	2.3805e-06	400.49	132.62	113.6	40.059	3.4068e-06	50.178	0.00067647	0.00086386	0.0002368	1290.5	9.0595e-06	9.2749e-06	1294.4	353.89	9.176e-06	9.4911e-06	406.88	136.54	116.95	41	9.2197e-06	51.38	152.286	79.869	59.228	-4.872	166.803	116.150	-4.914	-0.204	156.933	125.932	-0.683	3.832	4.414	8.713	108.817	8.086	-8191	255	
661.071	1	1	0	0	0.22188	0.10321	0.21839	0.31787	0.12838	0.2329	0.34159	0.1347	0.10722	0.093683	0.077739	0.23899	0.14959	0.15355	0.081414	0.22679	-2.7792	-3.0375	-3.2833	-3.2792	-3.1542	-3.2542	-3.3375	-3.4333	-3.3063	-3.125	-3.4021	-3.4104	-3.1583	-3.3958	-3.2667	-3.3563	135.876	225.784	320.609	318.957	-4.874	276.730	277.789	308.503	192.554	200.210	-3.404	9.808	321.036	310.953	303.417	280.909	0.00020773	0.00052087	0.00012018	1289.6	2.0658e-06	6.918e-06	1288.1	349.94	3.8449e-06	3.242e-06	403.94	133.19	114.59	40.261	3.669e-06	50.492	0.00068848	0.00086692	0.00023336	1296.3	9.1557e-06	9.3047e-06	1302	355.48	9.0248e-06	9.3858e-06	409.13	137	117.64	41.248	9.1991e-06	51.575	158.206	81.999	100.144	-4.905	128.449	132.737	-4.925	-0.365	147.811	109.709	-0.762	3.840	4.230	8.512	148.923	8.079	-8191	255	
661.167	1	1	0	0	0.29004	0.13855	0.19067	0.12304	0.083072	0.2358	0.15309	0.20157	0.076498	0.20007	0.11918	0.21479	0.32548	0.058474	0.25116	0.30781	-2.9146	-2.9917	-3.4583	-3.3646	-3.2417	-3.2375	-3.2104	-3.3021	-3.1937	-3.0812	-3.4208	-3.2167	-3.1104	-3.4146	-3.0812	-3.0854	190.805	185.768	300.082	158.570	18.975	72.794	255.762	335.698	334.584	32.913	339.000	277.277	317.186	310.836	294.229	327.808	0.00019736	0.0002952	0.00010957	1292.6	1.9263e-06	4.0651e-06	1294.1	350.39	1.6282e-06	2.9015e-06	403.79	133.77	114.8	40.269	4.6507e-06	50.484	0.00069104	0.00085978	0.00023605	1301.6	9.0829e-06	9.5936e-06	1305.5	355.96	8.9602e-06	9.2858e-06	409.12	137.27	117.81	41.184	9.1445e-06	51.546	161.360	73.311	20.640	-4.979	185.792	161.909	-4.797	-0.144	196.378	139.718	-0.803	3.998	4.134	8.767	90.756	8.148	-8191	255	
661.239	1	1	0	0	0.17574	0.3126	0.18222	0.24129	0.2412	0.17894	0.039429	0.30256	0.31666	0.19923	0.26393	0.24277	0.19718	0.26269	0.026597	0.1205	-3.1604	-2.8479	-3.2438	-3.2521	-3.1312	-3.4125	-3.3708	-3.0792	-3.425	-2.9313	-3.5333	-3.1458	-3.0125	-3.25	-3.0354	-3.0229	155.609	257.271	-7.545	339.285	-4.042	18.205	260.556	278.707	339.801	191.413	298.963	-2.943	278.891	288.782	202.650	183.469	0.00020815	0.00035851	0.00016754	1290.3	3.3807e-06	5.1388e-06	1294.8	350.83	2.7007e-06	5.3288e-06	403.03	133.32	113.87	40.21	5.2459e-06	50.47	0.00067852	0.00084334	0.00023276	1299.5	8.9796e-06	9.2766e-06	1304.6	355.46	9.1948e-06	9.5345e-06	408.81	137.12	117.5	41.182	9.4445e-06	51.524	154.735	49.768	87.858	-4.966	155.434	131.933	-4.900	-0.165	193.902	123.959	-0.715	3.976	4.134	8.644	126.969	8.192	-8191	255	
661.335	1	1	0	0	0.19589	0.055971	0.2183	0.2045	0.094107	0.099769	0.19784	0.38201	0.051161	0.075315	0.22007	0.22517	0.20252	0.043713	0.083179	0.2287	-3.075	-2.975	-3.4833	-3.3042	-3.0979	-3.2917	-3.3521	-3.1271	-3.4	-3.1792	-3.3292	-3.4813	-3.0271	-3.5771	-3.1458	-3.2062	231.970	309.881	224.385	-4.601	33.285	98.472	300.175	283.810	29.486	3.432	338.910	200.236	321.325	156.929	142.014	228.518	0.00022915	0.0006493	9.1414e-05	1292.2	4.1809e-06	4.5175e-06	1287.8	349	2.8675e-06	3.6233e-06	400.61	132.42	113.7	40.107	4.3033e-06	50.112	0.00069554	0.00085759	0.00023804	1300.2	9.3885e-06	9.3683e-06	1301	354.22	9.1592e-06	9.5803e-06	406.86	136.52	117.06	40.985	9.408e-06	51.24	159.229	77.765	93.133	-4.956	173.865	141.898	-4.750	-0.290	137.056	96.490	-0.577	3.816	4.397	8.551	129.831	8.135	-8191	255	
661.456	1	1	0	0	0.12771	0.10198	0.12325	0.306	0.039222	0.16137	0.29825	0.098953	0.11019	0.12221	0.25559	0.13299	0.030487	0.15369	0.15647	0.073893	-3.0125	-3.0917	-3.1063	-3.3417	-3.1854	-3.3958	-3.5292	-3.1854	-3.3438	-2.9875	-3.3333	-3.3792	-3.1792	-3.3958	-3.1937	-3.2333	306.238	326.101	193.771	300.220	104.392	235.490	272.824	125.749	119.515	329.957	240.677	5.827	173.925	321.594	120.011	47.696	0.00019498	0.00045711	0.00012365	1282.9	3.3746e-06	6.1798e-06	1281.7	347.53	2.7035e-06	5.6351e-06	399.33	132.07	112.49	39.776	4.7841e-06	50.004	0.00070034	0.0008659	0.00024091	1291.1	9.1658e-06	9.364e-06	1293.5	352.94	9.0832e-06	9.2335e-06	405.42	135.93	116.29	40.72	9.1401e-06	51.145	150.891	81.325	34.596	-4.901	206.991	135.043	-4.780	-0.462	195.585	118.542	-0.773	3.880	4.488	8.695	153.544	8.042	-8191	255	
661.552	1	1	0	0	0.07024	0.062644	0.21988	0.23658	0.31387	0.12662	0.31296	0.3763	0.015831	0.19772	0.25309	0.43836	0.27834	0.16475	0.20135	0.13268	-3.0542	-3.1854	-3.1562	-3.6167	-3.1792	-3.2062	-3.5187	-3.0271	-3.45	-3.2396	-3.3063	-3.3479	-3.0375	-3.3521	-3.3104	-3.1854	73.004	256.247	136.835	286.772	168.029	249.928	278.045	284.622	19.581	333.125	214.917	317.263	286.666	271.967	281.889	184.284	0.00020285	0.00052009	0.00020477	1279.7	3.4816e-06	2.3349e-06	1277.7	347.04	2.5024e-06	6.2817e-06	400.29	131.98	113.42	39.811	4.3141e-06	49.832	0.00067275	0.00083758	0.00023133	1287.8	9.0566e-06	9.1852e-06	1291	352.33	8.9201e-06	9.2355e-06	405.07	135.85	116.32	40.759	9.1054e-06	51.086	155.460	34.556	60.422	-4.774	170.395	156.768	-4.656	0.098	154.676	127.753	-0.507	3.819	4.244	8.715	163.299	8.235	-8191	255	
661.648	1	1	0	0	0.3027	0.066325	0.13971	0.26176	0.082239	0.080455	0.14499	0.31006	0.23153	0.078129	0.0090702	0.17078	0.205	0.45091	0.24308	0.063069	-2.975	-3.2104	-2.8875	-3.5771	-3.0521	-3.1896	-3.4646	-3.0333	-3.3479	-3.3875	-3.1417	-3.3333	-3.1917	-3.1042	-3.3229	-3.0938	314.547	319.799	8.125	317.315	151.495	119.830	276.084	335.057	205.587	80.431	278.984	285.727	64.065	5.846	282.212	122.896	0.00023191	0.00028576	0.00019374	1277.2	4.3023e-06	6.373e-06	1283.4	346.98	2.2981e-06	4.7702e-06	401.86	132.82	113.36	39.921	3.1433e-06	50.076	0.00069619	0.00086903	0.00024074	1288.9	9.2428e-06	9.712e-06	1295.8	352.89	9.316e-06	9.5801e-06	407	136.32	116.7	40.843	9.551e-06	51.222	154.286	43.905	70.248	-4.752	159.012	170.382	-4.929	-0.197	134.934	128.341	-0.675	3.923	4.587	8.713	141.805	7.948	-8191	255	
661.769	1	1	0	0	0.15126	0.27646	0.25703	0.28829	0.17953	0.20823	0.14648	0.23923	0.088631	0.27405	0.22761	0.057487	0.19058	0.31292	0.052811	0.25135	-2.7667	-3.1771	-3.0896	-3.4667	-3.0833	-3.4292	-3.4313	-3.1042	-3.2708	-3.2458	-3.075	-3.4792	-3.1646	-3.4292	-3.2646	-3.0646	86.946	152.309	157.894	276.262	173.513	84.835	301.607	255.724	116.127	284.372	2.460	303.610	280.131	-14.517	228.043	121.520	0.00018937	0.00041053	0.00014573	1283.2	3.2479e-06	6.6198e-06	1286.6	347.48	2.7349e-06	3.8963e-06	400.14	132.55	113.24	39.9	4.7238e-06	50.23	0.00069961	0.00086834	0.00023739	1292.4	9.1093e-06	9.3011e-06	1296.6	353.01	8.8731e-06	8.9724e-06	405.98	136.1	116.48	40.802	8.2126e-06	51.171	158.073	51.752	67.213	-4.723	181.094	135.725	-4.797	-0.261	203.057	125.452	-0.674	3.741	4.104	8.648	148.192	7.984	-8191	255	
661.865	1	1	0	0	0.096023	0.16646	0.035164	0.11811	0.20356	0.11334	0.33955	0.17804	0.35969	0.21018	0.39034	0.21708	0.11131	0.15947	0.22944	0.22008	-2.7208	-3.1188	-2.9333	-3.5062	-3.2042	-3.2333	-3.5625	-3.4146	-3.3125	-3.4021	-3.225	-3.4437	-2.9979	-3.225	-3.275	-3.1875	124.960	199.463	198.709	331.216	38.346	-2.375	294.247	335.618	254.999	89.720	318.809	203.793	257.081	232.729	114.693	262.578	0.00019053	0.00055903	0.00015703	1279.3	4.5083e-06	3.8786e-06	1278.2	346.54	2.4785e-06	6.2271e-06	400.96	132.56	113.23	40.121	2.428e-06	50.372	0.0006028	0.00071872	0.00019425	1288.4	7.4038e-06	7.541e-06	1291.6	351.71	7.3219e-06	7.3094e-06	405.24	136.1	116.36	41.016	7.4475e-06	51.451	157.036	58.678	86.034	-4.916	186.099	165.724	-4.648	-0.242	133.579	133.080	-0.858	3.940	4.366	8.820	136.009	7.989	-8191	255	
661.937	1	1	0	0	0.25453	0.12507	0.077971	0.32	0.21364	0.13243	0.15654	0.14291	0.40969	0.25162	0.24015	0.086357	0.22905	0.22798	0.23313	0.14352	-2.8583	-3.4479	-2.8625	-3.5812	-3.2771	-3.1729	-3.7854	-3.2938	-3.2604	-3.3042	-3.1229	-3.4646	-3.2812	-3.15	-3.4208	-3.2458	302.320	226.644	97.184	12.312	52.249	105.433	313.110	310.656	71.472	323.969	227.619	58.893	320.245	251.508	-10.068	339.469	0.00019839	0.00061778	0.00011936	1283.9	4.4477e-06	5.2492e-06	1282.1	348	2.0152e-06	4.078e-06	400.3	132.44	113.06	40.123	2.5993e-06	50.431	0.00056826	0.00069359	0.0001945	1293.5	7.5885e-06	7.8935e-06	1296.2	353.08	7.8206e-06	7.8097e-06	405.83	136.28	116.54	41.048	7.8647e-06	51.386	160.902	66.629	86.441	-4.753	137.590	134.854	-4.690	-0.201	134.937	144.496	-0.626	4.047	4.385	8.833	145.652	8.049	-8191	255	
662.056	1	1	0	0	0.095341	0.10878	0.077363	0.13392	0.25527	0.13722	0.37714	0.13759	0.17966	0.14033	0.20451	0.33026	0.33531	0.17021	0.12506	0.12807	-2.6917	-3.4	-2.8063	-3.5104	-3.2979	-3.1104	-3.6167	-3.2333	-3.1729	-3.3521	-3.1583	-3.5542	-3.3292	-3.1854	-3.3854	-3.3125	288.187	69.756	278.010	321.825	105.376	307.661	240.868	293.806	11.434	218.902	295.105	331.119	323.373	294.920	309.655	320.666	0.00020417	0.00035897	0.00015831	1283	3.9742e-06	5.3131e-06	1285.8	346.81	3.5349e-06	4.8005e-06	400.85	133.12	112.8	40.025	4.173e-06	50.425	0.0006111	0.00073196	0.00020422	1291.8	7.8224e-06	8.1023e-06	1295.4	352.82	8.0789e-06	8.2515e-06	406.05	136.15	116.37	40.97	8.4034e-06	51.402	160.475	64.427	69.485	-4.816	154.855	120.179	-4.911	-0.135	169.180	134.254	-0.620	3.779	4.425	8.820	135.908	8.062	-8191	255	
662.152	1	1	0	0	0.14367	0.083048	0.058544	0.15925	0.18246	0.076086	0.14049	0.20149	0.10955	0.067789	0.1297	0.41834	0.086643	0.044409	0.065248	0.18458	-2.7771	-3.4333	-3.225	-3.3354	-3.275	-3.2042	-3.575	-3.1896	-3.0625	-3.4208	-3.3979	-3.3354	-3.3812	-3.1813	-3.3104	-3.2125	52.906	2.278	95.613	-17.335	237.845	8.319	288.271	231.145	298.750	267.592	253.659	333.105	73.615	202.840	239.411	315.752	0.00021205	0.00069293	0.00021593	1290.7	2.8108e-06	4.1168e-06	1290.6	348.82	3.261e-06	5.9752e-06	402.48	133.08	113.73	40.286	5.5756e-06	50.392	0.00064236	0.00079071	0.00021537	1297.9	8.3484e-06	8.6658e-06	1301.7	353.9	8.462e-06	8.5316e-06	407.62	136.46	116.8	41.132	8.456e-06	51.417	161.779	49.893	99.911	-4.910	169.700	139.760	-4.816	-0.198	157.261	122.347	-0.582	4.003	4.075	8.679	130.679	7.873	-8191	255	
662.248	1	1	0	0	0.22514	0.073052	0.066836	0.20005	0.08384	0.21681	0.22058	0.23569	0.13332	0.055061	0.31106	0.15257	0.27186	0.13538	0.20939	0.15461	-2.6125	-3.35	-2.9583	-3.3083	-3.3333	-3.1542	-3.4833	-3.3375	-3.2083	-3.5271	-3.2354	-3.1937	-3.3	-3.2604	-3.2896	-3.2958	302.123	85.786	36.189	268.183	103.618	137.148	258.528	314.495	196.172	327.176	326.429	297.435	24.320	242.759	298.401	28.937	0.00022771	0.00045334	0.00011875	1285.7	4.1728e-06	4.606e-06	1290.6	348.2	2.1092e-06	2.8556e-06	400.7	132.55	113.99	40.08	4.9514e-06	50.326	0.00064653	0.000781	0.00021859	1296.9	8.5812e-06	8.7222e-06	1300.1	353.71	8.5135e-06	8.6798e-06	406.66	136.1	116.67	41.056	8.9206e-06	51.465	161.265	79.251	66.391	-4.822	131.635	149.029	-4.791	-0.195	142.268	99.464	-0.854	3.848	4.157	8.608	152.501	8.074	-8191	255	
662.368	1	1	0	0	0.13624	0.16858	0.093905	0.10166	0.281	0.12202	0.099864	0.17457	0.028267	0.030819	0.23221	0.065656	0.29953	0.1063	0.042336	0.14948	-2.6708	-3.5563	-3.2562	-3.3438	-3.4458	-3.0187	-3.7438	-3.3958	-3.0917	-3.3146	-3.4062	-3.1354	-3.4833	-3.1208	-3.4042	-3.4521	261.410	42.896	280.579	248.200	72.125	4.115	339.332	283.410	43.514	-16.424	263.789	8.173	331.069	7.344	50.740	156.016	0.00020914	0.00033032	0.00021311	1287.5	3.8219e-06	4.2012e-06	1292.4	348.33	3.109e-06	4.6132e-06	402.01	132.88	112.89	40.305	3.8056e-06	50.424	0.00068274	0.00084062	0.00023496	1297.7	9.0422e-06	9.411e-06	1303.2	354.36	9.2376e-06	9.4057e-06	408.57	136.63	116.82	41.125	9.4066e-06	51.501	157.703	58.064	73.723	-5.019	170.633	144.895	-4.792	-0.323	186.145	134.496	-0.861	3.825	4.544	8.661	175.455	8.036	-8191	255	
662.465	1	1	0	0	0.12082	0.35904	0.11858	0.18799	0.13725	0.043667	0.16146	0.40803	0.18788	0.020364	0.26356	0.25072	0.29227	0.45423	0.10717	0.20549	-2.6667	-3.4104	-3.1083	-3.4292	-3.4125	-3.1125	-3.2333	-3.5042	-2.7958	-3.4104	-3.3104	-3.1979	-3.4833	-3.1167	-3.2625	-3.3542	85.357	274.759	270.521	341.761	180.204	65.393	254.553	299.286	178.750	265.118	289.707	291.787	334.221	341.460	239.332	296.739	0.00018192	0.00023919	0.00014444	1293.1	4.3983e-06	5.871e-06	1294.9	349.51	2.3156e-06	3.4096e-06	402.06	133.07	113.73	40.306	3.3061e-06	50.337	0.00069655	0.00085465	0.00023734	1303.4	9.1982e-06	9.4552e-06	1306.1	354.92	9.1572e-06	9.4374e-06	408.57	136.7	117.03	41.138	9.3904e-06	51.446	162.215	52.603	47.289	-5.004	148.279	143.449	-4.742	-0.210	146.040	160.216	-0.576	3.811	4.161	8.812	125.141	8.333	-8191	255	
662.536	1	1	0	0	0.16412	0.11157	0.10111	0.20773	0.23028	0.16995	0.19797	0.29378	0.28067	0.17456	0.10718	0.14616	0.15539	0.13448	0.1357	0.14371	-2.6437	-3.2	-3.3125	-3.2417	-3.4271	-3.1208	-3.3979	-3.5792	-3.1	-3.1521	-3.4896	-2.9875	-3.5	-3.2062	-3.2729	-3.5271	317.478	218.588	91.168	336.643	252.652	220.510	258.431	329.754	127.240	-4.684	-1.908	333.557	335.097	193.214	-7.996	240.470	0.00023232	0.0004969	0.00013823	1295.3	3.2787e-06	4.9965e-06	1287.2	348.35	4.2217e-06	2.6433e-06	402.62	133.06	114.23	40.321	6.2107e-06	50.398	0.00070434	0.00085967	0.00023941	1301.7	9.0606e-06	9.4252e-06	1302.4	354.8	8.9605e-06	9.3338e-06	408.32	136.77	117.21	41.142	9.0199e-06	51.487	156.803	68.614	56.627	-4.833	182.372	128.362	-4.826	-0.279	170.429	120.930	-0.661	3.722	4.048	8.571	171.065	8.180	-8191	255	
662.632	1	1	0	0	0.093791	0.27374	0.16477	0.326	0.19881	0.16627	0.26963	0.18745	0.2035	0.20919	0.14563	0.15337	0.13602	0.16636	0.1766	0.17691	-2.5625	-3.4	-3.2521	-3.1896	-3.6042	-3.2729	-3.2229	-3.6042	-3.3229	-3.0812	-3.4562	-3.0812	-3.5312	-3.2896	-3.1562	-3.475	-9.637	278.842	174.253	251.168	175.683	139.514	300.390	10.488	54.283	322.987	320.541	309.001	11.515	-5.319	237.868	299.494	0.00019733	0.0003384	0.00015473	1293.6	5.4659e-06	4.8936e-06	1293.5	348.93	3.4323e-06	4.3311e-06	401.04	132.63	113.47	40.064	4.9128e-06	50.323	0.00068006	0.00083611	0.00022679	1302.7	8.8098e-06	9.0649e-06	1307.1	354.64	8.7873e-06	9.1762e-06	407.78	136.59	117.06	41.073	8.9292e-06	51.514	155.621	71.707	98.131	-4.909	147.500	115.869	-4.593	-0.313	187.442	124.806	-0.836	4.034	4.264	8.481	152.367	7.888	-8191	255	
662.729	1	1	0	0	0.13354	0.32439	0.35387	0.10774	0.17597	0.27144	0.25241	0.060963	0.20199	0.12995	0.10493	0.14919	0.13945	0.36693	0.084637	0.29045	-2.7375	-3.1	-3.3125	-3.2938	-3.2729	-3.1583	-3.3646	-3.5604	-2.975	-3.2854	-3.4188	-3.1896	-3.5687	-3.2125	-3.0896	-3.5	260.599	18.539	301.753	288.804	292.433	149.703	203.513	57.007	233.298	320.861	269.641	20.747	-6.296	322.154	328.991	-15.821	0.00017301	0.00053579	5.1726e-05	1294.1	4.375e-06	5.1751e-06	1295.6	348.33	3.3198e-06	4.5599e-06	403.33	132.17	113.37	40.103	5.0047e-06	50.098	0.0006884	0.00085057	0.00023754	1302.5	9.2482e-06	9.5298e-06	1305	354.25	9.3319e-06	9.5537e-06	408.41	136.47	116.96	41.062	9.6698e-06	51.405	159.720	64.528	76.906	-4.843	170.258	158.330	-4.830	-0.232	151.667	132.716	-0.801	3.816	4.272	8.919	136.064	7.793	-8191	255	
662.849	1	1	0	0	0.13143	0.10443	0.089678	0.39125	0.17781	0.085571	0.17149	0.19493	0.23731	0.14628	0.31167	0.12332	0.20753	0.34313	0.21529	0.19828	-2.6063	-3.2812	-3.3083	-3.2583	-3.5833	-3.3417	-3.5542	-3.4792	-3.25	-3.3625	-3.6708	-3.1604	-3.4375	-3.4979	-3.0458	-3.3438	334.509	286.916	226.811	273.541	126.703	284.977	241.334	325.236	303.784	203.524	-0.688	312.916	297.336	-13.770	318.207	281.727	0.00021098	0.00040249	0.00015605	1286.8	1.2723e-06	1.6083e-06	1286.7	349.12	3.0858e-06	4.2927e-06	401.87	132.3	112.95	40.103	3.1153e-06	50.019	0.00072383	0.00088573	0.00024728	1297.3	9.5011e-06	9.6097e-06	1300.2	354.74	9.4144e-06	9.6489e-06	407.37	136.23	116.61	40.979	9.3723e-06	51.282	157.888	46.349	61.471	-4.822	227.481	151.267	-4.795	-0.167	173.886	126.659	-0.770	3.985	4.251	8.568	139.607	8.212	-8191	255	
662.944	1	1	0	0	0.11509	0.13082	0.12116	0.25065	0.12689	0.17508	0.07585	0.15834	0.053865	0.22319	0.14339	0.073705	0.27228	0.11502	0.12028	0.030968	-2.7167	-3.1333	-3.4917	-3.3479	-3.2562	-3.4833	-3.2958	-3.4521	-3.4708	-2.9396	-3.4375	-3.2354	-3.3458	-3.275	-3.1479	-3.5417	184.944	122.125	168.797	317.568	98.567	161.844	123.134	279.296	105.615	164.616	-16.571	189.834	262.970	306.126	309.395	199.599	0.00021347	0.00046501	0.00010176	1279.7	4.4369e-06	6.3331e-06	1281	347.51	2.0814e-06	2.6018e-06	400.87	131.59	112.8	39.987	2.5094e-06	50.153	0.00070599	0.00085398	0.00023484	1292.6	9.0314e-06	9.2051e-06	1295.1	353.21	8.9627e-06	9.2582e-06	406.36	135.76	116.3	40.873	9.2658e-06	51.305	150.514	67.879	31.537	-4.895	160.140	133.835	-4.698	-0.153	140.409	69.292	-0.694	3.809	4.183	8.687	168.318	7.939	-8191	255	
663.040	1	1	0	0	0.12474	0.038419	0.091827	0.41358	0.31954	0.17254	0.28105	0.15575	0.13112	0.17732	0.18397	0.089085	0.2031	0.15094	0.307	0.13677	-2.9021	-3.0667	-3.3563	-3.4354	-3.275	-3.35	-3.3312	-3.4083	-3.3458	-3.25	-3.5708	-3.4125	-3.2208	-3.4625	-3.1375	-3.5208	226.102	326.392	198.451	291.705	292.524	286.790	298.870	240.851	244.931	137.038	-2.256	92.766	70.968	310.118	312.377	239.712	0.00022103	0.00032972	3.6533e-05	1284.8	3.3826e-06	6.8266e-06	1284.1	347	1.6031e-06	3.464e-06	401.23	132.08	112.96	39.866	6.5656e-06	49.807	0.00069123	0.00084347	0.00022949	1294	8.9512e-06	9.0453e-06	1297	353.27	8.5518e-06	8.8808e-06	406.45	135.79	116.25	40.833	8.653e-06	51.122	164.043	64.647	79.010	-4.831	157.060	118.094	-4.919	-0.271	191.992	120.384	-0.708	3.985	4.380	8.660	148.880	7.998	-8191	255	
663.138	1	1	0	0	0.13986	0.19745	0.127	0.18731	0.23497	0.15328	0.25738	0.26581	0.10148	0.15715	0.055471	0.145	0.22948	0.30218	0.21257	0.14128	-2.9188	-2.8937	-3.45	-3.4813	-3.1104	-3.3271	-3.2562	-3.25	-3.4875	-3.0167	-3.7854	-3.225	-3.2021	-3.475	-2.9729	-3.1688	157.260	98.887	172.195	297.813	216.561	94.929	292.209	-13.994	48.665	42.545	48.892	297.102	246.199	276.442	144.775	-14.804	0.00020565	0.00032352	0.00016199	1284.1	5.624e-06	5.0207e-06	1285.3	347.22	3.866e-06	5.25e-06	400.99	132.5	112.95	39.826	3.6689e-06	50.468	0.00063712	0.00077295	0.00021411	1294.3	8.4007e-06	8.4194e-06	1297.1	352.67	8.3838e-06	8.5277e-06	406.23	136.02	116.59	40.885	8.5171e-06	51.329	158.556	84.277	94.159	-4.882	176.347	135.855	-4.658	-0.248	170.538	105.159	-0.583	3.770	4.236	8.676	132.637	7.975	-8191	255	
663.232	1	1	0	0	0.06116	0.27159	0.21858	0.25835	0.19567	0.37278	0.085474	0.099651	0.11694	0.12549	0.18243	0.17872	0.22628	0.22854	0.12291	0.059519	-2.875	-3.0062	-3.2333	-3.2625	-3.0812	-3.5542	-3.2	-3.4062	-3.275	-3.0854	-3.55	-3.1833	-3.2333	-3.4042	-3.1604	-3.3646	157.047	131.751	33.855	205.959	242.056	228.855	298.950	313.683	252.163	13.970	12.989	314.215	-4.566	308.783	184.333	250.200	0.00021284	0.00059527	0.00013206	1280.2	4.2938e-06	6.3628e-06	1288.8	348.3	1.932e-06	5.423e-06	400.04	132.46	113.3	40.003	5.0701e-06	50.206	0.00063598	0.00078322	0.00021745	1292.4	8.3054e-06	8.5192e-06	1297	353.27	8.179e-06	8.4757e-06	406.13	136.1	116.53	40.938	8.0446e-06	51.249	142.974	70.626	64.436	-4.884	150.913	103.761	-4.777	-0.225	155.840	113.627	-0.739	3.694	4.307	8.627	151.145	8.206	-8191	255	
663.328	1	1	0	0	0.16745	0.055513	0.34104	0.25105	0.19196	0.23627	0.43082	0.40125	0.27351	0.31424	0.16364	0.29481	0.31821	0.22274	0.078909	0.27857	-2.8917	-3.1875	-3.1896	-3.4146	-3.0375	-3.3667	-3.3604	-3.4813	-3.4	-3.2479	-3.3167	-3.3354	-3.0104	-3.3354	-3.2229	-3.0458	208.308	315.654	13.076	328.821	-2.511	252.704	298.923	294.714	79.993	-16.071	331.807	313.724	313.116	276.788	-12.434	287.837	0.00022473	0.00076905	0.00010482	1279.8	3.6201e-06	2.8527e-06	1283.5	347.03	2.5188e-06	5.899e-06	399.91	132.76	112.82	39.996	2.1493e-06	50.267	0.00060342	0.00072912	0.00020354	1290.4	7.8524e-06	7.859e-06	1293.7	352.61	7.6564e-06	8.0409e-06	405.53	136.06	116.4	40.994	7.5526e-06	51.247	155.947	77.049	60.324	-4.767	163.462	111.380	-4.920	-0.149	134.936	139.469	-0.700	3.761	4.036	8.729	156.201	8.403	-8191	255	
663.449	1	1	0	0	0.15774	0.046507	0.11054	0.037569	0.12754	0.16898	0.20564	0.41521	0.17847	0.1445	0.068793	0.29766	0.32265	0.18306	0.22695	0.10196	-3.0646	-3.0938	-3.3458	-3.4521	-3.1229	-3.4125	-3.2188	-3.2792	-3.3583	-2.9667	-3.5333	-3.3083	-3.1646	-3.3958	-3.0958	-3.275	135.115	29.432	207.479	261.627	233.062	338.773	259.284	241.049	64.577	248.694	39.043	272.285	243.628	330.459	137.757	264.837	0.00018938	0.00027191	0.00013163	1276.8	3.4067e-06	3.4316e-06	1275.2	345.89	1.9678e-06	4.5145e-06	398.71	131.67	113.05	40.191	2.6579e-06	50.394	0.00058096	0.00068766	0.00018893	1286.5	7.3381e-06	7.3567e-06	1288.9	351.4	7.1247e-06	7.5516e-06	404.65	135.81	116.24	40.983	7.5026e-06	51.431	153.765	100.627	76.013	-4.809	132.705	120.476	-4.809	-0.251	173.030	145.585	-0.568	3.988	4.396	8.772	147.053	7.960	-8191	255	
663.545	1	1	0	0	0.050231	0.22515	0.21897	0.23419	0.16555	0.30378	0.036726	0.28213	0.11101	0.05112	0.072796	0.14753	0.22533	0.14625	0.10894	0.12046	-2.8688	-3.2479	-2.9688	-3.3917	-3.0229	-3.0854	-3.5812	-3.1271	-3.2771	-3.2417	-3.3396	-3.4333	-2.9833	-3.35	-3.2917	-3.1229	11.132	327.840	178.238	327.141	339.301	78.332	80.341	273.922	321.538	276.592	130.680	103.620	309.645	300.755	12.225	270.399	0.00021106	0.0004686	0.00020801	1281.1	2.8712e-06	5.7812e-06	1280.7	346.78	1.2085e-06	5.3366e-06	398.78	132.34	112.91	40.131	1.1873e-06	50.382	0.00056709	0.00068357	0.00018763	1291	7.3403e-06	7.4613e-06	1292.9	351.61	7.3259e-06	7.5555e-06	404.74	135.97	116.16	41.016	7.672e-06	51.363	155.554	61.989	71.004	-4.839	158.324	122.265	-4.705	-0.122	167.428	124.452	-0.724	3.835	4.375	8.665	112.667	8.282	-8191	255	
663.641	1	1	0	0	0.34699	0.35727	0.1022	0.22863	0.15369	0.32845	0.29575	0.12739	0.064906	0.14336	0.129	0.21889	0.13042	0.077585	0.092441	0.16913	-2.9125	-3.0833	-3.0833	-3.4625	-2.9875	-3.3042	-3.3937	-3.1583	-3.3063	-3.2479	-3.1708	-3.5438	-3.2188	-3.1771	-3.3646	-3.1146	5.300	163.893	153.273	293.009	9.407	264.633	298.937	23.205	235.204	-5.380	10.198	276.399	143.067	237.790	222.233	336.134	0.00022284	0.000544	0.00018967	1282.2	5.2509e-06	5.7814e-06	1277.7	345.82	2.1553e-06	5.0292e-06	399.39	132.51	112.82	39.896	5.3941e-06	50.29	0.00060639	0.00071987	0.00020123	1290.6	7.9111e-06	8.0522e-06	1292.3	351.93	8.0446e-06	8.1143e-06	405.27	135.81	116.14	40.924	8.3939e-06	51.274	153.716	61.686	74.010	-4.812	154.963	118.431	-5.022	-0.117	156.637	136.180	-0.577	3.816	4.265	8.721	139.455	8.096	-8191	255	
663.737	1	1	0	0	0.022112	0.16844	0.27806	0.2413	0.10716	0.16508	0.22571	0.034336	0.21724	0.044128	0.28858	0.27424	0.19405	0.22323	0.26514	0.14677	-2.9875	-3.3479	-3.0854	-3.6167	-3.025	-3.5	-3.4021	-3.3333	-3.3604	-3.2438	-3.0083	-3.4625	-3.1	-3.3854	-3.4	-3.0708	334.184	171.655	95.090	-17.023	287.679	5.128	295.921	179.125	37.664	67.246	337.857	301.101	42.182	302.523	8.822	324.176	0.00020737	0.00039017	0.00022067	1283.6	4.4587e-06	3.4767e-06	1288.5	346.68	4.0253e-06	4.6659e-06	399.33	132.03	113.19	40.007	4.2213e-06	50.085	0.00064686	0.00079484	0.00022088	1293.1	8.5817e-06	8.8571e-06	1298.7	352.44	8.6981e-06	8.8772e-06	405.19	135.71	116.41	40.932	8.9269e-06	51.328	150.994	90.939	64.648	-4.841	187.952	152.963	-4.740	-0.321	161.074	133.851	-0.791	3.847	4.319	8.680	147.510	8.062	-8191	255	
663.833	1	1	0	0	0.21181	0.064871	0.072467	0.38618	0.085175	0.061955	0.029303	0.16914	0.18713	0.087472	0.13572	0.21545	0.20717	0.29759	0.14198	0.087549	-2.9688	-3.1792	-2.9437	-3.3479	-3.1813	-3.4458	-3.5812	-3.075	-3.5187	-3.0917	-3.4083	-3.3229	-3.3417	-3.1354	-3.3979	-3.0792	101.819	35.586	305.685	274.140	126.218	228.301	216.505	295.901	31.367	18.569	10.286	294.310	33.271	-17.226	6.236	337.274	0.00020546	0.00063108	0.00012167	1284.7	5.7897e-06	3.7286e-06	1284.1	347.32	2.1674e-06	4.2115e-06	400.43	132.04	113.12	39.989	2.0186e-06	50.27	0.00068737	0.00084894	0.00024055	1296	9.248e-06	9.578e-06	1298.3	353.29	9.2768e-06	9.558e-06	406.68	136.15	116.74	40.917	9.4066e-06	51.368	160.222	63.013	75.741	-4.979	166.669	109.534	-4.792	-0.265	138.856	132.671	-0.776	3.681	4.328	8.792	128.372	7.986	-8191	255	
663.930	1	1	0	0	0.075839	0.19289	0.043867	0.51552	0.28036	0.029329	0.17888	0.20419	0.22598	0.20053	0.34792	0.20806	0.18992	0.16517	0.18891	0.098629	-2.6396	-3.3333	-3.0375	-3.4479	-3.2958	-3.0354	-3.5271	-3.1271	-3.1854	-3.2417	-2.9771	-3.5812	-3.4125	-3.1562	-3.525	-3.4313	298.595	330.781	132.846	310.054	89.092	316.877	31.226	274.587	145.323	219.423	263.946	5.073	39.464	189.911	336.653	325.589	0.00021108	0.00066508	8.1818e-05	1286.5	3.5681e-06	4.9702e-06	1288.5	347.34	4.5118e-06	6.6765e-06	401.51	132.43	112.72	39.978	4.8077e-06	49.876	0.00070232	0.0008403	0.00023428	1297	9.1057e-06	9.0604e-06	1300.4	353.4	8.7463e-06	8.882e-06	406.5	136.18	116.35	40.923	8.4529e-06	51.19	156.513	45.532	99.375	-4.938	160.371	132.388	-4.663	-0.447	175.016	130.061	-0.619	3.921	4.448	8.824	160.698	8.090	-8191	255	
664.024	1	1	0	0	0.12046	0.086702	0.19264	0.35825	0.18349	0.13245	0.18277	0.26174	0.068509	0.30323	0.13001	0.24136	0.32382	0.081904	0.10915	0.12853	-2.7875	-3.2938	-3.075	-3.5625	-3.2271	-3.2479	-3.6625	-3.1188	-3.2938	-3.4104	-3.0687	-3.4833	-3.4521	-3.0667	-3.2542	-3.3563	67.787	245.936	77.797	288.260	254.162	296.811	298.851	295.141	240.407	297.954	190.515	340.646	286.325	320.002	162.975	3.848	0.00020354	0.00043267	0.00014385	1283.1	2.6526e-06	6.1385e-06	1284.4	346.4	2.5124e-06	6.5685e-06	400.45	131.77	112.99	39.878	3.193e-06	50.143	0.00063469	0.00076406	0.00021228	1292.3	8.082e-06	8.2631e-06	1293.9	352.65	8.0856e-06	8.2387e-06	406.04	135.61	116.1	40.866	7.9994e-06	51.157	160.794	52.715	58.561	-4.734	149.751	109.181	-4.856	-0.255	162.611	127.047	-0.786	3.822	4.370	8.668	150.727	8.235	-8191	255	
664.145	1	1	0	0	0.11136	0.226	0.16755	0.40384	0.097789	0.091108	0.22951	0.092104	0.067884	0.097489	0.158	0.18484	0.081553	0.2641	0.026376	0.19122	-2.5417	-3.2583	-3.2271	-3.425	-3.1625	-3.0979	-3.7375	-3.3625	-3.1437	-3.425	-3.1896	-3.3875	-3.35	-3.1146	-3.2854	-3.2417	68.350	109.727	210.511	325.819	9.107	18.154	262.362	300.828	10.890	28.689	21.737	276.345	31.305	3.029	50.960	323.484	0.00022739	0.00034356	0.00015378	1285.8	3.2549e-06	6.8141e-06	1284.1	348.69	1.9835e-06	2.6554e-06	400.61	132.22	113.2	40.155	1.1834e-06	50.332	0.00060946	0.00073898	0.00020746	1291.6	7.9282e-06	8.2168e-06	1296.3	353.58	8.106e-06	8.2917e-06	406.67	136.13	116.67	41.02	8.644e-06	51.444	154.622	22.486	53.515	-4.777	178.291	138.254	-4.681	-0.113	175.228	194.615	-0.572	3.867	4.341	8.799	168.553	8.133	-8191	255	
664.241	1	1	0	0	0.079164	0.23693	0.12171	0.2537	0.29386	0.25367	0.29083	0.29426	0.2165	0.1676	0.10704	0.28775	0.11557	0.4506	0.19267	0.078067	-2.7354	-3.525	-2.9729	-3.3542	-3.3563	-3.1604	-3.5458	-3.1896	-3.2167	-3.4938	-3.1917	-3.3521	-3.4375	-3.0375	-3.4771	-3.2083	318.627	135.327	241.213	-7.255	329.480	163.889	335.022	312.701	250.713	205.515	-7.545	302.518	309.808	-16.111	340.923	273.441	0.0001936	0.00071536	0.00013956	1286.2	3.683e-06	8.421e-06	1294.6	347.97	3.754e-06	5.4196e-06	403.19	133.03	113.65	40.122	3.1001e-06	50.185	0.00066246	0.00078472	0.00022392	1300.6	8.6168e-06	9.027e-06	1306.1	354.5	8.8614e-06	9.2633e-06	408.37	136.6	116.9	41.08	8.9417e-06	51.353	162.243	49.748	99.724	-4.874	135.899	110.708	-4.811	-0.426	127.901	153.761	-0.716	3.781	4.290	8.684	156.846	7.956	-8191	255	
664.337	1	1	0	0	0.064477	0.14929	0.17508	0.27956	0.031636	0.14357	0.13582	0.37057	0.10753	0.069289	0.090423	0.35914	0.21876	0.31228	0.30391	0.14457	-2.9167	-3.3792	-2.8229	-3.3896	-3.4479	-3.0062	-3.5604	-3.3792	-3.0229	-3.375	-3.4229	-3.1708	-3.4062	-3.2417	-3.1958	-3.5187	152.477	326.681	77.375	282.393	239.522	-5.915	158.437	306.454	258.063	169.500	112.925	329.855	328.605	314.587	177.169	321.322	0.00022182	0.00040276	0.00013929	1290.9	2.7329e-06	3.3873e-06	1298	348.59	2.3934e-06	4.5193e-06	401.83	132.4	113.87	39.985	4.5741e-06	50.137	0.00067381	0.00081899	0.00023301	1302.8	8.7834e-06	9.1108e-06	1306.9	354.47	9.0718e-06	9.2242e-06	407.6	136.27	116.87	41.026	9.3281e-06	51.423	148.977	85.978	76.323	-4.786	164.106	147.910	-4.679	-0.174	150.797	131.738	-0.723	3.805	3.944	8.632	138.142	8.194	-8191	255	
664.409	1	1	0	0	0.15113	0.089194	0.10107	0.28789	0.16175	0.16192	0.13006	0.1351	0.18171	0.21354	0.18736	0.03169	0.15858	0.19915	0.059839	0.12103	-2.9062	-3.2062	-3.2958	-3.3354	-3.2958	-3.2042	-3.3583	-3.5521	-3.0958	-3.5375	-3.4167	-3.3083	-3.4458	-3.1271	-3.3354	-3.3688	298.678	332.869	304.108	-16.384	125.154	288.596	261.280	87.277	199.081	84.457	335.754	143.307	43.028	261.643	273.512	146.195	0.00022098	0.00080482	0.00013224	1284.7	4.2678e-06	4.444e-06	1292	349.47	3.6576e-06	5.081e-06	402.96	132.27	113.66	40.234	7.0574e-06	50.104	0.00071369	0.00091297	0.00025235	1299.8	9.767e-06	1.0138e-05	1306.3	355.41	1.0082e-05	1.0421e-05	409.45	136.66	117.12	41.142	1.0026e-05	51.473	149.500	93.818	82.008	-4.953	155.477	88.708	-4.840	-0.190	154.653	133.538	-0.821	4.064	4.290	8.488	169.308	7.853	-8191	255	
664.529	1	1	0	0	0.039283	0.31803	0.12477	0.28892	0.14723	0.2639	0.1654	0.41112	0.021097	0.11514	0.15649	0.1566	0.09041	0.052476	0.13043	0.06665	-2.4458	-3.3583	-3.3771	-3.2458	-3.2875	-3.175	-3.3729	-3.4958	-3.1896	-3.45	-3.4	-3.1208	-3.3729	-3.2542	-3.2333	-3.45	-9.197	66.815	305.825	281.020	321.333	231.173	251.474	319.302	167.905	172.980	300.329	277.292	132.303	58.547	31.187	232.635	0.00019667	0.00047632	0.00016948	1294.4	4.5567e-06	5.8822e-06	1293.2	349.66	3.4491e-06	5.1467e-06	402.84	132.85	113.18	40.033	1.37e-06	50.235	0.00074256	0.00091859	0.00025804	1305.3	9.8143e-06	1.0045e-05	1305.9	355.73	9.9612e-06	1.013e-05	409.39	136.64	117.05	41.062	9.8652e-06	51.498	148.001	20.237	88.072	-4.864	143.002	144.380	-4.812	-0.290	176.203	128.342	-0.596	3.946	4.472	8.817	180.909	7.971	-8191	255	
664.625	1	1	0	0	0.33782	0.0099157	0.095674	0.28786	0.20527	0.096372	0.071059	0.23107	0.055645	0.18622	0.39132	0.055329	0.29298	0.052937	0.10624	0.10603	-2.8146	-3.2854	-3.0854	-3.1	-3.3937	-3.2167	-3.2354	-3.3771	-3.0854	-3.175	-3.2146	-3.0667	-3.2812	-3.125	-3.2167	-3.3833	271.688	332.174	270.668	261.312	92.720	178.447	321.060	274.310	318.585	339.716	-11.480	299.121	20.505	27.273	258.816	190.167	0.00020023	0.00054554	0.0002008	1295.8	4.5502e-06	6.3094e-06	1296	348.91	2.9012e-06	4.2024e-06	402.93	131.9	113.65	39.935	4.387e-06	50.311	0.00073509	0.00091064	0.00024348	1304.1	9.5558e-06	9.8819e-06	1305.2	355	9.8257e-06	1.0031e-05	408.27	136.26	117.12	41.027	9.908e-06	51.403	151.616	74.354	67.567	-4.814	153.774	140.152	-4.605	-0.435	170.255	112.190	-0.732	3.897	4.482	8.639	162.592	8.152	-8191	255	
664.722	1	1	0	0	0.1055	0.14442	0.15639	0.1988	0.17691	0.17274	0.231	0.2251	0.21417	0.186	0.20047	0.039146	0.21181	0.16855	0.20228	0.23551	-2.4875	-3.4458	-3.1771	-3.0938	-3.4625	-3.2604	-3.3187	-3.3271	-3.0229	-3.2104	-3.3208	-3.2208	-3.2958	-3.4042	-3.1958	-3.3667	331.480	48.109	318.333	258.493	230.317	-17.373	328.715	332.403	-0.418	100.946	255.809	178.971	25.037	296.803	59.504	340.161	0.00022268	0.00035625	7.9462e-05	1292.4	4.2485e-06	6.2391e-06	1295.7	349.73	1.495e-06	3.3146e-06	400.89	132.19	112.83	40.034	5.8004e-06	50.205	0.00073902	0.00092802	0.00025135	1305	9.7902e-06	1.0093e-05	1307	355.14	9.868e-06	1.0216e-05	407.79	136.44	116.73	41.004	1.0228e-05	51.496	152.246	58.476	97.739	-4.702	157.915	96.151	-4.885	-0.135	186.513	123.510	-0.621	3.842	4.291	8.642	155.083	8.016	-8191	255	
664.818	1	1	0	0	0.12436	0.26229	0.21077	0.24367	0.17823	0.11079	0.23268	0.267	0.13917	0.14795	0.16351	0.23773	0.29914	0.14668	0.085836	0.1489	-2.6667	-3.1229	-3.3604	-3.1813	-3.2542	-3.2604	-3.2479	-3.4625	-3.2188	-3.2625	-3.4104	-3.0708	-3.475	-3.1646	-3.2458	-3.5125	37.881	272.007	18.276	314.970	33.782	291.904	282.311	301.642	152.197	337.454	309.579	276.203	3.712	233.502	241.726	50.420	0.00021004	0.00043231	0.00010287	1291.5	4.7972e-06	7.4848e-06	1293.1	349.7	4.1962e-06	3.543e-06	402.65	132.45	113.32	40.035	3.5629e-06	50.097	0.00076309	0.00096075	0.00026599	1304.6	1.05e-05	1.0633e-05	1307.3	355.42	1.0436e-05	1.0541e-05	408.66	136.31	117.04	40.962	9.9236e-06	51.299	157.707	70.471	81.826	-4.822	150.550	144.677	-4.845	-0.141	126.258	200.496	-0.684	4.033	4.346	8.647	157.322	7.847	-8191	255	
664.937	1	1	0	0	0.33346	0.062361	0.12984	0.22496	0.27619	0.067974	0.026714	0.31703	0.074892	0.14278	0.24882	0.30362	0.086682	0.07143	0.22442	0.23949	-2.6833	-3.0375	-3.4458	-3.2375	-3.0812	-3.3771	-3.0542	-3.4604	-3.2479	-3.3	-3.3604	-3.0896	-3.3479	-3.4479	-3.0812	-3.3354	220.499	286.880	158.934	-0.442	145.976	90.257	65.643	298.134	46.309	170.137	209.162	319.786	122.804	3.312	214.268	277.415	0.00021098	0.00060631	7.1569e-05	1282.8	4.3045e-06	2.5626e-06	1278.4	345.94	2.8774e-06	4.2772e-06	396.14	130.82	112.58	39.545	4.917e-06	49.619	0.00073333	0.00089342	0.00024126	1295.6	9.0284e-06	9.0369e-06	1291.9	351.05	8.7324e-06	8.7728e-06	403.16	134.6	115.55	40.484	8.9417e-06	50.891	161.281	55.214	69.531	-4.765	154.983	76.986	-4.769	-0.199	161.094	123.295	-0.781	4.051	4.462	8.884	133.980	8.230	-8191	255	
665.033	1	1	0	0	0.048132	0.20693	0.30572	0.20505	0.3733	0.14566	0.17752	0.04371	0.12871	0.090252	0.24629	0.074903	0.14503	0.238	0.11847	0.073453	-2.6688	-3.2083	-3.4313	-2.9542	-3.3167	-3.3229	-3.2958	-3.5	-3.275	-3.0833	-3.7646	-3.2438	-3.2604	-3.5625	-2.9688	-3.3854	16.133	120.528	281.071	340.082	264.041	166.956	9.946	219.831	7.193	282.181	277.781	160.354	-0.661	23.178	335.829	301.812	0.0002084	0.00064094	9.6293e-05	1277.3	4.256e-06	4.6155e-06	1281.7	345.85	1.4023e-06	5.7013e-06	397.18	130.93	112.45	39.754	2.2103e-06	49.785	0.00067822	0.00083965	0.00023713	1289.8	9.2027e-06	9.5173e-06	1294.4	351.53	9.5098e-06	9.801e-06	404.82	135.3	116.21	40.678	9.7518e-06	51.043	156.160	65.990	100.485	-4.878	133.078	140.154	-4.551	-0.255	177.575	132.834	-0.599	3.809	4.382	8.786	92.664	8.170	-8191	255	
665.129	1	1	0	0	0.11997	0.25491	0.19941	0.2431	0.06748	0.035011	0.12751	0.16828	0.068075	0.18564	0.19646	0.17156	0.27003	0.11053	0.050541	0.22931	-2.7708	-3.1458	-3.3708	-3.2146	-3.2458	-3.3958	-3.1146	-3.6042	-3.2667	-3.2521	-3.4771	-3.4146	-3.1583	-3.4229	-3.075	-3.3417	204.005	32.024	267.097	339.987	-16.900	245.223	284.997	272.881	83.318	305.896	293.850	237.290	-13.738	293.982	152.290	139.602	0.00019315	0.00032594	0.00018526	1286	1.5445e-06	5.1656e-06	1279.8	346.82	3.1614e-06	2.7789e-06	397.56	130.73	112.22	39.624	5.8455e-06	49.73	0.00071703	0.00088069	0.00024249	1296.2	9.1793e-06	9.38e-06	1295.7	352.18	8.9329e-06	9.1381e-06	403.83	134.9	115.71	40.514	8.9813e-06	50.888	151.122	26.389	46.777	-4.771	251.507	143.815	-4.581	-0.124	170.155	105.155	-0.533	3.921	4.294	8.685	154.688	8.236	-8191	255	
665.225	1	1	0	0	0.2596	0.10321	0.095019	0.33593	0.18986	0.094329	0.21165	0.25538	0.14478	0.049898	0.10948	0.14059	0.31199	0.072784	0.14209	0.15957	-2.6771	-2.8979	-3.4458	-3.2792	-3.0042	-3.325	-3.2375	-3.3167	-3.35	-3.2271	-3.5979	-3.2917	-3.1896	-3.3417	-3.0708	-3.3542	108.622	45.656	96.829	275.552	162.938	175.099	280.843	277.471	300.004	-10.819	320.300	283.681	320.550	95.044	71.745	154.822	0.00024948	0.00029224	9.1361e-05	1281.5	3.7877e-06	8.2303e-06	1281.1	345.78	3.4062e-06	2.4732e-06	398.89	130.56	111.96	39.667	2.8782e-06	49.79	0.00066625	0.00081482	0.00022499	1292.3	8.5734e-06	8.7081e-06	1293.1	351.5	8.5205e-06	8.9047e-06	404.16	134.68	115.48	40.573	8.9641e-06	50.9	160.715	73.569	67.590	-4.893	155.292	114.356	-4.643	-0.178	161.494	115.841	-0.598	3.969	4.324	9.028	172.261	8.192	-8191	255	
665.321	1	1	0	0	0.042362	0.27972	0.1405	0.36928	0.102	0.062907	0.15251	0.15494	0.23465	0.16723	0.20113	0.12896	0.058594	0.15459	0.28661	0.046568	-2.7854	-3.0104	-3.1625	-3.3854	-3.0417	-3.4042	-3.2833	-3.2771	-3.3917	-3.1188	-3.3875	-3.4104	-3.1167	-3.6188	-3.25	-3.3354	263.243	94.007	50.626	272.064	224.065	222.132	296.317	324.956	90.956	178.790	242.197	144.230	286.302	330.526	171.837	161.525	0.00024713	0.00052153	0.00016622	1280.1	2.2357e-06	6.4432e-06	1279.3	346.76	2.3288e-06	3.8872e-06	399.58	131.6	112.36	39.609	5.0027e-06	49.686	0.00067705	0.00083895	0.00023575	1292.8	8.9523e-06	9.4343e-06	1295.9	352.44	9.0976e-06	9.4707e-06	405.35	135.41	115.71	40.633	9.5297e-06	50.979	158.059	105.731	75.878	-4.759	185.107	124.973	-4.732	-0.221	123.033	126.306	-0.506	3.995	4.118	8.488	137.753	8.106	-8191	255	
665.417	1	1	0	0	0.16097	0.19156	0.32953	0.30052	0.028532	0.090865	0.1096	0.15625	0.22736	0.12389	0.18789	0.11647	0.37912	0.21874	0.039267	0.18829	-2.9167	-2.9771	-3.2313	-3.2562	-3.0354	-3.4562	-3.2375	-3.5021	-3.4896	-3.2417	-3.3125	-3.4417	-2.9479	-3.6542	-3.2833	-3.1896	303.891	90.005	62.654	293.049	71.770	63.542	271.253	221.842	121.624	241.319	46.639	234.567	300.942	256.965	315.987	12.528	0.0002087	0.00035547	0.00017939	1281.5	4.1023e-06	5.228e-06	1278.8	345.27	4.1586e-06	5.228e-06	398.13	131.06	112.42	39.69	3.7737e-06	49.534	0.00070097	0.00087059	0.00023533	1292.9	9.0224e-06	9.2085e-06	1294.2	351.66	8.7631e-06	8.9467e-06	403.96	134.82	115.65	40.544	8.5849e-06	50.759	151.469	66.784	76.784	-4.667	152.220	151.275	-4.754	-0.104	172.833	136.827	-0.632	3.900	4.033	8.570	155.679	7.992	-8191	255	
665.538	1	1	0	0	0.045476	0.15889	0.25668	0.37915	0.079457	0.061214	0.16615	0.14515	0.0084101	0.13233	0.046708	0.079519	0.1791	0.12019	0.096787	0.1348	-2.8229	-3.1625	-3.0354	-3.5958	-3.1188	-3.5187	-3.4104	-3.3875	-3.3479	-3.2521	-3.3625	-3.3354	-3.1896	-3.3604	-3.2646	-3.1875	248.388	32.313	92.918	336.132	199.160	303.351	217.730	288.500	52.766	206.359	28.091	-15.933	281.827	266.281	128.345	284.321	0.00021284	0.00048523	0.00011943	1279.6	3.1034e-06	8.496e-06	1277.7	345.1	1.6142e-06	2.9088e-06	398.32	130.89	111.89	39.915	8.3747e-07	49.858	0.00065241	0.00081217	0.0002203	1288.4	8.6531e-06	8.883e-06	1293.4	351.35	8.9468e-06	9.205e-06	404.34	135.16	115.55	40.747	9.5378e-06	51.007	160.790	38.516	59.837	-4.714	190.147	110.619	-4.889	-0.012	133.427	119.744	-0.745	3.820	4.374	8.665	222.675	8.128	-8191	255	
665.634	1	1	0	0	0.18542	0.12822	0.2965	0.30302	0.11076	0.18134	0.24095	0.1325	0.055284	0.097534	0.19886	0.14373	0.065824	0.17874	0.033372	0.05668	-3.0458	-2.9833	-3.1271	-3.5062	-3.3063	-3.2396	-3.5708	-2.9833	-3.3208	-3.0542	-3.3375	-3.3479	-3.0958	-3.2083	-3.3667	-3.05	194.892	5.932	164.608	328.224	32.807	285.123	247.727	267.033	169.989	220.589	238.503	282.971	191.471	57.465	226.400	310.975	0.00019619	0.00056561	0.00019597	1275.5	4.2756e-06	5.6358e-06	1282.6	346.36	1.1985e-06	4.7566e-06	399.28	131.63	112.35	39.502	4.947e-06	49.747	0.00073301	0.00093351	0.00025642	1290.8	1.0082e-05	1.0438e-05	1296.2	352.76	1.0127e-05	1.0595e-05	406.32	135.73	116.22	40.654	9.8796e-06	51.069	156.642	63.851	62.334	-4.963	124.726	152.035	-4.704	-0.160	230.730	141.761	-0.717	3.893	4.254	8.560	147.371	8.232	-8191	255	
665.706	1	1	0	0	0.16063	0.33756	0.20914	0.15948	0.25937	0.36387	0.43068	0.28336	0.32312	0.14018	0.14974	0.24238	0.27108	0.16471	0.14426	0.11206	-2.8042	-3.1125	-3.0542	-3.5208	-3.0542	-3.3271	-3.3979	-3.175	-3.2938	-3.1042	-3.35	-3.3354	-3.1417	-3.2271	-3.3042	-3.2562	172.921	107.123	286.964	299.000	331.992	286.195	311.189	266.642	156.568	76.520	293.340	328.175	26.034	33.719	49.304	64.838	0.00019786	0.00053922	0.00016552	1285	3.6859e-06	5.8745e-06	1284.4	345.9	2.4175e-06	5.4497e-06	398.32	131.29	112.32	39.623	3.9418e-06	49.704	0.00072149	0.00088927	0.00024889	1295.1	9.5011e-06	9.6311e-06	1298.5	352.44	9.1153e-06	9.3513e-06	404.82	135.31	115.62	40.659	8.9283e-06	50.883	155.793	64.645	46.036	-4.787	150.605	134.278	-4.833	-0.223	178.511	150.491	-0.581	3.840	4.230	8.671	161.510	8.108	-8191	255	
665.826	1	1	0	0	0.071106	0.16157	0.2766	0.31506	0.18539	0.18179	0.12858	0.13271	0.21609	0.15034	0.19753	0.073795	0.10527	0.34454	0.13273	0.18753	-2.9604	-3.0458	-2.8917	-3.5125	-3.0021	-3.3333	-3.4562	-3.0333	-3.2875	-3.1833	-3.0417	-3.4229	-3.0938	-3.1562	-3.4167	-3.2771	64.371	201.187	142.752	-3.557	337.935	181.402	262.017	327.945	225.394	266.749	283.499	319.380	170.812	229.344	33.981	137.881	0.00018142	0.00048879	0.00017472	1279.4	4.2363e-06	5.8869e-06	1281.9	345.84	3.1541e-06	5.4125e-06	397.25	130.85	112.14	39.59	4.5424e-06	49.589	0.00067474	0.00081124	0.00022691	1290.4	8.6639e-06	8.8317e-06	1293	351.55	8.6078e-06	8.8472e-06	403.66	134.95	115.62	40.635	8.4326e-06	50.854	160.655	76.080	53.744	-4.847	179.612	154.534	-4.788	-0.038	154.143	131.523	-0.584	3.981	4.423	8.849	151.885	8.237	-8191	255	
665.921	1	1	0	0	0.05474	0.035249	0.1035	0.21695	0.11573	0.21342	0.2552	0.23309	0.1234	0.088342	0.11547	0.21759	0.15	0.12017	0.15209	0.17661	-2.875	-3.175	-2.975	-3.3125	-3.05	-3.0354	-3.4979	-3.4292	-3.25	-3.3458	-3.2125	-3.5583	-3.0604	-3.2917	-3.2771	-3.1167	297.292	-3.360	254.461	329.615	119.623	83.359	205.370	256.862	152.699	240.902	288.216	257.443	16.295	301.704	205.296	274.885	0.00020069	0.00038564	8.3448e-05	1274.2	4.7048e-06	4.7387e-06	1279	345.07	2.1615e-06	3.1898e-06	395.38	130.84	111.47	39.519	5.1053e-06	49.554	0.00064768	0.00077899	0.00022023	1287	8.3257e-06	8.5948e-06	1289.5	350.21	8.3869e-06	8.5781e-06	402.79	134.65	115.23	40.489	8.7481e-06	50.787	158.885	68.743	84.450	-4.887	147.881	135.786	-4.805	-0.256	140.045	107.612	-0.455	4.035	4.491	8.774	152.440	8.175	-8191	255	
666.017	1	1	0	0	0.0086033	0.30109	0.015002	0.15446	0.15378	0.10826	0.27252	0.034051	0.074775	0.29601	0.12576	0.10703	0.12937	0.32732	0.19679	0.20934	-2.7667	-3.2917	-2.9917	-3.5083	-3.5312	-3.1229	-3.6083	-3.1542	-3.2354	-3.2708	-3.225	-3.2438	-3.3333	-3.1833	-3.2792	-3.2625	-11.738	129.993	278.200	-0.098	238.244	113.345	298.669	35.841	229.725	63.321	335.206	290.633	160.090	-17.750	125.705	167.748	0.00021095	0.00052949	0.00013983	1271.8	4.257e-06	5.4287e-06	1274.9	344.17	2.2261e-06	4.5515e-06	396.57	131.09	111.79	39.628	4.8352e-06	49.741	0.00065351	0.00080587	0.00022688	1282.2	8.7245e-06	9.0916e-06	1287.1	349.73	8.796e-06	9.1899e-06	403.21	135.11	115.35	40.577	9.4161e-06	50.939	161.153	49.938	75.703	-4.659	147.437	139.983	-4.834	-0.289	205.334	166.186	-0.706	3.947	4.526	8.728	146.279	8.037	-8191	255	
666.113	1	1	0	0	0.071751	0.32747	0.13775	0.28013	0.23199	0.19352	0.26647	0.40638	0.22155	0.28545	0.18814	0.12115	0.10039	0.40525	0.069108	0.35576	-2.6562	-3.2333	-2.9667	-3.5563	-3.2354	-3.2646	-3.6292	-3.0917	-3.2396	-3.3792	-3.125	-3.2667	-3.4521	-2.9521	-3.4083	-3.3396	216.024	316.021	218.167	272.694	313.957	241.145	337.202	336.041	-1.997	62.048	325.128	239.065	116.881	-16.845	66.762	277.187	0.00020179	0.00075702	0.0001421	1278.8	4.1066e-06	6.9204e-06	1275.5	343.71	2.3418e-06	3.9089e-06	397.98	130.86	112.34	39.629	5.163e-06	49.417	0.00068711	0.00085665	0.0002378	1288.2	9.0201e-06	9.4712e-06	1289.9	350.36	9.1269e-06	9.5415e-06	403.16	134.67	115.42	40.543	9.6786e-06	50.795	164.252	39.251	67.008	-4.947	199.212	118.796	-4.770	-0.191	171.902	92.499	-0.749	3.867	4.055	8.563	128.161	8.200	-8191	255	
666.234	1	1	0	0	0.19463	0.10255	0.20282	0.011864	0.17195	0.29874	0.14899	0.18281	0.093806	0.0091449	0.212	0.089894	0.1011	0.21543	0.14201	0.11676	-2.7896	-3.3625	-3.1083	-3.2438	-3.2812	-3.1646	-3.4042	-3.2646	-3.3458	-3.3271	-3.2604	-3.2417	-3.4521	-3.0542	-3.2042	-3.3021	4.354	110.903	221.721	327.730	93.489	333.262	260.431	285.028	145.019	78.895	217.322	90.469	-1.397	311.548	163.704	91.765	0.00022759	0.00060369	0.00017542	1271	3.1632e-06	4.5728e-06	1273.4	344.81	2.0763e-06	3.6507e-06	397.27	130.92	111.87	39.656	3.717e-06	49.545	0.00070537	0.00089479	0.0002516	1283.8	9.5853e-06	9.9148e-06	1287.9	350.47	9.5615e-06	9.6931e-06	402.79	134.87	115.32	40.535	9.6816e-06	50.892	161.310	54.400	89.080	-4.868	145.151	115.215	-4.871	-0.273	213.518	136.209	-0.518	3.877	4.644	8.865	161.847	8.170	-8191	255	
666.330	1	1	0	0	0.19507	0.14976	0.11858	0.14716	0.24732	0.25109	0.14068	0.11751	0.27975	0.042805	0.070693	0.17878	0.21479	0.16588	0.019571	0.049573	-2.6396	-3.1813	-2.8625	-3.3104	-3.2375	-3.1271	-3.45	-3.4062	-3.0812	-3.5625	-3.2833	-3.3125	-3.3646	-3.1021	-3.3125	-3.2792	332.959	120.757	255.490	305.516	248.657	-4.478	-16.682	193.128	313.358	207.611	243.014	59.331	323.908	-12.991	126.840	186.977	0.00020488	0.00050617	0.0001571	1270.4	3.2339e-06	3.7892e-06	1273	344.94	3.2684e-06	4.9381e-06	396.4	130.19	111.49	39.469	3.7138e-06	49.33	0.0007088	0.000881	0.00024771	1284	9.3806e-06	9.7775e-06	1286.3	349.99	9.633e-06	9.9861e-06	402.72	134.66	115.12	40.486	9.7096e-06	50.7	161.399	48.050	74.643	-4.703	173.879	153.262	-4.711	-0.160	159.723	134.529	-0.520	3.937	4.317	8.832	159.259	7.987	-8191	255	
666.402	1	1	0	0	0.28821	0.06692	0.18414	0.12947	0.15758	0.088355	0.13806	0.073288	0.1448	0.23005	0.1593	0.27109	0.11282	0.3248	0.079118	0.24998	-2.6042	-3.3146	-3.15	-3.175	-3.3646	-3.2583	-3.3063	-3.5479	-2.9979	-3.2313	-3.2333	-3.2083	-3.5521	-3.3438	-3.1333	-3.5104	310.880	260.069	190.308	-15.572	106.697	116.893	88.745	209.966	46.019	86.244	54.282	270.484	235.831	330.739	36.253	321.805	0.00020257	0.00060809	0.00012525	1271.2	4.2469e-06	6.3209e-06	1272.7	342.73	1.9077e-06	4.2471e-06	395.72	130.51	111.76	39.469	4.2791e-06	49.509	0.00072034	0.0008924	0.00024588	1283.6	9.4322e-06	9.8852e-06	1285.7	349.27	9.5371e-06	9.9235e-06	402.34	134.55	115.17	40.452	9.5904e-06	50.798	151.111	66.653	60.945	-4.832	152.301	116.301	-4.684	-0.311	134.045	132.244	-0.503	3.819	4.481	8.643	145.124	8.157	-8191	255	
666.498	1	1	0	0	0.016632	0.17367	0.053108	0.27372	0.113	0.13981	0.17669	0.24495	0.18553	0.11003	0.21331	0.066542	0.19853	0.10513	0.18611	0.23355	-2.6917	-3.3688	-2.9583	-3.2875	-3.4875	-2.9271	-3.5292	-3.4479	-2.9875	-3.3812	-3.55	-2.9958	-3.4042	-3.2979	-3.2021	-3.5021	291.072	27.067	206.044	260.405	155.245	-9.400	269.241	249.711	-2.491	263.787	264.569	43.282	277.112	61.161	326.321	299.503	0.00021277	0.00058978	0.0001336	1264.5	2.4332e-06	5.1166e-06	1267.8	343.95	2.8793e-06	3.363e-06	393.6	130.16	111.47	39.343	3.056e-06	49.566	0.00072137	0.00088098	0.00024171	1279.8	9.196e-06	9.5413e-06	1280.7	348.76	9.0951e-06	9.3199e-06	400.54	134.19	114.83	40.403	8.9313e-06	50.62	156.934	63.093	89.416	-4.841	151.886	126.796	-4.827	-0.065	155.295	163.286	-0.656	3.975	4.343	8.668	139.164	8.210	-8191	255	
666.618	1	1	0	0	0.14996	0.030439	0.12417	0.34714	0.0021079	0.14481	0.29528	0.22813	0.044545	0.067835	0.080185	0.22585	0.28017	0.11004	0.059553	0.33199	-2.6854	-3.3438	-3.4062	-3.1833	-3.3104	-3.0771	-3.3917	-3.6083	-3.0187	-3.4104	-3.2729	-3.1854	-3.4021	-3.2833	-3.1583	-3.5812	231.331	321.383	29.067	256.020	267.154	305.734	290.538	275.539	79.184	261.390	-8.887	299.953	257.745	292.547	255.383	295.268	0.00020959	0.00039735	0.00019349	1259.2	3.5685e-06	4.3082e-06	1257.7	341.25	3.0969e-06	4.9008e-06	392.68	129.72	111.27	39.302	3.5039e-06	49.266	0.00068592	0.00081938	0.00022563	1271.7	8.7497e-06	8.9541e-06	1270.9	347.01	8.6432e-06	8.8918e-06	398.57	133.89	114.53	40.285	8.9449e-06	50.526	161.952	57.586	65.959	-4.933	154.871	132.782	-4.654	0.007	171.047	127.668	-0.891	3.996	4.471	8.790	162.624	8.096	-8191	255	
666.714	1	1	0	0	0.080399	0.17	0.20757	0.2757	0.29993	0.11044	0.26305	0.058862	0.22761	0.081695	0.076414	0.047396	0.19238	0.27147	0.099209	0.065314	-2.5729	-3.1	-3.3458	-3.0521	-3.3479	-2.9208	-3.2521	-3.4417	-3.1104	-3.3708	-3.5021	-3.1729	-3.375	-3.2917	-3.0938	-3.4979	127.737	28.630	113.788	-17.579	12.196	204.977	326.842	-8.071	310.968	164.333	95.681	-2.106	90.882	337.649	269.311	324.304	0.00019329	0.00048461	0.00014217	1260.6	4.2622e-06	6.1605e-06	1262.4	341.63	2.5539e-06	4.5164e-06	392.89	129.94	111.44	39.535	3.3764e-06	49.583	0.00067919	0.00082394	0.00023018	1271.1	8.9197e-06	9.2157e-06	1276.8	347.77	9.0655e-06	9.453e-06	399.89	133.95	114.81	40.422	9.4219e-06	50.711	152.755	62.171	90.888	-4.814	159.439	132.027	-4.638	-0.103	170.038	111.542	-0.516	3.962	4.424	8.766	126.820	8.272	-8191	255	
666.811	1	1	0	0	0.2081	0.040867	0.072055	0.25676	0.27723	0.14513	0.14323	0.25284	0.19402	0.060199	0.18167	0.16479	0.036557	0.21304	0.21171	0.06529	-2.7479	-3.1979	-3.2833	-3.3021	-3.4958	-3.2375	-3.425	-3.6646	-3.1562	-3.3667	-3.4437	-3.2542	-3.3563	-3.3917	-3.0646	-3.5187	54.179	142.373	51.663	276.311	146.199	57.731	281.040	308.762	251.468	91.769	278.496	136.252	204.063	323.940	328.415	216.586	0.00020294	0.00028884	7.5778e-05	1264	3.9404e-06	3.3463e-06	1265.9	342.74	2.0488e-06	5.1523e-06	394.7	130.35	111.61	39.469	3.4856e-06	49.436	0.00071634	0.00087676	0.00024194	1276.8	9.279e-06	9.632e-06	1280.8	348.26	9.4997e-06	9.7568e-06	400.7	134.46	115.04	40.472	9.7599e-06	50.702	156.517	37.476	89.245	-4.812	170.751	143.149	-4.865	-0.151	160.128	134.132	-0.659	3.980	4.246	8.937	155.602	8.126	-8191	255	
666.931	1	1	0	0	0.11435	0.016696	0.048999	0.30877	0.22439	0.25033	0.0035394	0.090899	0.19569	0.11416	0.13324	0.048429	0.10752	0.13573	0.23302	0.16024	-2.8458	-3.1271	-3.2729	-3.2021	-3.4271	-3.0146	-3.4229	-3.5417	-3.0354	-3.2104	-3.5146	-3.1333	-3.4042	-3.3521	-3.2042	-3.5625	276.652	269.197	294.463	292.100	247.579	277.660	71.464	20.302	227.447	245.760	59.494	27.332	290.422	60.527	318.887	288.382	0.00020748	0.00045517	0.00016729	1267.4	4.3601e-06	5.1986e-06	1269.5	341.36	3.0036e-06	3.1837e-06	393.99	130.69	110.99	39.384	4.0007e-06	49.603	0.00070769	0.00088825	0.00024711	1278.4	9.5952e-06	9.8792e-06	1280.1	347.86	9.448e-06	9.8374e-06	400.87	134.43	114.76	40.421	9.6707e-06	50.806	154.117	90.967	88.345	-4.816	159.838	119.377	-4.669	-0.233	160.520	190.587	-0.657	3.910	4.268	8.862	140.070	8.242	-8191	255	
667.003	1	1	0	0	0.029974	0.20036	0.080362	0.30995	0.13701	0.12897	0.15381	0.27244	0.066461	0.11199	0.16068	0.21721	0.096135	0.27644	0.1413	0.075925	-2.7792	-3.2083	-3.35	-3.275	-3.3208	-3.35	-3.1958	-3.4062	-3.1667	-3.3125	-3.2938	-3.1	-3.1479	-3.3583	-3.0312	-3.2854	195.390	171.255	41.377	326.788	133.100	282.241	293.556	300.964	267.488	248.050	16.584	-8.409	259.184	305.643	35.484	338.284	0.00022103	0.00046524	0.00010129	1262.1	3.2885e-06	3.8073e-06	1264.2	341.63	2.7453e-06	5.2195e-06	393.67	130.18	111.64	39.352	4.3513e-06	49.446	0.00070654	0.0009	0.00024784	1277.3	9.5006e-06	9.6272e-06	1279.8	347.58	9.413e-06	9.6597e-06	400.03	134.3	114.98	40.364	9.8939e-06	50.685	148.303	60.643	84.054	-4.758	131.135	147.444	-4.806	-0.081	152.472	117.040	-0.534	4.058	4.410	8.809	173.581	8.080	-8191	255	
667.099	1	1	0	0	0.22782	0.1077	0.26834	0.073515	0.42274	0.11627	0.09257	0.18045	0.28694	0.29838	0.10274	0.25651	0.050137	0.054579	0.060481	0.16353	-2.8625	-3.0917	-3.3396	-3.2812	-3.2562	-3.2583	-3.2708	-3.5167	-3.3833	-3.025	-3.4042	-3.35	-3.2854	-3.3521	-3.2229	-3.3771	151.445	3.076	278.388	272.053	289.541	81.682	255.091	218.713	263.810	313.031	289.037	17.191	258.790	215.337	276.113	15.122	0.00022056	0.00036807	0.00013407	1261.3	9.7545e-07	5.4624e-06	1260.6	341.1	2.7938e-06	4.1154e-06	394.79	129.92	111.71	39.458	1.3537e-06	49.406	0.00073451	0.00090832	0.00024976	1274.9	9.5468e-06	9.9188e-06	1278.8	348.04	9.4921e-06	1.0152e-05	400.59	134.14	114.92	40.429	9.98e-06	50.753	149.145	66.995	55.927	-4.997	51.355	126.875	-4.870	-0.080	175.479	129.592	-0.729	3.963	4.347	8.727	146.789	8.319	-8191	255	
667.218	1	1	0	0	0.12692	0.21914	0.10724	0.16828	0.20737	0.13431	0.18015	0.22993	0.33838	0.076638	0.3716	0.010254	0.11744	0.20557	0.017547	0.22534	-2.7896	-3.1562	-3.1875	-3.3333	-3.2521	-3.4354	-3.5438	-3.3937	-3.2604	-3.0021	-3.6521	-3.3479	-3.2833	-3.4896	-3.2229	-3.3625	321.217	170.483	15.313	268.564	46.307	220.626	332.743	298.690	113.254	181.656	262.348	142.236	167.229	232.200	20.168	336.007	0.00021397	0.00052014	0.00013076	1261.5	3.0441e-06	5.8186e-06	1263.6	340.84	2.2544e-06	6.4551e-06	394.13	129.86	111.08	39.305	4.5953e-06	49.427	0.00073905	0.00092502	0.00025838	1276.5	9.8233e-06	1.0127e-05	1279.9	347.77	9.8286e-06	1.0296e-05	400.84	134.12	114.82	40.419	1.0165e-05	50.705	163.969	70.822	87.313	-4.723	174.007	154.027	-4.743	-0.117	170.244	133.525	-0.765	3.818	4.517	8.789	132.577	8.189	-8191	255	
667.314	1	1	0	0	0.22584	0.074497	0.22762	0.18542	0.11475	0.18444	0.24949	0.1356	0.089295	0.02369	0.096281	0.13294	0.10623	0.27322	0.1403	0.13318	-3.0583	-3.0083	-3.2146	-3.3458	-3.1229	-3.2271	-3.3021	-3.3771	-3.2604	-3.1042	-3.4188	-3.1875	-2.9167	-3.4437	-3.0625	-3.1542	22.911	33.428	325.701	292.714	309.203	216.642	297.929	252.533	135.708	-11.032	234.780	252.276	261.932	-0.461	266.492	232.122	0.00021989	0.00054262	0.00014612	1265.4	1.1886e-06	4.2356e-06	1264.1	342.14	2.4331e-06	5.055e-06	393.17	129.8	111.26	39.235	3.7612e-06	49.534	0.00074327	0.00094809	0.00026006	1277.6	1e-05	1.0289e-05	1281	348.49	9.8355e-06	1.0614e-05	400.93	134.36	114.86	40.471	1.0018e-05	50.811	146.690	32.756	76.734	-4.837	173.006	134.400	-4.644	-0.274	169.318	155.797	-0.721	3.727	4.262	8.965	165.087	7.989	-8191	255	
667.410	1	1	0	0	0.14072	0.1075	0.12359	0.41107	0.16109	0.11822	0.16484	0.17087	0.15204	0.1558	0.19006	0.15531	0.10049	0.16704	0.24869	0.093556	-2.9833	-3.0396	-3.2292	-3.4958	-3.0708	-3.3333	-3.3042	-3.4354	-3.3854	-3.2604	-3.3854	-3.4458	-3.1854	-3.3937	-3.3	-3.2229	245.405	34.848	267.663	277.190	175.061	35.894	299.193	324.078	162.803	141.889	-5.654	222.108	218.368	281.513	-8.251	138.145	0.00020214	0.00063844	0.0001932	1263.4	4.2314e-06	6.277e-06	1263.3	342.3	3.8526e-06	6.669e-06	394.58	130.31	111.32	39.338	6.0892e-06	49.43	0.00075331	0.00094678	0.00025718	1277.4	9.9823e-06	1.0275e-05	1281.9	348.88	9.8255e-06	1.0425e-05	401.87	134.54	115.16	40.476	1.0024e-05	50.809	157.148	61.095	65.286	-4.867	162.515	115.281	-4.722	-0.228	148.795	122.345	-0.639	4.106	4.308	8.654	143.006	8.252	-8191	255	
667.531	1	1	0	0	0.01535	0.066377	0.060578	0.29567	0.13407	0.11418	0.16637	0.099787	0.10252	0.040286	0.17299	0.41604	0.086458	0.10503	0.17684	0.31848	-2.8604	-2.9979	-3.3979	-3.5167	-3.1312	-3.4125	-3.3646	-3.3167	-3.2438	-3.2792	-3.275	-3.3667	-3.1437	-3.3042	-3.1688	-3.2938	144.297	35.014	112.716	304.026	267.467	130.591	240.240	310.982	109.148	66.787	285.533	291.944	293.464	95.645	209.093	299.685	0.00019453	0.00054323	0.00021609	1265.2	1.7402e-06	3.7549e-06	1265.2	341.13	3.0469e-06	4.5378e-06	395.16	130.3	111.45	39.478	6.2454e-06	49.402	0.00074311	0.00093805	0.00025918	1279.9	1.0053e-05	1.0247e-05	1283	348.42	9.8665e-06	1.0445e-05	401.65	134.62	115.34	40.575	1.0165e-05	50.882	157.688	70.639	67.850	-5.003	180.650	134.141	-4.737	-0.110	178.953	148.988	-0.500	3.858	4.452	8.844	148.992	8.005	-8191	255	
667.603	1	1	0	0	0.15936	0.19284	0.3669	0.28459	0.16227	0.082123	0.19728	0.45935	0.14218	0.26954	0.21634	0.070508	0.25529	0.047659	0.21661	0.18826	-2.825	-3.175	-3.15	-3.475	-2.9	-3.525	-3.1437	-3.2125	-3.1375	-3.0896	-3.3187	-3.4542	-3.1125	-3.5021	-3.1542	-2.9938	24.967	63.707	241.654	-11.391	55.131	341.731	213.377	308.119	123.903	219.191	235.352	-8.622	290.804	211.558	279.581	310.694	0.00021628	0.00049203	0.00013585	1263.1	3.257e-06	5.7922e-06	1267.6	343.81	2.9367e-06	6.7058e-06	396.32	130.27	111.65	39.631	2.1916e-06	49.525	0.00076681	0.00095504	0.00026593	1280.8	1.0124e-05	1.0628e-05	1286.9	350.1	1.0174e-05	1.0527e-05	403.38	134.98	115.54	40.693	1.0316e-05	51.027	159.762	49.296	89.863	-4.824	146.035	162.771	-4.680	-0.215	187.247	128.013	-0.694	3.943	4.458	8.757	173.940	8.188	-8191	255	
667.699	1	1	0	0	0.078393	0.12907	0.14766	0.19067	0.1424	0.020954	0.36363	0.26927	0.065025	0.16214	0.083766	0.18868	0.19468	0.14375	0.0055031	0.18537	-2.8604	-3.3042	-3.0479	-3.6958	-3.0563	-3.3583	-3.4521	-3.1167	-3.2521	-3.1583	-3.3458	-3.4604	-3.2104	-3.2292	-3.2333	-2.9792	281.408	178.541	142.541	293.516	157.127	340.756	303.896	316.724	41.234	18.797	23.237	287.673	289.161	-8.821	299.862	185.540	0.00019662	0.00052967	0.00019417	1265.1	2.9105e-06	5.2186e-06	1269.4	344.06	3.7466e-06	6.1257e-06	396.5	130.71	111.85	39.524	1.4237e-06	49.652	0.0007577	0.00095821	0.00026521	1282.4	1.017e-05	1.0383e-05	1288.5	350.41	1.011e-05	1.0478e-05	403.81	135.1	115.79	40.747	1.0368e-05	51.199	155.733	90.999	52.368	-4.891	131.833	134.250	-4.756	-0.335	170.881	144.497	-0.556	3.877	4.264	8.691	96.479	7.994	-8191	255	
667.795	1	1	0	0	0.053384	0.065189	0.26555	0.098148	0.26706	0.15581	0.049636	0.16363	0.11711	0.15801	0.13761	0.048861	0.15439	0.29239	0.16181	0.18969	-2.8271	-3.0396	-3.1063	-3.5229	-3.25	-3.2208	-3.6125	-3.2875	-3.2958	-3.1917	-3.1646	-3.3292	-3.0833	-3.3792	-3.2479	-3.2542	140.597	279.230	6.131	206.946	159.334	207.620	280.900	210.775	184.798	86.671	314.855	93.671	-11.505	4.327	42.995	301.413	0.00018548	0.00054759	0.000153	1268.3	2.7968e-06	6.7264e-06	1271.1	344.17	2.3359e-06	5.9388e-06	396.81	131.25	112.02	39.55	4.0194e-06	49.665	0.00075327	0.0009482	0.0002695	1285.1	1.0179e-05	1.0461e-05	1290	350.83	1.0047e-05	1.0525e-05	404.23	135.53	115.95	40.839	1.0503e-05	51.135	150.744	53.386	96.464	-4.817	145.068	165.010	-4.901	-0.133	160.011	88.107	-0.586	4.089	4.261	8.804	158.758	8.212	-8191	255	
667.914	1	1	0	0	0.11266	0.30544	0.24874	0.10647	0.10153	0.057624	0.11198	0.35777	0.11672	0.31724	0.26332	0.20577	0.08738	0.039955	0.24672	0.029805	-2.7854	-3.1979	-3.0917	-3.6417	-3.0354	-3.2938	-3.5083	-3.0479	-3.2854	-3.0833	-3.2	-3.3854	-3.3625	-3.1208	-3.3438	-2.8583	320.869	186.022	121.240	30.497	144.072	172.103	287.404	258.269	128.214	-13.067	6.173	274.470	18.781	25.888	27.248	187.730	0.00019935	0.00064261	0.00012044	1269.9	4.9788e-06	6.4793e-06	1273.7	343.44	3.1286e-06	5.8784e-06	397.33	130.96	111.84	39.755	3.7641e-06	49.887	0.00076542	0.00094483	0.00026722	1285.6	1.0251e-05	1.06e-05	1290	350.77	1.0295e-05	1.0646e-05	404.85	135.64	115.81	40.844	1.0439e-05	51.293	163.217	52.159	103.351	-4.804	154.223	130.263	-4.965	-0.322	131.723	112.520	-0.672	4.063	4.289	8.729	161.654	8.134	-8191	255	
668.010	1	1	0	0	0.12973	0.074561	0.050193	0.083011	0.29379	0.17234	0.091257	0.19599	0.098012	0.26015	0.20982	0.22625	0.2724	0.12919	0.18566	0.18288	-2.8021	-3.0292	-2.9417	-3.3958	-3.2604	-3.225	-3.5146	-3.1958	-3.2208	-3.1354	-3.1229	-3.35	-3.3312	-3.1896	-3.4604	-3.2125	57.728	278.034	123.986	250.623	248.090	244.480	252.898	259.034	71.835	298.251	324.232	299.520	311.062	276.012	100.275	287.230	0.00019861	0.00038084	0.00022745	1271.3	2.119e-06	5.4523e-06	1269.4	342.43	3.0933e-06	4.835e-06	395.7	130.02	110.91	39.486	4.3633e-06	49.318	0.00076406	0.00096359	0.00026692	1287.6	1.0429e-05	1.0702e-05	1291.5	351.04	1.0256e-05	1.0664e-05	404.78	135.44	115.93	40.854	1.048e-05	51.117	157.105	66.404	71.167	-5.090	160.200	149.730	-4.727	-0.269	161.580	121.645	-0.708	3.605	4.103	8.758	155.579	8.097	-8191	255	
668.106	1	1	0	0	0.14875	0.012021	0.13922	0.051651	0.084369	0.23311	0.13499	0.17532	0.1239	0.14233	0.096444	0.25952	0.20662	0.11813	0.23817	0.14371	-2.8146	-3.2583	-3.125	-3.5146	-3.1917	-3.2458	-3.7792	-3.2208	-3.175	-3.4062	-3.2771	-3.4708	-3.1333	-3.2	-3.3979	-3.0396	17.069	-3.792	231.962	252.065	155.120	233.773	339.854	236.201	254.783	9.014	103.949	340.738	275.291	250.636	73.894	204.090	0.00021793	0.00032224	0.00012449	1264.4	2.099e-06	4.4113e-06	1265.1	340.97	1.869e-06	5.6065e-06	392.69	130.01	111.39	39.552	4.9869e-06	49.687	0.00076986	0.00099285	0.00027173	1286.1	1.0254e-05	1.0762e-05	1290.3	351.36	1.0464e-05	1.0893e-05	404.36	135.3	115.85	40.816	1.0512e-05	51.26	160.558	57.770	54.783	-4.911	203.541	86.308	-5.000	-0.313	162.343	182.238	-0.633	3.762	4.182	8.526	149.862	8.177	-8191	255	
668.202	1	1	0	0	0.36305	0.40074	0.14475	0.1908	0.10031	0.1639	0.18289	0.17366	0.13063	0.16121	0.12708	0.27421	0.14467	0.2597	0.058609	0.11061	-2.7917	-3.1958	-2.9896	-3.5271	-3.2208	-3.0042	-3.6208	-3.3354	-3.1167	-3.5271	-3.3417	-3.4333	-3.2396	-3.2854	-3.3708	-3.2812	8.851	306.687	305.764	284.085	49.732	-14.774	254.894	278.342	80.426	66.309	14.575	214.043	221.991	289.181	270.883	207.243	0.00021125	0.00040283	0.00013441	1271	4.4593e-06	4.0222e-06	1269.9	344.05	2.6852e-06	3.2369e-06	395.1	130.87	111.97	39.651	4.5028e-06	49.398	0.00078129	0.00098058	0.00027666	1288.1	1.0537e-05	1.0882e-05	1290.9	351.8	1.0554e-05	1.0713e-05	404.82	135.58	116.05	40.879	1.0413e-05	51.096	153.722	103.224	52.038	-4.936	160.932	135.699	-4.915	-0.204	157.384	119.852	-0.848	3.840	4.274	8.630	131.577	8.031	-8191	255	
668.298	1	1	0	0	0.18145	0.1616	0.036572	0.28833	0.18098	0.067237	0.04751	0.0031256	0.017373	0.23085	0.27528	0.11565	0.1696	0.15435	0.12755	0.020562	-2.8312	-3.3312	-3.0458	-3.5229	-3.1333	-3.2042	-3.5521	-3.3958	-3.1542	-3.3583	-3.4125	-3.4021	-3.5062	-3.1917	-3.3229	-3.4688	282.340	82.821	40.094	314.171	159.195	265.246	147.898	302.795	222.085	19.318	332.810	223.888	310.658	253.344	69.526	3.892	0.00019712	0.00076913	9.403e-05	1269.5	5.1538e-06	5.0253e-06	1275.7	342.71	2.3048e-06	3.2668e-06	397.68	131.26	111.84	39.524	4.2757e-06	49.909	0.00077983	0.00099146	0.0002725	1286	1.0413e-05	1.0795e-05	1291.6	351.04	1.034e-05	1.0726e-05	404.72	135.65	116.01	40.815	1.0614e-05	51.306	162.628	88.727	80.676	-4.800	171.106	160.710	-4.677	-0.175	144.038	119.256	-0.777	3.721	4.274	8.691	125.525	7.995	-8191	255	
668.394	1	1	0	0	0.35889	0.18373	0.17526	0.22623	0.073744	0.35188	0.060433	0.10952	0.11187	0.27786	0.21644	0.081816	0.17122	0.3239	0.10901	0.21733	-2.4688	-3.4562	-3.0354	-3.4604	-3.2021	-3.2687	-3.5271	-3.4354	-3.2375	-3.3479	-3.1792	-3.3125	-3.3979	-3.0667	-3.175	-3.4313	281.856	54.921	103.544	259.983	319.160	177.155	266.187	72.462	226.158	142.671	15.627	190.018	250.905	-14.146	46.936	318.838	0.00019536	0.00080774	0.00016652	1271.2	3.5022e-06	3.9428e-06	1266.5	343.57	2.0753e-06	4.8339e-06	396.17	130.74	111.1	39.562	4.6048e-06	49.583	0.00076141	0.00099504	0.00027223	1287.7	1.0417e-05	1.0671e-05	1288.6	351.45	1.0313e-05	1.056e-05	404.72	135.64	115.71	40.801	1.0401e-05	51.075	169.289	98.547	76.113	-4.936	147.607	112.118	-4.967	-0.100	175.478	128.736	-0.730	3.960	4.341	8.525	134.321	7.936	-8191	255	
668.491	1	1	0	0	0.1091	0.16428	0.20362	0.12992	0.021652	0.085725	0.25673	0.29318	0.12674	0.30402	0.14934	0.32656	0.22576	0.14191	0.48767	0.13931	-2.5167	-3.4042	-3.0021	-3.2083	-3.5042	-3.1229	-3.5396	-3.2479	-3.2292	-3.1312	-3.4396	-3.1646	-3.3646	-3.1188	-3.2438	-3.5125	22.969	286.611	58.260	289.694	243.924	67.682	268.404	288.682	96.462	-0.432	310.504	278.052	266.866	10.088	290.245	255.227	0.00021171	0.00036668	0.00017035	1268	4.678e-06	6.1936e-06	1266.7	343.19	1.9902e-06	5.0895e-06	396.07	131.01	111.69	39.459	4.9904e-06	49.403	0.00077255	0.00097298	0.00026859	1284.5	1.0345e-05	1.0567e-05	1288.5	350.83	1.0273e-05	1.0342e-05	404.25	135.32	115.81	40.696	1.0178e-05	50.981	155.977	81.264	107.343	-4.897	159.704	113.857	-4.892	-0.102	143.370	153.144	-0.529	3.816	4.393	8.734	123.380	8.101	-8191	255	
668.611	1	1	0	0	0.11025	0.21667	0.20874	0.22764	0.27457	0.27275	0.20489	0.13358	0.13204	0.28859	0.35369	0.26364	0.13598	0.12276	0.083134	0.12104	-2.6	-3.3104	-3.1542	-3.1708	-3.3312	-3.0417	-3.375	-3.4729	-3.1521	-3.4896	-3.2812	-3.0875	-3.2396	-3.2125	-3.1271	-3.3958	5.897	22.528	111.053	208.579	145.147	329.027	278.455	246.459	156.206	68.594	291.711	254.867	-7.367	265.814	224.694	11.064	0.00019327	0.00030453	8.7267e-05	1266.7	3.8196e-06	4.8402e-06	1267.1	342.45	3.7183e-06	5.0728e-06	395.43	130.25	111.24	39.496	1.5787e-06	49.607	0.00075776	0.00095228	0.00026101	1280.8	9.9419e-06	1.0322e-05	1283.1	349.51	9.9157e-06	1.0282e-05	403.03	134.74	115.23	40.627	1.0019e-05	50.994	159.571	71.004	82.694	-4.839	152.868	139.722	-4.673	-0.361	156.764	105.341	-0.479	3.945	4.323	8.682	135.408	8.207	-8191	255	
668.707	1	1	0	0	0.073141	0.035338	0.30692	0.21163	0.23427	0.28045	0.30783	0.30648	0.088567	0.14079	0.084833	0.15627	0.084536	0.052796	0.22945	0.18479	-2.6562	-3.3771	-3.2479	-3.1854	-3.4792	-3.1875	-3.3083	-3.4042	-3.0604	-3.3917	-3.2521	-3.0542	-3.3083	-3.2625	-3.1937	-3.5083	327.104	36.994	81.944	246.593	273.797	319.985	294.845	293.940	304.265	292.901	311.346	277.765	39.288	257.561	-0.743	174.472	0.0002115	0.00048518	0.00011876	1265.1	4.7044e-06	4.7826e-06	1265.4	343.18	1.9418e-06	4.361e-06	395.63	130.71	111.35	39.446	3.7133e-06	49.624	0.00074275	0.00093206	0.00026026	1278.3	9.9129e-06	1.0342e-05	1282	349.46	1.0056e-05	1.0292e-05	402.53	134.81	115.13	40.56	1.0219e-05	50.869	156.721	41.377	74.737	-4.762	159.253	108.752	-4.696	-0.103	147.521	145.006	-0.684	3.884	4.464	8.738	135.788	8.248	-8191	255	
668.804	1	1	0	0	0.13637	0.056211	0.13276	0.35249	0.12302	0.036339	0.03941	0.23747	0.065648	0.15987	0.14211	0.17317	0.089121	0.20827	0.047437	0.058391	-2.55	-3.2292	-3.0979	-3.1542	-3.2854	-3.1042	-3.4229	-3.4688	-3.2854	-3.3396	-3.5771	-3.1958	-3.2667	-3.2646	-3.0604	-3.4	56.258	181.964	266.563	329.819	230.054	134.342	318.763	-17.152	174.746	184.317	69.763	272.564	284.219	334.874	155.472	321.023	0.00021065	0.00054239	0.00013795	1260.6	1.5958e-06	6.2939e-06	1261.8	342.99	2.5355e-06	5.2966e-06	396.59	129.48	111.44	39.515	5.4032e-06	49.517	0.00073765	0.00092354	0.00025564	1275.8	9.7537e-06	1.0268e-05	1279	349.35	9.7414e-06	1.0019e-05	402.16	134.44	115.03	40.538	9.9872e-06	50.791	153.770	52.192	92.478	-4.739	125.519	117.260	-4.791	-0.263	132.508	104.600	-0.800	4.095	4.438	8.657	168.310	8.324	-8191	255	
668.900	1	1	0	0	0.11412	0.095407	0.12514	0.10664	0.33664	0.22128	0.22058	0.13961	0.37375	0.39833	0.12089	0.097036	0.079184	0.16479	0.10665	0.17093	-2.6146	-3.0271	-3.3646	-3.3292	-3.2938	-3.2083	-3.1479	-3.6458	-2.9729	-3.1458	-3.6396	-3.1271	-3.4958	-3.3875	-3.0458	-3.3458	299.210	163.212	339.791	280.511	29.876	130.087	300.922	151.793	0.360	130.267	297.225	24.674	169.446	293.649	169.354	305.925	0.00018592	0.00043626	7.3535e-05	1257.8	3.2075e-06	4.067e-06	1254.6	342.17	3.0023e-06	3.4386e-06	393.7	130.07	111.35	39.389	3.8757e-06	49.553	0.00072331	0.00091021	0.00025669	1272.1	9.6524e-06	9.85e-06	1274.5	348.29	9.6178e-06	9.9641e-06	401.45	134.39	115.05	40.478	9.7821e-06	50.843	159.295	91.436	89.955	-4.746	121.860	152.068	-4.729	-0.249	168.753	110.299	-0.712	3.887	4.457	8.772	156.758	8.129	-8191	255	
668.994	1	1	0	0	0.14359	0.087786	0.23539	0.089199	0.27712	0.020172	0.46084	0.33697	0.088253	0.32594	0.17904	0.12573	0.065633	0.021828	0.049908	0.075104	-2.9208	-3.3021	-3.2604	-3.1937	-3.4479	-3.3812	-3.35	-3.5146	-3.2062	-3.3125	-3.6208	-3.1813	-3.5	-3.3042	-3.2021	-3.4479	213.378	280.300	53.256	313.791	256.281	269.360	297.167	295.084	170.884	29.598	44.081	89.467	-11.147	168.459	261.863	164.520	0.00018533	0.00046736	0.0001817	1257.7	4.7259e-06	9.7392e-07	1256.7	341.86	1.8893e-06	5.1131e-06	393.24	130.44	110.83	39.514	3.3031e-06	49.439	0.00072168	0.00091494	0.00024483	1271.2	9.5378e-06	9.8665e-06	1273.6	348.26	9.4858e-06	9.8638e-06	400.65	134.45	114.87	40.541	9.6024e-06	50.812	164.922	101.783	63.159	-4.896	147.619	202.781	-4.793	-0.277	127.305	135.888	-0.645	3.909	4.260	8.903	177.450	8.032	-8191	255	
669.090	1	1	0	0	0.081341	0.22362	0.19218	0.19369	0.20387	0.13791	0.16451	0.39616	0.1069	0.086111	0.24704	0.077915	0.2776	0.10844	0.29561	0.026133	-2.9375	-2.9479	-3.475	-3.1583	-3.2208	-3.1917	-3.2125	-3.4396	-3.2208	-3.2125	-3.5542	-3.125	-3.2604	-3.4042	-2.9854	-3.5396	38.192	204.343	2.908	299.217	301.218	151.887	283.466	332.721	187.102	216.227	20.768	310.637	338.571	292.996	33.960	15.824	0.00019584	0.00062074	0.00023167	1257.6	3.2629e-06	2.8809e-06	1258.5	340.63	8.5108e-07	5.1044e-06	393.28	130.17	110.86	39.444	2.4558e-06	49.405	0.00072879	0.00089399	0.00024782	1269.8	9.6274e-06	9.8396e-06	1273.5	348.24	9.4045e-06	1.0012e-05	400.9	134.47	114.73	40.498	9.5575e-06	50.69	164.328	70.379	59.895	-4.802	174.657	180.681	-4.849	-0.206	193.317	136.358	-0.615	3.864	4.445	8.737	183.996	8.065	-8191	255	
669.186	1	1	0	0	0.26054	0.29641	0.086312	0.51858	0.23534	0.15918	0.17822	0.26727	0.24159	0.12204	0.14454	0.36657	0.15339	0.21544	0.031622	0.064402	-2.7854	-3.2062	-3.3042	-3.3312	-3.1521	-3.3333	-3.525	-3.3396	-3.3583	-3.0542	-3.3854	-3.3375	-3.1188	-3.4833	-3.1458	-3.4167	35.033	109.257	229.284	319.876	107.728	55.483	321.100	332.979	83.516	339.478	60.451	331.448	17.923	227.995	303.480	325.441	0.000172	0.00059402	0.00012381	1254.4	2.901e-06	5.6165e-06	1258.4	340.98	3.6552e-06	2.8833e-06	393.75	129.93	111.13	39.312	4.6153e-06	49.578	0.00071956	0.00088195	0.00024615	1267.9	9.5006e-06	9.7808e-06	1272.5	347.92	9.4256e-06	9.7964e-06	400.66	134.19	114.78	40.43	9.5172e-06	50.709	158.222	43.694	55.521	-4.800	162.882	121.954	-4.693	-0.099	157.438	111.841	-0.530	3.988	4.305	8.843	136.031	8.193	-8191	255	
669.307	1	1	0	0	0.2261	0.10691	0.090246	0.13578	0.14727	0.1065	0.036987	0.25046	0.0098172	0.12386	0.11816	0.26747	0.25116	0.28521	0.16162	0.085689	-2.7687	-2.8688	-3.2708	-3.2208	-3.1188	-3.3917	-3.2542	-3.4521	-3.3625	-3	-3.3479	-3.0708	-3.0896	-3.4354	-3.1875	-3.1979	264.365	-14.419	42.575	26.876	135.504	32.613	251.843	300.241	44.681	-14.717	111.702	302.077	84.069	311.989	45.683	2.304	0.00019439	0.00062324	0.00012162	1255.1	3.0247e-06	3.975e-06	1259.6	340.61	2.7196e-06	4.0725e-06	393.32	129.97	111.32	39.211	2.7572e-06	49.486	0.00070386	0.00089027	0.00024301	1268.1	9.3133e-06	9.6966e-06	1271.6	347.48	9.3893e-06	9.6693e-06	400.44	134.3	114.84	40.331	9.6849e-06	50.721	157.993	47.592	85.444	-4.723	126.024	98.709	-4.664	-0.106	173.743	118.292	-0.424	3.856	4.422	8.804	114.055	8.333	-8191	255	
669.403	1	1	0	0	0.10237	0.13016	0.23073	0.22099	0.19331	0.023075	0.34019	0.051573	0.078438	0.19006	0.15087	0.072741	0.2317	0.28068	0.23585	0.339	-3.0125	-3.1146	-3.3375	-3.4396	-3.1188	-3.4333	-3.3812	-3.5042	-3.3333	-3.0312	-3.475	-3.3812	-3.1521	-3.4583	-3.0375	-3.2021	275.119	161.699	184.009	276.686	284.557	217.476	277.107	330.932	27.610	182.848	7.231	-16.650	41.395	23.332	90.158	273.839	0.00018884	0.00034525	0.00017059	1255.5	4.0736e-06	5.1743e-06	1260.6	341.63	2.4094e-06	3.492e-06	395.35	130.28	111.31	39.457	4.9392e-06	49.241	0.00071403	0.00088879	0.00024821	1269.8	9.6835e-06	9.8384e-06	1273.2	347.68	9.6682e-06	9.9689e-06	401.32	134.45	114.75	40.487	9.8029e-06	50.651	163.280	64.349	76.360	-5.010	131.601	116.028	-4.677	-0.032	153.125	150.613	-0.544	3.965	4.495	8.810	147.598	8.363	-8191	255	
669.499	1	1	0	0	0.036071	0.10006	0.0392	0.17687	0.32855	0.19755	0.32123	0.10093	0.14758	0.25694	0.28136	0.10732	0.17279	0.16212	0.13358	0.29083	-2.9167	-3.1396	-3.2979	-3.3937	-3.1375	-3.4271	-3.4208	-3.2771	-3.4958	-3.1688	-3.4333	-3.4188	-3.1833	-3.475	-3.075	-3.1688	100.556	-2.553	21.757	320.503	313.099	45.688	265.252	280.582	319.209	265.633	17.607	333.348	56.903	107.060	206.632	212.843	0.0002257	0.00044352	0.00013458	1256.6	3.2241e-06	2.888e-06	1257.7	341.63	1.5723e-06	4.8077e-06	393.68	130.31	111.06	39.348	4.2045e-06	49.385	0.00072144	0.00090524	0.00025051	1270.8	9.7431e-06	1.0089e-05	1274	348.21	9.7824e-06	1.0121e-05	401.21	134.48	114.98	40.528	9.8671e-06	50.764	155.748	83.388	88.684	-4.851	149.161	151.785	-4.851	-0.303	166.018	107.643	-0.635	3.823	4.186	8.716	131.348	8.277	-8191	255	
669.571	1	1	0	0	0.19721	0.066854	0.22017	0.28675	0.14284	0.096529	0.013776	0.1447	0.35555	0.23845	0.056306	0.072297	0.13006	0.31228	0.26774	0.14197	-2.9271	-3.0187	-3.1333	-3.5729	-3.0042	-3.4271	-3.2708	-3.3333	-3.3354	-3.2938	-3.2646	-3.4417	-3.175	-3.3896	-3.2167	-3.2146	41.157	168.219	89.847	-8.872	185.527	95.362	292.060	18.365	302.789	152.316	221.280	97.002	70.172	311.509	57.959	332.360	0.00021124	0.00024401	0.0001182	1258	4.1399e-06	3.0689e-06	1264	342.08	1.9179e-06	4.9043e-06	393.19	129.71	111.32	39.39	4.1343e-06	49.618	0.00073803	0.00093149	0.00025629	1273.8	1.0051e-05	1.007e-05	1277.4	348.58	9.8656e-06	1.0481e-05	401.5	134.47	115.02	40.52	1.0035e-05	50.877	163.437	76.055	107.988	-4.770	128.369	135.080	-4.668	-0.105	191.384	140.550	-0.589	3.981	4.583	8.848	114.077	8.128	-8191	255	
669.692	1	1	0	0	0.20142	0.17122	0.21642	0.31658	0.12513	0.23056	0.25301	0.22539	0.058088	0.1595	0.33692	0.012505	0.081916	0.22977	0.05281	0.13721	-2.8542	-2.9583	-3.225	-3.5646	-2.8937	-3.4562	-3.4958	-2.9813	-3.3896	-3.1937	-3.3104	-3.4813	-3.1292	-3.4646	-3.2354	-3.1937	138.527	117.027	184.133	288.483	293.410	15.763	226.840	268.399	52.685	40.261	298.535	8.345	324.802	332.890	31.869	136.218	0.00020679	0.00048814	0.00016531	1260.1	2.9518e-06	4.8501e-06	1262.8	341.82	2.5927e-06	6.4262e-06	393.87	129.81	111.47	39.403	2.273e-06	49.473	0.00074459	0.00093169	0.00025926	1273	1.0005e-05	1.0184e-05	1276.9	348.58	1.0009e-05	1.0331e-05	401.3	134.57	115.04	40.518	1.0175e-05	50.883	154.363	93.971	65.559	-4.761	137.648	132.575	-5.015	-0.106	146.955	165.819	-0.603	3.950	4.470	8.874	181.331	8.125	-8191	255	
669.788	1	1	0	0	0.15376	0.32796	0.24726	0.19476	0.26663	0.24189	0.38292	0.25629	0.15643	0.13124	0.37118	0.46504	0.19243	0.078438	0.16529	0.23647	-3	-3.175	-3.1167	-3.6	-3.2333	-3.2042	-3.5938	-3.0875	-3.3771	-3.025	-3.1396	-3.4729	-3.125	-3.3167	-3.3937	-2.9792	264.218	309.352	146.830	304.584	318.093	122.095	275.009	288.799	36.767	0.606	282.031	322.098	255.252	331.345	331.927	318.301	0.00021393	0.00073631	6.9401e-05	1259.6	4.1039e-06	4.7928e-06	1262.6	342.05	2.8378e-06	4.0225e-06	394.72	130.41	110.95	39.362	2.7259e-06	49.658	0.0007446	0.00094198	0.00025764	1273.2	1.0002e-05	1.0333e-05	1277.9	348.67	9.9079e-06	1.025e-05	401.68	134.63	115.09	40.572	1.0051e-05	50.885	156.922	69.260	83.430	-4.590	175.725	139.624	-4.770	-0.215	157.960	130.739	-0.552	4.199	4.722	8.672	157.801	8.099	-8191	255	
669.884	1	1	0	0	0.31233	0.10036	0.13276	0.12134	0.19185	0.19463	0.081065	0.18252	0.066502	0.18558	0.18918	0.22416	0.28798	0.13525	0.10494	0.098954	-2.8583	-3.2271	-2.9417	-3.2333	-3.05	-3.2313	-3.4917	-3.2333	-3.2542	-3.2292	-3.2625	-3.4688	-3.2646	-3.325	-3.2854	-3.25	123.145	51.838	226.360	325.596	176.546	271.991	-11.451	279.414	196.589	178.788	326.454	299.057	-3.145	1.413	308.845	213.881	0.0002129	0.00046759	8.7953e-05	1260.9	4.7451e-06	3.6796e-06	1261	343.12	1.7402e-06	2.709e-06	395.13	130.88	111.65	39.571	3.6575e-06	49.694	0.00073225	0.00093397	0.00025514	1276	1.0023e-05	1.0141e-05	1278.9	349.02	9.9164e-06	1.0315e-05	402.22	134.7	115.21	40.604	9.9819e-06	50.881	156.143	63.935	46.007	-4.614	159.169	136.316	-4.834	-0.104	157.033	129.761	-0.340	4.122	4.387	8.632	139.761	8.082	-8191	255	
669.980	1	1	0	0	0.21965	0.2655	0.14549	0.11	0.33024	0.13157	0.34547	0.20685	0.072837	0.26322	0.26563	0.090921	0.20108	0.16358	0.16082	0.18114	-2.8146	-3.2583	-2.8854	-3.4646	-3.1417	-3.3292	-3.6146	-3.2042	-3.3354	-3.2333	-3.35	-3.3542	-3.2938	-3.2188	-3.4854	-3.3937	72.379	26.170	136.332	294.360	50.294	-7.182	281.000	217.462	194.297	204.513	255.717	167.638	17.032	337.871	55.090	280.271	0.00021229	0.00052703	0.00011935	1263.3	4.5608e-06	2.2386e-06	1267.8	343.95	2.1113e-06	2.5315e-06	396.66	130.68	111.82	39.515	4.6101e-06	49.557	0.00074135	0.00093162	0.00025728	1274.4	1.01e-05	1.0269e-05	1280.8	349.56	9.8951e-06	1.0263e-05	402.48	134.81	115.48	40.552	1.0186e-05	50.897	169.595	89.768	84.971	-4.704	126.666	133.247	-4.788	-0.072	190.858	66.924	-0.660	3.892	4.262	8.801	116.330	8.107	-8191	255	
670.099	1	1	0	0	0.057142	0.23271	0.16778	0.16469	0.037461	0.13582	0.15082	0.32148	0.16128	0.14234	0.39457	0.14743	0.2518	0.36037	0.23235	0.21397	-2.8583	-3.3479	-2.9792	-3.4188	-3.1417	-3.0917	-3.5667	-3.2583	-3.1667	-3.4688	-3.125	-3.4479	-3.2521	-3.2292	-3.3396	-3.1229	200.885	219.328	176.137	48.938	175.241	6.831	-11.206	309.812	137.488	252.121	311.691	173.786	186.355	271.993	180.236	213.259	0.00022303	0.00076896	0.00016863	1260.9	2.3808e-06	9.7685e-06	1264.9	342.03	2.3156e-06	4.478e-06	394.16	131.02	111.67	39.574	4.8025e-06	49.681	0.00075189	0.00093471	0.00025505	1274.6	9.9892e-06	1.0337e-05	1279	349.11	9.8389e-06	1.0206e-05	402.15	134.96	115.19	40.642	9.9705e-06	50.917	151.924	76.068	67.925	-4.958	148.947	132.900	-4.777	-0.190	128.121	131.816	-0.428	4.132	4.192	8.853	165.903	8.294	-8191	255	
670.172	1	1	0	0	0.044556	0.065783	0.10888	0.16609	0.17877	0.11101	0.27567	0.082824	0.13388	0.32274	0.26193	0.14888	0.15646	0.15523	0.23661	0.11463	-2.8208	-3.2521	-3.0542	-3.5479	-3.3146	-3.0542	-3.4208	-3.3771	-3.1125	-3.2542	-3.1375	-3.4854	-3.2438	-2.9625	-3.4958	-3.1917	229.032	89.136	57.920	337.805	261.509	109.962	299.185	336.640	3.839	19.841	328.185	239.260	45.486	333.019	174.208	188.042	0.00017791	0.00054894	0.00013858	1267.8	3.8819e-06	5.7007e-06	1265.4	342.25	2.5418e-06	1.3656e-06	396.21	130.8	111.79	39.77	3.418e-06	49.805	0.00075213	0.00092917	0.00025818	1277.7	1.003e-05	1.0423e-05	1280.1	348.78	1.0098e-05	1.0413e-05	402.17	134.9	115.49	40.671	1.0086e-05	50.968	157.271	62.673	56.195	-4.704	156.772	137.294	-4.593	0.070	167.416	124.917	-0.734	3.918	4.346	8.800	139.760	8.217	-8191	255	
670.291	1	1	0	0	0.34705	0.090659	0.062664	0.14637	0.1574	0.13191	0.27043	0.010255	0.088592	0.08963	0.18139	0.1912	0.18876	0.20021	0.089558	0.25891	-2.9167	-3.3042	-3.1625	-3.3208	-3.45	-3.1063	-3.55	-3.375	-3.1167	-3.3458	-3.4021	-3.3458	-3.1792	-3.4354	-3.3458	-3.2646	318.326	29.954	322.766	314.983	137.630	121.472	221.855	72.318	90.561	205.500	-8.052	104.179	-3.360	-8.411	27.103	312.416	0.00022078	0.00047743	0.00014258	1262.4	3.3597e-06	4.687e-06	1267	343.62	2.8514e-06	5.6532e-06	397.73	131.02	111.95	39.542	5.3206e-06	49.886	0.00075455	0.00094802	0.00026041	1276.2	9.9892e-06	1.0303e-05	1281.2	349.33	1.003e-05	1.0289e-05	402.86	134.94	115.39	40.583	1.0313e-05	51.054	158.736	62.160	106.461	-4.650	165.982	199.610	-4.664	-0.216	141.760	82.339	-0.564	4.048	4.576	9.117	150.148	7.904	-8191	255	
670.387	1	1	0	0	0.1168	0.14588	0.088095	0.20628	0.18278	0.061268	0.36057	0.14035	0.051786	0.30931	0.18028	0.13526	0.11557	0.15963	0.11366	0.14845	-2.7771	-3.1229	-3.05	-3.3292	-3.3	-2.9521	-3.5042	-3.3229	-3.1021	-3.3458	-3.0958	-3.2833	-3.4458	-3.1437	-3.2833	-3.4458	97.691	273.835	-6.313	-9.501	290.045	194.798	286.514	334.738	221.547	224.446	5.137	267.241	101.175	244.860	82.118	57.260	0.00020114	0.00043013	0.00010258	1266.8	3.816e-06	5.2218e-06	1264.1	343.33	2.3679e-07	7.4222e-06	395.03	130.78	111.51	39.659	5.2437e-06	49.814	0.0007572	0.00093097	0.00026523	1277.8	1.0194e-05	1.062e-05	1280.6	349.58	1.0389e-05	1.0314e-05	402.11	134.84	115.37	40.665	1.0507e-05	50.945	156.225	74.975	70.010	-4.690	159.086	148.644	-4.621	-0.182	210.935	116.690	-0.582	4.234	4.305	8.918	140.345	8.347	-8191	255	
#DATA ENDS
