BOXY.EXE: ISS Imagent and Oximeter Data Acquisition Program Version 0.80
Ascii Record File

#ACQ INFORMATION
2  Detector Channels 
16  External MUX Channels 
1  Auxiliary Channels 
5000  Waveform (CCF) Frequency (Hz)
1  Waveforms Skipped 
30  Waveforms Averaged 
1  Cycles Averaged 
16  Acquisitions per Waveform 
10.0806  Updata Rate (Hz) 

#FILE INFORMATION
TRUE -- External MUX Channel results are PARSED.
FALSE -- AC DC and Phase are NOT grouped.
TRUE -- Companion Program Settings File CREATED.
FALSE -- AC data not excluded
FALSE -- DC data not excluded
FALSE -- Phase data not excluded
FALSE -- Auxillary Chn. data not excluded
Tab delimiters

#CALIBRATION STATE
TRUE -- Waveform Calibration Values APPLIED.


#AUX CALIBRATION VALUES
Val Type	aux-1	

Term	1.0000e+00	
Factor	0.0000e+00	


#WF CALIBRATION VALUES
A = Detector Channel
Val Type	A-AC1	A-AC2	A-AC3	A-AC4	A-AC5	A-AC6	A-AC7	A-AC8	A-AC9	A-AC10	A-AC11	A-AC12	A-AC13	A-AC14	A-AC15	A-AC16	A-DC1	A-DC2	A-DC3	A-DC4	A-DC5	A-DC6	A-DC7	A-DC8	A-DC9	A-DC10	A-DC11	A-DC12	A-DC13	A-DC14	A-DC15	A-DC16	A-Ph1	A-Ph2	A-Ph3	A-Ph4	A-Ph5	A-Ph6	A-Ph7	A-Ph8	A-Ph9	A-Ph10	A-Ph11	A-Ph12	A-Ph13	A-Ph14	A-Ph15	A-Ph16	

Term	0.00000e+00	0.00000e+00	0.00000e+00	0.00000e+00	0.00000e+00	0.00000e+00	0.00000e+00	0.00000e+00	0.00000e+00	0.00000e+00	0.00000e+00	0.00000e+00	0.00000e+00	0.00000e+00	0.00000e+00	0.00000e+00	0.00000e+00	0.00000e+00	0.00000e+00	0.00000e+00	0.00000e+00	0.00000e+00	0.00000e+00	0.00000e+00	0.00000e+00	0.00000e+00	0.00000e+00	0.00000e+00	0.00000e+00	0.00000e+00	0.00000e+00	0.00000e+00	0.00000e+00	0.00000e+00	0.00000e+00	0.00000e+00	0.00000e+00	0.00000e+00	0.00000e+00	0.00000e+00	0.00000e+00	0.00000e+00	0.00000e+00	0.00000e+00	0.00000e+00	0.00000e+00	0.00000e+00	0.00000e+00	
Factor	1.00000e+00	1.00000e+00	1.00000e+00	1.00000e+00	1.00000e+00	1.00000e+00	1.00000e+00	1.00000e+00	1.00000e+00	1.00000e+00	1.00000e+00	1.00000e+00	1.00000e+00	1.00000e+00	1.00000e+00	1.00000e+00	1.00000e+00	1.00000e+00	1.00000e+00	1.00000e+00	1.00000e+00	1.00000e+00	1.00000e+00	1.00000e+00	1.00000e+00	1.00000e+00	1.00000e+00	1.00000e+00	1.00000e+00	1.00000e+00	1.00000e+00	1.00000e+00	X	X	X	X	X	X	X	X	X	X	X	X	X	X	X	X	

B = Detector Channel
Val Type	B-AC1	B-AC2	B-AC3	B-AC4	B-AC5	B-AC6	B-AC7	B-AC8	B-AC9	B-AC10	B-AC11	B-AC12	B-AC13	B-AC14	B-AC15	B-AC16	B-DC1	B-DC2	B-DC3	B-DC4	B-DC5	B-DC6	B-DC7	B-DC8	B-DC9	B-DC10	B-DC11	B-DC12	B-DC13	B-DC14	B-DC15	B-DC16	B-Ph1	B-Ph2	B-Ph3	B-Ph4	B-Ph5	B-Ph6	B-Ph7	B-Ph8	B-Ph9	B-Ph10	B-Ph11	B-Ph12	B-Ph13	B-Ph14	B-Ph15	B-Ph16	

Term	0.00000e+00	0.00000e+00	0.00000e+00	0.00000e+00	0.00000e+00	0.00000e+00	0.00000e+00	0.00000e+00	0.00000e+00	0.00000e+00	0.00000e+00	0.00000e+00	0.00000e+00	0.00000e+00	0.00000e+00	0.00000e+00	0.00000e+00	0.00000e+00	0.00000e+00	0.00000e+00	0.00000e+00	0.00000e+00	0.00000e+00	0.00000e+00	0.00000e+00	0.00000e+00	0.00000e+00	0.00000e+00	0.00000e+00	0.00000e+00	0.00000e+00	0.00000e+00	-1.10555e+02	-1.34345e+02	-1.25139e+02	-1.80823e+02	-5.89411e+01	-6.68562e+01	-1.57214e+02	-1.62015e+02	-6.37752e+01	-6.71530e+01	-1.71625e+02	-1.71796e+02	-1.86365e+02	-1.76693e+02	-6.41196e+01	-1.49516e+02	
Factor	1.50243e-05	1.53827e-04	4.66076e-05	1.58271e-01	1.18790e-06	1.74034e-06	1.59010e-01	4.50898e-02	9.43242e-07	1.55460e-06	7.52501e-02	2.87934e-02	3.64718e-02	8.42465e-03	1.35339e-06	1.23474e-02	7.15820e-06	1.04250e-05	2.89429e-06	7.88315e-02	1.08082e-07	1.15196e-07	7.45083e-02	2.26350e-02	1.07536e-07	1.15117e-07	3.64779e-02	1.40814e-02	1.83450e-02	4.24814e-03	1.11129e-07	6.03331e-03	X	X	X	X	X	X	X	X	X	X	X	X	X	X	X	X	



#DISTANCE SETTINGS
A = Detector Channel
A-1	A-2	A-3	A-4	A-5	A-6	A-7	A-8	A-9	A-10	A-11	A-12	A-13	A-14	A-15	A-16	

2.5000e+00	3.0000e+00	2.5000e+00	3.0000e+00	2.0000e+00	3.0000e+00	1.5000e+00	3.0000e+00	3.0000e+00	3.0000e+00	3.0000e+00	3.0000e+00	3.0000e+00	3.0000e+00	1.5000e+00	3.0000e+00	

B = Detector Channel
B-1	B-2	B-3	B-4	B-5	B-6	B-7	B-8	B-9	B-10	B-11	B-12	B-13	B-14	B-15	B-16	

1.0000e+01	1.0000e+01	1.0000e+01	1.4400e+00	1.0000e+01	1.0000e+01	1.5100e+00	1.9400e+00	1.0000e+01	1.0000e+01	1.9900e+00	2.4900e+00	2.4100e+00	2.9000e+00	1.0000e+01	2.9800e+00	




#DATA BEGINS
time	group	step	mark	flag	A-AC1	A-AC2	A-AC3	A-AC4	A-AC5	A-AC6	A-AC7	A-AC8	A-AC9	A-AC10	A-AC11	A-AC12	A-AC13	A-AC14	A-AC15	A-AC16	A-DC1	A-DC2	A-DC3	A-DC4	A-DC5	A-DC6	A-DC7	A-DC8	A-DC9	A-DC10	A-DC11	A-DC12	A-DC13	A-DC14	A-DC15	A-DC16	A-Ph1	A-Ph2	A-Ph3	A-Ph4	A-Ph5	A-Ph6	A-Ph7	A-Ph8	A-Ph9	A-Ph10	A-Ph11	A-Ph12	A-Ph13	A-Ph14	A-Ph15	A-Ph16	B-AC1	B-AC2	B-AC3	B-AC4	B-AC5	B-AC6	B-AC7	B-AC8	B-AC9	B-AC10	B-AC11	B-AC12	B-AC13	B-AC14	B-AC15	B-AC16	B-DC1	B-DC2	B-DC3	B-DC4	B-DC5	B-DC6	B-DC7	B-DC8	B-DC9	B-DC10	B-DC11	B-DC12	B-DC13	B-DC14	B-DC15	B-DC16	B-Ph1	B-Ph2	B-Ph3	B-Ph4	B-Ph5	B-Ph6	B-Ph7	B-Ph8	B-Ph9	B-Ph10	B-Ph11	B-Ph12	B-Ph13	B-Ph14	B-Ph15	B-Ph16	aux-1	digaux	

617.905	1	1	0	256	0.20259	0.17304	0.19408	0.11668	0.16037	0.19317	0.23768	0.11293	0.19983	0.16481	0.25503	0.2409	0.27702	0.12442	0.26678	0.17552	-3.0687	-3.3667	-3.6562	-3.6688	-3.5646	-3.6625	-3.4396	-3.6396	-3.3729	-3.3479	-3.6208	-3.5021	-3.4042	-3.7792	-3.3125	-3.5938	277.561	139.801	150.714	318.646	128.135	181.163	266.941	315.839	107.590	272.727	310.871	52.728	-17.004	81.583	335.812	254.848	0.0002205	0.00071049	0.00011978	1290.6	2.3193e-06	5.631e-06	1288.4	355.72	6.2676e-07	4.594e-06	408.69	134.56	115.4	40.746	4.7666e-06	51	0.0011205	0.0014865	0.00041115	1305.1	1.5494e-05	1.6085e-05	1305.2	362.22	1.5523e-05	1.6258e-05	416.67	139.29	120	41.909	1.6101e-05	52.6	153.934	82.640	63.100	-5.327	151.793	156.125	-5.206	-0.538	258.213	126.788	-1.280	3.379	4.034	8.254	98.818	7.657	-8191	255	
618.001	1	1	0	0	0.0019309	0.10927	0.21372	0.14438	0.076442	0.17045	0.24831	0.29002	0.17843	0.12964	0.05144	0.15545	0.21848	0.044508	0.24711	0.1139	-2.9042	-3.2729	-3.6125	-3.5021	-3.4771	-3.5167	-3.4167	-3.5083	-3.3833	-3.0292	-3.6188	-3.2979	-3.3042	-3.4625	-3.2729	-3.4896	180.000	175.733	101.220	268.866	21.765	334.047	250.908	254.647	192.710	-6.843	41.545	315.807	-17.299	234.413	337.035	125.439	0.000229	0.00057086	0.00018663	1293.5	2.1132e-06	4.863e-06	1291.4	355.73	1.8874e-06	2.5908e-06	409.19	133.9	115.64	40.69	2.7449e-06	50.903	0.0011357	0.0014893	0.00041894	1307.4	1.5887e-05	1.6561e-05	1309.1	362.65	1.5622e-05	1.6277e-05	416.86	139.23	120.09	41.859	1.5703e-05	52.436	157.846	57.125	90.264	-5.312	191.657	153.818	-5.116	-0.640	172.100	110.670	-1.263	3.504	3.826	8.110	105.993	7.612	-8191	255	
618.073	1	1	0	0	0.2776	0.073957	0.23937	0.25602	0.13721	0.22136	0.40654	0.15138	0.12321	0.060086	0.076832	0.31654	0.024444	0.28251	0.0744	0.16512	-2.9375	-3.1937	-3.3854	-3.4813	-3.3688	-3.4271	-3.3625	-3.6813	-3.3979	-3.1875	-3.5604	-3.4875	-3.2854	-3.6208	-3.3854	-3.4646	159.281	288.447	260.911	332.502	56.492	278.249	298.086	285.681	291.049	120.038	-17.868	15.025	140.218	282.711	213.539	295.364	0.00022194	0.000633	0.00011303	1295.1	4.1311e-06	4.0817e-06	1290.1	355.43	1.266e-06	2.7338e-06	409.53	135.18	115.31	40.749	2.2503e-06	51.004	0.0010836	0.0014332	0.00039377	1309.2	1.4813e-05	1.5514e-05	1307.2	362.19	1.4585e-05	1.5282e-05	416.72	139.3	119.81	41.887	1.4791e-05	52.397	160.153	59.081	70.325	-5.238	158.776	134.796	-4.992	-0.604	210.872	147.643	-1.106	3.428	4.039	8.115	115.712	7.733	-8191	255	
618.169	1	1	0	0	0.22501	0.14443	0.018001	0.19055	0.14934	0.096317	0.14669	0.43527	0.08358	0.19995	0.25175	0.21593	0.21547	0.18403	0.15565	0.3403	-2.9625	-3.1125	-3.4667	-3.4667	-3.2333	-3.4313	-3.4146	-3.4625	-3.45	-3.2417	-3.3917	-3.3521	-3.2438	-3.5479	-3.3521	-3.3688	312.036	44.856	111.771	318.382	242.517	137.037	6.957	-7.029	241.362	210.187	59.047	56.739	299.539	322.892	199.475	326.832	0.00021149	0.00061764	0.00020087	1290.3	4.9141e-06	7.6308e-06	1288.3	355.75	1.4717e-06	5.0886e-06	409.38	134.09	115.61	40.777	7.4859e-06	50.916	0.001047	0.001402	0.00038484	1305	1.4453e-05	1.5213e-05	1305.3	361.96	1.4468e-05	1.5128e-05	417.09	139.01	119.79	41.859	1.455e-05	52.409	154.689	86.952	64.077	-5.147	134.110	126.634	-5.056	-0.466	181.000	131.355	-1.114	3.262	4.057	8.201	145.564	7.818	-8191	255	
618.290	1	1	0	0	0.12875	0.29697	0.21677	0.21885	0.23958	0.2541	0.1749	0.30083	0.20263	0.26307	0.27163	0.16808	0.12128	0.11418	0.11011	0.10193	-2.95	-3.2271	-3.2854	-3.5604	-3.25	-3.5146	-3.3167	-3.4833	-3.5417	-3.3312	-3.5583	-3.5521	-3.1771	-3.4854	-3.2646	-3.3458	7.079	92.892	107.626	-14.124	189.980	168.050	310.745	245.578	141.900	202.398	325.558	297.654	304.606	-9.436	127.873	336.374	0.00023126	0.00033601	0.00032124	1287.2	2.8748e-06	4.0983e-06	1289.7	355.83	1.5484e-06	4.7815e-06	408.17	134.62	116.01	40.8	3.2911e-06	51.093	0.0010208	0.0013313	0.00037827	1304.1	1.4156e-05	1.4819e-05	1305.1	362.29	1.44e-05	1.5257e-05	416.8	139.32	120.06	41.941	1.5001e-05	52.444	148.794	106.887	94.102	-5.348	161.628	150.713	-4.990	-0.727	120.556	191.072	-1.101	3.684	3.751	8.254	163.802	7.793	-8191	255	
618.386	1	1	0	0	0.12198	0.047467	0.15796	0.2062	0.23926	0.19128	0.18164	0.096758	0.093373	0.14454	0.19426	0.22277	0.16189	0.31416	0.16505	0.25209	-2.9771	-3.0854	-3.4208	-3.5375	-3.1958	-3.3542	-3.4708	-3.4833	-3.5271	-3.4688	-3.525	-3.3958	-2.9813	-3.6333	-3.3937	-3.2833	140.193	41.744	154.975	282.212	188.298	214.198	-9.036	225.240	300.473	204.607	2.382	19.937	211.383	336.307	0.731	11.370	0.00023247	0.00047989	0.00024113	1290.6	4.2653e-06	5.4154e-06	1291.2	354.49	3.5806e-06	4.789e-06	410.6	134.37	115.65	40.704	4.826e-06	50.952	0.0010672	0.0014073	0.00038497	1305.2	1.4595e-05	1.5081e-05	1307.3	362.05	1.4211e-05	1.4858e-05	416.72	139.24	120.11	41.929	1.4014e-05	52.445	148.782	39.688	86.625	-5.407	163.680	140.350	-5.216	-0.540	153.983	131.366	-1.139	3.633	3.966	8.176	147.487	7.625	-8191	255	
618.480	1	1	0	0	0.33045	0.026453	0.049423	0.16487	0.18833	0.062069	0.096749	0.14759	0.18602	0.12164	0.29439	0.021584	0.24024	0.18901	0.096959	0.12058	-3.1063	-3.2771	-3.1646	-3.7	-3.1875	-3.4708	-3.3104	-3.4917	-3.3812	-3.1104	-3.35	-3.5375	-3.1771	-3.6104	-3.2917	-3.5333	51.961	166.505	248.186	221.125	55.728	317.582	308.763	116.915	207.152	184.971	325.994	36.917	-6.065	339.318	288.963	-16.534	0.00022071	0.00034809	0.00014258	1297.3	4.8084e-06	4.8507e-06	1295.3	356.5	3.4383e-06	2.5461e-06	410.94	135.17	115.98	40.991	5.5329e-06	51.379	0.0010038	0.0013245	0.00037031	1308.6	1.3995e-05	1.4662e-05	1310.5	363.19	1.423e-05	1.4894e-05	417.99	140.04	120.43	42.121	1.4589e-05	52.744	154.717	74.670	72.135	-5.389	143.237	83.657	-5.262	-0.626	166.592	140.440	-1.157	3.680	3.899	8.205	138.392	7.786	-8191	255	
618.578	1	1	0	0	0.091868	0.35391	0.063151	0.41524	0.20172	0.07147	0.26399	0.13658	0.17181	0.15134	0.15449	0.27258	0.083141	0.19495	0.18643	0.2023	-3.1021	-2.9708	-3.2438	-3.675	-3.0542	-3.5125	-3.6917	-3.2896	-3.4479	-3.1646	-3.3146	-3.7062	-3.1792	-3.5833	-3.2812	-3.1729	74.840	34.654	242.932	332.899	14.027	-7.643	298.777	244.892	57.224	201.111	261.829	169.635	61.815	312.132	59.747	293.437	0.00021026	0.00037818	0.00016019	1303.2	2.7819e-06	7.7986e-06	1301.2	358.02	3.8637e-06	6.5451e-06	412.93	136.36	117.36	41.193	4.0677e-06	51.53	0.0010439	0.0013735	0.00037511	1318.2	1.4423e-05	1.4913e-05	1318.4	364.89	1.4323e-05	1.4972e-05	420.39	140.51	121.75	42.394	1.4775e-05	52.956	150.788	42.250	43.271	-5.269	153.157	147.048	-5.164	-0.609	166.402	99.608	-1.393	3.315	3.754	8.285	172.570	7.525	-8191	255	
618.697	1	1	0	0	0.27906	0.18822	0.283	0.19322	0.175	0.22492	0.25234	0.45509	0.22601	0.048774	0.33289	0.061486	0.082064	0.07538	0.10611	0.16899	-3.0646	-3.2146	-3.1688	-3.3854	-3.2125	-3.3688	-3.525	-3.2375	-3.3708	-3.1875	-3.4	-3.5979	-3.0854	-3.475	-3.5354	-3.2479	139.265	195.903	339.182	296.172	125.206	300.641	299.443	313.557	112.427	203.263	294.930	124.266	272.341	102.020	329.474	255.407	0.00020601	0.00083299	0.00016537	1309.6	5.4647e-06	4.1244e-06	1313.3	358.99	4.4223e-06	3.067e-06	414.68	136.73	117.88	41.4	1.3324e-06	51.768	0.0010522	0.0013877	0.00038935	1324.5	1.502e-05	1.5644e-05	1329.4	366.75	1.5256e-05	1.5927e-05	422.5	141.47	122.18	42.645	1.5737e-05	53.259	154.443	89.927	92.386	-5.410	157.563	118.009	-5.177	-0.612	178.872	148.212	-0.965	3.370	3.825	8.206	196.004	7.756	-8191	255	
618.770	1	1	0	0	0.078262	0.30623	0.17002	0.2933	0.15164	0.16487	0.2228	0.25662	0.092087	0.054998	0.22987	0.2325	0.26147	0.31329	0.065832	0.40402	-3.0271	-3.1854	-3.1667	-3.75	-3.2792	-3.3771	-3.5604	-3.3667	-3.5146	-3.3917	-3.5292	-3.6521	-3.3396	-3.3521	-3.3896	-3.3958	201.103	190.880	341.275	303.821	239.117	171.267	260.149	286.120	9.311	-3.708	15.341	321.036	274.468	-0.323	121.530	-9.453	0.00022125	0.00074843	0.00016055	1316.2	5.3588e-06	3.5931e-06	1318.2	361.16	1.7797e-06	2.1781e-06	415.07	137.21	117.93	41.305	4.8007e-06	51.79	0.0011223	0.0014832	0.00040697	1332.7	1.5403e-05	1.6077e-05	1334.2	368.15	1.52e-05	1.5673e-05	423.32	141.55	122.3	42.628	1.5044e-05	53.224	159.020	69.124	85.575	-5.315	143.733	112.499	-5.325	-0.594	158.390	145.075	-1.295	3.631	3.936	8.171	153.044	7.676	-8191	255	
618.889	1	1	0	0	0.13727	0.11252	0.2327	0.33207	0.17169	0.2813	0.18063	0.17324	0.13747	0.092403	0.18221	0.15258	0.17041	0.070617	0.12825	0.32172	-2.8937	-3.4188	-3.0396	-3.4542	-3.3563	-3.2062	-3.5292	-3.2458	-3.3167	-3.4646	-3.3146	-3.3604	-3.2958	-3.2687	-3.55	-3.2396	15.584	222.229	266.318	-0.323	256.770	325.332	309.324	313.242	258.172	209.396	23.509	291.513	311.404	278.874	295.471	138.232	0.00019356	0.00034195	0.00015945	1322.6	3.3352e-06	7.5786e-07	1323.8	361.56	1.3981e-06	3.7538e-06	415.72	137.3	117.37	41.548	5.3278e-06	51.664	0.0010569	0.0013516	0.00038088	1336.8	1.4444e-05	1.4972e-05	1339.2	368.28	1.4602e-05	1.548e-05	423.47	141.74	122.18	42.683	1.5836e-05	53.217	159.041	25.943	87.773	-5.313	140.127	126.329	-5.325	-0.734	109.852	144.028	-1.334	3.404	4.015	8.230	177.246	7.677	-8191	255	
618.985	1	1	0	0	0.11321	0.09497	0.15013	0.39679	0.061687	0.12067	0.25137	0.2969	0.15022	0.13436	0.22815	0.2307	0.1769	0.25889	0.2587	0.16641	-2.7958	-3.3458	-3.0708	-3.5167	-3.4125	-3.1917	-3.7062	-3.3812	-3.15	-3.4562	-3.4688	-3.5271	-3.4146	-3.2375	-3.4542	-3.2521	176.232	9.615	148.881	-14.934	53.839	291.191	285.557	213.798	244.818	144.587	266.680	224.207	-16.636	322.366	310.039	52.082	0.00021719	0.00064088	0.00021237	1324.8	4.3049e-06	4.7255e-06	1323.1	361.64	3.6822e-06	6.5958e-06	415.34	137.24	118.29	41.716	5.029e-06	51.646	0.0011241	0.0014866	0.00041955	1340.3	1.5906e-05	1.6684e-05	1341.3	369.34	1.6355e-05	1.7042e-05	424.24	142.14	123.04	42.93	1.7029e-05	53.396	141.079	57.865	109.455	-5.306	127.105	158.825	-5.252	-0.715	172.533	172.465	-1.175	3.655	3.769	8.263	135.091	7.674	-8191	255	
619.082	1	1	0	0	0.11397	0.034929	0.15159	0.23811	0.15503	0.22573	0.166	0.38511	0.16543	0.030525	0.090209	0.06987	0.27953	0.066474	0.053317	0.18267	-2.6375	-3.6188	-3.3208	-3.5375	-3.4875	-3.3292	-3.5625	-3.4396	-3.2271	-3.6146	-3.3875	-3.6167	-3.3271	-3.3625	-3.5896	-3.3208	80.525	319.627	166.368	317.087	221.161	123.697	272.397	293.051	153.092	175.577	304.124	329.535	25.002	130.836	99.962	327.042	0.00022645	0.00065836	9.5877e-05	1325.1	2.3925e-06	5.4441e-06	1323.7	362.74	3.3342e-06	5.1264e-06	416.18	137.55	118.58	41.652	3.4336e-06	52.053	0.001183	0.0015539	0.00044351	1340.5	1.6654e-05	1.75e-05	1340	369.36	1.6351e-05	1.7266e-05	424.12	142.18	122.92	42.912	1.6399e-05	53.452	156.873	60.428	78.769	-5.345	119.945	144.968	-5.079	-0.731	133.180	136.818	-1.223	3.295	3.785	8.277	159.495	7.648	-8191	255	
619.178	1	1	0	0	0.088922	0.12292	0.31685	0.19993	0.09542	0.072665	0.25811	0.22804	0.17008	0.057848	0.083824	0.37969	0.24225	0.0605	0.056702	0.21243	-2.9313	-3.5146	-3.1458	-3.4062	-3.525	-3.2729	-3.625	-3.4958	-3.1521	-3.4833	-3.2438	-3.3604	-3.4313	-3.2687	-3.3542	-3.3042	289.358	76.551	22.404	261.533	186.833	248.277	301.404	260.707	164.878	200.175	238.257	304.148	336.089	292.346	170.223	303.564	0.0002206	0.00042119	0.00017546	1324.3	4.0223e-06	4.2977e-06	1322.2	361.2	4.7981e-06	4.4252e-06	416.91	137.76	118.68	41.771	2.5479e-06	52.114	0.0011263	0.001492	0.00041278	1338	1.5385e-05	1.6095e-05	1338.3	368.56	1.511e-05	1.5714e-05	423.86	142.25	122.9	42.944	1.5409e-05	53.527	161.651	62.074	79.340	-5.352	163.473	100.930	-5.151	-0.667	189.501	139.333	-1.182	3.291	3.867	8.217	167.111	7.585	-8191	255	
619.298	1	1	0	0	0.074155	0.21503	0.28522	0.21063	0.032809	0.22647	0.50614	0.20782	0.090243	0.18233	0.20591	0.19832	0.21917	0.13615	0.37193	0.051814	-2.7833	-3.3896	-3.4208	-3.4292	-3.5646	-3.2333	-3.5687	-3.5083	-3.2292	-3.5625	-3.2958	-3.3646	-3.4417	-3.2062	-3.5125	-3.3187	272.924	210.351	265.161	-9.212	279.278	-17.842	326.235	263.266	253.370	240.132	128.250	305.364	1.645	5.591	119.080	93.614	0.00018345	0.00044181	0.00024235	1322.6	3.7039e-06	4.7828e-06	1318.1	361.28	3.9716e-06	2.3249e-06	415.68	137.1	118.29	41.669	5.5946e-06	52	0.0010943	0.0014083	0.00039502	1338.4	1.4847e-05	1.5379e-05	1336.6	368.42	1.4205e-05	1.4973e-05	423.55	141.94	122.37	42.888	1.4178e-05	53.439	155.962	67.287	80.116	-5.485	182.050	111.327	-5.130	-0.672	180.817	164.944	-1.388	3.343	3.901	8.188	150.503	7.652	-8191	255	
619.370	1	1	0	0	0.075184	0.25193	0.0056169	0.28924	0.14997	0.27998	0.19336	0.06301	0.09977	0.11737	0.17544	0.19901	0.2719	0.37253	0.16282	0.031115	-2.8583	-3.2896	-3.25	-3.5854	-3.4167	-3.3688	-3.7583	-3.4896	-3.125	-3.5396	-3.4375	-3.2896	-3.6479	-3.4458	-3.2896	-3.3896	40.263	192.430	252.029	294.253	288.763	275.314	302.872	304.892	224.605	125.478	256.166	310.836	-15.932	340.626	113.687	311.460	0.00022441	0.0004667	0.0002624	1318	3.4187e-06	6.6276e-07	1321.4	361.6	3.3461e-06	4.5695e-06	415.97	137.49	118.32	41.947	3.7353e-06	51.882	0.0009867	0.0012804	0.0003533	1333.5	1.3335e-05	1.352e-05	1334.9	368.05	1.2782e-05	1.3186e-05	421.92	141.88	122.26	42.787	1.2036e-05	53.136	150.088	84.282	115.265	-5.140	131.421	120.093	-5.232	-0.598	193.702	130.591	-1.441	3.190	3.716	8.058	158.773	7.661	-8191	255	
619.466	1	1	0	0	0.12861	0.11361	0.1182	0.34743	0.19175	0.17124	0.29444	0.36701	0.17335	0.036506	0.30047	0.010911	0.09158	0.36913	0.28009	0.16017	-2.7833	-3.3354	-3.2021	-3.3354	-3.4479	-3.4479	-3.6083	-3.5667	-3.1625	-3.6167	-3.3312	-3.0792	-3.5771	-3.3229	-3.1792	-3.6813	162.566	51.498	181.614	284.986	112.097	261.367	249.939	274.634	296.670	252.064	289.312	9.366	70.412	4.464	236.122	265.883	0.0002136	0.00031987	0.00012284	1317.5	2.3807e-06	4.9712e-06	1309.1	359.48	2.6165e-06	5.4616e-06	414.21	137.12	118.25	41.595	4.3012e-06	51.678	0.00086759	0.0010941	0.00030105	1328.4	1.1403e-05	1.1754e-05	1323.8	365.8	1.1412e-05	1.1848e-05	419.89	141.11	121.7	42.553	1.1742e-05	52.997	160.104	86.852	85.662	-5.322	179.490	177.743	-5.055	-0.594	176.068	116.770	-1.219	3.451	3.924	8.270	123.593	7.618	-8191	255	
619.585	1	1	0	0	0.13055	0.30625	0.22638	0.020361	0.13062	0.11499	0.17325	0.19997	0.24793	0.16699	0.24272	0.23376	0.13513	0.24166	0.098251	0.23916	-2.8729	-3.3917	-3.3021	-3.1813	-3.4417	-3.4208	-3.3479	-3.5271	-3.2646	-3.4396	-3.3708	-3.1771	-3.4188	-3.4229	-3.4583	-3.5833	64.088	187.165	121.377	271.886	46.250	144.403	286.300	-16.087	262.090	204.506	309.003	272.230	7.912	317.086	135.828	263.888	0.00023006	0.00043098	0.0002038	1310.2	2.4687e-06	5.2849e-06	1307.8	358.5	3.2056e-06	4.3205e-06	411.03	136.74	117.42	41.346	5.2808e-06	51.626	0.00086012	0.0010792	0.00029867	1321.7	1.1688e-05	1.199e-05	1321.4	365.08	1.162e-05	1.1911e-05	418.34	140.95	121.33	42.403	1.1715e-05	52.853	153.286	66.000	64.143	-5.373	109.627	165.000	-5.178	-0.681	163.212	128.098	-1.261	3.382	4.093	8.321	143.778	7.470	-8191	255	
619.681	1	1	0	0	0.28747	0.15205	0.042374	0.12332	0.069573	0.038936	0.20915	0.1224	0.10962	0.085054	0.24698	0.30585	0.22452	0.079457	0.033475	0.22219	-2.7083	-3.2979	-3.2417	-3.3854	-3.5479	-3.2562	-3.5521	-3.7104	-3.2479	-3.3458	-3.5312	-3.4458	-3.6208	-3.4167	-3.4271	-3.6958	322.989	286.737	249.330	300.272	109.397	54.339	37.823	-3.940	180.618	119.401	-1.383	341.187	278.357	56.806	213.025	-5.852	0.00022596	0.00050086	0.0002338	1307.1	2.0635e-06	3.2445e-06	1304.3	358.56	2.7267e-06	4.0602e-06	411.24	135.22	116.68	41.157	2.1753e-06	51.185	0.00086487	0.0010737	0.00030026	1319.7	1.1606e-05	1.1959e-05	1318.1	363.95	1.1392e-05	1.1892e-05	417.97	140.05	120.75	42.175	1.1956e-05	52.586	162.335	52.924	75.143	-5.445	185.143	146.067	-5.195	-0.518	165.572	141.734	-1.048	3.489	3.794	8.254	144.988	7.847	-8191	255	
619.777	1	1	0	0	0.12012	0.13391	0.16457	0.10849	0.39476	0.10205	0.2662	0.33193	0.079385	0.11069	0.090552	0.15444	0.13666	0.021575	0.28155	0.24698	-2.9271	-3.325	-3.4104	-3.3688	-3.5521	-3.4146	-3.3396	-3.6229	-3.3208	-3.4	-3.5812	-3.2062	-3.6104	-3.5542	-3.0062	-3.6604	56.643	86.758	103.126	34.987	303.833	195.798	221.405	290.603	136.636	189.929	177.596	319.572	1.857	32.396	239.160	-12.543	0.00023372	0.00068196	0.00025161	1300	4.0557e-06	5.0967e-06	1298.1	356.52	3.4768e-06	5.2911e-06	410.07	134.99	116.55	41.075	4.8806e-06	51.068	0.00088119	0.0011027	0.00030177	1315.7	1.1739e-05	1.1917e-05	1316.2	362.63	1.1456e-05	1.2033e-05	416.31	139.65	120.49	42.018	1.1936e-05	52.467	153.280	85.945	61.497	-5.314	146.558	142.137	-5.195	-0.773	178.244	122.515	-1.275	3.447	3.937	8.297	150.993	7.665	-8191	255	
619.874	1	1	0	0	0.097638	0.2402	0.25096	0.27367	0.21257	0.13284	0.12794	0.13127	0.23616	0.047256	0.18179	0.39758	0.14714	0.013356	0.072568	0.19626	-3.0771	-3.3208	-3.5625	-3.2542	-3.2375	-3.3875	-3.3958	-3.6063	-3.1917	-3.4771	-3.4333	-3.2188	-3.5104	-3.4708	-3.1562	-3.4375	-12.540	294.658	12.981	305.051	50.023	68.235	248.415	-6.309	331.297	176.263	228.293	-1.547	327.671	7.454	197.061	99.582	0.00021093	0.00042918	0.00019076	1305.5	5.1332e-06	5.8926e-06	1302.6	356.59	4.6261e-06	7.3865e-06	406.77	135.49	115.76	40.848	9.2106e-07	51.121	0.00086162	0.0010958	0.00030155	1314	1.1771e-05	1.2052e-05	1313.5	361.62	1.1475e-05	1.2002e-05	414.22	139.25	119.64	41.884	1.1675e-05	52.304	151.638	66.159	74.405	-5.304	161.560	120.194	-4.961	-0.487	184.883	138.270	-1.054	3.451	3.815	8.278	25.612	7.669	-8191	255	
619.970	1	1	0	0	0.18825	0.14651	0.17527	0.20917	0.19784	0.14542	0.11772	0.37097	0.16791	0.11626	0.23141	0.17415	0.29501	0.19646	0.055944	0.043524	-2.8396	-3.2042	-3.5667	-3.4125	-3.2979	-3.45	-3.2438	-3.6667	-3.3771	-3.2667	-3.3271	-3.3438	-3.3958	-3.4542	-3.3229	-3.6437	62.145	287.122	202.627	214.160	282.606	60.728	265.201	280.068	303.311	324.867	330.315	299.518	-0.913	327.463	317.378	197.034	0.00022711	0.00044642	0.00020332	1298.1	3.8966e-06	7.1205e-06	1299.4	353.15	1.7392e-06	6.799e-06	406.99	134.33	115.7	40.613	3.9239e-06	50.77	0.00082318	0.001031	0.00028777	1308.8	1.0912e-05	1.1284e-05	1308.7	359.95	1.0917e-05	1.1215e-05	413.6	138.64	119.45	41.669	1.1163e-05	52.04	151.458	53.737	57.945	-5.196	149.233	99.400	-5.160	-0.562	155.048	131.852	-1.123	3.673	3.781	8.188	165.039	7.604	-8191	255	
620.066	1	1	0	0	0.24387	0.093117	0.10232	0.045601	0.10945	0.05546	0.013691	0.24286	0.029434	0.24828	0.15527	0.25139	0.11976	0.22214	0.12328	0.10334	-2.8646	-3.1937	-3.4625	-3.3104	-3.3646	-3.4917	-3.5875	-3.5146	-3.1771	-3.3083	-3.5875	-3.2875	-3.2062	-3.6188	-3.3667	-3.4854	112.321	305.624	261.658	36.515	210.658	126.931	183.986	288.473	147.677	132.091	25.281	292.058	-14.826	224.176	42.061	310.049	0.00019539	0.00049559	0.00018815	1285.6	5.1469e-06	4.0671e-06	1285.9	354.01	2.7779e-06	3.3436e-06	405.55	134.31	115.56	40.82	4.4411e-06	50.927	0.00079471	0.0010027	0.00027692	1300.5	1.0599e-05	1.095e-05	1301.2	359.64	1.0568e-05	1.0687e-05	412.52	138.62	119.15	41.746	1.0743e-05	52.073	160.324	79.790	63.597	-5.093	164.483	152.803	-5.078	-0.588	166.592	146.789	-1.019	3.497	4.017	8.126	141.547	7.600	-8191	255	
620.162	1	1	0	0	0.17007	0.30416	0.26071	0.33066	0.1162	0.18625	0.16582	0.085443	0.25174	0.22275	0.082619	0.1695	0.19443	0.11393	0.19562	0.079845	-3.0646	-3.1521	-3.3292	-3.5354	-3.2125	-3.5083	-3.575	-3.4292	-3.3667	-3.2104	-3.5625	-3.4833	-3.1792	-3.4833	-3.3583	-3.625	196.442	137.250	239.654	279.985	29.669	233.504	325.651	255.667	100.573	266.439	266.475	230.157	230.686	14.440	327.408	293.839	0.00017705	0.00046704	0.00020445	1287.4	3.1724e-06	2.2007e-06	1288.8	353.3	1.7969e-06	2.3341e-06	407.17	134.17	115.82	40.718	3.3165e-06	50.837	0.0007706	0.0009859	0.00026863	1298.2	1.0377e-05	1.0564e-05	1300.6	359.21	1.007e-05	1.0663e-05	412.54	138.41	119.29	41.671	1.0359e-05	51.989	160.662	100.301	73.683	-5.403	137.673	130.384	-5.156	-0.481	142.709	143.464	-1.090	3.377	3.983	8.621	137.667	7.861	-8191	255	
620.258	1	1	0	0	0.091128	0.099918	0.1841	0.21512	0.29884	0.16896	0.039235	0.21894	0.33112	0.21821	0.29548	0.16102	0.28487	0.29252	0.31106	0.16666	-3.0833	-3.2271	-3.3917	-3.4229	-3.3542	-3.5458	-3.5563	-3.5687	-3.5896	-3.0229	-3.5812	-3.575	-3.3042	-3.6688	-3.0958	-3.4125	-2.870	325.088	101.711	287.532	224.679	181.926	264.841	277.633	277.930	199.319	237.105	-14.547	311.084	277.806	98.334	93.120	0.00019592	0.00053074	0.0001433	1291.5	2.9946e-06	4.6504e-06	1288.6	352.72	2.2865e-06	5.4902e-06	406.81	134.34	115.41	40.699	4.8903e-06	50.924	0.00077485	0.00095071	0.00026546	1302.3	1.0289e-05	1.0447e-05	1303.8	359.34	1.0355e-05	1.0817e-05	413.63	138.67	119.19	41.714	1.0487e-05	52.102	156.253	81.830	100.137	-5.276	195.871	150.988	-5.265	-0.429	193.042	148.257	-1.040	3.306	3.872	8.160	118.808	7.737	-8191	255	
620.377	1	1	0	0	0.099535	0.10943	0.11828	0.19209	0.089708	0.11164	0.14218	0.19145	0.18276	0.19749	0.26086	0.33168	0.11277	0.14901	0.17368	0.22263	-3.0542	-3.0396	-3.2792	-3.4083	-3.2062	-3.6917	-3.3021	-3.3771	-3.5812	-3.1458	-3.4604	-3.7354	-3.3354	-3.5979	-3.2729	-3.2792	205.315	102.960	147.004	327.164	37.530	54.496	239.009	278.973	-5.071	78.658	314.620	289.942	145.824	30.146	277.866	267.371	0.00020883	0.00047108	0.00012709	1295.7	4.5033e-06	8.4305e-06	1295.2	354.04	8.4556e-07	3.7551e-06	409.41	134.94	116.22	40.931	3.0531e-06	50.752	0.00077823	0.0009889	0.00026984	1305.5	1.0325e-05	1.0597e-05	1308.4	360.42	1.0497e-05	1.1044e-05	414.02	138.85	119.51	41.778	1.0749e-05	52.066	158.096	50.644	81.517	-5.215	144.579	97.215	-5.226	-0.591	144.817	129.528	-1.119	3.658	3.950	8.211	169.309	7.653	-8191	255	
620.473	1	1	0	0	0.19655	0.16714	0.2132	0.16858	0.067098	0.19608	0.15422	0.046302	0.064604	0.10469	0.045778	0.13424	0.018178	0.060291	0.15456	0.3147	-3.0292	-3.1688	-3.3	-3.5125	-3.1125	-3.3354	-3.5187	-3.5875	-3.4313	-3.3896	-3.4229	-3.4062	-3.225	-3.6312	-3.3583	-3.1521	222.173	140.649	52.386	289.886	269.939	219.247	257.799	272.458	318.986	278.612	248.246	4.706	295.551	329.923	13.694	322.796	0.00022902	0.00044294	0.00017669	1297.8	5.0341e-06	8.9906e-06	1297.4	354.91	3.707e-06	5.247e-06	407.36	135.28	115.79	40.874	1.9652e-06	50.982	0.00080033	0.0010022	0.00027579	1308.5	1.083e-05	1.1106e-05	1310.2	360.83	1.0891e-05	1.1242e-05	414.03	139.19	119.61	41.863	1.1208e-05	52.221	150.869	89.679	75.882	-5.308	152.417	137.240	-5.289	-0.615	139.712	128.965	-1.278	3.645	4.165	8.236	94.218	7.979	-8191	255	
620.569	1	1	0	0	0.058641	0.13573	0.13239	0.24772	0.27056	0.12202	0.14363	0.18037	0.32135	0.068146	0.38698	0.22985	0.078834	0.054092	0.16027	0.20414	-3.1729	-3.1042	-3.1937	-3.5833	-3.175	-3.3021	-3.6208	-3.4833	-3.4813	-3.3542	-3.3417	-3.4896	-3.2396	-3.4354	-3.4625	-3.1854	37.908	248.587	-18.195	330.882	201.614	56.635	114.892	227.538	120.558	181.691	297.408	330.612	268.907	86.360	283.998	341.146	0.00024656	0.00062694	0.00012886	1296.9	2.4156e-06	2.667e-06	1300.1	355.88	2.7875e-06	3.8292e-06	407.96	134.47	115.75	40.874	2.487e-06	50.919	0.00082577	0.0010395	0.00028854	1311.2	1.1127e-05	1.1405e-05	1312.4	361.12	1.1212e-05	1.1439e-05	415.03	138.89	119.85	41.795	1.1144e-05	52.293	156.286	38.648	91.608	-5.303	150.269	130.179	-5.103	-0.587	198.101	131.523	-1.147	3.503	3.785	8.333	128.865	7.675	-8191	255	
620.665	1	1	0	0	0.15741	0.08095	0.31946	0.2228	0.1672	0.019478	0.26357	0.38989	0.16701	0.041109	0.24462	0.17012	0.13831	0.21112	0.2488	0.216	-2.875	-3.2292	-3.1292	-3.7188	-2.9729	-3.2354	-3.5583	-3.4042	-3.4875	-3.3771	-3.3396	-3.4437	-3.2458	-3.575	-3.5083	-3.2771	302.179	169.047	338.145	280.532	330.931	297.224	287.551	260.191	339.831	136.711	269.521	326.048	337.494	-9.726	37.826	310.455	0.0002056	0.0007877	0.00013498	1298.1	2.8158e-06	5.1809e-06	1301	354.86	2.2188e-06	3.2469e-06	407.83	134.95	116.2	40.778	5.1988e-06	50.963	0.0008321	0.0010525	0.00028978	1310.3	1.1239e-05	1.1465e-05	1311.9	361.04	1.111e-05	1.1508e-05	415.4	139.29	119.91	41.85	1.1365e-05	52.256	159.517	62.455	77.902	-5.233	162.618	133.954	-5.314	-0.434	165.110	89.530	-1.234	3.792	3.745	8.404	122.806	7.683	-8191	255	
620.762	1	1	0	0	0.099942	0.16664	0.12925	0.27307	0.22983	0.22529	0.17392	0.40882	0.24934	0.12778	0.24653	0.12545	0.12184	0.2881	0.26827	0.24022	-2.9458	-3.2771	-3.275	-3.5396	-3.0583	-3.2812	-3.8354	-3.2438	-3.5687	-3.1896	-3.275	-3.6021	-3.4542	-3.2979	-3.3021	-3.4437	177.513	276.500	150.100	330.283	187.063	30.439	287.791	292.651	37.155	226.564	255.624	121.927	245.995	256.009	273.912	259.543	0.00021453	0.00055843	0.00018002	1302.4	4.5711e-06	5.5611e-06	1299.5	354.25	2.0144e-06	3.1203e-06	409.11	135.44	116.27	40.829	4.4927e-06	51.195	0.00083578	0.0010502	0.00029474	1313.3	1.1293e-05	1.167e-05	1313.2	361.35	1.1018e-05	1.1445e-05	415.14	139.44	119.94	41.869	1.1297e-05	52.345	152.375	54.316	79.076	-5.197	155.308	122.397	-5.250	-0.595	153.924	136.543	-1.156	3.302	4.072	8.340	127.842	7.628	-8191	255	
620.882	1	1	0	0	0.14876	0.20295	0.19556	0.21187	0.088646	0.20406	0.1777	0.33048	0.061811	0.030832	0.14384	0.21876	0.20527	0.10026	0.21046	0.2243	-2.8042	-3.3292	-3.1604	-3.5521	-3.2687	-3.3333	-3.675	-3.3292	-3.4292	-3.3375	-3.2896	-3.4896	-3.6146	-3.4375	-3.3979	-3.3917	6.612	115.414	279.400	296.568	8.514	244.569	265.544	250.079	149.463	262.956	256.806	303.796	102.485	309.692	170.667	111.814	0.00023587	0.00032651	0.00020073	1307.3	3.6495e-06	3.6654e-06	1303.9	355.97	1.913e-06	1.2743e-06	409.33	135.51	116.41	40.75	4.0691e-06	50.922	0.00083065	0.0010375	0.00029092	1314.7	1.1252e-05	1.1749e-05	1316.1	361.9	1.1353e-05	1.1521e-05	415.82	139.53	120.08	41.856	1.1576e-05	52.304	157.699	45.974	66.471	-5.277	150.195	206.208	-5.224	-0.602	149.806	140.109	-1.169	3.326	3.886	8.314	188.800	7.526	-8191	255	
620.977	1	1	0	0	0.089208	0.10511	0.065478	0.24406	0.093367	0.026967	0.071799	0.18609	0.10523	0.098838	0.11971	0.20229	0.073904	0.11748	0.087841	0.079765	-2.9375	-3.4708	-3.0333	-3.7104	-3.2062	-3.2313	-3.7562	-3.5312	-3.3875	-3.5583	-3.1479	-3.7083	-3.3542	-3.3083	-3.3438	-3.4021	111.854	140.965	316.688	331.931	277.992	0.014	242.153	10.871	16.367	308.761	130.667	70.598	-14.542	264.034	-0.155	330.894	0.00019449	0.00057096	6.272e-05	1303.6	4.4406e-06	4.9905e-06	1303.4	355.87	2.7084e-06	4.085e-06	409.31	134.6	116.29	40.739	8.1871e-07	50.938	0.00084398	0.001072	0.00030205	1315	1.1481e-05	1.1686e-05	1316	362.07	1.1456e-05	1.1666e-05	415.86	139.28	119.95	41.858	1.1765e-05	52.247	157.261	47.751	56.542	-5.239	147.138	153.588	-5.230	-0.664	190.399	127.267	-1.052	3.408	4.110	8.229	68.384	7.631	-8191	255	
621.073	1	1	0	0	0.15194	0.15863	0.20751	0.19638	0.19424	0.27981	0.29405	0.2271	0.28118	0.052229	0.26998	0.046402	0.25084	0.17944	0.21315	0.31533	-2.725	-3.5563	-3.0729	-3.6375	-3.1417	-3.0958	-3.7479	-3.3021	-3.3187	-3.4667	-3.3521	-3.2313	-3.5667	-3.2438	-3.4625	-3.2792	-7.154	155.010	254.649	333.655	258.301	320.799	264.172	242.658	305.610	-8.878	22.837	33.187	330.208	-7.072	195.700	334.804	0.00019959	0.00069252	0.00023549	1301.3	5.7207e-06	2.3937e-06	1297.6	356.09	1.941e-06	7.8835e-06	409.2	134.84	116.19	40.714	2.3191e-06	50.884	0.00085154	0.0010692	0.00029805	1314	1.1347e-05	1.1754e-05	1315.1	361.99	1.1159e-05	1.1712e-05	415.37	139.23	119.99	41.788	1.1347e-05	52.263	153.226	50.976	58.094	-5.379	166.747	144.223	-5.227	-0.477	180.988	100.013	-1.021	3.334	4.050	8.157	127.097	7.639	-8191	255	
621.169	1	1	0	0	0.1315	0.31796	0.066157	0.13099	0.050581	0.10615	0.053926	0.21382	0.12656	0.1908	0.10676	0.025977	0.31408	0.2023	0.08041	0.22027	-2.8979	-3.3208	-3.1146	-3.6396	-3.3917	-3.2229	-3.6292	-3.2479	-3.3312	-3.475	-3.5979	-3.4729	-3.3646	-3.2875	-3.3729	-3.4583	210.253	40.938	22.088	312.286	236.090	121.526	179.464	247.991	65.979	320.031	210.054	-11.695	330.699	10.549	115.640	318.461	0.00020466	0.0004035	7.3866e-05	1305	3.5737e-06	5.412e-06	1300	355.65	1.9851e-06	6.2506e-06	409.9	134.81	116.17	40.84	5.4529e-06	51.147	0.00081742	0.0010388	0.00029033	1313.6	1.1175e-05	1.1615e-05	1314.2	361.85	1.1136e-05	1.1697e-05	415.93	139.31	120.08	41.901	1.1231e-05	52.34	154.042	90.760	18.423	-5.378	169.550	125.375	-5.335	-0.639	134.944	86.113	-1.063	3.380	4.014	8.140	151.154	7.415	-8191	255	
621.242	1	1	0	0	0.05383	0.091393	0.090493	0.30668	0.10645	0.059534	0.049098	0.15982	0.19028	0.16497	0.1613	0.11634	0.064757	0.092389	0.32946	0.30817	-2.6667	-3.4396	-3.1063	-3.2896	-3.425	-3.1979	-3.6396	-3.3979	-3.2229	-3.4292	-3.5042	-3.225	-3.4542	-3.1479	-3.5167	-3.2229	173.723	112.339	214.885	302.605	149.387	70.418	-16.756	-12.703	184.219	92.422	266.899	45.338	246.904	259.391	225.899	278.357	0.0002167	0.00059748	0.00010286	1303.9	2.6626e-06	4.1178e-06	1298.7	355.17	3.0314e-06	5.4067e-06	409.82	135.52	115.47	40.764	4.1773e-06	51.196	0.0008321	0.0010534	0.00029819	1315.4	1.1311e-05	1.1835e-05	1315.5	361.34	1.1124e-05	1.1716e-05	415.81	139.73	119.86	41.882	1.1367e-05	52.284	159.279	60.640	111.129	-5.117	124.870	132.442	-5.044	-0.757	170.618	85.927	-1.132	3.585	3.959	8.307	163.661	7.411	-8191	255	
621.361	1	1	0	0	0.10602	0.22198	0.13138	0.28479	0.14102	0.095839	0.30689	0.07334	0.24262	0.017758	0.13571	0.14643	0.15739	0.20329	0.16113	0.13213	-2.8333	-3.4688	-3.1937	-3.3646	-3.55	-3.2021	-3.6604	-3.5583	-3.1479	-3.4208	-3.3312	-3.1792	-3.4333	-3.3063	-3.35	-3.5521	124.130	311.729	197.492	277.670	52.881	14.283	-9.697	170.527	297.688	84.745	277.552	325.439	310.139	324.982	102.314	240.658	0.00018799	0.000592	0.00012705	1301.9	5.8976e-06	3.8083e-06	1299.1	356.45	2.5203e-06	1.8189e-06	410.4	135.4	116.56	40.828	4.9903e-06	51.108	0.00083641	0.001069	0.00028711	1313.7	1.1041e-05	1.1558e-05	1313.9	361.95	1.1154e-05	1.149e-05	415.79	139.44	120.1	41.88	1.1178e-05	52.264	155.643	48.905	63.769	-5.216	149.327	110.734	-5.171	-0.530	140.232	100.423	-1.031	3.320	3.914	8.340	130.199	7.398	-8191	255	
621.457	1	1	0	0	0.11966	0.039832	0.21518	0.3585	0.059592	0.05271	0.29324	0.26151	0.30426	0.20489	0.18967	0.26803	0.26368	0.24233	0.053315	0.25004	-2.8354	-3.1437	-3.2229	-3.5021	-3.3583	-3.3979	-3.5417	-3.6104	-3.0021	-3.6625	-3.325	-3.1354	-3.5563	-3.1896	-3.2479	-3.5229	48.321	69.135	132.608	284.587	294.482	212.377	297.563	291.705	260.215	240.124	312.672	321.960	222.030	295.247	71.097	316.783	0.00022964	0.00035572	0.00016662	1302.3	2.2025e-06	6.1534e-06	1301.6	356.1	3.3995e-06	3.4123e-06	410.07	134.74	116.1	40.907	4.4282e-06	50.809	0.00083371	0.0010597	0.00029294	1313.8	1.1365e-05	1.1765e-05	1314.5	361.95	1.1244e-05	1.172e-05	415.44	139.37	120.06	41.957	1.1451e-05	52.232	154.682	61.630	84.216	-5.322	110.718	127.735	-5.138	-0.679	122.866	142.618	-1.050	3.485	3.904	8.370	182.276	7.776	-8191	255	
621.554	1	1	0	0	0.29296	0.082724	0.22359	0.22014	0.16225	0.30787	0.18959	0.28442	0.13005	0.15004	0.21207	0.17755	0.077805	0.15413	0.15758	0.084642	-2.8083	-3.4271	-3.2604	-3.3333	-3.4583	-3.2958	-3.4458	-3.4313	-3.2333	-3.3979	-3.3937	-3.2417	-3.4292	-3.3271	-3.1771	-3.5417	77.686	-7.035	87.093	278.985	214.331	2.635	134.170	202.198	151.913	6.526	295.693	126.277	310.531	280.289	283.403	245.065	0.00020314	0.00072574	0.00017159	1305.2	3.2993e-06	7.5173e-06	1303.5	355.84	3.9165e-06	4.5355e-06	408.68	135.08	115.91	40.774	7.246e-06	50.855	0.00083406	0.0010782	0.00028479	1314.7	1.1242e-05	1.1666e-05	1315.2	362.3	1.1282e-05	1.1417e-05	415.63	139.38	119.93	41.797	1.1453e-05	52.29	159.603	48.618	90.713	-5.146	151.358	130.582	-5.136	-0.602	164.930	139.874	-1.152	3.483	4.039	8.241	151.659	7.579	-8191	255	
621.650	1	1	0	0	0.31532	0.11449	0.049049	0.35553	0.081078	0.039467	0.10036	0.13174	0.07427	0.19704	0.091567	0.20405	0.13159	0.15612	0.2061	0.24877	-2.5354	-3.4979	-3.4125	-3.3167	-3.3333	-3.4062	-3.45	-3.5833	-3.2083	-3.3917	-3.6458	-3.1688	-3.3625	-3.3979	-3.4708	-3.6875	152.229	18.851	241.480	314.192	280.198	62.040	270.690	215.639	118.373	182.333	65.860	287.256	131.771	292.382	261.149	195.281	0.00020631	0.00066235	0.0001014	1297.4	3.5726e-06	1.4111e-06	1300.5	355.27	2.4156e-06	4.1045e-06	409.1	134.88	115.97	40.756	4.1628e-06	50.969	0.00083453	0.0010543	0.00028907	1312.3	1.1106e-05	1.1449e-05	1313.3	361.5	1.1274e-05	1.1273e-05	415.46	139.42	120.09	41.832	1.1381e-05	52.244	148.388	79.990	45.335	-5.272	187.459	68.940	-5.097	-0.545	181.723	121.781	-1.369	3.284	4.029	8.399	161.326	7.363	-8191	255	
621.769	1	1	0	0	0.081768	0.084329	0.034375	0.12922	0.15541	0.075129	0.082318	0.12169	0.028917	0.0832	0.14494	0.083644	0.22797	0.30612	0.29644	0.092862	-2.7271	-3.2313	-3.4813	-3.3417	-3.5312	-3.2979	-3.2104	-3.7208	-3.3521	-3.4938	-3.6021	-3.2917	-3.3708	-3.3417	-3.2	-3.5417	340.071	81.479	176.850	235.013	15.752	296.926	293.135	260.891	33.409	195.547	104.946	265.413	226.053	201.081	303.550	290.177	0.00023212	0.00050545	0.00021752	1300.5	3.4542e-06	5.8052e-06	1302.6	354.91	2.0845e-06	4.3679e-06	410.09	135.01	116.04	40.827	2.6579e-06	51.025	0.00082783	0.0010258	0.00028836	1315	1.115e-05	1.1395e-05	1315.7	362.2	1.1066e-05	1.1406e-05	415.8	139.37	119.81	41.873	1.142e-05	52.311	156.565	57.315	92.833	-5.315	164.419	111.019	-5.182	-0.391	195.497	164.898	-1.090	3.542	3.682	8.163	192.756	7.493	-8191	255	
621.865	1	1	0	0	0.10623	0.22616	0.14964	0.21432	0.2393	0.26483	0.2563	0.14975	0.22272	0.16842	0.2275	0.26697	0.077999	0.10114	0.095117	0.45174	-2.7188	-3.1979	-3.3292	-3.4062	-3.4604	-3.2875	-3.4708	-3.7188	-3.0292	-3.3083	-3.5354	-3.1958	-3.3021	-3.5312	-3.1771	-3.725	302.191	290.647	56.512	228.512	339.364	129.971	256.329	317.904	244.751	134.922	310.140	334.363	27.022	-12.136	161.154	337.077	0.0002107	0.00055306	0.00012066	1300.6	2.9831e-06	7.4853e-06	1302.5	354.46	3.3679e-06	2.0526e-06	408.99	135.18	115.68	40.868	4.1685e-06	50.933	0.00081544	0.0010376	0.00028675	1312.5	1.0798e-05	1.1202e-05	1314.3	361.51	1.0832e-05	1.1192e-05	416.27	139.27	120.09	41.895	1.1251e-05	52.251	154.432	52.192	73.049	-5.248	128.982	157.526	-4.907	-0.514	159.040	112.938	-1.460	3.326	3.971	8.181	164.872	7.628	-8191	255	
621.963	1	1	0	0	0.12219	0.065525	0.13913	0.27467	0.2296	0.10907	0.29989	0.2273	0.11813	0.17025	0.26998	0.18951	0.10077	0.13811	0.18448	0.22433	-2.9188	-3.2	-3.2313	-3.2854	-3.2271	-3.2229	-3.3583	-3.5146	-3.2542	-3.3167	-3.5646	-3.1083	-3.3646	-3.3292	-3.0146	-3.5438	179.282	147.090	33.787	303.185	313.035	144.521	318.576	275.663	-14.117	196.904	319.602	313.649	196.915	266.881	80.176	245.070	0.00022362	0.00058924	0.00026493	1301.7	2.9381e-06	5.5592e-06	1302.1	356.31	3.1332e-06	5.2819e-06	409.73	134.92	115.97	40.946	4.4676e-06	50.955	0.00081038	0.001045	0.00028675	1312.9	1.0986e-05	1.1374e-05	1314.8	361.79	1.0919e-05	1.1376e-05	415.8	139.5	119.93	41.953	1.1142e-05	52.302	157.578	68.027	69.126	-5.361	136.889	126.605	-5.088	-0.487	145.604	113.818	-1.121	3.442	4.023	8.196	151.410	7.793	-8191	255	
622.059	1	1	0	0	0.313	0.087145	0.14668	0.094842	0.21992	0.20566	0.31923	0.23061	0.12816	0.16742	0.13764	0.026805	0.052986	0.084186	0.075578	0.09068	-2.8667	-3.1188	-3.3042	-3.2083	-3.3	-3.2438	-3.5417	-3.6458	-3.4792	-3.2604	-3.4833	-3.3958	-3.3604	-3.6208	-3.1312	-3.6542	277.663	311.889	34.302	3.550	233.766	181.133	307.415	303.414	284.643	77.722	328.500	203.203	304.787	317.000	174.899	203.813	0.00022119	0.00066954	0.00019639	1303.8	3.1288e-06	6.0327e-06	1302	355.91	2.8034e-06	4.6222e-06	408.93	135.49	116.4	40.973	4.8257e-06	51.045	0.0008192	0.0010357	0.00028385	1314	1.0885e-05	1.1212e-05	1314.9	361.69	1.0889e-05	1.1434e-05	415.85	139.52	120.32	41.991	1.1102e-05	52.291	153.624	79.733	91.658	-5.272	161.535	118.711	-5.066	-0.509	151.237	131.085	-1.289	3.573	4.153	8.316	156.218	7.561	-8191	255	
622.153	1	1	0	0	0.25693	0.12484	0.1422	0.084819	0.081474	0.1472	0.26631	0.19671	0.25701	0.078666	0.12691	0.35675	0.12933	0.26619	0.027624	0.10216	-2.9458	-3.1562	-3.3396	-3.2729	-3.4167	-3.3521	-3.4375	-3.4146	-3.5333	-3.2583	-3.5896	-3.4479	-3.2604	-3.5938	-3.1896	-3.6063	89.291	207.601	-13.027	16.584	272.619	318.810	299.501	260.058	150.474	113.823	290.306	295.403	75.938	239.705	91.142	262.255	0.00023081	0.00046711	0.00012017	1305.6	2.725e-06	6.7143e-06	1304.2	355.62	2.2194e-06	6.2198e-06	409.2	134.88	116.42	40.922	2.341e-06	50.86	0.00081256	0.0010332	0.00028743	1316.2	1.1017e-05	1.1208e-05	1314.9	361.95	1.0774e-05	1.1327e-05	415.69	139.41	120.15	41.878	1.1056e-05	52.189	165.687	71.801	100.256	-5.237	109.204	147.251	-5.211	-0.617	149.621	141.098	-1.209	3.188	4.076	8.279	146.105	7.451	-8191	255	
622.249	1	1	0	0	0.14109	0.19784	0.29282	0.050733	0.09317	0.158	0.33427	0.16783	0.03156	0.34465	0.063304	0.12501	0.16643	0.16307	0.090687	0.16559	-2.9354	-3.0896	-3.3229	-3.5354	-3.0646	-3.5708	-3.4646	-3.4938	-3.4188	-3.1979	-3.6312	-3.1375	-3.1854	-3.5292	-3.0958	-3.3104	6.721	301.214	301.049	269.032	-10.363	300.361	306.049	263.301	94.469	272.782	318.237	3.209	13.074	277.578	326.496	41.319	0.00020628	0.00046062	0.00013681	1302.2	3.6212e-06	3.8583e-06	1302	356.11	3.7548e-06	5.3815e-06	409.53	135.29	116.37	40.984	4.0826e-06	50.966	0.00080336	0.0010373	0.00028236	1314.8	1.0894e-05	1.1267e-05	1313.8	361.84	1.0851e-05	1.1375e-05	415.96	139.45	120.22	41.951	1.1235e-05	52.251	153.034	78.625	83.887	-5.259	183.467	90.838	-5.048	-0.720	163.308	101.937	-0.991	3.609	3.965	8.336	111.038	7.679	-8191	255	
622.370	1	1	0	0	0.15313	0.21568	0.13478	0.21789	0.20254	0.07502	0.3563	0.17984	0.16349	0.30186	0.22265	0.42538	0.12746	0.18432	0.12642	0.35648	-3.05	-3.0042	-3.2938	-3.4479	-3.3125	-3.3417	-3.3646	-3.2708	-3.4042	-3.1312	-3.6229	-3.5438	-3.2479	-3.5187	-3.0083	-3.2313	262.953	191.924	104.998	295.397	339.535	92.336	269.539	252.661	157.869	266.625	271.213	329.332	160.289	253.408	72.654	262.514	0.00020798	0.00042538	0.00014149	1300.2	5.6912e-06	4.6904e-06	1298	355.77	4.7536e-06	4.6941e-06	408.66	135.34	116.62	40.794	6.4661e-06	51.118	0.00081997	0.0010463	0.00028459	1313.3	1.122e-05	1.1358e-05	1314.7	361.98	1.1059e-05	1.1516e-05	415.65	139.41	120.14	41.909	1.1019e-05	52.3	158.509	55.835	97.517	-5.166	141.926	138.350	-5.176	-0.605	173.102	89.250	-1.072	3.383	4.013	8.088	141.469	7.640	-8191	255	
622.466	1	1	0	0	0.10166	0.061393	0.041923	0.1392	0.25922	0.042294	0.24869	0.041638	0.16983	0.29135	0.12865	0.13001	0.091182	0.17237	0.13711	0.10617	-2.8417	-3.0979	-3.2896	-3.5354	-3.0958	-3.5438	-3.4542	-3.3438	-3.3563	-3.2271	-3.3146	-3.4708	-3.1583	-3.3625	-3.2292	-3.2354	18.886	24.384	186.131	335.962	280.167	190.688	269.400	196.940	210.283	299.273	308.049	2.727	137.996	0.749	172.417	22.187	0.00023111	0.00048035	0.00014864	1305	2.1743e-06	5.4696e-06	1303.5	355.55	1.8969e-06	5.2566e-06	410.37	135.32	116.48	40.943	2.6216e-06	51.127	0.00081296	0.0010196	0.00028428	1315.8	1.086e-05	1.1038e-05	1316.1	361.61	1.0901e-05	1.1188e-05	415.48	139.49	120.43	41.953	1.1078e-05	52.377	160.671	72.891	84.123	-5.372	169.125	96.981	-5.286	-0.696	181.941	140.404	-1.299	3.571	3.737	8.367	160.153	7.658	-8191	255	
622.562	1	1	0	0	0.20115	0.1092	0.22653	0.22603	0.0374	0.10001	0.18496	0.14113	0.048445	0.21551	0.074236	0.06354	0.26803	0.11897	0.35231	0.15903	-3.0229	-3.1667	-3.2104	-3.5896	-3.0812	-3.5458	-3.4958	-3.1167	-3.5708	-3.0229	-3.4292	-3.3458	-3.3312	-3.3667	-3.3583	-3.2271	14.301	43.315	-15.129	-1.760	303.747	-4.935	245.909	318.563	133.437	27.472	163.619	14.957	280.674	250.638	78.194	91.052	0.00022542	0.0006497	0.00023051	1308.9	2.2939e-06	7.5046e-06	1307.6	356.55	3.8612e-06	6.989e-06	409.03	135.23	115.99	41.104	2.3344e-06	50.972	0.00082688	0.0010364	0.00028338	1319.3	1.1053e-05	1.1314e-05	1318.8	362.66	1.0782e-05	1.1205e-05	415.56	139.65	120.15	42.015	1.0702e-05	52.292	148.141	60.605	83.629	-5.394	168.662	139.570	-5.158	-0.522	173.456	100.760	-0.995	3.573	3.798	8.169	120.336	7.538	-8191	255	
622.658	1	1	0	0	0.099288	0.15197	0.18669	0.21829	0.27623	0.023153	0.11727	0.23005	0.16714	0.16871	0.17506	0.13535	0.04411	0.18758	0.064257	0.095187	-3.1979	-3.3417	-3.0438	-3.5292	-3.1167	-3.4792	-3.4188	-3.2417	-3.2583	-3.0521	-3.2562	-3.4083	-3.3271	-3.3083	-3.4896	-3.2	49.318	258.926	267.165	300.521	295.160	61.886	251.898	326.381	309.177	312.313	-16.861	207.281	37.817	283.252	191.209	81.103	0.0002379	0.00058384	0.00011984	1304.7	4.7064e-06	8.8743e-06	1306.4	355.88	1.7911e-06	3.1957e-06	409.99	135.54	116.92	41.116	5.4881e-06	51.093	0.00079493	0.00099174	0.00027943	1316.6	1.047e-05	1.0747e-05	1317.4	361.95	1.0292e-05	1.0716e-05	416.19	139.7	120.27	42.026	1.0608e-05	52.325	157.232	39.752	84.677	-5.307	123.931	118.799	-5.093	-0.653	150.170	164.673	-1.198	3.531	3.877	8.402	136.465	7.703	-8191	255	
622.755	1	1	0	0	0.089252	0.19885	0.22669	0.49571	0.24521	0.17965	0.30549	0.36921	0.089154	0.27075	0.21811	0.35197	0.043872	0.084467	0.057185	0.031143	-2.9917	-3.0875	-3.2042	-3.7083	-3.4042	-3.175	-3.7417	-3.2354	-3.6104	-3.2625	-3.2917	-3.4708	-3.1625	-3.3312	-3.3917	-3.2208	146.262	98.065	50.817	284.756	7.702	146.684	322.749	329.643	34.295	82.189	164.383	335.348	340.744	38.683	103.280	202.600	0.00020375	0.00070199	0.00010818	1305.9	4.5473e-06	5.8748e-06	1303.4	355.74	1.6914e-06	3.7471e-06	408.18	135.49	116.54	40.915	5.2452e-06	51.128	0.00078326	0.00097363	0.00027036	1316	1.0422e-05	1.073e-05	1317.3	362.15	1.0235e-05	1.0579e-05	415.23	139.5	120.01	41.92	1.0392e-05	52.292	161.907	72.472	98.690	-5.274	149.849	137.956	-5.033	-0.679	175.692	109.939	-1.127	3.384	3.723	8.235	160.691	7.490	-8191	255	
622.851	1	1	0	0	0.20319	0.039271	0.10979	0.25633	0.070029	0.10543	0.26706	0.12994	0.051721	0.19507	0.27473	0.12335	0.087714	0.12242	0.26692	0.31553	-3.0208	-2.9646	-3.0104	-3.5333	-3.2354	-3.3417	-3.6667	-3.1896	-3.1708	-3.2125	-3.275	-3.5896	-3.1937	-3.225	-3.3646	-3.2354	147.836	20.039	235.661	307.763	157.297	180.812	315.127	87.551	225.716	224.209	278.576	289.462	199.319	257.104	22.805	256.705	0.00020346	0.00048524	8.4618e-05	1298.7	2.2012e-06	4.842e-06	1301.7	356.07	2.3715e-06	2.5466e-06	409.59	135.46	116.43	40.713	4.4897e-06	50.9	0.00075865	0.00094366	0.00026738	1312.1	1.0334e-05	1.0541e-05	1313.6	361.5	1.0097e-05	1.0699e-05	414.86	139.29	119.88	41.847	1.0679e-05	52.129	156.931	70.732	84.794	-5.410	134.960	116.655	-5.160	-0.563	137.592	134.098	-1.150	3.496	4.124	8.184	143.099	7.683	-8191	255	
622.970	1	1	0	0	0.1673	0.12337	0.25011	0.16901	0.072826	0.0076116	0.44111	0.29146	0.084349	0.077969	0.19674	0.31878	0.10503	0.29507	0.15937	0.15152	-2.7396	-3.2687	-2.9208	-3.4896	-3.1604	-3.2479	-3.5	-3.3125	-3.1708	-3.2687	-3.1312	-3.5687	-3.325	-3.275	-3.5604	-3.2417	233.043	214.852	217.866	335.805	281.374	82.362	316.709	273.313	73.431	138.665	289.040	296.267	17.886	-6.689	247.409	239.694	0.00021473	0.00053555	0.00018208	1296.9	3.0196e-06	6.1222e-06	1293.5	354.99	1.0058e-06	3.4248e-06	407.03	134.68	115.56	40.733	4.7261e-06	50.945	0.00077834	0.00097767	0.00027877	1308.5	1.045e-05	1.0906e-05	1309.2	360.98	1.0438e-05	1.0799e-05	414.43	139.01	119.53	41.795	1.0813e-05	52.123	155.138	39.159	65.116	-5.127	136.148	148.465	-5.078	-0.550	93.369	108.462	-1.037	3.276	3.915	8.346	142.484	7.528	-8191	255	
623.066	1	1	0	0	0.18548	0.13233	0.32866	0.2886	0.15731	0.049169	0.27656	0.49429	0.096669	0.065091	0.12893	0.26745	0.17381	0.20911	0.18268	0.27524	-2.7938	-3.3812	-3.0729	-3.45	-3.2521	-3.1875	-3.7104	-3.3312	-3.1688	-3.3917	-3.3646	-3.3792	-3.3542	-3.1021	-3.2542	-3.3729	279.563	268.930	212.915	330.545	227.717	209.191	274.877	290.330	334.878	254.430	-16.854	309.936	261.558	306.587	64.461	324.941	0.00020486	0.00063575	7.9114e-05	1295.1	5.2774e-06	6.5665e-06	1293.7	353.24	8.8814e-07	3.5322e-06	408.61	135.3	116.14	40.822	4.918e-06	50.823	0.00077689	0.00097984	0.00027013	1305.8	1.0526e-05	1.0811e-05	1308.6	360.29	1.0515e-05	1.0942e-05	414.16	138.95	119.71	41.796	1.0656e-05	52.147	146.197	72.115	80.283	-5.204	162.939	131.038	-5.202	-0.661	170.516	123.721	-1.275	3.444	3.786	8.093	166.700	7.733	-8191	255	
623.137	1	1	0	0	0.20407	0.11343	0.061911	0.17441	0.10455	0.2848	0.14236	0.32562	0.10518	0.15525	0.069261	0.22125	0.21745	0.10979	0.16825	0.20866	-2.8354	-3.35	-2.8604	-3.6229	-3.2667	-3.2646	-3.5417	-3.3646	-3.2208	-3.5083	-3.2583	-3.5	-3.4771	-3.0687	-3.4688	-3.2771	4.463	249.530	106.220	309.413	259.810	72.597	278.895	236.796	119.182	112.512	293.765	305.500	294.082	298.390	334.129	128.457	0.00022034	0.00033298	0.00012133	1297.8	2.3292e-06	5.3397e-06	1294.8	354.7	3.5135e-06	4.6589e-06	406.73	134.65	115.7	40.638	5.6502e-06	50.906	0.00077842	0.00097749	0.00027376	1307.8	1.0372e-05	1.0886e-05	1308.5	360.08	1.0666e-05	1.0988e-05	413.49	138.91	119.51	41.705	1.0761e-05	52.083	156.689	15.687	71.068	-5.167	161.925	128.146	-5.087	-0.586	130.182	143.026	-1.138	3.183	3.847	8.095	156.422	7.664	-8191	255	
623.234	1	1	0	0	0.2213	0.068214	0.089402	0.21612	0.047413	0.17474	0.23407	0.19798	0.12304	0.34019	0.081044	0.055517	0.043657	0.26157	0.12486	0.2241	-2.6792	-3.4167	-3.075	-3.3729	-3.2979	-3.0563	-3.5896	-3.4521	-3.1458	-3.4979	-3.2104	-3.3667	-3.4021	-3.1646	-3.3667	-3.4979	97.005	45.853	304.047	254.219	186.738	236.967	293.759	270.558	159.997	321.826	270.785	211.423	248.774	41.444	13.671	248.156	0.00021841	0.00063528	0.00015244	1294.7	2.4084e-06	3.033e-06	1295.1	353.48	1.398e-06	5.1105e-06	407.8	135.01	115.8	40.752	3.3337e-06	50.864	0.00078766	0.00098818	0.00027053	1306.3	1.055e-05	1.0742e-05	1307.1	359.76	1.0548e-05	1.0911e-05	414.07	139.12	119.58	41.728	1.0741e-05	52.113	157.489	92.937	52.238	-5.307	156.250	138.267	-5.041	-0.579	109.272	123.263	-1.171	3.529	3.737	8.218	126.814	7.550	-8191	255	
623.330	1	1	0	0	0.16034	0.063722	0.13983	0.16547	0.21598	0.14653	0.19379	0.30856	0.22003	0.12678	0.25242	0.27682	0.40953	0.14715	0.15866	0.092577	-2.7	-3.4208	-3.1208	-3.2875	-3.4917	-3.1375	-3.7208	-3.5104	-3.0687	-3.5229	-3.4083	-3.3646	-3.4333	-3.275	-3.4479	-3.4104	154.917	310.064	66.899	321.569	116.633	13.653	-16.799	290.531	272.113	267.712	306.668	273.232	329.950	333.343	107.736	196.867	0.00022994	0.00074368	0.0001041	1297.8	2.0093e-06	4.7136e-06	1300.2	353.87	1.4016e-06	3.3118e-06	406.85	134.84	115.43	40.827	4.262e-06	50.823	0.00077808	0.00097956	0.00027584	1307	1.0631e-05	1.0901e-05	1309.1	359.94	1.0858e-05	1.1192e-05	413.79	139.05	119.53	41.83	1.1064e-05	52.113	151.444	88.437	90.937	-5.408	166.492	100.384	-5.007	-0.637	179.689	153.565	-1.139	3.452	3.935	8.265	151.411	7.619	-8191	255	
623.450	1	1	0	0	0.13021	0.31955	0.25384	0.48309	0.029388	0.060686	0.092245	0.20008	0.11326	0.046092	0.080448	0.089304	0.31405	0.062175	0.082721	0.33715	-2.7188	-3.3917	-3.0854	-3.3563	-3.3833	-3.1333	-3.4521	-3.5833	-2.9	-3.4021	-3.3958	-3.2792	-3.5667	-3.2687	-3.2875	-3.5646	193.896	176.113	241.326	331.283	149.066	290.883	311.620	289.344	249.935	73.356	208.973	172.495	23.830	152.641	199.475	275.149	0.00022559	0.00060814	0.00013594	1298.9	4.6974e-06	7.4492e-06	1295.8	354.07	2.5766e-06	5.537e-06	407.19	134.99	115.88	40.62	3.4791e-07	50.929	0.00080257	0.0010153	0.00028577	1309.6	1.0795e-05	1.1101e-05	1309.7	360.14	1.0868e-05	1.0972e-05	414.09	139.11	119.65	41.842	1.0772e-05	52.203	158.436	78.886	56.617	-5.249	152.123	112.338	-5.260	-0.549	169.513	125.071	-1.045	3.377	3.940	8.476	218.536	7.924	-8191	255	
623.547	1	1	0	0	0.12858	0.098166	0.1347	0.098496	0.1821	0.24119	0.14474	0.02988	0.14527	0.078767	0.20488	0.10718	0.18535	0.063942	0.013944	0.17506	-2.6813	-3.4479	-3.0771	-3.4521	-3.4354	-3.25	-3.6375	-3.5083	-3.0312	-3.3312	-3.5312	-3.45	-3.5104	-3.1021	-3.2875	-3.4625	159.104	305.485	287.715	196.353	185.658	112.376	310.475	323.740	-7.282	144.116	25.246	264.008	244.465	244.022	158.194	332.951	0.0002161	0.00035425	0.00010334	1294.4	3.0325e-06	5.7026e-06	1292.1	354.28	4.9056e-06	2.6625e-06	407.79	134.53	116.29	40.955	4.5165e-06	50.909	0.00078427	0.00099133	0.00027357	1307.2	1.0239e-05	1.071e-05	1306.2	360.16	1.0347e-05	1.0575e-05	414.24	138.87	119.65	41.899	1.0747e-05	52.186	154.710	96.338	99.575	-5.164	188.307	168.306	-5.199	-0.680	159.662	145.198	-1.127	3.487	3.884	8.221	123.947	7.614	-8191	255	
623.643	1	1	0	0	0.17664	0.13241	0.16528	0.10459	0.28733	0.138	0.30631	0.15096	0.084009	0.19054	0.27756	0.11562	0.30385	0.27054	0.11215	0.37167	-2.6813	-3.4813	-3.3042	-3.2938	-3.4896	-3.1604	-3.4833	-3.6104	-3.2167	-3.3937	-3.6417	-3.3	-3.4125	-3.2521	-3.0375	-3.5375	152.197	195.614	289.808	322.638	298.579	308.180	279.046	271.666	297.224	98.568	330.263	322.598	-17.638	311.240	268.393	92.609	0.00022935	0.00056271	0.00017976	1293	1.0797e-06	4.7574e-06	1293.1	353.05	1.5207e-06	3.0899e-06	407.76	134.61	115.65	40.743	3.0872e-06	50.861	0.00079547	0.00096885	0.00027185	1304.6	1.0331e-05	1.0975e-05	1306.1	359.48	1.0447e-05	1.058e-05	413.47	138.84	119.31	41.753	1.0566e-05	52.072	158.581	56.854	51.132	-5.431	140.890	142.671	-5.071	-0.483	148.109	141.464	-1.558	3.546	3.934	8.186	168.018	7.572	-8191	255	
623.763	1	1	0	0	0.18745	0.36068	0.18091	0.30848	0.055505	0.13606	0.090789	0.28051	0.098812	0.091703	0.27145	0.060721	0.069095	0.057182	0.064203	0.12502	-2.8042	-3.2687	-3.2792	-3.325	-3.4104	-3.3	-3.3333	-3.5042	-3.1542	-3.2562	-3.4792	-3.1833	-3.3438	-3.3146	-3.3646	-3.5167	163.522	-6.976	262.244	251.765	186.388	228.102	192.026	253.185	305.134	178.382	320.286	185.635	-13.029	256.062	36.350	303.546	0.00021937	0.00065939	0.00010441	1287.2	4.2488e-06	9.4065e-06	1288.6	352.71	1.9006e-06	5.1483e-06	405.85	134.41	115.47	40.745	3.0836e-06	50.773	0.00078682	0.00096162	0.00026581	1301.4	1.0286e-05	1.0313e-05	1302.3	358.72	1.0061e-05	1.0541e-05	412.32	138.51	119.16	41.732	1.0348e-05	51.985	156.707	78.632	78.958	-5.283	158.603	149.640	-5.253	-0.642	121.607	115.693	-1.294	3.274	4.201	8.428	150.895	7.608	-8191	255	
623.835	1	1	0	0	0.13921	0.14502	0.099045	0.25521	0.17963	0.16649	0.25652	0.1455	0.10177	0.063187	0.31429	0.10783	0.36739	0.2853	0.11146	0.13636	-2.6583	-3.2479	-3.3563	-3.2833	-3.225	-3.0646	-3.2979	-3.6083	-3.1292	-3.3354	-3.4979	-3.2	-3.3688	-3.4354	-3.1417	-3.6312	163.225	196.576	226.640	311.515	333.023	60.260	254.447	101.122	94.291	258.326	284.539	244.645	290.862	299.213	299.623	295.201	0.00019456	0.00047225	0.00012092	1286.1	3.9531e-06	4.4316e-06	1283.8	351.92	3.7131e-06	2.8071e-06	407.08	134.55	115.44	40.652	3.0301e-06	51.004	0.00075837	0.00097274	0.00026679	1298.3	1.0186e-05	1.0595e-05	1299	358.16	1.0122e-05	1.065e-05	412.77	138.61	119.23	41.694	1.0545e-05	52.167	161.207	55.217	114.552	-5.339	159.101	144.138	-5.060	-0.402	161.281	127.591	-1.100	3.307	3.841	8.400	139.736	7.603	-8191	255	
623.931	1	1	0	0	0.17514	0.16491	0.19535	0.11758	0.0688	0.059368	0.21285	0.32943	0.12798	0.062809	0.32591	0.14064	0.14044	0.10809	0.15586	0.077411	-2.7458	-3.1875	-3.4333	-3.1729	-3.2479	-3.1396	-3.3604	-3.4979	-3.1917	-3.2896	-3.3937	-3.2604	-3.3167	-3.4979	-3.1104	-3.5646	260.325	219.016	212.036	151.798	46.808	68.371	335.079	334.792	244.200	157.375	-9.713	0.711	14.473	34.320	120.418	268.211	0.00021445	0.00035518	0.00014112	1288.2	3.2583e-06	9.0668e-06	1288.3	352.24	4.17e-06	3.345e-06	406.73	134.6	115.48	40.723	3.7505e-06	50.827	0.00077729	0.00098499	0.00027177	1301.6	1.0583e-05	1.0766e-05	1301.2	358.32	1.055e-05	1.096e-05	412.5	138.77	119.12	41.748	1.068e-05	52.006	155.244	2.959	93.710	-5.158	133.449	124.319	-5.021	-0.602	160.691	171.343	-1.167	3.333	3.977	8.222	156.609	7.659	-8191	255	
624.050	1	1	0	0	0.049219	0.12194	0.19425	0.078894	0.094977	0.27726	0.25735	0.21678	0.24867	0.23282	0.2751	0.10508	0.23069	0.17967	0.098117	0.20896	-2.5271	-2.9729	-3.3812	-3.3563	-3.1917	-3.5708	-3.4083	-3.3667	-3.425	-3.2938	-3.5625	-3.1396	-3.4292	-3.5312	-3.2562	-3.4583	336.555	38.881	302.724	204.106	16.117	32.611	236.435	305.301	310.784	95.417	12.331	321.313	22.942	-14.030	184.235	259.436	0.00021343	0.00061114	9.8053e-05	1286.3	6.5197e-06	3.6969e-06	1291.1	352.27	2.0884e-06	4.3174e-06	405.99	134.54	115.2	40.77	2.8385e-06	50.695	0.00078848	0.00098757	0.00026968	1301.8	1.0415e-05	1.0488e-05	1302.4	359.02	1.0263e-05	1.0462e-05	412.37	138.7	119.14	41.695	1.0249e-05	52.024	152.802	84.816	102.616	-5.303	182.748	103.172	-5.242	-0.512	157.324	121.960	-1.056	3.420	4.018	8.469	140.094	7.712	-8191	255	
624.146	1	1	0	0	0.19479	0.0047204	0.14613	0.40032	0.16433	0.10708	0.26768	0.26659	0.29748	0.14673	0.10951	0.28613	0.27383	0.058678	0.090372	0.30265	-2.9896	-3.0375	-3.4083	-3.3688	-3.3729	-3.3083	-3.3042	-3.5604	-3.3563	-3.1167	-3.6208	-3.1604	-3.1188	-3.4958	-3.1271	-3.4938	301.691	340.302	259.972	302.111	62.297	-1.481	311.165	226.108	225.218	159.048	310.442	39.522	261.187	265.269	84.435	14.211	0.00021338	0.00014282	0.00010748	1284.4	3.9724e-06	5.6914e-06	1284.8	349.69	2.4689e-06	8.1161e-06	404.57	133.99	115.1	40.561	5.7844e-06	50.512	0.00073779	0.00091757	0.00025488	1296.6	9.8138e-06	9.9534e-06	1295.5	357.28	9.7132e-06	9.8734e-06	411.02	138.38	118.91	41.617	9.9057e-06	51.949	150.759	24.369	81.712	-5.264	109.375	138.277	-5.178	-0.504	173.890	118.414	-0.942	3.545	3.809	8.217	148.605	7.528	-8191	255	
624.242	1	1	0	0	0.41547	0.062482	0.10396	0.28553	0.17169	0.25406	0.26812	0.33858	0.16157	0.14256	0.11338	0.35464	0.14032	0.033247	0.1123	0.037566	-2.8354	-3.1854	-3.4354	-3.4479	-3.2354	-3.2979	-3.4562	-3.475	-3.4396	-3.0667	-3.3563	-3.3312	-3.0146	-3.525	-3.3708	-3.2562	255.212	122.686	200.250	276.883	318.386	103.208	294.612	275.984	265.750	281.667	208.070	-3.661	273.288	137.913	59.562	269.508	0.00021952	0.00070624	0.00013726	1283.3	2.6545e-06	6.204e-06	1286.3	353.74	3.7513e-06	6.2062e-06	407.07	134.1	115.06	40.675	5.8379e-06	50.782	0.00073296	0.00091746	0.00025138	1296.9	9.7897e-06	1.0096e-05	1298.5	358.29	9.8658e-06	1.0089e-05	412.18	138.63	119.1	41.672	1.0004e-05	52.113	155.123	72.810	112.173	-5.147	163.389	125.158	-4.913	-0.568	181.727	125.426	-1.120	3.370	3.825	8.381	148.757	7.656	-8191	255	
624.363	1	1	0	0	0.10552	0.21979	0.16238	0.34596	0.28922	0.20781	0.21404	0.17752	0.081901	0.19079	0.19719	0.28759	0.18449	0.12199	0.31776	0.15751	-2.775	-3.1208	-3.2208	-3.3312	-2.9729	-3.4729	-3.4688	-3.3563	-3.4979	-3.2125	-3.4271	-3.2771	-3.1854	-3.5208	-3.025	-3.2604	159.451	176.217	-8.725	308.618	194.667	186.434	321.250	304.602	2.571	228.878	317.990	309.319	16.023	-14.563	191.374	176.813	0.00021893	0.00050944	0.0001452	1288.5	3.5552e-06	3.6772e-06	1293	353.48	2.3401e-06	3.3931e-06	407.14	134.25	115.58	40.762	3.9034e-06	50.929	0.00073776	0.00094285	0.00025716	1302.3	9.9143e-06	1.0123e-05	1304.3	358.75	9.8806e-06	1.026e-05	413.36	138.72	119.49	41.784	1.0126e-05	52.16	158.012	78.919	63.993	-5.149	157.868	114.986	-5.040	-0.529	135.711	123.755	-1.139	3.321	3.800	8.397	157.227	7.593	-8191	255	
624.435	1	1	0	0	0.1666	0.23034	0.068427	0.22811	0.13891	0.068613	0.10736	0.20129	0.096312	0.057335	0.42628	0.15985	0.20625	0.17151	0.11645	0.42276	-3.0229	-2.925	-3.3417	-3.3563	-2.9292	-3.4562	-3.6125	-3.3583	-3.4646	-2.95	-3.3625	-3.2938	-3.1188	-3.4396	-3.2438	-3.1625	79.374	157.354	334.658	322.532	318.324	28.519	320.265	265.593	209.255	146.149	289.353	303.213	314.156	302.164	277.095	271.955	0.00022319	0.00046194	0.00017987	1293.5	3.4771e-06	3.6204e-06	1289.8	353.02	2.38e-06	5.4545e-06	407.27	134.88	115.55	40.819	5.1868e-06	50.903	0.00075154	0.00094605	0.00026434	1304.7	9.9325e-06	1.0315e-05	1305.4	359.28	9.892e-06	1.0267e-05	412.9	138.91	119.43	41.795	1.0141e-05	52.093	152.269	71.173	46.635	-5.301	165.299	155.063	-5.143	-0.680	163.822	138.726	-0.862	3.476	4.061	8.356	139.030	7.833	-8191	255	
624.531	1	1	0	0	0.14271	0.023927	0.30415	0.036764	0.17073	0.18732	0.035808	0.068677	0.29664	0.13476	0.23316	0.16878	0.041364	0.1485	0.24685	0.15597	-3.0438	-2.9521	-3.2062	-3.4125	-3.1458	-3.4688	-3.3542	-3.2479	-3.4021	-3.0292	-3.4354	-3.4083	-3.2687	-3.325	-3.2417	-3.1188	262.605	257.080	233.001	-10.612	280.434	138.327	227.837	-5.249	0.837	97.069	292.534	268.865	196.944	316.080	113.143	302.972	0.00020715	0.00027921	0.00017846	1282.3	3.9915e-06	2.3891e-06	1283.1	350.95	1.3672e-06	3.5017e-06	405.38	133.8	115.42	40.729	3.6807e-06	51.059	0.00073749	0.00093451	0.00025657	1296.7	9.7537e-06	9.9987e-06	1297.2	357.25	9.7119e-06	1.0041e-05	411.32	138.37	118.99	41.67	9.6617e-06	52.025	153.025	38.243	43.785	-5.199	156.793	186.419	-5.235	-0.466	172.939	161.346	-0.996	3.539	3.705	8.154	132.928	7.736	-8191	255	
624.627	1	1	0	0	0.015717	0.26869	0.1097	0.26772	0.10949	0.085108	0.23348	0.11652	0.21466	0.12338	0.34784	0.2251	0.15946	0.16659	0.11513	0.19288	-2.9875	-3.0896	-3.1417	-3.6646	-2.9813	-3.4062	-3.3688	-3.2417	-3.2812	-3.1417	-3.3438	-3.4042	-3.1292	-3.5083	-3.2812	-3.1437	209.742	-4.961	54.128	316.883	43.387	118.706	214.750	237.076	48.639	281.596	271.304	8.336	89.545	-16.541	3.997	250.066	0.00020169	0.00070856	0.00021578	1288.3	6.2531e-06	6.1865e-06	1279.7	351.69	1.1819e-06	6.2875e-06	404.65	134.66	115.2	40.762	3.9258e-06	51.049	0.00072642	0.00090695	0.00025065	1295.2	9.6576e-06	1.0053e-05	1295.3	357.85	9.5889e-06	1.007e-05	410.72	138.7	119.02	41.689	9.7828e-06	52.062	149.681	92.001	67.656	-5.278	149.230	133.970	-5.082	-0.516	185.358	131.399	-1.087	3.653	4.064	8.401	153.845	7.585	-8191	255	
624.748	1	1	0	0	0.15847	0.26051	0.096108	0.1987	0.12923	0.18627	0.28528	0.18356	0.19381	0.056205	0.28938	0.10038	0.18074	0.069771	0.013089	0.086164	-2.9042	-3.1583	-3.0104	-3.6083	-3.0979	-3.3646	-3.4792	-3.3646	-3.4417	-3.4396	-3.1958	-3.4437	-3.1125	-3.4604	-3.3104	-3.3187	151.053	191.109	3.318	288.706	164.904	2.583	299.445	-17.376	55.673	201.292	284.154	313.430	331.079	313.751	247.094	195.410	0.00021103	0.00055056	0.00014687	1286	4.2556e-06	5.1234e-06	1284.7	352.1	2.9041e-06	5.0252e-06	405.31	134.52	115.79	40.776	3.2585e-06	50.826	0.00073862	0.00092272	0.00025431	1296.2	9.6553e-06	1.007e-05	1298.7	357.95	9.7724e-06	9.8825e-06	411.68	138.49	119.16	41.752	1.0026e-05	52.079	159.509	69.971	41.687	-5.279	147.504	142.549	-5.022	-0.493	172.200	86.102	-1.319	3.566	3.861	8.200	99.729	7.994	-8191	255	
624.842	1	1	0	0	0.28315	0.19342	0.059688	0.10804	0.23501	0.25161	0.21821	0.22835	0.14023	0.12114	0.061337	0.098546	0.359	0.22234	0.23699	0.23564	-2.9833	-3.3729	-3.1083	-3.8021	-3.1583	-3.3354	-3.5125	-3.4062	-3.3521	-3.4542	-3.2562	-3.6708	-3.1479	-3.4333	-3.6104	-3.1854	181.300	338.089	280.839	195.990	15.427	223.550	272.495	311.270	56.659	217.865	237.595	294.468	21.130	312.909	88.666	7.104	0.00019001	0.00065839	0.00016131	1285.9	4.2554e-06	8.0285e-06	1287.3	353.09	2.9172e-06	6.1117e-06	407.5	134.43	116.04	40.666	4.3593e-06	50.879	0.00073633	0.0009007	0.00025258	1297	9.876e-06	9.951e-06	1298.3	358.16	9.7358e-06	1.0194e-05	412.04	138.67	119.22	41.712	1.0078e-05	52.1	153.613	61.362	53.406	-5.303	158.109	127.582	-5.047	-0.692	156.861	146.851	-1.039	3.504	4.067	8.493	163.402	7.516	-8191	255	
624.938	1	1	0	0	0.2181	0.21554	0.1317	0.093829	0.20335	0.18752	0.27426	0.28435	0.23807	0.18454	0.17846	0.17329	0.13833	0.30296	0.086657	0.37602	-2.925	-3.1396	-3.2021	-3.3604	-3.2646	-3.275	-3.5687	-3.2375	-3.475	-3.3083	-3.1542	-3.5583	-3.1708	-3.2396	-3.4354	-3.3021	175.114	29.797	109.166	185.745	161.319	101.504	270.642	297.852	206.351	235.778	299.619	137.129	31.804	313.125	293.653	277.958	0.00021705	0.0005732	0.00015953	1288.9	4.1639e-06	5.2945e-06	1289.3	352.28	3.4802e-06	2.9581e-06	406.03	134.92	115.84	40.884	2.8565e-06	51.2	0.00075079	0.00094175	0.00026407	1299.6	1.0139e-05	1.0366e-05	1300.7	358.78	1.022e-05	1.0428e-05	413.05	138.89	119.45	41.784	1.0277e-05	52.183	153.116	47.753	73.802	-5.260	163.072	128.648	-5.063	-0.637	151.459	112.115	-0.946	3.376	4.115	8.377	121.138	7.699	-8191	255	
625.034	1	1	0	0	0.16755	0.17254	0.13759	0.12904	0.21949	0.2992	0.42692	0.24645	0.085669	0.25614	0.090056	0.09762	0.19165	0.17013	0.07517	0.12095	-2.7188	-3.3854	-3.0208	-3.675	-3.1646	-3.0896	-3.6979	-3.2583	-3.3229	-3.4229	-3.375	-3.4625	-3.3125	-3.0917	-3.4958	-3.1688	168.345	150.944	257.968	315.528	202.333	261.690	318.946	275.220	310.278	281.388	264.267	23.507	323.875	242.404	118.157	199.956	0.00021733	0.00043035	0.00014403	1292.6	2.4307e-06	5.5985e-06	1287.3	352.42	3.1774e-06	6.1398e-06	407.38	134.58	115.03	40.597	5.5895e-06	50.775	0.00075983	0.0009488	0.00026485	1300.1	1.0189e-05	1.047e-05	1299.3	358.21	1.0137e-05	1.0291e-05	412.29	138.56	118.97	41.701	9.996e-06	51.957	154.760	48.181	71.541	-5.221	160.085	131.514	-5.091	-0.616	131.948	110.075	-1.219	3.488	3.985	8.285	191.305	7.670	-8191	255	
625.130	1	1	0	0	0.067925	0.068294	0.070367	0.12105	0.39557	0.088667	0.22774	0.075607	0.2286	0.08607	0.22651	0.18742	0.1554	0.29682	0.27267	0.19208	-2.8	-3.4792	-3.0062	-3.7083	-3.4208	-3.15	-3.6104	-3.425	-3.2875	-3.3146	-3.0708	-3.4583	-3.3646	-3.2188	-3.2271	-3.2896	1.657	69.747	136.751	304.294	122.165	48.701	271.724	278.592	51.549	203.012	263.629	-10.926	307.560	192.462	183.547	258.055	0.00022732	0.00047722	7.4487e-05	1280.9	4.8224e-06	6.1566e-06	1281.2	351.74	4.0173e-06	2.1877e-06	404.6	134.6	114.94	40.738	5.077e-06	50.763	0.00074092	0.00092943	0.00026043	1295.6	9.8708e-06	1.0304e-05	1296.2	358.49	9.9691e-06	1.0151e-05	412.13	138.77	118.96	41.698	1.0062e-05	52.032	156.471	50.300	84.821	-5.262	167.333	126.400	-5.172	-0.499	180.855	156.113	-1.071	3.379	3.948	8.451	166.672	7.852	-8191	255	
625.227	1	1	0	0	0.17903	0.051742	0.22383	0.14312	0.10176	0.23177	0.30154	0.26034	0.24781	0.13146	0.11383	0.3983	0.22327	0.1006	0.053118	0.25549	-2.8229	-3.3708	-3.0583	-3.6125	-3.4521	-3.2229	-3.5958	-3.4521	-3.1104	-3.3688	-3.5	-3.4437	-3.3667	-3.2396	-3.2729	-3.5187	305.486	207.945	83.345	170.916	286.588	281.923	299.430	303.751	157.964	130.287	326.406	309.256	281.316	284.683	58.849	311.498	0.00020701	0.00046673	0.000115	1286.9	2.1094e-06	3.4448e-06	1282	352.87	1.2933e-06	4.0729e-06	406.18	134.32	115.44	40.647	3.3097e-06	50.942	0.00075667	0.00092302	0.00025865	1296.3	1.0009e-05	1.0375e-05	1295.6	358.16	9.9897e-06	1.0202e-05	412.16	138.59	119.19	41.646	1.0126e-05	52.049	147.980	86.934	52.959	-5.337	159.100	131.297	-5.106	-0.474	173.705	148.251	-1.314	3.536	3.850	8.270	184.403	7.848	-8191	255	
625.323	1	1	0	0	0.32593	0.13555	0.12807	0.31621	0.15665	0.22937	0.32233	0.18263	0.13852	0.23229	0.075804	0.13475	0.10101	0.080687	0.20574	0.21305	-2.8458	-3.475	-3.3646	-3.2875	-3.3271	-3.2646	-3.6042	-3.5312	-3.2229	-3.4771	-3.2292	-3.3229	-3.4292	-3.0625	-3.425	-3.5125	38.255	335.413	122.133	238.236	264.018	268.523	301.744	271.997	337.051	127.486	77.773	299.415	233.012	-7.045	89.880	12.237	0.00021211	0.00082479	0.00016291	1283.3	1.6165e-06	5.4081e-06	1282.1	352.45	1.4052e-06	7.9968e-06	406.71	134.28	115.75	40.545	3.2352e-06	50.599	0.00074967	0.00094383	0.00026031	1295.6	9.83e-06	1.0254e-05	1296	358.26	9.7444e-06	1.0242e-05	412.64	138.68	119.17	41.696	9.9224e-06	52.008	161.286	63.104	92.951	-5.076	123.291	143.196	-5.110	-0.487	196.836	124.809	-1.104	3.379	4.013	8.190	144.318	7.418	-8191	255	
625.443	1	1	0	0	0.066631	0.11276	0.16811	0.074581	0.097639	0.1693	0.11547	0.30459	0.27634	0.14402	0.30978	0.15026	0.22096	0.17066	0.10732	0.01664	-2.6813	-3.4792	-3.1	-3.3354	-3.4542	-3.3396	-3.3688	-3.4854	-3.0979	-3.6333	-3.275	-3.3708	-3.3083	-3.3958	-3.4604	-3.5375	74.358	218.481	182.447	89.784	257.570	200.099	306.941	307.222	4.898	273.437	263.894	160.731	5.640	298.913	220.967	106.724	0.00022217	0.00044158	0.00017853	1288.5	5.0736e-06	6.0273e-06	1286	351.85	1.8373e-06	6.0698e-06	406.04	134.7	115.97	40.647	3.5108e-06	50.828	0.00074864	0.00091992	0.00025817	1298.5	9.8404e-06	1.0148e-05	1298.8	358.12	1.0007e-05	1.0376e-05	412.31	138.8	119.24	41.722	9.9814e-06	52.096	152.260	77.573	78.444	-5.389	156.244	163.074	-5.170	-0.477	135.083	102.471	-0.976	3.525	4.031	8.323	144.244	7.851	-8191	255	
625.539	1	1	0	0	0.071805	0.21772	0.21418	0.16298	0.22943	0.33308	0.1099	0.15239	0.30072	0.11953	0.012069	0.13232	0.18937	0.18419	0.10269	0.27456	-2.7583	-3.4083	-3.2812	-3.3333	-3.5417	-3.1479	-3.5417	-3.5771	-3.1417	-3.5771	-3.5812	-3.2854	-3.4229	-3.3104	-3.3208	-3.5083	179.635	2.913	53.729	-8.626	202.265	207.477	142.556	240.540	304.528	240.308	4.231	226.152	59.805	10.494	46.218	269.742	0.00020849	0.00035562	0.00018556	1288.8	3.0445e-06	8.4189e-06	1285.9	352.22	1.5466e-06	5.566e-06	405.42	134.06	115.92	40.812	6.1175e-06	50.763	0.00073738	0.0009326	0.00025937	1297.8	9.7846e-06	1.0157e-05	1298.1	358.45	9.7529e-06	1.0089e-05	412.65	138.78	119.22	41.753	1.0022e-05	52.082	157.228	40.624	82.064	-5.222	184.166	160.340	-4.869	-0.559	187.091	123.740	-1.151	3.429	3.974	8.297	144.174	7.509	-8191	255	
625.636	1	1	0	0	0.25459	0.11968	0.29154	0.27924	0.036797	0.051337	0.42684	0.22688	0.25958	0.13746	0.1093	0.11587	0.14637	0.17573	0.042911	0.094751	-2.725	-3.2917	-3.1562	-3.2396	-3.5479	-3.3729	-3.3937	-3.7167	-2.9958	-3.5604	-3.3875	-3.2083	-3.3271	-3.275	-3.0646	-3.4125	313.226	232.878	312.343	287.765	279.813	319.457	217.987	294.215	304.751	23.955	45.711	282.859	265.361	276.551	101.156	273.017	0.00023607	0.00042864	0.00022538	1288.8	3.9272e-06	4.1579e-06	1283.4	352.42	2.032e-06	3.7732e-06	406.42	134.29	116.15	40.634	3.4116e-06	50.649	0.00074181	0.00092003	0.00025748	1297.7	9.8044e-06	1.0098e-05	1298.8	358.27	9.9807e-06	1.0008e-05	411.92	138.7	119.26	41.563	1.008e-05	52.02	152.019	67.895	89.179	-5.218	147.017	157.820	-5.045	-0.676	239.766	129.397	-1.158	3.557	3.870	8.229	160.937	7.619	-8191	255	
625.732	1	1	0	0	0.094763	0.11188	0.0071056	0.16082	0.029668	0.11085	0.383	0.04038	0.21135	0.12418	0.19637	0.10383	0.073345	0.26873	0.20095	0.098128	-2.5646	-3.2521	-3.2667	-3.5187	-3.3271	-3.2938	-3.3417	-3.675	-2.9417	-3.4021	-3.3417	-3.1521	-3.275	-3.4042	-3.0125	-3.6583	144.068	321.214	103.882	257.377	42.359	300.518	294.665	260.813	266.850	337.821	309.961	280.694	30.950	284.553	313.777	178.042	0.0002173	0.00055061	0.00011723	1286.2	2.5533e-06	2.1914e-06	1284.2	352.22	2.1895e-06	4.774e-06	407.31	134.56	115.72	40.668	3.0103e-06	50.777	0.0007424	0.00091911	0.00025191	1296.7	9.7634e-06	1.0112e-05	1297.6	357.9	9.7309e-06	9.9974e-06	412.28	138.5	119.05	41.746	9.8701e-06	52.001	160.703	71.579	58.056	-5.155	134.687	159.796	-5.094	-0.607	156.400	163.539	-1.131	3.479	3.913	8.359	151.010	7.714	-8191	255	
625.828	1	1	0	0	0.25377	0.10756	0.1864	0.14419	0.23171	0.12698	0.076888	0.22842	0.1011	0.17109	0.10562	0.11712	0.11348	0.020401	0.18758	0.16328	-2.7021	-3.4125	-3.3563	-3.3271	-3.3667	-3.3292	-3.2479	-3.7146	-3.2292	-3.2875	-3.4229	-3.3375	-3.4333	-3.3604	-3.1833	-3.3979	82.471	74.512	282.849	97.071	269.852	73.398	169.131	241.325	305.354	146.018	-9.335	304.995	114.669	79.604	142.396	325.833	0.00021517	0.00065234	0.00015977	1282.6	1.8227e-06	3.5684e-06	1287.2	352.5	3.1325e-06	4.7345e-06	408.21	134.84	115.39	40.67	5.2844e-06	50.819	0.00073756	0.00091095	0.00025236	1295.5	9.7787e-06	1.0086e-05	1298.6	358.38	9.8116e-06	1.0237e-05	412.14	138.82	119.02	41.628	9.9402e-06	52.075	156.139	103.542	66.353	-5.361	139.927	145.160	-5.046	-0.385	162.225	134.576	-1.140	3.598	3.652	8.384	148.698	7.852	-8191	255	
625.922	1	1	0	0	0.21019	0.10065	0.14105	0.48462	0.33784	0.1978	0.26689	0.039547	0.17119	0.14862	0.12276	0.18751	0.25684	0.39177	0.10438	0.31987	-2.7375	-3.1896	-3.3125	-3.425	-3.3937	-3.3229	-3.2958	-3.5667	-3.1333	-3.1688	-3.4854	-3.2042	-3.3146	-3.475	-3.1417	-3.6146	160.486	326.362	125.079	326.232	338.595	47.949	259.234	42.155	109.286	-17.192	14.382	328.648	266.428	268.388	98.329	-7.628	0.00023865	0.00063694	0.00012428	1283.2	4.7899e-06	4.7227e-06	1285.2	352.79	2.8066e-06	1.5582e-06	405.31	134.27	115.37	40.681	1.4899e-06	50.516	0.00073284	0.00092194	0.00025155	1294.5	9.7764e-06	9.9004e-06	1295.6	358.13	9.7968e-06	1.0116e-05	412.09	138.73	119.07	41.611	9.859e-06	51.95	150.139	85.556	47.182	-5.338	142.903	119.535	-5.146	-0.551	176.767	208.654	-1.069	3.386	4.144	8.209	105.717	7.783	-8191	255	
626.043	1	1	0	0	0.20031	0.12492	0.080941	0.39911	0.16811	0.23658	0.24373	0.22519	0.14599	0.24941	0.037963	0.23536	0.096555	0.15482	0.099709	0.11818	-2.8229	-3.3042	-3.4229	-3.5104	-3.4458	-3.5271	-3.2	-3.6375	-3.3292	-3.3958	-3.6021	-3.2667	-3.4771	-3.575	-3.125	-3.6042	67.732	334.042	121.376	298.836	335.605	292.773	231.378	296.861	279.978	13.228	76.868	9.623	340.927	12.584	121.665	263.940	0.00020206	0.00079626	0.00010753	1284.9	4.4693e-06	4.924e-06	1282.7	352.28	3.6831e-06	1.5116e-06	404.75	134	115.21	40.674	2.0772e-06	50.634	0.00074588	0.00091397	0.00025414	1295.1	9.7564e-06	1.0035e-05	1295.4	357.6	9.7215e-06	1.0145e-05	411.78	138.42	118.95	41.632	9.8603e-06	51.94	156.751	65.450	115.165	-5.195	174.189	143.599	-5.034	-0.648	168.370	156.078	-1.233	3.482	4.081	8.376	142.233	7.793	-8191	255	
626.139	1	1	0	0	0.067632	0.14321	0.025447	0.31728	0.067882	0.12707	0.19627	0.2856	0.24253	0.10515	0.29133	0.41987	0.26114	0.11829	0.2809	0.20315	-2.9562	-3.025	-3.4167	-3.5958	-3.525	-3.5229	-3.4542	-3.5479	-3.4417	-3.2417	-3.6458	-3.4729	-3.4042	-3.6458	-3.2042	-3.6542	216.204	173.546	164.512	287.164	197.790	144.094	324.694	332.935	330.705	82.074	269.512	283.627	299.225	51.618	245.058	37.250	0.00019864	0.0005237	0.00022063	1285.2	4.3687e-06	6.2468e-06	1281.9	352.09	2.2456e-06	4.7519e-06	405.63	134.45	115.3	40.628	2.771e-06	50.735	0.00074169	0.00092887	0.00025361	1296.2	9.8143e-06	1.0102e-05	1294.5	357.87	9.6617e-06	1.0083e-05	411.73	138.38	118.88	41.579	1.0146e-05	51.977	152.862	61.615	81.033	-5.043	184.112	142.146	-4.982	-0.544	153.713	144.322	-1.188	3.418	3.631	8.326	190.475	7.794	-8191	255	
626.235	1	1	0	0	0.11949	0.15468	0.088612	0.32893	0.10336	0.1876	0.17307	0.057326	0.28883	0.14524	0.12486	0.23541	0.21394	0.12836	0.10528	0.17114	-3.0396	-3.2542	-3.7333	-3.625	-3.425	-3.4792	-3.4917	-3.6833	-3.55	-3.3438	-3.4208	-3.3937	-3.4042	-3.6312	-3.3521	-3.5	90.995	235.488	47.070	310.553	144.784	27.873	252.957	336.442	181.873	-8.561	48.320	309.936	334.716	264.164	159.615	26.347	0.00021619	0.00069432	0.00012921	1282.2	4.4207e-06	4.6313e-06	1284.2	352	9.9263e-07	8.9548e-06	406.32	134.12	115.15	40.654	4.7783e-06	50.585	0.00073542	0.0009111	0.00025399	1295.4	9.966e-06	1.0073e-05	1295.6	357.96	9.6489e-06	1.0014e-05	412.01	138.5	118.93	41.663	1.028e-05	51.995	158.748	72.655	55.016	-5.321	159.612	140.894	-5.121	-0.617	215.809	135.238	-1.230	3.575	3.919	8.376	153.967	7.697	-8191	255	
626.307	1	1	0	0	0.19736	0.2009	0.27794	0.068415	0.12239	0.15484	0.11326	0.1561	0.15071	0.26059	0.29254	0.12466	0.11738	0.20434	0.076432	0.24004	-3.0792	-3.1375	-3.5312	-3.4042	-3.0604	-3.5771	-3.3667	-3.6063	-3.4813	-3.3083	-3.7229	-3.6021	-3.2729	-3.6063	-3.4562	-3.4958	127.490	115.000	197.097	265.690	95.798	35.513	317.524	242.928	236.261	244.778	201.229	-0.035	320.191	158.536	325.135	255.566	0.00018788	0.00077853	0.00015048	1286.5	5.5408e-06	5.1305e-06	1288.1	352.93	2.2183e-06	2.3611e-06	404.06	134.31	115.64	40.65	2.4691e-06	50.705	0.00074846	0.00092285	0.0002585	1295.6	9.8413e-06	1.026e-05	1299.1	358.68	1.012e-05	1.037e-05	411.74	138.45	119.16	41.66	1.0284e-05	51.977	154.718	74.266	78.722	-5.234	160.950	101.573	-4.988	-0.526	154.539	83.103	-1.133	3.471	3.902	8.328	171.783	7.683	-8191	255	
626.428	1	1	0	0	0.26251	0.098236	0.068861	0.25726	0.13019	0.20716	0.13708	0.19665	0.12997	0.050882	0.15854	0.42792	0.042768	0.23819	0.04996	0.031885	-3.1625	-3.1063	-3.4667	-3.5938	-3.3187	-3.5062	-3.4333	-3.5625	-3.3563	-3.35	-3.6917	-3.5875	-3.3667	-3.5875	-3.3208	-3.5646	186.894	0.802	168.841	272.725	221.213	98.127	215.600	269.780	35.022	306.552	306.921	330.857	40.461	328.125	296.580	266.617	0.00021029	0.00056024	0.00015037	1287.5	3.2849e-06	4.7104e-06	1287.4	352.72	3.8767e-06	5.1598e-06	406.72	134.37	115.7	40.716	7.5788e-06	50.784	0.00075713	0.00096622	0.0002717	1298.6	1.0059e-05	1.0572e-05	1300.3	358.45	1.0295e-05	1.0703e-05	412.71	138.43	119.16	41.687	1.0504e-05	51.975	156.431	67.350	79.456	-5.332	152.934	119.812	-5.086	-0.486	187.459	141.353	-1.141	3.351	3.988	8.218	156.181	7.712	-8191	255	
626.524	1	1	0	0	0.26874	0.16399	0.11755	0.28213	0.32097	0.14172	0.32919	0.18998	0.14743	0.077221	0.15961	0.2907	0.10142	0.2067	0.25599	0.056611	-3.2271	-2.9771	-3.4458	-3.4167	-3.3937	-3.4562	-3.5708	-3.3396	-3.7125	-3.4667	-3.4458	-3.4167	-3.2958	-3.4354	-3.3146	-3.45	324.665	242.167	306.956	-11.092	113.741	155.020	263.196	249.367	10.695	227.922	251.314	-9.337	-3.945	40.085	168.159	-6.442	0.0002172	0.00027296	0.00013374	1284.8	3.7939e-06	7.1536e-06	1285.3	352.57	3.3787e-06	6.476e-06	405.58	133.82	115.54	40.612	4.9403e-06	50.789	0.00075427	0.00097282	0.00026716	1298.7	1.0309e-05	1.0582e-05	1300.4	357.94	1.0231e-05	1.0558e-05	412.07	138.27	119.2	41.603	1.047e-05	51.902	162.380	0.954	84.852	-5.322	154.609	110.647	-5.190	-0.416	176.352	142.505	-1.259	3.400	4.042	8.534	152.480	7.858	-8191	255	
626.620	1	1	0	0	0.20257	0.03632	0.11085	0.37989	0.062614	0.068551	0.26431	0.42768	0.11012	0.15661	0.15244	0.14349	0.030648	0.39866	0.077557	0.19488	-3.2667	-3.3396	-3.3271	-3.5833	-3.0312	-3.3958	-3.5521	-3.3708	-3.5563	-3.3604	-3.2479	-3.5938	-3.2917	-3.675	-3.3667	-3.3021	147.584	328.522	137.657	324.071	57.214	126.986	257.135	288.315	-10.840	125.842	132.029	42.907	243.440	311.704	151.623	282.712	0.0002133	0.00057963	0.00014368	1283.5	3.8385e-06	5.0318e-06	1281	349.69	3.5451e-06	3.2095e-06	405.23	134.03	115.12	40.488	3.6425e-06	50.483	0.00077589	0.00097395	0.00026361	1293.9	1.0246e-05	1.0572e-05	1295	356.53	1.0185e-05	1.048e-05	410.81	138	118.52	41.407	1.0511e-05	51.783	159.375	63.046	75.189	-5.183	155.347	90.215	-5.083	-0.439	178.317	103.346	-1.073	3.814	3.994	8.287	147.154	7.711	-8191	255	
626.716	1	1	0	0	0.25112	0.1791	0.32361	0.11986	0.19808	0.1145	0.27638	0.21692	0.20441	0.25307	0.13089	0.23667	0.14462	0.070699	0.12157	0.16962	-3.0417	-3.1604	-3.2062	-3.7812	-3.1937	-3.1688	-3.5917	-3.2792	-3.5979	-3.1771	-3.5167	-3.725	-3.2438	-3.6437	-3.3542	-3.3521	167.646	125.421	272.330	-2.873	-0.902	19.915	233.712	243.979	36.529	119.031	269.412	250.849	181.557	1.111	82.037	254.121	0.00022139	0.00041463	0.00012359	1279.4	3.5128e-06	5.238e-06	1279.5	350.96	3.3388e-06	3.7707e-06	403.79	133.99	115.51	40.482	5.4024e-06	50.576	0.00077447	0.00097413	0.00027164	1291.7	1.0368e-05	1.0649e-05	1293.4	356.86	1.0275e-05	1.0811e-05	410.57	138.13	118.81	41.469	1.0428e-05	51.722	154.489	77.822	88.417	-5.161	162.886	120.212	-5.121	-0.638	143.557	145.824	-1.313	3.530	3.947	8.477	174.890	7.611	-8191	255	
626.835	1	1	0	0	0.1791	0.20653	0.25168	0.20043	0.14407	0.079031	0.10927	0.30609	0.042025	0.22635	0.064223	0.22179	0.33664	0.025699	0.088323	0.13004	-3.0396	-3.4104	-3.2625	-3.7083	-3.1792	-3.35	-3.7375	-3.2375	-3.3542	-3.4	-3.5854	-3.2667	-3.2604	-3.3688	-3.4542	-3.2083	335.420	-11.985	258.348	250.250	86.850	258.551	313.264	300.783	268.993	203.444	290.545	319.860	12.540	183.099	33.700	224.150	0.00019082	0.00047363	0.00013381	1280.7	2.7553e-06	5.3926e-06	1281.3	350.65	7.527e-07	3.4371e-06	404.32	133.99	114.34	40.438	4.1343e-06	50.482	0.00078463	0.0009632	0.00026782	1293.1	1.0598e-05	1.0791e-05	1293.5	357.23	1.0274e-05	1.0539e-05	410.08	137.95	118.39	41.386	1.0379e-05	51.75	151.804	93.257	94.029	-5.207	187.061	139.081	-5.017	-0.557	187.466	134.252	-0.937	3.437	3.862	8.231	152.360	7.860	-8191	255	
626.931	1	1	0	0	0.084402	0.35184	0.14362	0.23073	0.15154	0.051528	0.27587	0.10456	0.074224	0.19875	0.083737	0.15013	0.20037	0.16282	0.045801	0.0090394	-3.275	-3.3646	-3.3688	-3.5417	-3.3021	-3.2604	-3.7208	-3.3792	-3.3625	-3.5708	-3.325	-3.6125	-3.2	-3.3875	-3.5083	-3.3958	248.444	108.040	293.991	254.726	252.910	204.848	236.058	-6.665	316.331	71.522	23.364	244.824	116.524	252.926	175.709	165.560	0.00021517	0.0004647	0.00021885	1283.5	2.9566e-06	5.2395e-06	1280.9	351.39	3.327e-06	3.7593e-06	405.17	133.47	114.3	40.401	2.4823e-06	50.388	0.00076705	0.00096018	0.00027419	1292.6	1.0242e-05	1.0651e-05	1292.4	357.25	1.035e-05	1.0683e-05	410.49	137.9	118.39	41.456	1.0186e-05	51.765	146.222	112.249	86.038	-5.122	160.367	132.539	-5.045	-0.560	198.994	132.989	-1.179	3.500	3.729	8.475	113.384	7.870	-8191	255	
627.004	1	1	0	0	0.31013	0.070106	0.17669	0.28753	0.15717	0.16464	0.3615	0.177	0.0097836	0.18011	0.13463	0.050542	0.21617	0.20301	0.1209	0.10751	-3.0354	-3.2354	-3.1167	-3.8229	-3.3292	-3.4313	-3.6958	-3.3896	-3.6146	-3.3438	-3.3104	-3.5146	-3.4813	-3.5521	-3.5729	-3.3729	275.984	219.714	59.973	249.925	26.646	111.307	291.214	7.843	163.852	301.456	311.970	-17.316	-4.916	339.861	26.229	224.267	0.00022405	0.00042361	8.1426e-05	1280.3	2.7986e-06	5.3997e-06	1279.2	351.11	2.7771e-06	4.6834e-06	403.27	133.77	115.21	40.452	5.7589e-06	50.539	0.00076511	0.00095851	0.00026857	1290.9	1.0275e-05	1.0535e-05	1291.4	356.78	1.0196e-05	1.0494e-05	410.24	137.77	118.65	41.437	1.0478e-05	51.761	157.065	44.743	65.628	-5.294	187.201	147.099	-5.148	-0.682	175.427	103.875	-1.114	3.591	3.944	8.339	146.963	7.806	-8191	255	
627.123	1	1	0	0	0.059549	0.37073	0.056636	0.28277	0.31163	0.19381	0.34465	0.18024	0.1133	0.07406	0.36627	0.19275	0.057858	0.16952	0.16626	0.17127	-2.9792	-3.3708	-3.2542	-3.675	-3.2708	-3.4688	-3.5354	-3.375	-3.2562	-3.7021	-3.5646	-3.6312	-3.3646	-3.4125	-3.6396	-3.3646	11.673	182.060	86.422	254.169	115.452	198.343	257.384	241.015	18.401	294.551	329.448	-13.905	264.943	31.384	191.190	271.470	0.00022031	0.00055092	0.00024887	1283.7	4.7682e-06	5.7265e-06	1281.1	351.08	1.9722e-06	6.253e-06	405.22	134.33	115.11	40.349	5.522e-06	50.386	0.00076403	0.00095291	0.00026738	1292.7	1.0201e-05	1.0378e-05	1293.5	357.11	1.0303e-05	1.0674e-05	410.68	138.07	118.67	41.397	1.0518e-05	51.717	162.657	62.351	81.087	-5.225	146.976	138.052	-5.112	-0.457	106.335	157.032	-1.196	3.558	3.895	8.279	158.543	7.714	-8191	255	
627.219	1	1	0	0	0.031458	0.37278	0.22686	0.039294	0.39359	0.059047	0.2051	0.31915	0.091054	0.10521	0.23182	0.28729	0.11562	0.19892	0.11577	0.36624	-3.05	-3.4417	-3.1542	-3.6833	-3.4146	-3.3771	-3.6771	-3.4417	-3.0729	-3.5042	-3.4437	-3.3146	-3.5792	-3.2521	-3.5458	-3.4708	39.803	182.941	68.099	64.878	203.931	-11.390	299.591	271.663	337.535	242.637	311.046	253.808	234.254	303.408	58.755	338.475	0.00021394	0.0004077	0.00012989	1278.4	3.2632e-06	4.3804e-06	1285.2	351.41	3.2938e-06	3.8185e-06	404.61	133.65	115.08	40.414	5.1594e-06	50.607	0.00076362	0.00096494	0.00027169	1292.6	1.0187e-05	1.0789e-05	1295.1	357.32	1.0365e-05	1.0644e-05	411.03	138.15	118.91	41.491	1.0394e-05	51.802	162.050	42.589	66.866	-5.362	142.160	171.017	-5.082	-0.508	164.659	107.557	-1.099	3.389	4.128	8.375	158.529	7.566	-8191	255	
627.316	1	1	0	0	0.031055	0.13891	0.1712	0.3649	0.036027	0.24026	0.20559	0.2355	0.13346	0.1561	0.15221	0.091396	0.063458	0.071981	0.20642	0.045697	-2.9104	-3.4875	-3.2854	-3.6146	-3.4125	-3.3563	-3.9292	-3.3875	-3.4667	-3.5438	-3.3521	-3.3708	-3.55	-3.2667	-3.3479	-3.6271	110.938	292.289	36.216	288.689	248.270	226.727	211.481	242.092	312.409	172.907	239.163	240.445	29.263	266.762	16.789	94.286	0.00020119	0.00053039	8.6026e-05	1288.1	4.4961e-06	4.7773e-06	1280.9	351.31	2.6247e-06	3.9361e-06	404.74	134.15	114.94	40.509	3.6018e-06	50.383	0.0007663	0.00096533	0.00026882	1295.7	1.0209e-05	1.0547e-05	1294.3	357.38	1.0214e-05	1.0668e-05	411.48	138.31	118.84	41.478	1.0441e-05	51.736	161.599	60.517	46.883	-5.179	165.109	122.906	-5.126	-0.612	176.191	129.837	-1.055	3.505	3.870	8.263	170.484	7.786	-8191	255	
627.412	1	1	0	0	0.11661	0.098711	0.035752	0.20497	0.18645	0.11482	0.42748	0.25919	0.037445	0.10023	0.19081	0.23997	0.32176	0.10436	0.042195	0.21235	-2.9188	-3.4583	-3.0875	-3.7104	-3.35	-3.4854	-3.6458	-3.4104	-3.4771	-3.3542	-3.575	-3.2375	-3.5104	-3.2313	-3.3917	-3.5833	130.258	236.927	82.139	264.567	264.020	85.041	323.608	314.743	131.558	7.482	-3.873	29.133	115.946	85.208	162.958	324.043	0.00020937	0.00059575	0.00014825	1285.8	6.4904e-06	3.6187e-06	1285.4	352.16	2.9555e-06	2.8089e-06	404.15	134.33	114.73	40.544	5.6528e-06	50.451	0.00077823	0.00097984	0.00026961	1295.5	1.0277e-05	1.0934e-05	1295.8	358.14	1.0487e-05	1.0793e-05	411.09	138.39	118.69	41.542	1.0671e-05	51.797	156.283	73.253	76.753	-5.133	147.330	185.617	-5.093	-0.573	107.411	87.158	-1.144	3.390	4.086	8.419	138.847	7.754	-8191	255	
627.532	1	1	0	0	0.21499	0.11201	0.28945	0.23676	0.17148	0.073261	0.31516	0.064326	0.05921	0.23225	0.13094	0.32071	0.21415	0.2017	0.2565	0.092433	-2.8292	-3.5396	-3.0771	-3.3563	-3.5563	-3.3729	-3.4562	-3.4875	-3.2458	-3.5146	-3.6229	-3.2917	-3.6042	-3.3542	-3.4167	-3.5271	32.819	-0.026	50.372	66.847	227.802	109.357	318.770	333.672	66.246	317.105	336.618	316.324	55.374	306.229	183.615	-11.092	0.00023641	0.00055468	0.00019107	1284.9	4.6315e-06	4.9261e-06	1281.6	350.7	1.667e-06	5.7068e-06	403.88	133.69	115.28	40.429	5.3069e-06	50.283	0.00078197	0.0009852	0.00027372	1295.1	1.033e-05	1.0745e-05	1295.9	357.33	1.0271e-05	1.0707e-05	410.99	138.07	118.67	41.379	1.0641e-05	51.755	162.331	72.576	76.293	-5.245	149.691	121.920	-5.032	-0.367	164.366	153.112	-1.115	3.566	3.903	8.067	130.126	7.839	-8191	255	
627.604	1	1	0	0	0.21241	0.1745	0.12659	0.16237	0.18415	0.036185	0.32511	0.15545	0.11313	0.032588	0.17227	0.12178	0.22441	0.13307	0.23892	0.13409	-2.7687	-3.4938	-3.3063	-3.6104	-3.6063	-3.3292	-3.4125	-3.65	-3.2771	-3.525	-3.4396	-3.3688	-3.6271	-3.2667	-3.3146	-3.6083	263.422	33.312	134.496	285.100	313.826	339.129	255.822	334.605	326.226	71.947	266.206	279.081	326.556	260.127	166.384	258.049	0.00021534	0.0005608	0.00019681	1286.1	5.284e-06	4.7395e-06	1287.7	351.64	2.0788e-06	5.4369e-06	405.36	133.88	115.52	40.534	5.7926e-06	50.525	0.00078004	0.00098609	0.00027202	1296.1	1.0332e-05	1.0717e-05	1297.6	357.48	1.0328e-05	1.0686e-05	411.93	138.12	118.78	41.505	1.0621e-05	51.797	155.872	60.222	57.808	-5.334	163.168	133.075	-5.111	-0.531	175.767	125.189	-1.267	3.296	3.997	8.335	146.781	7.742	-8191	255	
627.725	1	1	0	0	0.071665	0.23204	0.1837	0.15143	0.25064	0.02598	0.17257	0.27601	0.11756	0.11758	0.13867	0.12929	0.025706	0.289	0.20053	0.22626	-2.8979	-3.4854	-3.3979	-3.2875	-3.5167	-3.1979	-3.6396	-3.7292	-3.3375	-3.4354	-3.6229	-3.3667	-3.7271	-3.5208	-3.3333	-3.5	323.957	230.388	307.490	289.473	75.638	79.867	324.699	254.617	129.724	138.747	267.838	208.393	100.695	-7.713	107.599	334.959	0.00019858	0.00029627	9.2667e-05	1284.2	3.8828e-06	2.8681e-06	1286.6	352.23	4.9894e-06	3.6732e-06	405.92	133.89	114.89	40.594	4.4635e-06	50.631	0.00078035	0.00097634	0.00027319	1296.5	1.0483e-05	1.0798e-05	1299.7	358.13	1.0403e-05	1.05e-05	412.15	138.18	118.68	41.522	1.057e-05	51.792	160.154	79.566	116.903	-5.160	169.083	157.834	-5.100	-0.649	169.481	169.199	-1.076	3.535	3.876	8.162	154.266	7.872	-8191	255	
#DATA ENDS
