BOXY.EXE: ISS Imagent and Oximeter Data Acquisition Program Version 0.80
Ascii Record File

#ACQ INFORMATION
2  Detector Channels 
16  External MUX Channels 
1  Auxiliary Channels 
5000  Waveform (CCF) Frequency (Hz)
1  Waveforms Skipped 
30  Waveforms Averaged 
1  Cycles Averaged 
16  Acquisitions per Waveform 
10.0806  Updata Rate (Hz) 

#FILE INFORMATION
TRUE -- External MUX Channel results are PARSED.
FALSE -- AC DC and Phase are NOT grouped.
TRUE -- Companion Program Settings File CREATED.
FALSE -- AC data not excluded
FALSE -- DC data not excluded
FALSE -- Phase data not excluded
FALSE -- Auxillary Chn. data not excluded
Tab delimiters

#CALIBRATION STATE
TRUE -- Waveform Calibration Values APPLIED.


#AUX CALIBRATION VALUES
Val Type	aux-1	

Term	1.0000e+00	
Factor	0.0000e+00	


#WF CALIBRATION VALUES
A = Detector Channel
Val Type	A-AC1	A-AC2	A-AC3	A-AC4	A-AC5	A-AC6	A-AC7	A-AC8	A-AC9	A-AC10	A-AC11	A-AC12	A-AC13	A-AC14	A-AC15	A-AC16	A-DC1	A-DC2	A-DC3	A-DC4	A-DC5	A-DC6	A-DC7	A-DC8	A-DC9	A-DC10	A-DC11	A-DC12	A-DC13	A-DC14	A-DC15	A-DC16	A-Ph1	A-Ph2	A-Ph3	A-Ph4	A-Ph5	A-Ph6	A-Ph7	A-Ph8	A-Ph9	A-Ph10	A-Ph11	A-Ph12	A-Ph13	A-Ph14	A-Ph15	A-Ph16	

Term	0.00000e+00	0.00000e+00	0.00000e+00	0.00000e+00	0.00000e+00	0.00000e+00	0.00000e+00	0.00000e+00	0.00000e+00	0.00000e+00	0.00000e+00	0.00000e+00	0.00000e+00	0.00000e+00	0.00000e+00	0.00000e+00	0.00000e+00	0.00000e+00	0.00000e+00	0.00000e+00	0.00000e+00	0.00000e+00	0.00000e+00	0.00000e+00	0.00000e+00	0.00000e+00	0.00000e+00	0.00000e+00	0.00000e+00	0.00000e+00	0.00000e+00	0.00000e+00	0.00000e+00	0.00000e+00	0.00000e+00	0.00000e+00	0.00000e+00	0.00000e+00	0.00000e+00	0.00000e+00	0.00000e+00	0.00000e+00	0.00000e+00	0.00000e+00	0.00000e+00	0.00000e+00	0.00000e+00	0.00000e+00	
Factor	1.00000e+00	1.00000e+00	1.00000e+00	1.00000e+00	1.00000e+00	1.00000e+00	1.00000e+00	1.00000e+00	1.00000e+00	1.00000e+00	1.00000e+00	1.00000e+00	1.00000e+00	1.00000e+00	1.00000e+00	1.00000e+00	1.00000e+00	1.00000e+00	1.00000e+00	1.00000e+00	1.00000e+00	1.00000e+00	1.00000e+00	1.00000e+00	1.00000e+00	1.00000e+00	1.00000e+00	1.00000e+00	1.00000e+00	1.00000e+00	1.00000e+00	1.00000e+00	X	X	X	X	X	X	X	X	X	X	X	X	X	X	X	X	

B = Detector Channel
Val Type	B-AC1	B-AC2	B-AC3	B-AC4	B-AC5	B-AC6	B-AC7	B-AC8	B-AC9	B-AC10	B-AC11	B-AC12	B-AC13	B-AC14	B-AC15	B-AC16	B-DC1	B-DC2	B-DC3	B-DC4	B-DC5	B-DC6	B-DC7	B-DC8	B-DC9	B-DC10	B-DC11	B-DC12	B-DC13	B-DC14	B-DC15	B-DC16	B-Ph1	B-Ph2	B-Ph3	B-Ph4	B-Ph5	B-Ph6	B-Ph7	B-Ph8	B-Ph9	B-Ph10	B-Ph11	B-Ph12	B-Ph13	B-Ph14	B-Ph15	B-Ph16	

Term	0.00000e+00	0.00000e+00	0.00000e+00	0.00000e+00	0.00000e+00	0.00000e+00	0.00000e+00	0.00000e+00	0.00000e+00	0.00000e+00	0.00000e+00	0.00000e+00	0.00000e+00	0.00000e+00	0.00000e+00	0.00000e+00	0.00000e+00	0.00000e+00	0.00000e+00	0.00000e+00	0.00000e+00	0.00000e+00	0.00000e+00	0.00000e+00	0.00000e+00	0.00000e+00	0.00000e+00	0.00000e+00	0.00000e+00	0.00000e+00	0.00000e+00	0.00000e+00	-1.10555e+02	-1.34345e+02	-1.25139e+02	-1.80823e+02	-5.89411e+01	-6.68562e+01	-1.57214e+02	-1.62015e+02	-6.37752e+01	-6.71530e+01	-1.71625e+02	-1.71796e+02	-1.86365e+02	-1.76693e+02	-6.41196e+01	-1.49516e+02	
Factor	1.50243e-05	1.53827e-04	4.66076e-05	1.58271e-01	1.18790e-06	1.74034e-06	1.59010e-01	4.50898e-02	9.43242e-07	1.55460e-06	7.52501e-02	2.87934e-02	3.64718e-02	8.42465e-03	1.35339e-06	1.23474e-02	7.15820e-06	1.04250e-05	2.89429e-06	7.88315e-02	1.08082e-07	1.15196e-07	7.45083e-02	2.26350e-02	1.07536e-07	1.15117e-07	3.64779e-02	1.40814e-02	1.83450e-02	4.24814e-03	1.11129e-07	6.03331e-03	X	X	X	X	X	X	X	X	X	X	X	X	X	X	X	X	



#DISTANCE SETTINGS
A = Detector Channel
A-1	A-2	A-3	A-4	A-5	A-6	A-7	A-8	A-9	A-10	A-11	A-12	A-13	A-14	A-15	A-16	

2.5000e+00	3.0000e+00	2.5000e+00	3.0000e+00	2.0000e+00	3.0000e+00	1.5000e+00	3.0000e+00	3.0000e+00	3.0000e+00	3.0000e+00	3.0000e+00	3.0000e+00	3.0000e+00	1.5000e+00	3.0000e+00	

B = Detector Channel
B-1	B-2	B-3	B-4	B-5	B-6	B-7	B-8	B-9	B-10	B-11	B-12	B-13	B-14	B-15	B-16	

1.0000e+01	1.0000e+01	1.0000e+01	1.4400e+00	1.0000e+01	1.0000e+01	1.5100e+00	1.9400e+00	1.0000e+01	1.0000e+01	1.9900e+00	2.4900e+00	2.4100e+00	2.9000e+00	1.0000e+01	2.9800e+00	




#DATA BEGINS
time	group	step	mark	flag	A-AC1	A-AC2	A-AC3	A-AC4	A-AC5	A-AC6	A-AC7	A-AC8	A-AC9	A-AC10	A-AC11	A-AC12	A-AC13	A-AC14	A-AC15	A-AC16	A-DC1	A-DC2	A-DC3	A-DC4	A-DC5	A-DC6	A-DC7	A-DC8	A-DC9	A-DC10	A-DC11	A-DC12	A-DC13	A-DC14	A-DC15	A-DC16	A-Ph1	A-Ph2	A-Ph3	A-Ph4	A-Ph5	A-Ph6	A-Ph7	A-Ph8	A-Ph9	A-Ph10	A-Ph11	A-Ph12	A-Ph13	A-Ph14	A-Ph15	A-Ph16	B-AC1	B-AC2	B-AC3	B-AC4	B-AC5	B-AC6	B-AC7	B-AC8	B-AC9	B-AC10	B-AC11	B-AC12	B-AC13	B-AC14	B-AC15	B-AC16	B-DC1	B-DC2	B-DC3	B-DC4	B-DC5	B-DC6	B-DC7	B-DC8	B-DC9	B-DC10	B-DC11	B-DC12	B-DC13	B-DC14	B-DC15	B-DC16	B-Ph1	B-Ph2	B-Ph3	B-Ph4	B-Ph5	B-Ph6	B-Ph7	B-Ph8	B-Ph9	B-Ph10	B-Ph11	B-Ph12	B-Ph13	B-Ph14	B-Ph15	B-Ph16	aux-1	digaux	

598.530	1	1	0	256	0.25608	0.2414	0.14958	0.14018	0.23305	0.16796	0.20858	0.35186	0.29265	0.071903	0.27985	0.19887	0.19958	0.088665	0.31005	0.083549	-2.8646	-3.3563	-3.1979	-3.6271	-3.3479	-3.1979	-3.6937	-3.275	-3.1771	-3.4729	-3.2812	-3.5292	-3.3479	-3.2104	-3.375	-3.2667	195.391	183.746	142.573	343.560	109.266	122.229	231.637	282.824	188.568	83.655	218.058	339.991	105.450	292.256	213.333	187.754	0.00013452	0.0002403	7.3816e-05	1233.9	2.9174e-06	3.5415e-06	1297.5	258.16	1.9847e-06	4.0604e-06	321.02	88.145	69.053	20.485	3.4487e-06	29.022	0.00033254	0.00040275	0.00011297	1202.6	4.4289e-06	4.521e-06	1272.2	255.8	4.4542e-06	4.6725e-06	317.68	88.728	69.344	20.633	4.675e-06	29.098	145.076	5.554	133.159	-3.761	162.954	165.081	-3.264	3.264	176.674	173.200	3.209	9.780	10.175	16.239	162.873	16.220	-8191	255	
598.651	1	1	0	0	0.18438	0.10157	0.28936	0.18599	0.18841	0.17723	0.28585	0.22686	0.084755	0.27463	0.12835	0.14642	0.12671	0.15234	0.073541	0.045093	-2.9458	-3.3208	-3.3312	-3.5062	-3.3729	-3.2604	-3.4	-3.2625	-3.3292	-3.4083	-3.2354	-3.4833	-3.2771	-3.2938	-3.2583	-3.4229	0.518	124.173	101.149	-1.737	261.503	332.649	341.610	273.376	219.343	115.276	343.552	310.472	246.399	211.577	252.305	169.212	0.00013814	0.00031865	0.00011844	1232.1	8.0744e-07	2.8324e-06	1305	259.7	1.9682e-06	2.1538e-06	321.67	87.654	68.961	20.493	3.0868e-06	28.84	0.00036807	0.00044465	0.00012549	1202.7	4.7657e-06	4.8365e-06	1274.3	256.37	4.8004e-06	4.6608e-06	317.82	88.538	69.333	20.594	4.5547e-06	29.04	163.750	72.956	92.511	-3.724	171.400	151.057	-3.495	3.375	141.671	168.918	3.250	9.746	9.747	16.157	135.506	16.711	-8191	255	
598.747	1	1	0	0	0.13436	0.13375	0.18182	0.27635	0.18344	0.084501	0.15968	0.23781	0.10342	0.16671	0.091765	0.23871	0.36339	0.1037	0.10573	0.22091	-2.7729	-3.4458	-3.15	-3.6083	-3.4313	-3.2833	-3.6562	-3.4458	-3.2917	-3.5312	-3.2646	-3.4062	-3.4292	-3.1292	-3.4583	-3.3542	148.838	258.370	0.557	318.460	15.543	200.595	284.982	236.893	162.246	294.651	326.463	252.754	335.416	272.119	-8.488	233.979	0.00011634	0.0002505	0.00012345	1227.1	3.3292e-06	2.613e-06	1293	258.32	1.4419e-06	3.3254e-06	321.44	87.562	68.887	20.358	3.4199e-06	28.918	0.00035282	0.00042369	0.00011698	1201.4	4.7504e-06	4.7629e-06	1269.2	255.33	4.957e-06	5.0515e-06	317.37	88.287	69.403	20.616	6.0919e-06	29.156	159.610	101.737	77.052	-3.674	159.539	148.018	-3.363	3.207	173.217	137.312	2.960	9.896	9.741	16.503	142.048	16.330	-8191	255	
598.841	1	1	0	0	0.10871	0.13225	0.03903	0.16864	0.03107	0.074594	0.32208	0.23101	0.054615	0.10734	0.18955	0.19459	0.077272	0.093301	0.022289	0.233	-2.8875	-3.4521	-3.1292	-3.4521	-3.4396	-3.0458	-3.5479	-3.4125	-3.2417	-3.4146	-3.3875	-3.4854	-3.5458	-3.3	-3.5354	-3.4271	115.644	80.166	312.931	280.169	296.545	282.559	316.966	76.966	153.495	140.997	279.488	57.809	115.802	43.051	65.111	329.313	0.00011391	0.0005378	0.00015047	1242.4	4.4754e-06	1.7158e-06	1313.2	261.55	2.5621e-06	4.0808e-06	323.68	88.678	69.485	20.525	3.2861e-06	28.869	0.00047976	0.00062858	0.00017569	1212.4	7.2077e-06	7.3118e-06	1287.2	259.17	7.1509e-06	7.3687e-06	320.7	89.733	70.638	20.908	7.2567e-06	29.322	153.520	140.030	91.631	-3.555	139.844	175.058	-3.156	3.275	118.061	154.838	3.074	9.441	9.749	16.306	150.121	16.377	-8191	255	
598.937	1	1	0	0	0.32748	0.12086	0.16096	0.24461	0.1015	0.14235	0.22253	0.19865	0.15789	0.16112	0.21154	0.17	0.08241	0.19626	0.10086	0.28127	-2.7333	-3.5	-3.2021	-3.3979	-3.3979	-3.3167	-3.5542	-3.4333	-3.2354	-3.4208	-3.375	-3.2938	-3.4875	-3.2729	-3.475	-3.5542	138.743	152.514	304.510	303.056	73.200	127.373	266.736	209.451	247.357	325.203	322.891	322.186	317.593	342.653	286.667	15.002	0.00012244	0.00029886	0.00015412	1243.4	1.4029e-06	1.8557e-06	1307.1	259.61	1.511e-06	6.1461e-06	321.75	87.908	69.061	20.348	3.3786e-06	28.668	0.00051933	0.00065645	0.00018127	1214.4	6.6747e-06	6.6672e-06	1279	257.42	6.2237e-06	6.0877e-06	318.26	88.562	69.338	20.574	5.5479e-06	28.939	148.581	34.417	54.794	-3.691	160.019	182.585	-3.309	3.387	170.998	136.691	3.041	10.127	9.573	16.355	141.858	16.030	-8191	255	
599.033	1	1	0	0	0.080807	0.11423	0.11696	0.27881	0.0669	0.022085	0.2326	0.19115	0.18768	0.18906	0.1399	0.17499	0.11218	0.2006	0.12012	0.11672	-2.8583	-3.4104	-3.2708	-3.2438	-3.4167	-3.2583	-3.5021	-3.6979	-3.1604	-3.5125	-3.4167	-3.4521	-3.3729	-3.3333	-3.5292	-3.3063	211.853	24.211	264.901	303.090	183.925	236.975	315.060	248.200	323.470	53.382	182.657	204.019	39.200	278.225	67.755	292.246	0.00013267	0.00023267	0.0001021	1237	2.9708e-06	3.0477e-06	1300.5	259.26	1.1109e-06	3.0903e-06	323.36	87.921	69.518	20.655	2.4785e-06	28.94	0.00040577	0.00050524	0.00013984	1206.6	5.496e-06	5.5299e-06	1276.1	256.75	5.6981e-06	5.4889e-06	318.98	88.641	69.688	20.75	5.6773e-06	29.065	157.913	115.540	96.443	-3.612	181.386	180.224	-3.438	3.491	199.598	147.652	2.913	9.605	10.020	16.423	154.257	16.220	-8191	255	
599.130	1	1	0	0	0.16829	0.25967	0.17601	0.21382	0.116	0.13111	0.3657	0.20495	0.23466	0.092519	0.027948	0.08849	0.049371	0.15352	0.24717	0.082263	-2.9062	-3.5729	-3.2667	-3.3521	-3.5354	-3.1896	-3.6312	-3.5708	-3.2687	-3.4125	-3.4896	-3.1417	-3.5312	-3.2729	-3.2667	-3.5417	93.093	306.418	5.929	278.965	146.223	273.677	286.683	275.339	181.226	254.201	284.726	288.283	295.662	335.918	339.211	251.702	0.0001313	0.0002843	6.5272e-05	1243.6	1.0604e-06	7.9923e-07	1314.5	259.78	3.755e-07	9.3715e-07	324.21	87.985	69.342	20.55	1.6233e-06	28.71	0.00042857	0.000533	0.00015158	1214.5	6.1323e-06	6.3005e-06	1284.4	257.54	6.305e-06	6.5626e-06	320.31	89.15	70.123	20.785	6.5281e-06	29.167	155.318	79.985	116.288	-3.526	160.254	130.039	-3.306	3.212	88.410	130.443	2.956	9.439	10.408	16.245	133.744	16.313	-8191	255	
599.226	1	1	0	0	0.19957	0.27542	0.12574	0.10885	0.16348	0.031387	0.19196	0.21866	0.18801	0.11136	0.27453	0.14628	0.10705	0.10489	0.16955	0.33779	-2.9	-3.2313	-3.3042	-3.3854	-3.5833	-3.4646	-3.4771	-3.5333	-3.2604	-3.4979	-3.3896	-3.1333	-3.6917	-3.25	-3.4458	-3.6167	124.139	284.732	247.459	28.558	147.699	48.992	275.134	282.824	208.127	163.887	295.214	92.735	343.921	205.649	175.156	305.525	0.00014869	0.00044318	9.5211e-05	1237.2	3.434e-06	3.3487e-06	1310.1	260.49	1.5249e-06	4.472e-06	322.35	88.259	68.852	20.505	3.6388e-06	28.579	0.00047615	0.00059485	0.00016289	1211.6	6.1602e-06	6.205e-06	1281.6	257.79	5.8318e-06	5.9707e-06	318.93	88.821	69.62	20.626	5.7065e-06	28.863	149.832	62.599	28.467	-3.575	203.005	162.041	-3.415	3.419	176.126	128.829	3.032	9.670	10.169	16.408	176.792	16.138	-8191	255	
599.322	1	1	0	0	0.18626	0.17083	0.23422	0.28076	0.13747	0.076594	0.26762	0.13241	0.16697	0.15199	0.21033	0.32947	0.18948	0.17483	0.051059	0.13291	-2.8854	-3.4708	-3.3875	-3.4125	-3.3771	-3.3625	-3.4792	-3.6083	-3.1979	-3.3937	-3.5938	-3.2417	-3.4562	-3.2146	-3.1354	-3.5458	226.204	220.161	-13.343	337.872	224.294	279.153	289.040	316.194	156.554	54.426	-13.926	303.493	239.474	344.298	317.228	116.080	0.0001291	0.00021021	6.6981e-05	1229.4	2.787e-06	4.1444e-06	1297.6	257.3	1.9814e-06	1.5937e-06	319.91	86.964	67.985	20.181	2.3197e-06	28.582	0.00041295	0.00049938	0.0001401	1203	5.5083e-06	5.4063e-06	1271.3	255.01	5.3461e-06	5.4078e-06	316.56	87.868	68.816	20.38	5.3217e-06	28.722	155.291	84.315	90.782	-3.600	173.269	144.301	-3.353	3.473	159.172	156.471	2.876	9.764	9.930	16.801	124.438	16.516	-8191	255	
599.443	1	1	0	0	0.070148	0.086498	0.045475	0.16112	0.20131	0.2792	0.20945	0.21051	0.063227	0.22913	0.25908	0.3238	0.33285	0.13927	0.11258	0.14079	-2.8438	-3.4479	-3.5625	-3.2604	-3.3438	-3.4542	-3.4271	-3.5771	-3.2104	-3.1813	-3.5021	-3.3042	-3.525	-3.4583	-3.2021	-3.3958	155.111	135.646	79.694	305.221	75.337	125.534	327.794	317.920	242.350	13.975	341.081	265.369	318.924	322.805	245.959	-5.302	0.00012709	0.00019278	0.00018598	1221.7	2.084e-06	2.5127e-06	1293	256.26	2.8692e-06	8.5055e-08	319.13	87.05	68.123	20.143	3.8509e-06	28.467	0.00039917	0.00049254	0.00013536	1192.9	5.3818e-06	5.5251e-06	1263.9	254.04	5.3887e-06	5.5443e-06	315.47	87.654	68.691	20.368	5.3369e-06	28.71	148.925	93.875	90.075	-3.526	216.112	133.010	-3.264	3.373	151.362	168.255	3.132	9.562	10.126	16.364	167.837	16.244	-8191	255	
599.539	1	1	0	0	0.18865	0.27568	0.11695	0.11873	0.16983	0.14792	0.10694	0.25021	0.096732	0.16424	0.26368	0.12764	0.059317	0.17693	0.18937	0.025112	-2.7208	-3.1958	-3.3229	-3.1708	-3.4167	-3.4125	-3.3771	-3.4792	-3.3667	-3.2458	-3.5646	-3.3625	-3.3937	-3.6063	-3.1521	-3.4708	62.461	20.239	205.572	8.917	107.165	275.855	319.835	20.346	234.575	332.367	296.624	273.916	76.643	243.337	38.441	283.950	0.00013116	0.00016582	3.1645e-05	1223.5	2.7404e-06	2.032e-06	1291.7	257.31	2.5021e-06	4.5808e-06	318.48	86.632	68.42	20.151	2.1178e-06	28.427	0.00041465	0.00051245	0.00014089	1194.4	5.7304e-06	5.8342e-06	1264.6	254.08	5.9902e-06	6.1669e-06	315.53	87.662	68.967	20.327	6.5325e-06	28.677	166.785	27.983	93.350	-3.443	138.454	141.078	-3.227	3.330	164.647	137.901	3.097	9.704	10.509	16.239	163.960	16.310	-8191	255	
599.635	1	1	0	0	0.071775	0.17492	0.17606	0.069338	0.36304	0.17579	0.20612	0.28571	0.24496	0.13704	0.24557	0.099543	0.17363	0.34288	0.23696	0.31687	-2.9229	-3.3208	-3.5521	-3.5187	-3.3792	-3.5167	-3.5479	-3.4813	-3.2229	-3.1479	-3.65	-3.2417	-3.3354	-3.5229	-3.1875	-3.4021	294.484	208.974	220.590	283.820	-4.242	89.015	290.160	331.408	18.085	244.968	191.323	338.072	229.524	345.428	319.448	258.600	0.00012266	0.00041945	3.2291e-05	1219.2	2.5198e-06	1.8613e-06	1290.5	255.1	2.743e-06	7.2585e-07	317.81	87.482	67.898	20.205	1.4259e-06	28.215	0.00047811	0.00061499	0.00016601	1193.6	6.722e-06	6.7608e-06	1264.6	254.06	6.5136e-06	6.7739e-06	315.62	88.025	69.06	20.445	6.7203e-06	28.715	162.461	56.618	156.054	-3.634	139.469	192.356	-3.330	3.684	160.877	136.787	3.212	9.916	10.091	16.185	164.108	16.824	-8191	255	
599.731	1	1	0	0	0.12331	0.10667	0.08128	0.30507	0.082257	0.22963	0.38453	0.041211	0.15006	0.14303	0.11792	0.19739	0.13391	0.1413	0.2061	0.22767	-2.9146	-3.1604	-3.4042	-3.4646	-3.0979	-3.3771	-3.2375	-3.4396	-3.3271	-3.0667	-3.5146	-3.225	-3.2083	-3.4021	-3.2125	-3.2896	93.713	177.663	152.064	319.785	174.411	343.680	313.899	332.114	291.651	259.689	251.489	301.661	92.088	243.417	236.868	282.330	0.00013102	0.00027356	0.00014867	1218.3	1.5247e-06	4.3632e-06	1292.2	258.02	3.3196e-06	4.3223e-06	319.24	86.891	68.534	20.276	3.4058e-06	28.44	0.00048015	0.00062378	0.00017525	1195.8	6.6556e-06	6.7101e-06	1266	255	6.393e-06	6.4525e-06	316.45	87.814	69.116	20.45	6.2663e-06	28.778	161.630	38.526	70.275	-3.724	165.184	165.616	-3.296	3.324	125.702	117.435	3.178	9.983	9.963	16.562	119.227	16.358	-8191	255	
599.827	1	1	0	0	0.16138	0.27248	0.1439	0.20341	0.18469	0.077473	0.30101	0.30526	0.20281	0.073318	0.25469	0.069442	0.081521	0.019727	0.061711	0.14974	-2.975	-3.1854	-3.5021	-3.35	-3.3125	-3.3812	-3.3937	-3.4625	-3.325	-3.0771	-3.6271	-3.4458	-3.3667	-3.6167	-3.3604	-3.225	272.100	105.000	79.348	341.447	178.976	229.424	260.854	268.241	118.820	80.533	250.600	1.985	17.571	157.720	53.289	246.020	0.00012496	0.00014455	7.4462e-05	1225.7	3.591e-06	4.3356e-06	1295.7	257.32	2.3677e-06	3.1781e-06	322.05	87.807	68.707	20.426	2.1205e-06	28.621	0.00046175	0.00058154	0.00016066	1201.1	6.4329e-06	6.3142e-06	1271.5	255.38	6.2143e-06	6.594e-06	318.04	88.494	69.549	20.579	6.3957e-06	28.93	150.472	63.667	5.343	-3.624	198.085	137.584	-3.311	3.480	185.565	115.680	2.856	9.440	10.141	16.530	202.883	16.158	-8191	255	
599.923	1	1	0	0	0.20457	0.076431	0.16492	0.16367	0.13342	0.094093	0.24268	0.21504	0.07171	0.17483	0.17848	0.20336	0.1242	0.13774	0.2512	0.26896	-2.9292	-3.2604	-3.1937	-3.4542	-3.3021	-3.4292	-3.4729	-3.2792	-3.15	-3.1646	-3.5	-3.3063	-3.2188	-3.475	-3.2771	-3.4188	90.902	331.804	35.367	310.271	30.882	4.379	23.342	245.732	179.108	336.719	279.758	266.945	32.508	284.332	0.775	226.824	0.00011241	0.00028204	0.00018522	1233.1	2.754e-06	5.6588e-06	1302.3	259.24	1.7523e-06	2.7938e-06	322.56	87.453	68.867	20.385	3.6207e-06	28.412	0.00047235	0.00058588	0.00016579	1207.2	6.4266e-06	6.4591e-06	1275.4	256.64	6.2687e-06	6.3254e-06	318.45	88.283	69.429	20.534	6.3816e-06	28.844	160.988	56.861	124.341	-3.619	151.154	121.467	-3.340	3.379	178.018	145.424	3.159	9.622	10.176	16.385	141.324	16.141	-8191	255	
600.042	1	1	0	0	0.1503	0.063059	0.28616	0.20344	0.1016	0.1554	0.1177	0.18068	0.07304	0.17865	0.081083	0.22479	0.18557	0.030542	0.33226	0.24188	-2.9104	-3.2	-3.4833	-3.5583	-3.225	-3.4146	-3.5563	-3.1333	-3.4646	-3.3438	-3.4042	-3.4917	-3.2812	-3.4813	-3.1458	-3.3792	-13.738	265.870	37.382	272.223	263.410	184.873	318.107	335.983	74.281	102.880	35.564	178.738	290.614	276.511	314.502	8.138	0.00014908	0.00044257	4.3638e-05	1233	2.7461e-06	5.4942e-06	1300.2	257.98	2.2476e-06	1.8918e-06	321.33	87.33	68.835	20.323	3.2337e-06	28.539	0.0004683	0.00058554	0.00016311	1205.2	6.3343e-06	6.4337e-06	1274.2	255.88	6.1134e-06	6.4235e-06	318.12	88.22	69.364	20.49	5.9565e-06	28.825	154.485	90.473	71.410	-3.780	148.209	114.321	-3.459	3.407	103.168	151.736	3.308	9.611	9.805	16.339	128.903	16.176	-8191	255	
600.138	1	1	0	0	0.09613	0.14378	0.14127	0.27819	0.039693	0.12917	0.26931	0.17606	0.19225	0.04263	0.20938	0.20177	0.19686	0.13638	0.21359	0.099106	-3.2062	-3.1229	-3.2833	-3.7896	-3.0771	-3.5104	-3.4938	-3.3146	-3.475	-3.1854	-3.2583	-3.4292	-3.3396	-3.525	-3.5125	-3.2833	15.512	328.668	69.090	271.991	121.984	142.578	263.196	294.297	118.511	7.700	269.408	283.366	134.485	225.916	122.263	-5.817	0.00011128	0.00034253	0.00015541	1227.9	1.6049e-06	4.8289e-06	1298	257.29	2.5977e-06	4.0742e-06	320.37	87.015	68.652	20.229	4.5155e-06	28.451	0.00044008	0.0005545	0.00015412	1203.3	6.0481e-06	6.0672e-06	1272.1	255.62	5.8674e-06	5.9494e-06	316.86	88.045	69.125	20.479	5.8838e-06	28.774	139.743	19.917	66.453	-3.617	187.973	146.881	-3.438	3.343	192.554	129.750	3.466	9.657	10.201	16.778	171.489	16.361	-8191	255	
600.234	1	1	0	0	0.09248	0.077701	0.28175	0.29861	0.17179	0.144	0.10807	0.20158	0.11164	0.18007	0.19691	0.15695	0.061351	0.15856	0.11853	0.15509	-3.0917	-3.2229	-3.1688	-3.5646	-3.2542	-3.5042	-3.7104	-3.2729	-3.6146	-3.2896	-3.5438	-3.5062	-3.1417	-3.5417	-3.4896	-3.2125	31.031	31.811	182.620	318.089	96.271	243.867	257.772	207.639	45.188	44.120	284.065	-8.497	234.482	306.336	335.273	275.119	0.00013709	0.00046038	0.00011718	1225.5	3.0006e-06	3.9815e-06	1291.6	257.42	1.0333e-06	3.9072e-06	320.46	86.767	68.656	20.254	3.9486e-06	28.565	0.00042685	0.00053771	0.00014708	1198.9	5.6937e-06	5.8114e-06	1268.4	254.79	5.7232e-06	5.7738e-06	316.86	87.874	69.061	20.4	5.5611e-06	28.741	149.119	63.235	131.886	-3.664	139.245	221.321	-3.371	3.506	204.327	135.084	3.423	9.631	9.840	16.560	123.388	16.328	-8191	255	
600.331	1	1	0	0	0.14468	0.11054	0.042648	0.21167	0.14086	0.079577	0.047205	0.13099	0.21365	0.17753	0.089067	0.11306	0.17329	0.065735	0.17295	0.079226	-3.1958	-3.25	-3.475	-3.7687	-3.3104	-3.2479	-3.5896	-3.4062	-3.5312	-3.2979	-3.4958	-3.7167	-3.1917	-3.4396	-3.4292	-3.2875	224.622	63.038	47.777	299.645	119.992	139.860	76.408	315.584	266.862	199.425	342.749	327.052	264.842	260.308	41.993	307.333	0.00011717	4.845e-05	0.00016361	1219.2	3.0697e-06	1.9698e-06	1290	256.93	2.0578e-06	3.0435e-06	319.68	86.617	68.304	20.179	4.2097e-06	28.404	0.00041195	0.00048991	0.00013863	1193.6	5.4275e-06	5.3864e-06	1264.3	254.35	5.2785e-06	5.2599e-06	315.7	87.407	68.696	20.328	5.0763e-06	28.634	152.125	66.395	88.297	-3.540	153.876	168.313	-3.311	3.535	204.909	109.972	3.327	9.746	10.070	16.375	141.581	16.324	-8191	255	
600.427	1	1	0	0	0.091056	0.07881	0.082524	0.23682	0.14093	0.11299	0.42143	0.050115	0.13036	0.31286	0.20486	0.19549	0.092797	0.059045	0.043843	0.15003	-3.1667	-3.1854	-3.1792	-3.4938	-3.175	-3.4062	-3.7146	-3.3896	-3.4979	-3.2417	-3.2396	-3.5	-3.3896	-3.2354	-3.3854	-3.1688	271.329	302.116	317.573	156.188	308.768	106.360	240.869	202.091	235.830	194.921	24.296	304.559	-4.406	44.871	18.145	157.790	0.00012724	0.00033976	6.0552e-05	1218.1	2.5814e-06	3.1507e-06	1287.9	256.5	1.0171e-06	3.1613e-06	318.1	87.176	68.407	20.26	2.7418e-06	28.394	0.00039442	0.00048033	0.00013765	1193.5	5.6176e-06	5.5992e-06	1264.7	253.96	5.6725e-06	5.8374e-06	315.77	87.77	68.863	20.395	5.7599e-06	28.677	150.742	101.556	83.522	-3.572	174.646	157.909	-3.436	3.300	268.553	139.833	3.203	9.898	10.024	16.766	154.593	16.453	-8191	255	
600.523	1	1	0	0	0.21746	0.24036	0.20873	0.20936	0.15707	0.17303	0.20108	0.2814	0.21166	0.24393	0.11454	0.10331	0.26655	0.11595	0.25356	0.07921	-3.1063	-3.3604	-3.2646	-3.3729	-3.2167	-3.3396	-3.7938	-3.2583	-3.3521	-3.3354	-3.2375	-3.3208	-3.3063	-3.1167	-3.4271	-3.275	24.003	338.344	121.717	301.339	280.661	77.947	295.874	338.279	127.921	311.511	319.667	133.203	-0.281	175.819	55.610	181.919	0.00011126	0.00027712	5.6928e-05	1225.3	2.333e-06	7.6479e-07	1288.8	256.72	2.7915e-06	2.5509e-06	318.61	86.962	68.057	20.208	1.4706e-06	28.495	0.00043737	0.00053886	0.00015337	1196.6	6.053e-06	6.0209e-06	1264.3	254.56	6.0554e-06	6.194e-06	316	87.884	69.016	20.418	6.2063e-06	28.734	152.682	62.901	82.469	-3.612	194.446	41.724	-3.253	3.383	189.469	135.000	3.331	9.662	10.087	16.379	259.619	16.432	-8191	255	
600.619	1	1	0	0	0.2339	0.022615	0.14879	0.16071	0.24477	0.15904	0.1945	0.15542	0.23449	0.084633	0.11596	0.091654	0.10609	0.18867	0.21865	0.070695	-3.0021	-3.3604	-3.2292	-3.7188	-3.3479	-3.3063	-3.6854	-3.2646	-3.2375	-3.5292	-3.2938	-3.5	-3.375	-3.2292	-3.5917	-3.2542	69.338	339.875	-14.250	235.690	289.028	328.503	277.160	288.216	44.927	287.904	336.100	114.376	317.997	150.824	230.078	154.612	0.00012263	0.00021952	0.00012545	1222.5	2.3354e-06	6.6741e-06	1290	256.36	2.047e-06	3.0024e-06	318.54	86.98	67.923	20.323	1.9925e-06	28.281	0.00045584	0.00057572	0.00015445	1196.4	6.0587e-06	6.0046e-06	1265.2	253.86	5.9483e-06	5.7966e-06	315.81	87.844	68.533	20.411	5.4974e-06	28.594	146.271	66.085	100.363	-3.669	177.100	106.799	-3.299	3.183	119.948	166.372	3.201	9.994	9.788	16.249	161.437	16.737	-8191	255	
600.740	1	1	0	0	0.21409	0.1036	0.24668	0.1951	0.079393	0.14396	0.50122	0.22476	0.1034	0.2526	0.064107	0.11691	0.13823	0.26409	0.084919	0.087913	-2.7958	-3.3625	-3.1792	-3.3667	-3.375	-3.1729	-3.7562	-3.5583	-3.1979	-3.5292	-3.1521	-3.4375	-3.4688	-3.1104	-3.3896	-3.4792	250.065	223.673	293.204	295.699	344.110	232.092	293.494	250.625	111.566	221.810	215.564	-5.599	318.256	202.762	226.593	330.552	0.00012321	0.00035598	0.00016302	1221.7	1.5586e-06	5.7239e-07	1289.9	256.73	2.5275e-06	4.5929e-06	318.73	87.071	67.481	20.209	3.6377e-06	28.385	0.00040427	0.00048428	0.00013633	1194.6	5.1235e-06	5.1699e-06	1262.7	253.5	5.0269e-06	5.0658e-06	315.14	87.716	68.617	20.382	5.0966e-06	28.643	156.174	95.438	50.600	-3.732	176.828	95.947	-3.380	3.297	166.832	164.519	3.157	9.802	10.011	16.713	141.774	16.445	-8191	255	
600.834	1	1	0	0	0.15727	0.13706	0.17271	0.20875	0.27828	0.14459	0.097803	0.17697	0.20451	0.16439	0.18234	0.29167	0.20341	0.25652	0.022229	0.13813	-2.9062	-3.5292	-2.9792	-3.3583	-3.4354	-3.0687	-3.7625	-3.4354	-3.1312	-3.7	-3.2583	-3.3667	-3.4208	-3.0917	-3.3812	-3.4313	190.527	7.743	315.849	287.009	234.009	167.332	194.578	283.203	182.983	87.873	311.839	116.081	6.853	-10.731	236.503	76.314	0.00013189	0.00032362	0.00010838	1222.7	3.7376e-06	4.1551e-06	1291.7	257.33	1.7203e-06	3.6637e-06	319.94	87.172	68.671	20.246	4.1213e-06	28.452	0.00039615	0.00048902	0.00013604	1197.2	5.5243e-06	5.6578e-06	1266.1	254.58	5.6033e-06	5.8026e-06	316.44	88.087	69.148	20.422	5.6426e-06	28.748	157.446	55.855	79.962	-3.756	180.121	133.390	-3.214	3.399	156.312	145.509	3.497	9.779	10.525	16.521	157.471	16.028	-8191	255	
600.907	1	1	0	0	0.2664	0.21791	0.093626	0.29062	0.066831	0.025329	0.23838	0.062527	0.11631	0.21641	0.10748	0.32426	0.088427	0.30051	0.16801	0.18432	-2.8646	-3.2979	-3.2979	-3.4062	-3.3854	-3.4521	-3.7	-3.2604	-3.1042	-3.4792	-3.2208	-3.3063	-3.3812	-3.2479	-3.5187	-3.4417	55.947	155.273	-0.201	342.347	217.979	44.448	236.563	292.765	342.066	24.383	200.044	339.966	64.238	335.107	40.767	-7.559	0.0001363	0.00036121	8.1771e-05	1224.8	2.9861e-06	1.5511e-06	1295.7	257.7	1.4464e-06	5.9186e-06	319.72	87.307	68.629	20.333	8.3078e-07	28.618	0.00043338	0.00053765	0.0001446	1199	5.5966e-06	6.0271e-06	1270.4	255.27	5.7709e-06	5.8767e-06	316.68	88.352	69.455	20.577	6.0778e-06	28.843	155.622	83.556	86.888	-3.585	163.680	106.546	-3.449	3.304	193.873	142.601	3.079	9.855	9.892	16.415	26.168	16.303	-8191	255	
601.004	1	1	0	0	0.10185	0.13995	0.13653	0.061556	0.077051	0.22381	0.17772	0.20014	0.1998	0.13745	0.16597	0.30962	0.016144	0.3752	0.23319	0.14005	-2.8458	-3.3604	-3.1542	-3.2938	-3.4771	-3.1333	-3.6208	-3.5375	-3.1729	-3.5542	-3.4104	-3.2958	-3.3542	-3.1771	-3.35	-3.4354	330.412	109.697	180.016	233.044	10.370	301.521	297.625	39.942	150.810	155.240	13.401	274.704	80.330	297.839	158.451	279.363	0.00014046	0.00032207	0.00012634	1230	2.4475e-06	1.5825e-06	1300.9	258.5	2.5234e-06	2.1885e-06	321.23	87.526	68.904	20.371	1.4002e-06	28.517	0.0004464	0.00055278	0.00015559	1205.6	5.9033e-06	6.0175e-06	1275	255.81	5.934e-06	6.0228e-06	317.84	88.38	69.476	20.545	5.866e-06	28.848	144.676	55.299	107.690	-3.605	144.417	170.824	-3.482	3.149	166.534	152.056	3.140	9.737	10.034	16.146	94.126	16.673	-8191	255	
601.123	1	1	0	0	0.072443	0.1662	0.18783	0.40497	0.13686	0.1593	0.13424	0.14068	0.15979	0.097489	0.031431	0.12424	0.21431	0.19985	0.19237	0.053081	-2.6292	-3.4771	-3.0979	-3.3354	-3.6688	-3.2208	-3.4208	-3.6917	-3.2708	-3.525	-3.5292	-3.0979	-3.525	-3.3521	-3.2104	-3.55	223.246	318.646	179.711	245.459	102.274	1.597	289.145	179.951	74.484	312.572	50.804	286.809	324.948	269.440	165.882	313.075	0.00011495	0.00032607	2.271e-05	1232	1.9088e-06	4.6734e-06	1299.1	257.91	3.1996e-07	4.1925e-06	319.34	86.678	68.771	20.254	1.3546e-06	28.431	0.00043121	0.00053828	0.00014871	1203.5	5.9839e-06	5.976e-06	1269	254.92	5.8831e-06	5.8388e-06	315.95	87.804	69.143	20.381	5.5856e-06	28.73	153.542	67.478	279.213	-3.394	142.715	167.083	-3.417	3.291	101.890	173.912	3.378	9.520	10.209	16.713	199.438	16.095	-8191	255	
601.219	1	1	0	0	0.26857	0.0065385	0.11114	0.21941	0.20994	0.22864	0.095068	0.12779	0.139	0.050244	0.079807	0.068914	0.14494	0.10532	0.16456	0.1643	-2.8667	-3.3979	-3.2667	-3.2917	-3.3417	-3.3187	-3.6042	-3.625	-3.0708	-3.4792	-3.4979	-2.8771	-3.4146	-3.1625	-3.2229	-3.5438	280.651	76.353	236.676	343.637	235.000	224.852	282.016	337.932	244.683	79.542	281.569	77.375	148.644	57.963	132.838	100.451	0.00013517	0.00037024	0.00010129	1224.4	3.8322e-06	4.4589e-06	1290.2	258.19	2.4232e-06	3.3081e-06	317.04	86.843	67.948	19.999	2.9594e-06	28.496	0.00041923	0.00052826	0.00014332	1198.6	5.5232e-06	5.4209e-06	1265.8	254.53	5.1868e-06	5.2966e-06	315.11	87.468	68.516	20.268	5.0151e-06	28.597	150.129	73.092	106.325	-3.489	151.430	114.284	-3.382	3.384	148.516	140.411	3.633	9.504	9.709	16.499	228.816	16.617	-8191	255	
601.315	1	1	0	0	0.15063	0.12216	0.12095	0.1296	0.13396	0.039965	0.11795	0.14396	0.14857	0.25222	0.16625	0.19794	0.10446	0.17995	0.076486	0.096087	-2.6354	-3.3083	-3.4062	-3.1729	-3.2021	-3.4354	-3.4688	-3.5583	-3.0854	-3.2708	-3.4396	-3.0958	-3.6688	-3.2625	-3.2562	-3.5604	58.523	170.197	47.703	273.064	278.959	-8.100	239.392	309.483	314.442	134.690	275.118	-3.119	17.306	227.694	208.420	87.862	0.00011096	0.00053783	0.00011088	1219.7	2.0417e-06	4.1301e-06	1288.3	256.26	2.562e-06	4.3965e-06	317.79	87.037	68.128	20.065	2.1513e-06	28.453	0.00037946	0.00046752	0.0001265	1193.6	5.1213e-06	5.0341e-06	1261.9	253.22	5.097e-06	5.0373e-06	314.05	87.409	68.487	20.259	5.0832e-06	28.6	156.223	55.747	88.266	-3.511	172.983	132.992	-3.314	3.561	162.213	128.711	3.481	9.610	10.224	16.404	139.085	16.408	-8191	255	
601.411	1	1	0	0	0.12466	0.2734	0.16551	0.30327	0.080448	0.10638	0.34393	0.20063	0.14364	0.18708	0.05542	0.3695	0.22849	0.055977	0.16497	0.21242	-2.8958	-3.2979	-3.3875	-3.25	-3.4938	-3.3896	-3.4729	-3.6583	-3.3667	-3.3229	-3.5583	-3.3417	-3.3563	-3.475	-3.2104	-3.45	222.911	82.693	11.253	342.723	325.846	-8.498	264.987	-12.932	288.021	71.814	304.533	114.517	35.256	217.226	73.503	276.033	0.00012866	0.00032963	0.00012426	1219.1	1.0364e-06	3.3692e-06	1281.1	255.98	1.3799e-06	1.5886e-06	317.71	86.809	67.613	20.185	2.8323e-06	28.164	0.00038486	0.00047325	0.00013157	1190.2	5.0582e-06	5.1154e-06	1258.3	252.85	5.0735e-06	4.9642e-06	314.81	87.343	68.387	20.305	4.9718e-06	28.521	152.544	41.936	95.163	-3.537	153.664	124.764	-3.305	3.589	147.411	120.703	3.146	9.912	10.266	16.430	115.202	16.256	-8191	255	
601.532	1	1	0	0	0.18705	0.13026	0.19897	0.05729	0.12963	0.13331	0.49886	0.13886	0.085888	0.24462	0.12533	0.14606	0.024629	0.085	0.29516	0.1364	-2.8812	-3.2604	-3.4375	-3.4313	-3.4604	-3.5	-3.3354	-3.6021	-3.4917	-3.3646	-3.5563	-3.1646	-3.4458	-3.6188	-3.2771	-3.5917	151.282	116.308	37.793	72.812	67.283	181.926	287.866	-4.433	55.886	190.052	212.938	270.257	200.280	314.365	321.579	150.213	0.00012782	0.00060974	0.00012468	1216.3	2.3646e-06	2.3634e-06	1290.6	254.97	2.2278e-06	4.6607e-06	319.06	86.189	68.182	20.051	2.3669e-06	28.169	0.00037184	0.00047273	0.00012591	1190	5.1107e-06	5.1766e-06	1261.1	252.99	5.1799e-06	5.2193e-06	314.43	87.136	68.437	20.195	5.1311e-06	28.491	155.676	77.122	96.684	-3.542	184.977	148.799	-3.184	3.343	157.346	160.884	3.119	9.970	10.386	16.572	150.412	16.454	-8191	255	
601.603	1	1	0	0	0.1285	0.34275	0.05113	0.22885	0.11093	0.14664	0.14385	0.2096	0.30157	0.097368	0.12586	0.11374	0.048693	0.32701	0.15323	0.20284	-2.95	-3.2875	-3.4833	-3.3583	-3.3021	-3.4333	-3.3729	-3.475	-3.2687	-3.2792	-3.6479	-3.3625	-3.5229	-3.4792	-3.1167	-3.3854	94.141	11.405	231.805	339.380	309.158	221.925	216.316	295.509	180.894	-6.063	57.394	99.131	196.850	0.838	236.374	298.097	0.00012428	0.00044645	8.1471e-05	1217.1	2.8775e-06	2.8599e-06	1283.6	254.18	1.7558e-06	4.4726e-06	318.5	86.237	67.671	19.989	2.9304e-06	28.234	0.00039935	0.00049456	0.00013256	1189.4	5.3167e-06	5.3172e-06	1257	252.68	5.123e-06	5.1764e-06	314.08	86.953	68.068	20.151	4.7216e-06	28.361	156.159	90.596	123.311	-3.513	196.896	156.061	-3.497	3.712	128.698	151.568	3.232	9.950	10.101	16.425	150.424	16.379	-8191	255	
601.724	1	1	0	0	0.12134	0.21487	0.35066	0.40068	0.10149	0.13795	0.23475	0.24752	0.17299	0.19169	0.069121	0.14212	0.15657	0.17046	0.036746	0.12344	-2.9625	-3.1354	-3.4396	-3.2438	-3.3354	-3.4292	-3.4042	-3.6042	-3.4083	-2.9688	-3.4979	-3.2854	-3.3542	-3.3646	-3.225	-3.3646	194.730	23.984	259.703	320.713	260.336	325.465	262.206	291.773	342.797	126.031	-4.314	172.099	-8.034	335.214	209.873	232.797	0.00012798	0.00024406	0.00011738	1210.8	3.1945e-06	5.8007e-06	1276.5	252.58	2.2686e-06	3.9628e-06	314.87	85.81	66.83	19.854	3.6249e-06	27.853	0.00035053	0.00041567	0.00011291	1183.4	4.518e-06	4.5749e-06	1249.4	250.09	4.3248e-06	4.4696e-06	310.53	86.142	67.388	19.977	4.4e-06	28.09	149.050	42.434	101.902	-3.500	131.239	127.871	-3.245	3.506	173.269	139.374	3.296	9.951	10.102	16.758	166.266	16.355	-8191	255	
601.820	1	1	0	0	0.08285	0.12309	0.17059	0.11108	0.085146	0.13351	0.22099	0.09766	0.20628	0.075941	0.38327	0.1431	0.20365	0.18691	0.08911	0.20572	-3.025	-3.2021	-3.5021	-3.4146	-3.1021	-3.3542	-3.3542	-3.3854	-3.3625	-3.2979	-3.5479	-3.4542	-3.2646	-3.3229	-3.3146	-3.3792	105.390	296.012	-0.519	326.760	200.839	153.316	237.787	290.869	196.129	279.721	269.039	34.302	318.490	257.749	191.356	284.969	0.00012201	0.00028704	9.0201e-05	1204.6	9.4774e-07	4.6931e-06	1266.7	251.48	1.4887e-06	3.5548e-06	312.67	84.861	67.047	19.667	2.1657e-06	27.871	0.0003431	0.0004162	0.00011289	1176.6	4.5108e-06	4.3177e-06	1244.6	249.01	4.5405e-06	4.5577e-06	309.32	85.599	67.041	19.783	4.2854e-06	28.015	168.145	74.337	121.550	-3.645	165.748	151.853	-3.295	3.426	182.685	131.158	3.313	9.648	10.265	16.704	150.230	16.255	-8191	255	
601.914	1	1	0	0	0.060491	0.25667	0.14137	0.27201	0.24057	0.067442	0.44549	0.031779	0.12218	0.1036	0.20072	0.10673	0.22538	0.1396	0.13109	0.082772	-3.0208	-3.1208	-3.3688	-3.4292	-3.3354	-3.5667	-3.4292	-3.4354	-3.4979	-3.0625	-3.5438	-3.4771	-3.175	-3.5604	-3.3104	-3.2854	93.584	336.235	144.255	272.984	145.653	232.502	286.813	293.077	108.505	258.705	262.433	158.175	195.558	181.967	207.997	210.542	0.00014604	0.00030362	0.00012579	1192.6	2.2507e-06	5.1325e-06	1256	248.73	1.3084e-06	1.5389e-06	310.2	84.633	66.514	19.533	2.3163e-06	27.593	0.00032646	0.00038019	0.00010574	1165.3	4.0393e-06	3.9102e-06	1232.3	246.54	3.8278e-06	3.9005e-06	305.38	84.816	66.335	19.612	3.5563e-06	27.769	151.517	86.602	92.844	-3.639	185.848	154.934	-3.334	3.971	177.899	148.791	3.449	9.929	10.515	16.363	93.251	16.547	-8191	255	
602.011	1	1	0	0	0.12581	0.08441	0.27099	0.060197	0.18774	0.28545	0.25243	0.16413	0.18814	0.12586	0.18648	0.11469	0.16119	0.225	0.28156	0.10654	-3.0958	-3.2354	-3.3375	-3.5917	-3.1292	-3.5062	-3.3333	-3.525	-3.4354	-3.2042	-3.6188	-3.3604	-3.1896	-3.5125	-3.2896	-3.3333	141.232	161.635	330.556	269.719	227.257	14.683	305.871	328.717	174.500	123.438	172.728	272.736	336.806	320.054	219.793	316.033	0.00012298	0.00029594	6.6096e-05	1191.4	2.3675e-06	2.9856e-06	1258.9	248.51	2.002e-06	2.2416e-06	308.27	84.04	65.646	19.438	2.9582e-06	27.502	0.00028176	0.00032839	9.0411e-05	1162.8	3.6982e-06	3.5216e-06	1230.2	244.9	3.2879e-06	3.4178e-06	304.19	84.425	65.785	19.536	2.9903e-06	27.641	155.156	68.578	133.603	-3.725	167.755	148.898	-3.373	3.687	179.839	130.420	3.378	10.010	10.552	17.096	175.610	16.488	-8191	255	
602.131	1	1	0	0	0.20997	0.10924	0.22692	0.1649	0.13539	0.054306	0.20744	0.15897	0.066148	0.19846	0.31889	0.13729	0.13539	0.12471	0.12409	0.10116	-3.025	-3.1271	-3.3708	-3.5646	-3.1167	-3.4292	-3.4938	-3.4083	-3.475	-3.2729	-3.5312	-3.4	-3.0854	-3.5187	-3.2167	-3.2188	138.560	102.500	218.670	296.438	222.288	191.676	-9.916	212.403	32.697	-9.496	330.309	173.328	32.675	127.633	181.989	44.259	0.00012444	0.00035486	7.5157e-05	1178.2	2.1544e-06	1.9256e-06	1251.2	245.92	2.0905e-06	2.1249e-06	307.51	83.327	65.622	19.332	2.8242e-06	27.474	0.00024812	0.00027893	7.656e-05	1152.4	2.9281e-06	2.8979e-06	1221.7	243.06	2.8042e-06	2.729e-06	302.48	83.909	65.487	19.354	2.6932e-06	27.459	158.297	91.622	88.925	-3.624	187.669	105.172	-3.125	3.653	153.193	81.708	3.197	9.867	10.803	17.157	162.613	16.658	-8191	255	
602.203	1	1	0	0	0.15625	0.16508	0.1013	0.15936	0.13996	0.072974	0.21179	0.092704	0.12331	0.06583	0.22493	0.073542	0.21468	0.10304	0.06316	0.32771	-3.1375	-3.3229	-3.2458	-3.5604	-3.0896	-3.5625	-3.5563	-3.1354	-3.4292	-3.2042	-3.5438	-3.6125	-3.0729	-3.5229	-3.5187	-3.225	188.011	18.626	101.102	315.003	257.502	338.145	309.707	332.242	63.664	323.120	252.231	13.832	265.550	0.772	244.967	305.493	0.00012178	0.00014736	7.7979e-05	1171.4	1.9852e-06	3.7753e-06	1242.1	243.65	1.1996e-06	1.9325e-06	305.19	83.254	64.837	19.221	3.6591e-06	27.32	0.00022447	0.0002586	6.6973e-05	1144.5	2.7324e-06	2.5991e-06	1211.4	241.14	2.7507e-06	2.7158e-06	300.39	83.577	65.084	19.282	2.6136e-06	27.355	155.961	42.514	79.515	-3.543	198.763	154.576	-3.213	3.558	173.789	157.623	3.209	10.044	10.356	16.768	152.216	16.585	-8191	255	
602.299	1	1	0	0	0.11116	0.064433	0.18385	0.27145	0.11108	0.33167	0.11289	0.30582	0.27903	0.15333	0.020443	0.25614	0.09946	0.031417	0.12088	0.1734	-3.0438	-3.2375	-3.3	-3.5104	-3.2396	-3.5687	-3.6813	-3.4958	-3.5479	-3.3688	-3.4021	-3.3854	-3.275	-3.4188	-3.4542	-3.2583	5.410	-11.134	217.567	-1.648	158.526	220.232	-11.696	259.743	203.599	71.787	189.053	-2.874	186.198	160.372	17.177	16.581	0.00013574	0.00031642	7.8709e-05	1165.1	3.6334e-06	2.9024e-06	1234.5	242.9	1.0441e-06	2.2851e-06	303.42	83.068	65.074	19.049	1.7872e-06	27.066	0.00021941	0.00023248	6.8739e-05	1138.1	2.7932e-06	2.5564e-06	1205.7	239.98	2.6051e-06	2.533e-06	298.57	83.261	64.758	19.134	2.3608e-06	27.159	161.980	77.128	89.170	-3.565	183.590	129.977	-3.290	3.699	151.021	146.296	3.523	10.219	10.309	17.116	157.863	16.548	-8191	255	
602.420	1	1	0	0	0.24269	0.15301	0.096268	0.32476	0.27182	0.27422	0.20886	0.16858	0.12199	0.070239	0.11139	0.25389	0.057176	0.22004	0.056789	0.031368	-3.1458	-3.2229	-3.2812	-3.5208	-3.3771	-3.2333	-3.5458	-3.2854	-3.3063	-3.2938	-3.4	-3.575	-3.175	-3.6917	-3.4167	-3.2167	222.887	165.684	23.171	343.986	76.340	179.399	267.793	248.609	24.789	95.456	0.112	334.165	15.767	296.318	133.677	34.321	0.00012914	0.00040318	9.3951e-05	1157.4	2.1486e-06	1.785e-06	1218.3	242.78	1.859e-06	2.8795e-06	301.32	81.997	64.122	18.963	2.2932e-06	26.902	0.00021011	0.00021506	6.1474e-05	1128.5	2.5489e-06	2.3474e-06	1194.6	238.32	2.3606e-06	2.1923e-06	296.62	82.537	64.165	19.017	2.2105e-06	27.009	153.737	53.042	105.586	-3.403	164.639	140.665	-3.285	3.931	173.369	146.642	3.542	10.102	10.142	17.347	142.113	16.743	-8191	255	
602.516	1	1	0	0	0.077054	0.098525	0.093057	0.23942	0.095376	0.13441	0.22882	0.19725	0.21771	0.1861	0.11906	0.25867	0.16229	0.13612	0.076242	0.028569	-3.0708	-3.2604	-3.1208	-3.6167	-3.2687	-3.4021	-3.6417	-3.2646	-3.3937	-3.5333	-3.3854	-3.4729	-3.3854	-3.2917	-3.4646	-3.2229	318.963	25.519	225.149	328.941	297.240	175.800	335.504	261.609	148.931	92.527	248.389	284.075	341.444	-11.739	327.010	157.171	0.00010932	0.00034894	9.4374e-05	1155.4	2.637e-06	3.0382e-06	1217.2	238.89	1.2956e-06	2.8613e-06	298.88	81.435	64.249	18.902	2.0682e-06	26.876	0.00019473	0.0001939	5.419e-05	1123.2	2.3208e-06	2.1165e-06	1191.7	236.79	2.1471e-06	2.1213e-06	295.46	82.218	63.895	18.969	2.2406e-06	26.999	144.335	105.239	99.184	-3.343	167.997	123.874	-3.151	3.728	213.343	135.596	3.238	10.183	10.514	17.180	149.627	16.503	-8191	255	
602.612	1	1	0	0	0.13314	0.20537	0.13602	0.20824	0.095744	0.044921	0.13747	0.25585	0.070877	0.25589	0.13376	0.036257	0.051628	0.36675	0.13168	0.1003	-3.0583	-3.2896	-3.1188	-3.6771	-3.3542	-3.1167	-3.625	-3.3792	-3.3187	-3.4521	-3.1479	-3.4771	-3.4146	-3.1833	-3.4104	-3.3	335.784	277.662	90.150	324.704	81.680	-3.324	306.892	-12.530	16.616	159.952	224.509	169.258	230.976	307.184	50.015	322.047	0.00012327	0.00018009	7.1307e-05	1149.1	2.3265e-06	3.0047e-06	1220.4	239.18	1.8523e-06	3.1571e-06	298.65	82.15	64.31	19.054	4.5603e-06	27.086	0.00020071	0.00020654	6.066e-05	1122.2	2.3445e-06	2.1772e-06	1191.3	236.41	2.3282e-06	2.1853e-06	294.86	82.419	64.093	19.066	2.2585e-06	27.066	146.220	81.028	103.060	-3.429	158.048	122.080	-3.142	3.828	168.032	141.817	3.263	10.279	10.364	17.253	156.420	16.544	-8191	255	
602.708	1	1	0	0	0.11317	0.042711	0.10792	0.20473	0.18938	0.14998	0.4515	0.34149	0.17466	0.33399	0.0967	0.23442	0.26752	0.11797	0.2026	0.22367	-2.8854	-3.3271	-3.1333	-3.5021	-3.1583	-3.0938	-3.5208	-3.4375	-3.2917	-3.4083	-3.2	-3.4146	-3.2646	-3.175	-3.4562	-3.3375	170.326	312.028	119.369	221.547	96.976	94.692	286.482	301.898	90.112	55.629	92.600	15.127	290.079	280.307	92.627	-1.107	0.00012847	0.00039429	9.822e-05	1153.6	2.5815e-06	3.6898e-06	1217.7	240.31	1.0926e-06	2.2196e-06	300	82.573	64.475	19.141	2.6121e-06	27.113	0.00019991	0.0002027	6.0051e-05	1124.3	2.408e-06	2.4558e-06	1192.8	237.67	2.5119e-06	2.4117e-06	296.04	82.713	64.239	19.16	2.5451e-06	27.113	153.847	61.962	108.729	-3.398	171.586	135.500	-3.152	3.702	153.242	144.359	3.384	10.020	10.213	17.344	127.107	16.940	-8191	255	
602.804	1	1	0	0	0.18325	0.12719	0.18034	0.093922	0.2186	0.064225	0.1652	0.21412	0.077234	0.10159	0.12358	0.25574	0.13778	0.1626	0.23261	0.18302	-2.9229	-3.5521	-3.1208	-3.6229	-3.1854	-3.0771	-3.5625	-3.3438	-3.2083	-3.6354	-3.3375	-3.525	-3.4375	-3.1229	-3.3083	-3.4125	321.075	282.553	35.119	318.844	305.234	326.816	251.661	271.258	245.079	74.148	175.897	-0.756	87.001	218.226	179.342	311.418	0.00013283	0.00050659	7.9661e-05	1159	1.9562e-06	2.5691e-06	1221.5	241.39	1.4125e-06	2.0659e-06	301.58	82.885	64.341	19.23	1.5084e-06	27.064	0.00021452	0.00022188	6.3005e-05	1128.4	2.5575e-06	2.5485e-06	1195.8	238.22	2.6761e-06	2.3987e-06	296.85	82.927	64.522	19.14	2.415e-06	27.153	152.261	72.532	71.863	-3.411	171.078	122.882	-3.012	4.006	183.386	166.737	3.561	9.919	10.389	17.509	146.768	16.662	-8191	255	
602.899	1	1	0	0	0.28083	0.17537	0.22268	0.37519	0.13422	0.24385	0.31836	0.022178	0.30319	0.059917	0.22557	0.11476	0.11179	0.3153	0.093872	0.1021	-2.6521	-3.4229	-3.2188	-3.4833	-3.4604	-3.1437	-3.7146	-3.4542	-3.0771	-3.4375	-3.3521	-3.35	-3.5083	-3.0979	-3.3958	-3.6792	171.373	237.606	135.026	229.359	19.099	13.019	281.717	323.192	120.854	-0.215	257.499	-5.127	51.135	300.542	129.117	253.595	0.00011513	0.00030015	7.7566e-05	1157.4	2.1419e-06	3.9629e-06	1220	240.74	2.6213e-06	3.1592e-06	300.11	82.516	64.466	19.021	3.6526e-06	26.938	0.0002113	0.00020518	6.1124e-05	1129.9	2.3683e-06	2.3003e-06	1195.3	237.66	2.3705e-06	2.2227e-06	295.51	82.679	64.274	19.036	2.1719e-06	27.01	149.413	62.114	70.947	-3.430	159.137	148.517	-3.001	3.791	166.089	121.057	3.634	10.375	10.054	16.790	144.501	16.704	-8191	255	
602.995	1	1	0	0	0.19993	0.14243	0.12921	0.24313	0.057569	0.099118	0.21669	0.35195	0.080993	0.24311	0.33452	0.038533	0.10775	0.181	0.071042	0.14598	-2.9125	-3.5833	-3.2333	-3.2875	-3.4729	-3.2896	-3.6604	-3.3521	-3.1417	-3.3917	-3.3771	-3.2542	-3.4646	-3.1354	-3.3833	-3.3708	252.279	175.122	343.350	311.943	257.619	44.014	286.169	284.348	266.773	191.672	315.825	219.256	335.876	15.393	76.229	46.422	0.00012299	0.00023251	5.9088e-05	1148.4	2.6098e-06	3.6696e-06	1214.9	240.6	1.6687e-06	3.3698e-06	299.95	82.171	64.288	18.964	2.6418e-06	26.811	0.00019537	0.0002004	5.5522e-05	1119.9	2.2826e-06	2.1573e-06	1187.5	236.9	2.2746e-06	2.1587e-06	295.33	82.41	63.95	18.979	2.2328e-06	26.993	148.516	64.506	104.810	-3.376	144.080	160.691	-3.254	3.708	166.459	135.038	3.492	10.051	10.411	16.681	147.883	17.278	-8191	255	
603.091	1	1	0	0	0.12198	0.18007	0.27883	0.37652	0.063443	0.019674	0.26327	0.47504	0.092606	0.1688	0.13188	0.20529	0.11993	0.036924	0.16305	0.10585	-2.7458	-3.4042	-3.3125	-3.3438	-3.4667	-3.2	-3.4938	-3.5958	-2.9813	-3.4792	-3.4083	-3.375	-3.4479	-3.3	-3.3042	-3.5583	89.538	244.289	323.912	26.087	201.734	189.549	299.903	279.394	341.105	321.925	69.335	159.330	299.122	254.623	84.663	316.905	0.0001205	0.00028405	8.6105e-05	1147.4	1.4136e-06	1.1856e-06	1214.3	240.4	1.641e-06	4.1605e-06	301.41	82.557	64.034	18.989	2.9923e-06	26.964	0.00020698	0.00022231	6.2077e-05	1121.6	2.4974e-06	2.4486e-06	1192.3	237.29	2.6712e-06	2.4606e-06	296.56	82.646	64.096	19.1	2.4566e-06	27.103	155.418	85.848	76.366	-3.283	187.220	178.093	-3.076	3.739	168.640	148.907	3.458	10.410	10.752	16.822	125.366	16.543	-8191	255	
603.212	1	1	0	0	0.15531	0.11413	0.26505	0.20279	0.095546	0.15224	0.37606	0.21839	0.26612	0.30834	0.11987	0.38586	0.30454	0.4028	0.085775	0.2033	-2.7833	-3.6146	-3.4208	-3.3583	-3.4562	-3.3083	-3.5146	-3.4458	-3.2229	-3.4354	-3.5333	-3.2146	-3.4688	-3.2625	-3.3854	-3.6958	68.190	232.556	282.374	301.634	174.269	97.024	291.265	335.841	53.037	296.485	314.730	252.305	210.500	64.155	292.919	277.978	0.00011274	0.00025465	8.6163e-05	1153.7	3.0091e-06	3.6565e-06	1221.5	241.02	2.4504e-06	2.5109e-06	301.03	82.458	64.595	19.125	1.5179e-06	26.976	0.00021606	0.00021986	6.4109e-05	1126.1	2.5514e-06	2.4217e-06	1195.2	237.78	2.5314e-06	2.3517e-06	296.23	82.79	64.352	19.093	2.408e-06	27.048	157.867	87.195	48.653	-3.611	187.395	122.630	-3.228	3.693	169.977	124.501	3.465	10.268	10.029	16.613	174.239	16.786	-8191	255	
603.306	1	1	0	0	0.25402	0.13875	0.21668	0.21081	0.15908	0.14034	0.33326	0.19956	0.16812	0.079898	0.13444	0.27879	0.14379	0.39041	0.17878	0.17195	-2.825	-3.375	-3.5104	-3.4979	-3.6229	-3.0708	-3.5667	-3.5875	-3.2021	-3.525	-3.4875	-3.2542	-3.6854	-3.375	-3.2771	-3.65	288.129	184.981	184.166	241.066	262.268	205.227	306.599	282.406	183.808	3.964	144.363	2.089	322.458	320.329	125.250	334.876	0.00012669	0.00040558	5.8561e-05	1155.8	2.264e-06	1.4146e-06	1218.5	241.5	2.12e-06	4.9683e-06	301.22	82.396	64.746	18.962	1.8001e-06	26.903	0.00021103	0.00022392	5.8501e-05	1126.2	2.4755e-06	2.3874e-06	1192.5	237.81	2.5394e-06	2.4059e-06	296.07	82.543	64.344	19.051	2.4048e-06	27.055	158.125	65.052	84.952	-3.559	151.488	136.234	-3.241	3.727	172.680	110.664	3.235	9.903	11.054	17.393	133.892	16.815	-8191	255	
603.404	1	1	0	0	0.319	0.096777	0.061094	0.29151	0.12295	0.036802	0.19012	0.26189	0.033779	0.14412	0.22819	0.070726	0.089459	0.075217	0.22884	0.080641	-2.7875	-3.2792	-3.4021	-3.5208	-3.5167	-3.2375	-3.2562	-3.4021	-3.3375	-3.4875	-3.5021	-3.2729	-3.3812	-3.2271	-3.2958	-3.5	35.885	-2.311	333.911	288.666	30.606	33.732	258.772	146.451	245.867	341.749	51.817	33.716	-14.040	133.922	172.009	60.557	0.00012778	0.00026827	7.2065e-05	1151.2	1.7996e-06	2.5767e-06	1213.6	240.22	1.5487e-06	1.9602e-06	300.07	81.693	63.974	18.986	1.8951e-06	27.15	0.00021047	0.00021808	5.7771e-05	1123.3	2.4219e-06	2.3138e-06	1190.5	237.06	2.377e-06	2.3891e-06	295.94	82.367	64.067	19.039	2.3606e-06	27.074	158.439	39.371	98.409	-3.356	175.597	142.583	-3.050	3.846	152.585	155.343	3.648	10.415	10.756	17.164	124.739	16.825	-8191	255	
603.498	1	1	0	0	0.031867	0.11829	0.28216	0.25118	0.023939	0.11346	0.073851	0.21459	0.040861	0.24631	0.20154	0.13125	0.12267	0.059993	0.18516	0.18053	-2.6396	-3.1312	-3.5312	-3.2562	-3.6437	-3.4833	-3.2542	-3.5187	-3.2125	-3.325	-3.5687	-3.1646	-3.4458	-3.3688	-3.3167	-3.6104	71.272	253.058	21.601	-12.143	315.125	284.831	264.056	242.090	133.397	206.457	276.469	265.077	183.859	-4.928	-5.587	9.130	9.8249e-05	0.00033268	3.8339e-05	1146.5	1.5787e-06	3.3258e-06	1212	239.58	1.6847e-06	3.1631e-06	299.83	81.869	63.711	18.974	2.8447e-06	26.965	0.00020314	0.00021254	6.0997e-05	1118.1	2.4791e-06	2.2746e-06	1185.7	236.38	2.4294e-06	2.3078e-06	295.35	82.321	63.853	18.965	2.3904e-06	26.998	152.165	74.426	49.822	-3.493	196.553	148.764	-3.070	3.754	168.576	123.087	3.406	10.656	10.504	16.834	160.953	17.035	-8191	255	
603.594	1	1	0	0	0.093056	0.034374	0.23785	0.22864	0.11382	0.20044	0.16132	0.15327	0.1571	0.27568	0.33351	0.16841	0.15617	0.10043	0.10426	0.0037514	-2.6854	-3.1312	-3.5083	-3.5146	-3.3812	-3.4771	-3.2229	-3.5354	-3.2896	-3.4396	-3.5542	-3.225	-3.2896	-3.5667	-3.3021	-3.4979	322.112	112.469	-0.347	302.149	278.706	314.818	289.772	339.337	190.634	275.615	330.936	67.218	159.678	329.543	237.519	41.772	0.00011015	0.00038339	0.00014871	1140.6	2.1016e-06	4.5979e-06	1210.1	238.86	1.7702e-06	2.6968e-06	299.27	81.946	63.839	19.048	2.4067e-06	26.764	0.00020966	0.00021367	6.0424e-05	1117	2.5465e-06	2.2948e-06	1184.1	236.26	2.5007e-06	2.3788e-06	294.87	82.357	63.895	19.025	2.4029e-06	27.019	153.475	107.764	64.953	-3.381	188.353	149.330	-3.133	3.819	180.652	158.348	3.254	10.180	10.661	17.145	168.753	16.907	-8191	255	
603.691	1	1	0	0	0.10673	0.23567	0.27532	0.18827	0.12072	0.072864	0.23738	0.13274	0.0044244	0.14354	0.11849	0.067137	0.13271	0.22333	0.25033	0.11961	-2.8896	-3.1708	-3.5687	-3.3021	-3.3917	-3.4313	-3.4542	-3.45	-3.3625	-3.2167	-3.4688	-3.2125	-3.2562	-3.5958	-3.1021	-3.5167	333.159	31.685	81.404	333.698	88.423	6.479	274.552	316.059	315.295	25.989	-8.224	106.305	254.663	344.909	0.793	277.548	0.00013474	0.00029977	4.0605e-05	1140.5	1.9341e-06	3.7692e-06	1213.9	239.66	2.4541e-06	2.7928e-06	300.07	82.096	64.407	18.96	3.4644e-06	26.98	0.00020786	0.00021082	5.9351e-05	1115.9	2.3798e-06	2.1652e-06	1184.4	236.33	2.401e-06	2.3028e-06	294.9	82.304	64.068	19.002	2.3619e-06	26.965	151.933	62.536	56.704	-3.557	167.518	123.473	-3.175	3.841	148.116	141.119	3.633	10.227	10.547	16.799	153.221	16.939	-8191	255	
603.811	1	1	0	0	0.18274	0.20501	0.13682	0.21529	0.16238	0.095813	0.16061	0.10681	0.10181	0.12134	0.24694	0.035737	0.12457	0.26597	0.018789	0.031322	-2.9771	-3.1771	-3.2042	-3.2896	-3.3063	-3.5667	-3.4333	-3.6854	-3.4979	-3.15	-3.5021	-3.3563	-3.3312	-3.4417	-3.2062	-3.4854	319.836	185.175	62.107	307.188	320.290	129.272	328.076	195.957	253.850	77.223	9.958	320.514	145.327	324.329	166.871	145.645	0.0001053	0.00018747	0.0001269	1143.7	2.4696e-06	3.7926e-06	1211.9	239.57	1.7544e-06	1.8147e-06	300.49	81.745	63.274	18.902	2.0209e-06	26.843	0.00020107	0.00020893	5.8845e-05	1117.3	2.4141e-06	2.3404e-06	1185.5	236.41	2.4722e-06	2.3501e-06	294.76	82.131	63.68	19.018	2.392e-06	26.978	154.800	104.534	75.171	-3.493	196.821	134.252	-3.077	4.068	163.837	118.089	3.516	10.229	10.474	17.419	142.129	16.719	-8191	255	
603.907	1	1	0	0	0.10651	0.1237	0.11398	0.1758	0.14854	0.016937	0.12795	0.21275	0.16593	0.11314	0.24421	0.18715	0.11163	0.10872	0.12767	0.18431	-2.9813	-3.2	-3.4938	-3.5958	-3.3542	-3.6125	-3.3063	-3.4583	-3.3979	-3.25	-3.5792	-3.4542	-3.4062	-3.6208	-3.2104	-3.3917	119.730	23.099	90.275	234.322	273.682	294.635	259.511	173.264	315.855	101.345	340.235	26.604	53.977	258.657	210.403	181.584	0.00012497	0.00035682	0.00013934	1144.3	2.1599e-06	3.3304e-06	1212.3	239.05	2.2608e-06	2.3613e-06	297.66	81.507	63.989	19.021	2.2466e-06	26.914	0.00019919	0.00022034	5.7602e-05	1116.1	2.3584e-06	2.2319e-06	1183.8	236.13	2.3465e-06	2.2671e-06	294.26	82.029	63.979	18.978	2.3149e-06	26.957	159.004	68.917	58.703	-3.531	159.500	137.968	-3.304	3.821	146.064	137.552	3.441	10.109	10.944	17.198	160.675	16.867	-8191	255	
604.004	1	1	0	0	0.13968	0.2486	0.10901	0.23843	0.074191	0.13597	0.088922	0.073726	0.082778	0.19468	0.052024	0.11939	0.1245	0.11141	0.013986	0.1844	-3.05	-3.1479	-3.3771	-3.4854	-3.3271	-3.4917	-3.375	-3.3125	-3.4042	-3.2125	-3.6458	-3.4229	-3.1021	-3.525	-3.1562	-3.2729	253.716	101.301	179.687	293.911	306.939	203.611	317.689	321.110	-11.580	332.193	303.817	138.314	318.856	36.022	176.302	232.069	0.00012142	0.00046257	8.0344e-05	1146	2.2788e-06	4.111e-06	1210.8	240.2	1.4973e-06	9.8151e-07	299.15	81.923	63.678	18.885	2.3071e-06	27.183	0.00020569	0.00021363	5.9327e-05	1116.4	2.5314e-06	2.3332e-06	1184.2	236.29	2.4939e-06	2.4038e-06	294.32	82.196	63.794	19.014	2.5488e-06	27.042	154.228	70.402	80.419	-3.317	157.961	135.587	-3.179	3.908	178.108	126.299	3.267	10.188	10.279	17.384	108.813	17.081	-8191	255	
604.075	1	1	0	0	0.28003	0.10928	0.13371	0.20181	0.1966	0.090336	0.20607	0.3639	0.15342	0.11033	0.31596	0.13395	0.23951	0.02159	0.044329	0.23677	-3.1813	-3.2271	-3.1854	-3.4437	-3.2708	-3.3271	-3.4938	-3.4458	-3.4833	-3.2667	-3.5125	-3.3521	-3.1229	-3.45	-3.2292	-3.3229	167.980	290.263	88.661	-4.496	230.226	196.538	304.113	345.610	305.573	33.428	-14.174	235.270	342.295	310.473	246.924	49.689	0.00014006	0.00020579	0.00010057	1143	2.6255e-06	2.6866e-06	1208.9	239.57	2.1784e-06	3.7158e-06	301.47	81.72	63.365	18.898	2.7224e-06	26.868	0.00021682	0.00022587	6.2058e-05	1114.8	2.6239e-06	2.4913e-06	1181.8	236.05	2.5367e-06	2.5069e-06	295.17	82.062	63.733	18.953	2.5247e-06	27.007	155.125	69.079	76.007	-3.036	168.108	103.157	-3.077	3.790	163.416	133.162	3.275	10.168	10.754	17.226	180.613	16.665	-8191	255	
604.196	1	1	0	0	0.16324	0.22081	0.21189	0.18314	0.087994	0.18642	0.38991	0.36086	0.16931	0.12821	0.15096	0.11296	0.097313	0.21418	0.15702	0.28619	-3.2438	-3.1521	-3.5208	-3.4958	-3.0333	-3.5062	-3.2896	-3.1146	-3.5542	-3.1646	-3.4125	-3.4708	-3.1813	-3.3708	-3.2062	-3.225	338.670	220.970	338.298	275.024	277.178	166.987	292.142	310.749	96.712	160.247	15.532	145.193	76.920	274.865	306.503	300.475	0.00011598	0.00042328	0.00010976	1143.1	2.0537e-06	3.4391e-06	1206.9	238.91	2.0384e-06	2.0946e-06	300.07	81.802	64.259	18.967	1.8244e-06	26.905	0.00021078	0.00023156	6.3144e-05	1116.4	2.5735e-06	2.4765e-06	1182.4	236.26	2.5607e-06	2.5213e-06	295.1	82.28	63.955	18.994	2.3731e-06	26.951	161.469	45.346	83.540	-3.627	201.649	122.121	-2.960	3.807	178.202	119.145	3.337	10.191	10.733	17.214	153.154	16.677	-8191	255	
604.292	1	1	0	0	0.098533	0.11582	0.098084	0.25954	0.15183	0.16836	0.21353	0.29983	0.091956	0.08637	0.080233	0.25069	0.22946	0.31372	0.097127	0.23126	-2.9562	-3.2042	-3.2146	-3.725	-3.3229	-3.3208	-3.3771	-3.3167	-3.4938	-3.1083	-3.1521	-3.4792	-3.2917	-3.3333	-3.5479	-3.2833	107.412	80.123	297.694	16.093	35.970	269.398	286.674	330.991	321.065	178.833	335.866	28.014	36.892	291.236	249.257	280.511	0.00012718	0.00022199	5.9888e-05	1140.8	2.8155e-06	4.0241e-06	1212.4	238.44	1.6216e-06	4.0252e-06	297.84	81.432	63.444	18.964	2.0103e-06	26.778	0.00020933	0.00022863	6.3397e-05	1113.9	2.6059e-06	2.4035e-06	1183.1	235.94	2.5683e-06	2.482e-06	294.14	82.057	63.767	18.959	2.38e-06	26.953	152.955	29.274	116.487	-3.206	170.200	169.626	-3.158	3.799	136.490	144.584	3.250	10.290	10.413	17.185	143.061	16.830	-8191	255	
604.388	1	1	0	0	0.23845	0.19541	0.20832	0.12529	0.27049	0.10012	0.16717	0.10882	0.15754	0.13514	0.10982	0.049156	0.089979	0.14996	0.26347	0.11136	-2.9437	-3.3688	-3.1167	-3.5938	-3.3667	-3.3354	-3.6437	-3.2458	-3.4354	-3.3292	-3.3667	-3.3792	-3.1917	-3.3896	-3.5792	-2.8979	194.123	-8.935	264.068	206.020	51.579	220.124	277.756	242.621	87.104	206.406	233.530	92.539	131.217	202.018	87.454	66.528	0.00011752	0.00021383	7.0662e-05	1137.8	3.2284e-06	1.4746e-06	1207.5	238.99	1.7312e-06	3.6642e-06	298.25	81.991	64.014	18.941	1.9422e-06	26.976	0.00020853	0.00022431	6.0907e-05	1113.1	2.5967e-06	2.4273e-06	1182.7	236.11	2.4552e-06	2.3596e-06	294.26	82.116	63.678	19.004	2.3585e-06	27.001	155.182	29.578	91.905	-3.481	162.940	139.457	-3.109	3.748	160.478	155.363	3.468	10.343	10.454	17.246	159.776	16.814	-8191	255	
604.484	1	1	0	0	0.18636	0.24046	0.13097	0.34827	0.13893	0.13518	0.15179	0.12247	0.19733	0.11911	0.13471	0.15835	0.071555	0.23069	0.11735	0.27637	-3.0563	-3.3354	-3.1896	-3.6188	-3.1562	-3.2958	-3.4833	-3.3292	-3.4104	-3.4458	-3.3312	-3.6063	-3.3854	-3.3688	-3.6458	-3.225	259.994	280.032	136.689	305.013	323.779	38.641	252.466	296.246	-2.584	109.214	287.436	71.895	179.707	177.311	87.745	-9.560	0.00012863	0.00031659	0.00012524	1144.1	2.9967e-06	1.6685e-06	1207.4	238.06	1.0207e-06	1.2776e-06	298.02	81.444	63.762	18.98	2.9395e-06	26.875	0.00020833	0.00021649	6.1582e-05	1113.7	2.5021e-06	2.4585e-06	1181.1	235.7	2.547e-06	2.399e-06	293.93	81.958	63.723	19.008	2.4226e-06	26.971	155.405	83.258	47.029	-3.389	168.140	139.301	-3.315	3.790	155.635	119.589	3.325	10.064	10.442	16.908	179.745	16.945	-8191	255	
604.603	1	1	0	0	0.092683	0.12673	0.23108	0.34243	0.1586	0.046955	0.18397	0.22063	0.22397	0.13758	0.2362	0.035541	0.13941	0.20798	0.11439	0.058151	-2.9292	-3.3146	-3.1646	-3.6479	-3.2729	-3.3187	-3.725	-3.3625	-3.2812	-3.3667	-3.2875	-3.4771	-3.5	-3.1854	-3.5646	-3.3667	220.360	63.513	59.410	327.109	318.663	36.037	250.090	292.106	97.169	84.021	342.269	264.289	242.239	61.210	83.297	113.010	0.00010811	0.00028617	6.4602e-05	1138.3	3.2603e-06	2.1913e-06	1208.9	238.21	1.3266e-06	2.5355e-06	297.28	81.724	63.584	18.926	2.389e-06	26.76	0.00020128	0.0002196	6.1474e-05	1113.5	2.505e-06	2.3116e-06	1181.3	235.48	2.5428e-06	2.3685e-06	294.07	81.942	63.725	18.957	2.3944e-06	26.941	157.275	121.971	106.205	-3.455	171.733	102.078	-3.146	3.706	180.868	138.540	3.465	9.897	10.508	16.934	156.602	16.694	-8191	255	
604.699	1	1	0	0	0.19903	0.10122	0.19259	0.4494	0.11334	0.014458	0.10502	0.28347	0.27053	0.44528	0.20056	0.076442	0.26024	0.30568	0.2725	0.19221	-3.0271	-3.4229	-3.125	-3.4771	-3.4333	-3.2958	-3.5896	-3.3146	-3.3958	-3.6333	-3.1417	-3.5271	-3.4521	-3.1083	-3.5083	-3.45	194.775	36.603	116.030	315.671	47.983	76.832	299.056	301.214	94.717	155.978	298.241	249.156	301.618	69.378	206.892	87.020	0.00011516	0.00035102	0.00010998	1137.9	2.6319e-06	3.613e-06	1205.2	237.87	2.0407e-06	2.9524e-06	299.88	81.463	63.29	18.916	2.0097e-06	26.907	0.00020399	0.0002121	6.186e-05	1110.9	2.5021e-06	2.4145e-06	1177.8	235.38	2.6001e-06	2.4316e-06	294.35	81.834	63.503	18.942	2.4434e-06	26.984	158.125	88.612	45.560	-3.278	164.572	133.963	-3.124	3.829	184.007	139.109	3.669	10.349	10.560	17.031	143.153	16.883	-8191	255	
604.771	1	1	0	0	0.13407	0.1244	0.10847	0.028607	0.080831	0.11363	0.046218	0.19724	0.32513	0.080106	0.19323	0.12817	0.16366	0.15308	0.16563	0.23155	-2.975	-3.6271	-3.1271	-3.5271	-3.3833	-3.3958	-3.5375	-3.3833	-3.3021	-3.525	-3.3937	-3.4958	-3.5167	-3.1813	-3.4062	-3.4313	88.791	250.197	290.625	33.213	59.309	70.171	223.040	248.339	311.771	208.033	87.649	274.428	6.644	328.958	242.599	338.887	0.0001126	0.00050535	1.8659e-05	1138.3	2.9509e-06	2.3064e-06	1203.5	238.69	1.5755e-06	3.5265e-06	299.37	81.785	63.851	18.957	1.645e-06	26.932	0.00021009	0.00023183	6.2438e-05	1110.4	2.6358e-06	2.5571e-06	1179.8	235.63	2.6812e-06	2.522e-06	294.21	81.935	63.727	18.973	2.5344e-06	26.979	156.066	65.275	62.198	-3.306	155.781	139.703	-3.213	3.753	165.275	163.185	3.872	10.032	10.706	16.818	181.868	16.718	-8191	255	
604.892	1	1	0	0	0.31075	0.1532	0.049256	0.22708	0.27945	0.056172	0.3501	0.1667	0.21988	0.086468	0.36977	0.18803	0.14297	0.11551	0.29514	0.1033	-2.9771	-3.3063	-3.0667	-3.5229	-3.2271	-3.2042	-3.6771	-3.3792	-3.1792	-3.5396	-3.5312	-3.425	-3.4688	-3.2854	-3.3229	-3.2854	275.012	342.197	312.059	261.956	288.544	55.926	276.086	305.462	236.140	37.014	342.533	240.338	225.288	17.902	345.142	234.336	0.00011953	0.00024769	7.3571e-05	1138	2.4074e-06	3.3396e-06	1206.1	238.81	2.7678e-06	3.5092e-06	298.06	81.611	63.523	18.797	3.5826e-06	26.919	0.00022666	0.00022794	6.6032e-05	1111.2	2.7284e-06	2.6097e-06	1179.5	235.6	2.6633e-06	2.552e-06	294.08	81.926	63.654	18.896	2.4805e-06	26.9	153.028	65.520	97.492	-3.310	137.653	127.591	-3.055	3.687	180.056	135.616	3.327	10.171	10.583	17.189	164.859	17.128	-8191	255	
604.988	1	1	0	0	0.034153	0.1808	0.12437	0.22387	0.091424	0.16726	0.21069	0.13271	0.15903	0.15269	0.14443	0.26735	0.17956	0.017787	0.17847	0.091175	-2.6875	-3.3625	-3.1417	-3.4521	-3.4188	-3.3563	-3.4604	-3.5125	-3.2104	-3.4646	-3.4229	-3.3729	-3.5479	-3.4229	-3.4083	-3.3083	234.416	63.008	131.807	309.342	280.397	126.899	235.881	-0.772	-10.060	1.345	282.590	342.873	187.362	283.929	-3.121	20.994	0.00011525	0.00035957	0.00014406	1136.7	3.7594e-06	2.8347e-06	1203.5	237.87	1.9659e-06	1.7084e-06	298.57	81.393	63.504	18.775	3.1751e-06	26.838	0.0002177	0.00022503	6.3445e-05	1108.2	2.6638e-06	2.5581e-06	1176.3	235.1	2.7193e-06	2.5103e-06	293.98	81.837	63.701	18.873	2.4765e-06	26.855	158.061	55.402	82.038	-3.445	169.886	82.627	-3.164	3.833	153.000	109.478	3.354	10.240	10.687	16.997	162.189	17.124	-8191	255	
605.084	1	1	0	0	0.10884	0.092708	0.14675	0.32129	0.15469	0.15863	0.31497	0.16839	0.052305	0.1411	0.15839	0.1965	0.28158	0.17274	0.22165	0.052727	-2.7833	-3.4229	-3.3833	-3.3604	-3.4437	-3.4146	-3.6104	-3.6562	-3.2104	-3.4646	-3.3375	-3.4229	-3.5917	-3.275	-3.4479	-3.6146	196.235	294.366	37.723	324.010	287.648	1.573	239.304	172.157	308.650	40.747	319.936	20.870	295.045	44.772	233.945	283.074	0.00012624	0.00043485	8.8059e-05	1135.2	2.3144e-06	4.2534e-06	1201.6	238.45	1.0021e-06	2.8224e-06	298.45	81.065	63.563	18.844	2.9628e-06	26.987	0.00021203	0.00022388	6.1251e-05	1108.5	2.5624e-06	2.4191e-06	1174.4	234.88	2.5845e-06	2.3836e-06	292.85	81.541	63.317	18.873	2.565e-06	26.889	159.760	66.104	76.329	-3.358	160.321	131.170	-3.061	3.859	170.181	116.703	3.505	10.532	10.412	16.857	153.395	17.114	-8191	255	
605.205	1	1	0	0	0.16673	0.18127	0.23812	0.37674	0.093167	0.083789	0.32415	0.10542	0.080679	0.1244	0.080004	0.19796	0.20862	0.14144	0.21705	0.11505	-2.8125	-3.5125	-3.2917	-3.4042	-3.6125	-3.3958	-3.4271	-3.5708	-3.1208	-3.5583	-3.5479	-3.2875	-3.4729	-3.2687	-3.3521	-3.4646	141.931	13.156	227.096	301.874	268.012	82.668	279.342	242.266	123.884	172.867	325.641	238.766	286.345	311.792	132.872	184.467	0.00011579	0.0003156	8.1626e-05	1133.4	2.6234e-06	3.1761e-06	1202.9	237.14	1.5858e-06	2.0676e-06	296.12	81.558	63.412	18.755	2.0467e-06	26.774	0.00021375	0.00021979	6.1052e-05	1106	2.6165e-06	2.4114e-06	1173.8	234.31	2.4691e-06	2.3666e-06	292.2	81.797	63.297	18.829	2.489e-06	26.85	158.447	93.419	86.719	-3.304	181.725	122.816	-3.244	3.935	184.537	141.452	3.769	10.612	10.742	17.320	149.016	16.939	-8191	255	
605.299	1	1	0	0	0.12906	0.19813	0.15774	0.14858	0.22561	0.049249	0.21439	0.18129	0.13686	0.069897	0.33516	0.18239	0.27235	0.18194	0.13296	0.09148	-2.8542	-3.1375	-3.2354	-3.2687	-3.6396	-3.3875	-3.4042	-3.6583	-3.275	-3.2417	-3.4313	-3.1292	-3.4542	-3.2854	-3.3396	-3.5542	109.388	100.658	207.625	300.038	19.645	314.033	304.403	328.851	155.355	83.527	320.214	323.327	96.876	229.720	269.286	15.259	0.00012191	0.00039921	0.00010188	1132.3	1.9093e-06	3.0767e-06	1195.5	238.37	1.3851e-06	3.0553e-06	296.63	81.519	63.327	18.841	2.1035e-06	26.871	0.00020896	0.00022522	6.3264e-05	1105.7	2.5147e-06	2.4038e-06	1172.4	234.98	2.5773e-06	2.3467e-06	292.39	81.581	63.46	18.881	2.4173e-06	26.871	157.872	70.296	109.780	-3.370	155.084	119.531	-3.133	3.945	161.387	117.967	3.416	10.152	10.986	17.106	136.234	16.527	-8191	255	
605.372	1	1	0	0	0.12018	0.015267	0.088144	0.19991	0.16725	0.31515	0.20649	0.19212	0.099047	0.1926	0.24538	0.25081	0.029286	0.086719	0.097994	0.040017	-2.7854	-3.4062	-3.3167	-3.3438	-3.3979	-3.4146	-3.4125	-3.5625	-3.2167	-3.4521	-3.5979	-3.3563	-3.5479	-3.325	-3.2417	-3.4333	315.821	53.186	322.503	292.122	128.421	8.961	254.541	-10.645	272.225	340.527	248.294	204.984	261.960	324.694	-6.835	133.114	0.0001223	0.00031298	8.183e-05	1131.1	1.5073e-06	3.0306e-06	1204.4	237.04	9.0085e-07	3.3186e-06	297	81.525	63.482	18.856	3.2945e-06	26.806	0.00021045	0.00022053	6.4362e-05	1106.9	2.625e-06	2.524e-06	1174.4	234.4	2.7182e-06	2.6292e-06	292.59	81.633	63.471	18.904	2.6912e-06	26.848	143.718	74.728	106.922	-3.255	182.240	87.075	-3.147	3.718	176.615	128.060	3.344	10.507	10.426	16.973	139.782	16.844	-8191	255	
605.493	1	1	0	0	0.1201	0.13479	0.077999	0.24964	0.12399	0.10862	0.26017	0.014015	0.36563	0.11454	0.07039	0.1046	0.14942	0.24017	0.24785	0.23195	-2.8688	-3.3063	-3.6	-3.2521	-3.3458	-3.3563	-3.2854	-3.575	-3.4583	-3.2458	-3.5375	-3.2562	-3.5208	-3.1833	-3.1854	-3.4125	7.182	3.225	44.337	300.607	155.301	144.979	317.267	185.954	142.219	93.403	338.565	302.901	216.727	-12.456	291.405	282.626	0.00012037	0.00044265	8.3887e-05	1136	2.5471e-06	2.1927e-06	1201.7	237.11	2.0148e-06	4.124e-06	298.78	81.41	63.891	19.004	3.8431e-06	26.944	0.00022489	0.0002439	6.6677e-05	1107.3	2.9337e-06	2.6946e-06	1175.7	234.78	2.8768e-06	2.8448e-06	293.64	82.059	63.968	19.036	2.7949e-06	26.982	156.830	73.528	66.476	-3.382	176.453	118.166	-3.101	4.015	157.394	127.344	3.251	10.449	10.276	16.954	128.207	16.899	-8191	255	
605.587	1	1	0	0	0.10888	0.19207	0.13432	0.15012	0.067872	0.081079	0.17548	0.42025	0.18832	0.24322	0.092911	0.25697	0.21628	0.16462	0.063296	0.17779	-2.7646	-3.3729	-3.4688	-3.2062	-3.4396	-3.2875	-3.2812	-3.5646	-3.2146	-3.2396	-3.4313	-3.1396	-3.5396	-3.4125	-3.1792	-3.4833	291.464	114.494	139.613	331.656	299.182	-13.888	247.916	307.094	273.669	10.162	142.632	93.550	338.318	131.534	267.329	129.277	0.00012759	0.00030333	0.00011098	1143.8	1.7358e-06	4.8197e-06	1207.3	238.36	1.1867e-06	2.9498e-06	297.79	80.996	63.386	18.905	2.6389e-06	26.849	0.00023437	0.00025339	7.085e-05	1117.1	2.8799e-06	2.7172e-06	1182	235.87	2.9561e-06	2.857e-06	293.77	81.926	63.637	18.945	3.1417e-06	26.961	152.678	77.348	73.719	-3.397	144.276	129.625	-2.996	3.899	166.390	142.920	3.361	10.507	10.899	17.101	124.498	17.183	-8191	255	
605.684	1	1	0	0	0.18777	0.13602	0.084651	0.27201	0.19003	0.068988	0.19741	0.37862	0.15944	0.18893	0.024019	0.12739	0.039386	0.11964	0.1512	0.20256	-2.9396	-3.0833	-3.5708	-3.4562	-3.4813	-3.4292	-3.3396	-3.5583	-3.2729	-3.125	-3.6125	-3.3646	-3.2375	-3.6146	-2.9313	-3.5146	65.894	-2.327	17.907	76.087	236.984	-1.617	333.910	292.977	79.372	224.703	188.482	267.212	14.999	345.050	180.100	190.642	0.00013248	0.00019359	0.00010333	1133.1	3.0309e-06	3.4653e-06	1196.6	237.52	1.0534e-06	1.4041e-06	297.15	81.762	63.465	18.825	1.4137e-06	26.757	0.00025492	0.00029735	8.1595e-05	1107.6	3.1916e-06	3.0901e-06	1172.3	235.04	3.1902e-06	3.2022e-06	293.58	82.102	63.753	18.951	3.4517e-06	27.054	155.992	53.973	71.280	-3.218	185.053	140.455	-3.084	3.930	57.001	109.548	3.571	10.268	10.364	17.198	140.214	17.120	-8191	255	
605.780	1	1	0	0	0.30244	0.11344	0.055606	0.11221	0.019171	0.25262	0.04847	0.22413	0.12794	0.21286	0.10789	0.28642	0.093696	0.24283	0.090644	0.27841	-2.8667	-3.2521	-3.4354	-3.4125	-3.0229	-3.6542	-3.3875	-3.4042	-3.4083	-3.2042	-3.5229	-3.2958	-3.1688	-3.5729	-3.1083	-3.2604	256.653	115.059	61.827	293.058	341.701	112.934	299.247	238.354	227.029	21.542	173.357	298.534	202.858	303.292	138.600	-3.112	0.00011173	0.00040817	5.3281e-05	1144.3	1.3694e-06	5.9173e-06	1211.4	241.22	1.7569e-06	2.4873e-06	298.76	81.881	64.406	19.205	2.9061e-06	26.99	0.00028706	0.00032148	9.2473e-05	1116.4	3.7808e-06	3.7021e-06	1183.5	237.68	3.695e-06	3.8355e-06	296.26	82.743	64.495	19.231	4.0104e-06	27.28	149.805	78.122	36.202	-3.481	136.464	140.823	-3.154	3.884	164.738	122.493	3.458	10.445	10.736	16.962	123.190	17.051	-8191	255	
605.900	1	1	0	0	0.31399	0.30483	0.12974	0.13682	0.19374	0.19794	0.22583	0.23535	0.20503	0.088815	0.27332	0.047315	0.10894	0.12068	0.12261	0.19212	-3.0542	-2.9958	-3.4062	-3.3708	-2.9813	-3.5062	-3.3333	-3.3542	-3.4854	-3.1625	-3.5146	-3.4125	-3.3542	-3.5146	-3.1	-3.4667	338.991	121.703	79.274	300.739	30.230	311.335	68.592	55.729	167.266	32.693	-11.514	224.031	156.675	100.941	62.506	111.047	0.00010945	0.00024001	0.00011739	1163	2.4607e-06	1.7044e-06	1224.3	241.16	2.0854e-06	2.6764e-06	303.29	82.997	64.911	19.35	2.238e-06	27.462	0.0003143	0.00037569	0.00010204	1131.6	4.031e-06	3.8975e-06	1198	239.08	3.8209e-06	3.8742e-06	298.98	83.437	65.103	19.377	3.8559e-06	27.487	151.878	73.135	79.726	-3.401	157.491	117.655	-3.179	3.699	140.479	137.108	3.258	10.354	10.035	17.154	142.406	16.518	-8191	255	
605.996	1	1	0	0	0.22226	0.080927	0.034283	0.29143	0.1038	0.22201	0.27306	0.074568	0.047886	0.074163	0.17839	0.18365	0.14885	0.27862	0.14866	0.10811	-2.8875	-3.0021	-3.3667	-3.5104	-3.2417	-3.5354	-3.1417	-3.5125	-3.3812	-3.0854	-3.5042	-3.5417	-3.2646	-3.5146	-3.1792	-3.35	167.308	140.093	222.423	280.985	114.716	106.350	-11.528	306.243	324.209	95.125	322.498	319.768	268.880	321.234	273.167	191.493	0.00012396	0.00024787	0.00013552	1176.9	2.7769e-06	2.1255e-06	1242.1	244.63	1.6693e-06	2.4172e-06	307.16	83.327	65.787	19.488	3.4133e-06	27.426	0.0002993	0.00035888	9.7821e-05	1145.7	3.9486e-06	3.9577e-06	1216.1	242.22	4.0001e-06	4.0545e-06	302.08	84.17	66.002	19.528	4.15e-06	27.63	158.372	93.802	94.701	-3.392	157.061	97.198	-3.241	3.743	217.853	121.185	3.360	9.941	10.583	16.599	165.534	16.789	-8191	255	
606.068	1	1	0	0	0.10438	0.075569	0.10846	0.24898	0.17787	0.036438	0.25243	0.11367	0.22257	0.2835	0.22593	0.15681	0.10038	0.20139	0.25358	0.19003	-3.1958	-3.2417	-3.3542	-3.6	-3.075	-3.4583	-3.3958	-3.375	-3.4896	-3.2917	-3.3729	-3.4938	-3.0812	-3.3979	-3.3833	-3.2229	73.319	211.299	234.728	298.658	65.768	97.643	278.390	247.509	5.222	324.454	311.764	221.379	42.387	315.388	74.654	303.200	0.0001111	0.00046773	6.3903e-05	1178.4	1.7241e-06	2.4593e-06	1246.8	246.3	1.2156e-06	3.5492e-06	305.89	83.425	65.131	19.405	1.6614e-06	27.508	0.00031595	0.00037391	0.00010348	1150	4.013e-06	3.8403e-06	1217.7	242.77	3.7651e-06	3.7353e-06	301.52	84.138	65.688	19.503	3.8733e-06	27.655	163.703	53.032	72.285	-3.580	170.857	120.917	-3.180	3.781	186.062	160.868	3.465	10.431	10.243	16.879	125.060	16.896	-8191	255	
606.164	1	1	0	0	0.12383	0.058313	0.033638	0.27173	0.22659	0.12472	0.16769	0.18724	0.041071	0.056095	0.061516	0.095879	0.28951	0.1273	0.17352	0.21642	-3.0875	-3.0479	-3.2667	-3.5687	-2.9833	-3.4771	-3.4896	-3.4667	-3.4729	-3.2917	-3.4062	-3.4437	-3.2	-3.2708	-3.5125	-3.3479	-4.317	327.909	211.995	5.277	220.913	273.947	247.693	297.582	339.142	314.834	282.870	-6.919	229.921	311.066	234.679	26.184	0.00014081	0.0003622	0.00015402	1185.3	2.0124e-06	2.1616e-06	1254.6	247.52	2.3489e-06	2.3144e-06	308.02	84.57	65.558	19.673	2.86e-06	27.557	0.00031393	0.00037096	0.00010492	1156.7	4.2895e-06	4.3093e-06	1225.5	244.15	4.3489e-06	4.3795e-06	303.77	84.772	66.316	19.723	4.172e-06	27.785	147.975	75.154	100.300	-3.401	150.907	111.053	-3.473	3.479	158.148	116.029	3.339	10.084	10.343	16.795	155.363	16.541	-8191	255	
606.283	1	1	0	0	0.076153	0.027329	0.16534	0.34934	0.072227	0.23123	0.14793	0.17318	0.10093	0.076007	0.010733	0.034555	0.077167	0.042743	0.17541	0.07114	-3.0833	-3.1792	-3.1021	-3.4333	-3.1021	-3.3646	-3.6333	-3.3417	-3.55	-3.2646	-3.3896	-3.4271	-3.1979	-3.525	-3.5667	-3.1729	175.786	172.770	60.245	344.914	139.159	-12.114	220.006	241.701	-1.792	9.588	234.696	18.193	98.563	60.509	60.274	90.402	0.00010964	0.00031205	0.00015729	1189.5	3.7389e-06	4.7188e-06	1251.4	247.8	8.0099e-07	3.2293e-06	308.06	84.375	65.729	19.498	3.1563e-06	27.469	0.00031425	0.00037287	9.8587e-05	1160.6	4.047e-06	3.9289e-06	1229.3	244.86	3.8361e-06	3.565e-06	304.41	84.674	66.081	19.62	3.6756e-06	27.704	159.046	110.107	84.127	-3.532	181.410	177.164	-3.419	3.518	104.240	150.262	3.467	10.374	10.381	16.835	150.709	16.904	-8191	255	
606.379	1	1	0	0	0.32918	0.095962	0.13822	0.19104	0.054061	0.058099	0.1468	0.08126	0.30979	0.070981	0.19582	0.20582	0.18357	0.18186	0.13115	0.062753	-2.9646	-3.3125	-3.2375	-3.5375	-3.2812	-3.55	-3.5479	-3.225	-3.475	-3.3	-3.3063	-3.5479	-3.2167	-3.325	-3.5583	-3.1625	178.145	1.858	249.953	1.643	80.745	293.470	309.067	322.691	81.160	76.665	9.375	280.579	165.700	261.727	316.543	131.775	0.00013081	0.00040439	0.00013049	1187.2	2.3091e-06	3.4838e-06	1249.4	247.07	2.7838e-06	2.9101e-06	307.4	83.439	65.577	19.397	3.9603e-06	27.19	0.00029614	0.00035386	0.00010292	1157.9	4.2332e-06	4.1082e-06	1224	244.6	4.3071e-06	4.2655e-06	303.88	84.39	65.905	19.54	4.0657e-06	27.532	163.844	70.052	57.369	-3.423	140.944	126.498	-2.903	3.563	181.968	132.602	3.262	10.230	10.475	16.965	122.900	16.920	-8191	255	
606.475	1	1	0	0	0.19717	0.21716	0.28618	0.39764	0.13904	0.33494	0.23986	0.23127	0.11557	0.16903	0.082803	0.15655	0.10325	0.17783	0.2938	0.039054	-2.8771	-3.3438	-3.2979	-3.4583	-3.15	-3.3146	-3.5354	-3.4396	-3.3271	-3.1896	-3.1896	-3.475	-3.2667	-3.4813	-3.4562	-3.2292	181.010	194.346	63.167	342.995	21.305	331.197	291.795	296.159	17.485	235.559	156.488	269.556	139.164	57.633	51.024	251.169	0.00013892	0.00018238	9.8493e-05	1166.6	3.1584e-06	2.6015e-06	1230.8	243.44	2.0605e-06	1.8309e-06	303.74	82.625	64.53	18.992	1.9112e-06	27.139	0.00030677	0.00034915	9.6748e-05	1141.2	3.6989e-06	3.4535e-06	1203.2	240.69	3.3529e-06	3.1619e-06	298.81	83.233	64.628	19.168	3.0032e-06	27.172	157.325	122.022	80.187	-3.503	165.038	109.711	-3.154	3.506	155.591	169.447	3.352	10.452	10.756	16.853	109.974	17.073	-8191	255	
606.573	1	1	0	0	0.17363	0.086057	0.13246	0.015865	0.10545	0.15754	0.34016	0.10366	0.055085	0.18361	0.11284	0.11677	0.33427	0.051154	0.088599	0.21146	-3	-3.25	-3.0583	-3.6813	-3.0167	-3.2125	-3.6458	-3.2917	-3.525	-3.3729	-3.1396	-3.4833	-3.2687	-3.2917	-3.4667	-3.3292	286.364	-6.274	268.317	210.129	332.024	340.151	287.809	-4.989	57.423	188.504	329.557	275.929	44.799	28.636	259.398	181.225	0.00010885	0.00032417	3.8724e-05	1155.3	1.0864e-06	2.4444e-06	1217.6	240.81	1.6314e-06	2.4534e-06	301.37	82.147	64.105	19.008	2.7074e-06	26.796	0.00023747	0.00026836	7.5595e-05	1126	3.0646e-06	2.9125e-06	1192.5	238.25	3.0195e-06	2.8616e-06	296.96	82.655	64.041	19.069	2.6615e-06	26.936	161.774	78.385	114.319	-3.511	178.078	117.914	-3.115	3.768	173.014	159.637	3.451	10.318	10.629	17.085	176.285	16.890	-8191	255	
606.668	1	1	0	0	0.17524	0.11973	0.093826	0.14192	0.025688	0.040676	0.089106	0.22027	0.14464	0.26207	0.1117	0.13307	0.21964	0.20832	0.15501	0.064411	-2.8583	-3.4146	-3.1083	-3.6375	-3.0625	-3.3125	-3.6083	-3.1979	-3.4313	-3.4375	-3.275	-3.4729	-3.2313	-3.1542	-3.6188	-3.25	162.987	177.437	253.173	342.797	143.977	218.511	292.331	313.786	214.824	94.598	213.291	273.544	106.041	20.173	78.717	275.843	0.00012812	0.00026122	5.0062e-05	1139.4	2.5699e-06	2.9407e-06	1203	238.46	1.4703e-06	2.2757e-06	297.45	81.189	63.216	18.765	2.9359e-06	26.619	0.00021473	0.0002393	6.4856e-05	1111.4	2.5787e-06	2.4412e-06	1176.6	234.83	2.4263e-06	2.2412e-06	292.79	81.444	63.334	18.793	2.2034e-06	26.738	164.588	72.970	118.930	-3.272	177.763	122.273	-3.142	3.800	187.234	149.676	3.547	10.246	10.659	16.769	179.173	16.662	-8191	255	
606.764	1	1	0	0	0.087626	0.15269	0.11075	0.14228	0.11682	0.038419	0.090951	0.16076	0.17621	0.28794	0.4326	0.081462	0.11464	0.25613	0.24849	0.10379	-3.1021	-3.3187	-3.1979	-3.4667	-3.3542	-3.3	-3.6792	-3.4708	-3.3417	-3.2938	-3.1792	-3.6771	-3.2333	-3.1479	-3.4854	-3.3917	42.951	-4.268	286.159	311.112	31.954	215.395	251.291	0.420	219.657	124.686	266.861	12.085	335.538	51.682	7.520	281.426	0.0001254	0.00026448	5.9304e-05	1120	2.4987e-06	3.0498e-06	1187.8	235.57	1.0711e-06	1.4676e-06	295.22	80.729	63.496	18.762	2.3966e-06	26.593	0.00019561	0.00019225	5.4582e-05	1092.7	2.2749e-06	2.1321e-06	1159.7	232.64	2.2424e-06	1.9891e-06	290.25	81.261	63.066	18.757	2.0619e-06	26.636	151.721	83.013	68.313	-3.326	152.917	146.828	-2.919	4.051	181.713	123.057	3.656	10.319	10.737	17.056	175.115	17.256	-8191	255	
606.885	1	1	0	0	0.039021	0.2124	0.133	0.1569	0.27921	0.048378	0.20142	0.43926	0.1607	0.11272	0.061373	0.065475	0.028797	0.28357	0.091897	0.066306	-2.7833	-3.4313	-3.1583	-3.5146	-3.0833	-3.2146	-3.6042	-3.5083	-3.3458	-3.4979	-3.1688	-3.3458	-3.4958	-3.1271	-3.3083	-3.1417	279.505	162.390	134.684	-12.012	278.196	199.160	314.077	287.181	66.283	78.074	83.099	22.148	284.402	246.332	28.625	263.290	0.0001156	0.00024809	6.4442e-05	1119.3	2.3114e-06	2.5435e-06	1187.1	234.93	2.2626e-06	4.3566e-06	294.89	80.589	62.547	18.807	3.2522e-06	26.623	0.00018711	0.00018076	5.1524e-05	1090.5	2.0887e-06	1.9468e-06	1158.1	232.01	2.0949e-06	1.8886e-06	290.52	81.25	62.932	18.794	1.9804e-06	26.721	155.387	63.747	95.584	-3.428	179.876	121.433	-2.882	3.880	175.474	124.416	3.774	10.711	10.032	17.159	154.726	16.735	-8191	255	
606.981	1	1	0	0	0.38822	0.16132	0.034753	0.30706	0.18157	0.098117	0.32487	0.21833	0.14635	0.086286	0.20318	0.072315	0.070784	0.12179	0.082795	0.045988	-2.8854	-3.2896	-3.3083	-3.4146	-3.4562	-3.2292	-3.4188	-3.425	-3.2438	-3.5625	-3.25	-3.3083	-3.4604	-3.0854	-3.4646	-3.3208	335.963	125.095	316.735	268.083	259.324	106.377	261.182	321.595	240.874	3.331	203.702	292.142	7.558	296.099	27.133	188.612	0.00013644	0.0003422	0.0001259	1122.1	2.2391e-06	2.0072e-06	1193	236.11	2.0409e-06	3.0839e-06	294.98	81.339	63.169	18.881	2.2083e-06	26.586	0.0001865	0.00017972	5.1084e-05	1095.4	2.0981e-06	1.9276e-06	1164.5	232.76	2.0663e-06	1.7774e-06	290.39	81.546	63.137	18.86	1.7864e-06	26.765	148.222	52.503	66.183	-3.321	185.157	148.873	-3.116	3.819	186.538	125.326	3.690	10.213	10.582	17.256	168.579	16.905	-8191	255	
607.077	1	1	0	0	0.090725	0.16727	0.10711	0.30764	0.080253	0.19121	0.29614	0.16164	0.22068	0.16681	0.12546	0.28751	0.23461	0.13781	0.069366	0.15506	-2.7271	-3.4333	-3.2396	-3.4104	-3.5521	-3.1875	-3.7125	-3.5479	-3.1521	-3.6104	-3.2417	-3.1937	-3.5583	-3.3333	-3.425	-3.4521	287.926	8.170	124.491	249.134	245.456	200.732	272.293	310.265	162.474	255.300	82.939	252.106	318.176	240.687	229.194	125.151	0.00011348	0.000406	7.4514e-05	1122.5	2.734e-06	2.6784e-06	1181.4	234.53	1.2221e-06	2.3997e-06	293	80.679	62.812	18.64	1.7486e-06	26.49	0.00017582	0.00016378	4.705e-05	1092.1	1.9624e-06	1.8669e-06	1156	231.43	1.9406e-06	1.8124e-06	288.73	80.835	62.68	18.674	1.8487e-06	26.614	156.633	91.575	74.381	-3.347	159.325	132.855	-2.905	3.981	182.636	123.479	3.506	10.225	10.691	17.072	181.078	16.930	-8191	255	
607.173	1	1	0	0	0.16146	0.16985	0.17408	0.46467	0.097545	0.057355	0.17495	0.10056	0.16361	0.19383	0.088631	0.095334	0.14622	0.13285	0.31787	0.071846	-2.7604	-3.5375	-2.9625	-3.3542	-3.3875	-3.4125	-3.3083	-3.5417	-3.0875	-3.4125	-3.5229	-3.1229	-3.6167	-3.1104	-3.2896	-3.35	262.759	52.505	318.091	301.323	234.353	287.931	216.666	265.255	10.980	161.946	270.663	28.267	123.770	34.819	211.322	193.860	0.00012066	0.00017494	0.00011668	1109.3	2.477e-06	4.6195e-06	1166.7	233.17	3.1709e-06	3.0844e-06	292.81	80.488	62.328	18.596	2.2103e-06	26.522	0.00016974	0.00016435	4.6556e-05	1078.1	1.9194e-06	1.8388e-06	1142	230.02	1.9365e-06	1.8004e-06	287.76	80.545	62.309	18.629	1.8679e-06	26.557	147.093	100.511	71.181	-3.290	190.329	154.131	-2.944	4.093	164.222	135.419	3.256	10.515	10.818	17.273	133.319	17.190	-8191	255	
607.269	1	1	0	0	0.20994	0.062766	0.073836	0.39517	0.12387	0.10757	0.33573	0.22413	0.33134	0.037242	0.1353	0.20594	0.094563	0.11065	0.074265	0.085999	-2.9479	-3.4667	-3.1937	-3.3729	-3.3896	-3.2333	-3.4292	-3.4708	-3.1646	-3.3729	-3.4667	-2.9625	-3.4437	-3.4188	-3.1188	-3.4667	80.922	322.973	243.244	303.335	178.948	205.277	303.441	260.795	316.079	197.186	172.434	319.328	243.391	106.177	76.426	217.438	0.0001254	0.00034261	8.7031e-05	1104.5	3.0766e-06	4.0029e-06	1167.8	233.75	1.9777e-06	3.3399e-06	291.44	80.196	62.412	18.508	2.3685e-06	26.477	0.0001729	0.00016986	4.576e-05	1075.3	1.9437e-06	1.7872e-06	1141.3	229.77	1.9921e-06	1.7961e-06	287.24	80.486	62.217	18.574	1.8262e-06	26.576	159.050	56.649	67.406	-3.379	156.280	161.594	-3.170	3.967	176.072	142.337	3.666	10.273	10.709	17.053	142.133	16.755	-8191	255	
607.365	1	1	0	0	0.36145	0.17053	0.29641	0.037092	0.31038	0.17163	0.12807	0.056665	0.060901	0.1492	0.05357	0.29749	0.044297	0.16888	0.11787	0.1357	-2.6625	-3.4021	-3.2667	-3.2687	-3.4854	-3.2687	-3.2458	-3.425	-3.2167	-3.3479	-3.4833	-3.1542	-3.5146	-3.1917	-2.9979	-3.6479	209.684	161.420	62.341	287.619	139.087	120.953	209.834	217.934	282.386	101.060	312.692	322.829	276.765	225.920	10.384	205.906	0.00011034	0.00023177	9.8864e-05	1099.4	1.8897e-06	3.2322e-06	1167.7	232.49	1.5364e-06	3.8577e-06	291.92	80.624	62.516	18.72	1.8931e-06	26.466	0.00017336	0.00016778	4.3788e-05	1074.1	1.9027e-06	1.8076e-06	1140.8	229.56	1.9074e-06	1.7299e-06	287.55	80.629	62.438	18.714	1.8369e-06	26.591	153.973	89.100	62.165	-3.326	145.459	131.635	-3.021	3.925	188.289	129.898	3.736	10.484	10.741	17.189	173.873	16.898	-8191	255	
607.460	1	1	0	0	0.11039	0.11858	0.30991	0.10755	0.034896	0.21815	0.032211	0.15678	0.031564	0.079644	0.16392	0.17961	0.019647	0.038599	0.22228	0.26396	-2.7188	-3.4104	-3.3021	-3.2833	-3.3708	-3.6229	-3.3271	-3.7687	-3.2479	-3.3458	-3.5375	-3.0563	-3.5021	-3.3187	-3.0312	-3.6167	214.668	41.394	263.571	35.780	60.678	192.823	87.346	150.018	199.168	293.226	256.362	277.823	96.090	85.346	128.126	317.715	0.00012875	0.00023041	7.6518e-05	1099.3	2.2299e-06	4.0159e-06	1168.9	232.25	1.6591e-06	4.2434e-06	292.34	80.386	62.644	18.6	2.1232e-06	26.7	0.00017113	0.00016094	4.4313e-05	1075.8	1.9347e-06	1.7368e-06	1144.3	229.64	1.9509e-06	1.7824e-06	287.38	80.515	62.559	18.699	1.941e-06	26.657	152.614	99.341	79.718	-3.125	150.019	117.046	-2.972	3.993	191.953	151.313	3.476	10.377	10.499	17.369	172.844	16.931	-8191	255	
607.580	1	1	0	0	0.17789	0.1829	0.13125	0.32007	0.22727	0.081807	0.20901	0.11529	0.15432	0.12131	0.30028	0.042308	0.27008	0.21388	0.36206	0.043652	-2.8937	-3.4229	-3.3167	-3.1917	-3.4062	-3.4604	-3.3125	-3.6979	-3.2042	-3.1792	-3.6312	-3.2333	-3.275	-3.4062	-3.2521	-3.525	77.370	132.081	189.439	295.496	328.411	-10.285	286.626	303.716	315.872	84.185	300.174	293.370	256.487	330.308	232.295	253.718	0.00010899	0.00037019	5.0059e-05	1105.8	1.1134e-06	2.4718e-06	1173.1	232.94	1.553e-06	2.0492e-06	292.83	80.162	62.523	18.707	3.1399e-06	26.526	0.00017893	0.00017564	4.7418e-05	1078.8	2.0628e-06	1.8355e-06	1146.1	230.12	1.976e-06	1.8644e-06	287.94	80.561	62.383	18.704	1.9174e-06	26.598	147.345	82.138	50.592	-3.386	196.913	122.829	-2.866	4.001	176.242	126.522	3.538	10.376	10.495	16.740	168.129	16.881	-8191	255	
607.676	1	1	0	0	0.14987	0.28666	0.14313	0.16653	0.21606	0.093628	0.12624	0.075923	0.21389	0.059057	0.24372	0.16031	0.19351	0.11219	0.063793	0.17049	-2.9188	-3.1229	-3.4708	-3.1167	-3.3	-3.4021	-3.2979	-3.6354	-3.3104	-3.2896	-3.6354	-3.4	-3.2333	-3.4292	-3.2292	-3.3146	94.012	57.778	254.171	112.845	218.620	91.890	305.865	151.990	231.761	160.624	325.013	69.164	260.616	187.469	126.543	9.455	0.00011133	0.00024566	0.00011293	1105.2	1.2902e-06	4.2675e-06	1174.2	233.26	1.3445e-06	3.4597e-06	292.14	80.747	62.119	18.731	3.2933e-06	26.473	0.00017648	0.00017449	4.8522e-05	1079.1	2.0443e-06	1.8851e-06	1148.4	230.27	2.0891e-06	1.9136e-06	288.17	80.678	62.398	18.713	2.0376e-06	26.562	155.389	75.022	80.140	-3.429	173.447	140.760	-3.117	4.040	161.516	137.134	3.442	10.375	10.950	17.119	149.080	16.713	-8191	255	
607.773	1	1	0	0	0.055551	0.021128	0.064472	0.14457	0.12263	0.12543	0.12371	0.26953	0.20093	0.033444	0.17992	0.17455	0.18395	0.086659	0.27941	0.25248	-2.85	-3.2792	-3.4396	-3.5542	-3.2708	-3.5187	-3.3708	-3.5833	-3.2667	-3.35	-3.5	-3.3312	-3.3937	-3.4708	-3.1125	-3.4333	3.924	34.861	36.241	250.216	344.045	156.794	225.162	37.389	135.421	310.099	185.988	317.717	4.632	294.765	41.089	267.511	0.00012075	0.00037625	7.8095e-05	1106.4	2.4602e-06	2.9211e-06	1176.6	233.1	4.1494e-07	2.8633e-06	291.21	80.12	62.215	18.571	3.1638e-06	26.414	0.0001823	0.00018485	5.0246e-05	1078.9	2.1956e-06	1.9262e-06	1147.2	229.96	2.1467e-06	2.0143e-06	287.35	80.344	62.149	18.567	1.9887e-06	26.492	149.691	71.497	98.134	-3.270	176.469	162.322	-3.021	3.907	222.856	118.422	3.765	10.219	10.420	17.217	144.360	17.217	-8191	255	
607.869	1	1	0	0	0.16789	0.098679	0.2081	0.23352	0.12506	0.15949	0.20446	0.19809	0.12837	0.26203	0.079842	0.047241	0.14445	0.31306	0.065951	0.15923	-2.7562	-3.1188	-3.3854	-3.2604	-3.3063	-3.3167	-3.3021	-3.4375	-3.3688	-3.175	-3.5187	-3.1667	-3.2375	-3.5729	-3.3583	-3.5542	55.297	88.337	79.178	249.181	306.441	298.525	307.521	279.838	76.862	307.626	26.267	21.055	160.910	256.759	73.812	188.922	0.00012534	0.000501	9.6925e-05	1094.7	2.9436e-06	4.0519e-06	1159.9	231.32	9.4097e-07	2.0338e-06	287.21	79.351	61.67	18.296	1.5614e-06	26.069	0.00017916	0.00018487	4.6984e-05	1070.9	2.0592e-06	1.9314e-06	1134.4	228.07	1.9628e-06	1.8109e-06	284.32	79.479	61.498	18.404	1.7704e-06	26.244	152.809	58.166	76.738	-3.373	195.233	142.515	-3.118	4.279	179.229	129.232	3.987	10.285	11.240	17.762	178.163	17.125	-8191	255	
607.965	1	1	0	0	0.2852	0.10045	0.16018	0.096408	0.13976	0.12011	0.22408	0.20034	0.16533	0.10389	0.065202	0.28728	0.030207	0.072854	0.042983	0.087518	-3.0979	-3.2375	-3.3312	-3.5104	-3.2271	-3.6667	-3.2687	-3.4333	-3.6229	-3.2625	-3.2812	-3.4104	-3.1479	-3.3	-3.1646	-3.3312	125.227	270.479	75.062	326.078	35.929	196.351	231.514	304.083	297.161	29.888	51.815	320.695	270.923	23.958	338.207	302.424	0.00012769	0.00031585	7.1115e-05	1080.9	2.711e-06	4.3686e-06	1150	228.49	1.0565e-06	2.4586e-06	286.5	78.971	61.458	18.255	2.5025e-06	26.117	0.00016549	0.00015746	4.3481e-05	1054.8	1.8462e-06	1.7174e-06	1121.7	225.57	1.773e-06	1.7232e-06	282.98	79.227	61.283	18.328	1.6628e-06	26.178	148.732	60.424	44.699	-3.062	163.424	137.598	-2.958	4.243	165.705	156.726	3.886	10.362	10.744	17.727	126.557	17.051	-8191	255	
608.061	1	1	0	0	0.34059	0.2144	0.26959	0.2123	0.039366	0.27066	0.3225	0.09357	0.23645	0.15046	0.22477	0.14467	0.083687	0.12617	0.116	0.17652	-3.0292	-3.1208	-3.2708	-3.4833	-3.0896	-3.6896	-3.4167	-3.3333	-3.4062	-3.1312	-3.6104	-3.4375	-3.1354	-3.5479	-3.35	-3.1833	-5.107	28.509	299.629	263.893	298.139	8.699	301.694	307.726	262.495	263.334	334.026	293.375	172.296	263.404	159.048	38.992	0.00010698	0.00036101	0.0001026	1082.3	2.7261e-06	2.1513e-06	1150.2	228.57	1.6163e-06	2.1342e-06	286.81	79.404	61.435	18.36	1.126e-06	26.308	0.00015448	0.0001577	4.2419e-05	1054.5	1.834e-06	1.6015e-06	1123.9	225.58	1.8391e-06	1.6311e-06	282.73	79.44	61.482	18.336	1.6855e-06	26.228	159.807	82.023	86.921	-3.176	156.572	146.941	-3.023	3.983	135.766	145.048	3.572	10.238	11.103	17.508	158.845	17.450	-8191	255	
608.157	1	1	0	0	0.13269	0.2027	0.168	0.17856	0.17605	0.1108	0.21491	0.18133	0.15098	0.085935	0.11742	0.15407	0.082756	0.17147	0.038125	0.062265	-3.0458	-3.1458	-3.3583	-3.425	-3.0854	-3.6021	-3.4708	-3.2396	-3.3438	-3.3021	-3.4333	-3.4667	-2.9771	-3.4375	-3.3229	-3.1917	232.187	256.851	240.018	23.925	138.950	89.671	296.799	291.538	72.951	36.642	290.880	300.665	190.384	158.776	100.595	144.365	0.00012273	0.00031426	6.7098e-05	1083.7	2.7977e-06	2.9101e-06	1144.3	228.64	1.7264e-06	2.8325e-06	287.91	78.78	61.082	18.338	2.9839e-06	26.233	0.00016164	0.00015492	4.3469e-05	1055.2	1.9311e-06	1.6759e-06	1122.6	225.63	1.8761e-06	1.7303e-06	282.9	79.277	61.174	18.361	1.7554e-06	26.244	150.877	73.651	105.529	-3.080	155.106	125.847	-2.904	4.189	136.796	156.703	3.670	10.600	10.691	17.670	140.430	16.865	-8191	255	
608.253	1	1	0	0	0.21808	0.02066	0.16032	0.30368	0.13479	0.085288	0.36174	0.1257	0.0080291	0.0062282	0.21223	0.093522	0.11854	0.18877	0.36468	0.088466	-3.1104	-3.2167	-3.4375	-3.5833	-3.2667	-3.5521	-3.5062	-3.4021	-3.2667	-3.4104	-3.5	-3.4854	-3.2042	-3.3708	-3.5333	-3.3042	-10.060	126.499	21.934	315.628	276.085	136.953	279.016	-11.600	197.602	336.612	261.624	334.591	14.937	186.679	231.168	232.222	0.00012095	0.00028661	7.5468e-05	1080.5	1.6265e-06	2.9527e-06	1147.5	228.08	1.7993e-06	3.7592e-06	287.55	79.31	61.191	18.269	2.6819e-06	26.223	0.00016401	0.00016306	4.5483e-05	1055.2	1.8712e-06	1.6987e-06	1123.4	225.41	1.8059e-06	1.7603e-06	283.44	79.322	61.177	18.359	1.7324e-06	26.233	154.254	71.335	85.414	-3.006	181.517	133.569	-2.899	4.084	170.622	119.499	3.679	10.374	10.988	17.446	167.694	17.096	-8191	255	
608.374	1	1	0	0	0.29101	0.089528	0.13519	0.23129	0.17664	0.064875	0.17631	0.21352	0.080124	0.18246	0.029635	0.055599	0.22097	0.13449	0.16652	0.091166	-3.1708	-3.0458	-3.35	-3.5396	-3.2208	-3.4354	-3.4521	-3.0521	-3.5687	-3.2521	-3.3354	-3.5187	-3.1875	-3.4021	-3.5312	-3.3104	273.162	204.089	-0.072	325.305	-12.763	177.976	307.135	278.756	334.669	332.449	-0.916	290.054	313.283	341.619	133.937	90.476	0.00012298	0.00036172	8.0848e-05	1084.5	2.1003e-06	3.4009e-06	1147.7	229.08	1.9499e-06	3.246e-06	285.62	79.369	61.457	18.286	2.0052e-06	26.327	0.0001691	0.00015807	4.4868e-05	1055.9	1.9196e-06	1.7851e-06	1121.6	225.31	1.8532e-06	1.8318e-06	282.67	79.397	61.267	18.373	1.8473e-06	26.291	148.125	61.446	70.996	-3.126	164.114	146.553	-2.966	4.111	174.156	149.144	3.630	10.244	10.675	17.529	101.491	17.310	-8191	255	
#DATA ENDS
