BOXY.EXE: ISS Imagent and Oximeter Data Acquisition Program Version 0.80
Ascii Record File

#ACQ INFORMATION
2  Detector Channels 
16  External MUX Channels 
1  Auxiliary Channels 
5000  Waveform (CCF) Frequency (Hz)
1  Waveforms Skipped 
30  Waveforms Averaged 
1  Cycles Averaged 
16  Acquisitions per Waveform 
10.0806  Updata Rate (Hz) 

#FILE INFORMATION
TRUE -- External MUX Channel results are PARSED.
FALSE -- AC DC and Phase are NOT grouped.
TRUE -- Companion Program Settings File CREATED.
FALSE -- AC data not excluded
FALSE -- DC data not excluded
FALSE -- Phase data not excluded
FALSE -- Auxillary Chn. data not excluded
Tab delimiters

#CALIBRATION STATE
TRUE -- Waveform Calibration Values APPLIED.


#AUX CALIBRATION VALUES
Val Type	aux-1	

Term	1.0000e+00	
Factor	0.0000e+00	


#WF CALIBRATION VALUES
A = Detector Channel
Val Type	A-AC1	A-AC2	A-AC3	A-AC4	A-AC5	A-AC6	A-AC7	A-AC8	A-AC9	A-AC10	A-AC11	A-AC12	A-AC13	A-AC14	A-AC15	A-AC16	A-DC1	A-DC2	A-DC3	A-DC4	A-DC5	A-DC6	A-DC7	A-DC8	A-DC9	A-DC10	A-DC11	A-DC12	A-DC13	A-DC14	A-DC15	A-DC16	A-Ph1	A-Ph2	A-Ph3	A-Ph4	A-Ph5	A-Ph6	A-Ph7	A-Ph8	A-Ph9	A-Ph10	A-Ph11	A-Ph12	A-Ph13	A-Ph14	A-Ph15	A-Ph16	

Term	0.00000e+00	0.00000e+00	0.00000e+00	0.00000e+00	0.00000e+00	0.00000e+00	0.00000e+00	0.00000e+00	0.00000e+00	0.00000e+00	0.00000e+00	0.00000e+00	0.00000e+00	0.00000e+00	0.00000e+00	0.00000e+00	0.00000e+00	0.00000e+00	0.00000e+00	0.00000e+00	0.00000e+00	0.00000e+00	0.00000e+00	0.00000e+00	0.00000e+00	0.00000e+00	0.00000e+00	0.00000e+00	0.00000e+00	0.00000e+00	0.00000e+00	0.00000e+00	0.00000e+00	0.00000e+00	0.00000e+00	0.00000e+00	0.00000e+00	0.00000e+00	0.00000e+00	0.00000e+00	0.00000e+00	0.00000e+00	0.00000e+00	0.00000e+00	0.00000e+00	0.00000e+00	0.00000e+00	0.00000e+00	
Factor	1.00000e+00	1.00000e+00	1.00000e+00	1.00000e+00	1.00000e+00	1.00000e+00	1.00000e+00	1.00000e+00	1.00000e+00	1.00000e+00	1.00000e+00	1.00000e+00	1.00000e+00	1.00000e+00	1.00000e+00	1.00000e+00	1.00000e+00	1.00000e+00	1.00000e+00	1.00000e+00	1.00000e+00	1.00000e+00	1.00000e+00	1.00000e+00	1.00000e+00	1.00000e+00	1.00000e+00	1.00000e+00	1.00000e+00	1.00000e+00	1.00000e+00	1.00000e+00	X	X	X	X	X	X	X	X	X	X	X	X	X	X	X	X	

B = Detector Channel
Val Type	B-AC1	B-AC2	B-AC3	B-AC4	B-AC5	B-AC6	B-AC7	B-AC8	B-AC9	B-AC10	B-AC11	B-AC12	B-AC13	B-AC14	B-AC15	B-AC16	B-DC1	B-DC2	B-DC3	B-DC4	B-DC5	B-DC6	B-DC7	B-DC8	B-DC9	B-DC10	B-DC11	B-DC12	B-DC13	B-DC14	B-DC15	B-DC16	B-Ph1	B-Ph2	B-Ph3	B-Ph4	B-Ph5	B-Ph6	B-Ph7	B-Ph8	B-Ph9	B-Ph10	B-Ph11	B-Ph12	B-Ph13	B-Ph14	B-Ph15	B-Ph16	

Term	0.00000e+00	0.00000e+00	0.00000e+00	0.00000e+00	0.00000e+00	0.00000e+00	0.00000e+00	0.00000e+00	0.00000e+00	0.00000e+00	0.00000e+00	0.00000e+00	0.00000e+00	0.00000e+00	0.00000e+00	0.00000e+00	0.00000e+00	0.00000e+00	0.00000e+00	0.00000e+00	0.00000e+00	0.00000e+00	0.00000e+00	0.00000e+00	0.00000e+00	0.00000e+00	0.00000e+00	0.00000e+00	0.00000e+00	0.00000e+00	0.00000e+00	0.00000e+00	-1.10555e+02	-1.34345e+02	-1.25139e+02	-1.80823e+02	-5.89411e+01	-6.68562e+01	-1.57214e+02	-1.62015e+02	-6.37752e+01	-6.71530e+01	-1.71625e+02	-1.71796e+02	-1.86365e+02	-1.76693e+02	-6.41196e+01	-1.49516e+02	
Factor	1.50243e-05	1.53827e-04	4.66076e-05	1.58271e-01	1.18790e-06	1.74034e-06	1.59010e-01	4.50898e-02	9.43242e-07	1.55460e-06	7.52501e-02	2.87934e-02	3.64718e-02	8.42465e-03	1.35339e-06	1.23474e-02	7.15820e-06	1.04250e-05	2.89429e-06	7.88315e-02	1.08082e-07	1.15196e-07	7.45083e-02	2.26350e-02	1.07536e-07	1.15117e-07	3.64779e-02	1.40814e-02	1.83450e-02	4.24814e-03	1.11129e-07	6.03331e-03	X	X	X	X	X	X	X	X	X	X	X	X	X	X	X	X	



#DISTANCE SETTINGS
A = Detector Channel
A-1	A-2	A-3	A-4	A-5	A-6	A-7	A-8	A-9	A-10	A-11	A-12	A-13	A-14	A-15	A-16	

2.5000e+00	3.0000e+00	2.5000e+00	3.0000e+00	2.0000e+00	3.0000e+00	1.5000e+00	3.0000e+00	3.0000e+00	3.0000e+00	3.0000e+00	3.0000e+00	3.0000e+00	3.0000e+00	1.5000e+00	3.0000e+00	

B = Detector Channel
B-1	B-2	B-3	B-4	B-5	B-6	B-7	B-8	B-9	B-10	B-11	B-12	B-13	B-14	B-15	B-16	

1.0000e+01	1.0000e+01	1.0000e+01	1.4400e+00	1.0000e+01	1.0000e+01	1.5100e+00	1.9400e+00	1.0000e+01	1.0000e+01	1.9900e+00	2.4900e+00	2.4100e+00	2.9000e+00	1.0000e+01	2.9800e+00	




#DATA BEGINS
time	group	step	mark	flag	A-AC1	A-AC2	A-AC3	A-AC4	A-AC5	A-AC6	A-AC7	A-AC8	A-AC9	A-AC10	A-AC11	A-AC12	A-AC13	A-AC14	A-AC15	A-AC16	A-DC1	A-DC2	A-DC3	A-DC4	A-DC5	A-DC6	A-DC7	A-DC8	A-DC9	A-DC10	A-DC11	A-DC12	A-DC13	A-DC14	A-DC15	A-DC16	A-Ph1	A-Ph2	A-Ph3	A-Ph4	A-Ph5	A-Ph6	A-Ph7	A-Ph8	A-Ph9	A-Ph10	A-Ph11	A-Ph12	A-Ph13	A-Ph14	A-Ph15	A-Ph16	B-AC1	B-AC2	B-AC3	B-AC4	B-AC5	B-AC6	B-AC7	B-AC8	B-AC9	B-AC10	B-AC11	B-AC12	B-AC13	B-AC14	B-AC15	B-AC16	B-DC1	B-DC2	B-DC3	B-DC4	B-DC5	B-DC6	B-DC7	B-DC8	B-DC9	B-DC10	B-DC11	B-DC12	B-DC13	B-DC14	B-DC15	B-DC16	B-Ph1	B-Ph2	B-Ph3	B-Ph4	B-Ph5	B-Ph6	B-Ph7	B-Ph8	B-Ph9	B-Ph10	B-Ph11	B-Ph12	B-Ph13	B-Ph14	B-Ph15	B-Ph16	aux-1	digaux	

900.615	1	1	0	256	0.076447	0.14649	0.16893	0.10777	0.13633	0.20766	0.078104	0.20126	0.058648	0.089248	0.10578	0.13742	0.11842	0.035785	0.094315	0.091895	-2.8	-3.1417	-3.1042	-3.525	-3.1542	-3.2208	-3.5542	-3.0563	-3.2917	-3.5417	-3.025	-3.2313	-3.3146	-3.0563	-3.3	-3.0375	234.822	371.182	219.863	318.946	204.648	472.728	269.317	287.228	233.362	281.551	302.992	251.779	146.011	220.249	288.195	418.908	0.00036869	0.00025187	7.9346e-05	260.27	1.8763e-06	3.0053e-06	401.26	67.124	1.6589e-06	2.7845e-06	161.52	69.496	23.676	9.95	2.4796e-06	38.586	0.00016978	5.8315e-05	1.6485e-05	254	6.2102e-07	6.5278e-07	392.95	66.152	6.311e-07	6.1467e-07	159.31	68.751	23.114	9.8611	5.8435e-07	38.369	203.248	227.994	222.558	150.435	291.185	289.726	151.262	155.878	291.679	269.002	155.628	160.419	159.399	164.068	291.635	163.830	-8191	255	
900.711	1	1	0	0	0.14043	0.20765	0.22654	0.14348	0.35116	0.21601	0.061391	0.29012	0.050959	0.081485	0.066983	0.046671	0.29666	0.15114	0.15198	0.17474	-2.8438	-3.4396	-3.2083	-3.4354	-3.1813	-3.1167	-3.6312	-3.1458	-3.3292	-3.4146	-3.2458	-3.2104	-3.1333	-2.9188	-3.5167	-3.2333	474.800	497.277	360.656	433.721	400.948	273.523	303.015	156.242	305.315	403.855	378.635	157.757	380.129	304.926	281.971	470.667	0.00035905	0.00017066	7.7038e-05	260.45	1.8911e-06	2.7568e-06	403.99	68.292	2.0042e-06	2.0237e-06	161.7	69.696	23.803	9.9422	2.1294e-06	38.397	0.00016883	6.5656e-05	1.6817e-05	254.28	5.8432e-07	6.7053e-07	395.95	66.56	7.01e-07	5.775e-07	160.32	69.007	23.275	9.785	5.7254e-07	37.974	204.198	236.271	227.131	151.103	281.638	321.354	151.107	156.256	277.467	280.714	155.540	159.835	159.112	164.584	264.628	163.682	-8191	255	
900.807	1	1	0	0	0.30489	0.25419	0.30811	0.1234	0.094136	0.073195	0.20862	0.016873	0.089667	0.049369	0.22535	0.28315	0.20584	0.20369	0.26481	0.090805	-2.8271	-3.1833	-3.1375	-3.5083	-3.2625	-3.0708	-3.3292	-3.1854	-3.3312	-3.3958	-3.0479	-3.2896	-3.3167	-3.1646	-3.3167	-3.2333	285.708	481.321	400.661	264.713	404.553	458.062	385.157	357.746	464.541	290.304	452.975	399.853	319.015	423.284	167.295	485.564	0.00036905	0.00021918	3.7655e-05	262.55	2.2311e-06	2.2486e-06	406.24	67.511	1.3687e-06	1.5547e-06	163.22	69.192	23.456	9.7939	2.0659e-06	38.33	0.00016647	6.0639e-05	1.5087e-05	256.37	5.8837e-07	5.9062e-07	397.56	66.13	7.0638e-07	5.6503e-07	159.41	68.434	22.961	9.6792	6.5983e-07	38.001	206.053	223.306	225.956	150.587	306.723	294.866	151.306	156.003	290.473	297.704	156.060	160.114	159.381	164.647	290.452	163.543	-8191	255	
900.903	1	1	0	0	0.061404	0.25718	0.30708	0.17628	0.21623	0.16407	0.13272	0.18166	0.20753	0.13015	0.13043	0.030411	0.25857	0.20959	0.088074	0.094566	-3.0042	-3.4604	-3.0854	-3.2188	-3.4333	-3.0438	-3.3854	-3.1979	-2.9583	-3.5146	-3.375	-3.2396	-3.2708	-2.9813	-3.1583	-3.35	395.584	210.434	368.543	232.060	254.620	148.422	283.553	328.824	359.358	270.868	493.145	410.762	473.046	390.908	346.309	448.774	0.00036715	0.00024912	7.3826e-05	260.97	1.8945e-06	2.2965e-06	407.4	67.584	1.5541e-06	1.6556e-06	162.82	69.418	23.691	9.7746	2.1465e-06	38.377	0.00016802	5.6621e-05	1.6491e-05	255.23	6.8497e-07	6.139e-07	399.15	66.444	7.122e-07	5.9621e-07	160.61	68.956	23.063	9.7487	6.2556e-07	38.038	205.633	220.923	222.374	150.871	290.730	294.639	151.019	156.009	284.362	288.894	156.137	160.075	159.779	164.379	288.787	163.474	-8191	255	
900.999	1	1	0	0	0.093785	0.24228	0.11273	0.23425	0.067932	0.11862	0.13015	0.27445	0.10518	0.14217	0.20839	0.24735	0.1936	0.14519	0.20565	0.17051	-2.7042	-3.5812	-3	-3.2021	-3.4083	-3.1562	-3.4958	-3.1146	-3.1333	-3.6604	-3.2833	-3.1937	-3.2958	-3.2208	-3.4292	-3.3	190.630	192.682	404.167	170.438	166.544	432.640	472.550	410.242	243.164	182.366	388.764	374.112	195.325	183.000	411.826	408.462	0.00037575	0.00030546	7.0719e-05	260.23	2.4005e-06	2.8381e-06	401.89	66.726	1.1852e-06	2.6858e-06	160.02	67.46	23.059	9.4801	1.8013e-06	37.143	0.00017004	5.6794e-05	1.5382e-05	253.86	6.1044e-07	5.9542e-07	393.09	65.73	6.7591e-07	6.2547e-07	157.16	67.01	22.559	9.4425	6.1422e-07	36.919	204.400	213.943	234.557	150.679	294.541	284.569	151.209	155.761	280.764	304.997	155.657	160.342	159.125	164.614	280.320	163.528	-8191	255	
901.118	1	1	0	0	0.14683	0.033165	0.091176	0.05295	0.17122	0.20526	0.14713	0.069999	0.1511	0.072258	0.31435	0.14421	0.14465	0.066313	0.15251	0.028795	-2.7042	-3.3146	-3.1792	-3.1312	-3.3292	-3.2271	-3.1396	-3.3812	-3.0604	-3.3083	-3.1167	-3.1104	-3.4271	-3.2542	-3.4667	-3.3917	192.595	193.879	455.478	375.351	435.703	162.861	488.786	302.556	157.593	312.460	143.684	450.195	433.638	336.196	287.250	489.272	0.00035606	0.00017631	7.0205e-05	258.89	1.6874e-06	2.4733e-06	400.51	65.954	9.4622e-07	2.0429e-06	159.01	67.069	22.863	9.5202	2.614e-06	37.183	0.000162	4.7499e-05	1.3965e-05	253.47	5.8792e-07	6.235e-07	392.07	65.033	6.5799e-07	5.5208e-07	156.24	66.569	22.45	9.4349	5.9685e-07	37.093	206.249	215.991	244.684	150.860	312.944	291.530	151.345	156.060	273.449	307.431	155.961	160.375	159.406	163.970	279.053	164.022	-8191	255	
901.214	1	1	0	0	0.20091	0.21205	0.27871	0.13954	0.17568	0.19765	0.14041	0.030304	0.10827	0.042097	0.33302	0.18296	0.09619	0.060421	0.16565	0.054494	-2.7146	-3.2625	-3.2687	-3.2438	-3.4938	-3.2687	-3.1417	-3.3	-3.0292	-3.3583	-3.4771	-3.3646	-3.3896	-3.3958	-3.0812	-3.4917	391.765	292.225	213.095	158.076	285.311	450.272	207.726	145.762	247.658	420.007	169.282	405.399	283.413	226.620	426.395	497.055	0.00036046	0.00012142	5.495e-05	261.49	1.5875e-06	2.5179e-06	400.47	66.926	1.6287e-06	2.2277e-06	162.2	68.648	23.621	9.7748	1.7387e-06	38.528	0.00016239	5.6382e-05	1.4954e-05	254.15	5.8972e-07	5.9278e-07	393.58	65.746	6.4947e-07	6.6935e-07	159.04	68.349	23.062	9.6945	6.9779e-07	38.213	206.451	226.201	239.382	150.527	292.633	316.523	151.556	156.137	295.562	272.769	155.953	160.040	159.593	164.419	281.632	163.485	-8191	255	
901.311	1	1	0	0	0.038546	0.14947	0.22639	0.076957	0.14358	0.079692	0.17718	0.26642	0.23538	0.13838	0.22998	0.1904	0.13253	0.10052	0.088489	0.4231	-2.7146	-3.2396	-3.3354	-3.1542	-3.4062	-3.1583	-3.2917	-3.5729	-3.1479	-3.2062	-3.3438	-3.1083	-3.4479	-3.175	-3.3917	-3.5167	374.287	261.421	263.426	423.408	231.213	375.108	277.898	166.153	222.634	253.951	406.740	416.824	266.292	392.917	333.904	441.879	0.00036178	0.00023424	5.9085e-05	259	2.1088e-06	3.4565e-06	405.92	67.886	1.6728e-06	2.6045e-06	163.85	69.336	23.629	9.7596	2.3938e-06	37.911	0.00016749	5.8032e-05	1.6763e-05	253.37	6.8159e-07	6.8229e-07	397.72	66.418	6.4611e-07	6.4609e-07	160.87	68.888	23.026	9.6707	7.2372e-07	37.854	204.807	203.681	224.344	150.912	269.860	274.467	151.473	155.907	280.846	276.699	155.587	159.910	160.083	165.082	285.711	163.631	-8191	255	
901.407	1	1	0	0	0.057138	0.21882	0.068359	0.079286	0.24423	0.2777	0.23028	0.13351	0.2925	0.045468	0.11851	0.11685	0.19245	0.3628	0.26053	0.10044	-2.8458	-3.1271	-3.2917	-3.3042	-3.575	-3.3187	-3.0104	-3.3979	-3.2917	-3.3021	-3.4146	-3.0542	-3.1708	-3.2958	-3.1042	-3.5458	359.394	423.807	337.913	431.178	310.940	394.792	329.345	147.779	202.383	389.832	179.250	488.926	297.477	195.371	463.410	330.523	0.0003613	0.00022309	6.4807e-05	257.85	1.3802e-06	2.1696e-06	399.87	66.373	1.3109e-06	2.6252e-06	159.07	67.47	23.054	9.5329	1.8253e-06	37.587	0.00016228	5.7859e-05	1.5304e-05	253.09	5.8544e-07	6.0958e-07	392.89	65.44	5.8899e-07	6.1707e-07	156.69	66.894	22.526	9.4427	6.288e-07	37.297	205.706	223.334	202.086	151.036	283.771	300.204	151.180	156.464	283.267	293.618	156.070	160.150	159.051	164.544	293.874	164.079	-8191	255	
901.503	1	1	0	0	0.3472	0.065579	0.10492	0.14083	0.055774	0.14542	0.083479	0.14669	0.19148	0.22623	0.15284	0.26486	0.089789	0.047588	0.088082	0.10877	-2.8375	-3.2792	-3.3958	-3.2417	-3.1479	-3.3042	-2.9521	-3.45	-3.4458	-3.2979	-3.4188	-3.2854	-3.4062	-3.525	-3.0292	-3.4083	401.470	416.491	249.940	153.704	172.013	403.394	161.448	346.962	272.443	435.564	153.361	164.103	404.468	188.463	443.228	395.040	0.00036648	0.0002598	6.0722e-05	258.29	1.1865e-06	2.8933e-06	400.63	66.289	1.5637e-06	1.8209e-06	159.85	68.347	23.249	9.7578	1.9646e-06	38.295	0.00016965	5.2994e-05	1.4453e-05	252.33	6.6223e-07	5.791e-07	391.82	65.314	6.3021e-07	5.7294e-07	158.06	67.646	22.656	9.6349	6.9363e-07	37.913	202.943	196.784	238.637	150.915	278.022	301.040	151.139	155.722	287.942	305.300	156.159	160.067	159.774	164.544	290.864	163.804	-8191	255	
901.599	1	1	0	0	0.077699	0.073752	0.10853	0.32576	0.19865	0.36682	0.14118	0.1233	0.10895	0.20679	0.1817	0.223	0.1028	0.20541	0.13214	0.17189	-2.8812	-3.2896	-3.5104	-3.2396	-3.0958	-3.25	-3.1063	-3.4958	-3.3271	-3.2438	-3.3875	-3.2542	-3.35	-3.5167	-2.9	-3.5062	452.891	485.185	376.399	459.407	412.313	191.999	391.543	341.237	211.456	233.720	432.014	276.715	412.767	171.860	319.806	225.074	0.00034593	0.00020738	7.7477e-05	258.71	1.6809e-06	2.2252e-06	400.45	67.467	1.3091e-06	1.7753e-06	160.99	68.343	23.323	9.6351	2.2323e-06	37.998	0.00016316	6.0834e-05	1.4978e-05	252.45	6.7776e-07	5.935e-07	393.67	65.876	6.2013e-07	6.1204e-07	158.7	67.83	22.764	9.5448	6.7812e-07	37.689	205.087	217.468	212.869	150.597	281.761	279.682	151.223	156.199	305.805	289.850	155.829	160.023	159.764	165.023	264.740	163.532	-8191	255	
901.720	1	1	0	0	0.14813	0.073188	0.11487	0.10839	0.064482	0.22558	0.16602	0.11651	0.083376	0.051087	0.23338	0.15448	0.17901	0.20618	0.34059	0.33986	-3.0729	-3.2458	-3.4083	-3.2604	-3.4333	-3.3208	-3.1188	-3.2708	-3.4417	-3.1937	-3.5187	-3.1646	-3.1813	-3.3667	-3.1125	-3.4208	190.022	272.089	359.850	153.000	452.097	454.746	169.852	425.162	379.186	153.664	420.283	483.030	488.049	383.634	159.810	469.068	0.00036305	0.00018219	5.4693e-05	258.09	1.5685e-06	2.484e-06	402.58	66.34	1.6203e-06	1.1572e-06	161.31	68.219	23.249	9.6784	1.9846e-06	38.142	0.00016277	6.0378e-05	1.461e-05	252.52	6.4579e-07	5.695e-07	395.39	65.42	6.3133e-07	6.4106e-07	158.42	67.888	22.662	9.5528	6.457e-07	37.659	204.273	207.781	238.851	151.048	285.675	293.238	151.373	155.724	287.846	312.954	155.743	160.062	159.703	164.202	295.413	163.508	-8191	255	
901.816	1	1	0	0	0.13701	0.40126	0.18962	0.025839	0.10524	0.34219	0.1311	0.16526	0.1225	0.11694	0.154	0.073878	0.37616	0.059962	0.07675	0.17942	-3.1417	-3.1167	-3.275	-3.3625	-3.1813	-3.3729	-2.9	-3.325	-3.5146	-3.3063	-3.4458	-3.275	-3.1125	-3.4688	-3.2104	-3.2417	402.228	435.754	310.498	312.214	487.097	258.901	341.056	451.112	473.318	187.485	396.684	327.973	398.411	371.362	326.893	203.791	0.00035225	0.00024615	3.2367e-05	257.54	1.9278e-06	2.4936e-06	400.57	65.898	1.3759e-06	2.4638e-06	159.06	67.714	22.839	9.5228	1.9307e-06	37.365	0.00015659	5.8597e-05	1.5038e-05	252.57	6.3993e-07	5.7238e-07	392.01	64.983	6.1811e-07	6.0076e-07	156.87	66.91	22.459	9.4606	6.4918e-07	37.151	206.403	185.330	222.589	150.622	288.672	303.449	150.858	155.728	285.068	285.641	156.201	160.108	159.819	164.777	288.844	163.799	-8191	255	
901.910	1	1	0	0	0.17462	0.16711	0.050105	0.11139	0.32046	0.11965	0.22606	0.10953	0.092383	0.22435	0.20594	0.10366	0.073273	0.14053	0.16507	0.058287	-2.8333	-3.0167	-3.375	-3.3771	-3.2708	-3.5167	-3.1708	-3.3271	-3.5438	-3.3875	-3.4583	-3.1604	-2.975	-3.4313	-3.4208	-3.4208	398.225	325.569	290.213	433.419	161.933	498.579	299.045	172.074	141.389	343.573	375.489	144.335	158.012	328.765	430.049	391.043	0.00035263	0.00021455	5.6093e-05	258.38	1.8982e-06	2.591e-06	399.72	66.219	1.3455e-06	2.2961e-06	157.95	67.463	22.965	9.4621	1.8006e-06	37.294	0.00015958	5.8315e-05	1.5726e-05	251.45	5.9085e-07	5.551e-07	390.84	64.891	6.1385e-07	5.5088e-07	156.05	66.638	22.417	9.3924	6.119e-07	36.941	205.349	217.077	231.462	150.733	301.085	274.721	151.034	156.596	281.773	306.563	156.405	160.074	159.524	165.103	297.832	163.764	-8191	255	
901.984	1	1	0	0	0.21846	0.25326	0.11932	0.19914	0.082122	0.23134	0.025428	0.28687	0.12985	0.23415	0.10197	0.28231	0.11283	0.44599	0.12132	0.083654	-2.9083	-3.0146	-3.1688	-3.35	-3.2729	-3.5917	-3.4313	-3.0958	-3.5021	-3.2229	-3.4813	-3.5042	-3.2917	-3.3146	-3.1458	-3.3312	260.095	234.220	477.555	453.810	269.504	446.034	361.240	371.180	185.532	285.870	180.586	420.709	345.484	410.230	303.007	247.245	0.00035112	0.00014862	6.0943e-05	258.3	2.0565e-06	2.8158e-06	398.96	65.234	1.7255e-06	1.539e-06	156.89	66.37	22.729	9.4367	1.6881e-06	36.946	0.00016037	5.13e-05	1.508e-05	252.55	6.1404e-07	5.1094e-07	391	64.312	5.8495e-07	5.9069e-07	154.43	65.925	22.063	9.2412	5.5449e-07	36.553	205.514	215.782	245.965	150.531	298.132	264.216	151.206	156.250	276.828	286.322	155.961	160.146	159.409	164.583	283.976	163.701	-8191	255	
902.102	1	1	0	0	0.22745	0.13605	0.12627	0.050389	0.068895	0.18261	0.10715	0.24362	0.040899	0.27623	0.17167	0.13515	0.22673	0.055452	0.041659	0.38826	-3.0583	-3.2583	-3.2438	-3.2542	-3.1	-3.5208	-3.3	-3.2354	-3.5083	-3.3479	-3.3208	-3.2458	-3.0812	-3.4771	-3.4188	-3.1979	153.743	379.275	316.729	466.879	284.300	346.971	251.656	202.035	490.202	389.552	493.047	161.963	202.931	429.679	391.901	472.799	0.00034492	0.00024208	5.3193e-05	258.51	1.949e-06	2.4084e-06	400.87	65.188	1.3055e-06	1.719e-06	158.8	66.345	23.023	9.287	1.5844e-06	36.885	0.00015447	5.4492e-05	1.5478e-05	252.9	6.584e-07	5.4838e-07	392.17	64.402	5.6748e-07	5.1563e-07	155.31	65.931	22.217	9.219	5.9917e-07	36.554	205.060	205.729	229.727	150.922	274.759	280.900	151.095	156.019	268.231	284.926	156.180	159.888	159.521	164.510	307.923	163.810	-8191	255	
902.199	1	1	0	0	0.24636	0.2655	0.17929	0.10651	0.20084	0.20178	0.067002	0.19485	0.058828	0.040747	0.30744	0.034897	0.15055	0.01898	0.13904	0.1484	-2.8333	-3.1417	-3.3729	-3.5938	-3.1854	-3.2062	-3.2562	-3.0646	-3.4188	-3.3396	-3.2812	-3.6917	-3.1688	-3.3958	-3.3854	-3.1042	200.465	155.459	150.773	288.753	329.879	146.795	219.790	406.761	303.850	352.931	239.614	317.369	415.180	226.216	493.332	468.569	0.0003496	0.00021615	8.9002e-05	259.15	1.5689e-06	2.8707e-06	399.98	65.415	1.4839e-06	1.6949e-06	156.65	65.303	22.631	9.2238	2.5119e-06	36.337	0.00015512	5.0322e-05	1.4134e-05	253.44	6.0706e-07	5.6374e-07	391.06	64.078	5.9369e-07	5.2474e-07	153.56	65.068	22.014	9.1673	5.7208e-07	36.159	205.637	216.371	237.940	150.459	289.290	303.564	151.054	155.961	298.518	284.448	156.023	160.511	160.010	164.510	281.281	163.975	-8191	255	
902.295	1	1	0	0	0.31952	0.21178	0.043436	0.11797	0.21246	0.19091	0.13661	0.11055	0.14648	0.16739	0.21626	0.16312	0.20841	0.18396	0.05776	0.041596	-3.0187	-3.3042	-3.3021	-3.4229	-3.2229	-3.2875	-3.4833	-3.2042	-3.6604	-3.3812	-3.2792	-3.3812	-3.0062	-3.2667	-3.5917	-3.3271	318.177	291.672	246.910	350.370	249.496	203.836	212.909	458.799	341.937	472.298	244.743	419.671	443.977	477.599	157.990	201.031	0.00035798	0.00012711	8.5039e-05	257.74	1.7629e-06	2.1966e-06	398.27	65.19	1.6126e-06	2.1346e-06	156.11	66.135	22.846	9.3502	1.399e-06	36.59	0.00015817	4.7955e-05	1.4875e-05	252.35	6.3903e-07	5.3686e-07	389.41	63.96	6.1744e-07	5.0196e-07	154.24	65.438	22.042	9.2112	5.6467e-07	36.298	207.630	241.206	220.325	150.646	297.052	275.272	151.292	156.145	291.351	256.955	156.083	160.213	159.143	164.746	265.791	163.955	-8191	255	
902.391	1	1	0	0	0.19428	0.19878	0.12323	0.086502	0.15038	0.11137	0.079025	0.21802	0.1875	0.14063	0.10254	0.17443	0.096475	0.076056	0.16338	0.12387	-2.9896	-3.1562	-3.0646	-3.5458	-3.0104	-3.2854	-3.3083	-3.175	-3.6271	-3.4333	-3.2313	-3.4667	-3.0854	-3.3854	-3.5438	-3.0521	466.297	372.403	445.806	231.958	244.129	265.794	238.884	316.806	491.746	234.398	390.518	404.527	416.524	458.573	139.987	280.310	0.00035763	0.00020427	5.748e-05	260.11	1.7659e-06	2.4807e-06	400.81	65.778	1.0648e-06	1.6582e-06	158.08	66.314	22.454	9.192	1.5613e-06	36.672	0.00015638	5.4579e-05	1.5394e-05	254.22	6.0954e-07	5.8414e-07	394	64.687	5.4059e-07	5.4464e-07	155.02	65.682	22.13	9.1484	5.8018e-07	36.307	205.499	207.840	231.224	150.819	297.224	281.251	151.493	155.564	284.065	292.057	155.798	159.825	158.945	164.548	294.286	163.882	-8191	255	
902.512	1	1	0	0	0.16135	0.11204	0.25849	0.31657	0.088551	0.24377	0.37458	0.17065	0.103	0.059369	0.28178	0.078197	0.14512	0.097775	0.23659	0.39727	-2.9437	-3.3063	-3.1375	-3.6271	-3.1854	-3.25	-3.5229	-3.1292	-3.5062	-3.6208	-3.0833	-3.25	-3.3167	-3.2229	-3.2667	-3.3896	192.630	255.668	168.616	320.334	414.378	339.487	470.010	319.330	267.348	482.983	496.330	139.005	423.998	168.942	192.671	416.421	0.00035433	0.00019775	6.6188e-05	260.01	1.5654e-06	2.9305e-06	403.9	65.094	1.7808e-06	2.0027e-06	157.99	65.966	23.002	9.1545	1.6418e-06	36.453	0.00016019	5.7337e-05	1.5454e-05	255.59	6.5817e-07	6.4294e-07	397.38	64.611	6.5978e-07	5.4225e-07	155.1	65.443	22.155	9.0663	5.3573e-07	36.19	205.909	222.288	218.386	150.815	315.478	303.115	151.239	156.074	274.903	312.189	155.826	160.217	159.351	164.452	288.206	163.689	-8191	255	
902.608	1	1	0	0	0.03371	0.21221	0.16894	0.12002	0.17364	0.20147	0.046572	0.076737	0.1724	0.18703	0.18931	0.17014	0.16318	0.26228	0.25784	0.32016	-3.0083	-3.3417	-3.1667	-3.5083	-3.3937	-3.0604	-3.4979	-3.1792	-3.2146	-3.6729	-3.0917	-3.3792	-3.2917	-3.2062	-3.5062	-3.4229	481.536	417.695	377.723	232.674	394.315	356.775	306.428	396.904	255.777	270.313	480.051	331.612	461.713	138.830	187.704	331.036	0.00034734	0.00013994	4.148e-05	262.58	1.4101e-06	1.8609e-06	407.42	65.293	1.2534e-06	2.3353e-06	157.42	65.529	22.57	9.1287	2.5806e-06	36.06	0.00015566	5.0257e-05	1.4881e-05	255.92	5.9107e-07	6.1246e-07	398.2	64.601	6.2214e-07	5.2186e-07	155	65.066	22.1	9.0536	5.6791e-07	35.865	206.901	205.597	230.967	150.729	324.092	301.242	151.294	156.069	271.719	290.218	156.008	160.331	159.368	164.807	284.426	163.782	-8191	255	
902.679	1	1	0	0	0.19232	0.11105	0.10167	0.22347	0.067443	0.24963	0.14153	0.090806	0.062409	0.097774	0.12064	0.062804	0.082474	0.27667	0.17813	0.098947	-2.5167	-3.5062	-3.1208	-3.3812	-3.2729	-3.1417	-3.6292	-3.3	-3.1354	-3.475	-3.2313	-3.2604	-3.3833	-3.3	-3.4958	-3.1792	410.507	496.887	192.834	444.670	465.551	143.233	227.013	336.357	332.178	428.543	325.078	430.993	249.516	333.941	225.824	358.668	0.00035376	0.00029177	6.7733e-05	259.39	1.7168e-06	2.5069e-06	402.68	66.595	1.6689e-06	1.4507e-06	157.6	66.435	22.814	9.2497	2.2569e-06	36.772	0.00015912	5.1278e-05	1.5774e-05	254.77	5.9265e-07	6.0622e-07	395.23	65.116	6.0937e-07	5.3601e-07	154.92	65.802	22.196	9.1567	5.9107e-07	36.475	203.912	226.107	225.398	150.975	270.557	292.742	151.015	156.316	309.278	318.210	155.829	160.371	159.600	164.238	262.017	163.944	-8191	255	
902.800	1	1	0	0	0.087767	0.29726	0.34154	0.016044	0.30224	0.053199	0.017701	0.038431	0.066131	0.14551	0.21387	0.038878	0.27172	0.077395	0.18975	0.042067	-2.6625	-3.5125	-3.1146	-3.3417	-3.2958	-3.0646	-3.5333	-3.5083	-3.1813	-3.6396	-3.2625	-3.2333	-3.15	-3.1521	-3.5062	-3.4375	196.320	433.800	321.612	158.883	169.052	175.660	477.869	249.607	153.308	214.983	138.429	440.605	421.639	229.007	330.047	329.944	0.00034177	0.00021709	5.959e-05	259.99	1.7841e-06	2.0304e-06	407.38	67.392	1.6804e-06	1.1907e-06	162.89	69.167	23.805	9.74	2.1988e-06	38.24	0.00015969	5.7576e-05	1.5358e-05	254.43	6.0008e-07	6.7269e-07	398.69	65.858	6.3536e-07	6.0916e-07	160.53	68.521	23.056	9.6418	6.2764e-07	38.051	205.928	233.542	259.506	150.279	295.322	304.577	151.587	156.345	282.614	264.160	155.856	159.573	158.920	164.341	291.246	163.451	-8191	255	
902.896	1	1	0	0	0.19982	0.075274	0.14103	0.1306	0.084888	0.21324	0.057268	0.26337	0.34218	0.14747	0.24091	0.040587	0.26622	0.16567	0.11494	0.22914	-2.5792	-3.1813	-3.0083	-3.2104	-3.3896	-3.0896	-3.6083	-3.3021	-3.2958	-3.3604	-3.2125	-3.3104	-3.4396	-3.1708	-3.5563	-3.4333	470.382	195.369	147.641	414.591	205.451	429.055	196.231	446.143	219.641	233.063	142.896	483.724	197.731	353.563	286.455	465.200	0.00035842	0.00015068	6.2689e-05	261.11	1.9442e-06	2.7888e-06	412.54	67.972	1.3557e-06	1.8924e-06	163.02	68.717	23.297	9.5438	1.6041e-06	37.634	0.00016738	5.6056e-05	1.7854e-05	255.81	6.9645e-07	6.7173e-07	403.67	66.411	6.8778e-07	6.1923e-07	160.45	68.106	22.929	9.4849	6.5427e-07	37.378	204.251	206.093	230.077	150.609	287.049	281.943	150.940	156.050	280.820	310.803	155.895	159.773	159.460	164.356	262.493	163.635	-8191	255	
902.992	1	1	0	0	0.042586	0.031056	0.2085	0.074932	0.1546	0.043564	0.10171	0.14146	0.23328	0.16835	0.16856	0.14807	0.27551	0.10881	0.0089575	0.25114	-2.4667	-3.4396	-3.2521	-3.2104	-3.3729	-3.1813	-3.5021	-3.4771	-3.0938	-3.3875	-3.1771	-3.3729	-3.4354	-3.2354	-3.1896	-3.4229	410.134	298.606	317.341	165.431	176.933	321.721	445.604	436.739	431.595	271.093	394.254	325.052	478.111	306.169	373.243	141.187	0.00035023	0.00024637	7.3589e-05	263.94	7.1482e-07	3.1543e-06	409.64	66.395	1.688e-06	1.0623e-06	159.19	66.489	22.7	9.4326	1.5269e-06	36.858	0.0001698	6.0139e-05	1.6938e-05	256.93	5.9783e-07	6.283e-07	399.97	65.133	6.4679e-07	5.4944e-07	156.59	66.172	22.309	9.2822	5.913e-07	36.602	202.870	227.057	233.717	150.977	261.712	290.641	151.189	155.840	293.375	339.324	156.097	159.781	159.241	164.192	299.635	163.582	-8191	255	
903.088	1	1	0	0	0.1197	0.18502	0.17038	0.14297	0.15398	0.1755	0.21864	0.14257	0.20205	0.18615	0.20268	0.21151	0.016549	0.19243	0.14055	0.033428	-2.6292	-3.3937	-3.3583	-3.2146	-3.4292	-3.15	-3.4125	-3.5417	-3.1604	-3.3937	-3.2708	-2.9979	-3.5292	-3.3229	-3.1604	-3.4875	299.032	237.598	147.897	263.316	384.960	477.640	471.350	357.311	285.343	466.358	434.533	338.549	359.636	462.760	452.896	412.760	0.00034246	0.00017055	8.7936e-05	260.34	2.0792e-06	2.4673e-06	403.58	66.613	1.954e-06	2.0117e-06	161.25	68.796	23.722	9.8221	1.8423e-06	38.128	0.00015903	5.4644e-05	1.625e-05	254.12	6.0773e-07	6.6238e-07	397.15	65.473	6.9271e-07	6.0988e-07	159.24	68.016	23.152	9.6342	6.6561e-07	37.911	206.327	182.689	227.290	150.875	287.676	285.849	151.428	156.200	297.133	295.929	155.960	160.120	159.821	164.432	281.126	163.671	-8191	255	
903.207	1	1	0	0	0.16994	0.14452	0.15001	0.20826	0.13829	0.090141	0.072531	0.15667	0.32138	0.15917	0.041387	0.30803	0.21023	0.13401	0.027492	0.08613	-2.6896	-3.4521	-3.4167	-3.0333	-3.2042	-3.3229	-3.3771	-3.7188	-3.2479	-3.4083	-3.5	-3.0563	-3.475	-3.3646	-3.1521	-3.4625	285.335	294.610	155.646	478.459	433.468	414.720	312.579	440.370	182.684	178.289	496.869	401.018	266.424	475.003	359.211	455.759	0.00036549	0.00017312	6.207e-05	261.27	1.9504e-06	2.9423e-06	408.95	67.635	1.5038e-06	1.3385e-06	162.82	69.172	23.483	9.6287	1.9564e-06	37.851	0.00016637	6.4266e-05	1.5955e-05	254.83	6.6065e-07	6.1726e-07	402.12	66.576	6.9854e-07	5.7294e-07	160.68	68.418	23.022	9.5413	6.6677e-07	37.715	204.144	217.473	231.955	150.766	293.656	288.828	151.292	156.145	308.028	292.236	155.707	160.214	158.918	164.050	273.183	163.697	-8191	255	
903.279	1	1	0	0	0.13188	0.080529	0.18412	0.065034	0.15737	0.27462	0.10794	0.1548	0.081581	0.063007	0.086358	0.034048	0.063744	0.096474	0.031831	0.15338	-2.6458	-3.2104	-3.4354	-3.3917	-3.6208	-3.4354	-3.1833	-3.3021	-3.1875	-3.3479	-3.3875	-2.9542	-3.3417	-3.2479	-2.9396	-3.5708	341.394	226.853	380.109	422.627	166.022	145.134	455.436	294.209	163.771	475.893	446.450	336.599	144.816	361.209	440.355	207.169	0.00035715	0.00014406	5.0275e-05	262.5	1.6298e-06	2.3922e-06	411.73	67.552	1.4246e-06	1.4362e-06	162.45	68.832	23.601	9.5897	2.3803e-06	37.708	0.00016471	5.8641e-05	1.5328e-05	256.85	6.3678e-07	6.1534e-07	403.68	66.498	6.73e-07	5.9693e-07	160.27	68.202	23.014	9.5483	6.4455e-07	37.531	204.340	221.391	261.134	150.856	283.192	288.464	151.167	155.958	276.729	258.198	155.713	160.074	159.392	164.724	282.150	163.606	-8191	255	
903.400	1	1	0	0	0.15195	0.096832	0.27739	0.17722	0.10724	0.12818	0.13806	0.16181	0.061539	0.22015	0.088991	0.2077	0.17383	0.12457	0.14527	0.15328	-2.9375	-3.4604	-3.4938	-3.2375	-3.2604	-3.1458	-3.2042	-3.3396	-3.3729	-3.4354	-3.4437	-3.125	-3.4521	-3.3312	-3.0812	-3.2646	214.802	391.872	294.714	327.441	332.602	429.956	338.998	149.356	206.120	398.870	234.970	432.094	304.120	324.410	239.166	388.673	0.00036956	0.00017974	5.3569e-05	262.45	2.0301e-06	2.4386e-06	411.18	67.351	1.4611e-06	2.1379e-06	162.82	68.087	23.045	9.4174	1.8963e-06	36.999	0.00017075	5.6034e-05	1.6232e-05	256.84	6.2192e-07	6.2398e-07	404.14	66.046	6.6941e-07	6.5305e-07	159.13	67.213	22.57	9.3168	7.14e-07	36.79	204.178	181.295	235.505	150.904	311.640	294.911	150.919	156.371	282.894	279.597	155.947	159.894	159.800	164.223	309.138	163.513	-8191	255	
903.496	1	1	0	0	0.24619	0.16752	0.11783	0.062398	0.15465	0.15781	0.16602	0.042639	0.052608	0.20474	0.1377	0.069	0.26671	0.16257	0.28276	0.21528	-2.8042	-3.0563	-3.4562	-3.2167	-3.3	-3.5104	-3.2417	-3.2208	-3.1521	-3.0208	-3.3063	-3.1854	-3.3417	-3.4479	-3.2812	-3.5229	150.564	145.456	251.800	461.064	159.899	460.036	368.892	472.001	418.352	382.564	226.861	435.011	420.823	256.518	195.368	280.057	0.00034775	0.00023542	5.4835e-05	262.21	1.7109e-06	2.3482e-06	408	66.853	1.6577e-06	1.5219e-06	161.24	68.399	22.952	9.4829	2.5186e-06	37.449	0.00016577	5.7641e-05	1.622e-05	255.78	6.7146e-07	5.7166e-07	399.09	65.589	6.7277e-07	5.8014e-07	158.35	67.233	22.68	9.4174	7.2326e-07	37.174	205.008	212.669	231.965	150.300	292.808	299.118	151.212	155.941	307.176	292.592	155.916	160.103	160.266	164.262	276.842	163.746	-8191	255	
903.592	1	1	0	0	0.24924	0.15281	0.19425	0.29206	0.36182	0.29725	0.27156	0.056847	0.27897	0.13458	0.18747	0.12751	0.079861	0.14606	0.3024	0.19431	-3.1146	-3.1937	-3.3854	-3.1875	-3.0896	-3.45	-3.0896	-3.35	-3.2833	-3.0563	-3.6146	-3.3458	-3.2125	-3.5292	-3.0292	-3.2875	194.241	289.724	366.707	169.507	296.338	180.545	455.896	432.792	198.231	452.556	380.032	316.567	197.013	224.839	330.789	458.240	0.00034871	0.00022765	5.3001e-05	261.5	1.3701e-06	2.8231e-06	410	67.355	1.7674e-06	2.4493e-06	161.89	68.59	23.638	9.6456	1.553e-06	37.813	0.00015996	5.5426e-05	1.6081e-05	254.69	6.6088e-07	6.1798e-07	400.69	65.958	6.7233e-07	6.7871e-07	159.72	68.02	22.988	9.5212	6.4385e-07	37.451	203.914	222.892	216.268	150.872	273.111	305.152	151.366	156.160	290.233	293.828	155.592	159.614	159.302	164.411	269.551	163.516	-8191	255	
903.688	1	1	0	0	0.1216	0.19735	0.091879	0.16491	0.14712	0.1184	0.025342	0.047061	0.025839	0.041877	0.19009	0.13923	0.14967	0.22212	0.056428	0.1765	-3.0521	-3.3104	-3.5438	-3.3167	-3.075	-3.4271	-3.2833	-3.2104	-3.3146	-3.0438	-3.3937	-3.425	-3.1375	-3.4667	-3.2146	-3.4562	325.951	432.024	444.565	414.881	159.656	167.592	155.114	417.295	250.268	473.421	381.929	245.694	295.163	210.488	420.790	386.709	0.00036909	0.00029132	5.6375e-05	261.22	2.2252e-06	2.6647e-06	409.96	66.956	1.5275e-06	1.5933e-06	162.34	68.622	23.29	9.4407	2.6035e-06	37.49	0.00016899	6.2029e-05	1.6365e-05	255.23	7.3406e-07	6.1054e-07	402.14	65.687	6.385e-07	6.8039e-07	159.75	67.881	22.777	9.3951	6.5867e-07	37.228	206.555	238.889	232.930	150.896	279.930	283.038	151.204	156.420	269.001	282.265	156.061	160.164	159.767	164.796	297.418	163.733	-8191	255	
903.809	1	1	0	0	0.25521	0.17004	0.20871	0.13416	0.20504	0.33388	0.30025	0.3213	0.30555	0.097649	0.034682	0.11415	0.17569	0.22679	0.30104	0.11905	-2.9979	-3.0958	-3.1646	-3.0521	-3.1333	-3.5687	-3.2542	-3.3187	-3.3563	-3.3125	-3.1833	-3.1708	-3.0354	-3.4979	-3.2229	-3.3458	214.165	259.980	370.438	480.968	378.658	451.035	460.756	459.014	246.988	475.494	246.266	455.250	475.525	338.787	480.521	230.591	0.00035903	0.00017056	5.37e-05	260.9	1.8553e-06	9.8536e-07	408.4	66.79	1.1825e-06	2.0645e-06	160.72	67.499	23.398	9.3835	1.417e-06	36.883	0.00016115	5.977e-05	1.7004e-05	255.18	7.0433e-07	5.6662e-07	401.52	65.398	5.6949e-07	6.0412e-07	158.14	66.92	22.588	9.289	6.8715e-07	36.721	204.692	232.613	249.716	150.619	292.431	300.282	151.334	156.098	288.912	307.704	155.924	159.965	158.918	164.247	287.591	163.702	-8191	255	
903.880	1	1	0	0	0.1222	0.21112	0.22712	0.14599	0.18782	0.067098	0.13884	0.25405	0.20234	0.22702	0.21981	0.13809	0.11955	0.11232	0.21626	0.22859	-3.2229	-3.1437	-3.3792	-3.3646	-2.9167	-3.5354	-3.1229	-3.2812	-3.7229	-3.2562	-3.4562	-3.4479	-3.0438	-3.3417	-3.2292	-3.1042	211.797	363.417	292.593	362.359	313.432	413.091	266.713	257.649	386.139	401.208	334.873	140.899	394.794	473.428	341.870	377.795	0.00034889	0.00022427	6.7369e-05	258.49	1.552e-06	2.9268e-06	404.03	65.504	1.2072e-06	2.5203e-06	158.08	66.604	23.042	9.3322	1.8335e-06	36.78	0.00016182	5.699e-05	1.4363e-05	252.66	6.343e-07	6.2446e-07	394.84	64.502	5.9391e-07	6.1923e-07	155.69	65.961	22.351	9.2011	6.0611e-07	36.433	203.267	228.162	239.989	150.807	283.461	295.316	151.608	156.319	282.614	298.743	155.902	159.873	159.496	164.344	302.634	163.547	-8191	255	
903.977	1	1	0	0	0.10397	0.20284	0.1364	0.16329	0.15047	0.11996	0.12324	0.31444	0.10136	0.037116	0.23248	0.16779	0.017404	0.15819	0.2892	0.13193	-2.9875	-3.3104	-3.475	-3.3688	-3.0583	-3.4021	-3.0646	-3.1917	-3.3521	-3.2479	-3.4042	-3.5521	-3.1146	-3.4167	-3.4188	-3.3187	342.951	303.181	232.518	449.144	195.400	392.037	442.418	141.708	146.961	195.571	141.775	384.983	163.202	156.798	495.324	162.961	0.00034846	0.00022421	7.0748e-05	259.17	1.3616e-06	2.0311e-06	405.26	65.775	1.7367e-06	2.6861e-06	158.19	66.827	22.959	9.3344	2.2697e-06	36.744	0.00015996	6.2832e-05	1.5647e-05	252.84	6.4534e-07	5.9422e-07	395.67	64.528	6.1296e-07	6.2115e-07	155.98	66.12	22.37	9.1996	6.3505e-07	36.443	206.130	218.762	237.088	150.898	304.681	271.745	151.294	156.006	297.438	273.600	155.935	160.028	159.501	164.286	282.205	163.840	-8191	255	
904.073	1	1	0	0	0.29336	0.24588	0.11437	0.25164	0.17021	0.094964	0.045064	0.057064	0.22848	0.23918	0.085773	0.22703	0.15158	0.088251	0.096612	0.09418	-3.1479	-3.1458	-3.0833	-3.2417	-3.0187	-3.4771	-3.3708	-3.0833	-3.5312	-3.1688	-3.3646	-3.4875	-3.3	-3.4521	-3.3875	-3.1312	266.917	374.849	157.268	465.377	268.585	259.784	313.422	204.868	152.359	415.149	187.718	407.414	283.298	352.826	257.057	357.165	0.00034572	0.00022617	6.8074e-05	259.82	1.938e-06	2.8966e-06	405.31	65.388	1.4802e-06	1.967e-06	158.28	66.661	22.746	9.3476	1.7511e-06	36.8	0.00015575	6.3788e-05	1.6069e-05	253.57	6.28e-07	5.8366e-07	397.04	64.476	6.4007e-07	6.1611e-07	156.06	66.097	22.307	9.2169	6.508e-07	36.445	205.245	238.603	219.419	150.596	280.363	286.642	151.059	156.269	268.882	276.105	155.737	159.954	159.457	164.663	292.480	164.050	-8191	255	
904.192	1	1	0	0	0.12442	0.18591	0.09391	0.041158	0.12257	0.044857	0.17798	0.13107	0.13329	0.15005	0.070462	0.26808	0.061964	0.10388	0.12597	0.026196	-3.1	-3.0729	-3.3083	-3.3417	-3.0854	-3.3792	-3.5646	-3.1333	-3.5104	-3.2333	-3.3521	-3.5083	-3.3104	-3.4833	-3.525	-3.3937	334.807	494.160	332.323	332.269	294.651	215.016	433.054	495.632	192.025	442.085	216.721	397.226	159.254	146.785	442.543	245.735	0.00035179	0.00021745	4.1763e-05	259.98	1.6582e-06	2.1143e-06	404.42	66.024	1.5563e-06	1.4992e-06	159.44	66.734	22.681	9.2417	2.133e-06	36.551	0.00015826	5.51e-05	1.5243e-05	253.83	6.4894e-07	5.4238e-07	397.25	64.54	6.3894e-07	6.1491e-07	156.32	65.955	22.107	9.1101	6.1005e-07	36.202	203.457	236.990	217.738	150.873	287.920	315.786	150.882	156.270	288.541	289.181	156.088	159.904	159.402	164.347	273.453	163.506	-8191	255	
904.288	1	1	0	0	0.23759	0.091502	0.042945	0.072841	0.16605	0.038099	0.23153	0.10302	0.1163	0.1963	0.11244	0.11179	0.12359	0.26661	0.2698	0.12685	-3.2104	-3.2917	-3.1813	-3.4062	-3.4625	-3.2313	-3.2208	-3.1417	-3.4562	-3.3917	-2.9771	-3.4813	-3.1354	-3.0771	-3.4854	-3.2979	464.336	402.353	297.098	193.793	490.008	234.492	395.002	269.444	251.865	405.828	380.372	410.152	197.341	369.322	378.957	383.573	0.00034961	0.00011125	8.5301e-05	258.22	1.3396e-06	2.8053e-06	401.98	65.738	1.2272e-06	2.2024e-06	157.6	65.823	22.752	9.2753	2.4509e-06	36.512	0.00015711	5.7316e-05	1.4098e-05	252.55	6.235e-07	6.1102e-07	393.02	64.369	6.4163e-07	5.8949e-07	155.09	65.552	22.203	9.1992	6.2278e-07	36.22	205.125	221.336	230.302	150.723	279.990	301.039	151.261	155.948	283.080	277.644	155.506	160.152	159.762	164.707	294.750	163.600	-8191	255	
904.384	1	1	0	0	0.095689	0.10008	0.20117	0.25785	0.18946	0.097468	0.32701	0.095254	0.10493	0.19795	0.18126	0.13084	0.24146	0.097366	0.13947	0.25369	-2.9729	-3.4229	-3.2958	-3.6771	-3.2354	-3.3375	-3.3896	-3.2146	-3.25	-3.0062	-3.0667	-3.3667	-3.3542	-3.25	-3.4479	-3.2104	441.981	444.437	289.631	176.803	471.852	431.562	470.640	338.387	407.143	445.670	421.658	402.756	309.732	161.277	339.379	489.925	0.00034853	0.00020756	6.0716e-05	257.73	1.822e-06	2.306e-06	403.09	65.903	1.6958e-06	1.286e-06	158.91	66.743	22.863	9.3271	2.0301e-06	36.908	0.00016009	5.5795e-05	1.71e-05	251.95	6.3205e-07	5.791e-07	394.19	64.491	6.618e-07	5.3193e-07	155.87	66.182	22.331	9.2378	6.1213e-07	36.625	206.785	238.337	212.229	150.719	306.389	288.455	151.287	156.182	287.946	266.075	155.944	159.810	159.601	164.667	296.347	163.556	-8191	255	
904.480	1	1	0	0	0.17097	0.18486	0.042195	0.18396	0.25701	0.12503	0.28299	0.25921	0.14642	0.13532	0.15843	0.20295	0.21542	0.040084	0.11412	0.16415	-2.9104	-3.2146	-2.8729	-3.15	-2.975	-2.8333	-3.275	-3.1479	-3.1979	-3.4146	-2.9896	-3.2062	-3.0771	-2.9917	-3.2792	-3.0167	342.097	309.921	197.975	212.468	387.560	398.263	462.220	429.953	288.357	469.406	159.861	472.723	406.706	168.271	185.355	430.068	0.0003434	0.00022521	6.996e-05	257.94	1.3929e-06	2.1617e-06	403.73	65.334	1.5507e-06	1.8935e-06	158.7	67.305	22.974	9.3794	1.7956e-06	37.054	0.00016067	5.3841e-05	1.7722e-05	252.66	6.2462e-07	6.4006e-07	395.53	64.472	6.6964e-07	5.7894e-07	156.2	66.447	22.397	9.2563	6.2718e-07	36.54	206.332	212.898	219.922	150.971	320.296	287.083	150.942	156.011	277.093	279.548	155.878	160.390	159.728	163.915	276.725	163.563	-8191	255	
904.576	1	1	0	0	0.090896	0.13914	0.20467	0.19021	0.21816	0.22633	0.031218	0.31127	0.2207	0.11657	0.1128	0.24699	0.13415	0.12758	0.10954	0.17318	-2.9292	-3.3104	-2.9708	-3.3667	-3.1688	-3.0417	-3.3979	-2.9375	-3.2021	-3.3312	-3.0687	-3.1875	-3.025	-2.9854	-3.5104	-2.9437	272.795	468.868	160.746	162.175	191.933	322.462	384.529	403.790	356.889	402.715	284.981	432.774	140.149	217.464	149.091	149.346	0.00034637	0.00029954	6.3701e-05	255.87	2.5599e-06	2.6335e-06	406.84	65.9	1.3416e-06	2.1622e-06	159.63	67.508	22.758	9.3434	1.0608e-06	37.013	0.00016051	5.1495e-05	1.7227e-05	251.73	5.9715e-07	6.1702e-07	397.04	64.601	7.1108e-07	6.034e-07	157.2	66.773	22.31	9.2806	6.075e-07	36.684	204.513	224.890	231.551	150.807	292.774	284.061	151.558	155.897	283.569	273.466	155.506	160.226	159.294	164.187	244.306	163.317	-8191	255	
904.672	1	1	0	0	0.22479	0.18651	0.21286	0.10302	0.083954	0.1244	0.16213	0.13113	0.14946	0.11651	0.32613	0.19752	0.15374	0.16443	0.14684	0.31025	-2.4208	-3.2604	-3.0271	-3.1104	-3.1292	-2.9771	-3.3625	-3.0396	-2.9229	-3.3187	-2.9938	-2.9833	-3.2125	-3.1854	-3.4667	-3.2854	322.419	428.997	165.454	449.595	309.117	379.655	424.090	312.735	254.037	250.563	390.229	413.262	294.320	200.464	452.015	390.588	0.0003434	0.00025211	7.6008e-05	256.3	2.0135e-06	1.6355e-06	401.56	65.793	1.4771e-06	2.4144e-06	158.44	66.927	22.983	9.3485	2.0145e-06	36.941	0.0001613	5.775e-05	1.7227e-05	251.24	6.3385e-07	6.4606e-07	393.22	64.337	6.3155e-07	5.6839e-07	155.97	66.163	22.378	9.2754	6.7603e-07	36.622	202.279	218.191	238.698	150.292	306.233	292.254	151.329	156.504	288.986	283.116	155.672	160.092	159.220	164.656	268.898	163.406	-8191	255	
904.768	1	1	0	0	0.098451	0.12742	0.14904	0.044191	0.14598	0.11188	0.15298	0.045054	0.14605	0.077914	0.23417	0.11923	0.079517	0.33243	0.24579	0.18243	-2.8271	-3.4	-2.9042	-2.9938	-3.2417	-3.0854	-3.4354	-3.2625	-3.2771	-3.5604	-3.4021	-3.3396	-3.3708	-2.8542	-3.1271	-3.2438	407.950	317.403	182.135	254.286	164.060	242.632	316.761	466.948	228.289	170.796	419.245	140.759	444.696	479.688	419.873	415.031	0.00035905	0.00019879	4.3613e-05	257.89	1.9044e-06	1.7864e-06	406.84	66.046	1.8436e-06	1.9395e-06	161.04	68.17	23.674	9.5403	1.4039e-06	37.451	0.00016258	5.1495e-05	1.5762e-05	251.25	6.4083e-07	6.4798e-07	395.97	64.909	6.4298e-07	5.8062e-07	158.04	67.391	22.801	9.4459	6.626e-07	37.202	204.840	207.193	265.304	150.221	295.107	287.651	151.552	156.313	284.654	283.604	155.843	159.775	159.791	164.224	291.407	163.668	-8191	255	
904.889	1	1	0	0	0.048544	0.20157	0.060689	0.044409	0.054779	0.07284	0.2013	0.053114	0.032414	0.10872	0.029073	0.17918	0.1362	0.16449	0.19437	0.055101	-2.5979	-3.2021	-3.0792	-3.1042	-3.3521	-3.1146	-3.3792	-3.3375	-3.0812	-3.5417	-3.2125	-3.0479	-3.1958	-3.0417	-3.2417	-3.2687	162.646	324.499	279.411	186.439	255.822	175.190	407.839	401.219	341.445	357.163	321.747	423.539	448.421	170.966	347.478	372.358	0.00034015	0.00023401	7.3087e-05	259.42	1.6164e-06	2.5111e-06	404.75	66.526	1.5368e-06	2.0359e-06	161.94	68.762	23.626	9.5689	2.9593e-06	37.837	0.00016376	5.4536e-05	1.774e-05	251.79	6.3791e-07	6.2374e-07	398.12	65.218	6.8935e-07	6.0892e-07	159.26	68.068	23.003	9.4868	7.0358e-07	37.479	205.934	214.014	248.394	150.851	300.557	267.082	151.377	156.078	292.516	301.826	156.134	159.777	159.631	164.381	279.572	163.583	-8191	255	
904.983	1	1	0	0	0.18103	0.03054	0.024386	0.16813	0.24144	0.13479	0.16874	0.021516	0.07351	0.13932	0.18234	0.01819	0.15907	0.28027	0.21888	0.18114	-2.725	-3.4167	-3.1833	-3.1312	-3.0917	-3.0438	-3.2083	-3.2438	-3.1021	-3.5083	-3.4083	-3.1979	-3.3458	-3.0458	-3.2083	-3.4896	272.435	216.879	195.131	476.880	493.517	346.316	442.069	485.288	383.982	331.973	383.748	232.944	365.537	394.184	230.659	363.794	0.00034652	0.00016853	6.8116e-05	259.26	7.3584e-07	2.3773e-06	409.04	66.583	1.8409e-06	1.6913e-06	161.77	69.395	23.393	9.655	1.7372e-06	37.773	0.00016312	5.6251e-05	1.6286e-05	252.92	6.2777e-07	6.7893e-07	400.47	65.184	6.5463e-07	6.2499e-07	159.76	68.302	22.926	9.5517	6.2811e-07	37.638	203.940	213.068	257.854	150.606	272.489	313.092	151.419	156.113	265.439	291.477	155.961	159.944	159.467	164.696	287.430	163.725	-8191	255	
905.081	1	1	0	0	0.036681	0.035536	0.22835	0.098469	0.061919	0.12332	0.22686	0.089329	0.10603	0.21121	0.079927	0.085537	0.17997	0.28139	0.12882	0.12118	-2.6333	-3.2708	-3.1292	-2.9167	-3.2417	-3.0979	-3.2	-3.3729	-3.1208	-3.2333	-3.1583	-3.0958	-3.3563	-3.1708	-3.1021	-3.35	236.009	471.432	466.057	475.062	239.999	229.752	461.697	481.682	217.906	190.298	308.518	413.086	366.362	433.450	145.850	176.403	0.00036352	0.00018976	5.2198e-05	258.33	2.2676e-06	2.7101e-06	406.04	66.073	1.9983e-06	1.7686e-06	162.32	68.619	23.682	9.6329	1.845e-06	37.804	0.00016999	5.8858e-05	1.619e-05	251.96	6.5885e-07	6.8901e-07	397.72	64.899	7.1041e-07	5.8014e-07	159.34	68.038	22.962	9.5688	6.6816e-07	37.544	204.049	248.094	229.069	150.417	295.366	286.947	150.985	156.366	293.994	285.993	156.024	159.849	159.452	164.510	286.543	163.403	-8191	255	
905.176	1	1	0	0	0.26359	0.15869	0.20758	0.18916	0.11587	0.1769	0.19522	0.093959	0.16403	0.070268	0.15327	0.093367	0.30332	0.19223	0.11219	0.093972	-2.525	-3.1354	-3.2979	-3.1521	-3.2812	-3.1	-3.1542	-3.3458	-3.1458	-3.3917	-3.2875	-3.1604	-3.4083	-3.2417	-3.1771	-3.3854	498.172	254.325	469.829	453.814	170.945	169.472	367.590	461.594	188.780	184.687	419.028	286.614	351.698	290.454	376.954	141.586	0.00036087	0.0002051	6.4799e-05	258.38	2.1912e-06	2.112e-06	404.71	66.879	8.4537e-07	1.18e-06	162.61	68.831	23.609	9.7621	2.1448e-06	38.169	0.00016661	5.9097e-05	1.5623e-05	251.16	6.906e-07	6.667e-07	396.91	65.257	6.7815e-07	5.7558e-07	159.84	68.369	23.037	9.6442	7.1053e-07	37.973	204.657	214.771	224.835	150.487	309.566	291.426	151.416	156.301	291.382	307.804	156.217	160.061	159.282	164.194	294.725	163.467	-8191	255	
905.272	1	1	0	0	0.031773	0.17969	0.068165	0.28986	0.10879	0.19008	0.11965	0.061463	0.23474	0.23193	0.15682	0.17718	0.091098	0.099376	0.20577	0.29401	-2.5875	-3.1333	-3.3	-2.8187	-3.3937	-3.2583	-3.1979	-3.2083	-3.1417	-3.2625	-3.3146	-2.8958	-3.0687	-3.1917	-2.9688	-3.4875	242.613	351.567	307.639	369.916	349.957	201.051	470.986	387.749	176.153	322.596	400.052	482.332	476.308	205.594	354.587	332.417	0.00034899	0.00026914	5.3931e-05	259.18	1.9018e-06	2.6894e-06	408.24	66.934	1.5475e-06	3.0478e-06	163.71	69.386	23.687	9.8401	2.0014e-06	38.325	0.00016489	6.2637e-05	1.7233e-05	251.94	7.0051e-07	6.571e-07	398.6	65.517	6.9742e-07	6.5904e-07	161.02	68.821	23.22	9.731	7.3113e-07	38.108	206.196	234.441	229.956	150.880	273.116	276.216	151.318	155.935	285.870	279.469	155.729	159.991	159.326	163.968	291.447	163.389	-8191	255	
905.368	1	1	0	0	0.15283	0.45999	0.35034	0.151	0.11278	0.1733	0.020501	0.12748	0.073438	0.18146	0.15417	0.13928	0.13074	0.16399	0.22236	0.091518	-2.7229	-3.1208	-3.55	-3.125	-3.425	-3.3271	-3.0583	-3.4417	-3.1937	-3.1979	-3.4688	-2.9917	-3.3854	-3.275	-2.9062	-3.2375	472.459	154.922	220.260	448.587	174.364	288.542	297.053	258.131	328.187	281.108	448.709	355.333	216.081	433.387	382.645	477.444	0.00033851	0.00034151	6.9208e-05	255.54	1.5103e-06	1.9931e-06	408.59	66.309	1.571e-06	2.1032e-06	164.01	70.129	23.683	9.7972	2.532e-06	38.412	0.00016546	6.1811e-05	1.4725e-05	251.45	6.5435e-07	5.8174e-07	400.16	65.29	6.954e-07	6.6408e-07	161.37	69.292	23.237	9.7112	7.1493e-07	38.056	205.778	208.418	260.389	150.769	303.266	284.254	151.068	155.857	279.844	288.137	155.953	159.806	159.328	164.220	291.422	163.611	-8191	255	
905.489	1	1	0	0	0.11713	0.1451	0.11103	0.11747	0.25364	0.15501	0.032949	0.12879	0.14375	0.12124	0.094797	0.073128	0.056505	0.1524	0.25085	0.092217	-2.8229	-3.1063	-3.4167	-3.1292	-3.3229	-3.3292	-3.2188	-3.2896	-3.4167	-3.1771	-3.4104	-3.1417	-3.2583	-3.2313	-3.0687	-3.4208	232.612	383.604	181.873	176.763	381.109	342.872	454.323	276.435	205.446	481.725	451.759	401.725	204.816	187.589	293.106	168.761	0.00034101	0.00014433	6.1388e-05	258.3	1.5099e-06	1.851e-06	405.98	65.48	1.4243e-06	2.1045e-06	163.08	69.068	23.602	9.7558	1.5498e-06	37.962	0.00016094	5.8879e-05	1.5135e-05	252.23	6.7574e-07	5.7046e-07	398.46	64.937	6.5082e-07	7.0125e-07	159.68	68.223	23.067	9.673	6.802e-07	37.665	206.145	206.123	220.289	150.380	301.270	277.874	150.894	155.929	307.591	295.209	156.033	159.617	159.886	164.414	294.694	163.867	-8191	255	
905.585	1	1	0	0	0.074414	0.060121	0.048764	0.17159	0.12398	0.080209	0.11906	0.1007	0.2228	0.2266	0.072945	0.28273	0.077759	0.11759	0.28176	0.11703	-2.7667	-2.8979	-3.3042	-3.0625	-3.0563	-3.1979	-3.0979	-3.2375	-3.3271	-2.8854	-3.3396	-2.9208	-3.1708	-3.2125	-2.9229	-3.2729	225.583	495.341	186.340	189.149	451.859	359.297	184.533	306.415	322.761	343.817	449.050	152.079	159.873	325.881	287.514	455.746	0.00035993	0.00028114	7.1299e-05	257.11	1.6535e-06	2.0368e-06	405.32	66.804	1.5702e-06	1.8544e-06	162.96	69.121	23.802	9.8973	2.0527e-06	38.243	0.00016409	6.5547e-05	1.6202e-05	250.17	7.0546e-07	6.5614e-07	396.52	65.263	7.0974e-07	6.4897e-07	160.51	68.599	23.225	9.7328	7.5938e-07	38.038	204.860	213.265	231.069	150.845	305.430	306.725	151.213	156.008	278.365	287.384	156.349	159.798	159.319	164.345	281.076	163.702	-8191	255	
905.681	1	1	0	0	0.27705	0.15128	0.28313	0.15491	0.29284	0.13313	0.2274	0.19792	0.26886	0.21291	0.038082	0.11407	0.15608	0.068101	0.094622	0.1089	-2.775	-2.8917	-3.2687	-3.2229	-3.2354	-3.2833	-3.25	-3.3875	-3.4104	-3.0646	-3.3417	-3.2188	-3.0542	-3.3187	-2.8958	-3.2396	452.810	169.291	312.189	431.485	139.777	161.554	221.151	360.316	261.950	453.990	272.613	461.798	310.750	431.918	322.919	301.143	0.0003711	0.00022655	6.2038e-05	255.53	1.5385e-06	2.9739e-06	407.94	66.89	2.0518e-06	2.8084e-06	163.25	69.355	23.769	9.8321	2.115e-06	38.323	0.00016646	6.192e-05	1.5388e-05	250.86	6.7596e-07	5.7982e-07	399.78	65.437	6.3962e-07	6.5209e-07	160.66	68.834	23.22	9.7232	7.3576e-07	37.974	204.025	207.125	251.550	150.811	281.899	278.347	151.238	156.101	285.830	281.236	155.659	160.022	159.577	163.964	277.011	163.257	-8191	255	
905.777	1	1	0	0	0.18278	0.15948	0.27691	0.10003	0.079021	0.10164	0.24286	0.063759	0.093555	0.1699	0.11061	0.012801	0.16222	0.099722	0.20372	0.2306	-2.6792	-2.9542	-3.3167	-3.1604	-3.2125	-3.4917	-3.2125	-3.2417	-3.5771	-3.1083	-3.4104	-3.1521	-2.9479	-3.3563	-3.0938	-3.1042	287.953	281.097	337.926	345.035	158.708	464.446	480.172	163.785	374.618	437.040	209.165	235.693	159.319	336.656	450.434	163.692	0.000352	0.00027348	0.00010423	257.74	1.4946e-06	2.2442e-06	408.65	66.941	1.3088e-06	2.1649e-06	163.71	69.324	23.593	9.7445	2.5356e-06	38.229	0.00016307	5.8619e-05	1.5653e-05	251.73	6.8452e-07	6.1318e-07	400.68	65.351	6.0086e-07	6.7055e-07	160.86	68.759	23.092	9.6888	6.6886e-07	37.942	203.473	235.338	228.469	151.121	290.039	288.673	151.229	155.965	275.009	264.092	155.902	159.878	159.797	164.955	279.438	163.660	-8191	255	
905.873	1	1	0	0	0.15514	0.16001	0.14896	0.16966	0.099256	0.16263	0.15646	0.099211	0.032658	0.14747	0.11934	0.15756	0.31356	0.12235	0.084543	0.13763	-2.8771	-3.0958	-3.4167	-3.2125	-3.1063	-3.5646	-3.3021	-3.1458	-3.3625	-3.2958	-3.3	-3.225	-2.9875	-3.2583	-3.1771	-2.9271	255.627	487.139	244.019	466.895	390.529	196.969	275.669	321.512	260.100	389.155	397.889	202.372	460.900	162.742	453.603	323.543	0.00036055	0.000222	6.2094e-05	257.65	1.8214e-06	1.3778e-06	405.52	65.686	1.458e-06	1.8586e-06	161.79	68.862	23.709	9.6419	2.4406e-06	37.582	0.00016116	6.1486e-05	1.5472e-05	252.3	6.6921e-07	5.983e-07	398.79	64.844	6.0691e-07	6.0796e-07	159.16	67.891	22.902	9.5529	6.7117e-07	37.407	204.281	230.494	240.950	150.953	278.106	263.905	151.310	155.907	313.240	309.955	156.144	159.909	159.782	163.778	299.094	163.743	-8191	255	
905.969	1	1	0	0	0.34045	0.22757	0.32967	0.087094	0.29318	0.15417	0.20359	0.18348	0.059479	0.22982	0.092875	0.21422	0.17112	0.1438	0.061001	0.18608	-2.9479	-3.0042	-3.1458	-3.1479	-2.7938	-3.3333	-3.2313	-3.175	-3.5062	-3.1292	-3.0354	-3.2854	-2.9854	-3.2146	-3.35	-3.2812	166.417	240.086	358.639	194.111	275.505	141.205	241.744	438.649	200.145	449.213	448.689	190.175	229.370	320.410	220.663	410.790	0.00036651	0.00012061	5.5703e-05	257.21	1.5559e-06	1.2969e-06	404.61	66.426	1.6557e-06	1.3311e-06	162.14	69.14	23.6	9.7621	1.4985e-06	37.952	0.00016427	5.8293e-05	1.4888e-05	251.02	6.4129e-07	6.1678e-07	397.55	65.065	6.1094e-07	6.341e-07	159.79	68.445	23.012	9.6477	6.5242e-07	37.703	205.560	216.464	240.929	150.959	283.026	294.790	150.994	155.962	286.241	316.918	156.043	159.728	159.095	163.786	260.450	163.429	-8191	255	
906.066	1	1	0	0	0.080623	0.093128	0.045023	0.059547	0.054179	0.11095	0.15119	0.22014	0.19445	0.1746	0.26601	0.061834	0.22164	0.17668	0.13289	0.25352	-3.0771	-3.1333	-3.2333	-3.4	-2.8792	-3.2167	-3.3896	-3.1	-3.5062	-3.0083	-3.0458	-3.3438	-3.05	-3.2458	-3.2229	-3.1396	173.287	183.256	240.691	158.838	179.082	482.350	415.022	461.020	416.488	297.701	419.824	266.191	193.594	267.458	143.969	140.933	0.00037331	0.00028918	5.4936e-05	257.51	1.616e-06	3.1991e-06	409.76	67.298	1.4233e-06	1.8013e-06	166.36	71.18	24.389	10.223	1.7085e-06	39.557	0.00016655	6.2485e-05	1.5491e-05	252.41	6.8609e-07	6.9165e-07	400.66	66.109	6.9137e-07	6.1899e-07	163.84	70.695	23.826	10.095	6.6399e-07	39.114	205.750	257.416	217.457	150.550	303.182	281.091	151.190	156.706	306.653	264.795	156.159	159.923	159.403	164.115	284.013	163.417	-8191	255	
906.162	1	1	0	0	0.32881	0.19132	0.15215	0.11266	0.17118	0.13911	0.048603	0.19932	0.13943	0.055847	0.26407	0.25394	0.056307	0.18242	0.090076	0.12251	-2.8792	-3.3021	-3.1875	-3.4458	-3.15	-3.2271	-3.3937	-3.1583	-3.2146	-3.2396	-3.1312	-3.4396	-3.15	-3.2938	-3.425	-3.1083	476.282	361.783	338.864	168.074	439.800	442.536	412.575	490.759	487.506	249.391	437.517	449.870	193.651	399.291	334.423	441.266	0.00038424	0.00021309	6.9141e-05	259.08	1.7803e-06	2.3717e-06	413.47	67.279	1.6306e-06	2.6894e-06	167.56	71.468	24.471	10.115	1.6254e-06	39.057	0.00017172	6.1551e-05	1.7824e-05	253.09	6.9172e-07	6.9333e-07	404.75	66.297	7.1131e-07	6.7055e-07	164.44	70.735	23.776	10.047	6.8877e-07	38.806	204.881	256.545	211.412	150.624	297.180	267.213	151.671	156.011	290.510	290.697	155.812	160.015	159.408	163.903	293.162	163.321	-8191	255	
906.281	1	1	0	0	0.034656	0.21216	0.1893	0.19327	0.30239	0.14003	0.084232	0.10989	0.16721	0.25652	0.13879	0.22684	0.21626	0.13587	0.039646	0.11822	-2.9188	-3.3438	-2.9792	-3.5458	-2.9375	-3.075	-3.1792	-2.9771	-3.2292	-3.3167	-3.25	-3.5208	-3.0125	-3.4229	-3.5479	-3.0021	356.768	264.821	261.558	391.808	434.134	281.552	363.970	431.631	310.013	436.619	457.502	189.093	346.942	246.876	347.837	327.293	0.00037476	0.00015094	4.6896e-05	262.49	2.4289e-06	2.0708e-06	413.07	67.07	1.4588e-06	1.4506e-06	164.9	69.51	23.858	10.036	1.6135e-06	38.684	0.00017051	6.1116e-05	1.6817e-05	254.27	6.9848e-07	6.8565e-07	402.72	65.753	6.5776e-07	6.5736e-07	161.76	69.133	23.351	9.8684	6.5936e-07	38.28	205.045	220.610	224.721	150.720	314.567	294.806	151.355	155.895	271.316	309.151	156.186	159.901	158.883	164.342	272.163	163.626	-8191	255	
906.377	1	1	0	0	0.047987	0.097645	0.25264	0.33594	0.12458	0.058757	0.2458	0.095389	0.090612	0.14317	0.07976	0.12469	0.073838	0.20531	0.1165	0.056681	-2.7604	-3.2167	-2.8979	-3.2708	-3.2	-3.1646	-3.4354	-3.1854	-3.0708	-3.4437	-3.0792	-3.4271	-3.2125	-3.1917	-3.4292	-3.2375	373.444	485.220	275.756	483.734	448.787	405.404	408.108	434.183	206.668	371.823	350.849	488.568	228.008	148.033	490.693	235.308	0.00036732	0.00023337	6.9043e-05	257.47	1.8943e-06	2.3963e-06	408.66	67.141	1.4707e-06	2.9287e-06	165.96	70.867	24.263	10.16	1.685e-06	38.977	0.00017217	6.4743e-05	1.7788e-05	251.71	6.7551e-07	7.1421e-07	399.91	65.883	7.1624e-07	6.8614e-07	163.26	70.496	23.703	10.066	7.5544e-07	38.895	203.333	221.000	241.890	150.833	257.602	264.507	151.610	156.660	281.309	299.930	155.946	159.998	159.231	164.363	310.018	163.661	-8191	255	
906.448	1	1	0	0	0.011831	0.11732	0.20359	0.14937	0.25012	0.096016	0.21782	0.14645	0.09655	0.16158	0.080596	0.10307	0.22064	0.21891	0.11805	0.13958	-2.7146	-3.2875	-3.1292	-3.1937	-3.0604	-3.0521	-3.3417	-3.0583	-3.1417	-3.5271	-3.2583	-3.3917	-3.3917	-3.1208	-3.3979	-3.3083	383.711	463.357	150.097	187.927	178.275	341.431	395.647	412.407	305.791	254.863	281.932	438.971	218.940	200.126	460.809	431.776	0.00037597	0.00014675	5.0668e-05	256.53	1.618e-06	3.044e-06	412.97	67.391	1.4098e-06	2.0338e-06	167.75	71.628	24.56	10.431	2.1222e-06	39.744	0.00017447	6.1486e-05	1.8162e-05	251.31	6.8497e-07	7.1781e-07	403.14	66.26	6.6762e-07	6.8686e-07	164.91	71.375	23.936	10.257	7.2372e-07	39.374	205.281	216.828	217.899	150.500	293.124	298.845	151.361	155.957	302.422	289.706	155.975	160.003	159.335	163.973	294.661	163.678	-8191	255	
906.569	1	1	0	0	0.18493	0.20949	0.12742	0.16533	0.11749	0.076278	0.32509	0.3152	0.046609	0.072519	0.13898	0.17879	0.2547	0.20114	0.11005	0.11291	-2.9167	-3.3187	-3.0854	-3.2708	-3.2146	-3.2521	-3.3875	-3.175	-3.3021	-3.4229	-3.2646	-3.4667	-3.2562	-3.0396	-3.4354	-3.4688	494.887	283.852	197.692	367.257	177.056	378.629	454.771	245.706	189.611	161.303	144.326	204.613	394.814	493.348	447.322	411.488	0.00037651	0.00032419	5.816e-05	255.95	1.6552e-06	2.3302e-06	411.49	67.396	2.1923e-06	2.5292e-06	167.45	72.008	24.592	10.366	2.4559e-06	39.651	0.00017417	6.2246e-05	1.8771e-05	250.85	7.219e-07	6.8349e-07	403.02	66.48	7.6037e-07	6.5784e-07	164.49	71.17	23.992	10.234	6.9154e-07	39.365	205.841	234.131	229.732	150.822	280.233	300.778	151.449	156.107	297.373	285.310	155.865	159.440	159.411	164.182	284.776	163.445	-8191	255	
906.665	1	1	0	0	0.20925	0.19052	0.079278	0.1021	0.19599	0.093972	0.3569	0.27207	0.20297	0.055308	0.23878	0.26417	0.026354	0.16217	0.1482	0.39489	-2.9521	-3.4771	-3.1667	-3.3292	-3.5062	-2.9146	-3.3625	-3.0958	-3.1	-3.3063	-2.9958	-3.0938	-3.2354	-3.1896	-3.4979	-3.4042	390.291	463.049	482.062	393.266	387.381	406.378	421.166	376.095	201.956	456.218	459.312	493.721	347.189	270.297	204.358	404.502	0.00036515	0.00021726	5.6318e-05	258.3	1.7249e-06	2.3619e-06	412.91	66.98	1.7814e-06	1.4306e-06	165.5	71.174	24.339	10.176	1.8951e-06	38.822	0.00017327	6.5525e-05	1.8089e-05	252.11	7.2145e-07	7.3581e-07	403.58	66.027	7.8367e-07	6.7703e-07	163.72	70.509	23.705	10.085	7.0034e-07	38.742	204.941	246.688	221.408	150.857	265.960	268.296	151.463	156.399	292.458	306.509	156.049	159.913	159.326	163.924	291.799	163.414	-8191	255	
906.761	1	1	0	0	0.18625	0.022397	0.10967	0.018215	0.1157	0.13846	0.14633	0.075396	0.15095	0.068644	0.069381	0.16902	0.31333	0.10133	0.16158	0.09769	-2.8167	-3.4583	-3.3125	-3.2167	-3.525	-3.3042	-3.6417	-3.2729	-3.1958	-3.4917	-3.3521	-3.2875	-3.5396	-3.3625	-3.2979	-3.5479	336.178	147.475	363.547	423.695	310.505	251.137	281.643	198.772	465.858	226.530	359.444	391.926	493.179	240.785	397.503	211.038	0.00038373	0.00015194	9.8869e-05	256.44	2.1661e-06	1.5825e-06	405.07	66.623	2.0423e-06	1.2162e-06	165.42	70.861	24.349	10.16	1.5653e-06	39.587	0.00017347	5.5187e-05	1.7058e-05	249.91	7.1311e-07	6.7845e-07	397.76	65.787	6.9876e-07	6.0676e-07	162.67	70.326	23.702	10.129	6.4941e-07	39.109	204.845	228.205	243.346	150.767	281.444	295.881	150.965	156.077	284.660	280.013	156.168	159.908	159.358	164.333	310.200	163.686	-8191	255	
906.882	1	1	0	0	0.13282	0.15369	0.37362	0.31259	0.20888	0.10062	0.17445	0.20774	0.16059	0.13623	0.11947	0.12201	0.19988	0.07152	0.1201	0.16494	-2.8667	-3.4479	-3.325	-3.4333	-3.6042	-3.4104	-3.4417	-3.4146	-3.0521	-3.4688	-3.3458	-3.1188	-3.4333	-3.2167	-3.4771	-3.6458	424.000	388.502	370.462	271.992	492.462	346.612	277.593	198.143	436.224	239.027	209.975	436.557	141.721	160.545	202.575	482.421	0.00040144	0.00020936	9.4739e-05	256.06	1.8335e-06	3.003e-06	411.87	67.71	1.8543e-06	1.8842e-06	166.61	71.67	24.589	10.359	1.6123e-06	39.8	0.00018046	5.7251e-05	1.6359e-05	250.33	6.9938e-07	7.0245e-07	401.43	66.353	7.5522e-07	6.9981e-07	164.14	70.959	23.987	10.229	6.9154e-07	39.375	204.549	213.291	241.058	150.668	294.265	294.884	151.127	156.132	279.193	273.677	155.880	159.968	159.081	163.879	303.085	163.527	-8191	255	
906.976	1	1	0	0	0.28386	0.35871	0.095558	0.11137	0.11996	0.19733	0.12794	0.11586	0.35155	0.20672	0.14859	0.12502	0.14555	0.25191	0.14592	0.24701	-2.8583	-3.425	-3.1333	-3.0229	-3.3271	-3.3042	-3.35	-3.4188	-3.1104	-3.2646	-3.3458	-3.1437	-3.3646	-3.0875	-3.2458	-3.7542	241.080	182.467	340.238	479.139	356.442	231.683	456.003	433.552	182.856	226.564	141.549	370.898	145.206	414.409	367.639	437.999	0.00036051	0.0001753	5.1564e-05	257.39	1.1418e-06	1.7479e-06	410.47	67.104	2.0217e-06	1.9334e-06	167.31	71.741	24.34	10.218	2.5522e-06	39.222	0.00017047	6.1225e-05	1.6696e-05	251.04	6.9645e-07	6.7845e-07	401.64	65.828	7.4581e-07	6.6672e-07	164.38	70.832	23.762	10.121	7.1539e-07	39.038	203.265	227.266	263.721	150.637	289.454	277.967	151.679	156.048	282.058	272.858	155.452	160.016	159.584	163.715	271.840	163.567	-8191	255	
907.050	1	1	0	0	0.15307	0.094907	0.033322	0.19115	0.044818	0.023579	0.087267	0.19496	0.20301	0.25867	0.060734	0.11413	0.33465	0.10452	0.077332	0.076665	-2.9125	-3.4792	-3.3771	-3.2313	-3.4854	-3.3333	-3.2604	-3.525	-3.1896	-3.2896	-3.5062	-2.9896	-3.2396	-3.1	-3.2146	-3.5792	139.500	417.155	362.964	168.996	222.286	394.446	265.690	460.824	302.260	413.499	350.154	159.545	477.139	216.387	157.581	354.077	0.00039322	0.00025365	5.3082e-05	255.79	1.8665e-06	2.1008e-06	410.48	67.22	1.7949e-06	2.98e-06	166.43	71.135	24.655	10.322	1.1448e-06	39.385	0.00017858	6.3592e-05	1.5273e-05	249.77	6.6853e-07	6.2086e-07	401.62	65.868	7.1691e-07	6.6e-07	163.55	70.698	23.862	10.162	6.8136e-07	39.039	204.129	227.740	240.853	151.021	309.173	314.142	151.188	156.522	267.494	291.650	156.049	160.154	159.243	164.242	279.783	163.906	-8191	255	
907.169	1	1	0	0	0.16237	0.19906	0.12108	0.27207	0.076028	0.11734	0.22248	0.12549	0.3421	0.14719	0.01812	0.046358	0.21367	0.33794	0.044276	0.17313	-2.8604	-3.4208	-3.4625	-3.1542	-3.5563	-3.3104	-2.8563	-3.1813	-3.3354	-3.3479	-3.4833	-3.2271	-3.3396	-3.1646	-3.2875	-3.5792	226.641	274.290	470.984	347.329	212.386	178.909	421.985	401.682	417.200	289.442	141.463	331.337	215.432	497.946	205.427	395.468	0.00037884	0.00019346	4.3384e-05	252.79	1.6753e-06	2.8987e-06	404.23	66.811	1.6172e-06	2.1417e-06	164.72	71.434	24.25	10.286	2.2535e-06	39.279	0.00017426	5.6925e-05	1.5925e-05	248.15	6.4872e-07	6.1726e-07	395.62	65.586	6.842e-07	6.5976e-07	162.37	70.374	23.707	10.152	6.8576e-07	38.927	205.625	205.040	264.343	151.001	264.758	266.240	151.553	156.326	300.003	262.621	156.156	159.991	159.725	164.248	289.323	163.349	-8191	255	
907.265	1	1	0	0	0.27636	0.059062	0.20334	0.17317	0.15142	0.11402	0.08965	0.14467	0.29889	0.16774	0.15109	0.13796	0.0030798	0.16863	0.045723	0.081804	-2.6833	-3.2313	-3.2729	-3.0938	-3.5438	-3.3896	-3.1667	-3.3729	-3.2521	-3.2646	-3.5042	-3.2229	-3.1688	-3.2292	-3.0229	-3.5563	224.161	381.468	486.010	467.035	459.916	234.805	176.838	491.498	359.225	260.281	197.624	260.268	465.657	460.952	378.552	369.111	0.00037398	0.00017341	0.0001036	256.17	1.8389e-06	1.8637e-06	407.98	67.066	1.9118e-06	2.6077e-06	166.46	71.827	24.34	10.292	1.3686e-06	39.374	0.00016856	6.0552e-05	1.5846e-05	249.65	6.4399e-07	5.8534e-07	398.98	65.888	7.1131e-07	7.0845e-07	163.28	70.742	23.771	10.149	7.0405e-07	39.026	205.073	214.440	220.264	150.772	298.806	286.550	151.518	156.132	294.207	293.654	155.878	160.150	159.490	164.153	299.643	163.401	-8191	255	
907.361	1	1	0	0	0.18699	0.087493	0.2274	0.095133	0.1597	0.30719	0.020097	0.19842	0.193	0.11881	0.16402	0.42886	0.37877	0.31008	0.3136	0.075707	-2.8937	-3.2062	-3.4792	-3.3708	-3.275	-3.2771	-3.2396	-3.2271	-3.0771	-3.0625	-3.5896	-3.2271	-3.2	-3.3312	-3.1542	-3.4875	195.648	489.443	364.212	330.115	460.152	270.594	263.611	487.321	389.082	258.519	362.358	421.208	197.067	343.715	265.050	384.882	0.00036029	0.00020587	4.9112e-05	254.87	1.905e-06	1.5705e-06	408.17	67.124	1.2819e-06	1.4464e-06	167.07	71.652	24.775	10.351	1.6905e-06	39.425	0.00016826	6.457e-05	1.6642e-05	249.71	7.0929e-07	6.0718e-07	399.84	65.985	6.8644e-07	6.9262e-07	163.92	70.848	23.93	10.186	6.8321e-07	39.184	205.662	210.894	227.134	150.491	285.645	261.278	151.274	156.536	275.921	281.201	156.053	159.930	159.457	164.047	287.277	163.386	-8191	255	
907.457	1	1	0	0	0.10436	0.023554	0.1156	0.14839	0.11992	0.1244	0.13327	0.30936	0.16012	0.046203	0.13509	0.1931	0.10494	0.072118	0.22287	0.077944	-2.775	-3.1937	-3.1688	-3.1813	-3.3958	-3.5312	-3.3229	-3.3146	-3.225	-2.9521	-3.5062	-3.3542	-3.2625	-3.3875	-2.875	-3.3521	439.262	329.855	290.216	149.709	452.084	146.409	467.709	431.128	392.531	310.909	307.408	472.118	195.279	261.655	221.650	375.104	0.00037714	0.00019775	3.2529e-05	256.3	1.3186e-06	3.2443e-06	409.48	67.184	1.6072e-06	1.7885e-06	165.96	71.558	24.391	10.203	2.0559e-06	39.219	0.00017548	6.9066e-05	1.701e-05	249.47	6.6943e-07	6.8109e-07	400.8	66.018	7.187e-07	7.226e-07	163.59	70.84	23.788	10.134	6.9479e-07	38.848	204.753	216.551	174.726	150.881	288.375	299.090	151.362	156.360	284.851	284.966	156.070	159.663	160.012	164.168	294.306	163.814	-8191	255	
907.553	1	1	0	0	0.13773	0.16658	0.024988	0.096974	0.17231	0.24961	0.1162	0.22853	0.12869	0.063454	0.071009	0.099113	0.091097	0.14552	0.099847	0.17402	-2.8729	-3.0917	-3.475	-3.0708	-3.2062	-3.7229	-3.1125	-3.3688	-3.3771	-3.1188	-3.3104	-3.3063	-3.1458	-3.2479	-3.125	-3.4333	363.592	344.034	481.500	492.096	218.164	486.161	175.369	431.110	340.431	339.201	423.239	374.081	160.293	490.603	469.178	494.771	0.00036503	0.00018009	8.0063e-05	255.39	1.6724e-06	2.3663e-06	404.65	66.715	1.2799e-06	2.4258e-06	165.72	70.525	24.156	10.208	1.4991e-06	39.138	0.00016601	6.9066e-05	1.5816e-05	248.71	6.5074e-07	6.4126e-07	395.72	65.609	6.1721e-07	6.9957e-07	162.7	70.025	23.681	10.09	7.008e-07	38.791	203.741	211.560	226.293	150.466	295.899	309.831	151.620	156.060	300.264	269.555	156.144	160.049	159.196	163.955	265.066	163.771	-8191	255	
907.674	1	1	0	0	0.22903	0.16467	0.25324	0.25616	0.35319	0.072225	0.16745	0.12962	0.11163	0.23541	0.23306	0.18374	0.31252	0.056503	0.045785	0.1608	-2.8729	-3.0208	-3.3333	-3.1063	-3.1813	-3.2938	-2.8875	-3.2896	-3.5458	-3.1125	-3.5792	-3.3354	-3.1229	-3.425	-3.2792	-3.3104	296.876	357.060	157.816	487.175	264.628	440.526	282.551	172.420	376.476	381.090	424.964	215.015	149.915	177.925	403.416	406.649	0.00037475	0.00021014	6.6267e-05	256.21	1.1452e-06	2.0971e-06	405.76	66.949	1.5127e-06	2.5007e-06	164.82	71.174	24.25	10.173	2.4226e-06	39.054	0.00016843	6.6676e-05	1.6739e-05	249.97	7.1694e-07	6.2326e-07	397.45	65.745	6.1744e-07	6.7511e-07	162.46	70.311	23.708	10.08	7.3368e-07	38.665	205.701	229.001	235.191	150.836	297.279	260.100	151.212	156.053	288.426	290.386	155.983	160.034	159.401	164.181	272.343	163.527	-8191	255	
907.746	1	1	0	0	0.061644	0.10961	0.26196	0.27712	0.15393	0.18216	0.070752	0.047907	0.09156	0.27311	0.23479	0.070014	0.16404	0.14627	0.026091	0.099798	-2.9625	-3.0604	-3.2313	-3.3021	-2.9146	-3.2979	-3.0854	-3.1771	-3.3792	-2.9188	-3.2354	-3.4021	-3.0479	-3.5417	-3.2021	-3.3625	265.273	231.286	279.447	189.459	195.128	447.868	206.204	485.826	493.832	480.055	472.026	474.881	145.386	472.549	245.836	484.625	0.00037323	0.00021148	9.491e-05	254.69	1.9156e-06	1.6726e-06	407	66.193	1.5469e-06	2.3457e-06	163.99	70.25	24.267	10.058	2.4396e-06	38.571	0.00016969	6.318e-05	1.7366e-05	249.38	7.2753e-07	6.3214e-07	397.9	65.433	7.0145e-07	6.8063e-07	161.99	69.744	23.446	9.9604	6.8159e-07	38.354	204.322	225.546	215.530	150.855	276.958	292.642	151.571	156.322	284.736	286.634	156.216	160.317	158.256	163.913	303.590	163.484	-8191	255	
907.842	1	1	0	0	0.22708	0.12464	0.20476	0.084668	0.027056	0.03081	0.12326	0.10178	0.15703	0.21858	0.34414	0.03194	0.18954	0.080411	0.29827	0.11826	-2.9979	-3.2354	-3.3833	-3.35	-2.9813	-3.5729	-3.3354	-3.1396	-3.3542	-3.1104	-3.1917	-3.2729	-3.0083	-3.2542	-3.1146	-3.1104	453.169	358.684	449.400	465.902	297.548	465.963	389.332	388.598	181.832	417.522	398.365	205.316	412.246	396.631	152.444	144.780	0.00037446	0.00019267	6.5831e-05	256.12	2.4863e-06	2.1842e-06	407	66.74	1.4031e-06	2.1048e-06	162.26	69.927	23.442	9.9761	1.5126e-06	38.164	0.00017056	6.2485e-05	1.7794e-05	249.49	6.8654e-07	6.0046e-07	398.23	65.121	6.6359e-07	6.6552e-07	160.56	69.021	23.159	9.8553	6.4547e-07	37.85	205.474	242.567	232.909	150.798	290.630	275.907	151.071	156.717	293.675	291.181	156.248	160.103	158.632	164.531	289.434	163.486	-8191	255	
907.962	1	1	0	0	0.074324	0.13225	0.11535	0.16264	0.038047	0.1914	0.25077	0.17515	0.088058	0.115	0.20234	0.22301	0.091185	0.18169	0.33435	0.337	-2.8917	-2.9792	-3.1354	-3.1937	-3.0979	-3.2604	-3.2542	-2.9375	-3.4562	-3.0563	-3.2646	-3.5042	-3.1	-3.2729	-3.3771	-3.0125	271.922	304.438	374.517	220.426	266.778	290.581	439.367	147.160	401.803	405.167	260.397	311.203	330.060	344.775	148.695	462.185	0.00036406	0.0001409	7.9459e-05	254.29	1.997e-06	2.2334e-06	402.59	66.557	1.4269e-06	2.5683e-06	162.4	69.308	23.746	9.9599	1.7873e-06	38.052	0.0001648	6.1138e-05	1.5159e-05	248.68	6.2012e-07	5.7142e-07	393.77	64.788	6.5194e-07	6.317e-07	159.42	68.385	23.158	9.832	6.4871e-07	37.763	205.193	230.023	251.985	150.868	294.742	281.827	151.142	156.537	250.247	280.002	156.139	159.832	159.469	164.450	264.743	163.561	-8191	255	
908.057	1	1	0	0	0.3223	0.1243	0.26395	0.17395	0.11327	0.27479	0.23745	0.08085	0.18561	0.10245	0.22978	0.029076	0.049316	0.13957	0.071781	0.082159	-2.9604	-3	-3.1167	-3.4292	-3.2292	-3.4375	-3.1833	-2.975	-3.3688	-3.1104	-3.15	-3.3812	-3.0917	-3.3771	-3.4375	-3.2208	302.040	174.076	147.430	447.836	453.589	383.733	445.617	491.793	263.967	230.016	358.977	358.370	226.935	479.149	189.532	449.183	0.00036305	0.00019298	5.7969e-05	255.07	1.8692e-06	2.6798e-06	402.75	65.882	1.8245e-06	1.9926e-06	163.74	70.405	23.919	10.086	1.5117e-06	38.742	0.00016865	6.2116e-05	1.6926e-05	248.51	6.8024e-07	6.2302e-07	395.16	64.967	6.6157e-07	5.6887e-07	161.03	69.455	23.424	9.9782	6.6515e-07	38.321	203.389	224.166	232.684	151.002	294.194	290.121	151.472	156.274	297.638	275.702	156.336	160.024	159.228	164.412	318.420	163.567	-8191	255	
908.153	1	1	0	0	0.26687	0.13321	0.12487	0.21964	0.041147	0.18054	0.13072	0.17444	0.11925	0.33113	0.16624	0.14131	0.20896	0.076449	0.21181	0.065586	-3.0417	-2.975	-2.9917	-3.1937	-3.0833	-3.0167	-3.1333	-2.8146	-3.3729	-3.1958	-3.1917	-3.3583	-3.4771	-3.4125	-3.425	-3.2687	422.402	193.020	482.510	405.004	368.449	335.927	318.267	450.843	183.118	160.032	154.029	350.509	228.731	460.100	439.994	147.136	0.00035633	0.00014463	8.7614e-05	254.92	1.326e-06	2.1318e-06	405.02	65.909	1.306e-06	2.3147e-06	163.86	70.501	23.946	10.026	1.5495e-06	38.586	0.00016427	5.8575e-05	1.6618e-05	248.73	6.9127e-07	6.6598e-07	396.58	65.142	6.1542e-07	6.4561e-07	161.27	69.529	23.354	9.9464	6.082e-07	38.2	205.425	241.152	225.529	151.001	297.980	294.356	151.204	156.633	288.991	292.270	156.244	159.948	158.991	163.872	263.426	163.695	-8191	255	
908.249	1	1	0	0	0.087744	0.095199	0.012138	0.13991	0.22082	0.13083	0.10715	0.11902	0.095801	0.15176	0.20608	0.17342	0.16373	0.23628	0.09884	0.29495	-2.9813	-3.0812	-2.9167	-3.2292	-3.0687	-2.9521	-3.5083	-3.1708	-3.2542	-3.0125	-3.1208	-3.2812	-3.075	-3.2188	-3.4	-3.1625	174.403	190.004	329.832	197.824	271.248	478.399	329.496	246.239	229.117	176.587	308.100	291.068	398.334	470.823	313.643	452.600	0.00036548	0.00024032	5.7089e-05	254.65	1.8264e-06	2.9983e-06	407.65	66.567	1.7343e-06	1.3871e-06	164.28	70.312	23.827	10.16	1.6214e-06	38.619	0.00016972	5.8706e-05	1.6914e-05	249.57	6.4962e-07	6.247e-07	399.02	65.235	6.488e-07	6.0076e-07	161.89	69.723	23.287	9.9813	6.3204e-07	38.371	203.753	236.973	243.053	150.881	299.980	287.387	151.401	156.080	259.180	310.019	155.833	159.932	159.527	163.932	250.416	163.639	-8191	255	
908.345	1	1	0	0	0.21702	0.17484	0.096632	0.073501	0.32634	0.069793	0.24997	0.45149	0.24651	0.13355	0.12446	0.22576	0.038656	0.12691	0.0982	0.04406	-2.5708	-3.1312	-2.9062	-3.4521	-3.2333	-3.1583	-3.4375	-3.0229	-3.0229	-3.3021	-3.0229	-3.5062	-3.3229	-3.1083	-3.3896	-3.1833	192.159	464.001	409.898	323.578	452.717	434.584	204.324	468.705	203.197	386.742	283.469	466.152	142.905	260.067	337.861	267.630	0.00037626	0.00027043	7.346e-05	254.31	1.4433e-06	2.3071e-06	404.51	66.309	1.533e-06	1.7188e-06	163.65	70.054	23.905	10.073	1.8324e-06	38.567	0.00017098	5.7837e-05	1.6889e-05	248.95	6.3363e-07	5.8222e-07	395.83	65.026	6.5933e-07	6.0772e-07	160.88	69.324	23.494	9.9567	6.4686e-07	38.277	206.027	207.445	230.869	150.258	319.235	290.769	151.322	156.474	292.435	287.766	155.823	160.418	159.698	164.453	287.406	163.417	-8191	255	
908.441	1	1	0	0	0.13984	0.12753	0.090794	0.28896	0.16535	0.3264	0.04444	0.14972	0.055405	0.25321	0.038875	0.24918	0.18353	0.27741	0.22741	0.059379	-2.6917	-3.3896	-3.1854	-3.3958	-3.2792	-2.7854	-3.3521	-3.0167	-3.2104	-3.5187	-3.2188	-3.4104	-3.0917	-3.2708	-3.4604	-3.2667	360.768	420.360	443.826	437.711	432.589	496.438	162.333	258.125	219.733	138.576	492.057	486.740	394.829	313.594	318.726	259.143	0.00037924	0.00025078	3.0946e-05	255.14	1.9611e-06	2.6625e-06	409.07	66.644	1.4219e-06	1.877e-06	164.9	70.962	23.973	10.175	1.841e-06	38.97	0.00016652	5.8032e-05	1.6389e-05	249.3	6.1179e-07	6.5326e-07	397.92	65.461	6.9899e-07	6.1324e-07	162.26	70.076	23.544	10.067	6.6446e-07	38.502	204.109	228.287	222.840	150.861	284.582	285.043	151.185	156.398	290.474	312.358	156.159	159.358	159.945	163.921	287.180	163.583	-8191	255	
908.562	1	1	0	0	0.12191	0.079974	0.18824	0.1433	0.025847	0.15726	0.29081	0.32635	0.13904	0.14558	0.16751	0.056508	0.16416	0.12273	0.13439	0.17479	-2.6396	-3.2958	-3.0875	-3.3292	-3.5458	-3.1437	-3.1896	-3.1583	-3.1354	-3.5375	-3.1229	-3.3979	-3.3312	-3.3604	-3.4125	-3.2708	369.210	276.598	354.933	379.744	307.439	294.675	393.923	214.334	270.339	451.021	310.966	428.996	241.817	472.789	456.260	470.922	0.00035577	0.00024127	8.9794e-05	255.58	1.8811e-06	2.0766e-06	406.17	67.118	1.747e-06	2.478e-06	164.85	71.002	24.074	10.175	2.0415e-06	39.06	0.00016379	5.8988e-05	1.7969e-05	249.25	6.9015e-07	6.5542e-07	398.52	65.735	6.8913e-07	6.4177e-07	162.77	70.109	23.617	10.063	6.7788e-07	38.618	205.709	212.621	222.451	150.603	280.928	293.387	151.581	156.178	263.915	311.809	155.591	159.844	159.161	163.846	296.612	163.228	-8191	255	
908.658	1	1	0	0	0.096796	0.05358	0.1167	0.081046	0.094001	0.2719	0.094431	0.17289	0.24745	0.028962	0.22528	0.03523	0.34487	0.19637	0.15397	0.27858	-2.725	-3.3771	-3.0604	-3.1792	-3.3917	-3.1021	-3.2687	-3.1083	-2.7604	-3.3812	-3.1542	-3.3438	-3.3688	-2.9979	-3.1937	-3.3125	383.499	220.162	155.576	437.387	399.677	179.582	297.752	277.603	445.327	256.925	401.781	452.986	354.315	449.839	496.055	433.697	0.00035828	0.00020132	3.5935e-05	256.55	1.7858e-06	3.2957e-06	408.22	66.757	1.5075e-06	1.1095e-06	165.81	70.686	24.187	10.126	1.8044e-06	38.795	0.00016613	5.8879e-05	1.6256e-05	249.36	6.5232e-07	6.1102e-07	400	65.569	7.3013e-07	6.3914e-07	162.52	70.085	23.56	10.027	7.0613e-07	38.469	204.067	197.958	241.580	150.441	299.072	302.780	151.341	156.227	284.273	314.621	156.089	160.110	159.207	164.052	310.742	163.367	-8191	255	
908.754	1	1	0	0	0.075951	0.11979	0.21626	0.20263	0.063981	0.17107	0.26769	0.25753	0.08274	0.14491	0.25903	0.087609	0.10039	0.16224	0.10692	0.18816	-2.725	-3.4583	-3.2938	-2.9854	-3.2875	-3.1688	-3.4271	-3.5146	-3.1667	-3.4625	-3.2396	-3.2021	-3.4854	-3.2104	-3.3979	-3.4104	233.258	439.016	366.221	491.603	333.251	396.688	138.352	248.275	474.389	225.550	417.644	399.447	242.100	360.235	440.834	475.719	0.00036889	0.00026524	6.0149e-05	254.18	2.3398e-06	3.4381e-06	407.58	66.466	1.6657e-06	2.2117e-06	165.21	70.31	24.193	10.12	6.674e-07	38.621	0.00016658	5.8271e-05	1.7848e-05	248.67	6.3476e-07	7.0101e-07	397.6	65.308	6.8465e-07	5.9717e-07	161.97	69.486	23.473	10.02	6.4038e-07	38.414	203.615	216.871	232.225	150.581	297.809	273.831	151.202	155.954	271.513	304.520	156.096	160.113	159.389	163.922	264.280	163.294	-8191	255	
908.850	1	1	0	0	0.063827	0.16662	0.2283	0.11734	0.15228	0.15135	0.070631	0.047368	0.068065	0.18384	0.27636	0.29141	0.16189	0.16526	0.087585	0.059766	-2.7271	-3.2854	-3.2854	-3.1312	-3.2479	-3.2646	-3.3271	-3.3833	-2.9688	-3.3688	-3.1896	-3.0583	-3.3625	-3.0229	-3.2333	-3.45	191.256	405.852	412.516	444.489	257.862	389.661	325.766	329.511	355.487	205.822	158.855	138.748	313.815	416.855	410.669	220.984	0.00036682	0.00026539	7.3925e-05	255.25	1.6442e-06	2.4753e-06	408.07	66.723	2.0591e-06	2.9415e-06	166.58	71.337	24.552	10.358	2.2995e-06	39.472	0.00017295	6.3679e-05	1.7685e-05	249.91	6.7461e-07	6.7365e-07	398.72	65.816	7.2408e-07	5.8709e-07	163.61	70.559	23.824	10.215	7.0659e-07	39.029	203.880	229.691	236.470	151.080	288.624	322.247	151.416	156.071	279.966	278.712	155.946	160.092	159.760	163.842	271.783	163.377	-8191	255	
908.971	1	1	0	0	0.15952	0.20326	0.33945	0.23442	0.12691	0.2699	0.17267	0.26775	0.17695	0.062676	0.095075	0.46158	0.091445	0.17117	0.095828	0.20604	-2.7146	-3.3542	-3.1562	-3.1188	-3.5812	-3.3333	-3.4125	-3.4	-3.1188	-3.3271	-3.3375	-3.1042	-3.4375	-3.0625	-3.0563	-3.5604	138.974	358.673	421.220	354.628	468.993	142.867	456.386	342.008	397.809	174.746	197.998	410.938	421.301	203.674	163.527	439.380	0.00037269	0.00018073	8.6831e-05	257.47	1.2576e-06	3.0992e-06	409.97	67.208	1.5123e-06	2.2526e-06	167.26	72.432	24.584	10.463	1.4305e-06	39.855	0.00017127	6.344e-05	1.6323e-05	250.69	6.8407e-07	6.3094e-07	401.29	66.202	7.5634e-07	7.3075e-07	165.13	71.666	24.069	10.352	8.036e-07	39.603	205.843	236.888	227.623	150.778	311.122	298.554	151.503	156.201	271.786	270.257	156.011	160.026	159.381	163.960	306.889	163.461	-8191	255	
909.043	1	1	0	0	0.21837	0.07328	0.1965	0.075706	0.19165	0.18536	0.18569	0.26861	0.086781	0.11727	0.16149	0.24984	0.093181	0.18181	0.18779	0.26198	-2.6729	-3.5167	-3.3021	-3.2	-3.3	-3.2625	-3.1521	-3.3937	-3.1437	-3.4396	-3.5625	-3.1771	-3.1792	-3.0604	-2.9771	-3.4437	346.505	170.031	285.753	487.477	465.518	366.189	256.983	458.490	401.218	219.951	162.843	420.023	433.913	332.302	226.581	396.918	0.00038307	0.00036631	5.3741e-05	256.29	1.6742e-06	3.0191e-06	414.06	68.345	1.869e-06	2.8319e-06	168.63	72.835	24.883	10.507	2.563e-06	40.237	0.00017831	6.2398e-05	1.7378e-05	251.03	7.5094e-07	6.9045e-07	404.82	67.032	7.3573e-07	7.0821e-07	166.82	72.075	24.256	10.409	7.9596e-07	39.766	204.660	233.986	248.328	150.828	301.096	295.255	151.207	156.389	291.783	285.230	155.861	159.928	159.484	164.613	282.948	163.376	-8191	255	
909.137	1	1	0	0	0.20343	0.41621	0.26486	0.1093	0.021819	0.19184	0.088324	0.17909	0.14714	0.19701	0.098812	0.22655	0.12437	0.17194	0.16863	0.12709	-2.7375	-3.0708	-3.1875	-3.0875	-3.2667	-3.2542	-3.2146	-3.5042	-3.4062	-3.3625	-3.4313	-3.1708	-3.1729	-3.4146	-3.0708	-3.5417	419.358	187.735	153.396	202.506	165.054	411.942	463.862	413.236	341.267	445.430	215.396	345.700	293.705	178.149	475.538	240.324	0.00038994	0.00024505	8.8499e-05	256.88	1.5841e-06	1.8275e-06	409.06	67.619	1.7844e-06	2.8195e-06	167.96	71.782	24.935	10.537	2.1399e-06	39.736	0.00018091	6.7371e-05	1.8584e-05	250.37	7.2685e-07	6.8493e-07	401.83	66.421	7.4155e-07	6.8878e-07	165.34	71.403	24.18	10.365	7.3507e-07	39.403	204.208	220.241	216.195	150.712	300.443	294.445	151.416	156.467	266.753	289.016	155.981	160.100	159.560	164.399	260.132	163.572	-8191	255	
909.233	1	1	0	0	0.03835	0.052299	0.19312	0.053618	0.090464	0.33716	0.20868	0.09249	0.19703	0.14658	0.11705	0.18516	0.12651	0.27456	0.2777	0.21546	-2.7708	-3.0208	-3.325	-3.1542	-3.0604	-3.2896	-3.1479	-3.5229	-3.4146	-3.3083	-3.5167	-2.9188	-3.3667	-3.2146	-2.9708	-3.3833	350.348	412.880	209.322	348.298	241.873	181.406	217.052	466.268	143.427	247.775	335.552	452.962	178.146	241.426	473.655	352.821	0.00038	0.00026608	6.1149e-05	256.69	1.3706e-06	1.3203e-06	409.13	67.299	1.8101e-06	1.8817e-06	168.12	72.25	24.944	10.515	1.9353e-06	39.707	0.00018061	6.9e-05	1.7577e-05	249.33	7.6175e-07	6.8997e-07	400.25	66.358	7.2296e-07	7.2907e-07	165.06	71.38	24.161	10.343	7.5683e-07	39.517	204.623	238.713	252.964	150.693	283.592	249.337	151.262	155.761	282.210	283.293	155.927	160.064	158.509	164.139	300.182	163.610	-8191	255	
909.354	1	1	0	0	0.2882	0.017004	0.24916	0.14056	0.11678	0.11459	0.12662	0.032864	0.11765	0.075243	0.086106	0.2398	0.12499	0.04018	0.084845	0.18969	-2.8396	-3.0792	-3.4	-3.2646	-3.3021	-3.4979	-3.2188	-3.4479	-3.3688	-3.25	-3.4604	-3.275	-3.2438	-3.525	-3.3396	-3.5479	283.776	315.722	379.526	210.568	329.723	297.444	216.711	362.165	253.275	369.035	492.953	279.228	317.150	379.013	272.019	403.234	0.00038075	0.00031464	5.2641e-05	257.36	7.2537e-07	1.7098e-06	409.16	67.979	1.7561e-06	1.7934e-06	167.03	71.882	24.695	10.407	2.2596e-06	39.366	0.00017972	7.2714e-05	1.8252e-05	250.18	7.4531e-07	6.6622e-07	401.28	66.376	6.8958e-07	7.5833e-07	164.39	71.121	24.016	10.263	7.4178e-07	39.133	204.356	204.068	215.596	151.118	308.617	284.324	151.488	156.027	280.607	300.884	155.844	159.814	159.522	164.425	284.323	163.367	-8191	255	
909.450	1	1	0	0	0.040519	0.15621	0.18828	0.035276	0.075014	0.21107	0.028853	0.18574	0.26244	0.17538	0.079771	0.13602	0.23532	0.10332	0.085828	0.26935	-2.9	-2.9292	-3.3	-3.1604	-3.1146	-3.2958	-3.0396	-3.2125	-3.1854	-3.0083	-3.3333	-3.3063	-3.2292	-3.35	-3.3271	-3.2313	374.507	449.348	219.181	323.329	362.175	397.534	325.916	417.815	308.632	255.298	364.897	218.357	430.064	204.734	416.442	417.992	0.00037414	0.00020077	5.9749e-05	256.36	1.0617e-06	1.6101e-06	413.67	67.302	1.8968e-06	2.2452e-06	166.93	71.362	24.458	10.282	1.808e-06	39.351	0.00017047	7.076e-05	1.7824e-05	250.55	7.3203e-07	6.3406e-07	401.91	65.845	6.9943e-07	6.8422e-07	164.07	70.673	23.939	10.195	7.5104e-07	39.037	204.862	219.242	229.349	151.086	294.193	249.542	151.463	156.048	288.517	267.756	156.119	159.759	159.501	164.477	287.026	163.438	-8191	255	
909.546	1	1	0	0	0.19056	0.09321	0.15593	0.12934	0.15564	0.099321	0.17195	0.25578	0.097065	0.16788	0.18344	0.037722	0.10327	0.046202	0.053018	0.21492	-2.7313	-2.9896	-3.3729	-3.2938	-3.2208	-3.4437	-3.0812	-3.0958	-3.4562	-2.9667	-3.2938	-3.2313	-2.9521	-3.3479	-3.1625	-3.2521	195.504	415.404	356.867	322.243	386.811	442.195	447.802	450.208	493.781	357.757	244.797	222.103	400.789	242.132	183.865	354.559	0.00036769	0.00021164	5.115e-05	256.36	2.0056e-06	2.9203e-06	407.28	66.908	1.7985e-06	1.4008e-06	165.7	70.386	24.064	10.194	1.8952e-06	38.755	0.00017566	6.344e-05	1.7137e-05	249.88	7.3631e-07	6.6958e-07	399.19	65.672	7.364e-07	6.9789e-07	162.73	69.91	23.543	10.104	7.4942e-07	38.5	206.367	211.454	238.105	150.566	283.888	280.174	151.213	156.386	287.114	251.258	155.869	160.215	159.020	164.218	281.198	163.464	-8191	255	
909.642	1	1	0	0	0.10453	0.27337	0.07095	0.23753	0.28025	0.10844	0.11188	0.10234	0.039848	0.25685	0.14087	0.23069	0.046486	0.38652	0.13801	0.25961	-2.9792	-3.0479	-3.3937	-3.2854	-3.0271	-3.2479	-3.0521	-3.1188	-3.3708	-3.2646	-3.4813	-3.3854	-3.1771	-3.3208	-3.1188	-3.0792	412.210	363.570	151.121	149.071	297.126	345.176	143.108	328.011	158.615	223.851	458.833	225.355	213.553	150.298	496.601	163.706	0.00036635	0.00022403	6.555e-05	254.02	1.9687e-06	1.8475e-06	402.17	66.116	1.7063e-06	1.215e-06	164.39	70.393	24.11	10.216	1.7451e-06	39.002	0.00017072	6.9543e-05	1.7794e-05	248.57	7.1514e-07	6.7221e-07	395.75	65.207	6.8151e-07	6.9094e-07	161.7	70.039	23.654	10.109	7.3183e-07	38.712	205.962	219.256	206.635	150.894	280.998	278.484	151.283	156.415	271.314	311.595	155.736	160.272	159.044	164.353	267.402	163.622	-8191	255	
909.739	1	1	0	0	0.089296	0.13633	0.14123	0.037722	0.10157	0.14415	0.36141	0.08035	0.32441	0.18916	0.20438	0.18611	0.12596	0.091094	0.12165	0.19192	-2.7979	-2.8542	-3.0458	-3.3812	-2.9417	-3.275	-3.2042	-2.9021	-3.5354	-3.0667	-3.1917	-3.2417	-2.9271	-3.3688	-3.3479	-3.2083	285.930	212.307	251.963	451.650	339.845	331.430	484.070	434.030	312.239	352.359	344.814	424.489	322.810	210.825	404.684	324.875	0.00038442	0.0001834	6.6731e-05	252.56	2.2576e-06	2.0901e-06	408.01	66.502	1.0485e-06	2.8439e-06	165.92	71.301	24.21	10.286	1.7057e-06	39.447	0.000176	6.5612e-05	1.9458e-05	247.99	7.8202e-07	7.2549e-07	398.3	65.717	7.0862e-07	6.7991e-07	163.28	70.73	23.804	10.204	7.0613e-07	38.967	205.451	209.573	218.823	151.075	301.391	274.965	151.075	156.079	280.233	295.926	156.410	159.983	159.897	164.381	295.830	163.316	-8191	255	
909.835	1	1	0	0	0.15938	0.17243	0.15192	0.083648	0.24171	0.037592	0.11248	0.087836	0.2285	0.23025	0.052625	0.063646	0.16837	0.049011	0.14301	0.070592	-2.9437	-3.2188	-3.175	-3.1458	-3.0375	-3.2042	-3.4167	-3.3104	-3.4938	-3.0875	-3.0396	-3.4229	-2.8792	-3.3271	-3.3542	-3.1125	362.755	205.828	272.993	393.204	387.261	325.748	213.649	304.539	317.139	403.625	434.073	434.245	341.583	373.784	484.090	210.559	0.00036141	0.00022521	3.7978e-05	254.47	1.4301e-06	2.1415e-06	409.65	67.006	1.9783e-06	2.961e-06	166.55	71.423	24.834	10.43	2.4175e-06	39.36	0.00016588	6.6025e-05	1.6624e-05	249.25	7.649e-07	7.2309e-07	399.6	65.777	7.3528e-07	6.8878e-07	164.12	70.921	23.898	10.289	6.7511e-07	39.144	205.069	238.757	222.341	150.759	294.689	289.206	151.182	156.024	282.238	300.859	156.384	160.046	159.210	164.144	292.441	163.609	-8191	255	
909.931	1	1	0	0	0.24533	0.249	0.10458	0.15482	0.19471	0.29363	0.14044	0.12759	0.083478	0.10742	0.12485	0.052136	0.07476	0.15651	0.21652	0.083467	-2.925	-2.9167	-3.0812	-3.2438	-3.175	-3.3604	-3.375	-3.0667	-3.3042	-3.1042	-3.025	-3.3792	-2.7938	-3.0542	-3.1542	-2.9688	384.166	358.386	357.320	392.473	304.140	138.711	374.968	358.431	305.840	172.377	410.860	293.415	272.891	347.562	416.559	283.114	0.00036816	0.00022942	4.6769e-05	256.26	2.386e-06	1.7957e-06	406.66	66.691	1.7634e-06	1.5741e-06	165.38	71.086	24.254	10.284	2.1993e-06	38.826	0.00016643	6.2202e-05	1.8168e-05	249.47	7.559e-07	6.8637e-07	398.33	65.585	6.9227e-07	6.7799e-07	162.69	70.352	23.692	10.158	6.8668e-07	38.596	204.019	203.999	230.558	150.753	288.808	289.536	151.289	155.970	282.187	248.589	156.042	159.979	159.815	164.547	273.391	163.596	-8191	255	
910.051	1	1	0	0	0.23852	0.08956	0.097605	0.0775	0.21413	0.15724	0.081267	0.19608	0.06856	0.20495	0.071516	0.2542	0.053382	0.17429	0.12721	0.16856	-2.7792	-2.9875	-2.8896	-3.3667	-3.1771	-3.2833	-3.4521	-3.2104	-3.3187	-3.2354	-3.1333	-3.2458	-3.0542	-2.9375	-3.2396	-3.1021	230.075	154.277	397.187	176.569	281.011	251.791	469.676	160.884	138.230	451.830	182.956	498.026	181.855	366.366	362.391	374.224	0.00036255	0.00021213	6.7876e-05	255.12	1.4211e-06	1.5556e-06	401.47	66.813	1.5616e-06	2.4372e-06	163.84	69.468	23.845	9.9941	1.8865e-06	38.177	0.00016998	6.3506e-05	1.8427e-05	248.22	6.5727e-07	6.499e-07	394.02	65.128	6.842e-07	7.1564e-07	160.46	68.913	23.271	9.9339	6.9849e-07	37.971	204.923	223.976	231.042	150.935	288.298	269.357	151.283	156.130	302.069	278.708	156.046	159.786	159.252	164.138	280.003	163.855	-8191	255	
910.146	1	1	0	0	0.24836	0.071915	0.26267	0.092386	0.25822	0.074718	0.12612	0.089701	0.19275	0.10388	0.19977	0.13227	0.17978	0.27014	0.084495	0.25381	-2.7938	-3.2042	-3.05	-3.3521	-3.2292	-3.3417	-3.5917	-3.1167	-3.2979	-3.3729	-3.2083	-3.2583	-3.125	-3.0875	-3.4854	-3.0521	228.013	191.757	426.180	413.410	308.151	325.428	392.056	484.562	269.376	292.661	464.184	477.203	348.626	144.664	219.899	417.810	0.00036175	0.00027858	5.2672e-05	255.89	2.5657e-06	2.4718e-06	404.39	66.453	1.4315e-06	9.4439e-07	164.15	70.338	24.263	10.172	1.6935e-06	38.583	0.00016649	6.3462e-05	1.6112e-05	249.1	7.5184e-07	6.9357e-07	395.62	65.065	6.4992e-07	5.847e-07	161.07	69.43	23.601	10.027	6.6955e-07	38.263	206.237	241.071	212.000	150.885	299.843	261.710	151.108	156.399	292.669	295.863	155.830	159.906	159.098	164.016	285.103	163.424	-8191	255	
910.242	1	1	0	0	0.11297	0.11343	0.091095	0.13731	0.21834	0.069475	0.15608	0.17079	0.054511	0.1634	0.25969	0.083849	0.055904	0.22496	0.14103	0.164	-2.8979	-3.3187	-3.0792	-3.3875	-3.325	-3.1188	-3.3604	-2.8875	-3.0187	-3.2646	-3.0333	-3.6	-3.2875	-3.1562	-3.4521	-3.3021	187.558	496.809	250.702	213.294	235.566	445.828	351.992	476.016	297.001	140.815	147.093	419.665	410.727	290.280	377.169	279.861	0.00036468	0.00020215	4.2753e-05	254.97	1.5867e-06	3.3098e-06	404.28	66.472	1.6382e-06	2.6906e-06	164.76	70.157	24.098	10.186	1.8628e-06	38.785	0.00016914	5.5144e-05	1.7245e-05	249	6.96e-07	6.379e-07	395.98	65.251	6.4208e-07	7.0197e-07	161.86	69.787	23.471	10.056	6.714e-07	38.538	203.554	200.320	218.947	150.642	277.399	291.639	151.298	155.874	289.923	307.871	155.895	159.902	159.584	163.662	276.312	163.612	-8191	255	
910.338	1	1	0	0	0.35438	0.063279	0.24379	0.14178	0.016479	0.1986	0.05418	0.21259	0.013267	0.12887	0.41437	0.16291	0.18106	0.21129	0.22556	0.19555	-2.9667	-3.275	-3.0292	-3.2604	-3.3292	-3.2438	-3.3354	-3.1208	-3.1	-3.3958	-3.2792	-3.4271	-3.1333	-2.8896	-3.2	-3.0583	228.290	297.344	286.551	228.325	364.968	259.027	369.868	452.391	323.060	163.735	471.977	464.241	320.358	495.038	150.065	424.987	0.0003768	0.00020877	8.2732e-05	254.36	2.293e-06	2.576e-06	405.36	66.641	1.3142e-06	1.4709e-06	165.12	71.669	24.338	10.381	1.8962e-06	39.463	0.00017488	6.0986e-05	1.8168e-05	248.58	7.2055e-07	7.3365e-07	397.37	65.593	7.5836e-07	6.2547e-07	162.85	70.652	23.867	10.26	7.2326e-07	39.081	204.115	243.130	239.043	150.756	294.005	296.186	151.063	156.388	300.978	303.545	155.986	160.188	159.566	164.302	286.055	163.199	-8191	255	
910.434	1	1	0	0	0.21	0.19835	0.069985	0.219	0.20324	0.020346	0.15868	0.24216	0.074816	0.223	0.14966	0.18647	0.082286	0.35413	0.12969	0.050058	-2.7042	-3.4104	-3.1063	-3.4167	-3.4125	-3.275	-3.4917	-3.1813	-3.2979	-3.525	-3.0833	-3.0604	-3.2229	-2.9813	-3.1875	-3.075	387.119	313.704	428.263	420.087	461.109	219.660	465.599	206.001	230.921	447.896	367.915	205.036	188.500	464.596	354.163	261.934	0.00037291	0.00026134	7.4496e-05	254.52	1.9862e-06	2.0329e-06	403.95	66.942	1.7659e-06	2.5601e-06	169.59	73.007	24.897	10.803	2.2469e-06	40.468	0.00017654	6.2289e-05	1.7324e-05	247.54	6.62e-07	7.2381e-07	395.75	66.147	7.2901e-07	6.5568e-07	166.15	72.189	24.53	10.628	7.5128e-07	40.158	203.436	226.673	219.356	150.682	292.923	293.692	151.282	156.164	313.374	285.520	156.117	159.819	159.315	164.489	276.356	163.395	-8191	255	
#DATA ENDS
