BOXY.EXE: ISS Imagent and Oximeter Data Acquisition Program Version 0.80
Ascii Record File

#ACQ INFORMATION
2  Detector Channels 
16  External MUX Channels 
1  Auxiliary Channels 
5000  Waveform (CCF) Frequency (Hz)
1  Waveforms Skipped 
30  Waveforms Averaged 
1  Cycles Averaged 
16  Acquisitions per Waveform 
10.0806  Updata Rate (Hz) 

#FILE INFORMATION
TRUE -- External MUX Channel results are PARSED.
FALSE -- AC DC and Phase are NOT grouped.
TRUE -- Companion Program Settings File CREATED.
FALSE -- AC data not excluded
FALSE -- DC data not excluded
FALSE -- Phase data not excluded
FALSE -- Auxillary Chn. data not excluded
Tab delimiters

#CALIBRATION STATE
TRUE -- Waveform Calibration Values APPLIED.


#AUX CALIBRATION VALUES
Val Type	aux-1	

Term	1.0000e+00	
Factor	0.0000e+00	


#WF CALIBRATION VALUES
A = Detector Channel
Val Type	A-AC1	A-AC2	A-AC3	A-AC4	A-AC5	A-AC6	A-AC7	A-AC8	A-AC9	A-AC10	A-AC11	A-AC12	A-AC13	A-AC14	A-AC15	A-AC16	A-DC1	A-DC2	A-DC3	A-DC4	A-DC5	A-DC6	A-DC7	A-DC8	A-DC9	A-DC10	A-DC11	A-DC12	A-DC13	A-DC14	A-DC15	A-DC16	A-Ph1	A-Ph2	A-Ph3	A-Ph4	A-Ph5	A-Ph6	A-Ph7	A-Ph8	A-Ph9	A-Ph10	A-Ph11	A-Ph12	A-Ph13	A-Ph14	A-Ph15	A-Ph16	

Term	0.00000e+00	0.00000e+00	0.00000e+00	0.00000e+00	0.00000e+00	0.00000e+00	0.00000e+00	0.00000e+00	0.00000e+00	0.00000e+00	0.00000e+00	0.00000e+00	0.00000e+00	0.00000e+00	0.00000e+00	0.00000e+00	0.00000e+00	0.00000e+00	0.00000e+00	0.00000e+00	0.00000e+00	0.00000e+00	0.00000e+00	0.00000e+00	0.00000e+00	0.00000e+00	0.00000e+00	0.00000e+00	0.00000e+00	0.00000e+00	0.00000e+00	0.00000e+00	0.00000e+00	0.00000e+00	0.00000e+00	0.00000e+00	0.00000e+00	0.00000e+00	0.00000e+00	0.00000e+00	0.00000e+00	0.00000e+00	0.00000e+00	0.00000e+00	0.00000e+00	0.00000e+00	0.00000e+00	0.00000e+00	
Factor	1.00000e+00	1.00000e+00	1.00000e+00	1.00000e+00	1.00000e+00	1.00000e+00	1.00000e+00	1.00000e+00	1.00000e+00	1.00000e+00	1.00000e+00	1.00000e+00	1.00000e+00	1.00000e+00	1.00000e+00	1.00000e+00	1.00000e+00	1.00000e+00	1.00000e+00	1.00000e+00	1.00000e+00	1.00000e+00	1.00000e+00	1.00000e+00	1.00000e+00	1.00000e+00	1.00000e+00	1.00000e+00	1.00000e+00	1.00000e+00	1.00000e+00	1.00000e+00	X	X	X	X	X	X	X	X	X	X	X	X	X	X	X	X	

B = Detector Channel
Val Type	B-AC1	B-AC2	B-AC3	B-AC4	B-AC5	B-AC6	B-AC7	B-AC8	B-AC9	B-AC10	B-AC11	B-AC12	B-AC13	B-AC14	B-AC15	B-AC16	B-DC1	B-DC2	B-DC3	B-DC4	B-DC5	B-DC6	B-DC7	B-DC8	B-DC9	B-DC10	B-DC11	B-DC12	B-DC13	B-DC14	B-DC15	B-DC16	B-Ph1	B-Ph2	B-Ph3	B-Ph4	B-Ph5	B-Ph6	B-Ph7	B-Ph8	B-Ph9	B-Ph10	B-Ph11	B-Ph12	B-Ph13	B-Ph14	B-Ph15	B-Ph16	

Term	0.00000e+00	0.00000e+00	0.00000e+00	0.00000e+00	0.00000e+00	0.00000e+00	0.00000e+00	0.00000e+00	0.00000e+00	0.00000e+00	0.00000e+00	0.00000e+00	0.00000e+00	0.00000e+00	0.00000e+00	0.00000e+00	0.00000e+00	0.00000e+00	0.00000e+00	0.00000e+00	0.00000e+00	0.00000e+00	0.00000e+00	0.00000e+00	0.00000e+00	0.00000e+00	0.00000e+00	0.00000e+00	0.00000e+00	0.00000e+00	0.00000e+00	0.00000e+00	-1.10555e+02	-1.34345e+02	-1.25139e+02	-1.80823e+02	-5.89411e+01	-6.68562e+01	-1.57214e+02	-1.62015e+02	-6.37752e+01	-6.71530e+01	-1.71625e+02	-1.71796e+02	-1.86365e+02	-1.76693e+02	-6.41196e+01	-1.49516e+02	
Factor	1.50243e-05	1.53827e-04	4.66076e-05	1.58271e-01	1.18790e-06	1.74034e-06	1.59010e-01	4.50898e-02	9.43242e-07	1.55460e-06	7.52501e-02	2.87934e-02	3.64718e-02	8.42465e-03	1.35339e-06	1.23474e-02	7.15820e-06	1.04250e-05	2.89429e-06	7.88315e-02	1.08082e-07	1.15196e-07	7.45083e-02	2.26350e-02	1.07536e-07	1.15117e-07	3.64779e-02	1.40814e-02	1.83450e-02	4.24814e-03	1.11129e-07	6.03331e-03	X	X	X	X	X	X	X	X	X	X	X	X	X	X	X	X	



#DISTANCE SETTINGS
A = Detector Channel
A-1	A-2	A-3	A-4	A-5	A-6	A-7	A-8	A-9	A-10	A-11	A-12	A-13	A-14	A-15	A-16	

2.5000e+00	3.0000e+00	2.5000e+00	3.0000e+00	2.0000e+00	3.0000e+00	1.5000e+00	3.0000e+00	3.0000e+00	3.0000e+00	3.0000e+00	3.0000e+00	3.0000e+00	3.0000e+00	1.5000e+00	3.0000e+00	

B = Detector Channel
B-1	B-2	B-3	B-4	B-5	B-6	B-7	B-8	B-9	B-10	B-11	B-12	B-13	B-14	B-15	B-16	

1.0000e+01	1.0000e+01	1.0000e+01	1.4400e+00	1.0000e+01	1.0000e+01	1.5100e+00	1.9400e+00	1.0000e+01	1.0000e+01	1.9900e+00	2.4900e+00	2.4100e+00	2.9000e+00	1.0000e+01	2.9800e+00	




#DATA BEGINS
time	group	step	mark	flag	A-AC1	A-AC2	A-AC3	A-AC4	A-AC5	A-AC6	A-AC7	A-AC8	A-AC9	A-AC10	A-AC11	A-AC12	A-AC13	A-AC14	A-AC15	A-AC16	A-DC1	A-DC2	A-DC3	A-DC4	A-DC5	A-DC6	A-DC7	A-DC8	A-DC9	A-DC10	A-DC11	A-DC12	A-DC13	A-DC14	A-DC15	A-DC16	A-Ph1	A-Ph2	A-Ph3	A-Ph4	A-Ph5	A-Ph6	A-Ph7	A-Ph8	A-Ph9	A-Ph10	A-Ph11	A-Ph12	A-Ph13	A-Ph14	A-Ph15	A-Ph16	B-AC1	B-AC2	B-AC3	B-AC4	B-AC5	B-AC6	B-AC7	B-AC8	B-AC9	B-AC10	B-AC11	B-AC12	B-AC13	B-AC14	B-AC15	B-AC16	B-DC1	B-DC2	B-DC3	B-DC4	B-DC5	B-DC6	B-DC7	B-DC8	B-DC9	B-DC10	B-DC11	B-DC12	B-DC13	B-DC14	B-DC15	B-DC16	B-Ph1	B-Ph2	B-Ph3	B-Ph4	B-Ph5	B-Ph6	B-Ph7	B-Ph8	B-Ph9	B-Ph10	B-Ph11	B-Ph12	B-Ph13	B-Ph14	B-Ph15	B-Ph16	aux-1	digaux	

749.183	1	1	0	256	0.33876	0.2876	0.066507	0.17304	0.16712	0.17912	0.21142	0.14398	0.10071	0.12698	0.26713	0.32113	0.20121	0.23354	0.12506	0.23684	-2.4771	-3.2146	-3.2562	-3.1479	-3.4167	-3.0208	-3.2896	-3.4667	-3.0375	-3.3625	-3.3438	-3.2021	-3.2729	-3.0167	-3.1729	-3.3333	-12.992	303.032	111.601	291.499	291.708	172.631	281.529	2.178	258.986	230.964	292.654	259.389	247.613	246.007	304.450	290.415	0.00013023	0.00049167	0.0001203	1242.8	3.215e-06	2.0333e-06	1310.1	261.35	1.6282e-06	2.6633e-06	325.7	88.842	69.622	20.499	3.7665e-06	29.17	0.00028613	0.00032737	8.8035e-05	1218.3	3.68e-06	3.6637e-06	1288.2	259.99	3.5957e-06	3.4588e-06	323	89.92	69.829	20.715	3.4566e-06	29.298	160.182	57.850	76.057	-2.531	177.542	137.572	-2.239	4.501	180.931	116.413	4.650	11.178	11.146	18.046	146.201	17.752	-8191	255	
749.280	1	1	0	0	0.11179	0.01216	0.23089	0.074347	0.12907	0.18157	0.09643	0.10879	0.16762	0.078486	0.26488	0.069159	0.081489	0.14743	0.25946	0.12211	-2.6583	-3.2875	-2.975	-3.2542	-3.075	-3.0229	-3.2667	-3.2687	-3.1833	-3.1833	-3.3667	-3.2229	-3.2729	-3.0833	-3.0479	-3.3208	18.750	239.311	121.201	-13.042	35.023	20.977	301.352	344.619	281.144	-9.524	6.633	187.616	30.972	76.334	333.558	280.442	0.00013834	0.00043454	8.242e-05	1242.6	3.4217e-06	1.5007e-06	1305.2	260.72	2.7829e-06	1.6945e-06	326.85	88.949	69.556	20.47	3.6497e-06	28.881	0.0002839	0.00032498	8.9042e-05	1215.7	3.6144e-06	3.3428e-06	1284.2	259.35	3.6482e-06	3.571e-06	323.11	89.686	69.619	20.65	3.4158e-06	29.181	160.546	62.967	66.702	-2.535	188.310	135.949	-2.304	4.686	168.806	149.733	4.489	11.309	11.072	18.132	158.281	17.622	-8191	255	
749.376	1	1	0	0	0.45416	0.1341	0.19331	0.29893	0.10575	0.062348	0.21683	0.25384	0.075088	0.07345	0.17652	0.29443	0.15479	0.15688	0.14267	0.08726	-2.5667	-3.2583	-3.0646	-3.2438	-3.2521	-3.1833	-3.1792	-3.625	-3.0979	-3.0708	-3.4521	-3.1271	-3.2104	-3.2812	-3.0708	-3.3354	105.325	262.581	168.693	303.891	35.459	138.514	345.247	228.513	4.466	235.177	31.109	337.461	104.455	163.317	178.313	228.006	0.0001291	0.00020527	7.4728e-05	1240.5	2.052e-06	3.8204e-06	1306.8	262.04	1.7459e-06	4.1336e-06	325.93	89.228	69.175	20.518	1.445e-06	28.926	0.00028379	0.00031579	8.6256e-05	1216.8	3.5696e-06	3.4643e-06	1286.4	259.5	3.4586e-06	3.4876e-06	322.32	89.997	69.646	20.601	3.4714e-06	29.19	149.230	97.902	60.054	-2.453	135.845	119.820	-2.423	4.527	175.544	143.204	4.492	10.937	11.134	17.877	118.964	17.340	-8191	255	
749.472	1	1	0	0	0.1268	0.25198	0.23377	0.31529	0.23547	0.1744	0.27322	0.11631	0.089853	0.19968	0.077978	0.11951	0.28863	0.10618	0.11051	0.13047	-2.7229	-3.1354	-3.1	-3.1542	-3.3187	-3.0417	-3.3208	-3.3646	-3.2479	-3.2083	-3.4396	-2.9625	-3.3146	-3.1813	-3.1542	-3.325	277.226	116.779	224.556	292.646	319.167	128.396	266.247	294.558	56.464	150.347	262.655	288.730	34.749	20.555	306.702	278.021	0.00012693	0.00018851	6.4186e-05	1238.9	2.2507e-06	4.1099e-06	1310.4	260.93	8.0231e-07	2.1043e-06	323.58	88.266	69.389	20.585	9.1382e-07	28.944	0.000281	0.00031625	8.3814e-05	1214.9	3.5383e-06	3.4364e-06	1285.3	259.15	3.5357e-06	3.4031e-06	321.56	89.505	69.478	20.617	3.4744e-06	29.144	159.356	54.569	106.332	-2.511	172.481	135.452	-2.238	4.522	118.406	126.123	4.457	11.181	11.448	17.846	155.584	17.889	-8191	255	
749.568	1	1	0	0	0.25449	0.13572	0.20287	0.30982	0.11883	0.12398	0.38071	0.34316	0.14316	0.27154	0.40231	0.05723	0.1417	0.11535	0.18668	0.14101	-2.6375	-3.0708	-3.2458	-3.3292	-3.1333	-3.3104	-3.1104	-3.45	-3.0375	-3.0229	-3.5	-3.1333	-3.2104	-3.1375	-2.7812	-3.2917	93.090	74.581	241.705	345.103	90.360	298.259	254.531	296.487	281.740	157.281	30.491	174.188	282.109	145.575	8.336	34.323	0.00014272	0.00024624	0.00010006	1237.9	4.4996e-06	2.0197e-06	1300.5	261.36	2.3036e-06	3.4438e-06	322.91	88.465	69.191	20.353	2.2243e-06	28.84	0.00028048	0.00031979	8.6684e-05	1212.4	3.5705e-06	3.3877e-06	1282.3	258.94	3.4622e-06	3.4386e-06	320.21	89.271	69.245	20.506	3.3785e-06	29.017	150.026	77.921	88.008	-2.555	151.716	131.495	-2.278	4.614	184.414	139.648	4.260	11.297	11.069	17.629	186.020	17.977	-8191	255	
749.662	1	1	0	0	0.19715	0.15321	0.14924	0.087879	0.18491	0.094077	0.43429	0.30062	0.14247	0.28948	0.24628	0.03325	0.021992	0.14448	0.022525	0.16741	-2.7604	-3.0833	-3.4437	-3.1708	-3.05	-3.4042	-3.2812	-3.3875	-3.2833	-3.0646	-3.4	-3.1646	-3.0583	-3.4688	-2.9542	-3.275	268.669	36.798	170.614	302.796	158.522	36.921	264.670	196.925	295.863	108.909	270.019	256.753	204.837	51.335	240.977	161.176	0.00015134	0.00035576	8.0444e-05	1235.4	2.7811e-06	4.6393e-06	1298.7	260.2	9.384e-07	3.4342e-06	323.29	87.926	68.272	20.274	3.0456e-06	28.658	0.00027699	0.00030684	8.3006e-05	1212.1	3.46e-06	3.3128e-06	1277.1	257.97	3.4015e-06	3.2398e-06	319.51	88.871	68.717	20.345	3.2227e-06	28.853	154.052	64.121	80.294	-2.507	164.821	128.884	-2.261	4.630	161.086	99.253	4.427	11.195	11.084	17.609	138.125	18.061	-8191	255	
749.783	1	1	0	0	0.27981	0.078581	0.17563	0.2607	0.17855	0.26134	0.34982	0.2123	0.05005	0.28363	0.11125	0.27426	0.11892	0.18796	0.17168	0.21571	-2.875	-3.0479	-3.2167	-3.2333	-3.1833	-3.2292	-3.1771	-3.3396	-3.4396	-3.0687	-3.2854	-3.1333	-3.1625	-3.225	-3.3083	-3.2438	144.390	88.115	132.048	16.794	49.790	125.772	262.182	306.680	289.372	158.033	220.115	38.744	312.924	-3.276	232.067	200.156	0.00013242	0.00037874	0.00012081	1228.6	2.5244e-06	3.0232e-06	1299.8	257.76	2.0959e-06	1.1766e-06	322.55	88.112	68.191	20.126	2.7611e-06	28.505	0.00026629	0.00030769	8.3368e-05	1202.9	3.4404e-06	3.2996e-06	1273.5	256.33	3.3959e-06	3.3866e-06	319.21	88.794	68.738	20.302	3.3422e-06	28.795	156.722	85.182	75.310	-2.436	151.497	128.413	-2.104	4.605	149.176	95.161	4.230	11.328	11.135	18.057	160.244	17.982	-8191	255	
749.879	1	1	0	0	0.18471	0.18243	0.062441	0.19747	0.12706	0.23242	0.1479	0.29009	0.076126	0.33144	0.078288	0.12569	0.14899	0.39847	0.32118	0.15311	-2.8563	-3.0167	-3.1729	-3.3604	-3.1354	-3.3	-3.2479	-3.1104	-3.2354	-3.0292	-3.4292	-3.1104	-3.1229	-3.4188	-2.9354	-3.0917	152.885	115.936	89.579	281.381	158.512	140.249	258.504	274.902	142.746	318.890	41.722	248.747	324.190	339.646	292.094	193.024	0.00011713	0.00025612	8.8568e-05	1225.4	2.2688e-06	2.4579e-06	1294.3	258.59	1.028e-06	5.0522e-06	320.82	87.352	68.263	20.038	1.4975e-06	28.547	0.00026721	0.00030912	8.5834e-05	1203	3.3965e-06	3.3901e-06	1272.2	256.79	3.272e-06	3.3086e-06	318.14	88.432	68.501	20.234	3.2614e-06	28.68	153.438	44.089	57.283	-2.455	191.669	147.192	-2.218	4.916	159.258	144.568	4.324	11.178	11.211	18.167	147.134	18.331	-8191	255	
749.975	1	1	0	0	0.1813	0.16767	0.064436	0.47685	0.058248	0.16371	0.15418	0.18169	0.1926	0.1167	0.30372	0.045823	0.19506	0.16619	0.1942	0.17574	-2.9521	-3.0354	-3.2979	-3.4583	-3.0542	-3.2021	-3.3146	-3.5104	-3.3292	-3.1417	-3.4958	-3.1604	-3.0417	-3.4375	-2.8875	-3.3312	194.057	177.711	249.702	298.986	116.422	303.353	285.556	323.403	222.158	151.426	291.087	298.688	193.711	234.741	134.417	219.299	0.00012394	0.00037441	0.00011908	1221.1	3.5437e-06	4.2606e-06	1285.1	255.82	1.5242e-06	3.773e-06	317.57	86.884	66.805	19.859	2.8793e-06	28.162	0.00026464	0.00029286	8.3386e-05	1197.5	3.2774e-06	3.0556e-06	1264.5	254.24	3.0825e-06	3.1547e-06	314.91	87.577	67.736	20.02	3.0982e-06	28.417	157.813	64.663	71.345	-2.449	183.089	152.235	-2.111	4.821	190.235	160.999	4.589	11.241	11.089	18.262	180.163	17.840	-8191	255	
750.071	1	1	0	0	0.029454	0.23787	0.053925	0.14924	0.21129	0.09629	0.13541	0.248	0.16537	0.09648	0.070056	0.10511	0.091932	0.0406	0.22261	0.060133	-2.9062	-2.8375	-3.2562	-3.4562	-2.95	-3.3208	-3.3937	-3.1312	-3.4854	-3.0958	-3.4562	-3.4646	-2.9833	-3.3271	-3.0771	-3.0083	32.084	204.880	112.947	327.969	314.148	269.018	259.045	306.376	51.308	193.957	46.697	71.203	121.161	312.938	39.186	17.786	0.00013931	0.00046405	8.3917e-05	1212.2	3.1795e-06	4.3829e-06	1275.3	255.09	2.4132e-06	4.7704e-06	318.55	86.632	67.011	19.933	2.0656e-06	28.253	0.00025304	0.0002965	7.9611e-05	1188.6	3.2537e-06	3.1122e-06	1256.6	253.01	3.1407e-06	3.2736e-06	315.25	87.602	67.604	20.067	3.1892e-06	28.467	156.559	75.114	85.397	-2.327	147.003	126.655	-1.940	4.747	212.301	153.790	4.205	11.491	11.555	18.140	143.754	17.962	-8191	255	
750.168	1	1	0	0	0.09159	0.14459	0.18697	0.2274	0.18559	0.16998	0.30021	0.18539	0.02441	0.18565	0.14209	0.21713	0.068468	0.1205	0.17089	0.084073	-2.9208	-3.0875	-3.2458	-3.4437	-3.0438	-3.3542	-3.1708	-3.1583	-3.3667	-3.0896	-3.2812	-3.1833	-2.9771	-3.3021	-3.2792	-3.0187	267.109	108.363	258.080	0.903	312.262	174.683	298.879	297.393	44.623	70.355	319.317	115.905	259.628	109.919	148.349	160.902	0.00013877	0.00035645	9.2314e-05	1211.2	1.6519e-06	2.0595e-06	1280.9	253.47	1.0947e-06	3.0766e-06	316.47	86.448	66.878	19.771	3.1774e-06	28.079	0.00026681	0.00029837	8.1221e-05	1188.3	3.3341e-06	3.2125e-06	1257.1	252.19	3.3312e-06	3.2264e-06	313.45	87.166	67.27	19.964	3.0565e-06	28.299	155.019	74.472	99.990	-2.402	116.749	121.619	-2.231	4.771	143.470	151.739	4.721	11.612	11.552	17.654	155.274	17.916	-8191	255	
750.264	1	1	0	0	0.087116	0.18376	0.1102	0.1715	0.14931	0.20515	0.078124	0.24788	0.060487	0.28509	0.32314	0.061602	0.10059	0.14528	0.24296	0.18911	-2.8729	-3.225	-2.9479	-3.5292	-3.3396	-3.2271	-3.3333	-3.2792	-3.5083	-3.1875	-3.1833	-3.5625	-3.0667	-3.3875	-3.2896	-3.2229	292.491	212.455	266.287	-6.149	25.831	114.430	315.355	283.331	210.124	24.793	313.042	306.796	-4.646	154.844	-0.879	179.406	0.00013013	0.00041167	0.00010854	1200.1	1.8367e-06	3.42e-06	1264.6	250.72	2.0902e-06	3.723e-06	312.15	85.101	66.343	19.674	2.3762e-06	27.905	0.0002565	0.00027685	7.7501e-05	1178.5	3.1441e-06	3.0148e-06	1242.8	248.94	3.0543e-06	2.8597e-06	309.25	86.183	66.599	19.767	2.7578e-06	27.989	157.646	94.225	51.554	-2.335	147.996	135.207	-2.104	4.885	190.450	132.431	4.470	11.145	11.211	18.131	140.755	18.358	-8191	255	
750.360	1	1	0	0	0.14825	0.31485	0.044872	0.28601	0.17108	0.31885	0.2723	0.40896	0.13015	0.1905	0.069122	0.32491	0.13776	0.18731	0.11752	0.15093	-3.0312	-3.1604	-3.1708	-3.6479	-3.1354	-3.2583	-3.5146	-3.0792	-3.4146	-3.1271	-2.9875	-3.5563	-3.2854	-3.275	-3.2667	-3.1562	130.998	-8.892	210.254	318.697	287.432	195.601	252.484	270.281	59.268	294.029	312.282	307.386	289.130	0.466	162.849	330.212	0.00015644	0.00026792	0.00010016	1194	1.5688e-06	2.7717e-06	1257.9	249.63	8.9104e-07	4.3986e-06	310.86	85.381	66.025	19.621	3.3247e-06	27.64	0.0002493	0.00026458	7.3943e-05	1168.7	2.9916e-06	2.8962e-06	1234.7	247.36	3.069e-06	2.8985e-06	307.5	85.99	66.142	19.664	2.9023e-06	27.888	158.294	94.093	112.631	-2.300	188.277	107.602	-2.052	4.577	210.135	138.767	4.610	11.162	11.283	18.532	174.074	18.124	-8191	255	
750.456	1	1	0	0	0.097227	0.25747	0.18004	0.06493	0.25948	0.065781	0.22999	0.16145	0.13404	0.12008	0.074126	0.3158	0.097501	0.31258	0.12098	0.1548	-3.05	-3.1813	-2.9583	-3.5812	-3.3125	-3.3688	-3.5229	-3.1021	-3.3042	-3.3479	-3.0312	-3.4208	-3.1625	-3.2375	-3.2979	-3.0292	263.216	85.661	213.767	136.865	44.704	194.508	312.159	332.321	294.162	264.511	180.909	-5.092	196.424	333.136	153.912	-8.341	0.00011586	0.00031719	9.6571e-05	1186	1.6572e-06	3.4654e-06	1251.3	247.34	1.4772e-06	2.9802e-06	309.43	84.835	65.376	19.365	2.5077e-06	27.503	0.00025031	0.00026469	7.6331e-05	1163.6	3.011e-06	2.89e-06	1227.8	245.48	2.9398e-06	2.8e-06	305.71	85.349	65.463	19.388	2.7176e-06	27.587	158.073	87.463	79.937	-2.064	133.737	122.855	-2.210	4.771	161.108	133.576	4.791	11.174	11.246	18.404	149.646	18.124	-8191	255	
750.575	1	1	0	0	0.268	0.046392	0.13555	0.1358	0.18911	0.054842	0.25268	0.12212	0.20504	0.054558	0.28381	0.24544	0.1247	0.095446	0.1301	0.13799	-2.8958	-3.4271	-2.9771	-3.5021	-3.0854	-3.1146	-3.6813	-3.2167	-3.4042	-3.1813	-3.0354	-3.4104	-3.4042	-3.0833	-3.3458	-3.2292	330.044	85.589	308.190	342.246	155.933	150.902	328.813	283.110	129.575	67.634	-9.509	323.881	172.518	310.086	42.080	107.871	0.00012812	0.00032708	9.1728e-05	1166.8	2.743e-06	2.2727e-06	1234.7	244.82	9.1746e-07	3.0484e-06	306.46	83.883	65.101	19.114	4.1648e-06	27.275	0.00023014	0.00024234	6.7992e-05	1146.1	2.8063e-06	2.6291e-06	1213.3	242.44	2.6783e-06	2.6191e-06	302.37	84.673	65.148	19.287	2.6928e-06	27.521	157.272	50.077	106.169	-2.097	187.366	159.866	-2.042	4.821	151.778	121.545	4.760	11.266	11.742	18.557	152.177	18.452	-8191	255	
750.671	1	1	0	0	0.3684	0.10684	0.091762	0.26456	0.28047	0.03055	0.2178	0.30441	0.2294	0.20585	0.29251	0.16953	0.037233	0.17584	0.11511	0.15154	-3.05	-3.2	-3.0021	-3.3896	-3.3542	-3.1562	-3.5458	-3.1375	-3.0875	-3.2833	-3.0312	-3.4292	-3.2979	-3.0667	-3.15	-3.0333	11.364	290.980	257.082	298.346	261.516	97.492	230.619	38.170	222.121	344.703	-3.180	220.160	155.033	194.962	14.581	18.332	0.00012573	0.00036833	0.00012292	1166.5	3.5236e-06	2.0169e-06	1230.7	243.57	2.1158e-06	4.0913e-06	304.86	83.619	64.679	19.123	2.4058e-06	27.148	0.000236	0.00024368	6.6617e-05	1144.3	2.7421e-06	2.5948e-06	1210.7	242.1	2.8029e-06	2.6295e-06	301.74	84.52	65.069	19.27	2.6277e-06	27.467	156.494	64.999	73.578	-2.248	142.821	93.132	-2.291	5.090	165.329	138.524	4.736	11.228	11.159	18.323	159.590	18.096	-8191	255	
750.767	1	1	0	0	0.28102	0.18407	0.25201	0.22933	0.15086	0.044228	0.22745	0.12232	0.13852	0.11766	0.20954	0.16717	0.15437	0.08133	0.35076	0.1374	-2.8646	-3.4979	-3.1125	-3.3937	-3.45	-3.1396	-3.525	-3.3688	-3.2208	-3.3229	-3.1083	-3.5625	-3.225	-3.0021	-3.3438	-3.1833	147.006	232.783	227.141	284.257	171.540	126.596	307.315	225.816	9.133	270.356	308.882	6.071	171.047	7.828	169.443	221.840	0.00011924	0.00030451	0.00011427	1167.8	1.6015e-06	2.9101e-06	1231.8	244.1	1.0333e-06	3.7158e-06	304.97	83.372	64.518	19.078	3.2245e-06	27.199	0.0002289	0.00024403	6.8987e-05	1143.4	2.7248e-06	2.7846e-06	1210.7	242.01	2.7169e-06	2.5968e-06	301.53	84.496	64.956	19.219	2.7159e-06	27.456	152.558	68.779	98.842	-2.265	172.284	146.482	-2.118	4.883	166.268	157.445	4.606	11.405	11.168	17.932	184.323	18.491	-8191	255	
750.863	1	1	0	0	0.12602	0.12013	0.17426	0.28965	0.13422	0.20227	0.30989	0.19954	0.03806	0.10029	0.040636	0.10807	0.15139	0.22097	0.23061	0.16164	-2.8729	-3.4417	-2.9271	-3.5417	-3.2479	-3.1937	-3.4688	-3.1312	-3.1271	-3.3625	-3.35	-3.2812	-3.3292	-3.1521	-3.3083	-3.1375	302.195	115.482	269.859	310.038	295.524	130.787	325.902	330.135	65.197	132.139	267.099	21.457	77.151	152.015	146.493	267.268	0.00012326	0.0003288	4.0508e-05	1168.3	1.3341e-07	2.8124e-06	1233.8	243.12	2.2939e-06	4.1263e-06	303.91	83.611	64.707	19.084	2.4465e-06	27.421	0.00022359	0.00024851	6.8342e-05	1143.3	2.8e-06	2.727e-06	1211.4	241.69	2.7984e-06	2.5805e-06	301.59	84.526	64.981	19.247	2.6659e-06	27.462	151.629	97.614	102.818	-2.167	316.209	95.869	-2.002	4.802	176.588	159.881	4.586	11.136	11.287	18.246	128.330	18.272	-8191	255	
750.960	1	1	0	0	0.032669	0.19988	0.022462	0.18686	0.061476	0.11634	0.1435	0.32693	0.14902	0.19464	0.01718	0.213	0.1215	0.041502	0.10831	0.23119	-2.6125	-3.4729	-3.2458	-3.4167	-3.2313	-2.8958	-3.6479	-3.2375	-3.0396	-3.4229	-3.3688	-3.3187	-3.2812	-3.2438	-3.3896	-3.1521	35.708	40.960	265.770	221.897	215.696	269.578	242.032	247.491	79.102	49.562	67.771	19.428	63.221	249.490	216.075	304.639	0.0001226	0.00049273	8.3032e-05	1165.8	2.5448e-06	2.7046e-06	1230.4	243.3	1.8289e-06	5.7489e-06	303.48	83.417	64.138	19.127	2.5131e-06	27.079	0.00022448	0.0002434	6.6478e-05	1143.5	2.8185e-06	2.6437e-06	1209.6	241.77	2.7059e-06	2.6203e-06	301.72	84.343	65.016	19.261	2.6817e-06	27.408	159.739	73.809	87.634	-2.153	144.907	150.376	-2.162	4.745	127.263	131.727	4.668	11.357	11.451	18.703	129.450	18.214	-8191	255	
751.056	1	1	0	0	0.36436	0.33523	0.20333	0.18489	0.24823	0.19463	0.34757	0.27051	0.19716	0.13745	0.21849	0.19402	0.043738	0.1749	0.12456	0.2447	-2.6208	-3.4667	-3.2125	-3.2125	-3.3375	-3.2604	-3.5438	-3.3375	-3.0229	-3.35	-3.2646	-3.3333	-3.2354	-3	-3.2479	-3.5021	169.527	277.395	91.823	296.727	334.229	108.116	209.370	273.256	101.122	49.866	75.374	317.204	75.106	71.728	152.845	114.898	0.00012685	0.00014413	0.00011266	1165	3.2131e-06	2.9835e-06	1231.6	243.69	1.606e-06	2.3936e-06	304.56	83.978	64.291	19.04	4.1328e-06	27.296	0.00022821	0.00023237	6.6617e-05	1141.2	2.825e-06	2.6637e-06	1210.3	241.97	2.7872e-06	2.7304e-06	301.46	84.459	64.935	19.249	2.7625e-06	27.424	160.063	15.022	100.629	-2.189	173.466	122.353	-1.996	5.051	133.831	120.871	4.568	11.212	11.704	18.118	158.053	17.944	-8191	255	
751.152	1	1	0	0	0.12166	0.043224	0.077954	0.31585	0.15809	0.17572	0.26259	0.035356	0.037079	0.17305	0.16687	0.16041	0.10333	0.041788	0.17547	0.045624	-2.5771	-3.4188	-3.2292	-3.1188	-3.2917	-3.0958	-3.3646	-3.475	-2.8479	-3.2646	-3.3771	-3.3604	-3.1771	-3.0417	-3.3021	-3.325	3.317	278.751	88.447	317.282	321.888	303.908	294.923	207.686	39.119	-10.398	180.228	22.796	81.600	18.863	309.576	88.594	0.00011455	0.00031015	0.00013587	1156.7	1.875e-06	4.165e-06	1230.4	244.16	2.0142e-06	1.1479e-06	305.07	83.961	64.889	19.164	2.9765e-06	27.223	0.00023002	0.00025179	6.7895e-05	1139.2	2.9565e-06	2.8566e-06	1207.7	241.65	2.9165e-06	2.8937e-06	301.81	84.657	65.111	19.29	2.9016e-06	27.465	158.440	84.030	69.096	-2.160	151.185	178.565	-2.061	4.872	139.370	174.454	5.010	11.505	11.481	18.310	120.074	18.099	-8191	255	
751.272	1	1	0	0	0.054372	0.14893	0.067921	0.24277	0.064262	0.017522	0.32117	0.40388	0.1419	0.18328	0.22252	0.15119	0.20799	0.13315	0.17844	0.29027	-2.7333	-3.1375	-3.1583	-2.9417	-3.25	-3.3312	-3.4625	-3.3583	-3.2375	-3.3688	-3.1979	-3.275	-3.3937	-3.0125	-3.0958	-3.5958	29.564	223.203	208.527	314.818	92.481	27.403	289.293	312.048	4.680	82.961	308.162	105.024	83.873	11.131	224.413	314.062	0.00011915	0.00029352	0.00010064	1172.1	3.1846e-06	3.5715e-06	1235.6	244.14	1.8279e-06	3.0114e-06	307.15	84.393	64.706	19.13	2.0316e-06	27.346	0.00024329	0.00026942	7.3871e-05	1145.7	3.0756e-06	2.9968e-06	1214.7	242.26	3.0601e-06	3.0647e-06	303.21	84.964	65.356	19.392	3.0417e-06	27.592	151.984	81.164	63.136	-2.346	190.254	104.326	-2.175	4.744	176.939	165.217	4.792	11.517	11.580	18.180	143.570	18.252	-8191	255	
751.369	1	1	0	0	0.070196	0.021576	0.1266	0.15103	0.29929	0.18375	0.23881	0.3501	0.25168	0.042218	0.14425	0.15326	0.17476	0.22366	0.36694	0.32647	-2.7708	-3.0875	-3.3125	-3.2021	-3.3479	-3.1875	-3.2729	-3.5417	-3	-3.2438	-3.4875	-3.2625	-3.3104	-3.0375	-3.2604	-3.4604	57.662	40.261	68.353	332.964	220.651	10.569	-12.566	303.479	187.882	157.545	269.378	194.588	27.160	261.380	22.821	153.317	0.00013565	0.00036283	9.3821e-05	1173.9	8.3915e-07	2.5161e-06	1243.7	244.61	1.9432e-06	2.2196e-06	308.32	83.928	65.238	19.218	2.0617e-06	27.207	0.00024911	0.00027172	7.369e-05	1150.2	3.0067e-06	2.8307e-06	1218.3	242.95	2.9371e-06	2.8184e-06	303.75	84.811	65.407	19.439	2.8171e-06	27.56	162.775	88.611	81.781	-2.150	210.451	123.453	-2.262	4.686	166.377	116.788	4.540	11.160	11.543	18.158	160.175	18.134	-8191	255	
751.465	1	1	0	0	0.22193	0.15688	0.17619	0.24382	0.10288	0.21699	0.43212	0.15782	0.10099	0.22905	0.19967	0.17736	0.10667	0.075084	0.135	0.054503	-2.8063	-3.2542	-3.375	-3.3854	-3.3583	-3.0896	-3.2792	-3.5208	-3.0771	-3.2625	-3.2646	-2.9813	-3.4437	-3.2229	-2.9771	-3.4437	122.467	161.693	85.042	277.811	69.673	239.593	243.891	335.130	36.215	248.156	262.872	295.180	254.806	-10.742	212.093	318.280	0.00013397	0.00021705	8.226e-05	1171.9	1.7538e-06	3.0577e-06	1237.2	245.32	1.5799e-06	1.9959e-06	306.63	83.69	64.918	19.271	6.3101e-07	27.638	0.00023243	0.00026234	7.1935e-05	1149.4	2.9572e-06	2.8381e-06	1215.6	243.37	2.9268e-06	2.8391e-06	303.86	84.917	65.347	19.404	3.0245e-06	27.692	153.488	102.173	84.898	-2.341	156.473	124.575	-2.247	4.653	204.087	156.560	4.612	11.688	11.695	18.120	152.335	18.354	-8191	255	
751.559	1	1	0	0	0.13738	0.06746	0.05877	0.18948	0.2082	0.07374	0.28742	0.04908	0.15285	0.10754	0.18896	0.01391	0.16971	0.064798	0.11811	0.14581	-2.7792	-3.1375	-3.3563	-3.4042	-3.1562	-3.0875	-3.3937	-3.4604	-3.0563	-2.9813	-3.4542	-3.2833	-3.3167	-3.3125	-3.2604	-3.5979	62.842	343.506	115.631	66.438	314.190	28.661	279.110	-0.085	128.073	39.442	68.170	-12.345	203.092	-2.288	6.561	202.182	0.00013427	0.00027243	5.1579e-05	1176.8	2.7138e-06	3.9023e-06	1245.3	246.73	1.6968e-06	2.1752e-06	308.5	85.088	65.56	19.495	1.0782e-06	27.653	0.00026019	0.00028243	7.8966e-05	1155.6	3.2323e-06	3.0932e-06	1224.4	244.85	3.2339e-06	3.2127e-06	305.44	85.666	66.009	19.607	3.1269e-06	27.868	161.638	93.161	87.707	-2.319	173.765	156.310	-2.109	4.767	143.458	115.692	4.638	11.432	11.213	18.313	147.354	18.006	-8191	255	
751.655	1	1	0	0	0.2473	0.20728	0.15689	0.14352	0.17782	0.14524	0.13825	0.15053	0.21871	0.069846	0.20606	0.06962	0.13669	0.12443	0.16806	0.14859	-2.7188	-3.0646	-3.3542	-3.3521	-3.2104	-3.3292	-3.3146	-3.4625	-3.0938	-3.175	-3.5729	-3.2938	-3.2396	-3.375	-3.1646	-3.4458	54.323	314.652	99.280	282.222	106.932	158.197	329.947	240.214	296.716	-2.110	200.641	218.907	72.292	288.715	44.570	90.047	0.0001347	0.00037683	0.00011424	1184.1	1.7708e-06	1.5975e-06	1252.2	247.75	2.8213e-06	3.8769e-06	308.15	85.493	66.286	19.509	2.923e-06	27.647	0.00025406	0.00028134	7.7784e-05	1162.5	3.2636e-06	3.0268e-06	1230.2	245.79	3.2926e-06	3.2261e-06	306.17	86.045	66.457	19.67	3.254e-06	27.956	160.684	55.727	65.413	-2.470	148.224	144.164	-2.196	4.433	136.584	160.572	4.705	11.216	11.240	18.171	155.599	18.014	-8191	255	
751.751	1	1	0	0	0.040235	0.11871	0.28564	0.18731	0.017854	0.13475	0.181	0.20401	0.054738	0.082606	0.21659	0.22955	0.03606	0.14716	0.35876	0.19101	-2.7833	-3.0417	-3.45	-3.4979	-3.2188	-3.2562	-3.1854	-3.3625	-3.2333	-3.1292	-3.625	-3.1396	-3.1354	-3.35	-3.0563	-3.25	156.893	158.929	330.875	289.278	47.128	39.477	335.745	258.451	11.522	313.398	185.806	260.352	222.476	38.433	99.752	51.252	0.00013786	0.00034724	0.0001217	1196.2	2.242e-06	4.3288e-06	1261.6	248.14	2.0559e-06	2.7145e-06	311	85.697	66.229	19.472	2.6154e-06	27.677	0.00026341	0.00028684	7.9141e-05	1173.5	3.1215e-06	2.9723e-06	1239.3	247.49	3.0489e-06	2.9585e-06	308.5	86.191	66.786	19.744	2.7882e-06	27.999	157.408	70.850	73.505	-2.481	176.127	126.747	-2.052	4.728	156.278	127.226	4.867	11.140	11.490	18.014	173.971	17.781	-8191	255	
751.872	1	1	0	0	0.17628	0.10808	0.12156	0.18845	0.17534	0.18886	0.26505	0.1547	0.22044	0.25327	0.25023	0.25941	0.075183	0.071019	0.12302	0.23785	-2.7958	-3.2208	-3.35	-3.3979	-3.0125	-3.3417	-3.3729	-3.2208	-3.2521	-2.9375	-3.6312	-3.1937	-3.0083	-3.4188	-3.0604	-3.3479	98.861	343.138	154.913	327.372	53.647	214.751	294.523	258.183	101.651	168.340	249.414	213.281	291.664	346.668	201.961	306.923	0.00012481	0.00034434	0.00010695	1193	2.5622e-06	3.3567e-06	1260.2	248.91	1.8651e-06	2.9311e-06	311.67	85.752	66.162	19.594	2.5723e-06	27.881	0.0002353	0.00024953	6.8782e-05	1171.7	2.7923e-06	2.716e-06	1237.8	247.67	2.7312e-06	2.7273e-06	308.55	86.44	66.578	19.778	2.6694e-06	27.988	155.973	74.730	73.220	-2.368	156.833	114.953	-2.137	4.795	182.964	147.375	4.607	11.324	11.686	18.073	123.293	17.851	-8191	255	
751.968	1	1	0	0	0.015867	0.21254	0.0060008	0.11122	0.20992	0.33926	0.1783	0.17997	0.023257	0.16952	0.051107	0.028478	0.10285	0.12732	0.03937	0.12393	-3.0104	-3.0354	-3.3521	-3.2917	-3.1125	-3.3875	-3.1521	-3.2458	-3.4646	-3.1333	-3.325	-3.1604	-3.1708	-3.3396	-3.15	-3.2854	62.365	102.090	12.133	274.313	325.338	64.505	19.734	213.911	295.100	292.890	106.275	133.431	295.370	57.080	137.502	324.156	0.00011165	0.00032127	8.7977e-05	1193.9	1.1458e-06	1.0695e-06	1263	250.67	2.0247e-06	2.6964e-06	312.65	85.707	66.942	19.675	3.0737e-06	27.848	0.00023354	0.00024206	7.0579e-05	1173.4	2.834e-06	2.6049e-06	1241.2	248.47	2.6313e-06	2.7249e-06	309.61	86.611	66.999	19.827	2.6613e-06	28.132	151.313	58.459	79.227	-2.215	162.696	121.550	-2.123	4.818	148.435	150.597	4.764	11.135	11.390	18.196	155.355	17.881	-8191	255	
752.064	1	1	0	0	0.23303	0.09902	0.10256	0.1306	0.21297	0.12671	0.19848	0.23742	0.047977	0.18974	0.23565	0.094191	0.22308	0.084323	0.16762	0.079374	-3.0125	-2.9479	-3.2396	-3.5687	-3.3375	-3.4021	-3.1958	-3.1729	-3.2687	-3.2	-3.5333	-2.9958	-2.9333	-3.4625	-3.225	-3.2521	329.414	171.532	35.246	236.673	104.882	203.024	276.358	313.952	220.824	223.381	224.260	-12.933	294.033	308.073	315.605	144.804	0.00013343	0.00030688	6.9654e-05	1196.9	2.8048e-06	2.4401e-06	1263.5	251.3	2.5933e-06	8.4704e-07	311.91	85.57	65.797	19.642	1.5322e-06	27.632	0.00022557	0.00022587	6.4482e-05	1171.3	2.6442e-06	2.4695e-06	1240.6	248.37	2.6138e-06	2.5678e-06	309	86.253	66.411	19.724	2.4203e-06	27.991	149.857	34.217	101.107	-2.392	167.309	143.872	-1.995	4.525	166.658	104.358	4.578	10.879	11.643	17.868	159.759	18.192	-8191	255	
752.136	1	1	0	0	0.18298	0.24848	0.14448	0.16632	0.15931	0.11166	0.3936	0.26557	0.22224	0.10334	0.17718	0.15441	0.15534	0.26855	0.17281	0.18148	-2.9354	-2.875	-3.2458	-3.5729	-3.1417	-3.2708	-3.2771	-3.3708	-3.3958	-3.0812	-3.3521	-3.5563	-2.9625	-3.3021	-3.3563	-3.4333	247.151	42.178	284.094	281.654	257.308	156.380	291.374	264.403	139.917	236.989	250.291	16.156	104.121	293.138	334.669	312.869	0.00014929	0.00037364	9.5598e-05	1190.8	3.1987e-06	3.7168e-06	1257.9	249.51	1.9397e-06	1.9096e-06	310.46	85.513	66.026	19.578	2.0465e-06	27.929	0.00021085	0.00022805	5.9164e-05	1167.9	2.616e-06	2.518e-06	1235.1	247.6	2.5753e-06	2.5697e-06	308.19	86.277	66.574	19.729	2.524e-06	28.078	147.561	74.745	85.530	-2.441	172.928	144.272	-2.045	4.790	185.986	120.577	4.553	11.121	11.514	18.393	175.450	17.883	-8191	255	
752.257	1	1	0	0	0.087957	0.29573	0.23354	0.20913	0.22948	0.13419	0.26964	0.30339	0.1267	0.30099	0.13346	0.24878	0.075632	0.1966	0.18441	0.047532	-2.8271	-2.9333	-3.3729	-3.475	-3.0417	-3.2792	-3.4396	-3.3458	-3.3833	-3.2354	-3.4	-3.3292	-3.0958	-3.2479	-3.1292	-3.1875	179.129	284.754	171.183	329.084	248.511	329.855	253.625	177.450	157.815	293.384	199.506	331.983	101.670	4.147	94.940	258.384	0.00012097	0.00027094	0.00013395	1194.9	2.2112e-06	3.0114e-06	1253.8	249.03	1.6958e-06	2.383e-06	312.06	85.165	66.25	19.565	2.1581e-06	27.717	0.00022123	0.00023193	6.6382e-05	1169.3	2.7264e-06	2.6022e-06	1235.1	247.55	2.6768e-06	2.6223e-06	308.39	86.123	66.382	19.69	2.6988e-06	28.006	158.110	68.694	78.010	-2.389	183.179	146.001	-2.047	4.888	144.141	154.863	4.743	11.039	11.275	17.980	180.393	18.030	-8191	255	
752.353	1	1	0	0	0.10658	0.13842	0.12606	0.16053	0.16631	0.054546	0.1338	0.11848	0.065167	0.072719	0.095174	0.13623	0.094554	0.12989	0.0465	0.1352	-3.1312	-3.2417	-3.0854	-3.3896	-3.1208	-3.4854	-3.5042	-3.4167	-3.4854	-2.9583	-3.3104	-3.4083	-3.1479	-3.2438	-3.2562	-3.15	-12.993	236.806	34.892	277.593	93.165	117.624	278.474	294.659	278.994	10.172	246.600	206.589	21.681	340.116	15.687	42.734	0.00014039	0.00031662	6.4583e-05	1189.2	2.9997e-06	2.5004e-06	1255.5	250.33	2.0087e-06	4.1965e-06	310.33	85.722	66.269	19.553	2.3324e-06	27.808	0.00023925	0.00025118	6.9855e-05	1166.6	2.956e-06	2.7945e-06	1233.4	247.82	2.7677e-06	2.7889e-06	308.58	86.305	66.595	19.727	2.7884e-06	28.027	153.176	54.501	105.357	-2.186	158.472	132.667	-2.347	4.668	192.039	145.878	4.659	11.294	11.364	18.376	156.237	18.014	-8191	255	
752.449	1	1	0	0	0.19848	0.1536	0.2293	0.26452	0.1865	0.19131	0.32985	0.13095	0.34578	0.1429	0.089431	0.06407	0.091719	0.32656	0.15252	0.06211	-2.9375	-3.0396	-3.0604	-3.6271	-3.2292	-3.2896	-3.5563	-3.1729	-3.3354	-3.1167	-3.3042	-3.5	-3.1542	-3.2042	-3.3063	-3	191.044	270.309	346.143	269.617	177.910	344.267	277.876	262.145	317.330	-6.596	21.887	209.631	9.239	34.173	271.660	121.868	0.00013576	0.00040241	9.7084e-05	1194.8	1.7118e-06	3.1954e-06	1254	250.3	6.9175e-07	3.3081e-06	312.59	86.077	66.214	19.582	7.841e-07	27.762	0.0002309	0.0002388	6.7968e-05	1170.5	2.7928e-06	2.6706e-06	1237.1	248.33	2.793e-06	2.6028e-06	308.94	86.419	66.503	19.741	2.5606e-06	28.039	152.290	65.422	69.270	-2.571	168.106	108.041	-2.302	4.769	173.223	134.448	4.416	11.242	11.409	18.191	116.692	17.466	-8191	255	
752.545	1	1	0	0	0.17205	0.034034	0.21302	0.20098	0.14378	0.14871	0.41812	0.074302	0.23071	0.24593	0.20052	0.15426	0.090608	0.096012	0.35041	0.12627	-2.9021	-3.0729	-2.9688	-3.5458	-3.1542	-3.0979	-3.4521	-3.3083	-3.2625	-3.2521	-3.2604	-3.4437	-3.2854	-3.1292	-3.3125	-3.2646	320.418	185.911	262.634	305.210	52.038	59.689	309.701	266.724	126.953	14.512	274.804	115.637	167.475	19.395	138.982	177.214	0.00012476	0.00029936	0.00011915	1194.6	1.7984e-06	3.7395e-06	1258.9	250.86	1.1188e-06	2.973e-06	312.23	85.204	66.136	19.521	2.6304e-06	27.822	0.00022	0.0002421	6.6611e-05	1171.2	2.78e-06	2.6661e-06	1236.9	248.22	2.6906e-06	2.5688e-06	308.49	86.092	66.448	19.717	2.6064e-06	28.013	153.894	121.936	76.832	-2.208	171.588	168.116	-1.960	4.965	165.909	120.304	4.687	11.225	11.327	18.210	158.766	18.253	-8191	255	
752.664	1	1	0	0	0.21401	0.049412	0.06077	0.15242	0.12319	0.28336	0.27759	0.35711	0.17671	0.15648	0.20195	0.21348	0.22553	0.01729	0.27504	0.24579	-3.0375	-3.1729	-2.9479	-3.75	-3.1604	-3.2729	-3.5167	-3.1146	-3.3542	-3.2979	-3.2521	-3.3354	-3.025	-3.1167	-3.3271	-3.2729	166.323	107.386	300.291	311.378	169.398	-6.954	280.200	257.411	136.946	71.625	22.436	339.150	79.889	126.158	18.632	323.134	0.00010609	0.00027571	6.2267e-05	1193.5	1.1279e-06	1.4385e-06	1255.7	249.46	1.6686e-06	3.9841e-06	310.81	85.47	65.734	19.512	2.9896e-06	27.753	0.00021677	0.00023836	6.7793e-05	1167.8	2.7563e-06	2.5981e-06	1235.5	247.8	2.6817e-06	2.551e-06	308.53	86.108	66.393	19.708	2.6129e-06	28.018	158.884	51.942	73.543	-2.432	151.856	113.057	-2.067	4.747	149.708	103.492	4.605	11.283	11.386	18.291	166.471	18.016	-8191	255	
752.736	1	1	0	0	0.071369	0.070452	0.25066	0.10815	0.13357	0.10176	0.18743	0.06448	0.066566	0.054788	0.20116	0.28949	0.090599	0.3532	0.18941	0.092626	-2.7708	-3.2042	-3.05	-3.4667	-3.1437	-3.1292	-3.4062	-3.3104	-3.0938	-3.2375	-3.1146	-3.5604	-3.3083	-3.2083	-3.1396	-3.2417	129.268	162.651	151.665	232.184	260.757	169.585	252.527	32.734	121.980	115.098	270.305	276.821	9.919	2.178	119.275	-4.237	0.00012696	0.0004027	9.2065e-05	1194.6	3.438e-06	5.1177e-06	1256.8	250.06	2.1176e-06	4.6987e-06	311.68	85.418	66.117	19.539	2.5282e-06	27.734	0.00022921	0.00023732	6.7534e-05	1168.9	2.7847e-06	2.5782e-06	1234.9	247.86	2.7108e-06	2.647e-06	308.87	86.11	66.41	19.651	2.6444e-06	27.894	155.333	73.016	91.502	-2.344	175.891	145.224	-2.068	4.756	171.098	150.754	4.434	11.144	11.206	18.345	199.847	18.342	-8191	255	
752.834	1	1	0	0	0.18571	0.035134	0.25916	0.39205	0.23147	0.30744	0.11422	0.048312	0.14716	0.11573	0.154	0.36527	0.38546	0.15041	0.18222	0.2178	-2.8125	-3.3542	-3.1458	-3.3292	-3.2875	-3.1417	-3.6917	-3.2375	-3.0062	-3.3646	-3.0146	-3.4437	-3.1729	-2.9083	-3.3667	-3.0563	272.254	288.392	161.685	267.086	-13.179	230.159	23.446	330.015	104.892	134.303	-9.196	319.230	223.842	9.241	89.695	249.750	0.00013167	0.00030672	0.00010788	1189.1	1.5833e-06	3.2175e-06	1255.5	249.79	1.6481e-06	2.086e-06	311.3	85.353	65.657	19.603	3.7834e-06	27.78	0.00022316	0.0002383	6.7419e-05	1166.2	2.7378e-06	2.6106e-06	1235.1	247.16	2.6445e-06	2.5551e-06	307.97	86	66.191	19.684	2.6002e-06	27.886	157.853	105.503	84.718	-2.183	135.792	135.105	-1.836	4.787	158.023	100.410	4.404	11.361	11.570	17.941	144.880	18.172	-8191	255	
752.952	1	1	0	0	0.23012	0.23937	0.19785	0.19832	0.22851	0.074144	0.29575	0.12868	0.069922	0.097414	0.19957	0.1363	0.087454	0.073474	0.11651	0.19921	-2.7854	-3.3958	-2.9271	-3.3729	-3.4	-3.1104	-3.5292	-3.4042	-3.0125	-3.5521	-3.3167	-3.5854	-3.0979	-3.0958	-3.3375	-3.3187	57.765	302.592	126.180	303.891	275.557	60.334	-12.768	91.573	105.295	178.627	318.561	291.604	69.533	45.519	121.209	340.469	0.00012156	0.00027751	0.00011868	1191	2.1717e-06	4.2724e-06	1255.9	248.56	1.7202e-06	1.6656e-06	310.6	85.771	66.523	19.435	2.2676e-06	27.702	0.00021424	0.00023458	6.5857e-05	1165.6	2.7703e-06	2.6723e-06	1233.5	246.82	2.6604e-06	2.5944e-06	307.83	86.258	66.451	19.607	2.6261e-06	27.907	155.906	76.374	73.942	-2.337	157.129	142.599	-2.221	4.748	165.987	132.025	4.552	11.243	11.042	17.809	129.573	17.890	-8191	255	
753.049	1	1	0	0	0.11429	0.15609	0.22222	0.072453	0.26638	0.13209	0.16953	0.43942	0.11853	0.12525	0.23073	0.15458	0.11163	0.15728	0.076018	0.11079	-2.8271	-3.5208	-3.1729	-3.2542	-3.2333	-3.1437	-3.6063	-3.3542	-3.3375	-3.3917	-3.1458	-3.3958	-3.4229	-3.3292	-3.3438	-3.1458	213.516	194.867	39.373	-6.110	189.935	15.363	229.831	300.682	136.218	277.017	212.330	-9.266	29.740	326.721	142.309	238.179	0.00013047	0.0003561	0.0001342	1190.8	3.1434e-06	3.3548e-07	1255.3	249.32	2.2389e-06	3.4384e-06	311.68	85.458	66.286	19.59	1.8806e-06	27.703	0.00023106	0.00023584	6.8547e-05	1166.7	2.8036e-06	2.7405e-06	1235.1	247.28	2.8481e-06	2.639e-06	308.44	86.225	66.488	19.692	2.7375e-06	27.987	152.911	70.253	95.464	-2.278	164.615	329.347	-2.067	4.822	183.224	163.962	4.410	11.376	11.583	18.045	158.630	17.849	-8191	255	
753.145	1	1	0	0	0.34106	0.10733	0.10676	0.44789	0.077331	0.15055	0.2107	0.18274	0.13173	0.11624	0.19117	0.2125	0.16847	0.28391	0.077202	0.096287	-2.5375	-3.1792	-3.2667	-3.3563	-3.45	-3.0667	-3.3854	-3.1333	-2.9313	-3.275	-3.3458	-3.2687	-3.375	-3.0958	-3.4271	-3.4771	272.536	237.304	-3.892	-12.473	312.257	44.750	322.871	251.603	228.314	310.180	162.629	221.813	328.152	304.627	53.975	113.094	0.00011331	0.00026194	7.1423e-05	1194.3	2.6509e-06	2.767e-06	1261.9	249.24	2.6304e-06	1.5939e-06	313.04	85.487	65.969	19.562	2.9026e-06	27.74	0.00023986	0.00025543	6.9789e-05	1168.7	2.8655e-06	2.8698e-06	1237.8	247.47	2.9279e-06	2.8115e-06	308.89	86.311	66.529	19.705	2.6537e-06	27.952	160.023	72.862	100.926	-2.237	175.068	161.646	-1.912	4.854	163.467	80.322	4.550	11.347	11.329	18.124	166.071	18.240	-8191	255	
753.265	1	1	0	0	0.19447	0.17016	0.10089	0.22373	0.20086	0.17983	0.27362	0.21673	0.19993	0.10608	0.27206	0.12762	0.052382	0.1299	0.28752	0.16537	-2.6479	-3.3021	-2.9	-3.2875	-3.3875	-3.2125	-3.5042	-3.2438	-3.1333	-3.3583	-3.4229	-3.0792	-3.3708	-3.0104	-3.1958	-3.6083	-7.564	312.366	155.189	282.725	179.232	284.921	195.189	177.773	160.443	300.524	314.879	182.177	58.181	285.972	14.261	251.588	0.00011877	0.00031438	5.9063e-05	1193.1	2.3892e-06	4.5836e-06	1259.2	250.97	1.3942e-06	2.5223e-06	311.53	85.538	66.325	19.667	3.5431e-06	27.896	0.00023814	0.00025309	6.8993e-05	1171.3	2.6838e-06	2.6898e-06	1239.4	248.27	2.8192e-06	2.669e-06	308.81	86.234	66.431	19.758	2.6148e-06	27.968	157.909	55.384	77.672	-2.056	199.623	132.145	-2.076	4.956	179.560	134.679	4.555	11.314	11.636	18.247	157.626	17.877	-8191	255	
753.337	1	1	0	0	0.15196	0.17707	0.16497	0.1173	0.17671	0.11747	0.17191	0.069978	0.12277	0.2641	0.16	0.11221	0.234	0.08756	0.17905	0.14726	-2.7354	-3.3271	-3.1562	-3.0729	-3.4292	-3.1854	-3.3771	-3.4854	-3.1479	-3.3896	-3.5271	-3.0354	-3.3312	-3.2875	-3.2042	-3.3104	263.619	111.185	240.798	292.332	280.541	308.714	242.328	45.777	219.918	146.601	32.797	7.074	260.786	167.389	255.531	199.133	0.00012013	0.00042232	0.00013465	1193	2.6287e-06	4.5022e-06	1258.6	248.97	1.1097e-06	4.3608e-06	312.34	85.725	66.59	19.556	2.8888e-06	27.905	0.00023014	0.00024783	6.9795e-05	1171.9	2.7563e-06	2.6219e-06	1239.4	248.05	2.7583e-06	2.6338e-06	308.44	86.477	66.619	19.701	2.6141e-06	27.99	161.469	88.295	53.375	-2.252	189.921	143.449	-2.004	4.913	191.387	127.963	4.902	10.995	11.421	17.877	142.700	18.020	-8191	255	
753.433	1	1	0	0	0.27592	0.12435	0.16042	0.23825	0.26587	0.18747	0.30229	0.30357	0.11576	0.049563	0.22538	0.3108	0.17729	0.1923	0.048519	0.32729	-2.7333	-3.25	-3.1833	-3.0667	-3.375	-3.2792	-3.5333	-3.3563	-3.0479	-3.3958	-3.4167	-2.9125	-3.2375	-2.9562	-3.2812	-3.4313	267.419	62.291	333.035	4.871	14.605	20.995	303.055	141.972	177.549	226.158	196.908	324.747	67.065	266.946	92.863	12.967	0.00011996	0.00028752	4.3297e-05	1190.8	1.7612e-06	2.7337e-06	1264.9	249.35	1.7435e-06	2.6784e-06	312.02	85.681	66.027	19.493	3.0398e-06	27.418	0.00022411	0.00023354	6.5755e-05	1169.5	2.6615e-06	2.5048e-06	1239.9	247.59	2.5831e-06	2.5141e-06	308.53	86.285	66.427	19.646	2.5404e-06	27.855	148.811	92.971	126.420	-2.087	163.074	129.898	-2.023	4.694	187.436	151.007	4.833	11.401	11.778	18.213	129.120	18.055	-8191	255	
753.554	1	1	0	0	0.1325	0.13388	0.1168	0.17766	0.11341	0.063502	0.10978	0.18102	0.053893	0.078589	0.09383	0.1497	0.22215	0.041154	0.090445	0.24683	-2.8125	-3.1688	-3.1458	-3.0292	-3.2979	-3.2125	-3.1167	-3.2375	-3.1042	-3.3667	-3.2625	-3.05	-3.3146	-3.3042	-3.15	-3.3937	332.686	15.169	247.324	287.294	292.885	328.548	232.210	325.182	161.739	337.074	192.194	133.807	284.899	289.355	334.264	256.692	0.00012797	0.00042444	8.0729e-05	1190	1.9436e-06	2.8171e-06	1256.1	249.78	2.33e-06	2.3048e-06	311.64	85.413	66.094	19.571	3.2532e-06	27.736	0.00021618	0.00022401	6.3855e-05	1166.5	2.5334e-06	2.4539e-06	1234.8	247.47	2.4859e-06	2.4019e-06	308.02	86.214	66.256	19.659	2.4481e-06	27.917	158.465	67.874	92.532	-2.466	158.538	110.231	-2.026	4.763	175.192	126.849	4.741	11.075	11.715	18.097	137.399	18.135	-8191	255	
753.648	1	1	0	0	0.16229	0.44336	0.058197	0.25316	0.22128	0.11598	0.10137	0.19246	0.11563	0.1411	0.1663	0.12069	0.14895	0.16178	0.22764	0.12335	-2.7	-3.0104	-3.3042	-3.2875	-3.475	-3.2062	-3.15	-3.5604	-3.1583	-3.3375	-3.5438	-3.2	-3.2854	-3.3667	-3.0812	-3.3542	141.395	160.775	36.223	335.219	168.250	321.382	345.213	-4.446	327.514	59.239	279.660	280.034	197.003	318.948	263.285	86.576	0.00011781	0.0002502	0.00010461	1191.6	2.0994e-06	3.2182e-06	1258.5	249.51	1.6382e-06	2.9067e-06	310.48	85.198	66.297	19.644	3.4882e-06	27.609	0.00022061	0.00022883	6.0491e-05	1166.7	2.5705e-06	2.4419e-06	1234.7	247.19	2.4897e-06	2.4232e-06	307.72	86.083	66.436	19.658	2.5166e-06	27.911	148.966	77.680	54.924	-2.161	181.262	152.895	-1.937	4.812	149.550	140.440	4.743	11.259	11.453	18.124	137.937	18.352	-8191	255	
753.744	1	1	0	0	0.23869	0.15367	0.24436	0.22704	0.19266	0.21576	0.18099	0.0073756	0.016367	0.29023	0.16236	0.077803	0.085007	0.069774	0.14108	0.082655	-2.5146	-3.0729	-3.2896	-3.2208	-3.3792	-3.3125	-3.0125	-3.4062	-3.2479	-3.1708	-3.6229	-3.1458	-3.2708	-3.3771	-3.0187	-3.425	109.948	261.023	328.225	286.034	64.913	188.046	291.917	125.239	208.429	188.541	257.123	304.132	162.569	121.009	290.262	-1.226	0.00012113	0.00021844	6.9301e-05	1191.9	1.7769e-06	3.6887e-06	1258.4	250.02	2.5721e-06	2.2147e-06	311.29	85.468	66.266	19.452	3.3323e-06	27.747	0.00021783	0.00022705	6.3457e-05	1167.2	2.6698e-06	2.5141e-06	1235.8	247.67	2.6855e-06	2.6515e-06	308.12	86.303	66.718	19.668	2.7409e-06	28.058	159.265	117.360	89.889	-2.383	173.048	136.665	-2.058	4.786	154.741	116.601	4.542	11.271	11.732	18.102	128.222	18.077	-8191	255	
753.841	1	1	0	0	0.0096161	0.12889	0.075016	0.15407	0.1716	0.17393	0.40183	0.096974	0.13134	0.26417	0.13456	0.10426	0.16533	0.19777	0.059073	0.14931	-2.8833	-3.0687	-3.2062	-3.0875	-3.3812	-3.3354	-3.2167	-3.5042	-3.3521	-3.0979	-3.3937	-3.325	-3.2396	-3.1833	-2.9771	-3.4583	173.039	72.434	288.037	335.713	33.659	165.853	283.938	276.305	257.333	0.639	276.543	340.865	335.052	315.080	138.936	76.890	0.00012206	0.00037279	0.00010243	1194.8	2.6081e-06	3.8271e-06	1265.2	250.75	2.1983e-06	3.3861e-06	312.46	85.952	66.628	19.732	2.3199e-06	28.1	0.0002255	0.00024853	7.0398e-05	1171.1	2.9331e-06	2.6901e-06	1243.2	248.69	2.9102e-06	2.7815e-06	309.35	86.689	66.894	19.822	2.9336e-06	28.243	151.600	71.938	92.320	-2.345	155.661	146.989	-2.110	4.905	140.431	128.710	4.607	10.967	11.465	18.125	142.207	18.137	-8191	255	
753.961	1	1	0	0	0.1275	0.10948	0.30167	0.32817	0.094673	0.22485	0.11454	0.10927	0.10763	0.19534	0.25506	0.1897	0.04163	0.027047	0.13851	0.33977	-2.9167	-2.9313	-3.3187	-3.3729	-3.2833	-3.3812	-3.1729	-3.3542	-3.5125	-3.1188	-3.3104	-3.1896	-3.2104	-3.4771	-3.0521	-3.2917	89.641	23.073	89.895	304.793	112.584	62.736	198.799	216.906	10.915	334.854	-11.986	15.218	283.690	50.498	132.421	59.634	0.00014436	0.00022446	0.00010213	1205.6	2.9979e-06	4.382e-06	1278.7	253.5	1.6522e-06	7.2158e-06	316.73	86.935	67.443	19.895	4.9779e-06	28.166	0.00024614	0.00026975	7.5625e-05	1182.2	3.1278e-06	3.0407e-06	1255.1	251.46	3.2967e-06	3.2775e-06	313.32	87.398	67.69	20.028	3.3686e-06	28.376	156.530	53.698	57.034	-2.344	160.483	130.754	-2.155	4.810	182.176	141.114	4.521	11.154	11.619	17.767	145.387	18.124	-8191	255	
754.033	1	1	0	0	0.37781	0.20634	0.16501	0.24698	0.12935	0.06797	0.11587	0.096233	0.13525	0.1878	0.15818	0.13021	0.2628	0.1457	0.20208	0.14195	-2.7917	-2.9792	-3.35	-3.1833	-2.9979	-3.5396	-3.2646	-3.2479	-3.3438	-3.1354	-3.3458	-3.1	-3.0708	-3.2708	-3.0792	-3.2562	55.304	312.200	199.221	344.196	18.360	282.512	192.294	294.862	10.101	236.490	202.550	62.801	311.745	252.346	31.255	4.490	0.00012933	0.00010574	9.8318e-05	1217	2.7196e-06	4.2451e-06	1286.6	255.08	1.778e-06	4.95e-06	317.36	86.993	67.367	19.9	2.0806e-06	28.06	0.00026266	0.00030441	8.3567e-05	1193.4	3.3728e-06	3.1758e-06	1262	252.82	3.2819e-06	3.2592e-06	314.31	87.695	67.764	20.019	3.1945e-06	28.402	152.979	95.482	75.911	-2.401	168.480	128.041	-2.090	4.712	158.286	126.817	4.558	11.188	11.146	17.886	147.083	17.918	-8191	255	
754.129	1	1	0	0	0.16553	0.14675	0.26729	0.19002	0.29664	0.09304	0.35163	0.050759	0.058922	0.046747	0.2335	0.30272	0.072453	0.28952	0.29222	0.026452	-2.65	-3.0438	-3.2396	-3.5396	-3.0438	-3.4	-3.1083	-3.3271	-3.4979	-2.9542	-3.3417	-2.9146	-2.9292	-3.4896	-3.1854	-3.1396	124.788	233.288	296.448	313.972	225.897	156.156	308.189	49.978	176.419	80.501	219.540	195.046	274.778	343.037	189.663	309.260	0.00014541	0.00036056	5.1468e-05	1214.8	1.3401e-06	2.039e-06	1282.7	255.73	1.5354e-06	3.3185e-06	317.84	87.149	67.275	19.822	1.6954e-06	28.223	0.00026083	0.0002816	7.5831e-05	1192.8	3.1555e-06	3.0287e-06	1260.2	253.18	3.0191e-06	3.0273e-06	314.53	87.64	67.746	19.989	3.0822e-06	28.425	156.211	82.654	91.542	-2.432	189.365	138.407	-2.037	4.466	154.873	121.426	4.702	11.413	11.151	17.977	178.517	17.842	-8191	255	
754.225	1	1	0	0	0.02523	0.15356	0.21535	0.13983	0.1208	0.25038	0.1388	0.28318	0.18113	0.24236	0.22436	0.072721	0.097337	0.14235	0.22476	0.30142	-2.9646	-3.0729	-3.2375	-3.3375	-2.9479	-3.6167	-3.3625	-3.0333	-3.375	-3.0083	-3.3792	-3.2438	-3.0042	-3.3187	-3.2292	-3.2229	314.550	30.153	132.760	308.481	32.349	150.804	340.174	339.742	334.050	63.887	282.826	-5.104	10.249	24.960	217.351	283.440	0.00012977	0.00039626	8.6829e-05	1216	3.2487e-06	2.8536e-06	1282.4	254.79	8.2549e-07	1.7566e-06	317.03	87.035	67.269	19.894	2.6056e-06	28.038	0.00025265	0.00028484	7.8592e-05	1193.8	3.1348e-06	2.925e-06	1261.1	252.72	3.0655e-06	3.0422e-06	314.39	87.628	67.579	19.969	3.0072e-06	28.31	150.740	57.006	65.063	-2.293	190.539	119.353	-2.136	4.767	276.310	156.140	4.678	11.310	11.288	17.966	117.679	17.944	-8191	255	
754.346	1	1	0	0	0.15107	0.19256	0.11776	0.029974	0.1117	0.15534	0.24861	0.17658	0.11035	0.16998	0.15476	0.1935	0.031701	0.17489	0.1812	0.12857	-2.9479	-2.9313	-3.2208	-3.5417	-3.0833	-3.1667	-3.4917	-3.2562	-3.3937	-3.1437	-3.3771	-3.3	-3.0583	-3.3333	-3.2104	-3.2646	165.282	7.252	331.542	-10.838	281.714	337.220	255.574	289.409	227.688	231.948	55.825	21.252	260.117	5.816	146.402	14.894	0.0001351	0.00037384	7.2739e-05	1218.3	2.587e-06	3.2785e-06	1287.5	256.11	2.0123e-06	2.2765e-06	317.96	86.938	67.655	19.9	3.1638e-06	28.05	0.00025175	0.00028458	7.7332e-05	1192.5	3.1337e-06	3.0008e-06	1259.9	253.24	3.1531e-06	3.0122e-06	313.98	87.476	67.68	20.003	3.1498e-06	28.354	157.473	73.599	75.419	-2.428	175.212	145.593	-1.997	4.663	165.609	108.514	4.291	11.109	10.999	18.055	152.737	17.674	-8191	255	
754.442	1	1	0	0	0.083116	0.13447	0.063415	0.15998	0.20611	0.35917	0.24006	0.14533	0.14183	0.16105	0.02247	0.17352	0.17755	0.1238	0.055896	0.043682	-2.7958	-3.0583	-3.0229	-3.5125	-3.0646	-3.3271	-3.4146	-3.2833	-3.4938	-3.3146	-3.2521	-3.4562	-2.9229	-3.1292	-3.1833	-3.125	294.628	333.379	-10.497	337.177	74.197	163.674	290.648	160.525	134.598	153.920	311.722	210.506	125.564	328.799	112.601	210.544	0.00013871	0.00034885	0.00010443	1217.3	2.4199e-06	4.34e-06	1283.3	255.02	1.22e-06	2.6478e-06	317.4	87.55	67.291	19.888	2.1071e-06	28.241	0.00025139	0.0002879	7.5861e-05	1191.8	3.1427e-06	2.9845e-06	1259.9	252.77	2.9971e-06	2.9858e-06	313.89	87.537	67.292	19.969	2.972e-06	28.305	163.356	58.413	61.800	-2.349	161.988	161.030	-1.890	4.850	148.761	113.848	4.656	11.075	11.501	18.003	147.343	18.180	-8191	255	
754.536	1	1	0	0	0.24822	0.16771	0.10211	0.15187	0.029768	0.044075	0.14623	0.22789	0.15453	0.20157	0.10113	0.26328	0.099157	0.21809	0.22323	0.069136	-2.9125	-3.0187	-3.3438	-3.6292	-3.2083	-3.3458	-3.3396	-3.2375	-3.3708	-2.95	-3.1063	-3.4146	-3.2042	-3.425	-3.3042	-2.9104	279.398	327.340	40.999	240.705	119.304	31.013	281.213	274.276	33.526	149.486	271.246	327.605	334.040	-12.196	179.538	3.233	0.00013773	0.00034123	0.00014962	1211.5	2.3945e-06	2.7407e-06	1274.6	253.85	1.9484e-06	3.4265e-06	315.97	86.651	66.629	19.709	3.4343e-06	27.989	0.0002501	0.00026631	7.1019e-05	1188	2.9333e-06	2.8024e-06	1255.8	251.78	2.8549e-06	2.7549e-06	312.79	87.139	67.018	19.843	2.7164e-06	28.167	163.814	91.577	87.973	-2.220	165.206	185.095	-2.117	4.849	162.773	163.967	4.566	11.150	11.088	18.255	128.992	18.196	-8191	255	
754.634	1	1	0	0	0.2177	0.19333	0.22635	0.29908	0.2265	0.21518	0.33162	0.14869	0.23555	0.077921	0.081362	0.22526	0.13125	0.04065	0.070232	0.15207	-2.9146	-3.2896	-2.9458	-3.5062	-3.0229	-3.2104	-3.3646	-3.1437	-3.3417	-3.3646	-3.1354	-3.35	-3.0229	-3.2938	-3.1583	-3.0729	165.470	164.752	300.238	226.321	221.688	273.600	280.029	318.037	36.938	34.769	57.385	23.298	152.303	2.545	329.537	138.135	0.00013897	0.00039573	9.098e-05	1208.5	2.6228e-06	2.0234e-06	1274.1	253.25	8.2927e-07	2.3217e-06	315.09	86.562	66.996	19.566	2.373e-06	27.894	0.00023093	0.00024636	6.8534e-05	1182.9	2.8898e-06	2.5638e-06	1248	251.06	2.7399e-06	2.5983e-06	311.82	86.893	67.067	19.764	2.4747e-06	28.05	146.931	77.692	63.976	-2.296	163.426	139.616	-2.199	4.699	172.780	98.381	4.497	11.333	11.579	18.429	173.962	18.172	-8191	255	
754.729	1	1	0	0	0.18754	0.14913	0.090775	0.2335	0.093054	0.12288	0.035783	0.18108	0.11449	0.2625	0.21776	0.16551	0.074888	0.1117	0.045677	0.076103	-3.0958	-3.2417	-2.9292	-3.65	-3.2021	-3.0396	-3.5417	-3.0167	-3.3312	-3.1271	-3.1896	-3.3708	-2.9583	-3.1979	-3.4625	-2.9417	84.663	174.267	17.150	257.534	109.791	218.563	53.244	222.128	322.939	159.469	333.928	280.437	115.098	142.300	317.181	45.135	0.00012285	0.00035173	0.00010956	1202.4	1.5184e-06	3.629e-06	1271.5	252.35	2.1589e-06	4.1308e-06	314.66	85.871	66.43	19.614	3.281e-06	27.784	0.00021922	0.00023554	6.324e-05	1177.8	2.668e-06	2.4964e-06	1245.8	249.76	2.5728e-06	2.4177e-06	310.29	86.302	66.69	19.686	2.3763e-06	27.988	155.920	85.336	80.653	-2.481	161.878	150.489	-1.942	4.666	159.290	180.994	4.660	11.535	11.440	17.871	150.767	18.062	-8191	255	
754.827	1	1	0	0	0.12944	0.13092	0.1073	0.040554	0.027168	0.034364	0.32174	0.11576	0.28201	0.17003	0.047383	0.060719	0.15121	0.048914	0.22089	0.019973	-3.0729	-3.3521	-2.9938	-3.3854	-3.1271	-3.1979	-3.3667	-3.15	-3.3083	-3.3083	-3.1562	-3.5125	-3.1063	-3.0542	-3.4896	-3.1542	311.465	276.739	27.847	182.784	57.944	172.014	326.910	258.813	244.523	313.043	325.462	76.762	156.790	55.244	205.249	71.746	0.00013707	0.00036573	9.3945e-05	1198.1	1.9387e-06	2.2626e-06	1265	251.72	2.2453e-06	2.3449e-06	311.85	85.764	65.789	19.52	2.2736e-06	27.534	0.00021229	0.0002156	6.1492e-05	1170.7	2.5068e-06	2.3075e-06	1237.5	248.71	2.4442e-06	2.2959e-06	308.63	86.181	66.268	19.662	2.2763e-06	27.842	150.337	77.126	74.461	-2.129	158.819	179.264	-1.901	5.030	148.146	107.836	4.747	11.482	11.507	18.311	157.952	18.117	-8191	255	
754.945	1	1	0	0	0.037673	0.054359	0.19254	0.32639	0.23565	0.26943	0.28148	0.2792	0.19694	0.25251	0.26984	0.11876	0.14062	0.17052	0.14073	0.12053	-2.6625	-3.4125	-3.125	-3.3187	-3.2958	-3.2833	-3.4521	-3.2562	-3.3542	-3.3583	-2.9917	-3.3563	-3.2917	-3.1208	-3.3187	-3.4062	227.240	339.796	237.075	264.367	-7.734	258.258	315.104	288.944	30.582	313.118	310.800	244.627	79.111	62.740	58.284	34.514	0.000143	0.00035061	9.3682e-05	1188.8	3.3327e-06	2.0465e-06	1255.7	249.5	1.1637e-06	3.1324e-06	313.3	85.722	66.109	19.511	1.2737e-06	27.964	0.00021054	0.00021189	5.6728e-05	1166.1	2.3506e-06	2.1642e-06	1232.7	247.58	2.3766e-06	2.2352e-06	308.72	86.156	66.418	19.653	2.2038e-06	27.898	152.345	68.868	53.147	-2.187	154.652	139.133	-2.165	5.035	188.227	155.737	4.723	11.146	11.848	18.452	154.655	18.230	-8191	255	
755.042	1	1	0	0	0.17177	0.16478	0.17823	0.087499	0.20397	0.022917	0.30535	0.14002	0.22194	0.10555	0.20731	0.11628	0.0081684	0.083085	0.12109	0.21307	-2.7062	-3.4083	-3.0146	-3.6354	-3.0167	-2.8896	-3.5479	-3.1688	-3.1708	-3.6604	-3.2396	-3.2229	-3.3458	-3.1813	-3.1896	-3.2062	21.087	261.488	320.783	300.543	259.531	225.654	231.220	276.049	270.218	110.527	342.734	324.671	48.749	309.365	-6.025	268.516	0.00011593	0.00041308	8.9676e-05	1191.3	3.218e-06	1.274e-06	1257	249.46	1.3348e-06	3.1887e-06	312.16	86.069	66.041	19.499	3.355e-06	27.721	0.00020271	0.00020166	5.7669e-05	1164	2.4188e-06	2.2386e-06	1234.6	247.64	2.4014e-06	2.1508e-06	308.58	86.433	66.225	19.641	2.2712e-06	27.881	157.425	65.206	105.677	-2.203	187.879	192.701	-1.915	4.478	119.291	163.430	4.511	11.289	11.187	18.204	125.997	18.197	-8191	255	
755.138	1	1	0	0	0.27545	0.14509	0.12444	0.093544	0.091558	0.24271	0.053214	0.18302	0.16738	0.16345	0.12134	0.12705	0.1049	0.26594	0.089456	0.026899	-2.5333	-3.3208	-3.0333	-3.2562	-3.3	-3.1979	-3.4646	-3.3271	-3.0979	-3.3021	-3.2104	-3.2917	-3.15	-3.1813	-3.3792	-3.2313	36.574	-7.963	214.163	337.006	297.552	249.760	285.841	205.064	23.105	301.977	214.720	69.961	116.643	244.246	86.052	65.466	0.00013794	0.00035765	9.8621e-05	1189.8	2.3481e-06	3.074e-06	1256.5	250.32	2.3631e-06	5.0202e-06	313.55	85.711	66.012	19.549	2.2949e-06	27.741	0.00020747	0.00020405	5.7633e-05	1165.6	2.3929e-06	2.2562e-06	1233.8	247.44	2.3503e-06	2.227e-06	308.35	86.248	66.111	19.629	2.1922e-06	27.899	156.238	78.745	63.755	-2.255	140.467	143.922	-1.867	4.839	152.872	121.181	4.745	11.527	11.270	18.471	141.808	18.090	-8191	255	
755.234	1	1	0	0	0.18183	0.11204	0.11378	0.22564	0.17015	0.07876	0.097408	0.13136	0.16504	0.10786	0.096654	0.22172	0.44104	0.22065	0.13525	0.1661	-2.5083	-3.2729	-3.1146	-3.225	-3.2104	-2.8917	-3.4813	-3.3979	-3.1208	-3.3875	-3.0479	-3.2604	-3.3854	-2.8979	-3.225	-3.4104	88.633	89.718	167.122	338.079	149.062	235.111	306.578	270.039	12.652	17.120	-7.507	330.924	303.798	292.455	28.042	282.575	0.00013531	0.00016262	5.9816e-05	1184.8	2.7344e-06	2.9754e-06	1253.9	249.93	1.2923e-06	2.2263e-06	311.97	85.736	65.909	19.575	2.9799e-06	27.651	0.00019691	0.00020357	5.8386e-05	1160.8	2.3983e-06	2.2307e-06	1232	247.46	2.3252e-06	2.1719e-06	307.8	85.959	66.112	19.656	2.3145e-06	27.857	155.511	84.974	87.724	-2.278	184.843	148.378	-1.867	4.847	180.263	156.700	5.022	11.360	11.293	18.131	150.936	18.665	-8191	255	
755.330	1	1	0	0	0.18356	0.076027	0.22018	0.15539	0.21928	0.19937	0.067947	0.16465	0.042322	0.34523	0.11468	0.26323	0.22933	0.089443	0.096409	0.13198	-2.6333	-3.5083	-3.1625	-3.2042	-3.3042	-3.0354	-3.6021	-3.3979	-3.1771	-3.2438	-3.1937	-3.3271	-3.4146	-3.175	-3.3542	-3.2313	259.015	267.323	299.420	254.289	333.826	126.304	303.801	165.210	116.638	141.051	111.032	334.173	-6.553	192.795	22.548	208.769	0.00014092	0.00023977	8.0181e-05	1186.6	3.1267e-06	2.7688e-06	1253.5	250.54	1.954e-06	3.418e-06	312.17	85.256	66.267	19.416	2.5961e-06	27.719	0.00020147	0.0002082	5.7434e-05	1161.4	2.3933e-06	2.2854e-06	1231.4	247.27	2.3315e-06	2.1208e-06	307.7	85.918	66.305	19.584	2.32e-06	27.872	154.796	63.156	56.358	-2.161	171.986	152.065	-1.971	4.846	186.112	154.866	4.676	11.427	11.511	18.154	120.712	18.090	-8191	255	
755.426	1	1	0	0	0.14868	0.072621	0.31291	0.19549	0.093038	0.086017	0.16409	0.068971	0.13762	0.078664	0.14377	0.099655	0.23389	0.07154	0.24248	0.12276	-2.6688	-3.2687	-3.2438	-3.2188	-3.5104	-2.9896	-3.3292	-3.4167	-2.8646	-3.3354	-3.4896	-3.3104	-3.475	-3.1562	-3.2167	-3.3771	256.034	341.545	297.650	316.752	135.216	257.315	10.734	241.833	209.237	308.374	212.318	14.509	279.182	-0.158	10.923	132.472	0.00012813	0.00026874	6.6487e-05	1186.8	1.968e-06	2.575e-06	1256.1	250.37	2.0673e-06	1.5336e-06	310.67	84.574	66.044	19.562	3.6818e-06	27.74	0.00020571	0.00020628	5.8688e-05	1160.7	2.4005e-06	2.3046e-06	1231	247.59	2.3474e-06	2.2172e-06	308.03	85.807	65.968	19.624	2.349e-06	27.931	153.634	87.863	65.725	-2.381	145.233	137.516	-1.968	4.933	155.886	138.726	4.730	11.476	11.314	18.430	133.035	18.166	-8191	255	
755.522	1	1	0	0	0.10331	0.044344	0.11208	0.13401	0.078191	0.022055	0.059016	0.12198	0.3031	0.20091	0.20426	0.14915	0.10684	0.33836	0.19772	0.26048	-2.7333	-3.3167	-3.2104	-3.25	-3.5333	-3.0542	-3.3646	-3.5458	-3.1083	-3.375	-3.4146	-3.225	-3.4229	-3.0083	-3.2896	-3.3438	324.685	190.554	75.224	270.972	115.849	341.025	41.721	208.711	211.301	113.672	277.069	15.008	90.356	210.221	314.271	254.319	0.00012454	0.00029105	7.3749e-05	1184.8	2.7244e-06	4.6564e-06	1254.8	248.82	1.4984e-06	3.8855e-06	311.94	85.634	65.582	19.594	2.4441e-06	27.621	0.00020028	0.00020133	5.5908e-05	1160.3	2.4226e-06	2.2571e-06	1229.7	246.57	2.3725e-06	2.2153e-06	307.77	86.087	66.204	19.626	2.2636e-06	27.895	157.945	68.946	82.311	-2.245	173.569	130.968	-1.835	4.854	147.074	130.637	4.743	11.587	11.117	18.110	154.079	17.816	-8191	255	
755.618	1	1	0	0	0.062591	0.11507	0.2285	0.13823	0.14939	0.2335	0.14017	0.13218	0.11461	0.040917	0.07922	0.30157	0.15369	0.16216	0.19625	0.041313	-2.6979	-3.125	-3.2562	-2.9771	-3.6375	-3.2979	-3.2271	-3.3563	-3.2313	-3.3771	-3.2542	-3.1479	-3.35	-3.1562	-3.2313	-3.5958	64.603	76.279	217.513	58.251	14.733	302.180	299.662	339.174	162.348	178.147	-0.326	232.170	60.952	246.158	309.600	19.025	0.00011996	0.00034453	7.4178e-05	1184.7	2.9285e-06	2.7916e-06	1251.6	247.52	1.2167e-06	2.6845e-06	312.32	85.227	65.915	19.645	3.7049e-06	27.615	0.00019788	0.00020772	5.4859e-05	1158.3	2.3226e-06	2.2022e-06	1227.8	246.29	2.2088e-06	2.1865e-06	307.21	85.828	65.985	19.627	2.2233e-06	27.833	153.554	74.922	80.327	-2.209	169.216	137.165	-1.933	4.904	181.684	111.722	4.514	11.497	11.617	17.923	152.205	18.036	-8191	255	
755.737	1	1	0	0	0.21755	0.27265	0.044049	0.31625	0.026205	0.16321	0.38733	0.1882	0.079428	0.17327	0.1396	0.15218	0.21349	0.16374	0.32383	0.27264	-2.6542	-3.4354	-3.4208	-3.1188	-3.3542	-3.2354	-3.3292	-3.6375	-3.0187	-3.2479	-3.5771	-3.0708	-3.2125	-3.4396	-3.2438	-3.425	8.968	297.018	310.191	343.114	232.784	121.725	271.615	0.077	-3.056	226.502	146.366	331.952	253.638	77.006	207.690	253.988	0.00012065	0.00032223	5.9185e-05	1183	1.7955e-06	3.4541e-06	1249.7	248.47	1.577e-06	2.2313e-06	310.47	85.535	65.75	19.505	2.3207e-06	27.613	0.00020049	0.00020283	5.4298e-05	1157.3	2.3256e-06	2.1748e-06	1226.3	246.6	2.3221e-06	2.0579e-06	307.24	85.8	66.02	19.596	2.277e-06	27.832	151.177	74.470	82.173	-2.291	145.707	153.677	-2.125	5.071	146.800	128.540	4.687	11.003	11.378	18.273	180.098	18.162	-8191	255	
755.833	1	1	0	0	0.055366	0.17492	0.22338	0.27711	0.021165	0.10745	0.32169	0.3036	0.21649	0.14489	0.071913	0.28137	0.12261	0.010875	0.064507	0.14256	-2.6625	-3.3438	-3.3854	-3.2625	-3.2771	-3.2562	-3.2354	-3.4542	-3.2896	-3.3104	-3.3771	-2.9688	-3.3396	-3.5479	-2.9313	-3.2854	158.085	176.305	244.592	308.252	345.264	60.419	287.710	4.859	20.250	196.903	2.868	311.096	342.464	200.923	268.198	7.164	0.00011475	0.00028804	9.432e-05	1181	3.101e-06	2.434e-06	1245.8	248.47	6.1961e-07	3.4399e-06	309.74	85.02	65.915	19.452	2.6061e-06	27.693	0.00019288	0.00019979	5.4666e-05	1156.8	2.3706e-06	2.1678e-06	1224	246.31	2.306e-06	2.2105e-06	307.01	85.729	65.989	19.564	2.333e-06	27.861	155.592	56.963	69.643	-2.123	191.698	159.848	-2.058	4.872	201.438	136.410	4.825	11.424	11.657	18.545	139.616	17.938	-8191	255	
755.907	1	1	0	0	0.24502	0.25055	0.12219	0.25485	0.092314	0.048706	0.39536	0.15659	0.13419	0.12369	0.15163	0.20345	0.083133	0.19369	0.14797	0.094785	-2.7208	-3.275	-3.3208	-3.4062	-3.4271	-3.5229	-3.4625	-3.2938	-3.1146	-3.1875	-3.5396	-3.2625	-3.0062	-3.1875	-2.8854	-3.3792	-8.473	-6.733	148.025	223.930	95.141	45.150	271.302	145.518	276.895	14.695	286.351	302.489	34.883	239.605	148.813	300.177	0.00011767	0.00025627	0.00014809	1183.2	2.5936e-06	3.2275e-06	1252.1	248.58	1.9945e-06	1.5294e-06	311.2	85.741	65.739	19.493	2.8876e-06	27.694	0.00020276	0.00019857	5.662e-05	1158.3	2.4323e-06	2.2775e-06	1228.9	246.66	2.3887e-06	2.1625e-06	307.38	86.048	66.281	19.633	2.389e-06	27.888	157.876	65.144	89.223	-2.291	162.469	127.959	-1.828	4.768	186.860	120.947	4.754	11.270	11.333	18.042	181.815	18.175	-8191	255	
756.026	1	1	0	0	0.19473	0.11815	0.17592	0.28508	0.21546	0.086628	0.16494	0.32872	0.21986	0.18067	0.26581	0.13351	0.20729	0.10441	0.32529	0.15386	-2.8125	-2.9437	-3.2792	-3.2125	-3.1458	-3.5792	-3.2542	-3.1646	-3.0583	-3.0479	-3.5187	-3.1437	-3.025	-3.5292	-3.2167	-3.3625	188.596	13.969	191.607	335.486	248.133	42.987	287.405	290.507	103.294	245.151	322.140	341.065	275.063	6.110	253.702	196.761	0.00010831	0.00028563	0.0001084	1187.8	2.5562e-06	4.4367e-06	1251.8	248.99	1.8141e-06	3.6311e-06	312.59	85.551	66.126	19.517	2.3591e-06	27.66	0.00020957	0.00020674	5.5842e-05	1160	2.3602e-06	2.2293e-06	1228	246.61	2.284e-06	2.3158e-06	308.05	86.024	66.252	19.604	2.3712e-06	27.817	152.454	91.403	112.499	-2.301	160.745	161.866	-1.897	4.930	157.627	112.904	4.549	11.482	11.301	18.406	163.855	17.771	-8191	255	
756.122	1	1	0	0	0.22472	0.14168	0.16926	0.25791	0.14719	0.14719	0.37144	0.12702	0.26648	0.17638	0.29352	0.1994	0.16978	0.16875	0.16431	0.10426	-2.8667	-2.9896	-3.4604	-3.4708	-3.0542	-3.4458	-3.3417	-3.3667	-3.2354	-3.0625	-3.6479	-3.2771	-3.2042	-3.2667	-3.2354	-3.4625	289.506	345.727	214.431	304.118	305.335	19.521	262.279	303.524	120.095	339.179	317.549	313.260	-9.573	24.690	215.082	149.909	0.00011939	0.00038051	0.0001331	1189.4	2.8901e-06	4.2653e-06	1247.4	249	1.4372e-06	1.8385e-06	310.49	85.213	65.878	19.52	2.0242e-06	27.85	0.00020191	0.00020883	6.0364e-05	1160.5	2.3868e-06	2.309e-06	1228.2	246.78	2.3925e-06	2.3325e-06	307.38	85.943	66.144	19.627	2.3684e-06	27.922	153.614	72.078	65.441	-2.123	204.816	130.266	-1.803	4.803	202.036	181.319	4.655	11.268	11.424	18.335	158.828	17.884	-8191	255	
756.218	1	1	0	0	0.17279	0.087699	0.16984	0.28931	0.072392	0.18077	0.46378	0.16469	0.28503	0.1057	0.23312	0.1472	0.09871	0.11125	0.21166	0.16183	-2.9833	-3.2604	-3.3312	-3.3333	-3.1292	-3.3625	-3.4083	-3.3875	-3.2542	-3.1458	-3.5375	-3.3187	-3.0708	-3.325	-3.2396	-3.3375	252.574	235.072	5.877	322.240	-12.706	88.914	312.295	138.187	123.656	88.121	287.282	198.452	315.739	290.205	230.525	30.302	0.00013974	0.0003536	8.6911e-05	1184.9	3.1572e-06	5.0229e-06	1251.8	249.26	2.5597e-06	1.7039e-06	311.66	85.273	66.209	19.566	2.8538e-06	27.895	0.00020905	0.00022246	5.7036e-05	1161.9	2.5755e-06	2.4148e-06	1232.2	247.22	2.4711e-06	2.3525e-06	307.8	85.956	66.375	19.652	2.4562e-06	28.002	158.455	57.914	79.696	-2.140	183.708	128.060	-2.178	4.959	177.804	119.277	4.728	11.446	11.863	18.350	164.815	17.789	-8191	255	
756.314	1	1	0	0	0.20482	0.18643	0.10906	0.2892	0.1952	0.14697	0.15661	0.3953	0.21112	0.081123	0.15712	0.13857	0.11743	0.13952	0.16573	0.072285	-3	-2.9875	-3.1458	-3.4854	-3.0771	-3.2083	-3.4146	-3.2812	-3.2646	-3.0438	-3.3812	-3.2521	-3.0458	-3.4083	-3.0396	-2.9625	71.668	248.127	296.885	343.227	202.700	149.919	295.440	341.179	302.928	20.707	318.394	205.999	231.514	298.124	-11.865	-4.007	0.00013022	0.00026363	9.6468e-05	1191.3	1.6675e-06	4.0817e-06	1253.8	249.89	1.803e-06	1.8248e-06	313.12	85.619	66.141	19.556	1.8199e-06	27.773	0.00020698	0.00022542	5.8435e-05	1165.5	2.4136e-06	2.4138e-06	1234	247.45	2.4698e-06	2.2558e-06	308.46	86.163	66.252	19.671	2.3867e-06	28.001	150.166	68.316	84.570	-2.296	177.125	139.664	-2.060	4.725	147.705	129.603	4.697	10.930	11.349	18.195	160.864	18.208	-8191	255	
756.435	1	1	0	0	0.25339	0.14044	0.07021	0.15816	0.073831	0.14659	0.11888	0.073848	0.10381	0.12463	0.029664	0.28776	0.23162	0.11608	0.17202	0.14505	-3.0938	-3.1375	-3.2521	-3.2771	-2.8854	-3.3937	-3.3771	-3.1792	-3.3646	-3.0479	-3.4208	-3.5708	-3.0438	-3.1229	-3.075	-3.1771	135.377	29.237	131.814	-6.973	200.606	249.917	261.203	280.808	23.448	143.391	74.504	41.453	244.908	205.400	67.868	80.939	0.00013641	0.00037068	9.1057e-05	1184.7	3.8088e-06	2.2525e-06	1253.3	250.03	2.5035e-06	3.1012e-06	311.79	85.375	66.211	19.652	1.2295e-06	27.633	0.00020249	0.00022101	6.2342e-05	1161.6	2.523e-06	2.3248e-06	1231	247.62	2.4917e-06	2.3477e-06	308.46	86.144	66.27	19.721	2.3434e-06	27.906	160.649	69.812	78.301	-2.102	171.412	153.804	-2.140	5.189	163.764	144.905	4.900	11.284	11.444	18.167	177.714	18.061	-8191	255	
756.507	1	1	0	0	0.22215	0.18514	0.28289	0.25139	0.23623	0.097571	0.13896	0.16973	0.039547	0.037697	0.17214	0.10843	0.15275	0.13389	0.12185	0.13702	-2.825	-2.925	-3.1958	-3.4813	-3.0917	-3.3563	-3.5146	-3.2208	-3.3438	-2.9479	-2.9083	-3.3667	-3.1333	-3.2729	-3.3125	-3.0292	37.961	148.713	214.924	326.178	220.590	141.481	307.290	251.840	24.127	16.104	292.648	58.935	329.680	277.155	12.002	1.374	0.00014349	0.00035519	0.00011656	1187.3	1.2679e-06	4.225e-06	1255.6	248.82	2.2457e-06	2.3563e-06	312.54	85.057	66.195	19.536	3.4093e-06	27.749	0.00021273	0.00021104	5.9291e-05	1163.2	2.5388e-06	2.2766e-06	1233.6	247.18	2.4541e-06	2.3359e-06	308.42	86.008	66.281	19.695	2.3409e-06	28.006	153.461	53.766	77.382	-2.136	163.061	123.953	-1.947	4.717	167.047	138.290	4.634	11.498	11.398	18.308	149.485	18.261	-8191	255	
756.627	1	1	0	0	0.17495	0.36947	0.25282	0.25868	0.097214	0.22563	0.32469	0.091625	0.21903	0.24386	0.056795	0.15982	0.2515	0.013291	0.15799	0.13872	-2.8417	-3.0792	-3.2167	-3.5021	-3.2188	-3.0479	-3.2271	-3.2167	-3.5292	-3.2896	-3.1	-3.3417	-3.1167	-3.3667	-3.3271	-3.0938	165.423	-10.807	71.193	269.539	103.918	180.714	303.792	338.772	69.119	66.596	54.400	21.338	8.830	179.772	165.126	233.936	0.00012537	0.00040997	5.7617e-05	1185.4	3.3693e-06	2.5145e-06	1254.5	250.59	2.2309e-06	1.3237e-06	311.03	85.589	65.946	19.643	4.1999e-06	27.799	0.00021258	0.00022201	5.9249e-05	1161.9	2.5404e-06	2.2458e-06	1231.4	247.54	2.4689e-06	2.315e-06	307.81	86.067	66.315	19.652	2.3293e-06	27.97	154.859	72.576	90.912	-2.298	155.609	149.574	-1.935	4.887	167.127	131.116	4.756	11.421	11.839	18.023	167.511	17.912	-8191	255	
756.722	1	1	0	0	0.066374	0.31801	0.18604	0.29572	0.10759	0.16764	0.35565	0.17104	0.11326	0.034016	0.16381	0.096351	0.25289	0.22878	0.094118	0.051599	-2.8937	-3.1458	-3.1875	-3.5125	-3.0854	-3.2979	-3.2146	-3.0729	-3.2771	-3.2562	-3.0812	-3.3625	-3.1354	-3.4021	-3.3542	-2.9875	205.924	102.245	74.348	307.204	116.603	61.725	300.120	22.727	198.331	149.049	322.666	-9.302	335.542	301.077	324.302	313.403	0.00013488	0.00018046	0.00011799	1184.8	2.647e-06	1.7745e-06	1255.5	249.25	1.2079e-06	3.8242e-06	311.87	85.657	66.419	19.535	2.008e-06	27.962	0.0002085	0.00021925	5.8839e-05	1161.1	2.4762e-06	2.3637e-06	1232	247.71	2.4155e-06	2.3395e-06	308.48	86.15	66.387	19.672	2.2969e-06	27.966	157.956	83.435	84.822	-2.364	188.380	116.706	-2.163	4.783	163.167	141.284	4.619	11.177	11.252	18.194	170.871	17.985	-8191	255	
756.818	1	1	0	0	0.021958	0.09391	0.099273	0.22139	0.033257	0.13042	0.21522	0.21311	0.041069	0.14917	0.13446	0.022034	0.11433	0.16678	0.30174	0.24666	-2.7604	-3.225	-3.15	-3.4562	-3.0333	-3.3729	-3.5375	-3.2562	-3.3521	-3.1125	-3.0604	-3.3958	-2.8958	-3.1667	-3.4021	-3.1792	59.014	339.074	76.968	311.711	269.884	315.841	326.292	262.889	208.037	193.632	282.367	285.544	25.000	167.992	43.193	6.431	0.00013465	0.00037218	0.00011639	1182.6	1.9402e-06	9.2439e-07	1251.7	249.93	1.9083e-06	2.9806e-06	312.36	85.033	65.827	19.602	3.4464e-06	27.779	0.00021203	0.00021048	5.9309e-05	1159.4	2.4922e-06	2.3109e-06	1231.2	247.11	2.4207e-06	2.303e-06	308.38	86.01	66.172	19.681	2.2953e-06	27.926	153.407	79.177	95.608	-2.136	153.369	121.351	-2.018	4.790	163.297	145.927	4.593	11.419	11.332	17.956	155.460	18.042	-8191	255	
756.914	1	1	0	0	0.16117	0.25958	0.017797	0.26698	0.21199	0.061842	0.2267	0.34584	0.20466	0.17646	0.21471	0.083911	0.13977	0.052178	0.22189	0.011878	-2.6708	-3.1292	-3.1583	-3.3521	-3.0375	-2.8979	-3.6937	-3.1833	-3.2458	-3.25	-2.9396	-3.1667	-3.0646	-3.1813	-3.3917	-3.0354	311.285	34.875	68.554	13.796	280.725	289.029	217.692	317.325	316.598	230.584	212.678	261.420	307.211	254.194	24.069	159.767	0.00013259	0.00023394	0.0001116	1184.7	2.532e-06	1.6359e-06	1255.3	249.6	1.5151e-06	2.3218e-06	311.42	85.249	65.915	19.622	2.9467e-06	27.665	0.00020711	0.00021391	5.8597e-05	1159.4	2.4965e-06	2.2888e-06	1231.6	247.72	2.3922e-06	2.3385e-06	308.11	86.155	66.206	19.661	2.3103e-06	27.932	145.237	82.538	97.046	-2.133	153.424	135.430	-1.862	4.576	182.720	125.944	4.655	11.254	11.094	18.618	157.257	17.820	-8191	255	
757.035	1	1	0	0	0.23474	0.11409	0.14621	0.11293	0.19268	0.085678	0.2187	0.41101	0.15022	0.087763	0.33239	0.30379	0.18396	0.042273	0.11665	0.16486	-2.6542	-3.1354	-2.8208	-3.3271	-3.1792	-3.0417	-3.6521	-3.1521	-3.225	-3.4646	-3.05	-3.1875	-3.1208	-3.475	-3.3208	-3.1667	212.033	113.198	202.601	260.158	228.950	182.264	287.653	328.929	61.002	45.186	310.841	254.588	86.255	187.413	89.157	247.514	0.00013429	0.0003405	3.5418e-05	1184.5	1.6695e-06	2.4466e-06	1257.1	250.27	8.6143e-07	2.8991e-06	313.02	85.377	65.917	19.556	2.3774e-06	27.898	0.00021536	0.00021397	5.9104e-05	1163.9	2.5251e-06	2.4393e-06	1233.5	247.47	2.4747e-06	2.3728e-06	308.81	86.215	66.2	19.683	2.4552e-06	27.999	146.824	51.538	36.518	-2.184	169.207	106.930	-2.116	5.015	165.405	129.007	4.579	11.485	11.483	18.283	156.041	17.771	-8191	255	
757.131	1	1	0	0	0.15303	0.061589	0.30757	0.12122	0.07676	0.084419	0.026901	0.17858	0.20184	0.12049	0.258	0.14486	0.048835	0.3532	0.37179	0.059241	-2.75	-3.25	-2.8958	-3.4813	-3.3104	-3.2667	-3.5062	-3.2938	-3.1167	-3.3312	-3.2125	-3.2313	-3.1813	-2.9417	-3.3958	-3.3083	49.226	308.426	-2.951	272.256	140.179	157.594	252.144	337.231	50.483	50.883	249.950	169.080	295.849	138.852	70.106	163.320	0.00012468	0.00028826	9.4958e-05	1191.3	1.6745e-06	2.1739e-06	1256.3	249.98	1.0663e-06	2.0107e-06	313.54	85.646	66.265	19.675	2.9056e-06	27.759	0.00022003	0.00022207	6.2812e-05	1166.4	2.6048e-06	2.5242e-06	1232.7	248.24	2.5851e-06	2.4457e-06	309.71	86.4	66.495	19.801	2.5805e-06	28.027	147.631	49.011	62.427	-2.243	177.595	100.846	-2.097	4.806	195.302	158.260	4.465	11.321	11.029	18.347	158.206	18.258	-8191	255	
757.202	1	1	0	0	0.088055	0.12123	0.14249	0.14635	0.1498	0.18301	0.47822	0.13394	0.069268	0.15906	0.013335	0.18428	0.13621	0.088833	0.16017	0.040581	-2.5438	-3.1729	-3.1562	-3.6042	-3.1979	-3.0938	-3.3208	-3.3896	-3.0625	-3.3958	-3.1958	-3.4479	-3.2125	-2.8917	-3.3812	-3.4562	129.030	110.755	-5.947	330.388	70.092	323.339	257.503	188.383	324.309	153.507	247.113	298.260	289.169	159.442	79.811	301.258	0.0001179	0.00018284	0.00010715	1198.7	2.4978e-06	3.6114e-06	1263.7	252.02	1.2513e-06	2.887e-06	313.24	85.692	66.306	19.741	2.9271e-06	27.873	0.00022475	0.00023361	6.731e-05	1171.4	2.6255e-06	2.5888e-06	1239.3	249.48	2.6759e-06	2.6223e-06	310.21	86.53	66.647	19.784	2.471e-06	28.017	154.962	65.025	71.645	-2.272	176.985	108.713	-2.178	4.872	179.562	133.006	4.650	11.250	11.217	17.946	178.727	17.954	-8191	255	
757.298	1	1	0	0	0.21189	0.15715	0.10418	0.48728	0.09699	0.27875	0.17194	0.20539	0.15416	0.059727	0.1539	0.071205	0.10109	0.27656	0.23783	0.070483	-2.7979	-3.3708	-3.0062	-3.2292	-3.2125	-3.1604	-3.5417	-3.3187	-3.2438	-3.3542	-3.1333	-3.0187	-3.2333	-3.1188	-3.3229	-3.2083	32.553	216.705	199.171	332.954	312.815	55.095	247.740	324.123	146.552	21.102	344.977	61.105	259.665	-1.315	239.219	91.197	0.00011157	0.00031442	0.00010966	1198.9	2.6468e-06	3.4338e-06	1266.6	251.82	1.9602e-06	3.4482e-06	313.52	86.181	66.521	19.673	2.9708e-06	27.874	0.00021998	0.00022553	6.7142e-05	1171.8	2.716e-06	2.4474e-06	1241.7	249.43	2.6689e-06	2.6328e-06	310.26	86.758	66.688	19.755	2.6805e-06	28.042	147.016	67.288	94.716	-2.189	169.148	148.717	-2.054	4.928	159.271	144.561	4.664	11.487	11.678	17.908	148.156	17.875	-8191	255	
757.419	1	1	0	0	0.062529	0.056007	0.16844	0.20874	0.056175	0.069719	0.10072	0.30189	0.16126	0.10971	0.20297	0.16316	0.044021	0.032522	0.17702	0.28924	-2.4938	-3.0854	-2.9562	-3.35	-3.2875	-3.1375	-3.5312	-3.2542	-2.7875	-3.5854	-3.4437	-3.1958	-3.3646	-2.9437	-3.1583	-3.3292	332.391	62.669	333.955	224.919	332.314	228.969	300.540	321.948	278.250	153.564	250.112	45.695	17.125	91.953	240.221	258.347	0.00012411	0.00024818	6.8828e-05	1197.3	2.2728e-06	3.5858e-06	1269.5	253.01	1.4684e-06	2.0868e-06	316.14	86.39	66.588	19.765	2.3829e-06	27.854	0.00023079	0.00023061	6.7763e-05	1175.8	2.7838e-06	2.7054e-06	1248.2	250.44	2.7204e-06	2.7086e-06	311.84	86.82	66.812	19.843	2.5323e-06	28.112	161.030	61.398	92.137	-2.310	176.532	145.422	-2.058	4.811	150.679	100.620	4.410	11.635	11.409	18.187	171.777	17.940	-8191	255	
757.515	1	1	0	0	0.098697	0.096497	0.10634	0.16209	0.12864	0.048805	0.43277	0.16879	0.30828	0.13975	0.31161	0.20586	0.10385	0.32471	0.077507	0.14925	-2.4354	-3.225	-3.225	-3.4	-3.4354	-2.9521	-3.3604	-3.3708	-3.025	-3.1896	-3.4542	-2.9667	-3.3542	-3.0979	-3.1688	-3.3521	165.614	190.243	316.849	297.844	304.523	6.551	261.877	8.230	194.884	170.236	25.846	214.953	196.659	344.558	252.382	287.285	0.0001322	0.00028279	6.7107e-05	1204.4	2.0482e-06	4.3475e-06	1271.8	252.47	2.293e-06	2.0874e-06	314.88	86.642	66.827	19.697	3.0828e-06	27.835	0.00022159	0.0002308	6.4868e-05	1180	2.7029e-06	2.5756e-06	1247.6	250.66	2.6797e-06	2.5952e-06	311.47	86.871	66.998	19.849	2.7555e-06	28.122	153.915	74.013	94.976	-2.342	167.371	136.563	-2.098	4.935	185.131	162.258	4.626	11.559	11.214	18.220	168.532	17.926	-8191	255	
757.610	1	1	0	0	0.082331	0.14573	0.10137	0.49491	0.09509	0.1632	0.083792	0.21031	0.26064	0.17475	0.29319	0.3208	0.27715	0.22342	0.14906	0.10633	-2.6646	-3.2667	-3.2229	-3.175	-3.4042	-3.1375	-3.1312	-3.3438	-3.0938	-3.2521	-3.3854	-3.0312	-3.4292	-3.2458	-3.1729	-3.4375	22.497	209.533	65.804	338.438	2.745	118.254	308.469	294.758	266.116	156.623	307.111	224.876	-4.048	309.460	68.426	88.234	0.00012405	0.00037902	8.079e-05	1204.3	2.7117e-06	3.4089e-06	1269.1	252.74	2.5168e-06	1.6637e-06	316.79	86.357	67.011	19.673	1.667e-06	28.036	0.00023131	0.00024327	6.5375e-05	1179.8	2.7615e-06	2.6675e-06	1248.3	250.65	2.7072e-06	2.6141e-06	312.09	86.904	67.049	19.809	2.5935e-06	28.14	150.292	63.633	72.618	-2.341	183.939	159.692	-1.820	4.834	167.044	144.552	4.519	11.517	11.864	18.239	155.217	17.714	-8191	255	
757.708	1	1	0	0	0.20467	0.19861	0.33494	0.19001	0.13047	0.089849	0.17373	0.18316	0.086308	0.21343	0.39927	0.025332	0.2064	0.060345	0.050613	0.21948	-2.4729	-3.2333	-3.0438	-3.225	-3.2854	-3.1958	-3.275	-3.45	-3.2	-3.2854	-3.5542	-2.9958	-3.1792	-3.1104	-2.9729	-3.1625	150.962	210.967	263.990	302.049	308.307	299.533	274.920	254.656	38.458	340.534	255.887	103.086	141.729	243.699	69.071	248.417	0.00011112	0.00040092	9.7131e-05	1203	2.9542e-06	3.3852e-06	1268.4	252.41	1.7301e-06	2.6149e-06	314.91	86.184	66.397	19.576	3.5524e-06	27.781	0.00022168	0.0002318	6.6756e-05	1176.8	2.5827e-06	2.5194e-06	1244.9	250.23	2.5721e-06	2.4724e-06	310.81	86.547	66.839	19.697	2.4372e-06	27.951	155.629	81.424	112.540	-2.172	198.585	166.186	-1.996	4.940	174.410	180.148	4.478	11.516	11.548	18.127	153.906	18.225	-8191	255	
757.802	1	1	0	0	0.19766	0.12685	0.019335	0.22996	0.17269	0.2337	0.21858	0.1297	0.2208	0.16641	0.17596	0.049783	0.116	0.023968	0.2308	0.14351	-2.6729	-3.1854	-3.2542	-3.1813	-3.2438	-3.1646	-3.2083	-3.2812	-3.0729	-3.3708	-3.3625	-3.0687	-3.2062	-3.3875	-3.1375	-3.275	22.324	319.643	273.380	326.700	86.766	79.875	301.780	230.660	170.549	82.025	28.803	193.548	286.461	192.797	187.018	42.389	0.00013196	0.00034033	6.4905e-05	1191.2	3.0828e-06	2.9377e-06	1258.6	250.82	1.3121e-06	4.0191e-06	310.13	84.591	65.798	19.413	3.4374e-06	27.512	0.00020889	0.00020811	5.6161e-05	1165	2.4314e-06	2.3054e-06	1233.5	247.91	2.4046e-06	2.2215e-06	307.67	85.684	66.185	19.511	2.1383e-06	27.685	156.223	65.245	94.999	-2.227	148.066	134.449	-1.794	4.957	156.780	136.109	4.691	11.643	11.770	18.595	143.546	18.276	-8191	255	
757.898	1	1	0	0	0.21309	0.14379	0.029589	0.14741	0.13829	0.21999	0.13424	0.13797	0.14587	0.10098	0.13508	0.20188	0.18632	0.2969	0.070968	0.17581	-2.775	-3.1333	-3.3604	-3.1646	-3.2146	-3.1813	-3.2417	-3.3604	-3.0458	-3.2083	-3.4333	-2.9417	-3.2229	-3.3083	-2.9958	-3.3208	332.926	216.758	106.075	339.493	191.431	157.268	288.549	255.316	106.912	250.908	8.769	298.740	282.364	69.775	28.731	198.243	0.00012054	0.00040506	5.7168e-05	1172.4	2.5098e-06	2.5935e-06	1236.5	247.43	1.7125e-06	2.6585e-06	308.29	84.287	65.17	19.213	2.496e-06	27.301	0.00019821	0.00020138	5.1711e-05	1149.4	2.1839e-06	2.0594e-06	1215.5	244.43	2.1191e-06	1.9711e-06	303.92	84.792	65.305	19.323	1.9549e-06	27.478	152.158	80.129	70.485	-2.111	165.239	142.051	-1.913	4.835	213.234	146.067	4.571	11.475	11.070	18.755	162.590	18.033	-8191	255	
757.994	1	1	0	0	0.37412	0.12369	0.19559	0.25195	0.2755	0.15322	0.28602	0.27501	0.11234	0.15305	0.23075	0.17152	0.14639	0.24573	0.10403	0.23094	-2.8458	-3.1063	-3.1208	-3.1167	-3.3604	-3.3937	-3.3625	-3.6521	-3.1437	-3.1167	-3.3604	-3.1667	-3.0625	-3.4125	-2.9771	-3.3646	316.587	223.989	106.425	232.262	195.922	339.302	286.466	155.110	164.497	137.995	326.915	343.280	18.995	255.466	162.349	322.122	0.00012439	0.00029704	6.9305e-05	1160.4	2.7491e-06	2.0879e-06	1224.7	244.19	1.7287e-06	1.4424e-06	305.88	84.249	64.634	19.272	2.2478e-06	27.421	0.00018022	0.00017236	4.6532e-05	1136	2.0513e-06	1.8194e-06	1202.9	242.08	2.0345e-06	1.8246e-06	302.79	84.478	65.001	19.285	1.9096e-06	27.454	153.410	83.040	67.043	-2.047	170.625	151.479	-1.890	4.959	147.011	159.805	4.791	11.347	11.539	18.464	124.942	17.895	-8191	255	
758.115	1	1	0	0	0.078261	0.10196	0.063867	0.36659	0.039511	0.12141	0.20848	0.17894	0.17738	0.10738	0.07863	0.18857	0.16039	0.077331	0.34797	0.20255	-2.8146	-3.0729	-3.2292	-3.4104	-3.2146	-3.3708	-3.3208	-3.2208	-3.2375	-3.1229	-3.3771	-3.275	-3.2812	-3.5875	-2.9833	-3.3354	109.620	315.546	8.692	331.736	10.959	98.076	288.356	46.538	164.145	141.667	97.869	328.324	329.901	51.967	264.646	62.753	0.00013852	0.00038445	8.211e-05	1160.5	2.9339e-06	3.0674e-06	1225.1	244.67	2.3898e-06	1.4654e-06	306.91	83.872	64.971	19.08	1.6588e-06	27.165	0.00017702	0.00017846	4.7485e-05	1134	2.0691e-06	1.8724e-06	1201.8	242.21	1.9625e-06	1.9431e-06	302.34	84.482	64.968	19.215	1.8917e-06	27.38	150.323	85.490	106.469	-2.200	161.868	190.466	-1.827	4.901	206.423	130.731	4.692	11.402	11.364	18.894	160.058	18.035	-8191	255	
758.211	1	1	0	0	0.39699	0.067004	0.12857	0.53214	0.14956	0.11733	0.027984	0.077104	0.2457	0.23674	0.18317	0.040138	0.24498	0.035559	0.25125	0.049049	-2.9354	-3.1083	-3.1521	-3.3208	-3.2062	-3.3208	-3.2708	-3.4708	-3.25	-2.9625	-3.4167	-3.1917	-3.2188	-3.4042	-3.2458	-3.375	270.243	345.890	309.363	320.664	71.145	137.143	-10.919	310.656	28.650	217.860	249.442	250.231	52.654	268.495	129.733	306.208	0.00012843	0.00037699	0.0001172	1157	1.7843e-06	3.2954e-06	1221.6	244.36	1.6732e-06	3.8356e-06	304.82	84.158	64.615	19.164	1.0687e-06	27.213	0.00017843	0.00017894	4.9088e-05	1132.1	2.0716e-06	1.8573e-06	1200.7	241.49	1.9919e-06	1.8776e-06	301.66	84.427	64.806	19.247	1.9003e-06	27.355	155.480	71.322	85.918	-2.074	160.596	157.411	-1.972	4.989	191.493	126.398	4.905	11.307	11.725	18.279	134.339	18.557	-8191	255	
758.307	1	1	0	0	0.22073	0.15216	0.08405	0.2293	0.30403	0.16501	0.23331	0.22505	0.075224	0.1591	0.18846	0.18769	0.11484	0.081524	0.14036	0.076672	-2.7562	-3.0083	-3.3979	-3.3792	-3.0625	-3.4188	-3.3896	-3.4042	-3.45	-2.9271	-3.3375	-3.1979	-3.0729	-3.3458	-3.1792	-3.05	-8.428	318.464	193.904	304.611	149.781	234.105	196.228	196.714	8.917	16.868	235.093	275.135	113.255	314.257	293.625	108.067	0.00010619	0.0004016	9.0051e-05	1153.6	1.5193e-06	3.1367e-06	1223.9	244.24	1.2184e-06	2.4097e-06	305.08	83.528	64.847	19.168	3.0888e-06	27.163	0.00017989	0.00017117	4.857e-05	1130	2.0698e-06	1.9214e-06	1200.2	241.63	1.9043e-06	1.7774e-06	301.86	84.45	64.81	19.217	1.9765e-06	27.38	157.898	82.116	78.323	-2.177	177.807	183.140	-1.804	4.859	173.024	132.875	4.861	11.408	11.409	18.333	135.166	18.093	-8191	255	
758.428	1	1	0	0	0.083881	0.1113	0.15386	0.14806	0.14763	0.14642	0.35172	0.15033	0.19074	0.23372	0.092452	0.062415	0.042091	0.086267	0.071025	0.14283	-2.9167	-3.0938	-3.3771	-3.3104	-2.9542	-3.2042	-3.35	-3.4042	-3.2562	-3.0208	-3.225	-3.2833	-3.0938	-3.4208	-3.0208	-3.1896	56.029	298.109	303.395	320.817	287.798	246.056	325.017	343.064	81.341	35.496	271.290	339.836	24.901	49.495	169.020	292.161	0.0001188	0.00027633	9.6067e-05	1151	2.1666e-06	3.8175e-06	1222.3	243.89	1.1872e-06	3.5967e-06	304.82	83.425	64.917	19.21	2.4311e-06	27.388	0.00017368	0.00017479	4.6857e-05	1127.5	2.0639e-06	1.8381e-06	1197.9	241.41	1.9168e-06	1.8529e-06	301.61	84.212	64.852	19.233	1.8815e-06	27.451	157.122	74.492	68.797	-2.217	179.887	159.147	-1.908	4.895	127.174	128.255	4.705	11.512	11.562	18.456	170.281	18.253	-8191	255	
758.499	1	1	0	0	0.21909	0.2459	0.13681	0.18169	0.11297	0.25524	0.065453	0.2408	0.062329	0.13337	0.21782	0.23173	0.015765	0.22631	0.2448	0.21016	-2.9479	-3.1354	-3.2854	-3.4188	-2.925	-3.2938	-3.325	-3.3167	-3.2625	-3.1104	-3.475	-3.25	-3.2062	-3.2417	-3.3104	-3.0146	117.281	173.292	285.310	244.944	262.208	118.055	228.040	246.067	218.802	141.130	309.187	338.481	234.775	287.627	78.355	225.453	0.00012271	0.00037222	8.5282e-05	1151.2	2.3626e-06	1.943e-06	1220.7	242.62	2.1118e-06	3.6319e-06	305.93	83.67	64.306	19.233	1.7648e-06	27.138	0.00017099	0.00016954	4.4464e-05	1126.3	2.0382e-06	1.8412e-06	1198.4	241.27	1.9885e-06	1.8455e-06	301.84	84.235	64.781	19.249	1.8598e-06	27.404	154.895	49.833	77.436	-2.124	177.928	150.294	-2.006	4.865	153.445	141.732	4.879	11.451	11.428	18.213	141.780	18.165	-8191	255	
758.596	1	1	0	0	0.08811	0.22451	0.14052	0.31151	0.1149	0.099124	0.085722	0.16578	0.058505	0.048157	0.317	0.12012	0.06463	0.19139	0.1257	0.35893	-3.0375	-3.3812	-2.975	-3.5042	-3.2313	-3.2771	-3.3396	-3.2021	-3.3979	-3.0792	-3.2958	-3.1875	-3.0792	-3.0938	-3.2521	-3.1625	310.132	271.322	283.609	323.052	261.832	281.856	259.180	269.635	-12.196	157.739	259.146	103.897	328.108	217.840	248.320	327.813	0.00012185	0.00021772	9.7897e-05	1148.5	3.0758e-06	3.397e-06	1215.1	243.09	2.1365e-06	3.2327e-06	305.12	83.619	64.41	19.28	2.6616e-06	27.113	0.00016931	0.00016626	4.3577e-05	1127.2	2.0301e-06	1.7431e-06	1197	241.07	1.8153e-06	1.7802e-06	301.48	84.288	64.768	19.256	1.6864e-06	27.406	156.394	49.856	92.071	-2.046	169.131	165.222	-1.876	4.979	142.533	127.339	4.810	11.614	11.799	18.552	183.103	18.134	-8191	255	
758.715	1	1	0	0	0.22543	0.16654	0.24637	0.16454	0.26687	0.22769	0.058339	0.17111	0.13448	0.28717	0.19396	0.079016	0.15888	0.17485	0.12188	0.16912	-2.775	-3.1583	-2.9646	-3.6396	-2.9479	-3.2188	-3.5479	-3.1292	-3.5625	-3.0667	-3.0146	-3.3875	-3.0625	-3.1854	-3.2396	-3.125	249.242	252.139	100.384	268.853	11.753	339.609	228.995	46.428	77.576	33.157	305.245	124.005	109.920	71.635	257.048	140.534	0.0001373	0.00026071	0.0001234	1151.5	3.0114e-06	4.1058e-06	1225	243.69	2.0893e-06	2.2787e-06	305.93	83.906	64.737	19.137	2.7594e-06	27.298	0.00015873	0.00014415	3.853e-05	1127.7	1.7707e-06	1.5571e-06	1199	241.14	1.6388e-06	1.5241e-06	301.29	84.285	64.699	19.226	1.4678e-06	27.459	159.006	73.367	98.291	-2.256	185.814	133.109	-1.796	5.137	158.148	117.006	4.978	11.790	11.805	18.614	118.404	18.326	-8191	255	
758.811	1	1	0	0	0.19539	0.061663	0.20449	0.26025	0.23202	0.25601	0.25319	0.19732	0.19001	0.22214	0.24282	0.10612	0.27227	0.13279	0.13752	0.14556	-2.8292	-3.1729	-2.9979	-3.3146	-3.0812	-3.1917	-3.3229	-3.2354	-3.2271	-3.2875	-3.0125	-3.3979	-3.1375	-3.275	-3.4042	-3.2729	-2.641	259.123	208.012	238.097	120.287	333.610	322.256	325.010	297.263	19.370	296.249	315.948	79.384	-8.693	27.950	138.834	0.00012106	0.00040639	8.4021e-05	1153.2	2.2628e-06	2.8405e-06	1218.7	242.36	2.1002e-06	3.691e-06	303.52	83.636	64.566	19.23	2.9484e-06	27.312	0.00015074	0.00013494	3.7608e-05	1129.2	1.7059e-06	1.4901e-06	1197.7	241.05	1.5958e-06	1.4238e-06	300.93	84.243	64.729	19.276	1.4854e-06	27.417	159.144	77.318	49.187	-2.158	157.231	153.731	-1.783	4.979	183.125	149.592	4.735	11.505	11.798	18.090	174.221	17.821	-8191	255	
758.907	1	1	0	0	0.16858	0.22923	0.099017	0.25148	0.12368	0.067594	0.35275	0.12344	0.10411	0.15258	0.15182	0.016481	0.23362	0.13493	0.19483	0.19423	-3.0583	-3.3729	-2.9271	-3.3625	-2.9854	-3.3104	-3.6104	-3.0354	-3.3354	-3.4	-3.1979	-3.5187	-2.8292	-3.1396	-3.275	-3.0292	332.841	102.488	9.871	338.948	22.605	137.635	308.909	247.578	16.971	134.997	267.535	258.171	-8.412	289.594	9.027	312.236	0.00011403	0.00029841	9.2798e-05	1155.1	1.7607e-06	3.7603e-06	1222.4	243.61	1.4969e-06	1.5907e-06	305.45	83.931	64.682	19.155	2.8493e-06	27.136	0.00014941	0.00013648	3.803e-05	1127.9	1.6361e-06	1.4467e-06	1199.7	241.21	1.5703e-06	1.3893e-06	301.35	84.392	64.816	19.289	1.5315e-06	27.397	147.136	70.953	73.491	-2.237	165.480	136.478	-1.943	4.988	165.190	146.350	4.910	11.507	11.327	18.271	132.836	18.634	-8191	255	
759.003	1	1	0	0	0.11791	0.19142	0.13169	0.054729	0.28735	0.21254	0.24631	0.23131	0.016855	0.045835	0.18409	0.27903	0.24263	0.25213	0.24615	0.12672	-2.6354	-3.0729	-2.8771	-3.4437	-3.3521	-3.1896	-3.5125	-3.3688	-3.4833	-3.4271	-2.8271	-3.4271	-3.0333	-3.1	-3.4562	-3.2458	271.196	110.128	259.096	11.713	220.804	292.940	313.960	233.723	303.509	311.473	281.748	319.637	122.516	266.295	306.205	315.677	0.00011198	0.00031102	8.8338e-05	1156.1	2.7633e-06	3.5325e-06	1224.9	244	1.7595e-06	3.8525e-06	304.89	84.002	64.95	19.145	2.2084e-06	27.28	0.00015155	0.00013487	3.9688e-05	1130.6	1.7212e-06	1.5127e-06	1201	241.8	1.7708e-06	1.5663e-06	302.21	84.477	64.892	19.232	1.5959e-06	27.482	159.424	72.440	66.606	-2.157	190.089	138.746	-2.040	4.989	155.932	146.177	4.678	11.589	11.552	18.581	141.751	18.057	-8191	255	
#DATA ENDS
