BOXY.EXE: ISS Imagent and Oximeter Data Acquisition Program Version 0.80
Ascii Record File

#ACQ INFORMATION
2  Detector Channels 
16  External MUX Channels 
1  Auxiliary Channels 
5000  Waveform (CCF) Frequency (Hz)
1  Waveforms Skipped 
30  Waveforms Averaged 
1  Cycles Averaged 
16  Acquisitions per Waveform 
10.0806  Updata Rate (Hz) 

#FILE INFORMATION
TRUE -- External MUX Channel results are PARSED.
FALSE -- AC DC and Phase are NOT grouped.
TRUE -- Companion Program Settings File CREATED.
FALSE -- AC data not excluded
FALSE -- DC data not excluded
FALSE -- Phase data not excluded
FALSE -- Auxillary Chn. data not excluded
Tab delimiters

#CALIBRATION STATE
TRUE -- Waveform Calibration Values APPLIED.


#AUX CALIBRATION VALUES
Val Type	aux-1	

Term	1.0000e+00	
Factor	0.0000e+00	


#WF CALIBRATION VALUES
A = Detector Channel
Val Type	A-AC1	A-AC2	A-AC3	A-AC4	A-AC5	A-AC6	A-AC7	A-AC8	A-AC9	A-AC10	A-AC11	A-AC12	A-AC13	A-AC14	A-AC15	A-AC16	A-DC1	A-DC2	A-DC3	A-DC4	A-DC5	A-DC6	A-DC7	A-DC8	A-DC9	A-DC10	A-DC11	A-DC12	A-DC13	A-DC14	A-DC15	A-DC16	A-Ph1	A-Ph2	A-Ph3	A-Ph4	A-Ph5	A-Ph6	A-Ph7	A-Ph8	A-Ph9	A-Ph10	A-Ph11	A-Ph12	A-Ph13	A-Ph14	A-Ph15	A-Ph16	

Term	0.00000e+00	0.00000e+00	0.00000e+00	0.00000e+00	0.00000e+00	0.00000e+00	0.00000e+00	0.00000e+00	0.00000e+00	0.00000e+00	0.00000e+00	0.00000e+00	0.00000e+00	0.00000e+00	0.00000e+00	0.00000e+00	0.00000e+00	0.00000e+00	0.00000e+00	0.00000e+00	0.00000e+00	0.00000e+00	0.00000e+00	0.00000e+00	0.00000e+00	0.00000e+00	0.00000e+00	0.00000e+00	0.00000e+00	0.00000e+00	0.00000e+00	0.00000e+00	0.00000e+00	0.00000e+00	0.00000e+00	0.00000e+00	0.00000e+00	0.00000e+00	0.00000e+00	0.00000e+00	0.00000e+00	0.00000e+00	0.00000e+00	0.00000e+00	0.00000e+00	0.00000e+00	0.00000e+00	0.00000e+00	
Factor	1.00000e+00	1.00000e+00	1.00000e+00	1.00000e+00	1.00000e+00	1.00000e+00	1.00000e+00	1.00000e+00	1.00000e+00	1.00000e+00	1.00000e+00	1.00000e+00	1.00000e+00	1.00000e+00	1.00000e+00	1.00000e+00	1.00000e+00	1.00000e+00	1.00000e+00	1.00000e+00	1.00000e+00	1.00000e+00	1.00000e+00	1.00000e+00	1.00000e+00	1.00000e+00	1.00000e+00	1.00000e+00	1.00000e+00	1.00000e+00	1.00000e+00	1.00000e+00	X	X	X	X	X	X	X	X	X	X	X	X	X	X	X	X	

B = Detector Channel
Val Type	B-AC1	B-AC2	B-AC3	B-AC4	B-AC5	B-AC6	B-AC7	B-AC8	B-AC9	B-AC10	B-AC11	B-AC12	B-AC13	B-AC14	B-AC15	B-AC16	B-DC1	B-DC2	B-DC3	B-DC4	B-DC5	B-DC6	B-DC7	B-DC8	B-DC9	B-DC10	B-DC11	B-DC12	B-DC13	B-DC14	B-DC15	B-DC16	B-Ph1	B-Ph2	B-Ph3	B-Ph4	B-Ph5	B-Ph6	B-Ph7	B-Ph8	B-Ph9	B-Ph10	B-Ph11	B-Ph12	B-Ph13	B-Ph14	B-Ph15	B-Ph16	

Term	0.00000e+00	0.00000e+00	0.00000e+00	0.00000e+00	0.00000e+00	0.00000e+00	0.00000e+00	0.00000e+00	0.00000e+00	0.00000e+00	0.00000e+00	0.00000e+00	0.00000e+00	0.00000e+00	0.00000e+00	0.00000e+00	0.00000e+00	0.00000e+00	0.00000e+00	0.00000e+00	0.00000e+00	0.00000e+00	0.00000e+00	0.00000e+00	0.00000e+00	0.00000e+00	0.00000e+00	0.00000e+00	0.00000e+00	0.00000e+00	0.00000e+00	0.00000e+00	-1.10555e+02	-1.34345e+02	-1.25139e+02	-1.80823e+02	-5.89411e+01	-6.68562e+01	-1.57214e+02	-1.62015e+02	-6.37752e+01	-6.71530e+01	-1.71625e+02	-1.71796e+02	-1.86365e+02	-1.76693e+02	-6.41196e+01	-1.49516e+02	
Factor	1.50243e-05	1.53827e-04	4.66076e-05	1.58271e-01	1.18790e-06	1.74034e-06	1.59010e-01	4.50898e-02	9.43242e-07	1.55460e-06	7.52501e-02	2.87934e-02	3.64718e-02	8.42465e-03	1.35339e-06	1.23474e-02	7.15820e-06	1.04250e-05	2.89429e-06	7.88315e-02	1.08082e-07	1.15196e-07	7.45083e-02	2.26350e-02	1.07536e-07	1.15117e-07	3.64779e-02	1.40814e-02	1.83450e-02	4.24814e-03	1.11129e-07	6.03331e-03	X	X	X	X	X	X	X	X	X	X	X	X	X	X	X	X	



#DISTANCE SETTINGS
A = Detector Channel
A-1	A-2	A-3	A-4	A-5	A-6	A-7	A-8	A-9	A-10	A-11	A-12	A-13	A-14	A-15	A-16	

2.5000e+00	3.0000e+00	2.5000e+00	3.0000e+00	2.0000e+00	3.0000e+00	1.5000e+00	3.0000e+00	3.0000e+00	3.0000e+00	3.0000e+00	3.0000e+00	3.0000e+00	3.0000e+00	1.5000e+00	3.0000e+00	

B = Detector Channel
B-1	B-2	B-3	B-4	B-5	B-6	B-7	B-8	B-9	B-10	B-11	B-12	B-13	B-14	B-15	B-16	

1.0000e+01	1.0000e+01	1.0000e+01	1.4400e+00	1.0000e+01	1.0000e+01	1.5100e+00	1.9400e+00	1.0000e+01	1.0000e+01	1.9900e+00	2.4900e+00	2.4100e+00	2.9000e+00	1.0000e+01	2.9800e+00	




#DATA BEGINS
time	group	step	mark	flag	A-AC1	A-AC2	A-AC3	A-AC4	A-AC5	A-AC6	A-AC7	A-AC8	A-AC9	A-AC10	A-AC11	A-AC12	A-AC13	A-AC14	A-AC15	A-AC16	A-DC1	A-DC2	A-DC3	A-DC4	A-DC5	A-DC6	A-DC7	A-DC8	A-DC9	A-DC10	A-DC11	A-DC12	A-DC13	A-DC14	A-DC15	A-DC16	A-Ph1	A-Ph2	A-Ph3	A-Ph4	A-Ph5	A-Ph6	A-Ph7	A-Ph8	A-Ph9	A-Ph10	A-Ph11	A-Ph12	A-Ph13	A-Ph14	A-Ph15	A-Ph16	B-AC1	B-AC2	B-AC3	B-AC4	B-AC5	B-AC6	B-AC7	B-AC8	B-AC9	B-AC10	B-AC11	B-AC12	B-AC13	B-AC14	B-AC15	B-AC16	B-DC1	B-DC2	B-DC3	B-DC4	B-DC5	B-DC6	B-DC7	B-DC8	B-DC9	B-DC10	B-DC11	B-DC12	B-DC13	B-DC14	B-DC15	B-DC16	B-Ph1	B-Ph2	B-Ph3	B-Ph4	B-Ph5	B-Ph6	B-Ph7	B-Ph8	B-Ph9	B-Ph10	B-Ph11	B-Ph12	B-Ph13	B-Ph14	B-Ph15	B-Ph16	aux-1	digaux	

638.840	1	1	0	256	0.25578	0.12941	0.086127	0.22977	0.071042	0.073187	0.32783	0.46624	0.061707	0.16759	0.24052	0.074331	0.15195	0.21705	0.18444	0.18168	-3.0958	-3.2292	-3.4062	-3.4833	-3.2229	-3.4417	-3.5687	-3.4375	-3.4604	-3.1458	-3.2958	-3.5396	-3.275	-3.5708	-3.4646	-3.3625	316.019	344.478	30.250	294.051	47.042	300.541	315.887	279.062	131.335	200.338	274.145	177.386	333.390	275.732	102.842	14.486	0.00013507	0.00027423	8.5755e-05	1156.5	2.6606e-06	2.992e-06	1226.6	241.66	1.2558e-06	3.2426e-06	302.52	84.355	66.17	19.154	1.5813e-06	27.51	0.0001821	0.0001764	4.971e-05	1132.9	2.1553e-06	2.0303e-06	1198.3	239.29	2.0952e-06	2.0457e-06	297.73	84.712	65.813	19.28	1.8996e-06	27.478	153.203	32.724	57.789	-3.223	169.069	122.645	-2.833	4.054	209.360	136.953	3.831	10.614	10.733	16.984	104.399	16.998	-8191	255	
638.936	1	1	0	0	0.032437	0.24591	0.48961	0.019939	0.15877	0.08364	0.44889	0.26591	0.16387	0.10039	0.050289	0.21491	0.17872	0.075357	0.10298	0.13895	-3.0917	-3.1917	-3.425	-3.5938	-2.9729	-3.5917	-3.5	-3.3625	-3.3917	-3.2604	-3.3771	-3.7042	-3.3729	-3.3375	-3.6375	-3.0896	84.705	85.912	275.106	96.565	313.377	11.974	298.885	341.011	203.969	198.526	60.656	244.467	297.955	245.665	22.643	318.366	0.00012781	0.00025947	9.4812e-05	1137.4	1.8473e-06	3.9768e-06	1204	238.78	2.1765e-06	1.3466e-06	299.88	83.814	65.043	19.235	3.1012e-06	27.327	0.0001681	0.00016739	4.4108e-05	1112.2	1.9655e-06	1.7047e-06	1178.8	235.98	1.8055e-06	1.6567e-06	295.47	84.056	65.173	19.281	1.6459e-06	27.411	159.434	56.170	74.239	-3.101	152.588	136.411	-2.832	4.147	170.676	154.035	3.835	10.742	10.914	17.269	144.014	17.049	-8191	255	
639.007	1	1	0	0	0.36373	0.12032	0.12042	0.12234	0.094534	0.12404	0.25703	0.011236	0.11989	0.11405	0.20648	0.048939	0.36186	0.3259	0.15494	0.15491	-2.9125	-3.2521	-3.2479	-3.5667	-3.3646	-3.3312	-3.575	-3.2792	-3.5771	-3.2979	-3.3125	-3.5646	-3.1	-3.3729	-3.4646	-3.2375	308.105	54.561	221.609	272.614	258.232	214.665	329.838	292.029	269.128	271.975	329.161	213.477	310.250	316.738	297.104	99.924	0.00011048	0.00035482	8.1798e-05	1144.1	2.2808e-06	3.0342e-06	1216.3	240.85	1.9051e-06	1.3577e-06	299.66	84.05	65.709	19.506	3.8873e-06	27.52	0.00016382	0.00015462	4.1316e-05	1117.7	1.8646e-06	1.7491e-06	1189.3	237.49	1.9083e-06	1.8613e-06	296.57	84.507	65.78	19.484	1.9304e-06	27.636	162.449	51.209	60.002	-3.051	181.495	152.513	-2.850	4.269	155.903	130.758	3.742	10.250	10.830	17.242	130.007	17.153	-8191	255	
639.128	1	1	0	0	0.1607	0.045809	0.18013	0.23666	0.16175	0.11282	0.24142	0.10957	0.15899	0.075139	0.27111	0.06109	0.062315	0.33425	0.16099	0.19003	-2.9667	-3.3583	-3.1479	-3.7208	-3.2	-3.3771	-3.6375	-3.3104	-3.4792	-3.2896	-3.4708	-3.6833	-3.2854	-3.3875	-3.3729	-3.2604	27.215	169.144	109.958	260.200	182.283	298.536	295.672	299.739	200.742	102.452	313.371	326.592	151.188	-12.107	264.167	8.752	0.00012617	0.00030743	0.00010534	1161.3	3.048e-06	2.8353e-06	1227.5	243.68	1.428e-06	3.049e-06	304.26	85.119	66.627	19.557	2.8947e-06	27.897	0.00018106	0.00017918	5.1428e-05	1132.2	2.1619e-06	1.936e-06	1201.7	240.52	2.0248e-06	1.8601e-06	299.5	85.574	66.593	19.588	1.8383e-06	27.856	159.581	73.967	60.814	-3.092	192.946	124.610	-2.716	4.154	182.826	116.884	3.808	10.650	10.223	17.363	135.488	16.864	-8191	255	
639.224	1	1	0	0	0.26198	0.0459	0.15526	0.057281	0.18348	0.13918	0.2975	0.27357	0.16917	0.01977	0.15041	0.16767	0.16226	0.079448	0.072492	0.12787	-3.1146	-3.525	-3.0729	-3.6937	-3.1312	-3.3479	-3.625	-3.2771	-3.4208	-3.4208	-3.4042	-3.6083	-3.3979	-3.2	-3.3937	-3.1729	21.855	110.447	307.293	325.209	-13.537	-1.225	246.207	271.056	29.187	175.891	262.085	142.690	255.170	49.278	110.089	335.303	0.0001276	0.00032992	0.00012635	1165.6	3.0521e-06	2.4492e-06	1236.9	245.01	1.6392e-06	1.9755e-06	304.94	85.664	66.944	19.665	2.232e-06	27.817	0.0001689	0.00015894	4.4464e-05	1140.9	1.9484e-06	1.745e-06	1209.9	241.72	1.8691e-06	1.6529e-06	300.95	85.877	66.78	19.703	1.7579e-06	27.856	152.725	58.943	75.407	-3.131	173.028	136.739	-3.057	4.024	183.031	128.203	3.427	10.436	10.284	17.203	143.118	16.992	-8191	255	
639.320	1	1	0	0	0.3268	0.23817	0.055189	0.02957	0.016717	0.086455	0.056155	0.30741	0.13844	0.12555	0.23446	0.068912	0.067674	0.067667	0.1602	0.23549	-3.0062	-3.3708	-3.0438	-3.5771	-3.1917	-3.3021	-3.5125	-3.3646	-3.4813	-3.4292	-3.3104	-3.3542	-3.5312	-3.2188	-3.5438	-3.3542	205.701	244.498	1.454	258.510	102.502	294.507	223.940	309.268	7.027	137.657	311.368	321.450	263.441	266.510	143.057	272.794	0.00011506	0.00023035	0.00011712	1166.7	2.0455e-06	2.8996e-06	1235.1	244.03	1.5132e-06	2.6163e-06	302.75	84.59	66.667	19.542	3.0874e-06	27.464	0.00017596	0.00016196	4.6869e-05	1140	2.0605e-06	1.899e-06	1205.7	240.69	1.95e-06	1.8328e-06	299.01	85.241	66.172	19.523	1.9783e-06	27.715	159.121	56.474	94.593	-3.230	167.606	148.531	-2.996	4.051	159.741	117.537	3.862	10.464	10.656	17.147	136.950	16.958	-8191	255	
639.417	1	1	0	0	0.21421	0.061038	0.16641	0.28343	0.14137	0.25254	0.23087	0.43762	0.21217	0.052017	0.055264	0.057487	0.12048	0.1092	0.31076	0.21226	-2.8229	-3.2625	-3.0896	-3.4458	-3.3083	-3.2562	-3.4562	-3.2625	-3.3208	-3.4542	-3.4229	-3.5521	-3.3146	-3.2667	-3.525	-3.2938	31.049	118.023	84.697	14.197	10.097	74.681	300.848	293.745	133.591	163.655	148.363	79.155	267.771	269.735	67.967	218.910	0.00012882	0.00041213	0.0001145	1154.8	2.1352e-06	2.5822e-06	1213.4	239.56	1.7032e-06	2.9997e-06	298.77	84.183	65.03	19.007	4.0302e-06	27.29	0.00019294	0.00018111	5.2206e-05	1125.8	2.2224e-06	2.0483e-06	1187.4	237.14	2.2267e-06	2.1385e-06	294.74	84.158	64.913	19.112	2.2436e-06	27.276	150.307	79.620	98.386	-3.161	160.146	144.488	-2.494	4.175	177.647	144.623	3.951	10.585	10.910	17.607	149.314	17.012	-8191	255	
639.535	1	1	0	0	0.050487	0.074679	0.22649	0.22492	0.19266	0.16854	0.064528	0.20014	0.27866	0.097299	0.215	0.23224	0.11368	0.34193	0.064411	0.10528	-2.7875	-3.35	-3.2521	-3.4021	-3.4208	-3.1917	-3.6646	-3.2542	-3.1333	-3.5333	-3.1021	-3.3187	-3.2687	-3.1896	-3.4062	-3.4062	247.722	217.187	4.185	-7.901	51.730	342.094	332.132	317.437	-5.171	143.363	244.489	341.604	245.454	295.439	319.313	9.165	0.00013062	0.00046238	7.8123e-05	1112.3	1.9752e-06	3.3242e-06	1179.4	235.23	1.4255e-06	2.4721e-06	293.97	82.488	64.048	18.968	2.4021e-06	27.052	0.00019194	0.00020387	5.3177e-05	1086.3	2.1186e-06	2.0392e-06	1152.2	231.97	1.965e-06	1.7426e-06	289.65	83.007	64.082	19.009	1.8936e-06	27.159	164.383	49.492	94.917	-2.994	171.690	123.763	-2.731	4.070	132.756	142.988	3.646	10.905	10.811	17.245	142.293	17.007	-8191	255	
639.632	1	1	0	0	0.21125	0.2369	0.21501	0.13687	0.12025	0.086803	0.076375	0.18052	0.23597	0.14198	0.025526	0.15313	0.060214	0.11601	0.1025	0.1257	-2.5792	-3.5062	-3.0938	-3.3771	-3.4375	-3.1521	-3.7083	-3.4229	-3.35	-3.6125	-3.2667	-3.3417	-3.4042	-3.3312	-3.5229	-3.3	142.034	30.582	226.569	181.399	201.277	256.333	223.975	334.219	244.652	311.977	91.870	-13.558	27.897	53.154	296.750	287.130	0.00012899	0.00024007	9.2986e-05	1104.7	4.0065e-06	2.7231e-06	1168.7	234.05	1.1134e-06	3.3862e-06	292.62	82.772	64.209	18.94	2.1705e-06	27.138	0.00017937	0.00016289	4.9275e-05	1077.7	1.9603e-06	1.8035e-06	1146.1	230.85	1.7293e-06	1.5615e-06	289.22	83.068	64.113	18.995	1.387e-06	27.121	149.951	87.290	93.047	-3.019	176.846	157.875	-2.907	4.016	154.604	130.748	3.818	10.340	10.749	17.355	143.310	17.013	-8191	255	
639.728	1	1	0	0	0.20049	0.12015	0.070437	0.15896	0.17936	0.1419	0.20372	0.045467	0.15404	0.063889	0.079608	0.19749	0.17154	0.17489	0.048628	0.21207	-2.7625	-3.4188	-3.4167	-3.3021	-3.5333	-3.1562	-3.4062	-3.4417	-3.1104	-3.5792	-3.2729	-3.3229	-3.5062	-3.1125	-3.4396	-3.4104	9.801	343.713	26.745	224.000	257.116	148.966	272.278	269.801	92.466	201.591	210.677	13.975	36.191	276.403	1.452	205.430	0.00011499	0.00025269	0.00010096	1100.9	2.0773e-06	2.9636e-06	1161	233.03	1.8306e-06	2.8848e-06	292.79	82.255	64.41	18.899	1.3082e-06	27.117	0.00014479	0.00012334	3.4147e-05	1072.4	1.4945e-06	1.3754e-06	1139.2	230.07	1.5107e-06	1.2725e-06	288.13	82.6	63.926	19.001	1.4505e-06	27.104	155.449	87.396	60.319	-2.957	175.400	131.511	-2.697	4.313	174.425	156.229	3.689	10.591	10.923	17.749	130.484	17.265	-8191	255	
639.824	1	1	0	0	0.15773	0.23847	0.02331	0.29347	0.22314	0.34694	0.26855	0.14003	0.19534	0.13838	0.10708	0.063136	0.12548	0.17916	0.23281	0.15072	-2.6208	-3.2667	-3.2333	-3.3	-3.4583	-3.1562	-3.1562	-3.5229	-3.25	-3.0771	-3.3771	-3.1417	-3.4542	-3.3438	-3.0729	-3.4979	133.758	267.471	194.779	304.321	211.317	114.947	265.427	324.789	310.785	73.825	177.768	247.994	277.964	310.512	116.589	249.637	0.00011536	0.00039278	7.6681e-05	1104.1	2.0549e-06	3.9913e-06	1168.3	233.24	1.8585e-06	2.7176e-06	293.87	82.233	64.465	19.036	2.7714e-06	26.972	0.00014859	0.00012947	3.5479e-05	1074.8	1.5667e-06	1.4073e-06	1144.4	230.43	1.6128e-06	1.4061e-06	288.81	82.603	64.127	18.988	1.5426e-06	27.143	154.980	68.895	73.046	-2.828	164.350	149.636	-2.708	4.168	154.679	179.190	4.020	10.802	10.916	17.420	133.610	17.127	-8191	255	
639.920	1	1	0	0	0.08838	0.15415	0.21065	0.14636	0.020847	0.20092	0.25357	0.069258	0.112	0.050006	0.27662	0.099913	0.19353	0.13787	0.14626	0.20776	-2.6521	-3.3375	-3.3521	-3.3354	-3.3563	-3.3958	-3.3979	-3.5062	-3.0187	-3.5	-3.3708	-3.1188	-3.6562	-3.2667	-3.4125	-3.5312	247.319	232.556	285.369	327.466	89.037	144.260	216.122	98.700	208.899	41.610	317.776	0.635	96.836	92.750	310.891	256.532	0.00012112	0.00025306	7.8926e-05	1109.1	3.0804e-06	3.8298e-06	1172.1	234.2	1.5694e-06	2.0243e-06	293.77	82.476	63.984	18.83	2.3216e-06	27.166	0.00015477	0.00013059	3.7638e-05	1078.5	1.6244e-06	1.4959e-06	1146.9	230.78	1.7313e-06	1.4378e-06	289.18	82.736	63.742	18.937	1.5229e-06	27.113	153.830	54.004	75.436	-2.989	149.592	139.182	-2.732	4.140	142.115	142.616	3.753	10.764	10.628	17.737	148.088	17.328	-8191	255	
640.016	1	1	0	0	0.14744	0.29848	0.18585	0.19728	0.024222	0.057808	0.21396	0.19426	0.066993	0.14737	0.15502	0.19615	0.035422	0.15607	0.21562	0.10977	-2.7583	-3.3771	-3.4521	-3.1458	-3.3563	-3.3729	-3.5854	-3.5958	-3.2625	-3.5646	-3.475	-3.0646	-3.5458	-3.3875	-3.4104	-3.5292	-1.248	245.261	312.862	9.894	278.150	101.229	294.718	288.138	76.173	148.123	305.674	94.797	285.168	300.402	214.431	95.776	0.00012265	0.00019798	0.00011956	1095.9	1.851e-06	2.0858e-06	1165.3	230.7	1.8481e-06	2.2562e-06	290.98	82.032	63.476	18.712	3.2807e-06	26.639	0.0001535	0.00013081	3.9326e-05	1073.4	1.7642e-06	1.5775e-06	1140.9	228.21	1.7786e-06	1.6531e-06	287.08	82.11	63.306	18.716	1.8371e-06	26.737	149.612	56.067	83.336	-2.933	193.386	146.838	-2.950	4.367	196.270	149.951	3.671	10.583	10.956	17.294	159.251	17.101	-8191	255	
640.137	1	1	0	0	0.060325	0.064063	0.10228	0.35627	0.084418	0.086964	0.13836	0.24249	0.21666	0.10678	0.10478	0.086857	0.098833	0.21919	0.16356	0.098397	-2.7958	-3.4313	-3.4813	-3.2542	-3.4313	-3.4917	-3.2229	-3.4479	-3.3625	-3.2896	-3.7542	-3.1354	-3.4188	-3.3167	-3.2354	-3.5333	23.873	278.773	259.993	286.049	57.026	334.920	1.956	262.917	162.117	308.647	119.508	342.584	309.848	82.433	127.822	261.679	0.00013029	0.00027331	8.2623e-05	1107.3	2.0431e-06	2.0271e-06	1175	233.14	1.2642e-06	2.3004e-06	292.65	81.503	63.487	18.691	3.6467e-06	26.758	0.0001793	0.00017062	4.7991e-05	1081.1	2.1132e-06	1.918e-06	1150.9	230.02	2.056e-06	1.8646e-06	288.23	82.081	63.571	18.703	1.873e-06	26.772	161.121	71.801	65.057	-3.011	164.433	147.099	-2.861	4.280	183.427	133.723	3.650	10.631	11.138	17.651	165.706	17.478	-8191	255	
640.233	1	1	0	0	0.067695	0.12615	0.046435	0.18674	0.093142	0.20138	0.13723	0.15977	0.23855	0.10579	0.2894	0.25212	0.018783	0.042809	0.13512	0.10111	-3.0479	-3.0083	-3.4833	-3.3729	-3.4104	-3.3083	-3.1958	-3.7729	-3.1625	-3.2146	-3.5563	-3.0604	-3.3812	-3.2354	-3.2146	-3.3729	16.411	59.767	26.005	340.662	246.587	104.017	320.519	108.347	56.737	71.214	292.327	255.126	12.333	83.827	4.494	182.992	0.00012164	0.00031941	9.4385e-05	1113.8	2.6809e-06	2.2173e-06	1178.3	232.7	1.248e-06	3.4188e-06	292.6	82.104	63.632	18.785	2.3448e-06	26.717	0.0001702	0.00015742	4.5525e-05	1086.8	1.9221e-06	1.8206e-06	1154.1	229.79	1.8411e-06	1.7514e-06	288.37	82.129	63.461	18.761	1.7732e-06	26.757	151.539	72.104	108.021	-3.091	163.625	174.189	-2.656	4.194	157.179	141.921	3.883	10.491	10.583	17.604	159.272	17.258	-8191	255	
640.305	1	1	0	0	0.088161	0.046427	0.31249	0.25148	0.10876	0.02766	0.19558	0.16935	0.13604	0.078266	0.019826	0.054738	0.033499	0.1659	0.088335	0.14725	-2.8375	-3.275	-3.2354	-3.4146	-3.5521	-3.5812	-3.15	-3.5875	-3.1312	-3.2	-3.6188	-3.1104	-3.3667	-3.5792	-3.2354	-3.4979	44.562	248.905	324.450	267.663	338.133	105.911	300.450	200.854	242.330	153.701	-1.044	132.163	345.822	137.846	157.936	181.711	0.00014228	0.00027069	7.0303e-05	1110.7	2.9527e-06	1.2594e-06	1176.7	232.38	1.0843e-06	4.0672e-06	290.51	82.017	63.991	18.571	2.3905e-06	26.677	0.00016719	0.0001633	4.503e-05	1086.9	1.9311e-06	1.7287e-06	1152.3	229.51	1.8958e-06	1.7236e-06	286.67	82.057	63.623	18.681	1.8612e-06	26.752	162.029	40.781	90.257	-2.971	175.811	216.488	-2.739	4.109	180.863	135.552	3.929	10.675	11.195	16.983	133.632	17.291	-8191	255	
640.401	1	1	0	0	0.17148	0.091827	0.15146	0.27586	0.17108	0.14179	0.12742	0.041064	0.26036	0.12279	0.056447	0.13023	0.19077	0.11386	0.22675	0.31466	-2.8292	-3.2208	-3.4188	-3.4125	-3.1896	-3.5687	-3.3146	-3.3646	-3.4437	-3.3688	-3.525	-3.3792	-3.2542	-3.5292	-3.0896	-3.5229	-4.422	343.060	2.892	311.028	13.439	338.997	319.477	73.563	311.833	12.563	280.912	15.211	273.498	40.091	99.050	218.304	0.0001102	0.00018956	0.00011739	1115.9	2.8781e-06	4.5483e-06	1178.9	231.64	1.5217e-06	7.0975e-07	292.91	81.828	63.394	18.691	1.8338e-06	26.531	0.00017317	0.00016706	4.4427e-05	1086.8	2.0214e-06	1.7596e-06	1154	228.99	1.8593e-06	1.7555e-06	287.85	82.085	63.438	18.72	1.6998e-06	26.668	150.771	70.752	95.573	-2.903	168.922	119.964	-2.821	4.180	180.202	51.157	3.796	10.740	10.847	17.704	166.782	17.480	-8191	255	
640.497	1	1	0	0	0.32283	0.038751	0.2509	0.32414	0.17111	0.14127	0.089419	0.3333	0.18787	0.2547	0.16768	0.34706	0.21726	0.15538	0.1569	0.17925	-2.8667	-3.3896	-3.3833	-3.4021	-3.2583	-3.6229	-3.1646	-3.5187	-3.2875	-3.0979	-3.5271	-3.3646	-3.3229	-3.5396	-3.3521	-3.3729	105.649	330.966	85.885	296.463	246.295	295.129	127.818	55.967	46.298	336.945	249.810	318.961	142.161	265.138	77.588	240.348	0.00013026	0.00030437	8.1004e-05	1111.2	2.359e-06	4.74e-06	1174.3	232.28	1.3794e-06	3.1171e-06	289.78	82.152	62.934	18.614	2.5005e-06	26.575	0.00016436	0.00015512	4.301e-05	1085	1.8462e-06	1.6574e-06	1149.2	228.96	1.8418e-06	1.6937e-06	287.09	81.96	63.219	18.595	1.7091e-06	26.589	152.385	66.202	85.516	-2.876	164.787	149.398	-2.737	3.901	129.602	133.894	3.563	10.569	10.867	17.612	160.159	17.331	-8191	255	
640.616	1	1	0	0	0.3552	0.12466	0.063161	0.16658	0.046823	0.23835	0.18044	0.24883	0.196	0.045928	0.24276	0.16053	0.36492	0.048317	0.09004	0.21173	-3.1333	-3.1042	-3.5146	-3.4375	-3.2604	-3.5375	-3.4625	-3.4646	-3.4375	-3.1479	-3.7812	-3.2208	-3.2833	-3.3229	-3.2958	-3.2792	124.733	174.206	217.438	320.041	-10.328	189.102	334.361	268.308	100.021	338.664	290.626	294.629	37.165	50.852	292.458	225.075	0.00011862	0.00026087	7.2009e-05	1103.4	2.6266e-06	3.7737e-06	1170	231.35	1.2218e-06	3.4696e-06	290.59	81.33	63.009	18.627	2.6691e-06	26.429	0.00015225	0.00014645	3.6034e-05	1077.6	1.6093e-06	1.4714e-06	1144.1	228	1.5393e-06	1.4713e-06	286.41	81.575	63.08	18.585	1.494e-06	26.499	151.864	68.401	108.575	-2.818	168.901	165.573	-2.579	4.215	157.394	152.554	4.129	10.639	11.263	17.735	160.879	17.464	-8191	255	
640.712	1	1	0	0	0.15375	0.096437	0.081863	0.099336	0.064369	0.11928	0.1745	0.19988	0.37746	0.10012	0.18391	0.064434	0.20431	0.0065881	0.11789	0.16113	-3.2646	-2.9854	-3.6167	-3.4188	-3.1937	-3.6854	-3.3604	-3.4375	-3.4667	-3.3875	-3.4167	-3.3854	-3.1312	-3.7167	-3.2438	-3.3125	105.350	247.913	175.063	130.292	333.940	282.909	289.843	225.590	307.493	2.614	16.729	158.186	166.990	155.748	302.143	228.504	0.00011497	0.00031304	8.961e-05	1099.9	2.8338e-06	3.1235e-06	1166.3	229.97	1.9519e-06	1.8985e-06	291.56	81.065	63.002	18.525	2.2067e-06	26.431	0.00014291	0.00013042	3.6366e-05	1073.6	1.5904e-06	1.3816e-06	1139.5	227.29	1.5355e-06	1.4373e-06	286.38	81.42	62.984	18.526	1.4687e-06	26.458	153.253	66.523	87.891	-3.084	178.917	150.350	-2.736	4.350	163.080	133.123	3.878	10.655	10.868	17.233	132.824	16.741	-8191	255	
640.808	1	1	0	0	0.11407	0.10976	0.14086	0.09093	0.092869	0.13173	0.18023	0.16296	0.19177	0.03361	0.26515	0.1049	0.015423	0.089966	0.15851	0.10583	-2.9688	-3.2812	-3.3312	-3.65	-3.1625	-3.5979	-3.5958	-3.35	-3.5979	-3.3979	-3.4125	-3.5896	-3.0896	-3.475	-3.4083	-3.2687	301.303	-4.544	5.104	35.561	177.173	104.136	240.048	287.065	64.459	254.820	250.139	318.233	95.706	271.505	-0.454	3.538	0.00011511	0.00047649	8.5701e-05	1099.3	2.1134e-06	3.4394e-06	1164	230.23	1.4278e-06	2.107e-06	289.3	80.897	62.99	18.421	2.5415e-06	26.326	0.00014385	0.00013059	3.6866e-05	1072.6	1.6343e-06	1.4944e-06	1138.6	227.19	1.6128e-06	1.3406e-06	285.12	81.316	62.937	18.516	1.5604e-06	26.455	160.230	56.010	97.087	-3.056	176.613	126.788	-2.848	4.530	174.946	152.780	3.816	10.314	11.005	17.720	136.826	17.456	-8191	255	
640.929	1	1	0	0	0.086788	0.22691	0.28574	0.48059	0.18223	0.12343	0.33799	0.24872	0.096361	0.13394	0.14277	0.063363	0.19154	0.25326	0.063607	0.22261	-2.9	-3.3646	-3.2188	-3.6292	-3.1562	-3.6813	-3.3875	-3.3667	-3.4	-3.2375	-3.3375	-3.6854	-3.3229	-3.3438	-3.2979	-3.3229	146.020	321.528	282.298	290.423	198.240	291.277	286.635	-3.625	189.097	88.852	294.367	194.686	274.915	165.306	35.474	73.914	0.00013134	0.00041558	9.1506e-05	1098.6	2.3706e-06	2.5361e-06	1162.4	230.68	1.3229e-06	2.7042e-06	290.36	80.839	62.936	18.462	3.3411e-06	26.418	0.00015369	0.00013857	3.7397e-05	1071.2	1.6404e-06	1.4623e-06	1138.4	227.28	1.5617e-06	1.4807e-06	285.6	81.495	62.963	18.496	1.5146e-06	26.469	153.011	59.208	66.791	-3.084	180.717	151.744	-2.779	4.317	149.615	140.337	3.803	10.721	11.193	17.724	154.915	17.206	-8191	255	
641.000	1	1	0	0	0.12468	0.18155	0.31316	0.11372	0.02805	0.13459	0.23196	0.14604	0.15211	0.2426	0.21864	0.025398	0.12512	0.20374	0.076288	0.081677	-3.175	-3.2354	-3.2854	-3.5729	-3.1979	-3.375	-3.7646	-3.2438	-3.5438	-3.2375	-3.5312	-3.4479	-3.2583	-3.5229	-3.475	-3.2062	337.453	258.362	36.526	331.355	46.432	92.836	296.752	180.402	290.200	183.919	293.197	168.174	26.941	318.889	251.400	253.830	0.00012211	0.00024348	0.00012588	1101.5	1.9326e-06	1.9218e-06	1167	230.03	1.5532e-06	1.8359e-06	288.69	81.071	63.453	18.569	3.08e-06	26.436	0.0001497	0.00013733	3.7149e-05	1074	1.6307e-06	1.4596e-06	1140	226.62	1.5978e-06	1.4754e-06	285.44	81.338	62.93	18.527	1.5593e-06	26.459	153.250	47.956	71.264	-2.898	192.519	150.234	-2.634	4.102	147.982	114.498	4.245	10.669	10.646	17.930	134.106	17.379	-8191	255	
641.097	1	1	0	0	0.034528	0.28107	0.078526	0.081863	0.11756	0.28361	0.1883	0.10113	0.049864	0.1912	0.22981	0.25623	0.13245	0.46365	0.036513	0.10714	-3.1896	-3.1417	-3.1042	-3.5875	-3.1854	-3.4625	-3.5438	-3.3688	-3.4667	-3.1771	-3.4271	-3.5146	-3.3333	-3.3688	-3.4917	-3.4021	144.221	319.724	277.064	18.677	43.759	290.588	265.259	242.082	2.382	285.875	234.065	38.821	34.215	48.095	190.519	290.460	0.00012094	0.00035459	9.4377e-05	1095.2	2.9173e-06	1.6992e-06	1164.2	229.32	1.2195e-06	2.489e-06	290.01	80.513	63.079	18.467	3.0426e-06	26.333	0.00015363	0.00013496	3.7831e-05	1071.3	1.5904e-06	1.4731e-06	1138.1	226.93	1.5537e-06	1.4819e-06	285.45	81.202	62.908	18.482	1.4588e-06	26.414	154.342	72.106	55.474	-2.863	165.519	125.968	-2.647	4.221	162.713	107.509	3.981	10.637	10.529	17.659	173.579	17.194	-8191	255	
641.217	1	1	0	0	0.12761	0.19444	0.28983	0.22464	0.13577	0.26996	0.19789	0.12267	0.24831	0.080472	0.085797	0.28575	0.13391	0.056407	0.093964	0.16268	-3.0854	-3.1833	-3.2708	-3.6	-3.0979	-3.3271	-3.6792	-3.25	-3.3812	-3.3417	-3.2271	-3.4	-3.4562	-3.3979	-3.5646	-3.1854	223.850	251.530	-4.260	271.669	324.196	207.389	274.865	318.871	259.449	169.290	248.343	3.405	58.466	340.176	202.676	302.480	0.00012849	0.00025067	9.635e-05	1097.3	2.0075e-06	4.4928e-06	1160.9	228.79	9.1173e-07	3.2849e-06	288.86	80.643	62.616	18.399	2.6277e-06	26.295	0.00015117	0.00013109	3.7789e-05	1070.2	1.6415e-06	1.4085e-06	1134.7	226.41	1.598e-06	1.4447e-06	284.26	81.099	62.69	18.472	1.5113e-06	26.439	154.534	72.436	76.641	-2.998	166.812	141.091	-2.779	4.104	166.834	110.290	3.912	10.825	10.938	18.114	147.289	17.135	-8191	255	
641.313	1	1	0	0	0.12072	0.10374	0.06884	0.19138	0.12905	0.068312	0.10715	0.1674	0.14419	0.29401	0.1028	0.13596	0.12066	0.15815	0.074083	0.021259	-3.0896	-3.4167	-3.2438	-3.6562	-3.3229	-3.4333	-3.6292	-3.3729	-3.4021	-3.2542	-3.3563	-3.6146	-3.6104	-3.2229	-3.5479	-3.5354	127.452	8.955	96.086	316.228	297.410	264.327	201.740	310.529	281.371	26.227	267.386	24.821	180.372	151.477	43.983	57.260	0.00012279	0.00020365	8.8323e-05	1096.3	1.7952e-06	2.0187e-06	1163.1	228.66	1.6851e-06	3.5051e-06	289.12	80.879	62.545	18.386	2.5392e-06	26.365	0.00015251	0.00013342	3.8018e-05	1070.2	1.671e-06	1.5417e-06	1136.1	226.6	1.6316e-06	1.3142e-06	284.66	81.244	62.701	18.469	1.4706e-06	26.454	150.351	81.784	80.037	-2.878	172.504	120.696	-2.681	4.224	158.692	155.145	3.866	10.662	11.048	17.946	138.592	17.468	-8191	255	
641.409	1	1	0	0	0.22519	0.097373	0.11045	0.22111	0.059492	0.13826	0.46084	0.016573	0.087149	0.11032	0.13159	0.18809	0.20928	0.10074	0.048677	0.038594	-3.0083	-3.5021	-3.0958	-3.4104	-3.3271	-3.2396	-3.7729	-3.5292	-3.4313	-3.4646	-3.5375	-3.5479	-3.2875	-3.3667	-3.5	-3.4229	83.476	56.578	102.622	-3.428	211.613	50.461	321.727	337.315	109.042	290.547	34.223	306.332	247.956	12.910	43.517	185.371	0.00013081	0.00028926	7.3173e-05	1095.7	1.9883e-06	2.4286e-06	1161.5	229.52	1.4761e-06	2.7135e-06	288.29	80.946	62.572	18.356	2.3323e-06	26.312	0.00015223	0.00013055	3.9489e-05	1071.5	1.6831e-06	1.5247e-06	1136	226.34	1.605e-06	1.443e-06	283.94	81.172	62.59	18.481	1.4801e-06	26.365	157.870	87.721	83.943	-2.939	141.915	135.454	-2.481	4.202	163.582	111.597	3.687	10.665	11.312	17.848	150.925	17.116	-8191	255	
641.528	1	1	0	0	0.033821	0.31246	0.076666	0.1098	0.2199	0.083287	0.24181	0.13745	0.26578	0.16771	0.11741	0.24837	0.13445	0.1791	0.15181	0.069833	-2.8229	-3.5187	-3.2271	-3.3187	-3.5042	-3.2042	-3.5542	-3.3187	-3.2354	-3.4417	-3.4792	-3.2646	-3.6292	-3.1708	-3.5729	-3.2333	227.085	194.979	223.606	35.102	220.824	285.756	291.703	34.742	48.875	293.279	148.265	330.031	23.303	150.494	329.110	314.383	0.00012348	0.00036457	7.7344e-05	1094.6	2.6869e-06	4.9284e-06	1160	229.64	1.3889e-06	3.0419e-06	288.07	80.888	62.914	18.292	2.231e-06	26.558	0.0001494	0.00012849	3.7921e-05	1068.1	1.6624e-06	1.4935e-06	1134.4	226.3	1.6144e-06	1.4385e-06	283.94	81.045	62.682	18.44	1.5533e-06	26.377	156.575	65.228	83.617	-2.816	149.864	148.951	-2.851	4.246	174.313	150.502	3.884	10.818	11.098	17.626	142.521	17.447	-8191	255	
641.600	1	1	0	0	0.3058	0.15773	0.12367	0.094014	0.16479	0.080999	0.16725	0.28291	0.4296	0.17245	0.22177	0.25713	0.10215	0.15438	0.0874	0.1009	-2.8979	-3.3667	-3.2583	-3.5708	-3.3208	-3.0979	-3.5708	-3.3958	-3.2521	-3.3812	-3.3563	-3.275	-3.6292	-3.1792	-3.3125	-3.4	17.279	132.533	210.983	266.801	-11.826	-5.310	311.387	306.214	253.624	117.382	-1.419	34.219	305.327	199.697	117.738	152.261	0.00012761	0.00031831	0.0001198	1097.5	3.6152e-06	2.8292e-06	1160.9	228.67	1.4447e-06	2.7101e-06	288.6	80.653	62.701	18.337	2.0705e-06	26.382	0.00015155	0.00012714	3.7801e-05	1069	1.723e-06	1.5347e-06	1136	226.35	1.7271e-06	1.5135e-06	284.18	81.165	62.655	18.464	1.6007e-06	26.432	152.396	95.276	98.080	-2.756	169.279	153.499	-2.597	4.225	173.576	158.761	3.841	10.698	11.445	17.490	150.226	17.084	-8191	255	
641.696	1	1	0	0	0.0742	0.11605	0.21852	0.19587	0.22408	0.061075	0.45324	0.076389	0.082235	0.019925	0.18199	0.098609	0.10647	0.046973	0.20079	0.074956	-2.7562	-3.5187	-3.1896	-3.5604	-3.3958	-3.2125	-3.55	-3.4208	-3.5125	-3.5729	-3.3979	-3.2812	-3.4542	-3.0812	-3.3833	-3.525	-1.974	324.524	192.710	7.463	251.389	64.102	283.492	23.510	104.031	114.606	7.022	38.685	267.765	174.406	78.240	166.270	0.00011639	0.0003176	9.8254e-05	1095.4	1.5477e-06	2.7843e-06	1154.9	229.85	2.0922e-06	2.2149e-06	288.43	81.336	63.262	18.452	2.1028e-06	26.418	0.00015876	0.0001405	3.7831e-05	1068.9	1.7523e-06	1.6298e-06	1133	226.43	1.7793e-06	1.644e-06	284.44	81.345	62.931	18.503	1.6894e-06	26.409	158.495	71.514	74.968	-2.922	169.067	133.771	-2.546	4.444	186.908	114.330	4.221	10.710	11.055	17.064	171.153	17.094	-8191	255	
641.817	1	1	0	0	0.060442	0.070416	0.24508	0.41332	0.31539	0.0651	0.22213	0.10792	0.069616	0.19113	0.18687	0.05924	0.15095	0.32272	0.070715	0.23143	-2.6104	-3.5104	-3.1854	-3.4625	-3.3438	-3.3167	-3.6792	-3.3	-3.2604	-3.3583	-3.2646	-3.3854	-3.5229	-3.2417	-3.6604	-3.3438	95.285	275.632	337.145	298.244	300.255	50.454	290.395	223.008	59.356	160.982	163.394	302.740	298.301	42.672	52.348	120.960	0.00012283	0.00032976	8.6101e-05	1096.2	1.8538e-06	3.2828e-06	1158.1	229.19	1.6013e-06	1.8422e-06	289.11	80.71	62.811	18.35	2.411e-06	26.495	0.00016623	0.00015242	4.1925e-05	1069.8	1.7372e-06	1.6048e-06	1136.1	226.35	1.754e-06	1.6337e-06	284.71	81.201	62.667	18.494	1.7373e-06	26.461	153.110	71.361	77.968	-3.092	164.456	100.016	-2.660	4.212	159.121	157.317	4.011	10.788	11.110	17.441	148.636	17.082	-8191	255	
641.913	1	1	0	0	0.12928	0.14211	0.11113	0.1433	0.23553	0.17858	0.18768	0.24348	0.081204	0.087107	0.176	0.22384	0.094803	0.19599	0.12799	0.12191	-2.7979	-3.4813	-3.2167	-3.5125	-3.4625	-3.2979	-3.4542	-3.575	-3.2833	-3.1646	-3.4833	-3.2062	-3.6125	-3.4875	-3.175	-3.5646	263.437	155.385	38.249	266.916	7.781	149.501	264.480	285.992	316.091	95.059	232.268	219.741	259.708	-13.575	191.679	148.840	0.00011483	0.00025637	7.6905e-05	1095.7	2.6082e-06	3.5611e-06	1156.2	229.57	1.2386e-06	4.6814e-06	288.09	80.577	62.759	18.554	1.8278e-06	26.417	0.00015973	0.00015729	4.2438e-05	1069	1.7615e-06	1.6591e-06	1133.2	226.81	1.7806e-06	1.5718e-06	284.97	81.186	62.657	18.495	1.6357e-06	26.418	161.488	74.611	70.331	-2.946	171.067	168.551	-2.628	4.247	161.292	142.828	4.093	10.726	10.681	17.307	130.126	17.176	-8191	255	
642.009	1	1	0	0	0.2387	0.073062	0.094002	0.27677	0.26199	0.17124	0.10878	0.22052	0.13815	0.21755	0.30174	0.24408	0.19496	0.077131	0.064792	0.045359	-2.6562	-3.4729	-3.4021	-3.1875	-3.4	-3.325	-3.4938	-3.575	-3.2208	-3.5646	-3.4729	-3.1979	-3.6979	-3.3438	-3.2896	-3.5021	272.080	98.768	179.968	0.319	227.329	53.543	-6.996	268.728	306.763	317.437	247.835	236.045	293.252	274.789	260.757	296.896	0.00013379	0.0002539	9.9831e-05	1091.8	2.1601e-06	3.6739e-06	1160.1	229.49	1.6362e-06	2.6443e-06	289.62	80.992	62.424	18.436	2.4464e-06	26.408	0.00015981	0.00013804	4.1792e-05	1068.6	1.6917e-06	1.534e-06	1135.8	226.7	1.7466e-06	1.5442e-06	284.8	81.218	62.589	18.498	1.5715e-06	26.451	153.806	41.026	82.419	-2.754	182.157	137.424	-2.651	4.115	185.382	146.402	4.187	10.806	10.954	17.746	166.817	17.010	-8191	255	
642.105	1	1	0	0	0.035167	0.098535	0.19384	0.17588	0.14207	0.1147	0.33194	0.24115	0.21545	0.12843	0.28195	0.31858	0.22036	0.07097	0.090781	0.17148	-2.7271	-3.3771	-3.3104	-3.3146	-3.4292	-3.2438	-3.525	-3.5583	-3.2229	-3.4375	-3.6437	-3.025	-3.575	-3.3042	-3.2521	-3.6375	269.579	302.589	279.726	302.733	322.974	183.565	288.636	346.033	193.230	164.807	-5.250	310.055	199.098	258.997	30.264	43.437	0.00011991	0.00026545	9.2829e-05	1099.4	2.6939e-06	2.1282e-06	1160.4	229.19	1.3421e-06	2.3843e-06	289.31	81.04	62.975	18.536	1.5362e-06	26.349	0.00016097	0.00015034	4.0683e-05	1072.3	1.748e-06	1.6367e-06	1136.5	226.77	1.6861e-06	1.621e-06	284.77	81.266	62.782	18.572	1.6176e-06	26.439	153.041	75.344	65.582	-3.041	176.302	112.927	-2.541	4.259	137.318	126.474	3.944	10.611	10.823	17.625	162.601	17.096	-8191	255	
642.177	1	1	0	0	0.056603	0.045103	0.049381	0.25272	0.15562	0.12435	0.48934	0.18936	0.21615	0.15184	0.17609	0.14926	0.14641	0.073052	0.086881	0.039631	-2.7812	-3.3937	-3.3187	-3.3229	-3.4	-3.3833	-3.3688	-3.4833	-3.35	-3.4562	-3.5125	-3.3958	-3.3667	-3.5563	-3.1771	-3.4479	153.341	238.197	262.089	238.749	286.472	45.881	285.990	317.983	339.520	69.972	225.227	321.229	4.137	111.782	173.602	30.693	0.00010346	0.000284	0.00010282	1093.9	2.2105e-06	5.1113e-06	1162.2	229.77	2.6771e-06	3.4825e-06	288.19	80.926	62.186	18.419	1.5544e-06	26.395	0.00016382	0.00015505	4.0466e-05	1069.6	1.8378e-06	1.6211e-06	1135.9	226.63	1.773e-06	1.6097e-06	285.18	81.263	62.633	18.472	1.5935e-06	26.463	155.380	43.310	95.812	-2.925	167.707	131.098	-2.437	4.188	163.851	138.410	3.914	10.754	10.912	17.919	173.093	17.360	-8191	255	
642.298	1	1	0	0	0.12524	0.18047	0.30035	0.06477	0.08309	0.11802	0.34905	0.16134	0.16075	0.062797	0.10573	0.12259	0.10367	0.030987	0.29881	0.24388	-2.7646	-3.2917	-3.2938	-3.4833	-3.3	-3.3396	-3.5021	-3.5708	-3.2271	-3.4708	-3.6958	-3.2729	-3.5958	-3.5208	-3.3271	-3.4042	80.098	208.315	146.651	317.204	18.292	295.085	304.628	311.119	-9.717	243.553	324.646	52.161	151.825	29.378	162.598	344.070	0.00011366	0.00018843	7.6587e-05	1094.1	2.1229e-06	3.3681e-06	1160.2	228.95	1.2431e-06	3.133e-06	288.71	81.008	62.936	18.492	2.7406e-06	26.381	0.00015629	0.00014506	4.0665e-05	1068.2	1.7557e-06	1.4975e-06	1134.9	226.84	1.7365e-06	1.6469e-06	284.26	81.264	62.901	18.519	1.6449e-06	26.465	153.450	80.565	99.648	-3.060	161.375	146.925	-2.558	4.222	191.624	132.836	4.102	10.781	10.782	17.429	165.455	17.388	-8191	255	
642.394	1	1	0	0	0.19983	0.10148	0.063145	0.20299	0.095623	0.29778	0.37054	0.20298	0.17067	0.079827	0.11908	0.12182	0.1911	0.1779	0.053502	0.081061	-2.8854	-3.3396	-3.6104	-3.375	-3.375	-3.5167	-3.2292	-3.5938	-3.0979	-3.2583	-3.5896	-3.3708	-3.2938	-3.6	-3.1937	-3.6208	281.004	184.401	59.388	342.601	38.744	11.926	295.221	0.850	115.563	338.691	16.154	20.345	235.055	48.964	27.331	104.071	0.00014549	0.00027925	8.3697e-05	1102.8	2.2459e-06	2.0566e-06	1159.9	229.87	1.5147e-06	2.5065e-06	289.55	80.497	63.139	18.503	3.0694e-06	26.469	0.00016342	0.00014795	4.0671e-05	1072.8	1.7836e-06	1.5002e-06	1136.4	227.02	1.6726e-06	1.4869e-06	284.69	81.107	62.852	18.523	1.6484e-06	26.482	159.367	80.064	97.314	-2.934	183.930	141.242	-2.538	4.010	148.675	111.300	3.692	10.664	10.637	17.518	166.735	16.793	-8191	255	
642.490	1	1	0	0	0.10291	0.061392	0.12818	0.1882	0.14524	0.25165	0.29632	0.14578	0.073698	0.075759	0.39009	0.17592	0.089477	0.22501	0.31431	0.24617	-3.0583	-3.1833	-3.5208	-3.4396	-3.2979	-3.6292	-3.3479	-3.4938	-3.4667	-3.2396	-3.6063	-3.4917	-3.2854	-3.4917	-3.0458	-3.4833	239.494	214.628	102.671	246.346	274.997	126.607	279.377	169.045	282.413	222.064	280.937	54.233	208.415	-5.635	336.199	259.700	9.453e-05	0.00032672	0.00011472	1092.6	1.1046e-06	1.8618e-06	1161	229.17	1.4562e-06	2.9286e-06	287.86	80.922	62.998	18.646	2.3792e-06	26.454	0.00015378	0.00014565	4.295e-05	1070.8	1.7194e-06	1.4944e-06	1137.5	226.8	1.7042e-06	1.6219e-06	284.13	81.23	62.875	18.581	1.6206e-06	26.535	157.140	54.976	90.259	-2.853	174.673	177.398	-2.762	4.273	155.567	148.685	4.201	10.476	10.831	17.605	130.157	17.246	-8191	255	
642.609	1	1	0	0	0.10407	0.090868	0.11731	0.28247	0.10133	0.24934	0.24957	0.33368	0.064712	0.17808	0.23495	0.11384	0.40154	0.22801	0.13553	0.29573	-2.9375	-3.075	-3.6562	-3.3417	-3.3083	-3.3708	-3.3104	-3.4125	-3.5229	-2.9729	-3.5354	-3.3917	-3.3771	-3.5792	-3.3958	-3.4417	86.356	275.392	101.297	223.931	184.484	116.292	35.547	339.214	200.898	227.908	265.741	-13.006	292.301	346.346	195.935	303.754	0.00013376	0.00028947	6.71e-05	1100.3	2.3271e-06	3.3399e-06	1160.6	228.12	2.0358e-06	2.4214e-06	289.75	80.942	63.153	18.485	2.1977e-06	26.354	0.00016009	0.00014569	4.1835e-05	1072.9	1.8439e-06	1.5287e-06	1136.8	226.97	1.7331e-06	1.638e-06	284.99	81.232	62.967	18.549	1.6405e-06	26.464	154.557	54.563	100.890	-2.970	187.759	147.474	-2.638	4.378	189.887	161.689	4.169	10.415	10.815	17.657	132.606	17.514	-8191	255	
642.705	1	1	0	0	0.084958	0.16004	0.075272	0.2443	0.18068	0.29746	0.1631	0.31103	0.058041	0.23705	0.18549	0.20339	0.032006	0.16309	0.11314	0.38134	-3.2313	-3.2896	-3.5083	-3.175	-3.1542	-3.5396	-3.4208	-3.5417	-3.4562	-3.2583	-3.5146	-3.3479	-3.275	-3.5792	-3.1021	-3.4479	258.798	223.021	202.453	296.121	279.067	69.151	285.543	309.143	7.073	111.412	305.093	270.569	154.092	12.332	160.027	337.346	0.00012709	0.00024172	8.1744e-05	1099.5	2.8076e-06	2.0198e-06	1162.1	230.05	1.279e-06	2.0237e-06	288.52	81.099	62.88	18.509	2.3679e-06	26.506	0.00015606	0.00014971	3.9688e-05	1072.7	1.7975e-06	1.5412e-06	1139.4	227.39	1.7237e-06	1.5596e-06	285.27	81.506	62.919	18.581	1.6176e-06	26.584	157.209	55.844	84.147	-2.893	174.867	154.825	-2.540	4.408	159.215	144.243	4.306	10.435	10.795	17.337	129.143	17.396	-8191	255	
642.801	1	1	0	0	0.13195	0.11094	0.16509	0.1448	0.090856	0.1607	0.091873	0.26346	0.14025	0.11166	0.14315	0.049213	0.11169	0.09752	0.044234	0.14724	-3.1583	-3.1333	-3.3333	-3.6375	-3.3125	-3.55	-3.4021	-3.2646	-3.5208	-3.3438	-3.4646	-3.4583	-3.0542	-3.45	-3.1396	-3.2875	93.012	-1.731	-12.045	330.298	35.212	174.446	221.234	241.502	68.334	50.601	271.776	36.748	42.861	322.087	123.716	215.790	0.00013791	0.00034814	9.6041e-05	1100.2	1.7792e-06	4.0468e-06	1162.9	230.42	1.2799e-06	4.1746e-06	289.86	80.777	62.582	18.568	1.7243e-06	26.332	0.00015945	0.0001537	4.2582e-05	1072.9	1.7987e-06	1.6031e-06	1139.2	227.33	1.723e-06	1.7303e-06	285.64	81.3	62.788	18.585	1.7213e-06	26.498	154.294	59.063	61.558	-3.085	171.012	113.982	-2.836	4.146	173.958	135.160	4.046	10.447	11.231	18.078	114.556	17.385	-8191	255	
642.897	1	1	0	0	0.11254	0.20933	0.1114	0.38726	0.052118	0.12952	0.32335	0.10936	0.089566	0.11277	0.30601	0.32792	0.086396	0.10017	0.11423	0.053729	-3.0396	-3.0521	-3.475	-3.4792	-3.2167	-3.6083	-3.4729	-3.2979	-3.4437	-3.2854	-3.4062	-3.4813	-3.0229	-3.4229	-3.3646	-3.4208	248.465	227.743	225.948	198.392	176.658	328.952	182.565	322.640	205.044	312.625	267.932	1.216	91.713	332.279	330.985	265.606	0.00013346	0.00022175	8.589e-05	1095.6	2.2797e-06	2.8153e-06	1155.8	229.87	1.4393e-06	3.3676e-06	287.87	81.003	62.534	18.503	1.7249e-06	26.466	0.00016352	0.00015431	4.1726e-05	1070.5	1.8599e-06	1.6679e-06	1136.3	226.85	1.8384e-06	1.6793e-06	285.36	81.271	62.881	18.576	1.7632e-06	26.523	155.716	76.415	77.184	-3.010	164.858	123.547	-2.721	4.204	163.774	137.592	3.820	10.667	10.902	17.594	151.490	17.598	-8191	255	
642.993	1	1	0	0	0.042955	0.12285	0.13472	0.090163	0.15973	0.14226	0.28105	0.329	0.26817	0.36298	0.1591	0.19248	0.098397	0.11549	0.21788	0.32036	-2.9854	-3.0667	-3.4188	-3.5438	-3.2667	-3.4521	-3.3688	-3.3479	-3.4875	-3.3667	-3.4458	-3.6021	-3.1958	-3.4521	-3.4125	-3.1437	320.370	100.031	301.832	289.679	302.025	100.142	302.585	314.350	118.277	338.461	345.805	234.982	186.613	21.788	129.876	310.707	0.00011175	0.00028028	0.00011859	1089	2.009e-06	2.0565e-06	1152.1	228.66	1.6991e-06	2.0498e-06	287.64	80.717	62.599	18.515	2.1887e-06	26.263	0.00016367	0.00016354	4.5875e-05	1064.4	1.8572e-06	1.6663e-06	1129.1	226.19	1.8624e-06	1.6754e-06	284.18	81.126	62.689	18.525	1.7021e-06	26.473	157.314	63.309	70.957	-2.885	155.755	100.789	-2.630	4.528	167.665	126.211	4.146	10.636	11.078	17.540	139.266	17.129	-8191	255	
643.089	1	1	0	0	0.21466	0.083916	0.18884	0.14695	0.1611	0.13404	0.24368	0.015922	0.23633	0.35485	0.082118	0.24497	0.20968	0.044162	0.16644	0.11067	-3.1292	-3.2104	-3.2271	-3.7104	-3.3042	-3.5312	-3.6437	-3.45	-3.4458	-3.3521	-3.4333	-3.3646	-3.2979	-3.3604	-3.55	-3.2958	23.367	250.756	278.646	293.857	93.913	242.481	277.152	202.458	99.698	40.765	246.067	256.021	216.098	289.786	54.451	256.717	0.00011046	0.00025284	5.6872e-05	1088.1	2.7209e-06	2.3129e-06	1156	227.69	2.0643e-06	2.5022e-06	288.4	80.605	62.51	18.432	1.1322e-06	26.468	0.00016913	0.00015142	4.4783e-05	1063.5	1.8277e-06	1.6348e-06	1130	225.6	1.7257e-06	1.7179e-06	284.12	80.891	62.721	18.466	1.6273e-06	26.501	149.785	83.389	42.597	-2.901	172.998	124.572	-2.486	4.097	146.984	123.347	3.993	10.613	11.143	17.522	156.431	17.127	-8191	255	
643.210	1	1	0	0	0.27632	0.067363	0.17384	0.36676	0.074095	0.059184	0.37391	0.14684	0.20646	0.049753	0.074781	0.16723	0.063102	0.017072	0.11442	0.249	-2.9708	-3.1896	-3.1083	-3.6167	-3.2667	-3.375	-3.7271	-3.1979	-3.4062	-3.4271	-3.4479	-3.6146	-3.3375	-3.3771	-3.3708	-3.3729	2.960	15.320	109.944	28.711	98.190	259.869	300.774	-9.710	151.670	151.190	287.487	42.692	48.095	218.125	299.055	181.173	0.00011803	0.00034714	0.00011333	1083.7	2.9504e-06	2.8796e-06	1147.9	229.88	1.6809e-06	2.2193e-06	288.3	80.856	63.02	18.571	1.4344e-06	26.464	0.00016008	0.00015333	4.2896e-05	1060.8	1.7309e-06	1.5755e-06	1127	226.52	1.7116e-06	1.5265e-06	284.33	81.061	62.878	18.535	1.5148e-06	26.456	159.759	67.272	82.058	-3.074	178.930	123.461	-2.694	4.428	179.382	165.183	4.270	11.023	10.784	17.572	168.286	17.453	-8191	255	
643.305	1	1	0	0	0.24173	0.089538	0.21045	0.11146	0.12283	0.22713	0.12974	0.051218	0.02213	0.25103	0.20363	0.21212	0.37791	0.21659	0.15859	0.28117	-2.9625	-3.4437	-3.0729	-3.6167	-3.2979	-3.325	-3.7938	-3.2396	-3.4833	-3.4188	-3.2604	-3.6875	-3.2938	-3.2062	-3.5792	-3.1229	80.099	267.751	12.629	-10.011	273.653	234.156	254.259	334.475	268.350	173.410	219.462	251.265	274.442	244.444	152.070	273.910	0.00013703	0.00034108	8.1934e-05	1085.3	3.118e-06	3.5596e-06	1153	229.15	1.661e-06	3.0153e-06	287.82	80.804	62.535	18.554	2.988e-06	26.353	0.00015793	0.00013857	3.9513e-05	1061.4	1.6813e-06	1.5899e-06	1128.6	226.15	1.7542e-06	1.5639e-06	284.01	81.038	62.697	18.567	1.6982e-06	26.498	155.560	45.479	72.438	-2.927	180.420	141.563	-2.752	4.371	180.961	108.236	4.016	10.707	10.875	17.904	146.205	17.141	-8191	255	
643.402	1	1	0	0	0.10166	0.20497	0.07108	0.23062	0.1106	0.1471	0.095444	0.30742	0.13711	0.088738	0.25999	0.16707	0.056568	0.11589	0.060543	0.29307	-2.9583	-3.3	-3.3042	-3.5917	-3.35	-3.3187	-3.4417	-3.4167	-3.4458	-3.5271	-3.3187	-3.4562	-3.4104	-3.2812	-3.6833	-3.1833	31.365	120.080	306.984	37.052	32.581	39.418	303.124	240.772	100.103	49.276	273.752	286.419	242.959	17.118	312.043	79.354	0.00012852	0.00050327	9.5133e-05	1088.5	2.5645e-06	1.5251e-06	1154.1	229.04	2.0158e-06	2.6933e-06	289.52	81.327	62.741	18.503	1.7718e-06	26.497	0.00018271	0.00017564	4.9474e-05	1066	2.1619e-06	2.2276e-06	1132.5	226.96	2.2598e-06	2.1783e-06	285.45	81.638	62.988	18.597	2.1753e-06	26.616	147.053	62.600	82.468	-2.961	162.577	130.794	-2.573	4.220	157.286	137.743	4.114	10.592	10.895	17.624	171.620	16.855	-8191	255	
643.474	1	1	0	0	0.17127	0.054523	0.071238	0.15882	0.16838	0.12636	0.29184	0.27529	0.2546	0.04715	0.30589	0.14057	0.14279	0.26334	0.073332	0.13313	-2.8583	-3.4813	-2.8833	-3.6708	-3.0854	-3.0792	-3.5312	-3.4375	-3.1375	-3.4562	-3.2771	-3.3542	-3.2875	-3.2979	-3.6437	-3.4292	237.806	243.875	138.870	252.940	60.497	281.028	340.423	225.377	234.207	291.077	7.900	248.139	294.591	296.264	105.087	283.311	0.00013698	0.00028645	0.00011154	1097.5	1.517e-06	3.1255e-06	1164.6	230.05	1.3865e-06	3.0347e-06	289.28	80.884	63.236	18.603	3.3218e-06	26.562	0.00019414	0.00019254	5.4497e-05	1071.4	2.1508e-06	2.0351e-06	1137.1	227.81	2.1061e-06	2.0476e-06	285.59	81.308	63.072	18.648	1.9975e-06	26.647	150.557	66.277	85.682	-2.980	183.585	135.122	-2.570	4.110	128.764	126.579	4.088	10.697	10.855	17.247	149.553	17.033	-8191	255	
643.593	1	1	0	0	0.10577	0.12771	0.086019	0.1914	0.12629	0.14872	0.17881	0.22994	0.33401	0.17097	0.22036	0.12036	0.087624	0.10758	0.074446	0.12627	-3.0417	-3.3042	-3.2333	-3.5812	-3.3187	-3.3146	-3.6042	-3.3229	-3.1688	-3.6021	-3.2562	-3.2708	-3.5312	-3.2	-3.3563	-3.4667	335.160	164.254	161.103	318.140	345.903	172.399	222.905	228.898	156.232	261.188	292.284	257.904	295.604	106.027	115.836	28.424	0.00013879	0.0002762	8.1282e-05	1098.3	2.4744e-06	3.3933e-06	1160.9	230.52	9.241e-07	1.9834e-06	290.07	81.715	62.698	18.461	2.17e-06	26.569	0.0001835	0.00017312	5.0065e-05	1072.6	2.0729e-06	1.8813e-06	1138.1	227.73	1.9294e-06	1.856e-06	286.17	81.545	63.071	18.608	2.042e-06	26.6	150.349	38.890	51.689	-3.045	160.415	125.278	-2.539	4.034	225.099	177.623	4.147	10.655	11.272	17.632	147.786	17.344	-8191	255	
643.689	1	1	0	0	0.090146	0.13938	0.050047	0.1719	0.11187	0.2661	0.19216	0.28091	0.16532	0.14651	0.28819	0.077902	0.16065	0.19936	0.2005	0.11849	-2.7083	-3.4938	-3.2729	-3.5062	-3.4708	-3.175	-3.7604	-3.325	-3.2271	-3.4437	-3.3542	-3.4229	-3.3292	-3.2167	-3.4167	-3.5042	294.618	75.274	329.893	271.665	332.414	116.564	264.692	262.585	174.075	224.255	288.387	236.958	104.652	41.241	124.980	13.423	0.00012188	0.00033363	7.6327e-05	1094.2	1.7305e-06	2.9186e-06	1160.5	230.12	9.3933e-07	4.2219e-06	289.72	80.927	63.164	18.542	2.574e-06	26.454	0.00018504	0.0001741	5.0294e-05	1069.9	2.1243e-06	1.9182e-06	1136.9	227.38	2.159e-06	1.9459e-06	285.76	81.478	63.054	18.656	2.0408e-06	26.589	150.883	82.099	87.317	-2.933	163.316	108.268	-2.664	3.993	151.480	131.176	3.903	10.597	10.872	17.671	162.973	17.382	-8191	255	
643.785	1	1	0	0	0.11431	0.021799	0.05163	0.22809	0.037543	0.16844	0.25562	0.36383	0.10899	0.094744	0.1698	0.11404	0.14612	0.21657	0.14247	0.18974	-2.7438	-3.3417	-3.4042	-3.4062	-3.5083	-3.3042	-3.7	-3.5479	-3.1771	-3.45	-3.4208	-3.3812	-3.4292	-3.2313	-3.6458	-3.3021	272.688	176.437	13.637	283.296	189.924	-3.644	279.692	290.739	199.905	217.381	219.930	75.513	31.477	192.238	20.210	40.878	0.00012383	0.00027578	0.00012138	1092.9	2.4888e-06	4.7382e-06	1157.2	229.79	1.6278e-06	3.872e-06	290.28	80.878	62.807	18.54	2.7242e-06	26.413	0.00018206	0.00019128	5.1078e-05	1069.8	2.1247e-06	2.0102e-06	1135.4	227.33	2.1527e-06	2.0726e-06	285.71	81.553	63.101	18.586	2.095e-06	26.532	155.683	65.663	109.700	-2.954	192.991	133.744	-2.502	3.966	171.788	156.088	4.121	10.683	10.721	17.342	141.544	16.935	-8191	255	
643.881	1	1	0	0	0.026069	0.087717	0.21539	0.57658	0.23666	0.12322	0.22975	0.13175	0.11748	0.10236	0.1481	0.13429	0.15882	0.16501	0.028906	0.24826	-2.6521	-3.3	-3.2771	-3.175	-3.6396	-3.0771	-3.5417	-3.4229	-3.1979	-3.3417	-3.5208	-3.2583	-3.5958	-3.1896	-3.4688	-3.3854	283.365	16.452	132.471	316.216	237.702	330.728	249.719	100.723	269.318	62.549	40.045	65.697	56.310	-8.034	111.469	249.053	0.00012174	0.00026022	0.00011141	1092.5	1.4952e-06	3.5813e-06	1153.6	230.03	9.237e-07	2.3463e-06	288.1	81.086	62.9	18.562	2.1753e-06	26.425	0.00018811	0.00018583	5.2634e-05	1068.6	2.1089e-06	2.0104e-06	1135	227.46	2.1075e-06	1.9594e-06	285.39	81.516	62.953	18.571	2.0487e-06	26.549	160.905	78.749	83.707	-2.850	189.208	165.505	-2.404	3.969	170.166	131.408	3.817	10.678	10.744	17.809	137.198	17.322	-8191	255	
644.002	1	1	0	0	0.13455	0.13995	0.12738	0.16233	0.13108	0.10457	0.14113	0.10026	0.16665	0.17809	0.40119	0.054155	0.18885	0.19655	0.096178	0.25327	-2.7438	-3.5646	-3.1625	-3.4188	-3.5917	-3.2667	-3.5	-3.4979	-3.2833	-3.5979	-3.3312	-3.1562	-3.5146	-3.1688	-3.1917	-3.4208	267.807	279.437	206.067	302.903	256.639	225.315	338.106	25.027	-10.461	25.563	126.689	241.616	336.691	100.352	269.183	299.485	0.00012736	0.00029352	7.8627e-05	1093.8	2.609e-06	1.944e-06	1162.9	229	1.7759e-06	2.8038e-06	289.7	81.104	62.742	18.524	2.866e-06	26.643	0.00019005	0.00018433	5.2254e-05	1068.6	2.2634e-06	2.0279e-06	1137	227.08	2.1126e-06	1.9304e-06	285.72	81.53	63.027	18.578	1.96e-06	26.643	161.258	78.625	107.163	-2.994	179.578	153.069	-2.624	4.396	162.284	152.841	4.148	10.632	10.852	17.542	146.049	17.174	-8191	255	
644.098	1	1	0	0	0.20911	0.27582	0.18306	0.28777	0.12844	0.17616	0.087137	0.1221	0.19783	0.12709	0.10191	0.090681	0.26224	0.11556	0.13608	0.13993	-2.8458	-3.2542	-3.2938	-3.2125	-3.5687	-3.0417	-3.5583	-3.3583	-3.2562	-3.4292	-3.325	-3.3646	-3.3063	-3.3375	-3.2604	-3.4604	72.410	234.365	182.297	300.437	15.834	244.650	-3.268	293.140	105.173	30.506	304.663	343.679	222.461	211.544	15.709	255.979	0.00011203	0.00022476	0.0001123	1102.6	1.9375e-06	2.7047e-06	1162.5	229.71	1.3789e-06	2.4698e-06	289.81	81.017	63.226	18.69	2.1712e-06	26.565	0.00017861	0.00016821	4.9649e-05	1073.7	2.0047e-06	1.8489e-06	1139.5	227.73	2.0452e-06	1.8308e-06	285.84	81.656	63.306	18.716	2.085e-06	26.65	152.613	75.889	90.046	-2.870	162.042	142.229	-2.568	4.148	203.813	125.286	3.965	10.442	11.336	17.641	165.014	16.957	-8191	255	
644.170	1	1	0	0	0.13245	0.17507	0.13036	0.40035	0.14489	0.3056	0.13622	0.090195	0.32338	0.18624	0.17574	0.11024	0.19748	0.22916	0.12481	0.17445	-2.8312	-3.3896	-3.3917	-3.3771	-3.5729	-3.35	-3.3104	-3.6542	-3.2729	-3.4146	-3.4771	-3.2333	-3.425	-3.2896	-3.275	-3.4583	45.028	45.420	29.365	-7.928	329.898	312.848	178.589	-4.726	82.717	301.716	335.440	159.399	335.124	45.498	297.858	14.657	0.00012442	0.00013387	0.00010491	1097.9	3.2995e-06	2.5304e-06	1158.5	229.36	8.2835e-07	3.5428e-06	289.55	81.29	63.249	18.6	1.9542e-06	26.552	0.00018449	0.00018391	4.9896e-05	1072.2	2.12e-06	1.918e-06	1135.4	227.47	2.0387e-06	1.8627e-06	285.72	81.697	63.149	18.64	1.9387e-06	26.607	156.435	72.580	107.200	-2.900	164.035	122.036	-2.428	3.910	128.563	133.162	3.992	10.791	10.649	17.680	219.880	17.932	-8191	255	
644.290	1	1	0	0	0.18544	0.11044	0.098312	0.13288	0.09684	0.031568	0.38348	0.31262	0.11187	0.18974	0.13966	0.10921	0.062245	0.12054	0.0034752	0.089505	-2.9792	-3.4583	-3.4542	-3.2583	-3.6937	-3.2979	-3.3667	-3.6188	-3.125	-3.4313	-3.6542	-3.2646	-3.3792	-3.3438	-3.3875	-3.3937	301.370	283.497	323.694	165.597	172.733	147.531	307.318	288.286	184.698	314.365	109.398	179.264	276.774	12.976	282.904	245.804	0.00011689	0.00024972	0.00010134	1096.3	1.2123e-06	3.9257e-06	1157.2	231.48	1.8521e-06	1.868e-06	290.47	81.503	63.36	18.692	3.5893e-06	26.535	0.00018071	0.00017334	4.4343e-05	1069.8	1.8928e-06	1.8129e-06	1135	228.48	1.8584e-06	1.7788e-06	286.67	81.8	63.306	18.744	1.8484e-06	26.702	156.431	45.174	74.680	-2.943	170.696	140.905	-2.760	4.060	162.422	125.649	4.086	10.741	10.655	17.565	147.440	17.314	-8191	255	
644.387	1	1	0	0	0.13675	0.054546	0.30062	0.28038	0.13035	0.26474	0.21568	0.28577	0.1353	0.13908	0.33368	0.16108	0.081102	0.023685	0.1146	0.27198	-2.7812	-3.3104	-3.4625	-3.2938	-3.4688	-3.2792	-3.2958	-3.5917	-3.3375	-3.1708	-3.6813	-3.3	-3.6229	-3.3583	-3.25	-3.4479	301.186	54.275	170.508	-7.163	58.385	186.484	270.195	272.835	137.914	233.149	326.228	-5.259	302.369	70.619	26.304	297.693	0.00012243	0.000295	9.7057e-05	1098.8	2.6055e-06	3.1205e-06	1165.6	232.7	1.338e-06	2.2836e-06	291.74	82.358	63.688	18.683	2.7351e-06	26.749	0.00017326	0.00017534	4.7147e-05	1073.8	2.0387e-06	1.8393e-06	1140.8	229.73	2.1088e-06	1.9335e-06	288.05	82.395	63.752	18.804	2.1008e-06	26.84	159.755	78.935	65.631	-2.709	168.639	120.390	-2.594	4.185	173.763	163.535	3.891	10.587	10.762	17.597	170.920	17.287	-8191	255	
644.481	1	1	0	0	0.087206	0.17862	0.23299	0.086322	0.16148	0.20845	0.16524	0.1343	0.31231	0.088427	0.12523	0.13189	0.11754	0.16966	0.19022	0.21456	-2.9896	-3.1208	-3.6063	-3.2833	-3.3833	-3.3833	-3.3	-3.5	-3.6104	-3.1875	-3.55	-3.3896	-3.3354	-3.6271	-3.3563	-3.5417	333.367	193.204	335.143	316.741	143.005	169.026	309.350	214.086	306.801	13.349	310.114	344.618	289.723	124.677	172.965	-3.016	0.00013739	0.00031487	6.1535e-05	1110.1	2.2613e-06	4.2945e-06	1175.3	233.53	9.8632e-07	3.2455e-06	293.1	82.352	63.917	18.999	3.4824e-06	26.87	0.00018368	0.00018361	4.9504e-05	1083.6	2.1432e-06	2.0567e-06	1151	231.24	2.0719e-06	2.033e-06	289.85	82.833	63.877	18.971	2.1068e-06	26.965	155.857	87.216	67.629	-2.933	173.150	156.032	-2.756	4.129	201.732	121.988	3.803	10.545	11.302	17.369	162.756	17.372	-8191	255	
644.579	1	1	0	0	0.20941	0.041788	0.22005	0.24164	0.22539	0.18333	0.20306	0.13423	0.13838	0.17959	0.18212	0.072301	0.11599	0.063542	0.048899	0.036608	-2.8833	-3.225	-3.3417	-3.4271	-3.3625	-3.5646	-3.2646	-3.6458	-3.4521	-3.3125	-3.5187	-3.225	-3.3604	-3.5479	-3.1937	-3.4104	99.655	-11.268	300.315	269.957	176.481	244.270	311.790	292.416	239.188	296.888	285.768	269.793	166.910	17.265	85.203	232.681	0.00011663	0.00040545	0.00012001	1114.4	2.5826e-06	3.7677e-06	1180.7	234.35	9.6426e-07	2.8219e-06	293.55	82.299	63.944	18.947	3.2086e-06	26.897	0.00019093	0.00019019	5.2869e-05	1088.6	2.1673e-06	1.9542e-06	1154.1	231.58	2.0629e-06	1.939e-06	290.32	82.871	64.143	18.985	1.8649e-06	27.031	152.633	64.621	63.184	-3.034	185.280	144.990	-2.621	3.991	154.821	137.493	3.792	10.658	10.979	17.747	148.034	17.140	-8191	255	
644.698	1	1	0	0	0.1227	0.02565	0.16751	0.22048	0.021675	0.074668	0.12965	0.16216	0.15337	0.1401	0.21377	0.15409	0.19476	0.29425	0.082289	0.15324	-3.1354	-3.2583	-3.4229	-3.2375	-3.1479	-3.5042	-3.3167	-3.5292	-3.4208	-3.2375	-3.5979	-3.1542	-3.35	-3.4958	-3.2042	-3.6229	117.428	98.347	80.323	320.640	107.138	99.472	309.282	319.450	71.637	296.457	-11.519	306.348	257.570	331.879	11.531	231.492	0.00011683	0.00033311	7.5634e-05	1116.3	2.7483e-06	4.3937e-06	1176.5	234.38	1.3376e-06	2.4267e-06	295.48	82.581	64.599	18.949	3.9728e-06	26.815	0.0001738	0.00016541	4.2649e-05	1089.3	1.932e-06	1.744e-06	1152.7	232.11	1.8212e-06	1.6929e-06	290.93	82.905	64.382	18.948	1.7878e-06	27.028	157.660	91.252	101.666	-3.087	182.662	145.517	-2.644	3.984	156.232	165.171	4.129	10.390	10.706	17.675	149.177	16.916	-8191	255	
644.769	1	1	0	0	0.0092145	0.18993	0.20415	0.39349	0.31017	0.060631	0.16738	0.096278	0.20847	0.096923	0.33612	0.064485	0.12043	0.084573	0.1167	0.18043	-2.9917	-3.1063	-3.4917	-3.45	-3.1604	-3.4792	-3.2833	-3.3208	-3.5979	-3.1625	-3.5938	-3.3563	-3.2896	-3.5146	-3.2792	-3.4271	110.788	326.111	296.306	344.595	104.136	16.546	342.438	193.557	55.417	67.911	301.297	301.320	249.937	276.818	311.895	258.563	0.00013319	0.00029131	7.1576e-05	1115.2	1.0339e-06	4.0638e-06	1179.8	235.24	1.5612e-06	2.5666e-06	294.81	82.836	63.88	19.105	1.9576e-06	26.92	0.00016808	0.00016715	4.5465e-05	1089.6	1.9284e-06	1.6917e-06	1154.3	232.62	1.7932e-06	1.6512e-06	290.84	82.872	64.225	19.045	1.723e-06	26.981	157.821	57.228	110.464	-3.050	195.080	144.095	-2.764	4.068	168.483	146.887	4.038	10.689	10.876	17.664	163.136	17.189	-8191	255	
644.890	1	1	0	0	0.19198	0.053193	0.1919	0.27488	0.062433	0.12666	0.24941	0.15534	0.095371	0.026751	0.08991	0.22534	0.17293	0.081388	0.26989	0.097607	-3.1396	-3.0854	-3.3292	-3.5708	-3.1854	-3.5938	-3.4542	-3.4313	-3.4479	-3.2708	-3.4917	-3.4396	-3.1875	-3.525	-3.2604	-3.3	91.688	300.754	226.008	318.904	304.519	-7.319	309.878	-8.278	45.331	288.676	162.021	226.902	-12.476	251.603	21.059	12.837	0.00011877	0.00035813	4.9757e-05	1113.2	2.8783e-06	3.0408e-06	1182.2	235.69	1.8801e-06	1.1286e-06	296.6	82.863	64.342	19.011	2.5355e-06	27.023	0.00015805	0.00015483	4.1268e-05	1090.5	1.8615e-06	1.7301e-06	1156.8	232.49	1.816e-06	1.6752e-06	291.6	83.014	64.428	19.007	1.891e-06	27.06	160.654	66.137	47.902	-3.022	148.886	144.523	-2.798	4.209	179.777	146.813	3.981	10.505	10.794	17.635	126.472	17.327	-8191	255	
644.986	1	1	0	0	0.095701	0.089396	0.19122	0.18752	0.14406	0.19866	0.29029	0.21032	0.09544	0.23781	0.17211	0.13023	0.03735	0.10708	0.25859	0.12618	-2.9437	-3.4125	-3.2646	-3.5646	-3.0979	-3.6271	-3.2208	-3.2542	-3.55	-3.3354	-3.2354	-3.3708	-3.0312	-3.2104	-3.2729	-3.2271	105.970	18.947	198.548	260.402	311.437	167.462	264.382	223.029	10.342	339.897	254.206	35.612	72.713	303.135	232.084	296.964	0.00012608	0.00027182	9.8203e-05	1119.2	1.8335e-06	3.5292e-06	1184.7	236.97	1.7826e-06	2.6531e-06	297.59	82.786	64.572	19.069	2.2098e-06	27.07	0.00017684	0.00017214	4.6146e-05	1092	2.0545e-06	1.8314e-06	1159.1	233.69	2.0159e-06	1.8462e-06	292.59	83.186	64.607	19.104	1.8626e-06	27.177	161.874	78.616	68.284	-2.802	184.506	143.243	-2.625	4.197	146.219	121.215	3.903	10.636	11.077	17.492	155.271	16.964	-8191	255	
645.082	1	1	0	0	0.18179	0.17343	0.093282	0.068936	0.14408	0.22597	0.3668	0.19119	0.14046	0.069086	0.12343	0.14442	0.15882	0.24863	0.037611	0.27658	-2.9583	-3.0896	-3.275	-3.4313	-3.1312	-3.2875	-3.4792	-3.0896	-3.4667	-2.9771	-3.2812	-3.4854	-2.9583	-3.5083	-3.3625	-3.2687	341.332	34.714	324.228	8.897	-7.585	12.098	293.935	265.749	185.226	-7.687	202.440	305.979	268.515	234.100	311.294	310.638	0.00013371	0.00032577	0.00011041	1118.5	1.4368e-06	3.8779e-06	1178.1	235.73	1.13e-06	3.5412e-06	295.62	82.756	64.363	19.014	2.0361e-06	27.128	0.00017047	0.00016511	4.9921e-05	1092.8	2.0018e-06	1.8635e-06	1155	233.34	1.9399e-06	1.8965e-06	291.91	83.285	64.438	19.06	1.9663e-06	27.203	154.156	49.301	80.524	-3.214	162.528	132.694	-2.749	4.280	191.651	127.476	4.025	10.799	10.619	17.558	174.027	17.058	-8191	255	
645.179	1	1	0	0	0.15449	0.38686	0.085154	0.1086	0.27181	0.14166	0.1416	0.17389	0.21057	0.085592	0.2607	0.43413	0.072887	0.039946	0.12993	0.077044	-2.9896	-3.2104	-3.3458	-3.5167	-3.2292	-3.4938	-3.2458	-3.2104	-3.3875	-3.2667	-3.2333	-3.4167	-3.2896	-3.4167	-3.0646	-3.1146	260.734	134.804	97.234	325.126	337.013	239.670	322.881	273.732	278.495	170.023	-10.411	11.203	318.376	211.128	26.200	101.326	0.00013125	0.00026853	7.4493e-05	1116.4	1.2901e-06	3.3236e-06	1180.5	236.29	2.0842e-06	2.9157e-06	298.01	82.807	64.242	18.984	1.7916e-06	27.042	0.0001755	0.00017284	4.8395e-05	1091.8	2.093e-06	1.9773e-06	1156.4	233.85	2.0571e-06	1.9443e-06	293.07	83.261	64.6	19.123	1.9654e-06	27.157	160.065	101.524	120.010	-2.971	162.867	156.211	-2.556	4.114	155.567	142.318	3.948	10.324	10.853	17.167	163.673	17.150	-8191	255	
645.299	1	1	0	0	0.027613	0.15693	0.22717	0.3087	0.21299	0.13235	0.21539	0.15984	0.14238	0.036795	0.22359	0.13933	0.092367	0.27505	0.094283	0.3486	-3.0625	-3.2833	-3.0708	-3.5979	-3.0146	-3.2396	-3.5521	-3.2354	-3.2917	-3.2271	-3.2229	-3.4542	-3.3229	-3.325	-3.4813	-2.9979	60.857	52.181	219.260	248.882	0.629	2.125	67.520	283.467	31.306	203.809	287.435	10.568	180.238	24.659	293.666	202.370	0.00013705	0.00010948	9.8752e-05	1122.9	1.6341e-06	2.1499e-06	1187.9	236.45	8.9544e-07	2.5871e-06	297.79	82.943	64.55	19.114	1.9778e-06	27.084	0.00018329	0.00017646	4.8015e-05	1096.7	2.0472e-06	1.8657e-06	1164.1	234.46	2.0365e-06	1.8541e-06	293.07	83.517	64.67	19.15	1.8677e-06	27.204	153.045	57.172	79.875	-3.165	162.108	155.446	-2.653	4.108	172.951	146.447	3.939	10.461	10.958	17.605	132.113	16.921	-8191	255	
645.371	1	1	0	0	0.06198	0.23096	0.16707	0.28935	0.22027	0.11282	0.32991	0.29851	0.11309	0.18228	0.10709	0.040857	0.12547	0.087776	0.21089	0.094286	-3.1146	-3.3208	-2.8875	-3.6271	-3.1146	-3.2083	-3.7333	-3.2354	-3.2812	-3.5375	-3.2104	-3.5146	-3.4	-3.2354	-3.4417	-3.0396	202.622	100.057	61.422	262.264	-6.672	147.385	294.649	254.882	210.254	47.215	311.789	317.306	196.302	75.102	178.169	196.061	0.0001209	0.00024488	7.2932e-05	1120.8	2.7005e-06	2.7452e-06	1189.5	237.42	1.2397e-06	3.3499e-06	297.11	83.037	64.892	19.207	2.4759e-06	27.233	0.00017678	0.00016626	4.8678e-05	1097.4	2.1092e-06	1.8215e-06	1164.5	234.46	1.9955e-06	1.8057e-06	293.35	83.51	64.815	19.203	1.9174e-06	27.241	155.735	87.691	82.860	-3.137	180.557	158.921	-2.742	3.863	182.574	153.843	3.917	10.336	10.621	17.513	155.966	17.156	-8191	255	
645.467	1	1	0	0	0.1122	0.081082	0.3235	0.28583	0.061735	0.072297	0.17783	0.31706	0.096844	0.14543	0.10606	0.25457	0.13967	0.18252	0.24151	0.23261	-2.8542	-3.3396	-3.0583	-3.4562	-3.125	-3.1854	-3.6125	-3.3875	-3.2479	-3.4021	-3.0687	-3.4354	-3.3146	-3.225	-3.1771	-3.2188	170.792	148.801	153.531	293.057	233.096	120.369	277.389	307.879	266.523	176.975	210.253	296.461	275.490	273.911	90.115	152.303	0.00010581	0.00031241	0.00013223	1127.6	2.8275e-06	4.5559e-06	1190.7	237.88	1.8276e-06	1.1005e-06	296.9	83.424	64.868	19.088	3.0609e-06	27.206	0.00018209	0.00017418	4.9523e-05	1099.5	2.0454e-06	1.948e-06	1166.4	235.05	2.0268e-06	1.8294e-06	293.87	83.77	64.874	19.183	1.9311e-06	27.289	156.255	64.079	87.684	-3.184	184.868	130.118	-2.637	4.174	160.139	123.386	4.006	10.330	10.868	17.541	175.654	16.953	-8191	255	
645.561	1	1	0	0	0.131	0.18546	0.12773	0.27152	0.13353	0.087273	0.19696	0.18642	0.1521	0.050739	0.20449	0.28642	0.19269	0.2807	0.090076	0.1797	-3.0229	-3.1854	-3.2729	-3.4813	-3.3187	-3.1875	-3.4521	-3.2687	-3.1875	-3.4729	-3.2125	-3.4146	-3.3125	-3.3042	-3.5042	-3.2083	232.117	332.573	152.096	313.720	273.165	211.496	232.198	323.479	286.122	102.396	331.781	298.316	321.507	-12.389	147.965	259.380	0.00012874	0.00028032	0.00010658	1132.4	2.2334e-06	2.288e-06	1196.9	237.35	2.3157e-06	2.4613e-06	298.38	83.444	65.554	19.137	3.3276e-06	27.153	0.00018054	0.00016856	4.9818e-05	1104.9	2.097e-06	2.0714e-06	1171.4	235.49	2.1489e-06	2.0378e-06	294.78	83.944	65.057	19.22	2.0397e-06	27.334	151.587	74.245	72.057	-3.131	160.122	133.646	-2.751	4.038	169.604	126.880	3.834	10.606	10.554	17.309	155.459	17.135	-8191	255	
645.682	1	1	0	0	0.37291	0.17882	0.10347	0.18865	0.11793	0.19995	0.11153	0.14355	0.28448	0.053429	0.075236	0.16736	0.22545	0.24615	0.23913	0.028036	-2.8875	-3.3604	-3.2167	-3.3417	-3.5542	-3.1562	-3.6063	-3.325	-3.1229	-3.5896	-3.1917	-3.5438	-3.5167	-3.0854	-3.425	-3.25	77.167	105.950	76.620	1.319	76.773	142.419	8.235	289.027	228.340	199.622	306.350	324.859	137.443	291.322	115.327	179.107	0.00013027	0.000342	8.8505e-05	1132.9	2.1852e-06	1.4925e-06	1199.9	238.58	1.4654e-06	3.2592e-06	300.07	84.081	65.103	19.148	2.7567e-06	27.311	0.00018845	0.00018854	5.3351e-05	1106.7	2.1292e-06	2.0565e-06	1174.1	235.65	2.207e-06	2.0364e-06	295.45	84.006	65.154	19.221	2.0506e-06	27.347	153.809	68.948	91.249	-3.158	162.995	155.335	-2.591	3.950	156.198	153.001	3.730	10.542	11.207	17.027	155.460	17.557	-8191	255	
645.778	1	1	0	0	0.14404	0.1554	0.17951	0.22329	0.2903	0.033867	0.18114	0.2784	0.17739	0.27341	0.12168	0.10788	0.02677	0.16357	0.16958	0.15388	-2.675	-3.4792	-3.3438	-3.3354	-3.375	-3.0417	-3.3771	-3.3875	-3.2875	-3.5354	-3.1688	-3.625	-3.3521	-3.1792	-3.4146	-3.3812	111.878	36.537	344.907	297.640	306.152	127.502	340.419	260.612	115.650	232.191	111.357	339.593	167.724	146.997	213.641	78.675	0.00012322	0.00041424	8.8452e-05	1133	2.2187e-06	2.4646e-06	1194.8	238.38	1.7341e-06	2.9535e-06	299.1	83.589	65.162	19.114	1.8079e-06	27.325	0.00019291	0.00017842	5.3412e-05	1107.6	2.1484e-06	2.0579e-06	1171.8	235.67	2.1285e-06	2.0119e-06	295.1	83.865	65.077	19.193	2.1633e-06	27.33	158.601	68.944	91.503	-2.770	168.113	141.135	-2.638	4.167	168.615	160.787	3.723	10.449	11.115	17.311	132.666	16.866	-8191	255	
645.874	1	1	0	0	0.03665	0.18851	0.19791	0.29625	0.02209	0.13649	0.30525	0.25618	0.092724	0.038255	0.17023	0.235	0.2228	0.10734	0.085695	0.12428	-2.7083	-3.4208	-3.1396	-3.5292	-3.3312	-3.0896	-3.4208	-3.3417	-3.0854	-3.2438	-3.2771	-3.1813	-3.3104	-3.0521	-3.2729	-3.25	46.480	177.564	259.249	292.263	99.400	137.596	297.328	255.316	97.685	204.020	278.104	208.384	327.372	97.407	184.480	329.906	0.00011435	0.00017107	8.0515e-05	1133.6	2.2948e-06	3.3394e-06	1201.9	239.15	1.7956e-06	3.5087e-06	300.34	83.717	64.923	19.224	2.6455e-06	27.298	0.00019754	0.00019165	5.4515e-05	1107.5	2.1511e-06	2.091e-06	1174.9	236.02	2.2094e-06	2.181e-06	295.56	84.011	65.131	19.26	2.0825e-06	27.409	155.624	49.803	79.754	-2.944	164.949	116.441	-2.821	4.083	189.918	139.009	3.560	10.697	10.608	17.349	156.469	17.088	-8191	255	
645.970	1	1	0	0	0.20349	0.20948	0.16582	0.37703	0.15953	0.099015	0.24857	0.18864	0.15091	0.2702	0.38596	0.086293	0.11017	0.20336	0.15606	0.19909	-2.6229	-3.4375	-3.0479	-3.1979	-3.3688	-3.1708	-3.5062	-3.3063	-3.2229	-3.3542	-3.3375	-3.125	-3.3729	-3.2625	-3.2521	-3.3854	206.532	202.650	108.028	279.504	301.530	63.357	274.589	209.601	-0.715	-10.726	330.721	68.541	228.039	56.738	309.257	91.483	0.00012667	0.00036346	0.0001168	1138.4	1.7122e-06	1.8532e-06	1201.7	238.85	1.6685e-06	3.2519e-06	298.84	83.591	65.592	19.242	1.998e-06	27.307	0.0001933	0.00018982	5.4141e-05	1110.5	2.2634e-06	2.1261e-06	1176.8	236.18	2.3519e-06	2.1062e-06	295.02	84.022	65.253	19.257	2.2286e-06	27.392	160.088	72.218	86.475	-3.077	158.303	102.384	-2.885	3.995	154.763	151.465	3.718	10.758	10.533	17.523	140.341	17.246	-8191	255	
646.067	1	1	0	0	0.078979	0.40073	0.19236	0.3119	0.16669	0.096975	0.3165	0.12402	0.29632	0.045637	0.030927	0.21303	0.14069	0.05269	0.13206	0.044821	-2.6667	-3.4208	-3.2083	-3.2333	-3.1688	-3.2583	-3.4667	-3.3667	-3.0042	-3.4417	-3.3667	-3.2479	-3.4208	-3.0354	-3.1937	-3.2583	160.217	45.114	224.464	293.377	187.612	311.171	308.731	287.874	55.836	254.106	134.998	18.943	259.997	184.367	283.652	246.092	0.00012305	0.00033887	0.00010863	1135.5	2.0524e-06	2.8013e-06	1201.6	239.97	1.1466e-06	1.9807e-06	299.35	83.893	65.328	19.246	2.7925e-06	27.281	0.00020829	0.00021627	5.8284e-05	1110	2.5431e-06	2.3704e-06	1177.2	236.54	2.53e-06	2.411e-06	295.73	84.18	65.434	19.27	2.4198e-06	27.449	161.773	64.104	99.863	-2.890	194.435	140.741	-2.631	3.863	158.165	149.761	3.754	10.430	10.627	17.416	129.773	16.854	-8191	255	
646.163	1	1	0	0	0.098109	0.19393	0.16388	0.11294	0.25683	0.08285	0.26238	0.38632	0.10923	0.33647	0.085394	0.10641	0.1305	0.24131	0.2379	0.16166	-2.575	-3.2687	-3.2562	-3.2604	-3.1521	-3.0833	-3.2042	-3.5812	-3.0896	-3.4313	-3.4458	-3.0438	-3.3917	-3.2375	-3.275	-3.5125	316.663	215.655	105.646	192.955	232.533	206.346	305.151	259.706	255.785	158.171	306.434	292.146	218.700	307.374	107.928	316.969	0.00013991	0.00035725	0.00011206	1137	2.4815e-06	3.5507e-06	1200.3	237.37	1.8709e-06	1.4755e-06	297.75	82.641	64.366	18.9	1.605e-06	27.085	0.00022114	0.00022822	6.4048e-05	1112	2.5985e-06	2.4774e-06	1175.3	235.38	2.6479e-06	2.5753e-06	294.3	83.58	64.766	19.117	2.5888e-06	27.262	157.344	72.267	87.825	-3.009	165.215	143.276	-2.684	4.143	160.633	137.662	4.011	10.547	10.706	17.517	147.018	17.048	-8191	255	
646.259	1	1	0	0	0.29968	0.1233	0.08809	0.29474	0.17605	0.27344	0.36063	0.046615	0.18835	0.14542	0.12238	0.13328	0.087872	0.16777	0.1186	0.062225	-2.7771	-3.3063	-3.2958	-3.1875	-3.4146	-3.2417	-3.2396	-3.5417	-3.1333	-3.325	-3.2542	-3.2083	-3.525	-3.1688	-2.9938	-3.3479	228.258	265.340	223.875	252.722	164.646	330.884	10.794	271.294	189.374	90.246	304.103	199.740	297.242	307.709	86.627	170.437	0.00013337	0.00024595	0.00012606	1125.3	3.4064e-06	3.185e-06	1188.7	237.03	1.6516e-06	2.0944e-06	295.98	82.976	64.077	18.987	2.7762e-06	26.881	0.00022607	0.00022755	6.5815e-05	1096.6	2.6644e-06	2.4575e-06	1161.8	233.86	2.481e-06	2.4014e-06	291.49	83.084	64.209	18.994	2.221e-06	27.02	154.762	68.924	82.766	-3.081	153.725	127.461	-2.837	4.175	169.630	134.745	3.793	10.623	10.871	17.541	162.805	16.857	-8191	255	
646.380	1	1	0	0	0.14255	0.21183	0.089153	0.14074	0.05777	0.22875	0.17882	0.14924	0.10418	0.10381	0.096492	0.074664	0.13614	0.034912	0.084131	0.28488	-2.775	-3.2875	-3.3896	-3.0708	-3.2583	-3.1875	-3.2375	-3.5563	-3.1625	-3.2104	-3.5083	-3.0021	-3.3354	-3.3104	-2.9437	-3.4062	106.724	314.802	341.758	14.174	188.255	184.472	315.288	81.716	167.927	194.785	118.197	268.497	326.533	73.308	138.139	266.990	0.00012252	0.00028447	0.00011054	1105.7	2.4585e-06	2.585e-06	1172.1	234.41	2.0441e-06	2.1384e-06	295.02	82.245	63.89	18.919	3.8337e-06	26.969	0.00019628	0.00018778	5.3816e-05	1079.7	2.1587e-06	1.9682e-06	1144.7	231.43	1.9684e-06	1.8649e-06	289.97	82.681	63.862	18.912	1.8322e-06	27.018	158.633	58.689	72.797	-2.857	165.902	106.285	-2.739	4.303	151.110	113.926	4.001	10.652	11.037	17.641	148.047	17.219	-8191	255	
646.474	1	1	0	0	0.1917	0.12205	0.012133	0.13322	0.13351	0.09571	0.42064	0.18686	0.2294	0.27943	0.23098	0.1787	0.23141	0.17389	0.23774	0.05019	-2.7354	-3.2	-3.3833	-3.3083	-3.3521	-3.5583	-3.1271	-3.5417	-3.2583	-3.2188	-3.3979	-3.0438	-3.3354	-3.4667	-3.0021	-3.3937	281.355	60.417	45.402	286.748	323.434	188.139	232.832	-12.734	140.043	126.156	180.290	-12.850	163.741	0.423	334.276	237.328	0.00013371	0.00047028	0.00011286	1102.2	2.0095e-06	3.3006e-06	1167.7	233.44	2.1258e-06	3.321e-06	292.26	82.235	64.161	18.954	2.6204e-06	27.06	0.00017236	0.00017264	4.4753e-05	1075	1.9002e-06	1.6953e-06	1139.8	230.63	1.8653e-06	1.8337e-06	289.67	82.37	63.844	18.901	1.7063e-06	27.016	157.172	60.793	74.599	-2.878	195.086	143.925	-2.815	4.124	148.661	150.727	3.899	10.483	11.211	17.406	148.919	17.239	-8191	255	
646.572	1	1	0	0	0.11774	0.056708	0.11855	0.005282	0.097881	0.22997	0.21394	0.12222	0.079827	0.13862	0.36891	0.20505	0.141	0.10726	0.20469	0.17719	-2.9729	-3.1792	-3.3729	-3.275	-3.2396	-3.3479	-3.2792	-3.5979	-3.1333	-3.2667	-3.5021	-3.0729	-3.2875	-3.3312	-3.1208	-3.4292	173.241	94.361	213.656	288.344	125.277	183.054	330.829	295.901	58.574	67.111	280.548	196.510	274.546	166.144	240.465	316.601	0.00012017	0.00022282	8.3186e-05	1094	3.5801e-06	2.9902e-06	1155.4	232.17	9.4929e-07	3.3704e-06	291.42	82.14	63.564	18.862	2.5118e-06	26.886	0.00016286	0.00016778	4.4283e-05	1066.9	1.8678e-06	1.6756e-06	1132.1	229.62	1.8395e-06	1.7514e-06	287.63	82.269	63.49	18.852	1.7614e-06	27	162.027	89.084	71.217	-2.824	167.856	149.761	-2.862	4.291	163.830	121.714	4.162	10.579	11.067	17.478	171.964	17.759	-8191	255	
646.666	1	1	0	0	0.24742	0.15971	0.095397	0.13519	0.26822	0.15854	0.10747	0.27989	0.12903	0.13657	0.06175	0.23527	0.068504	0.1528	0.11252	0.17632	-2.7833	-3.0521	-3.2375	-3.2354	-3.3875	-3.5042	-3.1437	-3.4813	-3.1854	-3.2708	-3.6417	-3.2083	-3.0583	-3.4333	-3.1479	-3.3104	28.031	85.696	114.681	237.603	203.525	321.311	204.227	7.760	36.884	89.689	56.236	19.358	29.291	335.891	157.090	212.583	0.00013335	0.00033125	6.8746e-05	1085.9	2.2384e-06	2.5131e-06	1155.9	233.31	1.4538e-06	2.2843e-06	290.39	82.445	63.229	18.855	3.2243e-06	26.773	0.00016112	0.00015099	3.9049e-05	1062.9	1.7662e-06	1.517e-06	1132.9	229.71	1.6825e-06	1.5982e-06	286.77	82.394	63.407	18.89	1.6382e-06	27.003	159.649	72.242	71.612	-2.662	165.610	142.807	-2.590	4.037	147.132	171.413	3.856	10.516	11.108	17.369	148.003	17.164	-8191	255	
646.762	1	1	0	0	0.044222	0.060422	0.14134	0.14268	0.0873	0.17325	0.031237	0.24189	0.17163	0.14812	0.08406	0.043965	0.090246	0.1267	0.085056	0.18376	-2.8167	-3.0521	-3.3563	-3.4313	-3.3271	-3.2458	-3.2396	-3.4854	-3.4396	-2.8833	-3.3646	-3.0792	-3.1396	-3.4375	-3.2208	-3.4625	71.487	158.338	90.587	305.111	262.452	214.719	345.060	13.881	74.164	-7.202	210.714	196.221	125.242	12.074	105.712	251.245	0.00011791	0.00032494	0.00015371	1092.5	2.6773e-06	4.1371e-06	1151	232.3	1.9289e-06	3.3047e-06	294.13	82.334	63.724	18.846	2.0337e-06	26.998	0.0001566	0.00014497	3.9652e-05	1064.3	1.8642e-06	1.5443e-06	1129.5	229.42	1.754e-06	1.661e-06	288.54	82.406	63.585	18.862	1.6598e-06	26.992	156.031	75.351	62.789	-2.759	164.087	130.697	-2.518	4.400	152.652	135.433	4.217	10.640	10.739	17.602	138.055	16.971	-8191	255	
646.859	1	1	0	0	0.13012	0.08824	0.053551	0.075145	0.29737	0.13025	0.088416	0.18508	0.089685	0.2552	0.29375	0.14656	0.077353	0.27977	0.239	0.17856	-2.9708	-3.0396	-3.2833	-3.4625	-3.1813	-3.4375	-3.2979	-3.3	-3.3438	-3.2625	-3.3292	-3.4083	-3.1375	-3.3937	-3.2583	-3.3021	145.666	156.248	19.675	343.445	6.656	155.949	266.243	283.849	262.961	111.222	310.327	-13.118	335.407	78.869	271.739	317.986	0.00011481	0.00031609	0.00011349	1091.8	2.0773e-06	5.4429e-06	1155.5	232.16	1.6347e-06	4.1602e-06	291.84	81.813	63.731	18.914	4.1917e-06	27.033	0.00016175	0.00016026	4.409e-05	1065.1	1.9196e-06	1.6408e-06	1132.4	229.32	1.7779e-06	1.7085e-06	287.86	82.226	63.802	18.901	1.7324e-06	27.072	148.623	81.225	74.734	-2.986	202.660	144.039	-2.620	4.309	153.244	114.951	4.273	10.522	10.670	17.765	153.415	17.406	-8191	255	
646.979	1	1	0	0	0.24934	0.14219	0.31539	0.26058	0.27914	0.13697	0.3175	0.19882	0.066756	0.11411	0.17668	0.20344	0.022531	0.045576	0.10034	0.24415	-3.0146	-3.1104	-3.2271	-3.4042	-2.9375	-3.4104	-3.2125	-3.2812	-3.5229	-2.9313	-3.4708	-3.1333	-3.1813	-3.4979	-3.2917	-3.3479	157.524	298.335	67.999	297.363	332.747	219.553	274.360	288.891	54.596	137.086	257.527	249.651	277.475	322.452	91.055	337.548	0.00012328	0.00021069	9.231e-05	1102.1	2.1208e-06	3.3091e-06	1167.3	233.46	2.0131e-06	2.6874e-06	293.97	82.842	64.045	18.959	3.1779e-06	27.155	0.00016699	0.00016669	4.3433e-05	1073.6	2.0022e-06	1.7385e-06	1143.4	231.07	1.9094e-06	1.8608e-06	289.51	83.041	64.095	19.096	1.9786e-06	27.241	152.491	44.898	87.834	-2.893	169.288	134.418	-2.691	4.232	157.097	138.248	3.686	10.474	10.804	17.631	150.489	17.393	-8191	255	
647.075	1	1	0	0	0.095112	0.20089	0.12414	0.20565	0.1912	0.14557	0.080908	0.24008	0.16777	0.32813	0.20386	0.15623	0.28735	0.14174	0.16887	0.24926	-2.9896	-3.0667	-3.3583	-3.2083	-3.1271	-3.2542	-3.3979	-3.1292	-3.3292	-3.1625	-3.3583	-3.3	-2.9229	-3.35	-3.3375	-3.0563	345.881	156.787	262.567	317.915	187.943	121.374	281.599	191.271	60.060	70.773	1.585	181.058	7.122	23.056	31.112	137.380	0.00012722	0.00022645	0.00010564	1116.4	1.5647e-06	2.1101e-06	1183.5	236	1.4712e-06	2.7086e-06	297.65	83.038	64.516	19.064	2.738e-06	27.274	0.00017377	0.00017266	4.6755e-05	1089.3	2.0225e-06	1.7668e-06	1157.9	233.83	1.9267e-06	1.8397e-06	292.98	83.413	64.585	19.125	1.8568e-06	27.296	151.789	103.485	90.197	-2.898	139.962	125.427	-2.763	4.159	148.890	103.886	3.913	10.858	10.856	17.248	162.324	17.257	-8191	255	
647.171	1	1	0	0	0.20095	0.18032	0.072765	0.39395	0.1785	0.12859	0.36241	0.35343	0.062722	0.1096	0.20127	0.081161	0.33388	0.090654	0.049358	0.070533	-3.0125	-3.3396	-3.0438	-3.6937	-3.0833	-3.3917	-3.5	-3.1042	-3.475	-3.3021	-3.2938	-3.4313	-3.0792	-3.3917	-3.3104	-3.0458	27.136	115.511	108.397	313.033	258.769	337.562	265.042	283.218	7.702	306.620	247.021	220.516	345.148	345.836	40.629	286.602	0.00011225	0.00027324	0.00013366	1118	2.6514e-06	3.3974e-06	1182	236.91	1.0392e-06	3.2494e-06	295.74	83.012	64.767	19.07	1.6174e-06	27.378	0.00016471	0.00017292	4.2462e-05	1090.6	2.0585e-06	1.7973e-06	1158.1	233.58	1.9773e-06	1.9822e-06	292.03	83.551	64.6	19.138	2.0677e-06	27.329	155.950	65.911	82.692	-3.254	163.759	143.405	-2.564	4.134	191.541	137.223	4.154	10.390	10.783	17.536	160.786	17.023	-8191	255	
647.268	1	1	0	0	0.21427	0.045662	0.18051	0.10114	0.15721	0.21143	0.16825	0.070106	0.23301	0.092505	0.089409	0.14286	0.16842	0.11188	0.23804	0.15839	-2.95	-3.0125	-3.2021	-3.5708	-3.1604	-3.2458	-3.4333	-3.1479	-3.1354	-3.2458	-3.2583	-3.4167	-3.175	-3.3146	-3.2562	-3.0104	261.635	205.173	302.559	239.532	243.658	27.271	312.392	91.589	282.315	73.380	285.930	209.025	17.627	136.686	97.221	107.124	0.00011403	0.00047389	0.00010012	1119.9	1.4943e-06	3.7869e-06	1179.9	237.37	2.1465e-06	2.9176e-06	296.65	82.747	64.2	18.954	3.1135e-06	27.093	0.00019619	0.00019512	5.3804e-05	1090.6	2.2693e-06	2.1537e-06	1155	233.98	2.209e-06	2.1059e-06	292.44	83.277	64.403	19.064	1.9783e-06	27.23	150.225	88.178	85.483	-2.845	142.136	151.715	-2.820	4.166	197.725	152.314	3.908	10.753	10.809	17.599	155.966	17.364	-8191	255	
647.364	1	1	0	0	0.11096	0.070468	0.2716	0.27831	0.23752	0.38856	0.12557	0.15326	0.1283	0.11291	0.4153	0.079247	0.10124	0.098682	0.088446	0.09029	-2.9437	-3.175	-3.2729	-3.4708	-3.1479	-3.3229	-3.5812	-3.0479	-3.4292	-3.4396	-3.1188	-3.4979	-3.2208	-3.2958	-3.2979	-3.0187	325.089	329.150	328.117	315.163	28.871	82.367	303.203	282.379	204.631	96.909	310.801	70.648	345.420	315.796	272.823	38.580	0.00013756	0.00028157	6.488e-05	1104.6	2.4274e-06	3.5202e-06	1177.7	235.07	1.8935e-06	3.7196e-06	295.37	82.254	63.633	19.115	2.4453e-06	27.15	0.00018145	0.00017486	5.0723e-05	1080.7	2.0092e-06	1.8266e-06	1151	232.68	1.909e-06	1.7092e-06	290.9	82.805	64.105	19.043	1.6764e-06	27.152	153.205	100.413	72.730	-2.941	156.489	146.305	-2.680	4.202	189.981	137.394	3.778	10.764	10.749	17.272	151.529	17.203	-8191	255	
647.458	1	1	0	0	0.087836	0.15125	0.23585	0.24066	0.16771	0.0062589	0.17665	0.28044	0.079722	0.031777	0.1464	0.19479	0.030384	0.12315	0.31625	0.26409	-2.7833	-3.1771	-3.2188	-3.5333	-3.0646	-3.1792	-3.5771	-3.1646	-3.3354	-3.3042	-3.1375	-3.4271	-3.2458	-3.0687	-3.3958	-3.075	87.016	235.269	289.020	316.690	169.152	69.657	297.904	304.161	13.277	22.198	319.705	247.344	95.686	273.605	217.638	250.702	0.00011545	0.00027283	7.5108e-05	1101.1	1.9311e-06	3.5296e-06	1170.2	234.06	1.9647e-06	3.1389e-06	291.31	82.64	64.188	18.954	2.881e-06	26.968	0.00016814	0.00015357	4.2106e-05	1076.2	1.8079e-06	1.7011e-06	1142.2	231.6	1.8118e-06	1.5876e-06	288.9	82.821	63.874	18.908	1.5924e-06	26.956	160.556	93.512	80.715	-2.898	172.116	118.399	-2.788	4.243	163.147	143.324	4.105	10.929	10.782	17.444	137.581	17.244	-8191	255	
647.554	1	1	0	0	0.11018	0.17217	0.075815	0.16073	0.042877	0.28875	0.14825	0.07686	0.15875	0.14111	0.32596	0.20171	0.059923	0.11674	0.16001	0.23746	-2.7354	-3.2417	-2.9708	-3.4333	-3.1833	-3.2062	-3.6708	-3.2354	-3.2229	-3.4	-3.1792	-3.3542	-3.1875	-3.1771	-3.3854	-3.1292	149.885	275.380	46.955	300.556	-11.537	155.623	222.774	265.736	194.989	205.658	312.708	215.284	98.016	223.034	-9.522	286.603	0.00013169	0.000372	6.8051e-05	1102	2.1265e-06	2.2874e-06	1160.7	233.61	1.8731e-06	2.9859e-06	294.69	82.642	63.644	18.942	2.4833e-06	27.044	0.00015515	0.00013689	4.0804e-05	1072.7	1.6991e-06	1.5148e-06	1136.9	230.8	1.6764e-06	1.532e-06	289.44	82.733	63.727	18.901	1.531e-06	27.081	158.434	61.487	80.595	-2.746	181.874	156.276	-2.676	4.322	159.844	141.888	4.165	10.587	11.160	17.640	156.977	17.188	-8191	255	
647.652	1	1	0	0	0.082941	0.070864	0.12603	0.16936	0.19842	0.29355	0.16693	0.17672	0.22615	0.14484	0.25529	0.06218	0.17411	0.23529	0.13735	0.090358	-2.6625	-3.4188	-3.05	-3.6396	-3.3375	-2.975	-3.6042	-3.225	-3.3958	-3.3875	-3.1792	-3.2708	-3.4	-3.1188	-3.5125	-3.3438	94.737	6.436	305.932	324.065	198.793	214.713	262.460	318.458	82.636	289.598	47.856	48.185	75.129	313.998	282.248	250.172	0.00011043	0.00028806	4.6839e-05	1098.4	1.7746e-06	2.9941e-06	1165.8	234.48	1.5691e-06	2.2835e-06	294.23	82.439	63.839	18.855	2.1152e-06	26.948	0.00014985	0.00014017	3.8627e-05	1071.4	1.66e-06	1.6058e-06	1139.6	231.05	1.6955e-06	1.449e-06	289.59	82.737	63.839	18.888	1.5579e-06	27.032	151.573	63.002	75.393	-2.765	177.028	147.562	-2.488	4.129	157.887	146.551	3.880	10.575	10.812	17.688	170.516	17.217	-8191	255	
647.771	1	1	0	0	0.2237	0.14278	0.12803	0.14591	0.12926	0.28856	0.22471	0.077064	0.090707	0.089912	0.22394	0.16759	0.2346	0.075108	0.0099676	0.28922	-2.7833	-3.2021	-3.1792	-3.475	-3.3771	-3.0396	-3.6188	-3.2479	-3.2417	-3.4875	-3.1792	-3.3312	-3.4417	-2.9083	-3.4042	-3.1854	289.790	57.931	47.723	339.397	185.233	39.707	302.100	301.481	32.276	281.042	286.202	304.423	318.925	57.647	240.956	19.910	0.00011374	0.00034129	8.3845e-05	1099.9	1.9533e-06	2.6588e-06	1165.6	234.03	2.3902e-06	3.659e-06	294.06	82.52	63.552	18.857	2.5323e-06	26.908	0.00015335	0.00013429	3.8796e-05	1071.8	1.6424e-06	1.4757e-06	1139.3	231.01	1.6608e-06	1.4828e-06	288.76	82.641	63.788	18.817	1.5153e-06	26.975	158.150	77.170	96.370	-2.718	134.122	171.461	-2.445	4.223	165.298	114.066	4.084	10.782	10.993	17.735	172.681	17.067	-8191	255	
647.867	1	1	0	0	0.19887	0.10075	0.068648	0.1801	0.10535	0.14353	0.40748	0.36929	0.033578	0.25686	0.15038	0.17528	0.23295	0.27937	0.11824	0.1402	-2.6937	-3.2333	-3.0729	-3.4521	-3.3312	-3.2479	-3.3125	-3.2375	-3.1354	-3.3583	-3.3479	-3.2604	-3.3979	-3.2229	-3.2646	-3.1875	100.807	58.738	62.312	301.094	253.238	324.274	317.813	269.700	88.386	339.348	105.376	330.880	116.744	276.011	271.681	200.739	0.00012527	0.00018149	0.00010042	1099.4	1.9616e-06	2.7699e-06	1163.9	234.06	2.2462e-06	2.7805e-06	292.93	82.185	63.806	18.853	1.8289e-06	26.959	0.00015329	0.00014415	4.0689e-05	1070	1.6872e-06	1.5254e-06	1137.1	230.55	1.7152e-06	1.492e-06	289.28	82.578	63.764	18.855	1.5389e-06	26.968	156.969	67.598	112.015	-2.847	139.234	140.879	-2.507	4.471	183.696	115.102	3.855	10.578	10.901	17.661	129.945	17.091	-8191	255	
647.939	1	1	0	0	0.27399	0.21344	0.1516	0.34143	0.25798	0.28442	0.11653	0.043819	0.0753	0.24863	0.085866	0.12142	0.10886	0.0088753	0.23655	0.22824	-2.6833	-3.1958	-3.2708	-3.0938	-3.4396	-3.1521	-3.425	-3.45	-3.3458	-3.4229	-3.3375	-3.0896	-3.4479	-3.2375	-3.4188	-3.4396	92.405	8.985	37.235	306.675	283.585	303.548	199.829	291.958	91.515	195.913	201.218	342.215	65.561	178.950	46.747	275.560	0.00013015	0.0002502	7.2997e-05	1093.2	2.3244e-06	2.6491e-06	1154	232.93	2.2182e-06	2.0595e-06	292.8	82.095	63.237	18.787	2.5619e-06	26.874	0.00015666	0.0001332	3.8458e-05	1068.3	1.6521e-06	1.5244e-06	1132.1	229.85	1.5176e-06	1.4286e-06	287.78	82.3	63.382	18.841	1.5322e-06	26.892	159.774	58.967	78.290	-2.856	176.637	108.845	-2.592	4.172	160.457	149.757	3.805	11.004	10.778	17.817	163.884	16.985	-8191	255	
648.060	1	1	0	0	0.10521	0.17895	0.14531	0.15315	0.15223	0.15711	0.1417	0.18749	0.074874	0.064679	0.12584	0.29849	0.072575	0.39912	0.076971	0.086878	-2.6396	-3.2958	-3.1417	-3.1646	-3.4104	-3.1271	-3.425	-3.4896	-3.1188	-3.3292	-3.2479	-3.0812	-3.5458	-3.3271	-3.2604	-3.5208	6.717	319.304	93.338	304.890	96.953	13.212	223.200	292.151	175.387	146.477	3.034	18.440	91.911	345.595	267.244	159.487	0.0001214	0.0003414	8.0777e-05	1087.6	2.6773e-06	2.6226e-06	1151.2	231.72	1.1494e-06	2.4536e-06	290.98	81.447	63.182	18.802	2.1028e-06	26.684	0.00015014	0.00012569	3.5751e-05	1061.3	1.589e-06	1.33e-06	1125.9	228.81	1.6039e-06	1.2389e-06	286.66	81.82	63.151	18.732	1.2967e-06	26.766	157.120	77.597	83.615	-3.032	167.732	151.279	-2.794	4.132	166.169	146.541	3.906	10.542	11.153	17.688	130.021	17.427	-8191	255	
648.156	1	1	0	0	0.042063	0.083852	0.11003	0.07728	0.1058	0.14054	0.13452	0.27802	0.16712	0.12705	0.091719	0.15618	0.18529	0.078585	0.093029	0.14111	-2.7042	-3.2104	-3.25	-3.3167	-3.3125	-3.2354	-3.4167	-3.5146	-3.1833	-3.2938	-3.4021	-3.3125	-3.35	-3.0792	-3.1417	-3.5062	115.502	10.822	13.355	338.275	219.379	63.607	242.391	15.500	293.591	259.479	298.759	44.415	343.358	85.292	344.294	276.795	0.00012981	0.00027267	4.8065e-05	1077.6	2.655e-06	3.0965e-06	1141.6	230	1.5617e-06	2.6195e-06	288.86	81.344	63.185	18.845	1.14e-06	26.616	0.00013918	0.00011481	3.314e-05	1052.7	1.415e-06	1.1719e-06	1119.4	227.36	1.3977e-06	1.1497e-06	285.24	81.769	62.889	18.725	1.2458e-06	26.732	156.208	75.269	79.742	-2.858	160.467	147.375	-2.432	4.298	150.980	133.982	3.943	10.694	10.583	17.561	155.000	17.378	-8191	255	
648.252	1	1	0	0	0.2898	0.13129	0.27836	0.23405	0.083332	0.17329	0.094742	0.1077	0.19566	0.090178	0.24733	0.47429	0.054344	0.15157	0.02887	0.42897	-2.8229	-3.1375	-3.475	-3.1167	-3.3667	-3.1042	-3.1437	-3.4729	-3.0521	-3.2917	-3.3271	-3.0312	-3.225	-3.0771	-3.2729	-3.4375	230.848	46.859	306.606	335.304	339.563	3.688	298.273	342.354	14.689	18.642	345.950	332.964	-9.757	11.167	78.894	278.548	0.00011465	0.00039268	0.00010867	1068.9	1.809e-06	3.5334e-06	1136.2	228.73	1.4351e-06	2.4775e-06	289.42	81.28	63.017	18.721	3.4322e-06	26.716	0.00013229	0.00010494	2.9064e-05	1044.3	1.3816e-06	1.1064e-06	1111.7	226.15	1.303e-06	1.1219e-06	284.6	81.637	62.816	18.694	1.2618e-06	26.728	152.571	83.120	55.701	-2.554	158.200	138.713	-2.504	4.262	160.135	142.647	3.802	10.891	10.831	17.688	155.600	17.126	-8191	255	
648.372	1	1	0	0	0.1634	0.29473	0.12243	0.092456	0.073252	0.072287	0.10114	0.45072	0.28098	0.29265	0.15797	0.29762	0.10553	0.21778	0.077709	0.10166	-2.6604	-3.2583	-3.2354	-3.2833	-3.3646	-3.2396	-3.4583	-3.2792	-2.95	-3.2292	-3.3958	-3.1521	-3.3542	-3.2167	-2.9479	-3.5646	119.900	-1.416	301.809	30.025	6.481	189.479	256.110	275.858	309.844	-8.845	295.548	284.980	291.661	307.340	71.504	105.590	0.00013446	0.00021095	9.4423e-05	1072.6	2.429e-06	3.2293e-06	1136.6	229.19	1.2134e-06	2.0493e-06	288.28	81.146	62.609	18.646	2.3421e-06	26.859	0.00013341	0.00010401	2.922e-05	1045.6	1.3139e-06	1.0473e-06	1112.8	226.2	1.2183e-06	1.1099e-06	284.43	81.393	62.837	18.68	1.1217e-06	26.794	156.258	82.015	104.385	-2.780	153.320	161.408	-2.437	4.313	149.805	133.320	4.089	10.715	11.296	17.786	167.150	17.502	-8191	255	
648.467	1	1	0	0	0.27159	0.12732	0.13241	0.12922	0.059562	0.16701	0.15513	0.27238	0.14572	0.12158	0.1326	0.20457	0.087873	0.087438	0.13222	0.23482	-2.6437	-3.2188	-3.3937	-3.1667	-3.3187	-3.2667	-3.1208	-3.4646	-3.2771	-3.1646	-3.4083	-3.1125	-3.2958	-3.2938	-3.1688	-3.4625	156.747	112.465	104.690	85.420	212.482	11.262	180.956	35.883	173.465	288.264	284.210	333.761	295.787	157.956	285.656	218.992	0.00011607	0.0002626	0.00010804	1067.9	2.6106e-06	2.9426e-06	1137.3	228.99	1.8399e-06	2.2833e-06	288.26	81.132	62.621	18.622	2.7027e-06	26.966	0.00012589	0.00010351	2.6971e-05	1041.2	1.2182e-06	1.0708e-06	1108.6	226.05	1.2329e-06	1.078e-06	284.11	81.552	62.639	18.664	1.1548e-06	26.839	156.601	66.144	75.712	-2.562	171.725	146.010	-2.523	4.324	184.362	145.648	4.005	10.807	11.414	17.625	141.376	17.304	-8191	255	
648.539	1	1	0	0	0.24917	0.29119	0.23023	0.05733	0.12988	0.29029	0.24362	0.089334	0.19094	0.23191	0.29952	0.28137	0.14794	0.054038	0.28879	0.15325	-2.75	-2.9521	-3.3354	-3.2292	-3.3604	-3.2083	-3.2542	-3.3792	-3.2375	-3.1417	-3.5312	-3.2	-3.4354	-3.3438	-3.1417	-3.2146	299.845	165.588	89.492	290.751	340.930	36.281	213.681	183.649	346.107	276.462	314.614	36.391	317.430	208.703	71.791	36.122	0.00013367	0.00020713	8.0254e-05	1063.2	1.6876e-06	3.16e-06	1133.3	228.83	1.4655e-06	3.3999e-06	287.64	81.547	62.667	18.582	1.8356e-06	26.735	0.00013238	9.7908e-05	2.6465e-05	1037.3	1.2234e-06	1.0435e-06	1107.1	225.92	1.2367e-06	1.0845e-06	283.38	81.212	62.476	18.641	1.0847e-06	26.713	159.317	54.758	102.246	-2.960	156.398	122.068	-2.538	4.136	155.064	125.988	3.809	10.777	10.943	17.907	133.904	17.347	-8191	255	
648.659	1	1	0	0	0.21734	0.030598	0.098541	0.18184	0.25026	0.06812	0.15518	0.33879	0.16962	0.21524	0.19108	0.24905	0.14809	0.12123	0.28266	0.17813	-2.7521	-3.0417	-3.3271	-3.2438	-3.0875	-3.4854	-3.2458	-3.5292	-3.3	-3.0083	-3.3104	-3.2896	-3.1979	-3.2625	-3.1042	-3.3896	161.532	61.076	171.413	308.499	296.099	-1.325	328.850	274.062	198.584	193.313	52.660	11.518	337.888	287.378	44.048	336.630	0.00012159	0.00029961	8.6612e-05	1062.4	1.8358e-06	4.1995e-06	1125	228.27	1.91e-06	2.578e-06	286.64	81.278	62.667	18.508	2.6232e-06	26.638	0.00012518	0.00010421	2.6242e-05	1035.9	1.2427e-06	9.7052e-07	1102.9	225.36	1.2503e-06	1.0598e-06	282.96	81.297	62.552	18.549	1.1071e-06	26.69	158.675	62.670	82.629	-2.746	180.683	135.917	-2.541	4.372	151.814	151.773	3.855	10.777	11.233	17.869	162.395	17.549	-8191	255	
#DATA ENDS
