BOXY.EXE: ISS Imagent and Oximeter Data Acquisition Program Version 0.80
Ascii Record File

#ACQ INFORMATION
2  Detector Channels 
16  External MUX Channels 
1  Auxiliary Channels 
5000  Waveform (CCF) Frequency (Hz)
1  Waveforms Skipped 
30  Waveforms Averaged 
1  Cycles Averaged 
16  Acquisitions per Waveform 
10.0806  Updata Rate (Hz) 

#FILE INFORMATION
TRUE -- External MUX Channel results are PARSED.
FALSE -- AC DC and Phase are NOT grouped.
TRUE -- Companion Program Settings File CREATED.
FALSE -- AC data not excluded
FALSE -- DC data not excluded
FALSE -- Phase data not excluded
FALSE -- Auxillary Chn. data not excluded
Tab delimiters

#CALIBRATION STATE
TRUE -- Waveform Calibration Values APPLIED.


#AUX CALIBRATION VALUES
Val Type	aux-1	

Term	1.0000e+00	
Factor	0.0000e+00	


#WF CALIBRATION VALUES
A = Detector Channel
Val Type	A-AC1	A-AC2	A-AC3	A-AC4	A-AC5	A-AC6	A-AC7	A-AC8	A-AC9	A-AC10	A-AC11	A-AC12	A-AC13	A-AC14	A-AC15	A-AC16	A-DC1	A-DC2	A-DC3	A-DC4	A-DC5	A-DC6	A-DC7	A-DC8	A-DC9	A-DC10	A-DC11	A-DC12	A-DC13	A-DC14	A-DC15	A-DC16	A-Ph1	A-Ph2	A-Ph3	A-Ph4	A-Ph5	A-Ph6	A-Ph7	A-Ph8	A-Ph9	A-Ph10	A-Ph11	A-Ph12	A-Ph13	A-Ph14	A-Ph15	A-Ph16	

Term	0.00000e+00	0.00000e+00	0.00000e+00	0.00000e+00	0.00000e+00	0.00000e+00	0.00000e+00	0.00000e+00	0.00000e+00	0.00000e+00	0.00000e+00	0.00000e+00	0.00000e+00	0.00000e+00	0.00000e+00	0.00000e+00	0.00000e+00	0.00000e+00	0.00000e+00	0.00000e+00	0.00000e+00	0.00000e+00	0.00000e+00	0.00000e+00	0.00000e+00	0.00000e+00	0.00000e+00	0.00000e+00	0.00000e+00	0.00000e+00	0.00000e+00	0.00000e+00	0.00000e+00	0.00000e+00	0.00000e+00	0.00000e+00	0.00000e+00	0.00000e+00	0.00000e+00	0.00000e+00	0.00000e+00	0.00000e+00	0.00000e+00	0.00000e+00	0.00000e+00	0.00000e+00	0.00000e+00	0.00000e+00	
Factor	1.00000e+00	1.00000e+00	1.00000e+00	1.00000e+00	1.00000e+00	1.00000e+00	1.00000e+00	1.00000e+00	1.00000e+00	1.00000e+00	1.00000e+00	1.00000e+00	1.00000e+00	1.00000e+00	1.00000e+00	1.00000e+00	1.00000e+00	1.00000e+00	1.00000e+00	1.00000e+00	1.00000e+00	1.00000e+00	1.00000e+00	1.00000e+00	1.00000e+00	1.00000e+00	1.00000e+00	1.00000e+00	1.00000e+00	1.00000e+00	1.00000e+00	1.00000e+00	X	X	X	X	X	X	X	X	X	X	X	X	X	X	X	X	

B = Detector Channel
Val Type	B-AC1	B-AC2	B-AC3	B-AC4	B-AC5	B-AC6	B-AC7	B-AC8	B-AC9	B-AC10	B-AC11	B-AC12	B-AC13	B-AC14	B-AC15	B-AC16	B-DC1	B-DC2	B-DC3	B-DC4	B-DC5	B-DC6	B-DC7	B-DC8	B-DC9	B-DC10	B-DC11	B-DC12	B-DC13	B-DC14	B-DC15	B-DC16	B-Ph1	B-Ph2	B-Ph3	B-Ph4	B-Ph5	B-Ph6	B-Ph7	B-Ph8	B-Ph9	B-Ph10	B-Ph11	B-Ph12	B-Ph13	B-Ph14	B-Ph15	B-Ph16	

Term	0.00000e+00	0.00000e+00	0.00000e+00	0.00000e+00	0.00000e+00	0.00000e+00	0.00000e+00	0.00000e+00	0.00000e+00	0.00000e+00	0.00000e+00	0.00000e+00	0.00000e+00	0.00000e+00	0.00000e+00	0.00000e+00	0.00000e+00	0.00000e+00	0.00000e+00	0.00000e+00	0.00000e+00	0.00000e+00	0.00000e+00	0.00000e+00	0.00000e+00	0.00000e+00	0.00000e+00	0.00000e+00	0.00000e+00	0.00000e+00	0.00000e+00	0.00000e+00	-1.10555e+02	-1.34345e+02	-1.25139e+02	-1.80823e+02	-5.89411e+01	-6.68562e+01	-1.57214e+02	-1.62015e+02	-6.37752e+01	-6.71530e+01	-1.71625e+02	-1.71796e+02	-1.86365e+02	-1.76693e+02	-6.41196e+01	-1.49516e+02	
Factor	1.50243e-05	1.53827e-04	4.66076e-05	1.58271e-01	1.18790e-06	1.74034e-06	1.59010e-01	4.50898e-02	9.43242e-07	1.55460e-06	7.52501e-02	2.87934e-02	3.64718e-02	8.42465e-03	1.35339e-06	1.23474e-02	7.15820e-06	1.04250e-05	2.89429e-06	7.88315e-02	1.08082e-07	1.15196e-07	7.45083e-02	2.26350e-02	1.07536e-07	1.15117e-07	3.64779e-02	1.40814e-02	1.83450e-02	4.24814e-03	1.11129e-07	6.03331e-03	X	X	X	X	X	X	X	X	X	X	X	X	X	X	X	X	



#DISTANCE SETTINGS
A = Detector Channel
A-1	A-2	A-3	A-4	A-5	A-6	A-7	A-8	A-9	A-10	A-11	A-12	A-13	A-14	A-15	A-16	

2.5000e+00	3.0000e+00	2.5000e+00	3.0000e+00	2.0000e+00	3.0000e+00	1.5000e+00	3.0000e+00	3.0000e+00	3.0000e+00	3.0000e+00	3.0000e+00	3.0000e+00	3.0000e+00	1.5000e+00	3.0000e+00	

B = Detector Channel
B-1	B-2	B-3	B-4	B-5	B-6	B-7	B-8	B-9	B-10	B-11	B-12	B-13	B-14	B-15	B-16	

1.0000e+01	1.0000e+01	1.0000e+01	1.4400e+00	1.0000e+01	1.0000e+01	1.5100e+00	1.9400e+00	1.0000e+01	1.0000e+01	1.9900e+00	2.4900e+00	2.4100e+00	2.9000e+00	1.0000e+01	2.9800e+00	




#DATA BEGINS
time	group	step	mark	flag	A-AC1	A-AC2	A-AC3	A-AC4	A-AC5	A-AC6	A-AC7	A-AC8	A-AC9	A-AC10	A-AC11	A-AC12	A-AC13	A-AC14	A-AC15	A-AC16	A-DC1	A-DC2	A-DC3	A-DC4	A-DC5	A-DC6	A-DC7	A-DC8	A-DC9	A-DC10	A-DC11	A-DC12	A-DC13	A-DC14	A-DC15	A-DC16	A-Ph1	A-Ph2	A-Ph3	A-Ph4	A-Ph5	A-Ph6	A-Ph7	A-Ph8	A-Ph9	A-Ph10	A-Ph11	A-Ph12	A-Ph13	A-Ph14	A-Ph15	A-Ph16	B-AC1	B-AC2	B-AC3	B-AC4	B-AC5	B-AC6	B-AC7	B-AC8	B-AC9	B-AC10	B-AC11	B-AC12	B-AC13	B-AC14	B-AC15	B-AC16	B-DC1	B-DC2	B-DC3	B-DC4	B-DC5	B-DC6	B-DC7	B-DC8	B-DC9	B-DC10	B-DC11	B-DC12	B-DC13	B-DC14	B-DC15	B-DC16	B-Ph1	B-Ph2	B-Ph3	B-Ph4	B-Ph5	B-Ph6	B-Ph7	B-Ph8	B-Ph9	B-Ph10	B-Ph11	B-Ph12	B-Ph13	B-Ph14	B-Ph15	B-Ph16	aux-1	digaux	

1006.724	1	1	0	256	0.36682	0.23664	0.24902	0.14736	0.38088	0.16868	0.16287	0.10984	0.14733	0.20515	0.20482	0.25835	0.10159	0.093821	0.15532	0.017563	-2.5854	-2.9792	-2.7458	-2.9458	-3.2979	-3.0875	-3.1333	-3.0333	-2.5521	-3.1729	-2.975	-2.9396	-3.2292	-3.0271	-3.0104	-3.0438	183.378	390.199	435.949	337.402	493.110	247.485	197.595	495.833	381.090	500.491	480.220	502.663	305.259	225.592	397.243	393.344	9.6477e-05	9.6763e-05	2.8431e-05	199.23	4.2343e-07	1.4584e-06	308.48	43.206	3.2606e-07	5.1895e-08	98.01	32.504	11.036	3.2073	8.8722e-07	12.511	6.0248e-05	2.5454e-05	8.6226e-06	195.7	3.2379e-07	3.4439e-07	305.57	42.977	4.2566e-07	3.7964e-07	97.027	32.448	10.999	3.1663	3.8386e-07	12.447	217.314	257.514	210.016	193.770	310.062	309.791	192.853	197.294	273.280	355.171	196.884	201.023	199.611	206.417	344.882	205.722	-8191	255	
1006.821	1	1	0	0	0.10103	0.12555	0.059341	0.086758	0.1641	0.20478	0.092454	0.13188	0.055887	0.10441	0.1538	0.32564	0.15376	0.15253	0.26047	0.10998	-2.5271	-3.0438	-2.7771	-2.8583	-3.1042	-2.85	-3.0708	-3.3771	-2.85	-3.1625	-2.8333	-2.7	-3.1271	-3.0229	-3.0479	-3.1229	535.958	421.026	350.972	395.281	213.630	267.043	204.650	444.133	288.891	198.734	274.316	288.340	489.549	220.374	344.036	180.453	0.00010751	0.00014753	3.064e-05	201.83	9.3092e-07	7.1589e-07	312.39	44.089	5.9948e-07	2.1296e-06	99.307	33.105	10.925	3.2091	5.4625e-07	12.512	6.2008e-05	3.1644e-05	9.5994e-06	196.62	3.8752e-07	3.5471e-07	307.31	43.465	3.3314e-07	2.9786e-07	97.883	32.881	10.98	3.1729	3.0491e-07	12.502	216.054	276.638	292.337	192.698	365.470	320.929	192.402	197.468	265.890	310.572	196.457	200.809	199.818	206.504	274.185	205.760	-8191	255	
1006.941	1	1	0	0	0.13451	0.082261	0.19592	0.047507	0.35251	0.0069742	0.1822	0.25676	0.024127	0.17747	0.067758	0.04591	0.095852	0.1389	0.039832	0.083007	-2.4104	-3.1854	-3.0375	-2.8667	-3.1021	-2.9813	-2.9792	-3.2354	-3.1583	-3.4354	-3.0333	-2.8042	-3.0938	-3.0958	-3.1896	-3.2833	180.383	229.621	293.019	474.424	400.855	379.409	414.091	534.302	386.696	414.694	348.491	305.212	338.065	264.025	276.839	248.181	0.00010179	0.00012274	2.7401e-05	201.19	9.5436e-07	2.2513e-06	313.21	44.334	9.4833e-07	1.4822e-06	100.5	33.015	11.141	3.2308	8.8921e-07	12.693	6.165e-05	3.0124e-05	8.4899e-06	196.74	3.7919e-07	3.5639e-07	308.24	43.491	3.533e-07	3.4079e-07	99.024	33.075	11.067	3.173	3.3431e-07	12.581	210.895	221.103	269.284	193.185	355.437	342.898	192.722	197.412	307.226	329.995	196.683	200.795	200.262	206.756	326.522	205.417	-8191	255	
1007.036	1	1	0	0	0.049743	0.16817	0.10185	0.23402	0.07	0.25671	0.23077	0.10228	0.19362	0.052271	0.024538	0.13309	0.1658	0.028862	0.081209	0.27726	-2.7375	-3.025	-3.0292	-2.75	-3.1146	-3.1229	-3.0938	-3.3312	-2.9125	-2.9583	-3.2562	-3.0625	-3.2687	-2.9688	-2.7625	-3.1229	531.016	430.584	214.768	353.539	217.564	278.041	526.653	223.016	506.642	453.752	308.896	351.405	307.992	183.622	376.096	457.582	0.00011067	0.00013	3.4017e-05	201.58	9.7324e-07	1.6881e-06	316.45	45.07	7.5679e-07	1.2226e-06	102.16	33.705	11.428	3.2279	9.6966e-07	12.651	6.5468e-05	3.0927e-05	7.7422e-06	198.43	3.5217e-07	3.4559e-07	312.12	44.125	4.3776e-07	3.5039e-07	100.13	33.35	11.233	3.2072	3.4265e-07	12.603	216.278	264.199	278.175	193.543	325.737	343.370	192.743	197.944	342.487	304.903	196.961	201.029	200.640	206.166	335.330	205.303	-8191	255	
1007.109	1	1	0	0	0.28832	0.17804	0.19249	0.16909	0.094354	0.13787	0.16436	0.22251	0.073434	0.079352	0.12192	0.024329	0.16403	0.18762	0.30184	0.12136	-2.4708	-2.9354	-2.9667	-2.8812	-3.2188	-3.2667	-2.8063	-3.2687	-3.0354	-2.9854	-3.2146	-2.825	-2.8937	-2.9792	-2.9	-3.1917	536.583	279.011	371.061	458.364	358.980	355.049	519.262	459.949	202.446	469.455	416.853	348.901	428.654	225.278	339.353	299.317	0.00011588	0.00013314	3.7068e-05	203.02	4.3952e-07	1.0246e-06	317.42	44.54	1.0726e-06	1.9071e-06	100.55	33.468	11.336	3.311	1.0195e-06	12.795	6.3529e-05	3.1492e-05	8.8457e-06	198.8	3.4136e-07	3.0047e-07	309.26	44.007	3.5957e-07	3.7964e-07	98.796	33.06	11.182	3.2355	3.5723e-07	12.607	217.913	254.526	243.421	193.253	361.830	339.067	192.248	197.335	297.851	342.003	196.411	200.601	200.152	206.190	330.709	205.378	-8191	255	
1007.205	1	1	0	0	0.22096	0.28649	0.17697	0.19978	0.063945	0.19764	0.072042	0.14535	0.17324	0.18511	0.072002	0.40288	0.058392	0.41597	0.23968	0.1581	-2.7562	-3.0208	-3.2833	-2.9292	-3.0979	-3.1125	-2.9146	-3.0354	-3.1375	-3.0104	-3.3083	-2.8458	-2.9458	-2.8688	-2.7792	-3.2062	526.997	423.757	200.817	506.291	216.916	519.576	300.083	483.278	306.010	185.306	215.143	248.857	377.625	479.709	213.726	466.943	0.00011064	9.4744e-05	2.5915e-05	205.77	1.327e-06	6.274e-07	317.43	45.092	7.2733e-07	5.7688e-07	101.6	33.647	11.402	3.2812	1.1906e-06	12.804	6.3052e-05	3.5119e-05	7.2297e-06	199.9	3.6478e-07	3.3719e-07	310.6	44.303	3.9833e-07	3.2856e-07	99.711	33.281	11.295	3.2304	3.6418e-07	12.665	213.968	302.262	291.339	193.461	345.698	369.125	192.721	197.869	310.358	316.168	197.156	201.080	199.733	206.176	357.923	205.414	-8191	255	
1007.324	1	1	0	0	0.19765	0.092546	0.17047	0.20001	0.28181	0.16404	0.2181	0.13261	0.28896	0.38225	0.11823	0.079579	0.12773	0.14006	0.14589	0.092846	-2.6375	-2.7125	-3.1521	-2.8917	-2.9854	-3.1937	-2.8125	-3.15	-3.175	-2.9646	-3.2958	-3.1312	-2.9938	-3.1396	-2.8271	-3.1625	508.399	287.198	264.158	185.353	302.065	418.776	475.987	310.440	189.190	342.335	479.913	481.180	231.345	308.575	259.362	433.226	0.00010248	0.0001157	1.9791e-05	204.34	5.2036e-07	1.1661e-06	320.08	45.154	8.9733e-07	1.2813e-06	101.58	33.307	11.435	3.2673	8.8179e-07	12.736	5.9607e-05	3.2144e-05	9.1291e-06	199.84	3.9292e-07	3.2231e-07	311.88	44.215	3.654e-07	3.7485e-07	99.849	33.299	11.277	3.2238	2.9426e-07	12.666	219.480	289.862	314.006	193.290	309.991	380.074	193.162	197.382	306.012	346.815	196.690	201.042	199.958	206.379	323.562	205.307	-8191	255	
1007.420	1	1	0	0	0.31285	0.20476	0.28225	0.28299	0.11009	0.19925	0.25907	0.18677	0.11187	0.07075	0.1329	0.13014	0.1369	0.26717	0.0635	0.071418	-2.6354	-2.8708	-3.2625	-3	-3.0271	-3.2958	-2.9938	-2.9771	-3.15	-2.8375	-3.1688	-2.9313	-2.9896	-3.0062	-2.8229	-3.0833	427.646	411.100	311.330	291.104	332.919	212.100	518.011	503.090	520.218	254.103	259.075	188.875	409.261	500.407	225.937	180.068	0.00010577	0.0001498	2.7033e-05	203.4	6.5605e-07	1.0146e-06	315.05	45.214	6.0505e-07	7.4792e-07	102.73	33.451	11.501	3.269	5.5208e-07	12.785	5.7952e-05	3.5445e-05	7.9653e-06	199.16	2.9385e-07	3.2375e-07	311.15	44.257	2.7422e-07	3.2233e-07	100.54	33.413	11.285	3.2303	3.6325e-07	12.691	218.160	252.158	226.589	193.667	306.323	393.386	192.715	197.620	330.846	337.845	196.483	200.744	200.315	206.026	321.384	205.714	-8191	255	
1007.516	1	1	0	0	0.22257	0.20748	0.099763	0.18227	0.20875	0.21094	0.094087	0.16284	0.12115	0.25549	0.10967	0.25268	0.2502	0.21781	0.21099	0.10011	-2.6896	-2.9646	-3.3063	-3.1521	-3.125	-3.1271	-2.8521	-3.0646	-3.3708	-3.0187	-3.0458	-2.9646	-2.8083	-3.2729	-2.7958	-3.0146	430.718	312.841	231.317	349.484	462.560	264.128	435.312	258.190	429.437	240.059	234.395	189.364	394.521	492.570	365.963	241.102	0.00010035	0.00010755	5.3352e-05	204.5	1.3096e-06	1.0789e-06	315.52	45.321	9.5537e-07	5.8196e-07	100.95	33.197	11.424	3.2335	6.3591e-07	12.577	5.6281e-05	2.8061e-05	7.7241e-06	200.26	3.7063e-07	2.5319e-07	310.65	44.379	2.8744e-07	3.276e-07	99.219	33.02	11.244	3.2142	2.938e-07	12.558	212.238	241.799	282.797	193.069	315.962	319.621	192.286	197.673	348.966	327.788	196.668	201.012	199.892	205.605	373.341	205.437	-8191	255	
1007.613	1	1	0	0	0.22866	0.18618	0.16282	0.15974	0.16929	0.10848	0.16881	0.078567	0.18895	0.13909	0.059168	0.20507	0.17404	0.21209	0.20692	0.041876	-2.8438	-2.8792	-3.3458	-3.0354	-3.0125	-3.3104	-3.1292	-2.8646	-3.4083	-2.8625	-3.2083	-3.1396	-2.8375	-3.2167	-3.0771	-2.9854	435.581	494.179	504.490	515.549	538.205	483.148	486.708	377.078	472.785	361.997	433.020	534.417	510.247	285.156	316.616	519.924	0.00010419	0.00017054	3.2079e-05	203.35	1.0767e-06	1.2763e-06	311.1	44.757	1.0295e-06	7.1995e-07	100.32	33.35	11.323	3.2747	7.2563e-07	12.523	5.9279e-05	3.0146e-05	7.9231e-06	199.18	3.4203e-07	2.5703e-07	307.37	44.115	3.3269e-07	3.2472e-07	98.973	33.113	11.268	3.2312	2.7527e-07	12.48	217.339	275.393	250.777	193.114	322.814	353.591	192.875	197.220	355.558	261.331	196.244	200.360	199.351	205.743	333.669	205.313	-8191	255	
1007.709	1	1	0	0	0.16064	0.20254	0.19967	0.26246	0.11894	0.21448	0.21077	0.10252	0.1557	0.099475	0.012142	0.19055	0.22313	0.14585	0.23014	0.11222	-2.6708	-2.8083	-3.0375	-2.8417	-2.7125	-2.9188	-2.8708	-2.8104	-2.9688	-2.8271	-2.9958	-3.0958	-2.8708	-3.0646	-2.9792	-2.8083	327.411	182.151	220.237	417.722	431.315	424.441	470.193	508.050	220.190	196.291	474.121	393.628	207.369	478.870	200.898	454.514	0.00011637	9.9959e-05	4.8949e-05	199.92	1.1608e-06	1.2565e-06	309.23	43.981	9.3152e-07	8.0634e-07	99.141	32.642	11.131	3.1648	3.0465e-07	12.457	5.6893e-05	3.4359e-05	8.0859e-06	196.49	3.7153e-07	3.2063e-07	304.47	43.448	3.7727e-07	3.1105e-07	98.14	32.653	11.055	3.1757	2.4587e-07	12.411	216.825	297.252	283.315	193.167	345.166	344.969	192.344	197.855	299.604	350.317	196.389	201.412	200.164	206.219	333.197	205.767	-8191	255	
1007.805	1	1	0	0	0.11439	0.26243	0.10828	0.2228	0.12415	0.1613	0.04194	0.17611	0.16287	0.084371	0.41886	0.16188	0.16329	0.23092	0.14124	0.10999	-2.5229	-2.7062	-2.9062	-3.1813	-2.8417	-3.4875	-3.1396	-2.8271	-3.0333	-3.1	-3.1146	-3.3979	-2.6708	-3.0271	-2.9188	-2.8896	338.860	385.073	375.879	455.546	204.131	270.039	482.799	383.870	237.923	381.750	507.603	253.019	408.323	505.251	482.115	433.491	0.00012197	9.6536e-05	3.919e-05	200.73	8.9395e-07	1.3621e-06	312.84	44.173	1.0002e-06	8.2376e-07	101.12	33.106	11.337	3.2024	4.647e-07	12.536	5.9353e-05	2.8104e-05	7.7302e-06	196.27	3.31e-07	2.4839e-07	306.63	43.705	2.9572e-07	2.7868e-07	99.286	32.964	11.141	3.1757	2.3869e-07	12.448	216.419	271.344	287.974	193.540	323.275	350.656	192.700	197.451	277.306	322.686	196.823	201.406	200.063	206.487	243.725	205.509	-8191	255	
1007.901	1	1	0	0	0.14503	0.045292	0.12521	0.10792	0.14845	0.17193	0.27228	0.067028	0.12016	0.19783	0.11169	0.061368	0.23335	0.17025	0.18185	0.28764	-2.6729	-2.9938	-2.9313	-3.1229	-2.8729	-3.1458	-3.025	-2.5812	-3.1937	-3.1104	-3.1625	-3.4646	-2.8708	-3.1625	-3.4604	-3.2313	244.168	282.678	493.380	361.395	223.859	406.436	479.672	395.573	531.318	494.491	403.749	449.422	271.316	521.535	485.057	474.130	0.00011004	0.0001047	3.1227e-05	198.84	1.1169e-06	1.1405e-06	308.17	44.293	3.7539e-07	1.0775e-06	98.62	32.473	11.267	3.1126	1.3618e-06	12.096	5.9905e-05	2.4542e-05	6.5604e-06	195.45	3.2222e-07	2.2559e-07	303.74	43.544	2.9953e-07	2.3551e-07	97.097	32.289	11.088	3.1253	2.1439e-07	12.125	216.483	254.811	270.708	193.232	329.803	356.892	192.648	197.795	359.775	341.642	196.625	200.981	200.354	205.932	307.495	205.162	-8191	255	
1008.022	1	1	0	0	0.25853	0.16322	0.31077	0.22384	0.19567	0.30134	0.134	0.066015	0.14784	0.057369	0.19608	0.15027	0.11804	0.29632	0.055659	0.096478	-2.8875	-2.8521	-2.7583	-3.4271	-2.8896	-3.1271	-3.2208	-2.8667	-3.3146	-3.0938	-3.0875	-3.175	-2.8667	-3.1333	-3.3833	-3.0792	229.147	363.028	229.458	415.980	536.389	468.734	491.590	491.428	249.428	427.452	434.601	367.906	514.815	359.528	531.920	365.099	0.00010851	8.8152e-05	4.2069e-05	198.39	4.3104e-07	1.1757e-06	306.2	44.733	7.4681e-07	9.3693e-07	99.061	32.452	11.304	3.2421	9.3993e-07	12.26	5.4179e-05	2.7604e-05	7.4046e-06	194.74	2.9475e-07	1.8215e-07	301.09	43.626	2.6638e-07	2.5302e-07	97.349	32.454	11.24	3.1885	2.2897e-07	12.243	219.221	236.216	269.006	193.056	277.438	339.982	192.616	197.693	260.746	354.985	196.631	200.851	198.907	206.464	347.813	205.391	-8191	255	
1008.118	1	1	0	0	0.33546	0.11189	0.15336	0.15765	0.13335	0.27852	0.16657	0.17306	0.075405	0.15646	0.18975	0.10697	0.15267	0.25142	0.21478	0.26339	-2.7333	-2.8604	-2.9854	-3.2896	-3.2062	-3.1396	-3.2229	-2.9479	-3.2146	-3.1979	-2.8604	-3.225	-2.9625	-3.0271	-3.0333	-2.9333	366.952	449.267	501.164	459.809	247.002	298.990	371.922	413.400	314.916	273.269	297.770	363.254	487.227	417.571	234.935	433.774	0.00010136	0.00012897	6.0777e-05	200.71	6.9527e-07	1.5681e-06	308.75	44.999	1.0725e-06	9.6987e-07	100.32	33.508	11.647	3.3049	3.9017e-07	12.523	5.2404e-05	2.4064e-05	7.4588e-06	196.84	2.639e-07	2.1815e-07	304.49	44.393	2.9819e-07	1.8826e-07	99.134	33.208	11.431	3.2612	2.2689e-07	12.487	215.494	238.128	280.037	193.217	330.736	360.036	192.715	197.905	314.466	351.623	196.982	200.939	200.293	205.702	373.257	205.622	-8191	255	
1008.214	1	1	0	0	0.18611	0.27843	0.13223	0.17668	0.08645	0.060199	0.2354	0.22953	0.044968	0.094043	0.18071	0.16124	0.20302	0.1865	0.18701	0.17937	-2.7583	-3.3583	-2.9688	-3.1917	-2.9062	-3.0062	-3.1167	-2.9375	-3.0417	-3.1604	-2.7313	-3.2521	-2.8896	-2.7604	-3.1083	-2.8792	-94.593	-24.048	32.389	176.187	21.431	-30.368	143.029	146.021	-143.972	48.279	-5.122	27.068	-31.530	-104.644	-111.021	49.647	0.00010559	0.00011302	4.317e-05	204.74	1.2519e-06	1.2581e-06	317.6	46.038	7.1744e-07	8.8855e-07	103.06	33.68	11.732	3.3913	3.646e-07	12.726	5.6416e-05	1.8265e-05	5.9032e-06	200.6	2.8912e-07	2.3303e-07	311.4	45.242	3.0805e-07	2.0337e-07	101.37	33.509	11.568	3.3151	2.8801e-07	12.616	-146.966	-102.419	-73.426	-166.174	-41.788	-36.174	-167.530	-161.977	-23.619	11.671	-163.062	-158.624	-160.535	-153.354	-45.388	-154.067	-8191	255	
1008.310	1	1	0	0	0.012383	0.12387	0.16716	0.24439	0.11629	0.099459	0.121	0.1226	0.11516	0.19985	0.15247	0.19872	0.19531	0.17295	0.24748	0.047228	-2.7021	-3.2771	-3.0354	-3.25	-3.1188	-2.8187	-3.275	-2.5833	-2.7979	-2.9583	-2.7521	-3.0125	-2.8563	-2.9	-3.1979	-3.0438	312.328	373.630	361.413	206.173	342.517	303.737	527.345	257.356	213.207	407.044	299.295	377.965	429.778	446.895	285.835	538.375	0.00010503	0.00010471	4.8343e-05	209.39	6.092e-07	1.1034e-06	323.52	47.046	1.0644e-06	1.3018e-06	103.69	33.841	11.783	3.3682	4.4246e-07	12.68	5.7459e-05	2.2609e-05	7.905e-06	204.7	3.0398e-07	2.6591e-07	317.3	46.342	3.1768e-07	2.8108e-07	101.9	33.514	11.678	3.3364	2.4865e-07	12.596	211.982	298.665	318.016	193.396	253.014	314.953	192.952	197.564	295.948	336.094	196.977	201.267	199.603	205.632	333.399	205.559	-8191	255	
1008.404	1	1	0	0	0.028301	0.096587	0.12096	0.10801	0.2214	0.36013	0.053266	0.067992	0.075718	0.22357	0.062133	0.30088	0.16166	0.18088	0.1639	0.083014	-2.5479	-3.0792	-2.7042	-2.9688	-3.1646	-2.7812	-2.9271	-2.7708	-2.8771	-3.2229	-2.7646	-2.9729	-3.0438	-2.7604	-3.1562	-2.8292	310.617	185.342	232.212	476.397	366.224	388.735	323.546	326.387	406.171	363.208	307.955	454.357	474.614	204.830	232.874	528.611	0.00011002	0.00013476	4.0491e-05	210.08	5.4992e-07	7.2571e-07	320.5	46.749	7.2382e-07	1.3831e-06	101.94	33.588	11.864	3.3907	4.6576e-07	12.527	5.7907e-05	2.6671e-05	8.3392e-06	205.24	3.033e-07	2.7743e-07	313.67	46.09	3.0917e-07	2.4486e-07	100.57	33.236	11.724	3.3332	2.5791e-07	12.491	213.443	284.337	267.244	193.355	320.153	346.546	192.661	197.880	331.974	307.220	196.781	201.254	200.488	206.113	305.165	205.777	-8191	255	
1008.501	1	1	0	0	0.16007	0.20746	0.38399	0.21065	0.12569	0.19113	0.069299	0.20818	0.31353	0.087439	0.29034	0.37178	0.022223	0.2135	0.14731	0.19922	-2.3667	-3.1083	-2.8292	-3.0417	-3.0292	-2.9604	-3.3292	-3.0167	-2.8187	-3.4125	-2.8688	-2.9604	-2.8	-2.8229	-3.2313	-3.0333	452.737	199.993	484.571	468.588	260.555	291.946	182.496	482.867	203.131	201.631	294.807	508.153	405.043	536.037	527.889	367.463	9.1773e-05	0.00014659	2.8208e-05	207.87	1.1647e-06	9.3081e-07	317.32	46.941	5.7242e-07	6.0156e-07	102.83	33.283	11.681	3.3829	1.1684e-06	12.527	5.6386e-05	2.7648e-05	6.6267e-06	203.34	3.0353e-07	2.5607e-07	311.76	45.977	3.1925e-07	2.156e-07	100.73	33.108	11.599	3.3239	2.6763e-07	12.467	215.978	244.203	259.240	193.366	327.075	293.741	192.711	197.368	320.519	346.061	196.653	200.992	199.588	205.909	331.370	205.628	-8191	255	
1008.621	1	1	0	0	0.24487	0.36505	0.16854	0.18476	0.1379	0.12069	0.17486	0.26007	0.098204	0.2003	0.28407	0.042753	0.2035	0.24992	0.039345	0.25379	-2.5167	-3.1917	-3.15	-3.0271	-2.9104	-3.1229	-3.3958	-3.1708	-2.8875	-3.3146	-2.8708	-3.1917	-3.1	-2.9625	-3.2188	-2.8896	192.464	464.581	284.524	419.500	504.646	282.112	327.394	480.683	317.261	210.484	421.970	361.163	185.366	430.833	207.085	429.550	9.5581e-05	0.0001316	4.0875e-05	206.01	1.1213e-06	1.2379e-06	317.79	46.93	8.0547e-07	1.2179e-06	103.92	33.324	11.793	3.3596	1.5865e-06	12.678	5.8086e-05	2.3804e-05	6.88e-06	203.05	2.7561e-07	2.7863e-07	311.9	46.069	3.4546e-07	2.3983e-07	101.4	33.249	11.649	3.3214	2.938e-07	12.54	218.628	248.629	253.582	193.422	305.447	356.874	192.886	197.295	296.370	330.696	197.412	201.542	199.933	205.956	317.502	205.570	-8191	255	
1008.717	1	1	0	0	0.072235	0.064428	0.11474	0.13659	0.15888	0.10396	0.39063	0.19458	0.19212	0.10234	0.25299	0.083912	0.03224	0.045896	0.073398	0.043276	-2.3063	-3.2	-3.0333	-2.9104	-3.3292	-3.1	-3.2229	-3.0708	-2.75	-3.2375	-3.0042	-3.1292	-3.2938	-2.9396	-2.9167	-3.0187	459.222	184.555	246.075	209.344	398.049	456.745	509.329	503.390	233.910	279.203	242.085	186.648	195.355	344.768	476.701	216.791	0.00010713	7.0542e-05	3.8948e-05	209.21	1.223e-06	5.3242e-07	319.77	47.167	8.0477e-07	7.9895e-07	104.87	33.702	11.816	3.3447	8.7138e-07	12.492	5.825e-05	2.3174e-05	7.6096e-06	203.95	3.1254e-07	2.3351e-07	314.18	46.354	3.3896e-07	2.5182e-07	101.97	33.43	11.737	3.3137	2.7481e-07	12.373	217.656	282.833	259.298	193.611	332.573	373.119	192.841	197.908	293.868	330.982	196.796	201.103	200.389	205.703	321.024	205.550	-8191	255	
1008.814	1	1	0	0	0.15733	0.22604	0.19119	0.2202	0.1764	0.12992	0.13172	0.20335	0.27045	0.21357	0.091696	0.088726	0.15755	0.13191	0.031259	0.15988	-2.4229	-3.0438	-2.8229	-2.7167	-2.9792	-3.075	-3.1354	-3.0167	-2.5792	-3.1375	-2.9854	-2.9042	-3.1	-3.0604	-3.2333	-3.075	364.556	506.265	322.925	206.483	418.013	203.893	278.871	226.532	486.912	306.871	392.594	455.355	264.929	504.752	325.203	393.221	0.00010233	0.0001538	4.7527e-05	206.89	4.0467e-07	1.2558e-06	311.18	46.585	8.4284e-07	1.498e-06	100.78	32.999	11.784	3.3907	7.8527e-07	12.486	5.6535e-05	1.9438e-05	7.0368e-06	202.52	3.1141e-07	2.8823e-07	307.86	45.807	3.9542e-07	2.7388e-07	99.658	32.945	11.604	3.3351	3.1834e-07	12.423	215.965	268.385	297.093	193.707	313.204	302.843	192.675	197.726	318.931	336.553	196.306	201.006	200.169	205.433	328.440	205.166	-8191	255	
1008.910	1	1	0	0	0.07725	0.083465	0.17216	0.28171	0.085544	0.13778	0.11707	0.13658	0.09563	0.074273	0.11408	0.24944	0.053041	0.070093	0.14447	0.070523	-2.2604	-2.9792	-2.9813	-2.7333	-3.1792	-2.9813	-2.8688	-3.1375	-2.9521	-3.1354	-2.8854	-2.7208	-3.0542	-2.6833	-2.9354	-3.1979	280.955	505.998	438.149	518.921	425.334	197.947	430.191	430.735	366.926	448.704	411.463	515.085	397.546	254.685	411.913	203.265	0.00011306	0.00013105	4.3355e-05	205.06	6.2932e-07	1.0428e-07	311.27	46.007	6.872e-07	4.911e-07	100.71	33.214	11.775	3.2879	1.0931e-06	12.515	5.9562e-05	2.5693e-05	6.6328e-06	200.97	2.8079e-07	3.0863e-07	306.48	45.719	3.1611e-07	2.8132e-07	100.11	33.216	11.643	3.3013	3.32e-07	12.469	217.695	266.135	272.141	193.287	375.862	413.753	192.476	197.693	304.192	350.170	196.430	200.772	199.477	206.377	339.489	205.078	-8191	255	
1008.981	1	1	0	0	0.28314	0.28422	0.13284	0.19157	0.2046	0.015336	0.22422	0.1925	0.1311	0.14727	0.15339	0.17578	0.083581	0.031919	0.16858	0.28538	-2.3583	-2.9292	-3.0542	-3.0167	-3.2458	-2.8625	-2.8625	-3.1625	-3.0438	-3.0354	-3.1208	-2.7292	-3.0438	-3.0896	-3.05	-3.4688	441.451	218.458	394.756	339.398	403.993	469.290	534.157	435.469	323.653	185.491	227.209	525.047	350.989	425.088	274.505	411.718	0.0001069	8.2002e-05	3.4269e-05	203.07	8.4758e-07	1.5755e-06	309.75	46.101	9.8486e-07	1.5105e-06	102.12	33.706	11.673	3.3852	6.1152e-07	12.516	5.8757e-05	2.628e-05	6.5182e-06	200.59	3.1907e-07	2.8655e-07	307.25	45.797	3.1477e-07	2.8228e-07	100.84	33.472	11.644	3.3158	2.9542e-07	12.505	215.304	258.631	277.145	193.455	324.135	317.566	192.677	197.628	295.785	318.081	196.763	200.759	198.857	205.911	325.723	205.013	-8191	255	
1009.102	1	1	0	0	0.092442	0.1352	0.11969	0.10046	0.055793	0.25976	0.061095	0.32915	0.075799	0.2137	0.039223	0.049907	0.27211	0.071899	0.18192	0.07094	-2.4875	-3.2	-3.225	-2.9833	-3.3583	-3.0646	-3.0167	-3.3667	-3.1167	-3.1188	-3.1854	-2.8521	-3.2333	-2.9938	-2.8604	-3.0083	518.340	219.390	489.535	184.906	319.491	452.577	223.982	351.512	313.289	373.589	461.355	214.121	445.359	460.506	466.857	209.899	0.00011507	9.7136e-05	3.1037e-05	202.63	1.0001e-06	1.2787e-06	310.39	46.173	1.0954e-06	5.9179e-07	101.91	33.242	11.883	3.3247	5.8113e-07	12.585	6.1844e-05	2.6584e-05	5.2881e-06	199.96	2.6638e-07	3.0287e-07	307.67	45.74	2.7556e-07	2.8299e-07	100.88	33.366	11.753	3.3215	3.2505e-07	12.579	213.033	241.806	279.798	193.499	358.901	316.842	192.868	197.162	304.304	391.697	197.362	201.108	200.113	206.014	313.395	205.138	-8191	255	
1009.198	1	1	0	0	0.11377	0.14441	0.090788	0.15722	0.071142	0.25584	0.3573	0.10151	0.18151	0.14936	0.13665	0.064077	0.24325	0.054081	0.062135	0.1752	-2.5958	-2.975	-2.9896	-2.9188	-3.1813	-3.1729	-2.9313	-3.2333	-2.9688	-2.8292	-3.2521	-2.8729	-2.8937	-3.1833	-2.7479	-2.95	209.822	453.232	321.719	443.109	309.856	409.955	464.803	447.484	299.878	283.991	473.310	528.724	335.765	205.524	299.309	361.433	0.00011172	0.00010727	3.4547e-05	204.1	8.1737e-07	7.1943e-07	311.52	46.55	1.299e-06	5.4637e-07	101.58	33.622	11.817	3.3068	1.2443e-06	12.526	5.8742e-05	2.856e-05	5.6559e-06	201.04	3.605e-07	2.1287e-07	305.82	45.933	3.2619e-07	3.0386e-07	100.02	33.238	11.596	3.3077	3.2135e-07	12.486	214.407	269.299	248.575	193.033	356.770	311.268	192.873	197.764	303.167	326.382	197.149	201.421	200.529	205.762	319.810	205.873	-8191	255	
1009.294	1	1	0	0	0.13715	0.18044	0.069605	0.16503	0.27762	0.12018	0.21727	0.41905	0.22022	0.1612	0.19289	0.18304	0.2827	0.16432	0.20201	0.13085	-2.5917	-2.7667	-2.9833	-2.6562	-2.725	-3.2104	-2.7396	-2.8812	-2.8625	-2.6813	-3.1333	-2.7521	-2.7833	-3.0917	-2.6083	-2.9896	431.983	277.771	191.673	467.985	315.478	264.684	231.369	311.682	403.581	457.688	456.541	496.792	384.685	193.747	310.097	459.402	9.9312e-05	0.00016007	5.759e-05	205.58	1.022e-06	1.2988e-06	307.51	46.24	8.3429e-07	6.0389e-07	100.52	33.335	11.77	3.2932	4.993e-07	12.445	5.7504e-05	2.5172e-05	7.0669e-06	200.55	3.614e-07	2.5535e-07	302.69	45.336	3.0446e-07	3.1561e-07	98.895	32.926	11.555	3.2786	2.9519e-07	12.384	214.017	262.757	247.614	193.731	289.906	320.580	192.733	197.656	278.913	301.145	196.726	201.767	200.021	205.897	317.402	205.403	-8191	255	
1009.413	1	1	0	0	0.030266	0.064299	0.2026	0.15883	0.1307	0.2329	0.28882	0.22952	0.22803	0.079978	0.19751	0.18692	0.078493	0.10063	0.1414	0.20935	-2.6333	-2.5417	-3.2042	-2.9646	-2.7854	-3.25	-2.9667	-3.1167	-3.2167	-2.975	-3.3042	-3.0042	-2.9896	-3.2667	-2.85	-3.1292	311.658	502.384	321.059	341.129	221.509	320.887	535.623	413.011	270.698	501.077	273.399	459.792	434.901	518.701	342.002	311.640	9.7815e-05	0.00016063	2.6637e-05	203.05	8.4313e-07	1.3652e-06	308.4	46.105	1.888e-07	1.7699e-06	100.49	33.148	11.736	3.2936	7.424e-07	12.452	5.6609e-05	2.7974e-05	6.9463e-06	198.65	3.5397e-07	1.9943e-07	302.18	45.371	2.6705e-07	3.5039e-07	99.257	33.02	11.604	3.2866	3.1857e-07	12.394	221.327	311.546	255.566	193.332	302.282	351.706	192.957	197.795	209.884	339.109	197.141	200.615	199.523	205.633	300.654	205.595	-8191	255	
1009.509	1	1	0	0	0.11309	0.13765	0.21625	0.049323	0.16063	0.305	0.033792	0.15214	0.16058	0.17394	0.26065	0.10319	0.21205	0.14086	0.17811	0.098308	-2.7792	-2.6625	-3.1021	-2.9021	-2.7	-3.2146	-2.9667	-2.8396	-3.1562	-2.9125	-3.1479	-3.0187	-2.8104	-3.1417	-3.1562	-3.2562	505.633	393.386	200.548	248.082	437.473	485.407	272.297	356.472	339.663	183.793	366.627	457.248	223.268	325.907	262.384	499.562	0.00010876	0.00014367	2.7342e-05	202.75	4.4252e-07	1.973e-06	308.76	46.11	1.2798e-06	1.4132e-06	100.72	33.013	11.641	3.3283	6.3957e-07	12.409	5.3582e-05	2.9885e-05	5.9333e-06	197.81	3.1772e-07	2.3855e-07	303	45.319	3.0379e-07	2.8323e-07	99.651	32.861	11.473	3.2798	2.299e-07	12.383	215.156	244.539	229.947	193.720	315.920	323.654	192.558	197.526	316.271	331.399	196.777	200.983	200.795	206.481	351.721	205.129	-8191	255	
1009.583	1	1	0	0	0.037337	0.088985	0.054517	0.11347	0.14095	0.1726	0.20898	0.065962	0.14249	0.24971	0.31894	0.094557	0.2412	0.047709	0.20491	0.1066	-2.7458	-2.675	-3.2625	-3.1458	-2.9479	-3.2521	-2.8812	-3.0333	-3.3	-2.9	-3.1833	-3.2646	-2.9833	-3.2625	-2.9375	-3.2062	37.905	-73.190	-153.141	-97.138	100.161	-155.810	138.077	31.698	-21.463	90.079	-131.582	-151.422	-143.625	100.514	-29.179	-113.842	9.9744e-05	0.00018137	5.6948e-05	201.59	5.6465e-07	8.2245e-07	303.13	45.952	1.2869e-06	1.5972e-06	98.724	32.515	11.602	3.2937	5.6155e-07	12.207	5.227e-05	2.9233e-05	6.7594e-06	197.48	3.0916e-07	1.5935e-07	299.31	45.061	2.8408e-07	2.9762e-07	97.3	32.382	11.383	3.24	2.6601e-07	12.177	-146.178	-100.988	-114.379	-166.535	-33.248	25.769	-167.188	-161.981	-64.379	20.742	-163.570	-159.182	-160.651	-153.962	-26.507	-154.619	-8191	255	
1009.702	1	1	0	0	0.17386	0.26093	0.22234	0.15276	0.16273	0.16984	0.098947	0.16169	0.18297	0.06464	0.16842	0.24329	0.19314	0.15172	0.21533	0.18628	-2.85	-2.8438	-3.1312	-3.1562	-2.9938	-3.2729	-3.2896	-2.8771	-3.1021	-3.0583	-3.2646	-3.1188	-2.7542	-2.9375	-3.1	-2.9688	302.040	491.587	249.555	411.447	274.640	393.155	354.287	431.290	306.099	236.038	324.879	507.380	182.101	503.119	301.651	416.661	0.0001027	0.00017991	4.7729e-05	199.84	1.1446e-06	1.3172e-06	301.22	44.981	5.146e-07	6.4971e-07	98.634	32.358	11.503	3.2354	1.3022e-06	12.096	4.9779e-05	2.7474e-05	6.47e-06	196.29	3.1119e-07	2.5823e-07	296.74	44.549	2.778e-07	2.5853e-07	97.11	32.248	11.395	3.2404	2.5212e-07	12.121	211.669	268.174	221.135	193.381	363.160	341.065	192.325	197.444	298.604	336.896	196.806	200.690	200.930	206.493	341.819	206.046	-8191	255	
1009.798	1	1	0	0	0.084999	0.16822	0.10251	0.14605	0.18715	0.031992	0.075288	0.21695	0.12681	0.05075	0.088293	0.14615	0.044704	0.026671	0.23325	0.23698	-2.9229	-2.9167	-3.0042	-3.2562	-2.8646	-3.0563	-2.9708	-2.85	-3.0438	-3.0417	-2.9167	-2.95	-2.7646	-3.1167	-2.8021	-2.875	242.391	384.928	366.403	526.436	505.987	249.247	376.210	186.888	530.947	231.396	524.989	443.439	357.727	183.698	300.151	472.800	0.00010694	0.00010485	3.972e-05	200.3	2.8344e-07	1.0953e-06	303.17	45.366	8.5172e-07	8.8683e-07	100.2	32.83	11.554	3.3111	1.1607e-06	12.282	5.6565e-05	2.6019e-05	7.1151e-06	197.18	3.256e-07	2.5559e-07	299.12	45.052	2.5361e-07	2.6861e-07	98.349	32.669	11.467	3.2597	3.1695e-07	12.207	211.775	246.614	276.115	193.218	329.308	324.242	192.596	197.737	320.595	328.160	196.601	200.764	201.109	205.717	293.661	205.939	-8191	255	
1009.894	1	1	0	0	0.25117	0.3035	0.16306	0.26596	0.097731	0.19349	0.15238	0.19715	0.14299	0.16699	0.075444	0.052457	0.058183	0.092246	0.059939	0.099005	-2.8729	-2.6333	-2.9688	-3.2458	-2.9521	-2.9604	-3.1083	-2.9021	-3.1854	-2.8688	-2.975	-3.2271	-2.9229	-3.075	-3.2625	-2.8625	233.673	294.851	236.224	387.112	268.980	382.016	334.225	381.511	497.514	243.016	371.015	537.424	452.338	498.347	481.671	206.328	9.9669e-05	0.00011428	1.4429e-05	200.02	8.4995e-07	1.6164e-06	303.96	45.527	9.2691e-07	1.0732e-06	99.334	32.632	11.394	3.2562	7.9683e-07	12.254	5.1957e-05	2.8234e-05	6.892e-06	197.07	3.4181e-07	2.7095e-07	299.23	44.917	3.1253e-07	3.276e-07	97.893	32.341	11.314	3.2091	2.6972e-07	12.1	217.183	243.671	241.112	193.378	319.735	300.539	193.004	197.564	301.632	363.441	196.821	200.890	200.003	206.411	339.722	205.683	-8191	255	
1010.015	1	1	0	0	0.08804	0.2002	0.16536	0.050194	0.26161	0.22215	0.42279	0.29563	0.1544	0.11901	0.19199	0.22543	0.28049	0.20487	0.19925	0.18697	-2.9021	-2.85	-2.8688	-3.0417	-2.8271	-2.9167	-3.0896	-2.8646	-3.1729	-2.9146	-2.8625	-3.2479	-2.8812	-3.15	-3.1875	-2.9375	413.170	359.347	512.997	371.753	270.114	319.125	463.288	514.633	370.837	373.896	256.421	485.013	533.034	270.804	346.475	182.505	0.00010763	0.00010369	2.7827e-05	197.29	6.8053e-07	7.649e-07	300.79	45.08	6.1476e-07	2.025e-06	96.626	31.817	11.249	3.1898	6.7052e-07	11.819	5.567e-05	3.0341e-05	8.3392e-06	193.5	3.7986e-07	3.0983e-07	294.87	44.079	3.6114e-07	2.7244e-07	95.189	31.492	11.112	3.1622	3.0283e-07	11.763	213.645	250.681	269.234	193.618	301.013	304.074	193.178	197.863	334.885	332.715	196.720	200.914	200.097	207.140	313.572	205.788	-8191	255	
1010.111	1	1	0	0	0.074725	0.26855	0.22966	0.18502	0.15188	0.099672	0.09378	0.07128	0.088993	0.13207	0.036867	0.11176	0.093277	0.33167	0.12935	0.20759	-2.825	-2.775	-2.775	-3.0438	-2.8875	-3.1937	-3.0563	-2.8646	-3.3292	-3.0917	-2.9771	-3.0417	-3.0354	-3.0062	-3.1604	-2.8937	370.874	339.785	179.454	318.848	217.577	472.068	205.224	295.893	381.887	294.154	444.467	413.241	449.446	464.955	425.392	315.910	9.6963e-05	0.00012304	3.755e-05	192.41	6.1578e-07	1.0922e-06	295.58	43.797	9.9384e-07	1.5314e-06	96.151	31.607	11.157	3.0877	9.7814e-07	11.817	5.1957e-05	3.2122e-05	8.3995e-06	189.86	3.4676e-07	3.2519e-07	288.6	43.217	3.2373e-07	2.9259e-07	94.33	31.239	10.959	3.1104	2.9542e-07	11.714	214.088	271.404	288.580	193.462	314.962	309.731	192.714	197.370	327.413	316.723	197.088	200.555	199.862	206.161	323.915	205.713	-8191	255	
1010.205	1	1	0	0	0.10825	0.099246	0.2548	0.21807	0.11955	0.19436	0.080206	0.012103	0.35822	0.077567	0.16138	0.27968	0.1291	0.1139	0.10711	0.066098	-2.5729	-3.0604	-2.9104	-3.3479	-3.2521	-3.1625	-3.4229	-2.8771	-3.2146	-3.1771	-2.9917	-3.3604	-3.0875	-3.0687	-3.2562	-3.0292	258.259	531.304	434.682	216.791	194.932	539.551	496.733	337.201	371.766	355.835	230.296	362.120	356.739	215.258	403.199	343.930	0.00010074	0.00012224	2.0138e-05	191.13	8.1635e-07	1.5233e-06	292.54	44.042	2.2765e-07	1.5035e-06	95.987	31.57	11.077	3.1322	1.4867e-06	11.876	5.7355e-05	3.1188e-05	8.9301e-06	189.01	3.5937e-07	3.4295e-07	288.54	43.381	2.9841e-07	2.9547e-07	94.461	31.348	10.971	3.1345	3.0051e-07	11.756	216.260	252.901	391.563	193.413	316.981	321.053	192.483	197.671	343.134	279.936	196.554	200.798	199.458	205.962	335.575	205.141	-8191	255	
1010.278	1	1	0	0	0.11233	0.1966	0.27394	0.19811	0.34122	0.11921	0.18444	0.15499	0.17631	0.1255	0.23064	0.22511	0.21373	0.14204	0.33428	0.1425	-2.8458	-3.2458	-2.7562	-3.3271	-3.0146	-2.9729	-3.3042	-2.9604	-3.0208	-3.1417	-2.9354	-3.1813	-2.8542	-3.0354	-3.1042	-2.7833	318.734	302.234	473.046	195.214	308.501	217.620	490.164	189.448	202.480	534.782	180.665	456.772	274.146	346.600	354.546	463.425	0.00010061	0.00011941	4.6915e-05	193.49	5.6057e-07	7.6319e-07	294.36	44.272	8.8095e-07	1.0935e-06	96.974	31.57	11.158	3.202	5.3538e-07	11.972	5.5327e-05	2.7431e-05	8.7794e-06	189.98	3.2425e-07	3.1727e-07	289.95	43.512	3.7481e-07	2.6381e-07	95.491	31.525	11.078	3.1552	2.7111e-07	11.859	214.609	226.383	263.381	193.732	332.901	397.573	193.086	197.970	329.373	338.094	197.263	200.783	200.200	205.986	261.989	205.981	-8191	255	
1010.397	1	1	0	0	0.20411	0.20515	0.046864	0.19145	0.052904	0.046709	0.14795	0.28056	0.11117	0.1339	0.19857	0.0765	0.093956	0.37706	0.24367	0.16622	-2.5396	-3.275	-2.7271	-3.0521	-3.0958	-2.7729	-3.0896	-2.7771	-2.9938	-3.1937	-2.7687	-3.2625	-2.7875	-2.6875	-2.9521	-2.8208	363.480	496.386	501.320	381.729	184.929	288.046	387.162	423.015	537.837	197.102	444.486	232.921	323.637	471.906	299.053	221.287	0.0001006	7.6441e-05	3.456e-05	194.24	8.1571e-07	1.7034e-06	294.42	44.626	5.1449e-07	1.031e-06	96.356	31.516	10.998	3.1729	1.0142e-06	11.873	5.8026e-05	2.8169e-05	8.9361e-06	190.7	3.1006e-07	3.3695e-07	290.8	43.797	3.4591e-07	2.9643e-07	95.129	31.413	11.04	3.1377	3.1996e-07	11.77	213.597	250.121	275.108	193.234	328.004	314.233	192.819	197.682	312.918	342.330	196.828	200.743	200.154	206.455	309.522	205.788	-8191	255	
1010.494	1	1	0	0	0.23233	0.21661	0.093114	0.18788	0.074289	0.059007	0.072134	0.013707	0.12417	0.068093	0.14692	0.20746	0.21242	0.11611	0.20468	0.097812	-2.3312	-3.0354	-2.6312	-3	-3.3917	-2.7604	-3.1188	-2.8563	-2.8583	-3.3625	-3.0396	-2.7146	-3.2313	-2.7208	-2.9646	-2.9167	221.468	524.495	228.318	499.474	269.731	199.976	480.542	226.910	456.572	517.266	399.637	378.269	269.715	256.642	451.347	315.914	9.5009e-05	5.1522e-05	4.9421e-05	194.76	1.1089e-06	5.2775e-07	289.3	43.613	1.0576e-06	1.5257e-06	95.206	30.992	11.303	3.1774	1.3806e-06	11.736	5.7191e-05	2.6975e-05	1.0643e-05	190.64	3.578e-07	3.5447e-07	287.01	43.182	4.4516e-07	3.6022e-07	93.892	31.079	11.08	3.1452	4.4266e-07	11.74	215.717	307.407	266.128	193.092	282.978	352.242	192.976	197.260	313.426	344.280	196.614	200.856	199.834	204.396	335.567	205.595	-8191	255	
1010.590	1	1	0	0	0.11241	0.074566	0.10324	0.26552	0.21582	0.13196	0.08374	0.060815	0.23549	0.042177	0.12848	0.26647	0.22314	0.39319	0.12005	0.090002	-2.5479	-3.2438	-2.8833	-3.0438	-3.2	-2.9813	-3.1396	-3.0604	-2.8875	-3.2604	-3.0833	-2.9188	-3.0375	-3.0375	-3.0583	-2.8896	469.282	486.413	295.496	302.170	464.862	243.470	450.433	283.726	436.625	190.392	465.038	534.270	529.206	511.343	250.901	473.668	0.00010025	0.00010243	2.5302e-05	194.41	1.4152e-06	1.2965e-06	293.92	44.211	1.0782e-06	8.1693e-07	95.866	31.489	11.266	3.2269	1.0423e-06	11.867	6.4275e-05	3.5706e-05	1.1197e-05	190.55	4.0666e-07	4.4278e-07	288.62	43.423	5.1035e-07	3.9931e-07	94.377	31.299	11.093	3.1552	4.3873e-07	11.774	216.189	277.001	292.342	193.122	316.205	332.125	192.519	197.180	280.287	328.293	196.661	200.569	201.117	207.086	288.488	205.630	-8191	255	
1010.686	1	1	0	0	0.31002	0.1129	0.066548	0.18815	0.22686	0.14861	0.11211	0.42279	0.12754	0.07892	0.14931	0.25956	0.02066	0.1235	0.10715	0.15278	-2.65	-3.2896	-3.1188	-3.0729	-3.2604	-2.925	-3.0812	-3.2625	-2.8375	-3.3104	-3.1625	-3.0687	-3.4458	-2.7792	-3.325	-3.1813	526.428	192.741	321.664	514.770	224.724	519.867	281.534	440.214	463.130	289.516	243.234	212.574	196.426	299.844	381.424	194.084	0.00010543	8.3673e-05	4.2338e-05	193.95	3.0274e-07	9.0567e-07	294.57	44.303	8.2444e-07	2.059e-07	96.415	31.704	11.3	3.1782	4.8766e-07	11.879	6.3872e-05	3.5401e-05	1.0823e-05	189.86	4.8569e-07	4.363e-07	288.73	43.49	5.0004e-07	4.137e-07	95.084	31.458	11.146	3.1573	4.679e-07	11.841	214.606	258.261	290.212	193.270	288.818	324.550	192.753	197.472	332.246	249.638	196.626	200.530	199.329	205.821	309.591	205.812	-8191	255	
1010.806	1	1	0	0	0.042911	0.29655	0.24994	0.21008	0.21682	0.15373	0.12866	0.23244	0.27677	0.077329	0.23222	0.09255	0.047044	0.017236	0.19599	0.093598	-2.4917	-3.1771	-3.0563	-2.9083	-3.1958	-2.9562	-3.2104	-3.2417	-2.9313	-3.1875	-3.1854	-3.1312	-3.0438	-2.7521	-3.1	-2.9896	380.442	193.362	463.969	399.220	508.499	525.762	401.951	445.683	222.103	438.371	508.517	418.442	489.700	232.740	317.972	292.358	0.00010104	0.00010177	4.8822e-05	191.17	1.0217e-06	1.5414e-06	292.16	44.479	7.6556e-07	6.4076e-07	96.942	31.352	11.259	3.1593	1.4964e-06	11.656	6.6467e-05	3.7074e-05	1.1933e-05	189.65	4.7714e-07	5.4094e-07	289.81	43.684	5.2065e-07	4.4464e-07	95.565	31.493	11.152	3.1715	4.8109e-07	11.744	214.978	232.444	259.538	192.962	302.936	372.100	192.521	197.763	320.746	425.382	196.655	201.234	199.331	205.548	321.012	206.022	-8191	255	
1010.878	1	1	0	0	0.20237	0.057016	0.13368	0.1438	0.18459	0.096075	0.11274	0.11131	0.16007	0.28766	0.37216	0.22014	0.15232	0.24386	0.13267	0.15068	-2.4146	-3.0271	-2.9437	-2.8792	-3.1021	-2.8792	-3.0625	-3.2271	-2.6917	-3.1625	-2.8708	-2.6854	-3.1021	-2.8604	-3.0146	-2.8833	312.646	516.636	351.859	474.441	352.080	297.376	483.394	482.055	290.573	463.607	515.983	253.800	212.336	266.701	431.390	375.806	0.00011597	0.00016034	3.2172e-05	194.5	7.454e-07	6.1045e-07	289.93	44.255	8.5256e-07	9.0867e-07	94.597	31.344	11.16	3.1385	2.8155e-07	11.753	7.1522e-05	5.0344e-05	1.2663e-05	190.59	4.7263e-07	5.5534e-07	287.03	43.388	5.518e-07	5.1683e-07	93.912	31.082	11.03	3.1421	5.01e-07	11.713	216.227	243.528	258.435	193.439	353.884	314.143	192.629	197.967	334.678	316.553	196.575	200.485	200.237	204.714	346.079	205.527	-8191	255	
1010.974	1	1	0	0	0.06838	0.24111	0.10564	0.093113	0.055218	0.28292	0.096269	0.11247	0.14653	0.28628	0.052533	0.24261	0.11973	0.24695	0.10529	0.026734	-2.3667	-3.0729	-2.9667	-2.7417	-3.1562	-2.9188	-2.7167	-3.1479	-2.7042	-3.2229	-3.0667	-2.7854	-3.175	-2.7042	-2.9792	-3.0521	-77.299	149.204	-176.617	-152.090	-158.458	48.876	-123.984	-110.031	-158.074	-17.058	-141.832	-67.396	-5.462	-89.464	-116.444	-177.057	0.00010999	0.00011779	3.2397e-05	194.59	7.9496e-07	9.9691e-07	292.26	44.424	2.8684e-07	9.0758e-07	96.261	31.233	11.386	3.1796	5.9798e-07	11.8	7.3536e-05	5.08e-05	1.3e-05	190.61	4.9943e-07	5.4358e-07	288.04	43.793	6.0153e-07	4.631e-07	94.741	31.133	11.123	3.1522	5.5032e-07	11.733	-144.554	-96.873	-115.095	-166.618	12.474	23.747	-167.236	-161.975	-70.070	-100.605	-163.402	-158.921	-160.474	-154.611	-80.508	-154.531	-8191	255	
1011.095	1	1	0	0	0.18518	0.0639	0.059346	0.21956	0.20413	0.12623	0.12675	0.088554	0.072119	0.29618	0.092363	0.20298	0.15499	0.041405	0.24114	0.15763	-2.4437	-2.9667	-2.9708	-2.5583	-3.0854	-3.0917	-2.7854	-3.0667	-2.7938	-3.0104	-3.2188	-2.675	-3.2333	-2.8625	-2.975	-3.1042	517.183	328.277	315.425	382.173	410.239	511.605	427.371	231.413	233.370	459.797	449.470	325.182	250.422	508.463	376.290	389.819	0.00011045	0.00010052	1.2625e-05	196.41	9.2384e-07	1.38e-06	294.69	44.645	8.1226e-07	8.7671e-07	97.387	31.684	11.516	3.2179	7.4093e-07	11.822	7.1179e-05	4.3524e-05	1.3266e-05	192.74	5.7869e-07	5.2246e-07	290.62	44.049	5.8271e-07	4.7629e-07	95.874	31.561	11.27	3.1763	5.7254e-07	11.788	214.226	249.241	274.929	192.907	317.788	331.597	192.640	197.634	307.854	297.246	196.670	200.741	200.396	205.901	348.270	205.927	-8191	255	
1011.191	1	1	0	0	0.094592	0.12392	0.059248	0.13859	0.23868	0.17686	0.040603	0.08858	0.11452	0.1721	0.11287	0.18885	0.089314	0.13766	0.12248	0.16535	-2.5417	-3.0667	-3.0979	-2.8396	-2.9125	-3.0167	-2.525	-3.1354	-3.0708	-2.9437	-3.2854	-3.0479	-3.3333	-3.0062	-2.8625	-3.0917	369.682	416.031	267.245	505.356	399.321	535.347	398.759	530.124	503.342	501.304	377.613	495.184	463.119	237.123	509.733	498.262	0.00011436	0.00010416	2.3848e-05	198.19	1.2921e-06	1.1889e-06	299.46	45.286	9.3792e-07	6.9816e-07	98.859	31.777	11.249	3.2431	8.019e-07	11.963	6.8495e-05	4.6608e-05	1.4158e-05	194.94	4.9492e-07	4.8502e-07	294.22	44.757	5.1864e-07	5.3169e-07	97.211	31.861	11.285	3.2112	5.3897e-07	11.9	221.600	295.352	324.275	193.511	291.216	337.145	192.437	197.516	307.229	289.486	196.806	200.930	200.107	206.840	292.912	205.747	-8191	255	
1011.285	1	1	0	0	0.082701	0.16173	0.047884	0.18712	0.23926	0.10308	0.18719	0.11648	0.14353	0.1156	0.15634	0.03517	0.081657	0.27598	0.086566	0.063996	-2.7667	-3.0625	-2.9958	-2.9688	-3.0542	-3.2208	-2.8104	-3.2917	-2.8521	-2.7687	-3.1021	-2.8396	-2.9771	-3.0396	-3.0167	-3.0854	323.390	485.709	533.167	432.794	252.903	366.793	461.860	476.808	490.200	451.130	381.117	369.881	214.590	397.696	217.728	483.043	0.00010671	0.00012607	3.5702e-05	199.71	9.2155e-07	1.5687e-06	295.5	45.312	4.8432e-07	5.8581e-07	97.451	31.72	11.567	3.2673	1.2701e-06	11.859	6.7615e-05	4.2699e-05	1.2385e-05	194.72	5.2757e-07	5.191e-07	292.27	44.592	5.1013e-07	5.0699e-07	95.874	31.564	11.392	3.2217	5.4685e-07	11.782	215.551	234.129	298.797	193.098	297.983	331.449	192.716	197.264	279.888	288.516	196.396	201.138	200.622	206.546	324.451	205.736	-8191	255	
1011.383	1	1	0	0	0.16634	0.10409	0.25596	0.33054	0.37941	0.24596	0.15507	0.17439	0.15648	0.13036	0.084057	0.14051	0.030929	0.084224	0.12301	0.17978	-2.4958	-2.6417	-2.7583	-2.85	-2.8604	-3.2708	-2.7708	-3.2729	-2.8167	-2.725	-3.0271	-2.5854	-2.9917	-3	-2.8333	-3	245.691	323.516	284.358	449.368	411.673	238.133	523.633	539.934	507.454	408.918	331.781	326.865	347.420	206.881	508.512	312.890	9.9932e-05	0.00012276	2.9766e-05	197.48	8.3306e-07	4.6284e-07	295.36	45.158	8.5112e-07	1.0337e-06	97.985	31.975	11.392	3.2192	6.2291e-07	11.891	6.5855e-05	4.802e-05	1.2602e-05	194.62	5.1159e-07	4.795e-07	291.93	44.588	5.9772e-07	5.0579e-07	95.84	31.641	11.346	3.217	5.5495e-07	11.855	216.093	271.035	262.794	193.284	356.646	298.551	192.550	197.951	345.616	294.020	197.130	201.149	199.849	206.321	294.144	205.919	-8191	255	
1011.478	1	1	0	0	0.12432	0.19524	0.20171	0.19398	0.1271	0.1709	0.18553	0.20566	0.059133	0.31169	0.10775	0.19989	0.063386	0.26496	0.23952	0.22467	-2.6646	-2.8542	-3.0146	-2.9021	-2.9021	-3.2271	-2.7375	-3.025	-3.0042	-2.6833	-2.9188	-2.7417	-2.8729	-3.0542	-2.8	-3.0229	87.439	70.581	175.063	-65.126	-0.650	47.646	42.492	80.223	-71.640	130.855	24.129	-47.220	171.932	-16.104	-163.652	-22.808	9.9789e-05	0.0001486	3.5642e-05	198.63	9.8835e-07	1.2867e-06	296.41	45.502	4.0425e-07	4.611e-07	97.785	31.604	11.41	3.1959	5.2924e-07	11.917	6.6452e-05	5.3146e-05	1.367e-05	194.79	6.1359e-07	4.7638e-07	292.44	44.779	5.2178e-07	4.9884e-07	96.664	31.724	11.34	3.2119	5.6097e-07	11.87	-145.986	-94.915	-106.085	-166.515	-27.513	-7.845	-167.140	-161.833	0.605	-16.556	-163.274	-159.110	-160.065	-153.591	0.705	-154.217	-8191	255	
1011.574	1	1	0	0	0.11604	0.068975	0.28837	0.16622	0.1746	0.35066	0.13693	0.15306	0.47059	0.20091	0.17855	0.15429	0.27044	0.1492	0.15574	0.1683	-2.4938	-2.7833	-2.9208	-2.7708	-2.7313	-2.9083	-2.9917	-2.8417	-3.0667	-2.8083	-2.9813	-2.9417	-2.9479	-3.2146	-3.1188	-3.0062	225.737	221.362	368.683	483.120	476.464	397.355	420.207	440.891	348.933	374.475	234.473	436.170	490.805	509.969	241.562	417.499	8.9788e-05	0.00010499	3.9149e-05	201.36	1.2064e-06	2.0742e-06	300.31	45.941	1.0229e-06	1.0489e-06	99.972	32.506	11.794	3.287	1.1176e-06	12.202	6.939e-05	4.6044e-05	1.2337e-05	197.12	5.4559e-07	5.371e-07	296.56	45.342	5.4575e-07	5.5088e-07	98.261	32.264	11.571	3.274	4.9985e-07	12.116	214.086	277.132	274.964	193.439	329.449	329.534	192.480	197.473	323.335	346.051	196.566	200.718	200.321	205.824	356.608	205.834	-8191	255	
1011.695	1	1	0	0	0.23986	0.22533	0.24252	0.12314	0.12063	0.1102	0.16914	0.18167	0.14099	0.13384	0.14795	0.1867	0.15513	0.13384	0.23314	0.17436	-2.575	-2.95	-2.9542	-3.0187	-2.8417	-3.1542	-2.9333	-2.9333	-3.2313	-2.9354	-2.9313	-2.9729	-2.9417	-3.1625	-3.075	-3.0021	353.110	497.401	409.594	465.634	431.919	249.099	294.267	208.025	371.561	487.316	401.628	508.457	180.407	196.467	352.555	267.163	0.00010103	0.00012247	5.1303e-06	202.61	1.0316e-06	1.1648e-06	302.83	46.755	1.1634e-06	1.0172e-06	99.338	32.342	11.637	3.3216	8.1075e-07	11.921	6.7869e-05	4.8476e-05	1.215e-05	199.56	5.4874e-07	4.6126e-07	298.11	46.08	4.7898e-07	5.0747e-07	97.727	32.043	11.599	3.2952	5.2369e-07	11.972	218.876	274.681	423.454	193.333	334.742	342.382	192.389	197.296	333.831	298.962	196.501	201.475	200.004	206.595	329.346	206.231	-8191	255	
1011.791	1	1	0	0	0.2476	0.26568	0.18233	0.19912	0.085954	0.26044	0.2895	0.078488	0.13433	0.24324	0.2295	0.02916	0.30275	0.059741	0.17231	0.28831	-2.7583	-2.9958	-2.9938	-3.0021	-2.9292	-3.1896	-3.0521	-3.0229	-3.1792	-2.9125	-3.0979	-3.5417	-2.7104	-3.1104	-3.2188	-2.6833	187.989	401.899	327.480	210.853	237.490	461.354	256.203	228.689	372.045	280.285	273.168	270.792	345.254	223.453	404.379	476.672	0.00010122	0.00016848	3.5443e-05	204.89	1.2148e-06	1.2099e-06	301.74	46.917	9.0874e-07	1.1564e-06	98.874	32.533	11.643	3.3506	1.1087e-06	12.178	6.8182e-05	4.5479e-05	1.2663e-05	200.39	4.9718e-07	5.1118e-07	297.16	46.187	5.3208e-07	4.5735e-07	97.841	32.177	11.676	3.3076	4.5146e-07	12.03	213.994	236.282	251.224	193.430	387.999	313.663	192.569	197.596	321.073	316.582	196.734	200.943	200.020	205.750	325.617	206.012	-8191	255	
1011.887	1	1	0	0	0.089317	0.095731	0.12717	0.23233	0.24704	0.22926	0.13688	0.35709	0.075642	0.084199	0.24968	0.29312	0.14004	0.29913	0.053369	0.19619	-2.9167	-3.0667	-2.7979	-3.1521	-2.7	-3.1708	-3.1271	-2.7687	-3.1271	-2.8604	-2.8125	-3.1333	-2.8625	-3.0167	-2.9854	-2.6688	194.427	338.594	382.763	422.071	269.850	429.302	205.101	347.809	356.112	271.775	185.866	526.478	353.779	180.073	385.342	525.116	9.0762e-05	0.00010339	3.3579e-05	206.4	6.7688e-07	1.121e-06	304.68	46.836	3.157e-07	2.0194e-06	99.256	32.604	12.108	3.3583	6.2999e-07	12.148	6.0725e-05	4.1787e-05	1.2946e-05	201.49	5.1271e-07	4.7398e-07	299.27	46.361	4.9691e-07	5.3745e-07	98.426	32.194	11.794	3.3136	4.6605e-07	12.098	212.074	264.004	273.259	193.469	294.192	329.853	192.514	197.587	330.100	319.376	196.840	200.870	200.047	206.817	340.299	205.820	-8191	255	
1011.983	1	1	0	0	0.15766	0.25724	0.17371	0.27711	0.30257	0.16111	0.23519	0.1138	0.24585	0.18757	0.082028	0.06495	0.2274	0.42833	0.20366	0.20673	-2.7562	-2.9875	-2.6125	-3.1958	-2.7479	-3.0417	-2.9729	-2.8333	-3.0771	-2.9229	-2.8958	-3.1354	-2.875	-2.8521	-2.9688	-2.675	316.572	374.316	398.795	211.823	230.369	319.690	193.715	329.178	232.420	501.533	308.001	377.254	427.068	467.168	490.355	376.224	0.00010986	0.00011747	3.7525e-05	205.08	4.7885e-07	1.6048e-06	303.8	46.753	6.7703e-07	2.2213e-06	100	32.582	11.803	3.2978	1.1629e-06	12.203	6.7615e-05	4.5826e-05	1.2783e-05	200.83	5.4108e-07	4.7902e-07	299.54	46.236	5.2984e-07	5.209e-07	98.645	32.323	11.672	3.2991	4.8688e-07	12.103	216.420	212.912	317.390	193.166	284.088	350.363	192.978	197.868	348.035	299.998	197.112	200.912	200.094	206.797	315.855	205.876	-8191	255	
1012.104	1	1	0	0	0.10335	0.19188	0.064478	0.14378	0.24667	0.3068	0.13642	0.083984	0.28638	0.14381	0.17395	0.035781	0.248	0.099676	0.25935	0.044114	-2.6292	-2.8521	-2.5521	-3.1958	-2.7229	-2.9125	-3.0438	-2.7292	-3.0375	-2.7938	-2.8771	-2.9917	-2.5833	-3.1625	-2.9938	-2.6396	381.748	290.076	389.107	365.033	406.891	513.388	225.621	402.064	390.785	453.483	471.892	444.482	284.640	185.052	427.471	387.167	0.00010364	0.0001223	5.1871e-05	201.88	5.1689e-07	3.0562e-07	299.43	45.637	3.7356e-07	6.144e-07	97.634	31.76	11.454	3.2937	3.4568e-07	11.797	6.9405e-05	4.4458e-05	1.3694e-05	198.08	5.1249e-07	5.4262e-07	295.84	45.338	5.3746e-07	5.5136e-07	95.801	31.494	11.312	3.2218	5.1999e-07	11.765	217.813	240.507	260.053	193.265	347.307	539.772	192.673	197.869	321.320	273.676	196.837	200.559	200.025	205.402	307.512	205.727	-8191	255	
1012.175	1	1	0	0	0.072421	0.10276	0.18602	0.094927	0.10569	0.12479	0.06937	0.21506	0.21068	0.021682	0.072371	0.19148	0.1521	0.14578	0.025793	0.22642	-2.7208	-3.0062	-2.5854	-3.0792	-2.8708	-2.6729	-3.1729	-2.6667	-3.1167	-2.8187	-2.65	-3.2	-2.7479	-2.8896	-3.1271	-2.8312	312.425	447.079	180.989	398.266	278.752	397.047	254.457	235.757	196.776	328.449	184.818	534.680	267.518	200.812	327.585	501.395	0.00010565	8.6714e-05	2.9133e-05	196.11	2.9979e-07	1.6502e-06	288.32	44.332	3.029e-07	7.0177e-07	94.652	31.005	11.085	3.1687	1.4606e-06	11.638	7.1194e-05	5.0062e-05	1.4465e-05	193.53	6.2417e-07	5.8606e-07	285.68	43.779	5.2939e-07	5.3529e-07	93.069	30.755	11.055	3.1402	5.8366e-07	11.541	223.175	306.127	299.579	193.239	222.102	278.963	192.678	197.438	349.649	298.081	196.703	201.129	198.956	205.914	347.055	206.074	-8191	255	
1012.271	1	1	0	0	0.15523	0.22894	0.32255	0.073549	0.33614	0.13996	0.27648	0.23177	0.24626	0.25483	0.083439	0.084112	0.14944	0.15049	0.25873	0.11114	-2.7396	-2.9083	-2.8542	-3.1083	-2.8229	-2.9104	-3.3396	-2.8354	-3.0312	-3.1792	-2.7417	-3.0375	-2.9792	-2.8937	-3.2	-3.0062	181.357	297.489	388.120	195.696	516.185	317.210	467.434	532.822	503.270	308.536	494.367	235.973	253.247	487.382	516.183	362.181	9.0897e-05	0.00015027	2.4984e-05	192.57	1.2896e-06	1.6315e-06	285.05	43.335	1.079e-06	1.0508e-06	92.597	30.131	10.533	3.0315	6.946e-07	11.208	7.1329e-05	5.3819e-05	1.6009e-05	187.88	6.5525e-07	5.9566e-07	280.67	42.632	6.4768e-07	6.1971e-07	91.347	29.928	10.571	3.0276	7.2581e-07	11.204	215.757	244.414	263.702	192.901	348.079	350.159	192.803	197.622	342.425	339.323	196.878	201.313	198.636	205.675	384.511	205.684	-8191	255	
1012.366	1	1	0	0	0.08248	0.19442	0.14684	0.11345	0.11	0.094605	0.15594	0.14318	0.10249	0.056715	0.14788	0.41454	0.043703	0.19148	0.14348	0.29142	-2.7271	-2.8896	-3.1021	-3.1083	-3.0896	-2.9437	-3.3333	-2.9479	-2.8375	-3.0771	-2.8458	-3.1875	-2.9625	-2.9188	-3.2	-2.9188	507.937	265.327	395.266	517.036	467.116	381.955	413.954	307.060	351.291	272.565	320.383	315.436	477.900	282.114	388.319	262.337	9.6823e-05	0.00016558	4.6331e-06	183.78	1.1785e-06	1.6596e-06	275.84	40.921	7.2516e-07	1.3693e-06	89.477	29.082	10.238	2.8878	1.3346e-06	10.957	8.3274e-05	6.9717e-05	1.9693e-05	179.46	8.5159e-07	9.3165e-07	270.84	40.408	9.3265e-07	8.7537e-07	88.03	28.852	10.18	2.8707	9.7376e-07	10.87	217.574	302.663	487.943	193.181	324.344	344.297	192.702	197.867	353.268	321.231	196.469	201.136	199.798	207.026	306.005	205.647	-8191	255	
1012.486	1	1	0	0	0.14046	0.054655	0.21093	0.18034	0.20731	0.055098	0.11037	0.15273	0.073681	0.19455	0.16117	0.039192	0.14662	0.31212	0.22559	0.22958	-2.5146	-3.1271	-2.8479	-3.0187	-2.8271	-3	-2.95	-2.9917	-2.9042	-3.0729	-2.7188	-2.8937	-3.075	-2.6896	-2.9458	-2.8563	383.526	245.206	355.164	227.185	491.185	189.985	408.796	411.423	498.460	259.939	468.305	309.518	237.408	489.573	366.143	187.142	8.6151e-05	0.00013588	3.8974e-05	176.68	1.7253e-06	1.6041e-06	267.98	39.331	5.3423e-07	1.9202e-06	85.415	27.938	9.802	2.7337	1.398e-06	10.346	9.9395e-05	9.4998e-05	2.7767e-05	172.75	1.2098e-06	1.1932e-06	263.24	38.76	1.2136e-06	1.2517e-06	84.411	27.723	9.7843	2.7396	1.3792e-06	10.377	214.209	202.937	238.097	193.551	327.788	377.011	192.562	197.809	315.400	350.969	196.868	201.349	199.713	206.136	261.533	205.973	-8191	255	
1012.583	1	1	0	0	0.046462	0.084137	0.057702	0.12924	0.2427	0.11012	0.23005	0.1641	0.14332	0.092034	0.06516	0.035223	0.12277	0.26031	0.1497	0.14504	-2.3604	-3.1896	-2.7854	-3.0958	-2.9771	-2.9104	-3.0396	-2.9667	-2.7083	-3.0042	-2.9333	-2.7188	-3.0396	-2.8063	-2.8417	-2.8396	514.290	444.851	394.405	270.839	523.736	390.589	218.804	361.044	372.109	197.232	329.902	398.381	304.112	430.088	243.380	530.952	8.707e-05	0.00014372	3.5509e-05	167.77	8.0878e-07	1.6727e-06	257.37	37.418	8.2508e-07	9.9114e-07	81.869	26.732	9.3172	2.6614	1.2403e-06	10.093	0.00012164	0.00013159	4.1847e-05	165.86	1.4758e-06	1.6742e-06	253.24	36.983	1.6352e-06	1.6291e-06	80.856	26.728	9.3941	2.6829	1.7331e-06	10.167	213.768	244.508	211.907	193.240	312.412	324.984	192.684	197.138	295.421	359.300	197.532	201.275	199.774	206.680	272.187	206.080	-8191	255	
1012.679	1	1	0	0	0.089522	0.051339	0.13964	0.069593	0.072712	0.17243	0.05653	0.33709	0.15922	0.37283	0.17321	0.048136	0.27937	0.16683	0.069056	0.10734	-2.3958	-2.9375	-2.7958	-3.1688	-3.0708	-2.7917	-2.9729	-3.0167	-2.6771	-3.1229	-2.8146	-2.7625	-3.0958	-2.9875	-3.025	-2.8833	100.537	61.829	163.558	-23.598	170.525	-127.387	128.179	57.058	-17.202	-102.369	54.391	-101.946	-65.805	132.949	-22.994	-83.558	9.426e-05	0.00018924	2.9303e-05	166.02	3.7496e-07	1.7966e-06	252.21	36.714	9.5055e-08	1.5716e-06	80.667	26.448	9.1775	2.6116	1.0919e-06	9.9389	0.00015316	0.00016993	4.8142e-05	162.13	1.9031e-06	1.9502e-06	248.65	36.159	1.9258e-06	2.068e-06	80.286	26.631	9.3109	2.6704	1.9985e-06	10.091	-143.623	-56.796	-106.641	-166.421	23.739	26.103	-166.722	-161.068	134.044	-157.964	-163.928	-159.192	-159.953	-153.381	-84.242	-154.578	-8191	255	
1012.775	1	1	0	0	0.2488	0.10301	0.054142	0.090389	0.048748	0.43219	0.10195	0.16819	0.028578	0.1806	0.28412	0.34223	0.088359	0.071896	0.25694	0.40326	-2.3438	-3.1312	-3.05	-2.8042	-3.2792	-2.9708	-3.0875	-2.95	-3.0042	-3.1771	-3.2167	-3.1417	-3.1937	-3.0396	-3.0667	-3.2354	316.633	297.026	231.313	319.880	449.244	219.918	537.725	494.540	233.078	242.180	343.871	521.829	487.846	409.233	490.902	352.670	8.357e-05	0.00015558	5.2377e-05	161.34	1.0914e-06	1.1764e-06	250.73	36.172	5.3921e-07	8.0851e-07	81.558	26.489	8.953	2.6083	3.366e-07	10.142	0.00016527	0.00018587	5.2224e-05	159.66	2.0281e-06	2.0478e-06	247.64	35.951	1.9984e-06	2.0615e-06	80.379	26.636	9.306	2.6559	1.9579e-06	10.146	217.015	308.787	266.589	193.403	308.320	352.692	192.476	197.236	523.419	334.936	196.531	201.068	199.446	206.298	283.633	205.804	-8191	255	
1012.871	1	1	0	0	0.24797	0.098435	0.3002	0.068796	0.11966	0.23624	0.4048	0.077079	0.33699	0.09606	0.21294	0.13046	0.23585	0.078693	0.13686	0.20318	-2.4625	-3.3563	-3.2646	-3.0042	-3.2604	-3.0938	-3.1562	-3.2167	-2.8812	-3.0542	-3.1125	-2.7417	-3.0062	-2.9792	-3.0708	-3.2417	183.148	390.098	394.069	277.211	398.015	217.606	510.364	236.223	374.831	479.285	343.727	256.839	448.964	526.137	365.754	247.108	7.7217e-05	0.00015462	1.3419e-05	160.55	3.3184e-07	1.003e-06	249.08	36.093	8.3144e-07	1.2241e-06	80.454	26.521	9.0103	2.6398	3.5001e-07	9.8936	0.0001468	0.00016639	4.2287e-05	158.07	1.4848e-06	1.3502e-06	246.73	35.635	1.1948e-06	1.1404e-06	79.665	26.507	9.0491	2.6108	1.0729e-06	10.034	219.792	242.712	239.004	192.547	287.419	364.256	192.990	197.700	325.641	412.728	197.013	201.252	200.400	206.246	497.235	206.257	-8191	255	
1012.967	1	1	0	0	0.033574	0.17349	0.038477	0.17902	0.085485	0.12698	0.15333	0.087734	0.038423	0.053292	0.099654	0.1214	0.22149	0.11262	0.21234	0.082385	-2.5187	-3.25	-3.0396	-2.8729	-3.1417	-3.0062	-2.9083	-3.1083	-2.8833	-2.9979	-2.9813	-2.6458	-2.9375	-2.9354	-2.9229	-3.2083	376.355	307.046	278.529	484.957	514.504	534.596	481.831	335.884	256.412	284.277	289.032	539.244	337.884	514.895	474.936	493.835	8.6223e-05	7.5046e-05	1.9423e-05	158.47	1.3559e-06	6.9238e-07	246.6	35.501	8.9587e-07	1.166e-06	79.043	26.029	8.9087	2.5748	3.17e-07	9.9113	9.5666e-05	9.0133e-05	2.4716e-05	157.16	1.0171e-06	9.3885e-07	242.54	35.168	9.8687e-07	1.0027e-06	77.994	25.9	9.0081	2.5847	1.068e-06	9.8857	212.456	197.736	210.042	192.945	309.074	372.406	192.777	197.634	317.469	407.358	197.067	200.785	200.902	206.755	312.066	205.746	-8191	255	
1013.063	1	1	0	0	0.20478	0.088779	0.071426	0.27872	0.10503	0.17033	0.31398	0.18102	0.1913	0.077097	0.034645	0.12583	0.22763	0.096578	0.077524	0.21232	-2.4062	-2.9521	-2.9396	-2.75	-3.0979	-2.8729	-2.8833	-2.9813	-2.7625	-2.9396	-3.05	-2.5896	-3.0042	-2.9083	-2.8063	-3.2208	136.418	125.762	-176.670	-56.038	-130.252	-120.003	57.962	81.295	168.150	-111.559	-12.248	48.696	65.754	135.822	166.891	109.953	8.829e-05	9.1213e-05	1.1426e-05	157.99	1.6881e-07	5.9392e-07	245.5	35.007	7.3036e-07	1.9222e-06	77.894	25.72	8.8013	2.5519	3.3915e-07	9.8252	0.0001008	9.5258e-05	2.6254e-05	155.06	9.7296e-07	1.0113e-06	240.24	34.663	1.0769e-06	1.0795e-06	76.801	25.611	8.8223	2.5499	1.0698e-06	9.7718	-149.608	-46.976	35.006	-166.573	145.341	-31.546	-167.512	-161.839	-29.318	-52.339	-162.842	-158.978	-160.544	-153.768	-89.808	-154.352	-8191	255	
1013.184	1	1	0	0	0.064714	0.07474	0.15272	0.16417	0.039998	0.16551	0.23175	0.19497	0.26505	0.18235	0.14862	0.12579	0.22714	0.13206	0.17352	0.1101	-2.2917	-2.7229	-3.1063	-2.675	-3.1167	-2.9604	-2.7583	-2.925	-2.9292	-2.9313	-2.9875	-2.7562	-2.675	-3.0896	-2.6958	-2.9792	214.832	314.600	371.290	325.029	231.241	409.221	428.664	535.887	364.991	380.033	477.749	483.037	261.118	226.186	227.435	447.800	8.7956e-05	0.00016644	4.2805e-05	155.47	6.7554e-07	1.044e-06	239.75	34.498	2.6188e-07	1.211e-06	76.856	25.526	8.8466	2.4871	7.3546e-07	9.7555	0.00010306	0.00010028	2.8449e-05	152.85	1.1252e-06	1.162e-06	238.04	34.158	1.2214e-06	1.3243e-06	76.584	25.577	8.7727	2.5348	1.4352e-06	9.8207	221.030	237.828	237.527	193.231	229.249	348.785	192.371	197.828	265.631	371.152	196.988	201.403	199.652	206.091	313.132	205.775	-8191	255	
1013.278	1	1	0	0	0.16607	0.21561	0.17998	0.11392	0.15366	0.16521	0.064729	0.11695	0.14837	0.28671	0.057889	0.056234	0.24082	0.11604	0.24718	0.185	-2.425	-2.7208	-2.9729	-2.7333	-3.0542	-3.0458	-2.8896	-3.1375	-3.1458	-2.775	-3.2	-2.7646	-3.0167	-3.1021	-2.8333	-3.3	480.986	359.114	415.457	452.042	199.068	323.390	295.685	463.114	328.411	373.015	264.088	393.533	431.274	261.530	401.197	536.907	7.8938e-05	6.6902e-05	3.7323e-05	155.48	1.2026e-06	1.3071e-06	240.95	34.537	9.5699e-07	9.784e-07	77.852	25.865	8.7808	2.5309	4.268e-07	9.9086	0.00012862	0.00015238	4.1352e-05	152.65	1.7271e-06	1.7987e-06	238.11	34.167	1.8613e-06	1.9172e-06	77.274	25.871	8.8551	2.5512	1.7551e-06	9.9196	216.356	379.455	279.725	193.263	275.671	231.588	192.583	197.944	373.298	386.522	196.920	200.638	200.372	206.139	423.726	205.954	-8191	255	
1013.376	1	1	0	0	0.21995	0.12364	0.025214	0.052846	0.082716	0.24167	0.049588	0.20776	0.12695	0.29807	0.20813	0.18174	0.21899	0.23093	0.17486	0.13	-2.5208	-2.8979	-3.1292	-2.8333	-3.0417	-3.1125	-2.8729	-3.2146	-3.05	-3.0958	-3.3521	-3.0062	-3.2667	-2.975	-3.0167	-3.1854	466.646	318.250	437.699	422.486	298.941	366.976	482.848	258.355	198.535	375.023	473.335	494.915	354.342	494.978	208.709	459.520	8.472e-05	0.00013028	7.0686e-05	153.48	8.5877e-07	1.4132e-06	240.13	34.195	5.9176e-07	9.1142e-07	77.368	25.202	8.598	2.5291	1.485e-06	9.7385	0.00014534	0.00015894	4.289e-05	151.88	1.5906e-06	1.6336e-06	236.52	34.148	1.5302e-06	1.6008e-06	76.3	25.315	8.7211	2.5452	1.5609e-06	9.7609	220.416	202.034	223.908	193.413	385.885	277.838	192.549	197.352	224.382	401.087	197.165	201.003	199.358	206.333	359.190	205.872	-8191	255	
1013.471	1	1	0	0	0.16656	0.082608	0.091324	0.13741	0.091442	0.11144	0.13694	0.12837	0.032906	0.11744	0.1143	0.16411	0.051957	0.057256	0.10411	0.24912	-2.6	-2.9521	-3.1542	-2.7687	-3.0438	-3.3354	-2.8146	-3.2062	-3.1833	-2.5125	-3.2167	-3.0563	-3.0438	-3.0271	-2.9333	-3.1104	216.785	478.332	490.222	246.415	370.179	291.476	461.439	295.224	238.527	383.179	417.965	466.270	240.712	242.961	235.076	473.951	7.7299e-05	2.61e-05	5.1317e-05	152.6	1.6228e-06	1.4633e-06	237.68	34.328	7.485e-07	6.3547e-07	76.595	25.236	8.6576	2.4727	1.3685e-07	9.6941	0.00013566	0.00014441	4.0273e-05	151.32	1.5089e-06	1.54e-06	235.42	34.136	1.4161e-06	1.4948e-06	76.198	25.404	8.8166	2.5251	1.3349e-06	9.726	219.354	267.790	256.157	192.938	286.920	343.653	192.492	197.416	361.040	316.525	196.745	200.896	199.327	205.931	255.806	205.126	-8191	255	
1013.567	1	1	0	0	0.021077	0.057893	0.164	0.33957	0.079118	0.22532	0.071645	0.019781	0.20216	0.12473	0.16722	0.22564	0.055727	0.27116	0.14607	0.25875	-2.3688	-3.0729	-3.025	-2.7167	-2.7604	-3.1437	-2.7896	-2.9375	-3.0479	-2.75	-2.9396	-2.8708	-2.7833	-3.0729	-2.8438	-2.8354	274.643	195.376	459.253	258.470	205.687	381.732	335.342	224.247	259.528	232.410	384.477	436.780	360.847	197.479	280.444	241.950	9.2283e-05	0.00012214	2.4639e-05	154.6	1.1274e-06	6.9324e-07	238.18	34.383	1.6345e-07	1.9485e-06	76.809	25.458	8.8876	2.5583	6.32e-07	9.8124	0.00011475	0.00012267	3.0957e-05	151.18	1.1718e-06	1.2338e-06	235.34	33.917	1.1692e-06	1.2493e-06	76.228	25.557	8.7972	2.5421	1.1833e-06	9.7806	217.254	290.985	254.626	193.422	419.540	309.096	192.743	197.386	341.784	348.677	196.884	200.536	199.627	206.062	285.389	205.878	-8191	255	
1013.663	1	1	0	0	0.12268	0.18514	0.25697	0.085376	0.20294	0.13959	0.071797	0.21087	0.34715	0.044132	0.11908	0.11119	0.25876	0.12205	0.21334	0.03176	-2.6562	-2.6063	-3.1292	-2.9375	-2.9417	-3.0125	-2.9583	-2.9458	-2.8958	-2.8312	-2.9771	-3.1229	-2.5083	-3.0792	-2.7521	-3.0042	169.168	-77.576	157.694	-26.792	-161.906	167.048	-2.947	100.839	34.842	-23.789	-77.046	-131.517	-136.106	44.816	37.836	78.296	7.2647e-05	3.6274e-05	3.4199e-05	155.53	7.6554e-07	1.1859e-06	241.76	34.203	6.4863e-07	7.62e-07	77.587	25.413	8.6662	2.5041	1.5758e-06	9.7242	0.00010579	0.00010647	2.9612e-05	151.77	1.0885e-06	1.1184e-06	236.58	33.872	1.0984e-06	1.149e-06	76.882	25.45	8.7441	2.5173	1.1532e-06	9.7358	-141.360	-117.947	-47.788	-166.291	-60.196	-78.433	-167.825	-161.740	-42.629	-40.067	-163.903	-159.314	-160.003	-153.296	-32.865	-153.706	-8191	255	
1013.784	1	1	0	0	0.021994	0.37519	0.2902	0.42537	0.1604	0.1292	0.17838	0.18892	0.2083	0.11468	0.19026	0.079813	0.067558	0.049317	0.14664	0.23095	-2.5917	-2.6333	-2.8312	-2.9646	-2.6875	-3.1729	-2.8771	-2.9458	-3.0667	-2.6979	-2.8854	-2.9396	-2.6875	-2.9813	-3.075	-3.0979	351.229	304.992	480.623	219.832	235.296	411.826	314.588	284.859	205.178	507.098	319.742	304.785	200.645	509.839	216.892	470.684	8.9224e-05	0.00014074	1.2222e-05	154.09	5.0552e-07	3.9004e-07	239.93	34.032	3.1598e-07	1.1142e-06	76	25.068	8.499	2.4709	1.3007e-06	9.5132	0.00010892	0.00010729	3.0378e-05	151.14	1.2114e-06	1.2424e-06	235.02	33.822	1.2884e-06	1.3322e-06	75.296	25.119	8.7272	2.4915	1.4116e-06	9.5576	224.614	271.869	362.957	192.964	319.350	336.871	192.233	197.593	336.628	313.037	196.659	201.402	200.217	206.772	289.029	205.597	-8191	255	
1013.880	1	1	0	0	0.072474	0.1183	0.25519	0.017892	0.33038	0.18939	0.085322	0.14406	0.084957	0.070691	0.068255	0.16095	0.065055	0.013108	0.07289	0.15986	-2.7604	-2.9062	-3.1271	-2.9333	-2.6729	-3.3021	-2.8708	-2.8167	-3.2375	-2.8104	-3.0875	-3.0021	-2.7562	-3.1562	-3.0333	-2.8479	469.873	271.906	519.739	467.982	258.756	526.203	314.916	181.995	236.820	455.123	216.398	216.494	346.166	204.680	404.695	442.196	7.2217e-05	0.00014302	2.477e-05	154.42	1.4535e-06	8.5507e-07	234.7	34.116	1.1586e-06	6.8859e-07	75.891	24.961	8.4175	2.4759	6.6929e-07	9.642	0.0001186	0.0001385	3.8006e-05	150.4	1.5381e-06	1.5863e-06	232.53	33.537	1.6133e-06	1.6469e-06	75.291	25.021	8.6344	2.5147	1.5752e-06	9.6819	215.723	216.247	295.366	193.116	314.820	491.534	192.597	197.888	364.332	409.979	196.830	200.653	200.006	207.119	395.866	205.987	-8191	255	
1013.976	1	1	0	0	0.24657	0.12215	0.092805	0.40395	0.22193	0.14124	0.2741	0.14334	0.070739	0.29889	0.1317	0.19363	0.19158	0.17988	0.20002	0.29145	-2.7604	-2.9583	-2.975	-3.3333	-2.8312	-3.0729	-3.0792	-2.8563	-3.1104	-3.0917	-3.0542	-3.1188	-2.7979	-3.1417	-3.1875	-2.6792	132.314	145.630	-126.899	62.611	-78.457	-52.488	-164.555	-117.796	60.007	-13.930	158.058	54.920	23.107	125.047	-169.723	70.759	8.353e-05	0.0002051	2.2369e-05	152.6	1.3233e-06	8.9027e-07	235.3	33.733	5.9972e-08	6.2761e-07	76.842	25.151	8.6937	2.4717	4.3031e-07	9.7014	0.00012721	0.00014836	4.1135e-05	149.64	1.6539e-06	1.6396e-06	231.89	33.534	1.6523e-06	1.7498e-06	75.47	25.238	8.7669	2.5159	1.6984e-06	9.706	-145.147	-82.296	89.369	-166.494	20.922	-36.024	-166.937	-161.953	156.520	8.114	-163.300	-158.505	-159.013	-153.726	-22.107	-154.495	-8191	255	
1014.048	1	1	0	0	0.043732	0.095681	0.40672	0.14278	0.18581	0.12819	0.17284	0.13581	0.0757	0.19734	0.27242	0.29301	0.16087	0.099866	0.22581	0.2346	-2.8458	-2.9208	-2.7333	-3.3354	-2.8812	-3.0375	-3.3187	-2.8187	-2.9583	-2.9125	-2.7417	-3.0854	-2.7292	-2.725	-2.9521	-2.9125	416.452	442.201	275.838	373.642	243.466	326.831	419.242	192.692	265.111	441.397	228.209	394.585	374.907	518.227	303.297	511.260	8.6498e-05	0.00013815	3.7793e-05	150.43	7.0056e-07	1.4823e-06	236.34	33.821	7.7582e-07	1.1304e-06	76.389	25.315	8.5287	2.4716	1.8009e-06	9.6797	0.00014558	0.00015635	4.5838e-05	149.1	1.7061e-06	1.8415e-06	232.56	33.541	1.7728e-06	1.897e-06	75.764	25.391	8.7456	2.5	2.0274e-06	9.722	210.017	333.304	274.161	193.413	299.485	334.578	192.909	197.189	327.891	259.276	196.837	201.182	200.499	206.441	313.320	205.824	-8191	255	
1014.144	1	1	0	0	0.091836	0.16183	0.17597	0.03676	0.28346	0.25933	0.14152	0.064433	0.02939	0.37891	0.17573	0.18687	0.17139	0.19762	0.27543	0.19828	-2.3917	-2.9521	-2.7042	-3.1562	-2.6854	-2.8667	-2.95	-2.6937	-3.075	-2.825	-2.8063	-3.1562	-2.6958	-2.8375	-3.0729	-2.6458	433.919	330.342	314.417	382.901	351.740	218.871	462.857	401.197	292.945	266.677	308.291	426.910	524.989	461.657	428.456	274.495	6.9205e-05	0.00021163	1.0677e-05	150.23	1.0217e-06	1.1674e-06	233.43	33.125	5.2237e-07	1.2081e-06	75.452	24.911	8.4911	2.4736	3.0468e-06	9.5418	0.00016125	0.00019013	5.355e-05	148.13	2.0997e-06	2.1686e-06	230.53	33.024	2.0625e-06	2.1975e-06	74.373	25.005	8.6446	2.4998	2.3603e-06	9.6614	214.677	293.541	481.012	193.446	228.147	310.493	192.757	197.747	396.702	303.198	196.856	201.253	200.874	205.998	328.444	205.474	-8191	255	
1014.263	1	1	0	0	0.26157	0.13616	0.097103	0.39041	0.03519	0.10994	0.046803	0.1226	0.17866	0.25912	0.12318	0.015663	0.085519	0.18716	0.048326	0.31386	-2.6479	-2.9146	-2.7812	-3.0146	-2.9625	-3.0208	-3.1771	-2.8979	-3	-2.8812	-2.8604	-3.1708	-2.7917	-3.0354	-3.1229	-2.6312	268.530	462.683	358.659	365.240	481.622	197.574	381.712	216.957	465.347	203.362	473.150	395.930	355.704	486.329	371.487	393.044	9.0181e-05	0.00014479	4.8295e-05	149.26	1.2529e-06	3.2592e-06	231.04	33.034	1.104e-06	2.1669e-06	74.362	24.633	8.3259	2.4294	9.9547e-07	9.65	0.00019262	0.00023797	6.9638e-05	148.44	2.6638e-06	2.7025e-06	227.88	32.903	2.5314e-06	2.7422e-06	73.509	24.881	8.6427	2.4795	2.6724e-06	9.6228	212.444	366.948	308.411	193.529	325.943	334.397	193.012	197.643	354.718	352.725	196.821	200.545	200.850	207.289	371.206	205.952	-8191	255	
1014.359	1	1	0	0	0.17886	0.1644	0.24822	0.40303	0.16001	0.084928	0.055737	0.059559	0.064066	0.090531	0.080304	0.20418	0.070323	0.14622	0.09804	0.3511	-2.6063	-2.8563	-2.6625	-3.2208	-3.0292	-2.7875	-2.9792	-2.7958	-2.9896	-3.2396	-3.05	-2.9375	-2.9396	-2.8937	-3.0875	-2.9167	275.390	216.181	469.066	471.696	285.812	338.359	323.858	418.390	204.306	510.930	442.703	475.269	384.136	488.088	213.111	448.449	6.6726e-05	0.00016944	2.5696e-05	147.54	1.2638e-06	1.0302e-06	229.94	32.527	1.8666e-06	2.8047e-06	74.552	25.165	8.2162	2.4401	1.7804e-06	9.6956	0.00020684	0.00026781	7.5059e-05	147.03	3.0963e-06	3.2958e-06	228.91	32.927	3.102e-06	3.1585e-06	74.146	25.189	8.7671	2.5193	3.2385e-06	9.7712	213.330	320.323	224.272	192.993	307.034	413.995	192.704	197.399	319.364	272.952	196.642	200.718	199.794	206.155	292.522	205.482	-8191	255	
1014.457	1	1	0	0	0.17568	0.07284	0.33046	0.24692	0.2253	0.15371	0.27862	0.35109	0.16026	0.09264	0.075445	0.10858	0.1568	0.092124	0.13097	0.33699	-2.5938	-3.1125	-2.8	-3.1021	-3.2354	-2.8729	-3.2375	-2.7708	-3.0167	-3.1937	-2.5958	-3.075	-2.9458	-2.7604	-2.9896	-3.0083	517.112	220.650	402.273	232.107	445.233	353.785	482.584	395.406	377.174	479.702	258.479	196.623	314.713	475.389	518.265	193.903	7.9171e-05	0.00022557	2.4075e-05	149.39	1.8949e-06	1.649e-06	232.75	33.062	4.9292e-07	1.9175e-06	76.148	25.37	8.5566	2.4776	1.2234e-06	9.7579	0.00024062	0.00030302	8.6359e-05	148.97	3.351e-06	3.5567e-06	231.83	33.38	3.3341e-06	3.6207e-06	75.663	25.558	8.9276	2.5667	3.1019e-06	9.8446	229.210	323.487	439.568	192.981	357.803	238.470	192.812	197.057	263.550	318.514	196.775	201.332	199.542	205.983	317.122	205.895	-8191	255	
1014.576	1	1	0	0	0.22562	0.015818	0.13926	0.185	0.10456	0.16602	0.048189	0.086137	0.15344	0.0094601	0.25209	0.19204	0.20827	0.0917	0.022217	0.036891	-2.4458	-2.8646	-2.7583	-2.975	-3.0417	-2.9042	-2.8833	-2.8896	-2.9229	-3.0083	-2.9417	-2.95	-2.9271	-2.7417	-2.8021	-3.0167	330.259	340.016	387.929	299.506	426.772	457.307	502.020	244.057	391.383	332.241	277.048	478.581	478.660	341.487	380.790	283.513	8.2668e-05	0.00014294	1.0159e-05	148.74	1.2357e-06	2.219e-06	233.66	33.213	1.1199e-06	4.1171e-06	75.617	25.481	8.4982	2.4892	6.6845e-07	9.7115	0.00021645	0.00026136	7.4956e-05	147.89	2.7433e-06	3.0649e-06	231.27	33.175	2.9628e-06	3.2914e-06	75.542	25.611	8.9611	2.5814	3.322e-06	9.8737	227.292	250.662	273.295	193.268	364.590	276.537	192.848	197.508	306.572	391.469	196.635	200.880	199.368	206.256	383.275	205.125	-8191	255	
1014.647	1	1	0	0	0.012237	0.2599	0.14134	0.19246	0.10171	0.1616	0.050777	0.19338	0.054656	0.096939	0.098394	0.14822	0.24952	0.17344	0.20765	0.087533	-2.4021	-2.9292	-2.725	-2.8167	-3.0229	-2.6271	-2.95	-2.8625	-2.9208	-3.1021	-2.7104	-2.8688	-2.8792	-2.6896	-3.0521	-3.0917	357.542	343.004	390.698	195.817	363.686	448.636	415.757	288.430	225.704	444.680	430.520	219.183	424.673	450.435	227.432	327.197	8.9516e-05	0.00014126	2.5919e-05	149.96	5.574e-07	2.5121e-06	230.12	33.42	1.2432e-06	2.7618e-06	74.383	25.332	8.5364	2.4826	1.5937e-06	9.6046	0.00025128	0.00032539	9.1243e-05	149.37	3.5289e-06	3.8262e-06	230.34	33.57	3.6858e-06	3.8583e-06	74.721	25.547	9.0218	2.5907	3.705e-06	9.8191	208.945	435.656	286.287	192.925	368.660	408.469	192.828	197.838	402.703	268.532	196.459	200.878	199.193	206.487	304.398	206.359	-8191	255	
1014.743	1	1	0	0	0.13823	0.094936	0.13263	0.097834	0.12002	0.13572	0.14784	0.11554	0.2682	0.069015	0.1222	0.21765	0.11301	0.23013	0.093115	0.1968	-2.1188	-3.0687	-2.7854	-2.7979	-3.2313	-2.7167	-3.0708	-3.1125	-2.6042	-3.025	-2.9667	-2.5854	-3.1896	-2.7854	-3.0479	-3.1146	468.068	305.212	316.641	316.025	495.591	532.586	268.250	488.838	246.410	307.735	311.606	282.495	532.963	220.438	433.877	486.789	9.8452e-05	5.0273e-05	3.3519e-05	149.51	1.1103e-06	5.3535e-07	233.18	33.443	4.5421e-07	1.0549e-06	74.425	25.168	8.418	2.447	4.6218e-07	9.6925	0.00026272	0.00033912	9.202e-05	148.78	3.4467e-06	3.549e-06	230.4	33.426	3.4051e-06	3.553e-06	74.627	25.38	8.9814	2.5775	3.811e-06	9.9463	217.349	504.491	380.792	193.245	348.878	360.177	193.010	197.897	246.092	393.081	196.721	200.999	200.921	205.446	233.976	205.355	-8191	255	
1014.864	1	1	0	0	0.15593	0.035507	0.059733	0.31332	0.082816	0.12007	0.043515	0.057358	0.21258	0.13098	0.055721	0.1452	0.1976	0.12117	0.076023	0.20638	-2.3417	-3.1271	-2.9437	-3.0125	-3.1792	-2.9521	-3.2396	-3.05	-3.0125	-3.2125	-2.9313	-2.8375	-3.1063	-3.0604	-3.2125	-3.1104	232.736	449.498	237.700	223.284	498.552	218.157	268.568	279.293	320.266	187.300	452.375	364.473	405.826	240.143	397.760	380.412	6.9496e-05	5.8428e-05	6.856e-05	151.57	1.4228e-06	1.4517e-06	232.05	33.791	9.8234e-07	2.7594e-06	76.216	25.367	8.7354	2.5332	4.5619e-07	9.7579	0.00028245	0.00036885	9.9932e-05	150.37	3.7662e-06	3.95e-06	231.18	33.785	3.6896e-06	3.8075e-06	75.716	25.675	9.063	2.615	3.5952e-06	9.9322	205.508	484.971	345.485	193.519	287.203	353.545	192.875	197.689	251.520	363.410	196.831	200.939	198.813	205.809	337.452	205.840	-8191	255	
1014.960	1	1	0	0	0.17006	0.057091	0.11339	0.1982	0.098411	0.22146	0.059953	0.17552	0.18944	0.022645	0.24236	0.093246	0.34418	0.058165	0.14479	0.21516	-2.3729	-3.2917	-2.8354	-2.9208	-3.3542	-2.8979	-2.8812	-3.2271	-2.8104	-3.2562	-2.8083	-2.7687	-3.325	-2.9208	-2.9208	-3.2062	315.180	298.100	380.835	193.504	250.942	343.062	335.717	458.360	323.234	188.587	243.386	423.692	469.182	315.444	510.294	349.548	8.5799e-05	0.00012779	8.2471e-05	149.9	9.7456e-07	3.7905e-07	234.61	33.809	1.0285e-06	8.548e-07	76.285	25.52	8.6061	2.4745	2.3035e-06	9.7214	0.00026254	0.00032417	8.5798e-05	149.5	3.3332e-06	3.6313e-06	231.72	33.869	3.4548e-06	3.654e-06	76.018	25.786	9.1178	2.6017	3.5313e-06	9.847	207.992	290.970	358.524	193.931	429.067	381.858	192.464	197.604	390.112	454.404	196.953	200.794	201.053	206.631	323.459	206.204	-8191	255	
1015.056	1	1	0	0	0.083712	0.237	0.086399	0.062986	0.081123	0.041941	0.20165	0.1107	0.29177	0.31659	0.059604	0.24155	0.17257	0.047492	0.066515	0.23417	-2.6271	-2.9125	-3.0438	-2.8271	-3.1979	-2.9125	-2.8521	-3.1917	-3.0083	-2.9229	-3.1021	-2.9437	-3.1229	-2.9062	-2.8	-3.1854	359.150	367.543	295.478	410.925	295.000	342.106	532.414	215.538	232.111	416.768	311.914	356.764	196.872	296.324	447.395	280.157	8.4131e-05	0.0002988	6.3679e-05	150.01	9.9514e-07	1.8778e-06	232.39	34.045	5.1289e-07	2.07e-06	75.332	25.237	8.5836	2.5056	6.9915e-07	9.6698	0.00025682	0.00033286	9.5301e-05	150.11	3.6453e-06	3.8821e-06	231.16	33.926	3.6152e-06	3.8341e-06	75.262	25.644	9.0865	2.6215	3.5765e-06	9.8605	215.327	245.385	238.134	193.085	337.922	425.143	192.757	197.581	325.742	272.504	197.202	200.454	201.120	206.225	473.603	205.308	-8191	255	
1015.177	1	1	0	0	0.12909	0.41173	0.17805	0.087763	0.21858	0.34625	0.17975	0.027172	0.10294	0.089596	0.21658	0.0079005	0.12618	0.050459	0.1102	0.30551	-2.3729	-3.0521	-3.0333	-2.8521	-3.0854	-2.9042	-2.9	-3.025	-2.6917	-2.8563	-2.9875	-2.6146	-3.1833	-2.9229	-2.8563	-3.0458	525.568	517.776	500.456	323.130	461.137	440.914	451.088	240.087	186.285	466.887	448.126	347.011	495.782	262.820	314.449	538.732	9.7405e-05	2.0076e-05	4.4768e-05	150.73	1.1636e-06	6.7088e-07	233.85	33.917	8.081e-07	1.7932e-06	75.514	25.762	8.8155	2.4879	8.5815e-07	9.784	0.00025652	0.0003354	9.2358e-05	150.43	3.4823e-06	3.7448e-06	232.09	34.111	3.4425e-06	3.6398e-06	76.182	26.142	9.1772	2.6317	3.4693e-06	10.016	212.198	238.210	229.589	193.032	310.929	321.169	192.736	197.814	334.713	331.181	196.995	201.214	199.474	205.853	190.213	205.969	-8191	255	
1015.271	1	1	0	0	0.15585	0.14851	0.18272	0.17704	0.079933	0.13348	0.06714	0.049673	0.15026	0.057608	0.1571	0.23373	0.28185	0.1977	0.13936	0.1189	-2.3333	-2.7125	-2.9958	-2.7875	-3.0875	-2.8417	-2.6146	-3.0021	-3.0312	-2.9521	-2.9979	-2.7812	-2.9292	-2.6	-2.7854	-3.075	366.693	523.363	359.349	426.386	310.374	250.880	240.236	494.848	505.892	241.091	185.312	439.623	423.327	409.205	494.869	321.947	7.5941e-05	8.9707e-05	1.1438e-05	150.54	8.9358e-07	6.997e-07	232.52	33.455	6.8451e-07	1.5797e-06	74.849	24.822	8.5012	2.4376	7.0964e-07	9.5298	0.0002401	0.00030767	8.4115e-05	150.15	2.9592e-06	3.147e-06	231.94	33.508	2.679e-06	2.7141e-06	74.46	25.011	8.7395	2.5035	2.1226e-06	9.5153	211.229	187.960	532.378	193.534	423.940	271.568	192.525	197.623	332.928	306.888	197.268	201.063	198.808	206.647	374.591	205.364	-8191	255	
1015.343	1	1	0	0	0.038164	0.042248	0.18351	0.074517	0.23966	0.2169	0.062567	0.25269	0.31073	0.40122	0.26234	0.053655	0.20146	0.10921	0.069308	0.056042	-2.4813	-2.8604	-2.9375	-2.6646	-3.1063	-3.0354	-2.6146	-2.9896	-2.7458	-2.8312	-3.2146	-2.9417	-3.0542	-3.1708	-2.6875	-3.2625	213.088	442.822	455.849	392.239	216.812	530.982	336.944	368.848	442.250	348.176	478.637	401.657	352.295	451.251	319.557	273.335	8.2151e-05	2.518e-05	9.4122e-06	148.61	9.5991e-07	1.9427e-06	228.62	33.387	7.6608e-07	3.7369e-07	73.809	24.19	8.4422	2.3907	1.3604e-06	9.227	0.00015216	0.00017173	4.7328e-05	146.88	1.6595e-06	1.6915e-06	227.07	32.928	1.6675e-06	1.6951e-06	73.158	24.34	8.4808	2.4221	1.2282e-06	9.2504	218.846	208.522	271.981	193.039	305.857	317.167	192.175	197.672	312.264	221.515	196.359	201.264	199.061	206.418	363.315	206.265	-8191	255	
1015.439	1	1	0	0	0.30856	0.18105	0.14702	0.2166	0.073804	0.0092219	0.17388	0.15909	0.10485	0.083957	0.048139	0.13063	0.22206	0.13532	0.28693	0.3069	-2.5583	-2.9188	-3.3937	-2.8354	-3.1021	-3.2729	-3.025	-3.05	-3.175	-2.9208	-3.0958	-2.9417	-2.8729	-3.2104	-2.8854	-3.0687	157.485	-2.112	-139.474	-170.742	-121.340	-139.341	-102.702	-130.379	104.034	101.572	144.117	57.963	99.031	6.313	-49.433	-166.871	9.5193e-05	4.3921e-05	1.629e-05	147.74	1.5504e-06	2.1902e-06	228.92	32.986	1.7272e-07	1.8562e-06	72.242	24.377	8.3433	2.4148	3.653e-07	9.2496	0.00010335	0.00010077	2.6501e-05	145.8	1.1599e-06	1.2204e-06	225.05	32.535	1.3736e-06	1.4567e-06	72.004	24.119	8.4926	2.4448	1.5153e-06	9.2649	-146.261	-142.247	-117.825	-166.597	-40.830	-99.287	-167.308	-161.884	97.670	-27.563	-162.976	-158.522	-159.744	-153.799	-13.836	-154.086	-8191	255	
1015.560	1	1	0	0	0.29696	0.12865	0.24399	0.12127	0.041024	0.23427	0.035718	0.14231	0.17123	0.2967	0.14472	0.11794	0.19842	0.16352	0.2228	0.15235	-2.6354	-2.7958	-3.1521	-2.8708	-3.0583	-3.2042	-2.8854	-2.9333	-3.0604	-2.7521	-3.0375	-2.8083	-2.9208	-2.9562	-2.8729	-3.0187	271.883	241.599	443.605	333.200	336.400	421.132	465.388	445.576	509.838	521.785	187.781	381.227	255.828	538.295	299.202	525.522	8.1944e-05	5.2266e-05	7.4017e-06	147.23	7.9554e-07	4.8074e-07	225.17	32.049	3.1897e-07	9.202e-07	71.885	23.422	7.9524	2.3835	8.6517e-07	9.013	0.00012011	0.00012786	3.4719e-05	145.18	1.2249e-06	1.2657e-06	222.63	31.933	1.1063e-06	1.1608e-06	70.632	23.489	8.1576	2.3801	1.0381e-06	9.0653	213.110	254.849	460.666	193.376	360.576	389.932	192.828	197.782	430.073	299.706	197.005	201.100	199.282	206.306	339.574	205.732	-8191	255	
1015.656	1	1	0	0	0.038408	0.05796	0.26002	0.1488	0.2413	0.066862	0.15498	0.20482	0.10931	0.049083	0.11747	0.21394	0.064937	0.10475	0.17237	0.17628	-2.5479	-2.7458	-2.775	-3.0542	-2.8812	-3.175	-2.9875	-2.8875	-3.0604	-2.6354	-3.2042	-2.9417	-2.6917	-3.0312	-2.7854	-2.9125	388.544	191.328	317.844	360.093	381.787	396.082	376.191	343.578	313.439	368.300	266.991	186.684	475.975	274.506	324.970	374.410	7.1969e-05	0.0001434	3.1885e-05	146.07	6.1479e-08	1.2412e-06	224.22	31.732	1.2142e-07	1.3887e-06	70.768	22.861	8.007	2.3471	7.0214e-07	8.9742	8.9656e-05	9.1479e-05	2.2823e-05	143.62	9.3221e-07	9.3525e-07	221.68	31.55	8.8247e-07	9.1494e-07	69.843	23.078	8.0276	2.3319	9.1079e-07	8.9794	220.265	237.978	280.875	193.230	317.936	338.856	192.987	197.771	227.642	365.688	196.742	201.099	198.812	205.714	265.078	205.320	-8191	255	
1015.752	1	1	0	0	0.21928	0.18178	0.068261	0.18741	0.099977	0.15163	0.10843	0.21496	0.12081	0.15618	0.24337	0.27966	0.16138	0.2146	0.047321	0.15469	-2.6542	-2.6688	-2.9479	-2.8688	-2.6896	-2.9167	-3.0354	-2.7	-3.0271	-3.0417	-2.9938	-2.8875	-2.9	-2.9604	-2.7438	-2.8292	-2.296	-48.371	-123.330	162.436	74.075	90.680	-170.974	95.495	95.666	28.345	59.673	-17.437	49.891	177.247	150.270	-107.011	6.8713e-05	0.00011663	1.4335e-05	146.86	9.5506e-07	4.6613e-07	226	32.241	8.7389e-07	1.1698e-06	70.726	23.419	7.9484	2.3613	6.0652e-07	9.0759	8.818e-05	9.187e-05	2.3263e-05	144.15	8.883e-07	9.2037e-07	222.45	31.696	8.7956e-07	9.2069e-07	70.157	23.332	7.991	2.358	8.9829e-07	9	-144.351	-141.353	82.697	-166.470	25.489	-90.560	-167.125	-161.912	-16.686	-1.822	-163.124	-159.224	-159.411	-153.800	-111.741	-154.438	-8191	255	
1015.873	1	1	0	0	0.30081	0.099514	0.11008	0.1691	0.37569	0.12582	0.031285	0.27325	0.12061	0.16936	0.11906	0.15827	0.22443	0.11154	0.15973	0.1661	-2.5208	-2.7646	-2.6937	-2.8333	-2.6333	-3.0833	-2.9417	-2.7667	-3.1437	-2.8625	-2.8917	-3.1063	-2.7583	-3.0771	-2.9125	-2.5979	360.941	204.269	531.619	508.913	334.950	432.573	193.427	188.381	404.735	462.657	349.659	408.967	343.207	356.606	393.395	244.610	6.3168e-05	0.0001537	2.8241e-05	145.67	1.5793e-06	5.3819e-07	222.65	31.257	5.5757e-07	8.8123e-07	68.732	22.31	7.7441	2.2662	1.5574e-07	8.5887	8.1439e-05	7.9729e-05	2.0574e-05	142.89	7.9125e-07	7.4349e-07	219.97	30.995	7.7538e-07	7.6145e-07	67.785	22.269	7.706	2.264	6.4408e-07	8.5595	220.918	259.153	283.065	193.014	340.268	328.769	192.626	197.913	312.148	276.288	197.176	200.907	200.149	206.562	336.766	205.505	-8191	255	
1015.944	1	1	0	0	0.17217	0.098769	0.089087	0.25631	0.06968	0.074648	0.15491	0.21653	0.062132	0.25275	0.224	0.23573	0.10165	0.010322	0.26283	0.054227	-2.7896	-2.7438	-2.7146	-3.0375	-2.6542	-3.1604	-3	-2.725	-3.4167	-2.9667	-3.0146	-3.0708	-2.7458	-3.1083	-2.925	-2.8	471.259	400.591	368.781	210.830	335.818	324.352	326.961	270.618	277.605	476.498	506.654	410.451	356.934	356.214	534.740	452.398	7.3361e-05	3.6111e-05	3.2317e-05	143.3	4.8451e-07	1.2951e-06	219.94	30.706	5.6918e-07	1.2611e-06	66.207	21.164	7.6845	2.2552	5.7451e-07	8.3465	6.757e-05	5.7663e-05	1.6045e-05	140.97	5.7734e-07	5.875e-07	215.75	30.216	5.2088e-07	5.4464e-07	65.255	21.206	7.5909	2.2095	5.5055e-07	8.324	220.191	505.777	328.732	192.904	305.002	293.159	192.287	197.708	242.549	379.312	197.321	201.384	200.599	206.083	353.878	205.519	-8191	255	
1016.041	1	1	0	0	0.27348	0.14504	0.036437	0.19462	0.15435	0.11712	0.18012	0.21154	0.38289	0.23796	0.21517	0.093827	0.063027	0.13804	0.1642	0.12837	-2.6813	-2.9688	-3.0396	-2.9313	-3.0792	-3.0792	-3.2646	-2.7854	-3.0979	-2.9396	-2.7917	-3.2313	-2.9083	-2.9979	-3.1042	-2.5896	-28.815	-10.422	47.403	46.720	102.804	93.811	-177.690	108.146	-62.925	-129.843	67.418	-19.072	54.407	108.213	-50.573	112.051	6.645e-05	0.00011808	1.8105e-05	145.65	9.2033e-07	1.4231e-06	218.69	30.598	2.1943e-07	1.1773e-06	66.813	21.543	7.5137	2.2448	7.8852e-07	8.4186	6.3812e-05	5.8206e-05	1.5647e-05	142.35	6.2327e-07	6.0526e-07	215.92	30.17	5.7129e-07	5.2834e-07	65.715	21.377	7.5017	2.2164	5.7393e-07	8.3413	-140.561	-66.313	-42.171	-166.541	-80.176	-15.367	-167.136	-161.831	-101.008	-37.918	-162.670	-159.008	-159.665	-154.062	-35.654	-154.219	-8191	255	
1016.137	1	1	0	0	0.18295	0.2419	0.082958	0.1758	0.1339	0.28737	0.099382	0.2405	0.28327	0.3765	0.20509	0.2811	0.14673	0.14049	0.17468	0.187	-2.6417	-3.1188	-2.8417	-3.0312	-2.6896	-2.9042	-3.0604	-2.7854	-2.9167	-2.6708	-2.6937	-3.2271	-2.7896	-2.6896	-3.1167	-2.5042	-25.903	158.076	-149.752	-177.589	-69.791	-177.104	-40.857	-146.638	152.144	-29.203	-26.981	-46.345	-116.429	-92.342	6.441	122.269	7.2021e-05	0.00010654	3.0232e-05	144.62	6.4833e-07	1.3453e-06	222.11	30.771	9.1263e-07	6.9494e-07	66.861	21.812	7.7319	2.2702	6.5321e-07	8.2674	6.3454e-05	5.2885e-05	1.4755e-05	141.98	5.7576e-07	5.1454e-07	218.28	30.238	5.6658e-07	5.1395e-07	65.844	21.391	7.6193	2.2128	4.8873e-07	8.2261	-138.927	-121.706	-107.618	-166.392	40.774	-28.202	-166.928	-161.373	-31.626	-55.020	-162.808	-158.866	-158.633	-153.380	-58.926	-154.437	-8191	255	
1016.257	1	1	0	0	0.18096	0.11174	0.24771	0.1738	0.073122	0.21844	0.13374	0.2647	0.25047	0.098061	0.22356	0.25131	0.11868	0.20851	0.23773	0.17427	-2.6167	-2.8292	-2.8917	-2.7938	-2.7188	-2.8812	-2.8875	-2.7458	-3.1271	-2.8271	-2.7	-3.2	-2.7542	-2.7938	-3.1354	-2.5854	121.564	-15.280	-42.218	2.263	-53.376	-100.454	63.601	-50.868	65.291	102.457	-164.538	100.062	53.335	160.627	133.891	97.290	7.247e-05	1.7602e-06	3.8981e-05	147.33	9.1641e-08	1.3549e-06	226.03	31.099	6.675e-07	1.1257e-06	66.633	21.554	7.6084	2.2187	5.1397e-07	8.1495	5.4089e-05	4.1787e-05	1.1607e-05	143.61	4.5777e-07	4.3582e-07	220	30.512	4.1401e-07	3.7749e-07	65.296	21.133	7.5658	2.2248	3.5353e-07	8.0922	-142.883	176.017	-98.142	-166.484	-166.869	-26.519	-167.024	-161.615	-62.168	-28.414	-162.636	-158.640	-159.826	-152.998	13.500	-154.181	-8191	255	
1016.352	1	1	0	0	0.23786	0.28184	0.061402	0.19454	0.05662	0.13283	0.20977	0.13569	0.12131	0.099565	0.11112	0.063465	0.27283	0.2636	0.11683	0.19941	-2.6396	-2.8812	-2.7646	-2.925	-2.9146	-2.7687	-2.8625	-2.7062	-2.9125	-2.9375	-2.9667	-2.8896	-2.85	-2.8667	-3.0875	-2.8937	110.577	91.450	132.605	27.116	90.900	6.178	86.525	-0.543	109.374	153.654	-158.590	-67.591	97.121	-156.573	-124.223	131.926	6.6637e-05	6.1263e-05	3.9644e-05	149.31	1.2425e-06	1.4006e-06	223.65	31.053	6.3808e-07	1.1142e-06	65.268	20.691	7.5061	2.195	4.3419e-07	8.0555	4.5648e-05	3.1362e-05	1.0673e-05	145.31	4.0418e-07	3.2063e-07	218.31	30.412	4.0012e-07	3.4223e-07	63.849	20.368	7.4316	2.1794	2.9542e-07	7.8789	-140.142	-75.878	-106.566	-166.394	8.089	-31.772	-167.748	-161.829	-42.067	-32.637	-163.365	-159.263	-159.066	-153.488	2.242	-153.624	-8191	255	
1016.448	1	1	0	0	0.0421	0.12074	0.11799	0.086974	0.16215	0.28701	0.27258	0.11628	0.1881	0.21019	0.26813	0.078619	0.14742	0.14624	0.071613	0.13409	-2.5042	-3.0271	-2.7708	-3.0625	-3.3479	-2.9813	-3.0896	-3.0354	-2.9146	-3.2021	-2.6979	-3.0042	-2.9771	-2.8104	-3.0042	-2.8937	47.639	64.984	87.904	140.452	-103.838	-107.044	167.599	123.336	-35.205	125.070	-118.105	-120.532	-120.508	18.363	70.644	-12.583	6.8171e-05	0.00011181	4.0188e-05	150.87	2.9204e-07	3.9503e-07	226.71	31.6	9.5113e-07	6.8072e-07	66.351	20.507	7.7028	2.2445	4.5697e-07	7.8826	4.8914e-05	3.134e-05	9.6235e-06	147.81	3.7626e-07	3.9815e-07	221.83	31.024	4.3395e-07	3.3887e-07	64.652	20.396	7.6067	2.2063	4.0307e-07	7.7631	-141.831	-66.062	-47.279	-166.607	-46.269	-63.688	-166.987	-161.670	-57.118	-53.275	-162.737	-158.963	-160.518	-153.260	-64.859	-154.375	-8191	255	
1016.544	1	1	0	0	0.18439	0.089374	0.17266	0.17972	0.17042	0.24682	0.17367	0.031231	0.13677	0.29826	0.049098	0.081098	0.23512	0.22669	0.033033	0.32328	-2.3937	-3.0854	-2.7375	-3.0104	-2.9708	-2.7896	-3.4	-2.825	-2.9708	-3.3854	-2.8937	-3.2313	-3.0021	-2.8104	-3.2083	-2.8438	-175.765	-99.549	-14.970	129.670	33.380	-67.148	142.887	-168.987	2.490	-170.971	-134.647	32.430	18.516	13.912	-161.891	-140.276	6.558e-05	0.00014832	2.7401e-05	151.78	7.016e-07	6.0268e-07	224.73	31.103	6.059e-07	6.1126e-07	64.888	20.337	7.4779	2.1585	8.3317e-07	7.6435	4.9466e-05	3.5054e-05	1.127e-05	147.8	4.0283e-07	4.6174e-07	220.17	30.435	5.5224e-07	3.8948e-07	63.214	19.968	7.3742	2.1376	5.3921e-07	7.601	-137.838	-101.261	-116.414	-166.584	-67.966	-18.238	-167.247	-161.895	-47.423	122.789	-163.606	-158.862	-160.250	-153.825	4.185	-154.087	-8191	255	
#DATA ENDS
