BOXY.EXE: ISS Imagent and Oximeter Data Acquisition Program Version 0.80
Ascii Record File

#ACQ INFORMATION
2  Detector Channels 
16  External MUX Channels 
1  Auxiliary Channels 
5000  Waveform (CCF) Frequency (Hz)
1  Waveforms Skipped 
30  Waveforms Averaged 
1  Cycles Averaged 
16  Acquisitions per Waveform 
10.0806  Updata Rate (Hz) 

#FILE INFORMATION
TRUE -- External MUX Channel results are PARSED.
FALSE -- AC DC and Phase are NOT grouped.
TRUE -- Companion Program Settings File CREATED.
FALSE -- AC data not excluded
FALSE -- DC data not excluded
FALSE -- Phase data not excluded
FALSE -- Auxillary Chn. data not excluded
Tab delimiters

#CALIBRATION STATE
TRUE -- Waveform Calibration Values APPLIED.


#AUX CALIBRATION VALUES
Val Type	aux-1	

Term	1.0000e+00	
Factor	0.0000e+00	


#WF CALIBRATION VALUES
A = Detector Channel
Val Type	A-AC1	A-AC2	A-AC3	A-AC4	A-AC5	A-AC6	A-AC7	A-AC8	A-AC9	A-AC10	A-AC11	A-AC12	A-AC13	A-AC14	A-AC15	A-AC16	A-DC1	A-DC2	A-DC3	A-DC4	A-DC5	A-DC6	A-DC7	A-DC8	A-DC9	A-DC10	A-DC11	A-DC12	A-DC13	A-DC14	A-DC15	A-DC16	A-Ph1	A-Ph2	A-Ph3	A-Ph4	A-Ph5	A-Ph6	A-Ph7	A-Ph8	A-Ph9	A-Ph10	A-Ph11	A-Ph12	A-Ph13	A-Ph14	A-Ph15	A-Ph16	

Term	0.00000e+00	0.00000e+00	0.00000e+00	0.00000e+00	0.00000e+00	0.00000e+00	0.00000e+00	0.00000e+00	0.00000e+00	0.00000e+00	0.00000e+00	0.00000e+00	0.00000e+00	0.00000e+00	0.00000e+00	0.00000e+00	0.00000e+00	0.00000e+00	0.00000e+00	0.00000e+00	0.00000e+00	0.00000e+00	0.00000e+00	0.00000e+00	0.00000e+00	0.00000e+00	0.00000e+00	0.00000e+00	0.00000e+00	0.00000e+00	0.00000e+00	0.00000e+00	0.00000e+00	0.00000e+00	0.00000e+00	0.00000e+00	0.00000e+00	0.00000e+00	0.00000e+00	0.00000e+00	0.00000e+00	0.00000e+00	0.00000e+00	0.00000e+00	0.00000e+00	0.00000e+00	0.00000e+00	0.00000e+00	
Factor	1.00000e+00	1.00000e+00	1.00000e+00	1.00000e+00	1.00000e+00	1.00000e+00	1.00000e+00	1.00000e+00	1.00000e+00	1.00000e+00	1.00000e+00	1.00000e+00	1.00000e+00	1.00000e+00	1.00000e+00	1.00000e+00	1.00000e+00	1.00000e+00	1.00000e+00	1.00000e+00	1.00000e+00	1.00000e+00	1.00000e+00	1.00000e+00	1.00000e+00	1.00000e+00	1.00000e+00	1.00000e+00	1.00000e+00	1.00000e+00	1.00000e+00	1.00000e+00	X	X	X	X	X	X	X	X	X	X	X	X	X	X	X	X	

B = Detector Channel
Val Type	B-AC1	B-AC2	B-AC3	B-AC4	B-AC5	B-AC6	B-AC7	B-AC8	B-AC9	B-AC10	B-AC11	B-AC12	B-AC13	B-AC14	B-AC15	B-AC16	B-DC1	B-DC2	B-DC3	B-DC4	B-DC5	B-DC6	B-DC7	B-DC8	B-DC9	B-DC10	B-DC11	B-DC12	B-DC13	B-DC14	B-DC15	B-DC16	B-Ph1	B-Ph2	B-Ph3	B-Ph4	B-Ph5	B-Ph6	B-Ph7	B-Ph8	B-Ph9	B-Ph10	B-Ph11	B-Ph12	B-Ph13	B-Ph14	B-Ph15	B-Ph16	

Term	0.00000e+00	0.00000e+00	0.00000e+00	0.00000e+00	0.00000e+00	0.00000e+00	0.00000e+00	0.00000e+00	0.00000e+00	0.00000e+00	0.00000e+00	0.00000e+00	0.00000e+00	0.00000e+00	0.00000e+00	0.00000e+00	0.00000e+00	0.00000e+00	0.00000e+00	0.00000e+00	0.00000e+00	0.00000e+00	0.00000e+00	0.00000e+00	0.00000e+00	0.00000e+00	0.00000e+00	0.00000e+00	0.00000e+00	0.00000e+00	0.00000e+00	0.00000e+00	5.86857e+01	-1.40275e+02	-1.27777e+02	-1.81956e+02	-7.36887e+01	-5.69442e+01	-1.56028e+02	-1.62015e+02	-8.09294e+01	-6.35191e+01	-1.71357e+02	-1.71405e+02	-1.82318e+02	-1.76945e+02	-7.95853e+01	-1.50279e+02	
Factor	5.16763e-05	1.33635e-04	4.06010e-05	4.21718e-01	1.38256e-06	1.58296e-06	1.58406e-01	5.39367e-02	1.66385e-06	1.37896e-06	8.47905e-02	2.81246e-02	2.35851e-02	8.08168e-03	1.69326e-06	1.20261e-02	1.73923e-06	1.81185e-06	5.05000e-07	2.07507e-01	1.98338e-08	1.98293e-08	7.56450e-02	2.72911e-02	1.96927e-08	1.98476e-08	4.12586e-02	1.36837e-02	1.19586e-02	4.10842e-03	1.97406e-08	5.88837e-03	X	X	X	X	X	X	X	X	X	X	X	X	X	X	X	X	



#DISTANCE SETTINGS
A = Detector Channel
A-1	A-2	A-3	A-4	A-5	A-6	A-7	A-8	A-9	A-10	A-11	A-12	A-13	A-14	A-15	A-16	

2.5000e+00	3.0000e+00	2.5000e+00	3.0000e+00	2.0000e+00	3.0000e+00	1.5000e+00	3.0000e+00	3.0000e+00	3.0000e+00	3.0000e+00	3.0000e+00	3.0000e+00	3.0000e+00	1.5000e+00	3.0000e+00	

B = Detector Channel
B-1	B-2	B-3	B-4	B-5	B-6	B-7	B-8	B-9	B-10	B-11	B-12	B-13	B-14	B-15	B-16	

1.0000e+01	1.0000e+01	1.0000e+01	1.4400e+00	1.0000e+01	1.0000e+01	1.5100e+00	1.9400e+00	1.0000e+01	1.0000e+01	1.9900e+00	2.4900e+00	2.4100e+00	2.9000e+00	1.0000e+01	2.9800e+00	




#DATA BEGINS
time	group	step	mark	flag	A-AC1	A-AC2	A-AC3	A-AC4	A-AC5	A-AC6	A-AC7	A-AC8	A-AC9	A-AC10	A-AC11	A-AC12	A-AC13	A-AC14	A-AC15	A-AC16	A-DC1	A-DC2	A-DC3	A-DC4	A-DC5	A-DC6	A-DC7	A-DC8	A-DC9	A-DC10	A-DC11	A-DC12	A-DC13	A-DC14	A-DC15	A-DC16	A-Ph1	A-Ph2	A-Ph3	A-Ph4	A-Ph5	A-Ph6	A-Ph7	A-Ph8	A-Ph9	A-Ph10	A-Ph11	A-Ph12	A-Ph13	A-Ph14	A-Ph15	A-Ph16	B-AC1	B-AC2	B-AC3	B-AC4	B-AC5	B-AC6	B-AC7	B-AC8	B-AC9	B-AC10	B-AC11	B-AC12	B-AC13	B-AC14	B-AC15	B-AC16	B-DC1	B-DC2	B-DC3	B-DC4	B-DC5	B-DC6	B-DC7	B-DC8	B-DC9	B-DC10	B-DC11	B-DC12	B-DC13	B-DC14	B-DC15	B-DC16	B-Ph1	B-Ph2	B-Ph3	B-Ph4	B-Ph5	B-Ph6	B-Ph7	B-Ph8	B-Ph9	B-Ph10	B-Ph11	B-Ph12	B-Ph13	B-Ph14	B-Ph15	B-Ph16	aux-1	digaux	

761.251	1	1	0	768	0.11069	0.25287	0.16001	0.14666	0.063021	0.24464	0.27612	0.13344	0.04794	0.11163	0.17179	0.16922	0.43846	0.18042	0.25676	0.10258	-2.7062	-3.5229	-3.2042	-3.5979	-3.375	-3.2687	-3.6	-3.4833	-3.0875	-3.5833	-3.3333	-3.5812	-3.5771	-3.1708	-3.525	-3.3167	195.092	313.208	56.089	317.573	34.850	-6.314	293.251	-21.137	24.982	182.278	253.004	322.669	276.383	7.582	68.587	195.289	0.00066491	0.00043048	0.00022886	1371.4	1.2387e-05	1.0525e-05	1379.1	370.67	6.2704e-06	5.2508e-06	423.14	142.07	123.43	42.379	1.8874e-06	52.389	0.00063591	0.00063817	0.00017617	1401.7	6.7573e-06	6.7726e-06	1397.9	379	6.7803e-06	6.8021e-06	433.04	145.71	126.85	43.739	7.0954e-06	54.147	327.114	18.424	88.141	-14.865	152.622	136.847	-15.008	-10.280	198.501	179.190	-11.017	-6.422	-5.893	-1.580	149.030	-2.137	-8191	255	
761.347	1	1	0	0	0.085538	0.14567	0.1022	0.20195	0.16964	0.070205	0.23838	0.049617	0.15073	0.14467	0.32686	0.1451	0.10915	0.19251	0.2337	0.49202	-2.8521	-3.4021	-3.1063	-3.2833	-3.5417	-3.0167	-3.7083	-3.2708	-3.2604	-3.4396	-3.4292	-3.2479	-3.5625	-3.0792	-3.5292	-3.2771	225.915	109.353	286.746	44.803	195.427	102.060	313.886	150.074	198.476	3.319	-26.244	313.617	329.202	24.150	144.492	248.827	0.0007243	0.00050491	0.0001563	1376.1	6.9362e-06	4.0809e-06	1375.1	370.05	5.2064e-06	3.8417e-06	422.71	142.44	123.92	42.4	4.2485e-06	52.323	0.00065188	0.00065525	0.00018392	1407.7	7.3378e-06	7.3202e-06	1399.3	380.43	7.3679e-06	7.3963e-06	434.5	146.48	127.54	44.024	7.412e-06	54.295	313.614	50.639	163.866	-14.836	100.639	106.319	-15.117	-10.288	190.733	159.253	-10.848	-6.291	-5.947	-1.710	95.683	-2.298	-8191	255	
761.443	1	1	0	0	0.193	0.12392	0.17466	0.13801	0.14073	0.15035	0.19315	0.24127	0.11544	0.14657	0.13063	0.33606	0.06782	0.2593	0.15424	0.146	-2.7583	-3.4917	-3.2417	-3.3375	-3.3771	-3.2375	-3.6771	-3.4375	-3.1354	-3.5375	-3.3979	-3.3146	-3.6667	-3.3	-3.4104	-3.5875	8.352	123.587	69.065	298.691	15.676	1.995	197.488	274.485	-1.050	121.592	314.971	247.908	-16.437	314.706	167.698	-14.028	0.00062255	0.00063254	0.00019923	1374.6	8.6188e-06	7.2204e-06	1374	373.03	4.7007e-06	2.4886e-06	423.27	142.05	123.32	42.398	7.1385e-06	52.372	0.00066758	0.00066741	0.00018763	1408.5	7.2702e-06	7.1271e-06	1400.3	381.42	7.1016e-06	7.1406e-06	434.07	146.16	127	43.866	7.0754e-06	54.097	330.734	67.010	46.137	-15.028	138.097	126.270	-15.190	-10.258	256.844	270.181	-11.122	-6.364	-5.851	-1.627	145.364	-2.201	-8191	255	
761.540	1	1	0	0	0.115	0.1277	0.28699	0.12486	0.14953	0.10993	0.11094	0.1763	0.19602	0.050586	0.24144	0.25859	0.31689	0.34152	0.11746	0.10992	-2.6771	-3.5083	-3.1813	-3.3187	-3.3542	-3.2542	-3.4708	-3.5438	-3.1208	-3.5375	-3.5	-3.2542	-3.6333	-3.1312	-3.3396	-3.5312	231.064	38.312	70.205	260.304	331.652	207.196	274.880	306.493	154.054	300.246	238.795	-25.821	-17.915	322.019	4.418	-22.427	0.00065973	0.00029886	0.00020183	1367.1	3.1511e-06	2.8143e-06	1372.7	370.89	8.6816e-06	5.0526e-06	425.55	141.31	123.63	42.331	8.1295e-06	52.255	0.00063235	0.0006369	0.00017631	1399.3	6.8054e-06	6.7615e-06	1395	378.8	6.5128e-06	6.5336e-06	432.5	145.32	126.48	43.556	6.2914e-06	53.759	320.809	105.029	92.399	-14.927	106.149	136.017	-15.044	-10.192	164.568	132.770	-10.882	-6.144	-5.755	-1.479	193.249	-2.376	-8191	255	
761.636	1	1	0	0	0.1932	0.018084	0.11327	0.13802	0.1861	0.24025	0.1746	0.24601	0.13436	0.11856	0.24266	0.32326	0.41561	0.34093	0.18901	0.035073	-2.8583	-3.5604	-3.2708	-3.2812	-3.6146	-3.0479	-3.5	-3.4083	-3.3125	-3.5125	-3.4729	-3.2604	-3.5687	-3.4813	-3.325	-3.7021	305.456	49.181	158.802	322.667	253.163	321.538	213.494	283.222	86.993	188.239	247.281	-10.999	306.441	304.212	100.072	-2.881	0.00077142	0.00018481	0.00010547	1369.1	2.2809e-06	4.4037e-07	1374.7	371.98	6.277e-06	5.3233e-06	422.29	141.69	123.31	42.184	3.0028e-06	51.967	0.00056833	0.00056496	0.00015838	1394.2	6.1932e-06	6.0976e-06	1394.4	378.81	6.1017e-06	6.2442e-06	431.08	145.09	126.12	43.479	6.2217e-06	53.694	316.839	30.549	16.983	-14.954	315.151	34.354	-14.995	-10.316	172.931	160.036	-10.834	-6.433	-5.860	-1.524	198.918	-2.107	-8191	255	
761.732	1	1	0	0	0.082612	0.28468	0.22932	0.045692	0.24421	0.042044	0.32148	0.24664	0.10804	0.037969	0.024621	0.095964	0.17554	0.044316	0.17207	0.065329	-2.8479	-3.2979	-3.2896	-3.3021	-3.5479	-3.2021	-3.3438	-3.5167	-3.25	-3.4375	-3.4188	-3.4042	-3.425	-3.35	-3.3063	-3.4708	198.511	48.881	44.508	235.967	132.041	133.648	260.255	252.104	-8.376	92.083	274.520	17.698	284.039	236.346	305.193	27.630	0.00079633	0.00052925	0.00012389	1376.3	7.5198e-06	4.3111e-06	1372.1	371.55	6.27e-06	6.5428e-06	423.4	142.31	123.71	42.374	1.1481e-05	52.389	0.00057121	0.00057801	0.00016098	1396.1	6.324e-06	6.3821e-06	1393.1	379.15	6.3098e-06	6.3532e-06	432.34	145.21	126.53	43.629	6.2882e-06	53.921	327.772	1.344	60.463	-14.728	94.159	138.583	-15.039	-10.279	137.388	123.446	-10.797	-6.307	-5.921	-1.547	148.964	-2.315	-8191	255	
761.853	1	1	0	0	0.13068	0.27358	0.18429	0.25473	0.19715	0.23312	0.21861	0.089552	0.34758	0.15841	0.15604	0.18008	0.20593	0.2085	0.38901	0.076442	-2.975	-3.3729	-3.3042	-3.1771	-3.3167	-3.2854	-3.4271	-3.8271	-3.0708	-3.3625	-3.5979	-3.3292	-3.5458	-3.5271	-3.3896	-3.6354	304.831	50.193	123.268	247.259	137.285	205.465	203.718	-12.236	55.691	252.932	281.841	175.603	-8.252	296.659	296.370	258.553	0.00075479	0.00033989	0.00020713	1376.2	3.6005e-06	1.1747e-05	1381.3	372.72	2.7448e-06	4.5506e-06	424.02	142.18	123.78	42.439	5.8291e-06	52.361	0.00057162	0.000576	0.00015857	1399.3	6.2364e-06	6.155e-06	1398.6	380.14	6.0799e-06	6.1217e-06	432.86	145.41	126.63	43.559	5.8758e-06	53.86	325.152	17.732	9.862	-14.973	89.782	122.865	-15.073	-10.039	80.863	143.727	-11.125	-6.443	-5.838	-1.561	97.151	-2.354	-8191	255	
761.947	1	1	0	0	0.15294	0.15172	0.032884	0.16309	0.24237	0.067275	0.027983	0.20951	0.24107	0.095813	0.068651	0.19523	0.17102	0.17633	0.17706	0.28862	-2.7021	-3.5021	-3.3958	-3.3292	-3.4417	-3.2021	-3.4021	-3.4521	-3.3542	-3.2229	-3.7104	-3.1312	-3.5083	-3.2958	-3.0563	-3.5438	95.783	172.263	134.362	294.417	21.061	237.656	223.045	247.547	35.927	-13.530	221.568	322.402	278.102	183.991	59.464	5.739	0.00058425	0.00057183	0.00024669	1380.8	1.8365e-06	5.4187e-06	1373.6	373.16	3.6228e-06	4.679e-06	421.9	142.73	123.84	42.286	7.0753e-06	52.416	0.00053501	0.00053198	0.00014722	1396	5.7656e-06	5.6708e-06	1394.4	379.12	5.7228e-06	5.707e-06	431.62	145.32	126.37	43.467	5.7183e-06	53.768	309.623	49.840	61.444	-15.138	48.825	159.889	-15.048	-10.442	147.517	120.385	-11.096	-6.238	-5.804	-1.482	92.532	-2.370	-8191	255	
762.043	1	1	0	0	0.24786	0.020226	0.13042	0.16124	0.13541	0.15345	0.039393	0.15829	0.1498	0.14571	0.024692	0.12438	0.21038	0.18976	0.051463	0.28872	-2.7375	-3.2646	-3.5229	-3.1604	-3.5604	-3.5167	-3.3917	-3.5875	-3.5708	-3.2729	-3.6063	-3.2646	-3.4708	-3.35	-3.3125	-3.5333	65.971	177.032	229.071	-6.448	-20.693	85.034	175.271	247.308	122.322	242.928	131.479	251.204	272.581	-21.527	62.922	16.791	0.00060781	0.0001391	0.00014847	1380.5	2.413e-06	6.3926e-06	1377.6	372.82	4.7536e-06	3.433e-06	423.8	142.13	123.75	42.174	9.0531e-06	52.417	0.00053458	0.00053441	0.00014844	1398.3	5.96e-06	5.88e-06	1397.8	380.04	5.9328e-06	5.9018e-06	432.81	145.27	126.57	43.452	5.9474e-06	53.767	325.980	-2.683	89.928	-14.904	102.027	200.123	-15.141	-10.197	99.972	193.548	-10.819	-6.377	-5.814	-1.305	129.332	-2.049	-8191	255	
762.139	1	1	0	0	0.13394	0.043772	0.069385	0.047391	0.1348	0.11726	0.29287	0.10731	0.2401	0.19162	0.17752	0.28413	0.27809	0.10074	0.2111	0.14665	-2.7292	-3.1979	-3.3438	-3.3187	-3.3292	-3.5438	-3.3312	-3.6292	-3.2062	-3.3729	-3.6417	-3.3667	-3.2854	-3.4521	-3.2542	-3.4875	327.464	-22.188	184.896	6.077	32.799	220.486	292.626	278.008	126.759	270.879	278.922	286.520	328.226	118.277	64.896	-17.867	0.00055942	0.00040313	0.00019502	1384.1	3.1182e-06	9.7807e-06	1375.2	371.23	3.3789e-06	4.3135e-06	424.96	142.09	123.36	42.223	2.8308e-06	52.197	0.00055892	0.00055138	0.00015344	1398.6	6.2014e-06	6.1053e-06	1396	379.95	6.2403e-06	6.2031e-06	432.95	145.4	126.57	43.497	6.1825e-06	53.78	300.220	53.506	12.974	-14.816	101.399	95.504	-15.179	-10.276	247.893	133.147	-10.872	-6.204	-5.770	-1.396	106.724	-2.221	-8191	255	
762.235	1	1	0	0	0.21148	0.22922	0.069691	0.36416	0.2483	0.072649	0.33922	0.080114	0.18836	0.086769	0.27158	0.25361	0.34224	0.085934	0.24742	0.11706	-2.8875	-3.1667	-3.5354	-3.2125	-3.5021	-3.4188	-3.2771	-3.4021	-3.3396	-3.0542	-3.5896	-3.2708	-3.3417	-3.4875	-3.1104	-3.5208	20.463	18.008	232.434	209.022	-3.335	70.762	295.178	262.728	185.203	184.725	-27.945	-10.118	302.373	37.488	155.613	18.524	0.00068959	0.00023227	0.0001364	1369.3	5.8476e-06	7.1411e-07	1385.8	373.24	2.6655e-06	4.2858e-06	425.18	142.14	123.45	42.169	3.9111e-06	52.312	0.00057973	0.00056775	0.00015834	1397.2	6.2328e-06	6.1606e-06	1401.9	380.59	6.0378e-06	6.019e-06	433.54	145.4	126.55	43.422	5.892e-06	53.693	324.848	39.167	70.579	-14.896	90.113	153.817	-15.214	-10.126	77.187	109.898	-10.877	-6.326	-5.658	-1.327	122.905	-2.216	-8191	255	
762.332	1	1	0	0	0.10604	0.057289	0.15159	0.031504	0.29955	0.093737	0.37076	0.17172	0.11929	0.27457	0.26863	0.18143	0.16556	0.17452	0.13042	0.17588	-2.8125	-3.1583	-3.3979	-3.2125	-3.3937	-3.4271	-3.4458	-3.3229	-3.5292	-3.1771	-3.6063	-3.4708	-3.1125	-3.6083	-3.2125	-3.3896	55.794	8.676	41.637	144.665	9.687	-7.582	256.372	261.494	281.994	90.444	172.828	299.961	37.135	261.233	70.785	236.596	0.00072617	0.00045629	0.00015863	1381.3	7.2521e-06	1.1578e-06	1381	372.27	5.4095e-06	4.98e-06	425.54	142.53	123.21	42.262	4.9726e-06	52.292	0.00053675	0.0005275	0.0001474	1396.5	5.8046e-06	5.785e-06	1398.3	380.29	5.8295e-06	5.8351e-06	433.6	145.36	126.36	43.519	5.9041e-06	53.645	-22.678	62.815	60.518	-15.075	114.035	120.263	-15.283	-10.325	230.977	118.682	-10.946	-6.550	-5.685	-1.458	182.303	-2.396	-8191	255	
762.428	1	1	0	0	0.036445	0.15517	0.12216	0.27189	0.25749	0.13566	0.22143	0.18563	0.21113	0.20483	0.10392	0.28503	0.28579	0.27068	0.25583	0.15597	-3.0062	-3.0792	-3.3563	-3.2146	-3.2521	-3.4792	-3.2938	-3.5208	-3.5208	-3.2604	-3.2208	-3.3021	-3.3229	-3.4292	-3.3354	-3.3542	328.182	181.447	-12.138	328.308	167.902	103.499	323.090	266.138	191.327	92.754	233.650	286.297	286.407	291.646	-9.342	272.113	0.00079171	0.00052735	0.00018119	1380.1	1.3883e-06	6.1828e-06	1378.6	374.01	6.3943e-06	7.9298e-06	424.14	141.83	123.58	42.166	6.0383e-06	52.083	0.00055288	0.00054729	0.00015292	1396.9	5.9724e-06	5.8774e-06	1398.1	380.15	5.8798e-06	5.8361e-06	432.28	145.12	126.11	43.303	5.7923e-06	53.515	-20.241	70.543	56.997	-14.808	176.981	111.223	-15.137	-10.280	114.449	125.504	-10.882	-6.369	-5.688	-1.190	105.138	-2.122	-8191	255	
762.548	1	1	0	0	0.14703	0.22693	0.13024	0.081071	0.099758	0.33192	0.1776	0.23105	0.074004	0.11623	0.15105	0.096149	0.11413	0.16713	0.24978	0.20019	-3	-3.1312	-3.5542	-3.3	-2.8833	-3.3417	-3.3563	-3.3854	-3.4625	-3.1229	-3.5875	-3.4938	-3.2146	-3.4188	-3.2062	-3.3104	218.230	135.452	124.142	38.883	305.110	216.700	216.225	322.523	173.275	200.066	280.720	263.749	-23.720	311.320	85.106	299.440	0.00067516	0.00036095	0.00011034	1380.2	3.1015e-06	3.8347e-06	1376.5	373.53	5.7428e-06	2.3443e-06	424.21	141.9	123.38	42.059	9.0086e-06	52.266	0.00052852	0.00051666	0.00014625	1394.1	5.6552e-06	5.6401e-06	1394.3	379.52	5.6335e-06	5.5564e-06	431.81	144.77	125.97	43.296	5.66e-06	53.498	309.737	113.384	-11.734	-15.144	144.519	111.878	-14.995	-10.314	106.317	147.444	-10.969	-6.272	-5.981	-1.510	114.486	-2.146	-8191	255	
762.644	1	1	0	0	0.23593	0.30538	0.22002	0.068537	0.076089	0.14224	0.2116	0.18725	0.14617	0.20805	0.28927	0.26039	0.23149	0.24882	0.14211	0.020407	-3.225	-3.1125	-3.2667	-3.4979	-3.1917	-3.5458	-3.4354	-3.2687	-3.6125	-3.1188	-3.3167	-3.4708	-3.35	-3.4708	-3.2958	-3.275	140.592	9.850	244.037	206.340	112.174	318.911	7.518	290.414	13.931	230.036	56.750	128.316	275.313	265.070	113.148	266.619	0.00080158	0.00074727	0.00021838	1384.7	2.6345e-06	4.8324e-06	1378.8	372.82	8.9422e-06	5.0704e-07	423.34	142.15	123.33	42.153	8.156e-06	52.299	0.00052149	0.00051722	0.00014497	1395.5	5.6005e-06	5.6827e-06	1395.7	379.38	5.6e-06	5.6016e-06	431.82	144.9	125.89	43.226	5.6239e-06	53.429	326.915	43.448	67.642	-14.855	128.881	92.615	-15.074	-10.383	148.764	156.976	-10.875	-6.365	-5.582	-1.204	72.648	-2.185	-8191	255	
762.739	1	1	0	0	0.073722	0.36021	0.095312	0.11142	0.11399	0.18455	0.32011	0.25994	0.2209	0.13172	0.2582	0.11639	0.13439	0.25538	0.24785	0.12047	-3.1833	-3.075	-3.2938	-3.4	-3.0917	-3.3083	-3.6813	-3.1833	-3.5938	-3.3875	-3.2396	-3.6375	-3.4771	-3.3896	-3.3708	-3.2583	313.907	192.347	112.208	8.132	319.798	256.964	-8.713	220.169	83.178	-9.939	187.783	243.823	243.494	40.040	232.324	278.102	0.00052945	0.00076844	0.00012986	1374.1	4.5145e-06	7.004e-06	1376.5	371.62	5.9051e-06	4.333e-06	425	141.67	122.84	41.984	8.566e-06	52.188	0.00051431	0.00051387	0.00014302	1391.5	5.6157e-06	5.6481e-06	1393.1	378.64	5.6125e-06	5.6516e-06	431.69	144.33	125.57	43.157	5.6406e-06	53.388	324.332	63.567	108.000	-14.707	131.725	143.757	-14.933	-10.036	161.015	136.178	-10.993	-6.090	-5.746	-1.379	109.528	-2.235	-8191	255	
762.812	1	1	0	0	0.099983	0.25181	0.21324	0.052471	0.093643	0.14685	0.22941	0.30635	0.33409	0.090302	0.097486	0.24079	0.25577	0.21012	0.049312	0.38302	-2.9208	-3.2146	-3.1229	-3.5042	-3.1042	-3.3125	-3.5646	-3.3937	-3.4729	-3.3604	-3.3937	-3.6312	-3.4167	-3.3229	-3.4979	-3.3104	202.409	108.936	198.495	231.888	233.067	207.184	281.785	246.724	142.302	60.469	-11.598	184.777	292.552	176.489	152.013	245.193	0.00061955	0.00018299	0.00016647	1376.8	3.827e-06	4.3598e-06	1374.3	371.4	4.27e-06	3.2807e-06	424.47	141.37	123.11	41.948	7.1525e-06	51.909	0.00052021	0.00051605	0.00014386	1392.7	5.6038e-06	5.6425e-06	1393.6	378.92	5.6045e-06	5.5926e-06	431.14	144.5	125.7	43.183	5.6194e-06	53.401	318.286	155.454	10.081	-14.864	146.277	126.314	-15.187	-10.347	116.015	94.269	-10.859	-6.021	-5.646	-1.513	103.526	-2.519	-8191	255	
762.931	1	1	0	0	0.11822	0.10901	0.13227	0.16429	0.18681	0.13051	0.05403	0.20597	0.23845	0.28283	0.27806	0.13693	0.13865	0.16168	0.13989	0.13798	-3.1937	-3.5312	-3.2229	-3.4708	-3.3563	-3.2438	-3.65	-3.275	-3.4958	-3.3417	-3.2729	-3.5854	-3.4896	-3.3937	-3.5812	-3.1813	28.705	4.086	217.813	287.583	36.975	196.703	128.467	255.963	39.801	41.937	305.806	-23.543	37.184	303.786	-15.550	306.653	0.00055624	0.00055064	8.3817e-05	1372.2	3.0256e-06	6.9041e-06	1370.9	371.21	3.9561e-06	6.7109e-06	425.07	141.88	123.18	42.132	6.7556e-06	52.262	0.00051624	0.00051643	0.00014222	1390.7	5.6196e-06	5.5894e-06	1391.2	378.43	5.6262e-06	5.6252e-06	431.5	144.7	125.92	43.241	5.5782e-06	53.57	311.723	44.659	62.833	-15.180	62.534	147.415	-15.110	-10.331	134.538	162.264	-11.011	-6.069	-5.679	-1.466	72.383	-2.325	-8191	255	
763.027	1	1	0	0	0.19369	0.16493	0.075694	0.099261	0.079559	0.02841	0.1735	0.067415	0.22822	0.18863	0.21291	0.16934	0.24667	0.2485	0.13287	0.1174	-2.9396	-3.375	-3.1625	-3.6917	-3.2521	-3.2188	-3.8125	-3.1646	-3.5396	-3.2	-3.4375	-3.5125	-3.2938	-3.3375	-3.5729	-3.1833	43.685	-1.554	169.171	72.320	61.718	15.238	313.660	191.805	157.092	1.862	207.289	308.846	289.379	292.115	110.314	107.680	0.00079839	0.00030676	0.00016581	1373.7	9.3281e-07	4.7718e-06	1373.6	370.96	1.9883e-06	7.2162e-06	423.58	142.02	123.5	42.18	8.3272e-06	52.209	0.00051444	0.00050219	0.00014007	1390.4	5.5648e-06	5.4469e-06	1391.8	378.18	5.4432e-06	5.4613e-06	430.65	144.74	125.9	43.337	5.4348e-06	53.438	318.311	323.858	102.308	-15.083	88.288	161.196	-15.045	-10.230	135.793	159.545	-10.853	-6.129	-5.689	-1.576	127.542	-2.270	-8191	255	
763.123	1	1	0	0	0.0050144	0.14237	0.08319	0.11332	0.25401	0.27639	0.070012	0.27004	0.0019158	0.23093	0.078911	0.11383	0.14034	0.41584	0.22001	0.18515	-3.1021	-3.3958	-2.925	-3.8208	-3.1229	-3.2229	-3.6896	-3.1979	-3.4583	-3.4021	-3.0479	-3.575	-3.2958	-3.2792	-3.3604	-3.1146	50.917	160.916	110.330	106.391	87.607	315.953	203.460	313.994	180.000	70.873	180.220	317.234	308.349	-7.922	139.047	244.550	0.00049543	0.0007582	0.00014238	1370.8	7.9012e-06	9.0442e-06	1371	371.98	4.1967e-06	1.6615e-06	423.79	142.07	123.46	42.101	8.284e-06	52.146	0.00050386	0.00049365	0.00013904	1385.9	5.4068e-06	5.4166e-06	1389.5	378.23	5.4336e-06	5.4074e-06	430.39	144.94	125.98	43.297	5.4158e-06	53.531	324.459	52.623	52.156	-14.745	158.590	131.849	-15.100	-10.225	149.482	154.129	-10.998	-6.250	-5.708	-1.334	124.485	-2.034	-8191	255	
763.244	1	1	0	0	0.035841	0.084243	0.2094	0.3097	0.25423	0.33672	0.053477	0.23818	0.12869	0.14831	0.32039	0.15119	0.29113	0.15304	0.24367	0.32613	-3.1104	-3.3042	-3.225	-3.2792	-3.1771	-3.3396	-3.6625	-3.3042	-3.25	-3.4313	-3.2208	-3.5438	-3.4792	-3.3	-3.4333	-3.3854	212.079	232.534	91.790	232.954	28.953	310.939	19.175	262.875	182.180	120.871	258.715	-13.248	311.996	286.456	86.554	329.500	0.00058161	0.0003706	0.0001302	1362.6	4.9327e-06	8.281e-06	1371.3	371.51	3.8618e-06	2.884e-06	424.54	142.36	123.39	42.247	2.4251e-06	52.255	0.00050437	0.0004995	0.00013827	1386	5.5296e-06	5.4527e-06	1391.2	378.42	5.5105e-06	5.5053e-06	431.02	145.15	126.07	43.382	5.574e-06	53.555	-24.127	-11.551	38.079	-15.049	154.024	136.123	-15.135	-10.273	173.228	194.396	-11.191	-6.336	-5.842	-1.413	113.599	-2.543	-8191	255	
763.340	1	1	0	0	0.041347	0.17853	0.18168	0.1529	0.1161	0.10972	0.13801	0.29431	0.25006	0.07081	0.15036	0.15479	0.094173	0.13689	0.13667	0.1493	-2.8187	-3.3542	-3.0354	-3.5729	-3.1833	-3.2604	-3.7583	-3.3438	-3.4792	-3.5958	-3.3187	-3.4646	-3.4833	-3.3063	-3.5542	-3.3667	238.708	17.224	301.093	291.272	296.021	49.425	263.332	13.039	6.678	-26.812	74.485	247.556	236.099	33.038	30.735	305.386	0.00078543	0.00065174	0.00017831	1374.7	7.2278e-06	6.0934e-06	1378.8	372.35	8.9056e-06	2.0388e-06	424.11	142.51	123.59	42.267	7.6494e-06	52.37	0.00051532	0.00051107	0.00014185	1391.6	5.6566e-06	5.5741e-06	1394.7	378.78	5.633e-06	5.6235e-06	431.42	145.26	126.35	43.506	5.644e-06	53.776	-27.336	58.303	97.216	-14.753	132.084	174.026	-14.990	-10.203	100.954	211.017	-10.731	-6.252	-5.866	-1.298	108.609	-2.153	-8191	255	
763.412	1	1	0	0	0.10514	0.059879	0.059063	0.083228	0.21694	0.13597	0.35217	0.63523	0.15182	0.21089	0.13991	0.13389	0.061859	0.3092	0.092777	0.24455	-2.8292	-3.4208	-3.2125	-3.3771	-3.5229	-3.1167	-3.7979	-3.2854	-3.2771	-3.3083	-3.3812	-3.4521	-3.4458	-3.2708	-3.5083	-3.4562	201.287	-4.035	158.141	149.456	311.828	198.454	246.024	296.026	66.951	210.674	-18.831	327.549	-5.172	-6.900	173.983	180.056	0.00059765	0.00061646	2.595e-05	1374.3	3.2801e-06	4.9297e-06	1373.4	372.03	6.0641e-07	5.3898e-06	424.76	142.54	124	42.598	3.7917e-06	52.299	0.00051784	0.0005163	0.00014339	1391.1	5.6309e-06	5.6049e-06	1392.7	379.28	5.586e-06	5.6418e-06	431.49	145.5	126.62	43.658	5.6967e-06	53.847	-16.594	56.384	81.440	-14.867	80.613	130.487	-15.158	-10.427	208.706	207.976	-10.975	-6.255	-5.921	-1.430	-21.742	-2.298	-8191	255	
763.533	1	1	0	0	0.046	0.033431	0.19976	0.12673	0.18922	0.27353	0.35743	0.31865	0.18112	0.22383	0.16402	0.21041	0.17512	0.071488	0.066747	0.27728	-2.65	-3.3896	-3.0646	-3.3479	-3.5417	-3.0854	-3.3812	-3.3646	-3.0667	-3.4271	-3.4208	-3.3083	-3.5563	-3.1479	-3.4271	-3.5271	84.558	-10.745	190.045	204.907	146.395	-3.437	279.407	263.270	48.839	136.387	302.411	241.272	318.299	327.052	131.017	302.932	0.00070366	0.00045635	0.00017572	1374.5	6.0221e-06	1.0292e-06	1375.3	372.64	7.8331e-06	6.7715e-06	426.57	142.92	124.07	42.677	1.2121e-05	52.525	0.0005212	0.00051389	0.00014496	1391.5	5.7408e-06	5.6498e-06	1393.2	379.36	5.6134e-06	5.7162e-06	432.73	145.81	126.77	43.741	5.7716e-06	53.872	322.443	47.297	85.606	-14.765	97.551	131.475	-15.101	-10.177	159.967	116.666	-10.689	-6.269	-5.661	-1.580	115.526	-2.357	-8191	255	
763.629	1	1	0	0	0.11141	0.020616	0.15013	0.11982	0.2712	0.11743	0.22869	0.11521	0.084746	0.10776	0.13468	0.049322	0.1777	0.26696	0.31843	0.081828	-2.7396	-3.4167	-3.05	-3.4208	-3.3667	-3.1167	-3.6688	-3.525	-3.1479	-3.5521	-3.3125	-3.3688	-3.6979	-3.2771	-3.4167	-3.3563	70.990	5.525	308.437	318.814	199.131	210.140	263.267	82.924	91.074	67.876	-19.789	297.146	303.267	-16.342	104.488	188.232	0.00065492	0.00041037	0.00014297	1374.5	3.9191e-06	8.4389e-06	1375.8	373.15	4.1318e-06	5.9684e-06	425.29	142.8	124.25	42.528	6.875e-06	52.579	0.0005259	0.00052537	0.00014569	1391.6	5.7171e-06	5.6946e-06	1394.5	379.61	5.6872e-06	5.7124e-06	431.97	145.96	126.88	43.662	5.7982e-06	53.926	325.120	-2.875	89.775	-14.761	109.571	156.417	-14.866	-10.343	181.527	106.552	-10.967	-6.427	-5.844	-1.414	151.718	-2.528	-8191	255	
763.725	1	1	0	0	0.14895	0.45249	0.088685	0.25606	0.24742	0.074949	0.34477	0.23135	0.16542	0.17125	0.14554	0.35363	0.16567	0.29656	0.27121	0.21202	-2.7979	-3.2562	-3.2479	-3.2562	-3.3271	-3.0646	-3.5271	-3.5042	-3.1896	-3.3854	-3.3042	-3.2146	-3.35	-3.2438	-3.3146	-3.4313	262.576	97.789	34.192	257.651	111.523	67.390	290.233	284.710	298.301	271.299	318.825	270.231	138.493	44.528	161.171	-4.090	0.00072091	0.00043014	0.00016564	1377.9	4.9079e-06	8.9048e-06	1379.3	372.82	3.976e-06	5.3326e-06	426.4	142.94	124.41	42.537	6.4005e-06	52.867	0.00053669	0.00053778	0.00015059	1396.6	5.9533e-06	5.9159e-06	1397.7	380.34	5.9146e-06	5.8861e-06	433.86	146.06	127.11	43.747	5.9484e-06	54.104	304.644	47.550	57.135	-14.765	143.068	154.866	-14.947	-10.195	101.604	162.168	-10.923	-6.343	-5.607	-1.332	110.741	-2.214	-8191	255	
763.844	1	1	0	0	0.12944	0.0098805	0.027846	0.23658	0.10657	0.21079	0.34238	0.1551	0.047108	0.28964	0.27348	0.19731	0.10343	0.14804	0.031173	0.10069	-2.7583	-3.2979	-3.2667	-3.1396	-3.4792	-3.25	-3.4	-3.7271	-3.2	-3.3229	-3.5042	-3.4042	-3.6417	-3.3792	-3.2812	-3.6125	142.692	104.807	190.756	214.678	263.817	196.824	303.533	106.176	36.659	4.807	304.514	16.140	309.534	208.345	150.300	163.489	0.00061058	0.00047863	0.0001041	1374.3	7.0836e-06	2.5142e-06	1379.2	373.87	4.673e-06	9.1443e-06	423.56	143.31	124.35	42.694	7.4697e-06	52.897	0.00054402	0.00053896	0.0001512	1393	5.9226e-06	5.8321e-06	1395.9	380.35	5.8303e-06	5.9375e-06	431.94	146.23	127.06	43.761	5.8165e-06	54.047	-18.098	-1.262	67.954	-15.191	116.870	156.716	-15.101	-10.203	96.019	142.717	-10.909	-6.296	-5.746	-1.518	94.150	-2.223	-8191	255	
763.940	1	1	0	0	0.15027	0.1875	0.13617	0.18399	0.088062	0.049509	0.30059	0.093739	0.17896	0.16307	0.10558	0.33919	0.11984	0.13854	0.094774	0.31697	-2.7729	-3.3729	-3.5542	-3.3917	-3.4729	-3.2333	-3.5229	-3.4646	-3.2687	-3.4104	-3.4604	-3.2938	-3.4604	-3.35	-3.3104	-3.3708	211.578	175.108	-25.211	239.664	157.040	73.013	285.362	282.575	248.109	251.854	53.464	184.664	316.351	-18.834	134.104	257.075	0.0006005	0.00014994	1.5783e-05	1375.3	3.3534e-06	8.3803e-06	1375.8	373.31	7.8866e-06	5.8748e-06	424.88	142.38	124.51	42.462	2.0633e-06	52.641	0.00053157	0.00053141	0.00014812	1393.5	5.8521e-06	5.8089e-06	1396.5	380.34	5.8536e-06	5.8445e-06	432.99	146.08	127.08	43.752	5.8058e-06	54.029	306.389	45.322	76.358	-14.832	92.652	171.673	-15.137	-10.380	177.159	172.360	-10.983	-6.177	-5.698	-1.529	206.096	-2.463	-8191	255	
764.036	1	1	0	0	0.12424	0.21876	0.21184	0.11424	0.1462	0.14355	0.35984	0.11654	0.060652	0.12891	0.18604	0.34696	0.16865	0.30239	0.04847	0.2038	-2.825	-3.3917	-3.3729	-3.3229	-3.2979	-3.275	-3.2833	-3.8229	-3.4125	-3.2354	-3.6188	-3.1937	-3.3896	-3.4562	-3.0292	-3.5125	21.036	81.107	229.603	249.177	294.427	-21.662	241.284	282.704	0.774	157.566	10.521	304.552	253.281	261.476	193.913	265.486	0.0006924	0.00031242	0.00012828	1373.6	2.7446e-06	3.8942e-06	1378.9	374.08	9.1951e-06	4.1019e-06	426.29	143.29	124.35	42.631	6.092e-06	52.829	0.00053344	0.000535	0.00014827	1393.4	5.8938e-06	5.8003e-06	1396.2	380.74	5.8033e-06	5.8301e-06	433.73	146.12	127	43.744	5.744e-06	54.146	319.923	49.310	-25.966	-14.868	167.041	60.009	-14.904	-10.284	151.278	109.271	-10.596	-6.192	-5.695	-1.642	132.183	-2.356	-8191	255	
764.108	1	1	0	0	0.089113	0.27192	0.073649	0.20238	0.075749	0.21802	0.29216	0.12721	0.085861	0.31511	0.10152	0.1542	0.13423	0.13283	0.014907	0.16694	-2.8042	-3.2458	-3.5187	-3.2083	-3.4521	-3.2917	-3.3625	-3.5187	-3.2083	-3.2917	-3.5833	-3.3917	-3.4958	-3.475	-3.1771	-3.6063	17.618	183.375	256.501	298.593	69.135	93.364	294.191	240.753	278.901	6.335	207.213	234.375	131.663	264.138	243.331	219.683	0.00072039	0.00076596	5.7055e-05	1367.8	1.5604e-06	8.2367e-06	1373.7	374.29	9.4984e-06	6.2229e-06	425.62	143.36	124.02	42.645	7.1367e-06	52.771	0.00053097	0.00052893	0.00014732	1391.9	5.9029e-06	5.8213e-06	1393.2	380.43	5.8729e-06	5.8398e-06	432.98	146.04	127.11	43.788	5.8002e-06	54.019	324.805	43.537	298.661	-14.955	90.508	130.869	-15.019	-10.052	133.159	146.107	-10.799	-6.464	-5.901	-1.616	38.388	-2.223	-8191	255	
764.228	1	1	0	0	0.12732	0.1424	0.095581	0.13972	0.10276	0.24669	0.17085	0.16033	0.077772	0.2175	0.17199	0.11995	0.12446	0.16889	0.080549	0.28891	-2.8333	-3.2313	-3.3208	-3.1854	-3.3187	-3.3083	-3.2812	-3.6688	-3.3937	-3.1708	-3.5625	-3.3333	-3.4604	-3.5646	-3.1521	-3.6167	159.883	186.393	45.154	212.638	102.637	320.730	298.933	303.297	237.069	253.484	34.075	146.088	307.552	112.751	210.363	-0.945	0.00064727	0.00057552	9.4015e-05	1366.9	3.3613e-06	5.7776e-06	1378	372.41	6.8084e-06	5.9172e-06	425.53	142.8	124.37	42.512	5.4086e-06	52.696	0.00053379	0.00052937	0.00014794	1390.3	5.8743e-06	5.8132e-06	1396.4	380.22	5.8242e-06	5.813e-06	432.67	145.98	126.7	43.768	5.7987e-06	54.044	329.891	14.737	45.945	-15.094	134.062	133.157	-15.053	-10.084	152.968	207.666	-10.760	-6.323	-5.751	-1.444	131.260	-2.338	-8191	255	
764.324	1	1	0	0	0.2273	0.096421	0.1248	0.23009	0.15598	0.12637	0.21494	0.09607	0.24014	0.25358	0.077838	0.14197	0.14504	0.26788	0.14405	0.22473	-2.7104	-3.1625	-3.3312	-3.4062	-3.2458	-3.4938	-3.2458	-3.5917	-3.1917	-3.1688	-3.4854	-3.4021	-3.1625	-3.5062	-3.1646	-3.4604	271.885	9.869	127.332	76.388	264.843	212.794	31.498	270.828	235.123	188.214	7.689	308.006	311.098	309.970	134.132	269.903	0.00059914	0.00056063	0.00022281	1369.9	4.333e-06	6.8456e-06	1373.1	372.71	6.6649e-06	4.166e-06	426.87	143.12	123.96	42.409	6.4678e-06	52.566	0.00053664	0.00053263	0.0001507	1391.4	5.8461e-06	5.8532e-06	1394.7	379.96	5.8566e-06	5.8017e-06	433.58	146.01	127.03	43.672	5.7732e-06	53.988	326.249	29.892	65.060	-15.112	121.064	104.923	-14.955	-10.081	171.085	92.945	-10.667	-6.507	-5.895	-1.428	102.074	-2.221	-8191	255	
764.421	1	1	0	0	0.17658	0.12949	0.10032	0.1173	0.11966	0.13445	0.07775	0.36771	0.057814	0.23477	0.15248	0.12995	0.20596	0.076547	0.12634	0.28974	-2.8875	-2.9771	-3.4854	-3.2188	-3.2292	-3.5854	-3.4333	-3.6083	-3.35	-3.3187	-3.5958	-3.3	-3.3812	-3.4313	-3.1125	-3.55	150.216	239.579	1.747	89.538	99.247	222.461	-20.996	244.636	-17.124	151.485	111.422	272.922	-26.823	-4.363	53.122	116.879	0.00079753	0.00013712	6.0288e-05	1375.5	4.7528e-06	3.5408e-06	1370.6	371.05	1.4222e-06	3.1772e-06	423.95	142.49	123.5	42.331	7.4216e-06	52.547	0.00052912	0.00052279	0.00014703	1392.7	5.741e-06	5.7025e-06	1391.8	379.14	5.7979e-06	5.8249e-06	432.18	145.6	126.53	43.657	6.1501e-06	53.951	326.723	144.824	57.982	-14.942	125.895	123.060	-14.991	-10.244	-23.966	63.516	-10.792	-6.329	-5.639	-1.465	88.469	-2.207	-8191	255	
764.517	1	1	0	0	0.21218	0.15894	0.12296	0.22948	0.17336	0.089861	0.39095	0.24714	0.033689	0.13951	0.073622	0.14399	0.20378	0.25463	0.07288	0.17651	-2.8896	-3.1521	-3.2708	-3.2604	-3.1292	-3.2208	-3.4979	-3.5312	-3.4	-3.2083	-3.6562	-3.3771	-3.2375	-3.5854	-3.2646	-3.475	258.632	232.164	65.193	5.888	13.502	8.816	239.903	278.334	72.932	254.727	263.620	-22.398	320.614	305.735	120.188	280.997	0.00073906	0.00053238	0.00016426	1374.4	2.1837e-06	1.3678e-06	1374.7	371.98	4.6868e-06	2.4319e-06	425.25	142.42	123.53	42.329	3.3738e-06	52.346	0.00057349	0.00057298	0.00016202	1396.2	6.3262e-06	6.3451e-06	1395.7	379.89	6.4034e-06	6.3668e-06	433.47	145.86	126.86	43.729	6.4871e-06	54.02	331.701	94.315	92.581	-14.954	127.297	223.746	-15.074	-10.202	51.408	194.423	-11.126	-6.193	-5.750	-1.638	62.969	-2.377	-8191	255	
764.637	1	1	0	0	0.18193	0.27902	0.17708	0.16739	0.09917	0.1967	0.22856	0.22194	0.07694	0.3048	0.10975	0.19715	0.14579	0.031863	0.10136	0.21052	-2.9458	-3.1188	-3.3375	-3.1896	-3.3937	-3.3979	-3.5354	-3.3854	-3.3917	-3.1146	-3.375	-3.3021	-3.2583	-3.4646	-3.1521	-3.375	-13.266	297.615	95.011	325.451	175.068	116.984	263.851	306.711	146.263	-22.930	-0.707	71.634	322.166	121.327	49.527	299.615	0.00080678	0.00035946	0.00012301	1374.9	4.4184e-06	7.4657e-06	1371.3	373.07	7.0508e-06	1.6391e-06	423.16	142.73	124.3	42.46	5.1185e-06	52.685	0.00059928	0.00059734	0.00016794	1402.3	6.5918e-06	6.6629e-06	1393.6	380.64	6.7096e-06	6.662e-06	433.65	146.41	127.35	43.863	6.9342e-06	54.21	-27.181	83.785	31.942	-15.049	87.304	124.130	-15.043	-10.159	126.817	26.587	-10.947	-6.308	-5.879	-1.473	123.169	-2.131	-8191	255	
764.709	1	1	0	0	0.24582	0.12322	0.089639	0.11343	0.12445	0.17781	0.26728	0.10453	0.086991	0.21983	0.19144	0.15768	0.22956	0.24333	0.052671	0.14229	-2.9688	-3.1583	-3.3854	-3.2521	-2.9896	-3.4458	-3.5625	-3.0771	-3.3271	-3.3083	-3.4896	-3.5771	-3.1771	-3.475	-3.1833	-3.2208	224.284	256.890	277.776	-5.468	206.303	120.559	268.158	253.595	170.148	128.723	320.121	307.280	31.676	297.911	59.255	36.659	0.00073256	0.00037262	9.7778e-05	1375	8.0095e-06	6.1016e-06	1378.7	372.77	3.1099e-06	5.828e-06	425.01	142.98	124.27	42.353	7.2059e-06	52.444	0.00063596	0.00063933	0.00018051	1407.3	7.057e-06	7.0684e-06	1399.6	382.02	7.0147e-06	7.0342e-06	435.58	146.66	127.45	43.891	6.9871e-06	54.199	-25.836	61.318	82.318	-14.878	111.773	181.279	-14.980	-10.245	124.188	75.905	-10.983	-6.439	-5.845	-1.668	119.446	-2.346	-8191	255	
764.805	1	1	0	0	0.26145	0.19279	0.20326	0.077347	0.25936	0.11933	0.098262	0.01452	0.093952	0.24506	0.095661	0.20838	0.19952	0.212	0.24744	0.10413	-2.925	-3.1188	-3.1896	-3.325	-3.1396	-3.2208	-3.2625	-3.3958	-3.35	-3.0312	-3.2333	-3.5125	-3.1813	-3.5312	-3.1021	-3.3063	-19.563	269.250	268.764	37.574	-9.425	29.243	209.730	203.984	66.293	89.314	325.647	33.174	323.253	18.587	162.659	127.544	0.00075695	0.00050927	0.00017958	1371	7.5517e-06	1.9618e-06	1379.7	371.81	3.5569e-06	5.1654e-06	425.71	142.77	124.27	42.6	5.0616e-06	52.752	0.00063489	0.00063836	0.00017831	1403.3	6.8902e-06	6.9244e-06	1399.6	381.47	6.8217e-06	6.8843e-06	434.58	146.47	127.37	43.902	6.981e-06	54.288	310.348	7.037	67.783	-15.045	137.853	94.872	-15.189	-10.327	162.513	92.000	-10.974	-6.141	-5.716	-1.549	68.363	-2.215	-8191	255	
764.924	1	1	0	0	0.28237	0.19964	0.26851	0.092718	0.30101	0.25918	0.10425	0.17612	0.16847	0.19677	0.14208	0.21288	0.060805	0.19626	0.18631	0.20443	-3.1625	-3.0104	-3.2792	-3.5083	-3.0938	-3.4229	-3.6646	-3.1833	-3.4688	-2.8875	-3.35	-3.525	-3.2354	-3.5146	-3.4042	-3.4	166.935	208.468	277.818	0.496	135.693	14.481	126.302	230.859	43.462	321.936	7.810	319.009	88.858	-24.677	272.781	165.691	0.00092259	0.00095889	0.00015142	1378.7	3.8263e-06	6.8161e-06	1374.9	373	8.7188e-06	2.4364e-06	426.19	142.62	124.36	42.424	3.1737e-06	52.721	0.0006326	0.00064109	0.00017873	1406.1	6.9791e-06	6.9696e-06	1400.3	382.11	6.8707e-06	6.9279e-06	435.86	146.62	127.44	43.888	6.7847e-06	54.289	330.005	66.370	41.483	-14.994	181.872	134.375	-15.109	-10.309	99.744	179.180	-11.012	-6.205	-5.716	-1.570	85.544	-2.182	-8191	255	
765.020	1	1	0	0	0.14966	0.066073	0.10475	0.097606	0.077661	0.13379	0.12279	0.24107	0.21225	0.24902	0.094679	0.1651	0.08266	0.10642	0.21434	0.3718	-2.9437	-3.0771	-3.2417	-3.4625	-3.1625	-3.3563	-3.4479	-3.2396	-3.3375	-3.3667	-3.3854	-3.4729	-3.3417	-3.4125	-3.0875	-3.2313	123.039	78.714	79.248	-19.333	15.334	326.140	320.576	280.509	218.566	37.108	226.215	18.252	94.296	-22.866	120.520	265.229	0.00058635	0.00042004	0.00021513	1382.4	9.9042e-07	6.9321e-06	1379.3	373.96	2.1167e-06	2.7455e-06	426.42	142.7	123.83	42.508	3.731e-06	52.466	0.00062336	0.00062304	0.00017289	1406.6	6.6439e-06	6.6532e-06	1401	381.73	6.5317e-06	6.5487e-06	435.07	146.3	127.08	43.817	6.6525e-06	54.136	321.596	24.024	75.246	-14.733	132.346	153.481	-15.165	-10.213	9.786	276.545	-10.983	-6.428	-5.704	-1.604	109.153	-2.183	-8191	255	
765.116	1	1	0	0	0.1118	0.056151	0.16941	0.32876	0.039571	0.11769	0.35154	0.19657	0.14348	0.32729	0.22913	0.2599	0.12745	0.23828	0.27412	0.27248	-3.3146	-3.2333	-3.1729	-3.5333	-3.1292	-3.4333	-3.3083	-3.2104	-3.4292	-3.1021	-3.3479	-3.5938	-3.3125	-3.3688	-3.2521	-3.5	25.283	182.553	230.272	13.666	133.351	274.447	-12.862	-10.017	240.429	187.103	323.027	-15.407	258.404	286.648	38.576	244.318	0.00059398	0.00045271	0.00014401	1375.7	2.8307e-06	4.9718e-06	1379.5	375.71	2.0853e-06	4.7203e-06	427.69	143.4	124.54	42.56	2.4597e-06	52.718	0.0006276	0.00063427	0.00017755	1411.6	7.1134e-06	7.1504e-06	1403.9	383.74	7.2691e-06	7.2354e-06	437.55	147.06	128.2	44.1	7.249e-06	54.493	320.554	77.180	104.670	-15.110	118.721	146.225	-15.018	-10.156	179.854	108.671	-10.947	-6.521	-6.042	-1.502	181.229	-2.466	-8191	255	
765.213	1	1	0	0	0.069407	0.16344	0.17042	0.19097	0.23056	0.27548	0.042694	0.20316	0.091579	0.089549	0.277	0.10093	0.22871	0.19548	0.3023	0.13132	-3.0917	-3.2562	-3.1042	-3.3458	-3.4771	-3.3125	-3.65	-3.2021	-3.3958	-3.3063	-3.3208	-3.5312	-3.3438	-3.3063	-3.3104	-3.2812	196.065	323.596	262.180	242.376	17.597	264.527	170.937	-20.659	27.582	149.860	-23.906	5.447	205.755	-27.414	40.485	186.610	0.0006022	0.00048593	0.00020831	1382	3.9116e-06	8.7907e-06	1377.4	374.55	2.4845e-06	5.8735e-06	428.35	143.09	124.69	42.696	4.3625e-06	52.914	0.00066399	0.00065669	0.00018104	1413.8	7.1414e-06	7.0426e-06	1404.8	383.46	7.026e-06	6.9748e-06	436.78	146.8	127.74	43.969	6.8319e-06	54.351	325.451	38.140	77.543	-14.940	132.827	123.611	-15.051	-10.242	238.080	199.487	-10.889	-6.407	-5.628	-1.584	95.224	-2.251	-8191	255	
765.309	1	1	0	0	0.23448	0.08449	0.21141	0.29044	0.11094	0.11588	0.29705	0.25926	0.24305	0.12701	0.17096	0.25686	0.19499	0.15294	0.16059	0.23285	-2.9313	-3.4167	-3.1104	-3.4896	-3.1479	-3.2042	-3.4833	-3.2521	-3.3167	-3.5979	-3.1458	-3.4208	-3.3812	-3.3271	-3.6312	-3.1771	119.486	183.214	33.756	276.179	150.066	269.047	264.011	291.753	41.963	15.437	265.503	249.953	-17.281	24.483	255.386	256.819	0.00070686	0.00059187	0.00010553	1373.3	4.7364e-06	7.7917e-06	1376.6	373.81	3.0293e-06	8.1015e-06	427	142.68	124.2	42.648	7.8135e-06	52.727	0.00062148	0.00061804	0.00017025	1404.9	6.7612e-06	6.7499e-06	1400.6	382.18	6.8051e-06	6.7568e-06	435.61	146.5	127.38	43.918	6.7737e-06	54.256	324.485	104.047	96.935	-15.049	161.766	101.755	-15.035	-10.391	117.531	160.921	-10.978	-6.261	-5.739	-1.417	117.715	-2.247	-8191	255	
765.405	1	1	0	0	0.20704	0.16922	0.05502	0.27395	0.087129	0.17625	0.28987	0.22316	0.38059	0.21217	0.13205	0.10062	0.088713	0.32792	0.13361	0.11205	-2.9792	-3.2146	-2.9229	-3.2417	-3.3187	-3.0229	-3.5563	-3.2396	-3.1896	-3.5375	-3.25	-3.4729	-3.3896	-3.1167	-3.3167	-3.4146	60.003	83.819	113.890	19.159	113.446	287.340	300.855	298.982	327.499	183.667	-24.175	318.648	261.923	211.367	247.800	93.393	0.00054212	0.00054801	0.00023473	1381.3	8.1644e-06	8.5604e-06	1389.1	374.04	1.1122e-05	1.6265e-06	426.63	142.52	125.16	42.526	5.7605e-06	52.697	0.00061824	0.00061271	0.0001704	1407	6.6858e-06	6.6431e-06	1404.4	382.49	6.6608e-06	6.6807e-06	436.56	146.57	127.88	43.926	6.8304e-06	54.288	317.988	29.158	16.365	-14.680	156.468	135.022	-15.225	-10.207	100.411	5.066	-11.045	-6.289	-5.793	-1.544	117.842	-2.305	-8191	255	
765.525	1	1	0	0	0.13194	0.17839	0.12307	0.29023	0.23657	0.22035	0.256	0.22847	0.079021	0.14091	0.32525	0.18402	0.2146	0.20574	0.20186	0.17439	-2.7604	-3.3958	-3.05	-3.4562	-3.325	-3.0396	-3.8125	-3.4667	-3.1396	-3.4062	-3.2417	-3.6813	-3.4354	-3.1125	-3.4417	-3.1937	-14.514	96.555	32.547	270.073	16.846	74.107	276.729	287.079	31.021	-10.635	304.358	331.124	292.380	278.264	242.297	-3.499	0.00065812	0.00035831	0.0001029	1384	4.8567e-06	2.9992e-06	1382.9	373.95	3.3085e-06	1.8024e-06	428.13	142.6	124.41	42.517	6.5352e-06	52.703	0.00063437	0.00063204	0.00017554	1411.7	7.0554e-06	7.0591e-06	1404.4	382.86	7.1888e-06	7.2636e-06	437.59	147.13	128.01	44.068	7.4142e-06	54.521	328.057	71.963	144.521	-14.920	172.683	104.127	-14.867	-10.255	188.534	152.868	-10.812	-6.143	-5.664	-1.486	83.938	-2.259	-8191	255	
765.622	1	1	0	0	0.1228	0.098006	0.14095	0.1355	0.10669	0.15085	0.30094	0.19327	0.1656	0.028583	0.16176	0.16468	0.25216	0.10197	0.035478	0.24904	-2.8333	-3.1229	-3.1833	-3.4458	-3.3854	-3.3292	-3.5583	-3.5292	-3.0208	-3.625	-3.2375	-3.4458	-3.5979	-3.2625	-3.6646	-3.3812	56.994	-16.255	279.765	227.429	178.044	129.753	306.940	321.418	310.378	59.960	300.612	12.663	302.566	109.343	123.694	292.598	0.0006823	0.00068644	0.00020594	1377.4	8.3974e-06	5.6907e-06	1385.5	374.62	5.7951e-06	8.2237e-06	429.16	143.25	125.27	42.902	2.5455e-06	52.938	0.00067572	0.00069094	0.00019235	1420.9	7.6228e-06	7.6007e-06	1410	384.88	7.8782e-06	8.0287e-06	441.74	148.25	129.36	44.594	8.8178e-06	55.244	315.287	51.826	65.334	-15.017	158.683	99.650	-15.014	-10.314	183.265	157.895	-11.008	-6.227	-5.894	-1.714	238.055	-2.484	-8191	255	
765.718	1	1	0	0	0.14451	0.27592	0.16955	0.091751	0.015556	0.085658	0.19291	0.1204	0.24044	0.38707	0.36685	0.11154	0.14162	0.25512	0.22511	0.13646	-2.8083	-3.5812	-3.1167	-3.2146	-3.2958	-3.1333	-3.5438	-3.4167	-3.1813	-3.2896	-3.2833	-3.3125	-3.5896	-3.0938	-3.5375	-3.3187	25.201	214.929	38.746	272.095	66.177	252.451	234.983	163.222	76.578	28.071	308.999	290.636	7.151	-10.604	280.255	173.728	0.00075291	0.00082961	9.7848e-05	1394.9	5.5327e-06	3.441e-06	1400.8	379.98	3.023e-06	4.8004e-06	433.15	144.91	126.28	43.077	2.4099e-06	53.29	0.00081215	0.00083585	0.00023504	1448.6	9.3915e-06	9.4271e-06	1430.7	392.27	9.4241e-06	9.5154e-06	448.35	150.49	131.35	45.066	9.4742e-06	55.713	309.435	45.929	66.555	-14.954	-16.007	225.449	-15.233	-10.492	150.404	62.699	-11.091	-6.327	-5.902	-1.611	246.702	-2.395	-8191	255	
765.812	1	1	0	0	0.10194	0.02013	0.070845	0.052021	0.049816	0.27178	0.21747	0.03982	0.0073384	0.076828	0.28422	0.21103	0.13764	0.2816	0.084216	0.18274	-2.75	-3.3625	-3.3187	-3.1979	-3.4813	-3.1354	-3.5333	-3.4583	-3.1292	-3.4458	-3.2896	-3.2625	-3.5104	-3.1542	-3.3729	-3.4562	-20.862	103.746	204.591	329.099	300.699	101.027	229.625	91.006	146.057	137.572	31.074	-0.190	70.027	294.766	141.056	212.824	0.00073097	0.00072077	9.6658e-05	1396.1	4.6706e-06	1.2655e-05	1404.1	380.34	9.0358e-06	5.3531e-06	433.39	144.97	126.88	43.486	3.2512e-06	53.929	0.0008555	0.00087729	0.00024538	1458.5	9.6793e-06	9.6741e-06	1436.2	392.92	9.8825e-06	1.0101e-05	448.87	151.21	132.27	45.603	1.0759e-05	56.713	324.284	49.512	66.341	-15.011	193.235	172.386	-14.781	-10.428	128.887	121.123	-10.877	-6.495	-5.908	-1.551	202.641	-2.638	-8191	255	
765.933	1	1	0	0	0.089159	0.14449	0.033337	0.11563	0.18146	0.32699	0.15637	0.08771	0.11118	0.22437	0.17548	0.18656	0.12541	0.17069	0.13375	0.055829	-2.8271	-3.3042	-3.4104	-3.0354	-3.6312	-3.1688	-3.4604	-3.4958	-3.2958	-3.325	-3.4958	-3.325	-3.4167	-3.1833	-3.3396	-3.4542	264.902	32.557	35.395	239.022	70.663	-21.985	320.847	92.853	96.312	168.052	-5.630	243.781	285.470	-12.030	294.378	139.123	0.00078542	0.00061101	0.00011873	1427.5	6.8799e-06	8.474e-06	1432.4	390.89	9.2489e-06	6.9755e-06	443.74	149.22	131.04	44.704	1.0177e-05	55.018	0.00097914	0.0010171	0.00028309	1494.7	1.1319e-05	1.138e-05	1470	405.27	1.1424e-05	1.1579e-05	463.1	156.46	137	47.058	1.1464e-05	57.92	-9.313	54.961	76.215	-15.038	133.017	196.613	-15.103	-10.466	128.516	125.161	-10.931	-6.385	-6.041	-1.663	165.119	-2.534	-8191	255	
766.004	1	1	0	0	0.10421	0.24774	0.082473	0.30731	0.011916	0.15154	0.25525	0.18025	0.074296	0.10246	0.080151	0.070615	0.061197	0.073494	0.31696	0.19325	-2.7042	-3.3937	-3.3542	-3.0958	-3.5021	-3.3229	-3.3937	-3.575	-3.1583	-3.5563	-3.4125	-3.3271	-3.4896	-3.3729	-3.1375	-3.5396	69.876	61.212	75.926	297.369	8.195	143.425	250.487	275.404	245.827	228.182	298.402	-19.952	70.700	-27.316	8.394	280.223	0.00081677	0.00099	0.00016388	1429	5.8183e-06	4.9401e-06	1429.4	387.15	6.2201e-06	4.7386e-06	438.33	146.92	128.45	43.845	7.4398e-06	54.159	0.001019	0.0010391	0.00028497	1498.9	1.1051e-05	1.0941e-05	1466	401.86	1.0607e-05	1.0606e-05	456.4	153.29	133.86	45.946	1.029e-05	56.679	321.222	83.210	55.036	-14.860	79.106	179.108	-15.046	-10.403	190.672	68.069	-11.039	-6.425	-5.935	-1.695	99.970	-2.513	-8191	255	
766.101	1	1	0	0	0.2466	0.17547	0.059289	0.43874	0.051232	0.19961	0.16219	0.17655	0.083604	0.13164	0.11058	0.16898	0.30733	0.18036	0.19604	0.30391	-2.6979	-3.1875	-3.3583	-3.0125	-3.3896	-3.1896	-3.5	-3.5875	-3.0104	-3.2854	-3.6292	-2.9479	-3.525	-3.3438	-3.0375	-3.5896	67.595	322.090	-17.516	307.430	206.396	130.248	248.417	277.521	59.280	-10.976	294.034	300.932	-22.439	286.395	-10.937	324.294	0.00084572	0.00048527	0.00018589	1410.4	4.386e-06	3.3946e-06	1413.3	384.36	5.4772e-06	1.65e-05	438.21	148.71	130.29	44.533	9.0897e-06	54.817	0.00092476	0.00094843	0.00026338	1474.2	1.05e-05	1.0506e-05	1450.1	398.95	1.0815e-05	1.0975e-05	456.99	155	135.99	46.969	1.1402e-05	57.842	314.207	280.630	-10.970	-14.739	188.524	125.427	-15.112	-10.538	135.494	97.341	-10.945	-6.414	-6.038	-2.156	118.842	-2.380	-8191	255	
766.197	1	1	0	0	0.10012	0.14993	0.08093	0.23265	0.1156	0.22202	0.30535	0.23641	0.054541	0.19079	0.13415	0.19288	0.19518	0.38454	0.20208	0.10292	-2.775	-3.1417	-3.4125	-3.0062	-3.3167	-3.1979	-3.4604	-3.3229	-3.3104	-3.1146	-3.5521	-3.05	-3.4958	-3.5167	-3.0208	-3.7438	112.233	260.559	12.386	37.199	230.415	63.546	254.230	275.754	276.351	-15.884	13.751	298.959	254.883	-4.698	197.812	-1.088	0.00079788	0.00043786	0.00013095	1419	9.0631e-06	5.3403e-06	1429.7	391.29	7.0019e-06	7.2206e-06	445.14	150.98	131.39	45.082	4.6369e-06	54.908	0.0010432	0.0010641	0.00029516	1496.2	1.1608e-05	1.1602e-05	1468	406.25	1.1341e-05	1.1324e-05	463.47	157.28	137.21	47.326	1.0769e-05	57.813	322.930	-13.941	34.291	-14.916	150.141	109.324	-15.240	-10.420	136.656	125.142	-11.011	-6.631	-5.801	-1.762	63.772	-2.663	-8191	255	
766.317	1	1	0	0	0.1177	0.24257	0.16699	0.082247	0.12045	0.090448	0.4679	0.11035	0.17492	0.15655	0.046213	0.065261	0.18961	0.10579	0.21021	0.24389	-2.7208	-3.1688	-3.3479	-3.2083	-3.2583	-3.3479	-3.2604	-3.3875	-3.2062	-3.3458	-3.5875	-3	-3.4917	-3.3375	-3.1292	-3.4646	170.760	186.228	27.744	287.347	298.674	302.647	231.804	282.385	231.579	9.583	-4.090	149.589	302.075	46.037	181.820	263.460	0.00061935	0.0011554	0.00024519	1417.8	4.9987e-06	3.6568e-06	1422.9	386.65	2.3029e-06	7.7782e-06	440.08	148.2	129.74	44.159	9.6875e-06	54.252	0.00096669	0.00097462	0.00027006	1487.1	1.0758e-05	1.0593e-05	1459.1	401.05	1.0718e-05	1.0885e-05	458.22	154.92	135.48	46.529	1.1086e-05	57.323	318.985	75.915	85.209	-15.132	211.605	206.822	-14.988	-10.470	84.887	88.414	-11.143	-6.384	-5.752	-1.752	110.709	-2.407	-8191	255	
766.414	1	1	0	0	0.21311	0.20998	0.21006	0.1946	0.27332	0.13436	0.21705	0.24257	0.095337	0.081698	0.11022	0.12835	0.074936	0.27065	0.23194	0.14562	-2.8833	-3.0354	-3.4792	-3.1396	-3.2917	-3.2542	-3.4479	-3.4562	-3.2125	-3.0896	-3.5062	-3.3042	-3.3333	-3.4729	-3.1646	-3.3354	196.339	267.826	311.709	-3.197	66.889	197.502	201.461	231.595	11.133	52.314	-26.125	238.935	81.033	205.210	225.141	269.069	0.00044356	0.00025986	0.00013877	1426.2	7.4089e-06	4.3662e-06	1429.6	388.62	2.1643e-06	6.4833e-07	441.21	148.45	129.13	44.023	3.7162e-06	54.132	0.0010124	0.0010249	0.00028748	1498.1	1.1284e-05	1.1244e-05	1467.8	403.15	1.093e-05	1.0853e-05	459.04	154.42	134.55	46.127	1.0199e-05	56.694	314.855	25.649	43.527	-14.977	174.173	111.436	-15.058	-10.401	217.315	167.659	-10.822	-6.670	-5.909	-1.609	155.486	-2.596	-8191	255	
766.510	1	1	0	0	0.20326	0.054179	0.087804	0.16662	0.12569	0.011506	0.29437	0.021938	0.17807	0.078586	0.19167	0.0086102	0.03442	0.1326	0.17784	0.15506	-2.7667	-3.1042	-3.225	-3.3063	-3.1479	-3.1708	-3.3812	-3.4521	-3.3312	-3.0563	-3.5792	-3.5312	-3.1292	-3.65	-3.1854	-3.4458	124.315	228.137	15.812	283.735	280.075	18.908	275.422	252.788	197.939	237.679	282.571	86.314	240.744	242.294	218.744	178.848	0.00066633	0.00066453	0.00029536	1406.8	4.9093e-06	1.8661e-06	1408.4	381.4	2.2614e-06	1.3146e-06	432.77	145.36	125.95	43.091	7.1081e-06	53.028	0.00090059	0.00089714	0.00024708	1465.3	9.4791e-06	9.2562e-06	1436.8	392.24	9.0723e-06	8.9118e-06	446.8	149.95	130.43	44.893	8.9376e-06	55.41	312.520	57.975	78.263	-15.012	111.888	-15.407	-15.143	-10.287	324.924	118.140	-10.775	-6.131	-5.907	-1.324	65.689	-2.190	-8191	255	
766.606	1	1	0	0	0.16433	0.075053	0.19443	0.15044	0.054335	0.11055	0.35098	0.24927	0.046471	0.16664	0.066597	0.24862	0.10656	0.11263	0.24586	0.18821	-2.9979	-3.1312	-3.4375	-3.2771	-3.2479	-3.3604	-3.4729	-3.3937	-3.2521	-3.0729	-3.6625	-3.35	-3.3521	-3.475	-3.3104	-3.2292	130.422	151.129	277.817	240.274	191.844	8.009	272.878	229.537	164.274	292.377	279.681	309.813	271.825	49.972	53.230	-19.015	0.00069406	0.00085657	0.00016579	1397.1	1.5589e-06	5.4392e-06	1405.6	378.62	1.4127e-05	5.2939e-06	430.72	144.79	126.13	43.04	5.4919e-06	52.947	0.00080763	0.00081276	0.00022649	1448.8	8.8612e-06	8.8931e-06	1432.1	390.59	8.9104e-06	8.8706e-06	445.82	150.03	130.7	44.893	9.1372e-06	55.468	-23.305	63.364	38.316	-14.507	312.188	95.261	-15.033	-10.245	92.610	114.376	-11.127	-6.458	-5.867	-1.486	116.154	-2.261	-8191	255	
766.702	1	1	0	0	0.15684	0.17365	0.077798	0.1079	0.22109	0.22537	0.12162	0.077279	0.054236	0.11325	0.050263	0.22727	0.053133	0.089264	0.15155	0.060681	-2.9292	-3.0479	-3.4667	-3.3854	-3.0875	-3.3854	-3.3688	-3.4229	-3.4375	-3.2146	-3.4354	-3.4667	-3.2479	-3.3417	-3.125	-3.4208	88.013	48.624	219.945	12.606	177.785	306.368	230.597	273.755	174.150	182.025	156.839	289.383	57.216	66.632	-20.573	-2.050	0.00067866	0.0007972	0.00016173	1399.4	3.9647e-06	8.4066e-06	1398.1	380.58	1.4324e-06	8.1233e-06	431.33	145.57	126.52	43.39	7.2595e-06	53.502	0.00083788	0.00084595	0.00024119	1455.5	9.4257e-06	9.5474e-06	1433.4	392.22	9.5398e-06	9.6664e-06	447.14	150.73	131.55	45.4	9.7718e-06	56.003	-22.901	57.065	59.024	-15.206	117.567	157.918	-14.997	-10.357	88.766	170.467	-10.921	-6.376	-5.696	-1.530	101.448	-2.441	-8191	255	
766.798	1	1	0	0	0.19276	0.075875	0.010733	0.070225	0.0581	0.090877	0.23628	0.15028	0.094158	0.061016	0.099231	0.37614	0.089837	0.20212	0.18865	0.079787	-2.9833	-3.0333	-3.3917	-3.2292	-3.225	-3.4146	-3.4583	-3.2354	-3.5229	-3.0146	-3.625	-3.4333	-3.1396	-3.5396	-3.1667	-3.1708	77.779	68.448	107.920	232.980	310.664	98.247	248.460	276.821	116.705	227.433	112.171	312.246	263.506	270.357	225.942	307.093	0.00066524	0.00079002	0.00011477	1390.7	3.7321e-06	1.2701e-05	1395.6	378.15	2.3132e-06	4.0994e-06	430.92	144.8	124.95	42.954	8.054e-06	52.991	0.00086831	0.00086216	0.00023912	1445.1	8.8064e-06	8.591e-06	1424.3	387.84	7.9129e-06	7.7399e-06	441.24	148.79	129.21	44.553	7.6473e-06	54.916	325.309	26.292	147.168	-14.812	92.393	145.342	-15.051	-10.268	196.204	123.830	-10.722	-6.491	-5.857	-1.596	134.238	-2.127	-8191	255	
766.894	1	1	0	0	0.19851	0.11077	0.15169	0.19874	0.07216	0.22592	0.11178	0.12705	0.19412	0.1408	0.15615	0.054413	0.14346	0.19772	0.13309	0.016717	-3.0583	-3.1729	-3.3396	-3.5917	-3.0062	-3.3812	-3.5292	-3.1562	-3.5729	-3.0958	-3.3021	-3.3354	-3.3312	-3.2521	-3.3417	-3.1104	-21.839	206.857	50.893	230.524	308.910	306.196	261.214	240.321	267.006	127.967	282.998	290.992	70.708	225.851	181.592	281.112	0.0006908	0.00080769	0.00032387	1384.3	8.2531e-06	1.0953e-05	1389.2	375.53	6.1632e-06	8.7698e-06	426.75	144.15	126.11	43.027	8.5521e-06	53.228	0.00069443	0.00069748	0.00019489	1421.8	7.483e-06	7.4895e-06	1413.9	385.27	7.4195e-06	7.4187e-06	439.52	148.3	129.46	44.658	7.8663e-06	55.13	-27.596	51.067	41.337	-15.148	141.428	129.219	-15.055	-10.229	143.115	124.219	-10.766	-6.528	-5.711	-1.435	110.627	-2.474	-8191	255	
767.013	1	1	0	0	0.048772	0.053121	0.072732	0.213	0.34318	0.036821	0.12573	0.39516	0.12712	0.28281	0.052316	0.15998	0.11663	0.38719	0.13324	0.21692	-3.0479	-3.1167	-3.1625	-3.3792	-3.1229	-3.5708	-3.4604	-3.2833	-3.5833	-3.1875	-3.4083	-3.6833	-3.1375	-3.6562	-3.3167	-3.1896	2.637	171.448	283.964	270.022	-26.844	300.717	302.166	275.895	-20.161	294.600	241.264	-10.286	-19.560	263.797	179.224	320.940	0.00084649	0.00079002	0.00026234	1386.7	1.0576e-05	8.2128e-06	1395.5	377.49	3.4525e-06	6.3186e-06	428.67	143.97	126.45	42.818	1.8564e-06	53.011	0.00072712	0.00073638	0.00020385	1430.4	7.9381e-06	7.8908e-06	1421.4	386.6	7.5402e-06	7.4464e-06	439.87	148.24	129.18	44.358	6.9534e-06	54.662	322.510	21.965	27.559	-14.961	72.751	98.785	-15.095	-10.287	178.111	124.066	-10.736	-6.123	-5.766	-1.589	95.355	-2.350	-8191	255	
767.109	1	1	0	0	0.16359	0.22019	0.14852	0.086022	0.048304	0.10336	0.54816	0.31119	0.071609	0.07009	0.099995	0.079255	0.23576	0.1576	0.17676	0.21419	-2.8271	-3.3563	-3.2687	-3.7062	-2.9896	-3.5187	-3.4813	-3.2229	-3.2708	-3.3146	-3.175	-3.625	-3.1854	-3.2958	-3.4979	-3.0375	-13.159	71.566	233.270	-16.202	132.579	279.001	257.723	327.014	239.320	238.471	212.114	216.525	285.435	-24.777	69.764	-19.097	0.00056308	0.00037379	0.00012558	1388.5	2.9644e-06	3.682e-06	1394.5	376.53	3.7384e-06	6.886e-06	428.93	145.07	126.25	43.102	7.6228e-06	53.33	0.00063035	0.00062495	0.0001752	1419.3	6.9057e-06	7.0526e-06	1416.7	386.14	7.1506e-06	7.1515e-06	439.63	148.78	129.45	44.53	7.2094e-06	54.909	328.173	9.063	13.070	-14.947	130.225	153.009	-14.869	-10.074	62.558	166.569	-11.005	-6.440	-5.813	-1.454	120.450	-2.347	-8191	255	
767.205	1	1	0	0	0.19024	0.075574	0.19371	0.034724	0.11154	0.048245	0.16693	0.40837	0.23033	0.24983	0.061794	0.11095	0.19811	0.084929	0.23853	0.33479	-3.125	-2.9917	-3.2125	-3.3771	-3.2458	-3.1896	-3.5458	-3.2521	-3.55	-3.2583	-3.2125	-3.6917	-3.2021	-3.5438	-3.4167	-3.2875	252.314	223.105	263.999	103.769	292.109	123.104	308.068	286.951	263.471	106.991	-24.558	292.903	293.150	-16.178	138.829	205.348	0.00054889	0.00061496	0.00012602	1391	6.4809e-06	8.2607e-06	1393.4	376.27	6.6153e-06	6.2614e-06	428.44	145.44	126.77	43.106	1.4778e-06	53.131	0.00065399	0.00065398	0.0001821	1422.2	7.1424e-06	7.1594e-06	1414.8	385.42	7.0591e-06	7.0827e-06	439.92	149.08	129.72	44.69	7.0808e-06	54.946	329.156	63.161	8.968	-14.858	143.036	145.971	-14.795	-10.241	128.219	90.155	-10.743	-6.160	-5.843	-1.622	118.745	-2.603	-8191	255	
767.302	1	1	0	0	0.1711	0.12036	0.083399	0.032447	0.1618	0.32637	0.17066	0.025442	0.23321	0.15206	0.11523	0.087261	0.17868	0.20076	0.19645	0.027475	-3.0146	-3.1	-3.25	-3.475	-3.2417	-3.1458	-3.5083	-3.2062	-3.3937	-3.4479	-3.2771	-3.6396	-3.2687	-3.2625	-3.5542	-3.1688	212.405	11.001	307.931	120.581	82.391	57.399	234.328	292.915	149.986	39.365	300.958	31.658	52.574	320.842	153.163	139.329	0.00088116	0.0005243	0.00017163	1393.8	5.7067e-06	4.595e-06	1393.9	379.63	7.5141e-06	3.2195e-06	430.91	145.38	126.75	43.233	3.8011e-06	53.109	0.00065225	0.00064897	0.00018237	1425.9	7.156e-06	7.2382e-06	1418.4	387.89	7.3797e-06	7.3634e-06	441.6	149.52	130.14	44.608	7.1489e-06	54.762	330.547	50.393	46.047	-15.161	237.525	103.684	-14.945	-10.265	136.931	206.570	-10.751	-6.577	-6.026	-1.593	123.773	-2.453	-8191	255	
767.398	1	1	0	0	0.072305	0.082249	0.18988	0.16786	0.18335	0.13676	0.27582	0.31481	0.066726	0.22949	0.13887	0.1529	0.12157	0.42229	0.19469	0.37676	-2.9229	-3.3937	-3.0604	-3.3667	-3.2729	-3.2958	-3.5292	-3.3375	-3.2521	-3.4167	-3.3	-3.5625	-3.2667	-3.3104	-3.4333	-3.3771	64.627	-9.161	13.133	260.690	183.869	83.241	241.872	238.417	278.156	330.048	321.790	211.388	324.203	321.658	326.564	5.685	0.00093071	0.00024406	0.0002602	1390.3	2.757e-06	4.5528e-06	1391.5	376.86	5.6445e-06	5.6255e-06	429.87	145.78	125.93	43.108	3.1607e-06	53.239	0.0006433	0.00064378	0.00017748	1420.1	7.099e-06	6.9706e-06	1415.4	386.39	7.0556e-06	6.966e-06	440.97	148.98	129.7	44.51	6.8015e-06	54.852	328.264	10.907	76.423	-15.031	177.381	172.641	-15.033	-10.439	159.542	145.962	-11.028	-6.675	-5.983	-1.491	240.791	-2.449	-8191	255	
767.494	1	1	0	0	0.17229	0.125	0.25443	0.22123	0.26204	0.1358	0.2115	0.15942	0.032478	0.28441	0.30374	0.15203	0.1138	0.24823	0.23089	0.16736	-2.9771	-3.3354	-3.2521	-3.3063	-3.3417	-3.1208	-3.6708	-3.2729	-3.2562	-3.2646	-3.2354	-3.6646	-3.25	-3.2208	-3.4354	-3.2792	168.918	102.393	55.281	11.489	259.900	268.491	287.495	224.391	209.660	231.925	266.828	290.366	-0.964	8.730	96.644	314.888	0.0006514	0.00072177	0.00024772	1388.3	1.6271e-06	9.6208e-06	1391.8	377.74	5.0104e-06	5.3424e-06	429.44	144.86	126	43.019	5.9323e-06	52.871	0.00063141	0.00062759	0.00017498	1419.6	7.0114e-06	7.0515e-06	1416.1	386.66	7.1678e-06	7.173e-06	440.61	148.79	129.41	44.483	7.2495e-06	54.736	322.799	-26.823	107.654	-15.035	265.163	116.280	-15.112	-10.427	67.633	27.632	-11.080	-6.205	-5.867	-1.581	133.021	-2.365	-8191	255	
767.615	1	1	0	0	0.19365	0.1115	0.19836	0.22621	0.11034	0.01245	0.34998	0.20505	0.11614	0.047115	0.16774	0.21656	0.12709	0.20072	0.14932	0.15518	-2.9	-3.3187	-2.9979	-3.5062	-3.45	-3.025	-3.7792	-3.3896	-3.2833	-3.45	-3.3063	-3.475	-3.4042	-3.0854	-3.3083	-3.5396	35.015	1.286	76.494	26.290	77.206	327.130	298.960	318.371	156.731	46.570	-13.692	-26.920	256.307	23.959	25.994	88.948	0.00058911	0.00046469	0.00027858	1383.2	2.5195e-06	3.3545e-06	1391	376.51	4.0942e-06	4.8314e-06	429.64	144.54	125.84	42.868	2.6635e-06	53.022	0.00064875	0.00064842	0.00017691	1417.3	6.9158e-06	6.8514e-06	1413.3	385.13	6.6712e-06	6.599e-06	438.54	147.77	128.59	44.159	6.5239e-06	54.46	316.542	85.915	42.297	-14.893	117.574	90.323	-14.790	-10.348	93.569	120.504	-10.831	-6.128	-5.886	-1.540	146.726	-2.390	-8191	255	
767.709	1	1	0	0	0.43595	0.026984	0.12936	0.099666	0.035986	0.083216	0.41423	0.096373	0.20387	0.22776	0.14838	0.32771	0.095757	0.46986	0.13897	0.17113	-2.5917	-3.4188	-3.0312	-3.3354	-3.3729	-3.0938	-3.7917	-3.5583	-2.9875	-3.4271	-3.2854	-3.3958	-3.4917	-3.0646	-3.35	-3.45	245.549	104.888	212.682	214.615	150.688	99.529	233.044	291.231	302.709	253.638	281.499	308.605	316.375	302.971	155.822	-2.385	0.00053342	0.00087377	0.00025842	1387.7	3.5047e-06	2.8025e-06	1389.3	373.65	5.7153e-06	6.08e-06	427.72	143.83	125.52	42.683	7.5062e-06	52.748	0.00059621	0.0005975	0.00016517	1411.9	6.5499e-06	6.5135e-06	1407.8	383.08	6.5815e-06	6.6235e-06	436.92	147.42	128.46	44.06	6.6216e-06	54.319	315.964	61.961	11.291	-15.234	43.818	139.510	-15.109	-10.290	67.750	115.432	-10.616	-6.486	-5.801	-1.513	173.858	-2.309	-8191	255	
767.805	1	1	0	0	0.14008	0.08655	0.11401	0.12652	0.17902	0.15977	0.17847	0.080675	0.18214	0.17438	0.4699	0.3768	0.18256	0.13807	0.050427	0.27182	-2.7958	-3.3771	-3.2687	-3.3667	-3.3937	-3.1542	-3.6562	-3.275	-3.3	-3.3708	-3.3937	-3.3896	-3.6	-3.1979	-3.3479	-3.5167	154.760	305.477	166.704	251.001	314.821	39.533	232.130	-15.948	146.236	212.612	271.981	271.441	325.020	271.400	253.605	2.742	0.00071137	0.0008632	0.00011717	1384.9	6.7319e-06	5.4686e-06	1388.1	375.64	4.1253e-06	6.3528e-06	428.88	144.32	125.17	42.741	1.0603e-05	52.91	0.00059817	0.00059605	0.00016595	1411.3	6.4296e-06	6.3929e-06	1409.9	383.4	6.2292e-06	6.1867e-06	437.3	147.36	128.09	43.979	6.3378e-06	54.295	-21.076	58.329	35.420	-15.033	156.265	126.072	-14.946	-10.073	164.968	142.444	-11.234	-6.185	-5.889	-1.541	111.695	-2.357	-8191	255	
767.879	1	1	0	0	0.31425	0.062689	0.090767	0.077393	0.13018	0.095217	0.13656	0.27499	0.092407	0.23903	0.28223	0.29041	0.25446	0.15459	0.22305	0.17126	-2.7229	-3.675	-3.2	-3.1875	-3.2271	-3.1292	-3.4521	-3.3854	-3.1979	-3.4771	-3.2667	-3.4083	-3.5187	-3.0875	-3.2667	-3.525	9.375	104.781	158.517	242.628	11.354	295.812	249.356	6.451	16.470	112.100	228.215	321.485	311.347	318.672	281.041	227.478	0.00076692	0.00036648	6.9707e-05	1389.9	4.6569e-06	3.6577e-06	1382.7	376.51	6.3222e-06	3.9597e-06	428.05	143.56	125.28	42.658	9.1468e-06	52.779	0.00057996	0.00058171	0.00016437	1408.8	6.5279e-06	6.5171e-06	1408.1	384.03	6.5618e-06	6.6074e-06	437.06	147.42	128.19	44.098	6.6066e-06	54.365	305.973	-8.136	1.307	-15.079	176.373	104.606	-14.978	-10.307	157.591	89.678	-10.836	-6.225	-5.648	-1.251	147.652	-2.154	-8191	255	
767.997	1	1	0	0	0.047773	0.10536	0.060861	0.11243	0.17981	0.31213	0.33932	0.20577	0.053871	0.064948	0.081571	0.18982	0.083348	0.17092	0.1403	0.17022	-2.7146	-3.4646	-3.1729	-3.0729	-3.375	-3.0729	-3.5729	-3.4708	-2.9417	-3.4313	-3.2521	-3.0729	-3.4938	-3.2042	-3.2354	-3.4562	66.133	-14.677	295.965	265.638	262.103	292.639	268.940	264.640	127.021	324.687	61.484	-7.629	2.760	331.025	137.164	215.249	0.00069552	0.00081602	0.00014152	1386.6	7.4633e-06	4.4354e-06	1387.2	375.43	3.9709e-06	4.9549e-06	429.34	144.22	125.46	42.824	9.4527e-06	52.759	0.00059218	0.00059298	0.00016444	1408.8	6.4367e-06	6.3704e-06	1408.9	383.24	6.3148e-06	6.3808e-06	437.39	147.39	128.31	44.037	6.4213e-06	54.331	323.069	46.537	107.525	-15.001	104.080	140.967	-14.810	-10.480	105.338	116.271	-11.099	-6.392	-5.693	-1.438	126.381	-2.223	-8191	255	
768.094	1	1	0	0	0.31385	0.2356	0.094464	0.051884	0.17775	0.11702	0.20987	0.18329	0.16387	0.25393	0.17961	0.29024	0.33498	0.046698	0.18191	0.29071	-2.6646	-3.2854	-3.2167	-3.1562	-3.425	-3.1562	-3.4604	-3.5271	-3.3104	-3.2583	-3.4271	-3.1688	-3.6104	-3.3812	-3.1646	-3.4542	27.643	187.786	175.017	134.423	180.390	281.648	219.555	-23.816	257.327	98.850	292.755	237.475	303.129	317.062	198.067	228.796	0.00071385	0.00035928	0.00023816	1391.5	2.9201e-06	4.3866e-06	1388.2	376.92	6.475e-06	3.6779e-06	428.32	144.13	125.14	42.778	4.9531e-06	52.798	0.00058841	0.00059493	0.0001666	1411.2	6.6386e-06	6.5947e-06	1410.7	384.19	6.6751e-06	6.7227e-06	438.33	147.66	128.5	44.106	6.678e-06	54.391	320.120	79.250	72.494	-14.918	70.118	139.718	-15.088	-10.350	192.665	162.787	-11.045	-6.532	-5.742	-1.427	63.229	-2.169	-8191	255	
768.190	1	1	0	0	0.14705	0.042335	0.30089	0.10917	0.077409	0.096169	0.1579	0.18646	0.046153	0.089558	0.22143	0.15558	0.17301	0.11011	0.19113	0.21299	-2.6417	-3.2313	-3.3312	-3.0979	-3.3771	-3.1292	-3.4208	-3.65	-3.3208	-3.3187	-3.5187	-3.1792	-3.4396	-3.2521	-3.1917	-3.5312	-7.265	111.920	60.325	239.674	230.213	316.723	263.700	282.081	73.052	129.768	255.096	97.877	247.170	140.992	240.805	317.823	0.00067469	0.00094355	0.00014111	1386.6	4.1334e-06	5.7335e-06	1387.3	374.76	6.7231e-06	4.8864e-06	427.82	144.07	125.13	42.574	6.3121e-06	52.689	0.00060331	0.0006005	0.00016693	1411.2	6.4873e-06	6.4458e-06	1408.8	383.5	6.3015e-06	6.361e-06	436.68	147.34	128.26	43.987	6.3641e-06	54.303	319.241	79.086	6.182	-14.898	148.246	154.357	-14.923	-10.397	99.848	168.242	-10.731	-6.292	-5.782	-1.659	140.625	-2.203	-8191	255	
768.286	1	1	0	0	0.053827	0.061802	0.11466	0.059915	0.22373	0.15714	0.17642	0.12091	0.11223	0.26142	0.12788	0.034429	0.37609	0.33063	0.16199	0.028054	-2.7583	-3.3417	-3.4062	-3.1312	-3.4729	-3.1917	-3.4562	-3.3271	-3.2188	-3.1854	-3.5104	-3.2729	-3.5875	-3.2792	-3.0729	-3.6208	226.399	33.239	140.988	142.821	236.715	128.207	285.672	269.189	20.559	11.079	-7.105	284.701	290.092	286.386	286.062	236.351	0.00061876	0.00024832	0.00015788	1390	1.7914e-06	4.5644e-06	1384.3	375.52	9.52e-06	1.5957e-06	427.93	143.76	124.71	42.86	5.9895e-06	52.643	0.00058302	0.00058529	0.00016323	1412	6.4454e-06	6.3974e-06	1406.9	383.9	6.427e-06	6.3967e-06	437.04	147.16	128.17	43.996	6.1682e-06	54.146	315.128	57.027	31.279	-14.828	132.729	129.772	-14.971	-10.362	173.102	320.687	-10.834	-6.383	-5.633	-1.459	108.408	-2.225	-8191	255	
768.406	1	1	0	0	0.10374	0.12314	0.10833	0.17372	0.077344	0.23962	0.34017	0.055425	0.33659	0.13964	0.15571	0.24871	0.25694	0.1354	0.067614	0.08554	-2.85	-3.0625	-3.3167	-3.3083	-3.3167	-3.4583	-3.2104	-3.6396	-3.2313	-3.1875	-3.6125	-3.35	-3.2979	-3.4333	-3.1083	-3.5042	26.875	20.944	142.140	76.946	-18.137	-7.427	246.420	198.784	82.904	170.457	112.006	325.795	291.005	323.458	137.874	-7.763	0.0007818	0.00044485	0.0001932	1383.8	6.7839e-06	6.4795e-06	1388.1	374.59	6.0739e-06	5.4407e-06	426.5	143.29	124.44	42.352	7.5218e-06	52.664	0.00055766	0.00055327	0.00015085	1402.8	5.9008e-06	5.8087e-06	1403.9	381.87	5.8196e-06	5.8444e-06	434.62	146.55	127.23	43.679	5.8913e-06	53.914	329.027	26.387	18.890	-15.094	63.107	137.127	-14.981	-10.385	93.992	84.573	-10.870	-6.311	-5.734	-1.415	125.769	-2.288	-8191	255	
768.478	1	1	0	0	0.30601	0.19524	0.12438	0.25063	0.14573	0.27398	0.17106	0.15067	0.19529	0.069342	0.29905	0.071445	0.13284	0.1134	0.14535	0.09669	-2.7	-3.2021	-3.4688	-3.1917	-3.475	-3.35	-3.3229	-3.6188	-3.2292	-3.2062	-3.775	-3.2292	-3.6	-3.5646	-3.0542	-3.6167	-14.873	114.705	160.525	-5.227	163.439	83.788	293.694	241.675	237.370	294.462	175.139	293.146	306.123	278.025	152.279	245.376	0.00084606	0.00058744	4.4357e-05	1372.1	6.0713e-06	7.4631e-06	1385.6	374.11	5.8415e-06	5.0772e-06	425.35	143.08	124.76	42.401	2.1748e-06	52.685	0.00055072	0.0005529	0.00015602	1402	6.2005e-06	6.2321e-06	1405.6	381.78	6.4022e-06	6.4442e-06	435.99	146.62	127.67	43.784	6.3695e-06	54.123	330.290	76.484	-8.394	-14.875	97.807	192.152	-15.213	-10.266	149.650	87.176	-10.790	-6.403	-5.838	-1.352	243.792	-2.281	-8191	255	
768.574	1	1	0	0	0.084856	0.10378	0.14524	0.34981	0.17215	0.35213	0.18577	0.38446	0.088951	0.25838	0.21766	0.24016	0.18989	0.22685	0.11679	0.1513	-2.8229	-3.125	-3.55	-3.2417	-3.3063	-3.5292	-3.3688	-3.5875	-3.2146	-3.1771	-3.5021	-3.1417	-3.3229	-3.45	-3.2146	-3.4375	196.904	148.916	152.153	323.069	231.517	261.077	242.850	313.429	156.210	203.324	319.209	252.917	321.975	325.458	152.477	268.853	0.00079784	0.00069848	0.00015896	1384.4	5.5285e-06	4.9656e-06	1383.1	374.84	5.8429e-06	6.8428e-06	428.51	143.4	124.88	42.427	2.8742e-06	52.629	0.00058429	0.00057691	0.00016043	1409.2	6.3142e-06	6.2606e-06	1404.8	383.22	6.2283e-06	6.2494e-06	436.22	146.55	127.64	43.782	6.2412e-06	54.006	316.711	84.894	44.859	-14.883	136.491	104.051	-15.069	-10.198	178.081	147.472	-10.902	-6.304	-5.618	-1.559	190.249	-2.197	-8191	255	
768.695	1	1	0	0	0.12699	0.11655	0.20687	0.10435	0.24295	0.23916	0.25224	0.41785	0.0626	0.09187	0.20593	0.12677	0.24933	0.26439	0.084852	0.36765	-2.8042	-3.1688	-3.4083	-3.2458	-3.2333	-3.2917	-3.2875	-3.5875	-3.3292	-3.0792	-3.675	-3.3187	-3.4042	-3.5646	-3.4625	-3.3542	87.809	285.518	132.543	97.769	31.325	90.256	265.001	283.582	-14.097	149.603	246.702	277.939	-1.360	186.823	188.302	239.485	0.00085563	0.00041906	0.00029068	1384.2	4.1648e-06	8.1273e-06	1383.6	373.75	1.1496e-05	2.0563e-06	427.4	142.98	124.67	42.467	4.4247e-06	52.512	0.00058092	0.00057156	0.00016125	1408.9	6.3414e-06	6.3453e-06	1403.5	382.33	6.2669e-06	6.2361e-06	435.48	146.26	127.37	43.705	6.1336e-06	53.869	324.913	75.651	83.998	-14.777	117.601	141.306	-15.057	-10.135	137.555	53.199	-10.801	-6.227	-5.677	-1.514	160.884	-2.251	-8191	255	
768.789	1	1	0	0	0.067513	0.12763	0.17072	0.14301	0.12014	0.040707	0.36231	0.11372	0.01257	0.15139	0.11284	0.26003	0.17803	0.15874	0.30067	0.3063	-3.0187	-3.1458	-3.4771	-3.1729	-3.3792	-3.6188	-3.3479	-3.4146	-3.4125	-3.1604	-3.6063	-3.2875	-3.2542	-3.4396	-3.2562	-3.2417	106.706	61.001	9.007	53.691	283.347	77.126	279.151	302.800	167.120	193.308	281.974	275.864	285.037	-12.788	114.139	241.612	0.00062752	0.00066823	3.892e-05	1387.4	4.2152e-06	2.6583e-06	1382.8	373.34	4.8553e-06	1.7258e-06	426.47	143.14	124.59	42.347	3.4116e-06	52.576	0.00055656	0.00055333	0.00015517	1404	5.9996e-06	5.9761e-06	1402.1	381.61	5.982e-06	5.9895e-06	434.95	146.24	127.21	43.674	6.1172e-06	53.924	324.497	77.717	324.872	-14.999	122.639	133.565	-15.020	-9.994	85.760	178.557	-11.149	-6.072	-5.925	-1.486	125.257	-1.900	-8191	255	
768.887	1	1	0	0	0.056709	0.16066	0.10475	0.16265	0.15808	0.061444	0.033282	0.37472	0.16912	0.013759	0.33937	0.20561	0.30397	0.1962	0.1393	0.090336	-2.925	-3.2562	-3.3229	-3.5563	-3.0167	-3.5	-3.5354	-3.4708	-3.5896	-3.3396	-3.5438	-3.4917	-3.1854	-3.5208	-3.1917	-3.3083	233.436	41.066	23.268	313.496	139.418	273.230	253.466	279.992	4.384	-7.493	321.080	289.085	307.111	296.817	77.355	-11.860	0.00064088	0.00067156	5.9578e-05	1379.7	8.2371e-06	7.5781e-06	1384.7	375.37	4.4582e-06	5.767e-06	426.95	142.27	124.15	42.523	8.0482e-06	52.317	0.0005658	0.00056248	0.00015753	1403.2	6.1641e-06	6.1667e-06	1402.6	381.96	6.1067e-06	6.1127e-06	434.93	145.93	127.2	43.608	6.0808e-06	53.881	320.169	50.689	-6.257	-15.035	143.211	54.904	-14.979	-10.091	82.830	76.812	-10.960	-6.278	-5.910	-1.313	75.238	-2.074	-8191	255	
769.006	1	1	0	0	0.12776	0.30172	0.25215	0.055018	0.26503	0.23414	0.29335	0.26487	0.11155	0.096602	0.28795	0.15317	0.18642	0.12459	0.36585	0.091805	-2.9313	-3.2062	-3.2313	-3.4354	-3.2146	-3.4313	-3.4583	-3.225	-3.5396	-3.2438	-3.4	-3.4437	-3.4458	-3.5312	-3.3	-3.2021	166.691	180.801	283.945	39.923	277.890	233.499	318.225	285.610	58.423	77.772	196.925	127.328	-16.936	274.651	140.483	248.820	0.00069192	0.00016107	0.00021286	1383.7	2.8799e-06	2.609e-06	1383.4	374.18	6.5396e-06	4.061e-06	427.49	143.2	124.44	42.504	8.8784e-06	52.527	0.00055676	0.00054906	0.00015502	1404.2	6.0508e-06	6.1201e-06	1403.2	381.34	6.0909e-06	6.1179e-06	435.08	146.07	127.08	43.651	6.2123e-06	53.904	322.771	-23.110	44.976	-15.269	96.384	181.298	-14.930	-10.223	199.629	130.538	-10.875	-6.154	-5.757	-1.547	47.358	-2.083	-8191	255	
769.102	1	1	0	0	0.12961	0.31588	0.14114	0.052396	0.099115	0.14833	0.13494	0.37779	0.18107	0.082492	0.21322	0.042022	0.27009	0.079074	0.14993	0.52528	-3.2979	-2.9792	-3.1854	-3.3771	-2.9792	-3.4479	-3.2333	-3.2396	-3.4313	-3.2229	-3.2167	-3.5146	-3.2583	-3.4771	-3.3438	-3.1271	180.371	318.672	84.358	167.062	71.031	300.892	174.342	300.180	145.325	-19.301	303.566	164.351	4.989	275.212	316.347	302.031	0.000717	0.0003694	6.7212e-05	1376.8	9.8465e-06	6.5272e-06	1386	373.43	2.9241e-07	1.9942e-06	426.66	142.62	124.36	42.375	9.8365e-06	52.292	0.00057153	0.00055876	0.00015768	1402.1	6.1395e-06	6.1335e-06	1402.8	381.21	6.0845e-06	6.0399e-06	434.91	145.79	127.11	43.568	6.0815e-06	53.789	325.781	33.193	71.749	-14.738	111.553	178.216	-14.987	-10.160	10.741	102.444	-10.912	-6.310	-5.895	-1.555	122.686	-2.204	-8191	255	
769.174	1	1	0	0	0.15117	0.061325	0.10575	0.285	0.14141	0.043298	0.13734	0.12571	0.15678	0.12643	0.48363	0.25584	0.1601	0.34955	0.12228	0.25148	-3.0979	-3.1292	-3.2333	-3.5625	-3.1625	-3.4437	-3.4729	-3.3438	-3.4188	-3.1896	-3.3146	-3.3896	-3.1937	-3.4917	-3.5375	-3.375	92.761	-4.090	228.394	34.017	21.881	121.601	250.551	289.744	226.961	260.082	262.662	289.695	327.234	-14.632	294.155	305.062	0.00043869	0.00018425	0.00018588	1378.1	1.9814e-06	2.5673e-06	1382.9	375.33	4.3347e-06	4.0721e-06	426.08	142.72	124.41	42.208	5.5915e-06	52.527	0.00057043	0.00057465	0.00016147	1402.8	6.3996e-06	6.4623e-06	1403.6	382.19	6.4885e-06	6.563e-06	434.99	146.34	127.36	43.675	6.6931e-06	54.022	314.967	131.422	31.331	-14.969	42.868	174.496	-14.932	-10.380	115.169	169.236	-10.890	-6.081	-5.777	-1.333	161.622	-2.317	-8191	255	
769.295	1	1	0	0	0.21848	0.14147	0.16865	0.12171	0.023273	0.17352	0.26854	0.20135	0.036778	0.23029	0.11887	0.27302	0.18701	0.2373	0.16868	0.015852	-3.1729	-3.1688	-3.3771	-3.5167	-3.2479	-3.3583	-3.6875	-3.2396	-3.3458	-3.2792	-3.2062	-3.6229	-3.1458	-3.5792	-3.2792	-3.0271	206.695	14.974	123.332	313.247	177.619	57.978	281.361	318.783	326.679	105.806	16.610	298.901	260.062	321.175	39.480	50.163	0.00069845	8.9773e-05	0.00019011	1372.9	5.7719e-06	7.9757e-06	1382	373.21	7.5823e-06	3.0355e-06	427.13	142.81	124.63	42.5	7.0748e-06	52.35	0.00061134	0.00060921	0.00017066	1404.8	6.6415e-06	6.6497e-06	1403.9	381.64	6.616e-06	6.5789e-06	435.82	146.32	127.53	43.763	6.5669e-06	53.942	325.779	104.035	91.053	-14.823	146.597	117.951	-14.950	-10.092	153.957	150.925	-10.812	-6.213	-5.716	-1.374	52.263	-2.155	-8191	255	
769.391	1	1	0	0	0.10765	0.28682	0.15193	0.34706	0.078658	0.14937	0.26991	0.14667	0.14952	0.12813	0.22401	0.2013	0.041307	0.29687	0.090718	0.15903	-3.0271	-3.3042	-3.3042	-3.5062	-3.1646	-3.1188	-3.6958	-3.3583	-3.5125	-3.4271	-3.1437	-3.4938	-3.1708	-3.4062	-3.3354	-3.1813	83.097	90.843	-6.915	-7.023	316.864	259.103	282.812	224.193	186.375	70.811	237.655	284.082	307.222	316.058	3.784	-25.001	0.00073444	0.00045562	0.00012001	1379.7	7.9579e-06	4.0729e-06	1378.4	372.61	6.9575e-06	5.2704e-06	425.66	143.01	124.51	42.248	5.7631e-06	52.33	0.00060455	0.00060431	0.00016945	1406	6.6564e-06	6.5482e-06	1401.7	381.12	6.6184e-06	6.5888e-06	434.28	146.31	127.38	43.694	6.4845e-06	53.905	324.500	37.365	68.537	-14.700	181.881	166.129	-14.894	-10.348	139.538	164.856	-10.869	-6.192	-5.750	-1.471	102.764	-2.148	-8191	255	
769.487	1	1	0	0	0.17017	0.14846	0.15606	0.18617	0.20918	0.08548	0.13548	0.44001	0.25559	0.08738	0.10431	0.179	0.081368	0.27167	0.17521	0.053162	-2.8896	-3.2562	-3.0167	-3.6458	-3.1583	-3.1708	-3.6604	-2.9708	-3.1792	-3.3521	-3.0896	-3.5854	-3.3542	-3.3625	-3.3229	-3.0354	145.544	33.203	126.842	282.753	327.950	-16.971	306.498	259.782	62.286	87.883	206.308	277.179	246.694	-21.862	162.688	207.910	0.00058959	0.00031141	0.00015474	1383.8	5.0547e-06	4.6676e-06	1378.5	373.5	4.6586e-06	5.5289e-06	427.31	141.91	124.17	42.326	3.0055e-06	52.549	0.00059222	0.00058888	0.00016114	1404.5	6.4287e-06	6.3687e-06	1401.4	381.28	6.3236e-06	6.2239e-06	434.65	145.69	126.82	43.589	6.1848e-06	53.866	-27.982	97.196	135.901	-14.791	158.895	47.540	-14.887	-10.155	104.895	167.178	-10.787	-6.263	-5.804	-1.431	128.356	-2.266	-8191	255	
769.583	1	1	0	0	0.19318	0.30411	0.087269	0.14525	0.16674	0.13833	0.15637	0.22086	0.19239	0.040183	0.21198	0.038196	0.2887	0.11917	0.20096	0.31681	-2.9333	-3.2271	-3.15	-3.4042	-3.3229	-3.0625	-3.6646	-3.2708	-3.3729	-3.3083	-3.1417	-3.4437	-3.4354	-3.2458	-3.5938	-3.5125	166.264	280.126	50.994	54.321	57.645	214.376	308.171	283.428	132.647	86.522	-11.952	-23.301	298.358	288.751	261.582	313.169	0.00072522	0.00070684	7.4467e-05	1384.4	1.8419e-06	5.1656e-06	1386.9	372.67	9.2175e-06	3.5596e-06	425.97	142.47	124.26	42.308	3.7673e-06	52.33	0.00058133	0.00057491	0.00016032	1404.9	6.3725e-06	6.3878e-06	1401.7	380.85	6.4663e-06	6.4468e-06	433.97	146.04	127.36	43.671	6.5199e-06	53.952	320.850	83.462	319.912	-14.573	68.502	147.529	-15.176	-10.315	78.400	143.887	-10.879	-6.082	-5.909	-1.396	125.284	-2.195	-8191	255	
769.704	1	1	0	0	0.39767	0.0097899	0.24845	0.044449	0.25687	0.069234	0.1917	0.17506	0.14217	0.013856	0.2672	0.16133	0.095434	0.13886	0.21899	0.16108	-2.8063	-3.3083	-3.1167	-3.4	-3.4083	-3.1479	-3.6521	-3.3354	-3.0708	-3.4833	-3.1667	-3.5	-3.2771	-3.1167	-3.2958	-3.1646	8.719	31.642	31.559	14.887	300.061	-6.596	298.908	266.915	165.587	314.126	276.508	243.315	-26.437	253.986	193.657	-23.142	0.00072906	0.00062835	0.00017436	1380.9	3.0959e-06	4.1484e-06	1380.8	374.07	3.1867e-06	1.0377e-05	425.26	142.6	123.93	42.277	6.4505e-06	52.7	0.00060098	0.00059345	0.00016519	1406.7	6.5342e-06	6.4497e-06	1403.3	382.11	6.5196e-06	6.527e-06	434.79	146.11	127.28	43.681	6.6987e-06	54.065	313.074	56.437	92.886	-14.993	173.749	141.337	-15.219	-10.120	133.099	86.201	-10.873	-6.200	-5.776	-1.463	146.805	-2.318	-8191	255	
769.775	1	1	0	0	0.3108	0.12548	0.045237	0.059445	0.074965	0.11955	0.13122	0.39133	0.17327	0.1264	0.07688	0.13402	0.10657	0.18503	0.1837	0.14227	-2.6354	-3.5229	-3.0417	-3.4396	-3.3708	-3.1813	-3.7042	-3.4417	-3.0333	-3.4479	-3.2479	-3.4833	-3.2292	-3.1917	-3.3771	-3.3125	235.458	50.043	328.601	327.185	207.297	317.204	301.090	259.283	100.856	164.012	105.256	316.149	70.094	326.852	84.868	281.149	0.0007698	0.0008084	8.7602e-05	1373.8	5.2295e-06	4.5265e-06	1376.5	373.47	8.2426e-06	1.0181e-05	425.12	142.79	123.98	42.306	1.761e-06	52.251	0.00062533	0.00062243	0.00017445	1407.2	6.977e-06	6.944e-06	1400.9	381.4	7.1001e-06	7.1762e-06	435.3	146.64	127.65	43.847	7.2091e-06	54.171	318.816	79.515	94.114	-14.958	73.818	111.948	-15.089	-10.130	134.673	106.774	-10.748	-6.308	-5.819	-1.446	116.839	-2.461	-8191	255	
769.871	1	1	0	0	0.1551	0.15917	0.10839	0.17585	0.046881	0.029763	0.29438	0.22753	0.17239	0.17079	0.24135	0.3522	0.092407	0.043363	0.15713	0.033391	-2.5938	-3.3937	-3.1667	-3.4083	-3.3958	-3.0021	-3.6583	-3.3583	-3.2875	-3.4437	-3.3063	-3.375	-3.5208	-3.3854	-3.4437	-3.4354	106.094	-13.907	180.344	262.429	83.549	17.967	284.286	263.636	275.424	74.248	217.987	-18.580	-26.732	110.110	223.553	300.445	0.00077452	0.00038888	8.0126e-05	1375.4	6.2771e-06	5.9297e-06	1381.1	374.06	4.2734e-06	5.5051e-06	425.61	142.42	124.14	42.442	8.7221e-06	52.357	0.00065378	0.00066065	0.00018184	1411.1	7.1203e-06	6.9864e-06	1404.7	381.91	6.8429e-06	6.8647e-06	435.57	146.3	127.51	43.736	6.8728e-06	54.014	315.194	38.163	215.474	-14.983	176.790	93.584	-15.083	-10.422	144.527	155.946	-10.759	-6.217	-5.817	-1.532	120.152	-2.143	-8191	255	
769.968	1	1	0	0	0.33232	0.13796	0.14906	0.088649	0.22571	0.19188	0.15414	0.076034	0.035997	0.11587	0.13717	0.10828	0.07878	0.13953	0.20278	0.21376	-2.6688	-3.3479	-3.2167	-3.2167	-3.4958	-3.3063	-3.5563	-3.5438	-3.0563	-3.4437	-3.3479	-3.4854	-3.6063	-3.3563	-3.3375	-3.425	238.934	9.918	210.225	2.935	150.476	279.788	220.486	51.029	107.552	-24.484	231.905	256.859	298.583	235.934	186.129	162.395	0.00068922	0.00052622	0.00011057	1384	9.3092e-06	3.8357e-06	1383.7	374.7	6.5038e-06	2.3414e-06	428.49	143.23	124.81	42.509	9.431e-06	52.563	0.00061889	0.00062911	0.00017603	1413.9	6.9954e-06	7.0308e-06	1408.4	383.79	7.2201e-06	7.2913e-06	438.59	147.49	128.37	44.13	7.7236e-06	54.479	-25.127	74.315	47.182	-14.854	180.338	115.820	-15.012	-10.182	186.188	186.002	-10.990	-6.026	-5.708	-1.593	129.352	-2.269	-8191	255	
770.086	1	1	0	0	0.0315	0.042936	0.05535	0.3043	0.11912	0.059334	0.26079	0.098854	0.022241	0.066223	0.15628	0.1494	0.024975	0.25984	0.12844	0.13047	-2.8792	-3.4354	-3.0458	-3.1917	-3.5646	-3.1833	-3.5521	-3.5521	-2.8979	-3.6188	-3.4417	-3.3042	-3.5438	-3.4813	-3.3688	-3.475	322.036	156.863	137.526	1.092	95.748	75.249	218.475	306.384	159.173	-23.456	65.461	273.945	219.752	292.921	-5.516	316.055	0.00060329	0.00091381	0.00014079	1380.1	1.0393e-05	4.1969e-06	1390.5	375.77	9.465e-06	6.721e-06	426.44	142.76	124.03	42.443	6.6475e-06	52.421	0.00072239	0.00073827	0.00020694	1427.9	8.267e-06	8.363e-06	1416.4	386.12	8.5025e-06	8.6358e-06	440.52	147.96	128.84	44.305	8.8971e-06	54.862	324.101	72.098	51.448	-14.847	169.212	170.654	-14.973	-10.228	98.943	112.742	-11.143	-6.180	-5.792	-1.426	144.342	-2.238	-8191	255	
770.183	1	1	0	0	0.08358	0.22239	0.093806	0.19586	0.07916	0.10929	0.10183	0.23149	0.25297	0.083229	0.28032	0.056127	0.10849	0.13477	0.40399	0.16102	-2.825	-3.4437	-3.3354	-3.0479	-3.4854	-3.2479	-3.3958	-3.675	-2.9938	-3.4917	-3.4125	-3.225	-3.5646	-3.3	-3.1958	-3.4146	81.738	55.186	311.746	1.609	298.014	148.677	272.263	275.147	213.101	93.672	283.048	305.857	264.190	165.283	-9.330	298.624	0.00072155	0.00034225	0.0001446	1387	7.1011e-06	4.3976e-06	1397.4	379.89	7.3939e-06	5.8078e-06	431.37	144.28	125.81	42.835	1.3355e-05	52.674	0.0008178	0.00083498	0.00023452	1445.4	9.2551e-06	9.2001e-06	1431.3	391.3	9.2673e-06	9.4224e-06	446.8	150.04	130.51	44.675	9.3084e-06	55.087	324.633	12.701	243.718	-14.878	127.421	94.973	-15.037	-10.099	141.364	210.322	-11.177	-6.256	-6.136	-1.298	118.211	-2.161	-8191	255	
770.279	1	1	0	0	0.12338	0.3586	0.33456	0.15739	0.12062	0.023728	0.12115	0.18942	0.15285	0.16086	0.085302	0.1525	0.18689	0.082023	0.067062	0.21795	-2.75	-3.3438	-3.3417	-3.1167	-3.4583	-3.2167	-3.2583	-3.6146	-3.2833	-3.5417	-3.3688	-3.1646	-3.6375	-3.4646	-3.1854	-3.5542	135.740	200.200	-10.955	189.833	207.886	123.972	46.533	289.366	187.097	200.241	1.699	70.626	244.351	-25.460	46.296	327.378	0.00063826	0.00080051	0.00026229	1392.9	2.6034e-06	7.9368e-06	1389.3	373.92	4.6159e-06	2.8493e-06	427.74	142.76	124.64	42.282	8.39e-06	52.462	0.00083317	0.00084791	0.00023447	1443.4	9.1182e-06	8.9844e-06	1418.8	386.03	8.8439e-06	8.8076e-06	440.92	147.64	128.75	44.109	8.568e-06	54.555	324.283	58.643	75.021	-14.923	210.830	71.477	-15.150	-10.083	105.832	74.825	-10.958	-6.263	-5.987	-1.360	91.039	-2.197	-8191	255	
770.375	1	1	0	0	0.10722	0.15062	0.27544	0.30473	0.041053	0.042615	0.147	0.39548	0.22721	0.12678	0.18052	0.053513	0.053921	0.17395	0.1777	0.13922	-2.8521	-3.2833	-3.2896	-3.2958	-3.3521	-3.4542	-3.3917	-3.5417	-3.1521	-3.2479	-3.5917	-3.0875	-3.6146	-3.3479	-3.2854	-3.4333	238.087	42.593	328.805	288.029	307.643	-11.643	257.184	253.928	122.444	41.622	-1.505	172.549	245.688	28.672	43.710	239.951	0.00061527	0.00061877	0.0002909	1385.5	5.3026e-06	1.0715e-05	1392.7	375.65	1.2507e-05	1.179e-05	427.9	143.21	124	42.276	5.8931e-06	52.545	0.00076666	0.00076779	0.00021153	1432.1	8.173e-06	8.0643e-06	1418	385.16	7.8202e-06	7.8547e-06	439.35	147.52	128.25	43.981	7.9756e-06	54.423	330.384	-6.663	64.084	-14.876	161.486	124.704	-14.974	-10.334	119.465	105.089	-10.999	-6.332	-5.559	-1.521	101.754	-2.342	-8191	255	
770.471	1	1	0	0	0.25274	0.16498	0.26186	0.16113	0.2412	0.303	0.24569	0.36908	0.20479	0.15252	0.19943	0.081289	0.14006	0.033507	0.23477	0.028898	-2.6875	-3.3125	-3.3438	-3.3167	-3.2729	-3.2979	-3.1646	-3.6562	-3.1083	-3.1771	-3.4833	-3.1833	-3.4229	-3.5708	-3.1125	-3.4896	177.836	216.763	99.635	115.317	54.100	36.737	-19.783	289.853	221.676	49.024	-9.787	313.550	267.572	305.602	12.137	119.626	0.00080819	0.00043084	0.00026368	1387.3	4.9503e-06	1.1311e-05	1394.1	376.52	4.9055e-06	7.9574e-06	428.65	143.15	124.69	42.365	6.1565e-06	52.288	0.00073641	0.00075186	0.00021234	1435.1	8.5798e-06	8.644e-06	1422.9	387.61	8.9435e-06	8.9856e-06	443.26	148.25	129.2	44.189	8.5365e-06	54.615	320.233	67.373	53.235	-14.872	123.946	165.581	-14.924	-10.202	133.406	91.663	-10.854	-6.047	-5.780	-1.297	276.935	-2.274	-8191	255	
770.567	1	1	0	0	0.36112	0.26261	0.31907	0.087594	0.19056	0.26042	0.27435	0.22117	0.18086	0.043384	0.069798	0.14954	0.12906	0.041223	0.16047	0.20694	-2.8083	-3.1208	-3.4646	-3.3833	-3.1229	-3.4646	-3.2083	-3.7271	-3.2125	-3.2229	-3.5479	-3.1729	-3.6	-3.3917	-3.2896	-3.4333	179.874	153.982	5.551	284.277	139.509	20.538	299.269	-13.833	246.007	-24.382	207.780	13.907	-17.400	131.352	148.007	302.846	0.00071062	0.0003566	0.00020242	1393.2	9.5504e-06	4.5865e-06	1396.7	377.52	6.1482e-06	5.8989e-06	429.3	143.09	124.91	42.444	5.4074e-06	52.37	0.00076136	0.00075942	0.00020866	1435.3	8.0983e-06	7.9646e-06	1422.6	387.6	7.6533e-06	7.4766e-06	440.94	147.63	128.55	43.961	7.1034e-06	54.204	309.199	50.578	123.965	-14.825	163.432	84.565	-15.034	-10.036	133.837	136.979	-10.731	-6.207	-5.861	-1.387	117.762	-2.353	-8191	255	
770.688	1	1	0	0	0.039513	0.11662	0.22389	0.15241	0.17489	0.29516	0.26358	0.31312	0.26583	0.083034	0.38972	0.28836	0.12973	0.052605	0.12056	0.16038	-2.7958	-3.0625	-3.4854	-3.2521	-3.2104	-3.4646	-3.1396	-3.625	-3.3167	-3.3104	-3.4062	-3.3479	-3.2854	-3.6063	-3.2687	-3.3708	203.762	155.966	-6.195	-1.070	186.906	276.406	264.951	297.640	54.751	20.185	313.901	228.073	288.888	10.625	92.925	222.663	0.00065707	0.00021548	0.00020299	1389.7	7.027e-06	6.8004e-06	1388.5	375.95	3.9388e-06	1.0208e-05	428.35	143.51	124.98	42.298	4.6939e-06	52.343	0.00064457	0.00063297	0.00017712	1418.9	6.9091e-06	6.7324e-06	1411.1	384.34	6.7431e-06	6.6539e-06	437.32	146.8	127.89	43.748	6.2607e-06	53.865	330.716	25.869	55.906	-14.662	108.075	66.936	-15.153	-10.292	77.390	158.036	-10.926	-6.480	-5.582	-1.453	108.454	-2.181	-8191	255	
770.784	1	1	0	0	0.10477	0.17809	0.069613	0.15792	0.041258	0.36525	0.2926	0.26162	0.041894	0.062328	0.080015	0.21858	0.12223	0.15449	0.025411	0.14177	-2.9083	-3.2354	-3.4167	-3.0646	-3.2062	-3.3854	-3.4417	-3.4854	-3.4458	-3.2896	-3.525	-3.4125	-3.3396	-3.6896	-3.0896	-3.5333	311.519	266.891	58.980	291.654	-7.847	75.199	271.747	203.687	72.944	211.484	307.090	252.976	209.518	275.373	111.107	233.299	0.00065061	0.00053849	0.00020051	1375	3.7425e-06	7.3426e-06	1378	374.03	3.1032e-06	3.994e-06	426.99	142.85	125.06	42.445	7.3135e-06	52.574	0.00056796	0.00055857	0.00015787	1402.9	6.1549e-06	6.1586e-06	1401.9	381.6	6.4611e-06	6.5029e-06	435.43	146.18	127.64	43.884	6.7949e-06	54.219	-25.091	49.533	103.079	-14.643	132.098	167.931	-15.003	-10.409	20.910	130.622	-10.644	-6.424	-5.769	-1.391	99.586	-2.112	-8191	255	
770.878	1	1	0	0	0.071654	0.11517	0.1196	0.16301	0.25215	0.2222	0.22653	0.09225	0.22198	0.15663	0.31732	0.3012	0.24146	0.22765	0.20231	0.21346	-2.9229	-3.1167	-3.4396	-3.3917	-3.1667	-3.4792	-3.4646	-3.4583	-3.3604	-2.9271	-3.4125	-3.325	-3.0938	-3.7458	-3.05	-3.4604	-25.634	123.314	265.992	262.715	-10.988	216.204	276.129	255.380	54.276	50.206	229.773	323.872	279.273	251.830	120.596	323.275	0.00062893	0.00072466	0.00017268	1382.4	7.8272e-06	8.6051e-06	1383.6	374.81	5.5358e-06	4.1587e-06	426.85	143.62	124.51	42.363	1.169e-05	52.375	0.00061717	0.00060329	0.00016772	1409.4	6.3711e-06	6.27e-06	1405	382.32	6.0439e-06	6.0852e-06	435	146.23	127.01	43.524	6.0379e-06	53.793	328.064	86.621	62.954	-14.705	147.094	131.579	-15.070	-10.171	137.394	183.830	-10.868	-6.309	-5.655	-1.460	150.016	-2.172	-8191	255	
770.975	1	1	0	0	0.026486	0.06977	0.095128	0.054489	0.24288	0.26276	0.31132	0.19482	0.086749	0.19477	0.22878	0.090236	0.23855	0.17102	0.058776	0.15013	-2.8125	-3.2729	-3.2646	-3.2604	-3.1125	-3.625	-3.2	-3.3771	-3.375	-3.175	-3.5125	-3.4833	-3.3312	-3.6396	-3.0438	-3.5021	259.068	189.932	117.751	177.717	323.832	29.590	294.779	10.334	-23.646	58.163	258.292	188.319	306.752	259.947	64.764	263.904	0.00052861	0.0007166	0.0001662	1381.7	7.2646e-06	9.345e-06	1383.9	374.08	3.9607e-06	7.2572e-06	426.89	142.72	123.82	42.329	8.0898e-06	52.031	0.00055611	0.00055145	0.0001552	1403.5	6.05e-06	6.014e-06	1403.2	381.31	5.9091e-06	5.8758e-06	434.35	145.62	126.56	43.498	5.9131e-06	53.641	325.268	49.723	59.452	-15.218	121.394	131.296	-14.943	-10.234	126.229	175.056	-10.732	-5.984	-5.844	-1.191	76.958	-2.143	-8191	255	
771.071	1	1	0	0	0.067034	0.28928	0.15875	0.068886	0.22868	0.22713	0.22974	0.19891	0.15938	0.10609	0.42156	0.2112	0.24087	0.076227	0.2014	0.1678	-2.8375	-3.0833	-3.4854	-3.2	-3.1875	-3.225	-3.4688	-3.5	-3.4979	-3.2	-3.5146	-3.5208	-3.3208	-3.4562	-3.2604	-3.4021	208.093	101.465	272.672	284.204	60.230	114.798	248.274	237.740	-2.037	210.678	279.759	282.466	315.829	236.672	63.123	208.886	0.00071313	0.00058031	0.00019719	1383.7	8.9288e-06	3.393e-06	1380.6	373.63	4.0949e-06	4.2969e-06	425.95	143.04	123.8	42.229	1.336e-05	52.223	0.00054773	0.00054823	0.00015361	1400.4	6.0616e-06	6.0952e-06	1399.3	380.4	6.1968e-06	6.2969e-06	433.83	145.94	127.09	43.569	6.6966e-06	53.923	310.900	89.866	103.593	-15.230	100.002	138.765	-14.896	-10.115	150.028	132.460	-10.755	-6.162	-5.614	-1.456	142.450	-2.278	-8191	255	
#DATA ENDS
