BOXY.EXE: ISS Imagent and Oximeter Data Acquisition Program Version 0.80
Ascii Record File

#ACQ INFORMATION
2  Detector Channels 
16  External MUX Channels 
1  Auxiliary Channels 
5000  Waveform (CCF) Frequency (Hz)
1  Waveforms Skipped 
30  Waveforms Averaged 
1  Cycles Averaged 
16  Acquisitions per Waveform 
10.0806  Updata Rate (Hz) 

#FILE INFORMATION
TRUE -- External MUX Channel results are PARSED.
FALSE -- AC DC and Phase are NOT grouped.
TRUE -- Companion Program Settings File CREATED.
FALSE -- AC data not excluded
FALSE -- DC data not excluded
FALSE -- Phase data not excluded
FALSE -- Auxillary Chn. data not excluded
Tab delimiters

#CALIBRATION STATE
TRUE -- Waveform Calibration Values APPLIED.


#AUX CALIBRATION VALUES
Val Type	aux-1	

Term	1.0000e+00	
Factor	0.0000e+00	


#WF CALIBRATION VALUES
A = Detector Channel
Val Type	A-AC1	A-AC2	A-AC3	A-AC4	A-AC5	A-AC6	A-AC7	A-AC8	A-AC9	A-AC10	A-AC11	A-AC12	A-AC13	A-AC14	A-AC15	A-AC16	A-DC1	A-DC2	A-DC3	A-DC4	A-DC5	A-DC6	A-DC7	A-DC8	A-DC9	A-DC10	A-DC11	A-DC12	A-DC13	A-DC14	A-DC15	A-DC16	A-Ph1	A-Ph2	A-Ph3	A-Ph4	A-Ph5	A-Ph6	A-Ph7	A-Ph8	A-Ph9	A-Ph10	A-Ph11	A-Ph12	A-Ph13	A-Ph14	A-Ph15	A-Ph16	

Term	0.00000e+00	0.00000e+00	0.00000e+00	0.00000e+00	0.00000e+00	0.00000e+00	0.00000e+00	0.00000e+00	0.00000e+00	0.00000e+00	0.00000e+00	0.00000e+00	0.00000e+00	0.00000e+00	0.00000e+00	0.00000e+00	0.00000e+00	0.00000e+00	0.00000e+00	0.00000e+00	0.00000e+00	0.00000e+00	0.00000e+00	0.00000e+00	0.00000e+00	0.00000e+00	0.00000e+00	0.00000e+00	0.00000e+00	0.00000e+00	0.00000e+00	0.00000e+00	0.00000e+00	0.00000e+00	0.00000e+00	0.00000e+00	0.00000e+00	0.00000e+00	0.00000e+00	0.00000e+00	0.00000e+00	0.00000e+00	0.00000e+00	0.00000e+00	0.00000e+00	0.00000e+00	0.00000e+00	0.00000e+00	
Factor	1.00000e+00	1.00000e+00	1.00000e+00	1.00000e+00	1.00000e+00	1.00000e+00	1.00000e+00	1.00000e+00	1.00000e+00	1.00000e+00	1.00000e+00	1.00000e+00	1.00000e+00	1.00000e+00	1.00000e+00	1.00000e+00	1.00000e+00	1.00000e+00	1.00000e+00	1.00000e+00	1.00000e+00	1.00000e+00	1.00000e+00	1.00000e+00	1.00000e+00	1.00000e+00	1.00000e+00	1.00000e+00	1.00000e+00	1.00000e+00	1.00000e+00	1.00000e+00	X	X	X	X	X	X	X	X	X	X	X	X	X	X	X	X	

B = Detector Channel
Val Type	B-AC1	B-AC2	B-AC3	B-AC4	B-AC5	B-AC6	B-AC7	B-AC8	B-AC9	B-AC10	B-AC11	B-AC12	B-AC13	B-AC14	B-AC15	B-AC16	B-DC1	B-DC2	B-DC3	B-DC4	B-DC5	B-DC6	B-DC7	B-DC8	B-DC9	B-DC10	B-DC11	B-DC12	B-DC13	B-DC14	B-DC15	B-DC16	B-Ph1	B-Ph2	B-Ph3	B-Ph4	B-Ph5	B-Ph6	B-Ph7	B-Ph8	B-Ph9	B-Ph10	B-Ph11	B-Ph12	B-Ph13	B-Ph14	B-Ph15	B-Ph16	

Term	0.00000e+00	0.00000e+00	0.00000e+00	0.00000e+00	0.00000e+00	0.00000e+00	0.00000e+00	0.00000e+00	0.00000e+00	0.00000e+00	0.00000e+00	0.00000e+00	0.00000e+00	0.00000e+00	0.00000e+00	0.00000e+00	0.00000e+00	0.00000e+00	0.00000e+00	0.00000e+00	0.00000e+00	0.00000e+00	0.00000e+00	0.00000e+00	0.00000e+00	0.00000e+00	0.00000e+00	0.00000e+00	0.00000e+00	0.00000e+00	0.00000e+00	0.00000e+00	5.86857e+01	-1.40275e+02	-1.27777e+02	-1.81956e+02	-7.36887e+01	-5.69442e+01	-1.56028e+02	-1.62015e+02	-8.09294e+01	-6.35191e+01	-1.71357e+02	-1.71405e+02	-1.82318e+02	-1.76945e+02	-7.95853e+01	-1.50279e+02	
Factor	5.16763e-05	1.33635e-04	4.06010e-05	4.21718e-01	1.38256e-06	1.58296e-06	1.58406e-01	5.39367e-02	1.66385e-06	1.37896e-06	8.47905e-02	2.81246e-02	2.35851e-02	8.08168e-03	1.69326e-06	1.20261e-02	1.73923e-06	1.81185e-06	5.05000e-07	2.07507e-01	1.98338e-08	1.98293e-08	7.56450e-02	2.72911e-02	1.96927e-08	1.98476e-08	4.12586e-02	1.36837e-02	1.19586e-02	4.10842e-03	1.97406e-08	5.88837e-03	X	X	X	X	X	X	X	X	X	X	X	X	X	X	X	X	



#DISTANCE SETTINGS
A = Detector Channel
A-1	A-2	A-3	A-4	A-5	A-6	A-7	A-8	A-9	A-10	A-11	A-12	A-13	A-14	A-15	A-16	

2.5000e+00	3.0000e+00	2.5000e+00	3.0000e+00	2.0000e+00	3.0000e+00	1.5000e+00	3.0000e+00	3.0000e+00	3.0000e+00	3.0000e+00	3.0000e+00	3.0000e+00	3.0000e+00	1.5000e+00	3.0000e+00	

B = Detector Channel
B-1	B-2	B-3	B-4	B-5	B-6	B-7	B-8	B-9	B-10	B-11	B-12	B-13	B-14	B-15	B-16	

1.0000e+01	1.0000e+01	1.0000e+01	1.4400e+00	1.0000e+01	1.0000e+01	1.5100e+00	1.9400e+00	1.0000e+01	1.0000e+01	1.9900e+00	2.4900e+00	2.4100e+00	2.9000e+00	1.0000e+01	2.9800e+00	




#DATA BEGINS
time	group	step	mark	flag	A-AC1	A-AC2	A-AC3	A-AC4	A-AC5	A-AC6	A-AC7	A-AC8	A-AC9	A-AC10	A-AC11	A-AC12	A-AC13	A-AC14	A-AC15	A-AC16	A-DC1	A-DC2	A-DC3	A-DC4	A-DC5	A-DC6	A-DC7	A-DC8	A-DC9	A-DC10	A-DC11	A-DC12	A-DC13	A-DC14	A-DC15	A-DC16	A-Ph1	A-Ph2	A-Ph3	A-Ph4	A-Ph5	A-Ph6	A-Ph7	A-Ph8	A-Ph9	A-Ph10	A-Ph11	A-Ph12	A-Ph13	A-Ph14	A-Ph15	A-Ph16	B-AC1	B-AC2	B-AC3	B-AC4	B-AC5	B-AC6	B-AC7	B-AC8	B-AC9	B-AC10	B-AC11	B-AC12	B-AC13	B-AC14	B-AC15	B-AC16	B-DC1	B-DC2	B-DC3	B-DC4	B-DC5	B-DC6	B-DC7	B-DC8	B-DC9	B-DC10	B-DC11	B-DC12	B-DC13	B-DC14	B-DC15	B-DC16	B-Ph1	B-Ph2	B-Ph3	B-Ph4	B-Ph5	B-Ph6	B-Ph7	B-Ph8	B-Ph9	B-Ph10	B-Ph11	B-Ph12	B-Ph13	B-Ph14	B-Ph15	B-Ph16	aux-1	digaux	

1520.326	1	1	0	256	0.11037	0.21706	0.054087	0.19603	0.25323	0.24109	0.060558	0.24745	0.25647	0.25449	0.17472	0.068094	0.11349	0.17115	0.2916	0.17516	-2.325	-2.9688	-2.7687	-2.7583	-2.9667	-2.5812	-2.9688	-2.8021	-2.6208	-3.0687	-2.7146	-2.8333	-3.075	-2.7042	-3.0479	-2.8688	251.950	169.888	474.215	515.841	289.137	458.584	485.548	296.130	181.803	242.658	427.070	400.006	449.618	184.422	447.740	372.255	0.00073261	0.00025645	2.6817e-05	408.33	4.1977e-06	1.6619e-06	558.34	81.168	3.0452e-06	9.7075e-07	151.39	50.207	18.319	5.259	2.3375e-06	20.805	0.00022772	0.00021953	6.125e-05	408.24	2.4172e-06	2.407e-06	550.76	81.581	2.4297e-06	2.4301e-06	150.19	49.677	19.017	5.5742	2.4195e-06	20.761	384.693	296.414	205.983	181.133	198.958	271.647	181.052	185.806	372.378	199.958	185.562	190.679	190.700	196.276	303.316	195.505	-8191	255	
1520.422	1	1	0	0	0.24708	0.11476	0.049015	0.1471	0.058779	0.083227	0.18847	0.2571	0.12613	0.19231	0.13535	0.10741	0.38957	0.14409	0.11059	0.17697	-2.225	-3	-2.6979	-2.8646	-3.0042	-2.7938	-3.0667	-2.7687	-2.675	-3.0167	-2.6771	-2.9271	-2.9208	-2.5062	-2.9292	-2.9708	287.234	418.968	465.772	498.458	257.897	520.591	447.732	182.739	388.693	418.793	322.720	404.745	258.588	283.052	340.166	179.729	0.00068704	0.00020399	2.2175e-05	412.05	1.1591e-06	2.5991e-06	562.18	81.322	1.8936e-06	1.4438e-06	152.25	50.239	18.8	5.2779	2.0605e-06	20.65	0.00022798	0.0002226	6.2155e-05	410.17	2.4356e-06	2.4161e-06	551.48	81.364	2.3932e-06	2.4434e-06	150.83	49.754	19.121	5.5936	2.4105e-06	20.841	394.463	363.403	413.329	181.799	370.242	312.727	181.202	186.215	300.536	221.639	186.354	191.165	190.708	195.930	216.794	195.139	-8191	255	
1520.518	1	1	0	0	0.17894	0.237	0.22495	0.12121	0.23828	0.2468	0.22933	0.27326	0.12558	0.13618	0.21686	0.18794	0.25019	0.12447	0.1696	0.14806	-2.2375	-3.0208	-2.8125	-2.7042	-3.125	-2.7167	-2.9979	-2.8812	-2.5771	-2.8937	-2.9083	-2.7438	-3.075	-2.7062	-2.9125	-3.0042	225.341	468.486	392.375	263.649	363.259	193.792	417.224	488.115	246.157	450.674	341.120	424.882	287.723	230.531	220.911	501.645	0.00064291	0.00012104	0.00010029	413.79	9.3158e-07	9.0686e-07	561.95	81.066	1.4013e-06	4.3923e-06	152.09	50.556	18.706	5.3394	3.0999e-06	20.897	0.00022852	0.00022452	6.2594e-05	410.72	2.4281e-06	2.4401e-06	551.92	81.69	2.4255e-06	2.4208e-06	150.97	50.078	19.244	5.6319	2.4923e-06	21.064	386.861	389.527	340.230	181.674	177.995	356.314	181.182	186.674	274.094	321.779	185.545	191.119	190.509	195.855	420.925	195.659	-8191	255	
1520.614	1	1	0	0	0.073838	0.13665	0.11843	0.17753	0.11511	0.077089	0.16034	0.19588	0.3511	0.084153	0.038356	0.24111	0.088244	0.049645	0.11388	0.046507	-2.3729	-2.8083	-2.8625	-2.7021	-3.0167	-2.7021	-2.9604	-3.0208	-2.7833	-2.9979	-2.7812	-2.6458	-3.1104	-2.8458	-2.6833	-3.1771	291.175	472.399	455.587	489.797	526.758	306.124	509.401	464.421	458.667	267.607	356.508	205.639	430.906	212.759	453.223	419.965	0.00066041	0.00028088	4.1743e-06	412.83	3.8415e-06	6.0374e-07	559.11	81.159	5.0136e-06	1.5842e-06	151.44	50.159	18.602	5.2582	3.999e-06	20.656	0.00023241	0.00022537	6.3735e-05	411.36	2.5006e-06	2.4698e-06	551.52	81.541	2.5057e-06	2.5505e-06	150.35	49.757	19.168	5.6013	2.5293e-06	20.811	385.548	321.162	250.181	182.106	348.284	516.848	181.016	186.425	362.496	442.336	185.801	190.491	191.127	196.437	364.044	195.221	-8191	255	
1520.710	1	1	0	0	0.25081	0.051756	0.16383	0.21708	0.18893	0.17152	0.10942	0.30327	0.16777	0.3147	0.055932	0.14607	0.17066	0.20023	0.14303	0.16159	-2.3417	-2.8625	-2.825	-2.6896	-3.1271	-2.8875	-2.9021	-3.0979	-2.8042	-2.875	-2.9417	-2.8521	-3.1292	-2.8625	-2.8063	-3.1104	446.363	243.661	240.236	495.073	367.949	220.416	361.920	470.977	517.997	181.513	411.751	424.155	435.081	183.786	503.352	490.568	0.00069499	0.00014914	1.0606e-05	405.44	2.564e-06	1.5587e-06	560.13	80.118	6.8719e-06	1.8154e-06	149.28	49.986	18.35	5.2257	3.1319e-06	20.567	0.00023661	0.00023352	6.4716e-05	409.84	2.5458e-06	2.5942e-06	549.88	81.026	2.5555e-06	2.6059e-06	149.69	49.419	19.028	5.5981	2.6318e-06	20.654	386.642	468.622	248.591	181.520	367.824	304.926	181.232	186.452	301.575	360.987	186.026	190.832	191.127	196.852	314.174	195.287	-8191	255	
1520.831	1	1	0	0	0.187	0.08496	0.097345	0.048988	0.16272	0.13726	0.056133	0.16635	0.072814	0.22065	0.20174	0.2972	0.18311	0.065845	0.070915	0.19116	-2.3104	-2.9708	-2.9104	-2.6021	-3.075	-3.0062	-2.8625	-3.0062	-2.7812	-2.9167	-3.0812	-2.6167	-3.1771	-2.9146	-2.6479	-3.0771	393.373	431.865	423.096	334.151	306.860	388.716	429.574	370.921	440.279	346.975	496.386	262.277	202.729	309.082	452.997	448.916	0.00076972	0.00011656	0.00012462	404.44	2.0119e-06	3.1706e-06	557	80.433	3.2554e-06	3.3536e-06	151.08	49.608	18.482	5.2582	2.5236e-06	20.611	0.00024392	0.00024265	6.717e-05	410.27	2.6366e-06	2.6461e-06	549.2	81.088	2.6453e-06	2.6814e-06	150.11	49.424	19.169	5.5971	2.6429e-06	20.741	384.204	246.043	255.055	180.760	408.179	283.164	181.240	186.479	326.472	386.818	185.804	190.813	190.685	195.934	204.897	195.686	-8191	255	
1520.927	1	1	0	0	0.14396	0.093123	0.083231	0.16214	0.25173	0.17808	0.10965	0.017888	0.14335	0.13454	0.052402	0.10416	0.19034	0.10244	0.15028	0.071941	-2.3292	-2.75	-3.0062	-2.6167	-2.9375	-2.9854	-2.9062	-2.8646	-2.7083	-2.7313	-3.1458	-2.6854	-2.8542	-2.9646	-2.7854	-2.9354	237.150	408.647	328.446	398.526	199.186	374.826	208.323	174.311	246.558	380.479	418.503	426.336	492.913	271.594	276.799	254.447	0.00079561	0.00061913	2.2598e-05	407.84	3.298e-06	3.2448e-06	562.38	81.275	2.059e-06	2.5268e-06	150.18	50.17	18.343	5.2105	2.0419e-06	20.682	0.00025018	0.00024688	6.7003e-05	410.44	2.6698e-06	2.705e-06	551.1	81.289	2.6771e-06	2.6835e-06	149.57	49.545	19.045	5.6082	2.6363e-06	20.86	381.470	302.207	441.913	181.103	246.364	350.522	180.844	186.172	289.961	307.078	185.930	190.871	190.807	195.849	326.202	195.283	-8191	255	
1521.023	1	1	0	0	0.056874	0.12425	0.18977	0.30541	0.1254	0.13662	0.38894	0.09834	0.16229	0.23407	0.034039	0.16557	0.18735	0.12832	0.2225	0.20642	-2.3604	-2.8229	-2.9688	-2.6125	-3.1292	-3.1354	-2.8146	-2.8896	-2.9104	-2.875	-3.1562	-2.6021	-2.8792	-2.8729	-2.8125	-3.0583	276.120	286.922	292.894	470.102	309.064	470.760	524.332	476.863	220.422	234.248	454.769	396.985	430.132	477.598	300.253	514.959	0.00061099	0.00021846	0.00013035	407.82	1.7937e-06	3.5783e-06	558.04	80.881	4.0905e-06	2.9607e-06	150.8	49.963	18.273	5.2357	4.431e-06	20.66	0.00025092	0.00024695	6.7017e-05	409.95	2.7249e-06	2.6681e-06	551.25	81.292	2.6736e-06	2.6795e-06	150.56	49.652	19.125	5.6089	2.5986e-06	20.817	377.460	504.842	171.477	181.859	311.534	395.085	181.205	186.608	228.593	260.345	186.256	190.675	190.923	196.568	506.240	195.651	-8191	255	
1521.119	1	1	0	0	0.39153	0.15249	0.21822	0.21154	0.076455	0.29488	0.090623	0.062857	0.1752	0.091515	0.20457	0.058798	0.057274	0.10391	0.3112	0.13895	-2.375	-2.925	-2.9562	-2.8292	-2.8312	-2.8708	-2.7	-3.275	-2.9125	-2.6771	-3.1292	-2.65	-2.8104	-3.0583	-2.6979	-2.9396	213.244	339.328	466.151	181.449	177.055	296.650	392.382	451.073	406.944	349.704	488.286	441.947	238.871	510.312	345.839	393.741	0.00062504	0.00047608	0.00012965	407.17	6.8594e-07	2.8331e-06	558.64	80.464	1.2378e-06	2.1486e-06	148.56	49.535	18.39	5.2367	1.3427e-06	20.214	0.00025002	0.00024072	6.8381e-05	409.3	2.715e-06	2.6456e-06	548.74	80.95	2.6812e-06	2.6433e-06	148.71	49.266	18.962	5.5668	2.6288e-06	20.578	377.153	278.972	206.472	181.683	233.373	355.401	181.300	186.080	295.296	378.349	185.930	190.911	190.257	195.977	221.385	195.733	-8191	255	
1521.214	1	1	0	0	0.12445	0.13718	0.1393	0.14714	0.16359	0.1588	0.27073	0.20326	0.10254	0.13831	0.18449	0.089594	0.098466	0.10167	0.12521	0.15635	-2.3583	-2.6854	-3.0333	-2.9021	-2.7	-3.025	-2.7188	-2.8521	-3.0062	-2.3958	-3.1125	-2.8063	-2.7708	-2.9062	-2.7521	-2.7896	431.776	489.823	407.188	320.521	258.118	210.456	365.982	516.885	479.731	387.870	429.703	467.059	276.978	410.375	215.033	191.093	0.0006522	0.00011449	5.65e-05	407.95	2.0897e-06	1.2938e-06	557.53	80.522	6.035e-06	2.6651e-06	150.53	49.439	18.202	5.1728	4.0874e-06	20.577	0.00024677	0.00024041	6.7685e-05	408.91	2.6808e-06	2.6199e-06	547.31	80.939	2.6486e-06	2.5941e-06	149.81	49.21	18.97	5.5441	2.6506e-06	20.629	389.942	363.868	228.179	181.684	497.443	475.501	181.391	186.258	275.460	380.549	185.966	191.070	190.014	195.904	272.188	195.783	-8191	255	
1521.310	1	1	0	0	0.11232	0.19776	0.15352	0.12177	0.11993	0.15775	0.20334	0.18058	0.14197	0.10241	0.2705	0.25377	0.08378	0.10341	0.20746	0.12932	-2.5229	-2.6312	-2.9146	-3.0646	-2.6875	-3.1333	-2.8167	-3.0354	-2.8021	-2.7375	-3.0479	-2.8167	-2.6312	-2.9042	-2.6458	-2.7812	188.269	383.102	481.594	424.105	286.936	195.032	237.751	259.018	434.642	511.233	428.155	447.722	251.447	484.163	213.530	520.806	0.00061581	0.00023371	8.7104e-05	406.84	2.7683e-06	4.5462e-07	554.48	80.186	4.9497e-06	1.8146e-06	149.16	49.861	18.188	5.1645	1.1433e-06	20.444	0.00024811	0.00023944	6.8338e-05	407.5	2.6748e-06	2.6882e-06	547.72	81.105	2.6854e-06	2.673e-06	149.37	49.47	18.983	5.5741	2.6982e-06	20.655	384.641	463.128	349.612	181.262	381.565	332.800	181.051	186.117	343.144	243.700	185.868	190.851	190.166	196.353	207.255	195.707	-8191	255	
1521.406	1	1	0	0	0.34359	0.00068544	0.18217	0.046152	0.09166	0.16267	0.1869	0.19081	0.22672	0.011299	0.1818	0.22622	0.14487	0.16073	0.076441	0.090183	-2.8563	-2.6958	-2.7771	-2.9521	-2.8146	-2.9229	-3.0083	-2.8646	-2.9437	-2.5812	-3.0521	-3.0729	-2.6937	-3.1042	-2.9	-2.9021	300.917	180.000	484.451	381.539	490.535	250.026	473.772	527.005	401.884	485.938	362.149	215.523	203.228	358.626	304.318	192.160	0.00071383	0.0002885	9.1068e-05	405.81	3.9734e-06	4.5534e-06	556.4	81.006	2.2342e-06	2.8906e-06	149.56	49.743	18.321	5.2535	6.5276e-06	20.661	0.00024701	0.00024071	6.9592e-05	409.39	2.6776e-06	2.6403e-06	547.68	81.071	2.6625e-06	2.6602e-06	149.73	49.475	19.065	5.5968	2.6994e-06	20.732	391.705	291.566	280.954	181.776	298.993	315.362	181.042	186.346	347.552	370.916	185.895	190.708	189.895	196.208	218.243	195.676	-8191	255	
1521.527	1	1	0	0	0.058185	0.17635	0.28006	0.24821	0.15254	0.099758	0.15836	0.13194	0.22681	0.36236	0.20207	0.1319	0.25058	0.066011	0.13788	0.29211	-2.9146	-2.5729	-2.9042	-2.9	-2.6917	-3.1479	-2.7687	-2.7542	-3.0292	-2.7	-3.0833	-2.9792	-2.6208	-2.9813	-2.8771	-2.6833	302.963	341.460	496.081	427.879	170.583	526.646	498.697	411.812	241.555	429.523	250.110	454.892	172.743	347.480	272.259	452.717	0.00062976	0.00018607	0.00016844	406.17	3.8638e-06	1.6656e-07	559.07	80.483	1.9348e-06	3.222e-06	149.96	49.052	18.146	5.1683	3.8272e-06	20.18	0.00025067	0.00024304	6.8717e-05	409.89	2.6464e-06	2.6941e-06	547.84	81.044	2.6623e-06	2.6484e-06	148.73	48.993	18.789	5.5124	2.664e-06	20.4	370.164	389.847	271.520	181.291	250.651	260.406	181.253	186.264	243.929	274.076	185.781	190.778	190.471	196.444	466.290	195.147	-8191	255	
1521.623	1	1	0	0	0.094663	0.058265	0.1927	0.1099	0.28776	0.16552	0.13146	0.094065	0.11894	0.15555	0.099437	0.28753	0.14952	0.18841	0.054254	0.080298	-2.6104	-2.75	-2.8958	-3.0479	-2.7208	-3.0375	-2.8896	-2.6583	-3.1521	-2.7521	-2.7313	-3.1562	-2.6896	-2.9208	-2.8812	-2.7438	490.078	492.884	435.244	355.335	402.571	257.459	444.167	314.101	285.410	496.871	259.277	364.680	273.031	170.893	504.249	337.421	0.00058304	0.00011407	0.00010555	404.82	4.2525e-06	1.4648e-06	551.56	79.751	3.4706e-06	3.3844e-06	146.76	48.875	17.868	5.086	3.446e-06	20.102	0.00025212	0.00024323	6.8901e-05	407.31	2.6669e-06	2.6456e-06	544.03	80.127	2.6341e-06	2.687e-06	147.11	48.56	18.665	5.4513	2.6443e-06	20.251	387.378	430.408	193.543	181.478	331.014	299.719	181.247	186.301	201.470	256.517	186.062	190.872	190.722	195.839	336.438	195.821	-8191	255	
1521.695	1	1	0	0	0.065358	0.2971	0.010308	0.14391	0.24439	0.13825	0.12267	0.16971	0.32831	0.19342	0.35437	0.035818	0.12792	0.14012	0.20708	0.032313	-2.775	-2.8729	-2.775	-3.15	-2.7104	-2.8312	-3.2479	-2.7438	-3.0625	-2.8563	-2.8312	-3.05	-2.7542	-3.0708	-2.9083	-2.7292	265.145	377.548	199.208	482.647	442.256	198.801	427.634	227.691	306.219	188.519	302.323	254.253	521.363	393.645	262.083	227.310	0.00070022	0.00039524	6.5363e-05	403.93	2.5836e-06	4.8538e-06	551.71	79.42	6.3352e-06	1.8002e-06	148.18	48.354	18.039	5.0499	2.4587e-06	20.026	0.00025108	0.00024877	6.894e-05	406.96	2.7403e-06	2.6543e-06	543.48	79.794	2.7059e-06	2.6887e-06	147.53	48.447	18.661	5.4486	2.6299e-06	20.205	382.925	255.102	196.777	180.901	334.105	267.535	181.231	186.277	273.674	523.036	185.703	190.876	190.496	195.523	316.157	195.251	-8191	255	
1521.791	1	1	0	0	0.13687	0.10388	0.15248	0.22107	0.305	0.21549	0.1725	0.29426	0.041747	0.06228	0.29163	0.17955	0.011023	0.088954	0.16767	0.097939	-2.5583	-2.925	-2.7208	-2.9979	-2.8292	-2.8521	-3.0146	-2.7833	-3.0062	-2.8229	-2.9167	-3.1396	-2.7083	-2.8271	-2.9813	-2.8833	215.451	371.556	412.083	364.159	264.851	320.438	251.352	211.091	293.796	450.269	239.826	378.104	409.152	174.194	245.596	498.443	0.00052311	0.00024277	0.00012985	403.56	5.394e-07	5.9873e-06	552.12	79.005	4.4197e-06	2.6169e-06	149.13	48.797	17.82	5.0902	1.1951e-06	20.187	0.00025324	0.00024828	6.8962e-05	407.96	2.6895e-06	2.6916e-06	543.12	79.618	2.7064e-06	2.6433e-06	147.79	48.546	18.753	5.4718	2.7087e-06	20.313	374.526	315.087	270.193	181.635	185.355	360.313	180.990	185.928	293.040	254.094	186.078	191.413	191.074	196.377	307.878	195.318	-8191	255	
1521.911	1	1	0	0	0.20996	0.094903	0.21852	0.17042	0.11468	0.1425	0.20818	0.13233	0.27243	0.12153	0.2059	0.20344	0.07912	0.17288	0.19696	0.019221	-2.6542	-2.9625	-2.6771	-3.1708	-2.7104	-2.7375	-3.2354	-2.5729	-2.9375	-3.0208	-2.5687	-3.2625	-2.7979	-2.9208	-3.0479	-2.6771	346.466	349.113	223.897	528.141	213.588	274.098	470.448	501.685	179.787	436.298	517.411	350.289	274.057	194.547	417.254	503.389	0.00066447	0.00010488	7.7107e-05	404.87	7.629e-07	4.86e-06	551.45	79.782	3.5446e-06	2.6091e-07	149.22	48.862	18.036	5.1835	3.6364e-06	20.34	0.00025272	0.00024734	6.8408e-05	407.34	2.7174e-06	2.6423e-06	543.76	80.177	2.6556e-06	2.6944e-06	148.46	48.845	18.774	5.4842	2.6037e-06	20.368	374.350	281.689	292.677	181.312	204.013	285.615	181.168	186.269	299.848	413.486	186.251	191.260	189.729	196.023	296.461	195.311	-8191	255	
1522.008	1	1	0	0	0.12716	0.22899	0.2429	0.32583	0.065981	0.271	0.17256	0.17353	0.083012	0.058108	0.19338	0.33045	0.050658	0.1305	0.066818	0.12602	-2.5812	-2.8875	-2.5563	-2.8563	-2.8104	-2.9479	-3.1146	-2.6833	-2.9917	-2.9583	-2.7479	-2.9	-2.75	-2.6188	-3.1271	-2.6979	252.353	185.876	269.334	183.913	325.745	523.153	523.318	204.406	332.859	206.343	479.039	506.768	438.818	441.064	509.438	470.376	0.00071162	0.00014733	5.4344e-05	401.98	3.9135e-06	4.8144e-06	553.8	79.641	3.1942e-06	4.6818e-06	148.7	48.755	17.963	5.062	2.0291e-06	19.967	0.00024757	0.00023965	6.6307e-05	404.75	2.5999e-06	2.6206e-06	542.43	79.897	2.6833e-06	2.6415e-06	147.7	48.459	18.684	5.4359	2.625e-06	20.12	377.281	210.874	451.791	181.713	259.261	325.157	180.912	186.296	282.572	287.915	185.905	190.854	190.750	195.906	186.528	195.687	-8191	255	
1522.104	1	1	0	0	0.32161	0.11309	0.040219	0.34364	0.093981	0.13041	0.19116	0.18651	0.083974	0.31971	0.076569	0.11346	0.02897	0.24702	0.15969	0.037494	-2.5021	-2.8312	-2.7625	-3.0438	-2.9833	-2.7771	-3.1229	-2.6333	-2.8958	-3.1229	-2.7542	-2.8271	-2.7438	-2.7062	-3.0021	-2.8563	492.460	520.089	393.593	475.754	467.920	354.854	468.031	521.144	214.319	385.157	455.026	520.940	345.762	480.692	354.745	357.081	0.00070506	0.00015608	5.5662e-05	402.86	3.2025e-06	2.8772e-06	549.95	79.72	4.3005e-07	1.0608e-06	147.94	48.372	18.048	5.109	2.248e-06	19.901	0.00024485	0.00023973	6.5793e-05	405.09	2.6212e-06	2.5952e-06	541.25	80.111	2.6093e-06	2.5723e-06	147.25	48.255	18.719	5.4457	2.604e-06	20.149	379.440	208.919	184.122	181.250	338.920	418.837	181.151	185.983	324.204	359.583	185.533	191.220	190.406	196.528	400.531	195.587	-8191	255	
1522.200	1	1	0	0	0.29689	0.17588	0.23598	0.34084	0.059491	0.074222	0.19987	0.19206	0.04108	0.084328	0.22335	0.16868	0.23701	0.20729	0.26609	0.08736	-2.5979	-2.9708	-2.4708	-2.8979	-3.075	-2.8042	-3.1375	-2.8396	-2.8979	-3.0604	-2.7896	-3.0938	-2.9333	-2.7333	-2.8958	-2.775	294.365	217.177	431.298	208.368	256.117	281.706	419.387	251.452	213.005	242.005	188.096	409.767	230.530	430.443	283.391	444.164	0.00062957	6.3711e-05	3.8325e-05	402.7	1.4955e-06	3.944e-06	552.96	79.985	4.227e-06	2.2485e-06	149.05	48.643	18.305	5.0766	5.5886e-06	20.547	0.00024195	0.00023745	6.6121e-05	405.13	2.6405e-06	2.534e-06	542.48	80.012	2.5992e-06	2.5983e-06	147.98	48.606	18.817	5.4762	2.6016e-06	20.481	394.324	308.339	257.076	181.779	370.146	340.848	181.169	186.324	240.983	351.482	185.619	190.557	191.298	196.370	262.700	195.414	-8191	255	
1522.319	1	1	0	0	0.1396	0.31161	0.15824	0.074016	0.17237	0.44357	0.20546	0.096455	0.097373	0.2771	0.10316	0.056824	0.11884	0.10419	0.065017	0.1436	-2.3604	-2.9521	-2.6708	-2.9854	-3.1562	-2.6312	-3.0792	-2.7792	-2.8104	-3.0583	-2.675	-3.0896	-2.9688	-2.6063	-3.0042	-2.9333	347.765	432.173	504.792	438.158	505.336	359.348	338.172	355.138	493.751	455.101	467.113	503.585	467.796	261.666	490.396	197.266	0.0007034	0.00028906	0.00014306	403.3	3.8975e-06	2.0253e-06	552.62	80.202	5.4618e-06	2.7027e-06	150.09	49.355	18.201	5.1022	4.886e-06	20.554	0.00024392	0.00023674	6.537e-05	405.8	2.5862e-06	2.5414e-06	544.04	80.325	2.6016e-06	2.5689e-06	148.95	48.954	18.888	5.5069	2.6322e-06	20.626	384.309	221.095	255.794	182.038	374.098	173.386	181.169	186.216	298.529	290.674	186.254	191.107	190.764	196.932	470.575	195.126	-8191	255	
1522.392	1	1	0	0	0.1352	0.16356	0.10408	0.13012	0.042593	0.29909	0.13985	0.19194	0.14454	0.25003	0.20417	0.16493	0.026412	0.108	0.10825	0.1774	-2.275	-3.1	-2.75	-2.7917	-3.0542	-2.7521	-3.0458	-2.8937	-2.7958	-3.1	-2.8458	-2.8479	-3.0042	-2.6958	-3.0021	-2.9333	383.790	179.308	485.696	247.004	390.567	253.536	524.065	462.245	350.580	526.912	254.453	372.861	439.841	192.492	397.247	290.452	0.00070577	0.00040301	4.3202e-05	402.83	2.4811e-06	3.1346e-06	552.21	79.755	2.3328e-06	1.3375e-06	147.83	49.234	18.104	5.1481	4.2728e-06	20.155	0.00024184	0.00023668	6.6677e-05	406.98	2.6117e-06	2.626e-06	543.56	80.26	2.5964e-06	2.6181e-06	148	48.864	18.751	5.4889	2.615e-06	20.327	387.894	410.003	233.902	182.115	414.830	225.285	181.282	185.753	281.786	476.497	185.897	190.645	190.794	195.728	381.081	195.331	-8191	255	
1522.511	1	1	0	0	0.1175	0.15731	0.15417	0.29233	0.07251	0.10679	0.29719	0.25999	0.26268	0.19694	0.12808	0.21481	0.047594	0.19035	0.2661	0.076409	-2.1667	-2.9313	-2.7188	-2.7104	-3.0208	-2.7396	-2.9938	-3.05	-2.65	-3.1063	-2.9396	-2.9125	-3.0396	-2.8292	-2.9938	-2.9813	369.970	259.694	412.110	440.902	438.301	501.333	396.209	256.308	420.849	510.703	180.469	416.677	307.749	437.161	417.571	385.625	0.00057114	0.00013184	1.6468e-05	406.28	3.0755e-06	2.9175e-06	549	80.015	5.2916e-06	2.4192e-06	148.14	48.782	17.972	5.0985	4.1816e-06	20.13	0.00023623	0.00023762	6.5487e-05	405.4	2.5829e-06	2.6205e-06	543.35	79.951	2.5607e-06	2.6177e-06	147.56	48.476	18.652	5.4418	2.6121e-06	20.299	382.231	378.047	254.952	181.204	434.116	470.551	180.964	185.913	389.794	288.700	186.152	190.622	189.599	195.774	246.460	195.591	-8191	255	
1522.607	1	1	0	0	0.02791	0.1507	0.10906	0.11323	0.12109	0.20122	0.19084	0.18584	0.083831	0.027435	0.12944	0.24081	0.3191	0.021717	0.15464	0.10941	-2.1854	-2.9375	-2.7583	-2.7292	-3.1042	-2.7708	-2.9958	-3.1708	-2.7208	-2.9271	-2.8958	-2.7125	-3.0854	-2.8208	-2.7208	-2.9979	403.427	407.798	308.324	510.695	496.625	225.302	221.236	451.296	512.032	370.201	378.309	465.016	493.354	514.522	423.062	461.643	0.0006833	0.00022066	8.6727e-05	404.42	1.761e-06	3.1632e-06	549.46	79.159	1.534e-06	2.1005e-06	148.19	49.083	18.234	5.0999	2.892e-06	20.279	0.0002421	0.00023547	6.5759e-05	404.83	2.5934e-06	2.6219e-06	541.9	80.061	2.5713e-06	2.5965e-06	147.99	48.621	18.812	5.4964	2.6258e-06	20.391	381.999	247.820	360.605	181.430	244.348	264.728	181.209	186.126	348.202	215.908	186.394	190.992	191.114	195.433	227.877	195.679	-8191	255	
1522.703	1	1	0	0	0.20239	0.12917	0.13513	0.25949	0.14327	0.03235	0.047965	0.28354	0.18301	0.15154	0.13871	0.18129	0.087611	0.15789	0.22985	0.13681	-2.2125	-3.1021	-2.7771	-2.5667	-3.0458	-2.8312	-2.8042	-2.8937	-2.6333	-3.0479	-2.8542	-2.7333	-3.0417	-2.9437	-2.7708	-3.1271	425.555	349.888	184.572	458.628	485.993	299.567	428.139	177.767	262.763	197.374	308.499	259.325	238.947	220.827	468.716	441.021	0.00049323	0.00015362	0.00011695	407.73	9.84e-07	6.0992e-06	552.2	79.443	4.9236e-06	1.2884e-06	148.17	49.251	18.441	5.1918	1.8176e-06	20.533	0.00024374	0.00023846	6.6817e-05	406.92	2.6243e-06	2.6009e-06	542.8	80.218	2.637e-06	2.6231e-06	148.33	48.936	18.892	5.5467	2.6065e-06	20.543	388.416	337.061	250.295	181.433	353.920	287.597	181.415	186.396	293.754	508.943	185.975	191.046	190.594	196.241	314.172	195.583	-8191	255	
1522.799	1	1	0	0	0.28486	0.032383	0.10119	0.050657	0.034565	0.24768	0.075473	0.27018	0.13448	0.14316	0.21149	0.043735	0.25596	0.045646	0.12461	0.18168	-2.4146	-3.1125	-2.8125	-2.5271	-3.0312	-2.7729	-2.9042	-3.1042	-2.6958	-2.8021	-2.9938	-2.8312	-2.9167	-2.8229	-2.7479	-3.0604	327.968	301.640	313.582	176.237	403.724	331.804	217.053	189.467	376.547	523.001	419.712	506.352	248.935	394.375	264.262	400.092	0.0005918	0.00014452	4.6637e-05	404.99	1.3584e-06	4.416e-06	555.35	80.772	4.2685e-06	4.2522e-06	149	49.193	17.922	5.1907	3.2706e-06	20.626	0.00024157	0.00024127	6.6175e-05	405.74	2.6502e-06	2.6396e-06	545.26	80.844	2.6286e-06	2.6586e-06	148.72	49.006	18.887	5.5376	2.5931e-06	20.565	381.075	391.243	262.290	180.450	341.790	365.972	181.262	186.087	277.658	212.902	186.083	191.183	190.452	196.861	302.786	195.954	-8191	255	
1522.920	1	1	0	0	0.084176	0.060333	0.082114	0.11904	0.14951	0.30433	0.1714	0.055669	0.014644	0.32592	0.12873	0.17485	0.18476	0.058384	0.29338	0.16782	-2.1667	-2.9125	-3.0208	-2.5958	-3.1729	-2.8729	-2.7	-2.9875	-2.8021	-2.7521	-2.9854	-2.7896	-2.8625	-2.6479	-2.675	-2.9625	358.534	185.167	216.034	507.792	176.378	456.033	502.205	171.023	268.464	433.742	499.722	198.018	338.462	520.962	460.141	501.212	0.00055325	0.0002135	5.571e-05	406.99	1.2522e-06	3.0814e-06	548.59	79.794	4.6592e-06	2.077e-06	147.31	48.973	18.035	5.0896	3.9427e-06	20.146	0.00024922	0.00024169	6.7091e-05	405.37	2.6567e-06	2.6562e-06	541.73	80.131	2.6377e-06	2.664e-06	147.2	48.603	18.782	5.4618	2.5973e-06	20.26	382.006	394.331	278.237	181.743	394.051	320.450	181.231	186.190	316.071	303.090	185.681	191.155	190.618	196.512	251.867	195.464	-8191	255	
1522.992	1	1	0	0	0.1078	0.085259	0.17232	0.11806	0.20527	0.24649	0.13367	0.21229	0.05816	0.12483	0.15941	0.21088	0.19613	0.22145	0.11304	0.14703	-2.1312	-2.8875	-2.9333	-2.8208	-2.8792	-2.9083	-2.7896	-2.9229	-2.7167	-2.7021	-3.1521	-2.7208	-2.8604	-2.8771	-2.5458	-3.0979	412.789	500.318	322.449	503.288	471.355	266.561	400.000	421.492	407.754	387.299	266.623	285.101	196.948	458.752	392.991	438.535	0.00060838	0.00048633	6.7458e-05	404.8	2.952e-06	5.3813e-06	550.38	80.088	4.3448e-06	3.7609e-06	147.92	48.784	18.102	5.0683	1.7723e-06	20.132	0.00024777	0.00024449	6.617e-05	405.05	2.667e-06	2.6528e-06	542.5	80.212	2.658e-06	2.6406e-06	147.34	48.6	18.705	5.4599	2.5686e-06	20.314	381.587	279.259	285.581	181.309	263.913	260.287	181.073	186.190	275.287	302.057	185.897	190.543	190.173	196.915	262.305	195.735	-8191	255	
1523.088	1	1	0	0	0.06292	0.21346	0.28369	0.28178	0.098718	0.16062	0.33467	0.18504	0.058733	0.1474	0.075743	0.21238	0.18645	0.081513	0.13011	0.11869	-2.4271	-2.825	-2.9417	-2.8042	-2.9292	-2.9021	-2.6854	-2.8521	-2.9667	-2.6542	-3.2458	-2.925	-2.9458	-3.1042	-2.6396	-3.0333	190.604	526.449	364.726	384.249	189.795	390.978	403.659	387.883	249.812	400.397	175.382	505.807	355.309	270.783	470.632	404.779	0.00046803	0.00014616	0.0001454	402.45	2.1116e-06	4.5706e-06	552.3	79.809	6.182e-06	2.4786e-06	148.64	48.917	18.099	5.1002	4.9138e-06	20.337	0.00024814	0.00023913	6.6996e-05	404.48	2.6483e-06	2.637e-06	543.48	80.367	2.6347e-06	2.631e-06	147.83	48.772	18.705	5.4984	2.6276e-06	20.484	382.836	516.814	199.795	181.638	338.517	343.910	181.084	185.945	286.981	381.737	185.899	190.491	190.056	196.436	252.527	195.688	-8191	255	
1523.207	1	1	0	0	0.074723	0.23687	0.070445	0.047423	0.24933	0.083756	0.20114	0.089627	0.090254	0.18925	0.099619	0.16904	0.21102	0.044826	0.19123	0.20682	-2.5	-2.6604	-2.9688	-2.8771	-3.0021	-3.0396	-2.7479	-3.025	-2.9042	-2.7521	-3.0333	-2.7042	-2.7125	-3.0687	-2.6292	-3.0833	344.359	295.887	248.853	170.013	217.415	226.573	193.298	275.895	405.544	393.916	496.974	433.238	374.211	432.003	377.519	435.132	0.00056825	0.00014958	7.3799e-05	401.46	1.3615e-06	5.2576e-06	551.95	80.418	6.1011e-06	2.7505e-06	148.26	49.048	18.188	5.1298	3.305e-06	20.385	0.00024614	0.00024411	6.7749e-05	405.85	2.6529e-06	2.6488e-06	544.34	80.822	2.6578e-06	2.6462e-06	148.22	49.16	18.883	5.5372	2.6767e-06	20.633	375.092	236.710	264.704	180.856	298.368	380.232	181.072	186.092	259.230	253.620	185.878	190.579	190.866	195.766	252.080	195.357	-8191	255	
1523.303	1	1	0	0	0.18774	0.058278	0.22459	0.23038	0.094668	0.084294	0.12183	0.18757	0.081708	0.10049	0.042366	0.23113	0.27264	0.093938	0.059852	0.14638	-2.4375	-2.6333	-3.0021	-2.7208	-2.7938	-2.975	-2.7604	-2.8208	-2.8958	-2.6688	-2.9	-2.9229	-2.5604	-2.8812	-2.9146	-2.75	246.492	192.169	226.346	180.983	215.881	414.306	444.997	365.269	210.774	395.405	173.687	202.921	226.524	193.332	438.308	376.941	0.00057604	0.00037112	0.00018862	400.83	4.4997e-07	8.7127e-07	550.3	80.596	4.3141e-06	2.4206e-06	149.19	49.192	17.793	5.0863	1.5358e-06	20.292	0.00024929	0.0002436	6.8577e-05	405.51	2.6489e-06	2.6436e-06	543.74	80.613	2.6047e-06	2.6265e-06	148.34	48.676	18.734	5.5018	2.6262e-06	20.343	379.639	265.705	245.181	181.699	382.104	359.328	180.954	186.466	269.104	397.468	186.228	191.110	190.456	195.797	308.927	196.142	-8191	255	
1523.399	1	1	0	0	0.23803	0.088176	0.27337	0.14841	0.22512	0.039316	0.10899	0.063116	0.13614	0.19939	0.10267	0.19665	0.16599	0.16283	0.22722	0.11351	-2.4604	-2.5479	-3.0479	-2.7729	-2.6896	-3.0375	-2.7083	-2.7604	-2.8937	-2.6542	-3.0208	-2.875	-2.5979	-3.0146	-2.8042	-2.8417	267.374	190.859	483.534	175.359	469.713	245.288	229.978	313.378	468.005	201.227	224.591	442.497	352.640	383.469	474.513	216.651	0.00058388	6.5634e-05	0.00015677	396.78	3.5429e-06	4.5798e-06	549.66	78.931	1.0202e-06	4.0855e-06	148.53	48.234	17.923	5.0607	3.5622e-06	20.146	0.00024558	0.00023886	6.754e-05	403.99	2.5832e-06	2.6086e-06	540.68	79.807	2.6105e-06	2.6121e-06	146.99	48.387	18.696	5.4302	2.6185e-06	20.217	390.855	448.105	271.807	181.360	292.264	263.282	180.773	186.452	311.715	340.516	185.945	190.338	191.363	196.397	396.292	195.211	-8191	255	
1523.495	1	1	0	0	0.21915	0.17395	0.076524	0.1747	0.10434	0.20014	0.20326	0.096345	0.19121	0.016328	0.10838	0.12191	0.10622	0.039338	0.15798	0.096457	-2.5958	-2.6437	-2.9667	-2.9875	-2.6896	-3.0687	-2.8833	-2.8083	-3	-2.8917	-2.9042	-2.775	-2.6271	-2.9188	-2.8646	-2.9521	234.853	290.276	170.948	371.342	396.460	249.873	441.390	378.338	350.486	181.732	521.239	498.328	503.779	305.076	225.384	211.695	0.00068218	0.00034892	6.0558e-05	405.04	1.152e-06	2.9817e-06	549.17	79.56	2.5969e-06	9.4387e-07	147.09	49.023	17.934	5.1802	2.1658e-06	20.123	0.00024156	0.0002374	6.6574e-05	407.23	2.598e-06	2.6292e-06	541.86	80.063	2.5921e-06	2.61e-06	147.34	48.543	18.656	5.4781	2.6452e-06	20.349	398.395	241.592	294.537	181.385	288.555	484.784	181.148	186.601	349.135	186.963	186.237	190.963	190.405	196.283	333.641	195.486	-8191	255	
1523.591	1	1	0	0	0.20995	0.063882	0.16255	0.17316	0.13128	0.17746	0.24791	0.23739	0.25824	0.23406	0.21686	0.19799	0.10908	0.2211	0.15653	0.33172	-2.5979	-2.75	-2.9292	-3.0771	-2.6063	-2.9437	-2.9479	-2.7625	-3.0729	-2.6292	-3.0396	-2.8812	-2.6813	-2.9833	-2.9646	-2.6208	336.186	458.236	203.878	478.548	463.619	341.113	327.516	484.895	260.186	237.150	203.678	450.642	459.500	368.605	193.015	333.904	0.00065136	0.00042038	9.4887e-05	402.22	4.2562e-06	2.5457e-06	549.77	79.332	7.0416e-06	6.5288e-06	149.5	48.834	17.935	5.0507	3.4925e-06	20.33	0.00024336	0.00023945	6.7817e-05	403.68	2.6221e-06	2.652e-06	541.78	80.148	2.6222e-06	2.6226e-06	148.07	48.818	18.787	5.4967	2.6434e-06	20.545	383.502	208.000	523.138	181.418	281.249	315.955	181.202	185.797	302.956	372.021	186.192	190.797	190.377	197.346	310.685	195.527	-8191	255	
1523.688	1	1	0	0	0.026235	0.25359	0.037157	0.19752	0.19166	0.12059	0.2964	0.019167	0.15755	0.027449	0.023318	0.060446	0.3048	0.11892	0.045528	0.27391	-2.5958	-2.7146	-2.825	-3.0083	-2.5375	-2.9042	-2.8583	-2.6896	-2.8937	-2.9792	-2.8063	-2.9625	-2.5917	-2.8854	-2.8667	-2.5917	218.717	323.338	271.169	501.835	417.243	346.074	409.244	240.302	313.343	321.783	472.161	423.856	242.807	448.666	238.026	491.241	0.00056741	9.3704e-05	5.0048e-05	402.74	4.3622e-07	4.9778e-06	551.03	80.185	1.4638e-06	3.7357e-06	148.5	49.357	18.024	5.1038	3.0318e-06	20.277	0.00024907	0.00024735	6.7764e-05	405.4	2.6793e-06	2.6551e-06	542.92	80.327	2.617e-06	2.6738e-06	148.64	48.914	18.759	5.5016	2.6563e-06	20.443	382.812	215.819	424.746	181.661	511.949	348.683	181.369	186.210	498.137	289.887	186.021	191.139	190.358	196.462	343.392	195.860	-8191	255	
1523.784	1	1	0	0	0.099458	0.14339	0.145	0.17427	0.21657	0.34995	0.19529	0.067718	0.018656	0.17772	0.10669	0.14957	0.21506	0.19365	0.07783	0.33579	-2.7292	-2.7375	-2.9021	-2.85	-2.8521	-2.8604	-3.0958	-2.6937	-3.05	-2.9646	-2.8375	-3.1271	-2.6688	-2.8563	-2.8438	-2.8063	170.863	212.032	210.652	455.348	507.389	306.350	510.891	254.029	382.220	523.056	489.362	373.009	473.650	386.688	363.354	458.609	0.00070617	0.00022131	9.6101e-05	399.19	2.4253e-06	2.6166e-06	551.06	79.364	8.0462e-06	2.6053e-06	147.05	48.803	17.858	5.0173	1.2931e-06	19.952	0.00025109	0.00024284	6.7694e-05	403.92	2.665e-06	2.7008e-06	541.91	79.868	2.6255e-06	2.7133e-06	146.74	48.388	18.674	5.4423	2.7e-06	20.077	376.624	279.485	234.499	181.637	405.449	195.944	181.040	186.608	244.697	350.412	185.995	190.861	190.564	196.567	383.660	195.116	-8191	255	
1523.880	1	1	0	0	0.21502	0.091429	0.17484	0.25124	0.097228	0.072678	0.18774	0.068811	0.16579	0.077003	0.061023	0.3504	0.15184	0.18671	0.10723	0.11111	-2.5021	-2.675	-2.8604	-3.025	-2.6708	-2.9188	-2.8937	-2.6312	-2.9313	-2.9125	-2.7521	-3.0833	-2.8167	-2.7583	-3.0125	-2.6604	316.943	244.690	357.215	429.725	349.822	214.399	380.962	386.441	388.205	458.524	289.042	401.996	349.262	283.686	223.442	526.783	0.00051964	0.00014959	3.3752e-05	404.75	2.9624e-06	1.6527e-06	546.4	78.829	3.1969e-06	2.4463e-06	148.63	48.508	17.799	5.1358	5.1681e-06	20.027	0.00025124	0.00024523	6.7785e-05	405.83	2.6861e-06	2.6627e-06	540.74	79.405	2.6533e-06	2.6424e-06	146.98	48.234	18.644	5.4521	2.6455e-06	20.118	387.227	523.946	265.600	181.530	377.757	358.665	181.113	186.397	335.872	214.602	185.700	190.799	190.555	195.872	287.429	195.118	-8191	255	
1524.000	1	1	0	0	0.12049	0.047231	0.098616	0.22076	0.21102	0.23754	0.13996	0.22735	0.22338	0.13136	0.09149	0.1228	0.058442	0.17604	0.080834	0.043246	-2.3458	-2.7687	-2.4729	-2.8875	-2.8646	-2.8312	-2.9583	-2.7458	-2.8375	-2.9208	-2.5812	-2.9604	-2.6021	-2.6021	-3.2062	-2.7938	518.411	520.146	418.273	351.125	352.288	217.389	393.665	390.264	418.519	374.551	169.625	467.283	453.443	311.057	293.388	421.523	0.0005703	0.00022672	8.23e-05	399.87	3.6285e-06	4.5118e-06	551.87	78.751	3.7546e-06	3.718e-06	148.33	48.619	17.991	5.0325	8.1149e-06	20.183	0.00025364	0.0002433	6.8391e-05	404.16	2.6891e-06	2.6796e-06	540.15	79.348	2.7107e-06	2.6824e-06	147.54	48.459	18.694	5.4655	2.653e-06	20.288	394.433	306.577	213.019	181.478	343.633	321.548	181.273	186.286	182.891	317.540	185.731	191.005	190.411	196.464	304.002	195.342	-8191	255	
1524.097	1	1	0	0	0.10111	0.048951	0.050709	0.096304	0.17083	0.092424	0.1053	0.18624	0.17372	0.025722	0.08404	0.27835	0.25621	0.25199	0.13813	0.06779	-2.2708	-2.9833	-2.6271	-2.975	-2.875	-2.6854	-3.1312	-2.7479	-2.8688	-2.9271	-2.8646	-2.6167	-2.8208	-2.7062	-3.1	-2.65	345.226	449.645	184.647	439.013	249.765	406.097	352.732	499.752	202.538	449.125	373.515	204.401	393.333	345.343	452.517	398.405	0.00073716	0.00049155	0.00011041	399.3	3.0073e-06	6.9359e-07	546.54	79.328	5.253e-06	1.3936e-06	147.86	48.908	17.99	5.0529	3.5693e-06	20.191	0.00025108	0.00024065	6.8213e-05	404.74	2.6666e-06	2.6606e-06	540.8	79.894	2.688e-06	2.7387e-06	147.49	48.627	18.76	5.5082	2.6914e-06	20.445	379.769	258.964	358.848	180.688	188.300	183.269	181.122	186.187	397.409	325.947	185.538	190.849	190.272	195.817	280.878	195.578	-8191	255	
1524.193	1	1	0	0	0.42966	0.1085	0.35437	0.34287	0.077495	0.29617	0.36639	0.10547	0.16966	0.071734	0.16282	0.26524	0.10118	0.032895	0.12495	0.048459	-2.4083	-2.8521	-2.6312	-2.7687	-2.7792	-2.7208	-3.0375	-2.7188	-2.8208	-2.8792	-2.9208	-2.8229	-2.8125	-2.8875	-3.1292	-2.8042	345.062	521.978	241.066	496.165	480.184	369.761	440.707	194.069	520.140	479.028	439.204	181.077	214.959	369.143	369.979	367.097	0.0006753	0.00045968	8.4449e-05	399.82	1.005e-06	4.0318e-06	549.72	79.236	4.3687e-06	4.1577e-06	146.53	48.37	17.915	5.033	3.7962e-06	20.018	0.00025445	0.00024468	6.9326e-05	405.99	2.7347e-06	2.6951e-06	540.77	79.871	2.7031e-06	2.7173e-06	146.73	48.275	18.725	5.4285	2.7044e-06	20.133	388.672	229.259	504.047	181.390	430.374	184.316	181.309	186.106	300.272	296.421	185.885	190.992	190.496	195.743	259.322	195.462	-8191	255	
1524.289	1	1	0	0	0.19568	0.21518	0.082804	0.13755	0.10625	0.27962	0.15072	0.091476	0.08093	0.30525	0.12213	0.063638	0.22135	0.20629	0.13432	0.25112	-2.5229	-2.8729	-2.6688	-2.7938	-2.8417	-2.7625	-2.9979	-2.6083	-2.7396	-3.1208	-2.8438	-2.8	-2.8583	-2.4604	-3.0604	-2.7438	485.403	187.546	255.407	477.576	496.711	334.122	464.607	367.492	501.495	347.644	324.631	232.556	316.287	219.603	360.087	360.623	0.00078385	5.7411e-05	2.833e-05	397.25	3.8284e-06	1.5118e-06	545.03	78.576	2.0756e-06	5.1269e-07	146.71	48.044	17.898	5.0414	3.5751e-06	19.821	0.00025451	0.00024687	7.0061e-05	403.73	2.7053e-06	2.7526e-06	538.05	79.355	2.7007e-06	2.7189e-06	145.87	48.023	18.593	5.3918	2.7361e-06	20.034	375.662	375.992	221.380	181.816	358.793	267.892	181.261	186.634	178.232	324.955	185.903	191.117	190.412	196.954	258.937	195.312	-8191	255	
1524.383	1	1	0	0	0.19073	0.1677	0.29245	0.078689	0.028562	0.042338	0.1086	0.1494	0.32412	0.16126	0.28714	0.017477	0.1714	0.096749	0.15052	0.24877	-2.15	-2.8521	-2.8646	-3.0458	-2.7938	-2.6771	-3.275	-2.8167	-2.5833	-2.9938	-2.6333	-2.7417	-3.1	-2.5521	-2.875	-2.8729	503.688	463.889	193.267	379.251	243.811	454.595	476.782	400.954	507.981	445.027	341.749	403.456	217.641	485.899	296.625	251.211	0.00072877	0.00041714	4.515e-05	401.86	2.4862e-06	4.8694e-06	545.65	79.193	4.2221e-06	2.2036e-06	146.42	48.213	17.79	5.0578	2.3848e-06	20.073	0.000253	0.00024789	6.9476e-05	404.2	2.6813e-06	2.6804e-06	538.15	79.598	2.7182e-06	2.7814e-06	146.29	48.124	18.549	5.4264	2.6907e-06	20.171	388.720	240.419	379.909	181.463	324.552	241.116	181.083	185.700	228.303	360.645	185.662	191.222	190.703	196.293	512.723	195.634	-8191	255	
1524.481	1	1	0	0	0.087151	0.16604	0.062496	0.070229	0.11834	0.11558	0.29541	0.020083	0.081483	0.1428	0.18498	0.17514	0.15933	0.23461	0.28526	0.14668	-2.225	-3.0292	-2.85	-2.8229	-2.9562	-2.7021	-3.0792	-2.9458	-2.5875	-3.1562	-2.7979	-2.7333	-2.8917	-2.7104	-2.925	-3.0979	471.865	287.231	492.479	392.228	202.610	183.128	428.521	190.130	255.497	205.565	499.147	254.929	513.138	263.235	386.186	463.718	0.00060167	0.0005073	6.393e-05	400.97	2.7675e-06	1.6087e-06	547.96	79.424	3.6747e-06	2.3898e-06	146.96	48.112	17.709	5.051	4.4133e-06	19.951	0.00025247	0.00024985	7.0277e-05	405.46	2.7631e-06	2.7316e-06	539.78	79.558	2.749e-06	2.725e-06	146.33	48.125	18.444	5.4314	2.7346e-06	20.179	384.491	243.879	299.673	181.229	261.014	482.445	181.098	186.354	273.977	283.767	185.878	191.214	190.033	196.096	265.484	195.466	-8191	255	
1524.600	1	1	0	0	0.2933	0.11492	0.16168	0.11645	0.12971	0.01485	0.20283	0.32786	0.24954	0.08322	0.14186	0.11648	0.17263	0.12199	0.16795	0.1709	-2.2333	-2.9313	-2.8208	-2.7646	-3.0792	-2.8604	-3.075	-2.8958	-2.6875	-3.1146	-2.7125	-2.6042	-2.9458	-2.7708	-2.6458	-3.0854	443.966	367.121	382.256	254.857	460.621	335.136	422.978	266.962	371.652	222.322	473.402	515.021	514.737	297.584	423.403	290.978	0.00063395	0.00022126	0.00012948	400.12	4.5482e-06	4.1391e-06	545.11	79.118	3.2452e-06	2.3422e-06	146.38	48.151	17.892	4.9951	2.0732e-06	19.885	0.00025606	0.0002565	7.0714e-05	403.11	2.7436e-06	2.7429e-06	538.36	79.562	2.747e-06	2.8024e-06	146.53	48.005	18.514	5.3978	2.7374e-06	20.031	380.695	261.420	206.965	181.270	343.401	439.247	180.968	186.548	296.157	304.699	185.608	191.014	190.105	195.915	382.263	195.172	-8191	255	
1524.696	1	1	0	0	0.20307	0.034257	0.22	0.26485	0.071993	0.14796	0.20764	0.17779	0.12079	0.010332	0.10507	0.14477	0.1712	0.14123	0.35077	0.19892	-2.2708	-3.0854	-2.9104	-2.625	-2.9875	-2.7062	-3.0187	-2.9958	-2.6479	-3.0187	-2.8583	-2.8625	-3.0458	-2.8396	-2.9062	-3.1333	352.106	266.218	458.584	217.163	401.101	314.856	389.560	452.557	372.101	173.969	446.646	232.022	220.002	397.819	252.384	199.007	0.00066526	0.00028593	6.0265e-05	399.49	1.6518e-06	7.7506e-07	544.37	78.241	2.9957e-06	1.3534e-06	145.49	47.288	17.549	4.9407	3.4327e-06	19.526	0.00025719	0.00025291	6.8924e-05	403.11	2.762e-06	2.7474e-06	535.3	78.891	2.7671e-06	2.7054e-06	144.81	47.245	18.259	5.3475	2.7294e-06	19.722	388.409	176.494	421.901	181.639	526.010	268.073	181.147	186.373	224.152	255.478	185.686	191.074	190.466	195.927	298.757	195.623	-8191	255	
1524.792	1	1	0	0	0.12981	0.11442	0.1193	0.036496	0.047431	0.18006	0.21751	0.19175	0.068625	0.1367	0.076571	0.17105	0.091467	0.22778	0.35726	0.23979	-2.35	-2.8667	-2.8833	-2.7	-3.1292	-2.8083	-2.8063	-2.9458	-2.6646	-2.9688	-3.0146	-2.7062	-3.0229	-2.8458	-2.7521	-3.0854	508.304	439.610	375.343	400.737	381.247	346.048	477.898	184.126	223.011	491.618	306.151	328.430	276.599	182.981	316.483	200.087	0.00061254	0.00048765	0.00011754	397.39	3.5637e-06	2.6975e-06	542.27	77.709	1.1296e-06	1.3045e-06	144.77	47.208	17.325	4.9494	3.67e-06	19.547	0.0002502	0.00025157	6.8645e-05	400.89	2.7638e-06	2.7298e-06	535.53	78.623	2.6979e-06	2.7581e-06	144.85	47.364	18.287	5.3552	2.7038e-06	19.765	379.316	234.534	280.236	181.137	366.121	388.408	181.124	186.059	322.950	192.610	186.283	191.098	190.836	196.180	311.966	195.751	-8191	255	
1524.864	1	1	0	0	0.081129	0.052991	0.053209	0.069239	0.025596	0.1583	0.27993	0.12168	0.17903	0.024841	0.14011	0.090479	0.053035	0.079449	0.16688	0.092428	-2.3771	-2.8229	-2.8458	-2.775	-3.0583	-2.9917	-2.7667	-3.0687	-2.4917	-2.7833	-3.0125	-2.7188	-3.0104	-2.8625	-2.7313	-2.9979	418.111	482.029	359.990	331.153	324.245	290.056	439.224	515.451	441.320	329.381	288.885	413.616	214.189	242.364	462.532	434.782	0.00059822	0.0001349	4.1865e-05	399.6	1.3478e-06	2.6935e-06	543.48	78.174	2.4355e-06	3.638e-06	146.68	47.713	17.513	5.0013	3.3736e-06	19.89	0.00025252	0.00025143	6.936e-05	402.27	2.7829e-06	2.7508e-06	536.62	78.771	2.7443e-06	2.7449e-06	145.7	47.742	18.422	5.4069	2.7169e-06	20.047	379.711	271.109	482.695	182.168	419.857	335.079	181.082	186.595	324.873	294.640	185.926	190.574	190.848	196.523	363.599	195.797	-8191	255	
1524.985	1	1	0	0	0.20659	0.25972	0.014151	0.13196	0.12045	0.14053	0.15307	0.19216	0.10913	0.053265	0.15864	0.10167	0.16553	0.13221	0.097354	0.24731	-2.4354	-2.8875	-3.0729	-2.7583	-2.9625	-2.8729	-2.7708	-3.0625	-2.7208	-2.7958	-2.9125	-2.8167	-2.8833	-2.7438	-2.5563	-3.0271	312.432	311.636	328.958	521.888	470.865	425.979	299.210	513.052	267.157	414.259	419.126	265.100	251.311	319.664	253.465	362.317	0.00063047	0.0001292	9.7369e-05	396.85	7.6523e-07	3.9797e-06	545.36	78.975	5.1281e-06	3.0361e-06	147.55	48.119	17.666	5.0819	1.905e-06	20.027	0.00025311	0.00024942	6.886e-05	402.43	2.7601e-06	2.791e-06	537.54	79.453	2.7333e-06	2.7559e-06	146.75	48.168	18.614	5.4897	2.6935e-06	20.237	378.516	251.611	255.520	181.117	358.065	239.795	181.335	186.462	279.399	313.116	185.533	191.081	191.241	196.033	229.244	195.176	-8191	255	
1525.081	1	1	0	0	0.31955	0.24103	0.10271	0.19775	0.21371	0.14694	0.12712	0.086103	0.12559	0.16242	0.17967	0.16875	0.12849	0.16328	0.13706	0.079164	-2.3729	-2.9146	-3.0667	-2.5938	-2.9146	-3.0646	-2.6813	-2.9458	-2.9146	-2.8667	-3.1292	-2.7333	-2.7417	-2.8354	-2.7	-2.8333	517.487	292.043	206.730	473.502	492.075	451.983	333.496	312.480	466.139	222.436	222.089	503.768	215.239	511.834	415.778	220.973	0.0005185	0.00021432	6.3982e-05	404.8	2.1221e-06	3.9955e-06	549.27	78.839	7.4234e-06	1.2672e-06	146.83	48.265	17.721	5.0269	3.172e-06	19.903	0.00025208	0.00025136	6.9207e-05	404.47	2.798e-06	2.7494e-06	539.02	79.548	2.7209e-06	2.7125e-06	146.69	47.968	18.538	5.4212	2.7175e-06	20.107	377.048	247.027	236.005	181.048	268.623	259.872	181.433	186.492	341.647	278.196	186.116	191.031	190.036	196.157	296.211	195.251	-8191	255	
1525.177	1	1	0	0	0.26641	0.073355	0.20036	0.10898	0.17884	0.22545	0.2536	0.08551	0.085951	0.13227	0.25698	0.24104	0.14126	0.18645	0.15205	0.13014	-2.5854	-2.7271	-3.0583	-2.7583	-2.8646	-3.0479	-2.8396	-2.8479	-2.9521	-2.5458	-2.9958	-2.8187	-2.7396	-2.9417	-2.5812	-3.1437	302.293	446.542	270.828	512.335	399.732	238.037	318.828	316.802	197.748	213.927	451.804	458.490	490.541	351.782	191.351	333.803	0.00066149	0.00034432	5.558e-05	397.96	4.9298e-06	1.8424e-06	544.24	78.816	2.8757e-06	2.131e-06	146.09	47.862	17.733	4.966	4.8635e-07	19.869	0.00025313	0.00024662	6.9412e-05	402.03	2.7747e-06	2.7273e-06	538	79.115	2.6909e-06	2.7421e-06	145.53	47.761	18.447	5.3792	2.7031e-06	20.064	380.531	290.972	461.013	181.251	309.378	361.681	181.310	186.419	240.732	328.050	186.141	190.943	190.087	196.316	238.021	195.477	-8191	255	
1525.273	1	1	0	0	0.18184	0.072118	0.19867	0.33544	0.22066	0.21125	0.20402	0.070203	0.14287	0.11132	0.10705	0.061483	0.10957	0.2398	0.12404	0.24315	-2.5354	-2.6958	-3.0771	-2.8438	-2.7188	-3.15	-2.6813	-2.9938	-2.9417	-2.7271	-3.0271	-2.6437	-2.7083	-3.0583	-2.6458	-2.9521	498.359	401.813	481.220	314.982	434.582	341.331	476.315	293.574	336.479	427.085	519.090	350.993	240.953	366.476	342.435	494.710	0.00064018	0.00019784	0.00012275	397.18	8.2934e-07	3.7034e-06	545.54	78.812	3.7161e-06	1.6396e-06	145.64	48.096	17.875	5.0207	7.4066e-07	19.936	0.00025291	0.00024565	6.9081e-05	400.89	2.7183e-06	2.7232e-06	537.28	79.281	2.6832e-06	2.7102e-06	145.9	48.071	18.548	5.4323	2.72e-06	20.153	385.361	261.444	276.750	181.233	497.776	196.428	181.096	186.635	500.024	271.703	185.639	190.673	190.013	196.395	443.877	195.507	-8191	255	
1525.392	1	1	0	0	0.22269	0.35243	0.22594	0.22117	0.096818	0.132	0.16363	0.239	0.18207	0.18759	0.071196	0.26642	0.094605	0.072921	0.096489	0.088266	-2.5625	-2.7833	-2.9313	-2.8187	-2.6958	-3.2042	-2.7604	-2.9354	-2.9729	-2.6521	-3.05	-2.8187	-2.5896	-3.0187	-2.6917	-2.775	256.672	387.218	367.756	357.722	397.363	510.745	431.539	520.645	291.453	219.741	509.498	464.441	213.522	436.253	181.195	306.671	0.00061232	0.00016947	6.2033e-05	400.29	1.3875e-06	5.624e-06	543.74	78.577	3.2046e-06	3.0208e-06	147.39	48.236	17.948	5.0708	1.9031e-06	20.249	0.00025271	0.00025069	7.0253e-05	402.47	2.7226e-06	2.7245e-06	537.16	79.525	2.68e-06	2.7577e-06	146.39	48.224	18.624	5.4642	2.7183e-06	20.377	387.431	257.555	299.755	181.509	326.595	245.446	181.069	186.487	226.726	337.393	185.639	190.548	190.567	196.163	286.891	195.307	-8191	255	
1525.488	1	1	0	0	0.18611	0.1717	0.12824	0.073539	0.20381	0.20636	0.18877	0.074336	0.17655	0.1463	0.16445	0.09686	0.16255	0.2225	0.19915	0.13803	-2.5708	-2.7271	-2.8833	-2.8896	-2.7667	-3.1229	-2.8771	-2.8104	-3	-2.9042	-3.0292	-2.95	-2.5521	-3.2229	-2.7604	-2.775	431.123	408.624	241.963	472.504	253.230	496.441	463.249	466.284	438.992	361.600	488.129	384.139	316.236	410.320	506.402	393.857	0.00055625	0.00026866	2.3027e-05	395.99	3.8251e-06	1.9763e-06	544.52	79.626	7.3722e-06	1.4396e-06	148.37	48.54	17.83	5.0638	2.5548e-06	20.131	0.00025579	0.0002504	6.9486e-05	402.26	2.7425e-06	2.7249e-06	539.29	79.813	2.7055e-06	2.7276e-06	147.12	48.369	18.625	5.4722	2.6959e-06	20.292	372.122	330.089	194.791	181.444	231.164	284.116	181.183	186.670	269.358	475.961	186.213	190.365	190.572	196.151	231.463	195.752	-8191	255	
1525.562	1	1	0	0	0.28979	0.14476	0.21907	0.059806	0.27624	0.2521	0.2614	0.24618	0.20048	0.093485	0.21951	0.16059	0.18185	0.038908	0.065813	0.12731	-2.7333	-2.6875	-2.8625	-3.0771	-2.6542	-3.0812	-2.8563	-2.725	-3.0917	-2.6521	-2.9167	-2.9021	-2.6375	-2.9083	-2.8812	-2.9354	500.352	324.322	453.415	356.145	426.657	184.968	310.767	261.351	384.450	237.112	243.497	399.892	187.195	516.995	264.270	273.397	0.00057816	0.00034006	0.00015785	402.46	1.4105e-06	2.2843e-06	543.57	77.899	2.8151e-06	7.4006e-07	146.21	48.056	17.614	5.0592	1.0805e-06	19.88	0.00025146	0.00024605	6.8942e-05	403.26	2.6738e-06	2.739e-06	535.56	78.851	2.7219e-06	2.7403e-06	146	47.827	18.485	5.4373	2.6584e-06	19.988	388.989	333.143	251.319	181.801	436.903	412.742	181.102	186.544	216.232	377.005	185.773	191.047	190.933	195.498	384.219	195.251	-8191	255	
1525.680	1	1	0	0	0.072408	0.15391	0.262	0.29367	0.102	0.25709	0.070127	0.061639	0.074703	0.22799	0.12025	0.075201	0.17836	0.22248	0.11784	0.14531	-2.6063	-2.6979	-2.8375	-2.9896	-2.6833	-3.0438	-2.9667	-2.7521	-2.9833	-2.8396	-2.8646	-2.9958	-2.7396	-2.8521	-2.9042	-2.6312	170.975	309.529	280.044	246.789	252.882	201.935	301.584	284.597	521.079	272.877	479.475	460.260	256.238	175.855	401.853	447.098	0.00063012	0.00010867	0.00011006	397.86	4.8034e-06	1.5494e-06	542.09	78.422	5.1882e-06	2.7086e-06	146.57	48.075	17.686	4.9418	1.3763e-06	19.902	0.00025528	0.00025044	6.9464e-05	402.58	2.7266e-06	2.7418e-06	534.65	79.156	2.7275e-06	2.7135e-06	145.68	47.864	18.445	5.4089	2.6716e-06	20.055	375.593	313.233	278.676	181.067	172.359	349.135	181.171	186.160	299.069	361.496	185.990	191.224	190.485	195.902	388.254	195.257	-8191	255	
1525.777	1	1	0	0	0.021751	0.22127	0.081617	0.0086495	0.13404	0.20989	0.30161	0.18781	0.15916	0.29774	0.15583	0.071489	0.19857	0.26203	0.13461	0.12367	-2.6167	-2.6896	-2.7792	-2.9562	-2.6792	-3.1833	-3.0062	-2.7917	-3.2062	-2.9813	-2.8438	-3.1104	-2.6688	-3.0792	-3.1042	-2.6792	345.763	203.341	270.367	206.958	524.713	240.529	502.311	498.974	383.391	390.091	177.705	506.038	191.971	328.890	431.133	279.889	0.00057688	0.00017581	6.2204e-05	396.25	1.0127e-06	2.7629e-06	542.96	78.463	1.5799e-06	3.0996e-06	145.7	47.92	17.662	5.0493	2.2989e-06	19.99	0.00025481	0.00024593	6.9589e-05	401	2.6884e-06	2.714e-06	535.55	79.005	2.7762e-06	2.7658e-06	146.14	47.971	18.6	5.4679	2.7446e-06	20.157	375.732	196.187	234.382	181.647	462.115	319.117	180.990	186.120	295.964	283.638	186.022	190.831	190.816	197.149	321.501	195.301	-8191	255	
1525.873	1	1	0	0	0.1999	0.19634	0.041966	0.0913	0.11248	0.10756	0.016275	0.22035	0.25633	0.14338	0.12628	0.13607	0.096212	0.14835	0.19281	0.19398	-2.7438	-2.9354	-2.6333	-3.0062	-2.5542	-3.0187	-3.0708	-2.7875	-3.0625	-2.9917	-2.675	-3.0083	-2.6229	-2.9854	-3.0104	-2.8792	403.754	201.610	351.069	218.362	183.264	218.639	407.452	339.170	339.665	459.398	472.052	501.139	379.485	439.848	447.366	214.018	0.00056141	0.00021695	7.2103e-05	397.42	2.0765e-06	8.787e-07	542.73	78.832	1.5205e-06	1.0751e-06	148.79	48.505	17.739	5.1318	3.8699e-06	20.405	0.00025962	0.00025286	6.9938e-05	401.86	2.7845e-06	2.741e-06	536.57	79.759	2.7888e-06	2.8032e-06	147.04	48.491	18.623	5.5161	2.7979e-06	20.447	374.449	458.464	297.281	181.346	377.984	290.673	181.063	186.379	416.802	358.920	186.187	191.185	191.185	195.593	517.324	195.367	-8191	255	
1525.993	1	1	0	0	0.23095	0.22011	0.092387	0.028004	0.089203	0.15028	0.19055	0.37187	0.18371	0.04777	0.10584	0.17613	0.14337	0.16952	0.1773	0.16202	-2.5542	-2.8771	-2.6833	-3.0542	-2.8667	-2.9542	-3.2521	-2.7625	-3.0542	-3.0979	-2.6979	-3.1729	-2.7333	-3	-3.2333	-2.6688	172.501	357.679	396.562	496.365	477.482	404.490	485.788	304.297	471.785	488.190	227.292	437.753	491.761	230.019	298.710	439.459	0.00054295	0.00025392	4.204e-05	400.1	2.9652e-06	5.5331e-06	544.19	78.9	4.864e-06	3.2505e-06	146.12	48.544	17.627	5.0673	3.113e-06	20.035	0.00026176	0.0002547	7.2079e-05	403.39	2.7687e-06	2.831e-06	536.7	79.373	2.7659e-06	2.7883e-06	145.9	48.124	18.458	5.4505	2.7447e-06	20.115	387.679	259.700	333.103	181.331	311.374	312.391	180.739	185.930	277.018	382.127	185.926	190.823	190.594	195.945	388.072	195.328	-8191	255	
1526.090	1	1	0	0	0.38641	0.20757	0.052537	0.17307	0.13878	0.16452	0.19696	0.11123	0.13295	0.14257	0.05175	0.14837	0.14303	0.092418	0.091385	0.12551	-2.6042	-2.825	-2.6312	-3.2354	-2.7562	-2.8917	-3.1792	-2.7042	-2.925	-2.9021	-2.7125	-3.05	-2.8583	-2.7833	-3.1312	-2.9292	432.026	291.790	498.120	236.584	231.240	237.220	358.403	451.729	303.535	524.684	462.455	418.424	352.122	355.123	217.354	186.623	0.00058583	0.00042147	0.00018747	395.65	5.8879e-06	1.2294e-06	542.98	78.374	3.6633e-06	2.2043e-07	144.83	47.615	17.653	5.0073	5.8164e-06	19.591	0.00026259	0.00025151	6.9733e-05	401.5	2.8111e-06	2.7989e-06	535.92	79	2.7655e-06	2.7615e-06	145.07	47.715	18.484	5.3868	2.8208e-06	19.917	369.647	506.806	236.130	181.798	316.176	172.864	181.353	185.553	315.147	398.315	185.547	191.287	190.497	196.079	351.494	194.811	-8191	255	
1526.161	1	1	0	0	0.18599	0.11989	0.25587	0.078922	0.30195	0.025053	0.15187	0.14612	0.19122	0.2077	0.13482	0.10967	0.10268	0.20451	0.20981	0.12823	-2.5958	-2.9479	-2.5292	-3.1188	-2.8917	-2.9229	-3.2875	-2.8812	-2.775	-3.1521	-2.7229	-3.1625	-3.0583	-2.8396	-2.9646	-2.7562	180.492	224.611	525.531	239.373	460.321	397.062	433.091	406.842	289.385	473.569	195.268	526.849	453.359	195.434	366.256	295.940	0.00056511	0.00023681	1.7117e-05	398.57	1.1969e-06	4.6134e-06	545.67	77.755	2.3816e-06	1.8062e-06	145.55	47.876	17.706	5.0326	3.8407e-06	20.02	0.00025808	0.00025532	7.1124e-05	401.95	2.82e-06	2.7821e-06	535.31	78.871	2.8087e-06	2.8117e-06	145.74	47.813	18.564	5.4115	2.8121e-06	20.185	383.685	346.010	187.505	181.853	178.411	403.336	180.976	186.629	376.703	426.268	186.123	190.938	190.560	196.283	264.877	195.493	-8191	255	
1526.282	1	1	0	0	0.12624	0.18863	0.1794	0.11278	0.09138	0.31086	0.13956	0.45791	0.060926	0.19141	0.10214	0.13841	0.10588	0.050214	0.29904	0.16599	-2.3917	-2.9875	-2.6542	-3.0042	-3.0479	-2.8688	-2.9771	-2.6979	-2.9917	-3.1063	-2.8375	-2.9396	-2.975	-2.7646	-2.8583	-2.9021	448.329	299.953	361.753	511.377	203.536	362.715	462.762	478.277	329.462	237.219	255.914	220.377	478.789	301.992	514.290	434.197	0.00056955	8.9924e-05	8.3149e-05	395.96	4.3928e-07	3.5275e-06	541.86	78.574	1.3268e-06	1.8813e-06	145.19	48.068	17.757	4.9877	1.4767e-06	20.206	0.0002639	0.00025839	7.1828e-05	402.97	2.8259e-06	2.7844e-06	535.72	79.313	2.7731e-06	2.7623e-06	146.08	48.123	18.578	5.4642	2.8271e-06	20.317	383.362	294.114	244.407	181.101	309.482	362.943	181.143	186.362	500.931	350.250	185.838	190.846	190.485	195.304	425.179	195.606	-8191	255	
1526.376	1	1	0	0	0.067068	0.10768	0.092489	0.019058	0.28135	0.15926	0.11929	0.13741	0.20172	0.032161	0.29241	0.063192	0.090144	0.187	0.036989	0.14758	-2.4354	-3.0104	-2.5208	-2.8354	-2.95	-2.7083	-2.9729	-2.7438	-2.7417	-3.1437	-2.7875	-2.9313	-2.8812	-2.8	-2.9125	-2.8979	282.413	438.982	185.043	386.444	213.741	223.703	450.346	391.807	277.113	175.294	420.924	509.262	526.596	284.666	312.395	440.349	0.00063805	0.00024268	0.00014218	397.24	2.7661e-06	6.5435e-06	543.08	78.785	1.4982e-06	1.7318e-06	146.59	48.43	17.771	5.0566	4.4665e-06	20.081	0.00026259	0.00025522	7.2767e-05	402.03	2.8284e-06	2.7879e-06	538	79.365	2.8308e-06	2.84e-06	146.84	48.331	18.639	5.4783	2.779e-06	20.228	389.024	224.572	175.419	181.188	297.125	430.361	180.964	186.096	324.690	173.061	185.592	190.700	190.015	196.300	332.906	195.530	-8191	255	
1526.472	1	1	0	0	0.028777	0.0074235	0.078507	0.08439	0.15462	0.0758	0.084399	0.094596	0.015826	0.17109	0.18491	0.20088	0.20465	0.11905	0.25978	0.36985	-2.475	-3.1229	-2.7146	-2.8521	-3.1292	-2.7521	-3.0417	-2.7958	-2.6458	-3.2625	-2.9604	-2.825	-3.0708	-2.6042	-2.9104	-3.0458	270.272	513.572	493.006	370.831	397.271	433.614	249.234	376.397	435.064	493.659	325.762	274.067	381.703	259.455	465.099	413.341	0.0004974	0.00037213	5.1508e-05	399.05	3.3603e-06	1.8856e-06	541.45	77.544	3.6488e-06	2.2447e-06	145.08	47.934	17.594	4.929	6.2142e-07	19.71	0.00026324	0.0002526	7.1629e-05	401.23	2.804e-06	2.7697e-06	535.66	78.85	2.7942e-06	2.8155e-06	145.5	47.918	18.553	5.4185	2.8016e-06	19.963	386.779	495.204	392.443	181.526	294.897	290.211	181.246	186.516	347.381	219.200	185.602	191.172	190.499	195.324	350.182	195.624	-8191	255	
1526.569	1	1	0	0	0.23422	0.12727	0.18736	0.26021	0.078926	0.14784	0.16341	0.11775	0.15227	0.1889	0.12213	0.058005	0.10507	0.10636	0.13092	0.17321	-2.2333	-2.8937	-2.6375	-2.7896	-3.0563	-2.7354	-3.1437	-2.9771	-2.5917	-3.0771	-2.75	-2.7812	-2.9417	-2.7479	-2.8792	-2.9875	492.077	473.140	463.556	506.482	473.050	168.332	236.552	194.026	397.382	491.600	335.883	471.450	218.496	390.315	337.713	217.383	0.00055687	0.00023803	5.0565e-05	397.9	3.5205e-06	4.7942e-06	542.13	77.394	2.5086e-06	1.1401e-06	144.06	47.68	17.684	5.0329	2.4451e-06	19.944	0.00026409	0.00025299	7.1828e-05	400.31	2.7467e-06	2.7979e-06	534.56	78.725	2.7721e-06	2.7999e-06	145.35	47.736	18.474	5.4279	2.8233e-06	20.033	397.481	393.603	324.844	181.577	368.952	246.825	181.050	185.877	306.890	323.876	185.592	190.848	190.781	195.888	276.749	195.125	-8191	255	
1526.689	1	1	0	0	0.12428	0.11745	0.053815	0.12388	0.15641	0.02891	0.076043	0.20426	0.08226	0.083204	0.089473	0.27667	0.35027	0.22874	0.09539	0.17389	-2.2271	-3.0292	-3.1167	-2.7812	-2.9583	-2.8875	-2.8292	-2.8708	-2.6292	-3.1083	-2.9979	-2.7188	-2.9708	-2.825	-2.8854	-3.0229	393.211	412.626	269.489	297.857	236.823	169.214	521.635	424.688	445.867	267.964	389.351	486.474	477.154	452.218	519.877	508.656	0.00065124	0.00025106	8.9804e-05	397.51	7.931e-07	4.6191e-06	538.73	78.219	2.6755e-06	2.738e-06	144.72	47.739	17.71	5.0543	1.6965e-06	19.775	0.00026346	0.0002572	7.211e-05	400.78	2.8255e-06	2.8101e-06	534.58	79.039	2.8215e-06	2.8335e-06	145.13	47.717	18.47	5.4756	2.8132e-06	20.118	379.153	385.207	210.032	181.041	342.557	375.606	181.116	186.017	202.021	309.377	185.948	190.676	190.088	196.441	255.110	195.530	-8191	255	
1526.785	1	1	0	0	0.13923	0.17834	0.23658	0.29486	0.15945	0.14948	0.26931	0.20633	0.16804	0.17418	0.038755	0.15446	0.06571	0.033633	0.087651	0.1763	-2.2146	-2.9646	-2.9396	-2.8208	-2.9271	-2.7104	-2.9417	-2.9542	-2.8146	-2.9917	-2.9188	-2.7104	-2.8854	-2.6646	-2.7667	-3.0812	231.564	297.543	275.342	373.833	434.168	469.792	337.331	249.874	402.572	495.840	201.888	518.684	243.642	502.728	207.386	483.076	0.00061905	0.00046337	3.5089e-05	396.35	6.6242e-07	3.8415e-06	544.18	77.888	6.4471e-06	2.3657e-06	147.15	48.086	17.828	5.0905	6.484e-06	20.234	0.00025889	0.00025962	7.241e-05	402.4	2.8307e-06	2.82e-06	536.3	79.234	2.8444e-06	2.8267e-06	146.2	48.186	18.657	5.5269	2.8399e-06	20.35	387.326	263.361	447.481	181.369	505.112	328.853	181.174	186.126	308.169	287.089	185.809	191.185	190.684	195.689	265.564	195.451	-8191	255	
1526.857	1	1	0	0	0.10533	0.1554	0.13867	0.10364	0.14418	0.073498	0.088844	0.2364	0.1913	0.15557	0.091111	0.12582	0.010842	0.14301	0.19095	0.21917	-2.3417	-2.9479	-2.85	-2.6917	-3.0979	-2.8833	-2.9562	-3.0542	-2.7021	-3.0208	-3.0208	-2.7375	-3.1542	-2.9188	-2.8667	-3.2062	188.791	356.744	222.882	441.441	193.774	273.950	391.955	451.735	183.692	227.106	208.464	375.948	291.498	432.780	374.435	407.188	0.00049533	0.00025823	8.204e-05	398	2.18e-06	1.9133e-06	543.34	78.103	5.6521e-06	1.5738e-06	146.08	48.07	17.55	5.0753	2.397e-06	19.992	0.00025957	0.00026442	7.2809e-05	403.33	2.8804e-06	2.8776e-06	535.36	79.059	2.8222e-06	2.9182e-06	145.79	48.032	18.461	5.4556	2.8294e-06	20.104	383.758	515.112	334.117	181.306	303.199	434.354	180.756	186.647	341.072	233.206	185.875	190.685	190.570	195.762	303.963	195.680	-8191	255	
1526.953	1	1	0	0	0.21731	0.20404	0.15363	0.2953	0.12183	0.0081758	0.20476	0.074811	0.11066	0.14505	0.34188	0.1566	0.31349	0.19805	0.21872	0.26357	-2.3625	-2.725	-2.8979	-2.6667	-3.0875	-2.9396	-2.8563	-2.9917	-2.6354	-2.6833	-3.0646	-2.7646	-2.8771	-3.0333	-2.6375	-3.0875	421.261	174.786	526.154	357.266	305.570	221.186	179.906	245.632	484.461	528.279	424.203	514.606	489.273	458.545	341.957	469.361	0.00065801	0.00036885	9.7766e-05	396.1	2.7958e-06	5.122e-06	541.34	78.075	5.1522e-06	9.7491e-07	145.62	47.315	17.545	4.9526	3.8536e-06	19.728	0.00025821	0.00025859	7.1876e-05	400.75	2.8445e-06	2.8443e-06	533.09	78.897	2.8296e-06	2.8347e-06	145.06	47.511	18.481	5.3952	2.8064e-06	19.945	381.406	520.234	255.781	181.125	520.252	354.757	180.879	186.465	344.735	500.944	186.144	190.993	190.707	196.705	324.407	195.058	-8191	255	
1527.074	1	1	0	0	0.18108	0.20229	0.13153	0.19585	0.022	0.18731	0.16326	0.52975	0.065333	0.073553	0.024272	0.10392	0.14737	0.059996	0.23142	0.16726	-2.2229	-2.9167	-3.1021	-2.7146	-2.95	-3.0125	-2.6729	-3.1167	-2.7771	-2.8875	-3.2833	-2.7521	-3.0229	-3.0104	-2.8167	-2.9813	325.597	209.317	235.412	490.375	173.640	378.184	521.360	237.846	522.870	246.219	417.846	233.324	498.754	214.037	210.138	234.972	0.00059687	0.00019998	7.7735e-05	395.4	5.494e-06	2.626e-06	540.2	77.826	5.9676e-06	1.3897e-06	143.54	47.605	17.446	4.9671	3.6586e-06	19.853	0.00026394	0.00026376	7.3082e-05	400.79	2.8711e-06	2.8454e-06	533.7	78.565	2.7917e-06	2.8945e-06	144.6	47.686	18.472	5.4181	2.8372e-06	20.035	389.352	192.641	503.265	181.881	330.024	291.770	181.077	186.480	262.410	312.777	186.115	190.891	190.682	195.789	177.100	195.269	-8191	255	
1527.170	1	1	0	0	0.066853	0.075146	0.06739	0.14068	0.28518	0.11099	0.12235	0.15068	0.23194	0.1568	0.098692	0.15383	0.098868	0.057151	0.16142	0.16147	-2.4979	-2.875	-3.2188	-2.7583	-2.7771	-3.0396	-2.8833	-2.9917	-2.8354	-2.7417	-3.1583	-2.7146	-2.9313	-2.9479	-2.7125	-3.0812	443.440	363.694	438.718	435.260	524.743	346.734	483.358	420.815	440.503	332.981	260.556	380.647	440.947	434.290	358.475	176.152	0.000656	0.00025691	0.00012074	393.36	5.3331e-06	6.1756e-06	541.51	78.187	2.3147e-06	1.6625e-06	145.29	48.138	17.435	5.0943	2.3843e-06	19.98	0.00026477	0.0002601	7.3552e-05	400.12	2.8716e-06	2.8567e-06	534.7	78.823	2.848e-06	2.9001e-06	145.88	47.915	18.572	5.4747	2.9358e-06	20.205	388.163	251.671	339.469	181.368	407.208	330.109	180.986	186.183	510.301	355.371	185.816	190.906	191.190	196.609	416.254	195.223	-8191	255	
1527.264	1	1	0	0	0.17138	0.10682	0.095905	0.27614	0.16324	0.21842	0.19752	0.04074	0.033696	0.16058	0.21727	0.093693	0.25753	0.16265	0.082134	0.056737	-2.3542	-2.5604	-3.1792	-2.8542	-2.8229	-3.1208	-2.7687	-2.9667	-3.0312	-2.9417	-3.0604	-2.9104	-2.9208	-3.0979	-2.8104	-2.9688	381.448	370.471	187.211	512.445	274.358	330.638	272.209	346.959	209.011	306.817	173.857	284.567	449.784	504.244	237.538	508.026	0.00058455	0.00029624	7.4213e-05	396.89	3.5394e-06	2.703e-06	543.96	78.696	3.596e-06	3.3905e-06	145.11	48.115	17.645	5.0341	1.6023e-06	19.982	0.0002716	0.00026315	7.3955e-05	401.85	2.906e-06	2.862e-06	536.23	79.213	2.8786e-06	2.8979e-06	145.53	47.948	18.5	5.4642	2.8789e-06	20.187	381.916	271.291	225.639	181.016	333.117	317.327	181.439	186.177	303.614	290.785	185.636	191.032	190.014	196.232	323.361	196.076	-8191	255	
1527.362	1	1	0	0	0.19463	0.068219	0.093728	0.26506	0.25059	0.089666	0.13016	0.0773	0.084426	0.32526	0.093378	0.17676	0.18563	0.17484	0.24381	0.18338	-2.475	-2.6583	-2.8979	-2.8708	-2.6688	-3.1542	-2.7583	-3.0104	-2.9521	-2.9104	-3.025	-2.7917	-2.8625	-2.9333	-2.9354	-2.7958	368.190	209.432	433.694	347.091	333.563	399.443	409.917	194.170	219.464	503.296	221.504	279.737	497.372	526.207	451.620	169.270	0.00070914	0.00033844	4.0087e-05	391.95	3.1284e-06	5.9337e-06	538.45	77.796	3.6908e-06	2.1173e-06	144.75	47.241	17.672	4.9539	3.005e-06	19.594	0.00027058	0.00026883	7.3905e-05	400.41	2.9187e-06	2.8717e-06	533.47	78.761	2.9123e-06	2.8808e-06	144.59	47.335	18.396	5.3765	2.8964e-06	19.79	389.101	207.977	187.712	181.638	472.764	305.702	181.101	186.848	292.099	307.029	185.830	190.651	190.793	195.906	322.869	195.346	-8191	255	
1527.457	1	1	0	0	0.19822	0.19643	0.066908	0.14644	0.19713	0.18493	0.044574	0.0051489	0.1432	0.040387	0.23477	0.31683	0.11289	0.12013	0.30203	0.17312	-2.3167	-2.7229	-3.0729	-2.8854	-2.5542	-3.2104	-2.8542	-2.9188	-3.25	-2.7188	-3.0292	-2.9604	-2.6271	-2.9313	-2.8708	-2.9125	174.076	238.712	342.936	451.587	222.780	341.547	490.579	235.588	334.616	404.873	339.117	169.966	192.933	315.013	283.370	423.763	0.00050522	0.0003227	0.00014142	395.19	1.4967e-06	2.1347e-06	537.98	77.433	2.6411e-06	3.7028e-07	142.84	46.655	17.324	4.9081	2.408e-06	19.609	0.00026937	0.00026515	7.4277e-05	400.34	2.914e-06	2.8785e-06	531.73	78.201	2.9062e-06	2.8563e-06	143.77	47.218	18.209	5.3596	2.8837e-06	19.835	376.534	237.732	239.328	181.789	522.163	340.369	181.299	186.475	190.845	406.498	185.742	191.361	190.728	196.035	363.323	195.117	-8191	255	
1527.555	1	1	0	0	0.069241	0.22169	0.17179	0.14982	0.16094	0.098828	0.30295	0.16007	0.14492	0.19395	0.21388	0.15553	0.109	0.027407	0.21561	0.027497	-2.5896	-2.7542	-2.8229	-2.8958	-2.7583	-3.0854	-2.925	-2.9854	-3.0104	-2.7583	-3.0625	-3.0479	-2.5896	-3.0583	-2.7458	-2.6333	513.209	333.413	296.289	294.162	415.791	433.043	425.469	463.610	277.750	399.336	416.665	364.976	390.731	438.827	321.105	348.042	0.00066661	0.00025021	0.00016682	394.95	1.8113e-06	2.2448e-06	539.05	76.904	3.8168e-06	3.1206e-06	143.4	47.27	17.39	4.8744	8.2798e-07	19.607	0.00026909	0.00026023	7.3965e-05	399.06	2.9173e-06	2.9092e-06	531.63	77.92	2.9016e-06	2.901e-06	143.87	47.062	18.204	5.3498	2.9064e-06	19.817	390.425	375.492	231.305	181.737	361.856	397.494	180.879	185.981	317.796	221.024	186.102	190.776	190.329	195.947	469.242	195.729	-8191	255	
1527.673	1	1	0	0	0.10975	0.084699	0.17148	0.046071	0.21565	0.06608	0.20527	0.03504	0.079996	0.24724	0.20617	0.21612	0.18607	0.077759	0.23274	0.11646	-2.6229	-2.775	-2.9958	-2.9979	-2.6479	-3.2604	-3.0604	-2.7542	-3.2583	-2.8146	-2.9562	-2.8271	-2.7125	-3.0167	-2.7958	-2.7917	278.304	452.728	202.072	268.404	253.591	274.090	435.729	308.633	322.244	513.620	280.935	437.182	369.324	190.677	298.328	178.993	0.00057108	0.00024495	6.203e-05	391.81	2.7796e-06	1.0816e-06	536.05	76.898	1.1781e-06	8.1266e-07	144.32	46.99	17.293	4.8917	2.6726e-06	19.733	0.0002713	0.00026885	7.5011e-05	397.76	2.9225e-06	2.9686e-06	531.54	78.007	2.9263e-06	2.9288e-06	143.76	47.169	18.285	5.3537	2.945e-06	19.903	381.437	228.356	471.155	180.966	300.982	365.186	180.998	186.431	178.290	357.508	186.101	191.487	190.969	196.392	224.432	195.476	-8191	255	
1527.770	1	1	0	0	0.23576	0.29216	0.16248	0.25117	0.059408	0.062398	0.070986	0.14369	0.35915	0.28759	0.085778	0.13442	0.16475	0.066703	0.040494	0.059751	-2.6188	-2.7542	-2.7479	-3.0167	-2.8542	-2.9521	-2.8771	-2.7083	-2.8708	-2.6688	-2.8875	-3.1312	-2.8312	-2.8625	-2.8812	-2.7042	484.199	363.832	331.887	221.598	178.883	421.335	373.771	187.769	287.597	242.395	242.179	299.210	457.670	293.598	205.769	250.250	0.00058869	6.1135e-05	7.8858e-05	389.98	6.7578e-06	3.3156e-06	537.54	76.389	1.7016e-06	7.6688e-07	143.02	46.932	17.205	4.8366	3.9467e-06	19.237	0.00026859	0.00027053	7.4664e-05	399.07	2.9279e-06	2.9256e-06	531.51	77.632	2.9187e-06	2.9061e-06	143.56	46.897	18.099	5.2771	2.9149e-06	19.503	393.197	241.247	187.181	181.510	302.162	313.617	181.107	186.347	231.558	191.643	185.552	190.903	191.196	196.421	297.680	195.417	-8191	255	
1527.866	1	1	0	0	0.38101	0.23433	0.16122	0.09207	0.20538	0.35922	0.12827	0.25928	0.12859	0.22366	0.19952	0.22349	0.27384	0.17415	0.26119	0.15644	-2.8229	-2.8104	-2.9271	-3.05	-2.8271	-2.9417	-3.1417	-2.8542	-3.0979	-2.8292	-2.7438	-3.2521	-2.8375	-2.9333	-3.0479	-2.7667	325.114	283.471	515.225	346.689	321.264	247.128	179.861	520.227	272.501	190.437	181.534	435.880	237.154	511.810	517.643	234.934	0.00057387	0.00048435	5.9888e-05	388.13	3.1274e-06	1.3034e-06	536.34	76.686	2.8816e-06	4.6801e-06	143.23	46.834	16.97	4.8432	6.66e-06	19.259	0.00027332	0.00027063	7.4727e-05	397.93	2.8971e-06	2.9138e-06	529.01	77.414	2.9075e-06	2.924e-06	143.15	46.785	18.106	5.3008	2.9386e-06	19.556	386.196	321.290	218.091	182.113	312.564	343.113	181.100	186.446	276.394	345.376	185.846	191.174	190.600	196.254	357.097	195.976	-8191	255	
1527.962	1	1	0	0	0.31937	0.20741	0.17362	0.29548	0.1416	0.23122	0.21175	0.28566	0.11833	0.15493	0.29031	0.16522	0.28533	0.11202	0.091815	0.26367	-2.5938	-2.7208	-2.6	-3.075	-2.8417	-2.8563	-3.1125	-2.8208	-2.8417	-2.9292	-2.6604	-3.0896	-2.7646	-2.9292	-2.9667	-2.7396	520.685	410.855	272.260	416.296	203.898	276.792	526.207	410.688	473.408	300.742	326.606	441.026	283.925	336.602	399.635	459.274	0.00054395	0.00016715	0.00012143	392.13	2.3937e-06	5.4409e-06	535.94	76.767	4.6322e-06	9.9613e-07	144.03	47.248	17.205	4.8947	5.6893e-06	19.567	0.00027426	0.00026878	7.4929e-05	399.65	2.9136e-06	2.9227e-06	530	77.676	2.928e-06	2.9438e-06	143.38	47.068	18.158	5.358	2.946e-06	19.791	374.497	203.690	518.447	181.463	329.841	419.969	181.019	185.788	397.627	325.276	185.706	191.116	190.516	196.556	365.855	196.032	-8191	255	
1528.058	1	1	0	0	0.062127	0.11519	0.13299	0.034464	0.22471	0.078969	0.18564	0.0086936	0.19017	0.058435	0.059725	0.082835	0.060469	0.14605	0.17638	0.1444	-2.6333	-2.8438	-2.8042	-3.1354	-2.7938	-2.6646	-3.0167	-2.7042	-3.1417	-2.9896	-2.5875	-3.0187	-2.5854	-2.8458	-3.1958	-2.9146	270.634	424.525	241.631	223.708	177.076	478.306	184.296	343.802	357.475	453.766	377.574	437.377	371.488	311.980	411.484	425.820	0.00058333	0.00024519	0.00011569	393.37	1.2286e-06	6.0954e-06	535.01	77.372	1.7482e-06	3.1036e-06	143.5	47.383	17.475	4.8963	8.892e-06	19.701	0.0002731	0.00027121	7.4403e-05	399.92	2.9482e-06	2.9599e-06	530.58	78.116	2.9102e-06	2.9546e-06	144.29	47.404	18.298	5.376	2.906e-06	19.973	382.287	313.131	219.493	181.403	448.038	358.574	181.020	186.276	306.159	299.252	186.108	190.788	191.061	196.445	310.963	195.572	-8191	255	
1528.154	1	1	0	0	0.22068	0.18007	0.15567	0.10483	0.2947	0.18289	0.070716	0.10121	0.10968	0.21386	0.28971	0.17985	0.26926	0.037596	0.20603	0.12146	-2.6854	-3.0104	-2.625	-3.025	-2.9167	-2.9125	-3.0458	-2.7208	-2.925	-2.8667	-2.8563	-3.0687	-2.7146	-2.7354	-3.2458	-2.7521	239.004	470.532	177.913	493.892	183.312	338.196	432.909	175.905	379.270	386.121	475.958	198.237	441.733	496.068	368.505	343.268	0.0005227	0.00031871	6.1349e-05	396.38	1.1469e-06	1.0175e-06	538.29	77.227	5.0382e-06	4.274e-06	145.03	47.812	17.527	5.0047	2.0835e-06	19.571	0.00027481	0.00026522	7.4781e-05	401.31	2.9561e-06	2.9051e-06	533.76	78.323	2.9337e-06	2.9119e-06	144.76	47.63	18.385	5.4099	2.8959e-06	19.904	385.383	308.853	295.388	181.137	315.763	494.527	181.246	186.313	338.855	267.189	186.079	190.543	190.259	196.681	333.079	195.479	-8191	255	
1528.250	1	1	0	0	0.098818	0.15522	0.1904	0.038657	0.063302	0.21044	0.17177	0.19029	0.10532	0.051501	0.20234	0.13136	0.08733	0.37131	0.21069	0.071547	-2.3146	-2.9813	-2.7958	-3.0208	-2.925	-2.8146	-3.2458	-2.7438	-2.8042	-3.1854	-2.7667	-2.9958	-2.9	-2.7396	-3.1312	-2.9062	456.559	418.633	436.246	188.372	491.022	206.102	522.055	271.820	176.120	264.892	267.121	390.982	480.045	460.285	472.134	300.522	0.00073944	0.00014277	2.339e-05	393.61	2.448e-06	2.5069e-06	540.15	77.16	3.0724e-06	3.7444e-06	143.55	47.258	17.228	4.8749	6.4884e-06	19.37	0.00027406	0.0002673	7.5689e-05	400.19	2.9399e-06	2.9227e-06	531.32	77.881	2.9088e-06	2.9125e-06	143.42	47.146	18.269	5.3426	2.8653e-06	19.667	385.366	517.513	374.855	181.399	263.867	193.660	180.935	185.830	303.912	424.729	185.920	191.036	190.581	196.212	305.804	195.120	-8191	255	
1528.369	1	1	0	0	0.27234	0.13094	0.058515	0.036889	0.15471	0.21878	0.22014	0.20909	0.048127	0.20499	0.074021	0.1789	0.24863	0.091564	0.14366	0.23885	-2.3125	-3.0604	-2.6542	-2.8854	-3.1	-2.9021	-3.2167	-2.8438	-2.8417	-2.9375	-2.8937	-3.0854	-3.0312	-2.6937	-3.0667	-2.9229	327.190	476.439	261.217	319.635	456.470	206.221	469.448	444.307	405.593	386.628	209.687	415.459	527.230	184.891	424.115	282.054	0.00052966	0.00011501	0.00021838	395.05	3.0653e-06	1.9279e-06	534.31	77.324	3.5531e-06	2.3572e-06	143.33	47.426	17.139	4.8587	2.2537e-06	19.572	0.00026959	0.00026675	7.2847e-05	400.9	2.9292e-06	2.8843e-06	529.24	78.024	2.911e-06	2.8885e-06	143.76	47.215	18.245	5.3398	2.9091e-06	19.773	375.243	472.666	287.028	181.807	358.944	507.720	181.140	186.120	297.661	398.932	185.779	190.787	190.398	196.758	196.477	194.898	-8191	255	
1528.465	1	1	0	0	0.30203	0.16235	0.15505	0.075403	0.15443	0.14118	0.2261	0.073401	0.16516	0.29948	0.17856	0.053844	0.053325	0.13235	0.23017	0.044279	-2.3917	-3.1083	-2.7208	-2.7625	-2.9313	-2.7104	-3.0708	-2.8354	-2.7083	-3.1937	-2.9271	-2.9896	-3.1208	-2.6688	-2.9167	-2.8417	313.405	449.869	336.253	283.360	493.998	178.315	497.975	289.633	216.265	255.217	285.669	436.962	247.966	345.163	426.741	206.058	0.0006225	0.00017474	5.7611e-05	397.58	4.1757e-06	3.6325e-06	537.56	77.597	4.3379e-06	6.6157e-07	143.97	47.242	17.331	4.9686	1.3161e-06	19.87	0.00027548	0.00026276	7.3573e-05	400.84	2.9299e-06	2.8463e-06	530.81	78.027	2.8643e-06	2.8737e-06	143.94	47.273	18.304	5.3969	2.968e-06	19.93	383.186	353.554	276.858	181.745	297.888	342.005	181.066	186.083	377.879	280.897	185.831	190.886	190.884	196.481	172.858	195.246	-8191	255	
1528.561	1	1	0	0	0.14177	0.072793	0.13197	0.2662	0.19497	0.050365	0.042219	0.094856	0.18195	0.14546	0.19024	0.20269	0.27872	0.050732	0.11808	0.18701	-2.2917	-3.0271	-2.7729	-2.9104	-3.1042	-2.7	-3.0729	-2.7021	-2.8729	-3.2208	-2.6937	-2.9542	-3.0854	-2.5792	-3.0312	-2.9354	300.066	388.397	479.414	417.890	200.060	477.197	203.097	493.041	291.293	303.019	527.516	266.018	443.853	318.871	227.906	485.766	0.00048786	0.00027019	1.176e-05	393.62	8.9857e-07	1.5204e-06	537.66	77.713	1.4979e-06	3.0195e-06	145.16	47.774	17.485	4.9452	2.7242e-06	19.843	0.0002712	0.00026937	7.4897e-05	400.13	2.9018e-06	2.886e-06	531.53	78.299	2.9807e-06	2.9484e-06	144.87	47.694	18.396	5.4014	2.9448e-06	20.096	390.277	513.109	389.514	181.036	422.695	290.287	181.133	186.241	336.622	418.208	186.095	190.831	190.812	196.336	260.414	195.534	-8191	255	
1528.658	1	1	0	0	0.26523	0.14141	0.14551	0.18435	0.16861	0.08281	0.060908	0.13132	0.11847	0.12902	0.085163	0.20636	0.28022	0.16826	0.13432	0.026279	-2.3375	-3.0125	-2.6042	-2.7854	-3.0417	-2.775	-2.9062	-2.9229	-2.7083	-2.8792	-2.8625	-2.9125	-3.1083	-2.6875	-3.0125	-2.8667	411.164	307.765	339.241	364.063	394.607	403.182	268.865	443.018	215.261	189.755	371.598	396.022	220.915	336.850	474.475	218.617	0.00064802	5.6744e-05	5.8872e-05	392.39	2.9527e-06	4.5658e-07	538.73	77.419	3.9328e-06	3.5505e-06	143.65	46.882	17.625	4.9571	1.3021e-06	19.529	0.00027297	0.00026938	7.5102e-05	400.37	2.9425e-06	2.9137e-06	532.16	78.152	2.8713e-06	2.9225e-06	144.17	47.21	18.384	5.3742	2.9312e-06	19.787	382.628	198.933	315.163	181.502	329.052	273.377	181.141	186.175	246.343	287.018	186.245	190.776	190.681	196.308	292.384	194.941	-8191	255	
1528.754	1	1	0	0	0.16309	0.1313	0.10268	0.30431	0.26802	0.12917	0.063659	0.047494	0.13461	0.11373	0.33692	0.21624	0.10742	0.15059	0.13483	0.091327	-2.2375	-2.9771	-2.9396	-2.7562	-3.05	-2.8667	-2.9562	-2.9146	-2.75	-3.0729	-2.9292	-2.6792	-3.0042	-2.8167	-2.7938	-3.0625	525.121	174.999	474.737	514.144	478.318	216.300	465.427	279.846	333.207	230.158	467.014	437.400	445.073	476.899	499.366	223.338	0.00068281	0.00054714	0.00013148	391.49	1.1226e-06	2.2136e-06	538.28	76.718	3.1818e-06	1.1402e-06	143.28	47.005	17.246	4.9052	1.24e-06	19.532	0.00027045	0.00027029	7.4592e-05	398.73	2.9393e-06	2.923e-06	530.74	77.605	2.8817e-06	2.9453e-06	143.44	46.871	18.207	5.3283	2.8812e-06	19.753	382.498	277.988	248.975	181.595	450.736	305.107	181.010	186.252	316.255	355.545	186.066	190.974	190.348	195.747	475.702	195.580	-8191	255	
1528.850	1	1	0	0	0.17111	0.20271	0.16737	0.034817	0.12566	0.05991	0.26118	0.11888	0.1087	0.08671	0.2939	0.21651	0.21518	0.10745	0.076473	0.32488	-2.2188	-2.7375	-2.9521	-2.6375	-2.9354	-2.8958	-2.7625	-2.9062	-2.7562	-2.9313	-2.9542	-2.5938	-3.0521	-2.8271	-2.6292	-3.1708	358.658	324.467	478.085	273.714	521.669	299.010	460.541	395.418	217.324	315.531	481.869	270.707	251.240	330.153	488.437	189.678	0.00060486	0.00011554	3.1161e-05	391.84	6.0167e-07	6.205e-07	536.64	76.588	1.5258e-06	1.2097e-06	143.65	47.163	17.358	4.896	1.8146e-06	19.647	0.00026677	0.00026689	7.3537e-05	398.24	2.92e-06	2.9313e-06	529.79	77.693	2.8965e-06	2.9548e-06	143.84	47.192	18.268	5.3698	2.9045e-06	19.839	376.953	245.577	187.006	181.518	472.486	491.894	181.010	186.465	377.943	293.391	185.709	190.805	190.505	196.164	336.379	195.128	-8191	255	
1528.946	1	1	0	0	0.2148	0.11092	0.10187	0.21061	0.23658	0.13428	0.12167	0.17074	0.029579	0.13354	0.0608	0.15172	0.252	0.1936	0.16919	0.087167	-2.3771	-2.8958	-2.9313	-2.6729	-3.0083	-3.1042	-2.8146	-2.9333	-2.9062	-3.025	-3.0458	-2.7479	-3.0771	-2.9854	-2.7979	-3.0771	423.369	304.753	313.784	464.957	294.137	265.795	391.320	260.417	283.167	349.517	275.534	194.257	489.528	397.681	197.631	502.922	0.00063297	0.00023722	9.639e-05	394.99	1.2786e-06	2.1672e-06	539.37	77.729	1.4611e-06	1.2346e-06	144.31	47.4	17.242	4.9448	4.5265e-06	19.731	0.00027263	0.00027227	7.5064e-05	400.26	2.9733e-06	2.9474e-06	532.04	78.209	2.9992e-06	2.8987e-06	144.62	47.347	18.305	5.4054	2.9463e-06	20.087	386.732	213.704	294.760	181.291	490.014	438.761	180.873	186.199	481.429	356.504	186.266	191.186	190.630	196.110	410.820	195.376	-8191	255	
1529.042	1	1	0	0	0.0305	0.24876	0.094673	0.15416	0.083479	0.20348	0.10561	0.17616	0.11067	0.092974	0.053442	0.079177	0.096106	0.22144	0.060523	0.18048	-2.4021	-2.7438	-3.0167	-2.5896	-2.9458	-2.9646	-2.7708	-3.0229	-2.8896	-2.8937	-3.1854	-2.8312	-2.9	-2.8479	-2.5875	-3.0083	440.863	412.823	419.971	458.992	224.345	322.238	279.155	451.976	362.572	347.401	340.375	174.114	177.960	225.075	226.787	193.947	0.00056721	0.00026196	0.00010404	396.63	2.2332e-06	3.491e-06	540.9	78.107	2.018e-06	3.9644e-06	144.13	47.424	17.499	4.9628	1.4358e-06	19.773	0.00027303	0.00027005	7.3889e-05	400.26	2.9804e-06	2.9663e-06	532.94	78.577	2.9333e-06	2.9587e-06	144.49	47.669	18.385	5.3857	2.9475e-06	20.001	382.374	304.047	481.103	181.160	359.537	386.584	181.104	186.406	269.241	272.274	185.973	191.004	190.758	196.477	399.780	195.374	-8191	255	
1529.161	1	1	0	0	0.089816	0.052863	0.081666	0.29204	0.15964	0.2003	0.19918	0.15444	0.17102	0.16504	0.1144	0.18503	0.24279	0.13433	0.16025	0.060166	-2.5271	-2.7188	-2.9313	-2.6104	-2.95	-3.0083	-2.9458	-2.8271	-2.8208	-2.7167	-3.1021	-2.8792	-3.0354	-3.0979	-2.6063	-3.1917	197.552	295.318	175.801	188.457	446.030	286.111	206.469	486.704	197.554	487.167	481.567	340.693	425.641	374.706	206.061	359.241	0.00063691	0.00046734	6.8337e-05	392.31	4.2547e-06	2.4226e-06	535.39	77.718	4.4831e-06	9.7227e-07	143.1	46.832	17.36	4.9625	1.9676e-06	19.436	0.00027466	0.00026517	7.4411e-05	400.14	2.9705e-06	2.9054e-06	530.62	78.252	2.9167e-06	2.9472e-06	143.65	47.113	18.224	5.3824	2.8678e-06	19.748	385.820	299.435	242.802	181.266	397.835	284.591	181.410	186.480	226.323	277.810	186.098	190.750	190.675	195.868	321.147	195.793	-8191	255	
1529.257	1	1	0	0	0.1063	0.18105	0.27635	0.28437	0.26509	0.10649	0.10502	0.062405	0.23974	0.062516	0.31944	0.33907	0.069557	0.20316	0.066141	0.27007	-2.5583	-2.7333	-2.8542	-2.6917	-2.9833	-3.1396	-2.925	-2.9813	-2.9979	-2.8208	-3.0667	-2.7979	-3.05	-3.2313	-2.725	-2.9646	327.591	511.492	350.152	260.056	200.573	338.473	259.882	485.151	309.447	462.655	433.868	319.341	258.521	173.433	472.474	396.313	0.0006465	0.00023496	0.00013187	390.96	2.8983e-06	1.2874e-06	535.2	75.757	2.3443e-06	1.4613e-06	143.2	47.222	17.209	5.0144	4.3534e-06	19.783	0.00027292	0.00026524	7.4696e-05	397.97	2.9276e-06	2.9234e-06	528.88	77.612	2.8915e-06	2.8884e-06	143.41	47.112	18.241	5.3723	2.9086e-06	19.896	381.964	227.514	263.890	181.304	368.106	503.461	181.118	185.998	442.091	380.559	185.814	190.865	191.100	196.146	318.334	195.128	-8191	255	
1529.355	1	1	0	0	0.070663	0.18702	0.18987	0.10665	0.1707	0.088771	0.17526	0.029048	0.17852	0.10909	0.18609	0.28676	0.14706	0.24625	0.19795	0.068836	-2.4708	-2.8021	-3.1167	-2.7438	-2.8312	-3	-2.8104	-3.0604	-2.9625	-2.6646	-3.075	-2.8563	-2.8333	-3.0979	-2.9437	-3.0083	215.025	438.200	494.829	335.311	292.210	506.837	497.173	409.171	419.250	360.524	505.745	403.832	178.446	468.771	420.010	243.874	0.00068597	4.5321e-05	9.9243e-05	391.11	1.5573e-06	5.8108e-06	535.96	77.06	4.6903e-06	4.2699e-06	143.38	47.234	17.553	4.9317	3.1044e-06	19.827	0.00027354	0.00026473	7.4376e-05	399.61	2.9374e-06	2.9235e-06	530.05	78.126	2.8868e-06	2.877e-06	143.89	47.323	18.367	5.3619	2.8859e-06	19.983	377.644	510.692	497.161	181.092	197.685	349.011	180.991	186.312	176.970	367.049	186.129	191.010	190.056	197.001	434.708	195.525	-8191	255	
1529.450	1	1	0	0	0.18189	0.08343	0.20107	0.34633	0.09867	0.093175	0.20058	0.099086	0.25585	0.13967	0.26041	0.086201	0.025528	0.21589	0.20268	0.096417	-2.5896	-2.5938	-2.9062	-2.8521	-2.8458	-3.075	-2.9625	-2.9375	-3.1146	-2.8208	-3.0875	-2.8667	-2.8812	-3.05	-2.8688	-2.9917	373.460	418.186	465.817	461.099	330.023	377.754	174.144	238.691	452.439	177.277	475.352	382.202	405.899	364.921	185.761	483.442	0.00060153	8.3992e-05	3.0662e-05	392.55	1.9242e-06	2.3626e-06	537.34	77.536	3.7391e-06	4.6648e-06	143.93	47.984	17.721	4.9513	4.3236e-06	19.843	0.0002719	0.00026774	7.5068e-05	398.47	2.9081e-06	2.9474e-06	530.48	78.418	2.9218e-06	2.9282e-06	144.66	47.674	18.51	5.4386	2.9668e-06	20.173	384.817	334.489	193.532	181.535	282.207	443.809	181.179	186.194	265.271	386.662	186.060	190.948	190.973	196.928	250.386	195.505	-8191	255	
1529.546	1	1	0	0	0.13838	0.069021	0.11215	0.23355	0.099871	0.09342	0.21875	0.11132	0.19893	0.26883	0.085343	0.174	0.081921	0.056405	0.15394	0.29252	-2.7604	-2.7396	-2.9417	-3.0021	-2.6229	-3.1583	-2.9	-2.8604	-2.9688	-2.7604	-2.9417	-2.9583	-2.6625	-2.9771	-2.8417	-2.9458	364.685	238.929	370.877	438.822	364.448	441.168	494.893	419.302	329.121	287.282	462.559	468.181	337.373	444.949	482.458	234.852	0.00064016	0.00012293	0.00013463	393.28	4.3187e-06	2.4275e-06	536.81	77.493	2.7274e-06	2.3508e-06	143.68	47.192	17.214	4.9316	6.2008e-07	19.593	0.000276	0.00026986	7.4857e-05	400.46	2.8807e-06	2.9234e-06	530.31	78.313	2.9144e-06	2.9047e-06	143.63	47.185	18.225	5.3803	2.9292e-06	19.781	381.327	196.511	306.697	181.454	328.338	357.005	181.283	185.944	223.221	396.687	186.022	190.971	190.382	195.830	499.576	195.517	-8191	255	
1529.642	1	1	0	0	0.23102	0.20416	0.061957	0.16955	0.12986	0.29426	0.093884	0.10965	0.13054	0.12764	0.2079	0.11055	0.1981	0.18504	0.12175	0.018611	-2.6458	-2.7417	-2.8271	-3.0396	-2.6188	-3.0812	-2.8625	-2.8708	-2.9167	-2.7333	-2.9792	-3.1063	-2.7313	-2.9625	-2.8625	-2.7417	489.613	475.995	264.323	459.784	500.266	491.682	349.777	196.155	252.973	466.044	169.376	266.178	216.924	296.380	378.772	353.291	0.00057366	0.00023617	4.0942e-05	391.77	2.4878e-06	4.1132e-06	533.27	76.392	1.3393e-06	1.6211e-06	143.71	47.097	16.997	4.8947	2.315e-06	19.572	0.00026774	0.00026505	7.4397e-05	399.77	2.9027e-06	2.943e-06	528.8	77.695	2.8494e-06	2.8971e-06	143.58	47.095	18.176	5.3485	2.8985e-06	19.761	378.882	232.334	267.295	181.804	511.215	337.006	181.411	186.166	220.911	277.762	186.296	191.132	190.619	196.139	324.740	195.773	-8191	255	
1529.762	1	1	0	0	0.099764	0.11341	0.17703	0.26125	0.26666	0.018719	0.1984	0.24867	0.29793	0.062276	0.18749	0.30986	0.17951	0.058426	0.22784	0.064335	-2.7625	-2.7333	-2.8937	-3.1063	-2.7771	-3.3125	-2.8396	-2.6896	-3.0729	-3.0146	-2.8563	-2.925	-2.6854	-3.125	-3.0625	-2.7417	399.975	397.496	472.540	184.323	205.800	214.690	194.906	194.326	370.226	199.101	509.361	502.227	319.701	221.525	250.961	377.112	0.00059916	0.00027197	4.3512e-05	391.25	2.5201e-06	3.2024e-06	533.61	76.593	4.645e-06	5.108e-06	144.84	47.561	17.368	4.8689	4.2734e-06	19.747	0.00026848	0.00026608	7.4227e-05	398.16	2.905e-06	2.8933e-06	528.01	77.758	2.8674e-06	2.9265e-06	143.86	47.32	18.238	5.3703	2.9535e-06	19.931	382.883	245.847	525.342	182.243	505.693	286.048	180.931	186.279	301.879	321.501	185.808	191.175	190.713	195.922	239.788	195.715	-8191	255	
1529.859	1	1	0	0	0.13191	0.2271	0.3196	0.23705	0.26362	0.12585	0.32325	0.20536	0.076277	0.15035	0.38859	0.35488	0.16985	0.14982	0.15049	0.27176	-2.6771	-2.9	-2.8896	-3.0062	-2.7979	-3.1333	-2.8604	-2.5896	-3.0917	-2.9083	-2.9625	-2.9417	-2.5833	-2.8125	-3.0187	-2.7313	320.915	430.114	496.330	213.226	476.635	258.302	462.639	431.191	210.798	262.014	480.525	368.103	329.074	297.396	384.320	352.028	0.00063731	0.00024111	8.9504e-06	392.54	5.4572e-06	2.9773e-06	534.14	77.369	2.0192e-06	3.3116e-06	144.28	47.552	17.463	4.9943	7.4213e-06	19.758	0.00027273	0.00027217	7.5257e-05	398.84	2.9417e-06	2.9676e-06	529.29	78.454	2.9034e-06	2.9538e-06	144.59	47.541	18.479	5.4441	2.9379e-06	20.085	385.204	333.716	252.676	181.858	195.820	464.974	181.025	186.268	316.874	298.561	186.030	190.550	190.771	196.285	348.425	195.027	-8191	255	
1529.955	1	1	0	0	0.015617	0.21457	0.26295	0.12401	0.14187	0.26859	0.18745	0.26498	0.11223	0.047147	0.17384	0.169	0.082696	0.18131	0.054706	0.39655	-2.5833	-2.8688	-2.8625	-3.0604	-2.7771	-2.8187	-2.975	-2.6813	-3.0563	-2.8375	-2.9021	-2.9521	-2.7479	-2.8625	-2.9938	-2.8521	390.068	471.472	402.088	460.387	237.126	425.602	489.254	241.726	396.022	254.328	523.665	432.651	238.498	421.856	392.191	200.541	0.00064896	0.00023154	0.00011177	398.08	1.9712e-06	7.6276e-07	538.02	77.133	5.1389e-06	2.4789e-06	144.04	47.843	17.459	5.0234	3.167e-06	19.645	0.00027571	0.00027061	7.4887e-05	400.15	2.9409e-06	3.005e-06	531.19	78.471	2.9879e-06	3.0618e-06	144.9	47.662	18.475	5.4502	2.9558e-06	20.075	397.057	254.681	490.040	181.583	475.561	504.091	180.942	186.641	242.568	321.315	185.508	191.003	190.451	195.884	360.466	195.786	-8191	255	
1530.051	1	1	0	0	0.10136	0.080523	0.15616	0.071833	0.045351	0.08216	0.18519	0.098121	0.30808	0.087997	0.099625	0.1928	0.10151	0.33189	0.19341	0.15052	-2.4604	-2.9875	-2.5604	-3.0208	-2.8583	-2.9083	-2.9104	-2.7021	-2.8792	-2.9979	-2.7396	-3.0396	-2.6917	-2.7833	-3.1146	-2.6021	472.480	295.791	180.320	412.864	238.467	346.297	198.163	271.859	445.700	230.341	507.848	256.599	274.236	403.311	268.980	283.304	0.00057109	6.9791e-05	0.0001648	391.3	4.8801e-06	1.2922e-06	534.9	76.715	4.5145e-06	4.4926e-07	143.6	47.269	17.282	4.9113	2.2701e-06	19.591	0.00027788	0.00027344	7.5144e-05	399.55	2.9529e-06	2.9937e-06	529.43	77.983	2.9739e-06	2.9538e-06	143.81	47.29	18.356	5.3723	2.9665e-06	19.773	380.141	188.837	309.788	181.614	369.243	229.523	180.980	186.007	379.539	300.682	185.751	191.096	190.486	195.947	461.204	195.487	-8191	255	
1530.147	1	1	0	0	0.1417	0.21782	0.086089	0.108	0.10705	0.24277	0.043405	0.12029	0.046977	0.10206	0.22674	0.34531	0.1538	0.36103	0.11173	0.334	-2.625	-2.8333	-2.6437	-2.925	-2.6542	-2.7604	-3.1396	-2.8729	-3.1063	-3.0896	-2.6292	-3.0583	-2.8667	-2.5563	-2.9271	-2.7333	494.869	241.752	277.619	508.465	356.948	471.178	362.721	282.282	336.676	230.986	344.402	501.736	486.226	306.502	298.638	428.336	0.00073023	0.00030342	0.00016637	390.12	9.1744e-07	2.781e-06	536.8	76.804	2.9126e-06	4.5312e-06	143.38	46.913	17.208	4.9556	4.3316e-06	19.621	0.00027496	0.00026981	7.5771e-05	398.59	2.9636e-06	2.9602e-06	529.34	77.931	2.969e-06	2.9071e-06	143.92	47.111	18.233	5.3389	2.9186e-06	19.819	388.795	336.058	200.015	181.841	179.472	307.886	181.101	186.210	283.188	330.004	185.915	191.028	190.870	196.135	380.810	195.692	-8191	255	
#DATA ENDS
