BOXY.EXE: ISS Imagent and Oximeter Data Acquisition Program Version 0.80
Ascii Record File

#ACQ INFORMATION
2  Detector Channels 
16  External MUX Channels 
1  Auxiliary Channels 
5000  Waveform (CCF) Frequency (Hz)
1  Waveforms Skipped 
30  Waveforms Averaged 
1  Cycles Averaged 
16  Acquisitions per Waveform 
10.0806  Updata Rate (Hz) 

#FILE INFORMATION
TRUE -- External MUX Channel results are PARSED.
FALSE -- AC DC and Phase are NOT grouped.
TRUE -- Companion Program Settings File CREATED.
FALSE -- AC data not excluded
FALSE -- DC data not excluded
FALSE -- Phase data not excluded
FALSE -- Auxillary Chn. data not excluded
Tab delimiters

#CALIBRATION STATE
TRUE -- Waveform Calibration Values APPLIED.


#AUX CALIBRATION VALUES
Val Type	aux-1	

Term	1.0000e+00	
Factor	0.0000e+00	


#WF CALIBRATION VALUES
A = Detector Channel
Val Type	A-AC1	A-AC2	A-AC3	A-AC4	A-AC5	A-AC6	A-AC7	A-AC8	A-AC9	A-AC10	A-AC11	A-AC12	A-AC13	A-AC14	A-AC15	A-AC16	A-DC1	A-DC2	A-DC3	A-DC4	A-DC5	A-DC6	A-DC7	A-DC8	A-DC9	A-DC10	A-DC11	A-DC12	A-DC13	A-DC14	A-DC15	A-DC16	A-Ph1	A-Ph2	A-Ph3	A-Ph4	A-Ph5	A-Ph6	A-Ph7	A-Ph8	A-Ph9	A-Ph10	A-Ph11	A-Ph12	A-Ph13	A-Ph14	A-Ph15	A-Ph16	

Term	0.00000e+00	0.00000e+00	0.00000e+00	0.00000e+00	0.00000e+00	0.00000e+00	0.00000e+00	0.00000e+00	0.00000e+00	0.00000e+00	0.00000e+00	0.00000e+00	0.00000e+00	0.00000e+00	0.00000e+00	0.00000e+00	0.00000e+00	0.00000e+00	0.00000e+00	0.00000e+00	0.00000e+00	0.00000e+00	0.00000e+00	0.00000e+00	0.00000e+00	0.00000e+00	0.00000e+00	0.00000e+00	0.00000e+00	0.00000e+00	0.00000e+00	0.00000e+00	0.00000e+00	0.00000e+00	0.00000e+00	0.00000e+00	0.00000e+00	0.00000e+00	0.00000e+00	0.00000e+00	0.00000e+00	0.00000e+00	0.00000e+00	0.00000e+00	0.00000e+00	0.00000e+00	0.00000e+00	0.00000e+00	
Factor	1.00000e+00	1.00000e+00	1.00000e+00	1.00000e+00	1.00000e+00	1.00000e+00	1.00000e+00	1.00000e+00	1.00000e+00	1.00000e+00	1.00000e+00	1.00000e+00	1.00000e+00	1.00000e+00	1.00000e+00	1.00000e+00	1.00000e+00	1.00000e+00	1.00000e+00	1.00000e+00	1.00000e+00	1.00000e+00	1.00000e+00	1.00000e+00	1.00000e+00	1.00000e+00	1.00000e+00	1.00000e+00	1.00000e+00	1.00000e+00	1.00000e+00	1.00000e+00	X	X	X	X	X	X	X	X	X	X	X	X	X	X	X	X	

B = Detector Channel
Val Type	B-AC1	B-AC2	B-AC3	B-AC4	B-AC5	B-AC6	B-AC7	B-AC8	B-AC9	B-AC10	B-AC11	B-AC12	B-AC13	B-AC14	B-AC15	B-AC16	B-DC1	B-DC2	B-DC3	B-DC4	B-DC5	B-DC6	B-DC7	B-DC8	B-DC9	B-DC10	B-DC11	B-DC12	B-DC13	B-DC14	B-DC15	B-DC16	B-Ph1	B-Ph2	B-Ph3	B-Ph4	B-Ph5	B-Ph6	B-Ph7	B-Ph8	B-Ph9	B-Ph10	B-Ph11	B-Ph12	B-Ph13	B-Ph14	B-Ph15	B-Ph16	

Term	0.00000e+00	0.00000e+00	0.00000e+00	0.00000e+00	0.00000e+00	0.00000e+00	0.00000e+00	0.00000e+00	0.00000e+00	0.00000e+00	0.00000e+00	0.00000e+00	0.00000e+00	0.00000e+00	0.00000e+00	0.00000e+00	0.00000e+00	0.00000e+00	0.00000e+00	0.00000e+00	0.00000e+00	0.00000e+00	0.00000e+00	0.00000e+00	0.00000e+00	0.00000e+00	0.00000e+00	0.00000e+00	0.00000e+00	0.00000e+00	0.00000e+00	0.00000e+00	5.86857e+01	-1.40275e+02	-1.27777e+02	-1.81956e+02	-7.36887e+01	-5.69442e+01	-1.56028e+02	-1.62015e+02	-8.09294e+01	-6.35191e+01	-1.71357e+02	-1.71405e+02	-1.82318e+02	-1.76945e+02	-7.95853e+01	-1.50279e+02	
Factor	5.16763e-05	1.33635e-04	4.06010e-05	4.21718e-01	1.38256e-06	1.58296e-06	1.58406e-01	5.39367e-02	1.66385e-06	1.37896e-06	8.47905e-02	2.81246e-02	2.35851e-02	8.08168e-03	1.69326e-06	1.20261e-02	1.73923e-06	1.81185e-06	5.05000e-07	2.07507e-01	1.98338e-08	1.98293e-08	7.56450e-02	2.72911e-02	1.96927e-08	1.98476e-08	4.12586e-02	1.36837e-02	1.19586e-02	4.10842e-03	1.97406e-08	5.88837e-03	X	X	X	X	X	X	X	X	X	X	X	X	X	X	X	X	



#DISTANCE SETTINGS
A = Detector Channel
A-1	A-2	A-3	A-4	A-5	A-6	A-7	A-8	A-9	A-10	A-11	A-12	A-13	A-14	A-15	A-16	

2.5000e+00	3.0000e+00	2.5000e+00	3.0000e+00	2.0000e+00	3.0000e+00	1.5000e+00	3.0000e+00	3.0000e+00	3.0000e+00	3.0000e+00	3.0000e+00	3.0000e+00	3.0000e+00	1.5000e+00	3.0000e+00	

B = Detector Channel
B-1	B-2	B-3	B-4	B-5	B-6	B-7	B-8	B-9	B-10	B-11	B-12	B-13	B-14	B-15	B-16	

1.0000e+01	1.0000e+01	1.0000e+01	1.4400e+00	1.0000e+01	1.0000e+01	1.5100e+00	1.9400e+00	1.0000e+01	1.0000e+01	1.9900e+00	2.4900e+00	2.4100e+00	2.9000e+00	1.0000e+01	2.9800e+00	




#DATA BEGINS
time	group	step	mark	flag	A-AC1	A-AC2	A-AC3	A-AC4	A-AC5	A-AC6	A-AC7	A-AC8	A-AC9	A-AC10	A-AC11	A-AC12	A-AC13	A-AC14	A-AC15	A-AC16	A-DC1	A-DC2	A-DC3	A-DC4	A-DC5	A-DC6	A-DC7	A-DC8	A-DC9	A-DC10	A-DC11	A-DC12	A-DC13	A-DC14	A-DC15	A-DC16	A-Ph1	A-Ph2	A-Ph3	A-Ph4	A-Ph5	A-Ph6	A-Ph7	A-Ph8	A-Ph9	A-Ph10	A-Ph11	A-Ph12	A-Ph13	A-Ph14	A-Ph15	A-Ph16	B-AC1	B-AC2	B-AC3	B-AC4	B-AC5	B-AC6	B-AC7	B-AC8	B-AC9	B-AC10	B-AC11	B-AC12	B-AC13	B-AC14	B-AC15	B-AC16	B-DC1	B-DC2	B-DC3	B-DC4	B-DC5	B-DC6	B-DC7	B-DC8	B-DC9	B-DC10	B-DC11	B-DC12	B-DC13	B-DC14	B-DC15	B-DC16	B-Ph1	B-Ph2	B-Ph3	B-Ph4	B-Ph5	B-Ph6	B-Ph7	B-Ph8	B-Ph9	B-Ph10	B-Ph11	B-Ph12	B-Ph13	B-Ph14	B-Ph15	B-Ph16	aux-1	digaux	

790.710	1	1	0	256	0.16362	0.17535	0.2551	0.073988	0.075156	0.079384	0.15299	0.15738	0.12695	0.10303	0.10522	0.12791	0.37957	0.10595	0.026852	0.084733	-2.9667	-3.1188	-3.0125	-3.3937	-3.1667	-3.1813	-3.5979	-3.4313	-3.3042	-3.3521	-3.2458	-3.4417	-3.3937	-3.0625	-3.3854	-3.1479	267.938	209.733	-8.400	201.841	-3.181	35.199	267.017	290.584	-15.587	-1.825	-16.524	9.970	47.419	-13.418	66.360	79.300	0.00038317	0.00038681	7.243e-05	1234.4	2.1139e-06	4.7273e-06	1312.5	261.73	4.2638e-06	3.6344e-06	324.13	90.524	71.066	20.601	3.5939e-06	29.094	0.00012533	0.00011109	3.1622e-05	1177.9	1.2593e-06	1.2535e-06	1277.7	256.1	1.3184e-06	1.2877e-06	316.15	89.171	69.873	20.532	1.348e-06	28.855	329.147	76.506	80.168	-12.999	113.003	122.569	-12.826	-5.748	119.161	118.540	-6.194	0.224	0.759	7.559	130.743	7.068	-8191	255	
790.806	1	1	0	0	0.092121	0.19021	0.088526	0.14486	0.12705	0.092136	0.17547	0.21414	0.18459	0.12737	0.14311	0.20432	0.067975	0.12742	0.18625	0.051797	-2.7438	-3.4479	-3.2167	-3.4354	-3.4813	-3.0333	-3.5646	-3.3729	-3.2687	-3.375	-3.1854	-3.3375	-3.3667	-3.05	-3.4354	-3.1292	82.548	70.778	65.855	31.293	175.486	333.101	-3.777	317.683	194.179	272.378	191.054	234.577	326.000	300.950	117.692	50.506	0.00051019	0.00017626	6.2472e-05	1236.4	2.1106e-06	4.2719e-06	1310.2	260.67	1.0261e-06	2.1757e-06	322.37	90.434	70.581	20.322	5.2766e-06	28.77	0.00013407	0.00012312	3.3857e-05	1181.9	1.3428e-06	1.3133e-06	1272.3	255.42	1.3243e-06	1.2834e-06	314.74	88.804	69.339	20.341	1.2242e-06	28.589	315.567	28.889	72.255	-12.712	74.986	139.466	-12.764	-5.767	91.839	171.018	-6.298	0.953	1.009	7.491	153.895	7.031	-8191	255	
790.902	1	1	0	0	0.17502	0.18154	0.15052	0.067316	0.32144	0.18623	0.08151	0.18541	0.15701	0.22353	0.14493	0.15117	0.052585	0.13775	0.30614	0.14585	-2.8	-3.2833	-2.9542	-3.3771	-3.3604	-3.125	-3.5625	-3.1729	-3.1271	-3.375	-3.0729	-3.3479	-3.2062	-3.0479	-3.1937	-3.1604	52.825	100.715	231.277	75.381	280.096	143.165	320.893	162.605	251.381	222.390	47.620	260.240	76.483	-8.651	268.985	14.233	0.00044716	0.00023133	0.00011076	1225.3	2.5611e-06	3.8998e-06	1294.5	259.09	1.6268e-06	1.464e-06	322.33	89.848	69.721	20.214	3.1735e-06	28.616	0.00011813	0.00010449	2.8954e-05	1167.1	1.1275e-06	1.1129e-06	1261.8	253.29	1.1661e-06	1.1687e-06	312.93	87.997	68.603	20.16	1.3352e-06	28.371	318.342	8.818	60.189	-12.774	169.824	121.382	-12.692	-5.695	107.237	160.049	-6.182	0.621	0.845	7.824	185.774	7.037	-8191	255	
791.023	1	1	0	0	0.087669	0.023265	0.12342	0.15418	0.11503	0.088658	0.27856	0.043377	0.098405	0.27417	0.11286	0.3062	0.22971	0.083157	0.20123	0.10103	-2.65	-3.4146	-3.0875	-3.1688	-3.2042	-3.1521	-3.7062	-2.9729	-3.1521	-3.4792	-3.1896	-3.4229	-3.3771	-3.2396	-3.3792	-3.325	98.896	321.926	3.775	274.038	1.883	141.337	304.493	239.465	14.506	271.811	296.402	321.278	-22.056	25.051	272.383	201.705	0.00034015	0.00047264	4.3771e-05	1230.3	2.3793e-06	2.9961e-06	1306.5	260.83	1.9014e-06	1.1657e-06	324.48	90.513	70.767	20.512	1.2799e-06	28.953	0.00013665	0.00012457	3.6231e-05	1175	1.4666e-06	1.499e-06	1273.6	255.98	1.616e-06	1.5572e-06	317.01	89.073	69.616	20.541	1.6659e-06	28.734	308.422	93.221	53.871	-13.182	137.069	116.592	-12.802	-5.789	109.585	64.417	-6.071	0.573	0.980	7.597	179.376	6.880	-8191	255	
791.119	1	1	0	0	0.16207	0.13221	0.25317	0.019623	0.1206	0.20329	0.34542	0.25522	0.20858	0.14664	0.11533	0.29518	0.096384	0.091979	0.10473	0.097649	-2.6146	-3.4292	-3.2938	-3.2896	-3.4062	-2.8979	-3.5687	-3.2708	-3.1875	-3.475	-3.0438	-3.2854	-3.3146	-3.1292	-3.3229	-3.3104	271.606	216.727	212.924	146.515	94.523	287.097	264.902	325.697	167.416	40.871	323.928	333.456	303.556	-0.064	244.902	258.110	0.00036946	0.000308	9.1383e-05	1250.1	2.0025e-06	2.7157e-06	1318.6	262.04	3.4338e-06	3.0728e-06	326.29	90.067	70.771	20.519	1.9927e-06	28.79	0.00016084	0.0001515	4.1842e-05	1193.4	1.6584e-06	1.6369e-06	1284.5	257.82	1.6379e-06	1.6515e-06	318.17	89.327	69.808	20.503	1.5769e-06	28.736	334.913	66.799	54.618	-12.939	157.976	241.495	-12.772	-5.701	138.351	102.311	-6.092	0.651	0.874	7.679	14.842	6.864	-8191	255	
791.215	1	1	0	0	0.25001	0.092537	0.20612	0.13692	0.13462	0.10386	0.31386	0.080217	0.22082	0.073718	0.13834	0.27596	0.26893	0.14584	0.1854	0.07109	-2.6542	-3.0729	-3.3104	-3.0667	-3.4854	-2.8417	-3.3542	-3.2833	-2.9562	-3.3833	-3.275	-3.1542	-3.4062	-2.9875	-3.1833	-3.3896	168.401	130.250	305.763	-15.635	256.755	308.830	290.754	65.868	145.711	84.202	45.671	203.146	231.417	236.073	188.726	-16.878	0.00025854	0.00042361	0.00012143	1241.6	3.6959e-06	6.8535e-06	1312.8	261.34	5.3915e-06	1.0793e-06	323.71	89.89	70.136	20.525	3.8535e-06	28.843	0.00015257	0.00014436	3.9711e-05	1186.7	1.5443e-06	1.508e-06	1277.5	256.5	1.5139e-06	1.5059e-06	315.95	88.557	69.365	20.464	1.63e-06	28.73	324.836	74.216	61.905	-13.150	98.443	120.361	-12.799	-5.723	156.073	203.698	-6.065	0.681	1.354	7.226	141.367	6.912	-8191	255	
791.336	1	1	0	0	0.18402	0.078517	0.22474	0.048457	0.046467	0.23693	0.2583	0.15713	0.18455	0.18507	0.10064	0.15833	0.33585	0.14955	0.082135	0.098661	-2.6688	-3.4021	-2.9917	-3.2167	-3.5271	-3.0771	-3.3917	-3.6063	-3.0042	-3.4333	-3.4917	-3.2708	-3.3354	-3.2375	-3.3729	-3.3021	219.580	84.782	47.697	281.209	94.743	194.439	270.242	206.796	207.422	245.334	71.163	14.859	148.133	9.204	296.491	144.877	0.00030686	0.00051096	8.3665e-05	1246.4	4.5326e-06	5.6603e-06	1323.8	263.79	5.9283e-06	2.3922e-06	326.18	90.958	71.384	20.739	9.5895e-07	28.984	0.00016115	0.00015516	4.5036e-05	1196.1	1.8137e-06	1.8151e-06	1292.8	259.65	1.8477e-06	1.8501e-06	319.77	89.821	70.483	20.734	1.8556e-06	29.046	318.547	55.332	123.949	-12.447	170.916	160.369	-12.790	-6.057	150.161	98.149	-5.830	0.872	0.702	7.402	109.464	7.058	-8191	255	
791.407	1	1	0	0	0.2467	0.22542	0.050428	0.1377	0.082287	0.24581	0.25676	0.09048	0.19171	0.074332	0.15835	0.22419	0.099086	0.20689	0.048846	0.036231	-2.7896	-3.275	-3.3125	-3.2583	-3.3292	-3.1833	-3.3771	-3.2146	-3.0542	-3.4854	-3.3417	-3.2792	-3.4979	-3.2396	-3.0646	-3.5146	187.503	331.619	-8.556	221.683	67.038	280.604	282.723	224.419	309.434	207.824	267.173	200.767	292.846	279.574	26.887	75.117	0.00038893	0.00020783	0.00011664	1260.6	2.2045e-06	2.9804e-06	1334.9	266.44	4.4654e-06	2.8643e-06	327.85	91.594	71.958	20.8	2.5792e-06	29.049	0.00017658	0.00016942	4.6358e-05	1204.8	1.8514e-06	1.8044e-06	1300.8	261.06	1.7907e-06	1.7675e-06	321.07	90.001	70.664	20.816	1.675e-06	29.004	310.982	8.578	68.266	-13.127	106.360	118.601	-12.755	-5.947	161.529	123.601	-6.407	0.393	1.073	7.292	176.773	6.833	-8191	255	
791.502	1	1	0	0	0.15081	0.16069	0.12521	0.22989	0.090453	0.2684	0.1457	0.37381	0.31302	0.052793	0.10039	0.078845	0.12395	0.1468	0.19613	0.11487	-2.7438	-3.2313	-3.1312	-3.0646	-3.1604	-3.2021	-3.3	-3.4542	-3.0479	-3.3896	-3.4938	-2.9375	-3.6188	-3.2313	-3.1125	-3.5833	218.449	258.512	109.036	263.560	23.080	42.950	329.051	260.593	155.303	107.535	209.529	177.843	159.598	280.012	20.071	256.975	0.00035788	0.00033426	0.00015061	1257.9	1.7102e-06	1.0135e-06	1334.4	265.26	4.1418e-06	1.583e-06	329.58	91.304	72.189	20.816	2.4128e-06	29.121	0.00015935	0.00015389	4.1956e-05	1203.3	1.6773e-06	1.6718e-06	1301.8	260.73	1.6911e-06	1.691e-06	321.83	90.104	70.924	20.836	1.7158e-06	29.098	317.779	77.866	81.049	-12.993	141.521	154.395	-12.817	-5.885	143.397	93.218	-6.493	0.902	1.256	7.617	81.750	6.420	-8191	255	
791.622	1	1	0	0	0.17624	0.082711	0.063148	0.078842	0.20462	0.10343	0.035385	0.19093	0.22302	0.1667	0.075765	0.13946	0.079907	0.04416	0.1799	0.12292	-2.7188	-3.1667	-3.3833	-2.8854	-3.4021	-3.175	-3.2958	-3.5333	-3.0792	-3.3292	-3.3958	-3.1333	-3.45	-3.1604	-3.1437	-3.5125	34.101	100.306	7.226	265.707	-7.354	202.383	129.659	263.691	128.697	75.450	56.842	240.250	322.232	318.277	226.426	-8.881	0.00040246	0.00032492	6.1898e-05	1257.4	3.4999e-06	2.6277e-06	1335.7	264.43	4.3566e-06	2.5015e-06	328.69	91.234	71.273	20.801	5.8458e-06	29.285	0.0001637	0.00015736	4.3147e-05	1205.7	1.7163e-06	1.6717e-06	1300	259.92	1.688e-06	1.6474e-06	321.35	89.977	70.553	20.751	1.6301e-06	29.12	324.316	109.162	55.594	-13.012	155.951	120.051	-12.789	-5.778	151.740	229.651	-6.262	0.664	1.090	7.084	169.084	6.759	-8191	255	
791.719	1	1	0	0	0.036822	0.1871	0.16851	0.057337	0.039782	0.25572	0.22297	0.17932	0.17694	0.22769	0.31653	0.28876	0.18371	0.21832	0.23087	0.35116	-2.6729	-3.25	-3.4125	-3.0333	-3.3708	-3.3229	-3.3833	-3.6083	-2.975	-3.2646	-3.4104	-3.0979	-3.2521	-3.2792	-3.1458	-3.3854	10.420	113.523	52.423	318.163	28.305	131.293	320.549	191.331	23.438	170.004	8.235	278.655	223.775	111.250	163.336	322.770	0.00041975	0.00039915	0.00015166	1260.6	6.2248e-06	1.8609e-06	1326.7	264	4.1752e-06	3.7898e-06	325.7	89.975	70.169	20.214	4.0505e-06	28.506	0.00015908	0.00014988	4.1296e-05	1205.8	1.6311e-06	1.6135e-06	1293.4	259.14	1.6249e-06	1.6194e-06	317.98	88.91	69.335	20.354	1.5994e-06	28.501	329.111	55.150	92.515	-12.928	106.408	136.683	-12.661	-5.871	152.379	117.918	-6.211	0.667	1.094	7.566	88.599	7.238	-8191	255	
791.815	1	1	0	0	0.2976	0.32083	0.059936	0.20326	0.15881	0.10626	0.3602	0.19582	0.23208	0.26583	0.15149	0.2123	0.16298	0.32812	0.15939	0.33961	-2.8917	-2.9417	-3.275	-3.3021	-3.1542	-3.2646	-3.1854	-3.425	-3.2667	-3.2188	-3.4271	-3.1104	-3.1021	-3.3646	-2.9479	-3.4813	-9.195	263.381	239.198	23.006	181.117	217.685	335.416	334.903	174.027	80.977	299.309	280.674	109.087	36.804	-7.649	299.251	0.00036983	0.0003477	6.807e-05	1243.2	2.4248e-06	3.6486e-06	1304.1	257.09	2.8031e-06	3.0038e-06	318.77	88.835	69.228	20.008	5.3257e-06	28.119	0.0001555	0.00014762	4.0688e-05	1183	1.6218e-06	1.5861e-06	1271.3	252.58	1.6511e-06	1.6137e-06	311.86	87.299	68.248	19.995	1.5689e-06	27.992	329.300	35.595	33.943	-12.551	132.436	118.248	-12.749	-5.747	68.504	105.032	-5.824	0.857	1.067	7.838	93.920	7.459	-8191	255	
791.911	1	1	0	0	0.044455	0.14936	0.13513	0.12301	0.1055	0.13649	0.11931	0.17867	0.061654	0.068617	0.11588	0.16032	0.19536	0.20068	0.10645	0.18761	-2.6833	-3.1083	-3.3667	-3.05	-3.35	-3.4188	-3.2667	-3.5208	-3.3417	-3.0812	-3.5625	-3.1521	-3.4104	-3.3958	-3.1417	-3.5167	74.676	138.357	148.785	234.573	78.986	312.717	285.801	19.893	159.539	9.650	-4.427	181.330	323.530	5.168	328.952	154.289	0.00042009	0.00044808	5.1766e-05	1215.7	3.9473e-06	5.8471e-07	1274.8	250.48	4.6579e-06	2.3996e-06	311.73	86.964	67.712	19.657	3.3289e-06	27.843	0.00014497	0.00013215	3.6616e-05	1159.5	1.4022e-06	1.3422e-06	1245.2	246.52	1.2979e-06	1.2547e-06	304.14	85.394	66.562	19.456	1.1535e-06	27.497	334.635	82.515	24.532	-12.864	108.466	157.541	-12.822	-5.450	123.988	156.187	-6.093	0.880	1.402	7.815	117.636	7.272	-8191	255	
792.007	1	1	0	0	0.21846	0.1789	0.16043	0.20777	0.205	0.088732	0.2708	0.060799	0.32498	0.19122	0.051102	0.13714	0.33659	0.10598	0.10739	0.084792	-2.8083	-3.25	-3.3646	-3.1333	-3.3854	-3.45	-3.2938	-3.3187	-3.525	-2.8896	-3.4813	-3.2292	-3.1375	-3.3917	-3.1229	-3.4021	105.937	208.826	175.841	-17.228	3.441	274.808	214.467	-2.679	97.615	295.027	212.383	302.589	28.595	188.664	244.491	228.339	0.00041113	0.00024985	4.3214e-05	1191.8	1.5694e-06	3.8994e-06	1256.4	246.83	3.3252e-06	3.1609e-06	307.07	86.227	67.272	19.606	3.2833e-06	27.588	0.00011548	9.9995e-05	2.8636e-05	1131.3	1.1362e-06	1.1494e-06	1226.9	241.89	1.18e-06	1.1711e-06	300.65	84.77	66.148	19.413	1.2136e-06	27.41	-17.769	91.493	119.472	-13.009	147.416	118.721	-12.800	-5.554	144.388	171.614	-5.900	1.211	1.180	7.684	125.510	7.704	-8191	255	
792.103	1	1	0	0	0.037583	0.069904	0.045557	0.20593	0.025953	0.15621	0.13545	0.18372	0.058351	0.17391	0.19173	0.23477	0.31257	0.03123	0.1598	0.30926	-2.9604	-3.0292	-3.5167	-3.2667	-3.2917	-3.2438	-3.3396	-3.3354	-3.2896	-2.9646	-3.4042	-3.1771	-3.0854	-3.4188	-3.0833	-3.4792	328.047	114.278	120.063	320.529	182.337	23.406	211.224	302.561	45.740	241.397	216.182	320.923	306.806	124.013	8.824	269.615	0.00041011	0.00038301	0.00016841	1200.7	2.4345e-06	2.4229e-06	1269.8	247.35	3.9062e-06	8.3969e-07	308.57	86.493	67.535	19.493	3.9702e-06	27.673	0.00012201	0.00011444	3.1462e-05	1139.2	1.2919e-06	1.2281e-06	1232.2	242.48	1.3192e-06	1.2891e-06	301.52	85.061	66.421	19.445	1.3238e-06	27.488	309.614	29.196	64.305	-12.798	154.671	163.492	-12.825	-5.438	142.678	158.591	-5.816	1.154	1.367	7.554	90.949	7.255	-8191	255	
792.199	1	1	0	0	0.012245	0.16677	0.094128	0.11877	0.10557	0.095699	0.2284	0.33272	0.17181	0.095088	0.09416	0.37681	0.16703	0.093265	0.042577	0.16354	-2.8875	-3.0458	-3.4229	-3.2458	-3.0854	-3.3167	-3.5042	-3.3187	-3.5146	-3.1813	-3.4896	-3.3625	-3.0708	-3.4375	-3.0958	-3.4479	110.544	242.762	270.918	327.371	85.209	139.614	6.485	218.841	94.262	306.675	4.029	255.722	295.563	117.863	149.971	153.498	0.0003805	0.00022002	8.4345e-05	1198.5	2.2493e-06	4.2706e-06	1264.5	247.94	9.7655e-07	4.5438e-06	309.16	86.571	67.301	19.492	2.9335e-06	27.589	0.00012743	0.00012131	3.3185e-05	1144.3	1.3327e-06	1.2887e-06	1232.5	243.05	1.3268e-06	1.3065e-06	301.73	85.006	66.298	19.428	1.2715e-06	27.389	325.887	74.032	-2.487	-12.905	129.078	125.365	-12.766	-5.244	111.459	142.230	-6.027	0.760	1.269	7.936	138.353	7.338	-8191	255	
792.295	1	1	0	0	0.2939	0.064976	0.098794	0.11205	0.0269	0.25846	0.25243	0.29689	0.14513	0.090429	0.21172	0.19932	0.096711	0.081959	0.12614	0.31783	-2.9521	-2.9729	-3.4271	-3.3563	-3.0938	-3.35	-3.5312	-3.3229	-3.2875	-3.2458	-3.3271	-3.4625	-3.1375	-3.3292	-3.3417	-3.0563	102.713	46.665	125.111	322.689	56.491	137.207	220.564	254.737	26.494	281.689	-5.695	2.959	143.621	271.026	166.720	161.577	0.00039181	0.00026958	0.00013275	1193.3	4.6249e-06	1.423e-06	1263.2	246.79	1.6591e-06	2.8845e-06	308.07	86.555	67.556	19.421	3.3529e-06	27.486	0.00012467	0.00011497	3.2223e-05	1139.2	1.2405e-06	1.2083e-06	1229	241.88	1.2693e-06	1.2515e-06	300.04	84.761	66.101	19.374	1.2174e-06	27.318	329.103	103.722	37.415	-13.080	138.907	112.704	-12.823	-5.417	118.517	154.457	-5.523	0.831	1.162	7.726	126.060	7.457	-8191	255	
792.414	1	1	0	0	0.20506	0.093041	0.09292	0.15337	0.24443	0.041441	0.19724	0.19459	0.11081	0.15406	0.14526	0.20409	0.29143	0.29244	0.02078	0.16843	-3.2125	-3.0187	-3.2104	-3.3812	-2.9125	-3.4646	-3.3917	-3.2604	-3.2875	-3.15	-3.1688	-3.3708	-3.1583	-3.3708	-3.2458	-3.0625	333.385	34.396	-14.230	289.428	41.520	229.064	-1.428	329.936	262.598	73.760	-23.393	185.933	21.794	37.870	139.614	330.420	0.0004174	0.0001093	8.3925e-05	1197.5	4.4479e-06	5.2775e-06	1258	245.78	2.6139e-06	4.2981e-06	308.05	86.163	67.266	19.465	4.6595e-06	27.615	0.00012662	0.00011224	3.2045e-05	1138.3	1.2536e-06	1.2489e-06	1226.2	241.13	1.2431e-06	1.2159e-06	299.21	84.69	65.963	19.329	1.2516e-06	27.303	315.708	53.245	92.590	-12.887	149.555	126.026	-12.727	-5.473	150.372	150.118	-5.982	0.839	1.711	7.861	134.898	7.403	-8191	255	
792.510	1	1	0	0	0.1155	0.15244	0.18647	0.18182	0.14279	0.033261	0.14813	0.2865	0.040721	0.24854	0.19271	0.15248	0.070263	0.18198	0.12332	0.16029	-2.8458	-3.1875	-3.2313	-3.5125	-3.0333	-3.4417	-3.4375	-3.2729	-3.4229	-3.1792	-3.4042	-3.4292	-3.375	-3.2146	-3.4396	-3.2521	24.791	-3.928	92.133	176.124	290.107	55.700	305.704	245.387	89.796	162.679	251.990	237.101	302.383	269.032	-2.082	95.962	0.0003141	0.00030834	4.3357e-05	1191.9	5.8191e-06	5.6937e-06	1259.8	245.74	3.6789e-06	2.9743e-06	306.36	85.967	66.952	19.485	5.1336e-06	27.298	0.00012107	0.00010652	3.092e-05	1135.8	1.2164e-06	1.183e-06	1224.8	241.15	1.2138e-06	1.1974e-06	299.14	84.312	65.764	19.331	1.2453e-06	27.225	311.084	59.359	62.688	-13.018	161.618	172.348	-12.701	-5.428	133.021	128.751	-5.873	0.580	1.164	7.966	152.541	7.516	-8191	255	
792.607	1	1	0	0	0.14505	0.1566	0.37716	0.19149	0.086341	0.08868	0.11401	0.25626	0.14328	0.1655	0.18407	0.2866	0.17876	0.11646	0.1913	0.18391	-3.0208	-3.325	-3.1708	-3.5812	-3.1458	-3.4792	-3.3146	-3.1417	-3.1708	-3.2646	-3.2479	-3.6625	-3.2188	-3.2854	-3.3854	-3.3563	142.343	38.264	89.462	253.521	107.648	177.307	-2.884	54.385	183.804	-1.139	329.459	289.148	7.290	253.029	3.010	-4.007	0.00036821	0.000223	9.5427e-05	1192.1	4.9267e-06	3.9182e-06	1251.4	244.48	2.7643e-06	2.5482e-06	305.67	85.603	67.109	19.361	4.6023e-06	27.579	0.00012265	0.00011224	3.1512e-05	1134.1	1.2518e-06	1.2391e-06	1223.5	240.66	1.3195e-06	1.2587e-06	298.88	84.495	65.895	19.369	1.2972e-06	27.336	327.201	27.516	39.610	-12.811	123.867	95.917	-12.772	-5.489	150.863	118.188	-5.915	0.785	1.227	7.523	85.119	7.654	-8191	255	
792.703	1	1	0	0	0.098855	0.085822	0.14317	0.12046	0.11781	0.17538	0.12722	0.24794	0.058546	0.18026	0.22332	0.12324	0.092558	0.24006	0.12421	0.061268	-3.1042	-3.35	-3.1875	-3.4333	-3.2687	-3.2062	-3.5958	-2.8583	-3.5062	-3.2562	-3.2042	-3.2521	-3.0875	-3.1042	-3.4667	-3.2396	32.279	245.292	86.830	175.907	85.604	293.746	237.953	225.208	278.003	28.892	322.924	205.566	329.255	79.658	64.299	108.916	0.00037785	0.00020507	8.1049e-05	1193.4	2.7996e-06	3.3614e-06	1261.7	246.59	5.0722e-06	2.852e-06	307	85.744	67.475	19.252	5.337e-06	27.547	0.00012739	0.00011901	3.3007e-05	1136.7	1.2954e-06	1.2832e-06	1227.7	241.53	1.356e-06	1.3305e-06	299.72	84.432	66.082	19.311	1.3504e-06	27.327	323.707	92.996	46.562	-12.530	98.040	203.394	-12.719	-5.537	129.691	63.850	-5.813	0.723	1.326	8.074	139.633	7.520	-8191	255	
792.799	1	1	0	0	0.11718	0.056995	0.28081	0.12548	0.08084	0.21666	0.35434	0.14224	0.25456	0.26378	0.12665	0.22493	0.070403	0.19157	0.18543	0.14756	-3.0604	-3.0979	-3.1854	-3.3604	-3.275	-3.1375	-3.6396	-3.2438	-3.4146	-3.3042	-3.2188	-3.3896	-3.2188	-3.2083	-3.5583	-3.1833	282.994	142.640	324.274	331.695	58.439	137.296	265.475	165.189	78.450	221.197	1.858	-19.625	30.301	95.675	27.744	-4.028	0.00044278	0.00024794	8.0808e-05	1193.2	2.4559e-06	1.8331e-06	1263.4	246.66	2.3561e-06	1.6096e-06	305.52	86.015	67.133	19.444	4.035e-06	27.509	0.00013316	0.00012474	3.4781e-05	1142.6	1.363e-06	1.3615e-06	1231	241.25	1.3704e-06	1.3391e-06	299.28	84.782	65.968	19.338	1.329e-06	27.329	322.033	53.116	47.768	-12.851	126.305	86.927	-12.737	-5.288	134.181	142.166	-5.776	1.180	1.176	7.971	158.850	7.415	-8191	255	
792.895	1	1	0	0	0.15893	0.25648	0.095881	0.19247	0.20226	0.21094	0.1947	0.065965	0.040979	0.10859	0.32015	0.23502	0.37261	0.17172	0.12321	0.31888	-2.95	-3.0812	-2.95	-3.4333	-3.3563	-3.1437	-3.75	-3.1208	-3.4	-3.3833	-3.1875	-3.4771	-3.3833	-3.2542	-3.3063	-3.2104	183.359	66.579	333.578	245.390	200.399	31.754	219.712	210.682	81.666	27.584	273.603	260.437	-19.192	58.099	205.935	325.961	0.00040605	0.00027186	7.1142e-05	1186.2	2.6681e-06	2.4884e-06	1260.9	245.56	4.0797e-06	2.2001e-06	307.14	85.55	66.812	19.438	3.2646e-06	27.606	0.00012974	0.00011913	3.357e-05	1135.9	1.2846e-06	1.2856e-06	1229.5	241.13	1.3139e-06	1.2737e-06	299.3	84.556	65.986	19.362	1.2845e-06	27.288	327.185	39.574	8.171	-12.821	166.132	80.179	-12.673	-5.494	238.732	113.486	-5.959	0.819	1.122	7.955	106.904	7.200	-8191	255	
793.016	1	1	0	0	0.15563	0.089616	0.14284	0.081673	0.10362	0.057634	0.17118	0.13905	0.10758	0.18551	0.12139	0.075023	0.17528	0.048256	0.26873	0.24382	-2.8208	-3.35	-3.0625	-3.4188	-3.1625	-3.1458	-3.4646	-3.2167	-3.2083	-3.3729	-3.1375	-3.3146	-3.3167	-2.9646	-3.3896	-3.1437	15.141	-11.221	10.402	149.874	66.865	55.050	279.468	269.014	61.635	95.857	325.050	66.522	155.218	130.561	192.407	283.715	0.00036922	0.00031588	0.00011501	1199.6	4.3815e-06	2.646e-06	1254.8	245.74	4.9437e-06	4.2653e-06	307.12	86.215	67.14	19.271	3.4792e-06	27.471	0.00012545	0.00011665	3.2286e-05	1138.9	1.2931e-06	1.254e-06	1228	241.4	1.2898e-06	1.2559e-06	299.59	84.578	65.905	19.285	1.2541e-06	27.255	302.668	64.141	84.447	-12.759	121.921	198.236	-12.685	-5.413	123.967	109.864	-5.818	1.225	1.152	8.024	108.062	7.658	-8191	255	
793.112	1	1	0	0	0.23382	0.010927	0.19828	0.2101	0.12135	0.13613	0.21223	0.15073	0.12568	0.17576	0.092324	0.049918	0.097405	0.24066	0.12115	0.17204	-2.7375	-3.3979	-2.8458	-3.35	-3.2313	-2.9917	-3.4479	-3.1479	-3.1229	-3.3	-3.1729	-3.2646	-3.2646	-2.975	-3.3542	-3.225	183.398	168.335	29.563	262.895	-20.769	159.782	306.295	243.391	62.386	58.623	318.700	106.847	191.699	270.243	211.347	12.337	0.00039176	0.00030309	0.00016216	1186	2.2592e-06	3.3951e-06	1256.5	244.31	2.8406e-06	1.7022e-06	306.01	86.046	67.007	19.499	3.7822e-06	27.348	0.00012139	0.00011253	3.1115e-05	1131.8	1.2056e-06	1.1772e-06	1223.3	240.4	1.2129e-06	1.1443e-06	298.15	84.184	65.739	19.288	1.1277e-06	27.153	330.476	36.569	106.377	-12.894	168.042	160.571	-12.543	-5.430	121.021	82.198	-5.885	0.817	1.244	8.222	17.750	7.370	-8191	255	
793.208	1	1	0	0	0.24502	0.14993	0.11846	0.12461	0.078176	0.2524	0.23036	0.059045	0.02883	0.092045	0.22581	0.098106	0.2251	0.084346	0.11119	0.071293	-2.7667	-3.4708	-2.8396	-3.3125	-3.3292	-3.1167	-3.5396	-3.1875	-3.0729	-3.3063	-3.1104	-3.1417	-3.4042	-2.9688	-3.3729	-3.1688	324.925	92.827	15.888	59.123	137.317	192.237	284.319	269.219	331.279	90.273	259.306	259.099	313.060	105.478	129.459	319.803	0.00032483	0.00035653	8.1127e-05	1188.5	1.2705e-06	4.2083e-06	1252.3	245.73	3.5251e-06	2.6443e-06	305.19	85.468	67.042	19.367	4.4547e-06	27.477	0.00011727	0.00010569	2.9341e-05	1132.8	1.2006e-06	1.1768e-06	1222.1	240.35	1.2463e-06	1.2203e-06	297.87	84.224	65.67	19.277	1.2518e-06	27.171	318.046	119.367	34.728	-12.866	167.093	184.789	-12.494	-5.263	103.800	101.130	-5.726	0.821	1.230	7.761	175.779	7.194	-8191	255	
793.304	1	1	0	0	0.099247	0.12182	0.12078	0.10938	0.11095	0.32677	0.18173	0.28584	0.04846	0.22834	0.23896	0.0809	0.21154	0.35574	0.22902	0.074656	-2.6521	-3.4	-3.0292	-3.1354	-3.4062	-3.0042	-3.5812	-3.2146	-3.1792	-3.225	-3.2417	-3.1625	-3.3854	-2.8937	-3.15	-3.4083	82.465	207.973	310.740	276.500	223.474	70.476	336.354	299.877	57.455	152.964	285.922	55.161	75.919	1.777	52.062	309.509	0.00037843	0.00032802	0.00015717	1193.1	2.1411e-06	9.7959e-07	1254.7	245.11	3.4572e-06	3.8201e-06	305.45	85.463	67.042	19.558	4.2264e-06	27.592	0.00012381	0.00011478	3.2091e-05	1134.1	1.2669e-06	1.2187e-06	1226.3	240.64	1.2913e-06	1.2584e-06	298.63	84.407	65.918	19.398	1.2864e-06	27.307	311.745	56.617	69.083	-12.903	102.831	137.210	-12.633	-5.365	183.855	142.955	-6.128	0.953	1.247	7.926	115.789	7.376	-8191	255	
793.399	1	1	0	0	0.05903	0.16441	0.37732	0.15264	0.23807	0.074227	0.1696	0.16508	0.16186	0.13271	0.090359	0.056824	0.088044	0.27109	0.3743	0.35187	-2.6354	-3.3458	-2.9688	-3.1625	-3.4	-3.1937	-3.3563	-3.4083	-3.0167	-3.4313	-3.1854	-3.275	-3.2625	-3.1937	-3.0875	-3.3312	291.961	85.409	72.955	304.647	105.830	329.656	323.188	290.181	94.553	334.367	295.262	279.574	222.689	65.580	141.755	88.146	0.00034016	0.00020979	7.7505e-05	1200.4	4.2196e-06	2.3155e-06	1261.7	245.47	3.815e-06	9.4695e-07	307.06	85.951	67.535	19.533	6.4659e-06	27.524	0.00012482	0.00011873	3.289e-05	1138	1.3077e-06	1.2643e-06	1231.2	241.19	1.3145e-06	1.3084e-06	299.4	84.7	66.191	19.41	1.3267e-06	27.358	322.547	106.897	68.251	-12.643	99.806	158.376	-12.855	-5.460	126.237	39.543	-5.918	0.940	1.145	7.813	156.275	6.991	-8191	255	
793.495	1	1	0	0	0.13964	0.26055	0.072181	0.32555	0.068989	0.094012	0.39666	0.047375	0.059201	0.011312	0.10671	0.14218	0.092218	0.20885	0.20689	0.09698	-2.5458	-3.3771	-3.3229	-3.0667	-3.5021	-2.9146	-3.3042	-3.525	-3.1021	-3.0875	-3.3208	-3.2125	-3.475	-3.3063	-3.2833	-3.1979	90.178	321.079	194.449	228.517	90.581	238.001	-12.540	199.915	271.546	279.501	23.489	323.187	305.010	328.828	-20.675	212.712	0.00041569	0.00022939	7.9349e-05	1187.4	2.6078e-06	2.4254e-06	1262.6	246.67	2.5093e-06	3.1635e-06	309.08	85.884	67.782	19.708	2.0634e-06	27.645	0.00012886	0.00012061	3.3352e-05	1139.9	1.3038e-06	1.2944e-06	1232.7	241.99	1.3224e-06	1.2616e-06	300.15	84.802	66.359	19.478	1.2558e-06	27.381	321.643	13.701	41.881	-12.696	122.631	125.955	-12.854	-5.639	169.926	204.639	-5.717	0.881	1.051	7.658	117.884	7.430	-8191	255	
793.591	1	1	0	0	0.12989	0.17458	0.20791	0.14253	0.21254	0.1188	0.11592	0.077227	0.24744	0.16711	0.15719	0.24524	0.13183	0.17453	0.17328	0.088785	-2.6521	-3.2625	-3.3083	-3.2292	-3.2667	-3.2812	-3.4833	-3.4313	-3.0146	-3.2313	-3.3917	-3.1583	-3.1833	-3.2896	-3.0187	-3.4188	98.157	17.227	21.397	278.828	136.506	100.592	-14.403	43.960	148.194	332.936	272.648	332.371	39.280	260.662	245.416	194.717	0.0003336	0.00035428	1.5657e-05	1191.9	2.3836e-06	8.4912e-06	1267.7	246.73	2.5715e-06	3.8388e-06	307.39	86.544	67.434	19.485	4.3028e-06	27.582	0.00011927	0.00011397	3.2647e-05	1139.6	1.2715e-06	1.2489e-06	1233	241.93	1.2567e-06	1.2638e-06	300.03	85.047	66.326	19.415	1.2254e-06	27.454	328.319	31.999	72.714	-12.790	122.169	156.144	-12.619	-5.589	94.805	147.157	-5.768	1.143	1.080	7.783	121.873	7.053	-8191	255	
793.711	1	1	0	0	0.069963	0.27029	0.2306	0.10713	0.13854	0.028551	0.45745	0.13577	0.1855	0.14413	0.057694	0.015166	0.1328	0.38515	0.1492	0.3187	-2.6813	-3.2854	-2.9938	-3.0854	-3.4375	-3.3375	-3.2708	-3.4208	-2.9958	-3.1854	-3.2188	-3.0104	-3.3667	-3.3	-3.25	-3.2583	133.013	-3.673	51.372	274.902	24.993	46.648	237.583	276.448	77.802	27.345	65.986	5.292	-9.515	-21.990	33.786	180.622	0.00037345	0.00020824	0.00010233	1182.4	1.9808e-06	2.3046e-06	1263.9	246.27	4.904e-06	4.7229e-06	309.53	86.319	67.776	19.61	3.9423e-06	27.927	0.00011999	0.0001112	3.0885e-05	1135.9	1.2309e-06	1.1789e-06	1232.4	242.03	1.2174e-06	1.2168e-06	301.43	84.958	66.413	19.477	1.2099e-06	27.5	305.165	56.568	73.785	-12.813	192.287	108.382	-12.694	-5.482	182.215	126.219	-5.906	0.840	1.305	8.209	204.969	7.679	-8191	255	
793.808	1	1	0	0	0.092623	0.015475	0.24304	0.23514	0.12488	0.20134	0.077425	0.14598	0.042188	0.10956	0.24714	0.14387	0.16094	0.2151	0.16985	0.075827	-2.7521	-3.1354	-3.3042	-3.1125	-3.4	-3.2438	-3.3333	-3.3063	-3.0563	-3.2375	-3.3604	-3.05	-3.2562	-3.2604	-2.8542	-3.2875	257.673	102.074	78.505	242.865	123.387	-14.809	13.771	226.363	23.392	203.488	58.160	189.223	3.885	41.698	94.024	167.520	0.00042753	0.00024791	6.1092e-05	1197.9	1.997e-06	3.2732e-06	1264.1	247.14	5.9633e-06	2.5525e-06	310.27	86.336	67.173	19.52	3.5114e-06	27.945	0.00011577	0.00010765	2.9831e-05	1139.7	1.2032e-06	1.1804e-06	1229.8	242.23	1.2091e-06	1.2009e-06	301.23	85.041	66.3	19.538	1.2291e-06	27.519	320.279	30.705	75.505	-12.614	104.754	187.600	-12.790	-5.584	127.419	82.866	-5.799	0.872	1.481	8.057	122.119	7.433	-8191	255	
793.879	1	1	0	0	0.17718	0.26572	0.19929	0.099172	0.21925	0.40082	0.12599	0.24769	0.32366	0.066623	0.17727	0.22218	0.21813	0.077365	0.10434	0.035136	-2.6688	-3.1104	-3.4562	-3.0687	-3.2771	-3.5	-3.1292	-3.6688	-2.8854	-3.1813	-3.3479	-3.15	-3.3438	-3.2792	-2.85	-3.3833	311.296	223.825	50.927	292.612	203.773	261.676	266.108	235.657	253.470	185.583	-0.084	292.969	311.174	81.572	220.852	22.642	0.00034601	0.00012656	4.3298e-05	1199.9	7.7789e-06	3.2964e-06	1260.7	246.81	2.1332e-07	1.0565e-06	309.09	86.627	67.417	19.599	7.2404e-07	27.796	0.00012033	0.00011088	3.1237e-05	1140.4	1.2503e-06	1.2379e-06	1232.6	242.78	1.2463e-06	1.1809e-06	301.48	85.145	66.254	19.542	1.1824e-06	27.517	309.684	86.696	81.850	-12.693	113.280	131.008	-12.733	-5.447	292.342	150.097	-5.701	0.840	1.197	7.961	170.416	7.775	-8191	255	
793.975	1	1	0	0	0.10804	0.052332	0.084665	0.13615	0.23878	0.16942	0.23473	0.20152	0.36474	0.21013	0.13097	0.1245	0.12194	0.16909	0.13984	0.11628	-2.6604	-3.0667	-3.125	-3.1208	-3.1354	-3.2667	-3.2562	-3.3167	-3.1562	-3.075	-3.5229	-3.1854	-3.1604	-3.2229	-2.9875	-3.5875	210.764	68.373	-7.367	330.739	83.755	280.626	254.969	271.682	50.520	317.332	320.327	165.893	225.030	247.139	28.996	105.710	0.00030355	0.00027398	0.00015223	1195.5	3.8598e-06	3.0408e-06	1261.9	248.3	4.0845e-06	3.0087e-06	309.6	86.348	67.834	19.702	2.74e-06	27.702	0.00011714	0.00010725	2.9754e-05	1137.5	1.2107e-06	1.1665e-06	1228.2	242.64	1.1607e-06	1.1638e-06	301.58	85.119	66.419	19.526	1.1376e-06	27.484	327.894	50.869	77.164	-12.724	136.043	145.114	-12.702	-5.527	129.895	135.313	-5.628	0.751	1.207	7.863	134.757	7.128	-8191	255	
794.096	1	1	0	0	0.22476	0.1096	0.18935	0.19133	0.19432	0.09911	0.12185	0.13174	0.10915	0.27176	0.17316	0.1942	0.068795	0.16867	0.1055	0.20744	-2.6583	-3.2167	-3.2396	-3.4021	-3.1375	-3.4625	-3.2396	-3.4021	-3.2521	-3.05	-3.5583	-3.3333	-3.1188	-3.4917	-3.0271	-3.2208	33.055	225.421	-9.879	155.988	-8.786	124.621	253.927	41.281	306.794	237.288	37.467	53.480	133.817	241.445	248.296	302.202	0.00035111	0.00037835	7.9597e-05	1193.5	2.4619e-06	4.1534e-06	1264.9	247.55	3.0213e-06	1.117e-06	310.49	86.914	67.626	19.538	4.0831e-06	27.686	0.00011597	0.00010501	2.8974e-05	1135	1.1711e-06	1.1406e-06	1229.9	242.75	1.1641e-06	1.1346e-06	301.29	85.285	66.471	19.465	1.0961e-06	27.516	327.312	43.872	36.722	-12.985	146.614	129.764	-12.635	-5.514	112.145	208.709	-5.998	0.860	1.020	7.846	111.607	7.233	-8191	255	
794.192	1	1	0	0	0.094441	0.036046	0.17616	0.14551	0.10545	0.1262	0.23602	0.40584	0.047055	0.043449	0.030971	0.096948	0.29798	0.058268	0.15638	0.19126	-3.0542	-2.9083	-3.4271	-3.1562	-3.0667	-3.3937	-3.1104	-3.3458	-3.2333	-3.2042	-3.3521	-3.2708	-3.0917	-3.4	-3.0187	-3.225	-6.940	239.437	323.377	146.991	138.299	52.835	301.259	305.207	229.405	184.472	273.904	52.384	298.555	150.122	-2.570	3.726	0.00044677	0.00020056	8.05e-05	1187.2	3.7068e-06	6.1903e-06	1250.5	246.46	3.6243e-06	1.8676e-06	307.76	86.409	66.903	19.51	4.0287e-06	27.597	0.0001101	9.5348e-05	2.652e-05	1127.6	1.053e-06	1.0279e-06	1219.2	241.23	1.009e-06	9.9718e-07	299.56	84.705	65.857	19.418	9.7728e-07	27.375	324.818	6.129	57.157	-12.687	128.346	146.932	-12.552	-5.369	163.610	153.691	-5.706	0.660	1.250	7.564	125.150	7.260	-8191	255	
794.288	1	1	0	0	0.12627	0.096948	0.10611	0.17894	0.044101	0.090191	0.14515	0.097343	0.14614	0.13599	0.051816	0.14939	0.20329	0.16139	0.031134	0.17718	-3.0354	-2.8521	-3.3125	-3.2812	-3.1792	-3.3896	-3.2729	-3.2854	-3.3646	-3.0729	-3.5458	-3.3104	-3.175	-3.4917	-3.175	-3.3146	166.683	326.780	178.863	181.797	180.366	334.059	180.528	250.522	113.615	277.098	13.810	254.119	85.749	263.672	281.636	229.020	0.00036606	0.00038178	5.9138e-05	1171.9	7.0642e-07	3.9138e-06	1252.6	246.25	5.5847e-06	1.8779e-06	307.78	86.266	67.504	19.451	2.9934e-06	27.77	0.00010131	9.1249e-05	2.5261e-05	1120.5	1.021e-06	9.7143e-07	1221	241.16	1.025e-06	9.9259e-07	300.13	84.775	66.029	19.378	1.0196e-06	27.444	331.480	81.232	25.385	-12.437	0.246	180.334	-12.765	-5.785	85.944	147.614	-5.869	0.754	0.976	7.967	60.135	7.334	-8191	255	
794.384	1	1	0	0	0.29108	0.15004	0.055848	0.31138	0.19008	0.098932	0.1283	0.25605	0.29905	0.0033936	0.22777	0.026106	0.19661	0.04243	0.14953	0.086201	-2.9562	-3.1937	-3.2125	-3.2313	-3.1125	-3.6083	-3.1146	-3.1688	-3.3063	-3.0479	-3.3042	-3.3958	-2.9729	-3.2938	-3.1375	-3.2083	109.349	90.699	226.425	181.993	207.051	170.483	289.287	279.765	11.119	292.577	282.762	33.359	270.557	11.235	126.040	102.682	0.00042454	0.00018699	3.5245e-05	1188.9	1.3042e-06	4.7071e-06	1249.4	246.58	4.4571e-06	2.6714e-06	308.93	86.437	67.306	19.577	3.2342e-06	27.358	0.0001026	9.3529e-05	2.6225e-05	1127.1	1.0434e-06	1.0067e-06	1219.3	241.04	1.0464e-06	1.0238e-06	299.81	84.607	65.966	19.363	1.0133e-06	27.196	323.928	33.406	130.722	-12.851	93.647	124.900	-12.555	-5.472	134.737	139.947	-5.905	1.087	1.257	7.961	110.266	7.217	-8191	255	
794.503	1	1	0	0	0.07808	0.21976	0.18137	0.080824	0.18164	0.092597	0.25242	0.4767	0.048843	0.2399	0.43466	0.20982	0.21953	0.12887	0.35674	0.048242	-2.9354	-3.1833	-3.1854	-3.3312	-3.0042	-3.4646	-3.5792	-3.1063	-3.5563	-2.9625	-3.3312	-3.2646	-3.0896	-3.45	-3.2875	-3.0208	85.837	318.380	203.545	141.463	62.683	217.600	292.634	279.728	37.193	92.362	302.650	257.484	119.559	308.501	-3.854	126.788	0.00037966	0.00033533	0.00011771	1179	4.1219e-06	2.3866e-06	1248.9	245.9	2.6068e-06	2.0132e-06	307.22	85.935	67.358	19.465	3.3138e-06	27.699	0.00010147	9.2699e-05	2.599e-05	1124.6	9.9714e-07	1.0104e-06	1217.1	241.12	9.9743e-07	1.0071e-06	299.93	84.641	66.006	19.374	1.0134e-06	27.353	326.524	96.723	91.876	-12.599	150.637	116.640	-12.763	-5.476	92.848	129.929	-5.710	0.871	1.212	7.942	104.824	7.515	-8191	255	
794.577	1	1	0	0	0.22142	0.1927	0.15287	0.1752	0.095851	0.18493	0.057178	0.04394	0.20666	0.13394	0.24154	0.18324	0.093084	0.13482	0.15949	0.0315	-3.0667	-3.0917	-3.2125	-3.2958	-3.0187	-3.2479	-3.4042	-3.3479	-3.2979	-3.3958	-3.1104	-3.2875	-2.9646	-3.2062	-3.1917	-3.1896	152.353	91.094	325.689	297.654	238.152	270.899	-3.795	317.332	156.161	137.791	231.541	267.963	314.791	299.704	296.994	207.502	0.00038349	0.0002726	8.0483e-05	1180.5	3.2501e-06	2.2826e-06	1253.3	246.21	5.0321e-06	8.1812e-07	307.44	86.483	67.012	19.523	2.336e-06	27.64	0.0001011	8.9811e-05	2.5165e-05	1124.2	9.8888e-07	9.7345e-07	1217.1	241.25	1.0085e-06	9.8171e-07	299.99	84.761	65.999	19.391	9.668e-07	27.377	329.006	71.568	47.212	-13.085	138.676	155.970	-12.653	-5.530	115.360	80.483	-6.077	0.661	1.004	7.953	77.189	7.300	-8191	255	
794.696	1	1	0	0	0.10746	0.16038	0.16711	0.15848	0.2253	0.064018	0.15853	0.28643	0.21555	0.053277	0.24212	0.12481	0.081505	0.18499	0.080886	0.10537	-2.8333	-3.0333	-3.1333	-3.3312	-2.8708	-3.3104	-3.6375	-3.1813	-3.2812	-3.3104	-3.1479	-3.4208	-2.8458	-3.3542	-3.2917	-3.2875	42.815	188.907	221.966	309.572	292.343	175.009	332.232	332.343	293.365	278.807	281.886	251.938	280.566	236.286	243.759	327.072	0.00041682	0.00034631	8.616e-05	1180.6	2.3414e-06	5.5481e-06	1243.6	246.54	3.5561e-06	3.3431e-06	306.27	86.123	67.797	19.531	4.1704e-06	27.607	9.8607e-05	8.8475e-05	2.5201e-05	1123.2	9.8648e-07	9.5883e-07	1214.4	240.96	9.9789e-07	9.6914e-07	299	84.602	66.046	19.363	9.4035e-07	27.291	326.317	60.010	61.837	-12.821	139.959	127.722	-12.755	-5.575	118.817	93.230	-5.981	0.847	1.504	7.960	166.229	7.285	-8191	255	
794.792	1	1	0	0	0.13754	0.21556	0.18092	0.061284	0.074339	0.24866	0.16127	0.18526	0.16703	0.13574	0.11203	0.14581	0.25621	0.16813	0.17645	0.096807	-2.8875	-3.0375	-3.1333	-3.5021	-2.9875	-3.3792	-3.3458	-2.9208	-3.3542	-3.2062	-3.025	-3.3604	-3.2271	-3.3063	-3.2646	-3.1937	225.724	320.334	60.469	324.936	271.692	231.563	117.528	129.780	10.852	72.993	202.354	48.028	298.703	67.653	-22.806	120.194	0.00034144	0.00041156	4.5496e-05	1176.7	2.8781e-06	2.8016e-06	1242.3	245.69	2.5123e-06	2.61e-06	306.73	85.947	66.9	19.466	1.603e-06	27.419	9.9339e-05	8.8328e-05	2.422e-05	1117.7	9.6946e-07	9.3883e-07	1212.3	240.82	9.6728e-07	9.3052e-07	299.06	84.417	65.65	19.298	9.6906e-07	27.264	326.802	66.686	65.196	-12.750	122.754	146.173	-12.639	-5.604	166.842	122.020	-5.789	0.912	1.534	7.944	79.644	7.335	-8191	255	
794.888	1	1	0	0	0.089213	0.19109	0.19051	0.29845	0.060479	0.04806	0.13819	0.21105	0.22928	0.14866	0.12646	0.054745	0.1626	0.11676	0.35169	0.14784	-2.9562	-3.3125	-2.9437	-3.2958	-3.0208	-3.2875	-3.3979	-3.0938	-3.4292	-3.2896	-3.0771	-3.5687	-3.1083	-3.2729	-3.3625	-3.2979	204.860	299.735	194.385	245.139	182.418	144.808	261.954	276.788	46.414	49.851	320.279	89.108	264.620	252.815	269.134	80.662	0.00037745	0.00039868	8.2492e-05	1176.2	2.3843e-06	9.6937e-07	1246.1	246.11	2.4835e-06	1.537e-06	307.88	86.207	67.017	19.393	2.209e-06	27.642	0.00010176	8.8765e-05	2.469e-05	1113.3	9.8289e-07	9.7399e-07	1210.9	240.35	1.0134e-06	9.7373e-07	299.42	84.449	65.79	19.319	9.7576e-07	27.291	319.578	44.409	84.881	-12.445	150.215	190.450	-12.568	-5.508	187.330	187.598	-6.077	0.916	1.596	7.849	131.507	7.519	-8191	255	
794.984	1	1	0	0	0.29346	0.14997	0.21464	0.2069	0.074049	0.042402	0.23443	0.13839	0.14277	0.29187	0.15321	0.26239	0.18174	0.13145	0.0837	0.16407	-2.7458	-3.2188	-3.0042	-3.4417	-3.2875	-3.0896	-3.5917	-3.0563	-3.4042	-3.2875	-3.2125	-3.3063	-3.125	-3.2729	-3.2917	-3.1562	272.012	135.179	290.462	192.967	249.226	4.086	283.968	247.125	27.222	27.457	195.539	319.480	17.469	219.430	155.940	219.310	0.00047321	0.00024871	2.9806e-05	1179.2	3.7777e-06	1.1411e-06	1247	245.55	4.4053e-06	2.8756e-06	307.9	85.886	66.621	19.515	3.5415e-06	27.592	0.0001008	8.9558e-05	2.4648e-05	1118.6	1.0045e-06	9.7201e-07	1213	240.7	1.0126e-06	9.6414e-07	299.37	84.445	65.696	19.311	9.786e-07	27.344	330.080	61.359	88.592	-12.495	115.441	137.537	-12.735	-5.622	142.550	119.012	-6.015	1.150	1.495	7.978	130.429	7.161	-8191	255	
795.105	1	1	0	0	0.26646	0.13586	0.28518	0.19666	0.22308	0.079019	0.18506	0.22093	0.14094	0.22571	0.17405	0.33676	0.15964	0.25878	0.2063	0.3815	-2.8458	-3.1417	-2.9667	-3.3458	-3.0917	-3.0875	-3.4583	-3.2396	-3.1937	-3.3688	-3.1875	-3.2958	-3.1854	-3.1021	-3.4167	-3.2583	284.444	83.649	214.172	39.937	64.256	275.232	291.592	18.777	14.466	315.149	273.850	331.932	-4.836	10.670	-23.186	260.060	0.00038543	0.00051883	5.1182e-05	1181	2.4317e-06	3.3855e-06	1247.9	247.48	3.2236e-06	4.9822e-06	307.85	86.186	67.107	19.501	2.9375e-06	27.453	0.00010022	9.3412e-05	2.4592e-05	1120	9.8805e-07	9.8015e-07	1212.3	241.34	1.0314e-06	9.8109e-07	299.32	84.496	65.95	19.325	1.0162e-06	27.21	330.361	78.536	57.885	-12.402	133.362	111.363	-12.669	-5.355	153.946	103.228	-5.892	0.885	1.360	8.251	125.865	7.369	-8191	255	
795.176	1	1	0	0	0.17267	0.052744	0.19573	0.081422	0.096023	0.071819	0.25309	0.18016	0.31713	0.17685	0.30173	0.11652	0.20719	0.045002	0.14721	0.16951	-2.75	-3.3625	-2.9875	-3.2125	-3.3417	-2.8229	-3.575	-3.1229	-3.2604	-3.4167	-3.0792	-3.4167	-3.0896	-3.2292	-3.2479	-3.3271	319.982	299.697	299.568	9.740	245.040	275.105	313.200	-10.845	297.367	107.017	283.127	218.581	318.393	173.469	303.697	114.754	0.00046548	0.00023133	0.0001757	1171.7	6.0453e-06	1.7903e-06	1248.2	246.81	2.4517e-06	1.4628e-06	308.85	85.835	67.061	19.474	4.3468e-06	27.66	0.00010096	9.0849e-05	2.4878e-05	1116.9	1.0328e-06	9.8291e-07	1212.9	241.36	1.045e-06	9.9532e-07	299.84	84.349	65.739	19.338	1.0414e-06	27.265	308.076	103.418	86.745	-12.464	158.200	136.277	-12.785	-5.700	128.094	167.745	-6.030	0.967	1.334	8.045	155.703	7.284	-8191	255	
795.273	1	1	0	0	0.15047	0.071622	0.19298	0.072359	0.20019	0.081225	0.23871	0.20624	0.093732	0.15962	0.2015	0.22203	0.035475	0.073556	0.056691	0.20216	-2.6875	-3.2792	-3.2229	-3.2062	-3.2687	-3.15	-3.5208	-3.3542	-3.1458	-3.3792	-3.3083	-3.3312	-3.0938	-3.2354	-3.2188	-3.3771	116.966	309.686	1.053	99.177	19.384	56.307	263.387	315.755	71.662	128.417	82.272	164.115	217.375	302.876	142.702	312.248	0.00038001	0.000258	8.9792e-05	1182.6	4.3289e-06	1.1716e-06	1248.7	246.48	2.8169e-06	3.9455e-06	308.21	86.347	67.166	19.514	3.4322e-06	27.56	0.00010432	9.328e-05	2.5235e-05	1121.7	1.055e-06	1.0127e-06	1216.2	241.52	1.0383e-06	1.0314e-06	299.35	84.68	65.791	19.363	1.0755e-06	27.362	320.745	106.920	85.139	-12.745	145.578	56.633	-12.667	-5.564	151.794	129.237	-6.190	0.869	1.023	7.852	63.964	7.404	-8191	255	
795.393	1	1	0	0	0.23184	0.12491	0.18675	0.16586	0.21453	0.091034	0.20665	0.29661	0.38171	0.1181	0.19529	0.049317	0.30966	0.13564	0.078171	0.17391	-2.7083	-3.2354	-3.1833	-3.1813	-3.3063	-2.9604	-3.5521	-3.2562	-3.1792	-3.3208	-3.2667	-3.2062	-3.2396	-3.1688	-3.2917	-3.3667	290.260	140.866	167.950	307.376	117.993	121.573	-19.187	288.769	52.365	176.233	-9.678	56.366	248.971	213.589	298.548	168.690	0.00034567	0.00024885	9.4458e-05	1180.2	3.3897e-06	1.9553e-06	1244.8	246.49	3.9142e-06	3.4517e-06	308.94	86.263	67.191	19.519	2.942e-06	27.582	0.00010584	9.4461e-05	2.6434e-05	1121.7	1.0641e-06	1.0319e-06	1215.1	241.49	1.0451e-06	1.0267e-06	300.26	84.696	65.981	19.382	1.0318e-06	27.361	328.592	61.912	34.611	-12.564	99.042	156.514	-12.762	-5.390	108.412	128.219	-6.132	1.126	1.283	8.167	143.484	7.316	-8191	255	
795.488	1	1	0	0	0.14617	0.24688	0.32703	0.19895	0.16024	0.033996	0.44967	0.031469	0.1552	0.069856	0.10164	0.21884	0.1658	0.1558	0.18281	0.2488	-2.65	-3.4354	-3.15	-3.1083	-3.3104	-2.8708	-3.4417	-3.1729	-3.0333	-3.4208	-3.0271	-3.3688	-3.2292	-3.0021	-3.3771	-3.2313	263.899	-6.313	192.281	252.751	157.221	162.544	234.698	313.957	198.807	148.412	8.198	-16.903	211.821	2.915	-11.863	274.599	0.0002889	0.00026591	9.6249e-05	1180.9	2.0373e-06	1.664e-06	1248.7	246.87	2.3682e-06	2.6802e-06	309.63	86.279	67.318	19.635	3.8979e-06	27.652	0.00010329	9.3363e-05	2.5899e-05	1123.1	1.04e-06	1.0279e-06	1214	241.5	1.057e-06	1.041e-06	300.83	84.597	66.12	19.373	1.0269e-06	27.372	324.287	79.441	32.033	-12.725	109.679	255.191	-12.630	-5.635	175.867	154.649	-5.936	0.851	1.098	8.048	154.484	7.295	-8191	255	
795.584	1	1	0	0	0.24589	0.19326	0.17134	0.1805	0.1663	0.18169	0.10596	0.092729	0.3479	0.080499	0.08758	0.26296	0.047022	0.01889	0.10938	0.28278	-2.5917	-3.35	-3.0625	-3.15	-3.1021	-3.4021	-3.2354	-3.5021	-2.9042	-3.2792	-3.3208	-3.0563	-3.4313	-3.0708	-3.1729	-3.3542	45.048	131.070	26.846	311.333	212.047	133.104	317.469	43.723	281.918	325.786	214.631	281.527	131.567	336.257	292.502	17.093	0.00034804	0.00031658	7.4633e-05	1181.2	2.9362e-06	2.762e-06	1252.1	247.66	3.4272e-06	1.7783e-06	310.24	86.498	67.321	19.543	5.8495e-06	27.614	0.00010201	9.3004e-05	2.5948e-05	1122.7	1.0287e-06	1.0197e-06	1217	242.14	1.0169e-06	1.0137e-06	301.1	84.738	66.091	19.428	1.0263e-06	27.385	316.977	73.539	94.596	-12.955	133.602	143.957	-12.668	-5.508	171.017	125.769	-6.100	1.012	1.379	7.958	129.357	7.068	-8191	255	
795.680	1	1	0	0	0.10007	0.33811	0.05772	0.1079	0.11372	0.056035	0.20508	0.25752	0.094222	0.031068	0.10741	0.17312	0.20393	0.13592	0.040569	0.17144	-2.6208	-3.2687	-3.1771	-3.1521	-3.3063	-3.1167	-3.1042	-3.2833	-2.9062	-3.325	-3.2021	-3.075	-3.0604	-3.2271	-3.1688	-3.4	226.124	87.314	291.180	54.697	329.331	308.045	326.541	322.615	282.163	126.846	153.201	319.771	311.036	298.536	60.384	306.157	0.00037548	0.00033844	0.00010268	1179.1	2.8886e-06	1.2267e-06	1252.1	247.37	3.2436e-06	3.0671e-06	307.38	86.49	67.37	19.495	4.7132e-06	27.782	0.00010251	9.3537e-05	2.5321e-05	1121	1.0189e-06	1.026e-06	1217.5	242.16	1.0475e-06	1.0006e-06	300.58	84.867	65.982	19.389	1.018e-06	27.42	316.361	57.538	82.749	-12.707	127.633	143.810	-12.535	-5.577	166.748	126.963	-5.685	0.875	1.447	8.246	157.518	7.649	-8191	255	
795.776	1	1	0	0	0.28744	0.086815	0.23977	0.34017	0.15372	0.29181	0.039272	0.28016	0.26004	0.21764	0.33669	0.13006	0.18798	0.1108	0.11527	0.22395	-2.7396	-3.3104	-3.0917	-3.0542	-3.3937	-3.15	-3.2708	-3.425	-2.9833	-3.0625	-3.4521	-3.1292	-3.5375	-3.0167	-3.1063	-3.5563	134.354	118.351	334.303	281.486	110.740	41.576	211.236	-20.261	54.167	-23.047	258.270	54.300	126.883	277.695	307.095	119.455	0.00044924	0.00021042	5.223e-05	1174.1	4.1414e-06	3.13e-06	1247.2	247.51	3.8031e-06	3.182e-06	310.79	86.394	67.309	19.633	2.7504e-06	27.6	0.00010169	9.2593e-05	2.5899e-05	1121.3	1.0524e-06	1.0245e-06	1214.2	242.43	1.0527e-06	1.0501e-06	301.03	84.949	66.103	19.456	1.0729e-06	27.376	325.978	61.710	87.746	-12.508	150.832	171.338	-12.615	-5.572	120.089	163.300	-6.365	0.991	1.094	8.205	149.606	7.395	-8191	255	
795.872	1	1	0	0	0.14976	0.21134	0.26745	0.080357	0.1842	0.12361	0.12744	0.21873	0.0231	0.083632	0.11639	0.067898	0.16071	0.30087	0.0995	0.17361	-2.5062	-3.3396	-3.2562	-3.15	-3.2354	-3.3792	-3.3333	-3.5375	-3.0687	-3.2229	-3.4125	-3.2125	-3.2979	-3.3229	-3.0229	-3.4771	238.711	210.205	278.731	306.709	115.762	130.827	13.189	306.587	194.659	40.070	174.756	307.082	235.406	323.445	28.950	17.453	0.00037455	0.00034327	0.00011867	1181.3	3.6694e-07	5.7762e-06	1249	247.77	3.6642e-06	4.6496e-06	309.87	86.327	67.239	19.528	4.0418e-06	27.621	0.00011027	9.7606e-05	2.7346e-05	1123.9	1.0605e-06	1.084e-06	1216.9	242.43	1.1288e-06	1.1014e-06	301.62	84.922	66.056	19.443	1.1328e-06	27.372	315.235	59.960	66.740	-12.458	33.900	162.291	-12.653	-5.577	87.320	109.245	-6.137	0.627	1.217	8.013	197.324	7.430	-8191	255	
795.968	1	1	0	0	0.018668	0.11082	0.089305	0.2402	0.09829	0.16979	0.14503	0.19821	0.12344	0.19832	0.19119	0.12071	0.33196	0.051589	0.15212	0.094334	-2.9458	-3.2271	-3.1292	-3.0667	-3.3521	-3.0792	-3.4083	-3.5208	-3.0438	-3.175	-3.3396	-3.1375	-3.2979	-3.2667	-3.2104	-3.3187	7.050	303.932	203.316	19.664	195.050	55.538	-6.501	261.119	59.133	245.720	297.409	206.017	27.944	75.629	148.462	212.960	0.00032275	0.00021336	0.00011505	1184.2	4.378e-06	5.4947e-06	1247	247.25	3.9876e-06	2.1826e-06	310.52	86.256	68.141	19.569	2.6595e-06	27.768	0.00011368	0.00010122	2.8024e-05	1125.7	1.1564e-06	1.117e-06	1219.6	242.64	1.162e-06	1.1214e-06	301.47	84.876	66.398	19.448	1.0959e-06	27.493	323.381	32.379	87.848	-13.023	150.146	157.105	-12.658	-5.434	127.415	185.483	-5.765	0.782	1.058	8.261	156.372	7.584	-8191	255	
796.087	1	1	0	0	0.058747	0.044279	0.17041	0.24726	0.16703	0.23644	0.40225	0.35697	0.31258	0.17213	0.10643	0.14736	0.26002	0.14494	0.11876	0.094242	-2.6375	-3.0687	-3.4271	-3.0271	-3.2917	-3.275	-2.9958	-3.4437	-3.2479	-3.3271	-3.3854	-3.1437	-3.3479	-3.3417	-3.2583	-3.3292	167.904	157.733	180.963	134.811	100.105	103.730	285.267	278.484	200.315	227.229	265.433	24.718	25.558	201.810	285.377	258.767	0.00049042	0.00026989	5.4871e-05	1184.2	4.6992e-06	4.5077e-06	1252.8	248.5	3.4962e-06	3.6724e-06	310.46	86.419	67.733	19.65	6.7993e-06	27.518	0.00010977	0.00010269	2.7577e-05	1128.8	1.1409e-06	1.094e-06	1222	243.17	1.1286e-06	1.1089e-06	302.38	84.879	66.315	19.449	1.0983e-06	27.376	321.430	59.652	48.023	-12.719	107.603	114.643	-12.676	-5.699	130.892	154.462	-5.978	0.588	1.136	7.950	159.819	7.174	-8191	255	
796.183	1	1	0	0	0.063624	0.049627	0.10207	0.1712	0.15737	0.078961	0.33094	0.087531	0.060898	0.13561	0.037794	0.25708	0.032979	0.21163	0.21803	0.15005	-2.6104	-2.9813	-3.4521	-3.1083	-3.2	-3.3896	-3.0729	-3.4208	-3.2354	-3.1562	-3.4688	-3.2854	-3.1417	-3.5	-2.9854	-3.6063	277.526	33.431	84.488	0.310	131.126	68.671	219.599	-10.529	332.118	325.562	206.245	312.275	50.038	326.007	127.992	254.258	0.00031153	0.00046202	9.0275e-05	1180.4	3.5276e-06	2.9255e-06	1249.3	247.44	1.484e-06	4.0397e-06	311.2	86.07	67.219	19.464	3.2767e-06	27.679	0.00010765	9.8904e-05	2.6848e-05	1126	1.0828e-06	1.0539e-06	1217.7	242.7	1.0961e-06	1.044e-06	301.42	84.673	66.02	19.371	1.0587e-06	27.322	328.047	41.312	57.934	-12.775	139.355	177.724	-12.863	-5.456	98.943	154.742	-6.001	1.027	1.385	8.089	87.388	7.276	-8191	255	
796.280	1	1	0	0	0.067461	0.18934	0.19852	0.25741	0.11004	0.34215	0.14068	0.15183	0.26333	0.15876	0.35134	0.26791	0.12337	0.14147	0.28325	0.15204	-2.6104	-2.9646	-3.3396	-3.1833	-3.1688	-3.4292	-3.3563	-3.3937	-3.1729	-3.0875	-3.4771	-3.1562	-3.1104	-3.3417	-3.1375	-3.2812	68.951	119.306	160.995	191.228	231.102	78.853	259.190	274.687	142.543	9.507	284.248	234.177	28.835	119.472	101.818	324.930	0.00032259	0.00021527	4.3871e-05	1179.9	3.6589e-06	5.9705e-06	1252	248.4	1.4617e-06	2.4201e-06	308.66	86.28	67.504	19.637	1.7028e-06	27.737	0.000106	9.5775e-05	2.7015e-05	1126	1.1021e-06	1.0901e-06	1217.8	242.74	1.1451e-06	1.1146e-06	301.4	84.726	66.263	19.552	1.1855e-06	27.494	323.356	-1.483	47.216	-12.577	103.520	154.795	-12.498	-5.579	181.705	185.243	-5.834	0.795	1.448	7.648	114.188	7.070	-8191	255	
796.376	1	1	0	0	0.23205	0.06574	0.14274	0.091046	0.10247	0.12671	0.38001	0.24897	0.14217	0.23269	0.24591	0.26849	0.24114	0.0982	0.26131	0.11171	-2.9229	-2.9188	-3.4083	-3.0604	-3.175	-3.3708	-3.2104	-3.4458	-3.2562	-3.2042	-3.4292	-3.1875	-3.3354	-3.3125	-3.1021	-3.4479	115.346	334.939	299.991	-16.217	116.192	189.128	273.292	17.942	31.771	329.578	257.029	52.935	287.637	-8.155	147.683	306.968	0.00035338	9.8108e-05	4.4763e-05	1193.3	2.4603e-06	4.7123e-06	1256.2	248.36	6.0193e-06	2.6872e-06	310.74	87.018	67.738	19.536	1.4645e-06	27.775	0.00012017	0.0001124	3.0859e-05	1135.2	1.2621e-06	1.2634e-06	1226.7	244.48	1.2887e-06	1.2736e-06	303.32	85.357	66.607	19.49	1.2242e-06	27.514	330.675	10.671	53.181	-12.768	158.345	95.600	-12.778	-5.650	101.785	121.973	-6.043	1.020	1.285	7.692	108.130	7.690	-8191	255	
796.472	1	1	0	0	0.227	0.22072	0.28182	0.2268	0.054442	0.12536	0.20399	0.28169	0.061413	0.025105	0.33072	0.13633	0.034019	0.14436	0.20211	0.12376	-3.0125	-3.0292	-3.2021	-3.4083	-3.1292	-3.4854	-3.3542	-3.2938	-3.3688	-2.9271	-3.4521	-3.2458	-3.1917	-3.5521	-3.1813	-3.2938	302.644	71.475	162.917	65.285	122.701	-23.415	257.976	244.727	209.088	239.764	252.478	314.328	108.270	258.947	121.474	31.581	0.00037792	0.00044983	0.00011958	1187.3	3.1933e-06	4.3498e-06	1256.7	248.93	4.3909e-06	3.0226e-06	311.5	86.325	67.204	19.572	6.439e-06	27.598	0.0001166	0.00010657	3.0293e-05	1131	1.1523e-06	1.1037e-06	1222.7	244.06	1.0771e-06	1.0701e-06	302.17	84.739	66.076	19.456	1.0435e-06	27.345	323.245	52.719	79.302	-12.852	161.552	122.882	-12.767	-5.503	110.370	99.475	-5.888	0.940	1.292	7.647	111.793	6.964	-8191	255	
796.568	1	1	0	0	0.23113	0.17977	0.16788	0.21892	0.15062	0.10643	0.22616	0.056232	0.15745	0.17798	0.11567	0.046359	0.23173	0.3096	0.048475	0.024172	-3.0042	-2.9729	-3.3167	-3.2188	-3.2021	-3.4375	-3.3521	-3.2646	-3.5563	-3.1417	-3.3271	-3.3583	-3.1437	-3.4333	-2.9542	-3.2042	299.331	13.782	110.057	11.043	82.085	252.808	281.491	70.315	327.119	272.044	246.895	232.714	105.840	-3.656	131.201	182.242	0.00036485	0.00034711	6.046e-05	1184.6	4.6766e-06	4.4563e-06	1254.8	248.91	5.4104e-06	3.7204e-06	311.47	86.51	67.49	19.567	5.6538e-06	27.538	0.00010555	9.5598e-05	2.6962e-05	1126.1	1.0755e-06	1.0709e-06	1221.3	243.52	1.1032e-06	1.1022e-06	302.51	84.977	66.312	19.466	1.1523e-06	27.361	315.692	84.424	330.193	-12.621	152.366	136.156	-12.627	-5.557	144.209	157.996	-6.010	1.244	1.325	7.797	129.646	7.164	-8191	255	
796.664	1	1	0	0	0.20197	0.25722	0.062207	0.33063	0.12088	0.11301	0.22019	0.15519	0.17281	0.1149	0.16195	0.20385	0.15599	0.11899	0.11465	0.14382	-2.9208	-3.1292	-3.2479	-3.3708	-3.0292	-3.4688	-3.4813	-3.1271	-3.4333	-3.125	-3.4583	-3.1937	-3.075	-3.3812	-3.2938	-3.1312	200.145	90.518	150.376	260.184	182.441	214.113	303.972	294.237	116.704	-14.722	291.669	20.280	234.585	87.713	313.034	227.664	0.00045745	0.00061839	8.272e-05	1175.8	4.0662e-06	4.5415e-06	1252.3	248.71	2.3991e-06	3.0888e-06	308.27	87.092	67.629	19.525	2.0976e-06	27.559	0.0001161	0.00010474	2.8515e-05	1126.3	1.1585e-06	1.1465e-06	1219.9	243.39	1.1261e-06	1.1292e-06	301.53	84.985	66.227	19.377	1.1646e-06	27.34	326.677	60.200	67.102	-12.942	154.938	105.846	-12.689	-5.524	160.158	159.560	-6.362	0.775	1.296	8.016	111.447	7.317	-8191	255	
796.785	1	1	0	0	0.058722	0.24159	0.16294	0.11287	0.081975	0.027253	0.11384	0.20094	0.15566	0.15389	0.021624	0.28457	0.14664	0.29295	0.055075	0.0803	-3.0312	-3.125	-3.2667	-3.1958	-2.9188	-3.0208	-3.3958	-3.2062	-3.4479	-3.15	-3.3	-3.25	-3.0708	-3.4792	-3.2438	-3.1333	244.422	258.763	139.892	286.410	47.270	226.969	14.701	239.252	267.334	202.464	278.999	-13.644	0.845	10.312	46.257	284.135	0.00036362	0.00034173	0.00011553	1189.6	2.0813e-06	4.5633e-06	1249.4	246.32	1.6777e-06	5.508e-06	309.36	86.089	67.376	19.422	5.4573e-06	27.682	0.00011276	0.00010339	2.8885e-05	1128	1.1043e-06	1.1135e-06	1217.8	242.35	1.1337e-06	1.0706e-06	301.23	84.683	66.152	19.399	1.1102e-06	27.35	314.087	43.005	65.757	-12.626	155.836	161.791	-12.540	-5.497	108.937	126.373	-6.080	0.992	1.449	8.084	125.022	7.637	-8191	255	
796.879	1	1	0	0	0.28664	0.11364	0.15383	0.027581	0.24704	0.11747	0.36358	0.21743	0.084885	0.23657	0.19381	0.07392	0.16947	0.21111	0.086854	0.050397	-2.9854	-3.1646	-3.0875	-3.3312	-2.9833	-3.1104	-3.2646	-3.1562	-3.3396	-3.0938	-3.0563	-3.3688	-3.0333	-3.4062	-3.2604	-3.1125	118.674	24.770	258.064	141.713	33.407	276.247	288.133	256.454	276.627	286.887	261.289	132.427	7.845	212.679	209.758	149.785	0.00045626	0.00046367	0.00013347	1173.8	9.8706e-07	2.3589e-06	1249.3	247.26	1.9434e-06	2.9201e-06	308.79	85.96	67.237	19.511	5.8968e-06	27.613	0.00011097	9.9153e-05	2.8356e-05	1122.6	1.1161e-06	1.0726e-06	1216	242.6	1.1094e-06	1.0555e-06	300.75	84.711	65.982	19.366	1.0602e-06	27.339	321.625	61.491	90.678	-12.737	236.013	124.282	-12.638	-5.463	82.236	119.158	-5.925	0.643	1.380	7.851	115.146	7.531	-8191	255	
796.975	1	1	0	0	0.1489	0.086267	0.14659	0.16706	0.22283	0.12547	0.17738	0.046578	0.1733	0.13479	0.23743	0.10436	0.13278	0.26913	0.34179	0.023321	-2.9313	-3.0312	-2.9646	-3.4354	-3.05	-3.3104	-3.525	-3.1271	-3.3083	-3.1625	-3.1083	-3.4958	-3.2042	-3.3333	-3.3812	-3.0458	35.173	144.954	24.134	286.435	46.243	95.578	209.479	109.089	65.168	201.479	266.661	285.470	68.314	297.796	123.603	178.814	0.00037961	0.00029347	9.6898e-05	1177.7	3.3424e-06	3.0669e-06	1251.4	247.33	4.2369e-06	2.7035e-06	311.4	86.574	67.252	19.614	3.9091e-06	27.82	0.00010792	9.9142e-05	2.7275e-05	1125.3	1.0941e-06	1.078e-06	1218.9	242.45	1.1068e-06	1.0726e-06	301.59	84.821	66.083	19.434	1.1043e-06	27.489	309.194	61.902	114.870	-12.690	90.819	132.352	-12.750	-5.465	118.587	162.837	-5.878	0.759	1.541	7.806	104.584	7.160	-8191	255	
797.049	1	1	0	0	0.045324	0.1113	0.19392	0.16428	0.30564	0.12062	0.16078	0.2133	0.2425	0.078804	0.066898	0.076111	0.13079	0.19401	0.17681	0.19136	-2.8104	-3.3604	-2.8979	-3.3187	-3.0271	-3.1646	-3.6063	-3.1771	-3.4792	-3.3729	-3.1646	-3.3438	-3.2021	-3.1792	-3.4042	-3.0604	298.110	261.571	51.062	-17.217	286.287	239.149	305.730	285.152	202.727	324.317	-20.220	141.829	229.796	-3.577	28.797	214.867	0.00037369	0.00024458	4.4349e-05	1184.8	3.1173e-06	3.4299e-06	1251.6	248.28	2.4686e-06	3.1896e-06	309.77	86.059	67.185	19.363	1.2573e-06	27.71	0.00011396	0.00010306	2.8628e-05	1126.8	1.1311e-06	1.118e-06	1220	242.93	1.1358e-06	1.1241e-06	301.09	84.766	66.025	19.369	1.0796e-06	27.394	299.419	69.335	69.482	-12.571	147.072	189.468	-12.573	-5.317	123.395	145.619	-5.899	0.692	0.990	7.563	68.833	7.180	-8191	255	
797.168	1	1	0	0	0.32127	0.14883	0.28441	0.14093	0.20092	0.09533	0.19718	0.072504	0.14978	0.077366	0.22271	0.19173	0.18547	0.21108	0.076589	0.14738	-2.9167	-3.1625	-3.0083	-3.35	-3.2833	-3.1063	-3.3896	-3.0292	-3.3021	-3.3271	-3.0542	-3.4458	-3.1604	-3.3042	-3.35	-3.2604	333.481	13.035	10.488	167.905	291.632	2.997	251.940	314.604	246.107	150.835	143.355	140.535	300.245	224.211	-8.412	0.346	0.00040135	0.00012498	0.00012306	1177.9	3.6698e-06	2.6599e-06	1249.9	246.89	7.2518e-06	3.2945e-06	309.01	85.969	67.108	19.463	3.6802e-06	27.592	0.0001096	9.6926e-05	2.7153e-05	1121.2	1.0734e-06	1.066e-06	1215.4	241.91	1.0883e-06	1.0498e-06	300.67	84.373	65.865	19.338	1.037e-06	27.282	315.749	126.986	30.394	-12.667	137.422	150.513	-12.762	-5.706	172.849	83.769	-5.474	1.262	1.183	8.038	117.769	7.394	-8191	255	
797.264	1	1	0	0	0.13607	0.25673	0.20914	0.2101	0.11947	0.17206	0.37373	0.06093	0.061292	0.12511	0.21147	0.090884	0.20805	0.20153	0.27008	0.030332	-2.8083	-3.4479	-2.8979	-3.4479	-2.9813	-3.1333	-3.4292	-3.2	-3.0875	-3.3667	-3.0854	-3.3729	-3.275	-3.1708	-3.3812	-3.1583	66.049	66.006	96.299	264.637	185.537	286.541	266.189	78.479	-19.080	14.298	291.988	65.751	324.570	30.607	163.316	-0.053	0.00042029	0.00017563	0.00012899	1182.4	2.8817e-06	1.7999e-06	1244.9	247.43	2.5173e-06	3.3633e-06	308.04	85.632	66.993	19.353	3.5857e-06	27.7	0.00010861	9.7764e-05	2.6888e-05	1122.3	1.032e-06	1.0071e-06	1211.1	241.51	1.0335e-06	9.8531e-07	299.16	84.499	65.704	19.272	1.0007e-06	27.242	323.880	34.911	104.110	-12.695	144.701	122.796	-12.473	-5.470	132.063	148.518	-5.994	0.869	1.204	8.299	122.420	7.099	-8191	255	
797.360	1	1	0	0	0.2151	0.13164	0.28797	0.31987	0.22926	0.21702	0.10736	0.1654	0.15326	0.12825	0.20705	0.25378	0.205	0.14654	0.20894	0.069853	-2.7229	-3.3854	-2.9208	-3.1833	-3.3375	-3.1354	-3.5458	-3.1104	-3.15	-3.3646	-3.0438	-3.4208	-3.2854	-2.9521	-3.3542	-3.1688	197.077	274.752	132.385	321.199	300.345	190.825	211.535	277.919	229.068	230.179	5.780	308.799	251.520	232.256	264.204	252.038	0.00032294	8.1229e-05	9.3015e-05	1175.5	2.936e-06	2.0546e-06	1239.1	245.61	3.0895e-06	2.4984e-06	307.57	85.226	66.822	19.421	2.9976e-07	27.635	0.00010139	9.2031e-05	2.509e-05	1115.9	1.0145e-06	9.9878e-07	1207.7	240.44	1.032e-06	1.0138e-06	298.94	84.126	65.643	19.257	9.9624e-07	27.248	317.042	41.221	49.278	-12.196	141.508	131.948	-12.592	-5.397	132.113	164.035	-5.874	0.738	1.601	7.944	169.531	7.359	-8191	255	
797.456	1	1	0	0	0.053938	0.11677	0.13794	0.16108	0.31615	0.18914	0.13742	0.13219	0.044954	0.061091	0.35853	0.11013	0.098617	0.30096	0.15849	0.10722	-2.5583	-3.3875	-2.9729	-3.3292	-3.3125	-3.0396	-3.4396	-3.3083	-2.9979	-3.4562	-3.0646	-3.3688	-3.2979	-3.0062	-3.4375	-3.1958	24.484	315.648	280.832	127.709	253.285	225.170	327.082	319.080	253.116	6.283	-21.617	199.502	226.646	290.331	204.364	265.380	0.00044182	0.00037782	0.00014002	1173.1	1.2675e-06	2.8875e-06	1232.3	246.66	1.7399e-06	4.7173e-07	307.2	85.582	66.538	19.309	3.8163e-06	27.361	0.00010292	9.06e-05	2.6131e-05	1113.8	1.0478e-06	1.028e-06	1204.2	240.67	1.0683e-06	1.0329e-06	298.82	84.236	65.573	19.269	1.0709e-06	27.215	315.102	36.483	35.010	-12.869	77.983	163.067	-12.684	-5.249	141.044	13.320	-5.922	1.092	1.322	8.085	127.461	7.346	-8191	255	
797.577	1	1	0	0	0.22088	0.14571	0.13974	0.23315	0.083052	0.10754	0.2222	0.14192	0.094201	0.048746	0.1088	0.29586	0.098808	0.031762	0.077419	0.045727	-2.7208	-3.3979	-3.0812	-3.0354	-3.3167	-3.0062	-3.5146	-3.0646	-3.1958	-3.3187	-3.2167	-3.2812	-3.5229	-2.8792	-3.3667	-3.1333	244.523	207.838	7.508	293.026	152.414	21.407	304.630	195.809	277.648	174.571	169.908	321.374	258.160	165.312	160.973	212.219	0.00032603	0.00031208	0.00014251	1180.5	9.4576e-07	3.5117e-06	1248.8	245.49	1.0673e-06	4.3355e-06	306.54	86.514	67.042	19.35	1.2181e-06	27.406	0.00010609	9.4707e-05	2.6164e-05	1122.1	1.0206e-06	1.0023e-06	1214.2	240.87	9.9382e-07	9.7729e-07	299.74	84.637	65.735	19.28	1.0203e-06	27.229	323.942	76.036	71.282	-12.894	48.266	155.660	-12.530	-5.542	135.055	134.120	-6.260	0.898	1.283	7.958	124.598	7.687	-8191	255	
797.673	1	1	0	0	0.12913	0.23816	0.047797	0.2611	0.17517	0.25108	0.37975	0.27159	0.13258	0.18853	0.25003	0.066707	0.13104	0.10675	0.18361	0.10712	-2.7208	-3.2375	-3.1146	-3.2333	-3.2542	-2.9958	-3.375	-3.4042	-3.0292	-3.2896	-3.1521	-3.2604	-3.3771	-3.2938	-3.1083	-3.4688	98.681	258.935	145.703	304.977	220.207	263.035	281.251	-8.916	46.641	-15.925	3.464	319.594	279.179	331.340	114.749	291.722	0.00033689	0.00041279	0.00014561	1170.9	2.3953e-06	1.8267e-06	1237.7	245.3	2.4878e-06	2.3032e-06	307.78	85.764	66.872	19.311	3.4507e-06	27.464	0.00010126	9.2925e-05	2.5201e-05	1118.4	1.0469e-06	1.0079e-06	1208.4	240.48	1.0198e-06	1.0031e-06	299.09	84.289	65.714	19.252	9.9764e-07	27.248	317.370	80.091	100.270	-12.624	149.916	80.043	-12.746	-5.811	137.998	130.939	-6.063	0.873	1.287	7.772	99.817	7.852	-8191	255	
797.769	1	1	0	0	0.15277	0.19129	0.12773	0.16406	0.18081	0.17859	0.23805	0.12991	0.18617	0.23993	0.17351	0.11315	0.11853	0.37061	0.051889	0.18376	-2.5438	-3.3021	-2.875	-3.2167	-3.2896	-3.1146	-3.1667	-3.4354	-2.9646	-3.3167	-3.425	-3.0667	-3.5417	-3.0521	-3.4229	-3.4542	46.903	-12.867	-16.258	257.062	280.283	235.121	17.640	259.704	148.967	94.276	93.005	272.153	50.362	316.371	234.195	87.044	0.00042642	0.00043944	0.000106	1170	6.9696e-07	2.0847e-06	1239	245.88	5.2527e-07	3.8145e-06	307.96	86.626	66.927	19.373	3.8876e-06	27.37	9.6886e-05	8.9358e-05	2.3669e-05	1115.2	9.5173e-07	9.3441e-07	1209.5	240.54	9.8053e-07	9.6497e-07	299.1	84.495	65.474	19.256	9.9447e-07	27.179	328.557	54.568	92.001	-12.589	87.240	113.263	-12.351	-5.210	186.735	158.341	-5.806	0.976	1.371	7.995	107.613	7.239	-8191	255	
797.865	1	1	0	0	0.01409	0.071934	0.099274	0.24542	0.18885	0.17925	0.16881	0.1518	0.11535	0.2347	0.066504	0.13099	0.099585	0.031109	0.067556	0.18922	-2.6604	-3.1708	-3.2583	-3.0792	-3.2229	-3.2562	-3.2875	-3.6104	-2.9792	-3.1417	-3.275	-3.0979	-3.2646	-3.1604	-3.1104	-3.5729	318.469	310.580	-7.310	-16.345	245.640	-14.002	301.454	307.621	324.083	162.928	-18.388	1.568	60.359	268.267	211.730	264.619	0.00036777	0.00036646	6.8519e-05	1169.7	3.6268e-06	4.7561e-06	1242.4	245.3	4.4545e-06	3.4482e-06	306.57	85.883	67.053	19.358	1.9154e-06	27.558	0.00010247	9.1385e-05	2.565e-05	1114.8	1.0682e-06	1.0061e-06	1208	240.06	1.0563e-06	1.0289e-06	298.39	84.34	65.747	19.248	1.0566e-06	27.244	319.980	63.800	80.670	-12.606	119.687	110.305	-12.646	-5.416	119.486	128.010	-5.804	1.376	1.317	7.575	68.192	7.164	-8191	255	
797.960	1	1	0	0	0.21742	0.14375	0.019229	0.080416	0.15266	0.12006	0.11475	0.31529	0.20034	0.10601	0.08257	0.3028	0.080782	0.21477	0.04045	0.27758	-2.4021	-3.2021	-3.1063	-3.1813	-3.2438	-3.225	-3.1875	-3.4708	-3.1271	-3.1688	-3.3104	-2.9708	-3.35	-3.1	-3.1063	-3.3167	24.307	3.673	159.796	108.518	107.089	251.373	303.829	232.657	118.044	128.312	264.281	297.171	210.964	226.146	289.312	95.207	0.00048213	0.00022068	0.00012	1174	1.8624e-06	3.3253e-06	1240.9	245.92	3.2162e-06	2.6082e-06	307.68	85.549	66.816	19.534	3.501e-06	27.38	0.00010518	9.653e-05	2.6263e-05	1117.1	1.0372e-06	1.0191e-06	1210.3	240.7	1.0548e-06	1.042e-06	299.46	84.378	65.694	19.306	1.035e-06	27.213	323.899	69.170	96.289	-12.803	190.177	168.212	-12.707	-5.797	167.350	189.017	-6.230	0.995	1.075	7.950	145.664	7.450	-8191	255	
798.057	1	1	0	0	0.22296	0.22176	0.33629	0.12921	0.1578	0.1696	0.27252	0.28915	0.10226	0.19589	0.25312	0.15333	0.08287	0.096716	0.050664	0.25857	-2.7354	-3.1417	-3.1188	-3.1312	-3.3625	-3.1167	-3.3167	-3.5708	-3.3438	-3.1167	-3.6042	-3.0771	-3.5042	-3.1646	-3.1771	-3.2458	332.435	80.785	136.250	318.782	-21.959	139.317	280.969	187.812	237.624	200.550	125.794	139.281	29.768	28.848	142.160	256.528	0.00037259	0.00032085	4.1623e-05	1176.6	4.8006e-06	3.1415e-06	1243.5	246.74	4.3736e-06	1.6275e-06	306.27	85.952	66.767	19.299	4.2471e-06	27.348	0.0001033	9.5148e-05	2.6324e-05	1116.6	1.0757e-06	1.041e-06	1208.8	240.87	1.1068e-06	1.0646e-06	299.19	84.248	65.591	19.25	1.0811e-06	27.195	326.030	7.742	137.294	-12.790	113.030	125.861	-12.732	-5.545	95.278	121.705	-5.713	1.050	1.379	8.103	117.918	7.380	-8191	255	
798.176	1	1	0	0	0.12699	0.062711	0.26934	0.29116	0.046261	0.15986	0.23831	0.07263	0.17475	0.019804	0.13555	0.10691	0.051042	0.062554	0.2108	0.19674	-2.8271	-3.0021	-3.3958	-2.9271	-3.2812	-3.0792	-3.1188	-3.3937	-3.1854	-3.2875	-3.4917	-3.15	-3.1562	-3.2542	-3.0375	-3.2938	115.096	331.853	289.659	311.392	174.094	123.825	69.748	313.273	11.475	77.595	14.636	274.969	252.078	158.815	219.334	188.648	0.00031685	0.00034924	8.0862e-05	1169.7	1.0695e-06	2.8557e-06	1238.1	246.25	1.6614e-06	1.5552e-06	304.74	85.748	66.387	19.233	4.5848e-06	27.395	0.00010731	9.8987e-05	2.7143e-05	1118.6	1.1219e-06	1.0616e-06	1209.3	240.9	1.1316e-06	1.1029e-06	298.36	84.05	65.303	19.169	1.1527e-06	27.169	327.275	44.089	61.887	-12.706	77.009	164.183	-12.589	-5.441	258.548	167.137	-5.889	0.986	1.261	7.842	92.628	7.168	-8191	255	
798.272	1	1	0	0	0.26412	0.2858	0.065038	0.15873	0.13416	0.15118	0.17845	0.29293	0.25695	0.062667	0.15628	0.088072	0.073942	0.077818	0.19245	0.014805	-2.6042	-3.1271	-3.2687	-3.0167	-3.4292	-3.2875	-3.2521	-3.3688	-3.3875	-3.1813	-3.4813	-3.2042	-3.3812	-3.2583	-3.0667	-3.0375	159.157	82.368	263.375	279.352	287.004	213.317	299.709	336.539	65.699	193.859	5.527	117.193	256.325	119.685	184.592	-20.622	0.00035138	0.00012318	0.00010782	1176.3	3.0076e-06	2.3964e-06	1246.1	245.32	1.9138e-06	2.4264e-06	307.59	85.813	66.626	19.434	3.3418e-06	27.571	0.00011518	0.00010915	3.0326e-05	1118.7	1.2572e-06	1.2233e-06	1212.2	241.14	1.2612e-06	1.2395e-06	300.41	84.311	65.792	19.267	1.2842e-06	27.254	323.246	111.350	76.937	-12.822	116.587	166.605	-12.887	-5.370	69.340	135.816	-6.062	1.014	1.273	7.595	100.245	7.162	-8191	255	
798.344	1	1	0	0	0.11538	0.18705	0.092601	0.18393	0.068229	0.035362	0.20369	0.087629	0.23736	0.052101	0.12854	0.28172	0.29696	0.28368	0.15514	0.088219	-2.7521	-3.1312	-3.5208	-3.0833	-3.4167	-3.3812	-3.2729	-3.5354	-3.1813	-3.0187	-3.1958	-3.2188	-3.0479	-3.4021	-3.0042	-3.3917	39.279	287.397	117.322	26.935	222.089	76.096	221.201	120.643	5.742	52.364	44.097	-9.751	258.088	59.291	71.411	229.845	0.0003817	0.00020471	0.00010874	1183.9	3.2816e-06	1.7664e-06	1244.2	246.95	3.6285e-06	2.7203e-06	305.22	85.35	66.638	19.284	3.534e-06	27.206	0.00012492	0.00011702	3.2256e-05	1125.4	1.292e-06	1.2427e-06	1215.9	241.48	1.2471e-06	1.2165e-06	298.53	84.038	65.633	19.163	1.2025e-06	27.05	318.125	47.294	76.133	-12.794	161.710	161.787	-12.803	-5.467	122.704	99.826	-5.651	0.956	1.280	7.748	162.299	7.399	-8191	255	
798.465	1	1	0	0	0.21572	0.095278	0.092874	0.34003	0.22008	0.15977	0.283	0.097039	0.17819	0.083849	0.16348	0.17777	0.10595	0.1963	0.14996	0.0997	-2.8792	-2.9229	-3.2125	-3.2313	-3.0646	-3.3646	-3.3083	-3.3771	-3.1354	-3.2729	-3.4875	-3.4062	-3.2771	-3.525	-3.3396	-3.4208	284.382	277.159	181.628	295.201	335.141	103.937	270.830	316.679	268.801	30.854	258.553	-14.088	107.297	218.120	110.139	114.512	0.000384	0.0003596	6.6497e-05	1182	3.298e-06	2.1381e-06	1240.4	244.8	3.0821e-06	9.2014e-07	305.92	85.578	66.895	19.238	2.9038e-06	27.379	0.0001156	0.00010521	2.9514e-05	1120.8	1.1957e-06	1.1446e-06	1209.6	239.74	1.185e-06	1.1887e-06	297.58	83.972	65.331	19.161	1.1864e-06	27.085	326.659	32.890	54.969	-12.858	137.021	173.217	-12.620	-5.579	97.044	145.636	-5.770	1.224	1.327	7.786	151.775	7.767	-8191	255	
798.561	1	1	0	0	0.27613	0.054922	0.068659	0.17956	0.1066	0.059083	0.20304	0.087872	0.044595	0.20248	0.21938	0.068943	0.018668	0.1673	0.23036	0.041906	-2.7854	-3.1667	-3.0583	-3.2396	-3.1104	-3.5417	-3.0938	-3.3063	-3.3375	-3.0917	-3.2917	-3.1937	-3.0979	-3.5187	-3.1188	-3.1708	198.873	270.493	231.042	-19.554	170.455	4.214	239.626	323.888	336.235	200.031	228.621	285.038	171.731	313.308	249.947	297.945	0.00034724	0.00017684	0.00010849	1176.5	2.2895e-06	5.4719e-06	1239.1	243.26	1.8319e-06	1.7396e-06	303.35	85.209	66.603	19.212	4.9886e-06	27.2	0.00011462	0.00010516	2.9534e-05	1120.8	1.1697e-06	1.1741e-06	1208.2	238.69	1.1946e-06	1.1365e-06	296.35	83.587	65.314	19.112	1.1697e-06	26.986	330.453	116.954	69.490	-12.722	251.112	170.694	-12.506	-5.321	146.352	182.037	-5.979	0.795	1.346	8.247	100.137	7.476	-8191	255	
798.657	1	1	0	0	0.18159	0.16021	0.14521	0.22249	0.10325	0.24265	0.22372	0.21961	0.17377	0.16783	0.21675	0.064107	0.2359	0.27715	0.08528	0.14996	-2.8937	-3.0542	-3.4688	-3.5104	-3.1271	-3.4833	-3.2438	-3.175	-3.5708	-3.0646	-3.6083	-3.2958	-3.1229	-3.3187	-3.1583	-3.2771	293.669	281.070	305.914	264.012	232.983	111.447	255.335	328.418	149.012	58.036	311.428	42.086	296.267	311.289	252.728	287.334	0.0004244	0.00036567	9.4612e-05	1184.1	4.6157e-06	2.5162e-06	1238.4	244.17	4.6749e-06	3.8559e-06	302.33	84.727	66.326	18.936	2.7193e-06	26.95	0.00011337	0.00010663	2.9198e-05	1119.9	1.1708e-06	1.1049e-06	1206.9	238.79	1.1235e-06	1.1051e-06	295.01	83.186	64.916	18.929	1.043e-06	26.69	306.992	42.115	114.547	-12.932	116.761	142.050	-12.553	-5.505	130.859	125.052	-5.992	1.161	1.282	7.794	188.652	7.435	-8191	255	
798.753	1	1	0	0	0.11649	0.1369	0.10011	0.19664	0.20303	0.15852	0.20372	0.16039	0.20744	0.15819	0.087878	0.09388	0.16872	0.074314	0.18231	0.25053	-3.0146	-3.0438	-3.3604	-3.2938	-3.0625	-3.3625	-3.5104	-3.2229	-3.4271	-3.0542	-3.4458	-3.4208	-3.1354	-3.3479	-3.2562	-3.2104	272.508	78.319	-16.474	237.692	173.533	44.909	226.119	247.195	14.350	149.243	238.803	263.290	294.910	-16.747	210.449	58.224	0.00028714	0.00015214	0.00013175	1160	1.9865e-06	2.5254e-06	1226.2	241.2	2.1706e-06	8.7311e-07	299.26	83.528	65.537	18.942	2.24e-06	26.851	0.00010535	9.4722e-05	2.6419e-05	1102.5	1.0101e-06	9.9679e-07	1194.4	235.77	9.6937e-07	9.7964e-07	291.69	82.544	64.265	18.811	9.3998e-07	26.574	333.974	24.699	16.530	-12.553	90.827	148.120	-12.482	-5.436	105.075	131.552	-5.805	1.053	1.522	8.675	191.053	7.575	-8191	255	
798.872	1	1	0	0	0.12405	0.047583	0.23141	0.18717	0.2504	0.19638	0.064555	0.18516	0.40077	0.39442	0.21218	0.3712	0.057238	0.063803	0.041479	0.24623	-2.9958	-3.1708	-3.2292	-3.2375	-3.0625	-3.3042	-3.4437	-3.175	-3.3208	-3.0771	-3.2521	-3.3208	-3.0021	-3.5083	-3.3292	-3.1958	318.851	45.584	120.187	157.377	320.946	17.788	9.828	284.486	25.340	125.087	268.951	328.271	46.121	75.303	259.081	62.560	0.0004288	4.2012e-05	9.1075e-05	1147.7	3.3899e-06	5.4232e-06	1216.3	238.25	4.3278e-07	1.8713e-06	297.7	83.372	65.016	18.636	4.6069e-06	26.705	9.7216e-05	8.681e-05	2.4272e-05	1091	9.514e-07	9.1971e-07	1181.3	233.72	9.2777e-07	8.8847e-07	289.5	82.033	63.879	18.594	9.2036e-07	26.411	314.384	19.493	85.588	-12.367	187.612	165.537	-12.463	-5.232	148.403	184.720	-5.839	1.081	1.309	8.519	158.433	7.597	-8191	255	
798.968	1	1	0	0	0.082137	0.1959	0.26965	0.10076	0.284	0.0079061	0.26741	0.29765	0.042977	0.065831	0.10931	0.21473	0.24726	0.078729	0.14083	0.036261	-3.1437	-3.1	-3.3229	-3.5792	-3.2479	-3.3083	-3.4062	-3.0792	-3.3229	-3.1437	-3.1458	-3.4896	-3.0333	-3.2208	-3.4292	-3.0792	160.052	301.301	327.041	86.605	101.417	285.933	318.158	303.364	196.280	245.452	122.304	92.848	-13.039	89.321	119.713	315.145	0.0004209	0.00020568	3.8325e-05	1135.4	7.9136e-07	5.3103e-06	1209.2	236.18	2.0503e-06	2.1715e-06	295.77	83.151	65.008	18.792	4.3343e-06	26.712	9.3168e-05	8.3575e-05	2.2421e-05	1083.2	9.3392e-07	9.0591e-07	1174.8	232.87	9.0595e-07	9.0774e-07	288.5	81.802	63.598	18.638	9.2172e-07	26.451	328.354	87.721	14.978	-12.707	105.802	170.780	-12.443	-5.300	221.041	113.620	-5.785	1.280	1.347	8.415	84.955	7.469	-8191	255	
799.042	1	1	0	0	0.21542	0.15732	0.087284	0.20242	0.15269	0.19239	0.070448	0.13861	0.22269	0.16299	0.20215	0.22981	0.25762	0.11804	0.28737	0.13154	-2.9938	-3.3833	-3.0396	-3.5292	-2.9979	-3.5104	-3.4813	-3.1708	-3.3563	-3.1792	-3.3833	-3.5625	-3.0958	-3.4583	-3.325	-3.225	253.352	30.811	201.363	302.676	40.457	89.500	232.194	152.377	115.224	141.996	233.709	-13.904	-18.862	10.991	322.219	19.260	0.00040771	0.00041609	6.8841e-05	1142.6	3.504e-06	4.0808e-06	1204.2	237.05	9.1727e-07	2.4524e-06	295.91	82.711	65.018	18.792	2.7164e-06	26.671	9.4835e-05	8.4085e-05	2.368e-05	1083.3	9.2376e-07	9.2607e-07	1172.8	232.23	9.3733e-07	9.0092e-07	288.33	81.716	63.693	18.626	9.1008e-07	26.367	325.916	60.359	76.239	-12.677	55.457	98.469	-12.569	-5.204	194.087	127.460	-5.863	1.401	1.081	8.311	55.102	7.313	-8191	255	
799.138	1	1	0	0	0.046542	0.014344	0.097063	0.19676	0.13616	0.2579	0.19465	0.2572	0.097105	0.11662	0.093096	0.10198	0.05156	0.11971	0.25264	0.21436	-2.9813	-3.4021	-3.0021	-3.375	-3.2917	-3.2146	-3.5771	-3.2833	-3.3125	-3.1917	-3.125	-3.7042	-3.0167	-3.2854	-3.2396	-3.15	44.074	161.351	-16.285	305.579	88.300	313.902	263.737	328.239	90.614	308.906	15.812	-4.512	245.461	173.027	133.618	-9.352	0.00032458	0.00019128	4.8658e-05	1140.8	3.5685e-06	2.7297e-06	1209.7	237.88	7.9127e-07	1.6572e-06	296.48	83.353	65.176	18.892	2.9081e-06	26.817	9.3223e-05	8.4194e-05	2.3445e-05	1083.7	9.238e-07	9.0504e-07	1173.5	232.73	9.2962e-07	9.0108e-07	288.85	81.868	63.737	18.664	9.2061e-07	26.473	320.656	105.937	40.352	-12.718	136.187	110.235	-12.268	-5.455	99.891	131.478	-5.580	1.290	1.477	7.909	182.801	7.509	-8191	255	
799.257	1	1	0	0	0.18377	0.14539	0.10409	0.068605	0.14536	0.063415	0.33492	0.043255	0.18146	0.17784	0.3973	0.22252	0.1617	0.053745	0.072371	0.099778	-2.9437	-3.2875	-2.9875	-3.5	-3.1333	-3.1104	-3.6229	-3.2646	-3.3312	-3.3417	-3.1167	-3.4938	-3.0729	-3.1917	-3.5896	-3.1896	119.285	240.099	189.081	322.872	252.200	195.163	255.290	135.557	28.803	108.530	329.454	143.286	308.860	57.725	313.442	208.467	0.0004156	0.00034995	8.0834e-05	1135.7	2.631e-06	2.499e-06	1205.1	237.07	4.8544e-06	2.496e-06	296.45	83.401	64.922	18.921	2.2332e-06	26.87	9.6647e-05	8.3466e-05	2.354e-05	1081.9	9.3405e-07	8.9137e-07	1174.3	232.73	9.6129e-07	9.3821e-07	288.98	81.968	63.74	18.7	9.3184e-07	26.439	326.015	61.728	104.336	-12.565	142.370	190.312	-12.537	-5.501	138.860	127.652	-5.733	1.344	1.240	7.911	152.579	7.599	-8191	255	
799.353	1	1	0	0	0.20459	0.32791	0.21784	0.052357	0.1188	0.11294	0.41578	0.18822	0.22335	0.049679	0.32441	0.14406	0.25472	0.13281	0.24305	0.21769	-2.8104	-3.2542	-3.1479	-3.3312	-3.2854	-3.1375	-3.6708	-3.1729	-3.3688	-3.2354	-3.0271	-3.4125	-3.4146	-3.0938	-3.4396	-3.4188	77.613	184.978	208.394	117.905	107.201	115.526	283.988	-21.049	78.293	42.562	-10.189	314.244	272.068	71.542	201.574	218.387	0.00041559	0.00029199	6.4299e-05	1140.4	6.7299e-07	4.4997e-06	1202.3	237.34	5.1633e-06	4.1124e-06	296.79	83.164	64.719	18.909	2.3309e-06	26.762	9.6476e-05	8.4432e-05	2.3588e-05	1081.8	9.4665e-07	9.4069e-07	1173.7	232.54	9.6986e-07	9.5967e-07	288.24	81.729	63.667	18.754	9.6885e-07	26.462	326.128	40.560	43.325	-12.449	283.629	139.913	-12.412	-5.453	85.570	95.767	-5.597	1.532	1.383	8.239	115.221	7.484	-8191	255	
799.449	1	1	0	0	0.26411	0.18054	0.1424	0.23522	0.17358	0.15753	0.17277	0.049269	0.20067	0.16127	0.02225	0.17474	0.14402	0.037875	0.12408	0.10578	-2.6479	-3.3625	-3.125	-3.1688	-3.1896	-2.9437	-3.6458	-3.1833	-3.1708	-3.2521	-3.1083	-3.4208	-3.3083	-2.8792	-3.2896	-3.2542	48.906	291.223	287.196	266.401	11.207	128.725	284.704	157.489	-15.437	142.555	280.279	281.034	209.324	78.654	111.796	149.788	0.00038357	4.2442e-05	5.1355e-05	1139.9	1.4835e-06	5.78e-06	1207	238.86	3.8613e-06	2.9963e-06	296.8	83.506	65.298	18.697	2.4035e-06	27.048	9.8107e-05	8.6995e-05	2.4955e-05	1085.6	1.015e-06	9.7378e-07	1175.5	233.12	9.9038e-07	9.6592e-07	289.17	81.95	63.736	18.67	9.8551e-07	26.517	331.055	58.817	45.886	-12.589	149.495	117.460	-12.494	-5.555	169.447	175.395	-5.991	1.366	1.444	8.015	167.889	7.501	-8191	255	
799.570	1	1	0	0	0.07941	0.044575	0.13433	0.18661	0.093542	0.21078	0.14405	0.17784	0.15049	0.3071	0.16315	0.15016	0.20647	0.12122	0.079536	0.16494	-2.8292	-3.3479	-2.9542	-3.2979	-3.2708	-2.9708	-3.6375	-3.0792	-3.1937	-3.4354	-3.1917	-3.2708	-3.4875	-2.9271	-3.4396	-3.0896	152.082	120.809	82.519	261.990	62.242	272.368	244.310	249.665	326.334	246.236	230.170	-7.677	286.421	1.426	290.474	269.389	0.00037313	0.00023629	6.4306e-05	1142.6	4.1364e-07	2.0418e-06	1210.1	238.43	3.9655e-07	2.474e-06	297.58	83.85	65.399	18.865	3.3507e-06	26.872	0.00010267	8.9366e-05	2.5455e-05	1088.8	1.0047e-06	9.8977e-07	1178.8	233.59	1.0316e-06	1.0012e-06	289.78	82.201	64.081	18.715	1.0052e-06	26.513	324.570	19.560	106.296	-12.668	33.667	128.248	-12.412	-5.380	178.039	120.329	-5.827	0.905	1.292	8.065	96.002	7.425	-8191	255	
799.641	1	1	0	0	0.26614	0.1999	0.14231	0.098982	0.30395	0.068386	0.077222	0.21061	0.028438	0.13594	0.13479	0.17689	0.36714	0.18743	0.22853	0.084864	-2.7771	-3.4813	-3.1729	-3.3292	-3.1792	-2.9021	-3.4562	-3.3312	-3.1312	-3.2854	-3.1646	-3.1042	-3.3063	-3.1813	-3.2375	-3.4333	157.442	166.787	308.856	-22.581	227.361	94.383	81.523	8.711	201.866	109.847	34.146	273.825	12.855	34.090	4.693	136.564	0.00034521	8.816e-05	0.00010028	1147.5	2.96e-06	3.9498e-06	1215.5	238.77	3.4498e-06	3.3973e-06	298.5	83.877	65.403	18.793	5.4841e-06	26.699	0.00010206	9.4907e-05	2.5981e-05	1088.4	1.0245e-06	9.97e-07	1181.1	233.87	1.0263e-06	1.0021e-06	290.63	82.34	64.146	18.737	1.019e-06	26.482	322.318	59.843	65.403	-12.757	166.766	132.191	-12.469	-5.549	107.360	153.310	-5.942	1.140	1.539	8.191	111.662	7.532	-8191	255	
799.737	1	1	0	0	0.1671	0.11685	0.33433	0.23836	0.031591	0.036264	0.16831	0.25859	0.15121	0.12861	0.17721	0.083846	0.12128	0.045306	0.21405	0.19338	-2.8229	-3.3333	-3.1229	-3.275	-3.3708	-3.0708	-3.5083	-3.3375	-3.1	-3.45	-3.1562	-3.2583	-3.3625	-3.0979	-3.35	-3.4667	19.378	72.249	271.895	-0.251	68.206	120.829	270.447	324.594	28.547	237.230	-0.742	246.710	8.481	234.049	-13.833	253.718	0.00037373	0.00013662	0.00010345	1146.1	2.1399e-06	3.4807e-06	1213.2	238.02	2.0318e-06	3.4083e-06	296.56	83.596	65.391	18.898	4.5196e-06	26.975	0.00010054	9.2227e-05	2.5068e-05	1089.8	9.9223e-07	9.7858e-07	1182.2	233.76	9.8e-07	9.5661e-07	289.49	82.161	63.977	18.771	9.9003e-07	26.562	332.443	31.863	91.980	-12.644	105.215	143.474	-12.551	-5.415	128.314	154.990	-5.859	1.183	1.583	8.434	144.173	7.419	-8191	255	
799.858	1	1	0	0	0.29781	0.091	0.29681	0.24997	0.16057	0.032914	0.13091	0.13633	0.23183	0.037852	0.06219	0.041785	0.15582	0.28371	0.056023	0.059981	-2.8417	-3.3271	-3.2438	-3.275	-3.4979	-3.2375	-3.3375	-3.3646	-3.0792	-3.4104	-3.3771	-3.125	-3.4771	-3.2292	-3.1958	-3.2833	257.994	142.410	31.243	293.997	96.400	112.278	-16.486	299.844	285.251	170.571	125.826	93.603	225.381	30.594	15.395	156.460	0.00033044	0.00020212	0.00013025	1147.5	2.9645e-06	3.2443e-06	1210.5	238.66	8.129e-07	3.1961e-06	298.05	83.614	65.265	18.896	4.2175e-06	26.915	9.8429e-05	8.7165e-05	2.3892e-05	1090.1	9.6231e-07	9.4284e-07	1180.4	233.66	9.8632e-07	9.5355e-07	289.78	82.273	63.891	18.773	9.6606e-07	26.473	328.984	67.146	33.878	-12.637	158.738	134.325	-12.655	-5.337	80.789	116.089	-5.850	1.310	1.264	8.394	82.058	7.294	-8191	255	
799.952	1	1	0	0	0.04096	0.07682	0.045494	0.27834	0.23043	0.17937	0.50547	0.20983	0.2325	0.069081	0.042324	0.095507	0.10299	0.058078	0.034282	0.10682	-2.6271	-3.2583	-3.2833	-2.9896	-3.1896	-3.2021	-3.3854	-3.4083	-3.0812	-3.4	-3.2792	-3.2687	-3.375	-3.4	-3.2	-3.5333	154.668	222.812	235.598	283.694	237.844	209.559	259.170	232.067	-9.435	-9.501	155.543	244.489	291.478	263.110	273.429	-15.757	0.00043523	0.00024619	0.00019894	1146.7	1.8618e-06	2.8053e-06	1206.5	238.5	3.6265e-06	3.092e-06	297.37	83.429	64.993	18.897	3.7748e-06	26.663	9.5259e-05	8.6667e-05	2.4278e-05	1089.8	9.576e-07	9.4788e-07	1177.4	233.47	9.8123e-07	9.4934e-07	289.64	81.952	63.881	18.725	9.515e-07	26.507	319.915	58.640	38.989	-12.789	152.999	120.218	-12.401	-5.351	151.229	116.443	-5.719	1.221	1.837	7.899	149.734	7.356	-8191	255	
800.049	1	1	0	0	0.098704	0.17098	0.21811	0.16482	0.28784	0.3267	0.036092	0.20609	0.30015	0.11205	0.18711	0.19732	0.15929	0.035235	0.14402	0.3706	-2.6896	-3.4854	-3.0875	-2.9896	-3.55	-3.2583	-3.375	-3.5854	-3.0062	-3.4062	-3.4062	-2.9688	-3.6646	-3.2979	-3.1521	-3.2354	181.960	-18.407	177.880	83.936	21.400	223.631	336.374	333.061	32.123	124.679	11.306	65.985	286.822	316.216	116.006	302.741	0.00037213	0.00034863	8.9241e-05	1149.7	3.3334e-06	2.362e-06	1214.7	239.03	2.5777e-06	2.112e-06	297.52	83.763	65.191	18.898	3.6625e-06	26.766	9.7458e-05	8.8826e-05	2.4154e-05	1090.3	9.6756e-07	9.5685e-07	1180.7	233.68	9.5694e-07	9.4727e-07	289.8	82.306	63.989	18.771	9.4422e-07	26.577	321.703	33.859	87.349	-12.651	178.659	155.252	-12.595	-5.324	159.506	102.562	-5.719	1.289	1.460	8.170	112.538	7.539	-8191	255	
800.169	1	1	0	0	0.14479	0.096097	0.039055	0.20282	0.10931	0.04382	0.10163	0.12371	0.25621	0.23404	0.10698	0.22068	0.23407	0.2157	0.13779	0.11512	-2.8292	-3.2667	-3.1958	-3.0021	-3.4833	-3.3063	-3.3521	-3.4042	-3.1458	-3.2438	-3.3958	-2.9542	-3.4521	-3.0729	-3.2188	-3.2938	-22.266	7.034	294.153	37.782	219.605	18.762	285.209	-18.190	26.314	151.160	113.589	-11.501	324.093	213.611	105.546	25.673	0.00039214	0.00026018	0.00010018	1146.9	2.985e-06	1.9913e-06	1209	237.84	3.6597e-06	1.8437e-06	297.36	83.965	65.174	18.919	3.0301e-07	26.882	9.6274e-05	8.7897e-05	2.3993e-05	1089.3	9.6252e-07	9.4953e-07	1181	233.98	9.4943e-07	9.4351e-07	289.54	82.282	64.049	18.777	9.4895e-07	26.608	307.402	59.321	74.617	-12.679	142.200	134.098	-12.509	-5.465	125.253	142.879	-5.547	1.323	1.469	8.161	-11.365	7.334	-8191	255	
800.241	1	1	0	0	0.23366	0.16973	0.14471	0.063162	0.12378	0.32425	0.065671	0.17586	0.1409	0.26477	0.20787	0.10764	0.23712	0.068794	0.32437	0.13107	-2.725	-3.2958	-3.2833	-2.9667	-3.3146	-3.2354	-3.2542	-3.4833	-2.9979	-3.2479	-3.3479	-2.9646	-3.3438	-3.4542	-3.0917	-3.4625	300.672	56.328	227.225	216.774	8.578	317.975	174.011	-12.192	286.678	-1.922	45.568	312.217	265.135	242.959	39.425	315.398	0.00036535	0.00017943	0.00011984	1145	7.5499e-07	2.7942e-06	1209.1	239.19	2.493e-06	2.7247e-06	298.01	83.563	65.115	19.009	3.1091e-06	26.779	9.5016e-05	8.8078e-05	2.3993e-05	1088.4	9.5537e-07	9.3809e-07	1179.3	234.16	9.8578e-07	9.4991e-07	290.26	82.516	64.016	18.798	9.7568e-07	26.502	325.833	113.614	110.464	-12.534	191.679	87.375	-12.678	-5.286	128.498	156.243	-5.874	1.444	1.200	7.939	127.528	7.390	-8191	255	
800.337	1	1	0	0	0.20207	0.19924	0.14292	0.1249	0.17734	0.17943	0.15718	0.28224	0.15413	0.075982	0.19229	0.2707	0.16093	0.10642	0.017483	0.14973	-2.8917	-3.2	-3.3354	-3.2125	-3.2375	-3.2062	-3.1479	-3.6063	-3.2917	-3.2458	-3.4104	-3.3354	-3.2687	-3.2917	-3.0396	-3.4542	66.060	132.919	135.596	96.620	275.754	211.485	66.661	131.424	19.719	263.962	288.173	3.475	209.781	8.889	-9.344	315.985	0.00031417	0.00043522	8.8093e-05	1149.4	1.7172e-06	5.1031e-06	1211.7	239	1.5647e-06	3.8607e-06	298.22	83.603	65.307	18.945	3.5726e-06	26.794	9.7632e-05	8.8807e-05	2.4277e-05	1090.2	9.6801e-07	9.4838e-07	1181.7	234.04	9.663e-07	9.421e-07	290.12	82.298	64.005	18.799	9.3566e-07	26.634	323.353	51.230	51.175	-12.821	157.520	118.125	-12.575	-5.186	148.955	126.119	-5.886	1.148	1.687	7.973	133.468	7.757	-8191	255	
800.433	1	1	0	0	0.1798	0.23903	0.24345	0.28869	0.13914	0.11728	0.12956	0.29924	0.17735	0.17878	0.12754	0.092182	0.10731	0.046716	0.087804	0.060916	-2.8021	-3.0958	-3.3854	-3.0229	-3.3354	-3.2896	-3.0771	-3.4917	-3.1375	-3.0896	-3.5354	-3.0271	-3.2958	-3.3333	-3.2083	-3.3458	253.997	270.748	150.136	257.736	-0.936	61.020	294.447	56.572	83.246	210.384	317.105	211.670	286.694	263.884	287.177	-13.204	0.00041207	0.00010124	9.7321e-05	1144	4.1177e-06	2.6668e-06	1211.9	238.93	1.6896e-06	3.1564e-06	297.26	83.93	65.228	18.92	2.0689e-06	27.035	9.4929e-05	8.7931e-05	2.4055e-05	1089.6	9.5239e-07	9.2892e-07	1181.1	233.76	9.7914e-07	9.0567e-07	290.35	82.255	64.042	18.785	9.4854e-07	26.646	325.178	142.937	32.247	-12.374	155.711	140.651	-12.421	-5.383	77.274	140.497	-5.918	1.402	1.360	7.915	92.346	7.418	-8191	255	
800.554	1	1	0	0	0.082802	0.15079	0.042803	0.41946	0.28082	0.17338	0.30173	0.30929	0.058205	0.10973	0.13254	0.16724	0.08576	0.35733	0.14264	0.2426	-2.6792	-3.0271	-3.3771	-3.1	-3.325	-3.25	-3.0833	-3.2125	-3.2917	-3.1708	-3.4125	-3.0917	-3.2667	-3.5896	-2.9271	-3.3563	1.575	101.549	212.410	252.615	174.753	59.059	259.050	258.261	-16.169	31.455	267.159	-8.113	28.663	34.157	234.984	68.039	0.0003645	0.00039095	9.5778e-05	1145.4	3.8637e-06	3.3792e-06	1214.7	238.85	1.3143e-06	3.0353e-06	298.09	83.984	65.299	18.986	5.5968e-06	26.954	9.561e-05	8.5504e-05	2.41e-05	1092.1	9.6091e-07	9.3722e-07	1182.9	234.36	9.8746e-07	9.3693e-07	290.36	82.416	64.119	18.808	9.6067e-07	26.592	328.603	56.762	86.011	-12.462	134.127	118.588	-12.502	-5.208	135.334	168.900	-5.882	1.219	1.156	8.377	95.349	7.592	-8191	255	
#DATA ENDS
