BOXY.EXE: ISS Imagent and Oximeter Data Acquisition Program Version 0.80
Ascii Record File

#ACQ INFORMATION
2  Detector Channels 
16  External MUX Channels 
1  Auxiliary Channels 
5000  Waveform (CCF) Frequency (Hz)
1  Waveforms Skipped 
30  Waveforms Averaged 
1  Cycles Averaged 
16  Acquisitions per Waveform 
10.0806  Updata Rate (Hz) 

#FILE INFORMATION
TRUE -- External MUX Channel results are PARSED.
FALSE -- AC DC and Phase are NOT grouped.
TRUE -- Companion Program Settings File CREATED.
FALSE -- AC data not excluded
FALSE -- DC data not excluded
FALSE -- Phase data not excluded
FALSE -- Auxillary Chn. data not excluded
Tab delimiters

#CALIBRATION STATE
TRUE -- Waveform Calibration Values APPLIED.


#AUX CALIBRATION VALUES
Val Type	aux-1	

Term	1.0000e+00	
Factor	0.0000e+00	


#WF CALIBRATION VALUES
A = Detector Channel
Val Type	A-AC1	A-AC2	A-AC3	A-AC4	A-AC5	A-AC6	A-AC7	A-AC8	A-AC9	A-AC10	A-AC11	A-AC12	A-AC13	A-AC14	A-AC15	A-AC16	A-DC1	A-DC2	A-DC3	A-DC4	A-DC5	A-DC6	A-DC7	A-DC8	A-DC9	A-DC10	A-DC11	A-DC12	A-DC13	A-DC14	A-DC15	A-DC16	A-Ph1	A-Ph2	A-Ph3	A-Ph4	A-Ph5	A-Ph6	A-Ph7	A-Ph8	A-Ph9	A-Ph10	A-Ph11	A-Ph12	A-Ph13	A-Ph14	A-Ph15	A-Ph16	

Term	0.00000e+00	0.00000e+00	0.00000e+00	0.00000e+00	0.00000e+00	0.00000e+00	0.00000e+00	0.00000e+00	0.00000e+00	0.00000e+00	0.00000e+00	0.00000e+00	0.00000e+00	0.00000e+00	0.00000e+00	0.00000e+00	0.00000e+00	0.00000e+00	0.00000e+00	0.00000e+00	0.00000e+00	0.00000e+00	0.00000e+00	0.00000e+00	0.00000e+00	0.00000e+00	0.00000e+00	0.00000e+00	0.00000e+00	0.00000e+00	0.00000e+00	0.00000e+00	0.00000e+00	0.00000e+00	0.00000e+00	0.00000e+00	0.00000e+00	0.00000e+00	0.00000e+00	0.00000e+00	0.00000e+00	0.00000e+00	0.00000e+00	0.00000e+00	0.00000e+00	0.00000e+00	0.00000e+00	0.00000e+00	
Factor	1.00000e+00	1.00000e+00	1.00000e+00	1.00000e+00	1.00000e+00	1.00000e+00	1.00000e+00	1.00000e+00	1.00000e+00	1.00000e+00	1.00000e+00	1.00000e+00	1.00000e+00	1.00000e+00	1.00000e+00	1.00000e+00	1.00000e+00	1.00000e+00	1.00000e+00	1.00000e+00	1.00000e+00	1.00000e+00	1.00000e+00	1.00000e+00	1.00000e+00	1.00000e+00	1.00000e+00	1.00000e+00	1.00000e+00	1.00000e+00	1.00000e+00	1.00000e+00	X	X	X	X	X	X	X	X	X	X	X	X	X	X	X	X	

B = Detector Channel
Val Type	B-AC1	B-AC2	B-AC3	B-AC4	B-AC5	B-AC6	B-AC7	B-AC8	B-AC9	B-AC10	B-AC11	B-AC12	B-AC13	B-AC14	B-AC15	B-AC16	B-DC1	B-DC2	B-DC3	B-DC4	B-DC5	B-DC6	B-DC7	B-DC8	B-DC9	B-DC10	B-DC11	B-DC12	B-DC13	B-DC14	B-DC15	B-DC16	B-Ph1	B-Ph2	B-Ph3	B-Ph4	B-Ph5	B-Ph6	B-Ph7	B-Ph8	B-Ph9	B-Ph10	B-Ph11	B-Ph12	B-Ph13	B-Ph14	B-Ph15	B-Ph16	

Term	0.00000e+00	0.00000e+00	0.00000e+00	0.00000e+00	0.00000e+00	0.00000e+00	0.00000e+00	0.00000e+00	0.00000e+00	0.00000e+00	0.00000e+00	0.00000e+00	0.00000e+00	0.00000e+00	0.00000e+00	0.00000e+00	0.00000e+00	0.00000e+00	0.00000e+00	0.00000e+00	0.00000e+00	0.00000e+00	0.00000e+00	0.00000e+00	0.00000e+00	0.00000e+00	0.00000e+00	0.00000e+00	0.00000e+00	0.00000e+00	0.00000e+00	0.00000e+00	5.86857e+01	-1.40275e+02	-1.27777e+02	-1.81956e+02	-7.36887e+01	-5.69442e+01	-1.56028e+02	-1.62015e+02	-8.09294e+01	-6.35191e+01	-1.71357e+02	-1.71405e+02	-1.82318e+02	-1.76945e+02	-7.95853e+01	-1.50279e+02	
Factor	5.16763e-05	1.33635e-04	4.06010e-05	4.21718e-01	1.38256e-06	1.58296e-06	1.58406e-01	5.39367e-02	1.66385e-06	1.37896e-06	8.47905e-02	2.81246e-02	2.35851e-02	8.08168e-03	1.69326e-06	1.20261e-02	1.73923e-06	1.81185e-06	5.05000e-07	2.07507e-01	1.98338e-08	1.98293e-08	7.56450e-02	2.72911e-02	1.96927e-08	1.98476e-08	4.12586e-02	1.36837e-02	1.19586e-02	4.10842e-03	1.97406e-08	5.88837e-03	X	X	X	X	X	X	X	X	X	X	X	X	X	X	X	X	



#DISTANCE SETTINGS
A = Detector Channel
A-1	A-2	A-3	A-4	A-5	A-6	A-7	A-8	A-9	A-10	A-11	A-12	A-13	A-14	A-15	A-16	

2.5000e+00	3.0000e+00	2.5000e+00	3.0000e+00	2.0000e+00	3.0000e+00	1.5000e+00	3.0000e+00	3.0000e+00	3.0000e+00	3.0000e+00	3.0000e+00	3.0000e+00	3.0000e+00	1.5000e+00	3.0000e+00	

B = Detector Channel
B-1	B-2	B-3	B-4	B-5	B-6	B-7	B-8	B-9	B-10	B-11	B-12	B-13	B-14	B-15	B-16	

1.0000e+01	1.0000e+01	1.0000e+01	1.4400e+00	1.0000e+01	1.0000e+01	1.5100e+00	1.9400e+00	1.0000e+01	1.0000e+01	1.9900e+00	2.4900e+00	2.4100e+00	2.9000e+00	1.0000e+01	2.9800e+00	




#DATA BEGINS
time	group	step	mark	flag	A-AC1	A-AC2	A-AC3	A-AC4	A-AC5	A-AC6	A-AC7	A-AC8	A-AC9	A-AC10	A-AC11	A-AC12	A-AC13	A-AC14	A-AC15	A-AC16	A-DC1	A-DC2	A-DC3	A-DC4	A-DC5	A-DC6	A-DC7	A-DC8	A-DC9	A-DC10	A-DC11	A-DC12	A-DC13	A-DC14	A-DC15	A-DC16	A-Ph1	A-Ph2	A-Ph3	A-Ph4	A-Ph5	A-Ph6	A-Ph7	A-Ph8	A-Ph9	A-Ph10	A-Ph11	A-Ph12	A-Ph13	A-Ph14	A-Ph15	A-Ph16	B-AC1	B-AC2	B-AC3	B-AC4	B-AC5	B-AC6	B-AC7	B-AC8	B-AC9	B-AC10	B-AC11	B-AC12	B-AC13	B-AC14	B-AC15	B-AC16	B-DC1	B-DC2	B-DC3	B-DC4	B-DC5	B-DC6	B-DC7	B-DC8	B-DC9	B-DC10	B-DC11	B-DC12	B-DC13	B-DC14	B-DC15	B-DC16	B-Ph1	B-Ph2	B-Ph3	B-Ph4	B-Ph5	B-Ph6	B-Ph7	B-Ph8	B-Ph9	B-Ph10	B-Ph11	B-Ph12	B-Ph13	B-Ph14	B-Ph15	B-Ph16	aux-1	digaux	

1427.941	1	1	0	256	0.083709	0.16063	0.036196	0.066147	0.14335	0.13833	0.099149	0.1773	0.063134	0.18352	0.32582	0.13573	0.071941	0.25935	0.11412	0.19796	-2.3646	-2.9	-2.7708	-3.0146	-2.8979	-2.8708	-2.9417	-2.7375	-2.9333	-2.9625	-2.8583	-2.9229	-2.7604	-2.8208	-3.0687	-2.7208	293.329	211.418	511.639	374.650	452.985	190.857	423.207	507.869	319.488	385.635	412.207	417.810	470.969	283.110	227.414	372.109	0.0012329	0.00020608	3.9472e-05	479.67	3.609e-06	2.6258e-06	635.5	123.18	3.0735e-06	2.113e-06	229.66	83.131	35.405	12.979	2.5115e-06	39.863	4.4974e-05	1.6476e-05	4.706e-06	450.09	1.7359e-07	1.8916e-07	615.92	119.22	2.0029e-07	1.7706e-07	220.45	80.175	33.88	12.517	1.754e-07	38.634	382.559	244.320	280.804	181.983	317.111	333.220	182.230	187.254	296.694	346.776	187.315	192.059	191.453	197.130	316.843	195.907	-8191	255	
1428.037	1	1	0	0	0.16096	0.15699	0.10251	0.041684	0.24321	0.2779	0.22384	0.10824	0.25162	0.1181	0.21558	0.18353	0.25495	0.23547	0.12767	0.096944	-2.4396	-2.95	-2.7917	-3.1104	-2.7646	-2.9833	-3.0583	-2.6875	-3.1042	-2.8583	-2.6292	-3.0896	-2.7583	-2.9208	-2.9917	-2.8958	268.803	174.898	446.105	437.419	459.703	431.483	494.901	435.397	237.464	261.783	451.709	408.767	512.251	420.322	349.773	194.264	0.0012009	0.00021871	7.5188e-05	481.59	2.8841e-06	1.0647e-06	636.71	123.67	3.3348e-06	2.9957e-06	230.3	84.035	35.422	12.961	3.0585e-06	40.147	4.4064e-05	1.5959e-05	4.9627e-06	451.77	1.8842e-07	1.6793e-07	618.06	119.38	1.9886e-07	1.6767e-07	221.47	80.696	33.889	12.57	1.7684e-07	38.979	382.238	248.941	253.123	181.643	327.064	301.477	182.318	187.420	297.030	317.511	187.228	192.436	191.797	197.068	307.781	195.949	-8191	255	
1428.133	1	1	0	0	0.15157	0.10325	0.18609	0.11625	0.24804	0.18964	0.27206	0.045875	0.20586	0.28098	0.3373	0.073256	0.132	0.12826	0.15499	0.0326	-2.6417	-2.8854	-2.7042	-3.1375	-2.7438	-2.7146	-2.9208	-2.8896	-3.0729	-2.9146	-3.0687	-3.0625	-2.7625	-2.7188	-3.2021	-2.7625	248.546	455.646	267.122	203.880	511.341	231.772	498.483	352.442	239.949	464.782	180.168	309.760	169.854	442.092	230.005	328.712	0.0012179	0.00022466	6.5038e-05	478.93	2.0172e-06	2.8416e-06	641.21	124.22	3.4109e-06	2.2815e-06	229.88	83.92	35.226	12.986	4.3185e-06	40.218	4.66e-05	1.6107e-05	4.5944e-06	452.22	1.9028e-07	1.828e-07	620.4	120.05	1.9767e-07	1.7123e-07	221.57	80.76	33.918	12.564	1.7902e-07	38.688	381.350	241.386	294.458	182.055	333.659	361.332	182.089	187.426	294.990	314.975	187.434	192.206	191.723	197.427	295.708	195.987	-8191	255	
1428.254	1	1	0	0	0.2707	0.2646	0.037278	0.14654	0.12899	0.12846	0.21785	0.16373	0.14475	0.11209	0.17039	0.1805	0.10991	0.13513	0.20174	0.13754	-2.45	-3.0104	-2.4604	-3.0229	-3.0208	-2.7	-3.1	-2.8187	-2.8042	-2.8083	-2.675	-2.8812	-3.0438	-2.6167	-2.925	-2.7958	434.080	299.720	389.959	504.714	526.765	442.164	478.748	424.743	477.556	373.284	385.661	210.719	171.384	246.404	436.061	370.678	0.0011848	0.00029056	8.5521e-05	478.09	3.4395e-06	1.2913e-06	633.37	122.79	3.9674e-06	2.2652e-06	227.1	82.923	35.094	12.787	2.3345e-06	39.392	4.485e-05	1.5929e-05	4.5692e-06	448.85	1.7879e-07	1.6578e-07	612.92	118.71	2.0255e-07	1.6304e-07	218.35	79.784	33.622	12.361	1.6438e-07	38.222	382.693	245.080	248.862	181.987	319.482	361.942	182.224	187.366	296.500	309.217	187.070	192.210	191.602	197.099	298.081	195.815	-8191	255	
1428.350	1	1	0	0	0.33947	0.068073	0.045308	0.076585	0.075129	0.093945	0.098428	0.32509	0.1416	0.21908	0.28932	0.082859	0.16841	0.078307	0.05135	0.20959	-2.4958	-3.0104	-2.625	-2.8021	-3.1312	-2.8438	-2.9083	-2.7354	-2.7708	-2.8833	-2.7458	-2.9208	-2.8438	-2.6292	-3.0438	-2.9354	225.855	445.111	429.428	294.761	523.170	360.475	250.374	479.057	247.239	287.536	421.584	426.903	474.752	258.155	341.505	174.680	0.0011684	0.00016266	5.3875e-05	478.06	2.1899e-06	2.4586e-06	634.06	123.11	3.7629e-06	2.3284e-06	229.4	83.606	35.471	12.953	3.639e-06	40.212	4.4401e-05	1.4868e-05	4.4882e-06	450.17	1.9102e-07	1.7611e-07	614.13	118.97	1.8327e-07	1.6825e-07	220.71	80.45	34	12.581	1.7697e-07	38.815	381.316	258.350	248.878	181.789	293.030	335.714	182.141	187.303	296.745	315.896	186.917	192.461	192.207	197.044	318.885	195.788	-8191	255	
1428.422	1	1	0	0	0.18404	0.19284	0.1147	0.20757	0.053559	0.22764	0.29913	0.070535	0.25616	0.062918	0.11191	0.14793	0.23322	0.078629	0.22569	0.39547	-2.4688	-2.9938	-2.6479	-2.8563	-2.9875	-2.6917	-2.8521	-2.9167	-2.7625	-3.0896	-2.7292	-2.9417	-2.8479	-2.6792	-2.8979	-3.1146	247.487	293.253	432.154	378.678	491.191	426.389	183.607	285.056	350.868	385.195	192.989	473.690	438.416	195.291	458.601	450.832	0.0011736	0.00014163	5.1509e-05	475.6	2.1539e-06	1.9657e-06	635.47	125.22	2.3194e-06	1.8697e-06	231.48	84.727	35.902	13.122	2.9818e-06	40.24	4.5608e-05	1.5952e-05	4.6965e-06	448.97	1.7859e-07	1.7123e-07	617.13	120.04	1.9225e-07	1.79e-07	222.72	81.298	34.247	12.689	1.863e-07	39.139	381.031	231.792	261.245	182.155	336.766	331.381	182.277	187.498	287.612	320.155	187.389	192.119	192.248	196.830	286.674	195.662	-8191	255	
1428.518	1	1	0	0	0.072581	0.14532	0.084553	0.025655	0.19387	0.035079	0.27479	0.15588	0.11704	0.072441	0.12619	0.15797	0.13373	0.17812	0.10132	0.12199	-2.3187	-3.0521	-2.775	-2.9375	-3.0375	-2.9417	-3.0083	-3.0167	-2.7708	-3.075	-2.8667	-2.9792	-3.0687	-2.75	-3.1188	-3.0729	251.864	226.185	478.508	222.334	275.137	507.897	368.297	280.926	483.809	256.113	527.058	264.141	208.465	242.630	179.669	432.608	0.001227	0.00023359	5.2591e-05	482.31	2.4479e-06	3.0067e-06	641.77	124.95	4.1218e-06	2.4541e-06	234.21	84.806	35.977	13.156	3.4134e-06	41.021	4.5285e-05	1.6258e-05	4.5966e-06	451.04	1.7495e-07	1.7429e-07	620.26	120.5	1.9287e-07	1.7334e-07	224.02	81.954	34.498	12.76	1.7939e-07	39.585	381.502	250.087	253.474	181.655	303.175	310.523	182.162	187.453	290.298	298.150	187.049	192.398	191.935	196.959	301.122	196.127	-8191	255	
1428.637	1	1	0	0	0.19943	0.15182	0.023546	0.34893	0.25347	0.12027	0.18357	0.21204	0.18731	0.11849	0.29944	0.20723	0.054968	0.29745	0.10694	0.15782	-2.3958	-3.2771	-2.7687	-2.8187	-3.25	-2.6479	-3.2062	-3.0854	-2.7979	-3.2062	-2.9521	-2.9042	-3.175	-2.8396	-3.1229	-3.0625	282.830	405.330	214.809	285.950	170.810	220.813	171.624	493.736	430.897	239.760	371.667	264.721	528.480	276.379	410.299	177.482	0.0012521	0.00018083	7.391e-05	478.99	2.524e-06	2.7944e-06	636.27	124.87	3.0232e-06	2.4972e-06	229.4	83.782	35.489	12.947	2.4805e-06	39.858	4.5901e-05	1.5167e-05	4.7049e-06	451.18	1.7978e-07	1.766e-07	616.38	119.95	1.8569e-07	1.63e-07	220.45	80.589	34.033	12.49	1.7795e-07	38.61	382.164	247.393	280.309	181.588	314.704	325.597	182.228	187.625	277.152	359.267	186.946	192.040	191.550	196.767	307.823	195.885	-8191	255	
1428.733	1	1	0	0	0.28417	0.35274	0.1455	0.021541	0.054963	0.16739	0.067816	0.16893	0.13093	0.10689	0.30912	0.1884	0.2713	0.23858	0.23443	0.11006	-2.4333	-3.0271	-3.0479	-2.7167	-3.2979	-2.8833	-3.0125	-2.9625	-2.8312	-3.0354	-3.0792	-2.7354	-3.2	-2.7333	-2.8458	-3.2229	393.819	265.283	428.425	186.482	373.341	428.226	504.330	378.719	464.745	286.413	502.008	441.842	414.293	444.481	424.066	432.917	0.0012119	0.0002168	5.5993e-05	479.33	1.163e-06	3.3216e-06	634.54	123.18	3.0672e-06	2.2366e-06	227.87	83.541	35.187	12.91	3.7732e-06	39.897	4.468e-05	1.5722e-05	4.1957e-06	449.09	1.5764e-07	1.6892e-07	615.16	118.67	1.7846e-07	1.6246e-07	219.48	80.181	33.654	12.47	1.8042e-07	38.618	384.329	235.632	262.973	181.784	290.675	310.875	182.318	187.375	309.799	308.534	187.200	192.243	191.846	197.042	308.415	195.594	-8191	255	
1428.829	1	1	0	0	0.21575	0.2021	0.23939	0.13473	0.27729	0.076036	0.11395	0.18225	0.19465	0.24302	0.18007	0.18065	0.074322	0.31471	0.15331	0.061432	-2.3771	-3.1833	-2.8958	-2.675	-3.0938	-2.8833	-3.0667	-3.2021	-2.7	-2.9979	-2.9875	-2.6312	-2.9938	-2.8875	-2.7833	-3.0417	293.491	310.790	331.908	225.471	431.894	273.608	448.521	245.075	454.299	350.741	497.668	526.478	183.208	312.715	404.559	468.825	0.0012249	0.00023188	5.7717e-05	479.38	1.1858e-06	2.9075e-06	638.35	123.88	4.205e-06	2.2629e-06	229.92	83.927	35.348	12.927	2.661e-06	40.17	4.4789e-05	1.477e-05	4.0126e-06	449.06	1.671e-07	1.6607e-07	617.28	119.54	1.7867e-07	1.8334e-07	221.43	80.903	33.949	12.563	1.8009e-07	38.963	382.472	248.090	273.573	181.832	325.107	322.439	182.128	187.502	314.541	319.600	187.261	191.965	191.575	196.632	308.595	195.683	-8191	255	
1428.925	1	1	0	0	0.10456	0.27891	0.18122	0.20932	0.15971	0.16568	0.28926	0.097599	0.12974	0.072814	0.16346	0.11549	0.099741	0.075047	0.3005	0.031425	-2.2896	-3.0438	-2.9167	-2.8125	-3.0729	-2.9667	-2.8146	-3.2938	-2.4979	-3	-3.125	-2.8417	-3.225	-2.8521	-2.7229	-2.9896	329.615	241.605	203.553	269.846	183.047	503.665	450.487	255.242	411.813	411.874	305.077	374.902	177.860	172.466	485.935	467.060	0.001242	8.7633e-05	7.4975e-05	479.62	2.5257e-06	3.1774e-06	641.48	123.96	3.4285e-06	2.9418e-06	231.51	84.753	35.727	13.224	2.8892e-06	40.885	4.4452e-05	1.5907e-05	4.3777e-06	451.77	1.7169e-07	1.7727e-07	619.3	119.78	1.8392e-07	1.7429e-07	222.66	81.485	34.271	12.73	1.8935e-07	39.466	385.072	303.699	255.401	181.786	335.628	332.180	182.269	187.372	294.897	320.680	187.470	192.445	192.009	197.091	328.915	196.004	-8191	255	
1429.021	1	1	0	0	0.15725	0.18931	0.23637	0.24807	0.10085	0.081437	0.33184	0.14612	0.056508	0.29861	0.043826	0.25255	0.19177	0.29125	0.12114	0.15918	-2.4458	-2.8792	-3.1667	-2.6083	-3.1625	-2.9604	-2.9729	-3.1625	-2.8354	-3.1708	-3.0583	-2.8021	-2.9375	-2.95	-2.7938	-3.1917	287.763	486.945	413.597	264.780	386.081	518.186	429.487	280.779	320.409	181.658	234.075	395.928	453.928	284.565	495.154	322.563	0.0011718	0.00028275	7.6056e-05	481.44	2.6506e-06	1.3702e-06	638.48	125.88	3.5439e-06	2.4283e-06	231.69	84.509	35.726	13.08	3.0044e-06	40.263	4.4966e-05	1.6748e-05	4.4766e-06	451.82	1.7607e-07	1.7053e-07	620.75	120.33	2.0558e-07	1.7892e-07	222.61	81.296	34.229	12.66	1.7771e-07	38.969	381.944	270.132	256.530	182.074	305.312	349.357	182.538	187.393	299.248	324.034	187.435	192.323	191.702	196.724	296.252	195.997	-8191	255	
1429.118	1	1	0	0	0.10947	0.11471	0.16857	0.135	0.28523	0.11899	0.29958	0.13848	0.082104	0.12584	0.23299	0.1047	0.24671	0.041512	0.043161	0.17338	-2.4625	-2.6292	-2.975	-2.8146	-2.8937	-3.0792	-2.7146	-2.9688	-2.7313	-2.6625	-3.1292	-2.7729	-2.9021	-3.0583	-2.6896	-3.0958	238.179	473.288	300.213	261.005	255.297	246.160	416.133	522.558	502.743	317.779	370.790	192.514	486.025	173.824	242.452	193.407	0.0012775	0.00022113	7.1647e-05	479.49	2.5823e-06	3.2892e-06	632.5	122.9	3.0247e-06	2.0487e-06	228.63	83.302	35.554	12.929	3.25e-06	39.846	4.6086e-05	1.6711e-05	4.1999e-06	449.42	1.7656e-07	1.6529e-07	613.37	118.91	1.8187e-07	1.6387e-07	219.98	80.146	33.95	12.532	1.7553e-07	38.667	382.730	254.125	268.574	182.020	311.771	345.304	182.120	187.245	279.114	335.944	187.483	191.986	191.766	196.956	293.671	195.942	-8191	255	
1429.214	1	1	0	0	0.018324	0.099503	0.19754	0.25791	0.1971	0.030784	0.18187	0.15354	0.27345	0.15427	0.22141	0.32008	0.12085	0.19674	0.16689	0.071784	-2.4437	-2.8958	-3.15	-2.7354	-2.9313	-3.0292	-2.8354	-2.9271	-3.0146	-2.8125	-3.0875	-2.7771	-2.8812	-2.9688	-2.7625	-3.05	339.667	400.194	427.819	385.779	221.587	471.019	227.859	524.686	207.546	330.453	218.550	477.969	220.129	391.877	391.614	245.834	0.0012064	0.00025443	4.6325e-05	477.81	2.9212e-06	2.1612e-06	635.72	123.39	3.3453e-06	1.9152e-06	228.27	83.93	35.598	12.98	3.5203e-06	40.09	4.5082e-05	1.6926e-05	4.1694e-06	448.58	1.8416e-07	1.6929e-07	616.25	119.29	1.8355e-07	1.7954e-07	220.86	80.912	34.094	12.596	1.8725e-07	39.013	383.375	224.561	275.227	181.925	305.028	308.945	182.290	187.203	301.086	328.237	187.495	192.181	191.566	196.672	296.327	195.840	-8191	255	
1429.334	1	1	0	0	0.12984	0.15881	0.099069	0.13331	0.19501	0.018008	0.1695	0.067474	0.21706	0.25953	0.13608	0.28118	0.28324	0.35472	0.19058	0.12038	-2.3979	-2.6854	-3.1063	-2.5812	-2.8979	-2.95	-2.8563	-2.9375	-2.9125	-2.5646	-2.9583	-2.6792	-2.75	-2.9729	-2.7479	-3.1063	442.048	521.686	334.664	382.076	303.212	309.217	372.839	415.853	440.398	510.307	183.997	398.666	171.613	508.136	434.394	491.678	0.0012855	0.00021329	6.0621e-05	477.69	1.7838e-06	2.1988e-06	640.65	125.05	3.6702e-06	2.1672e-06	230.3	84.859	35.786	13.073	2.8202e-06	40.657	4.6325e-05	1.5978e-05	4.5345e-06	450.75	1.9082e-07	1.557e-07	620.11	120.25	1.8614e-07	1.7834e-07	222.51	81.578	34.362	12.724	1.9617e-07	39.337	380.885	247.100	260.785	181.683	343.547	320.500	182.164	187.514	310.988	361.629	187.218	192.209	192.105	197.066	294.899	196.063	-8191	255	
1429.431	1	1	0	0	0.183	0.33228	0.10287	0.055237	0.12048	0.11064	0.12672	0.11148	0.22145	0.1715	0.20126	0.15361	0.21747	0.25504	0.39543	0.051723	-2.6937	-2.7479	-2.9562	-2.7417	-2.9292	-2.9271	-2.7521	-3.1375	-2.7729	-2.8312	-2.8479	-2.8896	-2.7458	-3.1354	-2.7604	-2.8417	283.388	374.598	169.887	499.517	339.122	285.930	516.638	494.705	417.964	229.276	508.662	201.931	200.983	491.301	350.392	207.854	0.0012387	0.00022327	7.4e-05	480.79	1.8606e-06	3.0627e-06	645.42	124.98	3.3794e-06	2.7012e-06	232.55	85.079	36.045	13.2	2.972e-06	40.835	4.497e-05	1.5495e-05	4.5103e-06	452.52	1.7933e-07	1.676e-07	621.91	120.69	1.8495e-07	1.7131e-07	223.74	82.001	34.587	12.784	1.963e-07	39.547	382.040	229.957	256.443	182.041	317.096	321.347	182.049	187.298	314.927	322.241	187.095	192.398	192.344	196.855	308.139	195.740	-8191	255	
1429.525	1	1	0	0	0.28908	0.17558	0.065521	0.30156	0.20033	0.18441	0.16797	0.31999	0.13571	0.2164	0.052794	0.31209	0.13723	0.035067	0.1103	0.30905	-2.4333	-2.7042	-3.0354	-3.0542	-2.7771	-3.3042	-2.9625	-2.9042	-3.0354	-2.7562	-3.2521	-2.8521	-2.8292	-2.9833	-2.7208	-2.8896	243.292	329.017	296.764	345.823	448.003	290.424	475.813	318.140	295.091	204.076	526.744	331.462	281.355	511.059	475.338	208.694	0.0012352	0.00025171	5.6315e-05	480.28	2.0301e-06	3.2068e-06	637.04	124.22	2.4449e-06	1.98e-06	230.01	84.27	35.427	12.946	3.857e-06	40.007	4.5535e-05	1.685e-05	4.5797e-06	449.84	1.8441e-07	1.5116e-07	617.92	119.83	1.8573e-07	1.7598e-07	221.08	80.646	33.946	12.564	1.8219e-07	38.754	382.027	243.945	246.333	181.661	329.139	327.495	182.123	187.306	286.085	272.618	187.205	192.184	191.691	197.003	311.931	195.922	-8191	255	
1429.623	1	1	0	0	0.18929	0.28168	0.17574	0.055013	0.20112	0.18611	0.16517	0.33354	0.073018	0.018644	0.055374	0.14315	0.08784	0.17802	0.062875	0.16124	-2.4542	-2.6437	-3.0187	-2.9521	-2.7896	-3	-2.875	-2.7375	-3.1167	-2.7167	-2.7521	-2.8333	-2.6042	-2.9938	-2.7438	-2.8396	235.157	507.390	374.151	478.686	192.384	387.446	505.373	488.956	323.081	450.355	202.114	376.401	352.016	475.043	340.815	497.545	0.0012316	0.00021925	5.8952e-05	473.53	2.646e-06	2.2779e-06	633.29	123.62	4.1584e-06	2.2577e-06	229.33	83.576	35.261	12.94	3.2775e-06	40.27	4.5651e-05	1.4808e-05	4.1452e-06	448.94	1.7065e-07	1.7177e-07	614.4	119.38	1.8839e-07	1.5795e-07	220.8	80.721	33.975	12.577	1.7775e-07	38.993	382.403	252.981	251.246	182.226	343.964	332.425	182.170	186.794	299.650	336.913	187.451	192.431	192.090	196.903	326.801	196.127	-8191	255	
1429.717	1	1	0	0	0.15962	0.24474	0.11013	0.067006	0.11976	0.10241	0.11867	0.26511	0.18951	0.070056	0.069615	0.069225	0.064313	0.054743	0.34585	0.12693	-2.6375	-2.6771	-3.0917	-2.9313	-2.5292	-3.0438	-2.8625	-2.9688	-3.0938	-2.7542	-3.0229	-2.9833	-2.6979	-3.0563	-2.9125	-3	267.982	231.645	201.976	497.176	381.377	442.075	310.824	413.390	280.573	196.958	366.457	314.293	241.531	495.970	236.521	315.197	0.0012469	0.00022353	5.8661e-05	472.95	3.0488e-06	2.5245e-06	638.45	124.67	2.7698e-06	2.8624e-06	231.33	84.592	35.687	13.071	4.0679e-06	40.331	4.4763e-05	1.6156e-05	4.1442e-06	450.01	1.7359e-07	1.6194e-07	618.37	120.07	1.8708e-07	1.6742e-07	222.53	81.431	34.331	12.708	1.71e-07	39.164	383.098	237.951	242.831	181.293	314.868	329.440	182.201	187.177	297.327	322.335	187.060	192.262	191.546	196.834	310.470	195.959	-8191	255	
1429.813	1	1	0	0	0.30384	0.4214	0.17767	0.17371	0.30308	0.047317	0.075008	0.098056	0.14316	0.054614	0.21364	0.17512	0.067579	0.14868	0.10634	0.1187	-2.6292	-2.7438	-2.75	-2.9896	-2.7042	-3.175	-2.8833	-2.8583	-3.0646	-2.6958	-3.0438	-3.2938	-2.8	-3.0396	-3.1625	-2.9458	341.999	247.972	312.671	237.749	404.082	333.762	461.146	469.290	188.642	318.240	388.813	477.509	402.449	386.371	393.358	178.957	0.0012682	0.00021435	7.9855e-05	482.58	2.9799e-06	2.5123e-06	643.04	124.41	4.0956e-06	1.7291e-06	233.45	85.344	36.292	13.165	3.5511e-06	40.676	4.5557e-05	1.6314e-05	4.4166e-06	453.7	1.7355e-07	1.6756e-07	621.64	120.33	1.8433e-07	1.6147e-07	224.07	82.007	34.625	12.809	1.7812e-07	39.567	383.186	251.694	242.353	181.718	321.494	339.203	182.198	187.575	300.851	323.072	187.324	192.579	191.993	197.033	295.325	195.432	-8191	255	
1429.934	1	1	0	0	0.067016	0.088786	0.23344	0.18562	0.16045	0.19108	0.22969	0.27079	0.071123	0.14962	0.2328	0.35621	0.020547	0.18732	0.061891	0.033448	-2.6833	-2.7396	-2.8958	-3.1458	-2.8646	-2.9875	-3.0771	-2.9479	-3.2604	-2.7521	-2.8937	-3.1646	-2.7354	-3.0479	-3.0417	-2.65	499.477	282.447	349.730	289.805	306.085	239.804	483.536	528.314	342.876	293.852	411.465	522.070	506.113	453.830	325.067	481.099	0.0012903	0.00026061	6.826e-05	480.97	2.4366e-06	2.3369e-06	643.43	125.92	4.255e-06	2.1935e-06	231.56	85.25	35.992	13.058	2.3756e-06	40.184	4.643e-05	1.728e-05	4.3167e-06	452.57	1.8284e-07	1.7318e-07	623.37	120.88	1.9447e-07	1.637e-07	222.68	81.644	34.399	12.643	1.7067e-07	38.986	385.660	259.367	264.997	181.887	318.487	322.425	182.204	187.374	279.272	307.646	187.411	192.083	191.748	197.247	324.889	195.876	-8191	255	
1430.030	1	1	0	0	0.21059	0.18435	0.078077	0.1586	0.11701	0.11704	0.3138	0.16083	0.15486	0.097185	0.082894	0.29052	0.10596	0.22595	0.023411	0.33107	-2.5417	-2.9646	-2.625	-3.025	-2.7313	-2.875	-3.1188	-2.5062	-3.0792	-2.7146	-2.7917	-3.1771	-2.5271	-3.1063	-3.1021	-2.8396	248.817	366.299	234.156	237.263	187.032	433.927	453.416	444.035	359.662	217.752	442.905	418.648	441.928	461.447	254.886	223.158	0.0012259	0.00025504	4.9584e-05	477.12	2.5655e-06	2.7759e-06	638.26	122.84	3.1011e-06	1.8185e-06	228.27	83.508	35.368	12.798	2.9091e-06	40.128	4.4974e-05	1.4819e-05	4.1336e-06	448.4	1.7123e-07	1.7487e-07	617.14	118.93	1.8253e-07	1.5585e-07	219.82	80.269	33.866	12.478	1.6352e-07	38.74	384.391	261.532	277.051	181.579	287.880	345.685	182.166	187.294	298.091	310.833	187.785	192.313	191.398	196.947	313.983	196.008	-8191	255	
1430.126	1	1	0	0	0.26386	0.13496	0.14271	0.17335	0.097836	0.18867	0.25767	0.20227	0.091109	0.27683	0.1112	0.17612	0.086458	0.16502	0.25473	0.2158	-2.6896	-2.8563	-2.7438	-3.1021	-2.8	-2.8083	-3.1958	-2.8	-2.9938	-3.0292	-2.6479	-3.1958	-2.8688	-2.8458	-3.0604	-2.7562	521.060	178.318	514.708	440.575	307.352	409.803	243.219	483.661	223.424	464.331	514.005	459.511	173.953	212.660	442.205	361.321	0.0012179	0.00020223	9.5799e-05	473.2	2.1161e-06	3.9419e-06	638.16	124.4	2.6053e-06	1.9777e-06	230.69	83.94	35.743	13.026	3.0642e-06	40.189	4.4321e-05	1.491e-05	4.322e-06	449.68	1.845e-07	1.7863e-07	617.7	119.91	1.7555e-07	1.5626e-07	222.04	81.059	34.092	12.673	1.6693e-07	39.058	381.940	235.108	243.577	182.366	311.258	320.155	182.123	187.401	292.713	341.457	187.366	192.367	191.849	196.929	288.313	195.753	-8191	255	
1430.223	1	1	0	0	0.143	0.15212	0.11275	0.2449	0.1181	0.18087	0.081263	0.26908	0.08196	0.10297	0.21211	0.11398	0.11871	0.11768	0.23225	0.093073	-2.3979	-2.9542	-2.5583	-2.9229	-2.7896	-2.8354	-3.0271	-2.7708	-2.8375	-3.0125	-2.7646	-3.0208	-2.8729	-2.9437	-3.1667	-2.8729	326.643	384.449	334.988	233.742	421.261	174.296	485.040	179.852	249.883	343.675	230.532	182.649	500.783	299.619	312.120	224.775	0.0012079	0.00024199	5.3362e-05	480.08	2.0128e-06	2.6232e-06	639.98	124.57	4.211e-06	2.3067e-06	232.21	84.229	35.647	12.958	2.8464e-06	40.435	4.4354e-05	1.4476e-05	4.4261e-06	451.14	1.7817e-07	1.6801e-07	619.5	120.01	2.0107e-07	1.5709e-07	222.85	81.24	34.283	12.633	1.8252e-07	39.294	382.143	253.677	263.177	182.044	325.957	333.536	182.172	187.396	293.572	353.752	186.982	192.318	191.467	196.886	302.617	195.761	-8191	255	
1430.319	1	1	0	0	0.23848	0.091742	0.2314	0.23245	0.0045106	0.16843	0.23585	0.13666	0.052788	0.062681	0.19497	0.10245	0.29794	0.16685	0.065751	0.13345	-2.6167	-2.95	-2.7188	-2.9979	-2.9625	-2.8375	-3.05	-2.6646	-3.1146	-3.0896	-2.4688	-2.9833	-2.9688	-2.7625	-3.0958	-2.8688	313.449	400.361	441.859	279.270	287.480	311.896	512.833	177.880	306.574	226.348	403.240	488.627	385.478	222.575	487.155	412.539	0.00123	0.00015168	0.00011499	483.95	3.2058e-06	2.5956e-06	643.34	125.22	4.5458e-06	2.148e-06	232.72	85.328	35.949	13.119	2.4368e-06	40.826	4.5651e-05	1.525e-05	4.3504e-06	453.91	1.7218e-07	1.645e-07	623.14	120.73	2.0259e-07	1.8363e-07	223.71	81.935	34.461	12.765	1.7964e-07	39.541	380.296	246.452	266.843	181.835	287.019	326.493	182.135	187.483	294.905	315.829	187.239	192.321	191.773	196.780	285.578	196.003	-8191	255	
1430.415	1	1	0	0	0.097027	0.13598	0.027501	0.18986	0.18758	0.097499	0.31241	0.19794	0.22964	0.16627	0.1751	0.29294	0.15341	0.20369	0.11708	0.30417	-2.3542	-2.9813	-2.6292	-2.8187	-2.8458	-2.7708	-3	-2.8042	-2.825	-3.1396	-2.6271	-3.0167	-3.0042	-2.5396	-2.9479	-2.9458	247.911	350.008	437.793	499.010	324.190	312.927	388.294	507.863	218.817	312.200	362.363	353.675	212.141	194.182	196.770	522.112	0.0013129	0.00025211	6.4764e-05	482.72	3.1528e-06	2.29e-06	637.73	123.32	3.123e-06	1.9449e-06	230.08	83.248	35.413	12.849	3.4467e-06	39.853	4.5118e-05	1.5295e-05	4.1452e-06	452.22	1.7235e-07	1.5963e-07	617.47	119.36	1.8585e-07	1.5837e-07	221.21	80.295	33.895	12.482	1.7491e-07	38.615	383.690	245.319	260.683	181.901	296.524	305.301	182.034	187.338	294.497	311.094	186.999	192.403	191.550	197.201	305.045	195.931	-8191	255	
1430.511	1	1	0	0	0.21339	0.10226	0.31725	0.25803	0.13049	0.12725	0.13497	0.15305	0.033061	0.11459	0.19264	0.15573	0.20112	0.019086	0.13119	0.15508	-2.375	-3.0417	-2.7958	-2.8104	-3.1396	-2.7521	-3.0625	-2.8229	-2.6979	-2.9583	-2.8625	-2.7438	-2.8271	-2.4917	-2.9896	-2.8354	297.991	274.373	228.954	300.530	183.624	310.197	433.826	507.029	527.310	327.313	445.527	476.934	409.586	353.853	201.734	433.884	0.001232	0.00021125	8.1571e-05	473.57	2.201e-06	2.5863e-06	637.57	123.85	2.8975e-06	2.628e-06	228.94	83.669	35.246	12.976	2.5635e-06	39.938	4.4256e-05	1.5129e-05	4.2136e-06	449.14	1.614e-07	1.6347e-07	617.53	119.05	1.7871e-07	1.5092e-07	220.61	80.33	33.803	12.524	1.6689e-07	38.712	384.042	246.529	243.882	181.735	297.897	311.625	182.205	187.117	292.159	335.057	187.396	192.523	191.772	196.642	292.097	195.817	-8191	255	
1430.605	1	1	0	0	0.13978	0.26092	0.11761	0.20645	0.097596	0.078109	0.14142	0.15599	0.21218	0.1065	0.1836	0.080489	0.035876	0.13066	0.14399	0.066422	-2.1583	-2.975	-2.5479	-2.6292	-3.0042	-2.8021	-3.0979	-2.7188	-2.7083	-3.075	-2.925	-2.8812	-3.0229	-2.5563	-2.9938	-2.8604	362.040	195.125	332.273	286.936	204.763	445.532	213.059	467.536	356.210	322.840	244.313	443.203	282.558	302.122	263.850	253.596	0.0012297	0.00027628	0.00010236	480.86	2.0547e-06	2.833e-06	638.6	124.07	5.6749e-06	2.2171e-06	230.74	84.369	35.782	13.027	3.5052e-06	40.262	4.576e-05	1.4717e-05	4.1168e-06	452.65	1.5892e-07	1.631e-07	618.84	119.5	1.813e-07	1.5853e-07	221.93	81.002	34.157	12.629	1.7454e-07	39.067	383.249	247.524	276.709	181.965	298.286	339.099	182.252	187.408	296.931	318.366	187.048	192.072	191.475	197.021	307.448	196.207	-8191	255	
1430.703	1	1	0	0	0.21374	0.12514	0.1132	0.063616	0.26483	0.12814	0.28792	0.19541	0.25197	0.15749	0.32801	0.10746	0.079901	0.088491	0.097995	0.12884	-2.0563	-3.0042	-2.7896	-2.7271	-2.9562	-2.675	-2.875	-2.9188	-2.6542	-3.2687	-2.85	-2.8063	-2.9792	-2.5917	-2.8792	-3.0354	316.380	526.326	369.192	443.693	415.780	460.382	447.624	374.366	290.495	246.253	426.589	221.484	506.522	361.501	292.059	465.054	0.0011539	0.00027846	0.00010392	485.95	2.5166e-06	3.3481e-06	643.67	124.36	3.5915e-06	2.6537e-06	232.84	85.163	35.927	13.088	3.1794e-06	40.508	4.351e-05	1.4955e-05	4.0863e-06	453.07	1.659e-07	1.6446e-07	623.25	120.28	1.8909e-07	1.5924e-07	223.93	81.825	34.3	12.717	1.7384e-07	39.389	384.374	269.490	247.521	181.918	324.309	333.562	182.090	187.353	292.375	311.268	187.745	192.192	191.877	196.904	309.586	195.654	-8191	255	
1430.822	1	1	0	0	0.21301	0.21852	0.15654	0.1186	0.032965	0.12527	0.14499	0.097049	0.19854	0.064098	0.090817	0.33401	0.20397	0.060048	0.16762	0.12027	-2.275	-3.0958	-2.9646	-2.7583	-2.9854	-2.7646	-2.9708	-2.9354	-2.6188	-3.0333	-2.7771	-2.675	-3.0854	-2.7021	-2.8688	-3.075	427.538	335.971	374.371	395.709	452.790	209.497	403.797	350.242	270.063	518.106	222.473	528.592	266.579	315.279	229.152	417.837	0.0011705	0.00025805	7.4737e-05	480.77	2.0344e-06	2.7924e-06	644.1	125.31	4.6267e-06	3.0498e-06	231.76	84.504	35.98	13.096	3.0598e-06	40.232	4.4224e-05	1.5884e-05	4.2757e-06	453.4	1.6462e-07	1.6876e-07	624.45	120.86	1.8208e-07	1.7019e-07	222.92	81.457	34.287	12.646	1.7861e-07	39.026	384.394	245.072	265.560	181.680	297.671	337.682	182.234	187.457	309.209	318.628	187.102	192.244	191.790	196.849	297.001	196.055	-8191	255	
1430.896	1	1	0	0	0.15916	0.11634	0.30395	0.25431	0.18672	0.16326	0.028495	0.069496	0.23697	0.10278	0.19818	0.078319	0.32498	0.10743	0.067439	0.192	-2.3208	-2.7792	-2.625	-2.8521	-3.0479	-2.65	-2.8104	-3.1312	-2.6875	-3.1208	-2.9125	-2.5312	-2.9813	-2.5396	-2.8396	-2.8771	234.426	494.920	445.095	409.716	405.639	193.210	212.506	193.748	218.338	332.171	240.219	193.884	495.543	527.902	404.758	201.929	0.001217	0.00032638	7.5276e-05	479.26	2.5025e-06	2.3943e-06	639.36	123.75	3.7938e-06	2.6177e-06	229.78	83.479	35.558	12.984	1.8959e-06	40.169	4.4521e-05	1.5371e-05	4.1031e-06	450.7	1.6363e-07	1.5463e-07	618.61	119.37	1.824e-07	1.5994e-07	220.87	80.493	34.001	12.545	1.5998e-07	38.842	383.182	244.193	249.538	181.830	318.214	336.549	182.289	187.108	293.128	318.875	187.409	192.007	191.725	197.049	289.617	196.103	-8191	255	
1431.014	1	1	0	0	0.15666	0.20743	0.22585	0.17023	0.44637	0.25386	0.17884	0.172	0.15429	0.018677	0.051982	0.13236	0.27566	0.24275	0.15566	0.24371	-2.3438	-2.8208	-2.8312	-2.675	-2.9729	-2.8021	-2.8958	-2.9813	-2.5333	-2.7771	-2.8563	-2.6625	-2.9958	-2.8563	-2.6104	-3.05	492.187	244.249	378.850	257.821	491.272	489.045	480.398	524.872	515.773	232.019	506.582	486.454	204.426	175.234	204.207	198.064	0.0011721	0.00019309	7.8109e-05	481.35	2.8833e-06	2.2513e-06	635.32	123.43	2.8363e-06	2.1523e-06	231.22	84.063	35.922	13.11	2.6336e-06	40.318	4.206e-05	1.5525e-05	4.0495e-06	452.07	1.7681e-07	1.626e-07	618.74	119.64	1.8872e-07	1.6651e-07	222.13	80.98	34.182	12.666	1.6948e-07	39.103	381.277	230.813	249.069	182.712	308.921	318.616	182.285	187.347	274.391	351.134	187.093	192.165	191.589	196.898	292.629	195.901	-8191	255	
1431.111	1	1	0	0	0.18574	0.25638	0.32926	0.19918	0.21368	0.04165	0.16267	0.18118	0.11759	0.17224	0.049055	0.13717	0.36038	0.25465	0.14205	0.13058	-2.2313	-2.8312	-2.8125	-2.6396	-2.9625	-2.9313	-2.8979	-3.1542	-2.8854	-2.8542	-3.1604	-2.5542	-2.8146	-2.7687	-2.6333	-3.2708	334.653	419.263	308.566	216.419	310.070	520.819	214.447	193.181	476.261	266.537	363.551	462.612	231.493	262.186	478.773	464.926	0.001284	0.00023807	8.3676e-05	481.05	2.5299e-06	1.6455e-06	641.92	125.38	3.4226e-06	2.4728e-06	231.26	85.36	35.731	13.091	2.8783e-06	40.924	4.6126e-05	1.6107e-05	4.1652e-06	452.42	1.8251e-07	1.5661e-07	621.88	120.6	1.9303e-07	1.6879e-07	223.1	81.999	34.418	12.734	1.805e-07	39.531	383.105	236.454	264.594	181.992	313.011	337.561	182.226	187.699	299.660	314.822	187.252	192.089	192.103	197.226	301.965	195.826	-8191	255	
1431.207	1	1	0	0	0.13503	0.085419	0.10382	0.10014	0.20856	0.051987	0.30884	0.12305	0.031504	0.15607	0.095953	0.2423	0.088692	0.17328	0.18086	0.20566	-2.4562	-2.775	-3.1	-2.8521	-3.0354	-2.8375	-2.8979	-3.0729	-2.7354	-2.7729	-3.0458	-2.675	-2.9688	-3.0354	-2.6708	-2.9521	317.124	387.601	250.351	386.870	206.445	348.260	498.795	418.561	191.917	447.191	454.327	469.410	496.849	477.029	329.620	220.209	0.0012703	0.00027681	7.0545e-05	482.23	2.425e-06	1.3726e-06	644.45	126.04	3.347e-06	2.5756e-06	233.08	86.252	36.279	13.174	4.0646e-06	41.012	4.5865e-05	1.6665e-05	4.4556e-06	453.99	1.785e-07	1.6942e-07	624.43	120.98	2.0128e-07	1.7023e-07	224.58	82.613	34.758	12.867	1.826e-07	39.752	382.976	260.249	277.457	182.082	321.332	297.379	182.264	187.272	282.877	314.272	187.426	192.102	192.317	196.877	296.929	196.004	-8191	255	
1431.303	1	1	0	0	0.15242	0.1749	0.16498	0.20974	0.15925	0.049869	0.15313	0.17105	0.17402	0.24255	0.138	0.20662	0.098108	0.048565	0.14908	0.33261	-2.4354	-2.6813	-2.9062	-2.7042	-2.9542	-2.8958	-2.6708	-3.1063	-2.8187	-2.4708	-2.9354	-2.7354	-2.8833	-2.8521	-2.7313	-3.075	195.903	410.017	452.426	310.153	275.660	175.302	516.500	184.519	471.351	236.645	435.125	518.821	240.181	481.461	229.804	512.465	0.0012505	0.00026326	5.5244e-05	478.98	1.7596e-06	2.4898e-06	638.18	124.7	3.0198e-06	2.355e-06	228.75	84.362	35.788	12.998	3.299e-06	40.151	4.5611e-05	1.7873e-05	4.4724e-06	451.7	1.802e-07	1.6144e-07	618.67	120.06	1.9131e-07	1.692e-07	221.23	81.041	34.191	12.592	1.8404e-07	38.873	383.940	236.075	283.534	182.115	286.194	334.765	182.207	187.279	283.028	330.558	187.429	192.374	191.629	197.201	297.219	195.788	-8191	255	
1431.424	1	1	0	0	0.37259	0.12423	0.12733	0.17738	0.10879	0.21866	0.1346	0.21373	0.11138	0.072219	0.2147	0.27411	0.1465	0.15035	0.14175	0.038967	-2.2083	-2.6042	-2.9479	-2.6667	-2.8812	-2.8937	-2.7313	-2.8812	-2.7958	-2.5812	-3.0417	-2.7729	-2.7667	-2.8563	-2.6083	-2.8917	462.866	465.218	357.505	358.235	173.915	440.626	442.212	507.004	257.724	492.328	190.061	458.633	208.934	463.626	463.581	278.533	0.0011613	0.00025135	6.9343e-05	471.85	3.0451e-06	2.8659e-06	636.01	124.41	2.5268e-06	1.7093e-06	230.45	84.253	35.5	12.98	3.3989e-06	40.347	4.322e-05	1.5091e-05	4.3756e-06	447.37	1.7321e-07	1.6314e-07	616.3	119.77	1.9102e-07	1.7052e-07	221.09	80.961	34.234	12.668	1.9066e-07	39.246	383.356	245.560	234.289	181.636	329.165	317.449	182.063	187.564	294.154	329.583	186.839	192.166	191.672	196.631	301.275	195.804	-8191	255	
1431.518	1	1	0	0	0.24776	0.10895	0.091693	0.37539	0.27063	0.091901	0.24367	0.13487	0.19035	0.11512	0.097876	0.061999	0.038537	0.16079	0.24663	0.12856	-2.4625	-2.5417	-2.8438	-2.6583	-2.6354	-2.9354	-2.6646	-2.7313	-2.9333	-2.6521	-2.9313	-2.9271	-2.8063	-2.875	-2.6167	-3.0979	470.435	498.192	445.648	236.115	481.566	512.007	473.687	388.325	338.670	277.534	427.564	172.792	411.598	452.916	334.612	343.779	0.001247	0.00032642	8.9258e-05	483.9	2.5756e-06	3.9006e-06	639.19	123.47	3.9689e-06	2.3449e-06	230.75	84.938	36.173	13.154	3.6176e-06	40.911	4.5238e-05	1.7258e-05	4.5745e-06	453.6	1.7859e-07	1.6904e-07	618.58	120.16	2.0681e-07	1.8161e-07	222.65	81.671	34.596	12.836	1.9753e-07	39.578	382.110	246.302	270.018	182.368	308.489	334.409	182.375	187.345	295.856	325.399	187.325	192.305	191.948	196.774	296.020	195.805	-8191	255	
1431.616	1	1	0	0	0.20284	0.19474	0.14762	0.080872	0.040659	0.23315	0.22373	0.15226	0.14656	0.29319	0.25851	0.26447	0.23129	0.18044	0.11545	0.19463	-2.5729	-2.6375	-2.9042	-2.7875	-2.7375	-3.0771	-2.8917	-2.8083	-2.8292	-2.5896	-3	-3.0167	-2.675	-3.0125	-2.6854	-2.6292	480.522	309.933	289.307	419.133	338.853	272.862	426.437	265.128	366.243	487.711	480.970	455.202	230.916	256.297	415.049	391.378	0.0012798	0.000262	6.3964e-05	485.21	2.0208e-06	1.7637e-06	638.89	125.55	2.8003e-06	2.4421e-06	234.39	86.216	36.168	13.332	3.406e-06	41.096	4.5224e-05	1.7231e-05	4.9816e-06	453.09	1.9375e-07	1.8474e-07	620.4	121.09	1.9943e-07	1.8636e-07	224.49	82.576	34.717	12.881	1.9572e-07	39.821	382.663	218.075	267.197	181.860	328.883	345.485	182.414	187.646	294.084	320.382	187.312	192.228	191.596	196.639	281.572	195.913	-8191	255	
1431.712	1	1	0	0	0.027743	0.069072	0.11628	0.16691	0.033911	0.26359	0.30073	0.17458	0.33593	0.15206	0.12568	0.072108	0.18764	0.22996	0.19446	0.11447	-2.5812	-2.6021	-2.8833	-2.7458	-2.6375	-2.9458	-2.7854	-2.8729	-3.0229	-2.6354	-3.0583	-2.9688	-2.6979	-3.0667	-2.8917	-3.0438	374.739	182.090	354.783	215.151	465.799	332.219	505.129	528.320	491.649	239.830	369.560	444.934	493.823	486.431	251.378	202.306	0.0012774	0.0002772	9.0193e-05	478.86	2.8746e-06	2.0903e-06	638.54	125.57	3.1164e-06	2.804e-06	231.96	85.05	36.067	13.112	4.1681e-06	40.372	4.6191e-05	1.7318e-05	4.4166e-06	453.61	1.9045e-07	1.8193e-07	619.77	121.27	1.9118e-07	1.8438e-07	223.84	81.976	34.472	12.714	1.8704e-07	39.065	384.302	248.308	269.106	182.142	295.919	357.744	182.326	187.153	299.448	346.000	187.053	191.896	191.646	197.013	290.088	195.940	-8191	255	
1431.806	1	1	0	0	0.11877	0.12651	0.12629	0.25271	0.12343	0.036373	0.26561	0.15971	0.19484	0.092142	0.26287	0.039159	0.18321	0.086424	0.0034549	0.14824	-2.4729	-2.5375	-2.9521	-2.9646	-2.4833	-2.9104	-2.9167	-2.5875	-3	-2.6604	-2.975	-2.8833	-2.6396	-3.1813	-2.7104	-2.7896	181.297	504.863	374.065	297.288	411.334	179.724	473.489	500.845	372.442	260.547	444.344	448.120	225.585	184.908	379.604	427.529	0.0011971	0.00028516	5.9405e-05	475.21	2.3496e-06	3.1892e-06	633.56	122.97	4.7517e-06	1.536e-06	227.3	83.656	35.311	12.888	4.411e-06	40.022	4.5013e-05	1.7326e-05	4.364e-06	448.73	1.7528e-07	1.7408e-07	614.16	119.23	1.8827e-07	1.7437e-07	218.87	80.163	33.922	12.526	1.8634e-07	38.718	381.015	258.778	237.994	181.998	300.804	323.072	182.095	187.222	304.844	314.046	187.109	192.185	191.800	196.767	296.552	195.793	-8191	255	
1431.903	1	1	0	0	0.024341	0.37695	0.22157	0.27771	0.099174	0.21862	0.14262	0.13155	0.21611	0.14413	0.088239	0.082711	0.11043	0.12235	0.097789	0.17335	-2.6271	-2.7833	-2.8896	-2.7354	-2.6375	-3.0354	-2.8792	-2.6	-3.0167	-2.7479	-2.9208	-3.0417	-2.7792	-2.8125	-2.8896	-2.9188	374.175	384.578	377.883	413.756	437.449	349.004	390.465	438.424	305.962	355.251	516.901	513.298	484.448	199.088	241.488	490.848	0.0011493	0.00022263	0.00011266	478.45	9.6369e-07	1.9583e-06	632.11	123.8	3.1444e-06	1.8793e-06	229.75	83.459	35.44	13.056	2.316e-06	40.395	4.4071e-05	1.6235e-05	4.3903e-06	449.36	1.8648e-07	1.7227e-07	614.94	119.69	1.8675e-07	1.73e-07	220.82	80.852	34.12	12.64	1.7709e-07	39.069	383.116	266.917	263.333	181.981	298.115	317.946	182.149	187.134	285.718	322.350	187.429	191.977	191.748	196.607	302.919	195.596	-8191	255	
1432.023	1	1	0	0	0.25794	0.222	0.13902	0.047337	0.015811	0.058332	0.11658	0.12957	0.18385	0.16026	0.16572	0.22332	0.014507	0.13892	0.059546	0.32298	-2.5542	-2.9333	-2.9479	-3.0896	-2.9042	-2.9271	-2.8354	-2.7083	-3.0687	-2.7333	-2.8479	-3.0062	-2.7104	-2.9188	-2.8063	-2.8729	460.216	386.826	175.484	242.941	220.997	514.617	508.986	359.674	447.599	367.636	500.078	483.985	346.128	494.672	192.327	521.114	0.0011843	0.00019522	9.6418e-05	479.13	2.6319e-06	3.3848e-06	637.7	124.79	3.8137e-06	2.476e-06	230.65	85.007	35.969	13.08	2.9173e-06	40.718	4.4557e-05	1.6156e-05	4.5902e-06	451.7	1.9115e-07	1.7644e-07	619.3	120.32	1.9192e-07	1.7201e-07	221.9	81.655	34.466	12.718	1.856e-07	39.406	383.288	263.955	267.819	181.618	307.887	335.804	182.430	187.374	290.098	309.670	187.099	191.784	192.128	196.930	302.528	195.605	-8191	255	
1432.119	1	1	0	0	0.12709	0.17106	0.30019	0.20517	0.29285	0.14722	0.22482	0.080783	0.0966	0.14537	0.044031	0.089258	0.028216	0.19206	0.11991	0.27185	-2.4562	-2.7625	-2.6854	-3.025	-2.7375	-2.9646	-3.1271	-2.7208	-3.0312	-2.9083	-2.7646	-3.0812	-2.825	-2.8458	-2.9354	-2.6937	503.948	337.691	400.933	199.636	347.091	399.219	494.989	422.922	381.653	503.763	349.522	517.878	222.852	179.858	395.018	502.189	0.0012436	0.00021961	6.9842e-05	479.64	1.6958e-06	1.791e-06	639.09	124.89	3.0253e-06	2.2424e-06	232.4	85.751	35.969	13.244	1.689e-06	41.156	4.4698e-05	1.6378e-05	4.6018e-06	453.38	1.8169e-07	1.7247e-07	619.2	120.93	1.9492e-07	1.7714e-07	223.84	82.163	34.629	12.839	1.7651e-07	39.697	385.606	251.469	249.579	181.904	331.024	322.465	182.083	187.155	300.135	332.784	187.376	192.519	191.745	196.631	288.991	196.257	-8191	255	
1432.191	1	1	0	0	0.20091	0.042359	0.16272	0.26912	0.041171	0.31728	0.070091	0.14324	0.17117	0.33108	0.1874	0.18298	0.17619	0.051328	0.35677	0.094068	-2.65	-2.9521	-2.7438	-3.1521	-2.6479	-2.7771	-3.0833	-2.6875	-2.9854	-2.875	-2.6417	-3.1854	-2.7417	-2.8063	-3.0542	-2.7562	199.599	344.632	290.722	349.000	462.393	401.680	214.799	180.070	408.519	378.149	177.347	405.227	301.977	493.292	285.951	516.990	0.0012633	0.00033226	7.8264e-05	477.56	2.3526e-06	3.4765e-06	631.08	124.95	3.4611e-06	1.1393e-06	227.37	83.949	35.241	12.994	2.4471e-06	39.69	4.5709e-05	1.6741e-05	4.4472e-06	450.47	1.7441e-07	1.7809e-07	613.87	120.09	1.8999e-07	1.838e-07	220.1	80.752	34.011	12.562	1.8536e-07	38.641	383.126	224.468	250.830	182.096	291.801	318.307	181.928	187.337	290.797	307.587	187.530	192.026	191.399	196.669	296.652	195.512	-8191	255	
1432.287	1	1	0	0	0.084876	0.24749	0.076175	0.10632	0.13099	0.14038	0.19257	0.079326	0.19173	0.13312	0.1659	0.021287	0.17611	0.017935	0.048	0.29604	-2.5354	-2.7875	-2.6333	-2.9062	-2.7	-2.775	-3.0542	-2.6875	-2.9896	-2.8646	-2.7562	-3.0833	-2.6604	-2.7583	-3.0438	-2.6521	415.446	240.600	206.847	279.706	285.306	455.769	474.605	257.805	435.769	177.773	470.315	186.701	181.747	490.149	202.821	440.616	0.0012151	0.00012945	9.8267e-05	475.56	1.783e-06	2.7065e-06	632.45	124.17	3.1516e-06	2.9177e-06	228.77	83.938	35.856	13.003	3.2824e-06	40.266	4.3854e-05	1.4717e-05	4.3272e-06	448.18	1.7164e-07	1.652e-07	612.77	119.46	1.9356e-07	1.5915e-07	220.18	80.589	34.196	12.61	1.7779e-07	39.017	382.270	205.356	258.220	182.174	306.255	297.423	182.402	187.338	309.910	320.308	187.196	192.194	191.410	197.017	295.381	196.017	-8191	255	
1432.383	1	1	0	0	0.19558	0.11907	0.18918	0.17896	0.44127	0.22882	0.17302	0.25224	0.11871	0.093327	0.017999	0.14185	0.097462	0.26897	0.15884	0.11344	-2.3792	-2.8167	-2.6021	-3.0917	-2.8167	-2.7479	-3.025	-2.6667	-2.6688	-2.8292	-2.7812	-2.9896	-2.8667	-2.725	-2.9125	-2.8292	476.910	238.483	258.473	400.356	244.998	315.329	373.419	191.059	173.564	480.796	371.459	513.617	195.525	451.907	343.173	478.511	0.00122	0.00020343	7.5062e-05	482.43	3.5722e-06	3.4112e-06	637.08	124.42	3.1995e-06	2.5694e-06	232.06	84.794	35.651	13.036	2.1349e-06	40.469	4.6206e-05	1.6073e-05	4.161e-06	450.56	1.8239e-07	1.6657e-07	614.78	120.07	1.9857e-07	1.6366e-07	221.77	81.378	34.226	12.671	1.8219e-07	39.303	382.477	247.650	272.007	181.797	297.211	332.807	182.042	187.507	266.009	320.256	187.196	192.253	191.230	196.988	323.939	196.005	-8191	255	
1432.504	1	1	0	0	0.34174	0.20864	0.22367	0.079558	0.16474	0.09569	0.089626	0.11102	0.2056	0.25224	0.16645	0.13257	0.048411	0.1926	0.24223	0.34006	-2.3375	-3.0479	-2.7292	-2.7729	-2.7958	-2.6896	-2.9208	-2.8917	-2.7313	-2.9792	-2.7687	-2.9125	-2.8583	-2.65	-3.0375	-2.8208	314.153	415.450	394.922	453.193	383.249	238.674	235.027	353.740	229.429	271.828	495.402	459.200	510.001	459.795	505.524	243.938	0.0012028	0.00010192	5.3175e-05	483.99	2.1602e-06	3.0513e-06	636.85	125.02	2.5951e-06	2.1726e-06	231.26	85.097	36.059	13.094	3.6484e-06	40.807	4.6158e-05	1.6518e-05	4.7428e-06	453.6	1.8305e-07	1.7714e-07	617.14	120.42	2.085e-07	1.7627e-07	222.76	81.916	34.505	12.699	1.9551e-07	39.547	381.482	274.011	248.694	181.720	322.577	342.915	182.109	187.260	300.133	327.120	187.487	192.137	191.752	196.862	303.441	196.036	-8191	255	
1432.598	1	1	0	0	0.077648	0.15413	0.29015	0.11244	0.2031	0.32079	0.14476	0.1472	0.05536	0.26959	0.28632	0.26302	0.12268	0.17414	0.11634	0.28664	-2.2875	-2.8979	-2.325	-2.9521	-3.2417	-2.6813	-2.9021	-3	-2.7729	-3.0417	-2.5812	-2.9562	-3.1396	-2.7729	-2.9667	-2.7792	228.070	385.692	298.545	250.789	423.613	215.383	207.923	450.629	521.958	306.328	424.155	494.160	447.161	224.790	182.377	453.547	0.0012004	0.00023586	9.3936e-05	475.3	2.2285e-06	2.6225e-06	642.68	124.26	3.2701e-06	2.3411e-06	231.71	84.806	35.386	12.994	2.7828e-06	40.189	4.5517e-05	1.6405e-05	4.5724e-06	451.88	1.7532e-07	1.8404e-07	620.2	120.14	2.1219e-07	1.7288e-07	222.41	81.408	34.079	12.56	1.7828e-07	38.887	382.456	247.977	254.559	182.465	288.988	337.547	182.283	187.467	302.105	312.481	187.507	192.628	191.704	197.123	299.250	195.570	-8191	255	
1432.696	1	1	0	0	0.20383	0.12134	0.18819	0.27177	0.22446	0.092494	0.4091	0.15263	0.13689	0.06556	0.062375	0.24194	0.15828	0.040396	0.11255	0.042845	-2.2417	-3.0062	-2.6542	-2.7708	-3.0125	-2.7021	-2.8167	-2.9125	-2.6833	-3.1813	-2.8521	-2.8896	-2.9229	-2.4146	-2.9458	-2.9354	224.122	246.164	272.702	264.529	194.147	455.200	459.194	321.748	303.637	226.493	346.424	419.522	170.018	419.967	387.819	452.391	0.0012301	0.00011298	5.6591e-05	478.44	2.1371e-06	2.3994e-06	630.09	122.78	4.0076e-06	1.9235e-06	227.71	83.34	35.266	12.791	3.1211e-06	39.747	4.6137e-05	1.5752e-05	4.3398e-06	448.09	1.6706e-07	1.7636e-07	610.19	118.65	1.9508e-07	1.7544e-07	219.03	80.038	33.753	12.444	1.8379e-07	38.555	383.353	290.772	258.717	181.668	291.458	339.487	181.930	187.197	301.174	324.132	187.198	191.964	191.677	196.841	294.872	195.967	-8191	255	
1432.792	1	1	0	0	0.38475	0.2795	0.16875	0.068735	0.089128	0.16385	0.11865	0.24335	0.12556	0.097116	0.11601	0.21533	0.14803	0.084992	0.11753	0.11282	-2.0312	-2.95	-2.8	-2.7292	-2.9625	-2.7417	-3.1604	-2.95	-2.7292	-2.9292	-2.8771	-2.7396	-2.9562	-2.7396	-3.0062	-2.775	311.681	291.723	415.364	229.771	492.607	343.336	445.779	178.738	298.468	317.410	419.327	197.925	195.762	453.645	273.408	170.117	0.001253	0.00028881	6.5529e-05	474.87	1.848e-06	3.3525e-06	634.56	123.74	2.8159e-06	1.8033e-06	228.16	84.126	35.496	12.97	2.2631e-06	40.379	4.6057e-05	1.5805e-05	4.2904e-06	447.83	1.7784e-07	1.6739e-07	614.82	118.97	1.8409e-07	1.5126e-07	220.27	80.945	34.057	12.586	1.7906e-07	39.041	382.731	256.220	257.568	181.699	325.958	319.102	182.305	186.893	267.365	320.067	187.093	192.072	192.401	196.954	274.399	195.762	-8191	255	
1432.887	1	1	0	0	0.10759	0.22163	0.038181	0.095535	0.091737	0.10091	0.1057	0.3223	0.02929	0.23624	0.083753	0.141	0.37697	0.20281	0.072129	0.12936	-2.2625	-2.9333	-2.6667	-2.8729	-3.1229	-2.8396	-3.0229	-2.9542	-2.7812	-3.1042	-2.8979	-2.8	-3.0146	-2.7354	-2.8479	-3.0271	495.633	412.341	361.706	436.045	322.640	478.238	526.682	346.099	210.911	185.868	331.095	520.807	219.149	448.980	454.419	265.595	0.0011855	0.00023898	7.0755e-05	476.38	2.6724e-06	2.6198e-06	633.64	123.86	2.878e-06	2.0486e-06	231.36	84.564	35.811	13.095	3.8925e-06	40.454	4.5452e-05	1.5469e-05	4.2346e-06	448.7	1.6929e-07	1.6702e-07	616.41	119.89	1.9963e-07	1.6932e-07	222.67	81.432	34.28	12.641	1.9568e-07	39.295	382.203	224.716	267.308	182.157	297.446	329.826	182.271	187.571	269.089	319.100	187.066	192.082	191.819	197.182	289.710	196.165	-8191	255	
1432.983	1	1	0	0	0.13276	0.19201	0.070477	0.079081	0.24532	0.099245	0.16145	0.16165	0.13026	0.15072	0.086934	0.10439	0.30806	0.19106	0.18686	0.13301	-2.4167	-2.9083	-2.8083	-2.7375	-3.1104	-2.7562	-2.9583	-3.0792	-2.5792	-2.9583	-2.8771	-2.7	-2.9542	-2.6979	-2.8625	-3.1	295.624	255.904	435.663	481.038	267.451	276.513	339.585	470.365	328.223	217.365	471.399	488.250	473.529	232.877	359.500	462.197	0.0011677	0.00015724	8.6532e-05	478.72	1.5773e-06	2.2466e-06	638.4	125.34	3.1885e-06	2.3349e-06	232.99	84.954	35.773	13.123	2.2248e-06	40.712	4.5075e-05	1.6299e-05	4.4977e-06	451.74	1.7888e-07	1.7243e-07	618.45	120.61	1.9799e-07	1.7528e-07	223.51	81.855	34.477	12.759	1.9268e-07	39.457	384.115	214.093	267.619	181.945	277.143	346.506	182.353	187.375	292.335	340.353	187.290	192.143	191.832	197.021	287.963	195.908	-8191	255	
1433.104	1	1	0	0	0.19097	0.24074	0.31373	0.2314	0.15558	0.1772	0.22635	0.10445	0.12385	0.28664	0.090295	0.19207	0.22274	0.044835	0.25871	0.11762	-2.2583	-2.9667	-2.8	-2.6896	-2.8125	-2.7833	-2.9333	-3.0042	-2.7417	-2.9583	-3.0083	-2.7229	-3.0563	-2.775	-2.6792	-3.2271	399.608	527.794	476.442	472.869	287.622	367.567	496.309	193.307	291.575	473.960	178.714	357.564	206.016	202.403	505.691	463.909	0.001218	0.00027195	3.5181e-05	475.35	2.6437e-06	2.753e-06	631.93	123.42	3.3079e-06	2.0213e-06	229.22	83.817	35.28	12.908	4.3645e-06	39.887	4.5006e-05	1.5544e-05	4.2157e-06	448.99	1.8152e-07	1.7801e-07	613.71	119.08	1.934e-07	1.8127e-07	219.69	80.413	33.827	12.488	1.9115e-07	38.644	383.310	261.556	290.300	181.684	310.970	328.541	182.334	187.305	284.534	300.031	187.125	192.023	191.630	196.825	297.425	195.669	-8191	255	
1433.200	1	1	0	0	0.17602	0.25284	0.16183	0.16626	0.2473	0.22312	0.27544	0.14773	0.27284	0.32149	0.26905	0.12272	0.27374	0.15457	0.075543	0.16401	-2.2812	-2.8979	-2.8937	-2.3688	-2.85	-2.8542	-2.65	-3.0792	-2.8667	-2.7896	-2.9313	-2.7687	-2.8688	-2.7125	-2.8167	-3.05	254.822	365.535	302.624	177.231	394.614	491.385	486.548	292.777	299.401	219.082	412.823	523.816	494.580	494.327	474.073	463.000	0.0011433	0.000291	8.4812e-05	475.37	1.6817e-06	2.3278e-06	631.63	123.59	4.2922e-06	2.509e-06	229.84	83.984	35.151	12.958	3.0511e-06	40.065	4.3586e-05	1.6907e-05	4.3356e-06	447.96	1.7041e-07	1.6132e-07	611.71	118.77	1.957e-07	1.7205e-07	220.04	80.763	33.942	12.571	1.8194e-07	38.847	383.408	262.043	239.614	182.104	319.023	331.836	182.202	187.041	296.648	328.054	187.285	191.950	191.345	196.688	302.335	196.053	-8191	255	
1433.296	1	1	0	0	0.078968	0.067316	0.16699	0.17792	0.18553	0.061818	0.1099	0.10195	0.078307	0.049954	0.16342	0.10845	0.11559	0.18324	0.028902	0.16704	-2.4104	-2.6708	-2.9708	-2.5417	-3.0833	-2.9104	-3.0563	-2.9417	-2.7562	-2.7625	-2.9208	-2.7333	-2.825	-2.7812	-2.6271	-3.2396	263.924	307.737	353.330	411.939	527.920	501.584	175.257	211.075	441.197	375.166	399.909	235.556	277.004	318.227	484.288	447.240	0.0011776	0.00014851	4.8717e-05	476.63	2.3266e-06	1.6712e-06	636.36	123.35	3.0414e-06	2.2385e-06	230.68	84.567	35.451	13.009	3.2492e-06	40.569	4.5144e-05	1.5378e-05	4.423e-06	448.79	1.8284e-07	1.6669e-07	616.2	119.25	1.904e-07	1.6904e-07	221.53	81.291	34.238	12.612	1.972e-07	39.169	383.908	256.251	269.290	182.343	304.806	331.791	182.247	187.435	269.024	308.969	187.158	191.891	191.683	196.848	294.162	196.046	-8191	255	
1433.416	1	1	0	0	0.16491	0.14761	0.11013	0.12698	0.077308	0.30498	0.21078	0.24401	0.022863	0.20752	0.17973	0.17046	0.4115	0.071015	0.092704	0.093938	-2.3479	-2.7354	-2.9417	-2.6229	-3.0146	-3.1042	-3.0729	-3.1292	-2.7458	-2.8708	-3.0729	-2.9417	-2.9125	-3.0146	-2.7	-3.0187	357.222	469.160	230.571	470.691	428.621	171.753	379.808	403.891	390.272	314.608	457.922	360.555	507.964	215.426	390.110	297.416	0.0011811	0.00027407	6.8114e-05	477.42	2.0604e-06	2.123e-06	640.02	125.36	3.1632e-06	2.0045e-06	231.93	85.515	35.686	13.139	2.853e-06	40.937	4.5676e-05	1.6375e-05	4.3661e-06	451.02	1.8524e-07	1.6136e-07	618.53	120.3	1.9652e-07	1.8082e-07	222.84	82.001	34.377	12.717	1.8425e-07	39.492	381.892	238.038	254.268	182.433	319.929	332.235	182.164	187.475	294.811	319.022	187.173	192.126	191.713	196.279	301.959	195.732	-8191	255	
1433.488	1	1	0	0	0.36184	0.032293	0.20861	0.1551	0.26181	0.0071942	0.13899	0.048913	0.096323	0.30291	0.1839	0.13234	0.082674	0.072128	0.04857	0.11451	-2.2708	-2.5771	-3.025	-2.6542	-2.8875	-3.0125	-2.6937	-2.9	-2.925	-2.5812	-3.0938	-2.6979	-2.7229	-3.0604	-2.5563	-2.9146	448.615	331.159	342.086	489.487	265.015	387.634	372.663	445.959	481.434	188.898	489.163	228.445	463.886	184.612	382.754	252.207	0.0012913	0.00026118	8.5838e-05	480.44	3.0783e-06	2.835e-06	639.13	125.07	3.1576e-06	1.8353e-06	229.6	84.402	35.738	13.046	3.8361e-06	40.003	4.593e-05	1.682e-05	4.7628e-06	452.41	1.8119e-07	1.759e-07	620.51	120.47	1.9894e-07	1.7185e-07	222.17	81.235	34.226	12.618	1.775e-07	38.765	383.521	228.171	263.694	181.574	303.016	320.067	182.131	187.465	303.533	324.124	187.212	192.086	191.701	197.055	295.853	195.931	-8191	255	
1433.584	1	1	0	0	0.1075	0.14068	0.13474	0.19644	0.072707	0.07758	0.2161	0.044488	0.14616	0.2119	0.063211	0.16746	0.15966	0.19506	0.080569	0.39713	-2.4208	-2.7271	-2.9771	-2.7208	-2.7396	-3.0521	-2.7812	-2.8167	-2.9667	-2.6125	-3.0062	-2.65	-2.8208	-3	-2.6271	-2.9146	528.994	519.073	381.793	263.173	331.670	169.859	451.203	412.767	243.212	347.419	220.982	214.383	389.907	526.522	462.089	490.476	0.0012001	0.00025244	7.4543e-05	477.43	1.8216e-06	2.7689e-06	631.25	122.75	3.4952e-06	2.1245e-06	227.59	83.14	35.509	12.821	3.6485e-06	39.797	4.5655e-05	1.7726e-05	4.3514e-06	448.3	1.8693e-07	1.5884e-07	611.37	118.82	1.8753e-07	1.7536e-07	219.53	80.158	33.896	12.471	1.9074e-07	38.601	385.140	257.545	249.656	181.989	323.601	321.728	182.361	187.311	292.476	321.134	187.349	191.875	191.396	196.600	311.782	195.651	-8191	255	
1433.680	1	1	0	0	0.35339	0.012084	0.12891	0.20654	0.16511	0.051446	0.40101	0.066269	0.10412	0.060868	0.21023	0.26107	0.047169	0.096971	0.14912	0.039033	-2.475	-2.5875	-2.9167	-2.8583	-2.7667	-3.0375	-2.7833	-3.0479	-3.1792	-2.8646	-3.1583	-3	-2.7375	-3.0312	-2.6104	-2.8625	413.496	269.890	292.120	347.345	222.430	380.201	406.551	425.437	229.404	359.444	528.753	493.463	209.342	361.346	527.446	366.504	0.001241	0.00018574	3.4993e-05	476.41	3.7109e-06	3.1557e-06	632.79	123.61	3.0484e-06	2.2916e-06	228.14	84.148	35.699	13.079	2.8833e-06	40.222	4.4749e-05	1.5706e-05	4.1568e-06	447.64	1.895e-07	1.5202e-07	613.17	119.05	1.8971e-07	1.7507e-07	220.25	80.93	34.19	12.612	1.7215e-07	39.05	382.332	273.812	257.399	181.833	298.910	328.191	182.173	187.596	292.399	303.362	187.233	192.054	191.802	197.102	290.134	195.763	-8191	255	
1433.799	1	1	0	0	0.17589	0.25277	0.16947	0.11178	0.20259	0.078574	0.095087	0.065443	0.33677	0.23209	0.20408	0.17687	0.10012	0.13039	0.19227	0.27043	-2.6667	-2.7438	-2.9104	-2.8792	-2.7042	-3.05	-2.8312	-2.85	-3.0333	-2.6833	-2.9667	-2.9104	-2.6521	-3.0687	-2.7042	-2.7667	412.665	208.869	256.581	376.446	519.781	359.490	189.428	479.024	424.769	436.732	247.933	449.792	197.490	483.524	426.424	307.848	0.0012176	0.00028836	8.5917e-05	478.31	2.2693e-06	2.6543e-06	636.62	124.37	3.1369e-06	5.9736e-07	231.33	84.826	35.767	13.058	3.871e-06	40.472	4.4325e-05	1.5461e-05	4.3283e-06	450.11	1.9553e-07	1.6111e-07	616.21	119.84	1.9607e-07	1.5886e-07	222.29	81.65	34.439	12.677	1.754e-07	39.218	382.492	234.840	270.015	181.829	311.083	346.213	182.266	187.297	279.287	356.703	187.269	192.128	191.838	197.263	282.978	195.653	-8191	255	
1433.895	1	1	0	0	0.16498	0.27407	0.1707	0.20965	0.05134	0.094955	0.17212	0.22274	0.13494	0.17302	0.16627	0.064161	0.29722	0.054363	0.18171	0.054191	-2.5229	-2.7583	-2.8917	-2.85	-2.7958	-3.1813	-2.8333	-2.7875	-3.0187	-2.7687	-2.8833	-2.9875	-2.7062	-2.9896	-2.9479	-2.9188	233.103	289.152	514.084	296.820	324.039	208.310	525.412	169.947	508.886	432.108	469.408	524.615	236.067	212.082	273.017	271.630	0.0012576	0.00022063	7.3826e-05	476.09	1.9131e-06	4.0733e-06	635.04	124.51	2.4539e-06	1.394e-06	231.67	85.358	35.912	13.14	4.5022e-06	40.552	4.514e-05	1.622e-05	4.3156e-06	450.42	1.8189e-07	1.7347e-07	616.62	120.04	2.0222e-07	1.7367e-07	222.83	81.871	34.451	12.717	1.919e-07	39.303	382.310	258.290	280.883	182.016	312.734	329.705	182.317	187.209	282.292	306.094	187.675	192.163	191.962	196.603	299.973	195.921	-8191	255	
1433.992	1	1	0	0	0.35027	0.13214	0.29878	0.2546	0.011653	0.17714	0.3813	0.10485	0.21187	0.16144	0.25304	0.32593	0.11793	0.18272	0.37986	0.22808	-2.7229	-2.6229	-2.9396	-2.8937	-2.7833	-2.9813	-2.9417	-2.7958	-3.0375	-2.6271	-2.8958	-3.0125	-2.7771	-3.1396	-2.8625	-2.6271	313.309	521.581	472.645	459.847	232.121	477.193	497.850	465.112	259.492	233.442	177.019	522.678	417.789	480.682	489.532	466.072	0.0012142	0.0003253	8.9641e-05	473.75	1.8131e-06	3.0741e-06	632.35	124.18	1.7325e-06	2.5064e-06	227.84	83.406	35.252	12.959	3.3294e-06	39.751	4.4977e-05	1.6427e-05	4.4829e-06	447.8	1.8131e-07	1.5979e-07	612.6	119.32	1.7982e-07	1.6035e-07	219.52	80.219	33.822	12.484	1.7812e-07	38.486	382.088	259.780	272.575	182.222	293.822	324.669	182.004	187.433	283.555	337.179	187.198	192.485	191.823	196.612	298.489	195.783	-8191	255	
1434.063	1	1	0	0	0.1878	0.14361	0.19277	0.1526	0.11086	0.35381	0.15196	0.086245	0.18331	0.18415	0.32894	0.095029	0.076608	0.33037	0.036028	0.22323	-2.5312	-2.7646	-2.9667	-3.2042	-2.6792	-3.1083	-2.9604	-2.6292	-3.0583	-2.8792	-2.9	-2.9396	-2.8937	-3.1083	-2.9125	-2.8146	311.830	334.968	495.868	528.799	279.576	513.977	499.119	207.650	349.087	370.538	443.020	427.408	221.993	403.283	475.488	204.243	0.0011779	0.00022313	6.0603e-05	474.59	2.5964e-06	2.6998e-06	630.72	122.67	2.9769e-06	2.9388e-06	228.15	83.601	35.484	12.943	3.5306e-06	40.175	4.3495e-05	1.4725e-05	4.4451e-06	446.43	1.6681e-07	1.6384e-07	611.39	118.71	1.9032e-07	1.6995e-07	219.23	80.34	34.011	12.582	1.8437e-07	38.867	383.196	238.990	261.010	182.068	303.814	345.057	181.954	187.326	298.308	345.229	187.626	192.180	192.101	196.485	297.210	196.024	-8191	255	
1434.184	1	1	0	0	0.20487	0.17748	0.30263	0.25581	0.14402	0.19495	0.2262	0.24799	0.20722	0.037762	0.36954	0.20426	0.23805	0.21661	0.15038	0.13638	-2.6792	-2.7708	-2.7583	-3.0542	-2.7833	-3.0104	-3.0229	-2.8563	-3.1042	-2.8958	-2.7375	-3.0604	-2.7188	-3.0521	-2.9938	-2.6771	317.948	179.896	330.038	235.070	371.463	261.032	440.686	257.237	437.581	467.066	484.340	495.631	315.424	417.318	180.018	421.144	0.0012548	0.00035225	6.295e-05	475.18	3.2603e-06	2.0271e-06	634.01	123.88	3.0751e-06	1.8524e-06	229.87	84.655	35.667	13.053	2.5627e-06	40.614	4.5684e-05	1.6729e-05	4.6744e-06	448.59	1.7681e-07	1.6537e-07	613.43	119.64	1.9373e-07	1.7892e-07	221.12	81.364	34.254	12.654	1.8725e-07	39.288	383.423	238.598	249.773	182.163	300.879	326.262	182.482	187.497	289.348	317.530	187.180	191.951	191.919	196.442	284.069	196.041	-8191	255	
1434.280	1	1	0	0	0.04026	0.11677	0.096094	0.30848	0.03805	0.12804	0.12627	0.12147	0.18595	0.044235	0.066154	0.2208	0.12257	0.18629	0.13734	0.1455	-2.4479	-2.9333	-2.625	-3.2167	-2.6396	-2.7958	-2.9771	-2.7229	-2.8688	-3.025	-2.6875	-3.1125	-2.625	-2.7938	-3.0479	-2.6813	363.361	176.881	441.937	429.141	501.404	242.904	283.002	224.677	416.181	372.307	496.006	351.383	291.286	519.010	186.631	230.859	0.0012293	0.00036301	8.768e-05	475.4	2.0719e-06	1.959e-06	633.35	123.91	3.3005e-06	1.5621e-06	231.58	85.157	36.039	13.033	3.2222e-06	40.309	4.68e-05	1.7915e-05	4.7438e-06	448.45	1.8288e-07	1.7689e-07	614.15	119.31	1.872e-07	1.8467e-07	222.42	81.719	34.284	12.673	1.7943e-07	39.237	382.898	255.475	259.605	182.072	309.546	327.767	182.201	187.249	292.491	358.384	187.256	192.190	191.958	196.851	293.210	195.709	-8191	255	
1434.376	1	1	0	0	0.13405	0.090414	0.15882	0.15554	0.044493	0.01672	0.34716	0.10793	0.12774	0.11983	0.34671	0.22538	0.17913	0.096259	0.16617	0.19424	-2.5292	-2.9188	-2.7146	-2.9208	-2.8229	-2.9667	-3.1646	-2.6063	-2.8958	-2.9208	-2.6958	-3.1	-2.8438	-2.7313	-3.1083	-2.9333	505.194	514.695	449.968	526.641	312.661	510.620	500.529	236.617	180.519	241.043	172.133	497.556	306.877	299.523	519.480	448.413	0.0012582	0.0001847	9.2215e-05	472.37	2.7679e-06	2.4432e-06	635.93	124.59	3.9345e-06	1.1452e-06	227.84	83.742	35.485	12.941	2.9715e-06	39.763	4.5513e-05	1.5586e-05	4.3062e-06	449.49	1.7623e-07	1.8293e-07	615.15	119.97	1.9094e-07	1.7073e-07	220.58	80.814	34.019	12.477	1.6422e-07	38.545	383.325	264.986	240.938	182.048	313.153	347.777	182.222	187.276	296.294	332.896	187.117	192.256	191.337	197.136	309.810	195.905	-8191	255	
1434.497	1	1	0	0	0.05862	0.15722	0.11002	0.1799	0.186	0.098501	0.06311	0.23922	0.043828	0.10873	0.12301	0.30548	0.28368	0.25719	0.21807	0.20515	-2.4792	-2.7896	-2.8521	-2.9333	-2.7979	-2.8312	-2.9354	-2.7521	-3.1625	-2.9479	-2.6	-3.1937	-2.7438	-2.7833	-3.1437	-2.8792	356.100	223.646	247.920	178.397	516.016	315.594	359.832	478.909	364.212	298.135	249.415	186.648	485.193	447.600	504.603	444.319	0.0012181	0.0002359	5.137e-05	469.07	2.1974e-06	1.7326e-06	627.72	123.08	4.1985e-06	2.2431e-06	226.43	82.359	34.998	12.583	3.055e-06	38.96	4.4742e-05	1.5578e-05	4.1484e-06	444.85	1.7594e-07	1.6037e-07	607.35	117.77	1.8967e-07	1.594e-07	217.41	79.356	33.392	12.25	1.8149e-07	37.855	383.546	261.510	271.449	181.798	310.030	375.195	182.238	187.101	271.587	305.206	187.294	191.949	191.790	196.739	312.641	195.683	-8191	255	
1434.591	1	1	0	0	0.043467	0.05974	0.23063	0.063864	0.19639	0.22576	0.15225	0.43598	0.091032	0.23478	0.15115	0.093107	0.10794	0.10447	0.091724	0.26918	-2.3208	-3.1271	-2.7354	-2.8854	-2.7417	-2.7604	-2.9688	-2.6521	-2.9104	-2.9417	-2.6167	-3.025	-2.8854	-2.6125	-2.9458	-2.8896	431.343	223.592	206.723	188.319	193.402	271.648	191.632	385.974	399.966	333.242	507.320	271.629	177.664	302.922	288.469	395.816	0.0011898	0.00025305	9.3325e-05	469.17	1.199e-06	1.8628e-06	630.31	121.9	3.0552e-06	2.9045e-06	226.65	83.366	34.978	12.8	2.5464e-06	39.677	4.4774e-05	1.6488e-05	4.6092e-06	444.34	1.8098e-07	1.6698e-07	608.49	117.87	1.9225e-07	1.649e-07	218.09	80.022	33.617	12.372	1.8503e-07	38.387	382.896	281.204	247.193	181.992	304.004	347.435	182.277	187.381	285.200	305.822	187.484	192.336	191.688	196.483	297.984	195.482	-8191	255	
1434.687	1	1	0	0	0.18458	0.20428	0.11893	0.15934	0.12738	0.090974	0.13744	0.12012	0.25168	0.12711	0.33697	0.18811	0.11638	0.2076	0.18479	0.10946	-2.3625	-2.8625	-2.6	-2.9021	-2.7958	-2.7646	-3.2146	-2.8042	-2.6833	-3.1	-2.8708	-2.8896	-3.0062	-2.7229	-3	-2.85	523.733	190.622	203.102	189.219	239.258	257.208	230.514	255.741	526.562	505.199	193.099	491.773	373.622	468.128	230.449	239.126	0.0011934	0.00026064	9.1839e-05	472.13	2.8374e-06	1.8764e-06	627.96	123.08	3.8546e-06	1.9697e-06	227.35	83.79	34.903	12.817	2.4412e-06	39.743	4.5292e-05	1.5974e-05	4.3672e-06	445.97	1.7499e-07	1.6673e-07	611.06	118.46	1.8076e-07	1.6453e-07	219.63	80.667	33.669	12.404	1.7861e-07	38.633	382.675	248.242	262.561	181.702	299.450	331.258	182.155	187.010	278.457	331.427	187.240	192.112	192.060	196.207	303.081	195.780	-8191	255	
1434.784	1	1	0	0	0.17357	0.089858	0.080422	0.26378	0.086227	0.24435	0.016708	0.17038	0.43742	0.20651	0.104	0.2507	0.19997	0.3197	0.21077	0.078007	-2.3542	-2.9938	-2.6979	-3.1083	-2.7917	-2.5167	-3.0958	-2.95	-2.7938	-3.025	-2.8438	-2.9021	-2.9688	-2.725	-2.9521	-2.8729	234.721	337.395	466.476	208.958	338.981	448.314	310.825	416.494	221.509	497.529	503.475	201.008	182.865	257.786	175.418	402.749	0.0012122	0.00015973	8.2051e-05	473.97	3.325e-06	2.3453e-06	631.97	123.77	3.4406e-06	2.2511e-06	229.16	84.796	35.254	12.904	3.4414e-06	39.916	4.5013e-05	1.5827e-05	4.4419e-06	446.35	1.8049e-07	1.638e-07	612.17	119.21	1.8897e-07	1.6895e-07	221.31	81.397	33.908	12.459	1.9041e-07	38.625	382.756	256.668	259.856	182.042	317.615	331.398	182.083	187.469	282.991	319.575	187.575	192.229	191.439	197.058	288.033	195.856	-8191	255	
1434.880	1	1	0	0	0.17916	0.16496	0.14163	0.27318	0.2208	0.10169	0.2759	0.11485	0.31193	0.12411	0.19256	0.082518	0.24624	0.11147	0.12925	0.368	-2.3104	-2.9	-2.7313	-2.8104	-2.8104	-2.7188	-2.9771	-2.85	-2.6437	-3.0354	-2.925	-2.8563	-3.1667	-2.5479	-2.8271	-2.9917	474.986	238.874	267.544	447.284	229.005	524.934	461.424	443.186	207.031	340.619	486.682	313.264	395.883	296.452	444.519	469.039	0.0011846	0.00034788	4.0203e-05	474.35	1.8861e-06	2.0209e-06	626.5	122.38	2.4071e-06	1.997e-06	225.6	82.668	34.676	12.4	3.452e-06	38.648	4.5032e-05	1.5842e-05	4.2588e-06	445.96	1.8561e-07	1.6665e-07	607.04	117.69	1.888e-07	1.6457e-07	217.32	79.396	33.216	12.064	1.8194e-07	37.369	382.152	241.213	272.102	182.209	308.026	330.550	182.077	187.370	290.513	324.612	186.992	192.214	191.736	196.715	287.824	196.029	-8191	255	
1434.976	1	1	0	0	0.21718	0.080656	0.19301	0.15428	0.036446	0.19898	0.30537	0.20508	0.22181	0.040203	0.27732	0.18495	0.18707	0.08829	0.050357	0.12303	-2.2438	-3.0979	-2.8729	-2.7125	-3.0146	-2.8	-3.0458	-3.0604	-2.5917	-3.0625	-2.825	-2.8542	-2.8312	-2.7042	-2.7333	-2.85	268.546	280.401	235.778	346.059	358.304	453.342	469.743	477.331	346.352	444.603	513.639	184.537	230.803	495.096	177.942	415.456	0.0011329	0.00018016	7.64e-05	469.86	1.7448e-06	2.0269e-06	625.08	121.57	3.8903e-06	1.2534e-06	225.55	82.327	34.65	12.474	3.5192e-06	39.042	4.2905e-05	1.5722e-05	4.1578e-06	443.26	1.6532e-07	1.702e-07	606.02	117.12	1.7133e-07	1.6225e-07	216.69	79.177	33.204	12.068	1.8581e-07	37.723	381.866	231.557	249.578	181.789	310.381	319.617	182.093	187.390	301.868	297.980	187.132	191.870	191.580	197.032	315.982	195.970	-8191	255	
1435.096	1	1	0	0	0.29722	0.031594	0.050804	0.14016	0.15309	0.16862	0.26634	0.11226	0.23041	0.27316	0.21872	0.031907	0.15308	0.060806	0.20106	0.17244	-2.2646	-3.0312	-2.9333	-2.6604	-3.1333	-2.7854	-2.9771	-2.9958	-2.7792	-2.9792	-2.9625	-2.7625	-3.0479	-2.6521	-2.6708	-3.075	480.894	210.126	258.317	214.407	188.217	359.336	484.575	456.723	420.162	472.362	352.003	179.735	364.885	261.072	178.204	468.892	0.0012036	0.00035297	6.499e-05	469.66	1.5268e-06	2.2083e-06	627.15	121.24	2.7962e-06	1.9882e-06	228.4	82.862	34.835	12.703	3.2247e-06	39.223	4.5296e-05	1.6178e-05	4.1147e-06	444.91	1.6131e-07	1.7239e-07	608.87	117.55	1.8183e-07	1.656e-07	218.98	80.013	33.47	12.265	1.8647e-07	38.214	382.050	240.221	258.924	182.084	311.010	323.674	182.240	187.351	280.573	359.449	187.330	192.189	191.488	196.954	303.340	196.159	-8191	255	
1435.193	1	1	0	0	0.37838	0.2863	0.11838	0.26581	0.27554	0.23666	0.30369	0.26312	0.21169	0.17756	0.15168	0.58358	0.10513	0.15104	0.16089	0.23919	-2.2229	-2.9479	-2.8104	-2.7854	-3.0104	-2.925	-2.8688	-3.1083	-2.7438	-2.8104	-2.9958	-2.6437	-2.9479	-2.7854	-2.8375	-3.1333	448.507	361.979	277.172	335.157	295.239	238.231	490.695	514.105	510.216	338.325	177.257	436.238	235.377	338.868	251.204	323.536	0.0011549	0.00025865	8.857e-05	474.07	2.238e-06	2.061e-06	628.68	123.69	4.396e-06	1.6864e-06	229.62	84.576	35.641	12.771	2.848e-06	40.141	4.3803e-05	1.6039e-05	4.4945e-06	447.28	1.6784e-07	1.6244e-07	611.25	118.95	1.8622e-07	1.6296e-07	220.62	81.201	34.071	12.404	1.9148e-07	38.738	383.709	272.971	256.753	181.793	308.106	280.946	182.334	187.697	279.207	337.864	187.225	192.042	192.042	196.635	287.303	195.768	-8191	255	
1435.289	1	1	0	0	0.25859	0.16254	0.172	0.20502	0.16671	0.14826	0.12733	0.12199	0.31587	0.1749	0.13023	0.09453	0.16656	0.24285	0.13315	0.085269	-2.1833	-2.8271	-2.9104	-2.5833	-2.8625	-2.8104	-2.7521	-3.075	-2.6688	-2.8875	-2.9167	-2.6083	-2.7438	-2.975	-2.6625	-3.0521	437.893	302.666	437.439	202.202	411.884	505.125	313.793	171.533	185.183	174.252	187.367	518.916	192.385	341.798	470.096	477.638	0.0011854	0.00023029	5.2661e-05	474.45	2.0539e-06	2.6756e-06	633.16	123.22	2.721e-06	2.5032e-06	226.19	83.085	35.175	12.711	2.4704e-06	39.267	4.5166e-05	1.6767e-05	4.3262e-06	447.32	1.7127e-07	1.6343e-07	612.83	119.01	1.9639e-07	1.7259e-07	218.88	80.159	33.602	12.272	1.7779e-07	37.938	383.719	239.935	283.678	182.080	296.773	355.517	182.272	187.435	305.038	320.780	187.251	191.927	191.654	196.792	286.406	195.935	-8191	255	
1435.360	1	1	0	0	0.34453	0.15787	0.19349	0.16166	0.35663	0.056503	0.13468	0.28601	0.18722	0.1959	0.14643	0.13549	0.040427	0.086677	0.16912	0.20649	-2.4	-2.7979	-3.0875	-2.6	-3.0292	-2.9083	-2.7146	-2.9313	-2.8021	-2.8958	-2.9771	-2.8292	-3.1437	-2.8854	-2.6729	-3.1271	378.659	280.407	207.401	480.329	364.433	460.800	419.512	351.192	309.883	383.272	510.507	508.321	410.671	405.988	225.343	412.662	0.0012287	0.00022161	6.8623e-05	466.84	1.9399e-06	2.7598e-06	624.95	121.45	1.9168e-06	1.7312e-06	224.53	82.387	34.412	12.331	3.5593e-06	38.606	4.4296e-05	1.6027e-05	4.2388e-06	443.45	1.7024e-07	1.6714e-07	606.81	116.89	1.8257e-07	1.6349e-07	216.22	78.996	33.153	12.005	1.8499e-07	37.481	380.884	235.942	278.831	181.828	294.793	328.703	182.049	187.463	291.832	333.287	187.290	191.925	192.110	196.900	320.443	195.634	-8191	255	
1435.481	1	1	0	0	0.15205	0.19305	0.19525	0.046203	0.39401	0.10833	0.33412	0.03104	0.16797	0.27474	0.16439	0.10615	0.16253	0.13625	0.30122	0.15791	-2.3104	-2.8271	-2.9083	-2.7646	-3.0563	-2.8833	-2.7396	-3.0083	-2.8479	-2.8292	-3.3458	-2.8083	-3.0542	-2.8146	-2.8125	-2.9875	269.472	462.913	245.643	506.348	259.032	369.768	465.749	299.410	306.918	478.338	520.913	471.053	325.631	508.073	348.694	393.923	0.0012205	0.00018916	8.2787e-05	472.72	2.2563e-06	2.8483e-06	629.55	122.12	2.3975e-06	2.0078e-06	226.78	83.267	34.858	12.642	2.7295e-06	39.223	4.4198e-05	1.5571e-05	4.3756e-06	445.71	1.8007e-07	1.5839e-07	608.44	117.75	1.9155e-07	1.7036e-07	218.25	79.991	33.498	12.269	1.8499e-07	38.145	382.885	220.676	256.624	181.847	326.315	350.260	182.245	187.598	313.432	323.468	187.187	192.247	191.685	196.504	312.519	195.743	-8191	255	
1435.577	1	1	0	0	0.087809	0.29726	0.16404	0.34363	0.047762	0.076953	0.20302	0.087761	0.18175	0.19529	0.22794	0.35351	0.0054545	0.17778	0.16855	0.14972	-2.325	-2.7917	-2.9188	-2.4396	-2.9333	-3.0312	-2.9375	-2.9104	-2.7771	-2.7792	-3.0917	-2.8146	-2.9437	-2.8708	-2.6604	-3.2167	480.621	442.206	230.573	457.503	447.315	438.671	446.513	322.888	232.714	223.196	454.097	475.365	203.963	274.470	486.673	458.567	0.0012102	0.00023642	5.1662e-05	475.19	1.7368e-06	1.6484e-06	632.51	122.11	3.7728e-06	2.2402e-06	228.88	84.472	35.383	12.799	2.492e-06	39.655	4.5481e-05	1.7375e-05	4.3609e-06	447.48	1.8908e-07	1.714e-07	611.43	118.31	2.0784e-07	1.8086e-07	220.27	80.746	33.876	12.414	1.8277e-07	38.495	383.101	229.840	278.011	181.888	317.826	333.379	182.150	187.543	295.730	312.732	186.931	191.995	191.476	196.731	285.708	196.046	-8191	255	
1435.672	1	1	0	0	0.034394	0.15715	0.056094	0.055182	0.064446	0.064137	0.15891	0.016272	0.047021	0.21637	0.36547	0.048859	0.12303	0.13481	0.079752	0.40942	-2.5563	-2.65	-3.05	-2.7083	-2.7021	-3.1104	-2.7104	-2.9271	-2.8354	-2.5979	-3.0083	-3.0146	-2.6604	-3.0687	-2.7438	-2.9583	357.400	259.728	218.043	488.323	305.960	302.581	261.981	460.221	492.384	456.499	347.655	295.089	237.626	503.882	228.439	469.170	0.0011742	0.00024206	7.0299e-05	477.82	3.6704e-06	3.6073e-06	632.34	123.63	4.0734e-06	1.2886e-06	229.16	84.644	35.354	12.832	3.2097e-06	40.09	4.5195e-05	1.6031e-05	4.5639e-06	448.6	1.9978e-07	1.7442e-07	613.92	119.28	2.1424e-07	1.7606e-07	221.62	81.298	33.979	12.463	1.8338e-07	38.602	382.915	264.132	256.602	182.227	311.145	351.606	182.129	187.078	292.691	295.808	187.547	192.120	191.686	196.785	293.221	195.715	-8191	255	
1435.768	1	1	0	0	0.033874	0.26356	0.10547	0.21968	0.084278	0.17029	0.17064	0.24319	0.33015	0.10842	0.11272	0.19929	0.23254	0.053475	0.063705	0.30344	-2.6	-2.5542	-3.0792	-2.6458	-2.8208	-2.9646	-2.7521	-2.8438	-2.9125	-2.7104	-3.0812	-2.6583	-2.7667	-3.0125	-2.8271	-3.0458	343.592	262.344	435.939	396.803	279.143	354.192	336.399	207.506	511.334	210.989	473.304	523.867	509.576	383.110	322.843	393.841	0.0012164	0.00022596	5.7926e-05	466.96	2.0727e-06	2.9886e-06	630.18	122.92	4.1519e-06	2.1919e-06	226.23	82.397	34.877	12.56	3.7335e-06	38.673	4.5122e-05	1.631e-05	4.4577e-06	444.89	1.8912e-07	1.7177e-07	608.83	118.12	1.9717e-07	1.6507e-07	217.32	79.321	33.323	12.153	1.8301e-07	37.507	380.410	241.584	278.907	182.470	312.467	319.210	181.941	187.233	304.673	345.602	187.268	191.940	191.509	196.697	261.079	195.680	-8191	255	
1435.888	1	1	0	0	0.11058	0.10144	0.13371	0.046042	0.18783	0.13413	0.03706	0.15895	0.073732	0.22626	0.15035	0.082074	0.42941	0.30555	0.069076	0.13865	-2.4646	-2.6896	-2.9875	-2.7396	-2.8792	-3.0687	-2.8187	-3.075	-3.0312	-2.8417	-3.0563	-2.9	-2.6583	-3.05	-2.6562	-2.9542	215.462	227.097	296.856	468.036	397.122	292.311	385.570	325.501	418.321	475.707	499.336	208.673	384.045	406.357	336.842	459.776	0.0012238	0.00026306	8.0746e-05	471.43	2.382e-06	2.2895e-06	623.3	122.03	3.9116e-06	2.7698e-06	225.36	82.814	35.029	12.595	3.1042e-06	39.114	4.3992e-05	1.6711e-05	4.6155e-06	442.74	1.8569e-07	1.6818e-07	605.7	117.56	1.8314e-07	1.6928e-07	216.92	79.451	33.529	12.236	1.8277e-07	38.008	382.782	234.160	249.055	182.267	311.826	352.930	182.244	187.254	290.204	340.143	187.176	192.419	191.828	196.653	298.069	195.501	-8191	255	
1435.960	1	1	0	0	0.10837	0.30189	0.052298	0.15576	0.14663	0.11445	0.15019	0.17079	0.1279	0.069323	0.21824	0.072068	0.24236	0.033567	0.069088	0.24552	-2.6688	-2.5312	-2.9521	-2.9604	-2.4333	-3.0771	-2.8896	-2.7167	-2.9688	-2.4813	-3.0312	-3.0083	-2.7521	-2.9562	-2.7875	-2.7708	383.953	250.194	226.593	486.766	514.151	296.586	400.616	494.829	457.454	351.655	339.101	436.847	443.009	371.359	376.273	466.423	0.0012206	0.00026141	6.8063e-05	470.32	1.1355e-06	2.2849e-06	630.63	122.28	4.5629e-06	1.9603e-06	226.57	83.09	35.291	12.704	2.8064e-06	39.742	4.5532e-05	1.6812e-05	4.5461e-06	444.7	1.8718e-07	1.6768e-07	610.21	118.33	1.9204e-07	1.7693e-07	218.93	80.213	33.867	12.336	1.8383e-07	38.452	384.473	264.957	278.385	181.565	280.419	354.226	182.067	187.214	293.041	327.176	187.324	192.289	191.546	196.491	301.173	195.774	-8191	255	
1436.056	1	1	0	0	0.2891	0.14726	0.099059	0.19932	0.15747	0.034351	0.43236	0.13364	0.30901	0.07257	0.022786	0.057187	0.2519	0.18075	0.1233	0.074349	-2.5604	-2.7292	-2.7771	-3	-2.6979	-2.8208	-2.7979	-2.9521	-2.9271	-2.5875	-2.8833	-3.0875	-2.6625	-2.9896	-2.7875	-2.9417	372.068	340.777	436.342	232.323	197.190	279.582	381.881	343.524	322.791	196.117	495.279	358.018	416.434	341.170	373.491	450.845	0.0012033	0.00030207	4.1803e-05	470.93	3.1529e-06	1.7845e-06	628.44	123.3	2.0566e-06	3.145e-06	229.83	84.54	35.415	12.872	2.4499e-06	40.174	4.4988e-05	1.642e-05	4.7723e-06	444.6	1.7764e-07	1.7755e-07	611.35	118.76	1.7744e-07	1.7747e-07	221.29	81.168	34.048	12.492	1.9975e-07	38.813	383.438	254.566	241.031	181.957	300.077	326.255	182.148	187.583	273.684	321.831	187.115	192.079	191.559	196.917	328.667	195.800	-8191	255	
1436.177	1	1	0	0	0.065534	0.4768	0.095692	0.056115	0.01326	0.060489	0.1496	0.30817	0.15053	0.11197	0.21078	0.26795	0.24831	0.08144	0.27067	0.17373	-2.8083	-2.675	-2.9167	-3.0104	-2.7333	-2.9708	-2.9708	-2.5958	-2.9771	-2.7833	-2.9708	-3.15	-2.6604	-2.8542	-3	-2.7021	278.101	442.699	424.202	260.196	206.473	260.764	272.343	510.050	455.634	261.026	523.343	419.676	360.710	243.775	346.232	468.862	0.0012381	0.00020872	8.4489e-05	476.41	2.8512e-06	2.7567e-06	627.59	122.65	2.7242e-06	1.8825e-06	229.35	83.442	35.34	12.71	3.5671e-06	39.235	4.6753e-05	1.7794e-05	4.8301e-06	448.25	1.9966e-07	1.6686e-07	610.82	118.88	1.9049e-07	1.8148e-07	219.57	80.175	33.673	12.318	1.8861e-07	37.956	383.433	261.693	265.547	181.821	297.241	331.802	182.115	187.208	263.234	319.681	187.157	192.039	191.738	197.125	283.356	195.898	-8191	255	
1436.273	1	1	0	0	0.22895	0.22295	0.11583	0.11402	0.06748	0.055648	0.27789	0.058374	0.088165	0.1747	0.18653	0.11188	0.13372	0.21266	0.033502	0.22437	-2.4771	-2.6354	-2.4854	-3.1417	-2.65	-3.0812	-3.0812	-2.7354	-3.1937	-2.7917	-2.85	-3.2625	-2.7313	-2.8042	-2.8417	-2.7104	419.172	182.748	511.933	247.715	193.926	527.261	469.958	455.013	440.319	305.746	264.940	367.258	405.971	329.137	480.188	278.629	0.0012079	0.00024398	4.8136e-05	470.42	2.1491e-06	3.5246e-06	624.95	120.65	2.348e-06	1.9934e-06	224.49	82.085	34.729	12.52	4.2478e-06	39.033	4.447e-05	1.6156e-05	4.4787e-06	443.61	1.7355e-07	1.8305e-07	605.86	116.88	1.9447e-07	1.728e-07	215.89	78.969	33.313	12.135	1.8128e-07	37.776	381.391	278.021	280.724	182.034	309.928	323.471	182.141	187.249	287.595	301.151	187.239	192.188	191.479	196.741	304.639	196.030	-8191	255	
1436.369	1	1	0	0	0.16345	0.16278	0.080295	0.10018	0.19493	0.12414	0.076498	0.069403	0.26154	0.3937	0.161	0.21775	0.23005	0.11469	0.33962	0.40553	-2.4229	-2.8812	-2.6437	-3.1688	-2.8688	-2.8812	-3.0667	-2.6646	-3.0333	-3.0542	-2.8479	-3.0375	-2.7917	-2.925	-3.1292	-2.7583	501.591	235.389	435.851	382.971	254.916	272.103	226.248	264.720	487.023	445.477	454.355	507.104	370.006	494.780	431.298	450.249	0.0011362	0.00033694	9.3369e-05	468.87	2.5306e-06	2.022e-06	628.38	121.49	2.1555e-06	1.5843e-06	226.37	82.892	34.486	12.693	2.243e-06	39.713	4.4416e-05	1.7322e-05	4.7323e-06	442.97	1.8045e-07	1.6793e-07	607.78	117.41	1.989e-07	1.7677e-07	217.99	79.849	33.497	12.335	1.8083e-07	38.291	379.959	239.768	259.031	182.037	325.435	312.927	182.165	187.659	275.101	308.221	187.239	192.091	191.658	196.733	284.391	195.710	-8191	255	
1436.465	1	1	0	0	0.26042	0.24319	0.14494	0.16405	0.21262	0.05412	0.19491	0.18299	0.056916	0.049717	0.32828	0.21317	0.10142	0.16188	0.16186	0.16426	-2.65	-2.7521	-2.8167	-2.8667	-2.6125	-2.7167	-3.0938	-2.7125	-3.0812	-2.9875	-2.7938	-3.0812	-2.775	-2.7521	-3.0167	-2.775	191.400	230.590	221.407	284.092	351.790	366.954	468.971	474.576	334.680	381.470	514.224	484.450	512.957	420.602	320.822	320.427	0.001167	0.00028163	9.2046e-05	469.66	2.2777e-06	2.9051e-06	629.47	122.47	3.4486e-06	2.2393e-06	228.72	84.405	35.368	12.894	2.9295e-06	39.778	4.4876e-05	1.4853e-05	4.3893e-06	444.78	1.9218e-07	1.8226e-07	610.33	118.54	1.8913e-07	1.7759e-07	219.9	80.821	33.838	12.461	1.9728e-07	38.607	382.820	273.111	281.899	181.786	285.492	349.566	182.292	187.293	280.474	332.189	187.289	192.129	191.509	196.518	299.213	195.771	-8191	255	
1436.586	1	1	0	0	0.093668	0.22778	0.086976	0.076825	0.051857	0.1087	0.18457	0.082012	0.30495	0.061787	0.067227	0.069412	0.080504	0.069413	0.18086	0.16929	-2.6125	-2.9313	-2.7375	-2.9542	-2.75	-2.8042	-3.0458	-2.7208	-2.9729	-2.9188	-2.8625	-2.9667	-2.6625	-2.6625	-3.1063	-2.6583	209.095	225.082	427.512	495.952	450.077	201.493	465.460	519.246	293.381	263.540	344.469	444.219	522.473	443.506	363.649	263.447	0.0012943	0.00030195	9.3803e-05	472.47	2.1351e-06	1.5432e-06	629.91	124.78	3.5621e-06	2.3821e-06	231.57	84.296	35.625	12.879	3.1462e-06	39.845	4.6035e-05	1.7103e-05	4.6849e-06	445.31	1.8433e-07	1.7479e-07	612.85	119.19	2.0616e-07	1.7855e-07	221.68	81.18	34.082	12.513	1.9699e-07	38.654	382.109	243.037	256.685	182.140	307.054	333.473	182.227	187.487	288.688	345.260	187.510	192.343	191.325	196.490	293.682	195.724	-8191	255	
1436.658	1	1	0	0	0.22986	0.10806	0.25544	0.14544	0.22042	0.17169	0.15901	0.27162	0.10034	0.14881	0.10344	0.17377	0.15449	0.07136	0.16536	0.1644	-2.3917	-2.85	-2.7167	-2.8958	-2.8458	-2.7875	-3.1729	-2.7521	-2.9458	-3.1229	-2.75	-2.9708	-2.9688	-2.7604	-3.1333	-2.9146	176.857	429.396	414.817	444.759	366.086	217.961	502.241	431.995	237.477	474.502	466.791	211.868	412.722	310.794	474.859	515.566	0.0012024	0.00022277	5.4477e-05	469.16	2.6862e-06	1.719e-06	625.06	122.74	2.6076e-06	2.5985e-06	224.48	82.677	34.554	12.696	1.5426e-06	38.706	4.5872e-05	1.5427e-05	4.3882e-06	443.14	1.8507e-07	1.7656e-07	606.01	117.97	2.0636e-07	1.6263e-07	216.67	79.333	33.317	12.244	1.678e-07	37.639	384.115	247.020	281.221	181.872	326.128	331.009	181.947	187.303	283.722	329.661	187.021	192.135	191.525	196.854	338.849	195.625	-8191	255	
1436.776	1	1	0	0	0.29097	0.21921	0.24284	0.07956	0.043441	0.028861	0.044219	0.13511	0.090288	0.16827	0.12272	0.067402	0.10993	0.11651	0.15772	0.22431	-2.3646	-2.9854	-2.6646	-2.8771	-2.8438	-2.6979	-3.0438	-2.5479	-2.9417	-3.025	-2.7687	-2.9417	-2.775	-2.6729	-2.9333	-2.8979	346.565	493.321	455.958	420.462	411.469	384.077	445.402	259.660	445.739	343.044	211.191	185.996	522.385	294.517	443.584	518.485	0.0011861	0.00021014	4.9843e-05	469.42	2.1604e-06	3.6433e-06	628.53	122.43	5.3742e-06	2.2651e-06	225.87	82.27	34.726	12.72	3.2371e-06	39.354	4.5122e-05	1.5831e-05	4.2746e-06	442.57	1.7627e-07	1.9007e-07	607.03	117.33	1.9771e-07	1.7697e-07	216.99	79.599	33.467	12.291	1.863e-07	38.005	381.788	242.624	246.995	182.120	311.545	331.405	182.053	187.228	297.733	334.917	187.302	192.188	191.766	197.084	314.529	195.746	-8191	255	
1436.873	1	1	0	0	0.07954	0.055401	0.23444	0.20264	0.02093	0.083771	0.29056	0.10325	0.17401	0.22302	0.10351	0.0055163	0.21157	0.1956	0.09749	0.24114	-2.3208	-3.1	-2.5708	-2.8958	-2.9521	-2.7438	-3.1	-2.9167	-2.7208	-3.1625	-2.9458	-2.9813	-2.9625	-2.6958	-2.9875	-2.9688	334.711	175.704	285.882	282.487	458.074	226.526	510.927	374.076	476.780	480.075	468.029	512.234	334.688	409.022	186.772	215.308	0.0011584	0.00020698	5.7731e-05	468.15	2.0527e-06	2.869e-06	630.24	121.86	3.5591e-06	1.7825e-06	228.07	83.322	35.293	12.782	2.9582e-06	39.73	4.2752e-05	1.5371e-05	4.7049e-06	443.63	1.8689e-07	1.7408e-07	608.89	117.73	1.8893e-07	1.7164e-07	219.37	80.369	33.768	12.385	1.884e-07	38.469	383.577	262.635	254.308	181.662	322.970	317.304	182.252	187.139	298.558	297.396	187.117	192.246	191.938	197.031	289.098	195.893	-8191	255	
1436.969	1	1	0	0	0.13241	0.096351	0.1937	0.13971	0.071388	0.1291	0.20406	0.070137	0.25748	0.069448	0.15269	0.070152	0.31404	0.043479	0.18584	0.11747	-2.3458	-3.1312	-2.725	-2.7333	-3.1667	-2.7854	-2.9979	-2.8542	-2.6458	-3.1042	-2.7458	-2.8417	-3.0083	-2.6896	-2.9667	-2.8375	412.309	488.212	476.578	348.158	455.488	452.662	455.800	438.302	237.928	366.796	491.551	335.071	213.158	374.083	383.629	467.112	0.0011819	0.00023922	7.0665e-05	470.04	2.9073e-06	2.8171e-06	632.42	123.41	3.0574e-06	2.5285e-06	229.43	84.642	35.455	12.904	3.9812e-06	40.014	4.4481e-05	1.5974e-05	4.4345e-06	444.93	1.7412e-07	1.8606e-07	611.42	118.67	2.08e-07	1.819e-07	220.92	81.103	34.012	12.505	1.8725e-07	38.716	382.216	231.248	273.273	181.914	314.129	350.391	182.194	187.156	306.214	325.414	187.315	192.382	191.466	196.447	299.709	195.644	-8191	255	
1437.065	1	1	0	0	0.025084	0.047922	0.23857	0.22598	0.21172	0.057382	0.34108	0.077403	0.18011	0.21195	0.15024	0.12122	0.29275	0.03708	0.22401	0.086319	-2.2125	-2.8625	-2.7979	-2.6958	-2.9708	-2.825	-2.9292	-2.9562	-2.6437	-2.8917	-3.025	-2.7792	-3.0396	-2.7687	-2.7917	-3.0729	474.495	202.266	428.886	492.042	309.554	176.796	466.524	255.796	481.931	192.657	480.842	238.893	378.720	500.028	271.723	180.743	0.0012077	0.00027711	6.2192e-05	475.22	3.1354e-06	3.6021e-06	632.61	123.36	2.4266e-06	2.4641e-06	227.68	83.449	34.909	12.78	3.6189e-06	39.12	4.4289e-05	1.7148e-05	4.5271e-06	447.09	1.8863e-07	1.719e-07	612.07	118.49	1.95e-07	1.6544e-07	219.13	80.2	33.551	12.31	1.8383e-07	37.945	382.026	248.643	253.845	182.280	323.810	336.749	181.857	187.248	299.791	330.571	187.134	191.974	191.657	196.797	292.505	195.806	-8191	255	
1437.186	1	1	0	0	0.17242	0.30351	0.20328	0.19664	0.049323	0.21198	0.096011	0.33902	0.10109	0.085876	0.36154	0.11809	0.13684	0.064887	0.08038	0.049825	-2.2854	-3.0708	-2.8021	-2.7646	-3.1937	-2.9688	-3.0229	-3.0021	-2.8125	-3.1729	-2.8063	-2.8896	-3.0042	-2.6063	-2.9813	-2.8833	496.289	170.027	466.302	442.444	208.767	424.036	332.198	224.968	315.846	286.107	468.883	170.099	421.794	211.843	282.885	265.455	0.0011893	0.00032446	7.0611e-05	466.15	3.0997e-06	2.2977e-06	623.88	121.39	3.3322e-06	2.6622e-06	224.48	82.294	34.849	12.404	3.1246e-06	38.764	4.3803e-05	1.568e-05	4.4051e-06	440.9	1.6731e-07	1.6595e-07	604.58	117.01	1.8884e-07	1.5564e-07	215.94	78.943	33.267	12.062	1.8285e-07	37.504	384.875	238.677	275.127	182.028	314.724	325.373	182.168	187.518	299.171	340.741	187.163	191.945	192.018	196.865	307.917	196.076	-8191	255	
1437.257	1	1	0	0	0.075153	0.1218	0.15153	0.13378	0.28671	0.16004	0.1832	0.033827	0.37864	0.15391	0.21212	0.19245	0.055215	0.079201	0.24158	0.26545	-2.2521	-2.9979	-2.8312	-2.75	-3.2083	-2.9333	-2.8104	-3.0958	-2.5208	-2.9292	-2.8479	-2.6937	-2.9854	-2.7021	-2.7792	-3.2104	218.827	257.695	393.771	254.177	280.137	261.139	449.508	335.491	258.985	266.307	381.149	453.705	306.525	307.002	378.925	511.511	0.0011429	0.00019328	6.7408e-05	468.79	2.5701e-06	2.934e-06	625.16	122.25	2.7582e-06	1.9964e-06	225.35	83.075	34.921	12.621	2.2366e-06	39.386	4.422e-05	1.5465e-05	4.3598e-06	441.75	1.7024e-07	1.695e-07	607.4	117.36	2.0259e-07	1.7019e-07	217.59	79.817	33.55	12.293	1.7503e-07	38.203	381.474	232.209	256.213	182.285	298.632	341.772	182.341	187.592	295.546	330.819	186.923	191.909	191.872	196.808	300.307	195.751	-8191	255	
1437.353	1	1	0	0	0.30225	0.23394	0.10427	0.12997	0.25616	0.17948	0.091281	0.10447	0.0823	0.17594	0.13602	0.36832	0.34983	0.084954	0.11073	0.1256	-2.2521	-3.0292	-2.8646	-2.5375	-2.95	-2.7792	-2.6771	-2.95	-2.5312	-2.9354	-3.0667	-2.6896	-3.1083	-2.8167	-2.8354	-3.1437	285.833	285.141	202.814	261.358	433.041	275.753	442.647	339.091	216.454	178.163	421.215	404.160	369.799	400.858	366.897	458.718	0.0012468	0.00023388	7.6775e-05	470.32	1.44e-06	2.0812e-06	630.8	122.84	2.7385e-06	2.972e-06	228.66	83.902	35.347	12.869	2.0832e-06	39.769	4.4937e-05	1.5842e-05	4.3746e-06	443.25	1.8363e-07	1.7599e-07	609.98	118.09	1.824e-07	1.7168e-07	219.7	80.713	33.832	12.399	1.8314e-07	38.543	382.802	252.304	272.680	181.996	312.542	334.551	182.008	187.611	318.424	306.226	187.639	192.103	191.471	196.646	308.378	195.449	-8191	255	
1437.450	1	1	0	0	0.17277	0.14213	0.060729	0.13416	0.24712	0.071465	0.28208	0.084215	0.1808	0.14847	0.25445	0.30075	0.12671	0.27906	0.058663	0.1952	-2.2	-2.8312	-3.0062	-2.6167	-3.0458	-2.7917	-2.975	-3.1646	-2.9667	-2.7229	-3.0208	-2.8896	-3.0229	-2.8229	-2.7521	-3.0667	251.321	285.206	245.688	230.860	385.058	378.007	478.089	464.158	366.163	455.907	222.637	421.512	295.194	502.843	235.188	178.556	0.0012288	0.00025791	6.2602e-05	470.68	2.3724e-06	1.6729e-06	633.35	123.14	2.2246e-06	1.4167e-06	230	84.474	35.587	12.799	2.7922e-06	39.663	4.4872e-05	1.6375e-05	4.5187e-06	444.59	1.6983e-07	1.64e-07	612.14	118.61	1.902e-07	1.7007e-07	221.54	81.231	34.078	12.425	1.8038e-07	38.447	382.151	261.130	264.639	182.091	281.101	322.780	182.179	187.264	318.880	316.335	187.798	192.230	191.562	196.947	293.909	195.912	-8191	255	
1437.546	1	1	0	0	0.3323	0.066509	0.12267	0.23263	0.17134	0.057701	0.40022	0.24754	0.18404	0.19915	0.072429	0.263	0.15648	0.10928	0.091702	0.18062	-2.2812	-2.7125	-3	-2.7458	-2.8604	-3.0542	-2.85	-3.025	-2.8271	-2.7896	-3.0292	-2.7708	-2.9188	-3.1354	-2.6604	-3.0312	361.334	248.328	350.035	185.427	193.008	497.380	497.869	403.836	391.175	410.831	352.363	410.145	467.783	241.529	482.258	483.320	0.0011617	0.0001457	7.1945e-05	470.74	2.869e-06	2.0411e-06	624.86	120.78	3.2281e-06	1.6197e-06	223.89	82.542	34.716	12.435	3.5667e-06	38.458	4.4187e-05	1.6159e-05	4.2452e-06	443.74	1.7867e-07	1.531e-07	606.03	116.82	1.8987e-07	1.606e-07	216.21	78.963	33.173	12	1.7853e-07	37.22	382.194	307.087	236.038	182.298	295.257	326.353	182.156	187.186	311.040	309.324	187.440	192.284	191.811	196.544	294.886	195.603	-8191	255	
1437.665	1	1	0	0	0.11179	0.18044	0.10259	0.15519	0.18539	0.054523	0.20704	0.11395	0.090423	0.084489	0.17939	0.062075	0.18288	0.36542	0.25218	0.31712	-2.4437	-2.7021	-3.0667	-2.9813	-2.9375	-3.0042	-2.8104	-2.9792	-2.7812	-2.8542	-3.1188	-2.8521	-2.9917	-3.0042	-2.7062	-3.1396	515.353	252.693	227.348	222.151	375.071	274.489	501.217	435.150	191.456	495.176	217.899	310.878	220.248	422.055	246.871	440.726	0.0011419	0.00022336	8.1574e-05	471.83	2.1099e-06	2.5508e-06	621.71	120.17	3.1477e-06	2.7981e-06	224.27	81.724	34.796	12.397	4.2407e-06	38.49	4.2455e-05	1.6159e-05	4.182e-06	441.87	1.7024e-07	1.6768e-07	603.07	116.68	1.9221e-07	1.6159e-07	216.34	78.891	33.244	12.064	1.8807e-07	37.412	382.501	249.527	271.975	182.087	310.269	319.446	182.296	187.534	314.625	346.373	187.059	192.189	191.419	196.825	303.749	196.030	-8191	255	
1437.761	1	1	0	0	0.090116	0.23739	0.093751	0.17583	0.1973	0.09881	0.009054	0.055214	0.1016	0.073584	0.19292	0.0244	0.13305	0.13625	0.31444	0.14449	-2.6333	-2.7208	-3.0417	-2.6292	-2.7021	-3.0083	-2.6479	-2.9813	-2.7521	-2.7083	-3.1167	-2.7167	-2.8625	-3.0167	-2.6375	-2.9125	392.033	476.817	477.352	250.355	332.273	428.887	440.496	308.325	308.469	251.783	435.800	487.181	189.562	391.210	252.961	485.797	0.0012236	0.00017	6.3559e-05	472.3	2.9089e-06	3.306e-06	624.62	121.62	3.8452e-06	1.9934e-06	226.42	82.881	35.093	12.604	4.0378e-06	39.287	4.4216e-05	1.565e-05	4.3388e-06	442.3	1.6966e-07	1.7107e-07	606.3	117.31	1.9377e-07	1.6912e-07	217.72	79.825	33.513	12.246	1.8778e-07	38.095	381.104	251.467	242.774	182.319	316.350	306.324	182.323	187.394	306.575	345.368	186.943	191.745	191.650	196.571	302.035	195.998	-8191	255	
#DATA ENDS
