BOXY.EXE: ISS Imagent and Oximeter Data Acquisition Program Version 0.80
Ascii Record File

#ACQ INFORMATION
2  Detector Channels 
16  External MUX Channels 
1  Auxiliary Channels 
5000  Waveform (CCF) Frequency (Hz)
1  Waveforms Skipped 
30  Waveforms Averaged 
1  Cycles Averaged 
16  Acquisitions per Waveform 
10.0806  Updata Rate (Hz) 

#FILE INFORMATION
TRUE -- External MUX Channel results are PARSED.
FALSE -- AC DC and Phase are NOT grouped.
TRUE -- Companion Program Settings File CREATED.
FALSE -- AC data not excluded
FALSE -- DC data not excluded
FALSE -- Phase data not excluded
FALSE -- Auxillary Chn. data not excluded
Tab delimiters

#CALIBRATION STATE
TRUE -- Waveform Calibration Values APPLIED.


#AUX CALIBRATION VALUES
Val Type	aux-1	

Term	1.0000e+00	
Factor	0.0000e+00	


#WF CALIBRATION VALUES
A = Detector Channel
Val Type	A-AC1	A-AC2	A-AC3	A-AC4	A-AC5	A-AC6	A-AC7	A-AC8	A-AC9	A-AC10	A-AC11	A-AC12	A-AC13	A-AC14	A-AC15	A-AC16	A-DC1	A-DC2	A-DC3	A-DC4	A-DC5	A-DC6	A-DC7	A-DC8	A-DC9	A-DC10	A-DC11	A-DC12	A-DC13	A-DC14	A-DC15	A-DC16	A-Ph1	A-Ph2	A-Ph3	A-Ph4	A-Ph5	A-Ph6	A-Ph7	A-Ph8	A-Ph9	A-Ph10	A-Ph11	A-Ph12	A-Ph13	A-Ph14	A-Ph15	A-Ph16	

Term	0.00000e+00	0.00000e+00	0.00000e+00	0.00000e+00	0.00000e+00	0.00000e+00	0.00000e+00	0.00000e+00	0.00000e+00	0.00000e+00	0.00000e+00	0.00000e+00	0.00000e+00	0.00000e+00	0.00000e+00	0.00000e+00	0.00000e+00	0.00000e+00	0.00000e+00	0.00000e+00	0.00000e+00	0.00000e+00	0.00000e+00	0.00000e+00	0.00000e+00	0.00000e+00	0.00000e+00	0.00000e+00	0.00000e+00	0.00000e+00	0.00000e+00	0.00000e+00	0.00000e+00	0.00000e+00	0.00000e+00	0.00000e+00	0.00000e+00	0.00000e+00	0.00000e+00	0.00000e+00	0.00000e+00	0.00000e+00	0.00000e+00	0.00000e+00	0.00000e+00	0.00000e+00	0.00000e+00	0.00000e+00	
Factor	1.00000e+00	1.00000e+00	1.00000e+00	1.00000e+00	1.00000e+00	1.00000e+00	1.00000e+00	1.00000e+00	1.00000e+00	1.00000e+00	1.00000e+00	1.00000e+00	1.00000e+00	1.00000e+00	1.00000e+00	1.00000e+00	1.00000e+00	1.00000e+00	1.00000e+00	1.00000e+00	1.00000e+00	1.00000e+00	1.00000e+00	1.00000e+00	1.00000e+00	1.00000e+00	1.00000e+00	1.00000e+00	1.00000e+00	1.00000e+00	1.00000e+00	1.00000e+00	X	X	X	X	X	X	X	X	X	X	X	X	X	X	X	X	

B = Detector Channel
Val Type	B-AC1	B-AC2	B-AC3	B-AC4	B-AC5	B-AC6	B-AC7	B-AC8	B-AC9	B-AC10	B-AC11	B-AC12	B-AC13	B-AC14	B-AC15	B-AC16	B-DC1	B-DC2	B-DC3	B-DC4	B-DC5	B-DC6	B-DC7	B-DC8	B-DC9	B-DC10	B-DC11	B-DC12	B-DC13	B-DC14	B-DC15	B-DC16	B-Ph1	B-Ph2	B-Ph3	B-Ph4	B-Ph5	B-Ph6	B-Ph7	B-Ph8	B-Ph9	B-Ph10	B-Ph11	B-Ph12	B-Ph13	B-Ph14	B-Ph15	B-Ph16	

Term	0.00000e+00	0.00000e+00	0.00000e+00	0.00000e+00	0.00000e+00	0.00000e+00	0.00000e+00	0.00000e+00	0.00000e+00	0.00000e+00	0.00000e+00	0.00000e+00	0.00000e+00	0.00000e+00	0.00000e+00	0.00000e+00	0.00000e+00	0.00000e+00	0.00000e+00	0.00000e+00	0.00000e+00	0.00000e+00	0.00000e+00	0.00000e+00	0.00000e+00	0.00000e+00	0.00000e+00	0.00000e+00	0.00000e+00	0.00000e+00	0.00000e+00	0.00000e+00	5.86857e+01	-1.40275e+02	-1.27777e+02	-1.81956e+02	-7.36887e+01	-5.69442e+01	-1.56028e+02	-1.62015e+02	-8.09294e+01	-6.35191e+01	-1.71357e+02	-1.71405e+02	-1.82318e+02	-1.76945e+02	-7.95853e+01	-1.50279e+02	
Factor	5.16763e-05	1.33635e-04	4.06010e-05	4.21718e-01	1.38256e-06	1.58296e-06	1.58406e-01	5.39367e-02	1.66385e-06	1.37896e-06	8.47905e-02	2.81246e-02	2.35851e-02	8.08168e-03	1.69326e-06	1.20261e-02	1.73923e-06	1.81185e-06	5.05000e-07	2.07507e-01	1.98338e-08	1.98293e-08	7.56450e-02	2.72911e-02	1.96927e-08	1.98476e-08	4.12586e-02	1.36837e-02	1.19586e-02	4.10842e-03	1.97406e-08	5.88837e-03	X	X	X	X	X	X	X	X	X	X	X	X	X	X	X	X	



#DISTANCE SETTINGS
A = Detector Channel
A-1	A-2	A-3	A-4	A-5	A-6	A-7	A-8	A-9	A-10	A-11	A-12	A-13	A-14	A-15	A-16	

2.5000e+00	3.0000e+00	2.5000e+00	3.0000e+00	2.0000e+00	3.0000e+00	1.5000e+00	3.0000e+00	3.0000e+00	3.0000e+00	3.0000e+00	3.0000e+00	3.0000e+00	3.0000e+00	1.5000e+00	3.0000e+00	

B = Detector Channel
B-1	B-2	B-3	B-4	B-5	B-6	B-7	B-8	B-9	B-10	B-11	B-12	B-13	B-14	B-15	B-16	

1.0000e+01	1.0000e+01	1.0000e+01	1.4400e+00	1.0000e+01	1.0000e+01	1.5100e+00	1.9400e+00	1.0000e+01	1.0000e+01	1.9900e+00	2.4900e+00	2.4100e+00	2.9000e+00	1.0000e+01	2.9800e+00	




#DATA BEGINS
time	group	step	mark	flag	A-AC1	A-AC2	A-AC3	A-AC4	A-AC5	A-AC6	A-AC7	A-AC8	A-AC9	A-AC10	A-AC11	A-AC12	A-AC13	A-AC14	A-AC15	A-AC16	A-DC1	A-DC2	A-DC3	A-DC4	A-DC5	A-DC6	A-DC7	A-DC8	A-DC9	A-DC10	A-DC11	A-DC12	A-DC13	A-DC14	A-DC15	A-DC16	A-Ph1	A-Ph2	A-Ph3	A-Ph4	A-Ph5	A-Ph6	A-Ph7	A-Ph8	A-Ph9	A-Ph10	A-Ph11	A-Ph12	A-Ph13	A-Ph14	A-Ph15	A-Ph16	B-AC1	B-AC2	B-AC3	B-AC4	B-AC5	B-AC6	B-AC7	B-AC8	B-AC9	B-AC10	B-AC11	B-AC12	B-AC13	B-AC14	B-AC15	B-AC16	B-DC1	B-DC2	B-DC3	B-DC4	B-DC5	B-DC6	B-DC7	B-DC8	B-DC9	B-DC10	B-DC11	B-DC12	B-DC13	B-DC14	B-DC15	B-DC16	B-Ph1	B-Ph2	B-Ph3	B-Ph4	B-Ph5	B-Ph6	B-Ph7	B-Ph8	B-Ph9	B-Ph10	B-Ph11	B-Ph12	B-Ph13	B-Ph14	B-Ph15	B-Ph16	aux-1	digaux	

1410.559	1	1	0	256	0.20105	0.048078	0.33501	0.31765	0.21244	0.26666	0.15978	0.24645	0.29379	0.37217	0.016988	0.08903	0.05553	0.073139	0.1327	0.38405	-2.5375	-2.6521	-2.9354	-2.6917	-2.8729	-3.0125	-2.6646	-2.8542	-2.875	-2.6521	-3.0771	-3	-2.8292	-3.1688	-2.7104	-3.025	451.734	183.759	373.538	409.823	172.035	349.533	400.462	514.400	170.183	293.703	263.679	293.157	403.528	375.655	244.633	244.092	0.0011818	0.00020842	7.2752e-05	502.48	2.2712e-06	2.1464e-06	657.22	126.21	3.5979e-06	2.1301e-06	236.25	85.791	36.727	13.153	3.2215e-06	39.52	4.7727e-05	2.2452e-05	5.8633e-06	476.03	2.5218e-07	2.1639e-07	638.25	121.62	2.43e-07	2.1464e-07	227.22	82.424	35.192	12.727	2.5486e-07	38.152	384.414	263.849	263.341	181.783	348.975	332.594	181.912	187.153	273.175	321.282	186.962	191.807	191.514	196.220	310.702	195.288	-8191	255	
1410.655	1	1	0	0	0.12969	0.33193	0.39115	0.35585	0.2254	0.15282	0.24817	0.12852	0.1563	0.097819	0.27524	0.1809	0.25384	0.051776	0.13482	0.236	-2.5146	-2.8292	-2.9104	-2.7375	-2.9375	-2.9562	-3.0583	-2.7646	-3.0583	-2.7687	-2.9417	-2.9646	-2.7438	-3.1646	-2.9938	-2.8708	423.376	338.834	334.626	217.150	406.650	298.393	443.567	213.004	196.497	182.062	256.652	236.523	389.383	401.609	256.044	496.274	0.0012042	0.0002406	8.8699e-05	504.83	1.7473e-06	2.516e-06	661.59	127.13	3.9522e-06	2.9619e-06	238.41	86.615	36.884	13.1	2.1428e-06	39.767	4.9916e-05	2.1633e-05	6.2736e-06	475.42	2.3933e-07	2.2147e-07	640.8	122.55	2.5547e-07	2.2862e-07	228.78	82.959	35.284	12.687	2.2916e-07	38.526	384.594	248.476	264.609	182.015	340.216	330.105	181.949	187.274	295.743	331.776	186.999	191.792	191.543	196.083	280.872	195.121	-8191	255	
1410.776	1	1	0	0	0.26223	0.1478	0.33286	0.19462	0.090987	0.10642	0.23687	0.044879	0.22956	0.24547	0.15283	0.39814	0.10822	0.13402	0.19349	0.19438	-2.6625	-2.8708	-2.9792	-2.9729	-2.6396	-3.0563	-2.9167	-2.7562	-3.0563	-2.7792	-3.0604	-3.0354	-2.9292	-3.0521	-2.8625	-2.9125	484.136	300.463	343.016	222.850	228.835	466.067	473.931	362.561	503.231	407.477	449.513	526.982	227.133	342.937	188.364	202.559	0.0012589	0.00024732	7.5677e-05	508.77	2.6905e-06	3.022e-06	662.82	127.95	3.9207e-06	2.2688e-06	240.39	86.494	36.929	13.227	3.5399e-06	39.7	5.1409e-05	2.1625e-05	6.2315e-06	479.82	2.3772e-07	2.2246e-07	643.95	123.44	2.5026e-07	2.3544e-07	230.54	83.531	35.548	12.831	2.3471e-07	38.431	382.024	257.262	273.136	181.478	300.431	337.241	182.088	187.439	292.406	333.479	187.019	191.749	191.393	196.628	283.708	195.713	-8191	255	
1410.872	1	1	0	0	0.17814	0.11333	0.2132	0.24659	0.27963	0.052338	0.13275	0.13199	0.16673	0.29989	0.1976	0.01778	0.38572	0.075684	0.041048	0.31169	-2.5417	-2.7042	-2.9854	-2.9167	-2.8729	-3.1292	-2.8479	-2.8667	-2.8875	-2.8083	-2.9667	-3.0646	-2.6208	-3.0646	-2.7042	-3.0854	337.188	353.962	382.665	461.916	370.765	459.430	436.986	414.282	217.309	507.794	415.365	520.091	474.654	204.777	502.176	437.226	0.0011924	0.00018092	7.2654e-05	505.06	1.9288e-06	3.9429e-06	661.26	126.16	3.2612e-06	2.135e-06	235.54	84.864	35.931	12.752	3.0902e-06	38.654	4.9148e-05	2.1478e-05	5.6297e-06	476.54	2.3863e-07	2.1796e-07	640.15	121.97	2.384e-07	2.2635e-07	226.08	81.617	34.674	12.398	2.38e-07	37.352	382.733	237.510	239.116	181.770	310.530	325.284	182.096	187.136	280.359	320.799	186.577	191.586	191.466	196.572	286.845	195.704	-8191	255	
1410.968	1	1	0	0	0.23454	0.07586	0.10032	0.18606	0.057034	0.19207	0.16769	0.16585	0.14537	0.10029	0.034129	0.20486	0.15513	0.29869	0.091181	0.047442	-2.7417	-2.75	-2.8	-3.05	-2.9437	-2.95	-3.0687	-2.6979	-3.1708	-2.8438	-2.7979	-3.225	-2.6792	-3.0563	-2.9625	-2.8208	393.031	349.964	367.213	286.575	183.390	465.114	510.667	359.320	197.717	298.258	200.299	520.156	470.649	321.832	254.498	214.262	0.0011955	0.00027142	4.819e-05	505.34	2.5075e-06	3.995e-06	660.67	125.6	2.4486e-06	2.7367e-06	233.37	84.603	36.019	12.79	1.7217e-06	38.506	4.7314e-05	2.1414e-05	5.716e-06	474.81	2.2098e-07	2.1184e-07	637.33	121.08	2.432e-07	2.2688e-07	225.01	81.145	34.462	12.303	2.2632e-07	37.357	381.950	244.943	249.991	181.957	301.759	319.573	182.045	187.035	288.518	310.876	187.129	191.555	191.229	196.598	314.242	195.766	-8191	255	
1411.064	1	1	0	0	0.2219	0.25886	0.012724	0.32805	0.13698	0.18034	0.21017	0.2043	0.18854	0.080398	0.023506	0.13717	0.15625	0.22283	0.16041	0.057838	-2.6146	-2.9125	-2.8688	-3.0812	-2.9125	-3.0187	-3.0396	-2.8729	-3.0604	-2.9021	-2.8604	-3.1979	-2.6833	-2.8771	-3.0438	-2.7167	221.309	388.661	415.201	215.562	308.465	296.968	439.926	424.831	286.739	190.931	192.858	491.428	422.600	498.378	349.142	358.422	0.0011632	0.00033154	9.1773e-05	505.7	2.3232e-06	1.6526e-06	661.1	125.62	3.279e-06	3.2173e-06	235.73	84.789	36.132	12.935	2.7521e-06	38.916	4.6934e-05	2.0561e-05	5.6613e-06	476.05	2.3185e-07	2.163e-07	640.63	121.25	2.309e-07	2.1258e-07	227.49	81.642	34.676	12.474	2.1077e-07	37.71	382.583	256.643	234.125	182.009	289.567	347.547	181.913	187.068	297.339	310.659	187.061	191.941	191.451	196.181	325.325	195.649	-8191	255	
1411.183	1	1	0	0	0.13912	0.19672	0.25727	0.23373	0.21562	0.20945	0.3121	0.036312	0.12817	0.3771	0.31304	0.22389	0.20769	0.31462	0.277	0.11527	-2.6875	-2.9083	-2.6958	-3.0333	-2.8542	-3.0479	-3.1312	-2.725	-3.0708	-2.9708	-2.8354	-3.2146	-2.9146	-2.8688	-3.1271	-2.7146	239.023	219.462	470.947	273.750	305.282	335.633	481.132	246.290	197.288	332.123	502.094	300.097	519.570	502.332	394.296	376.336	0.0011085	0.00028264	6.4008e-05	503.78	2.4195e-06	2.1979e-06	666.24	127.57	3.2871e-06	1.7365e-06	236.88	86.554	36.841	13.193	2.7078e-06	40.111	4.655e-05	1.9209e-05	5.7433e-06	477.51	2.2148e-07	2.1308e-07	644.95	122.65	2.334e-07	2.0042e-07	229.43	82.859	35.173	12.74	2.1813e-07	38.898	382.162	240.025	269.920	181.168	297.663	336.054	182.105	187.299	283.628	319.799	187.083	191.841	191.475	196.545	281.603	195.394	-8191	255	
1411.255	1	1	0	0	0.16539	0.13908	0.12279	0.31609	0.23367	0.091826	0.20381	0.34064	0.15337	0.20027	0.15925	0.12788	0.27599	0.031155	0.11496	0.2979	-2.4354	-2.9229	-2.7896	-3.1417	-2.7958	-2.9958	-3.0042	-2.6813	-2.8563	-3.0792	-2.6917	-2.9792	-2.7417	-2.9062	-2.925	-2.8312	314.150	441.288	173.244	179.323	248.584	477.930	477.794	487.973	281.150	497.645	174.294	502.948	485.478	510.051	291.817	507.871	0.001258	0.0002978	8.9467e-05	504.96	2.1784e-06	2.4262e-06	663.75	127.06	3.345e-06	2.641e-06	238.08	85.873	36.596	12.929	3.4903e-06	39.181	4.9898e-05	1.9202e-05	5.3193e-06	477.69	2.1276e-07	1.9805e-07	644.17	122.73	2.3196e-07	2.0054e-07	229.07	82.492	34.842	12.588	2.0917e-07	37.983	382.751	258.257	270.281	181.838	320.841	329.630	182.147	187.067	304.009	313.591	186.833	191.881	190.981	196.399	312.656	195.602	-8191	255	
1411.351	1	1	0	0	0.37205	0.085528	0.14707	0.23255	0.19249	0.18082	0.22455	0.094272	0.14586	0.062157	0.23348	0.1266	0.14322	0.24738	0.26269	0.06142	-2.6229	-2.8083	-2.5	-3.0667	-2.8979	-2.8354	-3.2146	-2.8146	-3.0812	-2.9688	-2.8063	-2.9021	-2.9583	-2.7812	-2.9813	-2.9458	383.422	202.098	198.268	390.523	250.054	515.837	480.976	457.578	347.563	298.347	201.486	436.001	278.762	343.520	440.468	392.746	0.0011804	0.00029562	0.00010826	503.72	2.9007e-06	3.0114e-06	663.01	126.57	3.8719e-06	2.2016e-06	237.29	85.452	36.188	12.983	2.6386e-06	39.648	4.7039e-05	1.8654e-05	5.3067e-06	474.74	1.9797e-07	1.8987e-07	642.85	122.09	2.1133e-07	1.8963e-07	228.4	82.109	34.736	12.576	1.9593e-07	38.198	381.515	240.608	261.023	182.027	303.179	335.382	182.043	187.524	290.509	334.305	186.809	191.807	191.344	196.418	309.840	195.544	-8191	255	
1411.471	1	1	0	0	0.2814	0.21594	0.0096922	0.26132	0.30726	0.047806	0.23139	0.16517	0.18924	0.099007	0.13702	0.21725	0.070501	0.15375	0.15047	0.055998	-2.6771	-3.0146	-2.6417	-3.0167	-2.8333	-2.6188	-3.2771	-2.9146	-3.0875	-2.9667	-2.7354	-3.1396	-2.8563	-2.6333	-3.0854	-2.8708	493.905	194.705	352.224	406.098	392.901	396.196	431.385	215.450	314.351	170.695	358.977	307.155	518.687	267.450	268.117	206.467	0.0011376	0.000165	8.6103e-05	498.47	2.1064e-06	3.297e-06	667.1	127.31	2.8953e-06	2.7879e-06	238.64	86.233	36.587	13.254	2.9762e-06	40.421	4.5278e-05	1.7413e-05	5.0742e-06	475.37	1.9057e-07	2.0147e-07	645.55	122.93	2.1986e-07	1.8099e-07	229.98	82.977	35.129	12.873	2.1394e-07	39.171	382.238	258.373	254.453	182.334	312.392	353.215	182.011	187.273	304.114	338.735	187.308	191.645	191.527	196.462	296.580	195.454	-8191	255	
1411.568	1	1	0	0	0.10909	0.34362	0.084555	0.13558	0.13459	0.32614	0.17223	0.47709	0.11731	0.037824	0.066374	0.096747	0.12697	0.16065	0.24433	0.19393	-2.5833	-3.0458	-2.7125	-3.0958	-2.9917	-2.9271	-3.2292	-2.6854	-2.8667	-3.0354	-2.6896	-3.0062	-2.8021	-2.8312	-3.0396	-2.8583	482.974	455.434	375.695	471.039	175.804	277.867	458.653	340.420	433.844	503.143	509.999	319.718	452.589	259.486	357.474	224.081	0.0011909	0.00033895	0.00010479	501.56	2.531e-06	2.87e-06	669.55	128.25	4.2098e-06	2.2895e-06	242.94	87.662	37.282	13.73	2.9356e-06	41.537	4.7151e-05	1.7696e-05	5.1826e-06	476.01	1.921e-07	1.8495e-07	648.73	123.88	2.0644e-07	1.8388e-07	232.77	84.47	35.719	13.233	2.104e-07	40.233	384.128	250.680	263.455	181.832	312.885	307.804	182.105	187.149	288.211	337.224	186.964	191.852	191.649	196.244	269.123	195.363	-8191	255	
1411.664	1	1	0	0	0.069862	0.1892	0.097686	0.14429	0.075099	0.19101	0.207	0.07379	0.062004	0.047001	0.03797	0.12429	0.096868	0.061308	0.23185	0.16312	-2.4896	-3.025	-2.7542	-2.8438	-3.0146	-2.7729	-3.2521	-2.9583	-2.9521	-3.0833	-2.6958	-3.0854	-3.1146	-2.7021	-3.0271	-3.0167	369.800	231.989	267.895	218.131	325.814	331.552	420.404	255.938	252.874	375.111	436.474	428.902	298.224	220.656	320.164	456.974	0.0012424	0.00020816	6.3682e-05	509.71	1.9925e-06	1.7699e-06	673.02	129.49	3.4441e-06	2.6285e-06	243.51	88.822	37.557	13.717	3.4891e-06	41.238	4.7463e-05	1.9696e-05	5.394e-06	479.05	1.9032e-07	1.9635e-07	651.82	124.89	2.1215e-07	1.9277e-07	234.3	85.141	35.93	13.268	2.0682e-07	39.98	384.619	264.696	258.901	182.156	319.736	346.151	181.813	187.400	296.738	324.780	187.124	191.767	191.858	196.178	300.352	195.471	-8191	255	
1411.760	1	1	0	0	0.14696	0.072385	0.20458	0.027817	0.31978	0.15927	0.24479	0.18221	0.17266	0.098711	0.087276	0.2419	0.2136	0.094116	0.15695	0.19661	-2.2729	-3.1625	-2.7875	-2.8292	-3.1104	-2.5979	-3.1479	-3.0979	-2.7875	-3.05	-3.0125	-2.9854	-2.9708	-2.7667	-2.9062	-2.9604	263.420	523.452	278.902	234.851	358.789	210.826	527.915	280.461	367.464	394.811	469.772	477.832	313.132	438.079	243.575	404.522	0.0013112	0.00025161	9.2916e-05	504.79	1.246e-06	2.907e-06	670.21	128.42	3.7519e-06	2.0006e-06	238.53	86.677	36.932	13.102	2.5754e-06	39.871	4.8807e-05	1.7235e-05	4.6723e-06	477.34	1.8305e-07	1.8739e-07	648.46	123.77	2.0468e-07	1.7755e-07	230.52	83.237	35.403	12.76	1.9564e-07	38.618	383.107	235.688	282.451	182.044	324.565	329.580	182.071	187.189	295.415	306.051	187.090	191.708	191.501	196.577	320.609	195.709	-8191	255	
1411.856	1	1	0	0	0.016234	0.12355	0.19233	0.15728	0.11549	0.11106	0.14448	0.1504	0.067926	0.30046	0.27433	0.14925	0.049699	0.23544	0.084308	0.18781	-2.3646	-2.9583	-2.8937	-2.9688	-2.9958	-2.7542	-3.1375	-2.975	-2.9021	-3.0375	-2.8292	-2.8604	-3.1417	-2.7062	-3.0667	-3.0917	526.650	301.213	264.097	229.332	244.096	391.213	434.277	200.200	287.353	252.096	494.476	225.610	224.020	321.440	433.064	426.207	0.0012171	0.00028813	6.6868e-05	505.67	2.6359e-06	1.7329e-06	670.96	129.53	2.8796e-06	2.4033e-06	240.36	86.744	36.927	13.37	4.0898e-06	40.476	4.547e-05	1.7986e-05	4.7218e-06	478.16	1.8788e-07	1.909e-07	648.86	124.09	2.0107e-07	1.7743e-07	231.34	83.673	35.481	12.897	1.9963e-07	38.964	380.956	264.875	257.395	181.822	297.442	336.309	182.060	187.361	302.875	308.093	186.680	191.702	191.294	196.464	288.307	195.216	-8191	255	
1411.952	1	1	0	0	0.22326	0.26545	0.24286	0.007272	0.209	0.21434	0.16706	0.11176	0.070042	0.42099	0.11971	0.38731	0.10889	0.023414	0.17836	0.21575	-2.5958	-2.8896	-2.7979	-2.6542	-3.0729	-2.7354	-3.0104	-3.0458	-2.7938	-3.1083	-3.0625	-2.7958	-3.1229	-2.85	-2.7313	-3.0354	465.832	182.099	264.459	193.038	229.824	262.876	445.948	199.231	477.764	171.760	265.900	524.893	230.449	222.458	244.780	430.945	0.0011921	0.00020027	9.1533e-05	504.21	1.7794e-06	2.3554e-06	674.98	128.71	4.9524e-06	2.3844e-06	241.12	87.817	37.63	13.343	4.0527e-06	40.591	4.6068e-05	1.6933e-05	4.7291e-06	478.2	1.9115e-07	1.8867e-07	652.16	124.43	2.165e-07	1.9426e-07	232.35	84.4	35.833	13.049	2.0255e-07	39.453	384.231	263.261	256.222	182.188	303.799	310.379	182.121	187.556	314.537	343.782	186.870	192.325	191.845	196.717	298.463	195.403	-8191	255	
1412.048	1	1	0	0	0.16889	0.16995	0.18436	0.19221	0.057461	0.075363	0.38587	0.15502	0.036803	0.14374	0.18695	0.13295	0.1215	0.14378	0.12724	0.10291	-2.3479	-2.8833	-2.8833	-2.7562	-3.0438	-2.9917	-2.9042	-3.1	-2.7521	-3.1646	-2.9604	-2.5833	-3.1479	-2.8146	-2.8771	-3.1937	446.037	478.390	286.258	468.784	242.461	215.183	389.595	340.086	181.823	234.020	432.515	501.951	226.972	177.474	224.302	183.905	0.0012596	0.00016929	4.6091e-05	510.69	2.4732e-06	2.3565e-06	671.07	129.57	2.3168e-06	3.1584e-06	241.79	88.375	37.679	13.691	3.8172e-06	41.661	4.6865e-05	1.9036e-05	4.8743e-06	480.62	1.8586e-07	1.8412e-07	653.17	125.08	2.1223e-07	1.9674e-07	233.76	85.027	36.196	13.279	1.9913e-07	40.124	382.120	291.122	279.869	182.133	323.208	340.116	182.176	187.027	297.221	337.825	186.691	191.818	191.498	196.316	291.006	195.609	-8191	255	
1412.145	1	1	0	0	0.1319	0.31011	0.16177	0.37211	0.18603	0.1599	0.17793	0.16128	0.11008	0.30802	0.28701	0.2717	0.094027	0.059423	0.32956	0.15313	-2.1875	-3.0833	-3.0375	-2.8521	-3.1208	-2.8792	-2.9833	-3.1292	-2.7438	-3.0208	-3.1396	-2.7917	-2.9875	-2.8146	-2.8875	-3.2562	288.890	283.372	253.451	432.729	355.854	228.869	472.312	473.715	246.612	225.281	525.905	464.808	271.711	521.549	475.324	483.168	0.0012308	0.00025905	9.2634e-05	507.97	2.8255e-06	2.4336e-06	672.33	128.74	4.5395e-06	1.7236e-06	241.17	87.518	36.948	13.183	3.7547e-06	39.819	4.7901e-05	1.8605e-05	4.9143e-06	479.68	1.8966e-07	1.7937e-07	651.17	124.51	2.1477e-07	1.9149e-07	231.62	83.621	35.573	12.833	1.9502e-07	38.528	382.203	252.173	241.776	181.665	321.750	335.499	182.285	186.842	301.482	326.509	186.835	191.649	191.463	196.789	290.934	195.232	-8191	255	
1412.263	1	1	0	0	0.25066	0.13982	0.14096	0.1195	0.12563	0.13311	0.22819	0.29281	0.12235	0.23855	0.43991	0.18754	0.17675	0.37343	0.16304	0.1118	-2.1854	-3.0333	-3.0417	-2.8083	-3.1854	-2.8958	-2.825	-2.9646	-2.8563	-2.7896	-3.0896	-2.8417	-3.1396	-3.1479	-2.6583	-3.2292	407.703	371.245	283.582	481.558	316.203	520.374	502.720	291.988	281.253	500.960	414.966	430.443	343.040	488.008	380.546	222.985	0.0012689	0.00024664	8.9617e-05	504.78	1.8825e-06	2.9404e-06	668.19	127.43	4.0447e-06	2.5359e-06	238.2	85.636	36.834	13.109	3.4398e-06	39.243	4.7796e-05	1.6665e-05	4.8028e-06	477.24	1.8958e-07	1.8689e-07	646.14	122.9	1.9545e-07	1.819e-07	228.26	82.382	35.178	12.687	1.9366e-07	38.155	383.870	236.190	254.053	181.844	277.389	329.938	181.808	187.193	298.545	302.444	186.987	191.678	191.465	196.212	295.187	195.528	-8191	255	
1412.360	1	1	0	0	0.17569	0.12923	0.27885	0.11921	0.19661	0.25644	0.098587	0.10215	0.10651	0.13995	0.25525	0.064059	0.18528	0.30178	0.077519	0.031035	-2.3604	-2.9083	-3.0229	-2.8583	-3.0625	-3.1146	-2.7458	-3.025	-2.8625	-2.8708	-3.2917	-2.7375	-3.0208	-2.9188	-2.6542	-3.3396	265.926	362.224	286.137	428.025	278.148	410.435	496.512	430.341	250.812	325.081	492.707	189.132	421.191	233.842	432.284	185.149	0.001237	0.00024087	4.9056e-05	506.05	2.1022e-06	2.7055e-06	668.81	127.96	2.1743e-06	2.248e-06	238.41	87.198	37.194	13.223	3.6123e-06	39.822	4.6173e-05	1.7722e-05	4.3914e-06	479.06	2.0437e-07	1.7987e-07	647.99	123.45	1.9931e-07	1.7755e-07	230.17	83.196	35.525	12.805	2.0423e-07	38.599	384.614	244.667	244.519	181.739	335.236	351.954	181.975	187.135	306.164	303.192	187.373	191.689	191.548	196.513	307.380	195.566	-8191	255	
1412.456	1	1	0	0	0.1686	0.13766	0.18808	0.25354	0.12693	0.070219	0.29748	0.1951	0.015986	0.29516	0.28634	0.021697	0.050736	0.085055	0.18624	0.14977	-2.4292	-2.7417	-3.3104	-2.675	-2.95	-3.1813	-2.75	-3.0396	-2.8937	-2.8479	-3	-2.9708	-2.8646	-3.1375	-2.9	-3.1958	493.270	375.612	267.750	522.493	384.938	455.300	385.969	426.772	337.210	343.028	520.513	271.346	338.124	397.462	432.506	200.976	0.0012705	0.00022677	8.1151e-05	508.76	3.1568e-06	3.0147e-06	669.35	129.21	4.4429e-06	2.7136e-06	241.23	87.628	37.323	13.491	2.1976e-06	40.64	4.6651e-05	1.7579e-05	4.707e-06	479.3	2.0073e-07	1.8916e-07	649.44	124.45	2.1092e-07	1.828e-07	231.96	84.273	35.868	13.068	1.958e-07	39.423	383.193	245.125	256.380	181.812	299.455	344.509	182.006	187.231	293.901	320.921	187.468	192.026	191.860	196.579	322.226	195.571	-8191	255	
1412.552	1	1	0	0	0.19305	0.12194	0.18266	0.13999	0.075009	0.25442	0.15803	0.19452	0.05717	0.11587	0.25465	0.18267	0.11788	0.1629	0.044464	0.028	-2.5167	-2.8521	-2.9313	-2.7062	-3.0208	-3.125	-2.8187	-2.9417	-2.9562	-2.7771	-3.1312	-3.0042	-2.8292	-3.0979	-2.7333	-3.1292	174.210	500.793	250.124	308.964	314.833	268.209	519.289	307.967	293.449	182.775	507.715	185.324	457.635	479.260	370.212	440.035	0.0013553	0.00027957	5.2633e-05	510.32	1.3616e-06	2.0503e-06	674.8	129.38	3.7097e-06	1.8476e-06	242.3	87.865	37.349	13.372	4.0191e-06	40.125	4.784e-05	1.8394e-05	4.9017e-06	482.08	1.8189e-07	1.7086e-07	654.52	125.18	2.144e-07	1.7697e-07	232.69	84.331	35.928	12.983	2.0526e-07	38.939	383.651	261.345	263.420	182.109	301.813	351.599	181.995	187.042	294.328	327.594	186.727	191.619	191.389	195.744	287.916	195.496	-8191	255	
1412.648	1	1	0	0	0.07836	0.14771	0.096458	0.31863	0.12929	0.21774	0.26379	0.082554	0.26872	0.18031	0.023673	0.19415	0.308	0.069659	0.1723	0.37781	-2.6937	-2.575	-3.1833	-2.7417	-2.9479	-3.0625	-2.8688	-2.9271	-3.0167	-2.8792	-2.9771	-3.0417	-2.8229	-3.0062	-2.8354	-2.9688	357.906	470.827	216.680	527.675	434.160	494.465	483.191	510.996	427.171	186.334	263.130	445.468	203.463	377.918	351.093	518.409	0.0012066	0.00028043	7.8398e-05	507.96	1.8465e-06	3.5906e-06	671.78	128.85	1.7822e-06	1.6378e-06	238.24	86.444	36.657	13.263	4.0692e-06	39.35	4.389e-05	1.7639e-05	4.707e-06	479.78	1.9297e-07	1.8297e-07	648.9	123.97	2.0304e-07	1.9504e-07	228.9	82.734	35.376	12.809	1.9009e-07	38.251	382.844	263.965	242.966	181.868	296.563	342.839	181.949	187.419	306.322	340.704	186.912	191.377	191.479	196.221	302.263	195.541	-8191	255	
1412.744	1	1	0	0	0.22148	0.12676	0.19535	0.25375	0.24886	0.22551	0.13379	0.0012638	0.203	0.19293	0.24416	0.1444	0.24779	0.19811	0.35361	0.070374	-2.5458	-2.6708	-2.95	-2.9958	-2.7687	-3.3375	-2.8458	-3.0563	-2.9458	-2.9125	-3.0917	-3.0583	-2.7188	-3.1479	-2.8563	-2.8688	491.825	485.560	346.923	488.128	493.548	215.979	522.934	180.000	283.631	389.156	354.280	492.816	259.639	241.472	429.803	391.325	0.0012327	0.00037012	9.0974e-05	510.25	1.6454e-06	2.953e-06	667.58	127.79	4.1454e-06	2.4898e-06	238.14	86.624	37.482	13.378	4.4099e-06	40.249	4.6724e-05	1.8451e-05	5.0931e-06	478.69	1.8648e-07	1.8503e-07	646.82	123.31	2.0813e-07	1.7921e-07	229.61	83.132	35.713	12.94	1.8527e-07	38.731	383.812	262.878	273.011	181.707	301.399	319.971	182.057	186.821	281.199	332.533	186.917	191.802	191.623	196.452	303.293	195.406	-8191	255	
1412.865	1	1	0	0	0.26388	0.078046	0.093647	0.063818	0.085983	0.24287	0.1451	0.16816	0.089494	0.30193	0.11377	0.13295	0.04247	0.042042	0.1839	0.087458	-2.4958	-2.8458	-3.0062	-2.9417	-2.7896	-3.1583	-2.95	-2.9208	-3.1271	-2.7604	-3.0583	-3.0021	-2.8417	-3.2062	-2.8417	-2.95	327.457	252.818	314.814	202.324	199.849	420.116	486.564	195.980	199.136	320.396	509.480	285.775	418.239	336.404	265.700	300.658	0.0012105	0.0003745	6.3252e-05	511.95	2.5826e-06	8.7293e-07	668.9	129.16	4.2578e-06	2.9859e-06	242.92	88.101	37.68	13.644	3.0987e-06	41.037	4.4912e-05	1.7824e-05	4.6449e-06	480.34	1.871e-07	1.771e-07	649.79	124.65	2.0739e-07	1.8868e-07	232.48	84.621	36.098	13.248	2.0004e-07	39.745	384.120	242.731	273.553	181.396	304.678	340.956	181.819	187.319	275.094	302.656	186.927	191.696	191.560	196.711	287.662	195.500	-8191	255	
1412.959	1	1	0	0	0.14778	0.099967	0.063445	0.07632	0.32741	0.17865	0.17578	0.23407	0.16486	0.099019	0.19052	0.42428	0.16091	0.27701	0.17616	0.1125	-2.6688	-2.7458	-2.8333	-3.0146	-2.6312	-3.1479	-2.7604	-2.9125	-2.8917	-2.7375	-2.9979	-3.025	-2.7729	-2.8375	-2.7958	-2.8958	412.156	524.341	387.320	453.055	237.078	435.669	377.550	199.699	219.237	403.843	505.580	476.964	333.214	507.869	186.994	179.112	0.0012977	0.0002832	8.0338e-05	511.53	2.7396e-06	2.7054e-06	676.69	130.3	3.0099e-06	1.9029e-06	244.54	88.839	38.042	13.806	3.365e-06	41.4	4.7695e-05	1.8454e-05	4.9574e-06	483.11	1.9487e-07	1.9871e-07	655.79	126.23	2.0923e-07	1.9186e-07	235.26	85.5	36.583	13.357	2.0238e-07	40.024	383.267	263.642	274.078	181.654	315.477	315.379	182.016	187.354	295.622	291.138	187.174	191.610	191.415	196.762	304.281	195.731	-8191	255	
1413.055	1	1	0	0	0.22922	0.12508	0.21935	0.19146	0.067517	0.12915	0.15698	0.11041	0.10267	0.21449	0.095891	0.16246	0.1392	0.016773	0.18432	0.17197	-2.7583	-2.6937	-3.0646	-2.9417	-2.7917	-3.075	-3.2062	-2.6813	-2.9313	-2.8479	-3.0667	-3.1604	-2.7917	-3.1333	-2.9396	-2.6958	298.608	418.598	283.818	452.020	352.803	285.531	528.056	471.053	516.569	176.637	389.915	249.940	195.893	239.260	180.505	316.049	0.0012367	0.00030547	6.289e-05	515.6	2.3836e-06	1.7267e-06	674.19	129.15	3.6372e-06	2.6771e-06	240.92	87.401	37.438	13.388	3.3614e-06	39.935	4.7789e-05	1.7877e-05	4.7901e-06	483.65	1.9706e-07	1.8041e-07	653.6	124.85	2.112e-07	1.8975e-07	231.4	83.781	35.826	12.972	1.8601e-07	38.628	382.073	235.798	275.048	182.143	336.345	330.842	181.990	187.407	309.107	318.719	187.383	191.695	191.762	196.741	277.094	195.497	-8191	255	
1413.129	1	1	0	0	0.16082	0.099532	0.20524	0.32376	0.051493	0.08268	0.14208	0.21081	0.24369	0.256	0.10433	0.055842	0.12206	0.033873	0.092231	0.14119	-2.7625	-2.7313	-2.9083	-3.05	-2.8521	-3.0667	-3.0021	-2.7333	-3.1083	-2.9417	-3.025	-3.2396	-2.8875	-3.0917	-3.1208	-2.725	318.426	371.209	376.126	182.530	173.292	205.365	404.296	169.953	255.352	239.735	211.839	379.371	219.731	211.825	184.437	474.975	0.0012356	0.0002685	7.5479e-05	506.34	2.7574e-06	2.5307e-06	667.42	128.33	2.6895e-06	2.2598e-06	236.25	86.494	37.036	13.33	3.0296e-06	39.556	4.572e-05	1.799e-05	4.969e-06	478.5	1.921e-07	1.8251e-07	646.06	123.49	2.0472e-07	1.7561e-07	227.9	82.72	35.507	12.861	1.8614e-07	38.212	383.762	220.413	265.032	181.993	325.394	353.211	181.722	187.040	292.413	328.035	187.434	191.818	191.625	196.547	265.362	195.623	-8191	255	
1413.248	1	1	0	0	0.12484	0.20024	0.29232	0.12803	0.28342	0.22088	0.28971	0.19029	0.21586	0.15358	0.19403	0.36364	0.24929	0.23527	0.11158	0.21487	-2.6188	-2.725	-2.875	-3.1188	-2.8312	-2.9437	-3.0583	-2.8146	-2.8854	-2.8354	-2.6354	-2.9729	-2.7167	-2.9167	-3.0312	-2.9167	329.459	511.600	199.111	282.816	171.352	428.251	516.299	245.903	183.297	327.136	400.274	493.237	463.550	271.994	312.628	516.935	0.0012158	0.00021307	6.9044e-05	507.18	2.5015e-06	2.5885e-06	668.92	128.25	2.2662e-06	1.8254e-06	239.4	87.274	37.721	13.599	2.6974e-06	40.581	4.6213e-05	1.8126e-05	4.7659e-06	479.78	1.8635e-07	1.7958e-07	648.85	124.22	2.014e-07	1.8954e-07	231.4	83.931	36.054	13.168	1.944e-07	39.299	384.065	224.330	252.762	181.991	319.696	326.963	181.904	187.498	293.814	319.217	186.794	191.553	191.001	196.539	309.255	195.448	-8191	255	
1413.344	1	1	0	0	0.16212	0.20849	0.052102	0.0424	0.1275	0.12203	0.29722	0.11874	0.16976	0.084016	0.051416	0.2034	0.28855	0.238	0.11938	0.20127	-2.6688	-2.8542	-2.9062	-3.0667	-2.6375	-2.9521	-3.0646	-2.7562	-2.9896	-3.0958	-3.0062	-3.2542	-2.6937	-2.9625	-3.2438	-2.8896	462.013	452.874	514.076	492.238	265.681	383.491	386.689	252.849	283.808	255.924	443.158	523.883	220.562	338.518	187.881	451.642	0.0011942	0.0001823	8.1368e-05	509.39	2.9188e-06	4.0646e-06	674.06	130.34	3.6931e-06	1.5187e-06	243.06	88.973	38.483	13.785	3.0598e-06	41.44	4.6593e-05	1.7824e-05	4.9869e-06	483.11	2.0309e-07	2.0408e-07	654.32	126.02	2.0989e-07	1.8467e-07	233.59	85.382	36.638	13.424	2.0082e-07	40.006	384.081	228.601	258.415	181.981	294.195	319.562	181.984	187.362	303.435	299.482	187.076	191.665	191.459	196.375	305.025	195.604	-8191	255	
1413.440	1	1	0	0	0.12148	0.25578	0.19124	0.093723	0.090848	0.33026	0.018424	0.1655	0.10444	0.13938	0.454	0.25801	0.041302	0.17113	0.36999	0.18832	-2.7083	-3.0729	-2.625	-2.9146	-2.8979	-2.7333	-3.1063	-2.7604	-3.05	-3.0229	-2.7854	-3.1167	-2.9354	-2.7188	-3.0333	-2.9938	214.667	392.237	181.720	467.170	280.184	519.681	446.914	464.078	515.611	305.557	478.047	374.179	208.163	269.789	169.080	406.261	0.0013114	0.00033818	8.393e-05	516.06	2.4131e-06	2.4544e-06	677.04	131.77	3.0841e-06	1.9197e-06	246.53	88.927	38.144	13.796	2.8212e-06	40.879	4.8086e-05	1.8341e-05	4.9721e-06	485.92	1.9739e-07	1.8041e-07	657.11	126.98	2.0263e-07	1.7553e-07	236.1	85.7	36.701	13.404	1.8959e-07	39.57	385.454	235.153	257.600	182.044	328.559	309.873	181.877	186.979	293.103	317.113	187.136	191.863	191.499	196.645	291.734	195.413	-8191	255	
1413.536	1	1	0	0	0.17874	0.020956	0.18987	0.22566	0.1011	0.067584	0.20262	0.0025613	0.1637	0.14063	0.19806	0.30284	0.13851	0.27956	0.078467	0.13784	-2.4479	-3.125	-2.7958	-3.0563	-2.9313	-2.7646	-3.0438	-2.7083	-3.0292	-3.0896	-2.8125	-3.2375	-2.9417	-2.5917	-2.95	-2.8458	438.504	187.495	478.241	524.494	186.882	336.762	456.656	237.486	310.171	180.086	207.321	175.494	489.256	223.474	259.828	180.244	0.0012379	0.00027683	3.6289e-05	510.83	2.1555e-06	3.0918e-06	670.01	129.68	4.8662e-06	2.6739e-06	240.63	87.182	37.619	13.568	4.1446e-06	39.757	4.7872e-05	1.6303e-05	4.8996e-06	482.54	1.9557e-07	1.8313e-07	651.68	125.29	2.126e-07	1.9608e-07	230.71	83.837	35.966	13.108	2.0271e-07	38.766	382.360	242.782	231.912	181.852	287.783	348.680	182.098	187.173	277.046	327.463	186.918	191.626	191.557	196.407	311.119	195.137	-8191	255	
1413.657	1	1	0	0	0.14923	0.05627	0.014203	0.089	0.079207	0.22514	0.28227	0.22807	0.18582	0.23132	0.26622	0.20933	0.10107	0.16245	0.29575	0.16378	-2.7104	-3.0167	-2.8021	-2.9521	-3.0292	-2.8417	-3.125	-2.725	-2.925	-2.9437	-2.7917	-3.0021	-2.9813	-2.8042	-3.0187	-2.8771	250.053	423.415	332.649	277.853	418.506	421.300	414.455	496.555	239.524	471.288	464.780	387.781	267.388	175.044	519.987	382.540	0.0012009	0.00027737	5.9723e-05	506.9	2.4412e-06	2.0487e-06	668.72	128.98	3.6316e-06	2.1126e-06	239.64	87.221	37.333	13.456	4.1217e-06	40.107	4.5376e-05	1.7635e-05	4.6281e-06	479.76	1.895e-07	1.821e-07	648.12	124.31	2.039e-07	1.6399e-07	230.36	83.712	35.831	13.003	1.863e-07	38.878	383.192	239.184	276.922	181.959	309.906	333.664	181.527	187.221	297.494	317.376	187.207	191.892	191.658	196.517	321.662	195.421	-8191	255	
1413.728	1	1	0	0	0.19714	0.12227	0.32179	0.22333	0.23337	0.14573	0.2742	0.10287	0.16174	0.079193	0.28122	0.14209	0.12803	0.29064	0.18115	0.10718	-2.3479	-3.1896	-2.7417	-3.0083	-2.9729	-2.9271	-3.1896	-2.8042	-2.8458	-3.25	-2.7354	-2.925	-3.05	-2.6208	-3.1188	-2.8771	195.238	514.802	466.449	409.567	502.806	454.328	481.984	486.231	359.000	484.697	471.714	523.586	450.666	253.653	269.000	454.814	0.0012566	0.00028857	7.708e-05	511.96	3.1371e-06	1.5875e-06	673.65	129.47	3.027e-06	2.814e-06	243.18	88.204	38.076	13.713	3.8739e-06	40.85	4.618e-05	1.6975e-05	5.0816e-06	480.66	1.8107e-07	1.9247e-07	652.58	124.82	2.0037e-07	1.833e-07	233.04	84.622	36.296	13.26	1.8589e-07	39.593	381.646	248.891	246.587	182.208	293.901	338.552	182.065	187.448	285.183	340.198	187.053	192.009	191.463	196.344	298.229	195.252	-8191	255	
1413.825	1	1	0	0	0.04611	0.025507	0.1706	0.22664	0.15448	0.15585	0.25873	0.22133	0.23383	0.10383	0.19644	0.22735	0.19654	0.32001	0.27628	0.17921	-2.4458	-3.0687	-2.6125	-2.8875	-2.9625	-2.7604	-3.1146	-2.9854	-2.7333	-3.0792	-2.9437	-2.9375	-2.9833	-2.7062	-3.1521	-3.0104	480.209	429.343	461.004	371.929	182.629	390.383	389.455	527.086	482.454	258.455	372.126	429.580	463.953	402.266	317.735	468.774	0.0013195	0.00020328	5.8218e-05	509.08	1.6188e-06	2.6728e-06	679.73	131.58	2.9406e-06	3.2012e-06	244.49	89.596	38.637	14.134	4.1864e-06	42.012	4.7669e-05	1.7696e-05	4.5618e-06	482.65	1.8747e-07	1.8284e-07	657.64	126.54	2.1256e-07	1.766e-07	235.65	86.216	36.929	13.643	1.9243e-07	40.686	379.744	246.927	272.178	182.046	292.968	330.705	181.992	187.469	278.872	322.834	187.120	191.940	191.833	196.350	312.917	195.613	-8191	255	
1413.945	1	1	0	0	0.24857	0.023044	0.25652	0.32907	0.29067	0.22046	0.23983	0.17794	0.16222	0.2147	0.091949	0.11247	0.10227	0.17612	0.015226	0.081475	-2.3521	-2.9917	-2.6896	-2.7875	-3.1063	-2.7188	-3.0375	-2.9313	-2.7708	-2.9562	-2.8833	-2.9437	-3.0375	-2.7938	-3.0625	-2.9375	514.065	277.003	475.456	438.995	361.995	375.816	502.827	521.314	202.352	230.971	497.599	352.978	192.645	497.902	184.986	502.392	0.0012653	0.00040156	9.209e-05	514.83	1.3258e-06	2.3401e-06	676	130.25	3.0386e-06	3.1944e-06	241.74	88.548	37.79	13.63	2.8416e-06	40.224	4.7354e-05	1.8171e-05	4.9574e-06	484.72	1.8516e-07	1.8912e-07	655.48	125.62	2.1646e-07	1.721e-07	232.73	84.908	36.242	13.18	1.9078e-07	39.038	383.466	238.942	256.569	181.706	303.815	325.618	181.751	187.283	295.223	312.059	186.952	191.844	191.680	196.119	316.290	195.537	-8191	255	
1414.041	1	1	0	0	0.17491	0.095323	0.2003	0.092871	0.12436	0.066171	0.26784	0.11988	0.30851	0.13741	0.14375	0.27498	0.22352	0.15515	0.21831	0.066499	-2.2542	-2.9646	-2.7958	-2.7479	-3.0083	-2.6917	-2.9104	-3.0979	-2.875	-3.15	-2.875	-2.85	-3.2604	-2.7396	-2.8646	-3.2271	391.062	173.356	424.595	277.180	496.346	351.972	436.194	490.784	345.736	364.128	348.050	495.449	467.352	527.112	523.889	408.633	0.0012802	0.00030316	8.294e-05	508.52	1.6964e-06	2.6595e-06	666.14	128.82	3.6753e-06	1.3247e-06	237.77	87.009	37.366	13.485	2.7365e-06	40.317	4.7282e-05	1.6778e-05	4.726e-06	481.38	1.9152e-07	1.8689e-07	648.47	124.57	2.142e-07	1.9703e-07	229.77	83.673	35.927	13.122	1.8729e-07	39.091	383.057	263.339	261.597	181.485	309.031	340.245	181.923	187.288	282.716	312.149	187.064	191.831	191.293	196.035	300.762	195.358	-8191	255	
1414.137	1	1	0	0	0.12659	0.27983	0.1023	0.32421	0.53118	0.062951	0.1052	0.18137	0.15665	0.25779	0.15116	0.16037	0.039183	0.17982	0.11589	0.096799	-2.2708	-2.9396	-3.0729	-2.7146	-3.075	-2.6646	-3	-3.1021	-2.7188	-3.1146	-3.0521	-3.0042	-3.1354	-2.8292	-2.8708	-3.2958	278.964	500.341	201.119	448.391	339.219	292.758	262.397	494.619	172.901	458.472	453.228	481.345	196.115	351.806	225.626	388.416	0.0012184	0.00023649	6.9961e-05	511.59	2.6414e-06	3.0971e-06	668.86	129.4	2.2783e-06	2.4177e-06	239.89	88.222	37.914	13.824	3.1369e-06	41.018	4.5615e-05	1.702e-05	4.525e-06	481.23	1.8131e-07	1.8363e-07	649.14	124.61	2.0345e-07	1.8342e-07	231.34	84.817	36.407	13.36	1.9662e-07	39.677	385.312	239.961	249.549	181.916	305.100	336.958	181.899	187.203	284.092	328.910	186.944	191.515	191.144	196.570	284.228	195.286	-8191	255	
1414.256	1	1	0	0	0.15452	0.0094067	0.057917	0.1276	0.14569	0.066068	0.051081	0.20807	0.072784	0.16116	0.23143	0.28714	0.11857	0.13969	0.27483	0.028418	-2.375	-2.9604	-2.8604	-2.525	-3.0083	-2.9792	-2.8125	-3.1708	-2.8208	-3.0917	-3.0521	-2.7417	-3.0979	-3.0687	-2.8625	-3.075	515.309	176.574	171.255	197.322	420.808	220.998	272.565	412.691	486.979	211.476	373.007	429.574	194.913	257.428	300.033	518.738	0.0012955	0.00030124	8.6988e-05	514.49	1.9532e-06	2.2851e-06	673.72	130.55	4.4583e-06	2.8883e-06	244.2	89.676	38.798	14.2	3.2244e-06	42.066	4.7539e-05	1.6424e-05	4.6502e-06	483.58	1.7388e-07	1.8458e-07	655.3	126.5	2.0636e-07	1.819e-07	235.58	86.302	37.093	13.676	1.9934e-07	40.688	384.155	235.077	264.693	181.631	318.656	331.322	181.891	187.432	286.440	316.421	186.980	191.635	191.792	196.374	322.666	195.465	-8191	255	
1414.352	1	1	0	0	0.27972	0.097549	0.16176	0.15855	0.19431	0.17617	0.20845	0.17416	0.20818	0.056496	0.20397	0.07613	0.16077	0.05572	0.17723	0.3658	-2.3937	-2.9938	-3.1542	-2.6146	-3.1188	-3.0312	-2.8167	-3.1333	-2.8937	-2.7854	-3	-2.8708	-3.0667	-2.9229	-2.7188	-3.1604	250.407	460.060	376.418	318.654	449.996	214.504	463.392	462.327	476.025	375.296	493.049	313.929	339.384	432.926	369.511	522.589	0.0012282	0.00031515	9.9722e-05	511.68	2.5119e-06	2.9985e-06	676.02	132.64	3.3973e-06	2.1391e-06	243.91	89.679	38.699	13.854	4.337e-06	41.331	4.5676e-05	1.756e-05	4.6197e-06	483.54	1.8574e-07	1.8813e-07	658.73	127.49	2.1215e-07	1.8789e-07	235.51	86.227	36.935	13.491	2.0555e-07	39.98	381.844	237.719	264.541	181.995	328.251	327.174	182.043	187.401	310.266	330.632	187.054	191.530	191.570	196.335	302.180	195.406	-8191	255	
1414.424	1	1	0	0	0.21265	0.26284	0.10834	0.11716	0.36018	0.19042	0.2567	0.13977	0.043158	0.31917	0.26958	0.27488	0.1445	0.14042	0.13693	0.19896	-2.3563	-2.8667	-3.0438	-2.6875	-3.0833	-2.9146	-2.8354	-3.1354	-2.8438	-2.8479	-3.0979	-2.7438	-3.2479	-2.8438	-2.675	-2.9437	391.316	343.153	429.829	279.972	366.514	321.514	382.527	183.207	209.478	400.412	390.207	424.741	489.834	460.651	393.240	527.590	0.0012399	0.00036943	4.3592e-05	508.56	2.7615e-06	2.7182e-06	667.92	129.62	2.4283e-06	1.4797e-06	240.59	88.452	38.049	13.645	3.5155e-06	40.765	4.6937e-05	1.8258e-05	4.1757e-06	481.54	1.9449e-07	1.9077e-07	649.79	125.12	1.9652e-07	1.9277e-07	231.29	84.683	36.441	13.271	1.9346e-07	39.444	382.399	251.630	283.217	181.727	310.547	323.847	181.933	187.322	291.010	308.569	187.270	191.734	191.787	196.126	287.190	195.252	-8191	255	
1414.545	1	1	0	0	0.10472	0.33513	0.21599	0.19053	0.17196	0.083956	0.13012	0.18281	0.081538	0.033135	0.19643	0.12805	0.24531	0.12178	0.080252	0.13633	-2.4229	-2.8896	-3.0563	-2.6896	-2.8604	-2.9667	-2.8917	-3.1667	-2.7958	-2.9667	-3.1229	-2.9417	-3.0646	-3.0083	-2.6521	-3.2146	432.367	411.698	396.688	474.204	456.896	184.068	489.934	243.251	497.891	431.466	528.432	193.777	467.787	172.698	173.592	183.488	0.0012769	0.00022005	7.4536e-05	507.41	2.4784e-06	3.3021e-06	670.72	130.31	3.1928e-06	2.6821e-06	240.99	88.374	38.131	13.647	3.5419e-06	41.101	4.7488e-05	1.8828e-05	4.7744e-06	480.02	1.8669e-07	1.8466e-07	648.84	125.48	2.1633e-07	1.7726e-07	231.89	84.981	36.51	13.312	2.0592e-07	39.658	384.427	242.860	270.453	182.364	314.230	353.365	181.683	187.226	261.674	298.490	187.196	192.032	191.401	196.188	277.057	195.742	-8191	255	
1414.641	1	1	0	0	0.12378	0.19723	0.17218	0.039095	0.21145	0.051745	0.1814	0.073305	0.2363	0.086531	0.062476	0.18367	0.14406	0.15148	0.31222	0.1651	-2.6292	-2.8771	-3.0854	-2.8354	-2.8958	-3.0729	-2.7687	-3.0979	-3.0146	-2.9354	-3.3396	-2.8854	-2.8396	-3.1729	-2.8083	-3.1854	322.498	398.544	500.610	371.814	284.207	325.916	353.063	508.633	427.885	226.104	242.949	355.281	192.632	506.559	399.516	514.283	0.001268	0.00026495	7.354e-05	506.32	1.941e-06	3.9805e-06	669.83	130.85	3.7751e-06	3.1079e-06	242.98	89.178	38.444	13.892	2.0144e-06	41.291	4.7604e-05	1.8111e-05	4.9753e-06	480.84	1.8941e-07	1.94e-07	652.63	126.36	2.2183e-07	2.0406e-07	234.12	85.887	36.817	13.486	2.0711e-07	40.151	385.493	280.256	242.485	181.905	273.165	340.677	181.909	187.261	276.876	303.552	186.997	191.845	191.454	196.577	314.839	195.351	-8191	255	
1414.737	1	1	0	0	0.24765	0.25981	0.030823	0.061065	0.11263	0.25431	0.061422	0.092946	0.088484	0.039422	0.11009	0.28417	0.064229	0.26608	0.18965	0.029378	-2.5604	-2.8146	-2.9271	-2.8354	-2.8854	-3.0187	-2.8396	-3.1333	-3.0167	-2.7125	-3.1	-2.8354	-2.9562	-3.0646	-2.7479	-3.0208	361.310	246.038	342.319	307.758	346.337	510.168	428.608	436.529	529.553	448.945	396.403	524.920	521.920	428.721	244.037	349.581	0.0012593	0.00028455	5.7501e-05	512.39	2.6462e-06	2.9189e-06	673.85	131.26	3.8507e-06	2.8489e-06	244.38	90.105	38.555	14.006	3.5884e-06	41.594	4.8438e-05	1.7816e-05	4.8659e-06	482.55	1.9532e-07	1.8846e-07	653.95	126.46	2.0501e-07	1.9864e-07	235.39	86.162	37.034	13.622	1.9938e-07	40.504	382.987	273.499	221.173	181.971	334.423	354.533	182.020	187.539	288.939	317.892	186.832	191.625	191.444	196.379	315.344	195.517	-8191	255	
1414.833	1	1	0	0	0.12207	0.022239	0.21624	0.1068	0.1389	0.31611	0.05494	0.11173	0.31722	0.17998	0.23039	0.029039	0.12822	0.31258	0.20993	0.12757	-2.5083	-2.6708	-3.0854	-3.0312	-2.6542	-3.0833	-2.9396	-2.9354	-2.9458	-2.9688	-2.9542	-2.9437	-2.8917	-3.1771	-2.8187	-3.1042	279.136	281.862	367.421	509.168	353.432	275.997	519.664	365.876	376.340	239.035	206.486	512.963	522.624	521.814	385.363	462.501	0.0012629	0.00026374	0.00010688	512.09	1.837e-06	2.6267e-06	671.32	131.45	4.9421e-06	2.6793e-06	242.9	88.824	38.19	13.776	2.6327e-06	40.811	4.9072e-05	1.8617e-05	5.1068e-06	481.14	2.0458e-07	1.8792e-07	650.77	126.17	2.0058e-07	1.893e-07	233.65	85.196	36.459	13.334	1.905e-07	39.405	382.690	241.390	281.988	181.654	313.017	325.557	182.140	187.324	289.923	302.581	186.966	191.538	191.412	196.291	283.154	195.427	-8191	255	
1414.952	1	1	0	0	0.05181	0.23285	0.18741	0.26742	0.14204	0.12454	0.25048	0.20135	0.14361	0.093932	0.14184	0.10984	0.21078	0.12902	0.058483	0.22506	-2.8771	-2.8271	-2.8812	-2.8729	-2.8167	-3.1833	-2.9354	-2.8833	-3.1875	-2.8292	-3.0917	-3.0229	-2.6792	-3.1458	-2.8333	-3.0187	352.671	244.919	255.051	510.536	226.667	235.062	299.876	411.042	466.937	286.669	438.291	338.428	239.989	251.059	504.273	336.942	0.0012792	0.0002945	7.7185e-05	511.52	1.1906e-06	3.4891e-06	667.83	129.27	2.3269e-06	2.1463e-06	238.85	87.397	37.763	13.688	2.4302e-06	40.835	4.6557e-05	1.7749e-05	4.6702e-06	479.42	1.8251e-07	1.8908e-07	646.96	124.38	2.0078e-07	1.8512e-07	230.58	84.129	36.267	13.248	2.0316e-07	39.423	383.772	253.026	275.036	181.674	331.471	346.485	181.788	186.883	289.131	311.358	187.238	191.515	191.142	196.017	294.720	195.380	-8191	255	
1415.026	1	1	0	0	0.11931	0.1788	0.11324	0.1885	0.09923	0.19639	0.11533	0.04783	0.24114	0.22605	0.064455	0.23186	0.12985	0.18968	0.095	0.24059	-2.5812	-2.6437	-2.9354	-2.925	-2.6625	-3.2562	-2.9688	-3.0208	-3.1312	-2.7125	-2.9354	-3.1542	-2.7042	-3.0979	-2.8604	-2.9896	424.423	479.041	357.587	198.635	291.822	395.428	524.402	517.555	497.976	463.452	367.550	490.871	245.515	262.709	235.733	347.245	0.0012393	0.00013854	9.2047e-05	508.44	2.382e-06	2.45e-06	670.56	128.88	3.7697e-06	2.7499e-06	241.91	88.166	37.904	13.714	2.5746e-06	40.821	4.7097e-05	1.8281e-05	5.1215e-06	478.36	2.0061e-07	1.778e-07	649.59	124.95	2.1547e-07	1.8979e-07	232.59	84.842	36.302	13.318	1.9946e-07	39.532	381.895	273.960	278.081	181.618	317.590	352.064	181.966	187.357	296.788	326.591	187.160	191.671	191.283	196.177	315.613	195.405	-8191	255	
1415.122	1	1	0	0	0.2147	0.085663	0.076111	0.13068	0.22075	0.027339	0.10008	0.23815	0.14991	0.092744	0.25632	0.046107	0.052278	0.25564	0.27241	0.034622	-2.7833	-2.8063	-2.9896	-2.8917	-2.7667	-2.8833	-3.1417	-2.8063	-3.2646	-2.7604	-3.0729	-3.1729	-2.7917	-3.0083	-2.9604	-2.5917	196.480	393.922	198.800	518.524	325.744	300.285	448.956	506.109	259.666	469.885	262.966	388.722	173.486	437.513	228.096	528.975	0.0012056	0.0002067	6.7621e-05	511.47	1.6143e-06	2.0899e-06	675.18	130.54	3.6573e-06	1.8505e-06	244.23	88.959	38.34	13.92	2.6387e-06	41.614	4.5372e-05	1.7881e-05	4.9879e-06	480.97	2.0491e-07	1.8743e-07	652.79	126.19	2.2761e-07	1.931e-07	234.55	85.576	36.618	13.485	2.0086e-07	40.278	382.407	263.660	260.846	181.869	299.248	348.657	182.196	187.457	301.216	328.756	187.053	191.631	191.375	196.571	286.173	195.447	-8191	255	
1415.218	1	1	0	0	0.1147	0.0084264	0.2683	0.024658	0.19895	0.1502	0.11881	0.18777	0.23038	0.11502	0.19384	0.161	0.19133	0.051246	0.22119	0.25516	-2.6917	-2.7292	-2.9437	-3.1854	-2.8167	-3.0021	-3.1333	-2.7687	-3.0687	-2.7812	-2.8083	-3.1083	-2.7313	-2.8104	-3.1479	-2.6562	506.657	198.793	473.136	520.662	204.585	475.435	404.419	438.577	482.737	397.902	502.725	513.463	195.548	414.681	477.694	473.220	0.001219	0.00030829	4.2623e-05	510.38	3.0243e-06	2.3369e-06	677.29	130.42	3.1747e-06	1.647e-06	244.4	88.585	38.197	13.833	4.0948e-06	41.071	4.7651e-05	1.8047e-05	5.1016e-06	481.91	2.0247e-07	1.9701e-07	656.32	126.24	2.1654e-07	1.7755e-07	234.85	85.411	36.549	13.435	1.9161e-07	39.717	382.874	254.885	253.841	181.962	316.449	319.396	182.114	187.248	262.627	332.979	187.223	191.653	191.332	196.466	290.989	195.615	-8191	255	
1415.337	1	1	0	0	0.35288	0.23372	0.33073	0.22096	0.18901	0.3169	0.23679	0.12637	0.23427	0.085511	0.068985	0.2455	0.060949	0.20651	0.12157	0.26381	-2.5396	-2.8063	-2.7708	-3.1271	-2.6646	-2.8875	-3.0729	-2.7333	-3.2167	-2.925	-2.8021	-3.1771	-2.7792	-2.8896	-2.8521	-2.75	363.155	410.245	328.589	526.104	358.477	193.666	392.359	277.574	512.166	438.847	313.679	512.556	200.080	181.174	218.731	334.615	0.0012752	0.0002762	6.8162e-05	511.2	3.525e-06	2.2114e-06	669.85	129.1	3.9613e-06	1.7567e-06	240	88.069	37.854	13.636	2.715e-06	40.401	4.7267e-05	1.7605e-05	4.9648e-06	480.44	2.0511e-07	1.8648e-07	649.43	124.55	2.0899e-07	1.8467e-07	231.62	84.249	36.239	13.193	1.9794e-07	39.143	381.865	262.965	277.673	181.924	297.203	320.323	182.137	187.559	282.696	345.176	187.185	191.932	191.786	196.515	299.737	195.513	-8191	255	
1415.433	1	1	0	0	0.12884	0.16003	0.26045	0.086809	0.17175	0.099665	0.14738	0.15671	0.2694	0.058845	0.17206	0.039008	0.20545	0.19114	0.24484	0.11555	-2.5625	-2.6708	-2.6542	-3.1458	-2.8604	-2.75	-3.1188	-2.7375	-3.0854	-2.875	-2.6229	-3.1021	-2.8729	-2.8438	-2.8729	-2.8104	404.883	277.340	231.253	462.817	515.594	295.665	377.556	493.939	342.040	297.512	481.425	448.609	206.879	512.175	378.985	198.684	0.0011972	0.00016172	8.4818e-05	505.94	2.0309e-06	3.4725e-06	670.74	129.47	3.4648e-06	2.7428e-06	241.5	88.179	37.65	13.563	3.5392e-06	40.872	4.5452e-05	1.833e-05	5.1689e-06	477.52	2.021e-07	1.8991e-07	649.36	124.98	2.1654e-07	1.8888e-07	232.22	84.541	36.14	13.21	2.0037e-07	39.493	380.958	246.796	240.695	181.489	301.620	324.776	181.897	187.365	275.914	322.874	186.771	191.539	191.487	196.561	311.670	195.524	-8191	255	
1415.529	1	1	0	0	0.11944	0.25002	0.24323	0.23872	0.30959	0.22616	0.062246	0.24825	0.20545	0.15747	0.10735	0.35514	0.23639	0.10177	0.12173	0.082194	-2.5042	-2.9437	-2.7146	-3.0979	-2.7667	-2.9958	-3.2271	-2.5479	-2.9	-3.0062	-2.8708	-3.0062	-2.7708	-2.8667	-3.0146	-2.6271	210.565	364.745	262.945	449.240	317.920	178.406	365.427	515.461	460.124	433.062	456.946	511.588	229.791	178.962	455.613	443.148	0.0012263	0.00033092	6.7021e-05	512.24	2.4051e-06	2.797e-06	669.77	130.36	3.3832e-06	2.1152e-06	242.31	89.112	38.073	13.827	3.2923e-06	41.14	4.735e-05	1.7918e-05	4.9385e-06	481.05	2.19e-07	1.8788e-07	650.64	125.53	2.0841e-07	1.9525e-07	233.79	85.242	36.429	13.37	2.0028e-07	39.883	383.758	256.498	241.947	182.164	301.359	330.486	182.072	187.005	303.397	311.243	187.042	191.655	191.427	196.608	307.176	195.787	-8191	255	
1415.625	1	1	0	0	0.17983	0.18404	0.10865	0.12376	0.19392	0.073007	0.14141	0.074111	0.13332	0.073339	0.21133	0.18858	0.10446	0.2862	0.1128	0.13626	-2.5917	-3.1562	-2.675	-3.1312	-3.0375	-2.8937	-3.2521	-2.9396	-2.9271	-3.2125	-2.8167	-3.2125	-3.0104	-2.8167	-3.0667	-2.8833	372.537	344.977	296.561	280.517	446.615	452.267	243.617	470.510	189.226	175.729	468.764	197.252	372.520	245.952	281.833	214.509	0.0012579	0.00022878	7.6584e-05	511.49	2.2306e-06	2.1398e-06	673.46	130	4.1637e-06	1.1236e-06	243.73	89.445	38.05	13.977	3.5837e-06	41.644	4.7615e-05	1.7254e-05	4.9164e-06	481.1	1.9995e-07	1.8768e-07	653.45	125.86	2.1387e-07	1.9157e-07	234.86	85.869	36.619	13.556	2.0756e-07	40.315	383.278	234.298	266.132	181.612	282.679	340.693	182.071	187.162	305.274	312.009	186.999	191.932	191.628	196.614	288.886	195.496	-8191	255	
1415.721	1	1	0	0	0.26282	0.29051	0.1726	0.32058	0.040145	0.42026	0.11206	0.16848	0.21725	0.30725	0.43195	0.47458	0.41296	0.18674	0.1369	0.18198	-2.2854	-3.0104	-2.7438	-2.9979	-3.0708	-2.7208	-3.1417	-2.8438	-2.8854	-2.9062	-2.9208	-3.0146	-2.9083	-2.725	-3.1396	-2.9	514.679	444.432	479.592	463.462	427.304	432.435	457.649	502.544	340.097	433.011	212.590	221.188	503.207	435.443	270.226	217.840	0.0012869	0.00014507	5.8554e-05	511.54	2.8142e-06	2.7856e-06	672.72	129.25	3.5812e-06	2.6891e-06	240.37	87.577	37.601	13.598	2.8184e-06	40.596	4.9804e-05	1.8032e-05	4.8985e-06	481.31	2.0544e-07	2.0094e-07	652.35	125.52	2.3053e-07	1.9546e-07	231.67	84.19	36.117	13.206	2.0518e-07	39.156	382.464	225.734	264.176	182.189	295.109	338.035	182.099	187.228	279.435	310.681	187.106	191.790	191.301	196.346	304.659	195.440	-8191	255	
1415.817	1	1	0	0	0.06186	0.036886	0.1634	0.044099	0.12758	0.17636	0.30695	0.13209	0.20829	0.19076	0.16769	0.26558	0.21068	0.2017	0.17171	0.084028	-2.6542	-2.9229	-2.8	-3.0625	-3.1771	-2.8021	-3.3104	-3.1271	-2.8563	-3.1646	-2.9958	-3.0771	-3.0354	-2.8396	-3.0958	-2.8917	346.162	172.414	279.016	439.517	268.536	480.591	379.204	368.056	218.439	368.284	451.461	518.557	479.276	506.282	301.930	386.267	0.001193	0.00025702	9.5036e-05	503.06	2.0546e-06	1.7847e-06	667.51	128.6	3.2943e-06	2.0062e-06	238.57	87.595	37.817	13.56	2.6352e-06	40.629	4.7782e-05	1.7677e-05	5.252e-06	477.55	2.078e-07	2.0532e-07	647.21	124.48	2.3644e-07	2.0067e-07	230.29	84.156	36.242	13.207	2.1287e-07	39.264	381.536	250.056	249.723	181.578	304.589	314.915	181.996	187.164	287.428	357.071	186.922	191.703	191.419	196.345	277.418	195.300	-8191	255	
1415.938	1	1	0	0	0.26244	0.067582	0.16688	0.075483	0.26697	0.083754	0.097646	0.072791	0.39713	0.15232	0.17416	0.2477	0.24083	0.14113	0.28891	0.25531	-2.425	-3.1125	-2.8812	-2.9188	-3.0042	-2.5917	-3.1708	-2.925	-2.8479	-3.3042	-2.8083	-2.8667	-2.9625	-2.7583	-2.8688	-2.8854	188.978	364.593	395.525	351.900	222.283	289.381	484.626	449.760	327.278	183.617	257.033	508.729	179.810	177.646	480.745	517.862	0.0012232	0.00023157	6.3275e-05	508.88	1.8962e-06	3.2032e-06	671.07	129.26	1.7472e-06	2.7281e-06	239.61	87.229	37.408	13.661	2.8449e-06	40.511	4.8702e-05	2.0187e-05	5.5781e-06	478.07	2.0226e-07	2.1118e-07	648.04	124.58	2.3278e-07	2.0658e-07	230.91	84.133	35.927	13.163	2.1933e-07	39.236	380.645	242.104	266.445	181.736	321.026	318.551	181.855	187.130	321.988	301.135	186.926	191.554	191.075	196.288	314.570	195.385	-8191	255	
1416.034	1	1	0	0	0.11749	0.076463	0.11114	0.0043527	0.2429	0.11749	0.11904	0.31961	0.11261	0.20078	0.2861	0.1825	0.2702	0.15776	0.13984	0.18906	-2.4313	-3.0979	-2.7938	-2.8854	-3.0938	-2.7104	-3.0604	-3.1271	-2.8729	-3.225	-3.0167	-2.8729	-3.0417	-2.8	-2.9896	-2.9458	484.012	234.890	339.657	190.113	194.622	227.991	407.076	436.377	526.769	212.687	521.470	272.007	481.086	343.565	396.262	451.940	0.0012284	0.0001535	7.3173e-05	509.83	2.9874e-06	2.7884e-06	668.91	129.72	2.1581e-06	2.7965e-06	243.24	88.354	37.807	13.679	3.8362e-06	40.968	4.789e-05	1.9987e-05	5.6486e-06	477.53	2.0111e-07	2.0775e-07	649.52	125	2.3373e-07	2.0613e-07	233.13	84.791	36.174	13.327	2.1838e-07	39.73	380.048	259.833	250.510	181.608	291.041	337.358	182.100	187.388	269.540	332.242	186.934	191.622	190.996	196.721	298.775	195.333	-8191	255	
1416.129	1	1	0	0	0.08672	0.1714	0.1076	0.14745	0.13208	0.084722	0.16081	0.1322	0.13917	0.070767	0.021984	0.23319	0.042852	0.1049	0.12144	0.15237	-2.1646	-2.9396	-2.7292	-2.7333	-3.3292	-2.8208	-3.0167	-3.025	-2.7042	-3.0125	-2.9021	-2.8167	-3.1792	-2.7062	-2.9375	-3.125	182.276	179.342	308.534	387.629	276.934	178.846	507.926	507.351	234.791	190.027	200.335	192.418	496.316	361.241	285.258	408.563	0.0011964	0.00018869	7.6907e-05	508.98	2.677e-06	2.6891e-06	673.3	130.82	3.6534e-06	2.721e-06	242.29	88.135	37.572	13.369	4.6486e-06	40.021	4.7796e-05	1.8707e-05	5.394e-06	479.68	2.0164e-07	1.9119e-07	653.2	125.85	2.1469e-07	1.8677e-07	232.82	84.703	36.05	13.103	1.9872e-07	38.901	381.918	263.403	267.735	182.095	281.161	336.422	181.978	187.344	276.700	344.296	187.132	191.858	191.691	196.368	304.854	195.149	-8191	255	
1416.227	1	1	0	0	0.036817	0.096433	0.23129	0.13602	0.14597	0.25853	0.095139	0.27965	0.16586	0.20898	0.057025	0.10415	0.12989	0.11617	0.093035	0.082333	-2.2792	-2.8937	-2.9104	-2.8854	-3.2083	-2.8646	-2.9437	-3.0729	-2.8229	-3.0292	-2.8917	-2.7417	-3.1771	-2.9375	-2.8812	-3.0479	229.287	347.971	289.209	295.784	515.974	274.164	237.867	389.124	288.683	408.020	258.233	270.403	442.006	503.351	224.394	425.135	0.0012712	0.00020337	4.7821e-05	507.66	3.4813e-06	2.0326e-06	663.87	127.87	2.6796e-06	2.5901e-06	237.16	86.028	36.798	13.345	3.1643e-06	39.911	4.7379e-05	1.8537e-05	5.0395e-06	477.07	1.9007e-07	1.8321e-07	645.2	123.34	2.0833e-07	1.8462e-07	228.37	82.775	35.429	12.954	2.0781e-07	38.544	383.230	240.971	242.408	182.161	333.493	356.286	182.191	186.942	283.130	316.486	187.111	191.905	191.474	196.352	299.271	195.314	-8191	255	
1416.321	1	1	0	0	0.065635	0.088995	0.2081	0.13622	0.06372	0.24045	0.2128	0.10733	0.03548	0.13301	0.15331	0.23039	0.15296	0.17132	0.12849	0.21597	-2.3479	-2.9646	-2.8625	-2.7458	-3.0458	-2.8396	-2.8104	-3.1063	-2.725	-3.1063	-2.9021	-2.6896	-3.0917	-2.8833	-2.8792	-3.3896	455.322	352.541	462.183	512.544	425.548	201.670	340.930	482.824	361.642	236.902	409.903	427.609	294.916	436.022	380.711	455.976	0.0012131	0.00026215	7.6485e-05	508.15	2.9169e-06	2.2269e-06	668.17	128.38	2.9016e-06	1.7159e-06	240.08	86.82	37.612	13.63	3.986e-06	40.259	4.5988e-05	1.7579e-05	4.9827e-06	477.49	1.9127e-07	1.8867e-07	647.97	123.87	2.087e-07	1.9566e-07	230.65	83.531	35.941	13.148	2.014e-07	38.955	383.669	242.605	238.444	181.932	295.503	310.479	181.885	187.093	292.700	338.886	187.203	191.743	190.988	196.276	316.024	195.524	-8191	255	
1416.417	1	1	0	0	0.11446	0.14863	0.23536	0.050908	0.1697	0.12642	0.19275	0.13881	0.14983	0.12013	0.022465	0.20265	0.11467	0.23676	0.068359	0.11282	-2.4583	-2.9667	-3.1229	-2.7104	-2.9938	-2.7458	-2.6771	-3.1188	-2.8375	-2.9292	-3.0312	-2.8458	-3.0604	-3.0521	-2.7625	-3.3187	220.500	236.157	192.823	244.234	179.911	373.813	213.527	342.241	423.271	367.217	508.672	480.597	518.967	275.386	263.970	486.490	0.0011792	0.00019076	0.00010816	511.25	2.1537e-06	2.5093e-06	671.23	129.54	4.1761e-06	2.6455e-06	239.89	87.939	37.689	13.526	3.2592e-06	40.563	4.7235e-05	1.7548e-05	4.8301e-06	479.5	1.902e-07	1.8751e-07	649.9	124.66	2.1629e-07	1.9786e-07	231.84	84.469	36.085	13.166	2.0645e-07	39.267	382.484	237.569	263.845	181.986	280.042	322.913	181.879	187.444	309.866	320.179	186.656	191.659	191.582	196.510	300.670	195.883	-8191	255	
1416.513	1	1	0	0	0.25716	0.1096	0.0053736	0.15145	0.18943	0.13272	0.18978	0.17655	0.13406	0.072792	0.07821	0.033805	0.19927	0.086361	0.1902	0.066878	-2.5312	-2.9083	-3.1312	-2.8104	-2.9729	-2.9875	-2.8021	-3.1063	-2.8063	-2.9917	-3.15	-2.6083	-2.8875	-2.8563	-2.6896	-3.1208	223.475	261.130	200.305	206.977	173.902	375.505	175.265	375.443	208.128	214.105	388.325	499.308	491.842	445.413	245.923	233.440	0.0012429	0.00025504	6.1384e-05	504.19	2.7649e-06	3.2034e-06	674.32	129.38	3.4135e-06	1.1279e-06	241.87	88.545	38.04	13.788	3.3888e-06	40.979	4.714e-05	1.8141e-05	4.9059e-06	479.5	2.1011e-07	1.8528e-07	652.88	125.08	2.1018e-07	1.8653e-07	233.18	85.152	36.378	13.355	1.9876e-07	39.607	382.693	250.317	243.739	182.150	308.102	341.858	182.045	187.427	314.410	327.744	187.434	191.747	191.302	196.545	293.381	195.334	-8191	255	
1416.634	1	1	0	0	0.073919	0.076912	0.16837	0.036374	0.091615	0.27643	0.22517	0.11715	0.29623	0.021428	0.13158	0.24745	0.23236	0.20049	0.13852	0.13701	-2.4938	-2.6417	-3.0875	-2.7854	-2.8604	-2.9396	-2.8521	-3.1083	-2.8146	-2.7438	-3.1583	-2.6729	-2.7708	-2.8917	-2.7375	-3.1479	269.990	522.234	313.822	480.216	309.065	229.632	195.472	365.690	259.854	252.595	413.417	394.388	512.108	370.865	373.218	258.804	0.0012046	0.00024871	8.5207e-05	508.08	2.4663e-06	3.4478e-06	665.66	128.62	3.9423e-06	2.4685e-06	238.69	86.342	37.601	13.38	2.5584e-06	39.757	4.6568e-05	1.7197e-05	4.5418e-06	478.86	1.9437e-07	1.8528e-07	647.67	124.47	2.0144e-07	1.8442e-07	229.97	83.505	35.832	12.977	1.9991e-07	38.467	382.061	280.710	265.659	182.042	318.592	322.974	181.782	187.133	302.244	315.354	187.132	191.963	191.359	196.619	308.252	195.498	-8191	255	
1416.730	1	1	0	0	0.1833	0.17997	0.065869	0.23952	0.10822	0.10127	0.060008	0.2332	0.1819	0.21628	0.34772	0.078324	0.13563	0.29728	0.19772	0.22694	-2.4667	-2.7458	-3.0958	-2.7917	-2.9938	-3.1542	-2.9146	-2.9958	-2.8646	-2.8208	-3.1854	-2.8896	-2.9167	-3.0062	-2.8479	-3.0542	366.619	333.895	396.547	235.672	191.378	470.469	374.415	445.733	341.300	183.525	513.339	232.042	186.066	373.060	367.424	528.202	0.0011893	0.00017484	5.5513e-05	505.99	1.7315e-06	2.5963e-06	666.66	127.51	3.4877e-06	2.0755e-06	236.95	86.544	37.028	13.271	3.4909e-06	39.54	4.6347e-05	1.7813e-05	4.8953e-06	475.97	2.0189e-07	1.6636e-07	644.95	123.13	2.0591e-07	1.8632e-07	228.28	83.086	35.517	12.916	1.9885e-07	38.379	384.112	268.772	265.957	182.378	288.723	344.656	182.081	187.260	308.646	301.964	187.201	191.665	191.320	196.390	301.208	195.536	-8191	255	
1416.826	1	1	0	0	0.12509	0.21758	0.14272	0.0080243	0.067345	0.22541	0.18222	0.16641	0.22309	0.09573	0.18696	0.18313	0.09112	0.24986	0.29804	0.34218	-2.3979	-2.7292	-3.1063	-2.6333	-2.8937	-3.1188	-2.7354	-2.9938	-2.9792	-2.7125	-3.3042	-3.0312	-2.825	-3.0729	-2.7354	-3.0646	394.082	189.725	191.750	424.487	425.350	277.123	454.556	282.253	271.476	445.496	314.889	469.407	281.570	187.494	517.734	521.307	0.001266	0.00018978	6.6729e-05	501.56	2.0761e-06	2.8315e-06	666.65	129.16	2.746e-06	2.3637e-06	239.2	87.167	37.463	13.454	3.8352e-06	40.206	4.6267e-05	1.6752e-05	4.7659e-06	474	1.9573e-07	1.9077e-07	646.15	124.01	2.0394e-07	1.9223e-07	230.09	83.603	35.873	13.039	2.0485e-07	38.936	383.420	252.590	277.134	182.248	330.195	346.066	181.973	187.343	270.493	296.152	187.072	191.544	191.656	196.551	318.056	195.482	-8191	255	
1416.898	1	1	0	0	0.15333	0.082817	0.11864	0.16757	0.11993	0.16578	0.14431	0.14993	0.14518	0.33002	0.2293	0.070983	0.10809	0.18359	0.10635	0.14297	-2.6354	-2.6104	-3.0458	-2.7188	-2.8521	-3.1854	-2.8896	-2.9229	-3.1333	-2.7083	-3.0792	-2.9354	-2.9083	-3.1042	-2.7479	-3.0312	433.067	227.631	283.938	403.527	425.614	392.511	469.330	512.812	387.148	279.916	506.621	356.823	470.942	471.029	405.201	295.738	0.0012171	0.00020969	5.996e-05	507.72	3.0283e-06	3.0673e-06	671.55	128.34	3.1261e-06	2.4358e-06	242.31	88.016	37.924	13.756	2.765e-06	41.075	4.6687e-05	1.8436e-05	4.6744e-06	478.52	1.9069e-07	1.6702e-07	650.54	124.57	2.0599e-07	1.905e-07	232.05	84.591	36.28	13.301	1.951e-07	39.717	382.717	240.020	280.183	181.699	292.677	323.319	181.989	187.292	293.508	338.027	187.030	191.519	191.676	196.684	264.899	195.822	-8191	255	
1417.018	1	1	0	0	0.18819	0.058767	0.11343	0.11377	0.046055	0.23712	0.12461	0.15134	0.038477	0.1363	0.020332	0.21405	0.055994	0.02678	0.034074	0.26286	-2.4625	-2.6188	-3.1021	-2.8167	-2.8854	-3.075	-2.8187	-2.9854	-3.0583	-2.6688	-2.9458	-2.9062	-2.5438	-2.8729	-2.8333	-3.0417	336.241	500.510	257.533	207.743	402.236	426.716	210.928	438.885	480.622	272.434	324.387	269.943	478.872	512.015	198.757	401.552	0.001258	0.00018892	6.5261e-05	510.66	2.2553e-06	3.8222e-06	675.24	130.41	2.2461e-06	2.5645e-06	242.25	88.368	38.154	13.7	2.5726e-06	40.361	4.7122e-05	1.8254e-05	5.0426e-06	479.88	2.0102e-07	1.978e-07	653.64	125.78	1.9803e-07	1.7582e-07	232.96	84.964	36.311	13.216	1.9449e-07	39.081	382.545	221.681	279.684	181.676	316.531	355.459	182.153	187.188	301.197	339.716	186.804	192.107	191.875	196.576	295.417	195.496	-8191	255	
1417.115	1	1	0	0	0.025681	0.13633	0.263	0.16858	0.24013	0.056235	0.11865	0.20723	0.20178	0.085321	0.087271	0.021345	0.20726	0.08827	0.11322	0.19994	-2.8417	-2.8375	-2.9875	-3.1708	-2.7438	-3.1	-3.0917	-2.9604	-3.2229	-2.7708	-3.0083	-3.2104	-2.8208	-2.8937	-2.9708	-2.975	339.040	280.434	329.436	271.529	468.884	236.207	420.423	383.656	450.190	345.859	487.344	386.237	480.319	392.306	496.243	429.175	0.0012094	0.00020909	8.8327e-05	510.88	2.5483e-06	2.598e-06	668.43	128.29	3.6506e-06	2.3868e-06	238.82	86.787	37.091	13.361	3.8087e-06	39.768	4.5524e-05	1.7398e-05	4.9206e-06	478.06	1.9086e-07	1.738e-07	647.27	123.6	2.1075e-07	1.8863e-07	229.03	83.142	35.572	12.985	1.9745e-07	38.528	382.184	229.536	259.104	181.649	304.437	328.262	181.773	187.261	289.402	350.454	187.012	191.409	191.685	196.339	307.015	195.381	-8191	255	
1417.209	1	1	0	0	0.10922	0.06324	0.2787	0.21268	0.016171	0.11998	0.19642	0.18384	0.14626	0.2656	0.046586	0.31032	0.15212	0.41261	0.19544	0.16804	-2.6583	-2.6937	-2.9292	-3.075	-2.6708	-3.0958	-3.0458	-2.9	-3.0521	-2.7313	-2.8812	-3.0208	-2.8958	-3.0667	-2.9938	-2.7854	372.622	448.769	497.785	388.955	207.175	345.339	310.907	334.459	371.425	523.176	317.559	499.197	258.105	169.992	263.047	473.666	0.0011577	0.00016611	7.1837e-05	505.58	1.9902e-06	2.7446e-06	664.66	128.58	3.2125e-06	3.1691e-06	236.89	86.678	37.444	13.535	2.7723e-06	40.069	4.5981e-05	1.7537e-05	4.9406e-06	476.73	2.0218e-07	1.9148e-07	643.63	123.56	2.1083e-07	2.0265e-07	228.7	83.444	35.79	13.077	2.2196e-07	38.951	382.058	258.929	280.568	182.034	319.219	309.393	181.916	187.397	279.314	297.728	187.105	191.847	191.640	196.603	306.893	195.172	-8191	255	
1417.307	1	1	0	0	0.041523	0.077841	0.11063	0.38121	0.072005	0.16658	0.1216	0.14897	0.015916	0.20013	0.25582	0.19996	0.095191	0.20955	0.080338	0.09931	-2.6146	-2.8729	-3.0542	-3.0354	-2.4688	-3.1	-3.075	-2.6979	-3.0458	-2.8958	-2.9229	-3.05	-2.7562	-2.7667	-2.9208	-2.9375	445.840	208.532	479.247	528.568	342.255	177.860	477.580	485.804	317.821	278.912	429.214	459.835	465.853	280.852	262.805	210.274	0.0012669	0.0002619	7.1785e-05	505.3	3.2254e-06	2.2495e-06	662.54	128.71	4.3825e-06	2.707e-06	238.93	87.598	37.718	13.732	3.0945e-06	40.488	4.8575e-05	1.9908e-05	5.5603e-06	476.19	2.4098e-07	2.0763e-07	643.52	124.26	2.4567e-07	2.3466e-07	230.21	84.172	36.185	13.264	2.3578e-07	39.323	383.342	255.168	242.181	182.103	281.809	310.273	182.041	187.107	281.696	279.458	187.349	192.105	191.118	196.457	312.031	195.593	-8191	255	
1417.426	1	1	0	0	0.23866	0.18146	0.22029	0.3287	0.28997	0.17382	0.1306	0.1215	0.11019	0.068555	0.29167	0.11208	0.031882	0.029649	0.30176	0.15663	-2.6271	-2.9	-2.6562	-3.0833	-2.7646	-2.9313	-3.0333	-2.6375	-3.1229	-2.7313	-2.8042	-3.2146	-2.8312	-2.7854	-3.0354	-2.8021	283.903	497.848	450.235	500.513	279.752	427.046	497.271	514.087	443.672	447.197	507.454	501.724	234.959	348.441	348.762	239.276	0.0012351	0.00013701	8.1563e-05	505.01	2.4453e-06	3.7049e-06	666.74	129.6	3.2181e-06	1.6131e-06	241.37	88.536	37.835	13.72	1.7609e-06	41.042	5.0231e-05	2.1504e-05	6.059e-06	477.45	2.5201e-07	2.5638e-07	645.1	125.07	2.551e-07	2.3135e-07	232.24	85.016	36.356	13.383	2.4659e-07	39.689	379.626	234.081	263.823	182.187	315.039	311.870	182.190	187.028	288.074	317.118	186.836	191.459	191.712	196.653	294.218	195.243	-8191	255	
1417.522	1	1	0	0	0.23761	0.098598	0.05248	0.030806	0.13277	0.10294	0.13442	0.23449	0.070686	0.18096	0.24912	0.12359	0.026783	0.24305	0.097099	0.15856	-2.7271	-2.8625	-2.8021	-3.1375	-2.9604	-2.7938	-3.1354	-2.8167	-3.0604	-2.8604	-2.9625	-3.2521	-2.7812	-2.8708	-3.1729	-2.7333	172.972	267.151	318.187	247.178	433.521	354.164	437.283	433.000	299.185	380.800	474.512	459.636	482.181	225.055	362.238	192.716	0.0012728	0.00025872	7.9446e-05	503.43	3.2816e-06	2.3654e-06	661.61	127.93	3.1601e-06	1.9333e-06	235.61	85.998	36.994	13.378	3.8025e-06	39.69	5.234e-05	2.004e-05	5.8285e-06	476.55	2.4115e-07	2.3122e-07	640.26	123.21	2.4329e-07	2.2105e-07	226.73	82.787	35.573	12.957	2.3458e-07	38.326	384.462	221.570	222.887	182.023	328.515	313.570	181.819	187.178	280.218	324.355	187.137	191.561	191.673	196.750	320.642	195.343	-8191	255	
1417.618	1	1	0	0	0.34647	0.41636	0.011057	0.047753	0.21951	0.041822	0.13777	0.049617	0.053201	0.1653	0.22472	0.024788	0.44469	0.15124	0.3146	0.36503	-2.6021	-3.0521	-2.6979	-3.0292	-2.8646	-2.9396	-3.1146	-2.8771	-3.2042	-3.0833	-2.8063	-3.1646	-2.8542	-2.9167	-3.0375	-2.9146	468.323	244.523	377.333	293.569	323.466	255.176	437.661	526.393	485.004	518.840	477.744	456.130	179.421	172.238	217.408	413.571	0.0012572	0.00025194	6.5257e-05	499.16	2.0528e-06	2.5646e-06	653.26	126.48	3.2644e-06	2.8222e-06	234.88	86.185	37.007	13.283	2.1805e-06	39.917	5.093e-05	2.053e-05	5.8822e-06	471.5	2.4143e-07	2.3072e-07	633.69	121.8	2.4333e-07	2.2808e-07	225.62	82.429	35.37	12.935	2.3282e-07	38.435	383.293	269.530	234.753	181.738	292.593	348.815	182.143	187.255	287.187	312.355	186.711	191.775	191.134	196.541	271.428	195.177	-8191	255	
1417.714	1	1	0	0	0.25753	0.18845	0.18852	0.1258	0.021613	0.18585	0.089233	0.18565	0.11224	0.14464	0.16067	0.15501	0.23837	0.30059	0.19978	0.34887	-2.5812	-3.0167	-2.8146	-3.1146	-2.85	-2.7083	-3.1917	-2.8875	-3	-3.0125	-2.8333	-3.0458	-2.9479	-2.8521	-3.1646	-2.7604	406.639	217.156	420.585	391.051	388.133	244.171	377.965	269.356	227.474	464.984	499.330	202.460	521.359	450.965	392.701	509.630	0.0011873	0.00030544	6.8754e-05	496.82	2.0607e-06	1.4591e-06	657.37	127.26	3.6885e-06	2.2693e-06	235.63	86.29	36.933	13.353	3.3789e-06	40.11	4.8253e-05	1.9957e-05	5.7496e-06	470.1	2.3495e-07	2.1998e-07	637.53	122.4	2.5797e-07	2.1522e-07	227.36	83.018	35.533	12.994	2.2492e-07	38.828	381.518	254.908	252.321	181.505	305.998	336.085	181.858	187.540	290.723	309.167	187.236	191.606	191.531	196.229	285.492	195.488	-8191	255	
1417.810	1	1	0	0	0.074357	0.13728	0.106	0.1723	0.16534	0.27605	0.14196	0.25747	0.28534	0.25249	0.15052	0.20252	0.2242	0.196	0.32254	0.12056	-2.4417	-2.9979	-2.6229	-2.9979	-2.9479	-2.8479	-3.2271	-2.875	-2.8812	-3.1625	-2.8312	-3.0375	-3.1271	-2.6583	-3.0083	-2.8354	315.154	255.993	205.461	386.979	217.419	361.306	416.414	171.247	294.934	316.239	389.401	510.966	406.323	244.473	454.420	450.146	0.0012264	0.00020453	8.0955e-05	499.85	3.2382e-06	2.6279e-06	660.48	128.38	3.1628e-06	2.2222e-06	237.6	87.49	37.169	13.616	3.5287e-06	40.468	4.9151e-05	2.1293e-05	5.7391e-06	473.89	2.3028e-07	2.3349e-07	641.85	123.54	2.5235e-07	2.2018e-07	229.97	84.036	35.826	13.21	2.3339e-07	39.434	380.461	261.477	245.644	181.998	333.982	330.464	181.930	187.234	303.908	311.699	186.551	192.074	191.519	196.307	281.128	195.611	-8191	255	
1417.907	1	1	0	0	0.12204	0.048739	0.12153	0.16675	0.15104	0.1518	0.1068	0.15775	0.15242	0.18559	0.21189	0.11347	0.30496	0.23369	0.09339	0.08091	-2.5521	-3.1625	-2.6312	-2.9792	-3.1104	-2.7708	-3.3792	-2.7854	-2.7833	-3.1521	-2.7958	-2.8896	-3.1375	-2.7188	-3.0312	-2.8812	450.220	441.890	312.688	334.212	242.821	240.361	512.256	468.946	285.152	263.078	365.979	198.420	303.887	521.888	265.200	375.174	0.0012412	0.000211	7.9482e-05	503.13	2.4461e-06	3.9916e-06	666.04	128.84	3.5554e-06	2.7712e-06	238.7	86.708	37.128	13.399	2.8374e-06	39.648	5.0608e-05	2.2233e-05	5.7412e-06	474.95	2.3582e-07	2.2713e-07	645.5	124.04	2.4665e-07	2.2192e-07	229.82	83.45	35.561	12.981	2.331e-07	38.45	385.440	242.814	281.243	182.085	311.357	336.953	182.140	187.572	272.600	308.185	187.116	191.695	191.755	196.579	272.075	195.745	-8191	255	
1418.027	1	1	0	0	0.15758	0.17807	0.28946	0.058577	0.047971	0.27042	0.13771	0.050692	0.12117	0.11119	0.26457	0.13507	0.040464	0.098911	0.23204	0.12308	-2.5521	-3.0708	-2.6688	-2.8854	-2.9146	-2.7313	-3.1354	-2.9604	-2.7375	-3.1104	-2.7833	-3.0479	-3.0354	-2.7062	-2.9604	-2.9229	444.492	362.239	392.207	207.696	247.503	525.453	408.422	248.780	335.432	380.382	200.314	442.008	430.621	475.825	498.569	374.353	0.0012251	0.00035208	8.1767e-05	496.06	2.3239e-06	3.8686e-06	657.58	126.79	3.5776e-06	1.1705e-06	234.77	84.853	36.346	13.006	3.7586e-06	38.834	5.0673e-05	2.0674e-05	5.7107e-06	471.3	2.3962e-07	2.2998e-07	640.1	122	2.3303e-07	2.3776e-07	226.47	81.649	34.802	12.7	2.5112e-07	37.773	381.499	261.148	242.706	181.719	297.006	330.378	182.235	187.072	292.448	311.024	187.160	191.663	191.474	196.417	316.737	195.460	-8191	255	
1418.122	1	1	0	0	0.066973	0.17188	0.05209	0.098152	0.13501	0.069304	0.16124	0.17822	0.18096	0.14078	0.17611	0.10988	0.14539	0.12308	0.20231	0.21834	-2.2646	-3.1479	-2.8771	-2.8042	-3.1312	-2.7646	-3.0104	-3.0125	-2.7583	-3.2562	-2.9437	-3.0646	-3.1937	-2.7458	-3.1208	-3.1771	314.386	469.717	518.028	172.718	284.034	518.430	336.750	521.853	460.956	472.135	506.257	376.958	313.162	524.728	179.963	217.358	0.001168	0.0002543	6.1188e-05	503.82	2.2755e-06	3.133e-06	667.72	126.19	3.1581e-06	1.2461e-06	236.4	85.529	36.264	13.173	3.3171e-06	39.593	4.8202e-05	2.1357e-05	6.1831e-06	472	2.3189e-07	2.3432e-07	646.08	121.67	2.6302e-07	2.4131e-07	227.71	82.208	34.811	12.797	2.6407e-07	38.376	382.308	236.495	240.084	181.660	314.459	334.679	181.967	187.364	296.430	322.396	186.944	191.496	191.617	196.594	316.485	195.766	-8191	255	
1418.195	1	1	0	0	0.23628	0.13315	0.20216	0.11636	0.11002	0.21492	0.13315	0.18846	0.053484	0.29306	0.084336	0.051606	0.089998	0.061071	0.1317	0.25648	-2.4292	-2.9688	-2.5896	-2.7875	-3.0854	-2.875	-3.0792	-3.0708	-2.7792	-2.975	-2.7833	-2.9417	-3.1958	-2.7458	-3.0583	-3.1437	513.494	247.225	406.084	221.886	322.178	290.408	442.992	454.935	266.932	446.628	463.414	521.516	475.300	464.649	377.742	492.758	0.0011923	0.00035823	0.00010173	505.82	2.4479e-06	2.5325e-06	671.23	128.14	3.3932e-06	2.5641e-06	239.37	86.559	36.717	13.436	2.6779e-06	40.373	5.0329e-05	2.2659e-05	6.5734e-06	474.31	2.4362e-07	2.3366e-07	648.62	122.62	2.5925e-07	2.4611e-07	230.17	83.253	35.185	12.991	2.5309e-07	39.135	387.122	255.422	242.905	181.973	289.602	352.385	181.919	187.395	289.775	328.079	187.244	191.918	191.713	196.512	296.756	195.657	-8191	255	
1418.289	1	1	0	0	0.34534	0.25815	0.058035	0.16279	0.17091	0.2596	0.23804	0.19057	0.090725	0.16802	0.19941	0.27712	0.21929	0.18865	0.16146	0.22036	-2.3583	-2.9042	-2.8521	-2.8417	-3.1792	-2.8479	-2.9604	-3.0229	-2.75	-3.0458	-2.9708	-2.6042	-3.1917	-2.9125	-2.8229	-3.2458	313.284	280.733	473.865	382.534	221.555	350.795	443.696	431.044	511.664	385.331	372.904	465.320	321.295	220.377	320.366	524.992	0.0012606	0.00035836	9.0136e-05	503.97	2.5181e-06	3.0015e-06	671.17	127.9	3.7051e-06	1.9578e-06	241.14	87.98	37.014	13.551	3.3972e-06	40.987	5.2409e-05	2.258e-05	6.2062e-06	474.19	2.5586e-07	2.4303e-07	653.1	123.17	2.6179e-07	2.4545e-07	232.09	84.367	35.534	13.242	2.5301e-07	39.63	383.238	244.048	261.134	181.769	323.947	316.013	181.788	187.412	300.467	286.087	187.377	191.764	191.693	196.488	298.456	195.852	-8191	255	
1418.410	1	1	0	0	0.43237	0.17001	0.096488	0.099238	0.074617	0.06134	0.20546	0.11105	0.20553	0.18703	0.11318	0.24492	0.14773	0.077904	0.10301	0.21345	-2.1854	-2.9354	-2.9729	-2.7562	-3.3042	-2.8563	-2.85	-3.1833	-2.725	-2.9	-2.875	-2.7229	-3.0229	-2.8688	-2.9604	-3.2958	389.095	318.889	490.091	360.283	224.769	313.956	225.337	187.266	455.571	347.603	369.028	475.140	514.840	336.635	194.679	476.734	0.0012936	0.00021791	5.9301e-05	502.63	3.6688e-06	2.3083e-06	669.25	126.95	2.1235e-06	2.1818e-06	236.04	85.539	36.424	13.12	3.011e-06	38.929	5.1565e-05	2.1452e-05	6.0284e-06	475.19	2.4226e-07	2.3089e-07	649.27	122.51	2.5051e-07	2.2473e-07	228.22	82.417	34.922	12.71	2.4203e-07	37.831	383.437	220.518	273.223	181.712	312.993	330.507	181.923	187.349	269.673	329.565	187.063	191.934	191.371	196.350	312.962	195.779	-8191	255	
1418.506	1	1	0	0	0.15624	0.22115	0.050121	0.16711	0.33525	0.13084	0.17905	0.25495	0.069192	0.24293	0.22377	0.097014	0.16592	0.39979	0.037766	0.38208	-2.3792	-2.8208	-2.9625	-2.9437	-2.9792	-2.9479	-2.8563	-3.1604	-2.8812	-2.9	-3.0896	-2.8646	-3.0563	-2.9	-2.8729	-3.2687	252.530	273.382	362.489	178.865	275.799	362.800	206.844	379.773	203.790	478.169	196.714	267.245	221.850	488.496	368.028	443.387	0.0011724	0.00026331	6.2466e-05	501.07	2.5005e-06	3.0281e-06	666.42	126.62	3.7853e-06	3.0397e-06	238.29	85.643	36.681	13.144	2.435e-06	39.642	4.9278e-05	2.2339e-05	5.8738e-06	474.43	2.347e-07	2.3618e-07	647.33	122.37	2.4267e-07	2.3978e-07	228.82	82.438	35.136	12.764	2.514e-07	38.195	383.588	255.268	266.997	181.797	310.424	303.463	182.118	187.265	284.663	333.939	187.065	191.566	191.619	196.820	297.867	195.481	-8191	255	
1418.602	1	1	0	0	0.12046	0.081956	0.14312	0.25947	0.13788	0.18089	0.089882	0.056306	0.21654	0.19509	0.13521	0.12321	0.11305	0.19957	0.062969	0.16246	-2.2833	-2.7208	-2.9521	-2.5896	-3.0396	-2.9104	-2.8583	-3.1229	-2.6729	-3	-3.1	-2.7167	-3.2417	-2.9417	-2.7938	-3.1937	360.722	360.104	216.156	497.917	348.978	253.866	223.493	292.297	272.452	315.812	519.111	422.340	174.826	276.404	387.612	449.001	0.001236	0.00014038	0.00010484	507.51	7.968e-07	3.906e-06	670.96	127.39	2.1739e-06	2.3686e-06	237.92	86.105	37.021	13.239	2.8158e-06	39.727	5.1391e-05	2.272e-05	6.0095e-06	476.66	2.3751e-07	2.3576e-07	651.55	123.09	2.7795e-07	2.4057e-07	229.62	83.099	35.502	12.909	2.7078e-07	38.66	383.962	278.695	253.870	181.941	362.495	345.174	181.897	187.123	290.194	317.208	187.113	192.133	191.590	196.093	305.013	195.803	-8191	255	
1418.698	1	1	0	0	0.040617	0.17837	0.38744	0.084079	0.12509	0.15005	0.090765	0.27048	0.10088	0.10198	0.029859	0.19439	0.074772	0.20646	0.12259	0.44174	-2.4021	-2.8646	-3.0417	-2.8458	-3.1417	-2.8771	-2.7875	-3.15	-3.0167	-2.8875	-3.2458	-2.7146	-2.8438	-3.1188	-2.9125	-3.0333	369.464	496.110	425.939	331.398	402.755	478.665	379.002	425.081	499.164	400.053	425.182	516.207	316.111	247.778	469.502	466.754	0.0013056	0.00016176	8.1379e-05	508.35	2.0413e-06	1.7633e-06	673.95	127.41	3.7074e-06	2.4393e-06	240.36	88.032	36.899	13.407	3.2995e-06	40.4	5.3195e-05	2.3792e-05	6.8354e-06	476.63	2.7643e-07	2.5336e-07	652.26	123.55	2.6881e-07	2.5934e-07	231.61	84.023	35.525	13.046	2.7168e-07	39.219	382.961	227.495	252.367	181.905	319.286	341.323	181.995	187.436	293.110	315.426	187.162	191.439	192.002	196.802	317.703	195.534	-8191	255	
1418.819	1	1	0	0	0.38106	0.17365	0.066215	0.08154	0.13793	0.14443	0.27782	0.14465	0.15829	0.15366	0.053944	0.11696	0.20458	0.13933	0.25788	0.11263	-2.5375	-2.8604	-3.1125	-2.8729	-3.1229	-3.1063	-2.9167	-3.0312	-2.7792	-2.7771	-3.0979	-2.8583	-2.9542	-3.2583	-2.725	-2.9708	198.475	203.915	490.733	418.975	315.758	292.240	462.456	224.570	486.108	199.986	446.903	379.364	491.845	192.271	349.198	442.775	0.0012096	0.00036962	5.7677e-05	502.4	3.0022e-06	9.4743e-07	672.39	127.56	3.303e-06	1.4686e-06	238.92	86.599	36.779	13.255	4.1622e-06	39.062	5.3963e-05	2.3679e-05	7.0405e-06	477.87	2.7032e-07	2.6728e-07	652.09	123.45	2.9732e-07	2.7282e-07	230.4	83.255	35.274	12.821	2.9019e-07	38.076	382.595	249.964	255.966	181.836	317.530	354.606	181.900	187.344	309.743	324.094	187.168	191.905	191.531	196.402	312.542	195.522	-8191	255	
1418.891	1	1	0	0	0.13501	0.20702	0.27601	0.10752	0.25689	0.041227	0.07203	0.1218	0.10757	0.12064	0.10548	0.24934	0.17373	0.36977	0.069063	0.16595	-2.6271	-2.8812	-3.0104	-2.9167	-2.9917	-3.075	-2.9854	-2.9167	-2.9271	-2.8	-3.2917	-2.7646	-2.9958	-2.9396	-2.9	-3.0479	379.693	418.658	294.932	238.395	247.638	457.745	401.795	300.191	177.247	393.779	201.314	476.158	463.734	482.421	388.988	379.304	0.0012311	0.00021601	9.4805e-05	503.72	2.5494e-06	4.5612e-06	660.05	125.72	2.4891e-06	2.7272e-06	233.08	84.269	35.525	12.781	2.1539e-06	38.387	5.2876e-05	2.3599e-05	6.5787e-06	474.56	2.6862e-07	2.5646e-07	643.25	121.43	2.624e-07	2.5893e-07	224.44	80.827	34.292	12.37	2.7612e-07	37.127	382.471	266.856	234.997	182.004	321.426	309.376	182.006	187.335	282.182	335.639	186.641	191.891	191.357	195.835	310.802	195.337	-8191	255	
1418.987	1	1	0	0	0.14521	0.23019	0.25657	0.12088	0.33221	0.15791	0.36554	0.099248	0.06829	0.25636	0.23194	0.15569	0.17821	0.19002	0.04923	0.40093	-2.4688	-2.7729	-3.0229	-2.9313	-2.6312	-3.1083	-2.7208	-3.0021	-3.0312	-2.6375	-2.8917	-2.9708	-2.5687	-3.1188	-2.4688	-3.0771	268.960	293.158	306.584	520.632	177.233	291.930	450.746	463.833	482.527	312.899	474.841	448.544	484.135	170.034	523.214	497.821	0.0011893	0.00024873	7.5431e-05	497.85	2.5428e-06	3.5653e-06	663.73	125.91	4.1357e-06	2.147e-06	235.51	84.538	36.063	12.975	2.9833e-06	39.056	5.2514e-05	2.4913e-05	6.8596e-06	471.36	2.8796e-07	2.7059e-07	643.78	121.61	3.1451e-07	2.8175e-07	226.77	81.558	34.849	12.635	2.9072e-07	37.765	384.951	247.652	222.233	181.824	286.305	352.660	181.801	187.118	283.305	328.142	186.941	191.888	191.566	196.389	285.149	195.319	-8191	255	
1419.108	1	1	0	0	0.14925	0.20837	0.049234	0.24924	0.40276	0.19162	0.25735	0.11078	0.25962	0.10201	0.32701	0.2751	0.098195	0.34179	0.17284	0.031334	-2.7021	-2.5938	-2.7208	-2.6521	-2.6021	-3.0375	-2.9958	-2.8146	-3.0521	-2.7917	-3.05	-3.0938	-2.6792	-3.0167	-2.6625	-2.8083	175.063	407.636	452.839	415.781	417.243	460.314	373.857	338.471	502.522	235.661	475.569	511.514	200.913	256.336	273.911	248.433	0.0012124	0.00029609	6.4852e-05	507.48	1.5656e-06	1.8925e-06	666.59	126.89	5.1751e-06	1.4184e-06	236.22	85.674	36.429	13.201	2.0537e-06	39.471	5.2568e-05	2.6702e-05	7.2678e-06	476.79	2.7817e-07	2.6398e-07	645.12	122.27	3.0417e-07	2.7993e-07	227.93	82.303	35.047	12.762	3.0084e-07	38.166	380.536	248.620	275.341	182.136	296.342	322.321	181.930	187.184	277.665	329.457	187.159	191.606	192.028	196.441	279.579	195.789	-8191	255	
1419.202	1	1	0	0	0.059876	0.14286	0.082768	0.32248	0.11789	0.11718	0.26976	0.14954	0.15049	0.15254	0.34634	0.16625	0.19831	0.11591	0.13588	0.069105	-2.8063	-2.5625	-2.9208	-3.1542	-2.6479	-3.1042	-2.7958	-2.8167	-3.275	-2.5229	-3.0187	-3.1208	-2.6125	-2.9688	-2.8104	-2.6479	255.286	183.859	224.363	219.323	189.900	492.078	440.508	451.190	231.809	350.053	483.267	429.344	172.049	380.433	441.289	205.975	0.0011847	9.9369e-05	5.5192e-05	506.43	4.7451e-06	4.2352e-06	668.99	127.6	4.6598e-06	2.2559e-06	238.46	86.711	36.658	13.34	3.9037e-06	39.746	5.6173e-05	2.8284e-05	8.0085e-06	477.34	3.0887e-07	2.9835e-07	647.89	123.25	3.1734e-07	3.1632e-07	229.87	83.277	35.414	12.959	2.9224e-07	38.54	383.930	232.684	273.118	181.541	299.556	320.411	182.042	187.015	296.373	324.068	186.786	191.825	191.782	196.335	314.205	195.650	-8191	255	
1419.300	1	1	0	0	0.19751	0.18187	0.099916	0.029889	0.10983	0.11635	0.33456	0.19076	0.0295	0.1051	0.22124	0.1811	0.26897	0.37267	0.25432	0.36854	-2.6688	-2.75	-2.8563	-2.9604	-2.7833	-3.125	-3.0646	-2.725	-3.0604	-2.8979	-2.8583	-3.0667	-2.6479	-3.0604	-2.9813	-2.925	172.478	472.573	235.856	308.846	496.374	304.315	505.982	274.294	466.445	409.285	233.191	366.799	523.995	196.360	372.685	510.250	0.0011959	0.00019712	6.9132e-05	504.81	2.8872e-06	2.4406e-06	665.12	126.44	3.2478e-06	7.3744e-07	234.61	84.597	36.158	12.895	2.9874e-06	38.406	5.5572e-05	2.8529e-05	7.3983e-06	476.17	2.9627e-07	2.9025e-07	643.24	122.04	2.8579e-07	2.8527e-07	225.85	81.447	34.794	12.524	2.864e-07	37.301	382.943	233.491	254.059	181.888	332.424	317.370	181.820	187.133	285.364	327.347	187.032	191.517	191.535	196.333	289.623	195.838	-8191	255	
1419.419	1	1	0	0	0.31279	0.22596	0.085069	0.24042	0.13359	0.1291	0.10531	0.23913	0.21686	0.15018	0.24376	0.12905	0.14129	0.19015	0.10301	0.31414	-2.6229	-2.7792	-2.8229	-2.9688	-2.5708	-2.925	-3.025	-2.6167	-2.9917	-2.9062	-2.8438	-3.0583	-2.9292	-2.9	-2.9729	-2.6625	245.856	413.977	479.016	233.980	362.484	233.627	466.330	266.701	501.426	452.846	500.779	316.378	481.062	314.209	187.600	296.501	0.0011882	0.00037282	8.3611e-05	498.75	1.4496e-06	2.2505e-06	659.03	124.51	4.221e-06	2.0395e-06	233.2	84.399	36.145	12.953	5.2249e-06	38.537	5.3916e-05	2.4535e-05	7.2415e-06	472.25	2.9978e-07	2.9913e-07	638.88	120.73	2.9383e-07	2.8043e-07	225.09	81.218	34.783	12.589	2.8788e-07	37.499	381.539	276.380	244.528	182.055	312.120	329.726	181.912	187.298	287.021	307.599	187.040	191.865	191.424	196.478	301.299	195.652	-8191	255	
1419.490	1	1	0	0	0.24121	0.026498	0.11019	0.28935	0.0018549	0.21194	0.23753	0.20873	0.11274	0.25689	0.31333	0.19006	0.30987	0.28444	0.18575	0.05081	-2.575	-2.7208	-2.6813	-3.1833	-2.6896	-3.1042	-3.1312	-2.8146	-3.0583	-2.7729	-2.8563	-3.125	-2.5333	-2.8688	-3.175	-2.8167	463.103	359.360	209.828	352.786	180.000	369.312	184.382	512.567	440.378	433.526	315.843	515.033	484.013	286.718	440.496	245.564	0.0012073	0.00025272	8.7898e-05	499.78	2.2787e-06	3.2967e-06	661.07	126.16	3.2097e-06	1.8772e-06	235.22	85.31	36.257	13.081	2.5905e-06	39.338	5.4898e-05	2.6929e-05	7.0795e-06	472.75	2.7879e-07	2.6935e-07	642.23	122	2.9346e-07	2.7171e-07	226.3	81.95	35.009	12.682	2.7567e-07	37.98	382.447	233.116	254.759	181.755	314.491	327.355	181.777	187.037	289.786	315.099	187.203	191.760	191.222	196.484	278.604	195.365	-8191	255	
1419.587	1	1	0	0	0.068488	0.2909	0.10559	0.35676	0.1673	0.11881	0.22993	0.23927	0.2007	0.29268	0.1107	0.036183	0.22526	0.22386	0.25746	0.25325	-2.5875	-2.7708	-3.0062	-3.0187	-2.6833	-3.0229	-2.9271	-2.7271	-2.9854	-3.0167	-2.6708	-3.2562	-2.8229	-2.9333	-3.1375	-2.8167	226.374	323.438	363.467	414.373	369.167	307.291	381.850	456.785	306.562	457.936	476.029	197.022	469.999	177.305	343.122	477.640	0.0011404	0.00015584	5.8812e-05	501.93	1.5792e-06	1.3779e-06	661.21	126.75	4.1025e-06	2.7262e-06	238.55	86.05	36.604	13.234	4.2575e-06	39.912	5.2449e-05	2.4807e-05	6.8638e-06	475.75	2.6705e-07	2.8604e-07	643.61	122.37	2.8435e-07	2.6302e-07	228.63	82.564	35.196	12.846	2.7337e-07	38.61	383.696	240.686	256.405	182.086	312.338	383.171	181.973	187.188	286.109	335.865	187.169	191.917	191.109	196.631	272.077	195.469	-8191	255	
1419.707	1	1	0	0	0.095218	0.18009	0.15239	0.12516	0.09246	0.17663	0.075356	0.18774	0.03972	0.26443	0.2482	0.13781	0.21793	0.208	0.17778	0.14259	-2.4062	-2.8917	-2.6167	-2.8833	-2.8833	-2.7896	-3.0979	-2.6979	-2.9521	-3.1458	-2.7167	-3.0563	-2.7229	-2.8396	-3.1437	-2.7521	431.048	477.559	340.519	214.048	481.448	437.607	351.275	486.678	231.208	208.343	412.301	472.824	302.561	330.068	515.767	499.374	0.0012199	0.00027781	5.0513e-05	501.85	2.3681e-06	2.6958e-06	662.93	127.23	2.9739e-06	2.3367e-06	235.79	85.343	36.501	12.924	3.7168e-06	38.532	5.3554e-05	2.4671e-05	6.909e-06	474.62	2.6333e-07	2.4915e-07	645.54	122.77	2.654e-07	2.6203e-07	227.46	81.953	34.882	12.566	2.621e-07	37.514	382.477	256.392	256.935	182.225	318.046	323.993	182.094	187.139	288.134	324.099	187.067	191.905	191.392	196.580	310.677	195.618	-8191	255	
1419.803	1	1	0	0	0.11888	0.11102	0.099754	0.24196	0.12101	0.085839	0.072898	0.2881	0.25496	0.15589	0.20774	0.18386	0.37817	0.047315	0.20314	0.31303	-2.6542	-2.85	-2.5667	-3.0583	-2.9167	-2.8583	-2.9917	-2.8271	-2.9417	-3.1521	-2.6958	-3.0896	-2.9354	-2.7812	-3.1688	-2.8688	469.381	177.989	206.515	484.654	173.231	423.143	293.261	423.037	497.131	251.130	502.925	498.803	372.686	333.937	441.074	433.241	0.0012611	0.00014661	7.3225e-05	502.56	2.9076e-06	3.8974e-06	658.62	125.63	3.039e-06	2.4249e-06	233.34	83.82	36.069	12.741	4.3857e-06	38.411	5.3199e-05	2.1297e-05	6.0137e-06	473.71	2.5499e-07	2.5253e-07	639.71	120.77	2.5871e-07	2.3594e-07	224.29	80.884	34.518	12.452	2.5247e-07	37.23	385.658	212.151	260.025	181.699	296.929	338.694	181.695	187.410	271.521	307.400	187.099	191.875	191.443	196.788	304.863	195.793	-8191	255	
1419.899	1	1	0	0	0.26707	0.15503	0.074846	0.08441	0.14118	0.086465	0.048028	0.16348	0.10322	0.12471	0.14121	0.15641	0.058264	0.16786	0.14563	0.19457	-2.4292	-3.0354	-2.6875	-2.8688	-2.8	-2.8	-3.2354	-2.8438	-2.9833	-3.1667	-2.8146	-3.1375	-2.7125	-2.5792	-3.0479	-2.8771	452.106	334.068	521.245	426.663	522.906	386.412	373.797	224.342	402.305	209.377	477.318	522.323	232.463	232.432	317.403	252.793	0.0011625	0.00029843	8.7964e-05	500.86	1.5146e-06	1.415e-06	662.12	126.24	3.6232e-06	2.0191e-06	235.84	85.369	36.292	12.907	3.0679e-06	39.153	4.9282e-05	2.1806e-05	5.9937e-06	473.32	2.516e-07	2.2696e-07	643.43	121.23	2.4977e-07	2.4127e-07	226.67	81.706	34.824	12.595	2.3611e-07	37.898	383.215	249.316	244.600	182.571	315.818	324.832	181.981	187.631	292.075	327.221	186.915	191.940	191.470	196.299	294.787	195.474	-8191	255	
1420.018	1	1	0	0	0.094724	0.17143	0.18634	0.051567	0.16551	0.23554	0.18648	0.21243	0.058033	0.082888	0.24601	0.06812	0.099259	0.12711	0.10588	0.17011	-2.6771	-3.2167	-2.7062	-2.7979	-2.9125	-2.5333	-3.1771	-2.7667	-2.8312	-3.0729	-2.8187	-3.0563	-2.9958	-2.7729	-3.0792	-2.9875	484.668	222.811	214.591	469.546	474.759	329.665	455.134	512.269	486.709	258.694	340.436	463.739	209.214	420.421	502.920	270.143	0.0012208	0.00021699	8.2802e-05	502.06	2.5546e-06	2.331e-06	664.18	127	3.5449e-06	1.9049e-06	237.06	86.554	36.785	13.274	5.2554e-06	39.621	5.1162e-05	2.1448e-05	6.2978e-06	475.33	2.5821e-07	2.5774e-07	644.9	122.62	2.951e-07	2.6567e-07	228.11	82.72	35.255	12.841	3.1532e-07	38.364	383.385	241.620	270.218	182.080	322.558	321.233	182.126	187.350	274.461	319.976	187.108	191.969	191.479	196.518	307.367	195.331	-8191	255	
1420.092	1	1	0	0	0.092569	0.081332	0.13922	0.25282	0.12562	0.15064	0.064341	0.30149	0.17546	0.033569	0.13139	0.24319	0.29254	0.16253	0.17049	0.065526	-2.3604	-3.0312	-2.9083	-3.0125	-3.0563	-2.7542	-3.0542	-2.7375	-2.9	-3.0958	-2.8354	-2.9313	-2.8646	-2.6708	-2.9062	-2.7292	386.006	505.306	368.383	515.578	221.545	273.525	492.457	230.321	407.067	224.576	422.923	528.499	239.006	356.280	311.198	349.358	0.0012393	0.00022006	7.2181e-05	506.98	2.951e-06	2.29e-06	670.66	127.73	3.7204e-06	2.1861e-06	239.07	86.397	37.047	13.44	2.383e-06	39.958	5.8735e-05	2.8646e-05	7.6444e-06	478.26	3.1023e-07	3.1529e-07	648.6	123.29	3.2087e-07	3.1124e-07	230.19	83.65	35.597	13.041	3.0244e-07	38.709	383.581	235.150	278.517	181.914	302.385	327.357	182.091	187.556	287.398	314.513	187.426	192.122	191.534	196.589	294.987	195.545	-8191	255	
1420.186	1	1	0	0	0.16321	0.19834	0.33004	0.19647	0.20362	0.073488	0.039082	0.10935	0.13134	0.13117	0.1069	0.072038	0.089408	0.0249	0.12978	0.20832	-2.5271	-3.0104	-2.8583	-2.8312	-3.0833	-2.7021	-2.9979	-2.9021	-2.6792	-3.2354	-2.9313	-2.8354	-3.1667	-2.8854	-2.825	-2.9021	513.340	515.775	245.726	437.163	500.984	404.209	441.642	511.844	444.141	408.922	472.819	415.851	358.034	235.340	274.446	191.747	0.0011638	0.00029545	6.5065e-05	500.84	2.899e-06	2.1937e-06	665.13	126.77	3.415e-06	2.423e-06	235.55	85.081	36.245	12.958	3.5774e-06	38.69	5.3695e-05	2.6974e-05	7.0753e-06	474.38	2.8858e-07	2.7744e-07	644.82	122.07	2.812e-07	2.8113e-07	226.53	81.688	34.783	12.559	2.5659e-07	37.441	383.491	267.283	230.070	182.059	331.998	337.602	181.760	187.366	292.111	332.835	186.944	191.875	191.487	196.934	279.573	195.510	-8191	255	
1420.282	1	1	0	0	0.10141	0.11987	0.20187	0.036199	0.30448	0.13824	0.2877	0.1013	0.121	0.13152	0.1924	0.16182	0.059632	0.17125	0.10275	0.24176	-2.4375	-2.8229	-2.8042	-2.7458	-3.0646	-2.8042	-2.8854	-3.0812	-2.6167	-2.95	-3.0146	-2.6896	-3.2333	-2.6917	-3.0104	-3.1167	307.338	301.631	406.787	509.086	467.014	505.732	477.275	411.218	437.870	408.693	226.155	485.182	195.826	433.302	522.421	479.636	0.0011327	0.0002428	7.7729e-05	502.19	2.6335e-06	3.0823e-06	662.2	125.57	4.2351e-06	2.9005e-06	234.91	84.933	36.313	12.883	2.1662e-06	38.93	5.0746e-05	2.2354e-05	6.444e-06	473.16	2.5619e-07	2.6212e-07	642.47	121.34	2.7738e-07	2.6418e-07	226.31	81.743	34.85	12.57	2.774e-07	37.706	383.407	232.197	270.658	182.341	295.028	344.405	181.890	187.049	266.270	336.063	187.131	191.670	191.525	196.217	314.894	195.467	-8191	255	
1420.380	1	1	0	0	0.19631	0.15439	0.051573	0.2363	0.33436	0.097189	0.042069	0.082118	0.066541	0.16754	0.24394	0.10438	0.21709	0.27159	0.31875	0.085551	-2.3187	-2.6917	-2.7375	-2.7146	-3.0458	-2.9604	-2.9521	-3.2167	-2.9354	-3.1833	-2.8875	-2.9188	-3.0083	-2.6833	-2.8042	-3.0812	300.211	195.799	440.932	247.961	444.824	180.604	316.933	345.038	313.659	410.183	507.400	170.686	353.349	514.595	444.125	520.173	0.001234	0.00023866	8.7574e-05	501.84	3.5789e-06	3.2476e-06	663.68	125.99	3.9355e-06	2.8898e-06	236.25	86.361	36.473	13.072	3.8585e-06	39.523	5.3492e-05	2.3411e-05	6.6586e-06	474.27	2.7619e-07	2.7075e-07	644.55	122.15	2.9896e-07	2.7522e-07	227.48	82.655	35.11	12.742	2.8558e-07	38.344	381.937	245.080	262.488	181.946	329.907	325.514	182.152	187.205	287.613	326.743	186.697	191.859	191.427	196.306	303.585	195.480	-8191	255	
#DATA ENDS
