BOXY.EXE: ISS Imagent and Oximeter Data Acquisition Program Version 0.80
Ascii Record File

#ACQ INFORMATION
2  Detector Channels 
16  External MUX Channels 
1  Auxiliary Channels 
5000  Waveform (CCF) Frequency (Hz)
1  Waveforms Skipped 
30  Waveforms Averaged 
1  Cycles Averaged 
16  Acquisitions per Waveform 
10.0806  Updata Rate (Hz) 

#FILE INFORMATION
TRUE -- External MUX Channel results are PARSED.
FALSE -- AC DC and Phase are NOT grouped.
TRUE -- Companion Program Settings File CREATED.
FALSE -- AC data not excluded
FALSE -- DC data not excluded
FALSE -- Phase data not excluded
FALSE -- Auxillary Chn. data not excluded
Tab delimiters

#CALIBRATION STATE
TRUE -- Waveform Calibration Values APPLIED.


#AUX CALIBRATION VALUES
Val Type	aux-1	

Term	1.0000e+00	
Factor	0.0000e+00	


#WF CALIBRATION VALUES
A = Detector Channel
Val Type	A-AC1	A-AC2	A-AC3	A-AC4	A-AC5	A-AC6	A-AC7	A-AC8	A-AC9	A-AC10	A-AC11	A-AC12	A-AC13	A-AC14	A-AC15	A-AC16	A-DC1	A-DC2	A-DC3	A-DC4	A-DC5	A-DC6	A-DC7	A-DC8	A-DC9	A-DC10	A-DC11	A-DC12	A-DC13	A-DC14	A-DC15	A-DC16	A-Ph1	A-Ph2	A-Ph3	A-Ph4	A-Ph5	A-Ph6	A-Ph7	A-Ph8	A-Ph9	A-Ph10	A-Ph11	A-Ph12	A-Ph13	A-Ph14	A-Ph15	A-Ph16	

Term	0.00000e+00	0.00000e+00	0.00000e+00	0.00000e+00	0.00000e+00	0.00000e+00	0.00000e+00	0.00000e+00	0.00000e+00	0.00000e+00	0.00000e+00	0.00000e+00	0.00000e+00	0.00000e+00	0.00000e+00	0.00000e+00	0.00000e+00	0.00000e+00	0.00000e+00	0.00000e+00	0.00000e+00	0.00000e+00	0.00000e+00	0.00000e+00	0.00000e+00	0.00000e+00	0.00000e+00	0.00000e+00	0.00000e+00	0.00000e+00	0.00000e+00	0.00000e+00	0.00000e+00	0.00000e+00	0.00000e+00	0.00000e+00	0.00000e+00	0.00000e+00	0.00000e+00	0.00000e+00	0.00000e+00	0.00000e+00	0.00000e+00	0.00000e+00	0.00000e+00	0.00000e+00	0.00000e+00	0.00000e+00	
Factor	1.00000e+00	1.00000e+00	1.00000e+00	1.00000e+00	1.00000e+00	1.00000e+00	1.00000e+00	1.00000e+00	1.00000e+00	1.00000e+00	1.00000e+00	1.00000e+00	1.00000e+00	1.00000e+00	1.00000e+00	1.00000e+00	1.00000e+00	1.00000e+00	1.00000e+00	1.00000e+00	1.00000e+00	1.00000e+00	1.00000e+00	1.00000e+00	1.00000e+00	1.00000e+00	1.00000e+00	1.00000e+00	1.00000e+00	1.00000e+00	1.00000e+00	1.00000e+00	X	X	X	X	X	X	X	X	X	X	X	X	X	X	X	X	

B = Detector Channel
Val Type	B-AC1	B-AC2	B-AC3	B-AC4	B-AC5	B-AC6	B-AC7	B-AC8	B-AC9	B-AC10	B-AC11	B-AC12	B-AC13	B-AC14	B-AC15	B-AC16	B-DC1	B-DC2	B-DC3	B-DC4	B-DC5	B-DC6	B-DC7	B-DC8	B-DC9	B-DC10	B-DC11	B-DC12	B-DC13	B-DC14	B-DC15	B-DC16	B-Ph1	B-Ph2	B-Ph3	B-Ph4	B-Ph5	B-Ph6	B-Ph7	B-Ph8	B-Ph9	B-Ph10	B-Ph11	B-Ph12	B-Ph13	B-Ph14	B-Ph15	B-Ph16	

Term	0.00000e+00	0.00000e+00	0.00000e+00	0.00000e+00	0.00000e+00	0.00000e+00	0.00000e+00	0.00000e+00	0.00000e+00	0.00000e+00	0.00000e+00	0.00000e+00	0.00000e+00	0.00000e+00	0.00000e+00	0.00000e+00	0.00000e+00	0.00000e+00	0.00000e+00	0.00000e+00	0.00000e+00	0.00000e+00	0.00000e+00	0.00000e+00	0.00000e+00	0.00000e+00	0.00000e+00	0.00000e+00	0.00000e+00	0.00000e+00	0.00000e+00	0.00000e+00	5.86857e+01	-1.40275e+02	-1.27777e+02	-1.81956e+02	-7.36887e+01	-5.69442e+01	-1.56028e+02	-1.62015e+02	-8.09294e+01	-6.35191e+01	-1.71357e+02	-1.71405e+02	-1.82318e+02	-1.76945e+02	-7.95853e+01	-1.50279e+02	
Factor	5.16763e-05	1.33635e-04	4.06010e-05	4.21718e-01	1.38256e-06	1.58296e-06	1.58406e-01	5.39367e-02	1.66385e-06	1.37896e-06	8.47905e-02	2.81246e-02	2.35851e-02	8.08168e-03	1.69326e-06	1.20261e-02	1.73923e-06	1.81185e-06	5.05000e-07	2.07507e-01	1.98338e-08	1.98293e-08	7.56450e-02	2.72911e-02	1.96927e-08	1.98476e-08	4.12586e-02	1.36837e-02	1.19586e-02	4.10842e-03	1.97406e-08	5.88837e-03	X	X	X	X	X	X	X	X	X	X	X	X	X	X	X	X	



#DISTANCE SETTINGS
A = Detector Channel
A-1	A-2	A-3	A-4	A-5	A-6	A-7	A-8	A-9	A-10	A-11	A-12	A-13	A-14	A-15	A-16	

2.5000e+00	3.0000e+00	2.5000e+00	3.0000e+00	2.0000e+00	3.0000e+00	1.5000e+00	3.0000e+00	3.0000e+00	3.0000e+00	3.0000e+00	3.0000e+00	3.0000e+00	3.0000e+00	1.5000e+00	3.0000e+00	

B = Detector Channel
B-1	B-2	B-3	B-4	B-5	B-6	B-7	B-8	B-9	B-10	B-11	B-12	B-13	B-14	B-15	B-16	

1.0000e+01	1.0000e+01	1.0000e+01	1.4400e+00	1.0000e+01	1.0000e+01	1.5100e+00	1.9400e+00	1.0000e+01	1.0000e+01	1.9900e+00	2.4900e+00	2.4100e+00	2.9000e+00	1.0000e+01	2.9800e+00	




#DATA BEGINS
time	group	step	mark	flag	A-AC1	A-AC2	A-AC3	A-AC4	A-AC5	A-AC6	A-AC7	A-AC8	A-AC9	A-AC10	A-AC11	A-AC12	A-AC13	A-AC14	A-AC15	A-AC16	A-DC1	A-DC2	A-DC3	A-DC4	A-DC5	A-DC6	A-DC7	A-DC8	A-DC9	A-DC10	A-DC11	A-DC12	A-DC13	A-DC14	A-DC15	A-DC16	A-Ph1	A-Ph2	A-Ph3	A-Ph4	A-Ph5	A-Ph6	A-Ph7	A-Ph8	A-Ph9	A-Ph10	A-Ph11	A-Ph12	A-Ph13	A-Ph14	A-Ph15	A-Ph16	B-AC1	B-AC2	B-AC3	B-AC4	B-AC5	B-AC6	B-AC7	B-AC8	B-AC9	B-AC10	B-AC11	B-AC12	B-AC13	B-AC14	B-AC15	B-AC16	B-DC1	B-DC2	B-DC3	B-DC4	B-DC5	B-DC6	B-DC7	B-DC8	B-DC9	B-DC10	B-DC11	B-DC12	B-DC13	B-DC14	B-DC15	B-DC16	B-Ph1	B-Ph2	B-Ph3	B-Ph4	B-Ph5	B-Ph6	B-Ph7	B-Ph8	B-Ph9	B-Ph10	B-Ph11	B-Ph12	B-Ph13	B-Ph14	B-Ph15	B-Ph16	aux-1	digaux	

814.431	1	1	0	256	0.16378	0.044121	0.17344	0.058196	0.18655	0.25865	0.19636	0.16804	0.22236	0.033004	0.18227	0.019072	0.10343	0.033486	0.1438	0.20541	-2.8625	-3.1937	-2.9646	-3.4813	-3.2104	-3.1333	-3.775	-3.3167	-2.9833	-3.2083	-3.5042	-3.4208	-3.35	-3.1188	-3.2458	-3.3271	155.061	174.648	32.139	4.366	31.653	129.810	252.239	314.333	-4.965	1.533	286.651	187.295	-25.357	311.487	279.177	249.621	0.00074939	0.00019232	0.0001892	1336.9	4.0001e-06	2.7305e-06	1349.8	369.67	5.4393e-06	3.2849e-06	426.01	142.83	122.88	41.987	1.6904e-06	52.212	0.00021706	0.00019909	5.5595e-05	1320.9	2.1682e-06	2.1108e-06	1352	371.21	2.2355e-06	2.1294e-06	423.46	143.32	123.38	42.317	2.1624e-06	52.353	326.823	54.847	60.377	-14.535	121.488	189.807	-14.608	-9.631	110.976	86.786	-10.457	-5.782	-5.132	-0.740	117.791	-1.777	-8191	255	
814.525	1	1	0	0	0.10013	0.11508	0.2917	0.18385	0.09501	0.047792	0.22315	0.019206	0.20319	0.1187	0.21651	0.32759	0.13727	0.3386	0.075328	0.15532	-2.7208	-3.2396	-2.9396	-3.1312	-3.4083	-2.9875	-3.5792	-3.3	-3.2042	-3.4771	-2.8937	-3.2396	-3.4708	-3.0792	-3.2771	-3.2125	124.327	183.289	62.478	291.230	196.810	193.711	301.356	-5.355	12.543	102.455	320.620	302.406	-25.603	254.187	18.950	180.120	0.00068848	0.00053274	0.00015161	1343.4	5.757e-06	7.4681e-06	1349.2	367.85	2.431e-06	4.9338e-06	422.49	142.88	122.4	41.747	6.3842e-06	52.112	0.00021725	0.00019586	5.4834e-05	1322.7	2.158e-06	2.1626e-06	1352.9	370.42	2.2261e-06	2.1641e-06	422.36	142.87	123.01	42.146	2.213e-06	52.264	317.005	52.131	52.518	-14.480	136.622	152.170	-14.482	-9.737	127.787	149.797	-10.528	-5.735	-5.246	-0.670	117.475	-1.686	-8191	255	
814.646	1	1	0	0	0.41585	0.16024	0.23618	0.19003	0.21605	0.23959	0.24525	0.2581	0.12017	0.22685	0.083284	0.14371	0.35584	0.016652	0.20114	0.26002	-2.6979	-3.3417	-2.8604	-3.1917	-3.5792	-3.0458	-3.4292	-3.3521	-3.1833	-3.3688	-3.1021	-3.3167	-3.3646	-3.1792	-3.1896	-3.2625	9.999	312.716	291.842	20.847	180.016	91.439	278.865	275.571	227.386	179.213	5.691	299.577	299.948	221.444	303.353	264.811	0.00073726	0.00056217	0.00014555	1343.9	3.897e-06	3.5616e-06	1350.6	367.83	6.9287e-06	5.2542e-06	424.53	142.6	122.89	41.812	5.3987e-06	52.096	0.00021745	0.00020064	5.6019e-05	1324.1	2.1868e-06	2.1988e-06	1354.6	371.17	2.2355e-06	2.2331e-06	424.09	142.72	123.12	42.173	2.3017e-06	52.322	329.391	38.885	70.458	-14.389	117.281	124.665	-14.542	-9.806	129.016	148.871	-10.361	-5.784	-5.322	-0.957	109.398	-1.924	-8191	255	
814.742	1	1	0	0	0.089733	0.14571	0.30325	0.22748	0.25185	0.19993	0.34625	0.20598	0.22614	0.31356	0.066383	0.46832	0.33925	0.1611	0.17346	0.15017	-2.7625	-3.4062	-3.0042	-3.2896	-3.4271	-2.9375	-3.5083	-3.3854	-3.0979	-3.1729	-3.1354	-3.3438	-3.4229	-3.0062	-3.4125	-3.3625	71.732	134.006	-0.205	323.686	111.369	29.694	297.420	169.045	21.876	-5.978	132.135	258.420	304.457	330.980	5.586	284.831	0.00068364	0.0005977	0.00014143	1350.5	3.4265e-06	3.9976e-06	1355	368.46	3.4927e-06	3.4684e-06	422.15	141.83	121.76	41.479	3.3229e-06	51.762	0.00023132	0.00021424	6.0511e-05	1329.4	2.41e-06	2.3855e-06	1359.2	371.07	2.4482e-06	2.4616e-06	423.27	142.44	122.97	42.043	2.5692e-06	52.224	324.697	67.642	50.173	-14.405	145.748	126.065	-14.647	-9.892	128.780	114.698	-10.457	-5.983	-5.330	-0.878	162.209	-1.753	-8191	255	
814.838	1	1	0	0	0.1368	0.097733	0.15541	0.13984	0.02297	0.16323	0.2628	0.20215	0.15537	0.26438	0.30943	0.11423	0.25613	0.17165	0.21273	0.28169	-2.7042	-3.3812	-3.0167	-3.1479	-3.4417	-3.0542	-3.4208	-3.3854	-2.9542	-3.3208	-3.4062	-2.9833	-3.3854	-3.1146	-3.2729	-3.1521	-24.819	94.826	213.616	256.888	316.893	264.751	245.379	282.546	18.564	192.220	283.986	36.767	254.117	162.620	189.523	280.648	0.00077216	0.00056716	0.00011106	1343.2	3.1237e-06	6.0615e-06	1358.8	369.49	3.3483e-06	2.1262e-06	423.38	142.19	122.08	41.719	4.692e-06	51.872	0.00024844	0.00023898	6.5119e-05	1336.9	2.6043e-06	2.559e-06	1362.3	372.13	2.6159e-06	2.5976e-06	423.86	142.46	122.93	42.14	2.616e-06	52.216	328.334	74.176	68.739	-14.322	105.891	90.082	-14.561	-9.718	141.800	102.168	-10.625	-5.800	-5.339	-0.693	126.378	-1.677	-8191	255	
814.934	1	1	0	0	0.15585	0.21536	0.14822	0.17752	0.082018	0.069504	0.25866	0.085222	0.20659	0.25763	0.090342	0.4069	0.19112	0.17385	0.17036	0.098092	-2.4521	-3.3146	-3.1562	-2.9167	-3.2583	-3.1562	-3.4396	-3.4271	-3.0083	-3.4042	-3.4667	-3.2979	-3.5396	-3.2979	-3.2271	-3.3396	-13.606	1.401	-8.670	76.135	192.243	136.877	243.049	277.565	184.367	99.430	324.766	293.050	-0.162	-5.446	3.438	304.933	0.00063513	0.00055966	0.00020372	1351.5	1.6644e-06	5.394e-06	1359.2	370.82	2.5282e-06	3.2633e-06	424.11	142.14	122.29	41.416	5.1874e-06	51.926	0.00025056	0.00023892	6.6237e-05	1335.3	2.6168e-06	2.6156e-06	1364.4	373.29	2.6436e-06	2.6232e-06	424.68	142.73	123.09	42.076	2.6732e-06	52.248	326.359	53.395	67.324	-14.510	115.178	111.574	-14.758	-9.790	107.082	80.501	-10.389	-5.720	-5.418	-0.821	118.498	-1.820	-8191	255	
815.031	1	1	0	0	0.25376	0.47444	0.019903	0.15576	0.059832	0.22405	0.22749	0.32818	0.096673	0.1969	0.18333	0.13696	0.1423	0.2941	0.12258	0.37337	-2.4938	-3.2146	-3.3063	-2.9208	-3.2896	-3.0729	-3.4479	-3.4562	-3.1479	-3.3542	-3.2521	-3.0729	-3.5229	-3.3292	-3.2146	-3.4896	212.333	191.973	202.786	133.661	29.510	-17.335	234.449	284.894	54.547	292.152	301.352	252.966	39.574	46.095	233.916	318.583	0.00072383	0.00029439	0.00010395	1362.2	4.1001e-06	3.718e-06	1360.7	370.38	2.1876e-06	6.2001e-06	425.4	141.77	122.04	41.562	4.8084e-06	51.736	0.00025799	0.00024785	6.828e-05	1343.2	2.7147e-06	2.6766e-06	1367.6	372.61	2.7299e-06	2.6911e-06	425.23	142.64	123.11	42.097	2.7193e-06	52.219	326.776	49.643	57.950	-14.422	155.314	174.367	-14.642	-9.795	209.073	130.107	-10.508	-5.780	-5.161	-0.912	139.970	-1.835	-8191	255	
815.127	1	1	0	0	0.22229	0.11236	0.24152	0.048975	0.17845	0.020943	0.079227	0.042809	0.14865	0.26722	0.107	0.24931	0.2635	0.30726	0.1971	0.01518	-2.7042	-3.1562	-3.2687	-3.1	-3.3063	-3.1979	-3.3917	-3.2833	-3.2646	-3.2792	-3.1854	-3.1271	-3.5979	-3.25	-2.9479	-3.3396	107.206	75.317	-21.968	16.532	217.527	199.513	12.442	284.641	-11.785	103.956	285.613	-23.079	315.227	322.552	-18.620	293.544	0.00077252	0.00054512	0.00017386	1356.5	2.5631e-06	3.0894e-06	1363.3	370.38	4.9568e-06	5.6295e-06	423.8	141.78	122.4	41.526	3.6588e-06	51.701	0.00026152	0.00024826	6.9583e-05	1343.8	2.7252e-06	2.6572e-06	1367.7	373.11	2.7102e-06	2.6558e-06	424.82	142.66	123.22	42.037	2.6105e-06	52.187	315.281	77.531	77.063	-14.577	125.323	98.963	-14.583	-9.932	138.728	156.503	-10.392	-5.653	-5.284	-0.842	132.938	-1.754	-8191	255	
815.223	1	1	0	0	0.047827	0.026839	0.080388	0.22599	0.15153	0.16167	0.4324	0.1617	0.22726	0.19481	0.16316	0.31337	0.36418	0.23604	0.16359	0.083513	-2.8604	-2.9292	-3.3542	-3.2625	-3.4542	-3.3708	-3.2875	-3.4208	-3.0042	-3.2521	-3.4125	-2.9208	-3.4271	-3.4042	-2.9729	-3.4437	67.575	12.887	241.749	300.407	69.294	8.860	253.927	237.989	292.066	293.014	234.277	308.953	320.970	39.983	298.960	244.934	0.00075984	0.00057049	0.00012836	1352.9	6.891e-06	5.7023e-06	1357.8	368.56	3.1251e-06	4.7224e-06	424.26	141.82	122.02	41.472	9.3167e-06	51.746	0.00025414	0.00023414	6.4666e-05	1337.5	2.5781e-06	2.5474e-06	1363.4	371.84	2.4886e-06	2.5051e-06	424.37	142.26	122.81	42.04	2.4905e-06	52.178	318.652	37.125	89.293	-14.306	126.743	100.442	-14.648	-9.911	19.287	122.606	-10.322	-5.874	-5.255	-0.593	127.829	-1.719	-8191	255	
815.344	1	1	0	0	0.24152	0.24335	0.10373	0.24664	0.15827	0.082301	0.16617	0.048355	0.1497	0.19018	0.25371	0.16461	0.26961	0.12621	0.071148	0.25449	-2.7021	-3.2625	-3.2687	-3.0917	-3.1917	-3.4437	-3.1979	-3.5438	-3.3021	-3.0875	-3.55	-3.2396	-3.3583	-3.4021	-3.2333	-3.4875	121.050	103.027	102.629	277.493	131.264	141.270	214.626	132.588	324.040	169.354	258.818	243.670	-13.272	233.491	57.230	199.513	0.00076113	0.0003481	0.00018849	1352.8	5.3844e-06	5.7347e-06	1358.8	370.29	4.6462e-06	3.3574e-06	422.85	141.06	122.54	41.445	3.9134e-06	51.562	0.00024398	0.00022699	6.371e-05	1339.3	2.4957e-06	2.5266e-06	1364.4	372.71	2.552e-06	2.5096e-06	424.12	142.05	122.95	42.021	2.6151e-06	52.162	324.593	41.019	68.272	-14.792	123.318	121.372	-14.476	-9.780	79.555	119.245	-10.357	-5.874	-5.029	-0.865	87.249	-1.665	-8191	255	
815.438	1	1	0	0	0.18439	0.19296	0.16005	0.10836	0.13575	0.20833	0.29324	0.1368	0.21751	0.2852	0.32104	0.084355	0.16271	0.093442	0.075942	0.15034	-2.7104	-3.3812	-3.3729	-2.9688	-3.3271	-3.4813	-3.2438	-3.4813	-3.3375	-3.2292	-3.4396	-3.0833	-3.1792	-3.3646	-2.9667	-3.3333	2.271	148.120	278.560	-21.910	93.636	318.072	274.881	197.381	302.719	195.445	14.291	261.671	293.593	222.462	106.664	103.598	0.00074841	0.0004344	9.0916e-05	1352.9	3.3758e-06	2.2915e-06	1354.7	369.39	1.5644e-06	3.2309e-06	423.25	141.91	122.67	41.675	3.7866e-06	51.839	0.00025717	0.0002384	6.7671e-05	1338.5	2.6512e-06	2.6354e-06	1363.5	372.18	2.6827e-06	2.6661e-06	424.38	142.92	123.35	42.175	2.6604e-06	52.313	309.966	50.351	65.070	-14.294	152.560	84.440	-14.698	-9.807	76.312	151.887	-10.323	-5.805	-5.206	-0.824	115.010	-1.759	-8191	255	
815.511	1	1	0	0	0.073458	0.17378	0.1114	0.12902	0.14452	0.0544	0.12073	0.19248	0.13956	0.13723	0.1664	0.28449	0.21815	0.1567	0.13024	0.29277	-2.8833	-3.1979	-3.2104	-3.0979	-3.2458	-3.4208	-3.15	-3.5625	-3.3312	-3.0104	-3.1979	-3.1083	-3.2792	-3.5625	-3.1042	-3.1937	204.542	293.838	287.299	287.487	56.608	210.371	326.563	184.060	244.341	9.534	-12.656	260.953	152.925	283.991	229.692	297.986	0.00092725	0.00072932	0.00014724	1351.4	5.6428e-06	7.7382e-06	1365.7	369.9	5.0887e-06	4.076e-06	422.9	142.48	122.62	41.567	2.1248e-06	51.91	0.00026112	0.00024481	6.8024e-05	1342.1	2.6817e-06	2.6836e-06	1369.3	373.33	2.6944e-06	2.7009e-06	424.41	143.01	123.43	42.189	2.7562e-06	52.383	328.540	28.696	58.947	-14.381	97.667	101.083	-14.630	-9.533	141.640	147.573	-10.314	-5.797	-5.100	-1.122	136.410	-1.550	-8191	255	
815.630	1	1	0	0	0.3116	0.11125	0.15031	0.12755	0.12131	0.26086	0.29551	0.32253	0.10648	0.064085	0.054685	0.065577	0.29087	0.19133	0.18979	0.38187	-2.6792	-3.0687	-3.225	-3.2625	-3.0021	-3.3896	-3.3104	-3.2271	-3.3708	-3.0438	-3.4271	-3.1312	-3.1917	-3.525	-3.2333	-3.3375	-22.697	51.501	251.698	183.729	240.107	101.897	302.867	224.338	328.430	160.957	229.230	-4.874	-25.706	43.026	38.100	281.636	0.00060692	0.00040383	0.00017026	1356.6	3.5938e-06	4.5802e-06	1367.9	370.87	4.5497e-06	1.3398e-06	423.99	142.92	122.97	41.776	3.7057e-06	51.974	0.00027221	0.00025273	7.108e-05	1347.3	2.8149e-06	2.7769e-06	1374.9	373.55	2.8199e-06	2.7783e-06	425.77	143.38	123.81	42.418	2.8229e-06	52.476	321.385	3.418	67.596	-14.500	115.980	86.583	-14.627	-9.666	125.984	61.419	-10.435	-5.608	-5.171	-0.813	97.282	-1.610	-8191	255	
815.726	1	1	0	0	0.14073	0.019457	0.20943	0.11254	0.083447	0.21213	0.29729	0.1998	0.091466	0.10413	0.16122	0.098993	0.14401	0.12423	0.094467	0.26756	-2.9604	-3.0271	-3.1375	-3.2458	-3.1229	-3.3667	-3.1813	-3.3917	-3.4938	-2.8125	-3.2958	-3.4646	-2.8958	-3.4417	-3.1	-3.2104	97.988	208.592	161.402	172.276	204.684	280.221	296.151	186.287	44.048	237.583	261.417	241.353	247.292	141.792	147.770	228.601	0.00069781	0.00054866	0.00012083	1363.3	5.1072e-06	5.5482e-06	1372.8	372.61	3.9148e-06	2.6184e-06	425.09	142.8	123.23	41.972	7.3915e-06	52.007	0.00027056	0.00025499	7.2284e-05	1352.1	2.7874e-06	2.7497e-06	1378.1	374.42	2.7787e-06	2.7367e-06	426.32	143.85	123.94	42.485	2.7403e-06	52.578	321.738	57.012	65.388	-14.714	115.307	111.388	-14.526	-9.820	158.825	104.731	-10.572	-5.996	-5.385	-0.660	109.667	-1.703	-8191	255	
815.823	1	1	0	0	0.085274	0.13746	0.11213	0.25922	0.11794	0.097871	0.16799	0.25336	0.34936	0.29773	0.14901	0.38682	0.092019	0.35792	0.15749	0.28146	-2.9875	-3.0438	-3.3854	-3.2729	-2.9125	-3.2708	-3.3417	-3.4333	-3.2958	-3.1042	-3.5167	-3.1937	-2.8854	-3.4979	-3.1521	-3.35	27.393	114.320	149.160	107.600	239.281	233.071	203.442	319.300	249.407	70.009	299.249	187.869	106.888	284.327	151.245	244.861	0.00073759	0.00034483	0.00018111	1360.2	6.4472e-06	6.8741e-06	1370.5	371.59	1.3956e-06	2.2621e-06	424.29	142.9	123.12	41.855	7.7892e-06	51.974	0.00026631	0.00024897	7.0094e-05	1351	2.695e-06	2.7194e-06	1376.6	374.13	2.761e-06	2.7102e-06	426.46	143.33	124.03	42.422	2.6955e-06	52.578	329.214	25.631	52.299	-14.475	123.299	119.420	-14.491	-9.780	292.614	124.672	-10.505	-5.955	-5.481	-0.697	120.886	-1.732	-8191	255	
815.919	1	1	0	0	0.37285	0.16384	0.11339	0.09969	0.076646	0.2341	0.14026	0.1754	0.1274	0.23984	0.083788	0.27045	0.11477	0.41343	0.21142	0.058697	-2.8521	-3.1271	-3.3312	-3.2958	-3.0354	-3.4604	-3.4938	-3.1562	-3.4646	-3.0812	-3.3854	-3.4813	-3.0792	-3.4542	-3.2354	-3.1229	52.999	-2.208	306.369	136.410	196.034	272.252	218.277	255.946	189.838	-9.480	90.505	249.402	297.941	299.475	237.142	242.408	0.00059428	0.00072758	0.00019217	1365.1	3.5801e-06	3.8126e-06	1372.2	371.69	6.1234e-06	7.1707e-06	424.79	143.05	123.4	41.874	5.7686e-06	52.019	0.00026176	0.0002434	6.9675e-05	1350.7	2.6674e-06	2.7127e-06	1378.1	374.11	2.6933e-06	2.6723e-06	425.91	143.48	123.95	42.452	2.6926e-06	52.532	324.985	54.081	38.991	-14.308	102.783	130.249	-14.726	-9.955	145.353	161.282	-10.247	-5.910	-5.200	-0.889	103.060	-1.544	-8191	255	
816.039	1	1	0	0	0.214	0.26372	0.14056	0.3552	0.13893	0.26418	0.42395	0.11536	0.066653	0.062642	0.34476	0.16682	0.10895	0.19878	0.20578	0.2576	-2.8271	-3.0438	-3.1771	-3.2667	-3.1833	-3.3	-3.3417	-3.4042	-3.3333	-2.9875	-3.475	-3.4667	-3.0521	-3.5458	-3.1979	-2.9646	147.802	226.094	142.054	316.448	187.034	62.771	296.515	240.569	85.898	24.270	240.191	231.639	-9.907	249.135	205.030	315.134	0.00073325	0.00033388	0.00017299	1369	5.7168e-06	2.5244e-06	1370.1	371.77	2.6905e-06	5.5639e-06	424.75	143.16	123.32	41.897	2.1725e-06	52.37	0.00026031	0.00024258	6.8661e-05	1352.5	2.6627e-06	2.6261e-06	1375.7	374.27	2.6868e-06	2.6458e-06	426.08	143.43	123.76	42.383	2.6684e-06	52.58	330.743	29.140	61.216	-14.519	121.530	115.512	-14.555	-9.691	128.075	150.977	-10.314	-5.825	-5.270	-1.077	107.044	-1.763	-8191	255	
816.111	1	1	0	0	0.12634	0.099383	0.17699	0.085672	0.13173	0.16006	0.11497	0.46334	0.10893	0.13403	0.047825	0.16658	0.036066	0.30675	0.16755	0.20751	-2.9125	-3.0979	-3.1	-3.2396	-2.9	-3.4625	-3.3792	-3.1083	-3.3458	-3.3812	-3.2125	-3.3375	-3.2562	-3.3479	-3.225	-2.9708	134.529	72.092	101.189	320.507	68.291	237.052	-22.048	275.784	37.751	185.227	46.941	84.209	159.456	292.869	-18.748	-21.984	0.00065069	0.00045879	0.00014874	1369.4	4.8192e-06	5.829e-06	1370.7	371.41	2.6853e-06	5.5065e-06	423.4	142.65	122.58	41.662	4.6992e-06	52.177	0.00025591	0.00023949	6.8309e-05	1352.9	2.6305e-06	2.6092e-06	1374.4	373.38	2.6901e-06	2.6687e-06	424.82	143.03	123.4	42.348	2.6772e-06	52.476	325.624	54.340	63.763	-14.278	105.873	116.520	-14.619	-9.676	144.287	168.451	-10.607	-5.747	-5.352	-0.646	154.435	-1.638	-8191	255	
816.207	1	1	0	0	0.17393	0.052644	0.2721	0.21601	0.097907	0.15896	0.19865	0.24211	0.076712	0.070593	0.16187	0.14717	0.12568	0.097241	0.18675	0.18551	-2.9958	-3.0333	-2.9646	-3.2646	-3.0896	-3.3	-3.5312	-3.0854	-3.2062	-3.0708	-3.1333	-3.3688	-3.0438	-3.4188	-3.275	-2.975	113.767	300.286	97.129	273.311	301.233	1.872	284.424	122.139	56.196	38.582	224.479	34.537	236.646	51.568	316.514	267.633	0.00062052	0.0004275	0.00014192	1370.8	3.5451e-06	7.8529e-06	1372.4	370.59	2.9407e-06	5.0588e-06	424.26	142.23	122.72	41.895	3.9066e-06	51.714	0.00026069	0.00024528	6.8977e-05	1350.7	2.7153e-06	2.7017e-06	1375.9	373.05	2.7502e-06	2.7151e-06	425.24	143.03	123.22	42.286	2.7715e-06	52.367	326.882	78.556	61.182	-14.233	152.262	120.665	-14.696	-9.647	165.508	139.233	-10.468	-5.838	-5.227	-0.869	92.652	-1.914	-8191	255	
816.303	1	1	0	0	0.25367	0.13643	0.30009	0.11096	0.13656	0.26319	0.34797	0.27658	0.27324	0.3607	0.18901	0.23374	0.29595	0.30989	0.14167	0.15861	-2.8979	-3.2854	-3.0563	-3.4479	-3.2417	-3.3646	-3.55	-3.1479	-3.1688	-3.3229	-3.1854	-3.3833	-3.3771	-3.3521	-3.3417	-3.1792	109.982	237.354	194.425	232.445	92.399	270.837	230.220	309.950	-12.667	182.708	179.949	35.126	303.144	224.243	136.378	241.378	0.00059317	0.00052601	0.00010695	1364.5	3.9942e-06	4.4234e-06	1364.2	369.48	4.961e-06	3.8769e-06	424.83	141.82	122.64	41.692	9.1992e-06	52.036	0.00026635	0.00025137	7.1541e-05	1349.7	2.8092e-06	2.7693e-06	1373.8	372.8	2.8195e-06	2.7873e-06	424.65	142.79	123.28	42.331	2.846e-06	52.451	322.276	10.686	46.340	-14.457	128.056	154.924	-14.615	-9.885	117.856	120.814	-10.470	-5.825	-5.394	-0.900	120.909	-1.650	-8191	255	
816.422	1	1	0	0	0.25379	0.087474	0.060525	0.12719	0.17243	0.061401	0.18995	0.16173	0.18328	0.32589	0.25406	0.21371	0.18364	0.11805	0.32868	0.2917	-2.7604	-3.1354	-2.8729	-3.6771	-3.2896	-3.0417	-3.6292	-3.3125	-3.1792	-3.0646	-3.225	-3.5125	-3.2167	-3.1729	-3.5125	-3.2313	294.584	177.371	188.306	227.689	162.911	120.049	261.367	287.752	9.523	117.201	320.334	288.201	294.555	248.457	57.326	-0.749	0.00066264	0.00091743	0.00018643	1361	6.3153e-06	6.0179e-06	1370.5	371.51	4.2603e-06	2.0525e-06	422.25	141.77	122.61	41.842	7.4632e-06	51.742	0.00027794	0.00025964	7.2372e-05	1351.2	2.8443e-06	2.8766e-06	1376.9	373.34	2.8541e-06	2.8558e-06	424.75	142.92	123.41	42.336	2.7977e-06	52.431	325.949	53.127	77.468	-14.468	133.182	133.014	-14.513	-9.824	121.139	152.343	-10.351	-5.784	-5.359	-0.665	129.599	-1.964	-8191	255	
816.518	1	1	0	0	0.14742	0.28686	0.15248	0.10681	0.15087	0.22268	0.10794	0.39355	0.21372	0.13769	0.13298	0.27609	0.11141	0.29311	0.22513	0.14627	-2.9062	-3.3875	-2.9292	-3.4771	-3.2646	-2.8812	-3.4833	-3.2521	-3.0979	-3.4562	-3.4271	-3.3292	-3.3	-3.1646	-3.2875	-3.2313	290.594	28.963	22.282	248.538	234.416	253.615	-5.795	317.554	230.943	254.514	271.591	254.143	257.772	110.936	26.548	298.650	0.00069131	0.00049985	0.00011274	1361.8	5.9905e-06	5.1553e-06	1372.9	370.9	4.5955e-06	2.9304e-06	424.07	141.97	122.47	41.807	3.3726e-06	52.004	0.00027274	0.00025738	7.1601e-05	1350	2.8172e-06	2.8262e-06	1376.1	373.7	2.8336e-06	2.7847e-06	425.4	143.05	123.72	42.359	2.8459e-06	52.438	331.999	11.183	84.550	-14.849	109.686	140.922	-14.623	-9.808	177.345	117.078	-10.406	-5.685	-5.449	-0.927	134.046	-1.587	-8191	255	
816.614	1	1	0	0	0.056125	0.068489	0.18102	0.057199	0.34238	0.11418	0.2564	0.056907	0.13451	0.11967	0.13305	0.10038	0.1358	0.33167	0.27244	0.096897	-2.8708	-3.1729	-2.9167	-3.4437	-3.1854	-2.9625	-3.5729	-3.2958	-2.9313	-3.3208	-3.2375	-3.4958	-3.3104	-3.2062	-3.3396	-3.1646	233.538	45.831	114.107	73.026	195.827	-17.694	315.768	10.665	267.925	8.459	318.612	154.742	-2.580	263.707	311.475	229.232	0.00056688	0.00064562	0.00021987	1367.5	4.0227e-06	9.4821e-06	1368.8	370.08	6.9429e-06	4.8708e-06	425.78	142.03	122.38	41.823	6.1293e-06	52.34	0.00027321	0.000258	7.1459e-05	1351.7	2.8323e-06	2.8047e-06	1376.1	372.98	2.8051e-06	2.7692e-06	425.61	143.06	123.5	42.404	2.8299e-06	52.646	321.524	58.593	52.091	-14.441	84.243	129.222	-14.633	-9.854	134.182	104.171	-10.376	-5.781	-5.185	-0.825	111.814	-1.775	-8191	255	
816.735	1	1	0	0	0.19084	0.097032	0.37626	0.20175	0.22878	0.15104	0.18715	0.32805	0.15868	0.14629	0.1471	0.3143	0.1517	0.028363	0.12216	0.3181	-2.7625	-3.3729	-2.9042	-3.3896	-3.325	-3.0896	-3.5833	-3.3021	-3.0146	-3.3375	-3.3667	-3.3521	-3.4625	-3.1125	-3.1292	-3.3833	228.653	283.374	112.064	252.644	233.992	246.414	229.654	276.790	58.839	245.560	261.958	-23.381	313.574	148.534	118.072	325.741	0.00071404	0.00045903	0.00022893	1357.9	5.0591e-06	6.8439e-06	1371.4	369.05	5.8602e-06	5.5011e-06	422.54	142.03	122.96	41.987	7.2117e-06	52.088	0.00026706	0.00025198	7.1042e-05	1348.8	2.7631e-06	2.7494e-06	1376.4	373.02	2.8149e-06	2.7484e-06	424.57	143.07	123.49	42.421	2.8226e-06	52.454	324.803	48.332	100.076	-14.651	122.399	127.442	-14.553	-9.865	124.370	137.818	-10.401	-5.776	-5.190	-0.801	139.349	-1.751	-8191	255	
816.807	1	1	0	0	0.0522	0.12793	0.11014	0.10789	0.11858	0.11911	0.14795	0.1021	0.14815	0.27088	0.34158	0.26285	0.043887	0.1537	0.034333	0.088026	-2.6854	-3.4062	-3.2042	-3.2562	-3.35	-3.05	-3.4771	-3.3688	-3.0271	-3.3583	-3.1729	-3.2146	-3.4188	-3.1604	-3.0708	-3.2271	153.075	177.616	82.116	183.780	97.226	314.070	162.596	257.977	145.675	53.731	316.190	310.108	296.233	209.022	168.338	165.267	0.00063307	0.00035999	0.00015114	1360.7	3.6299e-06	4.9763e-06	1368	369.92	3.777e-06	7.3126e-06	424.79	142.29	122.48	41.678	4.9544e-06	52.024	0.00027252	0.000255	7.0805e-05	1349.2	2.7985e-06	2.7786e-06	1374.7	372.82	2.7926e-06	2.7666e-06	424.95	142.95	123.56	42.33	2.8637e-06	52.547	319.596	64.697	102.314	-14.615	93.915	120.998	-14.474	-9.794	146.973	148.171	-10.580	-5.739	-5.416	-0.711	114.426	-1.719	-8191	255	
816.903	1	1	0	0	0.11524	0.097032	0.031247	0.069866	0.098973	0.085778	0.44199	0.095403	0.27269	0.077609	0.11311	0.20442	0.24004	0.16378	0.18123	0.33382	-2.4688	-3.4583	-3.1708	-3.0208	-3.3312	-3.0104	-3.4562	-3.2625	-2.9313	-3.4354	-2.9833	-3.0917	-3.275	-3.1854	-3.1854	-3.1771	310.944	196.354	89.319	298.027	86.136	278.282	247.143	226.493	55.466	20.981	288.039	290.810	284.475	268.132	100.671	263.789	0.00072565	9.9651e-05	0.00013636	1364	3.6904e-06	6.9505e-06	1365.6	370.37	4.5918e-06	6.6693e-06	422.9	142.03	122.95	41.913	6.672e-06	52.108	0.00027619	0.00026176	7.2531e-05	1349.5	2.8527e-06	2.8036e-06	1374.6	373	2.8578e-06	2.8338e-06	425.18	142.96	123.65	42.411	2.9014e-06	52.51	329.126	68.759	87.325	-14.561	148.424	134.507	-14.803	-9.934	73.337	150.042	-10.759	-5.849	-5.236	-0.758	108.418	-1.717	-8191	255	
817.024	1	1	0	0	0.13948	0.17064	0.18034	0.20584	0.084883	0.1918	0.16285	0.13991	0.16486	0.18201	0.16877	0.15762	0.37955	0.092279	0.24708	0.047001	-2.5625	-3.4167	-3.05	-3.1708	-3.5146	-2.8771	-3.3979	-3.3625	-2.8979	-3.4292	-3.4583	-3.1667	-3.3896	-3.4021	-3.1813	-3.4625	221.108	258.501	276.533	324.379	144.712	300.267	-5.691	320.248	256.430	59.287	307.861	270.850	74.690	331.768	38.962	117.263	0.00059641	0.00084259	0.00015364	1366.5	4.4923e-06	3.2916e-06	1368.7	370.53	3.8901e-06	5.4547e-06	423.58	142.73	123.09	42.088	2.6184e-06	52.066	0.00027392	0.00026751	7.4446e-05	1350.6	2.9497e-06	2.961e-06	1376.5	373.28	3.0044e-06	3.0091e-06	424.81	143.38	123.74	42.554	3.0827e-06	52.621	316.700	44.669	57.079	-14.392	147.876	112.191	-14.586	-9.795	90.676	130.975	-10.468	-5.741	-5.326	-0.818	127.104	-1.790	-8191	255	
817.120	1	1	0	0	0.20686	0.21717	0.053159	0.074699	0.033568	0.074039	0.26307	0.21132	0.091553	0.12177	0.19584	0.08296	0.15061	0.21529	0.10161	0.14702	-2.6542	-3.1917	-3.1146	-3.1333	-3.3875	-3.1271	-3.3979	-3.5646	-3.0687	-3.3208	-3.2458	-3.0583	-3.5771	-3.1792	-3.1896	-3.4708	75.735	273.555	16.950	241.234	35.731	62.127	293.834	207.451	323.303	-16.067	185.504	95.964	141.633	329.968	267.251	260.944	0.00068538	0.00061874	0.00013884	1365.3	5.807e-06	7.0113e-06	1367.5	370.65	3.7148e-06	6.2594e-06	422.82	142.36	123.16	41.938	6.1296e-06	52.063	0.00028815	0.00028016	7.8666e-05	1355.2	3.0833e-06	3.0897e-06	1376.9	374.6	3.0593e-06	3.1249e-06	426.04	143.65	124.17	42.591	3.0752e-06	52.654	322.919	47.912	59.668	-14.539	112.664	108.165	-14.536	-9.760	109.259	108.458	-10.448	-5.771	-5.317	-0.757	137.865	-1.571	-8191	255	
817.216	1	1	0	0	0.097539	0.15764	0.11163	0.23898	0.28275	0.17751	0.21462	0.26137	0.18426	0.072561	0.30048	0.1606	0.11074	0.20601	0.2059	0.28129	-2.7667	-3.1625	-3.3021	-3.2125	-3.3667	-3.1021	-3.3021	-3.4271	-3.0312	-3.2708	-3.3458	-3.1875	-3.4917	-3.2917	-3.1667	-3.5	47.468	135.578	42.119	269.722	261.289	60.387	274.180	299.332	278.758	199.826	318.779	-23.235	110.512	330.311	41.311	307.717	0.00073605	0.00066839	0.00013453	1367.1	3.8896e-06	5.1953e-06	1374.9	371.38	5.9005e-06	4.8307e-06	425.13	142.65	122.98	42.081	4.3653e-06	52.179	0.00029418	0.00028296	7.7988e-05	1358.1	3.0706e-06	3.0308e-06	1381.2	374.58	2.9765e-06	2.9972e-06	426.61	143.68	124.15	42.582	2.9471e-06	52.699	328.693	29.227	87.704	-14.621	101.768	131.174	-14.649	-9.894	89.559	133.578	-10.581	-5.697	-5.225	-0.951	174.029	-1.660	-8191	255	
817.336	1	1	0	0	0.035735	0.093057	0.090009	0.3746	0.096087	0.21414	0.253	0.2722	0.021185	0.11154	0.079218	0.069169	0.38319	0.2659	0.23765	0.2665	-2.5542	-3.0917	-3.3271	-2.9333	-3.325	-3.2542	-3.2	-3.5958	-3.2604	-3.125	-3.4271	-3.0812	-3.4313	-3.2792	-3.2021	-3.5521	190.722	33.785	187.954	189.741	300.651	281.439	259.527	224.784	111.957	272.450	15.590	194.668	297.550	306.387	148.387	-26.775	0.00065635	0.00021615	0.00011175	1374.9	2.3556e-06	5.2608e-06	1371.4	371.23	6.0822e-06	5.142e-06	426.64	142.85	123.17	41.944	5.2212e-06	52.222	0.00028116	0.00026756	7.3733e-05	1356.7	2.8999e-06	2.8783e-06	1379.2	374.83	2.8638e-06	2.8532e-06	426.65	143.61	124.17	42.503	2.8572e-06	52.724	331.178	44.657	54.552	-14.622	109.317	95.006	-14.605	-9.882	142.949	125.377	-10.506	-5.883	-5.134	-1.020	109.429	-2.015	-8191	255	
817.408	1	1	0	0	0.041561	0.22189	0.016984	0.21082	0.16315	0.13005	0.3765	0.34146	0.046813	0.19107	0.22485	0.19516	0.080931	0.21347	0.0095701	0.23484	-2.7333	-3.3625	-3.3187	-3.0187	-3.4417	-3.3208	-3.1354	-3.5229	-2.9729	-3.3271	-3.45	-3.1854	-3.3542	-3.3312	-2.9979	-3.6125	182.888	88.910	181.103	8.341	133.065	-20.249	262.519	278.492	23.420	158.188	210.033	92.435	280.918	-15.659	312.501	265.883	0.00062623	0.00056251	0.00016298	1368	4.4566e-06	4.6584e-06	1373.7	372.14	7.194e-06	4.2053e-06	423.87	142.9	123.43	41.936	3.7858e-06	52.38	0.00027866	0.00026149	7.1873e-05	1355.3	2.9087e-06	2.817e-06	1379.4	374.67	2.8528e-06	2.8548e-06	425.53	143.84	124.2	42.524	2.826e-06	52.792	329.717	32.577	73.520	-14.380	122.644	147.859	-14.821	-9.703	128.696	156.466	-10.451	-6.067	-5.367	-0.933	144.680	-1.628	-8191	255	
817.504	1	1	0	0	0.029156	0.11645	0.047624	0.017402	0.17064	0.059085	0.17886	0.17728	0.14947	0.14949	0.22167	0.15562	0.11967	0.23984	0.23188	0.22005	-2.6604	-3.2125	-3.475	-3.0271	-3.3375	-3.1771	-3.3896	-3.4667	-3.2833	-3.1667	-3.5417	-2.9938	-3.4396	-3.5	-2.925	-3.5458	151.395	253.846	168.216	274.729	153.335	113.110	299.096	256.064	327.052	8.301	306.524	204.700	319.818	310.183	62.322	268.207	0.0007153	0.00078672	0.00010553	1365.6	4.4805e-06	4.2541e-06	1377.9	371.77	9.5991e-07	2.925e-06	423.74	142.52	123.26	41.919	6.6584e-06	52.183	0.00027743	0.00026636	7.3743e-05	1354.5	2.9062e-06	2.9033e-06	1380.3	374.51	2.9283e-06	2.9154e-06	425.75	143.61	124.13	42.526	2.9177e-06	52.638	-25.673	92.207	57.632	-14.538	92.386	106.606	-14.605	-9.770	141.386	149.350	-10.557	-5.552	-5.229	-1.021	122.671	-1.831	-8191	255	
817.599	1	1	0	0	0.16388	0.16255	0.14996	0.31009	0.083129	0.086522	0.15196	0.18596	0.21342	0.19995	0.049938	0.2372	0.30271	0.22077	0.13597	0.24385	-2.775	-3.0417	-3.4229	-3.4854	-3.1646	-3.3042	-3.4333	-3.575	-3.1188	-3.2292	-3.6896	-3.3917	-3.2667	-3.6042	-3.0333	-3.4417	287.722	104.844	270.862	321.878	204.627	58.795	221.978	280.339	99.340	106.512	153.834	317.945	288.798	268.881	312.682	289.460	0.00063001	0.0006015	0.0001744	1371.7	2.4956e-06	6.9882e-07	1370.1	371.01	3.5942e-06	3.9922e-06	424.72	142.51	123.1	41.91	2.3552e-06	52.057	0.00028181	0.00026558	7.4262e-05	1356	2.9542e-06	2.8834e-06	1377.4	373.96	2.9226e-06	2.8532e-06	425.47	143.44	124.02	42.451	2.8882e-06	52.656	322.717	43.721	50.540	-14.546	136.677	109.578	-14.516	-9.781	178.696	180.898	-10.423	-5.780	-5.179	-0.839	35.452	-1.743	-8191	255	
817.719	1	1	0	0	0.23471	0.12236	0.18919	0.18854	0.21307	0.27764	0.18311	0.17606	0.067513	0.15714	0.13599	0.24894	0.21401	0.30442	0.10023	0.18864	-2.9417	-3.2125	-3.2396	-3.1542	-3.1958	-3.3312	-3.3812	-3.6729	-3.2062	-3.1104	-3.5812	-3.25	-3.2229	-3.5062	-3.0354	-3.225	332.082	213.688	229.212	30.089	241.711	-8.259	270.326	238.187	299.209	208.684	276.317	314.275	323.184	321.958	240.221	180.048	0.0007488	0.00071526	0.00014824	1362	2.0903e-06	6.9215e-06	1370.9	371.7	4.4897e-06	4.9203e-06	424.97	142.83	123.16	41.918	5.8631e-06	52.343	0.00027757	0.00026061	7.2915e-05	1351.8	2.8869e-06	2.8306e-06	1377	374.61	2.9001e-06	2.8464e-06	426.41	143.84	124.13	42.532	2.8874e-06	52.7	329.579	54.626	74.727	-14.682	115.298	185.741	-14.494	-9.873	136.621	146.356	-10.353	-5.856	-5.315	-0.937	188.245	-1.619	-8191	255	
817.815	1	1	0	0	0.082277	0.10912	0.066013	0.21184	0.082744	0.19762	0.37336	0.19543	0.18879	0.10672	0.22068	0.1374	0.22863	0.25247	0.10153	0.22917	-3.0354	-2.9854	-3.2021	-3.1333	-3.1021	-3.4	-3.2333	-3.3625	-3.3063	-3.1188	-3.6083	-3.4479	-3.0979	-3.5271	-3.1521	-3.5104	9.075	228.662	175.870	236.856	330.453	66.229	287.392	300.358	29.368	323.752	254.504	319.361	-7.334	54.267	268.862	269.502	0.00071836	0.00071773	0.00012357	1367.6	5.968e-06	4.0464e-06	1373.6	371.7	4.881e-06	3.4107e-06	425.72	142.66	123.74	42.082	5.4031e-06	52.388	0.0002737	0.00026152	7.3395e-05	1353.9	2.8896e-06	2.8188e-06	1381.5	374.65	2.8587e-06	2.8022e-06	427.37	143.85	124.57	42.625	2.8315e-06	52.808	315.742	27.981	57.003	-14.692	120.847	182.655	-14.524	-9.888	54.800	120.268	-10.546	-5.841	-5.118	-0.806	143.064	-1.770	-8191	255	
817.912	1	1	0	0	0.14523	0.18276	0.14471	0.22147	0.10659	0.09086	0.26362	0.07366	0.11441	0.29208	0.38151	0.18383	0.11807	0.14645	0.31232	0.043896	-2.9792	-2.9729	-3.3083	-3.3438	-3.1188	-3.4125	-3.3625	-3.4333	-3.375	-3.3292	-3.6292	-3.3146	-3.3125	-3.5062	-3.2667	-3.1917	91.650	237.632	215.590	-8.516	227.794	78.441	223.348	44.104	-1.911	57.200	218.173	267.573	259.776	329.280	82.623	167.766	0.00071366	0.00049512	0.00017465	1367	4.3209e-06	6.0267e-06	1373.2	371.69	6.4273e-06	1.4347e-06	425.43	142.8	123.21	42.128	2.6668e-06	52.073	0.00027161	0.00025771	7.3572e-05	1354.9	2.8162e-06	2.8491e-06	1379.5	374.7	2.8526e-06	2.8438e-06	426.21	143.37	124.06	42.552	2.861e-06	52.554	326.833	41.894	32.752	-14.563	101.517	132.407	-14.665	-9.610	136.781	182.040	-10.482	-5.794	-5.240	-0.934	147.849	-1.695	-8191	255	
818.008	1	1	0	0	0.25236	0.092494	0.18206	0.2582	0.24853	0.25196	0.32744	0.19465	0.139	0.078492	0.14435	0.24148	0.4469	0.31334	0.15828	0.069524	-3.0229	-2.8354	-3.3542	-3.2792	-3.2625	-3.2479	-3.3042	-3.2021	-3.4813	-2.9938	-3.45	-3.4354	-3.2729	-3.4354	-3.3625	-3.4167	304.481	7.939	82.098	16.024	109.271	48.686	282.073	321.205	39.207	201.690	117.225	285.983	319.552	-26.392	266.024	31.327	0.0006936	0.00014502	9.9657e-05	1361.9	4.5067e-06	5.015e-06	1369.3	371.91	5.4867e-06	1.9292e-06	424.19	142.68	122.77	41.962	7.1005e-06	52.283	0.00027018	0.00025276	7.1169e-05	1353.1	2.7725e-06	2.7885e-06	1376.7	374.2	2.7721e-06	2.7463e-06	425.76	143.63	123.91	42.53	2.7323e-06	52.518	326.534	131.690	64.157	-14.585	121.754	131.825	-14.605	-9.908	105.903	136.061	-10.586	-5.645	-5.389	-1.007	104.552	-1.804	-8191	255	
818.104	1	1	0	0	0.10306	0.22377	0.2119	0.28822	0.15738	0.055669	0.12591	0.24677	0.28724	0.13011	0.20973	0.1929	0.23085	0.13311	0.19882	0.1661	-2.8979	-2.9167	-3.2208	-3.2625	-2.9521	-3.4104	-3.6021	-3.2542	-3.1521	-3.0917	-3.2458	-3.5021	-3.1042	-3.4667	-3.4375	-3.1042	295.911	61.076	77.413	315.122	189.005	307.199	307.307	284.666	144.229	124.631	318.851	295.377	295.566	288.666	193.526	249.665	0.00078397	0.00028072	9.6448e-05	1367.7	4.92e-06	2.9755e-06	1368.2	370.3	5.8467e-06	3.2748e-06	424.18	142.61	123.01	41.796	2.0711e-06	51.842	0.00026204	0.00024584	6.8987e-05	1353.1	2.6186e-06	2.6299e-06	1375.7	374.17	2.6271e-06	2.5345e-06	424.58	143.28	123.73	42.299	2.518e-06	52.377	324.255	34.413	67.022	-14.314	141.248	65.069	-14.547	-9.774	105.652	133.982	-10.404	-5.916	-5.054	-0.964	85.923	-1.583	-8191	255	
818.200	1	1	0	0	0.18033	0.16861	0.34783	0.10571	0.13362	0.26418	0.18037	0.14738	0.15697	0.13898	0.19174	0.3775	0.085655	0.33149	0.16285	0.19799	-3.0312	-2.9646	-3.0521	-3.2313	-3.0292	-3.3729	-3.3104	-3.2542	-3.3667	-2.9646	-3.3021	-3.4229	-3.1771	-3.3979	-3.275	-3.2146	319.682	254.355	262.189	42.435	93.998	227.993	268.254	293.278	82.868	322.678	329.424	292.551	7.350	331.778	41.669	293.974	0.00067723	0.00059043	0.0001121	1363	3.7919e-06	5.0002e-06	1366.1	369.47	7.0968e-06	3.6627e-06	420.52	142.09	123.17	41.76	6.745e-06	51.883	0.00024676	0.00023315	6.4887e-05	1346.7	2.546e-06	2.5719e-06	1372.1	372.42	2.617e-06	2.6147e-06	423.7	143.07	123.76	42.37	2.7145e-06	52.429	326.900	35.108	98.093	-14.669	79.482	118.035	-14.701	-9.682	123.822	53.163	-10.419	-5.731	-5.201	-0.903	121.336	-1.719	-8191	255	
818.296	1	1	0	0	0.15557	0.084903	0.22873	0.17289	0.11215	0.025923	0.27428	0.3062	0.10345	0.041669	0.15587	0.16479	0.23618	0.30528	0.050929	0.13085	-3.0583	-3.125	-3.075	-3.4646	-3.0604	-3.3812	-3.4062	-3.1833	-3.5542	-3.1146	-3.25	-3.5125	-3.1958	-3.4292	-3.4479	-3.0542	319.381	26.838	11.292	202.883	291.128	114.174	282.468	9.282	314.300	206.011	260.940	11.127	167.596	-27.403	227.837	46.566	0.00075292	0.00047142	0.00016548	1364.9	3.5737e-06	5.7686e-06	1364.4	369.03	4.391e-06	2.612e-06	423.84	142.34	123	41.782	4.2144e-06	52.087	0.0002618	0.00024662	6.9588e-05	1350.7	2.7214e-06	2.6769e-06	1372.7	372.56	2.7918e-06	2.7342e-06	424.8	143	123.62	42.4	2.7633e-06	52.444	-21.701	60.134	82.729	-14.727	93.220	162.545	-14.471	-9.903	140.220	108.817	-10.535	-5.634	-5.300	-0.922	149.185	-1.690	-8191	255	
818.417	1	1	0	0	0.30805	0.10956	0.13482	0.19626	0.27318	0.072039	0.23332	0.19326	0.19573	0.20113	0.23926	0.059163	0.37818	0.09396	0.14233	0.19409	-2.7646	-3.3104	-3.1875	-3.3021	-3.0042	-3.2583	-3.8646	-3.3042	-3.4146	-3.0938	-3.2167	-3.6042	-3.2	-3.2667	-3.1854	-3.225	263.049	223.770	204.529	262.674	326.537	29.046	249.678	282.512	-2.821	81.425	280.310	16.396	-4.512	262.565	127.192	51.102	0.00068236	0.0001405	7.8937e-05	1369.8	3.356e-06	5.9564e-06	1371.4	370.25	5.0219e-06	3.517e-06	424.25	142.96	123.37	41.899	5.245e-06	51.939	0.00026495	0.00024662	6.9389e-05	1352	2.6889e-06	2.6989e-06	1374.8	373.19	2.7238e-06	2.6894e-06	424.76	143.12	123.74	42.392	2.6333e-06	52.477	321.643	94.980	55.517	-14.359	98.214	139.935	-14.548	-9.910	101.982	80.078	-10.441	-5.697	-5.182	-0.612	108.435	-1.901	-8191	255	
818.511	1	1	0	0	0.44693	0.24355	0.12425	0.015096	0.071721	0.19806	0.26466	0.14573	0.07987	0.046753	0.12863	0.16671	0.17533	0.3391	0.10253	0.18038	-2.9917	-3.4375	-2.8625	-3.4437	-3.05	-3.1646	-3.6437	-3.2625	-3.3375	-3.4042	-3.25	-3.5458	-3.2521	-3.2833	-3.3646	-3.1521	100.008	255.297	180.542	224.940	25.364	76.254	277.635	250.164	29.557	7.160	323.945	277.053	221.146	-24.126	156.378	247.135	0.00061688	0.000156	6.3185e-05	1359	2.7459e-06	5.0568e-06	1366.6	371.11	2.6594e-06	5.6149e-06	422.4	142.64	123.33	41.929	7.92e-06	52.123	0.0002585	0.00024296	6.6494e-05	1348.4	2.6552e-06	2.5788e-06	1372.7	373.02	2.6657e-06	2.649e-06	424.37	143.18	123.82	42.374	2.673e-06	52.571	320.286	28.356	79.022	-14.556	93.172	133.487	-14.551	-9.802	167.892	94.646	-10.480	-5.532	-5.287	-0.756	125.275	-1.599	-8191	255	
818.607	1	1	0	0	0.11453	0.14921	0.22767	0.068716	0.15448	0.23233	0.31804	0.33187	0.23322	0.063331	0.054517	0.22941	0.2588	0.09246	0.11577	0.15213	-2.825	-3.3479	-3.0708	-3.3458	-3.0438	-3.2083	-3.6042	-2.9792	-3.3729	-3.2958	-3.175	-3.5292	-3.45	-3.0271	-3.3333	-3.2792	221.449	76.653	14.080	246.815	58.388	151.667	241.764	240.222	188.192	105.159	41.091	286.577	322.298	310.997	157.361	180.927	0.00064175	0.00072737	0.00015307	1362.9	2.9634e-06	2.5593e-06	1368.8	370.2	6.1973e-06	5.0915e-06	423.02	142.45	122.87	41.843	5.4333e-06	52.033	0.00025688	0.00024198	6.6793e-05	1350	2.6239e-06	2.6031e-06	1374.2	373.18	2.6424e-06	2.6172e-06	424.93	143.14	123.64	42.347	2.633e-06	52.455	331.343	52.802	69.936	-14.384	73.730	166.234	-14.685	-9.930	116.519	159.123	-10.707	-5.801	-5.260	-0.964	105.503	-1.437	-8191	255	
818.704	1	1	0	0	0.1165	0.27218	0.031855	0.18919	0.27642	0.077686	0.34009	0.25404	0.21658	0.25418	0.21002	0.068626	0.2931	0.079914	0.050661	0.11223	-2.6917	-3.2667	-3.1562	-3.4313	-3.1813	-3.1479	-3.5604	-3.0979	-3.1354	-3.5646	-3.2313	-3.3708	-3.3396	-3.2146	-3.3646	-3.1437	90.677	36.385	-6.574	207.061	256.139	0.020	256.451	325.714	113.051	290.820	303.880	10.730	7.946	219.512	62.625	138.458	0.00064198	0.0003171	0.00016998	1358.9	6.3191e-06	2.52e-06	1367.8	368.56	7.8963e-06	2.228e-06	423.09	142.04	122.77	41.89	6.3423e-06	52.132	0.00025417	0.0002408	6.5704e-05	1347.8	2.6338e-06	2.5813e-06	1374.2	372.31	2.6332e-06	2.5601e-06	423.69	142.85	123.59	42.318	2.5672e-06	52.551	324.948	17.056	99.198	-14.443	89.147	195.424	-14.562	-9.640	136.105	139.585	-10.628	-5.915	-5.277	-0.795	145.497	-1.875	-8191	255	
818.800	1	1	0	0	0.17817	0.071222	0.11511	0.14954	0.048922	0.076914	0.11311	0.052797	0.064247	0.070173	0.20132	0.10289	0.1089	0.20425	0.1334	0.24955	-2.6771	-3.3396	-3.0896	-3.5292	-3.325	-3.1167	-3.6417	-3.1937	-3.0083	-3.5938	-3.1688	-3.2604	-3.425	-3.1896	-3.3354	-3.225	-1.048	131.760	206.196	29.317	306.418	176.582	173.027	188.560	111.717	87.388	288.452	270.564	130.751	274.813	240.647	286.678	0.00060702	0.0003099	9.1751e-05	1357.7	4.5902e-06	6.8141e-06	1364.2	370.35	5.8774e-06	5.4662e-06	422.53	142.35	122.93	41.963	5.2402e-06	51.936	0.00025082	0.00023303	6.5784e-05	1346.5	2.567e-06	2.5182e-06	1371.4	372.36	2.5935e-06	2.5553e-06	423.55	143.24	123.53	42.423	2.5872e-06	52.479	-17.385	60.395	47.439	-14.453	145.355	118.487	-14.660	-9.692	152.626	96.618	-10.432	-5.813	-5.042	-0.948	121.845	-1.916	-8191	255	
818.896	1	1	0	0	0.24154	0.079636	0.27895	0.13106	0.39379	0.082689	0.30306	0.17224	0.17948	0.043154	0.070488	0.15826	0.20846	0.27594	0.056583	0.25069	-2.6292	-3.2375	-2.9542	-3.2542	-3.4792	-3.0667	-3.4542	-3.4396	-3.1917	-3.4188	-3.0625	-3.2083	-3.3312	-3.1063	-3.4083	-3.3458	20.493	126.765	246.570	133.593	153.152	210.844	-11.828	2.024	276.006	188.412	227.303	326.457	-22.078	312.468	17.142	99.212	0.00063349	0.00043617	0.00011917	1364.7	5.9342e-06	7.1648e-06	1367.2	370.46	2.9293e-06	4.5481e-06	424.14	142.21	123.07	41.869	5.6928e-06	52.063	0.00024988	0.00023552	6.4999e-05	1348.1	2.5722e-06	2.5465e-06	1370.3	373.2	2.596e-06	2.5488e-06	424.62	143.15	123.81	42.348	2.6048e-06	52.539	317.447	71.199	37.587	-14.253	128.829	117.589	-14.664	-9.977	106.645	135.342	-10.730	-5.699	-5.308	-0.733	157.338	-1.627	-8191	255	
819.016	1	1	0	0	0.18483	0.11353	0.079199	0.16084	0.1803	0.046669	0.3705	0.20847	0.24472	0.18504	0.12943	0.23839	0.15248	0.04212	0.21172	0.078149	-2.6583	-3.3771	-3.1167	-3.3479	-3.3937	-3.1458	-3.3292	-3.3896	-3.0458	-3.3646	-3.2562	-3.1417	-3.4667	-3.2917	-3.4062	-3.1	287.690	202.378	111.452	271.493	286.755	80.184	235.121	251.553	77.104	102.136	-8.992	240.435	270.627	155.512	183.780	289.330	0.00063849	0.00050825	0.00019911	1360.1	3.957e-06	4.6488e-06	1362.6	370.4	8.471e-06	6.2566e-06	422.1	141.57	122.69	42.031	7.4823e-06	52.317	0.00024387	0.00023348	6.4497e-05	1345.7	2.5386e-06	2.4934e-06	1369	372.04	2.5518e-06	2.5462e-06	422.89	142.85	123.44	42.385	2.5712e-06	52.469	324.771	65.810	90.489	-14.452	109.208	169.634	-14.643	-9.715	126.300	178.131	-10.458	-5.712	-5.386	-0.631	112.647	-1.703	-8191	255	
819.113	1	1	0	0	0.095977	0.1622	0.16375	0.12674	0.22433	0.10582	0.23958	0.30696	0.21338	0.13785	0.063138	0.23411	0.27583	0.22075	0.16178	0.021069	-2.7375	-3.4083	-3.3063	-3.1188	-3.4854	-3.1646	-3.5125	-3.4375	-2.9521	-3.4375	-3.1917	-3.3708	-3.5333	-3.175	-3.2021	-3.4979	-25.109	-4.264	323.137	30.080	178.142	241.458	322.286	196.552	159.855	261.673	193.075	297.762	285.651	-19.550	-17.124	66.092	0.00060593	0.00053648	6.0748e-05	1355.5	2.5011e-06	4.7586e-06	1365.4	369.78	5.8663e-06	4.3428e-06	424.49	142.22	122.86	41.912	5.9192e-06	52.055	0.00024583	0.000232	6.4526e-05	1344.9	2.5428e-06	2.5181e-06	1369.4	372.09	2.5412e-06	2.5361e-06	424.26	143.21	123.46	42.382	2.6275e-06	52.459	320.227	78.472	56.808	-14.527	37.377	141.869	-14.590	-9.929	97.709	141.838	-10.168	-5.912	-5.137	-0.952	115.484	-1.626	-8191	255	
819.209	1	1	0	0	0.19401	0.1856	0.15348	0.33096	0.088455	0.23433	0.28371	0.076253	0.18542	0.098162	0.1474	0.24185	0.32617	0.013187	0.16113	0.0076509	-2.5833	-3.2354	-3.0833	-3.3396	-3.3708	-3.0479	-3.4792	-3.4458	-2.8896	-3.35	-3.4437	-3.0708	-3.5708	-3.1979	-3.0083	-3.4646	310.001	40.251	72.480	292.633	38.634	326.326	-10.415	193.858	53.488	157.005	310.819	247.113	284.964	6.324	71.780	0.780	0.00057775	0.00054929	0.00012539	1363.1	3.1109e-06	3.8422e-06	1371.5	369.94	2.1901e-06	5.1342e-06	424.04	142.8	122.84	41.818	8.424e-06	52.02	0.00025506	0.00023462	6.6466e-05	1345.2	2.5911e-06	2.5645e-06	1372.8	372.02	2.6112e-06	2.6279e-06	424.03	143.23	123.68	42.307	2.6088e-06	52.423	326.942	64.456	70.210	-14.550	124.791	150.011	-14.526	-9.939	69.004	119.490	-10.771	-5.788	-5.212	-0.918	80.335	-1.875	-8191	255	
819.280	1	1	0	0	0.39791	0.16061	0.32396	0.30874	0.088957	0.0862	0.42943	0.13564	0.29581	0.071045	0.24701	0.2236	0.26069	0.19876	0.2017	0.1425	-2.7208	-3.2021	-2.95	-3.0875	-3.6042	-3.3312	-3.4479	-3.5896	-3.0479	-3.2021	-3.3583	-3.2062	-3.5062	-3.3667	-3.1271	-3.4583	248.865	250.136	80.219	273.357	284.179	14.139	259.806	267.445	2.465	32.521	275.569	282.483	-20.011	-15.420	123.380	-11.405	0.00063129	0.00046164	0.00011805	1362.6	3.6181e-06	6.0117e-06	1365.3	370.27	4.6906e-06	7.7892e-06	424.04	142.48	122.76	41.687	4.5625e-06	52.033	0.0002534	0.00023848	6.5592e-05	1347.7	2.5955e-06	2.5615e-06	1370.4	372.72	2.5778e-06	2.5962e-06	423.74	142.89	123.49	42.244	2.5569e-06	52.439	331.883	60.982	39.218	-14.536	102.262	116.616	-14.513	-9.910	84.610	131.078	-10.433	-5.671	-5.310	-0.967	88.853	-1.776	-8191	255	
819.399	1	1	0	0	0.22893	0.094428	0.061201	0.50725	0.008378	0.0039324	0.43458	0.36041	0.092574	0.10898	0.20466	0.15666	0.12251	0.30492	0.16748	0.20131	-2.6333	-3.3333	-3.3812	-3.0042	-3.1667	-3.2438	-3.1667	-3.475	-3.1167	-3.2562	-3.4833	-3.1437	-3.4146	-3.3333	-2.8312	-3.5167	10.854	179.966	246.284	284.398	191.903	34.581	321.202	257.736	246.318	211.934	156.317	237.258	-27.290	306.639	130.309	196.254	0.00064934	0.00032944	0.00022843	1365.8	4.6397e-06	4.8092e-06	1362.4	368.43	3.1922e-06	1.906e-06	422.84	141.93	122.55	41.824	5.3566e-06	52.012	0.00025505	0.00023962	6.6142e-05	1347.4	2.6065e-06	2.5945e-06	1368.8	371.8	2.6399e-06	2.6195e-06	423.55	142.91	123.27	42.285	2.5932e-06	52.327	-24.360	0.254	53.537	-14.276	113.703	117.914	-14.785	-9.630	108.814	112.992	-10.621	-5.830	-5.493	-0.918	121.219	-1.839	-8191	255	
819.495	1	1	0	0	0.21879	0.12789	0.18568	0.26719	0.10825	0.35674	0.23607	0.36688	0.21581	0.20113	0.13024	0.067776	0.20691	0.3228	0.099439	0.19778	-2.8354	-3.0687	-3.3042	-2.9667	-3.2667	-3.1042	-3.3521	-3.4708	-3.1063	-3.3125	-3.3521	-3.0917	-3.4542	-3.2479	-3.225	-3.3937	179.866	283.302	292.986	321.076	101.803	235.760	308.542	223.125	329.546	240.194	264.240	56.534	7.519	-7.111	41.937	185.850	0.00077141	0.00066185	0.00024331	1363.2	4.9925e-06	6.6171e-06	1365.2	369.12	6.1065e-06	3.6849e-06	421.64	142.06	123.19	41.768	6.0953e-06	51.868	0.00025522	0.00024012	6.6412e-05	1343.8	2.6473e-06	2.5684e-06	1370	371.86	2.6241e-06	2.6273e-06	423.36	142.97	123.67	42.325	2.5559e-06	52.306	322.208	33.580	70.699	-14.712	141.479	166.025	-14.692	-9.813	129.759	119.733	-10.438	-5.721	-5.144	-0.675	93.259	-1.544	-8191	255	
819.593	1	1	0	0	0.14864	0.11736	0.27906	0.26106	0.15607	0.31305	0.10593	0.21356	0.12873	0.30436	0.045228	0.22176	0.24121	0.16596	0.085857	0.088499	-2.8583	-3.0042	-3.2958	-2.9292	-3.1479	-3.2917	-3.2292	-3.4938	-2.9292	-2.9708	-3.425	-3.1646	-3.1583	-3.4417	-3.2854	-3.5396	19.993	230.939	292.770	268.599	230.195	234.425	266.279	326.125	168.166	223.889	186.876	281.680	304.888	306.002	149.594	-15.266	0.00059112	0.00052203	0.00013435	1353.4	1.7887e-06	5.6666e-06	1367.5	369.05	3.1043e-06	6.3018e-06	422.21	142.29	123.03	41.968	5.0852e-06	52.048	0.00025131	0.00023833	6.5767e-05	1343.1	2.5807e-06	2.5688e-06	1369.2	372.36	2.5786e-06	2.5415e-06	422.81	143.09	123.61	42.389	2.5556e-06	52.379	-21.895	61.464	74.921	-14.734	105.103	113.118	-14.774	-9.604	135.314	117.303	-10.496	-5.784	-5.314	-0.960	116.117	-1.437	-8191	255	
819.688	1	1	0	0	0.11758	0.18723	0.027281	0.23672	0.18726	0.15185	0.068659	0.10965	0.11265	0.15503	0.05088	0.083809	0.14429	0.17244	0.12159	0.19083	-2.7333	-3.0521	-3.1167	-3.025	-3.1813	-3.2	-3.1396	-3.3542	-3.2271	-3.0542	-3.4167	-3.1771	-3.3167	-3.4479	-2.9688	-3.4771	25.345	81.676	310.524	310.658	53.486	320.957	29.812	291.197	240.207	324.084	121.912	299.947	299.691	306.549	42.261	315.019	0.00070049	0.00035133	0.00012979	1357.4	4.4851e-06	4.0234e-06	1360.8	369.56	3.8439e-06	5.5053e-06	422.47	142.54	122.91	41.851	5.8121e-06	51.917	0.00024956	0.00023102	6.5091e-05	1343.6	2.5848e-06	2.5552e-06	1368.7	372.38	2.5197e-06	2.4938e-06	423.29	142.95	123.44	42.329	2.5082e-06	52.441	-27.308	29.622	74.376	-14.616	93.224	152.263	-14.472	-9.796	122.823	118.579	-10.477	-5.959	-5.313	-0.751	116.569	-1.602	-8191	255	
819.808	1	1	0	0	0.042216	0.21839	0.079256	0.040315	0.31636	0.084173	0.31149	0.082969	0.0082662	0.13413	0.12413	0.35339	0.2197	0.12271	0.085991	0.058088	-2.9062	-2.7354	-3.2104	-3.2292	-3.2042	-3.3667	-3.2396	-3.3875	-3.1937	-2.925	-3.5417	-3.1667	-3.0771	-3.6063	-3.2208	-3.325	173.190	81.271	16.630	301.599	-4.622	130.079	245.588	95.462	32.772	57.077	60.146	264.308	319.279	53.435	213.956	255.375	0.00063565	0.00043685	0.00015144	1359.9	4.2773e-06	5.6395e-06	1363.4	369.63	5.7344e-06	4.3918e-06	423.51	142.46	123.25	41.857	3.6521e-06	52.083	0.0002455	0.00022899	6.4412e-05	1343.9	2.5061e-06	2.5046e-06	1368	371.49	2.5218e-06	2.5299e-06	423.62	143.03	123.6	42.31	2.5668e-06	52.406	327.939	30.522	86.656	-14.284	90.753	135.931	-14.667	-9.726	135.781	91.255	-10.436	-5.831	-5.322	-0.787	137.613	-1.780	-8191	255	
819.905	1	1	0	0	0.28916	0.20969	0.21769	0.20533	0.033606	0.18383	0.31376	0.15328	0.12693	0.044691	0.11933	0.15729	0.28193	0.13072	0.23314	0.13094	-2.7667	-3.0458	-3.1937	-3.4021	-3.3125	-3.3375	-3.3042	-3.3729	-3.3688	-2.8688	-3.6583	-3.3875	-3.2313	-3.375	-3.0604	-3.4021	12.338	2.650	-2.385	-6.687	180.872	-26.589	268.200	287.793	-22.274	208.784	319.801	303.642	256.802	228.405	215.844	-7.240	0.00058934	0.0003888	0.00014476	1357.1	4.4621e-06	4.3122e-06	1359.9	370.25	3.6901e-06	3.3628e-06	420.81	141.93	122.71	41.817	7.5936e-06	52.041	0.0002476	0.00023155	6.6284e-05	1342.1	2.5638e-06	2.5773e-06	1368.8	372	2.5872e-06	2.6302e-06	423.15	142.95	123.52	42.376	2.6188e-06	52.398	329.730	68.662	66.693	-14.581	92.868	159.643	-14.527	-9.861	168.338	146.235	-10.321	-5.619	-5.251	-0.832	158.437	-1.623	-8191	255	
819.976	1	1	0	0	0.18779	0.23822	0.25005	0.054084	0.15155	0.049125	0.30096	0.17163	0.20079	0.32023	0.25107	0.17561	0.20621	0.17244	0.23669	0.21282	-2.9938	-3.2333	-3.2542	-3.3792	-3.2729	-3.4333	-3.55	-3.3063	-3.4167	-3.1083	-3.2812	-3.325	-3.1479	-3.35	-3.1021	-3.3021	309.754	-14.494	238.169	21.399	2.985	47.059	-23.624	250.524	111.325	103.322	290.749	236.905	311.104	133.323	265.144	210.812	0.00073805	0.00050794	0.00017495	1348.2	7.4345e-06	5.0038e-06	1362.4	371.56	6.1521e-06	2.6206e-06	421.3	142.22	122.17	42	5.3457e-06	51.818	0.00025664	0.00023802	6.7056e-05	1340.9	2.6421e-06	2.6083e-06	1369.3	372.82	2.6492e-06	2.6203e-06	423.08	143.13	123.43	42.357	2.6587e-06	52.406	313.757	44.139	39.807	-14.647	135.665	127.327	-14.559	-9.726	114.981	239.007	-10.465	-6.029	-5.155	-1.013	132.701	-1.841	-8191	255	
820.097	1	1	0	0	0.18286	0.08737	0.12417	0.33037	0.21899	0.065171	0.20223	0.22521	0.12157	0.18571	0.39196	0.13234	0.3049	0.10608	0.23915	0.065524	-2.8854	-2.9292	-3.3521	-3.1271	-2.9542	-3.5187	-3.2896	-3.3	-3.3104	-2.9813	-3.3792	-3.3708	-3.1271	-3.2313	-3.1583	-3.2729	56.125	-19.144	98.346	284.852	148.513	18.024	-13.610	314.000	298.990	89.945	269.191	88.595	313.772	296.962	248.411	181.319	0.00073728	0.00062165	6.9302e-05	1361.9	5.1393e-06	4.1514e-06	1361.8	369.84	4.0437e-06	5.6661e-06	421.8	142.73	122.74	41.892	5.3451e-06	51.853	0.00025312	0.00023785	6.6051e-05	1345.3	2.5988e-06	2.5944e-06	1371.3	371.98	2.5911e-06	2.5726e-06	422.64	143.28	123.58	42.344	2.6469e-06	52.448	328.480	55.410	113.700	-14.624	101.847	118.072	-14.556	-9.777	116.637	145.738	-10.499	-5.698	-5.164	-1.007	101.333	-1.745	-8191	255	
820.193	1	1	0	0	0.263	0.35727	0.19917	0.064562	0.134	0.21701	0.13601	0.034373	0.4948	0.14119	0.26681	0.19762	0.18264	0.11769	0.1857	0.11913	-3.0979	-2.9917	-3.2812	-3.4625	-2.9979	-3.4375	-3.5375	-3.1625	-3.5104	-3.0563	-3.4521	-3.2938	-3.225	-3.6146	-3.1813	-3.2792	182.307	319.465	100.590	288.538	33.586	-11.750	-19.952	38.345	96.955	232.521	302.386	75.139	304.880	286.409	61.174	254.742	0.00061147	0.00037056	0.00017692	1365.2	3.5299e-06	6.2264e-06	1362.9	369.41	1.3867e-06	5.8712e-06	423.88	142.28	123	41.821	8.2762e-06	51.749	0.00025443	0.0002363	6.6534e-05	1344.4	2.6281e-06	2.6128e-06	1368.7	372.04	2.6583e-06	2.5953e-06	423.63	143.08	123.68	42.367	2.6139e-06	52.378	328.159	65.381	73.157	-14.491	112.161	132.434	-14.588	-10.002	83.419	155.405	-10.539	-5.791	-5.307	-1.048	124.536	-1.722	-8191	255	
820.289	1	1	0	0	0.15151	0.17278	0.099069	0.095569	0.23912	0.29969	0.4216	0.18853	0.12724	0.074298	0.18609	0.098897	0.15389	0.19368	0.096832	0.28199	-3.1625	-3.1354	-3.05	-3.3	-2.8312	-3.3875	-3.4896	-3.1875	-3.2438	-3.1813	-3.325	-3.3917	-3.1958	-3.4083	-3.3208	-2.975	130.826	145.728	313.377	254.755	110.768	25.451	305.600	297.425	31.323	265.989	307.980	236.156	282.782	-27.544	184.309	331.255	0.00057254	0.00029596	0.00016919	1355.5	2.7433e-06	3.347e-06	1365.9	368.3	4.1804e-06	4.299e-06	421.97	142.24	122.35	41.991	6.2273e-06	52.286	0.00025514	0.00023662	6.6121e-05	1343.6	2.6002e-06	2.592e-06	1370.4	371.91	2.6361e-06	2.5956e-06	422.88	142.94	123.42	42.386	2.6044e-06	52.495	326.663	44.109	22.121	-14.428	61.429	194.761	-14.572	-9.707	212.270	130.494	-10.418	-5.760	-5.130	-1.097	161.835	-1.919	-8191	255	
820.385	1	1	0	0	0.13996	0.16648	0.14568	0.073818	0.15605	0.14865	0.23373	0.085557	0.11844	0.22926	0.22744	0.18688	0.12556	0.33915	0.096373	0.18655	-2.9562	-3.1771	-3.2625	-3.3125	-2.9667	-3.4521	-3.6604	-3.0458	-3.4875	-3.1896	-3.3292	-3.4646	-3.0625	-3.4833	-3.2167	-3.1979	222.044	-26.051	5.088	251.536	60.709	137.882	255.336	99.156	31.790	228.841	307.748	-4.141	324.787	295.323	286.264	190.807	0.00066388	0.0006011	0.0001606	1365.7	3.3102e-06	3.8214e-06	1364.8	370.27	3.76e-06	4.597e-06	423.99	142.04	123.26	41.879	3.0809e-06	52.046	0.00025113	0.00023727	6.6095e-05	1349.4	2.5899e-06	2.5765e-06	1371.6	372.57	2.6368e-06	2.5913e-06	423.85	143.32	123.57	42.382	2.6529e-06	52.481	-23.811	37.346	41.055	-14.472	141.669	145.162	-14.518	-9.845	85.383	112.023	-10.378	-5.965	-5.167	-1.023	201.570	-1.633	-8191	255	
820.504	1	1	0	0	0.043544	0.1348	0.050885	0.091225	0.16321	0.14298	0.15682	0.25736	0.18036	0.23375	0.25031	0.20974	0.1633	0.11205	0.12871	0.21841	-2.95	-3.3396	-3.1188	-3.2313	-3.05	-3.0958	-3.3583	-3.1875	-3.5354	-3.3	-2.9792	-3.3354	-3.3646	-3.2	-3.1917	-3.0938	261.539	330.524	55.102	-27.387	227.826	314.212	49.984	255.295	270.184	330.095	299.171	52.606	322.218	88.072	91.192	205.804	0.00070971	0.00033539	0.00016	1361.9	3.5029e-06	6.1918e-06	1363	369.01	7.5567e-06	4.3433e-06	423.03	142.19	122.37	41.777	5.8881e-06	51.967	0.00025842	0.0002379	6.6814e-05	1346.6	2.669e-06	2.6667e-06	1370.2	372.1	2.6801e-06	2.6717e-06	423.38	143.07	123.4	42.292	2.71e-06	52.431	329.053	4.538	53.614	-14.512	111.715	143.201	-14.647	-9.785	134.309	135.462	-10.716	-5.718	-5.243	-1.060	163.796	-1.760	-8191	255	
820.576	1	1	0	0	0.15783	0.18957	0.13373	0.26202	0.27522	0.37558	0.13105	0.16689	0.1107	0.1587	0.072708	0.2526	0.095134	0.24457	0.1356	0.11586	-2.8854	-3.1417	-2.8708	-3.6375	-3.1167	-3.125	-3.5083	-3.2896	-3.2313	-3.2021	-3.1708	-3.4938	-3.1937	-3.3	-3.2562	-2.9854	110.850	318.156	329.278	263.354	200.688	79.290	151.859	307.447	123.472	131.805	281.840	284.132	43.471	1.068	60.843	281.156	0.00058238	0.0006759	0.0001375	1364.1	4.5484e-06	5.828e-06	1364	369.08	3.5355e-06	3.9903e-06	422.33	141.34	122.06	41.788	5.2286e-06	51.747	0.00026519	0.00024665	6.925e-05	1347.1	2.7185e-06	2.6615e-06	1371.3	371.98	2.7292e-06	2.6718e-06	423.07	142.58	123.12	42.219	2.6889e-06	52.265	324.385	57.513	63.539	-14.613	140.743	109.885	-14.596	-9.749	89.313	159.949	-10.528	-5.853	-5.340	-0.932	170.481	-1.673	-8191	255	
820.696	1	1	0	0	0.15129	0.062924	0.16986	0.2377	0.12021	0.14979	0.23365	0.11308	0.061513	0.22482	0.27778	0.22088	0.21711	0.44869	0.13315	0.10027	-2.9292	-3.3271	-2.8625	-3.4	-3.1708	-3.2979	-3.5458	-3.2125	-3.2188	-3.2625	-3.1437	-3.4167	-3.3042	-3.0042	-3.5104	-3.3417	244.617	-12.223	196.095	70.825	227.103	215.030	242.811	-25.678	209.485	195.480	309.317	281.955	76.185	263.789	-20.289	62.306	0.00077108	0.00028192	9.765e-05	1359.5	3.8404e-06	5.8911e-06	1360	369.09	6.3269e-06	2.2755e-06	422.09	141.63	122.13	41.627	4.0433e-06	51.924	0.00026348	0.00024826	6.8016e-05	1343.6	2.6993e-06	2.7084e-06	1368.8	371.32	2.7898e-06	2.7e-06	422.86	142.49	123.11	42.157	2.7317e-06	52.254	320.339	78.782	98.463	-14.417	101.736	142.624	-14.629	-9.652	148.708	103.045	-10.423	-5.633	-5.196	-0.687	139.590	-1.644	-8191	255	
820.793	1	1	0	0	0.17077	0.17036	0.30178	0.13507	0.17193	0.072386	0.23234	0.079831	0.31338	0.095623	0.16295	0.11927	0.13039	0.31231	0.078304	0.1481	-2.9083	-3.2042	-2.8604	-3.5208	-3.4604	-3.1104	-3.4042	-3.3625	-3.2667	-3.3792	-3.1917	-3.2917	-3.4458	-3.2687	-3.4583	-3.4604	42.713	8.288	206.878	86.443	52.839	207.931	314.095	124.083	295.566	37.119	267.762	249.206	202.997	294.311	312.886	233.656	0.00061845	0.00035936	0.00013652	1359.1	3.9328e-06	4.0851e-06	1364.9	369.36	5.3758e-06	4.0367e-06	422.54	141.42	122.5	41.685	5.309e-06	51.755	0.00026467	0.00024844	6.9447e-05	1344.9	2.7808e-06	2.7651e-06	1370.6	371.59	2.7908e-06	2.7448e-06	422.91	142.58	123.03	42.233	2.8021e-06	52.283	324.134	21.653	39.670	-14.527	124.423	134.943	-14.465	-9.839	149.612	119.609	-10.506	-5.687	-5.247	-1.129	123.119	-1.614	-8191	255	
820.889	1	1	0	0	0.25444	0.043576	0.13237	0.1672	0.27546	0.13054	0.15712	0.2221	0.057366	0.20076	0.39885	0.11554	0.073244	0.24047	0.34878	0.126	-2.6813	-3.2333	-2.9604	-3.3729	-3.3583	-2.9854	-3.5625	-3.5187	-3.0792	-3.3021	-3.1458	-3.5333	-3.4813	-3.0458	-3.1896	-3.4042	-4.353	304.250	-12.424	111.222	29.087	139.422	278.320	153.361	220.950	38.420	300.249	45.276	15.804	-27.270	53.793	303.830	0.0007072	0.00038896	0.00019118	1354	4.1417e-06	4.3653e-06	1361.6	369.02	5.4263e-06	1.8236e-06	422.44	141.98	122.4	41.694	7.4183e-06	51.664	0.00026888	0.00025475	7.0725e-05	1345.2	2.8294e-06	2.7179e-06	1371	371.54	2.7882e-06	2.7775e-06	423.04	142.7	123.09	42.177	2.8113e-06	52.276	324.367	95.981	63.426	-14.778	162.637	106.152	-14.653	-9.697	161.345	125.068	-10.420	-5.702	-5.124	-0.976	124.822	-1.662	-8191	255	
820.985	1	1	0	0	0.057163	0.25313	0.18576	0.14283	0.1915	0.19063	0.23047	0.096759	0.27994	0.10467	0.24937	0.19197	0.12602	0.05816	0.11113	0.07521	-2.8979	-3.3312	-2.9542	-3.3312	-3.2146	-3.0667	-3.75	-3.4458	-3.0604	-3.3812	-3.1833	-3.1958	-3.3375	-3.1854	-3.475	-3.1562	45.928	210.068	116.869	282.499	61.597	132.642	241.857	251.438	330.051	70.802	222.792	282.466	265.850	306.499	107.022	23.736	0.00074427	0.0006136	0.00012003	1360.7	4.1533e-06	4.6106e-06	1365.9	368.59	5.2201e-06	2.9312e-06	421.1	141.72	122.75	41.792	5.4971e-06	51.875	0.0002699	0.0002546	7.1122e-05	1347	2.8045e-06	2.7803e-06	1371.1	371.46	2.7875e-06	2.7055e-06	422.69	142.72	123.11	42.257	2.7283e-06	52.275	323.327	60.825	49.512	-14.657	133.194	192.103	-14.750	-9.775	87.600	134.676	-10.583	-5.784	-5.232	-0.786	121.033	-1.824	-8191	255	
821.106	1	1	0	0	0.13599	0.078581	0.18518	0.3893	0.29017	0.30046	0.1133	0.13169	0.19278	0.12599	0.1598	0.06155	0.066307	0.089799	0.12749	0.24973	-2.5854	-3.2729	-2.975	-3.4208	-3.3979	-3.2938	-3.6229	-3.1146	-3.1896	-3.4229	-3.2938	-3.175	-3.2896	-2.9729	-3.3854	-3.4333	196.491	85.365	253.513	298.995	12.614	246.131	175.236	261.744	312.551	50.491	297.331	259.988	326.398	317.846	138.245	201.668	0.000671	0.00029301	0.00022877	1355.8	4.3047e-06	5.98e-06	1363.9	367.45	5.6356e-06	1.2984e-06	421.66	142.04	122.06	41.679	3.357e-06	51.735	0.00026045	0.00024678	6.795e-05	1344.9	2.7002e-06	2.6284e-06	1368.7	370.46	2.6381e-06	2.6466e-06	422.29	142.58	123.07	42.19	2.6814e-06	52.202	323.686	27.416	65.164	-14.533	129.304	139.677	-14.734	-9.854	132.809	161.290	-10.405	-5.717	-5.326	-0.831	158.756	-1.709	-8191	255	
821.202	1	1	0	0	0.10415	0.15924	0.13207	0.17391	0.10817	0.12797	0.15504	0.10787	0.064437	0.068773	0.16504	0.032838	0.26299	0.0917	0.085812	0.28365	-2.6979	-3.1688	-3.1979	-3.0563	-3.4437	-3.2917	-3.4062	-3.3667	-3.0229	-3.3979	-3.3187	-3.1063	-3.3979	-3.2542	-3.4146	-3.3625	216.362	237.387	209.330	300.672	92.762	133.359	294.735	190.759	279.795	197.139	257.962	4.641	259.585	215.778	289.172	-24.872	0.00068409	0.00042419	0.00012081	1356.9	5.6684e-06	1.575e-06	1361.9	369.12	4.0525e-06	4.542e-06	422.24	141.63	122.4	41.592	7.1786e-06	51.705	0.00025487	0.00024138	6.7283e-05	1344.1	2.6289e-06	2.6028e-06	1368.9	371.11	2.6565e-06	2.6535e-06	422.58	142.43	123.06	42.108	2.6958e-06	52.257	327.478	55.210	74.004	-14.580	125.969	157.767	-14.573	-10.036	137.560	87.222	-10.525	-5.897	-4.974	-0.904	167.941	-1.916	-8191	255	
821.273	1	1	0	0	0.095324	0.035512	0.15218	0.080656	0.068975	0.082856	0.52335	0.24086	0.22823	0.19977	0.13407	0.11623	0.14887	0.19399	0.1634	0.11371	-2.7104	-3.0229	-3.2771	-3.4813	-3.3854	-3.0187	-3.4354	-3.4479	-3.0167	-3.0896	-3.3375	-3.1917	-3.4833	-3.4021	-3.1833	-3.4313	322.757	59.203	191.115	204.158	276.381	0.069	264.609	189.851	-13.086	70.827	168.653	212.114	-9.243	241.712	33.562	-13.573	0.00068672	0.00039975	0.0001445	1359.6	5.5383e-06	4.617e-06	1363.3	368.81	4.8951e-06	7.5385e-07	420.29	141.95	122.16	41.843	7.1703e-06	51.895	0.00025712	0.00024126	6.7789e-05	1343.1	2.6952e-06	2.6715e-06	1369.3	371.2	2.6546e-06	2.6784e-06	422.03	142.62	123.09	42.263	2.6545e-06	52.333	326.051	60.245	57.138	-14.619	96.473	106.488	-14.470	-9.886	152.672	300.671	-10.091	-5.654	-4.982	-0.913	120.826	-1.589	-8191	255	
821.369	1	1	0	0	0.25198	0.21045	0.073974	0.30354	0.20361	0.17113	0.27795	0.19334	0.11869	0.17413	0.44814	0.2325	0.1475	0.3714	0.028744	0.03759	-2.5563	-3.3833	-3.2458	-3.2625	-3.3021	-3.0542	-3.5479	-3.5646	-3.0104	-3.3458	-3.3854	-3.1	-3.4583	-3.2562	-3.0917	-3.6271	158.254	225.412	274.920	45.742	137.960	166.929	206.555	204.288	-2.355	208.882	8.493	319.101	68.689	29.855	-27.445	313.539	0.0006978	0.00040854	0.00014769	1356.6	6.6837e-06	6.5771e-06	1364.4	369.56	3.4077e-06	6.6736e-06	422.15	142.34	122.39	41.652	6.8032e-06	51.804	0.00026	0.00024356	6.7284e-05	1344.1	2.6835e-06	2.6296e-06	1370.6	371.81	2.6707e-06	2.6417e-06	423.43	142.73	123.17	42.228	2.6559e-06	52.27	325.893	29.705	42.583	-14.422	131.154	147.019	-14.759	-9.728	144.947	119.166	-10.415	-5.873	-5.287	-0.860	141.002	-1.765	-8191	255	
821.466	1	1	0	0	0.087526	0.051858	0.01617	0.16667	0.20316	0.22343	0.47979	0.36837	0.097879	0.06968	0.10509	0.12885	0.20966	0.17968	0.17412	0.079086	-2.7104	-3.1792	-3.1437	-3.1854	-3.3354	-3.2625	-3.3854	-3.4271	-3.0125	-3.1792	-3.4375	-3.2438	-3.5875	-3.1937	-3.1125	-3.6125	207.407	71.467	33.851	320.510	45.887	283.065	309.874	314.876	215.749	73.610	94.918	256.199	300.367	287.265	185.757	113.632	0.00068019	0.00024645	0.00012403	1356.5	3.889e-06	7.645e-06	1365.1	369.3	3.7686e-06	7.5702e-06	422.73	141.97	122.45	41.805	7.7895e-06	51.947	0.00025849	0.00024314	6.7733e-05	1344.5	2.6645e-06	2.6295e-06	1371.6	372.07	2.6646e-06	2.6672e-06	423.03	142.8	123.3	42.327	2.7171e-06	52.357	318.986	19.285	83.704	-14.387	137.075	133.907	-14.529	-9.776	81.794	119.375	-10.557	-5.750	-5.386	-0.848	119.305	-1.715	-8191	255	
821.585	1	1	0	0	0.27339	0.056578	0.044201	0.30804	0.18192	0.10107	0.15009	0.15967	0.12478	0.26349	0.15799	0.18943	0.16033	0.075738	0.17311	0.11369	-2.7083	-3.2583	-3.4917	-2.8542	-3.4437	-3.3	-3.3729	-3.6312	-3.1646	-3.0958	-3.3875	-3.25	-3.5604	-3.3312	-2.9625	-3.3896	-8.495	322.547	226.602	-3.379	46.205	297.967	276.362	235.777	328.242	53.935	52.670	274.894	315.730	297.443	2.956	278.860	0.0006543	0.00027173	0.00016504	1359	6.2559e-06	3.8841e-06	1364.1	369.09	6.2825e-06	4.2527e-06	423.43	141.7	122.12	41.668	3.8949e-06	51.965	0.00026253	0.00024385	6.8781e-05	1345.3	2.6914e-06	2.6631e-06	1370.2	371.57	2.7205e-06	2.7007e-06	422.76	142.97	123.33	42.28	2.7149e-06	52.413	327.353	29.434	85.241	-14.398	151.079	138.634	-14.554	-9.879	144.277	121.951	-10.256	-5.809	-5.153	-0.959	156.631	-1.783	-8191	255	
821.681	1	1	0	0	0.060499	0.14153	0.050812	0.10431	0.10882	0.21643	0.1691	0.31494	0.34366	0.08839	0.21922	0.17494	0.15129	0.053354	0.14607	0.22342	-2.825	-3.0833	-3.2146	-2.9188	-3.2438	-3.1854	-3.2104	-3.6875	-3.1583	-3.0687	-3.6188	-3.2042	-3.4271	-3.2167	-3.2479	-3.6271	-7.854	173.368	179.844	26.658	198.200	140.249	251.173	29.219	18.653	257.653	269.829	267.820	2.859	187.681	261.977	7.291	0.00072836	0.00024295	0.00011535	1361.2	5.1936e-06	4.2304e-06	1365	368.52	3.0594e-06	4.6179e-06	421.18	141.57	122.9	41.761	4.1967e-06	52.011	0.00025763	0.00024539	6.8116e-05	1346.6	2.6993e-06	2.6449e-06	1370	371.64	2.6887e-06	2.6361e-06	422.51	142.83	123.38	42.253	2.6454e-06	52.366	323.404	2.230	87.825	-14.676	93.953	105.423	-14.658	-9.729	116.095	108.125	-10.396	-5.772	-5.164	-0.770	143.559	-1.759	-8191	255	
821.777	1	1	0	0	0.033433	0.37476	0.1081	0.146	0.10189	0.025318	0.1318	0.26419	0.24048	0.1413	0.30112	0.21474	0.14085	0.058669	0.27715	0.17486	-2.5396	-3.0229	-3.3354	-3.1854	-3.2042	-3.0229	-3.2062	-3.55	-3.1375	-3.0187	-3.5563	-3.2	-3.1354	-3.5396	-2.9979	-3.25	211.762	229.767	328.726	195.771	225.895	139.484	262.965	276.454	131.047	43.342	302.899	284.976	235.713	249.492	92.524	312.933	0.00073743	0.00051811	0.00016397	1354.6	4.3978e-06	5.2139e-06	1360.9	368.84	2.4828e-06	3.9741e-06	421.92	142.14	122.57	41.591	5.0267e-06	51.845	0.00025759	0.00024145	6.6917e-05	1344.7	2.6486e-06	2.6259e-06	1368.8	371.41	2.6471e-06	2.6143e-06	422.89	142.71	123.35	42.222	2.6382e-06	52.33	325.035	83.853	56.925	-14.429	171.300	98.039	-14.728	-9.777	124.997	164.039	-10.392	-5.636	-5.237	-0.977	158.012	-1.617	-8191	255	
821.873	1	1	0	0	0.1112	0.18834	0.18712	0.27105	0.11315	0.14607	0.27946	0.46594	0.11052	0.21158	0.13924	0.28271	0.17463	0.20666	0.046841	0.10557	-2.75	-2.925	-3.4083	-3.1229	-2.9333	-3.1437	-3.1958	-3.5729	-3.1042	-2.8187	-3.5021	-3.2292	-3.1229	-3.3854	-3.1146	-3.3271	-12.501	61.891	-5.465	130.792	11.895	-12.157	251.285	329.721	202.922	229.560	320.758	306.769	-8.720	-4.027	213.364	295.200	0.00066883	0.00044194	5.45e-06	1358.1	2.9656e-06	6.0414e-06	1362.2	367.97	5.5891e-06	1.2866e-06	422.29	142.15	122.63	41.768	8.006e-06	51.9	0.00026125	0.00023973	6.7697e-05	1346.7	2.6828e-06	2.6573e-06	1369.2	371.38	2.6467e-06	2.6013e-06	422.81	142.89	123.25	42.291	2.5925e-06	52.301	325.305	49.423	142.280	-14.589	123.397	130.450	-14.685	-9.696	105.650	115.982	-10.335	-5.796	-5.110	-0.805	153.979	-1.620	-8191	255	
821.969	1	1	0	0	0.10814	0.13949	0.15218	0.1166	0.331	0.27435	0.50321	0.25596	0.087088	0.11108	0.13883	0.15745	0.10051	0.34741	0.14965	0.024432	-2.5938	-2.9437	-3.5292	-3.1604	-3.0542	-3.2354	-3.2542	-3.2958	-3.1167	-3.0458	-3.5854	-3.2	-3.1375	-3.4333	-3.2208	-3.2583	280.719	115.122	266.645	-0.499	62.645	-6.714	286.734	314.489	49.972	224.995	125.515	321.951	-21.287	287.527	73.610	23.728	0.00066877	0.00055531	0.00014968	1355.4	3.2204e-06	4.1619e-06	1359.9	369.44	3.731e-06	2.9082e-06	421.55	141.85	122.35	41.73	4.1151e-06	51.901	0.00025215	0.00023844	6.6846e-05	1343.2	2.6263e-06	2.5953e-06	1368.7	372	2.6274e-06	2.5716e-06	422.38	142.84	123.45	42.297	2.6178e-06	52.404	326.649	78.354	77.932	-14.555	119.719	137.472	-14.505	-9.723	140.948	102.465	-10.386	-5.843	-5.173	-0.699	102.153	-1.524	-8191	255	
822.065	1	1	0	0	0.014587	0.26003	0.18893	0.072626	0.11104	0.099845	0.46165	0.35638	0.10801	0.18038	0.096613	0.13386	0.19318	0.010357	0.041646	0.080045	-2.8479	-3.1208	-3.3667	-3.0125	-3.0687	-3.5625	-3.2021	-3.0667	-3.3625	-3.0187	-3.4167	-3.5333	-3.3271	-3.4313	-3.0104	-3.4437	237.034	36.643	70.591	177.220	139.419	253.968	234.564	289.818	96.064	49.476	329.830	326.239	302.267	38.295	186.177	242.978	0.00072315	0.00067124	0.00020854	1360	7.1907e-07	9.6405e-06	1362.8	368.61	6.0422e-06	5.4779e-06	420.51	142.39	122.6	41.779	4.0083e-06	52.13	0.00025375	0.00023789	6.6826e-05	1343.5	2.5933e-06	2.5988e-06	1369.9	371.53	2.6132e-06	2.5962e-06	422.45	142.93	123.34	42.295	2.5818e-06	52.532	321.257	18.805	58.991	-14.887	66.800	128.934	-14.478	-9.594	139.360	128.060	-10.507	-5.911	-5.243	-0.759	133.270	-1.433	-8191	255	
822.186	1	1	0	0	0.082482	0.14612	0.17212	0.10047	0.05271	0.15298	0.29045	0.039649	0.23512	0.060466	0.1524	0.13264	0.17323	0.14364	0.079839	0.17508	-2.7938	-2.9437	-3.25	-3.1646	-3.0521	-3.2167	-3.1833	-3.3125	-3.3396	-2.9042	-3.4938	-3.4021	-3.0208	-3.2646	-3.1792	-2.9792	255.098	68.288	106.964	286.044	124.608	153.679	270.333	280.984	64.972	44.447	292.975	-24.853	265.758	280.635	171.804	2.741	0.00067197	0.00058474	0.00013098	1358.6	4.7569e-06	6.9446e-06	1364.5	368.73	6.3553e-06	4.4643e-06	421.12	142.02	122.77	41.714	5.1852e-06	51.98	0.00025404	0.00023471	6.6304e-05	1344.6	2.5865e-06	2.6259e-06	1369.9	371.14	2.6458e-06	2.6029e-06	422.64	142.79	123.38	42.295	2.6437e-06	52.459	321.383	76.979	59.556	-14.258	154.997	127.208	-14.730	-9.766	145.253	91.995	-10.403	-5.788	-5.210	-0.938	103.330	-1.623	-8191	255	
822.282	1	1	0	0	0.2442	0.080624	0.034657	0.1206	0.17137	0.15351	0.26401	0.46383	0.33649	0.19671	0.21899	0.18484	0.11836	0.23236	0.085506	0.29286	-2.9021	-3.0271	-3.275	-3.2042	-2.875	-3.3125	-3.4021	-3.1417	-3.3833	-3.0812	-3.2896	-3.3521	-3.0771	-3.5104	-3.2042	-3.325	58.387	315.608	-3.656	246.794	129.279	172.725	329.932	267.452	256.195	-17.056	266.091	304.959	-20.846	-25.435	247.504	324.651	0.00063203	0.00072987	0.00015566	1356.9	3.4255e-06	6.1694e-06	1362.5	370.01	1.2593e-06	3.2813e-06	418.95	141.32	122.46	41.531	2.5648e-06	51.921	0.0002551	0.00024063	6.6545e-05	1343.3	2.6516e-06	2.6173e-06	1367.4	371.42	2.6848e-06	2.63e-06	421.78	142.57	123.25	42.196	2.6974e-06	52.319	331.478	50.656	54.451	-14.761	111.171	170.000	-14.545	-9.723	168.090	132.024	-10.339	-5.716	-5.123	-0.817	112.221	-1.637	-8191	255	
822.378	1	1	0	0	0.13668	0.17041	0.23906	0.15395	0.035505	0.14867	0.17976	0.25759	0.37192	0.1829	0.12446	0.16647	0.21582	0.016148	0.41215	0.18848	-2.9667	-2.9479	-3.2188	-3.3146	-2.9688	-3.3479	-3.4062	-3.025	-3.3563	-2.9062	-3.4542	-3.3021	-3.0729	-3.3396	-3.2333	-2.7958	134.071	217.873	165.046	298.980	134.403	35.293	300.867	220.673	257.397	230.035	330.593	315.518	-9.270	170.216	85.590	121.872	0.00061328	0.00046049	0.00012409	1358.3	1.777e-06	4.5522e-06	1361.8	369.34	5.5967e-06	4.657e-06	421.03	142.14	122.02	41.632	5.4777e-06	52.024	0.00026008	0.00024161	6.9072e-05	1343.3	2.6534e-06	2.6438e-06	1369.5	371.09	2.6812e-06	2.6337e-06	422.22	142.76	123.15	42.265	2.6429e-06	52.327	320.858	40.330	96.093	-14.432	27.424	117.216	-14.459	-9.698	82.591	128.086	-10.473	-5.878	-5.153	-0.839	141.362	-1.613	-8191	255	
822.473	1	1	0	0	0.12023	0.089875	0.084996	0.14241	0.16046	0.28387	0.29404	0.41563	0.17495	0.13773	0.3562	0.2388	0.11946	0.27769	0.25801	0.27848	-2.9938	-2.9479	-3.0896	-3.2792	-3.1625	-3.2104	-3.4271	-3.0563	-3.4437	-3.15	-3.4437	-3.4396	-3.1792	-3.3104	-3.3479	-3.0208	326.666	139.913	241.390	279.294	-4.918	139.291	295.363	317.473	111.660	3.531	296.870	-0.158	-26.213	2.182	316.675	302.631	0.00062121	0.00046246	8.5979e-05	1349.1	4.1558e-06	7.8246e-06	1356	368.08	4.5936e-06	3.7861e-06	421.77	142.32	122.48	41.778	7.1298e-06	51.941	0.00025401	0.00024101	6.7666e-05	1340.8	2.6649e-06	2.6231e-06	1365.4	370.5	2.6549e-06	2.6368e-06	422.33	142.95	123.17	42.298	2.6488e-06	52.372	322.117	49.990	70.234	-14.184	117.762	126.510	-14.536	-9.682	142.384	97.613	-10.487	-5.864	-5.311	-0.631	101.221	-1.645	-8191	255	
822.569	1	1	0	0	0.33012	0.22252	0.061064	0.22038	0.25915	0.13806	0.32738	0.17996	0.070312	0.1625	0.35917	0.19231	0.20044	0.18451	0.10641	0.18473	-2.7729	-3.2083	-3.0167	-3.4062	-3.175	-3.0354	-3.4521	-3.35	-3.2292	-3.4396	-3.2146	-3.4333	-3.2438	-3.1917	-3.4354	-2.9938	123.652	18.814	93.966	289.387	221.083	253.168	235.808	233.067	249.533	151.903	235.837	301.314	253.807	306.776	306.095	279.034	0.00074825	0.00031336	0.0001127	1353.6	4.2814e-06	6.2347e-06	1358.1	368.71	1.5123e-06	7.3613e-06	420.75	142.64	122.38	41.863	2.2859e-06	51.772	0.00025777	0.00024099	6.837e-05	1344	2.6728e-06	2.666e-06	1367.3	371.33	2.7235e-06	2.6898e-06	421.75	142.85	123.17	42.331	2.72e-06	52.34	325.670	43.435	99.938	-14.414	137.239	159.095	-14.579	-9.789	166.553	137.371	-10.220	-5.801	-5.433	-0.937	118.198	-1.637	-8191	255	
822.665	1	1	0	0	0.048828	0.092682	0.28357	0.12373	0.11878	0.24018	0.21109	0.30017	0.14336	0.20421	0.064832	0.28618	0.1039	0.017801	0.094201	0.1024	-2.7333	-3.1333	-2.9583	-3.4771	-3.1896	-3.0458	-3.6	-3.2104	-3.2875	-3.2125	-3.2062	-3.55	-3.1437	-3.3417	-3.2729	-3.2479	20.529	292.984	2.423	240.507	23.120	68.127	312.408	286.838	29.674	75.368	41.877	278.325	223.409	176.429	79.495	285.373	0.00060982	0.00044668	8.4216e-05	1358.6	6.1363e-06	4.9852e-06	1361.1	368.11	4.2577e-06	2.4022e-06	420.76	141.29	121.94	41.646	2.877e-06	51.822	0.00026207	0.00025311	6.9718e-05	1343	2.7447e-06	2.7521e-06	1366.7	370.83	2.7689e-06	2.7495e-06	422.32	142.64	122.93	42.239	2.77e-06	52.29	330.717	70.703	39.919	-14.342	102.808	120.238	-14.580	-9.898	164.111	139.895	-10.525	-5.697	-5.282	-0.969	155.912	-1.677	-8191	255	
822.761	1	1	0	0	0.21416	0.21012	0.20826	0.38501	0.1104	0.31264	0.28305	0.2205	0.30134	0.16855	0.14628	0.27535	0.027499	0.34186	0.063823	0.11657	-3.1042	-3.1646	-3.1354	-3.3458	-3.2667	-3.2125	-3.5542	-3.1792	-3.3542	-3.2271	-3.1688	-3.5542	-3.1625	-2.9771	-3.3667	-3.0708	290.217	171.431	116.703	322.472	160.531	-11.617	246.728	296.373	-14.133	308.335	248.031	260.030	316.439	273.393	144.440	251.845	0.00061119	0.00054505	0.00010561	1348	4.5105e-06	2.7456e-06	1357.9	368.38	5.4713e-06	3.9083e-06	420.22	142.01	121.93	41.677	2.7593e-06	51.768	0.00026561	0.00025224	7.013e-05	1339.2	2.758e-06	2.7345e-06	1366.5	370.52	2.8048e-06	2.7166e-06	421.1	142.62	122.96	42.2	2.7312e-06	52.245	326.475	70.011	64.968	-14.634	155.666	160.449	-14.654	-9.902	90.373	162.923	-10.225	-5.605	-4.940	-1.044	47.940	-1.641	-8191	255	
822.882	1	1	0	0	0.036799	0.19187	0.11167	0.19426	0.080983	0.1984	0.1753	0.12548	0.17829	0.064669	0.06914	0.44083	0.20395	0.39927	0.14215	0.2454	-2.7771	-3.4417	-2.8417	-3.5	-2.8458	-3.175	-3.5521	-3.2979	-3.2854	-3.4188	-3.2042	-3.3792	-3.3042	-3.3375	-3.3917	-3.0625	7.123	263.134	34.139	330.051	197.199	230.916	258.191	166.710	229.620	97.107	278.859	324.212	309.347	318.878	33.127	317.389	0.00074797	0.00021678	0.00018154	1354.8	5.3439e-06	3.0494e-06	1357.5	367.63	2.351e-06	3.0154e-06	421.16	141.66	121.68	41.703	2.5294e-06	51.806	0.00026815	0.00025108	6.9996e-05	1342.8	2.7587e-06	2.7269e-06	1364.9	370.2	2.7972e-06	2.7173e-06	422.17	142.37	122.94	42.217	2.7328e-06	52.246	324.316	78.085	75.522	-14.513	118.019	106.782	-14.617	-9.647	102.516	112.935	-10.520	-5.794	-5.234	-0.854	148.203	-1.531	-8191	255	
822.978	1	1	0	0	0.053223	0.041679	0.17121	0.092081	0.019334	0.17487	0.2241	0.26833	0.094035	0.22103	0.22047	0.16182	0.20182	0.26419	0.12079	0.16161	-2.8187	-3.3521	-2.8083	-3.3208	-3.1979	-2.9292	-3.5812	-3.4938	-3.1271	-3.3333	-3.3063	-3.2146	-3.1688	-3.2583	-3.3042	-3.2167	241.851	-5.081	135.562	269.462	186.487	281.881	272.603	299.145	27.792	132.441	268.348	265.295	314.325	-20.406	-3.806	245.807	0.00045884	0.00065722	0.00020327	1360.5	6.4272e-06	6.7123e-06	1363	368.18	6.6464e-06	7.1001e-06	419.06	141.04	122.27	41.672	5.6836e-06	51.789	0.00026554	0.00024983	7.0016e-05	1341.1	2.7414e-06	2.7177e-06	1367.2	370.64	2.7296e-06	2.7333e-06	421.22	142.4	123.11	42.256	2.7545e-06	52.256	317.538	29.610	68.786	-14.295	90.555	112.700	-14.547	-9.782	100.145	123.447	-10.364	-5.858	-5.215	-0.821	143.321	-1.644	-8191	255	
823.074	1	1	0	0	0.13402	0.25956	0.28869	0.24683	0.062915	0.27874	0.16708	0.035149	0.2085	0.12342	0.11266	0.31041	0.16129	0.1307	0.098317	0.055393	-2.7188	-3.3812	-3.0021	-3.1875	-3.1542	-3.0563	-3.5687	-3.4771	-2.9583	-3.4562	-3.1521	-3.2771	-3.4875	-3.2021	-3.3354	-3.1417	243.114	45.463	299.360	283.660	50.425	64.102	240.696	-25.648	317.202	204.367	302.946	3.895	314.238	146.351	7.076	-14.160	0.00057343	0.00048027	0.00014238	1353.7	4.0811e-06	5.2022e-06	1357.7	366.62	2.942e-06	5.6134e-06	419.96	141.48	122.05	41.622	8.561e-06	51.61	0.00026581	0.00025119	7.0189e-05	1343.3	2.7826e-06	2.6925e-06	1365.9	370.22	2.8088e-06	2.793e-06	421.68	142.39	123.06	42.155	2.7767e-06	52.204	311.930	40.931	82.444	-14.593	100.557	137.647	-14.426	-9.673	74.255	134.608	-10.500	-5.741	-5.224	-1.028	110.000	-1.693	-8191	255	
823.146	1	1	0	0	0.14615	0.13659	0.2279	0.1618	0.11796	0.023601	0.12501	0.18285	0.32182	0.098811	0.21153	0.041388	0.23984	0.40438	0.1373	0.18748	-2.6312	-3.3792	-2.9042	-3.1479	-3.2521	-2.9833	-3.4271	-3.4562	-3.0438	-3.2875	-3.1896	-3.2979	-3.4104	-3.125	-3.3125	-3.3521	84.226	185.725	209.914	326.856	51.692	6.457	203.365	297.205	238.036	119.697	-27.422	286.696	291.432	296.055	99.472	310.279	0.00068381	0.00059445	0.00012617	1361.6	3.4643e-06	6.6164e-06	1357	368.03	5.9224e-06	3.1543e-06	421.19	141.84	122.06	41.696	3.0988e-06	51.906	0.00026803	0.00025353	7.0812e-05	1344	2.7384e-06	2.7359e-06	1365.2	370.52	2.7824e-06	2.7345e-06	421.87	142.41	122.92	42.188	2.7841e-06	52.288	-26.830	63.652	79.335	-14.672	140.991	123.094	-14.429	-9.751	131.903	109.128	-10.305	-5.853	-4.995	-0.780	105.262	-1.559	-8191	255	
823.266	1	1	0	0	0.36333	0.24456	0.261	0.032237	0.15513	0.11819	0.27175	0.10489	0.096956	0.33312	0.042371	0.24077	0.3581	0.21924	0.078468	0.072458	-2.5479	-3.2479	-3.1583	-3.2188	-3.3396	-3.2229	-3.5208	-3.2208	-2.9313	-3.375	-3.2313	-3.2875	-3.3208	-3.1437	-3.5396	-3.6271	259.584	126.950	5.412	246.533	-24.320	85.060	279.180	282.975	55.812	242.951	264.221	317.463	-8.135	64.368	152.497	166.726	0.0005816	0.0005705	0.00018391	1353.7	8.3923e-06	5.8275e-06	1356.7	368.49	4.5484e-06	4.5844e-06	419.41	141.11	122.2	41.638	5.7992e-06	51.779	0.00026839	0.00024862	6.995e-05	1341	2.7724e-06	2.7043e-06	1366.3	370.82	2.7759e-06	2.7712e-06	421.53	142.5	123.03	42.186	2.8092e-06	52.221	322.207	47.910	62.505	-14.345	142.409	111.934	-14.598	-9.856	127.455	68.223	-10.394	-5.732	-5.158	-0.791	91.504	-1.617	-8191	255	
823.362	1	1	0	0	0.10351	0.14362	0.15838	0.12374	0.22718	0.1877	0.25098	0.32387	0.095119	0.35194	0.26425	0.12912	0.10102	0.20649	0.12588	0.10374	-2.6792	-3.1312	-3.0146	-3.3271	-3.4042	-3.0458	-3.4708	-3.4583	-3.0604	-3.1521	-3.4167	-3.3083	-3.5125	-3.225	-3.1979	-3.5708	167.978	36.186	69.803	177.130	67.899	293.209	320.826	307.060	51.314	298.901	238.899	101.473	286.403	150.649	87.403	11.399	0.00066836	0.0004736	9.1689e-05	1355	2.9673e-06	7.374e-06	1362	366.82	2.5793e-06	4.5855e-06	421.63	141.6	122.27	41.597	4.4644e-06	51.834	0.00027217	0.00025691	7.0702e-05	1342	2.7912e-06	2.7528e-06	1365.1	370.18	2.8223e-06	2.7243e-06	422.2	142.31	123.08	42.174	2.7998e-06	52.219	315.743	52.721	60.716	-14.706	134.187	150.171	-14.476	-9.912	99.823	126.377	-10.773	-5.603	-5.156	-1.158	159.840	-1.780	-8191	255	
823.459	1	1	0	0	0.29839	0.0176	0.24525	0.061367	0.026787	0.16581	0.43637	0.2352	0.34232	0.052836	0.099561	0.24654	0.20431	0.13809	0.19992	0.41976	-2.5896	-3.2917	-3.1375	-3.075	-3.3187	-3.1604	-3.2521	-3.5104	-3.0396	-3.1917	-3.375	-2.9396	-3.5021	-3.3333	-3.1437	-3.3521	31.257	0.801	219.918	150.353	79.537	318.639	274.722	253.980	129.832	275.431	25.183	4.942	80.068	6.516	59.677	284.383	0.00065621	0.00052676	0.00012026	1346.3	3.7727e-06	5.5085e-06	1357.8	368.85	5.0463e-06	3.265e-06	421.63	141.49	122.54	41.55	5.2245e-06	51.844	0.00026817	0.00025342	7.0892e-05	1339.5	2.811e-06	2.8004e-06	1365.8	370.62	2.7982e-06	2.7755e-06	422.33	142.59	123.11	42.2	2.826e-06	52.29	316.865	75.040	64.152	-14.520	121.575	166.508	-14.768	-9.659	152.002	120.053	-10.514	-5.784	-5.312	-0.732	116.284	-1.869	-8191	255	
823.577	1	1	0	0	0.18191	0.20068	0.14317	0.17979	0.16672	0.25435	0.043071	0.2698	0.074111	0.11125	0.17368	0.21617	0.10127	0.17653	0.16081	0.14079	-2.6813	-3.3958	-3.1021	-3.2	-3.3896	-3.0563	-3.2833	-3.4979	-3.1708	-3.2292	-3.5687	-3.1646	-3.3042	-3.3979	-3.0896	-3.375	115.739	148.848	84.426	277.330	3.870	175.184	242.361	269.885	198.072	7.501	-24.170	-11.884	-25.945	192.813	270.069	63.523	0.00059378	0.00041806	0.00010822	1354.8	4.7807e-06	4.3832e-06	1362.7	368.48	8.5673e-06	3.1188e-06	420.88	141.81	122.24	41.769	5.2182e-06	51.843	0.00026758	0.00025601	7.0909e-05	1341.6	2.7916e-06	2.7769e-06	1368	370.95	2.813e-06	2.7553e-06	422.18	142.6	122.96	42.22	2.8111e-06	52.31	312.975	51.042	75.873	-14.583	131.226	79.534	-14.599	-9.675	136.961	69.484	-10.386	-5.895	-5.110	-0.765	106.334	-1.524	-8191	255	
823.674	1	1	0	0	0.19429	0.059794	0.043599	0.23351	0.26207	0.20181	0.24362	0.14455	0.21044	0.047978	0.067716	0.21589	0.32295	0.23299	0.18807	0.037126	-2.6063	-3.2562	-3.2979	-2.9562	-3.425	-3.3542	-3.4396	-3.4458	-2.8417	-3.0563	-3.4437	-3.0208	-3.4979	-3.2896	-2.9396	-3.3104	279.801	214.430	193.971	224.885	233.974	24.691	278.511	274.376	127.154	94.755	259.912	308.052	284.451	287.525	315.894	0.414	0.00065603	0.00028691	0.00010922	1352.5	5.2874e-06	5.6992e-06	1363.3	367.22	3.3327e-06	3.8787e-06	421.34	141.65	121.76	41.699	6.6023e-06	51.572	0.0002692	0.00025606	7.1044e-05	1343.6	2.7752e-06	2.787e-06	1367.7	370.34	2.8004e-06	2.7709e-06	421.61	142.48	122.98	42.209	2.7733e-06	52.209	328.701	90.549	34.205	-14.406	124.574	158.406	-14.474	-9.840	110.657	155.505	-10.290	-5.754	-5.179	-0.783	95.538	-1.764	-8191	255	
823.747	1	1	0	0	0.27158	0.12867	0.16029	0.14994	0.17265	0.035516	0.25827	0.346	0.01715	0.088164	0.063964	0.1176	0.33964	0.24641	0.24541	0.15329	-2.6583	-3.3563	-3.3063	-2.8271	-3.15	-3.0875	-3.4083	-3.5312	-3.1292	-3.1625	-3.5083	-3.1083	-3.525	-3.2125	-2.8854	-3.2521	-19.832	329.415	250.056	254.074	65.344	323.967	244.191	245.378	238.523	172.980	268.513	-7.525	312.763	312.078	-27.558	196.333	0.00067794	0.0002581	0.00010309	1353.8	5.0378e-06	5.5589e-06	1358.2	368.48	4.4602e-06	2.3352e-06	419.12	141.81	122.13	41.732	6.2976e-06	51.892	0.00027041	0.00025548	7.0598e-05	1340.4	2.7862e-06	2.7907e-06	1365.5	370.47	2.7928e-06	2.7991e-06	421.67	142.39	123.16	42.236	2.7506e-06	52.307	317.848	78.070	45.097	-14.368	130.908	139.255	-14.571	-9.731	111.354	148.523	-10.578	-5.747	-5.201	-0.863	115.782	-1.629	-8191	255	
823.866	1	1	0	0	0.21539	0.2477	0.15252	0.37371	0.30081	0.082905	0.21237	0.23161	0.048889	0.19724	0.17285	0.094395	0.034818	0.28284	0.1568	0.22671	-2.85	-3.1437	-3.4125	-3.1312	-3.2479	-3.1625	-3.3104	-3.4833	-3.2229	-3.3125	-3.35	-3.1	-3.3021	-3.4333	-3.1542	-3.5208	-21.286	142.011	28.247	331.108	291.699	142.120	196.461	-3.595	282.015	242.439	56.878	184.706	286.878	288.295	312.193	276.515	0.0006751	0.00035615	8.5532e-05	1363.2	3.0178e-06	4.9851e-06	1357.5	366.59	2.6302e-06	3.2607e-06	421.25	141.88	122.54	41.618	1.0999e-06	51.764	0.00026755	0.00025379	7.0273e-05	1343.5	2.8165e-06	2.754e-06	1365	369.81	2.8038e-06	2.7783e-06	421.66	142.51	123.12	42.186	2.7768e-06	52.238	319.441	71.310	106.121	-14.676	143.917	161.600	-14.580	-9.893	222.080	131.228	-10.490	-5.793	-5.109	-1.051	47.642	-1.930	-8191	255	
823.962	1	1	0	0	0.20674	0.17594	0.3362	0.021168	0.10439	0.095286	0.28178	0.17214	0.20251	0.057398	0.055373	0.083063	0.19189	0.29944	0.19018	0.2421	-2.8875	-3.0542	-3.0521	-3.0438	-3.375	-3.4562	-3.2125	-3.4562	-3.2188	-3.2562	-3.6771	-3.25	-3.2792	-3.4708	-3.0958	-3.3625	325.507	66.652	150.859	140.583	26.103	-2.996	255.678	248.523	10.228	235.683	318.185	50.277	240.112	281.617	-20.449	43.795	0.00068434	0.00046378	0.0001799	1357.9	2.9036e-06	5.4472e-06	1353.7	367.59	5.7322e-06	1.8713e-06	421.55	141.33	122.39	41.682	7.5568e-06	51.697	0.00026703	0.00025415	7.0677e-05	1341.7	2.8142e-06	2.7499e-06	1364.5	370.54	2.7776e-06	2.7756e-06	422.3	142.5	122.97	42.238	2.7843e-06	52.182	324.735	12.873	21.584	-14.479	117.311	160.641	-14.557	-9.592	155.025	158.026	-10.300	-5.696	-5.167	-0.909	114.939	-1.511	-8191	255	
824.058	1	1	0	0	0.14281	0.038962	0.1183	0.24884	0.15347	0.27672	0.038866	0.21079	0.26892	0.047503	0.18028	0.11129	0.16837	0.31161	0.082089	0.3536	-2.8979	-3.0542	-3.1125	-3.0083	-3.1104	-3.3292	-3.3542	-3.4313	-3.4708	-3.1146	-3.7458	-3.0833	-3.3042	-3.3583	-3.1063	-3.1521	57.165	75.525	252.995	298.359	222.265	45.443	175.858	284.965	76.797	284.698	267.512	271.015	287.547	-22.926	111.280	325.585	0.00074641	0.00048435	9.4872e-05	1352.6	8.5312e-07	7.6811e-06	1364.4	367	4.8249e-06	1.5582e-06	419.3	141.55	122.04	41.415	4.8211e-06	51.814	0.00026665	0.00025064	6.9625e-05	1340.5	2.7897e-06	2.726e-06	1366.6	370.08	2.7557e-06	2.7051e-06	421.09	142.53	122.96	42.084	2.7655e-06	52.235	323.197	36.836	73.924	-14.287	159.955	99.471	-14.590	-9.835	126.684	93.998	-10.277	-5.935	-5.213	-0.886	115.090	-1.640	-8191	255	
824.179	1	1	0	0	0.20579	0.30173	0.18437	0.17244	0.19668	0.21129	0.28139	0.16996	0.29394	0.18266	0.17048	0.28282	0.21994	0.2226	0.11931	0.045115	-2.8521	-3.0396	-3.3417	-3.3896	-2.9729	-3.3542	-3.3021	-3.4729	-3.4042	-2.8792	-3.3833	-3.5521	-2.9771	-3.4083	-3.2521	-3.3563	-4.577	282.735	286.282	-8.832	142.092	119.881	316.078	280.657	253.322	98.723	23.220	300.474	256.596	212.166	231.613	158.577	0.00063568	0.0003613	0.00016424	1361.6	3.7243e-06	5.7964e-06	1359	368.43	4.0019e-06	5.4414e-06	420.71	141.96	122.66	41.578	4.2484e-06	51.7	0.00026424	0.00025208	7.0484e-05	1342.2	2.7371e-06	2.7005e-06	1366.1	370.96	2.7922e-06	2.7233e-06	422.07	142.55	123.18	42.166	2.7483e-06	52.238	319.079	51.903	51.339	-14.316	132.427	144.294	-14.349	-9.640	127.376	99.291	-10.590	-5.877	-5.249	-0.898	102.649	-1.416	-8191	255	
824.275	1	1	0	0	0.36654	0.087951	0.085765	0.14319	0.19549	0.24295	0.2631	0.26736	0.039267	0.13399	0.16937	0.23238	0.20012	0.23634	0.079566	0.12747	-2.8396	-3.2333	-3.3479	-3.1479	-3.1604	-3.3729	-3.2917	-3.4542	-3.325	-3.2729	-3.4604	-3.5167	-3.2375	-3.4021	-3.1813	-3.2542	174.628	227.677	44.119	187.291	330.672	42.976	264.125	299.988	9.926	304.990	288.137	198.027	304.396	-19.673	222.813	300.982	0.00075371	0.00085529	6.0434e-05	1353.7	2.5628e-06	4.1306e-06	1362	367.87	6.9681e-06	3.6423e-06	422.7	142.07	122.73	41.697	5.5297e-06	51.717	0.00026783	0.00025399	7.1579e-05	1339.2	2.7884e-06	2.7858e-06	1365.2	370.64	2.8181e-06	2.7738e-06	422.76	142.82	123.32	42.277	2.7872e-06	52.338	326.088	54.775	-9.424	-14.349	101.304	140.424	-14.382	-9.696	96.284	99.240	-10.331	-5.916	-5.198	-0.854	113.590	-1.710	-8191	255	
#DATA ENDS
