BOXY.EXE: ISS Imagent and Oximeter Data Acquisition Program Version 0.80
Ascii Record File

#ACQ INFORMATION
2  Detector Channels 
16  External MUX Channels 
1  Auxiliary Channels 
5000  Waveform (CCF) Frequency (Hz)
1  Waveforms Skipped 
30  Waveforms Averaged 
1  Cycles Averaged 
16  Acquisitions per Waveform 
10.0806  Updata Rate (Hz) 

#FILE INFORMATION
TRUE -- External MUX Channel results are PARSED.
FALSE -- AC DC and Phase are NOT grouped.
TRUE -- Companion Program Settings File CREATED.
FALSE -- AC data not excluded
FALSE -- DC data not excluded
FALSE -- Phase data not excluded
FALSE -- Auxillary Chn. data not excluded
Tab delimiters

#CALIBRATION STATE
TRUE -- Waveform Calibration Values APPLIED.


#AUX CALIBRATION VALUES
Val Type	aux-1	

Term	1.0000e+00	
Factor	0.0000e+00	


#WF CALIBRATION VALUES
A = Detector Channel
Val Type	A-AC1	A-AC2	A-AC3	A-AC4	A-AC5	A-AC6	A-AC7	A-AC8	A-AC9	A-AC10	A-AC11	A-AC12	A-AC13	A-AC14	A-AC15	A-AC16	A-DC1	A-DC2	A-DC3	A-DC4	A-DC5	A-DC6	A-DC7	A-DC8	A-DC9	A-DC10	A-DC11	A-DC12	A-DC13	A-DC14	A-DC15	A-DC16	A-Ph1	A-Ph2	A-Ph3	A-Ph4	A-Ph5	A-Ph6	A-Ph7	A-Ph8	A-Ph9	A-Ph10	A-Ph11	A-Ph12	A-Ph13	A-Ph14	A-Ph15	A-Ph16	

Term	0.00000e+00	0.00000e+00	0.00000e+00	0.00000e+00	0.00000e+00	0.00000e+00	0.00000e+00	0.00000e+00	0.00000e+00	0.00000e+00	0.00000e+00	0.00000e+00	0.00000e+00	0.00000e+00	0.00000e+00	0.00000e+00	0.00000e+00	0.00000e+00	0.00000e+00	0.00000e+00	0.00000e+00	0.00000e+00	0.00000e+00	0.00000e+00	0.00000e+00	0.00000e+00	0.00000e+00	0.00000e+00	0.00000e+00	0.00000e+00	0.00000e+00	0.00000e+00	0.00000e+00	0.00000e+00	0.00000e+00	0.00000e+00	0.00000e+00	0.00000e+00	0.00000e+00	0.00000e+00	0.00000e+00	0.00000e+00	0.00000e+00	0.00000e+00	0.00000e+00	0.00000e+00	0.00000e+00	0.00000e+00	
Factor	1.00000e+00	1.00000e+00	1.00000e+00	1.00000e+00	1.00000e+00	1.00000e+00	1.00000e+00	1.00000e+00	1.00000e+00	1.00000e+00	1.00000e+00	1.00000e+00	1.00000e+00	1.00000e+00	1.00000e+00	1.00000e+00	1.00000e+00	1.00000e+00	1.00000e+00	1.00000e+00	1.00000e+00	1.00000e+00	1.00000e+00	1.00000e+00	1.00000e+00	1.00000e+00	1.00000e+00	1.00000e+00	1.00000e+00	1.00000e+00	1.00000e+00	1.00000e+00	X	X	X	X	X	X	X	X	X	X	X	X	X	X	X	X	

B = Detector Channel
Val Type	B-AC1	B-AC2	B-AC3	B-AC4	B-AC5	B-AC6	B-AC7	B-AC8	B-AC9	B-AC10	B-AC11	B-AC12	B-AC13	B-AC14	B-AC15	B-AC16	B-DC1	B-DC2	B-DC3	B-DC4	B-DC5	B-DC6	B-DC7	B-DC8	B-DC9	B-DC10	B-DC11	B-DC12	B-DC13	B-DC14	B-DC15	B-DC16	B-Ph1	B-Ph2	B-Ph3	B-Ph4	B-Ph5	B-Ph6	B-Ph7	B-Ph8	B-Ph9	B-Ph10	B-Ph11	B-Ph12	B-Ph13	B-Ph14	B-Ph15	B-Ph16	

Term	0.00000e+00	0.00000e+00	0.00000e+00	0.00000e+00	0.00000e+00	0.00000e+00	0.00000e+00	0.00000e+00	0.00000e+00	0.00000e+00	0.00000e+00	0.00000e+00	0.00000e+00	0.00000e+00	0.00000e+00	0.00000e+00	0.00000e+00	0.00000e+00	0.00000e+00	0.00000e+00	0.00000e+00	0.00000e+00	0.00000e+00	0.00000e+00	0.00000e+00	0.00000e+00	0.00000e+00	0.00000e+00	0.00000e+00	0.00000e+00	0.00000e+00	0.00000e+00	5.86857e+01	-1.40275e+02	-1.27777e+02	-1.81956e+02	-7.36887e+01	-5.69442e+01	-1.56028e+02	-1.62015e+02	-8.09294e+01	-6.35191e+01	-1.71357e+02	-1.71405e+02	-1.82318e+02	-1.76945e+02	-7.95853e+01	-1.50279e+02	
Factor	5.16763e-05	1.33635e-04	4.06010e-05	4.21718e-01	1.38256e-06	1.58296e-06	1.58406e-01	5.39367e-02	1.66385e-06	1.37896e-06	8.47905e-02	2.81246e-02	2.35851e-02	8.08168e-03	1.69326e-06	1.20261e-02	1.73923e-06	1.81185e-06	5.05000e-07	2.07507e-01	1.98338e-08	1.98293e-08	7.56450e-02	2.72911e-02	1.96927e-08	1.98476e-08	4.12586e-02	1.36837e-02	1.19586e-02	4.10842e-03	1.97406e-08	5.88837e-03	X	X	X	X	X	X	X	X	X	X	X	X	X	X	X	X	



#DISTANCE SETTINGS
A = Detector Channel
A-1	A-2	A-3	A-4	A-5	A-6	A-7	A-8	A-9	A-10	A-11	A-12	A-13	A-14	A-15	A-16	

2.5000e+00	3.0000e+00	2.5000e+00	3.0000e+00	2.0000e+00	3.0000e+00	1.5000e+00	3.0000e+00	3.0000e+00	3.0000e+00	3.0000e+00	3.0000e+00	3.0000e+00	3.0000e+00	1.5000e+00	3.0000e+00	

B = Detector Channel
B-1	B-2	B-3	B-4	B-5	B-6	B-7	B-8	B-9	B-10	B-11	B-12	B-13	B-14	B-15	B-16	

1.0000e+01	1.0000e+01	1.0000e+01	1.4400e+00	1.0000e+01	1.0000e+01	1.5100e+00	1.9400e+00	1.0000e+01	1.0000e+01	1.9900e+00	2.4900e+00	2.4100e+00	2.9000e+00	1.0000e+01	2.9800e+00	




#DATA BEGINS
time	group	step	mark	flag	A-AC1	A-AC2	A-AC3	A-AC4	A-AC5	A-AC6	A-AC7	A-AC8	A-AC9	A-AC10	A-AC11	A-AC12	A-AC13	A-AC14	A-AC15	A-AC16	A-DC1	A-DC2	A-DC3	A-DC4	A-DC5	A-DC6	A-DC7	A-DC8	A-DC9	A-DC10	A-DC11	A-DC12	A-DC13	A-DC14	A-DC15	A-DC16	A-Ph1	A-Ph2	A-Ph3	A-Ph4	A-Ph5	A-Ph6	A-Ph7	A-Ph8	A-Ph9	A-Ph10	A-Ph11	A-Ph12	A-Ph13	A-Ph14	A-Ph15	A-Ph16	B-AC1	B-AC2	B-AC3	B-AC4	B-AC5	B-AC6	B-AC7	B-AC8	B-AC9	B-AC10	B-AC11	B-AC12	B-AC13	B-AC14	B-AC15	B-AC16	B-DC1	B-DC2	B-DC3	B-DC4	B-DC5	B-DC6	B-DC7	B-DC8	B-DC9	B-DC10	B-DC11	B-DC12	B-DC13	B-DC14	B-DC15	B-DC16	B-Ph1	B-Ph2	B-Ph3	B-Ph4	B-Ph5	B-Ph6	B-Ph7	B-Ph8	B-Ph9	B-Ph10	B-Ph11	B-Ph12	B-Ph13	B-Ph14	B-Ph15	B-Ph16	aux-1	digaux	

889.287	1	1	0	256	0.1736	0.16395	0.17768	0.074654	0.10441	0.24323	0.25714	0.089455	0.19614	0.25942	0.18202	0.15704	0.020228	0.16948	0.28693	0.09482	-2.2	-2.925	-2.6208	-2.7438	-3.1229	-2.8979	-3.3833	-3.0187	-2.7687	-2.9333	-2.9896	-2.8417	-2.9771	-2.5146	-3.0375	-3.0438	435.348	272.776	316.397	318.430	356.262	440.986	478.289	523.279	511.027	184.129	244.011	195.938	513.298	408.293	511.689	513.393	0.00074533	0.00042927	6.6317e-05	1146	2.8279e-06	3.5528e-06	1215.4	244.71	4.274e-06	9.4726e-07	304.96	86.333	66.931	19.239	3.6627e-06	27.374	9.7255e-05	8.4243e-05	2.4438e-05	1094.9	9.5024e-07	9.4098e-07	1188.9	240.34	1.0362e-06	1.0146e-06	298.6	84.708	65.639	19.248	1.0157e-06	27.275	386.555	214.920	302.196	182.396	340.748	321.592	181.600	188.689	289.765	272.147	188.455	194.621	195.201	202.454	249.345	201.219	-8191	255	
889.383	1	1	0	0	0.12598	0.17088	0.17245	0.27401	0.094512	0.14525	0.24916	0.064121	0.13383	0.099814	0.244	0.099867	0.17332	0.093652	0.15736	0.19678	-2.225	-3.0042	-2.9125	-2.8771	-3.0271	-2.6583	-2.9813	-2.7979	-2.5563	-3.0271	-2.9375	-2.7542	-2.9062	-2.5833	-2.7979	-2.9458	328.625	353.674	189.587	220.875	449.146	440.048	502.413	230.450	318.758	346.273	185.400	257.015	383.996	211.950	334.828	185.799	0.00082477	0.00018069	3.5047e-05	1151.5	3.5101e-06	4.6072e-06	1220.2	246.73	1.0412e-06	1.5077e-06	305.7	86.407	66.991	19.433	3.5693e-06	27.414	0.00011202	9.5639e-05	2.5924e-05	1102.6	1.0197e-06	9.9841e-07	1195.7	241.74	1.0244e-06	9.6559e-07	299.81	84.866	65.713	19.306	9.7572e-07	27.305	387.923	267.885	242.049	181.762	334.099	355.107	181.444	188.578	301.135	276.915	188.478	194.916	195.292	202.373	309.072	201.264	-8191	255	
889.479	1	1	0	0	0.13541	0.014937	0.18046	0.18577	0.11871	0.19224	0.22683	0.099786	0.15639	0.16884	0.12954	0.1391	0.044654	0.29092	0.19628	0.14748	-2.0438	-2.7854	-2.8083	-2.5542	-2.9021	-2.7271	-3.0229	-2.9854	-2.8354	-3.0958	-3.0542	-2.7604	-2.9125	-2.8896	-2.8521	-3.0917	259.588	204.519	340.358	446.984	177.650	206.463	377.029	279.594	433.662	499.842	311.375	525.651	329.744	519.859	247.837	284.807	0.00088101	0.00033134	0.00013069	1152.6	2.3242e-06	3.3415e-06	1216.5	247.71	3.4103e-06	5.034e-06	306.75	86.751	66.757	19.462	3.9076e-06	27.522	0.0001056	8.8852e-05	2.5024e-05	1101.1	9.9016e-07	9.8473e-07	1191.6	241.6	1.0356e-06	1.0347e-06	299.52	84.832	65.701	19.337	1.0958e-06	27.36	393.218	187.105	250.296	181.789	322.103	305.683	181.393	188.828	290.357	362.571	188.431	194.725	195.521	202.532	335.919	201.685	-8191	255	
889.598	1	1	0	0	0.13815	0.028999	0.24571	0.15805	0.12419	0.13573	0.16734	0.39368	0.055337	0.28309	0.20099	0.10083	0.073698	0.15139	0.15061	0.053186	-2.4708	-3.0021	-2.9104	-2.7521	-3.0771	-2.9125	-2.9771	-3.1396	-2.7083	-3.0083	-2.9813	-2.9604	-3.1333	-3.0542	-2.725	-3.0917	319.415	313.229	402.809	504.217	233.466	396.789	353.990	524.563	375.215	411.264	367.484	517.441	211.432	492.263	405.572	392.586	0.00078189	0.00012248	4.7191e-05	1153.2	1.5813e-06	2.6676e-06	1229.2	248.63	3.3911e-06	1.8572e-06	308.84	86.977	67.742	19.704	4.1226e-06	27.661	0.00011958	0.00010131	2.8469e-05	1106.8	1.1397e-06	1.1194e-06	1203.3	242.83	1.176e-06	1.1259e-06	301.89	85.43	66.57	19.578	1.0981e-06	27.585	385.756	266.971	360.533	181.666	280.121	355.056	181.747	188.737	295.739	267.278	188.431	194.991	195.393	201.865	316.029	201.750	-8191	255	
889.694	1	1	0	0	0.23921	0.30517	0.13013	0.39789	0.16017	0.13832	0.15721	0.14685	0.1447	0.15329	0.19854	0.33657	0.262	0.22246	0.073311	0.27544	-2.1729	-2.7354	-3.0292	-2.9396	-3.0875	-2.9458	-2.9	-3.1333	-2.6542	-2.7229	-2.8771	-2.6354	-2.9188	-2.85	-2.7687	-3.1542	303.082	504.923	383.242	352.652	185.793	390.939	452.636	451.192	302.589	205.502	487.089	440.689	494.602	512.336	184.069	482.695	0.00076301	0.00033326	6.7169e-05	1170.1	2.2069e-06	2.7696e-06	1237.6	250.17	1.6951e-06	3.5649e-06	308.9	86.793	67.689	19.612	3.5266e-06	27.713	0.0001181	0.00010065	2.7226e-05	1117.6	1.1235e-06	1.0928e-06	1211.9	244.9	1.131e-06	1.1075e-06	302.87	85.364	66.47	19.55	1.0703e-06	27.549	385.846	248.995	232.011	181.619	365.798	342.218	181.608	188.812	262.690	326.479	188.552	194.885	195.454	202.188	239.219	201.712	-8191	255	
889.790	1	1	0	0	0.29448	0.29748	0.214	0.04724	0.1341	0.14871	0.17313	0.24382	0.2244	0.1849	0.35481	0.11066	0.10963	0.14543	0.26148	0.1124	-2.4792	-2.7	-2.8875	-2.8458	-2.9667	-2.825	-2.9208	-3.2771	-2.6146	-2.8729	-3.0292	-2.6917	-3.0354	-2.8104	-2.5542	-3.0896	413.269	323.569	296.572	291.822	241.886	449.560	408.980	181.367	405.359	279.949	504.340	334.401	200.942	396.492	279.800	510.141	0.00083995	0.00023176	9.0437e-05	1171.4	1.5573e-06	3.2489e-06	1237.9	247.81	3.5215e-06	1.3732e-06	308.58	86.939	67.512	19.465	4.6402e-06	27.6	0.00011674	9.8568e-05	2.7197e-05	1119.9	1.0897e-06	1.0696e-06	1208.9	243.18	1.0616e-06	1.0144e-06	301.25	85.092	66.006	19.387	1.0115e-06	27.339	384.474	262.433	262.473	181.862	324.125	352.715	181.567	188.424	298.054	292.277	188.665	194.864	195.237	202.825	293.492	201.940	-8191	255	
889.886	1	1	0	0	0.25665	0.11759	0.048413	0.15171	0.194	0.11366	0.27238	0.19548	0.093627	0.12763	0.0096225	0.21096	0.16158	0.20475	0.09191	0.10971	-2.5521	-2.7896	-2.9938	-2.7333	-2.7521	-2.8479	-2.7646	-3.0292	-2.8896	-2.8646	-3.2229	-2.6979	-3.0917	-2.9604	-2.7396	-3.1479	178.534	370.632	358.023	450.330	275.012	420.769	492.194	197.775	372.459	246.167	177.680	190.842	301.778	487.369	451.149	359.135	0.00086908	0.00030359	3.5767e-05	1154.7	1.3137e-06	3.0309e-06	1214.9	245.98	3.7486e-06	3.0988e-06	306.82	86.46	67.398	19.42	5.0416e-06	27.204	0.00010363	8.6282e-05	2.3916e-05	1101.4	9.5946e-07	9.1843e-07	1192.1	240.97	9.4402e-07	9.1708e-07	299.09	84.786	65.705	19.316	8.5576e-07	27.166	386.498	251.281	509.477	182.047	246.283	350.266	181.690	189.027	279.420	363.551	188.370	194.484	195.452	202.388	330.809	201.539	-8191	255	
889.982	1	1	0	0	0.14664	0.077944	0.33884	0.15018	0.13273	0.13703	0.040445	0.18367	0.19512	0.17228	0.13356	0.1855	0.10187	0.072457	0.12026	0.24911	-2.6167	-2.8896	-3.0646	-2.7667	-2.8375	-3	-2.9229	-3.1604	-3.075	-2.6437	-3.0896	-2.875	-2.9396	-3.0146	-2.6167	-3.1375	397.983	448.596	284.468	282.860	471.533	522.923	205.226	378.413	517.646	492.519	450.834	219.522	443.580	175.482	316.775	429.103	0.0008743	0.00028913	8.5387e-05	1143.7	2.3592e-06	4.554e-06	1203.4	244.87	5.5903e-06	1.906e-06	302.24	85.809	66.062	19.178	2.5332e-06	27.184	9.5052e-05	7.8313e-05	2.1182e-05	1090.2	8.1376e-07	7.7177e-07	1180	238.31	7.7979e-07	7.3432e-07	295.22	83.904	64.864	19.028	7.0614e-07	26.97	385.128	245.070	268.965	181.895	312.681	361.667	181.523	188.928	279.455	322.216	188.210	195.012	195.167	202.335	326.975	201.974	-8191	255	
890.078	1	1	0	0	0.14481	0.12962	0.22341	0.14674	0.096727	0.20148	0.29036	0.11552	0.048631	0.065485	0.15473	0.23999	0.078951	0.064817	0.118	0.143	-2.6479	-2.7104	-2.9625	-2.8292	-2.8083	-3.1542	-2.9354	-3.0958	-2.8958	-2.6792	-3.0125	-2.9521	-2.7833	-2.9521	-2.7188	-3.1021	479.540	443.845	219.681	475.549	217.915	439.680	437.338	418.150	379.174	339.113	477.275	462.857	216.999	300.822	471.722	420.403	0.00087055	0.0002518	8.2744e-05	1126.5	3.6079e-06	2.376e-06	1192.2	240.62	3.047e-06	2.0235e-06	298.94	85.237	65.581	18.998	2.6907e-06	27.001	7.9907e-05	6.084e-05	1.678e-05	1077.6	6.6778e-07	6.1954e-07	1168.1	235.66	6.5728e-07	6.1391e-07	292.33	83.316	64.257	18.881	5.9403e-07	26.747	383.354	318.558	299.918	181.751	319.889	328.560	181.570	188.908	289.690	333.211	188.558	195.077	195.495	202.317	306.326	202.181	-8191	255	
890.199	1	1	0	0	0.16198	0.1907	0.082161	0.30904	0.056283	0.19153	0.14304	0.24881	0.17166	0.39792	0.29385	0.23415	0.21579	0.22786	0.070094	0.10007	-2.4625	-2.6833	-3.0333	-2.9813	-2.7396	-3.025	-2.9854	-3.1312	-3.0896	-2.75	-3.0083	-2.7979	-2.7396	-2.9708	-2.6396	-2.8167	198.386	513.052	423.905	207.265	355.823	453.022	510.022	299.309	404.936	219.874	207.887	346.328	191.955	363.927	487.439	420.610	0.00082744	0.00026939	8.1315e-05	1120.9	2.4566e-06	2.8916e-06	1182.4	239.48	6.6349e-06	1.9631e-06	299.45	84.866	65.852	19.088	1.731e-06	26.787	7.0312e-05	5.3212e-05	1.5115e-05	1068.6	5.9572e-07	5.6914e-07	1157.3	234.45	6.0563e-07	5.6855e-07	292.15	82.815	64.088	18.897	5.856e-07	26.693	387.615	222.732	262.571	181.873	260.996	336.699	181.711	188.952	288.786	322.771	188.591	195.008	195.311	202.455	307.934	201.798	-8191	255	
890.293	1	1	0	0	0.083281	0.22013	0.11223	0.14403	0.29863	0.19982	0.20168	0.26186	0.2305	0.06121	0.18407	0.20225	0.22608	0.26803	0.045204	0.28512	-2.6292	-2.5667	-2.7875	-2.85	-2.6292	-3.1188	-2.8708	-3.0563	-3.1021	-2.925	-3.0771	-2.9771	-2.5771	-2.8479	-2.6958	-2.625	407.405	506.260	287.495	177.294	386.779	342.668	495.486	492.416	236.919	290.814	249.415	372.449	205.458	371.918	517.777	479.644	0.00083623	0.00021547	0.00014527	1110	2.5431e-06	1.9757e-06	1173.7	238.8	3.8666e-06	3.203e-06	295.66	83.828	65.021	18.885	4.8855e-06	26.66	6.6399e-05	5.0973e-05	1.3649e-05	1057.8	5.4493e-07	5.0734e-07	1147	232.78	5.2469e-07	4.856e-07	288.85	82.256	63.386	18.724	4.8159e-07	26.438	379.428	260.294	259.573	182.121	309.969	327.045	181.684	189.206	285.438	351.666	188.703	195.157	195.659	202.538	301.735	201.957	-8191	255	
890.390	1	1	0	0	0.34946	0.16053	0.35809	0.17342	0.071977	0.19232	0.17963	0.065259	0.068133	0.048464	0.21802	0.16605	0.085683	0.1005	0.34961	0.045755	-2.4417	-2.6375	-2.9396	-2.9583	-2.8979	-3.1562	-3.2792	-2.9292	-3.1125	-2.8625	-3.0854	-2.9458	-2.8042	-3.0792	-3.0812	-2.7625	349.015	259.898	263.666	466.266	197.673	474.173	247.638	511.316	228.115	521.550	396.609	517.807	205.027	454.749	248.614	353.547	0.00087468	0.00038073	6.2261e-05	1091.5	2.5091e-06	3.2464e-06	1157.6	237.04	4.8273e-06	2.7046e-06	295.24	83.695	64.464	18.673	4.6709e-06	26.562	6.3391e-05	4.2967e-05	1.1905e-05	1039.8	4.844e-07	4.3678e-07	1132	230.56	4.9564e-07	4.4744e-07	286.76	81.694	62.936	18.554	4.5658e-07	26.249	385.896	254.298	233.854	182.055	307.023	347.619	182.048	189.112	268.242	369.481	188.572	195.327	195.607	202.886	296.614	201.942	-8191	255	
890.463	1	1	0	0	0.16252	0.1982	0.025716	0.16159	0.15901	0.11611	0.16499	0.20565	0.088904	0.062712	0.039389	0.059275	0.19699	0.086087	0.2143	0.090026	-2.6104	-2.4917	-2.8646	-2.9354	-2.4958	-2.875	-3.1	-2.7708	-3.0375	-2.7646	-2.775	-3.1312	-2.6562	-2.9042	-2.9437	-2.6792	502.204	279.405	467.990	518.212	395.835	278.108	478.442	470.177	401.565	354.029	365.120	430.082	417.752	192.020	429.152	222.598	0.00077556	0.00024845	8.6371e-05	1091.2	3.2336e-06	2.3007e-06	1147.6	233.83	4.5119e-06	3.488e-06	292.58	83.171	64.242	18.535	2.6686e-06	26.398	5.959e-05	4.0049e-05	1.1405e-05	1034.9	4.6039e-07	4.4736e-07	1123.4	228.12	5.0179e-07	4.395e-07	285.32	81.18	62.621	18.397	4.79e-07	26.15	385.586	222.355	265.327	181.725	307.779	333.935	181.870	189.035	311.264	313.119	188.494	194.728	195.849	202.564	239.893	202.496	-8191	255	
890.582	1	1	0	0	0.053564	0.3856	0.10292	0.12594	0.33883	0.28809	0.1299	0.089351	0.21942	0.27703	0.26025	0.26718	0.11512	0.30351	0.33274	0.19292	-2.5625	-2.7646	-2.5312	-2.8896	-2.5479	-3.0938	-3.1083	-2.6604	-2.925	-2.7917	-2.7417	-2.9042	-2.6854	-2.925	-2.7083	-2.7271	188.874	367.767	437.497	420.307	485.505	475.282	517.701	197.247	250.039	397.654	502.155	396.637	433.654	188.308	275.619	196.597	0.00076581	0.00014333	7.4361e-05	1083.1	2.2616e-06	1.1721e-06	1146.4	231.46	4.5637e-06	2.5853e-06	290.26	81.993	63.244	18.338	4.6555e-06	26.07	6.1753e-05	4.4077e-05	1.2617e-05	1030.4	5.1555e-07	4.8772e-07	1121	226.46	5.1041e-07	4.9036e-07	281.67	80.284	61.9	18.21	5.1642e-07	25.863	388.218	266.376	261.214	182.149	323.920	354.973	181.860	188.973	277.787	316.517	188.426	195.223	195.424	203.038	308.602	202.113	-8191	255	
890.678	1	1	0	0	0.14578	0.11933	0.23	0.12373	0.10771	0.059969	0.066361	0.079069	0.14329	0.13462	0.0031446	0.087955	0.26173	0.10527	0.18175	0.2277	-2.4583	-2.7292	-2.5854	-3.1125	-2.6979	-3.1521	-3.2042	-2.9417	-2.9188	-3.0292	-2.7938	-2.9833	-2.6104	-2.6875	-2.9688	-2.75	502.030	371.931	230.479	182.395	489.274	495.642	471.907	481.505	222.062	302.202	431.151	219.493	292.810	223.200	245.104	459.625	0.00078019	8.5345e-05	0.00011252	1070.7	2.9327e-06	2.8487e-06	1132.1	226.47	4.2082e-06	3.171e-06	284.57	81.493	62.627	18.126	2.8242e-06	25.816	6.4895e-05	4.6931e-05	1.2519e-05	1018.5	5.2498e-07	4.916e-07	1107.7	221.65	5.4397e-07	5.272e-07	276.59	79.541	61.185	18.019	5.5467e-07	25.626	392.150	233.942	260.991	181.976	289.185	283.880	181.702	189.025	284.955	317.487	189.061	194.814	195.500	203.557	316.389	201.925	-8191	255	
890.774	1	1	0	0	0.34368	0.25989	0.093434	0.16029	0.21379	0.022588	0.30799	0.16707	0.028037	0.2351	0.077197	0.34599	0.2828	0.24174	0.16574	0.025786	-2.5292	-2.975	-2.7604	-3.1688	-2.8708	-2.8646	-3.2896	-2.7375	-2.8104	-3.0792	-2.8354	-3.15	-2.7313	-2.7562	-2.9292	-2.55	269.916	354.837	304.637	361.169	389.003	331.687	459.976	193.423	202.798	493.125	203.774	459.383	252.325	220.152	305.762	237.253	0.00084751	0.00021166	9.0135e-05	1067.6	1.7245e-06	2.115e-06	1142.2	227.16	4.7507e-06	2.4799e-06	281.3	80.912	62.567	18.28	3.2284e-06	25.667	7.066e-05	5.2347e-05	1.4917e-05	1019.4	6.1518e-07	5.8649e-07	1115	222.17	6.6459e-07	6.1267e-07	276.25	79.116	61.279	18.033	6.275e-07	25.532	385.915	223.240	272.563	182.038	291.885	303.255	181.770	188.915	283.973	299.785	189.041	194.975	195.294	202.900	288.587	201.513	-8191	255	
890.870	1	1	0	0	0.086588	0.161	0.23964	0.2261	0.18163	0.29521	0.14685	0.31038	0.085912	0.24835	0.29167	0.14863	0.14507	0.097897	0.20638	0.083573	-2.4958	-2.9813	-2.6521	-3.1854	-2.8854	-3.075	-3.2583	-2.9271	-3.0312	-2.9646	-2.7417	-3.0667	-2.9917	-2.9917	-3.1146	-3.0521	267.003	441.104	211.541	492.039	279.850	458.266	204.903	487.121	373.424	181.067	523.774	522.923	511.875	217.198	299.686	473.418	0.00067661	0.00041009	6.2149e-05	1093.9	3.007e-06	3.1079e-06	1150.1	229.77	5.4893e-06	1.4036e-06	283.8	81.169	62.883	18.139	2.9192e-06	25.829	7.5069e-05	5.9674e-05	1.6588e-05	1035.8	6.5278e-07	6.421e-07	1126	223.79	6.7849e-07	6.1933e-07	278.33	79.54	61.619	18.06	6.8113e-07	25.671	384.364	262.505	308.229	181.824	296.765	322.580	181.890	189.244	276.032	359.316	188.899	194.890	195.621	202.807	262.597	202.313	-8191	255	
890.991	1	1	0	0	0.034447	0.2148	0.13369	0.08611	0.031544	0.089733	0.40092	0.3462	0.12668	0.10241	0.21907	0.10287	0.22808	0.081881	0.05655	0.1212	-2.6083	-3.0208	-2.7146	-3.0625	-2.825	-2.775	-3.0563	-2.8104	-3.0354	-3.1562	-2.8125	-3.1146	-2.7354	-2.7729	-3.35	-2.9604	321.868	196.830	411.846	493.505	482.512	267.607	455.658	475.706	351.287	332.918	188.631	488.008	521.840	293.970	229.087	312.902	0.0008417	0.00031407	8.1697e-05	1086.9	3.7106e-06	4.4972e-06	1159.4	230.04	3.3224e-06	2.4493e-06	285.62	81.242	63.374	18.22	4.2125e-06	25.944	7.9222e-05	5.9625e-05	1.6404e-05	1041.4	6.5885e-07	6.6341e-07	1133.2	224.9	6.7866e-07	6.7407e-07	279.46	79.631	61.909	18.143	6.6769e-07	25.746	384.202	265.887	292.046	182.214	294.581	326.109	181.597	188.754	312.574	316.988	188.828	194.898	195.424	202.545	273.050	202.040	-8191	255	
891.063	1	1	0	0	0.1567	0.042275	0.079654	0.11156	0.041489	0.09861	0.1753	0.038312	0.1999	0.11267	0.099899	0.081684	0.35219	0.050762	0.052056	0.12138	-2.5854	-3.0521	-2.6604	-2.9833	-2.7979	-2.625	-3.1437	-2.7146	-2.7979	-2.9521	-2.7313	-2.9646	-3.0021	-2.6688	-3.0542	-3.0375	385.442	347.243	378.987	483.531	422.271	252.572	442.193	280.018	193.602	439.427	174.720	174.658	505.139	199.587	394.336	439.544	0.00087344	0.0002616	0.0001093	1094.6	4.2389e-06	4.282e-06	1162.2	231.23	3.7979e-06	2.0335e-06	286.31	82.015	63.41	18.454	4.3776e-06	26.036	7.7486e-05	5.8006e-05	1.678e-05	1047.6	6.7571e-07	6.383e-07	1137.3	225.92	6.6836e-07	6.1883e-07	280.33	80.098	61.861	18.221	6.5017e-07	25.83	390.632	235.778	314.347	181.629	316.187	331.736	181.705	188.925	296.955	308.975	188.768	194.833	195.831	202.844	289.709	202.180	-8191	255	
891.159	1	1	0	0	0.14618	0.18895	0.14957	0.2049	0.24484	0.26667	0.26576	0.14602	0.27244	0.035254	0.15843	0.16375	0.23424	0.18141	0.18084	0.090063	-2.3208	-3.2833	-2.7438	-3.1083	-2.9479	-2.6792	-3.2333	-3.1312	-2.7833	-2.9458	-2.8958	-3.1375	-3.1125	-2.8271	-2.8604	-2.7646	270.285	310.731	525.118	515.680	272.781	306.399	481.877	229.390	261.569	397.198	489.401	441.976	403.933	444.104	449.633	207.377	0.00080997	0.00035716	0.00011313	1095.5	3.6282e-06	2.8623e-06	1162.2	230.77	4.8198e-06	2.7827e-06	286.67	82.293	63.67	18.398	3.8455e-06	26.179	7.6033e-05	5.9538e-05	1.5957e-05	1047.7	6.453e-07	6.1859e-07	1137.7	225.99	6.6352e-07	6.1863e-07	280.25	80.268	62.129	18.245	6.3717e-07	25.896	385.290	270.749	266.317	181.838	320.535	306.288	181.547	189.110	277.940	359.972	188.528	194.675	195.618	202.595	261.640	201.990	-8191	255	
891.279	1	1	0	0	0.32732	0.057886	0.10836	0.036452	0.18032	0.34751	0.25358	0.30303	0.18364	0.0685	0.34157	0.18293	0.040372	0.18762	0.24769	0.31229	-2.1208	-3.1417	-2.6542	-3.0042	-3.0333	-2.7812	-3.2146	-2.875	-2.6875	-2.9583	-2.7833	-2.6688	-2.9458	-2.6146	-2.9958	-2.8208	472.162	403.184	388.774	177.242	173.811	226.327	421.640	437.627	259.929	470.705	264.637	303.094	354.951	349.519	397.064	479.768	0.00075414	0.00022322	7.9206e-05	1100.4	3.2174e-06	3.2492e-06	1157.2	230.26	5.2081e-06	2.0058e-06	287.39	82.186	63.647	18.359	3.0397e-06	25.948	7.2635e-05	5.5054e-05	1.5586e-05	1046.7	6.0948e-07	5.8653e-07	1134.3	225.64	5.9915e-07	5.7331e-07	279.95	80.169	61.993	18.225	5.8638e-07	25.783	383.573	261.413	258.209	181.993	277.270	330.189	181.684	188.943	280.668	339.894	188.522	195.191	195.654	202.956	290.442	201.907	-8191	255	
891.376	1	1	0	0	0.19196	0.15751	0.17334	0.16573	0.095059	0.36342	0.1604	0.25442	0.077097	0.22451	0.26741	0.073814	0.1999	0.22719	0.35641	0.099505	-2.2458	-2.9104	-2.7271	-3.0708	-3.1708	-2.9208	-3.2229	-3.1896	-2.9396	-3.1542	-3.0604	-2.9354	-3.0812	-2.6646	-2.9375	-3.0479	217.863	256.307	319.143	391.474	377.094	341.654	476.928	377.047	358.020	445.539	386.140	434.664	196.297	271.734	271.167	381.920	0.00076504	0.00028293	0.00010983	1093	3.9006e-06	2.1899e-06	1156.8	230.93	6.2982e-06	2.5545e-06	287.2	81.262	63.438	18.344	1.5784e-06	25.948	7.0671e-05	5.0067e-05	1.427e-05	1039.4	5.5477e-07	5.4799e-07	1132.6	224.99	5.82e-07	5.6152e-07	279.22	79.821	61.868	18.152	5.7404e-07	25.793	389.887	269.005	254.092	182.292	298.477	340.468	181.718	188.810	272.910	320.619	188.796	194.848	195.842	202.904	268.426	202.077	-8191	255	
891.472	1	1	0	0	0.26071	0.044216	0.19378	0.1772	0.19552	0.034056	0.069941	0.12431	0.1222	0.22041	0.12057	0.11944	0.094	0.17794	0.14244	0.072302	-2.1229	-2.8708	-2.7313	-2.6813	-2.8708	-2.7938	-3.0979	-3.0333	-2.6479	-3.1063	-3.0875	-2.875	-3.0479	-3.0083	-2.9708	-3.1146	502.603	231.936	381.708	198.073	469.642	481.413	189.985	454.265	339.084	421.988	175.697	178.449	459.073	257.270	250.034	491.356	0.00082994	0.00016648	7.0562e-05	1094.2	3.1414e-06	3.1331e-06	1156.9	231.17	5.4312e-06	8.3775e-07	287.32	82.56	63.382	18.451	4.5561e-06	25.865	6.8094e-05	5.4057e-05	1.4402e-05	1042.3	5.8687e-07	5.7852e-07	1132.8	225.76	6.0543e-07	5.6756e-07	279.83	80.427	61.86	18.242	5.9284e-07	25.825	388.616	259.641	268.083	182.036	311.726	349.571	181.669	189.023	283.218	363.321	188.693	195.349	195.353	202.483	305.765	202.120	-8191	255	
891.591	1	1	0	0	0.19646	0.17568	0.20779	0.028238	0.22157	0.060522	0.21219	0.35429	0.12903	0.088287	0.041033	0.072695	0.274	0.25649	0.26044	0.29583	-2.4188	-3.0438	-2.9688	-2.6562	-3.2438	-2.6646	-2.9	-2.9708	-2.6937	-2.9062	-2.9667	-2.6646	-3.0729	-2.725	-2.6792	-2.9125	528.280	249.864	189.372	294.911	503.785	378.932	390.414	330.722	502.365	332.884	295.546	475.671	484.657	256.849	378.355	299.254	0.0007857	0.00031018	5.3295e-05	1101.3	2.3868e-06	3.723e-06	1162.9	229.7	3.2656e-06	2.7308e-06	285.86	81.844	63.047	18.407	3.6026e-06	26.274	6.8359e-05	5.271e-05	1.4661e-05	1047.3	5.9299e-07	5.6794e-07	1136.1	225.08	6.2118e-07	5.8001e-07	279.25	80.142	61.877	18.244	5.682e-07	25.906	389.536	267.269	259.838	182.087	364.676	331.534	181.530	188.907	277.728	275.575	188.479	195.312	195.463	202.500	320.527	202.676	-8191	255	
891.687	1	1	0	0	0.31258	0.20208	0.29009	0.18463	0.13682	0.2278	0.2507	0.17828	0.013477	0.12539	0.12584	0.13333	0.024025	0.074644	0.10496	0.095864	-2.3104	-2.8292	-2.7667	-2.7875	-3.1208	-2.6625	-2.8021	-3.2833	-2.8229	-3.0417	-3.1896	-3.0021	-3.1625	-2.7771	-2.6833	-3.0396	350.554	489.730	415.577	519.508	261.978	388.735	476.187	490.657	262.609	209.985	353.284	455.087	361.784	522.853	219.654	463.647	0.00075115	0.00032685	8.4436e-05	1096.6	1.6575e-06	3.935e-06	1165.9	229.86	3.6124e-06	3.9588e-06	286	82.435	63.564	18.328	3.7418e-06	25.88	6.9138e-05	5.1049e-05	1.4402e-05	1044.5	5.7411e-07	5.5134e-07	1132.2	224.95	5.9107e-07	5.5565e-07	278.98	80.15	61.734	18.185	5.5348e-07	25.733	389.994	217.890	291.260	182.187	316.969	338.440	181.734	188.926	299.518	331.229	188.684	195.113	195.609	203.220	329.493	201.671	-8191	255	
891.758	1	1	0	0	0.12514	0.1497	0.053318	0.13018	0.18117	0.14159	0.17932	0.093661	0.2514	0.080158	0.14661	0.18697	0.047065	0.060245	0.11344	0.2321	-2.2792	-2.7562	-2.9917	-2.9271	-3.0042	-3.0812	-3.0187	-3.3063	-2.9167	-3.0104	-3.3458	-2.8854	-3.1604	-3.1667	-2.7	-3.1771	241.818	339.357	354.459	479.925	452.500	292.211	440.849	469.008	247.621	423.601	499.532	248.147	450.940	434.218	333.269	455.473	0.00078016	0.00036922	5.0296e-05	1093.5	3.3545e-06	1.0975e-06	1150.3	230.45	4.7714e-06	3.3756e-06	286.28	81.582	63.13	18.329	3.0879e-06	26.127	6.8344e-05	4.9758e-05	1.3643e-05	1043.9	5.8758e-07	5.5464e-07	1130	224.77	5.9213e-07	5.7277e-07	279.07	80.016	61.782	18.218	5.5812e-07	25.768	384.834	247.267	259.242	182.235	305.059	360.889	181.799	189.604	287.656	338.429	188.428	194.984	195.728	202.893	301.454	202.294	-8191	255	
891.879	1	1	0	0	0.27227	0.11165	0.20828	0.30603	0.14638	0.26727	0.10321	0.43513	0.16377	0.089961	0.24032	0.090328	0.088362	0.087812	0.26526	0.23616	-2.425	-2.7229	-2.9167	-2.8229	-3.0521	-2.9292	-3.0625	-2.9354	-2.7875	-2.8646	-3.1354	-2.8604	-2.9708	-2.9875	-2.7687	-3.0958	401.808	318.263	206.471	371.313	422.053	486.342	191.567	441.298	201.284	295.055	381.696	488.259	269.877	417.333	270.606	184.549	0.00081933	0.00025806	7.2971e-05	1093.8	2.2948e-06	1.9966e-06	1153.9	229.82	2.8144e-06	2.9551e-06	284.46	81.522	63.475	18.375	2.3713e-06	25.95	6.9167e-05	5.0366e-05	1.4073e-05	1040.3	5.751e-07	5.5336e-07	1127.6	224.79	5.8717e-07	5.5445e-07	278.78	79.813	61.785	18.178	5.6528e-07	25.779	384.864	235.327	275.308	182.119	319.437	319.142	181.761	189.200	250.631	319.481	188.824	195.051	195.676	202.525	291.366	201.852	-8191	255	
891.975	1	1	0	0	0.17086	0.13722	0.18889	0.25275	0.11223	0.23953	0.37691	0.12943	0.13244	0.015613	0.26979	0.034449	0.10259	0.15763	0.0428	0.067836	-2.4083	-2.75	-2.8875	-2.5938	-3.0438	-3.0667	-2.95	-3.1396	-3.0167	-2.8708	-3.2521	-2.9875	-2.8917	-3.0833	-3	-3.1646	517.796	178.185	481.720	190.941	264.528	314.505	441.932	442.846	425.076	256.931	293.797	525.742	221.313	460.457	314.791	479.729	0.00074905	0.00033107	0.00014941	1088.5	2.6843e-06	1.6775e-06	1149.9	230.06	4.2636e-06	2.3852e-06	286.95	82.222	63.128	18.224	4.7351e-06	26.128	6.9254e-05	5.1875e-05	1.4074e-05	1038	5.8072e-07	5.5832e-07	1127.4	224.59	5.7318e-07	5.5821e-07	279.24	80.126	61.859	18.145	5.8161e-07	25.825	386.315	237.952	273.216	182.040	275.297	278.694	181.893	189.144	289.891	343.800	188.603	195.089	195.705	202.727	273.050	201.857	-8191	255	
892.071	1	1	0	0	0.15227	0.15272	0.097613	0.18098	0.054921	0.16846	0.047023	0.26097	0.14606	0.2239	0.10957	0.079921	0.18908	0.17634	0.074812	0.17655	-2.6188	-2.7062	-3.0417	-2.9542	-3.0208	-3.2792	-3.1188	-3.1021	-3.1937	-2.9771	-3.3104	-3.0292	-2.875	-3.275	-2.8187	-2.95	364.356	339.417	436.209	501.803	496.182	402.970	466.189	181.980	499.906	359.336	298.429	188.740	476.532	177.527	212.018	443.523	0.00081195	0.00021221	0.00011359	1090.3	3.3357e-06	2.5658e-06	1151.1	229.53	4.0949e-06	3.3807e-06	286.63	81.509	63.188	18.24	2.1042e-06	25.862	6.9681e-05	5.2404e-05	1.4139e-05	1035.9	5.9592e-07	5.5848e-07	1127.3	224.25	5.8902e-07	5.54e-07	278.89	79.693	61.83	18.103	5.8124e-07	25.692	384.567	257.534	242.003	182.027	306.369	314.363	182.026	189.168	301.590	337.604	188.539	194.942	195.689	202.874	322.163	201.866	-8191	255	
892.168	1	1	0	0	0.22479	0.21125	0.24499	0.20098	0.16307	0.13026	0.26497	0.085064	0.16258	0.21048	0.20401	0.25314	0.092523	0.17625	0.19397	0.21485	-2.4583	-2.5083	-2.8625	-2.9875	-2.8417	-3.2042	-3.0083	-2.9917	-2.9833	-2.7729	-2.9292	-2.9271	-2.7917	-3.0604	-2.9354	-2.9625	403.350	174.108	324.984	456.806	206.237	185.293	479.093	526.288	303.903	334.061	435.784	493.486	484.963	197.415	316.516	218.060	0.00085241	0.00026123	0.00012196	1092.7	2.7543e-06	1.5187e-06	1152.1	229.78	3.0953e-06	3.9442e-06	285.02	81.72	63.07	18.282	3.9553e-06	26.075	6.9544e-05	5.1022e-05	1.4105e-05	1039.5	5.7204e-07	5.4419e-07	1126.2	224.49	5.6481e-07	5.3208e-07	278.4	79.754	61.488	18.121	5.4813e-07	25.729	379.690	221.087	284.669	182.135	292.972	295.419	181.808	189.232	280.865	344.887	188.916	194.987	195.901	203.156	304.757	201.886	-8191	255	
892.288	1	1	0	0	0.16951	0.01097	0.13441	0.4228	0.15239	0.26004	0.31161	0.33565	0.073171	0.084675	0.010779	0.16121	0.10543	0.090988	0.33085	0.19252	-2.3646	-2.6417	-2.9646	-3.0083	-2.6437	-3.15	-2.9521	-2.7771	-2.8396	-2.6188	-3.2729	-2.8729	-2.6667	-3.1333	-2.8417	-2.9688	311.901	224.900	271.417	461.879	257.590	216.862	188.562	470.100	222.501	377.011	293.586	372.298	345.923	329.268	271.326	278.014	0.00081232	0.00036812	8.8195e-05	1085.7	3.536e-06	2.782e-06	1150.6	229.75	4.3248e-06	1.8947e-06	285.74	81.557	62.945	18.286	2.6364e-06	25.837	6.6257e-05	4.849e-05	1.3478e-05	1030.7	5.5406e-07	5.2841e-07	1124.1	223.77	5.6059e-07	5.174e-07	278.35	79.614	61.629	18.118	5.6725e-07	25.666	383.370	262.000	242.825	182.310	292.458	294.218	181.766	189.162	295.430	326.871	188.536	194.964	195.577	202.740	317.816	202.048	-8191	255	
892.360	1	1	0	0	0.29732	0.14484	0.15392	0.11274	0.11495	0.15224	0.25523	0.16786	0.22964	0.079935	0.10517	0.2359	0.20929	0.073904	0.21469	0.26537	-2.6667	-2.8458	-2.8646	-2.9083	-2.6417	-2.9896	-2.9458	-2.8479	-3.2146	-2.775	-2.9437	-3.2646	-2.8333	-3.1792	-2.9521	-2.6375	508.965	322.385	481.701	509.781	524.307	484.527	472.308	504.018	508.264	409.519	215.082	525.483	317.574	200.389	332.602	201.753	0.00085546	0.00026449	5.873e-05	1082.7	2.3379e-06	3.0596e-06	1147.3	229.6	3.9035e-06	2.8769e-06	286.23	81.372	63.036	18.262	3.221e-06	25.963	6.6533e-05	5.0479e-05	1.4405e-05	1033.7	5.5687e-07	5.3576e-07	1124.2	224.11	5.994e-07	5.5478e-07	278.69	79.577	61.501	18.097	5.7186e-07	25.723	387.255	274.017	263.790	181.802	293.770	349.322	181.501	189.340	305.518	305.747	189.074	194.980	195.527	202.619	309.571	202.174	-8191	255	
892.454	1	1	0	0	0.1347	0.10767	0.1696	0.13426	0.16903	0.18157	0.068492	0.16778	0.13826	0.10085	0.04426	0.29015	0.23172	0.12109	0.1386	0.0067074	-2.7208	-2.5917	-2.7458	-2.975	-3.0438	-2.9917	-2.9625	-2.7875	-3.1229	-2.7729	-3.0125	-2.9896	-2.5646	-3.0333	-3.0708	-3.0729	345.798	480.304	287.471	256.983	460.811	291.394	248.231	196.527	442.936	361.819	450.187	180.515	330.269	200.866	250.532	457.588	0.00078781	0.00023235	0.00011609	1084.2	1.3891e-06	2.8498e-06	1150.1	229.22	3.6772e-06	4.5736e-06	285.24	81.765	63.341	18.378	3.4126e-06	26.083	6.712e-05	5.1766e-05	1.4108e-05	1033.6	5.7212e-07	5.5518e-07	1122	223.46	5.8619e-07	5.5383e-07	278.44	79.775	61.597	18.156	5.5693e-07	25.673	383.418	239.689	260.118	181.989	299.474	360.181	181.920	189.042	291.443	354.274	188.925	195.231	195.423	202.787	317.968	201.972	-8191	255	
892.552	1	1	0	0	0.24157	0.14201	0.13657	0.095813	0.033401	0.10064	0.33385	0.14946	0.20974	0.057207	0.11986	0.19219	0.18625	0.15448	0.022093	0.12506	-2.7125	-2.8375	-2.8958	-2.9083	-2.675	-3.0146	-3.1354	-2.8125	-3.0479	-2.8187	-2.8521	-3.3187	-2.8792	-3.0062	-3.0083	-2.8979	504.294	443.138	291.723	309.905	212.444	189.448	436.126	450.783	511.940	342.267	237.700	435.251	366.592	527.640	216.521	241.401	0.00078005	0.00027647	5.6937e-05	1079.6	3.1632e-06	3.4694e-06	1141	228.41	5.1484e-06	2.4191e-06	284.14	81.55	62.665	18.342	2.7897e-06	25.904	6.783e-05	4.7927e-05	1.3654e-05	1030.6	5.5291e-07	5.0697e-07	1118.8	223.51	5.5406e-07	5.363e-07	276.69	79.441	61.259	18.049	5.4973e-07	25.664	387.656	257.399	270.277	181.686	287.298	342.457	181.798	189.163	295.464	318.905	188.773	195.408	195.757	202.751	291.803	202.618	-8191	255	
892.671	1	1	0	0	0.22531	0.15616	0.22789	0.16317	0.2544	0.2109	0.14976	0.3923	0.089114	0.11164	0.18211	0.14521	0.024613	0.16754	0.1946	0.03483	-2.4771	-2.7521	-2.7083	-3.075	-2.8208	-3.0104	-3.2229	-2.9375	-3.2313	-3.0292	-2.9604	-3.1125	-2.8521	-2.7021	-2.8271	-2.6167	493.901	374.017	385.201	492.950	237.153	284.192	410.234	517.355	302.085	359.671	365.020	506.979	435.303	312.637	321.477	206.411	0.00084133	0.00027136	0.00010764	1074.8	2.101e-06	3.8626e-06	1138.8	227.84	3.325e-06	2.1633e-06	282.66	81.464	62.692	18.166	4.5536e-06	25.786	6.5652e-05	4.8327e-05	1.3076e-05	1026.6	5.3787e-07	5.2387e-07	1114.6	222.49	5.5574e-07	4.9954e-07	275.95	79.275	61.151	18.025	5.332e-07	25.566	389.822	276.209	257.745	182.198	314.656	323.267	181.852	188.995	298.941	349.410	188.842	194.845	195.491	202.557	341.290	202.087	-8191	255	
892.767	1	1	0	0	0.12012	0.20574	0.40519	0.05494	0.092706	0.1628	0.14367	0.12398	0.43607	0.015509	0.11158	0.10942	0.17785	0.20467	0.27018	0.072805	-2.4271	-3.0021	-2.7938	-3.1833	-2.9396	-3.0875	-3.1688	-2.7438	-2.9083	-2.8	-2.9562	-3.2521	-3.0083	-2.9146	-3.0271	-2.5479	182.973	444.396	234.606	182.487	482.230	189.927	196.405	404.082	272.177	446.865	354.453	333.671	368.954	496.380	523.219	342.911	0.00088918	0.00018984	6.9178e-05	1079.5	2.1525e-06	2.2674e-06	1141.4	227.66	3.0498e-06	2.0416e-06	283.15	81.371	62.517	18.081	2.3972e-06	25.924	6.6609e-05	4.7297e-05	1.2971e-05	1024.4	5.3014e-07	5.0866e-07	1112.8	222.24	5.3851e-07	5.064e-07	276.63	79.29	61.02	18.023	5.0643e-07	25.603	383.371	247.605	271.964	181.835	309.578	369.936	181.961	189.106	289.447	323.007	188.868	195.091	195.813	203.100	283.196	202.083	-8191	255	
892.863	1	1	0	0	0.11475	0.14153	0.17824	0.25248	0.084123	0.03612	0.28915	0.251	0.024598	0.19116	0.16768	0.2379	0.043351	0.22747	0.21772	0.21844	-2.5062	-3.0563	-2.8688	-3.1958	-2.8958	-2.7208	-3.2104	-2.7521	-3.1146	-3.0646	-2.8667	-3.1354	-2.8771	-2.8354	-2.9729	-2.6875	418.973	252.586	312.481	503.193	373.292	225.940	493.485	407.217	249.417	312.063	513.690	344.454	411.968	438.208	458.325	511.273	0.00076225	0.00020612	8.5737e-05	1068.9	2.4949e-06	3.9497e-06	1135.4	225.89	4.0763e-06	1.7519e-06	284.22	80.947	62.662	18.198	2.4212e-06	25.747	6.438e-05	4.6255e-05	1.2245e-05	1020.1	5.0601e-07	5.0036e-07	1109.1	221.27	5.1718e-07	4.7725e-07	275.48	79.155	61.072	17.995	5.1066e-07	25.544	384.971	262.578	287.321	182.101	324.478	360.925	181.755	189.208	299.949	317.165	188.844	195.171	195.612	202.908	305.400	202.291	-8191	255	
892.959	1	1	0	0	0.10836	0.10127	0.32887	0.13547	0.073567	0.10308	0.14896	0.12525	0.28511	0.23388	0.14442	0.26956	0.22636	0.27941	0.19394	0.23359	-2.4521	-2.9167	-2.775	-3.2354	-2.8979	-2.9771	-3.3417	-2.9542	-2.8229	-3.1083	-2.6708	-2.8729	-2.8146	-2.7542	-3.15	-2.8625	502.909	356.161	270.950	416.227	219.422	447.484	411.249	314.854	435.573	383.465	410.549	503.412	517.275	496.948	227.659	478.643	0.00081657	0.00029213	8.1407e-05	1071.7	2.1615e-06	1.9509e-06	1134.4	227	4.2541e-06	2.2813e-06	281.27	81.13	62.57	18.19	5.021e-06	25.785	6.4515e-05	4.5851e-05	1.2858e-05	1018.2	5.1584e-07	4.9908e-07	1109.8	221.67	5.3966e-07	4.976e-07	275.24	79.191	61.018	18.038	5.082e-07	25.535	390.111	247.432	252.211	181.840	288.862	337.963	182.035	188.867	273.198	325.876	189.033	194.720	196.154	203.037	302.755	202.174	-8191	255	
893.056	1	1	0	0	0.036803	0.13934	0.14266	0.056371	0.18004	0.313	0.17046	0.24553	0.11184	0.084825	0.029694	0.35323	0.11084	0.16964	0.036267	0.13015	-2.5146	-3.0625	-2.75	-2.9917	-2.9896	-2.6458	-3.3646	-2.9854	-2.9854	-3.15	-2.8896	-2.9104	-2.9104	-2.6646	-2.9875	-2.8292	410.737	443.812	443.299	439.487	265.564	468.420	442.375	507.161	531.140	483.611	432.247	188.289	433.629	256.764	519.773	471.656	0.00082853	0.00014346	0.00010353	1074	9.1925e-07	2.7154e-06	1134	227.13	4.0052e-06	3.8476e-06	281.74	81.308	62.327	18.187	3.7401e-06	25.882	6.517e-05	4.6697e-05	1.3069e-05	1020.7	5.2923e-07	5.0998e-07	1111	221.71	5.6346e-07	5.129e-07	275.4	79.131	60.972	17.953	5.3341e-07	25.511	385.891	253.790	270.239	181.878	250.586	336.777	181.857	189.156	295.851	348.226	188.635	194.930	195.374	203.153	280.679	202.309	-8191	255	
893.152	1	1	0	0	0.11712	0.13063	0.16352	0.28111	0.13882	0.094853	0.17291	0.22908	0.12319	0.13637	0.3276	0.43502	0.26245	0.14783	0.087096	0.10341	-2.4417	-3.2646	-2.8521	-3.1167	-3.1396	-2.9437	-3.1896	-2.8812	-2.8083	-3.1542	-2.8104	-2.9771	-3.2438	-2.9208	-3.15	-2.9813	239.596	521.619	499.865	500.519	345.089	208.790	419.931	171.374	462.552	217.204	526.578	468.257	181.207	321.272	387.943	223.007	0.00075932	0.00020237	0.00010341	1074.5	3.6457e-06	3.3223e-06	1133.7	227.89	3.9755e-06	2.291e-06	282.44	81.205	62.366	18.111	3.8749e-06	25.678	6.3826e-05	4.8048e-05	1.3185e-05	1020.5	5.2655e-07	5.0218e-07	1106.9	221.89	5.4852e-07	5.0525e-07	275.45	79.063	60.815	17.928	5.0964e-07	25.484	384.518	240.513	288.215	182.135	320.333	307.966	181.611	189.030	289.729	307.742	188.966	195.234	195.623	203.017	325.285	202.102	-8191	255	
893.272	1	1	0	0	0.24184	0.08922	0.18378	0.28496	0.077044	0.14266	0.24779	0.39555	0.22521	0.15496	0.084065	0.27903	0.14984	0.082965	0.069162	0.23775	-2.3312	-2.9917	-2.8063	-2.9313	-3.1396	-2.6896	-3.3104	-3.1542	-2.8354	-3.2271	-2.9896	-2.9292	-3.1354	-2.8375	-3.0021	-2.875	340.803	531.007	486.044	410.590	528.693	307.325	489.548	486.354	522.650	342.343	425.819	492.137	477.362	311.351	394.943	178.027	0.00075103	0.00034467	5.655e-05	1074.1	2.7371e-06	3.1696e-06	1128.1	225.6	4.0963e-06	2.3694e-06	283.55	80.783	61.988	18.061	1.3297e-06	25.635	6.2377e-05	4.7187e-05	1.2878e-05	1017.9	5.0622e-07	4.9408e-07	1104.8	221.29	5.2231e-07	4.8089e-07	275.05	79.047	60.679	17.923	5.0791e-07	25.405	384.145	258.908	266.133	182.099	277.133	309.318	181.901	189.039	293.545	347.707	188.757	194.885	195.641	202.815	265.989	202.152	-8191	255	
893.369	1	1	0	0	0.045683	0.20538	0.20833	0.24808	0.071214	0.19104	0.31696	0.17875	0.087188	0.13074	0.13561	0.07454	0.079414	0.097822	0.12468	0.052969	-2.2854	-3.1583	-2.7771	-2.9792	-3.1979	-2.8125	-3.0396	-2.8208	-2.5979	-3.1292	-2.9646	-2.9083	-3.3542	-2.9062	-2.8479	-2.8917	378.673	222.383	239.242	476.336	505.507	426.535	479.704	499.531	327.980	444.262	379.334	405.087	381.379	241.693	386.922	475.456	0.00077364	0.00028737	4.6918e-05	1065.9	2.769e-06	2.0543e-06	1131.5	226.08	3.6414e-06	2.7744e-06	282.55	80.215	62.35	18.038	4.5503e-06	25.809	6.1253e-05	4.4753e-05	1.2223e-05	1014	5.0498e-07	4.7685e-07	1105.4	221.13	5.0877e-07	4.8358e-07	274.9	78.601	60.764	17.846	5.0429e-07	25.488	382.762	229.728	267.610	182.045	303.062	347.506	181.738	188.918	277.432	343.469	188.903	195.239	195.867	202.908	298.966	202.375	-8191	255	
893.463	1	1	0	0	0.073937	0.17927	0.19262	0.32744	0.22006	0.32148	0.16449	0.2662	0.091021	0.19068	0.16058	0.13947	0.09888	0.16735	0.27032	0.069197	-2.2375	-2.7354	-2.6063	-2.8271	-3.1354	-2.8187	-3.0458	-2.9771	-2.5792	-3.0021	-3.0896	-2.8646	-3.1521	-2.7188	-2.8542	-2.9688	462.913	477.105	222.853	459.739	259.080	447.030	501.755	442.447	462.406	216.475	194.941	527.584	296.057	451.185	447.014	383.336	0.00075101	0.00020246	5.3971e-05	1062.5	3.6289e-06	2.7144e-06	1125.8	226.26	3.1428e-06	3.6937e-06	281.27	81.146	62.069	18.014	3.3203e-06	25.792	5.9913e-05	4.3371e-05	1.2079e-05	1013.2	4.9502e-07	4.7842e-07	1102.7	220.93	4.9318e-07	4.7634e-07	274.12	78.868	60.706	17.86	5.0022e-07	25.397	387.523	217.975	227.990	181.983	317.689	346.981	182.066	189.204	301.159	352.825	188.970	195.130	196.009	202.624	288.657	201.907	-8191	255	
893.561	1	1	0	0	0.02146	0.14855	0.16259	0.16001	0.28219	0.12497	0.18697	0.19437	0.07685	0.42682	0.24444	0.080668	0.089355	0.068279	0.13359	0.096682	-2.3729	-2.9104	-3.0438	-2.7646	-3.0604	-2.8312	-3.0604	-3.2438	-2.8396	-2.8812	-3.0938	-2.6667	-3.2313	-2.9104	-2.7375	-3.1833	291.153	213.064	382.258	467.019	427.750	417.073	466.540	407.354	181.598	526.506	176.891	424.382	357.068	221.891	297.324	452.303	0.00075622	0.00027588	0.00010044	1065.5	2.466e-06	4.1819e-06	1134.4	224.9	3.9437e-06	2.5298e-06	281.22	80.126	62.156	18.032	4.3925e-06	25.569	6.1362e-05	4.4069e-05	1.2145e-05	1012.8	4.9704e-07	4.9065e-07	1103	220.07	5.0462e-07	4.7696e-07	273.99	78.585	60.627	17.865	4.7822e-07	25.378	389.953	241.918	260.764	182.319	291.057	312.020	181.688	189.362	316.214	338.339	189.154	195.124	195.337	202.978	310.856	202.099	-8191	255	
893.655	1	1	0	0	0.081964	0.25788	0.12911	0.19538	0.11031	0.28014	0.10572	0.38289	0.1188	0.070456	0.30793	0.049435	0.41618	0.15534	0.13517	0.14298	-2.4062	-3.0333	-2.9437	-2.6583	-3.0854	-2.8854	-2.9333	-3.0833	-2.5792	-2.8292	-3.125	-2.8521	-3.0812	-2.9313	-2.6875	-2.9833	436.391	514.982	232.553	335.382	365.237	477.019	483.359	502.253	401.790	177.207	483.863	455.791	187.685	414.725	252.717	352.353	0.00073495	0.00022093	0.00010664	1063.5	1.4161e-06	3.03e-06	1120.5	225.16	4.8557e-06	2.4775e-06	281.84	80.081	62.127	17.986	5.7914e-06	25.674	5.9072e-05	4.2122e-05	1.1597e-05	1012.1	4.7324e-07	4.5008e-07	1099.8	220.23	4.9794e-07	4.897e-07	274.41	78.419	60.597	17.834	4.8101e-07	25.362	389.327	226.365	284.055	181.937	295.551	323.171	181.804	189.088	267.419	344.371	188.879	194.945	195.446	203.176	287.473	202.275	-8191	255	
893.751	1	1	0	0	0.10202	0.13384	0.11844	0.13142	0.25888	0.17925	0.14256	0.14401	0.038975	0.10864	0.30059	0.18313	0.15456	0.17175	0.12483	0.059258	-2.2375	-2.7375	-2.8958	-2.7625	-2.9667	-2.7438	-2.9521	-3.1958	-2.7896	-2.9271	-2.9583	-2.6813	-2.8646	-2.9437	-2.6063	-3.1167	495.757	322.594	224.008	314.969	331.764	195.674	504.001	443.765	291.430	317.726	185.081	497.442	233.710	478.377	301.625	336.705	0.00078396	0.00037673	9.9361e-05	1070.8	2.3935e-06	2.8837e-06	1123	225.15	3.6224e-06	1.7908e-06	282.36	80.301	62.363	17.993	9.3072e-07	25.69	6.104e-05	4.3352e-05	1.1747e-05	1013.8	4.9981e-07	4.5612e-07	1098.6	220.29	4.9835e-07	4.4827e-07	274.29	78.607	60.75	17.863	4.7221e-07	25.424	385.935	246.480	254.885	182.185	282.206	378.714	181.918	189.134	311.401	307.581	188.974	195.400	195.824	203.044	334.407	202.265	-8191	255	
893.848	1	1	0	0	0.11195	0.08774	0.049617	0.08733	0.28658	0.23895	0.16198	0.12355	0.215	0.24238	0.17143	0.067049	0.14499	0.13341	0.10824	0.12965	-2.2917	-2.65	-3.2479	-2.8604	-3.0875	-3.1104	-3.0833	-3.0104	-2.8125	-2.675	-3.0271	-2.7958	-2.9396	-3.0667	-2.9437	-3.0333	216.095	235.435	398.461	241.709	220.193	192.777	422.530	184.114	298.706	179.290	500.818	175.097	406.317	521.307	231.945	177.331	0.00080654	0.00027403	7.402e-05	1066	3.3849e-06	3.8351e-06	1125.2	225.55	4.8502e-06	1.6956e-06	280.93	80.333	62.42	18.005	2.4204e-06	25.55	5.9909e-05	4.3994e-05	1.1589e-05	1011.1	4.758e-07	4.5182e-07	1101.2	220.18	5.1484e-07	4.6774e-07	273.57	78.571	60.767	17.852	4.5856e-07	25.376	383.982	262.540	260.396	182.286	311.085	322.075	182.050	189.450	277.754	291.644	189.007	195.198	195.894	202.864	327.852	202.344	-8191	255	
893.968	1	1	0	0	0.22776	0.26122	0.21775	0.13723	0.045692	0.22403	0.26001	0.28088	0.17191	0.18701	0.094408	0.30026	0.14935	0.25645	0.29944	0.07837	-2.5229	-2.6021	-3.025	-2.775	-2.9229	-3.1083	-2.9646	-3.2417	-3.0271	-2.9437	-3.3187	-2.6958	-2.8125	-2.8146	-2.6417	-3.1188	470.194	212.173	259.637	477.934	407.794	492.216	476.422	179.016	177.103	206.991	248.448	507.563	429.005	374.832	321.702	412.605	0.00075031	0.0002259	4.3367e-05	1055.5	1.7596e-06	3.6172e-06	1121.5	225.84	4.1229e-06	4.0949e-06	282.81	80.916	62.27	18.122	3.7684e-06	25.627	5.8576e-05	4.3326e-05	1.223e-05	1009.3	4.9907e-07	4.5397e-07	1098.6	219.95	4.9314e-07	4.7428e-07	274.47	78.66	60.563	17.856	4.7785e-07	25.408	385.224	255.872	299.549	182.140	322.785	318.539	181.998	189.311	299.075	329.238	188.905	195.273	195.856	203.311	286.026	202.023	-8191	255	
894.064	1	1	0	0	0.1294	0.13762	0.29604	0.22188	0.10396	0.30653	0.26326	0.1405	0.14053	0.13202	0.19769	0.063949	0.31683	0.2637	0.10644	0.092297	-2.5167	-2.5229	-3.1792	-2.775	-2.7687	-3.1188	-2.8479	-2.8479	-2.7292	-2.7583	-3.0479	-2.7979	-2.6625	-3.0167	-2.6479	-3.0375	215.968	500.363	244.161	285.107	409.059	530.166	486.069	479.265	420.595	233.619	425.535	346.204	242.008	412.524	328.717	213.143	0.00082299	0.00046894	9.2393e-05	1058.6	3.9631e-06	4.8236e-06	1123.5	225.09	2.8605e-06	1.2404e-06	281.45	80.491	62.281	18.038	3.1429e-06	25.684	6.1206e-05	4.3673e-05	1.2088e-05	1009.2	4.8465e-07	4.4252e-07	1099.5	219.93	5.0204e-07	4.5302e-07	274.1	78.611	60.499	17.843	4.8986e-07	25.436	388.229	246.127	267.427	181.923	297.961	348.734	182.077	189.103	311.210	302.452	188.970	195.412	196.051	203.359	299.812	201.925	-8191	255	
894.160	1	1	0	0	0.13622	0.089319	0.028935	0.13186	0.019431	0.158	0.20106	0.20635	0.25929	0.265	0.11368	0.11352	0.12735	0.21018	0.15598	0.0046389	-2.6021	-2.6917	-2.9854	-2.9938	-2.9396	-3.3396	-2.9292	-3.0271	-2.9958	-2.7271	-3.025	-2.7083	-2.9833	-3.075	-2.6521	-3.0729	189.399	499.342	317.411	239.550	300.519	278.007	494.314	432.181	489.648	262.278	509.197	491.031	497.444	318.993	407.867	331.042	0.00075961	0.00015421	7.2423e-05	1062.8	1.884e-06	3.1075e-06	1123.8	224.71	6.8502e-06	2.9785e-06	280.19	80.153	62.17	18.113	5.1596e-06	25.723	6.1547e-05	4.2748e-05	1.1823e-05	1011.5	4.9035e-07	4.5244e-07	1099.7	219.36	4.8637e-07	4.6042e-07	273.41	78.463	60.682	17.87	4.7637e-07	25.405	382.013	289.371	273.069	181.969	276.099	330.800	181.911	189.251	275.235	328.335	188.894	195.262	195.816	202.872	292.412	202.674	-8191	255	
894.232	1	1	0	0	0.18609	0.24193	0.18515	0.14627	0.25089	0.14966	0.18324	0.1004	0.15715	0.31185	0.14714	0.28336	0.0098129	0.10935	0.1282	0.091419	-2.7146	-2.7021	-3.1729	-2.9667	-2.8187	-2.9479	-3.0208	-2.9479	-3.1208	-2.7146	-3.15	-2.9417	-2.7292	-2.9938	-2.6875	-2.7833	519.967	316.251	177.805	435.982	519.514	413.496	176.438	523.687	214.470	307.753	197.028	479.389	232.098	253.379	275.424	477.337	0.00075611	0.00023674	5.4191e-05	1065.2	3.7844e-06	3.8588e-06	1126.7	225.52	5.9611e-06	1.6511e-06	279.76	80.526	62.337	18.062	4.3352e-06	25.716	5.9974e-05	4.3039e-05	1.1691e-05	1013.2	4.808e-07	4.4732e-07	1100.3	220.2	4.9777e-07	4.7568e-07	274.18	78.542	60.704	17.809	4.9113e-07	25.376	390.370	264.420	289.039	182.007	315.657	331.916	181.918	189.179	308.038	362.771	188.429	195.308	195.823	202.952	285.093	201.825	-8191	255	
894.353	1	1	0	0	0.2672	0.29515	0.11688	0.18184	0.16287	0.10674	0.09728	0.15321	0.21419	0.19573	0.18937	0.22472	0.25194	0.1227	0.16219	0.14511	-2.6312	-2.8458	-3.1	-3.1063	-2.875	-3.2104	-3.0583	-2.9813	-3.1417	-2.675	-2.9938	-3.1542	-2.7542	-3.1042	-2.9375	-2.6833	288.728	316.207	411.670	459.035	451.354	229.843	410.506	444.575	316.884	182.322	508.315	355.794	171.662	384.819	353.855	510.885	0.00084709	0.00033072	6.1714e-05	1058.4	1.8183e-06	4.2219e-06	1123.4	224.7	3.3163e-06	2.2728e-06	282.29	80.406	62.407	18.032	2.1633e-06	25.734	6.1652e-05	4.2624e-05	1.2344e-05	1008.2	4.9035e-07	4.6033e-07	1099.3	219.65	4.7636e-07	4.6894e-07	274.75	78.695	60.691	17.869	4.7168e-07	25.399	383.607	267.590	294.727	182.088	329.726	351.280	181.953	189.367	270.822	342.155	188.916	195.408	195.627	202.977	331.674	202.119	-8191	255	
894.449	1	1	0	0	0.11703	0.1799	0.1246	0.27698	0.0064286	0.20432	0.22698	0.11394	0.24412	0.14641	0.12364	0.22944	0.083503	0.33736	0.11276	0.19888	-2.7354	-2.8042	-2.8875	-2.9521	-2.85	-3.0521	-3.175	-3.0396	-3.2979	-2.7896	-3.1875	-3.1958	-2.6813	-3.0167	-2.8167	-2.6188	294.993	486.987	370.658	479.912	527.716	304.387	472.342	523.107	236.575	452.960	449.863	352.759	241.481	372.694	232.432	410.872	0.00083934	0.00025383	7.0502e-05	1059.9	2.3252e-06	2.8736e-06	1122.2	224.19	3.276e-06	3.4532e-06	280.07	80.789	61.839	18.167	3.6957e-06	25.691	6.0413e-05	4.1627e-05	1.2093e-05	1008.2	4.975e-07	4.4632e-07	1097.8	219.77	5.1472e-07	4.586e-07	273.54	78.706	60.556	17.872	4.7686e-07	25.389	387.508	266.259	293.768	182.326	302.127	297.827	181.879	189.528	264.065	342.341	188.621	195.089	195.815	203.145	297.881	201.999	-8191	255	
894.543	1	1	0	0	0.36367	0.14062	0.20035	0.12574	0.38343	0.2883	0.34277	0.18425	0.097559	0.2258	0.01229	0.1485	0.10601	0.16419	0.06119	0.053675	-2.5792	-2.9667	-2.9333	-3.2604	-2.8187	-3.0563	-3.0896	-2.8854	-3.2938	-2.9896	-2.9208	-3.1792	-2.725	-2.8833	-2.8958	-2.7375	218.773	247.941	281.687	398.419	309.298	277.219	476.307	220.026	177.452	497.126	197.424	517.478	235.291	346.188	356.717	320.980	0.00080241	0.00013198	0.00012782	1065.4	1.8832e-06	2.2383e-06	1121.3	225.53	3.6625e-06	2.3532e-06	281.5	80.763	62.009	18.044	3.9426e-06	25.702	5.9761e-05	4.1491e-05	1.188e-05	1013.4	4.651e-07	4.5839e-07	1098.8	219.93	4.9416e-07	4.6795e-07	273.98	78.566	60.483	17.87	4.9134e-07	25.394	386.762	249.150	274.364	181.952	283.055	330.355	181.725	189.356	260.616	272.978	188.760	195.110	195.536	202.676	294.249	202.280	-8191	255	
894.641	1	1	0	0	0.31461	0.13132	0.21926	0.234	0.090609	0.14239	0.22239	0.11589	0.2701	0.085338	0.041615	0.074532	0.08235	0.090151	0.10761	0.20574	-2.7417	-2.7833	-3.0438	-3.3063	-2.8146	-2.8917	-3.0958	-2.8792	-3.1042	-2.9813	-3.0979	-3.1354	-2.8167	-2.6646	-2.9417	-2.7292	308.255	373.817	439.753	223.899	445.671	383.741	427.072	411.881	423.614	502.814	214.885	208.556	505.697	519.894	302.266	257.679	0.00079476	0.00036567	7.5239e-05	1064.6	2.2045e-06	2.7884e-06	1117.6	225.49	1.8336e-06	1.3602e-06	282.67	80.161	62.239	17.908	7.9047e-07	25.62	5.9989e-05	4.2314e-05	1.1692e-05	1008.3	4.9217e-07	4.5384e-07	1096.2	219.92	4.9347e-07	4.3388e-07	274.1	78.471	60.597	17.837	4.8899e-07	25.308	386.467	280.423	273.683	182.195	306.313	338.503	181.952	189.174	352.683	304.053	188.606	195.418	196.069	202.613	239.315	202.051	-8191	255	
894.760	1	1	0	0	0.25504	0.067012	0.28404	0.068828	0.14149	0.056591	0.21546	0.20827	0.31575	0.32947	0.17156	0.026162	0.05008	0.23824	0.10672	0.066226	-2.6792	-2.8438	-2.5542	-3.0083	-2.6437	-2.8375	-3.1188	-2.8104	-3.0125	-2.9417	-2.9	-3.1312	-2.8292	-2.8417	-3.05	-2.6667	450.744	356.981	281.406	174.331	528.457	180.962	461.311	507.358	223.179	316.362	517.969	477.056	401.386	244.113	516.850	208.729	0.0007886	0.00022842	7.5306e-05	1063	1.5941e-06	2.8631e-06	1126.3	225.52	2.7905e-06	3.6119e-06	280.44	80.56	61.916	17.936	3.3401e-06	25.522	6.1641e-05	4.3907e-05	1.2146e-05	1011.5	5.0084e-07	4.7756e-07	1101.2	220.18	5.3219e-07	4.9491e-07	273.64	78.702	60.471	17.807	5.1979e-07	25.332	386.501	243.244	274.695	182.144	291.345	316.103	181.750	189.335	338.888	328.862	188.940	195.482	195.866	202.867	305.231	202.157	-8191	255	
894.856	1	1	0	0	0.2642	0.14892	0.087962	0.20296	0.095216	0.14798	0.32357	0.19554	0.23322	0.19658	0.042107	0.091486	0.061456	0.094	0.099208	0.085815	-2.7833	-2.8896	-2.7271	-3.0563	-2.8021	-2.6417	-3.3479	-2.8979	-2.9958	-3.1125	-2.7375	-3.0229	-2.8104	-2.9833	-2.9521	-2.5542	415.977	337.960	187.574	503.141	242.517	187.945	360.550	465.886	326.967	255.710	519.593	243.787	493.654	379.801	384.216	291.882	0.00080734	9.0366e-05	0.00013826	1065.6	3.0257e-06	2.4997e-06	1124.8	224.72	4.1846e-06	1.9655e-06	281.82	80.597	62.159	17.938	3.8713e-06	25.611	6.1739e-05	4.6546e-05	1.3641e-05	1014.3	5.1506e-07	5.2225e-07	1098.9	220.18	5.4848e-07	5.2596e-07	274.57	78.425	60.755	17.832	5.2518e-07	25.347	382.101	306.376	250.437	182.055	280.128	323.022	181.786	189.142	293.360	325.002	188.668	194.904	195.539	203.065	326.873	202.176	-8191	255	
894.952	1	1	0	0	0.20662	0.12054	0.11848	0.22809	0.16904	0.18587	0.38839	0.27688	0.1496	0.011282	0.27564	0.33676	0.023144	0.21328	0.1037	0.1221	-2.35	-2.8167	-2.5438	-2.9021	-2.8688	-2.9458	-3.1542	-2.7229	-2.8167	-3.1708	-2.7292	-2.9437	-3.0417	-2.6792	-2.8812	-2.925	184.952	216.865	475.739	475.386	252.034	214.099	453.269	528.811	322.857	315.952	500.603	290.254	493.411	405.390	214.961	318.327	0.00079069	0.000166	0.00010935	1060.5	2.5235e-06	5.7455e-07	1127.4	225.9	3.828e-06	2.5408e-06	282.24	80.862	61.719	18.003	1.5903e-06	25.667	6.6189e-05	4.8376e-05	1.361e-05	1012.9	5.4419e-07	5.3494e-07	1103.6	220.32	5.8028e-07	5.4105e-07	274.72	78.596	60.566	17.882	5.6347e-07	25.398	390.230	259.372	259.527	181.901	293.720	408.475	181.991	188.984	281.416	331.117	188.869	194.906	195.608	202.616	246.508	202.251	-8191	255	
895.049	1	1	0	0	0.12665	0.15291	0.093635	0.093283	0.10107	0.04652	0.31182	0.23796	0.22832	0.1614	0.1052	0.21146	0.27611	0.14839	0.24564	0.042282	-2.3083	-2.8667	-2.7479	-3.0229	-2.9	-2.6646	-3.2417	-2.8438	-2.775	-2.9083	-2.6208	-3.0687	-2.9062	-2.8042	-3.0729	-2.875	244.279	369.178	175.174	462.959	239.939	388.404	413.126	427.769	198.190	378.818	242.262	194.706	219.427	172.146	423.326	515.484	0.00079055	0.00022302	0.00010129	1070.6	1.6457e-06	1.1247e-06	1134.3	226.98	4.4194e-06	2.3496e-06	281.24	80.444	62.606	17.993	4.1991e-06	25.624	6.5757e-05	4.8233e-05	1.3418e-05	1017.2	5.5386e-07	5.2626e-07	1107.5	220.98	5.6526e-07	5.1873e-07	274.84	78.798	60.846	17.896	5.4077e-07	25.366	385.781	244.698	265.161	182.091	323.331	317.768	181.657	189.154	264.252	344.799	188.595	194.993	195.817	202.974	307.294	202.223	-8191	255	
895.145	1	1	0	0	0.087131	0.027939	0.30189	0.29132	0.16349	0.16202	0.34228	0.33695	0.23152	0.05136	0.16569	0.29199	0.092889	0.15812	0.14046	0.20185	-2.3417	-3.1	-2.8958	-2.9958	-3.0375	-2.6917	-3.1208	-2.8271	-2.7687	-3.1375	-2.7542	-3.0062	-3.1813	-2.75	-3.0729	-3.1229	474.339	370.073	247.089	462.085	270.073	509.699	473.789	179.481	296.607	499.001	247.959	518.941	188.541	473.280	309.849	375.187	0.000699	0.00019809	4.7151e-05	1064	4.1376e-06	1.6777e-06	1129.2	227.17	4.1039e-06	2.0905e-06	282.51	80.43	62.212	18.012	4.7232e-06	25.516	6.4967e-05	4.7648e-05	1.3682e-05	1014.9	5.5121e-07	5.4382e-07	1105.3	221.75	5.6485e-07	5.2567e-07	275.3	78.812	60.719	17.866	5.3797e-07	25.431	385.927	267.019	296.276	181.897	283.064	336.137	181.824	189.244	281.411	335.835	188.778	195.268	195.958	202.874	291.088	202.182	-8191	255	
895.241	1	1	0	0	0.18745	0.16433	0.2343	0.22581	0.14443	0.16955	0.1942	0.21799	0.083777	0.11938	0.30304	0.14708	0.178	0.20874	0.09393	0.1997	-2.2271	-3.0563	-2.7292	-2.8854	-3.0938	-2.7687	-3.2188	-2.7771	-2.6	-3.0438	-2.8625	-2.8958	-3	-2.6625	-2.7354	-2.8729	213.886	464.704	293.290	459.559	440.214	232.051	469.101	490.818	484.729	203.937	429.619	188.105	485.887	516.524	250.306	300.483	0.00076917	0.00027885	9.1551e-05	1071.8	2.2495e-06	4.0733e-06	1130.6	226.55	4.7368e-06	3.0767e-06	282.33	80.162	62.16	17.875	3.117e-06	25.671	6.5873e-05	4.9811e-05	1.3444e-05	1017.7	5.3729e-07	5.2618e-07	1105	221.52	5.6379e-07	5.0802e-07	275.44	78.633	60.721	17.86	5.4377e-07	25.448	384.468	247.346	271.280	181.966	275.540	332.457	181.826	189.127	292.728	378.143	189.078	195.096	195.751	202.742	304.431	201.873	-8191	255	
895.361	1	1	0	0	0.19655	0.081945	0.26561	0.092006	0.1256	0.091835	0.16002	0.20173	0.10371	0.12812	0.099236	0.042067	0.068156	0.21916	0.20571	0.10415	-2.3021	-3.0833	-2.7375	-2.8063	-3.1771	-2.7042	-3.0979	-3.0333	-2.475	-2.9979	-2.9	-2.8375	-3.05	-2.6396	-2.9354	-3.025	371.022	325.519	343.618	208.355	367.554	243.055	511.317	252.260	285.195	232.630	520.293	375.733	375.656	203.358	372.267	218.991	0.00080747	0.00019908	4.1529e-05	1066.5	3.8909e-06	2.5779e-06	1131.6	227.55	3.8044e-06	2.7493e-06	283.81	80.724	62.341	18.051	2.5901e-06	25.739	6.5464e-05	4.7146e-05	1.3202e-05	1017.4	5.227e-07	5.2791e-07	1105.1	221.34	5.475e-07	5.3278e-07	275.85	78.962	60.887	17.896	5.2971e-07	25.499	381.704	254.301	304.151	182.125	305.896	329.904	181.705	189.264	298.402	382.785	188.757	195.227	195.350	202.930	309.008	202.244	-8191	255	
895.456	1	1	0	0	0.27365	0.16397	0.17252	0.07203	0.22139	0.27999	0.1079	0.32739	0.20222	0.22373	0.030536	0.13106	0.18846	0.1183	0.03287	0.14228	-2.2396	-3.0896	-2.9333	-2.7771	-3.3375	-2.7458	-3.1104	-3.175	-2.7417	-3.1354	-3.1042	-2.8646	-3.0875	-2.8729	-3.0417	-3.05	234.591	228.382	358.135	295.916	185.485	261.059	216.225	493.606	518.055	231.154	295.124	348.469	225.487	386.888	351.361	262.986	0.00081798	0.00027075	9.9908e-05	1068.7	2.7109e-06	4.3471e-06	1128.5	227.42	2.6274e-06	3.7382e-06	282.91	80.721	62.332	18.016	3.5782e-06	25.764	6.6e-05	4.8901e-05	1.351e-05	1015.8	5.325e-07	5.3804e-07	1105.8	221.64	5.8307e-07	5.1765e-07	275.41	78.93	60.834	17.905	5.5582e-07	25.477	390.864	226.392	267.552	182.416	313.758	279.255	181.853	189.143	286.296	331.125	188.750	195.164	195.922	202.756	304.499	202.212	-8191	255	
895.529	1	1	0	0	0.067618	0.28496	0.18837	0.096897	0.29223	0.06053	0.13878	0.10819	0.19275	0.094597	0.20293	0.1073	0.2074	0.18039	0.18137	0.075991	-2.3542	-3.075	-2.9875	-2.8563	-3	-2.9792	-3.0458	-3.3333	-2.5479	-2.9417	-2.8417	-2.5417	-2.9729	-2.6667	-2.8271	-3.1521	260.944	495.026	318.217	511.109	428.651	458.465	468.369	519.859	347.372	265.665	527.820	311.290	403.594	318.232	171.837	236.206	0.000781	0.00028895	6.1549e-05	1068.3	4.0384e-06	3.6255e-06	1132.6	226.85	4.4293e-06	2.985e-06	281.9	80.654	62.598	17.989	3.5043e-06	25.775	6.733e-05	5.0441e-05	1.3543e-05	1017.2	5.2952e-07	5.3163e-07	1107.2	221.7	5.925e-07	5.3514e-07	275.47	78.768	60.923	17.913	5.5196e-07	25.538	387.507	265.116	283.732	181.783	334.372	347.691	181.778	189.309	284.208	352.897	188.928	195.037	196.007	202.772	276.305	201.822	-8191	255	
895.624	1	1	0	0	0.13549	0.24352	0.21191	0.19078	0.1038	0.14608	0.056955	0.15414	0.16948	0.16541	0.1769	0.36397	0.10636	0.10873	0.15076	0.10026	-2.2646	-2.8208	-2.8292	-2.7229	-2.8792	-2.7979	-2.9542	-2.8521	-2.575	-2.9313	-2.9	-2.5396	-2.8812	-2.7042	-2.7938	-2.8604	231.745	392.846	336.763	261.367	528.838	210.915	398.472	340.530	283.574	394.176	494.623	530.223	252.276	216.841	472.475	466.906	0.00077307	0.00036751	3.2826e-05	1066.2	3.1756e-06	2.4426e-06	1135.6	226.34	5.0636e-06	2.5931e-06	281.63	81.208	62.242	18.143	3.8036e-06	25.832	6.5529e-05	4.8089e-05	1.3492e-05	1016.7	5.3295e-07	5.135e-07	1105.8	221.79	5.4499e-07	5.291e-07	274.81	79.056	60.858	17.929	5.3625e-07	25.521	383.680	265.228	241.393	181.734	306.061	375.063	181.892	189.151	303.231	309.498	188.670	194.997	195.333	202.787	288.196	202.148	-8191	255	
895.744	1	1	0	0	0.16295	0.013394	0.11227	0.16304	0.10213	0.2762	0.17495	0.22699	0.18553	0.063299	0.082525	0.069612	0.15375	0.076725	0.10728	0.14384	-2.2417	-2.8812	-2.8729	-2.8187	-3.0854	-2.8167	-3.0208	-3.1188	-2.8479	-2.9667	-3.2146	-2.8083	-2.8063	-2.8083	-2.7208	-3.2896	529.601	359.534	229.718	512.914	419.532	190.225	416.764	424.155	286.108	433.604	507.696	381.629	493.853	477.852	251.048	333.937	0.00081225	0.00025801	8.5446e-05	1069.6	3.0747e-06	3.9835e-06	1132.1	226.23	3.7798e-06	2.4007e-06	282.33	80.632	62.304	18.163	5.0084e-06	25.58	6.6511e-05	4.895e-05	1.3375e-05	1016.8	5.6274e-07	5.4093e-07	1107.3	221.29	5.6629e-07	5.5867e-07	275.23	78.716	60.984	17.966	5.5167e-07	25.498	385.189	272.420	232.251	182.103	304.055	337.242	181.747	189.251	266.297	324.139	188.897	194.983	195.678	202.516	282.469	202.299	-8191	255	
895.840	1	1	0	0	0.17046	0.15229	0.048855	0.1681	0.11919	0.21503	0.28627	0.18153	0.17595	0.12545	0.27101	0.12692	0.10538	0.22514	0.16403	0.37154	-2.5833	-2.5958	-3.0083	-2.9458	-2.8458	-3.1875	-2.8104	-3.2771	-2.8229	-2.8937	-3.2292	-2.8542	-2.8292	-2.7562	-2.6333	-3.0646	231.875	423.747	367.192	225.480	422.549	354.455	424.499	463.845	339.082	362.016	198.744	517.882	399.164	211.411	385.216	450.956	0.00079606	0.00030272	9.722e-05	1066	1.2772e-06	1.6599e-06	1135.9	227.27	2.2984e-06	1.9971e-06	283.18	80.925	62.476	18.057	3.3618e-06	25.591	6.7055e-05	4.9501e-05	1.3493e-05	1017.8	5.3985e-07	5.301e-07	1108.4	222.05	5.6346e-07	5.411e-07	275.85	79.055	61.023	17.937	5.6183e-07	25.473	384.899	242.980	280.574	182.384	344.213	339.849	181.889	189.356	288.876	327.247	188.784	194.898	195.355	202.884	313.762	202.246	-8191	255	
895.937	1	1	0	0	0.11639	0.15354	0.16233	0.08477	0.25749	0.16494	0.20517	0.25385	0.136	0.1485	0.26499	0.13872	0.14779	0.12125	0.18341	0.17894	-2.4313	-2.6979	-2.8604	-2.85	-2.7313	-2.8896	-2.6937	-3.1167	-2.9375	-2.7896	-2.9896	-2.8104	-3.0083	-2.8646	-2.8271	-3.0625	351.487	303.453	299.297	343.722	471.910	452.470	378.447	500.524	186.376	435.000	271.190	302.997	182.977	402.941	328.523	429.593	0.00080673	0.00024215	7.0278e-05	1073.1	3.9421e-06	2.2222e-06	1130.6	226.61	5.9687e-06	8.803e-07	283.19	81.426	62.481	18.224	2.3473e-06	25.999	6.6576e-05	5.0826e-05	1.3535e-05	1019.9	5.622e-07	5.4948e-07	1106.8	221.86	5.6957e-07	5.4573e-07	275.91	79.253	61.04	17.98	5.4501e-07	25.614	385.536	260.513	242.875	182.411	316.546	334.628	181.695	188.674	307.922	354.437	188.542	195.223	195.616	202.853	283.299	202.347	-8191	255	
896.033	1	1	0	0	0.17287	0.1545	0.10523	0.1877	0.22475	0.1066	0.11783	0.15083	0.18038	0.23553	0.22323	0.1187	0.12534	0.21785	0.29678	0.12335	-2.5667	-2.7458	-3.1479	-2.7458	-2.8896	-3.1125	-2.9062	-2.9167	-2.9562	-2.6396	-3.1271	-2.6896	-2.8167	-2.9188	-2.8375	-2.9688	358.751	356.041	407.512	283.570	415.604	424.228	467.568	473.640	185.320	387.955	526.193	266.043	381.567	375.912	519.627	427.318	0.00080327	0.00033773	4.9715e-05	1065.3	1.7561e-06	4.8592e-06	1135.2	228.11	5.0928e-06	2.6235e-06	283.28	81.125	62.338	18.217	2.999e-06	25.752	6.6783e-05	4.9199e-05	1.3349e-05	1019.1	5.5101e-07	5.2643e-07	1109.3	222.29	5.6329e-07	5.3146e-07	276.77	79.087	61.134	18.02	5.2892e-07	25.555	382.758	215.134	276.315	182.197	316.589	372.523	181.912	188.917	274.490	334.473	188.810	195.022	195.851	202.892	297.832	202.150	-8191	255	
896.129	1	1	0	0	0.1134	0.080682	0.08872	0.15491	0.14005	0.135	0.115	0.34018	0.14438	0.010386	0.070735	0.16108	0.22861	0.17619	0.20063	0.16583	-2.4583	-2.4625	-2.9188	-2.8333	-2.7438	-2.9729	-2.9062	-3.0042	-2.8354	-2.5	-2.9458	-2.9479	-2.8896	-3.1417	-2.75	-2.9042	232.350	453.404	312.319	439.354	293.951	176.277	420.227	187.051	397.437	495.002	184.492	199.303	503.750	395.668	222.107	463.400	0.00076687	0.0002547	0.0001212	1079.1	3.9068e-06	3.3273e-06	1134.2	227.63	3.3216e-06	3.0592e-06	283.96	80.56	62.439	18.278	5.8214e-06	25.818	6.4986e-05	5.035e-05	1.3496e-05	1020.8	5.4411e-07	5.1321e-07	1108.7	222.39	5.5775e-07	5.2733e-07	276.83	79.049	61.15	18.06	5.4566e-07	25.6	387.753	256.347	228.677	181.948	297.267	310.583	181.724	189.155	289.697	310.582	188.859	195.295	195.938	203.059	319.714	202.144	-8191	255	
896.225	1	1	0	0	0.14271	0.12098	0.097376	0.07455	0.12969	0.18463	0.37862	0.067673	0.013382	0.10929	0.28804	0.15903	0.23368	0.23334	0.10699	0.12453	-2.3438	-2.5812	-2.9521	-2.8688	-2.8875	-3.0417	-2.7979	-2.7938	-2.8146	-2.8375	-3.0417	-2.9437	-2.8229	-3.0687	-2.9167	-2.8458	525.242	374.153	358.969	186.531	440.430	229.472	450.858	429.451	336.976	226.810	443.329	201.677	506.903	199.150	262.613	426.821	0.00073061	0.00015187	6.2719e-05	1072	2.9972e-06	4.3099e-06	1134.1	227.3	4.1738e-06	2.8585e-06	284.51	80.935	62.54	18.244	2.5698e-06	25.99	6.454e-05	4.9516e-05	1.3435e-05	1022.7	5.332e-07	5.3126e-07	1111.3	222.35	5.5726e-07	5.2522e-07	277.06	79.365	61.214	18.052	5.4793e-07	25.615	388.896	279.286	233.502	181.649	325.792	333.874	181.765	189.194	258.402	311.574	188.629	195.141	196.063	202.925	312.101	202.128	-8191	255	
896.321	1	1	0	0	0.107	0.094388	0.072134	0.10514	0.10095	0.11566	0.11475	0.35043	0.067639	0.16265	0.3526	0.26317	0.1354	0.1285	0.13169	0.11836	-2.5125	-2.5833	-2.7333	-2.9417	-2.5708	-3.1104	-2.9042	-2.9375	-3.0771	-2.7771	-2.9562	-2.8958	-2.5	-3.0625	-2.7896	-2.9646	347.204	488.663	440.104	461.676	504.538	319.386	520.398	206.483	284.450	287.018	189.517	214.703	473.530	482.065	256.527	528.136	0.00072435	0.00034707	6.3605e-05	1081.8	2.1094e-06	2.5519e-06	1133.1	227.98	4.9998e-06	4.2216e-07	283.86	81.516	62.791	18.177	2.1819e-06	25.876	6.637e-05	4.8943e-05	1.3461e-05	1021.8	5.3518e-07	5.2238e-07	1110.4	222.51	5.3343e-07	5.1389e-07	276.46	79.283	61.324	18.029	5.3608e-07	25.618	383.258	265.558	287.035	182.108	282.062	309.094	181.872	189.194	287.006	272.634	189.044	195.155	195.855	202.525	277.380	201.950	-8191	255	
896.442	1	1	0	0	0.11298	0.18867	0.11704	0.29169	0.071513	0.10132	0.4018	0.084647	0.15176	0.18915	0.11924	0.084161	0.10411	0.14045	0.15313	0.069391	-2.6979	-2.6875	-2.7604	-2.9083	-2.8208	-2.9667	-2.9229	-2.8042	-2.85	-2.6979	-2.9979	-3.1417	-2.7708	-3.1063	-3.2021	-2.6604	342.609	231.573	274.867	508.691	489.992	418.382	501.420	260.244	181.265	505.335	439.791	244.482	410.519	370.280	434.030	245.585	0.0008624	0.00020027	7.1126e-05	1071.7	2.4793e-06	2.0341e-06	1133.9	227.64	4.9198e-06	2.1501e-06	284.1	81.225	62.572	18.222	3.5836e-06	25.768	6.6352e-05	4.7316e-05	1.3539e-05	1021	5.3654e-07	5.2159e-07	1109.2	222.62	5.4298e-07	5.3543e-07	276.67	79.456	61.2	18.033	5.1256e-07	25.611	383.499	250.504	232.562	182.304	272.502	288.780	181.789	189.124	285.100	296.045	189.071	195.397	195.596	203.004	319.697	202.379	-8191	255	
896.536	1	1	0	0	0.22781	0.2632	0.1719	0.13629	0.092407	0.078092	0.34618	0.049212	0.1382	0.26825	0.072443	0.094787	0.06322	0.046404	0.36124	0.20343	-2.5354	-2.6625	-2.7458	-2.9542	-2.6	-3.0167	-3.0708	-2.7833	-3.1083	-2.7729	-2.9625	-3.0229	-2.7083	-2.7229	-2.6458	-2.7521	344.794	452.211	457.426	363.987	527.398	365.919	496.745	514.417	470.983	527.647	507.589	173.225	318.891	470.178	418.145	444.761	0.00084509	0.00025534	0.00013145	1069.6	2.1961e-06	5.4727e-06	1132.1	227.46	4.9616e-06	2.9956e-06	287.04	81.039	62.729	18.203	3.513e-06	25.983	6.5775e-05	4.7689e-05	1.3179e-05	1017.1	5.5043e-07	5.406e-07	1108.7	222.28	5.6354e-07	5.2795e-07	277.44	79.297	61.235	18.035	5.3641e-07	25.643	384.320	226.945	243.977	182.265	301.779	321.006	181.876	189.063	292.759	309.442	188.908	195.348	195.594	202.654	320.797	201.911	-8191	255	
896.632	1	1	0	0	0.28185	0.12731	0.15353	0.21594	0.10467	0.12957	0.22415	0.12763	0.24002	0.16698	0.13926	0.10899	0.37522	0.22098	0.080334	0.17971	-2.5854	-2.8875	-2.7271	-2.925	-2.7292	-2.8438	-3.0292	-2.6396	-3.0854	-2.6771	-2.7396	-2.9979	-2.6562	-2.8187	-2.8771	-2.5771	194.915	348.626	221.332	506.041	391.154	368.635	430.684	420.672	184.768	393.234	233.737	205.060	242.083	320.015	177.863	211.121	0.00082284	0.00038128	9.8436e-05	1073.3	2.0948e-06	3.6495e-06	1132.3	227.48	3.2554e-06	2.6915e-06	282.93	81.263	62.644	18.186	4.1155e-06	25.785	6.6174e-05	4.7467e-05	1.3286e-05	1022.4	5.4059e-07	5.2515e-07	1109	222.72	5.5295e-07	5.1318e-07	277.14	79.477	61.246	18.029	5.5849e-07	25.632	381.346	270.449	231.797	182.100	291.331	327.612	181.778	189.073	309.648	316.816	188.726	195.306	195.719	202.792	346.039	202.176	-8191	255	
896.753	1	1	0	0	0.23019	0.23816	0.048216	0.1499	0.079824	0.25082	0.24375	0.19302	0.22453	0.043635	0.21086	0.014185	0.17689	0.18685	0.014589	0.14096	-2.6688	-2.6708	-2.625	-2.9896	-2.7458	-2.8312	-3.3875	-2.9042	-2.9583	-2.9604	-2.9062	-3.1042	-3	-3.0125	-3.1521	-2.825	380.301	423.185	196.759	520.197	186.525	276.960	456.139	176.702	469.633	529.156	442.097	226.176	381.465	481.115	272.575	382.724	0.000777	0.00013652	8.0679e-05	1076.3	1.873e-06	3.6764e-06	1137.5	227.86	4.3555e-06	2.0278e-06	283.9	81.184	63.025	18.281	4.1578e-06	25.967	6.4765e-05	4.7761e-05	1.3291e-05	1022.4	5.5708e-07	5.2358e-07	1112.2	222.64	5.6251e-07	5.2071e-07	276.79	79.413	61.314	18.107	5.4986e-07	25.681	382.928	292.746	291.733	182.111	314.239	330.330	181.894	188.869	281.589	310.591	188.479	195.102	195.852	202.733	296.062	201.663	-8191	255	
896.825	1	1	0	0	0.26033	0.18819	0.10152	0.023008	0.25608	0.044483	0.10374	0.097772	0.18451	0.19607	0.051877	0.17656	0.17832	0.14462	0.24785	0.36883	-2.5604	-2.925	-2.8417	-3.0021	-2.8458	-2.7625	-3.3021	-2.6854	-2.9417	-2.7521	-2.7021	-2.925	-2.6688	-2.7313	-2.9979	-2.65	471.057	176.541	393.329	226.470	362.894	291.279	203.501	255.761	300.289	387.221	245.349	218.306	175.559	337.852	501.804	523.144	0.00081398	0.00023472	6.0609e-05	1073.2	1.9642e-06	1.6507e-06	1138.5	228.04	5.3326e-06	2.6898e-06	282.95	81.525	62.411	18.115	3.7159e-06	25.939	6.6714e-05	4.8629e-05	1.3196e-05	1021.2	5.4138e-07	5.244e-07	1110.9	222.75	5.685e-07	5.2038e-07	276.58	79.555	61.223	18.044	5.4394e-07	25.685	385.244	258.717	263.637	181.846	340.690	325.755	181.775	189.025	304.824	300.198	188.948	195.011	195.686	202.671	270.135	201.876	-8191	255	
896.921	1	1	0	0	0.093974	0.23511	0.21652	0.23224	0.18717	0.12918	0.13407	0.29047	0.27406	0.1055	0.1479	0.07231	0.13624	0.18007	0.078149	0.13243	-2.4042	-2.8271	-2.4667	-2.9354	-2.6917	-2.6458	-3.0792	-2.9146	-2.9667	-3.0417	-2.8063	-3.1083	-3.0479	-2.9708	-3.1479	-2.7792	266.840	199.920	341.772	515.586	191.830	383.829	442.611	494.552	364.503	400.039	420.005	366.369	357.958	496.241	234.724	515.723	0.00088006	0.00013554	0.00011235	1082.3	1.35e-06	3.7977e-06	1137.9	227.59	2.3622e-06	2.3939e-06	284.61	81.342	63.258	18.198	3.3131e-06	25.905	6.9518e-05	4.8312e-05	1.3981e-05	1025.8	5.6919e-07	5.4105e-07	1112.3	222.43	5.7384e-07	5.2257e-07	277.14	79.427	61.491	18.059	5.5261e-07	25.732	384.144	269.415	262.758	182.347	341.380	347.736	181.872	188.979	306.863	319.100	188.824	195.454	195.838	203.079	343.782	201.935	-8191	255	
897.041	1	1	0	0	0.14328	0.099806	0.070302	0.17628	0.1392	0.15147	0.1612	0.1448	0.077669	0.17584	0.065758	0.2433	0.16464	0.064326	0.034501	0.14495	-2.2938	-3.0021	-2.6	-2.9604	-2.8833	-2.8708	-3.2542	-3.0438	-2.8896	-2.9229	-2.8	-2.7979	-2.8937	-2.6688	-2.9146	-2.8854	468.981	486.482	189.930	409.200	360.945	521.327	434.652	456.109	318.416	426.403	454.503	208.487	461.118	468.796	466.710	210.498	0.00078811	0.00033755	7.0487e-05	1081	2.3245e-06	3.3808e-06	1136.4	229.21	3.8245e-06	2.3994e-06	286.1	81.801	63.066	18.214	2.4689e-06	25.768	6.6178e-05	4.9429e-05	1.4264e-05	1026.4	5.3167e-07	5.1994e-07	1112.9	223.26	5.4495e-07	5.0901e-07	277.83	79.623	61.484	18.097	5.311e-07	25.633	384.786	261.797	249.786	182.346	309.190	383.820	181.793	188.968	279.743	336.221	188.739	194.958	195.745	202.917	321.187	201.995	-8191	255	
897.138	1	1	0	0	0.11488	0.09457	0.17553	0.05865	0.17686	0.1055	0.096237	0.12554	0.14956	0.062608	0.20773	0.20369	0.17611	0.27993	0.16329	0.24095	-2.5125	-3.1875	-2.6937	-2.9917	-2.8708	-2.5812	-3.2042	-2.8063	-2.8208	-3.2313	-2.8187	-3.0458	-3.1729	-2.6021	-2.8875	-2.975	499.360	527.780	175.198	359.855	370.581	402.592	339.684	495.277	203.749	250.902	343.532	461.868	474.499	513.249	319.999	409.676	0.00075579	0.000187	7.9113e-05	1075.9	3.3263e-06	3.2641e-06	1138.1	228.29	5.3374e-06	2.9097e-06	283.85	81.32	63.014	18.318	2.0768e-06	25.931	6.4576e-05	4.7965e-05	1.3216e-05	1025.1	5.2336e-07	5.1771e-07	1114.3	222.99	5.3613e-07	5.0735e-07	277.41	79.739	61.435	18.08	5.0923e-07	25.715	387.089	263.616	259.429	181.812	302.199	323.077	181.688	189.363	287.630	324.188	188.765	195.144	195.719	202.421	304.799	202.276	-8191	255	
897.234	1	1	0	0	0.040947	0.02248	0.33037	0.10664	0.208	0.18103	0.077862	0.18654	0.038814	0.16096	0.2033	0.3105	0.40052	0.25491	0.082952	0.37056	-2.3396	-3.1458	-2.7708	-2.9	-3.1688	-2.7604	-3.2188	-2.9875	-2.6958	-3.1354	-2.8063	-2.7771	-2.9354	-2.8958	-2.9042	-2.8563	394.314	290.003	225.788	496.676	251.487	407.589	427.634	509.921	500.693	528.450	433.147	504.481	475.889	224.176	361.576	486.069	0.00078719	0.00035787	8.4905e-05	1079	3.111e-06	2.1299e-06	1142.9	227.69	4.9108e-06	2.1867e-06	285.43	81.169	62.489	18.166	3.8098e-06	25.748	6.4616e-05	4.6485e-05	1.2871e-05	1024	5.2039e-07	4.9259e-07	1113.1	222.35	5.4508e-07	5.088e-07	277.17	79.513	61.183	18.069	5.404e-07	25.632	388.492	263.085	239.829	181.813	309.280	313.470	181.700	189.187	265.181	298.794	188.842	194.967	196.000	203.026	283.568	201.942	-8191	255	
897.330	1	1	0	0	0.21725	0.10911	0.11168	0.20562	0.30377	0.17516	0.1472	0.076502	0.18582	0.16037	0.17196	0.29778	0.074807	0.034588	0.060633	0.054171	-2.3896	-3.0708	-2.6833	-2.9688	-3.0375	-2.7271	-3.1208	-2.9375	-2.7979	-3.2667	-2.9417	-2.9271	-3.0646	-2.7104	-2.8958	-2.8312	274.230	205.257	214.583	201.249	280.492	207.508	438.192	199.562	521.196	431.547	361.650	174.159	440.585	337.349	336.118	408.466	0.00076089	0.00026772	8.814e-05	1073.1	1.8672e-06	2.5973e-06	1136.5	227.17	3.4342e-06	3.1171e-06	283.84	81.477	62.709	18.3	2.4863e-06	25.949	6.4844e-05	4.584e-05	1.3426e-05	1020.6	5.2204e-07	5.0255e-07	1111.1	222.22	5.3839e-07	5.009e-07	277.01	79.502	61.237	18.109	5.3398e-07	25.628	384.900	249.734	262.056	182.165	283.777	336.220	181.960	188.912	285.303	336.613	188.828	195.339	195.216	202.941	338.852	202.020	-8191	255	
897.426	1	1	0	0	0.1212	0.05627	0.30299	0.1764	0.032438	0.24725	0.15122	0.17009	0.085422	0.24139	0.21235	0.15785	0.31725	0.12278	0.13528	0.040076	-2.5104	-3.0958	-2.9354	-2.7146	-3.2146	-2.9062	-3.1417	-2.6604	-2.6208	-2.8604	-2.8625	-2.5896	-3.0604	-2.6188	-2.8021	-2.8292	362.176	474.754	442.696	455.722	198.928	388.470	439.167	468.218	496.920	283.111	415.317	520.577	464.669	452.967	360.165	450.663	0.0008103	0.00028126	6.2225e-05	1069.8	3.267e-06	3.2778e-06	1135.3	227.31	3.1511e-06	2.0385e-06	284.22	81.358	62.625	18.168	3.7262e-06	25.709	6.4246e-05	4.6361e-05	1.2982e-05	1018.8	5.1126e-07	4.8875e-07	1109.1	222.45	5.1845e-07	5.1087e-07	277.11	79.319	61.152	18.095	5.2012e-07	25.651	383.312	238.191	266.255	181.836	290.478	351.817	181.693	189.069	254.320	339.923	188.774	195.370	196.094	202.750	289.221	201.991	-8191	255	
897.522	1	1	0	0	0.013704	0.021842	0.17376	0.18154	0.13122	0.073745	0.21491	0.15269	0.42853	0.18113	0.25138	0.21459	0.12934	0.1539	0.15662	0.1646	-2.0896	-2.7417	-2.6937	-2.6771	-2.8937	-2.7625	-2.9021	-2.9354	-2.7458	-2.7542	-2.8375	-2.7875	-3.0979	-2.8792	-2.8958	-3.0187	515.299	496.334	222.444	218.828	302.033	484.485	476.735	185.677	180.643	228.722	506.190	228.751	178.193	210.347	181.241	345.757	0.00080813	0.00033061	9.0582e-05	1069.8	3.1317e-06	9.0286e-07	1128.4	226.14	5.373e-06	2.5251e-06	284.18	81.149	62.418	18.308	3.0011e-06	25.656	6.2851e-05	4.6372e-05	1.2981e-05	1017.8	4.9915e-07	4.9701e-07	1107.2	221.64	5.1226e-07	4.8854e-07	277.27	79.42	61.026	18.089	4.9697e-07	25.541	388.475	263.173	267.002	181.814	320.178	337.563	181.777	189.200	289.670	321.470	188.933	194.983	195.948	202.996	279.256	202.157	-8191	255	
897.617	1	1	0	0	0.069019	0.089828	0.17575	0.27859	0.31475	0.059069	0.21045	0.17064	0.1628	0.096996	0.27063	0.14986	0.12164	0.26853	0.18486	0.29278	-2.0917	-2.9437	-2.8667	-2.7375	-2.9875	-2.9	-2.8729	-3.0438	-2.6312	-2.9313	-2.9271	-2.6854	-2.9938	-2.7792	-2.6667	-2.9229	193.673	292.373	516.680	222.059	517.865	217.215	505.725	449.609	269.325	196.517	477.785	364.182	272.980	376.279	313.850	185.141	0.00076468	0.00024779	6.6336e-05	1069.3	2.0819e-06	2.4064e-06	1131.3	227.61	3.2411e-06	3.1338e-06	284.44	81.27	62.824	18.109	3.8615e-06	25.62	6.1395e-05	4.5893e-05	1.2619e-05	1018.2	5.1089e-07	4.8611e-07	1105.8	222.16	5.2772e-07	5.0086e-07	277.37	79.446	61.284	17.993	5.3082e-07	25.605	383.522	236.370	288.666	181.984	321.852	354.712	181.791	189.106	278.803	310.426	188.509	195.400	195.365	202.913	311.843	201.856	-8191	255	
897.715	1	1	0	0	0.18787	0.15214	0.073067	0.21797	0.12839	0.055895	0.20104	0.054118	0.25675	0.039354	0.16622	0.37288	0.209	0.12774	0.17671	0.15461	-2.1688	-2.7375	-2.9042	-2.5708	-3.0354	-2.9375	-2.7438	-3.0604	-2.7833	-2.8167	-3.1708	-2.6937	-2.9083	-2.7417	-2.6792	-2.9271	461.155	272.894	487.482	422.112	382.599	279.545	449.869	200.285	235.167	261.742	508.663	203.802	529.932	382.852	192.846	396.789	0.00069627	0.00018463	5.4652e-05	1075.1	2.6981e-06	4.3247e-06	1130.5	227.29	4.8609e-06	3.3485e-06	284.84	81.323	62.739	18.278	3.0335e-06	25.857	6.321e-05	4.5134e-05	1.3076e-05	1017.8	5.096e-07	5.1122e-07	1106.6	221.86	5.292e-07	5.2034e-07	277.17	79.361	61.109	18.016	5.1066e-07	25.534	385.927	244.750	245.986	181.903	316.374	322.477	181.988	189.320	276.761	311.469	188.898	195.553	195.411	202.790	306.437	202.244	-8191	255	
897.833	1	1	0	0	0.13832	0.16339	0.16837	0.33142	0.12283	0.18743	0.11298	0.1959	0.022927	0.24001	0.26132	0.15012	0.26985	0.052123	0.073546	0.039007	-2.4042	-2.7021	-3.2479	-2.8271	-2.9854	-2.6833	-2.7542	-2.9917	-2.6937	-2.6521	-3.1063	-2.7958	-3.1146	-3.0875	-2.8417	-3.2562	364.114	416.690	232.366	484.070	352.401	466.490	461.776	459.486	415.116	416.082	467.582	252.647	237.487	442.357	264.094	477.023	0.00078608	0.00041303	6.5434e-05	1071.6	1.9071e-06	3.5331e-06	1132.4	228.2	4.0781e-06	2.5809e-06	282.58	81.121	62.569	18.265	5.1973e-06	25.925	6.3344e-05	4.6308e-05	1.3291e-05	1018.4	5.1977e-07	5.061e-07	1106.8	221.9	5.4405e-07	5.0458e-07	277.13	79.367	61.093	18.055	5.1683e-07	25.674	382.475	219.469	242.011	181.946	309.992	329.601	181.955	189.476	292.167	333.757	188.827	195.127	195.495	202.593	317.025	202.149	-8191	255	
897.930	1	1	0	0	0.12421	0.1356	0.13256	0.073834	0.20741	0.23541	0.35441	0.1325	0.19547	0.19678	0.1168	0.059129	0.087337	0.095327	0.08938	0.30335	-2.325	-2.6875	-2.9125	-2.6521	-2.6937	-3.0271	-2.8583	-3.1437	-3.0708	-2.6875	-3.0604	-2.6625	-2.8729	-2.7729	-2.7917	-2.9625	471.014	270.634	178.510	454.163	483.733	466.431	487.501	272.718	291.010	481.896	368.724	298.709	259.991	500.476	271.556	420.008	0.00073644	0.00016467	8.0722e-05	1063.3	3.4193e-06	3.9081e-06	1128.7	226.5	3.8171e-06	3.6382e-06	283.48	80.927	62.932	18.258	4.5004e-06	25.757	6.4804e-05	4.7889e-05	1.2906e-05	1017.3	5.2307e-07	5.0292e-07	1106.3	221.8	5.3232e-07	5.0769e-07	276.97	79.257	61.189	18.052	5.2946e-07	25.577	382.916	217.785	265.079	182.366	299.610	330.826	182.055	189.283	274.672	348.486	188.554	195.235	195.981	202.788	311.461	202.144	-8191	255	
898.026	1	1	0	0	0.24863	0.021386	0.024378	0.12329	0.14136	0.24005	0.12844	0.082561	0.21537	0.16643	0.11769	0.24268	0.24796	0.053889	0.085325	0.20314	-2.5229	-2.7562	-3.1875	-2.9708	-2.9292	-3.2104	-2.9562	-3.1813	-3.0229	-2.4437	-2.8708	-2.7146	-2.7771	-3.0646	-2.6833	-3.1208	406.976	424.673	171.580	414.201	281.172	228.550	456.520	425.510	508.771	443.891	412.121	476.000	255.397	524.720	302.787	327.617	0.00073769	0.00020082	9.7545e-05	1065.8	1.1468e-06	4.2236e-06	1135.1	228.19	3.8589e-06	3.2007e-06	284.77	80.857	62.478	18.173	3.7411e-06	25.898	6.3732e-05	4.6319e-05	1.3162e-05	1017.2	5.1572e-07	4.8838e-07	1107.4	222.52	5.4684e-07	4.9611e-07	277.12	79.16	61.047	18.015	5.258e-07	25.613	385.650	258.808	243.783	181.832	324.758	333.437	181.620	189.195	265.696	328.984	188.909	194.956	195.715	202.680	336.149	202.270	-8191	255	
898.122	1	1	0	0	0.18437	0.058534	0.14741	0.13861	0.40432	0.082431	0.23479	0.10004	0.05018	0.1204	0.24746	0.18042	0.093386	0.19337	0.18753	0.14582	-2.7	-2.825	-3.0854	-2.8354	-3.0229	-3.1375	-2.8083	-3.0333	-2.8354	-2.6417	-2.9667	-2.6708	-2.7646	-2.9458	-2.7	-2.7562	232.368	340.879	344.571	217.895	376.560	372.391	510.896	401.470	511.633	430.331	521.050	236.282	263.930	222.596	221.537	496.649	0.00076943	0.00026446	4.7822e-05	1072.7	3.3814e-06	3.5509e-06	1134.5	228.24	4.5187e-06	3.4352e-06	283.88	81.169	62.299	18.226	2.6831e-06	25.855	6.4254e-05	4.5017e-05	1.2573e-05	1017.6	5.1613e-07	4.7975e-07	1107.1	222.38	5.2801e-07	5.1608e-07	277.1	79.418	60.969	18.059	5.1597e-07	25.611	384.831	260.625	271.969	182.260	298.576	325.752	181.973	189.411	294.693	313.446	188.624	195.086	195.784	202.980	290.596	201.932	-8191	255	
898.218	1	1	0	0	0.1342	0.11655	0.20614	0.12109	0.15794	0.062882	0.36398	0.20226	0.17096	0.072506	0.12584	0.1717	0.30464	0.036185	0.14817	0.29962	-2.3104	-2.4771	-2.8125	-2.8125	-2.8521	-3.0583	-2.9583	-2.9313	-3.0312	-2.7896	-3.2125	-3.0979	-2.5729	-3.0229	-2.7479	-2.875	262.045	472.025	188.507	501.584	263.636	377.031	445.856	414.388	289.262	518.045	428.315	446.378	249.819	422.930	401.927	444.202	0.00075727	0.00024702	5.3232e-05	1066.3	2.3245e-06	3.7653e-06	1127.9	227.48	2.5125e-06	2.2626e-06	284.57	81.627	62.626	18.173	3.2396e-06	25.939	6.3514e-05	4.7323e-05	1.3119e-05	1016.1	5.1068e-07	4.9887e-07	1105.2	222.12	5.1775e-07	4.8015e-07	276.95	79.367	61.137	18.041	5.1309e-07	25.654	382.590	288.079	292.233	181.918	286.724	327.671	182.002	189.022	268.559	310.674	188.329	195.183	195.506	203.170	337.149	202.438	-8191	255	
898.314	1	1	0	0	0.37215	0.13607	0.094613	0.19339	0.2991	0.15817	0.18474	0.26529	0.14507	0.079835	0.31113	0.078912	0.13973	0.056568	0.13532	0.13981	-2.8833	-2.6917	-2.8771	-2.8354	-2.75	-3.0146	-3.0438	-2.7938	-3.1312	-2.9229	-3.1312	-2.9062	-2.8271	-3.2229	-2.7438	-2.6125	495.459	238.871	482.658	514.222	487.609	498.130	429.997	516.081	357.361	365.984	403.993	218.884	201.410	402.647	258.262	201.998	0.00071484	0.0002344	7.3257e-05	1067.2	1.7859e-06	3.5387e-06	1131.4	226.49	3.6226e-06	2.6522e-06	283.9	81.445	62.549	18.146	1.6839e-06	25.729	6.1869e-05	4.6206e-05	1.2844e-05	1016.4	5.1374e-07	5.0251e-07	1106.3	221.83	5.2272e-07	4.9776e-07	276.83	79.347	61.193	18.052	5.4151e-07	25.601	387.841	242.654	245.850	182.214	338.105	337.548	181.745	189.176	312.243	350.120	188.540	195.245	195.895	203.003	346.233	202.303	-8191	255	
898.435	1	1	0	0	0.1281	0.23463	0.17617	0.21067	0.096142	0.22235	0.15389	0.040471	0.11852	0.10667	0.14289	0.096169	0.10772	0.12204	0.1112	0.12412	-2.4917	-2.6729	-3.0396	-3.1396	-2.8187	-3.0917	-3.0333	-2.925	-3.0354	-2.7604	-2.8708	-2.9271	-2.5917	-2.9396	-2.8521	-2.775	301.585	460.744	179.922	198.669	238.273	503.997	498.488	466.387	444.197	430.743	526.597	213.309	187.296	400.634	487.480	381.333	0.00077333	0.00026484	8.2384e-05	1069.2	4.8576e-07	3.9781e-06	1130.4	227.68	5.0286e-06	3.7763e-06	283.71	81.428	63.278	18.256	3.3488e-06	25.789	6.3e-05	4.5693e-05	1.2843e-05	1018.3	5.1626e-07	4.9028e-07	1105.6	222.21	5.3068e-07	5.215e-07	277	79.331	61.406	18.076	5.135e-07	25.573	384.589	243.761	252.668	181.899	209.951	323.780	181.788	189.248	264.571	307.103	188.793	195.270	195.838	202.934	318.563	202.334	-8191	255	
898.531	1	1	0	0	0.057451	0.10657	0.13145	0.12115	0.11974	0.019835	0.23017	0.17136	0.18705	0.11308	0.12851	0.26767	0.37041	0.068663	0.15642	0.23904	-2.6312	-2.85	-2.8146	-3.1542	-2.8646	-2.7354	-3.1042	-2.7396	-3.2458	-3.0229	-2.9833	-3.2146	-3.0271	-3.0896	-3.0375	-2.8104	470.306	468.184	293.610	465.634	217.537	357.630	460.125	477.141	237.437	180.251	346.295	377.861	498.784	249.297	510.312	345.976	0.00080371	0.00020039	4.9525e-05	1064.7	1.709e-06	4.5097e-06	1134	228.17	4.4973e-06	2.1247e-06	285.47	80.882	62.648	18.132	2.2068e-06	25.858	6.3967e-05	4.6787e-05	1.305e-05	1017.9	5.1233e-07	5.0932e-07	1107	222.25	5.482e-07	5.1463e-07	278.09	79.531	61.171	18.014	5.2193e-07	25.628	388.380	287.388	277.626	182.022	306.168	338.829	181.568	189.184	257.552	337.198	188.639	194.932	195.679	202.964	277.696	202.197	-8191	255	
898.625	1	1	0	0	0.097926	0.16348	0.16943	0.14065	0.12864	0.1699	0.46033	0.36453	0.17271	0.11328	0.19086	0.22349	0.15597	0.13037	0.16124	0.16419	-2.5958	-2.6229	-2.6833	-2.9333	-2.6146	-2.7833	-3.1875	-2.5417	-2.7438	-2.7854	-2.6604	-2.9729	-2.7	-2.85	-2.9958	-2.6396	272.305	228.677	439.578	322.480	424.852	440.679	469.186	425.153	248.374	441.725	491.980	515.216	203.669	268.624	398.336	416.694	0.00081314	0.000127	5.6782e-05	1068.6	2.1787e-06	3.8806e-06	1133.5	228.82	2.7528e-06	2.6063e-06	284.45	80.878	62.58	18.254	1.4081e-06	26.02	6.4236e-05	4.9316e-05	1.2871e-05	1016	5.3031e-07	5.0941e-07	1107.7	222.59	5.4848e-07	5.1e-07	277.44	79.246	61.267	18.042	5.0289e-07	25.666	386.228	282.021	270.075	182.057	293.705	355.597	181.841	189.189	295.068	315.816	188.610	195.316	195.796	202.836	299.001	201.951	-8191	255	
898.721	1	1	0	0	0.42538	0.17664	0.16894	0.06522	0.07578	0.071804	0.22591	0.23796	0.099904	0.017875	0.13803	0.18078	0.15496	0.069189	0.2639	0.10505	-2.5979	-2.8563	-2.7438	-2.9813	-2.7771	-2.975	-3.0812	-2.7313	-3.0833	-2.7896	-2.7458	-2.9458	-2.9229	-2.8042	-2.8458	-2.7458	264.788	444.979	400.613	401.613	338.818	197.255	496.484	454.564	215.377	252.370	457.259	516.477	231.745	302.283	519.610	375.375	0.00075337	0.00030783	9.2489e-05	1069.8	1.6513e-06	2.0704e-06	1128.2	228.08	4.6861e-06	1.9236e-06	285.76	81.526	62.898	18.234	3.891e-06	26.036	6.2692e-05	4.6319e-05	1.2763e-05	1017.7	5.3072e-07	5.2432e-07	1105.7	222.54	5.4733e-07	5.019e-07	277.52	79.401	61.237	18.064	5.2012e-07	25.697	384.082	265.296	295.143	182.074	321.060	363.511	181.881	189.046	286.993	318.175	188.714	195.137	195.614	202.796	328.486	201.702	-8191	255	
898.818	1	1	0	0	0.087415	0.19272	0.12206	0.093592	0.32035	0.2155	0.072169	0.028085	0.13705	0.15433	0.19591	0.36821	0.18479	0.19964	0.10206	0.12424	-2.4917	-2.7062	-2.7188	-3.0875	-2.6771	-2.8208	-3.2833	-2.6854	-3.0271	-3.1542	-2.7375	-2.9854	-3.15	-2.9604	-3.0708	-2.7729	447.783	408.702	259.643	306.498	509.753	220.769	479.645	304.218	291.482	263.112	529.514	449.672	222.098	480.000	224.918	346.185	0.00079761	0.0003118	8.1101e-05	1069.8	2.886e-06	3.7797e-06	1131.8	228.44	3.3262e-06	2.2187e-06	284.39	81.108	62.542	18.188	2.3774e-06	25.855	6.4438e-05	4.7051e-05	1.3245e-05	1019.5	5.1522e-07	4.9718e-07	1106.6	222.6	5.4832e-07	5.0611e-07	277.25	79.208	61.226	18.032	5.3884e-07	25.621	388.309	259.363	269.762	181.986	327.901	313.426	182.081	189.010	304.184	323.224	188.680	195.309	195.821	202.793	327.140	202.069	-8191	255	
898.914	1	1	0	0	0.19123	0.11388	0.41133	0.25989	0.068654	0.082852	0.16351	0.24256	0.11665	0.011619	0.19125	0.11401	0.28559	0.17599	0.18735	0.043369	-2.5292	-2.7	-2.6396	-2.8542	-2.7646	-2.7313	-3.1	-2.6792	-2.7042	-3.0229	-2.6958	-3.0521	-2.95	-2.6667	-2.9917	-2.9042	199.092	217.024	203.345	393.273	441.906	379.401	426.454	222.012	284.111	277.877	325.750	502.377	503.123	378.041	245.246	409.972	0.00081422	0.00027445	9.3954e-05	1061.1	3.6158e-06	2.9143e-06	1132.4	228.76	3.0974e-06	2.1977e-06	285.69	81.561	62.722	18.192	2.6131e-06	25.923	6.3764e-05	4.7236e-05	1.3265e-05	1015.8	5.5221e-07	5.2035e-07	1107.5	223.18	5.4582e-07	4.9822e-07	278.13	79.524	61.364	18.052	5.0112e-07	25.664	386.592	260.125	252.932	182.160	301.073	354.319	181.798	189.338	329.573	310.174	189.012	195.298	195.666	202.683	341.464	202.176	-8191	255	
899.010	1	1	0	0	0.17355	0.23522	0.2005	0.10973	0.17898	0.09177	0.26791	0.22913	0.18735	0.062097	0.17992	0.19407	0.15572	0.21567	0.074035	0.21432	-2.4021	-3.1229	-2.6146	-2.9188	-2.9833	-2.5833	-2.9958	-2.7979	-2.8708	-3.0521	-2.8458	-3.0792	-3.0396	-2.6375	-2.9771	-2.9313	474.613	424.879	447.719	498.840	448.592	260.996	408.765	223.418	252.287	385.659	498.416	393.808	528.780	179.756	474.860	340.864	0.00079529	0.00016214	5.0951e-05	1068.1	3.2709e-06	4.7488e-06	1132.4	227.91	5.7026e-06	1.7937e-06	284.65	81.316	62.515	18.28	4.2032e-06	25.939	6.5645e-05	4.6799e-05	1.2943e-05	1020.7	5.5373e-07	5.1366e-07	1107.5	222.42	5.4458e-07	5.193e-07	277.78	79.625	61.3	18.115	5.4607e-07	25.716	383.563	274.881	241.334	182.355	293.239	324.058	181.488	189.008	289.900	386.923	188.967	195.400	195.636	202.722	279.963	202.503	-8191	255	
899.131	1	1	0	0	0.063734	0.34566	0.22905	0.23475	0.095177	0.38733	0.08274	0.27617	0.069705	0.074467	0.13571	0.27611	0.10863	0.1075	0.32684	0.076131	-2.3	-2.8958	-2.6437	-2.7542	-2.9292	-2.6667	-3.1813	-3.0167	-2.775	-3.1813	-2.8167	-3.1437	-3.0167	-2.8563	-3.0812	-2.9333	352.199	473.973	348.874	514.768	353.781	174.930	486.796	424.414	173.213	186.527	368.849	181.972	345.096	453.535	260.623	260.079	0.00072003	0.00028057	0.00011147	1072.7	3.9458e-06	2.2592e-06	1130.8	228.92	3.396e-06	2.04e-06	284.3	81.736	62.69	18.261	2.2733e-06	25.954	6.5906e-05	4.8165e-05	1.3473e-05	1019.7	5.1671e-07	5.0222e-07	1106	223.45	5.4832e-07	5.0107e-07	277.82	79.583	61.349	18.087	5.346e-07	25.646	386.990	229.810	273.228	182.082	294.599	328.447	181.784	189.169	270.044	321.785	188.751	195.492	196.023	202.982	308.774	201.744	-8191	255	
#DATA ENDS
