BOXY.EXE: ISS Imagent and Oximeter Data Acquisition Program Version 0.80
Ascii Record File

#ACQ INFORMATION
2  Detector Channels 
16  External MUX Channels 
1  Auxiliary Channels 
5000  Waveform (CCF) Frequency (Hz)
1  Waveforms Skipped 
30  Waveforms Averaged 
1  Cycles Averaged 
16  Acquisitions per Waveform 
10.0806  Updata Rate (Hz) 

#FILE INFORMATION
TRUE -- External MUX Channel results are PARSED.
FALSE -- AC DC and Phase are NOT grouped.
TRUE -- Companion Program Settings File CREATED.
FALSE -- AC data not excluded
FALSE -- DC data not excluded
FALSE -- Phase data not excluded
FALSE -- Auxillary Chn. data not excluded
Tab delimiters

#CALIBRATION STATE
TRUE -- Waveform Calibration Values APPLIED.


#AUX CALIBRATION VALUES
Val Type	aux-1	

Term	1.0000e+00	
Factor	0.0000e+00	


#WF CALIBRATION VALUES
A = Detector Channel
Val Type	A-AC1	A-AC2	A-AC3	A-AC4	A-AC5	A-AC6	A-AC7	A-AC8	A-AC9	A-AC10	A-AC11	A-AC12	A-AC13	A-AC14	A-AC15	A-AC16	A-DC1	A-DC2	A-DC3	A-DC4	A-DC5	A-DC6	A-DC7	A-DC8	A-DC9	A-DC10	A-DC11	A-DC12	A-DC13	A-DC14	A-DC15	A-DC16	A-Ph1	A-Ph2	A-Ph3	A-Ph4	A-Ph5	A-Ph6	A-Ph7	A-Ph8	A-Ph9	A-Ph10	A-Ph11	A-Ph12	A-Ph13	A-Ph14	A-Ph15	A-Ph16	

Term	0.00000e+00	0.00000e+00	0.00000e+00	0.00000e+00	0.00000e+00	0.00000e+00	0.00000e+00	0.00000e+00	0.00000e+00	0.00000e+00	0.00000e+00	0.00000e+00	0.00000e+00	0.00000e+00	0.00000e+00	0.00000e+00	0.00000e+00	0.00000e+00	0.00000e+00	0.00000e+00	0.00000e+00	0.00000e+00	0.00000e+00	0.00000e+00	0.00000e+00	0.00000e+00	0.00000e+00	0.00000e+00	0.00000e+00	0.00000e+00	0.00000e+00	0.00000e+00	0.00000e+00	0.00000e+00	0.00000e+00	0.00000e+00	0.00000e+00	0.00000e+00	0.00000e+00	0.00000e+00	0.00000e+00	0.00000e+00	0.00000e+00	0.00000e+00	0.00000e+00	0.00000e+00	0.00000e+00	0.00000e+00	
Factor	1.00000e+00	1.00000e+00	1.00000e+00	1.00000e+00	1.00000e+00	1.00000e+00	1.00000e+00	1.00000e+00	1.00000e+00	1.00000e+00	1.00000e+00	1.00000e+00	1.00000e+00	1.00000e+00	1.00000e+00	1.00000e+00	1.00000e+00	1.00000e+00	1.00000e+00	1.00000e+00	1.00000e+00	1.00000e+00	1.00000e+00	1.00000e+00	1.00000e+00	1.00000e+00	1.00000e+00	1.00000e+00	1.00000e+00	1.00000e+00	1.00000e+00	1.00000e+00	X	X	X	X	X	X	X	X	X	X	X	X	X	X	X	X	

B = Detector Channel
Val Type	B-AC1	B-AC2	B-AC3	B-AC4	B-AC5	B-AC6	B-AC7	B-AC8	B-AC9	B-AC10	B-AC11	B-AC12	B-AC13	B-AC14	B-AC15	B-AC16	B-DC1	B-DC2	B-DC3	B-DC4	B-DC5	B-DC6	B-DC7	B-DC8	B-DC9	B-DC10	B-DC11	B-DC12	B-DC13	B-DC14	B-DC15	B-DC16	B-Ph1	B-Ph2	B-Ph3	B-Ph4	B-Ph5	B-Ph6	B-Ph7	B-Ph8	B-Ph9	B-Ph10	B-Ph11	B-Ph12	B-Ph13	B-Ph14	B-Ph15	B-Ph16	

Term	0.00000e+00	0.00000e+00	0.00000e+00	0.00000e+00	0.00000e+00	0.00000e+00	0.00000e+00	0.00000e+00	0.00000e+00	0.00000e+00	0.00000e+00	0.00000e+00	0.00000e+00	0.00000e+00	0.00000e+00	0.00000e+00	0.00000e+00	0.00000e+00	0.00000e+00	0.00000e+00	0.00000e+00	0.00000e+00	0.00000e+00	0.00000e+00	0.00000e+00	0.00000e+00	0.00000e+00	0.00000e+00	0.00000e+00	0.00000e+00	0.00000e+00	0.00000e+00	5.86857e+01	-1.40275e+02	-1.27777e+02	-1.81956e+02	-7.36887e+01	-5.69442e+01	-1.56028e+02	-1.62015e+02	-8.09294e+01	-6.35191e+01	-1.71357e+02	-1.71405e+02	-1.82318e+02	-1.76945e+02	-7.95853e+01	-1.50279e+02	
Factor	5.16763e-05	1.33635e-04	4.06010e-05	4.21718e-01	1.38256e-06	1.58296e-06	1.58406e-01	5.39367e-02	1.66385e-06	1.37896e-06	8.47905e-02	2.81246e-02	2.35851e-02	8.08168e-03	1.69326e-06	1.20261e-02	1.73923e-06	1.81185e-06	5.05000e-07	2.07507e-01	1.98338e-08	1.98293e-08	7.56450e-02	2.72911e-02	1.96927e-08	1.98476e-08	4.12586e-02	1.36837e-02	1.19586e-02	4.10842e-03	1.97406e-08	5.88837e-03	X	X	X	X	X	X	X	X	X	X	X	X	X	X	X	X	



#DISTANCE SETTINGS
A = Detector Channel
A-1	A-2	A-3	A-4	A-5	A-6	A-7	A-8	A-9	A-10	A-11	A-12	A-13	A-14	A-15	A-16	

2.5000e+00	3.0000e+00	2.5000e+00	3.0000e+00	2.0000e+00	3.0000e+00	1.5000e+00	3.0000e+00	3.0000e+00	3.0000e+00	3.0000e+00	3.0000e+00	3.0000e+00	3.0000e+00	1.5000e+00	3.0000e+00	

B = Detector Channel
B-1	B-2	B-3	B-4	B-5	B-6	B-7	B-8	B-9	B-10	B-11	B-12	B-13	B-14	B-15	B-16	

1.0000e+01	1.0000e+01	1.0000e+01	1.4400e+00	1.0000e+01	1.0000e+01	1.5100e+00	1.9400e+00	1.0000e+01	1.0000e+01	1.9900e+00	2.4900e+00	2.4100e+00	2.9000e+00	1.0000e+01	2.9800e+00	




#DATA BEGINS
time	group	step	mark	flag	A-AC1	A-AC2	A-AC3	A-AC4	A-AC5	A-AC6	A-AC7	A-AC8	A-AC9	A-AC10	A-AC11	A-AC12	A-AC13	A-AC14	A-AC15	A-AC16	A-DC1	A-DC2	A-DC3	A-DC4	A-DC5	A-DC6	A-DC7	A-DC8	A-DC9	A-DC10	A-DC11	A-DC12	A-DC13	A-DC14	A-DC15	A-DC16	A-Ph1	A-Ph2	A-Ph3	A-Ph4	A-Ph5	A-Ph6	A-Ph7	A-Ph8	A-Ph9	A-Ph10	A-Ph11	A-Ph12	A-Ph13	A-Ph14	A-Ph15	A-Ph16	B-AC1	B-AC2	B-AC3	B-AC4	B-AC5	B-AC6	B-AC7	B-AC8	B-AC9	B-AC10	B-AC11	B-AC12	B-AC13	B-AC14	B-AC15	B-AC16	B-DC1	B-DC2	B-DC3	B-DC4	B-DC5	B-DC6	B-DC7	B-DC8	B-DC9	B-DC10	B-DC11	B-DC12	B-DC13	B-DC14	B-DC15	B-DC16	B-Ph1	B-Ph2	B-Ph3	B-Ph4	B-Ph5	B-Ph6	B-Ph7	B-Ph8	B-Ph9	B-Ph10	B-Ph11	B-Ph12	B-Ph13	B-Ph14	B-Ph15	B-Ph16	aux-1	digaux	

1471.205	1	1	0	256	0.089483	0.078243	0.2331	0.064934	0.052751	0.17545	0.28739	0.29871	0.23339	0.17293	0.060965	0.24611	0.2325	0.04998	0.084997	0.26193	-2.5396	-2.6375	-3.0417	-2.8271	-2.7625	-2.9396	-2.7146	-2.8917	-3.0354	-2.5062	-2.9729	-3.0083	-2.7604	-2.9583	-2.8542	-3	204.992	176.506	274.671	377.008	394.569	406.683	447.256	489.726	459.896	247.572	411.591	423.134	283.359	371.879	456.816	351.772	0.00054723	0.00025873	8.1071e-05	510.49	2.1464e-06	6.216e-06	658.68	107.91	3.4235e-06	5.1047e-06	189.72	59.638	25.79	7.0911	1.5028e-06	24.216	0.00028107	0.00027624	7.8752e-05	510.28	3.0192e-06	3.0247e-06	648.32	107.73	2.992e-06	2.9912e-06	188.5	59.377	26.203	7.4514	2.9849e-06	24.369	375.503	310.782	315.103	181.431	268.812	342.795	181.227	186.553	285.729	372.278	185.832	191.069	190.288	195.647	461.282	195.110	-8191	255	
1471.301	1	1	0	0	0.066274	0.12336	0.23748	0.27438	0.11098	0.22419	0.082887	0.29078	0.12233	0.34535	0.1657	0.25783	0.090109	0.13614	0.080827	0.21049	-2.5396	-2.5604	-3.0646	-2.7708	-2.7188	-2.9979	-2.6417	-2.8812	-3.0042	-2.7146	-3.0271	-2.9938	-2.4729	-3.1937	-2.9688	-2.7479	304.563	252.510	283.253	289.626	341.621	436.737	170.716	427.981	495.589	511.551	184.814	447.375	202.523	407.887	389.733	179.049	0.00087556	0.00044196	0.00011258	513.1	2.8888e-06	3.7379e-06	662.74	108.09	2.0484e-06	2.4447e-06	191.45	60.871	25.657	7.1327	2.6292e-06	24.646	0.00027687	0.00027275	7.7969e-05	510.19	2.982e-06	3.0083e-06	651.83	108.49	2.9861e-06	2.9585e-06	189.95	60.02	26.328	7.5392	2.9736e-06	24.604	373.340	283.768	299.825	181.361	332.469	298.991	181.203	186.383	524.558	374.098	185.915	191.201	190.293	195.992	397.568	195.270	-8191	255	
1471.422	1	1	0	0	0.1608	0.13624	0.079233	0.050753	0.091983	0.18277	0.32226	0.34315	0.12935	0.085751	0.25801	0.15392	0.1741	0.15149	0.19692	0.19768	-2.4938	-2.7542	-2.925	-2.8542	-2.6312	-3.0083	-2.8063	-2.7833	-2.9167	-2.7062	-2.9208	-2.9313	-2.6521	-2.8729	-2.8792	-2.6792	502.606	502.579	202.237	413.599	337.694	189.716	411.219	372.064	423.415	255.951	478.767	378.102	293.847	470.690	493.155	471.202	0.00086159	0.00035233	8.1645e-05	510.31	3.7599e-06	3.5826e-06	662.58	110.89	2.0747e-06	2.9531e-06	192.34	60.747	25.996	7.1956	8.64e-06	24.324	0.00028103	0.00026906	7.7163e-05	512.03	2.9867e-06	3.0058e-06	653.33	109.78	3.02e-06	3.0138e-06	191.31	60.122	26.477	7.5562	2.9545e-06	24.556	378.851	244.487	486.025	181.406	226.193	302.625	181.241	186.364	233.831	409.002	185.729	191.141	190.239	195.812	291.040	195.694	-8191	255	
1471.518	1	1	0	0	0.23711	0.053086	0.065517	0.024385	0.19139	0.045467	0.07787	0.27454	0.18767	0.12976	0.12757	0.10616	0.10722	0.040583	0.19325	0.20267	-2.6917	-2.7875	-3.0375	-2.9354	-2.7104	-3.0333	-2.8667	-2.6167	-3.0396	-2.7333	-2.9021	-3.0438	-2.8542	-2.9646	-2.8688	-2.6375	296.903	304.620	320.406	494.011	189.968	215.911	493.056	282.129	172.144	386.608	472.858	469.968	440.920	380.013	429.960	470.409	0.00075208	0.00033052	9.0269e-05	514.09	1.9104e-06	3.2557e-06	660.91	109.27	4.5652e-06	2.4823e-06	191.59	59.925	25.716	7.2263	3.6583e-06	24.532	0.00027505	0.00026691	7.6101e-05	511.08	2.8949e-06	2.9398e-06	648.75	108.63	2.8944e-06	2.8533e-06	190.02	59.449	26.231	7.5206	2.829e-06	24.505	384.332	242.662	254.078	181.696	171.446	360.086	180.896	186.419	287.510	405.971	185.880	191.130	190.548	196.777	410.108	195.742	-8191	255	
1471.590	1	1	0	0	0.24937	0.26502	0.11183	0.08995	0.079242	0.12056	0.11551	0.12539	0.036194	0.12509	0.50574	0.06908	0.17879	0.35014	0.23312	0.11695	-2.5167	-2.6854	-2.8042	-3.1146	-2.7438	-2.9396	-2.9875	-2.7833	-3.0271	-2.7792	-2.8438	-3.0292	-2.8104	-2.9458	-2.8917	-2.6833	395.736	424.312	511.593	211.804	270.150	397.503	199.106	415.251	521.141	380.352	507.136	249.217	360.770	194.443	510.163	445.924	0.00062607	0.00024276	2.0092e-05	509.56	2.0779e-06	8.4827e-07	662.9	109.88	1.9773e-06	2.8557e-06	193.22	60.706	25.753	7.233	4.1013e-06	24.576	0.00027172	0.00025988	7.3256e-05	507.97	2.8142e-06	2.9104e-06	650.41	109.14	2.913e-06	2.8874e-06	190.53	59.914	26.247	7.5451	2.8383e-06	24.553	381.118	518.597	241.003	181.540	383.476	377.925	181.377	186.252	273.304	332.762	185.691	190.962	190.497	195.605	297.986	195.561	-8191	255	
1471.686	1	1	0	0	0.23252	0.31243	0.15923	0.080719	0.14728	0.10036	0.15088	0.11498	0.074964	0.096391	0.048152	0.26944	0.28455	0.13688	0.075381	0.030785	-2.625	-2.7271	-2.7188	-3.0417	-2.6396	-3.0438	-2.9854	-2.6896	-2.8167	-2.8479	-2.9188	-3.05	-2.7167	-2.9271	-2.8854	-2.6292	522.254	528.135	339.592	390.979	439.701	174.856	403.527	493.291	517.880	302.926	406.245	525.155	328.071	516.520	342.346	358.094	0.00071479	0.00021013	3.8364e-05	511.79	1.7089e-06	3.1478e-06	660	110.16	4.0471e-07	6.3236e-06	193.17	60.743	25.898	7.2785	5.4648e-06	24.814	0.00026812	0.00025995	7.2476e-05	509.55	2.8792e-06	2.8887e-06	652.15	109.9	2.916e-06	2.8674e-06	191.5	60.221	26.485	7.5926	2.9017e-06	24.784	387.675	322.686	203.529	181.652	265.367	370.409	181.436	186.482	336.139	324.119	185.855	190.819	191.161	196.026	369.961	195.486	-8191	255	
1471.782	1	1	0	0	0.24456	0.18285	0.068854	0.088603	0.12138	0.051529	0.3633	0.13178	0.10491	0.11343	0.077654	0.061524	0.2715	0.13663	0.10631	0.282	-2.6271	-2.6792	-2.5646	-2.9917	-2.7188	-3.0187	-3.0604	-2.75	-2.8563	-2.8854	-2.8833	-2.8417	-2.7042	-2.8021	-3.0438	-2.7333	269.123	273.779	227.167	176.225	220.307	423.398	518.192	509.338	268.104	177.670	478.175	329.953	181.892	362.731	335.217	347.620	0.00066448	0.000264	0.00022979	508.98	3.693e-06	3.2691e-06	666.81	111.42	3.9374e-06	2.8313e-06	194.15	61.316	26.392	7.3587	2.7801e-06	24.904	0.00027614	0.00026232	7.3535e-05	510.92	2.8414e-06	2.8567e-06	654.98	110.81	2.8607e-06	2.8526e-06	193.37	60.643	26.807	7.6501	2.8811e-06	24.92	394.417	221.237	286.752	181.255	407.666	408.715	181.346	186.518	272.411	471.902	185.563	190.869	190.679	196.139	207.248	195.672	-8191	255	
1471.901	1	1	0	0	0.096829	0.10305	0.070422	0.1962	0.17235	0.073226	0.03799	0.30996	0.10904	0.31669	0.10803	0.15246	0.20397	0.21434	0.10856	0.15273	-2.4604	-2.9542	-2.4188	-3.0729	-2.7167	-2.7812	-3.1042	-2.725	-2.7729	-2.8542	-2.7042	-2.9896	-2.6833	-2.7604	-2.775	-2.7896	481.670	358.545	346.704	493.792	360.465	353.255	359.143	278.029	456.418	171.456	200.375	220.796	414.550	399.770	403.256	466.147	0.00083501	9.2604e-05	0.00010333	513.2	4.7865e-06	3.8156e-06	664.67	110.91	1.3612e-06	5.7485e-06	192.92	60.391	26.06	7.3341	4.3991e-06	24.597	0.00027869	0.00026365	7.4139e-05	513.65	2.8971e-06	2.935e-06	654.4	110.17	2.9085e-06	2.8065e-06	191.88	60.137	26.449	7.6047	2.8653e-06	24.705	373.295	287.303	170.994	181.943	273.332	374.268	181.266	186.177	282.192	373.433	185.909	190.659	190.509	196.178	446.424	195.346	-8191	255	
1471.997	1	1	0	0	0.21146	0.041908	0.12559	0.24869	0.14869	0.13799	0.26461	0.33799	0.17885	0.24643	0.20651	0.22237	0.055278	0.044762	0.079741	0.071457	-2.4146	-2.8042	-2.4896	-2.9292	-2.7125	-2.5563	-3.2313	-2.85	-2.8646	-2.8854	-2.8333	-2.9458	-2.8667	-2.7479	-3.0729	-2.7292	522.896	271.603	198.185	183.174	473.876	373.506	484.728	208.603	312.357	183.154	303.019	264.824	298.139	239.913	346.707	334.058	0.00078331	0.00041769	4.0453e-05	510.7	9.2001e-07	2.7976e-06	662.84	110.06	1.667e-06	8.4252e-07	191.74	60.516	26.128	7.2379	2.2071e-06	24.557	0.00027245	0.00026135	7.3212e-05	511.57	2.8867e-06	2.8852e-06	652.26	109.99	2.8644e-06	2.8727e-06	191.78	60.041	26.528	7.5752	2.8577e-06	24.734	376.848	232.485	487.031	181.978	386.169	352.134	181.022	186.190	374.470	391.912	185.947	190.561	190.156	196.123	325.864	195.829	-8191	255	
1472.093	1	1	0	0	0.19481	0.050031	0.12729	0.073115	0.11168	0.14726	0.029622	0.16714	0.076899	0.29761	0.10939	0.22662	0.22102	0.09216	0.11886	0.20179	-2.7042	-2.9271	-2.7042	-2.6771	-3.0896	-2.6458	-3.2771	-2.8104	-2.7417	-2.9688	-2.6208	-3.0083	-2.7917	-2.6771	-3.1562	-2.6521	303.770	520.776	285.861	237.211	292.664	286.748	440.207	482.382	438.650	484.751	435.059	478.222	437.696	201.369	230.388	280.490	0.00089445	0.00048173	0.00013399	510.92	2.1543e-06	5.8781e-06	661.75	111.06	5.8277e-06	1.7096e-06	194.81	61.401	26.129	7.1773	3.0389e-06	24.878	0.00026866	0.00026064	7.2383e-05	510.23	2.8144e-06	2.8162e-06	652.41	110.43	2.8234e-06	2.8921e-06	192.52	60.422	26.666	7.6003	2.793e-06	24.876	383.960	219.807	263.778	181.902	264.442	233.780	180.876	186.295	284.963	350.796	185.703	191.053	190.163	195.436	214.671	195.640	-8191	255	
1472.189	1	1	0	0	0.34612	0.11934	0.10982	0.11468	0.11036	0.034007	0.27535	0.12716	0.086978	0.19161	0.21707	0.014226	0.12153	0.28566	0.095407	0.16375	-2.3917	-2.9396	-2.5542	-2.7875	-2.875	-2.6458	-3.1188	-2.7375	-2.925	-2.8396	-2.7854	-2.8833	-2.9458	-2.475	-2.9104	-2.8125	328.279	390.926	341.453	214.042	395.171	512.170	495.632	191.714	175.674	184.721	265.152	310.488	254.717	487.257	222.143	184.136	0.00082981	0.00043061	4.3934e-05	514.29	1.9622e-06	3.9918e-06	665.05	111.83	2.6311e-06	1.787e-06	196.13	61.121	26.535	7.2109	1.8323e-06	25.087	0.00026375	0.00025782	6.9967e-05	512.08	2.749e-06	2.7615e-06	655.27	111.1	2.7299e-06	2.732e-06	193.93	60.776	26.752	7.5837	2.677e-06	24.989	378.977	209.732	324.295	181.786	375.994	309.118	181.363	186.084	372.194	345.486	186.109	191.301	190.060	196.132	309.358	195.581	-8191	255	
1472.286	1	1	0	0	0.048576	0.11412	0.16697	0.1537	0.089428	0.11392	0.048321	0.067356	0.22975	0.12569	0.1791	0.18463	0.16028	0.42536	0.21204	0.13979	-2.1958	-2.9708	-2.6479	-2.9146	-2.9667	-2.9146	-3.2396	-2.9417	-2.6854	-3.075	-2.6312	-2.7354	-2.9604	-2.7646	-3.0062	-2.9313	407.277	444.805	482.724	440.441	372.622	261.839	227.910	487.768	282.075	289.796	475.353	387.025	264.626	412.937	237.482	196.771	0.00072683	0.00015243	3.5691e-05	515.49	1.1611e-06	4.4971e-06	667.34	113.26	4.7306e-06	3.7109e-06	198.06	61.818	26.638	7.4051	2.8073e-06	25.046	0.00025586	0.00024408	6.6093e-05	512.69	2.6743e-06	2.6553e-06	657.41	112.55	2.6253e-06	2.6404e-06	195.48	61.171	26.81	7.6859	2.6244e-06	25.011	387.946	465.833	171.228	182.035	291.645	327.379	181.141	186.220	289.733	314.599	185.624	191.148	190.677	196.087	459.528	195.637	-8191	255	
1472.382	1	1	0	0	0.19716	0.23066	0.14876	0.14468	0.15164	0.12023	0.26036	0.28119	0.13232	0.16464	0.12319	0.18736	0.20274	0.10603	0.21324	0.10745	-2.3854	-3.1146	-2.8292	-2.7792	-2.8125	-2.7625	-3.2	-2.7646	-2.7021	-2.9875	-2.8042	-2.6667	-2.9896	-2.6875	-2.9167	-3.0208	337.386	512.194	301.503	266.069	354.274	474.972	476.801	481.656	280.574	262.189	213.911	273.977	472.081	192.075	345.177	413.320	0.0008735	0.00027809	4.2958e-05	515.19	3.0775e-06	8.1048e-07	666.1	113.6	3.8662e-06	4.1948e-06	197.24	61.576	26.386	7.3277	1.294e-06	24.856	0.00024588	0.00023693	6.5204e-05	510.06	2.5962e-06	2.5268e-06	652.54	112.26	2.5235e-06	2.5654e-06	194.18	60.688	26.624	7.5785	2.4946e-06	24.862	378.659	264.339	475.865	181.369	338.000	409.800	181.073	186.211	412.911	305.417	185.630	191.199	190.502	196.331	320.648	195.243	-8191	255	
1472.502	1	1	0	0	0.13171	0.21334	0.28032	0.080126	0.16223	0.12549	0.23272	0.15595	0.3257	0.17051	0.29212	0.19106	0.17079	0.098126	0.26305	0.013249	-2.3	-3.0187	-2.875	-2.7104	-3.075	-2.6479	-3.0604	-2.9604	-2.6854	-3.0438	-2.8854	-2.7708	-3.0187	-2.7313	-2.9042	-2.9708	177.887	347.412	222.552	271.489	298.457	334.834	414.962	518.779	307.791	223.319	520.487	283.604	242.994	460.647	454.059	430.226	0.00075176	0.00029541	3.2763e-06	511.33	4.9371e-06	2.4531e-06	663.65	113.13	9.3947e-06	2.0317e-06	198.75	61.46	26.441	7.2759	3.7227e-06	24.988	0.00023329	0.00022819	6.3248e-05	506.37	2.4811e-06	2.4461e-06	651.45	112.08	2.4416e-06	2.4432e-06	195.13	60.611	26.657	7.5691	2.4193e-06	24.976	379.718	310.182	229.330	181.967	368.155	371.974	181.298	186.444	278.652	182.618	185.759	190.891	190.318	196.462	335.900	195.411	-8191	255	
1472.599	1	1	0	0	0.081447	0.17044	0.19506	0.10344	0.016054	0.11733	0.28427	0.1198	0.063489	0.064082	0.078875	0.12659	0.12109	0.16452	0.29036	0.29183	-2.3479	-3.0417	-2.8958	-2.6833	-2.8708	-2.7313	-2.8229	-3.1312	-2.75	-2.8875	-2.8833	-2.7687	-2.9708	-2.7167	-2.7562	-3.0563	231.355	268.740	222.523	357.426	442.254	189.470	461.239	204.574	524.186	504.326	514.388	328.210	316.944	473.643	322.040	495.643	0.00067061	0.00035162	6.6223e-05	515.11	1.9746e-06	4.842e-06	664.34	113.46	8.7854e-07	2.6534e-06	198.17	62.038	26.569	7.4625	7.0275e-06	25.179	0.0002293	0.00022484	6.1858e-05	506.11	2.4384e-06	2.4386e-06	652.17	112.38	2.4099e-06	2.4427e-06	195.44	61.199	26.863	7.6755	2.4494e-06	25.136	384.928	241.522	238.895	181.436	241.823	406.669	181.293	186.304	245.720	279.003	185.921	190.903	191.032	195.880	342.601	195.849	-8191	255	
1472.693	1	1	0	0	0.17517	0.14123	0.11601	0.20602	0.16598	0.1447	0.11757	0.14565	0.053892	0.27173	0.17265	0.079629	0.12333	0.12579	0.10102	0.065843	-2.1833	-2.875	-2.9292	-2.5812	-3.1146	-2.7562	-2.7167	-2.7625	-2.6292	-2.8312	-2.9	-2.6208	-2.8646	-2.8125	-2.6375	-2.8729	264.751	208.352	234.838	384.018	522.444	258.098	448.983	455.058	400.348	292.998	476.277	498.147	248.364	522.913	516.453	449.273	0.00082571	0.00027353	8.5528e-05	514.25	4.2711e-06	1.5167e-06	665.72	113.79	4.5115e-06	7.8062e-07	200.02	62.658	26.782	7.4463	8.4429e-06	25.439	0.00023414	0.00022811	6.3322e-05	507.83	2.5015e-06	2.4813e-06	654.64	112.97	2.4685e-06	2.5063e-06	196.74	61.808	27.027	7.7257	2.5352e-06	25.433	386.653	237.436	267.152	181.854	461.269	241.683	181.450	186.304	356.035	196.539	186.248	190.659	190.095	196.055	345.071	195.311	-8191	255	
1472.791	1	1	0	0	0.15453	0.2223	0.046642	0.095418	0.056079	0.11785	0.17427	0.12008	0.017946	0.13918	0.045638	0.20829	0.045857	0.20921	0.29001	0.25086	-2.3063	-2.8521	-2.825	-2.7687	-2.925	-2.8417	-2.6708	-2.8833	-2.6021	-2.8646	-2.9625	-2.65	-2.9813	-2.7938	-2.7979	-2.9917	246.691	470.743	413.844	285.167	327.939	353.921	201.807	346.867	300.139	396.610	193.291	508.900	499.286	314.220	382.832	340.865	0.00065978	0.00046586	8.507e-05	513.67	2.1961e-06	1.0257e-06	665.44	113.31	4.354e-06	2.2404e-06	198.72	61.427	26.344	7.4737	8.2927e-07	25.243	0.00024084	0.00023639	6.6324e-05	508.2	2.6416e-06	2.6136e-06	652.43	112.44	2.6153e-06	2.653e-06	195.42	61.062	26.735	7.6836	2.6618e-06	25.154	377.484	520.078	245.149	181.780	305.393	505.363	181.370	186.152	264.097	332.061	185.751	190.599	190.409	196.009	411.024	195.180	-8191	255	
1472.885	1	1	0	0	0.11726	0.13124	0.26135	0.030404	0.15118	0.03906	0.32313	0.20297	0.18097	0.13025	0.07011	0.11076	0.29426	0.18931	0.16575	0.1787	-2.2896	-2.725	-2.9458	-2.6771	-2.925	-2.7771	-2.7167	-3.0479	-2.7125	-2.8312	-2.9813	-2.7271	-3.0042	-2.6833	-2.5396	-3.0062	328.772	209.557	362.277	373.911	345.776	169.389	503.541	290.016	461.964	420.742	385.113	172.472	272.814	506.100	475.845	189.038	0.00078626	0.00026827	0.00011015	505.53	4.3835e-06	1.0739e-06	662.08	112.85	5.1386e-06	2.157e-06	197.99	61.393	26.371	7.3535	6.5715e-06	25.201	0.00025522	0.00024115	6.8044e-05	504.8	2.7219e-06	2.6833e-06	649.77	111.91	2.6729e-06	2.7077e-06	194.45	60.687	26.786	7.6661	2.6639e-06	25.17	389.583	469.769	213.732	181.244	306.935	480.290	181.370	185.987	274.274	370.423	185.769	191.220	190.768	195.732	264.444	195.061	-8191	255	
1472.981	1	1	0	0	0.18156	0.3105	0.16915	0.11944	0.19006	0.016329	0.12515	0.30256	0.10353	0.18575	0.071785	0.25778	0.10156	0.1087	0.076417	0.13463	-2.3458	-2.7104	-2.8792	-2.5771	-2.9562	-3.0208	-2.6146	-2.8208	-2.85	-2.7625	-3.0771	-2.8021	-2.8	-2.9917	-2.7125	-3.0021	255.923	365.477	430.927	492.658	405.190	256.987	507.396	421.588	356.383	169.104	382.268	506.786	431.239	326.937	527.701	183.109	0.00075634	3.8594e-05	4.9503e-05	511.1	1.8053e-06	8.8786e-07	658.4	113.26	3.1955e-06	3.6556e-06	195.89	62.066	26.536	7.4216	6.1768e-06	25.197	0.00024949	0.00024407	6.8903e-05	506.52	2.7179e-06	2.7027e-06	648.99	112.01	2.6974e-06	2.7283e-06	194.41	61.17	26.953	7.6951	2.7071e-06	25.282	382.750	187.771	252.718	181.625	396.256	279.180	181.214	186.139	250.205	205.567	185.739	191.345	190.428	195.732	313.170	195.518	-8191	255	
1473.078	1	1	0	0	0.4206	0.28406	0.17215	0.076504	0.29398	0.081594	0.16279	0.28909	0.21788	0.093503	0.1048	0.18526	0.27019	0.17036	0.10377	0.099932	-2.3979	-2.7083	-2.9833	-2.6937	-2.9625	-3.1229	-2.6896	-2.9729	-2.8417	-2.7167	-3.2125	-2.7875	-2.8917	-2.8479	-2.5687	-2.9875	345.681	248.866	168.739	462.312	495.921	203.944	486.726	260.133	525.367	491.897	301.187	370.732	455.887	187.769	285.939	245.042	0.00083322	3.1589e-05	0.00010413	514.57	1.556e-06	6.1646e-06	660.43	113.12	2.031e-06	3.43e-06	197.45	62.31	26.833	7.4626	5.5147e-06	25.477	0.000254	0.00024842	6.8652e-05	508.77	2.6538e-06	2.6762e-06	650.93	112.36	2.6462e-06	2.6091e-06	194.97	61.5	27.128	7.7572	2.5613e-06	25.467	383.695	359.233	260.134	181.541	218.127	407.856	181.278	186.227	527.901	344.555	185.917	191.134	190.214	195.820	299.826	195.460	-8191	255	
1473.198	1	1	0	0	0.23843	0.052645	0.15721	0.20763	0.38482	0.11644	0.0905	0.13626	0.20671	0.072857	0.24323	0.10792	0.11037	0.12494	0.15709	0.2283	-2.4208	-2.6208	-3.1583	-2.7229	-2.6792	-2.9875	-2.7208	-2.8729	-2.9625	-2.8	-3.0646	-2.8708	-2.7333	-2.7333	-2.8125	-3.1104	310.078	514.348	251.393	505.007	496.614	216.706	332.420	475.014	453.850	307.239	479.981	298.144	494.719	216.950	253.368	355.355	0.00066288	0.00016144	6.9158e-05	514.6	3.0087e-06	8.3649e-07	663.05	113.54	7.8553e-07	8.2246e-07	199.07	62.071	26.776	7.5252	1.413e-06	25.494	0.00024647	0.00023308	6.6295e-05	507.66	2.5893e-06	2.5797e-06	651.96	112.9	2.4851e-06	2.4841e-06	196.07	61.471	26.934	7.7493	2.4442e-06	25.374	385.760	186.439	230.198	181.517	348.405	282.402	181.260	186.295	395.633	266.457	185.871	190.949	190.603	196.458	326.994	195.686	-8191	255	
1473.294	1	1	0	0	0.26436	0.1201	0.087856	0.27993	0.2873	0.1592	0.18305	0.1986	0.087489	0.071523	0.16814	0.28515	0.22248	0.032464	0.09482	0.1181	-2.4729	-2.4979	-2.9688	-2.7625	-2.7667	-3.1188	-2.8083	-2.8	-2.8417	-2.8625	-3.1125	-2.9021	-2.6292	-3.1167	-2.6646	-3	480.610	365.317	516.617	443.565	368.195	339.879	336.711	430.676	254.859	334.217	427.845	436.414	403.460	401.287	337.678	503.403	0.00086049	0.00022721	5.161e-05	508.87	2.6186e-06	2.4364e-06	661.23	113.53	2.765e-06	2.4204e-06	197.07	61.565	26.285	7.4973	2.4439e-06	25.123	0.00023579	0.00022294	6.2445e-05	503.65	2.4601e-06	2.453e-06	648.99	112	2.4392e-06	2.4224e-06	194.32	60.736	26.563	7.6559	2.3855e-06	25.032	378.759	179.258	222.402	181.318	301.261	321.736	181.350	186.227	378.756	220.671	185.820	190.464	190.604	196.341	256.740	195.135	-8191	255	
1473.390	1	1	0	0	0.10505	0.13015	0.37168	0.33619	0.1073	0.22779	0.40879	0.12486	0.1695	0.18847	0.13083	0.19317	0.18926	0.31304	0.26149	0.3058	-2.5875	-2.5812	-2.8063	-2.8875	-2.6833	-3.0875	-2.8417	-2.9188	-2.8083	-2.6312	-3.125	-2.9292	-2.7396	-2.9542	-2.7125	-2.7167	363.247	518.306	280.455	395.083	377.476	330.839	483.802	488.502	218.034	242.294	259.645	433.962	430.250	504.385	444.063	527.641	0.00073351	0.00034945	8.386e-05	510.21	6.1695e-06	3.2974e-06	661.29	112.95	8.0666e-07	1.1854e-06	198.1	61.13	26.426	7.4866	2.5109e-06	25.206	0.00023261	0.0002192	6.205e-05	503.13	2.4653e-06	2.4272e-06	646.86	111.74	2.4699e-06	2.4284e-06	194.35	60.55	26.533	7.6648	2.4132e-06	25.123	377.474	309.606	453.783	181.343	333.528	516.238	181.160	186.484	336.692	332.825	185.990	190.666	190.541	195.876	229.997	195.412	-8191	255	
1473.462	1	1	0	0	0.2324	0.14525	0.10366	0.075834	0.28661	0.20948	0.2455	0.16717	0.26864	0.10361	0.13191	0.029036	0.036592	0.10674	0.1645	0.20342	-2.5333	-2.3667	-3.0396	-2.7292	-2.6937	-3.1792	-2.6979	-2.7229	-3.2021	-2.7604	-2.8667	-2.8375	-2.5479	-2.9792	-2.5958	-2.7417	262.567	315.098	321.317	314.043	232.863	220.416	179.329	501.377	246.973	363.912	493.941	250.008	490.548	210.447	434.382	523.912	0.00090799	3.3147e-05	4.5285e-05	506.56	5.3947e-07	2.236e-06	661.24	111.81	1.6725e-06	1.9484e-06	197.51	61.937	26.44	7.3428	5.9259e-06	25.205	0.0002318	0.00021812	6.148e-05	502.02	2.4166e-06	2.4176e-06	647.24	111.49	2.4115e-06	2.4226e-06	194.14	61	26.614	7.5747	2.4591e-06	25.032	382.632	175.937	228.735	181.857	493.559	269.874	181.381	186.574	491.859	476.278	186.419	191.152	190.356	195.513	285.736	195.244	-8191	255	
1473.583	1	1	0	0	0.22049	0.26513	0.25069	0.17159	0.29036	0.2383	0.083154	0.13968	0.22908	0.16048	0.015333	0.073339	0.20909	0.22838	0.13698	0.072401	-2.5771	-2.7104	-2.8354	-2.9562	-2.6167	-3.0792	-2.8354	-2.7479	-3.1708	-2.6083	-2.8833	-2.9	-2.6	-2.8229	-2.9708	-2.7438	374.369	288.255	323.823	500.285	423.581	257.839	456.736	350.453	515.459	339.841	191.861	322.986	204.105	267.596	251.402	439.806	0.00084741	0.00015274	0.0001214	503.48	6.4511e-07	3.256e-06	661.01	111.68	6.7049e-07	1.2759e-06	197.07	61.773	26.266	7.3162	9.8499e-07	25.109	0.00023389	0.00022827	6.3939e-05	502.42	2.5009e-06	2.5015e-06	647.22	111.3	2.5576e-06	2.425e-06	194.1	60.968	26.53	7.5643	2.4304e-06	24.987	378.434	338.902	250.346	181.514	420.838	345.075	181.168	186.012	282.352	328.592	185.531	190.950	190.130	195.682	207.074	195.503	-8191	255	
1473.679	1	1	0	0	0.12317	0.18159	0.0234	0.041771	0.26962	0.10012	0.069808	0.25285	0.20263	0.082487	0.29224	0.33212	0.15949	0.15575	0.11234	0.1354	-2.5271	-2.8271	-2.8042	-3.0458	-2.6937	-2.8	-2.9021	-2.7021	-3.1458	-2.6312	-2.8104	-3.0229	-2.5396	-2.825	-2.7458	-2.5187	401.791	227.257	363.072	287.012	472.188	346.048	383.973	429.051	175.752	515.073	481.149	405.204	226.375	295.249	440.514	439.884	0.00077204	0.00047313	2.995e-05	508.15	3.1842e-06	2.866e-06	655.69	111.51	3.6306e-06	1.3302e-06	193.13	60.41	25.822	7.1655	3.7541e-06	24.672	0.00023644	0.00022568	6.3292e-05	501.71	2.4497e-06	2.4793e-06	643.72	110.4	2.4984e-06	2.4762e-06	191.79	59.618	26.058	7.4473	2.4489e-06	24.485	380.555	249.625	236.457	181.529	281.835	303.510	181.473	186.345	197.703	346.753	185.663	190.711	190.359	194.954	201.034	195.419	-8191	255	
1473.773	1	1	0	0	0.15039	0.18877	0.069287	0.12617	0.27329	0.1291	0.16771	0.18175	0.08197	0.057566	0.24384	0.27235	0.25019	0.11823	0.092837	0.025302	-2.6	-2.6583	-2.7375	-3.05	-2.6125	-3.0125	-3.0771	-2.6083	-2.9062	-2.7562	-2.9833	-3.2271	-2.7687	-2.9292	-2.9417	-2.6979	369.570	376.767	334.274	319.650	371.133	368.878	170.015	246.064	344.485	460.617	430.861	317.255	473.457	522.983	175.842	464.419	0.00061993	0.00029365	8.8372e-05	507.82	4.1695e-06	3.2816e-06	652.39	109.68	3.55e-06	2.9007e-06	193.84	60.076	25.829	7.1628	3.4129e-06	24.627	0.000233	0.00022672	6.294e-05	499.56	2.4125e-06	2.4631e-06	640.08	109.47	2.4464e-06	2.4628e-06	190.81	59.332	26.023	7.4034	2.4271e-06	24.456	383.000	528.164	294.354	181.331	310.530	300.352	181.302	186.409	417.155	288.044	186.037	190.758	190.390	195.768	373.665	195.423	-8191	255	
1473.871	1	1	0	0	0.19126	0.067428	0.14067	0.173	0.20616	0.040356	0.17552	0.25925	0.058784	0.37711	0.16655	0.21716	0.082289	0.11378	0.15875	0.12141	-2.6833	-2.6021	-2.5938	-3.0792	-2.6292	-2.8417	-3.0771	-2.8292	-2.8542	-2.7917	-2.7042	-3.175	-2.7479	-2.8792	-3.0167	-2.7375	298.000	332.281	519.628	257.925	440.823	229.764	455.205	209.016	495.666	342.519	251.513	418.166	180.289	299.551	261.664	401.299	0.00070804	0.0002875	4.3e-05	499.91	1.5636e-06	3.4711e-06	651.98	111.27	3.9076e-06	3.3962e-06	193.62	60.549	26.197	7.2665	4.7895e-06	24.802	0.00023664	0.00022524	6.3462e-05	498.26	2.4618e-06	2.4942e-06	640.41	110.16	2.5068e-06	2.4835e-06	191.81	59.87	26.292	7.4849	2.5398e-06	24.713	378.046	232.558	188.099	181.667	334.118	319.418	181.236	186.107	310.836	360.343	185.848	190.781	190.740	196.026	299.375	195.482	-8191	255	
1473.990	1	1	0	0	0.059657	0.052688	0.072669	0.057488	0.19471	0.063483	0.19709	0.1713	0.031029	0.14087	0.067334	0.25262	0.019115	0.26932	0.24393	0.031593	-2.5875	-2.8625	-2.7292	-3.0687	-2.6458	-2.7604	-3.0271	-2.7833	-2.9208	-2.8021	-2.8417	-3.1208	-2.5917	-2.8292	-2.9437	-2.6354	201.804	221.527	211.339	216.867	453.968	250.773	475.381	390.566	336.792	302.006	388.266	485.325	489.193	493.608	393.376	376.322	0.00073286	0.00020521	6.4569e-05	500.21	2.0084e-06	2.8008e-06	653.9	110.49	5.3272e-06	5.0407e-06	194.49	61.281	25.971	7.2532	4.114e-06	24.962	0.00024102	0.00023424	6.371e-05	500.42	2.5498e-06	2.5733e-06	642.68	110.4	2.6036e-06	2.6027e-06	192.23	60.344	26.428	7.5509	2.6108e-06	24.871	379.690	330.881	287.573	181.710	234.078	281.990	181.086	186.004	506.679	330.509	185.953	190.515	191.036	195.602	364.696	194.993	-8191	255	
1474.062	1	1	0	0	0.01858	0.1909	0.23394	0.14901	0.08588	0.29584	0.17286	0.0999	0.18249	0.26038	0.15092	0.074769	0.12359	0.14325	0.26467	0.20706	-2.5229	-2.8729	-2.4708	-3.1458	-2.6958	-2.775	-3.1063	-2.7333	-3.0104	-2.7938	-2.7062	-2.9729	-2.8208	-2.9021	-3.1167	-2.8021	505.319	272.767	273.682	398.865	461.482	287.733	508.057	488.813	432.993	488.019	433.510	277.960	290.004	424.706	348.761	252.281	0.00079848	0.00034988	8.8093e-05	507.99	3.5682e-06	2.6755e-06	656.27	111.87	4.9274e-06	1.0516e-06	196.3	61.629	25.89	7.2159	5.8093e-06	24.907	0.00024819	0.00023754	6.5862e-05	502.62	2.6234e-06	2.5912e-06	645.65	111.13	2.6219e-06	2.6396e-06	193.3	60.582	26.482	7.5438	2.6527e-06	24.847	380.335	271.042	432.949	181.558	214.772	331.573	180.958	186.522	260.891	387.799	185.770	190.776	190.756	196.223	291.620	195.514	-8191	255	
1474.182	1	1	0	0	0.12011	0.15343	0.27326	0.086519	0.1358	0.18491	0.14503	0.25552	0.16575	0.20018	0.23901	0.15431	0.30836	0.25763	0.05904	0.17198	-2.625	-2.9313	-2.5417	-3.0542	-2.9958	-2.8208	-3.2271	-2.9458	-2.8917	-3.0812	-2.7396	-2.9333	-2.9	-2.6625	-2.8896	-2.7021	364.967	238.051	240.510	394.265	451.112	174.326	472.712	186.639	239.360	311.933	225.423	518.982	384.535	501.068	408.466	174.156	0.00078899	0.00016156	9.7334e-05	504.94	1.8384e-06	1.3132e-06	649.54	111.53	3.5209e-06	3.4223e-06	195.24	60.889	25.884	7.269	3.6961e-06	24.585	0.00025374	0.00024531	6.6174e-05	501.2	2.6575e-06	2.6419e-06	640.72	110.27	2.6466e-06	2.5874e-06	191.84	59.953	26.192	7.5237	2.6196e-06	24.752	384.780	499.721	290.671	181.491	287.581	299.910	181.124	186.411	324.297	314.328	185.953	190.593	190.929	195.710	291.483	195.070	-8191	255	
1474.279	1	1	0	0	0.054048	0.3314	0.15878	0.032179	0.11064	0.094398	0.21474	0.060527	0.079263	0.21385	0.088725	0.04471	0.15978	0.19194	0.028824	0.19206	-2.3063	-2.8187	-2.7646	-2.9313	-2.8083	-2.6833	-3.1375	-2.7875	-2.9271	-3.1646	-2.6229	-2.9688	-2.9813	-2.5875	-2.9188	-3.0229	410.963	195.397	359.816	331.551	256.667	277.824	510.361	198.887	426.966	356.942	417.421	309.167	352.161	316.758	491.885	206.896	0.0007127	0.0002191	0.00015763	499.69	2.2258e-06	1.5572e-06	650.35	111.36	1.8606e-06	6.6774e-06	193.75	60.55	25.914	7.2855	3.4294e-06	24.892	0.00024888	0.00023683	6.6424e-05	499.61	2.61e-06	2.5357e-06	640.03	110.2	2.5873e-06	2.6184e-06	191.24	59.968	26.33	7.5349	2.6031e-06	24.833	386.577	322.561	290.171	181.825	278.669	431.372	181.258	186.162	173.061	352.606	185.717	190.846	190.523	196.013	283.134	195.528	-8191	255	
1474.375	1	1	0	0	0.17019	0.030325	0.30341	0.13	0.088751	0.27934	0.15343	0.21782	0.21246	0.12455	0.1351	0.12587	0.29324	0.14795	0.20534	0.10311	-2.2604	-3.1292	-2.7938	-2.775	-2.9083	-2.7604	-3	-2.8896	-2.7562	-2.9083	-2.575	-2.7708	-2.8625	-2.6771	-3.0312	-2.7479	305.136	391.342	240.640	467.079	301.288	473.660	325.500	218.837	288.604	293.972	336.956	525.790	417.144	295.899	298.480	275.997	0.00067799	0.00020681	0.00014018	500.43	2.4381e-06	3.8733e-06	652.82	111.07	3.1767e-06	1.3447e-06	196	61.335	26.118	7.2997	2.2034e-06	24.878	0.00024932	0.0002387	6.5344e-05	500.21	2.634e-06	2.5252e-06	642.99	110.31	2.5674e-06	2.6383e-06	192.46	60.528	26.413	7.5883	2.6471e-06	25.013	382.039	231.544	242.386	181.825	303.574	294.028	181.215	186.446	279.746	189.919	185.755	190.734	190.816	195.983	361.145	195.118	-8191	255	
1474.471	1	1	0	0	0.1163	0.037046	0.1143	0.055559	0.19438	0.14708	0.29435	0.073557	0.077676	0.28963	0.018032	0.16805	0.048186	0.16877	0.19534	0.046235	-2.4583	-3.0417	-2.6854	-2.8958	-2.9896	-2.6312	-2.9708	-2.8625	-2.6125	-2.9104	-2.925	-2.7833	-2.9792	-2.8	-2.9771	-2.8688	444.083	375.335	226.651	297.594	396.700	483.735	284.930	284.291	461.282	462.940	274.233	247.007	358.720	336.211	470.055	500.002	0.00082831	0.00015919	8.9987e-05	506.6	1.1754e-06	2.2352e-06	654.18	111.06	8.9626e-07	2.3849e-07	194.37	61.499	26.106	7.2751	1.2394e-06	25.145	0.00025359	0.00024529	6.9288e-05	501.1	2.7157e-06	2.6552e-06	642.34	110.37	2.6582e-06	2.6351e-06	192.94	60.926	26.535	7.5931	2.6324e-06	25.17	388.647	239.358	202.992	181.633	235.579	316.008	181.390	186.189	385.791	371.055	185.573	190.975	190.581	195.645	508.136	195.312	-8191	255	
1474.591	1	1	0	0	0.12272	0.037009	0.18566	0.12073	0.08612	0.11639	0.31419	0.31966	0.19926	0.042083	0.10228	0.10076	0.23132	0.16468	0.12251	0.21032	-2.3646	-2.975	-2.6854	-2.8479	-3.0958	-2.6625	-2.9833	-3.1208	-2.6583	-3.0729	-2.8563	-2.8479	-3.025	-2.8187	-2.8833	-2.8563	414.868	309.389	490.933	316.546	196.177	283.474	458.574	486.015	426.351	483.734	214.485	409.879	195.943	458.909	321.114	323.380	0.00076014	0.00012966	0.00012894	505.91	4.1562e-06	2.367e-06	654.54	111.15	1.2388e-06	6.1976e-07	193.39	61.231	25.929	7.2481	2.329e-06	24.823	0.00024663	0.00023942	6.7944e-05	501.37	2.634e-06	2.5842e-06	642.1	110.13	2.54e-06	2.6251e-06	191.99	60.357	26.288	7.5523	2.6112e-06	24.863	389.240	177.171	188.979	181.927	224.987	272.816	181.243	186.131	379.313	339.859	186.097	191.032	190.348	195.913	344.067	195.667	-8191	255	
1474.686	1	1	0	0	0.10086	0.14325	0.12592	0.2249	0.21655	0.063899	0.079396	0.33433	0.036467	0.11565	0.095762	0.22411	0.10212	0.20115	0.24893	0.039044	-2.2625	-3.0667	-2.8271	-2.6667	-3.1375	-2.8542	-3.0771	-3.125	-2.5708	-3.0167	-2.9146	-2.8	-2.8208	-2.8521	-2.7229	-3.1792	263.794	170.257	416.895	204.454	518.521	277.820	515.105	349.140	378.714	215.603	446.917	262.409	503.363	210.856	301.230	346.782	0.00076991	0.00012553	0.00013211	501.31	3.2658e-06	5.6063e-06	651.95	110.62	9.0825e-06	1.4083e-06	194.17	60.862	25.878	7.3407	2.1017e-06	24.851	0.0002422	0.0002351	6.4392e-05	498.02	2.5055e-06	2.5035e-06	639.77	109.73	2.4662e-06	2.5806e-06	191.55	60.001	26.226	7.5592	2.5738e-06	24.892	387.452	256.737	257.430	181.607	364.763	396.520	181.549	186.182	320.249	396.986	185.798	190.736	190.600	196.079	175.699	195.220	-8191	255	
1474.759	1	1	0	0	0.057096	0.26792	0.17506	0.093184	0.10566	0.19251	0.22827	0.03367	0.25208	0.099704	0.1973	0.27552	0.15365	0.15322	0.177	0.12557	-2.3458	-2.9729	-2.8625	-2.7875	-3.05	-2.9021	-2.8937	-2.8792	-2.9708	-2.9437	-2.9188	-2.8646	-3.0667	-2.8958	-2.7708	-3.0292	198.767	362.067	466.209	479.912	392.903	295.054	460.992	365.704	433.332	201.448	170.940	504.281	443.986	201.929	286.346	272.718	0.00078689	0.00045987	6.8197e-05	504.33	2.3566e-06	2.1624e-06	653.67	110.26	4.1229e-06	7.1223e-07	194.39	61.389	25.822	7.2178	2.1692e-06	25.081	0.00024266	0.00023823	6.7142e-05	499.13	2.6007e-06	2.5465e-06	640.34	109.56	2.53e-06	2.6067e-06	191.99	60.367	26.245	7.5562	2.5501e-06	25.015	391.474	235.652	230.483	181.421	174.022	383.004	181.082	186.479	313.837	425.708	185.765	191.038	190.653	195.661	272.945	195.383	-8191	255	
1474.878	1	1	0	0	0.23705	0.16724	0.088331	0.050887	0.063266	0.099832	0.09944	0.27815	0.11427	0.31233	0.013165	0.25355	0.19589	0.21044	0.13063	0.15345	-2.3958	-2.7812	-3.1146	-2.7188	-2.9229	-3.0667	-2.7812	-3.075	-2.7875	-2.9979	-3.0125	-2.7604	-2.8792	-2.7167	-3.0167	-3.1979	274.542	180.418	500.635	508.506	381.721	241.371	177.180	461.746	489.951	523.747	512.578	511.691	180.385	191.223	224.683	516.021	0.00078791	0.00020057	6.7357e-05	504.6	3.4735e-06	3.6943e-06	655.42	111.03	9.594e-07	2.6306e-06	194.54	61.241	25.957	7.3804	2.1254e-06	25.123	0.00024106	0.00023488	6.6304e-05	499.75	2.6457e-06	2.5506e-06	642.25	110.1	2.5461e-06	2.5694e-06	192.59	60.537	26.352	7.5694	2.502e-06	25.101	389.222	329.679	336.488	181.544	352.978	352.473	180.958	186.198	287.848	255.403	185.837	190.642	189.707	195.934	237.399	195.609	-8191	255	
1474.974	1	1	0	0	0.08086	0.20661	0.064346	0.16141	0.23523	0.23117	0.16706	0.10365	0.1759	0.12252	0.062172	0.05477	0.17938	0.15816	0.35915	0.16365	-2.1875	-2.8187	-2.9542	-2.7792	-3.025	-3.0625	-2.7771	-3.2042	-2.7896	-3.0667	-3.0812	-2.8229	-3.25	-2.7958	-2.6688	-3.0354	364.872	176.511	493.988	482.441	238.740	523.569	179.103	390.304	313.312	229.889	214.137	306.941	438.930	348.480	509.130	421.117	0.00071233	0.00022646	6.0553e-05	503.83	3.1529e-06	2.1421e-06	652.86	111.49	3.5389e-06	3.5663e-06	195.35	61.219	25.877	7.3033	6.9641e-07	24.914	0.00024383	0.00023248	6.487e-05	498.64	2.5986e-06	2.5542e-06	643.2	110.41	2.5382e-06	2.5621e-06	192.54	60.391	26.336	7.5777	2.5106e-06	24.937	379.097	299.093	482.954	182.467	297.323	323.095	181.326	186.301	276.120	304.187	186.099	190.564	190.917	196.024	429.562	195.653	-8191	255	
1475.070	1	1	0	0	0.21698	0.4169	0.065393	0.18238	0.081628	0.24395	0.21945	0.1652	0.15545	0.16456	0.089768	0.19958	0.13223	0.30328	0.089151	0.094045	-2.1604	-2.8458	-3.1646	-2.7562	-3.0125	-2.9146	-2.9583	-3.1625	-2.7375	-3.0083	-3.1083	-2.7146	-2.7979	-2.9417	-2.5479	-2.9896	321.388	446.067	464.495	205.533	209.963	420.278	464.222	357.640	360.234	357.866	384.642	499.827	259.632	224.191	509.045	196.933	0.00081236	0.00038915	7.3438e-05	509.63	2.756e-06	6.8148e-06	653.21	110.4	3.2776e-06	5.2913e-06	194.1	60.543	25.737	7.1908	1.4916e-06	24.643	0.00024171	0.00023177	6.4545e-05	501.83	2.5604e-06	2.5897e-06	640.83	109.56	2.5062e-06	2.5714e-06	191.4	59.772	26.123	7.4639	2.5071e-06	24.699	377.009	218.535	229.212	181.642	416.962	325.205	181.191	185.986	218.852	360.658	185.582	191.018	190.184	195.699	370.556	195.593	-8191	255	
1475.167	1	1	0	0	0.20869	0.079933	0.30894	0.12299	0.21117	0.15771	0.20817	0.052919	0.19576	0.089917	0.2102	0.1386	0.13037	0.14848	0.080041	0.090493	-2.3083	-2.5542	-2.9229	-2.7979	-2.8104	-2.9167	-2.8083	-2.9375	-2.8646	-2.5146	-3.0062	-2.6708	-2.875	-3.1479	-2.7	-3.1292	289.071	236.240	175.270	329.581	387.880	263.374	202.884	525.751	253.731	226.807	168.967	485.092	426.289	261.680	222.742	483.079	0.00081452	0.00033514	9.4472e-05	505.62	3.6213e-06	1.8829e-06	651.05	110.25	4.169e-06	2.8006e-06	194.43	60.726	25.668	7.1958	1.5784e-06	24.788	0.00023798	0.00022911	6.3667e-05	498.56	2.5351e-06	2.4989e-06	639.93	109.68	2.5283e-06	2.4999e-06	191.61	59.842	26.132	7.4943	2.5088e-06	24.786	382.385	281.522	336.668	181.486	301.161	259.216	181.207	186.600	320.489	357.017	185.607	190.938	190.721	195.772	374.383	195.443	-8191	255	
1475.287	1	1	0	0	0.13453	0.17074	0.13065	0.17914	0.074029	0.0054742	0.23979	0.32496	0.20923	0.10728	0.1392	0.16234	0.13269	0.10758	0.35694	0.047684	-2.4458	-2.6646	-3.0438	-2.8208	-2.8833	-2.8521	-2.7167	-2.9667	-2.9021	-2.6792	-2.9875	-2.7438	-2.9667	-3.0375	-2.7458	-2.9583	298.348	227.203	436.602	494.532	294.779	310.716	428.254	382.166	237.620	427.594	516.809	436.590	333.610	328.788	482.309	415.219	0.00077551	0.00020918	0.00011414	501.66	2.4323e-06	3.7105e-06	654.16	110.32	5.6785e-06	1.2078e-06	194.2	60.892	25.931	7.2141	2.9755e-06	25.004	0.00023647	0.0002299	6.5624e-05	498.99	2.5362e-06	2.5462e-06	640.68	109.86	2.5477e-06	2.4924e-06	191.54	60.099	26.145	7.5221	2.5346e-06	24.871	386.851	496.153	222.351	182.060	313.050	380.378	181.305	186.511	335.799	369.341	185.802	190.857	190.936	196.476	250.728	195.431	-8191	255	
1475.359	1	1	0	0	0.12628	0.26171	0.098149	0.17072	0.28831	0.16744	0.17717	0.2277	0.18963	0.10411	0.22979	0.058645	0.16482	0.21893	0.16422	0.036158	-2.5958	-2.6	-2.9146	-2.8187	-2.7771	-3.1688	-2.6729	-2.9375	-2.9417	-2.6063	-2.9583	-3.0396	-2.7083	-2.9375	-2.6458	-3.0917	289.134	223.023	186.736	219.481	406.789	428.433	415.097	506.116	252.172	292.070	422.749	222.640	517.354	316.497	424.555	224.401	0.00079137	0.00034943	3.6643e-05	506.23	3.0513e-06	4.725e-07	654.34	111.3	4.3801e-06	2.8068e-06	195.97	61.014	25.748	7.2373	5.9387e-06	25.068	0.00024193	0.00023025	6.5278e-05	500.23	2.6228e-06	2.5424e-06	642.49	110.28	2.5422e-06	2.4867e-06	192.88	60.318	26.274	7.553	2.5524e-06	25.021	377.744	226.102	289.522	181.418	290.001	437.042	181.112	186.552	299.003	316.264	185.711	190.672	190.113	196.276	303.402	195.372	-8191	255	
1475.455	1	1	0	0	0.18704	0.13079	0.059153	0.15574	0.21959	0.21265	0.097018	0.11799	0.2058	0.13175	0.30475	0.062789	0.23542	0.17175	0.052004	0.11613	-2.475	-2.4333	-3.125	-2.8708	-2.7521	-3.0458	-2.7104	-3.0417	-2.9688	-2.5833	-3.1562	-2.8521	-2.6917	-3.1229	-2.9979	-2.8854	175.971	513.927	206.758	233.861	270.420	492.712	433.876	236.527	342.305	308.296	371.836	467.163	459.846	432.176	358.753	370.915	0.00073545	0.00027524	6.319e-05	505.41	4.8478e-06	6.3189e-07	653.55	111.54	6.9151e-06	8.3678e-07	193.23	60.835	25.761	7.2343	1.6295e-06	24.636	0.00024248	0.00022801	6.6035e-05	499.38	2.5143e-06	2.5177e-06	641.27	110.05	2.4984e-06	2.5013e-06	190.9	59.805	26.011	7.4801	2.4921e-06	24.633	375.991	237.754	225.386	181.678	260.823	452.778	181.337	186.425	338.447	409.127	185.789	190.440	190.475	195.779	374.400	195.944	-8191	255	
1475.551	1	1	0	0	0.078998	0.21787	0.060515	0.14409	0.26749	0.14512	0.22504	0.0064372	0.22259	0.22058	0.17756	0.29313	0.14096	0.062161	0.062753	0.26472	-2.6125	-2.4521	-2.975	-2.8792	-2.8125	-2.9479	-2.7458	-2.8312	-3.0896	-2.725	-3.0146	-3.075	-2.6437	-2.7875	-2.8333	-2.8417	512.131	440.640	433.671	409.450	215.480	360.152	304.397	345.601	347.913	414.343	435.172	502.657	483.937	490.809	200.824	395.364	0.00079369	0.00040388	3.4477e-05	500.54	1.5804e-06	3.6351e-06	647.91	110.17	3.7908e-06	4.1285e-06	193.7	60.119	25.521	7.175	2.1563e-06	24.723	0.00024184	0.00022972	6.5597e-05	495.68	2.5086e-06	2.5241e-06	637.4	109.41	2.5288e-06	2.5249e-06	190.64	59.48	25.896	7.45	2.5474e-06	24.716	391.439	238.809	280.082	181.503	483.155	274.301	181.151	186.318	315.352	362.386	185.443	190.815	190.369	196.158	281.421	195.240	-8191	255	
1475.670	1	1	0	0	0.056598	0.081154	0.429	0.0033917	0.21881	0.11617	0.18112	0.12719	0.17662	0.036851	0.047987	0.13812	0.067903	0.18728	0.12675	0.20692	-2.4979	-2.6333	-2.8021	-2.7313	-2.7854	-3.0187	-2.8896	-2.8667	-2.9146	-2.8146	-2.7375	-2.9625	-2.8521	-3.0833	-2.8063	-2.9542	193.053	424.745	222.557	346.429	380.484	388.038	450.252	493.683	169.972	340.802	268.492	470.017	206.680	292.405	254.527	498.549	0.00068254	0.00035456	0.00014227	500.15	1.13e-06	7.8639e-07	648.84	110.06	6.229e-06	2.8828e-06	193.01	60.439	25.764	7.2174	1.2295e-06	24.794	0.00024068	0.00023123	6.4766e-05	493.59	2.4991e-06	2.5159e-06	637.35	109.29	2.4865e-06	2.5387e-06	190.88	59.637	26.001	7.5038	2.5173e-06	24.637	366.595	258.452	250.390	181.518	261.707	486.703	181.112	186.437	307.042	300.473	185.703	191.095	190.637	195.898	238.210	195.026	-8191	255	
1475.766	1	1	0	0	0.024794	0.25656	0.094507	0.070492	0.22321	0.041892	0.09355	0.20313	0.2229	0.14533	0.20012	0.081993	0.16204	0.14745	0.080414	0.3265	-2.6771	-2.625	-2.8312	-3.0667	-2.8438	-2.9208	-3.0687	-2.7812	-3.0687	-2.8333	-2.9146	-3.1375	-2.5729	-3.1083	-3	-2.6813	266.648	349.125	331.526	237.179	404.586	419.644	234.241	387.689	503.962	254.552	197.968	371.167	269.062	338.657	512.959	219.448	0.00087146	0.00027158	8.3732e-05	501.42	1.2694e-06	1.7831e-06	648.37	110.29	1.2593e-06	1.8072e-06	192.72	60.568	25.829	7.2266	1.3442e-06	24.74	0.00024068	0.00022964	6.4e-05	496.67	2.4818e-06	2.5737e-06	638.1	109.29	2.5291e-06	2.5221e-06	191.01	59.86	26.093	7.5012	2.5323e-06	24.721	388.722	332.244	511.402	181.276	302.937	332.049	181.165	186.274	310.235	228.194	186.004	190.677	190.120	195.873	302.463	195.538	-8191	255	
1475.862	1	1	0	0	0.26685	0.10251	0.052972	0.15743	0.31158	0.09317	0.29161	0.13068	0.16943	0.031311	0.14545	0.24443	0.18199	0.2432	0.18343	0.12588	-2.7292	-2.8333	-2.7479	-3.025	-2.6458	-2.8146	-3.0812	-2.7146	-2.9854	-2.9042	-2.7958	-2.9729	-2.6333	-2.8542	-2.9062	-2.7375	399.272	359.292	488.912	495.266	197.729	408.743	436.535	369.272	343.935	497.115	391.132	526.005	440.266	521.166	434.289	228.298	0.00095012	0.00023534	0.00011361	501.45	5.9989e-06	7.1495e-06	650.11	111.64	5.1893e-06	3.4497e-06	193.62	61.132	25.883	7.1614	5.071e-06	24.747	0.0002402	0.00022739	6.3856e-05	497.93	2.5215e-06	2.5346e-06	639.73	110	2.5377e-06	2.553e-06	191.45	59.952	26.067	7.4551	2.5098e-06	24.634	381.017	210.450	330.753	181.838	314.827	314.534	181.298	186.316	313.715	270.398	185.990	190.917	190.726	195.642	356.508	195.704	-8191	255	
1475.983	1	1	0	0	0.076169	0.28421	0.21147	0.18065	0.22924	0.072288	0.15016	0.098535	0.09718	0.10607	0.14462	0.13428	0.27273	0.21405	0.050809	0.052084	-2.5458	-2.8458	-2.8875	-2.9854	-2.7792	-2.85	-2.9562	-2.7458	-2.9979	-2.9708	-2.7979	-3.0604	-2.7062	-2.8812	-3.1542	-2.7417	396.573	507.314	486.659	267.420	299.900	201.790	450.833	180.492	379.651	202.750	237.578	286.521	207.575	355.144	199.627	347.842	0.00079579	0.00010697	0.00015855	495.61	3.2622e-06	5.7078e-06	648.16	110.12	8.3193e-06	2.8776e-06	192.69	59.994	25.506	7.0667	3.3941e-06	24.378	0.00024522	0.00022949	6.4423e-05	494.53	2.538e-06	2.5293e-06	635.91	108.85	2.5207e-06	2.5536e-06	189.47	59.161	25.761	7.3673	2.496e-06	24.368	387.836	277.332	244.167	181.365	328.282	347.132	181.275	186.279	320.081	399.406	185.477	191.192	190.536	195.813	356.887	195.168	-8191	255	
1476.055	1	1	0	0	0.10054	0.16567	0.26393	0.23088	0.11272	0.09166	0.33064	0.14365	0.25344	0.20917	0.19816	0.11086	0.080931	0.17131	0.41737	0.12687	-2.5083	-2.8563	-2.6729	-2.9479	-2.9375	-2.6917	-2.9979	-2.6562	-2.8896	-2.8854	-2.8354	-2.9604	-2.8375	-2.7313	-3.0417	-2.9854	199.864	308.416	262.669	445.125	337.397	331.118	401.947	244.312	451.221	515.294	523.309	316.655	427.034	227.197	172.951	463.965	0.00077993	1.4719e-05	0.00011736	495.98	5.9351e-06	1.8049e-06	646.98	109.17	3.1934e-06	4.8643e-06	193.29	60.058	25.756	7.1239	9.735e-06	24.447	0.00024597	0.00022897	6.2732e-05	493.25	2.5119e-06	2.5246e-06	633.83	108.53	2.5466e-06	2.5278e-06	189.88	59.097	25.843	7.3992	2.508e-06	24.36	383.262	341.022	289.457	181.434	245.868	298.865	181.219	186.723	301.195	395.512	185.622	190.373	190.131	195.918	281.267	195.059	-8191	255	
1476.151	1	1	0	0	0.13082	0.063524	0.11066	0.021192	0.18906	0.052013	0.014192	0.072093	0.23994	0.23374	0.49311	0.17849	0.15665	0.1413	0.04216	0.22457	-2.3875	-2.9542	-2.5396	-2.9667	-2.7917	-2.9354	-3.2583	-2.7229	-2.9562	-2.8833	-2.8333	-3.1104	-2.8	-2.7542	-3.1063	-2.7208	312.526	525.693	429.934	241.622	233.467	368.294	227.989	472.475	396.812	512.917	454.489	484.030	401.021	460.708	261.657	350.024	0.00065454	0.00025658	4.6432e-05	499.14	3.0059e-06	5.7104e-06	645.39	109.73	4.5697e-06	2.8535e-06	193.03	59.909	25.609	7.069	3.4269e-06	24.471	0.00023872	0.00023033	6.3095e-05	493.66	2.4713e-06	2.512e-06	635.69	108.67	2.4873e-06	2.5233e-06	189.88	59.186	25.787	7.3459	2.5126e-06	24.403	373.820	298.647	377.947	181.790	475.061	383.831	181.140	185.831	295.422	364.825	185.596	190.875	190.380	195.869	320.916	195.292	-8191	255	
1476.271	1	1	0	0	0.24669	0.34919	0.049169	0.31165	0.083865	0.14777	0.12022	0.11222	0.13065	0.14824	0.14497	0.081064	0.23573	0.17608	0.34609	0.15795	-2.3688	-2.8583	-2.6521	-3.0917	-2.7604	-2.6479	-3.0896	-2.9917	-2.7938	-2.7687	-2.6375	-3.1271	-2.9354	-2.6688	-3.0062	-2.8688	178.357	173.909	171.430	222.053	502.078	230.790	372.627	372.899	450.027	429.863	446.732	195.981	454.600	225.667	303.207	427.780	0.00069946	0.00071933	0.00011662	499.62	4.0407e-06	1.2782e-06	650.7	109.61	3.4239e-06	1.6235e-06	192.27	60.378	25.437	7.1928	2.4921e-06	24.771	0.00024397	0.00022869	6.3537e-05	495.47	2.5009e-06	2.5254e-06	637.35	108.96	2.5478e-06	2.5228e-06	190.38	59.671	25.92	7.4415	2.5538e-06	24.619	381.637	228.759	198.608	181.589	350.937	302.154	181.216	186.283	241.344	281.427	185.903	190.948	190.783	196.260	265.944	195.470	-8191	255	
1476.368	1	1	0	0	0.34589	0.23203	0.10133	0.27133	0.24307	0.10649	0.081839	0.31707	0.25115	0.10984	0.24383	0.17805	0.13384	0.23342	0.36988	0.12685	-2.3271	-2.9979	-2.7542	-2.9875	-2.9917	-2.6104	-3.1667	-2.8083	-2.6979	-3.1667	-2.6667	-2.7542	-3.025	-2.7771	-2.95	-2.9896	298.055	425.852	212.988	385.417	479.413	338.050	462.814	188.456	346.495	427.771	176.719	194.027	446.985	224.602	203.588	461.615	0.00065652	0.00027878	6.6666e-05	500.41	1.865e-06	3.9124e-06	646.48	109.05	2.8708e-06	3.0682e-06	192.39	59.769	25.562	7.0588	4.2917e-06	24.368	0.00024175	0.00023389	6.3979e-05	494.47	2.54e-06	2.4879e-06	635.58	108.46	2.5134e-06	2.5577e-06	188.98	58.994	25.615	7.3117	2.5489e-06	24.246	384.197	282.395	258.929	181.344	528.293	319.504	181.202	186.574	369.039	321.905	185.217	190.806	190.276	196.029	283.269	195.236	-8191	255	
1476.464	1	1	0	0	0.25198	0.24474	0.3176	0.13861	0.031368	0.14367	0.021131	0.025343	0.24233	0.12382	0.16655	0.16364	0.19662	0.18955	0.19006	0.12324	-2.2125	-2.8917	-2.6208	-2.875	-3.0167	-2.5979	-3	-2.8375	-2.9167	-3.0354	-2.6083	-3.0125	-2.8958	-2.7021	-2.7396	-2.8	465.910	197.917	370.126	485.003	525.162	362.602	427.118	472.021	400.833	175.218	477.233	402.353	520.768	242.212	524.650	376.970	0.00064734	0.00019355	0.00013144	498.06	4.4434e-06	4.8478e-06	644.66	108.04	2.2402e-06	2.1939e-06	190.04	59.21	25.193	7.0263	1.6842e-06	24.158	0.00024055	0.00023865	6.6425e-05	492.96	2.5262e-06	2.5599e-06	631.27	107.39	2.5189e-06	2.5526e-06	187.56	58.515	25.5	7.29	2.6045e-06	24.17	395.362	420.703	288.907	181.078	318.035	373.627	181.515	186.160	346.822	343.333	185.855	190.928	190.251	195.277	231.397	195.287	-8191	255	
1476.584	1	1	0	0	0.088938	0.11738	0.25176	0.3113	0.13674	0.26093	0.27309	0.058559	0.26226	0.18167	0.1643	0.14591	0.01471	0.12566	0.092338	0.19826	-2.3292	-3.0208	-2.6292	-2.7375	-3.1604	-2.7687	-2.9688	-2.9625	-2.7583	-3.0167	-2.8042	-2.8979	-3.0458	-2.5792	-2.9167	-2.8521	294.612	383.551	475.735	170.041	433.395	495.154	407.314	258.184	525.941	423.806	187.649	377.880	170.316	426.411	210.880	428.779	0.00082063	0.00021696	0.00012224	492.68	3.2049e-06	4.5868e-06	640.73	107.28	6.2844e-06	2.499e-06	188.44	59.606	24.974	6.9826	3.1377e-06	24.257	0.00024423	0.00023976	6.5935e-05	488.67	2.556e-06	2.6048e-06	629.83	106.95	2.5711e-06	2.6252e-06	186.83	58.613	25.499	7.2704	2.6125e-06	24.173	379.789	212.860	203.321	181.466	271.761	300.168	180.990	186.114	271.664	325.830	185.509	190.476	190.253	195.411	250.255	195.501	-8191	255	
1476.656	1	1	0	0	0.18601	0.063229	0.12786	0.35689	0.073455	0.13798	0.075585	0.053305	0.20198	0.27184	0.13452	0.38679	0.21583	0.14309	0.26504	0.054694	-2.2125	-3.0083	-2.7062	-2.8354	-3.1188	-2.8125	-2.9667	-3.0479	-2.725	-2.975	-2.7854	-2.8688	-2.9708	-2.7979	-2.8042	-2.9667	407.011	213.982	451.772	468.095	200.328	436.246	279.948	366.081	245.518	444.045	185.807	509.555	299.293	527.019	506.587	306.250	0.00077923	0.00039189	0.00011616	494.7	1.8571e-06	3.6391e-06	638.96	107.44	4.8954e-06	2.9701e-06	189.4	59.053	24.776	7.016	3.8443e-06	24.034	0.00024139	0.00024042	6.5281e-05	490.49	2.5363e-06	2.559e-06	627.92	106.85	2.5458e-06	2.6095e-06	186.58	58.397	25.39	7.2521	2.5973e-06	24.02	384.732	459.861	258.460	181.566	340.870	351.913	181.205	186.058	269.891	259.257	185.779	190.887	190.433	196.149	215.723	195.240	-8191	255	
1476.750	1	1	0	0	0.14615	0.14046	0.10242	0.31533	0.2336	0.12346	0.1247	0.18109	0.18823	0.094333	0.20366	0.053385	0.19333	0.18889	0.25717	0.16373	-2.2625	-3.025	-2.7958	-2.5104	-2.9583	-2.7979	-2.9771	-3.1792	-2.6292	-2.9917	-2.9625	-2.725	-3.0354	-2.7708	-2.7812	-3.0938	231.884	359.939	236.742	291.368	521.359	203.636	447.804	364.954	300.817	409.431	242.580	363.641	362.574	429.000	220.316	488.450	0.00075565	0.00047248	3.3274e-05	490.82	4.428e-06	2.2554e-06	641.25	107.12	3.2385e-06	8.5541e-07	189.23	59.128	25.102	6.8835	1.611e-06	23.809	0.00024111	0.00023747	6.4788e-05	491.12	2.5824e-06	2.562e-06	631.33	106.64	2.5423e-06	2.6238e-06	186.98	58.339	25.455	7.204	2.5947e-06	23.87	380.364	201.303	348.801	181.843	326.688	264.852	181.184	186.302	226.421	219.280	185.765	191.019	190.311	195.985	306.102	195.510	-8191	255	
1476.847	1	1	0	0	0.16651	0.14741	0.091566	0.31234	0.40559	0.13176	0.33337	0.068708	0.28434	0.22002	0.21476	0.16527	0.094689	0.1056	0.081177	0.096978	-2.1729	-2.9375	-2.8042	-2.6917	-2.8771	-2.7646	-2.9	-3.0229	-2.7958	-2.7417	-2.925	-2.7	-2.9646	-2.5479	-2.8167	-3.0146	427.547	342.023	512.450	211.672	405.598	171.979	510.260	245.062	429.374	348.574	478.268	464.966	287.968	371.005	366.831	360.235	0.00075851	3.3205e-05	6.3517e-05	494.89	3.2313e-06	3.1688e-06	637.19	106.79	5.4521e-06	2.1214e-06	187.78	58.685	24.625	6.8663	5.748e-06	23.968	0.00024106	0.00023908	6.6231e-05	489.98	2.6079e-06	2.5666e-06	626.07	106.35	2.5898e-06	2.6283e-06	185.35	57.782	25.168	7.2072	2.5726e-06	23.847	389.943	249.338	229.712	181.634	268.007	397.959	181.002	186.327	272.195	293.276	185.678	191.041	190.584	196.136	314.623	195.214	-8191	255	
1476.967	1	1	0	0	0.30584	0.25075	0.05202	0.17466	0.30324	0.20698	0.073363	0.12507	0.22709	0.10244	0.10055	0.063591	0.33215	0.23969	0.022661	0.2063	-2.2938	-2.95	-2.85	-2.7083	-3.0958	-2.7979	-3.0229	-3.05	-2.875	-2.8583	-3.0229	-2.7271	-3.0563	-2.8458	-2.9062	-3.0729	406.797	294.305	507.947	182.070	299.633	395.083	490.240	352.291	505.102	398.647	439.999	373.453	185.172	473.332	373.727	172.392	0.00066485	0.00024886	2.841e-05	492.32	2.6759e-06	3.1597e-06	645.05	107.3	3.5117e-06	4.7193e-06	188.9	58.74	25.073	6.9326	1.148e-06	24.075	0.00024743	0.00024033	6.621e-05	489.31	2.6193e-06	2.6211e-06	628.71	106.61	2.5336e-06	2.6269e-06	186.47	58.017	25.48	7.2692	2.5895e-06	24.075	392.910	231.075	168.702	181.371	443.010	289.834	181.281	185.807	280.179	370.518	185.507	190.996	190.141	195.780	258.030	195.273	-8191	255	
1477.063	1	1	0	0	0.31525	0.31923	0.050189	0.09651	0.11207	0.17804	0.31856	0.069235	0.12185	0.2842	0.11654	0.089143	0.050788	0.17554	0.28537	0.06354	-2.4083	-2.8875	-2.8542	-2.4708	-2.9771	-2.8208	-2.7938	-3.0625	-2.9167	-2.8229	-2.9833	-2.5917	-2.9125	-2.9271	-2.6688	-3.0187	419.616	419.276	525.124	273.476	305.307	306.536	482.664	475.428	217.633	510.634	354.368	497.939	200.671	168.192	171.304	359.396	0.00071993	0.00011336	0.00015657	490.61	1.3463e-06	1.7959e-06	642.18	108.05	3.6418e-06	2.7922e-06	190.61	59.203	25.263	6.992	7.5691e-06	24.506	0.00024748	0.00024461	6.723e-05	490.46	2.6514e-06	2.6018e-06	630.05	107.48	2.6459e-06	2.6227e-06	187.74	58.701	25.678	7.3326	2.5787e-06	24.386	384.922	231.660	283.353	181.701	196.372	212.230	181.144	186.031	268.823	374.749	185.954	190.731	190.650	195.537	298.514	195.183	-8191	255	
1477.160	1	1	0	0	0.18344	0.12013	0.28026	0.23062	0.13035	0.20477	0.10869	0.077852	0.2416	0.18658	0.041703	0.14869	0.33053	0.11608	0.169	0.09981	-2.5062	-2.8583	-3.0187	-2.7042	-2.9604	-2.8937	-2.8354	-3.05	-2.9417	-2.7708	-2.8875	-2.8604	-2.775	-2.9188	-2.6521	-3.1229	314.928	320.481	260.309	510.425	357.902	299.420	433.600	381.973	394.753	294.196	445.397	207.024	344.671	168.560	372.706	277.803	0.00062794	0.00014159	0.00016019	496.12	5.9884e-06	7.8413e-06	646.28	108.78	3.2443e-06	1.3929e-06	192.12	59.927	25.369	7.0525	1.7597e-06	24.562	0.00024803	0.00023942	6.668e-05	492.95	2.701e-06	2.6647e-06	633.47	108.57	2.6322e-06	2.5982e-06	189.67	59.393	25.904	7.4115	2.6214e-06	24.56	387.573	227.525	258.822	181.706	283.581	369.955	180.840	186.387	294.065	234.779	185.850	191.150	190.218	195.671	500.871	195.286	-8191	255	
1477.231	1	1	0	0	0.21196	0.083804	0.19839	0.37057	0.18391	0.1319	0.16926	0.098605	0.14179	0.035798	0.22006	0.20954	0.054329	0.2488	0.24753	0.18328	-2.4854	-2.85	-3.0729	-2.9062	-2.9729	-3.0625	-2.8583	-3.1021	-2.9354	-2.6333	-3.2812	-2.6729	-2.7479	-2.7917	-2.575	-3.0292	436.652	294.071	439.497	424.135	311.507	411.842	486.584	359.566	254.570	408.153	485.423	335.242	264.978	243.936	403.827	251.390	0.00084491	0.00043073	3.1296e-05	495.37	3.1568e-06	4.4552e-06	642.89	108.94	5.376e-06	4.7852e-06	191.56	59.302	25.16	7.0064	1.9828e-06	24.244	0.00024943	0.00024332	6.747e-05	494.48	2.7021e-06	2.6369e-06	632.94	108.32	2.6416e-06	2.598e-06	189.29	58.925	25.653	7.3372	2.5694e-06	24.26	385.701	419.266	283.793	181.362	332.165	341.175	181.236	186.547	224.314	334.486	185.759	190.726	190.327	196.044	283.188	195.302	-8191	255	
1477.352	1	1	0	0	0.37799	0.101	0.11974	0.14408	0.28103	0.19141	0.24172	0.037088	0.0053	0.07147	0.087316	0.2134	0.026506	0.17246	0.15631	0.099435	-2.4125	-2.6354	-3.0354	-2.65	-2.6854	-3.2167	-2.7729	-2.9	-3.0146	-2.9	-3.3708	-2.7375	-2.8563	-2.9896	-2.675	-3.1083	502.196	470.036	232.968	510.607	492.096	403.352	406.227	461.432	210.231	356.673	411.798	258.525	375.855	522.173	382.731	473.121	0.00073921	0.00021405	0.00010052	493.07	1.1439e-06	1.8339e-06	641.8	108.32	5.8656e-06	3.123e-06	191.51	59.371	25.246	6.9999	1.9213e-06	24.191	0.00024555	0.00023509	6.7996e-05	490.62	2.6401e-06	2.6143e-06	630.8	107.65	2.5973e-06	2.5854e-06	188.14	58.486	25.715	7.3095	2.5557e-06	24.255	389.603	232.812	217.422	181.736	301.764	460.716	181.221	186.285	311.145	342.229	185.926	191.251	190.052	195.338	368.368	195.225	-8191	255	
1477.448	1	1	0	0	0.23166	0.12614	0.13429	0.035246	0.1957	0.094951	0.23095	0.1459	0.060067	0.2606	0.30339	0.23172	0.10815	0.0219	0.19074	0.052539	-2.7938	-2.8354	-3.0187	-2.7812	-2.7479	-2.9979	-2.7021	-2.9875	-3.0229	-2.8688	-3.1229	-2.9708	-2.8063	-2.9833	-2.7396	-2.9688	176.656	322.800	389.019	266.235	437.732	215.109	474.180	440.425	508.000	504.622	193.189	522.573	276.606	457.767	324.492	366.782	0.00073611	0.00020122	8.6737e-05	502.34	1.1451e-06	2.1868e-06	639.81	108.51	5.6173e-06	1.1124e-06	190.61	59.563	25.218	7.0697	4.0505e-06	24.472	0.00024426	0.00023927	6.6899e-05	493.85	2.5961e-06	2.5827e-06	630.93	107.85	2.5976e-06	2.591e-06	188.63	58.898	25.676	7.3463	2.6277e-06	24.375	394.237	206.498	322.577	181.069	432.709	287.463	181.258	186.203	317.496	329.119	185.850	190.608	190.096	195.805	259.134	195.159	-8191	255	
1477.544	1	1	0	0	0.091563	0.25624	0.20414	0.17069	0.12445	0.13284	0.063896	0.1218	0.10838	0.19983	0.22812	0.18433	0.30062	0.085019	0.046587	0.014851	-2.4917	-2.55	-3.225	-2.8771	-2.7042	-3.025	-2.9313	-2.9521	-2.9854	-2.5979	-3.0875	-2.8875	-2.6667	-2.9333	-2.8792	-2.8479	414.815	465.655	211.705	261.381	415.107	456.439	298.805	348.637	452.412	198.791	454.355	445.106	469.334	201.726	271.483	373.964	0.00068549	8.2989e-05	6.0327e-05	498	1.2378e-06	1.574e-06	645.09	108.48	5.7059e-06	2.2223e-06	190.69	60.274	25.22	7.1069	6.1625e-06	24.594	0.00025014	0.00023518	6.7959e-05	494	2.6272e-06	2.6287e-06	632.92	108.18	2.6452e-06	2.5919e-06	189.41	59.376	25.862	7.4237	2.6099e-06	24.481	384.323	402.964	325.159	181.383	183.364	325.897	181.377	186.032	328.113	389.627	185.887	190.852	190.802	196.252	350.353	195.364	-8191	255	
1477.665	1	1	0	0	0.28087	0.17842	0.074103	0.13698	0.21342	0.15904	0.30996	0.04937	0.32832	0.19904	0.18693	0.1837	0.12887	0.075247	0.19234	0.31379	-2.5854	-2.5729	-3.0062	-2.8083	-2.6896	-3.05	-2.8333	-2.6833	-2.8521	-2.7771	-3.0333	-2.9	-2.7479	-3.0271	-2.9396	-2.9271	496.531	480.142	239.171	498.421	246.544	408.960	440.735	384.446	384.435	310.032	170.875	186.556	296.941	512.477	406.942	498.058	0.00074843	0.00020601	9.9925e-05	497.95	9.6607e-07	2.0556e-06	649.36	109.24	4.0811e-06	9.7594e-07	193.51	60.094	25.187	7.1072	1.718e-06	24.503	0.0002493	0.00023809	6.8361e-05	494.24	2.615e-06	2.6563e-06	636.06	108.94	2.6638e-06	2.6264e-06	189.85	59.37	25.802	7.396	2.6557e-06	24.488	375.857	177.867	262.143	181.729	441.753	311.302	181.370	186.214	199.495	201.870	185.737	191.120	190.460	195.778	334.675	195.313	-8191	255	
1477.761	1	1	0	0	0.2563	0.22196	0.18456	0.32026	0.23709	0.31619	0.1649	0.16171	0.12413	0.012033	0.241	0.13156	0.20501	0.1841	0.13622	0.10921	-2.6021	-2.7542	-2.9125	-3.1125	-2.7479	-2.9292	-2.9125	-2.9229	-3.2167	-2.9062	-3.0708	-2.9979	-2.6312	-3.0396	-2.9729	-2.7313	468.447	451.910	281.015	192.943	170.466	437.099	244.864	468.662	241.742	476.613	430.206	304.163	187.763	278.666	370.590	419.637	0.00075211	0.00032636	7.2491e-05	495	3.0074e-06	6.2782e-07	642.35	109.28	4.5806e-06	1.8014e-06	191.64	59.504	25.266	7.0735	1.4063e-06	24.121	0.00025035	0.00023727	6.7828e-05	490.97	2.61e-06	2.6191e-06	632.06	108.15	2.6577e-06	2.5658e-06	188.53	58.574	25.61	7.3535	2.6097e-06	24.2	385.987	214.529	244.333	181.355	277.020	232.194	181.275	186.203	248.253	307.374	185.758	190.293	190.825	195.772	184.470	195.774	-8191	255	
1477.855	1	1	0	0	0.12531	0.20217	0.10985	0.014902	0.13589	0.079898	0.19943	0.3737	0.0038873	0.33544	0.27833	0.096948	0.17521	0.17669	0.19148	0.12058	-2.7708	-2.6312	-2.7021	-2.975	-2.6875	-3.0625	-3.05	-2.7958	-3.0396	-2.7646	-2.825	-3.0229	-2.7083	-2.8563	-2.9333	-2.6042	413.878	216.470	442.007	227.480	487.214	487.715	419.390	272.958	449.439	187.115	488.678	201.636	402.682	252.035	487.722	458.599	0.00075535	0.00017351	5.9271e-05	496.89	2.7813e-06	2.7545e-06	639.53	108.43	4.3029e-06	2.4958e-06	191.21	59.295	25.269	7.0526	2.7535e-06	24.272	0.00024617	0.00023834	6.6411e-05	491.69	2.5874e-06	2.6596e-06	630.69	107.95	2.6283e-06	2.6165e-06	188.9	58.727	25.654	7.3487	2.5918e-06	24.307	383.488	197.265	271.244	181.802	263.181	391.349	181.180	185.924	432.301	347.428	185.445	190.516	190.641	195.272	278.445	195.538	-8191	255	
1477.951	1	1	0	0	0.32915	0.20018	0.14345	0.38782	0.21552	0.13861	0.20494	0.28461	0.14126	0.17804	0.11223	0.058727	0.06813	0.10036	0.27161	0.2408	-2.4458	-2.8688	-2.8771	-2.8708	-2.5938	-3.0062	-3.0938	-2.7583	-2.9813	-2.9833	-2.625	-3.1813	-2.7479	-2.8125	-3.0021	-2.7771	372.637	426.395	341.509	314.431	265.284	435.765	421.944	460.824	494.979	196.020	491.561	414.123	247.922	462.582	385.253	262.025	0.00079691	0.00017637	0.00012271	496.02	2.1402e-06	2.1699e-06	641.59	108.55	4.6543e-06	3.4645e-07	191.48	59.922	25.351	7.0845	1.9596e-06	24.522	0.00025087	0.00024139	6.6211e-05	492.73	2.5788e-06	2.6565e-06	631.45	108.1	2.645e-06	2.6169e-06	189.14	59.156	25.732	7.4455	2.6449e-06	24.472	391.299	197.098	302.924	181.343	487.478	359.426	181.517	185.828	283.477	222.394	185.631	190.831	190.784	195.706	336.048	195.205	-8191	255	
1478.048	1	1	0	0	0.073248	0.19663	0.10341	0.11472	0.14437	0.22889	0.18337	0.075878	0.11073	0.12696	0.56134	0.27516	0.26559	0.0731	0.23476	0.26208	-2.7604	-2.8917	-2.7583	-2.9938	-2.7396	-3.2896	-3.0021	-2.5708	-2.9542	-3.0312	-2.8438	-3.1146	-2.8208	-2.7938	-2.9938	-2.775	202.309	347.376	337.367	398.943	429.870	507.796	209.011	377.813	405.314	499.952	489.650	470.694	432.247	252.542	443.305	435.929	0.00074543	0.00025701	0.00012367	495.23	2.8719e-06	5.283e-06	646.65	109.76	4.843e-06	2.279e-06	192.54	60.505	25.671	7.1317	3.567e-06	24.707	0.0002551	0.00023962	6.6691e-05	492.67	2.6638e-06	2.7122e-06	634.98	109.06	2.7071e-06	2.6933e-06	190.22	59.642	26.048	7.4626	2.7317e-06	24.681	384.736	214.532	222.730	181.927	303.825	359.318	181.431	186.285	322.641	384.068	185.637	191.054	190.417	195.550	321.338	195.243	-8191	255	
1478.144	1	1	0	0	0.22886	0.15626	0.30927	0.10594	0.16755	0.15759	0.042796	0.32075	0.035202	0.22407	0.083173	0.0759	0.11023	0.18148	0.067324	0.15253	-2.6292	-2.8479	-2.6312	-2.9604	-2.8875	-2.8958	-3.1792	-2.5708	-2.9	-3.0396	-2.6937	-3.1208	-2.6688	-2.8771	-3.2	-2.7062	266.477	238.324	361.997	419.128	326.608	457.213	328.734	174.889	336.635	303.945	372.057	171.623	508.345	219.266	221.541	324.046	0.0006853	0.00015069	6.2832e-05	501.51	1.6601e-06	6.6535e-06	641.89	109.18	2.234e-06	1.4683e-06	191.68	59.859	25.383	7.0861	7.9036e-06	24.422	0.00025807	0.00024831	6.8776e-05	495.41	2.7237e-06	2.7197e-06	633.83	108.66	2.7245e-06	2.734e-06	189.55	58.964	25.73	7.4141	2.6831e-06	24.389	381.439	359.879	318.984	181.349	336.447	359.076	181.290	186.183	221.787	321.353	185.661	190.636	190.705	195.257	168.813	195.126	-8191	255	
1478.264	1	1	0	0	0.21678	0.25319	0.05122	0.15443	0.10738	0.15006	0.091785	0.21301	0.28369	0.30676	0.034765	0.046429	0.11758	0.090436	0.11998	0.057714	-2.6292	-2.9083	-2.6917	-2.9125	-2.8271	-2.8417	-3.2354	-2.6021	-2.9708	-3.0083	-2.7271	-2.975	-2.7646	-2.5333	-3.1833	-2.8125	496.663	181.297	513.994	509.655	508.671	333.700	342.308	458.927	315.219	249.940	335.852	231.935	459.886	243.365	467.800	242.329	0.00066187	6.481e-05	0.00016382	493.15	2.3494e-06	2.2761e-06	641.55	108.1	5.2685e-06	1.3611e-06	190.82	59.253	25.141	7.0522	3.1702e-06	24.381	0.00025665	0.00024379	6.78e-05	490.71	2.6452e-06	2.6836e-06	630.9	107.95	2.6463e-06	2.6682e-06	188.8	58.873	25.613	7.3653	2.6374e-06	24.333	385.499	194.574	275.245	181.361	376.640	342.882	181.022	186.384	322.820	345.219	185.791	191.201	190.317	195.898	348.625	194.956	-8191	255	
1478.361	1	1	0	0	0.068907	0.15171	0.20843	0.18643	0.078675	0.036195	0.25659	0.20841	0.085923	0.05854	0.10385	0.24771	0.29103	0.059919	0.17324	0.13774	-2.525	-2.9667	-2.6042	-3.1271	-2.8063	-2.9458	-2.9896	-2.7604	-3.0312	-2.9958	-2.7438	-2.9771	-2.9083	-2.7229	-3.1333	-2.6937	257.716	385.463	318.481	444.265	384.059	485.426	479.532	321.510	487.436	337.683	278.388	424.265	428.226	416.484	236.312	325.185	0.000754	8.3213e-05	0.00011235	493.19	2.4425e-06	1.0499e-06	643.96	108.69	3.4091e-06	1.3267e-06	190.99	59.809	25.552	7.0955	4.5507e-06	24.232	0.00024668	0.00024164	6.6709e-05	491.19	2.6709e-06	2.6533e-06	631.79	108.5	2.6672e-06	2.6395e-06	188.92	59.096	25.829	7.3945	2.6709e-06	24.415	379.334	270.773	184.891	182.165	390.080	238.076	181.160	186.429	312.001	316.930	185.630	190.986	190.259	196.430	245.148	195.097	-8191	255	
1478.455	1	1	0	0	0.010532	0.12217	0.081091	0.14512	0.2296	0.2248	0.18682	0.11039	0.23471	0.1164	0.26799	0.15463	0.18977	0.15166	0.11753	0.062184	-2.3458	-2.9229	-2.5729	-2.9667	-2.8479	-2.5771	-3.1375	-2.8521	-2.7583	-2.9104	-2.7208	-2.7958	-2.9354	-2.7375	-3.0292	-2.825	268.296	502.761	437.345	187.904	257.182	364.250	430.655	217.856	473.858	509.453	320.677	457.444	464.989	358.448	173.417	428.198	0.00072166	0.00053082	6.1356e-05	497.17	1.5693e-06	4.6269e-06	643.67	109.5	3.7992e-06	3.1148e-06	194.09	60.098	25.636	7.1605	8.9256e-07	24.669	0.00025059	0.00024302	6.7567e-05	492.89	2.6045e-06	2.6495e-06	633.26	108.73	2.6496e-06	2.6733e-06	190.22	59.355	26.03	7.4537	2.6795e-06	24.72	379.249	253.161	216.975	181.665	313.448	353.489	181.285	186.540	253.355	289.792	186.370	190.894	190.593	195.997	439.909	194.991	-8191	255	
1478.527	1	1	0	0	0.12938	0.33851	0.12572	0.14728	0.062424	0.39872	0.16831	0.018151	0.12511	0.23605	0.11036	0.11859	0.20921	0.04473	0.1213	0.12745	-2.4208	-2.9375	-2.6104	-2.8312	-3.0333	-2.575	-2.9313	-2.9625	-2.6771	-3.1396	-2.7417	-2.9417	-3.1562	-2.6708	-2.9417	-2.9854	176.023	477.203	398.641	350.596	367.988	393.542	427.987	247.657	341.359	312.833	496.244	309.931	415.084	302.735	198.475	397.725	0.00068504	0.00010901	3.4667e-05	497.62	7.9476e-07	2.9549e-06	645.83	110.2	7.22e-06	8.607e-07	193.03	60.169	25.575	7.1945	4.3458e-06	24.509	0.00025276	0.00024658	6.818e-05	494.62	2.6543e-06	2.6519e-06	635.15	109.55	2.6522e-06	2.6711e-06	190.8	59.631	26.066	7.4909	2.6578e-06	24.65	383.221	480.410	222.420	181.894	479.848	321.986	181.076	186.261	277.513	321.110	185.636	190.823	190.287	195.469	359.364	195.323	-8191	255	
1478.623	1	1	0	0	0.26295	0.14889	0.036067	0.26795	0.132	0.14073	0.18445	0.079615	0.097634	0.056509	0.27801	0.21547	0.2212	0.17024	0.099025	0.18297	-2.3292	-2.8833	-2.6292	-2.7167	-2.9896	-2.5854	-2.9333	-2.8854	-2.5667	-2.8583	-2.8271	-2.6479	-3.0021	-2.6125	-3.0354	-3.025	326.683	291.406	458.080	498.073	198.014	410.459	443.849	327.185	476.478	511.942	245.331	435.931	182.860	267.737	401.972	363.447	0.00082641	2.1651e-05	5.3289e-05	494.67	4.4949e-06	3.9282e-06	645.36	109.01	4.2374e-06	2.7652e-06	192.38	59.517	25.473	7.1342	3.41e-06	24.507	0.00025058	0.00024602	6.929e-05	492.5	2.6857e-06	2.6509e-06	632.72	108.63	2.6858e-06	2.6949e-06	189.39	58.802	25.86	7.4069	2.6807e-06	24.436	383.791	365.102	234.265	181.869	316.739	363.227	181.484	186.285	302.225	259.276	185.644	190.665	190.301	195.691	209.762	195.223	-8191	255	
1478.743	1	1	0	0	0.050023	0.37907	0.088393	0.36365	0.18854	0.23052	0.041767	0.10508	0.13353	0.15523	0.18814	0.18681	0.14314	0.1553	0.081574	0.20398	-2.3646	-2.9333	-2.9042	-2.7938	-3.0708	-2.6896	-3.0667	-2.8125	-2.8771	-3.1188	-2.7812	-2.7458	-2.9	-2.7396	-2.8271	-2.9146	231.995	510.184	343.826	237.021	428.633	427.467	493.758	188.281	480.221	252.657	259.618	255.955	381.068	321.859	324.041	386.842	0.00073191	0.00050501	6.2641e-05	495.65	1.4763e-06	4.7012e-06	644.47	109.65	2.1005e-06	7.341e-06	191.45	59.728	25.406	7.141	6.9951e-06	24.468	0.00024669	0.00024447	6.7573e-05	491.59	2.6514e-06	2.6827e-06	631.42	108.63	2.6165e-06	2.6552e-06	189.12	58.879	25.768	7.417	2.6419e-06	24.551	377.593	231.718	216.193	181.292	283.088	209.254	181.233	186.207	228.890	359.148	185.401	190.914	190.292	196.000	291.015	195.370	-8191	255	
1478.840	1	1	0	0	0.059678	0.20887	0.047096	0.019893	0.26213	0.12921	0.28558	0.17285	0.11486	0.16551	0.18602	0.18999	0.14698	0.20442	0.23901	0.14829	-2.2792	-2.9958	-2.9521	-2.8563	-3.3292	-2.65	-2.8521	-3.3125	-2.7396	-2.9417	-2.7354	-2.6917	-3.1042	-2.7333	-2.6604	-3.0875	206.256	351.083	458.327	396.853	460.434	361.981	401.433	368.866	443.414	299.956	410.872	268.368	182.512	360.368	244.082	197.189	0.0008086	9.8515e-05	5.6014e-05	493.12	1.0527e-06	1.4521e-06	644.12	109.36	2.2382e-06	2.4711e-06	193.05	60.399	25.426	7.1483	4.9864e-06	24.521	0.00025234	0.00024102	6.5446e-05	490.88	2.6225e-06	2.556e-06	633.24	109.15	2.6359e-06	2.6209e-06	190.52	59.498	25.921	7.4584	2.6096e-06	24.5	387.811	322.932	259.271	181.505	421.019	173.004	181.203	186.272	272.311	290.894	185.750	190.770	190.583	195.895	334.303	195.342	-8191	255	
1478.936	1	1	0	0	0.19127	0.17606	0.18794	0.080989	0.046552	0.10514	0.15401	0.040777	0.14443	0.079693	0.20672	0.20769	0.16845	0.20937	0.15165	0.062734	-2.3312	-2.7729	-2.9125	-2.6167	-3.0521	-2.6583	-3.0417	-2.9354	-2.7396	-2.8688	-3.0687	-2.7604	-3.0792	-2.8625	-2.8104	-3.1083	249.761	437.292	297.698	485.701	490.111	413.312	419.519	257.504	380.628	218.364	218.768	475.483	525.234	169.366	344.532	349.481	0.00070182	0.00034111	6.3225e-05	495.14	5.2343e-06	3.0154e-06	647.91	109.7	5.7816e-06	1.2512e-06	194.54	60.58	25.722	7.1578	2.4443e-06	24.717	0.00024727	0.00024025	6.7135e-05	491.79	2.6427e-06	2.6107e-06	635.34	109.35	2.6111e-06	2.6186e-06	191.23	60.031	26.012	7.4692	2.6304e-06	24.725	382.741	333.936	264.532	181.575	260.291	222.374	181.490	186.488	347.344	405.595	185.762	190.827	190.336	195.716	279.228	195.221	-8191	255	
1479.032	1	1	0	0	0.051927	0.055767	0.18676	0.2594	0.0284	0.094125	0.26142	0.25181	0.038483	0.2438	0.15972	0.13496	0.14731	0.11291	0.095128	0.3558	-2.2125	-2.9104	-2.9104	-2.8479	-3.0958	-2.9188	-2.6875	-3.1271	-2.6458	-2.9062	-2.9292	-2.7771	-3	-2.9688	-2.8125	-2.9188	215.968	287.732	251.765	283.229	171.636	298.192	484.688	377.773	326.210	172.618	252.424	479.292	230.216	354.438	429.804	416.621	0.0008741	0.00015348	7.2777e-05	501.72	3.3392e-06	7.1758e-06	646.66	110.37	7.2499e-06	7.0053e-07	192.09	59.561	25.379	7.0854	5.7632e-06	24.497	0.00024811	0.00024367	6.7068e-05	495.73	2.6723e-06	2.6232e-06	633.4	109.13	2.6255e-06	2.6512e-06	189.85	58.98	25.776	7.418	2.6091e-06	24.455	387.685	315.455	265.805	181.062	325.884	351.144	180.922	186.355	285.282	526.572	185.674	190.846	190.611	196.279	274.843	194.949	-8191	255	
1479.151	1	1	0	0	0.23842	0.11881	0.18424	0.1483	0.047893	0.031806	0.19813	0.12217	0.11695	0.16761	0.22305	0.2434	0.13248	0.12421	0.12944	0.087451	-2.3438	-2.8354	-2.875	-2.5458	-3	-2.925	-2.8146	-2.9	-2.6917	-2.9146	-3.2875	-2.5979	-3.0083	-2.9521	-2.7708	-3.0271	247.127	402.922	339.408	342.196	190.304	279.290	439.176	193.330	462.165	415.106	455.824	173.586	516.800	497.652	460.049	385.829	0.000791	0.0004988	4.1992e-05	495.75	1.894e-06	1.6146e-06	639.93	108.95	2.2766e-06	2.9627e-06	191.31	59.317	25.331	7.0914	3.3119e-06	24.442	0.00024455	0.00023979	6.7391e-05	490.95	2.6508e-06	2.6178e-06	630.2	108.25	2.627e-06	2.6196e-06	188.87	58.805	25.69	7.3867	2.6822e-06	24.369	376.532	518.795	317.670	181.869	340.655	325.564	181.107	186.288	255.850	301.532	185.755	191.011	190.504	195.775	220.525	195.100	-8191	255	
1479.224	1	1	0	0	0.1589	0.10358	0.41733	0.16167	0.12645	0.18819	0.37453	0.03799	0.16219	0.27412	0.1064	0.29239	0.15543	0.16805	0.1571	0.2356	-2.2604	-2.7042	-3.1104	-2.65	-3.075	-2.8646	-2.5771	-2.9292	-2.7687	-2.6375	-2.9521	-2.6208	-3.1708	-2.8354	-2.5375	-3.0667	455.504	425.721	445.222	518.998	280.714	412.036	484.754	470.718	182.685	207.075	416.721	493.023	341.851	386.225	374.914	363.678	0.00061604	0.00019418	9.3145e-05	490.58	2.8541e-06	2.7861e-06	641.19	109.25	3.2213e-06	5.0271e-06	191.23	59.858	25.117	7.0941	2.929e-06	24.333	0.00024818	0.00024083	6.7873e-05	488.83	2.7109e-06	2.6294e-06	629.4	108.2	2.6492e-06	2.6533e-06	188.52	58.909	25.737	7.4076	2.6518e-06	24.375	381.616	195.401	266.701	181.559	431.087	347.330	181.231	186.317	307.558	271.058	185.901	190.747	190.364	196.710	311.844	195.378	-8191	255	
1479.343	1	1	0	0	0.19019	0.24914	0.060248	0.15582	0.13792	0.17162	0.36518	0.076001	0.37579	0.21302	0.13102	0.070258	0.073751	0.065986	0.42572	0.18844	-2.2729	-2.8792	-3.0021	-2.6333	-2.8833	-3.0542	-2.6708	-2.9271	-2.8625	-2.6312	-3.1312	-2.8271	-2.9729	-3.0062	-2.7042	-2.9042	347.943	382.158	435.968	371.353	253.923	317.827	475.555	511.545	333.781	439.865	206.765	413.060	310.894	279.825	272.431	449.936	0.00081653	0.00036884	0.00011278	495.8	1.2206e-06	3.0048e-06	641.28	109.49	5.1209e-06	2.7075e-06	190.91	59.96	25.484	7.0646	5.1902e-06	24.385	0.00025122	0.00024147	6.8298e-05	490.86	2.6875e-06	2.6748e-06	630.53	108.59	2.6289e-06	2.6428e-06	189.37	59.203	25.924	7.4137	2.6612e-06	24.478	375.979	254.617	245.057	181.538	299.151	354.927	181.227	186.482	252.687	488.054	186.011	190.841	189.907	195.543	172.333	195.435	-8191	255	
1479.439	1	1	0	0	0.20149	0.12424	0.26527	0.18049	0.28901	0.12197	0.16194	0.14062	0.096921	0.21766	0.15125	0.071499	0.1566	0.035879	0.11031	0.12036	-2.4	-2.6646	-3.0563	-2.8542	-2.9583	-3.0563	-2.8104	-2.9021	-3.0646	-2.6417	-3.0042	-2.5687	-2.8542	-3.075	-2.8021	-3.1958	195.785	242.294	247.950	284.117	256.112	457.551	483.435	428.109	515.467	174.828	455.474	310.065	453.139	272.215	345.356	494.862	0.00076669	0.00019182	3.098e-05	493.56	3.876e-06	3.6333e-06	642.63	108.46	1.2612e-06	2.287e-06	191.41	59.935	25.339	7.0804	4.7026e-06	24.081	0.00025163	0.00024088	6.7928e-05	490.08	2.7264e-06	2.7054e-06	630.27	108.3	2.6991e-06	2.6822e-06	188.95	59.098	25.693	7.3738	2.6716e-06	24.222	378.070	408.898	309.067	181.341	369.088	320.901	181.091	186.291	262.754	219.202	185.315	191.027	190.909	195.852	293.527	195.065	-8191	255	
1479.535	1	1	0	0	0.15748	0.16145	0.044427	0.2906	0.25097	0.11268	0.11468	0.012219	0.095911	0.20503	0.2246	0.14618	0.11151	0.14574	0.16563	0.15825	-2.2521	-2.5542	-2.9167	-2.7708	-2.7458	-2.9896	-2.8333	-2.7583	-3.0812	-2.6667	-3.0812	-2.9104	-2.6729	-3.0479	-2.625	-2.9125	408.289	212.409	414.789	253.503	256.565	182.218	198.438	349.335	388.593	517.893	409.178	422.002	425.907	501.984	490.238	497.557	0.00078814	0.00041136	9.0288e-05	490.21	3.4421e-06	5.01e-06	637.37	108	1.8594e-06	2.7436e-06	189.14	58.358	24.792	6.8676	2.2407e-06	23.997	0.00024951	0.00024118	6.7488e-05	487.03	2.6255e-06	2.6523e-06	625.59	107.42	2.6579e-06	2.5998e-06	186.71	57.621	25.188	7.2381	2.6125e-06	23.842	394.470	240.352	296.766	181.738	388.513	363.368	181.083	186.036	235.190	338.176	185.720	190.439	190.782	195.490	209.776	195.505	-8191	255	
1479.631	1	1	0	0	0.33206	0.13606	0.070761	0.23635	0.12767	0.21571	0.18608	0.10285	0.26421	0.080383	0.16413	0.15627	0.20973	0.16097	0.21631	0.19937	-2.4583	-2.5542	-2.9354	-2.8625	-2.7104	-3.075	-2.725	-2.8021	-2.9938	-2.5958	-2.9333	-2.9667	-2.6792	-3.1271	-2.8375	-2.9167	481.430	498.871	402.139	495.530	383.449	274.820	363.121	383.321	193.625	406.943	176.032	522.316	438.571	277.211	300.686	245.037	0.00074578	0.00022957	0.00012694	488.69	3.4768e-06	5.7442e-07	636.35	106.48	4.2142e-06	1.6241e-06	187.99	58.202	24.735	6.9503	2.8696e-06	23.872	0.00024967	0.00024001	6.8399e-05	486.58	2.6278e-06	2.6509e-06	623.34	106.46	2.6336e-06	2.5934e-06	185.89	57.743	25.212	7.227	2.5826e-06	23.852	372.385	232.614	202.350	181.514	320.117	262.630	181.366	186.358	220.607	242.077	185.662	190.964	190.080	195.439	279.196	195.391	-8191	255	
1479.752	1	1	0	0	0.24296	0.068795	0.10155	0.15306	0.12935	0.16475	0.32912	0.17523	0.20173	0.24967	0.20464	0.23705	0.26432	0.098929	0.1407	0.12349	-2.5458	-2.5708	-3.025	-3.0563	-2.7167	-3.0417	-2.7438	-2.8458	-2.9521	-2.7562	-2.9396	-2.8187	-2.6875	-2.9646	-2.8333	-2.875	385.779	170.635	281.809	180.105	297.125	248.108	189.746	412.316	527.948	265.329	193.298	168.819	519.014	236.245	391.513	323.371	0.00085554	0.00041169	9.0598e-05	488.56	3.4113e-06	1.6148e-06	635.96	107.22	2.6648e-06	6.2869e-07	188.99	58.751	24.901	6.9774	3.0033e-06	23.844	0.00024699	0.00023401	6.72e-05	485.01	2.5838e-06	2.634e-06	624.6	106.58	2.6053e-06	2.6297e-06	185.97	57.915	25.234	7.2352	2.5872e-06	23.814	369.499	237.040	241.391	181.133	295.814	182.501	181.035	186.171	296.887	403.122	185.628	190.285	190.888	195.831	282.055	195.254	-8191	255	
1479.824	1	1	0	0	0.26739	0.22207	0.19333	0.20939	0.13631	0.067249	0.29422	0.21047	0.049828	0.23351	0.024903	0.066215	0.13797	0.1947	0.12171	0.066846	-2.675	-2.6417	-3.0104	-2.8354	-2.7521	-3.1521	-3.0271	-2.7292	-3.0563	-2.8792	-2.8604	-3.0708	-2.7417	-2.8937	-3.0146	-2.7354	184.111	174.031	299.183	421.380	318.359	234.192	182.547	377.867	371.013	522.560	475.654	450.632	473.340	275.558	282.518	502.129	0.0007299	0.00026024	7.9647e-05	490.83	5.6928e-06	2.29e-06	635.06	108.39	5.2484e-06	2.2826e-06	189.69	59.006	25.011	7.0103	3.7275e-06	23.947	0.00024837	0.00023695	6.7879e-05	487.38	2.5963e-06	2.6287e-06	625.37	106.92	2.6327e-06	2.6126e-06	187.03	58.35	25.402	7.284	2.5575e-06	24.062	391.219	271.109	284.469	181.487	284.742	506.465	180.938	186.044	287.220	245.665	185.914	190.958	190.516	196.312	301.977	195.471	-8191	255	
1479.920	1	1	0	0	0.20034	0.026496	0.042872	0.2605	0.22254	0.23654	0.1129	0.11576	0.22656	0.2825	0.016353	0.10087	0.041916	0.1246	0.13257	0.12583	-2.7292	-2.8958	-2.8354	-2.9646	-2.8688	-2.7562	-3.1021	-2.7125	-3.0542	-2.75	-2.8333	-3.0792	-2.7479	-2.8146	-2.8333	-2.7083	383.206	241.265	174.036	445.747	215.138	272.828	485.221	508.488	296.276	375.756	341.597	493.101	439.346	422.061	263.319	408.042	0.00075125	0.00037656	8.9379e-05	491.44	5.1124e-06	7.9779e-07	637.18	108.15	4.0656e-06	1.8758e-06	189.77	58.781	24.952	7.0206	3.8954e-06	24.096	0.00025072	0.00023797	6.7725e-05	486.74	2.5649e-06	2.6217e-06	625.53	107.4	2.6007e-06	2.5782e-06	187.04	58.138	25.312	7.2454	2.6129e-06	23.967	387.760	297.656	266.129	181.257	358.168	390.746	180.879	186.047	259.051	426.396	185.965	190.913	190.233	195.755	336.940	194.827	-8191	255	
1480.041	1	1	0	0	0.1559	0.21451	0.15151	0.229	0.065305	0.017895	0.25482	0.10159	0.15441	0.11809	0.22932	0.22992	0.16212	0.13131	0.27514	0.17124	-2.5625	-2.5604	-2.75	-3.0438	-2.6813	-2.9604	-2.9125	-2.7604	-3.1271	-2.6604	-2.8292	-3.0333	-2.5812	-3.025	-2.9896	-2.6979	289.661	508.192	212.489	457.130	472.855	416.972	481.925	257.288	433.310	312.421	415.282	384.245	439.867	504.186	478.083	180.537	0.00079516	3.2939e-05	0.00010729	484.24	3.661e-06	9.5096e-07	635.17	107.94	4.6421e-06	2.9614e-06	190.34	58.781	25.004	7.0138	3.3208e-06	23.97	0.00024652	0.00023426	6.5016e-05	484.06	2.5829e-06	2.584e-06	623.32	106.91	2.5958e-06	2.6073e-06	186.91	58.079	25.361	7.3134	2.6305e-06	24.013	383.901	468.118	192.049	181.733	277.749	464.131	181.408	186.241	282.794	281.099	185.892	191.008	190.523	196.153	214.590	195.375	-8191	255	
1480.135	1	1	0	0	0.11241	0.117	0.3284	0.09037	0.22791	0.13894	0.06539	0.10136	0.241	0.07297	0.11626	0.046124	0.079239	0.14196	0.35157	0.12108	-2.6604	-2.6896	-2.7625	-2.9875	-2.8104	-2.7958	-3.0083	-2.6333	-2.8875	-3.0146	-2.9688	-3.1417	-2.8396	-2.85	-2.8937	-2.6729	454.759	340.251	363.365	283.975	410.321	323.399	396.883	290.326	243.360	276.371	173.793	360.610	384.241	426.493	479.282	466.968	0.00071094	0.00044409	5.268e-05	486.85	1.6428e-06	2.632e-06	638.19	107.69	2.565e-06	4.1797e-06	189.57	59.048	24.83	7.0178	2.072e-06	24.178	0.00024986	0.00023693	6.6752e-05	486.15	2.6019e-06	2.6096e-06	624.76	107.22	2.6229e-06	2.6394e-06	187.2	58.335	25.319	7.3128	2.591e-06	24.124	382.231	289.887	229.979	181.435	377.157	191.770	181.084	186.522	310.452	339.955	185.861	190.697	190.174	196.384	309.280	195.045	-8191	255	
1480.231	1	1	0	0	0.052349	0.099214	0.22816	0.099716	0.30488	0.20305	0.1011	0.27874	0.1295	0.11667	0.1227	0.107	0.050649	0.15471	0.16955	0.097354	-2.4208	-2.8125	-2.6917	-3.0062	-2.7208	-2.9604	-3.2146	-2.6708	-2.8771	-2.9396	-2.7271	-3.1396	-2.7521	-2.7833	-2.9375	-2.7812	433.267	373.334	224.249	450.288	198.694	315.173	423.134	414.174	517.553	255.157	197.495	447.698	285.989	472.129	260.215	304.507	0.00083662	0.00048494	0.0001316	492.57	1.2854e-06	1.7167e-06	636.61	107.58	4.3665e-06	3.3809e-06	189.29	59.474	25.213	6.995	2.7845e-06	24.369	0.00024673	0.00023826	6.7107e-05	487.35	2.6392e-06	2.6239e-06	625.53	107.14	2.6473e-06	2.6386e-06	187.72	58.668	25.65	7.3592	2.6475e-06	24.282	381.535	237.380	208.228	181.911	195.996	442.478	180.976	186.198	306.598	259.200	185.850	190.904	190.214	195.892	280.626	195.046	-8191	255	
1480.327	1	1	0	0	0.24385	0.14266	0.028951	0.10811	0.078113	0.0096203	0.16173	0.23729	0.16397	0.27849	0.23751	0.12285	0.11883	0.030009	0.089659	0.31656	-2.5021	-2.7687	-2.7625	-2.9375	-2.7417	-2.6083	-3.0833	-2.6125	-3.0312	-3.1083	-2.875	-2.9	-2.8521	-2.5854	-3.0021	-2.8042	472.576	332.925	468.144	384.040	422.505	297.012	472.799	489.655	192.541	441.184	352.692	254.269	427.562	462.800	295.181	175.345	0.00063861	0.00040908	0.00014559	491.18	3.858e-06	1.3914e-06	638.84	108.57	1.3189e-06	2.8227e-06	190.58	59.39	25.381	7.1291	6.1492e-06	24.489	0.00025256	0.00023845	6.8131e-05	488.72	2.6259e-06	2.5954e-06	627.71	108.05	2.6577e-06	2.6168e-06	188.64	59.029	25.781	7.3749	2.6315e-06	24.319	385.771	516.055	216.803	181.599	260.893	293.595	181.277	186.424	179.121	329.984	185.860	190.515	190.566	196.091	340.039	194.942	-8191	255	
1480.423	1	1	0	0	0.2081	0.2153	0.27294	0.27935	0.31176	0.13314	0.064	0.14109	0.35019	0.21794	0.081423	0.26527	0.22398	0.32086	0.056205	0.16264	-2.45	-2.8438	-2.6354	-3.0396	-2.8438	-2.6458	-3.2792	-2.6813	-2.7667	-2.9125	-2.6396	-2.9083	-3.0375	-2.5771	-3.0271	-2.95	506.438	400.685	420.949	361.634	280.257	217.515	328.177	433.495	168.532	430.549	298.526	389.874	216.159	245.814	217.246	195.904	0.00078698	0.00028182	5.71e-05	489.8	7.5315e-07	1.8899e-06	635.8	107.63	3.289e-06	2.5467e-06	189	59.204	24.988	7.0141	1.2637e-06	24.015	0.00025014	0.00024452	6.6646e-05	487.88	2.7074e-06	2.6831e-06	625.01	107.28	2.7557e-06	2.679e-06	187.2	58.228	25.358	7.3071	2.6547e-06	24.009	391.209	333.035	208.078	181.404	451.028	436.133	181.060	185.874	292.367	439.826	185.843	190.972	190.137	195.851	230.029	195.254	-8191	255	
1480.520	1	1	0	0	0.31437	0.14952	0.019176	0.056688	0.068413	0.16541	0.041887	0.2663	0.32369	0.045462	0.11518	0.025466	0.14296	0.10004	0.20229	0.25333	-2.3729	-3.1354	-2.7104	-2.9813	-2.9896	-2.7167	-2.9729	-2.6521	-2.7604	-3.1229	-2.6083	-2.8333	-2.9	-2.8167	-2.9979	-2.9	295.468	208.785	525.761	350.307	194.268	472.572	368.369	444.046	235.336	445.894	508.065	214.291	220.038	508.900	417.225	353.831	0.00064516	0.00022949	9.6058e-05	484.23	3.3333e-06	1.2907e-06	634.65	106.71	2.6911e-06	3.9897e-06	188.03	58.775	24.776	6.9999	7.643e-06	24.202	0.00025596	0.00024672	6.8895e-05	485.58	2.7716e-06	2.7558e-06	623.22	106.35	2.7633e-06	2.7514e-06	186.07	58.293	25.35	7.3284	2.8247e-06	24.138	375.428	501.565	235.511	181.559	329.550	355.233	181.179	186.449	308.758	362.006	185.218	190.842	190.616	195.586	354.074	195.505	-8191	255	
1480.616	1	1	0	0	0.050995	0.19598	0.19567	0.24434	0.19491	0.062873	0.189	0.15718	0.22922	0.11608	0.16418	0.16162	0.15383	0.070164	0.052421	0.22706	-2.2521	-3.0708	-2.7417	-2.9396	-3.0583	-2.5187	-3.1042	-2.7979	-2.7646	-3.1937	-2.7917	-3.0354	-3.0792	-2.6146	-2.8292	-2.9042	246.399	418.983	302.570	520.005	172.772	461.918	459.449	303.611	245.088	484.191	323.250	469.046	519.602	445.075	440.337	516.339	0.00075225	9.0069e-05	6.6748e-05	489.37	3.9237e-06	4.6609e-06	631.2	107.2	5.6395e-06	1.6881e-06	189.69	58.51	24.951	6.9945	1.8157e-06	24.171	0.00026188	0.0002532	6.9347e-05	486.66	2.791e-06	2.7118e-06	622.56	106.79	2.7815e-06	2.7531e-06	186.91	58.339	25.538	7.3378	2.7915e-06	24.198	376.957	173.534	170.799	181.304	449.121	317.261	181.214	186.395	291.552	281.297	186.016	191.098	189.829	195.916	320.149	195.452	-8191	255	
1480.712	1	1	0	0	0.31759	0.1341	0.16355	0.10505	0.22014	0.26931	0.06387	0.35868	0.36184	0.17725	0.38582	0.14133	0.31551	0.26025	0.048268	0.28344	-2.3187	-2.9125	-2.7896	-2.825	-2.8979	-2.6396	-3.0104	-2.9042	-2.6625	-2.9417	-2.6979	-2.7667	-3.0625	-2.7833	-2.9583	-2.8667	271.948	390.970	432.193	523.178	373.384	367.303	381.627	168.574	417.846	316.389	475.047	403.518	489.799	495.245	474.130	269.984	0.00064784	0.00023543	4.7195e-05	490.22	1.4041e-06	2.8826e-06	634.12	107.79	3.0137e-06	4.896e-06	190.2	59.407	25.317	7.0452	3.4574e-06	24.233	0.00026076	0.00025677	7.1143e-05	488.39	2.7926e-06	2.7267e-06	625.82	107.62	2.7971e-06	2.7989e-06	188.14	58.85	25.785	7.4025	2.8909e-06	24.383	390.232	522.669	239.887	181.148	334.734	304.475	181.313	186.296	259.289	376.264	185.872	191.037	190.238	195.966	315.946	195.526	-8191	255	
1480.832	1	1	0	0	0.33376	0.21015	0.10801	0.13346	0.22663	0.21205	0.13421	0.14952	0.18912	0.066146	0.031903	0.12748	0.13606	0.11493	0.39563	0.030073	-2.2438	-2.7417	-2.6437	-2.8042	-3.1854	-2.7417	-3.0042	-2.9813	-2.5771	-3.1667	-2.8542	-2.7521	-3.0625	-2.5854	-2.8229	-2.9708	400.647	434.780	303.895	267.550	262.150	291.722	518.511	397.682	225.821	523.699	495.128	190.347	254.303	337.975	246.730	357.581	0.00071528	0.00029092	5.5014e-05	487.89	3.0902e-06	4.3568e-06	638.02	108	4.8542e-06	4.0515e-06	190.61	58.544	24.824	7.0588	2.8679e-06	23.993	0.00026246	0.00025321	7.0795e-05	489.08	2.7972e-06	2.7867e-06	626.17	107.68	2.7358e-06	2.8321e-06	187.66	58.388	25.435	7.3592	2.8129e-06	24.124	380.547	359.104	498.801	181.564	373.210	231.128	181.147	186.236	306.558	332.447	185.638	190.689	190.720	195.763	297.173	195.370	-8191	255	
1480.929	1	1	0	0	0.21717	0.26897	0.1037	0.15311	0.11711	0.11203	0.14463	0.084494	0.049325	0.21522	0.064747	0.22135	0.12491	0.18872	0.16386	0.19031	-2.1292	-2.7833	-2.75	-2.7229	-3.0542	-2.6917	-2.9833	-3.0021	-2.5896	-3.0042	-2.9	-2.7146	-2.875	-2.6771	-2.9604	-3.0417	456.545	418.427	232.922	190.917	182.564	491.190	273.504	314.230	332.372	441.063	433.207	473.612	290.779	269.217	385.497	473.423	0.00091573	0.0001422	2.2341e-05	483.64	1.9575e-07	5.2091e-06	629.46	107.05	5.7415e-06	3.2977e-06	189.71	58.775	24.781	6.9859	2.5438e-06	24.079	0.00025988	0.00025436	7.1027e-05	485.5	2.734e-06	2.727e-06	623.16	106.81	2.6977e-06	2.748e-06	187.17	58.19	25.449	7.3202	2.7485e-06	24.14	385.515	276.542	475.214	181.422	270.672	315.052	181.295	186.191	340.096	350.729	185.716	190.689	190.369	196.126	248.448	195.128	-8191	255	
1481.025	1	1	0	0	0.215	0.18596	0.20417	0.060914	0.28915	0.14741	0.25953	0.099648	0.13646	0.37298	0.24031	0.11504	0.17002	0.28232	0.12504	0.12348	-2.3708	-2.8167	-2.8083	-2.5896	-2.9688	-2.75	-2.8271	-2.9313	-2.5042	-2.8792	-2.8958	-2.6104	-3.0271	-2.7687	-2.7417	-3.0062	524.388	512.232	462.594	266.670	373.659	331.330	446.476	207.634	206.138	260.050	304.521	293.341	343.490	401.284	219.306	435.799	0.0007373	0.00043224	2.6218e-05	488.02	7.0392e-06	6.7348e-06	633.69	107.09	2.3701e-06	3.034e-06	189.66	59.05	25.065	7.0885	2.7276e-06	24.346	0.00025238	0.00025196	6.9507e-05	485.63	2.7431e-06	2.7388e-06	623.95	107.2	2.7335e-06	2.7696e-06	187.23	58.464	25.578	7.3581	2.7304e-06	24.242	380.403	271.046	500.507	181.428	318.328	349.527	181.168	186.558	179.474	295.355	185.901	191.111	190.133	195.669	317.981	195.468	-8191	255	
#DATA ENDS
