BOXY.EXE: ISS Imagent and Oximeter Data Acquisition Program Version 0.80
Ascii Record File

#ACQ INFORMATION
2  Detector Channels 
16  External MUX Channels 
1  Auxiliary Channels 
5000  Waveform (CCF) Frequency (Hz)
1  Waveforms Skipped 
30  Waveforms Averaged 
1  Cycles Averaged 
16  Acquisitions per Waveform 
10.0806  Updata Rate (Hz) 

#FILE INFORMATION
TRUE -- External MUX Channel results are PARSED.
FALSE -- AC DC and Phase are NOT grouped.
TRUE -- Companion Program Settings File CREATED.
FALSE -- AC data not excluded
FALSE -- DC data not excluded
FALSE -- Phase data not excluded
FALSE -- Auxillary Chn. data not excluded
Tab delimiters

#CALIBRATION STATE
TRUE -- Waveform Calibration Values APPLIED.


#AUX CALIBRATION VALUES
Val Type	aux-1	

Term	1.0000e+00	
Factor	0.0000e+00	


#WF CALIBRATION VALUES
A = Detector Channel
Val Type	A-AC1	A-AC2	A-AC3	A-AC4	A-AC5	A-AC6	A-AC7	A-AC8	A-AC9	A-AC10	A-AC11	A-AC12	A-AC13	A-AC14	A-AC15	A-AC16	A-DC1	A-DC2	A-DC3	A-DC4	A-DC5	A-DC6	A-DC7	A-DC8	A-DC9	A-DC10	A-DC11	A-DC12	A-DC13	A-DC14	A-DC15	A-DC16	A-Ph1	A-Ph2	A-Ph3	A-Ph4	A-Ph5	A-Ph6	A-Ph7	A-Ph8	A-Ph9	A-Ph10	A-Ph11	A-Ph12	A-Ph13	A-Ph14	A-Ph15	A-Ph16	

Term	0.00000e+00	0.00000e+00	0.00000e+00	0.00000e+00	0.00000e+00	0.00000e+00	0.00000e+00	0.00000e+00	0.00000e+00	0.00000e+00	0.00000e+00	0.00000e+00	0.00000e+00	0.00000e+00	0.00000e+00	0.00000e+00	0.00000e+00	0.00000e+00	0.00000e+00	0.00000e+00	0.00000e+00	0.00000e+00	0.00000e+00	0.00000e+00	0.00000e+00	0.00000e+00	0.00000e+00	0.00000e+00	0.00000e+00	0.00000e+00	0.00000e+00	0.00000e+00	0.00000e+00	0.00000e+00	0.00000e+00	0.00000e+00	0.00000e+00	0.00000e+00	0.00000e+00	0.00000e+00	0.00000e+00	0.00000e+00	0.00000e+00	0.00000e+00	0.00000e+00	0.00000e+00	0.00000e+00	0.00000e+00	
Factor	1.00000e+00	1.00000e+00	1.00000e+00	1.00000e+00	1.00000e+00	1.00000e+00	1.00000e+00	1.00000e+00	1.00000e+00	1.00000e+00	1.00000e+00	1.00000e+00	1.00000e+00	1.00000e+00	1.00000e+00	1.00000e+00	1.00000e+00	1.00000e+00	1.00000e+00	1.00000e+00	1.00000e+00	1.00000e+00	1.00000e+00	1.00000e+00	1.00000e+00	1.00000e+00	1.00000e+00	1.00000e+00	1.00000e+00	1.00000e+00	1.00000e+00	1.00000e+00	X	X	X	X	X	X	X	X	X	X	X	X	X	X	X	X	

B = Detector Channel
Val Type	B-AC1	B-AC2	B-AC3	B-AC4	B-AC5	B-AC6	B-AC7	B-AC8	B-AC9	B-AC10	B-AC11	B-AC12	B-AC13	B-AC14	B-AC15	B-AC16	B-DC1	B-DC2	B-DC3	B-DC4	B-DC5	B-DC6	B-DC7	B-DC8	B-DC9	B-DC10	B-DC11	B-DC12	B-DC13	B-DC14	B-DC15	B-DC16	B-Ph1	B-Ph2	B-Ph3	B-Ph4	B-Ph5	B-Ph6	B-Ph7	B-Ph8	B-Ph9	B-Ph10	B-Ph11	B-Ph12	B-Ph13	B-Ph14	B-Ph15	B-Ph16	

Term	0.00000e+00	0.00000e+00	0.00000e+00	0.00000e+00	0.00000e+00	0.00000e+00	0.00000e+00	0.00000e+00	0.00000e+00	0.00000e+00	0.00000e+00	0.00000e+00	0.00000e+00	0.00000e+00	0.00000e+00	0.00000e+00	0.00000e+00	0.00000e+00	0.00000e+00	0.00000e+00	0.00000e+00	0.00000e+00	0.00000e+00	0.00000e+00	0.00000e+00	0.00000e+00	0.00000e+00	0.00000e+00	0.00000e+00	0.00000e+00	0.00000e+00	0.00000e+00	5.86857e+01	-1.40275e+02	-1.27777e+02	-1.81956e+02	-7.36887e+01	-5.69442e+01	-1.56028e+02	-1.62015e+02	-8.09294e+01	-6.35191e+01	-1.71357e+02	-1.71405e+02	-1.82318e+02	-1.76945e+02	-7.95853e+01	-1.50279e+02	
Factor	5.16763e-05	1.33635e-04	4.06010e-05	4.21718e-01	1.38256e-06	1.58296e-06	1.58406e-01	5.39367e-02	1.66385e-06	1.37896e-06	8.47905e-02	2.81246e-02	2.35851e-02	8.08168e-03	1.69326e-06	1.20261e-02	1.73923e-06	1.81185e-06	5.05000e-07	2.07507e-01	1.98338e-08	1.98293e-08	7.56450e-02	2.72911e-02	1.96927e-08	1.98476e-08	4.12586e-02	1.36837e-02	1.19586e-02	4.10842e-03	1.97406e-08	5.88837e-03	X	X	X	X	X	X	X	X	X	X	X	X	X	X	X	X	



#DISTANCE SETTINGS
A = Detector Channel
A-1	A-2	A-3	A-4	A-5	A-6	A-7	A-8	A-9	A-10	A-11	A-12	A-13	A-14	A-15	A-16	

2.5000e+00	3.0000e+00	2.5000e+00	3.0000e+00	2.0000e+00	3.0000e+00	1.5000e+00	3.0000e+00	3.0000e+00	3.0000e+00	3.0000e+00	3.0000e+00	3.0000e+00	3.0000e+00	1.5000e+00	3.0000e+00	

B = Detector Channel
B-1	B-2	B-3	B-4	B-5	B-6	B-7	B-8	B-9	B-10	B-11	B-12	B-13	B-14	B-15	B-16	

1.0000e+01	1.0000e+01	1.0000e+01	1.4400e+00	1.0000e+01	1.0000e+01	1.5100e+00	1.9400e+00	1.0000e+01	1.0000e+01	1.9900e+00	2.4900e+00	2.4100e+00	2.9000e+00	1.0000e+01	2.9800e+00	




#DATA BEGINS
time	group	step	mark	flag	A-AC1	A-AC2	A-AC3	A-AC4	A-AC5	A-AC6	A-AC7	A-AC8	A-AC9	A-AC10	A-AC11	A-AC12	A-AC13	A-AC14	A-AC15	A-AC16	A-DC1	A-DC2	A-DC3	A-DC4	A-DC5	A-DC6	A-DC7	A-DC8	A-DC9	A-DC10	A-DC11	A-DC12	A-DC13	A-DC14	A-DC15	A-DC16	A-Ph1	A-Ph2	A-Ph3	A-Ph4	A-Ph5	A-Ph6	A-Ph7	A-Ph8	A-Ph9	A-Ph10	A-Ph11	A-Ph12	A-Ph13	A-Ph14	A-Ph15	A-Ph16	B-AC1	B-AC2	B-AC3	B-AC4	B-AC5	B-AC6	B-AC7	B-AC8	B-AC9	B-AC10	B-AC11	B-AC12	B-AC13	B-AC14	B-AC15	B-AC16	B-DC1	B-DC2	B-DC3	B-DC4	B-DC5	B-DC6	B-DC7	B-DC8	B-DC9	B-DC10	B-DC11	B-DC12	B-DC13	B-DC14	B-DC15	B-DC16	B-Ph1	B-Ph2	B-Ph3	B-Ph4	B-Ph5	B-Ph6	B-Ph7	B-Ph8	B-Ph9	B-Ph10	B-Ph11	B-Ph12	B-Ph13	B-Ph14	B-Ph15	B-Ph16	aux-1	digaux	

1393.897	1	1	0	256	0.086909	0.2178	0.20332	0.01543	0.26194	0.042149	0.35444	0.10542	0.10829	0.13965	0.15705	0.10323	0.16406	0.13983	0.099234	0.1647	-2.8042	-2.7	-2.9771	-2.9396	-2.7896	-3.4188	-2.8021	-3.1146	-2.9979	-2.7417	-2.9313	-3.125	-2.6937	-3.2146	-2.8812	-3.1146	471.163	322.662	409.367	205.837	283.392	434.523	483.300	391.362	350.151	281.071	272.301	222.223	309.654	497.500	232.428	526.388	0.0012019	0.00018685	7.1859e-05	585.3	2.8369e-06	2.7763e-06	740.71	154.8	3.2863e-06	3.012e-06	268.1	91.331	41.896	14.074	4.2256e-06	40.753	3.7114e-05	9.3121e-06	2.6029e-06	548.83	1.0979e-07	8.8034e-08	716.74	148.95	1.2041e-07	9.1878e-08	257.11	87.644	40.084	13.616	1.0656e-07	39.507	383.063	252.454	250.992	181.669	313.669	332.239	181.743	186.903	296.055	328.343	187.026	191.979	191.801	196.759	296.528	196.256	-8191	255	
1394.018	1	1	0	0	0.13255	0.11813	0.15857	0.12409	0.035541	0.024522	0.1379	0.1371	0.29761	0.092635	0.24412	0.081358	0.059586	0.24625	0.065333	0.097155	-2.5417	-2.6312	-3.0896	-2.9396	-2.9479	-2.95	-2.9604	-2.9833	-3.1292	-2.9292	-3.2208	-3.0583	-2.6708	-3.1354	-2.7562	-2.9271	239.603	322.275	447.929	336.314	461.036	427.237	383.642	385.033	424.355	387.602	461.400	304.159	501.480	448.925	372.052	465.199	0.0012666	0.00033597	8.1788e-05	582.51	1.709e-06	3.834e-06	739.72	153.86	3.3356e-06	3.0688e-06	266.07	89.937	41.49	13.945	2.5692e-06	40.482	3.8937e-05	9.7915e-06	2.3209e-06	545.92	9.0202e-08	8.9232e-08	716.52	147.98	1.0991e-07	8.8983e-08	255.09	86.592	39.846	13.517	1.0031e-07	39.215	382.385	242.388	248.546	181.622	322.302	330.385	181.884	186.914	292.755	324.362	186.741	192.114	191.370	196.878	308.533	196.289	-8191	255	
1394.089	1	1	0	0	0.13495	0.26376	0.13334	0.038837	0.17086	0.08573	0.16704	0.22127	0.031764	0.25006	0.23631	0.2601	0.069356	0.031273	0.096536	0.16857	-2.5146	-2.8229	-2.9938	-3.1208	-2.7812	-3.2521	-2.8625	-2.8312	-3.2167	-2.9292	-3.0417	-3.2729	-2.8833	-3.2687	-3.2333	-2.9208	259.909	500.556	182.725	482.292	267.550	439.910	458.714	528.366	452.269	430.895	506.173	515.210	190.888	284.296	368.885	527.240	0.0012279	0.0002599	6.0789e-05	579.07	2.5272e-06	2.7824e-06	739.02	154.16	3.6374e-06	1.7883e-06	265.79	90.399	41.692	13.891	3.6848e-06	40.855	3.8046e-05	8.3609e-06	2.2662e-06	546.35	9.9293e-08	8.32e-08	716.78	148.17	1.1057e-07	8.5427e-08	255.22	86.841	39.786	13.472	1.0985e-07	39.374	383.614	240.930	256.846	181.833	291.276	335.916	181.824	187.200	294.827	323.244	186.710	192.034	191.661	196.755	294.686	196.508	-8191	255	
1394.185	1	1	0	0	0.15186	0.081204	0.20264	0.15145	0.16075	0.15841	0.31017	0.27288	0.043593	0.13213	0.20551	0.027409	0.15387	0.060028	0.071246	0.10697	-2.775	-2.7521	-2.9479	-3.2354	-2.6271	-2.9771	-3.0438	-3.0125	-2.9542	-3.0438	-3.0708	-3.3187	-2.7146	-3.0583	-3.1208	-2.8563	219.864	404.983	321.859	342.675	291.551	323.073	512.716	461.379	363.491	344.344	276.875	238.540	283.311	178.948	395.895	262.281	0.0012214	0.00019502	8.3682e-05	586.76	2.2902e-06	3.2854e-06	741.17	154.48	3.9514e-06	2.1951e-06	268.34	90.842	41.705	13.993	3.0809e-06	40.868	3.7799e-05	8.2175e-06	2.485e-06	549.03	1.0442e-07	8.5349e-08	718.32	148.58	1.1061e-07	7.9597e-08	256.81	87.28	39.959	13.569	1.0282e-07	39.608	384.899	230.679	254.109	181.601	290.802	320.826	181.750	187.032	288.252	318.471	186.567	191.940	191.798	196.727	299.994	196.431	-8191	255	
1394.282	1	1	0	0	0.16057	0.14681	0.12167	0.15514	0.06506	0.10573	0.30326	0.19682	0.11697	0.070397	0.16473	0.22277	0.19696	0.11935	0.096748	0.15331	-2.7229	-2.9896	-2.9229	-3.2792	-2.6896	-3.1729	-2.9771	-2.9729	-3.0979	-2.9875	-2.95	-3.2354	-2.6208	-2.8417	-2.9125	-2.9667	489.363	456.483	238.244	379.494	187.961	513.885	524.700	513.860	429.213	480.633	180.264	516.479	506.668	248.921	241.609	513.041	0.0013157	0.00028622	8.3394e-05	588.49	2.416e-06	2.8388e-06	746.37	154.53	3.7601e-06	2.5483e-06	268.22	92.51	41.853	14.289	3.2415e-06	41.375	3.993e-05	8.0589e-06	2.4471e-06	549.3	9.4252e-08	7.5227e-08	720.59	148.64	1.1812e-07	8.6502e-08	257.85	88.404	40.089	13.827	9.8251e-08	40.134	382.408	235.270	267.980	181.372	325.269	334.963	181.988	186.718	292.345	318.980	187.047	192.429	191.467	197.340	296.958	196.549	-8191	255	
1394.402	1	1	0	0	0.25028	0.012609	0.25246	0.20279	0.056273	0.1666	0.13905	0.19553	0.12983	0.050996	0.025281	0.29748	0.11721	0.17951	0.11189	0.25804	-2.5812	-2.8625	-2.7188	-3.1083	-2.8667	-2.9667	-2.9979	-2.7792	-2.9917	-3.1708	-2.7625	-3.1417	-2.8333	-3.15	-3.0625	-2.8958	450.203	175.197	379.364	255.869	228.049	319.294	454.066	494.530	385.540	250.748	502.510	416.601	483.876	446.318	340.225	448.448	0.0013094	0.00029988	7.8935e-05	590.8	2.3518e-06	3.2116e-06	740.42	153.68	3.4751e-06	2.353e-06	266.86	91.389	41.983	14.09	3.1637e-06	40.635	3.9281e-05	9.4518e-06	2.4156e-06	549.83	1.0338e-07	8.2209e-08	718.7	148.24	1.0921e-07	8.5427e-08	256.98	87.401	40	13.615	1.0463e-07	39.549	382.015	256.227	270.387	182.009	305.243	315.157	181.976	186.550	308.314	338.010	186.631	192.181	191.559	196.745	297.613	196.669	-8191	255	
1394.498	1	1	0	0	0.24822	0.16478	0.10685	0.29995	0.12203	0.12267	0.12472	0.18854	0.30121	0.43904	0.013664	0.071012	0.090215	0.10219	0.20016	0.18423	-2.5833	-3.075	-2.8021	-3.1958	-2.8688	-2.9771	-3.4396	-2.7083	-3.0875	-3.0979	-2.8896	-3.1021	-2.7729	-2.8646	-3.0875	-3.1	290.445	425.864	179.108	189.943	505.365	269.087	423.514	443.798	456.461	472.572	253.255	496.332	509.208	225.528	171.831	226.531	0.0012501	0.00020833	8.3987e-05	582.29	3.0161e-06	2.96e-06	738.44	152.68	3.7097e-06	2.6893e-06	266.39	91.316	42.126	14.145	3.5765e-06	41.044	3.8705e-05	8.176e-06	2.484e-06	549.39	9.7309e-08	8.8984e-08	717.14	147.46	1.1446e-07	8.4724e-08	255.77	87.211	40.015	13.675	1.0138e-07	39.691	383.876	253.302	254.239	181.841	319.452	326.940	181.849	187.200	287.051	329.294	186.489	192.282	191.310	197.209	305.075	196.397	-8191	255	
1394.593	1	1	0	0	0.15862	0.18209	0.20657	0.087938	0.21703	0.096681	0.10842	0.11551	0.10591	0.10321	0.061736	0.25873	0.16924	0.25539	0.26363	0.20416	-2.5146	-2.9042	-2.7354	-2.975	-3.0646	-2.8167	-3.0938	-2.8104	-2.9833	-3.1813	-2.7521	-3.2146	-2.8563	-2.925	-2.9875	-3.0542	238.364	424.699	231.156	504.447	310.919	197.204	231.538	468.209	175.344	415.614	182.401	197.275	433.775	430.681	348.984	378.647	0.0012601	0.00025988	7.0866e-05	585.96	2.5211e-06	2.9415e-06	747.5	153.6	4.0369e-06	1.654e-06	267.93	91.474	41.886	14.317	2.3716e-06	41.293	3.8676e-05	8.2779e-06	2.2978e-06	549.2	9.4086e-08	9.989e-08	722.6	147.87	1.1652e-07	8.2368e-08	256.71	87.599	40.087	13.778	8.6118e-08	40.021	382.378	245.450	269.460	182.099	310.460	332.234	181.782	187.062	296.817	319.408	186.795	192.477	192.025	197.417	281.976	196.206	-8191	255	
1394.691	1	1	0	0	0.26601	0.10702	0.07024	0.15686	0.25236	0.17986	0.35912	0.031044	0.084323	0.17302	0.069846	0.065643	0.060866	0.22477	0.19351	0.35556	-2.525	-2.9375	-2.8396	-3.0812	-2.9062	-2.7479	-3.4792	-2.8854	-3.0396	-3.025	-2.7958	-3.2313	-2.8667	-2.7021	-3.3125	-2.9896	254.600	345.398	407.958	485.304	522.085	397.587	475.826	180.036	405.334	405.674	219.836	347.225	397.128	485.538	243.965	414.730	0.0013195	0.00026641	8.8683e-05	585.93	2.6734e-06	3.3166e-06	749.5	153.67	4.2975e-06	2.0792e-06	266.41	92.438	42.265	14.381	3.6256e-06	41.497	4.0698e-05	7.5116e-06	2.4829e-06	552.22	1.0115e-07	9.0554e-08	724.02	148.6	1.1487e-07	8.2616e-08	257.2	88.358	40.389	13.873	1.0553e-07	40.269	382.000	257.574	260.674	181.708	305.181	332.076	181.842	187.124	299.178	308.115	186.707	192.104	192.173	196.955	295.841	196.462	-8191	255	
1394.787	1	1	0	0	0.028472	0.074619	0.14061	0.22416	0.19479	0.18377	0.13678	0.18213	0.28955	0.18164	0.34381	0.14854	0.16785	0.15061	0.31462	0.2415	-2.4354	-3.1792	-2.6917	-3.0479	-3.1437	-2.8521	-3.2354	-3.0125	-2.9875	-3.3229	-2.75	-3.2208	-2.9437	-2.775	-3.1042	-2.9042	386.662	304.069	290.858	349.856	486.610	172.068	479.760	437.668	239.408	191.382	475.706	512.589	213.006	484.306	361.050	497.668	0.0013005	0.00032077	8.6263e-05	584.55	3.5723e-06	2.029e-06	748.99	153.67	4.0437e-06	2.6546e-06	270.46	92.428	42.296	14.396	2.6471e-06	41.741	3.956e-05	8.5195e-06	2.5029e-06	548.69	9.9499e-08	8.8116e-08	723.49	148.66	1.1779e-07	7.9639e-08	258.79	88.447	40.4	13.911	1.024e-07	40.3	382.388	226.608	271.470	182.280	322.264	338.111	181.942	186.960	301.836	311.823	186.703	191.898	191.660	197.073	304.165	196.122	-8191	255	
1394.881	1	1	0	0	0.21021	0.10107	0.12136	0.20519	0.14143	0.13987	0.045493	0.17612	0.12141	0.14121	0.2642	0.1953	0.10542	0.084926	0.33298	0.039802	-2.3667	-3.1521	-2.8083	-3.1125	-3.0687	-2.8063	-3.3604	-2.8333	-2.8563	-3.4458	-2.8896	-3.1708	-3.0187	-2.775	-3.1042	-3.0708	328.652	212.582	412.391	444.425	273.875	450.776	403.468	245.082	185.200	500.165	179.464	205.085	234.681	293.935	360.152	188.827	0.0012906	0.00025315	9.0768e-05	586.34	2.3391e-06	2.9491e-06	743.03	153.92	3.6926e-06	2.4617e-06	267.61	91.038	42.067	14.381	3.6846e-06	41.285	4.0096e-05	7.304e-06	2.2357e-06	549.38	8.1401e-08	8.5844e-08	719.25	148.44	1.193e-07	8.8405e-08	256.87	87.855	40.319	13.911	9.9855e-08	40.158	383.594	248.677	263.166	181.773	301.560	322.251	181.771	186.884	277.756	333.055	186.625	192.396	191.869	196.867	313.487	196.395	-8191	255	
1394.977	1	1	0	0	0.083963	0.26049	0.21415	0.17551	0.0094008	0.27873	0.12303	0.095452	0.18292	0.1712	0.17087	0.21469	0.17069	0.10241	0.11953	0.16579	-2.3333	-3.0896	-2.95	-3.0687	-3.1396	-2.9021	-3.025	-3.1625	-2.7979	-3.2062	-2.8937	-3.0354	-3.1521	-3.0812	-3.025	-3.0771	250.018	471.640	207.906	483.819	392.822	425.937	230.407	206.406	487.246	244.136	170.615	231.418	385.512	386.773	469.575	521.473	0.0012683	0.00023642	4.5809e-05	579.59	2.7251e-06	2.7662e-06	746.37	155.12	2.9607e-06	2.9428e-06	268.7	92.575	42.171	14.424	3.4571e-06	41.701	3.9796e-05	7.6853e-06	2.4272e-06	548.55	9.9747e-08	8.4605e-08	722.47	149.14	1.1684e-07	8.2533e-08	258.01	88.648	40.471	13.992	1.0504e-07	40.442	384.357	264.884	255.343	182.011	310.225	330.946	181.781	187.029	295.751	327.019	186.848	192.174	192.066	197.354	302.187	196.433	-8191	255	
1395.098	1	1	0	0	0.21077	0.044942	0.089638	0.038002	0.18575	0.17387	0.18514	0.085417	0.096124	0.19867	0.12234	0.119	0.1046	0.14455	0.083266	0.08489	-2.3771	-3.2313	-2.7958	-2.7042	-3.1063	-2.85	-2.9542	-3.0854	-2.7062	-3.1021	-2.9417	-2.9146	-3.0333	-2.9188	-2.9083	-3.0542	170.296	281.203	419.635	528.178	233.283	443.538	441.813	175.503	330.581	181.631	223.626	278.129	321.705	251.394	466.150	277.779	0.0013405	0.00027155	7.684e-05	586.74	2.4799e-06	2.9644e-06	746.81	154.09	4.7645e-06	2.0995e-06	269.08	92.934	42.353	14.584	2.5733e-06	42.012	3.9767e-05	9.3952e-06	2.2651e-06	550.71	8.9376e-08	8.3077e-08	723.55	149.22	1.2484e-07	7.9763e-08	258.94	89.048	40.696	14.117	1.0068e-07	40.717	383.461	242.180	264.731	181.664	309.708	332.291	181.944	187.005	290.947	330.260	187.103	192.214	191.800	196.927	295.261	196.329	-8191	255	
1395.194	1	1	0	0	0.24766	0.26661	0.33805	0.061929	0.027357	0.22636	0.15504	0.097544	0.28711	0.19325	0.079659	0.062128	0.18631	0.15109	0.084996	0.26328	-2.4042	-3.1146	-3.0604	-2.9208	-3.1437	-2.7604	-3.0417	-3.1854	-2.7687	-3.1708	-3.1667	-2.6583	-3.2458	-2.8729	-2.9313	-3.1458	358.004	283.507	278.013	293.793	273.088	466.368	383.840	310.095	491.108	306.419	229.879	247.455	354.901	232.042	257.657	473.782	0.0012942	0.00027836	8.9152e-05	586.16	2.9767e-06	2.9364e-06	749.51	155.15	4.3196e-06	2.616e-06	269.36	92.859	42.633	14.585	4.4756e-06	42.347	4.0223e-05	8.3798e-06	2.3693e-06	549.87	1.0045e-07	9.3322e-08	725.26	149.58	1.1524e-07	8.6544e-08	259.56	89.244	40.842	14.141	1.0545e-07	40.774	383.923	259.350	272.410	181.674	318.349	326.870	182.162	186.865	300.181	327.178	186.745	192.184	191.647	197.070	307.403	196.503	-8191	255	
1395.290	1	1	0	0	0.19258	0.15687	0.077213	0.33829	0.057015	0.11572	0.13175	0.17674	0.23612	0.17234	0.15971	0.15658	0.14795	0.10491	0.1839	0.23306	-2.475	-3.0833	-2.8312	-2.8625	-3.1021	-2.85	-2.975	-3.2396	-2.8958	-3.2896	-3.0333	-2.8812	-3.0896	-3.0146	-3.0229	-3.0625	526.149	185.794	171.826	400.575	316.663	451.673	480.066	338.617	412.855	476.914	426.411	228.240	501.043	221.392	184.155	440.951	0.0012313	0.00019703	8.2803e-05	584.87	2.3639e-06	3.3593e-06	746.82	154.87	3.7318e-06	2.5135e-06	267.64	91.86	42.225	14.385	3.446e-06	41.586	3.8723e-05	8.5799e-06	2.2336e-06	551.84	8.7227e-08	9.2661e-08	723.38	149.28	1.0794e-07	8.4104e-08	257.35	88.057	40.497	13.901	1.0537e-07	40.191	383.911	233.559	249.088	181.784	306.564	348.766	181.973	187.193	296.936	333.895	186.998	192.046	191.396	197.336	303.440	196.297	-8191	255	
1395.386	1	1	0	0	0.26693	0.3104	0.059182	0.14921	0.17546	0.036996	0.17612	0.2434	0.09214	0.097665	0.091637	0.099925	0.21899	0.12018	0.29974	0.19073	-2.3583	-3.1	-3.0563	-2.7833	-3.2021	-2.8792	-2.9062	-2.9625	-2.7792	-3.0521	-3.2833	-2.9646	-3.1583	-3.0271	-2.6958	-3.2583	388.269	182.874	283.515	187.739	379.650	389.221	512.979	370.340	253.407	204.313	207.476	476.093	503.796	356.754	399.228	452.073	0.0012076	0.0003034	6.216e-05	581.09	2.6385e-06	2.6056e-06	747.85	153.56	3.2505e-06	2.2614e-06	267.24	91.691	42.35	14.484	3.1549e-06	41.589	3.852e-05	7.8891e-06	2.1e-06	548.91	9.5243e-08	8.0267e-08	721.95	148.38	1.1524e-07	8.5551e-08	257.46	88.262	40.439	13.982	1.0298e-07	40.341	383.858	245.946	254.128	181.781	318.167	329.523	181.800	187.054	292.351	325.948	186.576	192.201	192.011	196.823	323.147	196.349	-8191	255	
1395.483	1	1	0	0	0.15324	0.065418	0.026746	0.1701	0.069654	0.18376	0.091664	0.22351	0.19872	0.14539	0.075512	0.15283	0.15856	0.053675	0.19137	0.239	-2.3146	-3.0708	-3.0708	-2.7542	-3.0438	-3.0583	-2.8979	-3.0042	-3.0062	-2.9042	-3.2896	-2.8	-3.2438	-3.0917	-2.7646	-3.1417	382.755	262.158	277.968	508.435	496.109	409.117	526.692	361.736	180.315	525.609	451.708	200.766	204.030	353.851	251.391	408.683	0.0012196	0.00027783	9.7224e-05	584.49	2.748e-06	3.2319e-06	747.7	154.98	3.8428e-06	2.7897e-06	269.65	92.205	42.763	14.474	2.8977e-06	42.149	3.7604e-05	8.6138e-06	2.3598e-06	550.3	8.5574e-08	8.4894e-08	722.84	149.07	1.1135e-07	8.8198e-08	258.47	88.738	40.756	14.062	1.0117e-07	40.712	382.990	238.445	260.370	181.709	316.004	325.248	182.067	186.984	296.228	319.842	186.690	192.239	191.635	196.614	310.232	196.492	-8191	255	
1395.577	1	1	0	0	0.11063	0.087033	0.43321	0.14048	0.13324	0.17365	0.22618	0.19749	0.058827	0.075274	0.049401	0.14982	0.11407	0.26113	0.21726	0.13836	-2.5708	-2.9021	-3.0812	-2.6917	-2.9271	-3.2	-2.7479	-3.1667	-2.8417	-2.8458	-3.15	-2.8396	-3.2625	-3.0896	-2.6271	-3.2979	323.233	289.376	509.002	437.497	195.441	358.202	483.730	334.420	343.109	485.136	222.230	469.761	380.380	523.451	226.524	489.437	0.0013179	0.0002855	0.0001017	588.77	2.2799e-06	3.0782e-06	746.99	155.1	3.5276e-06	2.5018e-06	269.01	93.013	42.815	14.668	3.1691e-06	42.601	3.9763e-05	7.9344e-06	2.2304e-06	551.36	1.0433e-07	7.3823e-08	722.31	149.33	1.1676e-07	9.1671e-08	259.16	89.431	41.081	14.201	1.0487e-07	41.037	384.008	237.474	255.761	181.708	298.726	330.888	181.904	186.912	292.600	331.983	186.906	192.355	191.704	196.911	293.463	196.348	-8191	255	
1395.698	1	1	0	0	0.075538	0.16498	0.1235	0.12777	0.20866	0.17806	0.098925	0.30722	0.1194	0.2848	0.14719	0.18066	0.063678	0.14488	0.23632	0.2498	-2.4583	-2.9667	-3.1646	-2.7708	-3.0708	-3.1208	-2.6625	-3.2396	-2.9958	-2.8708	-3.4021	-2.9521	-3.0292	-3.0125	-2.7479	-2.9062	391.911	329.218	386.570	388.805	178.230	208.081	455.405	201.838	281.527	179.605	482.594	233.824	294.871	327.516	240.802	171.158	0.0013145	0.00036066	6.3133e-05	585.87	2.1824e-06	3.2127e-06	745.66	154.92	3.752e-06	2.8175e-06	269.19	93.133	42.939	14.689	3.0653e-06	42.213	4.0267e-05	9.5952e-06	1.7949e-06	551.63	8.7021e-08	8.2168e-08	725.03	149.69	1.0515e-07	8.7867e-08	259.55	89.275	40.992	14.169	9.7552e-08	40.816	383.309	237.881	260.145	181.948	321.240	321.389	181.927	186.996	289.465	326.076	186.748	192.141	191.635	196.730	298.446	196.473	-8191	255	
1395.794	1	1	0	0	0.16492	0.14287	0.25668	0.055748	0.048058	0.28657	0.26319	0.09341	0.18965	0.28638	0.15489	0.39395	0.23042	0.082888	0.2494	0.19521	-2.6	-2.7896	-2.8479	-2.8438	-3.1208	-3.1917	-3.05	-3.1562	-3.1146	-2.6771	-3.175	-2.7729	-3.0458	-3.2604	-2.6854	-3.2625	426.916	478.515	175.866	170.391	310.859	252.365	421.595	428.491	268.742	303.069	171.366	238.085	171.934	227.743	338.772	503.115	0.001206	0.00031638	6.0226e-05	580.23	2.5018e-06	2.5504e-06	739.96	153.59	4.2611e-06	2.4794e-06	267.6	92.617	42.52	14.52	3.2936e-06	42.034	3.8868e-05	9.1385e-06	2.1631e-06	546.92	9.6566e-08	8.3077e-08	716.72	148.33	1.1044e-07	8.5221e-08	257.38	88.685	40.764	14.142	1.0335e-07	40.692	383.493	243.535	249.921	181.747	312.440	348.408	181.848	186.935	296.345	320.345	186.923	192.130	191.877	196.764	296.928	196.473	-8191	255	
1395.890	1	1	0	0	0.074368	0.042295	0.08538	0.15242	0.19121	0.13606	0.39269	0.28784	0.15926	0.15126	0.28322	0.15658	0.10847	0.027465	0.17434	0.080853	-2.7396	-2.7979	-3.0438	-3.0854	-2.9313	-3.1396	-3.0687	-3.1896	-3.0021	-2.8438	-3.2	-3.0062	-2.9271	-3.0146	-2.925	-3.1708	389.473	278.023	377.374	304.193	502.090	465.426	494.489	182.663	193.238	325.628	517.640	507.018	196.937	509.563	407.549	315.236	0.0013087	0.00027267	7.8422e-05	577.16	2.9188e-06	2.218e-06	743.88	155.17	4.1986e-06	2.769e-06	269.08	93.568	43.059	14.9	3.3342e-06	42.687	3.9281e-05	8.7988e-06	2.3167e-06	546.84	9.9169e-08	8.5431e-08	719.87	149.84	1.1721e-07	8.9397e-08	258.41	89.621	41.236	14.398	1.0668e-07	41.362	383.508	250.040	241.618	181.783	299.739	344.598	182.044	187.068	296.103	327.154	187.077	192.212	191.690	197.165	314.660	196.395	-8191	255	
1395.962	1	1	0	0	0.10788	0.24868	0.35985	0.069357	0.0069826	0.15826	0.28102	0.25695	0.091511	0.19987	0.26344	0.1184	0.22455	0.09625	0.20159	0.1062	-2.6333	-2.9167	-2.9313	-2.9021	-3.0521	-3.0417	-3.0417	-3	-3.2062	-2.6437	-3.0208	-2.9771	-2.7708	-3.2021	-2.9354	-2.9292	275.270	340.625	313.197	480.799	237.972	256.254	427.831	454.211	180.902	301.257	228.619	214.147	182.635	220.239	269.878	457.191	0.0012482	0.00026814	7.9117e-05	588.79	2.9152e-06	3.0956e-06	746.19	157.07	3.6079e-06	3.0813e-06	272.41	94.897	44.079	15.198	1.8738e-06	43.58	3.8049e-05	8.9271e-06	2.3577e-06	551.65	1.0454e-07	8.6257e-08	722.55	151.24	1.1319e-07	8.6875e-08	262.07	91.089	42.057	14.657	9.6852e-08	42.088	382.678	258.676	267.839	182.121	313.805	329.272	181.873	187.128	279.647	340.777	186.983	192.005	191.648	196.829	303.434	195.977	-8191	255	
1396.058	1	1	0	0	0.13774	0.12367	0.13404	0.16353	0.20711	0.090262	0.33065	0.16414	0.17214	0.14035	0.12807	0.13588	0.18917	0.032266	0.045379	0.064973	-2.7604	-2.8187	-2.975	-3.1604	-2.7771	-3.1542	-3.0479	-2.7854	-3.1562	-2.8729	-3.2104	-3.0833	-2.7396	-3.125	-2.8625	-2.8187	368.739	409.184	433.925	192.471	336.909	394.857	430.922	397.930	482.699	181.559	326.444	386.922	372.242	262.756	382.651	460.350	0.0013221	0.00022769	6.4584e-05	583.22	3.4914e-06	2.6218e-06	745.81	156.67	3.7029e-06	2.838e-06	273.16	95.926	44.389	15.304	3.6803e-06	43.873	3.9825e-05	9.3423e-06	2.5197e-06	550.84	1.0966e-07	8.7621e-08	723.4	152.13	1.1857e-07	9.2415e-08	263.54	92.007	42.416	14.851	1.1721e-07	42.418	382.234	251.736	259.760	181.535	308.011	321.724	182.221	186.836	295.242	321.341	186.966	192.228	191.645	196.920	295.980	196.161	-8191	255	
1396.178	1	1	0	0	0.058885	0.10104	0.19244	0.25052	0.36551	0.1159	0.18435	0.3684	0.24794	0.1516	0.098104	0.11426	0.23931	0.085137	0.16162	0.047744	-2.8958	-2.7125	-3.0729	-3.0958	-2.5917	-3.2604	-2.8479	-2.8708	-3.25	-2.7062	-2.9667	-3.1813	-2.6792	-3.1042	-3.0625	-2.75	334.708	525.128	312.828	266.879	360.143	208.769	197.851	179.540	519.206	419.438	458.660	393.087	272.416	266.105	522.957	265.021	0.0013654	0.00017774	8.4463e-05	585.36	3.3237e-06	1.8952e-06	739.83	156.91	3.491e-06	2.4639e-06	268.38	93.85	43.383	14.92	2.9761e-06	42.767	4.2024e-05	8.8592e-06	2.403e-06	549.84	1.0458e-07	8.5968e-08	716.61	150.94	1.1249e-07	8.6296e-08	258.8	90.103	41.566	14.454	1.0405e-07	41.299	385.537	234.055	274.681	182.374	296.593	335.449	181.934	187.201	271.170	331.396	187.036	192.098	191.556	196.836	316.228	196.363	-8191	255	
1396.274	1	1	0	0	0.11829	0.066134	0.15912	0.086146	0.050551	0.17025	0.24626	0.28116	0.22682	0.097675	0.24208	0.36312	0.088392	0.077663	0.078336	0.17613	-2.6958	-2.8688	-2.7062	-3.1604	-2.7417	-3.175	-3	-2.8833	-3.3479	-2.7354	-2.9521	-3.3271	-2.6771	-3.1896	-2.9208	-3.0187	219.923	321.947	197.056	514.494	478.149	185.679	470.306	482.766	508.121	332.502	456.608	503.242	354.621	325.457	210.379	427.531	0.0012739	0.0002533	8.4851e-05	575.64	2.5962e-06	3.2238e-06	731.84	155.56	4.2259e-06	1.859e-06	268	93.648	43.65	15.05	3.2836e-06	42.853	3.9375e-05	8.8177e-06	2.4009e-06	543.39	1.0128e-07	8.5844e-08	709.1	149.62	1.079e-07	9.9486e-08	257.98	89.883	41.546	14.512	1.0203e-07	41.62	382.570	244.194	246.405	181.900	308.485	331.637	181.739	186.891	287.565	330.850	186.663	192.085	191.674	196.534	300.821	196.178	-8191	255	
1396.371	1	1	0	0	0.056474	0.20479	0.063447	0.19268	0.17333	0.22132	0.14165	0.1672	0.11421	0.1297	0.017099	0.019961	0.11671	0.316	0.10755	0.18198	-2.8208	-2.8667	-2.9521	-3.0021	-2.9604	-2.9646	-3.1479	-2.7729	-3.2021	-3.0604	-2.7687	-3.0812	-2.8146	-3.0542	-3.1729	-2.6688	361.780	449.337	326.060	225.281	322.212	286.322	213.502	374.711	185.850	325.306	371.301	355.485	170.531	410.131	461.078	431.581	0.0012933	0.00027822	9.577e-05	580.29	2.9048e-06	3.3556e-06	733.92	156.89	4.4597e-06	2.5117e-06	272.06	94.494	43.808	15.17	2.6259e-06	43.439	4.0687e-05	9.1272e-06	2.7049e-06	544.41	1.0628e-07	9.2165e-08	712.28	150.89	1.1479e-07	8.5386e-08	260.87	90.783	41.904	14.693	1.0413e-07	41.991	384.129	223.642	254.876	181.698	300.319	324.752	182.022	187.214	290.115	325.257	186.779	192.141	191.457	197.065	304.992	196.078	-8191	255	
1396.491	1	1	0	0	0.17569	0.11774	0.18488	0.1138	0.27547	0.12741	0.26034	0.099739	0.092922	0.076712	0.094581	0.15679	0.042271	0.067765	0.010604	0.064261	-2.8312	-2.7854	-2.7958	-3.3021	-2.8396	-3.1312	-3.1021	-3.0563	-3.2083	-2.7438	-3.0917	-3.2417	-2.8167	-3.0875	-3.0417	-2.825	229.904	302.302	520.015	210.679	246.180	253.989	382.766	325.261	511.425	423.332	260.372	441.030	363.682	421.737	310.806	473.908	0.0013132	0.00030039	4.5843e-05	581.56	2.8829e-06	2.7141e-06	742.31	157.31	4.1487e-06	1.7897e-06	271.75	95.513	44.142	15.368	3.7064e-06	43.624	4.0082e-05	8.7233e-06	2.3398e-06	547.54	1.0549e-07	8.8901e-08	717.77	151.85	1.1598e-07	9.2002e-08	262.13	91.704	42.284	14.848	1.1371e-07	42.373	382.353	238.320	260.188	182.034	319.825	340.709	182.035	187.003	307.833	324.743	186.724	191.871	191.402	197.022	293.683	196.283	-8191	255	
1396.586	1	1	0	0	0.31479	0.10237	0.177	0.21942	0.24053	0.19356	0.06429	0.07716	0.17143	0.081418	0.27826	0.091965	0.071318	0.20962	0.19111	0.0045931	-2.6958	-3.0229	-2.8271	-3.1708	-3.0687	-2.8417	-3.3021	-2.8667	-2.8854	-3.1833	-2.7771	-3.2146	-2.775	-2.9542	-3.2792	-2.8375	498.450	282.376	204.085	405.467	437.344	187.081	231.897	332.398	444.056	280.824	490.125	430.469	177.396	171.238	330.387	252.302	0.0013544	0.00017501	8.8435e-05	585.67	2.9471e-06	2.8679e-06	740.7	157.86	3.3006e-06	1.7509e-06	271.47	95.327	43.769	15.024	3.4386e-06	42.801	4.1459e-05	8.8403e-06	2.3924e-06	549.56	1.1367e-07	1.0208e-07	719.87	152.18	1.1828e-07	9.3408e-08	261.09	90.873	41.864	14.582	9.5413e-08	41.587	383.686	266.334	272.960	181.796	301.857	334.257	181.780	186.978	293.365	293.823	186.993	192.230	191.490	196.497	285.757	196.375	-8191	255	
1396.659	1	1	0	0	0.088209	0.097311	0.26838	0.13976	0.027255	0.09394	0.24828	0.070714	0.10613	0.045318	0.2437	0.18633	0.21692	0.11033	0.22989	0.080098	-2.6813	-3.0104	-2.6146	-3.1375	-3.0646	-2.8312	-3.3896	-2.7188	-3.1021	-3.0104	-2.8208	-3.1167	-2.9813	-2.7604	-3.3292	-2.9833	248.315	475.644	201.492	216.978	190.491	491.324	246.638	463.503	304.039	510.731	514.537	176.079	435.777	209.762	402.867	281.154	0.0013548	0.00026487	8.9536e-05	573.43	2.3514e-06	3.6201e-06	730.15	154.34	4.0512e-06	3.0874e-06	265.83	91.924	43.078	14.81	2.4734e-06	42.58	4.1397e-05	7.9231e-06	2.7628e-06	540.25	9.388e-08	9.0306e-08	706.56	148.88	1.134e-07	8.5221e-08	255.68	88.827	41.236	14.383	9.6852e-08	41.159	383.296	258.559	260.558	181.689	319.725	326.437	182.030	186.894	306.001	328.927	186.827	191.868	191.730	197.085	299.288	196.032	-8191	255	
1396.778	1	1	0	0	0.21445	0.10613	0.11643	0.12226	0.077598	0.35593	0.060966	0.26517	0.15958	0.042452	0.28682	0.30017	0.15274	0.16934	0.15102	0.25402	-2.5938	-3.1479	-2.8417	-3.2292	-2.9917	-2.8458	-3.3563	-2.9375	-2.9396	-3.1854	-2.8375	-3.1896	-2.8875	-2.8708	-3.1188	-2.9167	431.281	432.375	375.398	301.762	435.410	268.004	414.250	462.358	176.546	235.366	212.279	487.440	290.211	509.719	463.861	439.606	0.0012774	0.00034681	0.00010306	571.35	3.0832e-06	2.9457e-06	729.02	155.65	2.924e-06	2.8553e-06	268.67	94.308	43.557	15.06	3.1321e-06	43.277	3.9441e-05	8.0703e-06	2.4314e-06	540.23	9.9954e-08	8.8654e-08	707.41	149.56	1.0802e-07	8.6461e-08	258.23	90.374	41.617	14.534	1.0212e-07	41.699	381.930	246.056	258.719	182.067	305.406	314.984	181.680	186.974	278.189	329.218	186.739	191.884	191.463	196.848	286.611	196.185	-8191	255	
1396.874	1	1	0	0	0.055969	0.10123	0.05973	0.10587	0.17837	0.073069	0.070703	0.32191	0.40858	0.047652	0.17215	0.11149	0.11416	0.10027	0.097972	0.0033003	-2.525	-3.0083	-2.8458	-3.075	-3.2042	-2.9604	-3.2604	-2.9437	-2.7646	-3.25	-2.8875	-2.9646	-3.2562	-2.8333	-2.9542	-3.1937	272.406	269.258	380.911	204.039	189.101	265.681	518.577	473.515	477.010	320.589	230.888	170.193	516.349	214.998	243.232	517.721	0.0013256	0.00019323	8.5907e-05	574.69	2.7678e-06	2.2042e-06	738.02	156.85	3.9319e-06	2.6015e-06	271.09	94.689	44.041	15.149	2.8473e-06	43.576	4.077e-05	6.9114e-06	2.5429e-06	545.13	9.1979e-08	8.9975e-08	714.64	151.1	1.1996e-07	8.8653e-08	261.53	90.964	42.044	14.671	1.1322e-07	42.115	381.149	240.003	262.316	181.935	312.745	334.267	181.656	187.053	287.323	323.508	186.831	192.503	191.347	196.734	308.601	196.359	-8191	255	
1396.970	1	1	0	0	0.19733	0.28191	0.17716	0.18961	0.22783	0.13779	0.16768	0.11925	0.070793	0.22027	0.15937	0.058972	0.13118	0.17584	0.22722	0.23133	-2.5062	-3.0917	-2.7	-2.9708	-2.975	-2.6375	-3.2083	-2.8979	-2.8375	-3.0167	-2.7104	-3.0271	-2.9062	-2.9167	-3.0208	-2.9708	422.858	184.759	367.024	381.029	291.931	428.681	377.987	406.438	385.288	189.954	280.364	244.626	505.764	356.382	227.597	518.309	0.0013353	0.00026717	5.9179e-05	581.46	2.7284e-06	4.152e-06	742.23	158.04	3.3323e-06	3.1896e-06	272.61	95.846	43.956	15.315	4.8731e-06	43.59	4.0488e-05	7.7117e-06	2.7838e-06	549.28	9.7103e-08	8.886e-08	718.93	151.87	1.1602e-07	9.0183e-08	262.56	91.858	42.176	14.79	1.1219e-07	42.239	383.658	241.009	244.235	181.976	313.177	336.960	181.907	187.293	307.200	326.350	186.791	192.016	191.644	196.755	290.041	196.419	-8191	255	
1397.091	1	1	0	0	0.14754	0.11846	0.16476	0.10173	0.1642	0.040908	0.0091418	0.088926	0.274	0.052266	0.14453	0.28125	0.19612	0.12616	0.33418	0.14229	-2.4188	-3.0396	-2.6479	-3.1188	-3.0208	-2.9	-3.2062	-2.9313	-2.8896	-3.0896	-3.0479	-2.9833	-3.1958	-2.7354	-2.9479	-3.2083	371.410	321.799	395.589	383.359	260.638	515.483	466.630	225.684	387.167	378.184	520.211	180.563	345.924	519.595	448.020	440.207	0.0012755	0.00024579	9.0872e-05	578.04	2.1648e-06	3.7839e-06	731.35	155.34	4.4656e-06	2.2464e-06	267.81	92.856	43.002	14.799	2.8321e-06	42.507	3.9698e-05	8.2326e-06	2.7007e-06	544.06	9.5739e-08	8.7538e-08	708.02	149.51	1.3133e-07	8.2161e-08	257.33	89.223	41.122	14.357	1.0195e-07	41.077	383.258	243.175	259.062	182.028	309.129	344.528	181.860	187.254	293.982	320.751	186.806	191.989	191.716	196.367	317.236	195.955	-8191	255	
1397.187	1	1	0	0	0.079171	0.36354	0.30474	0.13225	0.16175	0.044004	0.057663	0.10927	0.28664	0.071147	0.40087	0.10741	0.063992	0.2124	0.1417	0.075639	-2.3187	-2.9146	-2.7604	-2.9437	-3.2042	-2.8042	-3.3479	-3.1937	-2.8063	-3.0292	-2.875	-3.0125	-3.3354	-2.9646	-3.0875	-3.0542	456.318	292.585	443.967	237.606	191.966	450.608	448.301	298.086	337.046	319.765	469.776	240.721	312.800	194.940	484.931	452.859	0.0013282	0.00020756	7.3928e-05	572.85	2.8366e-06	2.0637e-06	725.21	154.46	4.9085e-06	3.2657e-06	267.96	92.847	43.136	14.897	3.0477e-06	42.849	4.047e-05	8.761e-06	2.3493e-06	537.4	9.1566e-08	8.0102e-08	704.48	148.83	1.2209e-07	8.7826e-08	256.69	89.263	41.393	14.436	9.8539e-08	41.407	383.311	229.535	255.931	181.923	310.314	342.004	181.890	187.124	293.470	337.723	186.382	192.004	191.540	197.292	296.747	196.094	-8191	255	
1397.259	1	1	0	0	0.22076	0.17442	0.22487	0.15258	0.17548	0.32916	0.13133	0.32066	0.12699	0.062539	0.31441	0.2661	0.058977	0.1288	0.19745	0.31961	-2.3083	-3.1562	-2.9458	-2.8438	-3.2062	-2.7979	-3.1958	-3.1271	-2.9083	-3.1437	-3.1729	-2.7646	-3.2438	-2.7458	-3.0438	-2.9354	345.416	490.947	275.822	464.052	177.266	448.305	507.586	475.177	306.608	415.364	173.024	452.092	182.359	233.526	457.627	192.392	0.0013552	0.00016478	8.693e-05	578.14	2.877e-06	2.8274e-06	732.76	155.97	4.7515e-06	1.722e-06	269.06	94.684	43.674	15.051	3.1869e-06	43.074	4.0991e-05	9.0555e-06	2.6334e-06	541.89	9.2186e-08	8.8488e-08	708.14	149.87	1.168e-07	8.551e-08	259.61	90.707	41.686	14.64	1.1388e-07	41.917	383.049	245.442	253.741	181.756	313.465	325.667	182.026	186.747	297.906	327.929	186.316	192.290	191.910	197.056	314.355	196.007	-8191	255	
1397.379	1	1	0	0	0.049712	0.17461	0.17776	0.08289	0.17153	0.18845	0.31261	0.25664	0.22221	0.1471	0.25281	0.1249	0.085228	0.087032	0.054806	0.18763	-2.5292	-3.0583	-3.1042	-2.725	-3.225	-2.9188	-2.9042	-3.1813	-2.7125	-3.0521	-2.9104	-2.9688	-3.0729	-2.9688	-2.8396	-3.2562	459.261	482.605	265.362	468.618	204.192	176.405	452.522	170.793	277.254	310.987	427.818	390.635	171.083	471.847	378.774	379.060	0.0013277	0.00036289	8.2558e-05	578.86	2.3126e-06	3.3987e-06	734.3	156.2	4.8359e-06	3.6403e-06	272.36	94.665	44.059	15.321	3.889e-06	43.768	4.1405e-05	9.0517e-06	2.4913e-06	544.74	9.5781e-08	9.1793e-08	710.62	150.6	1.2776e-07	9.8576e-08	261.71	91.21	41.993	14.752	1.1042e-07	42.252	383.914	260.630	257.879	182.073	318.703	338.351	181.979	187.185	302.674	327.775	186.765	192.125	191.724	197.161	293.712	196.012	-8191	255	
1397.475	1	1	0	0	0.13167	0.055928	0.20691	0.10732	0.16497	0.006844	0.12539	0.16854	0.10302	0.17631	0.23667	0.20368	0.18165	0.08777	0.44607	0.04312	-2.375	-2.8063	-3.1854	-2.7042	-3.1875	-2.8792	-2.9125	-3.0021	-2.7583	-3.0062	-3.0854	-2.8312	-3.1104	-2.9417	-2.9437	-3.2458	436.226	475.040	434.982	503.186	432.820	348.308	463.113	173.343	330.997	293.562	189.384	263.083	484.604	204.968	328.841	518.301	0.0012949	0.00032626	9.3898e-05	577.37	2.3715e-06	4.374e-06	736.17	156.78	3.9498e-06	2.367e-06	270.59	94.24	43.582	14.914	2.9956e-06	42.758	4.0615e-05	9.0857e-06	2.2714e-06	545.33	9.4996e-08	9.7659e-08	712.98	150.97	1.2279e-07	9.1878e-08	259.55	90.469	41.612	14.5	1.0627e-07	41.401	383.975	254.204	249.961	181.960	318.515	333.887	182.221	187.142	284.098	302.083	186.797	192.119	191.599	196.885	297.857	196.209	-8191	255	
1397.570	1	1	0	0	0.12876	0.23972	0.20247	0.08215	0.060434	0.32397	0.17451	0.14012	0.11585	0.15533	0.23292	0.12526	0.19216	0.077088	0.10415	0.18132	-2.35	-2.8812	-3.2583	-2.6292	-3.1833	-2.925	-2.8583	-3.0917	-2.8312	-3.0292	-3.1583	-2.5625	-2.9042	-2.8104	-2.8729	-2.9625	201.519	249.191	216.777	218.741	373.341	285.342	287.650	223.227	468.790	518.622	228.217	331.254	229.654	209.695	225.447	506.755	0.0012779	0.00029831	7.7661e-05	569.97	2.7947e-06	2.6836e-06	723.62	153.67	4.0199e-06	2.1349e-06	266.5	92.924	43.072	14.848	3.3606e-06	42.403	3.9897e-05	9.3688e-06	2.3114e-06	538.09	9.7103e-08	8.2333e-08	700.08	147.99	1.1984e-07	8.5965e-08	254.93	88.905	41.088	14.366	9.7593e-08	41.128	384.390	240.272	265.804	181.834	308.182	327.196	182.050	187.009	289.983	327.794	187.040	191.840	191.919	196.740	292.349	196.384	-8191	255	
1397.666	1	1	0	0	0.20275	0.18119	0.058955	0.19469	0.24552	0.1461	0.29024	0.19826	0.048894	0.21987	0.060003	0.22345	0.1607	0.10327	0.23202	0.068949	-2.5271	-2.7271	-3.0438	-2.5312	-2.9896	-2.975	-2.7917	-2.8979	-2.9646	-2.8208	-3.3479	-2.8563	-2.9313	-3.0625	-2.7375	-3.2146	188.887	233.737	223.623	308.375	481.603	190.385	515.554	516.731	230.630	210.792	497.856	189.225	465.683	521.417	458.829	275.805	0.0012484	0.00025182	6.784e-05	573.69	2.7716e-06	3.605e-06	725.8	154.3	4.1304e-06	2.5043e-06	267.28	93.028	43.254	15.109	3.827e-06	43.195	3.8672e-05	8.6969e-06	2.0453e-06	539.5	9.388e-08	9.1545e-08	703.87	149	1.2013e-07	9.531e-08	257.24	89.641	41.358	14.518	1.0738e-07	41.592	383.816	251.833	262.503	182.230	309.170	323.662	181.916	186.957	291.329	307.784	186.854	192.473	191.486	196.997	303.646	196.268	-8191	255	
1397.787	1	1	0	0	0.15432	0.13455	0.086746	0.090009	0.37786	0.22547	0.27198	0.057175	0.09097	0.22985	0.041781	0.1282	0.25075	0.051084	0.11851	0.23358	-2.6063	-2.8479	-3.0917	-2.8354	-2.9062	-3.1562	-2.8354	-3.1229	-2.7938	-2.8604	-3.1917	-2.8229	-2.9146	-3.0875	-2.7812	-3.0229	425.450	347.461	202.738	181.929	432.085	355.785	494.473	473.151	500.849	453.992	350.268	327.330	383.150	403.844	309.375	474.949	0.0012847	0.00027542	0.00011012	579.61	2.3563e-06	2.6443e-06	728.89	156.51	3.738e-06	2.3193e-06	271.01	94.546	43.744	15.084	4.4922e-06	43.316	3.9586e-05	9.3952e-06	2.7091e-06	543.37	1.0004e-07	8.5679e-08	708.52	149.96	1.1057e-07	9.6633e-08	259.36	90.742	41.851	14.642	1.1376e-07	41.926	381.967	233.790	251.546	182.115	324.147	337.763	182.156	186.894	277.393	322.694	186.831	191.982	191.529	196.843	291.059	196.500	-8191	255	
1397.858	1	1	0	0	0.13965	0.061597	0.0897	0.27281	0.21696	0.18826	0.10573	0.16089	0.15994	0.18762	0.16044	0.12137	0.11808	0.17629	0.15735	0.40158	-2.6146	-2.7458	-3.1125	-2.7854	-2.8458	-3.0104	-2.9604	-2.9146	-3.075	-2.5479	-3.2313	-2.7542	-3.075	-3.0292	-2.7687	-3.1375	519.014	239.198	182.191	448.552	395.790	292.404	389.540	513.024	367.746	199.323	425.761	518.218	281.366	402.392	264.098	480.042	0.0013032	0.00029915	8.1534e-05	578.02	2.1334e-06	1.5913e-06	734.06	156.61	4.3094e-06	2.386e-06	271.37	95.034	43.951	15.12	2.7354e-06	43.191	3.985e-05	9.7085e-06	2.4493e-06	544.58	1.0487e-07	7.9606e-08	712.39	150.83	1.15e-07	9.1464e-08	261.4	91.387	42.067	14.731	1.0516e-07	41.84	381.828	244.951	271.625	182.082	296.250	332.544	181.682	186.926	290.114	333.472	186.752	192.110	191.552	197.253	286.817	196.388	-8191	255	
1397.954	1	1	0	0	0.066512	0.20813	0.1267	0.1553	0.22421	0.24351	0.072961	0.15091	0.2477	0.23475	0.20888	0.10966	0.16745	0.13246	0.13944	0.10914	-2.5375	-2.7729	-3.0083	-2.8229	-2.8479	-3.1188	-2.6833	-2.9188	-3.1583	-2.5812	-3.1854	-2.8937	-2.7042	-3.2167	-2.7458	-3.0771	306.937	280.740	435.618	186.459	248.085	313.376	432.726	468.659	393.126	222.382	385.089	461.843	457.577	412.689	328.844	235.301	0.001344	0.0002106	7.8191e-05	573.54	2.3046e-06	2.669e-06	722.86	154.38	4.2223e-06	2.9093e-06	265.54	92.437	42.554	14.805	3.6592e-06	41.939	4.0832e-05	8.8931e-06	2.2599e-06	538.62	1.0657e-07	8.5307e-08	700.48	148.48	1.1208e-07	8.6585e-08	254.55	88.695	40.82	14.285	1.08e-07	40.631	382.096	236.343	260.234	182.035	310.158	328.234	182.075	187.459	290.259	319.839	186.730	191.928	191.686	196.944	309.136	196.165	-8191	255	
1398.051	1	1	0	0	0.030928	0.11185	0.029541	0.39699	0.17103	0.20953	0.24142	0.20568	0.16609	0.2291	0.22913	0.076464	0.27556	0.084142	0.20902	0.088768	-2.7667	-2.5687	-2.9562	-2.8917	-2.8333	-3.2687	-2.8	-2.8771	-3.1813	-2.7167	-3.1979	-3.0187	-2.7833	-2.9083	-2.8187	-2.9625	504.331	204.918	255.340	183.335	344.434	294.305	434.107	396.955	370.471	470.218	445.645	474.932	178.160	226.570	372.923	330.924	0.0012534	0.0002405	9.1266e-05	568.45	3.1353e-06	3.6376e-06	719.6	152.75	4.4898e-06	3.2471e-06	263.13	92.65	43.004	14.766	3.1138e-06	42.44	3.8741e-05	9.0706e-06	2.5345e-06	535.37	1.0268e-07	9.0843e-08	697.08	147.48	1.1229e-07	9.6757e-08	254.29	88.785	41.05	14.272	1.0569e-07	40.96	381.422	234.095	247.150	181.963	289.885	330.286	181.862	186.897	284.638	323.670	186.667	192.072	191.364	196.780	318.674	196.161	-8191	255	
1398.171	1	1	0	0	0.099588	0.24346	0.29014	0.30023	0.27562	0.094295	0.27943	0.05297	0.25173	0.2248	0.11641	0.33815	0.22397	0.060593	0.030981	0.25782	-2.6312	-2.8	-2.8667	-2.8583	-2.7542	-3.2146	-2.9667	-2.75	-3.0646	-2.6146	-3.05	-2.8479	-2.7125	-3.1	-2.7979	-2.8646	179.038	410.696	424.196	179.372	350.481	477.840	439.514	407.728	443.137	524.928	441.524	259.911	464.932	493.990	252.455	473.099	0.0012812	0.00022343	8.5543e-05	574.81	3.1834e-06	3.7148e-06	726.72	154.13	3.9993e-06	2.3094e-06	268.82	93.816	43.346	14.942	3.5402e-06	42.559	3.8372e-05	8.9309e-06	2.3072e-06	538.67	9.7433e-08	7.8284e-08	702.24	148.73	1.1426e-07	9.4276e-08	257.46	90.068	41.404	14.485	1.0282e-07	41.426	383.237	231.863	251.249	182.041	299.291	352.512	181.834	187.180	301.077	316.973	186.790	192.182	191.243	196.916	304.845	196.179	-8191	255	
1398.267	1	1	0	0	0.15966	0.094781	0.089913	0.045988	0.20992	0.052699	0.079806	0.29019	0.18118	0.096991	0.18708	0.16653	0.28479	0.080083	0.06006	0.1461	-2.7479	-2.7896	-2.8688	-2.8875	-2.8417	-3.0542	-3.2104	-2.8187	-3.0125	-2.8354	-2.8167	-3.1208	-2.5896	-3.1188	-3.0396	-2.975	309.304	431.831	493.025	267.600	184.859	507.776	376.065	469.695	298.582	468.896	193.407	452.830	504.285	415.961	221.081	486.112	0.0013213	0.00023159	4.9977e-05	579.56	2.4946e-06	3.549e-06	729.47	155.78	4.3841e-06	2.7852e-06	269.41	94.712	43.769	15.117	4.4037e-06	43.288	4.0535e-05	9.7387e-06	2.4114e-06	541.5	1.0392e-07	9.0182e-08	706.79	150.43	1.1319e-07	1.0035e-07	259.17	90.8	41.772	14.652	1.133e-07	41.979	381.799	241.988	256.592	181.957	316.480	320.078	181.913	187.219	284.611	320.256	186.890	192.221	191.697	196.925	294.531	196.453	-8191	255	
1398.364	1	1	0	0	0.22428	0.26543	0.027238	0.33158	0.080348	0.10982	0.088776	0.20248	0.17944	0.15307	0.19998	0.20525	0.29519	0.046152	0.18579	0.24247	-2.6396	-2.8167	-2.8812	-3.2042	-2.7708	-2.9813	-3.1688	-2.7687	-3.0375	-2.8104	-3.0396	-3.2313	-2.8354	-3.2083	-3.0042	-2.875	456.675	480.836	491.564	239.513	237.806	516.830	440.869	173.889	300.640	447.070	473.366	405.091	335.635	175.296	412.934	514.001	0.0012973	0.00027371	8.3526e-05	574.29	2.4826e-06	2.9065e-06	729.19	154.85	3.3423e-06	2.9024e-06	265.84	93.036	42.978	14.834	4.2997e-06	41.942	3.9665e-05	9.0706e-06	2.5986e-06	541.49	1.0417e-07	8.7042e-08	705.49	149.39	1.1364e-07	9.2457e-08	256.37	89.423	41.222	14.351	9.7181e-08	40.703	383.129	247.451	276.090	181.740	325.662	346.494	181.973	186.785	285.482	316.636	186.649	192.385	191.452	197.175	300.016	196.271	-8191	255	
1398.460	1	1	0	0	0.27877	0.2335	0.14782	0.42921	0.21662	0.067267	0.134	0.15293	0.14884	0.10872	0.13431	0.096452	0.0097526	0.049017	0.10464	0.056201	-2.6063	-2.8063	-2.8583	-3.2188	-2.7104	-3.0062	-2.9125	-2.9292	-3.075	-2.9583	-2.6	-3.1146	-2.6875	-2.8771	-2.9667	-2.9604	197.797	270.046	233.863	429.559	512.142	380.703	497.249	349.704	319.013	323.787	328.451	506.971	198.138	251.155	497.594	423.489	0.0012928	0.00020543	8.0106e-05	569.41	2.3365e-06	2.377e-06	717.08	151.84	2.7783e-06	2.8251e-06	263.02	91.452	42.773	14.662	3.6435e-06	41.963	3.9499e-05	8.8026e-06	2.5734e-06	532.93	1.0396e-07	7.94e-08	694.09	146.48	1.1352e-07	8.2657e-08	252.29	87.946	40.722	14.151	9.6194e-08	40.616	382.455	247.271	247.596	181.984	311.540	314.780	181.951	187.278	284.968	318.396	187.000	191.956	191.297	196.762	311.722	196.204	-8191	255	
1398.556	1	1	0	0	0.091736	0.076195	0.21665	0.25105	0.082279	0.13315	0.29415	0.28124	0.15245	0.20187	0.1273	0.075875	0.10025	0.21465	0.094344	0.015776	-2.7792	-2.9042	-2.875	-3.1208	-2.75	-3.0604	-2.9979	-2.7562	-3.0875	-2.9771	-2.7583	-3.2354	-2.8167	-2.8292	-3.3187	-2.8792	286.603	364.084	278.542	277.234	270.281	208.957	496.328	486.286	415.219	474.266	439.178	448.535	217.490	521.179	350.831	425.616	0.001291	0.00025595	9.253e-05	563.47	2.2651e-06	2.9831e-06	721.24	153.29	4.7506e-06	2.3569e-06	264.54	92.807	43.016	14.778	4.2385e-06	42.502	3.8814e-05	8.7686e-06	2.403e-06	533.66	1.0347e-07	8.477e-08	698.97	147.63	1.1943e-07	8.9934e-08	254.97	89.141	41.046	14.328	1.0212e-07	40.962	381.421	257.338	256.063	181.701	312.073	322.840	182.172	186.861	292.673	311.498	186.688	192.176	191.422	197.382	307.552	196.335	-8191	255	
1398.652	1	1	0	0	0.24454	0.029163	0.092495	0.08551	0.09444	0.26144	0.021031	0.11661	0.12302	0.06871	0.18553	0.18059	0.2042	0.23188	0.14903	0.16135	-2.775	-2.8042	-2.6771	-3.0854	-2.8833	-2.7812	-3.2375	-2.8417	-2.9313	-2.9979	-2.7146	-3.1813	-2.7521	-2.7021	-3.1292	-2.7125	203.603	187.212	331.784	454.413	356.383	292.700	496.477	289.326	183.650	435.697	398.676	507.294	319.694	441.851	371.668	453.509	0.0012498	0.0002809	8.4508e-05	569.81	1.8198e-06	3.1196e-06	724.74	155.19	4.1015e-06	1.8803e-06	267.87	93.449	43.02	14.914	2.8372e-06	42.668	3.8647e-05	8.7233e-06	2.303e-06	537.45	1.0049e-07	9.9807e-08	702.09	148.8	1.0573e-07	8.7247e-08	257.4	89.854	41.266	14.45	9.2328e-08	41.339	384.253	229.771	267.239	181.443	321.182	309.211	181.979	187.199	291.396	333.745	186.799	192.420	191.722	196.810	305.444	196.112	-8191	255	
1398.771	1	1	0	0	0.10441	0.18963	0.33471	0.18427	0.14148	0.047405	0.15972	0.038474	0.067194	0.10077	0.13481	0.26018	0.1307	0.042502	0.26863	0.046821	-2.6354	-2.7438	-2.7729	-2.9708	-2.8688	-2.9562	-3.1458	-2.7521	-2.9708	-2.8729	-2.9292	-2.8271	-3.0062	-2.6854	-3.2208	-2.7938	183.693	514.146	326.988	396.094	276.201	367.790	492.479	366.449	204.342	400.170	180.809	473.196	264.233	406.038	410.665	251.753	0.0013092	0.00028895	8.1798e-05	576.45	2.4211e-06	2.1854e-06	730.73	154.83	3.9674e-06	2.6439e-06	269.55	94.012	43.47	15.036	3.8869e-06	42.723	4.0687e-05	9.3914e-06	2.7039e-06	540.49	1.0169e-07	8.3035e-08	707.91	149.89	1.2164e-07	7.6868e-08	259.33	90.663	41.571	14.492	1.066e-07	41.232	383.633	252.158	263.465	181.925	312.927	309.585	181.953	187.049	282.222	323.874	186.893	192.190	191.358	197.178	308.289	196.177	-8191	255	
1398.867	1	1	0	0	0.22794	0.39954	0.10691	0.071342	0.17299	0.14851	0.39726	0.12629	0.10808	0.24655	0.25028	0.047676	0.076242	0.22356	0.048152	0.1781	-2.6583	-2.8646	-2.9208	-3.05	-2.95	-2.7458	-3.225	-2.8229	-2.8917	-2.9813	-2.75	-3.2625	-2.7479	-2.7562	-2.9938	-2.8167	519.185	191.675	521.838	198.629	475.371	461.711	458.387	261.252	195.586	481.996	439.054	411.607	170.157	313.037	338.969	180.470	0.0012695	0.00025921	7.6078e-05	569.56	2.8719e-06	3.0515e-06	718.7	152.94	4.1929e-06	1.8306e-06	264.18	91.774	42.228	14.537	3.8554e-06	41.552	3.8999e-05	8.8026e-06	2.8059e-06	535.38	1.0086e-07	9.3446e-08	696.22	146.99	1.1812e-07	7.8563e-08	253.52	87.905	40.476	14.075	1.0286e-07	40.19	382.140	250.220	265.972	181.973	306.010	331.072	181.868	186.829	292.380	326.621	186.745	192.046	191.622	196.536	295.147	196.144	-8191	255	
1398.963	1	1	0	0	0.096018	0.16388	0.054339	0.024639	0.41338	0.046459	0.26296	0.40371	0.1467	0.065573	0.24871	0.074011	0.07838	0.1657	0.14331	0.066499	-2.3042	-2.9042	-2.6125	-3.0354	-2.8229	-2.7583	-3.3354	-2.8875	-2.7417	-3.0979	-2.7042	-3.0375	-3.0312	-2.8167	-3.0979	-2.9062	379.270	222.653	508.090	502.001	449.875	455.277	180.348	502.418	405.205	210.761	430.909	459.604	229.489	508.785	510.360	480.901	0.0012613	0.00025723	8.1044e-05	565.19	2.4749e-06	1.9269e-06	723.47	152.89	3.0195e-06	2.5452e-06	262.77	92.238	42.78	14.628	3.0009e-06	42.062	3.9111e-05	7.874e-06	2.3767e-06	533.16	8.8797e-08	8.6051e-08	699.07	147.07	1.0901e-07	8.1871e-08	254.04	88.551	40.821	14.194	1.0417e-07	40.768	382.341	252.635	250.414	182.182	302.233	341.881	181.791	187.100	281.118	330.664	187.019	192.322	191.691	197.059	302.676	196.294	-8191	255	
1399.059	1	1	0	0	0.22339	0.13591	0.15588	0.088229	0.26752	0.12123	0.41027	0.18102	0.07696	0.18052	0.093141	0.027072	0.18152	0.11134	0.2131	0.045332	-2.2833	-3.2854	-2.6979	-2.9375	-3.0417	-2.7896	-2.9604	-3.0854	-2.8063	-3.0271	-2.8958	-3.0375	-2.9375	-2.8604	-3.0292	-2.9729	238.212	233.133	222.601	335.967	356.903	389.062	467.767	468.480	338.746	173.563	371.683	449.102	436.215	401.504	344.934	500.104	0.0013335	0.0002754	7.8153e-05	570.5	2.9967e-06	3.866e-06	725.68	154.42	4.407e-06	2.3991e-06	267.34	93.644	43.078	14.88	3.5347e-06	42.621	4.0452e-05	9.3612e-06	2.4009e-06	536.8	9.3549e-08	1.0068e-07	702.98	148.69	1.2025e-07	8.1541e-08	257.05	89.721	41.172	14.391	1.0088e-07	41.281	381.926	259.131	254.673	181.882	314.170	329.215	182.038	187.152	308.463	326.008	187.145	191.914	191.465	196.770	289.834	196.067	-8191	255	
1399.155	1	1	0	0	0.15172	0.27983	0.25466	0.27172	0.14685	0.015369	0.14325	0.1111	0.11748	0.10293	0.15908	0.12679	0.17952	0.21313	0.22099	0.23998	-2.2875	-2.8292	-2.6333	-2.8292	-3.0563	-2.725	-3.0917	-2.95	-2.8167	-3.1833	-2.9667	-2.9479	-3.1646	-2.6521	-3.1896	-2.9292	470.390	306.444	201.909	245.270	281.331	192.957	195.931	451.411	430.213	426.103	404.460	440.230	409.656	453.281	437.727	362.602	0.0013113	0.00031094	7.7182e-05	580.92	1.9945e-06	2.7161e-06	732.83	154.68	3.7252e-06	1.7719e-06	269.5	93.799	43.544	14.956	2.9896e-06	43.019	4.1488e-05	8.9082e-06	2.3924e-06	543.56	1.0086e-07	9.3322e-08	708.49	149.66	1.2177e-07	8.9645e-08	259.4	90.404	41.548	14.48	1.0216e-07	41.65	383.293	236.805	269.556	181.981	312.153	342.454	181.880	187.040	300.878	332.237	186.847	191.908	191.782	197.161	317.636	196.077	-8191	255	
1399.252	1	1	0	0	0.141	0.19793	0.18659	0.12189	0.13949	0.31174	0.04297	0.014349	0.16577	0.19911	0.15787	0.20299	0.24079	0.11347	0.3061	0.19284	-2.3354	-3.2396	-2.5958	-2.8708	-3.2271	-2.8354	-3.1646	-3.0938	-2.7146	-3.0354	-2.9875	-2.9417	-2.9062	-2.9	-2.9292	-3.0333	296.448	410.462	428.420	188.796	415.062	356.979	200.456	207.100	173.192	196.420	204.817	373.053	486.653	231.531	202.377	436.603	0.0013252	0.00028157	7.8962e-05	572.54	2.9719e-06	2.5054e-06	728.65	155.03	3.6289e-06	2.7203e-06	267.05	93.15	42.999	14.618	3.4185e-06	41.801	4.0843e-05	8.912e-06	2.2893e-06	541.78	9.4789e-08	9.0967e-08	706.11	149.21	1.1401e-07	9.2002e-08	256.54	89.16	41.085	14.198	1.0409e-07	40.536	382.931	261.434	269.090	182.244	306.802	331.502	182.326	187.079	287.601	323.659	186.505	192.044	191.448	197.084	293.380	196.249	-8191	255	
1399.348	1	1	0	0	0.17286	0.051727	0.17094	0.16037	0.14052	0.2134	0.084466	0.16449	0.031104	0.083251	0.097411	0.11895	0.027638	0.24383	0.13829	0.12401	-2.1667	-3.1042	-2.7625	-2.7	-3.025	-2.9437	-3.1083	-3.0854	-2.8438	-3	-2.9854	-2.9667	-3.1437	-2.6417	-2.8979	-2.9333	466.300	308.179	215.910	423.277	302.588	326.312	490.738	517.752	318.027	207.932	478.470	401.418	455.697	508.771	462.247	476.776	0.0012697	0.00017696	8.9602e-05	564.29	2.9335e-06	3.0116e-06	721.36	153.17	3.7363e-06	2.7759e-06	262.69	91.921	42.21	14.595	3.8353e-06	41.973	4.0089e-05	7.8778e-06	2.505e-06	532.36	9.2351e-08	9.357e-08	695.61	147.08	1.2591e-07	8.8487e-08	253.57	88.304	40.604	14.136	9.9197e-08	40.63	382.090	252.550	267.379	182.150	308.969	332.013	181.948	186.967	292.519	321.243	186.808	192.043	191.879	196.919	295.470	196.292	-8191	255	
1399.444	1	1	0	0	0.13045	0.20635	0.28712	0.16282	0.087837	0.14873	0.25112	0.32798	0.24507	0.22815	0.12584	0.12722	0.1134	0.17205	0.098353	0.15613	-2.2875	-3.0208	-3.0292	-2.6792	-3.0708	-2.8646	-3.15	-2.9292	-2.9667	-2.9646	-3.0583	-2.8312	-2.975	-2.8	-2.8021	-3.075	352.781	497.503	188.516	171.803	403.020	295.044	468.274	396.472	434.717	463.003	328.392	414.851	396.293	203.965	368.918	526.300	0.0013099	0.00029761	6.3601e-05	573.21	2.5893e-06	2.5825e-06	724.89	153.53	2.537e-06	2.443e-06	266.52	93.005	43.156	14.834	2.8809e-06	42.395	4.0038e-05	8.863e-06	2.3125e-06	537.45	9.5078e-08	9.8114e-08	702.6	148.34	1.1574e-07	8.6378e-08	256.53	89.315	41.196	14.322	1.0356e-07	41.007	382.398	245.538	259.169	181.827	326.548	336.055	181.922	186.990	276.058	325.846	186.653	192.065	191.609	196.780	296.574	196.356	-8191	255	
1399.563	1	1	0	0	0.042987	0.20232	0.12007	0.23121	0.19791	0.1699	0.018544	0.2441	0.1576	0.26932	0.13382	0.17834	0.22227	0.29284	0.145	0.30292	-2.3479	-3.1667	-2.9833	-2.8396	-2.9979	-2.9979	-3.1458	-3.0417	-2.725	-3.0292	-3.0979	-2.8792	-3.0854	-3.0417	-2.8292	-3.0396	358.729	457.937	280.750	289.786	460.736	419.104	509.298	485.681	466.167	510.843	199.560	478.919	313.019	239.182	345.320	177.613	0.0012964	0.00033799	9.0718e-05	575.76	2.7107e-06	2.6381e-06	730.83	155.63	5.2106e-06	2.1371e-06	269.13	94.301	43.37	14.997	4.4481e-06	42.803	3.9991e-05	8.7422e-06	2.5019e-06	540.22	1.0268e-07	8.9934e-08	709.08	149.89	1.23e-07	9.5269e-08	259.07	90.441	41.543	14.503	1.2079e-07	41.597	383.523	235.994	263.701	181.377	311.278	347.854	181.799	187.068	299.733	330.273	187.020	192.263	191.832	196.898	309.528	196.405	-8191	255	
1399.659	1	1	0	0	0.090202	0.043114	0.081523	0.094385	0.39931	0.11183	0.052159	0.19729	0.036167	0.27028	0.095154	0.38498	0.062518	0.092001	0.23798	0.12018	-2.4042	-2.9521	-2.9417	-2.7479	-2.975	-2.8708	-3.0542	-3.2271	-2.8937	-2.8563	-3.2313	-2.7229	-3.0125	-3.1146	-2.8	-2.9979	324.813	292.360	325.335	260.976	294.125	348.528	513.154	229.653	469.782	298.654	391.612	467.709	351.847	177.027	337.641	178.781	0.0013221	0.00030584	6.9131e-05	583.79	2.9211e-06	3.1139e-06	732.73	156.08	3.8294e-06	2.2011e-06	272.08	94.371	43.634	14.94	2.7109e-06	42.602	4.0082e-05	9.0404e-06	2.3335e-06	545.77	1.0256e-07	9.0471e-08	711.84	150.66	1.2513e-07	9.0968e-08	260.67	90.627	41.717	14.465	1.0878e-07	41.174	381.258	252.314	263.297	181.698	305.549	326.828	181.991	187.209	283.815	317.310	187.050	191.955	191.921	197.136	291.580	195.903	-8191	255	
1399.755	1	1	0	0	0.2562	0.14269	0.13685	0.23743	0.026695	0.14217	0.20069	0.065655	0.14794	0.16247	0.10487	0.14422	0.12745	0.14952	0.14495	0.12345	-2.4	-2.9604	-3.0604	-2.7604	-2.8667	-3.0083	-2.7458	-3.0021	-2.7583	-2.6646	-3.3146	-2.8042	-3.1979	-2.9208	-2.9646	-3.0375	328.761	272.262	298.257	278.423	232.759	522.162	434.738	332.894	456.517	191.203	475.444	426.614	440.064	518.262	233.006	269.400	0.0013201	0.00018038	0.00010063	570.98	1.4645e-06	3.1979e-06	721.62	153.32	2.5906e-06	2.466e-06	265.5	92.078	42.521	14.612	3.2157e-06	41.743	3.9375e-05	8.8328e-06	2.2231e-06	537.33	9.012e-08	8.3779e-08	699.6	147.73	1.0905e-07	9.7295e-08	254.45	88.547	40.767	14.166	1.1018e-07	40.508	383.714	246.432	262.608	182.095	319.959	326.820	181.785	187.195	300.161	344.052	186.830	191.918	191.660	197.015	315.596	196.383	-8191	255	
1399.851	1	1	0	0	0.13038	0.12349	0.16709	0.047129	0.21536	0.21275	0.16418	0.17902	0.2372	0.27753	0.16232	0.15933	0.25552	0.14738	0.10158	0.12274	-2.5833	-2.5167	-2.9646	-2.7542	-2.9271	-3.0104	-2.9	-3.0125	-2.9354	-2.8042	-3.1333	-2.8438	-2.8708	-3.0625	-2.7792	-3.0812	311.283	367.422	190.085	276.686	305.535	470.215	439.587	217.245	259.034	519.305	471.514	509.861	204.317	398.131	297.627	216.331	0.0012602	0.00030648	6.9772e-05	573.37	3.5435e-06	3.0814e-06	724.14	153.34	2.889e-06	2.4862e-06	267.01	93.344	42.786	14.861	3.3478e-06	42.462	3.9314e-05	9.6179e-06	2.2725e-06	534.81	9.2682e-08	8.8406e-08	701.68	147.94	1.1176e-07	8.9273e-08	256.8	89.296	41.182	14.361	1.0956e-07	41.021	381.199	251.138	240.743	181.810	309.918	348.052	181.969	186.992	289.889	355.317	186.520	192.049	191.595	196.661	285.087	196.251	-8191	255	
1399.947	1	1	0	0	0.33992	0.14643	0.12679	0.15048	0.099916	0.047714	0.2149	0.18289	0.012507	0.17513	0.1432	0.068412	0.29298	0.094442	0.25047	0.21146	-2.4188	-2.7	-3.0833	-2.6583	-2.8917	-3.075	-3.0312	-3.0687	-3.0333	-2.7687	-3.0958	-2.8375	-2.8958	-3.15	-2.6937	-2.8854	212.005	341.234	174.144	371.125	235.141	370.919	420.498	363.988	442.974	354.534	193.639	352.558	247.843	236.502	405.940	512.356	0.0012547	0.00028551	7.6762e-05	572.87	3.0981e-06	3.355e-06	731.22	155.82	3.9936e-06	1.7404e-06	269.58	93.719	43.335	14.982	3.8283e-06	42.808	3.8752e-05	9.4895e-06	2.2935e-06	539.75	9.9458e-08	8.4812e-08	706.95	149.63	1.1594e-07	9.1837e-08	259.24	90.244	41.481	14.498	1.175e-07	41.443	381.688	249.022	248.057	181.946	313.683	326.563	181.888	187.140	280.811	319.993	187.127	191.890	191.717	196.864	305.416	196.606	-8191	255	
1400.044	1	1	0	0	0.24896	0.12723	0.11611	0.27293	0.18179	0.049929	0.07384	0.14952	0.23127	0.10306	0.23724	0.18723	0.082047	0.11689	0.14753	0.13414	-2.5958	-2.7188	-3.0646	-2.6312	-3.0312	-3.0625	-2.9417	-3.0604	-2.9146	-2.7042	-3.1188	-2.8063	-2.8604	-3.0271	-2.7958	-2.8479	515.496	215.178	418.626	192.342	465.315	488.502	516.644	170.107	231.586	446.739	468.545	497.827	470.470	301.861	334.694	520.819	0.0013111	0.0002129	8.3198e-05	572.7	3.1005e-06	3.9729e-06	737.87	157	4.6947e-06	2.5686e-06	270.42	94.78	43.819	15.244	2.0561e-06	43.361	4.0991e-05	9.0555e-06	2.5218e-06	541.43	9.7433e-08	8.4275e-08	712.74	150.51	1.2636e-07	9.502e-08	260.55	91.105	41.94	14.66	1.0261e-07	41.905	382.731	245.791	272.009	181.966	313.679	329.072	182.167	187.013	300.026	317.732	186.663	192.239	191.554	196.615	308.428	196.418	-8191	255	
1400.140	1	1	0	0	0.16559	0.14479	0.15251	0.060469	0.12711	0.21168	0.11802	0.094752	0.047938	0.15962	0.20838	0.18579	0.24983	0.07985	0.23559	0.16655	-2.6229	-2.6604	-3.0854	-2.6604	-2.8271	-3.1708	-2.9	-2.7458	-3.0812	-2.6146	-3.0083	-2.9208	-2.8063	-3.2854	-2.7458	-3.2812	419.438	326.299	291.767	221.066	438.503	478.911	495.847	410.265	430.500	461.359	525.768	387.353	524.311	484.070	505.839	386.199	0.0013545	0.00024923	9.6975e-05	570.77	2.563e-06	3.5836e-06	728.81	155.09	4.4204e-06	2.4564e-06	267.74	93.28	43.233	14.745	3.6612e-06	42.175	4.122e-05	9.3008e-06	2.4061e-06	541.03	1.0466e-07	9.6296e-08	706.7	149.39	1.1783e-07	9.531e-08	257.42	89.596	41.223	14.31	1.1112e-07	40.804	382.160	258.703	255.274	181.627	290.127	332.936	182.107	187.000	285.831	336.260	186.802	192.032	191.799	196.782	317.217	196.395	-8191	255	
1400.260	1	1	0	0	0.16317	0.20507	0.067483	0.14541	0.17894	0.06256	0.090265	0.13677	0.21629	0.29868	0.12156	0.16944	0.10237	0.20969	0.11122	0.25536	-2.6458	-2.6188	-2.9333	-2.7958	-2.6104	-3.3479	-2.7771	-2.9125	-3.1208	-2.775	-3.0083	-2.9958	-2.8438	-3.0687	-2.7917	-2.9208	507.031	207.966	472.164	198.480	292.920	199.706	201.616	385.301	294.877	512.081	173.867	206.293	410.550	523.367	220.496	185.077	0.0012727	0.00020966	8.3343e-05	569.54	2.9501e-06	3.49e-06	720.53	152.54	2.309e-06	2.4558e-06	266.68	92.906	43.038	14.755	3.5465e-06	42.286	4.0368e-05	8.7837e-06	2.3062e-06	533.3	1.109e-07	8.0639e-08	698	147.36	1.079e-07	9.3449e-08	255.64	88.995	41.145	14.342	1.0968e-07	41.042	382.398	249.171	275.754	182.017	315.979	322.729	181.887	187.073	282.341	314.326	186.848	192.296	191.639	197.032	290.258	196.245	-8191	255	
1400.356	1	1	0	0	0.23995	0.080521	0.17078	0.44792	0.13652	0.28834	0.36984	0.26375	0.17702	0.15994	0.071378	0.10287	0.12483	0.12098	0.093287	0.065245	-2.6854	-2.6188	-3.0729	-2.9125	-2.8521	-3.0479	-3.1146	-2.7646	-3.175	-3.0417	-3.0521	-3.2375	-2.9625	-3.1104	-2.8646	-2.9167	494.403	357.357	296.363	446.754	405.125	388.676	444.246	192.192	519.443	293.476	254.814	480.470	371.989	173.948	403.894	251.921	0.0012864	0.00037516	6.5809e-05	572.1	2.3491e-06	2.6172e-06	727.23	154.66	4.3012e-06	1.2136e-06	269.48	94.261	43.363	14.874	3.2163e-06	42.871	3.8651e-05	9.2933e-06	2.3041e-06	537.81	9.9871e-08	9.5222e-08	703.51	149.19	1.1311e-07	8.4807e-08	258.57	90.118	41.527	14.481	1.0578e-07	41.451	382.028	233.616	257.499	181.505	323.366	331.535	181.831	187.080	284.152	332.964	186.907	192.061	191.518	196.851	294.325	196.404	-8191	255	
1400.453	1	1	0	0	0.08954	0.081344	0.33036	0.3547	0.079777	0.14175	0.12985	0.25391	0.095336	0.17494	0.13288	0.16837	0.17855	0.21789	0.038474	0.2872	-2.8833	-2.7188	-2.9062	-3.2979	-2.7062	-3.125	-3.2667	-2.7854	-3.1333	-2.8354	-3.05	-3.0854	-2.7812	-3.0042	-2.9313	-2.8563	418.327	325.804	378.006	520.275	247.643	185.711	174.513	173.888	170.785	200.700	382.600	194.773	242.877	401.989	397.676	445.690	0.0013557	0.00030859	8.0168e-05	575.16	2.9368e-06	3.2935e-06	733.08	156.2	3.598e-06	2.7215e-06	272.46	94.524	43.809	15.102	3.4991e-06	43.386	4.0249e-05	1.0426e-05	2.5334e-06	540.9	1.0235e-07	8.3283e-08	709.43	150.25	1.0987e-07	8.489e-08	260.64	90.97	41.881	14.622	1.0314e-07	41.924	383.192	252.559	272.076	181.863	317.243	331.633	182.260	187.083	286.020	324.543	186.858	192.252	191.358	197.007	292.603	196.094	-8191	255	
1400.549	1	1	0	0	0.17622	0.1866	0.11665	0.091645	0.096483	0.20045	0.2508	0.10882	0.10558	0.072936	0.086053	0.17455	0.086421	0.034401	0.17022	0.18782	-2.3979	-2.7583	-2.7333	-3.0896	-2.8521	-2.9625	-3.0083	-2.8479	-3.1271	-2.8563	-2.9833	-3.1562	-2.7146	-3.0833	-2.9604	-2.7083	382.980	485.859	376.279	480.626	262.155	233.032	457.370	434.262	222.945	495.576	235.603	513.427	504.383	506.004	510.879	205.858	0.0013419	0.00030426	8.9153e-05	578.53	2.2411e-06	3.303e-06	735.9	156.45	3.3105e-06	2.5274e-06	271.37	94.701	44.119	15.189	2.9626e-06	42.786	4.0473e-05	9.1008e-06	2.5229e-06	541.68	1.0727e-07	8.948e-08	713.17	150.87	1.063e-07	8.9604e-08	261.35	90.979	41.96	14.626	1.0117e-07	41.446	384.350	246.248	252.044	181.839	301.932	327.831	181.926	187.350	286.727	327.127	186.825	192.030	191.175	197.044	284.571	196.535	-8191	255	
1400.643	1	1	0	0	0.054541	0.081438	0.035989	0.13763	0.22135	0.20379	0.1895	0.28329	0.18757	0.11186	0.17724	0.095888	0.19211	0.055783	0.080652	0.28693	-2.5083	-2.9354	-2.7875	-3.1542	-2.7729	-2.9	-2.9708	-2.9979	-3.0542	-3.1729	-2.9125	-3.1125	-2.7667	-2.9854	-3.0292	-2.9125	446.726	493.519	364.517	206.849	490.909	460.790	462.267	173.729	276.794	284.521	512.933	187.032	428.657	196.880	370.015	453.789	0.0012899	0.00034818	0.00010191	574.39	2.4491e-06	3.8781e-06	724.37	153.28	3.8777e-06	2.6859e-06	264.4	92.272	43.126	14.784	3.5866e-06	42.114	3.9836e-05	9.6745e-06	2.5702e-06	537.09	9.5491e-08	8.8612e-08	698.43	147.94	1.1233e-07	7.6331e-08	255.22	88.861	41.107	14.326	1.0101e-07	40.753	383.021	250.153	252.454	181.706	308.189	335.863	181.714	187.326	288.255	325.947	186.792	192.219	191.550	196.814	281.859	196.167	-8191	255	
1400.739	1	1	0	0	0.17339	0.008071	0.23997	0.19948	0.23029	0.07377	0.21777	0.13241	0.17616	0.17963	0.057094	0.20334	0.28236	0.17744	0.15128	0.4373	-2.6458	-2.7417	-2.7125	-3.1375	-2.925	-3.0396	-3.2396	-2.8271	-3.0625	-3.0542	-2.8021	-3.1708	-2.9271	-2.8187	-3.325	-2.8917	323.928	331.337	478.959	430.068	231.756	263.610	478.246	258.207	414.469	456.317	336.630	440.132	471.185	287.838	458.966	434.783	0.0012901	0.00028448	0.00010332	570.47	1.9037e-06	2.3852e-06	725.09	154.1	4.5095e-06	2.3625e-06	267.89	93.512	43.251	14.936	2.8712e-06	42.621	3.8756e-05	8.4968e-06	2.485e-06	534.73	9.8095e-08	8.13e-08	701.61	148.66	1.1824e-07	8.7412e-08	257.58	89.624	41.4	14.467	9.5372e-08	41.254	381.486	278.328	257.517	182.095	310.261	328.636	181.926	187.338	292.059	326.182	186.897	192.359	191.884	197.083	311.480	196.316	-8191	255	
1400.860	1	1	0	0	0.28328	0.28494	0.08129	0.13624	0.13607	0.12009	0.089701	0.24893	0.20852	0.021515	0.2297	0.21599	0.061091	0.132	0.14524	0.12478	-2.7188	-3.0875	-2.5646	-3.1625	-2.8375	-3.0708	-3.1292	-2.8271	-2.9271	-2.9771	-2.7417	-2.9375	-3.0083	-2.7562	-2.9646	-2.7792	330.428	454.728	498.143	495.950	377.653	333.176	512.753	426.071	401.156	177.594	507.502	451.714	268.619	198.887	301.472	403.846	0.0012643	0.00039795	7.9199e-05	576.82	2.8709e-06	3.6451e-06	730.83	156.06	4.0183e-06	2.4045e-06	269.83	94.469	43.909	15.076	3.2004e-06	43.115	4.0194e-05	9.0743e-06	2.4398e-06	539.21	1.0123e-07	8.9438e-08	706.67	150.12	1.2099e-07	9.4069e-08	259.75	90.742	41.899	14.634	1.0853e-07	41.708	384.035	247.465	236.339	181.632	303.164	317.067	182.061	186.674	298.267	327.660	186.718	191.755	191.799	196.888	310.195	196.168	-8191	255	
1400.956	1	1	0	0	0.18159	0.12215	0.11423	0.17801	0.11369	0.10804	0.13246	0.063709	0.054738	0.19677	0.26012	0.049962	0.28268	0.12845	0.3389	0.28328	-2.5979	-2.9771	-2.825	-3.0854	-3.1125	-2.8479	-3.2542	-2.9146	-2.9958	-2.9479	-2.8125	-2.9542	-3.0125	-2.8	-3.0646	-2.8292	382.998	343.622	385.361	453.593	277.050	254.186	388.888	377.768	376.554	417.117	510.401	435.662	247.953	375.028	404.250	179.464	0.0012633	0.00027102	9.0213e-05	570.37	2.5757e-06	2.9908e-06	735.99	155.75	2.9636e-06	2.3393e-06	272.29	94.958	43.906	15.219	3.3917e-06	43.451	4.0491e-05	9.5537e-06	2.7081e-06	542.04	9.3219e-08	9.0058e-08	711.17	150.51	1.1537e-07	8.4724e-08	261.67	91.388	42.066	14.749	1.0483e-07	42.022	384.440	251.986	267.815	181.806	307.679	333.297	182.101	187.134	283.809	331.229	187.223	192.040	192.123	197.032	297.845	196.219	-8191	255	
1401.028	1	1	0	0	0.076699	0.046386	0.24426	0.2738	0.060661	0.19857	0.30319	0.036156	0.19911	0.12065	0.038469	0.055108	0.20057	0.12672	0.11205	0.23334	-2.5771	-2.9979	-2.8563	-2.8729	-2.8792	-2.7687	-3.0833	-2.8979	-2.7625	-3.1542	-2.8854	-3.1396	-3.1021	-2.675	-3.0479	-2.7438	224.282	455.770	423.699	352.023	182.682	410.046	457.206	519.412	408.179	271.560	467.257	398.714	266.223	217.762	390.254	430.350	0.0013585	0.00028038	7.6546e-05	577.53	2.8186e-06	3.1437e-06	727.66	155.84	3.3068e-06	2.8834e-06	267.22	92.979	43.378	14.861	3.6223e-06	42.093	4.1412e-05	9.5084e-06	2.2483e-06	542.28	1.0099e-07	9.0512e-08	706.18	149.93	1.2763e-07	9.7047e-08	257.27	89.644	41.339	14.381	9.7058e-08	40.868	383.079	247.052	260.527	181.962	312.019	319.883	181.987	186.849	293.375	324.437	186.804	192.042	191.472	196.767	316.533	196.396	-8191	255	
1401.124	1	1	0	0	0.10956	0.30363	0.23315	0.016233	0.3329	0.19769	0.11333	0.17164	0.23002	0.27467	0.020619	0.23481	0.039852	0.17781	0.076327	0.04047	-2.4833	-2.8979	-2.725	-2.9	-2.8875	-2.8333	-2.9458	-2.9354	-2.7917	-3.0292	-2.7979	-2.875	-3.125	-2.5646	-3.1104	-2.7521	210.196	438.158	326.484	504.561	301.664	273.571	323.436	499.783	169.641	231.882	341.811	501.332	472.827	439.066	301.325	528.032	0.0013065	0.00028314	7.7991e-05	563.6	2.7225e-06	2.5771e-06	719.95	153.01	3.9415e-06	3.3113e-06	265.48	92.919	43.064	14.894	4.7588e-06	42.288	4.0484e-05	7.9117e-06	2.3788e-06	532.73	1.0694e-07	8.8984e-08	698.04	147.6	1.2008e-07	9.4648e-08	255.26	89.292	41.213	14.35	1.0092e-07	41.105	382.406	234.405	261.658	181.624	305.217	326.684	182.009	187.284	290.654	310.291	186.405	192.099	191.507	197.273	287.324	196.033	-8191	255	
1401.245	1	1	0	0	0.058714	0.10398	0.075676	0.21533	0.10167	0.20673	0.16129	0.25637	0.14985	0.063831	0.074525	0.27397	0.098715	0.15965	0.097404	0.24558	-2.5104	-3.0812	-2.7646	-2.8688	-3.05	-2.8229	-3.0708	-3.1063	-2.4333	-3.125	-2.7896	-2.9271	-3.025	-2.55	-2.9333	-3.1646	358.130	304.684	368.486	260.302	191.083	288.021	451.711	465.109	274.390	235.800	462.850	510.967	280.996	245.873	328.589	478.890	0.001285	0.00028188	8.7503e-05	569.85	2.3546e-06	3.1175e-06	724.67	154.38	3.8007e-06	2.7294e-06	269.17	93.793	43.502	15.051	3.7468e-06	42.713	3.9256e-05	8.6591e-06	2.3314e-06	537.51	9.8962e-08	9.6089e-08	703.28	149.1	1.2168e-07	8.1458e-08	258.52	90.34	41.528	14.61	1.0578e-07	41.43	384.128	248.771	272.005	181.830	316.732	324.917	181.895	186.877	289.374	338.120	186.721	191.910	191.188	196.821	309.905	196.318	-8191	255	
1401.341	1	1	0	0	0.11986	0.099172	0.14378	0.044208	0.15643	0.12234	0.069644	0.11279	0.23705	0.27233	0.18691	0.16863	0.33208	0.016137	0.051348	0.30202	-2.1375	-3.2083	-2.7354	-2.7667	-2.9292	-2.7833	-3.1813	-3.0021	-2.9333	-3.0854	-2.8958	-2.9708	-3.1792	-2.8646	-3.0021	-2.9313	464.355	505.099	365.368	331.646	409.716	286.502	443.130	477.921	520.957	429.110	499.017	507.969	179.928	397.848	208.203	400.498	0.0013452	0.00036077	7.3275e-05	575.43	2.0441e-06	2.3567e-06	731.69	155.33	4.3675e-06	2.8289e-06	269.76	95.182	43.854	15.209	2.7688e-06	43.376	4.0462e-05	8.8818e-06	2.1463e-06	540.93	9.3715e-08	8.7249e-08	708	149.95	1.2439e-07	8.7743e-08	260.51	91.051	41.972	14.694	9.7346e-08	41.997	382.278	244.675	247.773	182.115	302.458	323.450	181.834	187.389	300.363	321.287	186.852	192.018	191.755	196.754	278.276	196.221	-8191	255	
1401.437	1	1	0	0	0.14442	0.21611	0.13974	0.10667	0.23254	0.14822	0.17554	0.20184	0.16716	0.25091	0.28173	0.13988	0.20769	0.10317	0.17786	0.058472	-2.2438	-3.0604	-2.8167	-2.8708	-3.0375	-2.7917	-3.075	-2.9375	-2.8438	-3.0542	-3.0667	-2.6604	-3.1021	-2.8271	-2.8937	-3.2292	444.093	409.130	184.106	416.301	189.273	217.598	455.549	312.144	287.525	511.271	202.217	376.354	225.496	239.646	411.309	223.451	0.0012329	0.0001833	0.00010114	577.35	2.4156e-06	3.455e-06	734.56	157.1	4.8847e-06	1.8176e-06	271.8	94.999	43.741	15.098	4.5928e-06	42.667	3.9933e-05	8.0816e-06	2.4229e-06	542.13	1.0334e-07	8.2333e-08	712.54	150.85	1.3108e-07	8.6461e-08	260.71	90.967	41.787	14.62	1.0545e-07	41.298	381.574	253.074	271.268	181.876	307.146	318.838	181.890	187.251	287.722	324.354	187.019	192.253	191.704	196.982	299.729	196.179	-8191	255	
1401.533	1	1	0	0	0.05995	0.17459	0.15899	0.29185	0.22711	0.1769	0.21126	0.37172	0.027147	0.076541	0.10316	0.088155	0.22396	0.21094	0.056836	0.22983	-2.4146	-3.0146	-2.925	-2.6979	-3.2229	-2.9354	-3.0583	-3.0417	-3.0292	-2.9875	-3.15	-2.8125	-3.2	-2.6229	-2.7854	-3.25	346.966	464.710	365.998	461.598	488.725	325.629	477.916	429.677	427.634	452.599	226.426	466.038	515.214	403.272	497.535	256.901	0.0012787	0.00026412	4.8292e-05	570.8	1.9627e-06	3.6078e-06	718.13	153.06	3.355e-06	2.0779e-06	264.67	92.475	42.512	14.779	3.3422e-06	41.76	3.939e-05	8.0023e-06	2.2367e-06	535.61	9.0574e-08	9.4189e-08	698.47	147.63	1.111e-07	8.6502e-08	254.3	88.626	40.869	14.255	9.7922e-08	40.483	384.971	265.341	259.718	181.814	320.187	328.297	182.042	187.158	279.141	324.357	187.111	192.239	191.309	197.180	299.775	196.052	-8191	255	
1401.652	1	1	0	0	0.17347	0.032644	0.13298	0.1138	0.17771	0.13053	0.11229	0.20416	0.2588	0.11759	0.056342	0.067931	0.16041	0.20321	0.29249	0.17756	-2.5083	-2.8187	-2.9354	-2.9333	-2.8375	-2.9125	-2.7917	-3.0896	-2.5854	-3.0333	-3.0292	-2.8438	-3.1125	-2.9396	-2.8417	-3.2604	217.505	354.031	293.268	505.502	351.704	385.583	522.506	401.900	329.777	334.196	437.659	284.414	246.300	183.179	488.319	458.176	0.0012912	0.00029321	9.7417e-05	568.11	2.7638e-06	2.6347e-06	720.81	152.69	2.9345e-06	3.1227e-06	264.42	93.592	43.005	14.875	2.8071e-06	42.526	3.8596e-05	8.7875e-06	2.0915e-06	534.03	9.5905e-08	8.4027e-08	700.37	147.4	1.1381e-07	8.2864e-08	255.2	89.467	41.213	14.386	9.9032e-08	41.044	382.370	246.639	253.597	181.563	310.442	340.907	182.055	186.925	294.839	314.989	186.955	192.204	191.494	196.923	297.101	196.195	-8191	255	
1401.724	1	1	0	0	0.21286	0.32799	0.14072	0.13662	0.040661	0.10166	0.20913	0.040715	0.059764	0.13177	0.12454	0.10745	0.022005	0.14843	0.26248	0.034652	-2.4938	-2.8354	-2.9729	-2.8167	-3.1396	-2.8292	-2.9042	-2.9938	-2.8958	-2.7062	-3.2146	-2.6875	-3.0833	-2.8458	-2.8646	-3.2313	350.559	450.267	419.998	335.891	233.669	527.053	402.942	388.721	334.286	253.851	171.625	475.177	514.607	499.248	193.501	327.812	0.0012672	0.00026013	6.4554e-05	565.97	2.103e-06	3.1047e-06	726.28	154.65	3.6943e-06	2.1823e-06	268.39	94.281	43.315	14.919	3.3432e-06	42.651	3.8383e-05	8.4553e-06	2.2125e-06	538.22	9.0202e-08	7.6591e-08	705.52	148.79	1.1475e-07	8.8032e-08	258.09	90.271	41.445	14.463	1.0648e-07	41.356	382.214	253.815	256.856	181.359	304.578	333.607	181.994	186.673	286.389	324.254	186.910	192.480	191.862	196.963	292.826	196.271	-8191	255	
1401.821	1	1	0	0	0.2355	0.19507	0.10238	0.35655	0.10024	0.12666	0.16639	0.12199	0.059132	0.058413	0.2031	0.15694	0.21795	0.056248	0.033563	0.19668	-2.3729	-2.8771	-2.9146	-2.8729	-2.8063	-3.025	-2.9229	-3.0917	-2.7625	-2.9542	-3.0646	-2.8292	-2.9729	-2.9	-2.7771	-3.15	416.814	479.376	234.964	510.887	263.891	489.402	196.693	353.328	173.442	528.196	489.976	238.096	203.398	345.924	231.531	514.841	0.0012842	0.00027159	9.5705e-05	578.57	2.6748e-06	1.8784e-06	731.07	155.65	3.3832e-06	2.3427e-06	270.34	94.748	43.412	15.058	2.6883e-06	43.027	3.9644e-05	8.7346e-06	2.4524e-06	540.58	1.0454e-07	8.853e-08	708.94	149.97	1.2e-07	9.0679e-08	260.17	90.989	41.706	14.563	1.103e-07	41.724	383.260	237.110	264.032	181.521	321.783	314.119	181.922	187.083	308.788	317.608	187.066	192.316	190.942	197.128	295.191	196.174	-8191	255	
1401.940	1	1	0	0	0.26292	0.10003	0.35502	0.40587	0.23336	0.18084	0.10894	0.16484	0.16754	0.16841	0.25279	0.21557	0.11012	0.27842	0.18142	0.26231	-2.4375	-2.9542	-3.0458	-2.8479	-3.0625	-3	-2.8042	-2.9875	-2.8458	-2.9354	-3.1937	-2.9771	-3.0896	-2.8729	-2.775	-3.1354	482.351	341.665	242.958	470.774	504.066	199.852	319.201	477.092	352.591	461.170	480.021	244.591	313.814	173.567	360.370	483.844	0.0013026	0.00034382	7.8683e-05	574.85	3.0693e-06	2.6303e-06	723.44	154.65	4.0264e-06	2.0489e-06	265.38	92.461	42.671	14.529	3.3974e-06	41.694	4.0651e-05	9.3952e-06	2.3998e-06	538.2	1.0037e-07	7.9896e-08	702.44	148.47	1.0655e-07	8.4973e-08	255.43	88.702	40.825	14.135	1.0096e-07	40.363	384.806	227.292	249.741	181.921	298.796	327.679	181.530	186.909	282.455	323.223	186.962	191.985	191.515	196.728	301.023	196.346	-8191	255	
1402.036	1	1	0	0	0.23958	0.04528	0.16615	0.17193	0.29287	0.16083	0.15293	0.11662	0.10224	0.14526	0.20121	0.2417	0.075672	0.087066	0.16787	0.19513	-2.6042	-2.7313	-3.0917	-2.7	-2.8667	-3.0083	-2.7333	-3.0542	-3	-2.6104	-2.9604	-2.9188	-2.7667	-3.025	-2.6104	-3.1813	403.377	401.703	457.401	202.414	457.953	353.858	498.080	446.417	171.017	276.759	517.028	497.691	206.104	468.633	489.170	519.775	0.0012904	0.0002598	9.7055e-05	565.83	2.5992e-06	3.196e-06	726.15	152.62	4.276e-06	3.0705e-06	264.76	92.271	42.701	14.706	2.5941e-06	42.024	4.0002e-05	9.0102e-06	2.3293e-06	532.33	9.8838e-08	7.9772e-08	698.95	147.2	1.0564e-07	9.8576e-08	254.79	88.542	40.91	14.197	1.0257e-07	40.706	382.997	235.325	285.186	181.454	306.512	329.356	181.987	187.347	282.804	329.639	186.945	191.975	191.952	197.215	301.673	196.449	-8191	255	
1402.133	1	1	0	0	0.36347	0.14793	0.10524	0.19912	0.037479	0.13271	0.20173	0.16351	0.21968	0.12241	0.072748	0.14525	0.12585	0.048685	0.18285	0.21013	-2.4313	-2.8563	-3.1354	-3.0667	-2.875	-3.1	-2.7854	-2.9875	-2.7687	-2.9125	-3.1979	-3.0771	-2.8312	-3.1354	-2.6646	-3.1854	490.985	414.781	477.542	265.127	379.393	512.742	387.354	470.157	383.818	355.128	272.111	273.091	297.859	389.468	339.608	223.387	0.0012543	0.00023334	8.7183e-05	566.32	3.2705e-06	3.3097e-06	727.9	155.16	3.3592e-06	2.6192e-06	266.88	92.973	43.137	14.788	2.8264e-06	42.295	3.9198e-05	9.1461e-06	2.3272e-06	536.67	9.8053e-08	8.3159e-08	704.29	148.92	1.0708e-07	8.8322e-08	257.9	89.411	41.28	14.355	9.821e-08	41.027	382.536	247.361	240.959	181.869	312.053	333.461	181.783	186.867	298.650	321.521	186.959	192.064	191.600	197.437	306.753	195.990	-8191	255	
1402.253	1	1	0	0	0.21985	0.19293	0.070735	0.159	0.086781	0.18759	0.058356	0.13316	0.15985	0.14583	0.09932	0.090783	0.21166	0.054784	0.16747	0.13005	-2.5771	-2.7771	-2.9479	-2.8563	-2.6271	-3.0438	-2.975	-3.0521	-2.9792	-2.7271	-3.1542	-3.0271	-2.6958	-3.175	-2.8729	-2.8063	172.663	172.213	218.313	494.873	312.258	412.780	344.370	336.816	223.522	376.366	518.452	437.360	481.391	453.341	255.962	473.883	0.0012749	0.00018137	9.5953e-05	571.46	2.5611e-06	2.7547e-06	731.06	156.07	3.8707e-06	2.2076e-06	269.29	94.256	43.727	15.022	3.9693e-06	42.79	3.9596e-05	7.4286e-06	2.263e-06	538.43	1.0264e-07	8.5225e-08	706.65	149.85	1.1586e-07	9.3987e-08	259.09	90.3	41.672	14.512	1.2079e-07	41.405	383.146	239.705	259.229	181.921	316.911	327.728	181.455	186.947	307.961	333.212	186.843	192.214	191.924	196.790	284.239	196.266	-8191	255	
1402.325	1	1	0	0	0.28997	0.031842	0.13397	0.11489	0.16436	0.089616	0.13975	0.26731	0.18212	0.14129	0.27102	0.19336	0.33945	0.24846	0.25318	0.19063	-2.7521	-2.8083	-2.8833	-2.9917	-2.6437	-3.1667	-2.8896	-2.9979	-3.2458	-2.6458	-3.0833	-2.8229	-2.8771	-3.0083	-2.9104	-3.0417	295.669	247.194	490.293	327.755	341.007	253.998	510.109	364.160	341.960	449.960	504.466	171.934	173.943	360.051	343.752	510.481	0.0013245	0.0002102	0.00010529	576.59	2.8564e-06	3.6168e-06	730.3	155.94	4.5632e-06	3.1187e-06	269.28	92.944	43.299	14.859	4.4681e-06	41.772	3.972e-05	8.7875e-06	2.4461e-06	540.19	1.119e-07	9.4065e-08	708.51	150.11	1.1327e-07	9.5517e-08	258.73	89.777	41.394	14.362	1.103e-07	40.703	384.678	259.184	250.231	182.130	302.995	325.885	182.054	187.069	283.841	314.434	186.971	192.017	192.022	197.064	306.563	196.188	-8191	255	
1402.421	1	1	0	0	0.23613	0.03258	0.22756	0.11275	0.20537	0.22225	0.22961	0.095357	0.11953	0.1521	0.06274	0.2137	0.1197	0.039223	0.32719	0.18379	-2.5062	-2.7979	-2.975	-2.9646	-2.6667	-3.2479	-2.8979	-3.0417	-3.0896	-2.8688	-3.125	-2.9854	-2.9979	-3.0417	-2.8479	-3.0917	348.463	229.159	520.545	251.733	234.370	301.271	375.742	461.508	290.169	519.311	324.169	235.385	485.995	396.161	236.737	441.793	0.0012797	0.00025684	7.4867e-05	564.73	3.2801e-06	2.611e-06	715.91	153.31	3.289e-06	2.6531e-06	263.11	91.667	42.548	14.616	4.3985e-06	41.694	3.9919e-05	8.6327e-06	2.3177e-06	531.18	1.1033e-07	7.8532e-08	695.16	147.06	1.159e-07	8.9604e-08	253.22	88.226	40.667	14.2	1.0771e-07	40.404	382.826	225.389	258.470	181.558	316.152	342.494	182.086	187.254	273.514	300.653	187.122	191.851	191.660	196.840	295.933	195.968	-8191	255	
1402.542	1	1	0	0	0.32796	0.17552	0.14452	0.040903	0.10283	0.13388	0.28074	0.084194	0.39428	0.075085	0.013645	0.11277	0.14951	0.16851	0.1889	0.10197	-2.6229	-2.8	-3.0062	-3.0896	-2.6479	-3.0854	-3.1188	-2.7896	-3.0146	-2.7146	-3.0333	-3.0896	-2.6	-2.8667	-2.7583	-2.9146	338.349	326.221	459.234	515.655	376.769	276.594	177.675	347.585	235.566	309.586	452.889	406.241	353.576	381.693	260.623	172.338	0.001279	0.00029321	8.2396e-05	570.41	2.3008e-06	2.4583e-06	715.85	153.87	3.7673e-06	1.806e-06	267.06	92.324	43.095	14.841	4.1159e-06	42.412	3.9625e-05	9.1385e-06	2.4114e-06	533.04	9.9417e-08	9.1173e-08	696.29	147.87	1.1586e-07	9.0183e-08	256.22	88.805	41.094	14.381	1.0907e-07	40.948	383.572	258.346	247.201	182.117	301.311	337.596	182.002	187.202	286.816	305.226	186.845	192.107	191.774	196.864	302.865	196.321	-8191	255	
1402.636	1	1	0	0	0.096068	0.2275	0.18298	0.084302	0.070291	0.055028	0.014693	0.26372	0.1205	0.21741	0.23823	0.11463	0.26617	0.15956	0.088306	0.06044	-2.6375	-2.8083	-2.7271	-3.1667	-2.6854	-3.0687	-2.9354	-2.9125	-3.1146	-2.7146	-3.0042	-3.1542	-2.7313	-3.1104	-2.8167	-2.6646	276.860	194.619	285.722	308.996	242.967	519.015	200.096	450.389	398.639	302.704	410.166	462.353	486.517	260.106	218.373	522.793	0.0013187	0.00033726	7.898e-05	568.23	3.2644e-06	3.6803e-06	727.74	154.9	3.2965e-06	1.9697e-06	267.28	93.571	43.268	15.003	1.9625e-06	42.745	4.0818e-05	8.8554e-06	2.5134e-06	533.45	1.0392e-07	9.1297e-08	703.05	148.84	1.1331e-07	9.3491e-08	257.95	89.868	41.516	14.503	1.0652e-07	41.265	381.841	240.227	273.145	181.873	310.767	334.899	182.345	186.819	291.522	330.697	187.134	191.993	191.918	196.900	318.194	196.224	-8191	255	
1402.732	1	1	0	0	0.13254	0.15391	0.13372	0.16052	0.18462	0.071747	0.054921	0.19884	0.088135	0.24959	0.21702	0.24326	0.13595	0.43327	0.11606	0.21169	-2.5896	-2.7208	-2.9208	-2.9854	-2.825	-2.85	-3.2521	-2.6562	-2.9292	-2.7958	-2.8583	-2.9958	-3.125	-2.9104	-3.1188	-2.7687	376.664	251.141	386.042	525.983	518.108	411.086	199.054	404.430	322.715	415.900	520.272	478.896	272.184	385.984	257.844	192.761	0.0012486	0.00033866	9.2547e-05	576.37	2.1388e-06	2.9844e-06	729.47	155.36	4.7663e-06	2.2662e-06	269.83	94.599	43.643	15.038	2.8368e-06	43.069	3.8201e-05	9.3725e-06	2.5576e-06	538.44	1.0913e-07	8.9314e-08	706.49	149.9	1.1742e-07	1.0193e-07	259.46	90.611	41.755	14.556	9.7881e-08	41.516	382.203	236.651	254.708	181.753	311.193	320.195	182.114	187.118	297.122	314.002	187.093	192.151	191.538	196.985	291.146	196.007	-8191	255	
1402.828	1	1	0	0	0.20673	0.186	0.076679	0.095682	0.33342	0.092218	0.21011	0.30027	0.17569	0.23344	0.14086	0.076675	0.11608	0.12797	0.24336	0.18721	-2.775	-2.8	-2.7417	-2.8875	-2.8458	-3.1333	-3.1104	-2.6542	-3.2167	-3.1792	-2.7021	-3.0625	-2.85	-2.9521	-2.9813	-2.8812	289.941	481.541	369.801	438.920	525.404	288.378	171.986	350.424	392.531	345.259	180.497	216.559	209.158	367.739	343.405	493.401	0.0013155	0.00025351	9.3873e-05	569.84	1.8517e-06	2.5373e-06	720.86	153.07	4.3768e-06	2.6325e-06	265.14	91.726	42.929	14.728	3.3575e-06	41.632	4.0307e-05	8.1118e-06	2.5387e-06	534.95	1.0008e-07	9.4396e-08	698.15	147.66	1.2386e-07	8.5758e-08	255.02	88.252	40.861	14.231	1.0993e-07	40.304	383.875	266.183	266.925	182.018	297.805	334.128	182.040	187.291	287.976	324.527	186.808	192.031	191.734	196.971	294.416	196.130	-8191	255	
1402.949	1	1	0	0	0.072981	0.10356	0.15291	0.19916	0.21105	0.35223	0.22656	0.21174	0.099504	0.12858	0.17026	0.13361	0.2096	0.19711	0.082498	0.33019	-2.6937	-2.8083	-2.7833	-3.1708	-2.8458	-2.8521	-3.1208	-2.6813	-2.9604	-3.1667	-2.7729	-3.0771	-2.9042	-2.8208	-3.1625	-2.9229	302.785	449.577	370.245	453.753	465.236	307.631	494.887	513.351	420.392	523.329	508.757	194.589	177.623	511.189	278.403	170.328	0.0012393	0.00023663	6.733e-05	559.51	1.9988e-06	2.8929e-06	715.25	152.44	4.3279e-06	2.1416e-06	264.39	92.072	42.459	14.547	2.8643e-06	41.832	3.8745e-05	8.795e-06	2.4976e-06	529.28	9.9045e-08	9.7825e-08	694.29	146.68	1.1972e-07	8.0838e-08	253.67	88.203	40.788	14.192	9.1917e-08	40.559	382.798	251.652	246.107	181.958	302.853	333.779	181.899	186.937	296.794	322.610	186.884	192.102	191.299	196.954	294.526	196.124	-8191	255	
1403.021	1	1	0	0	0.1735	0.066518	0.16547	0.075673	0.076374	0.13238	0.076271	0.10417	0.071848	0.097419	0.14302	0.20954	0.27718	0.14066	0.10897	0.23753	-2.6021	-3.1479	-2.8333	-3.1437	-2.8771	-2.7896	-3.2583	-2.7292	-2.9896	-3.0687	-2.8292	-3.1792	-2.9521	-2.9813	-3.0375	-2.9792	380.872	472.691	179.187	255.215	502.953	468.194	304.469	485.061	259.502	503.413	180.907	484.279	191.460	475.792	208.625	172.078	0.0012574	0.00033437	6.5849e-05	568.19	2.4956e-06	3.0733e-06	721.2	154.17	3.7095e-06	4.0008e-06	266.74	93.418	43.628	14.946	2.2722e-06	42.349	3.9879e-05	8.8856e-06	2.5797e-06	532.78	1.0198e-07	9.0347e-08	699.48	147.9	1.2123e-07	8.8156e-08	256.9	89.353	41.498	14.412	1.0084e-07	41.037	381.552	263.889	276.221	182.082	308.393	343.118	181.870	187.322	283.898	316.091	187.042	191.938	191.621	196.888	303.718	196.255	-8191	255	
1403.117	1	1	0	0	0.2434	0.086064	0.052098	0.11024	0.16169	0.24556	0.23518	0.18291	0.15287	0.088442	0.11724	0.23467	0.20491	0.061303	0.067296	0.25681	-2.6312	-3.2042	-2.6458	-2.8896	-3.0167	-2.8708	-3.1292	-2.8812	-3.0312	-3.1562	-2.8812	-3.0604	-2.8708	-2.9167	-2.9333	-3.0708	344.108	446.885	267.057	446.679	186.117	431.883	442.355	493.938	512.799	264.710	262.970	460.530	196.642	470.124	324.563	482.430	0.0012698	0.00025949	9.0881e-05	573.27	2.7053e-06	2.9824e-06	730.22	155.23	4.2823e-06	1.8562e-06	268.23	94.065	43.503	14.876	2.373e-06	42.675	4.0249e-05	8.2024e-06	2.4777e-06	539.24	1.0119e-07	9.5676e-08	706.29	149.26	1.3014e-07	9.0348e-08	259.24	90.18	41.594	14.486	1.0438e-07	41.336	382.171	251.762	259.712	182.160	308.621	324.488	181.937	186.862	296.391	319.736	186.847	191.854	191.705	197.150	316.465	196.409	-8191	255	
1403.213	1	1	0	0	0.060497	0.1532	0.05091	0.092338	0.090848	0.13861	0.19242	0.14737	0.081661	0.20407	0.13049	0.22116	0.092777	0.1947	0.10359	0.11891	-2.4313	-3.1271	-2.9625	-3.1042	-2.9729	-2.8875	-3.3458	-2.9688	-2.8646	-3.1458	-2.8375	-3.0812	-3.0667	-2.6063	-2.9771	-2.85	359.731	472.781	227.086	368.041	247.107	210.137	508.776	453.477	485.908	470.001	411.033	495.545	437.564	417.051	418.130	474.573	0.0012651	0.00031199	8.1348e-05	576.32	2.4655e-06	3.3065e-06	734.73	154.77	5.1291e-06	2.872e-06	269.01	93.389	43.234	14.774	3.2583e-06	42.083	4.0807e-05	9.3159e-06	2.4871e-06	539.21	9.8425e-08	1.0014e-07	710.54	149.62	1.2275e-07	8.7371e-08	257.83	89.61	41.226	14.367	1.0269e-07	40.676	383.952	248.624	257.901	181.820	322.327	314.129	181.966	187.175	295.055	319.359	186.803	192.127	192.073	196.878	312.963	196.038	-8191	255	
1403.334	1	1	0	0	0.064833	0.19218	0.049222	0.11168	0.11953	0.23538	0.14205	0.29147	0.27077	0.091136	0.18099	0.11539	0.14397	0.25819	0.14334	0.097613	-2.4688	-3.0521	-3.0042	-2.9062	-3.325	-2.7229	-3.2208	-3.2542	-2.7438	-3.1771	-2.7167	-3.0167	-3.0875	-2.9021	-2.9542	-3.1104	392.273	375.717	409.749	359.206	334.069	338.861	433.829	341.753	525.568	222.777	493.846	494.321	450.687	500.544	428.835	407.070	0.0013122	0.00024866	6.6139e-05	567.5	2.292e-06	2.5073e-06	714.49	150.71	3.8864e-06	3.2329e-06	264.14	90.879	42.206	14.443	3.2895e-06	41.32	4.035e-05	9.0479e-06	2.4272e-06	533.3	9.0905e-08	9.328e-08	694.07	145.85	1.1684e-07	9.2622e-08	252.66	87.469	40.437	13.997	1.0783e-07	40.007	383.361	251.262	256.081	181.787	307.618	343.371	182.366	187.196	291.648	316.278	186.619	192.092	191.639	196.715	301.236	196.267	-8191	255	
1403.430	1	1	0	0	0.19067	0.076493	0.12036	0.13062	0.19745	0.1424	0.13158	0.10911	0.083313	0.25549	0.24001	0.29226	0.22551	0.040172	0.038899	0.19605	-2.4208	-3.1562	-2.7854	-2.9833	-3.0167	-3.0042	-3.1854	-3.1021	-2.8042	-3.1208	-2.9625	-2.825	-3.3375	-2.9583	-3.1042	-3.2479	426.325	220.467	205.027	383.326	356.007	353.516	424.215	469.481	389.909	372.291	203.524	221.639	461.333	448.660	442.056	252.144	0.001212	0.00026737	9.3816e-05	568.28	2.3411e-06	3.1923e-06	721.49	152.52	3.4734e-06	2.9612e-06	266.06	91.992	42.488	14.651	3.3796e-06	41.731	3.7669e-05	8.025e-06	2.4187e-06	533.6	9.1029e-08	8.3531e-08	700.32	147.19	1.2517e-07	7.9349e-08	255.47	88.37	40.757	14.204	1.0993e-07	40.6	382.794	244.149	274.096	181.554	316.709	318.224	182.048	187.110	305.812	329.506	187.054	192.269	191.525	197.130	303.473	196.438	-8191	255	
1403.526	1	1	0	0	0.13233	0.1585	0.044447	0.099829	0.057984	0.0595	0.45212	0.22995	0.10194	0.12521	0.07718	0.22269	0.14882	0.081197	0.15893	0.28859	-2.4521	-3.1188	-2.9271	-2.8396	-3.1854	-2.8833	-3.0312	-2.9729	-2.7208	-3.2375	-2.8875	-2.9313	-3.1188	-2.9104	-2.9583	-3.2854	407.638	371.809	318.780	380.854	265.073	191.760	422.513	385.107	255.258	458.578	224.302	440.561	270.753	226.807	176.339	508.140	0.0013117	0.00029032	8.8859e-05	570.79	3.315e-06	2.9798e-06	725.66	154.02	3.0542e-06	3.4211e-06	266.02	93.375	43.061	14.891	3.2168e-06	42.498	3.9788e-05	9.0555e-06	2.2693e-06	536	9.8549e-08	8.8075e-08	704.02	148.19	1.1492e-07	8.0548e-08	256.75	89.688	41.252	14.393	1.0347e-07	41.024	380.202	237.812	248.165	181.711	314.444	345.344	181.946	187.117	282.484	322.749	186.970	191.909	191.699	196.858	311.524	196.310	-8191	255	
1403.622	1	1	0	0	0.18115	0.11256	0.07649	0.20967	0.17387	0.1936	0.168	0.16097	0.22961	0.17583	0.13767	0.15043	0.31765	0.22408	0.018085	0.043229	-2.4688	-3.0062	-3.0979	-2.7854	-3.1542	-2.6813	-3.1417	-2.9083	-2.875	-3.1771	-3.1708	-2.6521	-3.2917	-2.7521	-3.0167	-3.2313	500.648	272.290	494.192	414.253	325.370	312.309	520.156	431.590	380.770	399.191	419.121	470.603	231.186	436.077	196.184	198.792	0.0012614	0.00035049	7.672e-05	570.22	2.5959e-06	3.6828e-06	729.5	154.67	3.9143e-06	2.6685e-06	269.66	94.023	43.207	15.039	3.8203e-06	42.646	4.0031e-05	9.6783e-06	2.1968e-06	537.53	8.7971e-08	8.8612e-08	708.55	149.41	1.1959e-07	9.5062e-08	259.72	90.246	41.555	14.518	1.1297e-07	41.266	384.502	250.577	245.483	181.892	318.378	325.535	181.855	186.949	302.764	318.892	187.008	192.057	191.506	196.799	309.657	196.173	-8191	255	
1403.717	1	1	0	0	0.17562	0.10524	0.22991	0.19551	0.06074	0.18144	0.041913	0.11386	0.19385	0.19426	0.31319	0.20712	0.10683	0.051447	0.16196	0.0709	-2.5062	-3.0312	-2.9688	-2.9458	-3.0583	-2.7917	-2.975	-3.1646	-2.7646	-3.1	-3.2292	-3	-3.0708	-2.9167	-2.7562	-3.3812	496.372	309.947	526.314	221.041	180.099	251.672	367.620	469.530	419.895	514.425	427.131	202.182	384.126	228.663	372.281	501.524	0.0013537	0.00018277	0.00010774	569.12	1.6684e-06	4.2714e-06	725.42	153.62	3.51e-06	2.9422e-06	263.52	91.672	42.379	14.604	3.3476e-06	41.417	4.0394e-05	8.527e-06	2.4514e-06	537.18	8.7599e-08	9.7246e-08	700.9	147.6	1.1926e-07	9.837e-08	254.02	88.13	40.638	14.118	1.0129e-07	40.088	384.628	234.799	258.736	182.018	284.656	322.504	181.880	186.970	293.327	337.599	186.950	191.904	191.410	197.297	287.651	196.284	-8191	255	
#DATA ENDS
