BOXY.EXE: ISS Imagent and Oximeter Data Acquisition Program Version 0.80
Ascii Record File

#ACQ INFORMATION
2  Detector Channels 
16  External MUX Channels 
1  Auxiliary Channels 
5000  Waveform (CCF) Frequency (Hz)
1  Waveforms Skipped 
30  Waveforms Averaged 
1  Cycles Averaged 
16  Acquisitions per Waveform 
10.0806  Updata Rate (Hz) 

#FILE INFORMATION
TRUE -- External MUX Channel results are PARSED.
FALSE -- AC DC and Phase are NOT grouped.
TRUE -- Companion Program Settings File CREATED.
FALSE -- AC data not excluded
FALSE -- DC data not excluded
FALSE -- Phase data not excluded
FALSE -- Auxillary Chn. data not excluded
Tab delimiters

#CALIBRATION STATE
TRUE -- Waveform Calibration Values APPLIED.


#AUX CALIBRATION VALUES
Val Type	aux-1	

Term	1.0000e+00	
Factor	0.0000e+00	


#WF CALIBRATION VALUES
A = Detector Channel
Val Type	A-AC1	A-AC2	A-AC3	A-AC4	A-AC5	A-AC6	A-AC7	A-AC8	A-AC9	A-AC10	A-AC11	A-AC12	A-AC13	A-AC14	A-AC15	A-AC16	A-DC1	A-DC2	A-DC3	A-DC4	A-DC5	A-DC6	A-DC7	A-DC8	A-DC9	A-DC10	A-DC11	A-DC12	A-DC13	A-DC14	A-DC15	A-DC16	A-Ph1	A-Ph2	A-Ph3	A-Ph4	A-Ph5	A-Ph6	A-Ph7	A-Ph8	A-Ph9	A-Ph10	A-Ph11	A-Ph12	A-Ph13	A-Ph14	A-Ph15	A-Ph16	

Term	0.00000e+00	0.00000e+00	0.00000e+00	0.00000e+00	0.00000e+00	0.00000e+00	0.00000e+00	0.00000e+00	0.00000e+00	0.00000e+00	0.00000e+00	0.00000e+00	0.00000e+00	0.00000e+00	0.00000e+00	0.00000e+00	0.00000e+00	0.00000e+00	0.00000e+00	0.00000e+00	0.00000e+00	0.00000e+00	0.00000e+00	0.00000e+00	0.00000e+00	0.00000e+00	0.00000e+00	0.00000e+00	0.00000e+00	0.00000e+00	0.00000e+00	0.00000e+00	0.00000e+00	0.00000e+00	0.00000e+00	0.00000e+00	0.00000e+00	0.00000e+00	0.00000e+00	0.00000e+00	0.00000e+00	0.00000e+00	0.00000e+00	0.00000e+00	0.00000e+00	0.00000e+00	0.00000e+00	0.00000e+00	
Factor	1.00000e+00	1.00000e+00	1.00000e+00	1.00000e+00	1.00000e+00	1.00000e+00	1.00000e+00	1.00000e+00	1.00000e+00	1.00000e+00	1.00000e+00	1.00000e+00	1.00000e+00	1.00000e+00	1.00000e+00	1.00000e+00	1.00000e+00	1.00000e+00	1.00000e+00	1.00000e+00	1.00000e+00	1.00000e+00	1.00000e+00	1.00000e+00	1.00000e+00	1.00000e+00	1.00000e+00	1.00000e+00	1.00000e+00	1.00000e+00	1.00000e+00	1.00000e+00	X	X	X	X	X	X	X	X	X	X	X	X	X	X	X	X	

B = Detector Channel
Val Type	B-AC1	B-AC2	B-AC3	B-AC4	B-AC5	B-AC6	B-AC7	B-AC8	B-AC9	B-AC10	B-AC11	B-AC12	B-AC13	B-AC14	B-AC15	B-AC16	B-DC1	B-DC2	B-DC3	B-DC4	B-DC5	B-DC6	B-DC7	B-DC8	B-DC9	B-DC10	B-DC11	B-DC12	B-DC13	B-DC14	B-DC15	B-DC16	B-Ph1	B-Ph2	B-Ph3	B-Ph4	B-Ph5	B-Ph6	B-Ph7	B-Ph8	B-Ph9	B-Ph10	B-Ph11	B-Ph12	B-Ph13	B-Ph14	B-Ph15	B-Ph16	

Term	0.00000e+00	0.00000e+00	0.00000e+00	0.00000e+00	0.00000e+00	0.00000e+00	0.00000e+00	0.00000e+00	0.00000e+00	0.00000e+00	0.00000e+00	0.00000e+00	0.00000e+00	0.00000e+00	0.00000e+00	0.00000e+00	0.00000e+00	0.00000e+00	0.00000e+00	0.00000e+00	0.00000e+00	0.00000e+00	0.00000e+00	0.00000e+00	0.00000e+00	0.00000e+00	0.00000e+00	0.00000e+00	0.00000e+00	0.00000e+00	0.00000e+00	0.00000e+00	5.86857e+01	-1.40275e+02	-1.27777e+02	-1.81956e+02	-7.36887e+01	-5.69442e+01	-1.56028e+02	-1.62015e+02	-8.09294e+01	-6.35191e+01	-1.71357e+02	-1.71405e+02	-1.82318e+02	-1.76945e+02	-7.95853e+01	-1.50279e+02	
Factor	5.16763e-05	1.33635e-04	4.06010e-05	4.21718e-01	1.38256e-06	1.58296e-06	1.58406e-01	5.39367e-02	1.66385e-06	1.37896e-06	8.47905e-02	2.81246e-02	2.35851e-02	8.08168e-03	1.69326e-06	1.20261e-02	1.73923e-06	1.81185e-06	5.05000e-07	2.07507e-01	1.98338e-08	1.98293e-08	7.56450e-02	2.72911e-02	1.96927e-08	1.98476e-08	4.12586e-02	1.36837e-02	1.19586e-02	4.10842e-03	1.97406e-08	5.88837e-03	X	X	X	X	X	X	X	X	X	X	X	X	X	X	X	X	



#DISTANCE SETTINGS
A = Detector Channel
A-1	A-2	A-3	A-4	A-5	A-6	A-7	A-8	A-9	A-10	A-11	A-12	A-13	A-14	A-15	A-16	

2.5000e+00	3.0000e+00	2.5000e+00	3.0000e+00	2.0000e+00	3.0000e+00	1.5000e+00	3.0000e+00	3.0000e+00	3.0000e+00	3.0000e+00	3.0000e+00	3.0000e+00	3.0000e+00	1.5000e+00	3.0000e+00	

B = Detector Channel
B-1	B-2	B-3	B-4	B-5	B-6	B-7	B-8	B-9	B-10	B-11	B-12	B-13	B-14	B-15	B-16	

1.0000e+01	1.0000e+01	1.0000e+01	1.4400e+00	1.0000e+01	1.0000e+01	1.5100e+00	1.9400e+00	1.0000e+01	1.0000e+01	1.9900e+00	2.4900e+00	2.4100e+00	2.9000e+00	1.0000e+01	2.9800e+00	




#DATA BEGINS
time	group	step	mark	flag	A-AC1	A-AC2	A-AC3	A-AC4	A-AC5	A-AC6	A-AC7	A-AC8	A-AC9	A-AC10	A-AC11	A-AC12	A-AC13	A-AC14	A-AC15	A-AC16	A-DC1	A-DC2	A-DC3	A-DC4	A-DC5	A-DC6	A-DC7	A-DC8	A-DC9	A-DC10	A-DC11	A-DC12	A-DC13	A-DC14	A-DC15	A-DC16	A-Ph1	A-Ph2	A-Ph3	A-Ph4	A-Ph5	A-Ph6	A-Ph7	A-Ph8	A-Ph9	A-Ph10	A-Ph11	A-Ph12	A-Ph13	A-Ph14	A-Ph15	A-Ph16	B-AC1	B-AC2	B-AC3	B-AC4	B-AC5	B-AC6	B-AC7	B-AC8	B-AC9	B-AC10	B-AC11	B-AC12	B-AC13	B-AC14	B-AC15	B-AC16	B-DC1	B-DC2	B-DC3	B-DC4	B-DC5	B-DC6	B-DC7	B-DC8	B-DC9	B-DC10	B-DC11	B-DC12	B-DC13	B-DC14	B-DC15	B-DC16	B-Ph1	B-Ph2	B-Ph3	B-Ph4	B-Ph5	B-Ph6	B-Ph7	B-Ph8	B-Ph9	B-Ph10	B-Ph11	B-Ph12	B-Ph13	B-Ph14	B-Ph15	B-Ph16	aux-1	digaux	

866.670	1	1	0	768	0.091752	0.18698	0.20555	0.36153	0.13224	0.0419	0.21047	0.25294	0.057171	0.058201	0.19968	0.3126	0.11233	0.24813	0.085802	0.10027	-2.5771	-3.0687	-2.8812	-3.0604	-3.0771	-3.1021	-3.3083	-2.9313	-3.1688	-3.0833	-2.8812	-3.275	-3.1312	-2.75	-3.2521	-2.9979	502.934	506.334	436.673	195.735	359.530	416.046	501.768	479.519	439.518	210.689	495.033	477.485	299.587	177.766	374.566	176.018	0.0016647	0.00060223	0.00016348	1334.6	4.9865e-06	4.0362e-06	1346.4	371.13	4.1696e-06	1.6403e-06	425.43	141.98	122.79	41.665	5.2464e-06	51.593	0.00026594	0.00023357	6.5334e-05	1333	2.626e-06	2.5798e-06	1362.9	374.49	2.5998e-06	2.5715e-06	427.49	142.77	123.29	42.275	2.6478e-06	52.364	381.915	217.869	281.229	179.937	323.340	413.639	179.454	184.208	266.594	319.963	183.774	187.987	188.535	193.367	236.191	192.476	-8191	255	
866.766	1	1	0	0	0.1076	0.14668	0.13674	0.096487	0.16424	0.11015	0.11776	0.24339	0.20916	0.22516	0.11133	0.17972	0.055132	0.24465	0.03557	0.10538	-2.4562	-3.1542	-2.7417	-3.325	-3.0917	-2.6271	-3.3146	-3.2938	-2.8146	-2.9604	-3	-3.2792	-3.1937	-2.5875	-3.0771	-2.975	462.514	179.576	294.080	517.076	327.403	166.886	185.618	480.275	523.520	462.520	407.953	437.174	411.395	492.913	351.534	171.255	0.0016856	0.00036545	0.00022243	1344.9	3.4107e-06	6.5378e-06	1354	372.47	4.9184e-06	3.6837e-06	424.28	142.77	122.63	41.634	5.2542e-06	51.755	0.00027101	0.00023669	6.6337e-05	1339.4	2.6446e-06	2.6055e-06	1370.3	375.94	2.6399e-06	2.5831e-06	427.72	143.25	123.4	42.309	2.621e-06	52.444	386.432	278.955	256.920	179.882	300.073	342.789	179.398	184.087	292.122	301.151	183.811	187.814	188.629	193.375	263.853	192.339	-8191	255	
866.863	1	1	0	0	0.042068	0.28498	0.16125	0.18418	0.038796	0.27568	0.10657	0.24403	0.10329	0.017906	0.19797	0.14346	0.16141	0.15184	0.084056	0.19899	-2.4062	-3.15	-3.0083	-3.0542	-3.0333	-2.8396	-3.3667	-2.9708	-3.1354	-3.3	-2.7083	-3.0021	-3.2125	-3.0396	-2.8896	-2.8625	171.447	205.865	171.849	265.866	425.617	183.236	433.761	467.365	229.655	242.063	460.042	511.071	201.927	340.760	425.082	453.366	0.0016061	0.00056275	0.00023984	1347.3	4.1869e-06	6.8591e-06	1356.6	372.17	8.6178e-06	3.9142e-06	424.2	142.79	123.05	41.613	7.3223e-06	51.485	0.00026794	0.00024076	6.6199e-05	1341.6	2.5951e-06	2.5558e-06	1370.5	376.27	2.5908e-06	2.5389e-06	427.57	143.17	123.37	42.249	2.5193e-06	52.37	384.580	246.935	267.782	179.700	343.688	295.542	179.351	184.320	285.439	315.867	183.747	188.069	188.600	193.319	298.366	192.583	-8191	255	
866.959	1	1	0	0	0.07614	0.022981	0.19066	0.017392	0.10982	0.026344	0.31357	0.045529	0.14618	0.044006	0.14675	0.1757	0.25227	0.20413	0.29521	0.14548	-2.3708	-2.8937	-2.8667	-3.0583	-3.1896	-2.7729	-3.25	-3.2125	-2.6771	-3.0229	-2.9688	-3.1312	-3.1604	-2.7104	-3.0729	-3.0812	431.795	517.034	354.893	210.006	420.563	338.429	471.277	321.953	406.652	185.525	507.606	221.588	167.539	482.118	450.329	368.176	0.0015995	0.00059128	6.129e-05	1340.5	3.6906e-06	6.0521e-06	1356.6	372.41	4.6648e-06	2.192e-06	424.93	142.31	122.25	41.546	1.3376e-05	51.867	0.00026455	0.00024171	6.7598e-05	1341.6	2.6512e-06	2.6649e-06	1371.2	375.91	2.7594e-06	2.7761e-06	428.52	143.36	123.47	42.35	2.8581e-06	52.48	383.834	257.922	282.230	180.086	304.504	316.832	179.324	184.164	266.375	311.327	183.870	187.959	188.595	193.367	294.394	192.186	-8191	255	
867.053	1	1	0	0	0.21811	0.20512	0.2206	0.26184	0.082871	0.2094	0.38827	0.14584	0.16684	0.13881	0.20326	0.19366	0.037568	0.068867	0.18059	0.14058	-2.2208	-2.9896	-2.9292	-2.7396	-2.9792	-2.7854	-3.3833	-3.2188	-2.6083	-3.1875	-2.9313	-3.0167	-3.0958	-2.8771	-2.9771	-3.0625	345.564	236.662	349.664	167.728	348.726	474.358	460.217	353.992	296.847	253.575	501.322	455.420	513.245	505.849	493.599	429.545	0.0016455	0.00069253	0.0001594	1354.6	2.5296e-06	2.0166e-06	1357	373.12	9.911e-06	2.4928e-06	425.39	142.5	123.31	41.561	5.7957e-06	51.658	0.0002889	0.00026446	7.3791e-05	1349.5	2.9586e-06	2.9441e-06	1376.3	377.19	2.9878e-06	2.9953e-06	429.63	143.55	123.95	42.424	3.0513e-06	52.545	383.707	231.160	219.442	179.852	309.982	330.068	179.308	184.151	296.871	314.975	183.774	188.063	188.304	193.227	323.589	192.596	-8191	255	
867.149	1	1	0	0	0.24689	0.12588	0.048447	0.26238	0.1085	0.25983	0.194	0.052864	0.30281	0.40008	0.12644	0.29701	0.11132	0.12148	0.2315	0.072876	-2.2125	-3.0333	-2.9771	-2.9542	-3.225	-2.9229	-3.1625	-3.2979	-2.8688	-2.9729	-3.0333	-2.7521	-3.2896	-2.7625	-2.9271	-3.0708	450.288	493.777	265.303	412.537	259.452	446.068	400.738	397.408	431.956	379.382	525.715	173.053	406.808	217.303	466.673	181.883	0.0016823	0.00056619	1.7263e-05	1354.7	8.0591e-06	4.4264e-06	1363.3	374.43	9.3165e-06	5.4073e-06	427.65	142.29	123.56	41.865	3.1769e-06	51.772	0.00030378	0.00028253	7.6949e-05	1352.6	3.0568e-06	3.0493e-06	1380.3	378.1	3.0582e-06	3.0632e-06	430.16	143.68	124.29	42.626	3.0996e-06	52.702	382.181	231.208	338.162	179.850	307.047	351.587	179.280	184.295	291.845	350.503	183.744	187.986	188.524	193.488	245.475	192.245	-8191	255	
867.270	1	1	0	0	0.14543	0.10514	0.058689	0.052341	0.14967	0.089634	0.28237	0.1504	0.10173	0.028354	0.19888	0.11238	0.27103	0.13853	0.26573	0.045285	-2.3396	-3.1375	-3.0187	-2.8625	-3.05	-2.7792	-2.9354	-3.2354	-2.9938	-3.0708	-3.0062	-2.7667	-3.1229	-2.9938	-2.8229	-3.3729	514.164	491.410	213.096	437.937	352.618	423.611	455.528	418.214	369.346	250.237	521.059	441.595	265.768	209.208	204.609	277.161	0.0017335	0.00036214	0.00014239	1361.7	5.676e-06	4.8687e-06	1367.8	373.86	7.4534e-06	1.8632e-06	424.52	143.17	123.61	41.77	5.6679e-06	51.784	0.000306	0.00027795	7.6736e-05	1358	3.0083e-06	2.9713e-06	1383.8	377.94	3.02e-06	2.9832e-06	429.99	143.98	124.07	42.528	3.0024e-06	52.53	379.556	266.609	273.495	179.423	316.720	308.790	179.432	184.204	296.450	307.208	183.666	187.836	188.694	193.409	306.738	192.433	-8191	255	
867.366	1	1	0	0	0.13305	0.11974	0.21665	0.23274	0.12528	0.13616	0.14235	0.22393	0.15774	0.15101	0.024528	0.12119	0.097075	0.086523	0.12478	0.18096	-2.4771	-2.7687	-2.7625	-2.7979	-3.1937	-3.1312	-3.1	-3.1229	-2.5729	-2.9167	-3.1792	-2.9437	-3.2396	-3.0042	-2.5417	-3.1167	458.720	367.917	273.515	492.895	499.497	309.495	487.414	457.149	249.396	484.401	353.105	195.108	500.167	167.608	420.573	504.969	0.0016811	0.00034805	9.9414e-05	1360.5	3.4672e-06	4.8143e-06	1367.2	374.36	8.5198e-06	2.136e-06	426.56	142.31	122.78	41.728	9.6778e-06	51.744	0.00029965	0.00026821	7.4505e-05	1356.5	2.9661e-06	2.9344e-06	1383.6	378.36	2.9601e-06	2.9864e-06	429.51	143.5	124.04	42.492	3.0412e-06	52.618	381.777	233.723	210.905	179.625	368.010	370.053	179.341	184.151	284.184	356.203	183.737	188.035	188.626	193.364	302.431	192.224	-8191	255	
867.462	1	1	0	0	0.23185	0.25664	0.27627	0.012044	0.011448	0.054521	0.25176	0.16228	0.071493	0.11999	0.15214	0.21339	0.30837	0.30982	0.42552	0.087431	-2.3875	-2.9938	-3.2229	-2.7292	-2.8896	-2.9104	-3.225	-3.2438	-2.875	-2.8167	-3.1208	-2.8771	-3.0854	-3.1437	-2.8396	-3.1979	401.983	513.515	175.575	486.756	328.807	496.282	433.146	438.205	502.775	274.109	513.432	474.399	466.181	475.870	224.331	188.393	0.0016605	0.00077568	0.00020574	1363.7	3.9245e-06	3.6198e-06	1367.3	374.28	9.3227e-06	1.7647e-06	424.69	142.62	122.72	41.594	6.3896e-06	51.656	0.00030909	0.00027886	7.9093e-05	1359.8	3.1255e-06	3.1188e-06	1382.6	377.84	3.1387e-06	3.1023e-06	429.78	143.55	123.9	42.45	3.1096e-06	52.627	385.322	249.694	264.989	179.605	314.743	298.401	179.211	184.334	267.615	346.637	183.684	188.071	188.630	193.307	285.658	192.327	-8191	255	
867.558	1	1	0	0	0.031743	0.25616	0.043992	0.29833	0.034565	0.21284	0.094803	0.1484	0.21577	0.10096	0.013278	0.22328	0.33948	0.19589	0.2619	0.11391	-2.3021	-2.7917	-2.9625	-2.8583	-3.1042	-3.0062	-2.7896	-3.125	-3.0354	-3.025	-3.3187	-2.8917	-3.0312	-3.075	-2.8854	-3.2646	339.054	385.278	385.470	465.462	405.978	403.977	379.424	522.239	290.645	525.549	421.842	493.245	438.863	502.034	359.832	420.241	0.0017334	0.00050356	0.00013874	1359	2.6724e-06	1.717e-06	1367.8	373.92	8.5311e-06	4.7331e-06	427.55	142.35	122.52	41.558	6.9349e-06	51.566	0.00030944	0.00028346	7.8732e-05	1358.3	3.1139e-06	3.1138e-06	1383.4	377.95	3.1297e-06	3.1036e-06	429.75	143.5	123.8	42.382	3.0511e-06	52.532	384.274	254.815	262.642	179.635	345.967	229.603	179.505	184.178	291.609	305.287	183.789	187.675	188.736	193.410	322.472	192.450	-8191	255	
867.654	1	1	0	0	0.27169	0.15528	0.089298	0.30324	0.11015	0.32665	0.55629	0.19057	0.16257	0.24353	0.10139	0.33938	0.22396	0.083861	0.14733	0.28816	-2.6271	-2.7812	-3.0021	-2.9458	-3.0979	-3.0375	-2.9708	-3.25	-2.8625	-3.0854	-3.2562	-2.9792	-3.0292	-3.2521	-2.7771	-3.2396	445.609	208.106	502.386	515.275	354.431	386.992	464.209	503.313	287.648	243.581	471.097	454.787	459.297	519.992	243.518	453.662	0.0015756	0.000539	0.00017014	1356.1	4.2537e-06	6.5629e-06	1360.3	372.84	8.4628e-06	2.7987e-06	426.21	142.72	122.67	41.565	9.205e-06	51.293	0.00030348	0.00027427	7.6218e-05	1354.9	3.0096e-06	3.0132e-06	1378.6	376.76	2.9847e-06	2.9682e-06	428.71	143.14	123.49	42.332	2.9885e-06	52.458	385.123	240.376	270.934	179.586	277.469	341.332	179.340	184.238	287.518	301.505	183.690	187.845	188.662	193.186	278.080	192.349	-8191	255	
867.751	1	1	0	0	0.19075	0.25225	0.093389	0.1513	0.098433	0.27925	0.25587	0.384	0.27815	0.27618	0.10926	0.31824	0.2749	0.29315	0.13116	0.2653	-2.4229	-2.7583	-2.9771	-2.9625	-2.9417	-3.0521	-2.9646	-3.2542	-3.0042	-2.775	-3.2562	-2.9604	-3.0375	-3.1104	-2.6833	-3.2104	222.268	353.732	442.907	445.453	472.524	269.577	468.614	448.472	397.822	201.624	177.521	501.879	197.082	219.817	409.570	460.438	0.0016828	0.00046201	0.00016778	1362.6	4.9625e-06	4.1752e-06	1365	372.56	7.1973e-06	5.9843e-06	423.57	141.63	122.45	41.656	4.9899e-06	51.497	0.00030365	0.00027526	7.641e-05	1355	3.0333e-06	2.9901e-06	1378.3	376.73	2.9494e-06	2.9558e-06	428.38	142.71	123.42	42.353	3.0129e-06	52.41	383.343	258.283	256.889	179.634	290.406	301.279	179.370	184.420	288.872	329.253	183.908	187.961	188.815	193.248	304.705	192.274	-8191	255	
867.869	1	1	0	0	0.15581	0.1591	0.39123	0.078031	0.23731	0.087952	0.28776	0.11718	0.34027	0.1274	0.098055	0.16696	0.10815	0.15142	0.061531	0.19352	-2.5896	-2.65	-3.0042	-3.0729	-2.9104	-2.9896	-3.0646	-3.3	-2.8354	-2.8458	-3.3812	-2.8479	-2.9729	-3.3708	-2.6958	-3.1354	277.597	482.198	238.182	412.150	415.276	363.441	475.675	485.420	460.590	283.563	488.672	454.804	489.969	455.726	498.347	501.149	0.0016263	0.00048032	7.7653e-05	1357.1	4.0176e-06	6.2288e-06	1356.4	372	9.264e-06	4.5394e-06	423.85	141.85	122.22	41.496	9.2991e-06	51.399	0.00029639	0.00027271	7.5544e-05	1353	2.9941e-06	2.9087e-06	1375.6	376.03	2.9638e-06	2.9131e-06	427.2	142.69	123.09	42.201	2.8391e-06	52.24	383.463	248.757	234.098	179.865	264.324	327.158	179.346	184.391	272.155	329.627	183.722	188.014	188.586	193.450	315.639	192.422	-8191	255	
867.966	1	1	0	0	0.041821	0.1773	0.054086	0.20197	0.2113	0.14455	0.29969	0.19489	0.029108	0.080329	0.24352	0.11991	0.19479	0.15101	0.18978	0.18131	-2.6458	-2.8438	-2.9188	-2.9521	-2.9104	-3.0792	-3.1958	-3.2438	-3.3833	-2.6937	-3.2375	-3.1375	-2.9979	-3.0396	-2.8542	-2.9854	227.440	258.364	265.017	477.156	287.255	458.407	503.769	432.364	232.980	355.652	173.808	481.415	193.261	466.867	173.410	502.259	0.0016283	0.0006917	0.00021356	1352.6	5.3226e-06	1.9539e-06	1355.8	371.21	7.3975e-06	3.5244e-06	423.29	141.79	122.27	41.421	9.4921e-06	51.353	0.00028382	0.00025501	7.2314e-05	1347	2.8203e-06	2.8134e-06	1369.9	374.73	2.8829e-06	2.8408e-06	426.14	142.47	122.76	42.248	2.9431e-06	52.3	379.393	239.149	253.562	179.611	330.657	320.931	179.460	184.393	261.398	326.349	183.689	187.754	188.593	193.508	306.843	192.311	-8191	255	
868.062	1	1	0	0	0.21393	0.11676	0.21076	0.063895	0.19638	0.16654	0.15856	0.25116	0.24343	0.17653	0.077075	0.11505	0.069292	0.16739	0.082073	0.21148	-2.7125	-2.9208	-2.8208	-3.0667	-2.9333	-3.3563	-3.0042	-3.0083	-3.1083	-2.7375	-3.2917	-3.0875	-2.9458	-3.3354	-2.8604	-3.1729	237.067	410.611	330.733	257.072	290.064	498.815	280.136	433.786	431.172	471.755	447.471	488.721	451.674	476.354	392.003	383.065	0.0016573	0.00046424	0.00018546	1351.3	2.7393e-06	3.6437e-06	1355.5	372.62	8.1029e-06	5.8475e-06	422.36	141.24	122.12	41.427	6.1685e-06	51.502	0.0002992	0.00026977	7.665e-05	1349.5	3.0106e-06	3.0053e-06	1370.3	375.54	3.0512e-06	3.015e-06	426.81	142.72	122.99	42.297	3.1145e-06	52.337	383.750	216.703	277.655	179.832	286.489	353.406	179.595	184.152	262.451	335.546	183.583	187.984	188.485	193.543	311.008	192.547	-8191	255	
868.158	1	1	0	0	0.020584	0.10702	0.22325	0.17081	0.13029	0.18251	0.27578	0.1688	0.22325	0.11777	0.091788	0.18173	0.012995	0.34109	0.094931	0.121	-2.7313	-2.775	-2.9104	-2.9646	-2.8438	-3.0792	-3.3542	-3.0896	-3.1708	-2.775	-3.1917	-3.2354	-2.8937	-3.1229	-3.0187	-2.9437	372.659	333.983	407.844	421.014	322.870	260.267	473.291	490.817	182.651	344.206	459.640	470.619	229.834	521.996	402.237	429.689	0.0016075	0.00025921	0.00013606	1350.6	4.0714e-06	6.6293e-06	1357.4	371.5	5.9209e-06	3.2898e-06	422.57	141.87	122.4	41.54	6.9295e-06	51.461	0.00031412	0.00028551	7.9237e-05	1348.7	3.0731e-06	3.0769e-06	1371.9	375.17	3.0646e-06	3.0066e-06	427.25	142.58	123.06	42.239	2.9392e-06	52.211	384.072	218.926	255.968	179.685	283.039	329.295	179.208	184.316	295.872	293.551	183.955	187.760	188.669	193.178	299.768	192.354	-8191	255	
868.231	1	1	0	0	0.083508	0.15716	0.13156	0.26376	0.059542	0.13429	0.30244	0.36453	0.1443	0.15172	0.040681	0.37589	0.062737	0.41534	0.19446	0.24347	-2.7188	-2.7917	-2.9875	-3.2458	-2.7104	-3.0583	-3.1688	-3.0375	-3.1479	-2.9021	-3.1562	-3.2354	-2.9146	-3.1479	-2.9708	-2.9583	272.965	428.758	445.846	461.810	494.625	197.951	452.175	482.939	318.628	305.212	237.284	432.438	351.161	493.090	462.987	418.308	0.0016475	0.00026259	0.00015528	1344.9	3.8654e-06	5.9342e-06	1351.3	370.55	9.8733e-06	3.7886e-06	422.86	141.32	122.33	41.567	3.7835e-06	51.389	0.00028761	0.00026228	7.2076e-05	1341.7	2.7823e-06	2.7893e-06	1366.5	374.16	2.8088e-06	2.6943e-06	424.82	141.93	122.63	42.153	2.7076e-06	52.107	378.724	513.272	250.471	179.755	322.081	339.899	179.501	184.081	306.497	337.187	183.767	188.085	188.509	193.361	323.339	192.632	-8191	255	
868.350	1	1	0	0	0.13146	0.16166	0.18876	0.15724	0.17444	0.26396	0.14107	0.21266	0.097635	0.12894	0.15199	0.15161	0.095063	0.11553	0.082616	0.18099	-2.875	-2.9646	-3.0167	-3.0917	-2.7875	-2.9958	-3.3438	-2.9396	-3.2875	-3.0667	-2.9708	-3.1	-2.9083	-3.1958	-3.175	-2.9792	484.224	224.677	437.074	526.016	500.002	299.516	518.449	465.629	300.137	277.570	488.738	403.205	309.342	442.078	169.021	480.449	0.0017284	0.00049408	0.00014941	1344.6	1.0379e-05	4.3585e-06	1352	370.11	1.016e-05	5.0359e-06	420.63	141.49	121.41	41.406	5.8826e-06	51.288	0.0002789	0.00024656	6.8939e-05	1338.1	2.714e-06	2.711e-06	1364.9	373.74	2.7877e-06	2.7497e-06	424.69	142.02	122.45	42.131	2.7891e-06	52.13	385.438	251.792	300.417	179.690	279.928	374.259	179.410	184.342	303.257	316.679	183.683	187.973	188.865	193.504	308.756	192.552	-8191	255	
868.446	1	1	0	0	0.22889	0.071356	0.20891	0.21179	0.15967	0.018951	0.082095	0.16158	0.14191	0.11604	0.19774	0.14544	0.16943	0.044697	0.1352	0.33192	-2.7479	-3.0438	-2.8208	-3.2708	-2.9146	-3.0333	-3.1875	-2.8146	-3.1188	-2.9583	-2.8833	-3.2542	-2.9583	-3.0583	-3.1937	-2.925	461.432	286.769	199.812	479.751	520.413	171.869	375.400	507.889	290.228	433.325	500.666	386.220	493.801	502.008	358.412	449.254	0.0016417	0.00057746	7.0536e-05	1344.5	3.8066e-06	8.0275e-06	1347.3	369.2	1.1913e-05	5.8315e-06	421.76	141.18	121.45	41.253	7.8789e-06	51.348	0.00028291	0.00025595	7.0902e-05	1340.9	2.7951e-06	2.7487e-06	1363.8	373.75	2.7989e-06	2.7729e-06	424.53	141.93	122.36	42.114	2.7353e-06	52.118	379.586	227.008	214.195	179.721	276.524	296.918	179.404	184.356	301.894	334.742	183.841	187.776	188.546	193.543	305.512	192.250	-8191	255	
868.543	1	1	0	0	0.25797	0.14404	0.18853	0.24138	0.24443	0.055861	0.34246	0.10071	0.31624	0.1543	0.23701	0.33411	0.095924	0.16413	0.19717	0.19865	-2.6312	-2.9979	-2.6854	-3.1479	-3.0187	-2.9771	-3.4104	-2.9146	-2.775	-2.9938	-2.9625	-3.2708	-3.0833	-2.9646	-3.1562	-2.9208	465.288	244.783	191.095	171.076	257.599	484.483	508.997	455.470	238.489	324.593	440.826	474.306	502.365	469.475	206.146	397.686	0.001611	0.00058824	0.00012096	1348.4	5.3072e-06	6.3099e-06	1350.4	370.02	6.437e-06	4.6893e-06	421.1	141.44	121.76	41.517	3.9813e-06	51.281	0.00027772	0.00025374	7.0433e-05	1340.1	2.7671e-06	2.7226e-06	1364.5	373.71	2.7676e-06	2.698e-06	424.95	142.08	122.44	42.152	2.7443e-06	52.1	384.420	294.991	255.689	179.975	319.126	310.118	179.355	184.232	291.471	331.659	183.591	187.841	188.648	193.565	284.126	192.341	-8191	255	
868.639	1	1	0	0	0.08909	0.10109	0.10909	0.1452	0.065387	0.17725	0.32279	0.19551	0.25011	0.26518	0.15845	0.22499	0.0018804	0.11351	0.14832	0.25961	-2.5542	-3.2938	-2.9125	-2.8812	-2.8792	-2.85	-3.5708	-2.9729	-3.1292	-3.0146	-2.7687	-3.1083	-3.0042	-3.0771	-3.2687	-2.9583	456.887	510.562	249.629	526.036	382.027	302.215	173.133	207.013	369.707	519.886	188.741	510.046	180.000	443.638	202.089	492.266	0.0016676	0.00044738	0.00017061	1339.4	4.9213e-06	4.7371e-06	1350.1	368.86	6.4101e-06	3.8965e-06	422.29	141.72	121.82	41.294	6.6268e-06	51.276	0.00027614	0.00024797	6.8531e-05	1334.4	2.7005e-06	2.7003e-06	1363.8	373.01	2.7744e-06	2.7132e-06	424.83	142.14	122.45	42.069	2.6956e-06	52.063	380.846	240.268	289.480	179.811	324.010	325.691	179.347	184.269	310.938	386.326	183.659	187.935	188.562	193.438	289.826	192.462	-8191	255	
868.758	1	1	0	0	0.24203	0.21799	0.3189	0.18247	0.24376	0.21128	0.11324	0.27816	0.10089	0.075264	0.11752	0.20801	0.11592	0.28108	0.036362	0.30163	-2.4896	-2.8917	-2.8042	-3.2167	-3.2729	-3.1292	-3.4688	-3.1083	-3.0667	-3.2792	-2.8708	-3.0187	-2.9188	-2.8708	-3.0708	-2.8458	372.634	196.258	519.037	450.007	372.120	175.837	459.937	470.428	226.515	168.895	213.545	166.239	410.231	520.097	315.207	400.870	0.0016388	0.00045593	0.0001312	1339.5	5.0334e-06	5.0352e-06	1345.5	369.2	8.7704e-06	6.5065e-06	421.82	141.28	121.59	41.452	5.7871e-06	51.311	0.00027586	0.00024621	6.7541e-05	1334.7	2.684e-06	2.666e-06	1361.4	372.82	2.7301e-06	2.7067e-06	424.57	141.87	122.35	42.115	2.7074e-06	52.067	381.775	298.710	285.016	179.862	291.850	343.227	179.376	184.090	289.811	311.647	183.731	187.908	188.851	193.305	299.464	192.201	-8191	255	
868.831	1	1	0	0	0.13059	0.086217	0.12101	0.10297	0.087312	0.070271	0.26891	0.37468	0.15901	0.15261	0.10581	0.14053	0.15739	0.14949	0.2657	0.30621	-2.4875	-3.1542	-2.9646	-3.2417	-2.9771	-2.775	-3.0458	-3.1021	-2.8854	-3.2833	-2.8917	-3.0583	-3.0875	-2.9042	-3.3083	-2.9667	333.713	414.696	512.152	507.502	401.861	171.998	198.162	438.789	250.387	398.264	466.076	188.467	445.369	167.800	215.504	191.630	0.0016506	0.00050806	0.0001462	1342.9	6.5304e-06	4.6805e-06	1347.2	369.81	8.2076e-06	4.6584e-06	423.05	141.1	121.69	41.376	4.4817e-06	51.065	0.00027618	0.00024608	6.7883e-05	1336.5	2.6864e-06	2.6325e-06	1361.1	373.23	2.6737e-06	2.645e-06	424.38	141.82	122.38	42.027	2.6265e-06	51.945	379.863	243.320	287.142	180.020	330.958	363.928	179.448	184.180	274.874	333.333	183.632	188.056	188.548	193.607	274.693	192.453	-8191	255	
868.952	1	1	0	0	0.15109	0.14709	0.12731	0.20216	0.19629	0.26044	0.070376	0.12093	0.14914	0.15892	0.083689	0.28029	0.062256	0.21627	0.24428	0.1739	-2.3292	-3.1104	-2.7062	-2.8833	-3.1063	-2.9354	-3.3667	-3.0896	-2.6792	-3.0938	-2.9125	-3.0854	-3.2062	-2.7313	-2.9354	-2.9	247.617	484.289	203.649	413.214	217.937	203.473	445.881	194.783	485.991	449.542	310.227	463.786	182.893	221.989	209.265	469.721	0.0015997	0.00048863	0.00011574	1341.4	4.3279e-06	4.1501e-06	1352.3	368.12	9.5504e-06	2.2615e-06	422.33	140.71	121.97	41.353	8.8149e-06	51.253	0.00026851	0.00024272	6.7092e-05	1336.1	2.6233e-06	2.5971e-06	1361.4	372.65	2.6246e-06	2.5976e-06	424.29	141.49	122.35	42.018	2.6575e-06	52.013	384.266	292.159	238.174	179.537	306.806	279.089	179.635	184.263	302.558	342.734	183.744	187.965	188.498	193.622	293.585	192.501	-8191	255	
869.046	1	1	0	0	0.052166	0.18213	0.07193	0.022943	0.07498	0.1606	0.30943	0.38256	0.22394	0.164	0.11768	0.1386	0.29391	0.13531	0.19353	0.12749	-2.3917	-3.1208	-2.9688	-2.9167	-3.1042	-2.7417	-3.2229	-3.1354	-2.7729	-3.0625	-2.9292	-2.9917	-3.0417	-2.9458	-3.0917	-3.1917	403.956	388.052	361.972	204.831	505.335	435.852	459.582	518.657	200.805	214.239	452.654	221.507	447.160	515.106	510.203	376.342	0.0017109	0.00068746	0.00017119	1344.4	2.3152e-06	5.621e-06	1347.1	369.38	7.4848e-06	3.6789e-06	420.19	141.01	121.38	41.362	5.6967e-06	51.106	0.00026648	0.00024216	6.6292e-05	1338.1	2.6949e-06	2.6176e-06	1358.9	372.85	2.6354e-06	2.6031e-06	423.99	141.68	122.18	41.978	2.6158e-06	51.969	383.291	264.517	264.744	179.774	344.505	308.266	179.337	184.146	294.956	305.050	183.802	188.070	188.733	193.384	287.255	192.516	-8191	255	
869.142	1	1	0	0	0.15218	0.081076	0.15103	0.12358	0.11581	0.21111	0.23341	0.20951	0.078629	0.31288	0.18605	0.23565	0.20275	0.11883	0.1999	0.23794	-2.2188	-3.0438	-2.7729	-3.0646	-3.0938	-2.9333	-3.275	-3.2542	-2.7812	-3.2417	-3.0187	-2.8167	-3.0438	-2.9875	-2.9729	-3.1854	369.279	368.381	298.919	419.510	514.855	386.351	352.923	515.464	231.953	382.344	439.404	199.981	521.392	283.301	285.031	482.359	0.0016733	0.00032627	0.00012082	1338.9	3.5373e-06	2.3169e-06	1347.5	368.52	7.6419e-06	3.824e-06	420.58	141.2	121.51	41.306	3.3681e-06	51.057	0.00026909	0.00023925	6.5658e-05	1333.2	2.6165e-06	2.614e-06	1358.5	371.86	2.6301e-06	2.5919e-06	423.65	141.6	122.23	41.97	2.6307e-06	51.881	385.156	251.537	221.346	180.013	268.307	326.772	179.622	184.323	291.468	345.986	183.829	188.043	188.518	193.447	312.504	192.719	-8191	255	
869.238	1	1	0	0	0.21768	0.19665	0.11539	0.082877	0.039997	0.19136	0.10031	0.23157	0.087809	0.19059	0.19277	0.27823	0.44524	0.3257	0.021343	0.089526	-2.1083	-3.1437	-3.0479	-2.9062	-3.0271	-2.8937	-3.1688	-3.2208	-2.8479	-2.975	-2.9896	-2.9854	-3.3708	-2.9958	-2.7229	-3.1146	267.785	305.614	290.589	241.624	473.573	259.428	521.579	502.315	464.584	299.888	467.661	209.009	476.979	513.544	330.751	332.870	0.0015696	0.00053494	0.00016606	1340.7	6.1709e-06	3.9193e-06	1342	368.39	8.4358e-06	4.7638e-06	418.61	141.11	121	41.153	9.0752e-06	51.092	0.0002686	0.00024318	6.6539e-05	1331.7	2.6353e-06	2.594e-06	1356	372.13	2.6263e-06	2.642e-06	422.83	141.63	121.93	41.944	2.666e-06	51.925	380.516	237.204	258.686	179.641	307.239	326.381	179.369	184.067	279.100	338.827	183.836	187.932	188.775	193.392	260.083	192.454	-8191	255	
869.359	1	1	0	0	0.30847	0.11226	0.2796	0.10567	0.15892	0.18888	0.078046	0.055547	0.097559	0.11459	0.21088	0.18085	0.13661	0.19088	0.11484	0.19838	-2.4271	-3.0625	-2.825	-2.65	-3.2729	-2.9646	-3.2396	-3.2687	-2.9042	-2.9271	-3.0958	-3.0792	-3.2375	-2.9729	-3.0125	-3.4583	356.822	239.614	380.241	350.086	316.059	178.249	380.170	397.214	437.987	326.492	295.659	465.500	437.300	497.114	307.209	421.369	0.0017149	0.00059693	0.00013623	1334.6	7.4542e-07	7.1841e-06	1344.5	369.38	9.2436e-06	1.9542e-06	419.75	139.8	121.56	41.194	4.4428e-06	51.097	0.0002678	0.00024195	6.6748e-05	1330.2	2.6216e-06	2.6238e-06	1357.3	372.64	2.6309e-06	2.6025e-06	422.52	141.1	122.13	41.914	2.6608e-06	51.83	383.730	257.788	262.519	179.982	255.854	290.963	179.313	184.358	287.107	289.243	183.902	188.093	188.656	193.657	276.200	192.321	-8191	255	
869.455	1	1	0	0	0.11285	0.19995	0.24856	0.31807	0.0449	0.37586	0.18961	0.28613	0.082306	0.11226	0.28881	0.12327	0.12868	0.24102	0.20006	0.43983	-2.3438	-2.8604	-2.7875	-2.8271	-3.2396	-2.7687	-3.1396	-3.1854	-2.8396	-2.9875	-3.2625	-2.9354	-3.15	-2.9833	-2.6458	-3.1604	367.599	352.170	353.203	477.820	306.161	465.605	390.233	491.372	407.351	380.407	500.938	284.540	365.756	260.011	237.108	454.330	0.0017174	0.00060948	0.00013137	1336.1	4.5798e-06	3.0476e-06	1336.5	369.04	8.0286e-06	3.1195e-06	420.54	141.05	121.2	41.109	8.9838e-06	51.236	0.00026639	0.00024078	6.5888e-05	1328.1	2.62e-06	2.5963e-06	1353.3	372.13	2.5808e-06	2.6158e-06	422.95	141.37	121.96	41.879	2.5675e-06	51.881	382.572	264.012	265.596	179.713	310.262	374.553	179.441	184.080	289.847	286.439	183.724	188.057	188.668	193.553	272.807	192.362	-8191	255	
869.551	1	1	0	0	0.25533	0.16	0.19925	0.15127	0.11164	0.14681	0.23162	0.25995	0.076449	0.077473	0.19741	0.18004	0.054814	0.1857	0.26773	0.14598	-2.4813	-2.8042	-2.9708	-2.85	-3.0604	-3.0792	-3.0271	-3.3104	-2.9688	-3.0104	-3.225	-2.8937	-3.1917	-3.0979	-2.6396	-3.125	248.468	366.852	172.093	507.546	227.483	274.085	475.548	522.410	175.241	353.308	477.221	169.905	180.873	210.153	302.680	212.070	0.0016392	0.00063328	0.00013873	1330.8	7.1059e-06	3.7305e-06	1341.4	368.15	5.1779e-06	1.0679e-06	418.27	140.83	121.34	41.13	8.3853e-06	51.089	0.00026086	0.00023341	6.5746e-05	1328.2	2.6114e-06	2.5745e-06	1355.3	371.66	2.5629e-06	2.5716e-06	422.3	141.33	121.89	41.886	2.5881e-06	51.847	382.280	238.700	237.890	179.720	306.199	376.016	179.435	184.326	270.728	259.565	183.740	188.129	188.684	193.370	297.326	192.462	-8191	255	
869.647	1	1	0	0	0.23773	0.18274	0.1915	0.096561	0.077463	0.14787	0.35283	0.34017	0.08866	0.073509	0.15941	0.22464	0.17646	0.24536	0.15277	0.16563	-2.5938	-2.9875	-2.9667	-2.5604	-3.0292	-3.0375	-2.8688	-3.0875	-2.8333	-2.7854	-3.0854	-2.9521	-3.1104	-2.9854	-2.7458	-3.0812	440.032	372.397	456.326	498.512	203.843	510.736	508.119	482.664	325.403	370.679	182.787	444.703	410.531	469.741	374.722	465.212	0.0017744	0.00052946	0.00012548	1339.2	5.888e-06	6.5511e-06	1342.1	368.79	8.9367e-06	3.1621e-06	420.78	140.5	121.55	41.261	6.7736e-06	51.34	0.00026477	0.00023933	6.4999e-05	1330.9	2.6203e-06	2.5499e-06	1354.9	372.21	2.5904e-06	2.5783e-06	422.85	141.36	122.1	41.945	2.5693e-06	51.94	384.890	221.637	283.044	179.874	310.451	325.422	179.500	184.249	276.164	266.123	183.818	188.111	188.595	193.276	271.944	192.388	-8191	255	
869.744	1	1	0	0	0.077096	0.11685	0.16223	0.054974	0.037726	0.11019	0.068534	0.18584	0.026676	0.18857	0.17647	0.10519	0.25745	0.14954	0.15302	0.17058	-2.4771	-2.8042	-3.0125	-2.9521	-2.9688	-2.9062	-3	-3.2188	-2.8625	-2.9521	-3.325	-2.9292	-3.1167	-3.4583	-2.8688	-2.9062	228.389	409.007	304.827	479.149	388.545	495.886	413.884	520.879	517.365	401.283	214.264	458.692	505.035	473.466	428.792	280.403	0.0017409	0.00065415	7.8273e-05	1339.3	1.0774e-06	1.4859e-06	1335.9	367.05	7.2688e-06	5.4567e-06	420.57	140.29	121.18	41.225	8.3509e-06	51.096	0.00026319	0.00023068	6.3676e-05	1332	2.5329e-06	2.5051e-06	1353.3	371.3	2.5335e-06	2.4798e-06	422.26	141.14	121.8	41.871	2.4599e-06	51.749	383.613	264.546	282.529	179.976	311.992	223.337	179.505	184.418	322.639	304.061	183.758	187.931	188.925	193.437	299.199	192.565	-8191	255	
869.840	1	1	0	0	0.074186	0.19866	0.29607	0.32376	0.31193	0.095516	0.185	0.21832	0.15051	0.29947	0.29502	0.11725	0.17839	0.25499	0.16114	0.15451	-2.5708	-2.7854	-3.0833	-2.7708	-3.0479	-3.2021	-2.8833	-2.9646	-3.0458	-2.9646	-3.0563	-3.0396	-3.0542	-3.3708	-2.7687	-3.0896	449.048	308.073	281.023	478.284	523.759	263.101	440.325	458.184	512.554	344.706	420.274	193.005	495.519	192.130	407.954	378.046	0.0015782	0.00052814	0.00014639	1333.9	5.6089e-06	3.4023e-06	1339.3	367.65	6.7045e-06	3.4746e-06	420.1	140.62	120.47	41.227	8.4188e-06	50.905	0.00025407	0.0002254	6.2831e-05	1328.1	2.4925e-06	2.4621e-06	1354.9	371.07	2.5427e-06	2.5117e-06	422.98	140.98	121.64	41.845	2.5815e-06	51.801	385.014	269.965	273.443	179.713	310.556	283.316	179.569	184.458	266.916	340.628	183.776	188.050	188.753	193.652	284.225	192.412	-8191	255	
869.934	1	1	0	0	0.15477	0.20977	0.16873	0.19803	0.18935	0.1022	0.30309	0.30428	0.15792	0.14234	0.31307	0.11487	0.10446	0.087526	0.21588	0.10092	-2.5438	-2.7313	-3.0271	-3.075	-2.8646	-3.2792	-3.0187	-3.0146	-3.0854	-2.9208	-3.0896	-2.9917	-2.8	-3.2188	-2.9375	-2.9292	418.931	171.186	303.730	493.948	443.047	249.792	428.164	468.050	214.601	453.801	502.554	487.752	393.983	411.558	354.625	281.866	0.0017467	0.00040199	0.00016886	1339.5	4.4893e-06	4.808e-06	1342.1	368.48	6.8752e-06	1.6521e-06	419.54	141.14	121.2	41.155	8.1417e-06	51.207	0.0002617	0.000236	6.5693e-05	1330.9	2.6178e-06	2.5819e-06	1356	371.87	2.6497e-06	2.5322e-06	422.9	141.21	121.97	41.882	2.5416e-06	51.926	383.414	243.135	265.227	179.516	296.156	305.239	179.563	184.313	279.121	339.345	183.810	187.974	188.800	193.595	287.576	192.360	-8191	255	
870.055	1	1	0	0	0.052809	0.13734	0.096753	0.099615	0.13911	0.068158	0.36216	0.26916	0.18397	0.13601	0.12286	0.1346	0.2924	0.24402	0.1454	0.018104	-2.5396	-2.7396	-3.1271	-2.9833	-2.7146	-3.1646	-3.2958	-2.975	-2.9625	-2.8917	-3.2604	-2.85	-2.9	-3.3917	-2.7125	-2.9437	479.120	342.032	505.851	329.842	454.858	249.204	486.352	444.926	448.851	448.908	202.383	498.514	176.011	176.182	252.871	478.587	0.0016795	0.0002999	0.00017427	1335.9	6.9198e-06	4.7415e-06	1342.5	368.98	5.0881e-06	5.3841e-06	419.5	140.5	120.97	41.273	5.5502e-06	51.057	0.00025847	0.00022618	6.3842e-05	1330.6	2.5139e-06	2.4508e-06	1355.1	371.85	2.5045e-06	2.4038e-06	421.74	141.17	121.63	41.889	2.4505e-06	51.756	383.735	273.744	265.245	179.693	323.586	357.230	179.332	184.336	274.660	272.993	183.683	188.148	188.877	193.454	277.533	192.334	-8191	255	
870.126	1	1	0	0	0.10609	0.18771	0.22486	0.21335	0.13005	0.046276	0.38607	0.17526	0.10252	0.2119	0.33085	0.42826	0.11576	0.27906	0.19057	0.33086	-2.8479	-2.8792	-3.0917	-2.9458	-2.8479	-3.0833	-3.1333	-2.9854	-3.0167	-2.9208	-3.2604	-3.1813	-2.9167	-3.1583	-3.0417	-3.1292	204.086	276.908	192.016	503.043	180.535	263.160	441.767	470.940	480.461	386.572	487.571	459.987	349.809	509.243	227.895	471.775	0.0016139	0.00050038	0.0001281	1333	3.2488e-06	3.6755e-06	1338.6	367.85	6.7803e-06	1.8345e-06	418.76	140.85	120.58	41.126	8.6509e-06	51.057	0.0002503	0.00022093	6.3584e-05	1326.5	2.4863e-06	2.5174e-06	1354	371.52	2.5694e-06	2.553e-06	422.17	141.28	121.63	41.865	2.6327e-06	51.959	384.733	271.843	282.433	180.028	317.552	372.463	179.483	184.297	302.537	346.781	183.747	188.098	188.707	193.519	277.469	192.445	-8191	255	
870.223	1	1	0	0	0.21295	0.074601	0.1921	0.13629	0.16813	0.074628	0.32997	0.2834	0.24416	0.17486	0.16442	0.24315	0.24006	0.084617	0.14622	0.15939	-2.7354	-2.8667	-3.0042	-3.15	-2.9646	-3.1708	-3.2729	-2.8104	-3.1	-2.9062	-3.0708	-3.0708	-2.6979	-2.9688	-2.9813	-2.9792	455.566	238.329	216.545	451.774	364.669	227.120	450.914	517.208	253.811	194.606	521.631	196.793	224.282	452.523	272.562	475.052	0.0016056	0.00036524	8.7502e-05	1340.8	6.4101e-06	4.2897e-06	1342.9	369.52	9.1564e-06	2.3812e-06	420.48	140.79	120.94	41.263	5.3791e-06	51.067	0.00026995	0.00023997	6.7516e-05	1333	2.6382e-06	2.7129e-06	1358	372.58	2.694e-06	2.6171e-06	423.49	141.35	121.89	41.888	2.6717e-06	51.844	382.499	224.058	219.044	179.850	332.042	355.308	179.337	184.130	275.921	308.597	183.610	187.929	188.440	193.397	295.512	192.545	-8191	255	
870.319	1	1	0	0	0.1171	0.067058	0.033401	0.10779	0.21871	0.040589	0.089706	0.33024	0.22304	0.29228	0.16054	0.089173	0.12438	0.056947	0.042517	0.13224	-2.7	-2.9354	-2.8833	-3.1708	-2.9562	-3.0375	-3.125	-2.8625	-3.2542	-2.8271	-3.0208	-3.1396	-2.8375	-3.1521	-3.1875	-3.0396	334.542	468.829	479.515	373.614	516.952	453.175	299.037	384.913	513.069	489.557	473.482	370.291	208.272	338.389	368.533	257.433	0.0015789	0.00057546	6.7254e-05	1340.1	6.0192e-06	4.9771e-06	1345.4	367.72	5.9104e-06	2.9618e-06	419.25	141.03	120.59	41.301	3.2011e-06	51.297	0.00026987	0.00024048	6.6601e-05	1331.4	2.5902e-06	2.6278e-06	1357.6	371.34	2.6077e-06	2.5371e-06	423.01	141.29	121.68	41.937	2.5591e-06	51.938	382.180	260.814	281.784	179.819	316.045	361.332	179.306	184.289	303.822	372.451	183.965	188.045	188.816	193.489	283.004	192.675	-8191	255	
870.439	1	1	0	0	0.17727	0.22777	0.10973	0.14028	0.15285	0.044481	0.058441	0.077227	0.053353	0.20185	0.14689	0.29575	0.38392	0.073937	0.1401	0.28218	-2.6625	-2.825	-2.8458	-3.1688	-3.0021	-2.9625	-3.1667	-2.8875	-3.075	-2.9583	-2.8479	-3.0438	-2.7542	-3.1312	-3.1854	-2.9854	433.475	275.166	305.318	472.782	481.926	355.515	429.028	506.771	344.413	392.659	190.088	514.920	457.843	414.788	377.715	516.971	0.0015674	0.00033958	0.00018772	1339.7	2.0563e-06	5.9339e-06	1346.2	368.94	7.474e-06	3.272e-06	418.64	141.34	121.37	41.137	6.5572e-06	51.066	0.00026461	0.000232	6.5007e-05	1332.1	2.5852e-06	2.6025e-06	1357.6	371.59	2.5952e-06	2.6081e-06	422.68	141.29	121.9	41.825	2.6247e-06	51.927	382.666	275.010	261.733	179.827	278.599	327.361	179.296	183.961	266.752	308.884	183.753	188.035	188.550	193.304	265.805	192.409	-8191	255	
870.535	1	1	0	0	0.23838	0.080292	0.17213	0.15301	0.13073	0.056036	0.17714	0.29839	0.16049	0.18021	0.18246	0.16189	0.33323	0.1955	0.039775	0.077748	-2.6667	-2.9208	-2.7625	-3.1771	-2.9062	-3.2646	-3.3625	-2.925	-3.2188	-3.0812	-2.9188	-3.1979	-2.8688	-2.8771	-3.1667	-2.8667	450.399	267.017	270.362	406.274	266.067	329.268	175.522	465.634	320.894	429.410	514.654	239.347	432.252	525.093	405.836	390.354	0.0015569	0.00033164	0.00022494	1337	6.3364e-06	2.6281e-06	1346.4	368.22	5.3424e-06	3.2002e-06	419.27	140.94	121.21	41.16	3.9212e-06	50.984	0.00026858	0.00023853	6.6847e-05	1329.6	2.5877e-06	2.6436e-06	1358.4	371.47	2.6647e-06	2.5649e-06	422.58	141.41	121.91	41.842	2.6028e-06	51.821	380.600	265.759	219.992	179.819	305.847	329.340	179.324	184.331	282.522	285.851	183.870	188.087	188.734	193.641	260.789	192.478	-8191	255	
870.632	1	1	0	0	0.20519	0.038481	0.065842	0.025246	0.13695	0.24933	0.41415	0.28645	0.054647	0.16997	0.26248	0.31104	0.028543	0.21702	0.059038	0.1474	-2.6833	-3.1937	-2.9167	-3.0521	-3.1	-3.1063	-3.3229	-2.7729	-3.225	-2.9729	-3.1583	-3.1979	-3.0729	-3.075	-3.3667	-2.825	328.252	245.115	282.792	326.876	498.822	226.477	193.829	472.060	460.680	510.901	203.872	500.372	399.395	521.383	262.567	471.474	0.0014324	0.00039488	0.00025063	1340.7	5.1027e-06	5.5199e-06	1339.5	368.86	6.3014e-06	1.9295e-06	419.46	140.41	121.13	41.225	2.9118e-06	50.96	0.00026311	0.00023485	6.5699e-05	1333.1	2.5276e-06	2.5443e-06	1356	372.06	2.5795e-06	2.5256e-06	422.3	141.19	121.77	41.905	2.5534e-06	51.783	385.279	250.528	262.159	179.762	295.860	331.666	179.492	184.296	265.536	251.110	183.782	187.930	188.606	193.460	331.888	192.396	-8191	255	
870.728	1	1	0	0	0.1637	0.23435	0.08546	0.18771	0.16681	0.17135	0.35869	0.19168	0.19981	0.20132	0.22929	0.074566	0.20483	0.069999	0.036977	0.14339	-2.6083	-2.9542	-2.7917	-3.0979	-3.1188	-2.9688	-3.4042	-2.95	-2.8937	-3.1146	-2.775	-3.1479	-2.9917	-2.8521	-3.1375	-2.9042	201.119	444.843	325.843	429.276	248.780	421.947	498.082	401.259	519.346	524.430	182.166	486.243	473.248	429.718	395.293	501.915	0.0017428	0.00022778	0.00017971	1344.3	4.7839e-06	3.3779e-06	1344.2	368.52	4.5376e-06	4.9446e-06	418.74	140.51	121.07	41.361	7.6388e-06	50.963	0.00026718	0.00023556	6.4223e-05	1332	2.5537e-06	2.5582e-06	1357.7	371.59	2.6372e-06	2.5675e-06	421.55	141.07	121.72	41.864	2.5729e-06	51.735	382.870	254.824	268.446	179.948	277.702	341.144	179.383	184.271	277.034	292.895	183.751	188.072	188.674	193.553	286.759	192.637	-8191	255	
870.824	1	1	0	0	0.31674	0.092373	0.1563	0.086993	0.14645	0.12844	0.15988	0.18472	0.1282	0.14245	0.4771	0.18044	0.026633	0.15135	0.12713	0.19794	-2.4375	-3.1583	-2.8146	-3.1688	-2.9167	-2.8833	-3.2583	-2.9542	-2.9833	-2.9979	-2.775	-3.2229	-3.1667	-2.6813	-3.0271	-3.0042	485.977	176.763	308.655	181.680	501.823	181.201	432.856	407.381	506.461	440.014	519.809	349.679	246.968	205.384	188.051	436.458	0.0015706	0.00057256	9.4986e-05	1336.5	3.6593e-06	5.3397e-06	1343.2	367.94	7.4378e-06	3.8663e-06	420.2	140.22	121.29	41.088	8.8339e-07	51.029	0.00026242	0.00022809	6.3826e-05	1329.7	2.5136e-06	2.4609e-06	1356.3	371.02	2.5263e-06	2.437e-06	421.98	141.11	121.62	41.754	2.4472e-06	51.759	386.631	235.670	217.698	179.947	316.669	345.983	179.408	184.348	273.955	374.660	183.715	188.077	188.650	193.426	288.382	192.185	-8191	255	
870.920	1	1	0	0	0.30788	0.071137	0.027976	0.15086	0.17651	0.019814	0.27673	0.13535	0.30112	0.23816	0.18524	0.17009	0.17821	0.042254	0.15541	0.11913	-2.5521	-2.9938	-2.7313	-3.0167	-3.15	-2.8042	-3.2854	-2.8958	-2.8917	-3.3667	-2.9792	-3.0438	-2.9833	-2.7646	-3.1167	-3.0604	308.791	208.008	260.149	435.635	489.491	169.397	448.689	522.877	409.917	169.871	487.743	443.900	502.711	525.384	310.626	360.162	0.0016382	0.00028201	0.00014188	1332.7	2.3288e-06	3.2056e-06	1341.8	367.38	5.8724e-06	3.3144e-06	417.67	140.98	120.7	41.265	8.1194e-06	51.11	0.00025416	0.0002254	6.2188e-05	1327.2	2.4611e-06	2.4655e-06	1354.6	370.88	2.5299e-06	2.4536e-06	421.62	141.26	121.53	41.842	2.4635e-06	51.723	385.841	264.711	236.774	179.666	264.614	336.167	179.623	184.159	283.320	307.684	183.837	187.874	188.585	193.510	332.139	192.419	-8191	255	
871.039	1	1	0	0	0.046047	0.3707	0.080365	0.085587	0.2595	0.2933	0.37409	0.097209	0.24562	0.22027	0.17746	0.15245	0.025099	0.12084	0.13	0.22514	-2.2562	-3.0187	-2.7354	-2.7396	-3.1875	-2.8229	-3.3354	-2.8458	-2.7792	-3.0771	-2.975	-3.325	-3.0958	-2.7375	-3.0167	-3.1729	466.570	366.896	296.852	323.850	485.944	463.914	473.893	218.005	361.214	202.345	311.003	487.218	362.517	173.968	285.031	517.758	0.0017042	0.00031574	0.00011928	1332	7.1062e-06	1.8232e-06	1339.7	368.67	7.4354e-06	5.7374e-06	417.92	141.12	121.32	41.25	5.3602e-06	51.008	0.00025409	0.00022342	6.2186e-05	1324.9	2.4799e-06	2.4457e-06	1352.7	371.62	2.4838e-06	2.4507e-06	421.97	141.23	121.66	41.775	2.4658e-06	51.747	383.219	260.575	263.555	179.619	302.036	362.163	179.498	184.322	273.095	322.768	183.737	188.044	188.593	193.557	274.005	192.541	-8191	255	
871.135	1	1	0	0	0.21141	0.16812	0.27536	0.18693	0.18673	0.16089	0.14321	0.24801	0.15419	0.12213	0.31709	0.32873	0.45877	0.23416	0.14282	0.098716	-2.2729	-2.9646	-2.7188	-3.0312	-3.2729	-2.8646	-3.1958	-3.2687	-3.0542	-3.2729	-2.9313	-2.9292	-3.1813	-2.9542	-3.0292	-3.0896	275.304	400.847	414.220	410.496	321.650	438.122	440.932	446.945	172.360	207.181	348.113	463.523	487.531	176.085	481.358	466.816	0.0016537	0.00036763	3.0746e-05	1336.8	5.4382e-06	5.6453e-06	1345.3	368.16	7.1368e-06	4.4318e-06	419.46	140.42	120.89	40.974	6.7159e-06	50.869	0.00024789	0.00022492	6.1384e-05	1327.7	2.4341e-06	2.4053e-06	1354.4	370.52	2.47e-06	2.4038e-06	421.97	140.82	121.56	41.737	2.4535e-06	51.649	381.134	202.249	222.205	179.629	314.477	300.985	179.390	184.286	280.382	287.119	183.834	187.938	188.874	193.514	287.319	192.580	-8191	255	
871.231	1	1	0	0	0.1257	0.18661	0.14861	0.17413	0.094541	0.079106	0.14892	0.30787	0.026084	0.083611	0.28787	0.32002	0.18043	0.25046	0.18246	0.043976	-2.4646	-3.0667	-3.0438	-2.9896	-3.1792	-2.8167	-3.1708	-3.1021	-2.6167	-2.9125	-3.1979	-2.7875	-3.225	-2.8021	-2.9938	-3.1854	397.234	344.850	282.455	489.762	464.652	425.681	436.192	186.340	221.751	375.902	454.652	195.312	215.435	497.183	390.175	198.356	0.0016325	0.00041585	0.00017205	1330.3	2.6746e-06	3.9022e-06	1336.7	367.2	7.2314e-06	4.1628e-06	418.25	140.78	120.68	41.098	4.163e-06	50.818	0.0002486	0.00022333	6.2046e-05	1323.1	2.4304e-06	2.3931e-06	1351.1	370.37	2.4119e-06	2.3781e-06	421.11	140.94	121.43	41.746	2.4217e-06	51.638	383.588	250.112	244.449	179.858	279.394	339.974	179.516	184.406	292.760	314.858	183.663	187.870	188.422	193.477	296.422	192.695	-8191	255	
871.352	1	1	0	0	0.11651	0.18142	0.15859	0.1729	0.10643	0.092883	0.20336	0.21912	0.17986	0.12727	0.21046	0.17305	0.15015	0.16192	0.18641	0.27518	-2.3833	-3.0729	-2.9104	-2.7625	-3.2062	-2.7708	-3.0104	-3.2354	-2.8729	-2.9708	-2.9542	-2.8	-3.3083	-3.0187	-2.8583	-3.375	450.977	226.620	467.865	512.317	437.593	277.810	368.251	496.200	396.533	301.687	194.749	505.975	287.547	233.569	477.115	200.614	0.0017203	0.0006074	9.09e-05	1330.8	3.7968e-06	3.8286e-06	1337.7	366.72	4.7731e-06	6.2244e-06	419.94	139.94	120.56	41.161	5.1325e-06	50.765	0.000245	0.00021992	6.171e-05	1323.9	2.4001e-06	2.3985e-06	1352.1	370.44	2.4361e-06	2.3739e-06	421.16	140.69	121.35	41.727	2.379e-06	51.63	384.965	243.477	254.096	179.706	308.128	354.709	179.479	184.278	253.943	293.888	183.899	187.922	188.602	193.663	307.550	192.694	-8191	255	
871.424	1	1	0	0	0.0493	0.15078	0.083379	0.067471	0.14194	0.17767	0.29835	0.081352	0.1637	0.080625	0.034049	0.075925	0.11393	0.059205	0.12349	0.16769	-2.3	-2.8312	-2.9354	-2.6208	-2.9083	-2.8625	-3.1312	-3.2292	-2.825	-3.1437	-3.1542	-2.7646	-3.0604	-3.0146	-3.0312	-3.1375	229.618	439.764	520.772	509.604	478.455	182.590	441.342	464.102	473.171	335.113	481.019	441.702	222.441	179.957	522.925	460.866	0.0017128	0.00053079	9.2291e-05	1335.9	4.4931e-06	6.5139e-06	1336.6	367.37	1.1002e-05	4.4345e-06	418.24	140.55	121.24	40.937	8.4186e-06	50.894	0.00024829	0.00021692	6.0622e-05	1323.7	2.3903e-06	2.3553e-06	1350.1	370.6	2.4227e-06	2.3807e-06	420.94	140.82	121.34	41.682	2.4076e-06	51.671	384.524	231.379	249.566	180.041	282.093	341.264	179.372	184.227	274.126	306.250	183.761	188.084	188.678	193.504	278.249	192.253	-8191	255	
871.520	1	1	0	0	0.17437	0.11163	0.13634	0.17984	0.13184	0.16217	0.24623	0.12279	0.26457	0.2481	0.26517	0.093352	0.28291	0.25737	0.082485	0.17766	-2.0438	-2.9833	-3.1021	-2.85	-2.9313	-2.9854	-2.9958	-3.2812	-2.8896	-2.7812	-3.025	-3.1229	-3.2396	-3.0167	-2.775	-3.4708	469.734	525.554	488.734	261.252	334.768	311.557	462.325	478.596	175.930	397.034	171.008	478.607	488.562	520.340	467.643	501.301	0.0017404	0.00037615	7.3553e-05	1329.5	3.1575e-06	5.1916e-06	1339.5	367.39	5.3864e-06	3.5944e-06	419.53	140.11	120.86	41.076	8.2975e-06	50.807	0.00024945	0.00022243	6.0803e-05	1321.8	2.4393e-06	2.3857e-06	1351	370.41	2.4547e-06	2.4109e-06	421.01	140.71	121.33	41.694	2.3945e-06	51.656	383.377	228.262	302.577	179.816	319.486	321.125	179.363	184.194	308.352	315.723	183.766	187.994	188.731	193.364	273.368	192.639	-8191	255	
871.616	1	1	0	0	0.05599	0.0092872	0.11542	0.051122	0.1606	0.044752	0.2707	0.10741	0.23479	0.18183	0.095895	0.26202	0.27701	0.058898	0.049465	0.17685	-2.6417	-2.9458	-3.2208	-2.8875	-3.2438	-3.1792	-2.8542	-3.2417	-2.975	-3.0417	-3.3042	-3.0021	-3.1521	-3.1063	-2.7625	-2.9479	277.851	398.460	237.065	472.152	362.674	215.289	453.894	456.520	525.615	176.924	173.797	414.385	460.648	363.198	475.791	509.050	0.0016651	0.00030998	0.00011204	1333.7	7.3094e-06	7.3527e-06	1334.2	366.72	8.1542e-06	5.5126e-06	419.4	140.26	120.44	41.132	7.3682e-06	50.879	0.00024678	0.00021715	6.1117e-05	1323.8	2.439e-06	2.4042e-06	1350.6	370.16	2.4209e-06	2.35e-06	421.35	140.61	121.42	41.752	2.4103e-06	51.628	379.763	241.620	275.751	179.825	310.015	332.514	179.503	184.259	306.385	325.957	183.677	188.041	188.758	193.619	310.543	192.633	-8191	255	
871.736	1	1	0	0	0.13613	0.14271	0.060998	0.37307	0.12476	0.13643	0.038611	0.15234	0.11785	0.24891	0.13851	0.23296	0.081479	0.40215	0.31837	0.14558	-2.6437	-2.9313	-3.0667	-2.7812	-2.8688	-3.2167	-3.0396	-3.3083	-2.9708	-2.725	-3.2833	-3.0021	-3.2292	-3.1333	-2.7708	-2.8854	367.327	214.393	363.138	220.039	349.609	500.630	210.584	493.035	217.458	412.749	503.229	525.657	289.585	507.567	168.807	423.611	0.0016074	0.00058775	0.0001257	1336.3	3.7139e-06	6.408e-06	1338.3	367.47	9.8878e-06	4.8264e-06	417.53	140.21	121.1	41.098	5.6361e-06	50.89	0.00024973	0.00021631	6.203e-05	1324.7	2.4123e-06	2.3801e-06	1350.7	370.45	2.4358e-06	2.4201e-06	421.37	140.74	121.49	41.714	2.382e-06	51.628	383.652	243.272	193.211	179.933	298.235	346.046	179.376	184.255	293.396	324.202	183.553	188.001	188.744	193.355	295.656	192.522	-8191	255	
871.833	1	1	0	0	0.10905	0.2054	0.19341	0.066038	0.063089	0.15348	0.26979	0.19824	0.083582	0.073256	0.30614	0.10448	0.30205	0.16106	0.065448	0.1062	-2.4583	-2.9354	-3.1083	-2.6583	-2.6896	-3.1208	-3.0854	-3.2	-2.9104	-2.8875	-3.2708	-2.9375	-3.0104	-3.1333	-3.0292	-3.1521	404.047	232.506	430.912	298.056	298.792	237.934	166.993	514.944	424.185	475.465	524.434	518.206	488.033	410.329	225.967	186.729	0.001607	0.00037196	3.7359e-05	1338.8	4.5089e-06	5.8188e-06	1338	366.87	7.6318e-06	6.1426e-06	417.53	140.07	121.04	41.153	5.8242e-06	50.956	0.00024829	0.00021911	6.0737e-05	1326.1	2.4097e-06	2.3877e-06	1351.3	370.09	2.4263e-06	2.3779e-06	420.92	140.63	121.46	41.764	2.4128e-06	51.654	382.712	248.319	238.950	180.024	285.347	334.726	179.374	184.237	265.626	318.845	183.805	188.222	188.565	193.578	274.057	192.460	-8191	255	
871.927	1	1	0	0	0.069282	0.053412	0.13707	0.04885	0.11158	0.12975	0.32279	0.27977	0.082091	0.14427	0.16769	0.087329	0.0605	0.12927	0.15408	0.3347	-2.6646	-2.8583	-3.0625	-2.9146	-2.9875	-3.2188	-3.0687	-3.2354	-2.8438	-2.6458	-3.1604	-3.1646	-3	-3.125	-2.8354	-3.1292	189.921	418.533	355.929	356.266	487.223	241.312	463.658	481.129	241.016	411.947	516.533	485.264	377.793	451.786	310.942	175.802	0.0015313	0.00042835	0.00010031	1334.3	4.0743e-06	3.2294e-06	1339.4	366.53	5.3604e-06	2.0415e-06	416.88	140.52	121.05	41.054	5.5429e-06	50.889	0.00024612	0.00021658	6.1947e-05	1323	2.4242e-06	2.3787e-06	1350.3	370.48	2.4022e-06	2.3806e-06	421.01	141	121.41	41.694	2.3948e-06	51.653	384.591	224.067	271.817	179.803	336.504	314.832	179.526	184.237	318.552	381.837	183.866	188.091	188.607	193.560	294.951	192.573	-8191	255	
872.000	1	1	0	0	0.11397	0.12738	0.16625	0.17796	0.16863	0.12534	0.19981	0.15142	0.085454	0.26006	0.22099	0.20584	0.29138	0.14105	0.11804	0.23005	-2.5979	-2.8917	-3.0271	-2.8917	-2.8833	-3.2417	-3.0021	-2.9646	-3.0792	-2.9729	-3.2292	-2.9313	-2.8625	-3.1708	-2.8917	-3.1021	425.756	520.348	193.177	406.183	257.006	383.235	429.950	258.622	326.445	337.346	502.130	494.556	509.045	412.194	306.328	525.196	0.0016808	0.00022469	0.00013754	1339.1	2.385e-06	6.0487e-06	1337.1	367.64	8.0245e-06	7.5765e-06	419.72	140.07	121.3	41.195	5.5974e-06	50.95	0.000251	0.00021809	6.1322e-05	1325.3	2.3766e-06	2.4027e-06	1352.4	370.84	2.424e-06	2.3759e-06	422.16	140.91	121.61	41.775	2.4048e-06	51.723	382.368	238.676	287.860	179.972	306.725	297.429	179.245	184.110	274.100	335.349	183.488	187.877	188.739	193.415	286.290	192.453	-8191	255	
872.119	1	1	0	0	0.16481	0.21896	0.13655	0.15881	0.10831	0.12902	0.072214	0.19875	0.27601	0.16221	0.18621	0.38602	0.061496	0.14361	0.072504	0.25344	-2.5375	-2.5708	-3.1646	-3.1729	-2.9083	-3.2667	-2.9625	-3.1667	-3.2479	-2.5979	-2.9667	-3.1583	-2.9437	-3.2708	-2.9813	-2.9229	478.672	499.231	312.729	479.842	362.987	265.704	186.767	458.660	300.132	188.216	170.662	495.681	191.466	372.288	207.824	486.765	0.0017589	0.00046262	5.8215e-05	1335.8	6.0442e-06	4.0979e-06	1339.6	367.23	1.0648e-05	3.6515e-06	419.58	140.47	120.72	40.998	4.9913e-06	51.013	0.00025135	0.0002159	6.0725e-05	1326.7	2.4008e-06	2.4069e-06	1352.3	370.35	2.4592e-06	2.4095e-06	421.73	140.86	121.33	41.728	2.4368e-06	51.725	381.256	257.622	288.671	179.612	316.772	335.929	179.278	184.413	293.056	354.806	183.747	187.995	188.714	193.346	292.871	192.540	-8191	255	
872.215	1	1	0	0	0.10362	0.17778	0.29097	0.052296	0.10057	0.18575	0.40396	0.31309	0.28514	0.043748	0.19511	0.37796	0.28999	0.037382	0.30613	0.023689	-2.8167	-2.9021	-2.9813	-3	-2.9188	-3.0708	-3.0875	-2.9417	-3.2917	-2.8417	-2.9729	-3.2792	-2.9021	-3.3271	-2.9479	-2.8833	187.687	311.646	183.029	210.772	196.475	438.914	479.269	480.577	178.580	227.401	458.443	515.347	523.651	239.920	196.207	422.830	0.0016039	0.00040945	0.00012967	1338.8	2.9756e-06	4.3639e-06	1341.4	366.83	6.5871e-06	4.0355e-06	418.6	140.51	120.87	41.108	4.9725e-06	51.067	0.00024615	0.00022261	6.2479e-05	1328.3	2.3882e-06	2.3832e-06	1352.8	370.47	2.3887e-06	2.3818e-06	421.62	141.02	121.49	41.702	2.4271e-06	51.655	384.043	229.105	270.484	179.795	283.670	302.136	179.256	184.471	283.701	296.299	183.969	188.104	188.905	193.177	307.604	192.808	-8191	255	
872.312	1	1	0	0	0.043318	0.10426	0.10787	0.1503	0.15988	0.13276	0.28501	0.18645	0.088397	0.089339	0.12075	0.35931	0.4343	0.10924	0.23409	0.05345	-2.725	-3.0396	-2.8063	-3.0146	-2.825	-3.0583	-3.1312	-2.9375	-3.0958	-2.6875	-3.225	-3.3187	-2.8458	-2.9729	-2.9	-2.9896	426.452	227.274	269.889	518.636	516.255	368.361	473.716	380.491	309.663	368.365	413.250	448.488	208.811	522.119	262.278	238.765	0.0015953	0.00045103	0.00019252	1333.4	5.1285e-06	4.9391e-06	1336.5	367.14	6.4148e-06	4.7637e-06	418.44	140.39	120.47	41.166	1.0134e-05	50.917	0.00024484	0.00021639	6.0831e-05	1322.7	2.3785e-06	2.362e-06	1350.6	370.52	2.3639e-06	2.3775e-06	421.35	140.89	121.24	41.781	2.3666e-06	51.659	375.659	233.568	256.479	179.841	280.756	333.486	179.373	184.152	304.890	273.445	183.710	188.185	188.648	193.633	303.874	192.544	-8191	255	
872.432	1	1	0	0	0.23366	0.23289	0.14615	0.25084	0.11821	0.35497	0.26832	0.14545	0.15273	0.18087	0.052304	0.24931	0.23094	0.3059	0.12465	0.21474	-2.8917	-2.8833	-2.8708	-3.1604	-2.8958	-3.1375	-3.2896	-3.15	-3.2021	-2.7375	-2.9521	-3.2938	-2.875	-2.8646	-3.0187	-2.8208	265.811	293.108	168.607	501.606	231.209	479.835	460.945	166.705	223.046	210.814	169.297	217.929	478.844	393.883	190.972	422.120	0.0015736	0.00021508	7.9314e-05	1339.4	5.2897e-06	4.8081e-06	1341.7	366.66	8.1311e-06	4.1178e-06	419.24	140.51	120.53	41.246	8.4998e-06	50.982	0.00024633	0.00021724	6.0485e-05	1327	2.376e-06	2.4185e-06	1352.1	370.38	2.4222e-06	2.3947e-06	421.58	140.89	121.38	41.767	2.3505e-06	51.678	383.130	225.821	281.132	179.919	298.855	356.592	179.479	184.306	284.703	351.033	183.852	188.031	188.558	193.583	270.102	192.470	-8191	255	
872.528	1	1	0	0	0.19066	0.1568	0.1439	0.25418	0.28979	0.15596	0.18904	0.21669	0.1306	0.17465	0.32051	0.090442	0.33573	0.1963	0.25868	0.05729	-2.8646	-2.9708	-2.8812	-3.15	-2.7604	-3.0417	-3.2583	-2.8021	-2.9938	-2.9104	-2.9958	-3.2958	-2.9562	-3.0417	-3.0438	-2.8917	177.794	272.178	326.590	473.863	454.642	344.637	506.994	422.508	441.275	414.150	454.251	373.714	496.129	177.179	181.092	168.637	0.0016429	0.0001011	0.00014741	1329	4.6267e-06	8.8765e-06	1337.6	367.1	6.5407e-06	5.1302e-06	418.4	140.49	120.63	41.059	7.626e-06	51.011	0.00024691	0.0002189	5.9542e-05	1322.9	2.3592e-06	2.3625e-06	1349.7	370.77	2.3613e-06	2.3422e-06	421.01	140.76	121.28	41.741	2.311e-06	51.638	381.703	252.516	256.553	179.866	294.655	324.201	179.499	184.342	275.594	338.030	183.669	187.877	188.839	193.386	274.733	192.630	-8191	255	
872.625	1	1	0	0	0.11618	0.09743	0.13171	0.2803	0.020912	0.41812	0.35559	0.082239	0.13699	0.25574	0.049375	0.36736	0.25646	0.30777	0.1992	0.23246	-2.7604	-2.9833	-2.6625	-2.9917	-2.8792	-3.1542	-3.3812	-2.8667	-3.1833	-3.1521	-2.7167	-3.1083	-3.1479	-2.9479	-3.1437	-3.1917	215.682	244.847	225.879	466.859	348.078	456.843	517.410	498.140	287.964	391.544	283.234	443.673	184.428	510.614	385.400	489.868	0.0015516	0.00056541	0.00016653	1331	4.2744e-06	3.6361e-06	1340.1	367.09	6.9029e-06	4.1328e-06	419.77	140.02	120.54	41.016	9.2237e-06	51.005	0.00024331	0.00021417	5.8451e-05	1323.2	2.3636e-06	2.34e-06	1353.2	370.39	2.4182e-06	2.3482e-06	422.05	140.59	121.38	41.752	2.3726e-06	51.696	384.983	238.196	294.957	179.909	316.534	326.630	179.379	184.180	302.116	318.741	183.778	187.921	188.665	193.319	281.928	192.562	-8191	255	
872.721	1	1	0	0	0.2085	0.28411	0.27666	0.10495	0.20527	0.14196	0.1148	0.37198	0.039273	0.060554	0.29863	0.14803	0.055246	0.21385	0.17617	0.30933	-2.7125	-2.8792	-2.6167	-3.3208	-2.7812	-2.6937	-3.2812	-3.1917	-2.8583	-3.15	-3.1	-3.2479	-3.0312	-2.8333	-3.2708	-3.0187	416.582	293.009	416.323	207.754	179.194	401.753	479.619	437.324	514.096	456.981	421.590	486.937	287.211	199.647	271.914	477.964	0.0015954	0.00049725	0.00013071	1331	5.4372e-06	6.2877e-06	1342.7	367.19	8.0577e-06	5.015e-06	418.9	140.2	120.82	41.096	7.383e-06	50.887	0.00024584	0.00021773	5.9522e-05	1323.9	2.377e-06	2.338e-06	1351.3	370.64	2.3996e-06	2.3404e-06	421.57	140.71	121.33	41.729	2.3477e-06	51.678	379.809	229.983	263.632	179.698	292.277	311.561	179.436	184.346	285.714	298.007	183.595	187.836	188.655	193.378	314.937	192.391	-8191	255	
872.817	1	1	0	0	0.25326	0.033523	0.19291	0.24249	0.21612	0.12984	0.48023	0.14491	0.27917	0.11718	0.1081	0.26609	0.2986	0.098105	0.22818	0.15372	-2.6479	-2.9646	-2.7104	-3.1063	-3.0583	-2.8271	-3.3417	-2.9479	-2.8979	-3.2146	-2.8021	-3.2375	-3.1229	-2.7521	-3.0146	-2.9896	174.064	171.028	436.152	497.874	206.045	393.945	420.625	453.631	175.553	214.445	179.262	501.643	496.819	178.712	257.282	516.250	0.0016324	0.0004449	7.8223e-05	1328.4	4.3187e-06	5.0998e-06	1334.2	366.64	6.9328e-06	4.613e-06	418.6	140.51	120.62	40.965	4.7677e-06	50.882	0.00024622	0.00021401	5.942e-05	1321.8	2.3662e-06	2.3116e-06	1349.5	370.13	2.3709e-06	2.2921e-06	420.62	140.69	121.27	41.711	2.3761e-06	51.641	387.939	274.041	219.364	179.992	284.045	303.765	179.412	184.401	234.962	303.053	183.915	187.858	188.688	193.415	300.656	192.427	-8191	255	
872.911	1	1	0	0	0.19324	0.22964	0.074332	0.26279	0.26776	0.22953	0.31579	0.26316	0.119	0.16241	0.33036	0.11185	0.34506	0.26637	0.11825	0.15166	-2.5167	-3.1708	-2.7667	-3.0083	-3.0938	-2.7562	-3.1604	-2.9854	-2.7979	-2.9917	-2.8312	-3.0771	-3.1417	-2.7354	-2.9688	-3.1375	523.239	399.184	328.633	195.382	327.202	414.149	450.881	176.013	214.425	261.217	476.833	197.297	438.109	377.044	330.811	176.102	0.0016229	0.00030138	0.00018776	1329.5	4.957e-06	5.6985e-06	1337.6	367.64	1.0249e-05	4.1817e-06	418.26	140.2	120.4	41.179	4.309e-06	50.895	0.00024507	0.00021626	5.9682e-05	1323.8	2.3756e-06	2.2647e-06	1351	370.46	2.35e-06	2.2912e-06	420.8	140.87	121.17	41.753	2.3365e-06	51.609	384.379	216.088	260.410	179.783	321.052	316.866	179.282	184.272	293.142	308.567	183.738	188.127	188.525	193.343	300.813	192.578	-8191	255	
873.032	1	1	0	0	0.14751	0.14538	0.19026	0.10216	0.30846	0.1352	0.28156	0.31626	0.12699	0.25387	0.3836	0.27357	0.038746	0.22652	0.17754	0.34625	-2.4813	-3.1562	-2.9792	-2.9583	-2.9979	-2.8729	-3.5042	-3.1854	-2.8104	-3.1312	-2.8583	-3.1875	-3.2771	-2.7687	-2.7896	-2.9292	288.977	349.896	226.360	408.370	496.536	374.638	519.591	525.681	481.431	362.154	183.036	469.502	435.353	486.848	356.120	447.832	0.0016551	0.00053623	8.1267e-05	1335.5	5.4047e-06	6.8861e-06	1338.9	366.93	9.1485e-06	5.2288e-06	418.25	139.63	120.93	41.111	5.3593e-06	50.821	0.00023786	0.00021031	5.8334e-05	1322.5	2.2646e-06	2.2798e-06	1350.8	370.28	2.3038e-06	2.2809e-06	421.46	140.62	121.24	41.713	2.3631e-06	51.54	380.893	236.546	280.165	179.697	269.739	310.961	179.446	184.465	284.049	344.910	183.827	188.018	188.605	193.520	303.999	192.514	-8191	255	
873.128	1	1	0	0	0.20214	0.28493	0.23973	0.088017	0.17082	0.21577	0.029207	0.18876	0.17557	0.072924	0.22342	0.37695	0.2818	0.17355	0.17581	0.10719	-2.3042	-2.9917	-2.9542	-3.075	-3.2146	-2.675	-2.9625	-3.1208	-2.85	-3.0229	-2.9458	-3.0354	-3.2958	-2.9313	-3.0625	-3.3104	322.205	271.353	252.592	369.982	466.105	431.932	507.768	499.778	270.020	329.971	509.557	180.971	510.283	474.710	488.607	419.750	0.001609	0.00061163	8.4353e-05	1336.4	3.457e-06	5.8925e-06	1343.8	367.01	8.4665e-06	3.7031e-06	418.09	140.43	120.7	41.18	3.6529e-06	50.797	0.0002401	0.00020954	5.8522e-05	1322.8	2.2996e-06	2.265e-06	1351.8	370.55	2.3046e-06	2.2962e-06	421.08	140.82	121.4	41.74	2.3349e-06	51.637	381.857	238.438	257.947	179.893	277.793	348.040	179.500	184.309	254.903	319.028	183.712	187.937	188.666	193.526	256.737	192.721	-8191	255	
873.224	1	1	0	0	0.13834	0.045199	0.23539	0.10777	0.25164	0.11741	0.091136	0.15815	0.25636	0.16962	0.034503	0.16761	0.26703	0.14468	0.21688	0.2773	-2.2812	-2.8563	-2.6813	-2.9188	-3.3	-2.7083	-3.1021	-3.1083	-2.9229	-3.1	-2.8479	-2.8583	-3.1396	-2.9604	-2.9958	-3.3292	256.590	343.643	201.285	353.068	509.722	436.203	363.809	512.679	168.283	429.917	494.523	433.453	395.948	518.091	450.086	477.634	0.0015995	0.00028889	0.00014973	1331.3	2.2103e-06	4.4886e-06	1336.2	366.75	4.9394e-06	4.7427e-06	417.74	140.4	121	41.238	4.6468e-06	50.883	0.00023944	0.00021099	5.8764e-05	1323.5	2.3061e-06	2.3299e-06	1352.2	370.03	2.309e-06	2.2937e-06	420.42	140.72	121.33	41.727	2.2912e-06	51.608	381.414	265.764	275.879	179.904	287.898	294.927	179.474	184.541	298.747	314.706	183.595	188.210	188.765	193.241	304.288	192.734	-8191	255	
873.296	1	1	0	0	0.12422	0.045285	0.1686	0.17135	0.11812	0.19988	0.084175	0.25639	0.2129	0.19277	0.14967	0.19674	0.072813	0.039728	0.10623	0.26962	-2.1854	-2.8854	-3.0208	-3.0521	-3.3396	-2.7083	-3.1292	-3.2938	-3.0146	-3.0479	-3.0229	-2.9146	-3.3812	-2.9875	-2.8208	-3.2625	365.729	171.093	409.210	442.702	189.832	476.368	287.276	472.706	375.137	478.809	489.513	517.314	241.868	202.658	272.155	515.635	0.0016158	0.00063667	6.865e-05	1332.2	6.8458e-06	2.4729e-06	1335.1	367.1	7.8713e-06	5.2974e-06	419.09	140.15	121.07	41.142	5.1759e-06	50.694	0.00023383	0.00020713	5.7958e-05	1321.7	2.2874e-06	2.2435e-06	1349	369.85	2.2914e-06	2.2781e-06	420.82	140.46	121.42	41.727	2.3001e-06	51.568	385.554	253.806	257.145	179.854	329.374	319.347	179.363	184.363	280.809	341.070	183.768	187.979	188.586	193.272	316.157	192.422	-8191	255	
873.392	1	1	0	0	0.17338	0.042831	0.14727	0.37999	0.11485	0.15994	0.30589	0.20796	0.089485	0.26307	0.080439	0.087645	0.25734	0.079792	0.14774	0.18795	-2.4542	-3.1708	-2.8729	-3.0833	-3.0479	-2.9625	-2.9938	-3.1521	-2.75	-3.1646	-3.2229	-2.7687	-3.1208	-2.8417	-2.7667	-3.1562	400.921	373.248	304.025	479.162	344.996	176.738	431.526	456.433	182.464	337.303	342.760	485.240	448.658	198.149	199.645	226.182	0.0016033	0.00066143	0.0001775	1332.4	4.3539e-06	2.8797e-06	1336.6	367.08	5.1812e-06	6.7899e-06	417.73	140.26	121.28	41.174	6.2582e-06	51.091	0.00023535	0.00021152	5.7516e-05	1321.6	2.251e-06	2.2351e-06	1348	369.83	2.2601e-06	2.2456e-06	420.41	140.61	121.38	41.756	2.2452e-06	51.637	386.733	249.479	273.654	179.857	296.525	332.552	179.355	184.313	274.373	324.646	183.889	187.911	188.532	193.643	284.733	192.470	-8191	255	
873.513	1	1	0	0	0.042645	0.22403	0.10241	0.15549	0.23193	0.18938	0.35589	0.25625	0.11226	0.1775	0.20793	0.10486	0.27263	0.31054	0.18566	0.32595	-2.5438	-2.9667	-2.9437	-2.6542	-3.0354	-3.0083	-3.1167	-3.4562	-2.9333	-3.0333	-3.0187	-2.9125	-3.4167	-3.0917	-2.85	-2.9917	365.086	523.594	318.165	333.810	244.956	315.373	488.806	456.552	287.373	301.503	507.201	186.595	238.490	198.484	251.366	407.219	0.001609	0.00045674	0.00012252	1334.7	3.2266e-06	6.4045e-06	1334.5	367.13	5.5493e-06	3.4719e-06	418.38	140.11	120.89	41.07	6.348e-06	50.971	0.00023252	0.00020657	5.6817e-05	1320.2	2.2889e-06	2.2089e-06	1348.2	369.99	2.2597e-06	2.2312e-06	420.47	140.47	121.33	41.735	2.2473e-06	51.577	383.900	249.100	276.204	179.881	311.957	350.032	179.407	184.323	285.050	320.142	183.696	188.042	188.916	193.354	317.413	192.493	-8191	255	
873.609	1	1	0	0	0.11219	0.08401	0.16657	0.22512	0.1015	0.23775	0.088409	0.35105	0.16618	0.063947	0.071025	0.28495	0.22752	0.061332	0.18937	0.23088	-2.2667	-2.6562	-3.1708	-2.8292	-3.0708	-3.1333	-2.8583	-3.2125	-3.0729	-3.2958	-3.0292	-2.6708	-3.125	-3.1396	-2.8229	-3.1771	394.753	462.422	298.421	501.051	412.323	339.066	519.509	473.665	483.595	176.461	447.071	484.669	517.673	519.775	344.435	248.218	0.0016639	0.00032569	0.00010081	1330.7	7.7757e-06	5.8976e-06	1334.9	367.6	8.9834e-06	5.5623e-06	418.1	140.49	120.41	41.043	7.5978e-06	50.996	0.00023219	0.00020462	5.6488e-05	1321.2	2.2678e-06	2.2037e-06	1346.8	369.94	2.1995e-06	2.2092e-06	419.85	140.8	121.17	41.684	2.1992e-06	51.653	385.832	219.151	255.585	179.707	339.204	305.608	179.383	184.177	267.885	361.974	183.873	188.072	188.657	193.154	311.599	192.674	-8191	255	
873.705	1	1	0	0	0.035761	0.35593	0.063527	0.17944	0.27313	0.24054	0.1606	0.17767	0.33177	0.12173	0.10157	0.20283	0.078452	0.15899	0.13718	0.23191	-2.4979	-2.8917	-2.9833	-2.8438	-2.9729	-2.9708	-2.8625	-3.4583	-2.9271	-3.0396	-3.1229	-2.875	-3.1229	-3.25	-2.7458	-3.0958	191.211	403.580	459.409	473.397	336.536	325.005	361.333	248.099	304.107	232.070	312.563	451.473	420.874	468.781	524.688	477.152	0.0015192	0.00044934	9.3602e-05	1334.9	6.2802e-06	6.3783e-06	1337.8	366.5	7.6587e-06	4.5168e-06	416.33	139.98	121	41.259	1.3731e-06	50.969	0.0002305	0.00019803	5.5823e-05	1319.8	2.2363e-06	2.2052e-06	1349	369.92	2.2089e-06	2.1879e-06	419.5	140.38	121.33	41.709	2.2031e-06	51.592	383.161	244.466	257.703	179.931	298.133	312.845	179.367	184.481	287.039	280.733	183.780	187.976	188.578	193.456	276.694	192.731	-8191	255	
873.801	1	1	0	0	0.35992	0.19415	0.12906	0.1262	0.045203	0.09362	0.3009	0.07035	0.090879	0.062511	0.070234	0.06285	0.18185	0.3017	0.086441	0.19883	-2.4083	-2.8354	-3.3229	-2.8104	-2.8542	-3.1604	-3.0208	-3.1875	-3.0917	-2.825	-3.1167	-3.0125	-3.1583	-3.1375	-2.4458	-3.1125	497.306	401.877	431.562	426.442	177.452	282.835	416.913	342.341	459.344	321.343	375.302	205.358	452.191	394.703	447.591	207.639	0.0016817	0.00041029	0.00012773	1325.7	6.8355e-06	3.8164e-06	1330.2	366.97	5.9942e-06	3.5288e-06	418.41	140.5	120.39	41.099	5.6576e-06	50.813	0.00022811	0.00019532	5.5452e-05	1319.9	2.1769e-06	2.1135e-06	1346.1	369.91	2.143e-06	2.1056e-06	419.9	140.52	120.94	41.566	2.0652e-06	51.545	381.139	245.903	251.204	179.629	297.989	320.172	179.395	184.359	304.864	324.398	183.620	188.094	188.688	193.434	316.543	192.365	-8191	255	
873.897	1	1	0	0	0.056142	0.095034	0.21702	0.1392	0.27662	0.14562	0.1614	0.33125	0.050953	0.053517	0.19698	0.063751	0.057384	0.18537	0.25241	0.073818	-2.4375	-2.6104	-3.1792	-2.9896	-2.7583	-2.8979	-3.1521	-3.2667	-3.0833	-2.5792	-3.25	-3.0479	-3.0146	-3.1833	-2.7708	-3.275	471.229	441.442	482.831	325.770	309.120	314.960	437.811	425.896	313.149	248.175	484.712	485.117	495.529	242.379	332.196	380.555	0.0016859	0.00039143	9.8159e-05	1320.5	5.0841e-06	3.7292e-06	1330.4	366.51	9.1609e-06	7.57e-06	416.22	139.65	120.7	41.018	6.3517e-06	50.598	0.00021656	0.00018325	5.147e-05	1311.1	2.0095e-06	1.9896e-06	1340.4	368.63	2.0704e-06	2.0121e-06	418.65	140.11	120.84	41.531	2.0516e-06	51.397	384.832	241.719	275.736	179.829	348.633	317.257	179.307	184.403	288.373	307.144	183.898	188.046	188.824	193.474	298.966	192.205	-8191	255	
873.993	1	1	0	0	0.25378	0.15757	0.10719	0.078012	0.3522	0.079057	0.30525	0.14156	0.20845	0.13464	0.23052	0.20431	0.29314	0.2447	0.1615	0.17049	-2.5687	-2.6604	-3.0062	-2.8479	-2.85	-3.1771	-2.9833	-3.2062	-3.0729	-2.675	-2.9375	-3.0021	-3.1375	-3.3146	-2.8042	-3.0354	201.118	351.167	237.312	511.102	265.340	333.984	474.970	456.511	224.929	270.242	429.771	170.813	526.141	506.772	412.234	469.344	0.0017209	0.00059995	0.0001119	1324.9	2.6804e-06	7.7978e-06	1330.8	366.3	7.1571e-06	2.6019e-06	416.91	139.28	120.28	41.019	3.5441e-06	50.718	0.00022321	0.00018669	5.3678e-05	1315.8	2.1452e-06	2.0838e-06	1344.4	368.94	2.1463e-06	2.139e-06	419.04	139.99	120.92	41.57	2.1965e-06	51.493	379.139	239.909	241.525	180.016	300.905	339.904	179.420	184.377	277.641	320.460	183.697	188.241	188.550	193.549	254.322	192.579	-8191	255	
874.112	1	1	0	0	0.18917	0.13308	0.083353	0.31574	0.080118	0.20869	0.37684	0.039115	0.21862	0.088013	0.1523	0.16339	0.26879	0.17095	0.0081586	0.18059	-2.5104	-2.5917	-3.0021	-3.0292	-2.9354	-3.15	-2.9771	-3.2396	-3.1312	-2.8354	-3.2333	-2.9667	-2.7625	-3.2188	-2.9583	-3.0167	465.583	312.019	257.452	440.100	492.606	238.598	483.565	331.812	295.691	509.845	492.373	224.267	450.145	448.193	430.263	418.712	0.0016975	0.00054509	0.0001442	1330.4	5.5631e-06	4.2637e-06	1333.6	366.14	8.495e-06	5.8581e-06	418.06	139.61	120.28	40.956	8.691e-06	50.498	0.0002304	0.00019794	5.6007e-05	1315.7	2.1872e-06	2.1862e-06	1343.6	368.96	2.176e-06	2.1347e-06	419.67	140.17	120.74	41.583	2.1596e-06	51.358	383.147	216.818	266.958	179.764	311.559	335.385	179.644	184.326	271.007	302.739	183.770	187.862	188.661	193.555	279.250	192.638	-8191	255	
874.208	1	1	0	0	0.14539	0.16708	0.15609	0.097041	0.1187	0.15056	0.35968	0.1419	0.033837	0.017464	0.21999	0.30304	0.10807	0.15511	0.25164	0.11749	-2.6208	-2.7625	-2.7854	-2.9813	-2.85	-3.1729	-2.9875	-3.0292	-3.4	-2.7271	-2.9875	-3.2021	-2.8187	-3.2625	-2.8958	-2.9792	232.606	332.565	232.859	179.086	200.858	214.403	417.691	498.217	200.445	428.931	255.106	515.907	199.612	476.279	196.778	205.650	0.0016568	0.00073186	0.00019846	1321.9	4.6881e-06	2.6582e-06	1329.7	364.74	7.1306e-06	4.1237e-06	416.34	139.44	120.24	41.073	6.9358e-06	50.867	0.00022111	0.00019288	5.3613e-05	1310.7	2.0697e-06	2.0984e-06	1342.9	368.5	2.1304e-06	2.073e-06	418.65	140.01	120.77	41.523	2.1254e-06	51.434	380.208	223.470	257.009	179.930	316.445	333.761	179.460	184.346	291.182	286.082	183.905	188.147	189.085	193.676	301.246	192.540	-8191	255	
874.305	1	1	0	0	0.20565	0.29126	0.1806	0.26012	0.21792	0.23001	0.18329	0.087891	0.21607	0.19237	0.082777	0.0639	0.23979	0.12867	0.1364	0.32921	-2.4729	-2.7542	-2.8729	-2.975	-2.7938	-2.9771	-3.1729	-2.9208	-3.1979	-3.0521	-3.0062	-3.175	-2.95	-3.1125	-2.8146	-2.8542	359.418	354.713	487.113	216.684	207.671	473.542	450.352	184.332	197.234	370.641	467.955	449.725	201.943	267.287	293.765	434.140	0.0015405	0.00040647	0.00011589	1326.4	3.0194e-06	4.9682e-06	1330.3	365.38	7.8047e-06	5.4152e-06	417.61	140.03	120.64	40.948	9.751e-06	50.748	0.00022209	0.0001936	5.3644e-05	1315	2.0972e-06	2.1075e-06	1343.6	368.28	2.1426e-06	2.1055e-06	419.53	140.19	120.86	41.524	2.1485e-06	51.348	382.208	228.279	248.167	179.770	245.346	316.594	179.422	184.381	281.569	329.846	183.618	187.874	188.771	193.640	293.036	192.523	-8191	255	
874.401	1	1	0	0	0.085497	0.26313	0.16601	0.086282	0.36816	0.17436	0.19918	0.25578	0.23091	0.11686	0.078445	0.17493	0.080681	0.19502	0.15819	0.20976	-2.6437	-3.0312	-2.8104	-3.0396	-2.7938	-3.1896	-3.2083	-3.0208	-3.0312	-2.8396	-3.0083	-3.2417	-2.7625	-2.8771	-3.0958	-2.9396	443.819	259.045	364.919	382.959	516.074	420.754	479.610	438.772	270.030	415.923	443.626	195.515	451.155	516.286	512.978	473.769	0.0017092	0.00038237	0.0001848	1327.1	4.8269e-06	6.6918e-07	1329	365.88	3.4662e-06	4.136e-06	416.98	139.65	120.36	40.962	7.0474e-06	50.894	0.00022731	0.00019333	5.456e-05	1315.1	2.1275e-06	2.1316e-06	1343.6	369.02	2.1915e-06	2.133e-06	419.32	140.27	120.91	41.557	2.1404e-06	51.483	383.111	218.497	260.525	179.703	274.482	348.218	179.466	184.003	316.290	309.964	183.899	188.056	188.800	193.370	277.343	192.590	-8191	255	
874.521	1	1	0	0	0.059293	0.0478	0.09194	0.16565	0.11304	0.24552	0.20206	0.17655	0.14373	0.061123	0.26957	0.33892	0.19901	0.13227	0.0083109	0.075248	-2.5917	-2.7854	-2.7542	-3	-2.7833	-3.1792	-3.2292	-2.8167	-3.0771	-2.9313	-2.7833	-3.2917	-2.9542	-2.95	-3.1042	-2.7687	316.015	186.136	283.828	504.512	386.538	235.370	479.449	457.865	439.203	182.582	521.022	525.658	525.004	220.733	298.836	384.478	0.0015748	0.00050468	0.00023352	1324.8	6.3386e-06	7.1113e-06	1333.7	366.3	1.0463e-05	4.1521e-06	417.9	139.58	120.82	41.042	5.5626e-06	50.649	0.0002268	0.00019338	5.3831e-05	1315.3	2.1378e-06	2.1149e-06	1344.6	368.75	2.1661e-06	2.1298e-06	419.9	140.07	120.93	41.623	2.1463e-06	51.446	384.677	234.395	248.357	179.707	284.229	294.749	179.291	184.219	268.411	317.352	183.871	188.122	188.736	193.437	305.441	192.623	-8191	255	
874.593	1	1	0	0	0.19458	0.12136	0.21112	0.091589	0.20642	0.11174	0.24215	0.25581	0.26907	0.14276	0.25341	0.16511	0.19511	0.19558	0.2375	0.23236	-2.4875	-2.7021	-2.6771	-3.2542	-2.85	-2.925	-3.0521	-2.925	-3.1417	-3.1688	-2.8729	-3.1583	-2.8229	-2.875	-3.2333	-2.8312	334.822	359.301	353.641	244.847	522.604	347.257	402.480	443.533	325.170	268.396	264.825	498.935	173.593	432.885	248.277	424.043	0.0015995	0.0003608	5.6218e-05	1330.1	4.7548e-06	5.7372e-06	1329.7	366.44	8.1522e-06	5.8557e-06	417.94	139.9	120.42	40.916	7.1069e-06	50.838	0.00022889	0.00019443	5.3146e-05	1317.9	2.1813e-06	2.1516e-06	1344.1	369.35	2.2199e-06	2.1726e-06	419.51	140.21	120.88	41.59	2.1987e-06	51.508	381.029	236.223	243.754	180.123	296.757	307.369	179.391	184.297	301.579	314.851	183.845	188.294	188.806	193.546	293.603	192.443	-8191	255	
874.714	1	1	0	0	0.2836	0.049817	0.15203	0.044584	0.094841	0.3107	0.11579	0.28946	0.14157	0.10586	0.2544	0.17805	0.2953	0.17671	0.13069	0.10816	-2.5438	-2.7146	-2.7396	-3.2146	-2.8	-2.8167	-3.5375	-3.025	-3.0646	-3.0208	-2.9875	-3.2625	-2.9417	-3.0083	-3.0583	-2.9979	380.977	405.724	373.530	520.606	236.811	476.758	461.501	441.605	214.931	486.395	470.448	491.098	183.723	267.792	247.415	175.211	0.0016721	0.00053894	0.00018856	1323	9.3784e-06	5.605e-06	1331.8	365.52	1.0508e-05	4.757e-06	418.89	139.69	120.22	40.962	6.5843e-06	50.596	0.00023177	0.00019577	5.5355e-05	1315.4	2.208e-06	2.1378e-06	1345.3	368.98	2.2348e-06	2.1619e-06	419.97	140.2	120.99	41.624	2.2135e-06	51.47	382.102	249.003	284.360	179.885	318.244	315.088	179.357	184.439	289.853	339.620	183.895	188.008	188.758	193.482	285.591	192.436	-8191	255	
874.810	1	1	0	0	0.16933	0.17893	0.16342	0.25098	0.25405	0.022316	0.29676	0.091915	0.070143	0.17902	0.17657	0.23751	0.014744	0.33688	0.24295	0.19888	-2.5396	-2.9917	-2.8937	-3.2875	-3.0792	-2.7604	-3.4208	-3.0396	-2.9375	-3.0125	-2.8042	-3.3125	-3.1042	-3.0687	-3.1437	-2.9229	363.139	305.900	449.762	203.599	434.972	473.117	473.152	521.709	186.745	240.514	433.229	476.330	222.380	488.551	314.395	391.197	0.001835	0.00063363	0.00014427	1333.1	6.2588e-06	5.1835e-06	1333.3	366.29	7.5512e-06	6.4199e-06	418.47	139.89	120.4	41.079	7.7336e-06	50.873	0.00023124	0.00020115	5.596e-05	1318.6	2.2503e-06	2.1565e-06	1344.6	369.03	2.2246e-06	2.1956e-06	419.66	140.32	120.88	41.605	2.2619e-06	51.566	383.272	254.179	252.939	179.567	317.416	299.741	179.361	184.385	280.196	305.534	183.839	187.885	188.727	193.291	324.085	192.443	-8191	255	
874.904	1	1	0	0	0.2786	0.056292	0.18218	0.25113	0.23045	0.25031	0.15487	0.13496	0.22796	0.29983	0.07445	0.20872	0.19919	0.22316	0.13321	0.31352	-2.7313	-3.2	-2.3958	-2.95	-3.1167	-2.7479	-3.3708	-3.0604	-2.8979	-3.0187	-2.7188	-3.1646	-3.0375	-2.8521	-3.1562	-2.8979	411.155	368.332	434.516	190.820	489.522	167.801	487.127	442.430	288.449	168.742	297.649	385.706	227.184	356.835	313.145	512.504	0.001594	0.00064972	0.00014379	1331.9	4.3736e-06	3.67e-06	1334.9	366.69	5.5254e-06	2.8173e-06	417.39	139.75	120.64	41.06	7.0476e-06	50.74	0.0002366	0.00020587	5.6132e-05	1318.3	2.3038e-06	2.2163e-06	1346.3	369.48	2.2823e-06	2.2111e-06	419.7	140.17	120.97	41.65	2.2143e-06	51.45	385.327	273.908	254.861	179.894	303.441	315.092	179.490	184.124	292.655	330.170	183.752	187.941	188.873	193.601	281.555	192.467	-8191	255	
875.000	1	1	0	0	0.28444	0.19268	0.10393	0.083032	0.092638	0.08592	0.29274	0.32406	0.23637	0.041806	0.30328	0.23711	0.30645	0.097667	0.18385	0.075976	-2.3917	-2.9979	-2.75	-3.0229	-2.9313	-2.7896	-3.2604	-3.0167	-2.7396	-2.8854	-3.1042	-3.1	-3.0396	-2.8833	-2.9813	-2.9	175.934	251.891	344.390	265.011	231.022	313.198	453.941	187.975	263.291	250.840	421.874	473.567	438.322	235.011	254.114	217.159	0.0016327	0.00061871	9.5768e-05	1326.2	4.1114e-06	5.4556e-06	1330.9	365.85	8.9617e-06	5.363e-06	417.04	139.67	121.01	41.226	5.5828e-06	50.804	0.00023233	0.00020036	5.5395e-05	1317.9	2.1884e-06	2.182e-06	1345.8	368.99	2.2304e-06	2.1821e-06	419.77	140.24	121.06	41.616	2.2344e-06	51.442	381.499	250.758	189.438	179.768	304.801	361.581	179.504	184.435	270.242	324.851	183.610	187.888	188.674	193.394	287.434	192.464	-8191	255	
875.121	1	1	0	0	0.22584	0.079135	0.093492	0.022485	0.21158	0.12333	0.11448	0.37545	0.09844	0.27723	0.14585	0.21859	0.1375	0.036156	0.24	0.20085	-2.1146	-3.1625	-2.7271	-3.0771	-3.1562	-2.85	-3.0979	-2.9	-2.6646	-3.2	-3.0021	-3.0354	-3.2542	-2.7271	-3.1833	-3.1312	206.442	409.558	393.012	182.188	511.070	386.393	468.786	490.094	522.312	429.626	525.200	515.081	522.368	376.365	418.209	439.767	0.0016084	0.00035148	0.00011145	1327	6.8178e-06	5.4594e-06	1333.2	366.9	7.9467e-06	6.0733e-06	418.29	139.77	120.59	41.062	6.8464e-06	50.8	0.00022947	0.00020164	5.4872e-05	1317.8	2.1835e-06	2.164e-06	1346	369.35	2.1785e-06	2.1731e-06	420.02	140.3	121.1	41.584	2.2311e-06	51.511	383.531	259.835	259.902	179.671	304.325	328.282	179.386	184.373	298.487	321.073	183.802	187.970	188.766	193.468	291.633	192.124	-8191	255	
875.193	1	1	0	0	0.093551	0.17482	0.10104	0.11854	0.21401	0.21311	0.032535	0.25862	0.14373	0.084458	0.065018	0.12712	0.12381	0.14899	0.14263	0.065619	-2.2938	-2.9208	-2.6875	-3.0625	-3.2479	-3.05	-3.2896	-3.1542	-2.6417	-3.1458	-3.0104	-2.9938	-3.1958	-2.9125	-3.1208	-3.2833	470.199	420.215	347.877	310.011	368.507	522.491	403.243	459.155	371.046	472.024	394.854	175.716	487.877	354.452	291.269	430.690	0.0016347	0.00040903	9.9868e-05	1324.6	6.3837e-06	6.386e-06	1338.6	366.51	6.4805e-06	2.9595e-06	416.66	139.72	120.35	40.898	6.5711e-06	50.776	0.00023003	0.00020182	5.4995e-05	1315.6	2.2044e-06	2.1695e-06	1347	369.42	2.1968e-06	2.1435e-06	419.4	140.22	120.76	41.584	2.1996e-06	51.512	382.863	255.761	262.106	179.763	347.245	300.999	179.463	184.157	280.857	340.338	183.699	187.937	188.651	193.595	312.418	192.491	-8191	255	
875.289	1	1	0	0	0.23199	0.42976	0.26782	0.21064	0.21746	0.18972	0.28081	0.30953	0.16289	0.22583	0.13956	0.10179	0.12735	0.30693	0.0047927	0.39382	-2.2396	-3.0729	-2.7333	-2.725	-3.1021	-2.8896	-3.2125	-3.1167	-2.4458	-3.0771	-3.1729	-2.9771	-3.1813	-2.8354	-2.8333	-3.2562	229.792	351.991	357.246	468.424	231.696	283.566	509.058	174.640	401.872	262.459	490.405	173.227	214.273	448.953	318.540	416.104	0.0015148	0.00038075	0.00020832	1332.7	4.8916e-06	3.7724e-06	1334.5	368.02	5.9123e-06	4.6239e-06	417.78	139.69	120.32	41.063	5.9938e-06	50.724	0.00022883	0.00019993	5.5247e-05	1316.1	2.1682e-06	2.1763e-06	1346.1	369.37	2.1649e-06	2.162e-06	419.61	140.14	121.04	41.586	2.1623e-06	51.415	382.475	282.346	274.151	179.663	327.382	330.027	179.310	184.413	276.932	289.293	183.692	187.986	188.825	193.340	290.051	192.473	-8191	255	
875.385	1	1	0	0	0.13808	0.22016	0.31363	0.18306	0.031642	0.22892	0.38376	0.15427	0.13298	0.25086	0.2717	0.25282	0.25824	0.064877	0.043143	0.37921	-2.4417	-3.0062	-3.0333	-2.7583	-3.1896	-3.025	-3.2042	-3.1833	-2.9583	-3.1188	-2.8875	-2.9646	-3.3167	-2.9583	-2.95	-3.2083	415.090	432.677	462.896	421.136	488.397	381.384	425.686	464.535	487.939	176.593	442.193	506.886	476.366	449.189	277.425	501.311	0.0015978	0.00047251	8.7179e-05	1326.1	4.5118e-06	3.6487e-06	1335.2	366.61	8.8607e-06	6.0974e-06	416.95	139.64	120.35	41.056	4.1545e-06	50.89	0.00022487	0.00019606	5.4222e-05	1316.4	2.1491e-06	2.1128e-06	1345.4	368.95	2.1619e-06	2.1428e-06	419.94	140.14	120.86	41.63	2.1486e-06	51.541	384.556	272.654	274.563	179.858	330.265	350.788	179.317	184.443	282.062	326.968	183.881	188.177	188.758	193.774	291.900	192.484	-8191	255	
875.481	1	1	0	0	0.37304	0.12355	0.25679	0.13795	0.15023	0.073355	0.19072	0.16144	0.23999	0.19801	0.24578	0.18378	0.20822	0.23883	0.046546	0.15268	-2.1396	-2.9292	-3.0146	-2.8604	-3.0542	-2.8438	-3.025	-3.2521	-2.7521	-2.9521	-3.1125	-2.9729	-3.2875	-3.0563	-2.7479	-3.2313	191.360	397.935	194.745	182.938	362.711	200.934	487.268	442.335	256.286	402.585	451.172	512.714	494.223	441.565	403.062	521.688	0.0016715	0.00044384	9.8157e-05	1328.1	5.0327e-06	6.1172e-06	1330.4	365.23	6.9293e-06	4.3272e-06	416.68	139.35	120.09	40.797	6.8104e-06	50.639	0.00022417	0.00019377	5.4768e-05	1319.6	2.1857e-06	2.1568e-06	1344.3	368.66	2.1794e-06	2.1636e-06	419.16	139.77	120.65	41.483	2.2051e-06	51.408	384.628	213.393	272.944	179.892	285.147	335.265	179.542	184.255	279.531	341.208	183.945	188.301	188.770	193.480	298.692	192.481	-8191	255	
875.602	1	1	0	0	0.1129	0.22128	0.49688	0.16446	0.16086	0.17258	0.098606	0.15942	0.15133	0.039048	0.27403	0.26989	0.18703	0.20833	0.51414	0.18051	-2.3646	-3.1271	-3.0208	-2.6937	-2.9542	-3.0687	-3.0958	-3.4729	-2.7917	-2.9292	-3.1729	-2.9021	-3.2958	-3.2542	-2.8854	-3.2208	496.543	402.457	206.924	486.104	477.717	401.135	478.886	190.633	245.444	489.356	445.754	481.996	444.107	499.042	515.092	461.395	0.0015813	0.00048864	8.6204e-05	1332.8	6.2278e-06	5.4177e-06	1328.7	366.71	1.1834e-05	3.6201e-06	416.4	139.9	120.12	41.003	7.1007e-06	50.843	0.00022647	0.0001986	5.6555e-05	1317	2.1975e-06	2.1741e-06	1342.9	369.04	2.2692e-06	2.2391e-06	419.54	140.29	120.86	41.536	2.2375e-06	51.511	384.550	220.750	283.962	180.104	315.884	331.579	179.454	184.327	273.104	320.439	183.703	188.130	188.688	193.628	306.752	192.443	-8191	255	
875.698	1	1	0	0	0.14583	0.098615	0.18667	0.17925	0.070394	0.2605	0.16942	0.18576	0.23181	0.061862	0.22536	0.19596	0.23176	0.15032	0.12581	0.14864	-2.2896	-2.6937	-2.9042	-2.75	-3.1646	-3.175	-3.0917	-3.2188	-2.7375	-2.7812	-3.2583	-2.8083	-3.1167	-3.1437	-2.5396	-3.1771	471.029	316.155	453.231	521.056	450.816	422.986	390.489	502.679	233.766	501.908	510.268	454.436	432.197	323.411	277.850	458.873	0.0015632	0.0004994	0.00015927	1324.5	3.777e-06	2.8741e-06	1335.5	366.31	1.1186e-05	3.5601e-06	415.73	139.78	120.76	40.976	7.3944e-06	50.743	0.00023426	0.0002024	5.7279e-05	1317.7	2.2574e-06	2.19e-06	1346.8	369.48	2.2346e-06	2.1949e-06	419.31	140.25	121.14	41.544	2.1826e-06	51.38	382.197	231.048	267.509	179.461	292.220	328.903	179.511	184.187	291.762	338.022	183.774	187.978	188.779	193.319	305.509	192.513	-8191	255	
875.794	1	1	0	0	0.10549	0.094702	0.086068	0.10048	0.24235	0.06263	0.28123	0.3229	0.01983	0.27893	0.16277	0.15327	0.15825	0.033781	0.20447	0.035745	-2.4042	-2.8375	-3.3042	-2.9313	-3.0896	-2.7729	-2.9583	-3.2938	-2.8812	-2.8187	-3.0396	-3.0229	-3.1354	-3.2833	-2.8688	-3.2021	471.357	232.407	218.946	186.132	259.982	353.742	414.835	468.471	469.492	347.983	457.054	278.554	484.033	171.101	280.967	466.322	0.0015828	0.00046645	0.00019968	1332.7	6.4207e-06	3.6028e-06	1333.5	365.8	3.4034e-06	4.9246e-06	417.12	139.81	120.71	41.036	5.51e-06	50.833	0.00022756	0.0001978	5.52e-05	1319.3	2.1903e-06	2.1549e-06	1346.3	369.22	2.2036e-06	2.1361e-06	419.67	140.38	121	41.616	2.196e-06	51.416	384.071	233.885	234.875	179.987	310.800	299.777	179.292	184.268	269.240	332.109	183.658	187.966	188.807	193.455	299.825	192.439	-8191	255	
875.890	1	1	0	0	0.18869	0.29663	0.14825	0.092494	0.058915	0.28763	0.3067	0.3717	0.12414	0.11538	0.31186	0.072894	0.12573	0.32843	0.042095	0.21299	-2.6562	-3.1188	-3.0729	-2.7812	-2.6708	-3.2375	-3.1521	-3.025	-2.8104	-2.9146	-3.3146	-3.1104	-2.9583	-3.1146	-2.5771	-3.2875	418.931	314.718	306.061	190.616	362.859	521.882	475.370	492.528	414.979	249.295	498.179	360.389	210.452	483.703	297.468	286.090	0.0015435	0.00057868	4.4893e-05	1331.8	3.6084e-06	5.6396e-06	1338.7	367.14	8.7883e-06	6.4041e-06	419.18	139.68	120.58	41.103	4.292e-06	50.689	0.0002244	0.00019445	5.52e-05	1318.7	2.1834e-06	2.1181e-06	1348.7	369.77	2.1786e-06	2.1244e-06	420.5	140.24	121.18	41.652	2.1374e-06	51.493	383.298	260.525	207.548	179.478	326.455	322.225	179.396	184.337	288.864	339.391	183.730	187.956	188.863	193.404	279.183	192.751	-8191	255	
875.985	1	1	0	0	0.10822	0.23954	0.14258	0.21806	0.11665	0.090917	0.21618	0.24568	0.08213	0.19654	0.48448	0.24258	0.31949	0.24271	0.080057	0.12396	-2.6937	-2.7438	-2.9958	-2.8104	-2.8812	-3.2042	-2.9688	-2.9771	-3.1583	-2.8542	-3.2354	-3.0854	-2.8104	-3.0542	-2.8729	-3.1479	462.573	494.918	386.641	216.334	276.623	218.627	477.907	475.680	500.468	481.854	523.408	496.447	492.176	170.621	318.481	199.080	0.0016324	0.00066783	0.00010725	1332.1	4.4124e-06	7.6208e-06	1333.2	367.63	1.1957e-05	4.1019e-06	417.57	140.04	120.42	40.955	6.654e-06	50.864	0.00022765	0.00019594	5.4733e-05	1319.9	2.1659e-06	2.1164e-06	1346.6	369.92	2.1506e-06	2.137e-06	419.91	140.16	121.02	41.534	2.1385e-06	51.601	385.711	226.545	239.546	179.919	291.067	303.283	179.407	184.464	288.232	271.499	183.791	187.802	188.603	193.470	309.857	192.553	-8191	255	
876.082	1	1	0	0	0.11341	0.12256	0.20539	0.22213	0.2126	0.15186	0.37745	0.11487	0.047305	0.08514	0.095851	0.20598	0.24069	0.20245	0.17862	0.23227	-2.75	-2.5583	-3.0417	-3.0583	-2.9625	-3.0771	-3.0125	-3.0229	-3.0729	-2.8792	-3.1667	-2.8604	-2.9875	-3.2854	-2.9188	-3.1521	346.817	499.152	371.609	189.758	498.238	295.321	522.349	505.395	336.546	489.431	184.644	522.450	462.287	508.820	319.447	500.461	0.0016863	0.00037479	0.00014192	1328.1	7.6325e-06	6.1212e-06	1338.8	366.86	6.6851e-06	5.0903e-06	418.99	140.31	120.97	41.084	4.8979e-06	50.891	0.00022672	0.00019502	5.4707e-05	1318.8	2.1468e-06	2.1374e-06	1351.1	369.51	2.2343e-06	2.1394e-06	420.57	140.31	121.28	41.645	2.1646e-06	51.541	384.028	218.449	247.249	180.140	303.455	313.562	179.620	184.259	281.576	321.091	183.624	187.996	188.709	193.364	317.866	192.324	-8191	255	
876.201	1	1	0	0	0.060061	0.085542	0.13883	0.13124	0.25742	0.19232	0.17991	0.17534	0.23938	0.097765	0.26187	0.21334	0.081194	0.24059	0.2109	0.13956	-2.7854	-2.7812	-2.9708	-2.9313	-2.7229	-3.2396	-3.1646	-3.3104	-2.95	-2.9583	-3.2458	-3.1375	-2.7521	-3.325	-3.0833	-3.0792	337.462	511.818	307.468	201.411	279.072	393.009	505.825	496.198	506.896	302.411	466.302	499.456	479.392	524.823	267.789	442.343	0.0016236	0.00059136	8.1423e-05	1326.6	4.1683e-06	4.7735e-06	1338.2	366.87	9.6846e-06	4.6083e-06	417.09	140.54	120.81	41.015	7.7994e-06	50.849	0.00022944	0.0001966	5.4884e-05	1320.7	2.1887e-06	2.1592e-06	1350.7	370.16	2.2309e-06	2.1317e-06	420.29	140.63	121.19	41.618	2.1646e-06	51.505	386.508	241.398	269.817	179.904	295.091	349.298	179.489	184.209	291.108	303.117	183.690	187.956	188.532	193.403	299.654	192.579	-8191	255	
876.298	1	1	0	0	0.20568	0.098509	0.16734	0.14647	0.2817	0.23509	0.20475	0.17467	0.17043	0.10331	0.045366	0.18255	0.12173	0.20507	0.16331	0.1245	-2.8417	-2.55	-2.9833	-3.1646	-2.8292	-2.9437	-3.3479	-3.1104	-3.1104	-2.6688	-3.0229	-3.2083	-2.9667	-3.0479	-2.8542	-2.8271	193.511	196.119	308.565	312.968	174.922	382.551	463.311	397.321	227.720	373.635	467.508	502.349	250.957	447.019	498.802	369.847	0.0016284	0.00056472	0.00015564	1342.6	7.161e-06	6.0519e-06	1338	366.93	9.2725e-06	8.0395e-06	418.35	140.1	120.8	41.162	1.0294e-05	51.05	0.00022964	0.00019899	5.4652e-05	1322.8	2.1621e-06	2.1412e-06	1350.2	370.26	2.1628e-06	2.1341e-06	420.31	140.43	121.27	41.666	2.1582e-06	51.616	383.861	248.139	263.482	179.835	323.796	335.893	179.299	184.282	268.961	323.315	183.857	188.061	188.819	193.596	292.997	192.490	-8191	255	
876.394	1	1	0	0	0.22696	0.11204	0.12794	0.22572	0.15825	0.18581	0.058902	0.23629	0.21916	0.04871	0.15734	0.16013	0.2578	0.10807	0.18875	0.089195	-2.6521	-2.9188	-2.9854	-3.0896	-2.8187	-2.9833	-3.0771	-2.7562	-2.8833	-2.9875	-3.2188	-3.4458	-3.075	-3.4188	-3.0833	-2.7958	229.967	366.924	365.746	467.538	404.741	349.354	482.880	412.093	431.266	503.924	216.342	257.341	465.997	379.368	190.725	191.534	0.0016177	0.00063626	0.00018131	1333.1	5.683e-06	5.2917e-06	1336.1	367.26	1.0614e-05	2.7715e-06	417.63	140.62	120.88	40.912	8.6432e-06	50.793	0.00022896	0.00019536	5.4041e-05	1322.4	2.1403e-06	2.1438e-06	1349.5	370.05	2.1733e-06	2.1236e-06	420.09	140.69	121.25	41.665	2.1469e-06	51.462	383.724	248.601	264.883	179.732	301.358	330.700	179.377	184.259	282.442	324.920	183.717	187.976	188.761	193.502	270.293	192.284	-8191	255	
876.490	1	1	0	0	0.27732	0.18796	0.20038	0.068942	0.090628	0.08509	0.26818	0.048823	0.18702	0.15596	0.3516	0.12948	0.26612	0.036431	0.1011	0.077692	-2.5479	-2.7438	-2.7667	-3.1604	-2.7812	-2.9979	-3.2646	-2.8958	-3.2167	-3.0542	-3.1125	-3.3375	-2.9583	-3.0563	-3.0542	-3.2042	168.212	449.844	283.910	456.561	410.595	250.755	469.974	512.956	464.710	435.528	473.703	491.904	451.123	358.131	454.006	356.962	0.0017551	0.00037113	0.00015143	1331.9	7.0774e-06	2.8321e-06	1337.5	367.4	5.5436e-06	3.4685e-06	418.19	140.63	120.22	41.063	9.7689e-06	50.839	0.00022562	0.00019361	5.4244e-05	1320.4	2.1424e-06	2.1435e-06	1349.8	370	2.1546e-06	2.1225e-06	420.32	140.56	121	41.662	2.1288e-06	51.483	383.949	226.254	224.977	179.611	291.168	338.661	179.458	184.309	287.594	320.942	183.901	187.926	188.789	193.572	243.909	192.412	-8191	255	
#DATA ENDS
