BOXY.EXE: ISS Imagent and Oximeter Data Acquisition Program Version 0.80
Ascii Record File

#ACQ INFORMATION
2  Detector Channels 
16  External MUX Channels 
1  Auxiliary Channels 
5000  Waveform (CCF) Frequency (Hz)
1  Waveforms Skipped 
30  Waveforms Averaged 
1  Cycles Averaged 
16  Acquisitions per Waveform 
10.0806  Updata Rate (Hz) 

#FILE INFORMATION
TRUE -- External MUX Channel results are PARSED.
FALSE -- AC DC and Phase are NOT grouped.
TRUE -- Companion Program Settings File CREATED.
FALSE -- AC data not excluded
FALSE -- DC data not excluded
FALSE -- Phase data not excluded
FALSE -- Auxillary Chn. data not excluded
Tab delimiters

#CALIBRATION STATE
TRUE -- Waveform Calibration Values APPLIED.


#AUX CALIBRATION VALUES
Val Type	aux-1	

Term	1.0000e+00	
Factor	0.0000e+00	


#WF CALIBRATION VALUES
A = Detector Channel
Val Type	A-AC1	A-AC2	A-AC3	A-AC4	A-AC5	A-AC6	A-AC7	A-AC8	A-AC9	A-AC10	A-AC11	A-AC12	A-AC13	A-AC14	A-AC15	A-AC16	A-DC1	A-DC2	A-DC3	A-DC4	A-DC5	A-DC6	A-DC7	A-DC8	A-DC9	A-DC10	A-DC11	A-DC12	A-DC13	A-DC14	A-DC15	A-DC16	A-Ph1	A-Ph2	A-Ph3	A-Ph4	A-Ph5	A-Ph6	A-Ph7	A-Ph8	A-Ph9	A-Ph10	A-Ph11	A-Ph12	A-Ph13	A-Ph14	A-Ph15	A-Ph16	

Term	0.00000e+00	0.00000e+00	0.00000e+00	0.00000e+00	0.00000e+00	0.00000e+00	0.00000e+00	0.00000e+00	0.00000e+00	0.00000e+00	0.00000e+00	0.00000e+00	0.00000e+00	0.00000e+00	0.00000e+00	0.00000e+00	0.00000e+00	0.00000e+00	0.00000e+00	0.00000e+00	0.00000e+00	0.00000e+00	0.00000e+00	0.00000e+00	0.00000e+00	0.00000e+00	0.00000e+00	0.00000e+00	0.00000e+00	0.00000e+00	0.00000e+00	0.00000e+00	0.00000e+00	0.00000e+00	0.00000e+00	0.00000e+00	0.00000e+00	0.00000e+00	0.00000e+00	0.00000e+00	0.00000e+00	0.00000e+00	0.00000e+00	0.00000e+00	0.00000e+00	0.00000e+00	0.00000e+00	0.00000e+00	
Factor	1.00000e+00	1.00000e+00	1.00000e+00	1.00000e+00	1.00000e+00	1.00000e+00	1.00000e+00	1.00000e+00	1.00000e+00	1.00000e+00	1.00000e+00	1.00000e+00	1.00000e+00	1.00000e+00	1.00000e+00	1.00000e+00	1.00000e+00	1.00000e+00	1.00000e+00	1.00000e+00	1.00000e+00	1.00000e+00	1.00000e+00	1.00000e+00	1.00000e+00	1.00000e+00	1.00000e+00	1.00000e+00	1.00000e+00	1.00000e+00	1.00000e+00	1.00000e+00	X	X	X	X	X	X	X	X	X	X	X	X	X	X	X	X	

B = Detector Channel
Val Type	B-AC1	B-AC2	B-AC3	B-AC4	B-AC5	B-AC6	B-AC7	B-AC8	B-AC9	B-AC10	B-AC11	B-AC12	B-AC13	B-AC14	B-AC15	B-AC16	B-DC1	B-DC2	B-DC3	B-DC4	B-DC5	B-DC6	B-DC7	B-DC8	B-DC9	B-DC10	B-DC11	B-DC12	B-DC13	B-DC14	B-DC15	B-DC16	B-Ph1	B-Ph2	B-Ph3	B-Ph4	B-Ph5	B-Ph6	B-Ph7	B-Ph8	B-Ph9	B-Ph10	B-Ph11	B-Ph12	B-Ph13	B-Ph14	B-Ph15	B-Ph16	

Term	0.00000e+00	0.00000e+00	0.00000e+00	0.00000e+00	0.00000e+00	0.00000e+00	0.00000e+00	0.00000e+00	0.00000e+00	0.00000e+00	0.00000e+00	0.00000e+00	0.00000e+00	0.00000e+00	0.00000e+00	0.00000e+00	0.00000e+00	0.00000e+00	0.00000e+00	0.00000e+00	0.00000e+00	0.00000e+00	0.00000e+00	0.00000e+00	0.00000e+00	0.00000e+00	0.00000e+00	0.00000e+00	0.00000e+00	0.00000e+00	0.00000e+00	0.00000e+00	5.86857e+01	-1.40275e+02	-1.27777e+02	-1.81956e+02	-7.36887e+01	-5.69442e+01	-1.56028e+02	-1.62015e+02	-8.09294e+01	-6.35191e+01	-1.71357e+02	-1.71405e+02	-1.82318e+02	-1.76945e+02	-7.95853e+01	-1.50279e+02	
Factor	5.16763e-05	1.33635e-04	4.06010e-05	4.21718e-01	1.38256e-06	1.58296e-06	1.58406e-01	5.39367e-02	1.66385e-06	1.37896e-06	8.47905e-02	2.81246e-02	2.35851e-02	8.08168e-03	1.69326e-06	1.20261e-02	1.73923e-06	1.81185e-06	5.05000e-07	2.07507e-01	1.98338e-08	1.98293e-08	7.56450e-02	2.72911e-02	1.96927e-08	1.98476e-08	4.12586e-02	1.36837e-02	1.19586e-02	4.10842e-03	1.97406e-08	5.88837e-03	X	X	X	X	X	X	X	X	X	X	X	X	X	X	X	X	



#DISTANCE SETTINGS
A = Detector Channel
A-1	A-2	A-3	A-4	A-5	A-6	A-7	A-8	A-9	A-10	A-11	A-12	A-13	A-14	A-15	A-16	

2.5000e+00	3.0000e+00	2.5000e+00	3.0000e+00	2.0000e+00	3.0000e+00	1.5000e+00	3.0000e+00	3.0000e+00	3.0000e+00	3.0000e+00	3.0000e+00	3.0000e+00	3.0000e+00	1.5000e+00	3.0000e+00	

B = Detector Channel
B-1	B-2	B-3	B-4	B-5	B-6	B-7	B-8	B-9	B-10	B-11	B-12	B-13	B-14	B-15	B-16	

1.0000e+01	1.0000e+01	1.0000e+01	1.4400e+00	1.0000e+01	1.0000e+01	1.5100e+00	1.9400e+00	1.0000e+01	1.0000e+01	1.9900e+00	2.4900e+00	2.4100e+00	2.9000e+00	1.0000e+01	2.9800e+00	




#DATA BEGINS
time	group	step	mark	flag	A-AC1	A-AC2	A-AC3	A-AC4	A-AC5	A-AC6	A-AC7	A-AC8	A-AC9	A-AC10	A-AC11	A-AC12	A-AC13	A-AC14	A-AC15	A-AC16	A-DC1	A-DC2	A-DC3	A-DC4	A-DC5	A-DC6	A-DC7	A-DC8	A-DC9	A-DC10	A-DC11	A-DC12	A-DC13	A-DC14	A-DC15	A-DC16	A-Ph1	A-Ph2	A-Ph3	A-Ph4	A-Ph5	A-Ph6	A-Ph7	A-Ph8	A-Ph9	A-Ph10	A-Ph11	A-Ph12	A-Ph13	A-Ph14	A-Ph15	A-Ph16	B-AC1	B-AC2	B-AC3	B-AC4	B-AC5	B-AC6	B-AC7	B-AC8	B-AC9	B-AC10	B-AC11	B-AC12	B-AC13	B-AC14	B-AC15	B-AC16	B-DC1	B-DC2	B-DC3	B-DC4	B-DC5	B-DC6	B-DC7	B-DC8	B-DC9	B-DC10	B-DC11	B-DC12	B-DC13	B-DC14	B-DC15	B-DC16	B-Ph1	B-Ph2	B-Ph3	B-Ph4	B-Ph5	B-Ph6	B-Ph7	B-Ph8	B-Ph9	B-Ph10	B-Ph11	B-Ph12	B-Ph13	B-Ph14	B-Ph15	B-Ph16	aux-1	digaux	

1503.760	1	1	0	256	0.2774	0.12078	0.11465	0.11735	0.18513	0.10762	0.31319	0.031402	0.076438	0.31317	0.022166	0.057244	0.057921	0.21842	0.19245	0.11293	-2.5	-3.1167	-2.6437	-3.0521	-2.8167	-2.7625	-2.9708	-2.85	-2.7687	-3.0687	-2.7188	-2.875	-2.9542	-2.5479	-2.9813	-2.7292	520.512	467.941	484.663	398.944	189.932	438.317	493.697	499.819	266.626	382.440	178.864	463.143	238.816	508.515	360.119	413.700	0.00082188	0.00048186	7.1998e-05	415.94	2.2332e-06	2.9436e-06	571.47	87.929	2.5253e-06	5.488e-06	157.99	49.134	19.404	5.3781	1.655e-06	20.118	0.00044912	0.00045328	0.00012608	443.68	4.9339e-06	4.8664e-06	572.28	91.219	4.9127e-06	4.9564e-06	162	50.477	21.347	6.2992	5.1916e-06	20.979	384.735	358.258	358.705	182.019	377.611	332.331	181.138	186.598	323.071	273.303	185.790	191.571	191.486	196.425	507.008	195.194	-8191	255	
1503.856	1	1	0	0	0.14483	0.13898	0.43534	0.4497	0.10516	0.21281	0.1755	0.22421	0.14786	0.064931	0.33298	0.21936	0.27381	0.12776	0.25265	0.11776	-2.25	-2.975	-2.7208	-2.8812	-2.9917	-2.9333	-3.1542	-2.8438	-2.7021	-2.9521	-2.7292	-2.8604	-2.95	-2.5938	-2.925	-2.8688	252.188	490.886	170.124	176.886	245.403	445.645	218.912	508.359	309.284	495.213	503.315	379.023	175.375	209.630	223.674	282.906	0.00046795	0.00032724	4.739e-06	420.32	2.2656e-06	4.6213e-06	570.35	87.944	1.2048e-06	2.2763e-06	158.98	49.739	19.27	5.5705	9.3464e-06	20.565	0.00047372	0.0004725	0.00012988	447.57	5.1681e-06	5.146e-06	571.71	91.651	5.1601e-06	5.2179e-06	162.64	50.982	21.494	6.4201	5.1225e-06	21.38	380.871	314.817	375.000	181.368	361.137	347.001	181.120	186.634	484.647	403.500	185.852	191.106	190.541	196.186	212.786	195.465	-8191	255	
1503.952	1	1	0	0	0.047312	0.1288	0.23503	0.048726	0.21381	0.068762	0.21409	0.13892	0.13735	0.1522	0.10568	0.34289	0.21308	0.12889	0.016155	0.30178	-2.3333	-2.7875	-2.7208	-2.9167	-3.0187	-2.6979	-3.0771	-2.7604	-2.5438	-3.125	-2.65	-2.6625	-2.9938	-2.7438	-2.9562	-2.9479	309.995	457.605	519.255	389.249	447.756	507.249	447.950	407.098	198.813	269.511	488.138	300.696	446.679	219.982	315.594	237.370	0.00069759	0.00034873	0.00010259	419.12	1.8941e-06	5.3177e-06	568.46	88.286	3.4183e-06	5.1351e-06	160.35	50.616	19.953	5.7708	1.2497e-06	21.162	0.00045674	0.0004667	0.00012942	444.5	4.9894e-06	4.8976e-06	569.28	91.625	4.8049e-06	4.8786e-06	163.41	51.729	21.836	6.5241	4.8234e-06	21.821	391.092	217.535	492.214	181.628	284.251	303.295	181.087	186.241	212.488	262.320	185.699	190.941	190.758	195.677	277.104	195.622	-8191	255	
1504.048	1	1	0	0	0.18486	0.11648	0.22181	0.016305	0.17271	0.067986	0.1266	0.19167	0.012175	0.075235	0.20917	0.21243	0.14113	0.20284	0.16098	0.29368	-2.2313	-3.2083	-2.7292	-2.7458	-3.1146	-2.6583	-2.9479	-2.8604	-2.4583	-2.9854	-2.8229	-2.6542	-3.0979	-2.7021	-2.9333	-3.0375	250.071	333.030	520.717	201.538	466.733	438.158	401.026	458.333	457.724	366.926	394.661	377.631	368.930	326.287	409.490	197.146	0.00067669	0.00037264	9.0178e-05	422.38	1.6864e-06	6.9373e-07	567.7	88.775	2.5555e-06	2.2436e-06	160.86	50.556	19.646	5.6837	3.5839e-06	20.844	0.00043918	0.00044502	0.00012443	445.61	4.8338e-06	4.9079e-06	569	91.862	4.8182e-06	4.8653e-06	164	51.679	21.688	6.4515	4.8457e-06	21.717	384.358	240.920	516.365	181.949	255.209	293.964	181.280	186.284	392.927	367.520	186.021	191.224	190.519	196.906	457.124	195.060	-8191	255	
1504.145	1	1	0	0	0.20881	0.23628	0.18259	0.12509	0.14013	0.097923	0.12135	0.16492	0.089453	0.17145	0.36436	0.074052	0.16161	0.10924	0.1303	0.18164	-2.325	-2.9396	-2.9146	-2.9271	-3.0542	-2.8646	-3.025	-2.9938	-2.7104	-2.8896	-2.9979	-2.7604	-3.1042	-2.8021	-2.7021	-3.0375	527.752	255.608	178.029	225.807	252.077	415.234	198.913	436.606	408.251	170.296	421.321	229.395	427.486	239.815	484.796	239.053	0.00058511	0.00022771	5.1249e-05	420.48	2.5116e-06	5.9753e-06	563.26	88.447	6.6647e-06	2.4808e-06	160.11	50.004	19.471	5.6552	1.1649e-05	21.021	0.00043239	0.00043809	0.00012054	443.64	4.7065e-06	4.6465e-06	563.74	91.139	4.5717e-06	4.5454e-06	162.36	51.066	21.366	6.3897	4.4279e-06	21.583	383.066	413.999	320.584	181.722	261.071	277.864	181.340	186.432	214.979	362.002	186.082	191.138	190.404	195.901	373.963	195.419	-8191	255	
1504.241	1	1	0	0	0.14816	0.16125	0.11719	0.22347	0.086238	0.049261	0.28629	0.22933	0.2398	0.2662	0.22508	0.17283	0.049703	0.12501	0.22064	0.31298	-2.1729	-3.1104	-3.0125	-2.8979	-3.2292	-2.9	-2.9833	-3.1167	-2.6458	-2.8312	-3.075	-2.6396	-2.95	-2.7771	-2.8125	-3.0104	371.774	474.046	513.713	274.019	525.934	199.802	512.372	335.987	205.293	212.182	514.804	414.502	249.842	464.306	206.600	408.814	0.00055818	6.9864e-05	7.1222e-05	417.66	5.4487e-06	4.4654e-06	568.25	88.389	6.9549e-07	4.764e-06	158.95	50.22	19.618	5.7261	2.0134e-06	21.09	0.00039634	0.00040301	0.00011279	436.55	4.3912e-06	4.4009e-06	564.07	90.904	4.3097e-06	4.3589e-06	162.18	51.319	21.392	6.4229	4.2672e-06	21.754	372.167	217.502	469.422	181.562	318.333	513.568	181.443	186.218	306.777	285.779	185.998	190.920	190.970	195.170	411.395	195.099	-8191	255	
1504.337	1	1	0	0	0.19776	0.1848	0.22296	0.2573	0.1426	0.15246	0.26583	0.15501	0.12282	0.21834	0.10924	0.032579	0.14215	0.16908	0.14	0.029928	-2.3187	-2.9188	-3.0312	-2.4354	-3.0563	-2.9688	-2.8167	-3.1229	-2.8312	-2.9146	-2.7792	-2.8417	-3.0542	-2.8625	-2.5979	-3.1208	490.106	218.841	506.859	352.400	306.992	336.486	491.092	446.213	214.188	343.481	248.449	462.018	309.409	324.682	426.254	263.950	0.00058992	7.9518e-05	3.4792e-05	418.36	3.8247e-06	3.0639e-06	564	88.517	5.0575e-06	3.3855e-06	160.17	50.497	19.684	5.7217	4.6461e-06	21.183	0.00038671	0.00038998	0.00010908	436.19	4.2715e-06	4.2617e-06	561.22	91.02	4.1948e-06	4.2363e-06	162.4	51.511	21.511	6.432	4.3472e-06	21.852	381.800	169.638	313.285	181.794	286.394	239.136	181.306	186.346	288.248	477.857	185.958	190.852	190.177	196.464	269.941	195.506	-8191	255	
1504.457	1	1	0	0	0.060456	0.26172	0.20125	0.06551	0.15652	0.19979	0.068689	0.21623	0.10481	0.16342	0.14058	0.107	0.19498	0.081083	0.21958	0.15715	-2.2438	-2.8604	-3.0208	-2.6042	-3	-3.0896	-2.9313	-3.0708	-2.7708	-2.8688	-2.8187	-2.775	-2.8354	-2.7646	-2.5542	-3.0042	398.353	408.735	505.613	213.360	448.746	512.188	467.304	494.756	177.788	517.081	475.061	463.795	487.695	438.961	365.462	455.931	0.00052335	0.000176	3.8839e-05	418.97	7.2449e-06	2.421e-06	562.55	88.981	5.3939e-06	2.7644e-06	159.74	50.866	19.905	5.6846	9.3485e-07	21.433	0.00040316	0.0003979	0.00011134	437.97	4.4205e-06	4.4311e-06	562.28	91.17	4.4108e-06	4.5044e-06	162.98	51.904	21.713	6.4587	4.4687e-06	21.927	383.004	287.383	375.226	181.718	358.432	390.598	181.444	186.881	304.909	297.464	186.135	191.135	191.014	196.732	364.794	195.509	-8191	255	
1504.554	1	1	0	0	0.076409	0.053605	0.15466	0.17954	0.09618	0.072294	0.024077	0.12449	0.074453	0.20596	0.22183	0.11652	0.089705	0.13448	0.183	0.25653	-2.2646	-2.9604	-2.9562	-2.6437	-2.8312	-2.9875	-2.7875	-3.0604	-2.6854	-2.7125	-3.0833	-2.7354	-2.7146	-2.9021	-2.6146	-3.0354	468.623	465.581	320.265	303.378	178.841	417.009	203.617	437.963	195.187	444.106	478.970	255.078	287.702	264.081	251.264	426.413	0.0007008	0.00013293	2.0009e-05	418.03	5.5139e-06	1.4132e-06	562.59	87.749	2.8779e-06	3.1593e-06	158.42	49.871	19.746	5.7308	4.5888e-06	21.047	0.00041058	0.00041362	0.00011244	436.46	4.5539e-06	4.4635e-06	560.54	90.832	4.4884e-06	4.4694e-06	161.99	51.115	21.374	6.4426	4.4062e-06	21.724	388.431	194.094	381.957	181.054	288.199	475.671	181.280	186.590	223.561	461.053	186.617	190.727	190.593	195.721	325.728	195.567	-8191	255	
1504.625	1	1	0	0	0.1336	0.16622	0.21508	0.10281	0.12108	0.22239	0.13774	0.213	0.022362	0.079621	0.12744	0.17327	0.21651	0.13311	0.10719	0.15644	-2.3	-2.8417	-3.0375	-2.8021	-3.0396	-2.8708	-2.7562	-2.9792	-3.1125	-2.7542	-3.175	-2.9417	-2.9292	-3.0312	-2.7271	-2.9458	403.516	221.249	408.514	278.322	185.335	193.100	261.092	407.641	356.355	208.665	425.734	279.296	511.667	409.586	502.037	378.564	0.00074196	0.00047681	0.00015583	413.6	2.9799e-06	5.0508e-06	559.19	88.092	4.286e-06	3.8435e-06	159.01	50.18	19.744	5.7446	5.8219e-06	21.337	0.00040384	0.00039963	0.00011128	432.86	4.3895e-06	4.3187e-06	558.44	90.661	4.3937e-06	4.3872e-06	161.36	51.225	21.436	6.4425	4.3576e-06	21.874	378.484	249.251	290.001	181.623	373.377	329.372	181.344	186.812	270.723	169.470	186.057	191.076	190.689	195.729	374.617	195.329	-8191	255	
1504.746	1	1	0	0	0.032228	0.17618	0.092369	0.16556	0.1762	0.10896	0.38497	0.33746	0.12986	0.16575	0.066468	0.15711	0.13911	0.3007	0.18071	0.068486	-2.4417	-2.5042	-2.9229	-2.8	-2.6562	-3.0438	-2.875	-3.0417	-2.8875	-2.7875	-3.0625	-2.8292	-2.9292	-3.1583	-2.8229	-3.0125	231.076	392.713	432.499	238.199	201.235	472.993	482.307	383.807	232.970	262.262	220.501	496.276	463.752	272.191	338.338	188.910	0.00067166	0.00030173	0.00017586	411.3	1.8447e-06	6.6575e-06	557.69	88.387	6.103e-06	7.674e-06	159.49	50.661	19.844	5.8614	1.5323e-07	21.437	0.00040478	0.00039651	0.00011364	433.68	4.3806e-06	4.3866e-06	556.83	90.996	4.4338e-06	4.4531e-06	162.12	51.552	21.557	6.5282	4.3414e-06	22.044	381.280	268.067	223.842	181.715	495.499	382.570	181.386	186.489	296.411	362.248	185.821	191.144	191.062	196.409	201.320	195.334	-8191	255	
1504.840	1	1	0	0	0.088453	0.31088	0.1806	0.24066	0.31816	0.13445	0.093908	0.18494	0.077905	0.11434	0.14518	0.15606	0.14516	0.2572	0.18435	0.084199	-2.4958	-2.7125	-2.9271	-2.9813	-2.7771	-3.0354	-2.7792	-2.7729	-2.8688	-2.8271	-3.0938	-2.7792	-2.8042	-2.9896	-2.9479	-2.9021	488.010	424.430	219.182	420.528	332.400	522.091	467.942	425.039	350.664	388.308	211.058	414.393	352.954	302.046	527.559	368.295	0.00062039	5.023e-05	0.00024728	412.22	3.5102e-06	2.4023e-06	557.79	88.459	1.8444e-06	5.8226e-06	159.54	50.882	19.916	5.8752	3.9777e-06	21.809	0.00039973	0.00039924	0.00010989	432.22	4.3351e-06	4.309e-06	555.14	90.885	4.3004e-06	4.2734e-06	162.19	51.935	21.636	6.5642	4.277e-06	22.322	392.582	315.784	248.160	181.970	372.048	360.995	181.307	186.503	188.813	317.005	186.236	191.082	191.133	196.133	297.692	195.695	-8191	255	
1504.936	1	1	0	0	0.15798	0.12848	0.12096	0.14789	0.058477	0.0039728	0.22751	0.23678	0.051887	0.16125	0.061185	0.1004	0.1243	0.16804	0.23665	0.24819	-2.6021	-2.6125	-2.9208	-3.0292	-2.7771	-3.0729	-2.7438	-3.1625	-2.975	-2.8021	-3.0271	-3.1125	-2.775	-2.9479	-2.7917	-2.9688	440.650	314.746	431.922	187.807	350.935	465.173	270.298	468.088	353.270	375.497	357.699	182.482	200.454	504.995	377.749	182.704	0.00062414	0.00020396	4.5303e-05	412.94	4.2273e-06	4.9336e-06	556.26	88.88	2.9917e-06	6.5311e-06	159.74	50.782	19.652	5.8357	3.7767e-06	21.578	0.00039008	0.00039209	0.00010989	430.3	4.241e-06	4.1791e-06	553.98	90.659	4.1647e-06	4.1888e-06	161.4	51.666	21.398	6.4901	4.1841e-06	22.099	369.876	461.838	497.032	181.847	476.673	352.598	181.334	186.917	271.879	273.253	186.257	191.219	190.565	195.590	290.572	195.465	-8191	255	
1505.033	1	1	0	0	0.19302	0.10276	0.12153	0.16332	0.061554	0.2746	0.17103	0.23739	0.34933	0.21123	0.13638	0.13678	0.056365	0.17623	0.3287	0.27435	-2.8292	-2.675	-2.9583	-2.8958	-2.6625	-3.0604	-2.7667	-2.9354	-3.1312	-2.8125	-3.0646	-2.9938	-2.6271	-2.9667	-2.9542	-2.9896	347.449	248.449	409.510	475.641	389.221	450.381	172.207	381.019	266.865	513.930	172.580	412.721	463.383	385.444	237.035	406.995	0.00074189	0.00037568	8.7311e-05	413.49	2.0659e-06	1.5564e-06	555.1	87.921	9.8438e-07	3.9299e-06	158.93	50.531	19.926	5.765	6.2202e-07	21.242	0.00038252	0.00037688	0.00010803	428.46	4.1429e-06	4.2562e-06	552.37	90.378	4.1566e-06	4.0899e-06	161.06	51.076	21.287	6.4423	4.1637e-06	21.898	381.472	353.017	262.592	182.070	279.484	508.867	181.580	186.823	270.077	376.185	186.461	191.185	190.849	196.299	178.216	195.700	-8191	255	
1505.153	1	1	0	0	0.15584	0.090014	0.10176	0.18748	0.21694	0.06318	0.36503	0.14075	0.12633	0.19604	0.18501	0.10227	0.33215	0.022302	0.068537	0.28993	-3.0083	-2.7708	-2.7812	-3.1292	-2.9417	-3.15	-2.9646	-2.85	-3.2542	-2.9229	-2.8312	-3.0312	-2.6188	-3.1083	-2.9042	-2.5604	450.098	314.419	172.605	423.551	279.543	259.384	375.972	203.483	509.983	295.748	192.483	187.112	218.919	379.743	457.762	509.726	0.00056377	0.00038154	0.00014457	407.5	2.5154e-06	2.0764e-06	555.74	87.076	3.9545e-06	4.594e-06	159.83	50.225	19.749	5.7638	2.5778e-06	21.431	0.00037591	0.00037209	0.00010448	427.21	4.0072e-06	4.0213e-06	553.25	89.451	4.0087e-06	3.9366e-06	160.64	50.856	21.028	6.3904	3.9556e-06	21.908	384.010	247.109	284.077	181.966	186.459	311.667	181.205	186.921	327.213	414.907	185.612	190.883	190.653	196.169	389.491	195.626	-8191	255	
1505.225	1	1	0	0	0.029631	0.10413	0.20302	0.080447	0.35277	0.096185	0.10545	0.29108	0.061892	0.20735	0.16242	0.048964	0.22785	0.10696	0.021728	0.23412	-2.6625	-2.7208	-2.8083	-2.9604	-2.7313	-3.0583	-2.875	-2.6688	-3.0938	-2.8125	-2.8167	-3.0833	-2.6792	-3.1	-2.9917	-2.7979	186.885	180.154	431.615	306.579	216.515	256.688	348.386	231.754	169.664	399.539	294.242	507.669	454.387	429.981	173.242	394.646	0.00061967	0.00029334	0.0002002	410.55	3.3827e-06	2.5288e-06	557.94	87.645	2.0459e-06	3.1797e-06	157.8	50.489	19.681	5.8327	4.072e-06	21.416	0.00036551	0.00036143	9.9855e-05	425.39	3.931e-06	3.9378e-06	553.5	89.748	3.8662e-06	3.9775e-06	160.17	51.135	21.183	6.4425	3.9787e-06	21.975	372.875	242.662	211.228	181.218	283.633	268.801	181.061	186.147	331.312	245.005	186.007	190.983	190.622	196.487	247.684	195.808	-8191	255	
1505.346	1	1	0	0	0.066624	0.21231	0.045773	0.1421	0.12728	0.15338	0.28684	0.26778	0.12696	0.10036	0.18995	0.09486	0.21382	0.13363	0.10022	0.13452	-2.6688	-2.8083	-2.7604	-3.1271	-2.6792	-3.0938	-3.1208	-2.7021	-2.925	-2.8812	-2.7292	-2.9792	-2.7562	-2.9979	-2.9854	-2.6354	206.122	491.271	398.553	516.786	409.778	223.996	421.247	428.805	374.934	431.236	352.561	251.408	515.890	350.415	488.134	499.825	0.00048314	0.00023633	8.2089e-05	412.44	2.1529e-06	7.1855e-07	556.15	87.724	3.6236e-06	5.7372e-06	159.31	50.691	19.925	5.8668	3.5119e-06	21.494	0.00036467	0.00036109	0.00010071	427.99	3.9497e-06	4.0238e-06	553.03	89.696	3.9581e-06	3.9637e-06	160.83	51.363	21.295	6.4685	3.9681e-06	21.979	364.225	334.312	499.097	181.616	350.667	452.809	181.214	186.572	319.237	202.585	186.180	191.312	190.852	196.171	378.383	195.528	-8191	255	
1505.442	1	1	0	0	0.20251	0.11461	0.13016	0.15923	0.14541	0.40559	0.15597	0.10605	0.33259	0.14054	0.068982	0.087057	0.11926	0.17503	0.093639	0.16011	-2.5292	-2.8937	-2.6125	-3.0292	-2.7792	-2.825	-3.0625	-2.7958	-2.9042	-2.8708	-2.7313	-3.1813	-2.7271	-2.8125	-3.0333	-2.5687	484.781	403.666	402.670	386.365	435.853	411.512	491.786	236.341	317.328	459.982	202.241	512.652	198.699	171.093	229.356	467.486	0.00056892	0.00073297	8.7804e-05	407.51	1.5739e-06	2.8088e-06	553.78	87.915	4.1472e-06	3.1915e-06	159.12	50.196	19.33	5.7631	1.0999e-06	21.298	0.00036391	0.00037106	0.000102	425.16	4.0304e-06	4.0389e-06	551.72	89.724	3.9997e-06	4.0026e-06	160.26	50.786	21.026	6.3852	3.9484e-06	21.737	377.280	476.804	229.615	181.552	357.127	376.419	181.079	186.340	232.847	262.215	186.260	191.131	191.754	196.178	487.773	195.710	-8191	255	
1505.538	1	1	0	0	0.12997	0.27781	0.029866	0.083503	0.084736	0.091683	0.11333	0.16507	0.14102	0.10125	0.071885	0.19656	0.10482	0.085512	0.088681	0.029184	-2.6521	-2.9104	-2.7333	-3.0667	-2.85	-2.7854	-3.0771	-2.7188	-3.0146	-2.9604	-2.7625	-2.9188	-3.0083	-2.7042	-3.2896	-2.875	271.511	506.095	209.591	453.571	264.732	479.216	486.360	265.102	519.988	233.543	254.326	465.854	406.323	431.547	487.960	392.704	0.00066271	6.1145e-05	0.00023927	407.26	2.2198e-06	3.2578e-06	551.4	86.534	5.5665e-06	2.6338e-06	157.63	49.836	19.616	5.8084	3.6336e-06	21.243	0.00036689	0.0003679	0.00010073	424.22	4.0092e-06	4.0237e-06	548.54	88.997	4.052e-06	3.9972e-06	159.59	50.621	21.064	6.4042	4.0237e-06	21.83	386.817	368.480	237.105	181.910	493.195	471.586	181.403	186.643	296.269	380.095	186.055	190.941	190.855	196.060	443.162	195.529	-8191	255	
1505.634	1	1	0	0	0.10855	0.23103	0.18541	0.25416	0.14523	0.29178	0.25565	0.24627	0.15313	0.11705	0.22404	0.25139	0.15578	0.036515	0.21415	0.19919	-2.5417	-2.9479	-2.8063	-2.9	-2.9437	-2.7208	-2.9354	-2.7229	-2.9146	-2.9771	-2.8417	-2.9521	-3.0062	-2.6583	-3.0667	-2.6896	506.587	336.547	272.262	448.915	466.365	417.517	199.218	309.915	249.870	465.859	232.059	227.545	364.200	339.893	261.007	203.142	0.00068942	0.00022628	0.00014708	406.53	1.7088e-06	3.5015e-07	550.68	86.896	4.4141e-06	4.855e-06	158.35	50.385	19.469	5.7761	2.6578e-06	21.537	0.00037254	0.00037	0.00010303	425.47	4.1221e-06	4.0536e-06	548.79	88.955	4.0493e-06	4.076e-06	159.8	50.973	21.127	6.4452	4.0484e-06	22.016	375.546	179.859	347.074	181.958	326.552	446.640	181.296	186.262	202.137	317.689	186.316	191.021	190.537	196.404	310.741	195.567	-8191	255	
1505.753	1	1	0	0	0.13789	0.22195	0.050245	0.10473	0.18782	0.16162	0.17295	0.10297	0.2363	0.12252	0.1417	0.14365	0.062591	0.17484	0.12558	0.08135	-2.6458	-2.9792	-2.8604	-2.9875	-2.7771	-2.7625	-3.1625	-2.5938	-2.9729	-3.1813	-2.8042	-2.9042	-2.9562	-2.6167	-3.0521	-2.7958	442.447	234.557	281.920	288.635	485.661	208.006	179.306	474.458	427.568	393.101	293.839	482.297	467.330	496.774	258.816	338.147	0.00058821	0.00026391	0.00020754	403.65	5.7567e-06	4.2411e-06	553.15	87.758	5.2357e-06	3.8329e-06	158.76	50.706	19.8	5.8644	5.2647e-06	21.667	0.00037572	0.00037611	0.00010483	424.48	4.1258e-06	4.0999e-06	549.54	89.531	4.1812e-06	4.1594e-06	160.65	51.429	21.297	6.5014	4.1307e-06	22.243	389.852	184.087	262.878	181.678	219.223	277.175	181.418	186.748	425.204	239.121	186.218	191.459	191.165	196.073	365.300	195.433	-8191	255	
1505.825	1	1	0	0	0.11216	0.036236	0.12665	0.17824	0.08804	0.1723	0.26093	0.27098	0.42096	0.17436	0.2274	0.23316	0.24141	0.26394	0.094169	0.09334	-2.575	-2.9875	-2.6937	-3.0333	-2.7812	-2.6792	-3.1729	-2.6979	-2.6583	-3.0896	-2.7708	-2.9167	-2.9708	-2.6562	-2.9021	-2.7812	491.334	235.366	523.428	341.402	204.321	252.088	373.602	179.712	430.558	470.427	300.366	356.146	481.148	206.657	290.032	215.935	0.00069507	0.00041661	9.589e-05	404.78	2.0362e-06	1.7378e-06	552.61	87.08	4.0672e-06	3.0553e-06	157.18	50.567	19.684	5.8497	5.432e-06	21.273	0.00038192	0.00038085	0.000108	426.26	4.137e-06	4.1658e-06	549.87	89.507	4.1866e-06	4.2169e-06	160.06	51.277	21.222	6.4712	4.2438e-06	22.02	388.716	212.607	496.627	182.082	291.376	337.016	181.510	187.188	305.887	376.252	185.840	191.256	190.136	196.374	360.964	195.311	-8191	255	
1505.921	1	1	0	0	0.25639	0.20469	0.14101	0.18798	0.079711	0.071676	0.15913	0.23573	0.16491	0.083967	0.1948	0.22996	0.048318	0.15136	0.19401	0.13004	-2.2667	-2.9667	-2.8646	-2.8292	-3.0042	-2.7812	-3.1	-2.725	-2.7458	-3.1792	-2.65	-2.8458	-3.0375	-2.5938	-3.1208	-3.0875	325.639	481.113	261.284	482.076	357.811	292.470	355.049	506.953	253.638	238.457	420.396	226.367	357.123	211.935	196.057	188.248	0.00082086	0.0001924	8.8008e-05	407.14	1.9713e-06	1.5419e-06	544.78	86.366	4.4147e-06	2.455e-06	156.63	50.05	19.671	5.7883	5.255e-06	21.304	0.00038378	0.00038243	0.00010662	424.31	4.2149e-06	4.1649e-06	545.51	88.945	4.2032e-06	4.1896e-06	159.26	50.759	21.094	6.4528	4.2247e-06	21.889	382.025	353.929	506.693	181.998	327.173	240.184	181.444	186.277	344.822	296.398	185.830	191.225	191.200	196.496	378.530	195.712	-8191	255	
1506.017	1	1	0	0	0.057845	0.028932	0.028168	0.10061	0.16419	0.2032	0.081362	0.064611	0.13723	0.29632	0.28364	0.30774	0.095357	0.25158	0.15947	0.12263	-2.3146	-3.05	-2.7812	-2.8229	-3.0167	-2.7917	-3.1229	-2.9229	-2.9521	-3.1542	-2.7938	-2.8563	-3.1271	-2.7271	-2.7875	-3.0229	466.065	186.232	344.199	402.573	447.658	255.910	277.742	477.473	268.184	288.558	493.882	470.361	470.549	195.798	489.995	350.821	0.0006258	0.00029119	1.8563e-05	405.69	8.3547e-07	5.5655e-06	549.08	86.756	2.4178e-06	3.7801e-06	157.1	50.142	19.514	5.7678	2.7002e-06	21.454	0.00038684	0.00038547	0.00010939	425.04	4.2142e-06	4.2017e-06	546.28	88.782	4.2009e-06	4.1747e-06	159.27	50.919	21.126	6.4692	4.2814e-06	21.997	371.947	265.953	461.204	181.206	271.911	271.676	181.467	186.860	208.465	347.020	186.301	191.259	190.691	196.124	401.841	196.042	-8191	255	
1506.137	1	1	0	0	0.061094	0.16537	0.064783	0.095846	0.30153	0.23758	0.18191	0.36177	0.20125	0.20367	0.094812	0.086447	0.10839	0.17051	0.30457	0.26629	-2.2521	-3.0375	-2.725	-2.6917	-3.3771	-2.7812	-2.8812	-2.9979	-2.85	-3.1458	-2.8729	-2.8	-3.1542	-2.6042	-2.8771	-2.8354	401.902	290.458	458.305	215.709	399.563	242.830	181.101	463.127	448.197	486.678	348.432	336.141	177.045	442.300	234.014	420.987	0.00062157	0.00017343	9.3689e-05	403.76	4.8206e-06	4.8189e-06	552.66	86.445	3.9991e-06	4.4198e-06	157.44	50.297	19.377	5.8062	5.3872e-06	21.514	0.00038787	0.00039236	0.00010805	423.79	4.2698e-06	4.203e-06	548.26	88.804	4.1402e-06	4.2268e-06	159.68	51.177	21.171	6.4923	4.2675e-06	22.185	388.119	304.417	250.160	182.195	372.579	287.839	181.595	186.811	460.382	386.570	186.217	191.120	190.959	195.732	301.603	195.459	-8191	255	
1506.234	1	1	0	0	0.21213	0.19075	0.13075	0.22469	0.34246	0.21238	0.16311	0.16319	0.11083	0.1555	0.34829	0.093443	0.085228	0.11521	0.10792	0.2019	-2.3812	-3.2104	-2.75	-2.7625	-3.2083	-2.9833	-2.7979	-3.1667	-2.8396	-2.9667	-2.7812	-2.7583	-2.9792	-2.8167	-2.8	-3.0167	281.029	393.219	443.105	402.654	378.529	316.233	238.791	401.777	475.765	361.902	341.701	472.962	525.435	265.617	432.875	243.617	0.00081644	0.00036079	7.3437e-05	403	7.024e-06	1.3136e-06	551.13	86.102	1.0673e-06	3.6275e-06	157.4	50.561	19.745	5.7785	1.1214e-06	21.586	0.00038959	0.00038735	0.00010885	423.35	4.2369e-06	4.2773e-06	547.88	88.945	4.1801e-06	4.3395e-06	160.13	51.403	21.309	6.5142	4.239e-06	22.164	385.631	273.702	221.354	181.707	318.850	411.268	181.391	186.532	311.300	330.425	186.251	191.189	190.817	196.180	250.504	195.464	-8191	255	
1506.330	1	1	0	0	0.13428	0.31584	0.065888	0.26496	0.21832	0.053934	0.24946	0.089692	0.23745	0.32032	0.046115	0.2313	0.12043	0.070608	0.25999	0.10076	-2.3875	-2.9167	-2.7917	-2.5396	-3.0521	-2.7375	-3.0333	-3.0062	-2.6229	-3.1354	-2.7313	-2.7438	-2.9792	-2.7479	-2.8354	-3.0979	434.219	271.633	366.635	255.993	466.445	286.443	454.721	206.399	509.795	335.233	191.028	393.662	308.203	322.082	300.243	513.075	0.00063519	0.00045493	1.9205e-05	403.75	1.4747e-07	8.0371e-06	547.38	86.136	5.7388e-06	6.4521e-07	155.28	50.237	19.459	5.7672	9.1513e-07	21.244	0.00038695	0.000395	0.00010938	424.19	4.3007e-06	4.2955e-06	544.79	88.384	4.1838e-06	4.2392e-06	158.66	50.811	21.1	6.448	4.2154e-06	21.883	388.490	444.101	193.428	181.409	312.937	369.262	181.157	186.354	287.216	520.929	186.301	190.934	190.439	196.266	405.856	195.342	-8191	255	
1506.426	1	1	0	0	0.16726	0.21371	0.098221	0.14353	0.12365	0.20392	0.10632	0.25434	0.17395	0.13178	0.24852	0.3341	0.15873	0.28842	0.042306	0.24762	-2.3563	-2.8438	-2.9542	-2.725	-2.9917	-2.7438	-2.7958	-2.9271	-2.8875	-2.9333	-2.7021	-2.7542	-2.9313	-2.8896	-2.6813	-2.9333	210.803	389.961	391.742	484.790	489.017	256.645	521.225	470.641	361.168	514.429	284.057	495.638	505.813	525.802	518.211	453.733	0.00068589	8.1564e-05	0.00015376	404.56	4.4596e-06	2.9865e-06	544.86	85.703	4.8027e-06	3.0057e-06	155.9	49.616	19.288	5.8044	5.9424e-06	21.217	0.00038446	0.00039274	0.00010739	422.58	4.2566e-06	4.279e-06	543.78	88.436	4.2757e-06	4.3025e-06	158.18	50.502	20.989	6.4373	4.2326e-06	21.906	370.900	498.888	255.274	181.690	261.263	283.672	181.326	186.634	359.806	221.545	185.794	191.388	191.120	196.276	230.418	195.605	-8191	255	
1506.522	1	1	0	0	0.18864	0.067799	0.24173	0.28412	0.12452	0.2588	0.1305	0.20527	0.28389	0.066401	0.30259	0.1588	0.06238	0.41196	0.12923	0.099922	-2.3729	-2.8792	-3.0312	-2.675	-3	-3.0292	-2.7583	-3.1688	-2.775	-2.8729	-3.0563	-2.7188	-2.8792	-2.8625	-2.5646	-3.2479	522.704	360.535	415.392	336.316	488.413	331.498	190.371	170.891	377.703	200.579	253.731	178.840	178.891	271.714	402.872	464.736	0.00063782	0.00035644	9.6967e-05	401.13	3.2436e-06	7.9341e-06	543.04	86.415	3.8513e-06	1.5056e-06	155.31	49.758	19.05	5.7147	2.0178e-06	21.284	0.00039047	0.00039208	0.00010858	422.34	4.2947e-06	4.298e-06	542.54	88.6	4.2684e-06	4.33e-06	157.81	50.541	21.032	6.3995	4.2927e-06	21.82	387.653	206.189	306.444	181.882	320.493	383.603	181.109	186.448	284.781	198.808	186.152	191.400	190.711	196.107	306.461	195.485	-8191	255	
1506.618	1	1	0	0	0.25166	0.22555	0.19488	0.30123	0.17489	0.063421	0.17385	0.078772	0.18941	0.1986	0.084243	0.13966	0.16722	0.10228	0.25096	0.24053	-2.2979	-2.7333	-2.8042	-2.7896	-2.8937	-3.1125	-2.8333	-3.1021	-2.8958	-2.9833	-3.05	-2.9396	-2.7854	-2.9625	-2.8042	-3.1958	520.622	331.700	418.854	385.555	226.145	313.270	245.528	353.377	383.507	226.602	210.932	449.307	257.979	298.628	270.866	351.403	0.00063988	0.0004362	0.0001573	399.16	3.6239e-06	8.0068e-07	545.23	85.2	4.5158e-06	2.27e-06	154.81	50.041	19.314	5.7365	7.6996e-06	21.172	0.00039354	0.00039551	0.00010931	422.93	4.3588e-06	4.3237e-06	543.23	87.971	4.3041e-06	4.3344e-06	157.56	50.832	21.035	6.4019	4.312e-06	21.9	381.759	237.725	327.051	182.185	342.249	330.625	181.630	186.796	351.979	295.455	186.179	191.031	190.695	196.108	405.408	195.412	-8191	255	
1506.714	1	1	0	0	0.23307	0.1931	0.15794	0.20385	0.13132	0.20629	0.18284	0.035591	0.21611	0.18539	0.30369	0.040547	0.15249	0.085803	0.325	0.036946	-2.4021	-2.7708	-3.0875	-2.6979	-2.9979	-3.0938	-2.8417	-3.1021	-2.8708	-2.8042	-3.2458	-2.9354	-3.0708	-3.1063	-2.6646	-2.9667	419.129	218.284	408.955	358.714	520.892	210.335	481.070	191.029	209.856	327.140	236.920	470.917	180.672	341.261	477.725	477.807	0.00072896	0.00031209	5.9273e-05	409.09	2.5169e-06	4.0095e-06	546.56	85.276	4.281e-06	4.0437e-06	156.13	49.853	19.085	5.6593	2.3359e-06	21.192	0.0003909	0.00039613	0.00010991	423.89	4.3617e-06	4.313e-06	543.36	88.141	4.312e-06	4.2592e-06	157.92	50.512	20.88	6.3286	4.3139e-06	21.731	389.867	294.730	212.314	181.722	337.854	380.633	181.460	186.751	366.671	307.716	185.861	191.152	191.011	196.439	383.874	195.586	-8191	255	
1506.833	1	1	0	0	0.20782	0.039993	0.10693	0.14926	0.1713	0.11148	0.17159	0.12351	0.16402	0.056293	0.06017	0.11298	0.085222	0.27364	0.22262	0.32125	-2.5396	-2.7	-3.075	-2.8708	-2.7167	-3.1188	-2.7646	-2.8937	-2.8792	-2.8583	-3.1083	-2.6542	-2.8563	-3.0667	-2.8042	-3	456.509	519.042	251.160	252.461	251.142	307.680	474.528	307.145	359.656	422.325	483.543	444.964	487.134	505.704	452.402	201.238	0.00061895	0.00038201	2.0365e-05	403.05	5.1479e-06	1.7305e-06	539.83	85.567	4.7249e-06	2.059e-06	155.21	48.91	18.953	5.6804	2.2555e-06	20.893	0.00039316	0.00039285	0.00011038	421.02	4.2511e-06	4.2174e-06	540.31	87.785	4.331e-06	4.2535e-06	157.01	49.959	20.716	6.3312	4.2463e-06	21.543	388.471	323.982	497.915	181.520	263.853	379.136	180.968	186.553	352.452	333.530	186.204	191.005	190.804	196.063	342.904	195.559	-8191	255	
1506.929	1	1	0	0	0.17554	0.25265	0.12895	0.17384	0.21686	0.13749	0.17935	0.13907	0.15361	0.20952	0.12643	0.58381	0.10958	0.0087465	0.14119	0.055653	-2.5563	-2.6896	-2.7646	-2.7271	-2.6979	-3.1063	-2.8083	-2.9896	-3.0271	-2.8458	-3.0187	-2.9062	-2.6583	-3.1	-2.8708	-2.8521	428.327	494.189	440.627	225.059	452.556	332.503	528.388	508.982	241.673	444.007	440.656	527.737	453.635	245.089	463.451	468.886	0.00066868	0.00034812	7.0837e-06	404.01	5.715e-06	2.091e-06	543.35	85.112	3.2426e-06	3.2952e-06	154.59	49.619	19.273	5.6277	6.1658e-06	21.178	0.00038766	0.00038678	0.00010757	421.37	4.2528e-06	4.2992e-06	541.16	87.854	4.2319e-06	4.29e-06	157.49	50.432	20.918	6.3508	4.2706e-06	21.806	378.966	332.538	349.048	181.695	283.197	357.949	181.444	186.888	289.946	528.798	185.752	191.450	190.988	196.321	271.115	195.840	-8191	255	
1507.026	1	1	0	0	0.24735	0.099502	0.23167	0.34188	0.28545	0.30982	0.15691	0.09447	0.09924	0.14949	0.11481	0.16256	0.15285	0.058675	0.19206	0.042765	-2.4771	-2.8312	-3.025	-2.7625	-2.875	-2.9813	-2.7854	-3.0646	-3.0146	-2.6375	-3.0938	-2.8479	-2.875	-3.1833	-2.7021	-2.9062	488.943	237.933	338.618	526.941	214.797	224.695	408.199	236.254	504.429	352.004	260.708	180.684	454.804	332.903	458.266	514.886	0.00067925	9.3291e-05	2.1683e-05	402.68	6.9535e-07	4.0267e-06	544.53	85.342	4.4795e-06	2.1745e-06	155.63	49.584	19.231	5.8007	2.6431e-06	21.257	0.00039081	0.0003942	0.00011106	422.77	4.281e-06	4.2355e-06	543.17	87.888	4.253e-06	4.3286e-06	158.1	50.563	20.991	6.428	4.3104e-06	21.94	399.610	491.086	404.109	181.865	501.539	273.290	181.428	186.272	441.335	266.341	185.850	191.090	190.995	196.760	328.517	195.457	-8191	255	
1507.122	1	1	0	0	0.40013	0.15077	0.14054	0.22725	0.11232	0.21633	0.16184	0.1638	0.074128	0.17198	0.21841	0.29548	0.18678	0.10443	0.3236	0.28203	-2.6646	-2.6312	-2.9542	-2.9917	-2.7958	-3.1792	-2.9583	-2.9125	-3.2188	-2.7188	-2.9667	-2.9938	-2.6854	-3.1437	-2.9333	-2.8	374.094	402.148	291.196	492.095	341.139	174.397	463.842	362.649	249.010	431.741	236.236	305.937	370.122	387.497	340.974	421.249	0.00055299	0.00017897	8.9461e-05	398.06	1.1692e-06	3.0802e-06	547.16	86.608	9.8375e-07	7.5225e-06	156.35	50.075	19.398	5.816	1.2189e-06	21.278	0.00039304	0.00039611	0.00011152	421.89	4.2842e-06	4.3363e-06	544.1	88.571	4.2544e-06	4.3584e-06	158.9	51.109	21.097	6.4761	4.3361e-06	22.033	376.340	207.166	315.600	182.156	469.493	421.928	181.472	186.874	291.402	312.653	186.342	190.767	190.711	195.980	336.691	195.699	-8191	255	
1507.218	1	1	0	0	0.052322	0.14793	0.21915	0.13193	0.050999	0.17181	0.072256	0.085053	0.068709	0.090658	0.061503	0.080178	0.33913	0.18598	0.07676	0.30355	-2.8104	-2.5417	-2.9104	-3.0125	-2.7292	-3.0354	-2.9292	-2.7271	-3.2083	-2.8	-2.8875	-2.8271	-2.7625	-2.9271	-3.0604	-2.6333	350.745	447.328	335.548	193.435	523.686	417.576	409.553	233.226	513.684	337.860	334.269	240.812	311.095	500.164	291.392	301.628	0.00073143	0.0003026	8.889e-05	400.89	2.8326e-06	3.5336e-06	543.04	85.118	2.6366e-06	4.2717e-06	154.24	49.348	19.144	5.7185	8.1784e-06	21.316	0.00040027	0.00039863	0.0001103	420.89	4.3682e-06	4.3234e-06	542.2	87.947	4.3242e-06	4.2882e-06	157.02	50.366	20.893	6.4045	4.3383e-06	21.756	365.190	243.881	331.583	181.672	367.858	337.483	181.360	186.690	377.073	337.401	186.118	191.070	190.633	196.265	254.638	196.118	-8191	255	
1507.314	1	1	0	0	0.2975	0.093388	0.19156	0.16048	0.11708	0.16063	0.16769	0.2129	0.058791	0.28422	0.11984	0.26868	0.12111	0.10469	0.21355	0.30096	-2.6333	-2.8375	-2.8521	-2.8583	-2.7646	-3.0938	-2.8	-2.6583	-3.0062	-2.6562	-2.8063	-2.9562	-2.8104	-2.9875	-2.9375	-2.6937	252.588	377.323	517.115	279.348	276.615	290.852	424.537	369.078	374.523	202.871	515.214	352.731	288.711	343.940	281.348	303.437	0.00062269	0.00060382	5.8836e-05	394.4	2.8424e-06	8.1102e-07	543.27	85.319	4.339e-06	2.0988e-06	152.8	49.431	19.259	5.7156	5.5014e-06	21.252	0.00039266	0.00039894	0.00011181	418.38	4.3042e-06	4.3366e-06	541.39	87.552	4.3083e-06	4.3079e-06	156.71	50.314	20.86	6.3859	4.2809e-06	21.746	385.958	275.718	215.632	181.488	263.333	324.031	181.395	186.199	292.996	383.881	186.332	190.749	190.440	196.651	283.324	195.667	-8191	255	
1507.435	1	1	0	0	0.099323	0.19315	0.20303	0.087206	0.11534	0.11158	0.14481	0.23361	0.18904	0.12472	0.032123	0.18389	0.21233	0.13314	0.26173	0.079092	-2.7458	-2.8063	-2.8958	-3.0646	-2.8667	-2.9625	-2.8604	-2.8229	-3.15	-2.8729	-2.6917	-3.1312	-2.7771	-2.9813	-3.15	-2.6458	347.626	349.491	404.455	480.827	390.190	271.714	455.944	465.621	222.167	425.937	470.345	366.696	239.816	492.716	240.995	411.985	0.00061396	0.00050405	0.00020066	400.22	4.2424e-06	2.5237e-06	541.65	85.518	3.7414e-06	5.8069e-06	154.28	49.582	18.941	5.7271	8.1188e-06	21.393	0.00039249	0.00039411	0.00010965	420.26	4.338e-06	4.291e-06	540.63	87.819	4.2594e-06	4.3713e-06	157.31	50.48	20.818	6.4205	4.3063e-06	21.883	381.214	520.816	297.716	181.944	320.738	230.354	181.393	187.089	354.539	447.685	186.071	190.654	191.904	195.851	234.221	195.784	-8191	255	
1507.531	1	1	0	0	0.24833	0.060972	0.12474	0.32828	0.086003	0.012088	0.1147	0.11152	0.19471	0.2045	0.11408	0.1123	0.081803	0.12333	0.16883	0.30143	-2.6104	-2.7958	-2.6021	-2.9646	-2.8208	-2.8937	-2.85	-2.7354	-2.975	-2.7292	-2.6625	-3.0896	-2.7938	-2.8396	-3.1	-2.7896	527.523	433.774	444.567	410.795	364.782	455.694	467.237	222.171	372.933	348.988	188.703	235.119	260.121	206.454	424.339	506.043	0.00051501	0.00025126	1.7903e-05	401.66	1.5454e-06	3.4879e-06	541.02	85.763	7.2445e-06	1.5366e-06	155.71	50.228	19.486	5.7973	3.5288e-06	21.508	0.00039667	0.0004	0.00011014	421.76	4.3538e-06	4.3585e-06	542.18	88.173	4.3308e-06	4.3409e-06	158.45	51.05	21.184	6.484	4.3222e-06	22.107	363.528	416.195	503.865	181.797	388.539	385.852	181.664	186.784	241.627	233.905	186.109	191.667	190.905	196.464	309.462	195.658	-8191	255	
1507.625	1	1	0	0	0.07841	0.047863	0.15037	0.30682	0.071295	0.1373	0.046711	0.16493	0.090234	0.18655	0.15522	0.25204	0.18367	0.036604	0.20776	0.112	-2.4583	-2.8125	-2.7417	-3.1646	-2.8167	-2.7542	-3.0896	-2.7229	-2.9333	-3.0333	-2.7604	-3.1792	-2.8979	-2.7271	-2.8292	-2.7875	282.559	522.742	354.313	386.362	360.331	312.059	452.931	361.533	262.900	475.914	335.982	427.832	398.694	363.924	319.536	237.815	0.00073805	0.00078566	0.00017578	400.12	8.9574e-07	4.3478e-06	544.32	85.471	2.6317e-06	1.4535e-06	154.81	49.51	19.295	5.7394	3.8289e-06	21.199	0.00040327	0.00040556	0.00011103	422.94	4.4662e-06	4.4327e-06	543.43	88.121	4.4363e-06	4.4081e-06	157.87	50.813	20.98	6.4383	4.3497e-06	21.839	394.456	261.063	231.944	181.429	505.711	397.331	180.997	186.413	304.395	375.500	186.558	191.371	191.312	196.497	497.225	195.902	-8191	255	
1507.721	1	1	0	0	0.074248	0.083356	0.13312	0.17828	0.21826	0.11257	0.17382	0.17389	0.17792	0.18081	0.24123	0.19756	0.05786	0.070683	0.18891	0.27882	-2.4354	-2.8063	-2.7396	-2.9917	-2.65	-2.9562	-3.05	-2.7417	-2.8208	-2.8479	-2.6396	-3.2167	-2.7958	-2.775	-3.0917	-2.7354	475.343	226.089	440.758	182.571	471.077	209.744	214.256	397.450	498.488	517.245	524.183	215.760	485.323	482.450	209.624	483.660	0.0006595	0.00022492	0.00015887	403.91	2.8453e-06	1.8729e-06	540.45	84.642	3.8922e-06	8.2463e-06	154.02	49.78	18.994	5.6147	1.429e-06	21.004	0.00040059	0.00039686	0.00011028	421.49	4.4573e-06	4.3983e-06	540.57	87.537	4.4226e-06	4.4268e-06	156.75	50.282	20.84	6.3906	4.3886e-06	21.748	371.171	237.340	285.367	181.663	365.434	469.950	181.554	186.282	409.045	430.379	186.295	191.168	191.008	196.594	383.231	195.912	-8191	255	
1507.817	1	1	0	0	0.26651	0.27915	0.24077	0.11489	0.25846	0.4416	0.09004	0.21025	0.2413	0.14281	0.014905	0.072861	0.17984	0.11666	0.1175	0.075089	-2.5146	-2.8937	-2.4229	-2.9	-2.8479	-2.7438	-3.3146	-2.6958	-2.9104	-2.8333	-2.7708	-3.0458	-2.9229	-2.6896	-3.0417	-2.7583	262.135	310.315	277.657	485.289	315.846	236.876	405.709	447.888	362.177	242.975	270.770	384.705	297.668	521.344	370.036	369.653	0.00056547	7.4091e-05	6.9144e-05	401.2	3.8958e-06	5.4626e-07	539.89	84.27	1.7448e-06	2.5319e-06	153.7	49.453	19.157	5.7286	3.5371e-06	21.196	0.00041043	0.0004088	0.00011486	420.41	4.507e-06	4.4965e-06	540.26	87.35	4.5687e-06	4.5171e-06	156.99	50.64	20.888	6.4184	4.6349e-06	21.882	386.836	190.392	422.233	181.566	288.532	493.377	181.283	186.618	318.402	386.069	185.847	191.211	190.602	196.226	478.391	195.349	-8191	255	
1507.914	1	1	0	0	0.04411	0.19077	0.2078	0.28489	0.20539	0.054853	0.2036	0.08037	0.13098	0.29633	0.073705	0.12425	0.059383	0.25707	0.30872	0.11635	-2.4188	-2.8875	-2.7854	-2.9479	-2.8083	-2.8146	-3.0583	-2.6292	-2.7604	-3.075	-2.8229	-2.8604	-2.7417	-2.7833	-2.8333	-2.9188	212.524	503.056	363.126	234.776	520.294	392.306	406.215	230.682	350.447	387.710	351.499	466.041	261.852	357.534	506.812	477.733	0.00043207	0.00014155	0.00014579	402.69	3.2296e-06	8.3336e-07	541.52	85.234	3.9346e-06	5.1166e-06	155.55	49.633	18.946	5.7427	4.31e-06	21.236	0.00042179	0.00041746	0.00011752	421.69	4.5411e-06	4.6367e-06	540.27	88.002	4.5742e-06	4.6022e-06	157.57	50.678	20.946	6.4872	4.5769e-06	22.023	392.701	419.745	351.279	181.798	212.152	526.193	181.329	186.144	331.203	503.205	185.909	191.227	190.820	196.221	401.700	196.153	-8191	255	
1508.010	1	1	0	0	0.12372	0.092167	0.069244	0.16943	0.16623	0.14386	0.13599	0.19249	0.11081	0.12851	0.24262	0.19497	0.11672	0.062739	0.27676	0.16722	-2.3979	-3.2562	-2.6708	-2.8667	-2.9146	-2.6333	-3.0458	-2.9021	-2.6562	-3.0125	-2.6396	-3.0271	-3.0375	-2.5083	-2.8875	-2.7938	332.710	304.098	327.662	376.167	321.078	254.737	419.277	491.192	348.922	464.806	352.563	433.865	513.949	179.130	229.453	382.243	0.00053396	0.00054146	0.00010672	399	6.102e-06	4.7846e-06	540.56	85.348	4.886e-06	6.4982e-07	154.92	49.982	19.204	5.7419	2.8516e-06	21.394	0.00041698	0.00041959	0.0001172	423.36	4.6395e-06	4.6125e-06	540.74	88.284	4.5688e-06	4.5543e-06	158	51.07	21.13	6.5039	4.5987e-06	22.084	376.695	322.584	209.306	181.490	502.101	273.584	181.460	186.924	250.198	217.436	186.207	191.469	191.146	195.869	198.064	195.896	-8191	255	
1508.106	1	1	0	0	0.27593	0.14965	0.13047	0.23511	0.13143	0.1404	0.39046	0.031567	0.014827	0.082481	0.30945	0.087653	0.073835	0.12317	0.11326	0.27448	-2.3146	-2.7042	-2.6771	-2.7333	-2.9313	-2.6562	-3.0187	-2.9604	-2.4896	-2.9854	-3.0375	-2.8333	-3.0979	-2.6625	-2.9729	-2.8646	304.895	209.357	354.861	470.860	204.517	473.604	176.478	325.150	421.416	429.805	494.829	176.386	467.557	398.111	413.664	388.529	0.00075649	0.00035546	0.00010624	398.61	1.2416e-06	4.242e-06	539.02	84.465	2.4748e-06	4.0259e-06	154.12	49.23	18.924	5.6855	6.0172e-06	20.876	0.00042359	0.00042126	0.00011778	422.14	4.5401e-06	4.6027e-06	539.31	87.45	4.5544e-06	4.6226e-06	157.56	50.379	20.859	6.4031	4.6119e-06	21.715	384.653	256.279	211.183	181.815	518.691	507.630	181.858	186.965	383.585	516.056	186.156	191.332	191.112	196.211	292.098	195.425	-8191	255	
1508.227	1	1	0	0	0.2532	0.22163	0.055791	0.38115	0.15098	0.025732	0.13966	0.2237	0.20014	0.19246	0.11502	0.2102	0.098305	0.17181	0.07885	0.18649	-2.2	-2.9979	-2.725	-2.8417	-2.9771	-2.7167	-3.0479	-2.8187	-2.6271	-2.8979	-2.8146	-2.725	-3.1125	-2.6333	-2.9417	-2.9021	383.361	195.260	435.658	179.199	507.014	195.129	328.495	520.502	194.972	222.938	401.172	301.032	464.816	264.746	228.664	392.003	0.00070356	0.00028008	8.3386e-05	398.97	4.6009e-06	2.9425e-06	541.19	84.489	1.5099e-06	3.9053e-06	153.21	49.158	18.802	5.7134	9.2932e-06	21.029	0.00041519	0.00042405	0.00011639	422.65	4.6221e-06	4.5858e-06	538.96	87.338	4.555e-06	4.637e-06	157.08	50.239	20.739	6.4005	4.6702e-06	21.776	381.814	185.349	252.542	182.342	406.834	312.564	181.357	186.693	297.166	344.756	186.396	191.271	191.164	196.904	424.867	195.675	-8191	255	
1508.323	1	1	0	0	0.31535	0.22806	0.22267	0.1052	0.15287	0.024519	0.25263	0.21123	0.030743	0.18902	0.032838	0.22658	0.15802	0.085975	0.26071	0.19942	-2.3229	-3.1604	-2.6271	-2.6292	-3.0062	-2.7333	-2.8958	-2.7854	-2.5687	-2.9375	-2.8417	-2.8396	-3.0687	-2.5979	-2.8438	-3.1188	196.472	303.332	319.965	310.430	294.003	347.265	490.496	510.038	500.253	431.674	261.898	174.629	406.995	341.737	346.060	402.033	0.00071534	0.00035342	8.8113e-05	401.92	2.8772e-06	3.6304e-06	539.42	84.034	1.6652e-06	3.993e-06	152.76	49.475	19.124	5.6508	6.3937e-06	21.205	0.00042263	0.00042432	0.00011865	421.74	4.6704e-06	4.6328e-06	538.56	87.423	4.6348e-06	4.724e-06	157.25	50.373	20.939	6.4403	4.6505e-06	21.884	387.522	187.183	262.254	182.049	290.632	281.533	181.173	186.863	233.314	181.216	186.380	191.331	191.141	196.658	227.281	195.685	-8191	255	
1508.394	1	1	0	0	0.092593	0.18223	0.036861	0.19382	0.14257	0.14281	0.36121	0.17872	0.19561	0.052734	0.15969	0.27254	0.209	0.13848	0.09546	0.13529	-2.2625	-2.9188	-2.8583	-2.5729	-3.0146	-2.9167	-2.9354	-2.9708	-2.6521	-2.8958	-2.8854	-2.7396	-3.0187	-2.7396	-2.9167	-2.9854	342.765	393.941	489.228	396.339	292.475	492.319	468.731	199.736	341.682	277.610	427.876	487.680	519.228	492.026	265.413	510.780	0.00063816	0.00032831	8.6822e-05	398.67	1.3647e-06	5.893e-06	538.42	84.491	3.5662e-06	6.0955e-06	153.47	49.641	19.013	5.6935	2.7134e-06	21.337	0.00042382	0.00043128	0.00011834	421.49	4.5958e-06	4.6521e-06	539.06	87.704	4.6658e-06	4.6973e-06	157.62	50.626	21.025	6.4854	4.6128e-06	22.046	373.179	192.373	224.827	181.391	236.333	319.978	181.517	186.060	391.648	334.719	186.151	191.000	191.031	196.530	382.252	195.930	-8191	255	
1508.515	1	1	0	0	0.38355	0.23569	0.1778	0.15198	0.19418	0.10829	0.22378	0.051147	0.24912	0.060283	0.28553	0.076598	0.17564	0.084117	0.11294	0.196	-2.2896	-2.6688	-2.8771	-2.625	-3.0479	-2.7771	-2.8833	-3.05	-2.5229	-2.9208	-2.925	-2.8396	-3.0646	-2.6937	-2.7708	-3.1375	278.610	213.895	440.614	195.874	416.506	293.051	424.714	357.760	310.716	371.947	422.925	509.747	204.674	231.174	478.128	410.309	0.00063598	0.00038868	0.00027957	397.52	1.9842e-06	3.1137e-06	541.45	84.358	8.3627e-06	3.0413e-06	154.97	49.012	18.913	5.6742	6.3951e-06	21.18	0.00042498	0.00042747	0.00011925	421.95	4.7006e-06	4.7153e-06	540.69	87.925	4.6461e-06	4.7229e-06	157.74	50.466	20.985	6.4612	4.6741e-06	21.894	401.806	457.261	177.908	181.359	426.775	302.183	181.382	186.769	314.897	249.971	186.119	191.118	190.600	196.813	354.870	195.442	-8191	255	
1508.611	1	1	0	0	0.15734	0.25706	0.18907	0.073116	0.037864	0.17596	0.1225	0.16961	0.079207	0.14088	0.34126	0.08704	0.066341	0.11997	0.088624	0.073017	-2.5417	-2.9042	-2.9688	-2.6937	-2.9958	-3.0021	-2.8354	-2.9562	-2.6521	-2.9875	-3.0563	-2.6312	-2.9708	-2.8604	-2.7875	-3.1708	340.714	209.590	405.867	194.884	527.335	265.443	209.543	264.799	416.178	526.270	461.938	499.618	269.043	225.597	406.224	175.441	0.00069164	0.00040731	9.312e-06	398.43	1.8512e-06	3.5529e-06	536.62	84.415	2.9242e-06	3.0153e-06	153.09	49.101	18.861	5.5842	1.035e-06	20.964	0.00042572	0.00042631	0.00011739	421.01	4.6859e-06	4.5949e-06	536.58	87.227	4.6163e-06	4.5951e-06	156.08	49.995	20.729	6.3614	4.5424e-06	21.694	369.680	204.886	481.008	181.056	297.757	225.149	181.584	186.579	268.245	326.236	186.073	190.924	191.081	195.484	507.465	195.289	-8191	255	
1508.707	1	1	0	0	0.087474	0.23602	0.13615	0.035507	0.19953	0.12156	0.082399	0.27621	0.099361	0.27711	0.16805	0.096853	0.21125	0.21743	0.14067	0.17224	-2.2979	-2.8375	-2.9562	-2.9313	-3.0792	-2.9271	-2.6333	-3.0187	-2.9958	-2.8542	-3.2125	-2.6771	-2.8729	-3.0417	-2.7271	-2.925	462.531	196.142	455.093	202.996	310.414	515.896	263.585	226.532	221.245	440.577	417.897	418.520	365.169	205.984	307.621	493.435	0.00060997	9.1734e-05	5.6758e-05	396.53	2.4755e-06	3.5077e-06	534.72	84.27	3.4762e-06	4.8936e-06	152.24	49.03	18.975	5.6204	4.8304e-06	21.139	0.00042117	0.00042645	0.00011825	419.85	4.6748e-06	4.676e-06	537.1	87.134	4.6634e-06	4.602e-06	156.41	50.057	20.849	6.3976	4.5797e-06	21.806	386.576	392.193	400.973	182.043	367.744	262.384	181.238	186.413	279.985	320.028	186.171	191.228	191.658	196.037	406.946	195.646	-8191	255	
1508.826	1	1	0	0	0.094806	0.076718	0.12284	0.29094	0.33502	0.16698	0.22126	0.2809	0.22564	0.18921	0.11014	0.042523	0.027119	0.20839	0.14413	0.16775	-2.3375	-2.5062	-3.175	-2.7958	-2.9146	-3.0646	-2.8167	-3.0438	-2.8792	-2.6083	-3.0667	-2.7979	-2.9104	-2.9292	-2.8417	-2.9917	280.198	419.304	326.291	484.585	312.876	185.327	442.179	490.702	190.322	236.011	261.667	240.530	470.394	241.065	471.085	393.946	0.00075841	0.00047162	4.7324e-05	395.23	2.6325e-06	3.1613e-06	539.57	84.045	3.1753e-06	5.378e-06	153.1	49.341	19.104	5.6582	6.38e-06	21.089	0.00042434	0.00042266	0.000118	420.69	4.7679e-06	4.6487e-06	539.4	87.293	4.6693e-06	4.6603e-06	157.1	50.406	20.947	6.4445	4.6935e-06	21.907	391.856	457.512	256.211	181.791	219.728	389.051	181.366	186.507	327.460	425.943	186.288	191.366	191.723	195.991	338.798	195.774	-8191	255	
1508.922	1	1	0	0	0.20519	0.16542	0.15321	0.19288	0.068228	0.21333	0.19581	0.17675	0.17398	0.23558	0.11571	0.13475	0.1859	0.11125	0.2153	0.097268	-2.3479	-2.6083	-2.9333	-2.8896	-2.9458	-3.1146	-2.7896	-2.9562	-2.8771	-2.8042	-3.0146	-2.7208	-2.6958	-2.9146	-2.7146	-2.9417	459.351	487.206	338.845	204.680	463.656	193.541	458.889	261.924	317.268	183.360	458.452	494.748	380.442	425.277	307.759	276.387	0.00050752	0.00021061	0.00016436	399.52	5.8639e-06	5.0457e-06	539.41	83.515	2.5652e-06	6.2572e-06	154.37	49.56	18.77	5.6101	5.0205e-06	21.333	0.0004304	0.00042949	0.00011969	422.81	4.7749e-06	4.705e-06	539.41	87.55	4.7047e-06	4.7474e-06	157.79	50.855	20.93	6.4538	4.7361e-06	21.968	372.725	465.367	217.635	181.836	244.002	268.181	181.302	186.108	401.207	179.713	186.140	191.351	191.149	196.556	234.617	195.802	-8191	255	
1508.994	1	1	0	0	0.12427	0.24127	0.24605	0.21346	0.085701	0.17468	0.14091	0.18361	0.35274	0.15474	0.090914	0.15075	0.083678	0.22233	0.13723	0.23885	-2.2875	-2.6667	-2.9854	-2.8979	-2.8292	-2.9771	-2.8688	-3.0792	-3.0083	-2.8187	-3.1208	-2.7979	-2.7938	-2.9896	-2.6667	-2.9958	218.681	178.228	501.437	455.842	325.752	465.938	478.423	443.086	224.314	377.639	197.591	327.601	198.092	451.144	412.521	476.409	0.00055469	0.00017291	8.4442e-05	393.74	2.7854e-06	5.7228e-06	537.37	84.827	1.3908e-06	2.6056e-06	154.97	48.893	18.98	5.5358	6.0429e-06	20.928	0.00043314	0.00043111	0.0001204	420.78	4.6891e-06	4.7155e-06	538.03	87.486	4.6408e-06	4.6942e-06	156.66	50.074	20.848	6.3669	4.644e-06	21.625	391.746	300.038	218.118	181.719	368.165	388.861	181.512	186.412	228.439	455.018	185.999	191.471	190.513	196.763	205.642	195.509	-8191	255	
1509.115	1	1	0	0	0.25169	0.1881	0.096944	0.1417	0.043167	0.096522	0.17163	0.22545	0.20505	0.17172	0.14195	0.10224	0.21122	0.07659	0.11642	0.29726	-2.5563	-2.6104	-2.9104	-2.8458	-2.8167	-3.0479	-2.7208	-2.775	-3.0417	-2.7562	-2.8271	-2.8937	-2.5458	-3.1479	-2.6625	-2.7062	427.098	300.239	234.776	446.989	305.399	414.025	492.294	212.024	303.969	416.647	506.849	448.862	278.464	352.873	253.473	506.794	0.00082802	0.00038654	6.8555e-05	396.08	3.9624e-06	3.3679e-06	538.49	83.72	7.6105e-06	3.287e-06	153.75	48.422	18.63	5.5504	1.4345e-06	20.885	0.00042372	0.00042655	0.00011988	420.04	4.6619e-06	4.5842e-06	536.32	86.694	4.6186e-06	4.559e-06	155.96	49.828	20.659	6.3604	4.6571e-06	21.644	391.783	261.363	518.247	181.509	239.561	398.108	181.580	186.254	429.290	525.343	186.396	191.528	191.522	196.221	470.460	195.875	-8191	255	
1509.211	1	1	0	0	0.16646	0.17921	0.155	0.42344	0.11718	0.049512	0.1177	0.1434	0.13379	0.16373	0.10314	0.1538	0.18494	0.24024	0.32477	0.22271	-2.5771	-2.625	-2.975	-2.9542	-2.7313	-3.0417	-2.9792	-2.9021	-3.0021	-2.575	-2.8979	-2.8396	-2.6854	-2.9229	-2.7833	-2.7417	243.103	376.426	329.650	513.846	385.841	360.566	441.601	327.760	325.900	365.572	332.306	249.123	373.469	342.906	196.428	185.343	0.000795	0.00025254	4.1685e-05	387.39	1.9878e-06	3.2436e-06	532.9	83.901	8.0285e-06	2.5289e-06	153.27	48.964	18.651	5.6794	7.68e-06	20.937	0.00041976	0.00042124	0.00011844	417.91	4.6249e-06	4.6223e-06	534.52	86.647	4.5534e-06	4.622e-06	156.27	50.118	20.828	6.4077	4.6274e-06	21.783	382.981	169.387	474.951	181.694	306.858	513.809	181.107	186.571	305.946	199.621	186.361	191.201	191.144	196.323	498.241	195.771	-8191	255	
1509.307	1	1	0	0	0.13388	0.27496	0.11891	0.067042	0.070964	0.31285	0.36438	0.15812	0.23183	0.14009	0.16665	0.22475	0.13009	0.16454	0.089161	0.27086	-2.6521	-2.6646	-2.9354	-2.9417	-2.5333	-2.9708	-3.0042	-2.9417	-3.1562	-2.8583	-2.9458	-3.1937	-2.7708	-3.025	-2.8542	-2.7188	187.742	497.661	394.254	427.229	243.681	374.944	461.530	459.507	274.669	303.969	300.676	457.106	261.581	403.563	401.915	449.440	0.00063597	0.0007328	5.9567e-05	397.49	8.1433e-06	7.6703e-06	533.74	84.298	4.197e-06	6.1212e-06	153.71	49.003	18.8	5.5998	3.6024e-06	21.182	0.00042072	0.00042378	0.00011862	419.8	4.6498e-06	4.7082e-06	536.8	86.881	4.6723e-06	4.6531e-06	157.46	50.386	20.791	6.4347	4.684e-06	21.99	376.195	220.087	273.878	182.078	249.530	358.062	181.381	186.619	278.836	273.179	186.087	191.670	191.672	196.558	272.950	195.618	-8191	255	
1509.403	1	1	0	0	0.26392	0.077772	0.21302	0.11298	0.34937	0.23459	0.29489	0.19819	0.12407	0.19095	0.086888	0.13831	0.19075	0.11957	0.12454	0.32528	-2.6896	-2.8208	-2.7313	-3.1354	-2.825	-3.0062	-2.9479	-2.8	-3.025	-2.7854	-2.8833	-3.2229	-2.5417	-2.7583	-2.9333	-2.6937	266.017	476.474	523.068	307.421	422.574	184.455	520.650	487.321	511.870	426.366	198.321	518.498	315.615	486.813	204.993	513.473	0.00056634	0.00052676	0.0001105	396.96	2.0685e-06	4.1479e-06	536.8	83.992	2.1152e-06	2.0523e-06	153.23	49.253	18.86	5.5552	4.9657e-06	21.003	0.00042692	0.00042719	0.00011839	419.46	4.683e-06	4.692e-06	536.88	86.881	4.6597e-06	4.6366e-06	156.36	50.18	20.733	6.3481	4.6507e-06	21.654	390.753	495.622	221.648	181.395	283.213	496.913	181.475	186.739	477.846	375.807	186.157	190.968	190.672	197.155	382.096	195.649	-8191	255	
1509.524	1	1	0	0	0.23304	0.06532	0.30625	0.31295	0.22113	0.20879	0.36642	0.21376	0.13592	0.088601	0.18878	0.21513	0.14958	0.18606	0.18145	0.095172	-2.725	-2.7833	-2.6729	-2.9771	-2.6562	-2.9729	-3.0104	-2.6375	-3.1167	-2.9229	-2.7167	-2.9542	-2.8021	-3.0229	-2.9521	-2.8375	285.206	205.698	291.303	465.784	334.154	374.319	516.063	382.912	460.924	413.756	487.263	478.162	273.315	443.498	204.860	336.850	0.00054429	0.00034344	0.00014206	396.65	6.1917e-06	2.82e-06	533.4	83.254	3.2419e-06	3.0033e-06	151.45	48.389	18.421	5.495	7.7486e-06	20.651	0.00042043	0.00042638	0.00011827	418.18	4.6612e-06	4.6529e-06	533.67	86.245	4.5787e-06	4.6732e-06	154.95	49.484	20.53	6.3012	4.5618e-06	21.383	381.405	331.108	290.915	181.751	356.811	285.989	181.392	186.509	435.546	220.103	186.118	190.901	191.065	196.442	294.199	195.365	-8191	255	
1509.618	1	1	0	0	0.1081	0.044444	0.32812	0.23168	0.16194	0.13539	0.17411	0.048392	0.28598	0.16697	0.13144	0.14221	0.052347	0.043836	0.24493	0.17157	-2.5125	-2.8438	-2.6562	-3	-2.7875	-2.7667	-3.0167	-2.8375	-2.8896	-2.9792	-2.8292	-3.1979	-2.6875	-2.7396	-3.1375	-2.8146	521.459	369.256	190.372	488.402	423.573	426.933	480.826	498.290	397.469	274.300	327.984	367.755	525.677	195.671	503.469	481.391	0.0006398	0.00058494	4.8785e-05	389.75	5.1397e-06	3.2746e-06	534.66	82.807	2.1041e-06	5.8418e-06	151.18	48.47	18.484	5.4672	3.1759e-06	20.758	0.00042457	0.0004261	0.00011805	416.68	4.6407e-06	4.6294e-06	534.65	86.211	4.6167e-06	4.6708e-06	155.05	49.372	20.482	6.2607	4.5556e-06	21.447	379.837	427.689	364.657	181.842	273.080	237.326	181.591	186.528	315.455	290.163	186.080	190.604	191.025	196.163	524.773	195.364	-8191	255	
1509.692	1	1	0	0	0.20689	0.16538	0.2638	0.058485	0.20716	0.20769	0.065536	0.090524	0.30958	0.20151	0.1492	0.13698	0.075162	0.17706	0.083212	0.13234	-2.4125	-2.8438	-2.6604	-3	-2.8333	-2.8917	-2.95	-2.6958	-2.9938	-2.9854	-2.9479	-3.1104	-2.9938	-2.8292	-3.1042	-2.8458	314.702	273.218	402.114	474.022	510.468	296.575	248.013	284.806	208.757	384.515	428.548	249.825	477.957	341.184	526.501	457.018	0.00048622	0.00026442	0.00010102	392.2	2.6079e-06	2.208e-06	531.64	83.103	1.5789e-06	5.6218e-06	151.95	48.239	18.333	5.4463	8.6413e-07	20.663	0.0004259	0.000427	0.0001178	417.17	4.6373e-06	4.6422e-06	533.18	85.945	4.5765e-06	4.6001e-06	155.01	49.456	20.402	6.2685	4.5705e-06	21.471	413.341	254.690	503.344	181.094	251.469	265.904	180.931	186.270	211.874	340.332	185.694	190.582	190.340	196.553	361.284	195.642	-8191	255	
1509.788	1	1	0	0	0.18651	0.016029	0.13216	0.11546	0.18422	0.056262	0.1892	0.2655	0.101	0.11382	0.34526	0.23294	0.26795	0.20816	0.22314	0.1208	-2.4146	-2.8958	-2.6292	-3.1188	-2.9125	-2.7896	-3.2062	-2.7958	-2.9458	-3.0854	-2.7812	-3.025	-2.8667	-2.7646	-3.1562	-2.7917	270.099	515.733	420.133	430.119	521.761	440.991	505.966	513.194	419.708	494.592	470.834	493.434	487.728	216.602	519.165	196.981	0.00062152	0.00051407	0.00011983	396.49	4.8353e-06	6.4791e-06	532.94	83.341	2.8748e-06	3.2215e-06	152.56	48.465	18.646	5.5323	4.018e-06	20.84	0.00042267	0.00042277	0.00011824	418.9	4.5759e-06	4.5975e-06	533.44	86.223	4.6041e-06	4.6261e-06	155.45	49.899	20.626	6.3061	4.6212e-06	21.579	391.808	256.369	209.188	182.099	419.583	288.812	181.433	186.748	212.858	483.038	186.093	191.148	190.917	196.483	315.740	195.710	-8191	255	
1509.907	1	1	0	0	0.22424	0.16867	0.17505	0.13508	0.11291	0.16162	0.075312	0.22399	0.15802	0.19212	0.04585	0.1152	0.17566	0.088227	0.083166	0.20289	-2.475	-3.0604	-2.6479	-3.1125	-2.8417	-2.65	-3.1625	-2.8542	-2.8937	-3.0208	-2.6542	-3.0604	-2.9688	-2.6208	-2.9521	-2.7646	277.361	239.844	275.795	193.024	337.787	368.758	397.370	515.825	310.406	469.449	480.474	360.855	278.294	385.372	413.385	461.919	0.00066747	0.00079485	8.8869e-05	390.22	3.2394e-06	5.1462e-06	535	83.234	3.5852e-06	1.1647e-06	150.87	48.471	18.57	5.5551	2.8103e-06	20.628	0.00042023	0.00042128	0.00011592	416.01	4.664e-06	4.5935e-06	535.55	86.189	4.5542e-06	4.5942e-06	154.47	49.448	20.47	6.2599	4.5357e-06	21.345	394.188	203.490	265.594	182.012	269.463	416.850	181.047	186.655	335.367	221.433	185.987	190.676	190.814	196.144	522.887	195.333	-8191	255	
1510.003	1	1	0	0	0.28373	0.024877	0.06965	0.1036	0.13996	0.294	0.16249	0.16388	0.28339	0.12285	0.16881	0.081044	0.20027	0.16754	0.2251	0.30085	-2.3958	-3.0563	-2.6396	-2.875	-2.9688	-2.7854	-3.1354	-2.8958	-2.8646	-3.1146	-2.6437	-3.0792	-2.9542	-2.7896	-3.0542	-2.8667	190.549	495.570	227.241	470.195	353.361	440.989	432.927	318.347	366.908	203.636	391.927	192.004	227.981	527.607	354.179	377.395	0.00047081	0.00064187	1.4328e-05	387.89	3.7284e-06	4.7064e-06	535.04	82.886	7.3087e-06	4.0534e-06	151.19	48.164	18.494	5.511	4.8789e-06	20.631	0.00041561	0.00041494	0.00011436	415	4.5578e-06	4.5447e-06	534.34	85.841	4.5141e-06	4.5351e-06	154.82	49.408	20.285	6.2703	4.588e-06	21.365	375.744	224.929	327.085	181.617	495.595	348.837	181.394	186.561	269.377	260.934	185.995	190.769	190.590	196.020	257.539	195.980	-8191	255	
1510.099	1	1	0	0	0.18077	0.20949	0.03454	0.08303	0.08672	0.12514	0.10813	0.058436	0.13117	0.1827	0.12147	0.24946	0.12447	0.03542	0.1083	0.20532	-2.4042	-2.9688	-2.6708	-2.9167	-3.0708	-2.6875	-2.9021	-2.9792	-2.6729	-3.075	-2.8958	-2.7562	-3.0062	-2.5958	-3.0792	-3.0021	333.469	269.645	428.262	236.593	485.652	358.701	237.700	405.734	394.026	212.754	447.024	364.044	294.593	440.311	256.369	420.172	0.0006368	0.0004288	2.9467e-05	393.03	4.6027e-06	3.197e-06	534.93	82.532	8.4452e-06	4.3477e-06	153.03	48.418	18.359	5.5249	7.4089e-07	20.862	0.00041842	0.00042446	0.0001178	417.29	4.5987e-06	4.5954e-06	534.61	85.879	4.6485e-06	4.7126e-06	155.64	49.593	20.537	6.3277	4.7164e-06	21.59	384.695	279.174	370.488	181.688	354.396	229.523	181.305	187.119	242.136	511.454	185.881	191.549	189.924	196.135	434.793	195.915	-8191	255	
1510.195	1	1	0	0	0.037376	0.15917	0.26396	0.12769	0.37426	0.17142	0.19861	0.31102	0.26666	0.047108	0.16906	0.21354	0.3131	0.17465	0.1455	0.054599	-2.1896	-3.0042	-2.725	-2.6188	-2.9417	-2.7708	-3.0438	-3.0146	-2.8563	-3.0938	-2.9708	-2.7729	-3.0771	-2.8333	-3.0583	-2.9125	250.256	227.368	465.636	268.262	238.640	499.961	228.073	298.925	349.128	461.052	329.591	406.598	395.260	444.568	329.806	189.951	0.00071061	0.00053383	5.5726e-05	396.27	1.1959e-06	2.6354e-06	534.61	83.169	9.9412e-06	2.3599e-06	152.4	49.125	18.73	5.5541	2.3842e-06	20.865	0.00042579	0.0004298	0.00012064	419.47	4.752e-06	4.7107e-06	535.73	86.562	4.7764e-06	4.8393e-06	156.28	50.096	20.683	6.363	4.7133e-06	21.753	390.553	327.917	421.535	181.329	407.902	357.112	181.236	186.798	178.001	465.951	186.185	191.262	190.682	196.847	360.549	195.362	-8191	255	
1510.291	1	1	0	0	0.18759	0.012275	0.10805	0.16081	0.19089	0.090178	0.24509	0.034172	0.075821	0.33456	0.10784	0.039642	0.089141	0.36176	0.31517	0.11468	-2.2292	-3.1188	-2.6188	-2.8292	-3.0229	-2.775	-2.9125	-2.9125	-2.6562	-3.3125	-2.7313	-2.7208	-2.9583	-2.6854	-2.8438	-2.9562	211.818	176.543	270.228	506.861	524.007	443.196	491.166	397.230	368.482	309.196	488.186	521.220	279.918	178.941	471.440	250.286	0.00054911	0.00038468	0.00013568	395.83	4.4533e-07	1.3703e-06	539.14	82.944	4.9096e-06	3.9276e-06	151.63	48.465	18.782	5.482	5.6054e-06	20.933	0.00043688	0.0004377	0.00012282	420.02	4.7806e-06	4.8386e-06	538	86.717	4.686e-06	4.8026e-06	155.96	49.789	20.736	6.3095	4.8088e-06	21.617	393.080	212.906	376.368	181.730	363.531	315.022	181.150	186.830	268.556	341.028	186.226	190.977	190.288	195.741	259.868	195.557	-8191	255	
1510.387	1	1	0	0	0.17304	0.13584	0.17881	0.18364	0.096847	0.16242	0.10179	0.17324	0.089971	0.19406	0.040606	0.29395	0.15324	0.25303	0.30032	0.2265	-2.2313	-3.0771	-2.8125	-2.8542	-3.1625	-2.8083	-2.7229	-3.0938	-2.7458	-3.125	-2.925	-2.6167	-2.9938	-2.7604	-2.8083	-3.1104	186.568	319.608	316.419	373.245	294.900	382.631	443.622	527.634	401.906	383.536	193.445	347.044	327.450	180.030	523.375	497.404	0.00059886	5.7431e-05	4.3403e-05	393.94	2.5882e-06	5.5441e-06	535.21	83.189	3.8857e-06	4.5343e-06	150.69	48.437	18.658	5.5372	3.5084e-06	20.623	0.00043491	0.00043979	0.0001219	420.33	4.7945e-06	4.7979e-06	536.62	86.12	4.7181e-06	4.8265e-06	155.04	49.541	20.517	6.2818	4.8138e-06	21.351	395.971	282.798	314.497	181.700	387.561	364.045	181.392	186.760	237.930	399.256	185.772	191.156	190.660	195.716	526.946	195.476	-8191	255	
1510.508	1	1	0	0	0.053533	0.18035	0.20036	0.11677	0.27909	0.078822	0.031582	0.19074	0.38818	0.05062	0.21835	0.14041	0.18441	0.085525	0.032129	0.41496	-2.3479	-2.9646	-2.7583	-2.6917	-2.8042	-2.7854	-2.8	-3.0062	-2.625	-2.8438	-2.6792	-2.5729	-2.9521	-2.7979	-2.775	-3.0375	176.465	222.332	267.279	184.333	341.518	219.088	336.518	511.001	215.826	229.291	512.777	252.230	434.205	456.919	391.627	191.703	0.00064188	0.00042142	9.3353e-05	393.06	1.0481e-05	2.7663e-06	535.49	83.47	5.6305e-06	3.4546e-06	151.92	48.193	18.382	5.4137	3.1883e-06	20.675	0.00043688	0.00043795	0.00012074	418.32	4.7458e-06	4.772e-06	535.84	86.34	4.6768e-06	4.7136e-06	155	49.368	20.495	6.2684	4.7808e-06	21.456	381.815	366.112	298.534	182.206	249.042	348.701	181.433	186.746	248.835	514.362	185.551	190.951	190.823	195.724	489.220	196.010	-8191	255	
1510.604	1	1	0	0	0.2315	0.062003	0.085085	0.33362	0.17318	0.16864	0.21761	0.14894	0.29133	0.057193	0.039688	0.23945	0.044907	0.11542	0.25657	0.072162	-2.3354	-2.9167	-2.8187	-2.6208	-2.9208	-3.0396	-2.7104	-2.9854	-2.6354	-2.8208	-2.9188	-2.625	-3.0125	-2.8396	-2.7292	-3.0625	209.576	270.725	206.186	515.242	182.964	196.105	434.767	340.117	306.337	261.397	312.680	274.068	232.917	411.213	262.516	369.264	0.00050331	0.00027529	0.00015598	397.09	3.6364e-06	7.3126e-06	532.89	82.23	3.2968e-06	5.3343e-06	150.45	48.083	18.683	5.4945	8.8824e-06	20.569	0.00043454	0.00043499	0.00012097	419.37	4.734e-06	4.7406e-06	536.66	86.084	4.742e-06	4.7184e-06	154.9	49.638	20.561	6.2907	4.6946e-06	21.491	375.682	268.135	248.357	182.195	301.805	298.977	181.212	186.784	221.879	392.709	186.065	191.162	190.702	196.270	346.546	195.474	-8191	255	
1510.699	1	1	0	0	0.104	0.14421	0.14339	0.026929	0.061776	0.14669	0.30209	0.3208	0.15033	0.056763	0.19488	0.24289	0.16247	0.28729	0.20899	0.20959	-2.3583	-2.8167	-2.9146	-2.7042	-2.9375	-2.7771	-2.7854	-3.0312	-2.7417	-2.8458	-3.0646	-2.6292	-2.7583	-2.9188	-2.7021	-3.0875	313.616	322.716	526.191	366.538	514.554	439.927	170.686	424.511	255.300	502.824	183.569	486.845	253.668	489.527	372.349	510.822	0.00068781	0.00038817	0.00019411	392.91	4.0978e-06	3.7175e-06	534.48	83.829	6.8955e-06	3.2817e-06	152.3	48.42	18.691	5.607	6.6497e-06	20.812	0.00042971	0.00043475	0.00012048	418.82	4.7842e-06	4.7367e-06	535.23	86.494	4.6645e-06	4.7702e-06	155.81	49.846	20.67	6.3406	4.7358e-06	21.587	386.814	271.376	276.312	181.675	370.667	392.521	181.305	186.447	299.422	339.958	185.995	191.638	190.512	196.250	410.893	196.017	-8191	255	
1510.796	1	1	0	0	0.20655	0.07492	0.016639	0.14978	0.22327	0.06748	0.040511	0.030494	0.086915	0.15826	0.15012	0.17307	0.055688	0.29077	0.27213	0.091273	-2.2771	-2.7583	-2.925	-2.525	-2.9354	-3.0833	-2.8729	-3.0667	-2.7062	-2.7271	-3.3	-2.8708	-2.8333	-2.9208	-2.7208	-3.1083	416.367	314.484	405.423	360.978	269.112	424.732	212.455	499.107	369.768	169.486	243.673	386.047	407.371	190.894	232.022	244.938	0.00069579	0.00031885	0.00012602	391.57	3.9577e-06	6.2917e-06	535.43	82.678	2.5159e-06	6.3137e-06	151.29	47.835	18.44	5.4277	3.8012e-06	20.638	0.00043311	0.00043314	0.00012111	418.28	4.7622e-06	4.7509e-06	536.17	85.885	4.7005e-06	4.6667e-06	154.88	49.368	20.36	6.2635	4.6415e-06	21.361	368.615	332.414	318.020	181.984	240.044	279.975	181.404	186.807	335.649	399.142	185.974	190.919	192.091	196.338	398.422	195.373	-8191	255	
1510.915	1	1	0	0	0.40841	0.11673	0.14717	0.031156	0.083123	0.23552	0.11474	0.15476	0.25354	0.055238	0.11375	0.24885	0.24921	0.045934	0.22149	0.035963	-2.4708	-2.6688	-2.7875	-2.8042	-3.0417	-2.8375	-2.625	-3.0792	-2.6792	-2.7062	-3.0146	-2.7188	-2.7458	-3.0333	-2.9062	-3.0167	466.847	367.306	438.802	509.615	520.057	426.705	523.348	420.472	237.513	378.878	508.676	280.296	466.454	202.332	225.552	417.924	0.00065338	0.0002978	0.00011914	392.36	2.7273e-06	4.7355e-06	531.94	82.839	2.1597e-06	4.4411e-06	150.53	47.843	18.28	5.4908	5.5066e-06	20.497	0.00043136	0.00042578	0.00011927	417	4.6987e-06	4.7201e-06	533.61	85.867	4.6868e-06	4.7016e-06	154.98	49.263	20.352	6.2457	4.6956e-06	21.341	385.376	435.314	321.812	181.489	365.582	240.479	181.225	187.035	492.104	230.210	185.912	191.599	190.418	195.600	300.940	195.198	-8191	255	
1510.987	1	1	0	0	0.18687	0.25348	0.097476	0.18872	0.1764	0.31623	0.31559	0.19099	0.12099	0.23736	0.20178	0.17367	0.060046	0.14149	0.24178	0.11881	-2.3458	-2.7667	-3.025	-2.6333	-2.8167	-2.8083	-2.9396	-3.1188	-3.0938	-2.7458	-3.0333	-2.7771	-2.9021	-3.1208	-2.6208	-2.9875	503.486	169.900	421.277	416.663	523.328	309.992	445.201	409.481	261.592	240.723	183.687	175.666	462.953	230.214	517.275	319.228	0.00053555	0.00011229	5.9975e-06	390.98	1.6363e-06	5.5634e-06	534.11	82.561	1.5586e-06	4.3465e-06	151.8	48.227	18.367	5.433	3.3936e-06	20.659	0.00042972	0.00042882	0.00011952	415.91	4.7949e-06	4.6719e-06	534.97	86.11	4.7196e-06	4.742e-06	155.1	49.418	20.351	6.2363	4.6918e-06	21.453	388.004	364.393	207.799	181.443	308.463	297.858	181.229	186.543	215.293	181.189	185.804	190.875	191.284	196.181	442.655	195.412	-8191	255	
1511.083	1	1	0	0	0.17178	0.15249	0.26818	0.038671	0.090813	0.36075	0.046946	0.24161	0.19277	0.12231	0.047723	0.1391	0.26133	0.15905	0.19234	0.10754	-2.6271	-2.6521	-2.8958	-2.9583	-2.65	-2.9771	-2.7812	-3.0229	-3	-2.8812	-3.0208	-2.7833	-2.7583	-3.1083	-2.6229	-2.9062	410.504	215.541	507.774	377.884	176.644	513.012	218.865	330.756	487.641	458.905	202.575	205.250	185.836	510.803	202.437	441.760	0.00057771	0.0002862	8.8884e-05	395.04	1.5744e-06	3.7839e-06	532.62	83.113	5.3062e-07	7.168e-06	151.98	48.197	18.386	5.4605	6.5387e-06	20.808	0.00044267	0.0004357	0.00012184	417.46	4.8034e-06	4.75e-06	535.01	86.253	4.734e-06	4.7632e-06	155.38	49.552	20.507	6.2928	4.704e-06	21.563	384.037	476.098	493.659	180.844	184.506	324.680	181.640	186.206	471.512	257.066	185.868	190.706	190.484	196.734	275.892	195.493	-8191	255	
1511.179	1	1	0	0	0.16847	0.15132	0.09033	0.083168	0.089219	0.17217	0.11026	0.23816	0.14865	0.1663	0.057551	0.11543	0.031214	0.14562	0.20634	0.092028	-2.5521	-2.7729	-3.0521	-2.8396	-2.5979	-3.0104	-2.7625	-2.7833	-3.05	-2.6312	-2.9062	-2.9896	-2.7979	-3.0375	-2.7542	-2.7708	299.908	256.946	501.737	510.303	343.274	297.151	426.052	407.677	486.403	304.306	463.137	462.371	312.265	256.663	352.613	429.679	0.00060395	0.00045604	0.00011801	389.68	1.572e-06	2.0521e-06	535.44	83.099	6.0042e-06	4.4076e-06	151.34	48.619	18.51	5.5647	7.8824e-06	20.615	0.00043021	0.0004322	0.00012401	418.34	4.8661e-06	4.8255e-06	537.34	86.228	4.7244e-06	4.7636e-06	155.65	49.651	20.501	6.291	4.7043e-06	21.358	387.055	232.289	252.164	181.182	301.582	329.492	181.506	186.964	342.767	324.165	185.759	191.155	191.177	196.320	480.445	196.038	-8191	255	
1511.300	1	1	0	0	0.14857	0.074128	0.10726	0.34542	0.06194	0.11084	0.29258	0.10774	0.10799	0.21861	0.10326	0.13751	0.031041	0.10917	0.12766	0.13444	-2.6562	-2.6937	-2.8625	-2.9646	-2.7625	-3.0604	-2.8833	-2.775	-3.125	-2.8063	-2.9542	-3.0521	-2.5687	-3.0458	-2.7729	-2.7083	195.808	319.991	191.275	478.193	179.657	307.059	516.860	361.082	348.056	429.690	217.447	323.705	247.732	487.168	235.839	383.310	0.00059334	0.00039232	0.00018872	389.22	2.6939e-06	4.1566e-06	530.84	82.731	2.773e-06	3.6411e-06	150.6	47.478	18.226	5.3868	4.2665e-06	20.49	0.00043567	0.00043321	0.00012179	416.12	4.7835e-06	4.7613e-06	532.09	85.619	4.7288e-06	4.729e-06	153.81	48.951	20.278	6.1597	4.6972e-06	21.157	390.528	411.511	203.980	181.513	352.750	279.940	181.017	186.432	255.124	299.172	186.116	191.152	190.960	196.428	231.560	195.586	-8191	255	
1511.396	1	1	0	0	0.038711	0.12537	0.10001	0.17082	0.051685	0.088381	0.21611	0.12652	0.15149	0.15001	0.060848	0.2035	0.1254	0.33053	0.22277	0.3009	-2.5958	-2.6625	-2.7896	-3.1167	-2.7479	-3.1021	-2.9208	-2.7625	-2.9146	-2.7583	-2.7896	-2.95	-2.6125	-3.0583	-2.7812	-2.6042	320.538	402.181	412.587	290.379	301.336	413.997	283.944	185.204	511.434	211.433	287.817	221.251	416.750	243.135	319.846	284.576	0.0006446	0.00055482	6.7612e-05	392.14	2.4181e-06	1.8904e-06	532.43	82.003	4.5549e-06	9.0297e-06	148.98	47.868	18.527	5.3268	4.8387e-06	20.517	0.00043139	0.00042914	0.00012087	416.61	4.698e-06	4.7045e-06	532.04	85.101	4.6979e-06	4.685e-06	153.34	49.036	20.25	6.1519	4.6458e-06	21.169	382.086	251.391	285.081	181.610	504.232	500.045	181.241	186.491	334.206	287.495	185.711	191.504	190.981	196.720	265.440	195.629	-8191	255	
1511.492	1	1	0	0	0.10593	0.14346	0.13269	0.1188	0.30659	0.25872	0.16799	0.13861	0.12103	0.055859	0.15815	0.1419	0.077945	0.099049	0.31624	0.058207	-2.7458	-2.7687	-2.75	-3.1188	-2.6312	-2.9542	-3.0812	-2.6708	-2.8917	-2.7104	-2.9188	-2.9583	-2.8542	-2.9042	-2.7792	-2.6312	335.405	333.135	245.401	514.214	319.600	188.948	409.994	229.131	427.826	258.802	260.692	182.664	214.275	260.475	251.640	405.734	0.00062415	0.00073023	9.8678e-05	390.03	4.3262e-07	3.3297e-06	532	82.119	6.9223e-06	3.9099e-06	150.46	48.036	18.11	5.3872	2.0765e-06	20.605	0.00042701	0.00042545	0.00012032	415.05	4.6938e-06	4.7005e-06	532.14	85.321	4.7397e-06	4.7663e-06	154.43	49.063	20.159	6.2068	4.689e-06	21.286	377.970	503.830	267.654	181.979	494.248	521.929	181.453	186.575	298.601	261.897	186.372	191.281	190.786	196.326	314.070	195.607	-8191	255	
1511.588	1	1	0	0	0.23749	0.022949	0.14812	0.32391	0.04341	0.11281	0.32204	0.012855	0.27747	0.1339	0.1155	0.53648	0.1152	0.16974	0.32736	0.10084	-2.5917	-2.6021	-2.8958	-3.1854	-2.8063	-2.8375	-3.0583	-2.5729	-2.9938	-2.775	-2.7604	-2.8625	-2.7896	-2.7458	-2.7979	-2.7521	455.141	436.491	353.644	465.001	179.321	192.853	398.295	471.114	257.554	287.231	271.819	182.121	364.850	201.871	311.249	527.138	0.00048705	0.00012223	3.077e-05	390.45	8.3415e-07	2.1741e-06	531.94	82.011	3.0294e-06	3.219e-06	150.94	48.052	18.134	5.4659	1.0107e-06	20.768	0.00042739	0.00042978	0.00012054	415.42	4.6892e-06	4.7677e-06	533.11	85.348	4.6381e-06	4.7086e-06	154.79	49.248	20.242	6.2751	4.7178e-06	21.379	407.183	247.885	291.083	181.748	179.973	353.948	181.393	186.398	320.935	293.082	185.985	191.196	190.926	195.982	227.952	195.779	-8191	255	
1511.684	1	1	0	0	0.090671	0.1633	0.19305	0.23947	0.14802	0.045448	0.20051	0.1111	0.217	0.14018	0.082899	0.024511	0.27389	0.049508	0.18793	0.17351	-2.5792	-2.7583	-2.7396	-2.9854	-2.6167	-3.1063	-3.1542	-2.6854	-3.0146	-2.975	-2.6562	-3.1292	-2.8229	-2.7604	-2.9229	-2.8896	358.469	394.416	375.123	523.002	221.794	307.464	324.053	327.992	422.425	435.869	410.746	518.430	507.085	513.558	280.026	441.740	0.0006721	0.00044957	0.00010808	392.36	5.0075e-06	4.5303e-06	529.7	82.664	3.5089e-06	2.5626e-06	149.57	47.908	18.104	5.3418	9.7098e-07	20.447	0.00042767	0.00043366	0.00012008	417.1	4.7165e-06	4.7033e-06	530.29	85.304	4.6745e-06	4.6836e-06	153.54	48.999	20.211	6.1655	4.6603e-06	21.097	398.336	187.347	513.142	181.255	297.354	307.724	181.123	186.961	430.619	450.927	186.184	190.993	191.148	195.832	524.741	195.609	-8191	255	
1511.781	1	1	0	0	0.2807	0.10366	0.12051	0.30111	0.20124	0.18964	0.072592	0.22491	0.11647	0.088588	0.19732	0.057837	0.19744	0.12993	0.09519	0.22624	-2.4708	-3.0792	-2.6979	-2.9729	-2.8042	-2.7292	-2.9813	-2.6521	-3.0354	-2.8729	-2.5729	-2.9188	-2.7042	-2.7167	-2.9896	-2.7958	261.437	182.193	290.442	509.976	517.363	360.451	197.130	253.237	266.815	465.457	360.584	234.737	277.402	348.165	219.467	174.482	0.00069382	0.00047873	0.00011703	390.73	9.234e-07	5.9659e-06	529.71	81.266	7.4435e-06	5.4809e-07	150.49	47.585	18.384	5.3578	7.5754e-06	20.285	0.00042701	0.00043516	0.00011954	412.9	4.6845e-06	4.7529e-06	530.08	84.591	4.6283e-06	4.6601e-06	153.6	48.726	20.253	6.1465	4.6997e-06	21.042	370.515	320.466	316.899	182.010	459.498	282.311	181.345	186.512	299.435	440.231	185.715	190.939	191.065	196.176	350.367	195.182	-8191	255	
1511.877	1	1	0	0	0.20337	0.21556	0.15451	0.15369	0.088507	0.25933	0.068054	0.13979	0.05237	0.043776	0.22958	0.13711	0.15837	0.055446	0.093883	0.040246	-2.5792	-2.7667	-2.6375	-2.8896	-2.6271	-2.8458	-3.0958	-2.7062	-2.8104	-2.9979	-2.6583	-2.9875	-2.7208	-2.6521	-3.0792	-2.8083	243.883	401.564	271.085	363.795	322.309	415.465	487.847	254.958	286.989	228.409	490.548	420.686	343.923	217.099	240.636	199.455	0.00060044	0.00040097	5.2337e-05	389.13	2.5795e-06	3.317e-06	529.12	81.465	3.4891e-07	1.4062e-06	150.91	47.646	18.267	5.4068	6.2786e-06	20.521	0.00042719	0.00043311	0.00011927	413.65	4.6845e-06	4.6781e-06	530.65	84.904	4.7075e-06	4.755e-06	153.96	49.09	20.179	6.1731	4.638e-06	21.238	402.181	438.049	522.410	181.829	259.861	331.905	181.459	186.613	424.654	213.467	186.251	191.294	190.868	196.127	523.135	195.577	-8191	255	
1511.996	1	1	0	0	0.24199	0.074403	0.13748	0.1617	0.22472	0.10764	0.16923	0.051939	0.081686	0.13116	0.23592	0.16201	0.18935	0.10042	0.39415	0.24884	-2.3417	-3.0083	-2.6063	-2.7562	-2.8438	-2.8812	-2.9396	-2.8292	-2.6354	-3.0208	-2.4479	-2.8292	-2.7375	-2.6625	-2.9021	-2.7125	468.600	371.237	527.663	366.007	346.320	361.538	495.351	206.341	286.835	203.773	441.982	231.134	342.248	201.107	243.406	442.775	0.00079149	0.00033366	0.00011247	386.29	1.6336e-06	5.5192e-06	532.4	82.325	2.573e-06	1.4402e-06	150.6	48.367	18.393	5.4463	3.7072e-06	20.775	0.00043052	0.00042618	0.00011887	413.96	4.6954e-06	4.6882e-06	531.79	85.264	4.6871e-06	4.7141e-06	154.36	49.321	20.357	6.2509	4.7098e-06	21.482	390.943	420.638	417.119	181.787	204.352	394.600	180.954	186.171	265.822	374.332	186.106	191.639	191.008	196.388	492.786	195.413	-8191	255	
1512.092	1	1	0	0	0.1694	0.14769	0.054255	0.13541	0.044181	0.086791	0.29909	0.1283	0.1815	0.19104	0.11321	0.1406	0.11604	0.2124	0.17627	0.20974	-2.4313	-2.8604	-2.6167	-2.8458	-2.9229	-2.7062	-2.9583	-2.8604	-2.6583	-3.0896	-2.6083	-2.9562	-3.0229	-2.7167	-2.9396	-2.8958	492.366	501.207	242.951	225.361	452.409	178.034	444.716	427.212	358.698	497.327	493.623	492.242	198.690	415.230	391.599	522.640	0.00055377	0.00031694	6.4815e-05	389.23	1.6613e-06	1.8037e-06	531.21	82.759	2.6251e-06	2.6807e-06	150.86	47.97	18.371	5.4173	5.6818e-06	20.604	0.00042806	0.00043111	0.00011866	414.58	4.756e-06	4.7307e-06	533.11	85.614	4.6793e-06	4.6909e-06	154.98	49.348	20.294	6.2219	4.6916e-06	21.405	379.675	291.487	219.074	182.161	235.217	404.347	181.478	186.272	513.694	336.724	186.020	191.279	190.640	196.595	525.901	195.583	-8191	255	
1512.188	1	1	0	0	0.20004	0.10328	0.12809	0.22627	0.14534	0.066942	0.28241	0.010659	0.097617	0.21572	0.1662	0.23182	0.26559	0.041893	0.24394	0.24371	-2.3167	-3.0292	-2.7167	-2.975	-2.8917	-2.75	-3.0417	-2.7667	-2.6917	-3.1646	-2.6458	-2.7938	-2.925	-2.5979	-2.8812	-2.875	498.881	376.960	444.865	484.987	326.700	226.632	381.776	473.688	311.657	235.186	363.752	488.777	204.210	214.728	266.963	493.764	0.00080408	0.00044369	0.0001849	384.74	4.5081e-07	1.0422e-05	530.92	82.009	3.639e-06	4.6437e-06	149.05	47.824	18.337	5.3776	7.3465e-06	20.37	0.00042532	0.00042944	0.00011907	414.49	4.6824e-06	4.6344e-06	530.37	84.916	4.6148e-06	4.6737e-06	153.01	48.861	20.153	6.1479	4.601e-06	21.129	385.135	513.221	336.709	181.478	294.188	281.779	181.216	186.373	281.635	386.279	185.887	191.191	190.880	196.217	296.832	195.678	-8191	255	
1512.284	1	1	0	0	0.20349	0.090538	0.18916	0.12355	0.13	0.1812	0.076478	0.062428	0.10525	0.20633	0.30701	0.14674	0.034115	0.33139	0.10879	0.12524	-2.3312	-3.0375	-2.8396	-2.7854	-3.0687	-2.7083	-2.9354	-2.7417	-2.65	-3.0687	-2.8833	-2.7687	-3.1562	-2.7771	-3.1083	-3.0271	268.662	188.105	294.332	244.670	338.348	451.493	346.736	430.310	173.253	210.847	493.418	425.167	353.861	419.228	526.645	482.883	0.00057301	0.00016041	4.29e-05	390.35	3.3337e-06	2.9165e-06	531.26	81.597	4.2172e-06	1.685e-06	149.71	47.174	18.106	5.395	6.1718e-06	20.459	0.00041959	0.00042189	0.00011798	413.65	4.628e-06	4.6614e-06	530.23	84.619	4.6108e-06	4.6533e-06	153.41	48.778	20.069	6.1494	4.68e-06	21.144	395.803	176.596	232.616	181.465	382.032	449.829	181.317	186.423	293.735	217.006	186.167	191.664	190.757	196.145	288.367	195.670	-8191	255	
1512.380	1	1	0	0	0.11529	0.12464	0.15309	0.033485	0.087095	0.17784	0.25603	0.207	0.20776	0.19551	0.19901	0.039605	0.12667	0.25871	0.23499	0.36541	-2.1583	-3.0187	-2.6937	-2.7625	-3.1896	-2.6708	-2.9604	-2.9521	-2.6667	-3.2021	-2.8438	-2.775	-3.1271	-2.6104	-2.8875	-3.1	451.942	369.872	362.361	261.900	310.172	416.530	403.615	464.336	506.953	515.771	335.373	376.625	243.799	195.216	444.674	512.618	0.00072434	0.00028371	6.821e-05	387.67	3.3937e-06	3.2445e-06	530.42	81.697	6.1491e-06	4.4566e-06	150.26	47.518	18.065	5.4044	3.0515e-06	20.643	0.00042128	0.0004226	0.00011824	411.97	4.6458e-06	4.6617e-06	530.31	84.727	4.5929e-06	4.6474e-06	153.65	48.873	20.056	6.1609	4.6793e-06	21.329	373.875	364.185	315.027	182.352	512.516	502.332	181.238	186.692	189.295	335.053	186.235	191.050	190.839	195.644	193.566	195.791	-8191	255	
1512.476	1	1	0	0	0.2114	0.077035	0.11489	0.27494	0.050803	0.016299	0.21134	0.15867	0.20809	0.0084778	0.1205	0.161	0.21703	0.10631	0.13499	0.31571	-2.3604	-3.025	-3.0208	-2.6	-2.8646	-2.8667	-2.9271	-3.0208	-2.65	-2.9083	-2.8875	-2.6146	-2.9813	-2.7417	-3.0667	-3.0292	292.680	313.709	438.480	466.890	303.847	196.247	235.488	392.248	352.928	358.319	243.076	500.069	281.842	181.106	355.644	381.760	0.00066372	0.00053054	0.00013007	388.15	2.8923e-06	3.9606e-06	528.64	81.882	7.6804e-06	2.3598e-06	149.65	48.021	18.15	5.3873	2.8784e-06	20.667	0.00042065	0.00043084	0.00011931	413.98	4.6871e-06	4.6989e-06	530.18	84.877	4.6836e-06	4.7307e-06	153.69	49.267	20.17	6.1915	4.7527e-06	21.273	370.655	279.922	270.943	182.015	314.554	308.951	181.462	186.397	230.436	233.671	185.840	191.549	190.723	197.009	503.233	195.742	-8191	255	
1512.597	1	1	0	0	0.11085	0.15294	0.17198	0.20984	0.16983	0.3185	0.071765	0.20262	0.16826	0.19236	0.11439	0.055713	0.14787	0.082843	0.21053	0.15931	-2.2562	-3.0271	-2.9042	-2.7208	-2.9667	-2.8583	-2.8292	-3.0042	-2.6729	-2.8375	-2.9333	-2.7458	-2.9833	-2.7542	-2.7875	-3.0146	484.649	277.264	485.875	420.363	480.615	302.564	289.705	432.930	475.874	439.896	415.323	285.800	524.510	345.986	266.762	523.607	0.00049267	0.00025541	0.0001654	390.83	1.8842e-07	6.8096e-06	530.25	81.372	5.6685e-06	3.6897e-06	148.63	47.392	18.134	5.3078	3.724e-06	20.223	0.00043044	0.00043411	0.00011849	412.69	4.6686e-06	4.6665e-06	528.51	84.669	4.6185e-06	4.713e-06	152.51	48.53	20.013	6.0755	4.5832e-06	20.863	380.411	199.419	207.630	182.109	480.381	221.346	181.098	186.600	271.512	300.066	185.906	191.257	190.553	195.669	299.452	195.727	-8191	255	
1512.691	1	1	0	0	0.20991	0.14083	0.17468	0.29944	0.22328	0.017188	0.17892	0.085554	0.099449	0.34384	0.20356	0.20987	0.066693	0.031068	0.23457	0.11583	-2.3729	-2.9333	-2.9542	-2.6562	-2.9688	-2.8792	-2.8854	-2.9104	-2.7	-2.9125	-2.9958	-2.7521	-2.9	-2.75	-2.5667	-3.1521	227.546	313.122	297.109	434.240	380.424	287.326	474.744	443.442	393.518	312.070	455.947	445.916	437.681	335.124	386.920	364.559	0.00066593	0.00033494	0.00010716	386.25	2.3739e-06	5.6081e-06	526.18	80.921	3.4256e-06	6.774e-06	148.55	46.62	17.841	5.242	5.5637e-06	20.144	0.0004146	0.00042296	0.00011739	411.61	4.6454e-06	4.6154e-06	527.29	83.85	4.5775e-06	4.6183e-06	151.75	48.173	19.94	6.0371	4.57e-06	20.841	382.585	490.454	371.938	181.396	380.087	336.329	181.445	186.774	352.596	347.466	185.839	191.214	190.401	196.374	373.584	195.410	-8191	255	
1512.788	1	1	0	0	0.20088	0.062629	0.081627	0.1458	0.098285	0.10673	0.26053	0.13342	0.045853	0.056165	0.28081	0.15118	0.059698	0.0045613	0.19966	0.23152	-2.35	-2.775	-2.9792	-2.6417	-3.0958	-2.8521	-2.7625	-3.0229	-2.7229	-2.8042	-3.0021	-2.6958	-2.8833	-2.8937	-2.775	-3.0292	260.427	323.894	430.453	421.709	523.243	174.482	459.189	187.745	329.066	254.865	331.321	496.970	246.974	232.092	206.957	216.487	0.00056146	0.0004301	0.00010148	386.67	1.3549e-06	4.1568e-06	527.1	81.41	8.5801e-06	3.0012e-06	150.3	46.955	17.921	5.3175	1.12e-06	20.163	0.00041629	0.00042004	0.00011599	411.1	4.5784e-06	4.5947e-06	526.6	84.376	4.6177e-06	4.5962e-06	152.65	48.442	19.798	6.0824	4.5527e-06	20.958	395.002	191.460	224.581	181.267	345.977	314.072	181.289	186.381	318.631	364.772	185.941	190.986	190.499	197.141	418.785	195.746	-8191	255	
1512.861	1	1	0	0	0.24937	0.15718	0.1005	0.19908	0.074683	0.12589	0.1567	0.23149	0.13783	0.23981	0.01254	0.15772	0.055026	0.097223	0.08119	0.14842	-2.1125	-2.775	-3.0208	-2.5312	-3.0208	-2.975	-2.5396	-2.7417	-2.8083	-2.8187	-3.1063	-2.9	-2.8688	-2.8021	-2.8771	-3.2979	451.902	329.909	463.923	494.564	399.892	512.312	389.909	432.092	280.642	264.866	202.046	276.918	450.740	496.871	255.291	444.961	0.0005589	0.00039282	7.909e-05	385.52	4.1212e-06	4.2456e-06	529.82	82.198	9.5714e-06	1.3382e-06	149.39	47.588	18.27	5.3251	4.7963e-06	20.465	0.00041772	0.00042283	0.0001167	410.66	4.5962e-06	4.5621e-06	528.95	84.769	4.5472e-06	4.5399e-06	153.36	48.816	20.048	6.1344	4.5153e-06	21.255	379.622	237.762	275.336	181.175	314.907	290.769	181.338	186.414	281.979	328.106	185.958	191.406	190.961	196.065	288.950	195.913	-8191	255	
1512.980	1	1	0	0	0.21975	0.12752	0.018716	0.016364	0.072262	0.32541	0.085216	0.202	0.12494	0.062116	0.04081	0.16662	0.19668	0.044041	0.21264	0.36179	-2.1417	-2.7104	-2.95	-2.6437	-2.7604	-3.0917	-2.7292	-3	-2.8438	-2.7042	-3.1479	-2.7042	-2.825	-3.0521	-2.6979	-2.8542	260.989	436.826	297.109	394.852	225.732	201.797	522.467	175.355	303.891	388.443	445.744	430.065	514.612	191.988	239.589	475.939	0.00069022	0.00035193	7.6365e-05	387.16	3.177e-06	2.8197e-06	528.77	81.829	2.4736e-06	2.6e-06	149.52	47.873	18.145	5.3918	2.1195e-06	20.514	0.00042407	0.00041623	0.00011639	412.84	4.604e-06	4.6535e-06	530.38	84.821	4.5244e-06	4.5648e-06	153.66	48.968	20.027	6.165	4.498e-06	21.225	388.301	313.096	386.789	181.394	315.872	476.369	181.272	186.820	226.218	450.641	186.074	191.349	191.041	196.439	364.353	195.985	-8191	255	
1513.076	1	1	0	0	0.38388	0.085585	0.067497	0.18871	0.067727	0.23915	0.24745	0.129	0.1482	0.24699	0.28603	0.26515	0.2009	0.12052	0.18465	0.25408	-2.3417	-2.7854	-3	-2.6104	-2.7917	-3.0563	-2.7896	-2.9	-2.9604	-2.7083	-3.0021	-2.7375	-2.7188	-2.9708	-2.8771	-2.9396	307.018	416.611	470.769	290.057	417.937	180.186	416.693	483.568	422.340	453.812	320.530	492.321	216.486	243.738	471.946	464.998	0.00081554	0.00036653	0.00022659	385.75	5.0802e-06	4.5593e-06	529.36	81.115	3.1138e-06	9.5654e-07	149.53	47.514	17.967	5.3453	1.4757e-06	20.293	0.00041269	0.00040944	0.00011509	409.52	4.5498e-06	4.4856e-06	529.45	84.588	4.539e-06	4.5329e-06	152.85	48.699	19.917	6.0953	4.518e-06	21.048	385.801	365.243	316.145	181.999	452.261	363.682	180.916	186.443	495.516	358.535	186.474	190.959	190.806	196.134	259.683	195.647	-8191	255	
1513.172	1	1	0	0	0.18074	0.11697	0.070333	0.11405	0.1294	0.15069	0.21097	0.12432	0.2736	0.10429	0.16884	0.17612	0.071995	0.1825	0.19256	0.11108	-2.6292	-2.6271	-2.9604	-2.8688	-2.3729	-3.0125	-2.675	-3.0021	-2.8187	-2.6937	-2.9604	-2.8312	-2.4792	-2.9938	-2.6708	-2.7313	322.244	303.684	492.827	476.601	222.460	242.408	390.601	444.215	414.425	489.945	501.851	238.705	358.333	419.416	429.472	381.503	0.00070047	0.00037359	0.00010616	387.78	3.2137e-06	3.3064e-06	531.54	81.569	2.9229e-06	5.3619e-06	149.86	47.65	17.899	5.3388	2.6102e-06	20.348	0.00041098	0.00041302	0.0001165	410.96	4.5878e-06	4.5428e-06	529.21	84.452	4.5515e-06	4.5385e-06	153.29	48.661	19.935	6.1079	4.5969e-06	21.083	384.882	207.398	324.833	181.554	255.558	366.225	181.462	186.693	424.400	307.656	186.043	191.404	190.201	196.067	247.981	195.353	-8191	255	
1513.268	1	1	0	0	0.13884	0.12805	0.18135	0.12844	0.17857	0.15823	0.14989	0.20141	0.19102	0.075888	0.092078	0.17015	0.077299	0.077312	0.12235	0.097616	-2.5854	-2.5479	-2.8729	-3.0187	-2.5938	-2.9583	-2.8438	-2.7979	-2.9229	-2.575	-2.8833	-2.8583	-2.6604	-2.7938	-2.7917	-2.9688	499.377	199.811	425.012	328.959	275.136	180.802	482.807	496.452	346.625	206.065	290.655	297.868	419.770	427.700	387.331	439.269	0.00035061	0.00053565	2.605e-05	391.82	6.8175e-06	6.1436e-06	532.62	81.309	1.0856e-05	3.0495e-06	149.78	47.974	18.061	5.3676	2.1747e-06	20.629	0.00040991	0.00041306	0.00011737	412.93	4.5783e-06	4.528e-06	529.28	84.499	4.5448e-06	4.4791e-06	153.35	48.93	19.995	6.1373	4.5878e-06	21.272	344.932	238.862	374.658	181.424	327.635	348.980	181.247	185.999	337.574	346.770	186.108	191.415	190.988	196.367	298.830	195.617	-8191	255	
1513.387	1	1	0	0	0.019514	0.084977	0.16911	0.17846	0.10601	0.040839	0.21314	0.073752	0.13398	0.058543	0.038669	0.16595	0.15881	0.22667	0.15932	0.16559	-2.3583	-2.7625	-3.0021	-2.9188	-2.6333	-3.0563	-2.7958	-2.8542	-3.0458	-2.6125	-3.0208	-2.9167	-2.775	-2.9062	-2.8458	-2.6667	222.180	272.946	320.505	330.375	343.255	316.072	503.300	253.504	456.641	227.239	429.471	297.999	260.890	493.445	213.614	516.818	0.00061235	0.0001792	0.00014368	389.51	4.7196e-06	3.124e-06	531.66	81.265	5.4881e-06	4.3506e-06	150.88	48.301	18.154	5.3763	5.3323e-06	20.874	0.00041353	0.00041386	0.00011788	412.52	4.498e-06	4.5387e-06	530.38	84.583	4.5446e-06	4.5418e-06	153.79	49.321	20.089	6.1981	4.5779e-06	21.428	391.752	304.841	198.485	181.415	317.803	460.176	181.273	186.602	234.497	270.422	185.966	191.081	191.383	197.021	230.889	195.630	-8191	255	
1513.459	1	1	0	0	0.21903	0.090745	0.28926	0.077695	0.14147	0.20941	0.19155	0.4383	0.24527	0.34656	0.08817	0.12385	0.1818	0.29839	0.24843	0.16094	-2.6604	-2.6833	-2.7958	-2.8625	-2.6458	-3.0979	-2.8042	-2.5417	-2.8896	-2.6625	-2.6188	-2.9083	-2.675	-2.8958	-2.7292	-2.55	253.414	392.737	397.825	354.699	445.934	460.834	266.720	497.523	222.373	522.758	338.550	400.202	183.982	396.625	249.711	478.200	0.00052532	0.00067069	8.722e-05	387.58	4.2126e-06	6.5332e-06	533.66	81.112	1.4597e-06	4.6667e-06	148.7	47.527	17.942	5.4329	3.7965e-06	20.337	0.00041281	0.00041588	0.00011605	411.29	4.5573e-06	4.6112e-06	530.47	84.393	4.495e-06	4.5307e-06	152.9	48.747	19.909	6.1243	4.4975e-06	20.964	379.530	236.478	265.616	181.783	316.875	488.226	181.356	186.849	336.094	375.525	185.861	191.237	190.883	196.309	275.826	195.286	-8191	255	
1513.555	1	1	0	0	0.33379	0.10675	0.23033	0.34034	0.28329	0.27226	0.087698	0.29646	0.32241	0.12237	0.20135	0.11297	0.10282	0.19933	0.19876	0.022112	-2.6188	-2.7562	-2.9083	-2.875	-2.7667	-3.0271	-2.9333	-2.7333	-2.9792	-2.8125	-2.8833	-3.0708	-2.5479	-2.9708	-2.8625	-2.5542	191.954	287.870	261.211	452.629	344.956	342.203	482.744	283.474	437.862	317.133	303.780	478.800	211.965	452.842	444.614	431.512	0.00042384	0.00021195	0.00015883	387.14	2.1352e-06	3.6188e-06	526.87	81.572	3.6578e-06	1.9087e-06	150.5	47.699	17.917	5.3299	5.6543e-06	20.339	0.00040796	0.00041471	0.00011527	408.71	4.5212e-06	4.4893e-06	527.91	84.16	4.4909e-06	4.5218e-06	153.07	48.64	19.8	6.0842	4.4473e-06	20.997	381.372	266.722	268.924	181.935	283.019	287.591	181.142	186.482	416.554	226.694	185.942	191.159	190.828	196.312	285.658	195.906	-8191	255	
#DATA ENDS
