BOXY.EXE: ISS Imagent and Oximeter Data Acquisition Program Version 0.80
Ascii Record File

#ACQ INFORMATION
2  Detector Channels 
16  External MUX Channels 
1  Auxiliary Channels 
5000  Waveform (CCF) Frequency (Hz)
1  Waveforms Skipped 
30  Waveforms Averaged 
1  Cycles Averaged 
16  Acquisitions per Waveform 
10.0806  Updata Rate (Hz) 

#FILE INFORMATION
TRUE -- External MUX Channel results are PARSED.
FALSE -- AC DC and Phase are NOT grouped.
TRUE -- Companion Program Settings File CREATED.
FALSE -- AC data not excluded
FALSE -- DC data not excluded
FALSE -- Phase data not excluded
FALSE -- Auxillary Chn. data not excluded
Tab delimiters

#CALIBRATION STATE
TRUE -- Waveform Calibration Values APPLIED.


#AUX CALIBRATION VALUES
Val Type	aux-1	

Term	1.0000e+00	
Factor	0.0000e+00	


#WF CALIBRATION VALUES
A = Detector Channel
Val Type	A-AC1	A-AC2	A-AC3	A-AC4	A-AC5	A-AC6	A-AC7	A-AC8	A-AC9	A-AC10	A-AC11	A-AC12	A-AC13	A-AC14	A-AC15	A-AC16	A-DC1	A-DC2	A-DC3	A-DC4	A-DC5	A-DC6	A-DC7	A-DC8	A-DC9	A-DC10	A-DC11	A-DC12	A-DC13	A-DC14	A-DC15	A-DC16	A-Ph1	A-Ph2	A-Ph3	A-Ph4	A-Ph5	A-Ph6	A-Ph7	A-Ph8	A-Ph9	A-Ph10	A-Ph11	A-Ph12	A-Ph13	A-Ph14	A-Ph15	A-Ph16	

Term	0.00000e+00	0.00000e+00	0.00000e+00	0.00000e+00	0.00000e+00	0.00000e+00	0.00000e+00	0.00000e+00	0.00000e+00	0.00000e+00	0.00000e+00	0.00000e+00	0.00000e+00	0.00000e+00	0.00000e+00	0.00000e+00	0.00000e+00	0.00000e+00	0.00000e+00	0.00000e+00	0.00000e+00	0.00000e+00	0.00000e+00	0.00000e+00	0.00000e+00	0.00000e+00	0.00000e+00	0.00000e+00	0.00000e+00	0.00000e+00	0.00000e+00	0.00000e+00	0.00000e+00	0.00000e+00	0.00000e+00	0.00000e+00	0.00000e+00	0.00000e+00	0.00000e+00	0.00000e+00	0.00000e+00	0.00000e+00	0.00000e+00	0.00000e+00	0.00000e+00	0.00000e+00	0.00000e+00	0.00000e+00	
Factor	1.00000e+00	1.00000e+00	1.00000e+00	1.00000e+00	1.00000e+00	1.00000e+00	1.00000e+00	1.00000e+00	1.00000e+00	1.00000e+00	1.00000e+00	1.00000e+00	1.00000e+00	1.00000e+00	1.00000e+00	1.00000e+00	1.00000e+00	1.00000e+00	1.00000e+00	1.00000e+00	1.00000e+00	1.00000e+00	1.00000e+00	1.00000e+00	1.00000e+00	1.00000e+00	1.00000e+00	1.00000e+00	1.00000e+00	1.00000e+00	1.00000e+00	1.00000e+00	X	X	X	X	X	X	X	X	X	X	X	X	X	X	X	X	

B = Detector Channel
Val Type	B-AC1	B-AC2	B-AC3	B-AC4	B-AC5	B-AC6	B-AC7	B-AC8	B-AC9	B-AC10	B-AC11	B-AC12	B-AC13	B-AC14	B-AC15	B-AC16	B-DC1	B-DC2	B-DC3	B-DC4	B-DC5	B-DC6	B-DC7	B-DC8	B-DC9	B-DC10	B-DC11	B-DC12	B-DC13	B-DC14	B-DC15	B-DC16	B-Ph1	B-Ph2	B-Ph3	B-Ph4	B-Ph5	B-Ph6	B-Ph7	B-Ph8	B-Ph9	B-Ph10	B-Ph11	B-Ph12	B-Ph13	B-Ph14	B-Ph15	B-Ph16	

Term	0.00000e+00	0.00000e+00	0.00000e+00	0.00000e+00	0.00000e+00	0.00000e+00	0.00000e+00	0.00000e+00	0.00000e+00	0.00000e+00	0.00000e+00	0.00000e+00	0.00000e+00	0.00000e+00	0.00000e+00	0.00000e+00	0.00000e+00	0.00000e+00	0.00000e+00	0.00000e+00	0.00000e+00	0.00000e+00	0.00000e+00	0.00000e+00	0.00000e+00	0.00000e+00	0.00000e+00	0.00000e+00	0.00000e+00	0.00000e+00	0.00000e+00	0.00000e+00	5.86857e+01	-1.40275e+02	-1.27777e+02	-1.81956e+02	-7.36887e+01	-5.69442e+01	-1.56028e+02	-1.62015e+02	-8.09294e+01	-6.35191e+01	-1.71357e+02	-1.71405e+02	-1.82318e+02	-1.76945e+02	-7.95853e+01	-1.50279e+02	
Factor	5.16763e-05	1.33635e-04	4.06010e-05	4.21718e-01	1.38256e-06	1.58296e-06	1.58406e-01	5.39367e-02	1.66385e-06	1.37896e-06	8.47905e-02	2.81246e-02	2.35851e-02	8.08168e-03	1.69326e-06	1.20261e-02	1.73923e-06	1.81185e-06	5.05000e-07	2.07507e-01	1.98338e-08	1.98293e-08	7.56450e-02	2.72911e-02	1.96927e-08	1.98476e-08	4.12586e-02	1.36837e-02	1.19586e-02	4.10842e-03	1.97406e-08	5.88837e-03	X	X	X	X	X	X	X	X	X	X	X	X	X	X	X	X	



#DISTANCE SETTINGS
A = Detector Channel
A-1	A-2	A-3	A-4	A-5	A-6	A-7	A-8	A-9	A-10	A-11	A-12	A-13	A-14	A-15	A-16	

2.5000e+00	3.0000e+00	2.5000e+00	3.0000e+00	2.0000e+00	3.0000e+00	1.5000e+00	3.0000e+00	3.0000e+00	3.0000e+00	3.0000e+00	3.0000e+00	3.0000e+00	3.0000e+00	1.5000e+00	3.0000e+00	

B = Detector Channel
B-1	B-2	B-3	B-4	B-5	B-6	B-7	B-8	B-9	B-10	B-11	B-12	B-13	B-14	B-15	B-16	

1.0000e+01	1.0000e+01	1.0000e+01	1.4400e+00	1.0000e+01	1.0000e+01	1.5100e+00	1.9400e+00	1.0000e+01	1.0000e+01	1.9900e+00	2.4900e+00	2.4100e+00	2.9000e+00	1.0000e+01	2.9800e+00	




#DATA BEGINS
time	group	step	mark	flag	A-AC1	A-AC2	A-AC3	A-AC4	A-AC5	A-AC6	A-AC7	A-AC8	A-AC9	A-AC10	A-AC11	A-AC12	A-AC13	A-AC14	A-AC15	A-AC16	A-DC1	A-DC2	A-DC3	A-DC4	A-DC5	A-DC6	A-DC7	A-DC8	A-DC9	A-DC10	A-DC11	A-DC12	A-DC13	A-DC14	A-DC15	A-DC16	A-Ph1	A-Ph2	A-Ph3	A-Ph4	A-Ph5	A-Ph6	A-Ph7	A-Ph8	A-Ph9	A-Ph10	A-Ph11	A-Ph12	A-Ph13	A-Ph14	A-Ph15	A-Ph16	B-AC1	B-AC2	B-AC3	B-AC4	B-AC5	B-AC6	B-AC7	B-AC8	B-AC9	B-AC10	B-AC11	B-AC12	B-AC13	B-AC14	B-AC15	B-AC16	B-DC1	B-DC2	B-DC3	B-DC4	B-DC5	B-DC6	B-DC7	B-DC8	B-DC9	B-DC10	B-DC11	B-DC12	B-DC13	B-DC14	B-DC15	B-DC16	B-Ph1	B-Ph2	B-Ph3	B-Ph4	B-Ph5	B-Ph6	B-Ph7	B-Ph8	B-Ph9	B-Ph10	B-Ph11	B-Ph12	B-Ph13	B-Ph14	B-Ph15	B-Ph16	aux-1	digaux	

840.937	1	1	0	256	0.23143	0.079151	0.15258	0.12574	0.17663	0.15942	0.21867	0.4007	0.25568	0.062866	0.041601	0.056773	0.098147	0.23731	0.2741	0.22799	-2.4708	-2.7271	-2.9375	-2.7292	-2.8896	-2.9854	-2.7521	-3.0667	-2.8625	-2.675	-3.3438	-2.9958	-2.8583	-3.0833	-2.7646	-3.2562	121.095	199.460	328.900	115.668	84.121	290.868	323.673	290.652	46.031	191.731	98.616	42.407	293.467	330.044	-8.197	256.988	0.00035647	0.00027572	0.00011859	1253.8	2.079e-06	1.6472e-06	1317.6	264.65	4.541e-06	2.4492e-06	326.99	92.352	72.712	21.492	2.5686e-06	29.643	0.00011369	0.00010319	2.8349e-05	1187.9	1.1324e-06	1.1142e-06	1283.3	259.05	1.1629e-06	1.0924e-06	319.28	90.782	71.248	21.294	1.1158e-06	29.493	326.122	65.425	64.882	-12.424	38.999	103.061	-12.608	-5.450	114.779	117.850	-5.907	0.917	1.337	7.001	143.426	7.298	-8191	255	
841.033	1	1	0	0	0.23113	0.31397	0.20206	0.33779	0.10135	0.33113	0.082446	0.090418	0.22425	0.19897	0.18766	0.22105	0.19128	0.20187	0.19865	0.13002	-2.6646	-2.7708	-2.9104	-3.0208	-2.9	-3.0229	-2.9771	-3.1312	-3.1958	-2.8438	-3.3042	-2.8083	-2.7417	-3.0708	-2.9042	-3.1458	239.768	111.500	187.866	215.620	334.034	-15.243	125.064	229.296	13.290	31.678	246.849	325.144	301.488	295.421	26.634	121.560	0.00035016	0.0002946	8.0591e-05	1245.1	1.9487e-06	2.7617e-06	1318.5	264.56	2.571e-06	4.3189e-06	329.28	92.868	72.831	21.457	4.1646e-06	29.709	0.00011128	0.00010163	2.876e-05	1186.7	1.1203e-06	1.1338e-06	1285.8	258.85	1.1528e-06	1.0788e-06	319.36	90.974	71.303	21.353	1.1007e-06	29.468	318.864	32.387	46.493	-12.689	140.854	122.691	-12.580	-5.487	100.165	114.273	-5.849	0.746	1.063	7.431	177.054	6.893	-8191	255	
841.127	1	1	0	0	0.30531	0.11984	0.062451	0.30738	0.13625	0.17598	0.14124	0.29454	0.12585	0.075013	0.26463	0.2338	0.22676	0.13287	0.099574	0.21859	-2.5521	-2.5042	-3.0125	-3.0104	-2.9708	-3.05	-2.8979	-2.9708	-2.875	-2.7479	-2.85	-2.8125	-2.6188	-2.8396	-2.8625	-2.95	87.618	218.649	54.901	229.683	-18.338	330.974	269.133	264.285	72.786	-11.178	299.825	223.615	73.558	71.304	233.319	41.393	0.00037793	0.00038241	0.0001405	1255.2	4.0027e-06	2.5327e-06	1321.1	263.83	2.9863e-06	3.8177e-06	327.77	92.415	72.335	21.543	3.4697e-06	29.83	0.00011096	0.00010232	2.7493e-05	1188.7	1.1015e-06	1.0809e-06	1286.4	258.87	1.0872e-06	1.0663e-06	319.06	91.033	71.153	21.367	1.0677e-06	29.462	321.941	48.250	76.339	-12.493	143.103	136.862	-12.706	-5.367	92.544	100.917	-5.997	0.688	1.022	7.418	112.305	6.453	-8191	255	
841.224	1	1	0	0	0.14134	0.016868	0.16686	0.13124	0.11046	0.10972	0.074833	0.14364	0.10503	0.04821	0.27926	0.24086	0.075702	0.089437	0.072293	0.18163	-2.6542	-2.5979	-2.9625	-2.8812	-2.6521	-3.1813	-3.1333	-2.8167	-3.1333	-2.6521	-3.1042	-3.0583	-2.85	-2.9125	-2.7875	-2.7188	271.656	189.381	336.424	-0.583	80.896	0.374	201.949	179.840	62.623	287.600	333.202	254.728	303.185	195.857	120.612	285.568	0.00037238	0.00032835	4.179e-05	1253.1	3.0382e-06	4.4358e-06	1318.1	264.83	3.9652e-06	2.3449e-06	328.34	93.164	72.788	21.625	6.5198e-06	29.979	0.00010571	9.4797e-05	2.7187e-05	1187.9	1.0368e-06	1.0395e-06	1282.3	258.79	1.0547e-06	1.0262e-06	319.53	91.11	71.219	21.434	1.0352e-06	29.625	316.522	29.073	49.840	-12.854	145.922	164.057	-12.624	-5.423	177.827	74.655	-5.817	0.747	1.224	7.279	149.844	7.327	-8191	255	
841.344	1	1	0	0	0.12911	0.072029	0.10429	0.15752	0.21368	0.076348	0.25605	0.15219	0.083368	0.18501	0.24771	0.15621	0.2027	0.16473	0.21143	0.25532	-2.5708	-2.7313	-3.0208	-2.8896	-2.7354	-2.975	-3.1333	-2.9292	-3.1229	-2.8312	-3.0312	-2.9562	-2.7521	-3.2188	-2.8667	-2.6625	205.903	-19.109	-3.016	4.359	178.572	156.994	310.234	262.802	331.550	297.665	292.932	41.203	329.781	302.752	37.781	322.869	0.00050463	0.00025678	0.00011808	1242.7	3.4414e-06	2.861e-06	1324.4	263.43	4.5971e-06	2.6344e-06	327.78	92.804	72.825	21.66	5.9521e-06	30.271	0.0001053	9.2767e-05	2.5958e-05	1186.5	1.0514e-06	1.0327e-06	1285.6	259.29	1.0509e-06	1.0143e-06	319.01	91.348	71.754	21.505	1.0402e-06	29.827	322.890	51.597	61.294	-12.851	149.728	170.940	-12.378	-5.435	112.259	145.451	-5.827	0.565	1.286	7.032	152.343	6.630	-8191	255	
841.440	1	1	0	0	0.16095	0.092981	0.24319	0.24293	0.1563	0.38928	0.20219	0.20051	0.20257	0.22599	0.28229	0.21493	0.078581	0.20675	0.098524	0.14296	-2.5708	-2.7833	-3.0833	-3.0521	-2.6104	-3.2667	-3.1667	-2.8521	-2.925	-2.6208	-2.9437	-3.2354	-2.8063	-2.9771	-2.8896	-2.5979	140.846	318.261	234.387	-20.458	190.418	315.281	299.772	241.916	336.409	328.780	333.800	325.852	141.717	164.599	82.873	278.948	0.00037615	0.00028955	0.00012969	1252.7	3.823e-06	3.7721e-06	1327.9	266.46	2.3818e-06	2.0385e-06	331.06	93.814	73.602	22.064	4.0737e-06	30.268	0.00010426	9.2223e-05	2.6598e-05	1192.6	1.0591e-06	1.0366e-06	1292.3	260.49	1.0721e-06	1.0167e-06	321.65	92.07	72.175	21.839	1.0633e-06	29.992	310.278	75.124	30.853	-12.729	133.293	164.036	-12.488	-5.446	146.527	82.673	-5.790	0.969	1.052	6.767	127.902	6.412	-8191	255	
841.512	1	1	0	0	0.3227	0.2094	0.12717	0.05802	0.085205	0.18105	0.0708	0.077022	0.092373	0.14467	0.1852	0.088842	0.45234	0.14899	0.12447	0.080481	-2.4625	-2.7771	-2.7375	-3.0792	-2.6146	-3.1146	-3.1854	-2.6146	-3.1083	-3.1104	-2.9062	-3.0563	-2.8167	-3.0563	-3.0542	-2.8208	56.558	85.897	168.023	114.994	167.492	285.050	42.700	165.039	121.272	280.138	277.968	95.577	300.095	63.247	124.572	-0.015	0.00044154	0.00046528	4.0317e-05	1267.8	4.7216e-06	3.7488e-06	1327.3	267.34	5.3424e-06	3.076e-06	330	94.445	73.707	22.121	4.1948e-06	30.349	0.00010648	9.8704e-05	2.7826e-05	1200.9	1.099e-06	1.0447e-06	1295.5	261.47	1.1305e-06	1.0775e-06	322.63	92.547	72.446	22.007	1.1675e-06	30.128	307.659	50.575	16.831	-12.719	115.897	142.127	-12.641	-5.576	132.235	121.143	-6.075	0.788	0.991	6.824	150.319	6.613	-8191	255	
841.633	1	1	0	0	0.12226	0.24128	0.12302	0.20264	0.28088	0.060243	0.26149	0.14991	0.055882	0.20112	0.19005	0.23185	0.078278	0.030489	0.020665	0.23556	-2.6875	-2.7729	-2.9354	-2.9583	-2.8812	-3.1292	-3.2062	-2.75	-3.0833	-2.825	-2.9271	-3.1021	-2.9062	-3.1375	-3.0125	-2.7125	317.347	98.946	214.959	232.106	-4.025	40.559	276.735	184.342	11.079	245.470	32.979	279.106	7.402	12.209	233.692	303.702	0.00039585	0.00040787	0.00011665	1263.8	2.9591e-06	1.9879e-06	1331.2	268.54	5.6091e-06	2.9088e-06	332.14	95.049	74.429	22.032	4.3906e-06	30.62	0.000117	0.00010708	2.9558e-05	1203	1.154e-06	1.1775e-06	1300.8	262.65	1.2347e-06	1.1924e-06	324.03	93.058	73.035	22.029	1.4044e-06	30.373	310.248	44.820	70.782	-12.710	121.363	78.349	-12.498	-5.556	116.589	111.893	-5.892	0.832	1.048	6.612	132.502	6.766	-8191	255	
841.729	1	1	0	0	0.13761	0.35436	0.22673	0.23255	0.13819	0.26173	0.33065	0.18455	0.22416	0.25167	0.15534	0.081753	0.32008	0.13279	0.34176	0.18528	-2.5625	-2.9271	-2.7438	-2.9458	-2.6458	-3.1396	-3.2438	-2.8688	-3.0812	-2.9938	-2.625	-2.9813	-2.7875	-3.0167	-3.0875	-2.7854	219.142	335.882	296.618	71.492	182.065	147.685	309.945	185.538	201.842	235.665	3.164	333.420	315.004	6.304	154.240	278.001	0.00042669	0.00027	6.4691e-05	1274.8	3.2342e-06	4.3864e-06	1336.9	270.24	2.1414e-06	3.4583e-06	333.95	94.471	74.462	22.177	4.4386e-06	30.463	0.00014368	0.00014071	3.9385e-05	1211.9	1.6108e-06	1.6259e-06	1306.3	264.25	1.6264e-06	1.5832e-06	325.7	93.159	73.108	22.109	1.4244e-06	30.286	325.083	1.937	116.422	-12.878	123.797	129.525	-12.694	-5.651	130.103	156.951	-5.945	0.520	1.249	6.903	167.400	6.906	-8191	255	
841.825	1	1	0	0	0.22154	0.29622	0.26013	0.27029	0.12613	0.1175	0.26974	0.14048	0.070824	0.12128	0.13582	0.30614	0.13172	0.12932	0.035432	0.12599	-2.6021	-2.8333	-2.6271	-2.8833	-2.8438	-3.0542	-3.3	-2.7188	-2.9521	-2.975	-2.7687	-3.0583	-2.7479	-2.7604	-3.0021	-2.7292	7.782	199.005	114.433	332.163	65.460	11.489	310.471	291.776	306.515	106.884	213.981	279.205	61.197	92.741	163.704	33.357	0.00032293	0.0002003	3.7247e-05	1267.7	2.8297e-06	2.1629e-06	1343.3	266.94	2.7994e-06	1.8631e-06	334.95	94.95	74.772	22.34	3.264e-06	30.634	0.00013362	0.00011846	3.2866e-05	1207.4	1.29e-06	1.2606e-06	1309	263.27	1.3286e-06	1.2921e-06	325.57	93.554	73.236	22.257	1.2588e-06	30.363	322.884	78.451	20.449	-12.611	107.533	168.140	-12.752	-5.723	78.195	188.762	-5.973	0.708	0.646	6.690	137.361	6.487	-8191	255	
841.921	1	1	0	0	0.12842	0.085069	0.10959	0.16568	0.22917	0.11691	0.30794	0.28725	0.11843	0.2763	0.11543	0.16294	0.22911	0.12694	0.098882	0.24589	-2.6042	-3.0646	-2.5479	-2.9667	-3.0375	-2.9313	-3.4125	-2.7479	-3.0312	-3.1208	-2.8438	-3.1958	-3.0271	-2.8042	-2.8104	-3.0167	308.678	109.271	145.447	121.256	54.120	207.952	291.125	214.566	206.981	209.705	202.529	325.964	260.562	18.640	306.520	282.286	0.00045152	0.00025004	4.834e-05	1276	3.2939e-06	5.3219e-06	1347.1	270.01	4.7076e-06	3.123e-06	333.72	95.262	74.739	22.396	3.7222e-06	30.613	0.00012649	0.00011559	3.1592e-05	1214.1	1.2769e-06	1.2794e-06	1310.7	264.75	1.2502e-06	1.2054e-06	325.96	93.638	73.18	22.282	1.1531e-06	30.371	331.505	60.338	215.374	-12.519	140.929	143.908	-12.364	-5.824	130.138	129.752	-5.908	0.612	0.676	6.738	103.790	6.887	-8191	255	
842.017	1	1	0	0	0.13147	0.20454	0.14679	0.18384	0.1945	0.13898	0.36393	0.13282	0.23296	0.04397	0.081741	0.22373	0.17339	0.064662	0.13296	0.25568	-2.3125	-3.1	-2.7229	-2.8229	-2.7208	-2.9229	-3.3333	-2.9854	-2.7146	-3.0125	-2.9167	-3.1292	-2.9979	-2.5146	-3.0312	-2.9562	154.360	217.134	331.655	299.706	144.488	-2.539	216.827	203.857	275.372	92.010	278.988	251.198	305.014	213.369	225.590	258.632	0.00044074	0.00037745	9.8818e-05	1267.7	1.6577e-06	6.8443e-06	1341.3	270.4	4.3499e-06	2.647e-06	335.02	95.314	74.513	22.222	3.2227e-06	30.725	0.00011831	0.00010588	2.8898e-05	1210.1	1.1313e-06	1.0719e-06	1305.6	264.12	1.0836e-06	1.0273e-06	325.06	93.043	73.112	22.017	1.0138e-06	30.214	317.721	73.195	36.587	-12.671	93.939	148.387	-12.311	-5.552	105.537	155.755	-5.831	0.912	0.776	7.027	182.051	7.001	-8191	255	
842.136	1	1	0	0	0.089619	0.25334	0.070266	0.21218	0.066648	0.27904	0.036621	0.062883	0.11194	0.13996	0.14875	0.11167	0.087777	0.020649	0.10101	0.23131	-2.5354	-2.9875	-2.7438	-2.9833	-2.8604	-2.55	-3.3625	-3.1292	-2.975	-3.15	-2.6333	-3.1542	-3.1271	-2.7375	-2.9417	-2.8312	-20.708	251.281	67.678	128.339	320.108	278.109	29.861	94.301	218.645	131.520	305.715	303.816	22.864	292.674	255.114	245.211	0.00036291	0.00033057	0.00011265	1266.3	2.6103e-06	3.9141e-06	1340	269.33	3.475e-06	2.4589e-06	332.99	94.961	74.017	22.006	5.9149e-06	30.369	0.00010254	8.7765e-05	2.5046e-05	1202	9.5293e-07	9.5053e-07	1301	262.72	9.809e-07	9.4528e-07	323.34	92.681	72.49	21.765	9.6503e-07	30.008	316.605	58.760	43.762	-12.619	160.840	118.460	-12.710	-5.444	147.257	149.811	-5.982	0.456	0.785	7.144	137.183	7.157	-8191	255	
842.208	1	1	0	0	0.20545	0.16576	0.3042	0.19326	0.22579	0.18987	0.27052	0.20881	0.18777	0.076605	0.3163	0.20289	0.050539	0.24196	0.051781	0.1004	-2.4417	-3.1063	-2.7583	-2.9479	-3.2354	-2.7479	-3.0271	-2.8542	-2.7979	-3.075	-3.0583	-2.8479	-3.0375	-2.8208	-3.0563	-2.9646	143.452	91.192	144.731	267.723	319.926	106.629	198.799	247.632	14.957	-9.465	294.488	-1.925	42.416	259.293	121.738	97.404	0.0003735	0.00021267	0.00011716	1252.2	4.8805e-06	2.4432e-06	1331.5	267.29	2.6673e-06	4.7967e-06	331.79	94.063	73.745	21.851	3.6076e-06	30.146	9.5654e-05	8.3587e-05	2.3822e-05	1195.8	9.7479e-07	9.4111e-07	1297	261.55	9.7639e-07	9.4822e-07	322.49	92.229	72.241	21.704	9.5631e-07	29.907	317.165	64.576	66.813	-12.586	116.314	139.192	-12.510	-5.709	122.162	140.338	-5.878	0.940	1.121	7.172	144.849	7.245	-8191	255	
842.304	1	1	0	0	0.33702	0.066956	0.24545	0.045759	0.22577	0.15021	0.13464	0.18555	0.22265	0.14673	0.22595	0.13689	0.36847	0.16313	0.14148	0.11061	-2.3354	-3.1667	-2.8125	-2.875	-3.0625	-2.7896	-3.1833	-3.0312	-2.95	-3.0438	-2.8458	-2.8792	-3.1063	-2.5833	-2.975	-3.0896	234.336	330.550	42.093	20.801	29.039	228.559	149.972	233.630	134.048	136.043	-2.285	75.192	245.231	34.371	323.847	292.747	0.00035729	0.00039653	0.00014593	1254.7	2.5301e-06	3.1881e-06	1329.9	267.18	4.4137e-06	2.8885e-06	332.45	94.031	74.025	21.785	3.0091e-06	30.197	9.8469e-05	8.4836e-05	2.3394e-05	1195.2	9.402e-07	9.5329e-07	1292.7	260.94	9.7138e-07	9.3553e-07	322.58	91.964	72.139	21.648	9.4722e-07	29.792	320.751	42.077	59.391	-12.483	88.192	129.223	-12.437	-5.738	144.988	126.278	-5.908	0.716	0.859	6.833	147.393	6.728	-8191	255	
842.425	1	1	0	0	0.1225	0.27326	0.25115	0.05391	0.19509	0.040552	0.38946	0.080931	0.084837	0.18743	0.15573	0.047624	0.12005	0.064088	0.16098	0.070953	-2.2396	-3.0583	-2.7938	-3.0042	-3.0812	-2.7333	-3.0708	-2.9271	-2.6375	-3.1208	-2.7271	-2.7417	-3.0542	-2.9062	-3.0479	-3.0604	4.114	57.079	213.794	330.108	191.677	326.576	240.764	106.905	266.931	108.319	163.528	281.489	229.445	54.633	180.750	180.155	0.00041401	0.00018368	0.0001621	1257.2	3.1006e-06	2.7439e-06	1322.5	265.44	3.8115e-06	3.2731e-06	330.35	92.901	72.964	21.441	6.682e-06	29.851	9.998e-05	8.7127e-05	2.4889e-05	1193.4	9.6624e-07	9.4375e-07	1288.4	259.77	9.8755e-07	9.2573e-07	320.32	91.162	71.471	21.385	9.4718e-07	29.52	312.138	55.514	48.940	-12.161	144.392	145.528	-12.728	-5.363	147.296	122.759	-6.140	0.879	0.856	7.578	110.725	6.833	-8191	255	
842.521	1	1	0	0	0.0257	0.085518	0.14839	0.061305	0.11927	0.19362	0.25479	0.11043	0.080548	0.23009	0.14975	0.084218	0.25284	0.16107	0.16396	0.27877	-2.2313	-2.9479	-2.825	-2.7646	-3.1917	-2.7854	-3.0875	-2.9979	-2.75	-3.1833	-2.9562	-2.9896	-3.1521	-2.9896	-3.0271	-3.0667	233.002	324.162	226.498	12.114	2.345	297.064	203.102	-20.875	67.514	0.178	249.292	288.772	108.281	-15.639	130.481	279.180	0.0003511	0.00028641	9.413e-05	1239.1	3.0394e-06	2.6126e-06	1313.2	263.1	2.936e-06	9.535e-07	326.49	91.845	72.265	21.02	6.0433e-07	29.259	9.4951e-05	8.561e-05	2.3099e-05	1179.1	9.2293e-07	8.7319e-07	1277.1	257.02	9.0496e-07	8.7325e-07	316.79	90.092	70.312	20.911	8.5448e-07	29.006	313.021	81.465	49.841	-12.652	139.534	156.729	-12.603	-5.480	106.992	141.697	-6.176	0.874	1.305	7.575	137.025	7.143	-8191	255	
842.617	1	1	0	0	0.45281	0.037354	0.22705	0.26667	0.091519	0.19496	0.16059	0.20443	0.18862	0.2449	0.094431	0.24428	0.19889	0.17611	0.39886	0.061291	-2.3396	-2.7625	-2.8625	-2.8063	-3.2646	-2.8042	-3.1937	-3.0375	-2.5771	-3.0438	-3.0479	-2.8875	-3.2625	-2.9542	-2.8563	-2.9958	268.140	153.939	106.374	260.527	26.898	224.776	312.350	10.205	-7.753	39.028	251.547	-11.360	248.051	20.507	208.338	53.076	0.00034395	0.00029693	8.7413e-05	1228.4	2.5181e-06	2.6086e-06	1298.7	258.43	2.4627e-06	1.7819e-06	321.15	91.036	70.619	20.98	1.6283e-06	29.182	8.6255e-05	7.4448e-05	2.0083e-05	1166.5	8.3769e-07	8.0346e-07	1262.1	253.07	8.3837e-07	8.1049e-07	312.81	89.034	69.472	20.704	7.9559e-07	28.786	329.289	91.447	90.864	-12.741	165.765	150.644	-12.372	-5.350	111.441	123.839	-5.619	1.090	1.405	7.829	192.717	7.076	-8191	255	
842.738	1	1	0	0	0.20069	0.06243	0.070471	0.064547	0.24691	0.084112	0.24983	0.20062	0.10867	0.043261	0.2521	0.24105	0.048377	0.098514	0.071649	0.034036	-2.0417	-3.1583	-3.0958	-2.8271	-3.2208	-3.1	-2.9292	-3.1458	-2.8729	-2.825	-3.0667	-2.8208	-3.0292	-2.9167	-2.7167	-3.0875	22.515	232.930	188.136	115.770	25.689	315.795	280.020	296.131	73.416	108.820	239.426	31.651	217.915	-8.841	147.271	39.616	0.00033808	0.00013157	0.00010865	1218.4	4.0959e-06	3.7035e-06	1294.5	258.04	1.3237e-06	3.2458e-06	321.08	90.677	70.489	20.774	2.6809e-06	29.109	7.999e-05	7.17e-05	1.972e-05	1159.4	7.9525e-07	7.6355e-07	1257.9	252.04	8.0084e-07	7.5851e-07	312.08	88.605	69.037	20.51	7.3048e-07	28.598	321.480	26.231	102.343	-12.725	155.607	122.822	-12.359	-5.199	80.682	153.795	-5.941	0.925	1.541	7.884	121.190	7.492	-8191	255	
842.809	1	1	0	0	0.08072	0.080868	0.26201	0.19098	0.17095	0.19222	0.055263	0.22856	0.079247	0.2934	0.29832	0.13774	0.15668	0.023511	0.084706	0.3485	-2.3583	-2.9562	-2.9667	-2.5375	-3	-2.9688	-2.9833	-2.875	-2.7792	-2.7188	-3.1875	-2.8125	-3.1667	-2.9854	-2.9	-3.2583	-4.357	125.164	100.365	135.026	121.032	152.971	190.260	304.680	80.537	201.395	256.857	303.507	276.660	-19.686	58.935	219.667	0.00037013	0.00035806	9.4562e-05	1210.5	4.092e-06	2.5166e-06	1282.4	255.52	4.0239e-06	3.3972e-06	316.24	89.368	70.122	20.507	2.7613e-06	28.726	7.9186e-05	6.751e-05	1.8139e-05	1149.9	7.2625e-07	6.9299e-07	1246.6	249.39	7.3482e-07	7.2613e-07	308.35	87.504	68.214	20.234	6.9746e-07	28.307	324.117	49.783	57.978	-12.367	137.931	153.188	-12.393	-5.321	150.209	135.879	-5.531	0.916	1.640	7.496	131.285	7.457	-8191	255	
842.905	1	1	0	0	0.24398	0.10855	0.1253	0.1404	0.27298	0.054967	0.31435	0.20729	0.23351	0.21282	0.23046	0.18222	0.085266	0.27534	0.083168	0.1272	-2.5438	-2.7521	-3.0167	-2.6813	-2.8604	-3.1188	-2.9104	-3.2833	-2.8688	-2.8979	-2.8875	-2.7812	-3.0979	-3.0646	-2.7	-2.9667	295.084	-2.500	11.534	318.556	283.071	1.277	209.685	305.335	324.264	-15.315	290.994	241.905	200.278	317.502	-16.688	268.001	0.00038127	0.00030821	0.00011543	1199.2	1.7021e-06	2.9068e-06	1265.6	252.15	2.2895e-06	2.6934e-06	316.8	88.8	69.018	20.224	4.3064e-06	28.373	7.4178e-05	6.1731e-05	1.6755e-05	1137.2	6.8931e-07	6.7242e-07	1234	246.69	6.7542e-07	6.6283e-07	306.25	86.873	67.514	20.024	6.5181e-07	28.03	321.081	79.826	73.433	-12.587	131.464	157.296	-12.167	-5.260	105.460	135.960	-5.608	0.936	1.342	8.050	151.175	7.388	-8191	255	
843.026	1	1	0	0	0.23145	0.11586	0.11941	0.057766	0.20512	0.068648	0.34376	0.16875	0.11484	0.31293	0.20776	0.29853	0.45308	0.12178	0.092726	0.1375	-2.3083	-2.5896	-3.0833	-2.7083	-2.7958	-3.1417	-3.1813	-3.2	-3.0396	-2.6562	-3.2313	-2.8667	-2.9188	-3.2188	-2.7896	-3.3042	12.431	272.567	193.480	238.840	240.748	168.446	241.315	227.808	290.173	124.017	172.672	323.670	299.293	296.249	311.239	286.448	0.00038544	0.00034886	0.00011667	1185.8	1.2517e-06	2.829e-06	1257.9	249.29	3.2465e-06	3.2058e-06	311.2	87.762	68.244	20.065	3.3348e-06	28.124	7e-05	5.9089e-05	1.5635e-05	1126.4	6.4836e-07	6.1008e-07	1221.1	243.84	6.6742e-07	6.2619e-07	302.58	85.926	66.709	19.871	6.1854e-07	27.8	325.142	51.774	86.686	-12.149	129.106	133.336	-12.351	-5.540	167.794	157.328	-5.303	1.226	1.622	8.109	124.342	7.545	-8191	255	
843.120	1	1	0	0	0.10084	0.13911	0.16122	0.072777	0.18252	0.085449	0.39954	0.26238	0.11385	0.081753	0.21159	0.073735	0.19624	0.033447	0.14407	0.26099	-2.5125	-2.8104	-3.1625	-2.8646	-2.9104	-2.9875	-2.9146	-3.0333	-2.8479	-2.5271	-3.1854	-2.9125	-3	-3.2104	-2.9604	-3.0417	310.628	293.502	161.489	141.649	247.432	145.763	300.350	283.531	202.556	-3.785	319.625	79.983	-19.778	180.772	124.460	258.700	0.00038169	0.00037531	5.4444e-05	1176.3	3.6648e-06	3.3828e-06	1253.8	247.7	4.2338e-06	4.5103e-06	309.21	87.024	67.911	19.955	3.9291e-06	28.136	6.9852e-05	5.7228e-05	1.6768e-05	1115.8	6.5575e-07	6.126e-07	1213.2	242.23	6.5671e-07	6.2983e-07	300.72	85.244	66.305	19.705	6.4539e-07	27.635	319.756	42.164	45.981	-12.571	116.847	145.813	-12.491	-5.242	122.831	114.989	-5.613	1.264	1.834	7.912	113.105	7.931	-8191	255	
843.217	1	1	0	0	0.20721	0.0982	0.30056	0.067979	0.083092	0.097151	0.20697	0.14384	0.18779	0.11059	0.24027	0.28655	0.18572	0.039444	0.21148	0.2728	-2.6271	-2.75	-3.0917	-2.8667	-2.8812	-3.0104	-3.0563	-3.0708	-3.2271	-2.8604	-3.1542	-3.0438	-2.7667	-3.0667	-2.8979	-3.0208	138.568	162.036	151.024	109.163	1.582	247.201	183.480	151.067	162.190	111.085	184.251	259.491	264.872	225.969	20.258	302.374	0.00042124	0.00011599	6.2185e-05	1177.6	3.1654e-06	2.45e-06	1243.2	247.36	2.9939e-06	2.5149e-06	309.61	86.592	67.95	20.051	2.1725e-06	27.867	6.9707e-05	5.8036e-05	1.5942e-05	1114.6	6.6852e-07	6.2884e-07	1209.5	241.32	6.7041e-07	6.5017e-07	300.14	85.213	66.31	19.802	6.8525e-07	27.725	320.099	51.290	95.864	-12.396	150.311	145.638	-12.370	-5.022	120.314	141.225	-5.755	1.265	1.749	7.956	139.611	7.369	-8191	255	
843.337	1	1	0	0	0.33977	0.12782	0.15034	0.11941	0.25475	0.066328	0.10124	0.079565	0.29619	0.16164	0.12581	0.070031	0.085524	0.050976	0.19159	0.044668	-2.5917	-2.7646	-2.7083	-2.775	-2.8	-3.0375	-3.1854	-2.8604	-3.1188	-2.7396	-2.9562	-3.1083	-2.6208	-2.8958	-2.7646	-2.9417	44.985	306.739	229.709	266.796	54.933	-2.761	255.628	130.151	-7.251	298.037	194.554	204.244	-20.116	29.710	106.282	242.931	0.00042771	0.000281	0.00010312	1176.8	2.2801e-06	4.4657e-06	1250.5	248.44	2.0873e-06	4.1272e-06	308.24	87.024	68.21	19.98	4.7706e-06	28.031	7.237e-05	6.1678e-05	1.7789e-05	1115.5	7.1158e-07	6.6094e-07	1214.1	241.83	7.1513e-07	6.754e-07	299.89	85.234	66.53	19.777	7.0914e-07	27.738	329.170	58.380	73.738	-12.321	123.851	121.500	-12.348	-5.472	86.513	121.991	-5.567	1.053	1.664	8.133	132.875	7.694	-8191	255	
843.433	1	1	0	0	0.29649	0.30199	0.042708	0.12843	0.089029	0.18556	0.12918	0.21818	0.10128	0.11151	0.23046	0.06734	0.3844	0.0908	0.13699	0.16457	-2.3812	-2.4625	-2.9	-2.9562	-2.8333	-3.1521	-3.1542	-2.9521	-3.1083	-2.7792	-3.0208	-2.9771	-2.7125	-2.9292	-2.7562	-2.8063	222.111	297.644	156.978	127.538	-3.509	304.913	277.359	241.344	173.377	271.735	261.477	212.320	299.814	9.640	215.842	322.201	0.00045403	0.00037569	0.00015134	1184	4.0619e-06	3.89e-06	1250.4	247.41	1.6102e-06	3.2923e-06	310.51	87.607	67.814	19.925	3.9114e-06	28.19	7.2305e-05	6.3181e-05	1.75e-05	1120.3	7.0844e-07	6.8048e-07	1213.8	242.41	7.1e-07	7.11e-07	300.78	85.492	66.467	19.798	7.077e-07	27.769	327.430	74.624	79.524	-12.666	152.984	170.046	-12.610	-5.173	107.517	150.212	-5.252	1.353	1.312	8.292	120.897	7.137	-8191	255	
843.505	1	1	0	0	0.15254	0.072949	0.098948	0.10567	0.3029	0.32603	0.099738	0.13965	0.16193	0.28074	0.020887	0.20576	0.25538	0.11495	0.19036	0.1818	-2.7562	-2.7979	-3.0229	-2.9771	-2.6708	-2.9167	-2.9562	-3.0542	-3.2521	-2.8146	-3.2583	-3.175	-2.5812	-2.9562	-2.9583	-3.075	122.992	-13.717	161.906	4.648	-3.563	52.905	257.719	292.791	0.674	159.864	141.818	67.762	300.316	316.140	152.207	290.005	0.00040382	0.00045365	0.00015046	1180.4	1.7673e-06	3.4782e-06	1246.9	247.03	5.0609e-06	2.8029e-06	310.31	86.982	67.778	20.034	3.9298e-06	27.989	7.4801e-05	6.2278e-05	1.8035e-05	1117.6	6.9699e-07	6.6763e-07	1211.8	242	7.1874e-07	6.6795e-07	301.04	85.282	66.245	19.751	7.0322e-07	27.694	328.765	37.741	41.035	-12.448	150.805	174.054	-12.616	-5.249	106.228	122.924	-5.889	1.125	1.839	7.855	139.856	7.801	-8191	255	
843.601	1	1	0	0	0.19638	0.11234	0.093845	0.13287	0.16207	0.21153	0.3629	0.14701	0.38065	0.20313	0.16693	0.1769	0.1205	0.15771	0.26182	0.16847	-2.6312	-2.6104	-2.7313	-3.15	-2.6312	-3.0125	-3.1479	-2.7	-3.0729	-2.7521	-3.0667	-3.1875	-2.8729	-2.875	-2.9958	-2.9354	7.921	183.884	330.702	12.445	323.678	313.335	296.142	329.516	238.652	-10.677	328.529	270.921	259.415	282.027	336.690	194.211	0.00039868	0.0003516	0.0001228	1180.5	1.9024e-06	3.4557e-06	1243.2	247.81	3.459e-06	3.0477e-06	309.23	87.354	67.749	19.973	2.5713e-06	28.056	7.6435e-05	6.2365e-05	1.7235e-05	1114.7	7.0154e-07	6.5445e-07	1209	241.33	7.1267e-07	6.5278e-07	299.63	85.236	66.254	19.783	6.6374e-07	27.634	321.301	39.451	78.791	-12.111	113.932	161.437	-12.414	-5.124	150.177	124.139	-5.325	1.429	1.819	8.384	138.459	7.809	-8191	255	
843.697	1	1	0	0	0.16796	0.14869	0.21572	0.18712	0.25244	0.16281	0.1612	0.073322	0.077855	0.21511	0.082718	0.13159	0.20543	0.094121	0.095989	0.17368	-2.6063	-2.9	-3.0021	-3.3021	-2.6917	-3.1417	-3.1417	-2.7417	-3.0875	-2.7938	-2.7833	-3.1333	-2.8625	-2.975	-3.1104	-2.8292	254.693	315.273	200.785	81.983	41.011	-15.539	249.545	266.661	152.237	-17.851	19.742	324.390	270.222	95.086	335.156	322.333	0.00050595	0.00035608	5.1774e-05	1167	3.7751e-06	1.7722e-06	1238	246.19	1.2462e-06	5.0084e-06	307.98	86.741	67.276	19.848	3.7374e-06	27.885	7.1979e-05	6.1659e-05	1.6842e-05	1107.6	6.7555e-07	6.5829e-07	1203.9	240.24	6.7825e-07	6.6394e-07	298.92	84.893	65.713	19.662	6.6119e-07	27.499	317.537	57.089	94.291	-12.200	135.422	111.100	-12.349	-5.206	176.825	108.591	-5.430	1.136	1.901	8.443	141.319	7.908	-8191	255	
843.818	1	1	0	0	0.2438	0.081049	0.057286	0.42036	0.041047	0.26396	0.22956	0.022742	0.092154	0.17246	0.2346	0.14465	0.20561	0.13776	0.1623	0.21192	-2.5021	-2.7771	-2.8583	-3.1562	-3.0375	-3.1562	-3.0896	-2.7083	-3.0812	-2.875	-2.8458	-3.0958	-2.6833	-2.7896	-2.9	-2.5417	111.001	108.605	37.672	-7.550	95.217	68.423	260.806	199.466	217.081	217.297	275.867	242.727	313.093	247.724	109.931	335.665	0.00046673	0.00023164	0.00011281	1166.6	3.5982e-06	3.3654e-06	1235.6	244.84	4.8625e-07	1.9065e-06	307.17	86.042	67.435	19.672	3.4742e-06	27.996	7.0631e-05	5.9625e-05	1.6683e-05	1106.2	6.8236e-07	6.4813e-07	1201	239.58	6.8584e-07	6.4745e-07	298.02	84.366	65.713	19.559	6.5654e-07	27.428	327.255	88.183	109.843	-11.942	152.545	168.566	-12.302	-5.245	238.216	169.769	-5.599	1.290	1.774	8.003	122.836	7.374	-8191	255	
843.912	1	1	0	0	0.070353	0.18526	0.27671	0.19088	0.072503	0.12702	0.02001	0.13275	0.13006	0.20679	0.28406	0.21273	0.22801	0.18552	0.17937	0.1222	-2.5292	-2.8208	-2.7625	-2.8854	-2.7042	-2.7854	-3.3312	-2.7625	-3.0979	-2.9708	-2.8271	-3.0792	-2.6208	-2.8042	-3.2167	-2.7771	95.863	312.844	16.161	270.968	-17.140	242.796	32.984	16.964	70.248	82.217	25.541	146.102	82.299	184.234	230.380	255.671	0.00041801	0.00031177	7.3061e-05	1159.8	2.8318e-06	4.6054e-06	1227	243.52	2.597e-06	3.1849e-06	304.12	86.056	66.78	19.758	3.9121e-06	27.653	6.9823e-05	5.9512e-05	1.6085e-05	1101.3	6.5142e-07	6.1368e-07	1194	237.96	6.5388e-07	6.2024e-07	295.72	84.25	65.204	19.451	6.3655e-07	27.274	325.151	56.122	61.162	-12.242	115.019	144.124	-12.243	-5.024	158.939	92.388	-5.294	1.104	1.530	8.165	140.526	7.770	-8191	255	
844.009	1	1	0	0	0.087909	0.14116	0.11661	0.17497	0.48524	0.069971	0.29147	0.14142	0.18186	0.11927	0.026348	0.12832	0.074696	0.37679	0.1788	0.36251	-2.4896	-3.0583	-2.4437	-3.1625	-2.8458	-2.9083	-3.375	-2.9833	-2.8812	-3.0958	-2.7771	-2.8875	-2.7313	-2.7417	-3.125	-3.0292	-14.530	179.204	25.520	321.811	281.676	156.642	305.688	300.525	126.790	0.503	315.573	171.608	130.036	310.444	323.332	8.766	0.00045802	0.00029938	8.8603e-05	1148	3.0651e-06	3.1677e-06	1219.1	240.62	1.2151e-06	7.7253e-07	305.48	85.485	66.433	19.51	1.7449e-06	27.706	6.9344e-05	5.4597e-05	1.6342e-05	1092.6	6.3741e-07	6.0025e-07	1187.5	235.57	6.5187e-07	6.0349e-07	294.96	83.639	64.981	19.287	6.0036e-07	27.154	321.605	29.149	81.390	-12.300	124.828	137.396	-12.292	-4.999	209.186	153.607	-5.433	1.505	1.982	8.384	132.628	7.630	-8191	255	
844.106	1	1	0	0	0.045366	0.10674	0.20721	0.16611	0.26213	0.1572	0.32839	0.23244	0.18584	0.035351	0.1412	0.11341	0.14181	0.31785	0.080562	0.39684	-2.6542	-2.9229	-2.8542	-3.1479	-2.9146	-2.7042	-3.1917	-2.8146	-2.7667	-3.0938	-2.9833	-3.0958	-2.8917	-2.6688	-2.9708	-2.7979	-13.647	276.180	30.777	226.443	156.959	151.974	300.682	-2.767	123.562	158.787	5.437	292.343	202.229	270.437	77.614	147.724	0.00045336	0.00041705	0.00011396	1148.6	2.8562e-06	3.9607e-06	1214.8	240.56	2.8654e-06	2.4938e-06	302.21	85.416	66.147	19.631	2.5628e-06	27.476	6.5062e-05	5.4563e-05	1.4804e-05	1088	6.0799e-07	5.9628e-07	1180.4	235.36	6.1745e-07	5.8703e-07	293.22	83.477	64.724	19.25	5.8432e-07	27.109	327.363	48.029	71.986	-12.321	96.540	139.106	-12.241	-5.019	121.990	162.168	-5.436	1.555	1.944	8.285	82.993	7.840	-8191	255	
844.201	1	1	0	0	0.21159	0.17782	0.063242	0.11601	0.081404	0.115	0.14799	0.23741	0.16084	0.11478	0.24561	0.16342	0.18602	0.28059	0.2635	0.10303	-2.4542	-3.1083	-2.7	-2.8771	-2.8833	-2.6854	-3.1875	-2.9583	-2.7938	-3.0729	-2.9875	-3.1437	-2.975	-2.8854	-3.15	-3.1583	305.492	50.505	278.535	168.597	-19.428	33.306	233.799	267.666	181.100	24.530	41.816	15.897	-19.089	50.949	315.220	232.274	0.00042724	0.00029718	7.5453e-05	1149.8	1.9568e-06	2.0696e-06	1212.7	240.03	2.7603e-06	1.5667e-06	303.15	84.829	66.259	19.373	3.7741e-06	27.423	6.4667e-05	5.3348e-05	1.5152e-05	1085.7	5.9493e-07	5.6683e-07	1178	234.85	6.0333e-07	5.6127e-07	293.07	83.107	64.688	19.206	5.7075e-07	27.057	321.209	58.555	80.973	-12.423	111.240	147.455	-12.386	-5.032	137.214	110.277	-5.503	1.389	1.890	8.056	127.090	7.571	-8191	255	
844.297	1	1	0	0	0.12942	0.19854	0.35193	0.13896	0.23093	0.27064	0.090244	0.22918	0.26811	0.11693	0.067463	0.13069	0.10668	0.13578	0.054504	0.10648	-2.325	-2.8833	-2.7417	-3.0979	-2.9771	-2.6958	-2.9938	-2.7708	-2.4938	-3.0958	-2.9083	-2.8937	-3.2125	-2.8167	-3.1125	-2.9271	217.906	251.133	195.012	40.053	142.032	-4.057	212.483	288.376	303.760	63.669	-11.246	290.150	333.358	44.045	12.325	65.541	0.00037031	0.00018463	5.5642e-05	1137.1	3.2185e-06	2.3321e-06	1210.4	239.93	4.643e-06	1.9749e-06	301.7	84.851	66.073	19.429	2.5013e-06	27.241	6.3699e-05	5.1124e-05	1.4629e-05	1080.6	5.6791e-07	5.9504e-07	1176.4	234.14	5.8184e-07	5.5706e-07	292.75	83.208	64.502	19.212	5.7367e-07	26.962	326.181	38.502	63.315	-12.364	88.869	191.748	-12.200	-4.859	127.500	110.394	-5.288	1.467	1.762	8.381	104.432	7.546	-8191	255	
844.418	1	1	0	0	0.12174	0.17937	0.079653	0.23158	0.20925	0.052656	0.24843	0.18909	0.14425	0.34086	0.2776	0.32967	0.18587	0.36492	0.076342	0.25102	-2.4104	-3.2354	-2.875	-2.9042	-2.9292	-2.5854	-3.0583	-2.9396	-2.775	-3.0583	-2.8917	-2.8979	-3.0563	-2.8458	-2.9646	-3.025	11.925	300.220	224.689	-12.928	242.135	146.459	313.081	287.735	76.450	311.266	285.499	-9.026	282.877	-18.798	54.137	157.890	0.00030795	0.00013398	0.00013296	1140.4	2.8814e-06	3.1028e-06	1208.2	239.86	2.6056e-06	3.6142e-06	300.75	84.741	65.98	19.402	1.8761e-06	27.514	6.0496e-05	5.0796e-05	1.4801e-05	1082.2	5.7865e-07	5.6018e-07	1175.4	234.51	5.9406e-07	5.6338e-07	292.33	82.993	64.537	19.14	5.756e-07	27.041	325.208	24.004	58.883	-12.347	145.884	157.343	-12.357	-4.800	106.927	159.382	-5.451	1.685	1.661	8.346	99.111	7.821	-8191	255	
844.514	1	1	0	0	0.4326	0.20864	0.1861	0.18718	0.21785	0.054669	0.11876	0.18659	0.098806	0.23955	0.020185	0.12377	0.18128	0.16859	0.22515	0.027298	-2.1167	-2.925	-2.6646	-2.9417	-3.2062	-2.9979	-2.975	-2.975	-2.6604	-2.9208	-2.8833	-2.7979	-3.0812	-2.7271	-2.9417	-3.0646	59.563	38.865	331.859	7.092	101.005	106.540	257.416	240.297	227.387	254.951	27.957	317.391	313.138	179.417	242.297	75.763	0.00045139	0.00044238	7.7739e-05	1145.5	1.9946e-06	2.9128e-06	1207.6	239.28	2.8629e-06	2.8939e-06	300.16	84.814	65.733	19.401	4.9631e-06	27.356	6.3514e-05	5.2328e-05	1.423e-05	1080.8	5.8278e-07	5.5134e-07	1171.8	233.26	5.9017e-07	5.6508e-07	291.47	83.026	64.299	19.168	6.0143e-07	27.028	310.927	55.459	71.635	-12.178	172.833	135.966	-12.512	-5.066	88.291	159.960	-5.541	1.594	1.597	8.319	114.226	7.741	-8191	255	
844.610	1	1	0	0	0.12924	0.2257	0.22641	0.22929	0.062279	0.19589	0.2177	0.096985	0.17803	0.18427	0.31045	0.15573	0.18038	0.13046	0.14117	0.097068	-2.3854	-3.0875	-2.8792	-2.7667	-3.0646	-2.8	-3.0854	-3.0875	-2.6354	-2.7604	-3.1188	-2.8271	-3.1729	-2.8792	-2.6625	-3.0958	59.075	109.683	123.854	130.824	111.146	254.481	306.691	213.226	74.676	88.928	143.391	16.136	54.656	281.011	261.386	4.608	0.0004028	0.000346	5.1817e-05	1152	4.1177e-06	1.3854e-06	1214.4	240.01	1.9925e-06	3.2102e-06	302.08	85.159	66.531	19.598	3.9166e-06	27.417	6.7772e-05	5.8002e-05	1.593e-05	1087.7	6.6096e-07	6.2268e-07	1179.8	234.48	6.7726e-07	6.615e-07	293.42	83.386	65.011	19.36	7.3822e-07	27.182	310.643	83.021	69.800	-12.409	131.711	154.311	-12.378	-5.272	139.684	117.967	-5.557	1.386	1.758	8.444	104.324	7.708	-8191	255	
844.706	1	1	0	0	0.40347	0.18615	0.050043	0.23424	0.19768	0.04545	0.143	0.27618	0.1159	0.15995	0.033082	0.22366	0.12737	0.11861	0.034626	0.09327	-2.4938	-3.0521	-2.7771	-2.7729	-3.2167	-2.7771	-3.15	-3.1542	-2.6979	-3.1042	-3.0167	-2.6312	-3.0062	-2.8583	-3.0125	-2.9958	116.370	-15.966	126.965	258.225	300.819	66.095	257.386	243.533	201.247	139.780	132.849	296.755	331.674	72.649	15.089	296.114	0.0003217	0.00024679	0.00011769	1165.8	2.8667e-06	3.1868e-06	1229.4	242.26	2.1076e-06	2.7047e-06	305.41	85.786	66.935	19.719	6.7712e-06	27.751	7.8711e-05	7.0602e-05	1.9165e-05	1103	7.9852e-07	7.9119e-07	1198.3	237.71	8.2065e-07	7.779e-07	296.36	84.206	65.486	19.497	8.0213e-07	27.331	322.884	0.382	32.669	-12.495	139.815	128.690	-12.260	-5.145	103.178	133.241	-5.764	1.338	1.671	7.879	116.930	7.943	-8191	255	
844.802	1	1	0	0	0.25331	0.08578	0.21252	0.23038	0.14482	0.14179	0.14704	0.17657	0.14261	0.13466	0.046499	0.1471	0.28919	0.15827	0.082092	0.13511	-2.3646	-3.0583	-3.0271	-2.675	-3.1	-2.9083	-3.0062	-3.1	-2.7208	-2.8396	-2.8792	-2.7146	-3.0917	-2.9125	-2.6688	-3.2729	31.137	43.262	133.203	223.241	250.279	271.430	179.167	291.836	313.615	207.064	275.936	-9.041	-23.138	270.011	-4.552	280.136	0.00028805	0.00034705	8.4832e-05	1168.4	3.4998e-06	6.0466e-06	1235.5	242.47	2.5338e-06	1.5467e-06	304.59	85.205	66.748	19.647	3.9713e-06	27.445	8.1573e-05	7.2553e-05	1.9781e-05	1108.6	7.9335e-07	7.3682e-07	1202.5	238.44	7.7835e-07	7.3825e-07	296.73	83.744	65.289	19.469	7.1942e-07	27.179	317.217	78.927	97.549	-12.148	121.271	148.267	-12.179	-5.207	183.094	162.875	-5.645	1.390	1.438	8.544	139.742	7.798	-8191	255	
844.898	1	1	0	0	0.044441	0.040737	0.22634	0.12759	0.13243	0.11337	0.18803	0.10666	0.32851	0.30742	0.077924	0.11567	0.055928	0.069889	0.1091	0.054867	-2.3021	-2.8958	-2.7792	-2.8396	-2.8646	-2.9	-2.775	-3.0458	-2.8604	-2.6833	-3.1604	-2.7292	-3.175	-3.0687	-2.8563	-3.1188	5.750	311.420	-13.490	260.302	81.767	4.315	296.767	211.049	245.118	3.714	124.159	265.126	243.217	270.231	157.557	254.327	0.00036076	0.00038229	3.8965e-05	1163.4	3.2877e-06	1.3087e-06	1235.2	243.4	4.4066e-06	2.8503e-06	303.22	85.525	66.826	19.563	3.3879e-06	27.535	7.4613e-05	6.5449e-05	1.7853e-05	1107.7	7.2997e-07	6.8213e-07	1198.4	237.38	7.2227e-07	7.1658e-07	295.27	83.696	65.181	19.357	6.9701e-07	27.168	327.850	52.915	52.038	-12.373	124.504	153.376	-12.324	-4.920	107.882	123.557	-5.656	1.456	1.772	8.088	126.418	7.169	-8191	255	
844.994	1	1	0	0	0.16831	0.13272	0.17289	0.36921	0.36829	0.23921	0.12272	0.2915	0.043483	0.047964	0.2566	0.16144	0.29609	0.31885	0.21726	0.28722	-2.2208	-2.6375	-2.9917	-2.8625	-2.9771	-3.0479	-2.8646	-3.1542	-2.8229	-2.8271	-3.0687	-2.8438	-2.8208	-2.9021	-2.8875	-3.1	143.442	214.836	331.505	-11.682	331.598	55.221	205.435	290.362	248.954	264.897	324.421	222.100	182.749	150.076	289.567	271.208	0.00040949	0.00024877	7.0473e-05	1167.8	3.5926e-06	1.9169e-06	1228.4	242.55	2.7633e-06	1.8258e-06	303.74	85.238	66.302	19.519	3.656e-06	27.46	7.5417e-05	6.3868e-05	1.7533e-05	1104.9	7.124e-07	6.8411e-07	1196.2	236.52	7.1657e-07	6.7825e-07	294.86	83.411	64.925	19.299	6.8882e-07	27.055	308.485	36.180	55.509	-12.451	143.209	157.521	-12.431	-5.023	139.439	144.819	-5.466	1.377	1.560	8.594	117.522	7.801	-8191	255	
845.113	1	1	0	0	0.089886	0.043371	0.19617	0.030959	0.10643	0.15741	0.24445	0.18819	0.24906	0.12237	0.098211	0.073296	0.18317	0.042893	0.13388	0.08693	-2.3083	-2.6854	-3.2208	-2.7583	-3.0333	-3.0833	-2.9083	-3.0125	-2.8458	-2.7896	-3.1625	-2.8187	-2.8375	-3.0375	-2.7812	-2.9979	201.870	227.025	-6.614	65.622	87.613	21.673	297.846	290.987	1.733	159.548	336.850	120.779	-21.542	64.644	10.218	57.510	0.00037655	0.00035507	0.00011341	1154.2	3.4196e-06	6.8647e-07	1225.3	241	3.7017e-06	2.6929e-06	300.22	84.75	65.817	19.329	5.4117e-06	27.235	7.3058e-05	6.295e-05	1.681e-05	1097.1	6.7414e-07	6.4838e-07	1191.3	235.19	7.283e-07	6.6295e-07	291.74	82.964	64.488	19.101	6.7772e-07	26.842	323.287	39.197	49.467	-12.390	125.545	256.693	-12.315	-4.968	133.656	125.641	-5.720	1.335	1.965	8.465	142.844	7.878	-8191	255	
845.210	1	1	0	0	0.17919	0.097134	0.098575	0.044821	0.11145	0.13004	0.15205	0.11504	0.19636	0.23212	0.066665	0.18806	0.18735	0.26517	0.1626	0.16612	-2.3979	-2.7729	-2.9167	-2.6583	-2.9125	-3.15	-2.8646	-2.9354	-3.0417	-2.7333	-3.1958	-2.8625	-3.0479	-3.1479	-2.8125	-2.8375	16.287	155.137	-4.465	267.630	158.837	222.445	204.295	122.336	166.636	272.758	4.392	268.943	10.753	-11.608	229.305	222.460	0.00034757	0.0001233	4.3285e-05	1155.9	2.3641e-06	4.0948e-06	1214.3	238.49	2.7768e-06	2.6869e-06	298.9	84.535	65.055	19.224	2.9038e-06	27.107	7.1439e-05	5.9455e-05	1.6274e-05	1092	6.8042e-07	6.2834e-07	1180.4	232.87	6.7148e-07	6.4004e-07	290.06	82.487	64.095	19.031	6.3314e-07	26.765	325.208	60.107	117.083	-12.284	104.254	150.888	-12.343	-5.193	124.039	118.100	-5.483	1.151	2.061	7.841	80.596	8.023	-8191	255	
845.306	1	1	0	0	0.12494	0.10733	0.097897	0.1979	0.15055	0.15601	0.17611	0.21532	0.2174	0.086784	0.23384	0.075815	0.084068	0.21595	0.089841	0.36111	-2.3708	-2.5667	-3.0979	-2.6396	-2.8125	-3.1229	-2.8438	-3.0583	-3.1063	-2.6188	-3.0771	-2.9354	-2.725	-3.0771	-3.0292	-2.8479	291.241	161.827	255.174	274.930	16.544	65.498	306.698	313.162	191.036	194.656	82.051	-16.914	11.123	9.013	327.578	240.999	0.00040222	0.0002495	0.00011078	1141.2	2.9945e-06	7.92e-07	1203.3	235.6	4.5046e-06	3.0142e-06	294.42	83.895	64.942	18.911	3.0917e-06	26.806	6.8163e-05	5.6386e-05	1.5883e-05	1083.7	6.3171e-07	6.1396e-07	1171.9	230.2	6.4075e-07	6.1767e-07	286.57	81.949	63.431	18.814	6.041e-07	26.584	326.622	28.736	54.191	-12.235	139.931	164.585	-12.289	-4.920	124.764	139.420	-5.396	1.114	1.852	8.584	131.600	7.742	-8191	255	
845.377	1	1	0	0	0.19178	0.21438	0.096715	0.22307	0.064264	0.097481	0.1309	0.17513	0.29233	0.13128	0.26307	0.11929	0.37533	0.44666	0.16063	0.20082	-2.5854	-2.6896	-2.7833	-2.8208	-2.8417	-3.0917	-2.9833	-2.9729	-2.9125	-2.6917	-3.1271	-2.9729	-2.6542	-3.1312	-2.8104	-2.7313	318.326	27.218	256.562	296.436	191.181	43.309	260.608	256.013	20.493	281.368	-4.124	305.852	39.796	-6.009	166.683	303.523	0.00030042	0.00018352	6.842e-05	1128	3.9038e-06	3.4966e-06	1195.4	234.9	2.672e-06	3.4853e-06	295.55	82.903	64.856	19.089	3.4314e-06	26.799	6.7533e-05	5.7277e-05	1.5989e-05	1072.3	6.4443e-07	6.2834e-07	1164.8	229.29	6.4994e-07	6.4546e-07	286.42	81.392	63.379	18.845	6.2339e-07	26.451	324.800	45.049	76.882	-12.005	116.942	111.586	-12.052	-4.883	117.182	157.209	-5.401	1.087	1.869	8.333	141.811	7.785	-8191	255	
845.498	1	1	0	0	0.11944	0.16156	0.12439	0.13708	0.115	0.30115	0.29974	0.052908	0.22243	0.29093	0.44292	0.19378	0.083158	0.30542	0.12181	0.27505	-2.6521	-2.6167	-2.8792	-3.0563	-2.8688	-2.975	-2.8042	-2.675	-3.2062	-2.7604	-3.1479	-2.9958	-2.8187	-3.1312	-2.7667	-3.075	202.510	62.719	226.335	142.208	252.077	289.776	308.989	78.284	36.941	13.029	327.803	29.821	289.353	281.023	32.417	137.201	0.00030613	0.00026695	0.00015412	1134.7	2.9233e-06	1.3147e-06	1196	234.27	3.452e-06	3.1824e-06	294.66	83.048	65.012	19	5.7096e-06	26.645	7.0881e-05	5.8209e-05	1.622e-05	1073.1	6.6613e-07	6.4156e-07	1163.2	229.1	6.5343e-07	6.3504e-07	285.95	81.43	63.298	18.808	6.6139e-07	26.451	315.957	47.918	66.506	-12.171	128.145	140.762	-12.166	-4.759	89.613	142.456	-5.511	1.457	1.964	8.774	90.399	7.630	-8191	255	
845.594	1	1	0	0	0.11896	0.20552	0.16236	0.25421	0.1032	0.16411	0.16294	0.2121	0.18239	0.033955	0.3087	0.21777	0.12162	0.12168	0.15134	0.051809	-2.7062	-2.7354	-2.9292	-3.05	-2.6271	-2.95	-3.175	-2.8708	-2.925	-2.8958	-3.1312	-2.9375	-2.7062	-3.2375	-2.8937	-2.8729	237.519	98.860	145.581	56.649	6.278	10.897	-3.680	265.729	-2.461	136.245	298.569	9.731	69.415	118.877	156.964	136.565	0.00036516	0.00024417	7.7134e-05	1140.5	4.2702e-06	2.9908e-06	1198.2	233.64	3.5677e-06	2.6609e-06	293.87	83.21	64.815	19.022	1.9058e-06	26.903	6.8105e-05	5.864e-05	1.5896e-05	1075.2	6.4761e-07	6.2537e-07	1164.2	228.7	6.4686e-07	6.1217e-07	285.79	81.46	63.398	18.799	6.3371e-07	26.479	-21.208	45.991	55.321	-12.287	120.198	160.536	-12.089	-5.035	126.126	124.417	-5.527	1.298	1.711	8.333	110.354	7.862	-8191	255	
845.690	1	1	0	0	0.27156	0.14142	0.15471	0.34067	0.086956	0.088597	0.30632	0.2635	0.32215	0.051663	0.17296	0.045558	0.097288	0.20943	0.11326	0.054517	-2.6646	-2.8917	-2.8375	-2.7896	-2.7458	-3.1562	-3.1104	-2.6792	-2.9458	-3.0333	-3.1042	-3.1854	-2.8875	-3.1604	-3	-2.8208	99.679	66.208	210.048	310.989	308.816	109.546	241.250	316.341	67.575	30.330	330.692	24.730	207.082	11.032	200.753	241.260	0.00036686	0.00023765	0.00010494	1127.8	3.2638e-06	2.5984e-06	1192	234.76	3.3058e-06	3.6181e-06	294.44	82.677	64.913	19.176	3.095e-06	26.794	6.8435e-05	5.6994e-05	1.6011e-05	1070.2	6.4592e-07	6.2731e-07	1160.6	229.06	6.6672e-07	6.4083e-07	285.75	81.372	63.299	18.856	6.6135e-07	26.507	321.778	25.177	54.353	-12.265	110.203	139.673	-12.148	-4.860	110.079	167.823	-5.097	1.386	1.573	8.706	125.622	8.051	-8191	255	
845.786	1	1	0	0	0.027289	0.15665	0.12877	0.27043	0.20795	0.2056	0.18927	0.12111	0.091781	0.061661	0.34545	0.18944	0.47528	0.16895	0.24061	0.053435	-3.05	-2.9771	-2.7562	-3.0708	-2.9729	-2.9479	-3.2458	-3.0229	-3.0812	-2.8521	-2.8979	-3.2271	-2.6	-3.0167	-3.0083	-2.7042	209.071	197.100	182.134	-1.613	-6.601	41.891	316.379	123.480	-18.429	-21.194	73.173	258.889	328.409	336.062	268.003	50.982	0.00033542	0.00011232	9.6991e-05	1129.8	1.47e-06	2.0942e-06	1195.3	233.84	2.1854e-06	2.9859e-06	293.87	83.04	64.629	18.983	2.6072e-06	26.916	6.7091e-05	5.6915e-05	1.5932e-05	1070.3	6.5534e-07	6.5309e-07	1163.4	228.72	6.5392e-07	6.2334e-07	286.02	81.441	63.21	18.762	6.2352e-07	26.543	323.550	73.267	17.724	-12.051	137.539	182.366	-12.177	-4.893	91.303	98.828	-5.699	1.596	1.764	8.329	107.426	7.848	-8191	255	
845.905	1	1	0	0	0.27023	0.074933	0.22928	0.30206	0.021916	0.084939	0.096049	0.31045	0.23992	0.3084	0.14777	0.19683	0.05906	0.13191	0.12279	0.070414	-2.675	-2.9042	-2.8917	-3.1437	-3.0208	-2.9354	-3.2083	-2.8958	-3.0146	-2.8542	-2.9688	-3.1125	-2.8667	-2.9938	-3.2292	-2.8688	254.943	-15.202	95.384	243.416	318.310	3.984	60.379	313.993	217.199	133.314	10.295	-21.356	14.727	116.641	190.622	0.054	0.00037236	0.00013822	8.6004e-05	1130.8	1.4065e-06	4.8978e-06	1192	235.07	4.1511e-06	2.469e-06	293.18	83.294	64.684	19.029	3.8466e-06	26.712	6.9884e-05	5.8224e-05	1.6653e-05	1069.6	6.6067e-07	6.5375e-07	1161.4	228.73	6.8518e-07	6.3926e-07	285.52	81.52	63.33	18.79	6.6263e-07	26.482	326.244	32.463	37.832	-12.148	95.164	168.428	-12.291	-5.136	145.436	135.852	-5.280	1.437	1.933	8.140	146.760	7.829	-8191	255	
845.979	1	1	0	0	0.2497	0.19938	0.15391	0.11743	0.23935	0.18393	0.17259	0.21371	0.25152	0.16386	0.055533	0.15521	0.10524	0.31106	0.044592	0.19271	-2.5792	-2.9354	-2.475	-3.0917	-2.8833	-2.8896	-3.2438	-2.7646	-2.9646	-3.1479	-2.6562	-3.0083	-2.8563	-2.8729	-3.3229	-3.0187	268.365	117.934	147.209	9.680	234.182	28.872	300.890	237.844	237.134	-12.773	196.156	285.865	137.248	241.633	264.727	333.179	0.00038887	0.00037412	8.1933e-05	1128.6	2.5931e-06	3.1989e-06	1196.2	234.26	4.4677e-06	3.4956e-06	294.22	83.491	64.276	19.158	5.6958e-06	26.801	6.9797e-05	5.8855e-05	1.6627e-05	1070	6.5881e-07	6.345e-07	1162.6	228.73	6.89e-07	6.546e-07	286.27	81.599	63.186	18.837	6.6678e-07	26.49	324.561	70.385	56.711	-12.408	112.720	126.693	-12.211	-4.963	126.255	157.453	-5.750	1.640	1.797	8.467	130.389	7.590	-8191	255	
846.098	1	1	0	0	0.16744	0.19039	0.19261	0.090233	0.21634	0.21735	0.1881	0.23191	0.21096	0.094253	0.26687	0.18727	0.10541	0.19914	0.35546	0.03926	-2.4604	-2.9146	-2.7708	-2.9625	-2.825	-2.8979	-3.3063	-2.8771	-2.8521	-2.875	-2.875	-3.1167	-2.9521	-2.6521	-2.8021	-2.8917	147.188	284.441	300.117	282.269	298.416	214.800	271.260	318.353	108.479	211.829	327.126	189.168	-9.824	245.279	258.637	163.643	0.000407	0.00039171	5.6721e-05	1131.7	3.754e-06	1.7694e-06	1191.1	234.77	2.0831e-06	1.1022e-06	295.34	83.517	64.862	18.94	1.6619e-06	27.007	7.0895e-05	6.0078e-05	1.6854e-05	1071.7	6.8922e-07	6.6164e-07	1163.3	229	7.0131e-07	6.3579e-07	286.24	81.567	63.271	18.834	6.6703e-07	26.565	323.885	67.871	105.834	-12.410	121.719	201.084	-12.236	-5.102	145.074	153.619	-5.484	1.376	1.821	8.039	106.296	7.508	-8191	255	
846.194	1	1	0	0	0.20186	0.15993	0.24063	0.10435	0.22065	0.16352	0.13979	0.31179	0.18114	0.13135	0.23176	0.17556	0.10016	0.11312	0.073835	0.23105	-2.7083	-2.8833	-2.6708	-3.0042	-2.8563	-2.6229	-3.1583	-3	-2.7583	-3.0229	-2.9188	-3.1604	-2.9458	-2.6583	-3.0083	-2.8417	308.603	122.378	281.714	125.747	328.351	34.296	262.427	214.583	228.009	13.646	-2.834	324.139	-20.970	17.889	32.048	139.668	0.00042306	0.00033704	0.00010412	1133.8	2.1645e-06	3.1768e-06	1195.3	234.47	2.8066e-06	2.5023e-06	294.11	82.778	64.651	19.108	4.3592e-06	26.738	7.2888e-05	6.0067e-05	1.6859e-05	1073.2	6.7604e-07	6.7325e-07	1162.6	229.06	6.8137e-07	6.5212e-07	286.5	81.516	63.261	18.809	6.5473e-07	26.47	314.867	62.702	62.842	-12.084	145.454	120.466	-12.097	-4.950	158.581	122.318	-5.496	1.423	1.949	8.750	92.396	8.004	-8191	255	
846.290	1	1	0	0	0.15278	0.15356	0.19231	0.20705	0.083047	0.073406	0.31114	0.12176	0.16661	0.15768	0.2206	0.36458	0.098593	0.16288	0.078789	0.17016	-2.3417	-3.1917	-2.8604	-3.0062	-2.9396	-2.8083	-3.1937	-2.925	-2.7625	-3.2438	-2.7896	-2.9417	-2.9896	-2.9375	-3.1083	-2.9625	280.124	265.108	104.661	117.228	306.028	325.826	306.544	199.544	153.931	167.241	302.461	217.203	43.160	246.161	201.953	3.796	0.00040565	0.00039034	5.8351e-05	1127.8	1.4607e-06	2.383e-06	1192.6	234.27	4.4447e-06	1.3982e-06	294.77	83.373	65.375	19.033	3.3785e-06	26.948	7.1711e-05	5.9474e-05	1.7327e-05	1071.1	7.0166e-07	6.3574e-07	1161.8	229.02	6.6865e-07	6.2917e-07	285.83	81.412	63.405	18.82	6.7274e-07	26.587	310.817	78.431	80.537	-12.218	144.849	82.196	-12.334	-4.727	152.501	100.787	-5.502	1.170	1.866	8.629	146.838	7.926	-8191	255	
846.386	1	1	0	0	0.075854	0.050768	0.065668	0.12473	0.27892	0.10428	0.19161	0.23813	0.11313	0.056321	0.21624	0.065808	0.33834	0.13943	0.068152	0.041571	-2.2667	-3.0333	-2.9042	-3.025	-2.9271	-2.8042	-3.3438	-2.7708	-2.7938	-3.1771	-2.7	-2.8708	-3.1708	-2.7271	-2.7292	-3.0146	74.148	183.446	-8.336	-12.733	-3.887	159.801	237.722	1.078	299.106	200.111	-7.777	205.398	276.067	254.249	83.142	158.987	0.00037366	0.00017629	7.986e-05	1118.8	2.0144e-06	2.3876e-06	1195	233.59	2.0988e-06	3.9577e-06	294.66	83.178	65.212	19.069	5.0719e-06	26.929	6.8779e-05	5.7232e-05	1.5924e-05	1067.9	6.4435e-07	6.138e-07	1162.9	228.83	6.6003e-07	6.283e-07	286.13	81.533	63.519	18.859	6.3347e-07	26.55	320.075	71.636	61.260	-12.245	152.003	150.015	-12.236	-4.767	146.673	128.125	-5.468	1.457	1.659	8.666	146.235	7.694	-8191	255	
846.507	1	1	0	0	0.1583	0.20904	0.34331	0.057071	0.16729	0.040477	0.18662	0.27702	0.10665	0.2862	0.097054	0.10034	0.38193	0.18867	0.16843	0.086263	-2.2979	-2.9375	-2.7625	-3.0771	-2.8875	-2.8688	-3.0792	-2.9854	-2.7313	-2.9958	-2.8375	-2.9375	-3.1979	-2.7521	-2.8417	-3.0083	-6.766	75.156	-7.190	85.530	48.125	141.021	277.842	29.939	0.491	198.983	271.184	149.578	28.726	294.144	171.324	227.413	0.00042132	4.6046e-05	0.00012306	1123.3	1.5392e-06	1.8419e-06	1195.3	234.33	3.0873e-06	1.6757e-06	293.97	83.957	65.096	19.002	2.4251e-06	26.937	7.0189e-05	5.7855e-05	1.5947e-05	1066.9	6.2753e-07	6.245e-07	1161.9	228.93	6.4461e-07	6.2859e-07	285.81	81.677	63.407	18.821	6.2619e-07	26.559	-18.662	146.008	52.999	-12.342	177.344	128.171	-12.197	-4.895	110.609	126.557	-5.363	1.459	1.614	8.270	125.367	7.639	-8191	255	
846.603	1	1	0	0	0.24886	0.12048	0.08053	0.18716	0.12291	0.19539	0.29484	0.17313	0.22105	0.21001	0.27168	0.15561	0.18779	0.099876	0.18791	0.20688	-2.3187	-3.0833	-2.8021	-2.7875	-3.0104	-2.8833	-3.2583	-3.0104	-2.6542	-3.0333	-2.8396	-2.7667	-3.1	-2.7542	-2.7521	-3.15	118.936	310.239	236.087	224.589	300.883	116.338	291.002	235.328	190.659	146.209	15.050	240.894	325.452	260.998	249.918	249.369	0.00038008	0.00020036	8.0591e-05	1126.3	2.7286e-06	3.2998e-06	1188.9	232.54	2.8156e-06	3.3975e-06	292.78	83.049	64.576	19.013	4.8172e-06	27.004	6.6844e-05	5.7209e-05	1.606e-05	1067.5	6.2675e-07	5.9918e-07	1158.5	227.82	6.4018e-07	6.0775e-07	284.5	81.463	63.081	18.823	5.9851e-07	26.523	320.908	113.014	117.400	-12.091	129.984	142.372	-12.102	-4.635	120.278	138.591	-5.364	1.474	1.914	8.264	136.532	7.835	-8191	255	
846.674	1	1	0	0	0.071365	0.1619	0.13103	0.10302	0.25989	0.16556	0.20705	0.2027	0.097509	0.094299	0.13388	0.3396	0.20346	0.15802	0.19025	0.12333	-2.3417	-3.1063	-2.6917	-2.9083	-3.2208	-2.8896	-3.0792	-3.0042	-2.7292	-2.9729	-2.9458	-2.7417	-3.2	-2.8563	-2.9042	-3.1167	45.472	175.431	285.345	99.252	247.223	105.209	264.423	223.923	198.297	-8.781	177.692	207.409	227.531	236.800	243.092	163.084	0.00038052	0.00038008	4.5138e-05	1121.4	2.5e-06	3.3326e-06	1189.4	232.35	4.1896e-06	1.4435e-06	292.91	82.622	64.746	19.022	2.9318e-06	26.916	6.4181e-05	5.5869e-05	1.5152e-05	1063.9	5.9067e-07	6.0289e-07	1155.8	227.4	6.0313e-07	5.8761e-07	284.33	81.196	63.168	18.778	6.0213e-07	26.456	319.416	56.040	45.662	-12.202	187.264	135.378	-11.857	-4.706	162.589	146.006	-5.182	1.741	1.747	8.548	149.040	7.939	-8191	255	
846.795	1	1	0	0	0.0051944	0.19514	0.27344	0.075128	0.16273	0.22953	0.33166	0.18779	0.18249	0.17899	0.16767	0.13882	0.16638	0.23989	0.16131	0.18529	-2.2979	-3.1188	-3.1063	-2.6708	-3.0583	-2.8875	-2.925	-3.2083	-3.0917	-3.0833	-2.975	-2.825	-3.1917	-2.8833	-2.8146	-3.1396	227.536	52.947	126.329	238.144	76.911	106.433	305.659	331.629	121.154	179.752	235.714	68.797	274.792	30.831	112.969	205.612	0.00032289	0.00014828	0.00010373	1111.7	3.6086e-06	3.0327e-06	1190.9	232.64	3.4713e-06	4.1434e-06	293.67	83.415	64.416	19.035	2.2387e-06	26.869	6.7073e-05	5.4306e-05	1.5147e-05	1062.2	6.1105e-07	5.8951e-07	1155.7	227.55	6.2143e-07	5.7368e-07	284.59	81.293	63.175	18.806	6.0077e-07	26.497	320.967	62.755	69.625	-12.313	132.683	129.751	-11.891	-4.838	128.622	138.049	-5.661	1.503	1.284	8.384	118.795	7.850	-8191	255	
846.891	1	1	0	0	0.13949	0.11504	0.1289	0.21352	0.1072	0.207	0.17205	0.2486	0.29423	0.11949	0.071453	0.214	0.24402	0.13577	0.11454	0.2419	-2.2042	-2.8896	-2.9542	-2.775	-2.9875	-2.8708	-3.0917	-2.9458	-2.7979	-3.0146	-3.1437	-2.6479	-2.9938	-2.9896	-2.8917	-3.3	90.911	141.847	169.707	288.597	106.802	2.451	268.413	302.169	251.409	307.135	-0.813	16.425	281.264	316.578	64.896	336.116	0.00043687	0.00022765	5.8863e-05	1123.8	2.3654e-06	2.3869e-06	1188.5	233.6	3.9476e-06	3.7115e-06	294.62	82.749	64.491	19.062	2.2167e-06	26.814	6.6989e-05	5.4427e-05	1.4783e-05	1065.4	6.134e-07	6.0355e-07	1156.6	227.95	6.3078e-07	5.9038e-07	285.3	81.437	63.146	18.82	6.0456e-07	26.498	320.962	67.186	65.676	-12.213	102.880	182.267	-12.073	-4.927	143.400	114.107	-5.816	1.226	1.961	8.209	59.725	7.749	-8191	255	
846.986	1	1	0	0	0.32665	0.12829	0.13263	0.19437	0.19523	0.16092	0.21239	0.10984	0.061453	0.11578	0.12065	0.20352	0.19413	0.18993	0.046879	0.18302	-2.5312	-2.8542	-2.8875	-2.6	-3.0563	-2.9146	-2.8833	-3.1271	-2.7313	-3.0438	-3.1229	-2.6667	-3.1271	-2.8708	-2.8083	-2.9396	332.442	211.078	62.706	257.935	189.313	37.099	300.240	61.481	183.512	196.969	115.628	-14.787	237.210	96.991	33.586	322.277	0.00036117	0.0003257	6.8749e-05	1119.6	3.2549e-06	3.2456e-06	1188.2	231.43	2.5275e-06	3.2499e-06	294.81	82.843	64.713	18.936	2.4189e-06	26.972	6.8312e-05	5.5578e-05	1.5596e-05	1062.4	6.2935e-07	5.9773e-07	1157.4	227.5	6.2951e-07	5.9609e-07	285.87	81.372	63.27	18.802	6.3154e-07	26.53	325.051	55.577	70.403	-12.387	146.581	127.953	-12.129	-4.731	132.722	143.710	-5.421	1.517	1.777	8.893	128.546	7.697	-8191	255	
847.082	1	1	0	0	0.2347	0.07068	0.1503	0.1652	0.072206	0.17259	0.12118	0.073534	0.13586	0.024136	0.18653	0.27761	0.064033	0.12398	0.19663	0.31895	-2.3646	-2.6188	-2.9979	-2.7854	-2.9646	-2.8021	-2.8063	-3.2292	-2.9313	-2.7729	-2.9708	-2.7062	-3.1813	-2.8083	-2.7313	-3.2313	4.105	61.053	330.744	255.921	96.112	11.111	264.256	258.535	42.068	171.467	27.629	-9.708	293.804	231.741	124.051	195.367	0.00041185	0.0003125	8.5113e-05	1117.7	3.3345e-06	1.3693e-06	1185.9	234.35	3.3287e-06	2.7786e-06	294.58	83.717	64.423	19.011	7.2957e-06	27.037	6.8051e-05	5.6477e-05	1.5344e-05	1063.6	6.3009e-07	6.2264e-07	1157.3	228.31	6.4871e-07	6.2007e-07	285.83	81.663	63.164	18.848	6.368e-07	26.529	316.229	71.833	75.383	-12.094	165.729	246.998	-12.358	-4.901	154.543	158.380	-5.386	1.611	2.037	8.460	132.296	8.188	-8191	255	
847.180	1	1	0	0	0.13742	0.27126	0.19594	0.23714	0.20846	0.22348	0.12042	0.050244	0.30448	0.040786	0.25275	0.10524	0.26154	0.06196	0.16476	0.25932	-2.3333	-2.7417	-2.9083	-2.975	-3.075	-2.8604	-2.8625	-3.1042	-2.7458	-2.7313	-3.2146	-2.6771	-2.9458	-3	-2.7771	-2.7438	157.988	290.239	137.009	6.135	-22.478	316.403	300.197	54.290	236.537	208.041	25.255	314.604	302.934	22.836	316.097	7.893	0.00037708	0.00021266	0.00013978	1127	2.4413e-06	4.3278e-06	1188.3	233.68	6.4925e-06	1.3266e-06	294.78	83.495	64.708	19.038	9.2703e-07	26.96	6.8703e-05	5.7526e-05	1.604e-05	1066.7	6.5092e-07	6.2272e-07	1158.1	228.29	6.6245e-07	6.2334e-07	285.6	81.469	63.354	18.858	6.3696e-07	26.575	316.966	59.393	76.596	-12.377	185.814	127.727	-12.208	-4.751	135.698	169.044	-5.688	1.272	2.048	8.269	152.104	7.912	-8191	255	
847.274	1	1	0	0	0.33422	0.0981	0.16619	0.092611	0.22802	0.030064	0.52812	0.020099	0.0065811	0.084529	0.21608	0.089108	0.12068	0.084868	0.19604	0.22834	-2.3375	-2.575	-3.1063	-2.9917	-2.7708	-3.0167	-2.7542	-3.1312	-3.0792	-2.7771	-3.1583	-2.6	-2.7958	-3.0625	-2.7521	-3.0042	17.646	309.640	100.938	46.034	161.243	113.490	271.874	279.157	30.450	18.837	83.752	-15.813	311.832	81.644	-2.131	-11.395	0.00044823	0.00022285	9.2308e-05	1125.8	2.2717e-06	3.0602e-06	1186.9	233.49	2.9288e-06	1.9175e-06	294.29	83.259	64.804	19.146	3.0694e-06	27.099	6.9424e-05	5.6983e-05	1.5843e-05	1067.5	6.2604e-07	6.0773e-07	1157.9	228.84	6.762e-07	6.1155e-07	285.94	81.604	63.339	18.911	6.317e-07	26.586	317.991	37.103	63.455	-12.063	142.825	161.225	-12.186	-4.956	128.204	142.153	-5.180	1.505	1.839	8.539	168.876	7.847	-8191	255	
847.370	1	1	0	0	0.073984	0.079715	0.12691	0.12599	0.10886	0.20309	0.4116	0.10499	0.11363	0.28973	0.068575	0.057865	0.32918	0.068797	0.17012	0.16801	-2.7083	-2.7146	-2.9313	-2.6604	-2.7604	-3.0771	-2.9313	-3.0479	-2.8729	-2.7313	-3.2021	-2.9292	-2.7771	-2.9562	-2.6583	-3.0646	193.011	221.593	48.443	133.958	64.928	175.913	287.536	197.447	41.747	68.325	196.061	40.178	313.080	217.318	-18.616	303.055	0.00033958	0.00030973	7.3465e-05	1127.3	2.108e-06	1.9621e-06	1186.6	233.53	3.1312e-06	3.9666e-06	295.99	83.082	65.136	19.018	4.0668e-06	26.937	6.9341e-05	5.8881e-05	1.5724e-05	1067	6.3014e-07	6.1087e-07	1158.3	228.64	6.3927e-07	6.228e-07	286.67	81.548	63.391	18.905	6.3437e-07	26.494	322.831	70.828	72.534	-12.163	168.086	179.615	-12.247	-4.806	112.425	137.223	-5.379	1.504	1.872	8.352	100.700	7.695	-8191	255	
847.466	1	1	0	0	0.21251	0.23566	0.04448	0.13987	0.18408	0.22767	0.11803	0.22337	0.13418	0.045645	0.16128	0.22209	0.02481	0.22396	0.17649	0.22323	-2.7229	-2.6958	-2.875	-2.6688	-2.9688	-3.0958	-2.8812	-2.9188	-3.1229	-2.9333	-3.2438	-2.8979	-2.6667	-3.2021	-2.8167	-3.0792	182.529	272.367	-22.536	221.709	137.006	279.517	1.743	72.208	53.693	274.240	107.255	88.904	304.775	286.721	57.279	337.184	0.00042101	0.00025102	5.3776e-05	1123.5	4.588e-06	2.2854e-06	1190.3	234.33	3.8888e-06	8.6606e-07	293.63	83.98	64.749	19.044	3.8036e-06	26.876	6.862e-05	6.0146e-05	1.5972e-05	1064.7	6.7096e-07	6.195e-07	1158.9	229.4	6.6582e-07	6.1867e-07	286.56	81.773	63.526	18.857	6.3824e-07	26.607	335.861	70.441	79.674	-12.495	140.575	180.838	-12.133	-4.711	137.822	122.141	-5.459	1.362	1.906	8.381	142.072	7.836	-8191	255	
847.587	1	1	0	0	0.24759	0.069727	0.20006	0.063767	0.018503	0.28186	0.41732	0.17092	0.22663	0.19268	0.10851	0.10033	0.13844	0.30877	0.02514	0.15337	-2.5375	-2.5979	-2.9188	-2.9104	-2.8583	-3.15	-3.0771	-2.9896	-3.1354	-2.6646	-2.8521	-2.8021	-2.8875	-3.1021	-2.9	-2.7875	312.426	175.284	166.141	139.232	66.743	246.520	330.078	273.242	96.735	14.493	335.290	293.188	302.059	159.687	279.209	180.365	0.00033626	0.00039951	5.8912e-05	1127.5	1.7821e-06	4.6294e-06	1193.6	235.17	3.1331e-06	3.3507e-06	293.72	83.603	64.839	19.03	1.3953e-06	27.074	6.904e-05	5.9746e-05	1.6361e-05	1065.7	6.6691e-07	6.1888e-07	1160.4	229.4	6.7029e-07	6.3293e-07	286.07	81.58	63.46	18.89	6.4268e-07	26.648	321.854	56.668	89.385	-12.350	152.127	131.057	-12.358	-4.899	157.143	157.569	-5.636	1.191	2.072	8.619	99.385	8.041	-8191	255	
847.683	1	1	0	0	0.089585	0.16477	0.11975	0.22834	0.095615	0.085874	0.045771	0.21688	0.067636	0.2604	0.22192	0.062208	0.25632	0.2402	0.23346	0.17052	-2.6	-2.8708	-2.8104	-2.9833	-2.4875	-3.1896	-3.0042	-2.8	-3.0896	-2.7354	-3.2875	-3.1354	-2.7646	-3.0604	-2.7042	-2.7667	-22.094	97.004	177.281	261.362	165.072	50.699	247.507	319.449	25.429	209.489	302.773	223.089	295.008	331.341	255.185	167.808	0.00037118	0.0001348	0.00010596	1129.7	2.7994e-06	3.8447e-06	1194.6	235.57	3.6456e-06	2.4739e-06	296.3	83.405	64.78	19.109	1.8174e-06	27.021	6.9207e-05	6.0474e-05	1.6522e-05	1068.2	6.4142e-07	6.2417e-07	1159.8	229.56	6.6373e-07	6.2342e-07	286.88	81.827	63.392	18.922	6.4848e-07	26.622	312.822	79.594	111.315	-12.275	137.818	143.208	-12.186	-4.958	155.302	178.285	-5.411	1.406	1.773	8.223	113.741	8.212	-8191	255	
847.779	1	1	0	0	0.33299	0.099957	0.02694	0.039393	0.28558	0.12974	0.23119	0.13485	0.31108	0.24078	0.22551	0.20405	0.24709	0.1571	0.057279	0.19163	-2.75	-2.6896	-2.85	-2.85	-2.5062	-3.025	-3.025	-2.9562	-2.7667	-2.7479	-3.025	-3.0375	-2.525	-2.9313	-2.8312	-2.8292	310.100	-3.533	225.099	210.966	204.447	318.989	278.378	95.401	40.735	252.485	22.396	247.690	225.495	284.925	92.863	232.945	0.00039301	0.00030063	0.00014754	1126.6	2.0834e-06	1.5617e-06	1193.2	235.96	1.6508e-06	3.3553e-06	295.13	83.928	65.163	19.163	3.8217e-06	26.964	6.7656e-05	5.9323e-05	1.665e-05	1066.1	6.5092e-07	6.2363e-07	1160	229.49	6.6988e-07	6.3579e-07	286.72	81.926	63.481	18.945	6.6394e-07	26.7	321.746	72.969	73.394	-11.924	82.584	174.370	-12.278	-4.924	179.081	100.546	-5.354	1.249	1.618	8.326	147.137	7.498	-8191	255	
847.875	1	1	0	0	0.28572	0.12052	0.010154	0.17276	0.15337	0.20434	0.099924	0.10603	0.25745	0.085674	0.1036	0.064312	0.17964	0.2178	0.29483	0.078524	-2.7708	-2.5854	-2.7208	-3.1083	-2.8063	-2.8896	-3.025	-2.9604	-3.0271	-2.7917	-2.9813	-3.275	-2.7625	-2.8396	-3.0333	-2.9083	60.890	80.148	171.302	149.616	321.642	53.325	297.936	184.496	17.675	-0.019	111.532	-19.730	107.325	13.664	248.152	246.369	0.00036528	0.00023689	5.1023e-05	1126	3.8304e-06	3.6739e-06	1194	235.15	3.3289e-06	1.5815e-06	295.62	83.708	65.306	19.101	3.3549e-06	26.947	7.045e-05	6.0787e-05	1.6687e-05	1069.1	6.4563e-07	6.3892e-07	1161.3	230.01	6.8391e-07	6.4476e-07	286.88	81.987	63.514	18.94	6.5091e-07	26.643	318.590	41.863	58.923	-12.627	128.597	168.697	-12.123	-4.928	175.481	181.838	-5.712	1.200	1.688	8.379	104.143	7.829	-8191	255	
847.972	1	1	0	0	0.028999	0.31278	0.21732	0.17259	0.11833	0.18736	0.30726	0.041846	0.053685	0.22921	0.32157	0.26059	0.12288	0.043703	0.16949	0.13418	-2.7458	-2.6396	-2.65	-3.1896	-2.6375	-2.9792	-3.225	-2.8479	-3.0062	-3.0292	-2.8875	-3.225	-2.7667	-2.7896	-2.9146	-2.8958	114.520	290.447	72.658	115.108	311.941	21.370	271.128	199.598	132.284	150.981	286.649	236.071	105.761	299.369	18.632	285.383	0.00029976	0.00028079	7.2156e-05	1132.9	1.1178e-06	2.6707e-06	1197.2	235.59	2.8931e-06	4.5247e-06	295.69	83.715	65.209	19.34	5.159e-06	27.149	6.6862e-05	5.7232e-05	1.6276e-05	1071.6	6.5352e-07	6.5073e-07	1161.9	230.11	6.7661e-07	6.4162e-07	287.22	81.962	63.621	19.002	6.4918e-07	26.672	321.174	17.987	32.648	-12.224	171.590	169.354	-12.282	-4.778	130.303	147.520	-5.184	1.407	2.030	8.301	67.556	7.568	-8191	255	
848.066	1	1	0	0	0.099864	0.25297	0.33297	0.10426	0.13484	0.22854	0.12015	0.12821	0.053957	0.18558	0.076111	0.21783	0.064098	0.14687	0.13797	0.076077	-2.6042	-2.85	-2.5771	-3.1021	-2.8458	-2.9062	-3.2375	-2.8063	-2.9437	-3.0542	-2.8458	-3.0438	-2.7479	-2.8979	-3.0938	-2.7083	31.659	51.383	223.159	39.250	164.883	204.356	264.536	307.518	63.343	-6.454	78.957	-6.878	216.293	82.501	325.187	139.049	0.00041269	0.00028962	0.00010256	1128.7	3.1474e-06	1.8158e-06	1195	234.57	3.8234e-06	3.1938e-06	295.3	84.096	65.041	19.234	4.6122e-06	27.145	7.1932e-05	5.6677e-05	1.5971e-05	1070.6	6.6104e-07	6.4788e-07	1163.4	230.17	6.7271e-07	6.4517e-07	287.23	82.123	63.621	19	6.5946e-07	26.732	317.613	72.271	38.066	-12.462	142.015	188.287	-12.134	-4.937	130.184	140.975	-5.336	1.364	1.850	8.113	131.387	7.805	-8191	255	
848.187	1	1	0	0	0.47357	0.19669	0.064737	0.1379	0.26542	0.26492	0.25143	0.14162	0.012835	0.14773	0.23904	0.22365	0.25817	0.11389	0.14019	0.12206	-2.4354	-2.5646	-2.8625	-3.2729	-2.8479	-2.5625	-3.2	-2.7938	-3.1271	-3.0062	-2.7833	-3.2229	-2.9583	-3.0375	-3.2729	-2.9375	-18.801	68.889	210.498	75.452	47.919	42.047	323.250	280.115	248.210	115.962	230.987	268.789	30.086	-1.126	149.736	319.082	0.00040951	0.00027887	8.2387e-05	1131.5	3.2104e-06	2.9412e-06	1191.9	235.04	3.9634e-06	1.9755e-06	296.02	83.826	65.542	19.167	3.9987e-06	26.962	7.1877e-05	5.9432e-05	1.6284e-05	1071	6.4142e-07	6.497e-07	1161.6	230.01	6.7197e-07	6.5394e-07	287.36	82.134	63.797	18.931	6.6032e-07	26.736	331.063	49.852	64.230	-12.358	157.760	165.600	-12.219	-5.152	162.601	143.850	-5.526	1.378	1.648	8.187	95.988	7.644	-8191	255	
848.283	1	1	0	0	0.35582	0.14395	0.14149	0.071504	0.11736	0.11239	0.19355	0.18258	0.053889	0.25746	0.14008	0.11882	0.16371	0.27557	0.11179	0.15748	-2.3354	-2.9021	-2.7604	-3.1146	-2.9167	-2.8187	-3.1729	-2.9146	-2.8708	-3.2062	-2.7604	-3.0958	-3.1875	-2.7542	-3.125	-2.7833	56.235	135.971	269.716	13.414	199.631	34.129	335.431	281.015	117.753	233.812	-21.957	331.193	-9.396	284.512	264.122	10.763	0.00036365	0.00038517	0.00010363	1129	2.5979e-06	3.6093e-06	1194.2	236.05	4.226e-06	2.6839e-06	297.52	83.816	65.437	19.174	3.5052e-06	27.26	7.1707e-05	5.9308e-05	1.6155e-05	1070.8	6.4228e-07	6.3714e-07	1163.6	230.53	6.8621e-07	6.2276e-07	288.25	82.081	63.765	18.968	6.7069e-07	26.741	317.204	45.621	33.838	-12.224	141.440	142.937	-12.412	-5.000	138.257	152.911	-5.533	1.287	1.571	8.400	144.384	7.936	-8191	255	
848.377	1	1	0	0	0.43148	0.031167	0.10767	0.14624	0.13538	0.36334	0.45324	0.11086	0.28836	0.29264	0.18979	0.062171	0.067194	0.075775	0.08118	0.065949	-2.3104	-2.8854	-2.6104	-3.0708	-2.8917	-2.8646	-3.2062	-2.9833	-2.7271	-3.1271	-2.8958	-2.9604	-3.0604	-2.7375	-2.9646	-2.7771	83.852	17.015	203.740	236.951	149.202	176.556	229.558	297.722	102.459	102.710	234.677	332.931	54.946	166.588	222.082	133.928	0.00040459	0.00033314	0.00010007	1128.9	2.3833e-06	3.3336e-06	1203	235.84	2.8274e-06	3.7072e-06	296.86	83.901	65.307	19.202	2.6333e-06	27.091	7.0004e-05	6.1029e-05	1.6464e-05	1072.4	6.5856e-07	6.542e-07	1166	230.83	6.7361e-07	6.5671e-07	288.31	82.294	63.789	19.008	6.5687e-07	26.686	329.875	94.726	57.717	-12.461	136.542	94.631	-12.202	-4.801	156.127	136.170	-5.402	1.525	1.965	8.055	111.874	7.879	-8191	255	
848.498	1	1	0	0	0.13924	0.14749	0.067811	0.12635	0.13588	0.074896	0.24584	0.20327	0.14758	0.10436	0.28529	0.12112	0.26834	0.16723	0.1649	0.1871	-2.3021	-3.0563	-2.7417	-3.1729	-3.2125	-2.7938	-3.2292	-2.9938	-2.8604	-3.0438	-2.9021	-2.8708	-3.0979	-2.7479	-2.9	-2.95	26.514	75.052	155.479	94.044	186.811	52.245	220.746	282.601	207.242	88.678	292.736	293.118	2.124	253.577	248.713	308.493	0.00040711	0.00036066	6.0162e-05	1135.3	2.6088e-06	3.5635e-06	1195.3	235.92	3.7107e-06	1.4749e-06	296.52	83.847	65.352	19.342	3.4596e-06	27.186	6.9004e-05	5.9417e-05	1.6464e-05	1076.3	6.6336e-07	6.2838e-07	1165.8	231.19	6.6676e-07	6.6415e-07	288.77	82.208	63.805	19.084	6.7891e-07	26.736	324.137	66.145	50.840	-12.308	117.277	190.147	-11.901	-4.971	158.272	149.040	-5.611	1.373	1.951	8.545	116.020	7.750	-8191	255	
848.570	1	1	0	0	0.15508	0.17605	0.042578	0.068584	0.33054	0.20281	0.11805	0.24464	0.26384	0.28096	0.11445	0.17896	0.18776	0.20475	0.21941	0.19407	-2.3312	-3.0563	-2.75	-3.1271	-3.1375	-2.5792	-3.2667	-3.15	-2.8271	-3.0812	-2.8063	-3.0125	-3.2062	-2.8187	-2.95	-2.9917	-7.242	-23.129	142.669	293.172	96.640	214.036	285.122	292.504	66.119	321.086	127.484	10.179	27.859	169.520	302.935	188.152	0.00038352	0.00022716	0.00011995	1135.8	3.8803e-06	2.3202e-06	1199	235.73	2.479e-06	2.1159e-06	297.54	83.888	65.209	19.169	5.677e-06	27.327	7.0903e-05	5.9931e-05	1.6094e-05	1074	6.6803e-07	6.4383e-07	1165.2	231.08	6.6118e-07	6.5381e-07	288.78	82.074	63.878	19.046	6.53e-07	26.807	333.001	76.015	113.937	-12.045	139.628	134.994	-12.322	-5.256	138.770	137.361	-5.694	1.849	2.045	8.492	117.025	7.689	-8191	255	
848.666	1	1	0	0	0.10654	0.18798	0.062442	0.12497	0.21323	0.24214	0.48702	0.11897	0.047415	0.028378	0.21382	0.26779	0.21893	0.26243	0.13522	0.16271	-2.2146	-3.3729	-2.9188	-2.6271	-3.0604	-2.9375	-3.0479	-3.0625	-2.7125	-3.15	-2.9104	-2.9896	-3.0521	-2.8	-2.9625	-3.1437	328.897	58.763	94.337	302.042	104.710	90.621	267.456	202.504	168.207	89.398	328.791	247.829	86.042	290.209	8.911	172.055	0.00036327	0.00030235	0.00012656	1129.3	1.9608e-06	3.5519e-06	1199.2	235.86	2.0231e-06	3.0796e-06	298.88	84.068	65.245	19.267	3.7287e-06	27.039	7.0953e-05	6.1373e-05	1.6692e-05	1074.5	6.5146e-07	6.5395e-07	1168.6	231.12	6.7833e-07	6.4724e-07	289.42	82.322	63.796	19.073	6.7221e-07	26.749	316.912	62.442	88.145	-12.216	149.622	127.001	-12.078	-5.030	106.462	156.018	-5.588	1.406	1.764	8.755	126.879	7.677	-8191	255	
848.762	1	1	0	0	0.26119	0.087328	0.15923	0.027101	0.19744	0.070209	0.27736	0.24126	0.057948	0.15054	0.070495	0.32239	0.18692	0.18499	0.2685	0.13938	-2.3417	-2.7396	-2.8375	-2.9042	-3.0312	-2.9083	-2.8396	-2.9729	-2.7292	-3.0312	-3.2125	-2.7646	-2.95	-2.7646	-3.0354	-3.1229	287.380	23.819	221.943	331.590	231.315	-9.261	282.648	285.218	244.002	18.926	173.708	262.600	-5.197	337.021	232.468	176.296	0.00039601	0.00033607	9.841e-05	1135.5	1.5254e-06	2.704e-06	1202.4	236.57	3.1494e-06	2.2369e-06	298.56	84.407	65.819	19.216	3.0233e-06	27.155	7.2569e-05	6.0746e-05	1.7188e-05	1077.7	6.7555e-07	6.6222e-07	1169.3	231.61	7.0057e-07	6.6212e-07	289.48	82.456	64.091	19.002	6.9298e-07	26.793	321.106	82.736	82.100	-11.949	156.522	101.506	-12.109	-4.942	106.470	140.797	-5.696	1.478	1.854	8.245	97.112	7.366	-8191	255	
848.882	1	1	0	0	0.39946	0.1966	0.2438	0.21371	0.22258	0.15181	0.09478	0.3343	0.06931	0.25922	0.12182	0.26195	0.19914	0.2889	0.061949	0.27957	-2.2146	-3.1542	-2.9646	-3.0229	-2.9729	-3.0167	-3.1417	-3.0146	-2.725	-3.1396	-2.9875	-2.8229	-3.2208	-2.8875	-2.6958	-3.1562	116.700	284.882	223.648	335.507	97.001	305.196	303.643	316.303	43.566	234.680	229.672	310.515	188.090	234.052	125.418	98.817	0.0004253	0.00027566	8.4222e-05	1140	4.5478e-06	3.387e-06	1199	237.38	1.4124e-06	3.1222e-06	297.03	83.981	65.61	19.325	2.1998e-06	27.105	7.258e-05	5.9949e-05	1.6644e-05	1076.9	6.8534e-07	6.547e-07	1169.3	231.65	6.8974e-07	6.6721e-07	288.95	82.364	63.99	19.067	6.7879e-07	26.76	325.403	60.262	56.917	-11.982	124.630	107.573	-12.269	-5.150	140.140	106.163	-5.135	1.588	1.521	8.386	117.929	7.706	-8191	255	
848.979	1	1	0	0	0.087217	0.18919	0.09097	0.30464	0.11251	0.051946	0.30681	0.13734	0.15875	0.073222	0.32609	0.040242	0.46393	0.13495	0.15589	0.30343	-2.425	-2.9292	-2.8917	-2.7021	-2.9979	-3.1396	-3.0312	-2.9833	-2.6146	-2.9667	-3.0896	-2.7229	-2.9688	-2.6354	-2.6875	-3.1688	324.723	307.007	23.992	8.772	186.270	117.795	315.474	85.517	233.389	200.922	-11.110	256.882	-21.894	167.505	308.066	293.173	0.00040001	0.00016703	0.00010455	1134.6	3.0896e-06	4.8503e-06	1201.6	237.39	3.4569e-06	3.7843e-06	299.39	83.866	65.127	19.212	3.9434e-06	27.062	7.2337e-05	6.1297e-05	1.7198e-05	1076.5	6.6439e-07	6.578e-07	1168.9	231.95	6.947e-07	6.6539e-07	289.82	82.313	63.926	19.052	6.822e-07	26.793	328.475	26.388	69.224	-12.073	98.357	152.906	-12.215	-4.847	137.785	162.001	-5.452	1.217	1.701	8.291	106.005	7.889	-8191	255	
849.075	1	1	0	0	0.14743	0.22881	0.19228	0.11291	0.27254	0.13092	0.31596	0.10973	0.23821	0.09578	0.21504	0.076047	0.16432	0.14814	0.16002	0.10811	-2.2042	-2.8771	-2.7958	-2.8625	-3.1583	-3.0187	-2.7958	-3.0146	-2.6854	-2.9958	-3.1208	-2.775	-3.2354	-2.8688	-2.6437	-2.9708	233.032	66.150	324.603	8.725	221.639	33.431	252.929	324.647	134.791	4.957	273.975	221.629	-15.537	245.505	140.547	324.544	0.00036577	0.00042108	7.0685e-05	1140.5	2.3497e-06	4.6891e-06	1199.6	237.58	5.8317e-06	2.5278e-06	299.72	84.233	65.39	19.267	4.3262e-06	27.369	7.1587e-05	6.0085e-05	1.685e-05	1078.9	6.7588e-07	6.7601e-07	1169.8	232.56	6.9815e-07	6.7817e-07	290.32	82.353	64.03	19.08	6.924e-07	26.879	322.409	73.617	100.714	-12.235	145.578	138.598	-12.378	-5.156	122.793	151.454	-5.593	1.538	1.912	8.296	116.762	7.745	-8191	255	
849.146	1	1	0	0	0.10489	0.24979	0.11517	0.12666	0.24063	0.089797	0.34874	0.028393	0.1258	0.23182	0.10406	0.14661	0.085389	0.35097	0.1513	0.12862	-2.3292	-3.0042	-3.1146	-2.7292	-3.0146	-2.9958	-2.9896	-2.9583	-2.8208	-2.9729	-3.1125	-2.6562	-3.0146	-2.9875	-2.5521	-3.1208	3.954	20.269	336.407	-8.343	86.800	291.942	293.750	-12.580	280.944	248.740	259.833	293.058	69.122	112.275	15.218	296.868	0.00042871	0.00043895	9.3406e-05	1133.7	2.2281e-06	3.5066e-06	1203.5	237.61	5.2695e-06	4.0691e-06	297.55	84.404	65.841	19.362	4.6128e-07	27.254	7.3225e-05	6.3377e-05	1.7225e-05	1078.1	6.9001e-07	6.6829e-07	1169.1	232.46	7.1952e-07	6.6634e-07	290.31	82.525	64.14	19.132	6.9882e-07	26.874	323.798	70.909	85.937	-12.130	117.674	123.073	-12.237	-4.914	132.434	158.955	-5.575	1.302	1.460	8.449	131.871	7.689	-8191	255	
849.267	1	1	0	0	0.16501	0.27582	0.32088	0.05583	0.13193	0.052495	0.33187	0.22874	0.11763	0.19033	0.021666	0.057105	0.19791	0.39558	0.081315	0.33057	-2.4437	-2.6917	-2.9646	-2.8458	-3.0333	-2.9	-2.8604	-3.2375	-2.9625	-2.6167	-3.1125	-2.9792	-3.1208	-3.1229	-2.775	-3.0875	48.030	285.099	161.555	333.008	181.956	273.037	268.689	239.429	165.793	196.385	251.562	223.535	195.095	89.884	23.383	292.198	0.00036308	0.00026978	3.9351e-05	1138.9	1.9556e-06	4.3864e-06	1209	237.36	1.8744e-06	1.6081e-06	298.95	84.241	65.963	19.291	2.4076e-06	27.197	7.1743e-05	6.2078e-05	1.7461e-05	1080.7	6.936e-07	6.732e-07	1174.4	232.7	7.1673e-07	6.6332e-07	290.51	82.565	64.231	19.128	6.7509e-07	26.872	324.876	66.084	32.289	-12.187	149.675	143.586	-12.124	-5.126	75.422	132.784	-5.578	1.580	1.521	8.321	106.898	7.963	-8191	255	
849.363	1	1	0	0	0.26635	0.10568	0.12463	0.13826	0.14502	0.089835	0.11055	0.28301	0.23858	0.078153	0.12182	0.19927	0.16052	0.18193	0.059403	0.14707	-2.5917	-2.6083	-3.0646	-2.9979	-2.9792	-3.0354	-2.7812	-3.0438	-2.7396	-2.9792	-3.1958	-2.9313	-2.8417	-3.1854	-2.825	-2.8521	102.239	9.907	52.308	239.654	75.807	144.033	-13.989	310.817	182.805	243.631	206.044	-22.499	-12.767	254.625	230.889	206.923	0.00042394	0.0002868	9.8162e-05	1144.3	2.2371e-06	3.7919e-06	1207	237.25	1.3842e-06	2.7412e-06	298.38	83.788	65.257	19.247	4.172e-06	27.177	7.2917e-05	6.141e-05	1.6895e-05	1082.3	6.9526e-07	6.6808e-07	1170.2	232.6	6.9441e-07	6.6171e-07	290.22	82.498	63.956	19.087	6.8866e-07	26.836	319.934	26.607	54.700	-12.177	139.967	162.036	-12.245	-4.953	150.789	91.233	-5.283	1.168	1.669	8.255	149.190	7.632	-8191	255	
849.459	1	1	0	0	0.14894	0.34077	0.08752	0.11843	0.094865	0.1476	0.08096	0.319	0.056062	0.2143	0.10258	0.1064	0.1314	0.07559	0.038332	0.14207	-2.5667	-2.8333	-3.0167	-2.9396	-2.8688	-3.1229	-2.8771	-2.8979	-3.1479	-2.8729	-3.1813	-2.9583	-2.7833	-3.0292	-2.8104	-2.8208	22.477	240.336	49.216	103.717	55.501	79.156	319.929	334.397	116.800	39.144	275.688	86.875	4.873	310.202	257.890	216.933	0.00039353	0.00037516	7.3248e-05	1137.5	1.7464e-06	3.7781e-06	1206.3	238.12	4.896e-06	2.5035e-06	297.85	84.768	65.858	19.415	5.073e-06	27.204	7.2381e-05	6.044e-05	1.6995e-05	1080.1	6.8646e-07	6.4503e-07	1172	232.62	6.9884e-07	6.6076e-07	290.24	82.676	64.21	19.112	6.8825e-07	26.869	326.198	65.966	86.276	-12.069	124.148	115.839	-12.309	-4.789	129.330	144.077	-5.619	1.627	1.337	8.186	115.668	8.332	-8191	255	
849.578	1	1	0	0	0.19278	0.19751	0.059314	0.12148	0.23375	0.21435	0.26123	0.17435	0.25349	0.060264	0.26609	0.17525	0.083423	0.075093	0.066632	0.24443	-2.4813	-2.7438	-2.8812	-2.8667	-2.8792	-3.1188	-2.7562	-3.0229	-2.9792	-2.6688	-3.0521	-2.8792	-2.7938	-3.1375	-2.7708	-2.9104	277.423	146.867	71.638	297.987	117.707	128.952	247.745	331.693	109.669	306.799	-22.235	172.493	49.519	-1.407	293.750	87.053	0.00042578	0.00029708	6.9957e-05	1137.7	2.8379e-06	4.4403e-06	1202	239.22	2.3531e-06	2.2469e-06	300.41	84.335	65.501	19.283	3.5253e-06	27.183	7.1381e-05	6.149e-05	1.7348e-05	1078.7	6.8803e-07	6.8696e-07	1171.8	233.08	6.8264e-07	6.871e-07	290.9	82.64	64.143	19.098	6.8623e-07	26.841	322.578	3.011	53.572	-12.099	153.776	150.197	-12.265	-5.090	195.992	120.499	-5.410	1.627	1.910	8.701	127.861	8.014	-8191	255	
849.674	1	1	0	0	0.13737	0.15258	0.16701	0.20005	0.084193	0.1142	0.14852	0.14112	0.080058	0.16147	0.25627	0.31743	0.058548	0.12309	0.046294	0.17101	-2.6688	-2.5229	-2.8438	-2.8875	-2.9313	-2.9979	-2.8438	-2.8937	-3.1667	-2.7417	-3.025	-2.9896	-2.8167	-3.2229	-2.8	-2.9875	104.777	291.875	131.792	254.215	-15.765	256.848	213.903	234.969	326.094	69.286	-16.363	266.481	91.803	64.794	162.584	237.117	0.00036263	0.00020734	2.9021e-05	1139.6	2.8355e-06	1.413e-06	1206.3	237.22	3.554e-06	3.5976e-06	299.22	84.769	65.869	19.194	1.5921e-06	27.231	7.1656e-05	6.0108e-05	1.77e-05	1080.1	6.9001e-07	6.6341e-07	1172.9	232.88	6.8691e-07	6.7407e-07	290.8	82.722	64.204	19.138	6.7649e-07	26.815	328.674	70.303	80.519	-12.436	101.483	162.393	-12.411	-4.860	141.977	137.647	-5.305	1.328	1.955	8.102	115.223	7.543	-8191	255	
849.771	1	1	0	0	0.075189	0.0098219	0.14246	0.15059	0.27643	0.29117	0.29054	0.18677	0.057668	0.089426	0.07536	0.10158	0.11895	0.28182	0.08448	0.20298	-2.8604	-2.6729	-2.8521	-3.05	-2.7604	-2.8937	-3.0021	-2.9021	-3.1188	-2.725	-2.9375	-3.0792	-2.6104	-3.1583	-2.7979	-2.7792	272.343	294.072	115.096	256.090	125.342	160.357	256.031	321.891	92.979	10.422	275.818	252.336	300.767	282.188	295.223	327.598	0.0002938	0.00033414	5.4707e-05	1137.5	3.5731e-06	4.095e-06	1206.4	238.63	1.5302e-06	3.2901e-06	300.7	84.652	65.581	19.445	4.1606e-06	27.153	7.2906e-05	6.1101e-05	1.6375e-05	1081.8	6.8042e-07	6.523e-07	1174.3	233.42	7.0844e-07	6.6899e-07	291.56	82.78	64.224	19.16	6.7566e-07	26.794	314.984	54.055	50.078	-12.055	120.502	146.588	-12.191	-4.766	109.647	128.554	-5.597	1.494	1.866	8.376	142.417	7.561	-8191	255	
849.867	1	1	0	0	0.13748	0.13701	0.11937	0.20782	0.047755	0.15759	0.27169	0.18054	0.16586	0.11465	0.15556	0.14465	0.039718	0.19561	0.090451	0.25883	-2.7188	-2.7438	-2.8792	-2.8333	-2.6729	-3.1437	-3.075	-2.7229	-3.0542	-3.0583	-2.925	-3.1167	-2.7646	-3.1021	-2.7812	-2.8708	161.254	73.702	30.981	122.508	197.100	109.538	319.508	326.460	-21.463	139.398	332.365	132.829	296.215	-3.469	275.057	214.574	0.00041029	0.00032792	0.000114	1136	1.936e-06	4.0991e-06	1206.7	239.12	1.2898e-06	2.123e-06	298.64	84.602	65.895	19.411	3.0005e-06	27.32	7.1174e-05	6.1271e-05	1.717e-05	1081.3	6.7699e-07	6.6403e-07	1174.7	233.39	6.9002e-07	6.5427e-07	290.86	82.747	64.421	19.191	6.5983e-07	26.902	326.064	52.138	76.443	-12.089	161.996	149.470	-12.091	-4.845	104.856	119.288	-5.496	1.173	1.829	8.165	88.984	7.990	-8191	255	
849.963	1	1	0	0	0.25103	0.19323	0.064816	0.12859	0.16213	0.096097	0.31681	0.23317	0.083412	0.12464	0.13333	0.14638	0.11231	0.27655	0.13045	0.26395	-2.5917	-2.675	-2.8208	-3.2708	-2.6708	-3.0208	-3.3667	-2.5958	-3.075	-2.8812	-2.9708	-3.1021	-2.8688	-3.1042	-2.7708	-2.7438	54.275	283.235	12.402	195.123	120.170	62.199	248.924	318.931	101.779	95.457	69.294	321.599	187.211	94.401	115.367	295.996	0.00043677	0.0002654	3.8966e-05	1138.1	1.9529e-06	4.2871e-06	1211.1	239.45	2.7032e-06	3.4374e-06	299.51	84.774	65.482	19.318	4.1516e-06	27.321	7.1254e-05	6.2033e-05	1.7173e-05	1082	6.8827e-07	6.6598e-07	1174.6	233.48	6.8206e-07	6.6634e-07	291.53	82.94	64.206	19.161	6.9183e-07	26.942	311.033	41.515	45.631	-12.470	136.773	155.581	-12.313	-5.102	123.394	138.649	-5.741	1.368	1.806	8.490	133.130	7.902	-8191	255	
850.059	1	1	0	0	0.12427	0.14753	0.20881	0.15762	0.16102	0.18895	0.32197	0.25022	0.098746	0.092892	0.079015	0.13469	0.2314	0.10861	0.14234	0.14333	-2.6229	-2.7896	-2.6854	-3.1	-2.6875	-2.8271	-3.2375	-2.9979	-3.025	-2.8208	-2.7833	-3.0312	-2.9083	-2.7333	-3.1375	-2.8063	316.992	46.822	-13.768	201.531	-18.308	213.487	297.130	328.819	106.208	298.907	282.176	43.598	328.261	281.625	155.877	28.440	0.00036111	0.00025937	7.9543e-05	1148.1	2.7969e-06	3.9989e-06	1207.3	238.38	3.0656e-06	2.9372e-06	299.1	84.391	65.408	19.433	1.7524e-06	27.316	7.249e-05	6.3403e-05	1.687e-05	1086.1	6.8695e-07	6.8337e-07	1176	233.72	7.1283e-07	6.7197e-07	291.45	82.902	64.315	19.206	6.9285e-07	26.899	323.053	80.690	78.537	-12.109	106.281	130.617	-12.111	-5.068	121.270	108.761	-5.608	1.473	1.748	8.422	199.897	7.776	-8191	255	
850.155	1	1	0	0	0.081798	0.15512	0.021783	0.086113	0.17036	0.20817	0.46634	0.18314	0.086417	0.038896	0.10799	0.073928	0.1876	0.26029	0.1015	0.024433	-2.5375	-2.6042	-2.7313	-3.1542	-2.8583	-2.6104	-3.0271	-2.8563	-3.2062	-2.7708	-2.6979	-3.1729	-2.8854	-2.6	-3.0708	-2.8833	88.809	133.892	316.920	293.706	10.613	71.831	292.781	279.143	102.149	29.274	119.911	137.769	292.647	212.652	331.555	-22.499	0.00039565	0.0001442	0.00011363	1144.3	2.9059e-06	3.1619e-06	1210.6	239.47	3.3059e-06	3.2414e-06	301.79	84.774	66.015	19.472	4.46e-06	27.294	7.2903e-05	6.309e-05	1.6974e-05	1085.9	7.0749e-07	6.8952e-07	1177.1	233.81	6.9577e-07	6.6973e-07	292.4	82.736	64.461	19.222	6.8648e-07	26.965	322.357	27.322	50.789	-12.423	127.433	152.974	-12.300	-5.067	67.752	145.583	-5.495	1.261	1.833	7.791	129.855	7.450	-8191	255	
850.276	1	1	0	0	0.17315	0.20157	0.12229	0.11655	0.035088	0.11211	0.19409	0.15167	0.018506	0.45838	0.16525	0.16961	0.21485	0.10573	0.25813	0.36504	-2.5896	-2.7	-2.6646	-3.1271	-2.9458	-2.8	-3.1146	-3.0396	-3.0958	-3.1042	-2.6833	-3.0479	-2.9688	-2.9625	-2.9417	-2.5917	183.545	204.484	26.195	24.761	153.442	335.073	228.400	318.561	135.094	2.290	272.178	88.262	249.067	140.031	173.576	89.546	0.00044056	0.00028202	7.8227e-05	1148	4.2139e-06	3.7542e-06	1208.9	239.4	2.9708e-06	2.2633e-06	300.36	85.081	66.285	19.421	1.911e-06	27.298	7.5591e-05	6.2143e-05	1.7593e-05	1087.9	7.1906e-07	6.8089e-07	1178.5	234.34	7.3536e-07	6.8346e-07	292.19	83.159	64.579	19.21	7.0803e-07	26.938	311.520	53.515	70.324	-12.332	153.440	176.533	-12.188	-5.263	166.578	130.062	-5.619	1.633	1.868	8.361	80.917	7.407	-8191	255	
850.370	1	1	0	0	0.32487	0.088152	0.069409	0.14012	0.12668	0.30579	0.13577	0.19735	0.12795	0.15084	0.16886	0.11098	0.17209	0.15142	0.089908	0.13141	-2.6896	-3.1521	-2.6833	-3.0687	-3.0375	-2.6937	-3.1312	-2.7812	-2.9479	-3.05	-2.7979	-2.9354	-2.8396	-2.7396	-3.1396	-2.9688	181.609	129.034	318.905	254.639	295.242	294.204	266.516	249.705	272.004	11.450	220.835	333.699	115.486	-16.726	154.719	152.904	0.00037674	0.0003367	9.2793e-05	1151.3	1.3273e-06	2.237e-06	1214.4	239.5	2.6346e-06	2.128e-06	301.73	85.516	65.807	19.46	1.3954e-06	27.349	7.6204e-05	6.4551e-05	1.7245e-05	1088.4	7.155e-07	6.8882e-07	1180.2	234.66	7.361e-07	7.091e-07	292.65	83.071	64.43	19.249	7.1453e-07	27.047	319.032	62.020	62.146	-12.696	147.781	145.231	-12.236	-4.990	167.095	154.081	-5.773	1.322	1.743	8.060	91.606	7.460	-8191	255	
850.444	1	1	0	0	0.043122	0.25229	0.05215	0.28352	0.04322	0.061793	0.2678	0.30754	0.01708	0.20129	0.1529	0.11259	0.26181	0.078566	0.20598	0.11046	-2.6021	-2.9938	-2.475	-3.1125	-2.9771	-2.9083	-3.1979	-2.6	-2.925	-3.1146	-2.9667	-3.0479	-2.9333	-2.6979	-3.0667	-2.8646	62.779	52.669	311.499	58.978	303.578	43.242	307.511	276.215	336.260	210.756	202.402	308.812	15.363	112.650	239.070	141.956	0.00038755	0.00045645	6.3425e-05	1140.9	2.7692e-06	2.2057e-06	1215.3	240.24	2.8842e-06	2.5725e-06	302.32	84.733	65.924	19.414	2.348e-06	27.202	7.7704e-05	6.58e-05	1.813e-05	1086.1	7.1683e-07	6.8564e-07	1181.4	234.66	7.2088e-07	7.1207e-07	292.91	83.051	64.643	19.299	7.158e-07	26.96	330.715	59.662	34.232	-12.501	72.856	165.800	-12.287	-5.048	175.564	127.206	-5.722	1.386	1.906	8.211	94.090	7.371	-8191	255	
850.540	1	1	0	0	0.058271	0.28572	0.22633	0.10117	0.24728	0.13645	0.43508	0.055493	0.17586	0.088041	0.015971	0.14064	0.26433	0.17172	0.042054	0.11437	-2.4333	-2.8125	-2.7854	-2.9667	-2.9625	-2.5563	-3.2229	-3.1229	-2.8187	-3.0938	-2.7938	-2.7833	-2.9375	-2.6562	-2.9729	-3.1688	218.410	230.516	13.050	101.813	42.923	11.579	286.531	314.879	186.291	174.987	232.758	11.248	-16.581	45.536	182.817	122.249	0.00039681	0.00033398	4.9984e-05	1159.4	1.6781e-06	2.7499e-06	1210.9	241.01	2.8907e-06	1.4899e-06	299.9	85.126	65.805	19.339	3.2272e-06	27.326	7.5602e-05	6.4724e-05	1.797e-05	1090.9	7.0968e-07	7.0948e-07	1181.1	235.16	7.2531e-07	6.9789e-07	292.15	83.072	64.537	19.237	7.1354e-07	26.992	320.115	67.657	44.915	-12.379	92.720	159.961	-12.048	-4.988	127.639	169.413	-5.310	1.269	1.930	8.398	152.079	7.684	-8191	255	
850.659	1	1	0	0	0.22041	0.21551	0.12197	0.13498	0.24223	0.21887	0.30453	0.12173	0.27332	0.43798	0.1304	0.21536	0.24169	0.14539	0.11169	0.25888	-2.2375	-3.0646	-2.6688	-2.9854	-3.2833	-2.75	-3.1104	-3.0021	-2.7958	-3.0917	-2.8396	-2.9062	-3.2833	-2.7438	-3.05	-2.8042	56.188	34.069	272.130	39.250	56.567	252.855	-20.634	191.636	53.110	119.793	325.625	325.375	1.733	314.770	62.262	231.052	0.00040264	0.0002884	0.00013933	1143.5	2.4659e-06	3.2896e-06	1217.3	241.23	3.3832e-06	2.8894e-06	301.75	84.596	66.337	19.396	1.2134e-06	27.378	7.7204e-05	6.3245e-05	1.8146e-05	1088.5	6.9935e-07	6.9688e-07	1182.5	235.46	7.3052e-07	7.0997e-07	292.78	83.244	64.775	19.283	7.1321e-07	27.038	320.070	49.709	72.992	-12.166	130.641	134.605	-12.390	-4.913	125.774	137.720	-5.685	1.379	1.747	8.045	-4.305	7.874	-8191	255	
850.755	1	1	0	0	0.20739	0.16316	0.2628	0.14442	0.059174	0.015672	0.17195	0.14958	0.30018	0.082674	0.04373	0.15477	0.29798	0.069973	0.17457	0.22198	-2.2667	-3.2062	-2.7438	-2.8292	-3.2167	-2.7729	-3.1437	-2.8729	-2.65	-2.9313	-2.9125	-3.0729	-3.1917	-2.7979	-3.0021	-2.8521	63.010	41.946	12.547	295.523	293.926	-13.033	242.659	70.795	102.452	181.178	175.282	180.456	298.326	159.430	310.466	316.637	0.00043737	0.0002983	5.3057e-05	1145.9	3.4748e-06	4.813e-06	1215.5	240	2.5744e-06	1.9615e-06	301.67	85.091	66.531	19.52	2.5941e-06	27.403	7.5146e-05	6.4913e-05	1.8098e-05	1090.6	7.1964e-07	7.0547e-07	1182.3	234.93	7.3618e-07	6.8371e-07	293.38	83.189	64.832	19.276	7.2563e-07	27.091	317.482	53.038	5.256	-12.265	120.104	126.387	-12.263	-5.044	117.858	116.359	-5.727	1.348	1.638	8.325	96.225	7.336	-8191	255	
#DATA ENDS
