BOXY.EXE: ISS Imagent and Oximeter Data Acquisition Program Version 0.80
Ascii Record File

#ACQ INFORMATION
2  Detector Channels 
16  External MUX Channels 
1  Auxiliary Channels 
5000  Waveform (CCF) Frequency (Hz)
1  Waveforms Skipped 
30  Waveforms Averaged 
1  Cycles Averaged 
16  Acquisitions per Waveform 
10.0806  Updata Rate (Hz) 

#FILE INFORMATION
TRUE -- External MUX Channel results are PARSED.
FALSE -- AC DC and Phase are NOT grouped.
TRUE -- Companion Program Settings File CREATED.
FALSE -- AC data not excluded
FALSE -- DC data not excluded
FALSE -- Phase data not excluded
FALSE -- Auxillary Chn. data not excluded
Tab delimiters

#CALIBRATION STATE
TRUE -- Waveform Calibration Values APPLIED.


#AUX CALIBRATION VALUES
Val Type	aux-1	

Term	1.0000e+00	
Factor	0.0000e+00	


#WF CALIBRATION VALUES
A = Detector Channel
Val Type	A-AC1	A-AC2	A-AC3	A-AC4	A-AC5	A-AC6	A-AC7	A-AC8	A-AC9	A-AC10	A-AC11	A-AC12	A-AC13	A-AC14	A-AC15	A-AC16	A-DC1	A-DC2	A-DC3	A-DC4	A-DC5	A-DC6	A-DC7	A-DC8	A-DC9	A-DC10	A-DC11	A-DC12	A-DC13	A-DC14	A-DC15	A-DC16	A-Ph1	A-Ph2	A-Ph3	A-Ph4	A-Ph5	A-Ph6	A-Ph7	A-Ph8	A-Ph9	A-Ph10	A-Ph11	A-Ph12	A-Ph13	A-Ph14	A-Ph15	A-Ph16	

Term	0.00000e+00	0.00000e+00	0.00000e+00	0.00000e+00	0.00000e+00	0.00000e+00	0.00000e+00	0.00000e+00	0.00000e+00	0.00000e+00	0.00000e+00	0.00000e+00	0.00000e+00	0.00000e+00	0.00000e+00	0.00000e+00	0.00000e+00	0.00000e+00	0.00000e+00	0.00000e+00	0.00000e+00	0.00000e+00	0.00000e+00	0.00000e+00	0.00000e+00	0.00000e+00	0.00000e+00	0.00000e+00	0.00000e+00	0.00000e+00	0.00000e+00	0.00000e+00	0.00000e+00	0.00000e+00	0.00000e+00	0.00000e+00	0.00000e+00	0.00000e+00	0.00000e+00	0.00000e+00	0.00000e+00	0.00000e+00	0.00000e+00	0.00000e+00	0.00000e+00	0.00000e+00	0.00000e+00	0.00000e+00	
Factor	1.00000e+00	1.00000e+00	1.00000e+00	1.00000e+00	1.00000e+00	1.00000e+00	1.00000e+00	1.00000e+00	1.00000e+00	1.00000e+00	1.00000e+00	1.00000e+00	1.00000e+00	1.00000e+00	1.00000e+00	1.00000e+00	1.00000e+00	1.00000e+00	1.00000e+00	1.00000e+00	1.00000e+00	1.00000e+00	1.00000e+00	1.00000e+00	1.00000e+00	1.00000e+00	1.00000e+00	1.00000e+00	1.00000e+00	1.00000e+00	1.00000e+00	1.00000e+00	X	X	X	X	X	X	X	X	X	X	X	X	X	X	X	X	

B = Detector Channel
Val Type	B-AC1	B-AC2	B-AC3	B-AC4	B-AC5	B-AC6	B-AC7	B-AC8	B-AC9	B-AC10	B-AC11	B-AC12	B-AC13	B-AC14	B-AC15	B-AC16	B-DC1	B-DC2	B-DC3	B-DC4	B-DC5	B-DC6	B-DC7	B-DC8	B-DC9	B-DC10	B-DC11	B-DC12	B-DC13	B-DC14	B-DC15	B-DC16	B-Ph1	B-Ph2	B-Ph3	B-Ph4	B-Ph5	B-Ph6	B-Ph7	B-Ph8	B-Ph9	B-Ph10	B-Ph11	B-Ph12	B-Ph13	B-Ph14	B-Ph15	B-Ph16	

Term	0.00000e+00	0.00000e+00	0.00000e+00	0.00000e+00	0.00000e+00	0.00000e+00	0.00000e+00	0.00000e+00	0.00000e+00	0.00000e+00	0.00000e+00	0.00000e+00	0.00000e+00	0.00000e+00	0.00000e+00	0.00000e+00	0.00000e+00	0.00000e+00	0.00000e+00	0.00000e+00	0.00000e+00	0.00000e+00	0.00000e+00	0.00000e+00	0.00000e+00	0.00000e+00	0.00000e+00	0.00000e+00	0.00000e+00	0.00000e+00	0.00000e+00	0.00000e+00	5.86857e+01	-1.40275e+02	-1.27777e+02	-1.81956e+02	-7.36887e+01	-5.69442e+01	-1.56028e+02	-1.62015e+02	-8.09294e+01	-6.35191e+01	-1.71357e+02	-1.71405e+02	-1.82318e+02	-1.76945e+02	-7.95853e+01	-1.50279e+02	
Factor	5.16763e-05	1.33635e-04	4.06010e-05	4.21718e-01	1.38256e-06	1.58296e-06	1.58406e-01	5.39367e-02	1.66385e-06	1.37896e-06	8.47905e-02	2.81246e-02	2.35851e-02	8.08168e-03	1.69326e-06	1.20261e-02	1.73923e-06	1.81185e-06	5.05000e-07	2.07507e-01	1.98338e-08	1.98293e-08	7.56450e-02	2.72911e-02	1.96927e-08	1.98476e-08	4.12586e-02	1.36837e-02	1.19586e-02	4.10842e-03	1.97406e-08	5.88837e-03	X	X	X	X	X	X	X	X	X	X	X	X	X	X	X	X	



#DISTANCE SETTINGS
A = Detector Channel
A-1	A-2	A-3	A-4	A-5	A-6	A-7	A-8	A-9	A-10	A-11	A-12	A-13	A-14	A-15	A-16	

2.5000e+00	3.0000e+00	2.5000e+00	3.0000e+00	2.0000e+00	3.0000e+00	1.5000e+00	3.0000e+00	3.0000e+00	3.0000e+00	3.0000e+00	3.0000e+00	3.0000e+00	3.0000e+00	1.5000e+00	3.0000e+00	

B = Detector Channel
B-1	B-2	B-3	B-4	B-5	B-6	B-7	B-8	B-9	B-10	B-11	B-12	B-13	B-14	B-15	B-16	

1.0000e+01	1.0000e+01	1.0000e+01	1.4400e+00	1.0000e+01	1.0000e+01	1.5100e+00	1.9400e+00	1.0000e+01	1.0000e+01	1.9900e+00	2.4900e+00	2.4100e+00	2.9000e+00	1.0000e+01	2.9800e+00	




#DATA BEGINS
time	group	step	mark	flag	A-AC1	A-AC2	A-AC3	A-AC4	A-AC5	A-AC6	A-AC7	A-AC8	A-AC9	A-AC10	A-AC11	A-AC12	A-AC13	A-AC14	A-AC15	A-AC16	A-DC1	A-DC2	A-DC3	A-DC4	A-DC5	A-DC6	A-DC7	A-DC8	A-DC9	A-DC10	A-DC11	A-DC12	A-DC13	A-DC14	A-DC15	A-DC16	A-Ph1	A-Ph2	A-Ph3	A-Ph4	A-Ph5	A-Ph6	A-Ph7	A-Ph8	A-Ph9	A-Ph10	A-Ph11	A-Ph12	A-Ph13	A-Ph14	A-Ph15	A-Ph16	B-AC1	B-AC2	B-AC3	B-AC4	B-AC5	B-AC6	B-AC7	B-AC8	B-AC9	B-AC10	B-AC11	B-AC12	B-AC13	B-AC14	B-AC15	B-AC16	B-DC1	B-DC2	B-DC3	B-DC4	B-DC5	B-DC6	B-DC7	B-DC8	B-DC9	B-DC10	B-DC11	B-DC12	B-DC13	B-DC14	B-DC15	B-DC16	B-Ph1	B-Ph2	B-Ph3	B-Ph4	B-Ph5	B-Ph6	B-Ph7	B-Ph8	B-Ph9	B-Ph10	B-Ph11	B-Ph12	B-Ph13	B-Ph14	B-Ph15	B-Ph16	aux-1	digaux	

1446.093	1	1	0	256	0.14672	0.10267	0.11241	0.11129	0.10029	0.10429	0.11806	0.31271	0.15299	0.28878	0.15864	0.11075	0.15352	0.18522	0.12464	0.28225	-2.3708	-2.6479	-2.8708	-2.6396	-2.7	-2.9437	-2.7313	-2.9708	-2.8104	-2.7375	-2.7979	-2.7979	-2.5854	-2.8771	-2.5979	-2.925	286.411	211.264	492.283	496.789	279.604	514.161	435.878	330.783	403.028	520.286	209.037	515.200	323.174	452.933	363.360	445.563	0.0011152	0.00019916	8.1701e-05	459.13	2.5522e-06	1.8769e-06	609.96	120.04	3.8371e-06	1.5246e-06	224.42	81.015	34.372	12.067	2.573e-06	36.315	3.9172e-05	1.3291e-05	3.3646e-06	431.39	1.4991e-07	1.2141e-07	593.42	115.94	1.5766e-07	1.3554e-07	215.35	77.688	32.625	11.58	1.4246e-07	35.378	384.142	247.810	257.876	182.262	303.111	318.699	182.190	187.502	292.100	313.202	187.014	191.999	191.580	196.212	291.170	195.416	-8191	255	
1446.187	1	1	0	0	0.13299	0.35826	0.17291	0.33481	0.0899	0.14027	0.06478	0.2706	0.18747	0.35484	0.13728	0.12943	0.16279	0.1586	0.21856	0.16236	-2.3104	-2.5021	-2.8917	-2.6479	-2.6542	-2.8583	-2.825	-2.7917	-2.8104	-2.75	-2.9042	-2.6958	-2.5563	-3.1021	-2.4604	-2.9208	178.000	205.684	183.845	243.720	262.117	305.807	380.142	520.920	230.207	343.784	479.323	493.149	476.930	512.009	334.958	460.920	0.0011314	0.00018852	6.1587e-05	459.92	1.8769e-06	2.6107e-06	614.59	120.76	2.7087e-06	2.2096e-06	223.89	80.769	34.498	12.046	2.748e-06	36.583	3.9466e-05	1.2589e-05	3.6402e-06	431.93	1.3714e-07	1.2046e-07	595.95	116.26	1.5463e-07	1.3765e-07	216.12	78	32.753	11.64	1.5751e-07	35.499	381.659	256.784	256.189	181.712	326.176	341.375	182.077	187.414	304.891	327.154	186.883	191.883	191.329	196.374	292.977	195.760	-8191	255	
1446.283	1	1	0	0	0.16232	0.091344	0.162	0.28541	0.22674	0.18909	0.20851	0.045097	0.10271	0.16028	0.28452	0.054356	0.16435	0.035558	0.13501	0.15879	-2.5208	-2.4208	-2.9917	-2.6667	-2.6146	-3.0271	-2.9062	-3	-2.725	-2.7958	-3.0729	-2.7729	-2.65	-2.9979	-2.5083	-2.8417	278.430	382.315	211.405	472.810	332.767	233.675	325.703	224.269	498.036	412.032	308.829	362.498	297.434	191.494	400.238	221.366	0.0011049	0.00026452	4.6704e-05	458.88	1.8262e-06	2.293e-06	621.73	121.18	3.5473e-06	2.0074e-06	226.63	81.859	34.438	12.049	3.3682e-06	37.18	3.9209e-05	1.3649e-05	3.455e-06	433.27	1.3747e-07	1.2703e-07	599.54	116.97	1.5352e-07	1.362e-07	218.35	78.704	32.934	11.686	1.4838e-07	36.001	384.038	257.980	261.066	181.729	301.429	335.936	182.103	187.465	289.534	307.154	186.878	191.716	191.489	196.564	307.365	195.569	-8191	255	
1446.379	1	1	0	0	0.071883	0.18829	0.10604	0.10572	0.026174	0.15334	0.21563	0.041074	0.14714	0.11196	0.32729	0.08046	0.096277	0.11691	0.1587	0.024787	-2.3563	-2.65	-2.8667	-2.8187	-2.8	-3.0438	-2.8167	-2.925	-3.0104	-2.6688	-2.9896	-2.8292	-2.7	-2.9917	-2.8833	-2.7979	472.506	458.225	469.840	463.030	327.030	374.046	293.714	191.348	398.769	491.241	182.936	446.544	242.463	278.623	314.430	174.941	0.0011561	0.00023117	4.193e-05	461.1	1.7262e-06	2.2666e-06	616.56	122.58	3.3044e-06	2.1411e-06	227.52	81.993	34.373	11.977	3.4214e-06	36.446	4.035e-05	1.2611e-05	3.2793e-06	435.45	1.4355e-07	1.3273e-07	600.78	117.72	1.5245e-07	1.2996e-07	218.73	78.751	32.845	11.599	1.4571e-07	35.358	382.944	256.431	270.921	181.873	316.619	311.758	182.245	187.270	287.865	326.067	187.061	192.126	191.848	196.374	320.923	195.533	-8191	255	
1446.500	1	1	0	0	0.076445	0.18772	0.32692	0.16489	0.06797	0.24845	0.20945	0.16747	0.063397	0.18787	0.17318	0.14161	0.057175	0.10468	0.091404	0.096388	-2.6396	-2.6208	-2.8125	-2.7354	-2.6479	-2.9167	-2.85	-2.625	-3.1625	-2.725	-3.0687	-2.775	-2.6646	-3.1042	-2.7854	-2.7667	237.369	230.047	313.468	200.592	362.139	453.047	500.652	433.043	228.463	513.946	504.725	242.243	526.282	510.563	223.559	435.400	0.0011173	0.00030123	5.908e-05	459.58	1.6863e-06	2.2058e-06	611.48	119.77	3.7969e-06	2.8114e-06	219.37	79.031	33.215	11.592	2.9242e-06	35.613	3.7379e-05	1.217e-05	3.2457e-06	432.1	1.3789e-07	1.2517e-07	593.4	115.34	1.4429e-07	1.458e-07	212.78	76.237	31.894	11.192	1.4024e-07	34.475	383.432	232.844	257.768	182.058	303.296	335.951	182.095	187.204	298.975	320.155	187.196	192.025	191.336	196.138	290.381	195.146	-8191	255	
1446.596	1	1	0	0	0.082679	0.15129	0.17747	0.081891	0.022007	0.30698	0.46244	0.10161	0.13436	0.1534	0.19329	0.14826	0.10204	0.093907	0.10565	0.21624	-2.6437	-2.4062	-2.8187	-2.9771	-2.7458	-2.9792	-2.9333	-2.6979	-2.9271	-2.625	-3	-2.8854	-2.5979	-2.8542	-2.8896	-2.7229	430.895	369.513	248.047	496.645	480.484	415.553	197.190	341.199	388.201	232.619	316.570	174.468	314.367	237.668	446.091	448.024	0.0010443	0.00019761	6.9242e-05	456.86	1.96e-06	2.7252e-06	610.83	119.1	3.2962e-06	1.9984e-06	222.24	79.648	33.32	11.563	3.357e-06	35.702	3.6832e-05	1.166e-05	3.272e-06	427.8	1.4636e-07	1.1551e-07	592.18	115.06	1.4876e-07	1.2037e-07	213	76.445	31.899	11.264	1.3736e-07	34.669	380.150	245.664	252.589	182.363	305.205	316.881	182.207	187.056	274.394	307.416	186.841	192.052	191.507	196.453	299.519	195.483	-8191	255	
1446.692	1	1	0	0	0.052956	0.19901	0.24097	0.14096	0.18745	0.22435	0.33185	0.096325	0.080574	0.078412	0.16879	0.24508	0.088107	0.27585	0.15905	0.15227	-2.5542	-2.6646	-2.7104	-2.9896	-2.6354	-2.9771	-2.8042	-2.55	-3.1083	-2.5667	-2.8854	-2.8563	-2.75	-2.825	-2.9958	-2.7062	490.728	415.679	308.773	345.972	452.165	371.642	428.939	323.170	493.712	205.445	195.382	308.698	406.661	248.878	508.816	468.957	0.0011034	0.00019146	8.587e-05	458.32	2.9034e-06	2.5068e-06	617.63	120.35	4.2555e-06	2.851e-06	221.42	79.916	33.465	11.723	2.5309e-06	35.789	3.7622e-05	1.1981e-05	3.312e-06	430.03	1.4144e-07	1.2092e-07	595.7	115.68	1.4679e-07	1.3248e-07	214.41	76.749	32.106	11.312	1.3901e-07	34.765	382.977	254.012	277.911	182.407	322.482	324.666	181.947	187.214	310.565	326.772	186.939	192.117	191.412	196.703	292.873	195.509	-8191	255	
1446.788	1	1	0	0	0.07927	0.081256	0.38757	0.13729	0.11141	0.13802	0.17014	0.25168	0.021435	0.14428	0.084987	0.26418	0.18541	0.15971	0.058945	0.12773	-2.7	-2.6312	-2.7292	-3.0687	-2.5708	-2.8792	-3.0458	-2.4854	-2.7667	-2.9667	-2.6792	-3.1521	-2.6312	-2.9042	-2.9646	-2.6333	458.017	418.276	415.124	414.085	326.241	249.997	503.878	473.334	384.284	337.288	268.005	442.886	304.767	507.338	292.369	302.418	0.0010863	0.00023928	8.3869e-05	460.02	1.6321e-06	2.7175e-06	617.44	120.48	2.3904e-06	2.7872e-06	223.33	80.731	33.907	11.843	3.2697e-06	36.292	3.706e-05	1.2339e-05	3.2667e-06	432.76	1.3644e-07	1.3306e-07	597.8	116.2	1.4679e-07	1.3128e-07	216.54	77.537	32.457	11.448	1.4736e-07	35.241	382.304	234.814	252.071	181.936	321.474	344.010	182.184	187.213	279.523	341.216	186.980	191.871	191.380	196.656	319.412	195.566	-8191	255	
1446.884	1	1	0	0	0.21662	0.074826	0.11761	0.13889	0.06953	0.17814	0.10847	0.32068	0.064237	0.090189	0.20321	0.27196	0.15135	0.21033	0.16321	0.048843	-2.6229	-2.9417	-2.6937	-3.0375	-2.6604	-3.0062	-2.9562	-2.675	-2.8479	-3.0125	-2.5479	-3.1437	-2.675	-2.9188	-3.0687	-2.8104	265.194	260.360	344.862	312.405	367.120	241.494	502.524	367.316	251.446	190.280	235.889	460.350	295.181	186.433	339.448	501.775	0.0010036	0.00027733	5.2465e-05	466.58	2.1532e-06	1.6778e-06	620.43	120.47	3.3694e-06	2.6618e-06	222.81	79.584	33.685	11.661	4.0287e-06	35.818	3.7941e-05	1.2117e-05	3.6076e-06	436.07	1.4177e-07	1.2848e-07	598.28	116.21	1.4712e-07	1.3128e-07	215.14	76.868	32.222	11.256	1.2963e-07	34.601	382.609	258.351	265.514	181.315	313.740	354.796	182.213	187.341	291.054	331.868	187.090	191.987	191.577	196.829	289.596	195.630	-8191	255	
1446.981	1	1	0	0	0.10541	0.21154	0.16349	0.091333	0.048982	0.12634	0.13643	0.078424	0.2639	0.042164	0.04299	0.073198	0.17063	0.24878	0.023446	0.18587	-2.4813	-2.7042	-2.8729	-2.9208	-2.8771	-2.6937	-3.0646	-2.4896	-2.7125	-2.7771	-2.65	-2.95	-2.6813	-2.65	-2.925	-2.8833	284.059	300.698	293.684	266.985	480.071	402.343	432.142	168.840	379.476	451.299	255.086	376.557	426.872	374.964	443.871	478.881	0.0010458	0.00028174	9.8784e-05	456.38	2.1007e-06	2.5956e-06	610.92	119.5	2.8807e-06	1.5435e-06	220.45	79.065	33.649	11.695	3.3223e-06	35.941	3.822e-05	1.1977e-05	3.5497e-06	430.58	1.4367e-07	1.2732e-07	592.92	114.8	1.4979e-07	1.2144e-07	212.68	76.14	31.974	11.289	1.4197e-07	34.701	384.068	230.389	275.102	181.792	296.950	338.080	181.867	186.688	276.387	317.269	186.937	191.903	191.543	196.666	306.325	195.561	-8191	255	
1447.101	1	1	0	0	0.18371	0.19137	0.29497	0.26654	0.17909	0.11558	0.11771	0.13195	0.27064	0.26748	0.065669	0.036399	0.20846	0.074334	0.11651	0.19874	-2.5167	-2.9854	-2.5687	-2.8042	-2.7771	-2.7917	-3.25	-2.6833	-2.8833	-2.9896	-2.7979	-2.9542	-2.8125	-2.6479	-3.1521	-2.6875	449.542	494.306	403.231	348.989	288.799	216.796	474.587	509.121	209.836	225.390	343.874	230.745	430.071	394.112	464.709	193.622	0.0011034	0.00019243	5.8063e-05	457.72	1.902e-06	2.5921e-06	613	120.23	3.8252e-06	2.0276e-06	224.89	80.599	33.676	11.924	3.1571e-06	36.472	3.8669e-05	1.2049e-05	3.5266e-06	430.99	1.3846e-07	1.2934e-07	594.89	115.84	1.4897e-07	1.3501e-07	215.49	77.479	32.377	11.54	1.4719e-07	35.351	382.728	231.087	258.330	182.253	335.046	353.172	182.084	187.797	293.638	333.717	187.213	192.083	191.372	196.232	307.602	195.514	-8191	255	
1447.196	1	1	0	0	0.097789	0.20106	0.2458	0.039542	0.1073	0.32949	0.21345	0.20366	0.12787	0.17687	0.2524	0.16191	0.23895	0.043839	0.16883	0.20936	-2.3375	-2.8438	-2.7708	-3.0854	-2.8229	-2.8271	-2.9792	-2.65	-2.9313	-2.8167	-2.9125	-2.8271	-2.8271	-2.6542	-2.9208	-2.9729	324.172	170.342	188.758	429.849	276.748	490.254	513.254	185.495	414.745	359.195	213.762	445.572	410.479	173.356	262.722	195.478	0.0010907	0.00024422	9.5581e-05	459.97	2.2693e-06	2.638e-06	617.58	121.21	3.1728e-06	1.4422e-06	225.37	82.059	34.511	12.125	2.1733e-06	37.335	3.952e-05	1.2974e-05	3.7465e-06	433.47	1.4487e-07	1.367e-07	598.93	117.29	1.6435e-07	1.4348e-07	218.17	78.636	32.984	11.73	1.3864e-07	36.182	382.444	265.711	266.334	181.676	302.190	315.442	182.294	187.484	301.904	329.946	186.980	191.860	191.769	196.590	312.032	195.407	-8191	255	
1447.292	1	1	0	0	0.017918	0.035438	0.079772	0.24781	0.36027	0.12329	0.25167	0.13435	0.27218	0.21211	0.40511	0.1846	0.10368	0.21996	0.14684	0.085258	-2.3583	-2.8187	-2.5625	-2.8333	-2.8042	-2.6208	-3.0083	-2.6542	-2.6625	-3.05	-2.5292	-2.9417	-2.9042	-2.5792	-2.9583	-2.8792	427.843	354.413	504.172	296.977	430.794	326.542	446.197	480.074	373.736	185.774	187.068	466.083	380.132	520.000	209.644	440.147	0.0011536	0.00025644	5.7386e-05	464.62	3.4996e-06	2.1408e-06	621.34	121.82	3.0568e-06	2.2909e-06	230.77	82.691	34.211	12.049	2.3131e-06	37.044	4.1448e-05	1.3468e-05	3.5024e-06	437.01	1.4041e-07	1.3472e-07	602.69	118.21	1.6246e-07	1.3232e-07	220.58	79.25	33.005	11.717	1.4991e-07	35.744	384.204	238.446	241.330	182.395	315.861	364.705	182.232	187.406	293.744	304.887	187.141	192.181	191.494	196.644	304.208	195.419	-8191	255	
1447.388	1	1	0	0	0.079786	0.11008	0.33248	0.13028	0.12308	0.084882	0.28363	0.1659	0.12263	0.24127	0.29502	0.062005	0.18307	0.34496	0.072125	0.16682	-2.2208	-3.125	-2.6167	-2.7646	-2.9	-2.8125	-2.9875	-2.7792	-2.5687	-3.0854	-2.7562	-2.9854	-2.8375	-2.6583	-2.9458	-2.8521	335.126	180.836	203.595	302.971	523.291	313.390	524.714	499.905	334.824	306.050	495.343	214.306	251.215	222.274	443.062	514.631	0.001123	0.00015909	4.2287e-05	462.41	2.2491e-06	1.7109e-06	619.74	120.11	3.9119e-06	3.5481e-06	222.71	80.038	33.474	11.818	2.5007e-06	35.966	4.0086e-05	1.3679e-05	3.6034e-06	433.05	1.4351e-07	1.3467e-07	596.99	115.71	1.5951e-07	1.2872e-07	214.98	76.976	32.247	11.395	1.3325e-07	34.758	382.553	241.687	255.156	182.172	306.438	326.491	182.110	186.945	300.869	328.549	186.704	191.829	191.365	196.769	284.864	195.866	-8191	255	
1447.484	1	1	0	0	0.20412	0.19714	0.23593	0.11875	0.098085	0.195	0.36681	0.24827	0.32881	0.22447	0.07724	0.36146	0.25159	0.33645	0.14395	0.097347	-2.4042	-2.7646	-2.6625	-2.6896	-2.8771	-2.6417	-3.0771	-2.825	-2.6729	-3.0604	-2.7875	-2.6688	-2.8312	-2.7833	-2.9667	-2.9896	214.215	263.595	337.619	456.294	206.798	407.345	487.376	514.678	445.011	203.106	235.669	221.707	331.569	419.350	259.101	429.112	0.0010887	0.00021554	6.2094e-05	459.66	2.8451e-06	1.4461e-06	611.3	118.72	4.1919e-06	2.401e-06	223.03	79.912	33.551	11.716	3.486e-06	36.148	3.9596e-05	1.2438e-05	3.5624e-06	432.09	1.4173e-07	1.2736e-07	593.86	115.2	1.6173e-07	1.374e-07	214.79	76.831	32.117	11.361	1.3905e-07	34.929	381.744	240.344	262.922	182.035	299.159	330.903	182.473	187.284	313.391	316.543	187.244	191.715	191.102	195.765	313.987	195.389	-8191	255	
1447.580	1	1	0	0	0.12574	0.036708	0.22386	0.2365	0.15876	0.3491	0.12158	0.13823	0.11048	0.13675	0.24371	0.27644	0.21907	0.10127	0.064265	0.26292	-2.125	-3.0271	-2.6354	-2.6146	-2.9792	-2.6854	-2.8146	-2.9938	-2.6083	-2.9979	-2.8646	-2.7167	-3.0292	-2.4854	-2.8729	-3.0667	240.416	456.466	172.510	188.135	244.279	204.663	438.820	495.113	315.062	211.126	393.820	171.178	402.801	222.297	449.351	175.431	0.0010762	0.00014741	7.4216e-05	457.75	2.0504e-06	3.0631e-06	615.23	120.15	2.6241e-06	1.9041e-06	223.5	79.968	33.859	11.746	3.2906e-06	36.18	3.9781e-05	1.2053e-05	3.6318e-06	430.72	1.44e-07	1.398e-07	596.31	115.67	1.5492e-07	1.341e-07	215.02	77.117	32.26	11.359	1.6068e-07	35.016	382.160	258.460	284.099	181.735	290.798	320.976	182.016	187.516	284.011	314.279	187.007	192.014	191.455	196.834	285.594	195.698	-8191	255	
1447.676	1	1	0	0	0.26916	0.1654	0.25808	0.14583	0.11811	0.28962	0.051314	0.067971	0.11423	0.15303	0.22253	0.1199	0.071685	0.20401	0.18385	0.14151	-2.0708	-2.7812	-2.7458	-2.6437	-2.9604	-2.7229	-2.8937	-3.0208	-2.5333	-2.95	-2.5875	-2.7667	-3.0833	-2.6417	-2.5479	-3.1188	481.208	188.173	172.518	236.105	459.877	209.533	526.810	444.084	511.850	297.353	519.085	333.705	226.167	194.924	448.692	480.028	0.0010745	0.00013795	6.8744e-05	461.51	1.5513e-06	3.2765e-06	618.03	121.3	3.3275e-06	2.3644e-06	225.25	80.176	33.753	11.771	3.0824e-06	36.301	4.0183e-05	1.5401e-05	4.1063e-06	432.45	1.509e-07	1.5822e-07	598.51	116.45	1.728e-07	1.3732e-07	216.68	77.32	32.348	11.402	1.7392e-07	35.194	382.853	253.072	237.232	181.623	319.713	307.566	182.283	187.157	301.699	337.162	187.173	192.130	191.433	196.401	303.199	195.348	-8191	255	
1447.773	1	1	0	0	0.0065023	0.16109	0.22174	0.18467	0.072791	0.094849	0.097345	0.15481	0.1491	0.064102	0.19649	0.20515	0.2624	0.13095	0.099217	0.26893	-2.2146	-2.6688	-2.7583	-2.6208	-3.175	-2.7708	-2.8438	-3.0396	-2.7729	-2.8708	-2.9729	-2.6083	-2.8875	-2.7854	-2.7542	-3.0062	298.540	321.146	178.871	527.981	387.076	375.456	329.556	413.505	457.809	368.528	512.581	479.249	245.417	448.670	404.181	490.576	0.0011624	0.00024038	4.8444e-05	457.68	2.6608e-06	2.9959e-06	616.48	119.31	2.413e-06	2.5622e-06	221.91	78.802	33.182	11.519	3.2787e-06	35.497	4.2267e-05	1.3536e-05	3.8001e-06	432.48	1.5272e-07	1.4926e-07	597.27	115.56	1.6271e-07	1.4745e-07	213.73	76.092	31.852	11.164	1.6738e-07	34.281	385.912	275.813	256.279	181.809	301.551	315.579	182.109	187.815	299.471	328.618	187.458	191.946	191.899	196.724	285.348	195.929	-8191	255	
1447.893	1	1	0	0	0.11548	0.19369	0.23092	0.16645	0.070039	0.17555	0.26842	0.014868	0.24856	0.28052	0.13189	0.22439	0.1634	0.03859	0.032643	0.19221	-2.1896	-2.9042	-2.8021	-2.6271	-3.0667	-2.8042	-2.7333	-3.0792	-2.75	-3.0021	-3.0583	-2.7354	-2.9396	-2.9104	-2.675	-3.0333	490.400	257.009	461.923	479.470	429.867	178.979	486.699	369.917	181.774	233.876	196.917	452.858	207.319	198.925	234.777	397.472	0.0010805	0.00017998	3.7199e-05	458.01	2.6449e-06	1.5378e-06	606.98	118.4	3.1516e-06	1.6104e-06	220.16	78.335	32.963	11.556	2.8204e-06	35.624	3.997e-05	1.4597e-05	3.8633e-06	429.72	1.533e-07	1.4368e-07	590.77	114.17	1.7124e-07	1.4824e-07	211.87	75.532	31.646	11.178	1.5546e-07	34.335	383.094	228.918	243.057	181.955	314.710	343.450	182.387	187.029	290.904	309.484	186.942	191.871	191.457	196.481	330.158	195.429	-8191	255	
1447.988	1	1	0	0	0.022622	0.091786	0.18371	0.16489	0.16505	0.086841	0.078031	0.1075	0.12247	0.16293	0.18536	0.13207	0.16575	0.079954	0.052699	0.14729	-2.3146	-2.85	-3.1104	-2.5979	-3.0604	-2.7521	-2.7875	-2.9875	-2.5875	-3	-2.9313	-2.675	-3.0062	-2.7792	-2.4562	-3.1729	418.282	449.145	481.190	438.931	283.707	335.550	495.920	229.219	489.643	250.432	469.966	301.725	218.188	421.848	292.424	431.788	0.0010648	0.00024629	7.1396e-05	460.08	2.1348e-06	2.1641e-06	612.97	118.54	2.564e-06	1.9161e-06	221.93	79.537	33.452	11.72	2.0676e-06	35.771	4.0173e-05	1.4857e-05	3.5308e-06	431.3	1.6446e-07	1.645e-07	593.24	114.75	1.6546e-07	1.5973e-07	213.56	76.413	31.997	11.344	1.6492e-07	34.725	382.580	241.218	251.304	181.790	316.444	313.865	181.979	187.348	275.447	333.004	187.140	191.901	191.538	196.406	294.139	195.473	-8191	255	
1448.061	1	1	0	0	0.16207	0.037503	0.42992	0.23148	0.15322	0.046851	0.3533	0.12241	0.04829	0.12331	0.089666	0.26079	0.13267	0.17015	0.022035	0.2371	-2.3771	-2.7479	-2.8875	-2.65	-2.9562	-2.8333	-2.7792	-2.9562	-2.6458	-2.8208	-3.0583	-2.7396	-2.9521	-3.0938	-2.7812	-3.1646	238.109	455.385	369.778	193.847	245.239	483.142	343.534	514.176	378.251	393.794	416.673	263.879	451.129	230.966	181.604	406.748	0.0010905	0.00027641	7.4598e-05	457.5	2.149e-06	2.518e-06	617.36	120.03	3.2418e-06	1.4704e-06	224.47	81.562	33.939	12.005	3.4953e-06	36.586	3.9712e-05	1.4295e-05	3.9842e-06	432.51	1.6904e-07	1.543e-07	597.23	115.68	1.8466e-07	1.5374e-07	216.21	77.737	32.382	11.529	1.7762e-07	35.442	383.239	247.470	241.284	181.901	298.242	316.993	182.271	187.363	294.617	361.329	186.864	192.073	191.521	196.600	299.006	195.715	-8191	255	
1448.182	1	1	0	0	0.08471	0.07376	0.20181	0.16832	0.15479	0.18469	0.26689	0.099769	0.40642	0.14172	0.13561	0.13529	0.10915	0.14591	0.22404	0.15831	-2.3021	-2.7979	-2.7062	-2.6167	-2.825	-2.8771	-2.7	-2.9479	-2.7313	-2.725	-3.0083	-2.7667	-2.7542	-2.8708	-2.5875	-2.9021	437.605	469.843	257.660	401.884	343.017	348.273	527.913	366.041	477.091	473.936	506.373	304.243	444.933	434.172	500.141	452.972	0.0011278	0.0002654	8.0095e-05	461.94	2.2708e-06	2.2672e-06	621.18	121.42	2.8595e-06	2.3975e-06	225.43	81.008	33.905	11.758	2.156e-06	36.145	4.0702e-05	1.3936e-05	3.9474e-06	434.84	1.6656e-07	1.4996e-07	600.38	116.52	1.646e-07	1.6271e-07	217.12	77.755	32.421	11.456	1.5509e-07	35.094	382.342	245.004	252.276	182.256	304.570	340.377	181.990	187.173	291.124	330.308	187.080	191.735	191.629	196.937	288.540	195.743	-8191	255	
1448.276	1	1	0	0	0.18596	0.14407	0.39275	0.11994	0.18039	0.1885	0.23303	0.21493	0.15021	0.34303	0.04283	0.20151	0.16565	0.15774	0.10366	0.16527	-2.2771	-2.5208	-2.9479	-2.8417	-2.6354	-3.1437	-2.6521	-2.9208	-2.7812	-2.6833	-3.0708	-2.7979	-2.8812	-3.0208	-2.4688	-3.025	507.538	209.341	403.990	415.861	394.110	395.607	468.488	276.321	491.566	224.192	439.304	473.028	323.599	493.257	197.057	432.151	0.001093	0.00029702	7.5861e-05	458.11	1.7285e-06	1.4353e-06	612.32	119.03	3.7058e-06	2.545e-06	221.22	79.188	33.008	11.455	4.113e-06	35.667	4.0129e-05	1.4019e-05	4.2694e-06	431.02	1.628e-07	1.4827e-07	593.22	114.58	1.7678e-07	1.5142e-07	212.37	76.024	31.694	11.15	1.6418e-07	34.349	383.316	240.379	261.484	182.282	307.071	325.597	182.035	187.431	287.375	304.240	186.693	192.013	191.515	195.644	291.137	195.678	-8191	255	
1448.372	1	1	0	0	0.080794	0.08313	0.10865	0.10968	0.13467	0.22993	0.18094	0.05643	0.19141	0.16097	0.16516	0.1108	0.022461	0.15924	0.15593	0.046799	-2.3187	-2.3271	-2.9896	-2.7542	-2.7375	-3.0042	-2.6562	-2.9021	-3.2292	-2.6021	-3.1854	-2.7979	-2.7292	-2.9938	-2.5729	-3.0375	244.173	341.234	315.784	326.075	501.190	375.979	185.034	276.920	281.716	477.227	479.314	466.079	504.957	256.681	215.141	473.171	0.0010764	0.00026426	6.1482e-05	454.7	1.6982e-06	2.0058e-06	610.22	118.13	3.0936e-06	1.7202e-06	221.63	79.297	32.811	11.624	1.5878e-06	35.543	3.9694e-05	1.4261e-05	3.6791e-06	428.79	1.5549e-07	1.3616e-07	590.94	113.98	1.6973e-07	1.582e-07	212.07	76.129	31.707	11.225	1.7051e-07	34.506	383.261	264.332	274.449	181.919	286.144	341.044	182.117	187.390	296.999	355.706	187.068	191.975	191.925	196.611	338.292	195.466	-8191	255	
1448.468	1	1	0	0	0.34237	0.07825	0.11526	0.10703	0.1872	0.11303	0.20108	0.2283	0.13192	0.21296	0.10848	0.043309	0.11861	0.10535	0.087647	0.1204	-2.4813	-2.6625	-3.0563	-2.9437	-2.5271	-2.8771	-2.9229	-2.9562	-2.9333	-2.7583	-3.0292	-3.0083	-2.7292	-3.0125	-2.6542	-2.8729	457.321	177.710	209.062	346.303	193.997	385.216	521.383	482.983	417.177	237.518	449.050	315.708	327.674	178.929	523.732	442.699	0.0010213	0.00023849	8.1505e-05	456.32	1.9461e-06	3.2412e-06	613.51	120.09	2.1275e-06	2.7113e-06	222.39	79.283	33.288	11.699	3.2659e-06	36.124	3.8658e-05	1.4446e-05	3.9464e-06	430.74	1.4747e-07	1.6066e-07	593.58	114.96	1.6107e-07	1.5208e-07	214.54	76.527	32.041	11.338	1.5673e-07	34.937	383.198	250.474	276.308	182.488	294.423	331.156	182.282	187.552	283.725	341.672	186.924	192.048	192.201	196.447	291.474	195.358	-8191	255	
1448.589	1	1	0	0	0.07358	0.41203	0.29391	0.16744	0.10676	0.065215	0.17666	0.071872	0.32635	0.2189	0.24498	0.02824	0.15842	0.25167	0.43935	0.0748	-2.6396	-2.5938	-2.7354	-2.7896	-2.7313	-2.9979	-2.8646	-2.725	-2.9458	-2.7167	-2.7667	-2.9583	-2.475	-2.9417	-2.7792	-2.725	321.035	470.733	410.265	519.274	436.158	305.478	429.323	407.478	504.253	278.854	528.403	437.673	302.597	333.176	402.190	222.526	0.0010871	0.00030308	5.9157e-05	454.46	1.916e-06	3.1331e-06	616.65	119.47	3.3202e-06	2.2047e-06	225.8	80.554	33.649	11.83	2.583e-06	36.805	4.0013e-05	1.4823e-05	4.0095e-06	431.07	1.5086e-07	1.474e-07	598.03	116.12	1.6583e-07	1.4981e-07	217.21	77.508	32.268	11.482	1.6886e-07	35.413	381.893	250.218	244.644	182.377	310.870	325.110	182.438	187.566	288.040	336.586	187.256	192.340	191.354	197.083	285.280	195.567	-8191	255	
1448.661	1	1	0	0	0.11645	0.13182	0.16496	0.047527	0.20195	0.18693	0.17251	0.085002	0.35029	0.12286	0.29307	0.21301	0.13397	0.22363	0.11774	0.23904	-2.8125	-2.5583	-2.8333	-3.175	-2.5896	-3.0854	-2.875	-2.6375	-3.0167	-2.7125	-2.7917	-2.8333	-2.6604	-3.0083	-2.875	-2.8854	418.880	268.214	321.810	407.805	211.299	398.788	484.934	472.651	455.443	270.918	512.934	222.912	345.505	477.283	329.872	418.776	0.0011608	0.00023479	6.9774e-05	456.48	1.7851e-06	1.7825e-06	612.54	119.38	3.6769e-06	1.4228e-06	222.22	79.45	32.862	11.553	3.1023e-06	35.295	4.027e-05	1.3947e-05	3.9074e-06	431.45	1.5016e-07	1.4071e-07	594.85	115.38	1.6456e-07	1.319e-07	213.78	76.256	31.627	11.192	1.4542e-07	34.252	383.123	256.401	227.369	182.128	329.143	327.319	182.244	187.455	284.966	326.208	187.194	191.868	191.808	196.473	295.498	195.787	-8191	255	
1448.781	1	1	0	0	0.074076	0.11918	0.11452	0.067127	0.067062	0.21063	0.2149	0.16143	0.108	0.12128	0.062756	0.26047	0.11588	0.22053	0.11789	0.26352	-2.5646	-2.6792	-2.7854	-3.0542	-2.7771	-2.9437	-2.8937	-2.7458	-2.9417	-2.6	-2.875	-3.0667	-2.475	-2.8542	-2.8042	-2.6896	487.364	505.119	170.911	478.758	476.310	297.479	235.088	329.055	368.567	230.255	175.769	451.744	481.821	490.280	478.989	203.426	0.0010312	0.00021776	5.5865e-05	454.43	1.74e-06	2.2168e-06	610.27	117.58	3.9264e-06	2.4592e-06	220.13	78.584	33.143	11.474	1.8609e-06	35.041	3.81e-05	1.326e-05	3.9011e-06	427.78	1.5041e-07	1.4504e-07	590.24	113.66	1.5742e-07	1.3993e-07	211.54	75.653	31.628	11.136	1.5332e-07	34.157	380.532	273.772	268.717	182.851	305.318	328.385	182.354	186.986	300.634	321.847	186.642	192.014	191.742	196.506	275.898	195.573	-8191	255	
1448.877	1	1	0	0	0.25469	0.26749	0.20292	0.32593	0.12684	0.071195	0.19584	0.32333	0.24857	0.26458	0.12614	0.12556	0.2229	0.17551	0.15658	0.031225	-2.6271	-2.7604	-2.6625	-2.8312	-2.5958	-2.8438	-3.0375	-2.65	-2.8833	-2.85	-2.9583	-3	-2.5812	-3.0146	-2.9396	-2.7271	250.033	218.657	229.610	285.227	380.280	412.803	460.988	179.129	445.710	280.404	497.369	465.544	330.312	212.697	406.543	350.364	0.0010233	0.00030494	8.8687e-05	456.27	2.0431e-06	2.5129e-06	608.53	118.01	2.7974e-06	1.705e-06	220	79.433	33.304	11.657	2.93e-06	35.798	3.7712e-05	1.32e-05	3.6339e-06	429.94	1.6797e-07	1.5496e-07	591.53	114.14	1.5217e-07	1.4402e-07	213.1	76.337	31.925	11.274	1.5122e-07	34.685	383.978	246.610	282.615	181.962	315.233	327.448	182.431	187.271	260.785	317.493	187.096	191.877	191.872	196.518	285.270	195.947	-8191	255	
1448.974	1	1	0	0	0.32053	0.044291	0.25305	0.19748	0.4938	0.17493	0.61812	0.1694	0.29138	0.20329	0.21155	0.26126	0.04896	0.13962	0.112	0.13407	-2.4771	-2.7458	-2.6937	-3.2542	-2.7333	-2.8625	-2.9646	-2.7313	-3.0333	-2.9188	-2.7833	-3.1833	-2.6937	-2.8438	-3.0083	-2.6417	178.439	237.349	205.234	480.593	193.874	346.196	484.567	436.078	285.717	255.425	459.146	489.770	423.510	412.763	411.276	403.793	0.0010338	0.00021264	8.2953e-05	460.94	2.0396e-06	2.7155e-06	616.47	119.61	1.9322e-06	1.7991e-06	224.28	80.26	33.54	11.797	3.3743e-06	36.495	3.856e-05	1.3604e-05	3.9453e-06	432.3	1.5834e-07	1.379e-07	595.31	115.26	1.6045e-07	1.4352e-07	215.89	77.179	32.273	11.414	1.6043e-07	35.211	384.865	228.419	252.008	181.979	297.336	333.887	182.258	187.248	287.094	348.057	187.151	191.963	192.162	196.589	283.488	195.591	-8191	255	
1449.070	1	1	0	0	0.16971	0.13987	0.167	0.07173	0.097099	0.22202	0.060552	0.053447	0.01985	0.16917	0.11169	0.16168	0.25111	0.15691	0.24593	0.10119	-2.5167	-2.9646	-2.6	-2.8771	-2.6688	-2.8521	-3.1688	-2.7438	-2.9396	-2.8542	-2.6896	-2.9917	-2.8187	-2.6625	-2.9479	-2.5792	461.235	305.850	502.546	308.933	343.804	518.501	415.703	221.093	320.055	421.238	193.032	486.672	301.778	381.790	438.167	200.719	0.0010797	0.00022479	9.4064e-05	461.37	2.6577e-06	2.8244e-06	620.57	120.72	3.2625e-06	2.3078e-06	224.22	80.81	33.76	11.769	3.4916e-06	35.916	3.9981e-05	1.3464e-05	3.716e-06	434.14	1.4958e-07	1.4575e-07	601.39	116.67	1.5955e-07	1.4365e-07	216.47	77.364	32.301	11.385	1.4842e-07	34.858	381.646	252.328	276.283	182.249	285.783	341.211	182.155	187.518	295.587	362.636	187.254	192.026	191.784	196.461	314.047	195.636	-8191	255	
1449.189	1	1	0	0	0.3209	0.064648	0.14428	0.18341	0.066531	0.23493	0.12445	0.30551	0.051877	0.094131	0.1821	0.11401	0.10542	0.13313	0.15259	0.19976	-2.25	-2.9604	-2.5021	-2.9479	-2.6562	-2.5125	-2.9042	-2.6875	-2.875	-2.9792	-2.6979	-2.8854	-2.7708	-2.6792	-2.8521	-2.7875	288.476	466.044	208.098	440.276	215.646	399.422	495.191	465.628	397.036	370.862	415.906	527.162	448.201	425.381	489.732	462.610	0.0010695	0.0002075	5.7324e-05	456.45	2.0908e-06	2.0679e-06	610.65	118.1	3.1494e-06	2.6992e-06	219.4	79.322	32.875	11.58	2.0451e-06	35.219	3.9307e-05	1.2294e-05	3.5876e-06	430.51	1.4247e-07	1.4145e-07	593.17	114.18	1.5779e-07	1.3707e-07	211.72	75.812	31.719	11.172	1.4596e-07	34.195	383.710	281.561	285.383	182.007	278.510	329.873	182.097	187.187	306.676	340.991	187.177	191.819	191.487	197.025	285.805	195.821	-8191	255	
1449.285	1	1	0	0	0.089862	0.28003	0.065819	0.1003	0.26418	0.14436	0.15621	0.34103	0.064069	0.15145	0.18519	0.1995	0.15585	0.20317	0.052659	0.085813	-2.1937	-2.875	-2.6354	-2.9479	-2.7625	-2.7208	-3.1208	-2.7208	-2.6958	-2.8917	-2.7687	-2.9292	-2.7604	-2.6063	-2.9021	-2.6792	398.642	528.754	427.414	304.550	410.782	192.430	199.658	508.588	319.081	210.070	457.117	379.331	443.293	189.122	262.163	476.782	0.0011175	0.00026762	9.5116e-05	457.5	1.4322e-06	3.5757e-06	611.83	117.91	4.5155e-06	1.5719e-06	222.16	79.371	32.924	11.612	2.5402e-06	35.797	3.9886e-05	1.2974e-05	3.9706e-06	429.97	1.49e-07	1.4558e-07	592.69	113.93	1.6029e-07	1.4059e-07	213.46	76.123	31.635	11.261	1.5426e-07	34.551	381.909	239.139	257.785	182.268	310.851	332.791	181.917	187.431	269.235	321.243	187.327	191.900	191.538	197.018	311.312	195.773	-8191	255	
1449.356	1	1	0	0	0.31671	0.18545	0.35723	0.28902	0.028387	0.30828	0.16659	0.078191	0.22063	0.19148	0.15783	0.26579	0.32135	0.057123	0.036012	0.16574	-2.175	-3.0271	-2.5833	-2.8979	-3.0458	-2.7938	-3.0042	-2.8542	-2.6396	-2.9271	-2.7104	-2.9417	-2.9604	-2.6521	-3.1417	-2.9854	203.900	355.009	498.481	204.792	248.629	372.888	459.722	396.327	522.733	442.600	434.625	471.145	220.896	221.276	318.314	490.633	0.0011246	0.00017138	4.6776e-05	451.3	7.1216e-07	2.3096e-06	619.6	119.12	4.3561e-06	1.8212e-06	223.65	79.155	33.577	11.648	1.9407e-06	36.07	4.0096e-05	1.226e-05	3.9243e-06	428.67	1.5024e-07	1.4178e-07	596.13	114.98	1.6911e-07	1.3248e-07	214.79	76.627	32.09	11.334	1.476e-07	34.881	383.406	237.661	245.337	182.338	334.645	336.843	182.103	187.250	293.038	320.996	186.914	191.945	191.711	196.007	306.007	195.556	-8191	255	
1449.453	1	1	0	0	0.29474	0.17587	0.27985	0.268	0.10238	0.2332	0.082022	0.072418	0.17915	0.16889	0.21126	0.099412	0.15153	0.29164	0.14	0.16854	-2.3875	-3.1771	-2.5604	-2.9562	-3.0542	-2.55	-3.0625	-2.9313	-2.7313	-2.9958	-2.7521	-2.7729	-2.9021	-2.6354	-2.7854	-3.025	205.332	244.731	414.313	301.719	287.199	441.983	523.288	454.057	286.168	238.998	310.994	364.913	239.611	527.078	391.817	192.232	0.0010737	0.00020813	9.4218e-05	457.71	2.1389e-06	2.4137e-06	616.99	120.76	2.8782e-06	2.2661e-06	226.24	81.19	33.722	11.912	3.188e-06	36.331	4.0296e-05	1.3283e-05	4.019e-06	431.34	1.4966e-07	1.519e-07	596.6	115.85	1.5984e-07	1.4001e-07	217.4	77.659	32.371	11.557	1.4731e-07	35.38	382.170	256.011	258.419	182.198	287.522	319.929	181.956	187.562	305.525	318.655	187.277	191.858	191.837	196.361	317.586	195.547	-8191	255	
1449.549	1	1	0	0	0.16504	0.070618	0.078195	0.26147	0.27238	0.11433	0.18545	0.1448	0.0012708	0.22051	0.17287	0.30578	0.099706	0.080663	0.23647	0.21506	-2.0583	-2.9125	-2.6271	-2.6792	-2.8563	-2.5208	-3.075	-2.7271	-2.6042	-2.8854	-2.7583	-2.6854	-2.9938	-2.7083	-2.7188	-2.8167	183.253	172.414	412.677	203.816	481.435	390.988	218.276	451.347	180.000	313.418	525.018	196.911	473.592	524.037	260.343	393.293	0.0010945	0.00017521	6.9116e-05	455.63	1.4391e-06	2.5634e-06	613.79	119.59	3.0959e-06	2.148e-06	221.73	79.498	33.195	11.454	3.0354e-06	35.089	3.9781e-05	1.3702e-05	3.8138e-06	430.04	1.4619e-07	1.3649e-07	595.58	115.15	1.6185e-07	1.3823e-07	213.54	76.05	31.686	11.16	1.4884e-07	33.998	383.641	243.448	275.985	182.045	297.808	324.065	182.249	187.391	301.483	316.087	186.746	191.860	191.618	196.141	303.983	195.493	-8191	255	
1449.669	1	1	0	0	0.17081	0.24458	0.07049	0.1717	0.091084	0.13995	0.23758	0.11947	0.091456	0.27055	0.19327	0.2102	0.13149	0.015172	0.15154	0.19422	-2.3	-2.9458	-2.7792	-2.8063	-2.8979	-2.6896	-2.9375	-3.0271	-2.775	-2.9792	-2.8063	-2.9042	-3.0271	-2.5938	-2.8083	-3.1042	303.008	245.119	283.724	182.603	171.204	225.624	198.291	287.350	301.000	338.289	270.382	492.131	322.102	309.721	518.819	301.998	0.0010741	0.00028317	7.7626e-05	456.59	1.0275e-06	2.0454e-06	606.32	117.05	2.7807e-06	1.6471e-06	219.51	78.289	32.843	11.399	3.2982e-06	35.102	3.9361e-05	1.3302e-05	3.494e-06	429.34	1.3685e-07	1.4017e-07	589.09	113.3	1.575e-07	1.3277e-07	210.78	75.335	31.369	11.069	1.5496e-07	34.003	381.015	250.266	257.262	182.243	308.729	340.264	182.273	187.138	310.445	294.744	187.157	192.168	191.360	196.334	319.588	195.641	-8191	255	
1449.765	1	1	0	0	0.14204	0.074048	0.19142	0.099926	0.27911	0.021972	0.0081854	0.1243	0.075243	0.094461	0.18023	0.10943	0.19074	0.11126	0.16565	0.19337	-2.3667	-2.8521	-2.8229	-2.8312	-2.9729	-2.7208	-2.9625	-2.9062	-2.4521	-3.0375	-2.8271	-2.6979	-2.9229	-2.7458	-2.8875	-3.0292	217.553	236.770	239.105	484.221	503.037	352.621	494.121	205.783	305.782	507.592	514.523	320.818	317.815	285.937	374.427	196.429	0.0010385	0.00020308	4.1606e-05	454.79	2.0789e-06	2.4112e-06	610.66	117.39	3.3896e-06	2.0509e-06	219.84	78.323	32.969	11.419	3.4006e-06	35.273	3.8647e-05	1.2721e-05	3.596e-06	427.87	1.4318e-07	1.305e-07	591.5	113.62	1.6345e-07	1.3864e-07	212.04	75.618	31.58	11.148	1.6426e-07	34.176	380.123	243.658	225.735	182.037	310.388	314.529	182.182	187.332	301.097	303.828	187.254	192.128	191.675	196.873	294.214	195.611	-8191	255	
1449.862	1	1	0	0	0.18024	0.040025	0.10149	0.12636	0.071412	0.26789	0.10594	0.14966	0.34442	0.32633	0.17807	0.079926	0.24147	0.15194	0.08793	0.11086	-2.2792	-2.9896	-2.9083	-2.7375	-2.9938	-2.7479	-2.8396	-3.025	-2.5854	-2.8146	-2.9625	-2.7854	-2.9458	-2.9083	-2.8042	-2.9562	459.841	474.476	439.643	224.266	503.183	506.793	528.014	214.150	192.213	332.905	337.308	477.014	250.519	257.818	389.703	493.772	0.0010863	0.00021076	7.2339e-05	452.48	2.2024e-06	1.525e-06	612.14	119.3	3.8062e-06	1.9095e-06	223.01	79.559	33.198	11.619	3.3868e-06	35.754	3.9759e-05	1.3653e-05	3.4961e-06	429.24	1.4342e-07	1.3232e-07	594.98	114.79	1.7243e-07	1.3914e-07	214.55	76.361	31.755	11.231	1.497e-07	34.711	381.129	220.177	244.604	182.444	298.469	320.225	182.207	187.248	283.390	307.755	187.194	191.915	191.914	196.658	308.207	195.853	-8191	255	
1449.958	1	1	0	0	0.26592	0.16588	0.17718	0.17473	0.19824	0.17426	0.097241	0.19302	0.42501	0.12813	0.23292	0.21992	0.058157	0.098246	0.22989	0.32243	-2.2604	-2.9292	-2.9562	-2.5167	-3.1854	-2.8937	-2.8063	-3.1208	-2.5896	-2.9458	-3.0062	-2.8354	-2.8438	-2.7292	-2.8354	-3.0646	501.743	427.311	418.605	442.822	488.769	288.121	397.430	468.364	460.502	194.328	206.262	179.068	460.432	213.284	415.929	495.629	0.0010342	0.00025692	9.1234e-05	458.72	9.7439e-07	2.4575e-06	617.61	119.54	4.0842e-06	2.5392e-06	223.78	79.582	33.344	11.564	2.8974e-06	35.469	3.9625e-05	1.4072e-05	3.4088e-06	431.53	1.4375e-07	1.469e-07	598.07	115.48	1.7038e-07	1.4844e-07	214.98	76.569	31.854	11.233	1.4119e-07	34.322	381.666	240.061	260.864	181.874	355.329	337.063	182.074	186.999	302.395	330.245	186.836	191.877	191.714	196.785	285.542	195.416	-8191	255	
1450.054	1	1	0	0	0.11378	0.20669	0.10595	0.017612	0.12861	0.15512	0.055359	0.12603	0.17967	0.20806	0.30099	0.073466	0.16777	0.12867	0.11624	0.20055	-2.3229	-2.9521	-2.9646	-2.6063	-2.9292	-2.8208	-2.8208	-3.0958	-2.6854	-3.0042	-3.0792	-2.7188	-3.0229	-2.8729	-2.6375	-3.0917	402.451	371.856	432.329	502.163	465.854	374.220	384.361	265.808	409.961	288.855	477.880	287.618	527.414	195.216	460.947	514.002	0.0010573	0.00024618	7.67e-05	459.44	1.6582e-06	2.1282e-06	613.69	117.55	2.8866e-06	1.6109e-06	219.35	78.012	32.641	11.347	2.7655e-06	34.966	3.7908e-05	1.2234e-05	3.6844e-06	430.67	1.3826e-07	1.2873e-07	592.59	113.68	1.616e-07	1.3509e-07	211.07	74.915	31.279	10.969	1.4707e-07	33.771	384.304	256.327	260.911	181.830	295.012	343.145	182.226	187.474	269.276	296.213	186.785	191.763	191.937	196.434	302.320	195.498	-8191	255	
1450.150	1	1	0	0	0.082873	0.18846	0.10448	0.20052	0.15286	0.15466	0.2172	0.36541	0.10248	0.278	0.18978	0.16134	0.10136	0.069451	0.23609	0.20614	-2.4479	-2.5604	-2.8167	-2.6521	-3.0583	-2.8104	-2.6917	-2.8208	-2.9708	-2.6292	-2.9646	-2.7417	-2.9396	-3.0312	-2.6208	-2.9396	387.854	469.384	372.823	320.567	493.466	253.669	321.122	467.689	468.863	481.134	375.374	170.070	351.927	506.996	224.748	355.884	0.0010742	0.00022506	5.7553e-05	452.84	2.6069e-06	1.8151e-06	608.89	118.18	2.0623e-06	2.1765e-06	221.56	78.308	32.921	11.418	2.6301e-06	35.163	3.7995e-05	1.2947e-05	3.3951e-06	427.1	1.4933e-07	1.2129e-07	590.58	113.52	1.5188e-07	1.2872e-07	211.92	75.443	31.456	11.037	1.5015e-07	34.116	382.935	257.157	242.504	181.566	328.984	308.964	181.941	187.132	278.784	337.995	187.197	191.778	191.933	195.916	297.875	195.729	-8191	255	
1450.269	1	1	0	0	0.26109	0.28468	0.27663	0.14676	0.094406	0.1238	0.21147	0.16192	0.036895	0.11415	0.2133	0.12859	0.14388	0.11038	0.23655	0.071637	-2.3604	-2.6646	-3.1042	-2.5771	-2.7667	-3.1042	-2.7062	-3.0167	-2.825	-2.6479	-3.1042	-2.6479	-2.7938	-3.0146	-2.8354	-3.0125	291.011	270.468	332.819	184.246	302.171	440.081	422.238	416.974	217.359	383.828	361.729	322.443	238.772	203.826	187.257	270.286	0.0010775	0.00010382	6.6787e-05	461.46	2.6154e-06	2.4612e-06	614.62	118.42	4.3274e-06	1.6985e-06	221.48	79.297	33.334	11.588	3.665e-06	35.511	3.8122e-05	1.2453e-05	3.7412e-06	430.46	1.447e-07	1.3558e-07	595.44	114.57	1.5779e-07	1.3124e-07	213.75	76.163	31.81	11.218	1.4559e-07	34.53	384.403	266.540	277.227	182.047	304.831	320.313	181.925	187.285	290.877	321.044	186.999	191.684	191.765	196.507	304.064	195.757	-8191	255	
1450.365	1	1	0	0	0.10032	0.1144	0.13626	0.035725	0.030757	0.096299	0.15392	0.18283	0.049672	0.037936	0.12094	0.10228	0.21055	0.18804	0.21513	0.1874	-2.4479	-2.6375	-3.1083	-2.7771	-2.8854	-2.9833	-2.7438	-2.9188	-2.9208	-2.5812	-2.9688	-2.7021	-2.6625	-3.0771	-2.6417	-3.0333	187.942	528.928	394.267	360.091	455.351	419.226	414.361	245.328	430.772	291.506	511.711	501.359	208.476	484.998	216.310	391.277	0.0011518	0.00022738	6.3499e-05	460.95	1.3256e-06	2.4512e-06	621.14	119.87	3.1237e-06	2.5364e-06	224.23	80.222	33.679	11.734	1.7011e-06	36.198	3.9872e-05	1.3177e-05	3.6823e-06	432.02	1.4454e-07	1.3112e-07	599.89	115.5	1.6349e-07	1.3844e-07	216.27	77.247	32.174	11.415	1.4748e-07	35.108	384.781	255.088	257.470	182.338	343.125	359.028	182.368	187.420	290.545	311.495	187.230	191.987	191.604	196.672	324.099	195.567	-8191	255	
1450.461	1	1	0	0	0.14363	0.29908	0.22778	0.17479	0.16571	0.14548	0.18899	0.11004	0.1559	0.2839	0.32684	0.27534	0.016225	0.090012	0.058006	0.013714	-2.5438	-2.575	-3.1813	-2.6937	-2.7812	-3.2	-2.5708	-2.8375	-2.8375	-2.8917	-3.2083	-2.9625	-2.6375	-3.0375	-2.7188	-3.0271	415.974	204.434	223.883	515.969	524.598	459.688	194.407	496.555	431.451	457.351	509.411	501.588	468.007	315.110	310.734	440.466	0.0011002	0.0001797	4.7085e-05	454.49	2.2108e-06	2.1159e-06	617.46	118.86	3.0962e-06	1.85e-06	222.46	79.01	32.793	11.486	1.7765e-06	35.314	3.9093e-05	1.3759e-05	3.7118e-06	431.5	1.4747e-07	1.3063e-07	597.23	114.9	1.52e-07	1.453e-07	213.39	75.817	31.585	11.124	1.4131e-07	34.135	382.763	256.931	263.543	182.262	303.181	340.682	182.196	187.311	282.895	318.891	187.278	191.919	191.941	196.382	338.098	195.613	-8191	255	
1450.582	1	1	0	0	0.078549	0.047631	0.25139	0.26734	0.097615	0.19224	0.26327	0.073405	0.19572	0.11257	0.13746	0.11816	0.12379	0.17304	0.12547	0.059334	-2.5	-2.6708	-2.8604	-2.7938	-2.6292	-3.0396	-2.7375	-2.8583	-2.9583	-2.6583	-3.0583	-2.8937	-2.7708	-2.8646	-2.7354	-2.7708	312.939	453.294	282.658	454.715	399.756	230.784	436.115	411.708	441.310	391.926	323.355	446.910	408.398	423.288	359.671	417.093	0.0010788	0.00032095	8.1638e-05	454.73	2.49e-06	1.6661e-06	610.57	117.07	3.0867e-06	2.3908e-06	218.51	78.634	32.919	11.441	2.4647e-06	35.087	3.8857e-05	1.3687e-05	3.5739e-06	427.6	1.5111e-07	1.2773e-07	591.73	113.38	1.5036e-07	1.4166e-07	210.76	75.445	31.49	11.11	1.4711e-07	34.095	381.146	244.675	252.447	182.173	319.906	354.842	182.274	187.063	306.135	290.629	186.865	191.780	191.788	196.398	328.515	195.834	-8191	255	
1450.654	1	1	0	0	0.17082	0.13262	0.25002	0.34556	0.26471	0.2398	0.29228	0.24514	0.069867	0.24295	0.097347	0.18024	0.17808	0.15365	0.17128	0.23389	-2.6208	-2.7208	-2.9708	-2.725	-2.6188	-2.7958	-2.85	-2.8688	-2.9417	-2.6771	-3.0083	-2.8333	-2.6979	-2.9688	-2.675	-2.6271	528.333	276.216	354.321	190.337	262.350	493.997	502.854	506.494	466.380	508.060	242.877	316.748	461.825	325.051	523.638	519.089	0.0010523	0.00019068	7.9149e-05	455.68	1.6567e-06	2.031e-06	613.18	118.07	3.0206e-06	1.8707e-06	222.42	79.285	33.258	11.69	3.4018e-06	35.75	3.8991e-05	1.3083e-05	3.9506e-06	428	1.4367e-07	1.279e-07	593.91	113.8	1.4651e-07	1.3372e-07	213.31	76.246	31.77	11.266	1.5069e-07	34.678	381.441	242.735	245.264	181.915	314.458	332.315	182.119	187.236	300.563	334.093	187.142	191.889	191.419	196.316	294.089	195.570	-8191	255	
1450.750	1	1	0	0	0.14307	0.13517	0.057002	0.15335	0.22704	0.060948	0.20971	0.23324	0.10548	0.37118	0.23241	0.17673	0.043406	0.21783	0.1691	0.19552	-2.6667	-2.6542	-2.7854	-2.7833	-2.6292	-2.8229	-2.9083	-2.7396	-2.9333	-2.5687	-2.9604	-3.0583	-2.7979	-2.8875	-2.9042	-2.8667	324.313	338.511	350.926	234.576	377.551	459.794	243.701	207.069	386.689	349.997	248.326	288.502	528.456	196.553	526.462	477.059	0.0011253	0.00020184	8.8953e-05	458.84	2.0033e-06	1.3181e-06	618.12	118.84	3.8868e-06	1.5487e-06	225.18	80.292	33.654	11.808	2.4918e-06	36.475	3.9981e-05	1.3404e-05	3.3993e-06	431.39	1.4318e-07	1.3426e-07	597.79	115.09	1.5861e-07	1.4369e-07	215.93	77.235	32.197	11.488	1.5883e-07	35.419	383.216	276.316	262.149	181.718	327.617	324.417	182.264	187.316	279.495	349.430	186.885	192.052	191.531	196.376	297.362	195.785	-8191	255	
1450.870	1	1	0	0	0.33073	0.28422	0.12672	0.17167	0.2821	0.32032	0.28331	0.0094081	0.12425	0.27897	0.10632	0.10096	0.30525	0.11453	0.031974	0.15467	-2.5292	-2.8833	-2.95	-3.0375	-2.6458	-3.0292	-2.7292	-2.6375	-2.9646	-2.5875	-3.0021	-3.0167	-2.6188	-2.8708	-2.9208	-2.7938	178.479	294.201	491.951	258.770	386.561	484.127	418.751	295.869	469.295	269.737	271.502	447.457	246.947	335.766	279.224	260.789	0.0011587	0.00026582	4.8627e-05	459.9	1.8988e-06	2.7153e-06	618.22	120.24	3.1602e-06	1.3847e-06	226.57	80.41	33.722	11.802	2.6956e-06	36.165	4.0064e-05	1.3004e-05	3.5518e-06	432.18	1.4991e-07	1.3079e-07	600.41	116.14	1.5274e-07	1.3529e-07	217.48	77.4	32.221	11.432	1.411e-07	34.895	382.214	248.638	254.763	181.459	328.146	322.910	182.030	187.632	280.070	329.871	187.018	192.073	191.626	196.642	305.975	195.644	-8191	255	
1450.966	1	1	0	0	0.10691	0.19509	0.12405	0.20822	0.07943	0.28646	0.218	0.15362	0.12002	0.3434	0.083317	0.2817	0.1373	0.097887	0.19825	0.075197	-2.5771	-2.5687	-2.5938	-3.0583	-2.7042	-2.8	-3.0187	-2.525	-2.7521	-2.7021	-2.7521	-2.9958	-2.7292	-2.9167	-2.8146	-2.6312	388.676	343.136	297.199	490.684	268.165	393.147	179.307	194.419	327.005	494.882	178.792	252.151	485.247	446.715	361.648	311.341	0.0010993	0.00029466	4.0381e-05	455.24	2.3878e-06	2.7284e-06	611.37	117.99	3.232e-06	2.2757e-06	220.5	78.739	32.937	11.475	3.2884e-06	35.172	3.8546e-05	1.3106e-05	3.253e-06	430.5	1.3272e-07	1.2972e-07	592.71	113.96	1.5217e-07	1.2202e-07	211.86	75.503	31.53	11.105	1.3037e-07	34.095	383.165	237.570	253.302	182.374	331.866	314.074	182.198	186.892	284.473	299.669	186.830	191.577	191.769	196.672	300.207	195.620	-8191	255	
1451.061	1	1	0	0	0.051626	0.23516	0.091896	0.12767	0.31287	0.21957	0.19607	0.19923	0.10388	0.039273	0.10402	0.055332	0.16618	0.058792	0.15303	0.055798	-2.5708	-2.85	-2.7979	-3.2625	-2.7042	-3.0104	-3.0875	-2.6146	-2.8625	-2.7896	-2.7	-2.9479	-2.7812	-2.9021	-3.0625	-2.775	493.814	521.668	434.027	375.083	494.217	426.881	452.336	338.359	413.724	404.226	366.710	442.991	244.300	198.927	180.434	394.428	0.0010693	0.00025746	2.6685e-05	453.99	2.2463e-06	3.2566e-06	612.2	118.19	3.3633e-06	2.5444e-06	222.28	78.689	32.943	11.501	2.0628e-06	35.606	3.8274e-05	1.1445e-05	3.3509e-06	428.54	1.2859e-07	1.267e-07	593.33	113.77	1.3604e-07	1.1871e-07	212.95	75.761	31.648	11.129	1.2202e-07	34.38	381.267	243.033	242.503	181.921	334.173	348.977	182.159	187.167	298.673	335.624	187.166	191.965	191.624	196.637	308.227	195.296	-8191	255	
1451.157	1	1	0	0	0.2461	0.089516	0.24887	0.23669	0.16159	0.29541	0.10181	0.054509	0.1657	0.30851	0.085514	0.25779	0.19515	0.20562	0.16487	0.10093	-2.3396	-2.7833	-2.7562	-3.1083	-2.8146	-2.8583	-3.0625	-2.8646	-2.9562	-2.8896	-2.5354	-3.1604	-2.7583	-2.7083	-2.8375	-2.8042	434.780	188.457	442.314	494.289	217.125	505.679	182.139	446.629	300.710	361.220	399.792	486.447	517.057	202.634	382.855	182.365	0.0010464	0.00022369	6.5946e-05	452.99	3.1424e-06	1.9907e-06	615.12	119.38	3.1695e-06	1.1164e-06	223.32	80.035	33.342	11.683	2.437e-06	35.922	3.5817e-05	1.1958e-05	3.2246e-06	428.81	1.3962e-07	1.3517e-07	597.2	114.92	1.4318e-07	1.2243e-07	215.18	76.78	31.897	11.339	1.3818e-07	34.951	381.699	245.271	251.182	182.070	302.920	339.971	182.246	187.351	299.639	322.387	186.960	191.900	191.357	196.634	312.893	195.832	-8191	255	
1451.230	1	1	0	0	0.10805	0.092033	0.14695	0.10624	0.097757	0.13299	0.21568	0.18787	0.1744	0.12293	0.042251	0.071306	0.1121	0.2553	0.087363	0.17293	-2.6479	-2.9188	-2.5958	-2.9583	-2.8625	-2.6688	-3.0521	-2.7521	-2.9083	-2.9083	-2.7625	-3.0896	-2.7542	-2.7542	-2.9396	-2.7479	480.056	335.203	475.644	435.811	320.021	429.312	176.914	218.591	181.520	189.494	459.037	287.832	446.072	199.292	430.936	293.080	0.0010864	0.00016578	7.0879e-05	459.98	2.4223e-06	2.9293e-06	621.78	119.64	2.7056e-06	2.0256e-06	226.53	81.3	33.731	11.96	2.9635e-06	36.578	3.9586e-05	1.1573e-05	3.2362e-06	430.76	1.3264e-07	1.3785e-07	599.63	115.57	1.4761e-07	1.2363e-07	217.39	77.96	32.425	11.569	1.3839e-07	35.537	382.721	218.939	254.746	181.848	317.051	331.351	182.127	187.326	299.450	328.125	186.987	191.944	191.538	196.368	292.520	195.876	-8191	255	
1451.349	1	1	0	0	0.11487	0.18066	0.1321	0.14658	0.2645	0.24567	0.027605	0.13493	0.16558	0.12911	0.13239	0.12224	0.12778	0.39939	0.28674	0.17765	-2.4333	-2.9833	-2.6208	-2.8979	-2.7625	-2.8792	-3.0917	-2.6646	-2.95	-3.1333	-2.6083	-2.9688	-2.7875	-2.6021	-2.9646	-2.8333	372.900	344.047	492.486	491.993	481.081	321.983	325.822	523.835	243.092	246.033	336.248	233.633	208.546	479.982	230.706	464.365	0.0010615	0.00021659	7.4087e-05	454.39	2.1172e-06	2.6977e-06	616.02	119.21	2.474e-06	1.9822e-06	220.76	79.047	33.046	11.54	2.3425e-06	35.183	3.7263e-05	1.1886e-05	3.7033e-06	431.17	1.3495e-07	1.3761e-07	596.49	114.88	1.4564e-07	1.1818e-07	213.43	75.811	31.613	11.142	1.3666e-07	34.158	381.643	268.042	268.304	182.472	322.012	338.278	182.107	187.417	283.156	316.430	187.358	191.760	191.243	196.279	329.173	195.289	-8191	255	
1451.445	1	1	0	0	0.12126	0.10683	0.080564	0.14048	0.17974	0.074078	0.05374	0.34148	0.13692	0.31856	0.12599	0.21237	0.12714	0.19838	0.18682	0.079093	-2.4042	-2.9229	-2.575	-2.9833	-2.8812	-2.6104	-3.0896	-2.7083	-2.8479	-3.0375	-2.775	-2.9583	-3.0771	-2.55	-2.9083	-2.8083	480.659	312.153	299.925	201.252	325.006	508.586	294.936	503.862	261.805	352.191	525.071	489.943	201.843	222.513	216.359	180.348	0.0010009	0.00023535	7.9081e-05	457.82	1.7717e-06	2.6968e-06	609.14	117.17	3.108e-06	2.9647e-06	219.4	78.362	32.875	11.505	2.5237e-06	35.229	3.544e-05	1.2626e-05	3.5255e-06	429.45	1.2921e-07	1.2009e-07	591.2	112.9	1.461e-07	1.1971e-07	211.4	75.464	31.458	11.121	1.2301e-07	34.226	381.281	260.193	267.252	181.827	297.678	328.502	182.371	187.089	310.986	324.557	186.961	191.772	191.741	196.446	289.550	195.572	-8191	255	
1451.542	1	1	0	0	0.15507	0.05369	0.32505	0.10867	0.1005	0.055431	0.23774	0.1499	0.098134	0.31019	0.16341	0.11513	0.2775	0.088274	0.26379	0.31857	-2.2333	-2.9208	-2.5479	-2.8917	-3.1854	-2.7167	-3.1437	-2.775	-2.7896	-2.9208	-2.8583	-2.65	-2.8417	-2.7604	-2.9646	-2.8187	482.736	175.979	419.990	431.139	421.241	316.294	468.330	451.082	172.106	190.643	498.533	272.348	272.302	384.048	275.241	509.256	0.0010789	0.00021755	3.2076e-05	454.79	2.1594e-06	2.1317e-06	612.42	118.13	2.6065e-06	2.0986e-06	221.11	79.178	33.221	11.553	3.4585e-06	35.99	3.7241e-05	1.0931e-05	3.1468e-06	428.81	1.3681e-07	1.1869e-07	593.11	113.87	1.4753e-07	1.2554e-07	213.03	76.038	31.714	11.233	1.3317e-07	34.681	383.002	238.713	247.888	181.952	315.870	323.751	182.506	187.603	310.036	337.024	187.042	192.002	191.666	196.263	291.547	195.844	-8191	255	
1451.662	1	1	0	0	0.21469	0.24955	0.12102	0.088404	0.28153	0.13034	0.052544	0.2379	0.18596	0.17385	0.31787	0.14195	0.24787	0.14891	0.29189	0.19509	-2.3521	-2.9792	-2.6521	-2.7833	-3.1333	-2.8083	-2.9917	-2.8063	-2.5979	-2.9958	-2.7208	-2.7667	-3.0396	-2.7188	-2.9833	-3.1167	518.708	251.203	265.484	515.116	192.924	375.406	449.868	495.538	416.345	460.165	514.516	211.705	457.837	188.398	225.613	418.463	0.0011206	0.00026755	6.8243e-05	453.98	2.2204e-06	3.3348e-06	613.07	118.57	4.1581e-06	2.049e-06	223.08	79.967	33.239	11.907	2.6959e-06	36.538	3.8216e-05	1.2019e-05	3.7139e-06	429.41	1.2954e-07	1.286e-07	595.53	114.53	1.5377e-07	1.233e-07	215.61	77.012	31.949	11.401	1.3189e-07	35.265	381.976	259.937	266.277	182.371	279.891	326.239	182.300	187.566	271.288	326.182	187.046	192.102	191.576	196.493	289.753	195.885	-8191	255	
1451.758	1	1	0	0	0.22956	0.21167	0.17342	0.2567	0.053287	0.10345	0.26527	0.10603	0.29565	0.095952	0.33691	0.25821	0.17029	0.12325	0.090086	0.16715	-2.2083	-3.025	-2.7229	-2.7667	-3.0917	-2.6375	-2.9583	-2.85	-2.4958	-2.9417	-2.8125	-2.8167	-3.1771	-2.8125	-2.9042	-2.9896	281.169	378.844	416.683	184.080	344.584	323.322	424.239	302.217	374.727	461.556	252.425	524.367	489.697	456.611	244.211	510.366	0.0011107	0.0002967	4.658e-05	457.43	1.6301e-06	2.3188e-06	617.83	119.81	3.0876e-06	2.1774e-06	223.72	79.994	33.212	11.697	2.9844e-06	35.614	3.9944e-05	1.1909e-05	3.2036e-06	431.35	1.2644e-07	1.3042e-07	598.78	115.58	1.5451e-07	1.2235e-07	215.47	76.945	31.863	11.293	1.2264e-07	34.606	382.381	251.399	266.928	181.905	281.671	319.119	182.347	187.317	305.942	320.760	187.038	191.977	191.866	196.071	285.291	195.440	-8191	255	
1451.830	1	1	0	0	0.19268	0.051694	0.13394	0.16747	0.2625	0.11251	0.30475	0.22079	0.35611	0.055803	0.28245	0.13868	0.11848	0.20372	0.1239	0.2366	-2.0687	-2.9458	-2.6979	-2.8333	-3.0583	-2.7062	-2.9375	-2.9167	-2.6562	-3.1729	-2.825	-2.6896	-2.9604	-2.6437	-2.85	-3.0521	426.168	214.774	452.446	196.821	481.160	377.026	390.983	519.500	199.803	203.789	472.667	479.149	495.170	497.368	220.807	358.357	0.0011162	0.00016345	5.0412e-05	461.34	1.9916e-06	2.7284e-06	611.13	118.06	3.1944e-06	1.8898e-06	219.77	78.082	32.67	11.442	4.4607e-06	35	3.7868e-05	1.1943e-05	3.1321e-06	430.38	1.2714e-07	1.1765e-07	591.78	113.43	1.376e-07	1.1044e-07	211.36	75.132	31.359	11.081	1.3592e-07	33.943	382.309	252.930	265.327	181.888	325.407	325.503	181.948	187.416	283.552	350.797	187.114	191.710	191.612	196.398	322.442	195.600	-8191	255	
1451.951	1	1	0	0	0.22277	0.049593	0.15996	0.025218	0.11122	0.12391	0.07754	0.38497	0.077383	0.22271	0.19229	0.10643	0.17278	0.10714	0.11866	0.13385	-2.2146	-3.0104	-2.8	-2.6229	-2.9625	-2.7729	-2.8125	-2.9521	-2.5854	-2.9042	-2.8208	-2.55	-2.9437	-2.7479	-2.7646	-2.9604	361.742	191.689	193.266	525.669	202.297	382.057	173.403	419.729	264.241	317.573	171.549	443.323	463.852	342.677	488.418	384.123	0.0010738	0.00020666	6.4333e-05	454.58	1.4999e-06	2.2588e-06	608.09	117.29	3.2721e-06	1.45e-06	220.4	78.791	32.871	11.474	2.0416e-06	35.595	3.7828e-05	1.0837e-05	3.2173e-06	426.66	1.297e-07	1.11e-07	591.09	113	1.4138e-07	1.1553e-07	212.31	75.584	31.39	11.143	1.3136e-07	34.269	384.409	238.579	265.212	182.178	300.211	333.479	182.183	187.157	283.502	353.257	187.104	192.144	191.103	196.279	297.392	195.777	-8191	255	
1452.047	1	1	0	0	0.20542	0.15161	0.23493	0.2186	0.088761	0.16071	0.073294	0.16962	0.29436	0.06118	0.071272	0.11077	0.19226	0.079461	0.053507	0.25193	-2.5146	-2.8375	-3.0542	-2.7062	-2.8646	-2.7021	-2.7146	-2.9771	-2.5167	-2.9875	-3.0458	-2.6021	-3.0292	-2.7958	-2.75	-3.1813	277.924	350.893	442.952	209.338	248.128	197.000	190.752	211.256	384.884	480.606	475.385	482.305	294.321	491.034	413.354	514.935	0.0010768	0.00024782	5.6579e-05	454.88	2.887e-06	1.8711e-06	617.45	118.26	3.2809e-06	1.1393e-06	222.12	79.471	33.483	11.632	2.0636e-06	35.909	3.6176e-05	1.112e-05	3.2131e-06	429.13	1.2731e-07	1.1563e-07	596.58	114.34	1.4429e-07	1.2128e-07	214.15	76.397	31.859	11.243	1.3901e-07	34.69	384.750	225.850	281.480	181.791	310.146	319.555	182.062	187.266	302.140	337.341	187.365	192.180	191.961	197.211	273.317	195.272	-8191	255	
1452.141	1	1	0	0	0.071736	0.23313	0.06962	0.1498	0.11072	0.11675	0.058738	0.099063	0.11352	0.13823	0.19744	0.055398	0.21125	0.067463	0.078096	0.13259	-2.3604	-2.9542	-2.8563	-2.7292	-2.9979	-2.975	-2.8542	-3.1375	-2.6875	-2.9104	-3.0563	-2.7229	-2.9396	-2.9521	-2.7208	-3.1208	432.603	179.766	326.210	470.402	386.578	252.819	489.121	479.533	353.675	205.845	194.031	211.885	399.100	368.826	181.746	425.451	0.0011028	0.0002709	7.0705e-05	455.31	1.9126e-06	2.6333e-06	622.25	119.18	3.5068e-06	2.2005e-06	225.46	80.732	33.782	11.873	3.1972e-06	36.423	3.772e-05	1.1603e-05	2.9164e-06	431.67	1.1896e-07	1.1418e-07	601.05	115.36	1.3809e-07	1.2012e-07	216.94	77.568	32.237	11.491	1.3029e-07	35.318	381.548	242.150	253.901	181.760	309.591	305.158	182.150	187.161	279.596	323.663	187.386	192.182	191.792	196.188	288.594	195.710	-8191	255	
1452.262	1	1	0	0	0.24953	0.18295	0.12473	0.16236	0.17878	0.2099	0.14777	0.23881	0.2133	0.10743	0.20402	0.16115	0.087279	0.2194	0.19448	0.11101	-2.3438	-2.8	-2.9875	-2.7396	-3.0417	-2.9083	-2.6396	-3.2	-2.8167	-2.9083	-3.0708	-2.6396	-2.9479	-2.9938	-2.7542	-3.075	225.673	427.954	453.678	504.806	282.790	375.553	321.940	185.416	516.889	423.814	475.532	513.522	443.058	208.418	253.582	491.434	0.0011066	0.00021129	6.9429e-05	455.1	9.0463e-07	2.7664e-06	614.73	118.35	3.3123e-06	1.8684e-06	221.51	79.341	32.871	11.516	2.3109e-06	35.1	3.8893e-05	1.2215e-05	3.0531e-06	430.53	1.2644e-07	1.2381e-07	597.52	114.63	1.3953e-07	1.1098e-07	213.59	76.198	31.681	11.161	1.2083e-07	34.072	384.696	238.133	256.272	182.124	319.421	315.608	182.291	187.035	290.215	309.600	186.902	192.134	191.826	196.409	296.784	195.864	-8191	255	
1452.358	1	1	0	0	0.087688	0.31214	0.28273	0.26437	0.11505	0.10094	0.15238	0.15749	0.14624	0.11299	0.2363	0.070526	0.2137	0.27122	0.27689	0.1561	-2.4604	-2.6708	-3.0167	-2.7625	-3.0521	-2.8896	-2.5792	-3.0208	-2.8979	-2.8521	-3.0104	-2.7	-2.7625	-2.8979	-2.75	-3.1188	275.670	311.869	374.318	195.109	346.341	382.597	391.281	264.286	514.107	476.162	485.363	276.768	198.200	500.038	259.293	409.391	0.0010866	0.00031895	6.8585e-05	451.64	2.4265e-06	1.6518e-06	612.38	116.82	3.6193e-06	1.4545e-06	220.4	78.237	32.791	11.542	2.8199e-06	35.326	3.6738e-05	1.1513e-05	2.9827e-06	426.81	1.2532e-07	1.1501e-07	592.3	113.14	1.3206e-07	1.1466e-07	211.76	75.443	31.351	11.15	1.3082e-07	34.204	382.593	248.742	246.007	181.823	298.560	321.299	182.282	187.346	282.579	343.308	187.212	191.880	191.656	196.474	296.459	195.806	-8191	255	
1452.454	1	1	0	0	0.035745	0.23266	0.17024	0.15519	0.25736	0.0083568	0.29756	0.12821	0.12969	0.042549	0.15905	0.22186	0.089736	0.24672	0.18537	0.13978	-2.2875	-2.4813	-3.0125	-2.8229	-2.8708	-3.0271	-2.7313	-3.0167	-2.9771	-2.6833	-3.0771	-2.725	-2.6688	-3.0208	-2.7375	-2.9021	281.849	457.869	252.163	224.579	503.360	478.457	452.227	246.843	368.595	276.277	512.194	212.677	219.491	410.759	496.296	301.668	0.00099281	0.00021806	9.4796e-05	456.16	2.4075e-06	2.4197e-06	616.47	118.2	2.7696e-06	1.7465e-06	220.59	79.272	33.334	11.562	2.5342e-06	35.611	3.4922e-05	1.1079e-05	3.0426e-06	427.87	1.2995e-07	1.0605e-07	594.69	113.82	1.3383e-07	1.2603e-07	213.24	76.18	31.734	11.221	1.3095e-07	34.54	383.679	254.815	259.057	182.794	316.859	348.228	181.926	187.545	288.818	322.803	186.806	192.044	191.718	196.525	297.129	195.699	-8191	255	
1452.550	1	1	0	0	0.10598	0.075477	0.0070746	0.15961	0.18523	0.22858	0.10545	0.13865	0.12317	0.11379	0.34941	0.12453	0.22435	0.079542	0.1663	0.28272	-2.4688	-2.6875	-3.1292	-2.6771	-2.8979	-3.0292	-2.7438	-2.9771	-2.9104	-2.8063	-3.0979	-2.7771	-2.7812	-2.8688	-2.6646	-2.9042	346.390	205.778	311.736	206.333	443.722	494.573	309.686	429.934	431.792	257.985	500.093	182.731	319.626	485.994	192.560	230.268	0.001071	0.00021078	5.3218e-05	454.37	2.0481e-06	2.289e-06	617.21	119.02	2.8521e-06	2.7458e-06	224.55	80.523	33.483	11.766	4.1302e-06	36.106	3.6049e-05	1.0709e-05	2.8143e-06	428.76	1.2706e-07	1.1679e-07	596.96	114.47	1.3957e-07	1.2454e-07	215.48	77.055	32.004	11.363	1.3033e-07	35.015	383.256	238.113	264.135	181.884	307.420	330.908	182.151	187.575	290.727	324.017	187.111	191.985	191.308	196.960	284.788	196.131	-8191	255	
1452.646	1	1	0	0	0.058821	0.15604	0.13038	0.19472	0.13216	0.094643	0.15248	0.18289	0.1199	0.16055	0.18037	0.097123	0.17397	0.17434	0.062873	0.10974	-2.5458	-2.5938	-2.9583	-2.9292	-2.7562	-2.8667	-2.5896	-2.9	-2.8833	-2.7375	-2.9333	-2.9	-2.6688	-2.9521	-2.7708	-2.7188	397.429	346.456	357.471	527.171	208.332	288.220	471.358	308.822	376.612	194.923	462.353	431.609	201.186	493.351	373.479	406.488	0.0010508	0.00027509	5.953e-05	460.56	2.0502e-06	2.4482e-06	618.41	120.14	3.0282e-06	1.3923e-06	224.04	80.221	33.728	11.663	2.4602e-06	35.797	3.7035e-05	1.2438e-05	3.2762e-06	432.23	1.3144e-07	1.1232e-07	598.72	115.39	1.3297e-07	1.2318e-07	215.58	77.044	32.034	11.333	1.2873e-07	34.722	381.258	258.693	272.797	182.158	302.568	323.878	182.314	187.277	302.323	300.173	187.284	191.756	191.391	196.673	294.916	196.189	-8191	255	
1452.743	1	1	0	0	0.25667	0.28236	0.27739	0.091344	0.34277	0.27499	0.10984	0.085651	0.086048	0.23206	0.059099	0.082562	0.22811	0.2256	0.28208	0.13669	-2.75	-2.7125	-2.8625	-2.6583	-2.4229	-3.225	-2.9521	-2.8708	-2.9	-2.6813	-3.0187	-3.1437	-2.5729	-2.9125	-2.7542	-2.6708	227.759	425.632	510.129	477.858	527.329	324.736	265.160	230.018	230.784	424.154	207.478	351.890	511.661	387.768	275.698	326.640	0.001091	0.00030805	7.0074e-05	456.18	2.3183e-06	2.9457e-06	610.61	117.36	3.1361e-06	1.4886e-06	220.09	78.962	32.611	11.293	2.7754e-06	35.013	3.6219e-05	1.1154e-05	3.1384e-06	428.66	1.2144e-07	1.1001e-07	591.28	113.23	1.3219e-07	1.0962e-07	211.1	75.269	31.197	11.011	1.2231e-07	33.931	382.125	246.079	249.130	181.908	312.209	331.976	182.275	187.187	281.287	347.030	187.090	192.069	191.589	196.307	303.577	195.913	-8191	255	
1452.839	1	1	0	0	0.13291	0.30638	0.073972	0.088425	0.11017	0.21174	0.23853	0.22605	0.25712	0.10966	0.1276	0.27606	0.16595	0.13061	0.056053	0.24007	-2.4521	-2.6854	-2.9208	-2.8625	-2.6	-2.9896	-2.9188	-2.6333	-2.9833	-2.7667	-3.0396	-2.8667	-2.5458	-3.0479	-2.8729	-2.8375	265.142	279.057	195.332	312.584	314.779	292.669	458.987	448.658	496.439	485.470	181.070	447.885	464.504	200.737	314.843	442.643	0.0010795	0.00026764	4.6354e-05	451.15	3.038e-06	2.9148e-06	608.24	116.68	2.4551e-06	2.3223e-06	219.41	78.372	32.846	11.53	2.9588e-06	35.223	3.5274e-05	1.1483e-05	3.2162e-06	425.08	1.3375e-07	1.1241e-07	589.51	112.69	1.2386e-07	1.1433e-07	211.65	75.508	31.36	11.096	1.2289e-07	34.234	380.896	245.805	237.683	181.836	294.255	331.850	181.937	187.193	278.410	337.144	186.967	191.978	191.470	196.276	322.734	195.344	-8191	255	
1452.935	1	1	0	0	0.10778	0.13881	0.19585	0.088253	0.41861	0.093183	0.32576	0.047739	0.15664	0.21746	0.10267	0.083249	0.26433	0.22263	0.13351	0.22782	-2.5792	-2.6354	-2.8792	-3	-2.5792	-2.8312	-2.8333	-2.4938	-3.0625	-2.7417	-2.8292	-3.1396	-2.5812	-2.8125	-2.8208	-2.7125	300.864	266.476	453.240	332.706	249.947	386.740	211.438	516.005	379.879	390.520	389.989	519.884	346.737	198.223	332.614	500.500	0.0010961	0.0002134	5.1624e-05	456.85	2.093e-06	2.5612e-06	614.9	117.67	3.5803e-06	2.6025e-06	222.34	79.869	33.053	11.675	2.9601e-06	35.903	3.6183e-05	1.0803e-05	3.151e-06	427.51	1.24e-07	1.1022e-07	593.93	113.53	1.3473e-07	1.2363e-07	213.65	76.47	31.638	11.268	1.2671e-07	34.726	383.248	248.594	246.854	181.578	285.720	312.219	182.272	187.471	272.606	320.675	187.254	191.829	191.398	196.015	305.249	195.743	-8191	255	
1453.054	1	1	0	0	0.16382	0.13393	0.057628	0.14706	0.060542	0.19915	0.16723	0.11825	0.22446	0.025828	0.10539	0.24682	0.37737	0.057052	0.27841	0.23695	-2.5708	-2.7479	-2.7271	-3.0479	-2.8208	-2.8896	-3.0667	-2.5	-2.8937	-2.8646	-2.6208	-3.0896	-2.6333	-2.9521	-2.8104	-2.7521	503.302	200.332	253.303	485.068	393.519	203.795	506.578	291.567	211.334	183.971	313.237	190.675	522.350	488.140	390.102	527.216	0.0010883	0.00024429	6.1268e-05	458.49	2.2237e-06	2.5758e-06	614.27	118.92	3.6783e-06	2.9434e-06	224.31	80.721	33.395	11.882	3.2715e-06	36.15	3.7335e-05	1.1343e-05	3.009e-06	430.53	1.1999e-07	1.2331e-07	597.14	114.85	1.392e-07	1.1933e-07	216.12	77.385	32.118	11.46	1.316e-07	35.253	383.837	227.054	258.580	181.684	300.140	323.702	182.310	187.248	317.055	334.474	186.774	191.821	191.665	196.492	292.572	195.794	-8191	255	
1453.127	1	1	0	0	0.16686	0.12909	0.30264	0.29168	0.38614	0.06709	0.23423	0.081424	0.12957	0.18139	0.26217	0.17012	0.041803	0.16296	0.053875	0.010933	-2.4688	-2.6979	-2.6875	-3.1354	-2.7333	-2.9625	-2.9583	-2.7125	-2.9854	-2.9604	-2.5896	-3.1729	-2.8271	-2.8063	-2.9667	-2.8708	222.518	284.192	408.464	234.523	331.390	223.761	377.941	244.909	527.968	433.465	452.145	421.641	419.960	496.996	321.567	378.672	0.0011122	0.00015876	7.5195e-05	455.79	2.3992e-06	2.1255e-06	617.88	118.98	2.1667e-06	2.2678e-06	221.74	79.474	33.372	11.573	2.4491e-06	35.299	3.8314e-05	1.1785e-05	3.0426e-06	430.23	1.2305e-07	1.0894e-07	596.63	114.3	1.3584e-07	1.2215e-07	213.06	75.969	31.592	11.174	1.2687e-07	34.243	383.078	250.896	242.127	182.283	313.261	324.060	182.140	187.248	282.764	300.868	187.237	191.965	191.355	196.839	295.851	195.472	-8191	255	
1453.223	1	1	0	0	0.40125	0.26614	0.044096	0.33007	0.048977	0.12301	0.40104	0.04935	0.084511	0.17574	0.31752	0.27361	0.099129	0.31497	0.18049	0.28934	-2.5479	-2.8625	-2.5875	-3.1042	-2.8021	-2.9458	-3.0563	-2.7604	-2.9917	-2.9792	-2.7667	-3.1708	-2.7729	-2.9646	-3.1833	-2.7562	518.913	345.169	207.165	511.024	327.203	302.982	499.275	429.280	432.241	465.467	177.214	483.688	315.892	384.128	283.758	467.043	0.0010874	0.00020042	7.9478e-05	448.73	2.2035e-06	2.0802e-06	608.85	117.03	2.5998e-06	2.3829e-06	219.58	78.372	32.79	11.369	2.7573e-06	35.071	3.7937e-05	1.1464e-05	3.3404e-06	426.65	1.2144e-07	1.1716e-07	590.6	112.64	1.3928e-07	1.102e-07	211.02	75.476	31.288	11.058	1.2239e-07	34.16	381.572	245.124	250.770	181.724	305.011	346.206	181.984	187.314	302.849	335.886	186.981	192.023	191.570	196.296	290.258	195.507	-8191	255	
1453.342	1	1	0	0	0.23116	0.18329	0.16409	0.10434	0.13728	0.17406	0.17549	0.085744	0.2619	0.12622	0.11505	0.086419	0.095897	0.030655	0.17341	0.064964	-2.45	-3.0083	-2.6958	-3.0896	-2.65	-2.725	-3.0563	-2.8583	-2.8292	-2.9	-2.6729	-2.9021	-2.8187	-2.7521	-2.9479	-2.8667	358.245	334.056	452.157	486.495	174.820	367.636	471.646	505.964	429.224	300.911	223.042	206.739	453.563	334.382	200.410	198.508	0.0010683	0.00026045	7.2875e-05	448.91	1.5979e-06	1.6068e-06	611.07	117.88	2.616e-06	2.9645e-06	221.75	79.028	32.57	11.545	2.5745e-06	35.766	3.7198e-05	1.1739e-05	3.2573e-06	425.02	1.3189e-07	1.0571e-07	591.66	113.41	1.3613e-07	1.2078e-07	212.48	75.905	31.461	11.172	1.1861e-07	34.658	384.489	240.379	257.757	181.981	290.694	310.800	182.191	187.264	290.929	321.664	186.992	191.880	191.537	196.822	292.526	195.797	-8191	255	
1453.438	1	1	0	0	0.086194	0.16948	0.16897	0.21937	0.11936	0.10367	0.082494	0.05756	0.036338	0.13955	0.15975	0.14715	0.17101	0.066347	0.29837	0.052419	-2.3479	-2.9583	-2.6083	-2.9854	-2.7354	-2.6771	-3.0771	-2.9062	-2.7208	-3.0271	-2.5271	-2.9	-2.9771	-2.7062	-2.9104	-2.7292	420.204	485.979	492.382	224.742	329.829	319.592	173.310	212.780	374.708	479.876	396.378	502.706	401.293	266.986	221.603	235.204	0.0010919	0.0002192	6.6793e-05	453.45	1.6741e-06	2.4094e-06	612.02	118.22	3.8409e-06	2.4404e-06	221.94	79.947	33.247	11.692	2.4496e-06	36.338	3.7694e-05	1.1041e-05	3.3961e-06	427.1	1.2636e-07	1.1679e-07	594.14	114.09	1.4335e-07	1.1875e-07	214.29	76.751	31.766	11.313	1.2819e-07	35.143	382.516	246.303	262.767	181.804	309.169	339.556	182.231	187.322	298.256	304.313	186.996	191.933	191.579	196.274	306.470	195.685	-8191	255	
1453.535	1	1	0	0	0.15489	0.2392	0.14867	0.057843	0.21066	0.15828	0.22728	0.11853	0.10539	0.18889	0.095298	0.25973	0.28265	0.33025	0.16679	0.39794	-2.3708	-2.9229	-2.6208	-2.9667	-2.8542	-2.7104	-2.9958	-2.6854	-2.9104	-2.975	-2.7687	-2.9083	-2.8688	-2.6625	-2.9938	-2.7458	475.113	481.070	379.482	284.049	303.048	513.986	430.364	515.597	450.586	341.625	495.451	245.626	462.258	470.416	436.835	520.982	0.0011093	0.00019586	8.3773e-05	456.84	2.3089e-06	2.9929e-06	617.07	119.1	3.1657e-06	2.2408e-06	223.86	80.407	33.381	11.64	2.7172e-06	35.957	3.9423e-05	1.2075e-05	3.5108e-06	429.83	1.3194e-07	1.3054e-07	598.08	114.89	1.52e-07	1.2024e-07	215.71	77.09	31.993	11.352	1.3214e-07	34.733	380.859	251.488	255.383	182.195	310.789	317.198	182.077	187.331	292.452	336.849	187.335	191.948	191.578	196.950	304.573	195.513	-8191	255	
1453.631	1	1	0	0	0.054694	0.233	0.18886	0.07323	0.19354	0.45722	0.1168	0.12375	0.09395	0.16946	0.078414	0.20796	0.13817	0.12873	0.13833	0.23544	-2.35	-2.8667	-2.7062	-2.9396	-2.7208	-2.5563	-3.15	-2.7208	-2.7708	-2.9167	-2.7354	-2.6562	-3.0333	-2.4354	-2.9708	-2.7021	396.107	349.219	264.159	522.481	175.300	420.551	357.810	501.732	191.944	248.450	503.932	497.809	368.601	213.109	336.325	221.514	0.0010985	0.00023686	7.9171e-05	454	1.8338e-06	2.3351e-06	608.46	117.86	2.1973e-06	1.7265e-06	218.92	79.124	32.555	11.537	3.1116e-06	35.449	3.8977e-05	1.0856e-05	3.2573e-06	425.72	1.3764e-07	1.2711e-07	590.1	113.31	1.5085e-07	1.2843e-07	210.4	75.708	31.386	11.17	1.416e-07	34.335	384.740	258.464	260.392	181.744	296.837	324.705	182.010	187.658	300.620	315.937	186.734	191.755	191.512	196.728	298.874	195.581	-8191	255	
1453.751	1	1	0	0	0.20227	0.23673	0.17454	0.056219	0.1446	0.10357	0.23313	0.2504	0.23068	0.15752	0.070276	0.19933	0.065872	0.20145	0.13771	0.21089	-2.1813	-3.0187	-2.7062	-2.8187	-2.9229	-2.5604	-2.9583	-2.875	-2.6896	-2.8708	-2.7104	-2.85	-3.1208	-2.7833	-2.8104	-2.9083	407.076	269.220	472.817	249.085	297.369	344.963	441.633	215.058	517.258	433.413	467.040	243.402	228.795	500.990	333.609	198.710	0.0011105	0.00022767	4.6797e-05	452.48	2.517e-06	2.6116e-06	610.11	116.55	2.2667e-06	1.5485e-06	220.96	78.81	33.215	11.643	2.7945e-06	35.796	3.8542e-05	1.2079e-05	3.5476e-06	426.61	1.4334e-07	1.4306e-07	589.59	112.61	1.5926e-07	1.3174e-07	211.8	75.981	31.574	11.235	1.5957e-07	34.715	382.684	245.656	243.851	181.781	295.971	313.424	182.260	187.096	297.128	323.958	187.055	191.683	191.574	196.327	303.788	195.597	-8191	255	
1453.823	1	1	0	0	0.098342	0.30895	0.47465	0.16225	0.059842	0.1266	0.15374	0.07171	0.11825	0.1837	0.28593	0.21169	0.16102	0.035508	0.13449	0.15285	-2.2875	-3.0312	-2.7708	-2.7812	-3.1188	-2.8458	-2.8937	-2.7729	-2.5917	-2.9333	-2.9375	-2.8312	-2.9979	-2.8521	-2.8667	-2.9313	354.706	414.586	254.864	241.838	447.422	472.241	394.394	435.257	231.863	472.131	402.499	505.068	332.100	184.532	202.063	501.207	0.001106	0.00030506	6.2643e-05	453.84	2.2384e-06	1.8856e-06	607.86	117.45	3.4338e-06	2.3598e-06	222.16	79.901	32.96	11.802	2.2485e-06	36.28	3.8738e-05	1.2796e-05	3.494e-06	425.82	1.4206e-07	1.355e-07	591.34	113.44	1.4917e-07	1.3228e-07	213.78	76.72	31.655	11.368	1.5603e-07	35.033	383.940	271.149	258.525	181.415	325.726	333.796	182.158	187.409	288.986	320.961	187.032	191.995	191.738	196.613	322.187	195.620	-8191	255	
1453.944	1	1	0	0	0.013066	0.089115	0.26612	0.19714	0.0335	0.11101	0.15208	0.18855	0.14249	0.19631	0.051382	0.12749	0.082175	0.25371	0.21841	0.24944	-2.3146	-2.9521	-2.6437	-2.9333	-3.0104	-2.7625	-2.9146	-2.9542	-2.6437	-2.9667	-2.9521	-2.825	-2.8958	-2.7917	-2.8104	-3.0854	309.224	262.444	185.039	488.456	232.752	293.759	457.202	474.827	396.702	492.421	324.404	496.504	288.763	438.347	361.649	199.164	0.0010972	0.0002811	4.9953e-05	455.43	2.5574e-06	1.6242e-06	615.85	119.06	3.3017e-06	2.0227e-06	224.03	80.708	33.711	11.89	3.0765e-06	36.997	3.9553e-05	1.2823e-05	3.3856e-06	428.92	1.4111e-07	1.329e-07	595.71	114.41	1.5869e-07	1.2587e-07	215.56	77.577	32.112	11.551	1.5418e-07	35.694	380.793	238.775	263.599	181.746	295.962	348.275	182.160	187.242	286.525	333.194	186.927	191.935	191.179	196.119	318.711	195.406	-8191	255	
1454.040	1	1	0	0	0.058727	0.076439	0.10571	0.13532	0.13814	0.24309	0.14511	0.27887	0.063365	0.25734	0.064463	0.14482	0.20276	0.011884	0.18244	0.028057	-2.2833	-2.8583	-2.775	-2.5917	-3.05	-2.9437	-2.8646	-3.0563	-2.7979	-2.9521	-3.0771	-2.8688	-3.0083	-2.725	-2.6271	-3.05	205.198	281.546	526.948	463.353	459.098	205.186	457.749	427.061	240.810	401.252	420.978	508.204	443.811	268.033	208.653	298.761	0.0010939	0.00020771	5.5875e-05	457.16	2.3751e-06	1.8399e-06	614.35	117.41	3.7997e-06	1.7944e-06	219.75	79.527	32.821	11.584	3.0863e-06	35.262	3.906e-05	1.2109e-05	3.3288e-06	428.47	1.3458e-07	1.3517e-07	592.97	113.71	1.6763e-07	1.2496e-07	211.68	76.039	31.487	11.139	1.5044e-07	34.221	382.692	265.763	259.607	182.013	312.889	307.419	182.085	187.412	296.009	337.244	187.203	191.812	191.240	196.557	310.160	195.744	-8191	255	
1454.134	1	1	0	0	0.17925	0.21681	0.23499	0.14946	0.09649	0.075522	0.042668	0.074455	0.047531	0.24753	0.30619	0.14204	0.17093	0.052084	0.11704	0.20246	-2.1396	-2.8312	-2.8875	-2.7396	-3.1104	-2.9104	-2.7167	-3.1146	-2.7125	-2.7687	-2.9125	-2.7229	-2.9375	-2.7438	-2.6625	-3.0438	234.726	215.091	523.811	194.669	291.369	452.737	528.225	438.238	206.071	449.091	377.774	505.004	484.747	418.121	256.678	324.666	0.0011088	0.00024556	5.815e-05	449.38	2.1178e-06	1.794e-06	607.03	115.97	3.2035e-06	2.4761e-06	217.83	78.704	32.743	11.489	3.2841e-06	35.472	3.9013e-05	1.2966e-05	3.434e-06	422.84	1.388e-07	1.4269e-07	586.98	111.75	1.5541e-07	1.398e-07	209.88	75.377	31.261	11.132	1.6467e-07	34.322	383.250	217.947	259.910	181.717	321.548	335.423	181.894	187.097	290.207	330.414	187.149	191.819	191.325	196.420	307.846	195.735	-8191	255	
1454.230	1	1	0	0	0.10497	0.12423	0.26621	0.070014	0.1791	0.12102	0.11527	0.13482	0.083921	0.046552	0.16569	0.14575	0.085678	0.084788	0.069599	0.15118	-2.2708	-2.9271	-2.9542	-2.6937	-3.0875	-2.9188	-2.8208	-3.0938	-2.7896	-2.6917	-2.9	-2.6708	-2.9625	-2.7292	-2.7125	-3.1625	405.547	377.630	385.863	199.526	228.244	185.211	424.318	274.826	422.319	323.941	234.452	440.474	219.417	440.076	468.237	360.460	0.0010842	0.00022452	7.4289e-05	451.09	2.2899e-06	2.5634e-06	609.79	116.6	3.1168e-06	2.6065e-06	219.72	79.459	32.969	11.727	2.7345e-06	36.134	3.8386e-05	1.2781e-05	3.3372e-06	424.43	1.2896e-07	1.3319e-07	589.9	112.57	1.614e-07	1.5088e-07	211.42	76.25	31.725	11.308	1.5443e-07	34.92	382.250	233.501	277.236	182.258	297.029	321.282	182.273	187.394	292.908	324.030	187.234	192.131	191.656	196.419	271.384	195.719	-8191	255	
1454.351	1	1	0	0	0.20904	0.11932	0.097653	0.26749	0.026989	0.07191	0.20885	0.18302	0.18046	0.091542	0.1746	0.17271	0.16083	0.2344	0.153	0.19033	-2.3937	-2.7375	-3.0417	-2.7396	-2.85	-3.0375	-2.6729	-3.0167	-2.9042	-2.8667	-3.0646	-2.7896	-2.9813	-2.9208	-2.525	-3.2042	479.934	366.438	333.865	411.684	459.182	490.746	190.855	444.624	464.798	403.139	377.255	527.294	470.636	446.088	378.338	330.706	0.0010618	0.00020096	8.1924e-05	447.56	2.2247e-06	2.9611e-06	613.68	117.58	1.9408e-06	2.3497e-06	222.93	80.026	33.649	11.937	2.2575e-06	36.725	3.9046e-05	1.2898e-05	3.697e-06	426.61	1.4379e-07	1.4277e-07	592.58	113.73	1.6107e-07	1.6511e-07	213.87	76.978	32.118	11.533	1.6093e-07	35.577	381.881	259.459	240.500	182.331	330.350	333.341	182.017	187.674	287.697	318.529	187.108	192.178	191.461	196.762	324.802	195.434	-8191	255	
1454.423	1	1	0	0	0.044293	0.11409	0.2223	0.25034	0.13035	0.17914	0.16565	0.18888	0.07871	0.17474	0.1335	0.12877	0.2351	0.27406	0.18422	0.087583	-2.3542	-2.8667	-3.1	-2.8167	-2.9437	-2.9333	-2.925	-3.2854	-2.9792	-2.7396	-3.1792	-2.7812	-2.7646	-3.125	-2.6167	-3.025	509.572	342.608	513.962	247.511	343.861	366.212	447.495	210.837	170.778	378.917	526.175	211.714	478.536	520.243	486.899	329.610	0.0011195	0.00018247	6.5755e-05	452.22	2.492e-06	2.421e-06	612.95	118.61	1.9877e-06	2.4138e-06	223.28	80.25	33.574	11.818	3.4705e-06	36.211	3.9814e-05	1.3823e-05	3.8359e-06	429.19	1.5293e-07	1.4893e-07	595.2	114.64	1.5877e-07	1.4762e-07	214.68	77.191	32.068	11.441	1.6763e-07	35.026	384.096	240.405	284.684	181.675	324.788	315.620	182.286	187.310	292.249	329.662	187.162	192.204	191.697	196.208	293.715	195.536	-8191	255	
1454.519	1	1	0	0	0.12803	0.08549	0.078431	0.17455	0.12337	0.23299	0.11883	0.3781	0.095066	0.077745	0.126	0.10163	0.13979	0.21979	0.18355	0.19327	-2.4625	-2.6021	-2.9729	-2.6375	-2.8896	-3.1354	-2.6437	-2.9667	-2.9708	-2.5083	-3.1542	-2.7792	-2.7125	-2.8958	-2.7167	-3.0479	446.213	198.370	422.069	300.731	311.894	362.007	514.872	509.783	441.260	289.530	514.593	442.804	446.258	519.933	274.935	483.370	0.0011003	0.00026003	4.9107e-05	449.63	2.2799e-06	1.5833e-06	609.02	116	3.6428e-06	1.6028e-06	217.31	78.342	32.729	11.488	3.3817e-06	35.384	4.1194e-05	1.4706e-05	3.6981e-06	424.65	1.5417e-07	1.3831e-07	589.27	112.05	1.671e-07	1.5857e-07	209.26	75.185	31.302	11.156	1.5825e-07	34.211	379.823	237.393	258.114	182.115	287.526	336.933	182.151	187.188	271.748	334.702	187.126	191.811	191.850	196.778	297.372	195.576	-8191	255	
1454.615	1	1	0	0	0.38589	0.07712	0.06989	0.15169	0.15879	0.13533	0.1931	0.18681	0.10636	0.097343	0.13035	0.15797	0.16178	0.134	0.19841	0.35406	-2.4354	-2.7917	-2.9188	-2.6979	-2.6625	-3.0083	-2.6833	-2.8792	-2.8146	-2.6208	-3.0375	-2.7583	-2.6813	-2.9125	-2.75	-2.6979	491.734	433.184	421.521	518.531	232.592	352.532	411.134	323.684	286.279	422.053	487.202	456.764	249.530	326.956	252.039	455.291	0.0011265	0.00025153	7.0777e-05	453.46	1.9443e-06	2.264e-06	606.79	116.92	4.9453e-06	2.1593e-06	219.93	79.016	32.765	11.662	2.1201e-06	35.865	4.0173e-05	1.3721e-05	3.8843e-06	424.64	1.5582e-07	1.3814e-07	588.52	112.39	1.7805e-07	1.5775e-07	210.8	75.657	31.43	11.285	1.6734e-07	34.762	381.817	247.059	284.027	181.688	301.531	325.055	182.126	187.479	301.216	331.353	187.135	191.874	191.781	196.548	298.436	195.583	-8191	255	
1454.736	1	1	0	0	0.22769	0.085746	0.24435	0.27187	0.26861	0.078369	0.33867	0.24938	0.19728	0.14965	0.11748	0.19869	0.049655	0.062414	0.20128	0.049216	-2.6312	-2.6583	-2.8104	-2.9354	-2.6562	-3.0646	-2.8021	-2.825	-3.0646	-2.5604	-3.0646	-2.8625	-2.5833	-2.8917	-2.7354	-2.8146	478.837	244.494	298.154	466.302	485.955	406.277	511.478	216.856	470.754	321.691	364.112	435.450	359.029	335.059	411.011	329.079	0.0010634	0.00025339	7.2401e-05	450.58	2.4916e-06	2.9324e-06	609.02	117.82	3.7458e-06	1.2572e-06	221.26	79.461	33.323	11.832	2.5013e-06	36.441	4.0386e-05	1.4906e-05	3.8853e-06	424.18	1.6458e-07	1.6434e-07	589.87	113.22	1.813e-07	1.6213e-07	212.59	76.554	31.866	11.433	1.6985e-07	35.265	380.727	249.269	261.664	182.444	326.601	316.841	182.524	187.178	295.028	349.391	187.108	191.960	191.870	196.655	289.747	195.666	-8191	255	
1454.832	1	1	0	0	0.064922	0.18373	0.1522	0.25448	0.14157	0.14104	0.074797	0.10243	0.31433	0.21971	0.21032	0.24691	0.09846	0.11952	0.080148	0.1171	-2.5062	-2.4479	-3.0187	-2.8729	-2.6437	-3.075	-2.9604	-2.7792	-2.9604	-2.9083	-2.9292	-3.1375	-2.7792	-3.025	-2.8167	-2.6854	266.325	372.640	288.476	206.836	447.740	353.000	466.504	397.355	415.580	286.511	206.954	510.715	231.161	269.146	381.226	527.386	0.0011241	0.00012747	7.4733e-05	451.82	1.9505e-06	2.2965e-06	613.46	118.73	2.0364e-06	1.6014e-06	222.82	80.835	33.608	11.964	4.0117e-06	36.707	4.1528e-05	1.5163e-05	4.3946e-06	428.52	1.6396e-07	1.5322e-07	594.37	114.2	1.8831e-07	1.6564e-07	214.57	77.602	32.048	11.605	1.7964e-07	35.771	383.968	239.675	286.577	182.356	280.674	318.787	182.394	187.714	270.946	325.489	186.982	191.600	191.658	196.345	306.896	195.530	-8191	255	
1454.928	1	1	0	0	0.20793	0.17961	0.009061	0.08655	0.13388	0.077059	0.067052	0.18993	0.15785	0.10322	0.03961	0.24608	0.23756	0.19616	0.27799	0.13058	-2.6542	-2.5729	-2.7854	-2.8479	-2.6667	-3.0542	-2.8542	-2.7292	-2.9813	-2.8333	-3.0542	-3.0271	-2.7	-3.0104	-2.7938	-2.7667	236.901	374.597	234.539	350.892	192.927	281.063	191.193	417.932	246.979	301.012	443.192	525.565	220.287	170.742	482.756	488.845	0.0010417	0.00023209	6.9196e-05	453.39	2.4047e-06	2.7002e-06	613.22	117.89	3.2945e-06	2.6831e-06	219.27	78.876	32.839	11.586	2.0936e-06	35.503	4.1325e-05	1.5805e-05	4.1031e-06	428.24	1.6429e-07	1.5574e-07	593.87	113.27	1.8712e-07	1.6296e-07	211.28	76.068	31.547	11.238	1.7232e-07	34.368	383.127	232.577	259.662	181.961	332.056	344.828	182.298	187.695	281.141	316.797	187.280	192.008	191.731	196.378	309.879	195.825	-8191	255	
1455.024	1	1	0	0	0.084898	0.1373	0.2756	0.10536	0.27489	0.047928	0.075981	0.19619	0.18689	0.19614	0.11865	0.1828	0.15164	0.26319	0.10244	0.16857	-2.6458	-2.6146	-2.9792	-2.925	-2.8021	-2.9562	-2.9562	-2.6333	-3.1333	-2.8375	-2.9042	-3.1146	-2.7833	-2.9167	-2.9417	-2.8917	301.505	299.792	517.935	408.161	269.819	243.542	474.986	262.636	249.335	361.294	512.830	251.093	464.833	320.653	411.502	477.541	0.0011228	0.00025353	4.2545e-05	448.09	1.9004e-06	2.9004e-06	603.25	116.07	3.5501e-06	1.5526e-06	216.75	78.693	32.371	11.598	2.7002e-06	35.721	4.147e-05	1.6435e-05	4.04e-06	423.45	1.7627e-07	1.5992e-07	586.82	111.57	1.8392e-07	1.5589e-07	208.82	75.319	31.211	11.194	1.7717e-07	34.47	385.606	247.126	260.522	181.623	317.652	323.388	182.039	187.550	295.953	304.100	187.133	191.810	191.995	196.340	317.427	195.563	-8191	255	
1455.120	1	1	0	0	0.024335	0.10021	0.32809	0.075314	0.061154	0.039866	0.17956	0.20592	0.27728	0.099051	0.092373	0.14373	0.25831	0.088218	0.15763	0.1518	-2.7229	-2.5833	-2.7438	-2.9688	-2.9062	-2.9583	-2.9521	-2.7062	-3.1354	-2.8979	-2.7271	-3.2104	-2.7646	-2.8833	-3.0646	-2.7875	176.572	399.916	281.975	265.756	525.804	223.849	466.060	222.481	210.835	244.237	458.937	466.284	401.435	500.804	250.843	384.538	0.0011018	0.0001486	8.151e-05	452.74	2.3602e-06	2.727e-06	608.31	116.92	3.3528e-06	1.7489e-06	219.27	78.814	32.689	11.712	3.0072e-06	36.084	4.0959e-05	1.5782e-05	4.1589e-06	425.74	1.7784e-07	1.5702e-07	589.81	112.77	1.8663e-07	1.5911e-07	210.94	76.045	31.456	11.326	1.7878e-07	34.922	382.637	248.169	268.937	182.058	312.430	333.227	182.272	187.406	295.859	311.957	186.793	191.896	191.202	196.598	286.588	195.589	-8191	255	
1455.215	1	1	0	0	0.06854	0.11218	0.24815	0.39462	0.15932	0.23927	0.21859	0.011533	0.038497	0.30831	0.048872	0.12569	0.16347	0.11359	0.16239	0.080366	-2.6979	-2.6979	-2.5583	-2.9813	-2.6667	-3.0021	-3.2042	-2.8292	-3.1	-2.9854	-2.775	-3.0687	-2.6583	-2.6396	-3.0187	-2.75	340.367	340.736	239.358	429.561	333.266	298.267	426.347	344.986	318.180	332.325	254.001	180.495	438.845	442.104	307.006	518.539	0.0010923	0.0002407	5.3247e-05	451.82	2.6191e-06	2.8667e-06	611.8	117.76	3.6462e-06	1.1522e-06	221.6	80.25	33.418	11.867	2.595e-06	36.614	4.0879e-05	1.5182e-05	4.2115e-06	425.97	1.7441e-07	1.669e-07	593.45	113.36	1.8027e-07	1.5824e-07	213.1	76.89	31.869	11.472	1.6163e-07	35.42	382.657	227.880	273.878	182.101	317.059	344.961	182.249	187.207	287.685	334.970	186.920	191.945	191.470	196.783	313.038	195.686	-8191	255	
1455.312	1	1	0	0	0.053028	0.34304	0.12965	0.19914	0.080998	0.070304	0.30937	0.18791	0.2051	0.2045	0.065425	0.093481	0.012298	0.13772	0.15979	0.084576	-2.5521	-2.775	-2.7917	-3.0062	-2.7125	-2.7083	-3.1333	-2.7313	-3.0187	-2.8854	-2.8271	-3.1146	-2.7854	-2.7125	-2.9979	-2.7313	448.798	288.132	232.284	384.305	372.472	413.127	442.425	242.044	480.759	438.119	319.816	310.601	420.906	511.203	223.045	415.894	0.0011242	0.00021224	7.404e-05	454.71	2.5454e-06	3.3972e-06	617.11	118.25	2.7347e-06	2.531e-06	222.77	80.207	33.11	11.671	3.0123e-06	35.725	4.0897e-05	1.5314e-05	4.2052e-06	429.47	1.628e-07	1.6343e-07	597.7	114.21	1.9032e-07	1.5518e-07	214.21	76.809	31.734	11.319	1.6105e-07	34.681	382.323	239.115	261.599	182.371	304.699	337.716	182.147	187.426	285.921	322.361	187.238	191.909	191.544	196.833	296.805	195.762	-8191	255	
1455.431	1	1	0	0	0.30991	0.12704	0.16618	0.1809	0.35781	0.16322	0.2169	0.20167	0.18634	0.26377	0.29157	0.067513	0.32739	0.13508	0.462	0.046976	-2.5458	-2.8375	-2.6042	-3.0479	-2.9396	-2.8646	-3.175	-2.7917	-2.7625	-2.9083	-2.7833	-2.9729	-2.95	-2.8	-2.9479	-2.7604	213.514	199.564	470.846	354.799	352.443	314.029	440.888	500.525	343.479	206.953	444.184	510.095	372.088	213.345	457.279	276.820	0.0010872	0.00033084	7.3352e-05	448.97	2.5342e-06	1.9801e-06	609.08	115.5	2.3543e-06	1.6593e-06	216.56	78.207	32.404	11.395	3.4064e-06	35.101	3.9741e-05	1.4253e-05	4.3293e-06	425.68	1.5508e-07	1.5797e-07	588.89	111.65	1.6911e-07	1.5374e-07	208.32	74.918	31.136	11.061	1.5612e-07	34.031	380.732	249.465	280.042	181.795	323.180	327.411	182.017	186.829	294.616	307.791	187.103	191.868	191.763	196.673	283.746	195.765	-8191	255	
1455.527	1	1	0	0	0.18331	0.00896	0.27742	0.19477	0.094029	0.062246	0.12541	0.24013	0.061501	0.15288	0.17521	0.23422	0.11272	0.090568	0.22973	0.075834	-2.475	-2.8063	-2.6896	-2.9833	-2.9167	-2.7125	-3.125	-2.7292	-2.8021	-2.8229	-2.8187	-3.0583	-2.7687	-2.6167	-3.1	-2.9958	360.402	277.183	239.850	499.241	224.781	274.337	520.553	470.488	291.647	174.743	216.998	484.661	433.925	170.826	317.120	491.011	0.0011066	0.00018457	7.2224e-05	452.05	2.5356e-06	2.714e-06	603.63	116.12	3.4036e-06	1.6874e-06	217.14	78.157	32.561	11.449	1.6916e-06	35.44	4.0821e-05	1.4125e-05	4.0884e-06	423.31	1.6206e-07	1.5868e-07	586.02	111.71	1.7834e-07	1.5651e-07	208.76	75.221	31.175	11.093	1.6697e-07	34.32	382.305	238.151	277.152	181.859	337.376	335.174	181.951	187.246	303.425	314.558	186.859	192.099	191.794	196.387	293.724	195.790	-8191	255	
1455.624	1	1	0	0	0.1751	0.090148	0.12151	0.14214	0.17354	0.10647	0.25927	0.16851	0.22151	0.18173	0.089947	0.047608	0.24148	0.11338	0.19657	0.056205	-2.4021	-3.1354	-2.5271	-2.9417	-2.9458	-2.6229	-2.9729	-2.6813	-2.7396	-3.175	-2.8333	-2.8021	-2.9313	-2.7979	-2.9896	-2.8333	509.818	280.226	522.145	394.547	345.094	461.424	491.657	429.240	289.680	211.674	520.394	389.930	488.049	498.415	420.583	447.640	0.0010659	0.00025208	0.00010369	451.86	2.64e-06	3.258e-06	606.66	116.1	3.0526e-06	1.5234e-06	218.53	78.722	32.745	11.544	2.9579e-06	35.665	4.077e-05	1.4148e-05	4.0779e-06	424.15	1.5747e-07	1.5706e-07	589.18	111.88	1.7846e-07	1.5882e-07	210.55	75.871	31.391	11.179	1.6705e-07	34.61	383.236	236.648	271.226	182.270	306.195	326.130	182.419	187.149	282.878	328.080	186.878	191.725	191.219	196.596	299.235	195.871	-8191	255	
1455.720	1	1	0	0	0.19327	0.22621	0.15114	0.090929	0.20103	0.29704	0.056371	0.02717	0.13569	0.10137	0.23403	0.22212	0.055805	0.16364	0.13675	0.12014	-2.3875	-2.9292	-2.5187	-2.9583	-3.0062	-2.7812	-3.0917	-2.8208	-2.8125	-3.1688	-2.8146	-2.6437	-2.9229	-2.7854	-3.0708	-2.8917	393.531	272.059	187.171	464.404	324.137	386.595	170.968	374.382	306.288	191.044	458.310	214.412	306.469	445.477	509.650	431.466	0.0010855	0.0001566	7.0021e-05	451.11	2.2657e-06	2.2461e-06	612.67	116.89	2.791e-06	2.0115e-06	221.06	80.061	33.209	11.561	3.4974e-06	36.022	4.0078e-05	1.4804e-05	4.1305e-06	425.87	1.64e-07	1.6256e-07	594.09	112.68	1.8835e-07	1.6217e-07	212.54	76.608	31.641	11.296	1.6171e-07	34.949	381.514	249.813	252.566	181.851	294.753	342.771	182.121	187.238	282.676	328.788	187.082	192.024	191.435	196.764	293.109	195.669	-8191	255	
1455.816	1	1	0	0	0.13228	0.22848	0.19131	0.13709	0.084471	0.18136	0.076496	0.072293	0.26233	0.13265	0.090601	0.038075	0.23741	0.19561	0.12216	0.2598	-2.2313	-2.975	-2.7292	-2.9833	-3.1833	-2.8021	-3.0687	-2.7917	-2.8208	-2.9271	-3.0062	-2.825	-3.1792	-2.6479	-3.0187	-3.0396	414.922	184.277	293.302	220.413	307.995	302.305	375.037	208.251	498.307	290.492	519.398	409.502	234.162	227.424	374.922	461.136	0.0011376	0.00022406	9.3906e-05	452.4	1.5458e-06	2.6726e-06	607.46	116.72	1.9876e-06	2.4449e-06	217.4	77.431	32.262	11.212	1.8066e-06	34.894	4.2818e-05	1.5514e-05	4.4629e-06	427.06	1.7218e-07	1.6053e-07	590.04	112.18	1.9385e-07	1.5527e-07	208.4	74.585	30.925	10.89	1.6849e-07	33.666	383.207	223.221	267.411	181.774	311.035	314.460	182.116	187.555	295.997	330.349	187.092	192.113	191.491	196.569	278.175	195.383	-8191	255	
1455.912	1	1	0	0	0.205	0.16416	0.12158	0.12849	0.011559	0.13785	0.070457	0.17437	0.23126	0.27149	0.097928	0.1112	0.19672	0.22994	0.12536	0.17539	-2.2188	-3.0812	-2.8146	-2.7938	-3.1417	-2.7458	-3.1479	-2.9729	-2.7583	-2.9604	-2.8771	-2.6562	-3.0521	-2.6417	-2.8896	-2.7938	346.320	282.356	306.142	366.984	447.022	450.007	343.999	247.600	333.075	257.356	326.491	338.447	520.103	433.536	286.714	373.441	0.0010476	0.00011767	4.3146e-05	446.59	2.4966e-06	2.4161e-06	601.95	113.95	3.2181e-06	2.7592e-06	214.41	76.699	32.264	11.201	2.6528e-06	34.619	4.0658e-05	1.5718e-05	4.1684e-06	421.58	1.6747e-07	1.6e-07	585.1	110.24	1.751e-07	1.5936e-07	206.47	73.94	30.665	10.866	1.7643e-07	33.717	383.710	256.082	265.829	181.945	280.641	340.805	182.097	187.490	286.385	320.213	186.943	192.124	191.626	196.553	280.594	195.398	-8191	255	
#DATA ENDS
