BOXY.EXE: ISS Imagent and Oximeter Data Acquisition Program Version 0.80
Ascii Record File

#ACQ INFORMATION
2  Detector Channels 
16  External MUX Channels 
1  Auxiliary Channels 
5000  Waveform (CCF) Frequency (Hz)
1  Waveforms Skipped 
30  Waveforms Averaged 
1  Cycles Averaged 
16  Acquisitions per Waveform 
10.0806  Updata Rate (Hz) 

#FILE INFORMATION
TRUE -- External MUX Channel results are PARSED.
FALSE -- AC DC and Phase are NOT grouped.
TRUE -- Companion Program Settings File CREATED.
FALSE -- AC data not excluded
FALSE -- DC data not excluded
FALSE -- Phase data not excluded
FALSE -- Auxillary Chn. data not excluded
Tab delimiters

#CALIBRATION STATE
TRUE -- Waveform Calibration Values APPLIED.


#AUX CALIBRATION VALUES
Val Type	aux-1	

Term	1.0000e+00	
Factor	0.0000e+00	


#WF CALIBRATION VALUES
A = Detector Channel
Val Type	A-AC1	A-AC2	A-AC3	A-AC4	A-AC5	A-AC6	A-AC7	A-AC8	A-AC9	A-AC10	A-AC11	A-AC12	A-AC13	A-AC14	A-AC15	A-AC16	A-DC1	A-DC2	A-DC3	A-DC4	A-DC5	A-DC6	A-DC7	A-DC8	A-DC9	A-DC10	A-DC11	A-DC12	A-DC13	A-DC14	A-DC15	A-DC16	A-Ph1	A-Ph2	A-Ph3	A-Ph4	A-Ph5	A-Ph6	A-Ph7	A-Ph8	A-Ph9	A-Ph10	A-Ph11	A-Ph12	A-Ph13	A-Ph14	A-Ph15	A-Ph16	

Term	0.00000e+00	0.00000e+00	0.00000e+00	0.00000e+00	0.00000e+00	0.00000e+00	0.00000e+00	0.00000e+00	0.00000e+00	0.00000e+00	0.00000e+00	0.00000e+00	0.00000e+00	0.00000e+00	0.00000e+00	0.00000e+00	0.00000e+00	0.00000e+00	0.00000e+00	0.00000e+00	0.00000e+00	0.00000e+00	0.00000e+00	0.00000e+00	0.00000e+00	0.00000e+00	0.00000e+00	0.00000e+00	0.00000e+00	0.00000e+00	0.00000e+00	0.00000e+00	0.00000e+00	0.00000e+00	0.00000e+00	0.00000e+00	0.00000e+00	0.00000e+00	0.00000e+00	0.00000e+00	0.00000e+00	0.00000e+00	0.00000e+00	0.00000e+00	0.00000e+00	0.00000e+00	0.00000e+00	0.00000e+00	
Factor	1.00000e+00	1.00000e+00	1.00000e+00	1.00000e+00	1.00000e+00	1.00000e+00	1.00000e+00	1.00000e+00	1.00000e+00	1.00000e+00	1.00000e+00	1.00000e+00	1.00000e+00	1.00000e+00	1.00000e+00	1.00000e+00	1.00000e+00	1.00000e+00	1.00000e+00	1.00000e+00	1.00000e+00	1.00000e+00	1.00000e+00	1.00000e+00	1.00000e+00	1.00000e+00	1.00000e+00	1.00000e+00	1.00000e+00	1.00000e+00	1.00000e+00	1.00000e+00	X	X	X	X	X	X	X	X	X	X	X	X	X	X	X	X	

B = Detector Channel
Val Type	B-AC1	B-AC2	B-AC3	B-AC4	B-AC5	B-AC6	B-AC7	B-AC8	B-AC9	B-AC10	B-AC11	B-AC12	B-AC13	B-AC14	B-AC15	B-AC16	B-DC1	B-DC2	B-DC3	B-DC4	B-DC5	B-DC6	B-DC7	B-DC8	B-DC9	B-DC10	B-DC11	B-DC12	B-DC13	B-DC14	B-DC15	B-DC16	B-Ph1	B-Ph2	B-Ph3	B-Ph4	B-Ph5	B-Ph6	B-Ph7	B-Ph8	B-Ph9	B-Ph10	B-Ph11	B-Ph12	B-Ph13	B-Ph14	B-Ph15	B-Ph16	

Term	0.00000e+00	0.00000e+00	0.00000e+00	0.00000e+00	0.00000e+00	0.00000e+00	0.00000e+00	0.00000e+00	0.00000e+00	0.00000e+00	0.00000e+00	0.00000e+00	0.00000e+00	0.00000e+00	0.00000e+00	0.00000e+00	0.00000e+00	0.00000e+00	0.00000e+00	0.00000e+00	0.00000e+00	0.00000e+00	0.00000e+00	0.00000e+00	0.00000e+00	0.00000e+00	0.00000e+00	0.00000e+00	0.00000e+00	0.00000e+00	0.00000e+00	0.00000e+00	5.86857e+01	-1.40275e+02	-1.27777e+02	-1.81956e+02	-7.36887e+01	-5.69442e+01	-1.56028e+02	-1.62015e+02	-8.09294e+01	-6.35191e+01	-1.71357e+02	-1.71405e+02	-1.82318e+02	-1.76945e+02	-7.95853e+01	-1.50279e+02	
Factor	5.16763e-05	1.33635e-04	4.06010e-05	4.21718e-01	1.38256e-06	1.58296e-06	1.58406e-01	5.39367e-02	1.66385e-06	1.37896e-06	8.47905e-02	2.81246e-02	2.35851e-02	8.08168e-03	1.69326e-06	1.20261e-02	1.73923e-06	1.81185e-06	5.05000e-07	2.07507e-01	1.98338e-08	1.98293e-08	7.56450e-02	2.72911e-02	1.96927e-08	1.98476e-08	4.12586e-02	1.36837e-02	1.19586e-02	4.10842e-03	1.97406e-08	5.88837e-03	X	X	X	X	X	X	X	X	X	X	X	X	X	X	X	X	



#DISTANCE SETTINGS
A = Detector Channel
A-1	A-2	A-3	A-4	A-5	A-6	A-7	A-8	A-9	A-10	A-11	A-12	A-13	A-14	A-15	A-16	

2.5000e+00	3.0000e+00	2.5000e+00	3.0000e+00	2.0000e+00	3.0000e+00	1.5000e+00	3.0000e+00	3.0000e+00	3.0000e+00	3.0000e+00	3.0000e+00	3.0000e+00	3.0000e+00	1.5000e+00	3.0000e+00	

B = Detector Channel
B-1	B-2	B-3	B-4	B-5	B-6	B-7	B-8	B-9	B-10	B-11	B-12	B-13	B-14	B-15	B-16	

1.0000e+01	1.0000e+01	1.0000e+01	1.4400e+00	1.0000e+01	1.0000e+01	1.5100e+00	1.9400e+00	1.0000e+01	1.0000e+01	1.9900e+00	2.4900e+00	2.4100e+00	2.9000e+00	1.0000e+01	2.9800e+00	




#DATA BEGINS
time	group	step	mark	flag	A-AC1	A-AC2	A-AC3	A-AC4	A-AC5	A-AC6	A-AC7	A-AC8	A-AC9	A-AC10	A-AC11	A-AC12	A-AC13	A-AC14	A-AC15	A-AC16	A-DC1	A-DC2	A-DC3	A-DC4	A-DC5	A-DC6	A-DC7	A-DC8	A-DC9	A-DC10	A-DC11	A-DC12	A-DC13	A-DC14	A-DC15	A-DC16	A-Ph1	A-Ph2	A-Ph3	A-Ph4	A-Ph5	A-Ph6	A-Ph7	A-Ph8	A-Ph9	A-Ph10	A-Ph11	A-Ph12	A-Ph13	A-Ph14	A-Ph15	A-Ph16	B-AC1	B-AC2	B-AC3	B-AC4	B-AC5	B-AC6	B-AC7	B-AC8	B-AC9	B-AC10	B-AC11	B-AC12	B-AC13	B-AC14	B-AC15	B-AC16	B-DC1	B-DC2	B-DC3	B-DC4	B-DC5	B-DC6	B-DC7	B-DC8	B-DC9	B-DC10	B-DC11	B-DC12	B-DC13	B-DC14	B-DC15	B-DC16	B-Ph1	B-Ph2	B-Ph3	B-Ph4	B-Ph5	B-Ph6	B-Ph7	B-Ph8	B-Ph9	B-Ph10	B-Ph11	B-Ph12	B-Ph13	B-Ph14	B-Ph15	B-Ph16	aux-1	digaux	

1488.467	1	1	0	256	0.25325	0.08575	0.38859	0.061388	0.27828	0.18778	0.23353	0.08183	0.18405	0.060944	0.061404	0.20442	0.15977	0.19714	0.21814	0.12697	-2.6021	-2.8229	-2.7354	-3.0625	-2.8458	-2.95	-3.0771	-2.5667	-2.9708	-2.8896	-2.8729	-3.1604	-2.7875	-2.9333	-3.0604	-2.75	174.848	304.552	489.885	323.060	178.827	188.860	392.608	476.784	486.366	260.078	248.250	519.325	214.918	237.633	400.440	495.170	0.00047996	0.00052333	0.00017672	464.35	7.7686e-06	7.229e-06	601.72	95.203	2.8402e-06	3.2767e-06	166.38	50.716	20.809	5.8556	1.5562e-06	20.175	0.00081558	0.00083112	0.00023043	526.74	8.8904e-06	8.9086e-06	616.23	103.38	8.6418e-06	8.7301e-06	177.9	54.591	25.097	7.5074	8.7868e-06	22.137	387.636	314.107	289.499	181.394	280.024	259.660	181.134	186.406	207.724	255.536	186.073	190.655	190.468	195.450	188.537	195.439	-8191	255	
1488.587	1	1	0	0	0.10775	0.1544	0.16953	0.093673	0.30583	0.21785	0.082702	0.29348	0.25138	0.008617	0.16655	0.19123	0.099076	0.12153	0.21003	0.34346	-2.5938	-2.8854	-2.7229	-3.0229	-2.7208	-2.825	-3.0208	-2.4979	-2.9083	-2.8708	-2.6437	-2.9833	-2.7771	-2.6958	-3.0958	-2.8958	503.380	291.194	456.992	416.350	382.509	187.467	521.553	388.035	349.507	186.577	241.907	514.500	460.926	258.432	308.488	373.570	0.00049351	0.00044772	6.6728e-06	450.78	7.6354e-06	2.3403e-06	596.99	94.353	7.2161e-06	6.5431e-06	164.79	50.803	20.956	6.0533	1.4849e-06	20.647	0.00081511	0.00083277	0.00023308	523.36	9.1124e-06	9.181e-06	611.99	103.52	9.2722e-06	9.4561e-06	178.37	55.312	25.805	7.8786	1.0019e-05	22.918	386.869	228.716	193.112	181.224	306.661	456.594	181.367	186.405	221.558	386.127	185.782	191.044	190.757	196.501	403.455	195.495	-8191	255	
1488.684	1	1	0	0	0.13276	0.20313	0.21423	0.037993	0.10326	0.17008	0.25465	0.17062	0.15112	0.23417	0.040439	0.21887	0.38193	0.16795	0.059703	0.34464	-2.5646	-2.7792	-2.6167	-2.9542	-2.8563	-2.9062	-3.2792	-2.8	-2.9938	-2.9917	-2.7729	-3.0563	-3.0021	-2.8604	-3.1312	-2.8833	303.581	513.028	237.632	214.518	290.484	243.283	517.588	444.973	489.607	251.437	451.122	288.866	525.056	248.935	447.062	421.897	0.00065298	0.00047413	4.3897e-05	446.91	2.1504e-06	4.9161e-07	586.41	92.674	6.8515e-06	8.281e-06	166.12	50.843	21.034	6.0427	1.7369e-06	20.723	0.00091607	0.0009395	0.00026222	526.97	1.0458e-05	1.0534e-05	606.96	103.41	1.0674e-05	1.06e-05	179.83	56.271	26.428	8.0245	1.0463e-05	23.212	389.936	196.543	511.675	181.439	319.743	182.649	181.532	186.271	218.914	259.956	185.504	190.873	190.776	196.077	523.242	195.187	-8191	255	
1488.755	1	1	0	0	0.12746	0.12189	0.092073	0.14255	0.3715	0.15273	0.067443	0.12523	0.051874	0.15885	0.088767	0.37921	0.20842	0.077388	0.12309	0.22764	-2.6292	-2.8917	-2.775	-3.0417	-2.5354	-2.7542	-3.0875	-2.7188	-3.0521	-2.9313	-2.8646	-3.0583	-2.9167	-2.7979	-3	-2.7604	421.751	196.867	431.172	419.575	342.592	208.873	378.533	483.310	328.918	495.959	291.255	450.621	463.129	381.465	443.286	525.648	0.00050283	0.00023672	4.2853e-05	457.14	3.9506e-06	1.0871e-05	599.34	96.521	4.6939e-06	5.2874e-06	168.59	52.067	21.074	6.0922	9.4994e-07	20.783	0.00092744	0.00093734	0.0002568	537.12	9.9568e-06	9.9698e-06	618.78	105.94	9.8653e-06	9.8919e-06	182.41	56.383	26.33	7.9608	1.0068e-05	23.27	361.864	313.591	196.767	182.358	325.444	396.433	181.143	186.589	281.435	383.201	185.611	191.267	191.002	195.944	373.057	195.374	-8191	255	
1488.851	1	1	0	0	0.16909	0.12062	0.16922	0.19704	0.17274	0.19811	0.087841	0.11701	0.060089	0.079047	0.10169	0.40123	0.067678	0.12855	0.17134	0.19082	-2.6271	-3.0271	-2.6958	-2.9708	-2.9042	-2.8563	-3.1021	-2.7479	-2.8937	-3.1375	-2.7354	-2.9292	-2.8563	-2.6583	-3.0125	-2.85	489.752	409.682	415.174	382.724	391.485	368.208	174.235	452.294	319.206	230.419	367.469	202.578	343.386	227.179	519.102	172.126	0.00072406	0.00053248	0.00022322	468.49	4.3845e-06	5.5671e-06	595.85	95.205	4.6906e-06	9.4197e-06	167.91	51.543	21.285	5.9862	4.0206e-06	20.632	0.00091932	0.00093526	0.00026376	544.07	1.0452e-05	1.0408e-05	620.2	106.12	1.0376e-05	1.0351e-05	181.73	56.315	26.508	7.9884	1.0445e-05	23.176	375.547	207.619	266.409	181.988	259.339	199.812	181.158	186.043	266.216	381.905	185.838	190.758	190.938	196.021	189.487	195.283	-8191	255	
1488.972	1	1	0	0	0.15668	0.085429	0.027115	0.095756	0.25103	0.073948	0.21611	0.28599	0.16642	0.15442	0.018819	0.27857	0.068172	0.28443	0.30142	0.27577	-2.5146	-3.1312	-2.6042	-2.8458	-2.9229	-2.7833	-3.2042	-2.7021	-2.8875	-3.0646	-2.6437	-2.9646	-2.9938	-2.7958	-2.9771	-2.7958	506.096	435.468	337.319	201.231	451.839	245.567	184.129	377.881	369.865	351.140	367.446	290.032	394.931	267.197	245.428	484.932	0.00075761	0.00037521	0.00015401	462.93	1.0457e-06	7.698e-06	598.43	94.888	3.0037e-06	7.886e-06	164.75	51.239	21.029	6.0771	8.3564e-06	20.81	0.00094167	0.00095474	0.00026606	541.34	1.0428e-05	1.0327e-05	616.74	105.34	1.0154e-05	1.0207e-05	180.03	56.073	26.241	7.9407	1.0593e-05	23.134	390.269	489.345	468.632	181.663	455.456	402.227	181.440	186.302	354.275	391.182	186.214	190.842	190.690	196.784	353.136	195.743	-8191	255	
1489.068	1	1	0	0	0.24134	0.15294	0.19301	0.16759	0.27021	0.16844	0.029557	0.17914	0.027184	0.048424	0.24391	0.12095	0.26687	0.13313	0.24119	0.096396	-2.4229	-3.2729	-2.6	-3.0104	-3.0979	-2.8417	-3.1479	-2.7167	-2.7146	-3.1146	-2.8354	-2.8021	-2.9708	-2.7	-3.0125	-2.8292	282.167	425.729	308.858	237.201	193.099	385.303	252.844	496.402	430.408	221.008	348.639	234.651	425.201	251.057	307.739	192.116	0.00065105	0.0010129	6.7013e-05	461.97	5.058e-06	7.5089e-06	594.99	94.627	1.2416e-05	4.5484e-06	167.9	52.177	21.322	6.239	2.9802e-06	21.353	0.00095063	0.00097977	0.00027552	545.32	1.0937e-05	1.0966e-05	618.95	106.5	1.0988e-05	1.1144e-05	183.91	57.463	27.276	8.3579	1.1413e-05	24.057	386.732	212.693	488.165	181.810	496.701	380.639	181.085	186.288	324.137	265.916	186.296	191.027	190.959	195.939	399.468	195.265	-8191	255	
1489.164	1	1	0	0	0.11571	0.07766	0.074958	0.10791	0.22687	0.161	0.18877	0.054212	0.050142	0.22585	0.23483	0.026451	0.22266	0.073778	0.19019	0.09943	-2.2917	-2.9813	-2.8	-2.7979	-3.0167	-2.8	-3.0292	-2.9146	-2.7146	-2.9125	-2.7375	-2.7979	-2.9562	-2.8771	-3.0083	-2.9292	382.132	460.586	290.934	256.335	263.811	301.391	527.012	336.900	258.074	462.793	253.564	353.480	420.771	322.483	409.649	236.653	0.00076836	0.00051351	7.7057e-05	456.57	4.6293e-06	1.0635e-05	599.5	95.841	5.8411e-06	6.4863e-06	168.62	52.58	21.841	6.3769	1.3276e-05	21.561	0.0010087	0.0010362	0.00028649	549.65	1.1083e-05	1.0975e-05	620.84	107.29	1.0878e-05	1.1086e-05	185.32	58.267	27.548	8.4919	1.1534e-05	24.398	367.197	275.057	211.466	181.772	350.777	316.589	181.323	186.407	372.167	359.044	185.957	191.301	191.327	195.608	446.550	195.208	-8191	255	
1489.259	1	1	0	0	0.17205	0.20859	0.039999	0.17904	0.077853	0.21024	0.087354	0.23273	0.11256	0.064258	0.18005	0.19503	0.19439	0.15089	0.054232	0.028202	-2.3125	-3.1479	-2.8333	-2.8438	-3.0042	-2.8875	-2.8937	-2.9896	-2.7875	-3.1188	-2.9813	-2.7854	-2.8646	-2.9021	-3.0646	-3.2146	347.647	479.414	258.904	461.983	185.766	221.575	387.923	260.771	452.996	228.410	495.862	307.000	521.786	336.369	208.141	465.782	0.00079877	0.00056107	0.00013482	466.37	8.4342e-06	6.1594e-06	593.53	94.503	1.7458e-06	8.2727e-06	167.73	52.442	21.528	6.3	1.1726e-05	21.723	0.0010394	0.0010841	0.00030195	557.94	1.1856e-05	1.1837e-05	622.38	107.39	1.1571e-05	1.1869e-05	185.22	58.172	27.512	8.5191	1.166e-05	24.368	376.944	273.963	481.414	181.943	348.636	175.766	181.407	186.127	519.380	493.924	186.167	190.993	190.132	195.773	463.647	195.679	-8191	255	
1489.355	1	1	0	0	0.02228	0.10087	0.19966	0.15641	0.14477	0.1958	0.085638	0.09238	0.080787	0.25531	0.039308	0.23647	0.099997	0.18566	0.078899	0.12544	-2.1792	-2.9062	-2.875	-2.8583	-3.2771	-2.7687	-3.0396	-2.9562	-2.7875	-3.2458	-2.9458	-2.6854	-3.1604	-2.7438	-2.6833	-3.0792	458.662	511.748	311.679	371.205	191.663	242.625	334.952	195.492	303.801	343.317	438.160	423.859	272.878	197.964	361.437	194.603	0.00052086	0.0010831	0.00019578	458.59	2.6344e-06	9.2206e-06	594.72	93.424	1.1124e-05	1.5572e-06	164.43	51.567	21.338	6.1507	3.5807e-06	21.135	0.001029	0.0010779	0.00029834	551.28	1.1808e-05	1.1739e-05	618.36	106.18	1.1681e-05	1.1901e-05	183.01	57.551	27.371	8.4235	1.1894e-05	23.94	386.053	305.478	224.893	181.831	461.434	284.776	181.146	186.604	329.886	276.326	185.995	191.055	190.667	195.135	455.473	195.253	-8191	255	
1489.451	1	1	0	0	0.097478	0.15077	0.11421	0.32293	0.11041	0.054617	0.16004	0.049437	0.1828	0.023433	0.17748	0.16149	0.29975	0.15379	0.17174	0.16382	-2.2458	-2.9	-2.7438	-2.7667	-3.0708	-2.6708	-2.8979	-2.9813	-2.6229	-3.2271	-2.9021	-2.7396	-2.9896	-2.7188	-2.9083	-3.0771	446.053	169.228	394.685	400.823	291.777	224.842	406.345	203.328	201.733	226.588	326.569	458.574	198.677	357.053	250.613	477.031	0.00030737	6.9634e-05	9.6081e-05	459.59	6.4498e-06	2.0738e-06	591.19	93.512	7.8854e-06	6.4256e-06	166.46	51.876	21.505	6.3164	3.7437e-06	21.499	0.0010472	0.0010777	0.00029708	550.53	1.1718e-05	1.1678e-05	616.48	106.16	1.1531e-05	1.1705e-05	183.59	57.606	27.499	8.4367	1.1501e-05	24.109	384.680	278.604	229.834	181.712	238.092	300.005	181.270	186.128	271.867	298.958	186.293	191.475	190.776	196.125	285.741	195.033	-8191	255	
1489.547	1	1	0	0	0.19129	0.15386	0.050797	0.14571	0.15585	0.1241	0.19703	0.20958	0.10917	0.058643	0.07835	0.14804	0.15426	0.020435	0.26004	0.10692	-2.3688	-2.8583	-2.8688	-2.8667	-3.1729	-2.8292	-2.9479	-3.1792	-2.7625	-2.9729	-2.9917	-2.575	-2.9875	-2.7354	-2.7521	-3.0542	487.443	312.883	199.582	408.587	198.127	472.406	433.173	318.491	475.339	400.272	324.008	424.526	464.352	410.607	386.185	407.736	0.00056799	0.00060932	1.2948e-05	459.02	1.049e-05	2.4949e-06	596.51	95.052	6.8495e-06	8.688e-06	167.37	52.309	21.739	6.2551	5.0842e-06	21.27	0.0010217	0.0010575	0.00029351	553.89	1.1594e-05	1.1548e-05	621.28	107.06	1.1583e-05	1.1659e-05	184.98	58.226	27.662	8.5216	1.1709e-05	24.347	372.056	470.855	414.859	181.110	347.377	355.248	181.285	186.334	298.737	515.804	186.033	190.767	191.253	196.247	223.047	195.199	-8191	255	
1489.668	1	1	0	0	0.23339	0.11512	0.020689	0.17089	0.21409	0.23201	0.18983	0.1259	0.12399	0.093913	0.10305	0.20602	0.11206	0.19109	0.11196	0.17994	-2.25	-2.8812	-3.1688	-2.8187	-3.0083	-2.7292	-2.7271	-3.2208	-2.8958	-2.8958	-3.2042	-2.8667	-2.9875	-2.925	-2.7708	-3.1667	434.169	483.278	486.229	464.187	211.806	204.771	277.767	270.953	199.937	216.226	440.911	369.263	183.026	392.342	239.072	304.178	0.00077488	0.00058631	0.00013998	458.96	1.8626e-06	4.939e-06	598.85	95.589	5.2045e-06	6.6099e-07	170.18	52.872	22.048	6.3148	1.277e-05	21.642	0.0010548	0.001079	0.00030206	559.93	1.2121e-05	1.1949e-05	624.25	108.5	1.1908e-05	1.1849e-05	186.99	58.691	28.117	8.5867	1.1734e-05	24.635	371.190	191.174	328.095	181.447	520.869	378.367	181.172	186.265	230.077	490.620	185.470	191.098	191.170	196.290	516.438	195.357	-8191	255	
1489.764	1	1	0	0	0.02472	0.25386	0.17619	0.1534	0.16691	0.18128	0.19868	0.17938	0.25302	0.082258	0.10749	0.10806	0.056632	0.074129	0.056235	0.1627	-2.4313	-2.9188	-2.9729	-2.6458	-3.0729	-3.1021	-2.7062	-3.1	-2.8937	-2.7667	-3.3021	-2.7292	-2.9229	-2.975	-2.6396	-2.9271	318.053	304.520	433.313	175.228	333.362	241.569	478.787	306.698	448.208	228.006	231.253	391.780	329.718	184.333	198.567	200.210	0.00053289	0.00078826	0.0002666	466.78	5.0696e-06	4.3538e-06	599.6	96.565	8.7361e-06	8.8381e-07	167.88	52.312	21.713	6.2508	5.6469e-06	21.507	0.0010626	0.0011037	0.00030657	563.18	1.2036e-05	1.2028e-05	626.27	109.2	1.2198e-05	1.2172e-05	187.18	58.709	28.279	8.6164	1.2409e-05	24.48	390.565	327.186	240.713	182.107	388.245	258.725	181.436	187.047	292.657	419.998	185.754	191.155	190.764	195.053	364.464	195.750	-8191	255	
1489.860	1	1	0	0	0.19008	0.092404	0.14873	0.21982	0.30256	0.23197	0.15711	0.080696	0.048196	0.11612	0.14235	0.12558	0.14636	0.096415	0.083469	0.22607	-2.3063	-2.7938	-3.1542	-2.4938	-2.7708	-2.9083	-2.5854	-2.9021	-2.9896	-2.7583	-3.075	-2.7417	-2.8333	-2.9313	-2.7	-2.9542	518.160	174.018	216.847	269.164	381.837	287.078	504.664	510.225	451.814	334.158	522.717	518.435	171.740	509.673	310.672	518.386	0.00080568	0.00054949	0.00028375	461.19	2.301e-06	2.3174e-06	592.75	94.337	8.6222e-06	6.7019e-06	166.85	51.865	21.354	6.2301	2.9754e-06	21.36	0.0011155	0.0011341	0.00031434	563.23	1.2449e-05	1.2226e-05	621.62	108.25	1.2255e-05	1.2216e-05	185.94	58.426	28.001	8.5735	1.2312e-05	24.332	386.647	489.216	374.541	181.708	190.589	367.413	181.541	186.394	422.414	378.037	185.906	190.977	190.814	196.304	325.313	195.617	-8191	255	
1489.956	1	1	0	0	0.14856	0.17189	0.24469	0.2261	0.058911	0.25978	0.096768	0.307	0.19791	0.16618	0.12026	0.17566	0.19856	0.20281	0.29023	0.086954	-2.3271	-2.8104	-3.0042	-2.6854	-2.8646	-3.1208	-2.85	-2.9	-2.9667	-3.1	-2.9104	-2.8542	-2.7417	-3.1167	-2.8625	-3.3083	382.841	477.381	458.880	173.085	457.560	366.090	502.944	510.277	419.957	343.529	204.791	313.814	451.540	344.603	447.591	468.984	0.0007732	0.0011015	0.00010318	462.46	5.184e-06	8.8025e-06	595.4	95.1	9.5116e-06	1.3698e-05	168.31	51.743	21.636	6.1557	5.4383e-06	21.413	0.001096	0.00112	0.00031449	560.93	1.2363e-05	1.2301e-05	622.26	108.51	1.2225e-05	1.2258e-05	186.57	58.489	28.05	8.5235	1.2268e-05	24.328	378.375	330.170	336.225	181.373	267.999	327.653	181.182	186.034	337.883	373.997	185.296	190.581	191.081	196.113	405.728	195.195	-8191	255	
1490.052	1	1	0	0	0.11629	0.15847	0.25311	0.19261	0.063417	0.31594	0.13725	0.078265	0.12737	0.17578	0.22739	0.20889	0.12056	0.28385	0.12255	0.046892	-2.4396	-2.55	-2.8625	-2.6583	-2.75	-3.0271	-2.7771	-3.1063	-2.9917	-2.9354	-2.8604	-2.9583	-2.6854	-2.8771	-2.9979	-3.0125	447.241	506.388	514.432	341.433	342.908	435.082	391.114	367.780	174.702	178.081	504.835	487.753	180.726	315.689	424.666	468.846	0.00064485	0.00020003	0.0001408	466.24	1.4587e-07	5.3726e-06	597.14	96.067	5.717e-06	6.1656e-06	168.79	52.237	21.692	6.2766	6.709e-06	21.601	0.0010914	0.0011148	0.00031443	565.26	1.2295e-05	1.228e-05	625.77	109.35	1.2235e-05	1.2262e-05	187.32	58.722	28.081	8.6222	1.2262e-05	24.533	376.154	319.956	180.979	181.367	259.273	381.488	181.118	186.248	326.905	338.314	186.034	191.104	190.322	196.036	503.306	195.202	-8191	255	
1490.149	1	1	0	0	0.16381	0.15037	0.090329	0.054011	0.12126	0.14808	0.43942	0.31444	0.23879	0.15404	0.25817	0.22025	0.19249	0.16801	0.063552	0.34578	-2.7083	-2.7188	-2.9188	-2.8604	-2.9271	-2.975	-2.8771	-2.8312	-2.9083	-2.7917	-3.1312	-2.9021	-2.8563	-3.1083	-2.6	-2.9437	413.603	252.168	300.831	248.695	334.733	285.509	174.883	469.606	482.824	324.910	442.903	180.707	500.769	282.813	235.644	369.824	0.00050025	0.00057297	0.00018719	463.55	1.7471e-06	7.6602e-06	599.25	96.311	5.001e-06	4.1165e-06	169.56	52.706	21.873	6.2703	1.3699e-05	21.633	0.0010877	0.001112	0.00031142	564.6	1.2218e-05	1.2253e-05	626.71	109.75	1.2186e-05	1.2287e-05	188.55	59.165	28.31	8.6614	1.2332e-05	24.661	378.816	497.371	401.079	181.706	450.858	425.168	181.269	186.683	360.826	241.537	186.201	191.211	190.793	196.221	460.485	195.504	-8191	255	
1490.267	1	1	0	0	0.040632	0.34172	0.016544	0.059866	0.11845	0.14247	0.29869	0.073483	0.10018	0.044893	0.090751	0.12626	0.2047	0.12105	0.18939	0.13893	-2.6146	-2.6	-3.0854	-2.9875	-2.5687	-2.9917	-2.8438	-2.7875	-3.1417	-2.7146	-3.0646	-2.9542	-2.7833	-3.0104	-2.8563	-2.7667	512.942	420.774	199.730	519.150	268.150	454.576	175.364	242.326	495.457	244.616	472.113	471.525	463.612	512.493	388.584	490.116	0.00059715	0.00030564	8.493e-05	465.34	4.1174e-06	7.5787e-06	598.76	94.817	3.4805e-06	8.5241e-06	167.56	51.981	21.473	6.2172	3.1861e-06	21.283	0.0010958	0.0011275	0.00031647	564.91	1.2384e-05	1.2458e-05	624.89	108.81	1.2231e-05	1.2284e-05	186.31	58.308	28.031	8.5943	1.2289e-05	24.332	364.002	515.751	226.156	182.186	482.514	511.971	180.892	186.438	451.858	238.853	186.347	190.700	190.496	195.718	375.634	195.820	-8191	255	
1490.364	1	1	0	0	0.074996	0.25159	0.13504	0.16538	0.14324	0.18524	0.29134	0.15176	0.15367	0.051123	0.10428	0.22192	0.15935	0.14017	0.2084	0.20455	-2.7	-2.7896	-2.8875	-2.925	-2.75	-3.1021	-2.7521	-2.7271	-2.9813	-2.5729	-3.0208	-3.1167	-2.8271	-3.1292	-2.8917	-2.75	255.210	519.212	277.340	453.561	212.036	290.598	463.852	407.743	272.477	177.177	493.516	353.117	226.884	357.439	440.385	354.346	0.00055655	0.00041754	0.00019001	461.9	4.945e-06	7.3669e-06	594.67	94.702	8.4618e-06	4.5172e-06	166.27	51.83	21.423	6.2886	5.5527e-06	21.426	0.0011024	0.0011293	0.00031761	561.49	1.2305e-05	1.2374e-05	622.39	108.29	1.2266e-05	1.2326e-05	185.99	58.297	27.941	8.6009	1.231e-05	24.431	332.389	406.149	388.981	181.794	367.511	235.666	181.234	186.739	302.202	193.667	186.114	191.158	190.615	195.765	266.425	195.884	-8191	255	
1490.460	1	1	0	0	0.022829	0.069495	0.21417	0.16434	0.11555	0.25341	0.066447	0.41357	0.15242	0.13645	0.11506	0.074372	0.30287	0.26722	0.086304	0.22986	-2.7979	-2.7792	-2.9125	-3.0583	-2.8688	-3.1854	-2.9917	-2.6937	-2.95	-2.7479	-2.9646	-3.0229	-2.825	-2.7625	-2.8646	-2.9208	514.123	390.972	245.248	410.131	254.470	359.297	471.678	444.959	265.623	265.897	264.976	387.929	179.144	257.046	302.973	373.429	0.00041586	0.00016941	0.0003403	464.35	3.9745e-06	8.2303e-06	594.36	95.048	5.7234e-06	6.5905e-06	168.4	52.205	21.64	6.3126	1.0291e-05	21.546	0.0011186	0.0011413	0.00031847	565.1	1.2579e-05	1.2669e-05	623.39	108.35	1.2576e-05	1.2649e-05	187.28	58.579	28.244	8.7145	1.2562e-05	24.648	392.129	302.055	275.825	181.713	199.686	388.417	181.282	186.580	404.445	239.249	185.883	190.985	190.622	195.993	413.939	195.541	-8191	255	
1490.556	1	1	0	0	0.15874	0.090254	0.13075	0.28458	0.18081	0.12023	0.39107	0.13637	0.21308	0.28552	0.01186	0.093878	0.15739	0.14937	0.12757	0.066524	-2.6583	-2.7708	-2.7687	-3.0396	-2.5875	-3.025	-3.1104	-2.6646	-3.0333	-3.0104	-2.8833	-3.0375	-2.7104	-2.8229	-2.9333	-2.675	422.014	408.310	345.397	442.249	357.367	247.181	236.505	199.779	493.719	372.926	268.667	383.388	523.347	280.800	210.605	445.267	0.00096306	0.00047916	0.0002029	461.19	6.5928e-06	5.0117e-06	593.92	95.264	3.6176e-06	3.2008e-06	168.64	52.575	21.635	6.3499	5.4873e-06	21.846	0.0011336	0.0011613	0.0003239	566.63	1.2643e-05	1.2715e-05	625	109.17	1.2736e-05	1.2786e-05	187.8	59.237	28.462	8.7704	1.2784e-05	24.982	379.592	407.250	394.015	181.391	196.835	314.165	181.433	186.699	408.925	195.133	186.047	191.523	190.718	196.271	274.868	195.193	-8191	255	
1490.628	1	1	0	0	0.14153	0.079646	0.10004	0.090834	0.15593	0.12798	0.078643	0.093442	0.06757	0.11906	0.24168	0.16862	0.18833	0.071188	0.11806	0.072916	-2.5729	-2.6979	-2.675	-3.1167	-2.7375	-2.9083	-2.9958	-2.8021	-3.0875	-2.8458	-2.9	-3.2	-2.65	-2.9521	-3.05	-2.7417	307.430	190.707	436.090	451.851	315.124	424.911	497.878	511.846	509.853	251.343	284.011	265.140	260.566	373.502	512.203	303.909	0.00083816	0.00085027	0.00014924	468.21	2.4598e-06	9.4683e-06	599.56	96.689	1.9142e-05	6.978e-06	170.51	52.069	21.726	6.2776	1.9301e-06	21.438	0.001142	0.0011556	0.000323	570.05	1.2633e-05	1.2703e-05	626.27	109.82	1.2583e-05	1.2536e-05	187.82	58.666	28.281	8.6747	1.2599e-05	24.579	380.326	280.166	243.567	181.541	489.973	248.194	181.359	187.109	261.040	472.495	185.790	191.156	190.549	195.802	174.611	195.549	-8191	255	
1490.748	1	1	0	0	0.19442	0.092624	0.11435	0.21774	0.028639	0.19598	0.17376	0.16448	0.088055	0.24682	0.065569	0.093069	0.18565	0.045638	0.069914	0.20239	-2.6042	-2.7729	-2.6833	-2.8792	-2.85	-2.8083	-3.0896	-2.7104	-2.8792	-3.0583	-2.8417	-3.0417	-2.8958	-2.9354	-3.2125	-2.7375	501.780	391.244	527.040	433.856	219.916	341.679	451.553	396.159	195.646	171.713	205.262	514.832	456.921	497.509	173.631	363.252	0.00082098	0.00081251	6.2741e-05	462.75	1.4587e-06	6.7696e-06	591.53	95.3	9.7639e-06	1.0866e-05	167.01	51.391	21.781	6.177	1.9948e-06	21.33	0.001143	0.0011826	0.00032577	567.31	1.2778e-05	1.2718e-05	622.31	108.87	1.2592e-05	1.264e-05	186.22	58.301	28.018	8.5878	1.2493e-05	24.366	393.290	292.402	259.896	181.681	342.358	327.605	181.191	186.351	244.989	378.553	185.755	191.140	190.461	196.163	423.082	195.108	-8191	255	
1490.844	1	1	0	0	0.25807	0.35826	0.20629	0.13151	0.18471	0.11196	0.087729	0.13634	0.074643	0.35354	0.15798	0.3044	0.17297	0.054847	0.028837	0.15795	-2.6292	-3.0958	-2.7292	-3.1708	-2.7188	-2.7938	-3.2	-2.7417	-2.9146	-3.0146	-2.8646	-3.1562	-2.7458	-2.6958	-2.9542	-2.8104	211.728	265.385	326.337	489.175	313.225	205.632	174.364	388.804	409.277	451.867	340.825	187.171	236.420	262.478	420.145	460.283	0.00065466	0.0006042	0.00035172	458.08	7.5123e-06	9.8439e-06	590.79	95.202	1.134e-05	7.3927e-06	166.86	52.094	21.596	6.28	1.1793e-05	21.337	0.0011155	0.0011409	0.00031852	562.73	1.2694e-05	1.2692e-05	622.13	108.87	1.2638e-05	1.2664e-05	186.92	58.719	28.158	8.6789	1.2736e-05	24.613	380.966	206.436	254.353	181.892	255.335	368.046	181.518	186.490	326.116	305.223	185.822	190.870	190.520	196.044	351.984	195.267	-8191	255	
1490.941	1	1	0	0	0.022217	0.083307	0.093028	0.22519	0.26986	0.07222	0.043385	0.065806	0.10135	0.086036	0.10838	0.074398	0.14794	0.13743	0.12453	0.09403	-2.4083	-2.8896	-2.7271	-3.0438	-2.9875	-2.7875	-3.3021	-2.7583	-2.8708	-3.1604	-2.8958	-3.0563	-2.8458	-2.7562	-2.9792	-2.8708	177.162	427.733	505.447	364.648	240.041	271.929	373.682	181.030	349.095	220.241	414.293	258.358	471.794	176.379	255.620	192.373	0.00056182	0.00028796	0.00022795	457.9	9.8913e-06	7.7957e-06	594.82	95.783	2.2687e-06	2.0058e-06	167.96	52.216	21.869	6.2797	9.7112e-07	21.569	0.0011376	0.0011529	0.00032115	566.21	1.2645e-05	1.2631e-05	622.53	109.46	1.2624e-05	1.2631e-05	187.36	58.941	28.381	8.7279	1.2596e-05	24.718	405.754	387.158	216.485	181.671	320.216	320.442	181.407	186.627	426.944	391.930	186.178	191.063	191.121	195.637	369.846	195.567	-8191	255	
1491.037	1	1	0	0	0.11047	0.10845	0.11511	0.13256	0.13889	0.083122	0.16539	0.082572	0.27896	0.08407	0.034318	0.111	0.12559	0.19998	0.21527	0.23883	-2.4458	-2.9667	-2.5958	-3.0458	-3.1	-2.7896	-3.1833	-2.8271	-2.875	-2.9854	-2.6833	-3.1458	-2.9958	-2.6083	-3.1729	-2.7375	324.815	267.960	320.243	274.495	359.351	205.199	456.384	496.803	339.340	521.677	302.694	465.179	349.840	212.391	290.875	315.609	0.00063297	0.00088774	0.00024373	463.06	5.2328e-06	5.3191e-06	596.19	95.964	9.109e-06	8.722e-06	168.32	52.693	21.65	6.3367	9.7749e-07	21.84	0.0011222	0.0011487	0.00031778	564.17	1.237e-05	1.2398e-05	623.69	109.76	1.2377e-05	1.2498e-05	187.97	59.082	28.342	8.7092	1.264e-05	24.717	381.169	228.364	523.349	181.436	305.118	192.187	181.049	186.246	299.629	265.083	186.006	191.047	190.225	195.891	176.896	195.637	-8191	255	
1491.156	1	1	0	0	0.098201	0.062907	0.32337	0.23761	0.053757	0.17326	0.11295	0.094704	0.15038	0.10437	0.25032	0.19504	0.18847	0.19175	0.24203	0.065281	-2.1521	-2.9208	-2.8042	-2.8812	-2.8229	-2.8396	-3.1458	-2.9854	-2.8187	-3.1208	-2.8646	-2.8208	-2.9542	-2.7125	-3.0812	-2.8542	409.692	506.944	398.939	242.739	248.305	305.878	470.339	348.070	205.307	419.968	445.321	466.874	191.319	336.343	498.738	454.533	0.00050563	0.00029813	9.522e-05	457.94	3.385e-06	2.476e-06	592	95.627	5.4135e-06	6.479e-06	167.36	52.052	21.377	6.3248	3.0203e-06	21.456	0.0011026	0.0011327	0.0003151	562.62	1.2252e-05	1.2184e-05	620.93	108.72	1.2085e-05	1.2298e-05	186.27	58.193	27.844	8.5783	1.2065e-05	24.318	409.661	202.083	252.930	181.923	168.617	474.960	181.525	186.290	409.883	453.893	185.678	191.176	190.749	195.964	251.021	195.273	-8191	255	
1491.229	1	1	0	0	0.17005	0.008942	0.18627	0.17646	0.12474	0.31875	0.1537	0.076858	0.031704	0.24121	0.09658	0.10619	0.14193	0.29659	0.074975	0.11808	-2.4167	-2.9729	-2.75	-2.7562	-3.1417	-2.7896	-3.0375	-2.7771	-2.8458	-3.1292	-2.6146	-2.8688	-2.9083	-2.7271	-2.9333	-2.8375	520.596	486.672	479.921	186.136	402.603	287.383	174.849	282.271	318.308	196.750	385.087	206.982	480.364	510.635	337.797	507.236	0.0010342	0.00048824	9.6621e-05	460.74	8.552e-06	1.9261e-06	589.97	94.93	9.4275e-06	4.0197e-06	167.19	51.544	21.495	6.2443	1.6819e-06	21.311	0.0010763	0.0011031	0.00030654	557.02	1.2138e-05	1.2193e-05	617.87	107.89	1.2132e-05	1.2256e-05	185.88	58.105	27.983	8.5424	1.2104e-05	24.291	381.480	226.759	273.413	181.371	262.114	217.562	181.149	186.410	239.050	269.214	185.687	191.163	190.690	196.496	451.308	195.849	-8191	255	
1491.348	1	1	0	0	0.05681	0.072394	0.19854	0.13386	0.07855	0.37799	0.082606	0.033002	0.16734	0.21878	0.17137	0.10885	0.076497	0.16838	0.079083	0.10841	-2.3063	-2.7687	-2.7646	-2.7104	-3.0729	-2.6813	-3.0312	-2.9188	-2.7167	-2.8937	-2.9188	-2.9125	-3.0687	-2.8479	-2.9896	-3.0646	345.414	190.244	338.100	503.739	363.463	389.416	206.868	227.495	466.490	295.101	471.788	426.252	291.995	220.932	475.066	398.436	0.00066523	0.00058226	7.0929e-05	459.38	2.7998e-06	8.6735e-06	594.73	94.9	1.0684e-05	4.6177e-06	167.16	51.895	21.586	6.2164	8.6375e-06	21.29	0.0010708	0.0010963	0.00030606	555.71	1.1828e-05	1.1901e-05	619.99	108.06	1.1665e-05	1.1905e-05	185.2	57.746	27.551	8.4417	1.1618e-05	24.139	393.264	379.167	267.891	181.910	297.600	370.765	181.016	186.816	514.487	471.845	185.865	190.916	190.635	195.581	329.081	195.500	-8191	255	
1491.444	1	1	0	0	0.13009	0.11102	0.097184	0.27309	0.068296	0.047435	0.12868	0.06512	0.033924	0.098931	0.11488	0.1333	0.18194	0.22448	0.21463	0.24981	-2.2979	-2.9437	-2.8333	-2.7292	-3.2833	-2.9208	-2.9938	-2.9979	-2.7625	-2.9833	-2.8396	-2.7417	-3.1521	-2.6354	-2.8396	-3.0375	242.275	188.146	353.922	509.521	175.426	211.807	468.921	336.395	445.350	471.320	292.992	435.227	196.573	173.932	407.693	320.831	0.00088823	0.00029178	0.0002313	458.39	6.329e-06	7.1969e-06	596.92	96.013	6.3602e-06	7.0473e-06	167.22	51.764	21.405	6.2102	5.3019e-06	21.579	0.0010337	0.0010563	0.00029266	551.95	1.1333e-05	1.1304e-05	618.23	107.58	1.1072e-05	1.1242e-05	184.3	57.602	27.26	8.3689	1.1214e-05	24.195	375.714	226.155	200.558	181.738	230.702	259.538	181.279	186.595	327.456	361.181	185.719	190.720	190.456	195.986	406.899	195.684	-8191	255	
1491.540	1	1	0	0	0.19484	0.17161	0.096577	0.21367	0.043321	0.10465	0.11951	0.018771	0.21477	0.13455	0.1737	0.19574	0.25323	0.099242	0.029571	0.35442	-2.4188	-2.7542	-2.6729	-2.6375	-3.0417	-2.7229	-3.0333	-2.9521	-2.6229	-2.9708	-2.9521	-2.5792	-2.9604	-2.8	-2.6958	-2.9313	248.021	237.976	338.686	456.138	414.663	490.419	199.282	515.370	379.724	176.877	229.127	243.592	237.020	285.338	500.375	448.085	0.00058314	0.00036686	0.00018152	465.59	1.3086e-06	3.4172e-06	592.8	95.883	9.7529e-06	7.1526e-06	167.73	51.449	21.264	6.1348	1.9774e-06	21.177	0.00098636	0.0010259	0.00028442	549.42	1.1197e-05	1.1267e-05	616.24	107.43	1.1202e-05	1.1432e-05	183.57	57.123	27.07	8.2299	1.1193e-05	23.779	389.329	370.331	243.322	181.760	512.670	354.853	181.319	186.653	207.653	369.877	186.127	190.940	190.356	196.244	342.417	195.586	-8191	255	
1491.636	1	1	0	0	0.14864	0.17293	0.11228	0.10289	0.094556	0.11033	0.31197	0.024542	0.1787	0.075515	0.25131	0.25989	0.1363	0.16122	0.20746	0.15803	-2.2479	-2.9437	-2.7	-2.6604	-2.9813	-2.7396	-2.8063	-3.2104	-2.7729	-2.9708	-3.0833	-2.8063	-3.2167	-2.8333	-2.9375	-2.9625	511.879	488.063	240.089	473.493	183.637	245.323	259.888	388.418	243.247	212.196	493.367	278.743	475.524	289.292	199.628	459.641	0.00083315	0.00020674	7.5442e-05	456.33	4.3558e-06	7.9021e-06	584.34	94.258	1.902e-06	3.0647e-06	165.65	50.508	20.997	5.9564	2.5198e-06	20.658	0.00099339	0.0010254	0.00028535	545.26	1.1245e-05	1.1297e-05	609.84	105.83	1.1393e-05	1.1604e-05	182.14	56.467	26.981	8.2299	1.1573e-05	23.571	361.555	348.250	487.005	181.520	337.693	283.396	181.376	186.210	452.580	519.369	185.756	191.496	190.597	195.436	191.936	195.128	-8191	255	
1491.757	1	1	0	0	0.11488	0.16543	0.26061	0.27134	0.086687	0.18149	0.14969	0.2492	0.17948	0.073471	0.13054	0.29988	0.048279	0.072576	0.15815	0.17149	-2.4333	-2.8271	-2.9021	-2.7042	-3.0146	-2.9583	-2.8354	-3.0167	-2.7417	-2.7333	-3.0146	-2.5417	-3.0167	-2.8979	-2.7042	-3.1583	477.949	209.208	381.070	400.044	238.394	201.104	363.959	404.898	308.913	355.995	200.342	176.051	349.840	420.099	296.604	440.822	0.0010892	7.1005e-05	0.00022273	452.99	5.5237e-06	1.1723e-05	581.34	93.517	6.6886e-06	1.1131e-05	163.14	50.623	20.534	6.0376	3.9938e-06	20.743	0.0010441	0.0010898	0.00030212	549	1.2059e-05	1.1988e-05	608.69	105.76	1.1987e-05	1.2165e-05	181.79	56.823	27.155	8.344	1.2055e-05	23.672	390.143	360.039	246.688	182.015	185.438	360.712	181.494	186.388	321.304	358.988	185.573	191.031	190.314	196.579	325.148	195.542	-8191	255	
1491.853	1	1	0	0	0.22122	0.081999	0.052519	0.20014	0.2069	0.1456	0.29985	0.042761	0.15337	0.1216	0.083778	0.099723	0.10473	0.24546	0.13034	0.17553	-2.3271	-2.9271	-3.0958	-2.7417	-3.1729	-2.8354	-2.7812	-2.9813	-2.8333	-2.7479	-3.0604	-2.8208	-3.0396	-2.9854	-2.6625	-3.0479	451.422	372.147	524.660	336.934	286.654	369.020	481.218	518.021	432.619	481.891	402.061	224.341	251.134	246.316	504.682	470.112	0.00063931	0.00027489	9.5443e-05	455.57	2.7931e-06	4.6416e-06	582.39	92.188	3.2888e-06	7.96e-06	163.72	50.701	20.978	6.1066	1.2084e-05	20.891	0.0010773	0.0011066	0.00030665	550.15	1.2073e-05	1.2028e-05	609.01	105.54	1.1884e-05	1.1958e-05	181.96	56.794	27.182	8.3508	1.1795e-05	23.909	387.510	381.151	330.687	181.735	300.502	268.079	181.651	187.013	282.061	501.994	185.703	190.992	190.003	196.097	234.882	195.599	-8191	255	
1491.949	1	1	0	0	0.19033	0.035267	0.34178	0.20253	0.24149	0.019003	0.20106	0.12071	0.072298	0.28257	0.15204	0.01873	0.12395	0.22106	0.12963	0.19911	-2.4708	-2.6375	-3.0458	-2.7438	-2.775	-2.925	-2.9313	-2.9958	-2.8271	-2.9	-3.1	-2.5771	-2.8042	-2.7771	-2.7375	-2.9583	377.419	480.186	334.145	422.517	513.162	371.705	483.899	414.667	300.412	527.187	268.410	259.560	259.679	524.170	374.217	434.141	0.00083195	0.001118	8.0182e-05	457.98	2.7077e-06	7.3138e-06	588.47	93.745	7.6731e-06	2.7613e-06	165.68	50.951	21.227	6.1789	2.1981e-06	21.08	0.0010569	0.0010904	0.00030525	550.8	1.1972e-05	1.1919e-05	613.42	106.89	1.1811e-05	1.1812e-05	183.24	57.332	27.397	8.3679	1.1549e-05	23.908	378.281	204.795	263.420	181.565	497.024	401.613	181.147	186.215	377.855	416.459	185.743	190.836	190.646	195.727	444.990	195.527	-8191	255	
1492.045	1	1	0	0	0.1253	0.16648	0.13488	0.046649	0.21032	0.16041	0.034253	0.17437	0.14704	0.033929	0.27967	0.03737	0.17337	0.029911	0.15745	0.1546	-2.3604	-2.9792	-2.9229	-2.5938	-3.0417	-2.8646	-2.7125	-2.8667	-2.8688	-2.7583	-3.0104	-2.7833	-2.8542	-3.0979	-2.8563	-3.1312	221.419	494.288	360.859	173.939	485.582	343.057	375.473	445.483	272.635	522.705	316.748	174.204	226.511	373.765	458.222	452.638	0.00050913	0.00081228	0.0002168	455.21	6.942e-06	2.6256e-06	581.48	93.209	9.142e-06	2.7882e-06	163.29	50.645	20.885	6.0603	7.1764e-06	21.081	0.0010497	0.0010596	0.0002976	546.07	1.1693e-05	1.1679e-05	608.59	105.66	1.1702e-05	1.1811e-05	181.24	56.711	27.069	8.2771	1.1679e-05	23.659	410.820	171.477	302.128	181.294	222.213	370.547	181.079	186.214	254.257	347.517	185.827	190.879	190.738	195.585	269.181	195.712	-8191	255	
1492.142	1	1	0	0	0.19951	0.18452	0.17938	0.073353	0.14502	0.16951	0.1666	0.067616	0.22234	0.2315	0.055994	0.22788	0.32948	0.033339	0.051342	0.089675	-2.425	-2.8187	-3.1958	-2.9146	-2.9188	-3.0021	-2.8688	-2.9062	-2.8187	-2.8354	-3.2271	-2.8646	-2.8625	-3.2896	-2.6354	-2.8396	454.632	457.259	240.010	258.517	439.124	327.923	488.369	468.778	235.024	401.805	476.258	297.090	220.018	376.236	339.851	421.573	0.00079768	0.00063602	0.00010469	451.59	4.0518e-06	3.3129e-06	583.04	92.995	2.5163e-06	1.3076e-06	163.68	50.481	20.917	6.057	6.0895e-06	20.909	0.0010336	0.0010525	0.0002959	544.92	1.1524e-05	1.1444e-05	607.49	105.6	1.1421e-05	1.1369e-05	180.83	56.451	26.863	8.2198	1.1201e-05	23.599	389.272	369.429	325.212	181.286	393.473	323.971	181.240	186.880	235.892	507.182	185.901	191.009	190.452	195.781	486.376	195.629	-8191	255	
1492.236	1	1	0	0	0.099303	0.20506	0.06868	0.28949	0.061866	0.29383	0.14517	0.085726	0.16473	0.098046	0.22498	0.05993	0.10507	0.092352	0.31656	0.048731	-2.5229	-2.6813	-2.975	-2.9708	-2.8792	-2.9625	-2.8771	-3.0104	-2.9021	-2.7979	-2.8812	-2.7896	-2.8271	-3.0333	-2.7979	-2.8458	212.026	330.834	216.511	463.085	247.876	250.013	449.985	245.167	495.652	204.893	475.327	209.569	307.430	269.703	354.382	524.160	0.00053572	0.00055027	0.00017909	445.43	6.8995e-06	3.5515e-06	584.12	93.084	4.9555e-06	6.6729e-06	163.97	51.137	20.996	6.0614	5.9455e-06	21.146	0.0010028	0.0010211	0.00028851	538.72	1.1169e-05	1.1136e-05	606.13	104.63	1.1139e-05	1.121e-05	180.69	56.604	26.731	8.2125	1.1115e-05	23.679	413.756	356.557	510.486	181.616	237.358	378.361	181.178	186.672	364.465	346.247	185.977	190.781	191.039	196.192	200.974	196.155	-8191	255	
1492.332	1	1	0	0	0.17595	0.2008	0.25488	0.2212	0.27768	0.066096	0.33838	0.077739	0.2318	0.060191	0.053956	0.045839	0.14935	0.021642	0.13348	0.098576	-2.7021	-2.6292	-2.9917	-2.7854	-2.8417	-3.0354	-2.7729	-2.7979	-3.1	-2.75	-3.0458	-2.8917	-2.625	-2.9562	-2.9292	-2.8312	195.439	214.696	439.352	352.498	198.879	291.678	493.335	334.967	287.614	405.835	461.607	233.439	241.506	220.678	495.453	233.455	0.00065533	0.00096121	0.00016871	447.19	1.2046e-06	7.3437e-06	582.32	92.62	3.5455e-06	3.4922e-06	164.62	50.789	20.685	6.1095	1.1333e-05	21.032	0.0009927	0.0010113	0.00028322	538.38	1.105e-05	1.1184e-05	606.07	104.14	1.1016e-05	1.1041e-05	180.47	56.52	26.515	8.1889	1.0871e-05	23.763	389.691	233.833	293.586	181.437	313.789	300.938	181.107	186.107	258.530	480.601	185.690	191.010	190.808	195.802	315.144	195.731	-8191	255	
1492.453	1	1	0	0	0.27142	0.11331	0.17843	0.0625	0.14688	0.088891	0.067283	0.18679	0.20398	0.26751	0.011654	0.20726	0.20373	0.24408	0.17209	0.16653	-2.5583	-2.7021	-2.9875	-2.8896	-2.5667	-2.925	-2.8292	-2.8292	-3.0333	-2.6917	-2.9271	-3.0292	-2.6625	-2.9396	-2.9333	-2.6979	340.618	237.716	172.331	216.867	223.677	328.508	346.795	471.932	297.703	385.280	334.061	222.952	428.255	400.456	220.392	311.957	0.00044984	0.00068354	0.00014721	448.14	2.814e-06	4.1862e-06	577.32	91.098	6.313e-06	7.289e-06	162.17	50.167	20.658	6.0997	2.801e-06	20.782	0.00097713	0.0010004	0.00028096	537	1.096e-05	1.0876e-05	601.84	102.73	1.0799e-05	1.0778e-05	178.23	55.833	26.123	8.0897	1.0621e-05	23.351	381.351	289.623	257.107	182.131	365.314	372.254	181.488	186.561	276.421	229.199	185.970	191.202	190.566	196.598	443.071	195.675	-8191	255	
1492.524	1	1	0	0	0.24935	0.1727	0.18863	0.028344	0.16987	0.35649	0.19562	0.32863	0.068657	0.077306	0.30969	0.17059	0.27112	0.3085	0.14308	0.1452	-2.5646	-2.7458	-2.8854	-3.125	-2.5729	-3.05	-3.0354	-2.7833	-3.2271	-2.7083	-2.8542	-2.8688	-2.6021	-3.2333	-2.9542	-2.6229	438.821	447.024	459.973	248.228	328.690	322.539	477.643	511.752	223.900	210.661	485.079	433.507	507.009	481.756	304.936	446.764	0.00093185	0.00046947	0.00023141	438.75	5.741e-06	2.1999e-06	574.89	90.401	2.1127e-06	1.9346e-06	160.22	49.918	20.503	6.0526	4.4376e-06	20.499	0.00094893	0.00096293	0.00027153	525.41	1.0499e-05	1.0612e-05	594.59	101.12	1.0576e-05	1.0534e-05	175.97	55.141	25.924	8.0625	1.0786e-05	23.067	372.217	376.589	388.872	181.630	354.078	486.015	181.620	186.203	248.681	225.290	185.685	191.089	190.598	196.112	489.365	195.001	-8191	255	
1492.621	1	1	0	0	0.26156	0.056774	0.18157	0.25509	0.12121	0.12183	0.099752	0.16851	0.013611	0.18041	0.19079	0.093113	0.31742	0.10265	0.18953	0.18628	-2.55	-2.6271	-2.9375	-3.0854	-2.6708	-2.8812	-2.8792	-2.8479	-2.9854	-2.7604	-2.7833	-3.0208	-2.5187	-3.0083	-2.8458	-2.8396	193.198	476.774	268.128	509.494	168.279	300.170	429.352	279.558	340.179	190.460	379.337	478.873	237.981	266.812	494.907	505.701	0.00043763	0.00056008	0.0001512	436.58	6.0071e-06	5.3611e-06	567.93	89.131	2.8557e-06	1.4924e-05	159.41	50.127	20.52	5.9728	7.453e-06	20.71	0.00095526	0.00097184	0.00027165	523.23	1.0564e-05	1.0574e-05	591.67	100.57	1.0457e-05	1.0437e-05	175.09	55.009	25.688	7.9459	1.0395e-05	23.062	396.005	217.186	413.898	181.624	335.601	420.997	181.406	186.178	443.432	288.982	185.844	191.167	191.058	195.992	435.014	195.617	-8191	255	
1492.717	1	1	0	0	0.14317	0.047546	0.13094	0.44987	0.14545	0.41921	0.12461	0.05551	0.14166	0.3159	0.13528	0.17243	0.13003	0.079837	0.1513	0.082137	-2.5604	-2.7	-2.6604	-3.0604	-2.6708	-2.9125	-3.1104	-2.7125	-2.9562	-2.9354	-2.6271	-3.0396	-2.6521	-2.9813	-2.9021	-2.5438	384.423	427.044	495.642	516.302	420.049	524.472	475.697	408.041	501.412	360.357	250.596	381.914	465.548	303.221	240.330	289.097	0.00062127	0.00038663	0.00013966	440.63	2.0811e-06	5.519e-06	572.95	90.441	3.7957e-06	4.2171e-06	159.36	50.26	20.343	6.038	5.9228e-06	20.65	0.00093635	0.00095348	0.00026373	520.95	1.0367e-05	1.0455e-05	592.57	100.59	1.0401e-05	1.0391e-05	174.98	55.139	25.828	8.0012	1.0435e-05	23.206	387.879	176.474	257.761	181.604	367.907	434.660	181.257	186.332	221.941	292.694	185.446	190.816	190.542	195.377	266.261	195.561	-8191	255	
1492.837	1	1	0	0	0.27357	0.091905	0.29496	0.18948	0.075958	0.31006	0.16838	0.037324	0.233	0.071164	0.1315	0.037472	0.12884	0.14399	0.30095	0.29047	-2.4792	-2.9521	-2.6604	-3.125	-2.6479	-2.6729	-3.1958	-2.5563	-3.1354	-3.0917	-2.7875	-2.8896	-2.9146	-2.9125	-3.0375	-2.525	493.765	230.394	419.064	346.529	361.491	527.369	357.405	450.003	428.774	401.424	415.926	292.632	521.869	466.544	337.182	483.898	0.00074551	0.00050212	0.00017921	438.62	8.534e-06	1.088e-05	574.81	90.903	6.2098e-06	7.8854e-06	159.63	50.643	20.599	6.0631	5.0726e-06	20.858	0.00093428	0.00096197	0.00026674	521.84	1.046e-05	1.055e-05	595.78	101.54	1.0505e-05	1.0539e-05	176.36	55.684	26.001	8.0266	1.0374e-05	23.187	390.739	204.390	324.281	181.023	294.422	413.871	181.385	186.376	267.506	505.661	185.804	190.886	190.820	195.775	368.790	195.320	-8191	255	
1492.933	1	1	0	0	0.20694	0.062851	0.16445	0.094395	0.06027	0.17543	0.15368	0.28221	0.11744	0.13527	0.054162	0.1317	0.079628	0.20636	0.12482	0.20438	-2.5187	-2.9292	-2.6521	-3.175	-2.8312	-2.8917	-3.1667	-2.6042	-3.0563	-3.1771	-2.8042	-3.0333	-2.7125	-2.7604	-3.1083	-2.8375	442.963	319.950	451.040	504.486	357.279	501.060	457.501	180.361	436.739	482.697	367.502	282.671	168.869	323.595	426.939	320.159	0.0006943	0.00038095	0.00011514	442.24	3.2964e-06	5.3706e-06	569.9	91.303	6.875e-06	5.9638e-06	159.35	49.539	20.527	5.9799	5.0984e-06	20.641	0.00093628	0.00094358	0.00026357	523.29	1.0428e-05	1.0426e-05	592.34	101.48	1.0416e-05	1.0417e-05	175.45	55.017	25.869	7.925	1.0323e-05	22.981	390.183	397.130	449.960	181.837	239.645	483.292	181.226	186.030	458.658	493.262	185.872	190.633	191.083	195.756	306.308	195.632	-8191	255	
1493.030	1	1	0	0	0.19997	0.085095	0.11944	0.077069	0.18243	0.10772	0.27945	0.15903	0.11715	0.32701	0.18444	0.1796	0.092361	0.1308	0.27759	0.15018	-2.6792	-3.05	-2.7729	-3.1312	-2.8667	-2.7896	-3.2146	-2.7938	-2.9562	-2.9646	-2.6562	-3.0083	-2.9917	-2.7438	-2.9938	-2.7729	205.350	251.430	396.872	450.306	333.992	197.157	454.800	296.003	276.472	200.468	432.082	401.647	209.961	271.265	517.540	388.474	0.00067536	0.0005407	8.1844e-05	440.29	5.6507e-06	6.481e-06	572.1	90.943	2.5219e-06	6.6225e-06	161.21	49.985	20.593	6.0336	1.0156e-05	20.602	0.00093216	0.0009546	0.00026553	523.79	1.0545e-05	1.0525e-05	593	102	1.0404e-05	1.0421e-05	175.98	55.352	25.972	7.9786	1.0336e-05	23.102	378.044	254.417	417.512	181.734	390.724	340.986	181.784	186.464	375.375	264.162	186.200	191.094	190.313	196.385	275.609	196.083	-8191	255	
1493.126	1	1	0	0	0.37355	0.15386	0.034645	0.08528	0.072893	0.12477	0.2955	0.1583	0.11488	0.046544	0.29175	0.23726	0.2771	0.095402	0.074188	0.19494	-2.5604	-3.05	-2.5396	-3.0229	-3.0604	-2.7354	-3.2271	-2.7479	-3.0312	-3.0812	-2.7188	-2.9958	-3.0542	-2.8125	-3.1208	-2.875	287.016	431.189	217.775	172.716	366.212	175.480	497.228	339.542	491.503	364.272	191.335	407.421	491.456	206.111	246.970	388.069	0.00096975	0.00044432	2.0242e-05	443.92	1.8876e-06	6.9205e-06	573.33	90.406	7.1209e-06	5.1047e-06	161.47	50.3	20.629	6.0471	3.2577e-06	20.776	0.00092385	0.00095167	0.00026173	524.8	1.0435e-05	1.0182e-05	593.2	101.36	1.0126e-05	1.0099e-05	175.76	55.125	25.837	7.9219	1.008e-05	23.005	394.013	242.139	325.075	181.314	256.425	327.642	181.190	186.889	360.692	392.470	185.676	191.028	190.462	195.994	487.399	195.426	-8191	255	
1493.222	1	1	0	0	0.28244	0.10513	0.20678	0.16698	0.078505	0.084847	0.17558	0.079797	0.22648	0.29723	0.12856	0.13167	0.08608	0.072998	0.17559	0.21121	-2.3688	-2.9542	-2.7021	-2.8833	-3.0833	-2.6292	-3.0542	-3.0229	-2.9062	-3.0771	-2.6771	-2.8146	-3.05	-2.5604	-3.15	-2.8729	452.371	435.076	502.178	323.264	431.789	195.050	404.683	500.076	304.404	392.028	304.532	182.925	388.492	484.227	223.477	252.023	0.00050617	0.0006125	0.00017102	441.06	5.4726e-06	7.9689e-06	572.96	90.683	5.7945e-06	3.2494e-06	159.04	50.627	20.802	6.1026	6.0374e-06	20.828	0.00089225	0.0009108	0.00025258	519.17	9.745e-06	9.8371e-06	592.91	100.88	9.7139e-06	9.8434e-06	174.43	55.038	25.609	7.8622	9.7269e-06	23.098	389.314	290.082	281.360	181.715	466.646	384.919	181.184	186.193	238.651	230.080	185.917	191.034	190.698	195.687	383.994	195.609	-8191	255	
1493.318	1	1	0	0	0.088175	0.30074	0.21801	0.27879	0.12966	0.19752	0.41767	0.02633	0.062483	0.10213	0.22259	0.21326	0.10984	0.062452	0.088402	0.058023	-2.5854	-3.0521	-2.7438	-2.8438	-3	-2.7188	-2.9271	-2.7667	-2.8146	-3.0271	-2.8458	-2.8271	-2.8875	-2.8146	-3.0125	-2.9271	398.078	448.408	401.063	429.900	260.680	235.029	448.818	228.917	237.993	517.448	513.057	245.464	441.037	414.527	460.759	260.852	0.00072839	0.00033683	0.00014125	440.87	8.9295e-06	8.9589e-06	575.59	91.813	8.241e-06	7.0455e-06	161.37	49.785	20.826	5.9168	5.7914e-06	20.443	0.00086691	0.00088942	0.00024731	518.54	9.7829e-06	9.6843e-06	593.81	101.17	9.6064e-06	9.7056e-06	174.67	54.662	25.403	7.7518	9.6034e-06	22.735	384.885	489.273	248.099	182.035	332.763	392.745	181.048	186.572	233.237	222.163	185.889	190.789	191.073	195.518	309.547	195.288	-8191	255	
1493.437	1	1	0	0	0.32416	0.20774	0.095819	0.2759	0.062353	0.098032	0.050721	0.32933	0.10115	0.14611	0.25412	0.42906	0.11417	0.23191	0.11735	0.18421	-2.4083	-3.1562	-2.8979	-2.7229	-3.1458	-2.6667	-2.95	-2.925	-2.6625	-3.0854	-2.7938	-2.6854	-3.1063	-2.5792	-3.1625	-3.0104	252.682	239.941	457.998	172.553	366.130	207.004	397.585	466.418	524.707	441.280	171.605	355.611	257.289	524.620	280.461	366.037	0.0006319	0.00013853	0.00015793	439.95	9.532e-06	3.25e-06	569.35	90.037	7.9343e-06	4.265e-06	160.46	49.738	20.382	5.991	3.433e-06	20.307	0.00084744	0.00086535	0.00024088	510.81	9.4643e-06	9.4193e-06	588.75	99.782	9.4159e-06	9.5503e-06	173.21	54.242	25.286	7.7008	9.4043e-06	22.539	378.341	266.478	463.399	181.362	264.275	509.149	181.481	186.699	336.951	390.459	185.635	190.928	191.073	196.163	361.982	195.431	-8191	255	
1493.533	1	1	0	0	0.11837	0.14788	0.20177	0.062011	0.21834	0.16251	0.080532	0.14004	0.22574	0.05323	0.29919	0.12949	0.24179	0.10225	0.16597	0.06844	-2.4083	-3.2292	-2.8083	-2.8083	-3.175	-2.8563	-3.0896	-3.1	-2.6875	-3.1083	-2.9604	-2.9958	-3.0375	-2.7875	-2.9313	-3.025	472.672	311.881	357.944	225.216	182.240	232.614	469.635	308.997	170.980	221.039	402.030	266.842	498.791	236.603	185.120	214.094	0.00072495	0.00035578	6.8316e-05	444.51	4.1056e-06	5.5097e-06	571.08	91.992	1.1605e-05	3.7002e-06	160.46	49.83	20.329	5.9499	3.661e-06	20.692	0.00083542	0.00086117	0.00023838	512.78	9.4138e-06	9.3817e-06	587.89	100.77	9.3013e-06	9.4268e-06	174.62	54.499	25.252	7.7434	9.4894e-06	22.751	389.739	196.972	465.107	181.082	524.844	252.733	181.464	186.490	324.806	328.782	185.870	190.989	190.894	196.085	203.114	195.631	-8191	255	
1493.629	1	1	0	0	0.12828	0.30158	0.067849	0.034114	0.11397	0.059715	0.14037	0.17983	0.203	0.17114	0.1053	0.17842	0.043754	0.1845	0.074711	0.1597	-2.4188	-3.0708	-2.925	-2.8396	-3.2146	-2.8396	-2.8937	-3.2479	-2.7854	-3.1729	-2.9104	-2.9313	-3.1708	-2.9813	-2.9437	-3.1979	310.584	450.657	338.501	262.697	492.172	338.846	180.923	486.574	322.915	410.801	343.009	421.851	377.936	461.635	502.552	402.977	0.00075881	0.00060012	6.0771e-05	441.37	3.1585e-06	8.1399e-06	572.36	91.773	6.7595e-06	2.7491e-06	161.01	50.211	20.469	5.9674	6.4922e-06	20.806	0.00083887	0.00087615	0.00024222	513.93	9.5248e-06	9.4533e-06	589.75	101.07	9.4839e-06	9.6346e-06	174.8	54.577	25.468	7.7591	9.5182e-06	22.832	378.421	212.501	411.323	181.415	221.485	243.060	181.113	187.023	462.158	380.996	186.030	191.282	190.939	196.278	182.034	195.722	-8191	255	
1493.750	1	1	0	0	0.027545	0.14021	0.17685	0.29048	0.17752	0.12436	0.039064	0.15571	0.089679	0.10725	0.094519	0.063115	0.24199	0.10096	0.32874	0.24476	-2.4917	-3.0958	-2.8396	-2.6542	-3.1271	-2.8375	-2.8833	-3.1292	-2.4	-3.0292	-3.1917	-2.8479	-3.0417	-2.9979	-2.775	-3.3104	400.106	411.993	512.561	301.894	430.396	460.825	275.576	171.339	313.977	247.429	171.138	319.389	180.248	257.428	342.288	242.722	0.00060977	0.00046866	0.00022737	442.83	4.0613e-06	4.0062e-06	572.19	91.928	4.8491e-06	4.4853e-06	161.92	50.755	20.5	5.9967	8.0434e-06	20.671	0.00084724	0.00086858	0.00024174	514.65	9.511e-06	9.4473e-06	590.98	101.28	9.3636e-06	9.4419e-06	175.26	54.79	25.411	7.7826	9.3125e-06	22.76	391.166	309.598	323.988	181.386	242.084	303.954	181.028	186.378	239.245	457.291	185.793	191.111	190.678	195.526	288.945	195.680	-8191	255	
1493.822	1	1	0	0	0.18024	0.042245	0.060079	0.10145	0.17534	0.18928	0.087903	0.22889	0.27615	0.19803	0.15319	0.20458	0.1156	0.13921	0.14841	0.056823	-2.5771	-3.0292	-2.9292	-2.7229	-3.2083	-3.0938	-2.9437	-3.225	-2.8146	-3.0938	-3.0458	-2.9146	-3.1333	-2.9396	-2.8417	-3.2646	338.967	419.504	354.774	245.049	267.090	408.355	214.894	492.356	439.043	253.100	398.510	468.791	500.637	212.768	524.355	458.345	0.00051221	0.0006258	5.398e-05	439.04	3.1468e-06	7.0499e-06	568.81	91.461	7.7289e-06	1.127e-06	159.69	49.628	20.397	5.9528	7.1633e-06	20.316	0.00083363	0.00085865	0.00023698	511.33	9.2869e-06	9.3271e-06	587.82	100.64	9.2182e-06	9.244e-06	173.05	53.818	25.022	7.6377	9.1052e-06	22.305	384.671	290.404	174.966	181.687	528.353	187.671	181.034	186.593	208.103	251.458	185.560	191.045	190.758	196.167	325.156	195.350	-8191	255	
1493.918	1	1	0	0	0.14474	0.13692	0.12204	0.22914	0.21069	0.24891	0.091181	0.19809	0.25223	0.12481	0.13316	0.17742	0.10739	0.13853	0.12925	0.045065	-2.4313	-2.8854	-3.0521	-2.8854	-2.9375	-3.0042	-3.0917	-3.1521	-2.7438	-2.9292	-3.2917	-2.8833	-2.8292	-2.8063	-2.7875	-2.9562	291.721	404.558	353.011	494.985	348.428	454.926	449.014	493.990	332.589	259.753	440.650	420.668	172.336	294.929	455.099	181.525	0.00062808	0.00029165	0.00010454	441.37	8.8894e-06	3.5695e-06	568.75	90.884	7.9416e-06	1.1642e-05	159.19	49.457	20.3	5.9654	2.4359e-06	20.382	0.00082093	0.00084053	0.00023196	509.02	9.1573e-06	9.1434e-06	585.5	100.13	9.1184e-06	9.1882e-06	172.24	53.619	24.98	7.5793	8.9681e-06	22.295	377.060	364.166	215.725	181.872	189.713	367.845	181.336	186.713	279.916	389.847	185.764	190.891	190.004	196.259	306.247	195.635	-8191	255	
1494.014	1	1	0	0	0.12933	0.42999	0.30397	0.058792	0.078287	0.17462	0.098648	0.144	0.082055	0.36173	0.31085	0.14919	0.087255	0.12211	0.12273	0.26764	-2.5542	-2.8792	-3.425	-2.9375	-3.1292	-3.0938	-2.8646	-3.1167	-3.0917	-2.8896	-3.3479	-2.8042	-3.025	-3.0042	-2.7125	-3.2604	193.191	202.226	266.287	491.062	305.326	348.749	457.980	465.113	496.150	231.112	474.191	399.425	391.684	292.223	332.312	394.094	0.00095511	0.00023101	0.00021359	440.92	6.7676e-06	3.1209e-06	570.67	91.636	8.2736e-06	1.2075e-06	162.16	49.512	20.381	5.9232	4.1264e-06	20.507	0.00080045	0.00081713	0.00022856	507.79	8.9787e-06	8.9345e-06	586.26	100.16	8.9161e-06	8.9456e-06	173.17	53.881	25.052	7.5772	8.8217e-06	22.44	372.101	277.709	260.742	181.427	461.898	306.393	181.317	187.094	326.484	342.094	186.159	190.718	190.477	195.943	375.269	195.495	-8191	255	
1494.133	1	1	0	0	0.14363	0.1424	0.14465	0.22237	0.022175	0.050171	0.34075	0.038392	0.076979	0.094748	0.017719	0.15701	0.18755	0.17916	0.21638	0.17595	-2.5458	-2.8521	-3.2521	-2.5417	-3.1771	-3.05	-2.95	-3.25	-2.9896	-2.9042	-3.0938	-2.8729	-2.8208	-3.1937	-2.8604	-2.9625	433.788	353.297	422.951	489.385	320.652	436.355	194.969	210.302	301.477	325.487	440.248	186.813	222.930	298.729	299.725	423.631	0.00051967	0.0007881	0.00016992	440.51	3.7083e-06	3.0325e-06	569.67	91.693	7.1691e-06	3.5411e-06	162.44	50.004	20.751	6.0205	9.9843e-06	20.733	0.00079528	0.00080489	0.00022593	507.48	8.8898e-06	8.8082e-06	587.2	100.67	8.8464e-06	8.8237e-06	173.96	54.122	25.106	7.6224	8.7937e-06	22.672	388.133	274.782	255.887	181.181	303.397	473.704	181.481	186.597	318.667	401.536	185.794	190.772	191.091	195.740	362.432	195.897	-8191	255	
1494.229	1	1	0	0	0.13886	0.19406	0.072422	0.25878	0.25363	0.1495	0.3129	0.18342	0.16044	0.094496	0.068225	0.1256	0.133	0.092812	0.24264	0.12155	-2.6333	-2.8187	-3.1396	-2.9125	-2.8979	-3.0375	-2.8854	-3.0563	-3.0104	-2.8792	-3.1312	-3	-2.6771	-3.1479	-2.8396	-2.9042	477.733	216.895	495.939	492.849	282.801	397.332	502.012	228.332	381.803	495.716	220.977	207.051	338.907	246.762	259.752	350.077	0.00072795	0.00024973	0.00010082	444.83	3.2139e-06	1.1529e-06	574.64	91.772	6.3652e-06	6.9747e-06	162.58	50.011	20.788	6.0184	7.1673e-06	20.373	0.00079347	0.00080942	0.00022569	511.84	8.9114e-06	8.8962e-06	590.19	100.81	8.776e-06	8.7933e-06	173.87	53.894	24.926	7.5726	8.7112e-06	22.326	377.495	235.558	284.014	181.682	394.584	209.133	181.560	186.405	302.607	360.950	185.841	190.767	191.293	196.209	233.150	195.609	-8191	255	
1494.325	1	1	0	0	0.12373	0.17721	0.20275	0.069276	0.31111	0.16039	0.39981	0.10869	0.26434	0.12202	0.1838	0.14436	0.12255	0.054792	0.1455	0.26493	-2.5542	-2.8229	-3.0563	-3.0083	-2.8625	-3.2646	-2.9354	-3.1896	-3.1396	-2.6875	-3.0792	-2.9479	-2.7167	-3.1458	-2.9042	-2.9417	242.274	382.618	477.469	346.982	410.569	520.094	489.580	420.488	368.515	268.139	180.112	468.014	239.781	407.630	422.053	278.399	0.00040877	0.00014465	2.6035e-05	448.35	3.6164e-06	4.3485e-06	572.48	91.603	1.7616e-06	6.1428e-06	161.46	49.71	20.464	5.9023	5.1865e-06	20.453	0.00077861	0.00079266	0.00022598	509.3	8.7808e-06	8.7375e-06	586.1	100.6	8.6934e-06	8.6794e-06	173.07	53.567	24.857	7.5324	8.7603e-06	22.321	370.664	259.102	351.866	181.340	492.004	351.752	181.345	186.499	353.216	284.567	186.027	191.057	190.666	195.348	214.330	195.533	-8191	255	
1494.398	1	1	0	0	0.063584	0.092161	0.11552	0.12599	0.12326	0.16045	0.28414	0.17012	0.17604	0.045873	0.15168	0.25669	0.21391	0.27364	0.13599	0.042006	-2.7729	-2.7875	-3	-2.7458	-2.9042	-3.2938	-3.0292	-2.775	-3.225	-2.8875	-3.025	-3.1354	-2.7292	-3.3479	-2.7042	-2.8729	363.050	363.604	229.513	335.498	298.170	423.083	449.833	486.217	502.114	356.963	245.460	249.354	259.306	427.009	366.558	316.196	0.000684	0.00063289	9.1609e-05	448.53	1.8788e-06	7.3815e-06	569.62	92.315	4.2189e-06	7.5596e-06	162.58	49.897	20.955	6.0181	3.0393e-06	20.427	0.00078521	0.00079673	0.00022596	509.9	8.78e-06	8.785e-06	587.46	100.86	8.8433e-06	8.9714e-06	175.25	54.185	25.331	7.682	9.2394e-06	22.685	384.664	389.248	171.516	181.885	450.962	310.079	181.071	186.577	319.399	289.638	186.166	190.862	191.272	195.781	346.156	195.499	-8191	255	
1494.517	1	1	0	0	0.22691	0.28458	0.24274	0.056556	0.33627	0.14589	0.23635	0.20736	0.043565	0.15902	0.11324	0.063259	0.11926	0.30059	0.076349	0.1533	-2.8083	-2.9062	-2.9813	-3.0625	-2.8458	-3.0208	-2.8875	-2.7167	-3.2354	-2.7354	-2.9458	-3.0708	-2.8271	-3.2771	-2.8521	-2.7667	292.400	451.436	302.857	189.498	368.278	492.512	480.520	399.201	171.620	245.668	437.251	301.902	304.119	305.055	306.440	184.356	0.00078071	0.00055026	6.0926e-05	453.62	1.4989e-06	2.9152e-06	577.5	92.458	2.836e-06	4.1288e-06	162.82	50.552	20.927	6.0256	4.9315e-06	20.66	0.00082453	0.00084125	0.00023791	520.18	9.2686e-06	9.2939e-06	594.53	102.3	9.1791e-06	9.2924e-06	176.48	54.71	25.516	7.7531	9.2792e-06	22.861	386.156	241.038	195.886	182.156	459.337	230.720	181.422	186.758	388.372	333.593	186.350	191.317	190.848	196.109	234.524	195.997	-8191	255	
1494.613	1	1	0	0	0.11267	0.049643	0.27415	0.10188	0.22475	0.13943	0.063379	0.075532	0.21859	0.1646	0.19554	0.019852	0.060451	0.10902	0.13258	0.35252	-2.7188	-2.7167	-2.9313	-3.0396	-2.7104	-3.1292	-3.0604	-2.6813	-3.0271	-2.7542	-2.975	-3.0187	-2.7771	-3.0271	-3.0187	-2.7792	248.933	473.673	309.323	457.344	517.172	445.692	525.062	257.233	243.432	374.492	224.140	181.704	493.974	216.322	351.536	480.904	0.00090994	0.00029299	0.00010588	454.4	1.5085e-06	5.7157e-06	577.18	95.117	2.4981e-06	8.3334e-06	165.6	51.418	20.958	6.0143	4.2203e-06	20.914	0.00083946	0.00086072	0.00024121	522.9	9.342e-06	9.5045e-06	597.36	103.76	9.5504e-06	9.45e-06	178.75	55.492	25.843	7.8194	9.4877e-06	23.022	391.653	518.292	237.800	182.046	267.434	287.178	181.240	186.951	487.099	433.970	185.799	191.271	190.325	196.343	252.936	195.324	-8191	255	
1494.710	1	1	0	0	0.13418	0.065798	0.14749	0.044248	0.27564	0.11996	0.15524	0.087557	0.16111	0.268	0.33399	0.22332	0.13389	0.099356	0.072547	0.23167	-2.7083	-2.8333	-2.9437	-3.0333	-2.5438	-3.0646	-2.9208	-2.7521	-3.075	-2.8271	-3.0896	-3.175	-2.7021	-2.9979	-2.9875	-2.6188	520.208	326.188	439.272	378.982	248.145	246.596	509.072	193.953	258.051	436.940	437.180	205.202	400.236	325.956	465.501	494.568	0.00070623	0.0013081	0.00032865	455.37	3.6092e-06	6.3747e-06	578.19	93.037	7.2706e-06	2.212e-06	162.85	49.871	20.815	5.9511	5.2588e-06	20.58	0.00085088	0.00087132	0.00024543	522.57	9.4422e-06	9.5943e-06	594.66	102.82	9.5123e-06	9.6083e-06	176.55	54.461	25.496	7.7326	9.4825e-06	22.635	374.578	198.529	234.463	182.058	322.289	422.778	181.249	186.386	341.608	172.521	185.777	191.384	190.341	196.395	236.452	195.516	-8191	255	
1494.830	1	1	0	0	0.12937	0.096105	0.094643	0.086784	0.27816	0.10709	0.18277	0.22145	0.18078	0.1931	0.091431	0.21766	0.069227	0.10069	0.15564	0.058828	-2.5771	-2.9271	-2.7729	-2.9854	-2.725	-2.9562	-3.1937	-2.7583	-2.9167	-2.9625	-2.95	-3.1229	-2.7438	-2.8937	-2.9688	-2.7562	274.994	320.043	506.647	485.853	228.959	227.188	207.156	463.385	339.786	447.921	421.674	409.895	335.013	309.066	489.826	291.806	0.00047398	0.0010022	0.0001645	454.25	6.0985e-06	3.8147e-06	575.62	93.236	7.3547e-06	3.1297e-06	162.61	50.122	20.765	6.0517	2.6708e-06	20.666	0.00085817	0.00088296	0.00024609	520.99	9.6507e-06	9.8342e-06	593.75	103.35	9.7032e-06	9.7241e-06	176.78	54.82	25.623	7.8028	9.4771e-06	22.819	387.573	339.599	368.566	181.698	177.194	456.177	181.370	186.171	321.998	174.286	186.036	190.892	190.119	196.035	268.962	195.663	-8191	255	
1494.926	1	1	0	0	0.090101	0.19578	0.22001	0.18633	0.18488	0.16935	0.17677	0.14204	0.23921	0.16472	0.11837	0.024539	0.11892	0.3129	0.094912	0.1627	-2.5917	-2.8979	-2.5938	-2.9646	-2.8021	-2.8708	-3.1771	-2.7438	-3.1083	-3.0062	-2.7833	-3.225	-3.0229	-2.95	-3.1708	-2.6333	388.352	208.853	253.981	505.355	428.487	443.490	431.957	508.761	225.933	388.580	202.925	475.306	518.159	426.809	195.398	392.756	0.00048399	0.00032277	4.0126e-05	451.16	5.2266e-06	5.4547e-06	576.63	93.855	4.786e-06	3.917e-06	165.26	50.957	21.008	6.1538	4.8028e-06	20.908	0.00085791	0.00087939	0.00024452	523.53	9.6997e-06	9.7621e-06	595.55	103.47	9.7348e-06	9.7235e-06	178.29	55.558	25.969	7.9117	9.6799e-06	23.207	394.518	371.358	392.469	181.791	315.159	404.561	181.460	186.567	482.149	352.545	186.210	191.174	190.293	195.362	344.562	195.762	-8191	255	
1495.023	1	1	0	0	0.2203	0.09744	0.14845	0.079436	0.095494	0.21238	0.15696	0.13358	0.085001	0.18396	0.26068	0.12653	0.27133	0.093036	0.24391	0.1377	-2.675	-2.9313	-2.8667	-3.1333	-2.8833	-2.8271	-3.2354	-2.7583	-2.9396	-3.0938	-2.8396	-3.0625	-2.8667	-2.6833	-3.1896	-2.8521	439.435	448.785	453.415	458.160	517.150	367.398	175.639	428.793	330.294	442.667	339.299	432.508	335.923	188.906	484.876	360.243	0.00062055	0.00057496	0.00011334	450.01	2.1512e-06	2.4058e-06	576.26	94.839	1.069e-05	1.8852e-06	164.87	51.757	21.401	6.1758	5.6586e-06	21.192	0.00087568	0.00089711	0.00024977	527.39	9.9136e-06	9.8721e-06	598.06	104.58	9.9178e-06	9.9401e-06	179.05	56.191	26.202	8.0085	9.8078e-06	23.533	399.186	510.922	416.111	181.902	410.349	251.932	181.322	186.429	209.649	316.971	186.014	191.250	190.918	195.714	482.507	195.314	-8191	255	
1495.119	1	1	0	0	0.37778	0.07389	0.29937	0.13309	0.17699	0.23417	0.12492	0.053498	0.15137	0.12813	0.15009	0.119	0.20806	0.17747	0.071514	0.28146	-2.4958	-2.9	-2.8354	-2.9521	-2.8979	-2.8	-3.1854	-2.7854	-3.0021	-3.1146	-2.8354	-3.0271	-2.9042	-2.7854	-3.0354	-2.9313	219.079	230.208	408.744	470.706	258.239	369.616	190.912	274.951	517.469	241.419	398.064	325.403	170.098	424.327	314.736	208.910	0.00056169	0.00070417	0.00014807	457.51	5.3142e-06	3.5343e-06	580.99	95.368	8.2301e-06	9.9532e-06	166.33	50.996	21.14	6.0983	3.8244e-06	21.184	0.00089288	0.00090431	0.00025154	532.34	1.0049e-05	9.9084e-06	600.16	104.93	9.9207e-06	9.9334e-06	180.28	56.07	26.233	7.983	9.8775e-06	23.453	403.899	194.804	401.400	181.547	395.967	241.090	181.231	186.462	456.890	321.986	185.751	190.921	190.529	196.158	264.849	195.400	-8191	255	
1495.215	1	1	0	0	0.22166	0.20574	0.16906	0.10717	0.1021	0.14209	0.15838	0.038092	0.21462	0.12589	0.087902	0.094994	0.13535	0.18449	0.037778	0.11609	-2.6562	-2.9729	-2.725	-3.0375	-2.925	-2.875	-3.2396	-2.7042	-2.7417	-3.0187	-2.6667	-2.7667	-3.1271	-2.825	-3.0354	-2.8146	311.812	348.381	509.473	441.384	346.304	430.389	504.791	174.538	465.205	487.777	466.030	194.133	484.310	346.162	412.162	492.025	0.00071532	0.00016038	0.00021756	448.24	1.9945e-06	9.6421e-06	574.26	95	8.9457e-06	5.1877e-06	164.39	50.876	21.205	6.1343	8.3253e-06	21.019	0.0008901	0.0009034	0.00024954	526.79	9.9375e-06	9.888e-06	596.09	104.48	9.9421e-06	1.001e-05	179.1	55.646	26.099	7.9842	9.9656e-06	23.35	365.925	294.747	273.710	181.541	320.700	321.378	181.212	186.504	307.008	280.530	185.658	191.097	191.193	195.943	401.657	195.056	-8191	255	
1495.309	1	1	0	0	0.099232	0.16665	0.0020359	0.16593	0.079555	0.1308	0.11702	0.14472	0.093125	0.028632	0.1971	0.04131	0.13731	0.1482	0.085668	0.14503	-2.5646	-3.0563	-2.8854	-2.9437	-2.9729	-2.7062	-3.0896	-2.8937	-2.9042	-3.2062	-2.7583	-3.0812	-2.9396	-2.6396	-3.0708	-2.9583	347.065	253.778	180.000	247.454	214.282	320.586	222.880	322.634	328.259	301.045	360.306	446.311	374.277	351.645	258.155	376.685	0.0006554	0.00015256	0.00027406	452.53	2.796e-06	3.9673e-06	578.62	94.627	1.9772e-06	8.272e-06	165.22	51.215	21.222	6.156	1.1116e-05	21.115	0.00089792	0.00089771	0.00025296	529.47	9.9305e-06	9.7711e-06	596.81	104.58	9.7828e-06	9.8815e-06	178.93	55.636	26.191	7.9984	9.9218e-06	23.462	379.959	247.748	332.839	181.709	272.057	295.313	181.489	186.434	297.674	372.277	186.122	191.022	190.929	195.862	345.427	195.586	-8191	255	
1495.430	1	1	0	0	0.05911	0.22193	0.2909	0.12485	0.094695	0.2851	0.2135	0.05321	0.11086	0.15705	0.25909	0.31352	0.12879	0.026936	0.12104	0.17451	-2.4562	-3.0833	-2.7375	-2.875	-3.1083	-2.6875	-3.1583	-3.0979	-2.7167	-3.0563	-2.8	-2.7604	-3.1271	-2.6167	-3.1333	-3.1125	431.242	245.041	445.204	179.565	440.204	486.120	411.949	511.291	376.662	320.310	289.301	507.071	513.720	282.739	253.787	507.053	0.00050659	0.00043489	0.00010543	449.98	9.5548e-06	2.5498e-06	578.55	95.331	3.761e-06	7.9861e-06	165.59	51.59	21.199	6.1435	2.699e-06	21.453	0.00089075	0.00091633	0.00025418	529.96	1.0083e-05	1.0019e-05	600.02	105.04	9.9221e-06	1.0006e-05	180.42	56.418	26.357	8.0586	1.0053e-05	23.667	388.131	223.806	233.875	181.610	379.205	232.540	181.322	186.800	289.869	377.298	186.363	191.013	190.924	195.818	303.060	195.549	-8191	255	
1495.526	1	1	0	0	0.19277	0.14342	0.22515	0.20435	0.069546	0.074973	0.32152	0.031438	0.085903	0.2149	0.25766	0.47274	0.21728	0.28541	0.12774	0.12407	-2.4062	-3.025	-2.8812	-3.0438	-3.0604	-2.7313	-3.0312	-2.9833	-2.7562	-3.1437	-2.8333	-2.8396	-3.1188	-2.7792	-2.925	-3.0333	312.947	274.679	171.160	220.324	285.191	237.319	500.712	409.892	363.626	301.017	506.744	398.008	218.327	385.455	418.103	477.345	0.00099393	0.00036385	0.00021004	452.38	2.4844e-06	1.2062e-05	579.99	94.938	8.0488e-06	7.8178e-06	167.89	51.971	21.746	6.2934	5.3474e-06	21.312	0.00088496	0.0009093	0.00025531	530.21	9.9442e-06	9.971e-06	600.67	105.17	9.9279e-06	1.0081e-05	181.42	56.75	26.49	8.128	1.004e-05	23.709	393.687	178.342	505.244	180.872	518.471	518.957	181.381	186.502	320.404	273.001	185.804	191.382	190.843	196.109	314.585	195.441	-8191	255	
1495.622	1	1	0	0	0.045274	0.21015	0.13146	0.20188	0.1116	0.24605	0.1608	0.18901	0.069668	0.34486	0.13189	0.16544	0.25379	0.28496	0.063095	0.34592	-2.3187	-3.1042	-2.8104	-2.8167	-3.1542	-2.6708	-3.0812	-3.0938	-2.8146	-3.1063	-3.1125	-2.9437	-3.1042	-2.7917	-2.9708	-2.8792	338.258	331.505	479.243	205.377	322.870	243.036	404.456	431.458	374.534	230.954	451.479	287.009	237.776	312.126	492.459	436.806	0.00066784	0.00014852	0.00016	454.4	4.9587e-06	9.1615e-06	576.6	94.949	4.9444e-06	3.8778e-06	165.48	50.983	21.293	6.1445	1.8502e-06	21.059	0.00088726	0.00091564	0.00025299	529.87	9.8849e-06	9.9538e-06	598.06	104.72	9.7588e-06	9.9064e-06	179.2	55.648	26.171	7.9964	9.8738e-06	23.369	385.893	284.880	389.031	181.846	337.292	301.189	181.495	186.373	197.881	508.348	185.867	190.788	190.689	195.908	504.311	195.561	-8191	255	
1495.694	1	1	0	0	0.15467	0.040104	0.16066	0.087679	0.059422	0.122	0.20786	0.1009	0.20833	0.13785	0.35254	0.2912	0.069445	0.14395	0.035499	0.29398	-2.4562	-3.0208	-2.8792	-2.8542	-2.9875	-2.8792	-2.9271	-3.0938	-2.8063	-3.0583	-2.7125	-2.6292	-3.075	-2.9125	-2.8792	-3.0229	454.345	492.618	207.556	209.759	412.182	421.158	403.285	523.377	507.693	205.374	502.679	452.429	243.464	314.052	508.396	492.948	0.00076338	0.00033639	0.00010948	452.84	2.5189e-06	7.6385e-06	574.69	94.633	6.0948e-06	7.16e-07	165.73	50.958	21.049	6.0751	7.2884e-06	21.246	0.00087802	0.00091743	0.00025208	527.57	9.9197e-06	9.9983e-06	595.26	104.08	9.7863e-06	9.9457e-06	178.86	55.558	26.139	7.9732	9.9065e-06	23.498	381.268	275.502	246.574	181.655	200.876	374.211	181.124	186.628	337.751	207.623	186.219	191.480	190.944	196.396	299.678	194.971	-8191	255	
1495.814	1	1	0	0	0.19011	0.11232	0.16638	0.24898	0.027437	0.19714	0.13962	0.18462	0.17934	0.19836	0.12541	0.23522	0.1359	0.18361	0.025013	0.1384	-2.3542	-3.0979	-2.925	-2.7396	-3.1896	-2.7646	-2.9042	-3.2	-2.8875	-2.9042	-2.9708	-2.75	-3.0917	-2.6625	-2.775	-3.3083	506.301	218.301	387.335	346.768	348.723	524.475	172.394	508.356	330.556	362.923	175.526	269.060	489.208	494.512	265.306	272.842	0.00056708	0.00029984	7.4402e-05	451.59	5.2754e-06	4.2124e-06	576.1	94.843	3.991e-06	2.2386e-06	163.92	51.599	21.069	6.1597	2.8841e-06	21.229	0.00090035	0.00091608	0.00025469	528.64	1.0076e-05	1.0017e-05	596.83	104.45	9.9227e-06	1.0104e-05	179.08	56.079	26.288	8.0521	1.0089e-05	23.61	407.175	193.213	221.572	181.175	352.424	246.809	181.305	186.895	320.274	209.222	185.862	191.249	190.760	196.018	186.616	195.411	-8191	255	
1495.909	1	1	0	0	0.043803	0.086346	0.078099	0.12229	0.060662	0.19979	0.26801	0.11179	0.19032	0.089853	0.13932	0.056374	0.18926	0.21948	0.080796	0.10892	-2.3146	-2.8646	-3.1188	-2.6729	-3.0438	-2.9354	-2.8646	-3.0417	-2.7938	-2.8	-3.0187	-2.6896	-3.0125	-3.0625	-2.9354	-3.0687	443.306	217.509	332.823	237.588	418.486	514.538	423.393	190.297	244.688	346.174	476.309	218.089	261.472	495.040	405.990	354.579	0.00060486	0.00046216	0.00014022	451.71	5.7277e-06	4.7426e-06	578.98	94.468	4.2932e-06	7.9211e-06	165.75	51.739	21.214	6.1851	5.5709e-06	21.398	0.00090854	0.00092482	0.00025663	529.34	9.9673e-06	9.8949e-06	598.4	104.33	9.8242e-06	9.8709e-06	179.7	56.245	26.244	8.0348	9.7337e-06	23.669	380.451	175.779	467.359	181.732	251.980	351.432	181.252	186.614	343.671	210.193	186.178	191.206	190.682	196.551	358.696	195.757	-8191	255	
1496.005	1	1	0	0	0.075294	0.017321	0.042532	0.15834	0.24461	0.15713	0.15503	0.17589	0.10373	0.094119	0.36927	0.18486	0.20504	0.070828	0.044326	0.048268	-2.4104	-3.0542	-3.0042	-2.5708	-3.0708	-2.9729	-2.875	-3.0542	-2.9917	-2.9417	-3.1063	-2.525	-3.0771	-3.0687	-2.9	-3.0771	471.785	264.838	467.981	174.381	477.455	424.319	474.370	253.555	440.261	261.623	384.900	398.573	299.620	454.452	428.330	197.932	0.00063817	0.00036055	8.2803e-05	454.19	4.3697e-06	1.6378e-06	581.19	94.586	3.5422e-06	9.2789e-07	164.81	51.223	21.462	6.089	7.2568e-06	20.974	0.00088311	0.00090783	0.00025056	530.24	9.9506e-06	9.8961e-06	599.04	104.5	9.7933e-06	9.8374e-06	178.94	55.767	26.068	7.8861	9.5976e-06	23.257	378.402	294.107	325.150	181.357	376.364	330.336	181.092	187.035	458.716	482.799	186.017	191.257	190.268	195.223	179.458	195.433	-8191	255	
1496.101	1	1	0	0	0.12301	0.095687	0.15345	0.151	0.27649	0.11144	0.1806	0.16927	0.30007	0.10691	0.13684	0.17225	0.18675	0.14574	0.080404	0.28502	-2.5917	-2.7833	-3.1625	-2.875	-3.0646	-2.9521	-2.8688	-3.225	-2.9562	-2.9813	-3.2896	-2.7208	-2.9917	-2.8854	-2.7125	-3.0521	330.521	378.652	507.160	394.039	184.987	226.410	177.836	430.703	464.761	367.293	178.749	462.652	447.842	325.552	245.027	461.094	0.00077564	0.00080314	3.9192e-05	452.77	5.5331e-06	4.6105e-06	575.44	93.742	5.9695e-06	3.5565e-06	163.06	50.133	20.897	5.9782	1.2195e-05	21.05	0.0008576	0.00087877	0.00024401	523.86	9.7302e-06	9.5601e-06	592.6	103.11	9.6186e-06	9.5934e-06	177	54.843	25.724	7.8215	9.4568e-06	23.075	379.414	382.012	210.120	181.459	246.102	373.285	181.386	186.824	293.017	313.069	186.146	191.016	190.142	195.599	315.458	195.754	-8191	255	
1496.222	1	1	0	0	0.13298	0.10138	0.15878	0.074077	0.16218	0.24106	0.08511	0.10689	0.3466	0.25842	0.10852	0.21509	0.1054	0.079583	0.1278	0.27426	-2.4125	-2.7438	-2.9917	-2.8917	-2.8354	-2.9521	-2.8458	-2.9375	-2.9979	-2.8479	-3.2771	-2.5083	-2.9292	-3.1333	-2.8229	-3.0146	208.144	496.794	198.340	338.144	443.296	240.972	468.532	490.975	307.076	343.318	477.318	312.416	329.520	426.741	426.719	517.960	0.00059099	0.00055243	4.562e-05	446.72	4.7137e-06	3.9503e-06	571.03	93.852	4.6174e-06	4.8041e-06	163.85	50.772	20.661	6.136	3.5665e-06	21.077	0.00085497	0.00086544	0.00024248	520.16	9.5657e-06	9.4612e-06	590.24	102.99	9.4678e-06	9.3696e-06	176.96	55.29	25.699	7.8826	9.5321e-06	23.336	363.772	298.622	373.426	181.862	264.663	419.933	181.110	186.714	508.234	438.928	185.859	190.959	190.976	196.501	250.268	195.795	-8191	255	
1496.293	1	1	0	0	0.073322	0.099256	0.10301	0.15457	0.27463	0.057313	0.10726	0.21658	0.22949	0.23696	0.13397	0.10039	0.052602	0.047713	0.40036	0.14649	-2.4771	-2.7104	-2.8708	-2.7354	-2.9167	-3.1875	-2.7333	-2.9229	-2.9208	-2.65	-3.0563	-3.0333	-2.7833	-3.3333	-2.7687	-2.7771	241.586	325.014	365.632	209.693	225.910	295.185	394.145	219.953	494.318	388.769	185.512	269.953	432.322	354.471	525.225	509.722	0.0006452	0.00038578	0.00026886	448.54	1.6689e-06	6.1838e-06	573.78	93.52	1.2868e-05	7.4856e-06	163.58	50.905	20.97	6.1263	3.1667e-06	21.039	0.00086555	0.00088049	0.00024991	523.58	9.7819e-06	9.8463e-06	591.85	103.31	9.8943e-06	9.9043e-06	178.26	55.619	26.14	7.9932	1.0083e-05	23.419	377.939	338.561	310.143	181.283	211.221	396.131	181.294	187.018	302.373	234.562	186.131	191.100	191.142	196.104	202.228	195.425	-8191	255	
1496.390	1	1	0	0	0.18152	0.30364	0.16144	0.3037	0.1887	0.041961	0.15474	0.183	0.21921	0.08545	0.049163	0.41005	0.22625	0.092026	0.12554	0.23147	-2.5896	-2.7229	-3.1583	-2.8146	-2.9458	-3.0646	-2.8333	-2.9958	-2.9771	-2.65	-3.1333	-2.9	-2.8833	-3.1083	-2.6542	-2.9958	355.796	240.316	372.367	412.816	465.700	198.913	519.880	459.859	341.147	421.167	204.963	513.126	483.005	523.509	461.017	301.168	0.00071575	0.0002781	0.00013645	448.06	2.6032e-06	9.2807e-06	574.86	93.433	9.5578e-06	8.2896e-06	164.15	51.383	21.048	6.0922	1.2417e-05	21.109	0.0009038	0.00092553	0.00025765	529.58	1.0061e-05	1.0118e-05	594.83	104.02	1.0212e-05	1.0201e-05	179.13	56.145	26.25	8.0319	1.0344e-05	23.547	394.512	186.154	299.231	181.674	205.983	418.375	181.497	186.524	327.559	420.711	186.226	190.896	191.024	196.105	392.244	195.551	-8191	255	
1496.510	1	1	0	0	0.07489	0.20809	0.13819	0.065031	0.13798	0.025541	0.10191	0.098481	0.15852	0.18677	0.12989	0.1218	0.18823	0.23867	0.13341	0.092221	-2.7042	-2.6292	-3.0083	-3.025	-2.7583	-3.0208	-2.9792	-3.05	-3.0438	-2.6958	-3.1	-2.9958	-2.85	-3.0625	-2.7208	-2.9208	350.168	513.793	311.332	189.413	497.906	358.358	435.944	433.248	507.723	271.740	211.146	472.036	180.187	175.593	343.037	169.185	0.00049524	0.00018678	0.00011758	449.35	7.8742e-06	1.2365e-05	574.37	92.299	1.2019e-05	2.8287e-06	161.4	50.052	20.464	5.9636	5.3728e-06	20.589	0.00091607	0.00093726	0.00026411	528.84	1.0287e-05	1.0302e-05	592.32	103.05	1.0255e-05	1.0333e-05	177.14	55.02	25.881	7.9308	1.0426e-05	22.924	391.648	199.799	289.423	180.975	279.854	313.640	181.199	186.314	290.193	499.171	186.053	190.965	191.211	196.402	243.316	195.262	-8191	255	
1496.606	1	1	0	0	0.10932	0.22216	0.087778	0.2225	0.17651	0.04109	0.11681	0.060628	0.11651	0.021941	0.23812	0.11486	0.17822	0.11555	0.19704	0.29977	-2.5312	-2.7625	-3.0354	-3.0396	-2.8021	-3.2271	-3.05	-2.8937	-3.0583	-2.7708	-2.9479	-3.0792	-2.7208	-2.9583	-3.0292	-2.8229	331.736	503.313	200.721	463.611	451.930	511.751	515.766	312.583	448.972	320.341	280.029	517.743	297.943	186.518	259.259	492.570	0.00074833	0.00075969	0.00011505	447.21	7.156e-06	5.7442e-06	564.76	92.192	5.6264e-06	2.525e-06	160.95	49.57	20.296	5.8209	1.3792e-06	20.306	0.00092609	0.00094926	0.00026455	525.35	1.0254e-05	1.0435e-05	587.9	102.35	1.0284e-05	1.0362e-05	175.66	54.571	25.703	7.8134	1.0295e-05	22.8	385.229	267.736	488.189	181.612	520.761	334.950	181.406	186.719	274.744	303.260	185.888	190.934	190.638	195.550	202.694	195.387	-8191	255	
1496.703	1	1	0	0	0.13713	0.16661	0.17898	0.29415	0.043093	0.13031	0.085972	0.24086	0.2405	0.30247	0.081019	0.10645	0.07143	0.16192	0.053856	0.1226	-2.7417	-2.8021	-3.0125	-3.0083	-2.8229	-2.9479	-2.7958	-2.7646	-3.2062	-2.8604	-3.1604	-2.8854	-2.7354	-3.1063	-2.9146	-2.8292	394.999	272.813	269.051	510.434	210.362	409.624	485.153	473.428	292.564	249.868	502.619	306.764	426.928	196.686	267.349	363.612	0.00073759	0.00052137	0.00012848	442.92	3.131e-06	5.8225e-06	562.04	91.361	6.3127e-06	6.0363e-06	160.03	50.019	20.334	5.8468	7.6338e-06	20.468	0.00091854	0.00095049	0.00026519	523.65	1.0338e-05	1.0453e-05	587.71	102.18	1.0325e-05	1.0409e-05	175.49	54.83	25.781	7.8758	1.0446e-05	22.896	407.186	397.865	206.290	181.795	470.458	437.177	181.277	186.380	276.405	258.085	185.972	191.235	190.807	195.801	185.163	195.234	-8191	255	
1496.821	1	1	0	0	0.019351	0.050625	0.086273	0.08437	0.2194	0.28045	0.25712	0.29373	0.13775	0.087016	0.32234	0.22804	0.080559	0.17094	0.14847	0.24883	-2.8521	-2.7	-2.7604	-3.2646	-2.5333	-3.0229	-3.0354	-2.8958	-3.1312	-3.0479	-2.8479	-3.1688	-2.7021	-3.1125	-3.1562	-2.8312	424.070	370.092	456.807	413.739	473.699	296.696	485.017	342.172	314.938	471.318	350.325	277.863	248.707	476.595	503.134	280.433	0.00071107	0.00058399	3.3167e-05	440.3	4.8363e-06	2.1805e-06	567.71	90.858	7.0354e-06	5.5963e-06	161.13	49.352	20.557	5.8981	5.7266e-06	20.445	0.0009279	0.00094946	0.0002649	524.76	1.0487e-05	1.0542e-05	589.14	102.07	1.0484e-05	1.0552e-05	176.2	54.886	25.898	7.9133	1.059e-05	22.941	353.250	205.032	352.462	181.665	521.632	304.195	181.119	186.702	478.265	246.014	185.717	191.305	190.093	195.814	348.840	195.452	-8191	255	
1496.918	1	1	0	0	0.11966	0.17963	0.12066	0.037926	0.13027	0.053965	0.20998	0.10226	0.19073	0.062452	0.020374	0.15142	0.21326	0.24109	0.13041	0.099687	-2.7229	-2.9333	-2.8896	-3.0458	-2.9708	-3.0958	-3.0542	-2.8312	-2.9188	-2.8854	-2.9417	-3.175	-2.8021	-2.8875	-3.0229	-2.8479	410.068	189.158	491.821	436.862	507.887	451.100	490.526	299.830	393.722	310.027	168.994	224.200	484.561	483.340	378.658	219.746	0.00066944	0.00024392	4.8183e-05	441.9	4.2434e-06	3.8509e-06	565.64	91.185	6.8614e-06	9.582e-07	159.02	49.296	20.13	5.8676	1.0153e-05	20.161	0.00094333	0.00097374	0.00027019	528.29	1.0609e-05	1.0745e-05	588.88	102.02	1.0587e-05	1.064e-05	175.1	54.372	25.655	7.8412	1.0621e-05	22.677	364.782	517.922	348.771	181.535	411.742	265.532	180.886	186.471	194.602	185.050	185.976	190.961	190.851	195.288	300.196	195.401	-8191	255	
1496.989	1	1	0	0	0.22846	0.12252	0.13684	0.12257	0.20743	0.11221	0.35929	0.10302	0.10053	0.039674	0.16115	0.19858	0.082831	0.12452	0.16678	0.25057	-2.7292	-2.9333	-2.9458	-3.275	-2.7313	-3.1125	-3.0708	-2.65	-3.0271	-2.9271	-2.8063	-3.1063	-2.7896	-2.8958	-3.0917	-2.6896	418.524	324.573	307.301	379.091	327.030	457.120	168.909	494.537	427.671	482.641	425.705	370.072	413.259	501.953	289.718	266.337	0.00052062	0.00034627	0.00015587	441.11	3.1746e-06	1.4579e-06	561.9	89.817	1.1444e-05	6.7657e-06	157.69	48.572	20.048	5.7037	8.3563e-06	19.8	0.00095684	0.00097163	0.00027188	524.54	1.0818e-05	1.0788e-05	582.54	100.97	1.0708e-05	1.0736e-05	173.36	53.941	25.607	7.766	1.0756e-05	22.54	398.548	202.452	448.920	181.670	492.708	440.293	181.308	186.387	358.458	377.115	185.855	191.407	190.849	196.281	382.526	195.508	-8191	255	
1497.110	1	1	0	0	0.21086	0.11358	0.017695	0.14253	0.18587	0.14755	0.23942	0.18684	0.11738	0.048686	0.22222	0.19581	0.2134	0.26437	0.05284	0.045941	-2.5312	-2.8083	-2.85	-3.0687	-2.7687	-2.9458	-3.0896	-2.6833	-3.0687	-3.0792	-2.7167	-3.1208	-2.7875	-2.8125	-3.075	-2.7771	233.766	367.896	496.956	501.377	200.554	494.498	443.321	455.593	436.448	271.784	504.399	459.418	213.804	191.087	170.721	429.003	0.0007619	0.00059111	0.00017804	438.32	1.3543e-06	2.8757e-06	561.07	90.412	8.3218e-06	1.1853e-05	156.97	48.688	20.244	5.7163	4.0744e-06	19.992	0.0009637	0.00098344	0.0002706	524.32	1.0635e-05	1.0535e-05	583.4	101.04	1.0514e-05	1.062e-05	173.25	53.903	25.491	7.716	1.0393e-05	22.472	380.725	363.646	261.416	181.220	475.637	298.962	181.406	186.253	422.914	283.934	186.319	191.015	190.529	196.571	311.733	195.716	-8191	255	
1497.206	1	1	0	0	0.15621	0.18755	0.13213	0.2942	0.19005	0.16662	0.12635	0.094819	0.21411	0.040325	0.26248	0.19488	0.25125	0.12538	0.10292	0.29765	-2.4604	-2.9708	-2.6312	-3.0146	-2.9188	-2.85	-3.1333	-2.6833	-3.0521	-3.0312	-2.6792	-3.0458	-2.9333	-2.825	-3.075	-3.0187	352.596	387.735	328.792	260.552	502.952	200.739	262.816	371.035	320.153	391.343	462.432	299.932	341.984	216.461	463.551	501.012	0.00057914	0.0008414	0.00019546	435.78	7.2488e-06	3.0038e-06	558.18	89.194	4.4196e-06	9.8256e-06	157.18	48.955	20.15	5.728	4.4139e-06	20.163	0.00093842	0.00095847	0.00026771	520.74	1.0434e-05	1.0489e-05	581.31	100.61	1.0573e-05	1.0565e-05	173.2	54.085	25.505	7.7559	1.069e-05	22.657	354.421	215.344	319.155	181.828	174.321	430.589	181.085	186.855	222.763	338.886	185.561	190.847	190.473	196.302	340.614	195.799	-8191	255	
1497.302	1	1	0	0	0.13528	0.12675	0.070079	0.27363	0.24241	0.25554	0.15699	0.16377	0.24616	0.07202	0.17363	0.30855	0.035843	0.18222	0.079908	0.11303	-2.2417	-3.1375	-2.7292	-3.0646	-2.6979	-2.725	-3.2062	-2.6833	-2.9833	-3.1771	-2.8875	-3.0771	-2.6625	-2.7375	-3.05	-2.8333	353.048	449.270	326.014	211.964	485.574	343.396	464.977	287.647	324.961	420.241	208.863	477.442	523.106	299.779	273.857	404.695	0.00079021	0.00046971	5.5617e-05	438.98	9.3578e-06	5.9677e-06	562.11	89.529	7.5456e-06	3.3451e-06	157.22	48.83	19.761	5.7994	4.0128e-06	19.996	0.00095669	0.0009753	0.00027326	522.12	1.0764e-05	1.0655e-05	584.5	100.68	1.0678e-05	1.0712e-05	173.21	54.209	25.41	7.7723	1.067e-05	22.523	394.192	184.880	318.654	182.402	328.755	362.822	181.196	186.707	316.815	274.262	185.778	190.659	191.312	194.680	340.094	195.438	-8191	255	
1497.398	1	1	0	0	0.26079	0.1624	0.16827	0.13271	0.12628	0.17991	0.31483	0.12498	0.13149	0.11996	0.19914	0.020821	0.10612	0.2576	0.22095	0.19433	-2.5583	-3.1688	-2.8083	-3.0229	-3.075	-2.9813	-3.2979	-2.925	-2.8729	-3.0896	-2.6813	-3.0208	-2.8021	-2.5896	-3.1937	-2.8583	521.192	373.762	224.915	393.508	208.257	510.604	485.544	258.881	272.868	449.965	383.187	289.393	258.575	420.488	421.429	423.119	0.00069483	0.00048384	0.00022538	434	3.383e-06	9.2915e-06	556.33	88.664	2.3196e-06	2.4579e-06	155.74	47.517	19.278	5.5853	1.9112e-05	19.458	0.00094956	0.00096834	0.00027038	519.44	1.0692e-05	1.0563e-05	577.97	99.497	1.0537e-05	1.0557e-05	171.42	52.945	24.927	7.561	1.0534e-05	21.955	363.642	180.411	486.227	181.637	352.762	312.472	181.203	186.072	306.867	249.055	185.626	190.704	191.129	196.223	250.389	195.452	-8191	255	
1497.519	1	1	0	0	0.095502	0.18509	0.21176	0.077879	0.22885	0.25258	0.22829	0.12954	0.22942	0.28463	0.090681	0.16229	0.25127	0.14607	0.14344	0.22883	-2.5583	-2.8375	-2.7167	-3.0333	-3.1125	-2.8271	-3.2062	-2.7396	-2.7771	-3.0354	-2.75	-2.8167	-2.9042	-2.8208	-3.0479	-2.9104	397.641	470.308	438.018	372.022	206.793	325.087	466.471	467.772	413.013	174.758	444.008	188.464	280.266	291.131	217.438	274.039	0.00062282	0.0005031	0.00021778	430	2.6544e-06	9.8582e-06	549.27	87.504	8.7559e-06	8.5662e-07	153.93	46.993	19.422	5.5403	1.3524e-05	19.262	0.00095192	0.00097129	0.00027058	513.38	1.0633e-05	1.0649e-05	574.4	98.669	1.0622e-05	1.0786e-05	170.38	52.794	24.942	7.5601	1.0765e-05	21.861	395.918	271.227	317.729	181.882	314.730	367.888	181.550	186.523	357.992	237.252	185.913	190.426	190.099	195.712	436.194	195.399	-8191	255	
1497.591	1	1	0	0	0.053692	0.31306	0.093668	0.19442	0.21938	0.035249	0.21627	0.17028	0.10509	0.18935	0.1536	0.18621	0.19709	0.22511	0.027673	0.12453	-2.2938	-3.0979	-2.8229	-3.0771	-2.9292	-2.7375	-3.1333	-2.9396	-2.65	-3.1875	-2.8708	-2.9708	-3.2646	-2.7104	-3.1583	-3.2188	381.642	263.238	363.607	487.294	521.196	192.728	470.232	523.904	504.127	525.830	453.041	246.432	462.590	435.542	375.000	463.325	0.00043864	0.00090723	8.7885e-05	429.87	8.4635e-06	5.1955e-06	548.97	87.331	5.3438e-06	6.4969e-06	152.6	46.963	19.143	5.4767	4.9668e-06	19.162	0.00096739	0.0010019	0.00027894	516.45	1.0954e-05	1.0948e-05	573.9	98.776	1.09e-05	1.1057e-05	169.64	52.797	25.036	7.5945	1.0976e-05	21.91	378.683	357.625	320.061	181.951	196.774	355.081	181.312	186.948	218.687	249.082	185.317	191.454	191.409	194.970	258.639	195.342	-8191	255	
1497.687	1	1	0	0	0.32212	0.15495	0.074265	0.063865	0.1292	0.24239	0.10162	0.16035	0.11994	0.084142	0.25819	0.20509	0.13279	0.038277	0.18526	0.21408	-2.2833	-3.1958	-2.5938	-2.775	-3.1729	-2.7792	-2.9521	-2.9354	-2.3979	-3.225	-3.0312	-2.7188	-3.2	-2.8354	-3.0187	-3.0271	334.683	305.423	448.735	311.324	487.384	249.274	512.850	411.573	408.133	439.977	185.708	513.796	268.558	342.439	363.724	234.392	0.00067817	0.00055815	9.7868e-05	426.98	5.2869e-06	2.1506e-06	551.56	86.168	4.8006e-06	7.8696e-06	154.37	47.27	19.353	5.5133	6.7018e-06	19.431	0.00098049	0.0010151	0.00028167	518.52	1.1107e-05	1.112e-05	574.98	98.621	1.099e-05	1.1196e-05	170.64	52.965	25.116	7.6026	1.1011e-05	21.998	382.334	465.123	302.572	181.924	424.441	274.258	181.166	186.902	380.669	209.515	185.704	191.272	190.065	195.866	297.132	195.033	-8191	255	
1497.783	1	1	0	0	0.013976	0.31434	0.1975	0.075147	0.33096	0.25945	0.24118	0.27665	0.32185	0.03766	0.47324	0.13059	0.1294	0.20309	0.15188	0.30112	-2.2833	-2.9271	-2.8875	-2.825	-2.9917	-3.0375	-2.9708	-2.8688	-2.9646	-3.1833	-2.8854	-2.7438	-3.1021	-3.0708	-2.6625	-3.0604	472.680	516.898	278.754	419.658	282.186	245.500	213.476	446.059	408.618	496.934	304.231	340.846	320.109	496.504	200.320	320.436	0.00064164	0.00028797	8.8385e-05	426.45	6.3609e-07	5.7419e-06	553.01	86.524	1.7774e-06	4.7981e-06	153.04	46.851	19.221	5.5062	6.6468e-06	19.255	0.00098084	0.001016	0.00028276	516.79	1.1156e-05	1.1117e-05	574.84	98.391	1.094e-05	1.1124e-05	169.87	52.496	24.9	7.5382	1.0873e-05	21.77	388.811	302.702	295.809	181.044	246.555	210.954	181.214	186.150	283.862	322.094	185.940	190.936	190.707	195.923	415.158	195.012	-8191	255	
1497.902	1	1	0	0	0.21453	0.22923	0.064299	0.16773	0.13338	0.20763	0.18007	0.20228	0.031552	0.12829	0.38815	0.086491	0.11084	0.29348	0.27217	0.033266	-2.2562	-2.9708	-2.9854	-2.7625	-3.0417	-2.8104	-3.1042	-3.0396	-2.7417	-3.1771	-3.0958	-2.7833	-2.8937	-2.8937	-2.8167	-3.0708	484.675	451.452	180.917	451.820	480.281	336.889	444.241	435.578	350.817	481.333	442.356	503.837	309.463	175.467	412.113	528.124	0.00041247	0.00028713	0.00010211	427	1.2222e-06	2.8787e-06	541.5	86.008	5.0576e-06	8.2463e-06	151.32	46.534	18.862	5.3443	8.3277e-06	18.925	0.00096904	0.00099986	0.00027882	512.95	1.0976e-05	1.0999e-05	569.81	97.329	1.0853e-05	1.1038e-05	167.89	51.947	24.578	7.4399	1.0813e-05	21.577	403.301	214.053	222.140	181.736	528.701	442.155	181.338	186.782	337.927	376.224	185.448	191.006	190.540	195.769	368.480	195.366	-8191	255	
1497.998	1	1	0	0	0.15521	0.081673	0.21061	0.12657	0.16879	0.27183	0.12172	0.17546	0.13827	0.04037	0.29831	0.050259	0.057817	0.12168	0.082739	0.022286	-2.5312	-3.0896	-2.9875	-2.9042	-3.05	-2.9917	-2.8458	-3.1188	-2.8	-3.1396	-2.9646	-2.7021	-3.1208	-2.8542	-2.6292	-3.2354	341.742	219.242	301.731	178.880	234.679	261.045	440.730	393.280	526.779	442.037	346.301	332.923	332.935	372.332	383.876	403.549	0.00062483	0.00042669	8.8894e-05	420.49	2.6501e-06	4.677e-06	546.96	85.69	5.0181e-06	6.8119e-06	151.47	46.442	19.07	5.4325	3.2915e-06	19.056	0.00096571	0.0010018	0.00027553	512.08	1.0969e-05	1.0902e-05	569.28	97.267	1.0699e-05	1.0921e-05	167.72	51.992	24.675	7.4732	1.0725e-05	21.618	390.209	216.362	208.997	181.063	445.854	488.899	181.220	186.230	388.123	313.623	185.604	190.781	190.314	194.924	438.364	195.125	-8191	255	
1498.094	1	1	0	0	0.11438	0.19709	0.073619	0.27268	0.12076	0.10492	0.1958	0.059369	0.079346	0.22613	0.20369	0.25779	0.090819	0.10994	0.15223	0.3199	-2.5812	-2.8729	-2.9708	-2.8104	-3.1396	-2.9813	-2.9208	-3.05	-3.0958	-2.9667	-3.125	-2.7687	-3.0479	-2.8625	-2.7812	-3.1625	445.321	444.886	214.895	196.355	371.911	263.621	174.302	298.709	201.121	399.419	503.645	451.602	324.993	260.034	496.462	493.647	0.00050854	0.00038975	8.9525e-05	424.39	2.5773e-06	2.3261e-06	549.46	86.191	5.4852e-06	8.5514e-06	152.24	46.779	19.18	5.4288	3.2731e-06	19.1	0.00096114	0.00099587	0.0002733	510.53	1.0925e-05	1.0851e-05	570.26	97.449	1.0723e-05	1.086e-05	168.57	52.248	24.813	7.5001	1.072e-05	21.772	385.941	355.717	358.596	181.688	452.456	476.060	180.930	186.561	324.419	348.559	185.792	190.935	190.268	195.471	190.655	195.306	-8191	255	
1498.190	1	1	0	0	0.20014	0.20264	0.033761	0.10506	0.15372	0.15777	0.37544	0.36492	0.093221	0.094735	0.28718	0.11383	0.061403	0.053215	0.14417	0.29251	-2.3896	-2.7021	-3.2792	-2.8771	-3.0563	-3.0979	-2.9417	-3.1396	-2.9979	-2.95	-3.0083	-2.8208	-2.9979	-3.0958	-2.8396	-3.1833	291.254	375.020	324.531	246.641	267.163	354.164	424.731	460.875	392.181	196.908	480.100	334.418	199.836	172.693	353.791	435.383	0.00052806	0.00054735	0.00019835	425.75	4.0256e-06	3.9308e-06	549.27	86.269	1.2446e-05	4.486e-06	152.3	47.375	19.13	5.509	9.0333e-06	19.227	0.00096934	0.00099419	0.00027502	511.67	1.0862e-05	1.0787e-05	572	97.764	1.0614e-05	1.0771e-05	169.19	52.58	24.818	7.5287	1.0738e-05	21.784	388.466	174.692	503.699	181.511	228.949	401.774	180.901	186.602	330.848	361.555	185.698	190.812	191.347	195.275	214.417	195.929	-8191	255	
1498.286	1	1	0	0	0.25438	0.093914	0.061062	0.055596	0.11755	0.087449	0.13936	0.2281	0.16801	0.078045	0.042989	0.030387	0.21228	0.026649	0.16095	0.078073	-2.3229	-2.8771	-2.8917	-2.7687	-2.9562	-3.0396	-2.8187	-2.9938	-2.9958	-2.9542	-2.9625	-2.625	-2.9667	-3.0083	-2.65	-3.025	496.365	396.359	345.322	461.106	487.029	489.317	490.488	368.847	430.225	454.169	461.289	505.174	397.272	270.646	381.652	440.115	0.00042239	0.00036598	8.0422e-05	420.59	5.5688e-06	8.3044e-06	546.38	86.421	1.0673e-05	1.8925e-06	151.33	46.009	18.698	5.3727	1.2374e-05	18.759	0.00095405	0.00098077	0.00027007	508.76	1.0682e-05	1.0666e-05	568.77	97.202	1.0655e-05	1.0733e-05	166.77	51.641	24.417	7.3983	1.0608e-05	21.35	342.117	321.874	271.845	181.792	355.757	233.330	181.075	186.203	292.663	374.070	185.423	190.824	191.194	195.412	247.366	195.162	-8191	255	
#DATA ENDS
