BOXY.EXE: ISS Imagent and Oximeter Data Acquisition Program Version 0.80
Ascii Record File

#ACQ INFORMATION
2  Detector Channels 
16  External MUX Channels 
1  Auxiliary Channels 
5000  Waveform (CCF) Frequency (Hz)
1  Waveforms Skipped 
30  Waveforms Averaged 
1  Cycles Averaged 
16  Acquisitions per Waveform 
10.0806  Updata Rate (Hz) 

#FILE INFORMATION
TRUE -- External MUX Channel results are PARSED.
FALSE -- AC DC and Phase are NOT grouped.
TRUE -- Companion Program Settings File CREATED.
FALSE -- AC data not excluded
FALSE -- DC data not excluded
FALSE -- Phase data not excluded
FALSE -- Auxillary Chn. data not excluded
Tab delimiters

#CALIBRATION STATE
TRUE -- Waveform Calibration Values APPLIED.


#AUX CALIBRATION VALUES
Val Type	aux-1	

Term	1.0000e+00	
Factor	0.0000e+00	


#WF CALIBRATION VALUES
A = Detector Channel
Val Type	A-AC1	A-AC2	A-AC3	A-AC4	A-AC5	A-AC6	A-AC7	A-AC8	A-AC9	A-AC10	A-AC11	A-AC12	A-AC13	A-AC14	A-AC15	A-AC16	A-DC1	A-DC2	A-DC3	A-DC4	A-DC5	A-DC6	A-DC7	A-DC8	A-DC9	A-DC10	A-DC11	A-DC12	A-DC13	A-DC14	A-DC15	A-DC16	A-Ph1	A-Ph2	A-Ph3	A-Ph4	A-Ph5	A-Ph6	A-Ph7	A-Ph8	A-Ph9	A-Ph10	A-Ph11	A-Ph12	A-Ph13	A-Ph14	A-Ph15	A-Ph16	

Term	0.00000e+00	0.00000e+00	0.00000e+00	0.00000e+00	0.00000e+00	0.00000e+00	0.00000e+00	0.00000e+00	0.00000e+00	0.00000e+00	0.00000e+00	0.00000e+00	0.00000e+00	0.00000e+00	0.00000e+00	0.00000e+00	0.00000e+00	0.00000e+00	0.00000e+00	0.00000e+00	0.00000e+00	0.00000e+00	0.00000e+00	0.00000e+00	0.00000e+00	0.00000e+00	0.00000e+00	0.00000e+00	0.00000e+00	0.00000e+00	0.00000e+00	0.00000e+00	0.00000e+00	0.00000e+00	0.00000e+00	0.00000e+00	0.00000e+00	0.00000e+00	0.00000e+00	0.00000e+00	0.00000e+00	0.00000e+00	0.00000e+00	0.00000e+00	0.00000e+00	0.00000e+00	0.00000e+00	0.00000e+00	
Factor	1.00000e+00	1.00000e+00	1.00000e+00	1.00000e+00	1.00000e+00	1.00000e+00	1.00000e+00	1.00000e+00	1.00000e+00	1.00000e+00	1.00000e+00	1.00000e+00	1.00000e+00	1.00000e+00	1.00000e+00	1.00000e+00	1.00000e+00	1.00000e+00	1.00000e+00	1.00000e+00	1.00000e+00	1.00000e+00	1.00000e+00	1.00000e+00	1.00000e+00	1.00000e+00	1.00000e+00	1.00000e+00	1.00000e+00	1.00000e+00	1.00000e+00	1.00000e+00	X	X	X	X	X	X	X	X	X	X	X	X	X	X	X	X	

B = Detector Channel
Val Type	B-AC1	B-AC2	B-AC3	B-AC4	B-AC5	B-AC6	B-AC7	B-AC8	B-AC9	B-AC10	B-AC11	B-AC12	B-AC13	B-AC14	B-AC15	B-AC16	B-DC1	B-DC2	B-DC3	B-DC4	B-DC5	B-DC6	B-DC7	B-DC8	B-DC9	B-DC10	B-DC11	B-DC12	B-DC13	B-DC14	B-DC15	B-DC16	B-Ph1	B-Ph2	B-Ph3	B-Ph4	B-Ph5	B-Ph6	B-Ph7	B-Ph8	B-Ph9	B-Ph10	B-Ph11	B-Ph12	B-Ph13	B-Ph14	B-Ph15	B-Ph16	

Term	0.00000e+00	0.00000e+00	0.00000e+00	0.00000e+00	0.00000e+00	0.00000e+00	0.00000e+00	0.00000e+00	0.00000e+00	0.00000e+00	0.00000e+00	0.00000e+00	0.00000e+00	0.00000e+00	0.00000e+00	0.00000e+00	0.00000e+00	0.00000e+00	0.00000e+00	0.00000e+00	0.00000e+00	0.00000e+00	0.00000e+00	0.00000e+00	0.00000e+00	0.00000e+00	0.00000e+00	0.00000e+00	0.00000e+00	0.00000e+00	0.00000e+00	0.00000e+00	-1.70999e+02	-1.26624e+02	-1.31946e+02	-1.81681e+02	-8.38430e+01	-6.15144e+01	-1.55768e+02	-1.62015e+02	-8.17298e+01	-6.09818e+01	-1.73366e+02	-1.70201e+02	-1.85495e+02	-1.76578e+02	-7.50407e+01	-1.48946e+02	
Factor	2.98320e-05	1.70198e-04	4.81572e-05	1.97322e-01	1.68102e-06	1.85928e-06	1.81490e-01	5.63415e-02	1.68352e-06	1.92753e-06	1.03880e-01	3.00027e-02	5.63894e-02	9.68439e-03	1.64368e-06	1.34226e-02	1.04390e-05	1.42882e-05	3.99355e-06	1.02381e-01	1.49160e-07	1.58564e-07	8.84142e-02	2.93229e-02	1.48249e-07	1.58193e-07	5.25074e-02	1.52244e-02	2.95252e-02	5.08567e-03	1.51927e-07	6.84643e-03	X	X	X	X	X	X	X	X	X	X	X	X	X	X	X	X	



#DISTANCE SETTINGS
A = Detector Channel
A-1	A-2	A-3	A-4	A-5	A-6	A-7	A-8	A-9	A-10	A-11	A-12	A-13	A-14	A-15	A-16	

2.5000e+00	3.0000e+00	2.5000e+00	3.0000e+00	2.0000e+00	3.0000e+00	1.5000e+00	3.0000e+00	3.0000e+00	3.0000e+00	3.0000e+00	3.0000e+00	3.0000e+00	3.0000e+00	1.5000e+00	3.0000e+00	

B = Detector Channel
B-1	B-2	B-3	B-4	B-5	B-6	B-7	B-8	B-9	B-10	B-11	B-12	B-13	B-14	B-15	B-16	

1.0000e+01	1.0000e+01	1.0000e+01	1.4400e+00	1.0000e+01	1.0000e+01	1.5100e+00	1.9400e+00	1.0000e+01	1.0000e+01	1.9900e+00	2.4900e+00	2.4100e+00	2.9000e+00	1.0000e+01	2.9800e+00	




#DATA BEGINS
time	group	step	mark	flag	A-AC1	A-AC2	A-AC3	A-AC4	A-AC5	A-AC6	A-AC7	A-AC8	A-AC9	A-AC10	A-AC11	A-AC12	A-AC13	A-AC14	A-AC15	A-AC16	A-DC1	A-DC2	A-DC3	A-DC4	A-DC5	A-DC6	A-DC7	A-DC8	A-DC9	A-DC10	A-DC11	A-DC12	A-DC13	A-DC14	A-DC15	A-DC16	A-Ph1	A-Ph2	A-Ph3	A-Ph4	A-Ph5	A-Ph6	A-Ph7	A-Ph8	A-Ph9	A-Ph10	A-Ph11	A-Ph12	A-Ph13	A-Ph14	A-Ph15	A-Ph16	B-AC1	B-AC2	B-AC3	B-AC4	B-AC5	B-AC6	B-AC7	B-AC8	B-AC9	B-AC10	B-AC11	B-AC12	B-AC13	B-AC14	B-AC15	B-AC16	B-DC1	B-DC2	B-DC3	B-DC4	B-DC5	B-DC6	B-DC7	B-DC8	B-DC9	B-DC10	B-DC11	B-DC12	B-DC13	B-DC14	B-DC15	B-DC16	B-Ph1	B-Ph2	B-Ph3	B-Ph4	B-Ph5	B-Ph6	B-Ph7	B-Ph8	B-Ph9	B-Ph10	B-Ph11	B-Ph12	B-Ph13	B-Ph14	B-Ph15	B-Ph16	aux-1	digaux	

20995.186	1	1	0	768	0.28462	0.15399	0.14804	0.29626	0.092603	0.18544	0.27424	0.14524	0.011996	0.067277	0.088432	0.066825	0.36132	0.090259	0.15849	0.19065	-2.5542	-2.3417	-2.6333	-2.8208	-2.4979	-2.7583	-2.9375	-2.5625	-2.9188	-2.3917	-2.6292	-2.6833	-2.3771	-2.6042	-2.525	-2.4604	54.276	207.071	-106.386	130.759	126.702	-44.385	233.974	101.964	17.124	116.632	27.886	18.322	141.105	-27.475	73.990	153.203	0.00033974	0.00046139	0.00013064	1367.5	5.536e-07	4.2785e-06	1359.7	369.09	1.9265e-06	3.4545e-06	421.15	140.19	121.94	42.201	3.3801e-06	51.726	0.00053978	0.00055236	0.00015328	1379.8	5.8927e-06	5.8411e-06	1374.1	374.4	5.9395e-06	6.0113e-06	427.22	143.24	124.78	42.977	5.8514e-06	53.171	156.630	-34.898	-38.323	-96.851	1.743	70.932	-97.097	-92.485	-51.588	38.037	-92.879	-89.066	-88.582	-83.186	25.813	-84.009	-8191	255	
20995.281	1	1	0	0	0.099255	0.11774	0.33189	0.1311	0.11052	0.063588	0.17075	0.24263	0.071577	0.18558	0.11938	0.19278	0.010828	0.34356	0.14414	0.21153	-2.2729	-2.6083	-2.5104	-2.8958	-2.3479	-2.6917	-2.8937	-2.6354	-2.8771	-2.6146	-2.7833	-2.7917	-2.4146	-2.9333	-2.7729	-2.5521	214.673	-72.009	30.566	-110.150	16.429	206.416	233.118	137.931	27.766	204.280	-65.848	183.290	244.670	174.345	-85.768	168.395	0.00037216	0.00053517	0.00015037	1368.2	4.2507e-06	3.4747e-06	1354.2	368.6	2.5468e-06	3.9891e-06	421.36	140.02	121.34	41.985	2.4762e-06	51.692	0.00052045	0.00054959	0.0001514	1379.5	5.9717e-06	5.8864e-06	1374.4	374.42	6.0109e-06	5.8732e-06	428.2	143.27	124.37	42.921	5.9172e-06	53.222	163.722	-32.796	-35.052	-96.824	29.831	39.533	-96.878	-92.340	-12.982	32.544	-92.863	-88.572	-88.646	-83.178	22.431	-83.993	-8191	255	
20995.377	1	1	0	0	0.22483	0.12424	0.17995	0.1563	0.13283	0.12296	0.25979	0.32574	0.31591	0.32015	0.2695	0.19413	0.08844	0.12247	0.092184	0.1433	-2.3042	-2.4375	-2.3625	-2.8979	-2.4208	-2.5667	-2.8625	-2.5812	-2.8104	-2.6229	-2.5229	-2.9167	-2.4167	-2.7875	-2.6	-2.6875	168.757	104.915	18.183	186.993	157.965	-19.328	192.626	144.892	51.119	236.833	170.600	175.141	15.360	105.987	55.626	88.961	0.00039517	0.0006098	0.00010168	1370.1	4.3388e-06	4.5706e-06	1355.9	369.12	2.7546e-06	5.6987e-06	422.34	140.4	121.54	42.091	3.7886e-06	51.889	0.00055316	0.00054066	0.00015442	1380.7	5.9844e-06	5.9564e-06	1376.7	374.69	5.8722e-06	6.0911e-06	428.09	143.21	124.82	43.044	5.9729e-06	53.17	157.295	-38.971	-24.177	-96.742	0.135	73.359	-96.972	-92.390	-25.541	43.721	-92.696	-88.769	-88.677	-83.091	18.908	-83.798	-8191	255	
20995.475	1	1	0	0	0.040981	0.17671	0.12325	0.28394	0.036972	0.13384	0.26353	0.2071	0.059678	0.16901	0.18471	0.21945	0.17608	0.071694	0.21871	0.24238	-2.3417	-2.4771	-2.4979	-2.9896	-2.4792	-2.6583	-2.7875	-2.5021	-2.7938	-2.5521	-2.4896	-2.7833	-2.5458	-2.6229	-2.8208	-2.6063	130.284	25.225	-61.503	245.252	228.653	117.072	112.447	102.298	116.712	-16.845	206.141	228.529	-61.304	115.261	171.609	-81.107	0.00033673	0.0003841	0.00013713	1364.7	3.502e-06	3.3922e-06	1356.6	368.36	4.1818e-06	5.3518e-06	421.24	139.83	122.34	42.038	3.5945e-06	51.63	0.00053156	0.00054143	0.00015112	1380.7	5.9425e-06	5.8332e-06	1374.3	374.13	6.0044e-06	5.6877e-06	427.91	142.95	124.83	42.973	5.9859e-06	53.203	158.997	0.709	-51.758	-96.867	73.990	39.264	-97.045	-92.504	-2.830	39.886	-92.849	-88.626	-88.306	-83.489	38.388	-84.110	-8191	255	
20995.570	1	1	0	0	0.16132	0.2143	0.075168	0.24404	0.15462	0.30632	0.19965	0.34458	0.20848	0.045864	0.3091	0.23502	0.10663	0.28848	0.037637	0.14636	-2.1771	-2.5333	-2.4146	-2.7417	-2.4021	-2.4437	-3.0021	-2.4271	-2.6854	-2.5687	-2.5042	-2.6958	-2.4667	-2.6312	-2.7396	-2.4188	-69.462	134.349	-103.254	214.781	218.174	139.395	205.375	157.624	78.603	225.704	179.985	160.881	115.089	249.513	185.753	172.044	0.00034211	0.00041548	0.00017699	1369.8	2.5054e-06	5.2172e-06	1360.4	368.42	3.6729e-06	5.2509e-06	419.37	140.35	121.62	42.239	6.1209e-06	51.833	0.00053215	0.00054575	0.00015144	1381.4	5.954e-06	5.9343e-06	1376.8	374.24	5.917e-06	5.9823e-06	427.38	143.22	124.71	43.035	6.0154e-06	53.207	162.675	-19.136	-13.106	-96.754	43.598	35.121	-96.810	-92.265	-18.258	28.595	-92.775	-88.747	-88.357	-83.308	32.479	-83.782	-8191	255	
20995.666	1	1	0	0	0.13202	0.14368	0.19456	0.30805	0.22506	0.13338	0.12838	0.28327	0.084337	0.19302	0.26771	0.25868	0.17405	0.075775	0.14514	0.062788	-2.2062	-2.7021	-2.5271	-2.8812	-2.5438	-2.5292	-2.9313	-2.7146	-2.6229	-2.5917	-2.5542	-2.8875	-2.3542	-2.5479	-2.7708	-2.55	-74.090	152.172	121.280	-64.904	-54.330	98.870	209.112	176.075	37.947	12.165	161.605	-73.856	-108.717	-78.018	115.907	242.336	0.00034529	0.00051638	0.00018614	1365.8	3.4609e-06	6.0296e-06	1357.1	367.27	3.9236e-06	6.9477e-06	421.54	139.81	121.56	42.038	2.4957e-06	51.691	0.00053063	0.0005325	0.00014786	1379.5	5.9024e-06	5.8801e-06	1374.8	374.33	5.9825e-06	5.6867e-06	427.63	143.19	124.65	42.971	5.7989e-06	53.035	156.183	-13.203	-23.499	-96.784	-7.492	44.899	-97.089	-92.528	-3.980	27.352	-92.639	-88.818	-88.574	-83.326	25.367	-83.850	-8191	255	
20995.785	1	1	0	0	0.082019	0.17712	0.19696	0.088349	0.17772	0.12148	0.34923	0.33024	0.18033	0.15983	0.061553	0.3853	0.19822	0.076657	0.1632	0.10794	-2.0458	-2.6708	-2.4396	-2.825	-2.6333	-2.4667	-2.8354	-2.6375	-2.5708	-2.8063	-2.5812	-2.8271	-2.6292	-2.6562	-2.85	-2.4062	-48.580	95.255	-91.476	-84.493	-21.951	-91.398	174.646	198.713	141.498	121.884	143.856	178.347	219.586	123.859	64.693	176.196	0.00036047	0.00051628	0.0001486	1368.3	6.0135e-06	4.5018e-06	1351.3	367.93	4.842e-06	5.059e-06	423.15	140.13	121.52	41.885	2.9541e-06	51.927	0.00051882	0.00052	0.00014497	1382.1	5.8147e-06	5.9151e-06	1374.9	374.4	5.8459e-06	5.8584e-06	428.29	143.4	124.69	42.952	5.7761e-06	53.219	160.339	-24.714	-17.636	-96.721	2.983	38.584	-96.970	-92.458	-6.733	55.796	-92.665	-88.907	-88.549	-83.228	22.863	-84.031	-8191	255	
20995.881	1	1	0	0	0.23082	0.088467	0.062665	0.1628	0.30543	0.22982	0.34138	0.097581	0.062699	0.20147	0.17953	0.13055	0.1016	0.30528	0.13462	0.1563	-2.0563	-2.65	-2.4979	-2.8396	-2.7313	-2.4125	-2.9458	-2.6937	-2.3563	-2.6917	-2.45	-2.8333	-2.7021	-2.5771	-2.9042	-2.7604	193.759	-74.147	180.075	150.577	61.245	48.393	175.737	109.071	221.732	139.727	-91.732	198.776	239.344	-57.876	77.415	209.105	0.00032769	0.00042885	0.00016046	1366.8	1.9349e-06	4.4932e-06	1359.3	368.06	3.3837e-06	8.617e-06	422.19	139.95	120.75	41.993	2.4846e-06	51.923	0.00051403	0.00053045	0.00014973	1379.3	5.8141e-06	5.7199e-06	1376.4	374.5	5.9695e-06	5.8924e-06	427.72	143.25	124.61	42.959	5.8587e-06	53.1	161.130	-40.314	-13.069	-96.930	28.377	19.082	-97.059	-92.423	-31.932	37.110	-92.939	-88.830	-88.509	-83.322	54.471	-84.177	-8191	255	
20995.977	1	1	0	0	0.12346	0.17155	0.079941	0.17351	0.16678	0.30156	0.018472	0.25255	0.12838	0.1092	0.080192	0.20799	0.051581	0.085113	0.2055	0.26617	-2.0458	-2.8333	-2.2021	-2.5833	-2.7625	-2.3937	-2.825	-2.6958	-2.5271	-2.8292	-2.6333	-2.5979	-2.6437	-2.425	-2.5812	-2.7542	74.875	230.546	-79.344	243.895	105.508	11.863	-49.067	185.851	-79.097	190.446	217.162	156.073	-87.031	-101.295	185.907	149.493	0.00034718	0.00053629	0.00011754	1362.4	3.5396e-06	3.6968e-06	1353.7	367.34	3.0125e-06	6.1715e-06	421.25	139.74	121.66	42.095	4.3145e-06	51.846	0.00052663	0.00052971	0.00015417	1376.4	5.9192e-06	5.892e-06	1371.7	373.52	6.0115e-06	5.5928e-06	426.68	142.79	124.42	42.881	6.0236e-06	53.062	157.442	-10.403	8.548	-96.861	29.614	30.154	-97.014	-92.389	-30.539	42.971	-93.056	-88.739	-88.265	-83.443	39.942	-84.052	-8191	255	
20996.072	1	1	0	0	0.22759	0.15936	0.076297	0.31236	0.22417	0.19011	0.29514	0.10546	0.052453	0.066266	0.079924	0.17111	0.11319	0.13643	0.25983	0.44299	-1.9937	-2.6937	-2.4917	-2.8042	-2.7042	-2.4417	-2.8937	-2.8229	-2.4792	-2.8396	-2.6854	-2.4354	-2.6875	-2.2875	-2.6917	-2.6917	70.972	220.187	248.428	-101.297	18.207	-10.945	213.332	157.145	3.100	-53.000	-98.139	182.839	186.565	190.669	156.053	190.962	0.00036942	0.00047688	0.00012933	1364.3	3.4525e-06	5.1984e-06	1353.6	368.13	3.4625e-06	2.6232e-06	420.1	140.54	120.36	41.894	2.573e-06	51.745	0.00053113	0.00053923	0.00014891	1374.8	5.7181e-06	5.7889e-06	1372.5	373.87	5.8818e-06	5.7642e-06	426.61	143.05	123.74	42.898	5.8413e-06	53.097	159.141	-22.534	-39.452	-96.605	-2.207	37.900	-96.852	-92.169	-27.545	42.988	-92.940	-88.794	-88.550	-83.492	4.597	-83.958	-8191	255	
20996.170	1	1	0	0	0.17153	0.10039	0.23404	0.24921	0.19098	0.084621	0.42213	0.098425	0.21897	0.20586	0.06999	0.24113	0.28314	0.34741	0.1305	0.53441	-2.0771	-2.7562	-2.4521	-2.6542	-2.7354	-2.5625	-2.9333	-2.7542	-2.3104	-2.8646	-2.7083	-2.7333	-2.8667	-2.5333	-2.6542	-2.6417	204.864	200.379	222.922	202.571	-62.311	219.555	245.728	160.902	46.135	169.909	148.044	161.522	134.440	205.325	33.724	164.956	0.00035571	0.00058602	0.00020178	1368	3.4683e-06	7.9751e-06	1358.7	368.62	2.7931e-06	6.3577e-06	421.83	139.43	121.14	42.004	5.4638e-06	52.121	0.00051795	0.00052563	0.00014189	1378	5.8424e-06	5.7566e-06	1374.1	373.83	5.8018e-06	5.6673e-06	427.4	142.85	124.38	42.902	5.7653e-06	53.242	155.478	-9.977	-21.466	-96.835	19.465	54.224	-96.870	-92.425	16.798	34.873	-93.079	-88.413	-88.590	-83.334	48.699	-83.925	-8191	255	
20996.266	1	1	0	0	0.2117	0.077987	0.11073	0.31157	0.092983	0.066576	0.25346	0.11811	0.31273	0.28761	0.14414	0.29516	0.32366	0.28242	0.20924	0.27749	-1.9667	-2.7333	-2.4688	-2.5604	-2.6667	-2.4146	-2.8292	-2.6708	-2.675	-2.6813	-2.5875	-2.4417	-2.6354	-2.5062	-2.6063	-2.8375	-26.021	75.703	158.211	246.801	-16.236	99.955	162.931	22.026	164.646	61.069	170.965	187.271	249.098	245.713	-66.103	229.606	0.00035337	0.0008307	0.00014433	1364.8	2.2258e-06	3.8112e-06	1357	367.24	1.8323e-06	4.505e-06	421.91	140.2	120.84	41.946	4.7981e-06	51.845	0.00051569	0.00052179	0.00014492	1376.6	5.7016e-06	5.672e-06	1373	373.94	5.8283e-06	5.8713e-06	427.82	143.05	124.29	43.011	5.8049e-06	53.208	164.362	-34.566	-9.789	-96.683	19.550	38.073	-96.850	-92.148	-4.314	36.517	-92.532	-88.780	-88.704	-83.396	37.624	-83.864	-8191	255	
20996.387	1	1	0	0	0.24829	0.047563	0.09314	0.34368	0.15736	0.071033	0.27583	0.26476	0.062368	0.094702	0.22565	0.39579	0.04018	0.12349	0.21261	0.022317	-2.0083	-2.7792	-2.4271	-2.3333	-2.6292	-2.5083	-2.7729	-2.8479	-2.5146	-2.7208	-2.8083	-2.4729	-2.6917	-2.4917	-2.5708	-2.8417	151.508	135.715	93.483	179.154	92.969	-87.838	181.336	-110.189	-60.701	60.140	138.048	217.784	238.772	-91.409	2.755	-46.500	0.00034593	0.00040956	0.00010101	1366.1	1.982e-06	7.2489e-06	1353	367.01	4.4017e-06	7.0293e-06	421.5	140.04	120.64	41.977	2.5783e-06	51.842	0.00052767	0.00051694	0.00014605	1377	5.7293e-06	5.7341e-06	1373	374.31	5.7425e-06	5.7918e-06	427.48	143.09	124.3	42.9	5.6479e-06	53.086	155.808	-19.140	-11.668	-96.810	-45.470	31.938	-97.070	-92.324	-11.702	48.104	-93.172	-88.746	-88.624	-83.357	-1.044	-83.953	-8191	255	
20996.482	1	1	0	0	0.17345	0.2656	0.13702	0.2063	0.11202	0.084084	0.26426	0.1991	0.3742	0.14629	0.13937	0.061416	0.154	0.1963	0.18501	0.23747	-2.0958	-2.6917	-2.5667	-2.6667	-2.7667	-2.4917	-2.5	-2.9396	-2.4396	-2.6146	-2.8917	-2.5292	-2.7771	-2.7188	-2.5083	-2.8708	130.336	149.794	93.439	-72.078	1.284	19.806	177.785	164.813	108.714	87.171	-94.229	-69.138	-35.923	183.344	36.586	173.507	0.00036185	0.00049586	0.0001138	1368.5	3.6922e-06	5.7283e-06	1353.6	367.68	1.8598e-06	5.6767e-06	419.9	139.41	121.75	42.023	2.9122e-06	51.785	0.00051249	0.00053774	0.0001425	1378.7	5.7523e-06	5.6769e-06	1372.3	374.31	5.769e-06	5.7157e-06	426.51	142.68	124.36	42.871	5.7501e-06	53.042	155.742	-18.759	-36.325	-96.624	25.136	37.101	-97.033	-92.400	-11.595	46.239	-92.635	-88.536	-88.361	-83.686	56.854	-83.839	-8191	255	
20996.576	1	1	0	0	0.14371	0.23696	0.016493	0.29819	0.085293	0.13541	0.53782	0.31126	0.24297	0.14501	0.098639	0.23656	0.1408	0.17828	0.15111	0.19801	-2.1458	-2.5979	-2.8333	-2.3479	-2.7292	-2.45	-2.3729	-3.0479	-2.375	-2.7125	-2.9542	-2.4875	-2.7708	-2.8292	-2.5375	-2.75	67.394	226.410	25.682	-89.382	197.522	36.666	155.176	122.628	-10.619	75.653	-2.062	-65.057	-94.176	99.913	76.146	154.443	0.00034511	0.00051442	0.00011713	1358.4	4.2955e-06	4.5918e-06	1354.8	368.44	1.5084e-06	2.1136e-06	420.36	140.21	120.99	41.859	4.3023e-06	51.806	0.00051915	0.0005259	0.00014741	1373.5	5.8794e-06	5.816e-06	1372.9	373.86	5.7104e-06	5.9312e-06	426.31	143.01	124.1	42.836	5.6808e-06	53.077	155.090	-30.285	-50.664	-96.751	11.385	68.935	-97.009	-92.550	1.564	39.934	-92.875	-88.661	-88.622	-83.256	36.131	-83.890	-8191	255	
20996.674	1	1	0	0	0.1556	0.090489	0.18102	0.17714	0.13254	0.38671	0.11101	0.2368	0.13978	0.14833	0.44753	0.099302	0.094284	0.27444	0.010875	0.18251	-2.1625	-2.5917	-2.5917	-2.7146	-2.6021	-2.6083	-2.6875	-3.0104	-2.6437	-2.5917	-2.8	-2.6063	-2.6125	-2.8979	-2.6833	-2.8854	-96.962	-11.246	77.098	241.840	242.743	-94.440	178.949	229.482	131.264	60.674	208.618	-76.207	163.839	-98.575	-17.153	177.846	0.00035499	0.00044011	0.00015343	1366.9	5.4908e-06	5.8981e-06	1352.9	367.31	3.4875e-06	4.1008e-06	421.56	139.83	120.52	41.76	4.059e-06	51.63	0.00051504	0.00054233	0.00014924	1375.8	5.9288e-06	5.9736e-06	1370.4	373.51	5.8707e-06	5.6557e-06	426.41	142.81	124.09	42.819	5.9546e-06	52.938	154.702	-5.949	-34.764	-96.758	30.877	43.606	-97.080	-92.328	24.153	34.516	-92.784	-88.862	-88.721	-83.194	30.885	-83.617	-8191	255	
20996.746	1	1	0	0	0.21443	0.15468	0.20653	0.078731	0.37132	0.18839	0.38112	0.13343	0.21702	0.19174	0.099736	0.23939	0.1467	0.20193	0.28947	0.12585	-2.0146	-2.575	-2.9375	-2.7833	-2.5438	-2.6292	-2.5875	-2.8354	-2.5208	-2.3854	-2.8396	-2.5833	-2.6646	-2.7125	-2.4458	-2.8646	196.195	113.052	62.217	-104.389	218.833	-50.065	199.647	-40.850	64.541	190.959	144.927	-103.153	201.559	-6.876	80.717	58.726	0.00035244	0.00053119	7.5779e-05	1360.4	1.9129e-06	4.7081e-06	1350.1	367.73	1.4309e-06	5.8693e-06	420.01	139.87	121.25	41.809	2.6515e-06	51.922	0.00052858	0.00054021	0.00015018	1372.7	5.9241e-06	6.0086e-06	1366.9	373.39	6.0189e-06	5.9339e-06	425.9	142.77	123.91	42.751	5.8606e-06	52.934	158.571	9.285	-35.256	-96.661	-16.772	52.689	-97.091	-92.226	46.275	11.007	-92.654	-88.917	-88.708	-83.190	28.640	-83.959	-8191	255	
20996.865	1	1	0	0	0.29649	0.21232	0.16749	0.23779	0.07899	0.064688	0.22967	0.19359	0.092039	0.16119	0.49793	0.10435	0.20027	0.23995	0.20892	0.16967	-2.0771	-2.6063	-2.8312	-2.5812	-2.5104	-2.6896	-2.7375	-2.8396	-2.4417	-2.4437	-2.9667	-2.3271	-2.5646	-2.7604	-2.3542	-2.7708	44.167	57.320	221.943	213.353	-75.370	-104.829	180.375	139.285	124.047	106.879	212.726	232.633	52.422	146.941	110.074	44.119	0.00036461	0.0003579	0.00019966	1357	3.4209e-06	5.4729e-06	1350.7	366.7	2.5946e-06	4.182e-06	419.51	139.18	120.64	41.665	5.5255e-06	51.605	0.00053933	0.0005414	0.00015189	1373.4	5.9561e-06	5.8666e-06	1367.5	373.45	6.0399e-06	5.897e-06	426.83	142.55	123.81	42.647	5.9524e-06	52.911	161.556	-15.079	9.550	-97.073	25.897	31.353	-97.020	-92.315	8.193	68.494	-92.860	-88.681	-88.640	-83.316	37.630	-83.791	-8191	255	
20996.961	1	1	0	0	0.15132	0.016562	0.27953	0.27099	0.11533	0.36203	0.19257	0.14991	0.12066	0.18607	0.29936	0.31616	0.078535	0.22781	0.059523	0.25005	-2.2021	-2.4479	-2.6292	-2.6125	-2.4562	-2.7875	-2.6729	-2.7958	-2.8438	-2.4083	-2.9875	-2.6854	-2.3875	-2.9313	-2.4938	-2.5958	105.182	78.833	176.061	149.726	-87.966	130.100	138.815	-69.245	47.738	163.584	170.382	58.875	174.447	216.888	-53.081	-56.641	0.00032981	0.00068208	0.00010524	1357.7	8.0718e-07	6.1384e-06	1348.2	366.83	3.7409e-06	3.5094e-06	419.01	138.74	120.28	41.614	3.7923e-06	51.736	0.00053622	0.00054661	0.00015035	1374.3	6.0189e-06	5.997e-06	1367.5	372.79	5.9679e-06	5.7922e-06	425.23	142.34	123.51	42.63	5.8115e-06	52.93	160.434	-24.636	-50.395	-96.865	33.182	67.988	-97.046	-92.289	12.109	38.627	-92.601	-88.658	-88.881	-83.272	17.997	-83.948	-8191	255	
20997.059	1	1	0	0	0.22819	0.089384	0.16416	0.111	0.019741	0.13581	0.12914	0.19273	0.1175	0.061539	0.23755	0.26669	0.15861	0.20627	0.33208	0.19806	-2.2604	-2.4479	-2.6333	-2.7313	-2.3438	-2.7979	-2.55	-2.7583	-2.5125	-2.4417	-2.7188	-2.7542	-2.5396	-2.8979	-2.6375	-2.8375	-84.987	60.377	69.958	115.831	200.250	38.071	156.357	243.019	11.497	-65.232	-108.702	211.939	235.332	195.822	226.612	174.876	0.00034221	0.00056895	0.00011418	1354.5	3.6139e-06	4.914e-06	1344.8	367.71	3.4423e-06	4.9614e-06	418.69	139.33	119.92	41.698	4.8308e-06	51.559	0.0005233	0.00054146	0.00015211	1368.4	5.9636e-06	5.8573e-06	1364.6	372.2	5.9828e-06	5.8235e-06	425.72	142.25	123.34	42.622	5.8112e-06	52.801	156.149	-30.651	-41.360	-96.795	11.709	67.813	-97.068	-92.118	14.628	69.037	-92.753	-88.783	-88.704	-83.162	26.188	-83.822	-8191	255	
20997.154	1	1	0	0	0.25605	0.10094	0.13005	0.1334	0.22939	0.10821	0.2432	0.03382	0.16576	0.31727	0.11352	0.10281	0.17507	0.24604	0.2333	0.011805	-2.4375	-2.5521	-2.7375	-2.7333	-2.3937	-2.5354	-2.7083	-2.7479	-2.6667	-2.4625	-2.7812	-2.7271	-2.2146	-2.7812	-2.5625	-2.6125	48.673	79.994	-59.582	-42.483	36.474	34.948	182.866	111.653	169.987	-76.849	-69.948	-81.185	104.906	-91.740	-52.655	-83.142	0.00038611	0.00027648	0.00011332	1359.2	1.9398e-06	3.9722e-06	1345.2	367.99	5.4062e-07	6.1074e-06	419.5	139.39	121.26	41.83	3.5288e-06	51.743	0.00051243	0.00054956	0.00014866	1369	5.8396e-06	5.8048e-06	1365.3	372.97	5.7314e-06	5.8087e-06	425.41	142.44	123.79	42.707	5.6748e-06	52.961	154.040	-52.215	-29.848	-96.880	4.001	75.756	-97.118	-92.300	-18.109	52.030	-92.911	-88.798	-88.765	-83.272	2.778	-83.847	-8191	255	
20997.273	1	1	0	0	0.056596	0.04735	0.12861	0.13854	0.17284	0.049965	0.2541	0.11258	0.18967	0.07528	0.12112	0.31321	0.30491	0.30858	0.19843	0.12561	-2.3083	-2.5104	-2.4542	-2.7396	-2.3333	-2.7646	-2.7604	-2.4958	-2.8292	-2.4854	-2.65	-2.8271	-2.3	-2.7958	-2.6396	-2.55	56.293	49.804	-28.800	128.225	153.072	153.709	215.956	204.917	171.605	-100.474	-63.838	222.136	28.649	167.963	9.916	-72.268	0.00033964	0.00040572	0.00014751	1363	4.1283e-06	4.732e-06	1352.4	367.6	2.2995e-06	2.6993e-06	421.89	139.45	120.7	41.976	5.3593e-06	51.881	0.00052315	0.00050926	0.00014384	1369.6	5.6491e-06	5.638e-06	1370.1	373.45	5.5374e-06	5.7213e-06	426.86	142.73	124.23	42.853	5.483e-06	53.073	157.966	-13.954	-1.788	-96.695	28.450	34.279	-97.070	-92.278	42.949	76.845	-92.740	-88.763	-88.373	-83.250	44.809	-84.001	-8191	255	
20997.346	1	1	0	0	0.080432	0.16359	0.26125	0.23642	0.16188	0.16213	0.079419	0.16169	0.25799	0.18165	0.43678	0.24233	0.084471	0.15301	0.17073	0.18396	-2.3771	-2.5146	-2.4417	-2.7979	-2.3854	-2.5521	-2.6875	-2.4688	-2.7854	-2.7104	-2.6063	-2.7812	-2.5104	-2.8458	-2.7646	-2.4917	-21.085	53.415	-55.189	-23.434	90.425	15.571	-11.583	135.830	40.072	101.373	159.794	112.828	-52.845	101.496	164.873	232.692	0.00042656	0.00035857	0.00012575	1364.7	3.5093e-06	5.6502e-06	1352	368.4	3.6814e-06	5.7424e-06	419.76	139.87	121.41	42.073	2.4582e-06	51.995	0.00050249	0.00050077	0.00013824	1375	5.5938e-06	5.5633e-06	1370.5	373.5	5.6072e-06	5.6501e-06	427.03	143.03	124.18	42.888	5.6694e-06	53.116	162.712	-19.198	-15.725	-96.835	5.511	28.530	-96.886	-92.551	-37.322	25.780	-92.833	-88.803	-88.539	-83.134	57.882	-84.087	-8191	255	
20997.467	1	1	0	0	0.097799	0.15142	0.23073	0.18243	0.10876	0.15135	0.33875	0.15335	0.11949	0.13581	0.1322	0.10847	0.048754	0.2414	0.15394	0.14898	-2.5042	-2.4083	-2.4313	-2.7625	-2.5438	-2.7	-2.7646	-2.5104	-2.775	-2.7313	-2.5167	-2.8854	-2.4313	-2.6292	-2.7625	-2.4313	11.531	124.895	-105.919	192.173	19.873	90.240	190.103	211.093	49.225	192.548	225.588	176.729	-91.315	246.620	-59.910	151.414	0.00038128	0.000382	0.00013615	1363.7	4.0219e-06	6.0575e-06	1353.2	367.99	1.1857e-06	4.1549e-06	420.65	139.97	120.78	42.159	4.2258e-06	52.016	0.00050821	0.00051423	0.00014253	1376.4	5.6783e-06	5.5286e-06	1371.7	374	5.7536e-06	5.7464e-06	427.09	143.08	124.21	43.041	5.4251e-06	53.256	158.159	-36.316	-28.459	-96.647	3.855	57.781	-97.015	-92.332	20.883	28.861	-92.565	-88.757	-88.935	-83.592	31.895	-84.187	-8191	255	
20997.562	1	1	0	0	0.12404	0.22344	0.26151	0.21882	0.033851	0.23525	0.18664	0.22535	0.10054	0.33604	0.46522	0.088248	0.053557	0.21003	0.14689	0.13926	-2.2458	-2.4542	-2.2146	-2.8521	-2.2938	-2.4979	-3.0021	-2.6875	-2.5312	-2.7167	-2.5646	-2.8187	-2.5083	-2.7604	-2.8167	-2.4813	163.421	147.114	170.461	194.368	57.713	240.052	192.757	220.078	100.758	-47.228	-101.299	89.192	164.891	239.378	144.493	87.066	0.0003632	0.00042875	0.00014765	1361.6	5.0135e-06	4.7499e-06	1356.3	369.15	2.9283e-06	2.9003e-06	421.21	140.13	121.14	42.063	2.3221e-06	51.855	0.00051534	0.00052203	0.00014152	1376.6	5.6877e-06	5.6667e-06	1372.9	374.59	5.6087e-06	5.5292e-06	427.32	142.95	124.33	42.945	5.6567e-06	53.141	157.528	-3.678	-25.944	-96.973	23.620	49.147	-97.137	-92.297	-2.049	68.192	-92.776	-88.804	-88.699	-83.402	-1.159	-83.970	-8191	255	
20997.656	1	1	0	0	0.14108	0.23751	0.019357	0.1834	0.14822	0.32565	0.13225	0.31345	0.12524	0.20396	0.12929	0.14594	0.2175	0.014665	0.22022	0.43563	-2.2521	-2.5542	-2.4021	-3.0625	-2.5146	-2.3896	-2.9646	-2.5417	-2.6125	-2.7417	-2.6021	-2.8875	-2.6562	-2.775	-2.7375	-2.5062	203.673	132.576	14.934	176.181	110.589	119.446	-80.984	204.648	-6.757	94.796	155.733	18.394	-14.187	-0.086	-69.688	178.398	0.00034499	0.00068761	0.0001667	1366	4.3556e-06	3.7704e-06	1358.1	370.34	4.8638e-06	5.87e-06	421.25	139.77	120.48	42.028	2.3822e-06	51.654	0.00051164	0.00052033	0.00014228	1378.2	5.7355e-06	5.6446e-06	1372.9	374.93	5.8345e-06	5.5733e-06	427.47	143.1	124.2	42.925	5.4653e-06	53.125	154.056	-15.071	-12.299	-96.966	19.068	46.057	-97.028	-92.471	11.586	34.919	-92.646	-88.992	-88.714	-83.223	-48.568	-84.014	-8191	255	
20997.756	1	1	0	0	0.28176	0.14155	0.10261	0.12586	0.16224	0.057664	0.035368	0.50997	0.2177	0.1664	0.19149	0.21293	0.22204	0.18891	0.10655	0.15376	-2.2562	-2.6542	-2.425	-2.7042	-2.3583	-2.8187	-2.8417	-2.5208	-2.6479	-2.9146	-2.5146	-2.8479	-2.6312	-2.3521	-2.8729	-2.5167	102.445	135.917	40.029	-97.834	-43.445	-17.706	91.355	200.787	31.653	-8.019	97.911	-73.405	-95.807	201.767	114.693	-61.976	0.00035047	0.00052826	0.00016965	1372.3	1.6894e-06	4.8041e-06	1356.2	368.9	4.0033e-06	4.9038e-06	419.38	139.5	120.87	42.135	3.2268e-06	51.904	0.00050721	0.00051286	0.00014383	1378.9	5.6715e-06	5.6895e-06	1373.2	374.03	5.685e-06	5.664e-06	426.76	142.8	124.39	42.925	5.6349e-06	53.164	152.938	-19.583	-18.671	-96.748	30.513	70.059	-97.096	-92.405	0.064	57.227	-92.581	-88.740	-88.780	-83.465	25.298	-83.923	-8191	255	
20997.873	1	1	0	0	0.19481	0.10837	0.13645	0.035261	0.34254	0.29264	0.30268	0.36208	0.2855	0.12442	0.30281	0.12493	0.092356	0.42706	0.068589	0.087342	-2.2313	-2.5917	-2.4625	-2.8812	-2.6813	-2.5479	-2.8438	-2.6333	-2.5625	-2.8167	-2.4458	-2.6875	-2.6625	-2.5667	-2.5396	-2.5208	224.739	-48.624	81.071	9.920	121.516	77.676	43.487	170.194	-75.761	201.270	190.454	147.133	-94.964	204.651	235.945	41.545	0.00037589	0.00042823	0.00013143	1357.6	1.932e-06	4.822e-06	1353.1	368.68	3.1522e-06	3.0888e-06	420.86	140.68	121.2	42.209	2.8837e-06	51.852	0.00051754	0.00051953	0.00014329	1374.9	5.6917e-06	5.6759e-06	1373.4	373.78	5.7873e-06	5.6791e-06	427.39	143.01	124.32	42.926	5.8017e-06	53.161	159.147	-18.927	-36.567	-96.738	34.411	60.216	-97.052	-92.387	25.269	23.613	-92.865	-88.601	-88.488	-83.627	56.974	-83.999	-8191	255	
20997.971	1	1	0	0	0.23428	0.18436	0.20209	0.19072	0.13156	0.19751	0.27087	0.15644	0.095616	0.053477	0.13379	0.17535	0.097936	0.34967	0.081572	0.15415	-1.9438	-2.8292	-2.3896	-2.6667	-2.5292	-2.3396	-2.9104	-2.5271	-2.5812	-2.9229	-2.4188	-2.8312	-2.6083	-2.3104	-2.5083	-2.6312	-89.487	67.295	12.897	238.751	-36.241	15.948	219.196	206.717	32.496	-108.881	224.399	126.407	120.950	240.906	157.548	210.110	0.00034841	0.00054401	0.00010988	1361.9	3.3752e-06	6.3797e-06	1355.2	368.91	2.8418e-06	5.0197e-06	419.33	140.19	121	42.105	2.0312e-06	51.773	0.00051103	0.00051622	0.00014142	1374.3	5.7085e-06	5.6333e-06	1373.1	373.9	5.5053e-06	5.5849e-06	426.63	143.18	124.6	42.993	5.6055e-06	53.172	156.808	-2.118	-46.497	-96.875	8.633	58.055	-97.063	-92.375	-50.821	37.661	-92.516	-88.765	-88.680	-83.139	17.327	-84.047	-8191	255	
20998.043	1	1	0	0	0.095683	0.24106	0.16167	0.25492	0.1198	0.13223	0.36833	0.1181	0.11653	0.15808	0.11428	0.24611	0.2061	0.21755	0.058276	0.066491	-2.05	-2.8438	-2.5729	-2.6937	-2.6958	-2.2458	-2.8021	-2.8063	-2.4958	-2.8521	-2.5396	-2.7438	-2.6354	-2.3604	-2.5625	-2.5958	133.041	196.994	35.765	169.670	-88.389	-7.018	132.669	172.867	81.573	55.594	106.102	-51.280	-27.399	-78.723	123.333	145.530	0.00034596	0.00041412	0.0001748	1369.2	2.9842e-06	4.9214e-06	1353.4	368.69	2.4964e-06	5.4964e-06	421.75	139.8	121.05	41.973	4.4376e-06	51.796	0.00050547	0.00052334	0.00014824	1378.9	5.5804e-06	5.4602e-06	1372.7	374.37	5.643e-06	5.6673e-06	428.16	143.29	124.59	43.024	5.5893e-06	53.164	157.921	-18.566	-22.251	-96.811	-35.623	40.516	-96.864	-92.258	0.657	58.419	-92.850	-88.640	-88.821	-83.372	6.755	-83.774	-8191	255	
20998.162	1	1	0	0	0.21938	0.08824	0.19446	0.10212	0.058675	0.15195	0.2133	0.25351	0.20351	0.062654	0.077796	0.26567	0.067708	0.16148	0.27357	0.16265	-1.925	-2.8458	-2.4583	-2.6312	-2.6188	-2.3979	-2.7562	-2.7271	-2.4167	-2.975	-2.6562	-2.5854	-2.8063	-2.5208	-2.7229	-2.7479	96.293	133.988	168.648	-17.536	25.209	-108.141	233.002	236.528	34.007	-42.431	205.456	146.083	-3.212	-79.764	246.251	231.970	0.00035226	0.00050069	0.00018778	1362.1	2.1987e-06	2.7117e-06	1359.3	367.4	5.3026e-06	5.1147e-06	418.96	140.15	120.67	42.071	4.8446e-06	52.086	0.00051443	0.00051176	0.00014378	1375.5	5.5121e-06	5.5124e-06	1374.7	374.08	5.6603e-06	5.6557e-06	427.32	143.23	124.34	43.086	5.5542e-06	53.225	159.055	-21.158	-56.170	-97.031	56.026	14.305	-96.975	-92.384	-21.796	66.289	-92.877	-88.610	-88.576	-83.335	-10.972	-83.995	-8191	255	
20998.260	1	1	0	0	0.13615	0.27207	0.10537	0.072256	0.13607	0.14573	0.1964	0.16864	0.091318	0.1018	0.25807	0.13392	0.33028	0.16518	0.097935	0.17442	-2.025	-2.8292	-2.5417	-2.6833	-2.6729	-2.5187	-2.8479	-2.7313	-2.4083	-2.8271	-2.4104	-2.725	-2.8438	-2.6958	-2.6021	-2.7792	36.439	-90.534	221.739	76.222	59.783	64.947	212.117	-103.991	62.219	-27.055	244.908	192.890	66.325	43.530	229.258	223.928	0.00035365	0.00060207	0.00012981	1360.7	2.7947e-06	2.5658e-06	1359.9	369.13	2.6366e-06	4.9434e-06	424.08	140.51	121.62	42.109	3.3501e-06	51.98	0.00051667	0.00050268	0.0001415	1377.9	5.6274e-06	5.6928e-06	1376	374.71	5.6236e-06	5.5232e-06	428.32	143.36	124.46	43.045	5.6571e-06	53.185	153.854	-11.813	-22.053	-96.866	23.146	78.845	-97.166	-92.306	3.757	58.519	-92.883	-88.581	-88.452	-83.170	13.902	-83.977	-8191	255	
20998.355	1	1	0	0	0.1642	0.088871	0.019828	0.24702	0.078043	0.19103	0.54232	0.09474	0.10238	0.25735	0.15849	0.34816	0.065937	0.26502	0.30204	0.14375	-1.7687	-2.6646	-2.5312	-2.6	-2.9437	-2.4417	-2.9167	-2.85	-2.4938	-2.8875	-2.6646	-2.7042	-2.8208	-2.7687	-2.8521	-2.8292	-16.330	116.960	187.021	156.337	28.607	127.811	170.960	175.132	110.389	-80.739	219.557	187.802	160.482	-106.541	-14.265	-23.381	0.00034435	0.00055012	0.00014022	1367	3.2239e-06	6.5052e-06	1352	369.07	4.0916e-06	4.1837e-06	420.65	140.68	121.63	42.069	2.5727e-06	52.012	0.00050316	0.0005175	0.0001448	1379.1	5.4353e-06	5.7087e-06	1373.8	374.43	5.647e-06	5.6264e-06	427.95	143.5	124.91	43.035	5.5368e-06	53.191	156.787	-37.062	-25.364	-96.767	-14.680	46.635	-96.801	-92.333	-6.568	11.155	-92.474	-88.670	-88.434	-83.426	11.327	-83.804	-8191	255	
20998.451	1	1	0	0	0.22381	0.10788	0.22596	0.37361	0.098467	0.34585	0.17594	0.16701	0.17689	0.23068	0.21606	0.10813	0.10111	0.24858	0.24961	0.34998	-2.2625	-2.7542	-2.6021	-2.675	-2.8667	-2.6958	-2.6021	-2.9188	-2.5417	-2.5458	-2.8604	-2.5687	-2.7979	-2.8021	-2.6312	-2.9062	81.218	58.405	200.615	-109.097	-33.084	115.361	144.415	181.862	-100.350	173.787	137.855	195.513	-102.531	-64.303	160.348	210.075	0.00034047	0.00060063	0.00012835	1366	4.7334e-06	5.0692e-06	1357	368.78	4.7616e-06	2.9125e-06	422.07	140.25	121.58	41.97	5.3426e-06	51.926	0.00049675	0.00051324	0.00014005	1380.6	5.5923e-06	5.6717e-06	1375.9	374.97	5.6958e-06	5.6485e-06	428.73	143.39	124.8	43.005	5.733e-06	53.288	159.434	-9.704	-32.257	-96.737	15.023	46.830	-96.782	-92.396	-24.752	8.198	-92.591	-88.555	-88.799	-83.513	21.823	-83.843	-8191	255	
20998.570	1	1	0	0	0.059314	0.19959	0.087906	0.064175	0.10214	0.24904	0.25794	0.095885	0.14718	0.33814	0.18831	0.032363	0.17267	0.29215	0.18283	0.02664	-2.2521	-2.8563	-2.7854	-2.7708	-2.9292	-2.8104	-2.8125	-2.8563	-2.6146	-2.6896	-2.6875	-2.5062	-2.6729	-2.7687	-2.5125	-2.925	2.544	245.998	35.020	214.875	2.552	37.038	220.665	179.765	-12.700	158.508	196.485	162.055	14.666	209.323	-107.089	-22.320	0.00034694	0.00040759	0.00018175	1370.4	2.6432e-06	6.5478e-06	1356.9	369.44	4.6523e-06	7.8459e-06	424.2	140.73	122.08	42.121	1.9501e-06	51.993	0.00049918	0.00051658	0.00013998	1379.7	5.655e-06	5.6251e-06	1377	374.84	5.6248e-06	5.5723e-06	429.4	143.72	124.9	43.058	5.5504e-06	53.348	159.835	2.630	-47.405	-96.792	34.692	45.567	-96.873	-92.097	7.422	30.926	-92.953	-89.004	-88.830	-83.502	98.849	-84.020	-8191	255	
20998.643	1	1	0	0	0.10804	0.27331	0.14477	0.31932	0.25136	0.3082	0.17328	0.070834	0.20597	0.23186	0.071845	0.0099932	0.093686	0.13616	0.15766	0.30079	-2.2146	-2.6354	-2.7687	-2.7042	-2.8	-2.8667	-2.7333	-3	-2.5646	-2.6896	-2.9792	-2.6396	-2.7125	-2.8063	-2.4313	-2.9146	205.896	-98.230	103.598	228.640	50.850	-106.533	217.085	241.668	-8.599	193.994	14.250	48.913	-87.865	-27.342	123.641	160.883	0.00037857	0.00032949	0.00011516	1366.6	3.8618e-06	4.7273e-06	1358.1	368.12	2.4617e-06	5.9365e-06	422.71	140.8	121.37	42.298	4.532e-06	51.997	0.0005091	0.00051756	0.00014546	1381.1	5.578e-06	5.6201e-06	1375	374.9	5.6347e-06	5.6663e-06	429.12	143.63	124.75	43.156	5.6245e-06	53.289	154.866	-26.126	-20.609	-96.676	1.306	50.784	-97.087	-92.470	-29.991	33.903	-92.688	-88.735	-88.668	-83.374	16.112	-83.738	-8191	255	
20998.738	1	1	0	0	0.10613	0.3242	0.13392	0.14345	0.17301	0.06687	0.43801	0.1498	0.09703	0.12044	0.10759	0.18326	0.25699	0.36499	0.12497	0.10948	-2.2562	-2.425	-2.9792	-2.7938	-2.7896	-2.7208	-2.8458	-2.7812	-2.4771	-2.625	-2.8167	-2.6917	-2.7562	-2.9125	-2.4917	-2.8312	-41.346	34.613	-40.626	163.399	-105.339	25.754	159.324	208.809	146.852	65.396	167.725	129.054	120.128	240.850	184.258	172.721	0.0003372	0.00045278	0.0001345	1366	2.355e-06	5.8693e-06	1363	368.14	4.8031e-06	4.532e-06	423.75	141.21	121.53	42.209	2.776e-06	52.102	0.00050373	0.00051402	0.00013716	1383.5	5.6525e-06	5.6287e-06	1379.6	374.51	5.5939e-06	5.4659e-06	429.84	144.19	125.22	43.187	5.6245e-06	53.401	159.878	-32.162	-30.267	-96.836	66.362	43.468	-96.901	-92.360	-9.056	33.508	-93.112	-88.641	-88.492	-83.324	52.716	-83.998	-8191	255	
20998.836	1	1	0	0	0.37676	0.17379	0.16818	0.24169	0.22599	0.22548	0.12675	0.046113	0.14564	0.086831	0.025105	0.10862	0.02311	0.12364	0.31812	0.14535	-2.3229	-2.4771	-2.9083	-2.6521	-2.6667	-2.8792	-2.6375	-2.8583	-2.6979	-2.6479	-2.8583	-2.5375	-2.6417	-2.7979	-2.6604	-2.9313	48.080	191.661	-91.326	192.130	20.637	212.090	205.061	131.069	121.797	0.953	-12.883	-100.652	21.691	-87.600	-7.073	3.675	0.0003497	0.00051228	0.00013766	1375.8	3.4533e-06	2.0415e-06	1363.5	369.57	3.0909e-06	5.2875e-06	424.56	140.4	121.38	42.139	4.7505e-06	52.03	0.0004997	0.00050786	0.00014257	1385.3	5.8396e-06	5.6162e-06	1379.8	374.86	5.7545e-06	5.689e-06	430.08	143.89	124.83	43.091	5.6042e-06	53.365	155.946	-19.249	-49.920	-96.836	-17.106	22.733	-97.214	-92.306	49.408	30.262	-92.877	-88.636	-89.051	-83.293	22.739	-83.731	-8191	255	
20998.953	1	1	0	0	0.16585	0.10355	0.18802	0.11067	0.21401	0.17223	0.18346	0.10434	0.039203	0.13643	0.1478	0.074978	0.18866	0.084603	0.12437	0.30595	-2.2146	-2.625	-2.7729	-2.7042	-2.6396	-2.6646	-2.7188	-2.8833	-2.7896	-2.3688	-2.8979	-2.6125	-2.6146	-2.9542	-2.5938	-2.8167	106.972	204.679	-18.231	206.811	-46.348	-2.315	211.073	216.335	211.733	82.691	240.684	-45.613	77.788	211.776	-17.766	24.797	0.0003508	0.00059268	0.00012826	1373.1	2.2151e-06	4.204e-06	1359.9	369.06	2.5973e-06	6.8602e-06	424.27	140.67	121.81	42.382	1.8536e-06	52.153	0.00052056	0.00052679	0.00014076	1383.6	5.6845e-06	5.6717e-06	1379	374.76	5.6344e-06	5.7101e-06	430.62	143.74	125.13	43.198	5.5877e-06	53.402	156.483	-14.453	-22.612	-97.005	28.253	90.450	-97.174	-92.309	0.378	39.762	-92.730	-88.766	-88.473	-83.384	19.461	-83.754	-8191	255	
20999.051	1	1	0	0	0.097197	0.21827	0.20115	0.23165	0.18353	0.16381	0.16632	0.23905	0.43043	0.20977	0.16405	0.20468	0.10932	0.14843	0.26302	0.14389	-2.3229	-2.5938	-2.7646	-2.7146	-2.5208	-2.775	-2.7854	-2.7708	-2.7979	-2.4938	-2.8604	-2.6958	-2.6875	-3.0187	-2.6333	-2.9896	147.163	52.604	78.174	244.358	205.550	-89.587	-102.090	209.449	-39.585	3.096	223.384	201.100	83.585	201.616	-28.462	-104.741	0.00037343	0.00052191	0.00015017	1367.5	3.5006e-06	4.2853e-06	1361.5	369.37	4.4394e-06	4.6329e-06	422.16	140.45	122.12	42.156	1.9498e-06	51.927	0.00051227	0.00052429	0.00014447	1382	5.7327e-06	5.6736e-06	1378.3	374.96	5.6532e-06	5.6106e-06	428.54	143.48	125	43.113	5.7909e-06	53.402	150.852	-15.180	-3.892	-96.863	2.068	66.415	-97.089	-92.370	6.408	42.891	-92.721	-88.777	-88.640	-83.467	-45.533	-83.806	-8191	255	
20999.146	1	1	0	0	0.072842	0.29425	0.27472	0.29194	0.16893	0.27566	0.28507	0.38662	0.095817	0.11963	0.16692	0.21266	0.054456	0.026333	0.026923	0.063623	-2.35	-2.5042	-2.8812	-2.7354	-2.5229	-2.9583	-2.6896	-2.75	-2.8354	-2.5979	-3.0354	-2.6604	-2.5146	-2.8146	-2.4854	-2.5687	-65.784	-5.068	1.259	244.481	132.711	210.073	246.482	237.693	209.247	-94.179	-41.363	17.685	71.373	-62.411	-83.702	49.096	0.00032763	0.00031297	0.00011632	1367.4	4.1851e-06	3.8503e-06	1358.7	368.85	5.0045e-06	5.6038e-06	423.18	140.01	121.8	42.138	3.4382e-06	52.061	0.00051962	0.00051625	0.00014302	1381.4	5.6631e-06	5.6512e-06	1377	374.71	5.6958e-06	5.7098e-06	429.04	143.44	124.87	43.071	5.6298e-06	53.302	154.803	-27.192	-46.615	-96.976	3.911	47.353	-96.958	-92.298	-30.149	66.423	-92.661	-88.706	-88.994	-83.323	11.789	-84.094	-8191	255	
20999.242	1	1	0	0	0.098433	0.11638	0.1493	0.16261	0.17531	0.13306	0.037392	0.12453	0.16204	0.13659	0.23281	0.13685	0.2149	0.12722	0.18747	0.24069	-2.4208	-2.4646	-2.5021	-2.8396	-2.3458	-2.8208	-2.8438	-2.7396	-2.7313	-2.5917	-2.9729	-2.8563	-2.525	-2.8875	-2.6625	-2.6729	85.987	58.953	247.491	234.436	-39.979	14.703	-85.777	180.530	194.043	85.620	188.942	-89.604	151.022	201.485	215.377	91.153	0.0003507	0.00042072	0.00019759	1373.5	2.9576e-06	5.7609e-06	1358.3	368.43	3.7226e-06	5.2627e-06	423.48	140.88	122.44	42.211	3.5376e-06	52.202	0.00050605	0.00050586	0.00014755	1383.2	5.6668e-06	5.5914e-06	1377.2	374.43	5.715e-06	5.7302e-06	429.62	143.64	124.82	43.136	5.6605e-06	53.393	159.543	22.423	-24.127	-96.863	-3.048	29.722	-96.845	-92.341	-46.407	61.955	-93.055	-88.646	-88.538	-83.405	19.271	-84.254	-8191	255	
20999.340	1	1	0	0	0.20602	0.053844	0.24548	0.10202	0.13828	0.19017	0.22966	0.2301	0.20283	0.14838	0.1297	0.17401	0.19109	0.27063	0.2305	0.12257	-2.4146	-2.425	-2.6833	-2.8583	-2.5521	-2.8271	-2.6542	-2.5604	-2.8521	-2.4854	-2.9729	-2.8083	-2.4938	-2.9333	-2.6292	-2.7271	-1.755	218.642	164.164	-99.516	217.388	-106.484	194.808	226.404	10.306	186.478	-16.452	-47.015	-72.383	216.586	-47.220	11.518	0.00036046	0.00050458	0.00016965	1369.7	3.2603e-06	6.5196e-06	1361.7	369.13	1.583e-06	2.4507e-06	425.88	140.73	121.68	42.23	3.2063e-06	52.168	0.00051158	0.00051512	0.0001416	1384	5.5385e-06	5.5692e-06	1380.2	375.05	5.6696e-06	5.4339e-06	430.46	143.98	125.29	43.224	5.5456e-06	53.413	152.207	-8.039	6.437	-96.887	38.889	30.007	-97.217	-92.263	-28.723	31.478	-92.609	-88.788	-88.542	-83.303	41.421	-83.817	-8191	255	
20999.436	1	1	0	0	0.096309	0.12696	0.072936	0.20337	0.085946	0.34931	0.24707	0.18313	0.11516	0.031918	0.028733	0.14724	0.079139	0.14155	0.014561	0.23271	-2.4292	-2.4479	-2.5542	-2.9813	-2.5542	-2.7771	-2.775	-2.5917	-2.9833	-2.6417	-2.7292	-2.8354	-2.7167	-2.8875	-2.8125	-2.5187	114.300	132.334	11.365	-99.080	120.211	155.977	143.070	226.831	2.281	41.840	135.173	103.622	19.814	187.158	49.732	247.793	0.00034398	0.00049057	0.00015126	1372.2	2.828e-06	4.9256e-06	1360.4	370.19	4.6323e-06	4.6467e-06	423.83	140.96	121.24	42.227	3.9577e-06	51.972	0.00051295	0.00052256	0.00014029	1385.8	5.5372e-06	5.6003e-06	1379.3	375.18	5.475e-06	5.7272e-06	430.07	143.7	124.82	43.251	5.4469e-06	53.399	160.154	-27.399	-20.431	-96.890	19.390	51.433	-97.032	-92.367	-26.369	32.183	-93.007	-88.682	-88.572	-83.528	41.612	-84.007	-8191	255	
20999.557	1	1	0	0	0.13045	0.20885	0.22852	0.15246	0.24016	0.074905	0.038149	0.33222	0.16628	0.16266	0.294	0.11975	0.27199	0.096681	0.26294	0.2541	-2.2417	-2.6	-2.6375	-2.7396	-2.3896	-2.8917	-3.05	-2.5958	-2.7771	-2.6417	-2.6667	-2.8688	-2.6021	-2.6937	-2.825	-2.6042	2.702	200.994	155.263	67.212	3.301	18.146	82.390	186.119	-107.420	-61.726	-107.467	202.234	234.022	39.916	135.698	174.435	0.00036216	0.00053682	0.00015993	1373.9	2.8542e-06	5.0697e-06	1363.8	370.39	5.3223e-06	5.4145e-06	423.22	141.75	122.3	42.337	5.4456e-06	52.375	0.00050803	0.00051283	0.00014154	1385.7	5.4195e-06	5.6555e-06	1381.1	375.59	5.5995e-06	5.5348e-06	430.21	144.25	125.24	43.266	5.4618e-06	53.555	161.822	-44.531	-38.020	-96.836	52.013	36.289	-97.086	-92.389	4.619	57.131	-92.947	-88.852	-88.672	-83.699	28.406	-83.918	-8191	255	
20999.652	1	1	0	0	0.049572	0.26468	0.1293	0.11473	0.12299	0.14612	0.29613	0.048265	0.23071	0.094528	0.20895	0.2792	0.11034	0.33767	0.13218	0.27683	-2.4188	-2.3958	-2.4625	-2.9167	-2.5479	-2.7229	-2.9833	-2.5833	-2.7979	-2.5542	-2.7604	-2.9708	-2.5854	-2.7521	-2.7812	-2.7521	-80.567	-104.054	197.442	230.379	-81.942	-103.216	153.944	157.197	15.197	-76.067	212.316	198.591	-80.678	202.378	229.874	167.731	0.00036341	0.00062898	0.00014837	1371.5	3.8211e-06	5.7851e-06	1368.2	369.87	2.9074e-06	3.2774e-06	426.19	140.78	121.77	42.421	2.5824e-06	52.44	0.00050694	0.00049586	0.0001368	1386.1	5.6118e-06	5.5732e-06	1382.6	375.24	5.589e-06	5.397e-06	431.61	144.19	125.18	43.25	5.3953e-06	53.552	152.439	2.112	-38.220	-96.614	-21.970	65.994	-97.162	-92.370	-10.480	67.761	-92.915	-88.894	-88.888	-83.323	71.735	-83.875	-8191	255	
20999.746	1	1	0	0	0.099366	0.071543	0.14794	0.24595	0.22057	0.20083	0.35375	0.19926	0.066977	0.2496	0.24791	0.12863	0.05352	0.29058	0.21879	0.12385	-2.3104	-2.6958	-2.4042	-2.7917	-2.5542	-2.65	-2.9542	-2.6104	-2.7583	-2.7646	-2.5854	-2.9104	-2.5021	-2.9021	-2.7354	-2.6479	231.195	236.310	35.215	233.393	122.628	96.738	178.137	202.540	-25.688	59.972	179.759	181.889	-94.363	188.818	-107.927	234.681	0.0003761	0.00044093	6.0952e-05	1375.6	2.9095e-06	7.6933e-06	1365.6	367.6	4.2775e-06	3.714e-06	424.28	141.5	122.77	42.499	4.1815e-06	52.252	0.00050166	0.00050381	0.00013937	1385.8	5.5074e-06	5.4807e-06	1381.9	375.16	5.601e-06	5.431e-06	431.27	144.35	125.48	43.366	5.3421e-06	53.484	155.794	-40.275	-35.423	-96.752	30.837	38.327	-97.006	-92.389	-1.981	64.731	-92.888	-88.848	-88.875	-83.546	28.901	-83.965	-8191	255	
20999.867	1	1	0	0	0.19395	0.18232	0.23353	0.094116	0.20271	0.061875	0.21837	0.30626	0.1134	0.30993	0.13147	0.10653	0.13766	0.25946	0.20353	0.1811	-2.0396	-2.7458	-2.4562	-2.9	-2.6708	-2.4708	-3.0958	-2.7354	-2.7333	-2.6646	-2.5	-2.9104	-2.5833	-2.5417	-2.6854	-2.5458	81.521	215.063	236.041	30.893	86.441	95.255	146.527	132.517	37.403	30.980	53.026	225.920	-72.514	-101.223	112.121	181.116	0.00031633	0.00026997	9.0663e-05	1374.3	4.4755e-06	4.4285e-06	1364.2	369.07	5.2887e-06	3.8706e-06	422.82	141.02	122.56	42.581	4.0846e-06	52.083	0.00049914	0.000498	0.00013853	1387.2	5.417e-06	5.4417e-06	1381.5	375	5.5689e-06	5.398e-06	430.85	144.38	125.45	43.346	5.6146e-06	53.5	155.502	-13.647	-9.090	-96.881	24.972	42.066	-97.089	-92.485	-17.319	13.699	-92.640	-88.825	-88.563	-83.237	18.005	-84.133	-8191	255	
20999.939	1	1	0	0	0.17868	0.07331	0.11336	0.4451	0.14915	0.031874	0.21975	0.30156	0.22056	0.39849	0.021406	0.25234	0.16263	0.060369	0.25058	0.26169	-2.2354	-2.7188	-2.4188	-2.9083	-2.6792	-2.5396	-3.0042	-2.6708	-2.5292	-2.8812	-2.6854	-2.8604	-2.8688	-2.5792	-2.6479	-2.5979	55.538	99.669	-52.035	206.368	-44.693	15.541	167.436	208.366	2.335	38.300	-22.878	149.930	97.375	182.119	213.497	112.143	0.00039144	0.00055857	0.0001404	1372.6	3.7298e-06	3.301e-06	1366.6	370.27	4.5575e-06	5.4212e-06	427.32	141.45	123.43	42.39	5.3566e-06	52.245	0.00050283	0.00049515	0.00013742	1385.7	5.5714e-06	5.4024e-06	1382.9	375.38	5.5871e-06	5.3763e-06	431.35	144.61	125.62	43.305	5.5352e-06	53.552	156.631	-28.612	-37.739	-96.669	17.276	36.227	-97.080	-92.592	14.987	33.401	-92.999	-88.949	-88.895	-83.195	24.413	-83.925	-8191	255	
21000.035	1	1	0	0	0.2442	0.095315	0.15333	0.11326	0.19237	0.074888	0.041559	0.1026	0.16062	0.15955	0.25118	0.13188	0.2058	0.29506	0.17703	0.2781	-2.1375	-2.725	-2.6292	-3.0625	-2.7542	-2.5229	-2.9417	-2.5812	-2.675	-2.8937	-2.6104	-2.8979	-2.7208	-2.5271	-2.7125	-2.6542	18.124	30.428	13.480	233.107	171.162	-14.843	227.356	-63.251	78.484	133.105	-99.547	123.776	13.080	165.361	235.347	200.668	0.00035128	0.00051296	0.00014066	1376.2	3.4304e-06	5.0761e-06	1361.8	370.94	3.5376e-06	6.1632e-06	426.6	141.52	122.78	42.355	5.1876e-06	52.26	0.00051103	0.00049303	0.00013665	1387.7	5.3757e-06	5.4787e-06	1383.3	376.02	5.626e-06	5.28e-06	432.15	144.68	125.64	43.375	5.4643e-06	53.598	154.728	-23.367	-24.663	-96.913	-5.781	56.803	-97.047	-92.443	-13.582	48.260	-92.812	-89.071	-88.530	-83.350	52.579	-83.924	-8191	255	
21000.131	1	1	0	0	0.15814	0.21638	0.18675	0.36535	0.059748	0.06604	0.089907	0.18873	0.45782	0.18316	0.25986	0.16578	0.07389	0.14059	0.071936	0.09854	-2.0625	-2.7354	-2.4896	-2.6729	-2.7354	-2.6208	-3.1833	-2.6437	-2.4958	-2.625	-2.5062	-2.8896	-2.7625	-2.4688	-2.7458	-2.7062	-79.001	102.831	95.280	206.262	100.176	-86.462	97.286	-54.553	-39.530	-51.826	-57.830	-83.620	-24.225	217.355	29.541	97.430	0.00034974	0.00045296	8.0901e-05	1376.8	4.5711e-06	6.6237e-06	1371.2	369.39	4.3619e-06	4.5388e-06	424.49	141.94	122.92	42.526	3.7295e-06	52.588	0.00050303	0.00050473	0.00013722	1388.2	5.6299e-06	5.5554e-06	1385.7	375.59	5.4018e-06	5.3436e-06	431.19	144.61	125.79	43.388	5.4213e-06	53.836	161.363	-8.108	-23.705	-96.754	20.399	53.063	-96.851	-92.421	9.568	25.679	-92.654	-88.788	-88.498	-83.339	36.320	-84.016	-8191	255	
21000.252	1	1	0	0	0.2221	0.15866	0.064544	0.26181	0.37042	0.20874	0.31573	0.24624	0.037891	0.14351	0.16679	0.15366	0.23165	0.24262	0.17987	0.16704	-2.175	-2.9667	-2.5625	-2.8542	-2.8125	-2.4062	-3.0083	-2.7375	-2.4333	-2.925	-2.6354	-2.8063	-2.8125	-2.6021	-2.65	-2.775	-9.444	228.626	82.910	221.733	35.388	145.725	65.277	189.460	83.799	113.314	231.237	177.571	-12.628	86.716	206.483	27.582	0.00037653	0.00030305	0.00012774	1374	1.4096e-06	3.9813e-06	1367.3	369.92	3.1961e-06	5.7056e-06	426.6	141.73	122.66	42.438	4.3284e-06	52.509	0.00049335	0.00047999	0.00013318	1388.8	5.3374e-06	5.3919e-06	1385.3	376.04	5.4237e-06	5.3545e-06	432.36	144.82	125.82	43.387	5.3754e-06	53.661	158.324	-39.999	-30.459	-96.841	-11.838	75.978	-97.099	-92.321	-28.439	49.437	-92.933	-88.711	-88.673	-83.147	28.782	-83.959	-8191	255	
21000.348	1	1	0	0	0.132	0.11176	0.10585	0.12534	0.24144	0.25868	0.17549	0.24346	0.17347	0.095078	0.23059	0.28451	0.086723	0.35636	0.13436	0.30937	-2.0604	-2.7729	-2.5479	-2.7	-2.8521	-2.5208	-2.9146	-2.8979	-2.5729	-2.85	-2.7375	-2.6688	-2.8438	-2.4604	-2.7438	-2.9271	210.245	-39.885	227.501	-21.510	27.281	-31.833	227.370	156.914	98.872	-40.953	-97.574	-48.278	-57.150	191.928	-51.791	219.680	0.0003973	0.00051197	0.00016234	1376.4	4.9076e-06	5.0586e-06	1367.3	369.07	4.4904e-06	4.0804e-06	425.55	141.7	122.67	42.314	4.2717e-06	52.28	0.00049755	0.00048979	0.00013852	1387	5.3931e-06	5.4893e-06	1385.4	375.31	5.3576e-06	5.227e-06	432.31	144.7	125.73	43.341	5.3982e-06	53.635	160.650	-14.512	-14.994	-96.800	23.964	64.123	-97.182	-92.646	-0.363	65.997	-92.771	-88.770	-88.867	-83.540	47.211	-83.978	-8191	255	
21000.443	1	1	0	0	0.16408	0.019269	0.23793	0.28766	0.20196	0.064801	0.05616	0.55861	0.31331	0.099959	0.18373	0.21618	0.013634	0.2379	0.25588	0.13984	-2.0667	-2.8417	-2.6521	-2.7979	-2.7958	-2.6813	-2.9354	-2.875	-2.4604	-2.8458	-2.8271	-2.5021	-2.8563	-2.6583	-2.5563	-2.8646	199.009	121.328	96.654	248.346	-86.400	132.667	242.407	202.323	-73.806	78.307	-53.128	183.656	-24.381	200.392	61.803	168.696	0.00034615	0.00039671	0.00017683	1376.7	2.3382e-06	2.694e-06	1363.9	370.24	4.397e-06	6.1445e-06	427.44	141.89	122.8	42.64	3.0369e-06	52.419	0.00050666	0.00047755	0.00013827	1388.7	5.509e-06	5.3347e-06	1383.3	375.74	5.5037e-06	5.4062e-06	432.95	144.92	125.86	43.456	5.307e-06	53.662	156.676	-11.044	-41.794	-96.980	-0.239	-7.033	-97.004	-92.353	-3.520	29.450	-93.066	-88.895	-88.944	-83.267	-9.516	-84.037	-8191	255	
21000.516	1	1	0	0	0.11215	0.065148	0.15689	0.057967	0.1088	0.16731	0.15771	0.18083	0.10258	0.17464	0.11619	0.13424	0.16884	0.2118	0.23841	0.078597	-2.1479	-2.6771	-2.6771	-2.4979	-2.8479	-2.5771	-2.6125	-2.9188	-2.3063	-2.8167	-2.8896	-2.6604	-2.8792	-2.5875	-2.4792	-2.8083	198.605	67.471	96.197	119.151	80.947	24.709	170.224	144.007	238.518	144.585	146.227	147.183	-95.743	159.133	-23.438	69.465	0.00037374	0.0006005	0.0001477	1372.9	1.9747e-06	6.5662e-06	1363.2	369.2	5.3935e-07	5.5477e-06	426.5	142.04	122.26	42.535	4.4151e-06	52.206	0.00048844	0.00049476	0.00013963	1386.7	5.463e-06	5.3225e-06	1384.6	375.1	5.5355e-06	5.3957e-06	432.33	144.88	125.9	43.391	5.4934e-06	53.635	154.919	-28.477	-21.528	-96.825	28.381	50.076	-96.872	-92.278	11.217	48.627	-92.928	-88.739	-88.750	-83.403	29.973	-83.891	-8191	255	
21000.635	1	1	0	0	0.19243	0.31806	0.1138	0.23163	0.11982	0.11483	0.25754	0.10453	0.08814	0.17816	0.12529	0.10659	0.19844	0.24241	0.17279	0.2406	-2.0833	-2.6042	-2.5646	-2.6854	-2.9542	-2.4938	-2.7667	-3.0104	-2.5729	-2.6542	-2.6417	-2.5396	-2.6458	-2.7313	-2.5604	-2.8979	226.133	237.193	172.135	183.803	-72.613	-48.398	234.909	198.624	-68.302	197.801	-110.084	54.577	-44.448	-103.556	200.748	199.071	0.00034517	0.00066527	0.0001341	1376.3	3.1283e-06	4.8857e-06	1368.5	369.97	4.9499e-06	6.6276e-06	426.57	142.13	122.08	42.574	2.8642e-06	52.237	0.00049379	0.00049794	0.0001357	1388	5.4776e-06	5.2994e-06	1384.6	375.6	5.5427e-06	5.3624e-06	433.03	144.85	125.58	43.456	5.4361e-06	53.755	157.431	-24.668	3.240	-96.562	17.981	37.640	-96.927	-92.327	-6.008	58.949	-92.816	-89.146	-88.588	-83.311	32.476	-83.910	-8191	255	
21000.730	1	1	0	0	0.2653	0.14929	0.19736	0.29063	0.067704	0.2938	0.12217	0.27644	0.12674	0.19677	0.18446	0.27859	0.21503	0.10016	0.011266	0.029442	-1.8896	-2.4625	-2.6854	-2.5167	-2.9062	-2.4292	-2.7188	-3.1646	-2.6208	-2.7167	-2.9708	-2.6271	-2.6146	-2.7667	-2.4396	-2.7875	-70.279	22.004	193.708	234.017	117.870	102.916	228.163	164.686	231.393	218.880	222.081	-107.788	201.020	-80.595	-83.944	-19.876	0.00035991	0.00041481	0.00013126	1373.5	5.135e-06	4.2436e-06	1368.6	370.2	2.1952e-06	5.5438e-06	427.38	142.17	123.61	42.445	1.5689e-06	52.344	0.00049646	0.00050393	0.00013201	1388.1	5.6084e-06	5.3304e-06	1385.6	375.78	5.5939e-06	5.4877e-06	432.81	144.9	126.03	43.352	5.4114e-06	53.665	161.868	7.183	-14.172	-96.812	16.256	48.087	-96.889	-92.264	-23.442	55.411	-92.839	-88.743	-88.616	-83.598	-22.986	-83.974	-8191	255	
21000.828	1	1	0	0	0.20506	0.32481	0.12458	0.21448	0.17629	0.088379	0.041361	0.2077	0.022552	0.090968	0.23819	0.16505	0.13734	0.10503	0.15921	0.20221	-2.0146	-2.45	-2.65	-2.6063	-2.7896	-2.6667	-2.5958	-3.075	-2.6833	-2.4458	-2.9083	-2.4167	-2.7333	-2.8375	-2.3396	-3.0167	79.263	121.109	81.155	165.311	-76.667	172.922	233.888	86.987	4.115	71.418	186.367	167.294	239.659	105.751	128.018	178.121	0.0003344	0.00033277	0.00016322	1371.6	3.6985e-06	4.4508e-06	1370.9	369.36	1.3799e-06	4.8434e-06	427.12	142.07	122.02	42.345	4.8968e-06	52.458	0.00049635	0.00048101	0.00013451	1388.9	5.4111e-06	5.2759e-06	1385	375.47	5.4886e-06	5.4234e-06	432.31	144.96	125.66	43.367	5.3972e-06	53.725	156.671	-31.534	-30.189	-97.001	19.906	46.124	-96.994	-92.440	-37.736	44.334	-92.891	-88.792	-88.242	-83.507	33.496	-83.937	-8191	255	
21000.947	1	1	0	0	0.19017	0.13452	0.16704	0.087515	0.069378	0.10028	0.14131	0.025202	0.15358	0.10409	0.074285	0.04421	0.10215	0.24238	0.075646	0.18431	-2.125	-2.4667	-2.4833	-2.6583	-2.7438	-2.7417	-2.5875	-2.8833	-2.6083	-2.5396	-2.7125	-2.525	-2.7292	-2.8625	-2.5833	-2.7958	43.315	171.121	47.941	-87.541	221.967	175.428	176.256	211.287	81.667	-87.458	173.675	0.501	171.360	-34.759	109.643	194.012	0.00039536	0.00026591	8.4814e-05	1381.5	5.5756e-06	4.9315e-06	1362.3	369.97	2.6794e-06	5.7279e-06	425.19	141.87	122.51	42.41	4.2416e-06	52.425	0.00049659	0.00049285	0.00013152	1389.2	5.3778e-06	5.3823e-06	1383.4	375.75	5.357e-06	5.4837e-06	432.26	144.79	125.62	43.373	5.4285e-06	53.663	159.054	-25.762	-3.075	-96.767	39.586	37.099	-97.055	-92.376	25.648	68.473	-92.717	-88.855	-88.818	-83.305	24.422	-83.830	-8191	255	
21001.043	1	1	0	0	0.13964	0.17916	0.16732	0.28121	0.075022	0.063606	0.42527	0.1031	0.17437	0.066071	0.034946	0.28792	0.13484	0.26115	0.086232	0.33799	-2.1729	-2.3354	-2.7667	-2.6042	-2.7083	-2.8833	-2.5458	-2.7125	-2.5187	-2.375	-2.8063	-2.5542	-2.5812	-2.7229	-2.3812	-2.7875	246.040	117.688	122.630	196.463	215.320	54.709	237.713	139.772	212.323	207.967	63.699	221.584	-37.237	122.894	249.406	218.877	0.0003857	0.00040711	8.7895e-05	1373.6	4.6215e-06	5.2526e-06	1370.1	368.74	3.5392e-06	4.6189e-06	424.52	142.08	122.49	42.432	3.1256e-06	52.249	0.00049844	0.00050259	0.0001371	1385.9	5.408e-06	5.3981e-06	1384.7	374.96	5.3833e-06	5.2434e-06	432.86	144.94	125.57	43.372	5.3171e-06	53.595	154.387	-15.243	-57.681	-96.847	1.137	47.749	-96.913	-92.357	-6.917	57.726	-92.726	-88.552	-88.833	-83.420	35.678	-83.943	-8191	255	
21001.141	1	1	0	0	0.12394	0.24756	0.045162	0.19725	0.1331	0.11889	0.22687	0.082547	0.11851	0.10095	0.123	0.066139	0.17172	0.085366	0.19361	0.089984	-2.4104	-2.3271	-2.6604	-2.625	-2.4729	-2.9625	-2.7042	-2.7542	-2.6813	-2.5021	-2.7646	-2.6937	-2.5438	-2.8312	-2.4917	-2.6354	40.348	187.226	-32.947	192.001	-75.419	41.366	204.702	153.571	-33.216	-59.206	-52.734	72.468	-94.655	199.495	-10.076	157.416	0.00036771	0.00054606	0.00017305	1372.6	3.8283e-06	5.3738e-06	1366.1	369.97	3.5059e-06	4.0158e-06	425.37	141.63	122.46	42.35	2.8657e-06	52.616	0.00048554	0.00048163	0.00013391	1386.6	5.3328e-06	5.0741e-06	1383.1	375.56	5.2845e-06	5.2207e-06	432.51	144.89	125.72	43.401	5.2209e-06	53.667	160.276	3.028	0.548	-96.640	21.566	40.997	-96.902	-92.180	-10.865	42.881	-92.713	-88.858	-88.754	-83.450	32.625	-83.931	-8191	255	
21001.236	1	1	0	0	0.24304	0.19578	0.29833	0.32411	0.037018	0.39006	0.080357	0.032383	0.29194	0.13911	0.17493	0.18354	0.14917	0.057471	0.17704	0.074108	-2.2354	-2.4042	-2.6312	-2.6854	-2.5417	-2.8312	-2.5938	-2.8229	-2.7167	-2.2917	-2.8104	-2.8688	-2.4646	-2.7917	-2.5896	-2.7729	136.902	-2.059	-10.034	216.650	95.070	-95.908	227.159	219.538	222.131	184.159	145.973	-65.090	170.812	-77.998	244.710	122.264	0.00036914	0.00050189	0.00011984	1370.9	4.6214e-06	6.2956e-06	1366.1	370.26	4.1705e-06	5.6962e-06	426.72	141.6	122.58	42.627	5.1319e-06	52.555	0.00048802	0.00047639	0.00013273	1385.6	5.196e-06	5.1887e-06	1384.9	375.91	5.1535e-06	5.0731e-06	432.97	144.8	125.79	43.51	5.2086e-06	53.784	163.187	-11.176	-49.519	-96.926	15.921	41.460	-96.974	-92.411	12.772	36.943	-92.762	-88.726	-88.787	-83.152	36.111	-83.774	-8191	255	
21001.332	1	1	0	0	0.25096	0.069557	0.091834	0.10963	0.16292	0.19476	0.1762	0.046908	0.092296	0.19002	0.18572	0.18904	0.15099	0.25201	0.11333	0.1049	-2.3167	-2.6312	-2.8125	-2.8396	-2.3833	-2.9396	-2.6208	-2.6375	-2.8604	-2.4813	-2.9729	-2.7646	-2.5146	-2.7521	-2.5208	-2.7083	117.286	159.235	88.996	219.185	72.195	-81.563	116.936	-104.590	43.874	-25.959	-76.895	194.773	-68.962	201.937	175.474	-37.210	0.00038458	0.00032975	0.00013408	1372.4	2.8674e-06	4.9135e-06	1365.9	369.26	3.7318e-06	4.8835e-06	426.7	142.11	122.92	42.427	8.3306e-07	52.475	0.00046945	0.00047532	0.00012865	1386.3	5.1998e-06	5.1054e-06	1382.8	375.7	5.0741e-06	5.017e-06	433.52	145.04	126.05	43.5	5.0918e-06	53.754	157.709	-30.485	-40.740	-96.900	36.200	42.336	-97.027	-92.581	-9.076	43.177	-92.756	-88.416	-88.369	-83.240	55.723	-84.003	-8191	255	
21001.428	1	1	0	0	0.23715	0.22223	0.06505	0.27975	0.13308	0.17133	0.26032	0.16574	0.15624	0.018987	0.37404	0.18884	0.19192	0.15032	0.058107	0.2504	-2.3417	-2.3979	-2.7708	-2.7979	-2.3604	-2.9146	-2.8521	-2.5271	-2.75	-2.5312	-2.7938	-2.7812	-2.5021	-2.9167	-2.6333	-2.6708	189.444	19.056	119.100	215.086	197.188	37.693	169.376	-107.493	63.851	-105.290	211.598	-76.754	162.527	249.572	-41.056	156.784	0.00036692	0.00029881	0.00014051	1378.1	4.4844e-06	6.7703e-06	1372.4	370.02	2.4246e-06	5.3678e-06	427.69	142.47	122.52	42.541	3.7347e-06	52.324	0.00048311	0.00046737	0.00013141	1388.6	5.1665e-06	5.0784e-06	1387	375.71	5.1594e-06	5.0114e-06	433.96	145.18	126.15	43.457	5.0345e-06	53.576	156.951	-31.598	-23.305	-96.902	16.441	38.490	-97.099	-92.350	-70.157	38.536	-92.759	-89.138	-88.900	-83.088	34.035	-83.860	-8191	255	
21001.549	1	1	0	0	0.16627	0.019342	0.088693	0.30419	0.055874	0.17414	0.21317	0.24646	0.32447	0.22306	0.20962	0.2076	0.15164	0.37414	0.34016	0.19956	-2.5167	-2.4583	-2.7229	-2.95	-2.4354	-2.6688	-2.6854	-2.7021	-2.775	-2.5292	-2.7396	-2.8604	-2.5417	-2.8042	-2.7104	-2.6125	-19.698	146.849	-54.023	-101.706	-25.648	122.064	156.004	189.388	106.717	62.820	180.009	-93.337	150.722	-42.278	-33.350	188.293	0.00039414	0.00041595	0.00010064	1371.3	5.055e-06	2.4805e-06	1366.5	371.11	4.0421e-06	5.5924e-06	425.41	141.83	121.8	42.46	1.3869e-06	52.525	0.00047254	0.00046574	0.00013284	1385.6	5.1168e-06	5.0774e-06	1382.6	375.7	5.1177e-06	5.2092e-06	432.8	144.77	125.31	43.387	5.1646e-06	53.711	159.677	-8.045	-20.401	-96.941	20.439	31.210	-96.943	-92.197	-0.579	58.683	-92.927	-88.616	-88.771	-83.347	39.077	-84.131	-8191	255	
21001.643	1	1	0	0	0.23402	0.084448	0.060882	0.1992	0.028611	0.071279	0.13167	0.18474	0.31432	0.017777	0.057518	0.39639	0.086249	0.2711	0.18877	0.16837	-2.4333	-2.6083	-2.5354	-2.8812	-2.4854	-2.7208	-3.0104	-2.6375	-2.8271	-2.6937	-2.6271	-2.9167	-2.5563	-2.9083	-2.6958	-2.4604	57.300	69.869	-75.711	184.702	205.560	186.086	-98.478	218.516	-43.698	181.939	175.408	180.051	-92.128	248.023	209.307	236.447	0.00036326	0.00059858	0.00012699	1376.1	2.5663e-06	7.1681e-06	1362.6	369.02	4.0556e-06	5.8603e-06	427.32	141.41	122.44	42.575	4.7747e-06	52.423	0.00047415	0.00047229	0.00012932	1384.9	5.2116e-06	5.1755e-06	1383.3	375.38	5.218e-06	5.0022e-06	433.73	144.61	125.58	43.465	5.1617e-06	53.775	152.328	-35.543	-13.501	-96.537	17.036	26.951	-97.030	-92.097	-6.352	45.068	-92.867	-88.871	-88.800	-83.495	50.269	-83.965	-8191	255	
21001.738	1	1	0	0	0.10917	0.14669	0.17072	0.18079	0.070946	0.26075	0.073224	0.08512	0.31485	0.11607	0.14889	0.14608	0.15606	0.068005	0.13391	0.050917	-2.3667	-2.5667	-2.5979	-2.7729	-2.4104	-2.7458	-2.9333	-2.5583	-2.6625	-2.6125	-2.5875	-2.8604	-2.5958	-2.6896	-2.8042	-2.3604	27.091	51.882	41.729	187.138	38.573	0.822	220.165	93.943	-8.558	226.755	121.200	180.444	201.937	194.411	63.874	156.020	0.00039	0.0005367	0.00017592	1379	2.1344e-06	5.6799e-06	1364.7	368.89	4.5135e-06	4.6571e-06	428.84	142.81	122.36	42.563	4.1464e-06	52.458	0.00048402	0.00048014	0.00012803	1388.1	5.2361e-06	5.1183e-06	1383.4	375.46	5.2381e-06	5.1686e-06	433.79	145.35	125.83	43.511	5.2079e-06	53.783	165.750	9.409	-34.541	-96.962	38.370	48.874	-96.934	-92.292	-6.687	33.678	-92.843	-88.969	-88.686	-83.130	35.160	-83.722	-8191	255	
21001.811	1	1	0	0	0.26699	0.11227	0.23656	0.20364	0.15645	0.089314	0.25141	0.23569	0.19954	0.1641	0.24318	0.14481	0.070451	0.12919	0.14549	0.088237	-2.3146	-2.5938	-2.4458	-2.7167	-2.3271	-2.7104	-2.8458	-2.5354	-2.7458	-2.6708	-2.4188	-2.8708	-2.5563	-2.6125	-2.9208	-2.5792	66.943	-85.227	142.422	149.301	216.264	160.441	232.597	-106.265	224.457	205.169	202.188	161.668	-37.001	183.927	229.968	170.141	0.00033069	0.00053419	0.00015515	1374	3.0384e-06	5.8973e-06	1378.1	371.83	1.8016e-06	5.1313e-06	428.26	142.31	123.51	42.793	3.2374e-06	53.002	0.0004957	0.00047696	0.00013029	1391.2	5.2799e-06	5.2207e-06	1389.6	376.86	5.3014e-06	5.1848e-06	435.04	145.42	126.74	43.716	5.212e-06	54.08	157.333	-6.021	-8.383	-96.788	29.567	37.428	-97.056	-92.236	-14.090	37.220	-92.613	-88.928	-88.530	-83.578	30.199	-83.748	-8191	255	
21001.932	1	1	0	0	0.089165	0.2314	0.079684	0.12968	0.19571	0.056303	0.11479	0.083795	0.19977	0.20834	0.098419	0.34522	0.047209	0.27336	0.17458	0.16916	-2.2854	-2.4875	-2.4479	-2.8479	-2.6458	-2.5646	-3	-2.6708	-2.75	-2.6625	-2.5521	-2.8292	-2.7521	-2.6229	-2.7729	-2.7104	-85.957	25.121	-61.137	240.950	91.175	-24.331	-95.718	-103.110	56.745	173.406	-81.099	-56.975	-27.509	-84.436	141.026	248.176	0.0003636	0.00058987	0.00015242	1386.9	3.2799e-06	5.6378e-06	1378.3	372.03	4.5645e-06	4.9071e-06	430.44	143.84	123.86	42.852	4.8391e-06	53.128	0.00047206	0.00045053	0.00013292	1397.7	5.2231e-06	5.0275e-06	1394.3	378.04	5.2412e-06	4.991e-06	436.75	146.55	127.03	43.889	5.1636e-06	54.2	163.357	-17.254	-35.663	-96.906	17.469	27.978	-97.032	-92.397	-6.470	84.271	-92.880	-88.879	-88.681	-83.535	42.215	-83.821	-8191	255	
21002.027	1	1	0	0	0.17759	0.087337	0.35253	0.34582	0.078525	0.26919	0.13328	0.13076	0.10523	0.16064	0.16671	0.20109	0.38567	0.1362	0.12641	0.020311	-2.3083	-2.5646	-2.4021	-2.8708	-2.6625	-2.4813	-2.9562	-2.55	-2.6875	-2.9042	-2.5833	-2.9021	-2.6688	-2.6312	-2.7938	-2.5833	-27.232	-10.264	98.279	-63.678	217.611	-40.531	21.998	185.353	-106.958	-84.289	86.214	215.496	-59.273	237.325	71.030	-35.514	0.00031273	0.00033368	0.00016202	1389	2.5024e-06	3.9192e-06	1379.9	374.66	1.8021e-06	5.0079e-06	430.79	143.56	123.29	43.001	4.7583e-06	53.397	0.00047991	0.00045591	0.0001275	1401.1	5.1525e-06	5.0156e-06	1396.9	379.73	5.3487e-06	5.1225e-06	437.8	146.59	127.11	43.936	4.9034e-06	54.354	153.483	-11.192	-27.389	-96.857	37.039	23.091	-96.890	-92.385	-18.399	53.270	-92.836	-89.038	-88.564	-83.369	4.024	-83.932	-8191	255	
21002.123	1	1	0	0	0.05351	0.24705	0.10136	0.071282	0.10195	0.16402	0.17604	0.39498	0.37836	0.26026	0.37517	0.3545	0.13045	0.12172	0.10423	0.11829	-2.1958	-2.6188	-2.4771	-2.8917	-2.6729	-2.325	-2.9417	-2.7292	-2.5667	-2.8604	-2.7271	-2.9313	-2.6833	-2.4979	-2.6396	-2.6979	17.370	-87.798	181.815	211.171	-26.475	139.284	162.942	211.361	-78.713	-12.055	197.097	164.764	240.438	190.003	16.039	138.165	0.00036319	0.00029072	8.9174e-05	1389.5	3.9161e-06	6.5746e-06	1375.2	373.75	2.6694e-06	6.0695e-06	433.16	143.79	123.78	42.929	2.4243e-06	53.172	0.00048	0.0004727	0.00013087	1402	5.1115e-06	5.1035e-06	1397	379.59	5.4027e-06	5.1812e-06	438.64	146.96	127.49	43.981	5.2006e-06	54.38	159.914	-10.367	-69.309	-96.890	8.948	51.335	-97.105	-92.367	27.819	55.611	-92.855	-89.062	-88.840	-83.089	16.742	-84.095	-8191	255	
21002.221	1	1	0	0	0.04785	0.18135	0.34724	0.20872	0.16079	0.306	0.065765	0.028687	0.044721	0.3143	0.13313	0.28668	0.22313	0.064669	0.18623	0.18929	-2.1292	-2.8	-2.2375	-2.8312	-2.7875	-2.4021	-3.0396	-2.6708	-2.5563	-2.7604	-2.7687	-2.9646	-2.6208	-2.5125	-2.8167	-2.9271	-79.000	166.042	109.603	213.301	-75.352	-73.897	188.176	175.178	19.792	-34.551	167.205	62.182	224.772	245.919	136.122	173.563	0.00040417	0.00056906	0.00010588	1391.4	2.5933e-06	6.4592e-06	1383.4	375.74	2.4257e-06	3.9614e-06	431.2	143.75	124.35	43.017	3.0937e-06	52.889	0.00047835	0.00046583	0.00012662	1404.6	5.0071e-06	5.16e-06	1399.8	380.55	5.3036e-06	4.9907e-06	439.07	146.85	127.28	44.001	5.1703e-06	54.246	164.045	-30.489	-11.941	-96.755	40.969	50.030	-96.966	-92.488	-39.480	36.703	-92.786	-88.966	-88.724	-83.289	-5.460	-84.119	-8191	255	
21002.316	1	1	0	0	0.31999	0.033562	0.34909	0.11368	0.13499	0.05219	0.21625	0.23768	0.19918	0.35713	0.22849	0.27801	0.18544	0.050715	0.058007	0.1533	-2.1229	-2.8396	-2.4375	-2.6167	-2.6063	-2.4021	-2.8958	-2.7354	-2.4542	-2.6333	-2.6271	-2.7104	-2.7542	-2.4813	-2.7521	-2.7479	153.637	146.089	-36.680	-101.876	26.882	126.668	122.984	158.704	153.940	109.118	126.958	212.827	147.310	118.014	-15.073	242.638	0.00039725	0.00039373	0.00013406	1389.4	4.9086e-06	4.7716e-06	1384.4	373.39	5.132e-06	2.8419e-06	430.94	143.63	124.52	43.01	4.0856e-06	52.884	0.0004795	0.00048092	0.00013475	1402.1	5.1488e-06	5.083e-06	1400.4	380.22	5.2261e-06	4.9854e-06	438.23	146.67	127.65	43.935	5.2101e-06	54.195	158.332	-20.363	-32.346	-96.710	9.954	46.407	-97.095	-92.346	4.272	73.176	-92.897	-88.631	-88.843	-83.331	32.934	-84.050	-8191	255	
21002.412	1	1	0	0	0.36465	0.15591	0.34093	0.062057	0.11814	0.1739	0.13547	0.23687	0.085329	0.13279	0.097746	0.31807	0.057472	0.15501	0.096616	0.17581	-1.8813	-2.6167	-2.5229	-2.7354	-2.7417	-2.5104	-2.9021	-2.925	-2.3479	-2.8271	-2.75	-2.5687	-2.9646	-2.4333	-2.8646	-2.7396	-53.639	-33.775	135.298	244.340	184.826	164.547	190.062	104.416	-64.810	-59.636	204.544	-81.695	169.350	-99.597	180.145	139.355	0.00034709	0.00050662	0.00013942	1391.7	3.7929e-06	6.2511e-06	1382.7	375.04	3.0676e-06	5.1103e-06	433.49	143.77	123.46	43.128	2.9785e-06	53.033	0.00048548	0.00047779	0.00012855	1403.4	5.0776e-06	5.1005e-06	1398.7	380.96	5.2684e-06	5.4013e-06	439.06	146.86	127.21	43.986	5.1874e-06	54.348	156.926	-39.221	-51.522	-96.943	21.410	49.828	-97.141	-92.242	-37.626	60.765	-92.859	-89.259	-88.435	-83.322	33.411	-84.305	-8191	255	
21002.508	1	1	0	0	0.27295	0.31527	0.15983	0.25425	0.13166	0.27794	0.44743	0.18513	0.023484	0.13253	0.38694	0.2678	0.15292	0.3141	0.16038	0.16519	-2.1375	-2.7208	-2.5417	-2.6396	-2.5333	-2.5	-2.7979	-2.9188	-2.4021	-2.7896	-2.6583	-2.6125	-2.8604	-2.5854	-2.6479	-2.7833	-13.741	-8.047	26.144	206.242	172.432	-60.565	229.757	111.882	-101.351	-1.715	-70.189	216.741	125.622	201.168	-12.026	-43.379	0.00035906	0.00043488	0.00012234	1386.3	3.8042e-06	5.5569e-06	1380	375.66	4.7665e-06	2.7456e-06	431.83	143.73	125.03	42.957	3.9935e-06	52.855	0.00047639	0.00046538	0.0001334	1402.1	5.1317e-06	5.1996e-06	1400.3	380.6	5.2783e-06	5.1123e-06	438.81	146.77	127.6	43.941	5.2374e-06	54.266	158.103	1.868	-35.358	-96.782	-4.518	40.428	-96.881	-92.499	-19.517	67.557	-92.865	-88.864	-88.911	-83.393	27.533	-84.121	-8191	255	
21002.629	1	1	0	0	0.067199	0.1408	0.12096	0.27906	0.23658	0.054724	0.207	0.16616	0.028776	0.1726	0.061828	0.073583	0.19043	0.12652	0.1024	0.15226	-1.9625	-2.8937	-2.5708	-2.6188	-2.8208	-2.6792	-2.7083	-2.975	-2.3146	-2.7958	-2.9396	-2.5375	-2.8917	-2.575	-2.6125	-2.8771	-34.174	110.943	-106.369	222.536	-29.514	33.645	208.410	195.442	-105.166	45.205	123.609	67.838	94.707	-12.865	244.021	-14.641	0.00039606	0.00055099	0.00012824	1392.2	2.6653e-06	5.668e-06	1380.3	375.14	3.327e-06	2.8722e-06	432.47	143.61	124.02	43.039	4.2997e-06	53.231	0.00049581	0.00047696	0.00012905	1405.5	5.1469e-06	5.12e-06	1398.3	380.94	5.156e-06	5.1264e-06	438.45	146.73	127.63	44.01	5.038e-06	54.344	158.228	-24.167	-16.745	-96.840	16.079	56.889	-97.120	-92.398	-5.749	62.210	-92.905	-89.056	-88.816	-83.495	-16.491	-83.575	-8191	255	
21002.723	1	1	0	0	0.25512	0.10125	0.067174	0.095952	0.086149	0.12401	0.29922	0.37704	0.20949	0.080194	0.26324	0.29439	0.18791	0.06903	0.15892	0.10125	-1.9896	-2.6854	-2.7521	-2.4521	-2.9646	-2.8167	-2.7333	-2.9437	-2.4521	-2.8417	-2.8563	-2.4521	-2.7771	-2.6833	-2.325	-2.8833	219.215	138.137	-11.950	-92.388	98.900	48.057	192.990	212.360	96.244	48.386	151.036	119.322	-108.438	198.585	23.928	140.372	0.00036086	0.00053855	0.00016455	1395.4	3.0356e-06	4.3047e-06	1383	374.74	4.6438e-06	4.9756e-06	432.65	143.95	124.82	42.975	3.8684e-06	53.075	0.00047841	0.00046889	0.00012522	1406.9	5.0739e-06	5.2419e-06	1400.6	380.62	5.2795e-06	5.1841e-06	439.14	147.15	127.56	43.993	5.0712e-06	54.392	153.341	-30.388	-22.884	-96.972	36.332	50.699	-96.975	-92.379	1.263	24.337	-92.642	-88.912	-88.728	-83.269	37.865	-83.861	-8191	255	
21002.820	1	1	0	0	0.24075	0.19141	0.24964	0.34089	0.22761	0.11583	0.17902	0.18813	0.29225	0.050438	0.0291	0.13847	0.14627	0.10348	0.21361	0.16161	-2.0187	-2.85	-2.7521	-2.6208	-2.8063	-2.7021	-2.5292	-2.8312	-2.5042	-2.7396	-2.8438	-2.7583	-2.8167	-2.7625	-2.6542	-2.9917	52.235	-55.232	-24.152	157.655	-10.121	-20.459	-68.632	164.061	-4.117	-0.519	168.908	-38.474	134.580	-84.597	44.301	130.061	0.00040126	0.00042952	9.2265e-05	1390.7	4.934e-06	6.16e-06	1388.2	375.11	3.6426e-06	3.3104e-06	433.13	143.83	124.35	43.284	4.9991e-06	53.321	0.0004748	0.00045115	0.00012721	1406.7	5.1516e-06	4.9991e-06	1403.3	381.13	5.3305e-06	5.0968e-06	439.51	147.03	127.67	44.143	4.999e-06	54.44	159.399	-32.669	-45.052	-96.804	34.315	30.988	-96.876	-92.276	13.056	40.874	-92.795	-88.761	-88.939	-83.405	13.495	-84.323	-8191	255	
21002.916	1	1	0	0	0.12413	0.019353	0.20296	0.38437	0.29697	0.18402	0.11469	0.16319	0.2722	0.15292	0.25233	0.11263	0.21577	0.091522	0.18064	0.14973	-2.0354	-2.6188	-2.6937	-2.6708	-2.7188	-2.6188	-2.575	-2.7271	-2.5625	-2.6	-2.8667	-2.6229	-2.8042	-2.7667	-2.6646	-2.8208	97.801	62.982	105.857	196.547	150.163	77.139	228.897	186.099	106.222	41.602	214.644	241.238	171.340	194.408	-64.196	190.337	0.00034973	0.00054954	0.00012622	1392.9	3.7882e-06	5.1948e-06	1384.9	375.78	3.9874e-06	5.926e-06	434.71	144.26	124.47	43.089	3.7679e-06	53.081	0.00047287	0.00046961	0.00013094	1408.4	5.1923e-06	4.973e-06	1403.5	381.73	5.1109e-06	4.9729e-06	439.92	147.29	127.85	44.12	5.0525e-06	54.398	164.158	-18.091	-31.683	-96.927	0.053	36.998	-96.883	-92.484	-39.459	47.507	-92.585	-88.882	-88.902	-83.502	4.384	-84.166	-8191	255	
21003.035	1	1	0	0	0.14789	0.25098	0.051209	0.13272	0.29242	0.10344	0.20992	0.27867	0.12486	0.24366	0.21518	0.22103	0.28782	0.1438	0.16209	0.077303	-2.0583	-2.4938	-2.6625	-2.7417	-2.675	-2.6813	-2.6021	-2.9042	-2.6479	-2.5771	-2.8167	-2.7271	-2.7833	-2.7354	-2.3563	-2.8458	-33.277	69.064	-5.882	211.870	58.979	-23.709	40.514	-103.807	39.887	20.342	98.945	177.298	177.152	177.655	-93.838	177.838	0.00041136	0.0003488	0.00017225	1396.6	3.3687e-06	4.0991e-06	1390.8	376.44	3.8439e-06	4.7474e-06	434.28	144.4	125.06	43.268	4.9036e-06	53.324	0.00048063	0.00046842	0.00012583	1408	5.164e-06	5.0258e-06	1405.7	382.09	5.1773e-06	5.0506e-06	440.26	147.28	127.9	44.133	5.1927e-06	54.544	160.765	-26.304	-19.181	-96.727	-6.750	61.109	-97.087	-92.517	1.755	45.210	-92.699	-88.897	-88.621	-83.713	39.319	-84.008	-8191	255	
21003.107	1	1	0	0	0.019562	0.16213	0.26324	0.18652	0.31431	0.14276	0.17188	0.25999	0.23863	0.15278	0.033877	0.20825	0.10223	0.070524	0.41418	0.14856	-2.4333	-2.4771	-2.8438	-2.6479	-2.6333	-2.8125	-2.6229	-2.6375	-2.5875	-2.6854	-3.0042	-2.8146	-2.6	-2.9292	-2.4958	-2.5979	186.340	225.474	43.796	168.378	73.178	-3.008	202.456	207.946	88.478	109.171	41.135	132.025	186.419	140.463	92.109	198.583	0.00039462	0.00066918	0.00016904	1399.4	2.7158e-06	4.9579e-06	1387.1	376.58	1.8027e-06	4.1801e-06	434.03	144.19	124.89	43.296	5.3666e-06	53.055	0.00046725	0.00046725	0.00012897	1409.2	5.2206e-06	5.047e-06	1403.9	382.75	5.2075e-06	5.1347e-06	440.4	147.31	128.08	44.132	5.2481e-06	54.513	157.714	-19.465	-21.633	-97.012	9.369	39.721	-96.902	-92.580	-18.493	62.618	-93.029	-88.818	-88.644	-83.351	22.254	-84.269	-8191	255	
21003.229	1	1	0	0	0.29605	0.067425	0.18137	0.083624	0.15852	0.13118	0.254	0.076808	0.20754	0.057488	0.1842	0.10564	0.30997	0.16379	0.23438	0.16385	-2.3208	-2.475	-2.5646	-2.775	-2.5021	-2.9208	-2.7229	-2.9125	-2.6625	-2.6562	-2.7604	-2.6792	-2.6292	-3.0125	-2.4896	-2.8604	55.276	142.863	194.016	24.511	90.961	120.714	210.106	242.939	87.585	59.607	-57.525	-31.268	-106.656	211.876	224.585	201.748	0.00035451	0.00047073	9.5185e-05	1396.1	4.6004e-06	3.6756e-06	1384.2	375.11	5.1216e-06	6.3313e-06	433.49	145.13	124.88	43.191	3.1246e-06	53.428	0.0004753	0.0004663	0.00013377	1408.6	5.1665e-06	5.0397e-06	1402.9	382.01	5.2338e-06	5.074e-06	440.91	147.46	128.03	44.098	5.0484e-06	54.551	159.584	-25.858	-21.761	-96.826	8.634	43.334	-97.120	-92.397	-26.581	45.410	-92.954	-88.714	-88.457	-83.561	48.575	-84.001	-8191	255	
21003.324	1	1	0	0	0.29463	0.070468	0.075629	0.20941	0.30671	0.31542	0.13127	0.26154	0.092356	0.078054	0.39527	0.21149	0.14524	0.13251	0.11171	0.17711	-2.1208	-2.3333	-2.9292	-2.6729	-2.4375	-2.7625	-2.7396	-2.8021	-2.6208	-2.5104	-2.8896	-2.7188	-2.5312	-2.7854	-2.5667	-2.775	198.558	-100.106	50.580	201.502	-51.565	-34.978	245.198	201.095	42.208	-73.844	-109.475	114.867	-3.407	-75.255	129.300	162.205	0.00034789	0.00045243	0.00012992	1395.1	4.0675e-06	4.5108e-06	1390.1	376.01	3.6634e-06	5.2549e-06	432.8	144.58	124.86	43.09	2.9621e-06	53.57	0.00047341	0.00045386	0.00012843	1408.5	5.0646e-06	4.9208e-06	1406.1	382.08	5.1331e-06	5.0101e-06	440.36	147.61	128.23	44.143	5.0291e-06	54.58	158.014	-34.777	-16.681	-96.886	-1.292	40.569	-97.006	-92.354	-4.735	57.095	-93.059	-88.959	-88.532	-83.410	19.420	-83.991	-8191	255	
21003.422	1	1	0	0	0.1787	0.20225	0.14827	0.24433	0.1967	0.12231	0.17483	0.3424	0.064513	0.042128	0.11958	0.20947	0.11023	0.45015	0.40045	0.24067	-2.3083	-2.4729	-2.7438	-2.8021	-2.5333	-2.9167	-2.6104	-2.8	-2.75	-2.425	-2.8208	-2.7271	-2.5438	-3.0104	-2.4062	-2.7333	26.766	-47.405	-20.061	222.801	-60.734	-81.724	166.549	227.631	148.112	-36.096	-89.347	211.939	-72.540	-91.219	124.460	128.970	0.00037695	0.00053186	0.00017793	1396.4	1.8735e-06	6.1618e-06	1388.8	377.63	2.5795e-06	6.8932e-06	435	144.6	124.86	43.292	2.6649e-06	53.198	0.00046182	0.00045925	0.00012477	1409.6	5.0307e-06	4.901e-06	1405.4	382.79	5.0837e-06	5.1584e-06	440.05	147.64	128.44	44.194	5.0664e-06	54.564	162.205	-13.768	-11.264	-96.799	34.552	61.233	-97.062	-92.364	-14.880	50.784	-92.886	-88.948	-88.695	-83.415	13.742	-83.762	-8191	255	
21003.518	1	1	0	0	0.16463	0.18405	0.23	0.07887	0.23693	0.28709	0.23723	0.22083	0.30337	0.095312	0.15606	0.10668	0.17657	0.07468	0.092548	0.24535	-2.5917	-2.5396	-2.6333	-2.7833	-2.5729	-2.9104	-2.7771	-2.7	-2.9625	-2.4646	-2.9479	-2.7521	-2.4938	-2.8396	-2.6437	-2.6437	33.486	192.701	18.627	156.601	-107.044	-81.456	174.610	115.232	27.152	121.846	196.315	244.729	151.380	109.762	-31.433	-77.660	0.00037707	0.00054779	9.5968e-05	1394.1	3.2647e-06	5.2072e-06	1381.6	376.56	4.5656e-06	6.2299e-06	435.71	144.3	124.85	43.298	4.7123e-06	53.122	0.00047361	0.0004538	0.00012684	1410.5	5.1065e-06	4.9644e-06	1404.6	382.53	5.0281e-06	4.8641e-06	441.18	147.59	128.02	44.211	5.057e-06	54.521	157.557	1.578	-13.996	-96.794	16.847	67.831	-97.120	-92.481	-15.498	47.175	-92.890	-88.845	-88.774	-83.401	37.954	-83.909	-8191	255	
21003.637	1	1	0	0	0.077168	0.044652	0.27023	0.17645	0.18127	0.20877	0.079017	0.48298	0.21216	0.15019	0.19638	0.24788	0.24936	0.078371	0.044213	0.12934	-2.4042	-2.5021	-2.7687	-2.8417	-2.4562	-2.8083	-2.6958	-2.5042	-2.8563	-2.5229	-2.6771	-2.8396	-2.4437	-3	-2.7104	-2.6729	140.407	-66.929	2.158	197.879	76.388	147.324	189.172	172.917	-89.980	99.355	237.290	138.720	-94.271	-23.630	-10.766	-42.569	0.0003959	0.00049287	0.00011525	1396.3	3.0553e-06	4.6538e-06	1389.7	376.73	5.9861e-06	6.478e-06	433.26	145.07	124.88	43.232	6.6043e-06	53.212	0.00047824	0.00045112	0.00012878	1410	4.9459e-06	4.9997e-06	1405.9	382.73	5.0571e-06	4.989e-06	440.35	147.65	128.03	44.142	5.0054e-06	54.529	156.485	-24.599	-70.558	-96.718	12.767	56.703	-96.891	-92.492	-12.332	46.365	-92.866	-89.078	-88.569	-83.260	34.734	-83.972	-8191	255	
21003.707	1	1	0	0	0.12869	0.14367	0.070172	0.072942	0.38725	0.17502	0.24629	0.10636	0.13129	0.23052	0.088443	0.22964	0.21582	0.17586	0.22898	0.3584	-2.2833	-2.4917	-2.4854	-3.0125	-2.6854	-2.8958	-2.8438	-2.7083	-2.8542	-2.4229	-2.7729	-2.9167	-2.5938	-2.7708	-2.6896	-2.5021	46.233	193.586	226.965	-19.179	243.555	234.367	184.898	92.023	23.769	30.000	199.359	161.148	219.304	138.729	-57.693	207.282	0.00041779	0.00029347	0.00010245	1394.8	4.2186e-06	5.146e-06	1391.5	377.98	3.2465e-06	4.8315e-06	434.45	144.09	124.15	43.319	3.4682e-07	53.11	0.00047361	0.00046919	0.00012423	1409.2	5.063e-06	4.8881e-06	1406.7	383.08	5.0581e-06	5.1726e-06	440.87	147.37	127.96	44.184	5.0225e-06	54.44	157.214	-15.384	-29.152	-96.737	15.913	46.836	-96.930	-92.405	20.461	47.095	-93.070	-88.693	-88.656	-83.308	135.863	-84.228	-8191	255	
21003.805	1	1	0	0	0.07733	0.040844	0.068895	0.06618	0.20394	0.32186	0.27843	0.22877	0.19492	0.097548	0.06208	0.44192	0.20844	0.030708	0.17843	0.25339	-2.4646	-2.5729	-2.6271	-2.9938	-2.6333	-2.6312	-2.8958	-2.6167	-2.7104	-2.6	-2.6917	-2.8833	-2.4167	-2.6833	-2.7875	-2.65	191.571	-51.904	179.700	-76.702	223.923	110.033	213.976	128.933	157.816	220.477	198.700	245.154	240.816	235.777	41.347	-65.752	0.00035938	0.00038584	0.00019709	1394.8	2.9012e-06	5.5058e-06	1392.3	376.71	4.1195e-06	2.7012e-06	435.33	144.17	125.19	43.131	3.5378e-06	53.222	0.00046949	0.0004532	0.00013096	1408.8	5.1755e-06	4.9743e-06	1406.6	382.61	5.0049e-06	5.0997e-06	441.31	147.34	128.26	44.129	4.9873e-06	54.505	161.131	-16.524	-37.411	-96.778	20.997	16.063	-97.088	-92.482	-9.804	37.377	-92.432	-88.982	-88.955	-83.461	42.342	-83.829	-8191	255	
21003.900	1	1	0	0	0.087376	0.024581	0.19011	0.15408	0.14701	0.18683	0.18722	0.1944	0.088505	0.18954	0.21224	0.1994	0.11667	0.10485	0.21696	0.080172	-2.5187	-2.6521	-2.5646	-3.025	-2.6542	-2.5521	-2.85	-2.5667	-2.8396	-2.6292	-2.5292	-2.8604	-2.75	-2.825	-2.9062	-2.4083	128.826	198.557	5.819	-103.799	106.277	85.954	225.062	-76.317	106.265	68.750	166.132	201.451	-69.431	236.365	-1.207	-43.256	0.0003611	0.000565	0.00015454	1401.8	2.9657e-06	4.3793e-06	1391.2	376.63	3.546e-06	3.4352e-06	434.66	144.43	125.08	43.134	5.8527e-06	53.175	0.00047519	0.00046386	0.00012901	1412.9	5.1578e-06	5.1652e-06	1406.5	382.81	5.0998e-06	5.0371e-06	441.58	147.54	128.35	44.146	5.0582e-06	54.502	156.373	-34.815	-34.614	-96.829	26.095	67.578	-97.052	-92.433	-15.856	28.434	-93.111	-88.886	-88.647	-83.455	7.822	-84.043	-8191	255	
21003.996	1	1	0	0	0.081371	0.14358	0.14314	0.26614	0.26278	0.074226	0.28071	0.27989	0.099267	0.056637	0.06322	0.24755	0.19737	0.35685	0.060255	0.36506	-2.3146	-2.7542	-2.3896	-3.0083	-2.6792	-2.6896	-2.9542	-2.5583	-2.5792	-2.8625	-2.4583	-2.9854	-2.6375	-2.5854	-2.8396	-2.725	159.317	50.979	128.045	196.550	114.580	97.122	231.681	202.349	-29.972	227.325	-52.319	-87.618	-69.225	240.929	72.918	204.779	0.00038038	0.00041464	0.00014579	1399.1	3.1386e-06	7.1768e-06	1394.1	378.08	4.5959e-06	4.2404e-06	435.65	145.11	125.08	43.267	2.3271e-06	53.042	0.00046934	0.000448	0.00012713	1411.4	5.0487e-06	5.0678e-06	1406.8	383.61	5.0167e-06	5.0187e-06	441.62	147.79	128.42	44.165	4.9364e-06	54.465	157.681	-31.842	-1.982	-96.871	35.461	50.713	-96.944	-92.543	-2.630	29.576	-92.850	-88.901	-88.334	-83.385	46.185	-84.027	-8191	255	
21004.117	1	1	0	0	0.1644	0.25212	0.16193	0.17431	0.21064	0.21153	0.074085	0.15442	0.14973	0.20598	0.29455	0.17024	0.16509	0.18288	0.071829	0.083514	-2.3312	-2.6021	-2.5563	-2.8896	-2.3833	-2.7104	-3.1167	-2.6667	-2.8375	-2.8875	-2.7021	-2.8417	-2.7479	-2.6833	-2.8917	-2.7208	129.752	-108.687	65.343	-88.430	-66.941	157.497	202.815	168.096	20.229	197.910	225.282	241.901	-39.862	205.178	154.005	111.299	0.00038336	0.00047086	0.00011707	1396.9	4.9788e-06	5.491e-06	1389	377.69	3.8207e-06	3.831e-06	434.96	144.38	125.69	43.176	4.1622e-06	53.094	0.00046926	0.00046074	0.00012933	1409.9	5.1622e-06	5.1157e-06	1406	383.11	5.0343e-06	4.9844e-06	441.38	147.39	128.32	44.189	5.0323e-06	54.54	159.974	14.848	-10.420	-96.926	4.501	54.931	-97.027	-92.374	-4.905	52.225	-92.899	-88.938	-88.482	-83.472	12.378	-83.983	-8191	255	
21004.213	1	1	0	0	0.20964	0.20831	0.40406	0.15977	0.12683	0.19132	0.10947	0.24019	0.14008	0.070746	0.17864	0.15101	0.16789	0.087848	0.18899	0.10039	-2.2625	-2.6396	-2.4625	-2.9646	-2.6917	-2.4854	-3.2083	-2.6896	-2.7458	-2.8521	-2.6896	-2.8708	-2.6583	-2.4688	-2.6896	-2.7521	135.545	-77.646	249.215	-104.776	35.696	39.651	79.916	186.315	101.425	153.007	177.925	-72.485	160.558	153.370	-76.123	113.660	0.00034557	0.00039475	0.00010348	1397.7	3.4636e-06	4.9955e-06	1386.8	377.33	1.5956e-06	6.0824e-06	433.83	145.17	124.75	43.134	4.6673e-06	53.264	0.000471	0.00045422	0.00013094	1411.4	5.1824e-06	5.1395e-06	1405.5	382.89	5.1381e-06	5.022e-06	441.21	147.84	127.88	44.181	5.1196e-06	54.564	158.592	-23.039	-12.781	-96.650	34.697	42.252	-96.818	-92.367	-15.762	10.149	-93.032	-88.812	-88.540	-83.470	19.188	-83.900	-8191	255	
21004.309	1	1	0	0	0.0089173	0.10717	0.08811	0.16674	0.11	0.12817	0.23826	0.16752	0.13127	0.14319	0.10224	0.099988	0.16329	0.2284	0.3487	0.22266	-2.0187	-2.8604	-2.3812	-2.9521	-2.8937	-2.6458	-2.7167	-2.7917	-2.6688	-2.9292	-2.825	-2.8917	-2.7812	-2.5333	-2.8458	-2.8187	85.231	160.248	91.017	244.958	89.362	-47.864	218.128	116.166	93.756	10.856	173.013	208.527	3.326	234.668	22.923	232.113	0.00035482	0.00059432	0.00016379	1399.3	4.3866e-06	2.608e-06	1391.9	377.9	2.468e-06	5.8092e-06	434.59	145.05	124.81	43.209	4.8081e-06	53.204	0.00046658	0.00046374	0.00012949	1409.4	5.0432e-06	4.9026e-06	1407.1	383.34	5.0612e-06	4.9976e-06	440.43	147.51	128.27	44.168	4.9449e-06	54.478	154.493	-3.886	-6.932	-96.769	2.968	23.368	-97.122	-92.524	7.521	57.657	-92.869	-88.921	-88.747	-83.575	52.841	-84.096	-8191	255	
21004.404	1	1	0	0	0.11643	0.20522	0.0049141	0.35965	0.08737	0.09449	0.34911	0.30518	0.17939	0.16158	0.14332	0.11365	0.158	0.10686	0.19055	0.35608	-1.9708	-3	-2.5479	-2.7604	-2.7583	-2.4062	-2.9458	-2.7542	-2.5125	-2.8063	-2.7979	-2.8187	-2.8521	-2.6375	-2.6292	-2.8479	150.812	-68.918	-58.808	208.250	-62.691	108.725	208.034	217.978	-110.162	80.088	249.573	-80.780	29.814	203.210	162.341	186.874	0.00039442	0.00044709	0.00016977	1393.8	3.6307e-06	2.7144e-06	1388.6	377.49	3.9621e-06	4.1042e-06	434.39	144.37	125.87	43.3	1.9049e-06	53.053	0.0004726	0.00045127	0.00012773	1411.7	5.1156e-06	4.9617e-06	1407.3	383.13	5.1831e-06	4.8875e-06	440.54	147.6	128.53	44.249	4.9883e-06	54.487	161.338	-25.687	-6.283	-96.941	8.908	56.812	-96.910	-92.409	-6.092	-0.471	-92.832	-88.989	-88.532	-83.224	26.083	-83.864	-8191	255	
21004.502	1	1	0	0	0.15125	0.28386	0.10927	0.18472	0.17232	0.137	0.071226	0.21661	0.2412	0.2863	0.19523	0.27613	0.29315	0.20708	0.22826	0.086726	-2.2083	-2.8271	-2.5917	-2.6875	-2.8	-2.3208	-2.7792	-2.6354	-2.625	-2.7687	-2.575	-2.6562	-2.8458	-2.4708	-2.7938	-2.8146	-94.495	-38.915	27.514	180.573	107.951	148.656	-92.236	-78.532	87.632	233.065	179.198	62.238	173.098	181.432	-62.870	-38.376	0.00035437	0.00036925	0.00016662	1401.1	4.62e-06	5.7041e-06	1391.9	377.99	3.4475e-06	4.9325e-06	434.58	144.71	125.25	43.122	4.5868e-06	53.277	0.00047017	0.00044954	0.00012277	1413.6	5.0397e-06	5.2055e-06	1407.4	383.04	5.1739e-06	4.8763e-06	440.7	147.72	128.23	44.171	5.1924e-06	54.539	161.757	-37.581	-39.035	-96.778	20.227	30.630	-96.991	-92.510	-16.134	54.582	-93.014	-88.914	-88.914	-83.197	42.687	-83.833	-8191	255	
21004.598	1	1	0	0	0.42284	0.12814	0.05969	0.098098	0.072525	0.073896	0.13182	0.18006	0.19836	0.13774	0.15887	0.20535	0.13062	0.35426	0.032872	0.03425	-2.0229	-2.8729	-2.7083	-2.5729	-2.8292	-2.4646	-2.7354	-2.8083	-2.2646	-2.7812	-2.475	-2.6021	-2.7375	-2.5854	-2.6375	-2.8229	90.166	-12.598	-52.622	-50.945	125.512	43.050	159.860	215.131	14.685	211.736	226.637	198.319	240.591	236.363	150.206	57.802	0.00037729	0.00070314	0.00012766	1398.3	5.607e-06	5.6571e-06	1387.3	377.19	2.4782e-06	3.0841e-06	434.05	144.25	125.81	43.206	2.4926e-06	53.106	0.00047013	0.00045675	0.00013148	1410	5.0385e-06	4.9046e-06	1407.3	382.77	5.1229e-06	5.0121e-06	440.92	147.75	128.44	44.084	5.1174e-06	54.518	160.595	-1.056	-16.356	-96.913	44.741	57.824	-96.903	-92.488	3.984	32.591	-93.156	-88.898	-89.010	-83.282	70.630	-84.186	-8191	255	
21004.719	1	1	0	0	0.25318	0.10799	0.082514	0.12541	0.36062	0.03684	0.39927	0.24607	0.15628	0.054144	0.1425	0.074563	0.14909	0.17127	0.074404	0.10189	-1.9562	-2.7687	-2.6729	-2.6146	-2.7958	-2.5146	-2.9833	-2.9938	-2.5521	-2.7438	-2.8479	-2.6	-2.9125	-2.7542	-2.6646	-3.0229	-54.538	85.863	68.964	-80.480	50.778	35.138	220.366	135.421	-64.933	-44.428	217.778	90.427	-76.816	139.744	42.918	224.041	0.00038988	0.00038756	0.00012418	1399.7	3.8734e-06	6.7081e-06	1389.5	376.84	3.3317e-06	5.3093e-06	434.51	144.74	124.8	43.186	5.5963e-06	52.906	0.00046997	0.00045904	0.00013076	1411.3	5.0052e-06	4.9796e-06	1407.2	383.08	5.1693e-06	5.0958e-06	440.62	147.54	127.96	44.15	5.1136e-06	54.446	160.107	-18.502	-14.178	-96.824	18.758	38.696	-97.019	-92.307	10.662	36.037	-92.743	-88.856	-88.434	-83.395	49.789	-83.829	-8191	255	
21004.812	1	1	0	0	0.11496	0.38902	0.030225	0.074818	0.2018	0.10481	0.12535	0.16979	0.23365	0.094223	0.012787	0.14338	0.014137	0.14105	0.1186	0.3193	-2.0187	-2.7208	-2.725	-2.6688	-2.6958	-2.5917	-2.6583	-2.9479	-2.4229	-2.8688	-2.8229	-2.5333	-2.8958	-2.7062	-2.4875	-3.0729	69.035	221.065	9.767	-37.667	244.009	174.616	159.253	130.918	-28.347	210.208	91.541	182.054	-6.042	215.340	183.525	193.127	0.00035235	0.00030324	0.00014966	1401.5	3.0505e-06	5.8825e-06	1391.1	378.44	3.5676e-06	5.2535e-06	435.86	144.69	125.43	43.382	3.6621e-06	53.134	0.00047293	0.00046243	0.00012764	1411.5	5.0829e-06	5.1206e-06	1407.2	383.2	5.1238e-06	5.0849e-06	441.03	147.59	128.18	44.164	5.1927e-06	54.398	160.948	-15.435	-0.468	-96.909	23.356	50.613	-97.254	-92.444	-38.239	44.163	-92.942	-88.750	-88.456	-83.359	27.052	-83.977	-8191	255	
21004.908	1	1	0	0	0.055813	0.033986	0.28063	0.47358	0.36911	0.23013	0.05515	0.0080501	0.3159	0.21359	0.13021	0.12467	0.16444	0.42536	0.041555	0.24499	-2.1312	-2.7083	-2.5917	-2.5938	-2.7083	-2.5938	-2.8229	-2.9792	-2.5729	-2.7333	-2.8646	-2.6417	-2.7167	-2.8083	-2.6271	-2.9521	128.434	150.490	7.769	166.650	127.515	241.087	188.326	42.000	105.138	-6.768	230.660	239.961	238.198	-71.120	83.524	225.520	0.00037985	0.0004855	0.00017376	1395.1	1.4132e-06	4.1614e-06	1385.7	378.17	4.1928e-06	4.8457e-06	433.13	144.04	123.98	43.225	3.7705e-06	53.171	0.00046095	0.00046856	0.00012536	1410	5.1271e-06	5.1758e-06	1405.2	382.92	5.3573e-06	5.0216e-06	440.15	147.39	127.98	44.12	5.1269e-06	54.491	154.677	-25.625	-15.107	-97.042	32.960	80.379	-97.095	-92.345	11.217	26.664	-92.854	-88.861	-88.489	-83.326	54.423	-83.780	-8191	255	
21005.006	1	1	0	0	0.13024	0.10648	0.35061	0.087234	0.071947	0.17852	0.10736	0.25288	0.11266	0.048373	0.19151	0.15155	0.30082	0.14307	0.11706	0.033978	-2.1479	-2.7667	-2.9625	-2.5646	-3.0292	-2.7146	-2.6896	-2.9938	-2.5229	-2.4208	-2.9854	-2.5187	-2.7771	-2.5958	-2.55	-3.0354	97.642	139.864	3.502	238.004	161.878	-34.445	230.521	-107.404	43.878	127.667	161.903	224.788	-100.108	121.765	55.999	-10.225	0.00038538	0.00043682	6.8783e-05	1395.6	4.5561e-06	6.8455e-06	1387.5	377.14	4.113e-06	5.0101e-06	434.39	144.14	124.58	42.949	3.3723e-06	52.995	0.00047663	0.00046776	0.00012746	1408.8	5.1898e-06	5.1834e-06	1404.9	382.4	5.1458e-06	5.2032e-06	440.87	147.31	127.99	43.988	5.1016e-06	54.322	161.584	-8.544	-12.510	-97.118	49.768	63.304	-97.009	-92.392	-28.243	30.004	-92.609	-88.542	-88.791	-83.464	30.686	-83.941	-8191	255	
#DATA ENDS
