BOXY.EXE: ISS Imagent and Oximeter Data Acquisition Program Version 0.80
Ascii Record File

#ACQ INFORMATION
2  Detector Channels 
16  External MUX Channels 
1  Auxiliary Channels 
5000  Waveform (CCF) Frequency (Hz)
1  Waveforms Skipped 
30  Waveforms Averaged 
1  Cycles Averaged 
16  Acquisitions per Waveform 
10.0806  Updata Rate (Hz) 

#FILE INFORMATION
TRUE -- External MUX Channel results are PARSED.
FALSE -- AC DC and Phase are NOT grouped.
TRUE -- Companion Program Settings File CREATED.
FALSE -- AC data not excluded
FALSE -- DC data not excluded
FALSE -- Phase data not excluded
FALSE -- Auxillary Chn. data not excluded
Tab delimiters

#CALIBRATION STATE
TRUE -- Waveform Calibration Values APPLIED.


#AUX CALIBRATION VALUES
Val Type	aux-1	

Term	1.0000e+00	
Factor	0.0000e+00	


#WF CALIBRATION VALUES
A = Detector Channel
Val Type	A-AC1	A-AC2	A-AC3	A-AC4	A-AC5	A-AC6	A-AC7	A-AC8	A-AC9	A-AC10	A-AC11	A-AC12	A-AC13	A-AC14	A-AC15	A-AC16	A-DC1	A-DC2	A-DC3	A-DC4	A-DC5	A-DC6	A-DC7	A-DC8	A-DC9	A-DC10	A-DC11	A-DC12	A-DC13	A-DC14	A-DC15	A-DC16	A-Ph1	A-Ph2	A-Ph3	A-Ph4	A-Ph5	A-Ph6	A-Ph7	A-Ph8	A-Ph9	A-Ph10	A-Ph11	A-Ph12	A-Ph13	A-Ph14	A-Ph15	A-Ph16	

Term	0.00000e+00	0.00000e+00	0.00000e+00	0.00000e+00	0.00000e+00	0.00000e+00	0.00000e+00	0.00000e+00	0.00000e+00	0.00000e+00	0.00000e+00	0.00000e+00	0.00000e+00	0.00000e+00	0.00000e+00	0.00000e+00	0.00000e+00	0.00000e+00	0.00000e+00	0.00000e+00	0.00000e+00	0.00000e+00	0.00000e+00	0.00000e+00	0.00000e+00	0.00000e+00	0.00000e+00	0.00000e+00	0.00000e+00	0.00000e+00	0.00000e+00	0.00000e+00	0.00000e+00	0.00000e+00	0.00000e+00	0.00000e+00	0.00000e+00	0.00000e+00	0.00000e+00	0.00000e+00	0.00000e+00	0.00000e+00	0.00000e+00	0.00000e+00	0.00000e+00	0.00000e+00	0.00000e+00	0.00000e+00	
Factor	1.00000e+00	1.00000e+00	1.00000e+00	1.00000e+00	1.00000e+00	1.00000e+00	1.00000e+00	1.00000e+00	1.00000e+00	1.00000e+00	1.00000e+00	1.00000e+00	1.00000e+00	1.00000e+00	1.00000e+00	1.00000e+00	1.00000e+00	1.00000e+00	1.00000e+00	1.00000e+00	1.00000e+00	1.00000e+00	1.00000e+00	1.00000e+00	1.00000e+00	1.00000e+00	1.00000e+00	1.00000e+00	1.00000e+00	1.00000e+00	1.00000e+00	1.00000e+00	X	X	X	X	X	X	X	X	X	X	X	X	X	X	X	X	

B = Detector Channel
Val Type	B-AC1	B-AC2	B-AC3	B-AC4	B-AC5	B-AC6	B-AC7	B-AC8	B-AC9	B-AC10	B-AC11	B-AC12	B-AC13	B-AC14	B-AC15	B-AC16	B-DC1	B-DC2	B-DC3	B-DC4	B-DC5	B-DC6	B-DC7	B-DC8	B-DC9	B-DC10	B-DC11	B-DC12	B-DC13	B-DC14	B-DC15	B-DC16	B-Ph1	B-Ph2	B-Ph3	B-Ph4	B-Ph5	B-Ph6	B-Ph7	B-Ph8	B-Ph9	B-Ph10	B-Ph11	B-Ph12	B-Ph13	B-Ph14	B-Ph15	B-Ph16	

Term	0.00000e+00	0.00000e+00	0.00000e+00	0.00000e+00	0.00000e+00	0.00000e+00	0.00000e+00	0.00000e+00	0.00000e+00	0.00000e+00	0.00000e+00	0.00000e+00	0.00000e+00	0.00000e+00	0.00000e+00	0.00000e+00	0.00000e+00	0.00000e+00	0.00000e+00	0.00000e+00	0.00000e+00	0.00000e+00	0.00000e+00	0.00000e+00	0.00000e+00	0.00000e+00	0.00000e+00	0.00000e+00	0.00000e+00	0.00000e+00	0.00000e+00	0.00000e+00	-1.70999e+02	-1.26624e+02	-1.31946e+02	-1.81681e+02	-8.38430e+01	-6.15144e+01	-1.55768e+02	-1.62015e+02	-8.17298e+01	-6.09818e+01	-1.73366e+02	-1.70201e+02	-1.85495e+02	-1.76578e+02	-7.50407e+01	-1.48946e+02	
Factor	2.98320e-05	1.70198e-04	4.81572e-05	1.97322e-01	1.68102e-06	1.85928e-06	1.81490e-01	5.63415e-02	1.68352e-06	1.92753e-06	1.03880e-01	3.00027e-02	5.63894e-02	9.68439e-03	1.64368e-06	1.34226e-02	1.04390e-05	1.42882e-05	3.99355e-06	1.02381e-01	1.49160e-07	1.58564e-07	8.84142e-02	2.93229e-02	1.48249e-07	1.58193e-07	5.25074e-02	1.52244e-02	2.95252e-02	5.08567e-03	1.51927e-07	6.84643e-03	X	X	X	X	X	X	X	X	X	X	X	X	X	X	X	X	



#DISTANCE SETTINGS
A = Detector Channel
A-1	A-2	A-3	A-4	A-5	A-6	A-7	A-8	A-9	A-10	A-11	A-12	A-13	A-14	A-15	A-16	

2.5000e+00	3.0000e+00	2.5000e+00	3.0000e+00	2.0000e+00	3.0000e+00	1.5000e+00	3.0000e+00	3.0000e+00	3.0000e+00	3.0000e+00	3.0000e+00	3.0000e+00	3.0000e+00	1.5000e+00	3.0000e+00	

B = Detector Channel
B-1	B-2	B-3	B-4	B-5	B-6	B-7	B-8	B-9	B-10	B-11	B-12	B-13	B-14	B-15	B-16	

1.0000e+01	1.0000e+01	1.0000e+01	1.4400e+00	1.0000e+01	1.0000e+01	1.5100e+00	1.9400e+00	1.0000e+01	1.0000e+01	1.9900e+00	2.4900e+00	2.4100e+00	2.9000e+00	1.0000e+01	2.9800e+00	




#DATA BEGINS
time	group	step	mark	flag	A-AC1	A-AC2	A-AC3	A-AC4	A-AC5	A-AC6	A-AC7	A-AC8	A-AC9	A-AC10	A-AC11	A-AC12	A-AC13	A-AC14	A-AC15	A-AC16	A-DC1	A-DC2	A-DC3	A-DC4	A-DC5	A-DC6	A-DC7	A-DC8	A-DC9	A-DC10	A-DC11	A-DC12	A-DC13	A-DC14	A-DC15	A-DC16	A-Ph1	A-Ph2	A-Ph3	A-Ph4	A-Ph5	A-Ph6	A-Ph7	A-Ph8	A-Ph9	A-Ph10	A-Ph11	A-Ph12	A-Ph13	A-Ph14	A-Ph15	A-Ph16	B-AC1	B-AC2	B-AC3	B-AC4	B-AC5	B-AC6	B-AC7	B-AC8	B-AC9	B-AC10	B-AC11	B-AC12	B-AC13	B-AC14	B-AC15	B-AC16	B-DC1	B-DC2	B-DC3	B-DC4	B-DC5	B-DC6	B-DC7	B-DC8	B-DC9	B-DC10	B-DC11	B-DC12	B-DC13	B-DC14	B-DC15	B-DC16	B-Ph1	B-Ph2	B-Ph3	B-Ph4	B-Ph5	B-Ph6	B-Ph7	B-Ph8	B-Ph9	B-Ph10	B-Ph11	B-Ph12	B-Ph13	B-Ph14	B-Ph15	B-Ph16	aux-1	digaux	

21888.297	1	1	0	768	0.18754	0.12235	0.12217	0.17109	0.17237	0.075291	0.27548	0.099811	0.077544	0.060842	0.14522	0.27169	0.12716	0.23548	0.10688	0.28925	-2.35	-2.7	-2.6333	-2.9917	-2.8583	-2.7271	-2.8563	-2.6188	-2.8979	-2.7708	-2.8333	-2.9771	-2.7729	-2.7687	-2.975	-2.8167	32.087	242.934	64.189	173.765	65.172	242.192	262.215	284.107	154.804	190.817	243.678	292.758	119.177	304.371	-14.329	274.114	0.00079717	0.00092709	0.0003244	662.37	1.1814e-05	1.5977e-05	988.47	270.97	1.9256e-05	1.8362e-05	479.82	208.72	120.15	60.021	1.385e-05	111.19	0.030136	0.038226	0.01081	947.46	0.00040166	0.00043837	1220.9	346.59	0.00042322	0.00042541	617.45	252.87	199.36	74.136	0.0004272	129.91	85.573	306.076	300.131	-37.150	84.683	49.423	-37.579	-33.676	50.365	-20.330	-34.595	-31.648	-30.398	-27.486	-14.561	-28.682	-8191	255	
21888.393	1	1	0	0	0.24871	0.049601	0.096689	0.21367	0.22579	0.19233	0.11549	0.097562	0.17064	0.25641	0.26383	0.14445	0.27473	0.26027	0.19126	0.36232	-2.4083	-2.7104	-2.3542	-3.0333	-2.6271	-2.8896	-3.1146	-2.7792	-3.05	-2.8625	-2.6667	-3.0396	-2.7167	-2.7083	-2.9667	-2.7	-40.983	28.222	-38.830	274.855	36.487	-25.770	55.549	258.253	3.250	285.043	241.743	-46.983	213.476	231.780	37.063	192.108	0.0003603	0.00040404	0.00049475	655	7.5682e-06	7.7397e-06	979.75	270.17	1.4681e-05	2.4127e-05	481.91	210.41	119.54	60.282	1.3613e-05	110.95	0.030077	0.038952	0.010924	943.24	0.00040881	0.00043829	1221.5	348.3	0.00042655	0.00043872	620.96	255.11	200.01	74.316	0.00043366	130.12	169.504	92.426	84.532	-37.214	157.631	27.811	-37.501	-33.779	63.390	105.252	-34.574	-31.683	-30.807	-27.493	105.014	-28.598	-8191	255	
21888.488	1	1	0	0	0.21325	0.24147	0.10104	0.057653	0.16629	0.11122	0.092926	0.27292	0.24108	0.2124	0.23382	0.25229	0.18894	0.21413	0.27692	0.042641	-2.3854	-2.8542	-2.4021	-2.8937	-2.5938	-2.8375	-3.0542	-2.6458	-2.8104	-2.6146	-2.3604	-3.0958	-2.6646	-2.6688	-3.0333	-2.7875	306.970	170.293	92.223	131.479	203.812	242.013	269.315	230.934	145.537	106.607	235.435	-30.041	48.668	231.841	184.866	241.964	0.0003937	0.0020685	0.00048853	652.44	1.3985e-05	1.5699e-05	971.9	268.07	1.0586e-05	2.9109e-06	475.42	210.08	119.81	60.122	5.8011e-06	109.48	0.029681	0.039512	0.010813	943.55	0.00040614	0.0004335	1220.2	346.25	0.00041749	0.00044287	616.97	253.92	199.98	73.992	0.00043875	128.58	145.628	212.610	-14.769	-37.288	126.017	157.051	-37.651	-33.579	105.458	107.253	-34.635	-31.663	-31.363	-27.983	288.975	-28.622	-8191	255	
21888.586	1	1	0	0	0.15824	0.12468	0.10277	0.21158	0.2	0.11273	0.20145	0.033896	0.16251	0.024006	0.071466	0.12906	0.062926	0.031312	0.097254	0.19231	-2.4375	-2.6875	-2.5125	-2.8979	-2.8646	-2.4958	-3.1583	-2.5208	-2.6521	-2.9146	-2.7438	-3.1042	-2.7875	-2.8021	-2.8854	-2.6896	255.199	219.430	82.156	153.904	81.548	-21.972	275.253	213.901	158.843	287.587	163.757	153.085	-3.387	244.003	234.978	259.653	0.0005387	0.00029752	9.7961e-05	642.39	4.5765e-06	6.3794e-06	949.38	263.15	1.6729e-05	2.1856e-05	468.92	204.97	116.94	58.558	2.7334e-05	107.37	0.029276	0.040381	0.010823	929.06	0.00040805	0.00043263	1198.6	340.34	0.000412	0.00045161	610.05	249.2	199.07	72.56	0.00044401	126.59	122.732	175.454	296.237	-37.186	94.298	139.608	-37.616	-33.544	154.908	77.703	-34.881	-31.510	-31.074	-27.685	61.551	-28.761	-8191	255	
21888.682	1	1	0	0	0.1166	0.54866	0.18121	0.20565	0.18776	0.089542	0.1181	0.3109	0.026436	0.14685	0.11487	0.18805	0.21832	0.06491	0.19854	0.23861	-2.0271	-2.9271	-2.4437	-2.7687	-2.6042	-2.5604	-3.1083	-2.6896	-2.7812	-2.9917	-2.6167	-3.1729	-2.8896	-2.5271	-2.825	-2.8667	19.808	210.249	183.915	307.039	0.863	-50.204	305.898	258.949	209.533	26.558	213.563	237.309	280.213	249.654	-22.705	241.337	0.00038393	0.0021802	0.00061819	634.98	5.8127e-06	5.9555e-06	935.64	259	7.4821e-06	1.7521e-05	462.77	203.26	115.71	57.065	2.746e-05	106.11	0.029191	0.041273	0.01088	918.34	0.00041477	0.0004337	1187	337.25	0.00041153	0.0004591	605.43	246.01	199.09	71.208	0.00044533	125.2	155.338	31.097	282.217	-37.017	277.415	-5.485	-37.850	-33.607	-25.722	152.659	-34.771	-31.495	-31.459	-27.388	52.374	-28.461	-8191	255	
21888.777	1	1	0	0	0.12841	0.096616	0.059243	0.14551	0.19911	0.15626	0.093	0.32891	0.16916	0.30034	0.10726	0.39601	0.26993	0.086711	0.15929	0.11865	-2.1958	-2.8667	-2.2771	-2.9062	-2.8646	-2.6646	-2.8896	-2.7562	-2.5438	-2.9542	-2.7354	-2.9875	-2.9104	-2.4646	-2.95	-3.0563	-4.952	48.051	125.500	81.834	-47.703	196.239	271.932	241.662	36.459	64.270	306.844	249.930	289.381	142.355	219.249	-2.154	0.000299	0.0009485	0.0004842	627.62	2.4932e-05	1.0893e-05	933.51	258.3	2.6395e-05	1.8858e-05	462.16	200.77	114.83	57.154	2.3416e-06	105.79	0.029204	0.041962	0.010989	911.39	0.00042352	0.00043596	1186.3	337.55	0.0004104	0.000462	603.27	243.66	199.15	70.973	0.0004412	125.09	114.187	83.901	-40.239	-37.332	116.225	125.712	-37.540	-33.674	131.051	84.991	-34.725	-31.522	-30.889	-27.399	-49.857	-28.591	-8191	255	
21888.898	1	1	0	0	0.092064	0.27796	0.23615	0.18808	0.22493	0.12716	0.24417	0.21627	0.1011	0.20133	0.19976	0.2183	0.11119	0.051068	0.15241	0.19679	-2.2667	-2.9104	-2.4979	-2.7583	-2.825	-2.6417	-2.8854	-2.9021	-2.7208	-2.9583	-2.7438	-2.8708	-3.0375	-2.6521	-2.9021	-2.9583	50.900	104.217	262.175	169.152	164.557	209.089	236.548	266.948	249.021	-18.286	245.430	156.303	-4.176	240.700	61.183	208.665	0.00054407	0.0013484	0.00031021	626.57	1.0779e-05	2.7031e-05	924.91	257.14	1.3511e-05	1.9423e-05	462.15	199.09	114.12	56.122	1.4384e-06	103.62	0.02897	0.042035	0.010932	905.4	0.00043216	0.00043949	1178.1	338.25	0.00041334	0.00047047	603.11	242.24	200.7	70.068	0.00043984	123.35	178.153	166.595	18.731	-36.967	203.652	183.136	-37.460	-33.471	10.967	60.657	-34.495	-31.590	-31.205	-27.609	7.685	-28.799	-8191	255	
21888.994	1	1	0	0	0.17058	0.14878	0.033998	0.16709	0.22261	0.10762	0.19251	0.12192	0.12203	0.31878	0.19149	0.35178	0.10939	0.11076	0.19768	0.33721	-2.3167	-2.9062	-2.5542	-2.6312	-2.9	-2.6333	-2.9771	-3.0062	-2.4396	-2.7562	-2.7667	-2.9083	-2.8563	-2.7271	-2.8125	-3.0458	164.523	127.484	261.101	259.520	229.888	-18.144	225.859	48.954	3.380	96.129	212.319	267.590	11.293	44.007	58.868	213.650	0.00080595	0.0011471	0.00048065	618.65	8.7769e-06	6.3522e-06	919.11	256.96	2.5501e-05	3.8571e-05	455.26	197.96	112.12	55.697	6.9003e-06	102.98	0.029181	0.042522	0.011019	900.94	0.0004397	0.00044261	1165.2	338.95	0.00041143	0.00046612	600.37	240.57	200.37	69.538	0.00043211	122.77	123.576	131.649	302.109	-36.958	186.289	58.751	-37.473	-33.455	73.417	69.376	-34.654	-31.705	-30.604	-27.273	70.491	-28.347	-8191	255	
21889.090	1	1	0	0	0.14963	0.1216	0.42116	0.155	0.32515	0.32681	0.1647	0.18558	0.19334	0.19524	0.24899	0.17839	0.21884	0.26312	0.1189	0.082072	-2.2125	-2.9104	-2.5375	-2.8208	-3.0708	-2.6167	-2.9521	-2.9938	-2.4292	-2.8521	-2.8875	-2.9583	-3	-2.6146	-2.8375	-3.1688	227.621	-26.730	231.879	251.374	-21.024	-40.541	42.427	-25.140	52.641	194.603	248.826	218.091	275.496	303.810	-22.447	12.109	0.00031397	0.0014765	0.00056403	615.27	2.5946e-05	5.1701e-06	913.53	252.53	1.8309e-05	2.3776e-05	456.64	197.25	112.66	54.948	1.9673e-05	102.56	0.028753	0.041858	0.01103	891.02	0.00043701	0.00043742	1155.5	336.77	0.0004068	0.00046044	598.24	239.09	199.43	69.014	0.00042685	122.44	70.716	21.079	100.100	-37.060	94.350	140.394	-37.283	-33.621	207.235	-20.028	-34.616	-31.489	-30.600	-27.365	72.346	-28.337	-8191	255	
21889.188	1	1	0	0	0.2441	0.062173	0.12856	0.12722	0.14343	0.14198	0.2209	0.21169	0.074271	0.1681	0.16953	0.30119	0.20853	0.36474	0.048969	0.10931	-2.2812	-2.9271	-2.6708	-2.8	-2.8937	-2.5479	-2.8479	-2.9958	-2.4979	-2.9167	-2.8854	-2.7479	-2.9396	-2.9188	-2.7771	-3.0125	161.225	169.506	-27.088	247.243	41.507	-22.932	215.298	266.554	24.158	34.205	46.318	-2.749	236.791	308.462	17.138	214.702	0.00099298	0.0032781	0.00045389	608.51	3.5733e-06	1.544e-05	901.66	248.94	2.0539e-05	1.6241e-05	447.42	192.55	109.29	53.225	1.0737e-05	99.57	0.028786	0.040931	0.011111	883.24	0.00043469	0.0004314	1140	332.53	0.00040377	0.00045235	592.08	234.42	195.95	67.265	0.00042367	119.95	95.757	19.607	104.463	-37.171	118.167	159.594	-37.602	-33.536	-8.711	-42.341	-34.402	-31.217	-30.107	-27.315	44.981	-28.383	-8191	255	
21889.281	1	1	0	0	0.045571	0.064571	0.14741	0.18987	0.14467	0.28483	0.24954	0.17741	0.11507	0.10371	0.1424	0.22285	0.29425	0.047365	0.05885	0.17098	-1.9646	-2.8729	-2.8187	-2.6	-2.9646	-2.7083	-2.8438	-2.8708	-2.5792	-2.7125	-2.9458	-2.7188	-3.0625	-2.7062	-2.6021	-3.1271	34.703	-27.492	-34.450	251.712	37.373	86.507	277.701	243.990	272.352	158.412	108.156	199.304	301.439	232.875	76.458	148.712	0.00051213	0.0016468	0.00056363	598.41	1.8168e-05	1.4729e-05	881.49	242.95	2.0034e-05	1.2115e-05	440.4	188.21	105.88	51.664	1.4432e-05	98.062	0.028778	0.04063	0.011408	868.97	0.00043702	0.00043893	1121.7	327.93	0.00040387	0.00045108	587.77	230.84	192.13	65.83	0.0004243	118.8	122.844	3.249	69.432	-37.352	-26.024	177.233	-37.522	-33.495	143.269	158.883	-34.256	-31.324	-30.607	-27.010	-0.639	-28.287	-8191	255	
21889.377	1	1	0	0	0.15621	0.12187	0.2592	0.055464	0.10841	0.13019	0.22266	0.25526	0.017566	0.18501	0.10846	0.07486	0.19835	0.22862	0.2007	0.24116	-2.0125	-2.75	-2.8896	-2.6083	-2.8646	-2.6813	-2.6833	-3.0333	-2.6958	-2.6917	-2.9167	-2.8438	-2.85	-2.925	-2.3229	-3.1396	102.187	84.657	-7.839	-10.049	307.649	109.419	308.565	254.681	94.225	-13.050	115.383	56.236	83.733	292.341	215.925	189.398	0.00055733	0.00084483	0.00037333	579.82	1.6758e-05	1.6995e-05	868.19	239.86	1.9173e-05	3.2072e-05	435.32	190	106.55	51.975	5.7936e-06	98.88	0.028824	0.040556	0.011631	856.53	0.00043312	0.00044455	1106.4	325.84	0.00040388	0.00044605	586.01	231.37	191.51	66.309	0.00042065	119.2	123.289	180.791	127.343	-36.865	-36.668	105.180	-37.348	-33.211	131.062	71.298	-34.455	-31.232	-30.509	-27.015	-10.204	-28.264	-8191	255	
21889.498	1	1	0	0	0.11322	0.27356	0.11299	0.16259	0.26864	0.1421	0.23082	0.27697	0.10433	0.14014	0.12941	0.24989	0.19977	0.27536	0.15325	0.107	-2.35	-2.5875	-3.0083	-2.6771	-2.9354	-2.7625	-2.575	-2.9792	-2.7229	-2.5875	-3.0187	-2.6646	-2.8375	-2.8896	-2.6021	-3.0417	188.610	-17.622	186.635	-51.586	141.707	-43.863	300.552	-45.801	116.275	131.188	289.470	-1.262	235.958	232.624	48.464	-48.414	0.00055177	0.00019498	0.00017112	588.79	4.0064e-06	2.4645e-05	875.97	243.16	7.4248e-06	2.2484e-05	440.74	191.01	107.6	52.052	1.0618e-05	99.567	0.028638	0.040136	0.011636	854.94	0.00042593	0.00044967	1107	325.95	0.00040447	0.00044364	589.65	232.45	191.03	66.822	0.00041673	119.89	135.213	-16.044	56.332	-37.137	291.619	162.346	-37.237	-33.694	124.192	41.359	-34.356	-31.236	-30.809	-27.111	240.524	-28.203	-8191	255	
21889.594	1	1	0	0	0.1059	0.066239	0.051884	0.099277	0.28744	0.23605	0.35956	0.21502	0.18007	0.15345	0.20159	0.27772	0.18392	0.11854	0.27882	0.31205	-2.2687	-2.6771	-2.8708	-2.4917	-2.8854	-2.8937	-2.6771	-2.9292	-2.7208	-2.7708	-2.9792	-2.7396	-2.7833	-2.9562	-2.4625	-3.0563	-17.670	40.923	138.573	118.636	177.732	135.885	306.034	23.724	5.204	158.849	25.842	-23.664	170.137	260.311	284.705	228.493	0.00077374	0.0029609	0.00029062	593.23	1.3668e-05	2.8699e-05	888.01	243.89	1.6963e-05	1.4709e-05	444.6	194.63	109.08	53.286	6.3463e-06	101.37	0.028991	0.039876	0.011786	860.95	0.00042472	0.00045607	1120.3	327.73	0.00040979	0.00043969	596.4	235.32	192.52	68.021	0.00041109	121.15	130.224	52.350	52.262	-36.885	101.226	168.018	-37.302	-33.545	156.632	2.487	-34.343	-31.606	-30.516	-26.962	110.603	-28.450	-8191	255	
21889.689	1	1	0	0	0.34535	0.23557	0.11193	0.25241	0.045558	0.11473	0.083434	0.43408	0.10329	0.158	0.089044	0.31926	0.21611	0.27401	0.099669	0.26891	-2.1813	-2.5333	-2.9292	-2.7062	-2.6875	-2.95	-2.7875	-2.9938	-2.9229	-2.6479	-3.0042	-2.9208	-2.9229	-2.9938	-2.5625	-2.8958	302.915	105.585	251.821	299.969	285.017	299.550	282.354	265.301	269.184	266.488	171.900	300.140	223.466	-23.826	-10.294	230.234	0.00091568	0.0016733	0.00061635	608.2	1.2281e-05	2.7422e-05	912.4	251.78	2.4499e-05	1.6484e-05	455.38	197.16	112.39	54.747	2.6982e-06	103.15	0.029242	0.039236	0.011714	877	0.00042104	0.00045807	1143.7	333.36	0.00041687	0.00043643	605.8	238.99	194.81	69.638	0.00041135	123.03	114.080	308.343	58.140	-36.857	133.458	222.085	-37.772	-33.350	197.715	90.706	-34.823	-31.326	-30.305	-27.323	43.144	-28.304	-8191	255	
21889.785	1	1	0	0	0.13586	0.086427	0.049953	0.087559	0.18509	0.18438	0.050716	0.071142	0.14959	0.18386	0.15096	0.27887	0.35866	0.32752	0.14606	0.22268	-2.3896	-2.7375	-2.875	-2.9354	-2.7354	-2.9771	-2.5792	-2.9646	-2.9646	-2.6104	-3.0312	-2.7792	-2.8688	-3.0354	-2.6188	-3.0021	83.649	101.428	300.302	174.996	157.076	249.306	112.988	-1.314	44.797	171.794	224.700	260.809	250.672	280.050	48.956	195.708	0.00051489	0.0024349	0.0006772	638.29	1.9933e-05	2.284e-05	959.73	259.64	1.6711e-05	2.7665e-05	470.72	203.59	116.37	57.09	3.4256e-06	106.93	0.029801	0.039148	0.011656	910.75	0.00041952	0.00046404	1192.5	343.14	0.00042884	0.00043917	621.2	246.27	200.12	72.54	0.00042101	126.97	148.430	12.716	61.089	-37.270	52.079	181.036	-37.314	-33.528	136.681	145.403	-34.624	-31.472	-31.542	-27.377	33.770	-28.333	-8191	255	
21889.883	1	1	0	0	0.2291	0.20839	0.14146	0.15598	0.23936	0.24397	0.18812	0.34112	0.14334	0.20086	0.097348	0.25898	0.042416	0.34342	0.19283	0.046555	-2.4875	-2.5812	-2.8625	-2.6271	-2.6	-3.0104	-2.7146	-2.9667	-2.9771	-2.5229	-2.8875	-2.8833	-2.6625	-2.9958	-2.7438	-2.9625	231.107	152.131	-42.483	11.569	-49.418	229.994	225.904	-41.906	70.548	161.500	288.495	262.585	222.218	180.681	85.957	16.275	0.00020303	0.0016675	0.00047611	670.3	2.2876e-05	9.4221e-06	987.06	267.75	2.2977e-05	1.1123e-05	471.47	204.2	117.77	57.881	8.4907e-06	108.05	0.030774	0.04006	0.011821	950.57	0.00042492	0.00047546	1228.6	350.01	0.00043879	0.00043857	626.55	248.46	200.26	73.246	0.0004223	128.26	89.147	69.425	39.911	-37.410	15.347	205.371	-37.895	-33.881	114.029	56.280	-34.932	-31.610	-31.650	-27.523	227.758	-28.468	-8191	255	
21889.979	1	1	0	0	0.31951	0.16234	0.14258	0.19748	0.1585	0.11092	0.097149	0.23044	0.032864	0.04087	0.25739	0.19066	0.20834	0.1289	0.24843	0.34512	-2.5917	-2.5667	-2.6229	-2.8083	-2.5583	-2.8771	-2.7292	-2.6542	-2.8396	-2.6396	-3.0792	-3.0458	-2.6146	-3.0271	-2.7167	-2.8833	134.274	74.667	241.620	276.842	81.852	103.547	305.568	277.982	129.569	90.516	256.516	234.110	-45.523	267.194	184.059	224.132	0.00040882	0.0027064	0.00051333	671.92	1.6791e-05	2.5133e-05	1007.5	268.73	1.9914e-05	1.4983e-05	479.48	206.32	117.31	59.194	9.6714e-06	109.87	0.031025	0.039876	0.011764	961.88	0.00042058	0.00047384	1241.9	351.1	0.00044256	0.00043926	630.81	251.46	200.89	74.427	0.00042968	130.14	134.522	85.837	154.551	-37.023	224.391	-6.114	-37.799	-33.935	-49.931	-24.632	-34.669	-31.520	-31.333	-27.718	96.296	-28.538	-8191	255	
21890.074	1	1	0	0	0.29486	0.077008	0.16413	0.28975	0.15913	0.12674	0.10762	0.1381	0.27272	0.14174	0.37776	0.36133	0.088822	0.35096	0.20309	0.1975	-2.375	-2.5833	-2.8937	-2.8667	-2.4833	-2.85	-2.6667	-2.7729	-3.1021	-2.7062	-2.7562	-2.9646	-2.6042	-3.1104	-2.5583	-2.85	10.849	-47.277	13.351	240.637	174.249	-41.286	-48.413	206.186	62.985	185.726	-47.232	179.340	125.187	293.960	-9.244	264.485	0.0008892	0.0028186	0.00036988	671.69	7.7859e-06	2.3982e-05	1011.4	272.44	7.2094e-06	1.6955e-05	482.64	209.67	119.43	60.477	1.0159e-05	112.18	0.031306	0.039813	0.011653	968.66	0.00042127	0.00047139	1254.2	353.35	0.00044535	0.00043873	634.05	254.78	202.48	75.537	0.00043547	131.92	90.055	-21.806	251.014	-37.347	208.962	4.247	-37.399	-33.913	53.943	119.316	-34.785	-31.913	-31.521	-27.517	278.368	-28.598	-8191	255	
21890.172	1	1	0	0	0.075407	0.26709	0.20181	0.18946	0.24685	0.29266	0.10524	0.13855	0.088426	0.10807	0.15515	0.16497	0.083295	0.23617	0.0653	0.2032	-2.6083	-2.5979	-2.6604	-2.9437	-2.6354	-2.9333	-3.1188	-2.5833	-3.0708	-2.7396	-2.8875	-2.9938	-2.6458	-3.0521	-2.8917	-2.8417	212.246	80.970	223.059	265.998	103.266	187.934	126.658	-44.366	245.140	229.244	240.752	198.876	231.424	-51.598	214.753	-2.471	0.00049016	0.0016767	0.00064807	677.31	3.0272e-05	1.6157e-05	1011.9	271.67	1.4284e-05	2.0623e-05	483.21	209.41	119.38	60.467	1.0235e-05	112.19	0.03136	0.039907	0.011592	975.86	0.00041551	0.00046893	1264	351.86	0.0004457	0.00044503	634.1	255.51	202.35	75.719	0.00044611	132.15	114.764	101.830	50.857	-37.216	15.520	44.562	-37.852	-34.033	157.578	86.061	-34.788	-31.802	-31.179	-27.374	223.551	-28.700	-8191	255	
21890.268	1	1	0	0	0.13955	0.2255	0.25378	0.074268	0.080647	0.22071	0.126	0.13475	0.16653	0.19186	0.13557	0.22101	0.18528	0.24988	0.12951	0.39562	-2.5042	-2.5667	-2.6875	-2.9562	-2.4479	-2.8792	-2.8833	-2.7167	-2.7958	-2.6792	-2.75	-3.0646	-2.4979	-2.9896	-2.7833	-2.9125	-21.366	142.834	-2.278	-8.718	222.152	179.007	256.170	-16.279	120.609	153.179	189.821	23.758	142.560	-46.194	-44.548	267.246	0.00053506	0.0013991	0.00038452	680.41	1.1003e-05	4.3822e-06	1018	270.67	4.2093e-06	2.2523e-05	483.18	209.96	119.21	60.504	1.3728e-05	112.43	0.031352	0.040446	0.011534	980.25	0.00041259	0.00046654	1270	351.96	0.00044018	0.00044984	632.59	255.4	202.48	75.612	0.00045119	131.46	97.214	64.778	-46.752	-37.180	156.629	-6.333	-37.723	-33.512	27.523	204.294	-34.653	-31.659	-31.190	-27.394	200.813	-28.639	-8191	255	
21890.387	1	1	0	0	0.18285	0.064703	0.15996	0.042045	0.22776	0.1679	0.16008	0.32946	0.16009	0.094448	0.14537	0.15132	0.13152	0.1571	0.2813	0.20566	-2.6354	-2.6146	-2.8542	-3.0312	-2.575	-2.8208	-3.0146	-2.5896	-2.9104	-2.6271	-2.7062	-3.0146	-2.8083	-2.8833	-2.8771	-2.8812	-11.761	213.090	-44.096	146.276	135.358	79.461	262.478	173.836	-0.830	259.686	71.421	194.820	307.845	4.868	-31.352	-9.464	0.00079919	0.00075261	0.0011953	683.93	1.425e-06	2.0767e-05	1020.7	273.27	2.1188e-05	1.6246e-05	487.57	209.44	119.94	60.81	4.7146e-06	112.36	0.031185	0.041319	0.01146	986.27	0.00041423	0.00046618	1277.5	353.93	0.00043721	0.000458	632.18	255.57	203.33	75.649	0.00044998	131.32	117.137	271.732	38.302	-37.300	240.289	14.247	-37.723	-33.975	139.331	28.173	-34.904	-31.919	-30.997	-27.604	228.769	-28.842	-8191	255	
21890.459	1	1	0	0	0.2514	0.15811	0.25898	0.17513	0.063331	0.17752	0.083035	0.20508	0.094509	0.12236	0.092307	0.16912	0.14081	0.067939	0.019058	0.043556	-2.3063	-2.7479	-2.4479	-2.8375	-2.5729	-2.5521	-3.0125	-2.7896	-2.8312	-2.8417	-2.6312	-3.0687	-2.6542	-2.9208	-2.9562	-2.7479	108.599	193.502	124.545	275.740	-12.748	-35.243	208.458	262.011	7.406	143.273	102.909	274.468	182.648	302.634	70.801	226.510	0.00058993	0.00074598	0.0005283	686.34	2.1978e-05	1.5932e-05	1030.8	275.09	1.4297e-05	2.3993e-05	487.87	210.98	121.2	61.014	1.4296e-05	113.1	0.030979	0.041658	0.011329	984.15	0.0004195	0.00046168	1283.4	353.56	0.00043328	0.00046291	632.95	256.65	204.34	75.849	0.00045281	131.88	133.794	25.462	21.707	-37.139	146.368	95.270	-37.494	-33.937	134.250	238.070	-34.846	-31.750	-31.473	-27.659	283.958	-28.734	-8191	255	
21890.578	1	1	0	0	0.087125	0.068543	0.11212	0.27228	0.12144	0.11954	0.33272	0.13601	0.23681	0.2172	0.31741	0.17377	0.2304	0.14004	0.049926	0.44618	-2.4625	-2.7146	-2.5417	-2.8625	-2.7021	-2.6167	-3.0604	-2.7375	-2.8896	-2.9729	-2.8104	-2.975	-2.75	-2.8438	-2.9042	-2.8417	99.058	61.671	152.062	248.593	184.918	280.384	243.398	252.236	-47.403	289.445	214.824	-9.332	-45.244	-20.249	177.847	198.923	0.00031754	0.0021797	0.00052124	692.55	1.2908e-05	2.2856e-05	1038.5	275.46	1.9624e-05	3.7612e-05	493.27	212.3	121.17	61.615	2.3089e-05	113.41	0.030719	0.041822	0.011183	983.44	0.00042495	0.00045564	1290.4	355.01	0.00043395	0.00046701	634.85	257.37	206.64	75.932	0.00045036	132.48	90.394	-47.382	220.479	-37.062	129.443	79.446	-37.711	-33.749	82.869	98.890	-34.826	-31.825	-31.207	-27.352	56.352	-28.804	-8191	255	
21890.674	1	1	0	0	0.12274	0.36377	0.13972	0.046684	0.16407	0.16566	0.09946	0.31088	0.20154	0.18864	0.15564	0.14235	0.11664	0.38943	0.1515	0.36567	-2.4146	-2.7938	-2.5521	-2.8021	-2.6229	-2.4979	-3.0021	-2.6854	-2.65	-3.0875	-2.7729	-3.0812	-2.7542	-2.7479	-2.9708	-2.8333	278.126	150.588	53.909	140.052	-28.156	136.599	245.496	225.215	124.412	116.319	127.782	12.706	115.023	-48.468	21.642	261.972	0.0003656	0.0010604	0.00056615	693.06	2.7144e-05	1.8862e-05	1035.2	273.67	3.0695e-05	1.47e-05	491.5	209.87	120.23	61.135	4.6556e-06	111.71	0.030481	0.041963	0.011034	983.57	0.00042878	0.00044431	1286.9	353.19	0.00042666	0.00046664	628.35	254.77	205.91	75.188	0.00044954	131.78	139.442	203.826	188.033	-37.213	169.491	83.013	-37.529	-33.870	50.024	128.989	-34.899	-31.916	-30.933	-27.470	155.282	-28.750	-8191	255	
21890.770	1	1	0	0	0.13785	0.17037	0.25981	0.078647	0.17745	0.12525	0.18257	0.15032	0.25409	0.088702	0.04803	0.29312	0.1586	0.27816	0.07872	0.31606	-2.2313	-2.8729	-2.6146	-2.7354	-2.7229	-2.5146	-3.0292	-2.7313	-2.5312	-2.9708	-2.8688	-3.1354	-2.8229	-2.6958	-2.7167	-2.9437	224.185	215.629	-0.412	206.443	117.364	138.334	175.772	247.091	278.517	132.055	168.771	18.613	231.382	26.596	141.314	199.756	0.00056701	0.002227	0.00069799	690.62	1.2775e-05	2.3564e-05	1036.4	275.94	1.2783e-05	1.6718e-05	486.5	210.03	120.88	60.542	1.1714e-05	111.67	0.030472	0.042519	0.011054	985.57	0.00043833	0.00044735	1289.1	356.94	0.00042586	0.00047257	628.13	255.08	206.75	75.032	0.00044582	132.08	116.658	264.690	52.389	-37.475	70.063	42.518	-37.760	-33.931	35.160	279.320	-34.955	-31.850	-31.000	-27.781	182.510	-28.883	-8191	255	
21890.867	1	1	0	0	0.091714	0.019524	0.092504	0.16023	0.12484	0.17257	0.058642	0.25698	0.23444	0.097152	0.076081	0.17189	0.16118	0.2974	0.37501	0.21418	-2.1688	-2.9188	-2.6521	-2.8854	-2.8979	-2.5146	-3.0375	-2.7854	-2.8667	-3.0312	-2.7583	-2.9292	-2.8542	-2.6333	-2.8875	-2.8	22.491	188.722	245.981	263.711	219.899	155.738	257.577	217.829	259.981	301.026	240.653	273.397	138.540	221.742	177.488	217.231	0.000393	0.001348	0.00055425	695.1	2.0432e-05	2.9442e-05	1040.7	275.56	4.6981e-06	9.3454e-06	486.97	210.48	119.5	60.925	5.4646e-06	112.45	0.029988	0.042464	0.011141	986.7	0.00044088	0.00044062	1291.4	358.63	0.00042208	0.00047227	631.24	255.21	207.43	75.194	0.0004447	132.47	85.931	33.192	268.454	-37.173	41.877	74.780	-37.650	-33.864	272.442	-7.674	-34.739	-31.953	-31.526	-27.531	237.214	-29.061	-8191	255	
21890.986	1	1	0	0	0.058195	0.24357	0.22537	0.21146	0.086417	0.092978	0.27875	0.21795	0.22187	0.11703	0.14088	0.16503	0.13508	0.20553	0.16451	0.22286	-2.1771	-2.9188	-2.7313	-2.7687	-2.6396	-2.4104	-2.8729	-2.8042	-2.4688	-2.8792	-2.7854	-2.8333	-3.0875	-2.7875	-2.8	-3.2188	89.431	214.781	57.960	-39.422	-13.387	298.674	307.485	242.361	195.490	44.155	175.730	267.097	74.747	286.524	-7.578	270.153	0.00061612	0.0010912	0.0010654	688.13	5.6266e-06	1.5283e-05	1034.4	276.37	2.4902e-05	1.0297e-05	490.72	210.56	119.94	61.428	5.5422e-06	112.63	0.02961	0.042028	0.011159	976.55	0.00044325	0.00043475	1288.5	358.82	0.00041667	0.00046854	635.18	254.95	208.53	75.341	0.00044883	133.14	109.457	-26.755	107.404	-37.293	179.873	274.014	-37.763	-34.046	92.787	118.018	-34.896	-31.786	-31.004	-27.752	159.366	-28.692	-8191	255	
21891.082	1	1	0	0	0.14071	0.17778	0.12232	0.13543	0.12346	0.17883	0.37135	0.12651	0.12097	0.28462	0.074598	0.20438	0.10921	0.2338	0.19356	0.14408	-2.1833	-2.9125	-2.8042	-2.7167	-3.0125	-2.6583	-2.8854	-2.85	-2.4792	-2.8083	-2.9333	-2.825	-3.0167	-2.7042	-2.8312	-2.9771	8.909	108.116	147.040	243.305	263.972	171.109	277.198	56.886	119.539	247.820	-27.414	241.075	-15.500	278.850	29.235	256.541	0.0003617	0.0011712	0.00028357	694.43	8.7044e-06	1.2073e-05	1034.1	272.02	9.9486e-06	1.4408e-05	486.61	210.73	120.28	60.844	1.7177e-05	112.01	0.029445	0.042484	0.011468	979.13	0.00044771	0.00043982	1291.9	358.34	0.00041449	0.0004711	637.49	254.32	208.53	75.397	0.00044805	133.16	107.346	56.341	117.544	-37.260	98.965	127.214	-37.546	-34.085	254.852	59.592	-34.754	-32.046	-31.010	-27.581	160.317	-29.024	-8191	255	
21891.154	1	1	0	0	0.057464	0.19013	0.11024	0.28858	0.10725	0.24084	0.38805	0.10574	0.17681	0.2019	0.095033	0.21588	0.092388	0.53409	0.26417	0.34019	-2.0958	-3.025	-2.7917	-2.7562	-2.9229	-2.5833	-2.9271	-3.0917	-2.5896	-2.7896	-2.7562	-2.7938	-3.0208	-2.9104	-2.8375	-3.3	-18.158	152.979	147.011	243.579	-22.421	138.412	275.513	216.084	234.636	-11.389	14.680	264.789	266.233	283.569	88.859	259.517	0.00076221	0.00070821	0.00026555	693.71	3.4231e-06	1.6609e-06	1038.9	273.01	1.94e-05	2.5804e-05	485.5	208.47	119.41	60.416	2.1752e-05	112.1	0.029105	0.042742	0.011642	975.94	0.00044372	0.00044396	1288.4	358.24	0.00040937	0.00046926	637.48	251.57	207.55	75.27	0.00044644	132.73	123.211	60.176	3.709	-37.197	109.338	110.123	-37.742	-33.884	36.657	147.996	-34.794	-31.911	-31.156	-27.463	79.210	-28.856	-8191	255	
21891.275	1	1	0	0	0.15509	0.15655	0.14914	0.16049	0.20169	0.44151	0.15039	0.2438	0.23087	0.17887	0.1158	0.4652	0.05949	0.15737	0.14461	0.27344	-2.1208	-2.8354	-2.725	-2.5438	-2.8583	-2.8583	-2.8646	-3.075	-2.5604	-2.8292	-3.1125	-2.625	-3.0521	-2.9771	-2.6167	-3.2146	122.729	155.641	-13.280	252.176	245.437	15.694	247.804	233.212	237.053	37.506	257.714	230.481	240.832	-1.445	292.261	-44.818	0.00061511	0.00047977	4.6246e-05	690.33	5.8491e-06	1.7302e-05	1035.1	272.92	3.7594e-06	3.1368e-05	482.7	206.69	118.05	60.621	1.0613e-05	111.64	0.029251	0.043071	0.011846	974.42	0.00044692	0.00045684	1284	358.61	0.0004129	0.0004719	635.42	249.86	206.65	75.266	0.00043392	132.21	139.873	49.155	190.863	-37.217	221.306	135.635	-37.682	-33.977	153.718	168.976	-34.925	-31.914	-31.162	-27.623	280.371	-28.936	-8191	255	
21891.369	1	1	0	0	0.10887	0.22191	0.19085	0.037377	0.011172	0.15411	0.36237	0.36139	0.030279	0.091324	0.23488	0.28026	0.07297	0.38515	0.094531	0.14315	-2.0625	-2.625	-2.6292	-2.6333	-2.8646	-2.6937	-2.7292	-2.8	-2.5208	-2.8604	-3.1354	-2.8917	-3.0125	-2.8	-2.5333	-3.0042	2.087	261.183	298.017	-17.845	174.837	54.937	273.098	257.646	-0.677	290.091	225.061	201.644	46.961	302.786	22.017	225.556	0.00054267	0.0025669	0.00023419	691.91	2.1898e-05	5.7191e-06	1033.1	272.33	1.0533e-05	2.1356e-06	484.72	207.19	117.66	60.391	3.0807e-05	111.08	0.029013	0.042136	0.011599	960.22	0.00043467	0.00045163	1269.3	354.91	0.00040665	0.00045639	632.34	248.17	204.61	75.022	0.00042215	131.22	89.974	34.244	77.344	-37.203	182.462	28.393	-37.806	-33.756	165.593	229.218	-34.959	-31.904	-31.011	-27.678	113.331	-28.779	-8191	255	
21891.467	1	1	0	0	0.19054	0.14628	0.040877	0.35304	0.19283	0.31874	0.26165	0.095006	0.11277	0.38207	0.13545	0.23187	0.03908	0.25641	0.099747	0.27173	-2.2979	-2.6792	-2.8896	-2.5854	-2.8833	-2.85	-2.6479	-3.0125	-2.6958	-2.7229	-2.9729	-2.5979	-2.8312	-2.8792	-2.6646	-3.1521	-49.908	167.973	86.279	-44.258	4.463	232.759	247.468	116.617	-42.041	23.385	143.439	-31.204	38.639	83.874	-14.792	252.375	0.00082464	0.0011655	9.0982e-05	662.87	1.1866e-05	2.171e-05	984.79	263.31	1.4792e-05	1.8016e-05	473.4	203.33	114.64	58.854	9.6034e-06	107.76	0.028967	0.041153	0.011631	929.31	0.00043396	0.00045378	1219.4	346.49	0.00041015	0.00044367	619.79	243.37	200.11	73.28	0.00041037	127.91	117.912	-16.016	-43.805	-36.906	136.598	36.312	-37.671	-33.814	224.095	41.026	-35.078	-31.658	-30.999	-27.525	79.469	-28.831	-8191	255	
21891.562	1	1	0	0	0.070076	0.28953	0.083745	0.12299	0.3074	0.028473	0.13734	0.073153	0.16323	0.20637	0.16881	0.3486	0.14648	0.13625	0.043209	0.35427	-2.3458	-2.5833	-2.9146	-2.8104	-2.9271	-3.0875	-2.7604	-2.9958	-2.5583	-2.7021	-3.2125	-2.7979	-2.8958	-2.9688	-2.6229	-3.0146	136.411	186.106	303.626	-5.052	39.737	125.965	285.877	94.414	237.744	240.846	162.037	270.552	200.759	229.172	179.752	273.961	0.00047662	0.0015923	0.00047162	630.23	1.2259e-05	2.0582e-05	939.55	253.14	9.544e-06	8.2795e-06	454.8	195.99	111.34	56.513	2.6978e-05	105.33	0.029049	0.040073	0.011451	897.73	0.00042963	0.0004553	1171	336.23	0.00041778	0.00044349	606.25	237.83	197.75	71.402	0.00041245	125.83	123.638	105.389	141.787	-37.114	59.915	53.948	-37.875	-33.598	108.319	195.639	-34.548	-31.605	-31.148	-27.617	106.774	-28.609	-8191	255	
21891.684	1	1	0	0	0.26198	0.1501	0.11568	0.18426	0.11703	0.24181	0.12056	0.14493	0.064513	0.19946	0.29398	0.25181	0.22336	0.19174	0.075144	0.22418	-2.2521	-2.5958	-2.8208	-2.4583	-2.825	-2.75	-2.7854	-3.0104	-2.6188	-2.5458	-3.2271	-2.8833	-2.7417	-3.1667	-2.5104	-3.0312	72.291	-47.531	68.900	274.858	249.722	81.401	228.807	263.265	202.741	53.582	305.407	258.352	302.440	224.382	184.393	253.495	0.00059031	0.0019335	0.00075039	611.01	1.3415e-05	1.1473e-05	921.76	249.9	2.067e-05	2.3851e-05	452.31	195.83	110.56	55.404	1.7069e-05	103.66	0.029847	0.039847	0.011606	889.1	0.00043074	0.00046221	1154.3	334.34	0.00042788	0.00044308	604.24	238.26	196.07	70.344	0.00041548	124.17	135.866	32.029	14.112	-37.042	-10.440	261.064	-37.692	-33.521	10.639	115.042	-34.642	-31.957	-31.691	-27.594	119.971	-28.621	-8191	255	
21891.756	1	1	0	0	0.20066	0.24802	0.1926	0.30623	0.0353	0.083901	0.16335	0.45312	0.13992	0.25048	0.10343	0.12419	0.073355	0.33932	0.14276	0.15235	-2.3833	-2.6312	-3.0208	-2.8125	-2.8479	-3.0438	-2.7	-2.9771	-2.6813	-2.5479	-3.0833	-2.8229	-2.5563	-3.0062	-2.5917	-3.0521	213.224	112.836	-18.839	171.580	55.223	282.066	212.472	245.247	248.100	302.147	-46.565	265.195	301.131	4.765	284.980	245.324	0.00080057	0.001882	0.00039951	600.99	1.6995e-05	1.4478e-05	909.1	247.34	1.1812e-05	1.1114e-05	447.31	193.33	108.34	54.089	1.9309e-05	102.45	0.030469	0.039715	0.011782	887.49	0.00043042	0.00046795	1143.6	332.78	0.00043089	0.0004392	600.8	236.83	192.97	69.196	0.0004195	123.03	138.349	-34.709	36.904	-37.417	35.929	151.912	-37.611	-33.595	97.464	224.972	-34.592	-31.770	-31.290	-27.547	114.137	-28.576	-8191	255	
21891.852	1	1	0	0	0.41445	0.18314	0.29839	0.3272	0.20903	0.036552	0.30913	0.27578	0.30834	0.23361	0.16993	0.10362	0.25168	0.17931	0.1271	0.23046	-2.2646	-2.4271	-2.8833	-2.7562	-2.6312	-2.9271	-2.8604	-2.9875	-2.7458	-2.5521	-2.9479	-2.8083	-2.5958	-3.0854	-2.6729	-2.7812	95.315	160.713	18.049	128.492	254.846	92.666	274.759	284.181	5.660	227.391	234.487	301.178	279.612	237.293	207.718	238.528	0.00070024	0.0018866	0.00040057	599.96	1.8082e-05	1.2231e-05	904.27	245.7	6.9365e-06	1.4523e-05	447.99	192.3	107.28	53.542	1.5637e-05	102.19	0.030736	0.039144	0.011887	887.26	0.00042532	0.000471	1141.9	330.67	0.00043677	0.00043831	600.37	236.76	191.41	68.744	0.00042804	122.65	96.003	291.798	-13.313	-37.478	45.893	143.731	-37.447	-33.753	88.194	119.052	-34.608	-31.600	-30.813	-27.383	197.148	-28.481	-8191	255	
21891.947	1	1	0	0	0.23705	0.036095	0.15514	0.079551	0.061705	0.06612	0.074943	0.22602	0.075435	0.16871	0.18714	0.23463	0.089941	0.27501	0.093413	0.062836	-2.4396	-2.5917	-2.9437	-2.7771	-2.5208	-2.9542	-2.7104	-2.8792	-2.9229	-2.4646	-3.0042	-2.9479	-2.8312	-3.0687	-2.6792	-2.875	33.261	85.163	59.510	127.734	169.178	21.820	51.963	239.349	52.100	165.549	242.484	-38.328	73.954	250.230	35.896	-30.566	0.00036471	0.0022829	0.0004999	595.09	1.6621e-05	9.6097e-06	900.75	244.77	3.2092e-05	6.4246e-06	450.33	192.75	107.13	53.607	6.9835e-06	101.35	0.030932	0.03903	0.011903	885.08	0.00041675	0.00046826	1144.6	327.54	0.00043321	0.00043283	601	237.34	189.04	68.644	0.00043049	121.36	118.600	-45.731	124.467	-37.351	101.486	-6.268	-37.633	-33.851	174.509	15.230	-34.279	-31.435	-30.936	-27.430	223.861	-28.486	-8191	255	
21892.068	1	1	0	0	0.087735	0.13445	0.057414	0.12545	0.46949	0.10372	0.048366	0.34214	0.066925	0.1863	0.1546	0.24899	0.12705	0.28695	0.40949	0.23588	-2.4875	-2.525	-2.8667	-2.9146	-2.5604	-2.8438	-2.8521	-2.8042	-2.9396	-2.6312	-3	-3.05	-2.575	-3.0812	-2.7417	-3.0125	-7.770	240.207	285.235	-25.575	257.237	174.930	282.068	276.474	83.421	235.126	104.993	239.833	227.610	303.102	80.019	200.227	0.00061064	0.0022351	0.00036697	589.09	1.1302e-05	2.3433e-05	888.88	241.44	9.7792e-06	2.9976e-05	440.45	188.82	104.91	52.393	1.75e-05	99.409	0.03074	0.038921	0.011826	875.41	0.0004081	0.00046554	1131.7	321.74	0.00042929	0.00043466	591.41	232.92	185.24	67.513	0.00043219	118.84	127.021	290.328	304.164	-36.763	126.969	191.865	-37.727	-33.467	12.742	130.397	-34.825	-31.854	-31.250	-27.459	-25.476	-28.721	-8191	255	
21892.164	1	1	0	0	0.21032	0.16446	0.11598	0.13377	0.093054	0.20213	0.045208	0.11252	0.19199	0.16963	0.20677	0.21124	0.16707	0.13491	0.089823	0.19073	-2.3396	-2.4667	-2.7438	-3.0167	-2.5771	-2.9813	-2.925	-2.8	-2.9188	-2.6396	-2.8104	-3.0687	-2.7583	-2.9021	-2.775	-2.7396	233.622	248.528	63.349	235.528	173.567	252.839	283.863	170.850	191.031	299.630	246.350	298.815	160.895	258.926	112.617	180.960	0.00062939	0.00035118	0.00011853	582.91	2.1589e-05	2.923e-05	877.48	238	3.0643e-06	1.1728e-06	437.96	185.93	102.45	51.395	4.5663e-06	97.576	0.030523	0.03946	0.011661	870.31	0.00040329	0.00046558	1122.9	317.33	0.00043195	0.00044264	584.28	230.46	183.16	66.507	0.00043528	116.68	111.349	-31.541	20.568	-37.154	-49.491	94.064	-37.240	-33.585	95.409	167.148	-34.888	-31.587	-30.394	-27.531	135.850	-28.540	-8191	255	
21892.260	1	1	0	0	0.32845	0.16706	0.11842	0.14059	0.080681	0.18263	0.095863	0.2939	0.17035	0.038204	0.13598	0.087049	0.0083121	0.22311	0.32321	0.27856	-2.475	-2.7062	-2.7854	-2.8937	-2.7313	-3.0146	-3.0146	-2.6792	-3.1396	-2.7021	-2.9167	-3.0458	-2.6958	-2.9646	-2.8	-2.9208	146.587	269.560	39.091	268.296	13.579	111.549	233.453	296.274	-0.680	211.474	-30.304	27.392	40.542	240.684	239.731	220.252	0.00052972	0.0025886	0.00018651	571.93	1.4595e-05	2.0042e-05	868.14	235.15	9.9829e-06	4.8048e-05	431.01	183.56	101.1	50.214	2.107e-05	96.022	0.030688	0.04012	0.011503	860.67	0.00040727	0.0004678	1116.7	312.76	0.00043746	0.00045249	578.64	228.71	182.96	65.461	0.00044408	115.19	118.041	225.310	271.534	-37.140	169.738	266.696	-37.722	-33.696	189.191	132.054	-34.682	-31.238	-30.866	-27.217	75.500	-28.236	-8191	255	
21892.354	1	1	0	0	0.04959	0.11532	0.2405	0.074863	0.14538	0.091863	0.18392	0.24871	0.25165	0.24058	0.3606	0.0038156	0.16466	0.1498	0.065266	0.18182	-2.625	-2.6708	-2.525	-2.9938	-2.5604	-2.9542	-3.0292	-2.6708	-2.9562	-2.7729	-2.7708	-2.8937	-2.7229	-2.9896	-2.8312	-2.8063	-7.570	250.966	75.628	142.318	95.230	285.441	193.192	187.536	46.381	278.271	291.904	292.825	-2.883	285.843	60.427	271.266	0.00067167	0.001524	0.00065016	563.25	7.2537e-06	3.0147e-05	864.51	230.85	1.9966e-05	1.1147e-05	427.77	182.2	100.34	49.252	9.0386e-06	95.511	0.031249	0.041309	0.011475	856.78	0.00041638	0.00046916	1112.9	307.99	0.00044236	0.00045559	572.68	226.93	182.51	64.336	0.0004437	114.45	123.839	34.618	37.327	-36.991	177.603	181.324	-37.408	-33.370	185.378	82.111	-34.537	-31.314	-30.640	-27.451	28.731	-28.529	-8191	255	
21892.449	1	1	0	0	0.25488	0.42692	0.1018	0.047964	0.16423	0.068896	0.17883	0.29101	0.13199	0.089634	0.069233	0.032134	0.23877	0.070895	0.1148	0.32277	-2.4958	-2.5833	-2.5979	-3.1146	-2.6792	-2.7938	-3.0792	-2.5604	-2.6479	-2.8417	-2.7979	-3.0458	-2.5521	-2.7021	-2.9521	-2.8167	-6.806	59.028	107.260	141.315	167.742	49.400	250.693	261.903	298.196	248.944	155.744	-17.214	-7.072	58.279	246.726	250.470	0.00095153	0.001634	0.00017205	556.82	2.9992e-06	1.5934e-05	847.7	225.51	1.8245e-05	5.791e-06	424.29	180.33	98.044	49.022	1.5031e-05	94.628	0.031263	0.041331	0.011196	852.67	0.00042292	0.0004603	1101.4	303.99	0.00044632	0.00045758	566.16	225.77	182.7	63.641	0.00044251	113.79	107.102	228.827	154.861	-37.207	136.272	62.356	-37.424	-33.264	126.420	169.125	-34.140	-30.963	-30.323	-27.095	182.834	-28.375	-8191	255	
21892.549	1	1	0	0	0.18084	0.11412	0.15061	0.11815	0.20116	0.072864	0.082502	0.088769	0.15826	0.20013	0.33676	0.23282	0.16326	0.33261	0.13157	0.17417	-2.6167	-2.8146	-2.45	-3.0333	-2.7771	-2.7521	-2.9708	-2.7271	-2.8063	-2.7812	-2.6625	-3.1312	-2.7938	-2.8083	-2.9833	-2.6813	-20.757	114.008	157.397	272.275	-1.210	279.739	220.594	259.540	66.431	100.415	133.076	285.344	168.393	-45.031	91.480	294.531	0.00023854	0.00023747	0.00029502	549.6	1.7946e-05	9.7394e-06	845.09	224.02	1.6015e-05	1.429e-05	423.36	180.76	98.583	48.512	8.611e-06	94.592	0.031089	0.041544	0.010964	847.42	0.00042703	0.00045368	1094.2	303.17	0.0004411	0.00046035	563.72	226.02	183.73	62.875	0.0004445	114.1	9.890	134.991	48.414	-36.940	131.828	103.802	-37.316	-33.146	77.570	100.094	-34.164	-31.249	-30.438	-27.083	41.503	-28.499	-8191	255	
21892.668	1	1	0	0	0.29754	0.20908	0.19406	0.35129	0.17656	0.094914	0.25436	0.14826	0.18967	0.17592	0.12851	0.29469	0.20468	0.077459	0.19768	0.11652	-2.3146	-2.875	-2.5312	-2.9229	-2.8333	-2.6813	-3.1125	-2.8917	-2.7708	-2.9437	-2.6833	-3.0896	-2.7708	-2.7375	-3.0438	-2.8292	299.688	117.274	163.008	-16.660	108.032	294.430	285.880	177.154	247.568	-39.187	215.462	242.551	292.520	255.580	241.976	218.769	0.00046673	0.001488	0.00062573	549.66	1.4926e-05	4.6563e-05	844.97	224.23	1.328e-05	3.1717e-05	422.69	181.56	96.966	48.016	6.9172e-07	94.847	0.030965	0.041787	0.010921	850.53	0.00043009	0.00044725	1097.6	305.67	0.0004378	0.00046232	564.35	226.71	184.46	62.47	0.00045006	114.77	136.313	71.602	149.904	-37.061	108.947	100.597	-37.759	-33.306	45.081	201.705	-34.529	-31.107	-31.239	-27.293	306.417	-28.122	-8191	255	
21892.764	1	1	0	0	0.33848	0.34887	0.17764	0.034823	0.053742	0.1435	0.066876	0.085527	0.10928	0.16056	0.14416	0.47971	0.20511	0.036507	0.083488	0.22569	-2.2375	-3.0229	-2.7438	-3.0792	-2.9125	-2.6937	-3.05	-2.9292	-2.8354	-3.0875	-2.7375	-2.9208	-2.8229	-2.7125	-3.0729	-2.8542	232.299	-42.851	-16.417	-29.882	162.213	288.185	72.120	288.290	215.567	246.076	149.688	277.579	301.080	179.154	44.580	231.738	0.00032232	0.0036265	0.00055641	558.1	2.7983e-05	3.1922e-05	853.9	224.63	4.5943e-06	2.6506e-05	428.96	183.18	100.3	48.304	1.1669e-05	95.37	0.030626	0.042124	0.011059	861.01	0.00043691	0.00044293	1109.4	308.55	0.00043324	0.00046561	572.63	228.93	186.92	62.412	0.00045793	115.34	133.170	67.013	132.152	-36.857	-3.956	-8.938	-37.564	-33.233	112.589	49.441	-34.456	-31.155	-30.970	-27.014	280.479	-27.992	-8191	255	
21892.859	1	1	0	0	0.044271	0.18221	0.26377	0.3277	0.064691	0.20403	0.20372	0.055709	0.30659	0.33713	0.12525	0.1809	0.17706	0.1275	0.19208	0.070219	-2.2833	-2.8396	-2.6562	-2.8875	-2.8792	-2.6146	-2.9667	-2.5292	-2.5729	-3.0104	-2.7667	-2.9542	-2.8792	-2.9375	-3.0417	-2.9625	52.291	-15.886	71.854	275.820	182.015	190.876	265.388	246.187	196.941	188.624	192.537	292.815	-14.982	4.145	226.935	280.930	0.00071373	0.0023262	0.00028786	563.69	1.7994e-05	1.5977e-05	860.73	227.17	4.5003e-05	8.7545e-06	433.58	183.48	99.397	48.265	1.2171e-05	95.267	0.030152	0.042207	0.011184	861.31	0.00043492	0.0004395	1119.1	311.69	0.00042133	0.0004689	579.16	228.94	186.68	62.36	0.00045987	115.21	123.148	-23.401	-8.564	-37.277	47.405	36.452	-37.310	-33.420	41.674	102.834	-34.239	-31.091	-30.414	-27.126	35.830	-28.199	-8191	255	
21892.980	1	1	0	0	0.24608	0.090175	0.20299	0.3957	0.26187	0.14944	0.11053	0.035895	0.18861	0.21824	0.20265	0.3261	0.22681	0.12988	0.40913	0.18592	-2.1562	-3.0646	-2.6417	-2.7208	-2.9083	-2.5771	-2.9979	-2.775	-2.6833	-2.9583	-2.8917	-3.1604	-2.9646	-2.5333	-2.9229	-3.075	-6.289	99.169	11.622	259.846	210.803	203.127	244.408	46.614	165.012	103.881	286.784	262.078	105.306	192.236	168.323	263.655	0.0003554	0.0010223	0.0004443	564.52	5.1278e-06	1.4259e-05	865.52	227.88	2.3918e-06	6.0553e-06	433.15	183.41	100.78	48.526	2.0564e-05	94.767	0.029574	0.0426	0.011423	861.44	0.00043914	0.00044229	1123.5	313.94	0.00041732	0.00047597	582.78	228.62	188.13	62.579	0.00046165	115.01	109.691	-15.559	99.454	-37.466	299.305	121.030	-37.619	-32.799	-7.906	238.025	-34.381	-31.215	-31.069	-27.283	3.108	-28.413	-8191	255	
21893.053	1	1	0	0	0.07162	0.14751	0.20117	0.069573	0.15357	0.16521	0.24196	0.13754	0.15856	0.20202	0.19174	0.42405	0.16231	0.4182	0.2035	0.41978	-2.2167	-2.8417	-2.6729	-2.8021	-2.9083	-2.6104	-3.0187	-2.9854	-2.7062	-2.9708	-2.7354	-2.7646	-3.0479	-2.7104	-2.7896	-2.9458	165.925	108.180	103.708	282.241	158.007	57.771	254.475	285.370	284.275	241.201	239.036	232.884	222.270	300.916	232.201	209.953	0.00056682	0.00081296	0.00062168	575.82	1.4386e-05	2.4993e-05	867.64	231.61	1.3834e-05	4.012e-05	441.51	185.88	103.26	49.4	1.3375e-05	96.028	0.029282	0.043177	0.011576	865.44	0.00043856	0.00044647	1126.7	316.42	0.00041164	0.00048151	588.6	229.39	190.51	63.889	0.00046006	116.56	116.696	105.575	143.833	-37.572	76.692	233.967	-37.787	-33.378	128.679	116.901	-34.490	-31.432	-30.495	-27.180	98.135	-28.296	-8191	255	
21893.148	1	1	0	0	0.33743	0.038703	0.20505	0.2303	0.20315	0.14003	0.044265	0.42562	0.23333	0.15292	0.30381	0.10866	0.028873	0.18582	0.19424	0.12135	-2.1417	-2.825	-2.7938	-2.7542	-2.8167	-2.6625	-2.8833	-2.8729	-2.6979	-2.8271	-2.9688	-2.7625	-2.9375	-2.7333	-2.9313	-3.1354	300.330	-45.015	109.432	187.420	150.864	-27.421	230.249	265.812	169.951	-33.600	250.273	100.960	211.359	255.343	87.574	244.522	0.00012159	0.00055951	0.00011031	588.88	4.6112e-06	2.6739e-05	892.16	238.69	1.7018e-05	6.4455e-06	448.9	189.91	104.19	50.468	2.3945e-05	98.108	0.029273	0.043768	0.011739	871.02	0.00044603	0.00045622	1142.5	323.07	0.00041118	0.00048245	598.01	232.64	193.42	65.289	0.00045124	118.53	166.859	222.158	127.341	-37.441	119.663	138.092	-37.765	-33.546	237.800	248.415	-34.685	-31.284	-31.229	-26.965	26.858	-28.380	-8191	255	
21893.244	1	1	0	0	0.14001	0.17929	0.28217	0.11678	0.07474	0.18286	0.44198	0.31701	0.11882	0.12869	0.25748	0.14697	0.16841	0.092971	0.097874	0.11063	-2.1708	-2.875	-2.6542	-2.625	-2.8667	-2.5792	-2.7583	-2.9083	-2.4979	-2.8854	-2.8875	-2.7979	-2.8312	-2.8083	-2.5	-3.2146	95.466	16.160	230.168	186.265	146.455	197.980	298.725	304.987	22.807	2.389	-47.104	239.832	16.270	183.378	126.544	228.437	0.00059428	0.00017351	0.00010273	594.29	1.7249e-05	4.0099e-05	901.57	244.99	7.4783e-06	1.2988e-05	457.99	195.68	107.38	51.76	1.2208e-05	99.655	0.02936	0.043447	0.011798	872.18	0.00045066	0.00045814	1150.7	330.16	0.00041284	0.00047715	607.92	237.06	196.63	66.432	0.00043636	119.8	153.441	193.454	36.363	-37.395	137.288	15.065	-37.422	-33.749	123.654	57.905	-34.778	-31.411	-30.424	-27.371	-44.690	-28.398	-8191	255	
21893.363	1	1	0	0	0.19272	0.18767	0.15403	0.14909	0.19939	0.13949	0.23313	0.061259	0.18915	0.42387	0.145	0.27446	0.17428	0.23978	0.17803	0.3012	-2.1063	-2.9	-2.7167	-2.5771	-2.8063	-2.7188	-2.8292	-3.0479	-2.525	-2.8583	-3.0875	-2.6979	-2.9083	-2.8667	-2.6333	-3.1688	83.303	185.890	-29.793	273.151	-12.487	111.799	306.220	-5.438	61.778	231.251	35.493	265.878	13.476	-10.291	203.389	295.187	0.00022278	0.00057754	0.00020658	592.37	2.3602e-05	2.4213e-05	898.37	245.97	1.297e-05	1.3368e-05	456.2	194.24	107.48	51.927	2.7662e-05	99.769	0.029596	0.042617	0.011691	866.65	0.00045227	0.00045621	1141.9	330.89	0.00041516	0.00046706	604.63	235.63	195.64	66.757	0.00042349	120.08	127.680	205.551	275.206	-36.816	126.204	90.709	-37.992	-33.740	180.131	37.146	-34.396	-31.459	-31.377	-27.518	122.325	-28.434	-8191	255	
21893.459	1	1	0	0	0.039281	0.17895	0.30204	0.054246	0.19708	0.19484	0.13957	0.13395	0.13401	0.25863	0.15793	0.063812	0.26329	0.06913	0.31077	0.24038	-2.1188	-2.75	-2.8646	-2.6729	-2.9854	-2.8333	-2.6937	-3.0458	-2.7771	-2.7146	-3.0208	-2.7687	-2.6833	-2.7417	-2.4729	-3.25	100.702	92.977	167.899	243.426	27.843	258.274	201.835	286.528	213.350	120.966	229.212	194.686	66.120	-5.396	104.407	231.545	0.00029575	0.00040935	0.00051409	584.38	1.9757e-05	1.4796e-05	887.02	241.83	8.6319e-06	9.511e-06	451.09	192.56	106.29	51.953	7.8776e-06	99.816	0.029737	0.041781	0.01155	855.6	0.00045	0.00045824	1123.7	327.92	0.0004218	0.00046093	597.64	233.86	193.88	66.611	0.00041481	120.25	138.455	164.969	1.594	-37.441	189.795	148.998	-37.494	-33.622	250.879	257.569	-34.567	-31.482	-30.729	-27.309	54.617	-28.260	-8191	255	
21893.555	1	1	0	0	0.1269	0.25163	0.29046	0.17395	0.056459	0.071923	0.17865	0.19476	0.13691	0.1686	0.20034	0.089744	0.16714	0.05424	0.1598	0.05773	-2.2958	-2.6458	-2.7875	-2.8	-2.8187	-2.8229	-2.6437	-2.9688	-2.6521	-2.9375	-2.9583	-2.7333	-2.8646	-2.9	-2.6875	-3.2354	146.489	172.588	222.178	279.562	110.629	-16.377	255.517	227.718	157.876	81.761	-14.445	291.597	249.038	-44.386	109.768	162.066	0.00074485	0.0011828	0.00064656	583.33	7.4146e-06	1.7272e-05	886.25	242.4	1.0845e-05	2.5775e-05	450.79	192.38	106.1	52.291	1.6267e-05	100.54	0.029606	0.040602	0.011449	853.95	0.00043796	0.0004489	1115.6	327.57	0.00041847	0.00044345	597.73	234.05	192.69	66.601	0.00041103	120.87	110.575	-11.809	56.136	-37.055	18.277	180.988	-37.655	-33.300	0.505	24.501	-34.755	-31.746	-30.360	-27.359	110.864	-28.682	-8191	255	
21893.629	1	1	0	0	0.14393	0.35559	0.33822	0.071854	0.053524	0.22865	0.16628	0.24687	0.08742	0.24201	0.2165	0.20826	0.037709	0.06046	0.12735	0.13092	-2.0812	-2.6312	-2.7646	-2.7521	-2.7062	-2.8958	-2.7479	-2.9313	-2.8333	-2.7812	-3.0146	-2.7667	-2.8625	-2.9938	-2.6125	-2.9979	-12.076	7.067	149.837	237.448	-18.722	73.997	214.414	261.076	111.147	72.787	270.286	271.575	278.632	228.838	110.212	-35.506	0.00040813	0.00040843	0.00020867	580.86	1.1562e-05	1.825e-05	887.01	241.65	1.3551e-05	3.0072e-05	446.14	191.37	106.67	52.168	2.003e-06	99.777	0.029754	0.039761	0.01164	858.8	0.00043491	0.00045003	1117.7	327.57	0.00042141	0.00043335	598.36	234.29	190.96	66.665	0.00041109	120.49	87.879	84.748	254.692	-36.991	217.224	-42.969	-37.725	-33.580	252.420	62.024	-34.624	-31.333	-30.712	-27.505	26.751	-28.742	-8191	255	
21893.748	1	1	0	0	0.19039	0.17201	0.098428	0.27263	0.050255	0.068342	0.26312	0.1324	0.16571	0.24236	0.35478	0.25153	0.055769	0.15496	0.079546	0.34454	-2.425	-2.4813	-3.0167	-2.6063	-2.8312	-2.8729	-2.6896	-3.125	-2.6958	-2.6479	-3.1021	-2.8563	-2.7625	-3.125	-2.6542	-3.1229	180.987	-22.728	-36.989	227.680	-42.983	115.267	-19.986	-0.442	76.322	28.360	278.655	-22.519	-5.264	44.897	185.842	204.440	0.00061512	0.0018342	0.00042043	579.7	9.4108e-06	1.5098e-05	886.54	240.17	1.5022e-05	5.3185e-06	444.89	191.31	106.55	52.117	3.2426e-05	99.932	0.029674	0.039064	0.01173	859.22	0.00042743	0.00045404	1118.8	325.38	0.00042441	0.00042952	599.96	233.92	189.69	66.763	0.00041776	120.12	123.470	36.520	99.773	-37.225	136.327	120.914	-37.458	-33.709	-21.438	0.850	-34.501	-31.499	-31.045	-27.555	204.964	-28.375	-8191	255	
21893.844	1	1	0	0	0.082273	0.21404	0.049059	0.25785	0.15732	0.12756	0.25518	0.21359	0.13146	0.12691	0.23001	0.16713	0.13492	0.095816	0.16519	0.31432	-2.3979	-2.6063	-2.7458	-2.8604	-2.6146	-3.1	-2.8979	-2.9167	-2.6229	-2.5646	-2.8583	-2.7833	-2.725	-2.9333	-2.4875	-2.8896	156.860	-15.915	-45.102	222.463	248.258	89.888	297.464	279.531	222.821	38.069	117.196	-6.535	202.147	256.680	196.804	194.404	0.00052774	0.0012092	0.00066505	578.45	2.3387e-05	5.5125e-06	882.06	241.42	2.2752e-05	2.3151e-05	447.19	190.84	105.65	52.214	1.5111e-05	100.13	0.029768	0.038701	0.011827	862.67	0.00041981	0.00045772	1121.7	324.64	0.0004223	0.00043125	600.57	234.03	187.04	67.042	0.0004238	120.31	102.019	252.908	69.899	-37.014	42.447	129.840	-37.384	-33.609	69.221	26.570	-34.634	-31.539	-30.747	-27.490	117.452	-28.466	-8191	255	
21893.939	1	1	0	0	0.14683	0.14734	0.19961	0.295	0.24952	0.060885	0.11307	0.107	0.14952	0.27785	0.20318	0.16785	0.26503	0.28853	0.066676	0.1075	-2.3979	-2.6125	-3.0104	-2.7812	-2.8208	-3.0167	-2.8271	-2.7208	-2.8688	-2.6	-3.0687	-3.0271	-2.65	-3.0687	-2.6937	-2.9167	235.372	105.147	-12.043	273.441	207.175	33.906	274.771	267.971	286.642	268.275	150.667	229.928	219.788	247.424	16.838	132.430	0.00032461	0.0022764	0.00069159	586.26	1.0673e-05	1.1848e-05	894.88	241.57	1.354e-05	3.2343e-05	448.35	191.17	105.9	52.406	2.6311e-05	101.29	0.029662	0.039123	0.011895	868.85	0.00041027	0.00047009	1131.4	323.97	0.00042381	0.00043657	601.19	235.12	186.97	67.495	0.00042688	120.79	140.893	148.538	280.496	-37.401	112.677	231.208	-38.014	-33.494	56.237	141.169	-34.761	-31.603	-30.730	-27.305	64.534	-28.667	-8191	255	
21894.061	1	1	0	0	0.075981	0.2515	0.27482	0.18489	0.069821	0.14538	0.20632	0.19782	0.16157	0.076913	0.18548	0.19844	0.23067	0.05893	0.068773	0.092528	-2.4042	-2.5979	-2.7708	-2.8125	-2.5417	-2.9042	-2.7396	-2.7021	-2.9062	-2.7271	-2.9083	-2.9396	-2.7417	-3.1125	-2.6104	-2.8146	288.087	17.189	-43.918	195.246	187.895	275.869	253.628	216.180	-10.679	281.110	114.975	254.037	238.994	2.251	0.366	180.840	0.00059773	0.0011975	0.00047445	584.9	4.5209e-06	2.4288e-05	895.51	241.86	2.8753e-05	1.6428e-05	446.96	192.05	105.37	52.838	5.5472e-06	101.25	0.030115	0.039638	0.011825	868.15	0.00040496	0.00047227	1133.6	322.03	0.00042608	0.00043605	597.87	234.89	185.66	67.798	0.00042622	120.28	134.933	88.444	7.973	-36.876	165.352	76.955	-37.479	-33.529	121.430	-49.692	-34.398	-31.365	-30.546	-27.340	271.815	-28.338	-8191	255	
21894.156	1	1	0	0	0.271	0.30756	0.20821	0.29805	0.16724	0.14711	0.091372	0.47584	0.064462	0.24912	0.30016	0.25632	0.15023	0.3232	0.14587	0.47524	-2.6146	-2.5521	-2.8542	-2.8979	-2.5042	-2.7438	-3.0771	-2.7542	-2.9896	-2.4813	-2.7562	-2.7604	-2.4979	-2.9479	-2.7396	-2.825	23.248	98.568	199.882	216.767	-16.862	136.836	116.607	201.304	40.901	160.460	262.706	244.694	236.654	282.305	3.446	251.730	0.00097316	0.00032575	0.00055106	578.59	1.3447e-05	1.183e-05	895.72	239.63	1.6781e-05	9.8611e-06	450.56	192.27	106.08	53.154	2.633e-05	102.56	0.030205	0.03963	0.011583	862.05	0.00040328	0.00047006	1134.7	318.18	0.00042796	0.00043693	597.07	235.92	187.06	68.137	0.00042244	120.87	136.881	199.065	19.748	-37.198	120.000	119.063	-37.597	-33.467	138.251	221.877	-34.917	-31.285	-31.181	-27.227	136.873	-28.255	-8191	255	
21894.252	1	1	0	0	0.16815	0.21248	0.092492	0.22492	0.11455	0.16007	0.27657	0.19532	0.058837	0.18238	0.42966	0.38561	0.078136	0.088045	0.078237	0.28265	-2.6167	-2.6479	-2.6646	-2.9854	-2.525	-2.9167	-2.8104	-2.7729	-2.8292	-2.4375	-2.6437	-3.0208	-2.5854	-2.975	-2.7792	-2.8958	302.830	247.912	190.208	274.943	258.237	266.969	205.703	115.634	-1.557	66.555	177.222	233.862	42.875	-5.504	113.599	-33.435	0.00057033	0.0027348	0.0002926	581.78	1.1875e-05	2.659e-05	899.68	241.37	1.5401e-05	1.0863e-05	450.66	193.4	107.41	53.599	3.8979e-05	102.08	0.030169	0.039111	0.011175	861.53	0.00040133	0.00045957	1136.8	317.55	0.00042888	0.00043699	591.77	236.29	188.07	68.378	0.00042366	120.84	128.419	31.772	-43.242	-37.118	211.361	98.580	-37.507	-33.541	-22.012	80.880	-34.369	-31.379	-30.923	-27.420	72.365	-28.805	-8191	255	
21894.350	1	1	0	0	0.20551	0.13429	0.093027	0.30763	0.14716	0.064698	0.29119	0.051283	0.14846	0.15465	0.25822	0.036685	0.23811	0.27533	0.052752	0.24373	-2.5625	-2.5667	-2.65	-2.9021	-2.4938	-2.8958	-3.0042	-2.4458	-3.0729	-2.675	-2.7708	-3.1375	-2.5938	-2.8854	-2.8979	-2.6063	103.551	41.128	41.278	304.570	-5.242	153.249	222.533	261.948	250.817	240.590	-15.994	80.821	38.552	-40.806	14.665	260.770	0.00057711	0.00072309	0.00058966	591.22	1.5216e-05	2.4462e-05	914.03	243.36	1.3956e-05	2.6486e-05	450.85	193.14	108.49	55.024	1.8069e-05	104.48	0.030813	0.039879	0.01105	878.27	0.00041029	0.00046319	1151.4	320.23	0.0004388	0.00044691	591.88	238.74	191.16	69.694	0.00043186	123.25	106.559	122.675	285.944	-37.228	130.120	110.590	-37.781	-33.694	122.525	91.232	-34.613	-31.367	-30.299	-27.151	114.403	-28.516	-8191	255	
21894.443	1	1	0	0	0.11909	0.3394	0.089738	0.19302	0.24416	0.18446	0.17294	0.16743	0.16665	0.18851	0.10409	0.15301	0.27304	0.086399	0.21751	0.087387	-2.3229	-2.575	-2.5208	-2.8521	-2.4125	-2.7667	-2.8729	-2.7583	-2.8521	-2.7229	-2.7958	-3.2479	-2.6521	-2.8083	-2.8708	-2.6771	124.100	217.357	209.065	193.238	186.734	34.964	-26.851	-35.822	249.318	112.736	-16.511	129.427	264.966	162.803	238.281	170.809	0.00071999	0.00028022	0.00067519	621.66	2.3068e-05	3.0932e-05	949.12	248.83	1.9231e-05	1.48e-05	457.99	197.33	110.9	56.086	1.4455e-05	106.02	0.031443	0.040764	0.011109	913.78	0.00042033	0.00046239	1194.6	328.93	0.00044232	0.0004538	601.51	243.67	194.83	70.755	0.00043837	125.26	97.498	-4.631	-39.335	-37.448	88.426	14.209	-37.564	-33.898	3.379	63.836	-34.650	-31.507	-31.048	-27.665	229.765	-28.619	-8191	255	
21894.539	1	1	0	0	0.14647	0.14056	0.10856	0.10103	0.13406	0.19552	0.25682	0.15786	0.14456	0.24774	0.034934	0.17855	0.21303	0.086376	0.18329	0.10621	-2.375	-2.6896	-2.5125	-3.0375	-2.4875	-2.8083	-3.0729	-2.7938	-2.7958	-2.8354	-2.9458	-3.1312	-2.6771	-2.7167	-2.725	-2.8167	119.502	247.061	63.474	303.189	251.653	264.052	195.248	305.936	264.477	177.450	77.273	279.152	273.911	-16.556	84.699	221.983	0.00038243	0.0010055	0.00030515	636.72	1.3958e-05	1.6093e-05	975.92	253.87	1.6108e-05	3.7644e-05	466.84	200.7	112.99	57.385	4.2436e-06	107.32	0.031316	0.040815	0.011065	934.81	0.00042379	0.00044935	1225	335.11	0.00043936	0.00045465	608.95	247.25	197.14	71.685	0.00044742	127.16	78.012	-29.709	69.705	-37.135	172.965	58.924	-37.562	-34.113	62.520	18.632	-34.538	-31.655	-31.085	-27.552	243.563	-28.769	-8191	255	
21894.660	1	1	0	0	0.15103	0.19654	0.061513	0.14784	0.14528	0.15707	0.055672	0.11356	0.02194	0.1952	0.19309	0.19794	0.26276	0.17623	0.14604	0.22286	-2.4688	-2.6312	-2.5667	-3.0208	-2.675	-2.7062	-3.0563	-2.6667	-2.7792	-2.8458	-2.6813	-3.0583	-2.6688	-2.7271	-3.0896	-2.6625	3.303	253.023	-49.454	61.781	50.934	257.698	284.134	278.560	265.565	116.955	286.330	258.390	-8.631	158.957	241.810	101.258	0.00055955	0.0015748	0.00019898	652.7	2.5103e-05	1.2897e-05	997.47	259.35	1.0945e-05	1.2269e-05	475.19	203.63	114.93	58.373	4.5357e-06	108.5	0.031245	0.04097	0.011187	950.75	0.00043005	0.00044546	1252.3	340	0.00043332	0.00045678	616.72	249.78	199.16	72.512	0.00045396	128.63	114.331	55.093	63.264	-37.295	196.366	83.003	-37.731	-33.784	11.955	169.180	-34.834	-31.670	-31.159	-27.813	296.360	-28.794	-8191	255	
21894.756	1	1	0	0	0.16395	0.13039	0.092822	0.18563	0.17916	0.12641	0.21209	0.40669	0.11984	0.11299	0.059299	0.16473	0.16324	0.029474	0.13795	0.30743	-2.4188	-2.9938	-2.4688	-2.7354	-2.8042	-2.5979	-3	-2.6562	-2.7083	-2.9292	-2.6542	-2.9688	-2.8833	-2.6667	-2.9271	-2.8917	111.662	259.288	14.683	273.383	185.562	43.560	288.990	284.946	98.995	170.327	5.315	-24.830	146.391	285.465	125.229	259.075	0.00023093	0.0007065	0.0011219	660.72	1.8996e-05	2.6764e-05	1008.8	261.62	3.3976e-05	3.5007e-05	474.94	205.14	115.1	58.682	8.7271e-06	109.12	0.030501	0.041298	0.011237	959.37	0.00042865	0.00044161	1264.8	342.97	0.00042795	0.0004635	621.97	250.58	200.06	72.756	0.00045479	128.63	186.892	-1.122	64.082	-37.584	188.590	296.246	-37.713	-33.787	25.343	24.456	-34.851	-31.820	-30.332	-27.845	247.116	-28.829	-8191	255	
21894.852	1	1	0	0	0.15419	0.133	0.29944	0.13712	0.24232	0.075162	0.12168	0.20381	0.13744	0.17262	0.17574	0.18994	0.11083	0.32684	0.12304	0.43639	-2.1292	-2.6875	-2.5292	-2.8625	-2.9042	-2.6833	-3.025	-2.7042	-2.5479	-2.8854	-2.5792	-2.8208	-2.8542	-2.6646	-2.9479	-2.9292	25.427	59.351	72.187	144.044	199.494	77.004	251.483	-24.653	160.804	110.458	299.097	260.696	-2.188	268.906	37.642	268.044	0.00047421	0.0013524	0.00036359	663.15	9.5053e-06	1.11e-05	1019.5	264.51	1.4704e-05	2.6402e-05	479.32	205.32	116.39	58.864	4.7946e-06	109.25	0.029608	0.041521	0.011189	958.4	0.00042251	0.0004365	1269.7	345.25	0.00041338	0.00046461	623.59	250.16	200.23	73.083	0.00045189	129.07	73.775	178.792	112.640	-37.679	307.563	157.293	-38.021	-33.799	96.974	195.640	-35.137	-31.912	-31.286	-27.642	31.956	-28.959	-8191	255	
21894.924	1	1	0	0	0.11978	0.089021	0.15052	0.16314	0.16381	0.073286	0.27343	0.11025	0.16662	0.16837	0.11785	0.33728	0.28246	0.12693	0.16352	0.09855	-2.25	-2.9	-2.675	-2.8542	-2.9188	-2.525	-3.1479	-2.7146	-2.5708	-2.8937	-2.5979	-2.8688	-2.9083	-2.7417	-2.8583	-3.0146	49.799	-43.687	175.709	236.075	199.858	205.541	175.857	-25.870	237.569	6.130	238.179	299.024	43.699	-11.586	132.972	-42.666	0.0004737	0.0019939	0.00040835	666.75	1.2031e-06	2.4964e-05	1017.3	265.4	1.2163e-05	1.7293e-05	481.58	206.64	116.65	59.412	2.0908e-05	110.11	0.029132	0.042166	0.011225	957.19	0.00042646	0.00043901	1273.8	345.74	0.0004096	0.00046948	627.27	250	201.66	73.513	0.00044831	129.59	143.324	92.780	-18.841	-37.771	42.167	192.391	-37.952	-33.732	19.868	-43.096	-34.839	-32.048	-31.161	-27.946	151.058	-29.055	-8191	255	
21895.045	1	1	0	0	0.1594	0.11456	0.091554	0.1492	0.050362	0.1473	0.22446	0.35328	0.27922	0.18472	0.17919	0.19122	0.18525	0.39468	0.10205	0.11331	-2.1229	-2.7396	-2.5083	-2.7458	-2.7771	-2.4625	-2.8354	-2.8312	-2.6521	-2.9979	-2.8542	-2.8958	-2.9708	-2.6813	-2.9021	-3.05	259.076	137.576	113.091	289.087	19.785	105.790	132.295	279.888	235.471	226.653	271.659	273.374	139.376	268.928	-41.825	285.594	0.00055735	0.0017442	0.00022816	675.03	7.5371e-06	8.8056e-06	1024.9	267.77	9.5461e-06	2.4662e-05	486.73	208.5	117.81	59.577	2.935e-05	110.44	0.028743	0.042421	0.011189	951.04	0.00042862	0.00043826	1277.5	347.04	0.00040657	0.00047052	631.98	250.59	203.42	73.774	0.00044199	130.24	103.712	35.625	118.131	-37.656	223.581	130.493	-37.791	-34.057	-40.277	222.666	-35.008	-32.154	-31.424	-27.698	33.098	-28.985	-8191	255	
21895.141	1	1	0	0	0.25517	0.11596	0.18275	0.20372	0.1123	0.38017	0.10074	0.050837	0.18203	0.11854	0.030271	0.39495	0.13312	0.2566	0.30118	0.33164	-2.1208	-2.8	-2.7083	-2.8063	-2.9458	-2.6271	-3.0542	-2.8937	-2.5396	-2.8292	-2.7938	-2.775	-3.1042	-2.7	-2.8125	-2.9313	304.904	60.988	56.066	-31.999	252.185	258.646	268.374	292.449	285.543	293.025	156.748	185.919	199.462	260.467	-23.401	251.693	0.00062743	0.00084458	0.0011837	682.39	1.7485e-05	1.7023e-05	1030.9	268.74	2.8392e-06	1.0675e-05	489.07	208.31	117.89	59.503	2.6625e-05	110.04	0.028798	0.042672	0.011231	955.35	0.0004392	0.00044356	1281.2	350.17	0.00041473	0.00047346	633.24	250.68	206.59	73.937	0.00044157	130.13	98.780	-12.093	-16.392	-37.327	213.475	139.393	-38.075	-34.016	250.052	103.709	-34.796	-31.738	-31.203	-27.699	108.598	-28.908	-8191	255	
21895.236	1	1	0	0	0.10407	0.051018	0.17034	0.32354	0.17928	0.15689	0.10363	0.071182	0.20647	0.09342	0.2707	0.22145	0.081329	0.10865	0.088696	0.19367	-2.1562	-2.8812	-2.8542	-2.7583	-2.9083	-2.6833	-2.9667	-3.0125	-2.5167	-2.9021	-2.9792	-2.7792	-2.9625	-2.7333	-2.8396	-3.2188	185.531	73.484	114.626	-18.096	57.698	83.764	232.548	81.577	-35.754	139.218	222.775	290.561	-48.470	-34.306	20.665	180.312	0.0006506	0.0012652	0.00058588	677.74	1.5387e-05	1.34e-05	1026.6	266.33	5.9177e-06	3.0322e-05	485.41	207.26	118.15	59.194	3.7566e-06	109.93	0.029495	0.043247	0.011418	958.24	0.00045243	0.00045488	1276.8	351	0.00042376	0.00048	633.02	249.47	207.98	73.971	0.00043475	130.33	127.071	72.853	77.359	-36.983	157.737	197.810	-37.780	-33.854	221.607	121.851	-35.024	-32.102	-31.190	-27.785	21.098	-29.073	-8191	255	
21895.330	1	1	0	0	0.16476	0.17466	0.21859	0.11682	0.10405	0.1974	0.20929	0.15823	0.33796	0.11418	0.14084	0.1427	0.28101	0.27336	0.091363	0.25715	-2.05	-2.9021	-2.7104	-2.6229	-2.8354	-2.7771	-2.7896	-3.0396	-2.4708	-2.8125	-2.9417	-2.675	-3.0271	-2.6896	-2.7354	-2.9604	292.448	64.040	188.877	229.819	185.840	169.745	262.673	37.185	140.608	32.034	207.336	42.799	-11.509	-25.950	183.390	244.054	0.00070361	0.0013392	0.00034272	678.82	2.1304e-05	6.297e-06	1030.2	266.74	1.9349e-05	2.155e-05	483.08	205.09	117.06	59.123	8.7266e-06	109.4	0.029743	0.043053	0.011483	961.11	0.00045424	0.0004591	1273.9	352.96	0.00042549	0.00047341	633.92	249.35	207.86	73.905	0.00043598	130.77	110.660	59.910	162.495	-37.606	19.834	270.335	-37.945	-34.133	224.072	78.370	-34.937	-31.945	-31.397	-27.758	6.442	-28.804	-8191	255	
21895.430	1	1	0	0	0.038445	0.20886	0.13085	0.21353	0.18239	0.047214	0.15573	0.10648	0.23771	0.13229	0.03659	0.1735	0.21693	0.26574	0.20028	0.33478	-1.9958	-2.7438	-2.7188	-2.6312	-2.9833	-2.6146	-2.6688	-2.8625	-2.5812	-2.9	-2.8875	-2.75	-2.7625	-3.0167	-2.5854	-3.0042	297.560	81.802	-46.120	295.407	205.972	105.698	218.090	215.155	308.126	125.111	153.366	227.532	234.745	-6.708	226.160	273.240	0.00045508	0.0011947	0.00051852	668.45	5.8578e-06	1.6777e-05	1031.5	265.7	1.2988e-05	2.4542e-05	482.83	206.44	117.86	59.441	1.8187e-05	110.52	0.030057	0.04241	0.011701	957.59	0.0004537	0.00045807	1268.1	352.71	0.00042696	0.00046438	635.52	250.12	207.81	74.07	0.00043502	131.33	106.289	-10.993	269.609	-37.339	164.725	30.798	-37.925	-33.688	108.124	142.658	-34.960	-31.841	-31.561	-27.778	98.657	-28.811	-8191	255	
21895.523	1	1	0	0	0.13147	0.066279	0.16739	0.12385	0.051663	0.22133	0.11233	0.1396	0.082509	0.14913	0.13687	0.14989	0.25376	0.19547	0.15439	0.32946	-2.2771	-2.7146	-2.8563	-2.4667	-2.8771	-2.7188	-2.5458	-2.7979	-2.6417	-2.6833	-3.0667	-2.7771	-2.9479	-2.8167	-2.5958	-3.1063	27.146	-4.280	275.705	94.059	175.478	15.037	177.777	225.593	-19.712	90.212	268.288	240.738	306.459	-50.718	183.420	164.096	0.00059544	0.0023259	0.00033552	672.07	3.4432e-05	3.2027e-05	1024	264.8	1.2133e-05	2.0375e-05	481.09	205.1	116.77	59.261	7.8046e-06	109.51	0.030264	0.041802	0.011879	957.4	0.00045253	0.00045985	1268.5	353.34	0.00042683	0.00045618	636.37	249.19	205.07	73.912	0.00043098	130.71	117.477	24.927	-13.631	-37.205	23.331	108.286	-38.012	-34.000	131.889	97.987	-34.813	-32.008	-31.159	-27.892	234.344	-29.126	-8191	255	
21895.619	1	1	0	0	0.19808	0.19905	0.21207	0.14286	0.031472	0.21839	0.1701	0.0826	0.050298	0.082823	0.089675	0.30475	0.13701	0.20003	0.060635	0.05305	-2.0958	-2.7354	-2.9125	-2.6354	-2.8667	-2.8458	-2.8458	-2.9583	-2.7021	-2.8	-3.0938	-2.9479	-2.8333	-2.7604	-2.5875	-3.0292	265.689	97.069	255.711	-44.020	283.643	-49.834	238.143	156.552	305.029	12.285	171.819	241.015	294.220	299.479	231.999	287.030	0.00065698	0.00070912	0.00036363	668.84	1.6626e-05	2.1611e-05	1022	263.33	1.4928e-05	1.2384e-05	481.63	204.97	116.37	59.437	1.3184e-05	110.07	0.030102	0.040691	0.012007	951.23	0.0004411	0.00046385	1264.9	351.38	0.00042553	0.00045323	637.31	249.18	203.54	74.243	0.0004321	131.42	92.808	-42.909	287.413	-37.394	58.031	-46.906	-37.700	-33.811	96.151	281.715	-34.650	-31.860	-31.300	-27.859	17.434	-28.816	-8191	255	
21895.740	1	1	0	0	0.37935	0.31385	0.11629	0.23591	0.30994	0.23701	0.034413	0.32813	0.22919	0.12952	0.19393	0.33598	0.13517	0.093802	0.023989	0.12232	-2.1229	-2.3521	-2.9292	-2.7625	-2.8083	-2.85	-2.6979	-2.9021	-2.7792	-2.5854	-2.9417	-2.7625	-2.7417	-2.9083	-2.6333	-3.0062	167.858	21.924	7.709	19.935	239.323	160.191	108.359	-30.064	40.515	-38.281	236.382	246.352	298.756	-19.667	104.872	213.708	0.00048757	0.0021174	0.00075608	667.06	1.6469e-05	1.9335e-05	1025.5	263.42	1.2535e-05	1.7025e-05	483.2	205.96	115.86	59.513	3.1658e-06	110.66	0.030158	0.040469	0.012156	953.36	0.00043229	0.00046591	1266.5	351.04	0.00042197	0.00044986	639.09	249.45	201.47	74.598	0.00043152	131.43	93.581	290.161	297.390	-37.507	111.965	87.072	-37.784	-33.857	132.134	28.454	-34.756	-31.848	-30.944	-27.846	264.049	-29.005	-8191	255	
21895.838	1	1	0	0	0.24925	0.022555	0.28309	0.076026	0.048837	0.2405	0.33454	0.26655	0.1998	0.12018	0.13785	0.20491	0.094211	0.27078	0.11098	0.23024	-2.4417	-2.5125	-2.9	-2.725	-2.7771	-2.7729	-2.6583	-3.0146	-2.6917	-2.6813	-3.0292	-2.6854	-2.6458	-3.0417	-2.6208	-2.9125	6.809	157.724	305.058	193.663	153.036	284.266	267.319	-38.371	181.312	300.422	290.548	45.318	307.005	293.125	24.230	232.960	0.0009693	0.0013803	0.00077628	672.67	1.2464e-05	1.8229e-05	1028.9	264.26	1.256e-05	1.5449e-05	484.24	205.86	117.36	59.064	1.3342e-05	110.99	0.030311	0.040408	0.012208	954.49	0.00042716	0.00047573	1269.5	350.17	0.00042638	0.00044883	639.22	249.65	199.93	74.516	0.00042903	130.96	79.881	8.403	58.624	-37.584	-50.952	24.660	-37.835	-33.951	292.187	188.340	-34.778	-31.981	-31.502	-27.769	163.116	-28.835	-8191	255	
21895.934	1	1	0	0	0.070658	0.14757	0.17477	0.17639	0.17708	0.061637	0.24351	0.41012	0.20714	0.18909	0.19897	0.22934	0.19323	0.50008	0.093876	0.35923	-2.5062	-2.5292	-3.025	-2.7479	-2.6333	-2.9062	-2.8458	-2.775	-2.8042	-2.3312	-3.025	-2.7729	-2.6063	-2.9104	-2.625	-2.9083	84.037	187.468	156.768	237.187	185.770	83.500	296.706	258.331	33.350	37.226	299.044	270.476	-12.929	271.020	39.247	222.511	0.00074824	0.00059974	0.00023969	665.56	5.1513e-06	4.8882e-06	1023.7	263.72	2.4666e-05	2.8554e-05	486.56	207.92	116.77	59.573	3.9497e-06	111.24	0.030284	0.039918	0.012033	946.13	0.00041862	0.00047414	1264.4	345.95	0.00042674	0.0004409	637.46	250.25	199.13	74.855	0.00042336	130.88	107.061	113.983	142.776	-37.186	85.378	92.669	-37.775	-34.136	95.550	52.205	-34.746	-31.873	-31.374	-27.794	292.651	-28.928	-8191	255	
21896.029	1	1	0	0	0.21185	0.078836	0.15354	0.18824	0.2037	0.096006	0.18562	0.14127	0.21132	0.12905	0.23969	0.054436	0.19983	0.1849	0.083076	0.24702	-2.6104	-2.6583	-2.8042	-2.6833	-2.6792	-2.8688	-2.7708	-2.7521	-2.8417	-2.6312	-2.8958	-2.8812	-2.5312	-2.9167	-2.6917	-2.85	-30.469	156.020	-41.973	16.825	217.835	225.812	-45.359	294.157	260.722	157.516	138.123	211.461	82.739	302.670	242.469	252.896	0.00060263	0.0014622	0.00028455	668.9	1.0332e-05	1.4282e-05	1031.9	264.69	1.0487e-05	2.9964e-06	485.47	207.41	118.09	59.721	2.9737e-05	111.31	0.030413	0.039591	0.01178	947.62	0.00041467	0.00047138	1267	345.3	0.0004321	0.00044265	635.36	250.36	199.42	74.983	0.00042042	130.63	99.410	292.807	2.759	-37.334	28.947	253.357	-37.788	-33.911	131.254	63.873	-35.165	-31.784	-31.179	-27.988	109.015	-28.870	-8191	255	
21896.150	1	1	0	0	0.24506	0.085088	0.11423	0.13178	0.069671	0.12368	0.16369	0.20708	0.096855	0.16876	0.18424	0.17092	0.1098	0.35382	0.29513	0.32349	-2.4938	-2.6771	-2.6354	-2.8042	-2.5375	-2.8812	-2.7583	-2.7521	-2.8771	-2.875	-2.9354	-2.8479	-2.6146	-3.0417	-2.7792	-2.9729	2.046	-12.813	221.996	-24.332	82.645	119.739	188.787	263.912	58.969	-1.200	-42.874	299.161	64.679	284.119	83.105	246.748	0.00039325	0.00057447	0.00043602	675.78	2.352e-05	2.2647e-05	1035.4	266.58	1.7576e-05	2.3741e-05	485.63	207.22	117.1	59.617	2.0955e-05	111.66	0.030566	0.039276	0.011541	954.3	0.000412	0.00046617	1269.5	345.5	0.00043347	0.00043775	631.83	250.5	197.86	74.839	0.00041538	130.65	101.722	12.135	-21.798	-37.412	151.769	40.270	-37.768	-33.995	44.906	59.410	-34.936	-31.755	-31.142	-27.861	257.151	-28.652	-8191	255	
21896.221	1	1	0	0	0.10677	0.16491	0.11314	0.24723	0.33069	0.24873	0.16336	0.29472	0.052131	0.27957	0.23969	0.10778	0.073825	0.22687	0.14801	0.27016	-2.5687	-2.6708	-2.7208	-2.8063	-2.7208	-2.9458	-2.7667	-2.5771	-2.9	-2.7125	-2.75	-3.0104	-2.6312	-2.9333	-2.6417	-2.775	38.650	12.781	199.274	286.179	-13.134	225.095	232.522	263.168	-33.251	-33.289	255.041	110.813	86.220	246.172	256.877	237.680	0.00061694	0.0011081	0.0002595	671.7	2.3269e-05	8.8835e-06	1030	266.12	5.697e-06	1.3783e-05	486.4	208.69	116.98	60.285	7.6809e-06	111.96	0.030724	0.039284	0.01126	953.09	0.00040851	0.0004603	1265.9	343.07	0.0004345	0.00043427	629.57	251.87	197.68	74.88	0.00041872	131.02	113.734	3.792	-15.350	-37.340	40.384	36.156	-37.821	-33.551	299.257	13.687	-34.987	-31.805	-31.465	-27.914	80.038	-28.941	-8191	255	
21896.342	1	1	0	0	0.17968	0.45328	0.1709	0.22262	0.15007	0.13194	0.13058	0.12447	0.084363	0.15508	0.14476	0.29321	0.157	0.29528	0.1792	0.30971	-2.3542	-2.6521	-2.6646	-3.0083	-2.4667	-2.9062	-3.1083	-2.8292	-2.9792	-2.6417	-2.7104	-3.0438	-2.6708	-2.9479	-2.8729	-2.6646	289.392	-11.338	-7.921	-20.451	-10.047	100.980	80.114	97.798	-6.080	102.594	31.105	249.166	5.088	297.729	184.862	267.727	0.00076637	0.0013681	0.00066008	670.63	1.1981e-05	5.8713e-06	1029	264.83	3.511e-05	5.6578e-06	486.33	207.97	117.16	60.447	1.3868e-05	112.73	0.03052	0.039046	0.011065	956.04	0.00040557	0.00045262	1269.1	342.5	0.00043438	0.00043175	629.35	252.79	198.21	74.929	0.00042575	131.8	88.088	10.744	48.606	-37.485	30.610	251.176	-38.103	-33.988	201.174	67.869	-34.764	-31.900	-31.407	-27.802	50.311	-28.935	-8191	255	
21896.436	1	1	0	0	0.19306	0.10538	0.12607	0.15459	0.36202	0.22319	0.20499	0.1054	0.19308	0.12076	0.25766	0.0795	0.051291	0.12061	0.1007	0.33189	-2.4708	-2.7188	-2.5021	-3.1104	-2.5146	-2.9437	-3.0396	-2.7042	-2.8958	-2.8771	-2.8729	-3.0438	-2.5062	-2.7375	-2.7792	-2.5667	51.011	108.861	290.272	-40.770	118.554	1.133	205.474	-18.432	239.463	203.893	-8.845	182.505	293.225	52.542	157.260	268.830	0.00086804	0.0022887	7.8402e-05	674.04	1.0731e-05	5.6382e-06	1027.9	262.73	1.8837e-05	1.447e-05	483.25	207.33	117.25	60.546	6.6546e-06	111.91	0.030762	0.038983	0.011021	960.63	0.00040733	0.00044499	1267.6	340.39	0.0004304	0.00043083	626.47	252.73	198.19	74.545	0.00043118	131.21	104.229	-10.159	295.480	-37.294	85.348	187.500	-37.837	-33.739	246.380	74.791	-34.849	-31.794	-30.729	-28.018	243.134	-29.091	-8191	255	
21896.531	1	1	0	0	0.11215	0.15028	0.22284	0.19478	0.121	0.0063486	0.060006	0.084595	0.24282	0.23506	0.16086	0.1765	0.25755	0.09144	0.47993	0.31516	-2.2854	-2.7271	-2.4771	-2.9625	-2.5604	-2.7438	-3.1125	-2.6958	-2.7854	-2.6625	-2.5563	-3.1083	-2.5187	-2.625	-2.8875	-2.7687	264.506	-41.482	220.167	155.825	16.897	149.353	289.091	187.530	297.199	88.692	-42.093	251.783	293.469	268.783	20.806	266.809	0.00051987	0.0013214	0.00069994	671.87	6.082e-06	2.455e-05	1040	265.19	3.0003e-06	3.4707e-05	488.26	208.82	117.17	60.222	2.4897e-05	111.54	0.030416	0.039578	0.010959	967.43	0.00040543	0.00043948	1280.7	343.02	0.00042155	0.00043255	626.31	252.23	197	73.987	0.00043266	130.45	87.503	273.281	31.326	-37.388	80.183	84.448	-37.963	-34.095	284.009	198.475	-34.896	-31.704	-30.751	-27.978	142.563	-28.886	-8191	255	
21896.629	1	1	0	0	0.27837	0.081691	0.15978	0.13863	0.1546	0.19973	0.24343	0.18203	0.30982	0.18529	0.21498	0.21445	0.2535	0.17867	0.089925	0.11956	-2.7125	-2.725	-2.5521	-2.9854	-2.5312	-2.8292	-2.9688	-2.6146	-2.8312	-2.8854	-2.6167	-3.1042	-2.7396	-2.7313	-2.7	-2.8208	148.834	-47.164	84.339	157.020	126.782	287.196	-47.034	233.222	32.062	-43.830	267.406	289.207	-47.512	296.726	160.217	-44.759	0.0003839	0.0011235	0.00057616	674.3	2.51e-05	1.91e-06	1034.6	265.67	2.1025e-05	3.0366e-05	488.13	208.91	117.53	59.964	3.1575e-05	111.61	0.029501	0.039517	0.010769	963.27	0.0003989	0.00043569	1279.6	342.94	0.00041596	0.00043936	628.2	253.02	197.81	74.066	0.00043764	130.13	114.858	155.615	27.637	-37.128	61.441	-45.043	-37.816	-33.889	12.737	211.246	-34.834	-31.908	-31.316	-27.971	133.147	-28.961	-8191	255	
21896.748	1	1	0	0	0.22403	0.1419	0.095012	0.3942	0.23182	0.19072	0.3464	0.21557	0.23439	0.21363	0.1424	0.25477	0.25022	0.22504	0.20447	0.18782	-2.3458	-2.625	-2.55	-2.7021	-2.7146	-2.6188	-3.1208	-2.7479	-2.6292	-2.825	-2.6083	-2.9062	-2.6979	-2.7333	-2.9375	-2.875	138.414	235.498	58.992	266.854	-23.795	74.374	244.378	276.062	101.384	82.781	272.185	265.450	247.927	284.393	189.308	239.486	0.00055109	0.0015807	0.0003631	674.06	1.4549e-05	2.1471e-05	1041.5	265.96	1.2834e-05	2.3681e-05	490.86	208.38	117.77	60.034	1.7476e-05	111.64	0.029442	0.040678	0.010875	963.72	0.00040944	0.00043859	1287.3	344.56	0.0004139	0.00045129	630.72	252.81	199.5	74.065	0.00044493	130.39	105.919	40.500	-16.766	-37.513	185.030	125.258	-37.850	-33.928	111.860	260.806	-34.851	-32.086	-31.349	-27.786	157.872	-28.944	-8191	255	
21896.820	1	1	0	0	0.22117	0.018907	0.092772	0.037579	0.1497	0.20154	0.33802	0.16117	0.089378	0.40806	0.12659	0.30772	0.11152	0.1053	0.042792	0.52007	-2.3896	-2.6896	-2.3333	-3.0333	-2.5792	-2.5167	-3.2417	-2.9458	-2.7271	-2.8854	-2.6125	-3.0062	-2.9208	-2.6688	-2.6937	-2.8688	222.521	185.034	-5.263	98.260	-51.358	209.043	251.657	-19.712	106.163	22.034	284.716	-50.885	-35.540	213.204	77.572	220.846	0.00019878	0.00082931	7.6548e-05	675.15	1.4899e-06	9.0206e-06	1040.1	266.79	1.5106e-05	6.6654e-06	491.38	209.66	118.55	60.233	4.0384e-05	112	0.029263	0.041331	0.010891	963.17	0.00041354	0.00044004	1289.4	343.68	0.00041127	0.00045568	629.96	252.84	201.07	73.968	0.00043832	130.87	179.958	158.542	236.466	-37.322	38.644	32.076	-37.858	-33.818	34.521	55.678	-34.984	-31.841	-30.839	-28.025	-26.580	-29.234	-8191	255	
21896.918	1	1	0	0	0.12951	0.209	0.064529	0.25957	0.22097	0.16246	0.08234	0.1614	0.42265	0.27699	0.28867	0.076184	0.22515	0.091425	0.15574	0.20032	-2.1042	-2.7354	-2.4396	-2.8729	-2.6854	-2.4729	-3.0896	-2.7146	-2.7167	-2.8063	-2.6521	-2.925	-2.7917	-2.6396	-2.8187	-2.8604	14.433	274.400	-3.579	305.848	251.693	57.978	230.984	168.239	117.738	278.967	17.495	296.256	128.629	242.713	255.783	105.827	0.00072816	0.0014592	0.00046814	670.32	5.3668e-06	2.0567e-05	1036	265.92	1.5796e-05	8.5149e-06	492.73	209.12	117.7	60.046	4.0028e-05	111.45	0.028808	0.040896	0.010752	953.33	0.00041416	0.00042953	1281.7	342.57	0.00040455	0.00045342	627.41	251	200.57	73.733	0.00043033	130.29	85.946	96.815	60.473	-37.285	275.641	269.538	-37.612	-34.003	21.349	108.658	-34.802	-31.589	-30.885	-27.857	96.993	-29.246	-8191	255	
21897.014	1	1	0	0	0.1377	0.070981	0.085731	0.25335	0.050759	0.2855	0.10635	0.12014	0.093458	0.10016	0.065061	0.094687	0.17602	0.18827	0.083044	0.1162	-2.1708	-2.7687	-2.5958	-2.7417	-2.9104	-2.4542	-2.9938	-2.7458	-2.6375	-2.9062	-2.7375	-2.8104	-2.8292	-2.5792	-2.7417	-2.9583	131.245	253.694	274.534	-0.893	9.386	103.067	235.385	268.212	54.756	-21.071	97.354	251.873	67.424	-47.956	-31.812	178.919	0.00066049	0.0010175	0.00026635	670.02	5.7854e-06	1.5652e-05	1030.8	264.44	1.4942e-05	3.1842e-05	487.58	206.92	118.12	59.695	2.7169e-05	110.87	0.028624	0.040828	0.010667	947.58	0.00042122	0.00042514	1275.9	342.89	0.00040058	0.00045509	625.23	249.79	201.63	73.422	0.00042549	130.27	112.312	184.591	66.197	-37.320	39.567	267.070	-37.932	-33.941	125.794	178.433	-34.985	-31.806	-31.392	-27.749	116.529	-28.829	-8191	255	
21897.109	1	1	0	0	0.055779	0.10478	0.12446	0.17838	0.08217	0.14812	0.29155	0.23279	0.013944	0.19331	0.14064	0.036916	0.068913	0.14753	0.082045	0.25781	-2.0521	-2.725	-2.5687	-2.4854	-2.8229	-2.7062	-3.0104	-2.7167	-2.6896	-2.9688	-2.7104	-2.8354	-2.8167	-2.6896	-2.7812	-2.8688	215.516	276.683	135.039	-34.776	114.918	143.309	279.356	200.404	204.000	243.517	176.511	-5.198	4.321	9.573	234.301	222.519	0.00057566	0.00048286	0.00030902	678.57	1.6532e-05	1.1579e-05	1037.1	266.42	8.0691e-06	1.4158e-05	489.91	209.45	117.95	59.721	1.0085e-05	111.34	0.028503	0.040912	0.010687	947.89	0.00042351	0.000422	1274.2	345.22	0.00039625	0.00045293	626.15	250.97	202.31	73.366	0.00042244	130.94	101.937	-45.178	88.406	-37.236	-36.489	56.205	-38.026	-34.090	200.351	119.147	-35.053	-31.910	-31.084	-28.255	48.646	-28.985	-8191	255	
21897.230	1	1	0	0	0.225	0.10107	0.17532	0.10342	0.2554	0.33709	0.2688	0.1047	0.31875	0.087045	0.30311	0.22948	0.21145	0.06326	0.18302	0.42817	-2.0354	-2.9437	-2.5479	-2.5563	-2.9708	-2.5458	-2.8563	-2.8375	-2.3625	-2.8563	-2.6583	-2.7271	-2.8542	-2.6458	-2.7438	-3.0292	-3.979	113.258	45.396	283.354	-2.390	144.067	240.360	274.509	149.054	12.379	253.740	214.116	224.924	-40.708	38.212	252.367	0.00027008	0.0016749	0.00058158	676.24	1.0381e-05	3.7122e-05	1037.6	265.5	1.1779e-05	2.2371e-05	488.72	209.36	117.99	60.215	9.1498e-06	112.13	0.028035	0.040474	0.010742	943.62	0.00042333	0.00041832	1270.5	345.67	0.0003929	0.0004444	627.58	250.92	202.54	73.71	0.00041521	131.74	123.945	16.989	78.329	-36.902	179.345	110.901	-38.088	-34.120	302.419	23.995	-35.109	-31.901	-31.376	-27.922	-43.731	-29.132	-8191	255	
21897.324	1	1	0	0	0.2891	0.22859	0.11886	0.26295	0.18274	0.16503	0.15085	0.13302	0.17014	0.22723	0.13843	0.10331	0.12518	0.22336	0.10117	0.15451	-2.0625	-2.8729	-2.6375	-2.4938	-2.8583	-2.6562	-2.8438	-2.8958	-2.6604	-2.8563	-2.8333	-2.6813	-3.0417	-2.7896	-2.9125	-3.2438	14.384	2.744	-2.148	1.429	37.865	96.517	140.627	276.225	172.979	135.330	226.901	217.482	189.956	169.837	-40.502	245.571	0.00051327	0.0012338	0.00032245	671.87	1.1197e-05	1.4184e-05	1036	264.81	2.648e-05	3.5175e-06	488.26	208.14	118.48	59.732	2.8365e-05	110.87	0.0278	0.039699	0.010866	940.58	0.00042606	0.00042082	1272.5	346.19	0.00039362	0.00044435	630.16	249.19	202.16	73.414	0.00041554	130.86	141.511	270.790	-26.352	-37.378	54.646	-16.017	-37.902	-34.045	143.963	-13.489	-35.045	-32.081	-31.638	-27.817	8.772	-29.089	-8191	255	
21897.422	1	1	0	0	0.098918	0.14225	0.17966	0.17084	0.15468	0.07556	0.2745	0.15008	0.15847	0.29544	0.31592	0.22681	0.20221	0.088693	0.039296	0.23339	-2.0042	-2.7792	-2.7396	-2.5521	-2.8604	-2.7938	-2.8646	-3.1146	-2.5438	-2.9208	-2.9667	-2.7521	-3.0354	-2.9562	-2.4979	-3.2271	-44.091	-29.732	299.942	220.891	299.500	9.077	-30.171	130.584	47.924	48.836	236.520	240.197	0.740	275.973	20.331	242.828	0.00039547	0.0025147	0.00029835	668.85	1.6846e-05	6.5891e-06	1042.1	265.36	4.7471e-06	1.7396e-05	489.37	208.5	117.11	59.621	2.3596e-05	111.43	0.027924	0.039526	0.011102	939.01	0.00042365	0.00042414	1271.7	346.75	0.00039186	0.00043969	632.9	249	201.01	73.608	0.00041551	131.2	135.543	-2.835	5.617	-37.205	122.493	142.702	-37.901	-34.121	108.125	154.163	-35.359	-32.018	-31.422	-27.874	146.952	-28.991	-8191	255	
21897.518	1	1	0	0	0.004941	0.063395	0.33442	0.067522	0.08	0.12559	0.23012	0.1891	0.22141	0.44098	0.27378	0.2257	0.061595	0.16912	0.024843	0.13567	-2.1271	-2.6083	-2.675	-2.6521	-2.6875	-2.7229	-2.7125	-2.9458	-2.5229	-2.8146	-3.0104	-2.7354	-2.8812	-2.9917	-2.5	-3.1188	170.316	9.256	148.790	-50.527	179.778	257.348	239.188	-20.475	7.626	44.368	280.282	241.776	-38.846	228.920	88.565	273.367	0.00073313	0.00072477	0.00020742	678.8	1.5397e-05	1.8842e-05	1037.3	265.56	2.5133e-05	1.3624e-05	487.72	207	115.98	59.983	2.1049e-05	111.1	0.028054	0.039813	0.011389	945.08	0.00042499	0.00043445	1273.6	348.16	0.00039746	0.00044238	633.73	248.28	200.04	73.819	0.00041123	130.99	115.040	92.537	117.825	-37.418	236.491	230.299	-38.123	-34.159	199.046	67.755	-35.126	-32.005	-30.840	-28.117	121.060	-29.396	-8191	255	
21897.613	1	1	0	0	0.24536	0.15793	0.12935	0.30599	0.23053	0.082025	0.085251	0.1995	0.090489	0.11188	0.22398	0.19821	0.12629	0.12668	0.27774	0.14715	-2.0854	-2.6667	-2.9833	-2.6833	-2.75	-2.7625	-2.7062	-2.9125	-2.6979	-2.6833	-2.8146	-2.5771	-2.7854	-2.9813	-2.475	-3.0292	214.221	19.831	207.945	253.254	173.873	34.363	26.277	-0.273	302.891	-1.813	-48.432	265.353	256.056	223.150	39.868	268.118	0.00079828	0.00058505	0.00051796	671.55	1.8164e-06	7.4558e-06	1041.2	266.23	4.0963e-06	1.9168e-05	487.73	208.14	117.65	59.734	1.1344e-05	111.7	0.028043	0.039697	0.011381	938.24	0.00041884	0.00044001	1268.7	346.73	0.00039674	0.00043555	634.66	248.37	199.95	74.087	0.00040635	131.16	130.263	75.854	12.258	-37.358	92.204	-7.739	-37.697	-34.206	181.006	242.415	-34.731	-31.921	-31.286	-28.143	102.781	-29.126	-8191	255	
21897.709	1	1	0	0	0.082992	0.18116	0.063306	0.17868	0.11981	0.10843	0.12016	0.22001	0.10584	0.10254	0.26431	0.16898	0.2275	0.064426	0.11284	0.37567	-2.1542	-2.6604	-2.9375	-2.5083	-2.8854	-2.7875	-2.8521	-3.1271	-2.7167	-2.6896	-3.0875	-2.8125	-2.875	-2.9125	-2.4896	-3.0708	258.670	145.703	223.420	241.233	273.642	186.679	10.571	233.506	27.677	-24.270	210.315	11.982	-12.256	296.896	294.848	258.320	0.00035973	0.00084789	0.00043095	677.8	1.6989e-05	1.5088e-05	1042.6	266.28	1.6615e-05	2.7001e-05	491.75	207.55	117.71	59.523	6.5515e-06	110.48	0.028119	0.039202	0.01142	941.42	0.00041578	0.00044692	1270.3	347.84	0.00040471	0.00043404	637.73	248.42	200.17	74.02	0.0004065	130.08	123.514	75.452	303.892	-37.398	42.459	151.752	-38.185	-34.305	187.268	40.482	-34.819	-32.027	-31.145	-28.038	-22.075	-29.050	-8191	255	
21897.830	1	1	0	0	0.089454	0.11133	0.23182	0.21034	0.12486	0.1206	0.12969	0.22799	0.10136	0.2616	0.11733	0.062163	0.11235	0.46358	0.11084	0.18394	-2.2979	-2.6417	-2.8729	-2.9417	-2.8396	-2.7604	-2.6354	-3.0896	-2.6958	-2.6771	-2.9437	-2.5563	-2.9417	-3.0458	-2.4125	-3.0417	209.911	120.494	286.684	290.388	108.432	267.722	297.397	203.464	173.325	273.833	263.206	270.296	232.892	269.833	52.995	250.607	0.0004373	0.001672	0.00062444	680.34	7.2133e-06	2.2619e-05	1047.7	265.78	2.042e-05	2.2377e-05	489.49	207.55	117.96	59.615	2.4195e-05	111.13	0.028745	0.03898	0.011443	943.66	0.00041444	0.00044929	1268.5	346.09	0.00040975	0.00042468	636.38	248.55	200.06	74.263	0.00040259	130.6	109.094	275.752	-38.925	-37.380	220.373	147.432	-37.855	-34.069	138.362	131.511	-35.151	-31.975	-31.285	-27.968	-27.709	-29.284	-8191	255	
21897.926	1	1	0	0	0.048909	0.073949	0.14683	0.10896	0.11088	0.12653	0.31203	0.10094	0.21895	0.089453	0.22396	0.21904	0.16404	0.17032	0.32435	0.10421	-2.1771	-2.4375	-2.8729	-2.6354	-2.65	-2.875	-2.6958	-2.8375	-2.6354	-2.7521	-2.9625	-2.7271	-2.5521	-2.8958	-2.4813	-2.9042	223.386	208.080	192.669	-19.547	114.020	59.091	193.229	236.960	116.891	25.635	243.369	260.798	67.216	269.571	95.896	93.279	0.0010036	0.00068443	0.00030113	682.81	1.9096e-05	2.2807e-05	1047.2	266.58	4.9872e-06	2.7042e-05	490.29	209.01	117.52	59.456	3.7368e-05	110.9	0.029193	0.038643	0.011373	949.84	0.00041409	0.00045536	1275.8	348.45	0.00042077	0.0004292	638.41	250.3	200.11	74.226	0.00040712	130.74	121.915	297.472	220.106	-37.371	-51.643	123.355	-37.851	-34.279	72.664	91.247	-34.980	-31.836	-31.776	-28.008	160.337	-28.920	-8191	255	
21898.021	1	1	0	0	0.21859	0.21697	0.065526	0.15597	0.23457	0.13965	0.11967	0.31437	0.073285	0.25512	0.23212	0.054201	0.30845	0.21184	0.19111	0.25006	-2.25	-2.6188	-2.8146	-2.8646	-2.5771	-2.8729	-2.6729	-2.5708	-2.8854	-2.4792	-3.0458	-2.9104	-2.6271	-3.0583	-2.5875	-2.7208	-24.907	28.122	143.615	210.438	119.425	186.194	261.718	256.539	142.831	256.239	260.180	257.292	183.950	138.675	179.047	273.273	0.00083821	0.0032029	0.00063812	687.43	2.8674e-05	1.8422e-05	1055.4	268.45	2.6069e-05	8.0821e-06	493.71	209.88	117.77	60.016	1.3107e-05	111.47	0.029909	0.038846	0.011442	961.03	0.00041317	0.00046108	1279.9	349.33	0.00042505	0.00042818	641.22	253.09	200.02	74.636	0.00041416	131.63	119.421	-17.957	73.415	-37.551	57.106	90.842	-38.033	-34.207	39.029	145.231	-34.966	-31.995	-31.708	-27.973	213.112	-29.216	-8191	255	
21898.117	1	1	0	0	0.086277	0.097381	0.23165	0.021562	0.14365	0.35277	0.31009	0.22581	0.30641	0.079898	0.14791	0.14623	0.0071995	0.34318	0.038234	0.39789	-2.3333	-2.5417	-2.9021	-2.8729	-2.4813	-2.9917	-2.6583	-2.8875	-2.7958	-2.6167	-2.9854	-2.9771	-2.5125	-3.0458	-2.625	-2.8271	188.520	293.437	279.815	263.803	190.034	114.005	242.581	269.042	64.531	264.703	189.197	4.025	68.697	-38.549	10.951	298.968	0.00044245	0.0018392	0.00041185	689.8	2.2128e-05	8.2515e-06	1058.9	269.46	8.5867e-06	2.1534e-05	495.5	210.77	118.2	59.715	2.0493e-05	111.66	0.030498	0.039037	0.011568	973.99	0.00041591	0.00046572	1294.5	352.95	0.00043441	0.00043222	644.67	254.29	201	74.529	0.00042472	131.05	105.542	4.241	-31.179	-37.319	215.839	66.095	-37.971	-34.175	41.245	13.046	-35.203	-31.983	-31.945	-27.993	202.888	-29.068	-8191	255	
#DATA ENDS
