BOXY.EXE: ISS Imagent and Oximeter Data Acquisition Program Version 0.80
Ascii Record File

#ACQ INFORMATION
2  Detector Channels 
16  External MUX Channels 
1  Auxiliary Channels 
5000  Waveform (CCF) Frequency (Hz)
1  Waveforms Skipped 
30  Waveforms Averaged 
1  Cycles Averaged 
16  Acquisitions per Waveform 
10.0806  Updata Rate (Hz) 

#FILE INFORMATION
TRUE -- External MUX Channel results are PARSED.
FALSE -- AC DC and Phase are NOT grouped.
TRUE -- Companion Program Settings File CREATED.
FALSE -- AC data not excluded
FALSE -- DC data not excluded
FALSE -- Phase data not excluded
FALSE -- Auxillary Chn. data not excluded
Tab delimiters

#CALIBRATION STATE
TRUE -- Waveform Calibration Values APPLIED.


#AUX CALIBRATION VALUES
Val Type	aux-1	

Term	1.0000e+00	
Factor	0.0000e+00	


#WF CALIBRATION VALUES
A = Detector Channel
Val Type	A-AC1	A-AC2	A-AC3	A-AC4	A-AC5	A-AC6	A-AC7	A-AC8	A-AC9	A-AC10	A-AC11	A-AC12	A-AC13	A-AC14	A-AC15	A-AC16	A-DC1	A-DC2	A-DC3	A-DC4	A-DC5	A-DC6	A-DC7	A-DC8	A-DC9	A-DC10	A-DC11	A-DC12	A-DC13	A-DC14	A-DC15	A-DC16	A-Ph1	A-Ph2	A-Ph3	A-Ph4	A-Ph5	A-Ph6	A-Ph7	A-Ph8	A-Ph9	A-Ph10	A-Ph11	A-Ph12	A-Ph13	A-Ph14	A-Ph15	A-Ph16	

Term	0.00000e+00	0.00000e+00	0.00000e+00	0.00000e+00	0.00000e+00	0.00000e+00	0.00000e+00	0.00000e+00	0.00000e+00	0.00000e+00	0.00000e+00	0.00000e+00	0.00000e+00	0.00000e+00	0.00000e+00	0.00000e+00	0.00000e+00	0.00000e+00	0.00000e+00	0.00000e+00	0.00000e+00	0.00000e+00	0.00000e+00	0.00000e+00	0.00000e+00	0.00000e+00	0.00000e+00	0.00000e+00	0.00000e+00	0.00000e+00	0.00000e+00	0.00000e+00	0.00000e+00	0.00000e+00	0.00000e+00	0.00000e+00	0.00000e+00	0.00000e+00	0.00000e+00	0.00000e+00	0.00000e+00	0.00000e+00	0.00000e+00	0.00000e+00	0.00000e+00	0.00000e+00	0.00000e+00	0.00000e+00	
Factor	1.00000e+00	1.00000e+00	1.00000e+00	1.00000e+00	1.00000e+00	1.00000e+00	1.00000e+00	1.00000e+00	1.00000e+00	1.00000e+00	1.00000e+00	1.00000e+00	1.00000e+00	1.00000e+00	1.00000e+00	1.00000e+00	1.00000e+00	1.00000e+00	1.00000e+00	1.00000e+00	1.00000e+00	1.00000e+00	1.00000e+00	1.00000e+00	1.00000e+00	1.00000e+00	1.00000e+00	1.00000e+00	1.00000e+00	1.00000e+00	1.00000e+00	1.00000e+00	X	X	X	X	X	X	X	X	X	X	X	X	X	X	X	X	

B = Detector Channel
Val Type	B-AC1	B-AC2	B-AC3	B-AC4	B-AC5	B-AC6	B-AC7	B-AC8	B-AC9	B-AC10	B-AC11	B-AC12	B-AC13	B-AC14	B-AC15	B-AC16	B-DC1	B-DC2	B-DC3	B-DC4	B-DC5	B-DC6	B-DC7	B-DC8	B-DC9	B-DC10	B-DC11	B-DC12	B-DC13	B-DC14	B-DC15	B-DC16	B-Ph1	B-Ph2	B-Ph3	B-Ph4	B-Ph5	B-Ph6	B-Ph7	B-Ph8	B-Ph9	B-Ph10	B-Ph11	B-Ph12	B-Ph13	B-Ph14	B-Ph15	B-Ph16	

Term	0.00000e+00	0.00000e+00	0.00000e+00	0.00000e+00	0.00000e+00	0.00000e+00	0.00000e+00	0.00000e+00	0.00000e+00	0.00000e+00	0.00000e+00	0.00000e+00	0.00000e+00	0.00000e+00	0.00000e+00	0.00000e+00	0.00000e+00	0.00000e+00	0.00000e+00	0.00000e+00	0.00000e+00	0.00000e+00	0.00000e+00	0.00000e+00	0.00000e+00	0.00000e+00	0.00000e+00	0.00000e+00	0.00000e+00	0.00000e+00	0.00000e+00	0.00000e+00	-1.70999e+02	-1.26624e+02	-1.31946e+02	-1.81681e+02	-8.38430e+01	-6.15144e+01	-1.55768e+02	-1.62015e+02	-8.17298e+01	-6.09818e+01	-1.73366e+02	-1.70201e+02	-1.85495e+02	-1.76578e+02	-7.50407e+01	-1.48946e+02	
Factor	2.98320e-05	1.70198e-04	4.81572e-05	1.97322e-01	1.68102e-06	1.85928e-06	1.81490e-01	5.63415e-02	1.68352e-06	1.92753e-06	1.03880e-01	3.00027e-02	5.63894e-02	9.68439e-03	1.64368e-06	1.34226e-02	1.04390e-05	1.42882e-05	3.99355e-06	1.02381e-01	1.49160e-07	1.58564e-07	8.84142e-02	2.93229e-02	1.48249e-07	1.58193e-07	5.25074e-02	1.52244e-02	2.95252e-02	5.08567e-03	1.51927e-07	6.84643e-03	X	X	X	X	X	X	X	X	X	X	X	X	X	X	X	X	



#DISTANCE SETTINGS
A = Detector Channel
A-1	A-2	A-3	A-4	A-5	A-6	A-7	A-8	A-9	A-10	A-11	A-12	A-13	A-14	A-15	A-16	

2.5000e+00	3.0000e+00	2.5000e+00	3.0000e+00	2.0000e+00	3.0000e+00	1.5000e+00	3.0000e+00	3.0000e+00	3.0000e+00	3.0000e+00	3.0000e+00	3.0000e+00	3.0000e+00	1.5000e+00	3.0000e+00	

B = Detector Channel
B-1	B-2	B-3	B-4	B-5	B-6	B-7	B-8	B-9	B-10	B-11	B-12	B-13	B-14	B-15	B-16	

1.0000e+01	1.0000e+01	1.0000e+01	1.4400e+00	1.0000e+01	1.0000e+01	1.5100e+00	1.9400e+00	1.0000e+01	1.0000e+01	1.9900e+00	2.4900e+00	2.4100e+00	2.9000e+00	1.0000e+01	2.9800e+00	




#DATA BEGINS
time	group	step	mark	flag	A-AC1	A-AC2	A-AC3	A-AC4	A-AC5	A-AC6	A-AC7	A-AC8	A-AC9	A-AC10	A-AC11	A-AC12	A-AC13	A-AC14	A-AC15	A-AC16	A-DC1	A-DC2	A-DC3	A-DC4	A-DC5	A-DC6	A-DC7	A-DC8	A-DC9	A-DC10	A-DC11	A-DC12	A-DC13	A-DC14	A-DC15	A-DC16	A-Ph1	A-Ph2	A-Ph3	A-Ph4	A-Ph5	A-Ph6	A-Ph7	A-Ph8	A-Ph9	A-Ph10	A-Ph11	A-Ph12	A-Ph13	A-Ph14	A-Ph15	A-Ph16	B-AC1	B-AC2	B-AC3	B-AC4	B-AC5	B-AC6	B-AC7	B-AC8	B-AC9	B-AC10	B-AC11	B-AC12	B-AC13	B-AC14	B-AC15	B-AC16	B-DC1	B-DC2	B-DC3	B-DC4	B-DC5	B-DC6	B-DC7	B-DC8	B-DC9	B-DC10	B-DC11	B-DC12	B-DC13	B-DC14	B-DC15	B-DC16	B-Ph1	B-Ph2	B-Ph3	B-Ph4	B-Ph5	B-Ph6	B-Ph7	B-Ph8	B-Ph9	B-Ph10	B-Ph11	B-Ph12	B-Ph13	B-Ph14	B-Ph15	B-Ph16	aux-1	digaux	

21715.324	1	1	0	768	0.14252	0.26018	0.12941	0.029143	0.065379	0.078037	0.27914	0.21375	0.19336	0.23577	0.079058	0.1416	0.30821	0.18732	0.10557	0.31388	-2.1875	-2.7104	-2.9813	-2.6792	-3.0667	-3.0125	-2.7604	-2.9833	-2.7938	-2.8729	-3.0979	-2.8417	-2.9625	-2.8937	-2.6292	-3.0375	188.887	302.653	-44.383	301.400	283.811	4.946	232.939	42.770	157.435	-2.938	-21.420	215.654	303.903	275.476	119.888	283.891	0.00052213	0.00090765	0.00024713	528.65	8.106e-06	1.0498e-05	794.1	194.02	8.9586e-06	1.1882e-05	361.03	172.61	90.886	43.678	3.5242e-06	84.869	0.0047647	0.0064943	0.001975	561.93	7.4596e-05	7.2857e-05	817.05	206.81	6.5473e-05	7.0653e-05	384.5	178.56	105.06	45.836	6.3603e-05	88.288	130.642	127.628	20.664	-34.983	58.352	129.448	-35.036	-29.454	138.567	60.652	-30.924	-28.175	-26.533	-22.848	49.699	-24.357	-8191	255	
21715.420	1	1	0	0	0.0066952	0.19268	0.054327	0.19176	0.082392	0.079853	0.13094	0.53436	0.24303	0.02493	0.2031	0.074455	0.057226	0.18134	0.05087	0.49706	-2.3667	-2.7083	-2.9417	-2.5542	-2.8542	-2.8125	-2.6646	-2.9792	-2.8708	-2.5208	-3.1667	-2.8104	-2.85	-2.9917	-2.7167	-2.95	78.256	211.326	245.637	154.869	-20.317	226.660	129.956	259.054	109.117	209.387	-3.360	10.266	88.848	-34.645	159.784	240.629	0.00038094	0.00035681	0.00021856	527.16	1.1755e-05	1.467e-06	788.57	193.54	2.3865e-06	1.0128e-05	361.19	173.79	90.324	43.505	8.968e-06	84.822	0.0047667	0.0063011	0.0019957	560.54	7.1698e-05	7.5189e-05	813.02	205.9	6.5896e-05	6.8263e-05	384.56	179.03	104.26	45.846	6.2938e-05	88.184	114.115	37.092	60.691	-34.660	48.091	136.228	-35.002	-29.524	190.520	135.323	-31.094	-27.514	-26.765	-23.017	89.316	-24.419	-8191	255	
21715.518	1	1	0	0	0.23575	0.1051	0.3587	0.27833	0.16976	0.062458	0.016103	0.021963	0.24671	0.051233	0.051002	0.20736	0.071027	0.23558	0.1633	0.037977	-2.2479	-2.7771	-2.9292	-2.5354	-2.9896	-2.8958	-2.7646	-2.9562	-2.6021	-2.7854	-3.0292	-3.0396	-2.7729	-3.0875	-2.7417	-3.0833	245.236	229.115	-22.800	-25.667	104.779	-45.009	293.334	79.494	243.141	249.720	270.543	206.220	277.282	175.842	306.407	164.900	0.00045703	0.00058186	0.00037904	528.46	4.2558e-06	5.0797e-06	787.32	191.58	3.8925e-06	2.4421e-06	360.2	171.32	89.164	42.872	6.3578e-06	83.797	0.004854	0.006118	0.0020616	560.66	6.9843e-05	7.6769e-05	813.1	204.52	6.8173e-05	6.6992e-05	382.96	177.18	102.93	45.284	6.2735e-05	87.007	115.460	-8.972	19.898	-34.739	109.512	133.642	-34.690	-29.417	36.700	268.019	-30.710	-28.158	-26.283	-23.350	197.189	-24.559	-8191	255	
21715.613	1	1	0	0	0.18868	0.11383	0.13117	0.17061	0.28559	0.20163	0.30766	0.2569	0.13336	0.20621	0.073598	0.066988	0.23241	0.17687	0.082833	0.022911	-2.4396	-2.7854	-3.0458	-2.6333	-2.7938	-3.0583	-2.8958	-2.9292	-2.8417	-2.7687	-2.9437	-2.8521	-2.5271	-2.9646	-2.6042	-2.9396	20.363	281.996	3.020	20.417	270.589	6.336	-40.149	168.754	158.623	-23.460	295.848	37.556	307.978	278.781	175.397	94.612	0.00051866	0.0007032	0.00013427	524.8	1.3047e-05	1.1777e-05	784.26	191.35	5.6644e-06	1.1484e-05	359.37	170.92	89.215	43.177	4.9979e-06	84.232	0.0048868	0.0059363	0.0020476	557.07	6.5912e-05	7.8522e-05	808.85	202.72	6.8678e-05	6.5611e-05	381.04	177.14	101.92	45.403	6.368e-05	87.405	113.150	41.622	42.515	-34.871	28.858	74.311	-34.816	-29.770	295.736	113.600	-30.857	-28.153	-26.399	-23.404	14.592	-24.433	-8191	255	
21715.709	1	1	0	0	0.18203	0.072915	0.095931	0.47208	0.34661	0.22436	0.17259	0.12357	0.16461	0.20373	0.048259	0.05884	0.18779	0.18438	0.23335	0.36718	-2.4667	-2.5396	-2.8125	-2.7771	-2.6521	-2.9521	-2.6937	-2.7687	-2.8396	-2.6521	-2.9458	-2.8146	-2.5729	-2.9854	-2.6562	-2.8708	162.106	3.817	191.754	305.550	114.501	14.255	201.177	269.700	155.969	32.534	-32.069	233.976	101.528	-11.455	251.938	227.299	0.00050423	0.00041357	0.00022961	521.7	8.3729e-06	7.691e-06	786.95	192.42	1.4724e-05	1.5801e-05	362.89	173.63	90.264	43.782	4.6074e-06	85.638	0.0050729	0.0058535	0.0020045	557.33	6.3868e-05	7.9092e-05	811.89	203.64	7.0153e-05	6.4588e-05	383.37	179.47	102.48	46.114	6.4687e-05	88.56	119.929	17.893	34.672	-34.687	68.790	70.249	-34.711	-29.499	132.951	96.353	-30.915	-28.206	-26.696	-23.181	-2.197	-24.355	-8191	255	
21715.805	1	1	0	0	0.12999	0.018003	0.27508	0.14866	0.066553	0.15101	0.26752	0.1389	0.13633	0.1274	0.13229	0.24447	0.13578	0.21244	0.27686	0.10076	-2.5083	-2.6917	-2.7979	-2.8771	-2.6125	-2.9979	-2.7542	-2.7687	-2.8104	-2.6083	-2.7792	-2.9792	-2.7062	-3.0354	-2.7521	-2.8417	-1.924	162.988	171.868	179.953	105.269	6.050	255.371	98.725	52.117	-31.911	-2.274	262.757	-34.983	254.623	-30.866	254.145	0.00045388	0.00071158	0.00029694	527.29	9.7331e-06	5.8787e-06	794.94	194.12	7.4572e-06	7.4047e-06	367.61	175.62	90.878	44.667	9.2698e-06	87.234	0.005211	0.0058083	0.0019731	563.18	6.2237e-05	8.0433e-05	819.04	205.31	7.2003e-05	6.4426e-05	388.41	182.17	103.55	46.925	6.5541e-05	90.067	118.794	16.201	-18.065	-34.946	38.173	146.294	-34.723	-29.438	110.063	111.385	-31.028	-28.015	-26.794	-23.089	186.149	-24.205	-8191	255	
21715.926	1	1	0	0	0.06072	0.19488	0.098984	0.23285	0.46118	0.18842	0.44962	0.094568	0.1011	0.17806	0.075399	0.11173	0.068992	0.20644	0.10467	0.33059	-2.5417	-2.7083	-2.8917	-2.8063	-2.6562	-2.9229	-2.7146	-2.8542	-2.9125	-2.7271	-2.8125	-3.0125	-2.5438	-2.9375	-2.7792	-2.9188	-33.761	225.441	165.380	184.960	-45.317	45.192	221.770	232.494	199.968	269.314	-22.176	277.679	188.629	282.298	274.067	269.603	0.00033903	0.00068508	0.00029446	534.45	6.876e-06	1.2415e-05	801.44	198.14	5.7528e-06	5.6839e-06	372.98	179.08	93.253	45.35	4.5729e-06	88.729	0.0053567	0.0059326	0.0019217	569.79	6.1398e-05	8.015e-05	826.72	207.75	7.3921e-05	6.6222e-05	391.8	184.99	105.27	47.569	6.6234e-05	91.186	108.247	46.265	40.439	-34.376	129.469	40.599	-34.978	-29.644	143.702	210.676	-31.150	-27.968	-26.878	-23.090	79.678	-24.513	-8191	255	
21716.021	1	1	0	0	0.10514	0.13919	0.25695	0.13133	0.089494	0.015476	0.13597	0.33787	0.19342	0.28216	0.12576	0.17764	0.20686	0.13011	0.06669	0.081576	-2.4833	-2.6417	-2.8125	-2.9229	-2.5146	-2.8292	-2.9479	-2.7438	-3.0812	-2.5479	-3.0396	-3.1125	-2.6375	-3.0938	-2.7687	-2.8292	21.248	-6.028	187.041	-45.265	248.529	14.196	307.272	253.029	-35.819	89.507	-18.106	215.168	-18.564	200.389	230.762	-34.108	0.00043501	0.0014029	6.7757e-06	534.74	1.1168e-05	1.1959e-05	800.55	198.89	7.3902e-06	1.3757e-05	374.11	180.31	94.404	45.723	4.081e-06	89.067	0.0053439	0.0058365	0.0018382	572.72	5.9685e-05	7.7298e-05	829.29	208.89	7.272e-05	6.5515e-05	391.91	186.74	106.02	48.007	6.6996e-05	91.716	124.197	40.874	174.923	-35.065	141.012	134.772	-34.802	-29.641	102.765	106.636	-30.915	-27.967	-27.070	-23.141	88.884	-24.496	-8191	255	
21716.117	1	1	0	0	0.21365	0.1205	0.15313	0.20332	0.23898	0.13956	0.070271	0.087448	0.21175	0.12692	0.071351	0.1461	0.28511	0.12012	0.26393	0.1604	-2.575	-2.6792	-2.7646	-2.9729	-2.7188	-2.7833	-3.1063	-2.6188	-2.9521	-2.8271	-2.7271	-2.8708	-2.6521	-2.9833	-2.6979	-2.7188	204.309	106.361	19.453	145.662	264.709	-7.971	222.204	206.723	178.257	213.834	11.232	211.034	39.837	232.167	140.675	-7.493	0.00049944	0.0013822	0.00024787	538.36	3.1283e-06	1.0093e-05	814.09	201.8	9.1509e-06	1.6509e-05	376	182.58	95.849	46.578	1.1011e-05	90.184	0.0053892	0.0059266	0.0017595	576.2	6.0548e-05	7.6814e-05	835.07	211.05	7.4063e-05	6.6134e-05	394.35	188.99	107.73	48.775	6.8962e-05	92.575	117.090	54.422	12.348	-34.663	235.447	105.953	-34.945	-29.658	103.330	77.478	-31.286	-28.182	-26.807	-22.823	129.020	-24.382	-8191	255	
21716.215	1	1	0	0	0.22711	0.22242	0.18958	0.10788	0.12201	0.29884	0.30999	0.25613	0.22686	0.080903	0.26809	0.03418	0.14272	0.067471	0.15349	0.29148	-2.2292	-2.5708	-2.6417	-2.9417	-2.6229	-2.8104	-2.8271	-2.6667	-2.7833	-2.75	-2.6188	-2.9375	-2.7375	-2.8208	-2.7958	-2.7313	276.432	-30.845	302.958	226.126	168.496	115.680	275.883	294.110	211.670	289.899	-37.607	228.763	-12.947	251.311	-15.597	208.215	0.00049798	0.00023939	5.5701e-05	539.55	7.1259e-06	6.6103e-06	810.6	202.08	8.2249e-06	1.142e-05	375.81	181.89	95.732	46.119	1.0469e-05	88.986	0.0054237	0.0061191	0.0017142	579.23	6.1789e-05	7.5231e-05	835.78	211.06	7.356e-05	6.8271e-05	393.23	188.65	107.22	48.279	7.1604e-05	91.666	112.925	-13.226	47.166	-34.654	82.814	10.700	-34.875	-29.422	-43.580	55.109	-30.931	-28.044	-26.342	-23.328	98.331	-24.520	-8191	255	
21716.311	1	1	0	0	0.025128	0.15468	0.19915	0.20456	0.2741	0.064321	0.11922	0.20192	0.14891	0.19924	0.21177	0.057038	0.13628	0.18356	0.099834	0.16645	-2.2104	-2.8792	-2.6646	-2.925	-2.6583	-2.7542	-2.9417	-2.6875	-2.9417	-2.7625	-2.825	-3.0979	-2.7	-2.9042	-2.9417	-2.725	-35.437	7.193	37.701	299.111	-45.179	-4.293	-40.114	283.881	70.013	212.497	274.230	236.847	290.800	72.714	209.326	204.075	0.00040526	0.00052022	0.00011616	535.47	1.0039e-05	4.4513e-06	813.73	200.29	6.9982e-06	4.9043e-06	373.87	181.77	95.433	46.142	3.2744e-06	89.086	0.005351	0.0062259	0.0016834	578.79	6.2265e-05	7.1922e-05	836.87	209.61	7.186e-05	6.9512e-05	391.8	188.24	107.12	48.125	7.2439e-05	91.889	102.638	31.419	-6.606	-34.611	83.805	46.673	-35.168	-29.698	53.561	226.052	-30.961	-27.990	-26.671	-22.936	103.137	-24.269	-8191	255	
21716.404	1	1	0	0	0.20626	0.062176	0.30586	0.25236	0.11725	0.17059	0.1525	0.125	0.070115	0.22212	0.25215	0.28251	0.19448	0.11369	0.21774	0.31337	-2.2854	-2.8625	-2.5125	-2.9854	-2.7396	-2.9083	-2.9062	-2.6708	-2.8792	-2.7604	-2.7771	-3.0812	-2.6729	-2.7292	-2.9979	-2.8604	286.325	72.131	24.272	181.851	254.473	-36.954	205.574	-21.494	266.068	175.055	291.899	283.076	250.137	255.472	25.162	273.381	0.00035415	0.00019337	0.00041344	543.21	7.1223e-06	1.2942e-05	810.87	199.82	6.0575e-06	3.1957e-06	374.89	180.23	93.866	45.522	1.0753e-05	88.185	0.0051766	0.0064292	0.0016244	579.71	6.2475e-05	6.8334e-05	839.54	209.9	6.9645e-05	7.1172e-05	391.32	186.78	106.43	47.491	7.3124e-05	90.748	137.350	247.244	14.471	-34.520	40.900	72.020	-34.970	-29.714	171.835	92.572	-31.116	-28.361	-26.659	-23.082	94.375	-24.433	-8191	255	
21716.502	1	1	0	0	0.079668	0.0075719	0.10179	0.29276	0.11206	0.067007	0.13075	0.14591	0.18507	0.11194	0.21917	0.23809	0.13059	0.20843	0.21703	0.17317	-2.5958	-2.7646	-2.45	-2.9313	-2.5833	-2.8708	-3.0062	-2.6729	-2.9938	-2.8937	-2.6	-2.8583	-2.8125	-2.6604	-2.8667	-2.7354	52.612	110.857	290.113	41.853	275.355	189.643	242.380	278.281	-9.577	-31.539	233.830	226.485	214.836	288.940	220.292	285.534	0.00040955	0.00087976	0.00023693	534.48	1.1123e-05	6.3344e-06	800.46	196.3	1.1008e-05	7.9299e-06	370.98	177.61	93.305	45.141	3.0287e-06	87.849	0.0049194	0.0063692	0.0015591	573.71	6.2181e-05	6.4719e-05	831.59	206.81	6.6426e-05	7.1368e-05	385.78	184.16	105.45	47.103	7.2575e-05	90.209	106.195	23.679	75.739	-34.510	138.473	207.229	-34.935	-29.777	-10.898	113.416	-31.223	-27.820	-26.997	-23.450	194.952	-24.461	-8191	255	
21716.621	1	1	0	0	0.029827	0.12327	0.13446	0.060868	0.12072	0.21071	0.24754	0.26602	0.17626	0.039718	0.19846	0.10066	0.028933	0.1748	0.050067	0.31508	-2.2708	-2.8417	-2.5604	-3.0312	-2.6937	-2.5938	-2.9833	-2.7854	-2.8187	-3.1729	-2.7375	-2.8937	-2.8833	-2.6854	-2.9917	-2.8542	113.574	-38.793	48.933	224.491	72.992	269.644	253.937	183.398	263.371	-21.968	152.305	282.604	82.482	254.541	35.419	208.818	0.0005743	0.00071266	0.00025592	533.52	3.0202e-06	6.2522e-06	799.23	198.86	5.2494e-06	1.2722e-05	371.57	178.63	93.337	45.311	4.215e-06	88.182	0.0046779	0.0063937	0.0015316	569.21	6.2754e-05	6.0946e-05	827.98	207.01	6.265e-05	7.0909e-05	385.61	184.73	105.58	47.168	7.0239e-05	90.799	127.335	23.112	109.306	-34.409	49.685	-41.774	-35.000	-29.658	175.801	103.143	-30.831	-28.086	-26.114	-22.895	-32.679	-24.299	-8191	255	
21716.719	1	1	0	0	0.24308	0.30746	0.056193	0.33692	0.22343	0.017695	0.24211	0.20275	0.18867	0.18602	0.10542	0.19513	0.21769	0.36392	0.14639	0.12508	-2.2604	-2.8937	-2.4875	-2.8438	-2.8521	-2.6333	-3.1646	-2.7396	-2.6312	-2.9458	-2.6083	-3.0354	-2.8979	-2.7875	-2.8458	-2.9333	160.519	246.552	33.319	299.688	210.845	147.827	299.498	47.658	258.517	55.276	205.606	23.040	213.061	233.711	195.289	209.882	0.00030289	0.00095947	0.00032588	530.25	6.6827e-06	6.3286e-07	803.08	198.12	3.9199e-06	5.685e-06	374.26	181.45	95.31	46.224	1.3647e-05	90.209	0.0043886	0.006437	0.0014711	565.98	6.2656e-05	5.8026e-05	829.88	207.06	5.8435e-05	7.0169e-05	388.62	186.52	106.58	47.874	6.751e-05	92.615	109.587	47.899	30.435	-34.757	102.786	154.684	-34.921	-29.553	88.912	97.648	-30.865	-27.736	-26.580	-23.036	77.222	-24.527	-8191	255	
21716.814	1	1	0	0	0.16035	0.024546	0.051344	0.19824	0.13065	0.20931	0.10985	0.17588	0.32236	0.040494	0.16119	0.14889	0.12366	0.36857	0.10951	0.086441	-2.2562	-2.8896	-2.6833	-2.6646	-2.6917	-2.5354	-2.8729	-2.8583	-2.5729	-2.8333	-2.6667	-2.9083	-2.8063	-2.5521	-2.7687	-2.9458	17.320	241.047	6.745	133.924	101.197	152.656	270.122	250.542	267.369	139.813	279.185	238.157	182.080	299.830	169.782	214.245	0.00039223	0.00020249	0.00024727	535.86	4.0116e-06	1.1508e-05	808.52	198.97	9.359e-06	1.0498e-05	376.44	182.16	94.041	46.078	7.1931e-06	89.77	0.0041135	0.0063438	0.0014556	566.78	6.2725e-05	5.7088e-05	832.58	208.82	5.549e-05	7.055e-05	389.98	186.8	107.12	47.971	6.6466e-05	92.367	102.540	111.990	28.908	-34.494	11.910	110.468	-34.693	-29.520	95.597	189.897	-31.243	-27.926	-26.439	-22.830	55.792	-24.184	-8191	255	
21716.885	1	1	0	0	0.27172	0.15933	0.18386	0.21731	0.19814	0.029789	0.16807	0.37626	0.06568	0.17538	0.16667	0.38161	0.049198	0.39359	0.18586	0.26386	-2.1542	-2.8854	-2.6646	-2.6125	-2.8854	-2.4437	-2.825	-2.8812	-2.6125	-2.8812	-2.7229	-2.925	-2.8646	-2.6437	-2.7854	-2.9979	-12.961	112.332	51.241	240.957	133.991	246.708	288.468	301.190	149.552	-15.886	-28.263	244.033	197.146	230.301	86.497	311.021	0.00044297	0.00093863	5.0403e-05	533.11	6.7486e-06	1.9509e-06	801.14	196	6.2749e-06	5.9385e-06	367.39	176.72	91.906	44.674	8.0823e-06	87.494	0.0040476	0.0064852	0.0015212	564.19	6.4845e-05	5.7972e-05	826.04	205.91	5.5039e-05	7.2187e-05	382.08	182.19	104.87	46.58	6.7744e-05	89.989	120.851	39.634	143.948	-34.914	161.279	78.271	-34.766	-29.432	153.301	49.916	-31.014	-27.936	-26.626	-22.954	77.683	-24.580	-8191	255	
21717.006	1	1	0	0	0.21665	0.12216	0.34909	0.025655	0.11634	0.086013	0.33726	0.14493	0.24292	0.11641	0.37359	0.088042	0.17493	0.34237	0.33762	0.2999	-2.0208	-2.8479	-2.6854	-2.6937	-3.0229	-2.5583	-2.825	-2.9917	-2.5875	-2.8312	-2.8458	-2.7896	-2.8125	-2.7208	-2.725	-2.9	193.716	134.645	3.348	34.993	-35.757	210.400	218.561	-36.956	181.822	11.217	135.888	218.030	118.537	289.608	261.222	285.561	0.00048663	0.00065462	0.00039016	524.31	3.5712e-06	6.5353e-06	792.53	191.15	8.0193e-06	8.9482e-06	358.03	172.87	89.95	43.779	9.1051e-06	85.132	0.0041518	0.0066904	0.0016012	555.89	6.8647e-05	6.1008e-05	817.75	202.91	5.691e-05	7.2945e-05	376.51	178.16	103.1	45.552	6.6803e-05	88.175	103.503	21.245	26.580	-34.462	20.026	130.233	-34.966	-29.331	120.458	123.721	-30.830	-27.909	-26.947	-23.150	77.364	-24.289	-8191	255	
21717.102	1	1	0	0	0.24462	0.080508	0.084661	0.12688	0.16731	0.026934	0.12586	0.14496	0.14077	0.073066	0.19707	0.13179	0.18126	0.1949	0.19877	0.40942	-2.0354	-2.8	-2.525	-2.5896	-2.9875	-2.5458	-2.9313	-2.8958	-2.5833	-2.8146	-2.9083	-2.7292	-2.9021	-2.7646	-2.3937	-3.0292	4.689	148.814	198.124	-4.543	108.232	256.634	92.059	73.110	288.364	32.778	147.139	310.125	69.200	293.577	105.616	278.066	0.00043019	0.00078247	0.00021766	519.95	9.2573e-06	2.406e-06	781.58	188.28	8.0585e-06	1.7769e-05	355.04	169.68	87.831	42.947	4.5268e-06	84.643	0.00413	0.0066782	0.0016678	549.19	7.0055e-05	6.1765e-05	807.23	199.7	5.6582e-05	7.2852e-05	372.77	175.44	101.75	44.854	6.5186e-05	87.485	119.147	5.453	287.141	-34.918	-11.788	199.528	-34.905	-29.589	42.117	28.446	-30.970	-27.988	-26.546	-22.858	6.655	-24.511	-8191	255	
21717.197	1	1	0	0	0.076994	0.16024	0.18806	0.33637	0.066557	0.039406	0.22841	0.157	0.10489	0.010321	0.18575	0.26137	0.16769	0.11022	0.24222	0.087561	-2.0687	-2.7771	-2.7083	-2.3563	-2.6688	-2.675	-2.6417	-2.9125	-2.5333	-2.6604	-2.7042	-2.5187	-2.8292	-2.7521	-2.8292	-3.075	58.413	104.471	262.722	287.834	4.588	303.362	291.959	231.951	300.276	250.620	147.260	260.806	194.455	279.516	49.155	278.969	0.00042694	0.0010936	0.00024446	515.59	7.0258e-06	8.293e-06	783.6	187.8	9.6284e-06	1.3447e-06	352.75	168.51	87.157	42.409	7.0636e-06	83.114	0.0041723	0.0064968	0.001711	545.18	7.034e-05	6.4982e-05	804.03	198.84	5.7753e-05	7.2764e-05	372.58	174.06	101.09	44.473	6.3436e-05	86.486	104.313	15.669	95.488	-35.028	2.256	154.862	-35.003	-29.658	107.937	184.911	-30.982	-27.555	-26.679	-23.005	30.438	-24.291	-8191	255	
21717.295	1	1	0	0	0.14319	0.16172	0.056962	0.24477	0.09593	0.034409	0.22146	0.27202	0.13575	0.34032	0.11236	0.23197	0.13757	0.22321	0.13477	0.25316	-2.2375	-2.7146	-2.7771	-2.675	-2.8958	-2.5583	-2.5417	-2.8479	-2.5667	-2.7125	-2.8375	-2.525	-2.7229	-2.9375	-2.6708	-2.8187	-37.155	55.225	47.926	110.659	211.677	225.814	171.785	106.235	188.643	62.217	277.397	232.767	202.374	284.183	0.744	219.560	0.0004888	0.00033932	0.00032139	511.58	1.6833e-06	5.979e-06	771.18	183.51	5.1686e-06	7.565e-06	345.8	164.82	84.728	41.218	1.516e-05	81.327	0.0042371	0.0064885	0.0017739	541.6	7.1031e-05	6.6895e-05	795.18	195.5	5.9983e-05	7.3201e-05	365.38	169.83	99.006	43.369	6.4008e-05	84.353	116.970	-6.405	49.410	-34.740	148.033	176.857	-34.952	-29.767	203.937	134.157	-30.999	-27.998	-26.980	-22.961	84.291	-24.242	-8191	255	
21717.412	1	1	0	0	0.10616	0.13627	0.24619	0.083312	0.22338	0.070629	0.11444	0.1105	0.15894	0.31439	0.08037	0.29153	0.088686	0.089144	0.1337	0.10042	-2.1646	-2.7167	-2.6292	-2.4896	-2.8063	-2.6813	-2.6562	-3.0042	-2.6813	-2.7687	-2.8208	-2.6854	-2.8708	-2.7583	-2.5417	-3.0208	58.265	242.110	14.143	165.457	29.440	166.497	183.537	308.419	306.292	47.150	305.785	299.857	221.426	183.154	152.204	283.697	0.00039106	0.0013012	0.00020812	505.26	3.9374e-06	4.8447e-06	757.54	181.95	5.4403e-06	6.7315e-06	341.68	162.11	83.586	41.241	2.896e-06	80.821	0.0045541	0.0065595	0.0018994	537.63	7.2876e-05	7.054e-05	786.02	193.97	6.1768e-05	7.1738e-05	363.3	167.91	98.131	43.201	6.2358e-05	84.058	100.094	24.511	7.916	-34.810	73.630	258.275	-35.041	-29.308	120.559	133.101	-30.807	-27.589	-26.603	-22.824	98.209	-24.216	-8191	255	
21717.486	1	1	0	0	0.32121	0.086837	0.14514	0.16622	0.25852	0.099398	0.22111	0.27672	0.083246	0.39931	0.29892	0.31733	0.22159	0.21267	0.15436	0.12677	-2.1708	-2.6312	-2.8104	-2.5	-2.8021	-2.7542	-2.7875	-2.9813	-2.775	-2.6125	-2.9833	-2.7917	-2.9146	-2.7396	-2.4583	-2.9771	51.162	-45.063	107.020	42.649	288.266	183.091	4.930	294.967	165.767	230.398	252.108	3.729	64.333	211.527	52.473	200.308	0.00050955	0.0009303	6.1311e-05	501.56	6.387e-06	8.0595e-06	767.39	181.21	5.4641e-06	1.1485e-05	340.9	163.17	84.134	40.834	1.2866e-05	80.732	0.0046209	0.006334	0.0019295	535.06	7.1446e-05	7.2421e-05	785.54	193.62	6.3781e-05	6.8339e-05	362.64	167.93	97.738	43.035	6.2032e-05	83.948	107.340	311.766	259.180	-34.471	49.337	90.247	-34.707	-29.696	0.654	-3.603	-31.071	-27.912	-27.281	-22.868	62.086	-24.054	-8191	255	
21717.605	1	1	0	0	0.36608	0.17803	0.13173	0.042549	0.15347	0.06782	0.50531	0.082042	0.38821	0.19692	0.30099	0.14613	0.13014	0.34907	0.44659	0.15434	-2.1979	-2.5521	-2.775	-2.5917	-2.7979	-2.8479	-2.5396	-2.9313	-2.6479	-2.6625	-3.0083	-2.6729	-2.8187	-2.9208	-2.4917	-3.1083	100.194	-41.335	-45.430	211.523	192.081	86.713	277.045	-29.606	265.338	57.807	275.129	218.779	159.184	196.554	188.927	271.132	0.00039597	0.0010769	0.00023603	503.26	1.1216e-05	1.5606e-05	759.23	179.44	1.3752e-06	1.1685e-05	337.26	159.87	83.116	40.003	6.3207e-06	79.069	0.0047874	0.0060846	0.0019571	536.23	7.0314e-05	7.478e-05	783.95	192.23	6.6848e-05	6.7129e-05	360.23	166.02	95.968	42.432	6.2176e-05	82.297	124.347	46.617	22.935	-34.815	82.246	146.218	-34.695	-29.288	191.776	117.825	-30.449	-27.910	-26.858	-22.723	61.091	-24.146	-8191	255	
21717.701	1	1	0	0	0.2189	0.14689	0.1476	0.059945	0.16733	0.23933	0.34981	0.086897	0.023339	0.13211	0.2169	0.16076	0.1646	0.11585	0.21824	0.20777	-2.2062	-2.5833	-2.9396	-2.5771	-2.6667	-2.9104	-2.7021	-2.7708	-2.6521	-2.5812	-2.9646	-2.6854	-2.6688	-2.8667	-2.6562	-2.7875	-39.488	68.796	217.696	292.091	120.263	194.711	253.436	253.667	65.555	288.107	87.274	26.037	52.413	292.997	267.472	238.934	0.00047549	0.00079303	0.00027692	499.88	8.3281e-06	5.5966e-06	753.32	177.05	7.6695e-06	5.7317e-06	335.94	158.7	81.359	39.559	5.4439e-06	78.654	0.004865	0.0059927	0.0019841	533.61	6.8377e-05	7.7272e-05	775.13	189.1	6.8432e-05	6.5885e-05	356.59	164.47	94.494	42.026	6.2289e-05	81.829	109.529	10.280	128.137	-34.763	60.270	215.418	-35.257	-29.394	127.821	6.873	-30.755	-27.872	-26.519	-22.724	-42.267	-24.163	-8191	255	
21717.799	1	1	0	0	0.18232	0.15012	0.17127	0.097422	0.12912	0.14015	0.49789	0.030702	0.10577	0.46473	0.070762	0.089635	0.10968	0.035302	0.027825	0.23798	-2.3021	-2.4771	-2.7833	-2.6708	-2.6958	-2.875	-2.5854	-2.8042	-2.7958	-2.5604	-2.9979	-2.8375	-2.6063	-3.0583	-2.6083	-3.0375	70.695	138.640	58.968	15.697	269.267	-34.930	251.897	71.763	222.211	8.079	212.038	167.146	4.108	139.761	185.435	226.088	0.00035109	0.0010111	0.00017791	496.54	5.8345e-06	3.4644e-06	752.16	177.16	6.9496e-06	1.3063e-05	335.57	159.59	81.342	39.926	6.4042e-06	79.356	0.0049723	0.0058899	0.0019549	533.09	6.503e-05	7.7139e-05	776.6	189.04	6.8858e-05	6.5044e-05	357.39	165.24	94.389	42.296	6.2733e-05	82.392	125.353	67.975	47.628	-34.744	81.034	163.410	-34.812	-29.472	221.531	134.713	-30.995	-27.691	-26.196	-22.876	130.022	-24.357	-8191	255	
21717.895	1	1	0	0	0.12257	0.19796	0.081517	0.25843	0.074761	0.16823	0.1711	0.091719	0.15893	0.23866	0.22318	0.10648	0.22862	0.28587	0.19093	0.25557	-2.3979	-2.475	-2.75	-2.7792	-2.6125	-2.6833	-2.7083	-2.8271	-2.9938	-2.7396	-2.9271	-2.7896	-2.675	-2.9104	-2.6792	-2.7208	228.984	48.882	131.025	235.571	-41.851	65.225	181.186	98.956	38.044	258.570	307.601	243.940	279.141	284.847	217.728	297.490	0.00044857	0.00074207	0.00025215	499.36	3.5774e-06	1.1531e-05	756.07	179.17	3.411e-06	8.6825e-06	337.77	159.75	82.169	40.34	3.3351e-06	80.107	0.0050457	0.0057767	0.0019467	536.38	6.259e-05	7.6967e-05	783.44	189.73	6.9691e-05	6.3241e-05	359.75	166.48	94.516	42.729	6.4396e-05	83.125	106.639	32.669	48.926	-34.500	109.179	188.554	-34.668	-29.547	60.801	124.441	-31.021	-27.609	-26.801	-23.043	86.153	-23.972	-8191	255	
21718.016	1	1	0	0	0.24471	0.32725	0.17842	0.24941	0.13288	0.19803	0.23752	0.14397	0.34048	0.24036	0.048642	0.16145	0.30369	0.32501	0.016152	0.14468	-2.3458	-2.5854	-2.7771	-2.6917	-2.6042	-3.0521	-2.8458	-2.9	-2.9396	-2.5458	-2.8063	-2.8333	-2.3542	-2.8854	-2.625	-2.7979	-15.030	162.645	218.712	259.800	309.040	77.437	58.140	226.522	230.916	202.111	57.379	225.904	-34.470	307.068	294.645	223.694	0.00042946	0.00014092	0.00014618	502.54	2.9219e-06	7.8167e-06	764.81	179.73	1.0417e-05	2.1014e-06	340.22	160.92	82.437	40.184	7.8375e-06	79.86	0.005168	0.0058528	0.0019272	540.62	6.2424e-05	7.8529e-05	789.18	190.33	7.1742e-05	6.4676e-05	361.4	167.02	94.502	42.674	6.7073e-05	82.967	107.796	53.856	45.107	-34.720	306.718	73.247	-34.685	-29.308	122.125	-14.960	-30.748	-27.570	-26.336	-22.581	48.327	-24.038	-8191	255	
21718.111	1	1	0	0	0.16192	0.23905	0.12141	0.081522	0.11065	0.13171	0.16448	0.34124	0.15985	0.015924	0.32052	0.19825	0.085216	0.13953	0.20025	0.2666	-2.4479	-2.5833	-2.7229	-2.7458	-2.7188	-2.8812	-2.7333	-2.7271	-2.6979	-2.6396	-2.7917	-2.8479	-2.475	-2.9396	-2.7958	-2.6771	10.732	233.345	89.248	60.822	167.902	75.431	-24.268	302.882	-18.826	182.815	296.662	266.613	109.188	19.584	79.627	272.649	0.00065969	0.0011312	0.0003322	502.89	2.4124e-06	1.6597e-05	758.61	178.11	7.4947e-06	4.0613e-06	339.36	159.46	82.093	39.71	8.2414e-06	78.663	0.005253	0.0059308	0.0019112	541.35	6.0687e-05	7.8493e-05	787.48	189.04	7.1933e-05	6.5502e-05	359.37	165.87	93.504	42.101	6.7608e-05	81.523	127.187	64.267	22.589	-34.558	99.186	100.327	-35.036	-29.441	138.760	38.613	-31.139	-27.550	-26.934	-23.110	20.185	-24.240	-8191	255	
21718.184	1	1	0	0	0.3892	0.13396	0.23028	0.093743	0.27456	0.23858	0.11465	0.24501	0.22418	0.17225	0.16665	0.20577	0.15022	0.33706	0.21013	0.034891	-2.5083	-2.5854	-2.7458	-2.775	-2.7167	-2.8187	-2.8979	-2.5187	-2.9354	-2.7687	-2.6167	-2.9938	-2.5938	-2.8542	-2.6083	-2.6	258.947	226.815	272.019	108.721	138.825	52.687	190.909	213.865	310.117	97.886	21.057	231.309	-18.381	-27.475	193.690	-43.077	0.00041504	0.0005103	0.00019132	502.22	6.9289e-06	5.7936e-06	758.87	178.19	1.2654e-05	7.0571e-06	338.38	159.65	81.729	39.78	9.0308e-06	78.8	0.0052752	0.0060453	0.0018243	540.41	5.9806e-05	7.6978e-05	788.08	187.4	7.211e-05	6.7432e-05	357.57	165.7	93.637	42.215	6.9194e-05	81.703	129.611	-10.969	9.662	-34.401	64.040	227.539	-34.692	-29.484	100.046	37.623	-30.728	-27.738	-26.516	-22.656	68.568	-24.206	-8191	255	
21718.303	1	1	0	0	0.23634	0.16422	0.1417	0.28798	0.059418	0.19393	0.30422	0.39402	0.13322	0.11978	0.24688	0.1537	0.11916	0.27786	0.26091	0.1247	-2.3729	-2.6083	-2.6208	-2.8354	-2.4708	-2.7604	-2.8146	-2.6375	-2.8417	-2.6188	-2.9375	-3.0583	-2.5792	-2.8771	-2.825	-2.7875	102.338	12.176	44.561	293.132	230.224	170.681	200.985	-26.540	41.165	194.777	296.960	245.019	42.990	281.441	178.086	306.614	0.00049339	0.00047255	0.00019914	505.59	9.8055e-06	6.7897e-06	762.92	178.83	5.2265e-06	8.0003e-06	338.06	160.62	82.391	40.015	5.377e-06	79.212	0.0053151	0.0062324	0.0017625	545.15	6.1428e-05	7.7336e-05	791.27	188.92	7.3667e-05	6.988e-05	357.24	166.6	94.337	42.289	7.1114e-05	82.052	118.982	149.244	115.327	-34.663	37.642	27.297	-34.787	-29.167	98.990	146.203	-30.875	-27.701	-26.594	-22.923	135.413	-24.250	-8191	255	
21718.398	1	1	0	0	0.24902	0.06664	0.20522	0.23377	0.16393	0.1479	0.073925	0.19116	0.10557	0.16339	0.12951	0.19278	0.33605	0.07406	0.18578	0.20987	-2.5125	-2.6896	-2.5333	-2.9833	-2.5417	-2.7271	-2.7792	-2.4708	-2.9562	-2.5938	-2.6917	-3.0604	-2.5792	-2.8854	-2.8396	-2.6354	28.851	69.613	-33.915	-29.673	172.778	-6.877	-24.467	229.402	137.916	247.532	209.187	179.650	-17.092	267.016	251.888	248.093	0.00036291	0.00023308	0.00026471	503.93	6.519e-06	9.5022e-06	765.99	180.56	1.3375e-05	7.3997e-06	341.26	161.04	81.791	40.129	6.4355e-06	79.869	0.0053143	0.0063299	0.0017193	545.63	6.2281e-05	7.4065e-05	794.21	189.15	7.2143e-05	7.0777e-05	358.54	167.29	94.745	42.287	7.1305e-05	82.492	111.910	224.616	20.735	-34.643	106.413	147.512	-35.220	-29.445	119.728	21.353	-30.821	-27.715	-26.289	-22.701	247.368	-24.218	-8191	255	
21718.494	1	1	0	0	0.016921	0.05452	0.089488	0.12451	0.073959	0.18812	0.43092	0.19226	0.1052	0.30308	0.034695	0.33116	0.093845	0.2559	0.15687	0.25743	-2.4604	-2.8063	-2.4167	-2.9896	-2.6875	-2.7646	-2.9813	-2.9125	-2.9458	-2.8583	-2.7208	-2.9833	-2.6792	-2.6208	-2.9188	-2.6146	103.453	281.926	133.942	265.934	169.363	220.971	203.044	-40.221	186.470	119.542	-24.120	67.326	143.022	262.289	-43.679	221.231	0.0003971	0.0010015	0.00018472	507.72	6.2954e-06	1.4734e-05	765.51	180.6	1.0009e-05	8.1e-06	344.69	162.41	83.171	40.43	7.3592e-06	79.91	0.0052753	0.0064323	0.0016705	548.84	6.3891e-05	7.1867e-05	797.96	190.74	7.3232e-05	7.185e-05	362.11	169.01	95.838	42.579	7.2678e-05	82.757	120.717	44.601	282.230	-34.530	43.003	122.210	-34.743	-29.573	-15.145	152.642	-30.613	-27.535	-26.826	-22.661	96.891	-23.984	-8191	255	
21718.590	1	1	0	0	0.12547	0.13646	0.15982	0.061093	0.18021	0.098675	0.1053	0.029508	0.1756	0.057066	0.12567	0.021575	0.18453	0.14392	0.096591	0.24488	-2.2208	-2.7042	-2.3688	-2.9375	-2.6583	-2.7833	-2.8812	-2.7375	-2.95	-2.8333	-2.7188	-3.0771	-2.6292	-2.6042	-2.9062	-2.7479	297.791	-14.950	111.452	94.515	121.322	87.498	289.967	136.590	226.361	-32.723	195.882	216.337	142.325	219.270	236.594	224.159	0.00040801	0.00070798	0.00029514	509.78	2.1129e-06	7.2743e-06	774.09	181.22	5.3013e-06	3.5863e-06	345.45	162.9	83.709	40.685	4.3203e-06	80.251	0.0052217	0.0065172	0.0016297	551.35	6.5098e-05	6.9151e-05	802.74	191.69	6.9682e-05	7.3553e-05	362.19	169.5	96.672	42.722	7.3595e-05	83.199	114.852	85.715	129.490	-34.664	92.174	69.131	-34.983	-29.266	-34.704	122.826	-30.675	-27.933	-26.252	-22.848	177.038	-24.023	-8191	255	
21718.711	1	1	0	0	0.10782	0.15081	0.05353	0.12661	0.24122	0.19511	0.024696	0.10586	0.23738	0.15663	0.14672	0.15055	0.09064	0.19145	0.13156	0.34947	-2.4583	-2.7729	-2.5125	-2.9313	-2.5917	-2.6479	-3.0042	-2.5375	-2.5375	-2.7833	-2.5479	-2.9292	-2.7708	-2.7458	-3.0333	-2.6958	126.265	235.981	191.842	216.558	200.297	-38.632	255.580	273.315	167.134	116.914	159.370	284.406	289.361	269.884	253.379	159.058	0.00032846	0.00095248	0.0002713	517.58	2.9122e-07	1.935e-05	776.24	185.36	4.434e-06	4.7546e-06	350.29	165.13	85.853	41.048	1.0399e-05	81.405	0.0050164	0.0065864	0.0016018	556.69	6.56e-05	6.6382e-05	807.73	195.15	6.7226e-05	7.3925e-05	366.24	171.71	98.31	43.122	7.3837e-05	84.181	103.674	14.478	-7.229	-34.487	84.039	64.295	-34.962	-29.221	121.401	50.790	-30.946	-27.701	-26.315	-22.456	103.077	-23.977	-8191	255	
21718.781	1	1	0	0	0.091977	0.063778	0.12367	0.25721	0.12389	0.17653	0.148	0.36517	0.044977	0.14998	0.13407	0.16262	0.12374	0.29489	0.2183	0.29154	-2.1354	-2.8083	-2.3688	-2.9813	-2.8042	-2.6521	-2.9708	-2.6937	-2.6958	-2.7417	-2.6479	-2.8083	-2.7208	-2.7062	-2.7875	-2.9417	-3.983	114.138	189.788	286.607	-33.654	274.398	276.904	-19.998	185.133	35.913	-39.403	214.496	0.591	254.643	21.928	230.834	0.00026904	0.00079884	0.00016585	520.86	5.7786e-06	5.7561e-06	784.32	186.1	3.6773e-06	7.9774e-06	350.41	166.93	85.912	41.473	9.1789e-06	82.194	0.0048257	0.0066164	0.0016019	557.52	6.615e-05	6.3498e-05	813.15	196.52	6.4412e-05	7.3546e-05	368.24	173.4	99.204	43.35	7.2885e-05	84.903	96.576	112.246	49.682	-34.292	122.697	-13.293	-34.871	-29.494	105.728	202.238	-30.859	-27.713	-26.885	-22.808	257.731	-24.186	-8191	255	
21718.879	1	1	0	0	0.12314	0.047162	0.21902	0.12772	0.046038	0.26722	0.1131	0.1098	0.090895	0.10803	0.13712	0.35713	0.035963	0.115	0.067026	0.18085	-2.0312	-3.0229	-2.5146	-2.6271	-2.7396	-2.625	-2.9708	-2.6562	-2.5396	-2.9271	-2.6833	-2.8438	-2.6625	-2.5563	-2.7708	-2.7	266.134	98.968	-40.489	178.410	253.980	58.388	37.024	-9.515	241.755	299.964	255.188	252.339	178.317	2.632	139.269	-30.345	0.0003308	0.00062762	0.00017038	519.05	6.2251e-06	1.2121e-05	790.4	187.48	7.7456e-06	6.6149e-06	356.08	168.23	87.18	41.611	1.1395e-05	82.826	0.0046073	0.006686	0.0016188	558.62	6.7189e-05	6.2647e-05	819.33	198.13	6.2361e-05	7.4666e-05	373.32	174.45	100.27	43.577	7.3674e-05	85.439	106.678	7.422	244.554	-34.626	98.029	45.820	-34.851	-29.463	43.911	139.744	-30.882	-27.402	-26.221	-22.808	134.558	-24.388	-8191	255	
21718.975	1	1	0	0	0.053413	0.046086	0.19656	0.045986	0.20568	0.028743	0.26378	0.058036	0.071951	0.17348	0.21116	0.18071	0.29338	0.13863	0.24325	0.28768	-2.1104	-2.8458	-2.5896	-2.6479	-2.7833	-2.5646	-3.0021	-2.6833	-2.4042	-2.6479	-2.7208	-2.6042	-2.6979	-2.6146	-2.6875	-2.6312	56.359	113.038	-23.469	243.012	82.397	190.107	258.204	291.514	230.474	61.872	275.051	202.354	288.827	255.393	208.343	274.991	0.00033768	0.0003877	0.00020425	523.88	1.3051e-05	4.1781e-06	784.58	185.6	1.2426e-05	1.5913e-05	354.32	166.86	86.956	41.529	7.0989e-06	82.165	0.0044292	0.0068243	0.0016675	558.54	6.8642e-05	6.1879e-05	816.22	196.82	5.9865e-05	7.579e-05	371.87	173.05	99.866	43.375	7.187e-05	84.915	120.444	58.275	3.728	-34.371	143.360	134.943	-34.882	-29.534	88.080	125.729	-30.937	-27.582	-26.382	-22.760	73.107	-24.211	-8191	255	
21719.096	1	1	0	0	0.095952	0.25858	0.14641	0.32957	0.15315	0.16446	0.084821	0.084693	0.090001	0.068622	0.15853	0.33785	0.2869	0.24581	0.16537	0.12237	-2.0271	-2.7792	-2.5417	-2.7667	-2.8688	-2.5521	-2.8563	-2.7938	-2.3708	-2.925	-2.6271	-2.6562	-2.9167	-2.7687	-2.8708	-2.8917	149.519	117.816	195.614	-35.113	47.155	134.512	-37.769	312.061	-36.294	95.507	226.420	-37.002	311.809	-45.934	238.656	312.227	0.00049521	0.00043002	7.9174e-05	521.84	8.6773e-06	1.4761e-05	790.19	188.2	7.0047e-06	8.9592e-06	356.15	168.38	87.066	41.789	8.9856e-06	82.544	0.004326	0.0068532	0.0016982	556.48	6.908e-05	6.3069e-05	817.02	198.95	5.8439e-05	7.6271e-05	373.84	173.87	100.73	43.738	7.0506e-05	85.599	119.291	-1.330	121.975	-34.144	124.828	96.519	-34.524	-29.585	31.822	90.771	-30.885	-27.777	-26.569	-22.939	118.311	-23.988	-8191	255	
21719.191	1	1	0	0	0.17734	0.078227	0.13775	0.1851	0.31607	0.154	0.26007	0.20191	0.31333	0.24346	0.20752	0.17506	0.16494	0.37121	0.15309	0.20422	-2.0979	-2.8208	-2.7646	-2.5458	-2.8646	-2.5083	-2.9583	-2.6896	-2.7229	-2.7792	-2.7438	-2.7396	-2.9104	-2.6875	-2.7729	-2.925	109.435	102.891	122.750	248.794	270.305	269.757	298.557	-19.136	203.395	47.967	207.751	252.584	257.158	237.626	162.382	-5.488	0.00047764	0.00011108	9.1411e-05	524.33	8.7914e-06	2.7057e-06	791.45	190.23	6.9879e-06	8.0244e-06	360.04	169.84	86.989	41.947	6.4473e-06	83.582	0.0042945	0.0069654	0.0017205	556.71	7.085e-05	6.4474e-05	818.41	200.59	5.8285e-05	7.5809e-05	376.74	175.36	101.56	44.102	6.8627e-05	86.615	102.879	271.860	220.612	-34.559	150.007	118.255	-34.671	-29.588	141.676	89.437	-30.879	-27.595	-26.483	-23.026	84.570	-24.253	-8191	255	
21719.287	1	1	0	0	0.13811	0.084483	0.23111	0.2291	0.04905	0.11777	0.28893	0.17256	0.067751	0.032121	0.053279	0.1389	0.13711	0.15288	0.12751	0.13027	-2.2271	-2.8729	-2.6333	-2.6229	-2.9292	-2.5792	-2.6417	-3.0021	-2.4146	-2.7729	-2.7708	-2.5333	-2.7625	-2.6271	-2.6083	-2.9833	84.598	153.019	194.104	276.185	113.066	42.386	287.084	303.561	10.148	175.643	61.263	234.220	18.555	-46.433	241.719	-13.317	0.00052682	0.00086261	8.8713e-05	523.4	7.1202e-06	4.7838e-06	794.53	190.64	1.1865e-05	1.3025e-05	362.26	172.02	89.215	42.537	5.4738e-06	85.013	0.0043029	0.0069156	0.001771	556.19	7.297e-05	6.7707e-05	821.38	202.28	5.9815e-05	7.6641e-05	380.12	177.34	103.02	44.681	6.6497e-05	87.914	114.760	49.817	296.249	-34.687	193.107	127.760	-34.781	-29.586	102.496	131.335	-30.760	-27.757	-26.456	-22.629	76.572	-24.255	-8191	255	
21719.385	1	1	0	0	0.25136	0.068596	0.21851	0.23986	0.089101	0.078713	0.24756	0.13389	0.24	0.11434	0.28027	0.16953	0.045025	0.11478	0.069548	0.094296	-2.0896	-2.9	-2.7625	-2.5	-2.8458	-2.6917	-2.7646	-2.8604	-2.5125	-2.7792	-2.9167	-2.7062	-2.7729	-2.7167	-2.5958	-2.9979	142.793	145.701	228.052	260.743	95.651	6.354	172.377	285.006	309.925	18.874	281.508	307.400	18.691	260.543	214.906	158.511	0.00048003	0.00087054	0.00018207	529.35	3.494e-06	2.58e-06	799.5	191.55	6.2822e-06	7.0943e-06	361.72	171.98	89.01	42.655	3.1602e-06	84.473	0.0044068	0.0068319	0.0017834	558.27	7.2829e-05	6.7466e-05	821.93	203.44	6.112e-05	7.251e-05	381.48	177.43	103.41	44.672	6.4082e-05	87.454	106.582	7.441	19.362	-34.559	65.283	139.717	-34.848	-29.295	111.764	62.024	-30.808	-27.790	-27.023	-22.782	151.195	-24.245	-8191	255	
21719.479	1	1	0	0	0.082685	0.21684	0.15967	0.17824	0.079656	0.17598	0.22017	0.031276	0.047396	0.14588	0.37644	0.21325	0.13701	0.07374	0.26033	0.077507	-2.2458	-2.6604	-2.8125	-2.4917	-2.8312	-2.6333	-2.6021	-2.9813	-2.4667	-2.8771	-2.9875	-2.6146	-2.9375	-2.7354	-2.5417	-2.9708	7.701	240.234	264.333	-28.872	81.065	97.487	63.912	47.281	106.259	99.882	-46.910	-24.403	89.353	-38.804	152.072	196.203	0.00050749	0.00056132	0.00022439	526.7	7.5528e-06	8.5846e-06	798.42	192.25	1.0544e-06	8.5572e-06	362.7	173.35	90.372	43.153	7.1828e-06	84.796	0.0044827	0.0065194	0.0017982	558.13	7.2021e-05	6.7504e-05	821	204.69	6.0607e-05	6.9708e-05	382.87	178.27	103.79	45.072	6.0812e-05	87.862	140.052	40.404	97.136	-34.423	78.107	115.737	-34.926	-29.375	172.891	36.326	-30.961	-27.809	-26.600	-22.767	12.518	-24.114	-8191	255	
21719.576	1	1	0	0	0.15079	0.077684	0.10507	0.12513	0.14131	0.25836	0.13476	0.38287	0.093834	0.19292	0.11354	0.16416	0.25081	0.35932	0.088394	0.20236	-2.1229	-2.7188	-2.7979	-2.5021	-2.7625	-2.7188	-2.6063	-2.9292	-2.5312	-2.5271	-2.9146	-2.8333	-2.6958	-2.8479	-2.3812	-2.95	202.307	-46.694	304.549	180.241	123.862	159.556	-28.073	295.590	233.570	262.197	139.000	132.734	203.386	265.843	93.044	200.568	0.00042842	0.00088234	0.0001723	531.53	7.1954e-06	1.0625e-05	801.59	192.38	5.1269e-06	1.9988e-06	366.47	174	89.723	42.976	7.4653e-06	84.975	0.0044843	0.006205	0.0017974	561.27	6.9664e-05	6.8673e-05	822.78	205.03	6.1385e-05	6.6905e-05	385.21	178.87	103.45	45.09	5.986e-05	88.07	124.369	24.902	3.281	-34.830	115.822	135.634	-34.764	-29.496	75.780	71.873	-30.997	-27.562	-26.519	-22.894	58.752	-24.053	-8191	255	
21719.695	1	1	0	0	0.11895	0.10082	0.26669	0.41275	0.029871	0.16755	0.060075	0.32284	0.1356	0.04261	0.14334	0.17218	0.05051	0.34161	0.14726	0.1881	-2.2771	-2.55	-2.7438	-2.7292	-2.7	-2.7938	-2.6063	-3.0021	-2.7667	-2.6021	-2.9688	-2.6729	-2.7042	-2.9729	-2.3396	-2.9708	176.876	288.679	169.264	26.559	96.004	81.045	181.912	263.173	89.393	124.074	283.461	307.291	-46.610	288.193	25.277	213.251	0.00043779	0.00025393	0.00025196	530.65	1.9007e-06	2.5059e-06	801.05	193.07	7.6178e-06	8.7931e-06	367.32	173.88	90.385	43.044	5.5715e-06	84.905	0.0045752	0.0059702	0.0018658	560.62	6.9101e-05	7.0429e-05	823.61	204.93	6.3363e-05	6.5487e-05	386.83	179.37	103.09	45.143	6.051e-05	87.982	90.809	211.219	94.738	-34.623	74.604	-27.181	-34.763	-29.583	170.876	122.802	-30.921	-27.741	-26.662	-22.824	94.544	-24.273	-8191	255	
21719.791	1	1	0	0	0.17485	0.29897	0.196	0.14023	0.25606	0.14185	0.22874	0.071	0.28077	0.088497	0.079964	0.14286	0.14509	0.15545	0.16669	0.14254	-2.2708	-2.5083	-2.8604	-2.675	-2.6167	-2.8458	-2.7729	-2.7667	-2.6188	-2.6417	-2.8583	-2.6208	-2.6771	-2.9146	-2.4104	-2.95	252.286	-6.712	-10.650	107.419	106.206	8.977	241.735	6.239	157.158	134.822	282.297	-2.378	228.874	-33.047	171.010	-24.960	0.00038352	0.00015872	0.00011664	528.99	1.4421e-05	8.872e-06	796.68	192.39	6.686e-06	6.4045e-06	364.45	172.2	88.756	42.325	1.3384e-05	84.155	0.0046986	0.0058266	0.0019199	561.04	6.6527e-05	7.1718e-05	819.96	204.1	6.4245e-05	6.3336e-05	384.01	177.75	101.52	44.616	6.0465e-05	87.306	137.706	173.205	-19.681	-34.265	16.810	196.517	-34.635	-29.302	164.843	96.147	-30.989	-27.897	-25.982	-22.968	48.724	-24.125	-8191	255	
21719.887	1	1	0	0	0.24084	0.14736	0.081185	0.29936	0.10444	0.16016	0.13129	0.048922	0.0962	0.24282	0.13273	0.026815	0.22677	0.1574	0.035255	0.14955	-2.3729	-2.4437	-2.6875	-2.4188	-2.8604	-2.6792	-2.6333	-2.7917	-2.6708	-2.375	-2.7875	-2.8229	-2.5479	-2.8292	-2.6354	-2.9625	-6.113	277.058	149.524	201.443	130.200	242.249	279.912	68.240	53.648	9.061	223.432	240.942	269.975	281.074	4.674	185.539	0.0005122	0.0011744	0.00050727	525.77	8.5909e-06	2.5002e-06	801.11	192.74	1.2535e-05	3.9134e-06	365.02	174.61	89.78	42.778	8.2431e-06	85.301	0.0047541	0.0056183	0.0019287	560.35	6.3453e-05	7.3545e-05	821.81	204.25	6.4673e-05	6.2447e-05	385.51	179.53	101.89	45.096	6.1282e-05	88.137	132.738	20.150	72.870	-34.441	108.922	124.452	-34.810	-29.462	103.970	76.916	-30.928	-28.033	-27.047	-22.845	168.557	-24.280	-8191	255	
21720.008	1	1	0	0	0.16778	0.15071	0.24886	0.20632	0.074528	0.1242	0.11494	0.09353	0.054752	0.12448	0.22112	0.31436	0.082472	0.27822	0.21854	0.24876	-2.3854	-2.4646	-2.9	-2.5208	-2.6063	-2.9979	-2.6354	-2.9708	-2.5479	-2.6167	-2.9646	-2.7479	-2.3312	-2.8688	-2.5312	-2.9458	191.662	77.633	259.885	191.786	307.870	221.935	204.818	207.196	311.705	307.053	305.870	6.799	34.765	287.018	68.296	240.680	0.0005192	0.00056819	0.00012919	530.86	1.5004e-05	1.1231e-05	808.36	194.96	4.2195e-06	6.2946e-06	371.93	175.93	90.302	43.47	4.571e-06	86.217	0.0047493	0.0056221	0.0019338	564.91	6.0352e-05	7.481e-05	828.21	205.76	6.5577e-05	6.1558e-05	390.38	181.45	102.21	45.729	6.1855e-05	89.062	137.975	57.937	13.164	-34.764	19.632	90.913	-34.863	-29.402	107.577	141.984	-30.740	-27.840	-26.908	-22.585	102.744	-24.042	-8191	255	
21720.078	1	1	0	0	0.16699	0.063404	0.1314	0.2095	0.47498	0.18653	0.15688	0.29241	0.22343	0.30434	0.093124	0.29266	0.34584	0.22724	0.20902	0.19225	-2.3937	-2.6063	-2.5938	-2.8167	-2.575	-3.0167	-2.6354	-2.5312	-2.6833	-2.5292	-2.8625	-2.7708	-2.5208	-2.9875	-2.5958	-2.7438	306.801	126.989	39.272	-1.109	140.251	138.767	-46.279	87.617	128.533	243.421	312.072	256.564	288.902	72.614	115.899	293.636	0.00050474	0.0010915	0.00017894	531.07	3.5139e-06	5.1859e-06	812.77	195.83	1.309e-05	8.5867e-06	367.61	175.63	90.944	43.496	8.6596e-06	86.366	0.0048421	0.0055628	0.0018859	565.57	5.8719e-05	7.5002e-05	832.11	205.58	6.7122e-05	6.2502e-05	389.11	181.96	102.25	45.745	6.2695e-05	89.332	100.924	2.722	17.466	-34.439	126.424	124.498	-34.433	-29.209	141.451	117.068	-30.861	-27.538	-26.593	-22.424	167.208	-24.002	-8191	255	
21720.176	1	1	0	0	0.10885	0.1718	0.033196	0.30165	0.2391	0.12049	0.27877	0.15565	0.18116	0.37877	0.065471	0.19798	0.23384	0.27758	0.18813	0.11103	-2.4583	-2.3312	-2.7354	-2.8104	-2.5083	-2.8083	-2.675	-2.4688	-2.7979	-2.5833	-2.9229	-2.8708	-2.525	-2.85	-2.7604	-2.85	-3.574	277.269	101.285	253.140	307.097	298.689	297.450	236.483	-40.318	137.349	265.593	214.522	258.209	232.793	123.806	234.512	0.00044503	0.00070624	0.00033585	532.11	1.8557e-06	1.3053e-05	802.86	195.59	1.031e-05	7.847e-06	372.76	176.39	90.274	43.298	3.8627e-06	86.098	0.0050047	0.0057491	0.0018671	566.91	5.9235e-05	7.6067e-05	833.03	205.13	6.9539e-05	6.3815e-05	391.05	182.06	101.76	45.624	6.3926e-05	88.956	127.543	-21.901	16.479	-34.880	296.232	91.104	-34.731	-29.406	70.114	123.569	-30.611	-27.618	-26.481	-22.674	69.943	-24.071	-8191	255	
21720.271	1	1	0	0	0.07636	0.36392	0.15398	0.065678	0.41714	0.14293	0.054747	0.22348	0.17019	0.26583	0.13335	0.023172	0.25926	0.24597	0.20205	0.076028	-2.3646	-2.65	-2.8021	-2.8729	-2.4396	-2.9604	-2.8604	-2.5458	-2.775	-2.6063	-2.7687	-2.9104	-2.55	-2.9125	-2.6021	-2.6958	213.370	233.378	-30.008	265.083	245.477	-15.411	278.033	261.069	178.571	293.628	232.403	63.975	12.507	97.132	63.915	292.107	0.00040041	0.001136	0.00019807	529.31	5.6054e-06	6.5849e-06	801.95	193.73	5.2304e-06	3.6538e-06	367.7	174.3	90.205	43.1	2.5003e-06	85.557	0.0051009	0.005791	0.0018117	565.37	5.9034e-05	7.5378e-05	829.56	203.65	7.0378e-05	6.4703e-05	386.69	180.84	101.45	45.401	6.4631e-05	87.853	120.728	26.286	-14.960	-34.424	131.069	235.462	-34.768	-29.601	23.538	23.066	-30.817	-27.946	-26.438	-22.708	169.755	-24.282	-8191	255	
21720.391	1	1	0	0	0.24389	0.013285	0.11805	0.091371	0.11397	0.29101	0.12497	0.21943	0.15578	0.060013	0.33594	0.23832	0.007029	0.20618	0.16957	0.15604	-2.3021	-2.5979	-2.7104	-2.8146	-2.5187	-2.8979	-2.8229	-2.4083	-2.9062	-2.4958	-2.7354	-3.0917	-2.5187	-2.85	-2.6292	-2.6646	115.558	131.190	68.963	-46.933	-17.962	13.197	173.552	243.398	49.331	94.822	251.580	-32.751	-40.953	206.625	288.073	201.628	0.00046546	0.00044874	0.00021145	530.03	1.0826e-05	5.6284e-06	802.24	193.26	6.2986e-06	4.7994e-06	368.31	175.13	89.819	43.005	8.4917e-06	85.028	0.0051926	0.0058721	0.0017119	565.92	5.94e-05	7.3914e-05	829.44	203.12	7.2193e-05	6.5324e-05	385.36	180.6	101.32	45.236	6.6063e-05	87.584	99.384	228.485	134.884	-34.439	107.686	129.031	-34.646	-29.463	98.048	83.935	-30.706	-27.775	-26.552	-22.882	115.086	-24.193	-8191	255	
21720.486	1	1	0	0	0.084822	0.31461	0.1908	0.10265	0.21578	0.1052	0.25462	0.167	0.080543	0.050512	0.068151	0.41539	0.14167	0.2363	0.070111	0.14399	-2.3958	-2.7104	-2.5583	-2.9625	-2.5646	-2.6937	-2.8021	-2.4542	-2.8646	-2.6229	-2.8542	-3.0792	-2.5167	-2.6875	-2.9458	-2.5833	64.617	228.249	-11.504	277.145	294.558	167.120	221.793	211.631	268.544	179.630	70.716	179.072	-26.470	288.742	203.716	227.574	0.00051852	0.00057928	0.000161	528.2	6.3734e-06	1.2043e-05	800.64	192.9	1.0171e-05	6.313e-06	365.86	172.91	88.888	42.608	1.1553e-05	84.969	0.0052735	0.0060883	0.0016801	566.91	6.1088e-05	7.2926e-05	829.45	201.99	7.2364e-05	6.7294e-05	383.71	179.83	101.3	44.845	6.8181e-05	87.372	102.478	35.191	70.589	-34.275	121.973	73.961	-35.064	-29.451	175.730	95.046	-30.981	-27.759	-26.708	-22.990	98.104	-23.942	-8191	255	
21720.582	1	1	0	0	0.14843	0.28591	0.061289	0.098335	0.056954	0.30476	0.17979	0.26622	0.038041	0.15309	0.077779	0.201	0.14936	0.16216	0.18287	0.35575	-2.2	-2.5458	-2.4542	-2.9938	-2.6104	-2.6063	-2.9062	-2.5312	-2.8125	-2.7333	-2.6333	-3.0729	-2.7354	-2.7458	-3.0125	-2.7917	128.209	275.621	107.746	45.233	253.914	141.487	281.427	189.678	200.182	247.099	143.035	152.586	39.813	312.036	190.606	304.840	0.0003407	0.00072913	0.00021146	527.16	9.9198e-06	1.3822e-05	800.77	192.64	3.8777e-06	5.8256e-06	364.66	173.23	89.663	42.459	3.043e-06	85.338	0.005182	0.0061602	0.0016128	566.1	6.1392e-05	7.1185e-05	829.41	202.05	7.1707e-05	6.8409e-05	383.34	180.09	101.72	44.832	7.0733e-05	87.909	109.172	80.431	-27.826	-34.244	56.309	37.920	-34.826	-29.458	106.584	147.641	-30.815	-27.652	-26.396	-22.788	31.525	-24.045	-8191	255	
21720.656	1	1	0	0	0.2131	0.18722	0.084836	0.26588	0.092554	0.20354	0.12469	0.23051	0.086113	0.13958	0.01476	0.2021	0.17215	0.2009	0.027824	0.24252	-2.3646	-2.7146	-2.5208	-2.9437	-2.6333	-2.6292	-2.8125	-2.4833	-2.8167	-2.8229	-2.6167	-2.9958	-2.5042	-2.7854	-2.7542	-2.4958	88.195	111.969	19.938	214.601	47.675	-15.259	272.999	168.770	305.200	276.984	141.369	299.281	126.461	305.858	204.878	222.748	0.00033168	0.00045051	0.00011725	524.82	1.0073e-05	1.381e-05	800.93	191.45	5.3594e-06	1.2648e-05	365.1	172.33	88.582	42.341	4.9395e-06	83.899	0.005176	0.0062687	0.001618	566.15	6.294e-05	6.8166e-05	831.06	201.47	6.955e-05	6.9238e-05	382.19	179.39	101.01	44.277	7.2197e-05	86.821	100.264	10.928	9.294	-34.562	82.808	71.916	-35.159	-29.344	-22.367	172.667	-31.262	-27.866	-26.590	-22.619	102.153	-23.859	-8191	255	
21720.775	1	1	0	0	0.20638	0.25668	0.21394	0.27151	0.090071	0.25321	0.42346	0.17423	0.089942	0.25218	0.25561	0.17631	0.33752	0.21597	0.22103	0.23012	-2.4104	-2.725	-2.5396	-2.6479	-2.5625	-2.7104	-2.9333	-2.3375	-2.6188	-2.7562	-2.4146	-2.9083	-2.6792	-2.7354	-2.8083	-2.5396	121.896	286.236	58.832	-33.023	300.175	301.909	213.731	179.585	65.799	66.078	239.621	-30.417	-10.353	208.285	157.737	242.632	0.00039561	0.00043769	4.1285e-05	528.22	6.1163e-06	1.1107e-05	795.88	190.75	8.9294e-07	7.7364e-06	363.47	172.31	89.106	42.583	1.3573e-05	84.368	0.0049441	0.0064248	0.00159	564.68	6.349e-05	6.5639e-05	828.75	200.83	6.6997e-05	7.0546e-05	380.27	178.97	101.35	44.511	7.3228e-05	87.099	96.863	42.861	13.040	-34.157	133.598	122.931	-34.870	-29.395	270.011	72.743	-30.840	-27.732	-26.660	-22.572	131.529	-23.963	-8191	255	
21720.871	1	1	0	0	0.015508	0.10435	0.23158	0.041313	0.30454	0.25885	0.055181	0.053395	0.056126	0.10496	0.21429	0.022406	0.22618	0.31989	0.037657	0.072397	-2.3708	-2.6771	-2.5062	-2.7479	-2.7854	-2.5646	-2.9167	-2.5938	-2.6167	-2.9396	-2.5583	-3.0125	-2.7083	-2.65	-2.9896	-2.7417	63.628	265.270	151.012	162.236	-43.701	38.000	128.461	295.049	-31.732	210.782	-37.983	111.438	303.037	275.346	-31.511	90.470	0.0006428	0.00073923	0.00019493	528.17	8.7229e-06	1.0663e-05	798.76	193.72	3.246e-06	6.5022e-06	367.18	174.29	90.724	42.645	1.2572e-05	84.599	0.0047844	0.0065661	0.0015951	567.61	6.3852e-05	6.3869e-05	833.51	203.3	6.4931e-05	7.322e-05	382.77	180.58	102.48	44.606	7.3859e-05	87.55	112.987	111.995	53.026	-34.812	121.599	62.514	-34.863	-29.332	-14.528	92.588	-30.706	-27.728	-26.699	-22.657	82.154	-23.999	-8191	255	
21720.967	1	1	0	0	0.17859	0.099248	0.020889	0.46245	0.10106	0.22007	0.2954	0.21727	0.042462	0.028338	0.30013	0.17342	0.064442	0.16062	0.27373	0.23328	-2.2812	-2.7896	-2.3771	-2.7833	-2.5208	-2.3438	-2.8688	-2.6458	-2.6937	-2.9625	-2.7792	-2.8208	-2.6521	-2.5396	-2.7708	-2.6958	102.014	306.099	69.182	-46.923	174.662	-15.863	182.814	250.087	266.498	220.015	283.404	295.405	117.274	301.084	282.008	234.790	0.00030057	0.0010264	0.00033216	528.69	8.0621e-06	7.9082e-06	805.41	192.02	6.2221e-06	4.1112e-06	367.43	174.23	88.801	42.82	4.6515e-06	85.107	0.004605	0.0066722	0.0015895	565.83	6.4692e-05	6.2983e-05	833.17	202.43	6.0933e-05	7.3949e-05	383.94	180.3	102.02	44.694	7.2549e-05	87.922	126.481	69.546	80.950	-34.927	88.484	120.159	-34.617	-29.385	55.099	73.089	-30.891	-27.769	-26.846	-22.766	242.342	-23.868	-8191	255	
21721.088	1	1	0	0	0.21521	0.32965	0.11371	0.15002	0.21008	0.15391	0.35077	0.40532	0.22363	0.29692	0.36645	0.30945	0.12924	0.12597	0.16716	0.13868	-2.0771	-2.7417	-2.6292	-2.8104	-2.775	-2.6937	-2.9333	-2.7333	-2.5292	-2.8583	-2.6896	-2.8521	-2.6229	-2.6437	-2.8167	-2.7292	251.559	-21.157	157.244	287.542	145.858	24.050	257.172	286.564	49.587	260.217	231.135	283.305	57.840	289.486	301.446	119.926	0.00040494	0.00028143	0.00018228	526.71	7.8191e-06	8.7864e-06	802.1	194.29	1.9143e-06	2.1331e-06	371.17	175.79	89.505	42.979	1.0104e-05	85.404	0.0044276	0.0066966	0.0015963	563.67	6.6174e-05	6.2072e-05	835.1	203.52	5.9183e-05	7.4655e-05	385.98	180.97	102.68	44.828	7.0692e-05	88.098	117.806	-13.270	53.904	-34.533	83.781	122.207	-34.722	-29.479	-8.882	52.147	-30.844	-27.642	-26.403	-22.754	15.782	-24.350	-8191	255	
21721.184	1	1	0	0	0.13296	0.076787	0.24658	0.14396	0.11705	0.077119	0.11046	0.12841	0.10494	0.081315	0.14473	0.14632	0.074038	0.23709	0.039198	0.12688	-2.0958	-2.7854	-2.6458	-2.6792	-2.9729	-2.6375	-2.9292	-2.6396	-2.4938	-2.9042	-2.5938	-2.6542	-2.8229	-2.4729	-2.6917	-3.0667	24.109	16.132	243.125	266.221	148.601	34.852	124.442	185.532	308.524	53.833	308.874	287.276	197.045	242.733	87.966	-9.673	0.00047736	0.0010372	1.3956e-06	524.74	4.8855e-06	6.8421e-06	806.23	193.41	1.7718e-06	1.0293e-05	365.66	173.78	89.262	42.665	4.1689e-06	85.308	0.0042973	0.006631	0.001588	559.71	6.606e-05	6.0206e-05	831.1	202.64	5.7209e-05	7.3872e-05	382.73	179.51	102.6	44.509	6.7811e-05	87.573	108.344	24.432	-7.400	-34.548	100.530	139.419	-34.755	-29.625	104.445	122.502	-30.894	-27.948	-27.084	-23.042	-28.833	-24.095	-8191	255	
21721.279	1	1	0	0	0.049886	0.19912	0.038909	0.18809	0.25337	0.23824	0.059266	0.2141	0.043513	0.18055	0.19613	0.22528	0.1787	0.20755	0.14316	0.26971	-2.1021	-2.9354	-2.4667	-2.5333	-2.9104	-2.5354	-2.6437	-2.8583	-2.3854	-2.8125	-2.7479	-2.7479	-2.8792	-2.6	-2.6688	-2.9292	299.150	101.940	282.930	273.008	-40.812	88.713	132.248	112.826	25.149	134.913	170.359	-35.802	239.752	-30.402	22.296	293.337	0.00049946	0.0003467	0.00027049	528.7	8.5844e-06	1.069e-05	801.09	192.65	4.7151e-06	5.2101e-06	367.09	173.79	88.497	42.839	4.5187e-06	85.06	0.0041695	0.0066183	0.0015999	558.11	6.7912e-05	6.0931e-05	827.53	202.95	5.5943e-05	7.2073e-05	383.12	179.09	102.46	44.652	6.4264e-05	87.749	116.794	48.192	64.582	-34.904	146.806	126.469	-34.840	-29.400	42.018	126.343	-30.805	-27.589	-26.987	-23.099	98.259	-24.171	-8191	255	
21721.377	1	1	0	0	0.35368	0.24031	0.23116	0.08366	0.097375	0.028368	0.070535	0.13723	0.12484	0.24202	0.11395	0.12472	0.055203	0.18595	0.15852	0.24708	-2.2	-2.7167	-2.5625	-2.7125	-2.8083	-2.5	-2.6437	-3.0062	-2.2646	-2.8625	-2.7562	-2.5958	-2.8542	-2.65	-2.7667	-2.8854	-12.876	276.744	155.825	160.934	129.076	-43.350	134.200	271.126	121.357	70.704	108.898	184.830	276.416	-40.231	150.237	285.692	0.00039402	0.00094328	0.0002757	526.4	1.2002e-05	9.0534e-06	807.12	192.33	2.0383e-06	1.4219e-06	367.17	174.48	89.299	43.214	5.6991e-06	85.445	0.004137	0.0064909	0.0015954	556.55	6.7379e-05	6.009e-05	828.56	203.12	5.5673e-05	7.0306e-05	383.68	179.66	102.52	44.786	6.1248e-05	88.269	108.530	27.100	74.945	-34.591	-32.427	131.910	-34.978	-29.516	35.064	74.277	-30.914	-27.596	-26.395	-22.856	89.999	-23.988	-8191	255	
21721.471	1	1	0	0	0.075321	0.35037	0.070848	0.30001	0.20195	0.21117	0.25946	0.43991	0.21909	0.1784	0.15351	0.30861	0.12912	0.079777	0.25518	0.16464	-2.2313	-2.8812	-2.6792	-2.6708	-2.775	-2.8312	-2.5312	-2.8042	-2.5729	-2.7646	-2.875	-2.4896	-2.9	-2.8354	-2.6271	-3.0479	227.878	-22.727	297.885	261.848	113.119	150.753	191.828	269.235	171.390	214.281	-13.327	250.558	51.452	118.330	53.156	274.176	0.00035402	0.00066964	3.605e-05	526.87	5.7305e-06	3.2971e-06	806.1	192.69	1.0564e-05	3.9828e-06	367.3	175.68	89.541	43.348	5.7199e-06	86.521	0.0040883	0.0062746	0.0016253	555.29	6.7893e-05	6.1613e-05	827.15	203.6	5.5435e-05	6.7995e-05	385.15	180.55	103.03	45.17	5.9214e-05	89.329	109.177	40.852	258.035	-34.387	131.396	60.596	-34.832	-29.762	2.053	144.751	-30.925	-27.918	-26.779	-22.631	58.250	-24.147	-8191	255	
21721.566	1	1	0	0	0.30876	0.14439	0.16907	0.16748	0.18553	0.16953	0.31421	0.065267	0.06785	0.19533	0.24289	0.20157	0.034656	0.21083	0.22997	0.22011	-2.3042	-2.6	-2.5146	-2.5062	-2.7438	-2.6854	-2.6479	-2.975	-2.6833	-2.7062	-2.7313	-2.7375	-2.7958	-2.7687	-2.4854	-3	-0.937	148.996	-0.253	32.982	138.358	135.911	294.589	214.912	202.558	203.207	247.920	241.149	267.055	77.178	90.865	265.500	0.00062172	0.00059664	0.00013663	531.3	1.5113e-05	7.1032e-06	805.96	192.89	1.731e-05	6.4053e-06	370.48	175.77	89.357	42.826	5.3064e-06	85.314	0.0040914	0.0060491	0.001665	557.96	6.8013e-05	6.1864e-05	826.42	204.33	5.6251e-05	6.5315e-05	386.68	180.09	102.83	44.777	5.7141e-05	88.449	113.917	0.791	-6.884	-34.518	88.640	98.018	-34.667	-29.183	156.006	-25.947	-30.569	-27.979	-26.350	-22.868	74.292	-24.188	-8191	255	
21721.688	1	1	0	0	0.10189	0.018022	0.017844	0.26654	0.18043	0.040776	0.18022	0.066151	0.010875	0.18103	0.17676	0.1754	0.21431	0.15233	0.090293	0.33518	-2.2542	-2.6125	-2.6833	-2.5396	-2.7458	-2.6729	-2.7708	-2.8521	-2.6208	-2.6458	-2.9479	-2.55	-2.775	-2.7042	-2.4396	-2.9313	-29.838	256.528	110.541	277.446	107.230	158.112	265.950	13.574	282.238	-5.658	-29.968	292.859	185.416	-45.437	76.022	269.705	0.00037625	0.00043823	0.00013275	529.07	6.9164e-06	5.8498e-06	803.1	193.57	1.014e-05	1.2543e-05	368.29	174.32	89.081	43.073	8.8822e-06	85.658	0.0040772	0.005766	0.0016746	554.44	6.5175e-05	6.2424e-05	824.66	203.52	5.5603e-05	6.2749e-05	385.26	179	102.2	44.925	5.64e-05	88.39	96.430	2.735	95.914	-34.538	32.264	151.439	-34.950	-29.566	81.982	93.079	-30.601	-27.722	-26.633	-22.885	103.821	-24.227	-8191	255	
21721.783	1	1	0	0	0.056074	0.18751	0.10948	0.035117	0.21772	0.23151	0.19111	0.27942	0.043242	0.078127	0.16254	0.31616	0.1127	0.11188	0.094151	0.1813	-2.0604	-2.6625	-2.8708	-2.4896	-2.9188	-2.6042	-2.6167	-2.8708	-2.4562	-2.5104	-2.9979	-2.6813	-2.8563	-2.8458	-2.3979	-2.9479	54.196	163.418	298.851	131.065	137.927	181.580	-8.099	240.241	121.360	282.463	48.527	4.433	-44.949	259.703	171.952	263.916	0.00039921	0.00052316	0.0002187	530.1	2.8638e-06	1.9291e-05	806.42	193.49	7.0441e-06	7.5126e-06	366.78	174.81	88.867	42.793	3.5254e-06	85.435	0.004143	0.0056966	0.0017383	557.66	6.4752e-05	6.5211e-05	825.56	204.75	5.7687e-05	6.1999e-05	386.27	179.72	101.99	44.914	5.6284e-05	88.343	117.999	30.133	85.640	-34.539	177.383	164.142	-34.613	-29.476	62.005	47.013	-30.832	-27.567	-26.766	-22.757	109.437	-24.407	-8191	255	
21721.881	1	1	0	0	0.13022	0.14982	0.10233	0.11261	0.16479	0.081462	0.18675	0.075414	0.12519	0.22796	0.15394	0.24436	0.094611	0.35842	0.20901	0.2987	-2.1125	-2.5104	-2.7687	-2.5792	-2.8438	-2.7542	-2.6896	-2.7208	-2.5687	-2.6604	-2.9729	-2.6979	-2.7708	-2.9062	-2.7146	-3.0312	104.115	262.990	294.190	20.460	84.612	250.532	257.475	96.388	239.752	-10.171	246.634	254.140	69.130	297.804	171.488	222.573	0.00054186	0.00084299	0.00026311	527.98	5.9439e-06	1.1806e-05	809.52	194.56	4.6689e-07	1.0543e-05	371.1	174.91	90.981	43.301	6.9635e-06	85.998	0.0042964	0.0055633	0.0017744	556.51	6.2442e-05	6.6445e-05	826.51	205.03	5.9139e-05	6.0031e-05	388.43	180.13	102.21	45.266	5.5692e-05	88.907	119.163	305.913	57.198	-34.728	131.904	157.136	-34.977	-29.238	258.934	187.660	-31.120	-27.734	-26.338	-22.877	132.533	-24.062	-8191	255	
21721.951	1	1	0	0	0.096452	0.26678	0.28291	0.028512	0.042898	0.050272	0.18476	0.097655	0.13965	0.172	0.042163	0.21212	0.03399	0.27359	0.073097	0.073504	-2.1833	-2.5	-2.825	-2.7625	-2.7167	-2.875	-2.65	-3.1188	-2.7687	-2.3604	-2.8125	-2.7	-2.6417	-2.8958	-2.4917	-2.9146	10.605	-30.263	293.169	161.102	34.228	171.885	191.106	114.360	72.664	-46.419	39.964	238.493	157.135	111.769	104.399	254.524	0.00033611	0.00063583	0.00035672	532.75	9.4176e-06	7.2009e-06	806.57	196.57	5.1657e-06	4.4019e-06	373.49	176.74	91.08	43.37	6.3424e-06	86.562	0.0043385	0.0054339	0.0017615	560.2	6.005e-05	6.7788e-05	830.55	206.09	6.0156e-05	5.8898e-05	391.8	182.16	102.57	45.458	5.5837e-05	89.229	118.771	-10.750	11.547	-34.735	69.495	93.263	-34.919	-29.214	141.208	57.941	-30.978	-27.568	-26.527	-22.666	84.045	-24.061	-8191	255	
21722.072	1	1	0	0	0.11448	0.20418	0.25828	0.39026	0.041312	0.20529	0.31873	0.13919	0.084193	0.1572	0.19313	0.17436	0.10773	0.19397	0.20018	0.15154	-2.4292	-2.5333	-2.8375	-2.7438	-2.6375	-2.7229	-2.7146	-2.8	-2.7542	-2.4646	-3.0479	-2.7687	-2.5646	-2.9396	-2.5187	-2.6229	23.735	216.731	-10.795	-40.304	15.463	82.948	212.046	216.766	-26.380	57.397	13.354	258.691	65.997	-45.820	289.406	17.118	0.00039675	0.00080033	0.00033035	530.91	1.017e-05	1.205e-05	809.12	193.36	5.2673e-06	4.1872e-06	370.2	175.34	90.296	42.931	5.7161e-06	85.653	0.0044449	0.0053311	0.001784	559.85	5.8591e-05	6.8934e-05	827.09	203.38	6.1014e-05	5.7538e-05	387.18	180.52	101.01	45.032	5.5995e-05	88.24	114.136	56.190	51.373	-34.755	55.109	100.655	-34.995	-29.541	149.367	97.625	-31.122	-27.881	-26.714	-23.145	-24.523	-23.731	-8191	255	
21722.168	1	1	0	0	0.15681	0.047638	0.053277	0.067909	0.099666	0.037064	0.070527	0.14554	0.029308	0.27214	0.13223	0.26785	0.079167	0.21037	0.18776	0.22014	-2.1333	-2.5833	-2.7313	-2.6833	-2.4562	-2.8708	-2.4313	-2.7125	-2.85	-2.4396	-2.6646	-2.7521	-2.5521	-2.8458	-2.4583	-2.7208	78.511	-41.778	304.549	309.607	235.397	10.069	91.102	195.724	-39.964	-37.558	280.195	261.188	85.273	-32.190	128.259	270.007	0.000394	0.00037686	0.00036338	527.53	2.6489e-06	4.1839e-06	808.56	193.71	4.3516e-06	1.2189e-05	369.94	176.28	90.462	43.385	5.4715e-06	86.223	0.0045178	0.0052112	0.0017409	557.78	5.6166e-05	6.9338e-05	827.56	203.86	6.2333e-05	5.7294e-05	388.19	181.4	101.39	45.468	5.6174e-05	88.761	109.125	13.007	49.015	-34.469	138.403	112.571	-34.886	-29.581	84.698	53.911	-30.723	-27.795	-26.645	-22.877	156.356	-24.086	-8191	255	
21722.266	1	1	0	0	0.054201	0.14957	0.14206	0.12285	0.13616	0.069997	0.21864	0.031808	0.084232	0.019635	0.012642	0.11688	0.061286	0.06338	0.15832	0.29673	-2.4813	-2.5125	-2.7208	-2.5271	-2.4396	-2.9771	-2.5687	-2.6021	-2.7396	-2.525	-2.8375	-2.8167	-2.3937	-2.9896	-2.6292	-2.7146	163.192	46.244	286.459	-47.388	65.454	190.373	250.110	293.649	257.333	20.392	122.186	254.480	302.035	19.608	268.504	270.654	0.00040603	0.00023679	0.00031139	533.92	7.5423e-06	7.4975e-06	808.27	196.03	7.6603e-06	2.3913e-06	373.06	178.09	91.235	43.688	1.2163e-05	86.667	0.0045782	0.0051849	0.0016865	562.8	5.4428e-05	6.9184e-05	828.47	205.22	6.3104e-05	5.6369e-05	389.26	182.71	101.65	45.729	5.7025e-05	89.16	96.028	78.557	-9.227	-34.673	154.288	91.414	-34.769	-29.424	84.057	272.860	-31.050	-27.784	-26.862	-23.022	142.167	-24.155	-8191	255	
21722.361	1	1	0	0	0.049728	0.10869	0.17539	0.23896	0.14007	0.2228	0.1853	0.16388	0.089916	0.15322	0.023323	0.29534	0.39675	0.24145	0.061407	0.31097	-2.3792	-2.6188	-2.8	-2.8292	-2.4375	-2.8	-2.8312	-2.5438	-2.7938	-2.6292	-2.7938	-2.8604	-2.6479	-2.7125	-2.5958	-2.7792	210.236	158.921	175.538	192.558	188.469	245.193	174.227	203.188	-2.868	67.405	157.081	271.537	251.114	263.062	10.996	214.223	0.00039985	0.0012073	0.00034136	532.81	6.7181e-06	1.5954e-05	807.92	196.63	3.274e-06	1.1334e-05	373.28	179.31	91.655	44.002	7.0793e-06	87.631	0.0045558	0.0051138	0.0016196	564.06	5.3168e-05	6.7913e-05	833.89	205.4	6.382e-05	5.6964e-05	390.9	184.4	102.16	46.083	5.8442e-05	90.126	111.426	6.119	11.933	-34.662	67.771	96.767	-34.714	-29.750	248.865	72.598	-30.926	-27.881	-26.534	-22.764	123.590	-23.908	-8191	255	
21722.457	1	1	0	0	0.043949	0.14389	0.10181	0.15138	0.14959	0.041424	0.11654	0.069638	0.014103	0.15976	0.083929	0.18048	0.13804	0.16799	0.058337	0.25569	-2.6333	-2.6458	-2.8396	-2.5938	-2.3667	-2.8708	-2.7812	-2.5604	-2.9542	-2.5417	-2.6646	-2.7792	-2.5729	-2.6562	-2.625	-2.6021	232.041	62.412	120.830	125.150	-13.004	138.786	7.461	262.770	136.750	24.604	-37.225	220.837	112.365	290.223	32.705	223.490	0.00062667	0.0010308	0.00020886	532	1.0277e-05	1.5561e-05	815.99	197.82	7.8619e-06	6.4113e-06	376.51	179.38	92.236	43.961	4.5504e-06	87.135	0.0047288	0.0052486	0.0016037	566.71	5.3465e-05	6.7734e-05	837.12	206.4	6.5459e-05	5.8013e-05	392.18	184.82	101.97	46.009	6.049e-05	89.504	122.901	118.324	15.861	-34.734	145.006	154.142	-34.750	-29.791	35.039	119.396	-31.117	-27.738	-26.487	-22.806	101.126	-24.430	-8191	255	
21722.551	1	1	0	0	0.2152	0.2514	0.32925	0.078191	0.24298	0.15391	0.17468	0.17224	0.051792	0.39761	0.10674	0.29553	0.049626	0.025148	0.024134	0.11928	-2.3833	-2.5687	-2.5271	-2.9625	-2.5	-2.675	-2.7208	-2.5542	-2.7583	-2.6479	-2.7625	-2.8083	-2.4958	-2.8292	-2.6375	-2.6667	191.168	-35.657	47.692	9.731	94.377	75.810	51.319	-29.956	219.642	92.144	-34.094	312.141	114.897	140.703	57.301	226.742	0.00034167	0.00072452	0.00029281	534.76	2.193e-06	6.9647e-06	814.43	195.65	1.2247e-05	4.73e-06	373.22	178.04	91.851	43.584	2.3878e-06	86.39	0.0047103	0.0052715	0.001558	565.7	5.3752e-05	6.5628e-05	834.61	204.55	6.4008e-05	5.9824e-05	387.94	183.68	101.8	45.666	6.2034e-05	88.885	95.176	128.363	101.407	-34.778	107.883	37.281	-34.833	-29.583	142.670	96.800	-30.602	-27.712	-26.607	-22.811	183.787	-24.033	-8191	255	
21722.648	1	1	0	0	0.27451	0.40885	0.25864	0.34639	0.25302	0.1872	0.30442	0.1304	0.24734	0.12075	0.14633	0.28572	0.17148	0.32918	0.114	0.40916	-2.4833	-2.5167	-2.7042	-2.9646	-2.4854	-2.7604	-2.8708	-2.5771	-2.8917	-2.6854	-2.7083	-2.9146	-2.6271	-2.6521	-2.7313	-2.6083	229.764	189.665	276.220	291.710	209.917	277.350	250.677	-22.168	267.743	290.160	238.772	241.452	191.700	274.709	167.001	216.394	0.00050131	0.00068127	0.00033314	533.84	8.1615e-06	3.3735e-06	809.8	196.35	6.2182e-06	6.4649e-06	374.25	177.5	91.415	43.542	1.2422e-05	86.79	0.0047315	0.0054639	0.0015115	567.4	5.466e-05	6.5144e-05	836.32	204.56	6.4166e-05	6.1926e-05	388.77	183.5	102.02	45.652	6.3658e-05	89.083	114.450	35.579	8.560	-34.452	33.078	237.868	-34.815	-29.271	-15.560	129.787	-31.049	-27.909	-26.090	-23.180	108.047	-24.127	-8191	255	
21722.768	1	1	0	0	0.089797	0.37954	0.064108	0.037672	0.13428	0.1621	0.10063	0.10154	0.35132	0.26303	0.22145	0.30463	0.19565	0.16913	0.16462	0.23161	-2.2646	-2.4188	-2.5333	-2.7667	-2.3708	-2.6979	-2.8438	-2.5458	-2.8583	-2.8292	-2.5083	-3.1375	-2.6562	-2.6583	-3.0708	-2.7833	273.497	148.257	37.410	101.066	252.229	260.033	257.893	274.870	109.858	261.313	271.507	-38.520	242.837	256.303	-39.396	235.485	0.00021341	0.00031157	0.00017139	531.65	4.7044e-06	2.0771e-06	808.16	196.19	1.0111e-05	2.6716e-06	373.87	177.7	91.536	43.692	9.0828e-06	87.164	0.0046641	0.0056656	0.0014703	567.41	5.5249e-05	6.278e-05	835.5	204.29	6.2919e-05	6.2959e-05	387.87	183.64	101.9	45.535	6.4452e-05	89.436	128.314	39.597	113.645	-34.655	212.061	128.517	-34.849	-29.293	25.641	225.271	-30.735	-27.798	-26.335	-22.753	115.461	-24.028	-8191	255	
21722.863	1	1	0	0	0.1872	0.022868	0.13946	0.09554	0.31602	0.21667	0.098478	0.1748	0.20846	0.033571	0.097818	0.27166	0.38096	0.12657	0.1105	0.13919	-2.3792	-2.6375	-2.3979	-2.9583	-2.7833	-2.5	-2.8292	-2.4188	-2.8083	-2.7062	-2.7167	-2.9292	-2.6458	-2.6708	-2.8375	-2.5479	263.992	-9.250	228.179	286.521	280.568	276.640	309.680	148.063	5.772	302.168	310.887	208.355	260.960	-32.712	-42.813	240.389	0.00033333	0.00040793	0.00018098	533.68	1.0355e-05	1.1696e-05	816.2	197.02	4.5042e-06	4.7743e-06	374.32	179.16	91.294	43.891	1.3022e-06	87.657	0.0046105	0.0057778	0.0014466	567.72	5.7131e-05	6.1362e-05	841.58	205.1	6.2082e-05	6.5097e-05	390.12	184.94	102.99	45.784	6.5833e-05	90.108	116.277	-3.999	47.078	-34.744	91.654	107.271	-35.335	-29.153	-14.821	126.021	-31.054	-27.896	-26.624	-22.725	160.390	-24.124	-8191	255	
21722.961	1	1	0	0	0.08219	0.077075	0.19083	0.38684	0.27992	0.16877	0.049568	0.10984	0.27164	0.17841	0.13847	0.32401	0.064177	0.09442	0.22295	0.25533	-2.2417	-2.5938	-2.4021	-2.7917	-2.6333	-2.5812	-2.7729	-2.5771	-2.6208	-2.6688	-2.6292	-2.8063	-2.7229	-2.5021	-2.8771	-2.7708	310.388	58.572	61.854	292.157	118.896	-22.029	122.098	15.366	197.142	18.851	20.998	-22.323	304.149	-31.450	15.798	287.869	0.00052006	0.00053602	0.00034459	538.03	2.8529e-06	8.2895e-06	814.35	196.16	9.4836e-07	1.0374e-05	373.38	176.69	90.37	43.572	1.0527e-05	86.26	0.0044835	0.0059328	0.0014509	570.22	5.8657e-05	5.9387e-05	840.42	205.43	6.0559e-05	6.643e-05	387.44	182.91	102.4	45.262	6.6562e-05	88.631	121.218	0.747	62.193	-34.444	161.384	-11.984	-35.150	-29.798	264.869	83.284	-30.932	-27.892	-26.586	-22.652	73.520	-24.175	-8191	255	
21723.057	1	1	0	0	0.27088	0.1616	0.202	0.13739	0.16057	0.14215	0.3474	0.082265	0.32941	0.16489	0.16093	0.1683	0.29176	0.29313	0.39152	0.34109	-2.2479	-2.7583	-2.3854	-2.6813	-2.6271	-2.4313	-2.8292	-2.4917	-2.6896	-2.8979	-2.6604	-2.8708	-2.6083	-2.6458	-2.7958	-2.7833	-25.938	131.928	80.685	213.595	167.097	227.676	224.784	66.629	193.651	303.583	14.542	144.573	136.423	221.438	106.371	293.618	0.00027933	0.0010769	9.702e-05	534.86	1.7428e-06	8.3468e-06	808.24	196.33	5.1021e-06	4.9611e-06	371.37	176.88	90.574	43.633	1.0077e-05	86.77	0.0043504	0.0060772	0.001424	566.53	5.9918e-05	5.8019e-05	835.08	204.15	5.8251e-05	6.7351e-05	386.35	182.62	102.99	45.31	6.6927e-05	89.04	116.457	101.726	48.756	-34.452	161.987	156.773	-34.922	-29.143	72.715	99.625	-30.809	-27.939	-26.530	-22.967	11.028	-24.210	-8191	255	
21723.178	1	1	0	0	0.14021	0.063899	0.13399	0.20581	0.22298	0.15486	0.27985	0.07447	0.11165	0.23151	0.1431	0.18252	0.23738	0.16589	0.15127	0.33835	-2.1188	-2.8083	-2.5625	-2.7938	-2.5667	-2.7188	-2.8292	-2.6146	-2.5125	-2.9562	-2.6833	-2.7854	-2.8542	-2.5271	-2.9042	-2.8688	111.368	238.829	268.089	283.809	115.182	-45.711	180.993	79.952	259.257	-47.203	121.912	6.258	178.471	64.563	54.479	258.595	0.00032332	0.00076214	6.45e-05	533.38	1.0022e-05	5.6117e-06	813.74	195.62	6.3993e-06	5.0669e-06	372.65	176.39	90.753	43.837	3.5617e-06	87.06	0.0042723	0.0061752	0.0014581	565.76	6.1751e-05	5.7238e-05	837.61	204.58	5.7106e-05	6.9371e-05	386.53	182.28	103.04	45.392	6.6691e-05	89.539	104.842	36.370	271.319	-34.754	65.207	104.239	-35.006	-29.492	-21.323	192.966	-30.965	-27.524	-26.729	-23.010	246.038	-24.309	-8191	255	
21723.248	1	1	0	0	0.28667	0.13756	0.030753	0.13573	0.048334	0.17453	0.17137	0.029558	0.12325	0.35711	0.26801	0.062923	0.15768	0.18733	0.088023	0.1866	-2.0812	-2.9271	-2.5146	-2.5958	-2.9042	-2.6167	-3.0521	-2.6896	-2.5042	-2.8604	-2.6854	-2.7792	-2.7583	-2.5646	-2.7229	-2.8708	295.538	16.438	256.344	192.791	-1.186	193.670	-32.903	46.869	141.302	269.379	218.868	100.490	-20.443	-10.987	44.626	252.915	0.0004952	0.0010149	7.5553e-05	531.87	4.4313e-06	5.451e-06	812.14	196.54	5.4223e-06	6.4667e-06	370.99	178.19	91.686	43.971	8.6768e-06	87.478	0.0041187	0.0063227	0.0014823	564.66	6.2449e-05	5.7237e-05	836.78	205.31	5.5668e-05	6.9698e-05	386.77	183.49	104.21	45.654	6.5235e-05	90.169	125.044	-13.435	241.024	-34.844	116.409	85.839	-34.842	-29.482	122.237	130.640	-30.875	-27.818	-26.524	-22.849	-12.889	-24.233	-8191	255	
21723.369	1	1	0	0	0.059181	0.05944	0.29018	0.14572	0.20749	0.167	0.05349	0.079399	0.14578	0.21261	0.26584	0.12248	0.31414	0.17621	0.025886	0.37305	-2.0833	-2.9167	-2.3375	-2.6229	-2.8104	-2.6792	-3.0187	-2.7333	-2.4646	-2.7938	-2.6646	-2.7854	-2.9396	-2.5729	-2.9292	-3.0292	19.377	219.313	52.823	-17.039	-14.301	136.090	174.422	-10.525	138.354	238.685	19.873	279.033	271.527	105.984	131.868	202.070	0.00038042	0.00076881	0.00028114	531.57	8.2512e-06	3.2897e-06	815.78	196.75	5.2546e-06	1.3454e-05	373.58	179.63	92.086	44.085	8.7362e-06	87.305	0.0040176	0.0062935	0.001513	563.18	6.3798e-05	5.6695e-05	839.21	206.53	5.3224e-05	6.7178e-05	390.41	184.09	104.33	45.751	6.2445e-05	90.12	121.549	-14.501	50.367	-34.617	118.371	184.443	-34.945	-29.520	37.673	131.061	-31.013	-27.750	-26.908	-22.757	96.956	-24.240	-8191	255	
21723.465	1	1	0	0	0.15057	0.087259	0.063457	0.090278	0.15036	0.083236	0.088609	0.13206	0.062457	0.47583	0.37003	0.22988	0.15271	0.040668	0.21469	0.18447	-2.0271	-2.6604	-2.6979	-2.6875	-2.7875	-2.7562	-2.8792	-2.9042	-2.4583	-2.9458	-2.7729	-2.7125	-2.8771	-2.8979	-2.7979	-2.975	0.921	-21.899	212.604	17.288	301.827	145.687	84.590	252.871	190.218	221.318	304.334	226.859	275.660	88.477	178.085	241.034	0.0003965	3.186e-05	0.00031831	530.6	4.7404e-06	6.642e-06	814.12	195.57	7.1832e-06	6.427e-06	371.34	176.8	90.536	43.462	4.7727e-06	86.507	0.0038318	0.0060644	0.0015059	558.93	6.2574e-05	5.6242e-05	834.94	204.94	5.1969e-05	6.6974e-05	387.23	181.8	103.38	45.239	6.1214e-05	89.147	115.397	306.460	32.778	-34.967	73.878	96.989	-34.518	-29.429	83.654	105.326	-30.994	-27.707	-26.478	-22.826	40.209	-24.112	-8191	255	
21723.561	1	1	0	0	0.17335	0.19117	0.092393	0.10316	0.24368	0.031482	0.12775	0.063096	0.23518	0.18717	0.087954	0.1977	0.064574	0.18013	0.15031	0.21048	-2.1146	-2.7208	-2.5333	-2.7104	-2.8646	-2.7917	-2.8229	-2.9437	-2.4062	-2.9146	-2.75	-2.6021	-2.8146	-2.7521	-2.6437	-2.9708	236.478	-25.632	57.806	-16.094	-26.485	-16.235	-38.455	249.790	90.668	245.235	57.269	219.310	6.945	299.749	-29.492	207.714	0.00037517	0.0010817	0.0002677	531.79	1.1492e-05	1.3452e-06	812.4	195.81	5.2717e-06	6.0565e-06	375.32	178.93	91.313	44.014	7.444e-06	86.981	0.0038352	0.006082	0.0015656	559.33	6.343e-05	5.8508e-05	833.16	205.81	5.171e-05	6.612e-05	389.31	182.95	104.18	45.689	5.8876e-05	89.813	119.527	64.719	142.403	-34.519	116.347	267.776	-34.786	-29.288	168.357	36.301	-30.565	-27.772	-26.784	-22.857	38.603	-24.178	-8191	255	
21723.656	1	1	0	0	0.10276	0.23874	0.29576	0.16245	0.24586	0.25373	0.12883	0.26314	0.33714	0.14869	0.15051	0.19105	0.14121	0.11068	0.22815	0.079904	-2.1396	-2.8875	-2.8021	-2.5958	-2.9104	-2.5542	-2.7479	-3.0062	-2.5563	-2.7833	-2.8563	-2.6813	-3.0417	-2.6854	-2.5896	-3.0146	175.010	34.085	110.845	311.349	276.003	-33.016	231.885	290.193	188.174	247.326	116.673	256.728	227.904	213.017	305.410	271.102	0.00048016	0.00051973	0.00018133	530.83	4.8956e-06	3.9687e-06	817.1	196.45	8.2374e-06	1.2044e-05	373.57	179.2	92.134	43.862	7.7527e-06	87.501	0.0038965	0.0060159	0.001597	559.59	6.4911e-05	6.0404e-05	834.21	206.91	5.4039e-05	6.7126e-05	390.55	183.28	104.68	45.77	5.8585e-05	90.427	111.582	-16.852	35.912	-34.189	111.481	204.429	-34.837	-29.220	88.802	46.023	-30.500	-27.705	-27.189	-22.636	127.632	-24.126	-8191	255	
21723.752	1	1	0	0	0.059479	0.068327	0.32132	0.25182	0.076952	0.10451	0.14546	0.44794	0.10411	0.14418	0.043249	0.25687	0.28267	0.065842	0.18614	0.026833	-2.2104	-2.6542	-2.8208	-2.5687	-2.8417	-2.6188	-2.6521	-2.8896	-2.575	-2.7875	-2.9083	-2.7333	-2.7687	-2.7479	-2.5146	-3.1229	48.836	144.604	293.061	183.249	26.950	203.849	190.011	-31.702	286.296	304.071	244.573	289.993	186.864	-27.220	242.715	-47.294	0.00056085	0.00034528	0.00021975	535.58	7.2165e-06	3.2404e-06	818.52	199.69	3.8971e-06	1.2901e-06	375.13	180.03	92.234	43.796	7.2696e-06	87.488	0.0040487	0.005988	0.0016695	562.95	6.5994e-05	6.3619e-05	836.52	209.7	5.6802e-05	6.7547e-05	394.71	184.44	105.54	45.969	5.9792e-05	90.368	109.375	299.495	103.399	-34.896	74.880	135.441	-34.781	-29.424	76.559	188.906	-30.857	-27.741	-26.410	-23.080	70.675	-24.070	-8191	255	
21723.848	1	1	0	0	0.38855	0.01957	0.015632	0.10426	0.083075	0.17531	0.087077	0.25594	0.24883	0.17379	0.28447	0.29528	0.26171	0.1049	0.079609	0.43219	-2.2021	-2.8312	-2.8771	-2.4917	-2.9313	-2.7833	-2.7354	-2.9688	-2.6708	-2.6042	-3.0438	-2.6979	-2.7229	-2.7854	-2.6396	-2.9333	6.784	187.169	255.422	143.364	280.704	222.633	170.723	224.689	5.958	252.429	-33.049	255.053	122.615	302.583	309.089	258.666	0.00050563	0.00033445	0.00013614	534.89	1.0502e-05	7.4356e-06	818.98	198.82	1.0775e-05	5.6668e-06	379.23	180.51	93.658	44.254	9.9151e-06	87.638	0.0043781	0.0060937	0.0018053	564.09	6.9181e-05	6.7731e-05	836.39	209.99	6.0868e-05	6.6383e-05	397.39	185.31	106.19	46.297	5.7653e-05	90.934	120.381	32.972	-16.482	-34.632	51.901	96.839	-34.943	-29.441	131.150	80.720	-30.784	-27.757	-26.586	-22.954	95.989	-24.445	-8191	255	
21723.945	1	1	0	0	0.15644	0.093303	0.12607	0.075046	0.086612	0.22655	0.31764	0.13187	0.15226	0.24633	0.24188	0.18777	0.080482	0.07617	0.12815	0.16263	-2.2354	-2.5583	-2.8833	-2.5021	-2.8187	-2.6625	-2.7396	-2.6688	-2.4854	-2.6646	-2.9688	-2.6833	-2.7062	-2.7	-2.5333	-2.9188	19.587	123.148	268.757	50.506	8.414	-40.375	263.359	-11.295	150.252	27.700	16.179	269.342	45.758	280.735	194.427	1.355	0.0005798	0.000503	0.00013006	539.55	8.822e-06	8.0376e-06	822.68	200.79	6.7772e-06	6.3327e-06	379.84	181.99	93.963	44.448	9.34e-06	88.426	0.0045268	0.0058967	0.0018425	566.46	6.8033e-05	6.9747e-05	841.12	211.37	6.2621e-05	6.4516e-05	400.44	187.27	106.82	46.707	5.8585e-05	91.972	101.560	46.437	81.021	-34.210	78.244	86.248	-34.767	-29.378	67.617	74.694	-31.038	-27.757	-26.509	-22.888	92.669	-24.237	-8191	255	
21724.041	1	1	0	0	0.03636	0.12094	0.16374	0.15377	0.10689	0.16386	0.22622	0.13608	0.34125	0.061028	0.23895	0.13755	0.14371	0.15103	0.15395	0.40261	-2.0521	-2.4875	-2.7917	-2.6479	-2.8312	-3.025	-2.4625	-2.7562	-2.7958	-2.6104	-2.9333	-2.775	-2.5812	-2.9062	-2.4125	-2.8292	55.355	73.917	255.950	189.557	161.109	289.735	249.682	233.843	150.852	143.458	273.572	299.532	-25.828	263.605	157.196	205.018	0.00027923	0.001133	0.00019391	539.94	1.0253e-05	2.6332e-06	830.95	202.88	6.1802e-06	1.1555e-05	387.34	184.32	93.716	44.994	1.7374e-06	89.997	0.0046092	0.0057465	0.0018605	570.64	6.5621e-05	7.1413e-05	848.28	213.59	6.407e-05	6.3029e-05	405.39	189.59	106.9	47.274	5.826e-05	92.838	111.741	-7.407	-3.651	-34.561	57.962	181.319	-34.830	-29.394	145.399	166.163	-31.011	-27.798	-26.318	-23.094	41.444	-24.293	-8191	255	
21724.137	1	1	0	0	0.010453	0.11919	0.23494	0.047368	0.18771	0.055735	0.094002	0.11662	0.068232	0.10955	0.20695	0.33625	0.12543	0.30041	0.17685	0.15204	-2.1396	-2.6521	-2.9188	-2.6542	-2.6312	-2.8354	-2.8271	-2.7188	-2.6729	-2.5708	-3.0312	-2.7396	-2.5729	-2.875	-2.5729	-2.8583	146.959	236.980	100.568	256.946	277.878	52.778	282.891	211.761	251.580	42.653	-38.449	224.437	256.974	307.569	49.407	256.378	0.00047557	0.00061854	0.00017924	539.14	1.1889e-05	1.8176e-05	830.47	202.5	1.0882e-05	5.9259e-06	387.64	184.89	95.05	45.247	4.6756e-06	89.87	0.0046602	0.0055735	0.001882	573.11	6.2609e-05	7.1831e-05	851.21	214.04	6.4039e-05	6.0451e-05	407.4	190.51	106.94	47.486	5.9733e-05	93.218	113.378	60.928	84.640	-34.195	41.784	114.365	-34.921	-29.414	127.431	87.683	-30.547	-27.843	-26.456	-22.676	63.558	-23.985	-8191	255	
21724.258	1	1	0	0	0.14128	0.26165	0.19701	0.17057	0.057049	0.10018	0.28001	0.12945	0.16046	0.13621	0.20654	0.11512	0.15629	0.17167	0.15286	0.095525	-2.3271	-2.4021	-2.7062	-2.8146	-2.5458	-3.1271	-2.7708	-2.7958	-2.7375	-2.5938	-2.8625	-2.7667	-2.7271	-2.8521	-2.7438	-2.8458	208.132	4.423	157.453	240.407	93.503	290.861	-9.630	293.541	145.629	-45.383	-8.912	262.441	141.822	45.100	258.683	286.484	0.00048543	0.00033232	0.00023756	542.62	5.3357e-06	1.9697e-06	831.36	204.01	6.3625e-06	5.7355e-06	388.07	185.1	95.138	45.394	6.207e-06	91.571	0.004814	0.0055374	0.0019054	577.73	6.2386e-05	7.4721e-05	854.42	214.39	6.7644e-05	6.2648e-05	409.68	191.69	107.36	47.971	6.3198e-05	94.328	113.707	-4.388	113.483	-34.433	98.189	239.846	-34.828	-29.588	204.899	85.353	-31.063	-27.679	-26.576	-22.922	118.182	-24.096	-8191	255	
21724.354	1	1	0	0	0.11137	0.24498	0.18508	0.1661	0.19815	0.16954	0.13723	0.28786	0.075708	0.16081	0.079598	0.28142	0.17324	0.26392	0.20646	0.50973	-2.2229	-2.4479	-2.7062	-2.7979	-2.2708	-2.8688	-2.7458	-2.7542	-2.7521	-2.6437	-2.7958	-2.8167	-2.4854	-2.8708	-2.5125	-2.5583	84.842	34.135	59.604	177.820	204.683	295.995	-6.855	260.300	-15.417	115.813	187.560	278.788	-23.134	256.425	77.343	252.676	0.00070874	0.00030124	0.00013815	542.3	1.0742e-05	7.6588e-06	829.65	202.76	3.0959e-06	4.0325e-06	388.19	185.2	94.829	45.659	1.015e-05	91.081	0.0051178	0.0057702	0.0019548	579.58	6.217e-05	7.9605e-05	854.69	213.44	7.1022e-05	6.437e-05	408.36	191.66	107.18	48.073	6.6034e-05	94.153	109.056	20.247	1.098	-34.250	85.203	99.028	-35.120	-29.831	48.263	4.890	-31.092	-27.881	-26.866	-22.882	87.904	-24.274	-8191	255	
21724.449	1	1	0	0	0.21523	0.13722	0.091792	0.036092	0.22241	0.076964	0.31903	0.13881	0.10112	0.07921	0.25955	0.13133	0.10522	0.504	0.19121	0.41199	-2.4854	-2.5729	-2.6646	-2.7146	-2.4979	-2.7417	-2.625	-2.7687	-2.9	-2.5187	-2.8729	-2.8688	-2.4854	-2.7521	-2.5583	-2.6771	299.670	213.162	194.830	310.700	43.156	69.415	228.041	236.458	196.342	64.935	245.595	311.564	-27.827	274.848	212.818	285.869	0.00063336	0.00042252	0.00021896	541.66	4.0102e-06	5.6919e-06	828.19	203.5	2.2866e-06	5.5182e-06	384.17	185.82	95.961	46.06	7.0731e-07	92.156	0.0052125	0.005889	0.0019726	579.95	6.1362e-05	7.9952e-05	856.43	213.92	7.3814e-05	6.639e-05	407.48	192.57	108.09	48.547	6.8607e-05	94.986	102.931	101.792	25.045	-34.564	273.385	171.108	-34.879	-29.454	100.308	166.662	-31.103	-27.550	-26.407	-22.958	19.767	-24.106	-8191	255	
21724.545	1	1	0	0	0.11245	0.11589	0.038825	0.17882	0.14427	0.33725	0.25676	0.28562	0.10743	0.16705	0.27285	0.1646	0.12619	0.18066	0.034954	0.23409	-2.6	-2.4771	-2.9208	-2.9458	-2.3771	-2.85	-2.6792	-2.6417	-2.9375	-2.4896	-2.7417	-2.85	-2.4562	-2.9167	-2.5208	-2.6854	220.481	41.408	271.885	118.327	211.900	39.615	172.068	-31.034	175.399	95.100	27.036	187.972	43.778	-39.044	259.777	-11.636	0.00043594	0.00062207	0.00019312	547.33	4.5623e-06	3.0309e-06	832.63	203.37	1.2349e-05	7.3317e-06	387.91	185.7	95.476	46.252	2.259e-06	92.216	0.0054411	0.0061372	0.0019295	583.16	6.233e-05	8.277e-05	858.04	213.49	7.6974e-05	7.0284e-05	408.3	192.62	107.94	48.736	7.2238e-05	95.072	110.523	133.530	37.945	-34.509	57.343	24.342	-34.704	-29.684	110.086	62.190	-30.894	-27.962	-27.089	-22.934	91.802	-24.136	-8191	255	
21724.641	1	1	0	0	0.15793	0.19193	0.15201	0.16785	0.19203	0.072644	0.068072	0.06574	0.10457	0.069422	0.090156	0.21109	0.096703	0.18437	0.34551	0.066389	-2.3063	-2.5854	-2.6229	-2.9729	-2.55	-2.7333	-2.8729	-2.8146	-2.8375	-2.5833	-2.7167	-2.8333	-2.5625	-2.6521	-2.6625	-2.7333	307.747	162.789	-45.425	251.703	249.944	59.920	212.603	209.120	304.926	64.745	-38.688	233.965	269.018	263.051	231.600	199.776	0.00042386	0.0017711	0.00021832	539.63	1.2139e-05	8.1834e-06	828.9	202.78	1.4231e-05	6.2365e-06	386.74	185.99	95.768	46.155	6.6208e-06	92.306	0.0056639	0.0065097	0.0018928	581.98	6.3098e-05	8.1479e-05	857.14	212.39	7.6925e-05	7.0703e-05	406.23	192.73	107.91	48.686	7.2297e-05	95.392	117.272	42.538	27.882	-34.436	139.797	121.864	-35.028	-29.468	183.639	13.562	-30.990	-27.762	-27.077	-23.136	207.257	-24.069	-8191	255	
21724.736	1	1	0	0	0.15643	0.041579	0.03773	0.19755	0.04048	0.22329	0.22085	0.045962	0.038015	0.089007	0.14773	0.25306	0.11499	0.028322	0.32384	0.22359	-2.4292	-2.5812	-2.4958	-2.9875	-2.6042	-2.8625	-2.8104	-2.3688	-3.0042	-2.6958	-2.725	-3.0896	-2.7021	-2.8354	-2.7625	-2.7292	-37.228	46.445	-0.411	-28.562	-40.547	119.317	231.041	214.926	-37.685	292.289	130.973	254.370	111.994	1.896	71.989	214.846	0.0006408	0.00096408	0.00017996	543.9	3.0924e-06	6.614e-06	829.49	203.45	8.8529e-06	3.6496e-06	385.67	186.21	95.474	46.381	3.2349e-06	92.275	0.00558	0.0063749	0.001789	583.19	6.3047e-05	7.8135e-05	859.08	212.72	7.6013e-05	7.1753e-05	405.05	192.97	107.87	48.551	7.1892e-05	94.859	112.889	-17.942	26.600	-34.787	80.444	2.776	-34.639	-29.527	111.725	101.540	-30.734	-27.741	-26.958	-23.037	125.555	-23.998	-8191	255	
21724.857	1	1	0	0	0.14063	0.1791	0.18323	0.18316	0.13542	0.041094	0.1171	0.063523	0.12127	0.34328	0.038941	0.44189	0.046924	0.2252	0.036116	0.24151	-2.2687	-2.7333	-2.5458	-2.8042	-2.4729	-2.8125	-2.8271	-2.6396	-2.8125	-2.6729	-2.5792	-2.9792	-2.5146	-2.6771	-2.7687	-2.6458	-2.216	141.679	74.759	21.221	266.154	166.747	106.533	165.106	149.202	203.736	171.100	263.449	96.084	243.219	200.659	209.420	0.00046343	0.00019676	0.00039243	539.15	8.3181e-06	1.3114e-05	826.12	201.82	4.8779e-06	1.4778e-05	386.25	184.77	94.226	45.817	8.3303e-06	91.053	0.0054406	0.0064248	0.0016799	581.99	6.3132e-05	7.3126e-05	857.23	211.75	7.4048e-05	7.1407e-05	402.37	191.77	107.47	47.876	7.2198e-05	93.663	125.046	110.204	65.084	-34.649	89.135	83.584	-34.641	-29.462	27.854	122.554	-30.569	-27.898	-26.351	-23.196	109.463	-23.906	-8191	255	
21724.953	1	1	0	0	0.25795	0.53007	0.13527	0.3401	0.20798	0.22751	0.13596	0.36493	0.24373	0.14191	0.14877	0.20177	0.04717	0.14072	0.12627	0.14965	-2.4188	-2.6896	-2.5792	-2.875	-2.5563	-2.6354	-2.9792	-2.6333	-2.725	-2.6042	-2.5229	-3.0104	-2.7	-2.5896	-2.9542	-2.8083	81.085	132.343	261.011	234.515	268.370	99.207	-36.937	188.879	258.845	31.441	212.767	286.583	98.576	193.940	162.097	-22.527	0.00044968	0.00028066	6.4631e-05	545.32	7.2121e-06	8.6944e-06	825.15	200.78	3.9364e-06	9.1078e-06	385.91	184.09	94.912	45.711	5.1574e-06	90.579	0.0053904	0.0065097	0.0016144	583.7	6.4856e-05	7.0704e-05	857.44	211.55	7.2639e-05	7.3169e-05	401.61	191.35	107.62	47.765	7.4526e-05	93.494	116.176	22.330	43.695	-34.210	74.385	87.772	-34.803	-29.587	58.500	1.968	-30.892	-27.854	-26.648	-22.814	148.210	-24.084	-8191	255	
21725.049	1	1	0	0	0.23295	0.18471	0.23858	0.17566	0.30356	0.14814	0.16529	0.079189	0.095204	0.2769	0.12332	0.032967	0.10041	0.28408	0.18437	0.20605	-2.3604	-2.6771	-2.5667	-2.85	-2.4979	-2.5062	-2.875	-2.6583	-2.7083	-2.7896	-2.6688	-2.9167	-2.5833	-2.6667	-2.8771	-2.6625	223.512	290.157	69.853	274.460	233.028	100.529	207.039	-26.975	115.466	157.468	167.399	57.320	93.870	193.977	186.153	248.077	0.00045142	0.00059845	0.0002276	539.72	4.4025e-06	3.2679e-06	826.68	201.66	9.3684e-06	1.1186e-05	385.19	183.86	94.163	45.353	7.6864e-06	90.273	0.0052484	0.00665	0.0016292	583.56	6.627e-05	6.906e-05	857.94	211.12	7.1344e-05	7.5253e-05	400.56	190.6	107.23	47.3	7.6611e-05	93.287	104.460	24.322	82.509	-34.443	82.644	18.145	-34.748	-29.652	188.758	101.180	-30.801	-27.814	-26.935	-22.838	138.492	-24.230	-8191	255	
21725.146	1	1	0	0	0.0080087	0.14481	0.30441	0.16909	0.21972	0.22767	0.13001	0.15902	0.18173	0.063057	0.14515	0.16929	0.24145	0.38223	0.16927	0.087928	-2.2229	-2.6917	-2.5146	-2.9542	-2.8125	-2.4646	-2.9167	-2.6042	-2.6479	-2.8	-2.4146	-3.0875	-2.7458	-2.6771	-2.9167	-2.8458	170.066	35.200	95.199	308.483	159.630	148.443	-21.945	228.054	182.409	244.095	225.511	302.217	106.681	-46.551	103.119	288.574	0.00043377	0.00045848	0.00011308	539.89	1.0429e-05	7.4128e-06	827.62	201.6	9.4552e-06	7.678e-06	382.53	183.66	93.375	45.188	1.0381e-05	90.329	0.0051073	0.0068294	0.0016591	581.28	6.9536e-05	6.7223e-05	858.69	211.64	6.9683e-05	7.802e-05	401.92	191.04	107.95	47.275	7.9048e-05	93.287	126.340	123.867	14.017	-34.346	89.057	62.640	-35.051	-29.578	36.534	109.652	-30.665	-27.824	-26.278	-22.997	133.393	-24.259	-8191	255	
#DATA ENDS
