BOXY.EXE: ISS Imagent and Oximeter Data Acquisition Program Version 0.80
Ascii Record File

#ACQ INFORMATION
2  Detector Channels 
16  External MUX Channels 
1  Auxiliary Channels 
5000  Waveform (CCF) Frequency (Hz)
1  Waveforms Skipped 
30  Waveforms Averaged 
1  Cycles Averaged 
16  Acquisitions per Waveform 
10.0806  Updata Rate (Hz) 

#FILE INFORMATION
TRUE -- External MUX Channel results are PARSED.
FALSE -- AC DC and Phase are NOT grouped.
TRUE -- Companion Program Settings File CREATED.
FALSE -- AC data not excluded
FALSE -- DC data not excluded
FALSE -- Phase data not excluded
FALSE -- Auxillary Chn. data not excluded
Tab delimiters

#CALIBRATION STATE
TRUE -- Waveform Calibration Values APPLIED.


#AUX CALIBRATION VALUES
Val Type	aux-1	

Term	1.0000e+00	
Factor	0.0000e+00	


#WF CALIBRATION VALUES
A = Detector Channel
Val Type	A-AC1	A-AC2	A-AC3	A-AC4	A-AC5	A-AC6	A-AC7	A-AC8	A-AC9	A-AC10	A-AC11	A-AC12	A-AC13	A-AC14	A-AC15	A-AC16	A-DC1	A-DC2	A-DC3	A-DC4	A-DC5	A-DC6	A-DC7	A-DC8	A-DC9	A-DC10	A-DC11	A-DC12	A-DC13	A-DC14	A-DC15	A-DC16	A-Ph1	A-Ph2	A-Ph3	A-Ph4	A-Ph5	A-Ph6	A-Ph7	A-Ph8	A-Ph9	A-Ph10	A-Ph11	A-Ph12	A-Ph13	A-Ph14	A-Ph15	A-Ph16	

Term	0.00000e+00	0.00000e+00	0.00000e+00	0.00000e+00	0.00000e+00	0.00000e+00	0.00000e+00	0.00000e+00	0.00000e+00	0.00000e+00	0.00000e+00	0.00000e+00	0.00000e+00	0.00000e+00	0.00000e+00	0.00000e+00	0.00000e+00	0.00000e+00	0.00000e+00	0.00000e+00	0.00000e+00	0.00000e+00	0.00000e+00	0.00000e+00	0.00000e+00	0.00000e+00	0.00000e+00	0.00000e+00	0.00000e+00	0.00000e+00	0.00000e+00	0.00000e+00	0.00000e+00	0.00000e+00	0.00000e+00	0.00000e+00	0.00000e+00	0.00000e+00	0.00000e+00	0.00000e+00	0.00000e+00	0.00000e+00	0.00000e+00	0.00000e+00	0.00000e+00	0.00000e+00	0.00000e+00	0.00000e+00	
Factor	1.00000e+00	1.00000e+00	1.00000e+00	1.00000e+00	1.00000e+00	1.00000e+00	1.00000e+00	1.00000e+00	1.00000e+00	1.00000e+00	1.00000e+00	1.00000e+00	1.00000e+00	1.00000e+00	1.00000e+00	1.00000e+00	1.00000e+00	1.00000e+00	1.00000e+00	1.00000e+00	1.00000e+00	1.00000e+00	1.00000e+00	1.00000e+00	1.00000e+00	1.00000e+00	1.00000e+00	1.00000e+00	1.00000e+00	1.00000e+00	1.00000e+00	1.00000e+00	X	X	X	X	X	X	X	X	X	X	X	X	X	X	X	X	

B = Detector Channel
Val Type	B-AC1	B-AC2	B-AC3	B-AC4	B-AC5	B-AC6	B-AC7	B-AC8	B-AC9	B-AC10	B-AC11	B-AC12	B-AC13	B-AC14	B-AC15	B-AC16	B-DC1	B-DC2	B-DC3	B-DC4	B-DC5	B-DC6	B-DC7	B-DC8	B-DC9	B-DC10	B-DC11	B-DC12	B-DC13	B-DC14	B-DC15	B-DC16	B-Ph1	B-Ph2	B-Ph3	B-Ph4	B-Ph5	B-Ph6	B-Ph7	B-Ph8	B-Ph9	B-Ph10	B-Ph11	B-Ph12	B-Ph13	B-Ph14	B-Ph15	B-Ph16	

Term	0.00000e+00	0.00000e+00	0.00000e+00	0.00000e+00	0.00000e+00	0.00000e+00	0.00000e+00	0.00000e+00	0.00000e+00	0.00000e+00	0.00000e+00	0.00000e+00	0.00000e+00	0.00000e+00	0.00000e+00	0.00000e+00	0.00000e+00	0.00000e+00	0.00000e+00	0.00000e+00	0.00000e+00	0.00000e+00	0.00000e+00	0.00000e+00	0.00000e+00	0.00000e+00	0.00000e+00	0.00000e+00	0.00000e+00	0.00000e+00	0.00000e+00	0.00000e+00	-1.70999e+02	-1.26624e+02	-1.31946e+02	-1.81681e+02	-8.38430e+01	-6.15144e+01	-1.55768e+02	-1.62015e+02	-8.17298e+01	-6.09818e+01	-1.73366e+02	-1.70201e+02	-1.85495e+02	-1.76578e+02	-7.50407e+01	-1.48946e+02	
Factor	2.98320e-05	1.70198e-04	4.81572e-05	1.97322e-01	1.68102e-06	1.85928e-06	1.81490e-01	5.63415e-02	1.68352e-06	1.92753e-06	1.03880e-01	3.00027e-02	5.63894e-02	9.68439e-03	1.64368e-06	1.34226e-02	1.04390e-05	1.42882e-05	3.99355e-06	1.02381e-01	1.49160e-07	1.58564e-07	8.84142e-02	2.93229e-02	1.48249e-07	1.58193e-07	5.25074e-02	1.52244e-02	2.95252e-02	5.08567e-03	1.51927e-07	6.84643e-03	X	X	X	X	X	X	X	X	X	X	X	X	X	X	X	X	



#DISTANCE SETTINGS
A = Detector Channel
A-1	A-2	A-3	A-4	A-5	A-6	A-7	A-8	A-9	A-10	A-11	A-12	A-13	A-14	A-15	A-16	

2.5000e+00	3.0000e+00	2.5000e+00	3.0000e+00	2.0000e+00	3.0000e+00	1.5000e+00	3.0000e+00	3.0000e+00	3.0000e+00	3.0000e+00	3.0000e+00	3.0000e+00	3.0000e+00	1.5000e+00	3.0000e+00	

B = Detector Channel
B-1	B-2	B-3	B-4	B-5	B-6	B-7	B-8	B-9	B-10	B-11	B-12	B-13	B-14	B-15	B-16	

1.0000e+01	1.0000e+01	1.0000e+01	1.4400e+00	1.0000e+01	1.0000e+01	1.5100e+00	1.9400e+00	1.0000e+01	1.0000e+01	1.9900e+00	2.4900e+00	2.4100e+00	2.9000e+00	1.0000e+01	2.9800e+00	




#DATA BEGINS
time	group	step	mark	flag	A-AC1	A-AC2	A-AC3	A-AC4	A-AC5	A-AC6	A-AC7	A-AC8	A-AC9	A-AC10	A-AC11	A-AC12	A-AC13	A-AC14	A-AC15	A-AC16	A-DC1	A-DC2	A-DC3	A-DC4	A-DC5	A-DC6	A-DC7	A-DC8	A-DC9	A-DC10	A-DC11	A-DC12	A-DC13	A-DC14	A-DC15	A-DC16	A-Ph1	A-Ph2	A-Ph3	A-Ph4	A-Ph5	A-Ph6	A-Ph7	A-Ph8	A-Ph9	A-Ph10	A-Ph11	A-Ph12	A-Ph13	A-Ph14	A-Ph15	A-Ph16	B-AC1	B-AC2	B-AC3	B-AC4	B-AC5	B-AC6	B-AC7	B-AC8	B-AC9	B-AC10	B-AC11	B-AC12	B-AC13	B-AC14	B-AC15	B-AC16	B-DC1	B-DC2	B-DC3	B-DC4	B-DC5	B-DC6	B-DC7	B-DC8	B-DC9	B-DC10	B-DC11	B-DC12	B-DC13	B-DC14	B-DC15	B-DC16	B-Ph1	B-Ph2	B-Ph3	B-Ph4	B-Ph5	B-Ph6	B-Ph7	B-Ph8	B-Ph9	B-Ph10	B-Ph11	B-Ph12	B-Ph13	B-Ph14	B-Ph15	B-Ph16	aux-1	digaux	

21934.053	1	1	0	768	0.17673	0.13757	0.16517	0.2102	0.14344	0.20394	0.26404	0.31318	0.14382	0.044827	0.20897	0.17631	0.19388	0.20075	0.25912	0.22457	-2.2667	-2.6	-2.8021	-2.6813	-2.5167	-3	-2.7771	-2.9437	-2.8937	-2.8438	-2.8625	-2.8458	-2.5375	-2.9896	-2.6937	-3.0292	269.772	172.732	-70.192	212.348	4.420	277.447	280.685	190.397	102.871	117.320	190.152	184.385	62.866	220.842	-26.793	253.022	0.00059769	0.00093146	5.5298e-05	450.17	1.3392e-05	7.091e-06	673.74	184.97	2.4153e-05	1.1077e-05	335.22	151.42	79.945	35.662	1.1485e-05	73.872	0.035954	0.046112	0.013866	810.83	0.00049641	0.00055133	991.83	295.1	0.00051097	0.00051227	532.5	212.04	181.93	55.306	0.00049911	101.37	124.575	14.387	207.049	-61.157	-19.967	-28.956	-61.305	-57.728	133.094	101.197	-58.887	-55.919	-55.470	-51.949	85.298	-52.787	-8191	255	
21934.148	1	1	0	0	0.10459	0.16214	0.20185	0.10561	0.15227	0.1006	0.21181	0.2095	0.11774	0.039767	0.061245	0.22987	0.11214	0.11426	0.21252	0.19637	-2.4208	-2.5167	-2.8375	-2.7979	-2.475	-2.9625	-2.8271	-2.7062	-2.9188	-2.5146	-3.0687	-3.0375	-2.4417	-3.0563	-2.6479	-2.9271	207.552	261.759	74.342	156.373	7.703	271.089	229.191	276.152	-51.178	-70.531	209.581	217.988	223.629	30.303	168.793	-62.381	0.00039456	0.00088259	0.00024563	446.83	1.681e-05	2.7001e-05	676.01	186.74	1.1772e-05	5.6084e-06	334.31	151.89	78.933	35.785	3.0874e-06	73.761	0.036346	0.045909	0.013894	812.7	0.0004904	0.00054673	994.02	293.33	0.00051125	0.00050981	531.34	212.44	179.94	55.373	0.00050401	101.16	145.089	247.369	183.528	-61.157	97.264	76.014	-61.548	-58.226	-70.672	-62.208	-58.903	-56.069	-55.580	-52.066	28.945	-52.929	-8191	255	
21934.242	1	1	0	0	0.090934	0.08518	0.11551	0.2255	0.23047	0.13636	0.20072	0.31284	0.16324	0.20575	0.12355	0.16687	0.22475	0.20215	0.28319	0.18479	-2.5021	-2.6396	-2.8333	-2.8688	-2.3958	-2.7958	-2.8833	-2.6833	-2.8229	-2.6229	-2.9042	-2.8979	-2.4875	-3.0896	-2.7313	-2.7958	210.072	69.320	67.364	-4.413	-72.328	87.594	69.172	202.116	72.386	130.599	191.221	-74.727	-35.565	-28.880	57.486	-60.713	0.00050084	0.0024775	0.00018919	451.12	1.2084e-05	1.5107e-05	673.69	184.63	1.2715e-05	2.0497e-05	336.09	152.73	79.713	35.86	7.1877e-06	73.645	0.036242	0.046221	0.01385	816.53	0.00048501	0.00055076	997.58	291.56	0.00051331	0.00051678	532.39	213.12	180.16	55.504	0.00051442	101.09	173.731	163.927	-56.426	-61.177	22.599	177.402	-61.588	-57.971	48.745	70.227	-58.933	-56.161	-55.749	-52.085	80.210	-52.775	-8191	255	
21934.340	1	1	0	0	0.04348	0.15031	0.22711	0.07775	0.18897	0.097019	0.1547	0.17994	0.18684	0.05654	0.098377	0.18135	0.24841	0.33931	0.27116	0.17996	-2.6458	-2.6729	-2.7938	-3.0083	-2.5917	-2.7604	-2.8937	-2.7333	-3.1354	-2.5771	-2.7938	-3.0438	-2.7	-2.9292	-2.9417	-2.8042	110.228	275.916	219.252	206.410	-71.526	163.677	248.915	203.752	-67.435	244.087	172.529	221.793	-24.785	-61.765	89.006	250.463	0.00059588	0.00070668	0.00086771	447.14	8.1226e-06	1.0243e-05	669.08	184.04	1.8217e-05	1.7292e-05	334.7	151.3	78.922	35.473	2.9424e-05	74.369	0.036423	0.046888	0.013836	820.19	0.00048243	0.00055242	1002.6	289.83	0.00051471	0.00052361	530.95	212.86	179.34	55.455	0.00051796	100.96	123.249	135.156	-35.408	-61.260	-55.439	-72.257	-61.517	-57.838	-23.843	-56.216	-58.967	-55.966	-55.463	-51.704	213.104	-52.897	-8191	255	
21934.436	1	1	0	0	0.20268	0.18057	0.11272	0.31931	0.23415	0.11814	0.26507	0.18029	0.10351	0.16288	0.056078	0.25744	0.2776	0.20187	0.10444	0.083526	-2.4521	-2.675	-2.75	-2.9292	-2.4313	-2.8625	-2.8229	-2.7104	-2.9	-2.8208	-2.8646	-3.0729	-2.6708	-2.9292	-2.95	-2.55	135.045	-9.763	-50.405	234.487	185.421	253.501	227.819	7.646	114.836	-5.751	-27.984	199.896	118.140	130.931	-52.572	159.014	0.00076523	0.00084356	0.00058651	446.11	1.6697e-05	3.2849e-05	675.63	184.4	2.3271e-05	1.5397e-05	335.2	151.25	78.317	35.6	1.1503e-05	73.585	0.036549	0.047653	0.01362	820.85	0.00048343	0.00055208	1005.6	288.36	0.00051676	0.00053081	527.7	212.66	180.65	55.453	0.00052334	100.36	160.832	47.803	-30.449	-61.072	186.349	70.036	-61.653	-58.038	102.885	-50.707	-58.654	-55.829	-54.745	-51.569	83.836	-53.136	-8191	255	
21934.531	1	1	0	0	0.023218	0.18508	0.11973	0.22483	0.18302	0.2053	0.19752	0.1849	0.36176	0.10386	0.1284	0.063773	0.22981	0.39986	0.066432	0.24899	-2.5062	-2.5917	-2.7938	-2.9292	-2.6375	-2.8708	-3.0187	-2.7625	-2.8771	-2.6167	-2.8333	-3.0271	-2.7042	-2.8396	-2.9021	-2.8208	201.835	27.326	219.952	-7.915	105.759	10.125	131.712	235.663	259.718	222.236	262.920	168.596	-68.247	-45.101	120.764	273.046	0.00049264	0.0030888	0.0003765	444.26	1.7228e-05	2.3562e-05	669.27	183.22	1.2634e-05	2.4184e-05	331.74	151.1	79.276	35.632	1.2319e-05	73.866	0.036806	0.048568	0.013498	820.57	0.00048877	0.00055184	1004.2	287.58	0.00051981	0.00053846	524.43	212.61	181.67	55.32	0.00052561	100.21	148.844	122.937	0.915	-61.194	236.658	57.021	-61.267	-57.358	-14.803	147.042	-58.633	-55.825	-55.228	-51.726	12.084	-52.947	-8191	255	
21934.652	1	1	0	0	0.1418	0.095691	0.10109	0.16257	0.12259	0.14431	0.35068	0.1057	0.19805	0.19013	0.11039	0.12947	0.16948	0.30038	0.075244	0.25977	-2.4708	-2.6458	-2.7146	-3.0042	-2.6229	-2.8125	-3.1083	-2.6396	-2.6833	-2.7604	-2.7583	-3.1208	-2.5833	-2.9354	-3.0479	-2.8208	243.918	-73.225	239.307	-67.551	250.798	162.271	233.480	27.037	66.117	-54.423	197.128	159.705	281.666	24.176	-9.916	206.643	0.00027746	0.0016816	0.00069149	445.45	1.799e-05	1.7766e-05	665.07	184.05	1.1465e-05	1.8444e-05	332.16	151.94	78.583	35.492	1.1805e-05	73.859	0.036845	0.049045	0.013273	822.72	0.00049815	0.0005481	1005.5	288.11	0.00052479	0.00054489	522.06	213.2	183.78	54.988	0.00052888	100.51	134.718	112.664	7.142	-61.204	173.277	90.047	-61.035	-58.045	-51.697	118.690	-58.440	-55.948	-55.283	-51.799	65.720	-53.069	-8191	255	
21934.748	1	1	0	0	0.20976	0.12292	0.092668	0.12001	0.18858	0.228	0.058462	0.1316	0.14245	0.076103	0.34803	0.13434	0.2233	0.15229	0.01664	0.13906	-2.4229	-2.6354	-2.5021	-3.0458	-2.8479	-2.7667	-2.9896	-2.6146	-2.8646	-2.9292	-2.8812	-3.1063	-2.6896	-2.6917	-3.0458	-2.6292	-48.721	189.216	140.648	251.181	53.367	222.370	-4.736	166.754	231.907	111.037	36.829	-62.169	189.838	193.873	28.717	-57.241	0.00032616	0.000793	0.00014305	446.78	2.1672e-05	6.3778e-06	668.17	185.14	1.5845e-05	1.074e-05	332.91	151.02	78.336	35.463	1.6523e-05	73.579	0.036963	0.049428	0.013067	824.33	0.00050406	0.00053935	1006.6	288.28	0.00052145	0.00054675	519.85	212.99	184.66	54.655	0.00052898	100.45	94.616	253.423	267.766	-61.351	-66.696	-31.926	-61.695	-57.515	76.140	207.251	-58.962	-55.825	-55.140	-51.918	256.173	-52.774	-8191	255	
21934.844	1	1	0	0	0.18872	0.12706	0.27517	0.1314	0.1436	0.06269	0.062507	0.14938	0.14703	0.21351	0.19545	0.47019	0.28522	0.25065	0.18876	0.036246	-2.2687	-2.8229	-2.4625	-2.8292	-2.6396	-2.5875	-3.0708	-2.7604	-2.7729	-2.7542	-2.6646	-2.9188	-2.9854	-2.7917	-2.9188	-2.8146	90.730	125.164	-3.224	122.153	155.050	36.578	213.741	-67.904	17.268	165.260	167.708	164.220	-4.097	34.786	259.208	202.127	0.00028825	0.0011389	0.00049653	446.54	1.3897e-05	1.3568e-05	670.02	184.79	5.9545e-06	2.8719e-05	332.26	150.36	79.302	35.359	7.8597e-06	73.178	0.03664	0.049658	0.012969	827.61	0.00051021	0.00053299	1007.8	290.84	0.0005162	0.00055042	519.53	212.86	185.89	54.103	0.00053447	100.32	136.267	66.545	-53.290	-60.816	59.243	163.887	-61.268	-57.612	135.873	-63.568	-58.636	-56.054	-55.396	-51.931	-28.375	-53.135	-8191	255	
21934.939	1	1	0	0	0.087641	0.14121	0.066339	0.20995	0.061603	0.21629	0.15312	0.10912	0.17986	0.38526	0.20617	0.11794	0.24029	0.059376	0.27442	0.14905	-2.2938	-3.0042	-2.7229	-2.9	-2.7375	-2.5875	-2.8937	-2.7604	-2.8917	-3.1625	-2.6896	-2.9562	-2.6896	-2.6417	-2.9042	-2.7104	-43.970	81.824	258.421	179.444	-63.343	193.856	243.031	24.513	109.810	279.001	242.234	129.147	23.346	-7.827	-35.635	250.499	0.00022751	0.0011013	0.00041131	444.66	1.6874e-05	3.7441e-06	671.83	183.62	2.9872e-05	1.3366e-05	331.33	151.26	79.024	35.544	2.9584e-05	73.331	0.036095	0.049569	0.013028	825.37	0.00051077	0.0005201	1007	290.31	0.00050549	0.00054665	519.34	212.88	185.58	53.936	0.00053482	101.01	210.465	163.042	20.890	-61.052	-8.643	163.750	-61.203	-57.572	14.916	5.807	-58.509	-55.817	-55.674	-51.886	35.234	-52.871	-8191	255	
21935.035	1	1	0	0	0.12966	0.14377	0.0084976	0.034655	0.26625	0.12018	0.10625	0.15364	0.31739	0.055289	0.2086	0.10698	0.29573	0.076069	0.14382	0.29806	-2.0583	-2.8542	-2.4958	-2.9021	-2.8667	-2.8625	-2.9708	-2.6771	-2.6021	-2.9375	-2.7	-2.9417	-2.8875	-2.8458	-2.9896	-2.6667	198.197	137.509	-63.639	-68.340	173.662	128.043	-41.492	199.630	263.240	166.931	147.008	278.275	205.118	91.300	195.495	-67.223	0.00036278	0.0010535	0.0002032	446.95	2.0918e-05	1.6741e-05	668.76	182.91	3.3753e-05	3.84e-06	334.71	152.87	80.14	35.801	1.0084e-05	74.613	0.035456	0.049669	0.013151	824.31	0.00051558	0.00051784	1011.3	292.82	0.00049992	0.00055434	525.56	214.65	187.23	54.539	0.00054188	102.34	143.570	256.998	185.171	-61.343	99.316	51.102	-61.295	-57.668	44.009	207.055	-58.731	-55.949	-55.553	-51.696	-1.182	-52.953	-8191	255	
21935.133	1	1	0	0	0.016574	0.36904	0.24609	0.16467	0.090032	0.24762	0.13354	0.031978	0.062409	0.13673	0.22127	0.1408	0.19222	0.078716	0.17058	0.29965	-2.2021	-2.9417	-2.7062	-2.6396	-2.8187	-2.5458	-2.9729	-2.8187	-2.5583	-2.9146	-2.8187	-2.7917	-2.8896	-2.6208	-2.8812	-3.0271	12.340	114.750	-74.484	236.299	212.265	24.527	82.170	132.674	24.924	196.516	263.792	-36.526	47.463	105.363	92.618	182.854	0.00023033	0.0011974	0.00053504	449.11	1.1767e-05	4.6972e-06	670.03	184.01	7.7101e-06	1.24e-05	337.6	154.5	79.565	36.517	3.418e-06	75.042	0.035073	0.050309	0.013394	820.24	0.00051623	0.00052006	1014.6	294.19	0.00049361	0.00056086	530.79	215.66	187.65	55.172	0.00054406	102.95	149.778	206.993	209.924	-60.451	196.209	-34.938	-61.276	-57.304	29.687	203.453	-58.732	-55.753	-55.208	-51.519	136.483	-52.824	-8191	255	
21935.254	1	1	0	0	0.25641	0.28505	0.077891	0.29774	0.023971	0.06723	0.24311	0.098259	0.22411	0.18384	0.09458	0.15693	0.11899	0.24847	0.14171	0.11942	-2.1292	-2.8979	-2.7625	-2.6417	-2.8521	-2.5	-3.05	-2.8896	-2.5312	-2.7979	-2.8542	-2.8688	-2.7292	-2.5646	-2.9042	-2.7979	123.789	96.173	137.710	2.317	67.091	-6.515	-58.584	-50.753	188.984	124.480	-6.938	49.541	-28.672	108.879	184.401	217.662	0.00016989	0.0016859	0.00053892	443.95	9.2189e-06	4.4327e-06	673.73	183.84	7.8417e-06	3.8677e-06	338.4	154.54	79.973	36.706	2.9473e-05	74.875	0.034892	0.050831	0.013679	812.69	0.00052108	0.00052665	1013.5	293.85	0.00048459	0.00056322	533.3	214.58	187.49	55.424	0.000536	103.13	159.372	50.393	-38.490	-60.901	104.117	20.865	-61.335	-57.649	-45.295	184.197	-58.661	-55.845	-55.455	-51.819	23.384	-52.713	-8191	255	
21935.348	1	1	0	0	0.088377	0.20958	0.075519	0.20924	0.18091	0.20261	0.1055	0.15555	0.042346	0.13337	0.098821	0.055405	0.11296	0.18337	0.090897	0.22742	-1.9688	-2.8812	-2.7354	-2.6167	-2.9396	-2.6479	-2.9771	-2.8833	-2.4917	-3.0667	-2.8438	-2.8896	-2.9875	-2.7854	-2.8417	-2.9229	9.413	250.464	-20.585	159.573	-67.551	18.836	-40.816	238.892	-71.184	46.006	17.867	-24.681	-46.101	211.162	241.178	-54.254	0.0001795	0.001943	0.00025518	442.85	1.7197e-05	1.8029e-05	665.08	183.62	1.9291e-05	1.4454e-05	337.73	153.9	79.58	36.331	1.343e-05	74.722	0.034298	0.050794	0.013718	803.37	0.00052277	0.00053123	1005.5	292.36	0.0004811	0.00056038	530.39	212.24	187.35	55.319	0.0005222	102.33	150.297	-4.507	88.418	-60.932	-42.924	-35.540	-61.369	-57.745	22.619	214.241	-58.879	-55.993	-55.312	-51.861	81.378	-52.902	-8191	255	
21935.443	1	1	0	0	0.55583	0.24684	0.15466	0.11707	0.080601	0.17369	0.099505	0.088874	0.12957	0.1659	0.13613	0.1415	0.088389	0.1415	0.10593	0.097107	-2.0104	-2.8771	-2.7354	-2.7854	-2.9167	-2.6958	-3.0667	-2.9521	-2.5479	-2.9042	-2.9479	-2.7604	-2.9833	-2.8812	-2.8292	-3.1063	68.932	99.794	35.617	103.107	127.553	194.058	-30.400	225.339	73.900	-46.374	25.464	213.010	163.147	-66.040	-32.245	215.898	0.00039722	0.0014505	0.0004825	441.59	7.9161e-06	4.1326e-06	670.29	183.11	2.2113e-05	1.1906e-05	335.67	154.37	79.094	36.42	2.6569e-05	74.747	0.033829	0.049937	0.013496	789.9	0.00051535	0.0005235	994.75	290.52	0.000473	0.00054801	526.87	210.62	186.19	55.277	0.00050631	102.27	148.471	-14.023	17.223	-60.803	281.072	66.585	-61.169	-57.254	197.465	66.738	-58.933	-55.831	-55.829	-51.636	29.620	-52.706	-8191	255	
21935.539	1	1	0	0	0.19412	0.32612	0.16639	0.024938	0.0917	0.26966	0.1233	0.1151	0.20884	0.28032	0.077806	0.11838	0.017106	0.055373	0.23858	0.067391	-2.175	-2.6625	-2.6771	-2.6333	-2.975	-2.5812	-2.5833	-2.9833	-2.5938	-2.9458	-2.9271	-2.7	-2.7917	-2.7771	-2.6333	-3.1271	91.739	-29.695	22.693	245.541	279.040	113.806	265.249	190.930	283.391	232.385	196.377	255.027	143.842	92.742	148.021	225.631	0.00066791	0.00066439	0.00044508	441.17	1.9895e-05	1.221e-05	666.81	183.31	3.933e-06	1.5161e-05	335.53	153.09	79.435	36.094	9.2006e-06	74.953	0.033964	0.049505	0.013516	787.23	0.00052124	0.00052904	988.12	291.57	0.00048318	0.00054656	529.39	210.68	187.14	55.406	0.00049854	102.71	148.948	268.665	258.147	-60.919	-8.673	193.122	-61.685	-57.806	108.033	67.088	-58.735	-55.917	-54.981	-51.486	118.458	-52.697	-8191	255	
21935.611	1	1	0	0	0.16495	0.40101	0.36096	0.11803	0.13927	0.19576	0.053138	0.25718	0.18559	0.14518	0.17088	0.36336	0.12944	0.17873	0.11769	0.13282	-2.25	-2.7938	-2.8771	-2.4604	-3.0354	-2.9396	-2.6396	-3.0604	-2.5625	-2.675	-2.9938	-2.8521	-3.0021	-2.7917	-2.5125	-3.025	-66.312	223.396	-68.154	-64.054	-74.605	194.400	278.716	-65.279	250.201	232.538	211.929	256.556	234.708	244.967	212.440	77.763	0.0003028	0.00067142	0.00063984	436.94	1.7207e-05	1.3889e-05	663.02	182.28	1.2013e-05	1.2923e-05	335.9	153.2	78.445	36.209	1.8304e-05	74.722	0.034527	0.048986	0.013532	784.66	0.00052476	0.00053395	980.42	291.53	0.00049228	0.00054146	528.84	210.71	187.49	55.579	0.00049306	103.05	96.407	-60.736	97.819	-61.013	-4.490	125.406	-61.359	-57.729	-1.182	-25.938	-58.258	-55.881	-55.382	-51.668	20.606	-52.839	-8191	255	
21935.732	1	1	0	0	0.040272	0.14729	0.26558	0.13468	0.10194	0.21372	0.064556	0.2488	0.12987	0.08309	0.16716	0.10073	0.09777	0.26545	0.22746	0.32076	-2.4167	-2.6958	-2.9667	-2.6208	-3.0208	-2.8104	-2.7521	-2.9979	-2.6813	-2.5375	-2.9708	-2.7708	-2.8812	-2.8521	-2.5458	-3.1917	97.606	202.304	152.260	199.337	-70.222	0.374	254.327	-38.841	-23.213	167.052	269.181	149.878	87.801	216.073	225.896	236.962	0.0003641	0.0021861	0.00048736	439.47	2.2016e-05	2.1135e-05	660.58	182.16	2.5831e-06	3.7628e-05	335.32	152.95	79.713	36.164	4.871e-06	74.781	0.03493	0.048361	0.013629	788.05	0.00052259	0.0005364	977.23	292.64	0.00049608	0.00053162	531.17	210.71	186.93	55.425	0.00048822	102.89	161.259	284.401	55.189	-60.619	21.801	56.105	-61.436	-57.315	208.166	59.536	-59.048	-55.744	-55.163	-51.631	232.689	-52.916	-8191	255	
21935.828	1	1	0	0	0.15035	0.12022	0.18688	0.30579	0.14263	0.10535	0.12702	0.072877	0.067767	0.075055	0.12495	0.024919	0.075141	0.24583	0.20475	0.44096	-2.1042	-2.7146	-2.8937	-2.6271	-2.8937	-2.775	-2.5792	-3.0896	-2.8458	-2.8229	-3.0563	-2.7667	-2.9833	-2.8417	-2.3833	-3.0375	69.248	173.448	-30.484	106.318	178.532	-12.025	57.599	-17.898	231.292	-45.231	-11.377	221.525	13.658	243.359	42.946	203.023	0.00042653	0.0018628	0.00077855	440.35	6.9887e-06	6.8788e-06	660.07	182.3	1.754e-05	2.3492e-05	333.18	152.42	79.286	36.078	7.2755e-06	74.325	0.035094	0.047372	0.013738	792.96	0.00051711	0.00053593	975.75	293.42	0.00050056	0.00051959	531.87	211.38	186	55.485	0.00049376	102.95	140.366	-69.139	110.104	-60.623	18.945	12.578	-61.069	-57.248	130.002	145.588	-58.655	-55.743	-55.252	-51.815	232.475	-52.765	-8191	255	
21935.924	1	1	0	0	0.049256	0.29735	0.066917	0.13704	0.11697	0.080801	0.3443	0.054644	0.25332	0.14013	0.071838	0.15759	0.39992	0.35444	0.10002	0.2556	-2.2812	-2.6021	-2.7771	-2.7083	-2.8	-2.8937	-2.7104	-2.9833	-2.7083	-2.6312	-2.9792	-2.85	-2.7354	-2.975	-2.6917	-3.0271	139.218	185.567	78.908	-27.963	150.573	154.440	176.393	-3.377	91.259	102.796	141.289	277.854	145.037	233.574	-15.621	164.069	0.00053724	0.00052525	0.0002928	437.69	2.5277e-05	1.8155e-05	659.25	181.73	1.1343e-05	1.4998e-05	334.91	152.15	78.451	36.044	3.8105e-06	74.506	0.03565	0.047148	0.01405	801.48	0.00051513	0.00054546	978.65	294.06	0.00050793	0.00051647	534.8	211.99	184.3	55.576	0.0005005	102.95	149.150	-7.193	188.040	-60.699	129.290	100.997	-61.194	-57.462	233.887	-42.636	-58.713	-55.879	-55.306	-51.328	114.048	-52.739	-8191	255	
21936.020	1	1	0	0	0.15925	0.017441	0.26909	0.35319	0.058148	0.27062	0.22059	0.18158	0.19435	0.1718	0.1285	0.2542	0.25613	0.23407	0.052792	0.1341	-2.4396	-2.4688	-2.9604	-2.7042	-2.5729	-3.1063	-2.6688	-2.9938	-2.9417	-2.6833	-2.9521	-2.8688	-2.6604	-2.9896	-2.8	-3.1542	85.874	85.216	-52.314	259.476	55.443	149.532	187.028	62.744	122.803	-69.760	224.362	195.444	266.491	-24.224	63.089	262.932	0.00044238	0.0014104	0.00048932	434.41	1.7054e-05	4.2342e-06	659.93	181.06	1.5467e-06	4.2389e-06	333.52	151.92	79.026	36.025	1.419e-05	74.313	0.035703	0.046654	0.014118	802.48	0.00050241	0.00055111	982.96	292.64	0.00050724	0.00051788	536.71	211.97	182.74	55.729	0.00050608	102.66	170.858	148.848	55.278	-60.905	67.407	-10.044	-61.347	-57.764	128.902	183.647	-58.998	-56.167	-55.290	-51.780	-52.440	-52.712	-8191	255	
21936.139	1	1	0	0	0.072947	0.12529	0.15748	0.15311	0.1657	0.12698	0.062034	0.17039	0.25703	0.18928	0.15866	0.071024	0.26219	0.099633	0.17269	0.11128	-2.4625	-2.6292	-3.0583	-2.7979	-2.8146	-2.9521	-2.8458	-2.9146	-2.8854	-2.4292	-3.175	-2.775	-2.5292	-2.9917	-2.7021	-2.8583	182.604	-4.879	166.158	128.411	-74.459	43.451	-49.421	227.312	-22.412	-34.393	-11.133	-34.464	266.873	-29.737	73.614	167.977	0.00062014	0.0010125	0.00044443	438.55	1.9923e-05	4.5538e-06	659.02	180.73	1.0875e-05	2.2712e-05	333.5	152.37	79.735	35.996	1.2376e-05	74.658	0.035852	0.046869	0.014206	806.02	0.00049469	0.00055996	986.37	291.37	0.00051209	0.00052127	536.49	212.5	182.01	56.123	0.00051503	102.37	144.846	268.951	144.904	-61.256	53.004	221.020	-61.277	-57.736	226.690	10.704	-58.757	-55.745	-55.689	-51.475	238.700	-52.756	-8191	255	
21936.213	1	1	0	0	0.16044	0.18436	0.18836	0.16381	0.19045	0.081511	0.14182	0.29338	0.085986	0.11552	0.14746	0.020122	0.078047	0.2488	0.17421	0.19025	-2.6063	-2.4792	-2.8146	-2.9146	-2.5563	-2.95	-2.7812	-2.8604	-2.9688	-2.65	-2.9938	-2.8729	-2.3104	-3.2062	-2.6875	-2.9479	99.392	151.009	74.612	17.309	234.228	159.345	24.548	250.726	190.487	70.955	-17.822	258.214	126.815	123.312	80.706	197.692	0.00041551	0.0021634	0.00024465	437.01	1.9492e-05	1.5544e-05	662.72	181.43	1.4314e-05	1.9148e-05	331.4	151.76	78.455	35.77	1.0573e-05	74.253	0.036269	0.047677	0.014265	809.29	0.00049297	0.00056962	991.01	290.62	0.00051869	0.00053065	535.76	212.02	180.88	56.16	0.00052084	101.58	125.855	150.902	-59.851	-60.828	37.081	3.461	-61.334	-57.524	219.687	182.580	-58.964	-55.622	-55.270	-51.579	2.767	-52.853	-8191	255	
21936.332	1	1	0	0	0.40267	0.23687	0.28647	0.12486	0.23413	0.12412	0.26747	0.079322	0.20388	0.19349	0.044764	0.13659	0.28597	0.084248	0.10693	0.089878	-2.4292	-2.5521	-2.8688	-2.8167	-2.4792	-2.95	-2.9271	-2.8042	-2.9313	-2.4833	-2.9042	-2.9083	-2.6021	-2.975	-2.8688	-2.8563	-5.293	80.631	264.523	257.903	259.802	-55.957	264.651	184.840	95.951	-53.451	-66.180	-68.628	282.825	-64.119	30.337	177.825	0.00052893	0.0007219	0.00015093	440.54	8.3867e-06	1.0448e-05	663.06	180.94	1.1007e-05	2.2025e-05	334.06	151.96	79.026	35.89	3.7457e-06	74.398	0.036799	0.048007	0.014126	809.88	0.0004931	0.00057301	993.92	288.15	0.00052355	0.00053468	534.41	212.58	181.79	56.321	0.00052207	101.23	153.323	-0.106	101.435	-60.825	95.447	167.331	-61.395	-57.764	169.690	-47.709	-58.743	-55.934	-55.026	-51.473	62.049	-52.605	-8191	255	
21936.428	1	1	0	0	0.20908	0.196	0.22584	0.22269	0.077352	0.25087	0.17736	0.15622	0.10913	0.1269	0.13709	0.053078	0.197	0.11674	0.10564	0.13609	-2.5812	-2.3771	-2.8688	-3.0271	-2.6417	-3.0271	-2.9354	-2.6292	-2.9875	-2.7042	-2.8146	-3.1	-2.5896	-2.9313	-2.6958	-2.7083	137.049	192.346	280.205	202.463	154.141	249.360	197.968	-9.138	-49.986	81.813	256.901	137.253	213.203	-20.970	114.236	-58.916	0.00093587	0.0004845	0.0004992	439.91	1.0735e-05	1.0398e-05	661.23	182.41	1.4992e-05	1.7456e-05	334.59	151.28	78.494	35.836	7.0209e-06	74.12	0.037174	0.048342	0.014011	813.19	0.00049435	0.00057227	994.77	288.04	0.00052845	0.00053964	529.59	212.81	182.65	56.151	0.00052305	100.93	125.702	140.802	275.341	-61.053	108.584	23.343	-61.210	-57.750	77.601	196.774	-58.402	-55.865	-55.561	-51.487	54.795	-52.682	-8191	255	
21936.523	1	1	0	0	0.22676	0.14402	0.20278	0.048595	0.15999	0.16016	0.2901	0.093873	0.2118	0.29299	0.049854	0.093438	0.16257	0.23929	0.20547	0.32081	-2.7104	-2.6458	-2.6729	-3.0021	-2.6	-2.9479	-2.8875	-2.6167	-2.9896	-2.7687	-2.6625	-2.9	-2.5917	-2.7687	-2.8521	-2.6396	7.433	172.326	175.010	-10.771	70.878	66.413	172.886	-67.430	166.258	72.115	-16.839	-56.909	200.383	-57.287	-65.749	235.665	0.0005287	0.0024796	0.00036521	438.44	2.0413e-05	1.7622e-05	660.67	181.16	1.1416e-05	3.4572e-06	332.77	151.87	78.772	35.755	1.658e-05	73.864	0.037799	0.048783	0.013718	818.82	0.00050086	0.00056901	995.59	287.13	0.00053469	0.00054375	525.74	213.65	182.93	55.712	0.00052537	100.78	158.837	280.796	35.229	-61.165	117.121	49.586	-61.337	-57.884	219.506	245.145	-58.806	-55.773	-54.690	-51.896	101.619	-52.849	-8191	255	
21936.619	1	1	0	0	0.15771	0.11923	0.081623	0.20695	0.31154	0.24524	0.19303	0.257	0.20003	0.099625	0.15593	0.20324	0.23798	0.019492	0.083829	0.37768	-2.3792	-2.8104	-2.5729	-2.8812	-2.8083	-2.8375	-2.8125	-2.5812	-2.7875	-2.7208	-2.7625	-3.0521	-2.5583	-2.8042	-2.8542	-2.6625	239.804	51.538	74.656	268.261	-23.008	165.917	62.173	280.089	211.854	55.641	257.216	282.939	193.095	83.309	148.126	262.831	7.134e-05	0.0019193	0.00022727	440.04	1.0496e-05	3.1771e-05	658.14	180.83	7.0431e-06	2.4546e-05	330.38	150.5	78.838	35.649	1.2315e-05	73.308	0.037941	0.048998	0.013486	822.57	0.00050753	0.00056272	995.37	287.36	0.0005385	0.00054714	521.67	213.31	183.77	55.261	0.00052902	100.34	166.308	108.119	66.068	-61.148	37.755	29.697	-61.046	-58.080	148.922	61.625	-58.620	-55.911	-55.719	-51.345	188.582	-52.818	-8191	255	
21936.740	1	1	0	0	0.1904	0.21043	0.22931	0.14836	0.17752	0.21266	0.22066	0.17703	0.097932	0.1087	0.24408	0.0593	0.25531	0.097413	0.28133	0.06477	-2.4688	-2.5938	-2.4479	-2.8958	-2.5854	-2.825	-2.8958	-2.8271	-2.6833	-2.7208	-2.7542	-3.1458	-2.65	-2.8583	-2.6667	-2.8021	128.167	77.773	19.112	-61.686	67.404	278.913	275.223	215.809	278.195	282.941	217.504	-22.774	78.703	249.143	260.575	225.703	0.00021749	0.0027993	0.00022026	439.04	4.6232e-06	4.3776e-06	661.95	180.12	7.5213e-06	1.479e-05	330.15	150.68	78.473	35.369	1.2489e-05	73.254	0.037901	0.049054	0.013392	825.08	0.00050913	0.00054697	998.43	287.36	0.00052951	0.00054232	518.04	213.55	183.59	54.569	0.00053152	100.35	94.754	49.311	-10.814	-60.550	225.851	34.041	-61.280	-57.637	122.019	135.196	-58.569	-56.022	-55.246	-51.916	217.451	-52.907	-8191	255	
21936.838	1	1	0	0	0.13974	0.056049	0.25239	0.43594	0.074231	0.14936	0.12933	0.17179	0.12464	0.21761	0.14592	0.23495	0.16246	0.22284	0.044167	0.082458	-2.4271	-2.6771	-2.5187	-2.8271	-2.5521	-2.6292	-3.1083	-2.65	-2.7313	-2.7375	-2.5854	-3.0271	-2.7542	-2.7125	-2.8167	-2.925	273.509	273.975	34.006	280.047	-6.798	4.533	-60.054	10.159	229.663	252.341	183.292	269.302	-68.122	259.171	-41.011	-1.185	0.00039779	0.00090929	0.00067081	443.08	1.8702e-05	2.5855e-05	660.75	181.06	1.871e-05	1.4973e-05	329.1	149.93	77.997	35.077	2.9503e-05	72.894	0.037313	0.048934	0.013267	829.45	0.00051098	0.00053521	1003.4	288.22	0.00052504	0.0005439	518.39	213.05	183.26	54.149	0.00053734	100.21	158.530	3.108	-65.466	-60.765	220.064	125.462	-61.148	-57.657	59.339	96.746	-58.676	-55.883	-55.467	-51.852	204.168	-52.837	-8191	255	
21936.908	1	1	0	0	0.14521	0.43505	0.1956	0.18455	0.1588	0.21335	0.050447	0.21496	0.30496	0.29576	0.13156	0.23742	0.11713	0.34769	0.25266	0.15018	-2.5271	-2.6979	-2.3729	-2.8979	-2.7438	-2.7354	-3.0187	-2.6583	-2.8354	-2.9167	-2.6667	-3.1917	-2.7521	-2.6937	-3.0167	-2.8021	52.413	251.537	257.471	61.148	262.842	139.306	186.355	276.736	240.943	195.849	203.637	176.423	34.021	239.684	-44.751	175.803	0.00033895	0.0019444	0.00069368	445.51	3.9807e-06	1.1653e-05	663.29	181.7	2.5582e-05	8.9527e-06	326.35	149.46	77.797	34.843	6.5424e-06	72.47	0.036562	0.049154	0.013306	828.12	0.00050955	0.00052576	1007.9	288.79	0.00051145	0.00054705	517.76	212.12	182.66	53.729	0.00054444	99.837	141.368	87.622	237.062	-60.830	265.948	211.658	-61.098	-57.578	-64.956	61.956	-58.691	-55.938	-55.697	-51.802	187.668	-53.121	-8191	255	
21937.029	1	1	0	0	0.10663	0.28428	0.094486	0.077067	0.23727	0.08769	0.32091	0.16766	0.14275	0.11896	0.16227	0.14744	0.23844	0.18723	0.025614	0.12245	-2.3604	-2.9646	-2.4437	-2.9354	-2.8958	-2.4896	-2.9688	-2.7479	-2.6937	-2.9646	-2.7062	-2.8354	-2.8937	-2.5854	-2.8979	-2.7896	27.226	124.251	-62.783	-54.136	-59.040	1.889	-53.340	-68.913	6.102	-61.033	44.720	260.008	91.698	-50.992	111.622	166.228	0.00041202	0.0006768	0.00061359	446.91	4.4824e-06	1.5127e-05	665.47	181.11	2.963e-05	1.9678e-05	327.76	149.98	77.826	34.895	2.2368e-05	72.374	0.035905	0.049985	0.013385	827.12	0.00050893	0.00052241	1010.7	288.7	0.00050014	0.00055406	518.77	211.42	183.07	53.671	0.00054635	99.684	159.052	203.399	-58.444	-60.873	42.249	57.410	-61.627	-57.938	58.986	177.389	-59.047	-55.972	-55.485	-51.874	20.353	-52.812	-8191	255	
21937.125	1	1	0	0	0.13149	0.10409	0.22425	0.14365	0.093965	0.26629	0.097773	0.14876	0.12236	0.18253	0.07368	0.24316	0.090706	0.26407	0.055287	0.11587	-2.2104	-2.8042	-2.6437	-2.7958	-2.8396	-2.4958	-2.9896	-2.6229	-2.6271	-2.8646	-2.6604	-3.0062	-2.8229	-2.6146	-2.7104	-2.8854	254.461	-68.698	216.293	-15.490	118.943	78.542	262.760	119.275	204.118	157.132	-56.507	202.625	203.745	-51.267	275.468	185.530	0.00039145	0.0018011	0.00025911	443.06	6.3244e-06	1.639e-05	666.38	181.55	8.6046e-06	4.4978e-06	326.51	149.26	78.577	34.819	1.3481e-05	72.816	0.035074	0.050673	0.013437	821.29	0.00051231	0.00052721	1013.4	289.52	0.00049762	0.00056489	521.02	210.92	185.41	53.828	0.00054999	100.34	99.549	76.368	19.268	-60.959	58.840	-4.373	-61.579	-58.066	36.805	234.793	-59.018	-56.032	-55.400	-52.024	26.209	-53.240	-8191	255	
21937.221	1	1	0	0	0.25231	0.20047	0.30581	0.1579	0.1956	0.25755	0.18068	0.0813	0.12958	0.17805	0.079507	0.071128	0.06397	0.13868	0.44869	0.17268	-2.3729	-3.0458	-2.5396	-2.9729	-2.9354	-2.5417	-2.8083	-2.8604	-2.6312	-2.8479	-2.8167	-2.9333	-2.9667	-2.5646	-2.8771	-2.8729	-29.528	-63.364	-72.398	233.475	-44.661	11.472	201.364	82.140	144.903	-40.154	146.392	187.352	-30.208	194.542	148.292	-74.842	0.00063615	0.0016115	6.8001e-05	450.67	2.2999e-05	2.7762e-05	673.52	183.84	3.6226e-05	6.3935e-06	329.11	150.68	78.896	35.013	1.2808e-05	73.236	0.035148	0.051862	0.013609	825.85	0.00052398	0.00053556	1024.1	293.23	0.00050195	0.00058006	528.45	212.31	189.49	54.456	0.00055527	101.56	125.950	38.434	259.647	-61.080	119.693	107.456	-61.416	-58.209	19.834	127.312	-58.890	-56.245	-55.752	-52.225	-33.537	-53.662	-8191	255	
21937.316	1	1	0	0	0.08839	0.14875	0.22465	0.1153	0.26334	0.13959	0.16114	0.16143	0.25926	0.21229	0.060209	0.11177	0.16484	0.1512	0.16851	0.14134	-2.2417	-3.0521	-2.6167	-2.6562	-2.9958	-2.5938	-2.8563	-2.7687	-2.4104	-2.9292	-2.9479	-2.7854	-2.7833	-2.625	-2.775	-3.0521	-12.273	101.473	108.471	250.656	234.440	97.081	183.396	-29.190	-6.027	113.321	26.863	280.247	244.616	240.842	166.780	214.797	0.00031865	0.0020699	0.00032881	460.3	1.9111e-05	1.6069e-05	683.79	185.64	1.4849e-05	2.6586e-05	335.47	153.62	80.525	35.552	1.6294e-05	73.59	0.035846	0.053297	0.013998	834.51	0.00054306	0.00055092	1035.8	298.25	0.00050946	0.0005875	534.58	214.16	193.37	55.02	0.00054802	102.3	193.303	125.102	-37.200	-61.030	150.987	198.626	-61.764	-58.045	82.991	234.869	-59.193	-56.471	-56.282	-52.530	124.401	-53.663	-8191	255	
21937.438	1	1	0	0	0.19762	0.076539	0.039161	0.10683	0.15571	0.16016	0.24778	0.2501	0.39813	0.21527	0.28457	0.13193	0.24253	0.24496	0.32108	0.20238	-2.0042	-2.8833	-2.5854	-2.6104	-3.0208	-2.5083	-2.925	-2.8042	-2.5083	-2.9271	-2.9583	-2.7875	-2.8063	-2.6542	-2.8708	-3.0292	82.813	52.355	203.133	-52.560	244.878	102.367	7.947	136.945	25.731	145.864	277.939	261.583	70.075	248.414	275.227	200.745	0.00021139	0.0015003	0.00029794	467.17	9.3473e-06	4.9111e-06	698.02	188.06	1.2544e-05	2.6209e-05	335.24	153.46	79.838	34.992	9.5928e-06	72.97	0.036101	0.053588	0.014061	842.86	0.00055454	0.0005601	1045.1	302.59	0.00051964	0.00059421	539.08	214.98	196.66	55.165	0.00054803	102.39	72.981	-8.559	50.840	-60.968	101.654	-27.893	-61.825	-58.240	160.207	155.102	-59.045	-56.535	-55.454	-52.471	58.552	-53.738	-8191	255	
21937.508	1	1	0	0	0.11017	0.16518	0.086988	0.05416	0.09891	0.062752	0.13674	0.20626	0.11402	0.12619	0.14315	0.31773	0.18461	0.20876	0.16415	0.32904	-2.125	-2.7812	-2.7458	-2.5708	-2.8333	-2.6646	-2.9229	-2.8708	-2.5854	-2.925	-2.875	-2.6333	-3.0417	-2.7625	-2.6167	-3.1208	109.863	-59.336	207.530	-58.777	238.620	272.202	-56.518	191.381	42.571	21.224	7.091	-69.407	-35.586	213.169	161.031	280.741	0.00040255	0.0013868	0.00064756	468.99	1.0987e-05	2.9776e-05	695.15	188.22	4.2639e-05	1.1215e-05	333.37	152.23	79.327	34.838	2.926e-05	71.887	0.036856	0.053913	0.014274	847.61	0.0005641	0.00056694	1038.7	305.41	0.00052079	0.00058908	537.42	213.42	196.48	54.568	0.00053933	101.72	162.512	-21.127	2.695	-61.210	25.856	118.576	-61.785	-58.193	95.229	53.060	-59.042	-56.283	-55.628	-52.612	107.532	-53.878	-8191	255	
21937.604	1	1	0	0	0.4034	0.14048	0.080168	0.042747	0.29312	0.13242	0.29041	0.19861	0.29478	0.30982	0.12912	0.29928	0.18406	0.1609	0.10618	0.045947	-2.2146	-2.7938	-2.9313	-2.6708	-2.8063	-2.75	-2.8271	-2.8312	-2.6104	-2.8563	-2.9375	-2.7521	-2.8958	-2.7958	-2.6792	-3.1125	-35.218	126.045	246.748	277.459	150.484	191.742	218.620	-48.397	105.970	24.921	251.034	90.256	-26.585	-11.025	236.386	160.823	0.0004819	0.002663	0.0005838	464.3	2.034e-05	1.379e-05	684.42	185.99	6.957e-06	1.7323e-05	329.92	149.33	78.615	34.329	1.5204e-05	71.679	0.036955	0.052924	0.014372	842.91	0.00056333	0.00056158	1025.5	304.38	0.00051913	0.00057527	535.71	210.61	193.59	54.025	0.00053227	101.4	131.615	0.842	-2.603	-60.942	163.037	72.848	-61.571	-58.224	267.387	48.799	-58.968	-56.316	-55.807	-52.535	-7.647	-53.599	-8191	255	
21937.699	1	1	0	0	0.033672	0.081523	0.18936	0.20569	0.25655	0.13044	0.29767	0.1102	0.15226	0.21327	0.073719	0.19507	0.21823	0.19839	0.33669	0.46385	-2.1833	-2.6437	-2.6312	-2.4375	-2.8625	-2.6813	-2.8396	-3.2333	-2.6125	-2.8271	-2.975	-2.7958	-2.8833	-2.8563	-2.6354	-2.9979	-6.509	277.755	271.039	205.249	36.711	91.107	237.904	135.673	171.778	228.285	153.483	191.336	52.056	96.037	145.036	234.158	0.00054811	0.0026397	0.00094869	453.74	2.1621e-05	1.4871e-05	672.03	182.39	1.0378e-05	3.0366e-06	326.96	148.01	77.159	34.086	1.2903e-05	71.194	0.037017	0.051547	0.014468	828.59	0.00055701	0.00056006	1006.9	300.98	0.00051657	0.00056131	532.75	208.58	189.92	53.675	0.00052415	100.81	145.406	4.357	172.242	-61.020	88.355	167.787	-61.704	-58.375	146.502	275.557	-58.831	-56.230	-56.265	-52.083	45.530	-53.542	-8191	255	
21937.820	1	1	0	0	0.10334	0.17143	0.11547	0.08304	0.15124	0.048007	0.095435	0.22792	0.17816	0.096115	0.14805	0.15325	0.093426	0.1858	0.063138	0.21147	-2.0979	-2.6542	-2.7333	-2.4083	-2.8875	-2.8333	-2.6917	-2.9771	-2.6604	-2.7958	-2.9188	-2.7083	-2.6437	-2.8208	-2.45	-2.8771	-20.114	50.482	230.850	69.316	-40.303	23.628	278.854	177.039	111.655	220.645	97.545	227.769	3.777	200.111	99.830	187.349	0.00038054	0.0017507	0.00018291	441.96	1.1268e-05	1.7433e-05	659.98	181.63	1.1079e-05	2.9438e-05	325.08	145.43	76.435	33.671	7.1798e-06	70.61	0.036485	0.049947	0.014509	814.23	0.00054567	0.00056017	992.47	298.7	0.00051733	0.00055626	533	206.5	188.01	53.748	0.00052802	100.18	119.477	66.271	157.802	-60.786	146.900	-56.551	-61.277	-57.987	31.601	-61.379	-58.719	-56.042	-55.359	-52.267	265.976	-53.143	-8191	255	
21937.918	1	1	0	0	0.08501	0.10801	0.13839	0.23916	0.31664	0.21507	0.069812	0.11827	0.17385	0.20545	0.092794	0.15442	0.27461	0.24396	0.10928	0.03468	-2.2687	-2.5625	-2.8146	-2.5271	-2.8354	-2.7562	-2.6875	-2.9	-2.7042	-2.7542	-2.9146	-2.7979	-2.7708	-3.0521	-2.6312	-3.0896	9.038	185.775	132.431	-4.789	124.015	86.899	259.508	274.865	246.532	53.907	186.259	235.879	8.603	17.869	148.701	32.407	0.00062049	0.0013592	0.00021969	434.67	2.2647e-05	2.3849e-05	651.58	178.82	1.337e-05	8.9215e-06	321.62	144.09	75.162	33.369	9.9704e-06	70.04	0.036525	0.049585	0.014768	808.12	0.00053566	0.00056573	982.73	295.34	0.00051511	0.0005489	530.93	205.27	185.26	53.723	0.00052782	99.311	98.511	88.358	44.083	-60.632	28.644	198.980	-61.334	-57.769	-13.325	97.137	-59.012	-56.146	-55.842	-51.974	128.784	-52.998	-8191	255	
21938.014	1	1	0	0	0.1596	0.20709	0.13737	0.28042	0.15777	0.066281	0.1587	0.065189	0.10729	0.13556	0.13357	0.27764	0.1085	0.092188	0.23891	0.24638	-2.2458	-2.625	-2.9062	-2.5417	-2.8167	-2.8667	-2.5104	-2.9146	-2.7167	-2.3833	-2.9917	-2.7667	-2.7188	-2.9146	-2.4813	-3.0625	154.560	194.751	27.250	229.911	3.861	114.519	194.251	228.925	80.342	181.175	217.096	189.540	281.338	-54.971	227.018	241.345	0.00038094	0.0013608	0.00031605	429.63	1.5977e-05	1.3779e-05	645.77	177.61	1.9379e-05	1.4492e-05	319.47	143.81	75.767	33.712	1.8939e-05	70.168	0.036749	0.04952	0.014892	803.55	0.00052658	0.00057079	978.94	291.91	0.00051128	0.00053842	526.85	203.73	181.02	53.621	0.0005148	98.55	126.027	136.347	-71.924	-60.853	-57.657	222.046	-60.994	-57.775	152.774	45.080	-58.658	-55.814	-54.962	-51.783	140.307	-53.156	-8191	255	
21938.109	1	1	0	0	0.14361	0.033896	0.15174	0.14644	0.073074	0.23526	0.077275	0.29279	0.12188	0.17	0.15535	0.087523	0.17457	0.3067	0.2174	0.091496	-2.2396	-2.3917	-2.9104	-2.6604	-2.6292	-2.9458	-2.6479	-2.7667	-2.6458	-2.5542	-2.7542	-2.7146	-2.6396	-2.8458	-2.6354	-2.9354	167.281	132.897	-38.669	205.857	59.113	27.802	133.311	260.260	211.159	140.809	276.620	-59.309	150.692	189.444	44.899	174.237	0.00039712	0.0014427	0.00034641	431.29	2.7103e-06	7.4973e-06	647.48	178.76	5.3531e-06	1.3752e-05	320.3	143.72	75.457	33.278	1.3967e-05	70.191	0.03627	0.048359	0.01458	798.58	0.00051147	0.00056904	976.35	289.59	0.00051407	0.00053591	526.77	203.68	179.94	53.764	0.0005141	98.07	115.067	71.546	229.842	-60.912	267.543	124.290	-60.810	-57.856	165.654	21.552	-58.729	-56.084	-54.992	-52.074	146.925	-52.997	-8191	255	
21938.205	1	1	0	0	0.2612	0.36277	0.15844	0.092549	0.1194	0.058607	0.14639	0.24631	0.24577	0.19551	0.11694	0.095465	0.12934	0.24659	0.084984	0.17834	-2.3792	-2.3667	-2.8042	-2.8208	-2.5625	-2.9646	-2.6437	-2.8354	-2.5417	-2.5854	-2.85	-2.8583	-2.6437	-2.7583	-2.4083	-2.9729	-21.668	168.166	-58.595	-49.259	118.041	187.695	232.989	186.650	154.000	135.950	273.129	207.938	253.720	273.274	43.925	117.631	8.5185e-05	0.00072353	0.00059181	436.47	1.814e-05	3.4589e-06	653.67	178.91	1.9898e-06	3.0889e-05	320.76	143.85	74.791	33.417	1.8326e-05	69.668	0.036624	0.048244	0.014495	802.27	0.00050782	0.00057398	981.54	288.62	0.00052346	0.00053259	523.06	203.56	179.23	53.687	0.00051156	97.11	87.465	202.332	-52.371	-61.224	21.188	24.839	-61.230	-58.036	-0.843	23.963	-58.765	-55.846	-55.835	-51.916	231.562	-53.000	-8191	255	
21938.303	1	1	0	0	0.27316	0.21751	0.10719	0.2035	0.029826	0.052471	0.25711	0.25513	0.12827	0.13237	0.26809	0.1938	0.19692	0.18127	0.12636	0.22028	-2.4021	-2.4354	-2.7979	-2.7062	-2.4521	-2.7	-2.4917	-2.7104	-2.9854	-2.5875	-2.8625	-2.7167	-2.5208	-2.7125	-2.7104	-2.825	133.708	175.969	144.143	-27.960	8.007	-39.609	10.090	259.284	128.200	100.704	192.720	236.871	269.652	-57.508	58.293	132.087	0.00073214	0.0023451	0.00036312	438.74	1.6594e-05	2.2836e-05	655.26	179.37	7.4387e-06	2.2859e-05	319.65	142.86	74.646	32.993	2.6196e-06	68.781	0.037139	0.048283	0.014248	808.67	0.00050422	0.00057389	982.48	287.27	0.00052841	0.00053054	520.06	202.93	178.2	53.378	0.00050977	96.105	157.125	55.085	-51.245	-60.824	185.990	70.187	-61.345	-58.021	272.298	14.007	-58.774	-56.047	-55.719	-52.146	76.347	-53.059	-8191	255	
21938.422	1	1	0	0	0.032029	0.17611	0.13926	0.020062	0.16195	0.28815	0.28943	0.23205	0.069524	0.20795	0.44939	0.10802	0.19655	0.11175	0.035292	0.22583	-2.4229	-2.3625	-2.7458	-2.8771	-2.5438	-2.8104	-2.6583	-2.6396	-2.8521	-2.5833	-2.7	-3.0104	-2.4458	-2.8125	-2.7229	-2.6083	-45.337	100.364	210.547	220.401	-18.716	236.420	194.877	21.264	158.024	226.159	201.641	134.267	87.773	229.564	-13.049	238.963	0.00060885	0.0014675	0.00065875	441.58	1.4093e-05	1.7466e-05	661.98	180.74	1.9084e-05	1.6511e-05	321.81	143.13	75.605	33.407	1.6548e-05	69.372	0.037276	0.048097	0.013937	814.25	0.00049997	0.00056876	987.06	287.65	0.00052981	0.00052863	517.14	203.85	178.47	53.269	0.0005109	96.169	147.974	37.846	-1.581	-61.328	82.312	79.901	-61.307	-58.335	87.878	77.282	-58.818	-56.058	-55.978	-52.258	166.169	-53.296	-8191	255	
21938.518	1	1	0	0	0.068926	0.29722	0.15804	0.12681	0.16614	0.054543	0.012134	0.02653	0.14195	0.18644	0.10519	0.19009	0.20844	0.17391	0.23359	0.25643	-2.3	-2.4604	-2.6021	-2.825	-2.6125	-2.8208	-2.875	-2.7417	-2.9875	-2.6708	-2.8625	-2.9208	-2.4542	-2.8708	-2.6667	-2.7896	111.657	132.831	-2.550	216.800	-61.607	50.753	-54.484	249.788	96.706	172.349	18.334	-15.207	92.211	266.324	50.635	180.406	0.00045576	0.0012746	0.00045821	449.18	1.6665e-05	2.3934e-05	667.9	181.49	8.389e-06	3.2173e-05	324.25	143.06	75.526	33.35	1.5762e-05	69.078	0.037496	0.047929	0.013734	825.99	0.00049886	0.00056215	995.54	288.33	0.00053229	0.00052818	517.39	204.76	178.61	53.071	0.00051784	96.091	128.383	-26.537	64.310	-60.704	25.993	131.153	-61.702	-58.146	20.114	97.247	-58.871	-56.345	-56.052	-52.086	52.890	-53.209	-8191	255	
21938.613	1	1	0	0	0.047006	0.13189	0.078517	0.016396	0.25648	0.19772	0.14724	0.11449	0.24712	0.11197	0.12312	0.27258	0.11243	0.18613	0.085918	0.29951	-2.4479	-2.5229	-2.5625	-2.9021	-2.4479	-2.7687	-2.8146	-2.6125	-2.9271	-2.5167	-2.7938	-2.9042	-2.4104	-2.8125	-2.85	-2.5229	-65.025	283.874	242.476	193.499	-23.597	240.955	-23.609	-4.782	14.766	-60.906	-52.936	94.738	244.836	168.271	175.104	143.026	0.00053859	0.00056252	0.00010092	447.25	3.3579e-06	2.207e-05	668.54	181.8	1.3649e-05	1.5218e-05	322.92	143.02	75.438	33.07	1.4434e-05	69.003	0.037674	0.04785	0.013564	831.12	0.00049744	0.00055203	999.18	287.89	0.00052998	0.00052634	513.57	204.54	178.35	52.616	0.0005263	95.785	102.708	248.172	168.621	-60.874	-54.450	67.874	-61.385	-57.839	157.188	-38.828	-59.030	-56.285	-55.756	-52.225	238.737	-53.319	-8191	255	
21938.734	1	1	0	0	0.031701	0.086042	0.17843	0.080291	0.1404	0.21404	0.10499	0.37058	0.015106	0.19012	0.089897	0.12649	0.19963	0.24193	0.078794	0.17249	-2.4021	-2.4583	-2.6333	-2.9938	-2.5479	-2.7604	-2.7146	-2.4625	-2.7458	-2.6104	-2.6167	-2.8104	-2.2917	-2.7229	-2.9292	-2.6354	149.484	-73.686	-2.551	282.840	99.253	-44.394	176.443	98.102	195.457	-57.043	261.476	278.639	270.098	-41.353	-6.780	218.797	8.0771e-05	0.0013819	0.00028929	449.45	1.7073e-05	8.6569e-06	665.11	181.08	1.796e-05	1.4004e-05	322.76	142.63	75.731	33.162	2.3316e-05	68.507	0.037515	0.048155	0.013537	835.89	0.00049683	0.00054988	1000.3	286.81	0.00052381	0.00052953	512.01	204.21	177.82	52.277	0.00052816	95.201	279.611	56.532	280.848	-60.855	90.196	139.885	-61.411	-58.249	10.578	124.278	-58.964	-56.241	-56.088	-52.312	187.886	-53.364	-8191	255	
21938.805	1	1	0	0	0.074089	0.22353	0.050001	0.28242	0.1413	0.090404	0.10303	0.15853	0.18697	0.074162	0.17769	0.24505	0.13041	0.13817	0.07187	0.20892	-2.4646	-2.5062	-2.5604	-3.0375	-2.5729	-2.7792	-2.9437	-2.5917	-2.95	-2.6375	-2.7042	-2.9188	-2.5333	-2.8229	-3.0021	-2.7208	23.468	202.720	16.520	177.973	33.281	17.227	155.127	-45.320	160.553	29.380	-71.435	186.783	102.209	274.969	-12.101	252.753	0.00046714	0.0012542	0.00025524	453.28	1.2137e-05	1.1888e-05	662.78	181.11	7.9267e-06	1.5447e-05	319.96	141.44	74.883	32.935	1.2944e-05	68.338	0.036548	0.048123	0.013296	833.37	0.00049137	0.00053843	1001.6	286.19	0.00051379	0.00053363	509.49	203.22	176.71	51.885	0.00053217	94.888	200.484	268.801	218.952	-61.062	221.927	96.356	-61.563	-58.506	68.495	148.264	-59.489	-55.950	-54.891	-52.235	241.395	-53.437	-8191	255	
21938.900	1	1	0	0	0.099442	0.13228	0.14097	0.21191	0.22502	0.16614	0.33242	0.14109	0.11096	0.25412	0.16023	0.10504	0.11933	0.052735	0.071994	0.26029	-2.3896	-2.6896	-2.4562	-2.9667	-2.625	-2.7896	-3.0958	-2.7167	-2.7875	-2.6542	-2.5604	-2.9625	-2.575	-2.6958	-2.9667	-2.6479	54.589	172.961	227.706	67.546	-12.484	145.116	242.855	164.693	155.409	154.220	-43.445	168.582	-56.279	77.967	-20.309	237.976	0.00048347	0.000707	0.00016483	441.94	1.2646e-05	2.4483e-05	649.31	174.95	8.3352e-06	1.7161e-05	311.72	137.42	71.211	31.662	1.4664e-05	66.681	0.036159	0.04867	0.013211	822	0.00048972	0.00052913	988.14	279.66	0.0005024	0.00053758	496.41	197.37	172.75	50.234	0.00053109	92.352	146.006	120.464	161.445	-60.862	-5.943	28.720	-61.589	-57.950	30.393	154.136	-58.734	-56.026	-55.126	-51.792	225.144	-53.302	-8191	255	
21938.998	1	1	0	0	0.14499	0.015579	0.15094	0.028594	0.16081	0.18945	0.17249	0.074245	0.088028	0.31882	0.031108	0.19025	0.18991	0.14317	0.10001	0.15332	-2.1917	-2.7625	-2.6104	-2.7938	-2.6625	-2.6208	-2.85	-2.6083	-2.8125	-2.8417	-2.6417	-2.7521	-2.6583	-2.4875	-2.9146	-2.6333	-20.579	264.100	-16.562	128.614	235.069	283.179	153.616	53.334	20.248	171.112	66.277	228.406	-2.063	3.619	132.403	-27.237	0.00032202	0.00058619	0.00036797	420.96	1.547e-05	1.1622e-05	618.59	165	8.1344e-06	3.2581e-05	299.67	132.92	69.023	31.326	1.0224e-05	66.249	0.035519	0.048847	0.013085	793.02	0.00049175	0.00052452	958.71	267.8	0.00049668	0.00054358	484.19	192.56	171.57	49.67	0.00053143	92.016	173.462	-9.549	113.831	-61.400	91.215	32.148	-61.155	-57.797	241.591	204.136	-58.638	-55.776	-55.405	-51.499	169.190	-52.859	-8191	255	
21939.117	1	1	0	0	0.23087	0.14654	0.30886	0.22098	0.12932	0.10041	0.098666	0.090803	0.34658	0.063097	0.22613	0.14094	0.025566	0.12136	0.079655	0.26244	-2.3812	-2.9896	-2.3688	-3.0604	-2.6771	-2.525	-2.9729	-2.525	-2.7896	-2.7875	-2.5854	-2.8771	-2.8333	-2.7083	-2.8667	-2.7208	59.219	-33.934	173.451	114.519	247.797	234.092	7.934	-13.051	267.430	209.563	254.794	98.589	50.808	-54.429	74.099	254.667	0.00038392	0.0007517	0.0005825	412.68	1.4323e-05	1.2528e-05	620.17	163.52	7.0053e-06	2.0187e-06	298.87	132.87	69.004	31.03	1.8217e-05	65.772	0.035007	0.049093	0.012972	777.92	0.00049678	0.00052035	953.16	267.47	0.00049224	0.00054827	483.53	192.23	173.39	49.374	0.00053443	92.004	164.179	262.886	28.039	-61.338	188.832	206.358	-61.298	-57.653	-60.496	-52.544	-58.762	-55.648	-54.907	-51.355	68.402	-53.106	-8191	255	
21939.213	1	1	0	0	0.25072	0.1912	0.21361	0.078529	0.042475	0.15419	0.14641	0.24128	0.14226	0.12825	0.083787	0.18493	0.14287	0.13731	0.13422	0.23845	-2.2167	-2.8646	-2.3271	-2.6667	-2.6854	-2.4667	-3.0021	-2.6542	-2.4875	-2.8917	-2.6292	-2.8521	-2.8208	-2.5771	-2.7792	-2.65	121.088	279.935	277.074	-64.688	-67.436	216.923	258.897	105.356	132.051	-41.299	199.015	253.387	72.854	14.906	85.203	203.148	0.00030054	0.00027974	0.00055594	419.81	2.0123e-05	3.8108e-05	623.76	166.43	2.477e-05	8.0539e-06	300.85	134.22	69.115	31.053	5.928e-06	65.573	0.035197	0.050175	0.013107	781.45	0.00051245	0.00052278	958.55	271.12	0.00049493	0.00055915	486.13	193.16	176.13	49.551	0.00053104	92.475	221.741	-26.033	98.506	-60.857	169.352	133.230	-61.356	-57.850	270.354	43.468	-58.789	-55.707	-55.089	-51.363	-50.142	-52.832	-8191	255	
21939.309	1	1	0	0	0.07807	0.092431	0.21176	0.17269	0.14055	0.089361	0.046124	0.13833	0.10156	0.055409	0.33	0.28232	0.10053	0.22414	0.24602	0.16718	-2.2146	-2.9375	-2.6396	-2.7	-2.9021	-2.4813	-2.9479	-2.7542	-2.6396	-2.9417	-2.7271	-2.8042	-2.9771	-2.6729	-2.8104	-2.825	84.129	83.216	-25.641	18.569	-59.577	28.102	261.131	245.992	53.486	50.927	180.228	247.684	-18.768	139.973	178.901	247.362	0.00037909	0.0022571	0.00028252	414.28	8.9354e-06	1.4511e-05	625.03	166.62	1.606e-05	1.04e-05	303.36	134.81	70.103	31.246	1.0914e-05	65.805	0.035247	0.050581	0.013164	780.14	0.00051995	0.00052085	956.45	273.17	0.00049099	0.00055956	488.84	193.31	177.12	49.642	0.00052252	92.911	174.752	145.729	135.954	-60.979	55.406	41.333	-61.305	-57.616	144.141	209.551	-58.517	-55.798	-54.894	-51.715	93.896	-52.840	-8191	255	
21939.383	1	1	0	0	0.11863	0.1058	0.32926	0.22541	0.11457	0.15981	0.12183	0.22283	0.082023	0.057273	0.11357	0.18032	0.065292	0.10729	0.10864	0.16426	-2.0875	-2.8208	-2.6083	-2.7729	-2.9271	-2.5708	-2.825	-2.7083	-2.6625	-2.9729	-2.7938	-2.8438	-3.0271	-2.7125	-2.8458	-2.875	0.400	55.701	137.977	-22.768	89.664	272.572	145.541	266.840	-66.580	95.082	176.974	273.070	172.556	269.765	-7.353	209.435	0.00023106	0.0015448	0.00050565	423.22	2.6524e-05	5.5647e-06	631.31	168.36	1.2595e-05	8.9393e-06	307.21	136.25	71.945	31.946	9.6011e-06	66.773	0.034562	0.050037	0.013075	779.33	0.00051761	0.00050956	957.51	275.11	0.000478	0.00054115	490.71	194.13	176.79	49.808	0.00050439	93.541	192.613	83.181	201.625	-60.645	64.557	194.177	-61.510	-58.167	257.439	142.580	-58.904	-56.158	-54.830	-51.790	97.200	-53.278	-8191	255	
21939.502	1	1	0	0	0.041872	0.11884	0.11176	0.042873	0.14504	0.048582	0.1898	0.068394	0.099333	0.063299	0.30404	0.17621	0.065151	0.14716	0.25046	0.063761	-1.9312	-2.9125	-2.6	-2.7562	-2.9229	-2.7417	-2.8583	-2.9125	-2.4542	-2.8458	-2.7062	-2.7125	-2.8979	-2.6583	-2.6479	-3.1	-7.250	280.660	202.597	170.472	209.058	123.449	255.899	249.170	32.741	68.306	263.782	182.118	226.764	-22.785	40.052	75.259	0.0003508	0.0015954	0.00036284	429.24	9.7403e-06	2.0408e-05	635.66	171.19	1.3011e-05	1.1889e-05	311.62	138.79	72.404	32.399	1.8049e-05	67.471	0.033483	0.048473	0.012937	776.23	0.00051093	0.00050037	957.56	278.67	0.00047213	0.00053209	496.71	195.11	177.81	50.251	0.00050027	94.542	103.182	-34.563	169.062	-60.826	71.106	-3.039	-61.570	-57.754	195.425	-23.715	-59.025	-55.919	-55.524	-52.068	-30.351	-52.926	-8191	255	
21939.598	1	1	0	0	0.28049	0.12569	0.013564	0.046159	0.2228	0.24171	0.092745	0.25734	0.11104	0.20934	0.039173	0.3216	0.046719	0.07456	0.11452	0.26239	-2.0438	-2.6813	-2.6083	-2.5062	-2.8583	-2.6833	-2.7771	-2.8563	-2.4896	-2.7271	-2.9104	-2.5812	-2.9313	-2.6125	-2.55	-3.0438	16.214	272.822	-54.135	223.928	94.959	107.290	137.792	198.900	170.487	78.253	-42.710	218.606	2.951	273.549	-21.855	-74.651	0.00032191	0.00038703	0.00018013	430.95	2.0142e-05	5.6121e-06	644.44	175.01	1.1735e-05	1.0365e-05	313.27	139.16	74.123	32.728	8.1125e-06	67.424	0.033142	0.048023	0.013068	776.05	0.00050915	0.00050241	961.91	281.75	0.00047006	0.00053069	501.73	195.73	178.22	50.669	0.00049992	94.709	188.511	36.727	213.639	-61.051	81.383	196.849	-61.534	-57.899	30.326	182.255	-58.962	-56.126	-55.828	-51.851	86.673	-53.026	-8191	255	
21939.693	1	1	0	0	0.18847	0.18089	0.30271	0.23956	0.28419	0.10098	0.22909	0.17795	0.086935	0.095251	0.031866	0.088345	0.10006	0.16904	0.27685	0.13102	-2.0583	-2.7188	-2.8	-2.4729	-2.8937	-2.6833	-2.8521	-2.7687	-2.5125	-2.8187	-2.975	-2.7646	-2.8167	-2.5438	-2.6688	-3.1125	55.258	209.127	76.645	145.884	205.612	-40.829	-10.592	-11.475	-10.334	225.387	278.841	-42.648	271.152	251.558	114.105	97.868	0.00040576	0.00085489	0.00048967	432.97	2.5795e-05	1.7441e-05	645.51	175.7	1.4589e-05	1.916e-05	316.51	140.95	74.325	32.762	2.0705e-05	68.317	0.03316	0.047895	0.013325	775.47	0.0005065	0.0005088	963.76	283.5	0.00046818	0.00052448	506.31	196.19	178.08	51.09	0.00049064	95.305	137.119	125.374	36.840	-61.007	97.305	189.672	-61.665	-57.973	66.532	80.617	-58.801	-55.836	-55.269	-51.990	45.987	-53.109	-8191	255	
21939.814	1	1	0	0	0.077157	0.34827	0.068739	0.30461	0.2303	0.084223	0.20219	0.032178	0.20662	0.16894	0.18854	0.12805	0.21399	0.043022	0.28642	0.21752	-2.2271	-2.65	-2.7896	-2.6104	-2.6354	-2.8542	-2.6333	-3.1542	-2.5292	-2.7875	-2.7875	-2.7104	-2.8667	-2.8042	-2.4583	-3.1625	196.484	-43.357	23.180	213.798	-38.483	268.164	170.145	-36.629	153.486	254.042	-49.672	153.590	173.868	33.806	44.017	153.248	0.0003751	0.00072984	0.00046985	434.04	1.3289e-05	1.2686e-05	648.3	175.95	1.2582e-05	5.433e-06	316.94	141.56	74.708	32.988	4.276e-06	68.754	0.032805	0.047281	0.013333	772.63	0.00049747	0.0005125	959.14	283.28	0.00046506	0.00051822	507.9	196.48	177.17	51.51	0.00048312	95.633	110.048	-52.719	-69.443	-61.237	18.353	252.035	-61.511	-57.945	113.041	230.404	-58.865	-55.920	-55.842	-51.789	207.066	-53.054	-8191	255	
21939.910	1	1	0	0	0.16382	0.23735	0.084426	0.15571	0.066883	0.25618	0.23925	0.18297	0.076089	0.15776	0.083514	0.10878	0.10439	0.10765	0.059045	0.11337	-2.3021	-2.7958	-3.0812	-2.6188	-2.5875	-2.8229	-2.4688	-3.0208	-2.4854	-2.7396	-2.9	-2.4833	-2.6125	-2.8292	-2.7438	-3.0062	101.275	179.710	40.025	150.477	-46.496	-60.303	-73.007	4.938	12.700	-67.930	254.683	186.057	226.533	253.612	143.646	277.098	0.00031713	0.0016843	0.00038578	433.21	7.4284e-06	2.2355e-05	648.44	176.13	1.8372e-05	1.6511e-05	319.09	140.61	74.603	33.189	4.4686e-06	68.857	0.032977	0.046691	0.01338	769.58	0.00049392	0.00051969	955.64	282.66	0.00047036	0.0005135	510.07	195.86	177.04	51.908	0.00048272	95.758	164.556	-1.856	13.457	-61.081	84.755	222.792	-61.397	-57.884	168.156	14.028	-59.071	-56.153	-55.497	-52.071	-13.873	-53.216	-8191	255	
21940.006	1	1	0	0	0.12849	0.21856	0.20601	0.071039	0.25252	0.04118	0.14075	0.13181	0.058458	0.21605	0.10828	0.060604	0.061454	0.24415	0.13886	0.226	-2.0917	-2.5604	-2.8979	-2.75	-2.5479	-2.5521	-2.6271	-2.9083	-2.7208	-2.5667	-3.1542	-2.5208	-2.8604	-2.5938	-2.5083	-2.9521	83.534	57.546	-37.536	187.265	60.539	85.457	203.539	222.751	179.811	-53.323	239.887	2.634	167.679	40.717	147.822	158.612	0.00045782	0.0016493	0.00019746	438.85	1.2556e-05	1.154e-05	647.67	176.8	1.2511e-05	1.5477e-05	315.39	141.16	74.839	33.183	8.8483e-06	68.843	0.033619	0.046677	0.013518	773.83	0.00049471	0.00052976	954.77	283.08	0.00048109	0.00051501	510.64	196.41	177.32	52.12	0.00048461	95.89	119.194	-49.125	-42.373	-61.521	96.508	272.212	-61.572	-57.987	88.960	112.016	-58.776	-55.949	-55.063	-51.522	-22.900	-53.049	-8191	255	
21940.104	1	1	0	0	0.14965	0.15866	0.14721	0.26363	0.22285	0.13053	0.22678	0.065604	0.02795	0.15752	0.27266	0.23259	0.15017	0.090377	0.18455	0.30172	-2.3688	-2.3792	-2.9208	-2.7021	-2.8292	-2.8958	-2.5375	-2.7792	-2.8063	-2.6292	-2.9396	-2.7479	-2.6708	-3.0417	-2.5438	-2.9625	94.749	144.288	88.399	272.086	180.745	-15.866	274.451	36.645	-71.141	272.213	276.536	229.042	-56.976	-51.057	200.004	228.130	0.00061725	0.0015728	0.00054808	435.69	1.6015e-05	1.0975e-05	647.24	176.78	1.1436e-05	1.6235e-05	316.77	140.35	74.974	33.315	1.5765e-05	68.586	0.034395	0.046359	0.01358	778.62	0.00049345	0.00053794	955.08	284.2	0.00048862	0.00050909	511.03	196.87	176.89	52.13	0.00048116	95.441	135.079	-66.797	-8.252	-60.669	134.740	35.670	-61.171	-58.174	36.363	48.941	-58.654	-55.915	-55.640	-51.891	40.586	-52.874	-8191	255	
21940.199	1	1	0	0	0.071316	0.29039	0.26493	0.11583	0.17244	0.065533	0.091456	0.2627	0.056555	0.22689	0.25806	0.097717	0.37126	0.25712	0.10326	0.16419	-2.4875	-2.5854	-2.6917	-2.625	-2.7687	-2.8375	-2.5667	-2.9646	-2.8375	-2.6562	-2.9125	-2.7292	-2.6229	-2.8208	-2.6042	-2.9938	22.505	164.997	43.916	172.176	218.209	29.982	-32.331	18.810	-29.374	-45.024	238.624	234.180	-17.980	251.036	127.481	256.786	0.00052105	0.0011233	0.0002312	438.46	9.1859e-06	1.5937e-05	651.1	177.73	1.2561e-05	2.4541e-05	316.88	141.09	74.541	33.14	3.0773e-05	68.511	0.035073	0.046114	0.01359	785.52	0.00049371	0.00054309	958.98	284.77	0.00049808	0.00050784	511.36	198.09	176.09	52.308	0.00048169	95.421	115.229	19.951	-62.289	-60.903	50.899	158.483	-61.418	-57.971	99.323	37.429	-58.745	-56.164	-55.329	-51.968	206.367	-53.178	-8191	255	
21940.293	1	1	0	0	0.088672	0.29068	0.38211	0.22711	0.27044	0.14883	0.21131	0.27031	0.10693	0.16688	0.15478	0.1288	0.37421	0.31844	0.18963	0.25248	-2.375	-2.525	-2.7083	-2.7292	-2.5771	-2.8333	-2.5417	-2.7062	-2.8792	-2.6312	-2.9083	-2.9646	-2.5979	-2.8604	-2.3729	-2.8625	152.803	154.838	150.389	114.514	-21.307	73.363	270.421	255.826	105.496	51.130	279.235	276.117	275.758	269.407	61.601	235.434	0.00055865	0.001655	0.00013659	436.69	1.6281e-05	2.8585e-05	651.05	178.35	9.383e-06	3.6418e-06	317.1	140.17	75.751	33.054	6.0902e-06	68.153	0.035373	0.045645	0.013542	790.13	0.00048719	0.000543	959.93	284.51	0.00050196	0.00050449	510.32	198.6	175.2	52.188	0.00048747	94.943	149.069	-25.647	6.110	-61.062	241.766	271.557	-61.597	-57.805	137.022	95.982	-58.554	-56.271	-55.439	-51.878	129.786	-53.092	-8191	255	
21940.414	1	1	0	0	0.10075	0.30624	0.13129	0.2489	0.13112	0.22897	0.11301	0.066107	0.1399	0.13473	0.19666	0.11476	0.10498	0.15342	0.10758	0.27077	-2.3187	-2.4271	-2.6667	-2.75	-2.525	-2.8729	-2.7042	-2.775	-2.7979	-2.575	-2.7729	-2.8458	-2.4333	-2.9396	-2.6271	-2.8458	266.664	170.754	136.567	114.159	45.127	117.689	224.960	156.188	-23.050	-67.112	150.917	147.035	122.311	133.882	219.584	232.990	0.00064033	0.00068519	0.00046588	434.7	1.9767e-05	1.2055e-05	648.99	178.15	1.0522e-05	7.3088e-06	320.03	141.04	74.689	33.241	2.4151e-05	68.31	0.03558	0.04504	0.013507	792.61	0.00048132	0.00053874	961.57	284.28	0.00050359	0.00050036	511.34	199.5	174.14	52.329	0.00049517	95.08	139.586	-65.028	-4.432	-61.095	-33.972	108.021	-61.452	-58.131	133.106	188.088	-59.012	-55.798	-55.435	-51.932	8.105	-53.022	-8191	255	
21940.510	1	1	0	0	0.049607	0.16491	0.10347	0.10657	0.12344	0.11128	0.30771	0.36913	0.18672	0.091094	0.18703	0.1334	0.048344	0.4228	0.10909	0.24849	-2.4875	-2.5375	-2.7188	-2.8771	-2.4917	-2.9354	-2.8104	-2.7521	-2.7521	-2.6063	-2.8396	-2.8063	-2.4417	-3.0167	-2.5354	-2.7438	114.634	131.187	33.404	251.258	132.659	181.005	256.184	240.719	193.136	83.769	-55.700	253.533	272.587	201.639	38.311	249.106	0.00017589	0.0013074	0.00044283	435.55	9.7211e-06	5.5687e-06	648.92	177.51	8.442e-06	1.5964e-05	318.58	141	74.627	33.232	1.3132e-05	69.322	0.035914	0.045268	0.013597	797.67	0.00047957	0.0005434	970.1	282.76	0.00050708	0.00050694	512.39	201.11	173.81	52.629	0.000507	95.549	111.772	-19.696	218.649	-61.013	44.406	91.659	-61.512	-58.069	-37.642	214.735	-58.850	-55.943	-55.492	-51.540	186.939	-53.087	-8191	255	
21940.605	1	1	0	0	0.16396	0.074847	0.096477	0.093341	0.21619	0.094934	0.17714	0.088368	0.22331	0.14522	0.17123	0.23521	0.0075279	0.087166	0.20091	0.13634	-2.3812	-2.6208	-2.7604	-2.8208	-2.7438	-3.0229	-2.7104	-2.6167	-2.9042	-2.5771	-2.7625	-2.8646	-2.4229	-2.9729	-2.6958	-2.6625	196.607	173.027	80.879	194.217	104.220	194.132	269.785	100.215	200.120	180.437	0.426	170.014	69.199	38.302	118.435	93.093	0.00030557	9.8482e-05	0.00042466	436.64	9.2062e-06	1.8212e-05	647.32	177.62	8.7575e-06	2.5775e-05	321.68	142.22	74.276	33.334	6.9087e-06	69.477	0.036104	0.046111	0.013628	803.53	0.00048028	0.0005473	975.75	282.99	0.00051336	0.00052032	513.82	202.98	174.07	53.023	0.00051927	96.181	174.481	10.002	2.572	-60.805	188.198	16.543	-61.059	-57.871	-11.604	205.328	-58.423	-55.771	-54.543	-51.840	32.538	-52.887	-8191	255	
21940.678	1	1	0	0	0.1979	0.28435	0.34781	0.19855	0.16265	0.11909	0.050677	0.10556	0.20257	0.086417	0.19506	0.43608	0.25919	0.17936	0.24606	0.22809	-2.3167	-2.5667	-2.7167	-2.8833	-2.5938	-2.6896	-2.9646	-2.7062	-2.9333	-2.7125	-2.5854	-3.0312	-2.4958	-2.6729	-2.7792	-2.6542	50.197	96.464	120.781	51.087	-46.364	55.461	243.112	241.423	233.434	9.972	145.578	-50.546	193.844	251.458	19.463	184.932	0.00015827	5.9274e-05	0.00037608	432.53	1.4082e-05	2.2745e-05	647.97	177.08	6.558e-06	8.0449e-06	317.03	141.23	75.571	33.477	1.1812e-05	69.558	0.036533	0.047271	0.013659	809.28	0.00048301	0.00055087	980.71	281.78	0.00051411	0.00052871	511.05	202.7	175.18	53.061	0.00052068	95.745	219.875	177.872	-17.630	-60.751	65.929	-44.556	-61.807	-57.717	219.144	-56.447	-58.973	-56.051	-54.424	-51.531	9.626	-52.898	-8191	255	
21940.773	1	1	0	0	0.13792	0.16356	0.14076	0.20754	0.13515	0.05702	0.2024	0.30534	0.029072	0.087437	0.32719	0.29826	0.26359	0.069167	0.20395	0.17933	-2.4	-2.5208	-2.6667	-2.8792	-2.5896	-2.8563	-2.9437	-2.5187	-2.7375	-2.6583	-2.7188	-2.9917	-2.6771	-2.5521	-2.6583	-2.5292	61.182	189.391	262.936	247.933	185.436	281.436	222.298	222.287	-31.391	-2.895	223.686	-31.209	43.352	229.471	-19.591	218.526	0.00070166	0.0009471	0.00012062	435.58	5.4342e-06	2.4249e-05	646.53	177.32	1.0543e-05	2.0205e-05	319.86	141.39	74.619	33.244	1.2917e-05	69.452	0.036467	0.047977	0.013473	808.95	0.00048739	0.00054833	982.26	280.69	0.00051881	0.00053727	508.73	202.29	175.64	52.642	0.00052344	95.281	149.046	230.554	272.401	-60.926	183.416	162.070	-61.294	-57.556	62.999	213.126	-58.710	-55.971	-55.314	-52.046	13.008	-53.115	-8191	255	
21940.895	1	1	0	0	0.16778	0.15861	0.14793	0.14838	0.04692	0.1241	0.097408	0.30076	0.23185	0.23499	0.11026	0.12265	0.22573	0.0061077	0.099444	0.158	-2.4333	-2.7708	-2.6146	-2.9062	-2.725	-2.6896	-2.7562	-2.6396	-2.7562	-2.8958	-2.6312	-3.0125	-2.4792	-2.7396	-2.8063	-2.5312	212.481	218.031	87.518	261.876	98.082	181.509	203.367	282.284	-26.712	235.859	244.803	247.905	258.802	-4.088	223.147	183.341	0.000493	0.00099967	0.0006336	438.4	8.9678e-06	2.705e-05	649.02	178.13	8.8694e-06	3.1107e-05	320.67	142.27	75.098	33.28	1.0402e-05	69.368	0.03631	0.048356	0.013192	808.81	0.0004905	0.00054105	987.51	280.47	0.00051708	0.00054217	507.2	202.92	177.62	52.557	0.00052824	95.501	134.958	79.223	-0.618	-60.568	271.025	8.416	-61.139	-57.960	237.598	-36.057	-58.683	-55.821	-55.319	-51.899	203.436	-52.806	-8191	255	
21940.990	1	1	0	0	0.10864	0.14641	0.2269	0.19661	0.18396	0.071509	0.11215	0.048264	0.22526	0.074954	0.21621	0.17716	0.11974	0.18183	0.20372	0.28654	-2.1667	-2.4396	-2.4313	-2.7313	-2.4646	-2.65	-2.9562	-2.4042	-2.7313	-2.7125	-2.5021	-3.0125	-2.7229	-2.4917	-2.9146	-2.4562	263.495	-16.172	17.781	280.044	81.970	14.330	264.158	66.403	69.467	-50.320	192.312	264.499	65.425	237.376	174.601	227.540	0.00053358	0.0011893	0.0002415	438.5	2.2746e-05	1.2863e-05	662.78	179.18	4.1408e-06	1.2337e-05	322.63	143.67	75.239	33.516	2.1923e-05	69.868	0.036392	0.049058	0.012983	814.28	0.00049643	0.00053467	994.25	283	0.00051323	0.00053949	506.94	204.25	178.71	52.286	0.00052117	95.721	133.966	125.434	182.192	-61.016	-68.524	64.701	-61.491	-57.972	-36.597	104.488	-58.893	-56.029	-55.271	-52.095	-26.715	-53.282	-8191	255	
21941.088	1	1	0	0	0.2339	0.15436	0.15223	0.17631	0.08763	0.26939	0.18595	0.1397	0.048467	0.24454	0.023547	0.18491	0.22046	0.14046	0.10564	0.22774	-2.2083	-2.7333	-2.3312	-2.7521	-2.7438	-2.6229	-2.9917	-2.5354	-2.6833	-2.8542	-2.5917	-2.9688	-2.7292	-2.4104	-2.6854	-2.5021	197.524	103.019	138.873	258.602	73.509	28.644	-66.310	108.325	275.982	137.029	121.342	216.334	87.337	230.608	192.761	196.264	0.00067635	0.00049821	0.00031923	442.37	2.0226e-05	1.7814e-05	655.52	180.6	2.4082e-05	9.2435e-06	323.56	144.97	75.282	33.657	7.4499e-06	69.553	0.035803	0.04895	0.012774	814.28	0.0004997	0.00052402	993.69	284.7	0.00050797	0.00054321	506.86	205.18	180.71	52.141	0.00051972	96.054	135.477	100.815	-23.292	-60.860	192.406	-0.777	-61.387	-58.059	114.276	65.673	-58.801	-56.267	-55.312	-52.195	209.284	-53.283	-8191	255	
21941.205	1	1	0	0	0.22445	0.11942	0.28782	0.10665	0.014798	0.23926	0.018156	0.21671	0.31742	0.13708	0.021151	0.16192	0.093688	0.10366	0.16148	0.19151	-2.3438	-2.8083	-2.3771	-2.7438	-2.7229	-2.5604	-2.9167	-2.4354	-2.8104	-2.7958	-2.5792	-2.8667	-2.6229	-2.475	-2.8854	-2.7687	136.160	-10.676	180.885	-11.722	30.588	233.787	184.191	208.920	45.812	-52.885	23.436	-16.939	239.957	233.404	256.431	275.939	0.00052435	0.00089401	0.00057782	445.45	1.022e-05	1.6823e-05	662.78	182.3	2.5707e-05	1.7558e-05	326.98	145.17	76.483	33.739	1.8696e-05	69.658	0.035334	0.048991	0.012683	816.8	0.00050321	0.00051423	997.08	287.39	0.00049959	0.00054072	509.16	205.55	182.24	52.065	0.00052571	96.632	143.490	106.442	199.067	-61.504	4.068	-42.203	-61.606	-58.078	91.903	161.276	-58.969	-56.135	-55.387	-52.415	208.993	-53.304	-8191	255	
21941.279	1	1	0	0	0.17771	0.28981	0.0707	0.21108	0.12992	0.37532	0.076224	0.13109	0.078795	0.11973	0.074629	0.058244	0.1272	0.10511	0.14131	0.35507	-2.025	-2.8063	-2.4062	-2.8792	-2.6521	-2.6646	-2.675	-2.8292	-2.4	-2.7708	-2.6375	-2.6583	-2.7333	-2.7125	-2.7667	-2.8729	-55.354	99.104	117.580	274.719	214.614	196.847	-19.885	271.315	101.037	211.365	-54.873	-40.106	17.458	219.932	27.944	243.722	0.0002703	0.00093995	0.00040798	454.64	5.9542e-06	1.7593e-05	668.66	182.54	8.2078e-06	1.8167e-05	327.28	145.43	76.97	33.899	1.9352e-06	69.951	0.034955	0.048943	0.012865	821.28	0.00050575	0.00050765	1002.4	289.42	0.00049147	0.00054192	511.87	205.59	182.97	51.977	0.00053018	97.25	146.302	33.608	24.854	-61.178	-6.289	259.653	-61.403	-57.993	-47.843	2.852	-58.939	-56.176	-55.607	-52.070	214.122	-53.411	-8191	255	
21941.375	1	1	0	0	0.08123	0.11765	0.11541	0.16318	0.21228	0.092634	0.11663	0.15632	0.16983	0.19648	0.33094	0.2804	0.093551	0.22735	0.11617	0.11651	-2.0771	-2.5771	-2.6521	-2.7812	-2.6417	-2.5125	-2.9688	-2.7458	-2.5042	-3.0208	-2.7938	-2.5563	-2.7896	-2.5396	-2.75	-2.7896	-68.817	7.236	151.670	271.946	16.156	-9.590	-21.118	-0.143	190.891	12.089	273.029	250.585	176.356	184.962	47.744	227.817	0.00038082	0.00083632	0.00041102	456.11	1.8274e-05	9.2337e-06	674.21	183.97	1.8428e-05	1.9565e-05	327.78	146.59	76.513	33.991	1.6447e-05	69.831	0.034693	0.04941	0.013111	823.45	0.00051072	0.00050815	1010.6	292.23	0.00048409	0.00054477	516.19	206.05	183.27	52.166	0.00052958	96.93	96.397	-5.390	-13.871	-60.802	267.855	237.513	-61.653	-57.827	56.147	115.318	-58.748	-56.746	-55.776	-51.973	-8.775	-53.337	-8191	255	
21941.494	1	1	0	0	0.16355	0.2799	0.21288	0.33081	0.095616	0.19739	0.024606	0.23077	0.19525	0.042117	0.25073	0.30154	0.064687	0.11795	0.13185	0.15552	-2.0667	-2.8854	-2.5312	-2.4875	-2.9271	-2.5625	-2.9625	-2.9938	-2.5604	-3.0438	-2.7188	-2.8187	-3.0375	-2.5854	-2.8146	-2.9771	257.829	128.230	146.482	32.316	34.368	-58.030	-5.423	242.160	256.402	50.936	243.536	226.618	-39.271	217.435	261.094	-35.477	0.00020433	0.0008193	0.00028667	454.39	3.4412e-05	1.0737e-05	671.96	183.09	2.161e-05	1.6574e-05	324.68	145.44	76.684	33.75	2.0562e-05	69.389	0.034053	0.049603	0.013269	817.61	0.00051065	0.0005132	1007.8	291.73	0.00047573	0.00054729	516.46	204.12	182.79	51.972	0.00051992	96.434	133.517	23.361	88.663	-61.119	197.436	87.618	-61.384	-58.219	2.383	67.665	-59.251	-55.955	-56.109	-52.176	38.552	-53.404	-8191	255	
21941.590	1	1	0	0	0.16501	0.30806	0.045207	0.36468	0.14906	0.037136	0.19644	0.14214	0.21941	0.21569	0.095177	0.35303	0.19157	0.28371	0.33127	0.24541	-2.2979	-2.7375	-2.5167	-2.6229	-2.8688	-2.5854	-2.7396	-3.0125	-2.6146	-2.7271	-2.6312	-2.8729	-2.7333	-2.6208	-2.6937	-2.7833	266.317	-71.251	58.902	254.207	124.577	231.326	251.577	-40.653	87.632	111.009	67.233	242.260	-60.682	203.053	19.180	149.777	0.00045749	0.0010404	0.00036643	456.51	3.7754e-06	3.3696e-05	673.46	182.81	6.7784e-06	8.9941e-06	323.09	145	77.638	33.555	2.812e-05	69.533	0.033142	0.049251	0.013289	805.48	0.00050596	0.00051293	1000.9	290.72	0.00046938	0.00054675	515.41	202.36	182.81	52.035	0.00051583	96.572	115.483	150.155	195.312	-61.437	189.555	212.272	-61.657	-57.998	-33.280	-58.049	-59.290	-56.049	-55.192	-51.923	43.795	-53.408	-8191	255	
21941.686	1	1	0	0	0.16951	0.047672	0.1629	0.12726	0.27214	0.077508	0.19008	0.1051	0.19044	0.10093	0.11346	0.19455	0.36352	0.10246	0.17104	0.44168	-2.1771	-2.9021	-2.6937	-2.7021	-2.8104	-2.5312	-2.7958	-2.825	-2.5729	-2.8604	-2.7083	-2.5896	-2.9437	-2.6646	-2.6312	-3.0062	178.026	283.778	136.641	189.252	136.892	205.624	237.938	-71.661	1.461	88.863	215.836	-28.158	131.780	-9.406	-19.032	209.794	0.00042069	0.00019451	0.00044706	451.22	1.1756e-05	2.2051e-05	673.88	183.57	7.6886e-06	1.9668e-06	326.09	145.57	77.523	33.919	1.8513e-05	69.553	0.033268	0.049313	0.013425	800.19	0.00051129	0.00052206	995.8	291.44	0.00047071	0.00054729	517.81	202.01	183.21	52.511	0.00050621	96.75	146.017	41.590	60.928	-61.268	233.483	200.021	-61.414	-58.223	147.586	228.316	-59.116	-55.971	-55.493	-52.313	78.849	-53.577	-8191	255	
21941.783	1	1	0	0	0.21142	0.30355	0.14001	0.10737	0.17007	0.073829	0.18297	0.27243	0.08604	0.095295	0.12775	0.11278	0.10713	0.30839	0.08231	0.032495	-2.3521	-2.7271	-2.7125	-2.5187	-2.7083	-2.7188	-2.65	-2.8667	-2.5167	-2.6646	-2.8729	-2.5438	-2.8146	-2.5646	-2.7	-2.7958	156.571	204.987	12.804	51.282	233.908	181.768	62.491	236.616	186.891	108.384	233.787	4.599	240.835	209.278	222.165	228.598	0.00035294	0.0006933	0.00017929	449.12	1.7326e-05	7.2985e-06	674.43	183.76	5.9768e-07	1.7004e-05	327.81	146.69	77.752	33.922	1.5791e-05	70.174	0.033517	0.049052	0.013518	791.68	0.00051474	0.00052738	992.5	291.98	0.00047493	0.00054421	519.31	202.57	183.97	52.819	0.00049641	97.442	119.749	88.688	-55.363	-61.267	86.491	81.561	-61.498	-58.237	27.821	-5.707	-58.947	-56.133	-55.491	-52.080	48.870	-53.256	-8191	255	
21941.902	1	1	0	0	0.26669	0.20034	0.20356	0.18411	0.1795	0.14087	0.087291	0.28199	0.11545	0.27374	0.25141	0.10878	0.025904	0.049598	0.21912	0.099936	-2.0167	-2.6792	-2.6813	-2.5354	-2.8083	-2.6521	-2.6708	-2.7854	-2.6708	-2.8333	-2.9229	-2.5125	-2.8771	-2.6833	-2.5312	-2.8646	194.885	159.103	203.973	-56.706	123.789	50.256	192.958	206.998	-72.694	196.355	65.738	41.575	99.940	24.727	199.333	140.244	0.00058795	0.002491	0.00051797	449.55	3.844e-06	1.3003e-05	670.17	181.1	1.7007e-05	1.2404e-05	326.19	145.68	76.701	34.077	2.5671e-05	70.03	0.033918	0.048639	0.013533	789.69	0.00051722	0.00052962	983.72	290.9	0.00048296	0.00053755	518.37	202.19	184.08	52.962	0.00048814	97.544	128.506	6.588	70.000	-60.818	136.278	188.329	-61.776	-58.055	257.065	98.455	-59.114	-56.019	-55.399	-51.885	-46.111	-53.370	-8191	255	
21941.975	1	1	0	0	0.24087	0.089623	0.069633	0.17685	0.24343	0.041674	0.18474	0.12887	0.21934	0.18092	0.25847	0.24935	0.36041	0.1538	0.074967	0.035782	-2.1479	-2.7271	-2.7542	-2.5375	-2.8229	-2.8063	-2.4437	-3.025	-2.7458	-2.6208	-2.9958	-2.5958	-2.6583	-2.9562	-2.5542	-2.975	202.691	68.096	-47.267	-23.020	-35.420	261.839	250.606	142.017	153.813	177.526	-8.790	207.255	-54.345	194.751	-22.197	-5.729	0.00062073	0.0033603	0.00016145	444.24	1.8263e-05	2.3453e-05	664.9	182.24	1.0201e-05	1.9485e-05	324.4	144.43	76.662	33.752	1.2062e-05	69.578	0.034596	0.048112	0.013552	791.18	0.00052061	0.00053523	977.24	292.26	0.00049227	0.00053034	517.66	201.48	183.6	52.867	0.00048352	97.302	113.482	-34.949	69.972	-60.821	-12.690	79.921	-61.487	-57.875	143.212	60.867	-59.025	-55.903	-55.952	-51.789	38.547	-53.111	-8191	255	
21942.096	1	1	0	0	0.15053	0.060972	0.26362	0.041855	0.20611	0.26686	0.13972	0.25989	0.08897	0.086538	0.052611	0.28908	0.29135	0.067684	0.12637	0.15918	-2.0979	-2.4917	-2.925	-2.425	-2.8563	-2.7521	-2.5958	-2.8792	-2.6604	-2.6479	-2.9229	-2.6333	-2.8438	-2.7812	-2.3896	-2.8479	129.859	250.634	181.453	-18.668	139.510	-55.415	139.631	183.358	120.063	-35.813	11.633	214.843	-57.672	231.707	-49.115	281.783	0.00040885	0.0025051	0.00050088	443.86	9.8425e-06	8.0762e-06	666.52	182.89	1.0131e-05	7.3062e-06	325.31	144.91	77.692	33.793	1.0648e-05	69.716	0.034873	0.047321	0.01365	797.01	0.00051518	0.00053837	977.39	293.21	0.00049798	0.00052116	520.66	202.68	183.07	52.987	0.00048708	97.675	136.741	-28.307	15.439	-61.079	142.183	69.109	-61.452	-58.120	156.119	41.599	-59.230	-56.195	-55.493	-52.220	48.124	-53.169	-8191	255	
21942.189	1	1	0	0	0.20084	0.24483	0.2333	0.27807	0.073748	0.092557	0.039046	0.24647	0.27707	0.10973	0.17843	0.19122	0.26951	0.048866	0.066504	0.14449	-2.1688	-2.6875	-2.6	-2.5042	-2.6042	-2.8875	-2.4771	-2.8583	-2.6937	-2.6146	-2.8646	-2.5583	-2.6937	-3.0417	-2.5458	-2.8937	32.565	213.734	240.426	181.273	-27.002	279.047	44.112	175.470	183.507	98.308	-23.534	-44.939	61.888	78.824	77.367	58.319	0.0003539	0.002411	0.00067765	442.04	7.2188e-06	3.268e-06	660.51	181.95	1.3573e-05	8.31e-06	325.91	144.99	77.584	34.144	1.128e-05	70.554	0.035469	0.046693	0.013902	800.87	0.00051047	0.0005399	977.35	293.07	0.00050245	0.00051079	523.13	204.05	181.34	53.29	0.00048778	98.344	141.758	6.382	-3.212	-60.708	-4.264	229.960	-61.368	-58.155	198.798	101.867	-59.014	-56.085	-55.535	-51.822	-67.657	-53.304	-8191	255	
21942.285	1	1	0	0	0.28475	0.23569	0.20342	0.14961	0.1793	0.2127	0.056806	0.094579	0.18549	0.32669	0.23595	0.22062	0.14434	0.17383	0.023617	0.15697	-2.4813	-2.3854	-2.75	-2.7042	-2.6167	-2.85	-2.5563	-2.9104	-2.6646	-2.5875	-2.9771	-2.8833	-2.6771	-2.9729	-2.5083	-2.8083	60.705	30.993	171.438	35.413	166.687	177.571	244.685	229.182	77.412	29.481	261.240	274.739	202.287	266.566	178.599	4.562	0.00050892	0.0007861	0.00081378	443.76	2.1596e-05	1.341e-05	661.76	182.03	8.0224e-06	8.8837e-06	326.86	146.14	77.48	34.131	5.7018e-06	70.437	0.035128	0.045752	0.013856	803.77	0.00049841	0.00053851	980.36	292.52	0.00050276	0.00050722	526.11	204.89	180	53.558	0.0004955	98.138	136.881	-7.711	27.414	-60.907	29.104	194.572	-61.498	-57.825	-20.918	45.487	-58.800	-56.091	-55.637	-51.929	-62.467	-53.119	-8191	255	
21942.383	1	1	0	0	0.17445	0.0071797	0.062399	0.25098	0.072133	0.030607	0.23173	0.19566	0.072979	0.12975	0.16797	0.19941	0.18455	0.1182	0.15721	0.0089104	-2.3708	-2.4646	-2.8271	-2.7167	-2.6125	-2.8292	-2.8688	-2.5917	-2.8208	-2.4188	-2.9292	-2.8688	-2.3708	-2.9146	-2.5583	-2.7958	38.904	-32.514	108.679	-6.588	-22.589	52.230	249.790	-50.884	85.404	258.308	108.416	236.531	45.241	6.980	232.299	24.546	0.00028847	0.00031209	0.00054178	447.05	2.0361e-05	3.4157e-06	666.51	183.04	1.6474e-05	8.1435e-06	328.35	146.39	77.856	34.213	2.5557e-05	69.85	0.035284	0.045942	0.013935	808.37	0.00048754	0.00054429	985.71	292.04	0.00050026	0.00050792	527.09	205.33	178.14	53.814	0.00050332	97.431	155.192	144.245	-39.508	-60.756	-9.729	266.051	-61.434	-58.081	266.599	59.887	-58.722	-56.268	-55.409	-51.946	167.646	-53.258	-8191	255	
21942.504	1	1	0	0	0.1723	0.14172	0.25966	0.21447	0.32846	0.1691	0.10685	0.18856	0.019554	0.083132	0.19468	0.21226	0.080163	0.30625	0.15144	0.19399	-2.275	-2.4938	-2.7458	-2.6146	-2.4979	-2.8854	-2.7167	-2.7375	-2.8479	-2.7021	-2.8521	-2.8354	-2.5125	-3.0458	-2.5708	-2.7542	52.110	-51.928	2.361	134.806	243.632	266.949	186.950	133.949	5.968	-26.392	-22.883	252.748	-68.443	140.396	-22.272	146.152	0.0007603	0.00089557	0.00030517	451.52	8.7929e-06	8.0227e-06	669.47	183.55	3.043e-06	1.5199e-05	328.55	147.14	77.654	34.515	3.5218e-06	70.232	0.035512	0.046209	0.01399	812.78	0.00047928	0.00054927	991.47	290.51	0.00049961	0.00050829	525.05	205.95	177.25	53.934	0.00050478	96.884	167.055	109.681	-26.056	-61.344	13.226	-24.533	-61.499	-57.865	-16.127	157.409	-58.798	-56.244	-55.618	-51.926	234.092	-53.155	-8191	255	
21942.574	1	1	0	0	0.15414	0.16302	0.18728	0.099957	0.079033	0.2126	0.13853	0.16101	0.074146	0.29962	0.25438	0.29872	0.25221	0.26868	0.083724	0.38413	-2.3396	-2.5021	-2.6042	-2.7625	-2.5542	-2.95	-2.7875	-2.6292	-3.0354	-2.3708	-2.8729	-2.7583	-2.525	-2.75	-2.5958	-2.5812	49.723	235.479	-52.035	178.849	-68.084	-48.222	-1.104	211.321	155.974	126.618	274.325	280.244	175.754	108.264	-71.875	214.229	0.00026519	0.0020174	0.00015132	451.12	5.2484e-06	1.4214e-05	673.99	184.42	1.0827e-05	2.1649e-05	328.64	147.47	78.342	34.765	1.1265e-05	70.752	0.035544	0.046549	0.013843	814.8	0.00047686	0.0005558	995.25	288.65	0.00050776	0.00051616	524.71	206.26	177.44	54.156	0.00050431	96.715	116.834	78.998	47.744	-61.232	-23.485	14.195	-61.603	-58.124	220.144	169.740	-58.799	-56.019	-55.019	-52.241	155.081	-53.067	-8191	255	
21942.672	1	1	0	0	0.21891	0.16474	0.097045	0.21052	0.19247	0.051593	0.045263	0.15756	0.26458	0.10476	0.074186	0.31921	0.10627	0.32446	0.1724	0.045866	-2.4292	-2.3937	-2.6979	-2.9167	-2.55	-2.8625	-2.7979	-2.5979	-2.8104	-2.4479	-2.6104	-2.8125	-2.5896	-2.8021	-2.6771	-2.6688	267.867	112.886	42.173	256.096	66.703	161.713	236.691	194.296	183.287	260.498	2.584	-13.265	155.772	165.603	24.741	-43.801	0.00056341	0.0013059	0.00019022	455.6	1.2937e-05	5.9062e-06	674.58	185.36	7.227e-07	1.4231e-05	331.57	147.81	78.576	34.743	1.0804e-05	70.207	0.035644	0.04666	0.013449	813.03	0.0004735	0.00055066	997.56	287.08	0.00050667	0.00051619	520.99	206.54	177.18	54.044	0.00050243	95.898	101.154	-47.579	258.474	-60.898	-11.773	-1.417	-61.610	-57.933	176.020	215.377	-58.609	-56.036	-55.509	-51.995	48.709	-53.232	-8191	255	
21942.768	1	1	0	0	0.072913	0.16564	0.11572	0.11371	0.12778	0.024559	0.22292	0.13512	0.28456	0.18464	0.40956	0.22976	0.21215	0.35488	0.30112	0.26497	-2.5271	-2.5833	-2.5667	-2.9813	-2.4583	-2.7104	-2.7292	-2.5292	-2.7208	-2.5167	-2.7687	-2.9604	-2.5729	-2.9188	-2.8271	-2.6521	123.921	-29.814	66.464	257.812	-49.283	196.618	-15.678	194.927	140.849	-39.216	-67.443	216.934	26.558	-56.336	228.698	214.754	0.00054292	0.00051826	0.00068779	450.92	4.2776e-06	1.032e-05	673.56	183.43	1.2924e-05	9.2992e-06	330.37	146.84	78.38	34.336	1.0857e-05	69.146	0.035782	0.04646	0.013046	809.4	0.0004718	0.00054009	991.4	284.99	0.00050631	0.00051701	514.8	205.82	177.59	53.598	0.00050494	94.925	114.871	271.005	-54.384	-61.504	119.473	127.257	-61.514	-57.550	192.641	23.567	-59.412	-55.984	-55.793	-52.123	209.824	-52.952	-8191	255	
21942.863	1	1	0	0	0.30684	0.25257	0.20027	0.14775	0.096541	0.12064	0.13409	0.25741	0.060663	0.22785	0.10654	0.21623	0.20893	0.15656	0.27107	0.38514	-2.5083	-2.6167	-2.2979	-2.8	-2.6458	-2.7375	-2.8958	-2.6021	-2.7542	-2.5792	-2.6917	-2.9375	-2.4813	-2.5896	-2.7104	-2.5854	112.743	20.254	125.043	-46.718	69.615	14.140	-61.278	-71.842	265.258	-65.563	184.230	156.278	214.942	261.277	-2.318	186.995	0.00043966	0.00070846	0.00055206	444.99	1.2541e-05	2.1666e-05	663.97	182.07	1.1411e-05	4.0765e-06	326.44	145.11	78.051	34.06	6.0863e-06	69.463	0.036325	0.047091	0.012923	811.1	0.00048322	0.00053873	985.8	283.23	0.00050994	0.00052244	507.68	204.89	177.86	53.065	0.0005015	94.54	200.818	62.571	-37.192	-61.267	149.524	61.307	-61.460	-57.865	81.361	177.902	-58.938	-55.942	-55.812	-51.981	-65.671	-52.938	-8191	255	
21942.984	1	1	0	0	0.084029	0.17297	0.24291	0.027361	0.15652	0.10553	0.15331	0.14085	0.11906	0.034868	0.19704	0.23249	0.14714	0.3006	0.3177	0.21544	-2.2042	-2.5333	-2.5354	-2.9437	-2.5458	-2.6958	-3.025	-2.4479	-2.8833	-2.8083	-2.5438	-3.0271	-2.3042	-2.7438	-2.8042	-2.6625	-33.487	142.987	150.244	161.237	51.600	154.806	252.998	257.825	-48.840	-66.586	282.133	248.500	190.804	211.184	109.834	197.325	0.00043266	0.0027667	0.00042785	447.19	1.628e-05	2.4276e-05	662.68	180.84	1.0441e-05	1.4771e-05	322.93	144.37	76.89	33.854	1.5053e-05	68.411	0.035945	0.046828	0.012686	813.19	0.00048379	0.00052592	983.79	282.77	0.00050485	0.00051931	503.55	204.32	177.39	52.092	0.00050434	93.908	168.184	-20.120	-15.377	-61.671	109.718	-4.169	-61.438	-58.028	6.037	-4.305	-58.989	-55.967	-55.441	-51.853	278.445	-53.044	-8191	255	
21943.080	1	1	0	0	0.10132	0.042425	0.08568	0.10275	0.1194	0.13799	0.23897	0.042242	0.31062	0.15616	0.17704	0.22384	0.13183	0.25325	0.14653	0.19772	-2.1083	-2.4271	-2.4854	-2.8	-2.5542	-2.6708	-3.0125	-2.5146	-2.8896	-2.7667	-2.4333	-2.8354	-2.6104	-2.8146	-2.8688	-2.7292	8.942	233.086	198.358	96.017	-56.702	192.086	234.067	181.175	170.842	219.934	-74.754	-53.156	248.489	-51.141	215.408	201.193	0.00028678	0.00026586	0.00039808	442.18	1.592e-05	2.7016e-05	659.44	179.62	8.8563e-06	2.0186e-05	323.03	143.95	76.444	33.49	7.5996e-06	68.06	0.035499	0.04665	0.012541	811.63	0.00048538	0.00051074	987.47	282.83	0.00049782	0.00051789	502.52	203.81	176.68	51.53	0.00050948	93.386	135.960	91.671	282.049	-61.174	173.351	39.057	-61.359	-57.836	156.815	85.447	-58.754	-55.976	-55.346	-51.966	28.697	-53.047	-8191	255	
21943.176	1	1	0	0	0.18905	0.16196	0.086591	0.14003	0.23245	0.23461	0.10367	0.40458	0.090008	0.11713	0.0098619	0.086758	0.22131	0.1657	0.016866	0.11932	-2.1688	-2.7458	-2.2917	-2.7542	-2.5312	-2.5354	-3.0208	-2.5542	-2.6917	-2.8896	-2.6208	-3.0938	-2.6167	-2.7271	-2.8375	-2.6333	221.224	66.449	193.991	213.582	113.986	-53.493	126.354	267.215	146.129	23.621	16.733	124.161	201.551	67.755	114.055	124.259	0.00026955	0.0016111	0.00012589	437.52	1.7709e-05	1.0035e-05	654.11	177.38	2.3345e-05	2.2953e-05	318	141.22	74.84	32.9	2.8646e-05	66.613	0.035097	0.046782	0.012648	808.69	0.00049136	0.00050601	986.76	282.14	0.00049551	0.00052839	500.89	202.08	176.77	50.94	0.00052505	93.211	118.531	43.338	129.886	-60.979	182.324	126.772	-61.606	-57.886	42.435	-72.886	-58.552	-55.667	-54.916	-51.648	-15.636	-52.761	-8191	255	
21943.271	1	1	0	0	0.13615	0.17166	0.17532	0.092129	0.11927	0.27571	0.16866	0.20027	0.033657	0.029818	0.2791	0.19638	0.23226	0.24019	0.19734	0.3855	-2.2646	-2.85	-2.3667	-2.8208	-2.7438	-2.4708	-2.8875	-2.5333	-2.7313	-2.8292	-2.5104	-2.5979	-2.6646	-2.4271	-2.6104	-2.7687	203.392	-74.037	196.434	282.477	120.679	-42.016	275.741	167.447	93.678	188.464	238.164	267.577	117.838	273.033	-65.252	208.635	0.00013938	0.001779	0.0002634	431.29	6.1862e-06	8.5316e-06	642.48	174.92	2.1011e-05	1.4999e-05	313.19	139.48	73.574	32.415	9.7789e-06	66.496	0.034931	0.048045	0.012923	803.93	0.00049768	0.00050941	981.28	280.95	0.00049217	0.00054092	499.78	200.21	177.16	50.707	0.0005354	93.289	93.329	219.127	190.612	-60.785	131.993	-66.781	-61.288	-57.634	55.900	130.401	-58.369	-55.737	-55.249	-51.608	41.478	-52.888	-8191	255	
21943.365	1	1	0	0	0.11257	0.26412	0.29744	0.13197	0.16241	0.20274	0.052052	0.21	0.14936	0.14542	0.3738	0.12422	0.077648	0.065749	0.055157	0.0044682	-2.0812	-2.875	-2.5583	-2.725	-2.6167	-2.5104	-2.8854	-2.7542	-2.6271	-2.925	-2.6188	-2.6833	-2.7417	-2.5396	-2.6937	-2.6437	225.988	-13.728	195.166	123.883	171.319	-60.047	62.625	142.978	106.441	-44.842	184.786	251.735	107.476	33.271	-15.393	154.816	0.00048095	0.00072381	0.00045524	428.25	1.7187e-05	2.1862e-05	642.45	175.16	1.3864e-05	2.2665e-05	312.32	140.21	73.256	32.446	2.0336e-05	66.92	0.034733	0.04936	0.01324	800.99	0.00050233	0.00051386	983.52	280.92	0.0004834	0.00054525	500.5	198.77	176.59	50.681	0.00052935	93.416	135.954	121.413	108.828	-60.916	-22.601	45.365	-61.448	-57.413	-65.239	278.644	-58.572	-55.588	-56.014	-51.284	58.086	-52.602	-8191	255	
21943.465	1	1	0	0	0.32165	0.29005	0.15944	0.060327	0.099176	0.15574	0.30341	0.39322	0.26031	0.14844	0.169	0.07122	0.11369	0.032633	0.072469	0.12104	-1.9729	-2.6583	-2.5458	-2.7479	-2.7167	-2.5104	-3.0187	-2.8042	-2.375	-2.7646	-2.6813	-2.7917	-2.7646	-2.5854	-2.7729	-2.7833	83.484	-14.332	75.522	-52.461	-4.573	272.666	220.941	267.337	35.226	185.134	-64.792	54.871	196.945	12.791	228.128	153.847	0.00054019	0.0010606	0.00023244	427.82	1.409e-05	1.079e-05	640.5	174.06	5.0911e-06	1.5135e-05	312.92	140.03	73.357	32.342	9.8391e-06	66.611	0.033874	0.049509	0.013176	788.27	0.00050325	0.00051282	976.15	279.15	0.00047806	0.00055262	500.96	197.28	176.94	50.557	0.00052486	93.145	118.204	51.437	49.261	-60.941	86.721	88.114	-61.193	-57.780	-29.214	-66.495	-58.572	-55.263	-54.888	-51.729	19.952	-52.768	-8191	255	
21943.582	1	1	0	0	0.06584	0.12094	0.18087	0.17058	0.044612	0.088377	0.073922	0.037988	0.14814	0.16818	0.27731	0.098654	0.36814	0.14179	0.31055	0.24767	-2.1688	-2.8042	-2.5104	-2.5417	-2.9188	-2.5854	-2.8417	-2.7188	-2.3438	-2.8187	-2.5896	-2.5771	-2.7667	-2.5563	-2.5438	-2.8792	162.257	53.804	271.664	-40.045	48.477	24.547	263.417	-67.323	125.011	266.291	156.140	-11.819	-23.088	-48.957	140.715	210.411	0.00041487	0.0015584	0.00031779	427.47	2.0064e-05	1.8139e-05	642.16	173.52	1.7983e-05	7.6344e-06	312.95	138.84	73.229	32.275	1.7958e-05	66.174	0.033385	0.04971	0.013112	776.82	0.00050354	0.00051226	970.69	278.48	0.00047364	0.00054908	500.21	195.46	178.08	50.551	0.00051628	92.699	175.319	-16.182	-29.158	-61.388	64.691	-32.752	-61.380	-57.386	16.262	167.032	-58.514	-55.661	-55.134	-51.317	128.061	-52.842	-8191	255	
21943.680	1	1	0	0	0.13533	0.026794	0.1434	0.12018	0.080378	0.33066	0.35116	0.2016	0.17475	0.095152	0.09759	0.20524	0.20811	0.058332	0.18744	0.17679	-1.9771	-2.8542	-2.6583	-2.6937	-2.7188	-2.5312	-2.7521	-2.8333	-2.2896	-3.0542	-2.7125	-2.6167	-2.8146	-2.6417	-2.7958	-2.9479	154.799	-22.195	105.599	-2.666	84.989	111.272	275.833	216.781	276.614	13.010	172.470	244.554	22.032	247.851	238.169	80.412	0.00038271	0.0017128	0.00037359	420.97	3.6839e-06	2.8025e-05	636.41	173.14	8.6274e-06	1.5187e-05	312.77	138.21	72.765	32.112	1.3381e-05	66.41	0.033532	0.049964	0.013087	769.66	0.00050994	0.00051495	957.8	278.11	0.00047291	0.0005482	497.96	194.08	178.73	50.385	0.00049963	93.025	163.038	73.203	5.642	-60.379	139.267	5.350	-61.044	-57.662	35.069	0.541	-58.943	-55.673	-55.250	-51.599	26.116	-52.868	-8191	255	
21943.775	1	1	0	0	0.19887	0.19264	0.15067	0.18635	0.096389	0.14138	0.304	0.26741	0.13247	0.052202	0.20252	0.41936	0.10828	0.32997	0.16014	0.18551	-2.1354	-2.825	-2.5667	-2.3667	-2.8292	-2.575	-2.7146	-2.7313	-2.5146	-2.8104	-2.7208	-2.7083	-2.9021	-2.5521	-2.5729	-3.0667	120.544	184.605	127.323	-20.552	-21.885	246.247	246.111	171.278	113.985	-69.036	259.541	232.984	225.827	-61.516	-73.276	116.793	0.00057562	0.00018289	7.4551e-05	424.12	8.3625e-06	2.1987e-05	636.38	174.63	1.451e-05	2.5264e-05	314.02	139.77	74.671	32.503	7.478e-06	67.502	0.033265	0.048871	0.01295	762.66	0.00050913	0.00051205	949.49	279.41	0.00047163	0.00053385	498.41	194.75	179.41	50.72	0.00048748	94.363	120.529	182.402	124.735	-60.863	72.254	-11.239	-61.258	-57.665	157.437	94.377	-58.756	-55.928	-55.750	-51.624	38.992	-52.973	-8191	255	
21943.871	1	1	0	0	0.054544	0.16428	0.16919	0.092566	0.095728	0.16942	0.17693	0.43829	0.18087	0.1412	0.06615	0.10891	0.36181	0.36735	0.18213	0.16971	-2.1	-2.725	-2.7125	-2.575	-2.8312	-2.5917	-2.8167	-2.9708	-2.6375	-2.8146	-2.7396	-2.5521	-2.7583	-2.6521	-2.4562	-2.8688	176.259	146.000	-52.884	108.969	227.658	66.954	228.589	250.775	-22.227	66.349	241.151	75.171	169.471	272.499	67.388	-69.555	0.00033829	0.0017642	0.00034535	425.39	1.782e-05	2.5044e-05	638.06	174.73	6.4896e-06	3.3189e-05	316.26	140.34	74.49	33.056	1.2412e-05	67.994	0.033422	0.048282	0.012958	764.18	0.0005095	0.00051392	944.72	281.66	0.00047389	0.00052479	502.48	196.32	179.51	51.024	0.00048224	95.234	166.606	-7.245	126.582	-61.239	211.947	123.212	-61.231	-57.224	175.963	77.737	-58.985	-55.766	-56.175	-51.721	17.398	-52.583	-8191	255	
#DATA ENDS
