BOXY.EXE: ISS Imagent and Oximeter Data Acquisition Program Version 0.80
Ascii Record File

#ACQ INFORMATION
2  Detector Channels 
16  External MUX Channels 
1  Auxiliary Channels 
5000  Waveform (CCF) Frequency (Hz)
1  Waveforms Skipped 
30  Waveforms Averaged 
1  Cycles Averaged 
16  Acquisitions per Waveform 
10.0806  Updata Rate (Hz) 

#FILE INFORMATION
TRUE -- External MUX Channel results are PARSED.
FALSE -- AC DC and Phase are NOT grouped.
TRUE -- Companion Program Settings File CREATED.
FALSE -- AC data not excluded
FALSE -- DC data not excluded
FALSE -- Phase data not excluded
FALSE -- Auxillary Chn. data not excluded
Tab delimiters

#CALIBRATION STATE
TRUE -- Waveform Calibration Values APPLIED.


#AUX CALIBRATION VALUES
Val Type	aux-1	

Term	1.0000e+00	
Factor	0.0000e+00	


#WF CALIBRATION VALUES
A = Detector Channel
Val Type	A-AC1	A-AC2	A-AC3	A-AC4	A-AC5	A-AC6	A-AC7	A-AC8	A-AC9	A-AC10	A-AC11	A-AC12	A-AC13	A-AC14	A-AC15	A-AC16	A-DC1	A-DC2	A-DC3	A-DC4	A-DC5	A-DC6	A-DC7	A-DC8	A-DC9	A-DC10	A-DC11	A-DC12	A-DC13	A-DC14	A-DC15	A-DC16	A-Ph1	A-Ph2	A-Ph3	A-Ph4	A-Ph5	A-Ph6	A-Ph7	A-Ph8	A-Ph9	A-Ph10	A-Ph11	A-Ph12	A-Ph13	A-Ph14	A-Ph15	A-Ph16	

Term	0.00000e+00	0.00000e+00	0.00000e+00	0.00000e+00	0.00000e+00	0.00000e+00	0.00000e+00	0.00000e+00	0.00000e+00	0.00000e+00	0.00000e+00	0.00000e+00	0.00000e+00	0.00000e+00	0.00000e+00	0.00000e+00	0.00000e+00	0.00000e+00	0.00000e+00	0.00000e+00	0.00000e+00	0.00000e+00	0.00000e+00	0.00000e+00	0.00000e+00	0.00000e+00	0.00000e+00	0.00000e+00	0.00000e+00	0.00000e+00	0.00000e+00	0.00000e+00	0.00000e+00	0.00000e+00	0.00000e+00	0.00000e+00	0.00000e+00	0.00000e+00	0.00000e+00	0.00000e+00	0.00000e+00	0.00000e+00	0.00000e+00	0.00000e+00	0.00000e+00	0.00000e+00	0.00000e+00	0.00000e+00	
Factor	1.00000e+00	1.00000e+00	1.00000e+00	1.00000e+00	1.00000e+00	1.00000e+00	1.00000e+00	1.00000e+00	1.00000e+00	1.00000e+00	1.00000e+00	1.00000e+00	1.00000e+00	1.00000e+00	1.00000e+00	1.00000e+00	1.00000e+00	1.00000e+00	1.00000e+00	1.00000e+00	1.00000e+00	1.00000e+00	1.00000e+00	1.00000e+00	1.00000e+00	1.00000e+00	1.00000e+00	1.00000e+00	1.00000e+00	1.00000e+00	1.00000e+00	1.00000e+00	X	X	X	X	X	X	X	X	X	X	X	X	X	X	X	X	

B = Detector Channel
Val Type	B-AC1	B-AC2	B-AC3	B-AC4	B-AC5	B-AC6	B-AC7	B-AC8	B-AC9	B-AC10	B-AC11	B-AC12	B-AC13	B-AC14	B-AC15	B-AC16	B-DC1	B-DC2	B-DC3	B-DC4	B-DC5	B-DC6	B-DC7	B-DC8	B-DC9	B-DC10	B-DC11	B-DC12	B-DC13	B-DC14	B-DC15	B-DC16	B-Ph1	B-Ph2	B-Ph3	B-Ph4	B-Ph5	B-Ph6	B-Ph7	B-Ph8	B-Ph9	B-Ph10	B-Ph11	B-Ph12	B-Ph13	B-Ph14	B-Ph15	B-Ph16	

Term	0.00000e+00	0.00000e+00	0.00000e+00	0.00000e+00	0.00000e+00	0.00000e+00	0.00000e+00	0.00000e+00	0.00000e+00	0.00000e+00	0.00000e+00	0.00000e+00	0.00000e+00	0.00000e+00	0.00000e+00	0.00000e+00	0.00000e+00	0.00000e+00	0.00000e+00	0.00000e+00	0.00000e+00	0.00000e+00	0.00000e+00	0.00000e+00	0.00000e+00	0.00000e+00	0.00000e+00	0.00000e+00	0.00000e+00	0.00000e+00	0.00000e+00	0.00000e+00	-1.70999e+02	-1.26624e+02	-1.31946e+02	-1.81681e+02	-8.38430e+01	-6.15144e+01	-1.55768e+02	-1.62015e+02	-8.17298e+01	-6.09818e+01	-1.73366e+02	-1.70201e+02	-1.85495e+02	-1.76578e+02	-7.50407e+01	-1.48946e+02	
Factor	2.98320e-05	1.70198e-04	4.81572e-05	1.97322e-01	1.68102e-06	1.85928e-06	1.81490e-01	5.63415e-02	1.68352e-06	1.92753e-06	1.03880e-01	3.00027e-02	5.63894e-02	9.68439e-03	1.64368e-06	1.34226e-02	1.04390e-05	1.42882e-05	3.99355e-06	1.02381e-01	1.49160e-07	1.58564e-07	8.84142e-02	2.93229e-02	1.48249e-07	1.58193e-07	5.25074e-02	1.52244e-02	2.95252e-02	5.08567e-03	1.51927e-07	6.84643e-03	X	X	X	X	X	X	X	X	X	X	X	X	X	X	X	X	



#DISTANCE SETTINGS
A = Detector Channel
A-1	A-2	A-3	A-4	A-5	A-6	A-7	A-8	A-9	A-10	A-11	A-12	A-13	A-14	A-15	A-16	

2.5000e+00	3.0000e+00	2.5000e+00	3.0000e+00	2.0000e+00	3.0000e+00	1.5000e+00	3.0000e+00	3.0000e+00	3.0000e+00	3.0000e+00	3.0000e+00	3.0000e+00	3.0000e+00	1.5000e+00	3.0000e+00	

B = Detector Channel
B-1	B-2	B-3	B-4	B-5	B-6	B-7	B-8	B-9	B-10	B-11	B-12	B-13	B-14	B-15	B-16	

1.0000e+01	1.0000e+01	1.0000e+01	1.4400e+00	1.0000e+01	1.0000e+01	1.5100e+00	1.9400e+00	1.0000e+01	1.0000e+01	1.9900e+00	2.4900e+00	2.4100e+00	2.9000e+00	1.0000e+01	2.9800e+00	




#DATA BEGINS
time	group	step	mark	flag	A-AC1	A-AC2	A-AC3	A-AC4	A-AC5	A-AC6	A-AC7	A-AC8	A-AC9	A-AC10	A-AC11	A-AC12	A-AC13	A-AC14	A-AC15	A-AC16	A-DC1	A-DC2	A-DC3	A-DC4	A-DC5	A-DC6	A-DC7	A-DC8	A-DC9	A-DC10	A-DC11	A-DC12	A-DC13	A-DC14	A-DC15	A-DC16	A-Ph1	A-Ph2	A-Ph3	A-Ph4	A-Ph5	A-Ph6	A-Ph7	A-Ph8	A-Ph9	A-Ph10	A-Ph11	A-Ph12	A-Ph13	A-Ph14	A-Ph15	A-Ph16	B-AC1	B-AC2	B-AC3	B-AC4	B-AC5	B-AC6	B-AC7	B-AC8	B-AC9	B-AC10	B-AC11	B-AC12	B-AC13	B-AC14	B-AC15	B-AC16	B-DC1	B-DC2	B-DC3	B-DC4	B-DC5	B-DC6	B-DC7	B-DC8	B-DC9	B-DC10	B-DC11	B-DC12	B-DC13	B-DC14	B-DC15	B-DC16	B-Ph1	B-Ph2	B-Ph3	B-Ph4	B-Ph5	B-Ph6	B-Ph7	B-Ph8	B-Ph9	B-Ph10	B-Ph11	B-Ph12	B-Ph13	B-Ph14	B-Ph15	B-Ph16	aux-1	digaux	

21022.924	1	1	0	768	0.13345	0.21898	0.175	0.21149	0.10093	0.1018	0.065994	0.071629	0.050975	0.014823	0.28495	0.032546	0.14845	0.19177	0.03687	0.093195	-2.3812	-2.6604	-2.5375	-2.7792	-2.6771	-2.4854	-2.9167	-2.6521	-2.7375	-2.6292	-2.675	-2.85	-2.5479	-2.5187	-2.6729	-2.7354	238.728	102.738	179.589	293.186	12.512	90.334	207.220	268.449	329.988	157.505	7.467	-1.729	-11.627	21.004	219.303	97.633	0.00018186	0.00021275	8.6894e-05	1113.9	2.3884e-06	1.9997e-06	1173.1	232.35	1.8594e-06	2.7944e-06	290.72	81.46	63.594	18.529	2.4504e-06	25.725	0.00011061	6.6708e-05	1.8337e-05	1113.5	8.8315e-07	6.9108e-07	1171.5	233.9	8.793e-07	6.2453e-07	291.22	82.476	64.691	18.747	7.0551e-07	26.282	96.520	86.843	61.173	-4.196	141.590	150.592	-4.207	2.832	149.721	150.120	2.656	9.103	9.843	16.184	139.112	16.186	-8191	255	
21023.020	1	1	0	0	0.18015	0.31642	0.201	0.097815	0.24406	0.2627	0.36024	0.20208	0.074878	0.15291	0.094989	0.19566	0.33594	0.32949	0.079764	0.045694	-2.1708	-2.7313	-2.4125	-2.6917	-2.4938	-2.4188	-2.8729	-2.6583	-2.8	-2.7604	-2.4667	-2.8	-2.6437	-2.6458	-2.775	-2.6958	234.887	21.337	63.807	-5.470	230.781	224.197	311.423	33.454	217.859	295.250	157.846	237.270	304.255	87.690	315.545	41.576	0.00018272	0.00029733	6.3977e-05	1123.5	2.944e-06	3.1097e-06	1179.7	232.54	2.4488e-06	2.6852e-06	290.52	82.11	63.946	18.574	2.0819e-06	25.643	0.00011181	6.3761e-05	1.5866e-05	1119.6	9.0801e-07	6.445e-07	1179.6	234.53	8.5984e-07	6.074e-07	292.36	83.151	64.919	18.87	6.4791e-07	26.319	92.801	74.597	90.002	-4.024	146.513	151.696	-4.011	2.956	129.853	156.407	2.355	9.246	9.148	16.584	139.588	16.045	-8191	255	
21023.115	1	1	0	0	0.08067	0.25481	0.046272	0.11148	0.20269	0.083809	0.10169	0.25292	0.089329	0.24105	0.38646	0.067098	0.065701	0.21282	0.14463	0.045176	-2.2667	-2.7542	-2.4542	-2.9437	-2.6729	-2.5125	-2.9396	-2.6083	-2.8042	-3.0333	-2.425	-2.8375	-2.575	-2.6083	-2.8458	-2.7417	56.854	169.038	246.660	286.636	2.509	261.897	266.562	316.284	33.968	219.373	-6.912	137.302	300.308	245.521	317.169	34.775	0.00017628	0.000276	9.9069e-05	1132.1	1.5546e-06	2.9554e-06	1188.1	235.13	2.0003e-06	2.4857e-06	292	82.532	64.334	18.453	2.2245e-06	25.805	0.00010946	5.8135e-05	1.6715e-05	1127.2	8.2038e-07	6.6927e-07	1184.9	236.18	8.5459e-07	5.3852e-07	293.62	83.492	65.209	18.91	6.172e-07	26.492	104.088	89.002	84.209	-4.345	142.192	140.875	-3.944	3.153	146.421	140.594	2.702	8.956	9.476	16.405	136.499	15.847	-8191	255	
21023.213	1	1	0	0	0.16023	0.33634	0.089137	0.23433	0.21239	0.25744	0.10805	0.10339	0.30852	0.062445	0.33752	0.1182	0.15416	0.18748	0.18241	0.18132	-2.0938	-2.7583	-2.4625	-2.7188	-2.4875	-2.4313	-3.0604	-2.5979	-2.5354	-2.7917	-2.5646	-2.8396	-2.7229	-2.4292	-2.875	-2.7188	93.133	325.099	333.068	302.358	148.564	195.921	135.727	133.021	315.443	168.471	315.907	123.822	101.410	63.778	289.695	3.656	0.00019313	0.00039416	8.2626e-05	1129.8	3.6146e-06	1.6098e-06	1191.1	235.71	2.5101e-06	2.2045e-06	295.07	82.009	64.703	18.634	2.9346e-06	25.943	0.00010963	5.3105e-05	1.4443e-05	1131.4	8.527e-07	6.0882e-07	1190.4	237.3	8.3606e-07	5.2204e-07	295.9	83.708	65.659	19.003	6.1214e-07	26.614	99.508	75.354	76.765	-4.075	133.685	165.506	-3.805	3.282	150.569	167.999	2.452	9.006	9.588	16.375	141.646	15.573	-8191	255	
21023.309	1	1	0	0	0.19795	0.24886	0.19041	0.067626	0.15703	0.16258	0.24785	0.14178	0.13489	0.10684	0.094662	0.28935	0.065887	0.22683	0.20147	0.11869	-2.1333	-2.7792	-2.5625	-2.8229	-2.8375	-2.4521	-2.9792	-2.7104	-2.4896	-2.7333	-2.5292	-2.9437	-2.7542	-2.5125	-2.8688	-2.85	238.912	297.029	227.751	243.642	343.789	201.691	311.762	7.673	44.898	119.380	316.555	276.651	18.025	223.831	129.114	257.557	0.00018235	0.00028925	8.7807e-05	1138.3	2.7812e-06	2.6346e-06	1196	235.39	2.2243e-06	4.1343e-06	294.83	82.697	64.466	18.609	2.5901e-06	26.019	0.00011063	5.2569e-05	1.6116e-05	1136.7	8.6544e-07	5.7281e-07	1193.8	237.66	8.0919e-07	5.105e-07	295.69	83.76	65.461	18.948	6.6152e-07	26.605	97.114	82.061	92.793	-4.223	137.607	140.907	-4.015	2.687	134.696	144.345	2.432	9.109	9.643	16.268	139.616	15.485	-8191	255	
21023.404	1	1	0	0	0.19293	0.088899	0.36639	0.21886	0.063121	0.15709	0.38899	0.38426	0.37569	0.25117	0.35476	0.17369	0.22649	0.10708	0.11177	0.07884	-2.1625	-2.9	-2.475	-2.8396	-2.6417	-2.6	-2.95	-2.5458	-2.5729	-2.9083	-2.4813	-2.6604	-2.8458	-2.4667	-2.7958	-2.7938	51.325	247.001	171.463	207.401	128.240	266.064	248.536	229.253	91.366	93.951	330.884	294.526	120.492	196.363	253.093	5.188	0.00020304	0.00025172	5.9625e-05	1134	2.1125e-06	3.1279e-06	1186.1	233.48	1.9837e-06	3.0905e-06	290.59	81.256	63.501	18.246	2.1813e-06	25.48	0.000118	5.1646e-05	1.4992e-05	1132.3	8.0173e-07	5.6819e-07	1183.1	234.61	8.2865e-07	5.0424e-07	291.59	82.379	64.172	18.591	6.3208e-07	26.011	91.626	73.908	85.812	-4.009	149.812	134.922	-3.810	2.976	144.291	149.937	2.643	9.206	9.599	16.512	128.048	15.962	-8191	255	
21023.523	1	1	0	0	0.22791	0.11791	0.13222	0.18312	0.15336	0.16168	0.359	0.41645	0.10386	0.20603	0.075017	0.037375	0.18293	0.13712	0.14438	0.22857	-2.1	-2.8729	-2.6688	-2.8354	-2.9667	-2.5708	-2.9875	-2.6167	-2.4062	-3.0167	-2.7604	-2.4792	-2.8229	-2.6333	-2.6708	-2.8146	147.536	18.190	48.806	338.271	257.320	324.750	272.293	319.141	-11.538	37.336	-12.508	216.502	270.541	219.556	34.362	238.652	0.00017862	0.00031142	9.4208e-05	1109.1	2.7346e-06	2.0531e-06	1145.3	226.37	2.2079e-06	2.8663e-06	279.93	78.889	61.783	17.811	2.413e-06	24.89	0.00011102	5.373e-05	1.6382e-05	1101.2	7.5512e-07	5.5663e-07	1147.1	227.15	7.6379e-07	4.8051e-07	282.61	80.15	62.636	18.187	5.8144e-07	25.545	95.272	89.083	68.792	-4.199	134.641	148.981	-4.049	3.091	146.867	128.550	2.608	9.301	9.996	16.328	142.823	15.979	-8191	255	
21023.619	1	1	0	0	0.30002	0.24432	0.12397	0.22049	0.16628	0.19384	0.17864	0.13252	0.1841	0.31818	0.15894	0.22094	0.055799	0.047849	0.20301	0.11476	-2.0563	-2.9083	-2.6229	-2.8063	-2.8375	-2.6333	-2.9354	-2.8312	-2.3812	-2.6708	-2.7667	-2.4729	-2.6604	-2.5292	-2.5646	-2.9396	212.227	128.903	103.563	340.142	84.667	244.774	262.760	212.077	344.806	290.172	192.764	178.101	334.349	142.534	199.256	207.458	0.00018493	0.00018275	8.6205e-05	1067	2.7819e-06	3.2256e-06	1111.9	220.33	2.2597e-06	3.2311e-06	272.74	77.132	61.206	17.666	2.0563e-06	24.612	0.00010169	5.1199e-05	1.4061e-05	1066.4	7.3679e-07	5.6555e-07	1114.6	220.59	7.6564e-07	4.8677e-07	275.12	78.744	61.405	17.965	6.0106e-07	25.227	94.712	59.045	75.128	-3.848	151.045	142.501	-3.966	3.234	122.952	133.251	2.435	9.680	9.295	16.793	147.284	16.294	-8191	255	
21023.717	1	1	0	0	0.26013	0.11002	0.21182	0.13934	0.18227	0.24924	0.32408	0.21855	0.20254	0.14227	0.14718	0.35121	0.35298	0.18048	0.08223	0.080976	-2.15	-2.8917	-2.6813	-2.575	-2.7188	-2.6542	-2.8312	-2.8771	-2.4521	-2.6833	-2.7604	-2.4646	-2.9062	-2.6042	-2.5917	-2.8167	174.425	228.889	215.418	10.993	10.898	226.730	307.439	318.906	294.655	197.622	238.386	111.740	261.006	42.492	34.322	312.650	0.00016899	0.00032335	6.7617e-05	1043.2	2.5982e-06	2.3495e-06	1086.1	214.43	1.9524e-06	2.3337e-06	269.43	76.377	60.086	17.419	2.7052e-06	24.501	0.00010093	4.9622e-05	1.3595e-05	1037.9	7.3834e-07	5.0642e-07	1086.8	215.91	7.0233e-07	4.6337e-07	271.45	77.896	61.011	17.84	6.229e-07	25.136	103.685	80.385	78.062	-3.955	151.515	146.586	-3.939	3.527	113.567	131.097	2.772	9.249	10.262	16.432	118.574	16.744	-8191	255	
21023.812	1	1	0	0	0.22907	0.18561	0.18665	0.24006	0.13577	0.071246	0.2484	0.096133	0.084395	0.15422	0.19904	0.12218	0.30542	0.10474	0.2965	0.11955	-1.9479	-2.8417	-2.6667	-2.7229	-2.9146	-2.7292	-2.6729	-2.9354	-2.6063	-2.9146	-2.8479	-2.5354	-2.6813	-2.5938	-2.4792	-3.0771	156.906	295.360	251.863	275.824	125.053	-7.271	276.223	17.018	222.887	121.614	284.869	276.311	-8.229	318.719	-8.006	81.490	0.00018106	0.00024835	7.1482e-05	1030.6	2.6081e-06	3.1105e-06	1083.3	213.55	1.7636e-06	2.4748e-06	269.12	76.839	60.443	17.603	3.1019e-06	24.582	0.00010548	4.5365e-05	1.2064e-05	1027.6	7.0478e-07	4.8494e-07	1082.2	215.14	7.0418e-07	5.1017e-07	271.07	78.176	61.185	17.917	6.3588e-07	25.219	103.656	84.957	65.711	-3.984	134.876	122.248	-3.836	3.030	161.566	128.323	2.873	9.417	9.656	16.942	141.723	16.210	-8191	255	
21023.908	1	1	0	0	0.38156	0.1986	0.1027	0.27342	0.18299	0.28823	0.089264	0.15046	0.27869	0.037251	0.08721	0.10932	0.3742	0.179	0.28992	0.34009	-1.9354	-2.5312	-2.6604	-2.55	-2.8271	-2.6042	-2.75	-2.8042	-2.6875	-2.6021	-2.9021	-2.5604	-2.7083	-2.5229	-2.4042	-2.8667	233.885	62.941	84.377	236.799	203.647	238.751	306.959	258.731	50.559	223.461	334.698	196.879	315.240	344.198	161.898	151.863	0.00019169	0.00030997	7.716e-05	1032.6	2.6613e-06	2.2833e-06	1086.1	214.4	2.0363e-06	2.3434e-06	268.96	77.318	61.343	17.624	1.5433e-06	24.641	9.9671e-05	4.8312e-05	1.2962e-05	1028.7	7.3523e-07	5.2326e-07	1084.7	215.68	7.2426e-07	5.4577e-07	271.83	78.496	61.623	17.982	5.3807e-07	25.304	97.905	89.610	66.707	-3.947	136.138	146.691	-3.759	3.285	147.017	144.940	2.495	9.265	10.290	16.425	161.384	16.264	-8191	255	
21024.004	1	1	0	0	0.028289	0.038655	0.093372	0.18899	0.1321	0.26403	0.24875	0.1025	0.1406	0.11969	0.071051	0.073084	0.24965	0.14316	0.17266	0.18374	-1.9625	-2.6354	-2.8292	-2.6604	-2.8021	-2.7188	-2.3312	-2.9	-2.5125	-2.4875	-2.9688	-2.4437	-2.8625	-2.5917	-2.4146	-2.9979	187.608	143.077	58.697	148.809	268.943	114.447	250.400	21.962	174.436	232.398	177.216	20.367	321.368	232.397	2.530	99.378	0.00018113	0.00031469	9.2895e-05	1032.4	2.7534e-06	2.5111e-06	1085.1	214.91	2.4136e-06	2.6168e-06	270.67	77.585	60.854	17.585	2.6137e-06	24.675	0.00010485	5.2539e-05	1.2829e-05	1032.1	7.1317e-07	4.0731e-07	1085.5	216.6	6.9275e-07	5.1874e-07	272.46	78.797	61.407	17.98	6.0423e-07	25.255	95.794	52.905	57.847	-3.851	141.038	130.194	-3.992	3.414	142.367	143.464	2.388	9.364	9.875	16.949	136.813	16.306	-8191	255	
21024.125	1	1	0	0	0.14191	0.15741	0.46337	0.16529	0.12975	0.086048	0.10454	0.08519	0.10546	0.12951	0.2596	0.36852	0.068593	0.35555	0.13394	0.097134	-2.1	-2.4646	-2.8333	-2.5792	-2.6042	-2.8771	-2.6229	-2.8	-2.4667	-2.5458	-2.8271	-2.5583	-2.7375	-2.6958	-2.6646	-2.7458	243.273	-1.055	92.421	237.717	297.576	270.068	9.159	334.919	18.277	214.287	47.378	214.194	41.522	247.743	235.493	332.616	0.00017548	0.00026289	7.9426e-05	1035.2	2.3251e-06	1.9798e-06	1085.7	216.09	1.934e-06	2.6342e-06	272.76	76.982	60.546	17.66	2.1739e-06	24.678	9.7583e-05	5.1378e-05	1.1698e-05	1031.5	6.9235e-07	4.7041e-07	1086.3	216.86	7.258e-07	4.7194e-07	272.91	78.503	61.19	17.945	6.0549e-07	25.226	99.298	85.700	72.743	-3.811	142.231	118.303	-4.004	3.278	160.090	138.408	2.615	9.555	9.572	16.325	141.292	16.222	-8191	255	
21024.221	1	1	0	0	0.15503	0.10418	0.19024	0.2098	0.13338	0.2689	0.19885	0.26339	0.19714	0.015549	0.12977	0.080192	0.21839	0.22541	0.096703	0.13147	-2.2604	-2.5292	-2.6292	-2.7375	-2.6063	-2.9417	-2.7	-2.7667	-2.6792	-2.5333	-2.9875	-2.5979	-2.5917	-2.7625	-2.3667	-2.6792	98.985	209.288	44.574	221.183	180.148	-4.587	249.936	299.360	228.615	180.756	168.970	243.716	124.625	269.822	261.699	273.786	0.00018156	0.00026999	5.598e-05	1032.9	2.6098e-06	2.5568e-06	1081.8	215.87	2.8492e-06	3.1291e-06	271.28	76.995	60.409	17.665	1.9836e-06	24.673	9.8409e-05	4.8044e-05	1.0583e-05	1029.8	7.4735e-07	4.0038e-07	1081.7	216.6	7.2395e-07	5.5565e-07	272.49	78.31	61.397	17.972	5.4377e-07	25.228	94.668	88.027	63.264	-3.859	133.162	146.562	-3.791	3.386	121.658	141.345	2.548	9.663	10.043	16.909	144.634	16.478	-8191	255	
21024.314	1	1	0	0	0.056814	0.21754	0.25945	0.23158	0.2037	0.32169	0.14912	0.15785	0.41478	0.082628	0.030736	0.1544	0.063346	0.20042	0.15377	0.29674	-2.2625	-2.3	-2.7812	-2.6	-2.6708	-2.8479	-2.5187	-2.8042	-2.7708	-2.4896	-2.7313	-2.7354	-2.4646	-2.8083	-2.5417	-2.6854	264.833	257.531	158.425	11.225	160.218	205.161	284.382	91.449	112.892	108.808	277.614	241.035	186.321	287.108	29.457	121.682	0.00018296	0.00021216	7.0626e-05	1030	3.3203e-06	2.8483e-06	1084.4	214.95	2.2573e-06	1.8135e-06	272.43	77.431	60.88	17.692	2.1488e-06	24.709	0.00010074	5.0872e-05	1.2605e-05	1029.1	6.9421e-07	4.1392e-07	1084.5	216.51	7.1407e-07	4.9699e-07	273.4	78.64	61.418	18.043	5.903e-07	25.378	93.953	87.357	57.158	-3.799	144.915	140.871	-3.832	3.516	146.561	134.555	3.052	9.336	9.748	17.002	134.016	16.166	-8191	255	
21024.410	1	1	0	0	0.28829	0.10443	0.11977	0.16911	0.13271	0.12315	0.35005	0.22753	0.056194	0.13766	0.13166	0.049846	0.036992	0.30764	0.07203	0.25438	-2.3875	-2.5292	-2.8125	-2.9271	-2.6625	-2.9625	-2.6688	-2.6813	-2.8042	-2.4167	-2.9604	-2.7208	-2.6583	-2.8	-2.5	-2.7729	273.029	27.861	124.571	250.291	166.913	8.348	240.813	328.841	87.256	7.994	3.177	127.663	317.433	56.524	93.768	263.113	0.00018973	0.00028759	6.9223e-05	1033.9	2.5688e-06	2.3333e-06	1086.1	217.93	3.6742e-06	3.9846e-06	273.41	77.782	61.404	17.729	2.7259e-06	24.813	0.00010322	5.0783e-05	1.2405e-05	1033.4	7.3119e-07	4.6347e-07	1088.1	218.81	6.2573e-07	5.1215e-07	275.97	79.116	61.759	18.129	5.0547e-07	25.51	100.671	87.947	71.815	-3.986	140.390	153.655	-4.023	3.250	141.668	136.464	2.913	9.296	9.792	16.486	143.369	16.130	-8191	255	
21024.484	1	1	0	0	0.22245	0.24749	0.23822	0.19829	0.026326	0.062111	0.34492	0.026162	0.10073	0.1611	0.11318	0.10883	0.10054	0.094266	0.19913	0.081882	-2.4292	-2.4958	-2.6333	-2.7271	-2.6125	-2.9229	-2.7917	-2.5979	-2.7917	-2.4583	-2.8479	-2.6875	-2.3583	-2.95	-2.5979	-2.6854	83.877	327.333	101.724	339.912	112.549	322.403	288.321	30.138	310.046	121.860	320.593	138.237	223.522	288.745	329.452	168.704	0.00018348	0.00033433	6.8109e-05	1041.8	2.3604e-06	2.2669e-06	1093.1	219.67	2.5697e-06	1.9993e-06	274.32	78.491	61.107	17.721	2.7455e-06	25.188	9.3995e-05	5.5545e-05	1.0758e-05	1036.4	7.9583e-07	4.3671e-07	1091.9	220.74	6.6897e-07	4.0801e-07	277.15	79.582	62.129	18.138	5.3111e-07	25.557	98.304	87.671	69.532	-3.726	123.395	138.213	-3.713	3.185	141.250	120.314	2.804	9.419	9.715	16.928	139.368	16.529	-8191	255	
21024.604	1	1	0	0	0.085073	0.1512	0.13396	0.40207	0.1167	0.24168	0.15804	0.13105	0.06753	0.13499	0.17374	0.28607	0.33464	0.071487	0.21092	0.12062	-2.2833	-2.525	-2.7917	-2.8167	-2.5667	-2.8458	-2.8	-2.6958	-2.9417	-2.5938	-2.9167	-2.7646	-2.4562	-2.8875	-2.7875	-2.7896	-11.229	223.372	161.435	283.535	310.546	244.791	192.583	298.137	112.851	172.599	256.158	327.434	-9.266	230.436	22.962	302.305	0.00019127	0.00023814	8.2774e-05	1039.7	2.4237e-06	1.9196e-06	1095.5	220.55	2.5237e-06	2.8729e-06	277.13	77.849	61.696	17.585	3.3371e-06	24.787	9.3734e-05	4.9116e-05	1.1298e-05	1038.7	7.5885e-07	4.6909e-07	1093.7	221.71	6.5353e-07	4.0339e-07	277.82	79.448	62.316	18.102	5.1687e-07	25.429	98.424	70.038	63.931	-3.946	147.401	133.606	-3.659	3.276	145.766	148.980	2.640	9.642	9.922	16.472	135.328	16.361	-8191	255	
21024.699	1	1	0	0	0.14029	0.22609	0.16448	0.24829	0.08458	0.10043	0.24733	0.24522	0.039032	0.18899	0.11922	0.14408	0.06974	0.15317	0.11615	0.43456	-2.4292	-2.4021	-2.6625	-2.8042	-2.6583	-2.7479	-2.9042	-2.6396	-2.6667	-2.45	-2.7479	-2.9167	-2.5375	-2.7188	-2.7354	-2.5042	305.706	165.217	303.539	234.966	288.458	305.975	299.625	304.445	326.670	148.518	269.163	264.479	299.872	331.603	179.807	228.860	0.00016886	0.00030668	7.412e-05	1040.7	2.843e-06	1.7474e-06	1088.5	217.72	3.2492e-06	3.7887e-06	274.52	77.734	60.876	17.624	2.0944e-06	24.763	9.9236e-05	4.8967e-05	1.2155e-05	1038.8	8.1137e-07	4.5356e-07	1090.8	220.18	7.0943e-07	5.339e-07	276.31	78.924	61.696	18.045	5.4187e-07	25.339	93.769	103.714	61.315	-3.806	143.906	140.795	-3.742	3.087	149.928	150.677	2.632	9.459	9.744	16.738	129.579	16.515	-8191	255	
21024.797	1	1	0	0	0.029706	0.12643	0.12677	0.23983	0.051605	0.18241	0.12186	0.2454	0.3898	0.14911	0.13413	0.29728	0.24086	0.10305	0.30327	0.29999	-2.3354	-2.4313	-2.4896	-2.8896	-2.4437	-2.6688	-2.7396	-2.725	-2.8729	-2.5771	-2.7938	-2.8854	-2.6542	-2.725	-2.8646	-2.6	193.271	146.952	12.573	269.870	328.601	101.959	6.606	301.098	4.708	175.365	45.779	321.777	109.014	125.758	263.243	166.112	0.00019172	0.00019746	9.6642e-05	1035.7	2.8116e-06	2.4148e-06	1085.8	218.8	1.8091e-06	2.4137e-06	274.79	77.661	61.239	17.604	2.883e-06	24.649	9.9671e-05	4.1555e-05	1.2713e-05	1034.6	7.7346e-07	4.0368e-07	1087.2	219.88	6.4303e-07	4.7326e-07	276.12	78.882	61.614	17.975	5.3016e-07	25.286	95.031	83.305	97.227	-3.849	132.776	130.184	-4.000	3.031	153.586	129.858	2.802	9.466	9.754	16.811	114.555	16.317	-8191	255	
21024.893	1	1	0	0	0.14442	0.013989	0.10089	0.27931	0.15247	0.11039	0.18174	0.18469	0.080968	0.17265	0.12945	0.16512	0.22488	0.18032	0.24334	0.039309	-2.4646	-2.6125	-2.4292	-2.9292	-2.4771	-2.6229	-2.9875	-2.3979	-2.8875	-2.6542	-2.5917	-2.9146	-2.6208	-2.5521	-2.9313	-2.6667	306.233	32.490	261.434	159.863	12.712	24.750	226.773	195.890	190.926	72.728	8.900	252.606	39.468	238.440	158.889	289.330	0.00020153	0.00019592	8.3156e-05	1033.5	2.2565e-06	2.095e-06	1087.2	217.87	2.7623e-06	3.8842e-06	274.29	77.29	60.804	17.612	2.8728e-06	24.784	0.00010043	4.4651e-05	1.2596e-05	1033.5	7.2125e-07	4.5686e-07	1089.2	219.92	6.3871e-07	4.3239e-07	276.5	78.757	61.494	17.956	5.4757e-07	25.335	97.087	82.388	65.083	-3.847	138.961	164.467	-3.726	3.292	131.120	114.178	2.717	9.458	9.959	17.037	141.456	16.259	-8191	255	
21025.014	1	1	0	0	0.18308	0.030151	0.088415	0.23077	0.18978	0.32921	0.29701	0.059192	0.30703	0.23052	0.35839	0.27728	0.39998	0.10613	0.2275	0.04388	-2.2667	-2.6688	-2.6458	-2.7687	-2.6063	-2.8146	-2.8125	-2.4938	-2.875	-2.8187	-2.5729	-2.8625	-2.6667	-2.5	-2.7542	-2.7333	22.317	336.016	262.649	262.690	152.921	343.557	297.904	307.353	95.417	229.496	324.033	307.579	340.276	275.252	322.520	198.347	0.00017756	0.00032365	8.6501e-05	1036.4	2.6525e-06	2.8233e-06	1088.7	218.49	2.1265e-06	2.3111e-06	274.29	77.857	60.93	17.728	2.4967e-06	24.991	9.8496e-05	4.5157e-05	1.3337e-05	1034.2	7.5015e-07	5.0774e-07	1089.7	220.26	6.6897e-07	4.2712e-07	276.53	79.173	61.679	18.056	5.0769e-07	25.423	100.715	79.279	67.967	-3.915	154.768	129.230	-3.783	3.354	143.553	156.315	2.429	9.304	10.143	16.898	134.514	16.234	-8191	255	
21025.084	1	1	0	0	0.16043	0.04249	0.058198	0.056938	0.093714	0.14532	0.15703	0.17916	0.080239	0.082052	0.027816	0.28251	0.066103	0.34445	0.13094	0.20451	-2.2229	-2.5792	-2.3708	-2.9083	-2.6646	-2.5563	-2.9458	-2.6021	-2.8271	-2.8354	-2.75	-2.8688	-2.6979	-2.6229	-2.8438	-2.4958	277.560	33.079	235.715	235.967	12.299	48.827	253.275	30.872	132.894	28.831	192.597	151.046	233.678	59.532	187.123	148.366	0.0001879	0.00032669	6.6175e-05	1040.9	2.6168e-06	2.5538e-06	1093.6	217.86	3.1948e-06	2.1759e-06	275.21	78.452	61.205	17.685	2.4534e-06	24.884	0.00010398	4.9741e-05	1.2505e-05	1037	7.0198e-07	4.9981e-07	1091.2	220.24	7.0943e-07	4.1361e-07	276.66	79.418	61.915	18.065	5.4567e-07	25.454	95.420	71.280	94.056	-3.993	130.295	129.600	-4.019	3.080	147.808	134.626	2.714	9.322	8.965	16.617	138.630	16.619	-8191	255	
21025.205	1	1	0	0	0.21348	0.21345	0.14346	0.24486	0.40219	0.16204	0.1547	0.35225	0.21813	0.10831	0.16164	0.094138	0.23304	0.2407	0.12596	0.32087	-2.0896	-2.6104	-2.5792	-2.9708	-2.8187	-2.4708	-2.9771	-2.6021	-2.6667	-2.7167	-2.5854	-2.6875	-2.7271	-2.4667	-2.8979	-2.5604	150.037	300.077	180.959	272.229	313.081	219.607	298.707	293.095	296.957	98.975	270.343	137.580	226.772	49.523	33.397	271.422	0.00018509	0.00028315	8.3302e-05	1044.5	3.6518e-06	2.974e-06	1091.9	219.75	2.6024e-06	2.6712e-06	274.65	78.275	61.234	17.764	1.8346e-06	25.114	9.6931e-05	4.8223e-05	1.2322e-05	1039.1	7.545e-07	5.0509e-07	1094.1	220.92	6.9337e-07	4.3997e-07	277.13	79.451	62.061	18.123	4.6243e-07	25.552	101.490	77.379	78.965	-3.913	139.853	130.379	-4.024	3.224	135.062	139.146	2.707	9.574	9.871	16.588	144.583	16.550	-8191	255	
21025.301	1	1	0	0	0.086253	0.046193	0.48399	0.12674	0.029439	0.10105	0.17573	0.22572	0.12723	0.037935	0.10739	0.02991	0.31464	0.21735	0.065963	0.29761	-2.0708	-2.7333	-2.3875	-2.95	-2.7542	-2.5521	-2.8479	-2.4542	-2.4625	-2.9521	-2.5646	-2.775	-2.6	-2.4188	-2.7625	-2.7333	123.653	175.459	333.242	308.406	169.876	207.131	262.497	248.681	102.442	84.938	202.847	233.655	292.136	-11.381	325.846	210.691	0.0002062	0.00026288	7.3242e-05	1050.2	2.8895e-06	2.8437e-06	1104.2	220.9	3.3521e-06	2.8452e-06	276.71	78.408	61.847	17.946	2.6082e-06	25.001	0.00010509	4.0037e-05	1.1939e-05	1044.9	7.0602e-07	5.0212e-07	1101	222.3	7.3538e-07	3.6384e-07	278.65	79.788	62.292	18.184	5.2446e-07	25.586	99.109	84.049	85.858	-3.808	142.846	123.411	-3.814	3.267	145.273	132.533	2.724	9.229	9.867	17.467	147.707	16.415	-8191	255	
21025.396	1	1	0	0	0.06061	0.15408	0.16278	0.21275	0.20247	0.18017	0.16747	0.15535	0.13867	0.096365	0.20899	0.23208	0.042513	0.19445	0.16773	0.026714	-2.1792	-2.8396	-2.5083	-2.8771	-2.7438	-2.6771	-2.9229	-2.6729	-2.45	-2.8854	-2.5708	-2.6854	-2.9021	-2.5917	-2.8458	-2.6854	45.745	50.039	6.074	249.278	232.418	51.217	240.669	237.672	333.895	98.887	188.803	250.488	194.839	330.208	31.871	273.338	0.00020258	0.00028063	7.2873e-05	1050.9	3.2728e-06	2.5806e-06	1100.6	223.1	2.4261e-06	2.3656e-06	279.17	78.599	61.761	17.817	2.0255e-06	24.881	0.00010611	4.0513e-05	1.3021e-05	1045.6	7.256e-07	5.0774e-07	1102.1	223.58	7.4063e-07	3.5923e-07	280.1	79.895	62.409	18.186	5.4979e-07	25.59	95.456	79.396	80.880	-3.950	131.812	142.360	-3.903	3.127	164.464	135.855	2.714	8.888	9.599	16.923	147.380	16.298	-8191	255	
21025.492	1	1	0	0	0.11106	0.30508	0.13725	0.053035	0.059812	0.26088	0.24419	0.12368	0.023558	0.14305	0.069374	0.21339	0.15483	0.31318	0.22572	0.090291	-2.0458	-2.8292	-2.3208	-2.9292	-2.6354	-2.5646	-2.9583	-2.7667	-2.4479	-2.7583	-2.6229	-2.6708	-2.7042	-2.5375	-2.7771	-2.7646	58.601	110.374	212.609	157.136	48.170	258.114	30.600	23.109	244.184	104.822	81.349	255.017	219.387	280.525	79.456	39.304	0.0001872	0.00027297	7.6049e-05	1050	2.4848e-06	2.7391e-06	1101	221.31	2.2737e-06	2.3717e-06	278.2	78.403	61.871	17.772	3.3938e-06	25.11	0.00010391	4.4651e-05	1.2022e-05	1048.4	6.9825e-07	4.7206e-07	1105.1	223.29	7.3507e-07	3.7538e-07	280.07	79.914	62.671	18.22	5.4156e-07	25.66	99.747	88.127	75.550	-4.078	152.333	153.772	-3.697	3.054	128.928	152.856	2.736	8.937	9.942	16.788	148.560	16.121	-8191	255	
21025.611	1	1	0	0	0.10636	0.080416	0.15582	0.19799	0.048514	0.19147	0.074349	0.2047	0.1292	0.013837	0.20855	0.068172	0.25445	0.11439	0.21001	0.071705	-2.1333	-2.7	-2.5333	-2.5438	-2.8042	-2.6292	-2.9646	-2.725	-2.5083	-2.6417	-2.6354	-2.5	-2.8021	-2.6	-2.4813	-2.8083	64.673	304.699	134.082	-3.009	216.371	6.942	280.543	253.364	255.303	116.328	229.478	26.131	18.396	308.758	63.023	324.012	0.00018665	0.00029688	7.0309e-05	1052.9	2.6425e-06	2.064e-06	1116.2	223.08	2.6324e-06	3.3636e-06	280.37	79.149	62.31	17.883	2.4912e-06	25.272	9.9606e-05	4.343e-05	1.2272e-05	1052.4	7.0012e-07	4.5026e-07	1111.9	225.29	6.9183e-07	5.0029e-07	281.45	80.468	62.852	18.315	5.8144e-07	25.756	102.780	70.129	90.411	-4.000	153.266	136.872	-3.705	3.058	119.695	152.205	2.811	9.296	9.684	16.476	129.721	16.399	-8191	255	
21025.709	1	1	0	0	0.26568	0.10638	0.061085	0.12815	0.17579	0.086638	0.071774	0.30707	0.18573	0.18157	0.14555	0.25677	0.32098	0.28192	0.11576	0.1503	-2.0625	-2.7938	-2.6437	-2.6229	-2.8229	-2.5021	-2.9104	-2.7521	-2.5625	-2.7646	-2.7396	-2.4292	-2.8271	-2.5771	-2.6458	-2.7812	57.639	31.174	233.731	254.562	152.331	73.380	8.783	72.326	176.838	232.962	282.978	299.604	-2.243	320.117	28.144	183.877	0.00020158	0.00030579	9.4471e-05	1055.9	2.635e-06	1.5589e-06	1113.9	224.91	1.422e-06	2.4689e-06	280.21	79.575	61.986	17.886	3.1412e-06	25.187	0.00010713	4.3579e-05	1.2397e-05	1056.1	6.4014e-07	4.6975e-07	1113.2	226.46	6.7484e-07	4.5316e-07	281.79	80.598	62.775	18.296	5.6118e-07	25.731	94.766	84.594	77.585	-3.691	130.154	123.309	-4.049	3.135	142.138	123.398	3.096	9.111	9.498	16.739	145.839	16.077	-8191	255	
21025.779	1	1	0	0	0.059579	0.072542	0.24759	0.17427	0.17532	0.18366	0.19702	0.20385	0.21903	0.10816	0.12237	0.15971	0.29516	0.12509	0.22755	0.23169	-2.0521	-2.7625	-2.6021	-2.6479	-2.8312	-2.5563	-2.8229	-2.7812	-2.4125	-2.7396	-2.7167	-2.5271	-2.8021	-2.575	-2.3792	-2.8187	215.536	287.317	170.923	257.240	97.594	194.766	268.609	13.401	249.997	-3.092	86.416	8.891	239.698	60.059	242.428	138.471	0.0001737	0.00021577	6.4633e-05	1060.9	3.5678e-06	3.6277e-06	1117.9	224.49	2.2922e-06	3.5467e-06	279.9	78.924	62.71	17.992	2.6692e-06	24.979	0.00010119	4.1495e-05	1.2022e-05	1058.5	7.719e-07	4.5455e-07	1116	226.05	6.8225e-07	4.2086e-07	282.57	80.372	63.005	18.292	6.172e-07	25.618	97.913	84.974	66.457	-3.975	140.193	152.602	-3.987	3.052	138.872	126.263	2.670	9.258	9.623	16.838	130.520	16.095	-8191	255	
21025.900	1	1	0	0	0.30964	0.15504	0.034867	0.25453	0.20182	0.063719	0.28652	0.17333	0.2431	0.21443	0.16958	0.055347	0.21321	0.13121	0.13561	0.23592	-2.0771	-2.6292	-2.6875	-2.4625	-2.6479	-2.4917	-2.7708	-3.0687	-2.4375	-2.6979	-2.7896	-2.5792	-2.8542	-2.7812	-2.4208	-2.8917	290.057	65.886	188.615	291.205	240.749	140.520	282.520	227.765	207.862	65.354	201.447	52.785	330.351	138.385	314.626	244.045	0.00018822	0.00030853	8.0391e-05	1061.5	2.9306e-06	2.5964e-06	1111.5	223.6	2.5654e-06	3.2283e-06	278.16	79.083	61.889	17.83	2.5505e-06	25.162	9.8366e-05	5.4176e-05	1.2072e-05	1057.4	7.1068e-07	4.7173e-07	1112.8	225.33	7.0758e-07	4.8908e-07	281.03	80.066	62.583	18.222	6.2986e-07	25.577	100.547	104.273	85.423	-3.886	153.808	131.196	-3.900	3.042	130.782	134.804	2.812	9.388	10.084	16.335	140.308	15.938	-8191	255	
21025.996	1	1	0	0	0.10583	0.36284	0.34142	0.11933	0.19829	0.14451	0.24172	0.12424	0.10113	0.055821	0.14772	0.25178	0.13619	0.23907	0.089791	0.10104	-1.9354	-2.5146	-2.8396	-2.7333	-2.725	-2.6979	-2.5875	-2.8042	-2.5875	-2.5917	-2.9104	-2.5938	-2.8333	-2.8167	-2.575	-2.9104	208.004	274.280	304.256	203.890	213.079	133.523	336.341	261.870	142.441	264.266	305.163	322.108	305.994	-0.095	234.962	145.340	0.00018215	0.0002836	3.784e-05	1056.5	2.7583e-06	2.6534e-06	1113.1	224.92	2.1904e-06	2.2477e-06	279.9	78.976	61.859	17.971	2.9881e-06	25.17	0.00010135	4.2865e-05	1.0425e-05	1054.2	7.2218e-07	4.8098e-07	1112.8	225.59	7.1314e-07	4.4788e-07	282.42	80.246	62.85	18.316	6.2828e-07	25.733	97.025	71.777	76.359	-3.908	135.592	135.018	-3.853	3.375	138.803	138.683	2.694	9.292	9.680	16.551	121.846	16.209	-8191	255	
21026.094	1	1	0	0	0.089763	0.20953	0.060836	0.24863	0.083913	0.17742	0.23281	0.21574	0.1623	0.2279	0.24666	0.040761	0.071406	0.21054	0.18863	0.32646	-2.0833	-2.6083	-2.7333	-2.6354	-2.7271	-2.8812	-2.8312	-2.8646	-2.4604	-2.6667	-3.0375	-2.4292	-2.6896	-2.8	-2.4896	-2.8167	124.691	151.152	239.040	302.149	164.699	15.361	288.279	228.905	281.743	30.139	321.209	94.861	151.814	53.463	123.244	286.472	0.00019384	0.00020814	9.9787e-05	1061.9	2.1518e-06	2.3321e-06	1113.6	225.48	2.6569e-06	3.2992e-06	281.19	79.316	62.018	17.991	2.5786e-06	25.293	9.8105e-05	4.4442e-05	1.1515e-05	1058.6	7.3461e-07	4.5158e-07	1115.7	226.28	6.9677e-07	4.7458e-07	282.25	80.706	62.949	18.374	6.1657e-07	25.792	93.278	73.053	72.788	-3.940	141.388	156.828	-3.901	3.196	138.556	136.430	2.847	9.352	10.190	17.052	127.119	16.507	-8191	255	
21026.189	1	1	0	0	0.090626	0.030642	0.16581	0.21095	0.045609	0.047526	0.3144	0.28536	0.14363	0.093473	0.21582	0.26299	0.18598	0.24033	0.27377	0.30362	-2.0875	-2.4313	-2.8042	-2.5563	-2.4875	-2.6	-2.6292	-2.8542	-2.5875	-2.6042	-2.9333	-2.6479	-2.5396	-2.7188	-2.6104	-2.9375	128.314	36.116	267.155	233.423	74.381	9.784	306.583	311.222	119.123	241.053	279.006	-13.961	311.010	165.154	191.067	287.385	0.00017547	0.00027338	9.0849e-05	1063.9	2.5654e-06	2.2765e-06	1119	225.62	2.6677e-06	3.0787e-06	282.81	79.463	62.469	17.975	2.7933e-06	25.308	0.00010119	4.3787e-05	1.1598e-05	1062.2	7.9397e-07	4.6578e-07	1119.5	226.98	7.4032e-07	5.1512e-07	284.16	81.021	63.106	18.361	5.7226e-07	25.853	97.190	92.954	59.642	-4.062	123.885	138.002	-3.887	3.352	133.182	164.963	2.727	9.147	9.653	16.764	130.541	16.506	-8191	255	
21026.309	1	1	0	0	0.098446	0.11784	0.020348	0.11889	0.26614	0.052723	0.12822	0.32681	0.24021	0.12789	0.10096	0.21988	0.19369	0.16819	0.25931	0.23706	-2.2854	-2.4	-2.725	-2.5854	-2.5917	-2.8083	-2.7833	-2.8333	-2.5687	-2.6479	-2.8083	-2.4667	-2.4708	-2.9667	-2.4146	-2.7562	325.846	335.524	-9.739	36.152	142.141	235.711	232.173	233.935	96.219	216.541	234.202	255.608	246.765	317.619	116.141	331.338	0.0001841	0.0003363	5.3435e-05	1070.2	2.541e-06	3.3113e-06	1118.2	227.02	2.0574e-06	3.0888e-06	284.76	79.922	62.73	18.082	2.0752e-06	25.418	0.00010385	5.1676e-05	1.2031e-05	1067.8	7.4487e-07	4.4894e-07	1124.7	228.1	6.7361e-07	4.469e-07	285.71	81.329	63.62	18.499	5.6213e-07	25.986	93.009	85.637	67.044	-3.886	139.868	137.970	-3.900	2.937	139.462	158.041	2.853	9.187	10.112	17.075	128.909	16.354	-8191	255	
21026.383	1	1	0	0	0.1277	0.25345	0.084728	0.13737	0.020753	0.54394	0.10996	0.11504	0.29546	0.3632	0.038326	0.13603	0.094558	0.15735	0.22684	0.14139	-2.2958	-2.2333	-2.7812	-2.6792	-2.6	-3.0229	-2.7083	-2.7875	-2.6188	-2.5667	-2.8333	-2.5979	-2.3083	-2.7125	-2.4813	-2.6167	284.977	264.519	39.245	267.462	99.931	54.406	281.117	4.339	313.952	64.635	174.288	235.761	333.834	103.924	319.464	328.164	0.00020009	0.00034002	5.1734e-05	1078.8	2.8671e-06	3.017e-06	1132.5	227.42	2.1699e-06	3.2581e-06	283.74	80.016	62.811	18.261	2.6937e-06	25.342	9.8083e-05	5.2896e-05	1.2912e-05	1073.5	7.4145e-07	4.4728e-07	1131.2	228.82	6.3593e-07	4.7029e-07	285.19	81.412	63.75	18.497	5.6435e-07	26.014	99.842	86.284	90.831	-3.959	118.865	127.106	-4.105	2.959	163.958	126.911	2.476	9.269	9.786	16.803	132.328	15.974	-8191	255	
21026.477	1	1	0	0	0.15892	0.36517	0.12446	0.41889	0.078289	0.21886	0.11854	0.21624	0.35611	0.14157	0.1749	0.28853	0.11599	0.30172	0.2834	0.071555	-2.3063	-2.4417	-2.7313	-2.6688	-2.4458	-2.8042	-2.8354	-2.5771	-2.9313	-2.4521	-2.8854	-2.725	-2.4313	-2.7562	-2.5542	-2.6667	101.675	8.952	262.163	-7.057	120.216	237.471	320.185	1.482	97.919	-11.115	324.652	11.397	5.051	342.713	94.720	143.425	0.0002029	0.00021957	9.4674e-05	1079.3	2.3691e-06	2.8369e-06	1129.7	226.72	2.3608e-06	2.5219e-06	284.24	80.072	62.983	18.204	2.1397e-06	25.414	0.0001035	4.7895e-05	1.2754e-05	1076.3	7.6289e-07	3.789e-07	1133.1	229.37	6.5106e-07	5.3588e-07	285.81	81.377	63.884	18.528	5.6276e-07	26.074	99.389	72.522	76.850	-3.977	136.059	146.315	-3.543	3.070	139.792	144.897	2.570	9.478	9.274	16.449	133.735	16.106	-8191	255	
21026.574	1	1	0	0	0.1175	0.056302	0.071792	0.11383	0.23191	0.27679	0.26857	0.15059	0.0877	0.068203	0.13817	0.21366	0.70399	0.43864	0.055292	0.055083	-2.3271	-2.525	-2.7771	-2.7	-2.6813	-2.8667	-2.8146	-2.5875	-2.8063	-2.4854	-2.7125	-2.7708	-2.3771	-2.775	-2.5542	-2.4958	60.054	296.262	5.089	53.114	176.146	153.974	272.312	258.110	301.732	243.496	267.055	212.686	41.080	254.810	60.368	314.504	0.0001831	0.00026794	8.9417e-05	1083.8	2.819e-06	2.6772e-06	1136	229.61	2.7419e-06	2.668e-06	285.66	80.18	63.082	18.212	1.7922e-06	25.616	9.506e-05	5.3581e-05	1.1232e-05	1078.5	7.5885e-07	4.2218e-07	1137	230.23	6.9924e-07	4.8908e-07	286.72	81.582	63.837	18.577	5.5453e-07	26.109	97.188	86.245	70.039	-4.203	136.421	129.725	-3.937	2.892	143.927	152.272	2.964	9.154	9.637	16.363	141.866	16.295	-8191	255	
21026.693	1	1	0	0	0.05018	0.061326	0.24403	0.067523	0.0018238	0.016358	0.046561	0.13869	0.27139	0.064223	0.153	0.11878	0.17995	0.15116	0.087184	0.2049	-2.2938	-2.4938	-2.6604	-2.9062	-2.5083	-2.7875	-2.8021	-2.825	-2.85	-2.6521	-2.7667	-2.7958	-2.4375	-2.7667	-2.6104	-2.6583	104.766	226.394	264.522	302.333	180.000	183.695	48.303	299.028	59.155	-7.188	158.668	-9.187	232.567	334.266	133.998	154.147	0.0001999	0.000286	8.4749e-05	1079.4	2.0723e-06	3.0132e-06	1140.5	228.44	2.4187e-06	2.1484e-06	286.11	80.456	63.555	18.211	1.4941e-06	25.572	0.00010071	4.7002e-05	1.2197e-05	1082.2	7.3679e-07	4.268e-07	1141.6	230.41	6.8967e-07	4.8315e-07	287.38	81.789	63.988	18.612	5.0168e-07	26.09	94.203	70.304	68.420	-3.895	134.960	148.566	-3.657	3.318	126.748	153.708	3.078	9.119	9.303	16.349	134.634	16.194	-8191	255	
21026.789	1	1	0	0	0.21207	0.087289	0.067898	0.35689	0.29454	0.20894	0.19529	0.19004	0.15328	0.1406	0.070365	0.19671	0.21856	0.27128	0.16772	0.11588	-2.4437	-2.3896	-2.6292	-2.8271	-2.3937	-2.8875	-2.9667	-2.6333	-2.7229	-2.6333	-2.7979	-2.8396	-2.5646	-2.8187	-2.5896	-2.7062	66.216	293.097	16.000	275.479	174.012	200.400	-0.949	164.822	240.864	131.651	274.259	305.746	-12.918	235.487	225.918	222.301	0.00018621	0.00032148	7.8557e-05	1085	3.0807e-06	3.0149e-06	1145.4	229.73	2.3506e-06	2.9319e-06	286.35	80.378	63.42	18.171	2.4951e-06	25.573	9.443e-05	4.9979e-05	1.1764e-05	1085.9	7.7252e-07	4.5323e-07	1144.4	230.82	7.0264e-07	4.4129e-07	288.1	81.836	64.007	18.585	5.232e-07	26.124	96.027	76.320	77.342	-4.105	128.658	149.152	-3.852	2.824	150.816	138.452	2.283	9.127	9.219	16.650	144.746	15.948	-8191	255	
21026.885	1	1	0	0	0.32129	0.14805	0.29386	0.26517	0.24604	0.28437	0.24061	0.26412	0.10451	0.228	0.041071	0.17093	0.065956	0.096333	0.11096	0.13187	-2.4729	-2.6896	-2.7229	-2.8812	-2.5146	-2.5979	-2.7687	-2.4917	-2.8792	-2.6479	-2.575	-2.7771	-2.4667	-2.6688	-2.7083	-2.6854	275.159	3.393	21.867	294.076	224.026	164.899	325.765	22.364	182.665	54.566	211.543	303.171	207.879	234.490	85.993	285.876	0.00019424	0.00028188	6.0262e-05	1092.4	2.9603e-06	3.3083e-06	1144.3	230.2	2.2198e-06	2.9435e-06	288.03	80.516	63.48	18.344	2.5027e-06	25.673	0.00010089	4.4651e-05	1.2904e-05	1086.4	8.1789e-07	4.6777e-07	1143.8	231.11	6.4241e-07	4.7491e-07	288.22	81.956	64.105	18.688	5.5833e-07	26.175	101.983	76.755	71.321	-4.026	127.206	150.444	-4.105	3.203	145.516	161.854	2.718	9.036	9.613	16.512	121.839	16.301	-8191	255	
21026.980	1	1	0	0	0.23164	0.13822	0.13707	0.096236	0.26916	0.18943	0.22272	0.02628	0.18263	0.1384	0.17255	0.22407	0.038691	0.20297	0.13553	0.095861	-2.3271	-2.6917	-2.3979	-2.9479	-2.5792	-2.8208	-2.8937	-2.775	-2.8646	-2.7875	-2.775	-2.7375	-2.4667	-2.6375	-2.7396	-2.4792	300.143	325.260	160.903	65.563	279.814	203.816	269.822	25.431	113.724	205.409	116.463	219.737	230.683	116.905	144.925	232.818	0.00017185	0.00032789	6.9715e-05	1095.1	2.1903e-06	2.0911e-06	1144.6	230.15	2.64e-06	3.7644e-06	286.7	81.021	63.571	18.16	2.6524e-06	25.42	9.9279e-05	4.7151e-05	1.3245e-05	1089.2	6.8427e-07	4.8263e-07	1144.5	230.89	6.6959e-07	4.5448e-07	287.81	82.017	64.022	18.618	5.1085e-07	26.09	98.913	86.386	82.181	-4.161	134.848	152.897	-3.916	3.044	147.186	159.083	2.851	9.067	9.557	16.703	138.963	15.882	-8191	255	
21027.076	1	1	0	0	0.13397	0.19996	0.0675	0.1264	0.19167	0.10723	0.28433	0.091403	0.13865	0.21701	0.0797	0.15653	0.15541	0.20548	0.080174	0.23823	-2.3187	-2.5625	-2.5479	-2.8833	-2.6813	-2.7396	-2.8875	-2.575	-2.7958	-2.8104	-2.5271	-2.9042	-2.5792	-2.6354	-2.7958	-2.5667	0.644	85.227	198.511	191.303	323.290	100.152	229.038	66.199	145.856	66.197	332.504	229.070	252.130	301.126	42.871	341.339	0.00018874	0.00025539	7.9441e-05	1088.4	2.1571e-06	2.0907e-06	1144.8	229.66	2.0763e-06	3.7761e-06	287.88	80.524	62.734	18.294	2.5006e-06	25.408	9.8518e-05	4.0662e-05	1.3395e-05	1087.4	7.3026e-07	4.9353e-07	1145.7	230.95	7.2642e-07	4.6436e-07	287.8	81.947	63.921	18.639	5.1877e-07	26.064	98.946	93.660	62.673	-4.282	130.955	144.084	-3.838	3.252	132.820	158.060	2.547	9.513	9.689	17.116	132.570	16.229	-8191	255	
21027.174	1	1	0	0	0.10797	0.15398	0.24013	0.12245	0.29179	0.10187	0.20262	0.09725	0.027829	0.08242	0.032367	0.12847	0.26951	0.099087	0.2064	0.093896	-2.4	-2.5479	-2.4917	-2.8958	-2.5875	-2.525	-2.9917	-2.6312	-2.6292	-2.8333	-2.4979	-2.9646	-2.775	-2.5229	-2.9083	-2.5687	134.386	87.499	1.925	330.550	218.096	117.198	333.931	100.946	84.423	189.208	219.160	-8.508	307.326	226.316	14.234	329.644	0.00017312	0.00035702	9.2213e-05	1094.3	2.3676e-06	3.088e-06	1154.2	229.95	2.1817e-06	1.9371e-06	287.34	80.901	62.758	18.352	2.315e-06	25.465	9.767e-05	4.3817e-05	1.2954e-05	1091.2	7.5077e-07	4.4167e-07	1149.5	231.29	7.2364e-07	3.5758e-07	289.08	82.233	63.984	18.688	5.3744e-07	26.177	91.263	87.771	75.317	-3.840	139.704	131.750	-3.830	3.058	159.254	164.384	2.611	9.305	9.874	16.301	133.658	16.037	-8191	255	
21027.295	1	1	0	0	0.3303	0.09823	0.18916	0.094395	0.030383	0.15593	0.21721	0.28943	0.077268	0.16189	0.22868	0.18674	0.27847	0.076613	0.44315	0.26641	-2.1437	-2.7333	-2.4896	-3.0583	-2.6312	-2.4646	-2.8563	-2.5229	-2.6	-2.9	-2.4875	-2.8354	-2.6792	-2.5792	-2.7313	-2.6583	210.496	324.804	-5.551	125.299	211.551	-9.511	0.190	315.618	257.401	104.922	4.837	202.459	7.345	39.831	269.353	328.152	0.00019058	0.00031856	6.7037e-05	1095	2.6082e-06	2.2313e-06	1145.3	228.91	2.4162e-06	2.9224e-06	285.58	80.429	63.627	18.34	2.789e-06	25.664	9.8453e-05	4.3073e-05	1.2097e-05	1091.5	7.4953e-07	5.3747e-07	1145.8	231.1	7.6286e-07	4.2416e-07	288.45	81.897	64.365	18.645	5.7416e-07	26.136	104.087	80.155	70.929	-4.056	134.483	137.694	-3.980	3.163	137.904	148.232	2.569	9.181	9.573	16.400	134.062	16.153	-8191	255	
21027.389	1	1	0	0	0.079289	0.13025	0.17178	0.1663	0.21167	0.18315	0.20085	0.12916	0.13931	0.11194	0.10447	0.20912	0.14952	0.11662	0.2386	0.042708	-2.0375	-2.7354	-2.5812	-2.7833	-2.5667	-2.5125	-2.9896	-2.6833	-2.4771	-2.8375	-2.675	-2.7188	-2.8604	-2.2896	-2.7104	-2.5604	128.284	243.611	85.078	336.998	116.978	324.765	262.835	325.009	132.881	26.634	312.896	236.800	22.645	44.739	293.952	57.318	0.00019911	0.00027824	7.4704e-05	1091.2	2.4334e-06	2.8411e-06	1148.2	229.5	2.4474e-06	3.35e-06	285.95	80.621	63.578	18.31	2.9339e-06	25.442	0.00010187	4.2924e-05	1.3986e-05	1092.5	6.6345e-07	4.6876e-07	1146.8	231.3	7.6842e-07	5.3291e-07	288.24	81.977	64.296	18.657	5.8872e-07	26.132	100.568	78.837	69.404	-3.864	142.779	138.318	-3.669	2.979	139.949	129.495	2.931	9.123	9.739	16.201	123.520	16.594	-8191	255	
21027.484	1	1	0	0	0.14496	0.34611	0.17439	0.51951	0.27025	0.40122	0.24408	0.0068327	0.15263	0.25784	0.26452	0.079232	0.077504	0.32882	0.25518	0.22573	-2.2167	-2.875	-2.3479	-2.7438	-2.6813	-2.5417	-3.0312	-2.7479	-2.625	-2.8521	-2.6896	-2.6792	-2.5687	-2.3771	-2.8833	-2.6542	205.708	151.744	338.878	292.298	327.521	328.267	299.731	83.840	83.347	293.143	-8.641	254.697	139.626	219.843	318.641	324.110	0.00019668	0.00031836	7.4334e-05	1091.7	2.7444e-06	2.9821e-06	1149.8	230.48	2.0311e-06	2.5549e-06	288.52	80.843	63.862	18.252	2.6669e-06	25.598	0.00010535	4.7746e-05	1.208e-05	1091	6.9888e-07	5.0542e-07	1148.6	231.72	7.6657e-07	4.291e-07	288.57	82.196	64.349	18.677	5.7321e-07	26.146	100.438	93.707	74.737	-4.158	140.446	145.015	-3.999	2.957	128.769	143.408	2.681	9.615	9.354	16.480	140.359	16.020	-8191	255	
21027.605	1	1	0	0	0.15092	0.15721	0.21148	0.20848	0.17865	0.22742	0.077142	0.29231	0.21138	0.19624	0.12625	0.21912	0.025249	0.30723	0.32982	0.063805	-2.2979	-2.8083	-2.6979	-2.6979	-2.7313	-2.5521	-2.8292	-2.6646	-2.4875	-2.7438	-2.6146	-2.4833	-2.8396	-2.4354	-2.7542	-2.5896	270.361	338.143	239.187	68.317	37.121	288.943	215.461	304.429	-13.238	167.253	269.288	331.524	295.523	-4.619	55.517	125.873	0.00019272	0.00028523	7.3839e-05	1094.9	3.0107e-06	2.5763e-06	1149.1	230.75	3.3337e-06	3.0548e-06	285.6	80.789	63.84	18.306	2.2392e-06	25.613	9.9845e-05	3.7596e-05	1.218e-05	1090.8	7.5699e-07	4.2515e-07	1149.7	231.79	7.5607e-07	4.0768e-07	288.54	82.104	64.391	18.674	5.6466e-07	26.188	97.839	79.994	64.482	-3.950	138.554	150.965	-3.779	2.950	136.095	153.332	2.442	9.346	9.619	16.622	137.697	16.226	-8191	255	
21027.678	1	1	0	0	0.012941	0.3053	0.02726	0.16766	0.15087	0.15661	0.32373	0.18826	0.054719	0.083641	0.18151	0.012655	0.11023	0.16964	0.18148	0.12505	-2.1646	-2.7271	-2.5083	-2.6229	-2.8375	-2.5604	-2.9604	-2.65	-2.4854	-2.8479	-2.7167	-2.6479	-2.7438	-2.5646	-2.7542	-2.6875	173.318	95.789	161.793	-2.055	63.827	339.908	303.727	184.770	128.727	29.886	337.053	194.843	257.251	114.176	170.650	302.555	0.00016994	0.00025611	7.4335e-05	1091.9	2.5309e-06	2.228e-06	1143.3	229.59	2.1944e-06	3.6104e-06	286.04	80.683	63.613	18.23	3.0617e-06	25.538	0.00010322	4.3698e-05	1.1357e-05	1090.8	7.2715e-07	4.7008e-07	1146.7	231.28	7.2951e-07	4.9007e-07	288.1	82.175	64.426	18.653	5.1845e-07	26.139	96.534	85.844	59.238	-3.791	145.572	156.581	-3.911	3.139	141.434	137.444	2.574	9.380	9.723	16.512	136.121	16.106	-8191	255	
21027.773	1	1	0	0	0.30829	0.24895	0.23045	0.25622	0.12404	0.1181	0.13607	0.144	0.14848	0.13241	0.10161	0.27046	0.1341	0.08556	0.095551	0.14438	-2.0667	-2.7083	-2.5375	-2.6	-2.7542	-2.6813	-2.6979	-2.8625	-2.3688	-2.7083	-2.5083	-2.7083	-2.7667	-2.4479	-2.6937	-2.7458	338.477	238.404	278.959	44.898	157.905	250.866	261.644	289.025	-13.225	132.401	62.665	258.603	71.669	13.198	290.358	234.116	0.00017132	0.00033637	4.5082e-05	1092.7	3.5718e-06	2.2969e-06	1145.7	230.7	2.3095e-06	3.1486e-06	286.65	80.59	63.761	18.325	2.3069e-06	25.758	0.00010446	4.8401e-05	1.1681e-05	1091.6	7.6538e-07	4.9584e-07	1149	231.72	7.3568e-07	4.6601e-07	288.5	82.074	64.475	18.717	5.596e-07	26.238	97.562	67.645	83.146	-4.118	128.618	119.290	-4.105	3.050	143.027	145.937	2.449	9.224	9.509	16.533	129.843	15.703	-8191	255	
21027.869	1	1	0	0	0.1196	0.12126	0.096378	0.31953	0.41835	0.094524	0.18848	0.11526	0.31736	0.13937	0.28011	0.047219	0.059085	0.20403	0.21867	0.019628	-2.0438	-2.5333	-2.8167	-2.7354	-2.875	-2.8312	-2.8542	-3.0792	-2.4938	-2.9042	-2.6312	-2.5396	-2.7833	-2.5979	-2.6521	-2.9604	310.849	213.200	187.419	328.542	212.988	223.619	300.803	287.721	46.661	170.642	271.887	137.376	121.737	232.654	241.956	260.162	0.00017615	0.00033261	9.3577e-05	1100.2	3.6095e-06	2.0418e-06	1154.3	231.05	2.82e-06	3.796e-06	286.66	80.954	63.507	18.359	2.5681e-06	25.702	0.00010176	4.5603e-05	1.3761e-05	1096.5	7.8029e-07	4.8065e-07	1152.9	231.84	7.5576e-07	4.6832e-07	288.59	82.283	64.423	18.711	5.9885e-07	26.22	93.206	91.496	80.325	-4.005	143.280	130.848	-3.953	2.885	146.219	130.394	2.592	9.183	9.566	16.376	132.386	16.133	-8191	255	
21027.990	1	1	0	0	0.24945	0.23909	0.3945	0.25859	0.22717	0.094219	0.18822	0.14521	0.10733	0.16818	0.25929	0.27164	0.23529	0.24136	0.21807	0.14871	-2.0521	-2.7396	-2.6792	-2.6479	-2.7188	-2.4771	-2.6771	-2.8792	-2.5042	-2.6292	-2.85	-2.4229	-2.7958	-2.6167	-2.6188	-2.7667	-8.035	45.175	241.411	251.567	6.248	338.095	283.498	290.560	228.316	91.464	184.739	195.985	65.482	269.165	154.068	176.816	0.00021898	0.00026598	7.6761e-05	1094	2.7819e-06	2.1466e-06	1149.9	230.58	2.1811e-06	3.0981e-06	285.76	81.523	63.462	18.245	1.7153e-06	25.809	0.000104	4.861e-05	1.2788e-05	1095	7.0882e-07	4.7701e-07	1151.4	231.74	6.9245e-07	4.2251e-07	288.71	82.39	64.393	18.651	5.634e-07	26.28	100.910	78.275	69.362	-3.801	133.734	152.815	-4.009	2.841	129.836	137.388	2.974	8.852	9.693	16.491	122.152	16.455	-8191	255	
21028.086	1	1	0	0	0.30498	0.1769	0.078473	0.41943	0.12026	0.12748	0.22893	0.033219	0.11158	0.13139	0.28012	0.18448	0.19161	0.17155	0.044357	0.053578	-2.2333	-2.7083	-2.7146	-2.6521	-2.7854	-2.8417	-2.6562	-2.825	-2.6042	-2.7875	-2.8854	-2.4646	-2.7271	-2.7521	-2.4875	-2.875	276.538	232.037	339.139	309.394	343.486	215.800	283.718	342.459	319.015	75.867	15.998	23.163	40.887	210.518	341.465	82.879	0.00018368	0.00030922	9.3692e-05	1098.2	3.172e-06	2.5118e-06	1145.3	229.92	1.6071e-06	2.531e-06	286.15	80.344	63.8	18.305	2.6913e-06	25.59	9.9932e-05	4.4026e-05	1.1548e-05	1097.1	6.9763e-07	4.4134e-07	1150.7	231.5	6.6588e-07	4.4722e-07	288.23	82.096	64.183	18.689	5.9916e-07	26.245	93.630	85.353	65.338	-4.042	127.003	151.033	-4.081	2.991	138.821	139.789	2.849	9.486	9.638	16.326	142.284	16.284	-8191	255	
21028.182	1	1	0	0	0.16605	0.20752	0.12488	0.18354	0.15941	0.11953	0.15419	0.2053	0.18088	0.18972	0.015146	0.083312	0.062226	0.13255	0.17231	0.082474	-2.0479	-2.4313	-2.7333	-2.6125	-2.7417	-2.6458	-2.675	-2.8563	-2.6333	-2.6958	-2.7979	-2.6021	-2.7104	-2.8729	-2.35	-2.7521	300.589	167.575	146.166	231.356	264.746	312.702	282.734	313.819	68.427	103.954	195.603	312.091	54.332	337.264	146.807	70.992	0.00020347	0.00033325	7.554e-05	1096	2.7995e-06	2.4586e-06	1155.4	229.8	3.0373e-06	2.2385e-06	286.75	80.435	63.348	18.239	2.8686e-06	25.548	0.00010115	4.8193e-05	1.114e-05	1096.9	7.2094e-07	4.7668e-07	1154.8	231.75	7.0912e-07	4.614e-07	288.84	82.165	64.185	18.697	6.3018e-07	26.198	99.818	71.535	63.303	-4.031	124.144	140.711	-3.963	2.994	148.701	145.920	2.609	8.699	9.451	16.471	135.489	15.888	-8191	255	
21028.254	1	1	0	0	0.090695	0.24976	0.18862	0.038631	0.292	0.12192	0.031725	0.10272	0.26991	0.20931	0.25694	0.14565	0.27528	0.26499	0.033824	0.18955	-2.15	-2.4396	-2.6771	-2.6562	-2.6167	-2.75	-2.6188	-2.9125	-2.7021	-2.4917	-2.7646	-2.6458	-2.5687	-2.6625	-2.4542	-2.7771	212.845	239.843	87.035	14.394	247.511	184.746	150.556	24.985	22.865	313.511	218.696	261.281	211.033	184.171	108.908	305.438	0.00019143	0.00029297	7.6598e-05	1096.8	2.204e-06	2.9292e-06	1153	231.14	2.091e-06	2.6146e-06	286.78	80.4	63.006	18.289	3.4382e-06	25.428	0.00010322	4.4026e-05	1.0766e-05	1095	7.0354e-07	4.9089e-07	1151.6	232.14	6.7175e-07	4.5415e-07	288.81	82.128	64.209	18.694	6.3398e-07	26.119	91.007	91.848	68.151	-3.998	127.885	146.617	-3.953	3.025	152.545	122.026	3.076	9.470	9.525	16.517	148.750	16.317	-8191	255	
21028.373	1	1	0	0	0.13057	0.09561	0.0751	0.26197	0.28394	0.13596	0.29984	0.17597	0.035756	0.17845	0.17793	0.032165	0.15115	0.16103	0.078954	0.27359	-2.2958	-2.4042	-2.6958	-2.5938	-2.6646	-2.9	-2.8104	-2.7146	-2.7833	-2.4688	-2.8063	-2.6854	-2.5167	-2.7979	-2.6437	-2.7542	331.337	26.861	269.593	225.535	95.849	341.327	287.372	-4.155	140.197	212.853	272.447	307.195	232.211	9.228	74.752	208.329	0.00019289	0.00027681	7.6374e-05	1097.6	3.4147e-06	2.5346e-06	1156.4	229.27	2.3897e-06	2.8203e-06	287.59	80.787	62.974	18.309	2.7022e-06	25.532	0.00010535	4.8729e-05	1.0591e-05	1096.2	7.6009e-07	4.6677e-07	1153.3	231.79	6.9646e-07	5.2995e-07	288.68	82.249	64.094	18.711	6.0043e-07	26.172	91.530	78.016	62.033	-3.755	139.584	148.140	-3.979	3.400	154.188	146.742	2.624	9.043	9.988	17.015	145.488	16.005	-8191	255	
21028.469	1	1	0	0	0.28816	0.23883	0.10888	0.064188	0.034443	0.20554	0.38962	0.093145	0.15128	0.16377	0.077297	0.14103	0.17612	0.33872	0.062573	0.15323	-2.3104	-2.2271	-2.7292	-2.7708	-2.4208	-2.8187	-2.6562	-2.6146	-2.8312	-2.5792	-2.7604	-2.5833	-2.5812	-2.825	-2.5375	-2.7687	40.575	291.632	146.089	17.242	342.024	37.482	264.320	317.262	267.519	8.867	330.225	-1.377	3.096	-11.750	296.132	343.274	0.00018963	0.00032249	6.6981e-05	1099	2.4685e-06	3.138e-06	1151.6	230.53	2.4084e-06	2.6383e-06	287.43	80.216	63.137	18.383	2.3307e-06	25.442	0.00010104	4.7627e-05	1.1739e-05	1097	7.6662e-07	4.1524e-07	1152.9	231.84	6.699e-07	4.9996e-07	288.83	82.041	64.135	18.716	5.9188e-07	26.137	96.520	72.464	77.725	-4.080	136.334	146.395	-3.945	3.029	155.896	134.685	2.902	9.375	9.734	16.768	144.412	16.239	-8191	255	
21028.566	1	1	0	0	0.20169	0.084902	0.22372	0.2285	0.037984	0.24548	0.32207	0.085505	0.1688	0.074785	0.27837	0.1419	0.16365	0.091192	0.12367	0.26423	-2.3896	-2.6292	-2.7938	-2.7562	-2.4146	-2.8271	-2.6146	-2.7542	-2.8229	-2.5521	-2.8688	-2.7417	-2.4833	-2.8125	-2.6271	-2.7604	254.763	289.042	180.751	4.585	262.017	89.721	260.309	276.071	206.733	57.506	-12.683	309.952	186.662	45.796	321.488	344.233	0.00018743	0.00024756	0.00010146	1103.8	2.9392e-06	2.6667e-06	1158	230.69	2.5605e-06	3.8626e-06	286.07	81.132	63.035	18.316	3.1698e-06	25.731	0.00010026	5.4117e-05	1.1789e-05	1098.9	8.0671e-07	4.5719e-07	1153.6	231.93	6.4025e-07	5.4906e-07	288.33	82.284	64.123	18.687	5.5675e-07	26.19	94.021	85.300	55.677	-4.254	125.709	133.502	-4.119	2.780	148.863	137.497	2.724	9.173	9.463	16.382	157.117	16.252	-8191	255	
21028.686	1	1	0	0	0.23513	0.27204	0.11018	0.031056	0.20221	0.20798	0.20319	0.20974	0.17699	0.21954	0.21684	0.22152	0.22656	0.093793	0.035315	0.15638	-2.2458	-2.4729	-2.7417	-2.6708	-2.4875	-2.7542	-2.6854	-2.6729	-2.6875	-2.4667	-3.0208	-2.6833	-2.5062	-2.7521	-2.6771	-2.675	192.610	221.344	132.546	166.726	11.616	119.648	272.842	208.838	118.503	108.136	289.801	146.406	207.397	259.953	28.494	310.415	0.00020319	0.00021153	7.2876e-05	1101.4	2.4158e-06	3.7006e-06	1154.2	231.58	2.5869e-06	2.4677e-06	286.57	81.078	63.726	18.36	2.737e-06	25.691	9.6778e-05	4.3936e-05	1.1864e-05	1098.8	7.197e-07	4.2713e-07	1153	232.25	6.7546e-07	4.5513e-07	288.69	82.077	64.579	18.708	5.7163e-07	26.19	101.431	76.697	68.655	-3.874	129.572	129.070	-3.944	2.867	133.384	144.809	2.729	9.127	9.743	16.428	124.590	16.519	-8191	255	
21028.781	1	1	0	0	0.067679	0.11064	0.09351	0.16407	0.17822	0.15175	0.042085	0.21153	0.13671	0.026911	0.19465	0.053286	0.17235	0.25139	0.1467	0.38932	-2.4979	-2.4208	-2.5979	-2.7583	-2.3937	-2.75	-2.7938	-2.6437	-2.8312	-2.3708	-2.7354	-2.8729	-2.4521	-2.7125	-2.7604	-2.4729	299.512	291.011	40.245	323.305	129.413	85.690	160.244	31.358	50.063	168.587	206.066	186.375	3.251	67.817	150.837	296.358	0.00016626	0.00021814	5.5442e-05	1106.9	1.4961e-06	3.0859e-06	1155.2	229.88	3.1524e-06	2.1502e-06	288.03	81.356	63.414	18.386	2.2293e-06	25.7	9.7235e-05	4.7479e-05	1.1548e-05	1099.8	7.7905e-07	4.3969e-07	1153.8	232.1	6.733e-07	4.9271e-07	288.76	82.437	64.402	18.725	5.5327e-07	26.235	93.918	88.512	74.474	-4.252	168.127	162.356	-3.883	2.882	139.709	128.920	2.737	9.149	9.581	16.321	159.401	16.531	-8191	255	
21028.879	1	1	0	0	0.10725	0.25009	0.10378	0.1693	0.317	0.1662	0.15019	0.24195	0.20344	0.14758	0.2198	0.14913	0.13575	0.2052	0.18121	0.23194	-2.4042	-2.6375	-2.3937	-2.8375	-2.425	-2.7958	-2.9	-2.5438	-2.7646	-2.6979	-2.7646	-2.9458	-2.3812	-2.6646	-2.7313	-2.55	339.764	78.121	310.663	261.680	286.832	258.393	331.909	-13.106	251.560	327.208	1.717	231.279	340.420	340.466	-11.817	-14.717	0.0001691	0.00034055	8.2708e-05	1100.1	2.5041e-06	2.4805e-06	1154.2	230.7	2.0926e-06	3.445e-06	287.36	80.915	63.554	18.311	2.9114e-06	25.751	9.593e-05	4.3728e-05	1.3062e-05	1098.7	8.0733e-07	4.4861e-07	1154.8	232.33	6.3407e-07	4.9501e-07	289.46	82.093	64.468	18.748	5.4789e-07	26.307	97.852	88.368	72.076	-4.013	147.169	144.770	-3.882	3.003	141.638	142.831	2.659	9.222	9.720	16.788	143.094	16.218	-8191	255	
21028.975	1	1	0	0	0.15105	0.22745	0.092052	0.32579	0.040081	0.087634	0.16646	0.3675	0.11257	0.052507	0.094622	0.34084	0.26384	0.1639	0.24131	0.077741	-2.5646	-2.4333	-2.2917	-2.7938	-2.425	-2.7604	-2.7375	-2.3354	-2.9396	-2.7104	-2.6542	-2.9042	-2.6083	-2.7562	-2.8167	-2.375	248.464	202.709	201.754	323.267	92.224	-13.180	315.723	11.896	100.537	73.902	333.367	252.451	84.246	-15.138	34.293	21.853	0.00016717	0.00032724	8.8328e-05	1106.5	2.7595e-06	2.8114e-06	1157.2	231.92	2.9445e-06	3.7575e-06	287.3	81.355	64.058	18.388	2.886e-06	25.706	0.00010115	4.9324e-05	1.3586e-05	1101.9	7.4922e-07	4.7338e-07	1157.3	232.51	6.9986e-07	4.6832e-07	289.13	82.641	64.856	18.788	5.5453e-07	26.269	94.822	62.411	77.735	-3.910	130.477	132.568	-4.222	2.798	141.560	150.576	2.602	9.311	9.631	16.931	134.834	16.407	-8191	255	
21029.070	1	1	0	0	0.1177	0.16241	0.17433	0.21011	0.10127	0.11753	0.27742	0.295	0.11235	0.29826	0.14516	0.11212	0.26993	0.06625	0.082292	0.22559	-2.2313	-2.5708	-2.5542	-2.7917	-2.5646	-2.5042	-2.9396	-2.5354	-2.825	-2.6188	-2.2792	-2.6229	-2.3667	-2.4938	-2.7292	-2.3604	-11.106	223.570	-9.321	299.015	179.007	267.224	315.188	266.546	119.114	151.040	273.144	261.051	128.661	-0.297	222.784	254.825	0.00018008	0.0002401	6.8211e-05	1104.3	3.4381e-06	2.0158e-06	1158.1	231.34	2.9091e-06	3.0519e-06	287.85	81.632	63.626	18.492	2.9944e-06	25.736	9.9497e-05	4.4234e-05	1.3154e-05	1102.5	7.517e-07	4.5092e-07	1159.2	232.86	6.9646e-07	4.5085e-07	289.93	82.806	64.669	18.789	5.6118e-07	26.271	95.076	75.917	70.950	-3.968	144.108	139.769	-4.092	2.991	153.923	146.288	2.711	8.874	9.490	16.744	149.310	16.209	-8191	255	
21029.166	1	1	0	0	0.15304	0.1631	0.30703	0.18464	0.22109	0.21529	0.098988	0.088739	0.10789	0.33994	0.20063	0.23642	0.2847	0.14653	0.17147	0.10245	-2.2854	-2.7188	-2.3042	-3.0167	-2.5208	-2.5708	-2.9292	-2.4979	-2.6167	-2.725	-2.6437	-2.8167	-2.5125	-2.6312	-2.9688	-2.4646	142.305	148.241	162.887	-6.530	256.584	237.585	103.186	53.898	120.336	50.902	289.608	232.928	-0.735	315.074	148.072	-1.835	0.00018416	0.00031211	9.6058e-05	1101.4	1.8627e-06	2.877e-06	1161.8	231.7	3.1718e-06	3.2177e-06	286.04	81.884	63.351	18.514	3.147e-06	25.668	9.904e-05	4.8848e-05	1.2896e-05	1101.9	6.6345e-07	4.6413e-07	1160.2	232.81	7.5329e-07	4.9303e-07	289.12	82.701	64.656	18.854	5.6878e-07	26.303	95.750	78.325	75.039	-4.107	141.760	147.258	-4.021	2.996	124.525	132.965	2.755	9.433	9.442	16.299	144.855	16.205	-8191	255	
21029.287	1	1	0	0	0.19648	0.17834	0.056891	0.15764	0.24315	0.18756	0.053759	0.063588	0.18183	0.13895	0.27739	0.058884	0.24015	0.25645	0.16609	0.21351	-2.2604	-2.3854	-2.4542	-2.8729	-2.5583	-2.6333	-2.8833	-2.4229	-2.7229	-2.8688	-2.5583	-2.6875	-2.5083	-2.7396	-2.7938	-2.5729	59.007	242.746	35.998	273.303	175.716	7.301	190.170	76.743	319.893	87.709	267.575	159.726	69.388	21.652	31.755	41.449	0.00019403	0.00022707	7.3115e-05	1111.3	1.5078e-06	2.3971e-06	1164.9	232.47	2.8198e-06	3.3855e-06	288.72	81.768	63.974	18.369	2.2921e-06	25.905	0.00010285	4.4651e-05	1.2746e-05	1107.8	7.1752e-07	4.681e-07	1162.4	233.71	7.3599e-07	4.6832e-07	290.51	82.914	64.873	18.859	5.1085e-07	26.441	96.903	102.629	69.543	-4.197	138.876	140.241	-4.045	3.071	133.554	135.783	2.628	8.834	9.464	16.343	142.605	16.097	-8191	255	
21029.381	1	1	0	0	0.30507	0.25536	0.12509	0.089903	0.27039	0.28653	0.26186	0.12141	0.10002	0.1298	0.21979	0.069033	0.02319	0.062633	0.1039	0.39169	-2.1625	-2.7104	-2.5687	-2.8438	-2.7104	-2.6917	-2.9458	-2.6604	-2.6042	-2.9104	-2.6771	-2.9396	-2.7271	-2.45	-2.8333	-2.6292	-6.652	20.979	223.130	258.208	333.277	276.711	341.762	191.059	224.911	314.398	325.417	197.097	135.032	321.465	188.584	184.496	0.00019479	0.00024692	6.7039e-05	1113.8	2.9754e-06	2.7907e-06	1168.3	233.3	1.8443e-06	3.8647e-06	290.32	81.781	64.538	18.526	2.6587e-06	25.805	0.000103	4.855e-05	1.2655e-05	1108.3	7.3119e-07	4.5686e-07	1164.9	234	7.1746e-07	4.4459e-07	291.22	83.039	65.145	18.888	4.5072e-07	26.429	93.322	75.338	57.549	-3.931	139.606	154.422	-3.931	3.008	140.130	136.843	2.436	9.255	9.513	16.085	141.287	16.331	-8191	255	
21029.479	1	1	0	0	0.20748	0.30054	0.17869	0.057393	0.1107	0.096858	0.25921	0.11344	0.21425	0.059184	0.36563	0.16157	0.067556	0.20336	0.1589	0.23229	-2.275	-2.8625	-2.5042	-2.6896	-2.5667	-2.3187	-2.7438	-2.6021	-2.4583	-2.6646	-2.375	-2.85	-2.7479	-2.6083	-2.8688	-2.6625	231.304	209.203	131.982	153.351	88.061	111.413	263.252	312.336	-14.954	60.399	254.516	258.161	32.716	209.528	334.050	36.158	0.00018509	0.00027493	9.2109e-05	1109.2	2.0348e-06	3.0794e-06	1163.6	231.48	2.4647e-06	3.0021e-06	289.43	81.833	64.213	18.668	2.4881e-06	25.759	0.00010232	4.4829e-05	1.3112e-05	1109.1	7.2405e-07	5.3251e-07	1164.8	233.74	6.8565e-07	3.767e-07	290.49	83.11	65.001	18.944	5.0579e-07	26.414	102.985	74.123	72.066	-3.997	123.118	152.168	-3.885	2.820	135.369	113.643	2.526	9.270	9.754	17.007	138.556	16.109	-8191	255	
21029.549	1	1	0	0	0.2796	0.22748	0.31225	0.2038	0.21566	0.073102	0.33549	0.1733	0.10878	0.088504	0.19321	0.13639	0.27198	0.10352	0.12259	0.15724	-2.0583	-2.6437	-2.5729	-2.6896	-2.8417	-2.4688	-3.1271	-2.6833	-2.35	-2.9104	-2.4813	-2.65	-2.9271	-2.5729	-2.6562	-2.775	250.845	156.838	161.121	279.682	125.020	343.075	276.792	308.849	216.043	228.811	10.373	177.079	281.231	278.416	219.258	342.154	0.00018587	0.00026747	7.8761e-05	1112	2.5599e-06	2.2981e-06	1166.2	232.11	2.838e-06	3.6408e-06	288.89	81.356	64.467	18.434	2.3247e-06	25.747	0.00010278	4.1882e-05	1.3179e-05	1110.4	7.0944e-07	5.2194e-07	1168.5	233.38	6.8133e-07	4.8051e-07	291.2	82.963	65.041	18.871	5.444e-07	26.424	95.306	86.481	61.563	-3.634	148.937	148.708	-4.091	2.797	169.378	126.182	2.729	9.071	9.267	16.721	139.587	16.105	-8191	255	
21029.670	1	1	0	0	0.062216	0.23184	0.21499	0.38169	0.17153	0.22081	0.29639	0.11298	0.29089	0.31206	0.15636	0.28314	0.16706	0.16521	0.13568	0.039819	-1.95	-2.7979	-2.5312	-2.5917	-2.7938	-2.4458	-2.8354	-2.8354	-2.5375	-2.7833	-2.6271	-2.3896	-2.8604	-2.6333	-2.8521	-2.6333	291.961	-4.929	85.912	298.420	144.648	297.154	286.981	279.076	3.314	175.903	164.438	312.153	272.313	257.826	73.474	191.626	0.0001856	0.00032475	8.2648e-05	1112.9	3.4748e-06	2.2121e-06	1164.5	232.91	2.2729e-06	3.5458e-06	287.58	81.465	63.662	18.527	2.2712e-06	25.924	0.00010472	4.727e-05	1.2322e-05	1112.4	7.4518e-07	4.7536e-07	1166.8	234.25	7.0326e-07	4.4129e-07	290.95	83.027	64.835	18.892	5.3997e-07	26.448	99.215	83.584	71.834	-4.017	130.531	130.578	-3.864	3.144	141.267	131.794	2.483	9.156	9.751	16.441	146.173	16.144	-8191	255	
21029.766	1	1	0	0	0.22294	0.24275	0.14208	0.038697	0.16393	0.031537	0.084392	0.060219	0.21162	0.25435	0.23035	0.08236	0.07183	0.16296	0.074255	0.10226	-2.0354	-2.8042	-2.5208	-2.625	-2.9854	-2.4917	-2.6958	-2.7083	-2.4042	-2.8583	-2.7687	-2.625	-2.8521	-2.4646	-2.5563	-2.7333	198.312	109.134	338.989	335.540	170.886	125.280	252.214	9.462	134.840	41.285	255.896	29.963	322.216	326.267	-0.991	219.312	0.00020778	0.00024427	7.0373e-05	1117.5	2.548e-06	3.0904e-06	1167.2	232.21	2.9628e-06	2.703e-06	289.77	81.849	63.904	18.481	2.0591e-06	25.885	0.00010693	4.2656e-05	1.1107e-05	1113.3	6.6718e-07	5.2756e-07	1167.6	233.62	7.5205e-07	4.4887e-07	291.26	83.161	64.735	18.902	5.7511e-07	26.515	95.623	78.931	79.446	-4.055	142.254	141.648	-3.865	3.341	146.606	156.568	2.687	9.304	9.722	16.440	139.326	16.360	-8191	255	
21029.861	1	1	0	0	0.098028	0.20615	0.10018	0.24794	0.21145	0.13802	0.17	0.087894	0.24188	0.10406	0.053191	0.25656	0.26552	0.22368	0.13906	0.21024	-1.9396	-2.5854	-2.5625	-2.475	-2.7229	-2.6458	-2.7458	-2.8438	-2.5312	-2.7167	-2.5917	-2.6417	-2.9313	-2.5625	-2.6271	-2.6771	198.747	225.067	9.086	253.169	338.424	124.145	236.664	322.171	52.992	210.212	245.857	291.840	336.691	174.892	237.632	102.515	0.0002003	0.00032647	9.0163e-05	1112.6	2.719e-06	2.5338e-06	1167.9	232.66	2.2866e-06	3.2464e-06	290.12	81.278	64.306	18.498	2.687e-06	25.769	0.0001078	5.2033e-05	1.1648e-05	1111.5	7.1845e-07	4.5224e-07	1168	233.94	7.6379e-07	5.2467e-07	291.54	83.091	65.046	18.857	6.1151e-07	26.432	94.256	87.292	76.622	-4.320	134.214	164.937	-3.889	3.053	144.048	143.886	2.486	9.193	9.535	16.470	151.067	16.179	-8191	255	
21029.957	1	1	0	0	0.061722	0.04521	0.2229	0.095404	0.20608	0.20644	0.18068	0.14609	0.20637	0.12851	0.19825	0.18468	0.35317	0.22718	0.20299	0.23776	-2.0521	-2.6521	-2.6917	-2.5729	-2.7375	-2.6542	-2.8125	-2.8	-2.3563	-2.7812	-2.7125	-2.4917	-2.8375	-2.5917	-2.45	-2.9104	159.440	320.678	200.478	51.046	24.005	311.934	341.043	322.382	332.059	341.142	300.613	249.563	299.721	24.994	139.285	144.602	0.00019511	0.00028286	8.0805e-05	1116	2.4323e-06	2.8203e-06	1169.3	233.04	1.9214e-06	3.6126e-06	289.6	81.779	64.668	18.507	2.1377e-06	25.785	0.00010728	4.4919e-05	1.1282e-05	1113	7.4549e-07	4.2482e-07	1168	233.83	6.5446e-07	5.0852e-07	291.28	83.31	65.225	18.885	5.6023e-07	26.476	95.490	90.966	88.107	-4.121	131.075	140.407	-3.914	3.052	138.298	131.802	2.335	9.247	9.599	16.041	126.501	16.036	-8191	255	
21030.078	1	1	0	0	0.14841	0.32531	0.3396	0.23888	0.066579	0.20809	0.18469	0.16824	0.13201	0.049647	0.032368	0.023017	0.18373	0.15424	0.26479	0.21872	-2.0438	-2.5854	-2.8271	-2.4708	-2.5563	-2.5479	-2.6396	-2.85	-2.5708	-2.5479	-2.8396	-2.3458	-2.6312	-2.7667	-2.3312	-2.7646	217.507	34.487	116.589	306.242	194.251	217.248	200.305	284.676	150.086	71.960	252.130	195.745	253.987	67.616	144.353	253.535	0.00018251	0.00030729	8.4475e-05	1118.3	1.9634e-06	2.9421e-06	1170.1	233.53	1.6943e-06	2.0319e-06	290.04	81.474	64.664	18.533	3.1097e-06	25.864	0.00010058	4.9771e-05	1.1831e-05	1114.5	7.3927e-07	4.8197e-07	1170.3	234.42	7.4094e-07	4.4821e-07	292.03	83.139	65.095	18.898	5.9536e-07	26.546	97.581	67.012	62.923	-3.903	137.669	126.056	-4.189	3.129	136.466	150.542	2.499	9.010	9.390	16.498	134.808	16.339	-8191	255	
21030.150	1	1	0	0	0.20933	0.13315	0.17269	0.21452	0.23866	0.077423	0.30317	0.15378	0.14714	0.18095	0.15683	0.17342	0.087219	0.18204	0.21469	0.094554	-1.9188	-2.2687	-2.7292	-2.6167	-2.6771	-2.5792	-2.3896	-2.7021	-2.6083	-2.5583	-2.9062	-2.5375	-2.6437	-2.5167	-2.4375	-2.9104	224.772	311.353	147.789	-7.291	55.716	275.881	313.270	226.885	293.569	247.647	191.579	88.534	-12.986	-7.178	331.663	187.389	0.00017869	0.00030128	6.766e-05	1115.2	2.6208e-06	2.5597e-06	1173.1	233	2.7181e-06	2.6688e-06	290.75	82.327	64.894	18.696	3.556e-06	26.005	0.00010106	5.3194e-05	1.218e-05	1114.9	7.2032e-07	4.6479e-07	1172.1	234.54	7.5916e-07	4.8084e-07	292.3	83.469	65.26	19.013	6.4727e-07	26.588	100.037	76.609	82.995	-4.153	136.213	148.890	-3.900	2.720	138.047	124.849	2.530	9.067	9.829	16.524	166.081	16.350	-8191	255	
21030.246	1	1	0	0	0.024133	0.17551	0.17861	0.27032	0.032724	0.11879	0.23686	0.26695	0.088639	0.055794	0.09698	0.34085	0.18889	0.16225	0.37805	0.17311	-2.0625	-2.3458	-2.7479	-2.6979	-2.7854	-2.7021	-2.6229	-2.5354	-2.6063	-2.4604	-2.7542	-2.5208	-2.6021	-2.4875	-2.4417	-2.7271	163.529	2.714	41.553	182.293	200.743	111.227	228.986	251.456	103.481	192.139	106.120	316.615	206.256	28.206	212.344	123.840	0.00019975	0.00023498	7.092e-05	1119.5	2.1198e-06	3.2942e-06	1167.6	233.45	1.9567e-06	2.9666e-06	288.64	81.854	64.438	18.559	2.4905e-06	25.718	0.00010396	4.7717e-05	1.1581e-05	1116.1	8.3623e-07	4.2912e-07	1172.2	234	7.7244e-07	4.9172e-07	291.23	83.364	65.407	18.911	6.0676e-07	26.437	99.874	80.552	68.174	-4.143	131.989	158.996	-3.798	3.216	134.378	128.931	2.895	9.264	9.925	16.525	138.542	15.958	-8191	255	
21030.367	1	1	0	0	0.074286	0.094011	0.23058	0.25391	0.22983	0.07539	0.54647	0.11254	0.054105	0.14669	0.34353	0.11948	0.095064	0.29632	0.1672	0.18069	-1.9771	-2.525	-2.6625	-2.5208	-2.5771	-2.6083	-2.6208	-2.7542	-2.5354	-2.6896	-2.9188	-2.6188	-2.4604	-2.7562	-2.4896	-2.6667	147.783	334.382	316.736	333.275	339.311	339.912	263.411	288.679	137.213	-6.142	312.853	33.151	80.675	0.915	197.280	106.330	0.00020115	0.0002412	6.7099e-05	1120.3	2.2867e-06	2.3401e-06	1171.9	232.82	2.1597e-06	2.4259e-06	289.27	81.56	64.092	18.554	2.8834e-06	25.752	9.8236e-05	4.989e-05	1.1365e-05	1115.5	7.3803e-07	4.5686e-07	1169.1	234.02	7.0017e-07	4.7359e-07	290.93	82.949	65.012	18.889	6.0549e-07	26.335	99.172	98.546	76.409	-3.856	138.379	141.384	-4.078	3.016	135.740	159.331	2.526	9.275	9.554	15.981	128.876	16.195	-8191	255	
21030.463	1	1	0	0	0.27521	0.14266	0.15964	0.47302	0.049938	0.14553	0.086921	0.15086	0.056202	0.27848	0.072025	0.15132	0.22614	0.16009	0.17043	0.043752	-2.2833	-2.3396	-2.9813	-2.6667	-2.6146	-2.85	-2.5271	-2.6604	-2.7	-2.4958	-2.8937	-2.6688	-2.7	-2.8812	-2.4375	-2.8625	59.130	263.085	320.834	291.416	114.889	59.013	269.731	228.688	-8.782	250.496	19.150	187.905	248.324	315.785	73.462	34.131	0.00018691	0.00030032	5.707e-05	1115.5	2.5196e-06	2.4281e-06	1173.9	232.89	2.023e-06	3.4929e-06	288.78	81.908	64.524	18.438	3.1063e-06	25.736	9.8953e-05	5.2658e-05	1.1124e-05	1113.8	7.5232e-07	4.202e-07	1170.1	233.92	6.6032e-07	5.1545e-07	290.64	83.137	65.154	18.85	6.5708e-07	26.429	94.536	93.384	76.982	-3.960	135.523	147.110	-3.938	2.780	152.116	147.580	2.608	9.127	9.438	16.758	128.419	15.976	-8191	255	
21030.559	1	1	0	0	0.20065	0.18199	0.07447	0.15613	0.27039	0.13014	0.29658	0.1291	0.15371	0.26801	0.18032	0.30162	0.18649	0.039337	0.56003	0.12486	-2.4229	-2.4083	-2.7375	-2.5563	-2.5667	-2.8187	-2.5896	-2.7583	-2.8729	-2.5479	-2.8833	-2.5521	-2.3729	-2.8875	-2.6813	-2.7708	22.395	60.478	5.580	328.350	264.181	296.143	244.898	171.661	335.666	232.641	344.481	335.007	165.918	103.345	285.273	30.416	0.0001682	0.00030636	9.2719e-05	1121.9	2.2563e-06	3.8107e-06	1171.7	232.46	3.183e-06	2.8702e-06	288.12	81.772	63.923	18.38	3.3297e-06	25.947	0.0001008	5.1825e-05	1.1382e-05	1115.1	7.893e-07	4.932e-07	1169.6	234.3	7.2302e-07	4.8381e-07	291.15	83.096	64.849	18.844	6.2986e-07	26.45	92.527	73.669	58.620	-4.086	136.056	147.100	-4.218	2.850	114.836	154.861	2.517	9.059	9.767	16.817	121.703	15.653	-8191	255	
21030.654	1	1	0	0	0.15649	0.25326	0.13214	0.16278	0.1126	0.10812	0.24615	0.24244	0.12802	0.14343	0.22063	0.13536	0.095158	0.21909	0.1351	0.33076	-2.2417	-2.3937	-2.75	-2.6813	-2.5104	-2.7604	-2.6583	-2.6937	-2.8792	-2.4958	-2.9604	-2.8354	-2.55	-2.9583	-2.5354	-2.6917	171.516	108.241	330.200	33.149	181.884	105.270	269.597	249.656	100.060	208.726	-9.157	218.103	-2.404	86.425	274.301	299.594	0.00020844	0.000324	7.8127e-05	1116.4	2.2701e-06	2.1345e-06	1169.6	232.98	2.0933e-06	2.695e-06	289.39	80.923	64.321	18.459	2.6923e-06	25.728	9.7474e-05	5.1825e-05	1.233e-05	1114.4	7.66e-07	4.3671e-07	1171.5	234.16	6.7916e-07	4.4821e-07	291.21	82.833	64.956	18.825	5.3966e-07	26.435	96.435	84.542	74.637	-3.921	145.169	136.929	-3.837	3.053	123.481	146.569	2.584	9.139	9.058	16.487	136.669	15.831	-8191	255	
21030.775	1	1	0	0	0.073848	0.15011	0.16327	0.11697	0.14776	0.17895	0.1387	0.031113	0.29077	0.30034	0.10945	0.10467	0.23044	0.1432	0.15676	0.065341	-2.1917	-2.4521	-2.6229	-2.825	-2.35	-2.7479	-2.7417	-2.6583	-2.8479	-2.5667	-2.7375	-2.7625	-2.4542	-2.7708	-2.6125	-2.3958	119.819	241.121	171.245	15.890	177.942	34.403	335.444	215.596	80.271	197.654	335.448	180.346	248.880	35.883	253.601	280.010	0.0001982	0.0002892	7.9455e-05	1119.1	2.5558e-06	3.4074e-06	1168.6	231.42	2.0129e-06	2.9125e-06	288.24	81.712	63.654	18.496	2.7002e-06	25.683	0.00010208	5.2092e-05	1.2912e-05	1116.4	8.1727e-07	4.9717e-07	1168.9	233.82	7.1901e-07	5.227e-07	291.13	83.157	64.815	18.876	5.6909e-07	26.39	99.686	88.494	77.061	-4.176	151.795	139.773	-4.145	2.980	154.114	166.912	3.230	9.212	9.235	16.200	134.668	16.076	-8191	255	
21030.846	1	1	0	0	0.3756	0.1764	0.09178	0.19208	0.12061	0.11967	0.12296	0.16205	0.15073	0.1886	0.16274	0.11662	0.30548	0.058717	0.14536	0.10708	-2.3521	-2.6708	-2.6458	-3.0542	-2.4208	-2.7667	-2.7021	-2.6375	-2.8354	-2.4437	-2.6063	-2.7833	-2.5792	-2.6375	-2.675	-2.4625	229.047	122.251	60.163	263.841	210.109	14.664	294.431	84.032	156.973	243.180	225.272	312.513	267.853	273.284	33.880	229.907	0.00016695	0.000412	7.193e-05	1114.1	3.5013e-06	2.8784e-06	1167.7	232.14	2.7938e-06	2.1045e-06	286.5	81.586	63.564	18.455	2.2876e-06	25.762	0.00010045	4.8431e-05	1.2871e-05	1112.6	7.5481e-07	4.5918e-07	1169.1	233.6	6.7113e-07	4.436e-07	290.5	82.824	64.702	18.827	5.4409e-07	26.385	93.999	79.128	89.636	-4.287	134.353	145.735	-3.929	3.071	142.504	147.897	2.912	9.003	9.558	16.113	125.024	15.965	-8191	255	
21030.943	1	1	0	0	0.079291	0.19714	0.13768	0.31536	0.27032	0.079209	0.10636	0.19237	0.071409	0.17636	0.18652	0.14471	0.089697	0.26946	0.070571	0.12473	-2.4437	-2.525	-2.4938	-2.875	-2.65	-2.8438	-2.9437	-2.5271	-2.7604	-2.5854	-2.5271	-2.8125	-2.5104	-2.8208	-2.6917	-2.5354	339.036	-8.229	262.472	288.311	95.393	155.235	295.925	298.510	35.538	142.922	167.633	334.330	114.587	302.053	294.960	251.125	0.00019337	0.00026205	9.8201e-05	1115.6	2.1733e-06	2.6743e-06	1164.3	232.83	2.7433e-06	1.8465e-06	288.76	81.536	63.877	18.397	2.7346e-06	25.64	9.767e-05	4.4174e-05	1.2355e-05	1112.1	7.4953e-07	4.4761e-07	1166	233.81	6.9893e-07	4.3371e-07	291.12	82.794	64.986	18.787	5.7542e-07	26.304	96.258	84.389	78.446	-4.076	128.759	138.098	-3.823	3.059	136.830	136.157	2.488	9.122	9.642	16.329	128.488	16.441	-8191	255	
21031.062	1	1	0	0	0.063764	0.15385	0.21714	0.33313	0.10836	0.12407	0.26849	0.14538	0.19258	0.29107	0.36055	0.29663	0.10767	0.23652	0.080191	0.28548	-2.4313	-2.5729	-2.4167	-2.8646	-2.5812	-2.8354	-3.0146	-2.4979	-2.6646	-2.5771	-2.6646	-2.8917	-2.5958	-2.7438	-2.7354	-2.475	283.091	171.290	159.865	264.298	322.158	-7.292	258.494	296.569	67.035	300.705	226.768	32.280	43.176	329.243	140.029	13.773	0.00019359	0.00028269	7.4716e-05	1112.1	2.9734e-06	2.7365e-06	1164.1	232.92	2.5392e-06	2.1377e-06	290.15	81.601	63.703	18.484	2.8886e-06	25.793	0.00010056	4.2775e-05	1.3279e-05	1111	7.6072e-07	4.6347e-07	1168.1	233.56	7.153e-07	4.8381e-07	291.42	82.939	64.835	18.836	5.156e-07	26.4	93.631	72.019	78.070	-3.960	158.137	145.929	-3.968	2.981	145.445	157.087	2.632	9.316	9.158	16.138	128.483	16.176	-8191	255	
21031.158	1	1	0	0	0.047395	0.23339	0.2136	0.19095	0.11693	0.056174	0.13052	0.015687	0.3249	0.16979	0.20761	0.11137	0.062732	0.10162	0.17381	0.15471	-2.2562	-2.6917	-2.4521	-2.7979	-2.5187	-2.4729	-2.9396	-2.4	-2.7979	-2.6125	-2.3708	-2.85	-2.5563	-2.4	-2.7979	-2.4562	294.261	157.561	80.128	29.786	317.541	344.367	207.327	150.291	156.118	108.774	289.829	218.618	129.678	339.128	146.517	43.129	0.0002115	0.00026389	8.7398e-05	1115	3.2755e-06	2.6549e-06	1165	231.32	3.3942e-06	3.6746e-06	289.99	82.034	64.165	18.462	2.3231e-06	25.877	0.00010128	4.6764e-05	1.2879e-05	1110.5	8.2224e-07	4.8924e-07	1165.8	233.61	6.7361e-07	4.9864e-07	291.43	83.014	64.943	18.834	4.906e-07	26.373	102.698	98.253	68.493	-3.788	116.814	146.702	-3.945	2.829	148.132	136.595	2.993	9.296	9.587	16.500	143.808	16.108	-8191	255	
21031.256	1	1	0	0	0.042046	0.2092	0.18616	0.3063	0.16484	0.098726	0.26012	0.22413	0.19347	0.17449	0.22146	0.10822	0.15272	0.19583	0.12643	0.15863	-2.225	-2.6833	-2.4021	-3.0042	-2.5312	-2.475	-2.9667	-2.4479	-2.7333	-2.7271	-2.4667	-2.9146	-2.5521	-2.5563	-2.7625	-2.575	74.440	230.950	155.986	316.840	18.767	0.186	262.186	210.807	205.225	187.152	235.923	236.316	54.526	33.759	269.207	101.468	0.00019235	0.00032482	4.9535e-05	1117.7	2.7397e-06	2.3467e-06	1166.9	232.16	2.3132e-06	3.2487e-06	287.86	81.829	64.288	18.558	2.4879e-06	25.752	9.9845e-05	4.602e-05	1.2904e-05	1112.8	8.1416e-07	5.0113e-07	1167.7	233.43	6.8225e-07	4.1526e-07	290.85	82.916	65.118	18.844	5.2858e-07	26.384	102.363	82.442	55.181	-4.227	146.763	142.646	-4.056	3.187	132.262	135.116	2.755	9.319	9.586	16.693	149.573	16.350	-8191	255	
21031.373	1	1	0	0	0.067605	0.12399	0.31249	0.20061	0.048955	0.30205	0.3119	0.19122	0.2309	0.13945	0.16218	0.10935	0.20107	0.059312	0.28418	0.17408	-2.1625	-2.8146	-2.4083	-2.6625	-2.5333	-2.4333	-2.9167	-2.5417	-2.6312	-2.8063	-2.6896	-2.7479	-2.5479	-2.3937	-2.7687	-2.375	264.033	342.501	227.794	67.034	241.460	40.424	239.585	6.026	12.451	249.005	148.049	50.173	268.723	-12.633	3.413	281.850	0.00021238	0.00028466	0.00010678	1113.9	3.814e-06	2.2899e-06	1166.7	231.27	2.9304e-06	2.3074e-06	287.32	81.616	64.173	18.403	2.666e-06	25.59	0.00010833	4.084e-05	1.4294e-05	1113.8	7.4704e-07	4.7668e-07	1168.7	233.44	7.4649e-07	3.9812e-07	290.2	83.038	65.074	18.856	5.4852e-07	26.379	97.111	70.787	59.100	-4.248	136.882	144.579	-3.994	2.899	143.487	152.199	2.939	9.127	9.189	16.599	127.765	15.930	-8191	255	
21031.445	1	1	0	0	0.28506	0.32237	0.12157	0.37526	0.13316	0.17364	0.15098	0.023564	0.14994	0.197	0.20689	0.10188	0.15663	0.060472	0.037148	0.17565	-2.1396	-2.575	-2.3792	-2.6937	-2.6875	-2.4875	-2.9521	-2.5958	-2.5896	-2.7604	-2.4167	-2.7687	-2.5354	-2.3583	-2.7812	-2.5521	110.066	223.807	134.080	304.017	65.668	195.965	202.864	283.311	249.403	14.907	324.730	127.174	328.271	214.770	96.985	301.624	0.0002022	0.00023301	6.2439e-05	1115.6	1.9885e-06	2.7192e-06	1166.3	232.05	1.7698e-06	3.1263e-06	288.89	81.308	63.917	18.525	2.7189e-06	25.917	0.00010087	4.4234e-05	1.3545e-05	1112.7	7.3648e-07	4.9584e-07	1167.8	233.18	7.292e-07	5.1413e-07	290.73	82.941	65.06	18.842	5.5105e-07	26.333	99.660	81.855	57.054	-4.202	139.649	151.413	-4.093	3.015	143.106	138.664	2.719	9.012	9.317	16.457	146.960	16.231	-8191	255	
21031.543	1	1	0	0	0.24723	0.12359	0.11066	0.33191	0.31165	0.12863	0.17075	0.12033	0.1528	0.4832	0.1657	0.43693	0.097479	0.18042	0.10443	0.20504	-1.9708	-2.6021	-2.2146	-2.7583	-2.5375	-2.3896	-2.8833	-2.4917	-2.5833	-2.6396	-2.3187	-2.5833	-2.6458	-2.3917	-2.7333	-2.6854	114.886	245.610	249.365	262.993	305.806	30.464	271.127	32.960	147.446	184.366	306.833	295.919	110.417	112.929	36.171	14.177	0.00021043	0.00033029	9.4924e-05	1115.2	3.5522e-06	2.8591e-06	1170.1	231.85	2.1084e-06	2.6886e-06	287.85	81.623	64.479	18.55	1.64e-06	25.725	0.00010587	4.989e-05	1.3586e-05	1114.2	7.7439e-07	4.7668e-07	1169.5	233.65	7.5082e-07	4.6832e-07	290.7	82.836	64.948	18.864	5.2763e-07	26.383	94.982	77.985	61.128	-3.888	140.051	141.528	-3.861	2.929	148.174	127.055	2.230	9.023	9.422	16.871	142.236	16.203	-8191	255	
21031.639	1	1	0	0	0.31634	0.17526	0.14292	0.089766	0.081539	0.14091	0.25674	0.15607	0.35576	0.44232	0.20396	0.20043	0.36631	0.083825	0.15052	0.13609	-2.0333	-2.7333	-2.4479	-2.6146	-2.7479	-2.2833	-2.7375	-2.5812	-2.2771	-2.6688	-2.5104	-2.6417	-2.5125	-2.3875	-2.5792	-2.7458	39.555	156.527	301.891	40.181	302.078	-7.943	259.784	269.949	71.120	178.109	290.199	314.959	246.243	230.764	161.806	287.401	0.00020533	0.00028382	6.3643e-05	1110.9	3.451e-06	2.7017e-06	1172.9	231.99	2.2639e-06	3.327e-06	289.73	82.005	64.164	18.417	3.3744e-06	25.788	0.00010487	4.4561e-05	1.2006e-05	1112.3	7.4238e-07	5.3681e-07	1171.3	233.54	7.1005e-07	4.2448e-07	290.92	83.349	65.012	18.853	5.5896e-07	26.37	94.975	74.286	85.243	-4.021	141.229	133.908	-4.121	3.130	165.487	153.324	2.468	8.942	10.106	16.305	140.883	16.388	-8191	255	
21031.734	1	1	0	0	0.098989	0.06938	0.05073	0.079824	0.18864	0.15163	0.09859	0.20169	0.35793	0.092642	0.057367	0.14888	0.18739	0.054164	0.29115	0.23261	-1.9271	-2.75	-2.3833	-2.6063	-2.8	-2.6979	-2.7521	-2.7042	-2.5271	-2.775	-2.675	-2.6479	-2.8063	-2.5729	-2.6521	-2.7313	218.668	2.356	7.774	115.951	283.845	200.146	230.967	258.637	97.839	313.377	173.182	-8.239	325.035	315.613	234.287	336.948	0.0001857	0.00025759	0.00010556	1116.4	2.2596e-06	1.9919e-06	1170.6	232.45	3.4054e-06	1.3936e-06	290.51	82.299	64.359	18.541	2.456e-06	25.639	0.0001057	4.2984e-05	1.3545e-05	1114.6	7.6382e-07	4.7867e-07	1170	233.8	7.2704e-07	4.7062e-07	291.66	83.444	64.932	18.883	6.2638e-07	26.35	98.580	81.115	73.319	-4.122	144.468	143.204	-4.009	2.999	139.836	136.964	2.347	8.850	9.585	16.300	131.924	16.301	-8191	255	
21031.855	1	1	0	0	0.10805	0.28855	0.18576	0.11838	0.15492	0.040515	0.17623	0.04411	0.1228	0.24424	0.013543	0.16088	0.21165	0.25909	0.15693	0.18019	-2.1417	-2.7833	-2.3667	-2.5458	-2.8583	-2.4292	-2.775	-2.6771	-2.3854	-2.6958	-2.6604	-2.7354	-2.8604	-2.5042	-2.5687	-2.85	127.147	49.919	247.435	50.539	11.692	218.066	225.902	51.209	66.876	-3.780	15.404	0.220	29.115	197.898	270.517	82.533	0.00019392	0.00023534	7.942e-05	1112.8	3.8172e-06	2.2989e-06	1169.7	232.86	2.0952e-06	2.3737e-06	290.85	81.867	63.731	18.557	2.5979e-06	25.671	0.00010737	4.3966e-05	1.2946e-05	1112.6	7.4021e-07	4.975e-07	1169.4	233.9	7.3321e-07	4.4228e-07	291.03	82.991	65.034	18.875	4.8933e-07	26.37	100.099	73.631	72.507	-4.130	122.638	132.637	-4.012	3.008	152.812	132.288	2.434	8.722	9.754	16.444	130.451	15.739	-8191	255	
21031.951	1	1	0	0	0.078899	0.22652	0.047639	0.093904	0.027716	0.20424	0.32138	0.13982	0.13279	0.1672	0.18731	0.097271	0.22606	0.073078	0.12507	0.18374	-1.9354	-2.6521	-2.5938	-2.5438	-2.5646	-2.5917	-2.6083	-2.8042	-2.3625	-2.6479	-2.7396	-2.4229	-2.8521	-2.475	-2.3833	-2.8	208.135	163.983	127.289	203.538	35.775	295.630	302.518	316.274	141.482	99.686	259.846	55.788	333.157	15.550	124.350	206.906	0.00017864	0.00027486	6.3232e-05	1116.9	3.4435e-06	3.3083e-06	1171.8	231.5	2.841e-06	2.2415e-06	289.63	81.455	64.794	18.398	1.6749e-06	26.043	9.9475e-05	5.3819e-05	1.2097e-05	1113.7	7.4891e-07	5.2359e-07	1169.8	233.74	7.712e-07	4.4755e-07	291.17	82.792	64.922	18.842	5.3111e-07	26.458	95.269	99.799	78.575	-4.270	141.896	128.529	-3.901	2.990	141.143	133.337	2.569	9.074	9.528	16.621	155.430	16.152	-8191	255	
21032.047	1	1	0	0	0.043696	0.19685	0.12693	0.22366	0.16492	0.1177	0.17539	0.19586	0.029547	0.37797	0.31198	0.13797	0.23429	0.11908	0.070215	0.29124	-2.1292	-2.4792	-2.4979	-2.5667	-2.6729	-2.6937	-2.5896	-2.6813	-2.475	-2.7729	-2.8396	-2.3958	-2.5417	-2.5708	-2.6125	-2.6521	322.802	223.675	172.186	308.328	132.684	311.036	315.993	206.133	37.722	98.832	273.167	244.448	33.667	70.019	334.590	220.427	0.00017643	0.00027633	6.919e-05	1112.5	3.1755e-06	2.8199e-06	1169.7	233	2.6434e-06	2.9971e-06	289.35	81.42	64.417	18.486	2.7227e-06	25.686	0.00010461	4.8907e-05	1.0666e-05	1112.4	7.3803e-07	5.4011e-07	1169.8	234.07	7.3043e-07	4.7458e-07	291.84	83.068	65.102	18.873	5.4979e-07	26.425	97.657	96.029	62.512	-3.982	143.748	157.406	-4.196	3.020	152.855	142.426	2.650	8.847	9.242	15.959	143.747	16.118	-8191	255	
21032.145	1	1	0	0	0.09272	0.17364	0.16119	0.34225	0.20688	0.14733	0.42068	0.16563	0.21123	0.14293	0.045332	0.077272	0.15393	0.28963	0.11957	0.12594	-2.1292	-2.5625	-2.6063	-2.5708	-2.6604	-2.5979	-2.6333	-2.8937	-2.6292	-2.7667	-2.9042	-2.5604	-2.8646	-2.6125	-2.525	-2.75	151.222	140.460	31.793	-8.524	199.602	226.760	285.287	338.107	-0.093	314.162	263.955	123.983	236.141	251.819	263.968	145.993	0.0001962	0.00022973	8.3645e-05	1118	3.111e-06	2.7021e-06	1174.2	233.08	1.292e-06	3.9705e-06	288.68	81.604	63.559	18.483	2.5807e-06	25.987	0.00010259	4.9771e-05	1.1032e-05	1113.7	7.4425e-07	4.235e-07	1171.3	234.01	6.6002e-07	5.1841e-07	291.29	83.021	65.068	18.861	6.0961e-07	26.542	101.113	73.115	75.851	-3.954	138.855	141.685	-3.896	2.860	135.168	155.442	2.837	8.974	9.950	16.415	139.080	15.969	-8191	255	
21032.240	1	1	0	0	0.12217	0.20198	0.30495	0.27901	0.18179	0.11344	0.39539	0.11135	0.076332	0.311	0.11388	0.17746	0.1969	0.19134	0.15816	0.076769	-2.0438	-2.6167	-2.6354	-2.5479	-2.6083	-2.6375	-2.5375	-2.7938	-2.5875	-2.6729	-2.8521	-2.4771	-2.6312	-2.6437	-2.3354	-2.7208	280.254	310.083	283.075	313.955	81.757	97.581	240.947	249.167	300.642	-4.075	173.669	301.813	214.806	227.904	184.248	169.303	0.00018996	0.00042934	6.9727e-05	1118.1	3.1733e-06	1.6029e-06	1170.1	232.75	2.6501e-06	2.641e-06	290.15	82.207	64.429	18.503	2.5262e-06	25.819	0.00010698	5.3224e-05	1.0067e-05	1116.5	7.6444e-07	4.1326e-07	1171.2	234.2	6.8534e-07	4.9435e-07	291.53	83.358	65.249	18.917	6.2986e-07	26.463	94.103	73.985	69.970	-4.168	144.392	142.268	-3.809	3.086	139.776	136.363	2.913	9.311	9.843	16.747	161.284	15.686	-8191	255	
21032.336	1	1	0	0	0.037773	0.24838	0.32705	0.2069	0.37176	0.37052	0.26293	0.24626	0.13547	0.014742	0.090507	0.11262	0.20477	0.080304	0.15989	0.12057	-2.0625	-2.3312	-2.7896	-2.3833	-2.4375	-2.5167	-2.7146	-2.8146	-2.7208	-2.5438	-2.8271	-2.4688	-2.5521	-2.5833	-2.4771	-2.7229	111.185	136.667	114.445	329.092	185.892	5.712	213.051	320.565	344.460	306.806	261.623	158.688	123.431	166.053	60.401	38.062	0.00018874	0.00030226	7.1577e-05	1117.8	3.343e-06	3.6254e-06	1169.9	232.2	1.2834e-06	3.8221e-06	289.97	82.483	63.555	18.613	2.3615e-06	25.792	0.00010191	5.0515e-05	1.1981e-05	1116.9	7.7998e-07	4.7338e-07	1171.9	233.96	7.0449e-07	5.0523e-07	291.77	83.399	65.138	18.957	5.865e-07	26.412	97.738	95.149	62.910	-3.884	127.599	148.066	-3.997	3.186	147.443	137.830	2.696	9.096	9.616	16.366	130.607	16.555	-8191	255	
21032.457	1	1	0	0	0.17268	0.14747	0.039082	0.1877	0.29103	0.16787	0.12335	0.11428	0.13755	0.043549	0.14023	0.13581	0.38536	0.053183	0.039316	0.26729	-2.2854	-2.3979	-2.6542	-2.5417	-2.5792	-2.8854	-2.5604	-2.775	-2.625	-2.275	-2.6521	-2.5292	-2.7542	-2.7271	-2.125	-2.7208	154.939	256.563	273.253	238.403	134.102	87.143	285.602	154.615	-7.719	137.475	335.847	342.190	226.527	273.301	156.775	-6.700	0.00020225	0.00037363	7.2272e-05	1118.1	2.7978e-06	3.0623e-06	1178.4	233.07	2.0047e-06	2.7761e-06	289.47	82.124	64.369	18.636	2.7932e-06	26.026	0.00010452	5.4772e-05	1.0974e-05	1116.2	7.1907e-07	4.4431e-07	1174.1	234.23	6.6928e-07	4.7029e-07	291.58	83.349	64.958	18.949	5.8302e-07	26.495	95.367	77.000	64.745	-4.087	136.420	134.588	-4.039	2.975	135.109	153.648	2.347	9.492	9.423	16.153	124.137	15.886	-8191	255	
21032.551	1	1	0	0	0.058755	0.1747	0.27892	0.23493	0.19172	0.11836	0.21472	0.20821	0.20677	0.1625	0.089399	0.28401	0.22662	0.33702	0.082516	0.10469	-2.2812	-2.2854	-2.8542	-2.5604	-2.4917	-2.8125	-2.7	-2.7687	-2.5458	-2.2875	-2.7917	-2.65	-2.5396	-2.8771	-2.4854	-2.6125	99.582	26.357	102.224	265.193	130.500	251.139	297.493	49.007	135.245	303.865	105.626	318.269	309.446	283.953	33.783	257.275	0.00021218	0.00036827	8.3285e-05	1122.6	2.4818e-06	2.1032e-06	1170.9	233.96	2.0116e-06	3.1153e-06	290.9	81.734	64.962	18.406	2.8521e-06	26.145	0.00010809	5.7421e-05	1.1997e-05	1116.9	7.9086e-07	4.3143e-07	1172.9	234.61	6.875e-07	4.4393e-07	292.15	83.116	65.5	18.843	5.9821e-07	26.541	93.916	80.321	78.046	-4.062	143.037	134.070	-3.880	2.999	153.611	131.333	2.693	9.325	9.787	16.274	143.527	16.393	-8191	255	
21032.646	1	1	0	0	0.23353	0.23855	0.30739	0.092148	0.25274	0.15352	0.14946	0.21861	0.0075449	0.15712	0.15778	0.27998	0.061429	0.21085	0.028581	0.073889	-2.1354	-2.4354	-2.7333	-2.6562	-2.4292	-2.7875	-2.7646	-2.6437	-2.8229	-2.3792	-2.6875	-2.6583	-2.5146	-2.65	-2.5583	-2.7521	0.649	178.913	141.489	266.878	20.925	342.501	163.953	328.627	37.589	12.805	334.045	289.517	-1.041	276.103	338.445	224.111	0.00019851	0.00037731	6.0343e-05	1122.4	2.4385e-06	3.3487e-06	1173.4	233.47	3.0543e-06	3.0466e-06	290.1	82.158	64.506	18.56	3.2363e-06	25.763	0.0001035	5.1586e-05	1.1382e-05	1119	7.3803e-07	4.6347e-07	1174.8	234.51	7.2148e-07	5.4741e-07	291.59	83.234	65.094	18.956	6.1815e-07	26.431	96.623	65.037	66.428	-4.063	130.619	151.560	-4.121	3.301	133.490	143.374	2.523	9.096	9.196	15.922	136.494	15.778	-8191	255	
21032.742	1	1	0	0	0.34958	0.03268	0.18303	0.28932	0.17742	0.11714	0.31452	0.073648	0.077861	0.099821	0.22788	0.16549	0.12657	0.17537	0.1781	0.062202	-2.2583	-2.3542	-2.6271	-2.5563	-2.4833	-2.8208	-2.4813	-2.4125	-2.7167	-2.5667	-2.7583	-2.8187	-2.4938	-2.9833	-2.4542	-2.5104	163.056	57.843	8.090	268.374	241.058	108.347	299.695	149.144	81.983	296.048	-3.940	105.293	303.782	-8.805	172.487	28.767	0.00020343	0.00032268	4.5686e-05	1122.5	2.6889e-06	3.1619e-06	1170.1	233.27	2.2157e-06	2.646e-06	289.23	81.886	64.093	18.498	2.5535e-06	25.768	0.00010491	4.5395e-05	1.0383e-05	1117.6	7.9055e-07	4.671e-07	1171.6	234.36	6.4272e-07	4.9864e-07	291.29	83.207	64.963	18.935	5.96e-07	26.412	97.007	70.214	60.815	-4.041	139.820	156.808	-4.251	2.927	128.527	165.002	2.877	9.143	9.392	16.285	150.781	16.003	-8191	255	
#DATA ENDS
