BOXY.EXE: ISS Imagent and Oximeter Data Acquisition Program Version 0.80
Ascii Record File

#ACQ INFORMATION
2  Detector Channels 
16  External MUX Channels 
1  Auxiliary Channels 
5000  Waveform (CCF) Frequency (Hz)
1  Waveforms Skipped 
30  Waveforms Averaged 
1  Cycles Averaged 
16  Acquisitions per Waveform 
10.0806  Updata Rate (Hz) 

#FILE INFORMATION
TRUE -- External MUX Channel results are PARSED.
FALSE -- AC DC and Phase are NOT grouped.
TRUE -- Companion Program Settings File CREATED.
FALSE -- AC data not excluded
FALSE -- DC data not excluded
FALSE -- Phase data not excluded
FALSE -- Auxillary Chn. data not excluded
Tab delimiters

#CALIBRATION STATE
TRUE -- Waveform Calibration Values APPLIED.


#AUX CALIBRATION VALUES
Val Type	aux-1	

Term	1.0000e+00	
Factor	0.0000e+00	


#WF CALIBRATION VALUES
A = Detector Channel
Val Type	A-AC1	A-AC2	A-AC3	A-AC4	A-AC5	A-AC6	A-AC7	A-AC8	A-AC9	A-AC10	A-AC11	A-AC12	A-AC13	A-AC14	A-AC15	A-AC16	A-DC1	A-DC2	A-DC3	A-DC4	A-DC5	A-DC6	A-DC7	A-DC8	A-DC9	A-DC10	A-DC11	A-DC12	A-DC13	A-DC14	A-DC15	A-DC16	A-Ph1	A-Ph2	A-Ph3	A-Ph4	A-Ph5	A-Ph6	A-Ph7	A-Ph8	A-Ph9	A-Ph10	A-Ph11	A-Ph12	A-Ph13	A-Ph14	A-Ph15	A-Ph16	

Term	0.00000e+00	0.00000e+00	0.00000e+00	0.00000e+00	0.00000e+00	0.00000e+00	0.00000e+00	0.00000e+00	0.00000e+00	0.00000e+00	0.00000e+00	0.00000e+00	0.00000e+00	0.00000e+00	0.00000e+00	0.00000e+00	0.00000e+00	0.00000e+00	0.00000e+00	0.00000e+00	0.00000e+00	0.00000e+00	0.00000e+00	0.00000e+00	0.00000e+00	0.00000e+00	0.00000e+00	0.00000e+00	0.00000e+00	0.00000e+00	0.00000e+00	0.00000e+00	0.00000e+00	0.00000e+00	0.00000e+00	0.00000e+00	0.00000e+00	0.00000e+00	0.00000e+00	0.00000e+00	0.00000e+00	0.00000e+00	0.00000e+00	0.00000e+00	0.00000e+00	0.00000e+00	0.00000e+00	0.00000e+00	
Factor	1.00000e+00	1.00000e+00	1.00000e+00	1.00000e+00	1.00000e+00	1.00000e+00	1.00000e+00	1.00000e+00	1.00000e+00	1.00000e+00	1.00000e+00	1.00000e+00	1.00000e+00	1.00000e+00	1.00000e+00	1.00000e+00	1.00000e+00	1.00000e+00	1.00000e+00	1.00000e+00	1.00000e+00	1.00000e+00	1.00000e+00	1.00000e+00	1.00000e+00	1.00000e+00	1.00000e+00	1.00000e+00	1.00000e+00	1.00000e+00	1.00000e+00	1.00000e+00	X	X	X	X	X	X	X	X	X	X	X	X	X	X	X	X	

B = Detector Channel
Val Type	B-AC1	B-AC2	B-AC3	B-AC4	B-AC5	B-AC6	B-AC7	B-AC8	B-AC9	B-AC10	B-AC11	B-AC12	B-AC13	B-AC14	B-AC15	B-AC16	B-DC1	B-DC2	B-DC3	B-DC4	B-DC5	B-DC6	B-DC7	B-DC8	B-DC9	B-DC10	B-DC11	B-DC12	B-DC13	B-DC14	B-DC15	B-DC16	B-Ph1	B-Ph2	B-Ph3	B-Ph4	B-Ph5	B-Ph6	B-Ph7	B-Ph8	B-Ph9	B-Ph10	B-Ph11	B-Ph12	B-Ph13	B-Ph14	B-Ph15	B-Ph16	

Term	0.00000e+00	0.00000e+00	0.00000e+00	0.00000e+00	0.00000e+00	0.00000e+00	0.00000e+00	0.00000e+00	0.00000e+00	0.00000e+00	0.00000e+00	0.00000e+00	0.00000e+00	0.00000e+00	0.00000e+00	0.00000e+00	0.00000e+00	0.00000e+00	0.00000e+00	0.00000e+00	0.00000e+00	0.00000e+00	0.00000e+00	0.00000e+00	0.00000e+00	0.00000e+00	0.00000e+00	0.00000e+00	0.00000e+00	0.00000e+00	0.00000e+00	0.00000e+00	-1.70999e+02	-1.26624e+02	-1.31946e+02	-1.81681e+02	-8.38430e+01	-6.15144e+01	-1.55768e+02	-1.62015e+02	-8.17298e+01	-6.09818e+01	-1.73366e+02	-1.70201e+02	-1.85495e+02	-1.76578e+02	-7.50407e+01	-1.48946e+02	
Factor	2.98320e-05	1.70198e-04	4.81572e-05	1.97322e-01	1.68102e-06	1.85928e-06	1.81490e-01	5.63415e-02	1.68352e-06	1.92753e-06	1.03880e-01	3.00027e-02	5.63894e-02	9.68439e-03	1.64368e-06	1.34226e-02	1.04390e-05	1.42882e-05	3.99355e-06	1.02381e-01	1.49160e-07	1.58564e-07	8.84142e-02	2.93229e-02	1.48249e-07	1.58193e-07	5.25074e-02	1.52244e-02	2.95252e-02	5.08567e-03	1.51927e-07	6.84643e-03	X	X	X	X	X	X	X	X	X	X	X	X	X	X	X	X	



#DISTANCE SETTINGS
A = Detector Channel
A-1	A-2	A-3	A-4	A-5	A-6	A-7	A-8	A-9	A-10	A-11	A-12	A-13	A-14	A-15	A-16	

2.5000e+00	3.0000e+00	2.5000e+00	3.0000e+00	2.0000e+00	3.0000e+00	1.5000e+00	3.0000e+00	3.0000e+00	3.0000e+00	3.0000e+00	3.0000e+00	3.0000e+00	3.0000e+00	1.5000e+00	3.0000e+00	

B = Detector Channel
B-1	B-2	B-3	B-4	B-5	B-6	B-7	B-8	B-9	B-10	B-11	B-12	B-13	B-14	B-15	B-16	

1.0000e+01	1.0000e+01	1.0000e+01	1.4400e+00	1.0000e+01	1.0000e+01	1.5100e+00	1.9400e+00	1.0000e+01	1.0000e+01	1.9900e+00	2.4900e+00	2.4100e+00	2.9000e+00	1.0000e+01	2.9800e+00	




#DATA BEGINS
time	group	step	mark	flag	A-AC1	A-AC2	A-AC3	A-AC4	A-AC5	A-AC6	A-AC7	A-AC8	A-AC9	A-AC10	A-AC11	A-AC12	A-AC13	A-AC14	A-AC15	A-AC16	A-DC1	A-DC2	A-DC3	A-DC4	A-DC5	A-DC6	A-DC7	A-DC8	A-DC9	A-DC10	A-DC11	A-DC12	A-DC13	A-DC14	A-DC15	A-DC16	A-Ph1	A-Ph2	A-Ph3	A-Ph4	A-Ph5	A-Ph6	A-Ph7	A-Ph8	A-Ph9	A-Ph10	A-Ph11	A-Ph12	A-Ph13	A-Ph14	A-Ph15	A-Ph16	B-AC1	B-AC2	B-AC3	B-AC4	B-AC5	B-AC6	B-AC7	B-AC8	B-AC9	B-AC10	B-AC11	B-AC12	B-AC13	B-AC14	B-AC15	B-AC16	B-DC1	B-DC2	B-DC3	B-DC4	B-DC5	B-DC6	B-DC7	B-DC8	B-DC9	B-DC10	B-DC11	B-DC12	B-DC13	B-DC14	B-DC15	B-DC16	B-Ph1	B-Ph2	B-Ph3	B-Ph4	B-Ph5	B-Ph6	B-Ph7	B-Ph8	B-Ph9	B-Ph10	B-Ph11	B-Ph12	B-Ph13	B-Ph14	B-Ph15	B-Ph16	aux-1	digaux	

21153.936	1	1	0	768	0.2041	0.2729	0.090431	0.32575	0.15526	0.2393	0.16821	0.17711	0.25685	0.38507	0.11636	0.36741	0.053235	0.12365	0.13017	0.19636	-2.4313	-2.5958	-2.7604	-2.8042	-2.7	-3.0021	-2.9437	-2.7208	-2.8854	-2.75	-3.025	-2.5583	-2.6604	-3.2333	-2.6562	-2.8146	39.053	-55.756	-31.135	103.974	-11.705	-150.573	163.509	145.341	-131.141	154.220	88.615	-61.372	-122.926	68.128	-92.137	98.647	0.00046887	0.00033458	8.815e-05	1380.4	3.5451e-06	3.0333e-06	1454.6	284.89	5.0472e-06	4.4879e-06	359.01	102.1	80.093	23.199	2.5541e-06	32.689	0.0001819	8.8021e-05	2.2455e-05	1339.5	1.2651e-06	9.3322e-07	1414.7	278.18	1.2836e-06	9.4356e-07	350.44	100.52	78.561	22.933	9.2169e-07	32.428	160.585	-58.181	-76.884	-156.709	-37.360	-13.925	-156.732	-149.662	-58.798	-19.852	-149.731	-143.874	-144.316	-135.491	-25.457	-136.631	-8191	255	
21154.031	1	1	0	0	0.10076	0.070075	0.15226	0.31157	0.082586	0.082267	0.20648	0.082278	0.1852	0.15186	0.16697	0.1628	0.21316	0.25535	0.25038	0.16661	-2.55	-2.5896	-2.7354	-2.8708	-2.7	-2.8792	-2.9313	-2.8271	-3.0271	-2.6583	-2.9021	-3.0396	-2.6792	-2.9417	-2.8729	-2.6833	27.259	-115.646	-127.430	133.413	-23.019	128.256	45.069	14.596	188.938	21.873	-34.509	-6.635	161.729	96.034	74.267	115.516	0.00043294	0.00036606	8.9045e-05	1386.7	3.5197e-06	2.7931e-06	1456.5	287.67	3.7163e-06	4.0781e-06	359.4	102.5	80.962	23.403	3.2383e-06	32.588	0.00017335	8.7694e-05	2.0484e-05	1341.9	1.1526e-06	7.4195e-07	1417.5	279.77	1.0989e-06	8.4831e-07	351.37	100.8	79.131	23.018	9.4226e-07	32.55	164.936	-75.323	-87.744	-156.869	-43.568	-10.360	-156.955	-149.896	-44.734	-29.716	-150.015	-144.003	-144.035	-135.104	-35.931	-136.354	-8191	255	
21154.129	1	1	0	0	0.30428	0.10371	0.03045	0.054741	0.13426	0.116	0.31432	0.10866	0.22758	0.17538	0.15463	0.18047	0.051081	0.099101	0.038963	0.11076	-2.5042	-2.5438	-2.7646	-2.9583	-2.7333	-2.8729	-3.0438	-2.5417	-2.8729	-2.4958	-2.8396	-2.8917	-2.5479	-3.0542	-2.7396	-2.6667	66.390	-117.168	-118.388	154.010	-44.579	-81.046	139.080	67.449	144.655	154.168	109.994	103.537	-101.149	-59.948	-19.651	17.404	0.00043241	0.00029922	9.7079e-05	1395.3	2.8711e-06	5.3202e-06	1455.4	286.21	3.1962e-06	3.738e-06	358.79	102.52	81.269	23.11	3.6056e-06	32.587	0.00016648	7.671e-05	2.0725e-05	1349.6	1.1622e-06	9.4511e-07	1421	279.08	9.7412e-07	8.3546e-07	351.96	100.9	79.083	22.928	9.277e-07	32.358	161.869	-71.444	-87.722	-156.576	-68.250	-11.616	-156.798	-149.818	-61.932	2.919	-150.239	-143.599	-144.092	-135.908	-31.215	-136.239	-8191	255	
21154.225	1	1	0	0	0.023426	0.062027	0.084565	0.10965	0.18482	0.10999	0.27975	0.18505	0.078862	0.071533	0.19162	0.044407	0.10027	0.086971	0.12365	0.14738	-2.4896	-2.7833	-2.675	-3.1167	-2.6063	-2.825	-2.8604	-2.6667	-2.9542	-2.6979	-2.7708	-2.9229	-2.5187	-3.0542	-2.8104	-2.7687	145.870	73.288	159.754	186.409	-151.092	19.498	102.429	108.227	14.462	178.650	6.738	-59.456	-95.887	29.375	142.516	-65.551	0.00041994	0.00036865	0.00012047	1388.4	3.1465e-06	2.4168e-06	1458.9	287.5	3.8876e-06	3.2123e-06	358.37	102.27	80.485	23.382	3.5976e-06	32.491	0.00015841	8.2455e-05	2.1998e-05	1346.9	1.0724e-06	7.7399e-07	1423.1	279.9	1.0569e-06	7.0231e-07	352.8	100.94	79.115	23.027	9.5556e-07	32.485	161.514	-66.640	-63.986	-156.549	-47.850	-11.602	-156.603	-149.767	-59.339	6.112	-149.828	-143.644	-143.879	-135.852	-39.457	-136.556	-8191	255	
21154.320	1	1	0	0	0.1263	0.1743	0.03027	0.044085	0.087363	0.17666	0.50913	0.23364	0.14192	0.2054	0.33758	0.22719	0.13957	0.035594	0.21894	0.1738	-2.5583	-2.6896	-2.6625	-3.2146	-2.5833	-2.8354	-3.0958	-2.8417	-2.8063	-2.7583	-2.925	-3.0021	-2.7604	-2.7896	-2.9313	-2.575	-114.067	-76.911	95.937	-100.191	-90.448	-25.471	100.254	-156.049	63.755	-86.801	-123.840	75.352	30.579	97.334	128.192	-130.148	0.00040992	0.00038768	0.00012244	1397	2.8775e-06	4.7043e-06	1462.7	287.47	4.0345e-06	5.1302e-06	362.18	102.55	80.168	23.22	2.242e-06	32.865	0.00015334	8.0222e-05	2.268e-05	1349.9	1.0404e-06	7.4162e-07	1423.7	280	9.9388e-07	7.4318e-07	353.68	100.96	78.927	23.028	7.7514e-07	32.502	159.918	-68.852	-96.277	-156.582	-45.390	2.070	-156.763	-149.772	-67.062	-25.503	-149.991	-143.779	-144.189	-136.059	-27.354	-136.153	-8191	255	
21154.418	1	1	0	0	0.2068	0.13975	0.11809	0.098104	0.23465	0.098222	0.19576	0.48791	0.10003	0.15457	0.1983	0.095583	0.12816	0.047699	0.10318	0.079426	-2.5812	-2.5812	-2.5563	-3.0062	-2.6937	-2.8396	-3.1771	-2.7417	-2.7792	-2.8958	-2.6	-2.9729	-2.7521	-2.5771	-3.0146	-2.7083	-73.141	-12.122	-52.562	121.495	-47.664	123.019	138.800	91.207	180.414	-54.177	-113.243	150.441	156.418	24.974	91.368	175.629	0.00042865	0.00035892	8.8271e-05	1393	4.0796e-06	3.0712e-06	1464.9	288.3	4.0396e-06	2.9648e-06	362.35	103.17	81.12	23.219	3.5409e-06	32.668	0.00016816	7.1888e-05	1.9768e-05	1350.1	1.1345e-06	7.3997e-07	1425.1	280.55	1.0235e-06	6.509e-07	353.99	101.35	79.004	23.055	7.5077e-07	32.573	162.196	-79.865	-68.894	-156.598	-37.363	-5.982	-156.743	-149.946	-64.006	19.013	-149.832	-143.796	-143.820	-135.940	-44.822	-136.552	-8191	255	
21154.537	1	1	0	0	0.092885	0.085294	0.21172	0.33386	0.091725	0.074872	0.22087	0.053624	0.18554	0.088407	0.13042	0.26578	0.032103	0.27149	0.19293	0.11356	-2.425	-2.7188	-2.7229	-2.9583	-2.5646	-2.8229	-3.1854	-2.7854	-2.9229	-2.7854	-2.8167	-3.0875	-2.7729	-2.5979	-2.8042	-2.4229	-89.725	35.315	-77.391	148.701	-132.330	35.475	95.707	56.151	128.727	22.207	128.762	65.107	63.954	99.693	-54.548	182.281	0.00042687	0.00030793	7.91e-05	1405.1	3.2559e-06	3.2473e-06	1466.9	287.61	4.3489e-06	3.266e-06	363.15	103.84	81.635	23.447	3.4673e-06	32.844	0.00016337	7.2394e-05	1.7921e-05	1356.4	1.0134e-06	6.957e-07	1428.2	281.22	1.0325e-06	7.066e-07	354.8	101.69	79.418	23.159	8.0901e-07	32.6	161.084	-65.856	-82.287	-156.277	-53.220	-20.002	-156.468	-149.756	-44.682	-8.754	-149.578	-143.530	-144.503	-135.772	-33.001	-136.152	-8191	255	
21154.633	1	1	0	0	0.2745	0.10405	0.15533	0.43024	0.10823	0.12786	0.21349	0.23041	0.088129	0.1277	0.17654	0.2084	0.13735	0.18142	0.12551	0.32748	-2.3583	-2.8958	-2.6854	-3.0646	-2.6813	-2.7167	-3.0583	-2.7354	-2.9313	-2.875	-2.7208	-2.9271	-2.8125	-2.7062	-2.8458	-2.6604	-148.932	28.438	5.692	-158.699	-88.305	-121.666	152.384	156.673	54.555	39.721	-67.364	-60.711	4.542	148.887	-67.801	164.542	0.00045788	0.00036937	5.4884e-05	1396.9	4.1343e-06	3.4037e-06	1471.8	290.2	3.7378e-06	4.7566e-06	363.35	103.2	81.541	23.47	3.8701e-06	32.901	0.00016744	6.8703e-05	1.8404e-05	1356.2	1.0336e-06	7.3699e-07	1430.9	282.51	9.7226e-07	6.8913e-07	355.96	101.45	79.418	23.133	8.72e-07	32.716	162.305	-59.252	-83.713	-156.746	-41.792	-14.546	-156.671	-149.731	-56.760	2.850	-149.652	-144.036	-144.362	-135.806	-16.658	-136.298	-8191	255	
21154.729	1	1	0	0	0.20556	0.14318	0.061675	0.19566	0.21652	0.15296	0.26091	0.3852	0.21109	0.089757	0.1556	0.18231	0.070558	0.10583	0.2159	0.1833	-2.35	-2.9938	-2.6167	-2.9667	-2.9313	-2.6146	-3.0917	-2.8167	-2.7333	-2.9229	-2.65	-3.0417	-3.0521	-2.7938	-2.8667	-2.7375	152.701	69.824	13.375	140.168	162.300	129.471	163.398	128.431	141.207	-34.484	124.751	-135.223	170.922	165.339	166.891	59.432	0.00043682	0.00036497	7.8601e-05	1404.7	4.1945e-06	3.9411e-06	1476.4	289.95	3.6421e-06	3.5043e-06	365.42	103.36	81.532	23.394	2.288e-06	32.764	0.00016491	6.8703e-05	1.9302e-05	1358.9	1.0652e-06	7.545e-07	1435	282.84	9.8709e-07	6.2651e-07	356.84	101.74	79.674	23.137	8.1154e-07	32.679	162.465	-57.343	-71.777	-156.333	-50.608	-21.150	-156.679	-149.643	-52.870	-20.572	-149.690	-143.713	-144.131	-135.870	-45.396	-136.594	-8191	255	
21154.824	1	1	0	0	0.18717	0.093901	0.21233	0.091933	0.13933	0.16459	0.21925	0.27382	0.16675	0.16517	0.032613	0.35829	0.27346	0.07575	0.23774	0.14006	-2.2562	-2.9458	-2.5938	-3.0792	-2.8521	-2.6208	-3.1229	-2.8458	-2.7167	-2.8854	-2.6542	-2.9458	-2.8271	-2.3875	-2.7854	-2.7917	-19.041	-104.768	54.095	-129.659	165.335	148.990	132.765	141.920	41.744	159.573	-122.316	93.882	-130.574	-63.830	2.103	-159.725	0.00044214	0.00037593	9.5785e-05	1409.2	3.1541e-06	3.6667e-06	1475.6	291.09	3.7896e-06	3.2433e-06	365.5	103.07	80.841	23.328	3.8453e-06	33.054	0.00016709	6.0814e-05	1.9344e-05	1361.1	1.0578e-06	6.3525e-07	1435.8	283.96	9.8524e-07	6.6968e-07	356.96	101.72	79.514	23.158	7.8337e-07	32.743	162.574	-94.039	-78.399	-156.412	-57.931	-7.718	-156.606	-150.084	-70.794	-21.972	-149.741	-143.625	-144.187	-135.650	-37.811	-136.204	-8191	255	
21154.920	1	1	0	0	0.026829	0.1312	0.2669	0.12326	0.079685	0.37303	0.23092	0.16144	0.10876	0.039941	0.24353	0.10651	0.23536	0.021428	0.22218	0.20466	-2.3063	-2.9792	-2.7313	-2.9188	-2.9	-2.7646	-3.1104	-2.8187	-2.7667	-3.0271	-2.8375	-2.925	-2.8542	-2.7646	-2.9688	-2.75	41.397	70.303	-8.371	58.281	-86.200	-143.922	101.959	150.087	115.288	2.171	173.717	-92.613	177.667	12.553	130.282	19.958	0.00043126	0.00043549	0.00012302	1405	3.0314e-06	3.8286e-06	1479.6	291.01	3.8223e-06	3.4337e-06	366.73	104.33	81.827	23.493	2.7013e-06	33.018	0.00016633	7.3912e-05	2.045e-05	1360.5	9.9937e-07	7.4492e-07	1437.6	283.94	1.0044e-06	7.6328e-07	357.21	102.08	79.771	23.186	7.9097e-07	32.833	160.111	-68.156	-90.102	-156.553	-32.848	-14.097	-156.903	-149.997	-54.427	-5.570	-149.626	-143.751	-144.147	-136.003	-35.430	-136.682	-8191	255	
21155.018	1	1	0	0	0.21079	0.33192	0.094873	0.38495	0.40203	0.078481	0.059272	0.26784	0.25855	0.18674	0.12055	0.22631	0.1533	0.25754	0.20461	0.15795	-2.1875	-2.8625	-2.7229	-3.0167	-3.0625	-2.5917	-3.0354	-2.9333	-2.7083	-3.0875	-2.8646	-2.6604	-2.9875	-2.6646	-2.725	-3.1583	64.283	-50.356	118.264	120.700	-114.192	-89.633	-164.298	-20.549	-133.898	192.344	-110.257	77.575	167.929	135.231	-55.236	102.448	0.00043441	0.00038616	8.43e-05	1403	1.7812e-06	3.399e-06	1481.7	292.16	3.3678e-06	4.3328e-06	367.32	104.09	81.854	23.448	3.2374e-06	32.909	0.00016376	7.0816e-05	1.8612e-05	1363.1	9.2945e-07	8.1099e-07	1440.7	284.85	1.0668e-06	6.5551e-07	358.51	102.44	80.105	23.238	8.6535e-07	32.746	162.542	-87.124	-83.641	-156.442	-27.720	-0.620	-156.614	-149.460	-55.151	-13.054	-149.646	-143.838	-143.847	-135.472	-19.943	-135.936	-8191	255	
21155.113	1	1	0	0	0.12529	0.17119	0.36412	0.23016	0.023819	0.070562	0.23294	0.2885	0.20795	0.11926	0.18923	0.099812	0.27181	0.099069	0.1004	0.11706	-2.2812	-2.9292	-2.7354	-2.7083	-2.875	-2.6458	-2.975	-2.9688	-2.675	-2.8792	-2.7625	-2.7021	-2.9542	-2.7562	-2.7292	-2.8917	129.823	-144.109	172.444	154.674	-159.782	26.692	84.539	-125.334	-42.651	38.525	178.862	118.777	-118.008	-14.377	-167.897	62.676	0.00041567	0.00023322	9.8603e-05	1409.1	2.9051e-06	2.9464e-06	1481.1	293.55	4.9104e-06	3.9044e-06	364.11	103.5	82.01	23.363	2.1833e-06	32.843	0.00016002	6.6351e-05	1.8545e-05	1364.2	1.0559e-06	7.4525e-07	1441.6	285.57	1.055e-06	7.646e-07	358.24	101.83	79.778	23.243	8.2104e-07	32.674	164.021	-78.767	-95.857	-156.636	-39.988	-11.302	-156.662	-149.972	-54.835	-9.917	-149.945	-143.927	-144.479	-136.190	-30.662	-136.400	-8191	255	
21155.232	1	1	0	0	0.13787	0.14429	0.093283	0.43956	0.14772	0.18942	0.24734	0.084055	0.23653	0.17539	0.12097	0.25581	0.16718	0.14748	0.12416	0.02745	-2.1958	-2.7875	-2.7938	-2.7	-2.8812	-2.75	-3	-3.1104	-2.5833	-2.7375	-2.7438	-2.6604	-2.9104	-2.7062	-2.4958	-3.1167	33.553	-159.162	186.838	-166.582	156.386	176.964	143.808	127.978	-112.501	-167.072	48.447	150.276	86.366	76.789	154.958	65.326	0.00041654	0.00028797	7.3739e-05	1406.6	3.6781e-06	4.0193e-06	1478.9	290.2	3.4557e-06	3.9709e-06	366.37	102.62	80.887	23.444	3.6702e-06	32.652	0.00016772	6.2779e-05	1.7979e-05	1359.8	1.0261e-06	7.6111e-07	1432.5	283.49	1.0343e-06	7.7416e-07	356.38	101.09	79.239	23.061	8.6313e-07	32.408	163.331	-73.751	-78.740	-156.608	-38.558	-5.598	-156.751	-149.532	-57.708	-17.324	-149.991	-143.724	-144.025	-136.167	-33.552	-135.992	-8191	255	
21155.330	1	1	0	0	0.32461	0.25429	0.117	0.1747	0.11018	0.15342	0.24252	0.099996	0.29984	0.25856	0.12474	0.11046	0.012529	0.10001	0.23178	0.086611	-2.2583	-2.6479	-2.7146	-2.6146	-2.9396	-2.5833	-2.85	-3.1	-2.6479	-2.7562	-3.1479	-2.8354	-3.0042	-2.725	-2.5833	-3.0375	-91.528	-19.796	113.429	-156.957	-57.358	8.229	117.032	82.036	180.953	-154.971	125.987	114.097	24.628	165.840	95.961	96.053	0.00045229	0.00034367	9.459e-05	1386.3	3.1668e-06	3.7757e-06	1451.9	285.44	4.1876e-06	3.3686e-06	357.34	101	80.362	22.916	2.7879e-06	32.344	0.00016302	7.4477e-05	1.991e-05	1343.5	9.7669e-07	7.0033e-07	1413.4	278.34	1.0377e-06	6.1992e-07	349.31	99.723	77.936	22.75	8.6155e-07	32.184	162.953	-81.231	-65.731	-156.725	-52.653	-13.025	-156.731	-149.529	-58.931	-16.392	-149.835	-143.885	-143.833	-135.803	-29.976	-136.104	-8191	255	
21155.426	1	1	0	0	0.18891	0.096202	0.10031	0.28314	0.31073	0.42565	0.23611	0.10977	0.22881	0.12147	0.18151	0.22655	0.037505	0.17726	0.23567	0.051718	-2.3667	-2.7333	-2.6937	-2.7667	-2.8896	-2.7146	-2.7125	-2.8708	-2.6646	-2.8146	-3.0229	-2.7708	-2.8542	-2.8792	-2.6354	-3.0187	-76.473	-0.186	175.195	-147.460	-36.067	136.418	122.668	79.304	-136.434	-64.453	162.676	73.148	168.250	138.902	-141.512	61.185	0.0004366	0.00045305	7.2258e-05	1353.1	3.638e-06	3.8753e-06	1416	280.33	3.8614e-06	4.0759e-06	350.3	100.46	78.364	22.801	2.3131e-06	31.664	0.00016415	6.3523e-05	1.5267e-05	1315.4	9.9409e-07	6.5342e-07	1383	274.14	9.5713e-07	6.2223e-07	342.77	98.652	76.957	22.558	7.4064e-07	31.792	159.457	-65.654	-67.395	-156.528	-61.686	6.379	-156.562	-149.599	-50.713	-17.456	-149.489	-143.832	-143.461	-135.683	-25.428	-136.159	-8191	255	
21155.496	1	1	0	0	0.2674	0.18384	0.29542	0.22598	0.22157	0.098828	0.32258	0.19248	0.22541	0.20076	0.038825	0.06132	0.23402	0.18179	0.10287	0.031197	-2.1646	-2.7438	-3.0875	-2.8479	-2.7146	-2.7917	-2.7458	-2.9646	-2.6562	-2.7042	-3.0125	-2.6667	-2.8937	-2.8167	-2.475	-2.9562	165.509	8.354	116.311	-163.086	133.874	-4.515	135.851	28.972	79.160	-24.956	183.727	-29.019	-88.011	-74.033	47.911	-42.535	0.00044724	0.00044929	8.6218e-05	1329.7	2.728e-06	2.8105e-06	1396.7	277.45	4.4086e-06	4.7616e-06	346.45	99.532	77.874	22.772	3.6329e-06	32.035	0.00015967	6.9953e-05	1.5641e-05	1290.9	9.9782e-07	6.3723e-07	1360.3	271.16	9.0123e-07	6.7924e-07	339.73	97.992	76.439	22.514	7.6755e-07	31.75	163.120	-64.626	-80.726	-156.426	-52.150	-14.654	-156.607	-149.900	-69.691	-7.382	-149.610	-143.541	-143.818	-135.975	-36.764	-136.023	-8191	255	
21155.615	1	1	0	0	0.19877	0.15781	0.12516	0.31909	0.14477	0.16443	0.31613	0.28253	0.15353	0.08545	0.16992	0.11787	0.19625	0.11267	0.32303	0.22877	-2.2812	-2.5	-2.7771	-2.8187	-2.8	-2.7542	-2.8438	-3.1479	-2.7604	-2.5062	-2.925	-2.8167	-2.7625	-2.7979	-2.55	-2.9375	-17.370	-156.326	-88.144	105.927	188.248	-126.682	83.227	133.242	44.519	143.162	-159.247	178.188	183.232	71.228	-33.086	-161.810	0.0004086	0.00049997	0.00011478	1325.5	2.4511e-06	2.7741e-06	1397.4	277.78	3.6388e-06	4.272e-06	347.72	99.775	78.258	23.046	3.1384e-06	31.91	0.00015793	6.4416e-05	1.6265e-05	1283.8	9.3877e-07	5.4275e-07	1359.5	271.39	9.4323e-07	6.9836e-07	339.46	98.188	76.502	22.611	6.8335e-07	31.827	161.137	-72.513	-72.407	-156.513	-50.420	-22.322	-156.550	-149.885	-56.189	-20.237	-149.359	-143.524	-144.057	-135.661	-30.878	-135.746	-8191	255	
21155.713	1	1	0	0	0.11458	0.12869	0.052542	0.30445	0.22643	0.13379	0.047976	0.13688	0.30012	0.096239	0.18681	0.11259	0.22364	0.13793	0.16416	0.085403	-2.3333	-2.5542	-3.0333	-2.8792	-2.8438	-2.7667	-2.6458	-2.9562	-2.8875	-2.6208	-2.9021	-2.7083	-2.7521	-2.8625	-2.5604	-2.8833	-150.903	-166.549	116.233	127.999	87.726	75.038	97.905	68.159	167.011	-95.600	148.592	186.626	83.957	184.340	131.203	92.417	0.00035236	0.0003341	8.0689e-05	1330.7	3.1923e-06	2.587e-06	1400	278.9	3.5879e-06	3.528e-06	349.53	100.29	78.2	22.866	3.4218e-06	32.072	0.00014836	6.5339e-05	1.5042e-05	1289.1	8.9496e-07	6.0618e-07	1361.7	271.6	8.7559e-07	6.4167e-07	340.55	98.695	76.761	22.625	7.3969e-07	31.976	161.232	-80.685	-89.333	-156.408	-44.239	1.869	-156.411	-149.371	-51.206	-27.344	-149.793	-143.406	-144.063	-135.643	-21.604	-136.346	-8191	255	
21155.809	1	1	0	0	0.15994	0.12445	0.16626	0.35681	0.1597	0.19475	0.16116	0.12681	0.13817	0.28275	0.2155	0.27287	0.21737	0.10342	0.1492	0.18345	-2.4229	-2.5104	-2.9104	-2.8625	-2.8229	-2.9792	-2.8292	-2.7104	-2.7687	-2.7042	-2.9771	-2.8937	-2.6167	-3.0146	-2.7062	-2.8417	16.797	15.669	-7.577	105.389	-46.131	164.702	53.681	107.565	116.829	74.422	176.740	105.846	-160.032	78.815	88.554	-138.227	0.00040798	0.0003364	9.7541e-05	1326.6	2.6116e-06	3.2179e-06	1405.4	279.75	3.8477e-06	3.7977e-06	348.83	100.62	79.323	22.892	2.3803e-06	32.501	0.00014726	6.263e-05	1.6024e-05	1290.4	9.54e-07	6.2732e-07	1368.3	272.58	9.4045e-07	6.6408e-07	342.37	99.031	77.57	22.716	7.2039e-07	32.187	157.117	-66.799	-82.645	-156.250	-51.726	-13.045	-156.693	-149.583	-47.017	3.278	-149.422	-143.554	-144.502	-135.953	-21.577	-136.276	-8191	255	
21155.904	1	1	0	0	0.19374	0.19612	0.20719	0.31535	0.22419	0.2701	0.10855	0.15458	0.071099	0.12036	0.2203	0.18728	0.061385	0.17183	0.16348	0.14679	-2.575	-2.5375	-2.9917	-2.7938	-2.7917	-2.8583	-2.6979	-2.8958	-2.85	-2.7062	-3.0187	-2.8292	-2.7896	-3.1813	-2.8396	-2.8292	-22.464	30.788	137.342	146.267	167.592	118.879	147.509	-147.634	-51.561	47.032	118.114	-32.415	-86.121	86.976	33.271	183.569	0.00044007	0.00035136	0.00010634	1338.8	4.0158e-06	2.6857e-06	1405.3	281.21	4.0758e-06	4.9087e-06	349.34	101.12	79.781	23.189	3.3679e-06	32.135	0.00015493	6.647e-05	1.5442e-05	1296.9	9.3567e-07	5.7843e-07	1370.5	273.22	8.7776e-07	6.0871e-07	343.77	99.457	77.65	22.81	7.3336e-07	32.074	161.058	-65.480	-73.579	-156.494	-58.749	-18.782	-156.564	-149.576	-53.200	1.997	-149.826	-143.703	-143.487	-135.364	-18.076	-136.218	-8191	255	
21156.025	1	1	0	0	0.1222	0.078752	0.049627	0.15808	0.24767	0.08386	0.25346	0.13979	0.11219	0.32699	0.14011	0.16983	0.026911	0.065892	0.20802	0.27014	-2.5271	-2.6063	-3.0542	-2.8896	-2.7792	-3.0667	-2.85	-2.8417	-3.0667	-2.7458	-3.0958	-2.8271	-2.625	-3.0021	-2.8646	-2.8438	-17.878	-167.493	65.301	149.304	92.066	40.227	120.831	126.130	112.742	93.107	92.428	167.040	-120.193	157.420	-12.837	75.131	0.0004437	0.00045945	0.00010979	1342.2	3.0783e-06	3.9154e-06	1410.8	280.26	3.7396e-06	3.5908e-06	352.78	100.62	79.404	23.098	3.8837e-06	32.324	0.00015937	6.2064e-05	1.6149e-05	1299.1	9.3101e-07	6.0089e-07	1375.2	273.77	8.2587e-07	6.1761e-07	345.81	99.726	77.859	22.82	7.0298e-07	32.2	164.042	-78.634	-72.283	-156.440	-58.207	-9.015	-156.512	-149.833	-65.511	-3.664	-149.642	-143.905	-143.481	-135.371	-36.913	-136.279	-8191	255	
21156.098	1	1	0	0	0.10767	0.16135	0.037277	0.15059	0.045451	0.12409	0.24729	0.41434	0.24202	0.20947	0.18105	0.28942	0.20038	0.10426	0.050544	0.16689	-2.7042	-2.7562	-2.775	-3.1188	-2.6021	-2.9854	-2.9604	-2.8312	-2.8958	-2.8229	-2.6917	-2.8646	-2.65	-2.8375	-2.9292	-2.6021	-60.354	-39.255	-5.815	-144.277	159.366	120.609	160.780	-131.700	150.414	134.588	-158.780	15.201	135.026	97.561	-117.997	-97.619	0.00041599	0.00039839	0.00010814	1343.3	3.0893e-06	2.2875e-06	1419.2	282.49	3.2552e-06	4.134e-06	356.38	100.96	79.318	23.011	3.2022e-06	32.483	0.00014799	6.0636e-05	1.6607e-05	1303.8	9.3349e-07	5.5498e-07	1379.7	275.22	8.9876e-07	6.0113e-07	347.57	99.865	77.971	22.821	6.7671e-07	32.278	160.860	-91.059	-86.546	-156.606	-64.404	9.632	-156.540	-149.535	-69.401	-14.691	-149.886	-144.019	-143.389	-136.213	-37.552	-136.059	-8191	255	
21156.219	1	1	0	0	0.14131	0.011837	0.2608	0.4142	0.27217	0.28343	0.14976	0.29024	0.15413	0.0067932	0.27241	0.16584	0.20449	0.20238	0.13127	0.26973	-2.5354	-2.7708	-2.7729	-3.1	-2.7271	-3.0042	-2.8583	-2.7604	-2.95	-2.7292	-2.7854	-3.0146	-2.6896	-2.8625	-2.9229	-2.7729	164.195	38.553	-118.760	147.780	31.161	-49.577	163.942	149.148	70.969	36.240	-108.958	181.876	-148.958	-101.222	-3.922	79.861	0.00041009	0.00035203	0.00010258	1343.5	2.3112e-06	2.9628e-06	1413.8	281.9	4.8092e-06	3.752e-06	356	101.81	79.851	22.911	3.1183e-06	32.431	0.0001491	6.2719e-05	1.4735e-05	1306.6	9.4654e-07	5.6059e-07	1381.4	274.94	9.2069e-07	5.4412e-07	346.95	99.955	77.99	22.731	7.2545e-07	32.226	161.709	-85.141	-81.790	-156.246	-55.956	-7.317	-156.689	-149.619	-60.284	-32.774	-150.054	-143.549	-144.250	-135.451	-21.065	-136.321	-8191	255	
21156.314	1	1	0	0	0.19499	0.12553	0.056308	0.29079	0.15171	0.12337	0.37447	0.18549	0.029416	0.054634	0.20733	0.17485	0.044334	0.33382	0.083496	0.19729	-2.4708	-2.8	-2.7	-3.1271	-2.6083	-2.8542	-3.0625	-2.5896	-2.8625	-2.7708	-2.775	-2.9917	-2.7271	-2.8604	-2.8937	-2.6604	-64.055	115.130	-99.348	121.813	77.102	172.462	110.548	67.610	183.154	-12.819	114.302	87.330	171.097	128.247	-133.191	157.562	0.00042176	0.00039755	5.9457e-05	1350.4	4.2567e-06	3.8003e-06	1417.8	281.91	4.3472e-06	3.7782e-06	354.92	101.21	79.736	23.111	2.0387e-06	32.386	0.0001493	5.8373e-05	1.5234e-05	1307.4	9.5587e-07	5.8801e-07	1380.3	275.24	8.9073e-07	5.1545e-07	346.98	99.75	78.008	22.837	6.4063e-07	32.224	161.828	-81.140	-57.832	-156.404	-69.889	-5.383	-156.703	-149.641	-52.587	-7.256	-149.872	-143.818	-144.305	-135.933	-33.924	-136.020	-8191	255	
21156.410	1	1	0	0	0.012521	0.25697	0.23446	0.22679	0.30505	0.24459	0.31453	0.25725	0.069166	0.18403	0.11114	0.10966	0.064116	0.05148	0.20109	0.072747	-2.4958	-2.7854	-2.6708	-3.1104	-2.6333	-2.8083	-3.1708	-2.6896	-2.9188	-2.8167	-2.8083	-3.1667	-2.7604	-2.9042	-2.9792	-2.9125	154.375	189.826	122.690	179.026	87.144	180.782	-160.798	164.491	161.082	-105.001	124.931	162.816	150.827	156.577	-106.064	-39.343	0.00044918	0.00029854	9.8015e-05	1353.9	2.8129e-06	2.6477e-06	1426.5	282.93	3.4192e-06	3.213e-06	356.62	101.91	79.445	23.217	3.2706e-06	32.329	0.00015654	5.8076e-05	1.6615e-05	1310.5	9.3442e-07	6.0221e-07	1385.4	276.36	8.7127e-07	5.4643e-07	348.88	100.36	78.208	22.91	6.3968e-07	32.249	161.790	-79.758	-77.143	-156.568	-63.296	-13.390	-156.662	-149.777	-60.185	-19.694	-149.819	-143.626	-144.313	-135.899	-33.152	-136.335	-8191	255	
21156.506	1	1	0	0	0.18019	0.14073	0.12974	0.35392	0.15764	0.3291	0.25019	0.22894	0.17878	0.083794	0.22379	0.17811	0.35971	0.28929	0.23407	0.27599	-2.5208	-2.8458	-2.5396	-3.1063	-2.6229	-2.7687	-3.2104	-2.8604	-2.8229	-2.8771	-2.7354	-2.9792	-2.7417	-2.6729	-3.0521	-2.7667	158.080	98.071	19.855	147.530	189.493	-11.799	147.414	115.219	47.241	-82.736	183.046	139.971	152.392	140.028	9.464	188.310	0.00044363	0.00031598	0.00010689	1357.1	2.9498e-06	3.5309e-06	1429.5	284.29	4.8619e-06	5.0927e-06	355.74	101.62	80.334	23.005	2.7809e-06	32.423	0.00015374	5.6974e-05	1.3212e-05	1316.7	9.568e-07	7.0033e-07	1389.8	277.57	9.6701e-07	6.2651e-07	349.2	100.42	78.587	22.832	6.9158e-07	32.439	160.089	-71.885	-72.731	-156.386	-58.226	-6.652	-156.743	-149.727	-40.023	-17.741	-149.654	-143.749	-143.847	-136.184	-37.030	-136.044	-8191	255	
21156.627	1	1	0	0	0.24676	0.24097	0.19613	0.19728	0.020872	0.34084	0.21045	0.26289	0.22208	0.3611	0.2989	0.055651	0.13002	0.15442	0.058514	0.11681	-2.2938	-2.7687	-2.5979	-2.8229	-2.7125	-2.8083	-3.225	-2.7354	-2.7438	-2.8146	-2.6854	-2.8958	-2.8312	-2.7542	-2.8667	-2.7812	-167.532	71.345	-93.050	-166.936	24.298	161.693	85.977	177.456	46.888	62.842	-155.036	165.761	-85.491	94.552	82.420	82.099	0.00043571	0.00042374	6.9488e-05	1364.7	3.1224e-06	3.1624e-06	1434.9	284.93	4.9147e-06	3.8877e-06	358.01	101.69	80.389	23.29	2.2271e-06	32.366	0.00015469	5.8373e-05	1.6307e-05	1319.9	9.3846e-07	6.5177e-07	1393.7	277.96	8.8239e-07	5.4675e-07	350.03	100.46	78.688	22.951	6.9222e-07	32.232	157.848	-71.335	-84.154	-156.434	-75.432	-12.389	-156.784	-149.904	-60.321	1.881	-150.110	-143.538	-143.990	-135.728	-42.506	-136.476	-8191	255	
21156.721	1	1	0	0	0.035612	0.12095	0.11111	0.27495	0.079973	0.044813	0.18723	0.072616	0.1151	0.18381	0.06355	0.14657	0.18778	0.23843	0.20262	0.014792	-2.2729	-2.9896	-2.6333	-2.95	-2.8625	-2.6146	-3.0812	-2.7417	-2.7062	-3.0792	-2.6188	-3.0771	-2.9313	-2.5438	-2.9938	-2.8729	107.358	29.739	153.784	129.627	-34.442	-114.210	130.904	-44.996	-70.335	-107.005	13.560	98.826	38.801	-114.955	-4.604	-163.135	0.00044525	0.00030172	9.3629e-05	1363.4	3.4492e-06	2.2466e-06	1430.1	286.13	3.8899e-06	3.7218e-06	357.23	103.15	80.389	23.375	4.3311e-06	32.494	0.00015872	5.0515e-05	1.6174e-05	1322.9	9.6954e-07	5.9363e-07	1394.8	278.61	9.6331e-07	5.3159e-07	349.6	100.91	78.795	22.989	7.6976e-07	32.421	162.716	-65.737	-79.977	-156.493	-45.388	-5.699	-156.735	-149.911	-60.020	-17.699	-149.963	-144.022	-144.098	-135.340	-33.867	-136.381	-8191	255	
21156.795	1	1	0	0	0.21125	0.029026	0.15182	0.15706	0.1442	0.15559	0.17475	0.061099	0.40513	0.067151	0.28495	0.30955	0.21548	0.049581	0.048174	0.27527	-2.2938	-2.9208	-2.5875	-2.9062	-2.9	-2.825	-3.0312	-2.7625	-2.7542	-3.0187	-2.7042	-2.7896	-2.8667	-2.575	-2.8646	-2.8063	66.227	-165.394	129.402	-122.735	-135.625	107.857	131.850	13.074	121.885	-13.158	190.920	169.803	-10.718	-57.142	123.987	20.320	0.0004269	0.00036547	5.9917e-05	1367.8	2.867e-06	4.4821e-06	1433.8	286.79	3.1821e-06	2.6665e-06	360.74	102.17	79.757	23.458	3.7166e-06	32.4	0.00015456	5.4682e-05	1.6141e-05	1323.7	8.8905e-07	6.9471e-07	1398.7	279.26	9.1544e-07	5.161e-07	352.37	100.62	78.589	23.034	7.014e-07	32.4	160.929	-77.328	-75.876	-156.457	-65.022	-9.657	-156.787	-149.899	-70.722	-18.165	-149.683	-143.791	-144.066	-135.772	-33.894	-136.249	-8191	255	
21156.912	1	1	0	0	0.067903	0.12016	0.24456	0.21528	0.14918	0.12273	0.41166	0.13674	0.026723	0.15117	0.21158	0.048489	0.19597	0.1867	0.11335	0.21472	-2.3979	-3	-2.6333	-2.8958	-3.0167	-2.8729	-2.9479	-2.8125	-2.7313	-3.0583	-2.7438	-2.825	-3.05	-2.7396	-3.0625	-2.8833	-3.512	170.380	187.351	35.970	-75.673	23.314	131.081	147.866	-140.785	100.183	-130.326	175.891	-29.230	-157.905	-149.732	163.009	0.0004485	0.00023779	0.00010168	1368.3	3.3727e-06	4.0524e-06	1436.9	286.33	3.4059e-06	2.6693e-06	362.26	102.37	81.145	23.236	3.1583e-06	32.53	0.00015243	5.37e-05	1.7771e-05	1326.6	9.0584e-07	6.3855e-07	1399.7	279.66	8.7004e-07	5.5862e-07	353.39	100.81	78.893	23.021	6.9158e-07	32.451	160.751	-68.467	-77.389	-156.340	-63.772	-15.035	-156.631	-150.088	-44.667	-23.362	-149.800	-143.653	-143.965	-135.976	-19.271	-136.150	-8191	255	
21157.010	1	1	0	0	0.28581	0.30327	0.023122	0.062466	0.3597	0.19536	0.14586	0.144	0.25941	0.12448	0.17353	0.1803	0.14713	0.076569	0.13225	0.17552	-2.3021	-2.9458	-2.6708	-3.0542	-3.025	-2.5979	-3.1771	-2.8458	-2.6688	-3.025	-2.9042	-3.05	-3.0729	-2.6521	-2.9479	-3.0646	-74.624	106.555	56.958	27.020	31.795	85.315	137.959	141.303	-165.577	31.985	174.090	161.004	-103.975	97.906	180.166	-99.391	0.00043506	0.00033743	9.8153e-05	1376.5	3.3155e-06	3.5811e-06	1447.2	287.28	4.4033e-06	3.5525e-06	360.28	102.82	81.008	23.46	2.8625e-06	32.588	0.00015789	5.5932e-05	1.4751e-05	1330.5	8.8533e-07	6.0321e-07	1404.5	279.87	9.5343e-07	5.8894e-07	353.13	101.15	79.104	23.124	7.1057e-07	32.466	160.050	-62.912	-79.151	-156.483	-45.808	-18.902	-156.683	-149.689	-72.036	-29.328	-149.605	-143.707	-143.826	-135.883	-40.765	-136.526	-8191	255	
21157.105	1	1	0	0	0.28296	0.20225	0.36878	0.32417	0.072909	0.087511	0.37565	0.33998	0.11107	0.26752	0.44525	0.075556	0.071301	0.10481	0.040631	0.21074	-2.1979	-3.0604	-2.8688	-2.9792	-2.8917	-2.8583	-3.0458	-3.0854	-2.6375	-3.1	-2.825	-2.7396	-3.0271	-2.7604	-3.0104	-3.1042	-132.130	-95.488	25.192	168.954	9.321	155.846	134.286	172.274	147.077	-21.533	150.014	120.480	162.819	-117.214	162.116	58.435	0.00041738	0.00042442	7.4843e-05	1375.7	3.8838e-06	3.6835e-06	1450.2	289.65	4.3991e-06	3.9037e-06	364.76	103.57	81.414	23.282	2.7469e-06	32.84	0.00015676	5.8165e-05	1.52e-05	1335.9	8.6886e-07	6.0056e-07	1411.3	282.4	9.4045e-07	5.7444e-07	354.88	101.67	79.522	23.099	6.9348e-07	32.662	163.738	-76.893	-95.232	-156.726	-55.380	-14.826	-156.757	-149.765	-64.912	-12.046	-149.883	-143.761	-143.737	-135.779	-29.916	-136.444	-8191	255	
21157.201	1	1	0	0	0.14504	0.12096	0.13203	0.32602	0.094515	0.2629	0.21316	0.050739	0.065687	0.34179	0.16393	0.13171	0.045716	0.20766	0.063348	0.15137	-2.2625	-2.9667	-2.9333	-2.7292	-2.9333	-2.6708	-2.8042	-2.9417	-2.6542	-2.8083	-2.8312	-2.8063	-2.9396	-2.9521	-2.8708	-3.0083	-91.557	39.460	-81.211	154.409	153.894	-28.862	72.980	163.516	-125.908	-166.342	-143.830	-4.376	181.339	-4.123	-27.063	-128.404	0.00042025	0.00047905	0.00011089	1376.5	2.5786e-06	3.4884e-06	1458.1	290.92	4.8074e-06	3.6562e-06	365.37	103.79	81.984	23.501	3.6823e-06	32.664	0.00015387	6.4833e-05	1.5583e-05	1339.7	8.4275e-07	5.5663e-07	1420.6	283.54	1.0597e-06	5.8367e-07	356.95	102.02	79.798	23.23	7.1247e-07	32.632	162.111	-80.585	-86.171	-156.294	-58.200	-12.769	-156.712	-149.824	-58.255	-17.949	-149.797	-143.866	-144.093	-135.922	-36.141	-136.379	-8191	255	
21157.322	1	1	0	0	0.19574	0.19367	0.23908	0.13815	0.26995	0.12059	0.22327	0.15509	0.10373	0.17039	0.29922	0.28089	0.051865	0.18435	0.14357	0.094245	-2.3104	-2.9146	-2.8729	-2.5917	-2.8708	-2.7396	-3.0333	-2.9104	-2.5979	-2.8729	-3.0667	-2.7208	-2.8896	-2.8063	-2.6188	-3.0375	51.925	-45.229	-26.434	100.985	-155.322	-55.025	148.788	115.567	-134.208	-50.658	190.733	170.478	-154.846	-123.467	137.878	145.459	0.0004078	0.00036097	6.9653e-05	1386.4	3.7248e-06	2.5184e-06	1461.4	291.83	3.6815e-06	3.5943e-06	367.56	104.12	81.87	23.452	3.1641e-06	32.831	0.00014649	5.8314e-05	1.5209e-05	1347.7	8.9278e-07	5.6456e-07	1424.7	284.92	9.84e-07	5.8795e-07	358.39	102.34	79.935	23.187	6.7196e-07	32.778	160.945	-81.669	-81.850	-156.860	-59.277	-14.490	-156.767	-149.734	-55.609	0.139	-149.998	-143.816	-143.939	-136.056	-38.638	-136.221	-8191	255	
21157.395	1	1	0	0	0.11422	0.29361	0.15827	0.2564	0.26305	0.17205	0.32109	0.2252	0.10214	0.1082	0.25333	0.21086	0.21448	0.057198	0.062831	0.21343	-2.0438	-2.7479	-2.65	-2.675	-2.8292	-2.7458	-2.7062	-3.1813	-2.8042	-2.9188	-2.975	-2.5771	-2.875	-2.7812	-2.6333	-3.0458	79.629	-137.509	-33.147	190.209	-2.983	-136.249	142.281	188.342	122.960	71.730	-155.646	140.100	99.829	160.163	23.185	95.890	0.00040739	0.00044339	8.0859e-05	1395.5	3.4494e-06	4.414e-06	1472.1	293.85	3.6525e-06	2.372e-06	368.8	103.79	81.866	23.669	3.8184e-06	33.01	0.00015217	5.6766e-05	1.3786e-05	1352.8	9.7265e-07	6.1279e-07	1429.3	286	9.0092e-07	5.517e-07	359.53	102.09	80.081	23.324	7.2419e-07	32.824	161.320	-70.727	-69.822	-156.436	-59.824	-12.012	-156.839	-149.706	-68.240	11.383	-150.145	-144.097	-144.094	-136.063	-31.463	-136.123	-8191	255	
21157.490	1	1	0	0	0.089005	0.22644	0.086791	0.21113	0.23206	0.031116	0.13593	0.28791	0.090467	0.23198	0.16863	0.076991	0.13854	0.1586	0.11778	0.13687	-2.2062	-2.8646	-2.9458	-2.8417	-2.9792	-3.0354	-2.8375	-2.9	-2.8104	-2.7271	-3.2396	-2.6542	-2.8354	-2.9479	-2.5292	-2.8937	-154.018	22.420	127.380	155.093	108.618	110.330	-80.203	158.780	-13.429	-30.308	-125.602	-31.233	117.035	-103.878	16.942	-159.192	0.00042974	0.0003578	0.00010042	1393.4	3.6668e-06	4.0488e-06	1468.7	293.94	3.5212e-06	2.6875e-06	366.12	103.76	81.6	23.423	3.5592e-06	32.8	0.0001588	6.5577e-05	1.4227e-05	1353.6	8.9589e-07	6.0948e-07	1431.3	286.11	8.9196e-07	6.1794e-07	358.55	102.16	79.766	23.203	7.2039e-07	32.705	159.991	-72.781	-71.377	-156.623	-53.313	-3.582	-156.717	-149.863	-56.142	-5.527	-150.235	-143.757	-143.737	-135.950	-39.585	-136.338	-8191	255	
21157.586	1	1	0	0	0.020212	0.058827	0.074327	0.31503	0.080142	0.27693	0.39226	0.21975	0.15576	0.098257	0.18023	0.17954	0.23006	0.090969	0.051828	0.144	-2.2021	-2.6437	-2.9479	-2.6917	-2.7396	-2.9688	-2.75	-3.0708	-2.8958	-2.6646	-2.9271	-2.7667	-2.9625	-2.8479	-2.7313	-2.875	-123.927	53.804	80.258	157.687	25.268	3.331	145.221	153.738	188.762	165.292	-152.006	82.988	40.488	-17.017	-16.207	72.864	0.00039356	0.00040418	7.4457e-05	1400.8	2.9297e-06	4.1149e-06	1462.1	293.72	2.5999e-06	3.7136e-06	367.02	103.83	81.987	23.507	2.7119e-06	32.88	0.0001451	6.1797e-05	1.2904e-05	1353.3	9.1423e-07	5.2194e-07	1428.1	286.43	8.688e-07	5.8729e-07	358.72	102.06	80.079	23.271	6.8399e-07	32.775	163.404	-66.651	-82.483	-156.441	-64.212	-7.400	-156.587	-149.734	-58.161	7.235	-149.702	-144.442	-143.967	-135.672	-39.236	-136.344	-8191	255	
21157.705	1	1	0	0	0.23441	0.10808	0.14844	0.13997	0.21783	0.021283	0.3578	0.088226	0.070951	0.23371	0.20509	0.060255	0.17929	0.29206	0.027027	0.29705	-2.4333	-2.4813	-2.875	-2.7938	-2.8104	-2.9792	-2.8125	-2.9583	-2.8979	-2.5938	-3.0875	-2.7292	-2.8542	-2.9917	-2.7396	-2.9	164.195	-165.143	18.547	131.080	-119.210	17.610	143.652	187.769	-125.033	176.175	188.785	-160.764	79.840	176.550	89.868	-156.551	0.00042491	0.00042504	0.00011382	1395.8	3.6916e-06	3.321e-06	1475.2	294.53	3.2225e-06	3.1394e-06	369.01	103.91	82.451	23.588	3.2287e-06	32.957	0.00015319	5.8731e-05	1.54e-05	1354.2	9.829e-07	4.8461e-07	1432.8	286.96	8.3637e-07	5.896e-07	359.44	102.29	80.029	23.251	7.0519e-07	32.839	162.044	-69.768	-85.237	-156.606	-56.873	1.953	-156.803	-149.707	-62.331	-6.708	-149.729	-143.754	-143.962	-136.191	-34.390	-136.192	-8191	255	
21157.801	1	1	0	0	0.24828	0.088812	0.30698	0.2791	0.067362	0.14988	0.3475	0.31093	0.046142	0.11611	0.28876	0.061435	0.10909	0.22919	0.19007	0.15942	-2.4	-2.4708	-2.9521	-2.9146	-2.7479	-2.9271	-2.8042	-2.7562	-2.85	-2.7354	-2.9917	-2.7271	-2.5479	-3.1	-2.5917	-2.9083	-40.690	49.460	-160.051	183.766	-87.881	134.545	148.508	95.124	181.496	-99.880	30.431	-4.633	173.836	-86.206	107.645	-55.142	0.00040789	0.00031326	8.3372e-05	1398.5	3.9168e-06	3.1265e-06	1470.6	293.54	4.2124e-06	3.0527e-06	366.7	103.77	81.163	23.591	2.6945e-06	32.887	0.00014539	6.4327e-05	1.3553e-05	1354.6	9.0335e-07	5.4936e-07	1429.7	286.4	9.0277e-07	6.5485e-07	359.62	102.2	79.756	23.296	7.2577e-07	32.701	159.272	-66.551	-75.863	-156.616	-53.968	-0.771	-156.789	-149.636	-63.292	-22.289	-149.894	-144.025	-144.367	-135.659	-33.857	-136.230	-8191	255	
21157.898	1	1	0	0	0.17412	0.06168	0.091293	0.22954	0.085421	0.29687	0.33261	0.098487	0.11126	0.069389	0.10028	0.0824	0.07322	0.12902	0.16277	0.25903	-2.3229	-2.5542	-2.7625	-2.8625	-2.6625	-2.9458	-2.8792	-2.9	-2.875	-2.6229	-2.8583	-2.9021	-2.5062	-2.9167	-2.7333	-2.7313	-119.557	42.796	136.802	99.393	-46.838	98.579	110.493	-49.220	-69.608	16.919	156.058	70.499	131.433	116.170	80.533	169.824	0.00041547	0.00036659	9.343e-05	1398.8	2.8924e-06	3.6718e-06	1472.7	295.46	4.3484e-06	3.1064e-06	369.09	103.74	81.806	23.531	2.872e-06	32.697	0.00015474	6.5696e-05	1.5151e-05	1355.1	9.5183e-07	5.6588e-07	1431.5	286.93	8.8949e-07	5.7576e-07	359.63	102.26	80.107	23.266	6.65e-07	32.737	160.440	-86.795	-85.942	-156.501	-37.489	0.389	-156.790	-149.785	-44.529	-11.419	-149.763	-143.937	-143.834	-136.104	-32.585	-135.673	-8191	255	
21157.994	1	1	0	0	0.17484	0.13682	0.27141	0.24698	0.14076	0.1154	0.073992	0.21311	0.28416	0.18146	0.055554	0.073053	0.1557	0.062166	0.15723	0.12456	-2.4813	-2.6146	-3.0021	-2.7729	-2.5104	-3.1229	-3.0604	-2.8458	-2.9813	-2.7458	-2.75	-2.9042	-2.7562	-2.9667	-2.7646	-2.6958	-120.441	-44.490	-38.134	114.060	-10.479	108.445	164.260	168.625	52.223	65.791	100.112	158.142	122.244	-65.848	-125.435	-148.282	0.00044685	0.00029982	9.6371e-05	1405.1	4.0954e-06	2.9088e-06	1467	294.83	3.9008e-06	4.7622e-06	366.85	104.16	82.17	23.528	3.0106e-06	32.838	0.00015587	6.1886e-05	1.4493e-05	1358.7	9.5431e-07	5.9594e-07	1434.3	287.07	9.4879e-07	6.4398e-07	359.35	102.51	80.354	23.302	6.4917e-07	32.762	161.912	-69.068	-90.134	-156.643	-54.176	-6.011	-156.911	-149.549	-64.692	-10.377	-149.574	-143.882	-144.131	-135.984	-44.175	-136.152	-8191	255	
21158.090	1	1	0	0	0.35006	0.21886	0.20947	0.089489	0.062719	0.082504	0.41616	0.15751	0.10789	0.2049	0.15055	0.2462	0.030425	0.14855	0.11749	0.26479	-2.6229	-2.4062	-2.7854	-3.1396	-2.6125	-2.9125	-2.9458	-2.6021	-3.0271	-2.6437	-2.8458	-3.0083	-2.6583	-3.1021	-2.8792	-2.8708	-19.158	-114.707	99.885	119.594	73.220	-45.999	108.064	126.930	-40.884	2.051	159.429	134.079	99.457	130.968	-61.029	84.724	0.00040052	0.00038899	8.18e-05	1402.5	3.3878e-06	3.2268e-06	1477.7	294.29	4.2874e-06	4.78e-06	367.27	104.52	82.265	23.597	3.9149e-06	32.994	0.00014597	5.751e-05	1.4235e-05	1358.4	9.2914e-07	5.8372e-07	1438.9	287.46	8.8054e-07	6.7331e-07	360.11	102.66	80.272	23.388	7.552e-07	32.891	160.628	-82.831	-91.068	-156.494	-70.472	-11.198	-156.629	-149.871	-54.952	-3.347	-150.193	-143.982	-144.165	-136.026	-38.066	-136.224	-8191	255	
21158.186	1	1	0	0	0.1033	0.31532	0.40482	0.35864	0.21414	0.075031	0.28944	0.33535	0.098978	0.20639	0.15685	0.062426	0.095708	0.1074	0.15245	0.063727	-2.6021	-2.8021	-2.6583	-3.2021	-2.5229	-2.825	-3.0271	-2.6833	-2.9417	-2.8146	-2.8625	-3.0729	-2.7729	-3.0125	-2.7521	-2.5667	40.709	1.797	21.769	183.990	9.876	-98.220	137.759	94.529	141.360	155.275	67.400	-113.281	150.154	-41.266	-158.808	9.503	0.00044342	0.00032567	8.5411e-05	1403.1	3.6071e-06	3.29e-06	1482.7	294.02	5.0867e-06	3.4413e-06	370.76	104.33	81.873	23.738	2.999e-06	33.187	0.0001585	5.4325e-05	1.6931e-05	1361.2	9.5618e-07	6.5177e-07	1441.2	288.07	9.4385e-07	5.7246e-07	361.69	102.96	80.282	23.45	6.9285e-07	33.09	162.729	-80.994	-68.185	-156.554	-57.597	-21.321	-156.808	-149.802	-47.234	0.091	-150.142	-143.913	-144.150	-135.861	-33.366	-136.458	-8191	255	
21158.307	1	1	0	0	0.15733	0.29857	0.18861	0.4081	0.089458	0.11865	0.28044	0.068648	0.086389	0.098606	0.058572	0.16172	0.12755	0.21315	0.17782	0.32191	-2.6708	-2.7396	-2.7021	-3.0792	-2.6396	-2.9125	-2.8271	-2.8604	-3.0854	-2.7104	-2.8875	-3.0083	-2.6542	-2.8688	-3.0312	-2.7229	-56.805	12.982	148.762	139.134	85.237	14.901	92.698	128.888	-54.057	14.076	-167.325	96.440	-115.054	86.529	15.507	21.096	0.00043411	0.00043368	9.1344e-05	1413.6	3.0056e-06	2.8982e-06	1483.8	297.82	4.2997e-06	3.0232e-06	371.24	105.4	82.407	23.819	3.2354e-06	33.113	0.00014884	5.748e-05	1.6132e-05	1366.9	1.0345e-06	6.0618e-07	1448.3	289.79	8.6448e-07	5.7477e-07	362.75	103.4	80.646	23.463	7.0899e-07	32.997	162.660	-81.577	-77.378	-156.430	-64.206	-20.972	-156.689	-150.144	-60.359	-10.402	-149.865	-143.899	-144.001	-135.631	-30.607	-136.467	-8191	255	
21158.402	1	1	0	0	0.11695	0.14115	0.30436	0.24867	0.099858	0.2898	0.11046	0.15681	0.082819	0.1352	0.16973	0.20114	0.33788	0.24722	0.10481	0.32967	-2.4729	-2.5083	-2.5521	-3.0958	-2.6833	-2.6813	-3.1979	-2.7083	-2.85	-2.7417	-2.8833	-3.1146	-2.7208	-2.7083	-2.9688	-2.7042	121.235	100.211	172.266	189.334	-20.020	-33.400	-92.411	99.493	153.368	-42.656	84.732	109.847	72.240	135.347	68.789	163.123	0.00043374	0.00046362	7.9255e-05	1410.7	3.5927e-06	2.6753e-06	1484.5	298.64	4.4596e-06	2.6154e-06	372.51	104.76	82.9	23.811	3.5525e-06	32.949	0.00015589	6.9863e-05	1.7563e-05	1368.8	1.0047e-06	6.1146e-07	1446.7	290.79	9.3119e-07	5.2401e-07	363	103.11	80.921	23.509	6.9158e-07	32.912	159.095	-68.504	-86.164	-156.684	-56.780	-18.802	-156.820	-149.727	-60.924	5.493	-149.786	-144.086	-143.985	-136.054	-35.924	-136.503	-8191	255	
21158.498	1	1	0	0	0.16522	0.13759	0.15347	0.15051	0.23252	0.19935	0.12435	0.25919	0.080445	0.024847	0.19586	0.045052	0.16013	0.29736	0.27761	0.064859	-2.55	-2.7833	-2.5354	-3	-2.9333	-2.7229	-3.1	-2.6167	-3	-2.8583	-2.6896	-3.1396	-2.7208	-2.7729	-2.8583	-2.6937	29.433	64.013	29.809	-132.428	-165.302	173.114	155.960	5.819	95.899	11.006	2.687	-133.555	0.427	94.424	15.476	107.797	0.00041985	0.00034005	8.8154e-05	1409.1	3.5345e-06	2.6557e-06	1491.6	297.82	3.8344e-06	3.2238e-06	372.04	105.32	82.12	23.77	3.0585e-06	33.223	0.00015389	5.8314e-05	1.6374e-05	1369.8	9.9098e-07	6.8513e-07	1450.8	290.2	9.4385e-07	5.1775e-07	364.31	103.25	80.884	23.517	6.7671e-07	33.047	159.989	-85.728	-87.406	-156.675	-59.615	-12.634	-156.586	-149.784	-49.387	-6.143	-150.139	-144.016	-144.070	-136.161	-53.512	-136.778	-8191	255	
21158.617	1	1	0	0	0.076705	0.11026	0.12309	0.20249	0.097007	0.12408	0.22155	0.028864	0.26799	0.19259	0.22018	0.16701	0.16675	0.061962	0.3997	0.099316	-2.3375	-2.8729	-2.6521	-3.1021	-2.8271	-2.8208	-3.1562	-2.8583	-2.8187	-3.0187	-2.6479	-2.9437	-2.7833	-2.7479	-3.0021	-2.7062	61.849	170.899	-8.461	-107.690	-111.666	127.437	78.868	-138.855	72.822	53.403	105.013	123.434	187.686	56.896	6.109	14.147	0.00041228	0.0004358	9.8736e-05	1422.6	3.6536e-06	4.1845e-06	1491.6	298.19	4.2867e-06	4.0072e-06	373.88	104.89	83.014	23.881	3.6369e-06	33.316	0.00015478	6.641e-05	1.7522e-05	1374.8	9.9347e-07	6.3095e-07	1451.7	290.62	9.4138e-07	5.372e-07	364.24	103.35	81.076	23.531	6.6848e-07	33.036	160.418	-76.233	-87.296	-156.748	-58.308	7.263	-156.731	-149.787	-64.434	-27.154	-149.857	-144.161	-143.664	-135.942	-31.810	-136.362	-8191	255	
21158.689	1	1	0	0	0.23788	0.062749	0.090896	0.25207	0.18536	0.16427	0.20366	0.17202	0.12951	0.061908	0.25199	0.075185	0.20064	0.21332	0.052446	0.13022	-2.3688	-2.9	-2.5896	-2.9958	-2.8521	-2.8771	-3.0417	-3.0062	-2.7229	-2.9979	-2.8167	-2.9542	-2.7438	-2.6521	-3	-2.6813	-57.601	-53.813	-59.060	179.569	60.768	186.488	133.646	150.230	55.247	-119.393	178.102	-88.741	-159.662	116.266	-86.617	-118.634	0.00045884	0.00032575	0.00010664	1419.7	2.2618e-06	3.6063e-06	1487.8	300.05	3.7745e-06	3.6072e-06	373.9	104.98	82.927	23.888	2.5498e-06	33.187	0.00015421	5.4563e-05	1.7197e-05	1374.2	9.2106e-07	5.7546e-07	1452	291.78	9.3026e-07	5.461e-07	364.98	103.48	81.135	23.536	6.5772e-07	33.141	160.505	-69.160	-83.837	-156.782	-23.677	-17.292	-156.579	-149.952	-68.174	-12.633	-149.750	-143.621	-144.580	-135.997	-46.334	-136.331	-8191	255	
21158.785	1	1	0	0	0.19346	0.22572	0.049242	0.285	0.15513	0.22386	0.12544	0.3148	0.29715	0.19717	0.069721	0.1203	0.29254	0.052524	0.17593	0.097534	-2.3375	-3.1396	-2.6833	-2.875	-3.075	-2.7979	-3.0875	-2.9917	-2.7396	-2.9958	-2.9604	-2.9083	-2.9313	-2.5521	-2.8771	-2.7667	53.078	155.513	148.383	176.476	132.687	124.683	48.919	62.273	-137.897	-71.977	-142.506	19.276	-138.068	66.885	177.165	121.508	0.00046221	0.00033706	0.00012826	1418	3.6023e-06	2.5925e-06	1499	300.57	4.0281e-06	3.4862e-06	375.6	105.16	81.884	23.661	2.6734e-06	33.285	0.00015891	5.6855e-05	1.6798e-05	1374.9	9.2044e-07	5.15e-07	1456.5	292.36	9.2501e-07	6.1168e-07	366.25	103.68	80.63	23.507	6.9633e-07	33.17	163.315	-79.824	-81.441	-156.382	-66.844	3.033	-156.848	-150.008	-63.124	-13.441	-149.978	-144.274	-144.899	-136.093	-34.714	-136.246	-8191	255	
21158.883	1	1	0	0	0.033646	0.045597	0.21174	0.16524	0.11331	0.04757	0.29186	0.27625	0.050373	0.040523	0.25841	0.092659	0.37251	0.18882	0.20426	0.29086	-2.2562	-2.975	-2.7292	-3.0375	-2.9958	-2.6458	-3.2438	-3.0729	-2.675	-2.9833	-2.7479	-2.8812	-3.0104	-2.6229	-2.9542	-2.8229	-12.308	16.425	10.509	129.687	77.947	66.706	149.508	161.588	-53.074	82.279	40.713	-87.455	7.394	34.458	67.842	-156.248	0.00046557	0.00040118	0.00011756	1427.2	4.017e-06	4.5904e-06	1506.1	301.63	5.0569e-06	4.4152e-06	374.49	105.91	82.949	23.973	3.3981e-06	33.275	0.00016202	5.8879e-05	1.5741e-05	1380.3	9.5649e-07	6.8876e-07	1459.2	292.77	9.8091e-07	6.008e-07	365.6	103.89	81.399	23.609	7.6185e-07	33.111	163.272	-63.760	-88.095	-156.610	-63.199	-14.270	-156.915	-149.994	-63.769	-18.539	-149.687	-144.195	-143.809	-136.054	-35.927	-136.664	-8191	255	
21159.002	1	1	0	0	0.14736	0.2529	0.17899	0.11931	0.19446	0.085015	0.098792	0.22477	0.10249	0.07069	0.15473	0.31924	0.062781	0.17217	0.21489	0.13347	-2.2542	-3.0563	-2.7896	-2.6729	-3.0854	-2.7333	-3.1437	-2.9167	-2.6333	-3.0896	-2.8688	-2.8792	-3.0104	-2.8063	-2.9729	-3.0833	57.572	-13.551	135.709	189.720	80.796	190.116	150.458	142.259	15.643	48.756	106.399	179.081	-107.459	135.681	-76.761	105.811	0.00042577	0.00045245	6.8383e-05	1421.7	3.3105e-06	3.2374e-06	1506.6	301.11	4.8762e-06	2.9639e-06	375.25	105.96	83.952	23.971	3.7665e-06	33.405	0.00015743	6.3196e-05	1.4169e-05	1378.4	9.3256e-07	6.5408e-07	1463.4	292.69	9.4509e-07	5.6389e-07	366.14	104.06	81.439	23.66	7.8907e-07	33.17	161.667	-74.745	-70.092	-156.675	-35.939	-17.586	-156.685	-149.997	-57.858	-1.792	-150.218	-143.989	-143.983	-135.740	-20.582	-136.968	-8191	255	
21159.100	1	1	0	0	0.24605	0.17486	0.16678	0.18568	0.13393	0.049167	0.12608	0.17797	0.27673	0.28383	0.2132	0.47263	0.13765	0.22622	0.070449	0.26147	-2.0312	-2.9979	-2.7667	-2.8104	-2.9604	-2.8354	-3.0958	-3.0604	-2.6729	-3.2812	-3.0042	-2.8063	-2.9354	-2.6833	-2.9562	-3.0458	-53.359	36.729	51.210	110.746	125.162	-63.708	82.108	148.260	-26.140	-20.867	159.645	144.207	167.454	175.705	-122.592	51.934	0.00042861	0.00035993	9.9434e-05	1425.5	3.1309e-06	2.7853e-06	1501.3	300.75	4.5458e-06	4.2546e-06	377.38	106.45	83.278	23.93	3.1177e-06	33.705	0.00015485	5.9207e-05	1.5159e-05	1383.6	9.2168e-07	5.5167e-07	1463.9	293.45	1.0053e-06	6.9111e-07	368.34	104.51	81.451	23.769	7.5774e-07	33.4	161.548	-86.077	-80.554	-156.434	-61.143	-24.039	-156.588	-149.686	-65.766	-14.687	-149.852	-143.654	-144.106	-136.133	-38.952	-136.368	-8191	255	
21159.195	1	1	0	0	0.1524	0.18502	0.060126	0.21079	0.17225	0.096863	0.39442	0.25543	0.23931	0.061813	0.059027	0.16376	0.08511	0.16627	0.1267	0.1237	-2.125	-2.8667	-2.7292	-2.8604	-3.0333	-2.7792	-2.8875	-3.1625	-2.7	-2.9104	-3.0625	-2.7083	-3.1271	-3.0792	-2.5979	-3.1021	115.973	36.257	-122.642	-108.344	-158.101	-149.696	99.553	68.612	-145.036	44.769	155.996	171.145	-35.511	175.703	-24.214	13.687	0.00044277	0.00047195	7.0171e-05	1434	3.7996e-06	4.2673e-06	1512.3	302.43	5.2883e-06	2.6356e-06	378.14	106.31	83.27	23.813	3.4806e-06	33.401	0.00015943	6.6113e-05	1.4277e-05	1391.6	1.0106e-06	6.663e-07	1471.4	295.07	9.63e-07	5.8466e-07	369.04	104.75	81.888	23.734	7.6122e-07	33.382	161.724	-56.924	-68.193	-156.635	-68.593	-26.299	-156.465	-149.945	-73.061	-1.876	-149.753	-144.270	-143.715	-136.342	-21.224	-136.515	-8191	255	
21159.266	1	1	0	0	0.35159	0.29256	0.052598	0.23552	0.090632	0.19348	0.38607	0.36513	0.062253	0.031729	0.52446	0.13567	0.16532	0.091051	0.066665	0.051206	-2.2583	-2.8438	-2.6271	-2.8458	-2.9333	-2.6958	-2.8979	-2.9708	-2.7313	-2.9729	-3.1729	-2.7833	-2.8792	-2.8458	-2.6896	-3.0604	121.984	98.347	-151.033	-161.718	73.210	41.094	188.160	-162.015	-154.185	-154.667	151.883	101.278	161.993	176.061	-164.303	120.571	0.00041737	0.00025964	0.00014085	1440.7	4.3635e-06	4.4764e-06	1511.5	303.88	4.8494e-06	2.8562e-06	376.65	106.85	83.644	23.877	2.8903e-06	33.759	0.00015759	5.7212e-05	1.7738e-05	1395.3	9.3691e-07	5.8239e-07	1472.9	295.64	1.0501e-06	5.4873e-07	368.12	104.78	81.999	23.696	8.2927e-07	33.377	161.629	-52.984	-76.518	-156.390	-60.019	-8.697	-156.729	-150.114	-54.972	-3.367	-150.037	-143.904	-144.329	-136.358	-40.452	-136.668	-8191	255	
21159.387	1	1	0	0	0.094292	0.2576	0.061528	0.34308	0.19288	0.24353	0.17129	0.13202	0.21251	0.19485	0.1017	0.14626	0.21415	0.37636	0.18573	0.16195	-2.4854	-2.75	-2.9583	-2.8375	-3.0646	-2.8042	-2.7854	-2.9833	-2.6917	-2.7	-2.9646	-2.775	-2.9396	-2.8812	-2.825	-3.0708	-79.500	-67.448	7.747	146.899	178.943	-46.912	138.990	166.447	-26.376	105.199	162.320	13.855	-49.204	131.674	65.053	82.126	0.00042651	0.00037849	8.9486e-05	1437	3.7483e-06	4.4517e-06	1513.4	302.86	4.5542e-06	5.2344e-06	378.77	105.95	83.144	23.981	3.0596e-06	33.752	0.00016139	6.9982e-05	1.5467e-05	1392.5	9.8881e-07	6.9471e-07	1475.5	295.34	1.1001e-06	6.9638e-07	368.73	104.46	81.712	23.725	8.0774e-07	33.427	160.694	-66.399	-86.685	-156.340	-45.904	-7.251	-156.429	-149.698	-68.088	-19.614	-149.880	-143.658	-144.057	-135.906	-50.572	-136.290	-8191	255	
21159.482	1	1	0	0	0.12731	0.15362	0.15118	0.27441	0.21169	0.23463	0.15007	0.2851	0.079694	0.18847	0.42924	0.42209	0.015991	0.38491	0.27371	0.21029	-2.1437	-2.825	-2.9562	-2.7604	-2.9104	-2.8521	-2.7583	-3.0583	-2.8271	-2.7021	-3.1437	-2.8083	-2.6833	-2.8708	-2.6458	-3.0333	108.579	81.334	86.470	134.450	26.860	159.288	103.382	19.611	147.722	-49.897	154.650	-156.719	-71.329	165.314	139.006	11.253	0.0004244	0.00045778	0.00011876	1440.1	3.3929e-06	3.4881e-06	1512.3	304.99	4.1972e-06	4.6334e-06	378.78	106.28	84.051	24.105	2.1868e-06	33.393	0.00016966	7.4626e-05	1.6457e-05	1393.7	1.0037e-06	6.1642e-07	1472.2	296.38	9.7196e-07	6.9111e-07	369.88	104.68	81.982	23.761	7.8021e-07	33.388	161.925	-79.813	-89.184	-156.744	-49.123	-22.494	-156.788	-149.992	-66.902	-6.284	-150.046	-143.804	-143.927	-135.869	-44.048	-136.346	-8191	255	
21159.578	1	1	0	0	0.20604	0.20977	0.23971	0.22068	0.097314	0.070209	0.26597	0.18035	0.090492	0.12193	0.071058	0.094717	0.11738	0.10853	0.21134	0.083447	-2.4188	-2.5542	-3.1083	-2.7167	-2.8375	-2.8771	-2.7708	-3.0792	-2.875	-2.5896	-3.1562	-2.7896	-2.7958	-2.8708	-2.6833	-3.0271	-159.097	-98.660	-118.220	136.560	-135.336	-2.722	124.444	66.332	15.623	-50.053	70.744	-85.486	175.186	90.525	-48.398	-143.895	0.00044055	0.00030138	9.2937e-05	1442.3	3.2214e-06	3.8634e-06	1515.5	302.89	3.802e-06	3.9233e-06	379.4	107.18	83.72	24.003	3.8706e-06	33.73	0.00015763	6.8643e-05	1.6715e-05	1397.8	9.8477e-07	6.7192e-07	1475.7	296.06	9.1698e-07	6.275e-07	369.07	105.06	81.865	23.817	7.571e-07	33.534	164.105	-69.910	-83.715	-156.629	-45.260	-16.190	-157.112	-149.985	-60.269	0.356	-149.968	-143.749	-144.138	-136.056	-48.950	-136.381	-8191	255	
21159.697	1	1	0	0	0.16383	0.19545	0.15383	0.3048	0.20561	0.16119	0.27801	0.25055	0.18043	0.16643	0.13898	0.23113	0.033784	0.19072	0.15102	0.14512	-2.4542	-2.4083	-3.0104	-2.9	-2.7292	-3.0458	-2.8646	-2.9771	-2.6896	-2.6042	-2.9667	-3.0042	-2.8021	-2.9583	-2.5542	-3.0729	48.943	185.195	-9.128	152.525	-18.291	182.549	146.917	136.517	89.800	135.024	-59.081	99.481	117.426	164.927	67.047	93.318	0.00042794	0.00037605	9.3838e-05	1440	3.3769e-06	4.6976e-06	1521.7	304.05	3.5513e-06	3.3147e-06	378.13	106.68	84.296	24.197	4.0538e-06	33.52	0.00016363	6.1826e-05	1.6681e-05	1396.2	9.6923e-07	6.7687e-07	1479.8	296.31	9.1327e-07	6.9737e-07	369.11	104.77	82.016	23.9	8.2737e-07	33.39	163.233	-66.247	-72.246	-156.812	-57.410	-17.292	-156.827	-149.979	-72.368	-11.171	-149.860	-144.329	-144.304	-135.878	-21.167	-136.410	-8191	255	
21159.795	1	1	0	0	0.33191	0.15014	0.24765	0.19511	0.072956	0.34469	0.2603	0.22402	0.094113	0.10657	0.078759	0.074804	0.14604	0.069558	0.18592	0.29563	-2.2667	-2.5292	-2.7396	-2.9542	-2.7958	-2.875	-2.8896	-2.8542	-2.9667	-2.8	-3.0896	-2.9021	-2.675	-2.8896	-2.7146	-2.9521	-113.668	-150.249	99.246	-166.899	121.004	-110.442	137.419	103.093	-15.585	-112.953	105.432	38.473	-3.977	137.834	146.153	-142.201	0.0004517	0.00034259	8.7477e-05	1442.9	3.028e-06	3.5234e-06	1520.4	303.58	4.6499e-06	3.3488e-06	378.79	106.42	83.738	23.939	3.6495e-06	33.974	0.00016491	7.2036e-05	1.56e-05	1398.7	1.0854e-06	6.5507e-07	1481.1	296.06	9.9605e-07	6.2486e-07	370.24	104.98	82.182	23.768	8.1882e-07	33.496	159.871	-70.236	-78.763	-156.437	-61.159	14.938	-156.755	-149.936	-66.181	-10.903	-149.551	-143.764	-144.115	-136.205	-50.687	-136.814	-8191	255	
21159.891	1	1	0	0	0.07842	0.060773	0.11376	0.086233	0.024959	0.01107	0.44003	0.21834	0.15255	0.045669	0.40861	0.17712	0.16986	0.29813	0.11881	0.40106	-2.4917	-2.7125	-2.9188	-2.7854	-2.6792	-2.9021	-2.8375	-3.0062	-2.9813	-2.6146	-3.2083	-2.875	-2.5271	-3.0833	-2.7104	-2.8625	165.419	10.941	21.952	164.441	-134.399	-143.540	125.492	137.739	-140.846	-11.938	136.316	-108.721	111.309	108.700	-111.706	49.543	0.00045516	0.00031027	0.00010073	1441.7	3.4171e-06	4.2286e-06	1519.2	304.24	4.7228e-06	2.9292e-06	377.28	106.15	83.389	24.192	3.3132e-06	33.544	0.00015989	6.5547e-05	1.3886e-05	1397.8	1.0311e-06	6.478e-07	1478.2	296.72	9.8585e-07	6.3936e-07	370.12	104.86	82.154	23.867	7.6945e-07	33.457	160.696	-64.881	-53.646	-156.482	-47.855	12.808	-156.603	-149.869	-65.373	-3.914	-149.640	-144.116	-143.907	-135.707	-24.246	-136.218	-8191	255	
21159.986	1	1	0	0	0.23386	0.17108	0.16385	0.12646	0.24518	0.19172	0.49289	0.2736	0.23432	0.32049	0.089979	0.17925	0.19181	0.099618	0.11446	0.22143	-2.5792	-2.5854	-2.8875	-2.9021	-2.75	-3.0042	-2.95	-2.8729	-2.8688	-2.8792	-2.9146	-2.9125	-2.6417	-3.0042	-2.6688	-2.7083	49.550	79.256	87.409	142.744	-97.381	29.502	162.605	-158.764	13.248	187.967	153.460	178.902	181.403	-72.379	186.536	141.611	0.00044737	0.00023438	0.00010651	1437.5	3.276e-06	4.3462e-06	1513.9	305.06	4.8223e-06	3.9857e-06	379.46	106.96	83.904	23.869	4.7614e-06	33.715	0.00016178	6.007e-05	1.7139e-05	1396.6	1.0752e-06	7.0958e-07	1476.9	297.07	9.491e-07	6.766e-07	369.92	104.96	82.06	23.801	8.4319e-07	33.519	160.629	-48.100	-93.398	-156.633	-49.863	-9.708	-156.763	-150.046	-60.302	-8.589	-149.779	-143.862	-144.439	-136.196	-22.346	-135.987	-8191	255	
21160.082	1	1	0	0	0.027522	0.14342	0.1433	0.13865	0.051557	0.17135	0.33348	0.031535	0.26607	0.31309	0.035265	0.12856	0.20414	0.066316	0.14297	0.076648	-2.3979	-2.6896	-2.8854	-2.9125	-2.8208	-2.8729	-2.9	-2.8333	-3.0542	-2.7125	-2.8937	-2.9458	-2.5958	-2.9771	-2.6896	-2.6417	104.549	149.670	-141.427	91.057	-59.846	-118.089	61.815	-126.856	-111.467	-126.777	-134.436	167.153	95.977	-157.336	-136.854	-111.553	0.00043788	0.00036803	0.00010232	1439.3	3.6405e-06	3.2544e-06	1522.9	302.13	4.3816e-06	3.7127e-06	377.69	106.19	83.867	23.743	3.1458e-06	33.311	0.00016098	6.3404e-05	1.8695e-05	1395.1	9.8974e-07	6.3128e-07	1478.3	295.55	9.4539e-07	6.3211e-07	368.4	104.27	81.639	23.564	7.1057e-07	33.146	162.820	-60.459	-78.049	-156.537	-69.544	-13.227	-156.451	-149.864	-57.972	7.443	-149.971	-143.785	-144.096	-135.339	-36.296	-136.307	-8191	255	
21160.180	1	1	0	0	0.15084	0.34721	0.080057	0.26843	0.091178	0.28103	0.2868	0.35596	0.25198	0.31127	0.071821	0.032137	0.047733	0.16857	0.0558	0.28086	-2.5229	-2.7375	-2.6396	-3.1458	-2.5792	-2.8521	-3.0396	-2.8021	-3.0292	-2.8458	-2.7188	-2.9729	-2.5938	-2.8479	-2.9417	-2.5521	109.699	-17.207	-66.587	-151.962	-54.216	-42.098	121.781	144.935	57.357	-128.898	-118.652	-66.366	-147.902	46.983	8.852	76.668	0.00045771	0.00047471	0.00010318	1410.4	4.1897e-06	3.8939e-06	1479.5	294.85	4.9674e-06	3.5695e-06	367.61	103.52	81.186	23.485	2.3944e-06	32.685	0.00015826	6.5607e-05	1.7231e-05	1369.5	9.9875e-07	6.957e-07	1440.5	286.9	9.6763e-07	5.84e-07	359.05	101.93	79.648	23.177	6.6468e-07	32.59	161.668	-73.147	-69.716	-156.536	-49.354	2.776	-156.733	-149.534	-54.889	-22.210	-150.267	-143.712	-144.356	-135.403	-47.468	-136.160	-8191	255	
21160.301	1	1	0	0	0.018855	0.10836	0.12952	0.23127	0.24918	0.13094	0.3202	0.091786	0.15367	0.073053	0.098256	0.032685	0.085966	0.15291	0.28778	0.10746	-2.4229	-2.8312	-2.6104	-3.0646	-2.7062	-3.0521	-3.0521	-2.5875	-2.8479	-2.8625	-2.8333	-3.0271	-2.675	-2.8792	-2.8375	-2.6083	62.085	-57.988	152.233	166.291	106.331	132.748	128.297	-69.576	48.094	-66.512	0.496	-38.172	9.430	147.706	179.886	97.775	0.00041136	0.00041576	0.00010303	1389.9	3.8266e-06	4.0657e-06	1460.4	290.34	4.6286e-06	2.8942e-06	364.32	103.12	81.105	23.295	2.7248e-06	32.939	0.00015665	6.1499e-05	1.7122e-05	1348.6	9.8756e-07	6.0321e-07	1423.6	283.02	9.5219e-07	6.0311e-07	355.62	101.47	79.495	23.102	7.2039e-07	32.654	161.014	-85.039	-88.655	-156.349	-58.554	-0.967	-156.740	-149.704	-48.710	-20.750	-149.633	-143.675	-143.968	-135.479	-38.812	-136.106	-8191	255	
21160.396	1	1	0	0	0.11019	0.13848	0.21267	0.3207	0.059731	0.17095	0.34342	0.19444	0.19164	0.28047	0.22482	0.10544	0.17962	0.17225	0.084763	0.19116	-2.5062	-2.7042	-2.5583	-2.9729	-2.7521	-2.9875	-3.1188	-2.7792	-3.0604	-2.8063	-2.8646	-3.0625	-2.8479	-2.7562	-2.9417	-2.7354	149.230	-32.680	-23.119	185.304	65.774	-12.372	127.740	93.763	73.457	85.131	109.312	-80.841	85.834	-145.383	150.208	143.290	0.0004414	0.00045265	8.0296e-05	1391.4	3.0582e-06	3.2046e-06	1466.1	290.96	3.634e-06	3.9186e-06	364.32	102.91	81.107	23.346	4.2886e-06	32.785	0.00015463	6.522e-05	1.5076e-05	1348.9	9.6084e-07	5.89e-07	1426.8	283.1	8.827e-07	5.8433e-07	356.63	101.42	79.542	23.129	7.2608e-07	32.593	159.656	-70.209	-70.361	-156.245	-65.563	-14.392	-156.672	-149.500	-55.650	-21.602	-149.794	-143.784	-143.958	-136.142	-32.430	-136.084	-8191	255	
21160.492	1	1	0	0	0.14968	0.070321	0.21627	0.45396	0.15742	0.084601	0.11255	0.14572	0.1595	0.063344	0.21639	0.098758	0.072516	0.13141	0.12798	0.39647	-2.55	-2.8458	-2.7271	-3.0292	-2.7542	-2.7792	-3.2667	-2.7042	-2.8479	-2.8021	-2.8875	-3.0167	-2.6708	-2.6917	-2.8896	-2.725	135.405	-24.386	157.656	-120.100	125.484	140.467	164.314	118.873	-132.237	60.430	143.164	50.836	99.170	6.143	-25.254	123.262	0.00043713	0.00041906	9.3587e-05	1389.9	3.2146e-06	2.7938e-06	1458	290.65	5.6724e-06	3.0713e-06	365.14	103.58	80.438	23.453	3.4173e-06	33.184	0.00015354	6.8703e-05	1.8062e-05	1346	1.0019e-06	5.6522e-07	1421.4	283.14	1.0081e-06	5.6785e-07	356.07	101.43	79.131	23.123	7.7419e-07	32.664	158.406	-73.321	-78.925	-156.351	-44.545	-27.550	-156.453	-149.688	-61.691	-15.734	-149.569	-143.980	-143.727	-135.722	-38.549	-135.878	-8191	255	
21160.564	1	1	0	0	0.074968	0.096671	0.065224	0.26606	0.15086	0.22781	0.2917	0.19943	0.39828	0.21698	0.29314	0.25086	0.18631	0.084648	0.19343	0.087907	-2.4396	-2.9813	-2.6521	-3.1479	-2.7458	-2.55	-2.9292	-2.7917	-2.7687	-3.0042	-2.8667	-3.0271	-2.8563	-2.6604	-3.0708	-2.7792	-98.580	-6.004	190.160	159.359	-167.297	-114.271	122.845	182.918	16.349	23.879	127.435	96.045	40.114	-145.727	171.456	-97.126	0.00043406	0.00043412	0.00013484	1387	3.8603e-06	3.6172e-06	1459.6	291.24	3.4567e-06	3.1691e-06	362.92	102.65	81.279	23.442	2.8091e-06	32.713	0.00015487	6.4148e-05	1.8279e-05	1344.8	9.1236e-07	7.3766e-07	1424	283.64	9.9852e-07	5.8828e-07	355.85	101.48	79.526	23.118	7.0266e-07	32.572	162.284	-76.247	-82.249	-156.470	-51.818	-29.134	-156.766	-149.880	-56.618	-13.913	-149.661	-143.578	-144.327	-136.009	-53.059	-135.855	-8191	255	
21160.682	1	1	0	0	0.2357	0.33486	0.084758	0.162	0.1701	0.19068	0.098929	0.10103	0.023331	0.15136	0.019706	0.054162	0.42487	0.14057	0.20524	0.13955	-2.4375	-2.7708	-2.6417	-3.0729	-2.8271	-2.7687	-3.15	-2.8417	-2.6833	-3.0333	-2.6417	-3.0708	-2.7354	-2.8229	-2.9667	-2.8354	150.717	82.370	-61.694	121.924	-60.938	-139.928	-26.085	95.444	43.255	107.413	41.328	100.514	180.028	84.589	-135.372	-81.893	0.00039199	0.00027891	0.00011142	1386.6	3.8778e-06	3.1788e-06	1465	290.17	4.8462e-06	4.4652e-06	364.4	103.29	81.149	23.452	3.355e-06	32.928	0.00015315	6.013e-05	1.8703e-05	1344	9.9564e-07	6.3987e-07	1424.7	283.32	9.9172e-07	5.7609e-07	355.32	101.58	79.567	23.185	7.5109e-07	32.727	162.357	-55.958	-92.292	-156.563	-57.320	-1.986	-156.492	-149.796	-64.201	-15.169	-150.199	-143.750	-144.266	-136.049	-25.382	-136.532	-8191	255	
21160.779	1	1	0	0	0.22674	0.28879	0.051768	0.089076	0.27779	0.013372	0.34158	0.21841	0.13788	0.12516	0.041427	0.066247	0.30621	0.29215	0.186	0.2096	-2.2604	-2.9125	-2.6688	-3.0417	-2.9708	-2.7396	-3.1417	-2.9625	-2.5542	-3.0812	-2.825	-2.9313	-2.7792	-2.5167	-2.9313	-2.7021	115.263	108.843	-84.778	17.070	130.380	-60.811	182.120	140.290	-119.092	162.897	-126.824	-48.573	-122.030	164.503	-32.388	179.636	0.00043301	0.00037473	8.3977e-05	1395.6	2.7206e-06	3.4163e-06	1467.3	292.5	4.5551e-06	2.7707e-06	365.79	104.22	81.39	23.658	3.0629e-06	33.252	0.00015791	5.6349e-05	1.6074e-05	1349.3	9.4592e-07	6.2633e-07	1429	284.36	9.3829e-07	5.7444e-07	358.03	102.46	79.686	23.372	6.5613e-07	33.022	161.906	-71.967	-78.004	-156.223	-60.305	-6.768	-156.826	-149.984	-58.009	-8.266	-149.744	-143.759	-144.077	-136.335	-27.069	-136.340	-8191	255	
21160.875	1	1	0	0	0.069537	0.043728	0.25816	0.21768	0.14515	0.2788	0.056201	0.29465	0.34874	0.2642	0.25148	0.25111	0.15702	0.13536	0.17056	0.20228	-2.1604	-2.8375	-2.6667	-2.7521	-2.6667	-2.575	-3.0563	-2.925	-2.6604	-2.9896	-2.6333	-2.8354	-3.0625	-2.7167	-2.9646	-2.9833	30.280	0.508	-163.561	-155.470	-53.612	140.431	105.225	138.408	49.146	-133.415	124.923	-145.046	170.877	-67.320	161.605	50.920	0.00039564	0.00033541	8.9758e-05	1399.7	2.3593e-06	3.089e-06	1476.7	295.92	4.1953e-06	3.4812e-06	368.45	104.4	82.304	23.581	3.5048e-06	33.175	0.00015258	6.3821e-05	1.5858e-05	1356.7	9.251e-07	6.3855e-07	1437.2	287.72	9.4694e-07	5.9751e-07	360.8	102.92	80.508	23.495	7.3146e-07	32.98	160.744	-73.352	-103.360	-156.617	-64.777	-6.679	-156.721	-149.684	-55.091	-17.698	-149.818	-143.638	-144.405	-135.442	-30.364	-136.098	-8191	255	
21160.971	1	1	0	0	0.16115	0.054314	0.17889	0.033141	0.12506	0.030753	0.022285	0.19558	0.12826	0.28298	0.3074	0.084626	0.21272	0.15043	0.053787	0.12289	-2.1896	-2.9771	-2.6979	-2.8937	-2.9021	-2.6	-2.9792	-3.0229	-2.6896	-3.0208	-2.8104	-2.7687	-3.1188	-2.6167	-2.8146	-2.9188	100.707	-159.002	-118.438	-132.974	121.301	131.362	127.110	98.339	-115.507	148.463	188.813	-139.684	-93.736	-74.627	-93.830	117.982	0.00044606	0.00025102	7.2887e-05	1406.6	4.3356e-06	3.2256e-06	1482.6	295.63	3.7435e-06	3.3828e-06	370.19	105.05	82.851	23.894	3.2724e-06	33.206	0.00015756	6.1261e-05	1.4551e-05	1360.9	9.1019e-07	6.0321e-07	1442	289.07	9.7968e-07	5.5137e-07	362.17	103.11	80.972	23.523	7.7546e-07	33.075	161.214	-78.108	-73.501	-156.823	-73.375	-12.690	-156.675	-149.867	-60.865	-5.435	-149.989	-144.031	-143.966	-135.782	-42.567	-135.999	-8191	255	
21161.066	1	1	0	0	0.19143	0.18791	0.12169	0.22636	0.1224	0.11434	0.11747	0.18261	0.11561	0.16254	0.10829	0.18737	0.059527	0.11679	0.14481	0.13689	-2.1625	-2.875	-2.8833	-2.8833	-2.9271	-2.6937	-2.8708	-3.0354	-2.5833	-3.0583	-2.9583	-2.6312	-2.9292	-2.7875	-2.6437	-3.0833	82.779	126.240	48.920	101.682	43.375	89.135	-147.983	143.883	177.657	-155.459	174.714	107.533	-70.291	113.968	154.666	187.105	0.00046177	0.00047676	0.00014033	1418.4	2.9578e-06	2.8914e-06	1491.5	297.52	3.7152e-06	3.8271e-06	370.6	105.47	83.708	23.793	3.964e-06	33.316	0.00016713	6.8881e-05	1.6798e-05	1366.8	9.8632e-07	6.521e-07	1449.7	290.99	9.2995e-07	6.3508e-07	364.33	104.05	81.379	23.628	8.6598e-07	33.202	161.008	-68.650	-87.830	-156.704	-41.247	9.469	-156.843	-149.863	-63.868	-18.761	-149.880	-143.839	-144.056	-135.807	-29.784	-136.101	-8191	255	
21161.162	1	1	0	0	0.29491	0.18311	0.3136	0.22736	0.15955	0.16931	0.26834	0.039336	0.045107	0.026934	0.066728	0.13968	0.23097	0.15823	0.21002	0.3073	-2.3396	-2.8896	-2.7396	-2.8208	-2.925	-2.6708	-2.9479	-3.0583	-2.6021	-2.9437	-3.0375	-2.8896	-3.0187	-2.8583	-2.6896	-2.9479	-57.158	47.024	-33.949	52.499	29.834	41.043	148.258	22.130	-101.201	130.887	68.349	131.179	-90.353	113.776	56.533	48.317	0.00043179	0.00036535	7.3271e-05	1422.1	3.4126e-06	3.5489e-06	1487.2	300.2	4.4998e-06	3.4436e-06	374.78	105.06	82.747	23.986	2.9263e-06	33.547	0.00015748	6.3583e-05	1.5533e-05	1374.9	9.2541e-07	6.9537e-07	1452.1	292.22	9.8215e-07	5.807e-07	365.31	103.8	81.107	23.673	8.0806e-07	33.361	162.522	-79.134	-82.593	-156.434	-43.768	-7.546	-156.622	-149.652	-55.203	-45.550	-149.980	-143.628	-144.352	-135.860	-41.001	-136.103	-8191	255	
21161.260	1	1	0	0	0.24363	0.073507	0.082518	0.21114	0.13915	0.10535	0.14184	0.13872	0.037492	0.081662	0.18037	0.21778	0.0968	0.16882	0.20878	0.20791	-2.275	-2.8979	-2.8708	-2.6771	-3.0625	-2.7917	-2.8833	-3.1146	-2.725	-2.65	-3.0625	-2.6375	-2.8146	-2.825	-2.7188	-2.8229	59.275	102.287	-108.865	97.565	74.731	-131.157	-155.542	127.015	-146.555	124.965	8.853	33.333	-151.930	-162.529	39.476	129.980	0.00042099	0.00051709	0.00011274	1420.9	4.3293e-06	4.1672e-06	1495.2	301	2.7657e-06	3.6178e-06	373.67	105.57	82.565	23.949	3.8001e-06	33.391	0.00016235	6.4178e-05	1.6199e-05	1376.7	9.6705e-07	6.1179e-07	1458.1	293	9.7968e-07	5.7675e-07	366.07	104.23	81.339	23.712	7.6913e-07	33.284	162.275	-64.514	-92.028	-156.271	-38.569	-9.647	-156.761	-149.826	-51.287	2.022	-149.705	-143.970	-144.150	-136.058	-31.894	-136.360	-8191	255	
21161.381	1	1	0	0	0.33926	0.24694	0.25611	0.30253	0.22769	0.14376	0.34139	0.066427	0.055282	0.12997	0.40873	0.35432	0.13243	0.26645	0.11093	0.17918	-2.175	-2.6583	-2.9292	-2.8	-2.8708	-2.8417	-2.9083	-2.9458	-2.6708	-2.8271	-2.9792	-2.8063	-3.05	-2.7062	-2.6813	-2.9708	-54.950	162.155	110.577	143.318	6.509	156.984	87.053	168.256	-70.166	-59.959	79.620	133.666	-12.939	140.200	-83.304	-85.673	0.00044138	0.0004349	8.5568e-05	1421.9	4.1752e-06	3.339e-06	1503.6	301.46	3.3971e-06	3.6028e-06	374.57	106.08	83.701	24.089	4.1103e-06	33.349	0.00016211	6.1588e-05	1.6565e-05	1378.9	9.2821e-07	6.2633e-07	1461.6	293.31	9.1667e-07	6.5353e-07	366.17	104.31	81.662	23.722	8.5079e-07	33.373	159.800	-71.157	-72.995	-156.494	-62.889	-10.252	-156.652	-149.922	-54.832	-18.295	-149.662	-143.886	-144.351	-135.819	-23.606	-136.522	-8191	255	
21161.477	1	1	0	0	0.045889	0.07129	0.13735	0.32009	0.16852	0.090066	0.29914	0.28422	0.16517	0.18285	0.093623	0.084355	0.13461	0.096962	0.082036	0.0029198	-2.4688	-2.7708	-2.9188	-2.95	-2.8521	-2.9542	-2.775	-3.0771	-2.7521	-2.8063	-3.1042	-2.6792	-2.8771	-2.7208	-2.5479	-2.9375	-59.242	167.582	149.609	138.736	10.731	188.307	109.511	86.237	-84.534	65.383	127.200	100.984	-85.220	10.100	-4.146	-124.082	0.0004309	0.00038781	9.8298e-05	1417.5	4.2538e-06	3.2915e-06	1509.1	301.42	4.1028e-06	3.8056e-06	377.28	106.57	83.57	23.864	3.04e-06	33.653	0.00015421	5.9653e-05	1.5708e-05	1381.2	1.0165e-06	6.0552e-07	1467	294.45	1.0143e-06	6.3739e-07	368.42	104.67	81.983	23.727	7.5837e-07	33.419	159.817	-59.733	-88.056	-156.310	-35.379	-8.521	-156.653	-149.739	-64.513	-16.128	-149.926	-144.354	-144.291	-135.920	-14.988	-136.382	-8191	255	
21161.572	1	1	0	0	0.13068	0.25668	0.15348	0.3113	0.13644	0.098459	0.33076	0.082817	0.15467	0.25369	0.07377	0.090143	0.21953	0.27219	0.10836	0.33341	-2.3063	-2.625	-3.0958	-2.7583	-2.8854	-2.8438	-2.9396	-3.1083	-2.7729	-2.7625	-3.0438	-2.6937	-2.9	-3.0083	-2.5792	-3.2667	-102.877	40.876	186.078	144.007	177.908	115.924	154.409	124.262	-9.237	68.942	-46.977	52.143	73.998	-117.838	106.443	60.927	0.00044833	0.00025071	8.9803e-05	1430.3	3.2985e-06	3.2875e-06	1504.9	303.68	3.9376e-06	4.1546e-06	379.09	106.64	83.893	24.183	2.3396e-06	33.669	0.00016191	6.0427e-05	1.5325e-05	1388.9	9.7296e-07	5.7942e-07	1469.6	296.02	9.7782e-07	6.3475e-07	369.16	104.93	81.985	23.867	7.0108e-07	33.544	161.835	-77.798	-90.639	-156.510	-52.097	-6.117	-156.750	-149.885	-64.999	-10.015	-149.967	-144.003	-143.738	-135.951	-41.228	-136.281	-8191	255	
21161.668	1	1	0	0	0.22362	0.021544	0.10373	0.16513	0.3213	0.16921	0.27753	0.20613	0.17194	0.096772	0.1295	0.19749	0.20652	0.23934	0.21652	0.10321	-2.2729	-2.6167	-2.9021	-2.6396	-2.7875	-2.9104	-2.8063	-2.8833	-3.0583	-2.5958	-2.9396	-2.7417	-2.7375	-3.0083	-2.4813	-2.725	-77.841	91.809	-161.183	-91.519	28.900	-117.601	154.435	45.837	22.447	5.277	-157.448	116.393	-130.460	49.334	-111.129	87.951	0.00045532	0.00030531	7.4998e-05	1434.8	3.8837e-06	3.6775e-06	1514.9	302.91	4.453e-06	3.4883e-06	374.53	106.81	83.629	24.185	3.9071e-06	33.87	0.0001538	5.8046e-05	1.7547e-05	1390.3	1.0043e-06	5.9825e-07	1474.4	296.03	9.0648e-07	6.4464e-07	368.44	105.04	82.242	23.852	7.5077e-07	33.53	162.905	-70.509	-74.553	-156.504	-46.484	7.340	-156.449	-149.819	-44.777	-16.070	-149.903	-144.250	-144.236	-135.746	-31.519	-136.395	-8191	255	
21161.787	1	1	0	0	0.057197	0.25203	0.14703	0.19693	0.13669	0.10737	0.16599	0.20683	0.15263	0.2713	0.22943	0.2075	0.20916	0.16097	0.2867	0.19272	-2.4833	-2.475	-2.8958	-2.9708	-2.7042	-3.1604	-2.6708	-3.0021	-2.8875	-2.6354	-3.0812	-2.7917	-2.6625	-3.1813	-2.7104	-3.1417	59.596	-120.474	-94.713	-166.869	23.957	-145.445	74.355	-93.309	-141.650	-36.838	74.342	-13.680	191.669	-141.105	95.139	66.410	0.00041776	0.00033954	0.0001354	1434.4	3.4866e-06	2.8212e-06	1512.1	304.82	4.3561e-06	4.7067e-06	380.5	106.58	84.01	24.154	2.7167e-06	33.649	0.00015591	6.3434e-05	1.7289e-05	1392.7	9.54e-07	5.6026e-07	1474.1	296.29	9.4478e-07	6.3014e-07	370.41	105.05	82.293	23.92	7.0045e-07	33.525	163.285	-71.073	-66.733	-156.490	-53.577	-13.888	-156.664	-149.727	-72.652	-28.550	-149.705	-143.869	-144.388	-136.226	-35.715	-136.174	-8191	255	
21161.859	1	1	0	0	0.04096	0.15131	0.23242	0.24228	0.0099021	0.41343	0.20924	0.13153	0.094554	0.045564	0.080201	0.24361	0.12905	0.16179	0.093862	0.31941	-2.5	-2.6625	-3.1208	-2.8187	-2.7917	-3.0042	-2.8083	-3.0083	-2.9479	-2.6688	-3.0146	-2.8833	-2.8208	-2.95	-2.7438	-2.7458	-28.243	-47.087	41.602	172.327	-162.618	8.241	116.541	153.689	38.732	35.720	7.469	103.262	119.166	163.137	95.441	179.580	0.00042557	0.00032872	9.6579e-05	1443.3	2.1928e-06	3.5643e-06	1515.1	304.86	4e-06	4.1497e-06	378.34	107.45	84.966	24.08	3.4982e-06	33.721	0.00015565	6.1737e-05	1.3595e-05	1398.1	9.279e-07	5.9924e-07	1476.9	296.79	9.6979e-07	6.0476e-07	371.05	105.38	82.551	23.876	7.628e-07	33.679	160.210	-68.465	-78.499	-156.500	-62.069	-8.447	-156.980	-149.918	-56.709	3.622	-149.871	-143.877	-144.344	-135.972	-36.737	-136.577	-8191	255	
21161.980	1	1	0	0	0.267	0.19067	0.19224	0.16437	0.018886	0.11123	0.14164	0.42687	0.064007	0.35655	0.16968	0.27541	0.30564	0.25582	0.25353	0.086555	-2.4896	-2.7	-2.6708	-2.8688	-2.7208	-2.7979	-3.0167	-2.8667	-2.9833	-2.7208	-2.9979	-2.9188	-2.625	-3	-2.8667	-2.6667	169.395	178.866	-57.151	-154.076	-109.968	-114.321	160.740	-160.888	-89.208	-151.736	-86.450	152.159	-106.632	24.934	183.530	21.931	0.00042801	0.00031704	9.7452e-05	1439.2	2.5286e-06	4.6457e-06	1515.5	305.7	4.1677e-06	3.4334e-06	378.07	106.94	84.034	24.245	2.8567e-06	33.903	0.00015545	6.263e-05	1.6465e-05	1395.6	1.0559e-06	6.9438e-07	1476.6	297.02	9.247e-07	5.6323e-07	370.96	105.5	82.261	23.956	7.3495e-07	33.617	159.782	-70.957	-74.206	-156.658	-35.397	-11.737	-156.787	-150.041	-57.821	-19.237	-150.010	-143.925	-144.276	-135.726	-29.390	-136.326	-8191	255	
21162.076	1	1	0	0	0.13357	0.22573	0.26262	0.068669	0.081937	0.42075	0.24041	0.40781	0.15462	0.087071	0.071769	0.19159	0.054878	0.15451	0.09362	0.18161	-2.4917	-2.4813	-2.7917	-3.0125	-2.6792	-2.9604	-3.1083	-2.6312	-2.9958	-2.6792	-2.8646	-3.025	-2.6646	-3.0021	-2.8187	-2.6125	-148.938	-68.901	108.460	85.958	-119.651	-156.270	74.110	130.717	-95.508	14.427	143.090	172.189	-150.886	80.477	-115.448	129.756	0.00041933	0.00040469	0.00011739	1437.7	2.8954e-06	3.5529e-06	1516.7	304.99	4.3392e-06	5.3921e-06	377.48	107.42	83.533	24.27	3.063e-06	33.658	0.00015378	6.4118e-05	1.7513e-05	1396.4	1.0015e-06	6.1246e-07	1477.6	297.35	9.9543e-07	6.9144e-07	370.71	105.39	81.97	23.942	6.9095e-07	33.55	160.466	-75.562	-91.006	-156.374	-43.173	-14.793	-156.842	-149.908	-54.936	-1.475	-149.993	-143.834	-144.232	-136.094	-49.695	-136.295	-8191	255	
21162.172	1	1	0	0	0.20735	0.24793	0.045915	0.17594	0.25866	0.14088	0.19266	0.33185	0.14305	0.14482	0.1307	0.1615	0.32728	0.20029	0.12624	0.21889	-2.3646	-2.6229	-2.7083	-3.1562	-2.6021	-2.9542	-3.0396	-2.5479	-3.025	-2.8021	-2.9083	-2.975	-2.5979	-2.8854	-2.8229	-2.6896	-129.187	-110.505	-86.357	-150.696	67.919	-107.070	145.707	156.646	104.416	-131.428	70.066	163.931	127.441	53.304	-103.796	-143.988	0.0004516	0.00035749	0.00011547	1442.4	3.5465e-06	3.0728e-06	1513.5	305.18	3.4804e-06	4.5342e-06	379.87	106.77	84.615	24.343	3.4283e-06	33.847	0.00016185	6.65e-05	1.6515e-05	1396.9	9.3318e-07	5.8041e-07	1477.5	297.53	8.8393e-07	6.0014e-07	371.32	105.38	82.604	23.97	7.0741e-07	33.66	163.624	-72.289	-75.258	-156.565	-56.608	1.416	-156.530	-149.854	-76.263	-3.765	-149.940	-143.962	-144.544	-136.346	-55.148	-136.269	-8191	255	
21162.268	1	1	0	0	0.22667	0.098812	0.311	0.25984	0.16441	0.1114	0.43942	0.26792	0.11698	0.14186	0.16674	0.16474	0.20237	0.32644	0.21233	0.036584	-2.5604	-2.7875	-2.6417	-3.1604	-2.7833	-2.825	-3.1688	-2.7604	-2.9208	-2.6917	-2.7479	-3.0125	-2.6396	-2.875	-2.9125	-2.5208	-15.472	-88.243	-26.143	123.313	-41.873	189.990	150.650	177.270	-37.182	180.710	76.088	151.332	110.376	168.440	117.074	110.914	0.00047991	0.00044543	0.00010806	1442	2.3225e-06	4.5541e-06	1524.7	304.53	4.3452e-06	4.1261e-06	379.62	107.36	83.347	24.18	3.0873e-06	33.758	0.00016233	6.1737e-05	1.6407e-05	1398.2	9.7793e-07	6.3987e-07	1479.9	297.28	9.2439e-07	6.8089e-07	371.35	105.46	82.298	23.891	6.3429e-07	33.619	161.083	-68.599	-84.688	-156.413	-51.253	-13.882	-156.735	-149.640	-63.961	-0.498	-149.995	-143.921	-144.151	-136.091	-39.755	-136.121	-8191	255	
21162.389	1	1	0	0	0.26398	0.12898	0.096765	0.29906	0.34492	0.17918	0.22648	0.25658	0.17159	0.11335	0.11444	0.071079	0.071071	0.20405	0.050317	0.23066	-2.5021	-2.825	-2.725	-3.1375	-2.6583	-2.7896	-3.2687	-2.7604	-2.9	-2.8896	-2.6917	-2.9375	-2.6875	-2.875	-3.025	-2.7062	-107.024	191.702	-5.797	132.271	-143.902	192.184	80.270	85.856	94.167	-11.993	159.885	72.464	-112.102	-86.905	60.324	-87.936	0.00040813	0.00031927	9.8879e-05	1443.8	4.5782e-06	2.9977e-06	1517.7	304.81	4.4016e-06	4.3962e-06	381.87	106.88	84.751	24.074	3.9005e-06	34.114	0.00015419	5.6409e-05	1.5675e-05	1400	9.512e-07	6.2699e-07	1480.9	297.51	8.7529e-07	6.2157e-07	371.5	105.27	82.55	23.924	7.4096e-07	33.852	160.585	-83.404	-87.960	-156.654	-54.423	-25.317	-156.889	-149.708	-50.246	-0.775	-149.768	-143.928	-144.295	-135.694	-33.050	-136.468	-8191	255	
21162.461	1	1	0	0	0.27842	0.085738	0.10115	0.21621	0.035748	0.10652	0.077277	0.067282	0.14005	0.18285	0.28837	0.12077	0.085449	0.034996	0.12489	0.10498	-2.5479	-2.8875	-2.5896	-3.2229	-2.6167	-2.6854	-3.1479	-2.7854	-2.9458	-2.8688	-2.8458	-3.0646	-2.8812	-2.825	-3.0604	-2.7708	49.278	131.911	143.955	174.076	56.530	-68.308	125.877	-162.147	-30.998	-19.488	35.682	-38.055	17.987	-48.442	159.682	34.661	0.00045593	0.000396	0.00011761	1442.3	3.5589e-06	3.6757e-06	1522.5	304.97	5.3399e-06	5.4995e-06	381.48	107.3	84.026	24.253	2.6178e-06	33.75	0.00015924	6.6172e-05	1.9169e-05	1397.4	9.2666e-07	6.0783e-07	1481.9	297.19	9.7504e-07	6.3211e-07	371.23	105.5	82.194	23.985	7.8527e-07	33.658	162.910	-55.658	-79.954	-156.671	-45.493	-5.497	-156.607	-149.882	-62.765	-25.251	-149.768	-143.738	-144.039	-135.878	-39.554	-136.309	-8191	255	
21162.557	1	1	0	0	0.11279	0.090386	0.12527	0.4112	0.10355	0.16612	0.097244	0.16392	0.21593	0.11813	0.23972	0.1786	0.13205	0.091938	0.21837	0.28384	-2.4521	-3.0312	-2.6083	-3.0646	-2.7625	-2.7021	-3.275	-2.6792	-2.825	-3.1104	-2.6896	-3	-2.6375	-2.5375	-3.0229	-2.8333	162.055	-50.046	-114.395	119.735	86.191	-103.349	-118.126	-139.310	37.947	162.061	-116.663	-18.604	24.953	-103.868	69.133	190.943	0.00046358	0.00044829	9.0637e-05	1441.3	3.4807e-06	3.7503e-06	1526.3	305.03	4.8529e-06	4.0757e-06	380.26	107.04	84.483	24.167	3.0948e-06	33.764	0.00016472	5.9624e-05	1.5067e-05	1401.1	9.8912e-07	7.2543e-07	1482.5	297.81	9.1791e-07	5.9092e-07	371.24	105.4	82.567	23.906	6.5867e-07	33.681	160.808	-85.832	-72.017	-156.723	-52.050	-11.977	-156.698	-149.774	-63.167	-2.571	-150.208	-144.050	-144.020	-135.666	-47.510	-136.366	-8191	255	
21162.652	1	1	0	0	0.22026	0.16276	0.064847	0.11521	0.28295	0.1419	0.12029	0.18914	0.084705	0.24504	0.16038	0.069717	0.15527	0.29405	0.15304	0.036327	-2.1917	-2.9729	-2.5521	-3.1542	-2.9292	-2.7042	-3.1	-2.8354	-2.6437	-2.9521	-2.7646	-2.9646	-2.8563	-2.6875	-3.0438	-2.6958	167.430	16.642	-148.898	-32.350	-59.904	34.249	144.665	140.525	72.813	-2.765	149.108	-84.009	125.307	174.243	-81.908	-7.764	0.00043506	0.00032424	0.00010458	1446.2	3.5184e-06	3.5518e-06	1526.6	305.82	3.5174e-06	5.1318e-06	382.26	107.12	84.366	24.1	3.7131e-06	33.891	0.00015713	5.9237e-05	1.6848e-05	1402.1	8.6855e-07	6.2402e-07	1483.2	297.93	9.1358e-07	6.0476e-07	372.5	105.43	82.288	23.942	7.7673e-07	33.711	161.145	-72.266	-84.027	-156.576	-50.418	-8.459	-156.536	-150.115	-55.145	-4.879	-149.782	-144.102	-144.053	-136.199	-25.598	-136.670	-8191	255	
21162.748	1	1	0	0	0.11227	0.042828	0.1574	0.21018	0.21716	0.11159	0.12347	0.06075	0.091107	0.15966	0.21174	0.31049	0.18741	0.16436	0.10505	0.12443	-2.15	-2.8937	-2.5583	-2.8729	-2.7708	-2.5458	-3.0958	-2.8292	-2.7562	-3.0042	-2.8417	-2.8438	-2.8021	-2.4896	-2.8729	-2.6354	34.873	-153.825	138.247	-154.131	31.884	190.222	189.724	156.413	-139.229	182.528	-164.052	122.260	68.675	-115.805	-18.464	31.392	0.00043577	0.00042718	9.3641e-05	1443.5	4.3129e-06	3.765e-06	1526.7	305.84	4.2775e-06	3.0594e-06	381.03	107.4	84.918	24.291	3.6854e-06	33.817	0.00015883	6.5994e-05	1.6815e-05	1403.1	1.0149e-06	6.5375e-07	1484.7	298.21	9.7226e-07	6.242e-07	371.71	105.5	82.847	23.97	7.6628e-07	33.642	157.475	-72.475	-91.102	-156.332	-63.189	-10.911	-156.928	-149.947	-49.619	4.265	-149.718	-143.935	-143.796	-136.020	-30.905	-136.287	-8191	255	
21162.867	1	1	0	0	0.12886	0.18603	0.072691	0.50088	0.15205	0.22611	0.18269	0.10991	0.18837	0.22906	0.13206	0.24998	0.11604	0.079876	0.13647	0.16491	-2.1667	-2.8208	-2.7313	-2.8979	-2.9271	-2.6083	-3.1229	-2.7083	-2.6917	-2.8937	-2.7667	-2.8542	-2.8167	-2.7104	-3.0167	-2.7542	53.201	131.835	9.802	-163.826	185.486	67.839	178.123	122.464	-151.525	189.365	122.446	120.807	-25.198	-138.731	-8.426	73.679	0.00043648	0.00040111	0.0001041	1446.6	3.3594e-06	3.9026e-06	1519.2	305.88	4.5067e-06	2.8244e-06	380.66	107.95	83.46	24.321	3.6522e-06	33.744	0.00016446	6.0338e-05	1.7039e-05	1404.6	1.013e-06	6.0618e-07	1484.5	298.11	9.9944e-07	5.9355e-07	372.15	105.75	82.716	24.006	7.647e-07	33.741	163.311	-72.869	-77.456	-156.419	-69.138	-23.520	-156.877	-149.986	-58.564	-23.717	-149.903	-144.010	-144.034	-135.685	-22.539	-136.482	-8191	255	
21162.965	1	1	0	0	0.12404	0.029441	0.14174	0.17045	0.1042	0.11173	0.22616	0.24295	0.13	0.096034	0.018773	0.19616	0.23859	0.14542	0.28016	0.20469	-2.2083	-2.8125	-2.7271	-2.8917	-2.9375	-2.7354	-3.0708	-2.8479	-2.4813	-3.1104	-2.9813	-2.8521	-2.8688	-2.6792	-2.8729	-3.0271	-147.311	112.689	-28.318	94.267	-106.324	-154.667	141.883	139.906	39.871	166.207	-36.852	-117.799	161.065	148.381	138.133	-96.436	0.00044188	0.00030473	0.00012213	1452.5	3.235e-06	3.9686e-06	1527.2	305.75	4.4563e-06	3.0716e-06	381.58	107.32	84.736	24.249	3.2323e-06	33.926	0.00016433	5.6468e-05	1.6815e-05	1404.3	8.6575e-07	6.2402e-07	1486.7	297.96	9.8122e-07	6.0344e-07	372.71	105.74	82.597	24.035	6.7354e-07	33.788	162.149	-72.038	-69.140	-156.478	-63.500	-28.845	-156.814	-150.003	-45.133	9.094	-150.042	-143.755	-143.914	-136.280	-42.324	-136.313	-8191	255	
21163.061	1	1	0	0	0.21761	0.22299	0.15541	0.25502	0.17093	0.22799	0.23148	0.18403	0.20499	0.16495	0.29218	0.077087	0.05139	0.14656	0.089056	0.12793	-2.1813	-2.9437	-2.8125	-2.9667	-3.0375	-2.6896	-3.0708	-2.9146	-2.7667	-2.9604	-2.9125	-2.8125	-2.9125	-2.7896	-2.7354	-3.0479	36.201	189.728	166.645	180.026	-71.626	-160.161	-55.273	120.724	170.656	68.993	112.491	-160.413	19.284	-78.230	103.339	-2.774	0.00045799	0.00029473	0.00011136	1448.8	3.2908e-06	2.3684e-06	1529.1	305.84	5.5984e-06	3.5987e-06	381.14	107.82	84.311	24.166	2.6732e-06	33.982	0.00016555	6.1558e-05	1.6016e-05	1407.2	9.77e-07	5.3879e-07	1488.2	298.26	1.0242e-06	6.2585e-07	372.22	105.76	82.702	24.027	7.7261e-07	33.711	163.414	-80.646	-73.600	-156.715	-41.964	8.174	-156.737	-150.009	-58.381	1.451	-150.056	-144.417	-144.141	-136.486	-53.280	-136.399	-8191	255	
21163.156	1	1	0	0	0.063757	0.021487	0.063192	0.20966	0.11082	0.045423	0.2374	0.069556	0.22055	0.080594	0.1639	0.20391	0.26907	0.26559	0.23289	0.13623	-2.1854	-2.9792	-2.8063	-2.6979	-3.0729	-2.7479	-3.0312	-3.2938	-2.4729	-2.9208	-3.0292	-2.7417	-2.9708	-2.8458	-2.7896	-3.0521	182.978	-51.627	-36.368	-157.638	47.384	-36.021	114.349	187.527	104.940	-75.095	159.452	167.101	182.871	-135.111	67.583	15.595	0.00043637	0.00035762	0.00011425	1450.8	3.3746e-06	4.3183e-06	1529.3	307.25	4.3801e-06	4.0063e-06	379.53	107.66	84.862	24.345	3.2926e-06	34.047	0.00015687	6.1201e-05	1.6049e-05	1407.8	9.2976e-07	6.2303e-07	1489.9	299.07	9.7937e-07	5.6917e-07	372.22	106	82.81	24.06	7.3685e-07	33.819	159.829	-62.395	-87.012	-156.689	-56.200	7.505	-156.710	-150.097	-49.844	-1.747	-149.876	-143.982	-144.401	-136.299	-34.441	-136.328	-8191	255	
21163.252	1	1	0	0	0.034902	0.19273	0.16184	0.045824	0.14222	0.12562	0.099226	0.22175	0.036681	0.2458	0.20162	0.19425	0.18831	0.11316	0.18154	0.0082858	-2.2438	-2.9188	-2.9354	-2.75	-2.9417	-2.8063	-2.9062	-2.95	-2.7479	-2.8375	-3.0292	-2.7979	-2.9042	-2.8312	-2.7771	-2.9083	107.093	90.808	154.020	-27.169	50.809	-148.098	-140.882	128.215	62.856	-95.026	127.996	8.030	179.839	49.536	32.150	-164.031	0.00041012	0.00036636	0.00012089	1456.3	4.0638e-06	3.6878e-06	1535	306.18	4.3472e-06	3.2565e-06	379.72	107.15	84.993	24.08	3.7143e-06	34.08	0.00016211	6.0011e-05	1.7031e-05	1409.9	9.8477e-07	6.1444e-07	1492.5	298.73	9.874e-07	5.6653e-07	372.83	105.67	82.876	23.888	7.3431e-07	33.799	164.443	-74.443	-75.139	-156.464	-36.154	-19.065	-156.805	-149.610	-70.146	-18.115	-149.821	-144.153	-144.133	-136.266	-23.357	-136.957	-8191	255	
21163.348	1	1	0	0	0.14296	0.12103	0.14518	0.26036	0.20423	0.073189	0.43972	0.19462	0.042637	0.33801	0.047553	0.29142	0.029089	0.25022	0.011846	0.35472	-2.1958	-2.6521	-2.7	-2.8625	-2.8375	-2.7875	-2.8604	-3.0687	-2.6792	-2.75	-2.9979	-2.8979	-2.8167	-3.0875	-2.6604	-2.8958	-147.623	88.567	-12.732	113.042	145.477	-148.310	116.015	151.983	147.010	-145.091	53.623	-122.836	13.623	-157.664	-88.302	61.365	0.00045396	0.0002635	8.802e-05	1455.8	4.1468e-06	4.8147e-06	1525.3	307.32	4.5454e-06	3.6146e-06	379.28	107.94	85.017	24.357	3.1374e-06	33.969	0.00015991	5.8314e-05	1.5433e-05	1409.2	1.0945e-06	6.2732e-07	1488.7	298.96	9.7381e-07	5.8433e-07	371.88	106.09	82.845	24.079	7.6438e-07	33.826	159.825	-89.979	-71.530	-156.493	-61.694	-13.256	-156.854	-149.893	-64.987	-19.217	-150.071	-143.383	-144.279	-136.566	-21.105	-136.453	-8191	255	
21163.469	1	1	0	0	0.22097	0.16903	0.09319	0.21522	0.094729	0.19602	0.47509	0.037997	0.12738	0.083208	0.014595	0.23462	0.075319	0.12329	0.10211	0.17144	-2.3625	-2.6375	-3.0083	-2.8563	-2.8854	-3.0062	-2.8083	-2.9958	-2.85	-2.8187	-3.1667	-2.625	-2.7729	-2.9458	-2.6792	-2.9042	152.729	-114.982	175.223	135.806	157.316	128.932	129.012	4.160	-20.364	-92.313	110.201	-155.894	-43.729	114.627	-36.693	87.410	0.00042943	0.0003655	9.5149e-05	1457.5	4.2982e-06	3.8268e-06	1535	306.32	3.8058e-06	3.8326e-06	380.19	108.02	84.679	24.251	3.7075e-06	34.165	0.00015961	6.4595e-05	1.6157e-05	1411.4	1.013e-06	5.6257e-07	1495	299.29	1.0606e-06	5.7707e-07	373.87	106.38	83.023	24.102	8.1091e-07	33.945	160.715	-63.122	-79.447	-156.576	-45.794	-10.105	-156.859	-149.736	-53.590	-24.671	-149.868	-143.914	-144.158	-135.598	-28.060	-136.495	-8191	255	
21163.564	1	1	0	0	0.20575	0.083539	0.20904	0.26811	0.045292	0.12888	0.34011	0.042852	0.22152	0.1302	0.13588	0.044523	0.18478	0.21863	0.35137	0.068181	-2.3187	-2.675	-3.1813	-2.8104	-2.8125	-2.8833	-2.7292	-3.0625	-2.7729	-2.5812	-2.8958	-2.6833	-2.8063	-3.1042	-2.5667	-2.9562	100.179	88.407	-1.600	47.731	-125.252	-30.431	105.214	-165.375	94.765	-42.626	-146.074	98.200	83.511	-103.525	7.764	-110.126	0.00044814	0.00045384	9.8623e-05	1456.2	4.1379e-06	4.1874e-06	1535.2	305.8	4.4917e-06	4.1949e-06	381.83	108.18	85.501	24.516	4.1546e-06	34.12	0.00016135	6.6976e-05	1.5109e-05	1414	1.0659e-06	5.4275e-07	1495.2	299.7	9.3767e-07	6.1761e-07	374.33	106.23	83.354	24.052	7.5141e-07	33.938	160.781	-65.574	-65.226	-156.262	-34.549	-7.840	-156.787	-149.782	-51.980	-19.393	-149.719	-143.924	-144.126	-136.243	-47.840	-136.395	-8191	255	
21163.660	1	1	0	0	0.19533	0.1903	0.17231	0.20724	0.10348	0.017159	0.24264	0.10003	0.19488	0.030787	0.10976	0.1639	0.11826	0.10098	0.058294	0.099869	-2.5729	-2.7146	-2.6917	-2.925	-2.8417	-2.7333	-2.7146	-2.9771	-2.8042	-2.4896	-2.8979	-2.85	-2.6396	-3.0146	-2.6396	-2.8896	-119.746	-143.396	-7.910	171.553	130.379	-155.527	128.283	191.621	60.565	145.431	174.032	159.651	-112.342	-107.790	138.409	182.908	0.00043154	0.00040048	8.0583e-05	1456.2	3.3998e-06	3.1762e-06	1539.3	307.34	4.5759e-06	3.4944e-06	382.97	107.81	85.147	24.434	3.3436e-06	33.85	0.00016004	6.3047e-05	1.4776e-05	1411.9	9.7358e-07	5.999e-07	1496	299.76	9.3644e-07	6.1333e-07	373.29	106.21	82.965	24.118	7.2735e-07	33.761	162.736	-73.834	-76.140	-156.587	-59.086	-2.477	-156.862	-149.975	-65.313	-11.128	-149.899	-143.985	-144.348	-136.559	-21.729	-136.487	-8191	255	
21163.756	1	1	0	0	0.18274	0.38881	0.17802	0.032863	0.082606	0.053813	0.13538	0.080837	0.26986	0.10567	0.067652	0.096518	0.14514	0.11435	0.17055	0.21855	-2.3229	-2.5375	-3.0229	-2.8104	-2.7229	-2.925	-2.8937	-2.8063	-2.7521	-2.6354	-3.1437	-3.0042	-2.7125	-3.1958	-2.6771	-2.8458	-62.598	140.314	-113.430	108.046	-166.356	112.339	137.238	97.236	130.316	31.018	-25.260	-108.191	-101.968	157.754	134.512	-77.624	0.00044897	0.00042254	0.00011385	1461.8	3.1803e-06	3.2717e-06	1539.3	308.36	5.1228e-06	4.3929e-06	384.34	108.65	84.886	24.463	3.559e-06	34.335	0.00015776	6.4922e-05	1.6839e-05	1417.4	9.5369e-07	5.5233e-07	1499.3	299.56	9.4385e-07	6.5156e-07	375.09	106.69	83.164	24.232	7.6786e-07	33.919	162.231	-72.692	-70.573	-156.521	-62.339	-10.249	-156.716	-149.842	-46.783	0.254	-149.665	-144.064	-144.075	-136.183	-28.878	-136.713	-8191	255	
#DATA ENDS
