BOXY.EXE: ISS Imagent and Oximeter Data Acquisition Program Version 0.80
Ascii Record File

#ACQ INFORMATION
2  Detector Channels 
16  External MUX Channels 
1  Auxiliary Channels 
5000  Waveform (CCF) Frequency (Hz)
1  Waveforms Skipped 
30  Waveforms Averaged 
1  Cycles Averaged 
16  Acquisitions per Waveform 
10.0806  Updata Rate (Hz) 

#FILE INFORMATION
TRUE -- External MUX Channel results are PARSED.
FALSE -- AC DC and Phase are NOT grouped.
TRUE -- Companion Program Settings File CREATED.
FALSE -- AC data not excluded
FALSE -- DC data not excluded
FALSE -- Phase data not excluded
FALSE -- Auxillary Chn. data not excluded
Tab delimiters

#CALIBRATION STATE
TRUE -- Waveform Calibration Values APPLIED.


#AUX CALIBRATION VALUES
Val Type	aux-1	

Term	1.0000e+00	
Factor	0.0000e+00	


#WF CALIBRATION VALUES
A = Detector Channel
Val Type	A-AC1	A-AC2	A-AC3	A-AC4	A-AC5	A-AC6	A-AC7	A-AC8	A-AC9	A-AC10	A-AC11	A-AC12	A-AC13	A-AC14	A-AC15	A-AC16	A-DC1	A-DC2	A-DC3	A-DC4	A-DC5	A-DC6	A-DC7	A-DC8	A-DC9	A-DC10	A-DC11	A-DC12	A-DC13	A-DC14	A-DC15	A-DC16	A-Ph1	A-Ph2	A-Ph3	A-Ph4	A-Ph5	A-Ph6	A-Ph7	A-Ph8	A-Ph9	A-Ph10	A-Ph11	A-Ph12	A-Ph13	A-Ph14	A-Ph15	A-Ph16	

Term	0.00000e+00	0.00000e+00	0.00000e+00	0.00000e+00	0.00000e+00	0.00000e+00	0.00000e+00	0.00000e+00	0.00000e+00	0.00000e+00	0.00000e+00	0.00000e+00	0.00000e+00	0.00000e+00	0.00000e+00	0.00000e+00	0.00000e+00	0.00000e+00	0.00000e+00	0.00000e+00	0.00000e+00	0.00000e+00	0.00000e+00	0.00000e+00	0.00000e+00	0.00000e+00	0.00000e+00	0.00000e+00	0.00000e+00	0.00000e+00	0.00000e+00	0.00000e+00	0.00000e+00	0.00000e+00	0.00000e+00	0.00000e+00	0.00000e+00	0.00000e+00	0.00000e+00	0.00000e+00	0.00000e+00	0.00000e+00	0.00000e+00	0.00000e+00	0.00000e+00	0.00000e+00	0.00000e+00	0.00000e+00	
Factor	1.00000e+00	1.00000e+00	1.00000e+00	1.00000e+00	1.00000e+00	1.00000e+00	1.00000e+00	1.00000e+00	1.00000e+00	1.00000e+00	1.00000e+00	1.00000e+00	1.00000e+00	1.00000e+00	1.00000e+00	1.00000e+00	1.00000e+00	1.00000e+00	1.00000e+00	1.00000e+00	1.00000e+00	1.00000e+00	1.00000e+00	1.00000e+00	1.00000e+00	1.00000e+00	1.00000e+00	1.00000e+00	1.00000e+00	1.00000e+00	1.00000e+00	1.00000e+00	X	X	X	X	X	X	X	X	X	X	X	X	X	X	X	X	

B = Detector Channel
Val Type	B-AC1	B-AC2	B-AC3	B-AC4	B-AC5	B-AC6	B-AC7	B-AC8	B-AC9	B-AC10	B-AC11	B-AC12	B-AC13	B-AC14	B-AC15	B-AC16	B-DC1	B-DC2	B-DC3	B-DC4	B-DC5	B-DC6	B-DC7	B-DC8	B-DC9	B-DC10	B-DC11	B-DC12	B-DC13	B-DC14	B-DC15	B-DC16	B-Ph1	B-Ph2	B-Ph3	B-Ph4	B-Ph5	B-Ph6	B-Ph7	B-Ph8	B-Ph9	B-Ph10	B-Ph11	B-Ph12	B-Ph13	B-Ph14	B-Ph15	B-Ph16	

Term	0.00000e+00	0.00000e+00	0.00000e+00	0.00000e+00	0.00000e+00	0.00000e+00	0.00000e+00	0.00000e+00	0.00000e+00	0.00000e+00	0.00000e+00	0.00000e+00	0.00000e+00	0.00000e+00	0.00000e+00	0.00000e+00	0.00000e+00	0.00000e+00	0.00000e+00	0.00000e+00	0.00000e+00	0.00000e+00	0.00000e+00	0.00000e+00	0.00000e+00	0.00000e+00	0.00000e+00	0.00000e+00	0.00000e+00	0.00000e+00	0.00000e+00	0.00000e+00	-1.70999e+02	-1.26624e+02	-1.31946e+02	-1.81681e+02	-8.38430e+01	-6.15144e+01	-1.55768e+02	-1.62015e+02	-8.17298e+01	-6.09818e+01	-1.73366e+02	-1.70201e+02	-1.85495e+02	-1.76578e+02	-7.50407e+01	-1.48946e+02	
Factor	2.98320e-05	1.70198e-04	4.81572e-05	1.97322e-01	1.68102e-06	1.85928e-06	1.81490e-01	5.63415e-02	1.68352e-06	1.92753e-06	1.03880e-01	3.00027e-02	5.63894e-02	9.68439e-03	1.64368e-06	1.34226e-02	1.04390e-05	1.42882e-05	3.99355e-06	1.02381e-01	1.49160e-07	1.58564e-07	8.84142e-02	2.93229e-02	1.48249e-07	1.58193e-07	5.25074e-02	1.52244e-02	2.95252e-02	5.08567e-03	1.51927e-07	6.84643e-03	X	X	X	X	X	X	X	X	X	X	X	X	X	X	X	X	



#DISTANCE SETTINGS
A = Detector Channel
A-1	A-2	A-3	A-4	A-5	A-6	A-7	A-8	A-9	A-10	A-11	A-12	A-13	A-14	A-15	A-16	

2.5000e+00	3.0000e+00	2.5000e+00	3.0000e+00	2.0000e+00	3.0000e+00	1.5000e+00	3.0000e+00	3.0000e+00	3.0000e+00	3.0000e+00	3.0000e+00	3.0000e+00	3.0000e+00	1.5000e+00	3.0000e+00	

B = Detector Channel
B-1	B-2	B-3	B-4	B-5	B-6	B-7	B-8	B-9	B-10	B-11	B-12	B-13	B-14	B-15	B-16	

1.0000e+01	1.0000e+01	1.0000e+01	1.4400e+00	1.0000e+01	1.0000e+01	1.5100e+00	1.9400e+00	1.0000e+01	1.0000e+01	1.9900e+00	2.4900e+00	2.4100e+00	2.9000e+00	1.0000e+01	2.9800e+00	




#DATA BEGINS
time	group	step	mark	flag	A-AC1	A-AC2	A-AC3	A-AC4	A-AC5	A-AC6	A-AC7	A-AC8	A-AC9	A-AC10	A-AC11	A-AC12	A-AC13	A-AC14	A-AC15	A-AC16	A-DC1	A-DC2	A-DC3	A-DC4	A-DC5	A-DC6	A-DC7	A-DC8	A-DC9	A-DC10	A-DC11	A-DC12	A-DC13	A-DC14	A-DC15	A-DC16	A-Ph1	A-Ph2	A-Ph3	A-Ph4	A-Ph5	A-Ph6	A-Ph7	A-Ph8	A-Ph9	A-Ph10	A-Ph11	A-Ph12	A-Ph13	A-Ph14	A-Ph15	A-Ph16	B-AC1	B-AC2	B-AC3	B-AC4	B-AC5	B-AC6	B-AC7	B-AC8	B-AC9	B-AC10	B-AC11	B-AC12	B-AC13	B-AC14	B-AC15	B-AC16	B-DC1	B-DC2	B-DC3	B-DC4	B-DC5	B-DC6	B-DC7	B-DC8	B-DC9	B-DC10	B-DC11	B-DC12	B-DC13	B-DC14	B-DC15	B-DC16	B-Ph1	B-Ph2	B-Ph3	B-Ph4	B-Ph5	B-Ph6	B-Ph7	B-Ph8	B-Ph9	B-Ph10	B-Ph11	B-Ph12	B-Ph13	B-Ph14	B-Ph15	B-Ph16	aux-1	digaux	

21122.734	1	1	0	768	0.21435	0.16058	0.24359	0.17618	0.25376	0.13272	0.25848	0.25856	0.084602	0.06003	0.028698	0.46432	0.34748	0.22235	0.20636	0.11809	-2.1833	-2.3479	-2.7646	-2.75	-2.4708	-2.7167	-2.6958	-2.7208	-2.6604	-2.5	-2.7521	-2.6542	-2.625	-3.0271	-2.3521	-2.7521	273.930	236.710	318.308	83.428	276.302	132.065	314.469	321.833	141.075	213.278	343.806	347.682	43.513	360.730	359.396	72.640	0.00065148	0.00054613	0.00016065	1785.7	7.7058e-06	5.747e-06	1769.4	468.49	6.1039e-06	5.7899e-06	532.33	177.86	155.1	52.921	7.7209e-06	65.288	0.00054439	0.00048401	0.00013384	1779	5.3781e-06	5.1999e-06	1757	468.46	5.5034e-06	5.2111e-06	533.56	178.26	154.84	53.447	5.2484e-06	65.839	105.233	130.286	95.466	39.691	187.672	190.419	39.801	44.310	190.268	186.723	44.146	48.191	48.736	53.449	173.775	52.662	-8191	255	
21122.830	1	1	0	0	0.06539	0.21678	0.12544	0.47108	0.10661	0.18371	0.41786	0.30588	0.10417	0.081838	0.22569	0.11041	0.19248	0.22573	0.18484	0.11704	-2.3063	-2.3854	-2.7542	-2.7271	-2.4729	-2.8937	-2.7812	-2.7333	-2.7208	-2.2792	-2.6917	-2.6625	-2.3937	-2.8333	-2.5812	-2.5146	58.937	249.824	129.338	337.119	125.954	345.779	323.660	288.080	254.265	256.592	306.487	362.941	46.434	335.631	180.573	219.600	0.00069828	0.00057224	0.00021371	1750.6	5.7155e-06	5.5369e-06	1738.8	462.37	6.4187e-06	5.4942e-06	532.2	177.4	153.64	52.996	6.5217e-06	65.586	0.00053526	0.00046273	0.00012843	1745.6	5.2395e-06	4.8729e-06	1733.1	463.09	4.8697e-06	4.9468e-06	532.21	178.42	154.63	53.548	4.7879e-06	66.013	105.442	116.835	116.538	39.860	170.579	161.426	39.746	44.397	175.813	180.490	43.859	48.497	48.674	53.377	166.307	52.869	-8191	255	
21122.928	1	1	0	0	0.094587	0.046331	0.041262	0.18699	0.10622	0.16436	0.15776	0.12182	0.062722	0.066331	0.087829	0.22721	0.31426	0.35854	0.14717	0.24475	-2.1479	-2.4875	-2.4604	-2.8479	-2.4042	-2.6729	-2.5646	-2.5479	-2.6625	-2.4854	-2.8125	-2.8042	-2.4375	-2.875	-2.6146	-2.6146	353.216	143.004	82.784	376.544	244.062	234.060	303.106	267.914	280.530	187.182	288.220	301.312	334.847	362.367	298.537	48.941	0.00069452	0.00052735	0.00015699	1755.5	4.5859e-06	6.4148e-06	1737.3	463.78	6.0292e-06	6.7598e-06	531.51	177.32	154.58	53.191	5.6729e-06	65.74	0.00051645	0.00044928	0.00012083	1746.7	4.9664e-06	4.6582e-06	1731.7	463.84	4.8777e-06	4.8664e-06	531.81	178.06	154.93	53.614	4.7923e-06	66.134	106.155	126.182	73.690	39.892	166.507	183.350	39.898	44.477	178.454	201.867	43.865	48.357	48.723	53.161	168.350	52.661	-8191	255	
21123.023	1	1	0	0	0.071808	0.18287	0.12365	0.25309	0.17537	0.18335	0.29932	0.21668	0.11872	0.25056	0.22946	0.12396	0.097221	0.27022	0.22208	0.056642	-2.2521	-2.3646	-2.7354	-2.8396	-2.3521	-2.6521	-2.8667	-2.7229	-2.7458	-2.4813	-2.5812	-2.7771	-2.5646	-2.8479	-2.575	-2.4875	198.181	252.242	347.016	369.960	266.893	355.782	325.980	359.647	96.890	211.355	334.603	138.398	361.627	63.672	261.281	298.586	0.0006591	0.00069889	0.00015434	1750.1	6.2957e-06	6.1483e-06	1736.3	464.38	6.8599e-06	5.9871e-06	533.87	178.13	154.09	53.407	6.25e-06	65.789	0.00050607	0.00043582	0.00011868	1744.8	4.8138e-06	4.7246e-06	1733.5	464.83	4.7446e-06	4.6964e-06	533.43	178.75	155.2	53.749	4.7898e-06	66.383	105.968	109.642	126.108	39.908	155.889	189.314	39.631	44.380	172.853	172.121	43.889	48.033	48.730	53.428	194.594	52.679	-8191	255	
21123.119	1	1	0	0	0.18024	0.13878	0.13168	0.26189	0.14757	0.30338	0.3014	0.13965	0.26309	0.21991	0.26427	0.16283	0.047863	0.20286	0.079741	0.26621	-2.4271	-2.5396	-2.5042	-2.7771	-2.35	-2.6792	-2.8812	-2.5375	-2.6437	-2.4813	-2.8	-2.7188	-2.1917	-2.7917	-2.7521	-2.6229	140.873	162.340	185.456	356.230	338.441	278.079	348.261	349.967	76.930	149.369	361.817	334.227	216.332	342.083	144.993	339.171	0.00071614	0.00063908	0.00018939	1755.8	6.3891e-06	3.8439e-06	1746.3	465.64	6.6088e-06	6.3931e-06	533.44	179.15	155.1	53.449	6.6843e-06	66.032	0.00051447	0.00042814	0.00011857	1749.8	4.9282e-06	4.5944e-06	1737.6	466.24	4.8555e-06	4.6163e-06	534.86	179.81	155.71	53.982	4.7487e-06	66.554	105.919	119.720	127.109	39.801	167.156	190.910	39.914	44.331	176.861	173.612	44.098	48.209	48.836	53.530	160.716	52.785	-8191	255	
21123.215	1	1	0	0	0.19975	0.1824	0.17314	0.22338	0.26813	0.11046	0.25981	0.098217	0.051624	0.093545	0.10078	0.42275	0.15372	0.12476	0.16712	0.21485	-2.2542	-2.3354	-2.5417	-3.0479	-2.2292	-2.4875	-3.0042	-2.4833	-2.6833	-2.3812	-2.6271	-2.9229	-2.7104	-2.8042	-2.6646	-2.6146	309.914	376.362	28.736	375.420	127.057	201.432	293.818	322.501	139.157	129.487	289.862	360.802	325.486	368.611	53.898	324.233	0.00066004	0.00048189	0.00013009	1764.2	7.7841e-06	5.7809e-06	1748.9	465.98	6.8927e-06	6.1488e-06	536.84	179.64	156.29	53.547	5.6647e-06	66.121	0.00049135	0.00040331	0.00011833	1754.1	4.7442e-06	4.4682e-06	1742.5	467.68	4.8283e-06	4.4297e-06	536.93	180.24	156.24	54.073	4.6531e-06	66.712	110.553	105.194	112.700	39.672	172.342	195.264	39.777	44.488	174.845	195.910	43.949	48.321	48.670	53.396	172.696	52.343	-8191	255	
21123.336	1	1	0	0	0.24413	0.13231	0.25675	0.080052	0.1857	0.29678	0.13173	0.3189	0.077176	0.028184	0.20317	0.24004	0.21358	0.090029	0.10428	0.28559	-2.2875	-2.5792	-2.4771	-2.975	-2.3208	-2.5312	-2.9896	-2.5771	-2.7854	-2.8187	-2.5792	-2.8604	-2.4521	-2.6271	-2.6854	-2.6083	310.558	191.958	358.971	320.753	95.732	363.166	376.610	310.969	113.224	36.177	290.336	303.499	69.435	296.497	152.944	318.418	0.00068932	0.00057577	0.00016608	1762.7	6.9624e-06	6.3089e-06	1752.1	471.34	5.2456e-06	6.2252e-06	538.22	179.48	157.26	53.825	8.0284e-06	66.303	0.00049529	0.00041227	0.00011424	1759.6	4.7001e-06	4.5819e-06	1745.8	469.92	4.5247e-06	4.4294e-06	538.43	180.5	156.82	54.219	4.5752e-06	66.792	106.442	118.865	93.302	39.932	164.666	173.935	39.860	44.371	179.675	183.220	43.957	48.220	48.833	53.159	162.076	52.698	-8191	255	
21123.430	1	1	0	0	0.22308	0.20052	0.12447	0.15046	0.22836	0.21828	0.30943	0.25486	0.12687	0.18901	0.18371	0.090431	0.12336	0.18396	0.30883	0.12444	-2.2833	-2.7271	-2.4083	-2.8375	-2.4729	-2.8229	-2.8937	-2.7458	-2.5771	-2.775	-2.6063	-2.9396	-2.7083	-2.6729	-2.7208	-2.4125	292.812	364.135	261.398	378.850	358.267	158.312	295.926	315.209	256.042	107.940	381.541	350.650	360.075	69.566	73.557	335.632	0.00068873	0.00068746	0.00010572	1760.7	6.3576e-06	4.0346e-06	1756.3	471.21	4.5941e-06	7.0801e-06	538.12	180.26	156.71	53.936	6.0768e-06	66.437	0.00049096	0.0004057	0.00011607	1757.6	4.7153e-06	4.4758e-06	1746.8	470.5	4.8601e-06	4.3384e-06	538.75	180.61	156.67	54.344	4.6268e-06	66.983	111.595	116.709	106.790	40.204	197.263	181.415	39.789	44.344	175.886	187.687	44.042	48.107	48.824	53.536	189.013	52.735	-8191	255	
21123.527	1	1	0	0	0.14346	0.09062	0.18676	0.11565	0.11299	0.059433	0.18685	0.27987	0.033564	0.2202	0.12125	0.07567	0.21498	0.094318	0.29074	0.16278	-2.275	-2.7792	-2.3875	-2.725	-2.6292	-2.65	-3.0083	-2.5708	-2.6937	-2.7833	-2.6667	-2.8083	-2.5687	-2.6188	-2.7958	-2.6833	289.133	342.889	81.474	337.656	43.249	319.674	360.642	317.922	62.731	314.385	331.534	345.114	335.655	366.788	164.092	202.199	0.00066364	0.00046738	0.00012407	1778.6	7.4899e-06	4.7311e-06	1754.3	470.8	7.876e-06	6.3293e-06	539.31	181.15	157.09	53.851	7.0918e-06	66.561	0.00049972	0.00042186	0.00011436	1765.2	4.6721e-06	4.4874e-06	1750.6	471.69	4.7511e-06	4.4093e-06	539.46	181.36	157.59	54.446	4.5838e-06	67.087	105.780	118.555	116.829	39.962	172.749	182.161	39.688	44.304	186.592	164.130	43.818	48.090	48.666	53.400	177.007	52.786	-8191	255	
21123.623	1	1	0	0	0.1628	0.14549	0.27089	0.32228	0.23923	0.074523	0.049242	0.17118	0.075682	0.0377	0.50702	0.077557	0.18347	0.27014	0.12051	0.13021	-2.1188	-2.7333	-2.2875	-2.7792	-2.7125	-2.5542	-3.0354	-2.6021	-2.5	-2.8854	-2.7021	-2.7042	-2.55	-2.5875	-2.9042	-2.7167	187.281	52.209	300.445	333.335	27.558	327.035	293.859	309.363	187.909	147.896	376.119	356.238	323.320	367.035	32.913	311.332	0.00071663	0.00064671	0.00017775	1775.3	7.7999e-06	7.6472e-06	1756.7	472.6	5.8171e-06	7.2921e-06	542.4	180.97	156.23	53.768	5.7074e-06	66.832	0.00051058	0.00042025	0.00011323	1765	4.7047e-06	4.418e-06	1753.6	471.83	4.6871e-06	4.5052e-06	540.76	181.27	157.39	54.4	4.5838e-06	67.1	104.688	102.397	123.052	40.046	164.956	168.382	39.792	44.404	185.322	167.882	43.815	48.097	48.723	53.270	170.634	52.752	-8191	255	
21123.719	1	1	0	0	0.16956	0.10845	0.14407	0.29972	0.081718	0.18482	0.38754	0.16692	0.16503	0.11935	0.031807	0.25252	0.079613	0.10604	0.15102	0.20269	-2.0708	-2.8812	-2.3708	-2.8812	-2.5833	-2.3396	-2.9229	-2.5854	-2.3667	-2.8208	-2.6271	-2.6979	-2.7292	-2.4083	-2.9813	-2.6875	305.269	154.521	38.486	39.469	142.735	379.746	322.235	272.535	337.693	52.454	222.845	337.424	95.166	45.247	223.288	329.439	0.00068228	0.00058802	0.00021796	1772.3	6.4244e-06	5.3174e-06	1760.4	470.82	6.0596e-06	5.3836e-06	539.54	181.43	157.9	54.034	6.858e-06	66.884	0.00049888	0.00040584	0.00011422	1765.9	4.6501e-06	4.5515e-06	1753.2	471.78	4.6371e-06	4.3866e-06	539.13	181.69	157.67	54.439	4.6119e-06	67.258	106.318	120.063	105.094	39.988	184.458	176.801	39.798	44.283	159.585	185.894	43.962	48.352	48.854	53.348	183.338	52.566	-8191	255	
21123.814	1	1	0	0	0.2937	0.23138	0.10281	0.28109	0.089428	0.018832	0.14027	0.24576	0.13722	0.14835	0.20518	0.26516	0.19978	0.28649	0.38368	0.19691	-2.1354	-2.7792	-2.6521	-2.7375	-2.8104	-2.4188	-2.8875	-2.8146	-2.4292	-2.8208	-2.5146	-2.5	-2.7375	-2.5938	-2.7521	-2.6792	245.644	352.304	270.358	351.195	90.082	241.107	334.418	323.191	144.184	27.810	282.734	235.099	364.520	249.883	279.770	359.463	0.00064994	0.00073921	0.00018324	1772.2	6.4388e-06	5.3959e-06	1762.6	472.33	6.2742e-06	6.1259e-06	541.5	180.59	157.76	53.711	4.8036e-06	66.472	0.00049696	0.00041475	0.00011174	1766.8	4.6038e-06	4.4692e-06	1755.5	472.8	4.828e-06	4.4248e-06	541.08	181.7	157.76	54.446	4.5793e-06	67.168	108.359	126.845	116.416	39.849	160.573	184.733	39.845	44.237	181.086	159.017	43.753	48.351	48.677	53.449	156.918	52.627	-8191	255	
21123.936	1	1	0	0	0.17849	0.1588	0.286	0.27275	0.18666	0.064283	0.34581	0.18299	0.086021	0.062699	0.11134	0.17111	0.19109	0.031383	0.12707	0.27331	-2.1	-2.6813	-2.5854	-2.6729	-2.9229	-2.4437	-2.8937	-2.9833	-2.5354	-2.7333	-2.6437	-2.6417	-2.775	-2.5896	-2.6979	-2.85	44.840	262.217	243.164	31.254	139.062	356.889	318.235	256.257	297.569	278.461	246.027	254.410	108.688	253.821	286.090	350.473	0.0006767	0.00057086	0.00022634	1782.5	7.1012e-06	8.7849e-06	1764.8	472.42	6.8275e-06	6.7254e-06	538.18	181.94	158.46	53.957	4.8168e-06	66.773	0.00050336	0.0004065	0.0001166	1770.1	4.6165e-06	4.5346e-06	1756.5	473.03	4.6559e-06	4.4301e-06	540.62	182.24	158.17	54.533	4.5784e-06	67.311	109.029	119.524	112.193	39.838	168.993	175.179	39.695	44.412	176.876	187.643	43.983	48.423	48.654	53.363	181.397	52.571	-8191	255	
21124.031	1	1	0	0	0.19608	0.048331	0.082615	0.22032	0.19348	0.10319	0.21405	0.31458	0.10711	0.11817	0.25474	0.13557	0.14206	0.10978	0.19519	0.069123	-2.0021	-2.7979	-2.6063	-2.7229	-2.7375	-2.5167	-2.8604	-2.7875	-2.4833	-2.6646	-2.5167	-2.6333	-2.8833	-2.475	-2.575	-2.7604	97.876	234.798	195.200	366.091	271.255	276.934	360.998	378.254	162.657	34.157	363.552	60.597	346.093	366.167	289.078	160.258	0.00069003	0.00078029	0.00015147	1781	6.9821e-06	5.5215e-06	1768.7	475.81	6.304e-06	5.1795e-06	541.68	180.89	158.44	54.046	4.9891e-06	67	0.00049855	0.00041629	0.00011473	1774.2	4.7796e-06	4.4401e-06	1760.5	474.63	4.7823e-06	4.3434e-06	542.33	182.37	158.39	54.727	4.5163e-06	67.461	106.554	115.685	118.788	39.839	171.958	182.806	39.844	44.215	170.995	173.683	43.952	48.098	48.549	53.369	184.273	52.430	-8191	255	
21124.129	1	1	0	0	0.22359	0.14569	0.055534	0.34136	0.31036	0.1083	0.40064	0.12067	0.28268	0.099894	0.12316	0.018146	0.18752	0.28226	0.11798	0.14622	-2.0833	-2.5104	-2.3563	-2.5875	-2.7604	-2.5146	-2.8729	-2.7958	-2.3667	-2.7396	-2.6833	-2.5354	-2.8792	-2.6188	-2.4458	-2.7917	85.063	225.203	270.691	353.376	32.909	99.646	339.090	270.657	302.763	369.544	289.601	315.239	95.526	224.248	274.130	370.168	0.00068548	0.00069145	0.00015758	1780.2	7.5601e-06	5.4895e-06	1769	475.38	6.9026e-06	5.7555e-06	543.19	181.8	157.88	54.362	7.1855e-06	66.871	0.00049857	0.00042668	0.00011769	1773.8	4.7389e-06	4.495e-06	1761.7	474.5	4.6618e-06	4.4521e-06	541.73	182.77	158.24	54.875	4.5451e-06	67.404	110.328	113.002	102.789	39.948	177.619	162.728	39.968	44.357	175.525	161.921	43.904	48.022	48.628	53.096	155.755	52.536	-8191	255	
21124.223	1	1	0	0	0.038064	0.084322	0.097093	0.45417	0.086335	0.27626	0.18412	0.024803	0.064292	0.22245	0.28252	0.21371	0.17053	0.3023	0.2173	0.12848	-1.9646	-2.7542	-2.675	-2.6271	-2.8167	-2.6146	-2.9354	-3.0833	-2.4042	-2.7417	-2.8729	-2.5333	-2.6729	-2.5396	-2.5604	-2.6312	355.628	369.397	68.094	362.777	332.368	348.987	365.542	35.434	161.736	301.246	329.968	257.405	32.196	374.850	265.959	264.044	0.00068195	0.00071674	0.00018336	1785.9	7.2319e-06	3.8968e-06	1772.6	476.07	7.1027e-06	6.0491e-06	542.25	181.37	158.45	54.082	7.4774e-06	67.007	0.00050497	0.00042891	0.00011738	1777.5	4.6333e-06	4.4418e-06	1763	475.28	4.6535e-06	4.4993e-06	542.37	182.63	158.62	54.67	4.5955e-06	67.448	108.873	125.541	114.082	39.875	152.410	205.152	39.823	44.240	176.493	185.809	43.938	48.076	48.500	53.568	157.097	52.679	-8191	255	
21124.297	1	1	0	0	0.21673	0.10723	0.11091	0.24483	0.16704	0.23345	0.41864	0.2383	0.037047	0.096205	0.26665	0.1125	0.13357	0.17856	0.22295	0.24037	-1.9458	-2.625	-2.5792	-2.6354	-2.8333	-2.6542	-2.6875	-2.9854	-2.4813	-2.6958	-2.8208	-2.4875	-2.7042	-2.7542	-2.3625	-2.6521	93.355	187.256	343.031	351.349	378.591	302.020	293.040	355.877	233.340	125.334	224.932	321.286	243.283	371.296	371.990	374.337	0.00073095	0.00056996	0.00013114	1777.7	8.3965e-06	5.1104e-06	1769.6	474.73	5.661e-06	6.9464e-06	542.17	181.48	157.7	54.1	6.7984e-06	66.952	0.00050105	0.00039927	0.00011112	1777.4	4.9621e-06	4.5951e-06	1765.5	474.9	4.4864e-06	4.5448e-06	542.56	182.27	158.26	54.743	4.7066e-06	67.427	108.777	130.242	98.179	39.805	163.435	191.696	39.691	44.289	186.792	201.892	44.074	48.438	48.436	53.326	182.415	52.690	-8191	255	
21124.414	1	1	0	0	0.087873	0.18603	0.35287	0.54145	0.029895	0.14508	0.24271	0.29454	0.071825	0.15172	0.22859	0.26444	0.10614	0.10856	0.25163	0.097553	-2.2521	-2.6625	-2.7292	-2.6896	-2.7083	-2.625	-2.8167	-2.8271	-2.4542	-2.7	-2.8854	-2.5646	-2.6688	-2.7771	-2.3083	-2.9729	192.146	43.364	61.310	332.015	313.952	304.402	326.891	323.901	184.503	175.954	156.573	364.288	273.926	283.465	247.031	171.308	0.00065889	0.0005023	0.00022169	1781.4	7.9358e-06	7.1529e-06	1768.7	474.46	7.9305e-06	5.7019e-06	544.31	181.86	157.91	54.006	3.6364e-06	66.909	0.00048426	0.00041034	0.00011512	1772.1	4.7933e-06	4.4738e-06	1761.4	474.36	4.6695e-06	4.5161e-06	543	182.28	158.23	54.612	4.7395e-06	67.264	108.563	119.657	120.578	39.789	166.322	172.490	39.729	44.458	187.947	185.139	44.105	48.270	48.642	53.282	162.512	52.518	-8191	255	
21124.512	1	1	0	0	0.26777	0.12962	0.18403	0.33016	0.47585	0.1677	0.28133	0.17713	0.26625	0.28646	0.066892	0.24804	0.13191	0.10312	0.06791	0.3132	-1.9729	-2.5854	-2.8688	-2.6042	-2.5396	-2.7521	-2.6083	-2.8667	-2.7208	-2.3667	-2.85	-2.5917	-2.4437	-2.7729	-2.325	-2.725	341.863	208.522	253.605	354.961	128.029	376.576	337.864	335.023	87.563	215.848	342.639	363.298	77.638	380.023	366.708	330.398	0.00064117	0.00047791	0.00017536	1784	7.0964e-06	8.3901e-06	1760.8	474.99	7.389e-06	7.6208e-06	539.42	180.57	157.56	54.003	7.207e-06	66.249	0.0004979	0.00041859	0.00011552	1775.5	4.7849e-06	4.5131e-06	1756.4	473.96	4.7291e-06	4.5256e-06	539.7	181.58	157.56	54.462	4.7509e-06	67.096	109.079	106.760	119.192	39.770	163.152	192.769	39.641	44.376	163.862	192.493	43.768	48.274	48.733	53.380	181.097	52.849	-8191	255	
21124.607	1	1	0	0	0.17476	0.32574	0.16691	0.22546	0.17457	0.015874	0.49285	0.41151	0.063339	0.13328	0.14265	0.30592	0.17051	0.087909	0.047723	0.20357	-2.1646	-2.3	-2.7646	-2.5271	-2.5208	-2.8042	-2.5771	-3.0125	-2.6146	-2.4146	-2.8271	-2.6208	-2.3271	-2.9417	-2.3896	-2.7167	191.041	364.665	312.486	342.355	278.487	263.779	305.773	316.772	324.137	262.090	294.512	380.990	344.913	32.013	275.227	311.736	0.00072536	0.00065355	0.00022855	1776.9	5.7623e-06	8.3598e-06	1759.9	474.1	7.9622e-06	5.3034e-06	542.33	181.42	158.01	54.157	7.2218e-06	67.255	0.00049894	0.00042615	0.00011304	1770.7	4.6557e-06	4.5316e-06	1757.4	473.79	4.5528e-06	4.5448e-06	542.09	182.38	158.23	54.736	4.7411e-06	67.6	107.416	118.174	123.030	39.858	172.477	200.337	39.878	44.392	174.165	188.363	43.866	48.163	48.994	53.278	183.087	52.516	-8191	255	
21124.703	1	1	0	0	0.19139	0.12187	0.38047	0.1711	0.070499	0.44657	0.46802	0.35907	0.069109	0.26542	0.21212	0.041465	0.38283	0.16709	0.31118	0.21006	-2.1708	-2.3125	-2.7625	-2.6	-2.5229	-2.6667	-2.6042	-2.8396	-2.6771	-2.5104	-3.0021	-2.6521	-2.5167	-2.8438	-2.4542	-2.8083	65.183	76.793	116.697	39.425	370.981	42.635	305.718	320.086	377.279	228.185	362.517	73.511	371.354	338.883	101.900	275.546	0.00069459	0.00064903	0.00018458	1786.1	5.0226e-06	5.8752e-06	1775.9	476.2	5.7648e-06	9.0834e-06	544.12	181.94	158.95	54.491	6.8598e-06	66.953	0.00048902	0.00039906	0.00011449	1778.1	4.7526e-06	4.276e-06	1766.6	475.59	4.6383e-06	4.5247e-06	543.28	183.14	158.75	54.918	4.554e-06	67.551	104.983	109.000	111.221	39.851	151.981	186.114	39.729	44.297	187.630	182.696	43.934	48.269	48.801	53.159	159.631	52.346	-8191	255	
21124.824	1	1	0	0	0.21926	0.14038	0.207	0.18023	0.11121	0.35661	0.3502	0.14106	0.16112	0.14011	0.48299	0.089304	0.17946	0.066898	0.22611	0.30134	-2.2167	-2.4646	-2.6854	-2.6688	-2.4479	-2.7208	-2.7292	-2.7646	-2.5521	-2.4021	-2.7625	-2.8125	-2.2812	-2.8	-2.4979	-2.5563	112.594	270.440	61.531	343.651	340.035	366.099	328.388	330.509	244.225	201.050	332.196	368.173	226.258	350.505	47.138	250.777	0.00068285	0.00046115	0.00012245	1784.1	6.7324e-06	4.8921e-06	1778.4	474.28	7.5074e-06	5.4837e-06	545.83	182.87	160.27	54.915	4.1783e-06	67.457	0.00048189	0.00041826	0.00011476	1780	4.7007e-06	4.4428e-06	1771.3	476.19	4.68e-06	4.3197e-06	545.1	183.96	159.78	55.245	4.5451e-06	68.024	107.813	112.492	124.908	39.782	147.416	181.350	39.700	44.411	182.924	182.776	43.895	48.337	48.952	53.406	178.568	52.539	-8191	255	
21124.895	1	1	0	0	0.19879	0.25087	0.1773	0.25583	0.23783	0.13615	0.2664	0.084475	0.2076	0.076831	0.06484	0.18189	0.22466	0.20649	0.064698	0.11252	-2.3896	-2.4375	-2.5687	-2.9083	-2.425	-2.875	-2.6542	-2.775	-2.6792	-2.5229	-2.7854	-2.6208	-2.4833	-2.8187	-2.375	-2.575	55.039	273.805	271.518	363.234	169.365	370.793	353.686	37.528	88.711	98.586	201.653	68.223	97.913	67.802	323.751	357.543	0.00069786	0.00072818	0.0002201	1793.4	6.6358e-06	6.047e-06	1782.7	479.61	6.3634e-06	6.642e-06	544.65	183.51	159.67	54.776	5.0927e-06	67.6	0.0004969	0.00040537	0.00011133	1789.3	4.5721e-06	4.378e-06	1776.3	479.23	4.5599e-06	4.3312e-06	546.67	184.53	160.24	55.376	4.5341e-06	68.138	104.188	116.053	114.887	39.771	173.089	188.167	39.719	44.287	178.135	183.954	43.938	48.286	48.527	53.080	159.212	52.485	-8191	255	
21125.016	1	1	0	0	0.17873	0.091858	0.2954	0.1878	0.11106	0.065378	0.4522	0.28512	0.13337	0.028978	0.17503	0.21921	0.30795	0.49533	0.20362	0.17275	-2.3333	-2.4583	-2.5979	-2.8812	-2.4208	-2.7938	-2.9146	-2.4521	-2.6667	-2.6333	-2.7833	-2.725	-2.3854	-2.8333	-2.5896	-2.3167	170.417	317.143	174.959	350.357	374.520	225.016	327.063	306.901	305.429	305.422	362.742	323.415	53.423	353.244	39.184	283.834	0.00069143	0.00071342	0.00024594	1796.2	7.8141e-06	6.7174e-06	1785.3	479.58	6.8492e-06	5.5137e-06	549.44	184.19	161.49	54.899	7.1302e-06	67.692	0.00048624	0.0003987	0.0001134	1793.3	4.7153e-06	4.3985e-06	1779.4	479.86	4.5642e-06	4.4291e-06	548.69	185.23	160.88	55.431	4.5078e-06	68.238	107.739	113.324	109.226	39.776	168.887	177.795	39.715	44.213	162.053	180.872	43.872	48.241	48.574	53.086	179.224	52.470	-8191	255	
21125.111	1	1	0	0	0.17404	0.16601	0.19783	0.28892	0.16055	0.12935	0.15466	0.28025	0.072758	0.2718	0.31279	0.099519	0.17139	0.27392	0.18401	0.16126	-2.4083	-2.3667	-2.6396	-2.7917	-2.3792	-2.8667	-2.9292	-2.7188	-2.8375	-2.5438	-2.625	-2.6437	-2.4479	-2.8604	-2.6896	-2.5438	143.254	86.390	147.644	291.896	37.186	265.560	316.644	356.773	364.746	339.568	305.819	62.546	58.435	379.924	249.264	241.073	0.00067241	0.00069155	0.00012926	1807.5	6.3849e-06	6.2097e-06	1785.9	480.89	6.418e-06	6.3199e-06	549.6	184.17	160.28	55.239	6.3293e-06	67.608	0.00049611	0.00039986	0.000111	1800.2	4.5627e-06	4.4996e-06	1782.2	481.03	4.63e-06	4.3701e-06	549.5	185.17	160.64	55.578	4.6012e-06	68.41	109.123	113.089	105.187	39.828	171.725	193.461	39.829	44.276	167.795	201.097	43.790	48.089	49.061	53.202	172.310	52.506	-8191	255	
21125.207	1	1	0	0	0.18598	0.039674	0.3457	0.29013	0.11626	0.2345	0.27704	0.30189	0.18319	0.080674	0.17715	0.22252	0.027453	0.16827	0.16233	0.071298	-2.225	-2.5062	-2.4208	-2.8563	-2.5396	-2.7	-2.9479	-2.6896	-2.6646	-2.4729	-2.4396	-2.9292	-2.5208	-2.6188	-2.5625	-2.5312	305.771	133.103	333.620	324.186	177.684	192.932	309.100	343.941	68.919	138.404	355.172	298.880	356.432	355.901	64.632	287.768	0.00067995	0.00049717	0.00020816	1804.9	5.7815e-06	3.5541e-06	1801.4	481.81	5.2784e-06	8.1662e-06	548.92	184.45	162.34	55.18	4.705e-06	67.762	0.00049596	0.00040799	0.00011005	1801.2	4.4813e-06	4.2717e-06	1790.2	481.66	4.5278e-06	4.4343e-06	549.27	185.55	161.49	55.657	4.5144e-06	68.464	107.315	100.900	120.046	39.891	173.318	175.608	39.806	44.516	189.224	182.966	44.005	48.105	48.897	53.217	175.650	52.487	-8191	255	
21125.305	1	1	0	0	0.071321	0.043835	0.18478	0.25009	0.095036	0.17513	0.20779	0.25969	0.20295	0.23476	0.14579	0.10978	0.2889	0.016569	0.34716	0.1597	-2.1104	-2.4458	-2.2667	-3.05	-2.3563	-2.3958	-2.9646	-2.5458	-2.875	-2.525	-2.4167	-2.9396	-2.4917	-2.7146	-2.7229	-2.5667	299.788	238.606	381.142	26.493	125.567	290.897	364.022	336.086	317.860	152.046	58.805	332.849	43.206	174.119	381.103	370.443	0.00069203	0.00052005	0.0002132	1807.5	8.2629e-06	7.2475e-06	1791.2	479.32	6.0978e-06	6.7189e-06	550.38	185.27	161.81	55.471	6.4888e-06	67.914	0.00049903	0.00040004	0.00011147	1802	4.5363e-06	4.4028e-06	1788.7	481.15	4.7304e-06	4.4917e-06	550.63	185.9	161.29	55.836	4.5936e-06	68.475	103.534	102.983	95.093	39.969	188.003	179.682	39.683	44.310	178.201	189.914	44.057	48.063	48.348	53.318	177.241	52.677	-8191	255	
21125.424	1	1	0	0	0.13856	0.13299	0.29681	0.50551	0.057598	0.18304	0.54518	0.36477	0.096979	0.14911	0.14803	0.28702	0.27813	0.20138	0.032481	0.057096	-2.3854	-2.7	-2.4708	-3.1083	-2.4792	-2.5312	-3.0146	-2.5312	-2.7958	-2.6958	-2.5625	-2.7792	-2.5896	-2.4771	-2.7167	-2.6375	321.326	35.384	209.184	349.640	128.448	100.791	323.317	375.807	34.997	338.974	353.170	325.294	76.924	118.871	73.613	337.211	0.00075424	0.00051571	0.00011857	1810.4	7.0955e-06	8.8827e-06	1803.1	482.04	7.8855e-06	6.1684e-06	551	186.01	161.2	55.257	5.1025e-06	68.286	0.00050216	0.00039072	0.00010867	1807.1	4.5724e-06	4.4091e-06	1792.3	482.33	4.6093e-06	4.1819e-06	551.44	186.41	161.45	55.778	4.5005e-06	68.635	105.268	107.950	102.938	39.829	166.300	177.865	39.740	44.251	179.299	203.280	43.833	47.899	48.762	53.322	149.489	52.479	-8191	255	
21125.520	1	1	0	0	0.13627	0.05594	0.036451	0.33084	0.15354	0.25715	0.28114	0.21922	0.21813	0.21632	0.25519	0.35767	0.24055	0.1236	0.20212	0.17168	-2.2208	-2.5438	-2.3896	-2.8479	-2.3563	-2.4062	-3.0167	-2.6521	-2.6917	-2.7125	-2.5979	-2.9458	-2.6917	-2.4229	-2.7646	-2.3729	57.152	238.282	256.035	350.640	169.388	33.078	315.393	45.908	236.065	115.733	326.393	369.280	298.130	163.584	184.846	257.643	0.00074675	0.00078024	0.00021615	1808.7	5.5668e-06	7.8184e-06	1796.1	483.55	6.8795e-06	8.0183e-06	548.07	185.36	161.36	55.296	6.658e-06	67.992	0.00049568	0.00041135	0.00011089	1808.3	4.491e-06	4.3338e-06	1792.6	482.64	4.609e-06	4.3813e-06	549.32	186.09	161.58	55.744	4.3302e-06	68.573	105.943	107.962	113.278	39.791	166.836	187.222	39.805	44.382	172.624	171.455	44.075	48.212	48.674	53.259	190.376	52.685	-8191	255	
21125.594	1	1	0	0	0.12073	0.16737	0.10179	0.14861	0.10071	0.063432	0.19995	0.34765	0.084806	0.23556	0.27246	0.19208	0.15573	0.10439	0.32013	0.14798	-2.1146	-2.7	-2.3917	-2.8229	-2.6021	-2.4313	-2.8417	-2.725	-2.5312	-2.8688	-2.6771	-2.8875	-2.5812	-2.5187	-2.8063	-2.5125	30.706	78.713	187.951	318.994	301.704	175.640	313.645	336.707	152.471	327.696	362.552	121.777	324.652	296.865	365.050	29.559	0.00068934	0.00067189	0.00012517	1810.9	7.8804e-06	8.9116e-06	1800.4	482.38	6.8254e-06	6.3725e-06	549.51	185.77	161.37	55.117	4.0551e-06	68.191	0.00049798	0.00039415	0.00011006	1805.4	4.6609e-06	4.4854e-06	1792.5	482.5	4.5991e-06	4.1634e-06	550.6	186.3	161.58	55.682	4.5828e-06	68.663	107.692	115.797	114.228	39.866	161.598	184.421	39.610	44.368	174.313	169.459	44.132	48.209	48.914	53.296	185.085	52.294	-8191	255	
21125.713	1	1	0	0	0.13361	0.32341	0.14517	0.29729	0.24462	0.27135	0.22522	0.10431	0.25723	0.25146	0.32558	0.37434	0.36383	0.13072	0.30583	0.12515	-2	-2.6271	-2.4375	-2.9458	-2.8583	-2.2208	-3.0333	-2.6729	-2.5187	-2.7146	-2.4542	-2.7292	-2.5417	-2.5271	-2.7104	-2.7167	235.045	247.078	44.531	336.514	90.643	117.622	336.874	304.754	118.954	53.124	329.288	295.246	79.109	41.886	297.242	293.528	0.00069483	0.00059121	0.00015256	1811.6	8.1952e-06	5.2054e-06	1803.5	482.32	6.3425e-06	5.8539e-06	551.02	185.51	161.01	55.225	6.5052e-06	68.053	0.00050549	0.00039927	0.00011118	1808.8	4.5571e-06	4.3321e-06	1794.8	482.67	4.5543e-06	4.2847e-06	551.29	186.5	161.34	55.808	4.461e-06	68.571	106.733	124.581	110.711	39.872	167.441	198.891	39.824	44.310	177.770	183.622	43.907	48.017	48.494	53.528	180.060	52.367	-8191	255	
21125.809	1	1	0	0	0.097031	0.21995	0.22693	0.3427	0.37458	0.042749	0.19499	0.14419	0.2167	0.023054	0.15628	0.22347	0.19266	0.39461	0.1394	0.0083909	-1.975	-2.5938	-2.2583	-2.6854	-2.7333	-2.3333	-3.0479	-2.5563	-2.4583	-2.8563	-2.4917	-2.6875	-2.6875	-2.5604	-2.525	-2.7313	87.235	194.266	64.222	339.665	179.783	191.553	280.358	362.906	314.234	248.364	32.346	336.943	284.343	322.650	274.179	83.033	0.00069454	0.00068196	0.00018707	1818.4	4.0296e-06	6.783e-06	1801.6	482.29	8.1115e-06	6.6938e-06	550.07	185.46	161.06	55.195	6.7257e-06	68.054	0.00049992	0.00039578	0.00011211	1810.2	4.5199e-06	4.4111e-06	1793.9	481.98	4.6226e-06	4.344e-06	549.26	186.1	161.49	55.708	4.567e-06	68.58	108.767	118.654	116.351	39.768	185.172	179.453	39.698	44.203	168.527	169.303	43.935	48.231	48.703	53.263	166.722	52.237	-8191	255	
21125.904	1	1	0	0	0.10873	0.049899	0.10556	0.096382	0.14924	0.22555	0.40779	0.43881	0.074123	0.13995	0.096619	0.27936	0.28049	0.071441	0.19042	0.109	-2.1937	-2.6729	-2.2875	-2.6708	-2.7771	-2.3729	-2.9833	-2.5979	-2.3438	-2.7667	-2.6562	-2.4854	-2.7542	-2.3896	-2.4292	-2.6896	295.868	67.795	161.173	294.992	373.732	336.197	327.229	348.366	35.140	239.110	116.659	319.578	38.560	220.838	296.227	385.251	0.00072695	0.00056671	0.00022622	1813.8	7.3494e-06	6.8301e-06	1800.9	483.33	6.9678e-06	5.0261e-06	550.6	185.77	161.18	55.521	7.0198e-06	68.06	0.00050246	0.00039784	0.00011216	1809.3	4.5904e-06	4.3443e-06	1795.8	482.78	4.5602e-06	4.3872e-06	550.69	186.38	161.72	55.852	4.4527e-06	68.75	105.555	115.447	108.853	39.822	163.726	197.172	39.828	44.204	187.764	188.038	43.767	48.248	48.640	53.191	179.014	52.757	-8191	255	
21126.000	1	1	0	0	0.10852	0.19598	0.14324	0.12124	0.28447	0.12907	0.23891	0.33733	0.16542	0.17571	0.35755	0.36208	0.21238	0.22367	0.15507	0.14929	-1.7646	-2.3958	-2.4125	-2.625	-2.7021	-2.4208	-2.6937	-2.7479	-2.4	-2.6458	-2.525	-2.8375	-2.7188	-2.5396	-2.625	-2.6979	359.876	84.421	252.789	351.389	310.422	188.259	337.209	364.911	268.068	150.936	344.473	271.639	360.603	119.099	42.744	290.888	0.00068011	0.00066307	0.00022405	1813.9	7.3297e-06	7.1703e-06	1802	481.7	5.0532e-06	5.3793e-06	549.48	186.01	162.15	55.461	7.8969e-06	68.09	0.00049531	0.00039778	0.00011225	1810.2	4.5127e-06	4.3506e-06	1794.3	482	4.5772e-06	4.3595e-06	550.96	186.25	161.84	55.852	4.5379e-06	68.657	104.244	135.273	124.011	39.849	177.619	181.661	39.701	44.180	187.880	184.481	43.608	48.055	48.920	53.025	174.332	52.455	-8191	255	
21126.119	1	1	0	0	0.15105	0.053446	0.3072	0.28654	0.15164	0.031583	0.25027	0.19282	0.085337	0.18464	0.38691	0.26821	0.1074	0.086841	0.075538	0.19748	-2.0333	-2.6146	-2.5229	-2.7083	-2.6604	-2.45	-2.9062	-2.7667	-2.5021	-2.6917	-2.7917	-2.4104	-2.7	-2.4458	-2.4521	-2.7771	221.116	342.914	269.808	47.845	48.647	236.258	357.831	321.366	104.673	231.948	384.534	365.873	63.332	50.138	108.348	70.558	0.00073615	0.00054846	0.00023405	1817.7	7.7498e-06	5.1438e-06	1802.9	481.22	7.075e-06	5.2787e-06	549.1	185.41	161.75	55.111	6.6833e-06	68.462	0.00051095	0.00040587	0.00010955	1811.3	4.6199e-06	4.3899e-06	1797.6	482.01	4.7492e-06	4.3223e-06	551.39	186.44	161.69	55.748	4.591e-06	68.776	103.482	121.571	114.185	40.020	164.242	180.730	39.680	44.238	164.153	164.100	44.014	48.135	48.704	53.117	186.009	52.387	-8191	255	
21126.193	1	1	0	0	0.066148	0.13924	0.16733	0.22825	0.1437	0.21935	0.24329	0.18385	0.031679	0.14491	0.31638	0.24168	0.2355	0.22617	0.15481	0.2405	-1.9583	-2.6188	-2.5396	-2.6583	-2.7021	-2.4583	-2.7083	-2.9667	-2.4125	-2.4708	-2.7188	-2.5104	-2.5542	-2.5812	-2.2917	-2.8083	169.559	323.029	355.573	330.143	224.146	171.047	344.359	281.840	176.683	269.488	362.012	339.528	84.345	309.551	326.572	302.282	0.00070521	0.00070428	0.00016765	1822.3	8.0711e-06	6.8633e-06	1800.9	483.41	8.378e-06	6.239e-06	549.09	186.75	161.42	55.504	5.5681e-06	68.348	0.00049627	0.00040349	0.00011031	1814.8	4.6936e-06	4.4031e-06	1794.8	483.59	4.6386e-06	4.3424e-06	550.94	186.75	161.89	55.877	4.591e-06	68.789	106.206	119.109	91.379	39.893	176.696	201.408	39.777	44.417	183.309	182.541	44.072	47.998	48.574	53.044	189.756	52.612	-8191	255	
21126.289	1	1	0	0	0.088847	0.20325	0.34535	0.34472	0.26555	0.29974	0.42294	0.1248	0.063811	0.11768	0.2023	0.37097	0.090084	0.19675	0.071219	0.11404	-1.9875	-2.4417	-2.7042	-2.5479	-2.7208	-2.3396	-2.7167	-2.8937	-2.3896	-2.6083	-2.8375	-2.5687	-2.8208	-2.525	-2.5083	-2.9813	348.231	373.583	347.353	346.833	134.667	238.042	344.250	298.826	262.778	101.849	344.045	375.548	243.010	193.445	210.672	329.520	0.00066075	0.00073274	0.0001816	1825.3	8.6516e-06	4.6008e-06	1808.5	484.66	6.7418e-06	5.7715e-06	551.46	185.44	162.29	55.557	5.9754e-06	68.233	0.00049785	0.00041638	0.00010655	1815.6	4.5938e-06	4.4514e-06	1799.5	483.75	4.6411e-06	4.3997e-06	551.18	186.6	162.11	55.907	4.5439e-06	68.777	102.743	103.465	103.830	39.829	163.714	177.138	39.929	44.247	187.305	161.472	44.049	48.096	48.894	53.144	190.167	52.761	-8191	255	
21126.385	1	1	0	0	0.26983	0.027558	0.1166	0.26508	0.081519	0.032793	0.2731	0.37451	0.059445	0.19272	0.29042	0.16003	0.19933	0.12727	0.084388	0.21664	-1.9667	-2.4062	-2.75	-2.4646	-2.6917	-2.6271	-2.6729	-2.7854	-2.5687	-2.4417	-2.8187	-2.4938	-2.5667	-2.7083	-2.3208	-2.6021	353.269	172.961	131.563	349.730	69.206	261.680	341.347	333.502	117.238	312.126	331.808	283.035	223.844	333.161	306.968	353.799	0.00072353	0.00076999	0.00019131	1819.2	7.2871e-06	6.0796e-06	1804.6	483.89	7.5886e-06	4.9905e-06	551.96	186.39	162.29	55.598	6.2138e-06	68.403	0.00050007	0.00040721	0.00011021	1813.8	4.5919e-06	4.3034e-06	1797.8	483.67	4.5583e-06	4.376e-06	551.5	186.85	162.32	55.942	4.4296e-06	68.861	107.937	127.032	90.865	39.826	179.274	183.905	39.882	44.054	169.373	177.413	43.800	48.233	48.876	53.054	174.717	52.828	-8191	255	
21126.504	1	1	0	0	0.19647	0.10288	0.089514	0.045024	0.20113	0.21111	0.16458	0.23929	0.14266	0.11731	0.34489	0.42446	0.096549	0.12931	0.086402	0.020911	-2.0229	-2.3271	-2.5542	-2.5667	-2.5542	-2.4437	-2.7125	-2.8521	-2.4542	-2.5	-2.8521	-2.5687	-2.6542	-2.7667	-2.2604	-2.8104	64.849	26.682	158.726	73.640	26.384	72.555	304.812	338.801	190.850	299.832	270.797	342.939	385.323	39.488	188.432	277.707	0.00069012	0.00064136	0.0001836	1819.7	4.8264e-06	4.942e-06	1810.1	483.06	8.4671e-06	4.9358e-06	553.12	186.42	161.88	55.502	6.3947e-06	68.058	0.00049385	0.00040867	0.00011332	1816	4.5143e-06	4.2779e-06	1799.9	483.12	4.5395e-06	4.4976e-06	552.44	187	162.2	55.987	4.5236e-06	68.824	108.021	119.192	131.905	39.761	180.224	197.333	39.814	44.247	179.675	203.651	43.731	48.212	48.701	53.199	161.250	52.646	-8191	255	
21126.600	1	1	0	0	0.15036	0.204	0.091132	0.12939	0.17114	0.16503	0.31632	0.3359	0.17506	0.2181	0.0086287	0.11688	0.14313	0.25996	0.048795	0.1541	-1.9292	-2.2313	-2.6167	-2.5667	-2.5625	-2.6667	-2.5875	-2.7188	-2.45	-2.4437	-2.8312	-2.5104	-2.6312	-2.7542	-2.3583	-2.7417	342.432	221.090	225.017	26.897	285.388	317.121	342.814	318.917	177.053	184.024	50.258	35.568	304.007	54.735	136.961	316.141	0.00066993	0.00058232	0.00017333	1825	7.9497e-06	3.3375e-06	1804.8	485.37	7.2052e-06	5.2284e-06	550.24	186.29	162.65	55.545	7.1657e-06	68.433	0.00049981	0.00040915	0.00011065	1816.9	4.6426e-06	4.2333e-06	1799.9	483.63	4.6142e-06	4.3915e-06	551.34	187.06	162.26	55.911	4.5125e-06	69.004	109.713	132.991	128.376	39.752	158.493	173.914	39.592	44.357	175.776	168.296	43.871	48.009	48.284	53.105	176.223	52.527	-8191	255	
21126.695	1	1	0	0	0.11186	0.081009	0.13751	0.32472	0.14672	0.1272	0.36784	0.38724	0.25052	0.33839	0.18015	0.19854	0.12717	0.21461	0.074528	0.11151	-2.1792	-2.425	-2.8021	-2.6604	-2.5312	-2.7542	-2.5938	-2.7167	-2.5667	-2.4917	-2.7229	-2.7042	-2.5771	-2.775	-2.2458	-2.5708	383.278	260.497	370.959	371.241	254.349	216.773	346.176	358.714	134.133	185.105	234.379	27.182	129.290	41.367	158.875	323.018	0.00074346	0.00063581	0.00017878	1825.1	6.3834e-06	6.8944e-06	1810.3	483.93	6.266e-06	7.2365e-06	552.03	186.1	162.21	55.459	5.694e-06	68.375	0.00049483	0.00041043	0.00011491	1817	4.6522e-06	4.3437e-06	1800.9	484.25	4.6272e-06	4.3394e-06	552.15	187.09	162.32	56.026	4.5917e-06	68.89	108.921	119.846	109.843	39.824	185.482	176.765	39.728	44.239	173.360	178.061	43.732	48.208	48.790	53.162	180.489	52.512	-8191	255	
21126.793	1	1	0	0	0.24237	0.18536	0.15616	0.27817	0.20158	0.062025	0.18586	0.16245	0.082877	0.20908	0.084203	0.20357	0.058966	0.077731	0.17524	0.061975	-2.1271	-2.1479	-2.6146	-2.5479	-2.3896	-2.6667	-2.5521	-2.7146	-2.7708	-2.4479	-2.6958	-2.5583	-2.4729	-2.5438	-2.2604	-2.4688	130.460	355.060	188.642	338.267	211.399	115.227	358.324	341.803	85.092	336.788	72.913	327.029	258.698	283.685	339.211	193.944	0.00069611	0.00065185	9.2668e-05	1827.4	6.2245e-06	5.3525e-06	1801.9	484.04	6.3932e-06	7.6704e-06	553.6	186.99	162.31	55.678	6.9838e-06	68.42	0.00049655	0.00039272	0.00011032	1818.7	4.4807e-06	4.2565e-06	1799.3	484.01	4.5559e-06	4.3002e-06	553.22	187.43	162.79	56.077	4.4461e-06	68.913	108.489	116.483	141.274	39.962	152.622	162.300	39.706	44.202	170.773	188.134	43.968	47.977	48.833	53.131	179.971	52.373	-8191	255	
21126.889	1	1	0	0	0.10284	0.045056	0.14214	0.27775	0.10835	0.22651	0.53403	0.21297	0.1756	0.27277	0.25533	0.26435	0.14468	0.35862	0.10641	0.37856	-2.1021	-2.3208	-2.6625	-2.7417	-2.3625	-2.8375	-2.55	-2.775	-2.6896	-2.3708	-2.6562	-2.7854	-2.4542	-2.6292	-2.4604	-2.6063	139.892	179.348	146.895	31.656	244.035	244.296	352.207	350.446	286.326	286.387	284.289	373.712	255.711	379.954	148.696	323.356	0.0007299	0.00056113	0.00016762	1827.6	6.6799e-06	4.7418e-06	1815.3	486.86	4.5124e-06	5.1107e-06	552.6	186.45	162.74	55.873	7.7802e-06	68.209	0.00049798	0.0003948	0.00011214	1820.7	4.4484e-06	4.2935e-06	1804	485.59	4.5905e-06	4.3526e-06	552.4	187.07	162.58	56.16	4.5569e-06	68.924	105.470	134.458	109.014	39.783	164.949	166.801	39.603	44.343	202.886	182.418	43.968	48.096	48.487	53.014	180.645	52.523	-8191	255	
21126.984	1	1	0	0	0.26356	0.20968	0.096119	0.18174	0.28148	0.30994	0.13983	0.41871	0.034525	0.24511	0.15422	0.25865	0.18102	0.17269	0.1526	0.2407	-2.3792	-2.3688	-2.6979	-2.8354	-2.4208	-2.6729	-2.7208	-2.6875	-2.6917	-2.4062	-2.8312	-2.6729	-2.2062	-2.7125	-2.4292	-2.6167	358.621	257.912	165.161	273.387	82.443	55.788	317.535	289.750	110.946	323.182	118.882	303.278	374.061	52.082	238.508	354.355	0.00071147	0.00061958	0.00013671	1829	6.1853e-06	4.7901e-06	1804.7	486.58	5.8294e-06	4.7237e-06	550.49	186.7	161.6	55.846	6.1421e-06	68.377	0.00049126	0.00040174	0.00011066	1820.1	4.5559e-06	4.4533e-06	1802.1	484.64	4.6016e-06	4.3427e-06	553.48	187.51	162.38	56.108	4.3632e-06	68.994	109.261	125.592	137.467	39.936	174.907	199.356	39.790	44.356	187.330	177.843	43.744	47.826	48.567	53.062	176.832	52.560	-8191	255	
21127.105	1	1	0	0	0.2575	0.18116	0.092448	0.37757	0.21504	0.098017	0.48391	0.082879	0.099822	0.15788	0.26002	0.038194	0.16857	0.23928	0.2348	0.32714	-2.3479	-2.1271	-2.4292	-2.9021	-2.3	-2.5917	-2.7771	-2.4708	-2.7271	-2.3729	-2.5812	-2.7	-2.2188	-2.8	-2.4146	-2.5	298.532	269.776	177.079	327.144	170.839	316.929	356.211	259.624	61.153	119.047	332.592	159.184	28.619	373.390	115.362	294.292	0.00073542	0.00075848	0.00016513	1829.2	5.6671e-06	5.1359e-06	1811.1	485.25	7.6029e-06	6.3044e-06	555.48	186.38	162.39	55.549	5.7659e-06	68.176	0.00048739	0.00039599	0.00011419	1822.6	4.6603e-06	4.2495e-06	1805.8	484.94	4.6908e-06	4.3572e-06	554.51	187.49	162.75	56.152	4.4296e-06	69	108.527	123.714	114.659	39.952	165.370	198.696	39.853	44.288	183.212	187.906	43.878	47.895	48.568	53.316	185.309	52.473	-8191	255	
21127.201	1	1	0	0	0.29421	0.21171	0.18101	0.34166	0.20248	0.1246	0.3633	0.23665	0.43678	0.10943	0.33972	0.22826	0.087821	0.21395	0.2391	0.28609	-2.2687	-2.4542	-2.5833	-2.8438	-2.3125	-2.4146	-2.85	-2.5292	-2.8042	-2.3563	-2.4333	-2.8396	-2.3917	-2.7125	-2.6146	-2.3417	341.730	324.330	230.901	344.617	342.848	350.201	338.768	365.116	184.060	240.293	325.237	297.281	360.206	362.571	136.867	373.865	0.00071492	0.00064135	0.00017466	1829.6	5.724e-06	6.8357e-06	1814.4	485.71	6.8392e-06	4.0606e-06	554.85	186.85	162.24	55.703	7.3116e-06	68.643	0.00050038	0.00039302	0.00010919	1822.9	4.6174e-06	4.3658e-06	1807.5	485.68	4.6467e-06	4.1786e-06	554.94	187.74	162.87	56.15	4.3603e-06	69.047	104.381	131.694	101.595	40.091	168.542	186.984	39.767	44.318	185.429	186.781	43.962	48.277	48.539	53.049	174.239	52.704	-8191	255	
21127.297	1	1	0	0	0.22681	0.099775	0.24045	0.39584	0.025521	0.10885	0.28318	0.46152	0.15931	0.32209	0.034626	0.26532	0.044676	0.075516	0.059744	0.080073	-2.0896	-2.2333	-2.3917	-2.8083	-2.2	-2.55	-2.825	-2.4729	-2.6292	-2.5979	-2.4396	-2.8292	-2.4104	-2.65	-2.7167	-2.3875	342.484	245.761	154.667	339.496	367.724	111.897	339.141	338.158	195.289	218.587	222.854	306.761	311.145	358.511	50.083	259.757	0.00066162	0.00064741	0.00023762	1835.5	7.2265e-06	5.9825e-06	1817.6	485.11	6.6182e-06	6.0647e-06	556.59	187.89	162.47	55.995	5.1252e-06	68.747	0.00049624	0.00040433	0.00011015	1826.5	4.6066e-06	4.345e-06	1807.4	486	4.6115e-06	4.4367e-06	554.47	188.18	162.83	56.401	4.4869e-06	69.214	106.976	116.165	97.932	39.926	158.974	185.984	39.721	44.305	168.775	165.692	43.926	48.353	48.835	53.269	150.996	52.431	-8191	255	
21127.416	1	1	0	0	0.24858	0.16634	0.16264	0.33405	0.29377	0.24863	0.32681	0.20307	0.16694	0.27477	0.1918	0.16902	0.16857	0.33422	0.056976	0.28774	-2.1854	-2.3604	-2.4729	-2.7458	-2.4854	-2.525	-2.8875	-2.4167	-2.6875	-2.6396	-2.3583	-2.8229	-2.5812	-2.4604	-2.6479	-2.4896	304.082	98.791	161.045	341.747	383.958	149.622	362.471	329.027	366.058	157.276	309.417	369.371	134.513	358.067	357.964	347.735	0.00068134	0.00073732	0.00014202	1833.3	5.967e-06	6.1547e-06	1815.5	484.88	6.3534e-06	7.5486e-06	556	187.11	162.07	56.001	5.4838e-06	68.575	0.00049559	0.00040296	0.00010986	1825.3	4.4673e-06	4.3245e-06	1808.1	485.69	4.5099e-06	4.2188e-06	554.89	188.17	162.64	56.366	4.3986e-06	69.194	109.839	130.444	124.314	39.992	168.766	189.099	39.708	44.167	169.413	183.097	43.889	48.199	48.451	53.135	182.686	52.500	-8191	255	
21127.488	1	1	0	0	0.43711	0.12534	0.15211	0.29425	0.035009	0.03732	0.25138	0.30308	0.11295	0.12968	0.13007	0.28285	0.12078	0.20011	0.33344	0.34171	-2.0667	-2.575	-2.3271	-2.8917	-2.4562	-2.5208	-2.8521	-2.5229	-2.6708	-2.7542	-2.4521	-2.9229	-2.5187	-2.4875	-2.675	-2.3563	86.224	351.217	91.799	380.045	29.841	269.731	336.569	313.743	217.524	196.952	210.131	336.276	302.532	381.285	58.460	281.591	0.0006794	0.00079418	0.00014889	1827.6	6.8077e-06	4.5482e-06	1818.6	485.52	7.014e-06	6.9478e-06	553.88	187.71	162.24	55.938	5.4776e-06	68.496	0.00050492	0.00039194	0.00010946	1824.3	4.5332e-06	4.3754e-06	1808.9	486.21	4.5883e-06	4.2409e-06	554	188.05	162.99	56.427	4.36e-06	69.129	108.346	110.125	113.261	39.935	173.690	196.552	39.719	44.216	155.279	189.569	43.708	48.037	48.373	53.088	169.480	52.534	-8191	255	
21127.584	1	1	0	0	0.16929	0.079298	0.29326	0.24793	0.11233	0.18074	0.22775	0.12299	0.051609	0.23172	0.081762	0.31649	0.30905	0.28325	0.12778	0.29375	-2.1833	-2.4333	-2.2583	-2.7604	-2.5687	-2.3	-2.7188	-2.6625	-2.5	-2.5458	-2.4896	-2.5667	-2.4333	-2.3563	-2.5875	-2.6271	371.792	111.753	66.523	306.860	220.965	258.277	348.146	140.536	175.206	333.018	262.379	353.053	108.069	327.833	64.798	380.106	0.00070832	0.00064562	0.00016144	1834.3	8.4934e-06	5.7237e-06	1815.6	486.04	4.6581e-06	4.9125e-06	557.93	188.02	163.52	55.968	7.5862e-06	68.959	0.00049775	0.00039885	0.0001109	1827.8	4.6289e-06	4.3546e-06	1810.3	486.15	4.6346e-06	4.3101e-06	555.15	188.28	163.33	56.324	4.6477e-06	69.407	107.771	113.983	111.033	39.726	166.929	184.183	39.867	44.221	189.094	179.483	43.725	48.023	48.649	53.344	190.870	52.560	-8191	255	
21127.680	1	1	0	0	0.11008	0.1759	0.079853	0.17089	0.15946	0.10158	0.34323	0.043676	0.058563	0.047255	0.26003	0.13693	0.052996	0.09971	0.21478	0.29865	-1.8438	-2.5417	-2.1813	-2.7812	-2.5333	-2.375	-3.0104	-2.6083	-2.4062	-2.4958	-2.3354	-2.6146	-2.8083	-2.4729	-2.6271	-2.6146	362.105	358.624	223.131	266.355	380.414	227.266	328.426	321.044	295.285	185.742	321.326	376.335	109.637	32.361	379.436	301.769	0.00072846	0.00061932	0.00014634	1837.1	5.933e-06	7.1615e-06	1818	487.02	8.8928e-06	7.5314e-06	553.87	187.66	162.85	56.012	7.0906e-06	68.865	0.00049885	0.00038897	0.00011219	1829	4.7299e-06	4.2812e-06	1811.5	486.51	4.542e-06	4.3022e-06	554.88	188.59	163.4	56.471	4.3369e-06	69.329	105.303	118.096	127.154	39.852	162.533	181.928	39.777	44.110	168.792	186.675	43.840	48.220	48.460	53.391	180.006	52.239	-8191	255	
21127.801	1	1	0	0	0.0018598	0.29167	0.058679	0.40282	0.016534	0.12417	0.36669	0.27051	0.48001	0.23681	0.081581	0.27429	0.19891	0.10687	0.22756	0.19832	-1.85	-2.5458	-2.4792	-2.7562	-2.6875	-2.2104	-2.9125	-2.6792	-2.2208	-2.575	-2.4729	-2.7021	-2.7125	-2.425	-2.4896	-2.4562	180.000	311.685	149.259	342.906	385.338	61.705	367.515	347.859	189.883	159.609	60.870	345.719	338.069	235.939	350.009	338.266	0.00068024	0.00052532	0.00013849	1834.7	7.7236e-06	6.1128e-06	1824.7	487.68	7.7092e-06	5.2026e-06	553.08	187.66	163.15	55.811	6.7606e-06	68.864	0.00048883	0.00039861	0.00011338	1826.9	4.669e-06	4.2888e-06	1813	486.25	4.6186e-06	4.2399e-06	553.59	188.17	163.43	56.348	4.4698e-06	69.248	109.426	123.691	103.455	40.014	189.916	192.424	39.829	44.217	183.468	195.876	43.962	48.158	48.537	53.104	172.991	52.329	-8191	255	
21127.896	1	1	0	0	0.079913	0.19629	0.041743	0.023815	0.13001	0.24064	0.36007	0.26737	0.13254	0.3552	0.4183	0.22169	0.23696	0.13601	0.24916	0.14668	-1.9583	-2.7708	-2.2479	-2.8104	-2.7083	-2.1417	-2.75	-2.7625	-2.3187	-2.5917	-2.4729	-2.4417	-2.775	-2.4708	-2.5854	-2.6333	100.438	331.964	115.526	122.966	377.572	228.628	355.828	356.118	272.818	226.221	332.141	316.353	327.595	284.717	247.962	322.015	0.0006675	0.00072073	0.00017432	1834.7	6.996e-06	6.0263e-06	1820.7	486.9	7.3822e-06	5.8234e-06	556.29	187.15	162.97	55.981	5.2558e-06	68.553	0.00048872	0.00040227	0.00011471	1828.9	4.4686e-06	4.3926e-06	1811.8	487.31	4.5861e-06	4.2261e-06	555.29	188.33	163.46	56.436	4.4024e-06	69.254	106.828	114.967	99.308	40.059	175.928	161.905	39.718	44.373	195.739	151.936	43.926	47.923	48.577	53.111	181.498	52.449	-8191	255	
21127.992	1	1	0	0	0.093322	0.035237	0.30632	0.29108	0.11744	0.047597	0.34874	0.11946	0.24125	0.0035725	0.1715	0.27875	0.15054	0.25636	0.10859	0.2681	-1.8979	-2.5312	-2.275	-2.6292	-2.8146	-2.475	-2.6583	-2.8	-2.3833	-2.6771	-2.5854	-2.4688	-2.6167	-2.5125	-2.4854	-2.7854	160.861	105.193	239.712	363.878	96.329	67.851	385.546	358.275	291.913	332.603	285.334	370.772	359.714	338.901	282.745	341.368	0.00074471	0.0006183	0.00018903	1834.2	5.3512e-06	6.0151e-06	1820.2	487.61	6.914e-06	5.9783e-06	554.99	187.21	163.66	56.3	6.5503e-06	68.67	0.00050701	0.0004101	0.00011181	1828.3	4.5494e-06	4.3853e-06	1813.6	487.67	4.5259e-06	4.2663e-06	555.07	188.45	163.87	56.532	4.547e-06	69.321	108.151	107.441	111.467	39.898	179.709	199.310	39.789	44.297	173.983	173.463	43.592	47.979	48.671	52.987	180.877	52.251	-8191	255	
21128.064	1	1	0	0	0.31988	0.12512	0.12	0.14399	0.33859	0.20221	0.19699	0.17971	0.48217	0.20209	0.19338	0.30949	0.15994	0.18769	0.35481	0.29985	-1.8792	-2.625	-2.3937	-2.5208	-2.7208	-2.4542	-2.85	-2.7125	-2.4083	-2.65	-2.5979	-2.4396	-2.5583	-2.5875	-2.5167	-2.8292	322.673	378.564	275.448	113.727	140.986	132.675	349.728	329.144	163.236	32.682	257.510	359.212	100.428	385.523	229.946	279.806	0.0007275	0.00060111	0.00017293	1832.7	6.2639e-06	5.611e-06	1818.3	487.16	6.7421e-06	7.4524e-06	556.84	188	163.81	55.887	5.3889e-06	69.075	0.00049942	0.00041007	0.00011115	1828.4	4.5488e-06	4.4021e-06	1812.2	487.16	4.5126e-06	4.23e-06	556.11	188.34	163.5	56.398	4.4252e-06	69.45	105.833	130.374	108.550	39.897	167.312	181.501	39.738	44.209	171.399	180.730	43.973	47.985	48.666	53.252	176.661	52.580	-8191	255	
21128.186	1	1	0	0	0.17629	0.26467	0.24088	0.17507	0.0020506	0.071222	0.32658	0.17625	0.12622	0.19777	0.29041	0.27013	0.27183	0.20391	0.31931	0.23759	-1.9208	-2.5792	-2.4229	-2.4917	-2.6479	-2.5104	-2.7979	-2.7854	-2.1583	-2.5792	-2.6188	-2.4979	-2.7875	-2.4625	-2.4896	-2.7604	315.086	337.950	165.781	69.968	180.000	34.466	345.402	317.280	333.282	218.880	326.998	355.790	354.209	357.662	238.505	316.565	0.00067663	0.00068675	0.00020012	1839.3	8.0192e-06	4.6257e-06	1820.8	488.32	5.9613e-06	5.7029e-06	553.9	187.49	163.15	55.928	6.7314e-06	68.979	0.00048548	0.00039971	0.00011209	1829.9	4.4919e-06	4.3305e-06	1814	486.7	4.5565e-06	4.3447e-06	555.06	188.11	163.63	56.405	4.6825e-06	69.275	106.499	119.243	96.501	40.121	168.829	190.650	39.725	44.193	190.160	182.309	43.859	48.206	48.615	53.207	181.818	52.419	-8191	255	
21128.281	1	1	0	0	0.076373	0.076355	0.22765	0.34223	0.11631	0.1365	0.25885	0.25096	0.056059	0.049039	0.15858	0.23665	0.20473	0.28548	0.15557	0.57164	-1.9542	-2.4813	-2.4146	-2.6312	-2.55	-2.3979	-2.4688	-2.7562	-2.3521	-2.4938	-2.8292	-2.5104	-2.825	-2.7229	-2.3458	-2.6583	35.269	65.653	135.023	340.015	245.599	302.786	318.227	312.109	185.854	78.457	294.267	294.508	342.412	342.078	373.517	369.230	0.00069182	0.00065847	0.00015739	1831.8	7.1422e-06	5.6234e-06	1822.6	487.3	7.1118e-06	7.7311e-06	555.08	186.56	162.41	56.089	4.7972e-06	68.884	0.0004954	0.00039438	0.0001096	1827.8	4.6482e-06	4.4391e-06	1814.7	487.23	4.5846e-06	4.2989e-06	555.57	188.03	163.2	56.435	4.2821e-06	69.249	104.695	121.341	95.535	39.836	164.274	187.348	39.895	44.165	172.314	178.127	43.924	48.066	48.427	53.090	190.021	52.398	-8191	255	
21128.379	1	1	0	0	0.069301	0.12513	0.3624	0.1676	0.38721	0.13546	0.38592	0.35618	0.12737	0.20024	0.44759	0.13449	0.1685	0.20646	0.16307	0.062859	-2.1646	-2.3812	-2.6354	-2.4292	-2.7521	-2.5167	-2.6208	-2.8042	-2.3833	-2.3229	-2.7021	-2.4417	-2.5083	-2.4542	-2.5146	-2.8063	205.457	322.184	244.279	44.409	311.903	313.990	296.626	332.825	260.177	102.527	304.923	251.308	309.072	307.100	371.693	67.454	0.00069102	0.0004495	0.00017511	1837.4	6.8806e-06	7.3219e-06	1819.1	487.44	6.8573e-06	5.2153e-06	553.57	187.58	163.04	55.792	7.1966e-06	68.846	0.00050051	0.00040186	0.00010859	1828.7	4.5354e-06	4.3272e-06	1812.7	487	4.659e-06	4.3444e-06	554.69	188.44	163.31	56.317	4.4505e-06	69.292	105.891	111.647	100.712	39.869	163.170	176.834	39.810	44.249	182.766	186.532	43.834	48.116	48.353	53.272	161.457	52.467	-8191	255	
21128.496	1	1	0	0	0.23969	0.097239	0.27906	0.26854	0.28867	0.19001	0.44543	0.28002	0.16244	0.16495	0.19833	0.23316	0.21745	0.20001	0.1686	0.22653	-2.0979	-2.4542	-2.5542	-2.6604	-2.4688	-2.6292	-2.4479	-2.9833	-2.5771	-2.2938	-2.7313	-2.4667	-2.5958	-2.7146	-2.3167	-2.5542	170.158	249.897	372.839	281.410	40.354	146.587	356.650	338.977	167.927	44.137	295.703	234.771	287.483	354.768	303.957	143.414	0.00071204	0.00068816	0.00022315	1841.1	7.0514e-06	7.6648e-06	1817.2	486.93	7.7167e-06	5.0166e-06	553.84	187.09	163.55	55.983	6.8582e-06	68.499	0.00049518	0.00041174	0.00011044	1831.6	4.5798e-06	4.5541e-06	1811.3	486.85	4.5871e-06	4.1898e-06	554.64	187.97	163.33	56.331	4.4853e-06	69.135	105.912	138.095	101.939	39.844	167.926	184.626	39.776	44.143	177.349	185.050	43.916	48.076	48.628	53.179	189.973	52.511	-8191	255	
21128.594	1	1	0	0	0.29232	0.090725	0.094707	0.13324	0.069243	0.27713	0.23631	0.078772	0.29486	0.18685	0.1827	0.27471	0.29496	0.012237	0.23609	0.43522	-1.9604	-2.2021	-2.525	-2.6354	-2.5271	-2.4396	-2.5812	-2.6417	-2.4146	-2.3125	-3.0062	-2.6688	-2.6458	-2.8583	-2.3937	-2.5896	190.135	243.746	38.942	337.145	298.889	366.374	356.790	352.820	117.152	298.111	45.289	303.071	384.330	141.556	137.357	363.787	0.00074397	0.00044052	0.00016572	1829.8	6.6844e-06	7.0568e-06	1812.5	484.9	6.5262e-06	6.5818e-06	551.99	185.2	161.41	55.415	7.432e-06	67.995	0.00049364	0.00039519	0.00010945	1822.2	4.5947e-06	4.2631e-06	1805.7	484.59	4.5293e-06	4.3974e-06	551.85	186.18	161.44	55.771	4.5524e-06	68.546	110.743	110.281	121.491	39.741	172.531	163.460	39.679	44.375	165.765	188.692	44.157	48.087	48.585	53.168	162.873	52.628	-8191	255	
21128.689	1	1	0	0	0.050418	0.061009	0.1627	0.13959	0.056346	0.34172	0.21651	0.44921	0.046067	0.15154	0.29172	0.15253	0.053734	0.12252	0.29905	0.25138	-2.1375	-2.1958	-2.6667	-2.5729	-2.4583	-2.6958	-2.5583	-2.6917	-2.7167	-2.2271	-2.7479	-2.6729	-2.3625	-2.9208	-2.5521	-2.6167	52.920	255.821	172.487	37.097	181.913	319.581	67.232	358.847	214.100	301.188	329.073	328.887	120.284	318.019	158.454	381.992	0.00071285	0.00066074	0.00018013	1818.1	7.4745e-06	5.8839e-06	1805	482.12	7.5859e-06	6.1132e-06	550.43	185.68	161.05	55.307	7.031e-06	68.084	0.00049559	0.00040245	0.0001118	1812.9	4.6034e-06	4.3291e-06	1795.8	482.5	4.6495e-06	4.3197e-06	550.86	185.93	161.49	55.745	4.6588e-06	68.55	108.853	124.096	125.113	39.793	171.432	192.061	39.866	44.425	178.200	174.091	44.068	48.175	48.203	53.563	180.629	52.507	-8191	255	
21128.785	1	1	0	0	0.14435	0.16772	0.42323	0.19412	0.20875	0.17654	0.33737	0.2893	0.15319	0.041684	0.13613	0.17687	0.094381	0.11828	0.3811	0.16337	-2.1958	-2.2854	-2.4313	-2.575	-2.3812	-2.8458	-2.6188	-2.6854	-2.5979	-2.2021	-2.6708	-2.7125	-2.2667	-2.7271	-2.3479	-2.5062	42.294	185.775	309.449	327.324	86.848	120.181	77.771	35.546	93.004	311.912	280.365	122.255	293.147	298.655	134.392	323.115	0.00071341	0.0006306	0.00020747	1820.1	8.112e-06	3.9698e-06	1807.5	484.16	5.8149e-06	6.1226e-06	553.54	186.32	162.28	55.772	4.213e-06	68.35	0.00049925	0.00040599	0.00011452	1813.2	4.7364e-06	4.3711e-06	1798.9	483.54	4.7461e-06	4.6453e-06	552.68	186.74	161.79	56.006	4.6252e-06	68.775	108.474	117.524	92.138	39.856	162.841	182.837	39.792	44.415	178.351	194.068	43.828	47.856	48.747	53.292	190.718	52.460	-8191	255	
21128.881	1	1	0	0	0.21069	0.14888	0.06762	0.38941	0.32741	0.11934	0.1886	0.186	0.2118	0.23144	0.26189	0.35372	0.20031	0.25636	0.020863	0.218	-2.2062	-2.5	-2.4958	-2.7479	-2.2292	-2.6542	-2.5521	-2.6188	-2.7292	-2.3708	-2.7833	-2.6708	-2.5	-2.6583	-2.3312	-2.525	270.627	359.530	288.441	350.312	155.913	242.995	297.588	137.264	355.113	66.394	327.249	314.778	323.469	333.789	211.646	338.957	0.00070164	0.0006879	0.00017031	1821	8.0027e-06	6.4885e-06	1810.5	485.22	8.0989e-06	6.8701e-06	555.59	187.38	163.63	55.738	5.2636e-06	68.478	0.00049046	0.00041177	0.00010972	1817.6	4.5388e-06	4.3658e-06	1805.6	485.19	4.6779e-06	4.3299e-06	554.58	187.87	163.19	56.187	4.5724e-06	69.147	106.456	126.200	114.122	39.878	177.643	175.702	39.785	44.387	180.334	179.886	43.697	47.986	48.506	53.220	183.174	52.792	-8191	255	
21128.977	1	1	0	0	0.12116	0.069275	0.1399	0.23499	0.052707	0.365	0.32258	0.33561	0.11331	0.07311	0.22467	0.27625	0.2057	0.28305	0.15124	0.29326	-2.3167	-2.4417	-2.5583	-2.8479	-2.1042	-2.4167	-2.8	-2.5729	-2.6396	-2.4604	-2.6083	-2.7333	-2.4021	-2.8083	-2.4729	-2.35	178.656	279.047	375.613	358.466	198.895	360.434	381.864	368.621	54.545	120.001	335.003	321.977	364.111	310.070	377.914	324.238	0.00074802	0.00078988	0.00015857	1836.4	5.3448e-06	7.7049e-06	1817.7	488.17	5.8806e-06	6.1463e-06	554.68	188.35	163.73	56.214	6.319e-06	68.703	0.00049085	0.00040501	0.00010958	1824.6	4.5351e-06	4.3496e-06	1810.6	487.07	4.4651e-06	4.4017e-06	555.04	188.6	163.72	56.467	4.3214e-06	69.238	106.191	127.244	111.697	39.886	167.459	180.845	39.847	44.229	179.923	169.664	43.855	48.190	48.504	53.231	159.398	52.562	-8191	255	
21129.098	1	1	0	0	0.18722	0.16195	0.25306	0.30371	0.10744	0.048499	0.13293	0.33233	0.1271	0.19252	0.5367	0.15236	0.14025	0.21684	0.15752	0.23978	-2.3625	-2.375	-2.5417	-2.8333	-2.4771	-2.6833	-2.8063	-2.5479	-2.7125	-2.4604	-2.7458	-2.9437	-2.3667	-2.7833	-2.3937	-2.4333	226.121	321.878	292.302	338.988	263.517	196.757	317.915	368.155	179.087	75.026	357.073	357.911	313.628	33.200	158.927	261.893	0.00069722	0.00071859	0.00016047	1837.6	5.8892e-06	8.0821e-06	1820.1	487.92	4.1814e-06	4.5546e-06	556.84	187.62	163.55	56.085	6.8178e-06	68.7	0.00049731	0.00040358	0.00011052	1828.3	4.6681e-06	4.4329e-06	1812.1	487.08	4.5099e-06	4.2643e-06	555.42	188.38	163.6	56.458	4.4562e-06	69.287	106.200	130.074	113.889	39.594	167.687	181.884	39.916	44.197	187.376	192.672	44.103	47.937	48.679	53.040	178.373	52.340	-8191	255	
21129.193	1	1	0	0	0.30433	0.20958	0.17858	0.21955	0.25971	0.16458	0.25529	0.14953	0.073442	0.020873	0.25725	0.2263	0.19618	0.37446	0.26615	0.10349	-2.275	-2.1417	-2.3542	-2.675	-2.3708	-2.7021	-2.65	-2.5667	-2.6688	-2.4854	-2.6333	-2.9938	-2.4542	-2.6125	-2.5792	-2.4688	265.132	51.313	153.418	31.947	141.810	94.699	328.079	40.146	177.516	43.265	311.119	73.578	307.552	80.530	179.361	56.398	0.00070821	0.00046119	0.00015289	1836.9	7.1169e-06	5.6251e-06	1817.4	487.5	6.2264e-06	9.8583e-06	557.49	188.18	163.8	56.015	6.019e-06	68.633	0.00050597	0.00039953	0.00011009	1829.9	4.5077e-06	4.3757e-06	1813.2	487.6	4.6343e-06	4.3348e-06	557.38	188.71	163.81	56.477	4.3875e-06	69.489	106.108	115.669	98.118	39.966	152.322	187.418	39.691	44.443	152.039	176.000	43.942	47.919	48.596	53.250	168.386	52.569	-8191	255	
21129.289	1	1	0	0	0.17173	0.17304	0.1538	0.28719	0.35443	0.1332	0.27499	0.22822	0.19368	0.17464	0.17781	0.13562	0.2936	0.10495	0.25648	0.10495	-2.3708	-2.3563	-2.1875	-2.7583	-2.4979	-2.6125	-3.0021	-2.5792	-2.3854	-2.6	-2.6396	-2.8042	-2.7292	-2.6146	-2.7375	-2.5708	38.918	168.693	80.250	44.899	105.908	340.990	336.014	40.142	48.240	195.355	28.092	169.491	379.132	248.729	141.098	296.976	0.00070306	0.0007243	0.00016086	1833.9	7.9246e-06	2.7788e-06	1824.6	488.21	8.0258e-06	5.3915e-06	556.27	188.95	164.1	56.281	6.4499e-06	68.92	0.00049653	0.00037831	0.00010382	1829.2	4.5227e-06	4.2528e-06	1815.6	488.56	4.58e-06	4.2623e-06	556.22	189.1	164.15	56.633	4.3549e-06	69.548	108.015	132.541	125.093	39.817	164.675	176.702	39.764	44.421	187.422	193.798	43.859	48.253	48.498	53.324	181.634	52.407	-8191	255	
21129.361	1	1	0	0	0.076651	0.093883	0.10328	0.23494	0.056376	0.20469	0.30891	0.12804	0.26054	0.085617	0.21505	0.10729	0.42739	0.18506	0.1511	0.27796	-2.1604	-2.4271	-2.1437	-2.8771	-2.3812	-2.4458	-2.7313	-2.4938	-2.7354	-2.4813	-2.4479	-2.7292	-2.4583	-2.5062	-2.5812	-2.5396	82.414	271.846	256.444	384.152	260.578	67.920	323.257	47.273	113.288	190.291	290.448	353.965	264.324	28.799	373.330	309.473	0.00072288	0.00057931	0.00017612	1842.5	7.929e-06	5.8327e-06	1823.3	487.61	7.3589e-06	6.4782e-06	556.59	188.31	163.66	55.956	7.1346e-06	69.21	0.00049039	0.00039194	0.00010998	1834.8	4.5652e-06	4.4342e-06	1817	488.19	4.4777e-06	4.1967e-06	555.9	188.83	163.95	56.503	4.4312e-06	69.541	105.821	114.172	114.307	39.787	176.104	193.575	39.753	44.219	191.430	177.983	44.043	48.218	48.758	52.994	178.415	52.317	-8191	255	
21129.480	1	1	0	0	0.15653	0.035267	0.11721	0.52189	0.16871	0.030854	0.19922	0.1532	0.29601	0.013464	0.3296	0.27382	0.061512	0.20545	0.12668	0.35083	-2.3708	-2.4458	-2.1875	-2.7917	-2.6896	-2.5875	-3.0375	-2.6229	-2.6437	-2.5875	-2.6021	-2.875	-2.5479	-2.6667	-2.7042	-2.5083	352.889	139.453	89.310	361.275	261.551	40.048	301.625	363.181	230.452	33.707	305.295	348.857	39.097	385.055	206.107	252.985	0.00070605	0.0008085	0.00026031	1835.3	6.0281e-06	5.5797e-06	1822.6	488.1	5.9301e-06	5.1692e-06	556.77	187.83	165.24	56.036	3.1782e-06	69.205	0.00049812	0.00038751	0.00010999	1831.3	4.4782e-06	4.3331e-06	1818.2	488.65	4.5058e-06	4.2673e-06	557.44	189.03	164.39	56.598	4.3568e-06	69.686	107.148	133.784	111.177	39.952	176.982	174.151	39.650	44.099	181.532	175.241	43.787	48.097	48.720	52.962	193.228	52.433	-8191	255	
21129.576	1	1	0	0	0.16211	0.071645	0.21715	0.34065	0.10893	0.17822	0.28306	0.45219	0.28347	0.035983	0.23176	0.11644	0.15789	0.085634	0.057487	0.1212	-2.1813	-2.5375	-2.3292	-2.7812	-2.6458	-2.4167	-2.8271	-2.4938	-2.4083	-2.6583	-2.3646	-2.6708	-2.5104	-2.3146	-2.575	-2.575	63.478	266.869	133.798	299.811	368.967	315.509	340.449	351.356	94.082	279.189	356.602	80.974	260.233	339.578	161.001	333.454	0.0007696	0.00077698	0.00021854	1838.8	8.3496e-06	6.2578e-06	1824.6	488.53	5.63e-06	7.7826e-06	554.11	188.17	163.5	56.267	4.6684e-06	68.845	0.00049629	0.00039069	0.00010683	1833.1	4.5062e-06	4.121e-06	1817.9	488.65	4.462e-06	4.1565e-06	556.13	189.18	163.88	56.735	4.3527e-06	69.547	106.606	114.620	115.343	39.912	177.716	185.923	39.643	44.208	174.966	182.979	43.868	48.212	48.616	53.140	176.760	52.284	-8191	255	
21129.674	1	1	0	0	0.18544	0.086829	0.15571	0.34908	0.13701	0.11573	0.07733	0.018426	0.20244	0.25985	0.18172	0.20819	0.14919	0.168	0.055574	0.18392	-1.9583	-2.5333	-2.2188	-2.6188	-2.6354	-2.2583	-2.7938	-2.6292	-2.6271	-2.65	-2.3875	-2.7396	-2.7083	-2.3333	-2.7062	-2.6542	110.775	82.605	293.228	313.393	81.020	153.221	133.193	44.617	40.209	65.104	384.039	290.351	275.885	268.218	300.609	319.069	0.00069981	0.00062851	0.0001631	1838.8	5.9614e-06	7.8285e-06	1830.3	487.39	7.512e-06	7.0784e-06	559.64	188.35	165.25	56.088	6.6327e-06	69.074	0.00048065	0.00038534	0.00011041	1834.2	4.4123e-06	4.3447e-06	1819.9	488.13	4.3903e-06	4.1367e-06	558.79	189.17	164.69	56.652	4.5129e-06	69.633	108.582	105.539	120.356	39.875	186.867	181.908	39.726	44.221	172.265	205.280	43.984	48.068	48.644	53.110	173.970	52.495	-8191	255	
21129.770	1	1	0	0	0.35856	0.031005	0.17882	0.25881	0.095868	0.090665	0.23332	0.36354	0.16042	0.10769	0.22383	0.26903	0.2613	0.23049	0.22268	0.28351	-1.9354	-2.65	-2.4	-2.5208	-2.7458	-2.2021	-2.7208	-2.75	-2.1375	-2.7083	-2.4583	-2.5104	-2.6396	-2.4792	-2.5646	-2.5667	146.876	90.951	300.205	368.622	240.326	258.872	283.517	290.244	145.758	307.138	46.430	276.577	364.008	314.182	342.867	364.487	0.0007081	0.00064706	0.00023811	1841.9	7.9551e-06	6.116e-06	1826.1	489.78	5.9063e-06	6.2285e-06	557.03	188.52	165.25	56.237	6.3021e-06	68.977	0.00049257	0.0004015	0.00011139	1836.3	4.4776e-06	4.4639e-06	1819.6	488.95	4.512e-06	4.4676e-06	557.95	189.76	164.77	56.684	4.4157e-06	69.599	107.299	121.178	93.611	39.884	178.207	185.057	39.847	44.238	170.000	187.274	43.972	48.210	48.463	53.260	203.010	52.466	-8191	255	
21129.891	1	1	0	0	0.14039	0.1753	0.17255	0.27662	0.11317	0.13855	0.12209	0.14389	0.20626	0.11396	0.30014	0.087271	0.23866	0.38328	0.058625	0.012734	-2	-2.5625	-2.2396	-2.8083	-2.5771	-2.1792	-2.8583	-2.6646	-2.2333	-2.7438	-2.475	-2.4062	-2.6333	-2.5104	-2.5875	-2.6125	249.055	230.578	60.842	357.506	259.767	350.649	321.740	321.996	144.581	240.438	38.227	321.066	369.423	46.164	231.725	253.907	0.00072644	0.00070714	0.00020755	1843.3	7.9565e-06	7.2515e-06	1826.1	490.46	5.922e-06	5.3457e-06	559.07	188.99	164.52	56.091	6.025e-06	68.97	0.0004999	0.00039132	0.00010791	1838.9	4.5164e-06	4.2565e-06	1821.6	489.95	4.5846e-06	4.3932e-06	558.87	189.83	164.47	56.784	4.4527e-06	69.749	106.581	109.447	111.507	39.975	174.604	179.028	39.658	44.278	172.775	178.892	43.774	47.964	48.632	53.093	185.033	52.295	-8191	255	
21129.963	1	1	0	0	0.15464	0.086857	0.086937	0.20353	0.22115	0.38526	0.2561	0.35799	0.072709	0.28817	0.20338	0.37463	0.022001	0.36806	0.28445	0.17496	-1.9479	-2.4708	-2.3187	-2.7479	-2.7417	-2.3375	-2.8688	-2.6458	-2.3625	-2.6188	-2.4354	-2.6375	-2.8875	-2.3646	-2.3146	-2.6917	353.549	162.799	268.304	321.458	152.940	190.384	251.272	296.535	124.539	284.677	353.595	366.901	127.961	372.748	323.670	357.670	0.00069961	0.00061076	0.00020092	1842.4	9.1003e-06	7.0351e-06	1830.6	491.31	6.1025e-06	5.1331e-06	559.69	189.38	165.66	56.546	7.0749e-06	69.155	0.0004865	0.00038566	0.00011266	1839.1	4.43e-06	4.4286e-06	1822	490.01	4.5185e-06	4.3411e-06	558.76	189.94	164.9	56.871	4.4274e-06	69.756	109.277	119.843	110.348	39.862	180.338	166.871	39.712	44.174	180.670	193.484	43.689	47.983	48.656	53.203	169.624	52.524	-8191	255	
21130.059	1	1	0	0	0.15487	0.082659	0.062935	0.35437	0.16528	0.15156	0.2472	0.29376	0.1737	0.1679	0.18149	0.044569	0.2689	0.27827	0.25664	0.32802	-1.8937	-2.5667	-2.3083	-2.5208	-2.8208	-2.4229	-2.7833	-2.8187	-2.2333	-2.4875	-2.6583	-2.6021	-2.6021	-2.5667	-2.4042	-2.8708	313.256	34.465	67.645	339.753	291.850	288.017	382.435	324.644	272.206	129.280	188.747	101.275	352.821	323.852	330.433	360.457	0.00070941	0.00072919	0.00017876	1846.7	6.5767e-06	5.1796e-06	1835.8	488.35	6.7023e-06	8.1536e-06	557.2	189.03	164.22	56.395	5.4807e-06	69.26	0.00049657	0.00039025	0.00010869	1838.8	4.6367e-06	4.344e-06	1822.3	489.2	4.4296e-06	4.3032e-06	558.34	189.83	164.75	56.772	4.4546e-06	69.71	106.436	117.516	127.918	39.714	168.621	184.156	39.554	44.389	182.506	179.273	44.019	48.150	48.497	52.998	175.204	52.628	-8191	255	
21130.178	1	1	0	0	0.07297	0.13422	0.18727	0.34048	0.17486	0.12436	0.1965	0.19347	0.23851	0.10505	0.49362	0.25659	0.10601	0.16387	0.048158	0.28464	-1.9979	-2.4	-2.5417	-2.5354	-2.5792	-2.5292	-2.7792	-2.9896	-2.3604	-2.5896	-2.7625	-2.4521	-2.6437	-2.3708	-2.2083	-2.8292	121.186	49.815	223.463	321.538	295.029	259.607	331.828	301.847	241.667	334.192	323.825	299.521	105.218	318.969	324.523	27.227	0.00071653	0.00073623	0.00021246	1853.8	8.8497e-06	6.8431e-06	1826.9	490.67	5.7702e-06	7.1899e-06	555.8	188.95	165.05	56.212	6.9492e-06	69.367	0.00049072	0.00040001	0.00011334	1841.3	4.4847e-06	4.378e-06	1822.5	490.42	4.5238e-06	4.1865e-06	558.08	189.94	164.94	56.734	4.3948e-06	69.829	107.276	133.513	116.160	39.819	159.395	180.331	39.607	44.281	163.816	201.929	43.825	48.233	49.000	53.068	174.810	52.515	-8191	255	
21130.275	1	1	0	0	0.20116	0.21978	0.23986	0.16589	0.15221	0.23788	0.43742	0.43468	0.15401	0.17468	0.19802	0.077088	0.10479	0.098683	0.081533	0.15523	-1.8875	-2.3688	-2.4917	-2.4375	-2.625	-2.5229	-2.5	-2.8083	-2.4458	-2.3625	-2.7104	-2.6125	-2.625	-2.3958	-2.4729	-2.8625	357.408	256.521	222.100	50.905	305.620	360.772	312.384	298.163	89.909	91.020	245.757	104.545	291.798	60.510	242.817	384.006	0.00073642	0.00076473	0.00014744	1847.7	6.2123e-06	7.6158e-06	1830.8	490.85	5.3693e-06	5.4796e-06	559.4	189.82	165.27	56.247	7.05e-06	69.119	0.00050042	0.00039206	0.00010805	1841.1	4.5444e-06	4.1405e-06	1823.8	490.92	4.4978e-06	4.1855e-06	559.4	190.22	164.77	56.929	4.4872e-06	69.84	106.894	112.545	121.396	39.789	155.668	171.011	39.827	44.243	163.319	192.428	43.927	48.239	48.509	53.184	179.249	52.700	-8191	255	
21130.371	1	1	0	0	0.23934	0.20183	0.2079	0.023948	0.070239	0.069012	0.38374	0.11118	0.085228	0.1287	0.26556	0.23125	0.41187	0.10316	0.16562	0.19356	-2.0521	-2.4979	-2.4896	-2.6083	-2.6417	-2.6354	-2.6	-2.8792	-2.2729	-2.4729	-2.7208	-2.35	-2.6312	-2.5354	-2.15	-2.8521	185.568	126.928	291.522	177.324	286.069	243.977	291.556	314.117	348.591	95.626	295.468	371.489	348.625	296.131	259.792	290.329	0.00066313	0.00073426	0.00019708	1854.5	8.4288e-06	7.8706e-06	1841.3	489.27	5.8843e-06	5.7158e-06	557.87	189.7	164.97	56.439	5.7421e-06	69.408	0.0004922	0.00039313	0.0001083	1842.4	4.4972e-06	4.2462e-06	1825.9	490.41	4.4966e-06	4.2277e-06	559.32	189.86	165.23	56.889	4.3321e-06	69.841	109.584	123.566	106.667	39.723	166.948	175.164	39.751	44.114	152.975	183.330	43.868	47.954	48.552	53.135	168.397	52.633	-8191	255	
21130.467	1	1	0	0	0.05748	0.072884	0.19078	0.58414	0.10503	0.24252	0.22343	0.36105	0.16314	0.10726	0.20109	0.12487	0.18768	0.10066	0.21564	0.26416	-1.9813	-2.4542	-2.6354	-2.5	-2.4729	-2.5625	-2.6042	-2.5812	-2.4646	-2.3042	-2.7479	-2.5854	-2.7562	-2.7354	-2.3625	-2.8063	34.023	328.057	267.853	338.736	328.660	117.634	336.937	343.345	287.667	294.679	343.913	297.354	265.225	350.439	314.510	264.462	0.00068474	0.00086792	0.00019376	1840.6	8.5244e-06	6.4115e-06	1832	491.72	8.2278e-06	5.2925e-06	559.02	189.57	165.62	56.609	7.3527e-06	69.606	0.00049511	0.00039516	0.00010487	1841.5	4.4832e-06	4.1035e-06	1827.1	490.99	4.517e-06	4.2409e-06	559.41	190.44	164.98	56.995	4.2945e-06	70.049	108.860	115.726	105.788	39.824	165.872	175.677	39.824	44.230	171.171	186.632	43.975	48.075	48.510	53.212	189.698	52.589	-8191	255	
21130.586	1	1	0	0	0.11585	0.42173	0.078724	0.053855	0.18079	0.13863	0.34767	0.473	0.057965	0.17897	0.17713	0.095878	0.20078	0.1756	0.19527	0.23394	-2.125	-2.3375	-2.7625	-2.6375	-2.5479	-2.9646	-2.4313	-2.9146	-2.5729	-2.3479	-2.8146	-2.6063	-2.4333	-2.6292	-2.2979	-2.8333	336.060	320.530	235.258	112.135	149.194	367.957	353.063	298.974	187.298	223.893	46.400	333.182	231.171	225.444	352.847	350.242	0.00072537	0.00072629	0.00019391	1856.4	7.8068e-06	6.0711e-06	1842.4	491.15	8.1903e-06	6.665e-06	561.17	189.22	165.04	56.848	5.4464e-06	69.238	0.00049659	0.00039376	0.00010875	1847.3	4.5979e-06	4.0189e-06	1831.7	491.7	4.4796e-06	4.2877e-06	559.95	190.42	165.42	57.16	4.4287e-06	70.083	109.184	124.547	105.347	39.867	171.332	177.437	39.642	44.185	173.631	174.952	43.908	48.001	48.447	53.080	157.724	52.726	-8191	255	
21130.656	1	1	0	0	0.10552	0.22025	0.29086	0.43799	0.099202	0.090653	0.45954	0.22022	0.12967	0.18464	0.072534	0.2507	0.32503	0.47349	0.057708	0.11112	-2.125	-2.0396	-2.475	-2.4896	-2.4229	-2.5958	-2.4062	-2.8854	-2.4417	-2.3187	-2.8333	-2.5333	-2.3396	-2.7208	-2.5104	-2.7167	301.672	45.205	205.914	361.721	253.426	167.161	288.567	356.093	211.214	294.199	82.947	330.650	331.331	305.333	187.834	227.749	0.00064141	0.00062033	0.00018034	1857.6	6.9649e-06	4.8252e-06	1842.7	492.48	8.6053e-06	6.9101e-06	561.74	190.71	165.16	56.519	8.5061e-06	69.505	0.00047678	0.00039677	0.0001081	1845.9	4.5373e-06	4.1954e-06	1831	491.26	4.4567e-06	4.2155e-06	560.72	191.14	165.17	57.064	4.2666e-06	70.084	107.677	122.788	103.484	39.838	168.374	179.800	39.688	44.337	188.840	173.279	43.831	48.134	48.274	53.122	197.752	52.329	-8191	255	
21130.777	1	1	0	0	0.1517	0.14676	0.17825	0.41872	0.088786	0.055267	0.28814	0.13832	0.16068	0.26872	0.12838	0.13817	0.18209	0.2332	0.22508	0.14303	-2.2229	-2.2438	-2.55	-2.7479	-2.3021	-2.7313	-2.5187	-2.7458	-2.5375	-2.4708	-2.6542	-2.7208	-2.4688	-2.7667	-2.3688	-2.6646	66.743	298.062	37.346	352.182	378.959	278.504	311.668	321.249	384.211	313.356	371.899	288.283	91.559	283.664	257.147	271.002	0.00070679	0.00071305	0.00013773	1854.5	7.0811e-06	4.9894e-06	1842.2	491.87	6.7403e-06	6.4557e-06	562.04	190.33	165.11	56.733	7.6228e-06	69.453	0.00048842	0.00038989	0.00010686	1847.4	4.4857e-06	4.1072e-06	1829.4	491.77	4.4243e-06	4.3516e-06	560.7	190.81	165.47	57.227	4.2859e-06	70.054	107.434	154.787	101.819	39.939	172.476	190.270	39.643	44.101	175.849	166.476	43.741	48.149	48.730	53.337	179.700	52.311	-8191	255	
21130.873	1	1	0	0	0.21384	0.28998	0.12456	0.34594	0.098982	0.038245	0.46293	0.27062	0.072245	0.16368	0.15872	0.27187	0.15968	0.13616	0.23354	0.27691	-2.2271	-2.2229	-2.4979	-2.7062	-2.2042	-2.5583	-2.6646	-2.8312	-2.5417	-2.4167	-2.6188	-2.5938	-2.3646	-2.7625	-2.3896	-2.375	218.800	88.156	356.373	351.480	378.161	385.750	322.339	332.680	58.213	361.110	346.279	354.177	347.228	380.615	347.487	337.772	0.00070492	0.0004966	0.00021684	1859.9	8.5623e-06	4.85e-06	1835.1	491.88	6.9779e-06	6.8874e-06	560.52	190.02	165.52	56.507	5.8451e-06	69.901	0.00048154	0.0003795	0.00010803	1849.2	4.3906e-06	4.2304e-06	1830.3	492.27	4.4005e-06	4.175e-06	560.74	190.88	165.57	57.061	4.3707e-06	70.219	104.143	129.517	117.300	39.793	171.782	176.945	39.618	44.215	172.265	179.051	43.672	48.216	48.632	52.980	167.908	52.471	-8191	255	
21130.971	1	1	0	0	0.35087	0.099823	0.076629	0.4656	0.38818	0.14808	0.13808	0.3273	0.19904	0.044716	0.44929	0.070158	0.4116	0.34994	0.026476	0.096683	-2.2562	-2.2292	-2.5	-2.6688	-2.2396	-2.7417	-2.5521	-2.5167	-2.7417	-2.2792	-2.7021	-2.7333	-2.3021	-2.6562	-2.4396	-2.4542	41.713	162.950	197.703	370.321	240.153	129.581	363.165	326.810	27.295	219.691	336.828	80.806	30.435	295.329	324.180	326.288	0.00069381	0.00067235	0.00017363	1859	5.6071e-06	5.5741e-06	1835.3	491.41	6.6292e-06	9.5959e-06	561.18	189.42	165.75	56.747	4.4684e-06	69.391	0.00048672	0.00038272	0.00010828	1848.3	4.453e-06	4.2442e-06	1829.6	491.3	4.5658e-06	4.2913e-06	561.54	190.72	165.8	57.104	4.2831e-06	70.083	105.004	126.974	139.230	39.957	174.523	187.543	39.627	44.262	173.680	176.682	43.738	47.915	48.336	53.110	172.077	52.413	-8191	255	
21131.066	1	1	0	0	0.1864	0.076962	0.21933	0.034694	0.031461	0.2677	0.15899	0.12314	0.25412	0.21304	0.18586	0.327	0.40006	0.28338	0.24357	0.25631	-2.3312	-2.2542	-2.5458	-2.7562	-2.3396	-2.7917	-2.7	-2.4188	-2.5333	-2.5521	-2.6813	-2.8229	-2.3354	-2.6542	-2.5021	-2.475	124.028	372.972	171.329	368.503	376.515	359.366	297.143	357.197	297.415	371.022	311.625	321.675	344.487	335.655	110.067	26.556	0.00068196	0.00060728	0.00020457	1855.3	6.5501e-06	6.3684e-06	1841.3	492.33	5.4201e-06	5.4251e-06	561	190.41	165.63	56.613	6.0259e-06	69.226	0.00047791	0.00037456	0.00010645	1848.7	4.5332e-06	4.1726e-06	1832.6	492.47	4.3239e-06	4.0801e-06	560.91	191.29	165.74	57.08	4.4651e-06	70.004	109.574	134.267	121.079	39.835	172.363	174.808	39.724	44.296	183.059	170.789	43.797	48.036	48.282	53.060	166.622	52.592	-8191	255	
21131.188	1	1	0	0	0.22867	0.12595	0.29611	0.40766	0.08675	0.11733	0.12271	0.17767	0.16897	0.14892	0.24622	0.096908	0.047732	0.29916	0.085233	0.079014	-2.2188	-2.2687	-2.4021	-2.9292	-2.3937	-2.725	-2.8167	-2.5667	-2.8417	-2.25	-2.4208	-2.6729	-2.4938	-2.6188	-2.6375	-2.3146	356.639	89.061	55.023	313.263	34.788	153.862	320.549	347.505	184.946	145.959	69.500	257.414	221.517	351.179	210.424	58.857	0.00069105	0.00049652	0.00024167	1859.2	5.5351e-06	7.3664e-06	1839	492.38	7.6162e-06	5.7102e-06	561.48	190.23	164.9	56.676	5.2186e-06	69.829	0.00048972	0.00038099	0.00010793	1849.6	4.3499e-06	4.198e-06	1831.6	492.56	4.4055e-06	4.2251e-06	561.33	190.79	165.58	57.219	4.2517e-06	70.154	109.754	122.758	102.639	39.781	158.797	180.849	39.611	44.181	173.925	137.850	43.790	48.182	48.092	53.028	177.029	52.346	-8191	255	
21131.260	1	1	0	0	0.10034	0.16355	0.32978	0.30274	0.2039	0.13537	0.49176	0.3845	0.12656	0.13773	0.43649	0.27242	0.11907	0.084972	0.17498	0.30066	-2.1771	-2.2771	-2.1292	-2.9583	-2.4375	-2.3792	-2.8312	-2.4021	-2.4604	-2.5125	-2.4375	-2.725	-2.4271	-2.5229	-2.5292	-2.5375	342.839	282.804	57.780	334.589	186.645	282.970	332.862	344.682	138.365	374.139	334.019	353.888	259.867	68.188	306.746	93.394	0.00071603	0.00056139	0.00020925	1845.2	5.4656e-06	7.9275e-06	1843.6	491.06	6.7874e-06	7.2845e-06	561.63	190	165.39	56.815	6.3257e-06	69.274	0.00049181	0.00040552	0.00010578	1847.3	4.5475e-06	4.3817e-06	1832.8	491.44	4.4092e-06	4.2036e-06	561.22	190.72	165.89	57.164	4.2695e-06	70.071	104.851	112.462	113.358	39.900	152.236	190.788	39.802	44.369	184.776	176.159	43.969	47.917	48.447	53.282	174.555	52.291	-8191	255	
21131.355	1	1	0	0	0.25656	0.13451	0.10869	0.18357	0.18653	0.091477	0.29662	0.55128	0.17739	0.19964	0.27443	0.14502	0.32671	0.38195	0.12554	0.049446	-2.15	-2.4437	-2.3375	-2.7042	-2.2854	-2.5396	-2.8563	-2.4833	-2.4688	-2.6625	-2.2604	-2.7979	-2.4688	-2.4813	-2.7396	-2.5396	230.354	288.905	44.794	309.084	220.287	260.587	351.349	368.656	36.986	114.504	373.717	356.410	359.389	364.011	344.413	86.517	0.00069299	0.00076306	0.00016425	1855.3	7.6535e-06	6.5845e-06	1836.4	491.56	7.2051e-06	8.4367e-06	563.05	190.13	165.04	56.692	6.0231e-06	69.598	0.00048818	0.00038852	0.00010646	1848.8	4.5603e-06	4.3182e-06	1830.9	492.31	4.382e-06	4.2603e-06	561.55	191.06	165.08	57.124	4.2324e-06	70.008	104.922	118.172	107.437	39.891	165.205	172.369	39.663	44.193	180.516	179.387	44.068	48.039	48.630	53.107	142.240	52.514	-8191	255	
21131.449	1	1	0	0	0.096168	0.27689	0.19988	0.4102	0.077163	0.11469	0.14215	0.42025	0.063357	0.12766	0.31935	0.25071	0.12311	0.28383	0.16109	0.15335	-2.0812	-2.5792	-2.2583	-2.8729	-2.5708	-2.375	-2.9292	-2.6396	-2.7167	-2.6375	-2.525	-2.6354	-2.4917	-2.4583	-2.6375	-2.425	322.658	379.449	305.988	383.838	66.770	173.324	263.462	331.555	385.225	331.663	293.542	45.426	369.675	74.477	79.479	337.740	0.00071306	0.00063833	0.0001893	1855.8	4.3014e-06	5.2483e-06	1842.7	493.44	7.3669e-06	5.9849e-06	562.21	191.05	165.03	56.776	6.4686e-06	70.07	0.00049168	0.00038474	0.00011055	1849.3	4.3884e-06	4.3552e-06	1832.6	492.45	4.571e-06	4.1298e-06	561.59	191.1	165.84	57.259	4.2068e-06	70.314	109.153	136.403	120.873	39.939	162.064	166.843	39.611	44.284	181.379	189.981	43.707	48.198	48.541	53.332	174.510	52.665	-8191	255	
21131.547	1	1	0	0	0.12055	0.13923	0.10172	0.24347	0.019679	0.057216	0.30112	0.28656	0.099888	0.25642	0.41393	0.14721	0.088869	0.20384	0.20644	0.10274	-1.9917	-2.4813	-2.3458	-2.7104	-2.4396	-2.4062	-2.7729	-2.5292	-2.3958	-2.4333	-2.3396	-2.6937	-2.5646	-2.4771	-2.5312	-2.6208	246.348	39.800	72.530	362.686	162.742	333.706	332.267	288.096	236.651	184.038	348.565	321.910	101.001	375.791	264.095	292.364	0.00072941	0.00068894	0.00019179	1853.2	6.9934e-06	5.552e-06	1841	493.36	7.2011e-06	6.5974e-06	559.61	191.02	165.29	56.859	6.0878e-06	69.599	0.00049442	0.00039706	0.00010694	1849.4	4.3657e-06	4.0728e-06	1832.8	492.75	4.4014e-06	4.177e-06	561.2	191.46	165.38	57.255	4.3087e-06	70.261	107.977	132.927	112.827	39.885	178.924	186.456	39.625	44.127	178.959	173.559	43.890	48.262	48.706	53.113	168.525	52.438	-8191	255	
21131.666	1	1	0	0	0.064704	0.18692	0.11447	0.15264	0.12533	0.19462	0.28675	0.23493	0.066643	0.031309	0.082925	0.19425	0.071173	0.23574	0.126	0.2235	-2.0104	-2.5396	-2.3333	-2.8646	-2.3729	-2.2917	-2.9271	-2.5563	-2.4875	-2.7458	-2.3375	-2.6208	-2.7438	-2.4917	-2.65	-2.5875	384.183	300.343	50.500	287.860	149.660	322.605	308.457	348.046	31.433	71.427	335.972	297.059	377.286	71.291	321.236	327.927	0.00069091	0.00066584	0.0001279	1860	7.2808e-06	6.6375e-06	1842.6	494.59	6.346e-06	7.4972e-06	561.41	191.13	166.49	56.94	5.8085e-06	69.668	0.00047841	0.00038147	0.00010466	1850.6	4.3946e-06	4.1527e-06	1836.3	493.25	4.4413e-06	4.0936e-06	560.85	191.4	165.91	57.325	4.3407e-06	70.325	107.406	126.303	111.701	39.769	176.194	189.624	39.677	44.428	176.040	192.544	43.636	48.109	48.371	53.133	180.826	52.395	-8191	255	
21131.762	1	1	0	0	0.21015	0.035353	0.30491	0.11995	0.13752	0.29978	0.27602	0.16947	0.12835	0.15543	0.14476	0.22004	0.039299	0.084366	0.088071	0.24964	-2.0146	-2.7	-2.4729	-2.6417	-2.6729	-2.3438	-2.9167	-2.5417	-2.3833	-2.7854	-2.4167	-2.5042	-2.7062	-2.3063	-2.6125	-2.7438	372.516	232.600	124.922	277.150	139.047	160.275	301.037	355.118	49.544	123.678	39.775	61.118	355.028	324.201	285.276	379.880	0.00069266	0.00051807	0.00014853	1863.7	5.1532e-06	6.3855e-06	1842.5	494.05	5.7096e-06	6.7521e-06	561.94	191.51	166.74	57.019	8.2329e-06	69.498	0.0004803	0.0003831	0.00010631	1854.4	4.3691e-06	4.2072e-06	1838	493.75	4.3171e-06	4.0458e-06	562.3	191.94	166.53	57.435	4.4473e-06	70.296	112.246	104.565	109.713	39.846	167.827	194.957	39.760	44.146	179.411	180.059	44.035	48.040	48.499	53.032	173.613	52.355	-8191	255	
21131.857	1	1	0	0	0.059002	0.037407	0.16887	0.25657	0.1515	0.16007	0.29675	0.11965	0.29672	0.21573	0.1923	0.19763	0.077172	0.3421	0.35546	0.1744	-1.8208	-2.4854	-2.2896	-2.5396	-2.7229	-2.4313	-2.9583	-2.4417	-2.3125	-2.7854	-2.4188	-2.5938	-2.8	-2.4646	-2.5583	-2.6896	332.979	112.747	130.881	306.153	103.563	113.546	301.585	330.816	335.245	200.563	368.789	350.455	107.533	345.916	244.313	28.598	0.00071482	0.00056558	0.00019951	1863.3	7.9672e-06	5.8367e-06	1846.3	494.64	6.8529e-06	6.5685e-06	563.7	191.2	165.98	57.079	4.914e-06	70.062	0.00048607	0.00037688	0.00010609	1855.3	4.4319e-06	4.1835e-06	1839.9	494.16	4.4493e-06	4.1628e-06	563.86	192.18	166.39	57.487	4.2552e-06	70.572	107.626	137.812	109.040	39.917	176.244	183.008	39.891	44.306	183.271	187.223	43.893	47.971	48.544	53.223	200.750	52.368	-8191	255	
21131.955	1	1	0	0	0.36063	0.31644	0.39711	0.39627	0.073822	0.24092	0.34118	0.28068	0.19264	0.17181	0.24297	0.090384	0.11525	0.1013	0.34967	0.076205	-1.9875	-2.7104	-2.5396	-2.4396	-2.8292	-2.2333	-2.7208	-2.6271	-2.1792	-2.7021	-2.5833	-2.5417	-2.6479	-2.3563	-2.5958	-2.7	26.844	38.706	271.819	366.184	198.874	160.557	330.866	312.116	41.236	303.227	31.239	126.350	380.421	339.274	379.762	35.418	0.00072808	0.00086254	0.00020597	1863.3	6.414e-06	6.8384e-06	1846.8	493.47	7.2336e-06	6.2302e-06	565.13	192.66	166.76	57.05	5.0217e-06	70.276	0.00049777	0.00038873	0.00011011	1857.5	4.3719e-06	4.1157e-06	1841.1	494.74	4.3891e-06	4.1391e-06	564.22	192.9	167.04	57.653	4.4236e-06	70.696	102.711	140.200	87.756	39.833	179.612	182.525	39.795	44.133	177.645	175.252	43.727	48.200	48.604	53.243	172.629	52.286	-8191	255	
21132.051	1	1	0	0	0.079618	0.17363	0.17708	0.25014	0.14226	0.20907	0.25645	0.12451	0.081211	0.15625	0.3858	0.082777	0.22046	0.26257	0.047188	0.12258	-1.7958	-2.6083	-2.3667	-2.6417	-2.8479	-2.4292	-2.7167	-2.8771	-2.3438	-2.5312	-2.6958	-2.3438	-2.5792	-2.3583	-2.475	-2.9292	312.418	287.231	27.147	305.684	27.796	127.359	315.460	274.874	216.285	158.329	323.619	343.534	322.588	286.208	207.740	358.850	0.00070066	0.00070536	0.00020201	1866.1	6.2042e-06	4.9925e-06	1857.3	495.45	7.2694e-06	6.2002e-06	566.49	192.5	168.3	57.502	7.1402e-06	70.791	0.00048552	0.00037724	0.00010332	1861.6	4.3853e-06	4.1184e-06	1847.9	496.13	4.4299e-06	4.0781e-06	566.22	193.58	168.06	57.957	4.2489e-06	71.189	111.832	111.516	108.045	39.971	169.867	160.409	39.701	44.135	175.554	174.800	44.012	47.918	48.233	52.924	181.419	52.303	-8191	255	
21132.146	1	1	0	0	0.068984	0.15986	0.29322	0.23934	0.17356	0.11432	0.22238	0.23044	0.31852	0.10075	0.11513	0.36871	0.078236	0.36738	0.051358	0.18949	-1.9646	-2.5771	-2.6229	-2.4021	-2.6083	-2.4	-2.5062	-2.7583	-2.2708	-2.6354	-2.6354	-2.5021	-2.6417	-2.6896	-2.5208	-2.7521	265.476	350.055	130.190	325.906	202.845	192.855	322.894	349.982	249.407	159.959	237.589	328.638	87.612	333.191	51.755	83.596	0.0007317	0.00074954	0.00016439	1881.9	8.6631e-06	5.1247e-06	1868.5	497.89	7.6518e-06	7.019e-06	571.47	193.87	168.41	58.187	6.5897e-06	70.778	0.00047846	0.00036983	0.00010352	1874.2	4.3387e-06	4.0682e-06	1861	499.29	4.39e-06	4.0919e-06	570.68	194.96	168.72	58.392	4.1859e-06	71.458	104.224	106.558	110.881	39.814	170.287	174.036	39.736	44.112	178.075	190.016	43.744	47.983	48.282	53.080	154.033	52.311	-8191	255	
21132.268	1	1	0	0	0.18831	0.16386	0.10323	0.49447	0.16919	0.13363	0.22053	0.12663	0.19425	0.41868	0.33761	0.25081	0.23724	0.16945	0.24445	0.24688	-2.0958	-2.4958	-2.3187	-2.3792	-2.55	-2.5833	-2.7271	-2.7667	-2.2771	-2.6292	-2.7812	-2.525	-2.6354	-2.5812	-2.4229	-2.9083	34.693	147.466	284.538	344.578	104.840	195.746	320.762	310.847	197.617	122.673	319.664	373.730	339.847	96.511	49.544	283.636	0.00073789	0.00064503	0.00023391	1888.4	6.6522e-06	7.0245e-06	1862.6	500.58	8.5017e-06	8.5961e-06	570.7	195.07	169.32	57.714	8.097e-06	70.98	0.00048363	0.00037646	0.00010386	1878.1	4.3698e-06	4.0338e-06	1859.6	500.74	4.357e-06	3.9252e-06	570.14	195.39	169.51	58.364	4.2179e-06	71.533	107.688	118.850	113.451	39.638	175.016	171.437	39.718	44.111	174.024	181.225	43.754	48.047	48.616	53.103	189.127	52.632	-8191	255	
21132.361	1	1	0	0	0.026634	0.24146	0.17857	0.17296	0.16546	0.084338	0.32234	0.24343	0.10766	0.20862	0.13204	0.19	0.021965	0.44333	0.15615	0.12678	-2.0958	-2.5979	-2.575	-2.6958	-2.5104	-2.4396	-2.5833	-2.7375	-2.4833	-2.5354	-2.85	-2.4667	-2.5563	-2.4125	-2.2271	-2.6167	86.257	274.342	68.819	31.402	93.211	297.286	297.833	345.224	372.684	266.463	63.754	384.913	297.257	356.798	133.214	220.921	0.00069066	0.00075689	0.00021262	1890.7	8.463e-06	4.9039e-06	1874.2	502.78	7.1992e-06	7.9874e-06	569.82	195.22	169.04	58.146	6.5855e-06	71.321	0.00047832	0.00036155	0.00010117	1881.9	4.1367e-06	3.8759e-06	1865.5	502.03	4.2344e-06	3.9878e-06	570.85	195.67	169.79	58.569	4.2274e-06	71.867	109.449	129.141	109.082	39.691	173.611	163.624	39.750	44.178	179.675	176.201	43.789	47.747	48.469	53.078	176.741	52.386	-8191	255	
21132.457	1	1	0	0	0.20952	0.050765	0.17221	0.34987	0.10831	0.17609	0.25445	0.20996	0.14857	0.030836	0.28402	0.049194	0.16261	0.16335	0.044085	0.12471	-1.9833	-2.2979	-2.55	-2.5333	-2.6104	-2.5667	-2.5792	-2.7292	-2.5833	-2.3667	-2.9521	-2.5354	-2.5021	-2.7062	-2.1875	-2.6625	294.978	243.230	190.331	351.446	97.765	303.469	336.280	340.860	341.445	271.058	339.834	376.574	336.400	56.961	102.761	46.042	0.00072076	0.00070243	0.00015892	1893.4	5.8906e-06	6.7733e-06	1872	502.4	7.7817e-06	4.8041e-06	573.43	195.28	170.2	58.348	6.8929e-06	71.122	0.00047511	0.00037882	0.00010151	1887.5	4.1929e-06	3.8538e-06	1866.8	502.53	4.335e-06	4.0807e-06	572.42	196.18	170.18	58.763	4.097e-06	71.85	107.627	116.976	107.764	40.006	173.766	193.878	39.693	44.245	189.892	179.072	43.949	47.805	48.419	52.957	172.855	52.478	-8191	255	
21132.555	1	1	0	0	0.21574	0.19009	0.36144	0.12483	0.21181	0.20879	0.32013	0.053763	0.1158	0.17718	0.34049	0.31826	0.16731	0.16966	0.12936	0.21155	-1.9438	-2.2	-2.7146	-2.4813	-2.6292	-2.5208	-2.3396	-2.7333	-2.5292	-2.4104	-2.6542	-2.5458	-2.625	-2.7375	-2.425	-2.6	258.585	282.456	331.254	356.010	41.665	129.111	341.480	286.873	133.416	332.622	364.990	308.194	251.555	272.256	259.769	345.129	0.00074276	0.00075527	0.00012213	1897.1	8.345e-06	9.2237e-06	1878.7	504.76	7.2305e-06	4.6052e-06	573.85	195.49	169.41	58.29	6.3218e-06	71.542	0.00047374	0.00038042	9.9855e-05	1886.9	4.1351e-06	3.9611e-06	1871.5	503.56	4.1318e-06	3.8105e-06	573.76	196.14	169.94	58.687	4.102e-06	71.92	112.433	128.252	108.388	39.941	174.587	178.161	39.661	44.193	193.979	168.610	43.928	47.982	48.373	52.821	180.847	52.409	-8191	255	
#DATA ENDS
