BOXY.EXE: ISS Imagent and Oximeter Data Acquisition Program Version 0.80
Ascii Record File

#ACQ INFORMATION
2  Detector Channels 
16  External MUX Channels 
1  Auxiliary Channels 
5000  Waveform (CCF) Frequency (Hz)
1  Waveforms Skipped 
30  Waveforms Averaged 
1  Cycles Averaged 
16  Acquisitions per Waveform 
10.0806  Updata Rate (Hz) 

#FILE INFORMATION
TRUE -- External MUX Channel results are PARSED.
FALSE -- AC DC and Phase are NOT grouped.
TRUE -- Companion Program Settings File CREATED.
FALSE -- AC data not excluded
FALSE -- DC data not excluded
FALSE -- Phase data not excluded
FALSE -- Auxillary Chn. data not excluded
Tab delimiters

#CALIBRATION STATE
TRUE -- Waveform Calibration Values APPLIED.


#AUX CALIBRATION VALUES
Val Type	aux-1	

Term	1.0000e+00	
Factor	0.0000e+00	


#WF CALIBRATION VALUES
A = Detector Channel
Val Type	A-AC1	A-AC2	A-AC3	A-AC4	A-AC5	A-AC6	A-AC7	A-AC8	A-AC9	A-AC10	A-AC11	A-AC12	A-AC13	A-AC14	A-AC15	A-AC16	A-DC1	A-DC2	A-DC3	A-DC4	A-DC5	A-DC6	A-DC7	A-DC8	A-DC9	A-DC10	A-DC11	A-DC12	A-DC13	A-DC14	A-DC15	A-DC16	A-Ph1	A-Ph2	A-Ph3	A-Ph4	A-Ph5	A-Ph6	A-Ph7	A-Ph8	A-Ph9	A-Ph10	A-Ph11	A-Ph12	A-Ph13	A-Ph14	A-Ph15	A-Ph16	

Term	0.00000e+00	0.00000e+00	0.00000e+00	0.00000e+00	0.00000e+00	0.00000e+00	0.00000e+00	0.00000e+00	0.00000e+00	0.00000e+00	0.00000e+00	0.00000e+00	0.00000e+00	0.00000e+00	0.00000e+00	0.00000e+00	0.00000e+00	0.00000e+00	0.00000e+00	0.00000e+00	0.00000e+00	0.00000e+00	0.00000e+00	0.00000e+00	0.00000e+00	0.00000e+00	0.00000e+00	0.00000e+00	0.00000e+00	0.00000e+00	0.00000e+00	0.00000e+00	0.00000e+00	0.00000e+00	0.00000e+00	0.00000e+00	0.00000e+00	0.00000e+00	0.00000e+00	0.00000e+00	0.00000e+00	0.00000e+00	0.00000e+00	0.00000e+00	0.00000e+00	0.00000e+00	0.00000e+00	0.00000e+00	
Factor	1.00000e+00	1.00000e+00	1.00000e+00	1.00000e+00	1.00000e+00	1.00000e+00	1.00000e+00	1.00000e+00	1.00000e+00	1.00000e+00	1.00000e+00	1.00000e+00	1.00000e+00	1.00000e+00	1.00000e+00	1.00000e+00	1.00000e+00	1.00000e+00	1.00000e+00	1.00000e+00	1.00000e+00	1.00000e+00	1.00000e+00	1.00000e+00	1.00000e+00	1.00000e+00	1.00000e+00	1.00000e+00	1.00000e+00	1.00000e+00	1.00000e+00	1.00000e+00	X	X	X	X	X	X	X	X	X	X	X	X	X	X	X	X	

B = Detector Channel
Val Type	B-AC1	B-AC2	B-AC3	B-AC4	B-AC5	B-AC6	B-AC7	B-AC8	B-AC9	B-AC10	B-AC11	B-AC12	B-AC13	B-AC14	B-AC15	B-AC16	B-DC1	B-DC2	B-DC3	B-DC4	B-DC5	B-DC6	B-DC7	B-DC8	B-DC9	B-DC10	B-DC11	B-DC12	B-DC13	B-DC14	B-DC15	B-DC16	B-Ph1	B-Ph2	B-Ph3	B-Ph4	B-Ph5	B-Ph6	B-Ph7	B-Ph8	B-Ph9	B-Ph10	B-Ph11	B-Ph12	B-Ph13	B-Ph14	B-Ph15	B-Ph16	

Term	0.00000e+00	0.00000e+00	0.00000e+00	0.00000e+00	0.00000e+00	0.00000e+00	0.00000e+00	0.00000e+00	0.00000e+00	0.00000e+00	0.00000e+00	0.00000e+00	0.00000e+00	0.00000e+00	0.00000e+00	0.00000e+00	0.00000e+00	0.00000e+00	0.00000e+00	0.00000e+00	0.00000e+00	0.00000e+00	0.00000e+00	0.00000e+00	0.00000e+00	0.00000e+00	0.00000e+00	0.00000e+00	0.00000e+00	0.00000e+00	0.00000e+00	0.00000e+00	-1.70999e+02	-1.26624e+02	-1.31946e+02	-1.81681e+02	-8.38430e+01	-6.15144e+01	-1.55768e+02	-1.62015e+02	-8.17298e+01	-6.09818e+01	-1.73366e+02	-1.70201e+02	-1.85495e+02	-1.76578e+02	-7.50407e+01	-1.48946e+02	
Factor	2.98320e-05	1.70198e-04	4.81572e-05	1.97322e-01	1.68102e-06	1.85928e-06	1.81490e-01	5.63415e-02	1.68352e-06	1.92753e-06	1.03880e-01	3.00027e-02	5.63894e-02	9.68439e-03	1.64368e-06	1.34226e-02	1.04390e-05	1.42882e-05	3.99355e-06	1.02381e-01	1.49160e-07	1.58564e-07	8.84142e-02	2.93229e-02	1.48249e-07	1.58193e-07	5.25074e-02	1.52244e-02	2.95252e-02	5.08567e-03	1.51927e-07	6.84643e-03	X	X	X	X	X	X	X	X	X	X	X	X	X	X	X	X	



#DISTANCE SETTINGS
A = Detector Channel
A-1	A-2	A-3	A-4	A-5	A-6	A-7	A-8	A-9	A-10	A-11	A-12	A-13	A-14	A-15	A-16	

2.5000e+00	3.0000e+00	2.5000e+00	3.0000e+00	2.0000e+00	3.0000e+00	1.5000e+00	3.0000e+00	3.0000e+00	3.0000e+00	3.0000e+00	3.0000e+00	3.0000e+00	3.0000e+00	1.5000e+00	3.0000e+00	

B = Detector Channel
B-1	B-2	B-3	B-4	B-5	B-6	B-7	B-8	B-9	B-10	B-11	B-12	B-13	B-14	B-15	B-16	

1.0000e+01	1.0000e+01	1.0000e+01	1.4400e+00	1.0000e+01	1.0000e+01	1.5100e+00	1.9400e+00	1.0000e+01	1.0000e+01	1.9900e+00	2.4900e+00	2.4100e+00	2.9000e+00	1.0000e+01	2.9800e+00	




#DATA BEGINS
time	group	step	mark	flag	A-AC1	A-AC2	A-AC3	A-AC4	A-AC5	A-AC6	A-AC7	A-AC8	A-AC9	A-AC10	A-AC11	A-AC12	A-AC13	A-AC14	A-AC15	A-AC16	A-DC1	A-DC2	A-DC3	A-DC4	A-DC5	A-DC6	A-DC7	A-DC8	A-DC9	A-DC10	A-DC11	A-DC12	A-DC13	A-DC14	A-DC15	A-DC16	A-Ph1	A-Ph2	A-Ph3	A-Ph4	A-Ph5	A-Ph6	A-Ph7	A-Ph8	A-Ph9	A-Ph10	A-Ph11	A-Ph12	A-Ph13	A-Ph14	A-Ph15	A-Ph16	B-AC1	B-AC2	B-AC3	B-AC4	B-AC5	B-AC6	B-AC7	B-AC8	B-AC9	B-AC10	B-AC11	B-AC12	B-AC13	B-AC14	B-AC15	B-AC16	B-DC1	B-DC2	B-DC3	B-DC4	B-DC5	B-DC6	B-DC7	B-DC8	B-DC9	B-DC10	B-DC11	B-DC12	B-DC13	B-DC14	B-DC15	B-DC16	B-Ph1	B-Ph2	B-Ph3	B-Ph4	B-Ph5	B-Ph6	B-Ph7	B-Ph8	B-Ph9	B-Ph10	B-Ph11	B-Ph12	B-Ph13	B-Ph14	B-Ph15	B-Ph16	aux-1	digaux	

21982.410	1	1	0	768	0.073204	0.076214	0.17806	0.052232	0.22873	0.15296	0.1257	0.099759	0.081084	0.25208	0.054103	0.15637	0.15081	0.090493	0.13942	0.26324	-2.7354	-2.6354	-2.9417	-2.7604	-2.7021	-3.1896	-2.8458	-2.7042	-2.8479	-2.6333	-3.1063	-2.9792	-2.675	-2.9917	-2.7771	-3.1896	-4.895	-1.369	191.199	36.631	-31.447	144.360	19.156	187.270	82.142	199.381	247.560	186.698	149.664	250.834	227.215	144.429	0.0004955	0.0012482	0.00014613	424.79	1.3433e-05	6.6856e-06	646.38	157.69	2.2357e-06	5.7915e-06	294.53	129.56	66.917	34.117	1.062e-05	75.838	0.010743	0.014035	0.0041815	540.92	0.00014556	0.0001676	760.55	193.39	0.00015372	0.00015633	361.73	151.19	100.38	41.282	0.00015273	87.055	157.860	-83.034	40.147	-89.711	78.086	-38.034	-89.823	-85.203	-96.287	3.817	-85.596	-80.971	-81.799	-76.411	18.666	-77.883	-8191	255	
21982.508	1	1	0	0	0.16897	0.096482	0.18064	0.30433	0.37496	0.37298	0.095343	0.09052	0.19354	0.074806	0.12279	0.15086	0.15279	0.17463	0.1985	0.18264	-2.5938	-2.625	-3.0583	-2.8583	-2.6708	-2.9542	-2.8604	-2.8083	-3.0938	-2.7146	-2.9771	-2.9271	-2.6312	-3.1542	-2.8292	-2.8125	204.556	38.790	64.519	245.146	23.923	229.208	191.274	193.842	197.967	219.437	171.311	-14.891	-11.356	236.044	145.851	172.168	0.00066412	0.00061835	0.00016229	430.63	1.1316e-05	1.4274e-05	649.78	157.38	5.7492e-06	7.3964e-06	295.71	129.18	66.447	34.276	7.0312e-06	75.819	0.011236	0.014392	0.0042408	548.65	0.00015002	0.00017189	762.31	193.54	0.00015904	0.00015956	362.4	151.44	100.39	41.461	0.00015288	86.971	156.389	54.116	-44.817	-89.521	-21.757	-11.485	-89.439	-85.378	-14.358	175.018	-85.780	-81.125	-81.414	-76.322	148.801	-77.790	-8191	255	
21982.604	1	1	0	0	0.14871	0.13472	0.26211	0.40113	0.29129	0.044475	0.13951	0.13	0.22656	0.26259	0.17348	0.10953	0.05082	0.021144	0.15059	0.20204	-2.6604	-2.5625	-2.7708	-2.8167	-2.7646	-2.8854	-2.7438	-2.8458	-2.9542	-2.825	-3.0292	-3.0396	-2.6562	-3.025	-2.6896	-2.9729	11.782	-91.702	-68.811	-86.802	25.457	-51.677	147.401	124.412	-6.589	-22.164	74.937	223.485	214.891	16.993	51.181	195.597	0.0006267	0.0005699	0.00025784	429.99	6.8268e-06	1.8286e-05	646.12	157.1	8.889e-06	6.6782e-06	292.55	129.7	66.581	34.042	3.719e-06	75.832	0.011431	0.014609	0.0041617	548.15	0.0001515	0.0001734	761.14	193.35	0.00016148	0.00016172	360.07	151.56	100.53	41.352	0.00015331	86.887	154.143	8.928	-23.024	-89.538	67.666	101.042	-89.353	-84.999	120.051	108.522	-85.701	-81.277	-80.545	-76.402	223.524	-77.701	-8191	255	
21982.701	1	1	0	0	0.099859	0.038995	0.13452	0.12353	0.14037	0.24876	0.090488	0.14813	0.1249	0.10316	0.25047	0.10957	0.20488	0.1625	0.25505	0.19462	-2.7	-2.6792	-2.7854	-2.8333	-2.7042	-2.9625	-2.8083	-2.8438	-3.0375	-2.7167	-2.9062	-3.0625	-2.7396	-2.9833	-2.9	-2.9167	30.827	114.257	-78.986	195.450	-94.189	186.589	179.208	231.262	197.328	224.624	204.622	195.167	181.141	214.467	60.965	84.185	0.00063632	0.0005808	5.5145e-05	425.21	1.1745e-05	7.216e-06	642.35	156.67	9.6723e-06	9.1261e-06	295.04	128.77	66.946	34.189	8.0793e-06	76.038	0.011418	0.01428	0.0040449	549.32	0.00014785	0.00016734	758.2	192.76	0.00015975	0.00015923	359.21	151.58	100.67	41.222	0.000156	87.009	154.197	216.252	15.197	-89.288	80.582	-89.118	-89.692	-85.113	50.700	-7.779	-85.532	-81.295	-81.761	-76.213	55.861	-77.800	-8191	255	
21982.795	1	1	0	0	0.14753	0.13618	0.19391	0.25674	0.1122	0.19797	0.19847	0.10051	0.17746	0.059658	0.11396	0.23933	0.33592	0.31804	0.19042	0.15871	-2.6833	-2.5292	-2.65	-3.0187	-2.6625	-2.9979	-2.8271	-2.8792	-2.9771	-2.9333	-2.7167	-3.0729	-2.6813	-2.8208	-2.8354	-2.6813	232.725	101.856	158.331	207.792	-65.990	119.586	237.217	-66.490	205.359	-91.291	159.895	137.744	235.511	169.871	184.212	218.845	0.00073276	0.00046789	0.00022851	425.76	1.2194e-05	8.0616e-06	644.35	156.29	6.1e-06	7.9905e-06	292.66	128.92	67.182	34.318	8.5826e-06	76.617	0.01152	0.014319	0.0040249	548.74	0.00014838	0.00016322	758.5	191.98	0.00015697	0.00015675	357.13	151.85	100.11	41.303	0.00015721	87.506	154.880	19.673	22.587	-89.664	38.324	8.486	-89.460	-85.126	-71.786	-8.052	-85.620	-81.273	-81.112	-76.206	-57.290	-77.667	-8191	255	
21982.891	1	1	0	0	0.18662	0.096586	0.20137	0.092172	0.040786	0.10187	0.14174	0.09369	0.1271	0.05568	0.12409	0.34566	0.19139	0.38754	0.20411	0.33327	-2.5083	-2.7479	-2.5812	-3.1542	-2.5438	-3.0271	-3.1917	-2.6917	-2.9083	-2.6583	-2.9854	-3.0854	-2.6125	-3.0375	-2.8833	-2.8271	124.237	168.711	177.460	91.336	87.541	84.639	199.111	98.991	-75.580	121.208	91.012	213.187	121.654	-87.587	-46.811	-96.845	0.00057804	0.00030061	0.00039029	424.48	1.1795e-05	5.0191e-06	643.39	156.25	5.3734e-06	1.2085e-05	290.1	129.18	66.853	34.707	2.2861e-06	76.925	0.011391	0.014362	0.0040551	551.09	0.00015115	0.00016454	763.57	192.56	0.00015822	0.00016028	357.92	152.38	100.26	41.554	0.00016059	87.823	160.051	47.723	-39.146	-89.289	-46.150	-63.572	-89.466	-85.110	91.285	116.889	-85.389	-80.958	-81.498	-76.327	112.963	-77.667	-8191	255	
21983.012	1	1	0	0	0.44263	0.12679	0.2467	0.061927	0.1682	0.34791	0.16681	0.10375	0.12023	0.042328	0.24761	0.077129	0.081428	0.08691	0.11382	0.1341	-2.6208	-2.8792	-2.7958	-3.1729	-2.8292	-2.7396	-3.1354	-2.9333	-2.9813	-2.9688	-2.6417	-3.0625	-2.7979	-2.8604	-2.9833	-2.8042	53.230	-7.852	-29.736	229.764	181.264	-101.219	-90.929	131.681	-56.030	143.234	249.543	5.295	27.269	46.855	-30.966	167.831	0.0007742	0.00018915	7.7327e-05	422.02	3.3456e-06	7.9464e-06	644.11	155.77	1.5457e-05	1.7305e-06	293.37	128.14	66.767	34.595	8.1357e-06	76.513	0.011282	0.014482	0.0040624	549.37	0.00015043	0.00016252	764.03	192.67	0.00015682	0.00016539	358.78	152	100.67	41.714	0.00016505	87.739	151.607	182.255	76.807	-89.351	-31.294	67.999	-89.457	-85.227	39.391	253.175	-85.568	-81.111	-81.484	-76.287	233.872	-77.837	-8191	255	
21983.107	1	1	0	0	0.10633	0.044534	0.11801	0.16844	0.22282	0.15917	0.14325	0.24333	0.15935	0.2518	0.031462	0.16849	0.051311	0.25149	0.28201	0.16544	-2.3229	-2.8187	-2.4979	-2.9583	-2.7875	-2.7542	-2.9875	-2.8354	-2.875	-3	-2.6479	-2.9896	-2.8875	-2.8917	-3.0021	-2.7896	51.374	190.905	-15.890	-16.484	20.126	40.141	50.875	131.470	-18.245	168.829	165.961	193.120	253.014	-57.578	-46.978	186.263	0.00044138	0.00080199	0.00022578	426.24	7.8279e-06	9.9675e-06	642.93	156.44	2.9335e-06	9.0298e-06	292.14	129.2	66.904	34.782	9.1648e-06	76.763	0.01124	0.015008	0.0040818	550.56	0.00015129	0.00016309	763.73	192.84	0.00015519	0.00016824	358.46	152.31	101.03	41.796	0.00016936	88.024	133.271	66.838	-44.809	-89.479	-17.402	29.585	-89.230	-84.879	215.164	43.366	-85.798	-81.041	-81.136	-76.147	-73.755	-77.531	-8191	255	
21983.203	1	1	0	0	0.31788	0.16734	0.23602	0.18106	0.022111	0.24784	0.23134	0.041843	0.4009	0.25802	0.13732	0.20253	0.32038	0.23916	0.1186	0.15125	-2.6417	-2.7875	-2.6917	-2.9437	-2.8604	-2.6813	-3.0167	-2.6979	-2.6958	-2.9958	-2.6833	-3.0104	-2.8667	-2.7438	-2.9938	-2.8458	85.013	125.574	147.270	135.199	-88.837	-57.128	146.858	197.945	195.075	2.502	195.992	-99.362	142.754	-74.658	87.590	225.625	0.00042616	0.0010742	0.00035894	427.39	5.5989e-06	1.5453e-06	644.87	155.69	3.2074e-06	1.126e-05	292.42	128.35	66.847	34.688	1.943e-06	76.89	0.011409	0.015635	0.0041809	553.41	0.00015793	0.00016667	767.59	193.28	0.00015742	0.00017493	359.36	152.2	102.52	42.055	0.00017253	88.474	153.575	24.164	15.763	-89.255	36.332	-71.061	-89.167	-84.866	2.587	79.962	-85.555	-81.150	-80.899	-76.337	-16.012	-77.906	-8191	255	
21983.301	1	1	0	0	0.091708	0.14412	0.13734	0.2946	0.14373	0.23448	0.1558	0.17126	0.023281	0.19717	0.13616	0.099428	0.13474	0.13153	0.16066	0.1182	-2.2687	-2.975	-2.5938	-3.1	-2.8333	-2.6875	-3.0667	-2.7167	-2.8125	-2.9479	-2.7625	-3.0938	-2.8729	-2.7417	-2.9813	-2.9396	-89.074	-98.588	38.493	102.792	39.420	214.099	253.091	184.408	-27.370	54.819	-35.870	181.387	67.899	174.613	-12.314	106.523	0.00052756	0.00068791	0.00023785	427.62	1.0705e-06	2.1502e-06	644.35	155.2	1.2247e-05	1.0729e-05	291.66	129.21	66.779	35.139	5.3388e-06	77.725	0.011421	0.016067	0.004241	554.33	0.00016245	0.00016858	770.34	193.39	0.00016059	0.00017837	360.19	152.65	103.39	42.408	0.00017119	89.345	151.596	-11.786	-17.843	-89.128	246.909	-85.149	-89.371	-85.021	116.285	136.583	-85.709	-81.130	-80.714	-76.327	-42.984	-77.568	-8191	255	
21983.396	1	1	0	0	0.16912	0.15226	0.062451	0.22281	0.30783	0.049062	0.14886	0.058312	0.22181	0.11498	0.10929	0.2073	0.13659	0.14886	0.070219	0.13546	-2.2917	-2.8937	-2.6854	-2.85	-2.875	-2.8146	-3.1396	-2.7896	-2.8063	-3.0146	-2.7	-2.9437	-2.9875	-2.5938	-2.9062	-2.8083	247.451	30.607	105.040	-52.961	173.111	-50.201	-47.760	-97.567	186.508	189.059	195.961	11.677	-28.886	220.699	-26.965	234.968	0.00043995	0.00092629	0.00018663	430.67	1.0201e-05	6.7935e-06	644.28	156.23	6.0487e-06	4.3583e-06	291.27	129.08	66.96	35.461	4.4717e-06	78.042	0.011438	0.016256	0.0042403	554.91	0.00016696	0.00016929	769.77	193.88	0.00016097	0.00018009	358.83	152.28	103.48	42.761	0.00016875	89.706	155.393	-62.884	25.669	-89.369	90.010	53.000	-89.454	-85.239	-18.640	17.374	-85.717	-81.133	-80.702	-75.982	-27.853	-77.791	-8191	255	
21983.492	1	1	0	0	0.12702	0.16329	0.20472	0.043443	0.22784	0.238	0.19635	0.1619	0.16684	0.041917	0.32789	0.22821	0.16638	0.071256	0.18602	0.25781	-2.3833	-2.9625	-2.575	-2.7333	-2.9208	-2.6688	-3.0958	-2.8083	-2.8167	-2.8604	-2.8667	-2.9333	-3.1396	-2.6104	-2.8937	-3.1625	97.009	137.137	50.386	237.410	254.593	161.401	77.270	233.865	5.614	-9.155	241.981	209.548	79.549	147.717	-62.303	207.663	0.00055068	0.0015441	0.00031218	426.02	3.0799e-06	1.1237e-05	642.38	154.74	1.05e-05	1.3402e-05	290.41	128.74	66.548	35.794	9.1609e-06	78.771	0.011325	0.016275	0.0041868	551.61	0.00016781	0.00016716	767.18	193.93	0.00016006	0.00017944	358.44	152.02	104.03	43.081	0.0001667	90.443	147.989	14.605	-84.188	-89.411	48.436	4.866	-89.238	-84.980	-7.900	5.950	-85.407	-81.237	-80.250	-76.247	170.273	-77.775	-8191	255	
21983.611	1	1	0	0	0.040497	0.25814	0.067834	0.10395	0.32029	0.12901	0.30321	0.061896	0.072534	0.18558	0.14418	0.18829	0.060015	0.22745	0.11133	0.086012	-2.2354	-2.9521	-2.7812	-2.7062	-3.0146	-2.7687	-3.0521	-2.8167	-2.6542	-2.8729	-2.6271	-2.9813	-2.8875	-2.725	-2.975	-3.025	160.115	213.410	248.818	211.202	-6.143	179.861	115.175	190.841	-8.408	237.044	117.625	95.212	-100.830	176.704	163.416	38.653	0.00059145	0.00025904	0.00032425	427.65	2.8756e-06	1.2555e-05	641.59	155.03	1.0157e-05	2.043e-05	292.46	130.08	67.541	36.408	1.255e-05	79.304	0.011226	0.01606	0.0041761	550.77	0.00016776	0.0001663	764.89	194.14	0.00015827	0.00017702	360.59	153.24	105.09	43.662	0.00016632	91.617	152.468	243.637	32.358	-89.693	256.967	-70.080	-89.300	-85.024	27.833	122.507	-85.481	-81.112	-81.098	-76.237	5.157	-77.836	-8191	255	
21983.707	1	1	0	0	0.20772	0.12751	0.13188	0.22561	0.04722	0.24363	0.11665	0.1363	0.24047	0.11721	0.1731	0.35768	0.34252	0.064389	0.070902	0.32223	-2.175	-2.8937	-2.9062	-2.7021	-3.0812	-2.6521	-3.2292	-2.9271	-2.7188	-3.025	-2.8042	-2.8187	-3.0458	-2.6188	-2.9958	-3.0667	-13.302	255.696	254.251	204.222	49.865	54.969	-31.239	-18.284	204.174	95.388	199.930	220.924	180.797	163.985	80.627	221.078	0.00050333	0.0016752	0.0002206	425.99	1.4047e-05	1.3595e-05	645	155.5	7.2702e-06	1.8304e-05	290.93	131.19	68.129	36.917	1.1908e-05	80.124	0.011386	0.016224	0.004301	552.09	0.00017051	0.0001675	768.44	195.02	0.00015854	0.00017625	361.68	154.13	105.8	44.158	0.00016832	92.445	172.156	-17.816	-0.267	-89.322	108.272	-84.786	-89.299	-84.761	-47.121	28.657	-85.145	-80.810	-80.654	-76.146	47.209	-77.604	-8191	255	
21983.805	1	1	0	0	0.18179	0.25342	0.24088	0.26655	0.1193	0.10002	0.14728	0.18403	0.03526	0.031722	0.17216	0.1488	0.20126	0.18471	0.12717	0.031195	-2.0896	-2.9917	-2.7021	-2.7396	-2.875	-2.6479	-2.7833	-2.9542	-2.5604	-3.0292	-2.7771	-2.725	-3.1333	-2.6333	-2.8292	-3.2062	177.673	55.777	-51.438	138.365	195.064	53.868	103.417	186.354	76.738	16.199	-99.596	46.338	-71.782	-98.692	77.406	169.737	0.00058132	0.00043792	0.00015785	429.38	5.8811e-06	1.6563e-05	643.11	154.39	8.1715e-06	7.8411e-06	290.76	130.43	68.178	36.972	1.1981e-05	80.028	0.011396	0.016188	0.0044399	554.01	0.00017334	0.00017163	768.7	195.03	0.00015956	0.00017842	362.36	154.12	105.81	44.318	0.00016772	92.326	153.563	-31.198	3.493	-89.012	48.371	-22.445	-89.418	-84.954	35.799	28.564	-85.543	-81.106	-81.056	-76.396	-17.723	-77.921	-8191	255	
21983.900	1	1	0	0	0.25033	0.26363	0.13479	0.20351	0.11984	0.15431	0.02529	0.31504	0.098225	0.20203	0.12823	0.13019	0.17958	0.19748	0.1553	0.17514	-2.3604	-2.8146	-2.8583	-2.7604	-3.0854	-2.7812	-2.8667	-3.0563	-2.8396	-2.8583	-2.9	-2.5833	-3.0812	-2.8854	-2.5896	-3.1104	22.366	250.939	-18.270	160.049	83.301	174.420	52.750	198.447	-68.764	-87.072	156.383	190.094	55.945	150.135	-5.424	189.698	0.00052417	0.00045916	0.00013286	422.53	9.9941e-06	1.0289e-05	641.38	153.89	5.1603e-06	8.2488e-06	288.8	130.77	67.911	37.09	1.1024e-05	80.837	0.011222	0.015742	0.0044423	547.36	0.00016699	0.00016956	762.23	194.45	0.00015648	0.00017635	361.12	153.73	105.41	44.6	0.00016668	92.726	157.142	-63.377	230.961	-89.195	-2.525	-5.685	-89.628	-84.927	49.591	57.754	-85.649	-81.202	-80.410	-76.201	-13.206	-77.625	-8191	255	
21983.996	1	1	0	0	0.1021	0.16159	0.091874	0.16819	0.10387	0.14307	0.20658	0.20318	0.29587	0.10142	0.072729	0.25244	0.042701	0.057761	0.1804	0.18717	-2.1646	-2.7396	-2.9688	-2.6146	-2.8917	-2.8292	-2.8604	-3.1167	-2.7083	-2.7729	-2.8583	-2.6792	-3.0583	-2.9125	-2.6625	-3.1833	-72.250	14.010	182.054	126.051	185.602	200.945	117.446	99.738	241.413	163.334	167.533	98.388	207.996	229.408	193.959	125.279	0.00058456	0.0011667	0.0001886	420.73	1.5318e-05	2.7419e-06	636.4	153.5	1.407e-05	4.3124e-06	290.72	132.19	68.792	37.524	4.4602e-06	81.103	0.011144	0.015749	0.0044922	544.17	0.00016498	0.00017214	758.68	193.94	0.00015341	0.00017225	361.41	154.98	105.07	44.979	0.00016163	93.197	157.545	-38.772	7.594	-89.309	-34.467	223.713	-89.386	-84.594	-30.194	100.540	-85.376	-80.874	-80.472	-76.213	50.635	-77.745	-8191	255	
21984.092	1	1	0	0	0.10807	0.17961	0.14175	0.28595	0.10797	0.18366	0.35511	0.12158	0.28849	0.20825	0.20051	0.10664	0.29762	0.14576	0.13045	0.45263	-2.2812	-2.8542	-2.9604	-2.6792	-2.9271	-2.7167	-2.775	-2.9292	-2.6417	-2.7521	-3.1688	-2.7938	-2.8292	-3.0208	-2.5979	-3.15	243.005	-87.301	-3.718	191.554	95.799	161.605	186.323	-95.513	142.130	199.366	201.365	-46.704	73.306	-68.656	132.599	248.603	0.00056408	0.00075954	0.00036591	419.63	1.0335e-05	7.7467e-06	636.42	153.57	9.5431e-06	1.0774e-05	293.35	133.67	69.177	38.176	4.7474e-06	82.27	0.011153	0.015463	0.0044631	540.05	0.00016186	0.0001717	755.37	192.23	0.00015227	0.00016903	362.38	155.84	104.57	45.545	0.00015669	94.091	142.363	-36.266	-39.249	-89.324	77.163	-65.857	-89.313	-84.539	-9.910	55.933	-85.025	-81.063	-81.037	-76.283	-3.063	-77.883	-8191	255	
21984.188	1	1	0	0	0.19918	0.17195	0.24746	0.26128	0.2779	0.0356	0.25953	0.18132	0.15289	0.082323	0.047609	0.077502	0.22341	0.23074	0.10688	0.30927	-2.2562	-2.7104	-3.0167	-2.7188	-2.8042	-2.7479	-2.7667	-2.95	-2.6146	-2.6042	-2.9875	-2.8438	-2.7562	-3.0438	-2.375	-3.0292	-70.616	196.140	-77.746	63.365	-68.057	249.695	164.466	197.395	255.249	89.958	159.315	140.006	-60.630	251.252	-6.176	170.252	0.00065892	0.00081609	0.0003452	417.57	8.5293e-06	1.0609e-05	633.98	152.51	4.5827e-06	1.3459e-05	290.91	133.71	68.87	38.035	6.6173e-06	81.965	0.011058	0.015107	0.0044133	534.35	0.00016106	0.00017304	751.09	191.12	0.00015504	0.0001681	361.12	156.27	104.93	45.654	0.00015505	93.755	148.428	-46.987	1.220	-89.054	50.954	-32.422	-89.342	-84.600	46.244	-4.002	-85.132	-81.012	-80.584	-76.484	201.214	-77.705	-8191	255	
21984.283	1	1	0	0	0.18476	0.25111	0.075824	0.018749	0.13778	0.14848	0.23717	0.38437	0.056239	0.05943	0.12156	0.20165	0.25455	0.179	0.16485	0.14005	-2.1458	-2.5083	-2.9042	-2.6917	-2.7562	-2.8833	-2.7646	-2.9188	-2.8146	-2.5938	-3.0729	-2.8417	-2.7354	-3.1	-2.5521	-3.0479	-72.063	-20.747	-21.035	122.416	6.263	138.120	-99.406	152.554	61.056	135.506	55.343	225.791	118.755	-90.479	141.088	-12.568	0.00062255	0.00070421	3.1289e-05	416.4	4.6918e-06	9.6454e-06	634.25	151.9	2.1013e-06	1.3632e-05	287.75	133.06	68.496	38.09	6.6307e-06	81.705	0.011267	0.014919	0.004375	533.21	0.0001594	0.00017212	746.38	189.93	0.00015714	0.0001647	358.64	155.46	104.23	45.661	0.00015493	93.656	144.684	-29.233	232.354	-88.944	163.498	-24.945	-89.370	-84.313	107.258	76.056	-85.327	-81.392	-81.367	-76.196	58.033	-77.562	-8191	255	
21984.381	1	1	0	0	0.23136	0.08832	0.076893	0.1756	0.051551	0.28529	0.1065	0.44628	0.20301	0.13629	0.083048	0.25616	0.070307	0.12862	0.10076	0.15304	-2.2854	-2.6458	-2.8375	-2.6625	-2.7479	-3.0229	-2.6688	-2.8312	-2.8563	-2.6771	-3.0146	-2.8583	-2.8604	-3.0021	-2.6583	-3.0438	25.949	237.694	114.954	-87.682	99.425	158.639	184.103	192.891	245.857	97.234	31.766	55.392	124.541	-94.036	61.604	30.269	0.00052108	0.00033916	0.00046522	414.95	9.9145e-06	7.9268e-06	630.77	152.69	7.1356e-06	6.1329e-06	290.49	132.81	69.184	38.039	7.0896e-06	81.283	0.011537	0.014854	0.0043774	537.03	0.00015999	0.00017518	747.4	190.96	0.00016083	0.00016485	359.66	155.98	104.39	45.788	0.00015607	93.565	161.201	-52.196	-6.122	-89.167	-44.608	45.575	-89.294	-84.578	41.448	77.192	-85.506	-81.156	-80.884	-76.065	155.336	-77.809	-8191	255	
21984.498	1	1	0	0	0.088633	0.10847	0.27304	0.21843	0.17416	0.12525	0.26235	0.22676	0.094757	0.20191	0.2462	0.10496	0.1235	0.16192	0.17369	0.095392	-2.4375	-2.4979	-2.9042	-2.8833	-2.6479	-2.85	-2.6604	-2.725	-2.8417	-2.7771	-3.0438	-2.7792	-2.6958	-3.0875	-2.7854	-2.9604	-50.702	212.777	105.527	65.389	119.457	224.979	189.356	187.078	146.852	43.234	179.345	207.177	146.488	-39.287	77.168	250.540	0.00060372	0.000588	0.00026014	418.9	7.7106e-06	7.8973e-06	632.65	152.52	9.5238e-06	1.2062e-05	291.27	133.54	68.425	38.198	4.8766e-06	81.867	0.011802	0.014978	0.004429	544.34	0.00016046	0.00017657	753.22	191.26	0.00016469	0.00016337	360.43	156.92	104.19	45.78	0.00015587	93.917	150.081	-8.526	-31.067	-89.303	-48.641	-64.588	-89.436	-84.557	255.975	17.646	-85.410	-81.025	-81.001	-76.343	31.326	-77.665	-8191	255	
21984.572	1	1	0	0	0.14723	0.20162	0.14754	0.15395	0.099017	0.096649	0.025972	0.10416	0.1395	0.14609	0.077781	0.16354	0.10256	0.19434	0.14448	0.17995	-2.3708	-2.6021	-2.9167	-2.85	-2.6479	-3.1104	-2.7667	-2.5979	-2.9313	-2.575	-2.9146	-2.925	-2.7083	-3.0625	-2.6792	-2.9938	53.133	-21.091	215.408	256.399	116.134	102.934	-71.431	-64.162	6.653	24.055	191.226	230.128	142.991	27.979	56.951	200.634	0.00056803	0.0011091	8.1259e-05	417.47	7.2886e-06	7.0895e-06	637.63	152.23	1.1386e-05	8.651e-06	290.06	134	68.708	38.141	9.0047e-06	81.89	0.011762	0.014693	0.0044019	544.82	0.00015877	0.00017541	755.46	190.91	0.00016634	0.00016171	360.51	157.21	104.01	45.612	0.00015794	93.586	173.895	-4.403	245.096	-89.256	-57.261	33.417	-89.239	-84.357	76.502	133.365	-85.028	-81.002	-80.636	-76.307	-92.634	-77.720	-8191	255	
21984.691	1	1	0	0	0.21375	0.05623	0.43441	0.12558	0.033365	0.072375	0.15386	0.10771	0.18787	0.23018	0.098316	0.44115	0.095341	0.28267	0.13455	0.13389	-2.5625	-2.6083	-2.8125	-2.8458	-2.4375	-2.9062	-2.7479	-2.7208	-3.1167	-2.6667	-2.8333	-2.9479	-2.6125	-2.9104	-2.9354	-2.7979	239.979	-72.895	-32.101	18.650	-80.863	17.812	166.970	-94.023	177.211	116.018	161.340	231.607	-92.033	197.083	64.782	-93.724	0.00054481	0.00073392	0.00014527	417.38	1.2931e-05	2.3322e-05	632.22	152.13	7.1403e-06	9.1174e-06	288.8	133.81	69.044	38.312	9.3541e-06	81.931	0.011564	0.014382	0.0042951	541	0.00015272	0.00017049	750.15	189.33	0.00016056	0.00015837	357.72	156.61	102.62	45.599	0.00015737	93.341	166.100	-12.335	-26.603	-89.353	105.959	50.893	-89.442	-84.368	-44.210	-5.257	-85.175	-81.046	-80.777	-76.404	39.313	-77.983	-8191	255	
21984.787	1	1	0	0	0.29943	0.085076	0.070002	0.10425	0.2781	0.12832	0.087661	0.11581	0.21741	0.16734	0.25023	0.29866	0.17046	0.31831	0.2742	0.082322	-2.5042	-2.6229	-2.8125	-3.0646	-2.5271	-3.0479	-2.6958	-2.6688	-3.0083	-2.5438	-2.9562	-2.8479	-2.5125	-2.9417	-2.6479	-2.6	180.378	109.292	112.115	-94.150	138.729	191.549	-51.848	135.797	7.144	152.224	248.141	218.787	121.765	-84.900	-9.289	238.474	0.0005176	0.0019938	9.1791e-05	412.6	4.8962e-06	4.3558e-06	632.49	152.08	1.0675e-05	8.0948e-06	287.34	132.59	68.407	38.012	8.279e-06	81.643	0.011316	0.014229	0.004218	537.27	0.0001481	0.00016874	751.11	188.22	0.0001589	0.00015943	356.24	155.93	102.17	45.462	0.00016116	93.205	160.245	-60.514	-50.258	-89.119	-11.310	45.703	-89.740	-84.781	57.798	254.823	-85.113	-81.318	-81.289	-76.294	175.644	-77.961	-8191	255	
21984.885	1	1	0	0	0.049526	0.1143	0.096911	0.2816	0.1323	0.11022	0.29631	0.039552	0.10817	0.14761	0.11926	0.18625	0.30343	0.04255	0.10233	0.16049	-2.4313	-2.7146	-2.7521	-2.9354	-2.3792	-2.8771	-2.8854	-2.65	-2.9854	-2.7687	-2.8375	-2.9604	-2.6417	-2.9813	-2.925	-2.8375	210.096	195.912	-47.306	-100.139	-96.927	-52.116	1.602	140.788	24.067	77.406	217.881	231.545	-73.489	179.544	174.220	218.826	0.00058922	0.00081078	0.00015227	414.61	6.6383e-06	1.3247e-05	628.48	151.42	1.0312e-05	7.4187e-06	288.03	132.3	68.755	37.972	6.2702e-07	81.907	0.011308	0.014526	0.004206	536.7	0.00014697	0.00016903	748.88	187.1	0.0001572	0.00016107	355.35	155.9	101.95	45.421	0.00016092	93.198	151.724	202.284	-65.166	-89.325	71.999	113.720	-89.222	-84.318	-5.512	154.984	-85.167	-80.912	-80.769	-76.391	143.523	-77.676	-8191	255	
21984.980	1	1	0	0	0.15578	0.19524	0.0587	0.10514	0.098485	0.098643	0.26443	0.040638	0.15	0.02981	0.1774	0.17639	0.082043	0.27417	0.24372	0.38061	-2.6542	-2.5729	-2.7417	-2.9396	-2.7083	-2.9979	-2.9604	-2.6188	-2.9354	-2.9	-2.7333	-3.1333	-2.8167	-2.8438	-2.9	-2.7729	-101.048	36.340	190.832	97.561	154.694	210.785	141.557	60.990	78.313	157.889	66.997	214.145	140.448	114.208	147.704	252.011	0.00052544	0.0004848	0.00035197	413.02	1.0455e-05	1.3069e-05	631.01	151.41	1.3708e-05	7.5721e-06	288.37	132.78	69.048	38.184	8.3396e-07	81.696	0.011311	0.014845	0.004141	536.91	0.00014755	0.00016925	752.11	187.02	0.00015712	0.0001644	355.62	156.14	102.68	45.548	0.00016356	92.892	134.999	-19.550	235.755	-89.556	240.888	68.105	-89.371	-84.621	-29.891	68.714	-84.933	-80.937	-80.916	-76.293	204.133	-77.739	-8191	255	
21985.102	1	1	0	0	0.19719	0.1138	0.1457	0.11065	0.21004	0.10084	0.21934	0.26012	0.11465	0.16001	0.12066	0.11628	0.11933	0.12131	0.30877	0.21145	-2.425	-2.7562	-2.5375	-3.0208	-2.7229	-2.8354	-2.7896	-2.7812	-2.8688	-2.9042	-2.8917	-3.0917	-2.6583	-2.9271	-2.9062	-2.6937	176.493	44.981	156.431	-84.787	-56.974	175.899	167.918	123.156	187.815	69.663	186.965	212.210	245.951	65.448	-56.012	-88.617	0.00072339	0.001343	0.00034256	419.78	7.3314e-06	8.5883e-06	637.56	151.34	8.8163e-06	1.4137e-05	288.01	131.67	69.264	37.941	7.3545e-06	80.686	0.011504	0.01526	0.0041519	543.15	0.00015377	0.00017272	756.86	187.33	0.00016251	0.00017031	354.39	155	103.43	45.351	0.00016553	92.118	140.342	-15.881	43.947	-89.148	157.676	25.988	-89.345	-84.732	97.257	94.366	-85.033	-81.105	-80.808	-76.213	33.404	-77.677	-8191	255	
21985.197	1	1	0	0	0.13824	0.1826	0.053739	0.17947	0.22532	0.15476	0.1272	0.039228	0.20876	0.11235	0.2242	0.092682	0.076585	0.28	0.14513	0.29065	-2.5542	-2.7583	-2.475	-2.9458	-2.7354	-2.8042	-3.125	-2.6188	-2.6271	-2.7938	-2.6167	-3.1042	-2.8438	-2.8354	-2.9437	-2.7875	199.453	246.718	2.724	182.929	189.325	-74.486	195.399	22.534	169.246	82.785	152.316	237.015	13.145	130.842	45.130	220.040	0.00051472	0.00060644	0.0002341	417.29	2.4708e-06	1.7412e-05	637.25	150.5	2.1286e-06	3.5092e-06	285.07	130.77	68.458	37.597	1.1367e-05	80.43	0.011729	0.015552	0.0041235	545.39	0.00015853	0.00017258	759.31	187.94	0.00016568	0.00017482	354.28	154.65	104.52	45.073	0.00016885	92.041	149.998	150.270	3.004	-89.065	136.023	79.305	-89.486	-84.809	43.314	-9.126	-85.228	-80.829	-80.574	-76.281	114.550	-77.785	-8191	255	
21985.293	1	1	0	0	0.11174	0.081739	0.089536	0.28418	0.24417	0.099003	0.32321	0.20833	0.22373	0.11806	0.36799	0.19214	0.18025	0.1842	0.079805	0.20495	-2.3542	-2.7396	-2.5375	-2.7583	-2.8208	-2.7625	-2.9813	-2.6646	-2.8833	-2.8958	-2.675	-3.025	-2.6708	-2.8438	-3.0125	-2.8875	55.147	-98.781	139.746	114.044	150.123	70.307	246.865	177.016	-50.139	-30.450	226.978	44.515	-64.961	241.894	77.194	171.796	0.00070373	0.00092311	0.00011422	419.74	4.196e-06	6.4868e-06	637.9	152.94	2.2337e-05	5.6668e-06	289.99	131.66	68.559	37.433	6.8713e-06	80.38	0.011992	0.015983	0.0041399	547.95	0.00016313	0.00017192	760.58	190	0.00016552	0.00017721	355.38	155.5	105.17	44.784	0.00016898	92.129	153.455	218.554	119.651	-89.003	215.448	65.422	-89.265	-84.673	80.055	-23.449	-85.499	-80.933	-80.843	-76.289	223.227	-77.825	-8191	255	
21985.389	1	1	0	0	0.035983	0.11861	0.10118	0.22893	0.062814	0.092065	0.31998	0.30239	0.24827	0.090927	0.22322	0.087648	0.1034	0.1791	0.12825	0.10001	-2.4542	-2.9604	-2.4833	-2.875	-2.6917	-2.7792	-3.0521	-2.6167	-2.7917	-3.1021	-2.5979	-3.0667	-2.8792	-2.5938	-2.9896	-2.9604	251.562	-67.483	112.630	-90.864	-76.410	252.205	-86.912	249.171	220.513	-80.743	105.251	-91.647	210.811	144.486	138.915	236.875	0.00046678	0.0002436	9.0661e-05	420.14	5.7801e-06	1.8966e-06	638.23	151.15	1.3891e-05	2.0045e-05	289.08	132.39	68.941	37.643	1.2482e-05	80.917	0.01184	0.015952	0.0041279	549.38	0.00016443	0.00016705	764.04	190.45	0.0001622	0.00017538	355.81	156.38	105.16	44.814	0.00016796	92.512	157.330	10.765	-87.144	-88.948	19.506	143.784	-89.277	-84.432	-9.008	143.618	-85.376	-80.909	-80.981	-76.302	-37.447	-77.841	-8191	255	
21985.484	1	1	0	0	0.12887	0.16473	0.12605	0.12379	0.079096	0.31325	0.25137	0.33952	0.092236	0.081524	0.14467	0.22924	0.12512	0.14526	0.14516	0.25894	-2.3167	-2.8312	-2.2729	-2.8271	-2.7479	-2.6375	-2.8792	-2.6958	-2.7146	-3.1708	-2.625	-2.8563	-2.8021	-2.7646	-2.9271	-2.6813	9.641	-22.369	248.130	-17.363	-29.999	-90.258	32.577	153.183	-45.893	138.655	35.949	92.897	-51.159	153.375	134.276	216.991	0.00045174	0.00095306	4.7592e-05	416.89	9.9765e-06	3.9809e-06	638.39	151.72	1.6371e-05	9.5025e-06	287.67	131.68	68.053	37.654	7.5004e-06	80.516	0.011528	0.015607	0.0041442	546.32	0.00016433	0.00016349	761.67	190.41	0.00015892	0.00017332	355.18	155.43	104.61	44.65	0.00016783	92.241	157.078	189.681	103.472	-88.885	-36.067	138.963	-89.195	-84.663	42.014	-5.245	-85.301	-81.118	-81.044	-76.293	-85.398	-77.815	-8191	255	
21985.580	1	1	0	0	0.21686	0.1502	0.1227	0.10011	0.086747	0.24532	0.17082	0.10957	0.053884	0.090669	0.092358	0.092885	0.30701	0.21995	0.027984	0.13196	-2.0896	-3.1125	-2.6354	-2.8688	-2.8979	-2.5542	-2.8812	-2.6833	-2.5896	-3.0542	-2.7167	-2.8771	-2.8104	-2.6229	-3	-2.8187	93.374	-34.341	100.566	222.849	108.270	173.580	223.754	213.047	203.652	114.350	34.851	199.130	-52.117	215.946	128.132	156.570	0.00054423	0.000871	9.491e-05	416.46	6.5984e-06	1.1261e-05	637.51	152.11	1.4085e-05	9.479e-06	287.74	131.18	67.836	37.305	8.1327e-06	80.227	0.011158	0.015386	0.0041282	541.41	0.00016139	0.00015918	758.09	189.81	0.00015304	0.00017172	353.98	154.37	103.87	44.416	0.00016651	91.955	151.033	14.984	114.124	-88.924	51.453	159.074	-89.354	-84.591	56.166	161.759	-85.414	-81.099	-80.435	-76.363	64.879	-77.905	-8191	255	
21985.676	1	1	0	0	0.25128	0.22677	0.034091	0.060069	0.080578	0.01651	0.15399	0.097216	0.20534	0.061448	0.22346	0.070975	0.034675	0.14977	0.22099	0.25949	-2.1854	-2.8208	-2.5458	-2.7729	-2.7229	-2.7188	-3.0167	-2.7479	-2.7271	-2.9604	-2.8021	-2.8937	-2.9771	-2.75	-2.8438	-2.9021	27.891	67.258	-55.608	231.033	-35.010	11.799	-70.356	225.768	-67.355	-23.905	238.689	-62.665	51.962	224.666	-4.806	-101.535	0.00068487	0.00062813	8.301e-05	416.5	9.9847e-06	9.8524e-06	633.63	150.93	1.1378e-05	8.3868e-06	286.72	130.97	68.329	37.306	5.5007e-06	80.599	0.010759	0.015237	0.0041494	537.35	0.00015741	0.00015612	754.47	188.72	0.00014683	0.00016778	353.82	153.9	102.94	44.307	0.00016206	91.907	151.118	53.604	-5.159	-89.519	38.238	70.994	-89.297	-84.804	7.678	55.959	-85.192	-80.915	-81.485	-76.149	97.719	-77.778	-8191	255	
21985.797	1	1	0	0	0.0029354	0.30704	0.048535	0.31275	0.19698	0.055256	0.21913	0.29788	0.20542	0.048297	0.18222	0.34532	0.28822	0.20644	0.068086	0.19634	-2.3021	-2.9833	-2.6229	-2.6354	-2.8688	-2.6937	-2.9021	-2.7708	-2.5125	-2.8604	-2.7896	-2.7	-2.7792	-2.4917	-2.8896	-3.1292	-84.979	255.097	179.951	241.228	45.107	-87.907	176.667	216.183	158.354	-14.708	-84.173	207.656	218.595	152.148	222.097	178.453	0.00070698	0.00055474	0.00011281	415.88	5.6613e-06	1.0156e-05	637.11	151.15	4.4221e-06	2.7921e-06	288.65	132.19	68.33	37.426	7.5019e-06	80.626	0.010369	0.015032	0.0041115	533.82	0.00015463	0.00015684	753.1	188.4	0.00014287	0.00016787	355.29	153.75	102.92	44.409	0.00015962	91.988	158.701	256.271	236.876	-89.641	47.055	10.637	-89.322	-84.843	15.880	-15.356	-85.688	-81.157	-81.034	-76.439	12.955	-77.752	-8191	255	
21985.867	1	1	0	0	0.18844	0.26253	0.027263	0.24812	0.080777	0.1807	0.095222	0.31273	0.10801	0.22425	0.13783	0.1942	0.034074	0.023841	0.18762	0.30685	-2.0187	-2.6833	-2.8042	-2.575	-2.8563	-2.5604	-3.0062	-3.0542	-2.4229	-2.7854	-2.7292	-2.5417	-2.7792	-2.7438	-2.7146	-2.975	-32.267	89.071	86.715	-91.141	110.402	92.679	-69.393	181.902	-44.852	201.397	-52.893	-78.579	27.669	-59.884	-43.436	228.013	0.00066803	7.9124e-05	0.00010663	418.62	5.4303e-06	1.1305e-05	635.55	151.86	4.869e-06	1.1534e-05	288.69	131.08	68.008	37.203	1.2498e-05	79.558	0.010371	0.015288	0.004136	532.55	0.00015672	0.00015968	752.52	188.59	0.0001447	0.00016953	354.64	152.54	102.99	44.303	0.00015842	91.29	153.587	233.349	229.573	-89.119	230.778	-62.946	-89.539	-84.674	192.396	19.045	-85.428	-80.927	-80.752	-76.644	83.659	-77.752	-8191	255	
21985.965	1	1	0	0	0.2961	0.30322	0.097381	0.12306	0.1754	0.17277	0.1814	0.11733	0.016751	0.1184	0.11614	0.1507	0.10577	0.10377	0.19678	0.19243	-2.1333	-3.0104	-2.6979	-2.475	-3.0187	-2.5854	-2.7146	-2.9583	-2.5438	-2.6229	-3.1063	-2.6167	-2.925	-2.7479	-2.5687	-3.1083	137.735	228.428	55.513	-77.568	170.694	71.112	142.310	61.659	252.949	249.348	81.944	126.232	-88.915	235.916	73.598	213.393	0.00062016	0.00046028	9.5808e-05	417.02	9.3737e-06	1.9566e-06	635.31	151.76	5.4414e-06	9.934e-06	287.37	130.67	68.166	37.012	9.937e-06	79.374	0.010407	0.01532	0.0041742	530.41	0.00015895	0.00016213	751.18	188.6	0.00014622	0.00016704	353.98	152.01	103.06	44.077	0.00015217	90.922	137.426	26.450	-59.722	-89.283	1.632	204.936	-89.242	-85.121	140.402	121.533	-85.655	-81.296	-81.234	-76.577	11.073	-77.753	-8191	255	
21986.061	1	1	0	0	0.031469	0.21226	0.1554	0.16605	0.22734	0.071716	0.19091	0.066319	0.3218	0.22761	0.10016	0.088083	0.070306	0.26342	0.17565	0.20202	-2.15	-2.8312	-2.7438	-2.5729	-2.85	-2.7917	-2.8375	-2.8208	-2.6167	-2.5917	-2.8021	-2.5854	-2.8979	-2.7729	-2.6604	-3.1833	43.943	253.023	235.627	213.900	77.244	202.597	152.816	-48.313	126.725	105.146	234.607	92.584	-3.780	242.551	179.061	152.738	0.00061712	0.00053993	8.5296e-05	414.75	9.6153e-06	5.6833e-06	638.27	151.97	5.0673e-06	9.1471e-06	287.98	130.08	68.041	37.005	6.2035e-06	79.549	0.010437	0.015009	0.0040779	527.9	0.00015767	0.00016167	747.81	188.88	0.00014843	0.00016567	353.75	151.56	103.25	44.091	0.00014779	91.039	154.455	-45.816	-92.278	-89.230	15.786	229.806	-89.271	-84.573	48.169	147.389	-85.851	-81.118	-81.000	-76.396	131.149	-77.595	-8191	255	
21986.182	1	1	0	0	0.13506	0.14579	0.10858	0.23306	0.11222	0.27903	0.22085	0.15923	0.091646	0.025662	0.22783	0.092592	0.076911	0.14215	0.29746	0.14661	-2.2271	-2.7771	-2.8187	-2.8	-2.8729	-2.8	-2.7375	-3.0687	-2.6375	-2.7583	-3.0458	-2.5521	-2.8833	-2.7812	-2.5396	-3.2479	200.940	-52.158	170.769	235.449	5.007	103.377	-8.038	234.394	169.992	187.620	-66.195	113.008	18.910	147.546	235.183	185.831	0.00058967	0.0012887	0.00041339	412.58	9.5029e-06	3.2828e-06	628	150.51	8.7526e-06	8.1391e-06	287.55	130.46	67.743	37.228	2.894e-06	80.369	0.010465	0.014614	0.004004	524.24	0.00015498	0.0001597	738.5	187.5	0.00014651	0.00015866	351.8	151.71	102.51	44.313	0.0001439	91.698	140.468	-70.788	-47.591	-89.133	11.984	197.592	-89.408	-84.755	-22.834	-24.649	-85.265	-81.015	-80.924	-76.064	18.569	-78.046	-8191	255	
21986.277	1	1	0	0	0.20919	0.16557	0.33232	0.14305	0.20185	0.14248	0.16203	0.10323	0.15419	0.16975	0.081018	0.039039	0.086243	0.25139	0.24687	0.24625	-2.0979	-2.7125	-2.8042	-2.4771	-2.8083	-2.7271	-2.7458	-2.8875	-2.8375	-2.7271	-2.8479	-2.8937	-2.9854	-2.6667	-2.5333	-2.9396	121.781	215.894	188.271	196.130	202.092	-72.574	131.860	183.273	214.864	128.848	164.330	13.865	-87.818	209.171	137.716	221.034	0.00052882	0.0010981	0.00016733	411.15	1.195e-05	4.47e-06	630.43	151.88	6.7979e-06	4.562e-06	286.37	130.26	68.541	37.184	8.0437e-06	79.879	0.010519	0.014193	0.0040149	525.71	0.00015568	0.00015938	741.25	188.74	0.0001488	0.0001545	352.45	152.06	102.4	44.304	0.00014314	91.475	160.393	-40.377	-57.157	-88.999	76.724	3.256	-89.662	-84.655	50.543	-100.137	-85.364	-81.339	-80.906	-76.327	-13.358	-77.824	-8191	255	
21986.373	1	1	0	0	0.13391	0.11375	0.26811	0.12292	0.045024	0.11471	0.0917	0.10572	0.14131	0.13123	0.15323	0.24057	0.32945	0.21437	0.13962	0.064313	-2.2042	-2.5417	-2.875	-2.6	-2.7208	-2.8271	-2.7958	-2.8958	-2.7729	-2.7292	-2.8542	-2.5687	-2.8229	-2.8271	-2.6	-3	242.472	149.890	110.752	201.507	94.105	-90.613	-46.278	224.896	109.501	-40.251	-65.507	-47.158	-101.219	67.352	146.607	135.827	0.00069031	0.0010544	0.00030388	413.03	1.7604e-05	1.3324e-05	634.27	151.05	9.752e-06	1.5815e-05	288.82	130.54	68.254	37.059	5.9884e-06	79.258	0.010582	0.013786	0.0040362	527.11	0.00015123	0.00015809	740.98	188.51	0.00014792	0.00015101	354.03	152.68	102.38	44.042	0.00014581	91.005	149.666	-12.796	217.965	-89.379	87.424	90.237	-89.459	-84.661	7.830	1.909	-85.600	-81.005	-81.254	-76.363	215.054	-77.916	-8191	255	
21986.471	1	1	0	0	0.041536	0.19927	0.35509	0.21548	0.1218	0.11584	0.41729	0.29199	0.17524	0.22782	0.10027	0.2258	0.17072	0.089396	0.07492	0.12728	-2.2521	-2.5708	-2.9021	-2.5583	-2.8396	-2.8625	-2.5271	-2.7625	-2.5938	-2.5083	-3.0542	-2.5771	-2.8125	-2.9562	-2.5667	-3.0771	256.849	-8.926	50.860	213.371	18.972	-42.656	120.743	240.324	25.139	-62.575	200.723	198.447	47.672	111.825	-82.458	-39.427	0.00067389	0.0013749	0.00030581	412.93	1.0957e-05	3.6104e-06	633.75	152.06	7.6484e-06	1.016e-05	289.22	132.11	69.474	36.971	2.741e-06	79.728	0.010692	0.013649	0.004119	528.93	0.00014883	0.00015948	742.76	189.15	0.00014834	0.00015071	356.39	154.11	102.53	43.999	0.00014944	91.152	138.599	-47.312	145.492	-89.130	-70.518	195.622	-89.397	-84.911	4.828	55.878	-85.541	-81.071	-80.677	-76.436	-54.913	-77.880	-8191	255	
21986.566	1	1	0	0	0.14815	0.22483	0.13936	0.076611	0.079263	0.043897	0.081584	0.37368	0.09173	0.14284	0.26007	0.21958	0.050909	0.15938	0.067774	0.2758	-2.3354	-2.5854	-2.8792	-2.7042	-2.4604	-2.85	-2.7875	-2.7854	-2.8396	-2.775	-2.8417	-2.7229	-2.6104	-2.9313	-2.5583	-2.8333	166.026	38.794	18.524	92.982	168.537	-52.208	220.480	211.249	26.000	-16.778	227.499	214.564	7.926	242.981	199.634	189.550	0.00068561	0.001147	0.0005071	413.11	8.4288e-06	6.5202e-06	630.82	151.48	1.3428e-06	1.2e-05	290.99	133.89	69.328	36.798	4.5371e-06	79.844	0.010792	0.013711	0.0042517	530.91	0.00014824	0.00016379	745.18	189.62	0.00015056	0.00015246	359.08	155.82	102.18	43.992	0.00015147	91.404	152.146	-77.390	144.188	-89.153	40.532	112.199	-89.248	-84.419	143.047	150.783	-85.298	-81.222	-80.861	-76.318	-43.760	-77.711	-8191	255	
21986.662	1	1	0	0	0.19199	0.19326	0.33223	0.12369	0.22537	0.14045	0.053892	0.11344	0.23859	0.26667	0.14117	0.17811	0.17728	0.16002	0.070982	0.24402	-2.3167	-2.7229	-2.8542	-2.6833	-2.6417	-2.875	-2.9917	-2.8021	-3.05	-2.7	-2.7229	-2.7583	-2.5542	-2.8229	-2.6292	-2.6854	23.012	79.383	227.411	-101.245	-48.301	114.123	74.944	49.635	3.803	-6.513	-99.901	227.213	76.458	-27.554	-14.126	228.917	0.00046426	0.00057097	0.00025262	411.62	1.9183e-06	6.6226e-06	630.4	151.29	5.5657e-06	1.3484e-05	289.49	132.18	69.155	36.594	2.2159e-06	79.275	0.010688	0.013671	0.0042165	527.01	0.00014283	0.000164	743.55	188.14	0.0001471	0.0001521	356.55	154.4	100.65	43.65	0.00014904	90.297	162.795	40.301	226.796	-89.563	191.239	209.360	-89.333	-84.186	-70.444	-59.957	-85.329	-81.111	-80.754	-76.369	-18.979	-77.693	-8191	255	
21986.781	1	1	0	0	0.23123	0.13956	0.19246	0.28882	0.17535	0.24735	0.054189	0.10803	0.12365	0.015805	0.08826	0.17049	0.099553	0.16823	0.18898	0.12516	-2.3646	-2.55	-2.7292	-2.7438	-2.5458	-2.9167	-2.6917	-2.7958	-2.7771	-2.5	-2.7917	-2.8729	-2.5354	-2.9917	-2.7062	-2.9021	-25.447	82.648	-75.083	-29.977	184.352	-2.901	43.539	130.620	126.283	228.827	117.799	128.892	83.244	-21.952	164.690	-46.735	0.00063591	0.00078795	0.00028854	411.67	1.2181e-05	1.0608e-05	629.14	150.94	7.2472e-06	1.0307e-05	285.65	130.9	68.459	36.136	1.2227e-05	78.504	0.010608	0.013691	0.0041647	525.42	0.00014088	0.00016558	739.72	186.87	0.00015018	0.00015616	354.54	152.87	100.6	43.615	0.00015417	89.633	144.747	44.133	-44.145	-89.407	28.056	14.329	-89.227	-84.490	-35.915	73.871	-85.274	-81.204	-80.869	-76.312	-85.822	-77.765	-8191	255	
21986.877	1	1	0	0	0.25219	0.15663	0.25202	0.064655	0.17313	0.053735	0.16534	0.0845	0.26192	0.18836	0.22556	0.24483	0.10223	0.34658	0.15852	0.17746	-2.5292	-2.8042	-2.7271	-2.8375	-2.5979	-3.0333	-2.8042	-2.7062	-2.8521	-2.4729	-2.9042	-3.0271	-2.6125	-2.9	-2.6312	-2.6667	68.548	84.114	161.394	238.749	45.598	197.841	-83.277	142.378	53.384	-2.923	-85.403	229.609	204.970	-93.738	-7.300	180.383	0.00060494	0.00081109	0.00025735	408.68	5.1792e-06	1.1743e-05	627	151.33	8.2977e-06	1.3569e-05	286.5	130.63	68.625	36.657	5.4902e-06	79.091	0.010967	0.014198	0.0041698	524.94	0.00014434	0.00016809	740.07	186.21	0.00015335	0.00015716	353.59	153	101.1	43.97	0.00015405	90.079	141.211	23.533	-24.123	-89.146	-37.192	182.248	-89.352	-84.577	-61.862	131.415	-85.227	-81.250	-80.963	-76.380	29.851	-77.598	-8191	255	
21986.973	1	1	0	0	0.13343	0.29929	0.13303	0.085869	0.1402	0.063145	0.39401	0.23959	0.11629	0.2017	0.091563	0.10246	0.19507	0.25342	0.26445	0.21258	-2.5563	-2.5375	-2.8083	-2.85	-2.4979	-2.95	-2.9208	-2.7458	-2.8375	-2.7104	-2.9167	-2.9813	-2.6979	-3.1042	-2.7604	-2.6125	131.555	15.693	230.503	197.198	72.500	151.730	226.969	172.023	4.656	-46.368	-50.624	-1.325	-93.670	-101.651	78.202	241.534	0.00068787	0.0013803	0.00024403	411.98	8.3671e-06	5.3777e-06	629.64	151.73	7.7331e-06	1.5016e-05	288.61	131.43	68.813	36.627	1.6648e-06	79.303	0.011325	0.014431	0.0041521	530.92	0.00014958	0.00017188	749.41	187.5	0.00016115	0.0001644	355.53	154.21	102.47	44.261	0.00015848	90.659	146.642	-27.198	-3.007	-89.314	23.675	-48.396	-89.508	-84.719	4.011	0.252	-85.518	-81.041	-80.862	-76.133	217.860	-77.815	-8191	255	
21987.094	1	1	0	0	0.17243	0.19528	0.12554	0.13643	0.099687	0.39404	0.17389	0.14152	0.26307	0.12069	0.057643	0.041923	0.1958	0.11971	0.053912	0.21171	-2.3458	-2.6083	-2.6021	-2.9958	-2.6417	-2.8604	-2.9417	-2.85	-2.7896	-2.7583	-2.7625	-3.0979	-2.6667	-2.9729	-2.7396	-2.7667	162.965	157.539	141.678	-46.909	4.115	8.650	108.253	-93.643	143.256	200.117	-30.005	33.369	-87.898	115.786	140.416	234.054	0.00040983	0.00084515	0.00041696	413.54	5.9452e-06	1.3108e-05	633.16	152.42	3.4856e-06	7.8586e-06	288.59	131.65	68.388	36.901	9.0966e-06	79.054	0.011776	0.014862	0.0041187	537.79	0.00015318	0.00017184	752.06	188.05	0.00016342	0.00016587	354.3	154.53	102.61	44.245	0.00015813	90.472	173.770	-93.070	-45.152	-89.174	-13.531	24.565	-89.410	-85.030	239.035	15.199	-85.239	-81.307	-81.065	-76.400	60.248	-77.837	-8191	255	
21987.164	1	1	0	0	0.044744	0.2442	0.10072	0.27302	0.086296	0.13696	0.21156	0.24041	0.079524	0.12596	0.072918	0.22479	0.11035	0.10586	0.20258	0.14938	-2.5479	-2.7062	-2.4854	-2.9958	-2.4646	-2.8125	-2.9604	-2.7521	-2.9708	-2.7708	-2.6792	-2.9562	-2.5375	-2.8667	-2.7062	-2.5792	241.112	36.807	132.753	248.035	-100.215	-25.166	139.620	177.122	148.819	62.940	-15.136	-89.297	-58.103	135.553	52.449	252.096	0.00064061	0.00025853	0.00022621	414.21	2.2833e-06	1.5611e-05	635.26	151.69	1.6433e-05	1.2597e-05	287.47	130.53	67.624	36.624	3.8605e-06	78.717	0.011766	0.014983	0.0040469	541.06	0.00015419	0.00016905	750.12	187.34	0.00016185	0.00016198	351.32	153.55	101.75	43.685	0.00015479	90.194	162.908	-50.527	40.368	-88.945	39.663	28.673	-89.382	-84.900	50.199	128.562	-85.379	-81.206	-80.832	-76.360	137.841	-77.840	-8191	255	
21987.262	1	1	0	0	0.1988	0.1509	0.07072	0.24333	0.11045	0.16626	0.12814	0.1242	0.21953	0.3392	0.11902	0.24174	0.33861	0.3108	0.12825	0.11961	-2.5312	-2.5042	-2.4229	-2.85	-2.6729	-2.8146	-2.7938	-2.6104	-2.7083	-2.775	-2.6771	-2.9625	-2.4792	-2.6792	-2.9833	-2.7208	158.290	61.063	174.150	220.693	28.474	-90.400	255.934	-89.064	132.255	89.677	5.393	68.077	153.196	222.203	10.658	60.157	0.00046274	0.00059701	0.00017745	410.51	5.8915e-06	1.2851e-05	630.24	151.91	8.4737e-06	1.049e-05	286.93	129.61	68.041	36.409	5.3791e-06	78.881	0.011329	0.014463	0.0038751	535.05	0.00015063	0.00015923	745.48	186.93	0.00015638	0.00015667	350.65	153.07	101.45	43.394	0.0001556	90.095	160.028	-67.882	-46.332	-89.087	209.141	92.496	-89.386	-84.981	23.671	0.169	-85.534	-81.310	-81.044	-76.265	55.211	-77.810	-8191	255	
21987.357	1	1	0	0	0.16672	0.15219	0.24259	0.22123	0.01996	0.093061	0.067735	0.065372	0.037543	0.16831	0.41773	0.19027	0.035157	0.095847	0.20108	0.13173	-2.4417	-2.6396	-2.475	-2.9104	-2.6771	-2.6396	-2.85	-2.4062	-2.6937	-2.7562	-2.8063	-3.0062	-2.7792	-2.5667	-2.9313	-2.7354	-18.569	70.780	-26.341	23.434	140.227	134.722	40.512	233.920	-97.623	252.242	222.167	209.725	65.938	227.753	73.832	166.278	0.00050449	4.281e-05	0.00031439	413.21	1.3219e-06	2.0429e-05	629.63	151.39	8.6995e-06	1.1094e-05	288.11	130.75	68.313	36.356	7.1288e-06	79.022	0.011175	0.01428	0.0038701	535.72	0.0001494	0.00015511	746.72	186.94	0.00015347	0.00015615	351.18	153.46	101.2	43.179	0.0001568	90.211	157.750	135.251	24.383	-89.066	169.546	38.422	-89.323	-84.625	-59.441	70.149	-85.484	-81.360	-81.597	-76.243	-50.615	-77.716	-8191	255	
21987.477	1	1	0	0	0.2015	0.19429	0.01934	0.19101	0.22533	0.13699	0.14988	0.23309	0.043618	0.26101	0.055675	0.15948	0.078583	0.31804	0.071821	0.39168	-2.55	-2.6854	-2.5021	-2.975	-2.6312	-2.6542	-3.1271	-2.7667	-2.9417	-2.8854	-2.7708	-2.975	-2.6854	-2.6292	-2.9417	-2.7146	-36.228	196.329	9.909	254.078	-91.342	95.117	209.489	142.066	-46.751	103.815	-59.755	-56.876	-84.074	166.093	-53.225	199.866	0.0005858	0.0011055	0.00022001	410.88	2.0259e-05	6.0526e-06	630.63	151.93	1.2226e-05	3.8532e-06	289.08	130.92	67.757	36.515	5.0767e-06	79.116	0.0106	0.014139	0.0038403	533.81	0.00014676	0.00015143	749.05	186.76	0.0001477	0.00015585	351.69	153.43	100.86	43.112	0.00015747	90.076	155.007	75.662	248.263	-89.077	-34.141	1.976	-89.220	-84.271	35.972	-18.343	-85.243	-81.251	-80.707	-76.354	226.501	-77.839	-8191	255	
21987.572	1	1	0	0	0.19127	0.081499	0.24045	0.046166	0.055203	0.1365	0.1326	0.017138	0.12597	0.031698	0.15557	0.12447	0.25827	0.12687	0.15719	0.19577	-2.2708	-2.9229	-2.5	-2.7854	-2.6479	-2.4583	-2.975	-2.7458	-2.7938	-2.9854	-2.625	-2.8812	-3.0083	-2.6229	-3.0563	-2.875	161.445	-56.373	197.411	198.601	83.361	190.952	114.628	-12.170	114.712	-16.397	95.580	160.977	25.286	-90.123	77.478	224.547	0.00049784	0.00069607	6.7878e-05	413.9	7.5518e-06	6.6445e-06	628.4	151.19	4.1127e-06	7.1462e-06	286.77	129.86	68.162	36.16	8.0787e-06	78.468	0.010245	0.01412	0.0038056	530.1	0.00014316	0.00014939	746.18	186.26	0.00014235	0.00015859	350.25	152.12	100.56	42.991	0.00015793	89.395	143.791	-52.999	-93.727	-89.122	87.722	201.115	-89.196	-84.752	78.011	-6.855	-85.335	-81.356	-81.344	-76.258	87.656	-77.968	-8191	255	
21987.670	1	1	0	0	0.36156	0.064971	0.10369	0.2539	0.10783	0.28712	0.15861	0.060896	0.018607	0.11651	0.13253	0.2467	0.36484	0.54256	0.082709	0.276	-2.4	-2.9604	-2.5646	-2.9354	-2.8729	-2.6667	-2.9354	-2.8542	-2.7521	-3.0792	-2.6979	-2.9708	-2.8667	-2.6542	-2.925	-3.1458	134.204	210.573	74.858	224.267	192.702	60.689	221.870	165.032	11.780	175.980	186.829	127.283	203.248	230.435	32.997	178.509	0.00056512	0.00055301	0.00042562	409.29	7.1843e-06	3.4436e-06	628.45	150.71	5.4911e-06	7.5457e-06	287.63	130.02	67.36	36.39	1.0042e-05	78.651	0.010089	0.014515	0.0038419	527.15	0.00014427	0.00015111	744.74	185.79	0.00013953	0.00016007	349.83	151.46	100.29	43.068	0.00015644	89.507	165.328	-27.927	27.580	-89.388	239.955	133.605	-89.151	-84.746	73.194	33.191	-85.193	-81.254	-81.117	-76.461	15.267	-77.744	-8191	255	
21987.742	1	1	0	0	0.19191	0.11913	0.076649	0.10952	0.18576	0.24412	0.24841	0.17487	0.16157	0.2292	0.067073	0.15728	0.17678	0.14688	0.13354	0.12964	-2.3042	-3.0062	-2.6208	-2.725	-2.8646	-2.725	-2.9083	-2.7958	-2.5083	-2.9188	-2.6437	-2.7458	-2.7396	-2.6167	-2.7938	-2.9708	-53.415	-100.069	-36.344	255.033	31.571	63.812	185.388	153.419	95.527	78.738	108.558	-38.733	137.662	-82.543	110.067	243.707	0.00049633	0.00073452	0.00020952	411.64	2.3681e-06	8.2508e-06	626.33	150.46	7.1634e-06	8.1387e-06	286.93	130.26	68.137	36.616	7.0055e-06	79.139	0.010041	0.014625	0.0038302	523.98	0.00014584	0.00015199	744.25	185.66	0.00014013	0.00016235	350.19	151.5	101.34	43.322	0.00015485	90.068	170.584	55.128	-61.424	-89.112	182.631	-56.674	-89.501	-84.959	213.407	-36.040	-85.146	-81.043	-81.004	-76.442	108.597	-77.750	-8191	255	
21987.861	1	1	0	0	0.2082	0.27301	0.21184	0.069031	0.17914	0.23248	0.13665	0.24644	0.12537	0.12625	0.10993	0.065546	0.12522	0.17402	0.13719	0.41195	-2.1083	-2.8271	-2.8646	-2.9333	-2.7687	-2.4771	-2.9938	-2.7542	-2.575	-2.7646	-2.6521	-2.6542	-2.95	-2.6417	-2.9437	-2.9021	202.173	-101.411	212.978	251.798	218.342	82.570	150.107	128.647	244.640	203.746	81.443	256.015	-57.619	187.125	228.104	220.832	0.0005137	0.00035673	0.0001936	408.86	4.2402e-06	5.5892e-06	629.06	151.2	6.7164e-06	9.5114e-06	288.64	130.52	68.459	36.949	9.4881e-06	79.587	0.010078	0.014719	0.0038444	522.4	0.00014942	0.00015231	742.75	185.89	0.00014045	0.00016232	350.54	151.73	101.92	43.647	0.00015059	90.548	144.315	171.717	-21.143	-89.362	237.098	74.027	-89.262	-84.493	44.235	106.683	-85.233	-81.250	-81.587	-76.475	26.738	-77.609	-8191	255	
21987.957	1	1	0	0	0.051234	0.29492	0.091283	0.12084	0.12033	0.15876	0.15548	0.2	0.2063	0.037576	0.063779	0.37074	0.26668	0.030501	0.44147	0.085572	-2.0667	-2.8979	-2.4396	-2.5042	-2.9875	-2.5854	-2.8937	-3.0021	-2.4542	-2.7979	-2.7708	-2.6	-3.0396	-2.7313	-2.7375	-3.1667	-95.477	-32.669	29.609	138.846	15.638	166.379	96.625	214.533	-19.059	37.179	102.137	197.650	71.466	225.560	117.905	217.061	0.00060764	0.00078546	0.00032548	409.64	9.5288e-06	5.3639e-06	627.07	150.11	2.8183e-06	1.4009e-05	288.41	130.41	67.324	36.663	1.2717e-05	79.176	0.010076	0.014529	0.0038004	520.92	0.00015098	0.00015135	739.24	185.79	0.00013934	0.00016083	349.14	151.37	101.58	43.563	0.0001457	90.202	146.411	-31.695	-34.049	-89.478	14.784	184.532	-89.743	-84.783	-45.166	5.578	-85.723	-81.332	-80.796	-76.438	80.693	-77.761	-8191	255	
21988.053	1	1	0	0	0.12609	0.19199	0.20645	0.15242	0.26855	0.16752	0.093278	0.2231	0.12451	0.16812	0.36475	0.18571	0.25444	0.21073	0.13756	0.036618	-2.1833	-2.9479	-2.6813	-2.6708	-2.8646	-2.6208	-2.8021	-2.8896	-2.5438	-2.8458	-2.7438	-2.75	-2.9375	-2.7562	-2.6771	-3.025	-35.176	146.353	1.454	232.244	158.341	219.032	36.935	236.452	82.242	-32.656	253.643	232.327	96.178	224.847	165.654	208.174	0.00050729	0.00022885	0.00019614	409.51	4.159e-06	2.4933e-06	630.25	150.96	1.2603e-05	1.7691e-05	287.52	130.26	68.018	36.747	1.1035e-05	79.206	0.010023	0.01433	0.0037646	520.78	0.00015196	0.00015154	740.2	186.49	0.00013979	0.00015854	349.85	151.21	102.17	43.577	0.00014435	90.373	161.900	111.303	-16.306	-88.947	11.152	182.519	-89.316	-84.992	-47.998	77.755	-85.326	-81.145	-81.185	-76.227	1.556	-77.970	-8191	255	
21988.174	1	1	0	0	0.29491	0.07492	0.12898	0.3236	0.25111	0.12695	0.057526	0.22687	0.18114	0.14246	0.15921	0.23829	0.14797	0.11786	0.17882	0.27841	-2.1604	-2.7833	-2.6833	-2.6375	-2.8604	-2.6937	-2.8063	-3.0229	-2.6667	-2.7646	-2.8958	-2.7625	-2.9042	-2.6667	-2.7208	-3.1083	201.549	55.532	109.045	51.914	169.269	104.352	228.759	171.870	137.678	243.984	190.603	-68.821	194.345	136.322	209.188	146.682	0.00060882	0.00042533	0.00024006	414.26	5.6549e-06	1.5986e-05	635.06	151.11	3.1456e-06	1.033e-05	288.46	130.15	67.64	36.815	8.1486e-06	79.014	0.010077	0.014137	0.0038421	525.5	0.00015354	0.0001512	743.81	187.89	0.00014169	0.00015685	351.3	151.6	101.94	43.597	0.00014393	90.703	151.480	-11.760	-23.692	-89.379	-26.832	25.325	-89.486	-84.862	17.032	50.768	-85.503	-81.319	-81.251	-76.166	109.516	-77.849	-8191	255	
21988.270	1	1	0	0	0.21431	0.24492	0.19178	0.20321	0.20155	0.19638	0.29891	0.084389	0.11248	0.15566	0.055561	0.16075	0.11717	0.029457	0.1358	0.097335	-2.1688	-2.6771	-2.7917	-2.5583	-2.925	-2.8583	-2.8021	-2.9271	-2.7167	-2.7021	-2.7896	-2.6063	-2.8125	-2.9458	-2.6542	-3.0396	163.334	112.043	75.921	-102.397	-22.168	59.033	159.547	201.816	-17.781	119.429	-68.733	178.497	212.564	255.364	152.316	204.250	0.0006814	0.0010826	0.00023307	415.17	9.607e-06	3.6513e-06	631.71	151.77	2.638e-06	1.79e-05	286.84	130.83	68.775	37.065	4.0574e-06	79.943	0.010225	0.013919	0.003944	526.56	0.00015318	0.00015173	744.73	188.66	0.00014329	0.00015617	352.95	152.03	102.33	44.011	0.0001458	91.406	137.341	-42.335	-21.142	-89.196	28.325	14.212	-89.367	-84.698	93.903	-14.147	-85.473	-81.150	-81.105	-76.266	174.446	-77.700	-8191	255	
21988.365	1	1	0	0	0.1569	0.10226	0.13923	0.11004	0.25807	0.14938	0.37281	0.10955	0.076567	0.11019	0.10759	0.18669	0.17367	0.2838	0.22003	0.061286	-2.1146	-2.8708	-2.8896	-2.5958	-2.7875	-2.6625	-2.7833	-2.9271	-2.6479	-2.7417	-2.9854	-2.7583	-2.9208	-3.0979	-2.6708	-3.1333	102.439	191.023	221.360	-99.192	67.749	-38.411	201.948	165.064	226.540	-40.843	-16.381	245.893	232.629	237.839	1.995	50.775	0.0005206	0.00079346	0.00012764	412.91	6.8473e-06	2.0266e-06	631.38	150.53	1.0258e-05	6.7115e-06	285.34	130.87	68.537	37.488	9.8463e-06	79.746	0.010175	0.013731	0.0040069	522.5	0.00014944	0.00015123	739.4	187.27	0.00014136	0.00015251	352.19	152.12	101.62	44.254	0.00014522	91.386	154.270	16.480	123.496	-89.171	16.907	68.006	-89.262	-84.539	25.973	-21.222	-85.345	-81.141	-81.137	-76.619	17.303	-77.667	-8191	255	
21988.463	1	1	0	0	0.46269	0.074247	0.092203	0.044998	0.31172	0.075561	0.27639	0.090258	0.16542	0.12083	0.20813	0.4784	0.17125	0.35206	0.24774	0.14758	-2.4292	-2.6083	-2.9	-2.6167	-2.9188	-2.7562	-2.6625	-2.8875	-2.7313	-2.6854	-2.9042	-2.8063	-2.7917	-3.0417	-2.6229	-3.1104	-46.973	189.622	223.730	186.783	174.784	245.087	252.199	161.721	146.110	-96.229	-18.655	186.787	160.245	182.285	155.307	209.229	0.00065093	0.00083393	0.00031337	410.26	1.2692e-05	1.7584e-05	631.94	150.23	6.9086e-06	7.1416e-06	287.25	130.46	68.185	37.359	5.3605e-06	79.816	0.010145	0.013683	0.004078	522.47	0.00014649	0.00015388	738.85	186.88	0.00013992	0.00015136	352.79	151.83	100.82	44.376	0.00014443	91.296	155.878	11.780	4.023	-89.097	17.126	63.353	-89.396	-84.698	7.710	-43.969	-85.470	-81.223	-81.495	-76.448	186.830	-77.835	-8191	255	
21988.559	1	1	0	0	0.25319	0.16433	0.051786	0.23631	0.14499	0.16356	0.10765	0.25931	0.12026	0.11661	0.29769	0.14397	0.40348	0.31004	0.29816	0.12344	-2.2062	-2.7375	-2.8521	-2.5271	-2.9396	-2.9604	-2.6583	-2.7875	-2.6958	-2.5729	-3.2792	-2.7979	-2.7438	-2.9562	-2.4979	-3.2417	195.076	187.320	44.536	81.128	1.325	175.644	119.344	193.057	-98.508	-14.883	212.781	77.000	215.027	222.842	165.041	-92.208	0.00053513	0.0011814	0.00019063	413.2	6.7223e-06	3.8779e-06	632.8	151.16	4.1029e-06	8.1525e-06	288.22	130.47	68.251	37.368	1.0361e-05	79.962	0.010164	0.013731	0.0041026	525.66	0.00014615	0.0001581	741.53	187.06	0.0001425	0.00015143	354.33	152.19	100.82	44.539	0.00014511	91.335	155.359	-18.243	13.638	-89.290	2.291	-60.119	-89.297	-84.481	30.520	51.349	-85.636	-81.200	-80.639	-76.522	-4.753	-77.748	-8191	255	
21988.652	1	1	0	0	0.20304	0.20053	0.11471	0.30099	0.18347	0.06666	0.31576	0.10011	0.10549	0.11597	0.15978	0.24889	0.11533	0.070129	0.057918	0.08857	-2.3146	-2.3458	-2.8792	-2.6646	-2.7458	-2.9729	-2.5708	-3.0667	-2.8146	-2.4792	-3.0917	-2.9021	-2.8521	-2.9062	-2.6958	-3.0458	186.861	84.107	98.941	233.398	39.215	160.938	13.336	103.404	161.893	26.815	112.078	253.572	-69.910	75.571	-102.424	-31.548	0.00073927	0.00058043	0.0003179	415.08	8.5144e-06	8.4331e-06	634.19	150.51	2.9865e-06	4.9209e-06	288.19	131.35	68.077	37.583	3.7651e-06	80.227	0.010271	0.013743	0.0041204	526.53	0.00014439	0.00016123	745.51	186.95	0.0001462	0.00015173	355.1	152.56	100.96	44.685	0.00014536	91.376	143.392	22.950	2.392	-89.589	-31.042	86.577	-89.382	-84.864	86.352	123.887	-85.272	-81.151	-81.410	-76.335	135.186	-77.675	-8191	255	
21988.773	1	1	0	0	0.2737	0.092798	0.33029	0.10193	0.17549	0.05874	0.17141	0.14379	0.2283	0.21522	0.22657	0.11312	0.10418	0.058203	0.21615	0.12631	-2.2875	-2.5521	-3.05	-2.7354	-2.7229	-2.8417	-2.6312	-2.8625	-2.8458	-2.5563	-2.9917	-2.9229	-2.6937	-3.0083	-2.6583	-2.8	-45.810	221.528	-101.161	253.212	244.794	86.973	207.846	36.759	74.218	27.715	119.021	149.078	112.269	179.850	90.716	148.570	0.0005087	0.00032701	0.00023425	415.39	1.2788e-05	4.9439e-06	637.66	151.2	9.3923e-06	7.3475e-06	289.96	130.33	68.178	37.386	3.6009e-06	79.618	0.010448	0.01375	0.0041031	528.33	0.00014411	0.00016309	747.89	186.93	0.00014955	0.00015192	355.11	152.06	101.24	44.633	0.00014624	90.771	158.242	38.702	94.009	-89.182	10.350	-18.030	-89.286	-84.889	46.212	147.435	-85.468	-81.190	-81.126	-76.363	-36.010	-77.591	-8191	255	
21988.869	1	1	0	0	0.14626	0.29383	0.05712	0.099853	0.1871	0.072973	0.14582	0.19305	0.12311	0.17358	0.19362	0.26267	0.24607	0.18446	0.2199	0.25075	-2.3271	-2.5312	-2.8625	-2.7292	-2.6292	-2.9437	-2.8396	-2.7812	-2.9125	-2.6875	-2.9917	-2.9146	-2.4729	-2.9125	-2.6688	-2.9833	6.856	-84.746	181.068	250.679	237.321	140.963	170.008	181.908	-38.004	-27.751	225.775	243.860	47.979	256.768	152.616	125.507	0.00050978	0.0010094	0.00063428	417.57	7.068e-06	5.7753e-06	637.25	150.84	2.322e-06	1.0535e-05	288.79	130.73	69.259	37.526	4.7838e-06	79.468	0.010684	0.013755	0.0040405	530.76	0.00014468	0.00016441	745.64	186.44	0.00015243	0.00015197	354.08	152.6	101.53	44.701	0.00014695	91.008	139.420	-34.873	-51.634	-89.061	68.264	64.897	-89.517	-84.710	-77.742	72.101	-85.581	-81.503	-81.070	-76.463	148.111	-77.626	-8191	255	
21988.967	1	1	0	0	0.13854	0.15458	0.076073	0.14393	0.20118	0.10883	0.17445	0.20664	0.22204	0.32898	0.15564	0.083304	0.37766	0.28776	0.22164	0.13147	-2.4458	-2.6188	-2.8375	-2.6958	-2.4938	-3.0958	-2.775	-2.6104	-2.9437	-2.5687	-2.8438	-2.8771	-2.6583	-2.9125	-2.65	-2.6958	108.781	-19.363	87.648	180.383	217.909	-99.611	124.630	191.003	26.945	-27.543	150.547	-17.372	91.394	-81.448	250.647	159.243	0.0007647	0.0011125	0.00025003	420.07	5.1582e-06	6.3367e-06	638.72	151.94	3.178e-06	1.1404e-05	287.36	131.05	68.191	37.463	8.2263e-06	80.079	0.011058	0.014112	0.004075	536.96	0.00014809	0.00016847	749.06	187.73	0.00015728	0.00015579	354.4	153.41	101.93	44.781	0.00014881	91.178	160.320	-59.427	-9.109	-89.020	5.190	57.211	-89.351	-84.836	132.170	55.256	-85.375	-81.189	-81.024	-76.543	64.897	-77.895	-8191	255	
21989.037	1	1	0	0	0.15523	0.30423	0.0078754	0.097787	0.093099	0.040598	0.098591	0.32362	0.20734	0.026619	0.21096	0.20073	0.059121	0.072951	0.29066	0.28676	-2.475	-2.5604	-2.6271	-2.6771	-2.3729	-2.9146	-2.6833	-2.4625	-2.9313	-2.6542	-2.9417	-2.9125	-2.4292	-2.7812	-2.5875	-2.7771	112.499	33.282	155.660	204.599	120.216	122.414	-34.180	224.209	209.470	-43.236	121.249	-81.524	174.612	-13.155	118.996	192.149	0.00056473	0.00035153	0.00019987	417.03	6.7304e-06	4.2113e-06	634.35	150.23	1.2128e-05	1.0446e-05	289.29	131.45	68.612	37.654	7.4775e-06	80.545	0.011084	0.013836	0.0039959	535.51	0.00014524	0.00016431	747.87	186.71	0.00015565	0.00015273	354.15	154.15	101.7	44.823	0.00015015	91.619	165.869	-78.241	85.681	-89.127	-86.340	46.102	-89.580	-84.548	20.354	113.273	-85.153	-81.425	-81.323	-76.414	-8.207	-77.839	-8191	255	
21989.158	1	1	0	0	0.074344	0.11243	0.21732	0.17313	0.097067	0.17477	0.16553	0.19189	0.081278	0.18297	0.16959	0.15429	0.22091	0.042571	0.22124	0.26417	-2.4833	-2.6292	-2.8646	-2.8583	-2.4646	-2.8604	-2.8042	-2.7333	-3.1271	-2.6875	-2.8104	-3.0417	-2.525	-2.9	-2.6562	-2.7979	-26.511	119.712	109.673	-11.861	103.023	-76.642	100.744	177.819	142.972	183.603	185.480	106.818	-83.204	71.475	146.034	238.261	0.00062195	0.0012984	0.00017737	417.31	8.3339e-06	1.3119e-05	637.13	151.11	1.3075e-05	3.8659e-06	290.83	131.14	68.438	37.679	6.0506e-06	80.047	0.011137	0.013684	0.0039694	537.27	0.00014429	0.00016133	748.08	186.64	0.00015347	0.00015211	353.82	153.76	101.31	44.743	0.00015378	91.133	131.977	248.098	-17.882	-89.171	-29.948	43.737	-89.320	-84.628	23.659	110.706	-85.418	-81.182	-80.609	-76.282	14.677	-77.912	-8191	255	
21989.256	1	1	0	0	0.057796	0.12888	0.16408	0.20504	0.29816	0.13689	0.3379	0.18123	0.20485	0.12477	0.16068	0.15591	0.21624	0.058301	0.062241	0.1952	-2.4625	-2.6917	-2.675	-2.9313	-2.5062	-2.9167	-2.7771	-2.6083	-3.0104	-2.8104	-2.8875	-3.0396	-2.6417	-2.7188	-2.8708	-2.95	39.339	241.882	-24.060	-50.537	-32.456	-91.247	220.582	164.787	-20.776	67.670	208.391	243.138	-20.408	127.672	246.864	235.148	0.0006412	0.00027303	0.00026251	418.61	9.6171e-06	1.5222e-05	637.25	151.07	9.2347e-06	1.1185e-05	288.06	131.05	68.956	37.376	8.0426e-06	80.036	0.01119	0.013953	0.0040202	540.27	0.00014559	0.00016245	754.8	186.61	0.00015429	0.00015609	353.17	154.38	101.52	44.62	0.00015686	91.012	141.964	-15.925	235.840	-89.815	-58.337	13.248	-89.412	-84.772	8.471	9.816	-85.295	-81.253	-81.473	-76.508	-98.617	-77.825	-8191	255	
21989.352	1	1	0	0	0.19397	0.12939	0.251	0.080908	0.065249	0.14783	0.22823	0.33193	0.13733	0.12117	0.21898	0.2339	0.069574	0.018222	0.10352	0.28046	-2.6354	-2.3583	-2.7354	-2.8917	-2.5479	-2.7708	-2.925	-2.4688	-2.7792	-2.8125	-2.7479	-2.8438	-2.6792	-2.7833	-2.8042	-2.7562	180.613	133.681	37.844	183.566	110.321	57.686	98.106	172.368	-23.338	61.747	-48.600	174.082	11.314	-9.759	227.763	244.102	0.00036844	0.00098719	5.9604e-05	418.62	2.4837e-06	1.1215e-05	634.52	151.3	2.9109e-06	9.2459e-06	287.6	131.2	69.152	37.524	5.2409e-06	80.17	0.011033	0.014104	0.0039945	541.22	0.00014444	0.00016075	755.54	187.01	0.00015317	0.00015866	352.79	154.42	101.44	44.632	0.00015783	91.174	143.465	48.343	-16.853	-89.204	128.547	32.826	-89.113	-84.377	72.395	116.605	-85.527	-81.220	-81.051	-76.526	-13.630	-77.775	-8191	255	
21989.447	1	1	0	0	0.080095	0.11232	0.32605	0.2602	0.28339	0.23332	0.19659	0.20566	0.26875	0.39974	0.28791	0.25065	0.25389	0.26101	0.041297	0.33276	-2.4104	-2.4833	-2.3812	-2.9208	-2.7667	-2.7792	-2.9417	-2.6792	-2.8104	-2.7812	-2.6312	-3.0375	-2.6708	-2.7958	-2.8167	-2.8458	196.963	-15.242	-88.248	90.916	-47.573	170.158	238.671	192.449	153.389	-99.807	97.435	82.288	178.523	-58.696	124.747	173.568	0.00072752	0.0003797	0.00022466	415.31	4.9942e-06	2.0308e-05	636.61	151.1	1.3784e-05	9.8905e-06	289.31	132.42	68.777	37.902	2.0126e-06	80.76	0.010901	0.01429	0.0039784	537.5	0.00014562	0.00015915	752.8	185.84	0.00015058	0.00016085	353.29	155.01	101.48	44.962	0.0001589	91.851	149.835	100.623	-28.943	-89.274	-77.162	33.375	-89.404	-84.435	-17.281	52.481	-85.314	-81.190	-80.913	-76.462	113.869	-77.731	-8191	255	
21989.566	1	1	0	0	0.058744	0.12317	0.23486	0.043565	0.33806	0.15648	0.16156	0.19303	0.21384	0.1925	0.074826	0.093738	0.12517	0.26678	0.083775	0.4512	-2.4042	-2.7646	-2.4292	-2.9167	-2.5625	-2.7625	-2.8937	-2.5625	-2.7958	-2.8625	-2.5958	-2.9688	-2.7083	-2.7438	-2.9167	-2.6708	59.724	243.618	-48.041	-53.819	-10.517	-28.358	219.026	148.660	-65.535	-58.031	227.618	238.254	229.853	-87.692	9.326	176.240	0.00057702	0.0009577	0.00019236	415.84	8.1047e-06	6.978e-06	633.79	151.95	7.0821e-06	1.4214e-05	290.07	132.25	68.699	37.911	8.879e-06	80.655	0.010844	0.014654	0.0039623	536.27	0.00014798	0.00015958	754.32	186.59	0.00015238	0.00016434	353.05	154.92	102.64	45.088	0.00016041	91.84	153.829	65.549	-19.704	-89.163	61.958	-7.619	-89.446	-84.680	2.904	-7.023	-85.482	-81.115	-80.603	-76.540	76.608	-77.960	-8191	255	
21989.639	1	1	0	0	0.11326	0.25169	0.091121	0.16893	0.06694	0.011311	0.14433	0.13931	0.13037	0.23671	0.33365	0.29649	0.064649	0.17462	0.15422	0.10797	-2.275	-2.7479	-2.5125	-2.8875	-2.9479	-2.6375	-2.9313	-2.6375	-2.7125	-2.8396	-2.6771	-2.8333	-2.7	-2.7792	-2.9667	-2.7417	226.348	147.985	113.126	-53.945	48.288	12.516	101.962	-26.336	50.695	63.168	173.467	-57.779	4.586	-13.334	238.888	220.040	0.00065764	0.00084932	0.00028204	414.19	5.6754e-06	8.7319e-06	633.34	150.55	2.6146e-06	1.4679e-05	288.58	132.15	68.555	38.058	1.1697e-05	80.39	0.010868	0.014835	0.0039099	534.27	0.00015086	0.00015779	750.7	185.77	0.0001513	0.00016572	350.78	154.48	103.02	45.102	0.00015867	91.701	149.679	-52.819	-40.583	-89.309	112.319	58.719	-89.388	-84.662	159.643	55.776	-85.217	-81.215	-80.982	-76.478	11.144	-77.702	-8191	255	
21989.734	1	1	0	0	0.012321	0.081593	0.065765	0.29714	0.21381	0.27309	0.19143	0.049231	0.19347	0.1735	0.25703	0.10173	0.092686	0.27497	0.15741	0.1923	-2.3812	-2.9042	-2.4854	-2.8542	-2.8	-2.5896	-2.9854	-2.6625	-2.7313	-3.0062	-2.5875	-2.6562	-2.6	-2.6333	-2.9104	-2.8021	172.761	11.956	39.034	-89.928	-21.676	87.058	216.237	31.586	208.502	29.775	237.689	14.307	27.725	-100.852	27.983	165.413	0.00062786	0.00033013	0.0002506	415.6	9.4156e-06	5.6261e-06	632.72	150.45	4.9386e-06	7.0987e-06	287.9	132.59	69.406	38.134	1.9098e-06	80.647	0.010802	0.014908	0.0038461	534.46	0.00015268	0.00015617	749.79	185.72	0.00014882	0.00016368	351.43	154.84	103.17	45.059	0.00015395	92.037	161.663	-44.672	-18.706	-89.522	1.372	69.600	-89.158	-84.491	50.427	42.108	-85.530	-81.276	-81.315	-76.455	-87.356	-77.624	-8191	255	
21989.854	1	1	0	0	0.13307	0.19426	0.17672	0.086623	0.13875	0.15093	0.19415	0.18722	0.11577	0.093905	0.13137	0.18501	0.11754	0.13067	0.14435	0.018209	-2.1312	-2.8583	-2.6042	-2.6875	-2.7354	-2.5125	-2.8312	-2.7375	-2.6542	-2.8688	-2.7396	-2.8646	-2.9938	-2.5854	-2.7417	-2.7938	-44.480	149.554	-30.841	-17.733	-19.980	42.327	150.882	242.755	-90.640	114.408	-28.035	200.570	-8.520	-89.196	199.486	37.604	0.00056591	0.00091497	0.00027253	413.3	1.058e-05	1.2738e-05	632.41	150.96	1.5177e-05	1.247e-05	291.21	134.04	70.04	38.386	1.5616e-05	81.576	0.010423	0.01463	0.0037379	530.55	0.00015012	0.00015029	747.26	186.1	0.00014565	0.00016121	353.18	155.97	103.88	45.154	0.00015407	92.602	126.761	-53.378	-26.460	-89.074	36.981	163.505	-89.152	-84.533	-33.910	30.048	-85.414	-81.132	-80.539	-76.529	51.637	-77.723	-8191	255	
21989.949	1	1	0	0	0.12249	0.13983	0.036895	0.15833	0.18328	0.23585	0.061864	0.16944	0.22055	0.1594	0.23865	0.17999	0.15598	0.24977	0.072549	0.22443	-2.2167	-2.7333	-2.6417	-2.6083	-2.8125	-2.5208	-2.8646	-2.7562	-2.5625	-2.8208	-2.6667	-3.0208	-3.0458	-2.6562	-2.95	-2.7687	152.004	74.442	-1.518	55.605	176.644	159.512	187.683	-63.886	244.550	-56.127	241.227	-86.046	-16.691	210.620	248.813	193.868	0.00036454	0.00018591	0.00016811	414.49	5.5356e-06	8.3724e-06	633.77	151.51	2.7873e-06	1.4175e-05	291.83	133.9	69.894	38.356	6.9741e-06	81.335	0.010391	0.014759	0.0038139	532.72	0.00015393	0.00015156	750.9	187.65	0.00014677	0.0001629	355.01	156.57	104.88	45.387	0.00015608	93.034	163.710	244.700	21.149	-89.010	8.188	22.998	-89.113	-84.685	169.841	109.068	-85.423	-81.399	-81.410	-76.471	35.237	-77.900	-8191	255	
21990.047	1	1	0	0	0.20695	0.18185	0.156	0.2171	0.14187	0.15526	0.12247	0.12087	0.095653	0.30509	0.060474	0.14603	0.20194	0.14732	0.18896	0.20887	-2.1979	-2.8083	-2.7208	-2.7313	-2.7167	-2.5875	-2.9854	-2.9229	-2.5687	-3.0292	-2.6667	-2.6104	-2.8812	-2.6167	-2.8375	-2.7812	188.605	-63.337	9.682	-50.266	120.282	-73.157	195.645	-36.237	94.876	-94.246	188.028	172.753	192.455	-79.451	-89.471	157.128	0.00067989	0.00018662	9.5454e-05	414.59	3.5089e-06	8.036e-06	634.03	150.8	3.7131e-06	3.1474e-06	288.95	133.63	69.369	38.449	2.4931e-06	80.965	0.010534	0.014838	0.0039506	534.24	0.00015756	0.00015365	750.57	187.81	0.00014681	0.00016477	354.99	155.68	105.12	45.305	0.00015856	92.595	153.588	-12.225	-56.538	-88.822	59.263	65.599	-89.330	-84.493	37.462	13.133	-85.167	-81.375	-80.954	-76.417	-86.516	-77.693	-8191	255	
21990.143	1	1	0	0	0.18174	0.17269	0.25083	0.075564	0.19331	0.070643	0.29862	0.21347	0.11536	0.2486	0.032322	0.28008	0.072775	0.15925	0.21822	0.22047	-2.2062	-2.9146	-2.7146	-2.4771	-2.9229	-2.5833	-2.8187	-2.8958	-2.6646	-3.0708	-2.7875	-2.6417	-2.9458	-2.6125	-2.8292	-2.9833	73.155	24.831	-37.458	178.188	78.713	53.563	194.988	196.744	91.367	72.871	248.502	183.556	61.958	252.995	41.808	123.801	0.00046307	0.00063896	0.00018984	417.37	1.4106e-05	7.2992e-06	635.41	150.33	4.5673e-06	1.0509e-05	288.62	132.35	69.407	37.971	1.0556e-05	80.698	0.010516	0.015019	0.004095	535.7	0.00015916	0.00015789	755.48	189.11	0.00014991	0.0001699	356.98	155.38	106.21	45.258	0.00016425	92.564	145.257	-44.233	224.577	-89.023	-1.869	84.210	-88.969	-84.585	75.963	122.860	-85.333	-80.902	-81.178	-76.466	-36.382	-77.818	-8191	255	
21990.264	1	1	0	0	0.33376	0.12538	0.081214	0.21696	0.1627	0.071799	0.070528	0.16059	0.093576	0.13047	0.28621	0.1798	0.17119	0.15578	0.27736	0.21601	-1.9354	-2.9875	-2.7958	-2.5333	-2.8979	-2.7667	-2.7833	-2.8646	-2.5354	-2.9062	-2.8083	-2.7208	-2.8375	-2.8146	-2.7562	-3.0292	85.204	169.232	-47.179	160.228	-95.113	-88.012	134.139	186.214	-92.934	-17.934	119.415	254.363	-0.325	34.454	4.870	-82.754	0.00042622	0.00082519	0.00020711	417.35	8.3589e-06	3.1209e-06	641.54	151.39	4.6765e-06	1.9034e-05	289.77	133.1	68.995	38.087	1.2342e-05	80.799	0.010722	0.015502	0.0042563	540.41	0.00016223	0.00016472	760.03	190.5	0.0001502	0.00017327	359.25	155.92	105.85	45.287	0.00016201	92.726	126.495	-72.308	7.325	-89.338	-34.395	-99.543	-89.250	-84.294	-22.472	57.953	-85.185	-81.181	-81.413	-76.477	57.341	-77.778	-8191	255	
21990.336	1	1	0	0	0.21104	0.060616	0.20675	0.097417	0.0083468	0.26341	0.12327	0.091694	0.26108	0.22164	0.23512	0.32166	0.03646	0.16028	0.22977	0.06504	-2	-2.8417	-2.8375	-2.6604	-2.9062	-2.6854	-2.8688	-2.9667	-2.4542	-2.8271	-2.9688	-2.6396	-2.9396	-2.8854	-2.6813	-3.2333	-91.482	197.176	92.980	163.077	12.664	-71.570	20.601	-93.521	155.708	-99.843	50.817	150.105	-59.347	215.107	26.597	159.567	0.00056622	0.0010406	0.00022708	418.84	4.6748e-06	1.3621e-05	642.23	151.22	8.1173e-06	1.7324e-05	289.06	133.71	69.822	38.179	6.728e-06	80.642	0.010743	0.015577	0.0043195	537.92	0.00016145	0.00016779	758.23	190.23	0.00015102	0.00017441	360.95	156.14	106.86	45.598	0.0001643	92.896	162.641	5.422	-23.511	-88.983	153.337	178.473	-89.476	-84.641	6.923	0.487	-85.294	-81.198	-80.514	-76.321	199.564	-77.877	-8191	255	
21990.455	1	1	0	0	0.25437	0.19738	0.21964	0.13259	0.10576	0.21648	0.17299	0.028599	0.36921	0.077358	0.25851	0.21228	0.17317	0.21	0.26702	0.13765	-2.0812	-2.85	-2.8354	-2.5187	-2.8312	-2.8187	-2.7875	-2.95	-2.8854	-2.65	-3.0917	-2.6292	-3.0667	-2.9229	-2.55	-3.175	221.828	140.179	-96.351	211.883	224.060	178.008	251.409	193.095	240.204	204.627	152.732	235.627	-15.540	49.327	-41.160	219.850	0.00056904	0.00038751	0.00021115	420.5	1.3521e-05	6.6333e-06	636.37	151.31	1.022e-06	1.3891e-05	289.97	133.15	68.802	38.159	5.3654e-06	80.227	0.011118	0.015866	0.004455	539.53	0.00016495	0.00017333	754.55	190.22	0.00015358	0.00017249	359.19	155.23	105.96	45.55	0.00015943	92.267	129.913	22.998	60.136	-89.131	7.319	27.137	-89.378	-84.689	-68.528	44.102	-84.964	-81.371	-80.365	-76.369	-2.032	-77.845	-8191	255	
21990.551	1	1	0	0	0.1854	0.13625	0.12408	0.41975	0.087881	0.095305	0.26923	0.28538	0.12187	0.040523	0.21449	0.22657	0.34878	0.14851	0.16976	0.35652	-2.0417	-2.7479	-2.8583	-2.6917	-2.8958	-2.9583	-2.7271	-3.0083	-2.5833	-2.7792	-3.0333	-2.5375	-2.8479	-2.8333	-2.6208	-2.9875	177.284	-15.432	-74.393	-93.079	39.946	160.347	180.852	200.047	125.039	93.745	171.342	219.604	-91.471	-6.955	40.948	196.012	0.00076056	0.0011657	0.00032626	415.82	1.3112e-06	5.3687e-06	635.74	151.02	8.8372e-06	1.241e-05	289.42	133.32	69.712	38.086	9.2304e-06	80.466	0.011058	0.015334	0.0043705	533.3	0.0001624	0.00017036	749.63	189.29	0.00015352	0.00016703	358.84	155.51	105.91	45.574	0.00015422	92.27	139.504	-7.780	30.177	-89.312	230.110	-79.972	-89.262	-84.543	141.028	67.273	-85.213	-81.622	-81.195	-76.460	61.455	-77.708	-8191	255	
21990.646	1	1	0	0	0.36901	0.11015	0.22793	0.15702	0.10271	0.16048	0.21091	0.13712	0.39998	0.076083	0.060585	0.16411	0.31466	0.30191	0.17959	0.33179	-2.2417	-2.6792	-2.9417	-2.4437	-2.7979	-2.8292	-2.6813	-3.0771	-2.8958	-2.7104	-2.9521	-2.6896	-2.9771	-2.8271	-2.7	-3.0417	158.590	-60.637	248.442	242.529	216.122	222.654	229.206	250.465	129.307	89.965	-96.693	-7.154	116.294	186.690	-95.409	212.225	0.00040491	0.0016511	0.00018273	419.54	1.8115e-06	7.5319e-06	635.58	152.1	6.6301e-06	9.8175e-06	290.17	133.86	70.457	38.3	2.2618e-06	81.24	0.011097	0.014907	0.0042854	533.8	0.00016113	0.00016953	749.15	189.94	0.00015536	0.00016337	358.97	156.29	105.57	45.64	0.00014777	92.928	167.764	9.084	-97.192	-89.187	170.658	-75.295	-89.262	-84.780	99.569	103.956	-85.247	-81.138	-81.172	-76.534	169.445	-77.854	-8191	255	
21990.742	1	1	0	0	0.30166	0.30578	0.33247	0.13379	0.23645	0.14713	0.19399	0.14461	0.24489	0.18171	0.20372	0.25196	0.20307	0.074945	0.072468	0.076252	-2.4417	-2.5625	-2.9917	-2.7208	-2.6604	-2.8937	-2.6875	-2.9771	-2.6354	-2.5438	-2.7729	-2.7479	-2.7875	-3.0208	-2.6958	-2.9521	233.670	37.399	-49.836	84.999	85.550	247.396	58.357	106.874	72.676	239.407	-58.371	-9.984	-80.028	-45.319	-79.265	-26.118	0.00069471	0.001933	0.00029199	414.29	5.3009e-06	1.4537e-05	630.85	151.25	4.505e-06	8.234e-06	292.21	135.22	70.268	38.357	9.3366e-06	81.182	0.01104	0.01435	0.0041917	529.5	0.00015593	0.00016645	743.49	188.9	0.0001528	0.00015731	358.9	157.02	105.01	45.722	0.00014656	93.023	153.189	-1.205	40.696	-89.427	-16.611	4.615	-89.259	-84.850	-9.009	162.992	-85.039	-81.129	-80.557	-76.485	39.012	-77.856	-8191	255	
21990.838	1	1	0	0	0.15949	0.09372	0.20468	0.084512	0.14354	0.10099	0.081715	0.32146	0.21489	0.092319	0.17388	0.19833	0.14601	0.054192	0.24012	0.15213	-2.225	-2.6917	-2.7833	-2.5771	-2.5938	-3.0396	-2.6042	-2.7958	-2.7188	-2.7417	-2.9604	-2.7896	-2.6292	-3.0958	-2.5833	-2.8937	256.861	155.537	37.356	194.690	161.311	-5.694	192.003	202.100	-83.427	241.485	121.808	-86.293	130.392	-15.593	203.163	248.617	0.00046831	0.0010453	0.00026139	412.05	1.1188e-05	1.1495e-05	629.6	150.61	1.0981e-05	1.3393e-05	288.96	133.5	69.653	38.2	3.6538e-06	80.541	0.010935	0.013982	0.0041504	528.66	0.00015234	0.00016304	738.64	188.02	0.00015166	0.00015207	355.55	155.32	103.29	45.322	0.00014529	92.036	161.406	3.092	22.862	-89.101	36.501	32.967	-89.273	-84.472	-17.177	-18.126	-85.254	-81.187	-81.500	-76.514	-91.234	-77.953	-8191	255	
21990.936	1	1	0	0	0.14972	0.13735	0.29195	0.086003	0.15596	0.22408	0.38757	0.086284	0.26999	0.16543	0.1137	0.30196	0.21208	0.35214	0.16591	0.10143	-2.4583	-2.4813	-2.9771	-2.7646	-2.7021	-3.0146	-2.6125	-2.9396	-2.75	-2.5729	-2.8708	-2.7687	-2.4896	-2.8958	-2.5458	-2.9771	26.053	50.869	169.513	145.948	17.315	-5.495	166.927	60.151	190.332	164.741	218.508	-88.403	-92.557	196.881	186.579	231.128	0.00074147	0.00049433	0.00021717	408.9	9.4603e-06	9.0471e-06	628.66	150.57	7.0598e-06	1.0993e-05	288.52	131.9	69.152	37.896	1.1039e-05	80.235	0.010818	0.013582	0.0040956	528.02	0.00014749	0.00015949	737.4	186.8	0.00014971	0.00014773	353.92	154.09	101.74	44.922	0.00014539	91.207	160.273	-91.312	-19.196	-89.135	32.509	84.788	-89.473	-84.651	61.217	132.155	-85.193	-81.331	-80.893	-76.299	62.332	-77.967	-8191	255	
21991.031	1	1	0	0	0.26703	0.23098	0.2321	0.21838	0.321	0.057706	0.23656	0.20902	0.051195	0.080795	0.196	0.05628	0.039504	0.35703	0.17142	0.18758	-2.3583	-2.325	-2.9021	-2.8167	-2.6396	-2.9813	-2.6979	-2.8083	-2.8063	-2.5521	-2.9062	-2.7167	-2.5021	-2.9125	-2.6646	-2.8396	184.651	160.510	-34.716	-76.618	-67.554	251.029	-79.597	209.976	-60.930	43.985	-71.565	154.738	215.194	254.325	157.781	233.676	0.00058735	0.0010609	0.00031367	410.02	7.567e-06	1.2648e-05	622.77	149.74	1.042e-06	6.193e-06	288.23	131.32	68.884	37.845	8.6269e-06	80	0.010565	0.01324	0.0040121	524.37	0.0001404	0.0001559	733.57	184.45	0.00014439	0.00014417	351.33	153.14	99.981	44.822	0.00014391	91.064	144.160	-19.728	3.199	-89.460	33.709	29.910	-89.225	-84.470	90.247	142.015	-85.145	-81.512	-80.638	-76.357	-82.837	-77.810	-8191	255	
21991.127	1	1	0	0	0.15354	0.20852	0.15911	0.12895	0.20576	0.16949	0.18323	0.068239	0.2123	0.066839	0.37062	0.062961	0.035446	0.13497	0.10802	0.23133	-2.3896	-2.4813	-2.7375	-2.9333	-2.6021	-2.8729	-2.8729	-2.7062	-2.8688	-2.7042	-2.8104	-2.9042	-2.5646	-2.8625	-2.7229	-2.8438	81.666	89.453	41.133	124.621	3.358	243.868	249.446	186.220	195.212	-73.091	242.997	3.002	170.700	52.113	90.004	219.752	0.00050165	0.00091147	0.00039103	405.07	1.2618e-05	1.2815e-05	616.09	148.39	6.0392e-06	1.0238e-05	285.06	130.83	68.168	37.843	1.3123e-05	80.251	0.01033	0.012964	0.0039246	516.84	0.00013494	0.0001549	723.51	182.39	0.00014357	0.00014443	349.19	152.37	99.067	44.923	0.00014435	90.965	137.762	-3.346	-16.575	-89.022	16.156	-34.905	-89.294	-84.667	78.639	-15.567	-85.098	-81.427	-81.232	-76.533	54.391	-77.569	-8191	255	
21991.223	1	1	0	0	0.15957	0.10953	0.26791	0.11442	0.19969	0.13814	0.31892	0.28714	0.17735	0.11526	0.04753	0.14031	0.13693	0.11302	0.30634	0.20695	-2.5479	-2.6354	-2.7271	-2.8104	-2.4708	-2.8187	-2.7333	-2.7292	-2.9667	-2.6521	-2.6958	-2.8271	-2.5792	-2.8917	-2.85	-2.9542	-89.722	242.623	29.368	99.848	251.732	98.383	163.336	246.709	-68.655	254.070	217.615	166.857	-91.688	56.554	95.547	106.792	0.00057612	0.00042931	9.0546e-05	398.82	1.1261e-05	6.7814e-06	609.27	147.22	1.8527e-06	5.8992e-06	278.72	129.41	68.397	37.726	9.9604e-06	79.629	0.01024	0.013245	0.0038718	510.26	0.00013345	0.00015576	718.71	179.96	0.00014403	0.00014635	344.01	150.49	98.5	44.676	0.00014393	90.014	158.292	-29.304	-3.742	-89.201	18.628	183.352	-89.665	-84.492	13.564	128.794	-85.713	-81.441	-81.252	-76.484	-80.479	-77.628	-8191	255	
21991.344	1	1	0	0	0.043511	0.11613	0.12173	0.30405	0.13302	0.076248	0.30768	0.075561	0.14858	0.081673	0.40939	0.2157	0.19575	0.17615	0.37071	0.086566	-2.5542	-2.6083	-2.7292	-3.0271	-2.5917	-2.8167	-2.8417	-2.5125	-3.0771	-2.6271	-2.8042	-3.1625	-2.4771	-3.0271	-2.8187	-2.6625	229.336	41.187	-20.863	208.716	-5.168	20.797	-90.686	255.779	-15.603	105.143	-57.899	-10.790	103.280	193.656	131.992	128.502	0.00063633	0.00075919	0.00021304	395.66	9.361e-06	2.8404e-06	603.42	146.14	7.6723e-06	1.6573e-05	279.46	127.45	67.569	37.484	5.9267e-06	79.071	0.010154	0.013181	0.0037697	505.78	0.00013252	0.00015326	711.95	178.08	0.00014212	0.00014656	339.97	148.55	97.544	44.203	0.00014307	89.366	162.231	-10.572	-76.798	-88.973	69.565	153.454	-89.158	-84.632	100.933	81.272	-85.183	-81.544	-81.265	-76.231	3.938	-77.650	-8191	255	
21991.439	1	1	0	0	0.15499	0.2536	0.15256	0.043197	0.12883	0.069947	0.1371	0.18148	0.073529	0.15166	0.11632	0.19862	0.15223	0.2081	0.10648	0.14726	-2.6813	-2.5938	-2.7458	-2.975	-2.6146	-2.8604	-2.8229	-2.5479	-2.9417	-2.75	-2.6271	-3.1021	-2.7083	-2.7271	-2.8521	-2.8604	242.339	165.965	-67.937	21.958	-37.175	199.275	67.688	229.441	145.719	-49.198	121.896	180.162	35.234	218.398	246.386	171.428	0.00068902	0.0017802	0.00025872	392.63	9.7088e-06	8.3811e-06	596.7	144.34	1.0756e-05	8.0149e-06	276.33	127.09	66.742	37.058	1.119e-05	78.214	0.010162	0.013226	0.0036501	501.02	0.00013258	0.00015003	703.42	175.72	0.00014021	0.0001432	334.69	147.6	96.664	43.63	0.00013715	88.322	157.880	-46.495	-83.327	-88.990	92.277	85.136	-89.615	-84.756	40.470	88.955	-85.392	-81.130	-81.159	-76.372	169.635	-77.782	-8191	255	
21991.535	1	1	0	0	0.2307	0.23968	0.12742	0.19615	0.064258	0.11666	0.066405	0.04541	0.11888	0.056271	0.1257	0.079846	0.10308	0.029538	0.36446	0.18089	-2.4979	-2.5917	-2.7021	-2.9021	-2.6271	-2.65	-3.1	-2.6146	-3.0646	-2.7229	-2.7521	-2.9771	-2.4646	-2.6542	-2.9188	-2.6604	227.777	-52.599	52.393	98.025	63.557	-39.861	193.409	147.802	-55.185	-98.639	255.230	-62.168	-92.964	231.415	172.250	83.621	0.00062283	0.0013002	0.00048482	393.3	4.0504e-06	1.3888e-06	595.5	143.17	9.1698e-06	7.6549e-06	275.06	127.1	66.075	36.854	1.4433e-05	78.367	0.0099157	0.012834	0.0034546	497.84	0.0001314	0.00014376	698.32	174.02	0.00013692	0.00013949	330.73	146.97	95.502	43.222	0.00013138	88.366	135.377	-99.611	9.917	-89.503	-0.024	-1.207	-89.281	-84.606	-1.574	186.183	-85.218	-81.102	-81.052	-76.495	-48.042	-77.945	-8191	255	
21991.633	1	1	0	0	0.30196	0.1481	0.036684	0.15822	0.19275	0.21808	0.19238	0.10976	0.16803	0.27069	0.12308	0.11871	0.2625	0.12444	0.37353	0.28369	-2.4062	-2.8125	-2.4938	-2.9604	-2.5792	-2.6667	-2.9229	-2.8146	-2.775	-2.8458	-2.7104	-3.0729	-2.6083	-2.7021	-2.9688	-2.8292	-93.714	-22.544	214.511	-59.303	161.348	91.790	-63.017	202.205	93.032	165.396	150.448	231.667	-11.977	227.315	-68.311	215.118	0.000475	0.00059462	5.8118e-05	378.33	4.3072e-06	1.8924e-05	578.97	142.06	3.5704e-06	1.7481e-05	275.43	127.22	67.801	37.154	5.1808e-06	77.952	0.0094884	0.012264	0.0031895	481.42	0.00012329	0.00013109	675.36	171.37	0.00012604	0.00012885	326.81	146.78	94.887	43.142	0.00012505	87.481	145.304	-63.892	19.220	-89.439	104.562	17.197	-89.095	-84.650	215.938	86.301	-85.094	-81.519	-80.841	-76.437	-61.443	-77.855	-8191	255	
21991.727	1	1	0	0	0.16091	0.12516	0.072026	0.12166	0.20603	0.11693	0.032476	0.20617	0.1775	0.10183	0.23725	0.19036	0.29971	0.052399	0.1265	0.28613	-2.4104	-2.7875	-2.5167	-2.8333	-2.6708	-2.6354	-3.0646	-2.5354	-2.6937	-2.8479	-2.6688	-2.8438	-2.7375	-2.6771	-2.9229	-2.6979	211.495	-66.307	136.838	194.508	36.950	211.966	181.287	172.271	142.318	204.434	126.449	167.538	155.624	194.837	-54.744	203.613	0.00062466	0.0011274	0.00015083	374.74	9.1588e-06	1.3302e-05	574.42	141.33	8.4674e-06	8.023e-06	274.57	127.83	66.714	37.059	1.1003e-05	77.422	0.0089488	0.011611	0.0030228	473.39	0.00011946	0.00012436	667.34	169.91	0.0001207	0.00012563	323.06	146.22	93.868	42.835	0.0001225	86.956	147.079	-15.944	156.130	-88.969	33.496	49.954	-89.299	-84.394	5.733	-5.839	-85.419	-81.410	-81.138	-76.349	20.881	-77.797	-8191	255	
21991.822	1	1	0	0	0.17457	0.41815	0.08418	0.15128	0.26865	0.15284	0.15638	0.076407	0.026295	0.068157	0.18275	0.085205	0.11316	0.10004	0.15333	0.20035	-2.2521	-2.8417	-2.5396	-2.7146	-2.8146	-2.3958	-2.8375	-2.6458	-2.7479	-2.8312	-2.6542	-2.7604	-2.7271	-2.6083	-2.8146	-2.5854	-68.207	220.958	-88.567	55.128	239.724	229.749	133.581	114.605	125.771	136.462	251.737	-97.657	196.092	-1.057	-39.932	175.286	0.00059348	0.0012413	0.0002445	367.99	9.5769e-06	1.6386e-05	570.58	140.38	6.0925e-06	1.7945e-05	273.93	127.15	66.502	37.307	1.9142e-06	77.959	0.0085853	0.011288	0.0030108	465.98	0.00011927	0.00012061	665.04	169.73	0.00011857	0.00012577	324.54	146.38	94.308	42.985	0.00012638	87.829	143.973	-40.889	1.044	-89.223	-2.087	48.842	-89.432	-84.521	20.499	60.925	-85.430	-81.363	-81.290	-76.307	-25.034	-77.777	-8191	255	
21991.943	1	1	0	0	0.052821	0.017897	0.25254	0.18129	0.23113	0.21587	0.21289	0.1652	0.42505	0.32738	0.13489	0.11646	0.041775	0.21325	0.1588	0.16937	-2.2917	-2.7729	-2.2646	-2.6312	-2.6188	-2.5604	-2.8521	-2.7292	-2.4792	-2.9833	-2.6271	-2.8417	-2.8708	-2.6	-2.8208	-2.7562	101.227	-72.489	131.815	203.633	24.876	-62.510	240.830	4.030	176.761	78.897	-76.934	188.982	230.051	214.816	27.592	178.082	0.0007049	0.0015738	0.00011041	374.3	5.9043e-06	1.0244e-05	578.96	143.59	2.3292e-06	8.9676e-06	278.64	129.09	68.649	37.92	1.3207e-05	79.782	0.0083921	0.011438	0.0030809	469.53	0.00011994	0.00011926	674.22	172.55	0.00011706	0.00012865	331.2	148.9	95.898	43.598	0.0001277	89.43	142.393	62.293	150.831	-89.068	31.082	-70.154	-89.283	-84.484	67.321	38.029	-85.167	-81.237	-81.037	-76.423	26.708	-77.754	-8191	255	
21992.039	1	1	0	0	0.24535	0.13232	0.13649	0.096682	0.25542	0.040284	0.055494	0.12389	0.18515	0.23174	0.040291	0.15874	0.12867	0.12111	0.14734	0.12527	-2.2854	-2.8875	-2.5938	-2.8646	-2.725	-2.4833	-2.9771	-2.8187	-2.5563	-2.9292	-2.6875	-2.7229	-2.9354	-2.575	-2.5875	-2.7396	103.489	-44.385	11.919	135.620	-63.260	-92.808	90.187	89.173	-34.775	21.517	5.269	227.725	46.894	37.338	95.007	170.999	0.0007236	0.00048079	3.8646e-05	381.47	5.4854e-06	2.3718e-06	587.43	146.28	5.145e-06	1.0782e-05	281.37	131.62	68.974	38.232	7.5833e-06	79.444	0.0082964	0.011603	0.003131	477.1	0.0001194	0.00011966	683.89	175.97	0.00011299	0.00013052	335.75	150.52	96.794	44.053	0.00012778	89.629	144.655	-93.441	132.620	-89.019	18.989	11.319	-89.309	-84.611	255.566	132.770	-85.423	-81.360	-81.214	-76.211	36.596	-77.692	-8191	255	
21992.137	1	1	0	0	0.25446	0.1774	0.015855	0.045617	0.19246	0.25239	0.25637	0.36101	0.041494	0.19396	0.37922	0.23345	0.10691	0.28157	0.18138	0.0040744	-2.1583	-2.9146	-2.6229	-2.6542	-2.8917	-2.6396	-2.875	-2.9521	-2.6396	-2.825	-2.5958	-2.8542	-2.95	-2.5646	-2.7854	-2.8688	40.520	0.462	6.691	68.484	247.707	141.733	117.739	122.000	107.325	133.223	248.734	176.216	74.473	180.117	241.090	37.102	0.00058364	0.00044949	0.00022865	384.44	6.8453e-06	8.2741e-06	593.16	147.37	3.0123e-06	5.4209e-06	286.2	132.75	69.795	38.642	2.4387e-06	80.724	0.0081607	0.011893	0.0031603	479.67	0.00012045	0.00012185	690.4	177.28	0.00011204	0.00013256	339.35	151.87	98.037	44.604	0.00012858	90.614	142.077	-93.375	76.249	-88.881	238.790	11.245	-89.150	-84.490	237.726	107.492	-85.222	-81.201	-81.485	-76.384	-60.494	-78.101	-8191	255	
21992.232	1	1	0	0	0.18194	0.12235	0.21114	0.22469	0.18612	0.27689	0.097472	0.17375	0.23331	0.4035	0.070386	0.26375	0.24299	0.10036	0.1255	0.10593	-1.9521	-2.6896	-2.4729	-2.7479	-2.8125	-2.55	-2.7562	-2.8417	-2.7188	-2.8708	-2.6354	-2.6958	-2.9437	-2.7375	-2.9875	-2.9833	222.212	131.874	-40.097	215.503	199.435	210.417	48.569	183.605	187.164	-42.583	-94.577	140.499	140.113	2.721	-69.880	113.853	0.00061007	0.00099514	0.00022189	390.21	5.0573e-06	9.7126e-06	597.71	148.58	5.1411e-06	6.9926e-06	283.65	131.11	69.183	38.066	2.0086e-05	79.715	0.0083314	0.012484	0.0033311	486.51	0.00012712	0.00013065	700.99	179.3	0.00011934	0.00014195	341.34	151.06	99.086	44.328	0.00013392	89.826	146.101	-71.693	-23.737	-89.051	18.974	113.033	-89.103	-84.562	180.119	39.064	-85.145	-81.419	-81.214	-76.419	43.456	-77.991	-8191	255	
#DATA ENDS
