BOXY.EXE: ISS Imagent and Oximeter Data Acquisition Program Version 0.80
Ascii Record File

#ACQ INFORMATION
2  Detector Channels 
16  External MUX Channels 
1  Auxiliary Channels 
5000  Waveform (CCF) Frequency (Hz)
1  Waveforms Skipped 
30  Waveforms Averaged 
1  Cycles Averaged 
16  Acquisitions per Waveform 
10.0806  Updata Rate (Hz) 

#FILE INFORMATION
TRUE -- External MUX Channel results are PARSED.
FALSE -- AC DC and Phase are NOT grouped.
TRUE -- Companion Program Settings File CREATED.
FALSE -- AC data not excluded
FALSE -- DC data not excluded
FALSE -- Phase data not excluded
FALSE -- Auxillary Chn. data not excluded
Tab delimiters

#CALIBRATION STATE
TRUE -- Waveform Calibration Values APPLIED.


#AUX CALIBRATION VALUES
Val Type	aux-1	

Term	1.0000e+00	
Factor	0.0000e+00	


#WF CALIBRATION VALUES
A = Detector Channel
Val Type	A-AC1	A-AC2	A-AC3	A-AC4	A-AC5	A-AC6	A-AC7	A-AC8	A-AC9	A-AC10	A-AC11	A-AC12	A-AC13	A-AC14	A-AC15	A-AC16	A-DC1	A-DC2	A-DC3	A-DC4	A-DC5	A-DC6	A-DC7	A-DC8	A-DC9	A-DC10	A-DC11	A-DC12	A-DC13	A-DC14	A-DC15	A-DC16	A-Ph1	A-Ph2	A-Ph3	A-Ph4	A-Ph5	A-Ph6	A-Ph7	A-Ph8	A-Ph9	A-Ph10	A-Ph11	A-Ph12	A-Ph13	A-Ph14	A-Ph15	A-Ph16	

Term	0.00000e+00	0.00000e+00	0.00000e+00	0.00000e+00	0.00000e+00	0.00000e+00	0.00000e+00	0.00000e+00	0.00000e+00	0.00000e+00	0.00000e+00	0.00000e+00	0.00000e+00	0.00000e+00	0.00000e+00	0.00000e+00	0.00000e+00	0.00000e+00	0.00000e+00	0.00000e+00	0.00000e+00	0.00000e+00	0.00000e+00	0.00000e+00	0.00000e+00	0.00000e+00	0.00000e+00	0.00000e+00	0.00000e+00	0.00000e+00	0.00000e+00	0.00000e+00	0.00000e+00	0.00000e+00	0.00000e+00	0.00000e+00	0.00000e+00	0.00000e+00	0.00000e+00	0.00000e+00	0.00000e+00	0.00000e+00	0.00000e+00	0.00000e+00	0.00000e+00	0.00000e+00	0.00000e+00	0.00000e+00	
Factor	1.00000e+00	1.00000e+00	1.00000e+00	1.00000e+00	1.00000e+00	1.00000e+00	1.00000e+00	1.00000e+00	1.00000e+00	1.00000e+00	1.00000e+00	1.00000e+00	1.00000e+00	1.00000e+00	1.00000e+00	1.00000e+00	1.00000e+00	1.00000e+00	1.00000e+00	1.00000e+00	1.00000e+00	1.00000e+00	1.00000e+00	1.00000e+00	1.00000e+00	1.00000e+00	1.00000e+00	1.00000e+00	1.00000e+00	1.00000e+00	1.00000e+00	1.00000e+00	X	X	X	X	X	X	X	X	X	X	X	X	X	X	X	X	

B = Detector Channel
Val Type	B-AC1	B-AC2	B-AC3	B-AC4	B-AC5	B-AC6	B-AC7	B-AC8	B-AC9	B-AC10	B-AC11	B-AC12	B-AC13	B-AC14	B-AC15	B-AC16	B-DC1	B-DC2	B-DC3	B-DC4	B-DC5	B-DC6	B-DC7	B-DC8	B-DC9	B-DC10	B-DC11	B-DC12	B-DC13	B-DC14	B-DC15	B-DC16	B-Ph1	B-Ph2	B-Ph3	B-Ph4	B-Ph5	B-Ph6	B-Ph7	B-Ph8	B-Ph9	B-Ph10	B-Ph11	B-Ph12	B-Ph13	B-Ph14	B-Ph15	B-Ph16	

Term	0.00000e+00	0.00000e+00	0.00000e+00	0.00000e+00	0.00000e+00	0.00000e+00	0.00000e+00	0.00000e+00	0.00000e+00	0.00000e+00	0.00000e+00	0.00000e+00	0.00000e+00	0.00000e+00	0.00000e+00	0.00000e+00	0.00000e+00	0.00000e+00	0.00000e+00	0.00000e+00	0.00000e+00	0.00000e+00	0.00000e+00	0.00000e+00	0.00000e+00	0.00000e+00	0.00000e+00	0.00000e+00	0.00000e+00	0.00000e+00	0.00000e+00	0.00000e+00	-1.70999e+02	-1.26624e+02	-1.31946e+02	-1.81681e+02	-8.38430e+01	-6.15144e+01	-1.55768e+02	-1.62015e+02	-8.17298e+01	-6.09818e+01	-1.73366e+02	-1.70201e+02	-1.85495e+02	-1.76578e+02	-7.50407e+01	-1.48946e+02	
Factor	2.98320e-05	1.70198e-04	4.81572e-05	1.97322e-01	1.68102e-06	1.85928e-06	1.81490e-01	5.63415e-02	1.68352e-06	1.92753e-06	1.03880e-01	3.00027e-02	5.63894e-02	9.68439e-03	1.64368e-06	1.34226e-02	1.04390e-05	1.42882e-05	3.99355e-06	1.02381e-01	1.49160e-07	1.58564e-07	8.84142e-02	2.93229e-02	1.48249e-07	1.58193e-07	5.25074e-02	1.52244e-02	2.95252e-02	5.08567e-03	1.51927e-07	6.84643e-03	X	X	X	X	X	X	X	X	X	X	X	X	X	X	X	X	



#DISTANCE SETTINGS
A = Detector Channel
A-1	A-2	A-3	A-4	A-5	A-6	A-7	A-8	A-9	A-10	A-11	A-12	A-13	A-14	A-15	A-16	

2.5000e+00	3.0000e+00	2.5000e+00	3.0000e+00	2.0000e+00	3.0000e+00	1.5000e+00	3.0000e+00	3.0000e+00	3.0000e+00	3.0000e+00	3.0000e+00	3.0000e+00	3.0000e+00	1.5000e+00	3.0000e+00	

B = Detector Channel
B-1	B-2	B-3	B-4	B-5	B-6	B-7	B-8	B-9	B-10	B-11	B-12	B-13	B-14	B-15	B-16	

1.0000e+01	1.0000e+01	1.0000e+01	1.4400e+00	1.0000e+01	1.0000e+01	1.5100e+00	1.9400e+00	1.0000e+01	1.0000e+01	1.9900e+00	2.4900e+00	2.4100e+00	2.9000e+00	1.0000e+01	2.9800e+00	




#DATA BEGINS
time	group	step	mark	flag	A-AC1	A-AC2	A-AC3	A-AC4	A-AC5	A-AC6	A-AC7	A-AC8	A-AC9	A-AC10	A-AC11	A-AC12	A-AC13	A-AC14	A-AC15	A-AC16	A-DC1	A-DC2	A-DC3	A-DC4	A-DC5	A-DC6	A-DC7	A-DC8	A-DC9	A-DC10	A-DC11	A-DC12	A-DC13	A-DC14	A-DC15	A-DC16	A-Ph1	A-Ph2	A-Ph3	A-Ph4	A-Ph5	A-Ph6	A-Ph7	A-Ph8	A-Ph9	A-Ph10	A-Ph11	A-Ph12	A-Ph13	A-Ph14	A-Ph15	A-Ph16	B-AC1	B-AC2	B-AC3	B-AC4	B-AC5	B-AC6	B-AC7	B-AC8	B-AC9	B-AC10	B-AC11	B-AC12	B-AC13	B-AC14	B-AC15	B-AC16	B-DC1	B-DC2	B-DC3	B-DC4	B-DC5	B-DC6	B-DC7	B-DC8	B-DC9	B-DC10	B-DC11	B-DC12	B-DC13	B-DC14	B-DC15	B-DC16	B-Ph1	B-Ph2	B-Ph3	B-Ph4	B-Ph5	B-Ph6	B-Ph7	B-Ph8	B-Ph9	B-Ph10	B-Ph11	B-Ph12	B-Ph13	B-Ph14	B-Ph15	B-Ph16	aux-1	digaux	

21085.623	1	1	0	768	0.059406	0.03021	0.40426	0.32057	0.19281	0.22364	0.36962	0.051853	0.19803	0.28026	0.21537	0.24173	0.26182	0.17323	0.26773	0.17252	-2.0667	-2.6437	-2.3854	-2.775	-2.6146	-2.425	-2.9792	-2.8375	-2.4792	-2.7812	-2.6813	-2.7104	-2.6229	-2.3771	-2.8146	-2.5958	439.706	234.955	459.264	515.871	290.166	278.960	431.816	202.650	255.979	519.270	402.966	474.558	320.719	367.183	250.472	506.367	0.00052729	0.00042046	0.00013294	1538.2	4.1278e-06	4.2602e-06	1618.4	319.38	4.7063e-06	3.469e-06	395.88	112.67	89.019	25.522	3.6448e-06	34.826	0.00017901	7.4328e-05	1.9876e-05	1494	1.1243e-06	7.1519e-07	1570.8	312.2	1.0331e-06	6.743e-07	387.87	110.58	86.507	25.085	7.7483e-07	34.964	518.269	278.183	259.174	179.680	282.929	326.269	179.598	186.488	282.630	322.280	186.367	192.328	191.884	200.405	303.937	200.057	-8191	255	
21085.721	1	1	0	0	0.08909	0.03455	0.13563	0.4253	0.22662	0.059281	0.2883	0.11938	0.22829	0.037521	0.40139	0.071009	0.18969	0.34584	0.1966	0.23503	-2.1188	-2.7667	-2.6083	-2.6125	-2.775	-2.4667	-3.05	-2.8854	-2.4208	-2.9542	-2.65	-2.5917	-2.8104	-2.5187	-2.7854	-2.8083	260.785	524.545	476.957	503.878	238.873	434.010	463.227	466.234	439.858	306.434	499.202	303.012	486.032	212.599	203.138	450.666	0.00053069	0.00035051	0.00011221	1542.5	4.1733e-06	3.7568e-06	1609.9	320.73	4.7281e-06	5.0517e-06	396.44	112.18	88.178	25.362	2.844e-06	35.117	0.00017744	6.4595e-05	1.9277e-05	1496.4	1.0348e-06	6.848e-07	1569.4	312.68	1.0387e-06	6.766e-07	387.38	110.57	86.349	25.094	8.0711e-07	35.094	517.887	264.467	250.331	179.887	284.211	317.796	179.550	186.620	290.623	333.281	186.405	192.293	191.961	200.204	303.623	199.928	-8191	255	
21085.816	1	1	0	0	0.24864	0.10442	0.14334	0.16183	0.1881	0.13083	0.42982	0.082803	0.20908	0.10673	0.20321	0.1838	0.10315	0.35517	0.11922	0.15141	-1.9333	-2.7854	-2.2833	-2.6854	-2.6854	-2.5438	-2.8688	-2.7562	-2.4167	-2.8354	-2.6667	-2.6167	-2.7521	-2.5563	-2.5062	-2.8021	280.094	318.525	275.842	272.106	470.659	212.321	436.741	457.612	492.270	263.038	475.666	229.475	248.302	184.785	269.079	409.505	0.00055111	0.00035788	0.00012193	1540	4.5593e-06	3.7667e-06	1611.1	320.6	6.0709e-06	4.665e-06	397.66	112.05	88.746	25.351	3.1872e-06	35.105	0.0001837	5.9653e-05	1.6665e-05	1493.2	9.8445e-07	6.6333e-07	1569.4	312.43	1.0319e-06	6.4694e-07	387.99	110.44	86.817	25.087	7.0424e-07	35.003	514.289	276.027	266.773	179.844	285.970	330.224	179.651	186.556	291.091	336.829	186.429	192.340	192.036	200.278	309.826	199.441	-8191	255	
21085.912	1	1	0	0	0.16951	0.095587	0.058576	0.27065	0.11348	0.1238	0.23102	0.21461	0.037058	0.3481	0.35784	0.030002	0.078701	0.18976	0.15312	0.15796	-1.8854	-2.6792	-2.5875	-2.5146	-2.7604	-2.6375	-2.8208	-2.8771	-2.5333	-2.7583	-2.7958	-2.4437	-2.775	-2.5687	-2.5479	-2.9813	186.359	494.157	217.134	485.413	269.278	341.482	498.446	509.681	410.789	260.857	448.465	395.754	288.849	494.836	526.093	221.052	0.00053618	0.00031512	9.62e-05	1536.7	4.3815e-06	4.0564e-06	1602.2	318.15	4.8913e-06	4.3928e-06	392.25	110.47	86.821	24.709	3.6329e-06	34.426	0.00018351	6.3017e-05	1.6199e-05	1491.2	1.0174e-06	7.0528e-07	1562.3	310.63	1.0535e-06	6.1168e-07	383.25	108.75	84.923	24.546	8.0268e-07	34.171	517.589	273.908	251.339	179.662	280.787	317.229	179.764	186.752	287.203	325.688	186.655	192.749	192.173	200.780	309.713	199.456	-8191	255	
21086.010	1	1	0	0	0.14355	0.14079	0.17999	0.18626	0.081466	0.019373	0.17532	0.099312	0.12168	0.13781	0.13345	0.28319	0.11338	0.20661	0.16042	0.27964	-2.0708	-2.7208	-2.5521	-2.4	-2.6354	-2.4833	-2.7875	-2.9917	-2.3979	-2.6833	-2.6583	-2.5438	-2.8937	-2.5917	-2.5875	-2.8187	264.982	272.557	496.290	422.845	170.989	179.969	412.472	499.900	282.352	248.169	524.962	507.649	409.464	522.969	361.331	528.531	0.00052918	0.0003538	9.4953e-05	1489.6	5.0129e-06	3.8213e-06	1547.5	306.98	4.0916e-06	4.5035e-06	378.06	106.38	84.536	23.927	3.5574e-06	33.366	0.00016922	6.4803e-05	1.431e-05	1445.7	1.0873e-06	6.0122e-07	1509.5	298.81	9.8369e-07	6.9638e-07	369.89	104.6	81.772	23.689	7.014e-07	33.202	514.927	257.499	244.575	179.948	281.989	310.478	179.602	186.725	296.883	339.900	186.602	192.815	192.328	200.467	306.074	200.044	-8191	255	
21086.105	1	1	0	0	0.034033	0.0070714	0.18851	0.1005	0.19717	0.074629	0.27882	0.11496	0.084706	0.10519	0.22235	0.20963	0.2299	0.14543	0.2529	0.039056	-2.0062	-2.6604	-2.6312	-2.6437	-2.7625	-2.7229	-2.4479	-2.7875	-2.5875	-2.7417	-2.8167	-2.2771	-2.7812	-2.7625	-2.4833	-2.7979	420.856	428.524	362.207	475.925	477.414	511.237	442.002	195.526	190.676	344.175	488.779	462.818	196.501	320.277	301.044	299.222	0.00050553	0.00030582	8.076e-05	1446.5	4.2689e-06	3.5095e-06	1515.3	296.84	4.936e-06	5.0189e-06	370.73	104.91	82.99	23.726	3.8744e-06	33.087	0.00016424	5.5248e-05	1.426e-05	1404.6	9.6115e-07	4.8858e-07	1476.6	289.45	9.7196e-07	6.1662e-07	362.63	102.96	80.489	23.412	7.283e-07	32.955	518.028	249.642	254.323	180.145	285.478	336.850	179.707	186.816	271.174	318.518	186.860	192.742	192.520	200.666	309.405	200.352	-8191	255	
21086.225	1	1	0	0	0.13202	0.24176	0.27279	0.081061	0.11037	0.065422	0.09185	0.069502	0.061369	0.21742	0.12442	0.14669	0.12668	0.023428	0.058369	0.11989	-2.0563	-2.6437	-2.7979	-2.5125	-2.7167	-2.4583	-2.6437	-2.9417	-2.4062	-2.6167	-2.8333	-2.5563	-2.6583	-2.525	-2.4854	-2.7917	301.260	256.770	387.374	458.671	495.546	266.769	488.340	477.734	516.113	252.033	443.295	522.886	421.992	334.240	381.561	503.446	0.0005172	0.00035582	0.00010281	1434	4.5505e-06	3.0369e-06	1502.1	296.3	5.1463e-06	3.6091e-06	371.64	105.09	83.277	23.682	3.6783e-06	33.271	0.00016861	6.5369e-05	1.4027e-05	1391.2	1.0028e-06	5.6885e-07	1461.8	288.56	9.7782e-07	6.1399e-07	363.03	103.34	81.045	23.497	7.3336e-07	33.086	516.423	262.283	271.450	180.094	288.282	320.215	179.749	186.864	295.789	348.152	186.946	192.668	192.360	200.734	311.842	200.069	-8191	255	
21086.320	1	1	0	0	0.34099	0.1047	0.11689	0.31471	0.21225	0.3306	0.23274	0.13196	0.18448	0.15284	0.16858	0.21195	0.24084	0.26603	0.070459	0.1147	-1.9958	-2.2875	-2.8458	-2.6458	-2.6521	-2.7438	-2.6229	-2.8083	-2.4854	-2.5833	-2.8688	-2.4375	-2.5271	-2.7854	-2.4208	-2.7604	326.954	335.519	220.120	496.785	434.326	241.993	447.056	472.593	428.370	429.811	393.520	487.662	328.568	492.223	175.195	452.916	0.00051741	0.00030243	0.00012947	1431.5	4.1794e-06	3.6672e-06	1499.8	296.6	4.9045e-06	3.923e-06	370.69	104.63	83.371	23.631	2.9492e-06	33.703	0.00017429	5.5635e-05	1.6806e-05	1389.6	9.5556e-07	5.2888e-07	1463.4	289.52	9.1482e-07	5.6422e-07	362.45	103.27	81.025	23.483	7.2165e-07	33.176	517.251	264.949	250.397	180.147	279.619	314.201	179.896	186.612	280.619	339.434	186.644	193.007	192.109	200.657	297.244	200.419	-8191	255	
21086.416	1	1	0	0	0.06505	0.1538	0.19232	0.31095	0.098755	0.1371	0.34305	0.23575	0.076636	0.1995	0.31287	0.23703	0.11183	0.21249	0.19801	0.067171	-2.0646	-2.6583	-2.7458	-2.7	-2.5208	-2.5938	-2.6688	-2.7062	-2.6083	-2.4417	-2.7313	-2.7021	-2.4708	-2.8729	-2.4042	-2.7146	224.345	286.692	400.285	171.635	295.512	330.485	512.009	402.484	445.206	346.987	467.393	215.579	469.257	171.975	300.672	173.166	0.00051948	0.00039926	8.0205e-05	1425.1	3.5297e-06	4.3339e-06	1502.3	299.12	5.0432e-06	3.6011e-06	371.49	105	82.91	23.69	4.2399e-06	33.281	0.00017264	6.4624e-05	1.3312e-05	1386.8	9.9688e-07	5.8933e-07	1464.1	290.34	9.3119e-07	6.2915e-07	362.66	103.3	80.863	23.482	7.7926e-07	33.101	516.205	254.323	243.474	180.318	292.606	338.545	179.931	186.743	282.752	308.085	186.418	192.401	192.024	200.802	307.170	200.405	-8191	255	
21086.512	1	1	0	0	0.058877	0.087276	0.073127	0.1001	0.29171	0.030706	0.33679	0.11185	0.17162	0.19801	0.19915	0.29912	0.24765	0.042711	0.067635	0.2355	-2.0938	-2.4688	-2.5104	-2.5667	-2.5271	-2.7708	-2.6646	-2.7125	-2.6292	-2.4458	-2.7104	-2.5708	-2.4437	-2.7396	-2.4104	-2.6833	375.026	276.537	327.068	242.620	489.087	454.628	420.985	495.982	403.413	439.422	416.595	402.066	377.847	313.221	318.287	437.760	0.00049843	0.00023709	0.00010383	1428.6	4.5991e-06	4.0664e-06	1498.6	298.52	5.5776e-06	2.6497e-06	372.6	105.27	83.134	23.628	3.5105e-06	32.908	0.00016274	5.5545e-05	1.5425e-05	1388.1	9.3909e-07	4.8527e-07	1462.2	290.78	9.4323e-07	5.7444e-07	364.09	103.55	81.141	23.559	7.3336e-07	33.121	515.991	259.866	267.855	179.990	277.998	308.739	179.883	186.849	287.046	327.781	186.668	192.925	192.753	200.321	296.729	200.172	-8191	255	
21086.607	1	1	0	0	0.15274	0.18325	0.23902	0.22308	0.22405	0.052828	0.083328	0.31874	0.068862	0.11877	0.14052	0.14876	0.096605	0.13617	0.17189	0.15166	-2.3583	-2.3854	-2.5896	-2.7521	-2.3875	-2.6771	-2.6875	-2.7104	-2.8583	-2.4437	-2.7792	-2.6188	-2.5938	-2.8063	-2.4562	-2.5854	204.389	490.661	217.629	518.906	458.637	355.152	452.234	517.066	335.366	524.601	366.255	185.676	463.306	215.238	458.045	501.246	0.00047901	0.0003866	0.00011733	1434	2.6978e-06	3.4632e-06	1508.5	300.07	4.2227e-06	4.8115e-06	374.18	106.21	83.67	23.9	3.1131e-06	33.734	0.00016102	5.5307e-05	1.4868e-05	1391.6	9.3225e-07	5.0047e-07	1470.5	292.77	8.373e-07	6.3607e-07	366.46	104.2	81.497	23.689	7.1121e-07	33.441	515.995	253.569	261.153	180.000	302.108	326.466	179.774	186.575	286.433	336.243	186.595	192.632	192.522	200.905	300.525	200.398	-8191	255	
21086.703	1	1	0	0	0.0916	0.091149	0.050919	0.054039	0.15609	0.18847	0.18871	0.33597	0.090694	0.2009	0.113	0.14204	0.19333	0.14549	0.085944	0.071523	-2.3688	-2.3542	-2.6583	-2.7458	-2.4062	-2.8708	-2.7021	-2.7083	-2.6708	-2.4583	-2.7354	-2.5146	-2.5438	-2.7562	-2.5812	-2.55	197.556	332.086	251.655	289.694	232.743	488.699	436.384	425.151	435.185	184.609	489.323	194.967	422.837	171.219	387.932	480.961	0.00052381	0.00031077	0.00012466	1446.8	4.2131e-06	3.7027e-06	1518.7	302.44	5.987e-06	3.831e-06	375.02	106.26	84.555	23.924	4.6903e-06	33.779	0.00016276	6.3583e-05	1.5725e-05	1398.9	9.5711e-07	5.6687e-07	1478.2	295.43	9.5651e-07	5.7642e-07	369.07	104.79	82.15	23.8	7.6375e-07	33.461	515.434	267.381	259.225	179.797	289.179	325.547	179.900	186.621	288.250	329.484	186.798	192.856	192.147	201.002	294.250	200.385	-8191	255	
21086.824	1	1	0	0	0.17898	0.14395	0.16765	0.22076	0.037807	0.30963	0.22945	0.40702	0.17646	0.077709	0.18136	0.2164	0.04744	0.47552	0.19843	0.15594	-2.475	-2.3875	-2.5917	-2.8167	-2.3542	-2.6479	-2.9	-2.6125	-2.7021	-2.5771	-2.7479	-2.7021	-2.4708	-2.7854	-2.5417	-2.5167	280.244	323.453	527.423	449.792	273.752	189.513	442.380	173.579	309.178	353.277	519.415	496.731	169.185	216.767	370.869	223.037	0.00049678	0.00037185	9.2105e-05	1447.5	4.0269e-06	3.68e-06	1523.1	303.73	5.1318e-06	4.2274e-06	375.45	107.37	84.421	24.172	2.9365e-06	33.549	0.00016481	6.4208e-05	1.6174e-05	1408.3	9.5866e-07	5.8239e-07	1483.9	297	8.7652e-07	6.1827e-07	370.41	105.42	82.452	23.908	7.3621e-07	33.531	516.984	263.126	264.737	180.023	285.269	330.293	180.088	186.876	280.262	329.647	186.983	192.765	192.495	200.437	316.909	200.140	-8191	255	
21086.922	1	1	0	0	0.1213	0.077793	0.23696	0.30827	0.16263	0.20975	0.43406	0.056678	0.26877	0.14422	0.22936	0.053655	0.29561	0.20744	0.31081	0.13102	-2.3563	-2.5396	-2.55	-2.8333	-2.3708	-2.8292	-2.8375	-2.5354	-2.8312	-2.4646	-2.6188	-2.9333	-2.5042	-2.8	-2.7125	-2.3271	444.723	484.565	386.388	476.951	203.936	412.721	486.797	207.972	503.637	273.127	445.851	473.058	452.792	484.574	489.524	438.955	0.00053731	0.00038953	0.00010617	1452.4	2.5306e-06	3.8568e-06	1522.4	305.82	4.2065e-06	4.2332e-06	377.92	106.85	84.85	24.055	2.2243e-06	33.556	0.00017033	5.9088e-05	1.4027e-05	1409.5	9.7669e-07	5.4474e-07	1482.5	297.91	8.3112e-07	6.1563e-07	369.98	105.11	82.463	23.878	6.6278e-07	33.543	516.048	269.629	260.734	179.940	288.466	311.411	179.745	186.811	292.205	315.214	186.726	192.542	192.733	200.315	305.782	199.796	-8191	255	
21087.018	1	1	0	0	0.36149	0.12447	0.12878	0.18389	0.069347	0.15087	0.36264	0.090682	0.27115	0.051851	0.16518	0.21614	0.178	0.17541	0.12115	0.19281	-2.1896	-2.3792	-2.6271	-2.8292	-2.4646	-2.6542	-2.8792	-2.4854	-2.7542	-2.4958	-2.6896	-2.8979	-2.525	-2.6479	-2.8083	-2.6083	379.516	183.880	336.922	515.403	230.179	389.648	518.849	369.040	177.937	172.348	471.646	515.513	290.814	438.169	189.065	487.190	0.00050278	0.00035964	0.00011479	1456.3	4.4093e-06	3.8144e-06	1525.3	305.79	3.7165e-06	3.9713e-06	379.87	107.09	84.995	24.091	3.4686e-06	33.67	0.00016598	6.0219e-05	1.6024e-05	1412.2	1.0183e-06	5.1864e-07	1484.4	297.44	9.2254e-07	5.8301e-07	371.08	105.12	82.759	23.864	7.4096e-07	33.497	517.191	254.973	250.752	179.995	282.920	331.833	179.748	186.412	303.633	320.645	186.501	192.762	191.998	200.455	307.265	200.320	-8191	255	
21087.113	1	1	0	0	0.16547	0.14911	0.089049	0.32786	0.21509	0.17554	0.019116	0.20192	0.28565	0.27965	0.13639	0.12705	0.2639	0.069256	0.016587	0.14943	-2.3625	-2.6583	-2.4375	-3.0583	-2.4167	-2.6896	-2.9313	-2.6	-2.7375	-2.6021	-2.6708	-2.8	-2.4396	-2.65	-2.625	-2.4562	403.985	333.771	316.183	181.286	414.564	483.596	444.968	180.510	371.817	486.953	442.536	414.595	411.446	180.505	382.456	489.003	0.0004948	0.00030161	0.00010668	1452.7	4.1987e-06	3.1941e-06	1524.4	304.19	3.8737e-06	3.6457e-06	379.08	106.55	84.351	23.962	3.537e-06	33.634	0.00016404	6.0606e-05	1.6041e-05	1409.3	9.7762e-07	5.7711e-07	1481.3	296.73	8.4872e-07	5.9355e-07	369.03	104.69	82.141	23.695	6.2512e-07	33.379	516.384	280.634	255.803	179.988	286.498	330.407	179.754	186.763	283.809	342.649	186.664	192.434	192.702	200.786	314.144	200.071	-8191	255	
21087.186	1	1	0	0	0.022905	0.155	0.20422	0.26308	0.27031	0.027439	0.24368	0.11346	0.19072	0.13565	0.3437	0.11049	0.16969	0.08671	0.02197	0.075154	-2.2896	-2.7188	-2.3667	-2.8063	-2.6375	-2.4125	-2.9396	-2.4958	-2.775	-2.4542	-2.6104	-2.7438	-2.3625	-2.5167	-2.8	-2.2062	262.792	384.384	221.703	512.548	222.218	232.756	440.510	489.189	292.986	367.312	493.439	182.701	410.304	316.820	502.585	476.689	0.00052748	0.00046797	0.00010197	1440.7	3.3697e-06	3.8252e-06	1512.8	302.2	4.8567e-06	4.2778e-06	375.35	106.3	83.06	24.071	3.8091e-06	33.045	0.00016772	6.6827e-05	1.5367e-05	1400.2	9.049e-07	5.1566e-07	1475.3	295.64	9.6115e-07	5.5269e-07	368.01	104.4	81.774	23.775	6.3556e-07	33.16	518.982	281.845	248.622	180.120	281.724	324.237	179.914	186.918	286.216	339.614	186.989	192.873	192.531	200.471	302.102	200.149	-8191	255	
21087.305	1	1	0	0	0.12382	0.18744	0.27512	0.23476	0.14755	0.063233	0.10252	0.30047	0.23519	0.12456	0.12941	0.12151	0.18345	0.23666	0.10095	0.10991	-2.1875	-2.5875	-2.4521	-2.9146	-2.5312	-2.4562	-2.9854	-2.55	-2.5187	-2.7042	-2.4437	-2.7542	-2.4458	-2.5104	-2.7208	-2.5958	428.391	214.556	495.531	208.077	271.271	371.805	445.300	457.343	379.118	492.123	340.942	274.336	190.656	210.488	502.334	450.092	0.00052636	0.00038403	0.000105	1441.3	3.8622e-06	3.2382e-06	1518.7	302.95	4.5543e-06	4.552e-06	378.56	106.14	83.875	23.955	3.7382e-06	33.674	0.00017005	5.754e-05	1.5725e-05	1400.5	9.5493e-07	5.781e-07	1476.4	295.78	9.1945e-07	6.4002e-07	369.72	104.64	81.94	23.795	6.2607e-07	33.41	518.481	263.629	256.885	180.088	291.379	319.734	179.828	186.335	286.174	319.253	186.454	192.646	192.317	200.638	294.133	200.064	-8191	255	
21087.400	1	1	0	0	0.18911	0.11531	0.081709	0.02356	0.052468	0.11342	0.21558	0.36079	0.21655	0.2058	0.25103	0.19187	0.2971	0.13126	0.092722	0.10028	-2.1562	-2.5354	-2.2708	-2.8521	-2.4417	-2.3042	-2.8	-2.5542	-2.6479	-2.6937	-2.7229	-2.7583	-2.5354	-2.4917	-2.6937	-2.4479	227.312	524.307	236.466	337.742	301.420	327.093	430.236	480.081	221.927	523.032	493.525	505.408	417.750	266.945	350.711	425.287	0.00050468	0.00045675	0.00011874	1446	4.2738e-06	4.1897e-06	1518	303.35	4.5274e-06	2.1588e-06	378.34	106.44	83.694	24.182	2.2046e-06	33.581	0.00016626	5.7897e-05	1.7264e-05	1406.7	9.4623e-07	5.6984e-07	1480.9	296.33	8.9413e-07	5.4148e-07	369.18	104.74	81.995	23.862	6.3335e-07	33.472	517.017	267.565	269.051	180.079	298.675	319.417	179.811	186.795	292.211	315.112	186.575	192.854	192.880	200.593	306.244	200.280	-8191	255	
21087.496	1	1	0	0	0.064269	0.093126	0.044773	0.16736	0.1199	0.26074	0.2972	0.18373	0.194	0.15404	0.356	0.17875	0.22002	0.067007	0.17523	0.12041	-2.1771	-2.7687	-2.375	-2.7687	-2.6229	-2.4313	-2.8875	-2.525	-2.6	-2.6667	-2.4542	-2.8583	-2.5167	-2.3875	-2.8792	-2.4625	502.386	407.271	186.510	497.242	490.485	281.263	479.278	293.355	496.157	472.391	472.786	504.998	362.706	326.614	389.598	462.023	0.00052079	0.00038806	0.00012517	1446.8	3.7661e-06	3.9001e-06	1520.8	304.16	5.1784e-06	4.5903e-06	377.62	107.06	85.016	23.925	3.9929e-06	33.784	0.00017277	6.0576e-05	1.6798e-05	1405.3	9.1858e-07	5.7447e-07	1482.4	296.48	9.1883e-07	5.5499e-07	369.98	105.15	82.434	23.797	6.0613e-07	33.615	516.377	258.760	256.747	180.023	280.833	329.963	179.715	186.737	279.848	327.874	186.718	192.781	192.699	200.758	311.596	200.216	-8191	255	
21087.594	1	1	0	0	0.11256	0.25718	0.3121	0.27063	0.10204	0.11288	0.40883	0.24559	0.077405	0.15684	0.23373	0.18254	0.13347	0.32296	0.12019	0.030296	-2.0542	-2.775	-2.4292	-2.9167	-2.5833	-2.4104	-2.9375	-2.5042	-2.3646	-2.6688	-2.5729	-2.6562	-2.4729	-2.4521	-2.6437	-2.6333	234.327	318.577	442.783	518.185	351.475	384.760	447.635	468.316	174.091	183.674	500.687	441.056	510.344	208.241	370.516	357.780	0.000515	0.00046722	9.4091e-05	1447.2	3.3602e-06	2.4073e-06	1520	303.77	3.887e-06	3.3918e-06	378.11	107.47	84.7	24.139	3.7509e-06	33.578	0.0001704	6.391e-05	1.4951e-05	1408.1	9.0615e-07	5.7182e-07	1482.5	296.72	9.6393e-07	4.782e-07	369.83	105.25	82.283	23.919	6.9253e-07	33.498	518.098	266.539	264.291	180.165	287.669	328.887	180.053	186.958	300.361	319.753	186.910	192.915	192.759	200.216	299.514	199.911	-8191	255	
21087.713	1	1	0	0	0.21637	0.26242	0.10851	0.3201	0.31634	0.10734	0.12573	0.11211	0.29411	0.09233	0.12631	0.25631	0.11993	0.18848	0.30984	0.1005	-2.1146	-3.0146	-2.4208	-2.8417	-2.5479	-2.425	-2.8729	-2.6479	-2.4521	-2.7979	-2.6396	-2.6208	-2.8104	-2.4688	-2.7646	-2.6354	378.604	466.198	357.676	504.148	189.099	277.480	518.933	454.301	231.124	180.001	501.496	476.353	522.427	498.664	410.478	436.476	0.00049232	0.00036717	8.8186e-05	1458.7	2.5594e-06	2.8125e-06	1523.5	304.35	4.6465e-06	3.511e-06	377.74	106.7	84.132	23.968	3.4237e-06	33.716	0.00017033	5.0485e-05	1.5292e-05	1409.9	9.192e-07	5.5233e-07	1483.6	296.91	9.491e-07	4.2416e-07	370.26	104.63	82.012	23.783	7.359e-07	33.439	516.616	258.473	247.496	179.977	276.618	330.461	179.779	186.759	281.289	325.206	186.781	193.004	192.192	200.461	300.905	199.521	-8191	255	
21087.785	1	1	0	0	0.2984	0.13062	0.20237	0.053261	0.12295	0.09588	0.40067	0.075113	0.14533	0.091007	0.059749	0.040767	0.027154	0.36801	0.066296	0.23661	-1.925	-2.7583	-2.4729	-2.8396	-2.7875	-2.5167	-2.8521	-2.6896	-2.5958	-2.8	-2.7646	-2.6083	-2.9167	-2.4292	-2.5771	-2.8792	307.852	320.517	332.657	507.803	496.313	474.787	410.525	261.224	228.694	320.180	265.441	435.592	497.850	217.602	302.701	400.027	0.0005293	0.00036239	8.8705e-05	1447.5	4.3259e-06	4.2986e-06	1522.3	303.82	4.7258e-06	3.8885e-06	379.32	106.69	83.843	23.89	3.3993e-06	32.939	0.0001734	5.3313e-05	1.4443e-05	1406	8.8812e-07	5.857e-07	1481.4	296.64	9.1142e-07	5.5203e-07	370.2	104.8	82.072	23.763	7.1596e-07	33.215	516.141	260.516	251.661	179.846	274.477	330.569	179.959	186.588	280.905	327.388	186.615	192.781	192.240	200.737	303.837	200.030	-8191	255	
21087.904	1	1	0	0	0.21462	0.24006	0.20256	0.09232	0.10671	0.14952	0.36813	0.32296	0.2913	0.14403	0.10143	0.082369	0.20119	0.091996	0.12562	0.32453	-1.9792	-2.575	-2.3729	-2.6021	-2.7208	-2.5542	-2.7583	-2.7375	-2.4854	-2.7917	-2.7062	-2.5708	-2.7042	-2.3688	-2.5687	-2.7146	473.090	207.740	177.753	511.787	327.276	254.932	512.248	522.563	182.078	255.691	189.618	450.733	480.768	487.458	482.126	359.242	0.00052357	0.00037455	0.00010209	1446.6	4.19e-06	4.2731e-06	1525.4	304.73	5.5961e-06	3.987e-06	379.52	107.27	84.653	23.952	3.9163e-06	33.638	0.00016859	5.37e-05	1.4593e-05	1406.7	9.0304e-07	5.8173e-07	1481.3	297.29	8.9474e-07	5.7213e-07	370.18	104.87	82.118	23.776	7.207e-07	33.458	514.871	268.982	270.250	180.088	283.786	332.659	179.725	186.666	292.817	329.959	186.557	192.931	192.091	200.357	306.582	200.460	-8191	255	
21088.002	1	1	0	0	0.35598	0.3615	0.1623	0.27598	0.286	0.33236	0.090534	0.30808	0.23516	0.17385	0.35587	0.38827	0.20325	0.15456	0.28329	0.045821	-1.9312	-2.5896	-2.5104	-2.5687	-2.8167	-2.3937	-2.7083	-2.6958	-2.525	-2.8063	-2.5812	-2.425	-2.6729	-2.5146	-2.6958	-2.8896	340.004	416.052	254.948	488.538	419.721	432.793	438.756	498.281	195.113	470.691	496.389	482.256	226.782	253.474	266.757	452.211	0.00051842	0.00031967	8.3969e-05	1452.3	4.4999e-06	3.0796e-06	1518.7	304.8	5.1561e-06	4.0228e-06	377.54	106.27	84.431	24.146	3.4667e-06	33.736	0.00016979	5.6945e-05	1.3836e-05	1407.7	8.9776e-07	5.6654e-07	1481.6	297.15	1.0075e-06	5.7609e-07	369.95	105.12	82.127	23.899	7.4602e-07	33.554	514.026	255.394	252.355	180.121	295.456	320.722	179.843	186.613	297.431	315.372	186.816	192.740	192.686	200.420	313.045	200.013	-8191	255	
21088.098	1	1	0	0	0.27118	0.099618	0.14227	0.20555	0.19986	0.24737	0.3476	0.25867	0.18102	0.17825	0.2612	0.34716	0.13732	0.11558	0.14683	0.045402	-1.9813	-2.6271	-2.4229	-2.6271	-2.7542	-2.4979	-2.7188	-2.9896	-2.3729	-2.6167	-2.5958	-2.4354	-2.725	-2.5167	-2.5896	-2.7958	476.593	191.606	464.728	405.507	451.886	248.086	490.317	418.611	207.397	340.224	470.863	450.440	226.621	481.777	468.905	419.151	0.00049924	0.00036075	9.2826e-05	1454.2	3.6872e-06	3.2751e-06	1529.1	305.11	4.8526e-06	4.3591e-06	378.12	107.44	84.78	24.248	3.4049e-06	33.525	0.00016402	5.4504e-05	1.3487e-05	1410.9	8.5208e-07	5.5465e-07	1486.3	298.04	9.1513e-07	5.6785e-07	370.25	105.29	82.368	23.924	7.4444e-07	33.587	514.620	260.770	263.331	180.236	285.789	335.643	179.888	186.851	278.344	321.094	186.858	192.481	192.512	200.683	296.105	200.282	-8191	255	
21088.193	1	1	0	0	0.14011	0.29579	0.12228	0.14783	0.061868	0.13759	0.034443	0.20643	0.025203	0.24543	0.070691	0.17535	0.074767	0.1548	0.087868	0.11187	-1.8021	-2.4917	-2.7917	-2.4208	-2.6521	-2.7479	-2.4854	-2.7938	-2.3958	-2.5479	-2.7479	-2.4062	-2.6125	-2.4042	-2.3396	-2.7188	211.501	358.681	253.637	494.573	253.809	170.107	466.354	225.098	297.268	278.982	463.858	386.476	510.368	415.214	440.824	517.686	0.00049614	0.00045415	0.00010716	1452.6	3.9651e-06	4.6294e-06	1529	305.63	4.4774e-06	3.491e-06	379.35	106.9	84.339	24.071	3.8954e-06	33.632	0.00016852	6.01e-05	1.5092e-05	1410.5	9.1858e-07	5.3747e-07	1485.6	297.69	8.9691e-07	5.2368e-07	371.22	105.31	82.315	23.857	7.2893e-07	33.549	515.906	262.252	251.426	180.374	291.125	331.522	179.989	186.908	275.584	309.506	186.654	192.592	192.430	200.368	299.985	200.119	-8191	255	
21088.314	1	1	0	0	0.10474	0.13096	0.11909	0.16899	0.19798	0.12404	0.16437	0.33722	0.20432	0.10087	0.28332	0.14893	0.20761	0.12476	0.19435	0.0074945	-1.9396	-2.4854	-2.7062	-2.5896	-2.5187	-2.4792	-2.4333	-2.7896	-2.5187	-2.5187	-2.8583	-2.3438	-2.6021	-2.5875	-2.4896	-2.8	307.604	334.642	398.164	477.490	246.714	347.749	192.538	402.365	409.024	316.884	336.512	506.586	450.076	460.418	498.300	408.513	0.00050881	0.000369	0.00011349	1445.3	3.6589e-06	2.6296e-06	1529	305.86	4.6134e-06	3.8639e-06	377.93	106.94	85.079	24.299	3.2795e-06	33.559	0.000169	5.6647e-05	1.367e-05	1407.6	9.3194e-07	5.6059e-07	1488.3	297.58	9.213e-07	6.0344e-07	370.95	105.05	82.706	23.889	7.5394e-07	33.539	514.423	253.954	241.347	180.120	287.773	341.469	179.979	186.715	280.537	329.857	186.732	192.835	192.379	200.695	311.173	200.119	-8191	255	
21088.408	1	1	0	0	0.27509	0.16376	0.20443	0.22984	0.27086	0.1039	0.25456	0.087379	0.28708	0.13324	0.1782	0.22873	0.48943	0.16023	0.088063	0.11479	-2.0375	-2.4333	-2.7146	-2.4938	-2.6521	-2.5667	-2.4521	-2.8187	-2.4313	-2.5625	-2.9521	-2.4875	-2.7271	-2.7708	-2.4229	-2.9	198.269	387.156	270.710	465.589	254.212	416.386	457.267	461.871	399.808	489.558	480.741	399.593	369.945	436.279	405.251	348.051	0.00049092	0.00036127	0.00010742	1448.8	4.0457e-06	3.2981e-06	1523.3	306.01	4.6348e-06	4.2407e-06	381.61	106.56	84.916	24.095	2.8583e-06	33.687	0.00016087	5.7659e-05	1.4235e-05	1409.8	8.6419e-07	5.5432e-07	1484.3	298.31	8.9845e-07	6.8023e-07	371.42	105	82.419	23.907	7.2767e-07	33.567	515.686	252.031	255.498	180.021	269.657	321.304	179.807	186.893	292.340	328.000	186.490	192.860	192.468	200.275	307.919	200.167	-8191	255	
21088.506	1	1	0	0	0.0812	0.15786	0.12888	0.19883	0.052215	0.05222	0.42151	0.33616	0.1671	0.085432	0.091092	0.17928	0.3054	0.21683	0.18848	0.28768	-2.2604	-2.4833	-2.7625	-2.5625	-2.4896	-2.7667	-2.6646	-2.7062	-2.5604	-2.4792	-2.7167	-2.5312	-2.5146	-2.6667	-2.5417	-2.6312	279.100	430.719	494.204	522.841	303.503	231.925	458.173	504.264	317.347	412.531	186.178	444.075	212.965	466.995	196.961	465.222	0.00052872	0.00035049	9.4035e-05	1449.5	4.5912e-06	3.6602e-06	1525.4	305.42	5.4979e-06	3.453e-06	376.7	107.24	84.454	24.243	2.9802e-06	33.698	0.00016681	5.7183e-05	1.4951e-05	1410.6	9.3318e-07	5.2624e-07	1485.9	298.4	8.864e-07	5.5763e-07	370.71	105.48	82.424	23.949	6.8209e-07	33.637	519.042	280.677	256.814	179.982	281.470	341.773	180.079	186.407	276.575	330.014	186.472	192.682	192.103	200.705	318.073	200.203	-8191	255	
21088.602	1	1	0	0	0.19185	0.10967	0.13654	0.14204	0.13035	0.023588	0.11087	0.1148	0.19095	0.18788	0.14619	0.23233	0.28613	0.28593	0.31062	0.076254	-2.0646	-2.4313	-2.8208	-2.7	-2.3333	-2.6583	-2.7354	-2.6979	-2.4521	-2.4979	-2.7021	-2.5333	-2.5229	-2.725	-2.4417	-2.6125	287.278	432.946	193.905	524.453	276.041	346.921	374.366	450.927	292.723	523.880	474.335	515.769	390.016	250.944	389.306	487.562	0.00049655	0.00049985	0.00011927	1450.9	3.3912e-06	3.8179e-06	1529.1	305.16	4.2928e-06	4.9847e-06	378.79	107.48	84.764	24.284	2.9976e-06	33.869	0.00016344	6.397e-05	1.4901e-05	1412	9.0055e-07	5.0774e-07	1485.7	298.01	8.3297e-07	7.0528e-07	371.22	105.46	82.531	23.957	6.7766e-07	33.611	516.255	263.518	261.451	179.851	286.490	324.759	180.108	186.886	281.264	338.525	186.893	192.636	192.650	200.721	322.041	199.625	-8191	255	
21088.697	1	1	0	0	0.1164	0.12191	0.058874	0.089198	0.068284	0.31509	0.31262	0.2555	0.20932	0.25986	0.041664	0.27535	0.13559	0.087467	0.11919	0.09553	-2.3729	-2.3146	-2.7062	-2.7125	-2.3417	-2.7375	-2.5312	-2.6729	-2.6979	-2.3771	-2.8688	-2.5396	-2.4375	-2.8458	-2.4729	-2.5083	435.931	398.171	334.588	485.468	173.032	469.967	446.549	179.007	452.726	475.941	482.438	435.292	331.293	205.240	379.727	408.639	0.00050654	0.00042935	0.00010805	1453.4	3.7956e-06	3.4886e-06	1519.9	304.41	5.4389e-06	4.2771e-06	377.16	107.2	84.53	24.097	4.1273e-06	33.527	0.00016544	5.8254e-05	1.4402e-05	1411.1	9.9191e-07	5.6555e-07	1484.5	297.99	8.8362e-07	6.4595e-07	370.16	105.24	82.322	23.814	7.1564e-07	33.524	515.702	267.597	256.213	180.052	279.911	330.540	179.961	186.640	285.891	326.135	186.582	192.832	192.444	200.677	303.863	199.925	-8191	255	
21088.795	1	1	0	0	0.16055	0.13458	0.20716	0.22071	0.10114	0.14862	0.24189	0.11825	0.18934	0.06836	0.012562	0.073103	0.14343	0.31261	0.2463	0.069289	-2.1958	-2.3021	-2.4	-2.6646	-2.1896	-2.8812	-2.7604	-2.5167	-2.8063	-2.3479	-2.6188	-2.5771	-2.4708	-2.9729	-2.4	-2.5521	422.583	461.152	246.517	468.073	171.937	468.278	439.133	406.695	230.583	272.561	449.178	200.286	430.804	486.681	451.321	370.243	0.00048884	0.00033118	8.3486e-05	1455.5	4.0683e-06	4.016e-06	1525.9	305.22	6.0706e-06	3.8659e-06	377.96	106.93	84.35	24.077	4.0068e-06	33.582	0.00015806	5.367e-05	1.4086e-05	1410.9	9.5183e-07	4.9386e-07	1485.3	297.78	9.0154e-07	5.4511e-07	370.27	105.07	82.536	23.875	7.1564e-07	33.488	516.775	263.847	273.295	180.057	281.980	315.064	179.891	186.584	283.995	332.900	186.592	192.617	192.993	200.703	301.318	199.938	-8191	255	
21088.891	1	1	0	0	0.18301	0.36518	0.18729	0.15763	0.16948	0.18506	0.091837	0.20797	0.19267	0.33701	0.20599	0.12761	0.2197	0.082424	0.15945	0.094146	-2.1146	-2.3271	-2.4271	-2.7	-2.5208	-2.7687	-2.9667	-2.6437	-2.7875	-2.2208	-2.7208	-2.6146	-2.5667	-2.8312	-2.5167	-2.3875	422.914	275.252	348.962	199.462	391.618	238.764	480.677	449.184	481.742	377.738	420.253	524.195	337.909	356.160	327.681	374.880	0.00047808	0.00031372	0.00010059	1451.9	4.3926e-06	4.0807e-06	1530.7	305.71	5.5026e-06	2.6655e-06	379.92	106.63	84.295	24.094	3.4379e-06	33.604	0.00016217	6.0308e-05	1.575e-05	1411.4	9.5804e-07	5.269e-07	1486.7	297.86	9.2223e-07	5.1083e-07	371.91	104.9	82.218	23.865	7.2513e-07	33.5	517.576	270.841	253.298	180.044	290.971	318.619	180.048	186.951	283.855	327.764	186.696	192.859	192.667	200.500	300.241	200.078	-8191	255	
21089.010	1	1	0	0	0.33382	0.29842	0.12273	0.24523	0.12381	0.07741	0.25453	0.17793	0.19555	0.11755	0.076932	0.24719	0.2157	0.24031	0.041746	0.1615	-2.2562	-2.5687	-2.4938	-2.8917	-2.2646	-2.7479	-2.7792	-2.6729	-2.6937	-2.5042	-2.7	-2.7229	-2.2	-2.8271	-2.6042	-2.3917	266.832	302.399	413.085	503.749	292.618	452.399	479.400	178.457	333.366	382.547	195.473	179.765	495.934	181.405	474.233	275.703	0.00048059	0.00027976	7.2234e-05	1447	4.1088e-06	3.4962e-06	1527.8	306.08	4.7032e-06	4.1675e-06	380.46	107.2	85.024	24.174	4.3202e-06	33.524	0.00015924	5.5426e-05	1.3794e-05	1409.6	9.3784e-07	5.3251e-07	1485.4	298.79	8.722e-07	6.2256e-07	371.35	105.29	82.649	23.911	7.2419e-07	33.489	516.646	241.255	270.716	180.015	277.818	317.085	179.690	186.813	278.911	330.052	186.768	192.854	192.954	200.526	317.112	200.719	-8191	255	
21089.082	1	1	0	0	0.15633	0.10503	0.2356	0.14642	0.13027	0.27841	0.114	0.20929	0.086017	0.10703	0.094156	0.10497	0.11603	0.1781	0.040161	0.079638	-2.2313	-2.4688	-2.5146	-2.8083	-2.4417	-2.7708	-2.8708	-2.7104	-2.8271	-2.5542	-2.6604	-2.9271	-2.3625	-2.6083	-2.6292	-2.2875	517.230	465.632	500.324	456.512	417.849	438.415	418.949	503.522	412.832	179.129	337.885	308.340	515.082	412.494	445.765	292.156	0.00052285	0.00046848	0.00016719	1455	4.2314e-06	2.9814e-06	1531.4	307.2	5.2587e-06	4.3804e-06	380.35	107.47	84.921	24.302	2.9947e-06	33.674	0.00016633	5.5873e-05	1.654e-05	1412	9.7917e-07	5.5134e-07	1488.7	298.82	9.3675e-07	6.1168e-07	372.44	105.62	83.04	24.016	7.2387e-07	33.637	516.943	261.995	266.376	179.991	298.060	338.122	179.912	186.605	284.371	313.988	186.622	192.597	192.670	200.387	307.872	200.107	-8191	255	
21089.178	1	1	0	0	0.13693	0.15117	0.081412	0.28849	0.14887	0.035123	0.20068	0.27097	0.20272	0.12733	0.072559	0.20861	0.25081	0.16304	0.13591	0.24803	-2.1375	-2.6021	-2.5396	-2.9021	-2.3458	-2.7021	-2.8563	-2.475	-2.7229	-2.7125	-2.5687	-2.8063	-2.5479	-2.4688	-2.5812	-2.4146	329.083	514.964	420.691	470.358	222.204	363.265	473.048	376.029	462.234	418.425	504.655	513.522	464.857	527.719	360.873	496.299	0.00050663	0.00041243	9.708e-05	1456.7	4.2832e-06	3.3078e-06	1537.6	305.12	3.1404e-06	3.5653e-06	380.8	107.68	84.965	24.309	3.4374e-06	33.826	0.00016326	5.1735e-05	1.5234e-05	1415.5	9.6799e-07	5.3747e-07	1494.7	298.81	8.3822e-07	5.5565e-07	372.46	105.75	82.981	24.041	6.8367e-07	33.684	519.444	255.162	262.229	180.038	295.482	326.773	179.730	186.871	288.379	319.827	186.404	192.695	192.332	200.688	310.498	200.109	-8191	255	
21089.273	1	1	0	0	0.044231	0.12308	0.18689	0.099906	0.094258	0.1465	0.41166	0.16117	0.23281	0.1919	0.17693	0.17399	0.11714	0.28161	0.19451	0.2813	-2.2271	-2.5833	-2.4042	-2.9875	-2.6646	-2.4813	-2.7125	-2.5062	-2.7083	-2.6229	-2.3812	-2.7521	-2.4417	-2.5375	-2.7687	-2.3125	398.806	521.049	447.638	181.702	501.570	502.684	485.263	406.616	468.100	365.101	176.220	445.047	266.201	346.013	218.510	240.276	0.00051203	0.00028886	0.0001057	1463.8	3.621e-06	4.192e-06	1535.1	307.53	5.9958e-06	3.5352e-06	382.77	108.04	85.737	24.419	4.4095e-06	33.818	0.00016317	5.3164e-05	1.7488e-05	1420	9.4375e-07	5.814e-07	1497.9	300.23	8.7714e-07	5.662e-07	374.05	106.27	83.412	24.155	6.8241e-07	33.839	518.881	259.184	254.858	179.900	291.323	326.959	179.879	186.700	274.325	328.678	186.527	192.735	191.989	200.787	281.343	200.223	-8191	255	
21089.393	1	1	0	0	0.19508	0.036273	0.10239	0.24805	0.12658	0.087549	0.03326	0.11157	0.19232	0.14451	0.15557	0.01492	0.39312	0.20781	0.15495	0.2331	-2.2604	-2.375	-2.3417	-3.0375	-2.5938	-2.5104	-2.8896	-2.5229	-2.7625	-2.5917	-2.5333	-2.8375	-2.5396	-2.4625	-2.6708	-2.6042	398.602	314.667	433.564	465.100	509.211	282.356	459.101	519.657	487.919	326.958	189.063	190.378	242.518	486.317	403.303	406.308	0.00050048	0.00036273	9.027e-05	1469.5	3.7961e-06	3.2485e-06	1549.2	306.51	5.4562e-06	4.4208e-06	380.85	109.34	85.587	24.443	3.3632e-06	34.084	0.00016398	6.1052e-05	1.6074e-05	1426.3	9.512e-07	5.705e-07	1505.1	301.09	9.3273e-07	5.7378e-07	374.63	107.14	83.725	24.292	6.938e-07	34.07	515.215	271.169	270.128	179.951	283.588	331.129	179.818	186.571	281.444	319.233	186.698	192.676	192.726	200.666	303.110	199.946	-8191	255	
21089.488	1	1	0	0	0.2495	0.16824	0.041541	0.2938	0.16923	0.15388	0.27012	0.24507	0.16635	0.090613	0.13564	0.15788	0.20316	0.068749	0.19631	0.124	-2.1542	-2.5375	-2.3396	-2.9042	-2.4667	-2.4604	-2.8917	-2.5458	-2.7042	-2.6646	-2.6021	-2.7229	-2.3917	-2.425	-2.6854	-2.5521	402.904	471.543	420.761	441.188	293.130	387.590	461.415	403.346	281.985	435.589	491.145	354.570	345.183	216.133	279.304	504.316	0.00053859	0.00029747	0.00010999	1484.7	3.9235e-06	4.7337e-06	1551.8	308.2	3.7374e-06	4.1895e-06	386.31	109.17	85.967	24.693	3.1472e-06	34.002	0.00017105	5.1914e-05	1.5616e-05	1435.6	9.164e-07	6.3855e-07	1509.7	302.03	8.9598e-07	5.3983e-07	377.14	107.31	83.843	24.383	5.9062e-07	34.002	515.498	266.355	260.222	180.164	296.762	316.851	179.612	186.684	289.031	322.233	186.619	192.737	192.507	200.530	286.973	199.793	-8191	255	
21089.586	1	1	0	0	0.14898	0.099009	0.14901	0.33032	0.13184	0.24219	0.14817	0.47908	0.060242	0.15595	0.033058	0.14978	0.037536	0.17094	0.18958	0.116	-1.9958	-2.5979	-2.3771	-2.8542	-2.6083	-2.3625	-2.9146	-2.7292	-2.4625	-2.6792	-2.6917	-2.6104	-2.8646	-2.3438	-2.5792	-2.5375	316.870	274.575	243.515	491.181	490.066	217.190	472.792	471.153	412.057	471.636	329.883	175.453	521.386	464.313	408.310	501.937	0.00048904	0.00043426	9.2302e-05	1479.7	3.4992e-06	4.5676e-06	1556.3	310.34	4.9906e-06	3.4497e-06	385.59	109.45	85.979	24.617	3.6593e-06	34.209	0.00016228	5.8254e-05	1.5142e-05	1439.2	9.279e-07	6.587e-07	1515.3	303.07	9.6516e-07	5.1841e-07	378.1	107.54	84.322	24.38	6.5329e-07	34.188	516.947	250.291	252.131	179.951	290.387	326.397	179.676	186.690	282.197	323.331	186.821	192.973	192.300	200.380	290.340	200.263	-8191	255	
21089.682	1	1	0	0	0.13289	0.31932	0.12698	0.3375	0.14738	0.28715	0.21036	0.21172	0.21378	0.23499	0.15275	0.15184	0.052949	0.16574	0.10012	0.36308	-2.1958	-2.7458	-2.3583	-2.6146	-2.7083	-2.3292	-2.7708	-2.5542	-2.5167	-2.7042	-2.2854	-2.5938	-2.6875	-2.4979	-2.7	-2.4562	285.914	235.294	505.120	471.440	191.133	421.279	446.552	209.099	408.934	239.695	420.584	226.975	395.409	389.191	173.755	473.130	0.00052178	0.00038749	0.00010759	1481.4	3.4384e-06	3.1609e-06	1563.6	310.83	4.0693e-06	4.4298e-06	385.73	109.68	86.457	24.697	3.9221e-06	34.243	0.00016657	5.492e-05	1.4818e-05	1441.5	8.2939e-07	6.1972e-07	1516.4	304.15	9.7381e-07	5.3852e-07	378.01	107.65	84.297	24.461	7.283e-07	34.12	515.421	264.657	257.209	180.071	287.148	325.407	179.930	186.856	281.685	329.992	186.686	192.357	192.071	200.231	299.535	199.817	-8191	255	
21089.777	1	1	0	0	0.27614	0.085454	0.25409	0.14438	0.12081	0.062662	0.14621	0.14437	0.20446	0.16059	0.11784	0.40793	0.29917	0.20885	0.20356	0.0922	-2.1333	-2.8042	-2.2542	-2.6417	-2.6354	-2.3958	-2.9396	-2.6021	-2.3187	-2.7625	-2.6542	-2.7854	-2.6125	-2.5271	-2.7854	-2.6292	376.093	527.105	474.504	495.525	431.951	495.762	207.446	457.344	297.089	416.409	443.791	497.998	457.888	373.405	280.850	170.512	0.00052388	0.00040442	0.0001267	1486.5	3.8146e-06	3.9543e-06	1555.3	310.59	4.2992e-06	4.5253e-06	384.38	109.21	86.135	24.819	2.76e-06	34.417	0.00017272	5.4474e-05	1.6765e-05	1442.2	9.4281e-07	5.7414e-07	1515.9	303.75	9.4787e-07	5.5994e-07	377.64	107.57	84.107	24.437	6.5392e-07	34.198	515.305	263.475	250.029	180.204	279.564	320.038	179.843	186.437	286.854	325.928	186.753	192.488	192.084	200.298	293.126	199.797	-8191	255	
21089.873	1	1	0	0	0.14882	0.057936	0.29943	0.24381	0.022331	0.12852	0.24901	0.39079	0.31071	0.15863	0.26513	0.22022	0.10391	0.19805	0.34302	0.028843	-1.9312	-2.6688	-2.6417	-2.6958	-2.7792	-2.4271	-2.9958	-2.8458	-2.6229	-2.6063	-2.6167	-2.7125	-2.7687	-2.4271	-2.65	-2.5625	453.147	465.664	173.310	445.093	465.258	182.399	509.105	462.677	428.925	446.113	451.224	463.304	402.252	412.439	368.442	180.809	0.00052872	0.00027811	9.2146e-05	1484.9	3.7821e-06	4.2244e-06	1555.7	311.36	5.5305e-06	2.8888e-06	385.89	109.21	86.092	24.599	4.0781e-06	34.394	0.0001747	6.0606e-05	1.4934e-05	1443.8	9.425e-07	6.6696e-07	1517.5	304.13	1.0402e-06	5.4906e-07	377.91	107.67	84.435	24.417	7.552e-07	34.197	518.253	263.212	250.508	179.974	274.892	318.120	179.836	186.555	288.149	322.634	186.645	192.528	192.347	200.325	303.654	199.978	-8191	255	
21089.994	1	1	0	0	0.37867	0.2152	0.17027	0.028249	0.13199	0.088043	0.16282	0.48412	0.26464	0.12465	0.25413	0.13125	0.045444	0.055947	0.33452	0.16934	-1.9979	-2.6521	-2.5167	-2.55	-2.7708	-2.4958	-2.8417	-2.8438	-2.3312	-2.7125	-2.6354	-2.5104	-2.6771	-2.5417	-2.6229	-2.75	270.895	329.789	251.496	462.410	505.255	512.010	458.102	454.327	170.776	321.120	498.772	466.174	291.961	223.147	382.327	452.403	0.00051081	0.00041083	9.6102e-05	1483.8	4.4983e-06	3.4839e-06	1564.4	311.19	6.1473e-06	5.4832e-06	387.57	109.85	86.702	24.663	4.1349e-06	34.394	0.00017257	5.8641e-05	1.7197e-05	1442.9	9.9347e-07	6.6696e-07	1520.4	304.06	9.908e-07	5.8762e-07	378.49	107.72	84.427	24.488	7.2545e-07	34.267	515.828	274.782	253.673	179.911	286.261	316.382	179.857	186.862	281.282	314.584	186.506	192.621	191.950	200.661	300.458	199.769	-8191	255	
21090.092	1	1	0	0	0.098829	0.15665	0.11819	0.15973	0.19241	0.15472	0.21707	0.37594	0.27397	0.16726	0.29324	0.19806	0.096696	0.081298	0.20783	0.2418	-1.925	-2.8917	-2.6813	-2.6458	-2.6667	-2.4354	-2.7729	-2.6562	-2.4375	-2.6271	-2.6646	-2.475	-2.6854	-2.5292	-2.8083	-2.8688	474.411	416.738	442.425	474.682	195.467	225.432	441.654	477.368	377.253	386.613	453.319	500.367	485.931	256.076	363.720	298.171	0.00052252	0.00050553	9.8698e-05	1481.4	4.7313e-06	3.7111e-06	1557.8	312.37	4.166e-06	4.11e-06	386.75	109.46	86.212	24.6	4.5856e-06	34.407	0.00017474	6.3761e-05	1.624e-05	1443.5	9.512e-07	5.4837e-07	1519	304.13	9.3335e-07	5.4313e-07	378.93	107.71	84.437	24.399	6.9855e-07	34.31	516.362	254.418	275.662	180.216	280.696	320.859	179.652	186.421	282.069	321.514	186.767	192.587	191.932	200.414	312.320	199.998	-8191	255	
21090.188	1	1	0	0	0.11356	0.19751	0.16021	0.23452	0.12977	0.14568	0.34468	0.10253	0.12014	0.054837	0.29958	0.14009	0.17637	0.4116	0.27469	0.070762	-1.9833	-2.6542	-2.6104	-2.5979	-2.6854	-2.6708	-2.6646	-2.9437	-2.3583	-2.8083	-2.775	-2.3833	-2.8	-2.4625	-2.3042	-2.8708	369.118	259.585	512.953	172.106	169.552	190.382	516.803	369.149	397.516	375.800	448.755	474.972	495.681	168.930	256.927	463.992	0.00054458	0.00041192	0.00012541	1482.7	3.3469e-06	4.4573e-06	1560	312.89	4.2371e-06	2.3655e-06	384.82	109.11	86.994	24.643	3.9603e-06	34.186	0.00017403	5.4742e-05	1.5799e-05	1441.6	9.1019e-07	6.2798e-07	1516.9	304.36	9.3088e-07	5.1775e-07	377.91	107.32	84.276	24.403	7.4697e-07	34.009	516.302	266.260	249.891	180.030	283.139	333.906	179.863	186.749	289.038	327.984	186.775	192.415	192.293	200.576	304.799	199.600	-8191	255	
21090.307	1	1	0	0	0.313	0.17359	0.17393	0.21793	0.07977	0.088182	0.13998	0.24795	0.20725	0.18779	0.21944	0.079268	0.18623	0.18433	0.051584	0.14288	-2.0438	-2.4708	-2.7271	-2.65	-2.7771	-2.5917	-2.7479	-2.8875	-2.4688	-2.6312	-2.9688	-2.7021	-2.8167	-2.7458	-2.3854	-2.7771	339.616	198.494	281.116	458.894	451.447	375.765	463.118	501.344	516.313	402.278	526.303	460.497	377.295	517.852	303.215	343.200	0.00048041	0.00029575	0.00011258	1482.5	4.6466e-06	2.653e-06	1551.9	311.31	6.3912e-06	4.0372e-06	384.46	108.33	86.007	24.494	3.9438e-06	33.925	0.00016859	6.2392e-05	1.2563e-05	1440	9.0584e-07	5.3185e-07	1513.1	302.77	9.7659e-07	5.4774e-07	375.67	106.92	83.711	24.23	7.8717e-07	33.926	515.781	277.164	250.694	179.939	280.305	305.913	179.801	186.784	285.320	328.810	186.506	192.865	192.548	200.214	296.158	200.230	-8191	255	
21090.377	1	1	0	0	0.14316	0.197	0.19433	0.34148	0.12065	0.17793	0.37604	0.32249	0.27923	0.15194	0.16579	0.20831	0.16946	0.10232	0.21117	0.12503	-2.0438	-2.5812	-2.6875	-2.6417	-2.6937	-2.6354	-2.6458	-2.7354	-2.525	-2.4479	-2.9167	-2.5312	-2.8604	-2.6729	-2.3042	-2.8542	435.078	444.457	247.675	514.369	282.737	376.154	463.260	234.886	259.094	205.280	179.175	229.501	473.448	280.891	282.940	407.364	0.00052894	0.00046769	0.0001074	1473.2	3.0325e-06	3.1992e-06	1541.1	306.3	4.7724e-06	3.3056e-06	381.03	107.55	84.752	24.186	3.5348e-06	33.564	0.00016824	6.4446e-05	1.4909e-05	1431.3	8.99e-07	5.0344e-07	1503.9	299.74	8.9598e-07	5.7147e-07	373.03	105.6	82.698	23.975	7.8306e-07	33.505	516.458	263.739	260.744	180.204	282.022	333.747	179.813	186.771	291.305	342.499	186.409	192.611	192.584	200.649	297.154	200.497	-8191	255	
21090.475	1	1	0	0	0.33404	0.12067	0.11299	0.16385	0.13873	0.1968	0.2214	0.43788	0.18322	0.058526	0.10304	0.32843	0.14416	0.14766	0.087457	0.21552	-2.0812	-2.3937	-2.7271	-2.6167	-2.5479	-2.6188	-2.6271	-2.8	-2.4458	-2.7292	-2.8271	-2.3792	-2.5854	-2.8937	-2.4333	-2.6625	235.455	299.037	201.456	421.544	475.708	262.197	499.381	175.414	308.735	247.312	503.380	504.180	427.595	407.690	439.911	435.098	0.00049649	0.00042163	0.00010175	1460.9	4.408e-06	2.4705e-06	1531.8	306.96	4.6042e-06	3.3754e-06	379.69	107.63	84.119	24.027	2.7776e-06	33.352	0.00016298	6.1886e-05	1.3021e-05	1418.6	9.5058e-07	5.8867e-07	1493.3	299.1	9.2408e-07	5.8729e-07	371.47	105.24	82.23	23.823	6.7101e-07	33.507	516.252	268.597	262.423	179.985	284.702	344.038	179.790	186.707	277.396	327.437	186.582	192.915	192.322	200.539	304.763	200.273	-8191	255	
21090.570	1	1	0	0	0.22299	0.095413	0.27079	0.2884	0.16565	0.16063	0.2635	0.0066028	0.18046	0.14214	0.24266	0.11099	0.06065	0.11298	0.18782	0.14553	-2.1375	-2.4062	-2.7167	-2.5271	-2.4625	-2.8688	-2.5979	-2.7333	-2.7083	-2.4688	-2.8542	-2.6708	-2.4583	-2.8021	-2.5417	-2.8292	432.531	318.682	372.371	505.233	438.160	452.036	486.389	476.418	231.223	279.538	176.715	175.764	493.786	180.560	237.240	309.306	0.00051575	0.00036444	0.00010975	1449.8	3.3725e-06	4.0204e-06	1525	304.48	4.6736e-06	4.5453e-06	375.76	106.13	84.319	24.177	3.9399e-06	33.549	0.0001642	5.7331e-05	1.5458e-05	1409.2	9.4188e-07	5.6389e-07	1484.6	296.72	9.0617e-07	6.0542e-07	369.77	104.78	81.981	23.882	7.5014e-07	33.487	515.732	263.477	273.271	179.886	284.820	324.927	179.910	186.756	279.245	318.875	186.842	192.875	192.334	200.785	315.955	200.263	-8191	255	
21090.689	1	1	0	0	0.10311	0.1481	0.21079	0.20283	0.17654	0.12036	0.1311	0.11477	0.18868	0.16595	0.07469	0.12681	0.13044	0.33693	0.15794	0.23409	-2.2625	-2.3021	-2.7729	-2.5687	-2.65	-2.8646	-2.5958	-2.7604	-2.7542	-2.5271	-2.8812	-2.7125	-2.2542	-2.775	-2.3063	-2.7021	433.357	310.128	209.635	440.307	278.231	410.425	380.051	229.856	479.632	378.504	494.994	464.597	464.158	207.822	255.057	472.790	0.00048958	0.0002858	0.00012508	1444.1	3.9258e-06	3.5118e-06	1519.2	302.71	4.2354e-06	3.237e-06	376.78	106.52	84.317	24.104	3.2559e-06	33.566	0.00016157	5.8463e-05	1.367e-05	1404.1	8.6823e-07	5.4804e-07	1480.2	296.04	8.0456e-07	5.8927e-07	370.02	104.87	82.314	23.888	7.2039e-07	33.536	515.542	249.537	265.538	179.986	270.241	333.989	179.736	186.738	288.679	325.924	186.849	192.972	193.277	201.073	323.239	200.271	-8191	255	
21090.785	1	1	0	0	0.25919	0.20729	0.25228	0.12962	0.1442	0.090402	0.34962	0.10172	0.055341	0.16789	0.054202	0.29964	0.25568	0.16316	0.015477	0.3486	-2.1021	-2.3896	-2.8146	-2.8792	-2.4938	-2.7146	-2.6667	-2.7896	-2.7208	-2.3667	-3.0646	-2.7146	-2.45	-2.8417	-2.4292	-2.6375	258.983	519.165	452.809	524.752	513.708	175.185	426.281	282.375	344.492	411.330	242.506	296.305	224.604	444.496	339.726	510.295	0.00050419	0.00032079	0.00011193	1447.3	4.3602e-06	3.3603e-06	1519.2	304.58	4.9017e-06	2.8986e-06	377.85	107.34	84.545	24.357	3.2921e-06	33.569	0.00016687	5.8879e-05	1.5026e-05	1405.3	9.2728e-07	4.6942e-07	1482.3	296.99	8.9536e-07	5.1347e-07	370.23	105.29	82.788	24.069	6.4696e-07	33.608	519.625	267.922	252.270	179.881	285.237	330.439	179.854	186.741	281.918	327.876	186.769	192.676	191.765	200.806	300.838	199.979	-8191	255	
21090.883	1	1	0	0	0.11346	0.058312	0.15242	0.18277	0.20253	0.20036	0.16575	0.15356	0.074398	0.26246	0.25735	0.085824	0.2647	0.27894	0.04566	0.2556	-2.3417	-2.4146	-2.6562	-2.7188	-2.4646	-2.8125	-2.7125	-2.7292	-2.8375	-2.5312	-2.5938	-2.7333	-2.4229	-2.7438	-2.5667	-2.6063	505.333	211.960	389.182	455.692	262.205	179.895	349.300	300.004	389.887	437.683	525.941	188.310	231.443	413.409	284.610	283.123	0.00051055	0.00041367	9.6113e-05	1453.9	3.6854e-06	3.9687e-06	1532.4	305.17	5.5621e-06	4.3027e-06	380.75	108.29	85.803	24.568	3.5378e-06	33.85	0.00015702	6.3434e-05	1.525e-05	1412.8	9.9564e-07	5.444e-07	1489.5	298.7	9.0401e-07	6.1893e-07	373.55	106.43	83.781	24.263	7.1247e-07	33.899	514.654	254.140	263.019	180.071	285.675	333.504	179.886	186.644	288.738	320.546	186.537	192.624	192.354	200.920	295.316	200.112	-8191	255	
21090.953	1	1	0	0	0.16915	0.26349	0.17433	0.359	0.21183	0.22268	0.17293	0.3201	0.20407	0.061906	0.22767	0.1553	0.14225	0.094046	0.17696	0.18339	-2.2875	-2.4396	-2.5375	-2.9562	-2.5021	-2.8167	-2.7521	-2.5875	-2.8125	-2.5312	-2.8417	-2.7938	-2.5583	-2.7896	-2.5854	-2.5458	289.968	339.508	178.851	474.283	187.499	219.791	487.256	522.062	388.088	422.340	421.964	481.319	442.164	494.308	346.296	446.480	0.00049804	0.0003919	6.6454e-05	1466.8	3.6203e-06	3.9314e-06	1538	307.4	4.1767e-06	4.3628e-06	382	108.5	85.626	24.534	3.1743e-06	33.985	0.00015878	5.8641e-05	1.2804e-05	1423	9.4716e-07	5.5266e-07	1500.3	300.66	8.654e-07	6.074e-07	374.03	106.69	83.834	24.283	6.286e-07	33.946	519.713	263.734	262.295	179.878	286.716	319.283	179.877	186.854	284.807	327.401	186.795	192.923	192.199	200.622	310.951	200.131	-8191	255	
21091.074	1	1	0	0	0.18843	0.078422	0.10909	0.15282	0.063883	0.20046	0.2223	0.063272	0.11003	0.055601	0.10168	0.10754	0.20059	0.038866	0.054086	0.26561	-2.4833	-2.325	-2.4917	-2.9417	-2.5604	-2.7229	-2.5958	-2.3896	-2.8021	-2.7021	-2.5646	-2.8771	-2.4604	-2.7792	-2.6792	-2.5354	290.639	290.834	257.565	311.921	477.680	341.188	520.964	308.347	170.095	340.359	492.737	496.906	364.709	278.021	272.810	206.755	0.00048404	0.00043341	0.00011121	1467.7	5.1159e-06	3.9572e-06	1542.6	307.96	4.8327e-06	2.0622e-06	382.19	108.5	85.991	24.573	2.7909e-06	34.232	0.00015628	6.5071e-05	1.4244e-05	1425.4	9.9191e-07	4.7008e-07	1503.8	301.65	9.0061e-07	5.2566e-07	375.48	106.91	83.857	24.297	6.5487e-07	34.097	517.910	254.444	271.602	179.819	279.468	344.672	179.650	186.868	293.357	342.014	186.801	192.904	191.970	200.042	303.200	200.206	-8191	255	
21091.172	1	1	0	0	0.11997	0.15165	0.224	0.17643	0.11765	0.18515	0.28813	0.14657	0.1116	0.39629	0.32028	0.1399	0.22049	0.082382	0.31282	0.13181	-2.3917	-2.4521	-2.7021	-3.0708	-2.4792	-2.6937	-2.8708	-2.4292	-2.7687	-2.6063	-2.6562	-2.9292	-2.3667	-2.7708	-2.7188	-2.4771	268.281	286.004	215.050	451.489	429.578	214.442	462.812	422.543	424.745	309.314	486.584	498.660	247.045	262.993	505.535	295.984	0.00051818	0.0003508	8.5852e-05	1478.6	4.7597e-06	4.557e-06	1556.5	310.44	6.0434e-06	3.5356e-06	383.44	108.95	86.577	24.587	4.0067e-06	34.428	0.00016837	5.0604e-05	1.4352e-05	1431.6	9.1174e-07	6.0453e-07	1509.1	302.8	9.1235e-07	5.7477e-07	376.74	107.21	84.254	24.369	6.7639e-07	34.226	518.088	259.278	241.042	179.834	279.819	317.698	179.734	186.760	290.255	329.184	186.489	192.595	192.267	200.433	298.195	200.057	-8191	255	
21091.268	1	1	0	0	0.25879	0.14047	0.11659	0.1146	0.34923	0.37865	0.41137	0.17728	0.12606	0.18095	0.21695	0.044882	0.32711	0.18308	0.10902	0.37138	-2.525	-2.5625	-2.3646	-3.0958	-2.3896	-2.7667	-3.0167	-2.6396	-2.8	-2.7562	-2.4979	-2.9146	-2.5792	-2.6312	-2.7062	-2.4854	355.927	232.226	494.815	500.349	279.460	426.548	471.341	495.687	217.406	281.089	482.654	455.693	401.048	452.255	507.479	528.252	0.0004948	0.00043464	9.4399e-05	1472.2	4.8839e-06	4.4526e-06	1549.5	310.24	4.073e-06	2.9839e-06	383.41	109.1	86.332	24.815	2.8957e-06	34.298	0.00015724	5.4325e-05	1.5442e-05	1431.2	1.0171e-06	5.966e-07	1508.7	302.56	8.5892e-07	4.7755e-07	376.05	107.26	84.232	24.496	6.9285e-07	34.217	517.340	263.807	264.219	180.252	280.359	317.915	179.729	186.647	269.120	327.053	186.742	192.470	192.424	200.693	307.809	199.864	-8191	255	
21091.387	1	1	0	0	0.15992	0.23488	0.056632	0.10171	0.1088	0.17744	0.24809	0.088066	0.060699	0.15445	0.22744	0.092738	0.084655	0.16403	0.16352	0.11757	-2.1917	-2.7417	-2.5646	-2.9625	-2.4875	-2.7104	-2.9229	-2.6708	-2.6604	-2.5917	-2.5896	-2.8167	-2.5292	-2.6375	-2.8667	-2.4083	478.408	364.077	180.906	525.789	496.195	266.614	484.531	452.902	423.854	361.862	218.447	418.532	516.845	397.345	357.207	205.066	0.00051282	0.0003861	8.9469e-05	1477.7	2.9995e-06	2.97e-06	1550.9	309.74	4.6566e-06	3.4323e-06	383.69	109.1	86.986	24.57	3.0996e-06	34.248	0.00016761	5.4772e-05	1.4992e-05	1433.7	9.5587e-07	5.5167e-07	1508.2	302.51	9.3057e-07	5.2039e-07	376.07	107.54	84.326	24.425	6.574e-07	34.237	517.495	273.170	248.975	179.985	295.620	315.990	179.989	186.652	275.239	315.755	186.568	192.271	192.016	200.103	319.522	199.862	-8191	255	
21091.482	1	1	0	0	0.11345	0.27936	0.15544	0.17834	0.31313	0.18891	0.25953	0.16887	0.089051	0.20139	0.080125	0.16545	0.16037	0.18462	0.16487	0.28428	-2.2625	-2.6792	-2.475	-2.7958	-2.3833	-2.5792	-2.9604	-2.6937	-2.5479	-2.6792	-2.6312	-2.9938	-2.6167	-2.5104	-2.8063	-2.4667	470.536	231.934	509.112	177.456	463.205	519.241	443.739	221.061	442.127	332.230	232.279	480.449	455.540	183.311	299.474	278.201	0.0005036	0.00032629	8.3507e-05	1481.2	5.3643e-06	3.2585e-06	1551.7	311.41	3.7305e-06	3.5036e-06	384.11	109.75	86.043	24.805	2.8026e-06	34.632	0.00016889	5.5039e-05	1.4052e-05	1436.3	9.2603e-07	5.7215e-07	1512.9	303.84	8.5614e-07	5.3983e-07	377.32	107.67	84.347	24.575	6.4822e-07	34.348	516.245	256.314	231.505	180.141	290.339	330.063	179.555	186.683	288.808	320.004	186.675	192.091	192.469	200.706	304.055	200.280	-8191	255	
21091.578	1	1	0	0	0.090145	0.23592	0.12439	0.10242	0.27356	0.12056	0.28576	0.28555	0.045156	0.054346	0.39068	0.25495	0.096127	0.12847	0.17183	0.13996	-2.1188	-2.7521	-2.2979	-2.8167	-2.5771	-2.425	-3.1396	-2.5583	-2.575	-2.8729	-2.7729	-2.95	-2.5958	-2.6125	-2.75	-2.5312	281.993	442.007	298.722	509.512	448.871	407.159	364.901	411.487	267.953	493.583	467.486	371.037	305.314	250.839	221.616	474.137	0.00050234	0.00026059	0.00010938	1478.5	4.1744e-06	2.9725e-06	1554.6	312.2	4.8663e-06	4.7212e-06	386.49	110.01	86.306	24.78	3.9857e-06	34.311	0.000164	5.1408e-05	1.644e-05	1440.2	9.3411e-07	5.9561e-07	1514.7	304.14	8.8486e-07	5.5895e-07	378.38	108.11	84.52	24.525	6.7671e-07	34.367	515.996	272.450	253.188	180.091	288.141	320.369	179.777	186.554	282.737	331.346	186.471	192.494	192.471	200.373	306.967	199.852	-8191	255	
21091.676	1	1	0	0	0.21388	0.11056	0.10866	0.17457	0.12484	0.056573	0.15849	0.16147	0.3047	0.15847	0.096448	0.31475	0.20336	0.057805	0.17195	0.30654	-2.1708	-2.8021	-2.4583	-2.9417	-2.6667	-2.5187	-3.0729	-2.6063	-2.6417	-2.625	-2.575	-2.6667	-2.5896	-2.4625	-2.6375	-2.6229	486.330	313.637	368.891	435.762	347.275	229.760	479.184	374.905	314.421	255.642	509.156	527.958	284.963	188.381	363.502	465.715	0.0005364	0.00033836	0.00013435	1478.4	3.4277e-06	4.0982e-06	1553.9	311.06	4.7829e-06	4.4776e-06	387.88	109.98	86.534	24.821	3.4808e-06	34.57	0.00016787	5.5367e-05	1.5974e-05	1441.6	8.9309e-07	5.9297e-07	1515.7	304.38	9.5312e-07	5.2731e-07	379.01	107.96	84.459	24.565	7.0013e-07	34.388	515.455	274.771	243.268	179.784	294.441	338.983	180.127	186.635	297.774	309.821	186.833	192.943	192.435	200.312	312.885	200.163	-8191	255	
21091.771	1	1	0	0	0.11321	0.23307	0.21163	0.38293	0.12169	0.074989	0.36925	0.27532	0.10879	0.0064432	0.20446	0.17182	0.17191	0.15156	0.24487	0.26531	-2.1917	-2.8438	-2.4875	-2.7958	-2.6104	-2.575	-3.0208	-2.6375	-2.6562	-2.7167	-2.8021	-2.7333	-2.7188	-2.4729	-2.7646	-2.725	489.470	307.233	361.548	472.937	224.746	445.270	424.432	500.187	264.335	281.851	423.163	453.557	290.758	314.306	270.601	439.423	0.00054749	0.00041162	8.8509e-05	1489.4	3.6399e-06	3.1637e-06	1558.1	312.61	5.3175e-06	3.0338e-06	385.62	110.49	87.31	24.826	3.5591e-06	34.814	0.00017568	4.9473e-05	1.5076e-05	1444.4	9.6301e-07	5.7777e-07	1519.6	305.13	9.874e-07	5.5203e-07	379.46	108.23	84.675	24.662	6.2765e-07	34.545	516.521	251.223	259.391	179.950	287.693	328.829	179.821	186.698	272.290	341.853	186.655	192.406	192.271	200.585	307.740	200.497	-8191	255	
21091.867	1	1	0	0	0.16031	0.36211	0.096611	0.047279	0.13456	0.10863	0.17031	0.15644	0.23753	0.082301	0.20462	0.20287	0.15747	0.22423	0.15471	0.088217	-2.0729	-2.6	-2.4875	-2.5938	-2.8292	-2.3625	-2.8708	-2.8333	-2.4062	-2.825	-2.6437	-2.7146	-2.75	-2.5271	-2.5917	-2.75	174.740	338.482	258.329	495.907	377.561	226.386	520.878	396.560	455.396	255.070	507.310	334.563	292.655	292.127	476.399	420.884	0.00050663	0.00036725	0.00014019	1487.1	4.1733e-06	5.036e-06	1564.1	312.24	4.9995e-06	3.8436e-06	388.12	109.76	86.683	24.674	3.0681e-06	34.221	0.00016398	4.858e-05	1.7688e-05	1443.7	8.9962e-07	6.0089e-07	1521.5	304.94	9.352e-07	4.9501e-07	378.87	108.07	84.598	24.568	7.0836e-07	34.345	517.048	252.541	269.962	180.097	278.931	320.818	179.818	186.594	286.541	314.132	186.609	193.034	192.362	200.372	308.059	200.088	-8191	255	
21091.988	1	1	0	0	0.09368	0.11355	0.21325	0.30057	0.21777	0.070352	0.19894	0.35413	0.11103	0.087982	0.29411	0.13851	0.18925	0.27798	0.030975	0.041971	-2.1104	-2.7375	-2.7417	-2.7188	-2.7417	-2.4562	-2.9354	-2.7854	-2.5333	-2.8458	-2.4458	-2.5667	-2.9062	-2.5125	-2.8	-2.7375	345.367	188.027	453.814	522.232	264.132	367.616	420.919	523.001	522.058	308.921	498.878	437.021	470.762	501.070	472.585	168.677	0.00055757	0.0004059	0.00011499	1494	3.1635e-06	2.8684e-06	1565.4	313.44	4.6117e-06	3.7799e-06	385.46	110.11	86.956	24.859	3.5142e-06	34.698	0.00017812	5.7718e-05	1.5159e-05	1447.3	8.4648e-07	5.6456e-07	1523.8	304.68	9.3829e-07	5.751e-07	377.66	108.17	84.932	24.6	7.2703e-07	34.413	516.782	262.197	247.002	180.179	279.949	323.755	179.856	186.645	292.152	324.585	186.125	192.568	192.616	200.186	318.419	199.709	-8191	255	
21092.084	1	1	0	0	0.36666	0.15699	0.29482	0.23935	0.2857	0.14362	0.57034	0.21921	0.15556	0.30048	0.21492	0.21185	0.19474	0.098664	0.1348	0.053694	-2.0312	-2.6562	-2.5229	-2.7083	-2.7729	-2.5146	-2.6813	-2.9583	-2.4604	-2.7417	-2.8417	-2.5208	-2.7812	-2.5958	-2.7542	-2.8833	490.745	196.139	218.871	512.995	224.885	344.651	476.374	510.032	339.293	391.023	491.500	202.200	489.990	232.264	382.594	238.386	0.00054253	0.00045317	0.00010015	1487.2	3.8952e-06	3.0645e-06	1558.3	312.44	5.3677e-06	3.9014e-06	386.12	109.8	87.19	24.723	3.3385e-06	34.534	0.00017285	5.9832e-05	1.5026e-05	1444.5	9.9782e-07	5.6456e-07	1520.2	304.9	9.7813e-07	5.0951e-07	378.61	108.33	84.898	24.599	7.6502e-07	34.447	515.349	261.652	263.801	179.949	275.837	319.440	179.722	186.559	281.337	327.385	186.624	192.652	192.189	200.282	304.745	199.964	-8191	255	
21092.180	1	1	0	0	0.11597	0.27323	0.13317	0.30902	0.076944	0.068319	0.17974	0.41695	0.19161	0.10542	0.07343	0.09918	0.090166	0.34403	0.21619	0.15631	-1.9396	-2.7667	-2.5667	-2.4292	-2.9854	-2.5354	-2.6667	-2.9646	-2.5646	-2.7896	-2.5604	-2.5146	-2.8646	-2.5625	-2.525	-2.8021	437.410	500.504	519.273	441.132	507.580	217.234	490.077	421.895	171.944	241.422	304.001	509.753	493.928	253.732	266.088	508.092	0.00054755	0.000357	0.00010548	1495.5	4.4781e-06	4.6993e-06	1566.3	313.23	4.3807e-06	4.055e-06	388.89	110.51	86.263	24.848	4.3582e-06	34.524	0.00017511	5.8611e-05	1.4992e-05	1450.3	9.6612e-07	6.1543e-07	1525.4	305.4	9.3366e-07	5.4511e-07	379.86	108.63	84.938	24.7	8.0521e-07	34.561	517.969	260.526	246.096	180.209	278.643	315.867	179.910	186.850	287.734	329.428	186.624	192.303	192.248	200.128	309.895	199.515	-8191	255	
21092.252	1	1	0	0	0.16075	0.21217	0.18097	0.057282	0.35771	0.13385	0.22223	0.19061	0.3717	0.087827	0.040729	0.16483	0.24037	0.16862	0.049243	0.017944	-2.3021	-2.7354	-2.5646	-2.5167	-2.7188	-2.6375	-2.7625	-3.1292	-2.4125	-2.7479	-2.8646	-2.6167	-2.8021	-2.5354	-2.4833	-2.9875	298.931	373.445	183.233	459.815	337.429	252.890	453.565	454.999	419.802	474.916	444.317	492.392	510.221	516.874	365.563	313.823	0.00051802	0.00043394	0.00013841	1490.6	3.6993e-06	3.149e-06	1575.1	313.86	4.5999e-06	4.3527e-06	388.7	110.88	87.477	24.821	3.4363e-06	34.897	0.00016783	5.8879e-05	1.5001e-05	1452.4	8.9744e-07	4.7074e-07	1528.9	305.96	9.213e-07	5.8861e-07	380.36	109.02	85.392	24.773	6.6626e-07	34.606	515.508	253.502	259.721	179.994	280.583	309.903	179.724	186.742	276.499	329.008	186.389	192.469	192.024	200.783	299.555	199.968	-8191	255	
21092.369	1	1	0	0	0.16217	0.23574	0.15439	0.30662	0.020955	0.19499	0.072392	0.01862	0.1597	0.11491	0.15837	0.15132	0.15559	0.10459	0.11366	0.12972	-2	-2.45	-2.6437	-2.4417	-2.7083	-2.6792	-2.8	-3.0167	-2.5708	-2.7562	-2.875	-2.5354	-2.8063	-2.6875	-2.6167	-2.6667	307.140	378.450	203.574	495.415	306.195	442.736	231.965	314.913	509.293	239.515	434.083	396.269	303.784	518.486	405.430	347.232	0.00053898	0.00030265	0.00010891	1496	4.4925e-06	4.7634e-06	1565.5	314.41	5.2218e-06	4.8845e-06	388.64	110.52	87.212	24.953	3.3574e-06	34.731	0.0001777	6.0904e-05	1.6573e-05	1454.7	9.453e-07	5.705e-07	1528.4	306.61	9.6176e-07	6.0146e-07	380.58	108.85	85.491	24.755	6.8399e-07	34.601	515.707	253.181	262.273	179.860	281.566	316.952	179.696	186.779	290.106	326.837	186.868	192.657	192.093	199.989	303.371	200.094	-8191	255	
21092.467	1	1	0	0	0.20783	0.067169	0.24292	0.16733	0.19714	0.11735	0.2878	0.18966	0.13139	0.41555	0.27778	0.14307	0.10428	0.094547	0.060359	0.072346	-1.8208	-2.6167	-2.975	-2.5708	-2.775	-2.8438	-2.8312	-2.8396	-2.7938	-2.6229	-2.8854	-2.6083	-2.7542	-2.8229	-2.45	-2.9292	473.509	296.641	250.068	423.092	496.865	248.800	474.468	266.950	187.534	503.568	502.868	448.102	302.271	217.637	304.536	219.404	0.00052693	0.00040192	8.84e-05	1498.9	4.4545e-06	4.564e-06	1573.8	315.19	5.114e-06	4.9199e-06	387.91	110.3	87.23	25.094	3.6585e-06	34.565	0.00017268	6.3463e-05	1.3129e-05	1455	9.164e-07	4.9617e-07	1531.9	306.61	8.8857e-07	5.4379e-07	381.16	108.73	85.406	24.83	7.0424e-07	34.631	517.789	282.560	265.462	180.144	282.254	341.927	179.640	186.488	280.230	328.032	186.618	192.660	192.344	200.715	302.049	200.109	-8191	255	
21092.562	1	1	0	0	0.20457	0.15756	0.23199	0.23457	0.25402	0.14608	0.46955	0.2419	0.2306	0.19508	0.23858	0.089054	0.11753	0.095871	0.29642	0.14949	-2.1833	-2.2771	-2.7729	-2.5563	-2.6875	-2.6958	-2.6063	-2.9188	-2.5917	-2.6104	-3.0979	-2.5208	-2.5187	-2.9375	-2.5042	-2.8042	307.117	440.618	252.187	483.104	369.703	176.817	453.364	447.356	271.498	502.837	465.120	464.597	209.644	272.536	314.606	231.471	0.000583	0.00042857	0.00011343	1494.8	4.4783e-06	3.3819e-06	1574.7	313.54	4.4025e-06	3.4044e-06	389.63	110.73	87.481	24.823	3.2567e-06	34.685	0.00017727	5.9207e-05	1.4926e-05	1453.5	1.0009e-06	5.8438e-07	1532.1	306.44	8.654e-07	5.5466e-07	380.92	108.66	85.07	24.69	6.7734e-07	34.583	514.651	268.479	258.205	179.819	284.043	323.001	179.646	186.839	279.757	339.199	186.094	192.513	192.200	200.534	300.948	199.881	-8191	255	
21092.658	1	1	0	0	0.12896	0.13805	0.27692	0.10033	0.17669	0.054493	0.32644	0.12362	0.21128	0.075928	0.20478	0.13834	0.21739	0.21977	0.047632	0.040357	-2.1542	-2.5479	-2.6958	-2.7021	-2.7208	-2.9042	-2.4042	-2.8937	-2.6813	-2.4813	-2.9625	-2.5583	-2.6979	-2.7438	-2.5563	-2.8958	303.105	272.059	187.035	175.604	381.291	292.559	475.881	472.540	316.248	515.744	498.451	193.509	420.596	186.830	321.456	221.122	0.0005353	0.00042678	9.9843e-05	1496.2	4.5229e-06	3.1914e-06	1572.6	314.71	3.9562e-06	4.4929e-06	389.29	110.44	86.308	25.135	3.5918e-06	34.613	0.00017422	5.9088e-05	1.4735e-05	1456.8	9.2914e-07	4.9684e-07	1531.2	306.15	8.3822e-07	5.3423e-07	381.13	108.8	85.136	24.783	6.7544e-07	34.589	518.767	265.217	251.400	180.013	288.563	328.288	179.711	186.738	277.318	312.805	186.608	192.344	191.994	200.176	296.050	200.234	-8191	255	
21092.779	1	1	0	0	0.18403	0.2017	0.22396	0.10212	0.22888	0.087356	0.18969	0.21394	0.22711	0.11124	0.21582	0.19651	0.43759	0.032913	0.07227	0.16855	-2.2979	-2.2313	-2.8854	-2.4938	-2.3396	-3.0667	-2.55	-2.6375	-2.5375	-2.4458	-2.7958	-2.8604	-2.4188	-2.7313	-2.3917	-2.7812	441.475	514.126	271.053	174.630	353.971	461.534	491.611	507.939	247.472	249.441	510.986	441.320	470.007	317.450	360.497	291.317	0.00050382	0.00036623	0.00013302	1497.3	4.6674e-06	3.7608e-06	1576.9	314.44	4.6011e-06	3.2937e-06	391.03	110.55	87.149	24.956	2.9389e-06	34.913	0.00016363	5.5873e-05	1.5874e-05	1454.1	9.916e-07	5.6456e-07	1534	306.75	8.8579e-07	5.2599e-07	381.48	108.76	85.237	24.766	6.9285e-07	34.64	517.143	249.574	252.432	179.990	283.830	337.967	179.863	186.794	278.960	329.390	186.553	192.554	192.014	200.372	303.910	199.708	-8191	255	
21092.852	1	1	0	0	0.14134	0.15068	0.21038	0.23623	0.34016	0.13761	0.27856	0.26042	0.17756	0.099767	0.14193	0.29634	0.35218	0.028313	0.18429	0.057424	-2.2625	-2.4083	-2.6542	-2.7604	-2.4688	-2.8063	-2.9125	-2.7812	-2.5938	-2.2	-2.9417	-2.5312	-2.6729	-2.9083	-2.6188	-2.725	332.825	428.352	493.288	233.613	347.856	430.712	492.085	193.287	389.558	371.886	463.479	196.208	297.915	392.176	359.216	422.997	0.00051265	0.00031583	0.00010024	1498.6	3.5437e-06	4.5496e-06	1572.5	312.7	5.465e-06	4.1892e-06	389.27	110.65	87.359	24.99	4.1479e-06	34.764	0.00016555	5.4593e-05	1.4776e-05	1456.4	9.4499e-07	5.2425e-07	1530.7	306.49	8.8671e-07	5.7675e-07	380.95	109.09	85.38	24.743	6.9855e-07	34.707	512.830	253.511	251.126	180.026	278.314	319.393	179.726	186.690	278.323	313.704	186.449	192.642	192.303	200.405	300.561	200.256	-8191	255	
21092.947	1	1	0	0	0.24108	0.14717	0.14701	0.37766	0.11115	0.24542	0.2184	0.16097	0.10152	0.156	0.10337	0.015243	0.11926	0.093737	0.28266	0.10201	-2.2667	-2.4854	-2.6188	-2.7958	-2.4854	-2.7188	-2.7167	-2.5042	-2.75	-2.5896	-2.7458	-2.6437	-2.5438	-2.75	-2.4313	-2.6125	292.704	241.828	306.697	463.403	496.048	452.772	209.676	498.274	305.358	286.639	373.712	469.041	180.924	251.572	281.119	322.338	0.00051447	0.00047526	0.00013441	1500.3	3.8824e-06	4.4484e-06	1575.4	314.14	6.4708e-06	4.2643e-06	388.36	111.5	87.343	24.953	3.5247e-06	34.588	0.00016985	6.0249e-05	1.4784e-05	1456.1	9.8881e-07	5.9924e-07	1532.3	306.54	9.701e-07	6.7232e-07	381	108.92	85.035	24.741	6.0613e-07	34.536	516.920	265.487	240.625	179.775	306.259	324.999	179.911	186.716	287.872	339.691	186.761	192.347	192.704	200.554	286.045	199.795	-8191	255	
21093.068	1	1	0	0	0.018555	0.073606	0.22002	0.2999	0.071681	0.058884	0.18117	0.22984	0.21046	0.12574	0.099489	0.13921	0.13358	0.25129	0.070427	0.19118	-2.4542	-2.5979	-2.7333	-2.8563	-2.3417	-2.8771	-2.7687	-2.525	-2.7875	-2.4396	-2.8354	-2.9125	-2.2854	-2.8937	-2.7188	-2.5542	190.650	177.044	415.008	508.543	230.186	240.022	417.882	481.028	266.349	388.773	304.557	178.939	365.466	490.200	346.256	177.420	0.00050903	0.0003617	0.00010019	1497.9	4.1357e-06	1.461e-06	1572.5	316.3	5.0057e-06	3.6697e-06	389.28	110.65	87.343	24.859	4.4633e-06	34.81	0.00016589	6.129e-05	1.2879e-05	1455.2	9.6457e-07	4.7008e-07	1531.9	307.23	9.3366e-07	5.6093e-07	381.1	108.73	85.161	24.728	6.9412e-07	34.596	515.602	258.535	257.103	179.980	266.937	321.886	179.898	186.332	275.582	329.255	186.527	193.031	192.425	200.636	305.094	199.929	-8191	255	
21093.164	1	1	0	0	0.13832	0.16235	0.15574	0.28949	0.26886	0.23388	0.1738	0.28531	0.23477	0.22972	0.10845	0.049649	0.16242	0.1988	0.086952	0.18977	-2.3833	-2.4104	-2.5583	-2.8833	-2.2292	-2.7854	-2.8521	-2.5125	-2.6521	-2.6167	-2.725	-2.8688	-2.5729	-2.6458	-2.6708	-2.4062	330.454	415.470	485.124	169.358	362.560	461.645	484.316	197.701	206.164	381.375	210.557	318.764	178.038	505.957	502.414	353.577	0.00050121	0.00039743	7.4186e-05	1504.1	3.3438e-06	2.7248e-06	1572.1	313.9	5.2543e-06	3.8888e-06	390.06	110.5	87.813	25.123	4.2094e-06	34.676	0.0001685	5.4087e-05	1.5067e-05	1457.4	9.2293e-07	4.2317e-07	1531.5	306.44	8.5552e-07	5.718e-07	380.48	108.84	85.439	24.826	7.1469e-07	34.599	518.575	257.447	261.777	179.864	289.082	306.906	179.898	186.987	285.088	320.093	186.655	192.510	192.067	200.525	299.978	200.048	-8191	255	
21093.260	1	1	0	0	0.27276	0.18923	0.1111	0.23897	0.18072	0.030262	0.15638	0.248	0.22386	0.11292	0.059539	0.10679	0.047403	0.052037	0.14874	0.13052	-2.3417	-2.6	-2.5896	-2.9271	-2.4917	-2.8229	-2.8438	-2.5958	-2.7667	-2.4688	-2.7042	-3.025	-2.4271	-2.75	-2.775	-2.3667	337.556	469.265	212.888	495.598	434.037	433.294	364.659	426.594	262.796	410.928	251.204	340.937	231.359	525.806	380.181	259.354	0.00051495	0.00036154	0.00013498	1492.7	3.7492e-06	3.764e-06	1572.5	312.93	4.308e-06	4.5993e-06	387.71	110.5	86.819	24.852	2.3497e-06	34.805	0.00016839	5.0306e-05	1.6041e-05	1453.6	9.4406e-07	5.4804e-07	1531	305.66	8.6077e-07	5.049e-07	379.94	108.84	85.023	24.727	6.1087e-07	34.584	516.641	262.047	246.859	179.927	289.749	331.964	179.927	186.586	275.953	330.371	186.454	192.557	192.243	200.525	301.159	199.990	-8191	255	
21093.355	1	1	0	0	0.20215	0.16838	0.25816	0.2416	0.14186	0.020778	0.35071	0.24964	0.27413	0.11982	0.038723	0.16181	0.10892	0.13889	0.20802	0.11412	-2.3812	-2.5208	-2.4813	-2.8021	-2.4813	-2.3458	-3.0104	-2.525	-2.7458	-2.6437	-2.6083	-2.975	-2.7229	-2.6625	-2.7458	-2.7021	195.842	265.297	414.648	523.392	445.390	240.755	465.342	498.108	275.333	452.232	387.531	435.743	203.924	175.060	335.574	443.388	0.00052272	0.00041507	0.00011825	1492.8	4.116e-06	4.1611e-06	1568.4	314.6	5.3361e-06	3.6008e-06	389.67	110.36	87.064	25.07	3.7547e-06	34.721	0.00016955	5.6945e-05	1.5741e-05	1455.9	9.7451e-07	5.8636e-07	1529.9	306.3	8.8702e-07	5.3786e-07	380.93	108.77	85.233	24.738	6.7418e-07	34.532	515.935	263.525	253.835	180.019	278.576	330.190	179.703	186.426	284.039	343.075	186.323	192.625	192.514	200.378	297.102	199.986	-8191	255	
21093.475	1	1	0	0	0.1076	0.29186	0.099622	0.24571	0.27829	0.13543	0.25341	0.17009	0.13096	0.013512	0.18557	0.20414	0.20364	0.11573	0.32934	0.20554	-2.2687	-2.5375	-2.3771	-2.7687	-2.4021	-2.5729	-2.8354	-2.5312	-2.6104	-2.6604	-2.6708	-2.8646	-2.7104	-2.4646	-2.7521	-2.7917	191.347	333.954	321.941	471.124	400.403	517.544	446.374	485.120	485.379	442.648	338.056	197.941	219.541	466.886	449.316	188.771	0.00047904	0.0003514	0.00010885	1500.8	3.1827e-06	3.3519e-06	1566.2	314.92	4.9148e-06	5.3936e-06	388.04	110.08	86.926	24.992	3.3922e-06	34.408	0.0001605	6.0784e-05	1.5983e-05	1455.6	9.5431e-07	5.8173e-07	1530.6	306.45	8.5706e-07	5.8531e-07	380.91	108.33	84.913	24.751	6.0802e-07	34.538	517.399	246.976	258.374	179.950	286.983	321.020	179.569	186.662	273.827	314.750	186.613	192.596	192.519	200.440	315.085	199.803	-8191	255	
21093.547	1	1	0	0	0.030985	0.15164	0.13641	0.41815	0.098855	0.11999	0.22658	0.2189	0.11908	0.32685	0.1963	0.19959	0.22826	0.13911	0.20503	0.019692	-2.3646	-2.7062	-2.5062	-2.9	-2.5146	-2.7604	-3.0417	-2.4604	-2.6833	-2.6854	-2.5917	-2.9333	-2.5875	-2.4917	-2.8646	-2.6083	512.757	452.739	519.938	492.203	238.085	174.358	415.918	345.958	461.166	428.235	447.103	459.062	169.696	453.584	285.911	434.263	0.00058345	0.00047973	0.00010029	1499.4	3.4165e-06	3.0604e-06	1572.3	312.02	4.7868e-06	4.1763e-06	388.29	110.78	87.192	25.091	3.5736e-06	34.666	0.00018842	5.6677e-05	1.659e-05	1455.7	8.9092e-07	6.2501e-07	1531.9	305.79	9.0988e-07	5.6093e-07	380.88	108.73	85.172	24.692	6.4442e-07	34.572	517.076	273.434	252.132	179.974	285.503	304.947	179.667	186.551	279.186	338.167	186.871	192.373	192.516	200.023	311.984	199.965	-8191	255	
21093.645	1	1	0	0	0.096356	0.28193	0.069693	0.24902	0.28531	0.14275	0.27522	0.23704	0.34007	0.17538	0.13175	0.30775	0.11538	0.094938	0.20028	0.11682	-2.2188	-2.8	-2.4458	-2.9333	-2.6917	-2.4625	-3.175	-2.8875	-2.5729	-2.8583	-2.5625	-2.7875	-2.6354	-2.5646	-2.9146	-2.6604	340.982	367.860	229.250	483.294	219.189	289.603	470.485	169.499	279.413	471.308	506.957	368.460	485.413	462.035	189.112	444.515	0.00052587	0.00036006	0.00011626	1501.3	3.6859e-06	3.4753e-06	1573.4	312.83	5.186e-06	5.1835e-06	389.39	110.42	86.601	25.011	4.4269e-06	34.532	0.00016957	5.2003e-05	1.4851e-05	1457.4	9.4996e-07	5.7083e-07	1531.2	305.71	9.806e-07	5.9883e-07	380.67	108.67	84.879	24.754	6.669e-07	34.578	516.655	257.657	251.477	179.817	278.200	330.281	179.901	186.368	287.561	335.670	186.649	192.492	192.081	200.232	311.371	199.605	-8191	255	
21093.764	1	1	0	0	0.22122	0.10761	0.12508	0.12547	0.22703	0.10448	0.29941	0.11332	0.23438	0.15023	0.099664	0.28806	0.25458	0.13785	0.08361	0.25249	-2.3729	-2.6875	-2.4083	-2.6292	-2.8229	-2.5979	-3.0458	-2.6146	-2.4938	-2.825	-2.6771	-2.7458	-2.9104	-2.3354	-2.7854	-2.6479	169.856	448.114	193.516	477.281	198.071	250.280	447.571	511.441	466.368	497.631	193.395	500.987	349.308	285.424	300.877	444.099	0.00056075	0.00037782	0.00010271	1497.8	3.7607e-06	3.6012e-06	1573.3	313.82	4.6028e-06	3.2362e-06	387.89	110.89	87.242	25.029	3.5676e-06	34.577	0.00018107	5.6736e-05	1.5583e-05	1455.6	9.1951e-07	5.8041e-07	1532.7	306.39	9.037e-07	5.0325e-07	381.32	109.09	85.246	24.743	7.0298e-07	34.502	520.222	266.195	252.320	179.946	288.183	319.407	179.913	186.573	283.328	327.792	186.584	192.511	192.742	200.152	295.224	199.721	-8191	255	
21093.859	1	1	0	0	0.19336	0.15327	0.13436	0.18162	0.18154	0.2163	0.16677	0.33771	0.17456	0.28171	0.13138	0.022278	0.35171	0.16819	0.093699	0.18412	-2.1292	-2.9042	-2.4792	-2.7188	-2.7479	-2.5062	-2.9604	-2.7979	-2.5083	-3.0167	-2.7604	-2.7229	-2.7875	-2.3625	-2.5625	-2.7812	217.215	511.254	460.445	182.411	427.099	523.733	480.558	440.416	320.668	266.715	437.706	521.182	197.544	341.881	185.584	489.414	0.00051563	0.00036386	9.2029e-05	1499.3	4.6712e-06	3.8381e-06	1581	314.43	4.9394e-06	3.2541e-06	388.9	110.76	87.254	24.944	2.3989e-06	34.661	0.00017435	5.8284e-05	1.5192e-05	1457.5	9.3256e-07	6.0453e-07	1535.5	306.45	9.6671e-07	4.8908e-07	380.38	108.86	85.016	24.773	6.3398e-07	34.579	516.697	262.160	266.750	179.886	286.911	332.698	179.896	186.773	274.942	342.578	186.504	192.765	192.068	200.203	314.323	200.214	-8191	255	
21093.955	1	1	0	0	0.16897	0.11323	0.016117	0.074403	0.018907	0.084614	0.17148	0.15303	0.14929	0.20755	0.16343	0.18326	0.051793	0.22995	0.14312	0.22548	-2.125	-2.7313	-2.4479	-2.8083	-2.7917	-2.4229	-2.8417	-2.8833	-2.375	-2.8187	-2.6104	-2.7458	-2.9875	-2.4625	-2.6708	-2.6688	427.459	515.314	180.976	171.279	363.070	439.374	432.095	506.127	281.614	246.086	256.472	451.528	288.894	493.482	245.148	422.015	0.0005268	0.00034184	0.00010302	1499.5	4.1102e-06	4.1872e-06	1576.5	312.86	5.2176e-06	3.9931e-06	391.57	109.72	87.372	24.878	3.9723e-06	34.588	0.00017161	5.3224e-05	1.3919e-05	1454.6	8.8315e-07	6.1906e-07	1533.9	306.09	9.5713e-07	5.194e-07	381.62	108.46	85.203	24.725	6.8557e-07	34.542	516.346	276.243	251.477	179.881	275.674	316.378	179.751	186.553	286.178	299.621	186.460	192.111	192.042	200.559	298.295	199.726	-8191	255	
21094.076	1	1	0	0	0.2013	0.19493	0.31847	0.46348	0.19105	0.22429	0.31625	0.42949	0.35622	0.2643	0.20564	0.11303	0.10609	0.14445	0.1447	0.19596	-1.8917	-2.7562	-2.6583	-2.7604	-2.7667	-2.3167	-2.8396	-2.9021	-2.5979	-2.7667	-2.7042	-2.6937	-2.8292	-2.6917	-2.6208	-2.7667	306.384	455.438	371.201	513.432	327.069	308.360	469.173	508.852	193.318	204.053	373.694	209.303	424.423	373.951	523.370	171.656	0.00055008	0.00039241	8.6586e-05	1503.5	5.3592e-06	2.8988e-06	1566.3	314.63	5.6093e-06	5.38e-06	388.7	110.74	86.511	25.065	3.148e-06	34.629	0.00017981	5.4087e-05	1.3952e-05	1458	9.5524e-07	6.1378e-07	1531.5	307.06	9.6578e-07	5.8202e-07	380.61	108.83	84.973	24.779	6.555e-07	34.641	517.000	263.905	246.271	179.951	285.571	323.750	179.857	186.745	286.755	323.853	186.780	192.595	192.397	200.277	309.163	199.802	-8191	255	
21094.148	1	1	0	0	0.26464	0.24447	0.12546	0.21304	0.12947	0.083673	0.35162	0.18553	0.2031	0.012829	0.21709	0.134	0.12253	0.14459	0.1271	0.18266	-2.1	-2.7708	-2.7021	-2.775	-2.8896	-2.5771	-2.9771	-2.9917	-2.45	-2.8187	-2.8688	-2.5229	-2.8583	-2.8667	-2.7792	-2.6208	300.565	472.914	169.064	477.087	232.398	173.276	431.134	488.046	469.025	276.365	293.751	517.974	242.050	205.284	210.175	356.746	0.00052293	0.00028798	0.00010005	1501.8	4.2759e-06	3.7876e-06	1576.5	314.58	5.3721e-06	3.8984e-06	388.29	110.89	87.866	24.865	4.1298e-06	34.588	0.00016792	5.4831e-05	1.5899e-05	1458.2	8.9558e-07	5.3549e-07	1533.1	306.52	9.6516e-07	5.6851e-07	381.04	108.93	85.256	24.747	7.6248e-07	34.606	515.436	262.751	253.450	179.976	284.889	330.104	179.777	186.769	287.147	338.486	186.721	192.520	192.477	200.380	289.286	200.016	-8191	255	
21094.244	1	1	0	0	0.12827	0.35264	0.11732	0.27846	0.15671	0.33127	0.34133	0.11461	0.1972	0.095064	0.14975	0.49114	0.059987	0.18509	0.27148	0.17297	-1.8687	-2.6521	-2.6	-2.5917	-2.775	-2.5687	-2.8625	-2.9833	-2.6813	-2.8521	-2.7583	-2.6354	-2.7687	-2.7458	-2.7729	-2.8833	414.858	467.782	418.876	457.033	227.339	460.558	462.410	463.162	244.212	461.850	174.491	499.965	260.702	201.089	460.149	412.658	0.0004794	0.00035841	8.4023e-05	1496.5	4.639e-06	3.1561e-06	1576.4	312.84	4.341e-06	4.4098e-06	388.82	110.94	87.861	24.9	3.6296e-06	34.668	0.00016289	5.5486e-05	1.3046e-05	1456	9.5587e-07	5.7975e-07	1534.6	306.34	9.4076e-07	6.242e-07	381	109.03	85.438	24.786	7.0583e-07	34.651	519.391	255.331	251.942	179.745	284.462	330.572	179.908	186.629	281.962	313.937	186.611	192.493	192.167	200.416	292.486	199.981	-8191	255	
21094.342	1	1	0	0	0.24296	0.14362	0.054773	0.20831	0.10978	0.18483	0.037634	0.14208	0.41253	0.10571	0.20986	0.28729	0.2715	0.11177	0.30615	0.14238	-2.0792	-2.6375	-2.7687	-2.5896	-2.8875	-2.6	-2.7021	-2.8646	-2.5521	-2.8583	-2.9583	-2.6063	-2.5708	-2.7458	-2.4188	-2.85	447.354	213.583	300.478	187.888	410.145	196.850	202.613	408.038	218.197	192.505	485.906	526.226	485.101	313.886	270.615	231.553	0.00051728	0.00035997	8.9337e-05	1499.3	4.523e-06	3.0439e-06	1574.3	314.37	4.8616e-06	3.4587e-06	388.37	111.07	87.015	25.193	2.5985e-06	34.571	0.00016541	5.6558e-05	1.2838e-05	1460.1	9.3163e-07	4.8296e-07	1532.2	306.48	9.6393e-07	5.6554e-07	381.26	109.17	85.447	24.789	7.1437e-07	34.651	516.728	263.395	250.882	179.831	283.611	342.551	179.682	186.514	277.894	317.614	186.746	192.886	192.060	200.324	302.639	199.643	-8191	255	
21094.438	1	1	0	0	0.08445	0.15924	0.15406	0.20491	0.022153	0.17691	0.23295	0.082775	0.2135	0.24188	0.38669	0.40383	0.11877	0.10163	0.12586	0.21549	-2.1229	-2.6	-2.7292	-2.5667	-2.7646	-2.8646	-2.6375	-2.975	-2.5375	-2.5104	-2.85	-2.5479	-2.6896	-2.7521	-2.3833	-2.8812	232.700	422.362	209.607	190.359	368.407	507.570	421.808	237.613	379.080	422.700	444.763	503.225	331.468	265.969	414.561	424.507	0.00057759	0.00037517	9.912e-05	1497.6	3.9554e-06	3.6097e-06	1571.8	314.27	5.5284e-06	3.9371e-06	391.28	110.9	87.936	25.021	3.3412e-06	34.477	0.00018188	5.879e-05	1.451e-05	1458.3	9.1889e-07	5.5432e-07	1531.6	306.67	9.0432e-07	6.1267e-07	381.51	108.74	85.381	24.791	7.2703e-07	34.608	516.934	273.105	254.278	179.982	290.033	320.138	179.830	186.615	294.748	321.372	186.457	192.571	192.028	200.398	310.105	199.636	-8191	255	
21094.557	1	1	0	0	0.2161	0.21057	0.18324	0.19299	0.16703	0.16168	0.35611	0.35383	0.14434	0.30394	0.013663	0.35736	0.15396	0.15	0.088174	0.03223	-2.1958	-2.5375	-2.8021	-2.7083	-2.6625	-2.7271	-2.7625	-3.0125	-2.6063	-2.5687	-2.8979	-2.5833	-2.7	-2.6896	-2.5062	-2.7167	201.516	281.097	315.730	518.186	273.927	439.087	518.955	169.345	347.937	515.012	402.878	504.656	509.963	358.823	429.099	388.336	0.00055609	0.00039186	0.00010765	1504.2	4.4087e-06	4.073e-06	1569.5	313.92	4.5265e-06	3.2387e-06	387.76	110.76	87.423	24.945	2.818e-06	34.592	0.00017155	6.1797e-05	1.2097e-05	1460.9	9.3691e-07	5.2491e-07	1533.5	306.73	9.0339e-07	5.517e-07	380.6	108.68	85.114	24.74	7.0614e-07	34.577	516.591	279.856	250.680	180.022	274.962	319.924	179.820	186.766	282.655	330.026	186.648	192.518	192.366	200.596	296.264	199.995	-8191	255	
21094.652	1	1	0	0	0.09756	0.3324	0.11992	0.43211	0.34894	0.03932	0.26906	0.18101	0.16284	0.1532	0.06002	0.10328	0.12893	0.08917	0.047007	0.17622	-2.2396	-2.3354	-2.9292	-2.6104	-2.8854	-2.7854	-2.6167	-2.7167	-2.5375	-2.4854	-2.8875	-2.5938	-2.5479	-2.9188	-2.4604	-2.7542	177.551	254.337	263.263	482.622	524.881	370.094	398.754	433.531	325.647	279.166	259.856	466.363	398.987	452.566	300.505	407.741	0.0005603	0.00028496	7.807e-05	1498.5	4.5079e-06	2.062e-06	1570.1	313.26	4.6224e-06	4.9347e-06	387.66	110.53	88.561	25.11	4.2091e-06	34.639	0.00017542	5.5545e-05	1.2896e-05	1458.1	9.7451e-07	5.4242e-07	1531.9	306.27	9.3366e-07	5.7675e-07	380.72	108.79	85.641	24.801	7.5141e-07	34.539	519.087	263.924	250.178	179.940	289.788	322.321	179.623	186.660	279.525	325.715	186.771	192.400	191.909	200.723	297.406	200.095	-8191	255	
21094.748	1	1	0	0	0.12071	0.15204	0.122	0.24684	0.14305	0.12899	0.34797	0.29623	0.22151	0.2142	0.15066	0.38075	0.088355	0.077896	0.16087	0.17706	-2.2333	-2.3812	-2.6937	-2.6708	-2.4479	-2.8396	-2.7167	-2.8833	-2.7083	-2.5438	-2.8271	-2.6667	-2.525	-2.9813	-2.325	-2.8167	249.913	344.631	459.039	437.835	250.339	240.395	491.962	477.637	431.990	522.183	177.930	489.968	169.633	199.941	232.514	170.935	0.00052134	0.00036298	9.9873e-05	1503.7	4.3915e-06	2.8551e-06	1579.2	314.28	4.4135e-06	4.39e-06	390.55	110.78	87.337	24.986	2.5005e-06	34.819	0.00016483	6.1737e-05	1.4044e-05	1460.3	9.4375e-07	4.5885e-07	1535.4	306.81	9.42e-07	5.5368e-07	381.76	109.01	85.364	24.803	6.9475e-07	34.696	513.854	264.189	266.575	179.751	284.748	336.518	179.890	186.728	271.906	326.847	186.679	192.417	192.442	200.455	309.735	199.653	-8191	255	
21094.844	1	1	0	0	0.30905	0.2201	0.17738	0.18258	0.22054	0.21386	0.23839	0.16286	0.078968	0.13722	0.15121	0.099091	0.21911	0.069214	0.031168	0.20418	-2.3104	-2.3667	-2.7854	-2.7146	-2.6042	-2.9125	-2.6229	-2.9146	-2.7271	-2.4104	-2.9188	-2.7229	-2.45	-2.8583	-2.5521	-2.5438	428.872	173.844	258.568	356.927	423.468	374.173	432.455	482.059	215.914	248.021	512.673	180.437	176.644	443.295	402.561	516.812	0.00051519	0.00032812	7.6071e-05	1498.8	4.4315e-06	5.4733e-06	1573.3	313.91	5.646e-06	4.87e-06	392.83	111.39	87.695	25.109	2.4615e-06	34.988	0.00016833	5.5397e-05	1.2987e-05	1459.2	9.307e-07	5.8239e-07	1537.6	306.98	9.0555e-07	6.3244e-07	382.67	109.31	85.425	24.862	7.0045e-07	34.823	516.955	264.187	284.680	179.860	288.655	328.082	179.614	186.592	290.782	322.386	186.712	192.609	191.925	199.957	324.731	199.881	-8191	255	
21094.939	1	1	0	0	0.31686	0.1278	0.067056	0.25684	0.12721	0.25705	0.059544	0.25231	0.1585	0.077251	0.1262	0.15663	0.10856	0.15441	0.26482	0.2573	-2.4729	-2.3896	-2.7313	-2.8292	-2.5271	-2.9875	-2.8	-2.8063	-2.8042	-2.4979	-2.8604	-2.8292	-2.4104	-2.8854	-2.5542	-2.6271	237.557	369.341	446.444	503.648	198.617	186.159	363.684	487.771	361.035	300.363	473.266	445.000	349.313	385.408	328.882	465.840	0.00056526	0.00037489	9.3941e-05	1504.6	3.8981e-06	3.9943e-06	1573.7	315.7	4.8429e-06	4.1228e-06	389.29	111.22	87.473	25.094	3.8032e-06	34.783	0.00018016	5.7361e-05	1.327e-05	1461.3	9.2852e-07	5.6224e-07	1535.1	307.71	9.1327e-07	5.4939e-07	381.64	109.41	85.484	24.791	6.8177e-07	34.713	517.511	263.145	253.846	179.642	293.714	334.588	179.615	186.321	280.848	340.830	186.357	192.705	191.861	200.484	292.054	199.766	-8191	255	
21095.035	1	1	0	0	0.066466	0.1102	0.22703	0.2485	0.31868	0.10572	0.34153	0.15376	0.26854	0.023606	0.26018	0.29833	0.19189	0.10419	0.11444	0.084192	-2.4708	-2.3979	-2.7229	-2.9604	-2.3583	-2.9062	-3.0438	-2.6312	-2.7938	-2.5604	-2.9417	-2.7917	-2.4146	-2.9313	-2.4917	-2.5958	241.994	483.566	168.562	510.985	448.696	290.299	464.619	510.734	462.346	505.840	479.358	465.388	220.944	485.506	437.305	297.990	0.00052804	0.00046836	8.9348e-05	1498	3.3126e-06	3.4802e-06	1575.2	313.82	4.5357e-06	3.6993e-06	390.63	111.12	87.588	25.085	4.7525e-06	34.702	0.00017207	6.0904e-05	1.4327e-05	1459.9	9.1391e-07	4.8164e-07	1537.1	307.16	8.9845e-07	5.4148e-07	382.11	109.22	85.68	24.86	7.3336e-07	34.776	519.149	268.953	261.826	179.958	295.919	336.570	179.789	186.480	280.055	323.972	187.004	192.312	191.976	200.424	294.431	199.771	-8191	255	
21095.156	1	1	0	0	0.16177	0.25661	0.12476	0.15323	0.23093	0.17527	0.32313	0.27129	0.34602	0.37267	0.087703	0.1743	0.10944	0.15671	0.18394	0.20925	-2.3125	-2.35	-2.6875	-2.85	-2.5938	-2.75	-2.8208	-2.4042	-2.6146	-2.6667	-2.6542	-2.8479	-2.5542	-2.7062	-2.5354	-2.4688	262.477	280.347	293.484	407.416	495.798	225.952	437.398	439.987	374.620	507.086	199.231	480.088	497.105	443.804	311.068	215.516	0.00050695	0.00044652	0.00010299	1500.8	4.5699e-06	3.6751e-06	1575.3	315.33	5.1887e-06	4.8471e-06	391.56	110.81	87.741	24.982	2.8411e-06	34.674	0.00016548	6.4922e-05	1.5051e-05	1461.4	9.8756e-07	5.4242e-07	1536.6	307.54	8.7405e-07	5.8037e-07	382.19	109.09	85.366	24.793	6.3113e-07	34.641	517.839	265.119	257.598	179.878	275.479	335.349	179.934	186.641	283.411	331.450	186.875	192.458	192.024	200.521	304.505	200.195	-8191	255	
21095.254	1	1	0	0	0.18124	0.05074	0.19468	0.31115	0.22148	0.22029	0.20293	0.37378	0.30981	0.070242	0.12313	0.31523	0.22356	0.41315	0.10029	0.099922	-2.5458	-2.475	-2.5229	-2.8354	-2.3833	-2.7687	-2.8042	-2.6125	-2.8854	-2.6271	-2.7271	-2.9458	-2.5083	-2.6792	-2.9562	-2.5271	363.418	330.737	314.896	485.874	472.306	191.698	508.318	509.022	372.316	474.618	382.044	440.616	487.808	170.893	326.278	408.913	0.00052063	0.00040171	0.00010752	1503.4	3.6656e-06	4.5289e-06	1579.6	314.85	5.085e-06	4.5744e-06	391.09	110.6	87.369	25.035	4.2763e-06	34.75	0.00016935	6.1052e-05	1.5533e-05	1460.8	8.9558e-07	5.8966e-07	1534.7	307.26	9.2995e-07	5.8235e-07	381.74	108.61	85.328	24.801	6.9443e-07	34.611	515.947	251.023	262.515	179.969	287.836	322.202	179.808	186.470	287.139	332.281	186.501	192.714	192.100	200.465	319.707	200.330	-8191	255	
21095.348	1	1	0	0	0.17802	0.23857	0.11661	0.2304	0.23154	0.2584	0.20576	0.17066	0.2336	0.17458	0.1639	0.32657	0.17339	0.10219	0.041449	0.16786	-2.2542	-2.4542	-2.7146	-2.9229	-2.4146	-2.7271	-2.925	-2.4979	-2.9417	-2.6229	-2.6583	-2.9083	-2.5292	-2.7833	-2.7271	-2.5583	253.315	359.524	234.070	510.869	480.752	266.016	426.800	508.515	330.287	381.459	447.482	177.603	422.734	358.879	236.788	485.157	0.00054631	0.00030099	0.00010829	1500.7	3.753e-06	3.6123e-06	1576.9	314.37	3.6581e-06	3.3843e-06	389.86	110.7	87.126	24.912	3.0691e-06	34.531	0.0001757	5.2896e-05	1.4102e-05	1460.4	9.366e-07	5.7116e-07	1535.3	306.58	8.5645e-07	5.8531e-07	381.4	109.06	85.189	24.732	6.0296e-07	34.56	514.897	266.663	246.141	180.174	290.438	345.678	179.761	186.597	303.032	340.641	186.731	192.704	192.953	200.269	318.500	199.754	-8191	255	
21095.443	1	1	0	0	0.12981	0.20923	0.11052	0.26943	0.031224	0.15298	0.27705	0.14276	0.065867	0.16234	0.46675	0.20949	0.37555	0.023578	0.12336	0.10779	-2.375	-2.5708	-2.4375	-2.9146	-2.4833	-2.6188	-2.9271	-2.5542	-2.7438	-2.5812	-2.7042	-2.8792	-2.575	-2.5771	-2.7979	-2.5271	433.381	311.347	216.453	525.006	445.553	453.880	170.884	519.842	274.656	311.096	488.328	185.745	489.825	180.107	506.739	421.911	0.00049396	0.00040254	0.00011417	1504.3	3.9724e-06	3.3322e-06	1577	313.93	4.564e-06	2.6e-06	389.92	111.08	87.693	24.976	3.3677e-06	34.57	0.00016378	5.8522e-05	1.5317e-05	1459.3	9.5276e-07	6.0023e-07	1535.8	306.59	9.2964e-07	5.6389e-07	381.63	108.88	85.376	24.718	6.6753e-07	34.569	517.471	273.109	257.287	179.847	297.971	324.606	179.882	186.816	272.772	294.862	186.494	192.408	192.134	200.156	313.523	200.074	-8191	255	
#DATA ENDS
