BOXY.EXE: ISS Imagent and Oximeter Data Acquisition Program Version 0.80
Ascii Record File

#ACQ INFORMATION
2  Detector Channels 
16  External MUX Channels 
1  Auxiliary Channels 
5000  Waveform (CCF) Frequency (Hz)
1  Waveforms Skipped 
30  Waveforms Averaged 
1  Cycles Averaged 
16  Acquisitions per Waveform 
10.0806  Updata Rate (Hz) 

#FILE INFORMATION
TRUE -- External MUX Channel results are PARSED.
FALSE -- AC DC and Phase are NOT grouped.
TRUE -- Companion Program Settings File CREATED.
FALSE -- AC data not excluded
FALSE -- DC data not excluded
FALSE -- Phase data not excluded
FALSE -- Auxillary Chn. data not excluded
Tab delimiters

#CALIBRATION STATE
TRUE -- Waveform Calibration Values APPLIED.


#AUX CALIBRATION VALUES
Val Type	aux-1	

Term	1.0000e+00	
Factor	0.0000e+00	


#WF CALIBRATION VALUES
A = Detector Channel
Val Type	A-AC1	A-AC2	A-AC3	A-AC4	A-AC5	A-AC6	A-AC7	A-AC8	A-AC9	A-AC10	A-AC11	A-AC12	A-AC13	A-AC14	A-AC15	A-AC16	A-DC1	A-DC2	A-DC3	A-DC4	A-DC5	A-DC6	A-DC7	A-DC8	A-DC9	A-DC10	A-DC11	A-DC12	A-DC13	A-DC14	A-DC15	A-DC16	A-Ph1	A-Ph2	A-Ph3	A-Ph4	A-Ph5	A-Ph6	A-Ph7	A-Ph8	A-Ph9	A-Ph10	A-Ph11	A-Ph12	A-Ph13	A-Ph14	A-Ph15	A-Ph16	

Term	0.00000e+00	0.00000e+00	0.00000e+00	0.00000e+00	0.00000e+00	0.00000e+00	0.00000e+00	0.00000e+00	0.00000e+00	0.00000e+00	0.00000e+00	0.00000e+00	0.00000e+00	0.00000e+00	0.00000e+00	0.00000e+00	0.00000e+00	0.00000e+00	0.00000e+00	0.00000e+00	0.00000e+00	0.00000e+00	0.00000e+00	0.00000e+00	0.00000e+00	0.00000e+00	0.00000e+00	0.00000e+00	0.00000e+00	0.00000e+00	0.00000e+00	0.00000e+00	0.00000e+00	0.00000e+00	0.00000e+00	0.00000e+00	0.00000e+00	0.00000e+00	0.00000e+00	0.00000e+00	0.00000e+00	0.00000e+00	0.00000e+00	0.00000e+00	0.00000e+00	0.00000e+00	0.00000e+00	0.00000e+00	
Factor	1.00000e+00	1.00000e+00	1.00000e+00	1.00000e+00	1.00000e+00	1.00000e+00	1.00000e+00	1.00000e+00	1.00000e+00	1.00000e+00	1.00000e+00	1.00000e+00	1.00000e+00	1.00000e+00	1.00000e+00	1.00000e+00	1.00000e+00	1.00000e+00	1.00000e+00	1.00000e+00	1.00000e+00	1.00000e+00	1.00000e+00	1.00000e+00	1.00000e+00	1.00000e+00	1.00000e+00	1.00000e+00	1.00000e+00	1.00000e+00	1.00000e+00	1.00000e+00	X	X	X	X	X	X	X	X	X	X	X	X	X	X	X	X	

B = Detector Channel
Val Type	B-AC1	B-AC2	B-AC3	B-AC4	B-AC5	B-AC6	B-AC7	B-AC8	B-AC9	B-AC10	B-AC11	B-AC12	B-AC13	B-AC14	B-AC15	B-AC16	B-DC1	B-DC2	B-DC3	B-DC4	B-DC5	B-DC6	B-DC7	B-DC8	B-DC9	B-DC10	B-DC11	B-DC12	B-DC13	B-DC14	B-DC15	B-DC16	B-Ph1	B-Ph2	B-Ph3	B-Ph4	B-Ph5	B-Ph6	B-Ph7	B-Ph8	B-Ph9	B-Ph10	B-Ph11	B-Ph12	B-Ph13	B-Ph14	B-Ph15	B-Ph16	

Term	0.00000e+00	0.00000e+00	0.00000e+00	0.00000e+00	0.00000e+00	0.00000e+00	0.00000e+00	0.00000e+00	0.00000e+00	0.00000e+00	0.00000e+00	0.00000e+00	0.00000e+00	0.00000e+00	0.00000e+00	0.00000e+00	0.00000e+00	0.00000e+00	0.00000e+00	0.00000e+00	0.00000e+00	0.00000e+00	0.00000e+00	0.00000e+00	0.00000e+00	0.00000e+00	0.00000e+00	0.00000e+00	0.00000e+00	0.00000e+00	0.00000e+00	0.00000e+00	-9.50993e+01	-1.28701e+02	-1.24987e+02	-1.83761e+02	-6.23572e+01	-7.40854e+01	-1.58106e+02	-1.62015e+02	-5.36995e+01	-7.02651e+01	-1.70714e+02	-1.70913e+02	-1.78902e+02	-1.77049e+02	-6.51981e+01	-1.49824e+02	
Factor	1.64770e-05	1.35927e-04	3.46547e-05	1.51834e-01	1.19814e-06	1.36781e-06	1.67260e-01	5.25101e-02	1.01735e-06	1.28790e-06	8.68415e-02	3.03108e-02	2.82728e-02	9.66055e-03	1.35503e-06	1.35419e-02	3.18107e-06	3.59181e-06	1.00104e-06	7.44679e-02	3.88649e-08	3.97153e-08	7.71580e-02	2.58867e-02	3.91507e-08	3.98793e-08	4.12608e-02	1.45034e-02	1.40702e-02	4.76425e-03	3.96035e-08	6.46411e-03	X	X	X	X	X	X	X	X	X	X	X	X	X	X	X	X	



#DISTANCE SETTINGS
A = Detector Channel
A-1	A-2	A-3	A-4	A-5	A-6	A-7	A-8	A-9	A-10	A-11	A-12	A-13	A-14	A-15	A-16	

2.5000e+00	3.0000e+00	2.5000e+00	3.0000e+00	2.0000e+00	3.0000e+00	1.5000e+00	3.0000e+00	3.0000e+00	3.0000e+00	3.0000e+00	3.0000e+00	3.0000e+00	3.0000e+00	1.5000e+00	3.0000e+00	

B = Detector Channel
B-1	B-2	B-3	B-4	B-5	B-6	B-7	B-8	B-9	B-10	B-11	B-12	B-13	B-14	B-15	B-16	

1.0000e+01	1.0000e+01	1.0000e+01	1.4400e+00	1.0000e+01	1.0000e+01	1.5100e+00	1.9400e+00	1.0000e+01	1.0000e+01	1.9900e+00	2.4900e+00	2.4100e+00	2.9000e+00	1.0000e+01	2.9800e+00	




#DATA BEGINS
time	group	step	mark	flag	A-AC1	A-AC2	A-AC3	A-AC4	A-AC5	A-AC6	A-AC7	A-AC8	A-AC9	A-AC10	A-AC11	A-AC12	A-AC13	A-AC14	A-AC15	A-AC16	A-DC1	A-DC2	A-DC3	A-DC4	A-DC5	A-DC6	A-DC7	A-DC8	A-DC9	A-DC10	A-DC11	A-DC12	A-DC13	A-DC14	A-DC15	A-DC16	A-Ph1	A-Ph2	A-Ph3	A-Ph4	A-Ph5	A-Ph6	A-Ph7	A-Ph8	A-Ph9	A-Ph10	A-Ph11	A-Ph12	A-Ph13	A-Ph14	A-Ph15	A-Ph16	B-AC1	B-AC2	B-AC3	B-AC4	B-AC5	B-AC6	B-AC7	B-AC8	B-AC9	B-AC10	B-AC11	B-AC12	B-AC13	B-AC14	B-AC15	B-AC16	B-DC1	B-DC2	B-DC3	B-DC4	B-DC5	B-DC6	B-DC7	B-DC8	B-DC9	B-DC10	B-DC11	B-DC12	B-DC13	B-DC14	B-DC15	B-DC16	B-Ph1	B-Ph2	B-Ph3	B-Ph4	B-Ph5	B-Ph6	B-Ph7	B-Ph8	B-Ph9	B-Ph10	B-Ph11	B-Ph12	B-Ph13	B-Ph14	B-Ph15	B-Ph16	aux-1	digaux	

39162.941	1	1	0	768	0.19162	0.3853	0.14633	0.3882	0.076447	0.16061	0.28975	0.15358	0.13101	0.22253	0.18853	0.1815	0.15449	0.084168	0.35599	0.14083	-4.1021	-3.4625	-3.7896	-4.5396	-3.3292	-4.4375	-4.0188	-3.6937	-4.3708	-3.5896	-3.9062	-4.4229	-3.5354	-4.3896	-3.7792	-3.575	297.249	474.324	392.610	499.784	162.980	223.608	464.802	437.060	507.633	475.901	457.309	516.483	460.704	279.152	469.987	463.734	0.00049717	0.00050284	7.8616e-05	1364.9	1.4189e-06	4.8223e-06	1359.7	368.28	5.4975e-06	4.7421e-06	422.17	141.18	122.12	42.25	5.7549e-06	52.202	0.00052072	0.00051902	0.00014281	1378.8	5.6853e-06	5.5885e-06	1377.5	374.66	5.7068e-06	5.6228e-06	428.97	143.74	124.83	43.292	5.6702e-06	53.338	226.196	241.156	228.844	170.051	273.847	320.751	169.881	174.774	289.328	358.534	174.380	178.435	179.012	183.701	277.445	183.140	-8191	255	
39163.035	1	1	0	0	0.20849	0.13225	0.12875	0.28181	0.1076	0.2327	0.28646	0.083314	0.030634	0.19799	0.18949	0.073872	0.24664	0.073496	0.064854	0.12178	-4.0896	-3.4062	-3.8583	-4.5708	-3.4979	-4.2646	-4.2063	-3.5146	-4.3229	-3.525	-3.8438	-4.3917	-3.4583	-4.1937	-4.0375	-3.4833	508.093	505.064	310.797	452.483	365.432	163.171	399.195	467.706	481.404	249.494	176.142	260.367	395.530	381.797	491.540	476.634	0.00052734	0.00038715	9.0462e-05	1362.7	4.0764e-06	4.5771e-06	1359.2	367.25	2.6445e-06	2.6208e-06	417.97	140.94	122.24	42.346	6.8785e-06	51.691	0.00052205	0.00051499	0.00014523	1380.1	5.6586e-06	5.6596e-06	1375.4	374.33	5.671e-06	5.6769e-06	427.13	143.93	124.99	43.296	5.6528e-06	53.179	228.525	247.854	219.394	170.283	276.581	312.746	169.742	174.706	272.825	263.602	174.307	178.469	179.025	183.627	288.560	182.950	-8191	255	
39163.133	1	1	0	0	0.1902	0.1712	0.16497	0.17763	0.25225	0.091008	0.2424	0.18702	0.06787	0.13215	0.17426	0.13547	0.061643	0.062837	0.26832	0.20961	-4.0542	-3.6917	-3.8583	-4.5708	-3.3667	-4.2583	-4.2854	-3.6354	-4.3562	-3.6021	-3.7354	-4.3979	-3.4104	-4.1917	-4.2333	-3.375	324.218	161.592	227.128	499.862	266.177	443.633	417.490	487.844	230.014	434.635	438.460	505.165	220.054	489.693	488.237	466.794	0.00045096	0.00071347	0.00015043	1364.3	4.1903e-06	5.7151e-06	1359.2	367.69	6.6234e-06	2.8863e-06	419.88	139.77	122.15	42.371	4.5036e-06	51.939	0.0005196	0.00050988	0.00014529	1379.3	5.6219e-06	5.6487e-06	1377.6	374.21	5.7088e-06	5.6325e-06	427.46	143.49	124.97	43.343	5.6544e-06	53.325	227.520	257.584	264.604	170.235	289.435	361.231	170.110	174.650	327.225	257.758	174.199	178.465	178.937	183.575	329.321	183.170	-8191	255	
39163.227	1	1	0	0	0.14229	0.14975	0.29446	0.26612	0.12969	0.060444	0.049162	0.10634	0.23808	0.052594	0.11315	0.068981	0.211	0.08058	0.042467	0.17757	-4.1375	-3.7021	-3.3708	-4.6958	-3.3146	-3.9938	-4.2937	-3.4062	-4.2604	-3.8167	-3.6729	-4.4688	-3.45	-3.9646	-4.2458	-3.3354	466.436	232.463	287.664	488.024	192.611	505.560	338.908	314.602	421.013	163.557	394.806	477.250	437.145	312.426	356.672	187.902	0.00045771	0.00047176	0.0001036	1363.7	5.709e-06	7.8909e-06	1356.9	367.15	7.2711e-06	2.2024e-06	421.5	140.23	122.2	42.456	5.4963e-06	51.839	0.0005218	0.00051551	0.00014377	1379.2	5.6634e-06	5.6433e-06	1374.1	374.09	5.6688e-06	5.6435e-06	427.89	143.72	125.16	43.342	5.5852e-06	53.239	229.073	299.067	254.543	170.208	301.740	345.896	169.898	174.783	319.478	324.422	174.314	178.347	178.982	183.702	331.329	183.087	-8191	255	
39163.324	1	1	0	0	0.12772	0.05332	0.081793	0.20061	0.11562	0.068935	0.091834	0.15329	0.023615	0.076713	0.13435	0.071701	0.032616	0.091605	0.006718	0.22603	-4.0792	-3.7583	-3.5083	-4.6604	-3.3583	-3.9833	-4.5667	-3.6396	-4.3021	-3.7896	-3.7438	-4.3833	-3.8458	-3.9	-4.1521	-3.5917	451.844	483.447	235.788	477.407	339.366	226.464	472.852	512.048	211.676	492.426	363.801	475.430	305.966	348.869	332.594	367.426	0.00043288	0.00061373	0.00013428	1363.8	6.5891e-06	2.4851e-06	1362.5	366.15	5.2887e-06	6.2954e-06	420.58	140.06	121.92	42.372	5.8661e-06	51.988	0.00052261	0.00051102	0.00014307	1379.9	5.6944e-06	5.5828e-06	1376.5	373.33	5.6799e-06	5.6421e-06	427.29	143.53	124.83	43.387	5.6381e-06	53.248	228.222	229.673	261.742	170.222	285.461	286.753	170.175	174.657	281.922	294.963	174.293	178.226	178.992	183.765	305.773	182.938	-8191	255	
39163.422	1	1	0	0	0.1149	0.17203	0.11718	0.18848	0.079442	0.13048	0.054032	0.029171	0.057733	0.085562	0.19792	0.11387	0.091508	0.22065	0.17429	0.25948	-3.9333	-3.8812	-3.5208	-4.6188	-3.5292	-3.8375	-4.7729	-3.6875	-4.0604	-4.0083	-3.8854	-4.5646	-3.7562	-3.9646	-4.2958	-3.6771	431.826	285.560	369.519	502.477	474.406	189.858	425.796	204.019	453.935	450.722	433.658	388.224	491.821	480.726	208.917	467.763	0.00049132	6.4126e-05	0.00020035	1363	4.7879e-06	4.8116e-06	1350.8	367.51	5.3799e-06	4.3381e-06	421.15	140.69	123.18	42.487	4.2977e-06	52.014	0.00051776	0.00051356	0.0001422	1379.8	5.7e-06	5.6395e-06	1376	374.06	5.6503e-06	5.5931e-06	427.55	143.87	125.36	43.373	5.6534e-06	53.325	229.217	180.384	282.716	170.221	305.913	345.804	169.756	174.737	307.383	314.645	174.277	178.433	178.662	183.537	282.520	182.732	-8191	255	
39163.539	1	1	0	0	0.1389	0.37257	0.16957	0.26418	0.18862	0.24655	0.18068	0.2221	0.15924	0.07487	0.11183	0.042605	0.21454	0.1168	0.13213	0.099736	-3.7646	-4.1125	-3.4271	-4.4812	-3.4813	-4.0667	-4.3417	-3.3729	-4.0938	-4.2354	-3.6021	-4.6229	-3.8625	-3.7917	-4.375	-3.6833	495.860	266.023	220.032	506.457	246.344	366.758	378.233	510.652	281.707	425.496	461.223	476.811	477.961	413.750	225.689	158.615	0.00045606	0.00028264	0.00011306	1365.6	4.314e-06	6.637e-06	1359	366.77	6.0506e-06	5.255e-06	421.23	141.37	122.81	42.718	5.1459e-06	52.087	0.00051757	0.0005084	0.0001425	1380.7	5.6849e-06	5.6293e-06	1377.7	374.13	5.6794e-06	5.6998e-06	428.19	143.96	124.93	43.462	5.6133e-06	53.255	229.268	265.421	239.171	170.056	277.440	300.747	169.989	174.897	319.226	281.262	174.291	178.544	178.881	183.705	305.064	182.637	-8191	255	
39163.637	1	1	0	0	0.15347	0.062389	0.079133	0.21239	0.16869	0.17088	0.15741	0.31993	0.22996	0.17817	0.22975	0.072942	0.029179	0.31746	0.15078	0.15108	-3.7229	-3.9146	-3.5271	-4.4167	-3.7521	-3.5146	-4.3688	-3.5146	-4.1417	-4.0396	-3.4188	-4.3812	-3.9021	-3.7458	-4.4917	-3.5875	273.538	355.031	192.299	463.041	388.360	411.765	484.154	472.930	271.772	438.678	475.720	437.975	464.786	206.593	468.951	400.077	0.00046271	0.0001124	0.00010035	1365.2	6.4015e-06	6.743e-06	1359.8	366.69	4.3174e-06	6.5611e-06	419.35	140.79	122.53	42.367	5.8082e-06	51.79	0.00050967	0.00050758	0.00014296	1379.5	5.6169e-06	5.5694e-06	1377	373.42	5.602e-06	5.6963e-06	427.43	144.06	125.26	43.322	5.7552e-06	53.171	223.958	229.643	251.457	170.118	273.927	266.515	169.981	174.664	307.764	306.495	174.215	178.555	178.981	183.470	260.902	182.917	-8191	255	
39163.730	1	1	0	0	0.12512	0.040096	0.11577	0.44176	0.16715	0.2592	0.071932	0.31242	0.17295	0.139	0.26205	0.18019	0.2121	0.21874	0.13164	0.03907	-3.8563	-4.1292	-3.5146	-4.3833	-3.7	-3.5354	-4.5896	-3.575	-3.95	-4.4354	-3.4667	-4.4396	-4.0146	-3.6333	-4.4729	-3.5875	322.250	440.125	319.582	508.769	452.760	462.743	267.849	508.218	488.310	220.581	466.383	508.993	461.256	182.481	218.601	203.857	0.0005419	0.00053622	5.9737e-05	1365.9	3.959e-06	5.1032e-06	1358.9	366.88	7.6285e-06	6.6746e-06	419.44	140.43	121.87	42.472	4.9591e-06	51.841	0.00052262	0.00050871	0.00014396	1380.5	5.6844e-06	5.6567e-06	1374.8	373.56	5.6988e-06	5.6911e-06	426.3	143.83	124.84	43.396	5.668e-06	53.161	231.135	271.681	179.835	170.160	322.368	309.302	169.729	174.496	290.921	338.339	174.167	178.365	178.985	183.601	284.773	182.944	-8191	255	
39163.828	1	1	0	0	0.1089	0.083082	0.15536	0.15332	0.29043	0.14643	0.10885	0.058565	0.22361	0.22675	0.26928	0.16456	0.093851	0.23732	0.05453	0.19588	-3.7083	-4.1542	-3.5042	-4.5583	-3.8625	-3.5083	-4.5521	-3.5667	-4.0333	-4.3042	-3.5875	-4.3187	-4.1417	-3.6958	-4.3708	-3.6917	264.979	483.243	290.008	165.884	168.287	300.491	510.016	193.707	340.460	215.904	162.615	402.691	216.549	186.723	346.434	432.923	0.00048436	0.00087281	0.0002207	1365.2	3.9149e-06	5.0701e-06	1356.8	368.01	6.4495e-06	3.3697e-06	420.2	140.23	121.89	42.14	6.0597e-06	51.754	0.0005189	0.00052055	0.00014028	1379.6	5.5813e-06	5.6756e-06	1375.7	373.8	5.6906e-06	5.6277e-06	427.07	143.76	124.9	43.288	5.6443e-06	53.233	227.777	241.568	237.026	170.198	264.069	311.350	169.898	174.653	282.130	306.872	174.044	178.484	178.708	183.919	303.843	182.950	-8191	255	
39163.926	1	1	0	0	0.024941	0.24583	0.06934	0.13105	0.12092	0.12563	0.1361	0.1913	0.4188	0.1322	0.19065	0.095772	0.17803	0.24365	0.13495	0.097333	-3.5646	-4.4229	-3.4979	-4.5104	-4.0417	-3.3937	-4.7208	-3.8208	-3.8917	-4.3208	-3.6083	-4.2396	-4.0625	-3.6104	-4.3333	-3.6813	249.249	446.235	353.617	337.989	399.912	166.638	194.222	442.383	242.585	449.488	166.462	184.176	465.025	476.659	437.632	158.857	0.00044858	0.00060984	0.00014255	1358.5	4.0037e-06	7.0398e-06	1361	368.13	6.6664e-06	5.7179e-06	419.96	140.39	122.27	42.259	3.2623e-06	51.894	0.00051681	0.00051016	0.00014307	1379.2	5.5976e-06	5.635e-06	1377.7	374.01	5.7392e-06	5.6771e-06	426.76	143.64	124.88	43.294	5.6691e-06	53.197	222.184	251.172	248.179	170.435	294.772	325.940	170.124	174.805	290.889	276.967	173.944	178.530	178.903	183.827	301.174	182.816	-8191	255	
39164.020	1	1	0	0	0.14141	0.16248	0.13961	0.29357	0.17812	0.13923	0.096292	0.2573	0.036457	0.16117	0.11236	0.12651	0.046034	0.42135	0.22066	0.27107	-3.525	-4.2792	-3.4938	-4.3458	-4.0854	-3.475	-4.6833	-3.9417	-3.6021	-4.475	-3.6521	-4.2188	-4.0542	-3.5	-4.4396	-3.7313	239.525	455.200	263.081	410.835	302.039	449.902	458.371	423.078	470.139	479.189	487.105	333.826	400.961	479.863	198.202	426.513	0.00049798	0.00048165	0.00015921	1361.7	3.8268e-06	7.2401e-06	1361.8	369.08	2.3755e-06	5.1507e-06	421.03	140.32	122.49	42.128	5.1863e-06	51.693	0.00051417	0.000507	0.00014194	1380.2	5.608e-06	5.6115e-06	1378.7	373.87	5.6342e-06	5.5707e-06	427.08	143.8	125.04	43.177	5.5106e-06	53.169	227.746	254.574	248.133	170.306	314.685	299.120	170.083	174.676	287.850	272.842	174.135	178.548	179.113	183.890	266.641	182.801	-8191	255	
39164.141	1	1	0	0	0.20808	0.16504	0.095686	0.16143	0.12198	0.14595	0.27779	0.29388	0.15237	0.26383	0.053543	0.13463	0.37594	0.20931	0.205	0.18123	-3.2979	-4.2646	-3.3875	-4.0979	-4.1771	-3.2729	-4.4271	-3.9292	-3.5521	-4.4292	-3.7583	-4.1354	-4.2042	-3.2583	-4.3646	-3.9021	307.728	418.419	161.653	456.648	178.609	168.979	474.891	443.062	468.894	317.029	156.638	428.554	161.568	450.004	506.325	428.452	0.00044492	0.00050886	0.0001947	1365.8	5.5695e-06	5.8412e-06	1363.4	367.27	5.6259e-06	5.1884e-06	418.47	140.99	122.42	42.072	6.0675e-06	51.756	0.00050476	0.00050467	0.0001395	1382.2	5.5081e-06	5.5252e-06	1378.3	373.13	5.4879e-06	5.4786e-06	426.02	143.92	125.04	43.189	5.3969e-06	53.214	231.238	199.749	243.627	170.449	323.949	308.834	170.117	174.522	284.330	337.082	174.156	178.537	179.118	183.808	305.577	182.966	-8191	255	
39164.238	1	1	0	0	0.24033	0.27383	0.046458	0.38396	0.063222	0.094863	0.21497	0.21993	0.14171	0.27954	0.20778	0.23994	0.13296	0.27289	0.095724	0.14066	-3.0646	-4.3292	-3.3875	-4.1062	-4.3063	-3.4875	-4.3917	-3.9896	-3.6083	-4.3417	-3.6188	-3.9188	-4.325	-3.5625	-4.2063	-4.0375	346.403	309.228	380.063	463.562	178.234	462.108	443.505	455.826	202.690	343.491	408.850	180.229	492.570	383.375	217.634	450.715	0.00044266	0.0003243	0.00016385	1367.1	3.8108e-06	5.6303e-06	1364.2	367.78	4.7345e-06	6.9416e-06	419.47	140.67	122.09	42.056	5.1655e-06	51.818	0.00050865	0.00048896	0.00013633	1380.5	5.3385e-06	5.3401e-06	1378.9	373.57	5.4518e-06	5.3111e-06	426.05	143.9	124.77	43.194	5.3027e-06	53.193	226.283	251.491	240.818	170.171	273.713	308.062	170.142	174.650	307.014	347.623	174.162	178.428	178.947	183.964	314.875	182.913	-8191	255	
39164.332	1	1	0	0	0.29796	0.34896	0.31527	0.31054	0.1089	0.29336	0.14209	0.24421	0.047656	0.18936	0.25316	0.22621	0.13911	0.11326	0.13135	0.18371	-3.1542	-4.4646	-3.425	-4.0479	-4.1292	-3.3875	-4.3854	-4.1417	-3.5729	-4.4542	-3.8292	-3.9229	-4.4354	-3.6271	-4.2583	-4.1312	359.840	343.484	390.692	415.158	514.183	359.561	506.675	393.339	236.072	211.752	407.013	162.904	457.232	398.031	263.888	442.062	0.00047297	0.00061069	0.00018757	1357.8	8.6948e-06	4.4852e-06	1359.2	366.74	4.5447e-06	5.7825e-06	420.76	140.54	122.22	42.264	4.9257e-06	51.931	0.00048747	0.00048319	0.00013381	1378.4	5.2864e-06	5.272e-06	1376.5	373.24	5.3707e-06	5.2717e-06	426.09	143.74	124.69	43.233	5.2272e-06	53.029	228.864	240.625	238.475	170.284	297.742	292.197	169.956	174.411	283.073	292.250	173.979	178.682	179.198	183.605	291.491	182.819	-8191	255	
39164.430	1	1	0	0	0.038532	0.17608	0.09001	0.2405	0.26528	0.19245	0.091317	0.16002	0.19012	0.062808	0.084347	0.10682	0.14688	0.096177	0.11774	0.24077	-3.2917	-4.3646	-3.5479	-4.0896	-4.2167	-3.3688	-4.3375	-4.1687	-3.6646	-4.3979	-3.8958	-3.8958	-4.6229	-3.5438	-4.0125	-4.2708	180.324	360.147	464.488	499.035	415.310	323.121	435.313	441.017	512.908	248.659	176.251	392.189	388.115	410.363	508.465	419.939	0.00048383	0.00023651	0.00015459	1367.7	5.2583e-06	5.7917e-06	1363.8	367.62	4.8978e-06	3.1661e-06	420.81	140.67	122.3	42.296	7.9335e-06	51.768	0.00048844	0.00047027	0.00013185	1380.2	5.1045e-06	5.1921e-06	1377.6	372.96	5.3045e-06	5.1895e-06	426.93	143.72	124.75	43.139	5.1714e-06	53.104	227.914	250.605	274.533	170.367	290.665	333.622	170.128	174.631	326.279	332.725	173.935	178.699	178.712	183.635	309.526	182.705	-8191	255	
39164.500	1	1	0	0	0.068625	0.0806	0.20136	0.29785	0.22882	0.061015	0.081368	0.25346	0.12847	0.18169	0.12971	0.088389	0.097719	0.26516	0.13932	0.28411	-3.0167	-4.5354	-3.7604	-3.8542	-4.6146	-3.6042	-4.3521	-4.3479	-3.3333	-4.4417	-3.9521	-3.725	-4.5271	-3.4604	-3.9542	-4.3979	484.159	410.654	458.666	450.538	471.498	496.495	426.496	429.510	301.664	431.448	212.972	321.681	165.025	187.044	380.812	425.412	0.00046106	0.00055032	0.00018933	1371.3	4.7685e-06	3.0784e-06	1361.5	366.11	4.564e-06	2.7852e-06	418.77	140.71	122.58	42.016	1.0483e-05	52.01	0.00047539	0.00047178	0.00012998	1380.9	5.1244e-06	5.1584e-06	1377.2	373.56	5.261e-06	5.1861e-06	425.69	143.59	124.89	43.12	5.2773e-06	53.219	225.019	193.588	264.683	170.262	273.375	224.112	170.130	174.669	298.536	236.452	174.332	178.501	178.801	183.425	275.531	182.847	-8191	255	
39164.621	1	1	0	0	0.080281	0.065452	0.066116	0.21718	0.062202	0.052694	0.28823	0.16901	0.11336	0.13054	0.20188	0.26692	0.11204	0.13854	0.056888	0.11078	-3.0146	-4.3938	-3.8187	-3.7792	-4.4083	-3.4813	-4.0354	-4.4583	-3.3354	-4.3125	-3.9875	-3.5104	-4.5813	-3.625	-3.8042	-4.4417	451.765	228.212	423.858	485.445	170.256	379.889	438.596	431.480	204.175	355.334	477.679	402.162	236.675	485.466	272.210	424.434	0.00046449	0.0010311	0.00011784	1368.6	5.9059e-06	5.2188e-06	1358.5	365.31	6.2377e-06	2.8301e-06	417	140.07	122.33	42.109	2.9176e-06	51.85	0.00048153	0.00047262	0.00013171	1379.1	5.1147e-06	5.1234e-06	1376.8	372.36	5.1391e-06	5.1651e-06	425.04	143.62	124.72	43.146	5.2052e-06	53.153	228.290	214.145	279.232	170.312	261.514	310.490	169.955	174.869	316.582	286.611	173.918	178.585	179.129	183.173	295.063	182.995	-8191	255	
39164.715	1	1	0	0	0.036896	0.062672	0.07835	0.36794	0.2835	0.21521	0.16966	0.1648	0.26555	0.089783	0.10303	0.28568	0.18021	0.22605	0.16144	0.027554	-2.9	-4.1854	-3.8	-3.7104	-4.3729	-3.5958	-4.1583	-4.2458	-3.5792	-4.1813	-4.1542	-3.7542	-4.2229	-3.7833	-3.9292	-4.3542	363.475	384.284	159.242	505.832	419.319	447.306	465.199	414.030	379.539	484.979	398.160	467.730	467.497	432.167	415.436	319.917	0.00047263	0.00045316	9.1583e-05	1361.8	4.7221e-06	4.2691e-06	1360.7	366.58	5.2853e-06	6.4775e-06	419.39	141.03	122.49	42.099	5.7267e-06	51.902	0.00048515	0.00047069	0.00013053	1376.6	5.1608e-06	5.1996e-06	1375.9	372.84	5.2085e-06	5.1526e-06	426.33	143.7	124.82	43.142	5.1858e-06	53.048	232.406	240.172	250.771	170.147	318.164	284.236	170.140	174.535	280.584	291.485	174.303	178.587	179.130	183.581	317.454	182.984	-8191	255	
39164.812	1	1	0	0	0.23654	0.15669	0.019777	0.34591	0.14148	0.15489	0.22898	0.076696	0.18594	0.10176	0.072681	0.15626	0.073794	0.1642	0.21743	0.13094	-3.0583	-4.2208	-4.2333	-3.6333	-4.4479	-3.575	-4.1229	-4.6083	-3.3187	-4.2021	-4.025	-3.5208	-4.5646	-3.6583	-3.6417	-4.5292	450.872	289.318	410.486	170.256	220.100	320.790	442.000	444.958	308.885	316.229	163.947	280.705	251.010	340.504	227.554	420.327	0.00052136	0.00033053	9.6027e-05	1364.9	5.7834e-06	5.0651e-06	1356.5	367.91	4.8089e-06	6.4619e-06	419.51	140.45	123.11	42.395	6.3757e-06	52.066	0.00047668	0.00046699	0.00012987	1377.4	5.056e-06	5.0622e-06	1375.3	373.79	5.1525e-06	5.2361e-06	426.29	143.82	125.14	43.259	5.224e-06	53.186	224.688	226.581	245.641	170.447	282.485	296.430	170.070	174.673	312.383	308.703	174.261	178.307	179.167	183.334	308.316	182.709	-8191	255	
39164.934	1	1	0	0	0.12653	0.1169	0.20466	0.15095	0.021341	0.22108	0.12741	0.31377	0.11942	0.067741	0.13624	0.16016	0.066009	0.17275	0.26399	0.21972	-3.075	-4.175	-4.1104	-3.6792	-4.275	-3.8542	-3.8229	-4.6562	-3.2771	-4.0563	-4.2729	-3.5375	-4.5896	-3.8854	-3.7583	-4.4333	443.887	429.324	358.920	488.796	366.725	497.349	508.969	454.506	246.768	441.428	283.727	189.235	300.368	258.368	439.458	425.204	0.00048937	0.00045647	8.5732e-05	1363.6	4.6619e-06	4.1139e-06	1359.9	368.05	3.7916e-06	2.3104e-06	422.19	140.91	122.67	42.238	1.7767e-06	52.056	0.00048081	0.00047015	0.00012995	1377.9	5.1592e-06	5.2007e-06	1377.6	373.7	5.1548e-06	5.1231e-06	427.02	143.88	125.22	43.167	5.1217e-06	53.221	225.796	263.211	277.076	170.046	298.458	324.705	170.221	174.830	332.845	290.049	174.172	178.646	179.434	183.521	332.850	182.963	-8191	255	
39165.027	1	1	0	0	0.25513	0.025943	0.048326	0.28038	0.24204	0.25006	0.28417	0.20379	0.14825	0.14559	0.16873	0.052562	0.26257	0.1385	0.17178	0.20735	-3.1458	-4.1792	-4.1104	-3.6083	-4.4437	-3.9062	-3.9625	-4.7104	-3.625	-4.2042	-4.3187	-3.5271	-4.4667	-3.9417	-3.575	-4.5479	280.954	228.177	279.431	459.378	267.272	341.389	448.799	459.854	374.864	177.645	183.753	220.695	515.603	407.673	242.634	183.403	0.00042248	0.00055622	0.00012152	1356.7	4.7003e-06	5.4733e-06	1358.1	369.32	7.7482e-06	2.6287e-06	420.23	140.62	122.97	42.262	6.2703e-06	51.893	0.0004691	0.00046015	0.00012416	1374.3	4.9813e-06	5.0147e-06	1376.4	374.42	5.0818e-06	4.97e-06	425.99	143.69	125.24	43.267	4.906e-06	53.262	226.243	253.675	283.281	170.192	269.072	247.138	170.123	174.687	313.051	246.818	174.140	178.418	179.135	183.765	332.762	183.198	-8191	255	
39165.102	1	1	0	0	0.17933	0.14187	0.34718	0.29496	0.098016	0.098333	0.28254	0.19778	0.096524	0.16184	0.22875	0.19028	0.26904	0.30422	0.24306	0.19576	-3.2333	-4.0563	-4.2521	-3.7104	-4.2688	-3.9708	-3.8604	-4.5708	-3.5187	-3.9708	-4.4563	-3.7125	-4.45	-4.0375	-3.6708	-4.425	349.511	500.944	220.283	499.405	435.450	433.780	471.410	503.998	279.436	158.552	480.085	485.083	222.880	178.429	270.553	472.159	0.00046152	0.00070968	0.00012352	1364.5	4.9095e-06	5.3047e-06	1365.1	368.82	5.0304e-06	4.7647e-06	421.1	140.97	123.07	42.459	6.1543e-06	52.414	0.00046904	0.00045219	0.00012536	1377.8	5.0226e-06	5.018e-06	1376.9	374.34	5.048e-06	4.9862e-06	426.4	144.03	125.38	43.37	5.1298e-06	53.348	229.075	242.801	210.544	170.187	271.192	279.614	170.333	174.794	265.413	287.271	174.443	178.453	178.970	183.715	237.563	182.786	-8191	255	
39165.223	1	1	0	0	0.27407	0.078765	0.071499	0.16167	0.19147	0.17009	0.37076	0.16009	0.21176	0.20969	0.22015	0.059446	0.21371	0.4265	0.14735	0.052711	-3.2687	-3.8312	-4.3354	-3.9104	-4.3479	-4.1021	-3.9938	-4.5062	-3.65	-3.7958	-4.5833	-3.7333	-4.2438	-4.2875	-3.5625	-4.6208	445.370	496.735	301.284	515.329	432.218	206.126	449.396	414.063	387.311	284.748	163.161	320.411	471.878	515.844	188.875	246.623	0.00050151	0.0005076	9.5826e-05	1363.3	3.5063e-06	3.7341e-06	1361	368.52	5.3389e-06	9.2544e-06	421.72	141.19	123.29	42.634	5.0893e-06	51.901	0.00047472	0.00045669	0.00012737	1378.8	5.0479e-06	5.1072e-06	1379.4	374.77	5.1547e-06	5.0972e-06	427.28	144	125.61	43.395	5.1267e-06	53.457	224.589	246.617	279.756	170.148	276.729	309.415	170.332	174.712	276.774	305.460	174.247	178.476	179.418	183.567	306.752	183.099	-8191	255	
39165.316	1	1	0	0	0.17135	0.095034	0.063324	0.34917	0.24039	0.089713	0.42037	0.24136	0.19899	0.11012	0.13789	0.21727	0.14355	0.16647	0.053132	0.14625	-3.3125	-3.8229	-4.3875	-3.575	-4.1542	-4.2021	-3.4938	-4.5125	-3.7292	-3.7167	-4.6271	-3.5708	-4.2292	-4.2812	-3.4521	-4.6792	374.500	413.978	162.388	465.609	334.702	218.335	455.607	472.187	399.918	397.372	451.810	431.632	474.288	482.900	419.331	178.488	0.00047658	0.00043932	0.00010011	1363	2.9928e-06	3.5654e-06	1366.1	369.15	2.3596e-06	6.8679e-06	421.75	141.28	123.41	42.503	5.186e-06	51.951	0.00048197	0.00045882	0.00012936	1377.3	5.0358e-06	5.0211e-06	1378.3	374.9	5.0745e-06	5.1122e-06	427.56	144.09	125.5	43.351	5.1292e-06	53.316	228.095	204.420	296.323	170.260	293.700	272.289	170.257	174.926	330.637	310.748	174.305	178.345	179.554	183.290	288.085	183.198	-8191	255	
39165.414	1	1	0	0	0.30779	0.14759	0.13498	0.17595	0.10975	0.091468	0.19305	0.16202	0.034314	0.26123	0.047359	0.10186	0.061935	0.080233	0.19339	0.3139	-3.5021	-3.7646	-4.7312	-3.5792	-3.9979	-4.2063	-3.6188	-4.5458	-3.875	-3.7062	-4.5646	-3.4125	-4.25	-4.4542	-3.2562	-4.4646	471.978	340.924	187.693	459.020	166.446	363.639	483.262	477.943	479.032	467.850	160.570	468.336	450.549	292.823	495.370	501.338	0.00046301	0.000599	0.00020072	1363.9	2.7084e-06	7.1338e-06	1360.5	370.41	6.0174e-06	3.1509e-06	423.49	140.94	122.87	42.367	4.5726e-06	52.467	0.0004687	0.00046006	0.00012696	1377.7	5.0484e-06	5.0201e-06	1375	375.59	5.0444e-06	5.0471e-06	427.9	143.93	125.61	43.318	5.2206e-06	53.518	224.656	274.237	237.534	170.118	250.984	294.250	169.740	174.776	301.399	289.029	174.620	178.533	179.117	183.702	318.201	183.221	-8191	255	
39165.535	1	1	0	0	0.17706	0.30294	0.068944	0.26416	0.10725	0.021662	0.32805	0.38537	0.18114	0.04577	0.095468	0.20296	0.1725	0.23909	0.12074	0.15628	-3.5938	-3.4813	-4.5375	-3.7521	-3.9354	-4.1229	-3.8833	-4.4292	-3.8104	-3.6458	-4.4187	-3.6771	-3.8	-4.2729	-3.3625	-4.4062	298.607	313.954	502.265	461.985	221.257	175.101	473.531	454.772	486.638	166.176	462.755	484.084	177.867	159.181	403.506	507.813	0.00047147	0.00048145	0.00015574	1363.8	6.943e-06	4.4403e-06	1356.8	370.61	3.536e-06	6.1495e-06	421.99	140.36	123.18	42.507	3.187e-06	52.445	0.00046585	0.00046893	0.00012831	1378.2	5.0721e-06	5.0093e-06	1375.7	375.39	5.1476e-06	5.0434e-06	428.04	143.86	125.6	43.394	5.2203e-06	53.472	234.564	251.389	262.311	169.951	301.216	304.302	170.104	174.814	322.070	312.709	174.022	178.283	179.249	183.523	332.740	183.231	-8191	255	
39165.629	1	1	0	0	0.075818	0.15499	0.21563	0.31086	0.20236	0.11035	0.22618	0.14626	0.09986	0.11622	0.23011	0.027117	0.013889	0.13166	0.23607	0.10393	-3.6271	-3.6375	-4.2188	-3.6729	-3.8646	-4.175	-3.5521	-4.4042	-3.7708	-3.5167	-4.4187	-3.7125	-3.9333	-4.3938	-3.4813	-4.2708	490.212	455.440	162.111	499.819	463.837	489.809	498.821	317.768	474.932	197.468	449.691	419.932	283.092	195.849	389.671	427.693	0.00047721	0.00033004	0.00011289	1362.6	4.5562e-06	2.8634e-06	1361.7	369.2	5.5674e-06	6.7867e-06	421.61	140.56	123.57	42.591	6.7832e-06	52.422	0.00047683	0.0004724	0.00012999	1378.7	5.087e-06	5.1071e-06	1377.9	375.13	5.1015e-06	5.0667e-06	427.26	143.84	125.84	43.504	5.2046e-06	53.613	229.756	275.059	254.775	170.121	284.786	271.122	169.993	174.854	314.174	302.409	174.477	178.543	179.093	183.349	295.203	183.100	-8191	255	
39165.727	1	1	0	0	0.23197	0.25658	0.072573	0.25546	0.15895	0.26036	0.15995	0.06649	0.25288	0.13233	0.049269	0.17682	0.052069	0.072839	0.28024	0.27174	-3.7604	-3.4375	-4.5312	-3.7812	-3.775	-4.3896	-3.6188	-4.3125	-4.0354	-3.3542	-4.5083	-3.7625	-3.9229	-4.4688	-3.3187	-4.2188	377.654	339.451	320.962	508.979	409.188	320.263	489.014	426.428	456.963	400.307	451.019	472.570	454.223	338.415	245.950	343.577	0.00051431	0.00018844	7.0871e-05	1364.4	7.9146e-06	5.7533e-06	1358.5	368.98	3.8684e-06	5.8696e-06	423.73	141.46	123.33	42.639	1.8239e-06	52.385	0.00047806	0.0004615	0.0001298	1377.8	5.1711e-06	5.1507e-06	1376.2	375.55	5.2278e-06	5.1165e-06	428.7	144.3	125.8	43.514	5.257e-06	53.725	227.538	235.364	192.525	169.956	276.822	305.871	169.937	174.910	282.897	289.099	174.510	178.152	179.321	183.666	380.065	183.060	-8191	255	
39165.797	1	1	0	0	0.21032	0.22005	0.083142	0.41961	0.14325	0.066058	0.20775	0.13181	0.084068	0.079956	0.20075	0.0512	0.11936	0.13316	0.13223	0.13441	-3.7938	-3.4604	-4.3458	-3.7396	-3.8146	-4.3708	-3.8396	-4.2958	-4.1854	-3.5708	-4.4396	-3.9854	-3.9042	-4.3083	-3.3646	-4.2208	452.231	320.452	236.667	503.788	508.267	249.116	477.737	350.891	483.453	452.884	515.895	390.862	245.399	170.268	300.974	480.852	0.00047223	0.00033276	0.00016436	1361.9	2.9021e-06	4.8539e-06	1356.6	369.39	5.6505e-06	3.3177e-06	422.76	141.75	123.21	42.555	3.0537e-06	52.54	0.00047655	0.00047542	0.00013023	1378.5	5.1426e-06	5.1168e-06	1375.9	375.36	5.3061e-06	5.3105e-06	428.53	144.47	125.86	43.556	5.2656e-06	53.753	225.025	205.380	270.578	169.946	295.137	318.910	169.964	174.807	293.474	315.309	174.228	178.457	179.101	183.875	296.049	183.018	-8191	255	
39165.918	1	1	0	0	0.061291	0.15898	0.038758	0.32047	0.12182	0.054803	0.19981	0.24955	0.10766	0.11109	0.12937	0.22551	0.17999	0.13947	0.1471	0.28084	-3.9938	-3.4958	-4.3917	-4.0625	-3.6542	-4.575	-3.5687	-4.275	-4.4333	-3.4437	-4.4875	-3.925	-3.5542	-4.6979	-3.4417	-3.9375	390.771	175.987	274.357	157.910	448.268	309.145	470.027	470.968	320.620	450.245	396.591	422.357	452.088	513.666	446.584	441.458	0.00050764	0.00061106	0.00011245	1364.5	4.5822e-06	9.5585e-06	1360.2	369.73	5.8165e-06	6.0465e-06	422.63	142.02	123.79	42.63	4.2032e-06	52.21	0.00049175	0.00047889	0.00013387	1380.5	5.2016e-06	5.2063e-06	1378.4	376.09	5.2604e-06	5.2175e-06	428.25	144.59	126.25	43.639	5.2376e-06	53.657	228.050	229.009	236.117	170.320	292.468	301.581	170.035	175.022	300.269	287.880	174.503	178.351	179.159	183.398	280.832	182.878	-8191	255	
39166.012	1	1	0	0	0.35379	0.13626	0.064746	0.10461	0.024433	0.19651	0.10688	0.043576	0.17174	0.037782	0.25443	0.098902	0.17777	0.032174	0.19076	0.20733	-3.9521	-3.575	-4.3458	-4.0792	-3.5	-4.5646	-3.7875	-4.1458	-4.4271	-3.3063	-4.625	-3.9229	-3.4979	-4.6271	-3.525	-4.0083	430.861	409.852	495.004	165.728	224.417	368.474	491.806	452.689	257.888	325.758	182.939	434.688	205.208	474.764	296.364	447.590	0.00052654	0.00064096	0.0001745	1362.4	3.5994e-06	4.758e-06	1355.8	368.19	5.0886e-06	4.7738e-06	421.74	141.6	123.65	42.895	3.6428e-06	52.311	0.00048549	0.00048336	0.00013351	1379.2	5.2329e-06	5.2615e-06	1375	375.15	5.2949e-06	5.293e-06	429.23	144.31	125.94	43.692	5.1669e-06	53.73	227.441	253.489	282.192	169.991	269.740	301.940	170.056	174.847	286.339	316.836	174.634	178.507	179.146	183.648	328.927	182.945	-8191	255	
39166.109	1	1	0	0	0.31292	0.19375	0.20716	0.31184	0.057695	0.11179	0.25104	0.14935	0.2015	0.006365	0.31685	0.018807	0.24581	0.18383	0.19419	0.037543	-4.1562	-3.3187	-4.2	-4.2146	-3.5125	-4.4042	-3.8187	-4.0687	-4.3208	-3.5458	-4.3208	-4.0813	-3.7562	-4.5687	-3.6083	-3.9333	270.247	363.184	248.086	490.898	310.846	343.449	473.571	444.237	508.681	162.153	424.982	212.563	464.059	197.960	286.501	426.034	0.00047179	0.00057726	0.00012913	1364.3	3.0837e-06	5.8635e-06	1361.8	369.67	7.7985e-06	4.653e-06	421.53	141.1	123.43	42.652	7.1802e-06	52.412	0.00048423	0.00048691	0.00012987	1379.5	5.2515e-06	5.2755e-06	1377.3	375.6	5.2685e-06	5.2294e-06	428.63	144.18	125.91	43.646	5.3593e-06	53.795	231.028	262.676	248.755	170.029	312.904	298.185	169.955	174.617	300.601	284.938	174.367	178.499	179.094	183.825	298.128	182.970	-8191	255	
39166.203	1	1	0	0	0.1332	0.16502	0.13309	0.11042	0.20935	0.17074	0.19518	0.31991	0.18618	0.099049	0.28524	0.25025	0.14809	0.13588	0.16412	0.29266	-4.1083	-3.3708	-4.2604	-4.1417	-3.4271	-4.5604	-3.9604	-3.8604	-4.4917	-3.3792	-4.2229	-4.375	-3.6708	-4.5104	-3.8083	-3.85	289.319	284.940	270.730	514.853	259.875	370.007	496.741	415.067	436.328	318.119	426.829	165.965	416.798	477.669	340.683	502.408	0.000482	0.00041241	0.00015172	1363.3	5.2775e-06	1.5506e-06	1354	369.49	2.9283e-06	5.3098e-06	423.74	141.36	123.72	42.473	4.3503e-06	52.497	0.00049259	0.00048175	0.00013368	1380.5	5.3198e-06	5.2365e-06	1374.7	375.95	5.2433e-06	5.3491e-06	429.27	144.24	125.8	43.621	5.3965e-06	53.746	231.671	223.471	251.139	170.200	307.398	269.936	170.060	174.875	318.874	289.124	174.495	178.385	179.043	183.947	332.911	182.877	-8191	255	
39166.324	1	1	0	0	0.24432	0.18124	0.063921	0.257	0.14245	0.24059	0.13447	0.1626	0.20842	0.043613	0.18129	0.17907	0.30873	0.13699	0.16277	0.062624	-4.1562	-3.5062	-4.0083	-4.3187	-3.5729	-4.3938	-4.1667	-3.9146	-4.5042	-3.675	-4.2771	-4.3271	-3.6833	-4.5979	-3.8396	-3.8229	435.445	284.404	171.990	463.376	224.277	244.664	377.740	469.075	413.443	166.501	461.642	451.294	461.703	480.551	437.212	484.172	0.00048312	0.0006662	0.00012833	1367.7	4.2124e-06	4.6033e-06	1363.1	369.23	3.0542e-06	4.532e-06	423.11	141.12	123	42.705	4.127e-06	52.499	0.0004889	0.00047762	0.00013288	1379.6	5.3081e-06	5.2188e-06	1376.8	375.3	5.2958e-06	5.291e-06	428.53	144.19	125.74	43.606	5.2277e-06	53.717	227.849	250.927	259.685	170.113	290.763	333.724	169.762	174.894	282.343	317.456	174.200	178.404	178.890	183.626	328.309	182.965	-8191	255	
39166.398	1	1	0	0	0.07166	0.15381	0.093199	0.24891	0.10602	0.095424	0.28771	0.15736	0.17761	0.26536	0.26086	0.15578	0.19889	0.32718	0.14369	0.27931	-4.0792	-3.4938	-4.1167	-4.4458	-3.1979	-4.3313	-4.2271	-3.8	-4.5021	-3.5563	-4.1771	-4.5646	-3.5458	-4.3792	-3.8583	-3.7167	282.559	437.423	436.074	488.597	475.518	505.008	438.934	507.207	191.852	315.472	469.984	431.994	492.470	480.055	284.860	446.865	0.00049674	0.00081254	0.00015205	1362.8	7.8669e-06	1.2123e-06	1353.4	369	5.3513e-06	1.7309e-06	421.66	141.99	123.14	42.5	3.1236e-06	52.757	0.00048906	0.00048349	0.00013323	1378.8	5.2588e-06	5.3215e-06	1374	375.81	5.2206e-06	5.3212e-06	428.2	144.51	126.02	43.618	5.3348e-06	53.843	226.959	240.712	275.490	170.054	279.895	331.008	170.044	174.846	294.806	244.637	174.357	178.169	178.861	183.755	291.754	183.279	-8191	255	
39166.492	1	1	0	0	0.071553	0.077189	0.25033	0.24718	0.16807	0.27998	0.28521	0.065593	0.062273	0.23803	0.41575	0.25025	0.25299	0.040905	0.076552	0.14407	-4.0854	-3.4771	-3.8063	-4.5125	-3.2833	-4.3688	-4.2479	-3.5812	-4.4313	-3.6604	-3.9667	-4.4604	-3.55	-4.3812	-4.1729	-3.6042	379.121	493.917	383.524	471.347	189.583	398.131	444.247	449.105	308.671	245.423	457.560	389.230	200.803	191.207	219.024	497.863	0.00050783	0.00044928	0.00017941	1365.4	4.9995e-06	5.1898e-06	1359	368.8	4.1853e-06	4.6547e-06	422.3	141.53	123.89	42.732	7.7271e-06	52.507	0.00048849	0.00048673	0.00013482	1380.1	5.2958e-06	5.2543e-06	1375.4	375.48	5.3129e-06	5.3432e-06	429.27	144.23	125.78	43.643	5.3403e-06	53.775	225.456	297.217	253.468	170.186	295.398	320.841	169.847	174.629	320.259	315.341	174.491	178.372	178.716	183.957	280.205	182.980	-8191	255	
39166.613	1	1	0	0	0.043891	0.1195	0.093533	0.17992	0.094949	0.18045	0.09218	0.10134	0.25238	0.30108	0.2936	0.19578	0.20643	0.047446	0.069784	0.13328	-4.2708	-3.5812	-3.7708	-4.7896	-3.3917	-4.2542	-4.25	-3.6667	-4.4667	-3.7438	-4.0521	-4.5917	-3.4625	-4.275	-4.1479	-3.3396	458.542	274.230	419.084	470.520	325.803	370.147	306.206	234.818	247.200	262.843	490.843	450.346	403.285	385.900	350.786	500.282	0.00046222	0.00073956	0.00012865	1361.3	7.7448e-06	6.7643e-06	1354.6	369.65	4.3839e-06	4.6799e-06	423.65	141.08	123	42.684	4.0337e-06	52.565	0.00049052	0.00047801	0.00013345	1380	5.3227e-06	5.2705e-06	1373.4	374.96	5.2994e-06	5.3079e-06	428.96	144.39	125.76	43.706	5.396e-06	53.749	225.912	212.790	200.704	170.079	297.721	287.845	170.078	174.766	326.685	283.513	174.408	178.348	179.165	183.659	285.419	182.913	-8191	255	
39166.711	1	1	0	0	0.068048	0.031167	0.061368	0.1643	0.14822	0.19526	0.37756	0.24325	0.15558	0.23799	0.22838	0.30277	0.098444	0.1142	0.16817	0.296	-4.2208	-3.7292	-3.6437	-4.8333	-3.1208	-4.1312	-4.3292	-3.6125	-4.4646	-3.7958	-3.7646	-4.5437	-3.4688	-4.1583	-4.2688	-3.5208	285.266	337.626	275.729	479.174	368.040	443.387	438.248	492.103	232.912	179.945	292.159	465.338	205.942	220.325	165.139	463.810	0.00053658	0.00056483	0.00018584	1369.4	1.1137e-06	3.9848e-06	1352.4	369.16	5.6431e-06	4.8112e-06	422.35	141.12	123.42	42.748	5.9728e-06	52.565	0.00048801	0.0004799	0.00013484	1381.2	5.4077e-06	5.2874e-06	1374.8	375.49	5.3241e-06	5.3112e-06	428.62	144.28	125.92	43.706	5.357e-06	53.713	229.839	261.171	262.147	170.019	334.832	275.186	170.086	174.661	298.784	260.200	174.315	178.326	178.924	183.709	332.993	183.372	-8191	255	
39166.805	1	1	0	0	0.092794	0.11752	0.1456	0.11439	0.059531	0.21751	0.18651	0.1562	0.025817	0.22239	0.063306	0.10434	0.1194	0.24954	0.29131	0.22559	-4.025	-3.8083	-3.5833	-4.4979	-3.3792	-3.9146	-4.4854	-3.5521	-4.4771	-3.9229	-3.7188	-4.6375	-3.4208	-3.9708	-4.4417	-3.55	398.034	257.845	302.941	437.734	305.928	280.208	406.427	469.545	388.234	329.018	409.840	196.989	355.495	436.607	263.284	353.676	0.00043992	0.00065296	0.0002062	1365.3	5.3689e-06	3.7107e-06	1358.6	368.91	4.5656e-06	2.1353e-06	422.37	141.66	123.16	42.657	1.7695e-06	52.173	0.00049016	0.00047785	0.00013383	1381.9	5.2297e-06	5.2787e-06	1376.8	375.39	5.2336e-06	5.2508e-06	428.64	144.5	125.64	43.661	5.2998e-06	53.602	223.417	226.051	267.991	170.066	303.630	337.704	170.045	174.685	321.397	344.905	174.262	178.466	178.910	183.965	385.662	182.821	-8191	255	
39166.902	1	1	0	0	0.10856	0.22923	0.16321	0.30925	0.14897	0.20606	0.1574	0.13177	0.09315	0.023401	0.39182	0.078892	0.17199	0.21598	0.18979	0.29405	-4.0229	-3.8917	-3.4917	-4.6604	-3.5187	-3.9708	-4.6292	-3.6437	-4.4146	-4.0667	-3.8187	-4.3729	-3.8875	-4.0396	-4.3146	-3.5875	433.398	333.268	297.786	488.594	472.119	343.530	484.793	415.988	291.662	162.933	428.860	178.476	478.360	161.686	476.628	477.851	0.00049511	0.00057775	0.00016134	1363	5.234e-06	3.5087e-06	1361.8	370.73	5.7497e-06	2.1111e-06	423.66	141.07	123.18	42.501	6.09e-06	52.485	0.00048883	0.00047424	0.00013478	1380.3	5.2907e-06	5.3036e-06	1375	375.8	5.227e-06	5.1982e-06	428.56	144.46	125.77	43.657	5.2338e-06	53.724	232.200	251.506	255.112	170.068	299.137	251.360	169.963	174.668	324.525	319.421	174.377	178.587	178.954	183.105	276.564	182.496	-8191	255	
39166.996	1	1	0	0	0.064662	0.25926	0.17979	0.2281	0.12752	0.23007	0.085018	0.14739	0.1426	0.011107	0.143	0.26613	0.030984	0.17922	0.079199	0.20847	-3.9542	-4.0458	-3.5708	-4.5417	-3.6917	-3.9458	-4.4896	-3.7	-4.3229	-4.1542	-3.6292	-4.675	-3.6437	-3.9813	-4.2833	-3.5854	168.076	406.520	171.414	505.945	500.540	250.118	414.009	328.280	513.850	463.931	457.092	162.868	176.152	178.136	170.081	242.989	0.00051203	0.00025994	7.7108e-05	1369.2	5.924e-07	5.7862e-06	1360.7	369.85	7.0081e-06	3.6482e-06	421.22	141.35	122.91	42.949	4.1064e-06	52.158	0.00048789	0.00047531	0.00013305	1383.8	5.2315e-06	5.1919e-06	1376.2	375.24	5.1718e-06	5.0441e-06	428.82	144.38	125.47	43.679	5.2015e-06	53.595	226.543	207.901	223.072	170.092	310.285	324.684	169.974	174.630	293.496	318.645	174.486	178.706	178.762	183.994	292.471	182.822	-8191	255	
39167.094	1	1	0	0	0.1037	0.13317	0.14144	0.22646	0.19094	0.1511	0.28031	0.13839	0.18545	0.038049	0.22305	0.23653	0.35844	0.17288	0.10048	0.12711	-3.8312	-4.0125	-3.5167	-4.6021	-3.7458	-3.825	-4.5458	-3.6521	-4.1312	-4.1146	-3.6604	-4.5417	-3.6813	-3.9792	-4.3458	-3.5438	369.166	448.321	269.786	470.398	342.009	487.827	417.772	395.313	440.998	484.198	391.984	395.320	505.400	177.262	384.813	390.670	0.0005171	0.00063894	0.00012265	1370.2	3.0916e-06	4.6682e-06	1360.6	369.43	4.3791e-06	7.1653e-06	422.07	141.66	123.08	42.757	3.8873e-06	52.504	0.00048435	0.00047134	0.00013079	1382.8	5.1618e-06	5.1866e-06	1376.9	375.25	5.165e-06	5.1502e-06	428.73	144.65	125.68	43.656	5.2344e-06	53.712	226.193	253.131	240.382	170.223	303.994	287.275	169.967	174.656	315.762	295.685	174.072	178.379	178.914	183.699	285.070	182.796	-8191	255	
39167.215	1	1	0	0	0.020676	0.19628	0.21636	0.36757	0.030467	0.050188	0.21768	0.19373	0.25156	0.061657	0.33917	0.28855	0.15742	0.072027	0.076906	0.22484	-3.8063	-4.2063	-3.4125	-4.7396	-3.7667	-3.6167	-4.6562	-3.425	-4.0479	-4.0354	-3.6083	-4.3333	-3.8583	-3.7667	-4.2604	-3.5417	250.405	353.896	435.605	168.300	283.416	356.145	434.726	434.538	242.945	290.069	436.698	502.276	511.818	423.183	268.636	192.804	0.00051785	0.00049395	8.8078e-05	1371.9	5.1363e-06	9.1306e-06	1359.5	367.65	6.0457e-06	5.8399e-06	420.17	142.55	123.22	42.645	5.9534e-06	52.371	0.00048401	0.00046541	0.00013103	1385.8	5.1149e-06	5.1449e-06	1378.9	375.16	5.1489e-06	5.163e-06	427.84	144.73	125.49	43.663	5.1712e-06	53.641	224.222	239.485	273.625	170.287	288.915	325.991	170.051	174.635	291.340	314.465	173.999	178.316	179.001	183.555	271.307	182.919	-8191	255	
39167.309	1	1	0	0	0.039493	0.089237	0.23963	0.089742	0.097225	0.14651	0.11001	0.01526	0.074536	0.23263	0.053	0.22558	0.26586	0.20518	0.1164	0.20028	-3.6125	-4.3542	-3.3333	-4.5813	-3.9208	-3.5208	-4.5125	-3.7313	-4.0646	-4.35	-3.7396	-4.4479	-4.1083	-3.5375	-4.6583	-3.6688	328.514	342.405	197.541	453.654	186.214	290.939	455.121	405.514	164.742	492.900	313.858	419.693	493.960	210.733	454.541	175.001	0.0004582	0.000398	0.00019095	1367.2	3.1325e-06	5.0795e-06	1358.2	368.95	4.5722e-06	2.9678e-06	421.51	141.64	123.64	42.71	7.7078e-06	52.399	0.00046832	0.00045918	0.00012941	1383.7	5.0737e-06	5.1409e-06	1377.8	375.36	4.9252e-06	5.0434e-06	428.06	144.43	125.6	43.631	5.0197e-06	53.625	231.437	245.441	226.749	170.328	280.228	322.554	170.079	174.763	300.485	269.133	174.029	178.574	178.654	183.800	251.880	182.828	-8191	255	
39167.406	1	1	0	0	0.21313	0.25198	0.1474	0.25266	0.088147	0.16491	0.1325	0.15552	0.055431	0.059499	0.034637	0.079993	0.22329	0.1285	0.13435	0.11831	-3.6042	-4.2354	-3.3896	-4.4688	-3.9479	-3.5938	-4.7583	-3.7687	-3.9271	-4.4021	-3.7708	-4.2917	-3.9875	-3.55	-4.5104	-3.7396	162.796	476.050	397.183	161.362	489.718	342.569	422.834	444.819	260.258	359.204	429.698	253.807	461.329	185.644	164.611	408.769	0.0004956	0.00045817	0.00015382	1370.4	5.4827e-06	9.6987e-06	1363.2	369.9	4.1453e-06	7.3577e-06	421.64	142.07	123.37	42.453	1.9765e-06	52.552	0.00046974	0.00046033	0.00012942	1384.8	4.9885e-06	5.1229e-06	1379.5	375.33	5.138e-06	5.0696e-06	428.66	144.6	125.78	43.575	5.0275e-06	53.631	229.012	261.272	279.807	170.306	312.793	284.653	170.112	174.786	336.737	302.583	174.205	178.469	178.752	183.480	335.085	183.132	-8191	255	
39167.504	1	1	0	0	0.016844	0.16863	0.13777	0.18878	0.3291	0.14577	0.31108	0.29725	0.19295	0.2049	0.16998	0.35136	0.13691	0.17548	0.14243	0.18734	-3.6354	-4.3417	-3.35	-4.5354	-4.0062	-3.6104	-4.6917	-3.9938	-3.8521	-4.3125	-3.5729	-4.2542	-4.1708	-3.6667	-4.2833	-3.8083	383.841	358.504	372.244	456.358	346.759	508.737	450.902	450.306	317.500	233.262	381.849	467.639	386.423	354.330	207.037	168.830	0.00046858	0.00040644	0.0001496	1365.6	3.4326e-06	2.5555e-06	1366.7	370.49	5.6515e-06	5.4137e-06	420.98	141.7	122.71	42.776	1.9062e-06	52.186	0.00047054	0.00045514	0.0001278	1383.9	5.082e-06	4.9986e-06	1379.9	375.15	5.0629e-06	5.0135e-06	427.72	144.64	125.59	43.645	5.0033e-06	53.545	227.765	214.435	251.537	170.263	260.060	304.646	169.897	174.592	306.873	301.623	173.972	178.536	178.777	183.615	334.347	182.868	-8191	255	
39167.621	1	1	0	0	0.1032	0.10891	0.3032	0.11898	0.049909	0.14777	0.11058	0.10815	0.21819	0.18054	0.14055	0.038052	0.22699	0.28241	0.13094	0.29507	-3.3312	-4.3333	-3.4792	-4.3854	-4.1771	-3.5625	-4.6521	-3.9146	-3.7	-4.3979	-3.6708	-4.1687	-4.2042	-3.8125	-4.4604	-4.0042	361.813	191.828	362.250	485.523	452.391	227.135	484.754	406.912	346.206	229.521	466.184	409.860	432.956	501.094	336.352	509.075	0.00052253	0.00092553	4.3744e-05	1375.2	5.3092e-06	2.8739e-06	1365.8	368.9	2.7555e-06	4.6271e-06	423.27	142.48	122.96	42.761	4.1423e-06	52.443	0.00046327	0.00045085	0.00012609	1387	4.915e-06	4.9677e-06	1380.3	375.72	4.9634e-06	4.8836e-06	428.7	144.89	125.68	43.68	4.8303e-06	53.657	227.039	242.085	248.505	170.403	285.673	302.705	170.170	174.508	309.907	312.030	174.144	178.688	178.972	183.541	255.969	183.022	-8191	255	
39167.691	1	1	0	0	0.11463	0.17962	0.27366	0.25663	0.11294	0.33953	0.36205	0.098747	0.24027	0.055987	0.23733	0.16374	0.11019	0.34346	0.26543	0.22672	-3.3896	-4.3625	-3.5083	-4.2896	-4.2333	-3.4562	-4.5667	-3.9333	-3.4938	-4.4792	-3.4708	-4.0312	-4.4583	-3.5708	-4.2604	-3.925	435.320	440.076	469.242	465.607	180.057	219.354	460.609	482.890	162.574	217.761	405.129	247.816	465.417	181.174	260.676	205.900	0.00042371	0.00070466	0.00010001	1377.2	6.6311e-06	6.4829e-06	1369.5	369.62	3.986e-06	3.1259e-06	423.95	141.35	124.87	43.012	2.9783e-06	52.582	0.00044752	0.00042749	0.00012112	1390.1	4.703e-06	4.66e-06	1382.6	375.51	4.6767e-06	4.7081e-06	428.66	144.68	126.2	43.762	4.675e-06	53.71	227.148	267.779	173.494	170.468	287.055	283.841	170.080	174.672	302.338	294.443	174.081	178.723	178.963	183.633	349.174	182.677	-8191	255	
39167.789	1	1	0	0	0.27387	0.10282	0.24879	0.3467	0.14446	0.083387	0.27616	0.092343	0.10958	0.084807	0.13656	0.028942	0.20258	0.064727	0.14584	0.15248	-3.2646	-4.4625	-3.4625	-4.2042	-4.225	-3.3812	-4.6312	-4.2667	-3.6562	-4.3771	-3.6417	-3.8854	-4.4437	-3.3792	-4.2854	-4.125	349.389	281.475	384.999	484.644	438.991	394.122	487.445	471.674	362.266	374.341	434.747	469.879	500.331	198.050	462.417	488.257	0.00048818	0.00040925	5.4348e-05	1376.7	2.8741e-06	7.1902e-06	1368.7	370.54	3.112e-06	5.4542e-06	423.34	142.59	124.33	42.601	4.4814e-06	52.336	0.0004331	0.00041408	0.00011591	1388.4	4.6312e-06	4.5587e-06	1381.8	375.67	4.6673e-06	4.5571e-06	429.27	145.05	126.17	43.702	4.618e-06	53.599	229.000	247.588	248.771	170.219	305.928	316.117	170.170	174.759	255.290	297.267	174.173	178.726	179.060	183.883	284.606	183.087	-8191	255	
39167.887	1	1	0	0	0.15918	0.21852	0.095385	0.40106	0.12851	0.12829	0.20619	0.23384	0.086822	0.035327	0.165	0.26934	0.24787	0.24483	0.24014	0.22856	-3.2771	-4.4083	-3.5083	-4.1604	-4.5042	-3.3854	-4.3542	-4.1792	-3.4437	-4.4958	-3.7896	-3.8021	-4.5583	-3.4021	-4	-4.1167	412.530	469.689	203.204	468.086	416.429	347.536	477.710	420.661	220.898	443.860	409.742	488.186	475.432	510.810	412.837	406.411	0.0004836	0.00058648	0.00014034	1375.9	6.2337e-06	5.5836e-06	1367.5	368.8	3.2371e-06	3.5844e-06	421.77	143.1	123.69	42.733	8.0481e-06	52.658	0.00042652	0.00041309	0.00011323	1388	4.5472e-06	4.4968e-06	1383.5	375.43	4.5456e-06	4.4639e-06	428.19	145	126.02	43.676	4.6123e-06	53.722	223.014	277.239	252.359	170.507	281.659	342.698	170.183	174.746	315.030	324.041	174.276	178.539	179.142	183.210	307.976	183.098	-8191	255	
39168.008	1	1	0	0	0.13544	0.17259	0.18513	0.26094	0.092042	0.04691	0.14477	0.2856	0.29627	0.03808	0.25577	0.18138	0.29414	0.15509	0.15635	0.29856	-3.2604	-4.4917	-3.825	-3.9667	-4.2417	-3.4521	-4.4354	-4.3604	-3.3417	-4.35	-3.9896	-3.9813	-4.4729	-3.55	-4.05	-4.1208	273.455	249.867	247.939	419.607	185.525	415.171	471.263	397.268	433.704	268.727	452.920	257.173	445.772	186.504	483.895	472.176	0.00049929	0.00052277	5.0856e-05	1371.9	7.1635e-06	6.7891e-06	1365.4	372.62	3.5337e-06	4.8267e-06	422.4	142.07	123.84	42.814	3.4421e-06	52.436	0.00043732	0.00041102	0.00011491	1386.6	4.4581e-06	4.4944e-06	1380.4	376.34	4.579e-06	4.5276e-06	428.28	144.83	126.06	43.728	4.4944e-06	53.636	223.609	220.657	267.826	170.216	254.644	300.440	170.294	174.485	326.257	287.739	174.024	178.746	179.105	183.442	299.773	182.675	-8191	255	
39168.102	1	1	0	0	0.25349	0.17732	0.15161	0.22882	0.067341	0.36924	0.19479	0.11668	0.066498	0.078948	0.21805	0.047247	0.10646	0.21209	0.13811	0.30997	-3.1896	-4.3167	-3.8354	-3.9604	-4.3417	-3.4	-4.1833	-4.3646	-3.375	-4.5104	-4.0542	-3.7771	-4.5167	-3.5521	-3.9271	-4.5062	405.816	470.966	291.211	474.646	175.453	359.665	390.655	329.587	384.272	333.962	469.689	378.452	177.762	478.022	488.796	485.988	0.00043539	0.00048664	0.00012464	1371.8	5.8345e-06	1.1399e-06	1367.3	369.47	6.2226e-06	3.0529e-06	423.68	142.5	123.67	42.75	7.479e-06	52.315	0.00041838	0.00039844	0.00011095	1386.4	4.4415e-06	4.3491e-06	1381.5	375.38	4.4646e-06	4.3746e-06	428.1	144.83	125.9	43.616	4.4855e-06	53.591	227.387	232.721	265.474	170.019	326.277	389.112	170.189	174.947	302.904	312.892	174.378	178.833	179.056	183.623	318.108	183.034	-8191	255	
39168.199	1	1	0	0	0.16221	0.12602	0.27795	0.10601	0.11617	0.028399	0.24861	0.24614	0.1709	0.028337	0.10217	0.22623	0.22217	0.060281	0.10864	0.12834	-2.9813	-4.4062	-3.7938	-3.6167	-4.45	-3.4208	-4.1833	-4.4771	-3.3042	-4.3875	-3.9583	-3.7646	-4.3583	-3.6521	-4.0146	-4.2771	159.021	194.042	456.080	470.252	172.581	251.271	423.529	474.413	211.641	247.368	382.816	460.454	174.029	475.958	434.496	483.004	0.00050133	0.00050039	0.00016864	1375.2	3.0932e-06	5.188e-06	1365.3	372.63	2.6622e-06	2.8087e-06	423.66	142.13	123.72	42.775	8.9417e-06	52.497	0.00042318	0.000399	0.00011429	1390	4.4279e-06	4.4921e-06	1384.3	376.92	4.4881e-06	4.4934e-06	428.57	144.94	125.98	43.642	4.5344e-06	53.748	230.550	227.220	270.036	170.301	288.019	283.421	170.270	174.817	264.753	258.320	173.976	178.246	178.966	183.458	319.634	182.704	-8191	255	
39168.297	1	1	0	0	0.16395	0.097183	0.14775	0.17226	0.10219	0.28995	0.37213	0.20335	0.30659	0.1262	0.18274	0.19607	0.17206	0.20085	0.024557	0.1203	-3.0792	-4.4	-3.9437	-3.5833	-4.4833	-3.5479	-3.9771	-4.5479	-3.25	-4.2604	-4.0021	-3.7	-4.4708	-3.5333	-3.7146	-4.5375	234.334	363.418	301.108	432.007	431.964	157.069	429.432	488.423	330.995	446.818	416.687	389.834	513.724	476.420	196.561	458.668	0.00047422	0.00058524	0.00011018	1375.6	5.0887e-06	3.9307e-06	1365.2	371.45	6.6977e-06	3.5094e-06	420.77	142.61	123.56	42.846	4.2581e-06	52.831	0.00042677	0.00041003	0.00011171	1387.7	4.4309e-06	4.4935e-06	1383.2	375.49	4.5327e-06	4.4118e-06	427.7	145.11	125.96	43.651	4.5346e-06	53.861	229.534	241.964	245.734	170.254	307.107	291.833	170.145	174.724	307.175	337.882	173.902	178.446	178.938	183.239	287.932	183.096	-8191	255	
39168.391	1	1	0	0	0.078616	0.07927	0.083354	0.17885	0.087928	0.37945	0.16307	0.18155	0.30037	0.066082	0.18334	0.074463	0.35722	0.14989	0.040078	0.14503	-2.9479	-4.275	-4.0646	-3.7604	-4.5479	-3.8708	-3.9083	-4.3792	-3.3375	-4.1	-4.1875	-3.7042	-4.7271	-3.6542	-3.8542	-4.6271	489.883	259.119	228.531	443.050	337.970	505.023	441.147	401.098	465.871	425.889	427.067	157.739	206.851	325.621	484.544	440.695	0.00052065	0.00049929	0.00019891	1380.2	4.8868e-06	4.0077e-06	1371.4	370.95	4.2507e-06	6.9543e-07	423.19	142.36	124.03	42.765	7.6311e-06	52.708	0.00042543	0.00040331	0.00011385	1389.1	4.39e-06	4.4233e-06	1384.4	376.58	4.5782e-06	4.46e-06	428.39	144.98	126.13	43.604	4.5552e-06	53.724	226.650	225.856	257.991	170.512	307.248	285.037	170.119	174.621	342.269	300.128	174.274	178.372	179.102	183.286	294.162	182.861	-8191	255	
39168.488	1	1	0	0	0.2789	0.14954	0.081488	0.16334	0.05884	0.041856	0.22986	0.13345	0.062868	0.18037	0.035743	0.14642	0.22258	0.11386	0.084507	0.20118	-3.0104	-4.1354	-4.1687	-3.6208	-4.4313	-3.7062	-3.8688	-4.7042	-3.45	-4.05	-4.4458	-3.5187	-4.5563	-3.8708	-3.6937	-4.5563	449.249	269.642	232.757	461.226	161.942	454.370	504.674	428.146	492.974	245.770	167.102	439.424	189.411	512.349	309.721	306.556	0.00047529	0.00045556	6.3422e-05	1374.7	2.107e-06	4.4474e-06	1370.8	369.85	6.5204e-06	9.9421e-07	421.5	142.04	124.06	42.884	5.169e-06	52.803	0.00042764	0.00040841	0.00011318	1386.7	4.4721e-06	4.4537e-06	1383.9	376.31	4.5488e-06	4.4906e-06	428.57	144.75	126.4	43.672	4.5371e-06	53.787	228.004	224.465	289.447	170.212	271.000	283.955	170.169	174.638	305.195	254.095	174.087	178.441	179.109	183.612	319.343	182.813	-8191	255	
39168.582	1	1	0	0	0.14923	0.046038	0.13765	0.30252	0.20797	0.16458	0.3762	0.33678	0.25017	0.14535	0.0637	0.14477	0.091975	0.19104	0.10336	0.13984	-3.0146	-4.0479	-4.2958	-3.9125	-4.4625	-3.8667	-3.925	-4.6875	-3.3479	-3.9938	-4.3875	-3.4917	-4.6354	-3.9208	-3.6333	-4.5458	511.475	163.999	479.248	456.112	220.438	176.067	469.916	488.615	497.214	486.210	443.827	377.920	450.281	488.890	167.171	495.094	0.00046384	0.00062097	0.00016024	1369.1	4.386e-06	5.8923e-06	1361.2	369.64	3.6953e-06	5.5202e-06	423.37	141.86	124.16	42.642	4.5899e-06	52.404	0.00042128	0.00040416	0.00011206	1385.2	4.3942e-06	4.3966e-06	1380	375.77	4.4895e-06	4.4681e-06	428.81	144.7	126.18	43.615	4.4747e-06	53.715	229.379	252.728	241.685	170.137	309.135	301.162	170.202	174.713	303.961	289.798	174.124	178.359	179.345	183.621	283.263	182.818	-8191	255	
39168.703	1	1	0	0	0.14068	0.25268	0.11095	0.18461	0.012437	0.1368	0.32658	0.31322	0.13924	0.26674	0.31411	0.35466	0.23768	0.07699	0.10573	0.15303	-3.1354	-3.8937	-4.4542	-3.6667	-4.3771	-3.9417	-3.6688	-4.8	-3.6021	-3.8438	-4.6729	-3.4062	-4.4917	-4.1833	-3.4646	-4.6292	226.726	391.262	378.134	428.389	506.430	499.674	497.988	440.061	476.164	353.218	434.857	455.270	160.806	416.291	515.783	490.264	0.00053991	0.00056666	0.00011626	1368.5	4.0864e-06	5.4651e-06	1361.9	368.95	7.2814e-06	4.176e-06	421.81	141.92	124.18	42.709	3.1503e-06	52.545	0.0004239	0.00039517	0.00011117	1384.4	4.3792e-06	4.4614e-06	1378.2	376.07	4.5848e-06	4.4762e-06	428.66	144.47	126.08	43.552	4.4719e-06	53.711	224.052	241.280	232.029	170.171	283.429	310.250	170.269	174.816	320.234	333.487	174.271	178.362	179.140	183.365	341.773	182.733	-8191	255	
39168.797	1	1	0	0	0.22888	0.21662	0.099288	0.2465	0.1672	0.040764	0.26618	0.149	0.021612	0.07695	0.26467	0.35947	0.13165	0.15236	0.15456	0.23986	-3.5333	-3.9146	-4.3792	-3.7271	-4.1729	-4.1375	-3.7521	-4.65	-3.6396	-3.75	-4.5312	-3.5438	-4.4229	-4.2604	-3.4104	-4.6042	250.872	514.623	298.341	465.515	264.988	273.472	442.145	186.814	360.023	241.484	475.977	194.149	270.575	199.577	440.286	456.083	0.00047841	0.00091126	0.00014227	1366	6.444e-06	5.9944e-06	1363.3	371.21	6.2688e-06	6.1734e-06	423.51	141.72	123.52	42.969	3.1405e-06	52.584	0.00041793	0.00039741	0.00011324	1381.1	4.4807e-06	4.3872e-06	1377.8	376.06	4.5407e-06	4.4944e-06	427.89	144.38	126.11	43.695	4.5483e-06	53.851	233.233	249.062	265.573	170.066	332.594	308.014	169.979	174.497	306.652	316.194	173.869	178.312	178.921	183.594	298.232	183.124	-8191	255	
39168.895	1	1	0	0	0.0728	0.097233	0.33929	0.23012	0.11747	0.1675	0.27519	0.22371	0.18395	0.21515	0.13485	0.069432	0.16134	0.31904	0.08776	0.19517	-3.375	-3.7208	-4.6271	-3.6896	-4.0833	-4.4229	-3.6021	-4.6417	-3.7875	-3.9167	-4.4708	-3.5312	-4.2521	-4.3604	-3.3063	-4.575	233.104	472.522	380.797	436.432	447.981	365.123	432.699	441.952	429.898	209.999	424.048	207.610	504.479	167.197	380.649	358.284	0.00050807	0.00064194	0.00023451	1370.3	5.5689e-06	1.6013e-06	1359.3	371.69	4.0754e-06	4.763e-06	424.13	141.16	124.31	42.814	4.3804e-06	52.625	0.00042888	0.00041363	0.00011385	1383.3	4.5776e-06	4.5672e-06	1378.1	376.52	4.6359e-06	4.5262e-06	428.28	144.41	126.36	43.67	4.6163e-06	53.864	227.465	245.300	248.354	170.110	308.004	275.599	170.277	175.045	298.358	289.153	174.090	178.500	179.298	183.105	265.000	182.949	-8191	255	
39168.988	1	1	0	0	0.074973	0.067347	0.15749	0.24904	0.079626	0.055829	0.1312	0.23617	0.17909	0.28189	0.23849	0.1805	0.071607	0.056885	0.005025	0.029998	-3.5583	-3.4458	-4.5521	-3.6667	-3.9833	-4.3396	-3.5979	-4.5625	-3.9437	-3.7646	-4.35	-3.7062	-3.9792	-4.2792	-3.5	-4.3167	235.504	162.014	374.197	500.746	427.502	418.415	412.085	501.253	288.919	222.217	438.805	390.680	323.105	384.969	478.846	275.645	0.00052507	0.00059335	0.00011047	1373.6	4.546e-06	2.5943e-06	1362.6	371.43	5.9931e-06	2.7766e-06	423.01	141.47	123.83	42.485	1.5221e-06	52.788	0.00043385	0.00041329	0.00011617	1387.4	4.5616e-06	4.5304e-06	1380.7	376.12	4.6465e-06	4.6144e-06	428.47	144.58	126.07	43.536	4.6993e-06	53.799	228.639	264.385	239.915	170.097	291.014	284.501	169.958	174.812	302.814	243.629	174.194	178.352	178.913	183.273	379.995	183.040	-8191	255	
39169.086	1	1	0	0	0.22087	0.12548	0.1262	0.22913	0.1301	0.19402	0.15805	0.21716	0.17654	0.038292	0.14153	0.36691	0.23658	0.080948	0.37736	0.17228	-3.5292	-3.5563	-4.3646	-3.7354	-3.8521	-4.2458	-3.7521	-4.5104	-3.6979	-3.5729	-4.4083	-3.7042	-3.9938	-4.4979	-3.4167	-4.2646	492.935	489.496	386.831	486.699	435.470	284.746	488.462	465.271	241.148	500.684	478.412	487.659	385.464	323.448	445.242	495.171	0.00044538	0.00054306	0.00012528	1372.7	5.424e-06	4.3414e-06	1363.1	369.68	6.4225e-06	6.5659e-06	423.95	141.12	124.16	42.795	2.754e-06	52.554	0.00042593	0.00041153	0.0001143	1384	4.5503e-06	4.4676e-06	1376.4	376.37	4.4739e-06	4.506e-06	428.68	144.25	126.18	43.626	4.5582e-06	53.777	230.913	264.018	303.569	170.175	289.630	304.559	169.972	174.979	287.822	295.418	173.989	178.312	179.209	183.468	280.233	182.620	-8191	255	
39169.184	1	1	0	0	0.12732	0.18011	0.066454	0.40666	0.28405	0.03438	0.33587	0.17763	0.14244	0.18037	0.32822	0.23152	0.072227	0.071022	0.21538	0.087159	-3.6437	-3.6625	-4.3438	-3.6542	-3.8312	-4.4104	-3.5458	-4.5604	-4.1708	-3.5792	-4.5146	-4.0625	-3.8563	-4.4708	-3.35	-4.3229	465.484	472.598	356.625	473.105	509.043	471.480	484.052	493.567	214.612	435.679	484.650	428.293	206.250	424.029	512.199	390.884	0.00049701	0.00075572	8.5215e-05	1372.4	4.1715e-06	3.9976e-06	1364.1	372.49	4.6472e-06	1.5466e-06	423.64	142.74	124.57	42.655	5.5852e-06	52.833	0.00042904	0.00041497	0.00011389	1385.6	4.5531e-06	4.447e-06	1379.5	376.94	4.5832e-06	4.5395e-06	429.33	144.92	126.47	43.659	4.7107e-06	53.849	230.051	235.875	253.498	170.199	306.320	259.495	170.188	174.755	315.999	335.081	174.321	178.584	179.128	183.405	287.227	183.116	-8191	255	
39169.305	1	1	0	0	0.13523	0.11963	0.091449	0.14462	0.26263	0.11409	0.38031	0.28083	0.037377	0.14504	0.15503	0.1254	0.071182	0.053565	0.067472	0.24662	-3.8458	-3.2292	-4.4354	-3.8104	-3.6312	-4.4583	-3.7438	-4.5208	-4.1	-3.3812	-4.6125	-3.8021	-3.8667	-4.6937	-3.5	-4.075	194.769	446.295	327.557	440.982	485.785	386.416	460.712	433.691	486.312	266.812	479.498	292.544	400.054	404.598	161.045	369.657	0.00046436	0.00060171	0.0001068	1368.4	6.3659e-06	6.3618e-06	1365.2	370.67	3.2644e-06	4.8491e-06	426.19	142.08	123.83	42.791	4.6759e-06	52.628	0.00042423	0.00041733	0.00011287	1384.3	4.5501e-06	4.4967e-06	1380.7	376.53	4.6073e-06	4.5962e-06	429.82	144.46	126.08	43.682	4.5995e-06	53.809	230.238	231.132	236.895	170.040	270.126	309.415	170.058	174.811	301.303	287.256	174.341	178.533	179.107	183.306	321.299	183.116	-8191	255	
39169.398	1	1	0	0	0.1496	0.041198	0.12139	0.22193	0.097028	0.043413	0.14679	0.22287	0.24972	0.10713	0.17671	0.21024	0.17641	0.19314	0.11342	0.029972	-3.7479	-3.2417	-4.5292	-3.8917	-3.7417	-4.575	-3.6375	-4.1646	-4.0687	-3.3354	-4.4458	-3.8937	-3.8229	-4.4812	-3.5958	-4.1396	305.883	387.622	369.477	499.418	499.047	377.777	341.924	217.379	186.172	348.280	499.152	496.385	165.261	432.718	443.509	386.054	0.00054638	0.00032482	0.00020011	1370.3	5.8043e-06	4.9293e-06	1364.8	370.98	2.5451e-06	6.2503e-06	423.36	141.14	123.46	42.925	5.8047e-06	52.896	0.0004298	0.00041827	0.00011426	1383.6	4.5472e-06	4.6507e-06	1378.2	376.39	4.6049e-06	4.6207e-06	429.07	144.41	126.22	43.63	4.7304e-06	53.838	230.211	285.763	285.506	170.065	302.806	255.021	170.123	174.796	267.784	346.008	174.054	178.346	179.058	183.278	265.734	183.127	-8191	255	
39169.492	1	1	0	0	0.11022	0.1025	0.19311	0.28523	0.19221	0.091964	0.11064	0.11988	0.24459	0.073815	0.045677	0.14746	0.049081	0.22628	0.27093	0.3596	-3.8125	-3.5187	-4.3583	-4.0958	-3.5625	-4.5667	-3.4354	-4.2167	-4.425	-3.1646	-4.6542	-4.0458	-3.5896	-4.5396	-3.5146	-3.9833	230.937	266.470	186.630	473.835	162.770	496.461	375.585	468.226	267.099	455.854	359.936	167.332	471.858	476.938	209.450	443.976	0.0005125	0.00028581	0.00016022	1368.1	5.6343e-06	6.563e-06	1357.3	371.41	3.0098e-06	5.6006e-06	424.12	141.72	123.63	42.66	6.3479e-06	52.885	0.0004457	0.00042692	0.0001199	1382.3	4.7489e-06	4.7297e-06	1375.6	376.98	4.8251e-06	4.8276e-06	429.6	144.47	126.17	43.609	4.7921e-06	53.812	229.830	268.832	286.087	169.916	299.756	319.883	170.036	174.922	305.223	311.393	174.435	178.292	179.212	183.590	268.851	182.948	-8191	255	
39169.566	1	1	0	0	0.19719	0.18838	0.034015	0.37581	0.10203	0.19874	0.28225	0.13332	0.20027	0.2411	0.10503	0.24688	0.022503	0.11316	0.085005	0.24919	-4.0229	-3.2958	-4.2229	-4.1375	-3.35	-4.3896	-3.7875	-4.0333	-4.3646	-3.4625	-4.2188	-3.9354	-3.475	-4.4646	-3.6042	-4.05	500.499	366.132	425.393	486.740	320.071	406.771	488.586	461.097	247.485	358.792	471.704	511.246	337.054	456.087	215.615	449.944	0.00047514	0.0003587	0.00010038	1370.5	1.2655e-06	5.3854e-06	1362.7	371.53	3.7676e-06	4.3483e-06	424.01	141.25	122.91	42.727	3.2539e-06	52.72	0.00045242	0.00044016	0.00011917	1382.6	4.8481e-06	4.7768e-06	1377.1	376.6	4.7864e-06	4.6922e-06	428.87	144.34	125.92	43.587	4.7747e-06	53.824	228.019	278.795	247.802	169.986	304.534	320.573	170.111	174.835	306.218	294.059	174.538	178.417	178.916	183.410	357.717	182.849	-8191	255	
39169.664	1	1	0	0	0.089137	0.34601	0.080783	0.20507	0.13681	0.049262	0.13546	0.31877	0.033095	0.061973	0.20605	0.026554	0.10339	0.1545	0.14444	0.098137	-3.8875	-3.4125	-4.2417	-4.1375	-3.6292	-4.4417	-3.7958	-3.9813	-4.3417	-3.3375	-4.4083	-4.1875	-3.5563	-4.5896	-3.9354	-3.8646	281.422	336.464	455.653	515.039	348.274	466.550	447.839	509.698	317.066	173.171	219.645	464.086	302.544	507.732	458.606	503.283	0.00050058	0.00063327	0.00012206	1373	3.0657e-06	3.1933e-06	1360	370.45	4.375e-06	5.1035e-06	423.73	141.32	124.03	42.664	5.4227e-06	52.487	0.0004412	0.00042877	0.00011763	1384.6	4.6424e-06	4.5734e-06	1377.4	376.45	4.5862e-06	4.5062e-06	429.7	144.29	126.19	43.669	4.5448e-06	53.821	233.642	229.808	268.944	170.032	297.644	343.683	169.888	174.942	307.408	298.793	174.286	178.672	179.214	183.767	300.514	183.215	-8191	255	
39169.781	1	1	0	0	0.11436	0.21803	0.23903	0.3481	0.015969	0.075916	0.21166	0.27447	0.32396	0.30845	0.14825	0.26517	0.13041	0.19913	0.098341	0.1166	-4.2875	-3.2375	-4.4229	-4.3604	-3.3042	-4.5292	-4.0583	-3.8958	-4.5792	-3.3354	-4.2333	-4.3021	-3.8167	-4.4917	-3.7625	-3.8854	370.658	402.696	445.963	466.420	436.973	510.926	385.587	435.134	173.804	200.096	163.756	416.469	449.961	224.655	374.845	485.743	0.00052143	0.00049644	0.00013188	1368.7	7.084e-06	2.7751e-06	1357.6	371.24	5.8713e-06	2.8773e-06	425.85	141.29	124.08	42.826	5.8079e-06	52.48	0.00042734	0.00040673	0.00011252	1385	4.4066e-06	4.3769e-06	1377.1	376.72	4.4275e-06	4.4176e-06	429.4	144.3	126.14	43.714	4.4216e-06	53.665	225.044	247.043	274.182	170.315	298.326	271.217	170.193	174.869	306.712	301.969	174.346	178.476	179.179	183.848	303.549	183.029	-8191	255	
39169.879	1	1	0	0	0.17207	0.12785	0.19347	0.26255	0.073518	0.24247	0.3312	0.18101	0.27753	0.1057	0.27998	0.21481	0.018582	0.12961	0.15346	0.19395	-4.1	-3.4042	-4.1479	-4.5604	-3.275	-4.4938	-4.1	-3.7917	-4.5646	-3.6063	-4.3688	-4.55	-3.5625	-4.3208	-3.8646	-3.8521	493.495	416.878	298.417	396.478	305.561	235.976	442.953	398.465	190.334	314.323	436.717	440.462	378.556	240.767	231.662	186.241	0.00051215	0.00051074	4.0196e-05	1372.6	4.4739e-06	2.9019e-06	1365	370.21	2.8727e-06	4.0259e-06	424.26	141.93	123.82	42.767	6.1984e-06	52.479	0.00041736	0.00040528	0.00011053	1384.5	4.5099e-06	4.4272e-06	1378.7	376.5	4.4295e-06	4.3418e-06	429.61	144.5	126	43.653	4.4948e-06	53.695	229.946	240.210	267.650	170.069	313.701	227.510	169.983	174.616	322.767	209.011	174.467	178.405	179.186	183.508	317.670	182.873	-8191	255	
39169.977	1	1	0	0	0.30956	0.20062	0.29142	0.33736	0.052618	0.067531	0.058704	0.1694	0.077413	0.07741	0.29296	0.23516	0.17114	0.15564	0.087133	0.18749	-4.0521	-3.5792	-3.9875	-4.4563	-3.3917	-4.4521	-4.2979	-3.8083	-4.5813	-3.6167	-3.8792	-4.4375	-3.6771	-4.3208	-3.9	-3.7229	182.765	368.703	289.058	490.067	210.125	263.401	323.306	487.758	451.420	383.321	353.449	345.050	200.449	374.181	389.150	381.373	0.00048135	0.00075714	0.00011943	1371.6	3.0689e-06	5.2843e-06	1364	371.15	5.0146e-06	3.262e-06	420.94	142.34	123.61	42.833	1.5156e-06	52.617	0.0004139	0.00041235	0.00011077	1383.2	4.4453e-06	4.4197e-06	1377.3	376.2	4.4734e-06	4.4421e-06	428.63	144.34	125.92	43.729	4.481e-06	53.763	232.428	251.923	259.968	170.389	276.992	281.455	170.008	174.876	275.976	343.566	174.436	178.487	178.829	183.638	297.554	183.142	-8191	255	
39170.094	1	1	0	0	0.13467	0.20778	0.16368	0.145	0.069217	0.047829	0.27044	0.41591	0.081601	0.30502	0.30764	0.026796	0.2861	0.016618	0.021007	0.17007	-4.2354	-3.5229	-3.8146	-4.5708	-3.4875	-4.2896	-4.3354	-3.75	-4.4292	-3.6208	-3.9125	-4.6958	-3.5167	-4.4333	-4.2667	-3.4583	165.106	321.978	428.171	479.138	192.330	364.186	470.746	446.965	208.918	516.542	505.435	382.920	494.594	260.362	489.265	488.633	0.00049001	0.00057959	0.00011566	1370.9	1.8689e-06	6.6716e-06	1361.8	372.51	6.5648e-06	6.8139e-06	423.4	141.05	123.62	42.834	3.8868e-06	52.653	0.00041715	0.000409	0.00011132	1383.7	4.4416e-06	4.3904e-06	1377.2	376.2	4.3969e-06	4.4067e-06	428.68	144.38	125.92	43.766	4.5584e-06	53.714	228.492	261.218	267.343	170.212	281.868	284.273	170.220	174.863	297.811	276.188	174.913	178.355	178.785	183.766	297.023	182.784	-8191	255	
39170.168	1	1	0	0	0.10701	0.046745	0.14469	0.058924	0.14922	0.086201	0.14985	0.11105	0.07617	0.22352	0.18148	0.096705	0.089006	0.18236	0.13441	0.13887	-4.2625	-3.7917	-3.8458	-4.6729	-3.5479	-4.3021	-4.2354	-3.7708	-4.5125	-3.7354	-3.8917	-4.5875	-3.7042	-4.275	-4.0854	-3.5083	494.820	276.332	343.819	225.800	248.671	401.126	473.997	184.785	359.291	211.843	239.950	423.599	475.854	383.825	159.117	369.933	0.0004911	0.00013171	0.00010955	1372.7	4.6505e-06	4.4195e-06	1361	371.49	2.7079e-06	3.7814e-06	424.41	142	123.48	42.916	6.9519e-06	52.657	0.00042004	0.00039695	0.00011327	1385	4.404e-06	4.4452e-06	1377.7	376.28	4.4148e-06	4.4924e-06	428.84	144.5	126.04	43.691	4.3731e-06	53.759	228.809	236.865	220.024	170.377	294.797	287.809	169.735	174.676	309.971	364.599	174.158	178.463	178.963	183.651	306.575	182.738	-8191	255	
39170.262	1	1	0	0	0.19738	0.068073	0.15985	0.034594	0.23156	0.086112	0.16196	0.085458	0.05229	0.19391	0.25297	0.30762	0.20968	0.21164	0.1467	0.25715	-4.1979	-3.9854	-3.7875	-4.6167	-3.4417	-4.1229	-4.5583	-3.8021	-4.5646	-3.8792	-3.8125	-4.4542	-3.7812	-4.1083	-4.1875	-3.7125	269.643	414.063	495.619	184.916	442.788	245.499	420.028	305.841	407.752	452.149	510.343	471.981	356.662	377.718	296.686	477.889	0.00051033	0.00054191	0.00020408	1373.5	3.574e-06	3.0268e-06	1361	369.7	4.8483e-06	4.0921e-06	423.73	141.99	123.74	42.976	1.8578e-06	53.078	0.00041473	0.00039944	0.00011222	1386	4.4379e-06	4.4227e-06	1377.1	375.61	4.4009e-06	4.3716e-06	428.74	144.72	125.79	43.754	4.4519e-06	53.865	230.131	277.363	213.430	170.221	287.836	273.672	169.915	174.650	328.707	314.543	173.936	178.382	178.945	183.838	246.420	183.069	-8191	255	
39170.383	1	1	0	0	0.14537	0.24019	0.12808	0.3578	0.13397	0.06881	0.30922	0.18894	0.24655	0.11124	0.24793	0.24422	0.16208	0.20638	0.0979	0.20374	-3.9229	-3.8146	-3.5021	-4.7604	-3.5	-4.1125	-4.6312	-3.6125	-4.5312	-3.9583	-3.7583	-4.5042	-3.7438	-4.1021	-4.3771	-3.4208	318.522	422.528	459.364	438.958	360.615	257.972	440.774	429.286	322.732	402.216	451.868	504.337	505.844	451.380	348.156	407.637	0.00049627	0.00033101	0.00015498	1374.2	4.5743e-06	6.391e-06	1367.3	370.84	4.5577e-06	4.2285e-06	425.6	141.55	123.44	42.928	5.9042e-06	52.548	0.00042716	0.00040207	0.00011258	1386.3	4.521e-06	4.3995e-06	1378	376.31	4.4963e-06	4.421e-06	429.64	144.51	125.74	43.767	4.3588e-06	53.729	225.692	230.913	256.246	170.202	317.439	242.013	170.073	174.779	265.932	289.436	174.098	178.427	178.856	183.672	267.475	182.917	-8191	255	
39170.480	1	1	0	0	0.32252	0.029717	0.24881	0.17693	0.17809	0.13943	0.2302	0.018193	0.14068	0.22352	0.18126	0.17009	0.11803	0.21717	0.12517	0.22336	-4.1208	-4.0375	-3.5271	-4.6604	-3.4854	-3.7562	-4.4875	-3.6167	-4.4167	-4.0521	-3.5854	-4.8562	-3.5938	-4.0042	-4.4917	-3.5708	213.497	272.272	320.808	461.035	245.883	444.998	443.144	318.562	470.388	225.750	165.494	442.968	434.509	488.737	310.636	493.847	0.00049413	0.00040412	0.00019207	1374.8	6.4888e-06	4.0879e-06	1367.7	371.03	4.0299e-06	9.4732e-06	423.23	141.97	123.35	42.951	3.5083e-06	52.347	0.00042081	0.00039936	0.00011179	1387.8	4.5484e-06	4.3912e-06	1380.4	375.67	4.4456e-06	4.4152e-06	429.25	144.82	125.83	43.774	4.3665e-06	53.728	224.015	278.895	222.854	170.221	314.277	335.469	170.057	174.723	330.142	325.179	173.942	178.440	179.012	183.672	320.841	182.853	-8191	255	
39170.574	1	1	0	0	0.17942	0.13586	0.16441	0.23066	0.28799	0.11063	0.17241	0.3463	0.24304	0.16206	0.058208	0.16184	0.19447	0.31702	0.16255	0.17186	-4.1	-4.0854	-3.5417	-4.7729	-3.6417	-3.8688	-4.4604	-3.3937	-4.2	-4.1896	-3.7125	-4.575	-3.9979	-3.9375	-4.375	-3.6583	203.882	197.812	477.162	501.081	379.328	437.821	382.387	502.177	251.366	269.121	328.458	444.781	421.898	503.913	317.637	511.446	0.0004867	0.0005908	0.00016581	1371.2	5.1989e-06	5.5366e-06	1368	370.98	4.4185e-06	4.2806e-06	421.49	142.07	123.47	42.891	4.5809e-06	52.761	0.00042173	0.00039524	0.00011143	1384.8	4.4295e-06	4.3594e-06	1380.6	376.03	4.3523e-06	4.3679e-06	428.23	144.83	125.85	43.726	4.3405e-06	53.794	225.711	266.201	243.856	170.241	284.830	307.073	170.069	174.326	304.100	310.767	174.192	178.795	178.665	183.781	315.823	182.641	-8191	255	
39170.695	1	1	0	0	0.13971	0.13422	0.13667	0.17244	0.21976	0.18134	0.36576	0.33112	0.22465	0.28003	0.13383	0.075831	0.17366	0.19907	0.27368	0.06128	-3.975	-3.9792	-3.5604	-4.5792	-3.6063	-3.8187	-4.5625	-3.6083	-4.1375	-4.2542	-3.6042	-4.4729	-4.1188	-3.7521	-4.4708	-3.5375	356.394	434.938	290.118	469.355	159.011	493.938	443.442	437.813	380.794	299.451	430.626	255.116	412.993	442.030	374.694	187.634	0.0004638	0.00031074	7.0136e-05	1375.9	4.4656e-06	5.1287e-06	1364.5	369.93	3.9519e-06	3.7475e-06	427.07	142.52	123.67	42.979	5.9301e-06	52.705	0.00041464	0.00039362	0.00011041	1387.3	4.3828e-06	4.3502e-06	1379	375.5	4.4356e-06	4.2871e-06	430.13	144.84	125.91	43.691	4.4686e-06	53.812	228.193	209.261	201.746	170.022	284.918	332.908	170.190	174.717	282.150	288.137	174.335	178.681	179.042	183.655	271.477	182.524	-8191	255	
39170.789	1	1	0	0	0.12593	0.13033	0.24101	0.27208	0.15937	0.23772	0.13653	0.1963	0.17255	0.29197	0.29658	0.22783	0.20427	0.27608	0.085536	0.178	-3.675	-4.1583	-3.2938	-4.7688	-3.7292	-3.5521	-4.8833	-3.6771	-3.9188	-4.4208	-3.5042	-4.4271	-4.1396	-3.6562	-4.4667	-3.6604	447.708	180.225	259.139	507.919	165.212	343.138	511.779	416.514	372.445	295.531	482.387	478.744	481.218	486.034	430.634	160.322	0.00049475	0.00030204	4.9011e-05	1376.3	4.9473e-06	2.1035e-06	1366.3	368.96	5.4754e-06	5.1692e-06	423.06	142.47	123.39	42.887	5.6178e-06	52.579	0.00041829	0.00038875	0.0001118	1387.6	4.397e-06	4.3281e-06	1380.1	375.26	4.4766e-06	4.3773e-06	428.37	144.73	125.76	43.725	4.4537e-06	53.677	226.894	270.938	245.398	170.506	320.874	329.677	169.950	174.497	314.074	301.182	174.234	178.744	179.033	183.459	272.277	182.798	-8191	255	
39170.863	1	1	0	0	0.13436	0.19587	0.2253	0.30558	0.13411	0.2416	0.30179	0.13564	0.24395	0.23621	0.2475	0.23429	0.19516	0.35101	0.086912	0.28916	-3.7167	-4.2875	-3.3854	-4.4167	-3.8771	-3.4917	-4.8167	-3.5771	-3.8958	-4.3271	-3.2125	-4.4479	-4.2292	-3.7479	-4.4375	-3.6333	204.751	214.971	342.029	468.466	485.675	372.364	420.368	456.487	386.701	465.846	206.380	482.422	442.753	475.594	491.301	192.751	0.00051426	0.00054347	0.0001474	1379	6.2073e-06	7.1886e-06	1361	370.09	5.2292e-06	4.2381e-06	424.71	142.39	123.93	42.871	2.7789e-06	52.278	0.00041538	0.00038824	0.00010959	1387.3	4.2624e-06	4.399e-06	1380.7	376	4.3713e-06	4.3601e-06	429.27	144.88	125.89	43.739	4.421e-06	53.706	232.226	232.370	221.079	170.080	293.698	266.979	169.907	174.723	322.665	331.238	174.099	178.723	178.808	183.507	348.830	182.809	-8191	255	
39170.961	1	1	0	0	0.27035	0.13537	0.019275	0.21567	0.15324	0.28337	0.25285	0.18347	0.19821	0.11705	0.097786	0.16001	0.24075	0.15763	0.12525	0.38822	-3.5729	-4.3875	-3.3729	-4.5	-4.0917	-3.4646	-4.7042	-3.8792	-3.8896	-4.375	-3.4271	-4.4146	-4.2	-3.6354	-4.5458	-3.7479	491.294	470.858	194.188	458.775	224.780	353.451	457.097	463.633	411.999	319.591	189.106	457.883	177.860	492.864	232.732	467.325	0.0005621	0.0005117	0.00013617	1374.5	2.5542e-06	6.0868e-06	1362.6	370.78	7.6225e-06	2.9852e-06	422.96	141.89	123.24	42.982	4.757e-06	52.48	0.00041906	0.00039641	0.00011278	1387.1	4.4047e-06	4.4461e-06	1378.9	376.07	4.4245e-06	4.427e-06	428.55	145.02	125.77	43.707	4.3696e-06	53.68	228.036	272.591	216.926	170.224	296.126	311.532	170.227	174.719	302.385	272.665	174.369	178.722	178.980	183.496	285.199	182.817	-8191	255	
39171.078	1	1	0	0	0.25538	0.20212	0.15087	0.34592	0.16899	0.37296	0.23226	0.099465	0.090614	0.15379	0.1396	0.048968	0.17344	0.021094	0.19406	0.040051	-3.4896	-4.4437	-3.2729	-4.25	-4.1271	-3.5167	-4.6167	-3.8229	-3.6667	-4.5042	-3.5042	-4.3125	-4.3521	-3.5146	-4.5437	-3.9938	368.401	338.162	176.370	484.486	389.170	285.640	497.725	427.874	425.249	288.328	169.998	290.511	507.009	217.294	478.978	430.213	0.00050588	0.00055394	0.00010591	1375.5	1.8728e-06	3.208e-06	1365	369.42	3.394e-06	2.9483e-06	424.22	141.41	123.92	42.906	5.2002e-06	52.643	0.00041758	0.00039976	0.00011273	1388.5	4.3929e-06	4.4863e-06	1382.3	375.2	4.4838e-06	4.3596e-06	429.64	144.76	126.01	43.765	4.4409e-06	53.797	228.270	264.536	264.510	170.228	254.825	268.669	170.346	174.643	298.401	259.730	174.302	178.315	178.981	183.591	306.284	182.892	-8191	255	
39171.176	1	1	0	0	0.22707	0.040461	0.18282	0.21628	0.062303	0.26109	0.2115	0.29323	0.22504	0.20028	0.16775	0.069419	0.036972	0.11065	0.056322	0.39479	-3.3063	-4.5125	-3.3312	-4.3708	-4.0813	-3.3229	-4.5667	-3.9521	-3.7271	-4.475	-3.6292	-4.2417	-4.3833	-3.4271	-4.3417	-3.9896	240.991	437.974	406.625	461.215	445.936	231.320	427.034	435.206	275.134	232.787	486.352	502.342	228.555	341.289	451.117	176.503	0.00048917	0.00023413	0.00015787	1379.9	2.7624e-06	2.4478e-06	1366.7	369.81	5.2897e-06	4.179e-06	423.07	142.37	123.05	42.957	5.9668e-06	52.349	0.00042795	0.00039856	0.00011397	1390.3	4.4749e-06	4.4755e-06	1381.9	376.04	4.5035e-06	4.5415e-06	428.79	145.19	125.89	43.838	4.5556e-06	53.774	226.327	240.440	288.033	170.285	353.422	314.058	170.019	174.798	306.439	312.633	174.013	178.748	178.840	183.624	302.990	182.744	-8191	255	
39171.273	1	1	0	0	0.047662	0.18958	0.093764	0.17527	0.18775	0.11755	0.16591	0.18316	0.1158	0.17716	0.39105	0.094969	0.36099	0.065199	0.21133	0.11297	-3.2917	-4.3521	-3.2938	-4.3854	-4.4187	-3.3583	-4.7833	-4.1937	-3.6562	-4.5167	-3.7646	-4.2063	-4.5396	-3.5062	-4.3604	-4.0021	320.064	317.926	459.847	443.587	435.818	391.199	467.461	440.924	437.292	383.457	454.671	207.460	465.524	484.933	328.824	244.808	0.00051965	0.00036545	0.00010291	1378.2	5.6827e-06	2.5673e-06	1363.8	369.81	3.3004e-06	1.8608e-06	423.39	142.34	124.52	42.976	3.0965e-06	52.676	0.00043534	0.00040968	0.00011433	1391.4	4.4742e-06	4.6201e-06	1380.7	375.89	4.6621e-06	4.6432e-06	428.84	145.31	126.28	43.842	4.7146e-06	53.813	227.554	239.020	269.711	170.259	296.775	327.117	170.161	174.810	345.207	317.589	174.102	178.616	178.916	183.602	282.980	182.732	-8191	255	
39171.367	1	1	0	0	0.17003	0.045767	0.099764	0.21884	0.13501	0.2876	0.26129	0.28763	0.18142	0.188	0.10748	0.26158	0.14931	0.11942	0.1726	0.20679	-3.3792	-4.7208	-3.4417	-4.1062	-4.4521	-3.4792	-4.6375	-4.1021	-3.4646	-4.6396	-3.7646	-3.85	-4.6667	-3.5667	-4.4021	-4.1417	271.405	357.836	201.366	472.852	462.342	259.159	451.090	463.868	212.934	277.536	442.091	497.012	468.174	371.808	412.375	436.564	0.0004406	0.00036662	0.00016076	1373.7	5.1176e-06	3.4373e-06	1361.8	370.85	1.5831e-06	2.7654e-06	422.42	142.34	123.96	42.808	3.666e-06	52.88	0.00044314	0.00042761	0.00011903	1388.7	4.7563e-06	4.751e-06	1380.9	376.6	4.8708e-06	4.7922e-06	428.2	145.04	126.09	43.729	4.748e-06	53.929	231.432	262.504	231.478	170.454	269.492	321.655	169.883	174.655	329.437	273.970	174.134	178.511	178.779	183.574	305.819	182.583	-8191	255	
39171.465	1	1	0	0	0.16199	0.070707	0.083707	0.41773	0.28596	0.10864	0.098771	0.24508	0.066053	0.1183	0.17666	0.040173	0.20177	0.12982	0.09029	0.21341	-3.175	-4.5979	-3.8396	-4.0771	-4.4938	-3.5146	-4.5125	-4.4187	-3.3667	-4.5271	-3.9313	-4.1062	-4.4917	-3.4417	-4.2854	-4.3104	338.396	360.603	198.399	167.379	465.564	469.404	404.451	196.046	285.045	189.955	484.959	435.931	477.985	457.023	350.274	503.852	0.00048207	0.00056118	7.2854e-05	1370.7	6.4426e-06	6.5816e-06	1362.2	370.6	6.1086e-06	4.6297e-06	421.87	142.86	123.98	42.767	4.8774e-06	52.297	0.00045432	0.00042964	0.0001237	1387.2	4.8397e-06	4.8141e-06	1381	376.35	4.9592e-06	4.9422e-06	428.73	145.54	126.21	43.722	4.9763e-06	53.804	229.061	302.197	162.609	170.359	282.194	274.099	170.132	174.612	294.457	306.013	174.168	178.230	178.991	183.530	258.400	182.367	-8191	255	
39171.559	1	1	0	0	0.24545	0.17443	0.09468	0.18949	0.10515	0.27362	0.15696	0.12536	0.0091725	0.066249	0.045352	0.16795	0.087206	0.28279	0.12654	0.24419	-2.9667	-4.6312	-3.7792	-3.7625	-4.4854	-3.2396	-4.3229	-4.3875	-3.5604	-4.5604	-3.8792	-3.7	-4.7125	-3.6083	-4.0146	-4.3458	341.250	392.992	245.327	189.755	263.008	515.350	342.307	376.002	363.803	246.867	158.137	382.938	466.006	161.008	394.261	459.344	0.00045821	0.00078745	9.2494e-05	1372.6	4.4788e-06	2.3232e-06	1364.8	370.09	6.7802e-06	4.6489e-06	421.51	141.52	123.87	42.717	4.2372e-06	52.636	0.00046609	0.00045145	0.00012667	1387.9	5.066e-06	4.9717e-06	1381.1	376.39	5.0449e-06	4.9915e-06	428.46	145.06	126.07	43.674	5.1978e-06	53.789	225.931	248.813	254.696	170.162	290.714	307.904	170.301	174.465	316.036	297.315	174.213	178.791	179.060	183.327	336.178	183.049	-8191	255	
39171.656	1	1	0	0	0.047366	0.061102	0.16661	0.36747	0.11987	0.19614	0.48474	0.29143	0.15959	0.050325	0.11827	0.11059	0.052031	0.21542	0.16337	0.19887	-3	-4.5687	-3.7604	-3.875	-4.5792	-3.3208	-4.2083	-4.4125	-3.4896	-4.4083	-4.0708	-3.8271	-4.5188	-3.6125	-4.0729	-4.5188	417.657	182.011	174.373	498.381	507.054	492.688	455.106	171.124	451.778	367.676	408.771	408.335	190.456	454.688	180.573	505.952	0.0004754	0.00050677	0.00010212	1368	6.3324e-06	5.6901e-06	1365.4	367.91	3.1111e-06	4.8021e-06	421.22	141.81	122.98	42.524	4.4084e-06	52.833	0.00047277	0.00045564	0.00012918	1385.9	5.0504e-06	5.0588e-06	1381.1	375.55	5.2169e-06	5.1564e-06	427.75	144.82	125.79	43.626	5.274e-06	53.863	228.349	306.148	210.789	170.183	287.026	312.672	170.397	174.636	337.303	357.773	174.042	178.322	179.238	183.505	298.556	182.740	-8191	255	
39171.773	1	1	0	0	0.18429	0.22587	0.14908	0.48338	0.15389	0.13464	0.2377	0.018384	0.15774	0.17323	0.076038	0.080915	0.040152	0.050562	0.069572	0.14968	-3.1667	-4.4292	-4.0375	-3.9458	-4.5875	-3.55	-4.1375	-4.6896	-3.4375	-4.5104	-4.1104	-3.7042	-4.7479	-3.6833	-4.0396	-4.6208	418.316	310.883	329.630	496.714	344.323	482.948	451.397	282.916	262.226	271.774	358.211	460.787	488.339	215.372	392.012	280.271	0.0005192	0.00043134	0.00010719	1370.4	3.7105e-06	3.4101e-06	1364.5	369.01	5.5892e-06	5.8277e-06	420.87	141.9	123.43	42.568	2.7483e-06	52.29	0.00048588	0.00046709	0.00013315	1385.9	5.1372e-06	5.2794e-06	1381.8	376.08	5.2627e-06	5.2194e-06	427.91	144.97	125.93	43.587	5.2795e-06	53.693	228.769	217.965	257.440	170.304	296.656	251.411	170.294	174.665	305.449	321.708	174.213	178.531	178.813	183.618	348.362	182.645	-8191	255	
39171.871	1	1	0	0	0.20723	0.1437	0.094965	0.19833	0.089253	0.20542	0.10883	0.12556	0.25731	0.080887	0.32657	0.22763	0.17737	0.16705	0.13725	0.13562	-3.175	-4.3604	-4.0354	-3.8958	-4.4313	-3.7479	-4.1438	-4.5854	-3.5417	-4.2542	-4.2458	-3.9271	-4.4729	-3.8292	-3.875	-4.7812	185.821	373.036	335.301	468.490	449.576	481.117	288.279	237.541	312.772	435.912	507.268	435.493	263.123	168.649	366.353	197.727	0.0004916	0.0003881	1.4494e-05	1372.9	3.8571e-06	1.6257e-06	1363.4	370.37	3.9161e-06	2.2029e-06	421.09	141.27	124.15	42.459	9.1941e-06	52.485	0.00049074	0.0004823	0.00013378	1386.7	5.1813e-06	5.2057e-06	1380.2	375.69	5.292e-06	5.233e-06	427.96	144.66	126.34	43.59	5.2796e-06	53.805	227.851	220.318	305.240	170.180	300.404	292.342	169.923	174.501	297.512	362.823	173.810	178.707	178.590	183.508	273.032	183.120	-8191	255	
39171.969	1	1	0	0	0.068021	0.19535	0.14049	0.11272	0.16456	0.06632	0.09817	0.29625	0.15099	0.23204	0.16806	0.26058	0.16617	0.25287	0.27281	0.11899	-3.1312	-4.2771	-4.0271	-3.6479	-4.5646	-3.7062	-3.9667	-4.7646	-3.45	-4.1875	-4.4271	-3.5687	-4.8458	-3.8896	-3.9104	-4.6875	411.789	418.349	414.078	446.741	248.108	410.829	475.617	508.220	390.433	270.356	505.465	507.885	206.754	435.812	189.177	486.533	0.00048146	0.00024518	0.00013633	1369.8	2.6351e-06	2.8801e-06	1367.3	369.58	3.678e-06	3.8279e-06	420.92	142.24	124.34	42.718	8.8391e-06	52.658	0.00047896	0.00047449	0.00013352	1386	5.2754e-06	5.2739e-06	1382.5	376.22	5.261e-06	5.2317e-06	428.36	145.16	126.4	43.636	5.3193e-06	53.831	230.918	293.588	213.420	170.145	293.763	324.005	170.288	174.696	322.914	307.683	174.038	178.363	179.198	183.491	299.069	183.137	-8191	255	
39172.062	1	1	0	0	0.068518	0.15372	0.078069	0.31578	0.074857	0.070191	0.1277	0.2425	0.10365	0.14322	0.1319	0.069468	0.28883	0.12202	0.15226	0.12766	-3.1125	-3.9604	-4.2021	-3.8042	-4.3333	-3.9146	-3.8625	-4.7708	-3.5625	-4.0563	-4.3604	-3.8187	-4.5292	-3.9229	-3.8125	-4.4583	369.098	303.573	239.558	479.357	336.864	285.914	294.929	448.925	418.453	351.679	503.445	512.719	425.957	510.703	477.848	324.629	0.00048124	0.00044626	0.00019846	1363.8	4.6512e-06	2.8122e-06	1364.8	371.12	4.774e-06	2.8613e-06	422.89	142.19	123.69	42.604	1.453e-06	52.672	0.00048529	0.00048416	0.00013154	1383.1	5.2052e-06	5.2745e-06	1379.5	376.16	5.3377e-06	5.378e-06	429.05	144.91	126.22	43.644	5.4029e-06	53.949	225.107	245.725	261.846	170.078	278.641	322.178	170.168	174.564	300.903	264.953	174.250	178.628	179.095	183.813	325.336	183.162	-8191	255	
39172.160	1	1	0	0	0.23036	0.073402	0.15822	0.40539	0.13906	0.075428	0.196	0.23158	0.20079	0.38306	0.31405	0.12107	0.2152	0.28751	0.20794	0.23097	-3.2521	-4.0479	-4.3917	-3.6271	-4.5875	-4.0646	-3.8375	-4.5	-3.4958	-4.0104	-4.4875	-3.6854	-4.5312	-4.1042	-3.5021	-4.6333	412.639	474.475	183.840	485.091	249.761	343.571	192.273	167.247	436.241	190.551	166.353	496.077	181.571	427.004	443.969	513.259	0.00049104	0.00065088	8.3311e-05	1371.9	3.9692e-06	6.517e-06	1360.2	369.29	4.8037e-06	7.913e-06	422.27	142.21	123.69	42.702	2.3271e-06	52.607	0.00049558	0.0004986	0.00013464	1387.2	5.397e-06	5.3522e-06	1378.7	375.84	5.3992e-06	5.3815e-06	428.6	144.82	125.99	43.576	5.4581e-06	53.85	230.274	269.539	225.593	170.291	297.319	312.473	170.331	174.743	327.580	334.023	174.179	178.605	179.291	183.442	328.267	182.923	-8191	255	
39172.258	1	1	0	0	0.23316	0.26105	0.2116	0.24371	0.36438	0.012188	0.36194	0.12251	0.28512	0.17218	0.098019	0.20205	0.11717	0.1558	0.12496	0.10144	-3.2896	-3.8979	-4.35	-3.6417	-4.3938	-3.9708	-3.5771	-4.6646	-3.6417	-3.8083	-4.5062	-3.5479	-4.3708	-4.1229	-3.4521	-4.6542	459.202	337.615	366.353	451.620	182.032	172.473	434.097	447.397	295.029	340.189	362.901	284.291	480.639	485.980	313.126	263.480	0.00051125	0.00046433	0.00010135	1372.9	6.6688e-06	5.1744e-06	1361	370.61	4.5071e-06	1.3715e-06	423.19	141.42	123.76	42.549	3.9946e-06	52.547	0.00050074	0.00048568	0.00013671	1386.5	5.423e-06	5.2401e-06	1382.6	377.23	5.3763e-06	5.4e-06	429.54	144.69	126.21	43.623	5.3744e-06	53.88	228.787	271.109	206.873	170.047	268.190	255.310	170.189	174.590	322.338	314.508	173.997	178.604	179.175	183.209	288.618	182.838	-8191	255	
39172.379	1	1	0	0	0.11765	0.21416	0.32004	0.33091	0.28954	0.2834	0.11753	0.45178	0.089039	0.20214	0.11859	0.045452	0.18181	0.13338	0.073353	0.28068	-3.3396	-3.8042	-4.2812	-3.6708	-4.2375	-4.0854	-3.6146	-4.7312	-3.7687	-3.9437	-4.5917	-3.5021	-4.4938	-4.3417	-3.4125	-4.5417	452.623	464.941	240.948	471.511	472.964	243.490	356.243	464.656	226.868	301.209	385.373	497.747	461.636	167.946	480.365	512.659	0.0004712	0.00038273	0.00011971	1371.9	3.8766e-06	2.2583e-06	1364.2	372.05	4.1415e-06	8.2532e-06	422.87	141.84	124.69	42.793	4.087e-06	52.484	0.0005023	0.00049904	0.00013681	1387.5	5.4131e-06	5.4683e-06	1383.3	376.97	5.4732e-06	5.4336e-06	429.76	144.8	126.77	43.679	5.5179e-06	53.871	223.367	230.947	185.839	170.113	306.084	236.516	170.047	174.975	286.385	301.094	173.970	178.430	178.986	183.447	305.275	183.051	-8191	255	
39172.473	1	1	0	0	0.055823	0.2969	0.18611	0.18832	0.15716	0.10733	0.23781	0.34826	0.07626	0.32693	0.15719	0.37345	0.23964	0.21942	0.033492	0.20541	-3.375	-3.7792	-4.5104	-3.6063	-4.1583	-4.4042	-3.7229	-4.4979	-3.8208	-3.7687	-4.6625	-3.5646	-4.2188	-4.4437	-3.3292	-4.5479	186.238	268.404	496.804	428.376	219.662	188.011	488.569	472.357	262.517	317.154	381.829	447.321	365.552	414.699	251.299	474.724	0.00046286	0.00030014	9.82e-05	1366.9	5.626e-06	3.3479e-06	1360.9	371.72	2.6267e-06	1.6518e-06	424.72	142.54	124.21	42.471	7.2271e-06	52.716	0.00050726	0.00049547	0.00013547	1385.3	5.5144e-06	5.4011e-06	1379.3	377.15	5.4349e-06	5.4142e-06	430.23	144.97	126.55	43.629	5.5027e-06	53.905	225.728	260.314	262.188	170.055	309.847	328.808	170.248	174.571	293.346	327.898	174.163	177.679	179.063	183.406	297.982	183.148	-8191	255	
39172.566	1	1	0	0	0.1138	0.15158	0.17082	0.18246	0.12273	0.16231	0.10194	0.20018	0.14946	0.24447	0.081344	0.36188	0.15138	0.039366	0.1126	0.21514	-3.5625	-3.7812	-4.4437	-3.6562	-3.9896	-4.5479	-3.7729	-4.7208	-4.0125	-3.5958	-4.6625	-3.7417	-4.0625	-4.6042	-3.2833	-4.6729	175.003	501.724	182.907	441.271	180.774	208.787	427.358	482.468	159.989	320.838	439.821	171.909	396.659	316.037	379.724	420.697	0.00045473	0.00035366	0.00017207	1367.7	5.2496e-06	5.9002e-06	1374	372.58	6.0991e-06	3.5286e-06	425.45	142.75	124.42	42.816	5.8356e-06	52.824	0.00049271	0.00048237	0.00013162	1385.9	5.292e-06	5.2692e-06	1381.6	376.9	5.2485e-06	5.2549e-06	430.53	145.03	126.59	43.675	5.3715e-06	53.821	228.453	259.696	285.505	170.112	265.614	271.774	169.621	174.272	287.626	259.781	173.352	177.970	178.498	183.156	304.938	182.668	-8191	255	
39172.664	1	1	0	0	0.062689	0.15636	0.29011	0.19728	0.19464	0.14634	0.16214	0.30893	0.041472	0.15478	0.04971	0.16784	0.089528	0.19042	0.28677	0.068678	-3.5917	-3.6937	-4.4792	-3.8125	-3.9437	-4.6188	-3.5521	-4.6062	-4.0667	-3.5104	-4.8229	-3.7562	-4.025	-4.8167	-3.3083	-4.5229	455.894	325.041	465.845	460.859	309.145	274.127	358.263	456.963	334.366	199.285	184.885	461.028	487.355	441.607	435.257	171.787	0.00051024	0.00050949	0.00014739	1367.2	6.0978e-06	4.9371e-06	1366.6	372.93	3.0613e-06	3.9235e-06	423.7	142.21	123.68	42.536	3.263e-06	52.104	0.00048672	0.0004788	0.0001356	1381.9	5.3717e-06	5.3001e-06	1379.6	377.33	5.4925e-06	5.4726e-06	429.32	144.68	126.48	43.561	5.5785e-06	53.727	224.586	284.380	271.854	169.404	295.440	302.546	169.650	174.434	285.964	317.873	173.843	177.921	178.913	183.581	252.604	182.991	-8191	255	
39172.758	1	1	0	0	0.14919	0.32088	0.17035	0.32465	0.066608	0.15975	0.16869	0.21909	0.21154	0.25503	0.25191	0.1453	0.35391	0.31151	0.30605	0.23292	-3.9313	-3.2583	-4.5521	-3.7938	-3.9208	-4.5354	-3.6667	-4.3875	-4.025	-3.3312	-4.8542	-3.8208	-3.9729	-4.7229	-3.1333	-4.4958	172.705	513.008	342.524	163.167	162.024	401.807	455.217	359.121	182.697	210.911	424.847	490.036	193.523	161.001	467.096	484.215	0.00046001	0.00038401	0.00011432	1362.6	4.9728e-06	5.136e-06	1352.8	369.14	5.1106e-06	5.8425e-06	423.3	141.17	123.64	42.515	9.9023e-06	52.465	0.00050256	0.00050835	0.00013868	1380.5	5.6029e-06	5.6577e-06	1373.6	375.39	5.57e-06	5.7748e-06	428.85	144.43	126.04	43.615	5.7414e-06	53.915	226.939	270.051	247.379	170.216	290.847	303.713	170.101	174.940	320.981	318.382	174.225	178.417	179.235	183.853	298.650	183.519	-8191	255	
#DATA ENDS
