BOXY.EXE: ISS Imagent and Oximeter Data Acquisition Program Version 0.80
Ascii Record File

#ACQ INFORMATION
2  Detector Channels 
16  External MUX Channels 
1  Auxiliary Channels 
5000  Waveform (CCF) Frequency (Hz)
1  Waveforms Skipped 
30  Waveforms Averaged 
1  Cycles Averaged 
16  Acquisitions per Waveform 
10.0806  Updata Rate (Hz) 

#FILE INFORMATION
TRUE -- External MUX Channel results are PARSED.
FALSE -- AC DC and Phase are NOT grouped.
TRUE -- Companion Program Settings File CREATED.
FALSE -- AC data not excluded
FALSE -- DC data not excluded
FALSE -- Phase data not excluded
FALSE -- Auxillary Chn. data not excluded
Tab delimiters

#CALIBRATION STATE
TRUE -- Waveform Calibration Values APPLIED.


#AUX CALIBRATION VALUES
Val Type	aux-1	

Term	1.0000e+00	
Factor	0.0000e+00	


#WF CALIBRATION VALUES
A = Detector Channel
Val Type	A-AC1	A-AC2	A-AC3	A-AC4	A-AC5	A-AC6	A-AC7	A-AC8	A-AC9	A-AC10	A-AC11	A-AC12	A-AC13	A-AC14	A-AC15	A-AC16	A-DC1	A-DC2	A-DC3	A-DC4	A-DC5	A-DC6	A-DC7	A-DC8	A-DC9	A-DC10	A-DC11	A-DC12	A-DC13	A-DC14	A-DC15	A-DC16	A-Ph1	A-Ph2	A-Ph3	A-Ph4	A-Ph5	A-Ph6	A-Ph7	A-Ph8	A-Ph9	A-Ph10	A-Ph11	A-Ph12	A-Ph13	A-Ph14	A-Ph15	A-Ph16	

Term	0.00000e+00	0.00000e+00	0.00000e+00	0.00000e+00	0.00000e+00	0.00000e+00	0.00000e+00	0.00000e+00	0.00000e+00	0.00000e+00	0.00000e+00	0.00000e+00	0.00000e+00	0.00000e+00	0.00000e+00	0.00000e+00	0.00000e+00	0.00000e+00	0.00000e+00	0.00000e+00	0.00000e+00	0.00000e+00	0.00000e+00	0.00000e+00	0.00000e+00	0.00000e+00	0.00000e+00	0.00000e+00	0.00000e+00	0.00000e+00	0.00000e+00	0.00000e+00	0.00000e+00	0.00000e+00	0.00000e+00	0.00000e+00	0.00000e+00	0.00000e+00	0.00000e+00	0.00000e+00	0.00000e+00	0.00000e+00	0.00000e+00	0.00000e+00	0.00000e+00	0.00000e+00	0.00000e+00	0.00000e+00	
Factor	1.00000e+00	1.00000e+00	1.00000e+00	1.00000e+00	1.00000e+00	1.00000e+00	1.00000e+00	1.00000e+00	1.00000e+00	1.00000e+00	1.00000e+00	1.00000e+00	1.00000e+00	1.00000e+00	1.00000e+00	1.00000e+00	1.00000e+00	1.00000e+00	1.00000e+00	1.00000e+00	1.00000e+00	1.00000e+00	1.00000e+00	1.00000e+00	1.00000e+00	1.00000e+00	1.00000e+00	1.00000e+00	1.00000e+00	1.00000e+00	1.00000e+00	1.00000e+00	X	X	X	X	X	X	X	X	X	X	X	X	X	X	X	X	

B = Detector Channel
Val Type	B-AC1	B-AC2	B-AC3	B-AC4	B-AC5	B-AC6	B-AC7	B-AC8	B-AC9	B-AC10	B-AC11	B-AC12	B-AC13	B-AC14	B-AC15	B-AC16	B-DC1	B-DC2	B-DC3	B-DC4	B-DC5	B-DC6	B-DC7	B-DC8	B-DC9	B-DC10	B-DC11	B-DC12	B-DC13	B-DC14	B-DC15	B-DC16	B-Ph1	B-Ph2	B-Ph3	B-Ph4	B-Ph5	B-Ph6	B-Ph7	B-Ph8	B-Ph9	B-Ph10	B-Ph11	B-Ph12	B-Ph13	B-Ph14	B-Ph15	B-Ph16	

Term	0.00000e+00	0.00000e+00	0.00000e+00	0.00000e+00	0.00000e+00	0.00000e+00	0.00000e+00	0.00000e+00	0.00000e+00	0.00000e+00	0.00000e+00	0.00000e+00	0.00000e+00	0.00000e+00	0.00000e+00	0.00000e+00	0.00000e+00	0.00000e+00	0.00000e+00	0.00000e+00	0.00000e+00	0.00000e+00	0.00000e+00	0.00000e+00	0.00000e+00	0.00000e+00	0.00000e+00	0.00000e+00	0.00000e+00	0.00000e+00	0.00000e+00	0.00000e+00	-9.50993e+01	-1.28701e+02	-1.24987e+02	-1.83761e+02	-6.23572e+01	-7.40854e+01	-1.58106e+02	-1.62015e+02	-5.36995e+01	-7.02651e+01	-1.70714e+02	-1.70913e+02	-1.78902e+02	-1.77049e+02	-6.51981e+01	-1.49824e+02	
Factor	1.64770e-05	1.35927e-04	3.46547e-05	1.51834e-01	1.19814e-06	1.36781e-06	1.67260e-01	5.25101e-02	1.01735e-06	1.28790e-06	8.68415e-02	3.03108e-02	2.82728e-02	9.66055e-03	1.35503e-06	1.35419e-02	3.18107e-06	3.59181e-06	1.00104e-06	7.44679e-02	3.88649e-08	3.97153e-08	7.71580e-02	2.58867e-02	3.91507e-08	3.98793e-08	4.12608e-02	1.45034e-02	1.40702e-02	4.76425e-03	3.96035e-08	6.46411e-03	X	X	X	X	X	X	X	X	X	X	X	X	X	X	X	X	



#DISTANCE SETTINGS
A = Detector Channel
A-1	A-2	A-3	A-4	A-5	A-6	A-7	A-8	A-9	A-10	A-11	A-12	A-13	A-14	A-15	A-16	

2.5000e+00	3.0000e+00	2.5000e+00	3.0000e+00	2.0000e+00	3.0000e+00	1.5000e+00	3.0000e+00	3.0000e+00	3.0000e+00	3.0000e+00	3.0000e+00	3.0000e+00	3.0000e+00	1.5000e+00	3.0000e+00	

B = Detector Channel
B-1	B-2	B-3	B-4	B-5	B-6	B-7	B-8	B-9	B-10	B-11	B-12	B-13	B-14	B-15	B-16	

1.0000e+01	1.0000e+01	1.0000e+01	1.4400e+00	1.0000e+01	1.0000e+01	1.5100e+00	1.9400e+00	1.0000e+01	1.0000e+01	1.9900e+00	2.4900e+00	2.4100e+00	2.9000e+00	1.0000e+01	2.9800e+00	




#DATA BEGINS
time	group	step	mark	flag	A-AC1	A-AC2	A-AC3	A-AC4	A-AC5	A-AC6	A-AC7	A-AC8	A-AC9	A-AC10	A-AC11	A-AC12	A-AC13	A-AC14	A-AC15	A-AC16	A-DC1	A-DC2	A-DC3	A-DC4	A-DC5	A-DC6	A-DC7	A-DC8	A-DC9	A-DC10	A-DC11	A-DC12	A-DC13	A-DC14	A-DC15	A-DC16	A-Ph1	A-Ph2	A-Ph3	A-Ph4	A-Ph5	A-Ph6	A-Ph7	A-Ph8	A-Ph9	A-Ph10	A-Ph11	A-Ph12	A-Ph13	A-Ph14	A-Ph15	A-Ph16	B-AC1	B-AC2	B-AC3	B-AC4	B-AC5	B-AC6	B-AC7	B-AC8	B-AC9	B-AC10	B-AC11	B-AC12	B-AC13	B-AC14	B-AC15	B-AC16	B-DC1	B-DC2	B-DC3	B-DC4	B-DC5	B-DC6	B-DC7	B-DC8	B-DC9	B-DC10	B-DC11	B-DC12	B-DC13	B-DC14	B-DC15	B-DC16	B-Ph1	B-Ph2	B-Ph3	B-Ph4	B-Ph5	B-Ph6	B-Ph7	B-Ph8	B-Ph9	B-Ph10	B-Ph11	B-Ph12	B-Ph13	B-Ph14	B-Ph15	B-Ph16	aux-1	digaux	

40619.758	1	1	0	256	0.056322	0.11408	0.16515	0.1021	0.26973	0.15845	0.20031	0.18976	0.11823	0.087908	0.15302	0.12691	0.2751	0.096549	0.31019	0.1702	-3.5646	-2.9708	-3.6188	-3.8104	-3.0792	-3.7583	-3.5646	-3.3812	-3.9396	-3.1688	-3.7771	-3.9396	-3.0958	-3.7729	-3.2875	-3.45	259.284	208.917	45.439	170.706	103.059	-49.648	120.356	131.159	228.852	183.696	-88.493	261.782	150.367	253.366	230.788	249.384	0.00019584	0.00045002	9.4133e-05	709.18	4.8638e-06	4.6098e-06	1328.2	232.02	2.2249e-06	2.3997e-06	506.3	169.32	63.115	20.023	3.8179e-06	70.186	0.00011931	8.1631e-05	2.1733e-05	653.37	9.5422e-07	8.8193e-07	1231	214.09	9.4573e-07	8.314e-07	466.99	158.22	59.053	18.559	9.3473e-07	65.104	225.738	-3.695	-10.404	-83.050	80.055	53.107	-81.769	-79.348	60.924	48.008	-78.113	-73.543	-74.978	-69.931	46.926	-68.702	-8191	255	
40619.855	1	1	0	0	0.16989	0.063702	0.043122	0.34378	0.074748	0.087025	0.068098	0.10402	0.22916	0.22575	0.32677	0.23786	0.30681	0.2235	0.17817	0.044662	-3.4979	-3.1437	-3.55	-3.9667	-3.2021	-3.8417	-3.7313	-3.2313	-3.7854	-3.2354	-3.6333	-3.925	-3.1292	-3.8354	-3.6625	-3.3771	-25.605	212.563	181.111	168.353	213.090	90.543	233.460	42.156	1.191	9.959	236.724	126.381	226.700	192.625	188.163	170.632	0.00022315	0.0004433	0.00012046	709.88	2.5292e-06	4.504e-06	1325.6	232.34	9.3709e-07	4.7907e-06	504.41	167.11	62.163	19.654	3.5356e-06	68.598	0.00012184	8.1841e-05	2.1556e-05	651.33	8.9155e-07	8.5173e-07	1227.7	213.64	8.4721e-07	8.7311e-07	464.99	156.93	58.526	18.255	8.8555e-07	63.934	219.813	-9.745	1.237	-82.786	64.875	54.079	-81.654	-79.027	72.761	47.601	-78.481	-73.708	-74.499	-69.642	52.760	-68.693	-8191	255	
40619.953	1	1	0	0	0.069069	0.061405	0.14613	0.11904	0.24959	0.05012	0.28816	0.18009	0.15691	0.36631	0.34513	0.21541	0.14298	0.15937	0.21742	0.27965	-3.7812	-3.2792	-3.4042	-3.8854	-3.0875	-3.7	-3.8583	-3.1583	-4.1125	-3.3375	-3.5417	-3.9313	-3.2292	-3.6917	-3.775	-3.2938	32.342	246.942	184.078	-90.412	49.167	78.429	172.327	238.379	198.141	-82.045	246.715	174.126	78.693	48.719	36.042	176.290	0.00020516	0.00051834	0.0001429	708.12	3.5795e-06	4.4855e-06	1318	230.74	1.3719e-06	3.6198e-06	499.01	165.55	62.217	19.383	4.524e-06	68.563	0.00012064	7.8339e-05	2.1326e-05	650.53	8.9608e-07	8.4105e-07	1223.1	212.81	8.8905e-07	8.4818e-07	461.27	155.08	57.89	18.081	9.0832e-07	63.512	218.609	-19.391	7.177	-82.641	55.545	52.079	-82.220	-79.498	61.755	63.020	-78.279	-73.765	-75.209	-69.607	52.322	-68.668	-8191	255	
40620.047	1	1	0	0	0.061226	0.15676	0.063959	0.096972	0.21029	0.083054	0.16541	0.13081	0.16216	0.083941	0.35786	0.14106	0.13864	0.29367	0.07366	0.090598	-3.5729	-3.4437	-3.2396	-4.0979	-3.2396	-3.5875	-4.0292	-3.2542	-3.8312	-3.5792	-3.4313	-4.1625	-3.2396	-3.4917	-3.7667	-3.2188	26.860	-39.176	-32.402	190.792	-21.111	-92.887	233.403	82.801	-10.061	24.455	239.247	214.479	-78.698	189.238	20.877	-40.279	0.0002072	0.0004427	0.00012504	710.95	3.2736e-06	4.523e-06	1322.5	230.1	2.8508e-06	4.5202e-06	500.93	166.98	61.794	19.441	3.971e-06	68.295	0.00011504	8.0389e-05	2.1671e-05	653	9.3106e-07	8.6323e-07	1227.5	212.72	8.9043e-07	8.6347e-07	462.55	155.55	57.859	18.04	8.8613e-07	63.444	226.563	-12.418	-13.097	-82.959	46.350	21.844	-81.758	-79.467	46.419	49.390	-78.298	-73.702	-74.641	-69.273	61.474	-68.577	-8191	255	
40620.145	1	1	0	0	0.22978	0.21079	0.1457	0.24483	0.16008	0.10985	0.2379	0.21838	0.3317	0.10068	0.19431	0.26266	0.045885	0.16791	0.053924	0.15017	-3.4813	-3.5	-3.1417	-3.9938	-3.2458	-3.5542	-4.0896	-3.1417	-3.7542	-3.8333	-3.2521	-4.0813	-3.3563	-3.375	-3.9229	-3.1271	-11.475	-10.244	207.753	169.358	-91.187	65.387	249.786	207.432	82.204	-26.644	211.763	217.654	-27.491	140.943	2.702	193.800	0.0002086	0.0004551	9.0585e-05	709.92	3.5316e-06	6.9516e-06	1321.5	231.04	1.2642e-06	3.1468e-06	506.74	167.77	63.506	19.752	2.8643e-06	68.921	0.00011633	7.8144e-05	2.1812e-05	653.42	9.0523e-07	8.8689e-07	1229.8	213.4	8.9443e-07	8.6646e-07	466.08	157.14	58.977	18.382	8.5469e-07	64.464	224.910	-0.132	-41.782	-83.041	54.269	44.524	-81.640	-78.731	110.144	32.696	-78.655	-73.843	-74.947	-69.603	24.701	-68.336	-8191	255	
40620.238	1	1	0	0	0.12188	0.059439	0.12139	0.13321	0.21476	0.11999	0.19704	0.26575	0.17755	0.087032	0.29458	0.13363	0.1567	0.14829	0.24585	0.1536	-3.2833	-3.5896	-3.1958	-4.0312	-3.2896	-3.4167	-4.1042	-3.3042	-3.6229	-3.7938	-3.2521	-4.0188	-3.5104	-3.2687	-3.8854	-3.2438	129.113	12.991	252.531	213.753	185.981	68.379	207.965	174.361	222.884	-62.014	247.475	241.188	-55.683	79.537	167.052	237.808	0.00018993	0.00038853	0.00010063	709.48	4.0066e-06	2.9132e-06	1333.1	231.54	3.0567e-06	4.3224e-06	507.08	168.54	63.488	20.224	4.124e-06	70.273	0.00012142	7.7591e-05	2.3003e-05	653.87	8.5689e-07	8.5032e-07	1232.5	214.66	9.2755e-07	8.7444e-07	467.09	158.42	59.208	18.628	8.7095e-07	65.312	224.229	-8.923	-14.100	-82.558	49.687	49.666	-81.955	-79.170	55.083	41.014	-78.411	-73.612	-74.584	-69.439	48.614	-68.679	-8191	255	
40620.359	1	1	0	0	0.051885	0.12541	0.059178	0.15415	0.048904	0.1508	0.11322	0.25419	0.13631	0.19937	0.25654	0.021019	0.082712	0.15533	0.011327	0.14515	-3.2479	-3.8	-3.1312	-4.0625	-3.5917	-3.1917	-4.0479	-3.2604	-3.55	-3.9375	-3.0563	-3.8771	-3.6688	-3.3187	-3.95	-3.5875	255.540	103.212	121.976	219.742	232.525	-63.271	106.598	211.392	91.866	161.924	220.040	97.383	193.940	-85.268	15.023	-73.923	0.00021292	0.00041212	0.00020363	711.32	3.1609e-06	4.3145e-06	1326.5	231.24	4.2592e-06	5.059e-06	507.61	169.19	63.288	19.98	4.2692e-06	69.688	0.00011937	7.9768e-05	2.3049e-05	652.37	8.8839e-07	8.538e-07	1228.1	214.4	9.1776e-07	7.9858e-07	466.26	158.5	59.104	18.552	8.9273e-07	64.825	223.335	5.899	0.317	-82.537	76.293	37.980	-82.025	-78.988	24.347	82.258	-78.445	-73.839	-74.889	-69.460	34.178	-68.552	-8191	255	
40620.457	1	1	0	0	0.16097	0.26533	0.08599	0.17437	0.23368	0.23574	0.33362	0.13607	0.21944	0.006668	0.252	0.15353	0.23361	0.33163	0.13961	0.10907	-3.2542	-3.8937	-3.125	-3.7521	-3.6521	-3.1312	-4.0437	-3.5458	-3.475	-3.9792	-3.3875	-3.7396	-3.7938	-3.1208	-3.9104	-3.6583	-28.962	179.066	-48.633	220.369	84.345	28.842	219.920	128.703	-40.395	183.672	227.164	192.301	158.100	-52.582	61.273	9.951	0.00022372	0.00025812	0.00012572	702.56	5.6954e-06	5.5329e-06	1321.1	228.81	3.0126e-06	4.608e-06	501.67	166.93	61.91	19.712	4.3269e-06	68.97	0.0001215	8.0786e-05	2.3199e-05	647.89	9.2806e-07	8.9682e-07	1222.3	212.3	9.1751e-07	8.7045e-07	462.43	156.7	58.244	18.271	9.2573e-07	64.193	227.922	-4.791	18.208	-82.923	39.820	47.715	-81.744	-78.953	78.095	49.052	-78.368	-73.547	-74.966	-69.390	61.516	-68.425	-8191	255	
40620.555	1	1	0	0	0.21491	0.31539	0.29243	0.10988	0.19338	0.087347	0.15529	0.22977	0.13754	0.10301	0.21849	0.20381	0.05976	0.16104	0.11975	0.23139	-2.9125	-3.8917	-3.2958	-3.6813	-3.8042	-3.1937	-4.0583	-3.7292	-3.2604	-4.2146	-3.4604	-3.5521	-3.8604	-3.2292	-4.0146	-3.6937	-11.114	185.208	209.480	-82.597	83.895	12.968	255.035	-48.137	9.903	129.396	245.072	200.757	200.904	14.126	37.002	197.177	0.00020275	0.00039682	0.00012418	703.2	2.2438e-06	2.4156e-06	1319.8	228.69	2.2439e-06	4.1449e-06	501.65	167.82	62.418	19.511	5.4765e-06	69.244	0.00012048	7.7344e-05	2.2194e-05	648.39	8.6685e-07	8.9417e-07	1224	211.93	9.3668e-07	8.8e-07	463.77	156.82	58.277	18.19	8.7656e-07	64.297	225.065	-9.956	7.743	-82.696	77.405	20.375	-81.832	-78.964	59.692	82.571	-78.092	-73.812	-74.677	-69.258	52.813	-68.262	-8191	255	
40620.648	1	1	0	0	0.080412	0.28284	0.079884	0.16672	0.11521	0.093921	0.17778	0.13978	0.095026	0.070854	0.36341	0.23217	0.082573	0.010936	0.1649	0.095722	-2.8937	-3.9521	-3.4229	-3.7104	-3.775	-3.0187	-3.8917	-3.8479	-3.1396	-3.9875	-3.4583	-3.5396	-3.9604	-3.1542	-3.6833	-3.9708	-33.200	14.976	-38.309	224.068	189.677	18.516	128.544	172.410	-56.566	178.142	183.418	-85.354	189.550	95.477	232.783	156.450	0.00021136	0.00052484	8.9811e-05	703.73	2.8389e-06	4.0946e-06	1320.7	230.96	3.2073e-06	4.6449e-06	503.48	167.06	62.36	19.895	3.9106e-06	68.675	0.00012132	7.9379e-05	2.1967e-05	649.38	8.3033e-07	8.4949e-07	1223.7	213.35	8.9859e-07	8.5632e-07	464.56	156.6	58.389	18.324	8.8011e-07	64.213	227.384	-8.090	-4.082	-83.112	57.802	61.745	-82.061	-78.704	71.172	53.972	-78.398	-73.649	-74.992	-69.888	51.637	-68.534	-8191	255	
40620.746	1	1	0	0	0.21543	0.24579	0.15201	0.41911	0.16329	0.11331	0.23217	0.29022	0.059385	0.164	0.022577	0.020688	0.1654	0.11489	0.19747	0.16168	-2.7292	-4.0396	-3.4542	-3.4229	-3.9562	-3.1125	-3.7917	-3.8083	-3.1167	-3.9062	-3.7562	-3.5417	-4.0062	-3.2896	-3.5479	-3.975	238.849	258.584	138.192	164.053	172.709	224.515	172.992	198.107	169.740	-44.710	89.476	192.649	224.548	-44.852	185.854	240.562	0.00020095	0.00049338	0.00012089	699.94	2.7366e-06	3.9807e-06	1317.5	227.59	2.78e-06	5.4297e-06	504.82	167.75	62.828	19.57	3.6599e-06	69.179	0.00011991	7.9229e-05	2.2286e-05	647.05	8.8167e-07	8.8284e-07	1220.8	212.11	9.9981e-07	8.82e-07	464.81	156.91	58.603	18.231	8.8646e-07	64.246	222.817	-24.068	-2.336	-82.760	68.636	38.082	-81.929	-79.392	42.941	48.784	-78.185	-73.437	-74.377	-69.564	83.942	-68.326	-8191	255	
40620.840	1	1	0	0	0.11984	0.11285	0.10974	0.14277	0.10289	0.18441	0.25903	0.12126	0.30542	0.077772	0.18501	0.13357	0.064314	0.15595	0.36182	0.25427	-2.6937	-3.8646	-3.5979	-3.4333	-3.9104	-3.2417	-3.5583	-3.9125	-3.1417	-3.7042	-3.9021	-3.3187	-3.9708	-3.1875	-3.3208	-3.9417	-80.106	-29.880	-51.877	221.079	-12.203	104.276	227.070	186.488	-44.088	-62.366	128.683	233.322	76.942	159.141	167.619	-94.539	0.00018743	0.00035328	8.1023e-05	699.91	3.8386e-06	2.7965e-06	1325	228.79	2.6621e-06	3.38e-06	505.58	167.34	62.82	19.726	3.191e-06	69.715	0.00012413	8.2103e-05	2.2676e-05	646.77	8.6993e-07	8.1416e-07	1224.9	212.03	9.1931e-07	8.8457e-07	464.7	157.22	58.726	18.338	8.9215e-07	64.626	221.620	-7.394	-26.890	-82.686	66.790	43.259	-81.949	-79.062	58.417	31.385	-78.102	-73.945	-74.759	-69.227	35.844	-68.452	-8191	255	
40620.961	1	1	0	0	0.11678	0.1012	0.12945	0.23376	0.12525	0.24147	0.24901	0.063987	0.068409	0.091571	0.1776	0.073697	0.20752	0.17479	0.25572	0.086401	-2.8646	-3.6896	-3.7438	-3.275	-3.7792	-3.4625	-3.5771	-4.1042	-3.0104	-3.7458	-3.8417	-3.2812	-3.8667	-3.3875	-3.3479	-4.1667	56.179	68.049	249.226	51.800	214.127	-96.587	251.433	-17.525	136.003	154.126	254.658	213.814	174.666	200.350	139.757	180.174	0.00022488	0.00050003	8.1205e-05	702.79	2.9295e-06	2.7055e-06	1320.5	229.53	4.1744e-06	5.7475e-06	505.55	168.6	62.982	19.816	3.4032e-06	69.68	0.00012595	7.9454e-05	2.0947e-05	646.64	8.7373e-07	8.1416e-07	1224.7	212.72	9.3097e-07	8.5981e-07	466.29	157.98	58.545	18.332	9.0337e-07	64.658	230.647	-22.932	4.942	-82.483	79.693	78.344	-81.876	-79.269	76.963	63.403	-78.259	-73.880	-75.281	-69.400	67.883	-68.481	-8191	255	
40621.055	1	1	0	0	0.27699	0.0076212	0.29998	0.13754	0.21046	0.10109	0.24264	0.33407	0.063394	0.15995	0.045723	0.21773	0.21497	0.077358	0.062372	0.23888	-2.7333	-3.4854	-3.8125	-3.3	-3.7833	-3.5187	-3.3688	-4.1104	-3.1813	-3.6	-3.9771	-3.0938	-3.9375	-3.7896	-3.0292	-4.1354	170.310	79.109	93.123	194.112	209.966	-27.325	198.327	-68.768	28.820	-61.378	245.158	134.053	180.595	260.297	253.945	-80.022	0.00022639	0.00041954	7.1323e-05	706.96	3.2105e-06	3.1229e-06	1323.9	230.72	4.3978e-06	3.6592e-06	501.94	167.61	62.285	19.82	4.0384e-06	68.962	0.00011924	7.9409e-05	2.1637e-05	647.78	8.8572e-07	8.8325e-07	1224.9	213.59	9.3301e-07	8.471e-07	465.49	157.38	58.287	18.261	9.3481e-07	64.345	219.954	-6.776	-9.977	-82.974	91.122	80.206	-81.894	-78.897	66.152	93.681	-77.909	-73.664	-75.288	-69.541	48.451	-68.451	-8191	255	
40621.152	1	1	0	0	0.3441	0.14245	0.1005	0.14035	0.088026	0.11815	0.20013	0.15491	0.067055	0.014482	0.39408	0.37599	0.30011	0.087788	0.2305	0.021643	-2.9396	-3.4833	-3.8729	-3.1708	-3.9354	-3.6604	-3.4146	-4.0417	-3.2938	-3.4646	-4.1312	-3.0875	-3.7625	-3.725	-3.1208	-4.1333	111.687	240.693	187.086	-81.792	-71.354	-65.629	178.698	242.084	-69.436	231.628	-87.436	219.483	255.164	193.910	134.103	-60.617	0.00021712	0.00062139	8.3572e-05	705.34	3.2481e-06	7.3348e-06	1327.8	230.7	2.9087e-06	3.7553e-06	504.34	168.47	63.014	19.767	3.7325e-06	69.343	0.0001154	8.4999e-05	2.1819e-05	649.55	8.8304e-07	8.629e-07	1226.2	213.34	9.3766e-07	8.756e-07	465.85	157.9	58.506	18.321	9.6039e-07	64.363	216.638	-32.587	1.862	-82.698	47.922	38.770	-81.821	-78.920	98.023	87.668	-77.966	-73.698	-74.886	-69.549	35.165	-68.728	-8191	255	
40621.250	1	1	0	0	0.13888	0.14824	0.20899	0.1114	0.12598	0.019035	0.45173	0.17963	0.12261	0.17752	0.11166	0.26481	0.094909	0.21087	0.10388	0.25745	-3.0625	-3.2208	-3.8708	-3.3812	-3.6583	-3.8187	-3.2521	-3.9062	-3.3563	-3.2562	-4.1188	-3.45	-3.5521	-3.8833	-2.9417	-3.8167	-89.798	201.274	229.152	-86.072	12.266	238.208	203.858	-88.794	-30.526	58.097	121.381	207.509	152.907	-82.253	-24.472	-96.277	0.00018061	0.00042217	0.00011852	708.52	3.0092e-06	3.3085e-06	1325.2	229.75	2.7513e-06	3.6018e-06	505.16	167	62.545	19.569	5.9634e-06	69.215	0.00011747	7.878e-05	2.21e-05	649.05	9.3713e-07	8.6166e-07	1226.7	213.61	9.4794e-07	8.849e-07	467.34	157.51	58.464	18.322	8.9537e-07	64.47	221.966	-5.951	-7.857	-82.808	74.413	27.482	-81.928	-79.033	52.337	43.700	-78.343	-73.696	-74.707	-69.559	70.146	-68.516	-8191	255	
40621.344	1	1	0	0	0.14819	0.16706	0.22788	0.073182	0.16796	0.27938	0.14616	0.25658	0.15004	0.21408	0.029383	0.29603	0.094821	0.17174	0.11021	0.26219	-3.1063	-3.0167	-3.8625	-3.4021	-3.4042	-3.975	-3.3292	-3.9083	-3.6937	-3.3125	-3.9437	-3.3646	-3.5104	-3.9125	-3.15	-3.8417	70.554	21.417	142.558	198.859	139.403	69.780	186.947	-96.584	-49.474	227.093	235.300	-84.138	167.736	207.573	-92.313	214.633	0.0002201	0.00032797	0.00013998	708.55	4.8712e-06	3.7622e-06	1326.6	229.73	2.7078e-06	5.3599e-06	506.53	168.17	62.595	19.73	3.2673e-06	69.421	0.00011845	8.3906e-05	2.2038e-05	650.45	9.1567e-07	8.7117e-07	1227	212.85	9.627e-07	9.2703e-07	467.12	158.03	58.508	18.282	9.325e-07	64.586	221.326	-0.472	-13.346	-82.590	85.871	54.665	-81.882	-78.926	49.961	48.858	-78.222	-73.387	-74.482	-69.418	38.389	-68.826	-8191	255	
40621.441	1	1	0	0	0.17973	0.27379	0.20761	0.096953	0.01798	0.10437	0.30216	0.15167	0.10692	0.07718	0.17297	0.13882	0.13222	0.018691	0.31893	0.081979	-3.2229	-3.2083	-3.8167	-3.3292	-3.4333	-4.0042	-3.4	-3.7625	-3.9104	-3.1625	-4.1167	-3.5146	-3.5021	-4.0458	-3.2417	-3.8083	-52.405	-8.742	-32.780	193.031	29.101	76.557	204.010	221.878	85.166	103.764	208.776	195.847	-47.994	224.666	-92.799	-92.021	0.00020128	0.00056975	0.00015048	709	3.4445e-06	3.9907e-06	1331.8	230.56	1.0754e-06	2.8685e-06	509.27	168.5	62.411	19.808	2.8708e-06	69.632	0.00012001	8.0232e-05	2.2776e-05	650.9	9.3843e-07	8.7713e-07	1228.8	213.99	8.9867e-07	8.7917e-07	468.01	158.11	58.655	18.37	9.1831e-07	64.726	227.892	-4.821	15.515	-82.801	7.704	54.057	-81.736	-79.054	64.992	66.589	-78.588	-73.510	-75.036	-69.637	58.297	-68.561	-8191	255	
40621.535	1	1	0	0	0.16393	0.23356	0.092191	0.25214	0.13304	0.15908	0.18125	0.16507	0.16511	0.18264	0.31846	0.15733	0.25868	0.04915	0.21197	0.21229	-3.4	-3.0687	-3.6625	-3.5583	-3.2562	-4.0896	-3.4354	-3.7104	-3.9437	-2.9146	-3.9792	-3.5896	-3.2333	-4.0104	-3.25	-3.6521	251.896	149.534	202.895	232.023	180.328	175.256	144.533	257.341	65.325	177.258	196.410	243.591	-37.015	153.036	-59.041	237.347	0.00020472	0.00045365	9.3621e-05	703.69	4.0951e-06	4.0397e-06	1324	231.31	1.8742e-06	3.1945e-06	507.47	168.78	63.231	19.686	2.1294e-06	69.439	0.00011289	7.991e-05	2.1769e-05	649.84	9.3057e-07	8.538e-07	1227.4	214.32	9.2828e-07	8.4461e-07	468.03	158.3	59.028	18.367	8.8052e-07	64.62	221.601	1.266	0.236	-82.819	70.127	76.604	-81.677	-78.787	37.583	39.479	-78.337	-73.459	-74.515	-69.209	3.809	-68.332	-8191	255	
40621.656	1	1	0	0	0.25234	0.045357	0.10993	0.17254	0.20958	0.10736	0.11097	0.022568	0.23694	0.16626	0.19305	0.23908	0.39008	0.2851	0.18877	0.12192	-3.3	-3.025	-3.7396	-3.6063	-3.0583	-3.8771	-3.4042	-3.4604	-4.0125	-3.0292	-3.8417	-3.8896	-3.1729	-3.8667	-3.325	-3.5458	231.598	4.423	47.317	229.146	152.848	49.070	137.066	187.159	27.017	170.656	227.307	235.689	-68.240	249.793	189.708	193.194	0.0002169	0.00075351	0.0001287	705.26	3.545e-06	3.5501e-06	1330.5	232.69	2.8332e-06	4.6529e-06	507.26	169.37	63.113	19.936	3.1748e-06	69.802	0.00011698	8.1205e-05	2.2063e-05	648.06	9.6199e-07	8.2666e-07	1229	214.26	9.1972e-07	8.4685e-07	467.21	158.56	58.99	18.446	8.9232e-07	64.824	230.141	-12.776	7.144	-82.685	37.184	51.916	-81.684	-78.898	70.505	55.763	-78.304	-73.424	-74.997	-69.211	68.069	-69.044	-8191	255	
40621.754	1	1	0	0	0.071399	0.047323	0.20204	0.10398	0.24113	0.083906	0.1982	0.22009	0.10815	0.17996	0.049875	0.21878	0.10777	0.23097	0.10987	0.18924	-3.5021	-3.1437	-3.5771	-3.8312	-3.1604	-3.9646	-3.675	-3.3271	-3.9396	-3.1625	-3.7167	-3.8688	-3.2646	-3.975	-3.4813	-3.4813	186.163	208.531	-26.145	117.837	-58.855	-74.193	-88.894	122.091	184.477	-60.658	-95.228	145.235	174.755	230.924	173.001	205.124	0.00021015	0.00034675	0.00013216	704.53	3.0498e-06	2.6272e-06	1319.6	232.47	2.7391e-06	4.3819e-06	508.78	169.41	62.227	19.674	3.2208e-06	69.083	0.00012066	7.8848e-05	2.1946e-05	648.65	9.1009e-07	8.1557e-07	1228.6	214.49	9.4965e-07	8.7693e-07	468.1	159.4	58.791	18.342	8.6542e-07	64.708	224.716	6.929	12.902	-82.746	90.345	48.291	-81.865	-79.028	48.956	58.253	-78.049	-73.666	-75.189	-69.443	46.519	-68.211	-8191	255	
40621.824	1	1	0	0	0.15973	0.12526	0.012103	0.14798	0.24792	0.098357	0.35876	0.18469	0.19997	0.086364	0.12819	0.14243	0.30951	0.18123	0.17746	0.19537	-3.6229	-3.25	-3.4375	-4.0229	-3.1146	-3.8458	-3.8	-3.2458	-3.8958	-3.2729	-3.6458	-4.0417	-3.1583	-3.7979	-3.7188	-3.2188	60.116	83.527	174.675	239.721	-15.280	133.484	201.703	175.106	185.247	6.879	262.664	198.298	-33.689	226.124	248.268	259.563	0.00021215	0.00041373	0.00012701	706.48	4.0982e-06	5.0514e-06	1339.2	231.88	1.6588e-06	2.608e-06	506.23	169.58	62.868	19.731	3.5581e-06	69.608	0.00011734	7.9484e-05	2.3208e-05	651.57	9.3689e-07	8.2566e-07	1234.7	214.63	9.4883e-07	8.3863e-07	467.63	158.85	58.778	18.37	9.1418e-07	64.704	226.408	-20.302	-10.448	-82.305	54.814	51.013	-81.700	-79.055	44.415	66.706	-78.224	-73.356	-74.528	-69.431	55.147	-68.804	-8191	255	
40621.922	1	1	0	0	0.045547	0.15791	0.06632	0.12979	0.23711	0.13419	0.10698	0.01665	0.13837	0.12117	0.10757	0.33818	0.050338	0.22266	0.10169	0.21977	-3.5896	-3.3771	-3.3771	-4.1583	-3.0375	-3.7438	-3.9458	-3.0521	-3.9229	-3.475	-3.3333	-4.0083	-3.2833	-3.6396	-3.7042	-3.2521	-17.232	151.539	116.955	246.104	51.874	182.744	221.575	116.819	-24.374	70.495	163.532	222.670	48.039	-38.848	223.715	233.822	0.00017912	0.00052533	9.4656e-05	711.41	3.4671e-06	2.6344e-06	1328.1	231.49	3.6029e-06	4.9287e-06	506.69	167.87	61.658	19.835	5.6198e-06	69.119	0.00012214	7.8204e-05	2.2544e-05	653.32	9.1252e-07	8.8333e-07	1231.1	213.76	9.1759e-07	8.8773e-07	466.2	157.65	58.244	18.224	9.0024e-07	64.265	227.666	-16.038	6.669	-82.811	88.938	52.615	-81.900	-78.891	66.303	51.405	-78.189	-73.710	-74.440	-69.201	69.413	-68.848	-8191	255	
40622.039	1	1	0	0	0.15377	0.097023	0.060194	0.29157	0.1758	0.20766	0.10674	0.20831	0.12242	0.14906	0.061913	0.26542	0.16803	0.055266	0.40254	0.22908	-3.8063	-3.525	-3.2896	-4.0729	-3.2521	-3.7396	-4.0271	-3.2896	-3.9396	-3.5771	-3.3708	-4.0396	-3.2333	-3.5062	-3.9979	-3.1063	90.527	39.727	120.712	-95.346	203.121	179.255	170.170	197.289	-41.338	158.196	148.729	256.674	254.973	243.087	206.323	113.916	0.00017492	0.00049773	9.2234e-05	707.68	2.785e-06	5.2164e-06	1330.9	230.62	2.8235e-06	3.0224e-06	505.96	166.6	62.274	19.625	3.8001e-06	68.975	0.00012077	7.6543e-05	2.2747e-05	653.72	9.0555e-07	9.0352e-07	1235.1	213.85	8.7738e-07	8.5566e-07	467.26	156.83	58.252	18.141	8.7978e-07	64.32	222.126	-1.104	4.914	-82.814	57.949	44.398	-81.947	-79.162	60.410	53.408	-78.189	-73.546	-75.031	-69.797	33.795	-68.825	-8191	255	
40622.137	1	1	0	0	0.14582	0.34992	0.13722	0.30355	0.1362	0.063145	0.24789	0.35902	0.18391	0.17097	0.20697	0.18068	0.098722	0.10272	0.2412	0.067295	-3.6583	-3.5917	-3.1688	-4.2167	-3.2667	-3.5938	-4.0583	-3.2208	-3.6562	-3.6729	-3.375	-4.3792	-3.3229	-3.3875	-3.9521	-3.3187	137.196	96.398	180.114	261.042	102.570	162.070	233.449	180.722	-89.089	-33.343	-89.201	180.752	96.883	118.004	44.905	-23.614	0.00020806	0.00051672	0.00010598	719.49	3.1788e-06	5.0133e-06	1352.5	231.51	4.1067e-06	4.371e-06	507.83	168.73	62.562	19.731	3.4107e-06	69.752	0.00011693	7.685e-05	2.2175e-05	661.64	9.1041e-07	9.1908e-07	1247.5	214.38	9.7444e-07	8.8333e-07	469.56	158.28	58.712	18.267	8.9347e-07	65.013	224.363	-12.697	2.074	-82.622	74.569	54.050	-82.108	-79.117	67.448	47.199	-78.389	-73.341	-75.361	-69.619	38.494	-68.822	-8191	255	
40622.234	1	1	0	0	0.18167	0.20532	0.09924	0.02273	0.14607	0.09821	0.10943	0.21334	0.30828	0.13763	0.17348	0.26357	0.15269	0.23502	0.0071591	0.10699	-3.2833	-3.6833	-3.05	-4.0021	-3.3771	-3.3396	-3.9521	-3.3604	-3.4958	-3.7542	-3.2271	-3.9583	-3.6104	-3.4167	-3.9125	-3.4062	252.072	-58.306	104.574	109.972	-85.911	168.022	94.582	219.508	-41.453	28.612	253.692	-91.640	226.730	-37.876	11.571	173.959	0.00019011	0.00041886	9.5982e-05	716.2	1.9763e-06	4.7541e-06	1346.6	233.59	2.1934e-06	2.8749e-06	511.46	170.65	63.201	20.08	4.2393e-06	70.437	0.00011873	8.0449e-05	2.4217e-05	660.72	9.262e-07	9.372e-07	1246.5	216.19	9.4973e-07	8.4303e-07	470.95	159.66	59.145	18.527	8.9826e-07	65.374	222.375	6.362	11.527	-82.682	31.171	41.634	-81.707	-79.298	65.244	13.837	-77.970	-73.490	-74.881	-70.103	77.199	-68.370	-8191	255	
40622.328	1	1	0	0	0.26171	0.16325	0.19541	0.029182	0.18557	0.14379	0.082628	0.13135	0.21694	0.11482	0.16881	0.24242	0.098205	0.085294	0.07917	0.09722	-3.2375	-3.8104	-2.8625	-3.9458	-3.6917	-3.2313	-4.2083	-3.3458	-3.4542	-4.0938	-3.1167	-3.775	-3.7625	-3.1958	-3.8625	-3.5229	157.901	153.425	-28.904	247.145	71.582	67.071	75.872	-92.156	212.678	141.639	165.506	259.684	131.708	247.056	104.344	-64.721	0.00020507	0.00048004	7.0034e-05	719.8	2.3906e-06	3.8776e-06	1330.9	231.03	9.762e-07	5.155e-06	507.23	167.91	62.448	19.734	4.6398e-06	70.142	0.0001215	8.0906e-05	2.3397e-05	658.22	8.9414e-07	9.1536e-07	1235.9	214.23	9.2404e-07	8.8715e-07	467.62	158.14	58.551	18.383	8.5964e-07	64.818	220.220	-22.915	-31.184	-82.731	73.288	3.793	-82.065	-78.903	71.844	50.596	-78.197	-73.367	-74.322	-69.922	87.343	-68.163	-8191	255	
40622.449	1	1	0	0	0.17821	0.28356	0.027696	0.25237	0.11277	0.24014	0.10109	0.073813	0.38445	0.13281	0.070597	0.25986	0.16782	0.26982	0.079853	0.11562	-3.1167	-3.8979	-3.1167	-3.9479	-3.7708	-3.1646	-4.2	-3.4604	-3.4417	-3.9896	-3.3021	-3.7625	-3.9292	-3.1312	-3.875	-3.5917	-40.946	262.837	39.076	-42.385	166.946	245.936	179.538	221.687	209.329	96.328	-28.394	231.329	-95.604	244.882	138.271	40.631	0.00022422	0.00038602	6.2895e-05	720.72	1.0395e-06	3.9165e-06	1339.2	230.73	4.264e-06	3.0583e-06	501.62	166.85	62.685	19.775	3.1425e-06	69.232	0.00011694	7.9072e-05	2.1904e-05	661.37	8.7454e-07	9.2702e-07	1239.2	214.25	9.2159e-07	8.4868e-07	464.27	157.08	58.493	18.236	8.3093e-07	64.433	229.763	-9.660	7.649	-83.174	35.147	41.740	-81.544	-78.671	66.457	10.487	-78.268	-73.920	-75.043	-69.604	42.620	-68.258	-8191	255	
40622.520	1	1	0	0	0.082909	0.031073	0.17863	0.22391	0.17951	0.15243	0.43405	0.04171	0.055143	0.063929	0.051888	0.44898	0.19499	0.1446	0.1334	0.20515	-3.0333	-3.9229	-3.125	-3.7396	-3.8896	-3.1354	-4.025	-3.6708	-3.2396	-4.125	-3.4625	-3.525	-3.9667	-3.2104	-4.0042	-3.8208	32.882	-76.037	187.963	248.448	184.330	131.585	213.385	113.594	259.609	157.463	109.122	251.887	-7.846	-47.170	230.045	-22.291	0.00021269	0.00031781	0.00012774	733.39	5.2898e-06	3.0333e-06	1352.1	233.25	3.552e-06	3.8184e-06	510.08	169.78	63.773	20.007	5.5753e-06	70.467	0.00012083	7.5682e-05	2.1679e-05	673.66	9.1964e-07	8.6538e-07	1249.9	216.28	9.2942e-07	8.1537e-07	470.56	158.93	59.513	18.52	8.6344e-07	65.429	221.608	-3.422	-23.191	-83.200	70.752	51.068	-82.242	-78.971	59.785	46.454	-77.951	-73.776	-74.406	-69.932	45.016	-68.667	-8191	255	
40622.641	1	1	0	0	0.17979	0.078629	0.075926	0.30515	0.091329	0.34421	0.24333	0.24677	0.11823	0.24248	0.18164	0.21602	0.23165	0.23021	0.29874	0.14689	-2.8937	-4.075	-3.3375	-3.5417	-3.8646	-3.0687	-4.1354	-3.8979	-3.2792	-3.9167	-3.4104	-3.4417	-4.0708	-3.1833	-3.825	-3.7812	11.913	123.087	47.558	236.078	119.462	79.055	170.111	236.717	201.601	51.134	215.537	258.913	234.695	55.477	3.483	-17.436	0.00019947	0.00042846	0.00012966	731.76	2.5666e-06	4.4722e-06	1350.2	234.57	3.5944e-06	3.7062e-06	507.34	170.32	63.221	19.767	2.9242e-06	69.275	0.0001191	7.917e-05	2.1696e-05	676.1	8.4483e-07	8.619e-07	1252.7	217.05	9.6555e-07	8.3996e-07	469.81	159.1	59.239	18.37	8.4405e-07	64.573	224.022	-4.864	-1.623	-82.725	26.193	67.503	-82.070	-78.916	53.649	58.852	-78.374	-73.736	-74.992	-69.482	35.173	-68.563	-8191	255	
40622.734	1	1	0	0	0.22632	0.018782	0.12018	0.29944	0.03833	0.14306	0.43078	0.29872	0.11589	0.15923	0.084434	0.060491	0.20849	0.16107	0.33664	0.1719	-2.7104	-4.0146	-3.3542	-3.3229	-3.9562	-3.1479	-3.7938	-3.9417	-3.1208	-4.1021	-3.75	-3.4146	-4.1958	-3.3542	-3.4792	-3.9479	-21.432	147.650	116.706	262.476	-50.893	201.843	197.572	159.656	215.590	33.436	223.682	165.121	-16.628	55.161	156.431	1.360	0.00021499	0.00055667	0.00012166	734.58	3.8245e-06	4.849e-06	1346.1	232.75	2.0789e-06	5.9071e-06	506.87	168.89	62.751	19.685	4.3521e-06	68.819	0.00012225	7.4844e-05	2.1266e-05	674.39	7.9778e-07	8.7994e-07	1246.4	216.29	9.2918e-07	8.0706e-07	467.55	157.99	58.879	18.389	8.6105e-07	64.107	227.211	-11.445	2.963	-83.042	68.305	55.348	-81.999	-78.951	57.328	41.740	-78.239	-73.554	-74.762	-69.703	43.361	-68.670	-8191	255	
40622.832	1	1	0	0	0.30476	0.082863	0.1681	0.12555	0.15063	0.10151	0.19406	0.17672	0.071767	0.28342	0.28974	0.092412	0.22886	0.10576	0.12537	0.14212	-2.9646	-3.8625	-3.5458	-3.325	-4.0062	-3.3563	-3.6312	-4.0042	-3.1667	-3.8375	-3.925	-3.3854	-3.9542	-3.4417	-3.4042	-3.9833	49.519	238.420	125.575	-75.716	119.408	216.374	159.549	213.740	-50.769	44.706	242.970	-81.507	-33.083	216.174	9.324	121.459	0.00018729	0.00031192	0.00014086	729.12	5.7918e-06	5.6237e-06	1338.1	232.83	1.6346e-06	3.2288e-06	506.38	167.16	63.098	19.705	5.5769e-06	68.67	0.00011793	7.3303e-05	2.069e-05	671.76	8.6183e-07	7.9853e-07	1242.3	215.54	9.2632e-07	8.5458e-07	467.17	157.22	58.931	18.213	9.4133e-07	63.931	229.913	18.927	-4.399	-82.878	64.349	35.479	-82.005	-78.980	27.266	40.355	-78.207	-73.889	-74.529	-69.606	24.252	-68.546	-8191	255	
40622.930	1	1	0	0	0.13635	0.11648	0.15411	0.24162	0.28447	0.1663	0.25123	0.19451	0.20666	0.36244	0.062488	0.23036	0.0087118	0.096868	0.10902	0.22758	-2.6417	-3.7313	-3.6729	-3.2333	-4.0354	-3.5521	-3.5542	-4.0104	-3.2188	-3.7271	-3.9604	-3.2667	-4.0229	-3.6021	-3.3688	-4.2021	16.501	-78.767	-42.613	243.527	254.234	150.898	231.079	151.246	36.727	-61.041	203.275	226.833	-96.352	-20.662	108.176	252.241	0.00018613	0.0004098	0.00014964	729.87	3.9083e-06	5.5819e-06	1341.3	233.02	1.9789e-06	4.5524e-06	507.56	167.83	63.634	19.831	2.9111e-06	69.067	0.00011485	7.4365e-05	2.1101e-05	670.27	8.2677e-07	7.9025e-07	1243.1	216.06	8.8358e-07	8.2318e-07	467.69	157.33	59.055	18.354	8.3456e-07	64.232	228.371	-31.634	-2.690	-82.848	39.762	39.088	-82.155	-78.866	78.502	42.716	-78.172	-73.650	-75.276	-69.861	84.226	-68.560	-8191	255	
40623.051	1	1	0	0	0.27274	0.045682	0.20764	0.13641	0.23379	0.013679	0.32668	0.23503	0.054309	0.03968	0.0095386	0.14742	0.20668	0.11227	0.12646	0.20655	-2.825	-3.4833	-4.0625	-3.3563	-4.0188	-3.6854	-3.7542	-4.1062	-3.2375	-3.5771	-4.1396	-3.3063	-3.9833	-3.8021	-3.2354	-4.1417	129.469	12.088	136.949	26.543	131.435	216.958	207.872	148.597	124.344	226.647	227.657	222.457	202.358	-44.928	53.263	182.603	0.00019077	0.00054984	0.00015223	730.89	2.8284e-06	4.4186e-06	1336.9	233.92	2.3249e-06	4.4179e-06	508.65	169.31	63.725	19.719	4.1545e-06	69.685	0.0001171	7.7568e-05	2.1145e-05	670.63	8.628e-07	8.1036e-07	1243.7	216.17	8.5495e-07	8.2284e-07	469.73	158.83	59.464	18.432	8.5032e-07	64.632	220.760	-8.567	-5.945	-82.905	75.795	56.642	-82.059	-78.942	42.347	50.435	-78.393	-73.615	-75.397	-69.949	35.526	-68.494	-8191	255	
40623.121	1	1	0	0	0.33851	0.16118	0.12801	0.22862	0.047396	0.27114	0.29287	0.19779	0.23411	0.029039	0.11773	0.23924	0.33916	0.25833	0.084712	0.15337	-2.9875	-3.4125	-3.9313	-3.3333	-3.825	-3.7208	-3.3146	-4.0521	-3.2438	-3.5646	-4.0958	-3.4417	-3.5792	-3.7229	-3.2354	-4.0687	168.397	106.930	128.272	172.667	-8.084	172.024	172.938	196.796	173.609	162.931	120.572	213.911	62.147	218.303	57.314	188.273	0.0002408	0.00037397	0.00012449	732.11	4.0774e-06	4.5651e-06	1347.8	232.77	2.5699e-06	5.965e-06	509.84	168.8	63.315	19.791	3.4935e-06	68.972	0.00011142	7.7336e-05	2.0736e-05	672.48	8.5381e-07	8.1358e-07	1246.8	216.32	8.9386e-07	8.3688e-07	469.55	158.17	59.196	18.475	8.4603e-07	64.148	217.773	-6.391	-4.771	-83.045	40.742	47.726	-81.906	-78.944	68.437	37.993	-78.279	-73.732	-74.768	-69.345	56.580	-68.840	-8191	255	
40623.219	1	1	0	0	0.13618	0.22281	0.052454	0.22774	0.14877	0.24784	0.11965	0.16801	0.088641	0.16403	0.17	0.07729	0.14015	0.09608	0.21414	0.05521	-3.225	-3.3708	-4.0625	-3.2542	-3.6562	-3.9229	-3.3875	-3.9333	-3.4833	-3.2792	-4.1854	-3.2687	-3.5604	-3.9667	-3.2438	-4.1292	13.861	217.916	-41.725	210.740	200.922	205.864	104.443	226.412	-23.339	204.139	170.650	218.583	223.523	-59.597	247.920	34.641	0.0001961	0.00028759	0.00016447	729.58	1.7005e-06	5.7349e-06	1330.7	232.1	1.9495e-06	4.3154e-06	507.85	167.99	62.687	19.802	4.3358e-06	68.921	0.00011515	7.6102e-05	2.088e-05	670.04	8.4442e-07	8.3162e-07	1237.1	215.38	8.8823e-07	8.8881e-07	467.3	157.67	58.859	18.376	8.9298e-07	64.266	223.878	23.709	2.701	-82.801	68.376	65.900	-81.824	-79.355	63.778	46.263	-78.064	-73.422	-74.714	-69.790	51.489	-68.628	-8191	255	
40623.312	1	1	0	0	0.27707	0.20867	0.18654	0.062638	0.20045	0.14246	0.053815	0.18541	0.095546	0.2117	0.10412	0.19227	0.093788	0.096697	0.31231	0.090534	-3.2979	-3.1042	-4.3313	-3.3083	-3.5438	-3.8083	-3.2771	-3.8521	-3.5563	-3.3375	-3.9292	-3.5083	-3.2229	-4.0312	-3.1083	-3.9083	5.126	256.010	62.759	104.072	211.847	-22.813	81.800	228.938	38.954	-77.137	162.859	234.723	218.986	201.909	68.554	118.597	0.00019848	0.00032053	0.00017636	721.9	4.2412e-06	4.0745e-06	1334.4	232.55	3.0042e-06	3.8698e-06	506.81	168.51	62.812	19.806	3.9789e-06	69.046	0.0001181	7.465e-05	2.1748e-05	665.83	8.5203e-07	8.1011e-07	1237.7	214.97	8.5512e-07	8.7203e-07	466.39	157.66	58.705	18.34	8.3671e-07	64.333	229.213	5.650	-27.377	-82.898	44.380	43.079	-82.212	-78.885	48.927	33.328	-78.197	-73.695	-75.003	-69.463	66.392	-68.660	-8191	255	
40623.434	1	1	0	0	0.22073	0.21595	0.10574	0.089271	0.091618	0.15377	0.20057	0.10538	0.067831	0.12798	0.15658	0.27438	0.10424	0.025045	0.10652	0.19732	-3.5271	-3.2542	-3.8958	-3.4979	-3.4604	-4.0083	-3.3396	-3.8146	-3.7479	-3.3146	-4.2521	-3.4792	-3.4188	-4.0833	-3.1854	-3.9729	239.248	-52.250	215.076	19.609	75.770	-21.308	197.476	13.570	19.129	71.057	178.527	206.018	204.045	243.196	-18.407	-81.094	0.00018652	0.00047635	0.00011467	725.79	3.404e-06	4.772e-06	1335.2	232.03	2.6255e-06	2.9508e-06	503.92	169.02	63.182	19.676	5.3529e-06	69.339	0.00011355	7.8578e-05	2.0826e-05	669.84	9.13e-07	7.953e-07	1240.1	214.94	8.5438e-07	8.3589e-07	467.01	158.14	58.948	18.287	8.7012e-07	64.485	224.125	-3.513	14.314	-82.594	75.855	68.064	-81.563	-78.847	85.129	65.405	-78.237	-73.728	-75.683	-69.967	55.759	-68.944	-8191	255	
40623.531	1	1	0	0	0.067778	0.19917	0.1817	0.12545	0.21268	0.25171	0.18201	0.24566	0.10919	0.031854	0.054641	0.10265	0.11223	0.043018	0.036879	0.12431	-3.4	-3.3187	-3.9208	-3.5938	-3.3021	-4.1146	-3.3417	-3.6896	-3.8688	-3.1063	-3.9417	-3.7729	-3.1688	-4.0104	-3.1542	-3.725	58.475	218.213	-2.787	141.536	-55.236	-72.159	169.509	238.068	69.408	161.015	179.835	181.589	222.353	124.060	249.467	64.547	0.00017052	0.00040932	0.00010147	728.76	1.9244e-06	3.9207e-06	1342.5	230.17	3.1066e-06	2.3799e-06	505.47	167.56	62.306	19.528	4.9755e-06	68.611	0.0001192	7.584e-05	2.0438e-05	669.87	8.6086e-07	8.1226e-07	1241.5	214.05	8.7192e-07	8.6588e-07	466.44	157.19	58.565	18.198	8.6014e-07	63.942	221.245	-14.796	2.593	-82.886	92.203	56.536	-82.102	-79.147	66.389	45.598	-78.132	-73.459	-75.181	-69.468	61.788	-68.344	-8191	255	
40623.625	1	1	0	0	0.25984	0.24005	0.17697	0.15967	0.12918	0.23202	0.10326	0.088364	0.15635	0.055925	0.29572	0.0544	0.069437	0.22324	0.15113	0.19919	-3.6854	-3.075	-3.9	-3.7354	-2.9458	-3.9688	-3.5271	-3.35	-3.9146	-3.1042	-3.9417	-3.8042	-3.1229	-4.0333	-3.4458	-3.55	-27.995	-96.957	-60.984	207.390	-25.391	114.467	253.560	135.196	-49.144	120.789	241.134	72.243	46.232	-47.213	73.340	247.773	0.00020181	0.00051149	9.4283e-05	725.43	3.0087e-06	3.6723e-06	1340.3	231.48	3.448e-06	2.2944e-06	503.23	168.06	62.703	19.662	3.9678e-06	69.631	0.00011675	7.9895e-05	2.0484e-05	669.58	8.6491e-07	7.8636e-07	1241.6	215.07	8.9076e-07	8.4303e-07	465.63	157.2	58.57	18.209	9.0709e-07	64.275	227.688	-7.986	-14.281	-82.745	39.886	36.868	-81.997	-79.295	75.166	37.707	-78.263	-73.800	-75.057	-69.318	35.969	-68.677	-8191	255	
40623.723	1	1	0	0	0.11308	0.035613	0.3444	0.36273	0.017876	0.11725	0.18367	0.19729	0.10244	0.27538	0.35818	0.10216	0.093746	0.23135	0.091042	0.077286	-3.625	-3.2188	-3.5167	-3.9625	-3.2646	-4.0437	-3.6542	-3.5687	-3.9042	-3.2292	-3.6479	-4.0062	-3.2271	-3.875	-3.6667	-3.3667	-63.397	10.896	208.497	197.625	84.221	136.392	213.324	186.760	182.924	129.965	229.009	-55.308	246.063	-83.927	39.994	174.868	0.00021698	0.00043096	0.00012068	723	1.5042e-06	3.6637e-06	1335.7	230.49	2.7041e-06	3.8839e-06	507.83	167.35	62.745	19.605	4.0175e-06	69.187	0.00011686	8.0531e-05	2.1652e-05	667.61	9.3883e-07	7.9497e-07	1241.6	214.14	9.5022e-07	8.6048e-07	466.49	157.28	58.74	18.297	8.8266e-07	64.282	221.476	-0.468	-1.103	-82.833	61.691	44.013	-81.835	-79.337	86.017	54.016	-78.309	-73.669	-74.453	-69.347	48.876	-68.719	-8191	255	
40623.816	1	1	0	0	0.21191	0.17525	0.27187	0.066996	0.15844	0.19245	0.11687	0.24579	0.12367	0.28922	0.075151	0.050353	0.19186	0.074913	0.13236	0.22962	-3.4396	-3.2875	-3.45	-3.8854	-3.1854	-3.8375	-3.8729	-3.2521	-4.0771	-3.3354	-3.5979	-4.0375	-3.0104	-3.8333	-3.8354	-3.3187	148.336	-74.376	165.638	176.090	-81.957	185.726	162.740	246.171	111.174	240.856	187.628	213.711	158.900	-66.304	-31.612	186.996	0.00016912	0.00040255	9.3041e-05	726.7	4.107e-06	4.6743e-06	1344.2	231.91	3.0833e-06	5.5175e-06	505.66	169.4	62.716	19.843	4.7476e-06	69.049	0.00011838	7.7995e-05	2.1404e-05	671.87	9.1616e-07	8.4519e-07	1244.8	215.27	8.5438e-07	8.1196e-07	467.73	158.36	58.683	18.435	8.3118e-07	64.671	225.769	-1.836	-24.567	-82.728	49.166	41.685	-81.812	-79.374	51.268	54.823	-78.352	-73.732	-75.271	-69.350	41.622	-68.633	-8191	255	
40623.914	1	1	0	0	0.18753	0.17157	0.12794	0.061861	0.11282	0.10129	0.043429	0.18319	0.090282	0.1486	0.10311	0.10462	0.22469	0.19757	0.17056	0.38732	-3.6646	-3.3	-3.5271	-4.0646	-3.1021	-3.6521	-3.9479	-3.0875	-4.0021	-3.5583	-3.4958	-4.1438	-3.3312	-3.6917	-3.8812	-3.1688	156.768	-67.309	40.616	245.497	253.775	39.609	247.375	167.160	152.544	117.009	224.263	192.777	-30.606	-6.001	54.097	217.016	0.00022759	0.00029118	0.00012976	726.84	4.0732e-06	5.2855e-06	1338.2	233.43	1.9033e-06	3.5919e-06	507.91	169.28	63.268	19.867	3.5422e-06	70.04	0.00011775	7.5555e-05	2.1712e-05	671.19	9.3001e-07	8.4536e-07	1243	215.94	8.6792e-07	8.0888e-07	468.64	158.97	59.281	18.491	8.66e-07	64.893	224.951	12.324	-8.966	-82.650	48.688	59.289	-81.789	-79.353	80.633	37.769	-78.226	-73.998	-75.012	-69.784	76.787	-68.547	-8191	255	
40624.035	1	1	0	0	0.22156	0.11263	0.1256	0.096369	0.15784	0.1287	0.06005	0.23611	0.11217	0.035562	0.21449	0.1376	0.065616	0.23112	0.077675	0.017641	-3.5271	-3.4521	-3.3479	-3.975	-3.0604	-3.5667	-4.0521	-3.2854	-3.8958	-3.7479	-3.425	-4.2937	-3.375	-3.4188	-3.9958	-3.2771	-92.640	53.657	199.926	18.943	64.296	233.973	-85.089	178.942	230.786	-16.577	-84.438	257.224	-21.479	142.343	138.034	-70.625	0.00019622	0.00053545	0.00015202	728.12	3.9709e-06	2.7324e-06	1338.1	232.89	2.1788e-06	4.847e-06	508.97	168.53	63.481	19.879	4.4994e-06	69.104	0.00011928	7.9574e-05	2.199e-05	671.34	8.79e-07	8.2782e-07	1242.7	215.05	8.6866e-07	8.8117e-07	467.51	158.01	58.874	18.384	8.8093e-07	64.472	228.953	-13.098	7.619	-82.641	53.099	82.470	-81.932	-78.838	56.745	49.461	-78.583	-73.762	-75.057	-69.440	58.001	-68.583	-8191	255	
40624.129	1	1	0	0	0.28149	0.26548	0.11363	0.28232	0.34403	0.14218	0.18343	0.14461	0.025821	0.081424	0.21639	0.1593	0.23159	0.18427	0.26555	0.34559	-3.4813	-3.7125	-3.1437	-4.1542	-3.5042	-3.4729	-4.1354	-3.3563	-3.7417	-3.9146	-3.35	-3.9708	-3.4188	-3.5708	-3.9333	-3.2604	245.178	125.064	71.176	-13.674	126.538	-54.676	212.245	190.484	56.290	164.097	243.109	207.926	-69.204	-85.712	166.672	245.453	0.00017938	0.00032651	0.00012844	736.85	1.1784e-06	2.4579e-06	1342.6	233.11	2.9266e-06	4.5099e-06	508.46	170.38	63.404	19.866	2.8619e-06	69.786	0.00011981	7.8773e-05	2.3875e-05	676.37	8.6669e-07	8.6546e-07	1249.8	215.99	8.941e-07	8.4935e-07	468.98	159.11	59.418	18.516	8.6162e-07	65.072	228.910	-6.980	16.292	-82.923	50.615	23.824	-81.963	-79.167	36.541	47.494	-78.243	-73.917	-75.122	-69.686	33.583	-68.735	-8191	255	
40624.223	1	1	0	0	0.19767	0.062839	0.048676	0.086652	0.17454	0.097352	0.26647	0.28916	0.29012	0.14963	0.14339	0.20234	0.087192	0.2036	0.044098	0.063814	-3.3563	-3.7604	-2.9604	-4.0729	-3.5021	-3.3312	-4.2188	-3.3604	-3.5958	-3.7792	-3.2479	-4.0167	-3.5667	-3.3563	-3.9938	-3.3438	-4.744	150.005	-60.554	-83.798	-64.740	215.426	233.451	239.088	13.979	261.926	196.959	184.343	-91.626	243.018	-17.032	77.759	0.00021346	0.00050056	0.0001167	739.85	3.7897e-06	4.3136e-06	1352.8	235.55	2.1268e-06	2.5673e-06	510.08	169.72	64.138	20.116	3.5254e-06	69.748	0.00012099	7.8982e-05	2.2471e-05	679.02	8.7592e-07	8.5661e-07	1254.4	217.42	8.8921e-07	8.1595e-07	470.99	159.47	59.744	18.663	9.042e-07	65.021	219.285	12.173	4.481	-82.903	47.574	48.244	-81.764	-79.235	68.979	65.311	-78.257	-73.758	-74.505	-70.180	37.312	-68.626	-8191	255	
40624.320	1	1	0	0	0.076368	0.039724	0.15472	0.25151	0.30377	0.15196	0.1132	0.29746	0.28839	0.17814	0.17525	0.12811	0.15746	0.2125	0.11408	0.12678	-3.4021	-3.8646	-3.0396	-4.1208	-3.6771	-3.4083	-4.2063	-3.4271	-3.45	-3.9354	-3.2271	-3.8854	-3.7687	-3.3458	-4.1125	-3.5125	15.447	87.693	129.498	240.843	181.280	215.655	194.627	184.057	184.514	-93.947	202.779	166.112	79.180	153.881	233.638	194.203	0.00023468	0.00037898	0.00013574	739.83	4.1857e-06	4.2971e-06	1359.3	234.14	3.3587e-06	5.1669e-06	509.18	170.11	63.327	20.116	2.4409e-06	69.518	0.00011995	7.5353e-05	2.2997e-05	681.22	8.9316e-07	8.7862e-07	1257	217.09	9.6017e-07	8.2625e-07	471.28	159.29	59.538	18.593	8.2285e-07	64.974	225.004	3.142	-6.453	-83.003	79.503	23.667	-81.733	-79.310	52.740	47.771	-78.032	-73.737	-74.781	-69.790	55.692	-68.482	-8191	255	
40624.414	1	1	0	0	0.17954	0.057144	0.089278	0.097521	0.15669	0.067	0.20638	0.30239	0.24818	0.088268	0.10748	0.27819	0.16607	0.12254	0.10827	0.14874	-3.0417	-3.8875	-3.2104	-3.8542	-3.8042	-3.1333	-4.1021	-3.5146	-3.2771	-4.0292	-3.2854	-4.0229	-4.0625	-3.2417	-3.8688	-3.6917	-12.648	61.551	84.633	-84.995	-71.083	111.035	186.353	230.161	122.930	-31.250	-9.892	249.449	177.724	249.409	32.553	-25.010	0.00020748	0.00042049	0.00011988	740.47	2.5641e-06	5.2119e-06	1349.1	235.1	3.0558e-06	4.8053e-06	512.32	169.4	64.136	20.078	6.0968e-06	69.88	0.00011541	7.8533e-05	2.1485e-05	682.29	8.6539e-07	9.1312e-07	1254	217.88	9.043e-07	8.2849e-07	472.19	159.88	59.941	18.69	8.3324e-07	65.215	215.168	-5.031	8.573	-82.717	22.482	47.567	-81.846	-79.029	57.330	31.511	-78.666	-73.700	-75.320	-69.687	49.002	-68.652	-8191	255	
40624.512	1	1	0	0	0.1764	0.11364	0.036006	0.14794	0.25381	0.14565	0.25373	0.178	0.10558	0.18776	0.063229	0.18121	0.24865	0.16613	0.18084	0.13513	-2.7958	-4.0062	-3.2292	-3.7542	-3.9104	-3.1	-3.9792	-3.5875	-3.1792	-4.0417	-3.4875	-3.6229	-3.7979	-3.0958	-3.9396	-3.9396	207.834	232.233	136.626	236.674	95.190	60.612	218.856	-65.375	178.717	-32.771	126.954	193.568	59.471	-73.624	-2.834	157.379	0.00026526	0.00069526	0.00010068	737.71	3.0699e-06	4.5305e-06	1353.5	236.66	3.2435e-06	3.9506e-06	512.08	171.56	64.583	20.199	3.5732e-06	70.274	0.00011899	8.0876e-05	2.0938e-05	680.57	8.9924e-07	8.2029e-07	1255.4	217.9	9.503e-07	8.3157e-07	472.9	160.21	60.192	18.775	8.7161e-07	65.395	224.099	-10.502	-26.617	-82.882	80.493	69.314	-81.932	-78.982	32.083	60.385	-78.206	-73.579	-74.694	-70.112	54.465	-68.863	-8191	255	
40624.633	1	1	0	0	0.096787	0.081723	0.079938	0.10737	0.24119	0.14211	0.15831	0.17311	0.17684	0.24065	0.091469	0.11428	0.24507	0.15604	0.11806	0.37209	-2.8063	-4.1167	-3.3563	-3.5917	-3.8563	-3.1708	-4.05	-3.8104	-3.0812	-4.0125	-3.6458	-3.5021	-3.8417	-3.3063	-3.7229	-3.8292	99.306	108.362	-16.197	220.992	80.673	249.720	161.054	217.347	-35.827	-5.245	-7.715	112.297	199.392	259.099	244.062	-78.988	0.00018089	0.00052045	0.00010124	745.39	2.8208e-06	3.6539e-06	1351.2	236.04	3.5468e-06	5.2068e-06	508.9	171.39	64.621	20.267	1.9907e-06	70.737	0.00012128	7.4395e-05	2.0884e-05	682.83	9.1187e-07	8.5165e-07	1254.8	218.68	9.2004e-07	8.5824e-07	472.41	160.57	60.326	18.835	8.542e-07	65.981	226.500	-10.985	-16.411	-82.731	31.568	52.959	-81.876	-78.707	71.663	58.197	-78.364	-73.843	-74.913	-69.562	27.774	-68.425	-8191	255	
40624.730	1	1	0	0	0.21546	0.13724	0.10523	0.12088	0.13001	0.095442	0.19408	0.12999	0.28543	0.14196	0.31584	0.093762	0.20034	0.050143	0.10865	0.25677	-2.6875	-4.1771	-3.4792	-3.5979	-3.8729	-3.0417	-3.8292	-3.8833	-3.1542	-3.9542	-3.7562	-3.4021	-4.1438	-3.3375	-3.5875	-3.9875	234.167	230.565	239.999	239.138	20.703	-49.206	237.069	38.315	16.067	129.540	251.165	151.622	-96.679	231.025	-24.014	-76.852	0.00021975	0.0005231	0.00012505	737.19	1.969e-06	5.293e-06	1356.1	236.35	2.5418e-06	3.0946e-06	517.16	172.57	65.085	20.456	4.8616e-06	71.298	0.0001228	7.6326e-05	2.2496e-05	681.84	8.4628e-07	8.4784e-07	1259.2	219.51	9.1368e-07	7.8903e-07	477.08	162.12	61.068	19.024	8.6674e-07	66.576	225.509	8.559	-13.486	-82.812	68.608	51.599	-82.048	-78.879	47.356	29.351	-78.324	-73.841	-75.027	-69.748	32.162	-68.307	-8191	255	
40624.824	1	1	0	0	0.1696	0.07178	0.18986	0.18245	0.19547	0.25897	0.18978	0.10102	0.16307	0.047921	0.21544	0.35808	0.31454	0.18316	0.12577	0.2255	-2.9125	-3.7833	-3.7333	-3.4146	-3.8896	-3.2917	-3.7083	-4.0771	-3.0521	-3.8542	-3.8542	-3.2979	-4.0479	-3.5375	-3.4271	-4.1042	97.828	153.791	54.646	251.918	259.071	208.843	187.305	173.821	95.451	164.808	209.876	215.147	199.750	244.542	68.818	212.787	0.00022759	0.0005119	0.00011878	739.4	2.2285e-06	4.0619e-06	1350.4	237.9	2.3207e-06	3.9671e-06	516.35	172.73	65.134	20.266	3.5952e-06	71.579	0.00012243	7.3804e-05	2.0918e-05	682.16	8.4993e-07	8.2906e-07	1255.9	220.23	8.9924e-07	7.8737e-07	474.51	162.09	60.745	19.063	8.6179e-07	66.387	221.605	0.656	-0.666	-83.069	69.430	59.413	-82.039	-79.169	86.219	22.622	-78.295	-73.641	-74.971	-69.572	39.015	-68.399	-8191	255	
40624.922	1	1	0	0	0.027608	0.1099	0.022968	0.099036	0.14925	0.16422	0.2305	0.36789	0.17335	0.21078	0.38846	0.20759	0.037983	0.1205	0.10308	0.2131	-2.7417	-3.5667	-4	-3.3792	-4.2333	-3.5667	-3.7	-4.2667	-3.3167	-3.5917	-3.8833	-3.3167	-3.9875	-3.5146	-3.2917	-4.2208	250.138	69.468	-9.986	-78.918	40.281	23.503	114.692	200.999	168.229	189.073	199.346	234.176	200.032	201.988	59.425	261.731	0.00018594	0.00032524	0.00012777	737.81	2.2735e-06	3.9875e-06	1354.3	236.89	1.9836e-06	3.0119e-06	513.79	172.01	65.251	20.477	3.9146e-06	71.402	0.0001203	7.5338e-05	2.1474e-05	680.36	8.5657e-07	8.0026e-07	1255.2	219.94	9.4769e-07	8.3007e-07	474.89	161.63	61.003	19.02	8.3473e-07	66.515	231.913	-21.184	-5.120	-83.034	32.893	50.474	-81.964	-78.690	44.266	25.946	-78.360	-73.620	-74.397	-69.299	46.191	-68.568	-8191	255	
40624.992	1	1	0	0	0.26491	0.21972	0.216	0.12466	0.16736	0.22759	0.33033	0.13389	0.065426	0.2701	0.23516	0.031465	0.1564	0.20739	0.14392	0.062516	-3.0521	-3.6375	-3.8854	-3.3521	-3.8812	-3.6396	-3.5479	-4.0729	-3.3042	-3.4813	-4.1958	-3.5542	-4.1125	-3.6521	-3.2125	-4.1792	33.734	-91.684	77.494	162.750	223.710	229.594	-91.405	29.449	140.821	136.521	147.115	74.513	-8.008	158.419	216.804	14.568	0.00022838	0.00040868	0.00011319	735.61	4.1478e-06	5.7145e-06	1353.2	239.35	2.2778e-06	5.1512e-06	517.5	173.74	64.888	20.519	4.9839e-06	71.201	0.00011361	7.8459e-05	2.1988e-05	680.63	8.4353e-07	8.3683e-07	1256.9	220.5	9.0797e-07	8.3107e-07	476.15	162.57	60.921	19.046	8.6657e-07	66.299	218.350	13.873	2.132	-82.819	60.709	48.204	-82.207	-78.775	65.681	43.142	-78.096	-73.798	-74.565	-69.897	38.608	-68.322	-8191	255	
40625.113	1	1	0	0	0.25059	0.24598	0.16999	0.21484	0.045106	0.25501	0.25386	0.26952	0.069972	0.27529	0.28192	0.15543	0.13483	0.17903	0.038665	0.08919	-3.1083	-3.3167	-3.7771	-3.1979	-3.8104	-3.7542	-3.4021	-4.3667	-3.4583	-3.4042	-4.1208	-3.2354	-4.0104	-3.7542	-3.1708	-4.1708	77.523	231.064	75.396	111.134	211.709	-23.110	218.793	168.348	132.672	56.666	133.824	243.257	161.318	22.193	132.472	63.990	0.0002046	0.00043391	8.1464e-05	740.61	5.2291e-06	3.5788e-06	1359.9	236.93	3.9207e-06	5.2962e-06	513.32	172.18	64.527	20.175	4.6934e-06	71.124	0.00011736	7.6453e-05	2.1896e-05	680.94	8.7997e-07	8.5231e-07	1256.3	219.63	9.0928e-07	8.3098e-07	474.57	161.77	60.766	18.918	9.0783e-07	66.183	228.234	11.106	-21.862	-82.863	45.720	55.321	-82.236	-78.909	73.616	34.391	-78.182	-73.854	-74.786	-69.572	56.653	-68.623	-8191	255	
40625.211	1	1	0	0	0.12989	0.092413	0.094024	0.29457	0.10532	0.17816	0.34851	0.19137	0.11758	0.049188	0.26877	0.052645	0.070415	0.070565	0.16288	0.02532	-3.2542	-3.3792	-3.9354	-3.3021	-3.7646	-3.9479	-3.4333	-4	-3.5979	-3.2479	-4.0708	-3.5021	-3.5521	-3.8208	-3.2938	-3.9396	-87.102	246.545	86.976	-78.192	234.228	-24.259	148.359	184.097	13.817	176.791	242.340	118.695	29.932	-61.511	193.912	-92.668	0.00022439	0.00039864	8.9096e-05	737.77	3.6535e-06	5.3105e-06	1351	236.34	1.7992e-06	5.2401e-06	513.62	172.29	64.83	20.412	2.9158e-06	70.534	0.00012396	8.0269e-05	2.1967e-05	679.53	8.7438e-07	8.72e-07	1253	218.61	9.1874e-07	8.3098e-07	473.13	161.28	60.489	18.896	8.7582e-07	65.731	228.691	-33.339	0.738	-82.529	43.405	52.348	-81.871	-78.953	48.052	61.990	-78.258	-73.622	-75.207	-69.698	47.561	-68.682	-8191	255	
40625.305	1	1	0	0	0.1787	0.1862	0.13746	0.34471	0.19439	0.047731	0.091814	0.13701	0.081802	0.11253	0.21071	0.19723	0.053481	0.25195	0.1062	0.30613	-3.3021	-3.2333	-3.9125	-3.6	-3.5042	-4.0771	-3.4437	-4.0792	-3.9208	-3.2646	-4.2604	-3.5167	-3.4708	-4.0437	-3.25	-4.0292	254.107	15.176	188.294	235.739	160.130	8.384	82.699	-64.043	60.850	209.272	231.186	204.455	-79.876	186.530	18.656	-92.863	0.00022017	0.00041123	7.2025e-05	736.92	2.1084e-06	5.8294e-06	1356.5	235.08	2.8985e-06	3.9243e-06	513.75	170.97	64.179	20.26	3.7274e-06	70.294	0.00012188	7.6049e-05	2.0369e-05	679.05	8.5454e-07	8.3485e-07	1251.2	218.26	8.8309e-07	8.2367e-07	472.86	160.54	60.288	18.776	8.6748e-07	65.618	230.161	-0.977	-30.775	-82.561	52.108	27.741	-81.856	-78.991	61.056	66.269	-77.987	-73.523	-74.698	-69.614	49.565	-68.574	-8191	255	
40625.402	1	1	0	0	0.054094	0.028594	0.025514	0.1309	0.28764	0.22277	0.090062	0.14493	0.27638	0.02028	0.11034	0.13423	0.20716	0.18154	0.068039	0.20641	-3.4104	-3.3	-3.8854	-3.6854	-3.4688	-4.0563	-3.3021	-3.7646	-3.7479	-3.2708	-4.1771	-3.6396	-3.4521	-4.0271	-2.9771	-3.8187	123.258	67.009	-64.681	-73.901	25.652	245.146	-20.677	155.894	38.398	132.312	177.962	172.349	114.558	-41.463	66.018	216.654	0.000207	0.00066171	0.00012158	735.96	5.0193e-06	2.9738e-06	1353.9	236	3.6344e-06	5.0366e-06	510.81	172.24	64.964	20.384	2.4262e-06	70.984	0.00011561	8.1639e-05	2.1243e-05	678.43	9.0037e-07	8.0109e-07	1253.2	218.6	8.6042e-07	8.1387e-07	472.49	161.29	60.556	18.907	8.5379e-07	66.205	224.776	-14.952	13.719	-82.729	39.168	89.015	-81.847	-79.067	40.630	49.731	-78.400	-73.560	-75.176	-69.419	44.633	-68.319	-8191	255	
40625.520	1	1	0	0	0.1417	0.1474	0.077651	0.30145	0.12652	0.065883	0.29502	0.34518	0.18145	0.27441	0.20854	0.29935	0.099516	0.26235	0.26576	0.12357	-3.5646	-3.1479	-3.8521	-3.6333	-3.3521	-4.0125	-3.3917	-3.6958	-4.1312	-3.2146	-4.0521	-3.6896	-3.4521	-3.9813	-3.4354	-3.6625	-73.475	74.162	48.695	241.597	104.049	190.482	182.946	130.253	184.929	92.578	143.583	202.725	-1.708	210.968	194.624	200.533	0.00023067	0.00050375	0.00012364	735.61	4.0765e-06	4.0095e-06	1357	235.57	3.5847e-06	4.6459e-06	515.61	172.95	65.255	20.676	3.1844e-06	70.869	0.00011766	7.8459e-05	2.0386e-05	679.17	9.2401e-07	7.8463e-07	1255.2	218.48	8.8791e-07	8.4428e-07	475.71	162.36	60.783	19.052	8.424e-07	66.29	225.446	1.621	-20.925	-82.256	56.796	34.795	-81.646	-79.121	62.000	52.835	-78.009	-73.559	-74.818	-69.399	29.720	-68.826	-8191	255	
40625.617	1	1	0	0	0.20969	0.18699	0.22246	0.084969	0.19482	0.1865	0.29079	0.18799	0.23224	0.070739	0.12735	0.13684	0.16621	0.1696	0.15252	0.20691	-3.5896	-3.1167	-3.8625	-3.9062	-3.1063	-4.0292	-3.5333	-3.45	-3.8521	-3.2104	-3.7479	-3.7729	-3.3021	-3.9313	-3.325	-3.5042	235.525	157.186	26.380	-95.927	215.491	46.919	246.808	50.102	120.492	95.101	248.646	-45.051	164.348	134.072	182.070	-87.714	0.00020367	0.00055334	9.7369e-05	738.39	3.6289e-06	3.9571e-06	1352.2	237.17	2.2166e-06	5.3013e-06	514.78	172.55	65.423	20.465	3.8755e-06	70.414	0.00011838	8.2462e-05	2.2015e-05	677.77	8.7009e-07	7.5848e-07	1254.5	219.39	8.2967e-07	8.6222e-07	474.1	161.17	60.774	18.9	8.169e-07	65.871	222.124	-4.390	-6.289	-82.961	60.035	55.628	-82.040	-79.354	69.310	73.578	-78.443	-73.442	-74.889	-69.507	58.579	-68.503	-8191	255	
40625.715	1	1	0	0	0.17468	0.14538	0.057551	0.14182	0.14369	0.10321	0.017492	0.21743	0.092255	0.10887	0.074045	0.29492	0.052941	0.043033	0.11731	0.084133	-3.6562	-3.0708	-3.5354	-3.8812	-3.2125	-4.0146	-3.8688	-3.3125	-4.0375	-3.3479	-3.75	-4.1	-3.2812	-3.9542	-3.5625	-3.3854	200.712	142.625	239.112	-85.225	101.316	22.667	101.127	227.380	220.956	166.521	251.238	242.085	16.744	-48.391	125.510	-67.327	0.00018527	0.00039352	0.00015376	738.24	4.2498e-06	3.2006e-06	1353.1	236.98	2.6415e-06	3.9082e-06	513.54	172.1	64.544	20.366	5.1216e-06	70.235	0.00011964	7.2547e-05	2.0594e-05	677.07	9.0879e-07	7.7643e-07	1253.6	218.79	8.4117e-07	7.8878e-07	473.47	161.7	60.288	18.858	8.3728e-07	65.555	224.918	-30.433	14.583	-82.799	52.589	20.867	-81.988	-79.569	38.344	25.759	-78.298	-73.616	-75.042	-69.515	66.502	-68.373	-8191	255	
40625.809	1	1	0	0	0.12445	0.19848	0.21383	0.094546	0.13628	0.14402	0.031075	0.0068743	0.16919	0.081185	0.040275	0.17482	0.16067	0.27933	0.21982	0.24061	-3.6542	-3.2167	-3.3937	-4.1146	-3.1813	-3.9437	-3.95	-3.2625	-4.0042	-3.3125	-3.5563	-4.1542	-3.3646	-3.9625	-3.7208	-3.4021	197.541	-11.033	132.707	-48.062	-72.325	65.305	17.012	254.515	135.217	67.664	-38.653	179.495	38.814	-26.687	-80.409	185.723	0.00022077	0.00028598	0.00014689	730.33	3.1095e-06	5.6212e-06	1339.9	235.68	2.3746e-06	5.0124e-06	510.57	171.71	63.732	20.187	4.3525e-06	70.015	0.00011423	7.1971e-05	2.1139e-05	674.53	8.4458e-07	8.1168e-07	1248.9	217.61	8.4076e-07	8.3597e-07	472.68	160.74	59.946	18.678	8.4372e-07	65.252	224.608	5.393	7.923	-82.219	66.859	47.331	-81.749	-79.010	56.081	51.833	-78.316	-73.759	-74.852	-69.735	58.800	-68.840	-8191	255	
40625.906	1	1	0	0	0.10614	0.12704	0.23353	0.094955	0.073876	0.10866	0.2338	0.29678	0.07154	0.079557	0.13519	0.20546	0.17147	0.21462	0.033511	0.19855	-3.7438	-3.4875	-3.2875	-3.7875	-3.2625	-3.9479	-4.1458	-3.275	-3.9833	-3.4625	-3.3688	-4.1125	-3.3271	-3.5208	-3.95	-3.3063	-71.406	145.852	146.673	253.073	-1.269	117.710	202.906	-53.617	-18.776	186.926	182.327	233.137	97.049	-52.405	-2.438	-59.503	0.00021956	0.00038487	0.00013926	731.44	1.3167e-06	3.5201e-06	1339.5	234.19	2.3289e-06	6.0168e-06	510.79	170.08	63.683	20.018	2.7458e-06	69.93	0.00011729	7.3662e-05	2.2467e-05	672.73	8.4726e-07	7.7023e-07	1245.4	216.84	8.822e-07	8.4727e-07	471.31	159.9	59.823	18.574	8.6748e-07	65.14	224.463	-12.724	0.824	-82.663	23.445	43.995	-81.778	-79.161	70.494	46.023	-78.068	-73.539	-74.890	-69.869	41.445	-68.743	-8191	255	
40626.004	1	1	0	0	0.27651	0.18729	0.085249	0.14205	0.20006	0.060387	0.16561	0.040603	0.26444	0.069871	0.18275	0.2217	0.12333	0.03948	0.17657	0.20213	-3.5625	-3.5708	-3.2188	-4.1708	-3.2625	-3.4	-4.1188	-3.1979	-3.775	-3.5583	-3.3021	-4.05	-3.3354	-3.5146	-3.9104	-3.2583	52.114	15.023	249.887	148.086	44.859	-2.683	174.277	252.085	150.693	51.238	138.183	213.078	-17.552	148.279	47.837	34.553	0.00021305	0.00035531	8.21e-05	727.25	4.0321e-06	5.0136e-06	1342.2	233.39	2.0096e-06	2.2223e-06	506.38	169.77	64.045	19.888	5.6468e-06	69.067	0.00011696	7.7134e-05	2.1514e-05	669.64	8.1568e-07	7.9439e-07	1243.6	216.21	8.8097e-07	7.6793e-07	468.01	158.75	59.722	18.433	8.5709e-07	64.535	232.358	-22.724	-12.015	-82.569	65.726	39.094	-81.997	-79.146	71.220	36.932	-78.125	-73.641	-74.794	-69.896	74.463	-68.336	-8191	255	
40626.121	1	1	0	0	0.071785	0.081823	0.16758	0.090828	0.071572	0.0273	0.14974	0.18965	0.096505	0.016673	0.15933	0.31789	0.19092	0.090227	0.033203	0.2362	-3.4896	-3.6854	-3.1729	-4.0729	-3.4562	-3.4875	-4.1458	-3.35	-3.5667	-3.8	-3.2604	-4.0208	-3.4667	-3.2917	-4.0188	-3.2958	-10.223	255.139	100.385	-6.767	191.576	237.708	246.696	-34.912	17.703	92.412	-81.420	245.961	211.287	-51.299	253.105	246.654	0.00022781	0.00031175	0.00011897	725.66	1.1631e-06	3.3412e-06	1336.6	234.64	3.3102e-06	4.4826e-06	504	169.3	63.606	19.727	3.5759e-06	68.816	0.00011951	7.1073e-05	2.1374e-05	669.15	8.1438e-07	8.2955e-07	1241.5	216.63	8.6817e-07	8.4079e-07	467.4	158.97	59.581	18.481	7.9537e-07	64.348	226.255	-16.271	0.933	-82.617	81.613	84.481	-81.668	-79.129	33.571	81.321	-78.173	-73.784	-75.022	-69.819	67.706	-68.525	-8191	255	
40626.219	1	1	0	0	0.26726	0.068533	0.253	0.09985	0.10725	0.2023	0.25029	0.22092	0.14014	0.091713	0.16076	0.2258	0.23384	0.19516	0.25446	0.17817	-3.2188	-3.7146	-3.0812	-3.9896	-3.5187	-3.3542	-4.3729	-3.325	-3.6417	-4.0125	-3.1208	-4.1396	-3.875	-3.1833	-3.8812	-3.3479	108.056	18.791	117.927	136.249	105.888	49.609	248.142	211.936	31.256	-56.333	221.833	-29.347	188.932	-46.824	262.014	214.414	0.00021783	0.00054328	0.00010426	723.71	2.6352e-06	3.3495e-06	1343.5	231.36	2.5903e-06	4.588e-06	504.6	170.06	64.429	20.205	3.1321e-06	69.796	0.00011694	7.6319e-05	2.0428e-05	667.93	8.4296e-07	7.852e-07	1243.5	215.92	8.8774e-07	8.27e-07	468.34	159.24	59.867	18.603	8.0651e-07	64.857	226.783	-13.632	8.034	-82.734	42.537	45.134	-81.953	-78.895	67.735	35.069	-78.696	-73.990	-74.838	-70.087	63.902	-68.493	-8191	255	
40626.289	1	1	0	0	0.32181	0.23874	0.11045	0.25146	0.17682	0.18781	0.34841	0.25306	0.18292	0.076971	0.29744	0.15496	0.11034	0.27226	0.078239	0.33164	-3.1312	-3.9437	-3.1167	-3.9833	-3.6375	-3.3792	-4.0833	-3.5292	-3.3771	-3.9062	-3.2479	-3.7979	-3.8	-3.3417	-3.9938	-3.5604	-62.979	235.981	-29.627	241.309	61.193	91.377	188.614	182.190	29.559	178.725	190.251	183.249	-36.256	240.537	76.842	-92.124	0.00022243	0.00051552	0.00011229	722.26	3.7904e-06	5.0677e-06	1336.7	233.77	3.3332e-06	4.6688e-06	510.48	170.58	63.906	19.981	2.7725e-06	69.609	0.00011183	7.4979e-05	2.1539e-05	667.73	8.8466e-07	8.5512e-07	1240.9	216.77	8.8285e-07	8.1046e-07	468.79	159.79	59.863	18.572	7.811e-07	64.846	223.475	2.055	-20.148	-82.742	66.096	38.042	-81.957	-79.294	70.116	50.448	-78.204	-73.613	-75.148	-69.841	52.245	-68.221	-8191	255	
40626.410	1	1	0	0	0.28089	0.10546	0.18902	0.21386	0.090819	0.24693	0.16285	0.0835	0.060011	0.15486	0.062251	0.30717	0.14752	0.044156	0.0653	0.28868	-2.8	-3.9417	-3.2062	-3.7479	-3.8375	-3.3646	-4.1125	-3.675	-3.2458	-4.0896	-3.1813	-3.5333	-3.8833	-3.1625	-3.9854	-3.5958	-94.411	-58.054	171.163	207.606	200.056	207.462	198.463	-39.180	-83.426	107.844	13.397	-83.179	107.293	132.208	-43.179	187.871	0.00019194	0.00056587	8.6802e-05	725.23	1.91e-06	3.6136e-06	1342.1	232.47	3.8388e-06	4.917e-06	507.17	169.71	63.547	19.88	4.8624e-06	68.593	0.00011866	7.468e-05	2.146e-05	667.52	8.513e-07	8.1871e-07	1242.3	216.01	8.8521e-07	7.8695e-07	468.94	158.9	59.556	18.487	7.8728e-07	64.029	228.309	-12.325	-6.938	-82.654	39.072	50.921	-81.632	-78.836	52.612	38.448	-78.106	-73.595	-74.924	-69.857	38.726	-68.767	-8191	255	
40626.508	1	1	0	0	0.063917	0.1056	0.016431	0.10218	0.18551	0.19276	0.10584	0.10566	0.050272	0.16904	0.1039	0.0074675	0.16768	0.10766	0.11924	0.16013	-2.8563	-3.9771	-3.25	-3.5563	-3.8417	-3.0208	-3.9688	-3.6104	-3.2792	-4.0125	-3.4292	-3.5833	-3.9354	-2.9542	-3.8479	-3.7687	178.575	131.782	231.265	14.698	54.344	91.581	-96.651	208.007	148.474	259.253	252.972	220.775	108.891	-33.192	116.790	143.646	0.00020522	0.00024943	0.00013772	723.2	2.5716e-06	5.2185e-06	1339.7	232.66	1.8773e-06	4.4453e-06	503.7	167.41	62.832	19.61	2.5169e-06	68.473	0.00011363	7.0235e-05	2.1452e-05	666.98	8.1535e-07	7.9538e-07	1239.7	215.54	8.9598e-07	7.9335e-07	465.95	157.22	58.888	18.288	8.2202e-07	63.576	225.823	2.947	-25.076	-82.781	54.301	53.745	-82.015	-79.113	8.158	68.558	-77.947	-73.899	-74.601	-70.302	78.598	-68.515	-8191	255	
40626.602	1	1	0	0	0.29986	0.096838	0.21378	0.26029	0.21069	0.10814	0.14095	0.1585	0.15161	0.37661	0.17614	0.1344	0.1725	0.12391	0.22759	0.15725	-2.7896	-4.0188	-3.2604	-3.5042	-3.9521	-3.2375	-3.8875	-3.7229	-3.0521	-3.8563	-3.5771	-3.4729	-3.8625	-3.3063	-3.8625	-3.8438	112.467	25.535	-60.233	-36.793	-68.948	239.747	244.403	52.708	47.180	131.188	164.671	229.323	25.893	123.559	-62.014	156.214	0.00019049	0.00042819	0.00010801	720.19	4.1031e-06	4.8657e-06	1334.6	232.54	2.9699e-06	4.6497e-06	502.8	168.91	63.882	19.944	3.3663e-06	68.849	0.00011185	6.8409e-05	2.0315e-05	666.58	8.1203e-07	7.9563e-07	1238.2	215.08	8.9998e-07	7.8645e-07	466.46	157.82	59.512	18.399	8.5172e-07	64.144	222.359	14.322	6.252	-82.770	16.281	62.607	-81.871	-78.871	46.017	47.438	-78.373	-73.525	-74.708	-69.385	60.095	-68.213	-8191	255	
40626.699	1	1	0	0	0.18396	0.26252	0.18937	0.16504	0.23292	0.10948	0.31152	0.41026	0.13262	0.20183	0.1521	0.23284	0.18965	0.20874	0.16757	0.29625	-2.7792	-3.9125	-3.4208	-3.425	-3.8563	-3.1562	-3.7062	-4.0375	-3.1896	-3.9521	-3.7208	-3.4875	-4.0563	-3.3708	-3.2729	-3.9875	-89.816	0.348	-26.863	-89.919	142.837	-47.494	228.787	190.250	70.268	48.396	178.196	175.222	-6.324	3.555	-62.908	131.162	0.00021168	0.00046783	8.4123e-05	723.25	4.7169e-06	5.3762e-06	1343.4	231.82	3.4086e-06	5.9257e-06	509.03	169.36	63.606	19.841	5.3386e-06	69.523	0.00011468	7.2091e-05	2.0991e-05	666.17	8.326e-07	8.2939e-07	1239.8	215.32	9.2127e-07	7.9443e-07	467.96	158.56	59.495	18.454	8.094e-07	64.612	223.762	-0.333	-17.202	-82.793	61.399	40.031	-82.128	-78.939	43.541	47.068	-78.186	-73.656	-74.817	-69.478	79.743	-68.628	-8191	255	
40626.816	1	1	0	0	0.23155	0.13708	0.23189	0.29657	0.30197	0.093711	0.27167	0.29455	0.20299	0.13898	0.27274	0.13623	0.17262	0.145	0.20989	0.27759	-2.7479	-3.8063	-3.5792	-3.3354	-3.8833	-3.5229	-3.5521	-4	-3.0708	-3.825	-3.8708	-3.0208	-4.0604	-3.4688	-3.3625	-4.0625	193.153	155.369	109.342	217.419	-0.227	55.096	225.623	-25.032	104.955	227.454	-43.057	137.499	215.621	164.421	159.409	196.107	0.00017937	0.00036488	0.0001663	723.31	3.3224e-06	2.1624e-06	1342.1	232.1	1.3375e-06	4.9859e-06	508.3	168.84	63.993	20.022	4.2109e-06	69.248	0.00011396	7.5705e-05	2.1481e-05	667.12	8.2556e-07	8.0887e-07	1240.2	215.69	8.8888e-07	8.4511e-07	469.71	158.45	59.654	18.568	8.6682e-07	64.363	227.125	24.267	-3.325	-82.543	53.571	48.384	-81.903	-78.802	78.094	57.599	-78.008	-73.947	-74.856	-69.534	79.330	-68.459	-8191	255	
40626.914	1	1	0	0	0.1959	0.11129	0.11572	0.26263	0.1418	0.11802	0.24727	0.17025	0.057577	0.13488	0.17389	0.11364	0.10436	0.082038	0.11603	0.17268	-2.8187	-3.5958	-3.7167	-3.3354	-3.9333	-3.4208	-3.4958	-4.1417	-3.2792	-3.5604	-3.8479	-3.1813	-3.9958	-3.5417	-3.2375	-4.0813	84.914	81.664	-30.624	240.500	201.436	-12.057	167.802	82.588	164.958	237.744	215.938	-39.910	195.309	233.192	253.341	234.994	0.00022157	0.0006646	7.5426e-05	723.97	2.9435e-06	5.2129e-06	1334.1	234.33	2.8474e-06	3.924e-06	505.32	168.97	63.551	19.902	4.7237e-06	69.319	0.00011535	7.4463e-05	1.9869e-05	668.4	8.6013e-07	8.049e-07	1236	216.06	8.8807e-07	8.2018e-07	466.96	158.6	59.336	18.465	8.8695e-07	64.283	226.420	-2.311	9.501	-83.142	46.399	67.444	-82.175	-78.956	56.661	62.215	-78.344	-73.712	-74.744	-69.487	47.115	-68.210	-8191	255	
40626.984	1	1	0	0	0.20024	0.24153	0.0715	0.14982	0.16058	0.13972	0.077228	0.15502	0.087745	0.38194	0.16087	0.12733	0.050144	0.084075	0.25621	0.071023	-2.8958	-3.6229	-3.8229	-3.0938	-3.8229	-3.4646	-3.425	-4.0896	-3.2938	-3.575	-4.0271	-3.2646	-3.8667	-3.7812	-3.2521	-3.95	8.581	-34.902	124.439	259.350	219.014	-11.986	-73.855	213.960	-4.581	50.399	239.713	214.118	152.993	103.364	-37.953	218.102	0.00020138	0.00060689	8.6268e-05	723.94	3.6315e-06	5.4707e-06	1336.1	233.13	3.617e-06	3.0374e-06	509.9	169.94	63.586	20.015	3.0826e-06	69.743	0.0001172	7.7044e-05	2.0644e-05	666.92	8.326e-07	7.7139e-07	1238.4	215.98	8.8807e-07	7.7033e-07	469.87	158.88	59.659	18.543	8.3761e-07	64.729	228.171	10.716	18.670	-82.834	53.708	47.255	-82.017	-79.087	69.148	59.122	-78.174	-73.669	-74.614	-69.838	106.616	-68.783	-8191	255	
40627.082	1	1	0	0	0.17619	0.1207	0.13633	0.1082	0.19399	0.10188	0.21136	0.21034	0.18051	0.12177	0.023194	0.32664	0.050646	0.18414	0.24706	0.086169	-2.9708	-3.4854	-3.9375	-3.1333	-3.6688	-3.7333	-3.275	-3.9896	-3.4771	-3.5438	-4.0771	-3.2854	-3.7125	-3.9062	-3.0271	-4.1375	203.612	21.187	202.950	144.023	114.249	58.052	240.604	171.274	182.413	-39.960	142.810	259.922	97.451	80.610	-0.700	210.847	0.00020645	0.00064918	0.00011624	721.88	2.8976e-06	2.8987e-06	1339.4	232.94	2.6459e-06	4.6707e-06	506.87	168.4	63.729	19.765	3.0063e-06	69.524	0.00011922	7.6595e-05	2.107e-05	666.58	8.2653e-07	8.2087e-07	1238.9	216.01	8.9663e-07	8.7286e-07	467.98	158.77	59.534	18.463	9.1996e-07	64.554	226.345	-6.288	17.044	-83.110	41.220	46.354	-81.917	-79.186	35.540	52.540	-78.095	-73.282	-74.713	-69.403	36.758	-68.291	-8191	255	
40627.199	1	1	0	0	0.19706	0.21531	0.24938	0.28112	0.078412	0.25013	0.24993	0.17189	0.14216	0.067853	0.21222	0.16729	0.19367	0.20168	0.22392	0.24561	-3.0438	-3.4583	-3.9354	-3.3979	-3.5938	-3.9292	-3.3312	-3.9562	-3.5521	-3.2771	-4.0146	-3.2958	-3.7646	-3.8479	-3.1667	-3.9708	-68.596	-90.160	56.161	205.609	56.904	-5.743	201.222	171.203	130.826	59.728	241.443	221.970	223.071	14.815	143.036	146.377	0.00021589	0.00038538	0.00013676	722.56	5.6278e-06	5.5003e-06	1333.2	232.38	2.3848e-06	3.6182e-06	504.35	167.46	63.17	19.874	5.4982e-06	68.746	0.00011689	8.0269e-05	2.1084e-05	667.92	8.9543e-07	8.2277e-07	1237.2	215.34	8.4875e-07	8.2799e-07	467.63	157.91	59.003	18.365	8.952e-07	64.006	220.956	10.787	2.384	-82.926	64.029	43.581	-82.134	-78.805	55.884	46.126	-77.874	-73.580	-74.973	-69.681	55.411	-68.537	-8191	255	
40627.297	1	1	0	0	0.08167	0.14443	0.071405	0.21565	0.1416	0.090913	0.40208	0.11244	0.16253	0.17291	0.17907	0.18425	0.095738	0.13829	0.18414	0.18857	-3.2646	-3.25	-4.1083	-3.4375	-3.5646	-3.8583	-3.2292	-3.8792	-3.6417	-2.9896	-4.1958	-3.6083	-3.3167	-3.9854	-3.2896	-4.0167	176.112	55.264	240.655	225.592	182.152	68.203	-96.209	87.657	235.500	-12.240	255.546	194.052	82.132	-66.826	161.402	198.609	0.00019952	0.00038871	7.2608e-05	726.77	2.1355e-06	4.8055e-06	1343.8	233.18	2.5918e-06	5.1082e-06	506.97	168.68	64.171	19.955	4.0432e-06	69.112	0.00012185	7.8354e-05	2.0624e-05	671.14	8.6037e-07	8.2418e-07	1240.4	215.7	8.7877e-07	8.2916e-07	467.69	158.46	59.393	18.465	8.9586e-07	64.295	222.240	-22.163	-5.057	-82.771	66.162	58.445	-81.986	-79.068	75.477	84.644	-78.447	-73.433	-74.722	-69.413	57.713	-68.514	-8191	255	
40627.395	1	1	0	0	0.12132	0.14683	0.13223	0.13913	0.072688	0.23075	0.2661	0.34504	0.13949	0.21997	0.052203	0.064879	0.22651	0.34424	0.196	0.31683	-3.4333	-3.1646	-3.8812	-3.7167	-3.3688	-3.8708	-3.2958	-3.8021	-3.8083	-2.9125	-3.9125	-3.8542	-3.2875	-3.925	-3.1146	-3.5667	254.401	-81.250	-17.296	248.356	133.015	-71.642	181.244	223.625	222.137	95.200	8.146	143.147	145.397	-74.971	-49.231	256.525	0.00018407	0.00059573	0.00016249	727.66	4.1091e-06	4.1069e-06	1342.5	233.77	2.5912e-06	6.8479e-06	511.09	168.95	63.949	20.207	5.8392e-06	69.241	0.00011521	8.1751e-05	2.0309e-05	669.83	8.8782e-07	8.0647e-07	1242	216.18	8.8179e-07	8.5026e-07	469.44	159.02	59.644	18.692	8.7136e-07	64.5	229.133	-10.783	3.464	-82.642	67.600	61.133	-81.961	-79.019	62.187	42.728	-78.332	-73.431	-74.651	-69.712	33.935	-68.667	-8191	255	
40627.516	1	1	0	0	0.14204	0.40442	0.28182	0.028145	0.053565	0.15569	0.12954	0.2134	0.20174	0.1491	0.31519	0.068981	0.15313	0.083882	0.22006	0.14057	-3.5583	-3.1542	-3.9354	-3.7146	-3.1917	-4.0646	-3.5979	-3.6146	-3.925	-3.1896	-3.9521	-3.7521	-3.0979	-4.0646	-3.3667	-3.6875	78.548	13.745	-12.287	41.811	121.146	169.718	-64.592	-78.828	102.899	139.591	249.885	-15.354	-16.875	218.427	-25.056	212.569	0.00022197	0.00064333	0.00012619	731.4	2.8183e-06	5.0248e-06	1337.7	234.43	3.112e-06	5.9573e-06	507.08	170.69	63.675	20.048	2.3384e-06	69.856	0.0001142	8.2604e-05	2.1276e-05	670.31	8.9495e-07	8.5628e-07	1242.8	216.46	8.7959e-07	9.0086e-07	470.36	159.53	59.579	18.581	8.169e-07	64.929	221.290	9.074	7.742	-82.837	12.564	58.181	-81.928	-78.810	53.274	57.163	-78.253	-73.640	-74.894	-69.767	64.426	-68.788	-8191	255	
40627.586	1	1	0	0	0.19053	0.13055	0.21226	0.11634	0.052163	0.064881	0.19064	0.13199	0.22917	0.33257	0.094771	0.17855	0.11141	0.15005	0.21647	0.073634	-3.6396	-3.1125	-3.7375	-3.7833	-3.2354	-4.0042	-3.5833	-3.6104	-3.9917	-3.3937	-3.7333	-3.8375	-3.2833	-4.2125	-3.5521	-3.4708	37.306	-31.330	102.143	239.575	34.961	166.854	205.920	202.223	78.427	120.157	194.566	188.913	124.594	-90.912	-22.361	-49.222	0.0002139	0.00041539	0.00012241	731.74	2.1223e-06	4.2107e-06	1344.8	233.24	3.161e-06	4.4168e-06	509.56	170.69	64.237	20.234	5.1106e-06	71.172	0.00011879	8.0382e-05	2.044e-05	672.48	8.4094e-07	8.0357e-07	1242.9	216.06	9.0006e-07	8.0598e-07	470.92	160.5	60.255	18.853	8.5857e-07	65.949	221.939	-5.725	-3.141	-82.492	70.820	15.446	-81.754	-79.155	63.349	56.158	-78.407	-73.657	-74.619	-69.812	44.095	-68.653	-8191	255	
40627.684	1	1	0	0	0.083815	0.14577	0.17873	0.11231	0.14337	0.08533	0.22398	0.16423	0.055275	0.042403	0.10687	0.15613	0.092971	0.072166	0.12635	0.29154	-3.6562	-3.1667	-3.6854	-3.9562	-3.1271	-3.7625	-3.6562	-3.3563	-3.9667	-3.2521	-3.4792	-4.1813	-3.2271	-3.8167	-3.6271	-3.2396	150.669	259.222	211.125	258.498	32.904	-92.651	251.589	151.447	256.808	-49.159	139.489	225.903	58.896	3.302	-90.532	238.812	0.00021431	0.00054352	8.4521e-05	731.41	6.0376e-06	1.0744e-06	1341.4	234.99	2.5711e-06	4.3567e-06	514.27	174.75	65.496	20.824	5.1449e-06	71.924	0.00011552	8.0472e-05	1.9869e-05	672.82	8.8976e-07	8.3261e-07	1242	219.4	8.5096e-07	8.6737e-07	475.1	163.63	61.264	19.291	8.8299e-07	66.873	229.096	-10.078	-6.670	-83.172	54.092	42.524	-81.937	-79.080	59.836	46.950	-78.345	-73.493	-74.962	-70.064	61.474	-68.778	-8191	255	
40627.805	1	1	0	0	0.18146	0.2054	0.15851	0.23941	0.17017	0.036292	0.28897	0.057883	0.083654	0.021057	0.2648	0.15968	0.19894	0.17094	0.27282	0.08865	-3.6688	-3.2438	-3.4854	-4.0854	-3.1604	-3.7708	-3.9062	-3.2938	-3.9167	-3.2833	-3.5792	-4.1708	-3.2958	-3.6708	-3.725	-3.3646	-59.250	35.677	54.711	200.416	94.312	150.687	254.756	204.422	-41.827	80.008	227.819	219.471	99.836	173.764	-89.888	-89.136	0.00019327	0.00043127	8.2824e-05	725.72	3.413e-06	3.7782e-06	1337.1	233.14	2.7136e-06	3.2815e-06	510.5	174.06	65.627	20.647	3.9489e-06	72.022	0.00012201	8.1654e-05	2.2565e-05	668.25	9.5462e-07	8.3187e-07	1238.1	216.68	9.5658e-07	8.8623e-07	471.2	162.72	61.043	19.215	9.0057e-07	67.067	216.788	8.481	-6.785	-82.916	72.840	49.550	-81.620	-79.125	42.421	52.038	-78.098	-73.390	-74.959	-69.833	74.713	-68.685	-8191	255	
40627.898	1	1	0	0	0.20534	0.072554	0.18951	0.31824	0.20101	0.13018	0.12683	0.12699	0.18568	0.042201	0.25151	0.15983	0.10358	0.13069	0.11071	0.17015	-3.6125	-3.5333	-3.2854	-4.0542	-3.0479	-3.6958	-4.0896	-3.2479	-4.0917	-3.3312	-3.5438	-3.9938	-3.1979	-3.5833	-3.9333	-3.275	210.964	-91.086	163.869	230.654	52.678	71.927	206.321	244.127	220.516	58.841	214.037	151.775	101.131	135.809	146.862	198.680	0.00018454	0.00027259	0.00017945	731.53	5.4449e-06	5.1844e-06	1333.8	234.9	3.6261e-06	2.7204e-06	512.39	173.47	65.06	20.656	3.4207e-06	71.778	0.00011822	7.6872e-05	2.2976e-05	670.37	9.6944e-07	8.6033e-07	1238.6	217.6	9.1792e-07	8.3838e-07	472.77	163.08	60.837	19.182	8.641e-07	66.603	226.439	-37.906	-6.642	-82.788	60.347	51.127	-82.057	-79.250	81.382	29.564	-78.165	-73.256	-74.851	-70.201	60.872	-68.670	-8191	255	
40627.996	1	1	0	0	0.34306	0.027271	0.15053	0.026105	0.091302	0.1604	0.30465	0.2261	0.12133	0.091559	0.17119	0.064488	0.18937	0.055119	0.15113	0.26554	-3.6271	-3.6625	-3.2771	-4.0979	-3.2208	-3.4979	-4.0667	-3.3312	-3.8771	-3.7458	-3.4104	-4.1708	-3.5479	-3.6771	-3.9917	-3.3417	132.881	222.259	187.393	243.738	-4.279	-41.376	-80.530	180.354	259.354	166.758	252.792	0.240	106.040	161.868	19.182	195.818	0.00021082	0.00050282	0.0001365	724.67	5.0173e-06	5.1189e-06	1338.2	234.35	2.8011e-06	4.1035e-06	510.17	174.39	64.781	20.574	3.7856e-06	71.525	0.00011664	8.0457e-05	2.2507e-05	667.55	9.5332e-07	8.3857e-07	1238.7	217.23	9.3864e-07	8.697e-07	471.53	162.98	60.773	19.128	9.3745e-07	66.562	227.267	-6.935	13.074	-82.504	45.339	60.205	-81.859	-78.979	75.748	75.703	-78.200	-73.475	-75.292	-69.953	52.446	-68.593	-8191	255	
40628.117	1	1	0	0	0.095328	0.11852	0.26575	0.26318	0.18038	0.10729	0.1918	0.2446	0.24671	0.086592	0.22057	0.097121	0.13724	0.13591	0.14092	0.36725	-3.4521	-3.4562	-3.2562	-4.0021	-3.3896	-3.3229	-4.2042	-3.1708	-3.8521	-3.6958	-3.3729	-4.0875	-3.5812	-3.3292	-3.9854	-3.3333	94.134	-81.184	-34.807	251.767	70.055	171.863	240.209	257.533	61.374	68.442	253.344	231.946	223.767	-87.756	28.708	205.412	0.00019084	0.00041984	0.00016121	727.82	2.5247e-06	4.3443e-06	1333.2	234.74	2.7315e-06	3.7126e-06	513.13	173.41	65.259	20.567	2.6759e-06	70.85	0.00012132	8.333e-05	2.2359e-05	667.77	8.9179e-07	8.9649e-07	1237.8	217.77	8.8758e-07	8.0689e-07	472.2	162.11	60.869	19.09	8.3737e-07	66.089	225.070	4.466	-17.171	-83.058	38.376	46.093	-81.608	-79.334	55.690	62.648	-78.366	-73.692	-75.137	-70.270	95.538	-68.585	-8191	255	
40628.188	1	1	0	0	0.054733	0.075367	0.16436	0.017608	0.14838	0.261	0.059585	0.097491	0.22432	0.15796	0.36932	0.31204	0.026883	0.066239	0.1202	0.13521	-3.2583	-3.9521	-3.025	-3.9458	-3.4625	-3.1813	-4.1417	-3.3125	-3.6354	-3.8708	-3.2354	-4.0458	-3.7188	-3.25	-4.0104	-3.4542	198.927	115.142	236.867	171.569	144.665	156.262	-52.190	123.843	-35.537	-70.015	207.509	201.212	-41.561	243.160	80.615	217.227	0.00018374	0.00044823	0.00012563	725.12	2.0586e-06	3.4137e-06	1333.9	235.11	2.9116e-06	4.4877e-06	512.34	173.44	64.971	20.551	3.8078e-06	71.461	0.00012006	7.2816e-05	2.0259e-05	667.98	8.4596e-07	8.5553e-07	1238	217.41	8.6947e-07	8.4619e-07	471.99	162.29	60.806	19.078	8.6946e-07	66.452	221.523	-3.378	3.511	-82.666	62.814	45.166	-81.752	-78.897	56.449	69.348	-78.342	-73.836	-74.804	-69.655	60.592	-68.501	-8191	255	
40628.281	1	1	0	0	0.24143	0.10693	0.1887	0.10103	0.13106	0.096532	0.37845	0.12686	0.19561	0.19534	0.22592	0.15565	0.013704	0.18395	0.054386	0.21323	-3.2	-3.95	-3.075	-3.8875	-3.6208	-3.4042	-4.0417	-3.4146	-3.4958	-3.9813	-3.3667	-3.8625	-3.7854	-3.2125	-4.0521	-3.5583	48.647	-11.730	-48.222	144.712	134.570	159.373	198.243	-44.511	100.909	145.407	237.916	-84.811	-42.432	104.615	-18.896	253.542	0.00022436	0.00047442	9.1264e-05	725.69	2.6166e-06	5.0908e-06	1337.8	236.53	2.5338e-06	6.2094e-06	516.54	174.65	65.237	20.965	4.4489e-06	72.362	0.00012122	7.5922e-05	2.2294e-05	668.2	9.0069e-07	8.7887e-07	1243.1	218.3	9.3065e-07	8.8623e-07	474.9	163.92	61.366	19.346	8.7128e-07	67.334	216.312	-22.973	6.536	-82.759	86.682	48.978	-81.693	-79.022	70.411	59.603	-78.203	-73.811	-74.716	-69.545	55.873	-68.547	-8191	255	
40628.379	1	1	0	0	0.31152	0.19635	0.16629	0.14912	0.15439	0.27233	0.27808	0.14828	0.034159	0.16833	0.22677	0.026973	0.18482	0.17547	0.089406	0.086722	-3.0354	-4.025	-3.1063	-3.7042	-3.7979	-3.2292	-3.9729	-3.7292	-3.2354	-3.9604	-3.2938	-3.725	-3.8292	-3.1896	-3.9167	-3.6458	-21.841	142.779	153.906	86.919	93.390	-18.388	207.123	187.539	-15.166	198.874	207.028	44.566	-68.764	-1.678	190.203	81.238	0.00022779	0.00053319	9.8917e-05	722.61	1.0911e-06	6.1078e-06	1334.6	235.45	3.2137e-06	4.6742e-06	513.31	174.83	65.72	20.836	3.659e-06	71.995	0.00011934	7.9364e-05	2.1224e-05	667.06	8.3228e-07	8.7159e-07	1241	218.12	9.2983e-07	8.3971e-07	473.96	164.28	61.352	19.253	8.5618e-07	67.087	224.082	24.239	-1.964	-82.498	11.357	54.653	-81.754	-78.939	57.978	44.497	-78.127	-73.658	-74.598	-69.492	44.721	-68.477	-8191	255	
40628.496	1	1	0	0	0.093958	0.028467	0.12014	0.33457	0.088171	0.16726	0.18748	0.07077	0.20889	0.099247	0.12984	0.16166	0.10519	0.10553	0.077395	0.1116	-2.925	-3.8917	-3.2354	-3.675	-3.7667	-3.1125	-3.9854	-3.6229	-3.2896	-3.9979	-3.5979	-3.5375	-3.8396	-3.1771	-3.75	-3.7104	52.905	102.833	182.832	238.088	91.780	190.798	109.777	89.655	188.223	234.821	-95.141	183.751	262.141	-95.852	-74.405	35.761	0.00018732	0.00033506	0.00011372	724.76	3.5399e-06	7.0263e-06	1329.3	232.72	2.5778e-06	3.2776e-06	508.89	171.1	64.526	20.149	3.9753e-06	69.671	0.00012325	7.9731e-05	2.1491e-05	668.01	9.0871e-07	8.7961e-07	1235.8	216.72	9.0087e-07	8.0722e-07	470.98	161.1	60.549	18.769	9.0156e-07	65.218	220.823	-3.855	2.158	-82.385	63.703	69.063	-82.114	-78.996	116.722	66.189	-78.252	-73.515	-75.406	-69.884	59.768	-68.396	-8191	255	
40628.594	1	1	0	0	0.12996	0.26583	0.044544	0.29415	0.36429	0.14597	0.20871	0.3312	0.083437	0.13684	0.17244	0.18935	0.24977	0.22266	0.099071	0.15488	-2.7771	-4.0604	-3.2604	-3.5292	-3.825	-3.2479	-3.9333	-3.8063	-3.2333	-3.95	-3.6437	-3.5062	-4.1396	-3.0646	-3.7146	-3.9125	119.050	-59.096	-76.962	262.530	-30.646	-18.054	191.626	234.144	104.381	202.336	74.692	190.403	240.085	237.609	6.176	54.864	0.00018991	0.00051809	0.00013032	723.54	3.1551e-06	5.7051e-06	1332.4	234.2	2.0001e-06	3.2472e-06	508.88	168.75	63.453	19.545	3.7112e-06	67.952	0.00011853	7.6925e-05	2.1777e-05	666.08	8.7964e-07	8.8714e-07	1235.8	216.33	9.6017e-07	8.6912e-07	468.71	157.74	59.333	18.228	8.4917e-07	63.268	219.173	-13.104	-16.235	-83.112	45.913	51.055	-82.092	-78.620	66.750	11.962	-78.112	-73.571	-74.344	-69.702	21.875	-68.555	-8191	255	
40628.691	1	1	0	0	0.1393	0.13968	0.16856	0.064048	0.15067	0.26425	0.38894	0.057972	0.45545	0.14282	0.15084	0.32733	0.096649	0.039109	0.0972	0.034867	-2.9375	-3.975	-3.5979	-3.5062	-3.9333	-3.2896	-3.9021	-3.9	-3.0917	-3.9708	-3.8875	-3.3292	-4.0292	-3.3583	-3.475	-4.0625	108.509	119.130	-59.654	217.837	194.009	188.455	209.843	129.462	171.253	-61.958	261.012	224.374	213.824	15.055	69.201	225.788	0.00019217	0.00041821	0.000123	725.72	3.6443e-06	4.0145e-06	1340.5	233.37	3.461e-06	4.0501e-06	508.56	167.64	63.565	19.723	3.8733e-06	67.966	0.00011956	7.2921e-05	2.1272e-05	668.96	8.8734e-07	8.1143e-07	1240.8	216.85	9.6874e-07	8.4154e-07	468.96	158.06	59.602	18.321	8.2351e-07	63.275	225.556	1.725	22.586	-83.076	25.497	36.431	-81.991	-79.111	64.155	42.830	-78.199	-73.243	-75.012	-69.611	63.085	-68.534	-8191	255	
40628.785	1	1	0	0	0.32547	0.11152	0.027064	0.28973	0.13179	0.15318	0.23116	0.11527	0.087943	0.028633	0.050121	0.1474	0.16556	0.25301	0.2318	0.1382	-2.9	-3.8667	-3.5187	-3.3479	-4.0104	-3.5167	-3.7188	-4.0854	-3.175	-3.8708	-3.8875	-3.3187	-4.2021	-3.3708	-3.4875	-4.2021	-41.337	-47.747	215.258	242.805	144.475	203.556	193.023	9.182	210.723	-23.780	-81.074	35.588	182.775	247.759	236.956	218.239	0.00017215	0.00057448	0.00013235	723.93	3.2836e-06	2.4425e-06	1335.2	233.91	1.8173e-06	5.7633e-06	508.15	168.67	62.867	19.796	3.1755e-06	68.632	0.00011702	7.7703e-05	2.103e-05	665.14	9.092e-07	8.4858e-07	1237.4	216.08	8.9484e-07	8.1811e-07	468.38	158.27	59.595	18.333	8.8522e-07	63.539	221.341	-3.849	-9.982	-82.799	81.863	45.493	-82.168	-79.029	61.306	60.957	-78.244	-73.807	-74.812	-69.910	43.663	-68.365	-8191	255	
40628.883	1	1	0	0	0.070732	0.17285	0.14011	0.18681	0.16174	0.17378	0.1305	0.23147	0.16018	0.36162	0.14564	0.20588	0.021454	0.19603	0.04314	0.29042	-2.8438	-3.7667	-3.8458	-3.3063	-3.9396	-3.5125	-3.4625	-4.1146	-3.2687	-3.7271	-4.1	-3.1417	-3.8125	-3.4625	-3.1896	-3.9271	244.332	235.666	-61.060	177.597	258.704	252.695	241.555	-85.909	113.089	14.639	228.037	248.315	39.935	161.667	-85.729	181.212	0.00018384	0.00035639	9.2644e-05	726.72	3.1908e-06	4.4031e-06	1333.9	231.52	2.1433e-06	6.2624e-06	501.83	167.36	63.452	19.459	4.7905e-06	67.707	0.00011802	7.5413e-05	2.0148e-05	665.67	8.4782e-07	8.4436e-07	1234	215.54	8.6768e-07	8.5948e-07	465.26	156.93	59.276	18.062	8.745e-07	62.692	219.235	-30.185	6.926	-82.862	86.696	58.237	-81.733	-78.954	27.389	74.043	-78.133	-73.643	-74.591	-69.659	57.435	-68.567	-8191	255	
40628.980	1	1	0	0	0.03382	0.15249	0.20494	0.03582	0.19677	0.15405	0.21564	0.14133	0.071843	0.15605	0.10638	0.05322	0.17144	0.14805	0.028473	0.31907	-2.7375	-3.4917	-3.8104	-3.1417	-3.8708	-3.6146	-3.2687	-4.1583	-3.1354	-3.4437	-3.9042	-3.2812	-3.8896	-3.8458	-3.1625	-3.9625	21.163	-58.239	174.333	-75.178	-27.561	-79.304	191.142	166.574	57.746	42.501	-28.475	-35.825	-57.199	-92.853	4.590	224.652	0.00019794	0.00057706	0.00014904	715.44	2.6669e-06	5.4039e-06	1331.1	229.97	1.9798e-06	2.7102e-06	507.97	166.93	63.664	19.671	3.1929e-06	68.43	0.00011765	7.6872e-05	2.1529e-05	660.82	8.5114e-07	8.1805e-07	1234	214.83	8.9892e-07	8.0972e-07	467.34	157.5	59.573	18.307	8.7466e-07	63.594	221.159	-5.069	3.067	-82.972	48.181	35.968	-81.968	-79.271	57.394	72.138	-78.280	-73.690	-75.188	-69.456	105.774	-68.797	-8191	255	
40629.074	1	1	0	0	0.29112	0.13227	0.12872	0.21929	0.2	0.15715	0.17584	0.051678	0.097547	0.1268	0.16457	0.29016	0.39231	0.088979	0.12483	0.22127	-3.0563	-3.4917	-4.0437	-3.125	-3.7	-3.725	-3.3333	-3.9833	-3.5062	-3.375	-4.1687	-3.2938	-3.7729	-3.7083	-3.275	-4.1146	255.516	50.559	99.162	112.863	142.296	116.569	136.777	242.587	-18.368	-62.557	222.611	212.957	238.534	156.787	91.250	187.982	0.00021403	0.00043502	0.00011267	715.61	3.3018e-06	5.2285e-06	1326.5	232.81	1.7241e-06	4.442e-06	509.07	168.94	64.961	20.248	2.9832e-06	70.173	0.00011592	7.4081e-05	2.058e-05	661.88	8.5851e-07	8.2277e-07	1230	214.84	8.1964e-07	8.368e-07	467.99	159	60.133	18.758	8.9793e-07	65.21	224.716	11.708	17.861	-82.738	54.972	26.598	-81.803	-79.090	82.580	59.964	-78.643	-73.568	-74.818	-69.544	70.094	-68.519	-8191	255	
40629.195	1	1	0	0	0.14808	0.094856	0.23355	0.25377	0.1895	0.14534	0.30515	0.23141	0.13671	0.1214	0.22912	0.090746	0.067479	0.053458	0.26034	0.22327	-3.2479	-3.3063	-3.8792	-3.3354	-3.6625	-3.8729	-3.2979	-3.9729	-3.3729	-3.1333	-4.1021	-3.275	-3.5208	-3.7646	-3.1312	-3.9229	14.584	203.486	158.775	-67.160	-51.582	38.955	-94.211	-89.169	113.219	156.060	-77.557	215.091	133.834	-21.595	116.193	-78.550	0.00021148	0.00050497	0.00011843	715.3	3.2256e-06	2.9582e-06	1327.1	232.49	3.3877e-06	4.057e-06	507.89	170.65	63.902	20.076	5.8356e-06	69.235	0.00011828	8.0232e-05	2.1825e-05	660.26	8.2766e-07	8.0812e-07	1227.7	214.86	8.7934e-07	7.9642e-07	468.83	160.15	59.819	18.639	8.7202e-07	64.315	218.375	15.372	-7.907	-82.512	77.685	50.796	-81.986	-78.877	81.313	24.393	-78.174	-73.492	-74.708	-69.667	47.420	-68.790	-8191	255	
40629.293	1	1	0	0	0.11321	0.1903	0.14595	0.13599	0.1316	0.22692	0.12579	0.10968	0.11415	0.11488	0.1649	0.15138	0.10115	0.043668	0.19896	0.10275	-3.3896	-3.2562	-3.9771	-3.225	-3.425	-3.95	-3.4062	-3.8812	-3.5104	-3.0771	-4.125	-3.5229	-3.3063	-4.0271	-3.2292	-3.7604	209.556	-9.674	13.266	100.283	144.148	55.430	251.944	-41.972	71.591	223.225	170.068	178.904	160.002	62.554	7.894	168.224	0.00023567	0.00020431	0.00015149	709.15	2.6209e-06	3.4002e-06	1316.6	230.98	3.1982e-06	3.831e-06	499.66	168.46	63.344	19.585	4.4481e-06	68.299	0.00011523	7.3991e-05	1.9497e-05	653.06	8.611e-07	8.2078e-07	1216.2	212.78	8.6817e-07	8.6048e-07	462	157.67	58.996	18.279	8.5007e-07	63.58	220.911	-13.208	-7.471	-82.963	64.715	88.052	-81.973	-78.959	55.571	55.718	-78.102	-73.755	-75.223	-69.574	72.080	-68.428	-8191	255	
40629.387	1	1	0	0	0.31074	0.24496	0.2035	0.26305	0.12405	0.15303	0.37389	0.1804	0.067874	0.10346	0.32775	0.26967	0.12157	0.34306	0.089472	0.19268	-3.4271	-3.0333	-3.8542	-3.525	-3.2271	-4.0646	-3.5125	-3.9125	-3.8937	-3.3458	-4.2292	-3.6188	-3.3375	-3.9896	-3.1854	-3.6083	189.091	-70.886	-70.947	224.220	211.415	262.155	202.403	178.002	-45.732	-63.210	154.108	206.442	141.883	118.317	-13.824	150.346	0.00023029	0.00042076	0.00016284	707.56	3.6555e-06	4.1418e-06	1315.3	229.2	2.7907e-06	3.208e-06	499.75	168.81	62.942	19.8	4.4788e-06	68.608	0.00011236	7.6378e-05	2.0601e-05	651.14	9.1632e-07	8.0829e-07	1216.7	212.08	9.0862e-07	8.5292e-07	461.8	157.79	59.156	18.425	8.7879e-07	64.275	222.942	11.795	3.204	-82.695	66.664	46.764	-81.805	-79.142	76.178	46.525	-77.862	-73.524	-75.052	-69.441	39.441	-68.663	-8191	255	
40629.484	1	1	0	0	0.23021	0.1836	0.17278	0.35531	0.037438	0.036503	0.16899	0.12785	0.28671	0.17679	0.047084	0.11671	0.096725	0.37356	0.15335	0.18284	-3.6021	-3.1562	-3.8063	-3.5062	-3.2438	-3.9771	-3.2229	-3.5938	-3.8146	-3.1854	-3.9771	-3.7042	-3.2562	-4.025	-3.2896	-3.4979	-9.667	-13.481	21.557	201.553	219.960	114.588	166.633	181.247	145.851	61.589	234.348	194.713	-92.390	123.273	63.829	113.478	0.00019183	0.00051856	0.00013316	701.43	3.3286e-06	3.4597e-06	1317.1	229.1	4.068e-06	4.467e-06	506.92	169.73	64.171	20.318	4.2668e-06	69.539	0.00011586	7.8055e-05	1.9462e-05	647.8	8.9989e-07	8.1698e-07	1219.9	213.25	8.7282e-07	8.2608e-07	467.41	159.67	59.905	18.763	8.4421e-07	64.895	230.124	-5.175	4.767	-82.423	53.961	47.452	-81.772	-78.746	75.093	74.916	-78.315	-73.710	-74.893	-69.463	80.537	-68.705	-8191	255	
40629.578	1	1	0	0	0.17139	0.41318	0.21885	0.10853	0.22952	0.14428	0.21123	0.18096	0.18018	0.23277	0.15962	0.20774	0.13324	0.14231	0.24389	0.28406	-3.6021	-3.0312	-3.7271	-3.9271	-3.1562	-4.0563	-3.5625	-3.3312	-3.9917	-3.2354	-4.0208	-3.95	-3.2083	-4.0687	-3.5646	-3.3167	121.600	-55.564	24.228	125.316	111.157	97.498	154.782	174.042	239.462	-14.331	241.883	248.908	259.153	165.877	59.251	229.483	0.00020998	0.0005247	6.1743e-05	699.03	4.5105e-06	3.1433e-06	1311.1	227.19	2.895e-06	4.3188e-06	500.91	167.4	62.741	19.692	2.2295e-06	68.94	0.00011853	7.8099e-05	2.1024e-05	648.78	9.3316e-07	8.3146e-07	1216.2	211.5	8.9516e-07	8.8723e-07	461.69	156.86	58.574	18.251	8.7573e-07	63.97	219.955	4.288	-3.695	-82.564	28.690	48.666	-81.811	-79.206	46.014	50.849	-78.498	-73.306	-75.063	-69.213	78.513	-68.637	-8191	255	
#DATA ENDS
