BOXY.EXE: ISS Imagent and Oximeter Data Acquisition Program Version 0.80
Ascii Record File

#ACQ INFORMATION
2  Detector Channels 
16  External MUX Channels 
1  Auxiliary Channels 
5000  Waveform (CCF) Frequency (Hz)
1  Waveforms Skipped 
30  Waveforms Averaged 
1  Cycles Averaged 
16  Acquisitions per Waveform 
10.0806  Updata Rate (Hz) 

#FILE INFORMATION
TRUE -- External MUX Channel results are PARSED.
FALSE -- AC DC and Phase are NOT grouped.
TRUE -- Companion Program Settings File CREATED.
FALSE -- AC data not excluded
FALSE -- DC data not excluded
FALSE -- Phase data not excluded
FALSE -- Auxillary Chn. data not excluded
Tab delimiters

#CALIBRATION STATE
TRUE -- Waveform Calibration Values APPLIED.


#AUX CALIBRATION VALUES
Val Type	aux-1	

Term	1.0000e+00	
Factor	0.0000e+00	


#WF CALIBRATION VALUES
A = Detector Channel
Val Type	A-AC1	A-AC2	A-AC3	A-AC4	A-AC5	A-AC6	A-AC7	A-AC8	A-AC9	A-AC10	A-AC11	A-AC12	A-AC13	A-AC14	A-AC15	A-AC16	A-DC1	A-DC2	A-DC3	A-DC4	A-DC5	A-DC6	A-DC7	A-DC8	A-DC9	A-DC10	A-DC11	A-DC12	A-DC13	A-DC14	A-DC15	A-DC16	A-Ph1	A-Ph2	A-Ph3	A-Ph4	A-Ph5	A-Ph6	A-Ph7	A-Ph8	A-Ph9	A-Ph10	A-Ph11	A-Ph12	A-Ph13	A-Ph14	A-Ph15	A-Ph16	

Term	0.00000e+00	0.00000e+00	0.00000e+00	0.00000e+00	0.00000e+00	0.00000e+00	0.00000e+00	0.00000e+00	0.00000e+00	0.00000e+00	0.00000e+00	0.00000e+00	0.00000e+00	0.00000e+00	0.00000e+00	0.00000e+00	0.00000e+00	0.00000e+00	0.00000e+00	0.00000e+00	0.00000e+00	0.00000e+00	0.00000e+00	0.00000e+00	0.00000e+00	0.00000e+00	0.00000e+00	0.00000e+00	0.00000e+00	0.00000e+00	0.00000e+00	0.00000e+00	0.00000e+00	0.00000e+00	0.00000e+00	0.00000e+00	0.00000e+00	0.00000e+00	0.00000e+00	0.00000e+00	0.00000e+00	0.00000e+00	0.00000e+00	0.00000e+00	0.00000e+00	0.00000e+00	0.00000e+00	0.00000e+00	
Factor	1.00000e+00	1.00000e+00	1.00000e+00	1.00000e+00	1.00000e+00	1.00000e+00	1.00000e+00	1.00000e+00	1.00000e+00	1.00000e+00	1.00000e+00	1.00000e+00	1.00000e+00	1.00000e+00	1.00000e+00	1.00000e+00	1.00000e+00	1.00000e+00	1.00000e+00	1.00000e+00	1.00000e+00	1.00000e+00	1.00000e+00	1.00000e+00	1.00000e+00	1.00000e+00	1.00000e+00	1.00000e+00	1.00000e+00	1.00000e+00	1.00000e+00	1.00000e+00	X	X	X	X	X	X	X	X	X	X	X	X	X	X	X	X	

B = Detector Channel
Val Type	B-AC1	B-AC2	B-AC3	B-AC4	B-AC5	B-AC6	B-AC7	B-AC8	B-AC9	B-AC10	B-AC11	B-AC12	B-AC13	B-AC14	B-AC15	B-AC16	B-DC1	B-DC2	B-DC3	B-DC4	B-DC5	B-DC6	B-DC7	B-DC8	B-DC9	B-DC10	B-DC11	B-DC12	B-DC13	B-DC14	B-DC15	B-DC16	B-Ph1	B-Ph2	B-Ph3	B-Ph4	B-Ph5	B-Ph6	B-Ph7	B-Ph8	B-Ph9	B-Ph10	B-Ph11	B-Ph12	B-Ph13	B-Ph14	B-Ph15	B-Ph16	

Term	0.00000e+00	0.00000e+00	0.00000e+00	0.00000e+00	0.00000e+00	0.00000e+00	0.00000e+00	0.00000e+00	0.00000e+00	0.00000e+00	0.00000e+00	0.00000e+00	0.00000e+00	0.00000e+00	0.00000e+00	0.00000e+00	0.00000e+00	0.00000e+00	0.00000e+00	0.00000e+00	0.00000e+00	0.00000e+00	0.00000e+00	0.00000e+00	0.00000e+00	0.00000e+00	0.00000e+00	0.00000e+00	0.00000e+00	0.00000e+00	0.00000e+00	0.00000e+00	-9.50993e+01	-1.28701e+02	-1.24987e+02	-1.83761e+02	-6.23572e+01	-7.40854e+01	-1.58106e+02	-1.62015e+02	-5.36995e+01	-7.02651e+01	-1.70714e+02	-1.70913e+02	-1.78902e+02	-1.77049e+02	-6.51981e+01	-1.49824e+02	
Factor	1.64770e-05	1.35927e-04	3.46547e-05	1.51834e-01	1.19814e-06	1.36781e-06	1.67260e-01	5.25101e-02	1.01735e-06	1.28790e-06	8.68415e-02	3.03108e-02	2.82728e-02	9.66055e-03	1.35503e-06	1.35419e-02	3.18107e-06	3.59181e-06	1.00104e-06	7.44679e-02	3.88649e-08	3.97153e-08	7.71580e-02	2.58867e-02	3.91507e-08	3.98793e-08	4.12608e-02	1.45034e-02	1.40702e-02	4.76425e-03	3.96035e-08	6.46411e-03	X	X	X	X	X	X	X	X	X	X	X	X	X	X	X	X	



#DISTANCE SETTINGS
A = Detector Channel
A-1	A-2	A-3	A-4	A-5	A-6	A-7	A-8	A-9	A-10	A-11	A-12	A-13	A-14	A-15	A-16	

2.5000e+00	3.0000e+00	2.5000e+00	3.0000e+00	2.0000e+00	3.0000e+00	1.5000e+00	3.0000e+00	3.0000e+00	3.0000e+00	3.0000e+00	3.0000e+00	3.0000e+00	3.0000e+00	1.5000e+00	3.0000e+00	

B = Detector Channel
B-1	B-2	B-3	B-4	B-5	B-6	B-7	B-8	B-9	B-10	B-11	B-12	B-13	B-14	B-15	B-16	

1.0000e+01	1.0000e+01	1.0000e+01	1.4400e+00	1.0000e+01	1.0000e+01	1.5100e+00	1.9400e+00	1.0000e+01	1.0000e+01	1.9900e+00	2.4900e+00	2.4100e+00	2.9000e+00	1.0000e+01	2.9800e+00	




#DATA BEGINS
time	group	step	mark	flag	A-AC1	A-AC2	A-AC3	A-AC4	A-AC5	A-AC6	A-AC7	A-AC8	A-AC9	A-AC10	A-AC11	A-AC12	A-AC13	A-AC14	A-AC15	A-AC16	A-DC1	A-DC2	A-DC3	A-DC4	A-DC5	A-DC6	A-DC7	A-DC8	A-DC9	A-DC10	A-DC11	A-DC12	A-DC13	A-DC14	A-DC15	A-DC16	A-Ph1	A-Ph2	A-Ph3	A-Ph4	A-Ph5	A-Ph6	A-Ph7	A-Ph8	A-Ph9	A-Ph10	A-Ph11	A-Ph12	A-Ph13	A-Ph14	A-Ph15	A-Ph16	B-AC1	B-AC2	B-AC3	B-AC4	B-AC5	B-AC6	B-AC7	B-AC8	B-AC9	B-AC10	B-AC11	B-AC12	B-AC13	B-AC14	B-AC15	B-AC16	B-DC1	B-DC2	B-DC3	B-DC4	B-DC5	B-DC6	B-DC7	B-DC8	B-DC9	B-DC10	B-DC11	B-DC12	B-DC13	B-DC14	B-DC15	B-DC16	B-Ph1	B-Ph2	B-Ph3	B-Ph4	B-Ph5	B-Ph6	B-Ph7	B-Ph8	B-Ph9	B-Ph10	B-Ph11	B-Ph12	B-Ph13	B-Ph14	B-Ph15	B-Ph16	aux-1	digaux	

40522.078	1	1	0	256	0.08056	0.092764	0.085815	0.27309	0.12025	0.063775	0.37666	0.40456	0.12687	0.2956	0.12468	0.20519	0.17042	0.29168	0.047365	0.21065	-3.4771	-3.6854	-3.1063	-4.1021	-3.5958	-3.4354	-4.1854	-3.2646	-3.7979	-3.7271	-3.2708	-4.0979	-3.5021	-3.4708	-3.9979	-3.3667	284.130	330.447	321.121	404.564	498.674	201.628	441.538	422.507	206.707	421.065	202.497	414.305	158.203	143.484	237.360	453.129	0.00066079	0.00065065	0.000178	1078.7	7.0304e-06	5.8067e-06	1446.1	347.72	7.3316e-06	1.8975e-06	557.39	186.84	95.377	26.436	7.4923e-06	66.995	0.0011242	0.0011894	0.00032714	1041.9	1.2853e-05	1.309e-05	1386.2	336.03	1.3074e-05	1.318e-05	537.61	180.85	93.834	26.465	1.3199e-05	65.154	219.360	267.635	220.920	157.357	305.079	231.790	157.241	160.699	295.035	295.323	160.674	164.821	164.463	169.216	325.099	169.857	-8191	255	
40522.199	1	1	0	0	0.095571	0.095117	0.17337	0.17548	0.20475	0.028964	0.30941	0.12758	0.064023	0.10147	0.13036	0.15647	0.063734	0.11998	0.065744	0.26167	-3.3083	-3.8875	-3.2958	-4.1042	-3.6208	-3.2146	-4.2604	-3.4271	-3.6813	-3.9292	-3.4229	-4.0479	-3.6208	-3.3792	-3.9167	-3.2896	271.301	406.117	372.353	146.353	447.277	326.044	439.438	428.534	183.751	380.641	191.675	255.765	424.587	449.245	401.810	299.179	0.00070086	0.0012421	0.00033788	1079.3	2.436e-06	4.4735e-06	1444.3	350.72	1.6106e-06	3.8656e-06	564.09	187.41	97.606	26.806	6.7683e-06	66.739	0.0011094	0.0011633	0.00032729	1038.7	1.2373e-05	1.2372e-05	1388.8	338.6	1.2277e-05	1.2415e-05	541.38	181.11	95.367	26.81	1.2483e-05	65.022	224.808	258.510	236.742	157.236	257.942	159.502	157.353	160.824	382.479	419.810	160.619	165.008	164.313	168.885	332.213	169.696	-8191	255	
40522.293	1	1	0	0	0.063204	0.081981	0.19544	0.22799	0.2544	0.16294	0.12244	0.11627	0.084465	0.046983	0.32474	0.27187	0.06526	0.0050784	0.08423	0.27665	-3.1958	-4.0083	-3.1104	-4.0042	-3.7729	-3.0833	-4.1521	-3.5271	-3.3583	-3.9208	-3.4354	-3.975	-3.8458	-3.3229	-3.9708	-3.5792	329.143	502.207	370.598	195.696	331.196	282.824	378.001	496.106	356.128	476.111	442.688	476.460	334.249	322.267	353.945	477.735	0.00062214	0.00059411	0.00026329	1100.2	8.0245e-06	9.4405e-06	1455	352.29	6.9783e-06	6.8726e-06	565.72	186.96	97.201	27.031	4.9522e-06	66.934	0.0010723	0.0011239	0.00031108	1055.4	1.2197e-05	1.2396e-05	1397.4	340.42	1.2303e-05	1.266e-05	542.06	181.64	95.218	26.852	1.2052e-05	65.302	220.420	295.983	242.214	157.178	275.202	302.930	157.407	160.518	296.354	316.417	160.767	164.798	164.384	168.758	353.874	169.708	-8191	255	
40522.367	1	1	0	0	0.058986	0.1538	0.27717	0.23784	0.2493	0.26639	0.21171	0.15315	0.061025	0.090792	0.36552	0.083569	0.045638	0.034788	0.11884	0.25496	-2.9479	-3.975	-3.1708	-3.8333	-3.8417	-3.2375	-4.1958	-3.4437	-3.225	-3.9833	-3.3771	-3.7271	-3.8604	-3.1312	-3.9479	-3.7917	326.469	422.577	433.640	495.202	328.939	236.330	404.451	149.174	208.625	172.309	447.841	474.693	233.003	228.752	337.464	162.153	0.00068341	0.00060122	0.00018671	1097.3	8.3888e-06	3.6743e-06	1464.3	353.41	2.8543e-06	1.0339e-05	564.32	188.57	96.521	26.944	1.3769e-05	67.09	0.0010629	0.0011128	0.00031249	1054.2	1.2191e-05	1.2323e-05	1401.2	340.95	1.2381e-05	1.2479e-05	542.68	182.15	95.046	26.8	1.2473e-05	65.407	222.381	241.026	159.829	157.222	343.318	265.056	157.204	160.618	312.668	323.161	160.572	165.024	164.121	168.796	275.319	169.673	-8191	255	
40522.465	1	1	0	0	0.03923	0.097336	0.20279	0.10552	0.087262	0.49003	0.23745	0.32353	0.25215	0.11093	0.35832	0.30849	0.15514	0.08605	0.097861	0.23697	-3.0062	-4.0396	-3.3937	-3.7292	-3.8875	-3.1979	-4.2083	-3.7438	-3.2583	-4.15	-3.5125	-3.5458	-4.1146	-3.1625	-3.8812	-3.6521	435.047	271.497	272.184	457.716	275.791	193.905	412.309	450.006	221.177	191.803	408.812	453.217	471.682	404.828	404.346	472.219	0.00060589	0.0014045	0.00032006	1083.9	2.3002e-06	1.3058e-05	1451.9	353.85	2.4615e-06	8.4279e-06	564.72	187.58	97.511	26.877	6.514e-06	66.625	0.0010824	0.0011243	0.00030291	1046.9	1.2038e-05	1.2229e-05	1395.3	340.6	1.2141e-05	1.2286e-05	542.89	181.67	95.267	26.723	1.2132e-05	64.986	214.782	239.948	256.532	156.878	387.872	276.449	157.403	161.020	292.894	269.227	160.858	164.828	164.676	169.560	340.394	169.758	-8191	255	
40522.582	1	1	0	0	0.1456	0.27583	0.095227	0.24182	0.11459	0.050827	0.24745	0.10759	0.047546	0.12329	0.21188	0.12091	0.14994	0.18519	0.18472	0.32648	-3.1229	-4.1417	-3.3771	-3.6437	-3.9625	-3.0417	-4.0396	-3.8229	-3.2417	-4.125	-3.8604	-3.5083	-3.9125	-3.2292	-3.6188	-3.975	216.713	204.734	371.775	462.982	383.484	229.915	422.407	497.295	255.162	445.231	455.567	498.866	180.787	430.735	304.842	417.852	0.00059858	0.00080998	0.0002421	1104.9	8.9682e-06	6.784e-06	1466.7	358.36	9.6892e-06	7.8298e-06	564.34	189.34	98.576	27.064	7.3145e-06	67.671	0.0010443	0.001103	0.00030673	1058.2	1.1817e-05	1.1832e-05	1405.3	344.62	1.1822e-05	1.1917e-05	545.13	183.02	96.234	26.959	1.1929e-05	65.718	221.507	194.617	203.621	157.122	288.495	258.993	157.333	160.853	334.387	250.450	160.745	164.571	164.420	169.050	283.946	169.839	-8191	255	
40522.680	1	1	0	0	0.092273	0.17222	0.14046	0.16522	0.038754	0.1851	0.22802	0.34462	0.20702	0.11787	0.18813	0.244	0.22023	0.14655	0.31276	0.10429	-2.825	-3.8688	-3.6292	-3.45	-4.05	-3.3042	-3.7375	-4.1208	-3.1792	-4.0229	-3.8875	-3.4292	-4.0229	-3.3458	-3.5271	-4.1125	318.223	349.811	469.252	387.949	224.997	144.920	431.613	454.583	199.728	484.047	460.985	200.858	446.112	403.421	345.697	326.094	0.00070913	0.00043154	0.00027048	1105.4	7.0679e-06	3.9791e-06	1460	356.4	7.576e-06	6.6812e-06	563.95	188.1	98.635	27.151	5.8851e-06	66.55	0.0010487	0.0010817	0.00029981	1058.8	1.1704e-05	1.2013e-05	1403.3	342.28	1.1629e-05	1.1725e-05	542.58	182.34	96.041	26.956	1.1679e-05	65.054	228.667	274.637	302.666	157.188	281.673	364.654	157.308	160.539	299.063	299.675	160.881	164.569	164.506	168.965	421.094	169.651	-8191	255	
40522.773	1	1	0	0	0.29281	0.053587	0.51444	0.19971	0.12439	0.1051	0.15501	0.28733	0.21677	0.10752	0.2283	0.37623	0.13871	0.25077	0.21671	0.18207	-2.7646	-3.9333	-3.7771	-3.4396	-4.1354	-3.2125	-3.6813	-4.0833	-3.2125	-3.8438	-3.8063	-3.3833	-4.1562	-3.4375	-3.3042	-4.0229	368.342	279.568	197.350	157.938	266.354	323.327	474.599	471.697	424.426	348.571	463.233	182.229	463.530	374.321	232.950	479.588	0.00066029	0.00037	0.00020985	1111.4	1.1955e-05	8.508e-06	1473.4	360.05	5.2311e-06	9.3194e-06	567.29	189.48	98.447	27.279	6.77e-06	66.868	0.0010293	0.0010578	0.00029581	1065.2	1.1385e-05	1.1582e-05	1407.9	346.63	1.163e-05	1.1759e-05	546.51	182.82	96.276	27.053	1.1837e-05	65.367	216.890	167.278	270.680	157.101	287.414	342.475	157.183	160.697	305.681	302.136	160.698	164.793	164.387	169.328	273.206	169.913	-8191	255	
40522.871	1	1	0	0	0.1617	0.094995	0.24264	0.2731	0.11491	0.10964	0.29887	0.3212	0.14494	0.19303	0.17596	0.13203	0.11231	0.047648	0.15694	0.037833	-2.7833	-3.6833	-3.725	-3.4313	-3.9667	-3.5833	-3.6437	-4.2	-3.1167	-3.5854	-4.0521	-3.2062	-3.8833	-3.4792	-3.175	-4.1687	269.641	482.780	482.041	469.469	212.411	168.699	456.362	476.581	216.532	380.675	462.936	414.945	230.011	353.611	238.934	182.759	0.00067426	0.00042704	0.00010342	1108.1	1.1127e-05	3.6343e-06	1474.2	357.87	7.1506e-06	2.2147e-06	565.53	188.88	98.091	27.408	5.6537e-06	67.839	0.0010336	0.0010713	0.00029825	1066.3	1.1644e-05	1.1797e-05	1406.7	344.65	1.1801e-05	1.1908e-05	544.98	183.2	96.303	27.087	1.1814e-05	65.742	219.349	236.925	324.992	157.403	299.528	192.412	157.615	160.853	313.056	311.318	160.671	164.990	164.143	169.421	286.317	169.642	-8191	255	
40522.992	1	1	0	0	0.21577	0.15021	0.13389	0.24222	0.18347	0.19205	0.26955	0.14538	0.088183	0.021375	0.17941	0.35854	0.14521	0.071173	0.010928	0.20882	-2.8542	-3.5208	-3.8271	-3.2875	-3.7729	-3.6146	-3.4979	-4.2562	-3.2	-3.4979	-3.9146	-3.2625	-3.9625	-3.5792	-3.1792	-4.0729	455.301	178.705	351.520	444.840	369.373	499.480	393.762	163.262	171.289	199.730	402.172	477.364	289.902	467.440	272.286	420.854	0.0006095	0.00017955	0.00021511	1110.1	6.2599e-06	2.7811e-06	1461.9	357.8	3.5648e-06	5.4235e-06	570.18	187.87	98.76	27.154	9.735e-06	67.169	0.0010135	0.0010765	0.00029624	1064.9	1.1481e-05	1.1678e-05	1404.8	344.93	1.169e-05	1.1816e-05	546.58	182.27	96.34	26.967	1.1862e-05	65.339	223.248	152.992	183.291	157.266	288.650	315.682	157.326	160.713	254.052	222.805	161.043	164.894	164.334	168.912	315.725	170.080	-8191	255	
40523.062	1	1	0	0	0.35815	0.1913	0.076648	0.31899	0.23933	0.18503	0.27045	0.16537	0.18884	0.08372	0.22688	0.17077	0.20651	0.19788	0.038215	0.092211	-2.8875	-3.4104	-3.875	-3.2146	-3.7875	-3.7646	-3.3812	-4.1813	-3.3625	-3.4771	-4.0479	-3.3292	-3.8542	-3.7979	-3.2875	-4.1042	382.146	192.767	260.586	432.130	416.191	177.136	454.523	209.733	367.845	424.508	441.280	413.652	146.921	388.564	365.764	422.363	0.0007281	0.00068558	0.00013005	1110.5	8.0241e-06	1.3743e-06	1457	356.07	6.4758e-06	3.2823e-06	564.43	188.34	98.552	27.22	7.8031e-06	67.271	0.0010328	0.0010578	0.00029837	1065.4	1.1609e-05	1.184e-05	1401.6	343.77	1.159e-05	1.1692e-05	542.64	182.19	96.209	26.947	1.1742e-05	65.324	221.641	241.518	474.146	157.474	290.475	415.218	157.606	160.484	286.516	335.803	160.855	165.066	164.516	169.069	306.054	169.718	-8191	255	
40523.184	1	1	0	0	0.088127	0.38282	0.11035	0.27804	0.11216	0.1126	0.15511	0.18149	0.070658	0.059104	0.33854	0.11438	0.24162	0.32235	0.29434	0.10709	-3.2083	-3.2958	-4.0833	-3.3	-3.5812	-3.7271	-3.3354	-4.0667	-3.6646	-3.1604	-4.1833	-3.3417	-3.5479	-3.9417	-3.2292	-4.0708	212.412	373.774	263.368	152.904	500.324	380.606	355.391	454.880	423.488	158.193	431.097	212.257	353.281	465.384	457.560	434.214	0.00066326	0.00053082	0.00022034	1104.2	6.6717e-06	8.5734e-06	1458.4	357.9	1.0614e-05	4.8188e-06	564.89	187.65	97.585	26.858	6.1743e-06	66.957	0.0010201	0.0010564	0.00029562	1059.2	1.1453e-05	1.1431e-05	1397	343.71	1.146e-05	1.1589e-05	542.28	181.6	95.415	26.792	1.1436e-05	65.059	226.237	378.357	195.329	157.260	339.958	270.587	157.244	160.698	291.586	273.934	161.299	165.030	164.305	169.326	207.488	169.946	-8191	255	
40523.277	1	1	0	0	0.097581	0.18495	0.054861	0.37135	0.26556	0.1261	0.281	0.23113	0.22275	0.13353	0.27325	0.13435	0.11093	0.19023	0.31266	0.058339	-3.2708	-3.1771	-3.8583	-3.3771	-3.5146	-4.0188	-3.5333	-3.9979	-3.6396	-3.2604	-4.1979	-3.3792	-3.5229	-3.9625	-3.1813	-3.9	160.143	418.052	500.585	491.534	297.405	348.019	413.584	446.085	168.039	478.395	492.633	456.175	452.046	426.380	468.953	481.993	0.00063632	0.00037781	0.00013859	1104.2	1.5136e-06	8.2997e-06	1460.2	357.77	7.4633e-06	7.2766e-06	565.12	187.97	97.896	26.963	1.0829e-05	66.683	0.0010136	0.0010206	0.00028533	1057.4	1.1148e-05	1.1252e-05	1397.6	344.69	1.1221e-05	1.1274e-05	542.98	181.89	95.675	26.812	1.1274e-05	65.008	223.875	275.560	182.239	157.249	263.702	282.946	157.252	160.382	296.953	346.660	160.879	164.774	164.422	169.539	331.001	169.646	-8191	255	
40523.375	1	1	0	0	0.10252	0.11516	0.13172	0.026034	0.16166	0.19063	0.35763	0.32859	0.15614	0.06362	0.14426	0.34589	0.086701	0.12539	0.25629	0.10278	-3.4583	-3.1208	-4.1167	-3.4771	-3.3771	-3.8875	-3.5229	-3.9104	-3.8375	-3.2167	-4.2417	-3.6292	-3.3917	-3.9417	-3.2812	-3.8125	182.224	456.466	404.528	355.453	204.988	481.545	477.007	481.732	322.657	173.899	155.829	374.059	471.614	501.284	414.222	197.256	0.00058742	0.00082193	0.00021845	1108.7	8.1747e-06	6.6899e-06	1458.3	357.05	3.3015e-06	2.9768e-06	568.36	188.76	98.903	26.934	6.8211e-06	66.889	0.0009829	0.0010177	0.00028136	1062	1.0946e-05	1.1124e-05	1395.6	343.51	1.1182e-05	1.1251e-05	543.59	181.78	95.962	26.853	1.0874e-05	65.096	221.684	259.984	291.885	157.402	273.648	252.833	157.287	160.760	254.586	255.042	160.832	164.916	163.991	169.039	223.070	169.772	-8191	255	
40523.473	1	1	0	0	0.09287	0.17285	0.2424	0.3391	0.3344	0.10447	0.29896	0.14112	0.20704	0.083452	0.1551	0.21329	0.17534	0.24153	0.072149	0.15998	-3.4875	-3.1792	-3.8958	-3.7042	-3.2229	-4.0563	-3.5438	-3.7396	-3.8625	-3.3	-4.0229	-3.7313	-3.225	-4.1479	-3.2438	-3.7333	318.520	401.564	350.684	458.179	175.726	449.301	441.292	477.962	426.427	347.153	472.352	169.110	145.460	493.785	319.532	423.218	0.00060689	0.00065481	0.00010759	1099.6	8.3223e-06	1.0191e-05	1447.6	356.11	1.1715e-05	3.3894e-06	565.55	187.71	97.907	26.902	6.4989e-06	66.659	0.00096059	0.00099133	0.00027995	1055.6	1.0784e-05	1.09e-05	1388.4	342.46	1.0853e-05	1.1045e-05	539.88	181.3	95.325	26.642	1.0815e-05	64.79	230.105	229.587	254.393	157.192	241.598	306.339	157.438	160.757	261.389	263.777	160.624	164.970	164.139	169.339	250.540	169.672	-8191	255	
40523.594	1	1	0	0	0.20444	0.11298	0.20831	0.11822	0.12495	0.21576	0.20634	0.24774	0.11693	0.33147	0.15086	0.097309	0.090781	0.26256	0.030449	0.23944	-3.5354	-3.0896	-3.8229	-3.6896	-3.2479	-3.9625	-3.5	-3.525	-3.9708	-3.1312	-3.75	-3.925	-3.4188	-3.975	-3.4708	-3.5333	477.509	365.896	364.186	485.439	209.067	464.490	407.323	418.116	464.893	223.774	464.110	162.890	261.834	180.399	415.807	409.984	0.00069578	0.0013126	0.00022486	1096.9	5.5436e-06	7.2924e-06	1447.7	355.15	4.2412e-06	6.1616e-06	561.14	186.82	97.657	27.039	7.2393e-06	66.582	0.00096625	0.00097808	0.00027393	1051.9	1.064e-05	1.0739e-05	1388.2	341.84	1.0726e-05	1.0825e-05	540.03	181.04	95.259	26.684	1.0872e-05	64.744	223.983	253.950	253.814	157.188	235.257	337.695	157.633	160.505	310.538	222.066	160.629	164.917	164.497	169.323	270.400	169.530	-8191	255	
40523.664	1	1	0	0	0.18082	0.034073	0.060318	0.22807	0.23443	0.16383	0.28481	0.33822	0.043454	0.28318	0.22053	0.10753	0.14524	0.12248	0.15524	0.24356	-3.6208	-3.1	-3.8521	-4.0437	-3.1813	-3.8375	-3.6021	-3.4271	-3.9833	-3.25	-3.7542	-3.8937	-3.2625	-3.8792	-3.6479	-3.5125	284.114	302.347	195.163	493.800	334.302	316.129	460.900	454.885	319.223	441.403	199.587	453.138	471.390	342.025	366.977	314.631	0.00067028	0.0013672	0.00016843	1095.1	5.6086e-06	6.9881e-06	1457.4	354.89	9.4995e-06	9.0243e-06	562.67	186.54	97.426	26.761	5.7968e-06	66.578	0.00095053	0.00098157	0.00027301	1051.1	1.0742e-05	1.089e-05	1388.5	341.54	1.0809e-05	1.1032e-05	539.76	180.34	94.735	26.577	1.0956e-05	64.76	222.770	227.246	287.801	157.179	302.189	257.652	157.303	160.556	276.292	333.402	160.771	164.743	164.249	169.320	250.100	169.528	-8191	255	
40523.758	1	1	0	0	0.17024	0.30328	0.058354	0.26792	0.10384	0.03223	0.056886	0.097959	0.21768	0.15303	0.18992	0.076004	0.31981	0.21369	0.10224	0.13091	-3.6813	-3.2458	-3.5271	-3.9625	-3.2375	-3.8937	-3.9417	-3.2062	-3.95	-3.3083	-3.6854	-4.1125	-3.2188	-3.95	-3.6917	-3.3125	477.998	378.796	483.184	471.140	333.900	187.367	233.296	432.117	494.688	288.579	478.774	391.418	461.880	495.651	425.599	271.277	0.00072168	0.00051299	0.00011567	1095.7	6.7086e-06	5.4345e-06	1444.9	353.41	6.3096e-06	6.027e-06	560.25	186.74	97.314	26.822	5.4141e-06	66.653	0.00095389	0.00098187	0.00027866	1048.2	1.0748e-05	1.1074e-05	1382	339.24	1.0613e-05	1.1064e-05	536.97	180.16	94.477	26.514	1.0868e-05	64.419	225.117	440.078	275.723	157.393	263.163	281.099	157.577	160.658	301.457	280.005	160.755	164.710	164.522	169.212	284.279	169.528	-8191	255	
40523.855	1	1	0	0	0.13388	0.0873	0.2856	0.1125	0.12969	0.19136	0.3913	0.22827	0.20831	0.14291	0.060723	0.19213	0.073923	0.16102	0.17666	0.2238	-3.9	-3.3812	-3.3187	-4.2229	-3.2625	-3.7396	-3.9792	-3.1771	-4.0458	-3.4875	-3.5646	-4.0708	-3.3458	-3.8063	-3.6979	-3.3083	250.157	430.555	270.874	450.438	489.658	376.511	454.699	477.791	201.881	184.005	263.130	462.015	488.996	263.625	342.489	409.702	0.00067998	0.0005073	0.00026204	1087.1	5.4946e-06	7.2076e-06	1438.4	349.1	5.7933e-06	3.7115e-06	555.67	185.66	96.203	26.775	7.0665e-06	66.158	0.00094189	0.00097797	0.00027143	1043.6	1.0718e-05	1.0939e-05	1376.3	336.59	1.082e-05	1.0882e-05	533.95	179.14	93.81	26.408	1.0713e-05	64.395	227.081	206.103	235.993	157.434	248.444	313.598	157.482	160.771	245.637	487.860	160.577	165.224	164.304	169.077	308.879	169.763	-8191	255	
40523.977	1	1	0	0	0.065845	0.091175	0.1028	0.13693	0.38812	0.12528	0.22553	0.34958	0.27044	0.15714	0.38495	0.15056	0.12377	0.11906	0.21528	0.18895	-3.7229	-3.3583	-3.1875	-4.0729	-3.225	-3.6354	-4.1396	-3.4104	-3.8583	-3.5021	-3.3958	-4.1687	-3.3854	-3.6333	-3.9437	-3.2729	233.367	195.217	448.210	441.067	448.290	469.534	424.278	455.617	357.392	475.111	495.377	468.008	329.709	147.969	190.026	476.379	0.00065892	0.00052474	6.8377e-05	1081.6	8.5431e-06	1.7967e-06	1434.2	348.02	1.9407e-06	1.8714e-06	553.93	185.37	96.394	26.726	8.6702e-06	65.598	0.00095238	0.00097786	0.00027442	1037.2	1.0607e-05	1.0661e-05	1374.4	335.82	1.0549e-05	1.0713e-05	532.99	178.72	93.82	26.356	1.052e-05	63.674	226.005	244.596	244.460	157.318	286.131	370.101	157.413	160.641	372.443	272.723	160.748	164.738	164.538	168.883	298.963	169.686	-8191	255	
40524.070	1	1	0	0	0.22712	0.12173	0.25653	0.195	0.26496	0.16617	0.1941	0.088144	0.19118	0.071777	0.2173	0.082337	0.073159	0.26994	0.12858	0.067252	-3.4	-3.4979	-3.2292	-4.1979	-3.2062	-3.4833	-4.2667	-3.25	-3.7667	-3.7979	-3.3438	-4.2604	-3.2833	-3.5208	-3.9333	-3.1833	243.522	328.385	380.157	459.741	152.235	163.051	461.976	449.613	327.853	311.897	476.277	177.015	201.334	175.964	439.708	422.596	0.00060612	0.0011379	9.4557e-05	1094	5.467e-06	7.8954e-06	1435.2	352.19	9.3731e-06	6.5287e-06	554.43	185.78	96.694	26.626	1.0241e-05	66.159	0.00092128	0.00095165	0.00026394	1044.5	1.0265e-05	1.0564e-05	1377.3	339.66	1.0497e-05	1.0631e-05	534.23	179.15	94.183	26.386	1.0615e-05	64.262	222.060	273.888	179.821	157.473	273.579	260.671	157.491	160.802	279.088	281.651	160.914	164.889	164.351	169.165	255.926	169.761	-8191	255	
40524.168	1	1	0	0	0.17162	0.12691	0.10385	0.18241	0.13443	0.18174	0.24683	0.39331	0.090765	0.17176	0.17863	0.31986	0.097461	0.11758	0.26143	0.14005	-3.5104	-3.7625	-3.2	-4.0458	-3.5604	-3.3292	-4.1937	-3.2458	-3.4458	-3.9146	-3.2562	-4.1375	-3.5229	-3.4729	-3.9688	-3.4646	407.160	426.366	243.368	161.984	190.337	213.991	454.574	431.554	332.004	363.861	178.692	478.445	323.577	190.811	356.028	418.350	0.00058761	0.00043432	0.00027054	1080	8.7321e-06	7.0496e-06	1434.1	348.26	9.0025e-06	6.1488e-06	553.62	185.5	95.606	26.618	9.4075e-06	66.713	0.00094777	0.00098064	0.00027137	1035.2	1.0522e-05	1.0768e-05	1371.5	334.97	1.0607e-05	1.0878e-05	532.68	179.28	93.254	26.343	1.0768e-05	64.613	226.557	153.852	180.449	157.260	276.531	317.742	157.608	160.980	286.168	364.947	160.670	164.928	164.351	168.941	306.368	170.011	-8191	255	
40524.266	1	1	0	0	0.090411	0.069964	0.15485	0.20297	0.25239	0.17176	0.18526	0.51045	0.05045	0.12847	0.12756	0.1395	0.15717	0.14712	0.25665	0.053151	-3.4813	-3.9083	-3.1208	-3.9375	-3.4062	-3.25	-4.2167	-3.4917	-3.5333	-3.7604	-3.2208	-4.0062	-3.8646	-3.2771	-3.9313	-3.3625	288.850	311.081	434.618	477.996	226.634	268.141	495.452	443.458	428.889	438.257	183.575	461.833	386.972	451.591	371.704	353.929	0.00051827	0.0014008	0.00015726	1073.9	7.3063e-06	1.3733e-05	1423.7	347.44	7.463e-06	4.7554e-06	552	183.76	94.921	26.469	7.5544e-06	65.726	0.00095436	0.00097279	0.00026877	1027.7	1.0622e-05	1.0705e-05	1363.9	333.49	1.0552e-05	1.0599e-05	529.13	177.74	92.964	26.196	1.041e-05	63.853	227.795	212.540	207.937	157.238	186.707	327.828	157.500	160.988	307.310	263.778	160.855	164.802	164.654	169.432	256.879	169.755	-8191	255	
40524.359	1	1	0	0	0.12981	0.19089	0.19878	0.11858	0.15406	0.24742	0.16229	0.30102	0.072214	0.10324	0.098938	0.069785	0.12815	0.19358	0.18044	0.27056	-3.0875	-3.8688	-2.9938	-3.9125	-3.6479	-3.1625	-4.1917	-3.6208	-3.525	-3.9604	-3.2146	-3.8229	-3.9708	-3.2292	-3.8979	-3.5646	329.231	383.563	394.410	438.140	330.547	306.589	447.278	424.393	252.953	165.133	394.302	156.901	438.378	328.302	408.227	153.855	0.00058312	0.00086339	0.00015428	1083	6.0677e-06	1.0151e-06	1439.1	350.68	8.3753e-06	3.1506e-06	553.6	184.29	96.026	26.585	3.8494e-06	66.472	0.0008972	0.00092378	0.00025379	1037.8	1.0149e-05	1.0245e-05	1373.7	336.72	1.0213e-05	1.0214e-05	532.37	178.38	93.505	26.288	1.0432e-05	64.439	231.552	285.430	173.625	157.450	274.888	341.962	157.150	160.926	305.507	248.851	160.877	165.080	164.234	169.164	255.830	169.865	-8191	255	
40524.453	1	1	0	0	0.17142	0.084149	0.11888	0.19771	0.31765	0.21866	0.070471	0.36835	0.12169	0.23248	0.049567	0.14307	0.18889	0.28025	0.10815	0.1026	-3.0896	-3.9042	-3.2208	-3.7562	-3.8312	-3.1229	-4.2354	-3.6146	-3.2604	-3.9688	-3.4146	-3.675	-4	-3.2458	-3.9021	-3.6771	253.084	197.263	295.303	416.832	430.683	344.870	312.886	474.828	434.660	436.174	170.429	497.730	381.891	487.185	469.439	146.388	0.00063844	0.00095352	0.0001368	1075	5.1285e-06	1.2711e-06	1430.4	347.09	4.3404e-06	2.8156e-06	552.58	185.01	94.852	26.348	5.5081e-06	66.21	0.00088963	0.00093264	0.00026371	1030.3	1.0153e-05	1.0245e-05	1368.6	333.38	1.0153e-05	1.0237e-05	530.38	178.72	92.933	26.163	1.0366e-05	64.314	230.640	242.561	217.609	157.345	334.857	357.838	157.524	160.569	292.037	336.820	161.064	164.960	164.703	169.457	301.946	170.120	-8191	255	
40524.574	1	1	0	0	0.14233	0.18393	0.10986	0.37313	0.2244	0.14713	0.38357	0.50656	0.18355	0.1086	0.22546	0.10991	0.14068	0.37744	0.12364	0.12484	-2.9333	-3.8167	-3.3667	-3.5979	-4.0958	-3.2125	-3.9958	-3.9125	-3.1667	-4.0958	-3.5146	-3.6625	-4.0167	-3.0958	-3.9125	-3.8396	157.374	389.282	282.751	155.162	460.599	244.493	418.471	418.348	467.622	211.722	403.914	292.065	436.477	157.815	479.789	362.114	0.00063017	0.00017285	0.00027852	1075	4.1609e-06	3.1938e-06	1432.9	349.04	6.1644e-06	5.8436e-06	555.74	185.06	96.822	26.625	6.8317e-06	65.949	0.00088847	0.00092163	0.0002564	1029.7	9.9332e-06	1.0017e-05	1371.3	335.55	9.7898e-06	9.9763e-06	532.85	178.41	93.852	26.192	1.0094e-05	64.131	220.768	232.242	202.389	157.299	249.976	273.364	157.610	160.845	277.929	198.248	161.020	164.943	164.391	168.974	252.498	169.645	-8191	255	
40524.672	1	1	0	0	0.18962	0.14388	0.071799	0.40942	0.23289	0.28397	0.23231	0.14754	0.20346	0.10066	0.34063	0.15098	0.28985	0.088212	0.061577	0.074353	-2.8958	-3.9083	-3.3708	-3.5104	-3.8521	-3.2313	-3.8604	-3.8542	-3.3167	-3.8229	-3.5687	-3.5667	-4.0667	-3.3583	-3.5667	-3.9458	263.810	291.468	268.255	408.292	413.008	498.202	454.476	494.044	312.778	252.824	467.987	158.791	272.750	205.509	368.561	459.008	0.00069963	0.0006235	0.00014131	1087.8	7.7286e-06	1.0314e-05	1434.1	350.6	6.4103e-06	4.8735e-06	553.02	185.88	96.255	26.676	6.0542e-06	66.296	0.00086567	0.00091789	0.00025418	1039.6	9.9427e-06	1.0197e-05	1373.1	336.22	1.0047e-05	1.0305e-05	532.27	178.97	93.59	26.292	1.0305e-05	64.479	222.035	389.649	224.712	157.415	291.435	288.456	157.417	160.757	340.138	339.896	161.020	164.801	164.572	169.182	274.444	170.170	-8191	255	
40524.766	1	1	0	0	0.1599	0.34079	0.072829	0.27895	0.22898	0.30723	0.23155	0.38455	0.19517	0.093777	0.10547	0.18514	0.06166	0.18331	0.05198	0.19037	-2.9542	-3.8937	-3.5625	-3.3021	-3.925	-3.1146	-3.8104	-4.1208	-3.1083	-3.9208	-3.7812	-3.4708	-3.9979	-3.2562	-3.5312	-3.9729	154.335	150.452	254.174	323.563	480.070	416.985	376.676	426.314	144.852	470.582	380.319	434.165	450.390	479.638	320.895	201.380	0.00065039	0.00069185	0.00019687	1084	1.2007e-05	7.5741e-06	1430.9	348	3.2384e-06	1.1539e-05	552.78	185.5	95.795	26.625	9.6725e-06	66.329	0.00088723	0.00093463	0.00025711	1037.4	9.9985e-06	1.0431e-05	1371.9	334.94	1.0243e-05	1.0474e-05	531.72	178.73	93.424	26.352	1.0537e-05	64.295	220.833	234.913	200.112	157.267	278.885	323.557	157.361	161.106	260.820	235.815	160.980	164.883	164.413	168.988	317.013	169.593	-8191	255	
40524.863	1	1	0	0	0.16961	0.10057	0.016477	0.18253	0.087381	0.39698	0.20803	0.12042	0.072272	0.066619	0.092198	0.25145	0.20111	0.13171	0.10937	0.0050591	-2.7979	-3.8312	-3.725	-3.4021	-3.9583	-3.2979	-3.675	-4.0292	-3.1167	-3.7604	-3.9667	-3.3021	-4.0771	-3.4896	-3.3958	-4.1583	263.312	300.601	316.924	399.443	333.046	144.374	464.793	461.880	399.777	413.401	453.624	151.329	457.035	457.629	260.759	289.394	0.00058721	0.00054121	6.2341e-05	1075.6	6.5463e-06	5.9103e-06	1436.9	346.81	4.9351e-06	9.4464e-06	554.92	184.88	95.491	26.74	8.9188e-06	66.248	0.00093447	0.00097911	0.00027022	1031.5	1.0433e-05	1.0545e-05	1370.2	333.8	1.0711e-05	1.0745e-05	532.79	178.72	93.605	26.417	1.0553e-05	64.65	225.015	397.398	177.088	157.293	243.779	260.455	157.689	160.545	251.790	239.996	161.063	164.584	164.266	169.243	329.209	169.991	-8191	255	
40524.961	1	1	0	0	0.19513	0.19291	0.12625	0.018823	0.22584	0.12376	0.14832	0.32238	0.21625	0.057991	0.14315	0.071186	0.14628	0.094055	0.15257	0.17514	-2.9437	-3.5875	-3.8167	-3.3396	-3.8375	-3.4729	-3.5729	-3.9104	-3.1437	-3.75	-4.0854	-3.4729	-4.0167	-3.5729	-3.2708	-4.1813	385.857	150.612	315.095	294.376	497.186	387.578	441.769	498.870	326.031	422.533	439.904	405.279	296.796	428.664	468.202	366.992	0.00056015	0.00041684	0.00017242	1085.7	4.7025e-06	2.6382e-06	1442.5	348.99	7.4702e-06	4.1145e-06	555.86	186.25	95.858	26.73	7.846e-06	66.69	0.00093276	0.00097151	0.00027167	1037.6	1.0641e-05	1.098e-05	1376.8	335.16	1.0757e-05	1.0995e-05	533.77	179.77	93.689	26.484	1.0808e-05	64.964	225.584	263.345	237.292	157.107	201.885	487.465	157.335	161.017	248.927	284.799	160.954	164.955	164.028	169.258	330.580	169.912	-8191	255	
40525.055	1	1	0	0	0.067137	0.18584	0.063752	0.19918	0.064163	0.17745	0.27261	0.37687	0.28243	0.051034	0.21691	0.18248	0.062558	0.21169	0.3205	0.14605	-3.0271	-3.5583	-3.8063	-3.3375	-3.8292	-3.6708	-3.4979	-4.1562	-3.1854	-3.4938	-3.9729	-3.275	-3.8146	-3.5521	-3.0229	-4.175	235.106	290.734	499.205	401.530	401.118	432.326	404.929	449.379	491.782	419.171	403.295	392.214	348.721	195.956	374.148	467.081	0.00059144	0.00032656	0.00019061	1078.4	5.6548e-06	9.012e-06	1432.8	346.28	6.8874e-06	5.0561e-06	552.09	185.56	95.901	26.456	4.2276e-06	67.172	0.00093642	0.00098904	0.00027328	1035.3	1.0855e-05	1.1037e-05	1374.5	334.69	1.092e-05	1.1155e-05	532.21	179.27	93.628	26.481	1.0869e-05	64.955	226.050	482.827	185.318	157.298	256.438	343.423	157.489	160.695	306.846	237.088	161.070	165.019	164.791	169.232	303.925	169.633	-8191	255	
40525.176	1	1	0	0	0.25455	0.23267	0.12584	0.38385	0.13406	0.3235	0.041376	0.34791	0.19113	0.15948	0.079617	0.10797	0.13446	0.20558	0.13856	0.13935	-3.0271	-3.3708	-3.9208	-3.1813	-3.775	-3.7583	-3.5354	-4.0625	-3.4021	-3.4979	-4.0833	-3.4271	-3.7708	-3.825	-3.2292	-4.1896	170.126	212.169	461.141	445.981	470.977	448.311	487.105	437.241	290.600	456.600	356.657	174.044	416.879	465.086	323.651	478.738	0.000701	0.0010084	0.000199	1083.1	7.75e-06	6.6156e-06	1433.3	348.63	9.7939e-07	2.3462e-06	557.53	187.34	96.143	26.774	1.2994e-06	67.084	0.00097448	0.00096821	0.00027255	1035.5	1.0682e-05	1.0716e-05	1373.8	336.07	1.0609e-05	1.0647e-05	534.61	180.07	93.83	26.566	1.0582e-05	65.405	228.588	276.745	241.316	157.335	307.728	285.072	157.525	160.730	388.285	290.217	160.785	165.089	164.273	168.831	335.926	169.862	-8191	255	
40525.273	1	1	0	0	0.17374	0.20036	0.26408	0.17121	0.11024	0.14203	0.16726	0.15361	0.20381	0.18777	0.31081	0.065379	0.32711	0.22056	0.11005	0.1816	-3.1979	-3.2854	-4.0083	-3.3812	-3.4917	-3.8083	-3.2917	-3.9729	-3.3833	-3.1771	-4.2271	-3.3563	-3.6729	-3.9479	-2.9896	-4.1396	490.168	163.204	241.663	414.319	321.818	430.409	307.676	415.353	482.796	151.886	438.412	472.352	479.864	483.621	279.903	420.743	0.00059265	0.0010267	0.00027421	1085.3	7.5445e-06	6.9193e-06	1446.1	350.66	2.2961e-06	5.8983e-06	560.29	186.84	96.526	27.087	7.265e-06	67.988	0.00094482	0.00096864	0.00026952	1043.5	1.0533e-05	1.0652e-05	1382.8	337.07	1.0708e-05	1.0628e-05	537.22	180.87	94.143	26.736	1.0415e-05	65.791	231.963	258.794	194.565	156.849	312.147	294.370	157.336	160.787	213.859	307.836	160.887	165.251	164.256	169.634	230.525	169.418	-8191	255	
40525.367	1	1	0	0	0.12643	0.29035	0.1368	0.33767	0.23999	0.14497	0.18951	0.14003	0.17697	0.14546	0.085091	0.083043	0.080181	0.16286	0.19095	0.21986	-3.1813	-3.1396	-3.9229	-3.2562	-3.6396	-3.8812	-3.2854	-3.9333	-3.5812	-3.2188	-4.1583	-3.2562	-3.3354	-4.0042	-3.1729	-3.9062	224.443	325.903	388.231	492.514	499.950	249.100	401.534	446.494	206.070	417.370	332.876	481.205	493.194	311.337	403.062	481.460	0.00055261	0.00094869	0.00024938	1093.5	7.5136e-06	2.2012e-06	1452	353.56	5.6977e-06	4.4482e-06	560.29	188.78	97.446	27.17	9.891e-06	67.854	0.00091384	0.00093933	0.00026513	1048.7	1.0295e-05	1.0386e-05	1386.9	338.68	1.0358e-05	1.0468e-05	538.23	181.49	94.878	26.715	1.0381e-05	65.773	226.552	213.928	204.429	157.324	255.863	248.326	157.290	160.696	275.979	281.297	161.051	164.882	164.335	169.286	288.118	169.636	-8191	255	
40525.465	1	1	0	0	0.12428	0.16752	0.073349	0.16842	0.10351	0.16854	0.17491	0.14165	0.064946	0.16991	0.17662	0.42198	0.040976	0.28536	0.01704	0.21466	-3.4062	-3.1937	-3.9375	-3.5667	-3.3833	-3.9062	-3.3604	-3.7354	-3.775	-3.1813	-4.0979	-3.6	-3.2958	-4.125	-3.2333	-3.6354	332.077	343.633	173.257	440.505	186.489	214.912	427.209	464.134	290.734	270.992	482.794	418.969	246.078	151.421	496.922	290.793	0.00061527	0.0014336	0.0003092	1105.6	8.035e-06	7.7249e-06	1454.3	355.39	1.2905e-06	7.6568e-06	559.76	188.65	97.529	27.365	1.0007e-05	67.386	0.00090929	0.00092282	0.00026303	1056.5	1.0263e-05	1.0278e-05	1392.8	340.17	1.0291e-05	1.0333e-05	539.44	181.76	94.985	26.892	1.0431e-05	65.666	224.513	191.912	182.677	157.295	272.857	267.599	157.263	160.695	417.836	320.075	161.197	164.756	164.390	168.957	311.241	170.221	-8191	255	
40525.535	1	1	0	0	0.19044	0.075072	0.096002	0.021585	0.20133	0.24714	0.25065	0.096565	0.091187	0.047398	0.28143	0.16649	0.24101	0.097612	0.10018	0.096017	-3.6958	-3.0375	-3.9479	-3.7146	-3.2583	-3.9688	-3.4396	-3.6667	-3.9917	-2.9729	-3.9146	-3.6958	-3.1937	-4.2	-3.2583	-3.6021	430.679	358.786	275.670	159.143	342.244	167.739	496.389	374.536	189.349	294.315	412.446	403.625	435.692	188.951	221.671	352.925	0.00056183	0.0003762	5.8745e-05	1104.2	5.6576e-06	1.1013e-05	1457.8	357.28	8.3543e-06	8.6988e-06	567.55	187.84	98.091	27.374	5.2597e-06	67.66	0.00089	0.00093454	0.00025778	1061.9	1.0124e-05	1.0114e-05	1393.9	342.68	9.9125e-06	1.0254e-05	542.09	181.64	95.575	26.921	1.0205e-05	65.662	224.528	292.521	256.560	157.225	288.664	283.540	157.371	160.316	286.704	229.703	160.718	164.945	164.477	169.248	301.869	169.752	-8191	255	
40525.652	1	1	0	0	0.18561	0.16485	0.08704	0.057309	0.18423	0.094486	0.29473	0.32365	0.13951	0.31692	0.18809	0.10953	0.15745	0.094273	0.12354	0.40507	-3.6792	-3.2167	-3.7083	-3.8333	-3.2542	-3.9167	-3.5563	-3.575	-4.0542	-3.2479	-3.9062	-3.9562	-3.1708	-4.0646	-3.3125	-3.5479	332.740	187.735	238.105	310.043	355.281	467.025	417.306	456.596	247.229	350.600	444.690	483.761	205.008	386.352	327.979	442.250	0.00064364	0.00062974	0.00024112	1119.8	4.7982e-06	7.1731e-06	1468.5	361.17	2.9698e-06	7.9243e-06	568.46	190.15	99.555	27.506	8.2278e-06	67.924	0.00091282	0.00093535	0.00025873	1073.5	1.0009e-05	1.0431e-05	1404.4	345.95	1.016e-05	1.0409e-05	544.07	182.67	96.386	27.148	1.0556e-05	66.104	226.471	218.273	256.018	157.540	307.326	223.874	157.565	160.625	327.660	326.932	161.001	165.040	164.636	169.333	274.810	169.911	-8191	255	
40525.750	1	1	0	0	0.010642	0.25174	0.080388	0.23984	0.25189	0.074333	0.27423	0.41272	0.2823	0.021193	0.19298	0.11496	0.13516	0.12945	0.13143	0.18297	-3.6646	-3.1042	-3.7062	-3.8937	-3.2042	-4.1	-3.6375	-3.4104	-4.0854	-3.3375	-3.8271	-4.025	-3.1708	-3.8979	-3.5958	-3.4479	345.754	187.607	194.926	433.874	467.253	164.581	413.150	172.051	378.121	224.642	445.268	436.745	367.064	322.671	431.293	363.999	0.0006184	0.00062511	0.00016285	1120.4	5.8853e-06	6.2006e-06	1462.8	358.94	4.0916e-06	1.0228e-05	566.05	189.02	98.532	27.359	4.3795e-06	67.745	0.0009255	0.00094642	0.00026903	1073.7	1.0463e-05	1.077e-05	1401.4	344.75	1.0504e-05	1.0625e-05	543.48	182.68	96.189	27.053	1.0632e-05	65.871	222.412	149.327	230.577	157.265	310.315	252.783	157.620	160.734	284.712	273.248	160.797	164.921	164.583	169.343	239.852	169.515	-8191	255	
40525.848	1	1	0	0	0.17327	0.14872	0.040479	0.038494	0.037193	0.039385	0.27109	0.13834	0.1189	0.16045	0.10318	0.18643	0.12238	0.14915	0.20131	0.19128	-3.775	-3.1083	-3.5833	-4.1083	-3.1958	-3.9104	-3.7042	-3.3354	-4	-3.4958	-3.6104	-3.9875	-3.1146	-3.8625	-3.7354	-3.2917	280.639	360.844	428.166	228.532	404.485	437.994	421.590	287.004	192.904	360.054	142.626	481.475	205.119	402.546	169.858	462.681	0.00063702	0.0014848	0.00016194	1119.9	3.0085e-06	8.5232e-06	1462.2	361.32	2.6926e-06	2.7637e-06	563.83	188.96	98.288	27.352	6.1535e-06	67.239	0.00092993	0.0009739	0.00026974	1072.9	1.0635e-05	1.0815e-05	1400.9	345.36	1.0984e-05	1.1088e-05	540	181.76	95.729	27.035	1.1083e-05	65.336	219.881	205.423	171.037	157.279	209.670	318.056	157.391	160.415	286.382	281.053	160.794	165.006	164.468	169.177	226.608	169.640	-8191	255	
40525.941	1	1	0	0	0.17689	0.084025	0.13707	0.25806	0.092339	0.10378	0.12759	0.24801	0.056201	0.17502	0.20182	0.24672	0.31149	0.12734	0.099881	0.10204	-3.5021	-3.3083	-3.3458	-4.0542	-3.1104	-3.6021	-4.0062	-3.15	-3.8542	-3.3854	-3.6354	-4.1125	-3.3167	-3.6521	-3.7021	-3.2479	313.633	490.431	166.797	480.254	271.325	152.549	338.608	169.192	205.126	340.904	337.388	502.320	481.191	194.674	418.077	456.523	0.00057761	0.0012169	0.0002066	1111.2	4.6421e-06	7.3824e-06	1448.5	356.92	3.2007e-06	2.4417e-06	563.04	187.31	97.886	26.997	1.3939e-05	67.397	0.00098377	0.0010252	0.00027892	1063.4	1.0924e-05	1.117e-05	1388.7	342.46	1.1206e-05	1.1201e-05	539.61	181.26	95.119	26.854	1.1246e-05	65.402	223.605	247.340	253.139	157.299	240.716	272.630	157.368	160.784	317.619	273.101	160.610	165.017	164.574	169.296	302.636	169.948	-8191	255	
40526.062	1	1	0	0	0.34981	0.1141	0.15284	0.31428	0.18329	0.20444	0.13142	0.17714	0.22008	0.096669	0.2986	0.15671	0.36422	0.055645	0.11538	0.10663	-3.6125	-3.3958	-3.4146	-4.3562	-3.3021	-3.5896	-4.1271	-3.3	-3.9417	-3.5771	-3.2313	-4.1333	-3.2	-3.6958	-3.9	-3.1979	252.307	315.639	216.375	465.152	415.180	148.938	368.225	465.938	435.272	398.551	358.735	152.728	180.865	379.972	184.076	172.535	0.00064665	0.00036558	0.0001862	1106.3	7.3597e-06	3.781e-06	1456	354.83	5.5434e-06	5.5986e-06	561.12	188.07	97.175	27.135	1.0474e-05	66.802	0.00098519	0.0010239	0.0002809	1062.5	1.0915e-05	1.119e-05	1389.3	341.15	1.1227e-05	1.1165e-05	538.35	181.1	94.999	26.775	1.116e-05	65.093	227.074	225.873	198.253	157.380	282.847	311.691	157.621	160.570	273.507	274.556	160.908	164.882	164.856	169.238	311.539	169.605	-8191	255	
40526.160	1	1	0	0	0.2606	0.099336	0.10365	0.20059	0.19891	0.15607	0.20394	0.24271	0.10988	0.15066	0.061936	0.3173	0.2649	0.37831	0.13181	0.21937	-3.5896	-3.5292	-3.2958	-4.1562	-3.3833	-3.5625	-4.1042	-3.3333	-3.7167	-3.6813	-3.3604	-4.0375	-3.4479	-3.3479	-3.9	-3.275	301.562	230.631	305.838	447.976	350.052	481.472	408.078	434.966	467.032	250.316	417.437	456.377	196.296	468.664	451.665	427.793	0.00061454	0.00071461	8.5284e-05	1111.8	9.1373e-06	3.2494e-06	1453.5	352.65	6.9957e-06	1.1974e-05	559.68	188.12	97.204	26.86	5.0446e-06	66.796	0.00098053	0.0010069	0.00028138	1064.5	1.1018e-05	1.1189e-05	1390.5	340.67	1.1281e-05	1.132e-05	538.35	180.9	94.946	26.765	1.1293e-05	65.175	223.404	294.740	336.602	157.421	319.644	280.586	157.768	160.897	280.240	311.528	160.994	164.577	164.220	169.230	293.658	169.600	-8191	255	
40526.258	1	1	0	0	0.086275	0.015706	0.18268	0.14076	0.29372	0.027482	0.2243	0.10405	0.11563	0.11533	0.30578	0.16756	0.21515	0.11005	0.12266	0.23381	-3.3917	-3.7396	-3.0563	-4.2625	-3.3917	-3.4167	-4.1625	-3.3479	-3.5563	-3.8146	-3.2083	-3.9313	-3.4896	-3.3271	-3.9	-3.5042	299.987	447.960	224.626	493.128	269.576	387.648	426.035	437.101	373.661	326.321	464.615	416.611	181.445	446.598	433.993	430.124	0.0007041	0.00049083	2.8757e-05	1102.1	2.183e-06	3.9171e-06	1444.5	353.45	6.5626e-06	4.3751e-06	559.05	187.07	97.892	26.945	8.256e-06	66.883	0.00098677	0.0010182	0.00028605	1059	1.1253e-05	1.107e-05	1385.7	339.67	1.1e-05	1.1148e-05	535.79	180.35	94.808	26.606	1.1172e-05	64.973	226.457	153.231	252.158	157.277	254.375	306.758	157.558	160.739	305.337	321.634	161.002	165.044	164.318	169.254	231.239	169.795	-8191	255	
40526.352	1	1	0	0	0.083235	0.2194	0.36272	0.13892	0.10506	0.074133	0.23209	0.35553	0.16262	0.10945	0.088949	0.15803	0.22919	0.18236	0.13128	0.22015	-3.2333	-3.8187	-3.1604	-4.0958	-3.4875	-3.2042	-4.15	-3.425	-3.3812	-3.9062	-3.2979	-3.8104	-3.75	-3.375	-3.9313	-3.4229	227.571	156.108	239.128	427.420	307.040	445.416	472.689	418.538	303.990	169.414	448.570	436.546	426.154	313.773	462.699	205.448	0.00057347	0.0001836	0.00011228	1100.9	5.324e-06	5.1094e-06	1440.2	351.83	1.2123e-06	5.955e-06	557.69	185.97	97.287	26.913	5.5462e-06	66.441	0.00096287	0.0010041	0.00027862	1055.4	1.0833e-05	1.1045e-05	1381.5	339.04	1.0904e-05	1.0999e-05	535.21	179.3	94.56	26.521	1.0892e-05	64.632	223.421	165.863	269.328	157.456	254.927	322.640	157.640	160.758	366.698	232.728	160.808	165.162	164.886	169.209	282.892	169.885	-8191	255	
40526.449	1	1	0	0	0.22622	0.099239	0.10219	0.29566	0.27574	0.27696	0.31734	0.34409	0.18537	0.22001	0.2657	0.094784	0.23305	0.04975	0.13276	0.14384	-3.2208	-3.8479	-3.0021	-3.9146	-3.6875	-3.0833	-4.0958	-3.4313	-3.5458	-3.9521	-3.2646	-3.7667	-3.8479	-3.0229	-3.9646	-3.4083	371.991	462.923	285.438	399.646	173.586	449.844	401.405	435.593	401.607	157.037	480.550	273.690	179.644	365.153	191.354	464.278	0.00066586	0.00030884	0.0001114	1098.4	6.0157e-06	3.7708e-06	1436.8	353.3	2.083e-06	2.8405e-06	554.29	185.69	96.901	26.755	7.023e-06	65.591	0.00094627	0.00099214	0.00027271	1053.9	1.0554e-05	1.0798e-05	1376.5	339.26	1.0545e-05	1.0628e-05	533.99	179.2	94.191	26.457	1.0373e-05	64.206	218.602	195.243	227.652	157.570	343.559	354.090	157.360	160.714	354.156	364.918	160.716	164.943	164.663	169.324	311.263	169.692	-8191	255	
40526.543	1	1	0	0	0.11331	0.10935	0.099267	0.21062	0.10057	0.24348	0.11603	0.34679	0.1372	0.29099	0.30507	0.21144	0.20998	0.40976	0.15987	0.27245	-3.0687	-3.9729	-3.2562	-3.8312	-3.8083	-3.2458	-4.0521	-3.5333	-3.2062	-3.8979	-3.3563	-3.7792	-3.8042	-3.2583	-3.9771	-3.7938	386.507	456.145	260.098	487.232	184.415	248.810	349.614	500.271	289.788	487.035	501.479	167.171	439.625	308.857	470.672	425.014	0.00061632	0.0010107	0.00026768	1098.1	1.0254e-05	5.2043e-06	1446.9	354.42	5.821e-06	6.7486e-06	560.82	185.74	96.949	26.748	9.5828e-06	66.038	0.00087558	0.00092069	0.00025428	1052.5	9.8005e-06	1.0004e-05	1381.5	340.19	9.8235e-06	9.8003e-06	535.98	178.96	94.23	26.388	9.5572e-06	64.043	225.610	240.039	216.491	157.399	272.335	184.601	157.533	160.769	314.326	274.423	160.723	164.296	164.210	169.092	287.796	169.918	-8191	255	
40526.664	1	1	0	0	0.1244	0.072331	0.2974	0.10484	0.080275	0.21258	0.11937	0.092315	0.26555	0.19146	0.42357	0.26322	0.23856	0.092498	0.34096	0.20328	-2.7687	-4.2125	-3.1917	-3.7583	-3.8021	-3.2062	-4.0375	-3.7792	-3.2438	-4.025	-3.4729	-3.55	-3.9354	-3.2188	-3.5563	-3.9125	351.009	413.051	197.945	449.971	411.338	167.041	438.039	437.477	486.145	246.399	430.347	389.995	185.082	371.653	146.303	425.418	0.0005416	0.00020707	0.00010353	1109.7	5.2718e-06	5.6437e-06	1440.3	356.03	5.4449e-06	5.3658e-06	560.1	185.49	97.983	26.779	1.4066e-05	67.217	0.00085059	0.00087559	0.00024123	1058.5	9.2904e-06	9.3331e-06	1381.8	340.97	9.2518e-06	9.3962e-06	535.05	179.01	94.413	26.421	9.1398e-06	64.786	216.651	401.805	230.612	157.345	296.298	295.568	157.382	161.113	281.539	323.919	160.631	164.977	164.425	169.149	278.444	169.961	-8191	255	
40526.758	1	1	0	0	0.14666	0.10446	0.23833	0.22091	0.060631	0.18793	0.065701	0.065827	0.034157	0.12667	0.12339	0.31478	0.38374	0.20215	0.15811	0.28093	-2.7292	-4.0542	-3.3583	-3.4979	-3.9417	-3.2958	-4.0917	-3.9875	-3.2062	-4.0042	-3.6833	-3.4	-4.1125	-3.2625	-3.5938	-4.0104	206.160	359.371	219.619	418.121	297.643	288.876	361.043	339.464	252.051	253.851	372.403	469.668	156.001	472.007	395.659	212.849	0.00063344	0.00023161	0.00013444	1093.2	2.6616e-06	7.7722e-06	1431.5	348.59	8.4975e-06	2.371e-06	554.41	185.96	95.643	26.897	3.1993e-06	67.222	0.00082943	0.00083133	0.0002334	1045.1	9.0708e-06	9.3607e-06	1369.5	334.52	9.4551e-06	9.5814e-06	531.36	179.16	92.98	26.401	9.7537e-06	64.968	227.512	222.163	236.511	157.441	294.929	300.949	157.102	161.131	290.039	274.427	161.104	164.714	164.547	169.704	267.651	169.677	-8191	255	
40526.832	1	1	0	0	0.30625	0.1256	0.011327	0.34859	0.076705	0.20779	0.25796	0.18461	0.087202	0.080745	0.058617	0.057153	0.25197	0.23996	0.16672	0.12904	-2.8354	-3.925	-3.6125	-3.3646	-3.9479	-3.275	-3.7125	-4.1042	-3.0563	-3.8604	-3.7333	-3.3604	-4.0125	-3.3271	-3.6333	-3.9854	465.547	352.545	452.753	457.506	366.452	417.951	467.694	343.830	272.692	212.227	446.923	177.278	150.583	152.485	344.122	410.580	0.00057924	0.00091387	0.00020694	1068.6	1.8621e-06	3.9118e-06	1425	345.12	3.8297e-06	3.7121e-06	550.27	185.41	95.262	26.652	7.2088e-06	66.908	0.00085572	0.00088421	0.00024188	1025.7	9.6332e-06	9.8968e-06	1358.4	330.55	9.6667e-06	9.8431e-06	529.01	178.63	92.832	26.327	9.8083e-06	64.87	218.859	196.946	249.136	157.256	496.517	279.666	157.226	160.956	301.671	493.059	160.877	164.721	164.406	168.973	319.719	169.867	-8191	255	
40526.953	1	1	0	0	0.23297	0.15009	0.1856	0.17432	0.13283	0.067901	0.24381	0.24353	0.14678	0.1937	0.089452	0.12951	0.16362	0.18412	0.060652	0.082704	-2.7771	-3.8083	-3.6042	-3.3396	-3.9562	-3.3312	-3.8937	-4.0583	-3.1479	-3.8854	-3.975	-3.3042	-4.2375	-3.4917	-3.4542	-4.1458	175.229	416.866	189.932	437.562	288.321	224.026	404.056	436.347	498.310	360.529	415.595	465.390	454.419	439.492	254.045	438.628	0.00058961	0.00097322	6.4851e-05	1058.5	8.4546e-06	4.4948e-06	1408.2	340.12	6.0627e-06	4.2891e-06	551.27	185.22	94.66	26.569	6.8355e-06	67.417	0.00086916	0.00088291	0.00024056	1015	9.5119e-06	9.6526e-06	1350	327.73	9.7223e-06	9.6218e-06	527.26	178.54	91.846	26.137	9.4963e-06	65.209	222.002	235.719	242.130	157.337	313.085	300.764	157.355	160.867	298.269	153.781	161.028	164.809	164.373	169.653	219.188	169.762	-8191	255	
40527.047	1	1	0	0	0.36309	0.075875	0.30026	0.33175	0.18197	0.04914	0.072126	0.29998	0.2827	0.20417	0.12584	0.12124	0.04855	0.12553	0.09294	0.12877	-2.825	-3.7687	-3.7896	-3.4062	-4.0563	-3.5187	-3.6375	-4.1354	-3.3292	-3.5875	-3.9833	-3.3042	-3.9354	-3.65	-3.3042	-4.2	475.064	494.299	474.852	494.189	490.925	288.664	455.462	501.222	372.585	494.171	494.957	382.709	485.317	426.999	359.227	439.078	0.00058761	0.0008836	0.00015324	1056.7	8.0485e-06	6.3769e-06	1409.2	342.27	8.2805e-06	1.5492e-06	554.07	186.36	95.057	26.727	2.9007e-06	67.966	0.00086017	0.00086574	0.00023977	1011.8	9.3712e-06	9.3266e-06	1347.7	327.55	9.1514e-06	9.2083e-06	529.23	179.49	92.191	26.306	9.1666e-06	65.959	227.167	268.458	216.020	157.147	328.191	300.575	157.231	160.852	272.313	265.862	161.040	164.832	164.664	169.505	190.882	169.940	-8191	255	
40527.145	1	1	0	0	0.089574	0.044336	0.17886	0.022483	0.17324	0.078141	0.18969	0.155	0.15117	0.31076	0.35793	0.11526	0.46133	0.092714	0.14065	0.35741	-3.0312	-3.5687	-3.7771	-3.2479	-3.75	-3.7542	-3.5021	-4.2312	-3.3292	-3.6417	-3.9375	-3.3333	-4.0146	-3.7542	-3.25	-4.1333	223.510	249.139	195.335	475.041	275.411	362.611	187.560	386.962	190.233	378.561	461.855	350.414	498.073	453.086	173.871	435.972	0.0005809	0.00044562	0.00025745	1071.9	7.3901e-06	5.7418e-06	1432.6	343.1	2.1136e-07	3.8735e-06	552.41	187.26	95.381	26.9	3.1694e-06	68.785	0.00081404	0.00083311	0.00023235	1024.7	9.2283e-06	9.2926e-06	1368.4	327.54	9.525e-06	9.4516e-06	529.25	180.65	92.577	26.529	9.6574e-06	66.341	226.986	226.988	203.207	157.409	255.244	248.105	157.492	160.494	377.201	264.614	161.086	164.958	164.524	169.556	249.486	170.190	-8191	255	
40527.238	1	1	0	0	0.13102	0.077251	0.12376	0.21156	0.20543	0.11369	0.16197	0.31703	0.017235	0.15175	0.34801	0.16251	0.068334	0.10724	0.16551	0.24407	-3.0521	-3.4437	-3.9208	-3.2938	-3.8396	-3.8063	-3.3958	-4.1083	-3.4771	-3.3021	-3.9229	-3.4562	-3.7396	-3.875	-3.1875	-3.9042	462.300	470.297	179.978	169.850	491.032	187.062	432.643	396.689	384.947	189.556	143.422	496.228	206.301	146.070	478.607	455.504	0.00057703	0.0010505	0.00021535	1062.2	1.1639e-05	3.718e-06	1431.3	340.88	5.2216e-06	4.5431e-06	551.41	186.57	94.47	26.757	5.0476e-06	66.917	0.00086071	0.00087369	0.00024639	1016	9.5981e-06	9.5126e-06	1364.1	326.77	9.3942e-06	9.5844e-06	527.74	179.5	92.363	26.214	9.7122e-06	64.908	225.569	208.262	278.535	157.170	281.619	311.752	157.306	160.809	280.383	205.405	160.645	164.993	164.171	169.156	265.332	169.697	-8191	255	
40527.359	1	1	0	0	0.13513	0.17255	0.16545	0.11593	0.15508	0.30608	0.29834	0.15454	0.20276	0.14189	0.20047	0.33257	0.053639	0.1872	0.12103	0.14092	-3.2062	-3.2583	-4.0458	-3.4667	-3.5583	-3.8875	-3.4417	-4.0437	-3.6833	-3.2229	-4.1375	-3.3292	-3.7208	-4.0125	-3.0958	-4.0729	245.385	271.624	466.873	188.618	214.621	377.879	411.787	472.787	464.077	401.435	492.625	421.942	302.600	433.027	230.085	395.516	0.00070047	0.00092984	0.00012216	1065.2	5.1948e-06	1.3994e-05	1430	346.19	2.4236e-06	8.6921e-06	553.31	183.46	95.365	26.241	7.5664e-06	65.922	0.00086231	0.00086966	0.00025271	1020.9	9.7103e-06	1.008e-05	1366.8	332.48	1.0019e-05	1.0494e-05	529.55	177.83	93.142	26.138	1.0471e-05	63.652	227.343	286.849	163.670	157.601	385.201	246.414	157.356	160.233	272.218	361.159	160.607	164.901	164.446	169.401	255.119	169.766	-8191	255	
40527.453	1	1	0	0	0.32841	0.094265	0.05901	0.082095	0.17117	0.25281	0.10991	0.12593	0.17918	0.22744	0.218	0.27036	0.016499	0.15202	0.20354	0.33637	-3.2396	-3.225	-4.1042	-3.5292	-3.5021	-3.9521	-3.2917	-4.0604	-3.7167	-3.2917	-4.0729	-3.425	-3.6146	-4.0208	-3.2542	-3.8417	194.643	458.702	250.910	479.761	340.146	225.239	493.620	197.099	423.102	500.433	439.196	456.906	407.219	145.057	496.794	343.417	0.00056362	0.00072848	0.00018909	1080.4	1.1893e-05	5.5026e-06	1432.2	350.06	5.739e-06	4.4335e-06	550.56	183.47	96.608	26.573	8.9525e-06	64.985	0.00091606	0.00096002	0.00026652	1033.8	1.0267e-05	1.0775e-05	1368.6	337.42	1.0632e-05	1.0937e-05	529.61	177.32	93.903	26.211	1.082e-05	63.218	225.102	247.354	237.203	157.112	295.071	265.135	157.341	160.639	243.412	368.040	160.761	164.599	164.118	168.946	297.429	169.342	-8191	255	
40527.527	1	1	0	0	0.089947	0.12668	0.123	0.25208	0.27493	0.14187	0.29647	0.23209	0.061117	0.058421	0.22144	0.17986	0.15293	0.047117	0.12548	0.43307	-3.3771	-3.1854	-4.0604	-3.6813	-3.4271	-4.1438	-3.3625	-3.775	-3.925	-3.2917	-4.1146	-3.7188	-3.5917	-4.0563	-3.3042	-3.8292	441.424	328.725	375.493	491.358	438.662	214.390	419.763	451.685	465.126	339.790	497.372	469.123	439.867	179.441	343.879	432.167	0.00052806	0.00071635	0.00033104	1077.9	6.2983e-06	6.0605e-06	1414.6	347.78	3.3508e-06	4.3791e-06	551	182.84	96.324	26.167	3.1011e-06	63.992	0.00095354	0.00099565	0.00027725	1036.1	1.0786e-05	1.1262e-05	1361.8	334.68	1.1007e-05	1.1166e-05	527.97	176.52	93.39	26.01	1.1171e-05	62.527	228.228	228.644	258.355	157.419	341.932	298.220	157.210	160.590	297.091	214.609	160.564	164.878	164.218	169.284	293.461	169.574	-8191	255	
40527.625	1	1	0	0	0.2723	0.15865	0.1135	0.026757	0.14995	0.09723	0.1548	0.18467	0.023865	0.14862	0.18313	0.11176	0.15657	0.27952	0.0071268	0.12906	-3.6396	-3.1854	-3.8542	-3.6583	-3.1125	-4.0813	-3.4479	-3.6458	-3.8521	-3.1479	-3.9271	-4.0042	-3.4437	-3.9813	-3.4729	-3.6125	366.558	347.344	190.364	440.836	413.116	390.353	494.081	451.192	296.596	183.142	428.554	495.875	491.321	175.259	347.900	166.844	0.00057019	0.00023448	7.8048e-05	1085.4	1.1704e-05	8.2342e-06	1427	349.87	8.3517e-06	1.0177e-05	552.98	182.02	95.898	26.132	1.1314e-05	63.704	0.00098605	0.0010278	0.00029004	1039.1	1.1288e-05	1.1802e-05	1365.9	336.56	1.1459e-05	1.184e-05	529.09	175.46	93.875	25.99	1.1514e-05	62.139	220.686	210.238	243.934	157.170	340.585	314.163	157.384	160.407	278.461	293.176	160.685	165.001	164.528	169.011	285.864	169.585	-8191	255	
40527.742	1	1	0	0	0.037422	0.10103	0.076003	0.091713	0.17186	0.19451	0.29683	0.26205	0.1068	0.11093	0.39133	0.065381	0.22379	0.069513	0.088511	0.14755	-3.7625	-3.2479	-3.8521	-3.9417	-3.3458	-4.1583	-3.6292	-3.5354	-3.9042	-3.0542	-3.8896	-4.0146	-3.2958	-4.0687	-3.4104	-3.6542	417.902	288.111	381.311	464.730	224.502	438.315	467.909	436.307	186.166	357.073	489.666	156.788	493.544	420.100	159.777	202.572	0.00051036	0.0010009	0.00018708	1086.9	1.0651e-05	2.4138e-06	1420.8	348.95	8.6789e-06	3.8577e-06	547.08	181.4	95.293	26.129	4.4001e-06	63.815	0.00099812	0.0010384	0.00029034	1043.8	1.1531e-05	1.1858e-05	1367.9	338.06	1.2057e-05	1.2208e-05	529.8	175.86	93.973	26.101	1.2534e-05	62.257	225.360	237.272	186.172	157.261	244.351	262.187	157.277	160.655	251.446	390.639	160.627	164.836	164.624	169.102	302.361	169.581	-8191	255	
40527.840	1	1	0	0	0.3766	0.19193	0.044108	0.093756	0.25929	0.15326	0.19786	0.43594	0.26463	0.1553	0.18676	0.27565	0.15501	0.098928	0.053785	0.022606	-3.8167	-3.2167	-3.7125	-4.125	-3.2208	-4.0292	-3.6979	-3.35	-4.0729	-3.1292	-3.7438	-4.1083	-3.3479	-4.0292	-3.7062	-3.4271	385.724	211.727	360.383	187.942	354.333	264.183	474.431	473.418	197.340	262.524	484.820	148.667	307.350	474.691	437.247	327.944	0.0006265	0.00048532	0.00018691	1075.4	2.0081e-06	6.6233e-06	1419.6	348.91	7.3246e-06	4.1928e-06	548.22	181.82	94.782	26.274	8.4208e-06	63.576	0.0010917	0.0011402	0.00031767	1037.9	1.2434e-05	1.251e-05	1364.8	337.14	1.242e-05	1.2592e-05	528.63	175.34	93.416	26.01	1.2464e-05	62.107	230.639	198.760	202.650	157.287	201.504	324.505	157.426	160.784	273.742	280.104	160.540	164.865	164.319	169.115	232.985	169.277	-8191	255	
40527.938	1	1	0	0	0.22575	0.10216	0.21573	0.020631	0.20237	0.26589	0.131	0.26221	0.32994	0.097263	0.11074	0.022079	0.17993	0.16994	0.19661	0.19792	-3.6896	-3.2771	-3.5021	-4.1042	-3.1542	-3.9896	-3.9938	-3.4062	-4.1438	-3.3667	-3.6854	-4.1021	-3.3771	-3.8646	-3.7313	-3.2208	327.729	431.270	310.535	322.887	206.378	454.311	423.361	472.550	464.373	345.256	328.790	210.625	275.704	212.783	338.696	448.373	0.00060901	0.00072872	0.00014465	1070.9	4.5381e-06	1.0923e-05	1411.6	345.93	7.4137e-06	5.7694e-06	541.94	181.01	93.637	25.981	2.337e-06	64.124	0.0010738	0.0011102	0.00030477	1029.7	1.2154e-05	1.2124e-05	1351.8	332.82	1.2019e-05	1.1946e-05	523.06	174.88	92.133	25.778	1.2048e-05	62.837	222.520	227.535	202.174	157.196	379.338	352.404	157.321	160.707	321.008	306.504	161.000	165.154	164.424	169.364	244.160	169.985	-8191	255	
40528.055	1	1	0	0	0.25584	0.18937	0.096567	0.22576	0.2739	0.1441	0.015332	0.15723	0.066042	0.1029	0.26565	0.10175	0.14069	0.047633	0.053426	0.22805	-3.7167	-3.5396	-3.3125	-4.2125	-3.2438	-3.7021	-4.0417	-3.3958	-4.0375	-3.5083	-3.5604	-4.1479	-3.2333	-3.7646	-3.8771	-3.3187	144.184	337.792	469.714	462.744	462.505	292.327	468.267	474.234	210.021	215.934	475.293	340.967	472.504	264.216	399.701	190.256	0.00060764	0.00042066	0.00022382	1055.5	5.1622e-06	5.6978e-06	1405.6	339.26	3.3539e-06	2.5714e-06	542.48	180.84	92.887	25.883	5.5075e-06	65.289	0.0010461	0.0010785	0.00030668	1016	1.1887e-05	1.1987e-05	1342.6	327.25	1.2129e-05	1.2074e-05	521.79	175.38	91.422	25.83	1.2117e-05	63.717	229.886	217.433	228.832	157.275	210.872	309.782	157.605	160.839	268.369	288.612	160.903	165.030	164.425	169.073	318.736	169.912	-8191	255	
40528.129	1	1	0	0	0.17754	0.34816	0.19929	0.23172	0.14799	0.091049	0.21876	0.1169	0.19034	0.23639	0.12602	0.12439	0.11089	0.13203	0.11047	0.28697	-3.6437	-3.4396	-3.1833	-4.0188	-3.2271	-3.5771	-3.9646	-3.4167	-3.9896	-3.7708	-3.5146	-4.025	-3.3354	-3.5812	-4.1208	-3.2354	265.066	448.988	226.099	149.487	369.038	228.780	398.273	420.663	238.369	232.537	399.152	482.172	380.950	169.940	331.822	445.475	0.00061456	0.00074553	0.00026445	1045.3	6.2543e-06	1.067e-05	1390.5	335.8	5.6563e-06	2.6593e-06	543.26	181.05	92.613	25.854	1.4955e-05	64.912	0.0010748	0.0011234	0.00031321	1006.4	1.2371e-05	1.2438e-05	1339.5	324.56	1.2307e-05	1.2553e-05	521.71	175.7	91.017	25.852	1.2295e-05	63.564	228.382	287.782	231.997	157.340	258.949	299.401	157.687	161.001	303.946	276.144	160.920	165.198	164.297	169.446	320.833	169.560	-8191	255	
40528.223	1	1	0	0	0.17158	0.1608	0.097394	0.17751	0.16118	0.18826	0.12811	0.043727	0.11176	0.045306	0.11158	0.23576	0.1636	0.18868	0.12325	0.14545	-3.6625	-3.7542	-3.1562	-4.0854	-3.4917	-3.3604	-4.2146	-3.2042	-3.7521	-3.8917	-3.6063	-4.1479	-3.5229	-3.4062	-3.9271	-3.4854	210.197	204.897	304.637	502.350	147.399	334.592	467.080	328.193	267.347	205.969	171.706	467.480	147.533	439.113	167.607	310.102	0.00067	0.00036155	0.00013245	1040.1	5.9699e-06	3.6278e-06	1393.8	336.95	8.3056e-06	3.4788e-06	539.33	179.91	92.776	25.687	8.5591e-06	64.019	0.0010748	0.0011195	0.00031591	1003.4	1.2093e-05	1.2349e-05	1337.8	324.89	1.1925e-05	1.2263e-05	519.43	174.42	91.002	25.628	1.2132e-05	62.746	228.840	239.056	280.067	157.157	462.800	213.528	157.532	160.787	267.893	358.801	160.823	165.060	164.383	168.935	250.002	169.678	-8191	255	
40528.344	1	1	0	0	0.064569	0.19745	0.17508	0.30639	0.054254	0.25157	0.27219	0.12569	0.18084	0.074368	0.27407	0.17323	0.15204	0.22002	0.16419	0.28799	-3.2771	-3.8292	-3.2875	-4.1875	-3.475	-3.2375	-4.0604	-3.4542	-3.7333	-3.8729	-3.3479	-4.1333	-3.6104	-3.3146	-4.05	-3.3063	151.754	353.102	146.904	470.050	313.915	339.413	429.341	417.725	345.384	148.057	469.658	453.568	185.062	153.066	255.008	453.834	0.00060142	0.001016	0.00028192	1046.5	5.8439e-06	9.8573e-06	1395.7	339.49	8.8864e-06	6.6167e-06	541.36	179.38	93.076	25.91	6.4641e-06	64.137	0.0010389	0.0010856	0.00030579	1008.7	1.1694e-05	1.1928e-05	1338.1	327.65	1.1753e-05	1.2212e-05	521.22	173.92	91.75	25.727	1.2127e-05	62.627	233.106	278.784	167.318	157.262	286.112	290.103	157.592	160.858	312.175	322.782	160.995	164.647	164.568	169.044	267.317	169.781	-8191	255	
40528.441	1	1	0	0	0.3102	0.20706	0.16096	0.12413	0.3155	0.20482	0.38406	0.2367	0.20863	0.13349	0.20581	0.057909	0.12002	0.10079	0.075408	0.068045	-3.0938	-3.8563	-3.3354	-4.0417	-3.5083	-3.3458	-4.1917	-3.4792	-3.4708	-3.8937	-3.3479	-3.9708	-3.7792	-3.3521	-4.2021	-3.5917	495.375	396.110	381.871	348.283	229.335	204.958	451.873	186.763	330.916	354.664	347.690	491.733	452.017	423.510	179.602	471.945	0.00057089	0.00047869	0.00023466	1049.1	6.1763e-06	5.3635e-06	1393.9	338.92	3.1501e-06	2.4765e-06	538.5	179.39	93.86	25.747	6.0217e-06	64.302	0.0010424	0.0010974	0.00030635	1007.9	1.1694e-05	1.1931e-05	1338.4	326.71	1.1531e-05	1.1721e-05	520.31	174.24	91.582	25.661	1.1415e-05	62.598	228.669	274.941	245.292	157.337	362.819	298.717	157.359	160.663	301.354	284.477	160.867	164.971	164.804	169.342	380.626	169.665	-8191	255	
40528.535	1	1	0	0	0.16979	0.096694	0.25381	0.17528	0.22063	0.19451	0.3704	0.26114	0.25396	0.21624	0.29195	0.052891	0.16542	0.1613	0.30997	0.38974	-3.0917	-4.0229	-3.2875	-3.9208	-3.7667	-3.2687	-4.1417	-3.5062	-3.4833	-3.9208	-3.3542	-3.7958	-3.8146	-3.2104	-3.9896	-3.7333	244.623	433.419	231.570	156.752	251.387	380.031	471.814	387.607	325.101	354.539	470.345	294.170	488.082	422.467	410.916	422.715	0.00062897	0.00086012	9.1027e-05	1053.4	8.3874e-06	9.1839e-06	1400.1	341.28	6.6449e-06	1.6313e-06	541.69	181.39	94.59	25.999	9.019e-06	64.204	0.00097295	0.0010351	0.00028785	1010.9	1.1111e-05	1.1432e-05	1345	329.83	1.1363e-05	1.1614e-05	521.65	174.98	92.332	25.839	1.1565e-05	62.632	222.041	277.269	306.062	157.295	293.170	308.979	157.414	160.631	306.901	189.791	160.809	165.294	164.320	169.364	314.919	169.685	-8191	255	
40528.656	1	1	0	0	0.13279	0.19045	0.35212	0.05988	0.086911	0.27807	0.32613	0.2274	0.14787	0.2213	0.07443	0.29971	0.20407	0.24892	0.17802	0.31602	-2.9917	-3.9562	-3.425	-3.7979	-3.7938	-3.2083	-4.2104	-3.6604	-3.1	-4.025	-3.45	-3.5708	-3.9229	-2.9458	-3.8375	-3.7938	276.509	373.324	254.505	221.399	439.999	307.440	416.677	393.936	217.038	304.231	167.075	482.867	491.038	297.446	260.713	390.997	0.00066861	0.00037182	0.00015492	1060.1	1.9668e-06	6.3433e-06	1407.1	343.13	8.0494e-06	5.8109e-06	543.38	180.05	94.307	25.922	3.1297e-06	63.707	0.0010119	0.0010587	0.0002945	1017.1	1.1561e-05	1.1791e-05	1351.4	330.36	1.176e-05	1.2e-05	523.01	175	92.58	25.884	1.1937e-05	62.401	227.209	184.418	291.892	157.419	225.492	258.466	157.391	160.950	311.123	313.092	160.705	164.447	164.299	168.725	328.478	169.624	-8191	255	
40528.727	1	1	0	0	0.10035	0.15604	0.24692	0.09615	0.096684	0.20446	0.15418	0.18489	0.24325	0.10796	0.24675	0.081255	0.30562	0.21198	0.057564	0.20177	-2.8625	-4.1104	-3.3479	-3.8	-4.2083	-3.2354	-4.1312	-3.8729	-3.2208	-3.9354	-3.3875	-3.6167	-3.9938	-3.2667	-3.7958	-3.8396	388.093	206.276	353.401	158.890	164.119	402.502	344.444	438.182	364.928	469.019	437.165	435.947	450.521	445.742	147.046	360.987	0.00064556	0.00036689	0.00012104	1057.7	2.9514e-06	2.9009e-06	1406.6	343.33	4.9043e-06	3.1455e-06	539.42	180.28	94.799	25.767	7.5783e-06	63.087	0.0010313	0.0010878	0.00030662	1017.3	1.2139e-05	1.2243e-05	1351.8	330.56	1.1915e-05	1.2063e-05	523	174.26	92.87	25.734	1.2277e-05	61.674	220.635	234.964	236.340	157.202	337.712	152.718	157.178	160.863	296.590	228.304	160.973	164.913	164.398	168.961	305.783	169.905	-8191	255	
40528.824	1	1	0	0	0.24541	0.15823	0.082816	0.10904	0.06697	0.028649	0.29851	0.12776	0.082167	0.17405	0.087998	0.26388	0.09757	0.22529	0.20947	0.12011	-2.9354	-3.875	-3.5104	-3.4667	-4.0437	-3.2687	-3.8708	-4.025	-3.1729	-4.0458	-3.6562	-3.4292	-4.1208	-3.5583	-3.7146	-3.9979	188.157	401.228	495.991	264.413	471.087	277.267	491.092	433.973	282.308	271.317	425.358	457.254	424.171	188.311	311.404	171.389	0.00051401	0.0010575	0.00016558	1066.3	3.8692e-06	1.2048e-06	1414.7	345.6	1.1227e-05	8.3141e-06	543.74	179.47	95.615	25.984	8.1803e-06	63.442	0.0010579	0.0011044	0.00030739	1024.4	1.2082e-05	1.2233e-05	1357	333.48	1.2467e-05	1.2498e-05	524.79	174.63	93.795	25.956	1.2544e-05	61.909	229.253	287.340	243.732	156.996	283.054	142.726	157.448	160.698	279.288	324.329	160.626	164.553	164.583	168.646	295.501	169.608	-8191	255	
40528.922	1	1	0	0	0.19972	0.04362	0.20774	0.080174	0.027536	0.15768	0.22523	0.21861	0.036977	0.064899	0.21425	0.37677	0.4748	0.16908	0.10354	0.17956	-2.7604	-3.875	-3.6104	-3.5208	-4.0375	-3.3167	-3.8063	-4.025	-3.3312	-3.8708	-3.7875	-3.3875	-4.1583	-3.4521	-3.4	-4	262.891	476.378	220.826	388.491	227.611	297.718	470.641	430.049	257.055	286.271	492.045	429.871	172.100	445.176	171.057	474.263	0.00053466	0.0008414	9.6487e-05	1068	4.8953e-06	3.3611e-06	1418.1	346.94	1.0537e-05	3.9472e-06	545.24	180.92	96.023	26.129	8.7472e-06	63.358	0.001072	0.0011092	0.0003057	1030.7	1.215e-05	1.2081e-05	1362.2	335.15	1.2308e-05	1.2285e-05	525.65	175.09	93.99	26.024	1.2233e-05	62.048	223.508	243.515	198.498	157.030	257.019	442.381	157.169	160.628	284.216	269.170	160.407	164.653	164.099	168.488	249.551	169.348	-8191	255	
40529.039	1	1	0	0	0.2769	0.15389	0.17281	0.36253	0.092165	0.042765	0.098234	0.20935	0.12572	0.11611	0.24246	0.28821	0.036281	0.031432	0.12375	0.18917	-2.7146	-3.8104	-3.6542	-3.3333	-4.0188	-3.3083	-3.7125	-4.1958	-3.1021	-3.8167	-3.7938	-3.3479	-4.1438	-3.4583	-3.2708	-4.0042	395.464	212.542	295.935	435.032	172.056	280.653	440.347	454.527	471.914	150.171	493.757	454.204	418.087	205.658	159.925	430.535	0.00062737	0.00091056	4.8623e-05	1064.1	8.3629e-06	2.853e-06	1413	345.72	2.659e-06	5.2487e-06	545.8	180.52	94.643	26.013	7.5363e-06	63.157	0.0010576	0.0011025	0.00030585	1027.1	1.171e-05	1.1808e-05	1356.2	332.62	1.1746e-05	1.1701e-05	524.24	174.71	92.658	25.818	1.1755e-05	61.965	228.128	271.384	180.603	157.313	282.908	267.788	157.212	160.733	298.514	248.033	160.524	164.639	163.894	169.288	321.573	169.876	-8191	255	
40529.137	1	1	0	0	0.16859	0.12218	0.092974	0.1029	0.26531	0.23459	0.18658	0.06398	0.28926	0.23452	0.15494	0.34288	0.1693	0.1666	0.026132	0.17472	-2.8625	-3.6146	-3.6729	-3.3917	-3.8958	-3.6688	-3.5396	-4.1771	-3.3104	-3.5604	-4.0333	-3.2188	-3.9583	-3.7167	-3.3417	-4.0917	298.300	485.834	292.808	335.574	306.903	336.206	453.311	253.875	297.076	219.850	402.475	463.021	420.021	197.450	328.083	413.420	0.00057561	0.00065794	0.00013818	1061.9	2.6135e-06	4.5979e-06	1406.7	344.15	6.6016e-06	5.2136e-06	544.46	179.61	94.15	25.659	7.9168e-06	63.243	0.0010339	0.0010673	0.00030112	1022.3	1.1593e-05	1.1629e-05	1347.6	330.68	1.1619e-05	1.1684e-05	522.17	173.58	92.558	25.618	1.1742e-05	61.54	221.956	267.923	249.003	157.073	194.488	447.491	157.179	160.638	279.623	192.662	160.600	164.631	164.325	168.760	238.609	169.569	-8191	255	
40529.234	1	1	0	0	0.032108	0.024816	0.28555	0.1162	0.043982	0.12388	0.38475	0.14538	0.16387	0.059978	0.32914	0.16428	0.28629	0.087872	0.29662	0.026971	-2.9875	-3.5792	-3.7625	-3.1958	-3.8563	-3.5417	-3.3417	-4.0563	-3.4354	-3.475	-4.0687	-3.3187	-3.8833	-3.6583	-3.1312	-4.0354	413.668	161.296	476.030	443.101	259.628	297.951	478.223	416.542	183.504	415.675	479.791	461.613	412.178	177.613	263.076	163.951	0.00064284	0.00025701	0.00016097	1066.6	4.2929e-06	8.5709e-07	1408.4	345.82	8.4245e-06	8.2847e-06	544.1	178.77	95.075	26.117	8.7655e-07	62.649	0.00099113	0.0010618	0.00029841	1025.8	1.1437e-05	1.1805e-05	1349.5	333.42	1.1574e-05	1.1793e-05	523.98	173.39	93.141	25.822	1.1846e-05	61.026	226.321	278.174	215.101	156.994	248.756	190.096	157.250	160.830	283.189	298.870	160.646	164.468	164.374	168.829	402.846	169.351	-8191	255	
40529.328	1	1	0	0	0.13186	0.10622	0.10551	0.29781	0.089577	0.099054	0.50056	0.19162	0.15863	0.13604	0.26339	0.2321	0.15396	0.31914	0.26004	0.14891	-2.9833	-3.425	-3.9146	-3.4646	-3.6479	-3.7687	-3.4188	-4.0875	-3.4542	-3.2604	-4.2354	-3.3146	-3.7896	-3.8771	-3.2958	-4.0437	175.857	373.748	275.664	432.514	470.812	397.535	458.756	462.576	181.727	276.643	436.253	486.446	418.180	153.697	496.678	265.990	0.00057416	0.00056976	0.00029026	1073.6	1.5396e-06	3.9533e-06	1405.5	349.38	7.5677e-06	9.3988e-06	547.65	179.56	94.909	25.831	2.7538e-06	62.154	0.0010247	0.0010724	0.00029934	1034.7	1.1736e-05	1.1951e-05	1354.7	336.52	1.1694e-05	1.2027e-05	524.97	173.46	93.067	25.713	1.1953e-05	60.625	225.271	198.060	266.939	157.141	202.913	261.052	157.330	160.902	257.113	240.564	160.712	164.639	164.028	169.284	355.054	169.232	-8191	255	
40529.426	1	1	0	0	0.076009	0.25836	0.13774	0.5622	0.24581	0.047934	0.27624	0.20887	0.13622	0.14546	0.37892	0.19356	0.1963	0.37649	0.15242	0.11868	-3.1146	-3.2146	-4.125	-3.3187	-3.6208	-4.0083	-3.4417	-4.0583	-3.575	-3.1958	-4.1813	-3.3438	-3.6542	-3.9104	-3.1688	-4.0146	274.825	386.160	301.342	462.801	273.797	328.124	460.486	411.196	299.527	466.755	454.111	497.015	465.715	292.816	178.443	366.919	0.0005336	0.00047056	3.3102e-05	1085.5	4.9175e-06	8.3273e-06	1420.4	350.19	7.1112e-06	7.5825e-06	543.18	177.96	95.15	25.858	5.9398e-06	61.812	0.0010421	0.0010867	0.00030122	1038.7	1.1899e-05	1.2121e-05	1359.2	337.42	1.2003e-05	1.2125e-05	524.56	172.36	93.46	25.672	1.2287e-05	60.297	222.070	499.449	290.731	157.148	226.906	302.057	157.278	160.494	323.794	273.187	160.397	164.606	164.180	168.713	218.769	169.030	-8191	255	
40529.520	1	1	0	0	0.2105	0.15972	0.18483	0.20612	0.21056	0.037341	0.15105	0.15082	0.08321	0.097254	0.18888	0.12875	0.10265	0.22386	0.11568	0.31654	-3.3542	-3.2375	-4.0167	-3.5167	-3.5042	-3.9542	-3.4125	-3.9458	-3.7812	-3.3312	-4.2375	-3.5375	-3.5792	-4.0563	-3.2292	-3.9229	445.932	409.233	340.376	440.945	289.938	195.167	501.298	448.268	383.784	356.412	163.556	417.818	240.615	142.321	172.241	498.686	0.00063639	0.00040186	0.0002402	1073.6	8.3765e-06	8.468e-06	1413.1	349.04	6.0919e-06	2.2653e-06	539.14	176.73	94.362	25.612	1.1361e-05	61.12	0.0010543	0.0011196	0.00031659	1034.3	1.2243e-05	1.2731e-05	1354.1	336.16	1.2829e-05	1.271e-05	520.63	171.61	93.251	25.601	1.2864e-05	59.984	227.006	335.657	238.212	157.179	285.730	356.995	157.177	160.286	330.846	328.656	160.404	164.635	164.005	169.201	329.554	169.108	-8191	255	
40529.617	1	1	0	0	0.13552	0.026722	0.13175	0.18626	0.12648	0.099539	0.20122	0.10554	0.19912	0.09946	0.17536	0.23979	0.15937	0.062227	0.27867	0.14363	-3.4167	-3.2292	-4.0354	-3.4458	-3.3146	-4.0437	-3.4771	-3.9208	-3.8542	-3.3125	-4.2083	-3.4708	-3.4708	-4.2229	-3.2229	-3.8583	171.125	199.057	383.031	424.510	305.148	320.370	463.692	474.405	328.041	464.383	414.047	434.365	457.549	382.113	167.213	438.727	0.00056777	0.0010977	0.00024554	1064	7.3051e-06	9.6016e-06	1403.1	347.04	8.4332e-06	1.0591e-05	537.21	176.96	94.51	25.473	4.0228e-06	60.763	0.0011071	0.0011727	0.00032534	1027.8	1.2625e-05	1.289e-05	1346.7	334.43	1.2851e-05	1.2898e-05	518.59	171.42	92.853	25.508	1.2825e-05	59.706	224.769	252.234	208.198	157.263	317.193	251.720	157.097	160.403	322.784	301.325	160.518	164.502	164.338	169.120	260.399	169.338	-8191	255	
40529.734	1	1	0	0	0.019232	0.30817	0.31947	0.13	0.17597	0.18306	0.21326	0.29777	0.38709	0.23014	0.10225	0.26792	0.23047	0.065579	0.089741	0.13192	-3.7167	-3.0542	-3.9771	-3.8104	-3.3875	-4.0479	-3.4313	-3.6	-4.1708	-3.0667	-3.9792	-3.8583	-3.2604	-3.9437	-3.4125	-3.5125	388.242	483.113	330.990	440.859	482.249	424.717	415.023	447.578	182.679	173.373	400.133	476.519	483.342	440.577	471.477	407.081	0.00059843	0.00099033	0.00014779	1067.8	6.0983e-06	1.0926e-05	1399.6	346.76	5.7449e-06	1.1342e-05	541.78	177.71	95.311	25.356	1.449e-05	61.207	0.0011175	0.0011749	0.00032379	1029.3	1.2543e-05	1.3072e-05	1346.2	336.13	1.3051e-05	1.3031e-05	522.47	172.06	93.57	25.563	1.3413e-05	59.85	227.548	215.151	179.045	157.422	274.336	296.642	157.089	160.457	314.639	284.051	160.211	164.460	164.228	168.658	286.826	169.304	-8191	255	
40529.832	1	1	0	0	0.21382	0.087444	0.10965	0.30559	0.191	0.32393	0.21302	0.37221	0.10298	0.1581	0.11071	0.1124	0.12043	0.099247	0.28135	0.20912	-3.4896	-3.1396	-3.8375	-3.6937	-3.3083	-4.0958	-3.6979	-3.5	-4.0437	-3.1188	-3.9437	-3.9625	-3.2479	-4.0542	-3.3563	-3.5104	499.479	145.450	163.836	402.376	465.167	214.436	458.586	428.079	299.025	323.886	476.552	457.358	169.156	243.496	212.468	473.745	0.00058795	0.00091016	0.00012096	1071.7	2.0904e-06	6.6521e-06	1416.8	349.84	4.845e-06	8.293e-06	540.99	176.82	95.652	25.482	5.6307e-06	61.419	0.0011667	0.0012327	0.00034668	1034.9	1.3357e-05	1.355e-05	1357.7	337.35	1.3855e-05	1.3874e-05	522.2	172.19	94.079	25.652	1.3582e-05	60.081	224.498	219.307	204.588	157.417	327.984	379.778	157.436	160.848	280.191	292.754	160.415	164.612	164.408	169.109	304.044	169.548	-8191	255	
40529.930	1	1	0	0	0.080872	0.095306	0.28928	0.358	0.16787	0.020584	0.32094	0.60804	0.098204	0.2749	0.17364	0.075886	0.060277	0.14767	0.26359	0.35069	-3.6604	-3.1667	-3.5167	-3.8917	-3.2292	-3.9271	-3.7125	-3.4021	-4.0375	-3.3104	-3.7833	-3.95	-3.2167	-3.8521	-3.6229	-3.3438	374.084	380.046	366.385	143.279	328.308	296.195	434.642	446.121	207.327	391.875	439.478	488.321	251.352	432.442	145.326	417.745	0.00067299	0.00072895	0.00011083	1067.5	3.1925e-06	2.8595e-06	1413.5	347.48	3.7912e-06	9.6735e-06	537.06	175.9	95.701	25.575	7.6728e-06	61.048	0.001163	0.0012469	0.00035132	1032.6	1.3653e-05	1.3846e-05	1361	336.62	1.3825e-05	1.4148e-05	521.02	171.62	94.227	25.769	1.4176e-05	59.789	226.671	206.274	306.182	157.374	379.081	361.546	157.271	160.487	242.434	266.820	160.239	164.420	164.373	168.675	362.912	168.966	-8191	255	
40530.023	1	1	0	0	0.18066	0.13638	0.23802	0.27028	0.33025	0.14076	0.2558	0.033201	0.052312	0.07591	0.14096	0.49974	0.092751	0.21388	0.021436	0.17593	-3.5104	-3.1333	-3.4	-4.0062	-2.9188	-3.8312	-3.9104	-3.425	-3.9708	-3.4292	-3.425	-3.9604	-3.2979	-3.8833	-3.7833	-3.2562	452.425	193.248	435.445	433.638	499.866	372.348	443.663	170.018	232.815	317.628	389.250	431.360	500.753	456.271	412.992	502.295	0.00054645	0.00073207	6.7368e-05	1065	9.6093e-06	9.5089e-06	1411.4	347.12	5.7367e-06	4.8658e-06	541.71	176.26	94.636	25.671	7.4242e-06	60.772	0.0011993	0.0012803	0.00035421	1029.5	1.3814e-05	1.4106e-05	1360.6	335.73	1.4156e-05	1.4325e-05	523.38	171.54	93.757	25.73	1.43e-05	59.554	222.157	183.494	276.809	157.112	300.493	239.219	157.357	160.667	347.001	278.512	160.532	164.255	163.983	169.108	238.292	169.068	-8191	255	
40530.121	1	1	0	0	0.2041	0.054794	0.28999	0.3694	0.089624	0.1554	0.39928	0.32854	0.23239	0.11707	0.28684	0.14689	0.22412	0.2268	0.29148	0.26546	-3.5854	-3.3875	-3.3438	-4.0667	-3.1875	-3.7771	-4.0521	-3.3604	-3.9396	-3.4208	-3.4104	-4.0729	-3.2812	-3.8292	-3.9813	-3.2667	324.946	217.133	322.601	438.360	375.875	261.685	448.352	459.981	232.589	479.708	437.124	162.320	411.308	462.666	451.675	404.125	0.00058522	0.00069136	0.00028405	1062.4	3.7597e-06	4.5782e-06	1408.9	346.23	6.533e-06	5.4844e-06	537.52	175.08	94.623	25.499	3.4202e-06	60.989	0.0012256	0.0012967	0.00036266	1026.5	1.3987e-05	1.4437e-05	1358.5	334.98	1.4272e-05	1.455e-05	520.37	171.11	93.546	25.64	1.4195e-05	59.615	224.583	326.306	198.513	157.462	334.483	308.158	157.350	160.690	241.708	278.802	160.335	164.608	163.757	168.954	478.916	168.972	-8191	255	
40530.219	1	1	0	0	0.19539	0.066039	0.081305	0.15139	0.13569	0.21794	0.089886	0.20531	0.27147	0.13426	0.36197	0.14109	0.15404	0.17897	0.17327	0.15369	-3.8375	-3.5104	-3.1792	-4.0646	-3.2021	-3.6042	-4.0875	-3.0604	-3.7438	-3.5708	-3.3812	-4.2312	-3.325	-3.5208	-4.0167	-3.3396	323.199	205.471	305.758	409.885	164.511	376.998	416.193	162.159	470.942	145.394	463.474	439.545	454.942	487.904	472.459	428.379	0.00059385	0.00073649	8.6792e-05	1056.5	5.3778e-06	3.6436e-06	1412.7	343.88	2.1009e-06	3.7761e-06	539.51	175.81	93.959	25.567	1.2353e-05	60.645	0.0012148	0.0012805	0.00035615	1020.9	1.3875e-05	1.3961e-05	1357.7	333.88	1.3862e-05	1.4212e-05	520.22	171.09	92.974	25.556	1.3971e-05	59.421	226.903	231.332	174.742	157.341	219.922	270.010	157.066	160.369	175.663	285.355	160.455	164.480	164.198	168.575	266.769	169.060	-8191	255	
40530.312	1	1	0	0	0.20047	0.14653	0.22567	0.25125	0.16644	0.054983	0.11805	0.17306	0.13494	0.045205	0.17742	0.21947	0.14521	0.35853	0.16976	0.32855	-3.2833	-3.5292	-3.2208	-4.0354	-3.425	-3.4167	-4.0813	-3.0896	-3.6521	-3.8125	-3.2542	-4.1333	-3.5	-3.3812	-4.0042	-3.3208	250.434	498.666	465.120	459.213	150.500	241.730	346.352	471.848	411.969	230.072	399.514	426.286	375.173	481.762	379.366	412.470	0.00057594	0.0011071	0.00021665	1052.6	6.9428e-06	7.747e-06	1409.1	343.22	5.428e-06	9.2079e-06	533.92	175.23	94.015	25.107	2.8038e-06	60.185	0.001171	0.0012466	0.00034615	1015.9	1.3724e-05	1.3841e-05	1353.7	332.58	1.3814e-05	1.3895e-05	518.2	170.66	92.765	25.297	1.4087e-05	59.331	220.168	218.254	222.362	156.980	268.489	302.773	157.315	160.878	307.024	277.673	160.329	164.642	164.259	168.569	187.254	169.423	-8191	255	
40530.434	1	1	0	0	0.053015	0.20002	0.075135	0.29234	0.02115	0.21752	0.27722	0.15067	0.16361	0.052348	0.32638	0.034067	0.29071	0.31959	0.10808	0.10635	-3.3292	-3.6542	-3.0771	-4.0146	-3.6208	-3.3771	-4.1917	-3.3792	-3.475	-3.7854	-3.3792	-4.0333	-3.625	-3.2896	-3.9521	-3.3542	448.698	367.106	219.741	481.214	460.190	306.815	433.306	163.214	150.006	337.998	442.439	238.301	442.277	481.171	145.826	482.536	0.00056054	0.0010747	0.00019944	1052.8	9.4997e-06	9.2576e-07	1405.6	343.47	4.9606e-06	5.7821e-06	533.66	174.5	94.085	25.034	9.3716e-06	60.245	0.0011893	0.0012663	0.00035165	1013	1.3937e-05	1.4012e-05	1351	332.05	1.3882e-05	1.3982e-05	516.94	170.37	92.868	25.315	1.4124e-05	59.107	222.650	224.116	231.723	157.009	282.922	431.596	157.290	160.247	307.898	278.586	160.447	164.788	164.643	168.620	355.452	169.200	-8191	255	
40530.527	1	1	0	0	0.099095	0.16413	0.13609	0.2757	0.24825	0.099435	0.25172	0.070874	0.11012	0.2085	0.20064	0.17532	0.14408	0.10693	0.070091	0.29991	-3.2583	-3.9521	-3.2917	-3.9688	-3.6979	-3.2125	-4.2604	-3.5458	-3.3583	-3.9396	-3.2708	-4.0146	-3.8375	-3.2208	-4.2021	-3.5062	379.715	269.348	369.427	147.474	255.911	449.176	359.197	383.101	176.187	461.176	170.517	332.550	406.186	154.554	452.217	448.048	0.00056697	0.00068641	0.00028066	1049.7	6.1828e-06	8.6495e-06	1407.4	344.76	4.391e-06	6.4731e-06	535.63	174.6	93.754	25.227	2.7538e-06	60.408	0.0012047	0.0012628	0.00035274	1013.3	1.3628e-05	1.3806e-05	1351.2	332.15	1.3729e-05	1.3862e-05	518.25	170.49	92.44	25.311	1.3799e-05	59.388	223.690	185.516	175.628	157.119	302.245	267.812	157.198	160.430	268.229	260.020	160.561	164.489	164.606	168.847	368.278	169.410	-8191	255	
40530.625	1	1	0	0	0.070344	0.20388	0.14968	0.28335	0.12713	0.22233	0.15977	0.3351	0.17442	0.2976	0.34764	0.21586	0.26965	0.13798	0.24823	0.21382	-3.1333	-3.9896	-3.1917	-3.875	-3.8104	-3.2104	-4.2354	-3.5854	-3.4896	-4.0625	-3.3812	-3.875	-3.6437	-3.225	-3.8688	-3.5771	478.388	199.975	193.420	450.157	368.411	460.261	182.993	420.184	368.875	243.404	460.263	409.204	342.891	473.658	227.451	359.752	0.00060441	0.00029718	9.7242e-05	1046.2	5.8275e-06	4.0572e-06	1398.2	342.33	2.8715e-06	6.7807e-06	534.89	175.11	93.674	25.052	9.8307e-06	60.726	0.0011809	0.0012695	0.00034771	1009.9	1.3679e-05	1.3833e-05	1346.7	330.45	1.366e-05	1.3753e-05	517.2	170.62	92.337	25.152	1.3931e-05	59.612	220.327	162.896	267.834	157.390	353.867	416.720	157.236	160.614	315.836	322.305	160.473	164.852	164.318	168.538	290.177	169.083	-8191	255	
40530.699	1	1	0	0	0.18214	0.058959	0.057546	0.21428	0.34415	0.2112	0.088562	0.32551	0.23136	0.12639	0.27991	0.054298	0.12367	0.35101	0.28327	0.090525	-3.0646	-3.9333	-3.0833	-3.4771	-3.7604	-3.3292	-4.1937	-3.6312	-3.1125	-4.1104	-3.4917	-3.65	-3.9979	-3.0625	-3.8625	-3.85	299.658	463.445	201.592	468.622	410.409	180.597	488.498	392.569	467.280	390.097	449.398	465.737	427.482	457.335	192.821	410.607	0.00066923	0.002557	9.3214e-05	1043.5	9.868e-06	2.8546e-06	1396.2	338.93	6.7848e-06	8.2262e-06	531.42	174.69	93.02	25	8.8637e-07	60.644	0.0011984	0.0012678	0.00035603	1005.6	1.3857e-05	1.3892e-05	1346.5	328.28	1.3918e-05	1.3978e-05	516.1	170.29	91.786	25.169	1.3587e-05	59.414	225.542	193.001	247.732	157.122	284.932	150.480	157.129	160.547	321.162	315.554	160.789	164.410	164.228	168.809	392.813	169.333	-8191	255	
40530.816	1	1	0	0	0.047133	0.14263	0.20391	0.12812	0.12392	0.32263	0.32424	0.27846	0.20163	0.1416	0.42656	0.25299	0.088792	0.12275	0.037459	0.23582	-2.825	-3.925	-3.3729	-3.5438	-3.8708	-3.0979	-3.9854	-3.8896	-3.4125	-3.9854	-3.8396	-3.5854	-4.2292	-3.1792	-3.7125	-4.0375	249.360	153.244	363.464	481.268	220.075	253.509	484.496	448.159	301.465	165.230	467.809	479.654	455.343	440.832	148.658	396.137	0.00066023	0.0011437	0.00021321	1043.5	1.2312e-05	4.4011e-06	1397.9	336.69	4.9724e-06	8.3049e-06	532.37	174.73	92.498	24.646	3.4705e-06	60.444	0.0011699	0.0012257	0.00034476	1004.4	1.3278e-05	1.345e-05	1344.3	327.02	1.3214e-05	1.3583e-05	514.83	169.73	91.291	24.955	1.3347e-05	59.251	225.839	270.971	245.016	157.159	269.444	371.842	157.112	160.504	368.566	304.243	160.785	164.530	164.463	168.539	304.653	169.210	-8191	255	
40530.914	1	1	0	0	0.318	0.2094	0.27443	0.32497	0.21425	0.16125	0.12095	0.16087	0.21373	0.21742	0.17737	0.19174	0.06493	0.12267	0.25553	0.094575	-2.8042	-3.95	-3.5271	-3.6813	-4.0146	-3.1875	-4.0396	-3.9479	-3.1021	-3.9437	-3.7625	-3.4083	-3.9896	-3.2167	-3.7125	-3.9938	315.140	426.091	267.005	442.599	372.361	323.394	409.081	500.885	152.143	197.082	450.084	158.623	173.151	437.946	387.361	362.148	0.00065545	0.00067836	0.00017069	1039.7	4.6449e-06	1.0369e-05	1389.5	339.07	3.5895e-06	4.9762e-06	535.4	174.64	92.117	24.895	8.5215e-06	60.792	0.0011451	0.0012003	0.00033267	1001.9	1.2932e-05	1.3111e-05	1336.1	326.79	1.2856e-05	1.3224e-05	514.99	169.83	90.923	24.925	1.2998e-05	59.668	219.892	250.487	216.932	157.184	301.693	298.648	157.221	160.707	339.864	227.440	160.990	164.783	164.490	168.798	266.896	169.790	-8191	255	
40531.008	1	1	0	0	0.28409	0.13698	0.056753	0.33992	0.11686	0.086609	0.15124	0.16032	0.066015	0.17635	0.22393	0.25692	0.075333	0.16665	0.19595	0.2152	-2.7417	-3.8229	-3.625	-3.4708	-3.9396	-3.3917	-3.7521	-4.1125	-3.1771	-3.9708	-3.6458	-3.4729	-4.1333	-3.4562	-3.5896	-4.1312	192.197	311.561	302.637	458.946	454.865	348.811	446.752	447.819	305.667	173.204	494.689	483.904	195.676	149.344	339.247	169.532	0.0006019	0.00049722	0.00017815	1042.1	7.4273e-06	1.9537e-07	1394.9	339.56	4.5388e-06	1.4865e-05	531.63	175.94	92.247	25.076	1.1189e-05	60.888	0.0011187	0.0011852	0.00032935	1003.3	1.2438e-05	1.3071e-05	1338	327.72	1.2809e-05	1.2902e-05	514.64	170.55	91.271	25.06	1.2701e-05	59.708	214.758	226.831	270.443	156.920	278.872	320.604	157.113	160.775	373.277	297.463	160.906	164.513	164.164	168.939	284.576	169.674	-8191	255	
40531.105	1	1	0	0	0.24137	0.20385	0.13675	0.30642	0.084955	0.064152	0.10248	0.15785	0.22049	0.16752	0.14806	0.30162	0.17421	0.058419	0.041045	0.16229	-2.9667	-3.9771	-3.925	-3.375	-3.9521	-3.5708	-3.7313	-4.0875	-3.3458	-3.8271	-3.9021	-3.3875	-3.9813	-3.5125	-3.3917	-3.9792	378.491	304.959	447.516	404.691	282.051	308.798	417.483	430.266	436.852	224.938	484.963	429.771	346.296	283.057	323.394	147.067	0.00055876	0.0014169	3.6392e-05	1043.8	8.9846e-06	1.1025e-05	1389.3	340.59	8.0437e-06	3.9491e-06	535.78	175.87	93.239	25.02	6.3859e-06	60.79	0.0010823	0.0011671	0.00032098	1006.8	1.2495e-05	1.287e-05	1337.5	328.89	1.2551e-05	1.2771e-05	515.83	170.4	91.534	24.968	1.2711e-05	59.517	230.020	236.652	170.540	156.985	288.908	306.982	157.293	160.833	276.012	450.395	160.626	164.509	164.459	168.781	324.773	169.454	-8191	255	
40531.227	1	1	0	0	0.13684	0.16287	0.036642	0.078248	0.039387	0.20114	0.14256	0.21334	0.061065	0.061846	0.21751	0.13659	0.16277	0.10582	0.18665	0.27075	-2.8917	-3.6792	-3.8208	-3.3396	-3.8083	-3.4708	-3.5042	-3.95	-3.1021	-3.725	-4.1333	-3.3458	-3.9458	-3.7729	-3.325	-4.2125	375.411	496.899	267.880	424.703	430.969	256.550	492.296	414.604	421.287	475.527	456.110	489.444	463.139	238.518	342.215	203.611	0.00058437	0.00046591	0.00024784	1052.4	7.7413e-06	4.5217e-06	1387	340.88	5.929e-06	3.7784e-06	532.93	176.19	93.022	25.039	7.1737e-06	61.281	0.0011079	0.0011515	0.00032299	1010.5	1.2436e-05	1.2828e-05	1337.2	329.88	1.2611e-05	1.2716e-05	516.71	170.5	91.462	25.106	1.2719e-05	59.762	230.757	192.284	169.209	156.945	267.955	284.768	157.221	160.274	299.744	307.817	160.836	164.476	163.819	168.681	306.482	169.811	-8191	255	
40531.297	1	1	0	0	0.16171	0.25386	0.16774	0.14479	0.095478	0.20029	0.24094	0.23086	0.24604	0.12007	0.10036	0.11824	0.13073	0.22434	0.11643	0.28657	-2.9625	-3.5312	-4.0083	-3.4021	-3.95	-3.8375	-3.4333	-4.1542	-3.4021	-3.4875	-4.0417	-3.2188	-3.8688	-3.7812	-3.1333	-3.9792	458.406	350.794	197.558	439.728	156.010	485.855	474.681	473.320	280.493	308.400	200.555	491.485	207.415	243.503	238.805	383.677	0.00050666	0.00034111	0.00021705	1047.2	1.1219e-05	5.9194e-06	1394.3	344.75	4.3616e-06	3.7466e-06	538.26	176.15	94.406	25.333	6.1311e-06	61.399	0.0011001	0.0011582	0.00031986	1012.7	1.2497e-05	1.2547e-05	1339	331.84	1.241e-05	1.2511e-05	519	171.06	92.317	25.31	1.2136e-05	60.113	233.934	178.546	207.134	157.094	295.047	326.948	156.915	160.446	280.854	309.628	160.638	164.376	164.231	168.689	389.952	169.476	-8191	255	
40531.418	1	1	0	0	0.06396	0.30087	0.051191	0.13762	0.21394	0.11288	0.28637	0.27656	0.088026	0.09128	0.051344	0.062098	0.13334	0.055101	0.16371	0.23252	-3.0417	-3.2938	-3.8625	-3.4562	-3.7062	-3.85	-3.4437	-4.0333	-3.6437	-3.3937	-4.4042	-3.4583	-3.7313	-3.9854	-3.1875	-4.0542	353.535	294.020	361.872	229.074	412.988	461.566	475.869	407.782	358.627	353.032	473.285	482.482	435.887	410.340	173.284	373.831	0.00066032	0.0014035	0.00018717	1062.2	4.9803e-06	1.9411e-06	1401.2	347.28	8.0925e-06	8.6354e-06	539.81	177.81	94.3	25.386	9.6149e-06	61.824	0.0010706	0.0011268	0.00031293	1025.4	1.2223e-05	1.2199e-05	1344.4	334.83	1.2152e-05	1.2387e-05	520.49	171.81	92.951	25.396	1.2276e-05	60.251	225.407	255.715	495.166	157.424	267.729	203.003	157.006	160.649	351.393	210.592	160.663	164.266	164.381	168.978	320.291	169.083	-8191	255	
40531.516	1	1	0	0	0.17764	0.1814	0.15999	0.18181	0.18785	0.19092	0.23282	0.17361	0.22335	0.10766	0.11094	0.4003	0.11461	0.10762	0.22535	0.10555	-3.25	-3.3792	-4.0583	-3.4	-3.6437	-3.9521	-3.4104	-4.0062	-3.5542	-3.1854	-4.1875	-3.5417	-3.5396	-3.9292	-3.2	-4.0188	354.325	292.000	408.389	499.367	204.660	334.395	422.526	170.670	399.791	348.303	401.311	494.787	379.692	439.240	438.233	436.128	0.00063072	0.001028	0.00017994	1072.6	3.9558e-06	4.5169e-06	1404.5	348.52	4.2962e-06	7.2761e-06	538.62	175.2	94.124	25.285	5.9598e-06	61.168	0.0010599	0.0011318	0.00030934	1032.7	1.2176e-05	1.2426e-05	1346.1	336.21	1.2116e-05	1.2262e-05	519.92	170.78	92.608	25.366	1.2205e-05	59.843	228.967	290.485	253.522	157.428	433.199	316.822	157.105	160.722	338.590	276.022	160.482	164.425	164.292	168.781	332.197	169.360	-8191	255	
40531.609	1	1	0	0	0.067402	0.10795	0.1715	0.21903	0.22647	0.045052	0.13133	0.2366	0.049518	0.061455	0.10076	0.1931	0.052308	0.13982	0.063228	0.10392	-3.3875	-3.0938	-4.0062	-3.5646	-3.425	-3.8792	-3.2667	-3.8333	-3.7604	-3.2687	-4.0479	-3.6104	-3.4771	-4.0271	-3.2229	-3.825	156.541	148.831	229.904	447.224	215.428	358.537	320.609	445.159	223.499	323.525	166.627	474.052	386.315	395.651	304.227	384.861	0.00063639	0.00064556	3.0879e-05	1073	6.7777e-06	8.2935e-06	1397.6	349.54	9.6701e-06	5.67e-06	541.17	177.01	94.883	25.333	3.7027e-06	61.286	0.001053	0.0011099	0.00030631	1032	1.1801e-05	1.1994e-05	1340.2	337.25	1.1775e-05	1.1748e-05	520.9	171.72	93.081	25.407	1.1669e-05	59.854	228.980	175.199	234.779	157.188	347.530	356.446	157.324	160.658	279.568	304.309	160.670	164.549	163.725	168.951	305.290	169.485	-8191	255	
40531.707	1	1	0	0	0.16646	0.18042	0.071349	0.34249	0.1573	0.067512	0.29731	0.14696	0.25724	0.24099	0.19643	0.24699	0.33441	0.16728	0.1181	0.13384	-3.5	-3.2417	-4.1292	-3.6625	-3.4729	-4.2646	-3.5604	-3.7562	-3.8667	-3.2479	-4.0417	-3.8417	-3.3792	-4.1417	-3.2125	-3.6896	443.244	377.825	313.133	489.590	143.841	450.948	434.072	445.079	437.163	476.239	502.110	155.403	333.854	339.295	285.025	161.005	0.00058997	0.00073201	0.00014754	1085.2	2.4274e-06	6.9988e-06	1405	353.19	6.4594e-06	7.8904e-06	543.11	176.89	95.499	25.658	5.1962e-06	61.555	0.0010241	0.0010527	0.00029641	1040.5	1.1382e-05	1.1563e-05	1343.9	339.83	1.1511e-05	1.1625e-05	522.23	171.78	93.303	25.484	1.1468e-05	59.967	225.157	204.346	168.508	157.173	364.948	317.810	157.088	160.553	268.269	200.254	160.575	164.748	163.959	169.200	342.007	169.331	-8191	255	
40531.824	1	1	0	0	0.08437	0.099907	0.26185	0.18008	0.10091	0.22392	0.36433	0.25665	0.23565	0.039647	0.20636	0.31293	0.11848	0.18641	0.17492	0.13573	-3.5625	-3.3021	-3.9083	-3.7125	-3.3375	-3.9708	-3.3979	-3.8417	-3.7833	-3.1646	-4.0396	-3.8667	-3.3125	-4.0604	-3.4729	-3.6188	379.449	241.595	244.850	483.446	433.743	281.098	433.669	440.662	252.414	373.123	179.222	479.251	423.128	500.175	443.954	444.841	0.00056865	0.00030013	0.00017267	1090.3	7.2527e-06	8.5043e-06	1400.4	353.76	6.7495e-06	5.0366e-06	543.29	177.71	95.871	25.684	8.8498e-06	61.645	0.00099597	0.001033	0.00028869	1047.1	1.127e-05	1.154e-05	1344.7	340.14	1.1201e-05	1.145e-05	521.84	172.04	93.575	25.671	1.1451e-05	59.942	221.990	248.310	244.042	157.402	277.711	340.578	157.154	160.479	293.638	276.084	160.361	164.771	163.914	169.096	399.829	169.199	-8191	255	
40531.898	1	1	0	0	0.13255	0.098047	0.16312	0.13318	0.16277	0.060236	0.1385	0.22759	0.21493	0.13347	0.23928	0.39109	0.23723	0.34683	0.12805	0.22918	-3.7583	-3.175	-3.7375	-3.8875	-3.0333	-4.2271	-3.5896	-3.5125	-3.9708	-3.05	-3.7687	-4.1292	-3.25	-3.9979	-3.4	-3.4354	355.447	349.200	191.058	229.254	235.044	463.897	376.160	494.079	148.835	202.207	413.194	446.711	458.542	392.469	177.025	497.842	0.00054765	0.00058747	0.00036386	1092.7	1.0103e-05	5.1036e-06	1406.3	352.04	1.4336e-06	3.8493e-06	541.25	177.41	95.435	25.619	4.9632e-06	61.474	0.00098434	0.0010142	0.00028645	1048.1	1.1018e-05	1.1293e-05	1347.9	339.21	1.1106e-05	1.1097e-05	521.14	171.41	93.444	25.573	1.1111e-05	59.763	225.709	401.772	182.711	157.096	279.796	221.271	157.114	160.544	333.488	287.111	160.481	164.765	163.938	169.037	284.037	169.383	-8191	255	
#DATA ENDS
