BOXY.EXE: ISS Imagent and Oximeter Data Acquisition Program Version 0.80
Ascii Record File

#ACQ INFORMATION
2  Detector Channels 
16  External MUX Channels 
1  Auxiliary Channels 
5000  Waveform (CCF) Frequency (Hz)
1  Waveforms Skipped 
30  Waveforms Averaged 
1  Cycles Averaged 
16  Acquisitions per Waveform 
10.0806  Updata Rate (Hz) 

#FILE INFORMATION
TRUE -- External MUX Channel results are PARSED.
FALSE -- AC DC and Phase are NOT grouped.
TRUE -- Companion Program Settings File CREATED.
FALSE -- AC data not excluded
FALSE -- DC data not excluded
FALSE -- Phase data not excluded
FALSE -- Auxillary Chn. data not excluded
Tab delimiters

#CALIBRATION STATE
TRUE -- Waveform Calibration Values APPLIED.


#AUX CALIBRATION VALUES
Val Type	aux-1	

Term	1.0000e+00	
Factor	0.0000e+00	


#WF CALIBRATION VALUES
A = Detector Channel
Val Type	A-AC1	A-AC2	A-AC3	A-AC4	A-AC5	A-AC6	A-AC7	A-AC8	A-AC9	A-AC10	A-AC11	A-AC12	A-AC13	A-AC14	A-AC15	A-AC16	A-DC1	A-DC2	A-DC3	A-DC4	A-DC5	A-DC6	A-DC7	A-DC8	A-DC9	A-DC10	A-DC11	A-DC12	A-DC13	A-DC14	A-DC15	A-DC16	A-Ph1	A-Ph2	A-Ph3	A-Ph4	A-Ph5	A-Ph6	A-Ph7	A-Ph8	A-Ph9	A-Ph10	A-Ph11	A-Ph12	A-Ph13	A-Ph14	A-Ph15	A-Ph16	

Term	0.00000e+00	0.00000e+00	0.00000e+00	0.00000e+00	0.00000e+00	0.00000e+00	0.00000e+00	0.00000e+00	0.00000e+00	0.00000e+00	0.00000e+00	0.00000e+00	0.00000e+00	0.00000e+00	0.00000e+00	0.00000e+00	0.00000e+00	0.00000e+00	0.00000e+00	0.00000e+00	0.00000e+00	0.00000e+00	0.00000e+00	0.00000e+00	0.00000e+00	0.00000e+00	0.00000e+00	0.00000e+00	0.00000e+00	0.00000e+00	0.00000e+00	0.00000e+00	0.00000e+00	0.00000e+00	0.00000e+00	0.00000e+00	0.00000e+00	0.00000e+00	0.00000e+00	0.00000e+00	0.00000e+00	0.00000e+00	0.00000e+00	0.00000e+00	0.00000e+00	0.00000e+00	0.00000e+00	0.00000e+00	
Factor	1.00000e+00	1.00000e+00	1.00000e+00	1.00000e+00	1.00000e+00	1.00000e+00	1.00000e+00	1.00000e+00	1.00000e+00	1.00000e+00	1.00000e+00	1.00000e+00	1.00000e+00	1.00000e+00	1.00000e+00	1.00000e+00	1.00000e+00	1.00000e+00	1.00000e+00	1.00000e+00	1.00000e+00	1.00000e+00	1.00000e+00	1.00000e+00	1.00000e+00	1.00000e+00	1.00000e+00	1.00000e+00	1.00000e+00	1.00000e+00	1.00000e+00	1.00000e+00	X	X	X	X	X	X	X	X	X	X	X	X	X	X	X	X	

B = Detector Channel
Val Type	B-AC1	B-AC2	B-AC3	B-AC4	B-AC5	B-AC6	B-AC7	B-AC8	B-AC9	B-AC10	B-AC11	B-AC12	B-AC13	B-AC14	B-AC15	B-AC16	B-DC1	B-DC2	B-DC3	B-DC4	B-DC5	B-DC6	B-DC7	B-DC8	B-DC9	B-DC10	B-DC11	B-DC12	B-DC13	B-DC14	B-DC15	B-DC16	B-Ph1	B-Ph2	B-Ph3	B-Ph4	B-Ph5	B-Ph6	B-Ph7	B-Ph8	B-Ph9	B-Ph10	B-Ph11	B-Ph12	B-Ph13	B-Ph14	B-Ph15	B-Ph16	

Term	0.00000e+00	0.00000e+00	0.00000e+00	0.00000e+00	0.00000e+00	0.00000e+00	0.00000e+00	0.00000e+00	0.00000e+00	0.00000e+00	0.00000e+00	0.00000e+00	0.00000e+00	0.00000e+00	0.00000e+00	0.00000e+00	0.00000e+00	0.00000e+00	0.00000e+00	0.00000e+00	0.00000e+00	0.00000e+00	0.00000e+00	0.00000e+00	0.00000e+00	0.00000e+00	0.00000e+00	0.00000e+00	0.00000e+00	0.00000e+00	0.00000e+00	0.00000e+00	-9.50993e+01	-1.28701e+02	-1.24987e+02	-1.83761e+02	-6.23572e+01	-7.40854e+01	-1.58106e+02	-1.62015e+02	-5.36995e+01	-7.02651e+01	-1.70714e+02	-1.70913e+02	-1.78902e+02	-1.77049e+02	-6.51981e+01	-1.49824e+02	
Factor	1.64770e-05	1.35927e-04	3.46547e-05	1.51834e-01	1.19814e-06	1.36781e-06	1.67260e-01	5.25101e-02	1.01735e-06	1.28790e-06	8.68415e-02	3.03108e-02	2.82728e-02	9.66055e-03	1.35503e-06	1.35419e-02	3.18107e-06	3.59181e-06	1.00104e-06	7.44679e-02	3.88649e-08	3.97153e-08	7.71580e-02	2.58867e-02	3.91507e-08	3.98793e-08	4.12608e-02	1.45034e-02	1.40702e-02	4.76425e-03	3.96035e-08	6.46411e-03	X	X	X	X	X	X	X	X	X	X	X	X	X	X	X	X	



#DISTANCE SETTINGS
A = Detector Channel
A-1	A-2	A-3	A-4	A-5	A-6	A-7	A-8	A-9	A-10	A-11	A-12	A-13	A-14	A-15	A-16	

2.5000e+00	3.0000e+00	2.5000e+00	3.0000e+00	2.0000e+00	3.0000e+00	1.5000e+00	3.0000e+00	3.0000e+00	3.0000e+00	3.0000e+00	3.0000e+00	3.0000e+00	3.0000e+00	1.5000e+00	3.0000e+00	

B = Detector Channel
B-1	B-2	B-3	B-4	B-5	B-6	B-7	B-8	B-9	B-10	B-11	B-12	B-13	B-14	B-15	B-16	

1.0000e+01	1.0000e+01	1.0000e+01	1.4400e+00	1.0000e+01	1.0000e+01	1.5100e+00	1.9400e+00	1.0000e+01	1.0000e+01	1.9900e+00	2.4900e+00	2.4100e+00	2.9000e+00	1.0000e+01	2.9800e+00	




#DATA BEGINS
time	group	step	mark	flag	A-AC1	A-AC2	A-AC3	A-AC4	A-AC5	A-AC6	A-AC7	A-AC8	A-AC9	A-AC10	A-AC11	A-AC12	A-AC13	A-AC14	A-AC15	A-AC16	A-DC1	A-DC2	A-DC3	A-DC4	A-DC5	A-DC6	A-DC7	A-DC8	A-DC9	A-DC10	A-DC11	A-DC12	A-DC13	A-DC14	A-DC15	A-DC16	A-Ph1	A-Ph2	A-Ph3	A-Ph4	A-Ph5	A-Ph6	A-Ph7	A-Ph8	A-Ph9	A-Ph10	A-Ph11	A-Ph12	A-Ph13	A-Ph14	A-Ph15	A-Ph16	B-AC1	B-AC2	B-AC3	B-AC4	B-AC5	B-AC6	B-AC7	B-AC8	B-AC9	B-AC10	B-AC11	B-AC12	B-AC13	B-AC14	B-AC15	B-AC16	B-DC1	B-DC2	B-DC3	B-DC4	B-DC5	B-DC6	B-DC7	B-DC8	B-DC9	B-DC10	B-DC11	B-DC12	B-DC13	B-DC14	B-DC15	B-DC16	B-Ph1	B-Ph2	B-Ph3	B-Ph4	B-Ph5	B-Ph6	B-Ph7	B-Ph8	B-Ph9	B-Ph10	B-Ph11	B-Ph12	B-Ph13	B-Ph14	B-Ph15	B-Ph16	aux-1	digaux	

40604.684	1	1	0	256	0.27889	0.11135	0.21892	0.30817	0.05814	0.18587	0.23412	0.10924	0.30353	0.13587	0.17267	0.048123	0.017021	0.19738	0.10613	0.23241	-2.8563	-3.9875	-3.2188	-3.7062	-3.7979	-3.3979	-4.2604	-3.6708	-3.5333	-4.0792	-3.5708	-3.7604	-3.9167	-3.2812	-3.9083	-3.5771	-74.889	49.510	90.342	228.686	-52.067	103.372	162.582	153.207	117.146	-79.265	254.021	222.630	-62.330	-75.090	1.953	231.951	0.00021021	0.00050159	9.6933e-05	844.66	3.5709e-06	3.1688e-06	1442.5	241.64	2.3753e-06	4.5188e-06	514.65	170.43	64.39	20.782	5.1871e-06	71.486	0.00014206	9.7383e-05	2.6471e-05	776.15	1.1309e-06	1.047e-06	1339.8	223.45	1.1398e-06	1.0141e-06	474.22	159.94	60.588	19.263	1.0395e-06	66.145	235.039	6.196	-21.661	-83.277	46.963	29.600	-82.151	-79.245	41.716	55.816	-78.563	-73.840	-75.030	-69.637	55.991	-68.945	-8191	255	
40604.754	1	1	0	0	0.2334	0.16145	0.11372	0.0028142	0.17711	0.050702	0.28224	0.074472	0.17586	0.073241	0.17309	0.13231	0.17746	0.16693	0.21663	0.20522	-2.8312	-3.9271	-3.1792	-3.6729	-3.8292	-3.0604	-3.9646	-3.9333	-3.2208	-4.0042	-3.6729	-3.6458	-3.9958	-3.2833	-3.7833	-3.7979	181.580	-63.506	80.545	-82.694	-71.157	142.651	160.155	256.351	124.099	-94.088	258.234	223.392	114.862	161.702	11.512	184.042	0.0001878	0.00045784	0.00011375	838.55	3.5745e-06	4.4815e-06	1436.9	239.95	7.8953e-07	4.5188e-06	511.44	169.35	63.594	20.631	3.3293e-06	69.601	0.00013228	9.5153e-05	2.63e-05	770.1	1.0654e-06	1.0482e-06	1333.7	222.49	1.0962e-06	1.004e-06	472.41	158.85	59.848	19.097	9.9669e-07	65.028	221.808	-0.293	21.126	-83.052	50.504	29.668	-82.201	-79.103	48.687	19.162	-78.348	-73.505	-74.600	-69.141	73.786	-68.561	-8191	255	
40604.875	1	1	0	0	0.24183	0.099791	0.049628	0.26004	0.014412	0.046233	0.30188	0.24524	0.2541	0.11137	0.26556	0.44695	0.21229	0.18395	0.063271	0.23359	-2.6688	-4.0771	-3.5146	-3.6813	-4.0208	-3.2583	-4.0208	-3.8625	-3.2188	-4.0667	-3.7	-3.4604	-3.8812	-3.3063	-3.5896	-3.9979	-38.629	-43.650	106.339	-95.770	145.035	100.863	179.974	251.121	90.563	52.016	236.464	-95.520	173.074	221.626	248.168	216.184	0.00023151	0.00066371	0.00013216	834.45	3.5436e-06	3.337e-06	1437.7	239.14	9.4916e-07	2.1943e-06	509.12	170.17	63.545	20.646	3.115e-06	70.975	0.0001343	9.2946e-05	2.6081e-05	765.59	1.0802e-06	1.0177e-06	1331.7	221.43	1.1001e-06	1.0025e-06	471.98	159.24	59.854	19.225	1.0309e-06	65.825	218.555	-33.004	28.734	-82.888	63.867	83.208	-82.338	-78.744	53.223	44.511	-78.461	-73.692	-74.819	-70.112	64.046	-68.775	-8191	255	
40604.973	1	1	0	0	0.12619	0.17657	0.07715	0.079944	0.22313	0.1312	0.29125	0.092819	0.1169	0.19746	0.44144	0.22094	0.079323	0.15536	0.13481	0.11677	-2.8104	-3.8375	-3.5312	-3.3979	-4	-3.2396	-3.7833	-3.9562	-3.2833	-4.1396	-3.6583	-3.3042	-4.0292	-3.2354	-3.4729	-4.0938	-24.021	82.285	260.840	235.297	15.443	175.050	161.901	182.883	138.404	90.646	173.574	-90.619	253.639	73.975	-9.562	214.085	0.00021823	0.00057226	0.00010512	831.37	1.2858e-06	2.6473e-06	1434.9	239.21	2.7516e-06	4.9538e-06	514.55	171.2	63.871	20.953	3.9317e-06	70.934	0.00013166	9.3417e-05	2.5374e-05	763.3	1.0604e-06	1.0578e-06	1330.2	221.55	1.1682e-06	1.0101e-06	474.15	160.19	60.039	19.405	1.0821e-06	66.397	232.925	2.170	-20.550	-83.124	45.320	36.814	-82.205	-79.280	66.133	39.624	-78.061	-73.799	-74.415	-69.545	84.422	-68.636	-8191	255	
40605.066	1	1	0	0	0.14061	0.049449	0.057603	0.087675	0.17888	0.10793	0.27946	0.24358	0.089665	0.19436	0.11999	0.17244	0.25949	0.17166	0.21049	0.059352	-2.8	-3.6604	-3.6562	-3.2354	-4.0208	-3.2979	-3.7104	-3.9938	-3.1688	-3.7833	-3.8688	-3.4375	-4.0771	-3.4313	-3.4437	-4.1458	188.338	-96.686	48.495	204.587	230.952	105.235	210.614	78.080	-29.701	217.633	-84.495	160.639	214.486	212.462	115.236	166.633	0.00018936	0.00037617	5.7213e-05	822.47	3.2014e-06	5.0994e-06	1420.7	236.47	3.459e-06	4.5447e-06	509.54	170.29	64.31	20.701	3.6752e-06	70.992	0.00013258	9.4562e-05	2.7499e-05	758.09	1.0551e-06	1.0856e-06	1320.5	220.55	1.1234e-06	1.0577e-06	471.23	159.78	60.12	19.31	1.1209e-06	66.04	223.691	-42.111	24.250	-83.038	98.249	80.522	-82.142	-79.046	78.075	46.598	-78.138	-73.992	-74.349	-69.884	71.905	-68.430	-8191	255	
40605.164	1	1	0	0	0.053937	0.27489	0.10007	0.18309	0.13432	0.21013	0.15035	0.12092	0.292	0.17686	0.157	0.16005	0.076943	0.12588	0.32345	0.063244	-2.8417	-3.7479	-3.7292	-3.3479	-4.0146	-3.4646	-3.4854	-4.05	-3.2583	-3.5312	-4.0417	-3.1833	-3.9521	-3.7271	-3.1625	-4.2438	209.753	5.211	-64.645	-63.255	132.424	-44.223	259.749	-84.064	172.883	157.924	134.514	243.584	178.380	35.709	-19.884	191.957	0.0002281	0.00050522	0.00012523	821.99	3.6081e-06	5.3133e-06	1431	242.31	3.3789e-06	4.0229e-06	510.65	171.15	64.29	20.974	2.9531e-06	71.173	0.00013781	9.4689e-05	2.7251e-05	758.44	1.1313e-06	1.0788e-06	1325.2	223.29	1.1332e-06	1.0708e-06	474.1	160.72	60.408	19.498	1.1347e-06	66.143	228.700	-13.842	-19.200	-83.268	49.255	57.686	-82.177	-79.058	47.668	71.056	-78.134	-73.521	-74.367	-69.177	62.972	-68.698	-8191	255	
40605.281	1	1	0	0	0.15385	0.076416	0.14099	0.057972	0.18665	0.058503	0.33039	0.13137	0.074181	0.12548	0.16748	0.2305	0.21868	0.21304	0.18027	0.15448	-3.0042	-3.625	-3.7333	-3.3521	-3.7333	-3.7208	-3.4208	-4.05	-3.475	-3.3417	-4.1458	-3.2833	-4.0604	-3.7604	-3.2167	-4.0396	105.746	127.729	0.549	86.301	18.846	61.013	211.177	223.098	97.478	-26.057	221.008	235.953	-1.888	109.253	38.051	-28.847	0.00020034	0.00040453	9.9015e-05	821.23	2.359e-06	4.7172e-06	1423.3	238.73	3.333e-06	3.0179e-06	513.34	170.22	64.597	20.901	1.6583e-06	71.389	0.00013893	9.9605e-05	2.6e-05	753.34	1.1328e-06	1.0671e-06	1314.7	221	1.1491e-06	1.0567e-06	473.04	159.85	60.306	19.446	1.1714e-06	66.349	222.202	-3.991	-6.386	-83.019	71.977	41.891	-81.966	-79.151	43.392	48.398	-78.268	-73.359	-74.341	-69.153	49.727	-68.657	-8191	255	
40605.355	1	1	0	0	0.14512	0.057814	0.13378	0.23896	0.064293	0.018389	0.2031	0.076045	0.19573	0.03701	0.22114	0.11721	0.15132	0.1829	0.25271	0.10581	-3.0417	-3.375	-3.8667	-3.1562	-3.7208	-3.7417	-3.3667	-4.0687	-3.2729	-3.2271	-4.1146	-3.3354	-3.7667	-3.7875	-3.1458	-3.95	-11.793	212.718	50.837	193.717	64.714	243.267	220.854	-81.887	116.211	108.588	166.636	253.738	207.114	262.476	-76.004	154.586	0.00019997	0.00032601	0.00015626	817.46	2.2811e-06	2.934e-06	1427	237.59	2.8527e-06	6.0431e-06	512.49	170.94	63.237	20.669	2.934e-06	70.431	0.00013521	9.412e-05	2.8838e-05	751.26	1.1305e-06	1.0709e-06	1318.5	220.37	1.1769e-06	1.1176e-06	470.62	159.74	59.476	19.134	1.1516e-06	65.533	216.999	-2.617	11.878	-83.172	69.456	30.304	-82.117	-79.051	66.386	52.617	-77.578	-73.259	-74.373	-69.322	40.230	-68.587	-8191	255	
40605.477	1	1	0	0	0.35322	0.05227	0.17277	0.25321	0.3474	0.23833	0.11671	0.1921	0.15206	0.1711	0.065173	0.15978	0.095796	0.078827	0.19865	0.11846	-3.3354	-3.15	-3.9167	-3.4313	-3.6125	-3.7438	-3.3292	-4.1083	-3.6375	-3.1875	-4.1854	-3.3854	-3.55	-3.8875	-3.0979	-3.9917	112.290	170.403	238.090	231.110	187.052	43.168	256.250	195.949	254.095	24.574	-34.157	210.999	246.433	248.711	206.543	232.338	0.00021429	0.00055195	0.00011192	804.8	3.1255e-06	5.5686e-06	1406.8	236.36	2.5349e-06	5.8127e-06	508.05	169.67	63.712	20.671	6.0123e-06	70.283	0.00014223	0.00010631	2.9172e-05	741.91	1.1595e-06	1.1446e-06	1305.7	219.29	1.1714e-06	1.113e-06	468.73	159.37	59.74	19.212	1.084e-06	65.405	223.801	-18.228	4.728	-83.249	41.874	60.650	-82.075	-78.808	58.659	60.240	-78.256	-73.772	-74.465	-69.942	61.679	-68.635	-8191	255	
40605.570	1	1	0	0	0.14454	0.29849	0.10816	0.090022	0.090527	0.17173	0.057449	0.092861	0.1837	0.21987	0.11262	0.061449	0.16642	0.052192	0.26357	0.1375	-3.3979	-3.1604	-3.9083	-3.3646	-3.5458	-3.8583	-3.4042	-3.7875	-3.6667	-3.0667	-3.9833	-3.4729	-3.4917	-4.0083	-3.1562	-3.8167	231.768	147.826	-54.160	236.599	46.592	242.065	10.450	-81.499	141.133	177.037	213.188	242.374	262.821	143.610	201.458	253.000	0.00020635	0.00028823	0.00014586	806.45	3.6474e-06	2.3689e-06	1418.2	235.85	1.7867e-06	5.0881e-06	508.2	169.57	63.878	20.568	3.1413e-06	70.508	0.00013929	0.00010353	2.8325e-05	742.68	1.1565e-06	1.0562e-06	1309.6	218.8	1.1386e-06	1.126e-06	469.55	158.37	59.638	19.119	1.1339e-06	65.646	226.111	20.021	1.081	-83.091	51.460	61.257	-82.089	-78.994	50.293	48.523	-78.414	-73.384	-74.882	-69.414	66.899	-68.566	-8191	255	
40605.668	1	1	0	0	0.29266	0.18238	0.11267	0.11409	0.12712	0.16153	0.27947	0.13083	0.13934	0.18514	0.13561	0.02853	0.1935	0.19023	0.27576	0.19782	-3.4833	-3.1833	-3.9896	-3.4854	-3.3833	-4.0917	-3.475	-3.5687	-3.9479	-3.0792	-4.0375	-3.7125	-3.4437	-4.2021	-3.2188	-3.6729	207.836	-32.456	5.299	-69.424	5.979	244.783	198.481	-29.321	-70.893	100.574	196.351	-88.908	-21.297	240.885	111.216	185.001	0.00020338	0.00029414	7.9083e-05	799.08	4.037e-06	4.9114e-06	1402.8	231.92	2.6182e-06	4.2685e-06	501.18	166.34	62.404	20.247	2.8455e-06	69.595	0.00013878	0.00010237	2.864e-05	740.49	1.1685e-06	1.1129e-06	1303.7	215.98	1.2237e-06	1.1507e-06	463.29	156.3	58.2	18.777	1.1734e-06	64.987	223.430	7.230	-29.497	-83.029	67.219	63.679	-81.779	-79.027	75.492	16.563	-78.040	-73.656	-74.345	-69.425	54.187	-68.390	-8191	255	
40605.762	1	1	0	0	0.024374	0.13236	0.092622	0.32621	0.1105	0.12188	0.13648	0.15152	0.079574	0.18723	0.12797	0.2236	0.10982	0.26136	0.16643	0.41024	-3.5292	-3.1188	-4.0208	-3.7833	-3.2396	-4.1125	-3.4479	-3.5771	-3.8167	-3.1042	-4.0271	-3.7271	-3.2083	-4.1708	-3.1958	-3.6625	225.940	75.790	141.664	132.933	253.088	189.881	-20.411	180.871	100.380	111.174	241.102	-69.884	209.222	102.946	-43.145	226.166	0.00020846	0.00059966	0.00011974	800.63	2.2114e-06	5.2463e-06	1404.6	234.31	2.8031e-06	5.0771e-06	506.86	170.2	63.622	20.798	3.1933e-06	72.306	0.0001437	0.00010826	2.8363e-05	738.25	1.2291e-06	1.1628e-06	1302.6	216.63	1.15e-06	1.0888e-06	469.41	159.54	59.552	19.415	1.0709e-06	67.279	220.727	5.315	-12.977	-83.111	75.250	67.083	-81.771	-79.094	35.768	58.338	-78.211	-73.282	-74.433	-69.474	48.876	-68.811	-8191	255	
40605.883	1	1	0	0	0.19954	0.096471	0.074635	0.25644	0.2216	0.20118	0.066446	0.32749	0.16965	0.058247	0.14119	0.26317	0.029243	0.207	0.12181	0.23511	-3.7062	-3.1688	-3.7792	-3.8583	-3.3187	-4.0021	-3.6354	-3.4854	-3.8646	-3.3333	-3.9333	-3.9437	-3.1188	-4.0167	-3.3937	-3.5	198.740	-49.869	257.880	132.886	77.130	-11.260	204.261	209.282	179.223	78.689	-61.079	201.760	103.153	-50.076	-86.992	-39.294	0.00020162	0.00029443	0.00015359	814.88	4.8247e-06	2.3647e-06	1416.9	240.23	1.9649e-06	3.7733e-06	511.29	172.7	65.07	21.353	7.4131e-06	72.618	0.00013962	9.7166e-05	2.6601e-05	749.32	1.1665e-06	1.0197e-06	1317.1	221.81	1.0775e-06	1.0418e-06	474.06	162.22	60.704	19.732	1.0764e-06	67.595	227.225	2.776	-6.144	-82.954	64.870	46.016	-81.868	-79.137	39.722	26.293	-78.124	-73.534	-74.810	-69.215	58.744	-68.706	-8191	255	
40605.957	1	1	0	0	0.24734	0.0037511	0.050291	0.081138	0.12615	0.045312	0.23001	0.23483	0.24621	0.12411	0.066993	0.090584	0.31758	0.29554	0.22964	0.17102	-3.7354	-3.0417	-3.675	-3.8	-3.2292	-3.9375	-3.8688	-3.4958	-4.0125	-3.2271	-3.6271	-4.0521	-3.1708	-3.9354	-3.5917	-3.3792	248.916	209.507	-24.019	-92.431	-36.835	17.262	241.700	191.464	-60.340	141.132	1.537	221.099	211.566	-68.475	24.563	197.441	0.00020898	0.00046204	4.5688e-05	815.03	3.1348e-06	3.6908e-06	1425.4	237.56	2.3967e-06	4.3083e-06	513.61	172.22	64.57	20.988	3.8925e-06	71.917	0.0001335	9.6507e-05	2.601e-05	747.77	1.1473e-06	1.0586e-06	1316.9	220.41	1.0817e-06	1.0923e-06	473.64	161.33	60.115	19.464	1.0793e-06	67.063	220.716	-6.783	3.713	-83.131	61.581	38.882	-81.976	-79.115	110.348	55.347	-78.191	-73.514	-74.809	-69.536	64.819	-68.806	-8191	255	
40606.051	1	1	0	0	0.058614	0.18022	0.017332	0.32789	0.10325	0.083266	0.23397	0.22979	0.17732	0.16756	0.16725	0.21676	0.039802	0.10661	0.28906	0.056153	-3.5854	-3.3917	-3.5125	-4.1667	-3.0208	-3.8792	-3.8729	-3.3271	-4.0312	-3.3688	-3.6771	-4	-3.1375	-3.7396	-3.7667	-3.3292	17.270	149.145	-30.585	243.114	50.430	-86.246	209.318	250.372	-76.176	156.069	242.663	218.798	-14.254	168.570	205.507	-9.153	0.00020803	0.00037446	0.00012827	807.36	3.8406e-06	5.4254e-06	1421.5	238.39	1.5384e-06	3.4198e-06	512.24	171.93	64.678	20.902	4.0717e-06	71.856	0.00013642	9.7331e-05	2.6788e-05	743.2	1.084e-06	1.0426e-06	1313.7	220.23	1.1765e-06	1.0686e-06	473.39	160.93	60.344	19.467	1.1193e-06	67.126	218.045	-8.230	-13.682	-82.707	63.337	71.593	-81.900	-79.012	84.563	53.498	-78.394	-73.497	-74.998	-69.424	50.790	-68.748	-8191	255	
40606.148	1	1	0	0	0.055677	0.21118	0.057718	0.1675	0.26768	0.10492	0.27654	0.19601	0.13184	0.22907	0.1754	0.2853	0.10077	0.10223	0.11424	0.15811	-3.4917	-3.3208	-3.4021	-3.9771	-3.0625	-3.6708	-4.0125	-3.3333	-3.775	-3.5812	-3.4292	-4.1937	-3.3208	-3.5375	-3.875	-3.2521	35.507	-7.151	254.065	221.932	158.004	157.270	148.002	156.632	243.125	186.690	208.456	184.803	253.036	166.686	123.525	119.673	0.0002144	0.00036825	6.6096e-05	808.69	1.0448e-06	5.4087e-06	1423.6	240.14	3.6217e-06	3.3076e-06	514.91	173.05	64.487	21.148	6.2457e-06	73.048	0.00013469	9.6343e-05	2.6296e-05	744.95	1.086e-06	1.0206e-06	1317.8	221.39	1.0914e-06	9.979e-07	475.96	162.07	60.496	19.644	1.0105e-06	67.777	222.523	-0.961	-4.944	-82.579	45.578	51.519	-81.949	-78.962	80.326	47.676	-78.271	-73.157	-74.374	-69.431	53.740	-68.726	-8191	255	
40606.266	1	1	0	0	0.27677	0.14413	0.13914	0.1781	0.10762	0.086289	0.20977	0.14593	0.15379	0.13738	0.21298	0.13394	0.19537	0.038611	0.10813	0.23915	-3.5938	-3.5979	-3.3063	-4.1458	-3.3583	-3.5521	-4.1104	-3.1917	-3.8917	-3.7938	-3.35	-4.1542	-3.4437	-3.5792	-4.0104	-3.3063	-33.310	102.272	82.630	244.762	212.782	-52.271	187.662	195.468	202.598	217.394	213.087	227.129	189.792	246.928	204.371	231.048	0.00022559	0.00040013	0.00011094	804.52	1.1086e-06	3.2176e-06	1419.3	240.61	3.3289e-06	4.2699e-06	512.38	174	65.614	21.378	3.5903e-06	73.132	0.0001336	9.9097e-05	2.6665e-05	744.66	1.0717e-06	1.0616e-06	1318.7	223.02	1.0412e-06	1.0019e-06	475.86	162.99	61.068	19.778	1.0875e-06	68.195	222.348	-10.182	14.786	-82.858	70.700	23.070	-81.894	-79.245	58.864	52.139	-78.462	-73.675	-74.528	-69.785	49.461	-68.450	-8191	255	
40606.363	1	1	0	0	0.094316	0.10737	0.10146	0.30751	0.22878	0.19137	0.14611	0.14211	0.15489	0.18807	0.12419	0.16744	0.081356	0.079976	0.19392	0.056226	-3.4583	-3.7354	-3.1562	-4.1	-3.3979	-3.3583	-4.0375	-3.2646	-3.6917	-3.8083	-3.2271	-3.9521	-3.3896	-3.3771	-4.1271	-3.5187	-79.652	98.417	218.046	258.590	76.807	241.233	183.996	178.395	198.491	-64.838	245.213	155.237	168.457	220.830	-64.841	-38.203	0.00022797	0.00050426	0.00018274	808.53	3.4641e-06	5.6566e-06	1420.5	239.86	3.7646e-06	4.3752e-06	515.97	173.82	64.877	21.368	2.9036e-06	73.65	0.00012934	9.5557e-05	2.7349e-05	743.27	1.0764e-06	1.0443e-06	1313.8	221.85	1.0497e-06	1.0017e-06	476.12	162.99	60.848	19.836	9.9768e-07	68.475	229.220	1.010	1.534	-83.082	59.534	48.379	-82.002	-79.121	63.292	46.907	-78.087	-73.523	-74.775	-69.578	57.986	-68.630	-8191	255	
40606.461	1	1	0	0	0.026074	0.081515	0.34613	0.045458	0.14291	0.26496	0.16129	0.049859	0.1298	0.18385	0.18906	0.13652	0.22486	0.40073	0.23677	0.19961	-3.3	-3.7229	-2.9542	-4.0292	-3.5333	-3.2708	-4.1292	-3.3729	-3.5896	-3.8167	-3.3083	-3.95	-3.6396	-3.4062	-4.0479	-3.4104	-55.647	109.646	57.272	-96.317	179.958	32.475	236.373	-94.408	37.021	183.947	-38.341	113.027	88.798	-95.994	25.365	208.221	0.00019173	0.00027358	2.8487e-05	804.5	1.6623e-06	6.0495e-06	1416.3	238.97	2.8684e-06	3.3601e-06	516.24	174.3	65.819	21.519	5.8645e-06	73.44	0.00013581	9.1516e-05	2.6332e-05	740.46	1.0815e-06	1.0747e-06	1312.4	222.17	1.077e-06	1.0086e-06	477.46	163.88	61.122	19.963	1.0655e-06	68.737	220.658	3.855	2.401	-83.070	49.065	43.370	-82.021	-79.381	53.750	96.501	-78.096	-73.681	-74.601	-69.781	20.021	-68.687	-8191	255	
40606.555	1	1	0	0	0.10909	0.35285	0.1904	0.2817	0.068021	0.19579	0.42808	0.2119	0.22653	0.090667	0.30789	0.29904	0.073738	0.16563	0.30848	0.20467	-3.2604	-3.7208	-3.1042	-4.0208	-3.5604	-3.1562	-4.2292	-3.3479	-3.4104	-3.9292	-3.2833	-3.8396	-3.7458	-3.1979	-3.8563	-3.6125	-93.217	142.001	-28.929	-78.501	211.233	154.827	192.357	-0.830	215.008	211.561	116.876	-79.950	192.517	-55.283	-85.440	227.588	0.00017554	0.00058821	7.0589e-05	803.03	3.5696e-06	4.8368e-06	1418.8	242.27	1.935e-06	4.0199e-06	515.85	174.44	65.421	21.519	4.1738e-06	74.089	0.00013033	9.1292e-05	2.6667e-05	739.07	1.0141e-06	1.0507e-06	1313.5	223.35	1.0742e-06	9.7497e-07	478.5	164.02	61.255	20.023	9.2878e-07	68.861	225.439	-15.529	-25.924	-83.151	57.970	46.766	-82.004	-79.079	51.136	44.170	-78.320	-73.496	-74.713	-69.850	42.450	-68.398	-8191	255	
40606.652	1	1	0	0	0.21475	0.10051	0.27592	0.13745	0.079758	0.15758	0.1625	0.14767	0.061129	0.17363	0.22596	0.19207	0.090516	0.078696	0.096699	0.062738	-2.9229	-3.8979	-3.1875	-3.6854	-3.7479	-3.0833	-3.9729	-3.5917	-3.3438	-3.8438	-3.3187	-3.7396	-3.9313	-3.3083	-3.9188	-3.8521	-4.111	-66.880	133.993	-41.586	-27.967	137.115	171.724	247.414	-78.753	-35.079	168.805	176.809	-38.552	191.312	-20.271	-69.680	0.00021545	0.00049698	0.00013376	803.17	4.1892e-06	4.3501e-06	1419.7	241.8	3.7754e-06	5.0161e-06	518.94	174.86	65.324	21.507	3.5303e-06	73.654	0.00013278	8.9683e-05	2.557e-05	741.07	1.0523e-06	9.6326e-07	1317.3	223.82	1.0714e-06	9.8975e-07	479.18	164.17	61.358	19.979	1.0096e-06	68.473	227.039	4.570	5.237	-82.827	40.806	59.150	-81.828	-78.908	103.946	56.614	-77.934	-73.688	-75.063	-69.687	46.415	-68.729	-8191	255	
40606.746	1	1	0	0	0.10981	0.1036	0.04517	0.12168	0.20426	0.093162	0.086197	0.1729	0.29952	0.12187	0.30722	0.18729	0.11855	0.14447	0.072649	0.18774	-2.9125	-3.9792	-3.2208	-3.6625	-3.8812	-3.1271	-4.15	-3.5479	-3.2	-4.1062	-3.6333	-3.5833	-3.8833	-3.0146	-3.8833	-3.9229	177.577	130.941	94.277	77.038	-50.041	180.996	41.787	-72.622	132.774	121.996	225.050	223.450	22.879	-50.377	-76.247	178.054	0.00020068	0.00067476	8.893e-05	802	4.6458e-06	4.6334e-06	1414.2	242.43	3.3698e-06	2.7373e-06	522.55	175.86	66.709	21.806	3.444e-06	74.18	0.00013605	8.7139e-05	2.5685e-05	739.12	1.0302e-06	9.9338e-07	1311.8	224	1.0452e-06	9.5361e-07	480.67	164.82	61.896	20.049	1.0443e-06	68.768	226.289	-4.697	-29.077	-82.900	66.324	21.799	-82.204	-78.913	31.008	41.495	-78.248	-73.566	-74.399	-69.599	60.535	-68.739	-8191	255	
40606.844	1	1	0	0	0.2628	0.17898	0.089419	0.035702	0.096136	0.17907	0.28899	0.48683	0.04381	0.060473	0.075323	0.15199	0.035466	0.11123	0.10416	0.21367	-2.9813	-3.9771	-3.4333	-3.55	-3.9167	-3.1958	-3.8812	-3.8417	-3.2021	-3.9917	-3.6083	-3.5792	-3.9479	-3.2333	-3.5792	-4.0437	209.219	-65.304	217.580	-53.303	175.162	57.605	-94.101	-70.193	-38.576	193.703	-16.839	201.527	-60.289	118.618	-16.394	200.750	0.00024031	0.00065261	9.1292e-05	804.71	3.2636e-06	4.8447e-06	1423.3	241.46	3.4459e-06	4.0372e-06	519.68	174.71	65.536	21.443	2.3755e-06	73.571	0.00013579	9.3327e-05	2.5172e-05	738.07	1.0458e-06	9.9536e-07	1316.4	223.78	1.1021e-06	9.2105e-07	479.14	163.7	61.33	19.92	9.7994e-07	68.312	227.936	-18.456	18.495	-83.336	27.144	37.405	-81.842	-79.022	49.625	43.754	-78.486	-73.707	-74.961	-69.574	23.235	-68.446	-8191	255	
40606.965	1	1	0	0	0.3132	0.045779	0.16714	0.051781	0.035292	0.1845	0.086552	0.23182	0.16114	0.084134	0.10861	0.18617	0.15385	0.10773	0.075217	0.41566	-2.7896	-3.7875	-3.4271	-3.3	-3.9771	-3.3146	-3.8542	-4.1417	-3.0167	-3.9979	-3.5708	-3.3333	-3.9062	-3.275	-3.5021	-4.0354	220.817	182.483	-45.736	164.565	-89.949	-11.121	227.861	-88.380	136.599	246.561	249.435	157.009	229.588	-69.435	-9.636	198.378	0.00022385	0.00053387	0.00011361	802.46	3.9239e-06	4.6755e-06	1414.1	241.39	1.536e-06	6.147e-06	519.44	175.62	65.332	21.629	4.6472e-06	73.846	0.00013966	8.8605e-05	2.5885e-05	738.02	1.0381e-06	1.0279e-06	1311.5	223.42	1.0641e-06	9.9698e-07	478.93	164.31	61.408	19.973	9.9067e-07	68.722	225.869	11.624	11.965	-83.076	45.650	65.562	-82.069	-78.889	65.869	51.611	-78.158	-74.039	-74.674	-69.618	46.428	-68.679	-8191	255	
40607.059	1	1	0	0	0.17112	0.11356	0.16375	0.32433	0.078616	0.090235	0.31786	0.24529	0.22786	0.070416	0.098926	0.27559	0.26071	0.084773	0.11392	0.50846	-2.8583	-3.8729	-3.7042	-3.2583	-3.9896	-3.3917	-3.6	-3.9104	-3.1271	-3.6833	-3.8521	-3.1667	-3.9313	-3.4396	-3.4917	-3.9271	246.795	-48.249	-31.475	215.392	195.562	232.958	225.358	223.086	67.064	175.995	136.690	227.206	96.744	148.153	51.931	217.278	0.00021507	0.00040307	0.00011753	803.22	4.6717e-06	4.7007e-06	1419.9	239.23	6.8633e-07	2.7595e-06	517.96	174.83	65.593	21.288	4.4536e-06	72.792	0.00013061	8.5919e-05	2.4642e-05	739.55	9.6571e-07	9.2305e-07	1313.2	222.53	1.053e-06	8.9737e-07	477.36	163.46	61.371	19.847	8.9553e-07	67.818	227.851	28.476	-1.316	-82.799	87.875	30.327	-82.324	-78.784	31.990	81.550	-78.014	-73.567	-74.532	-69.228	65.722	-68.870	-8191	255	
40607.156	1	1	0	0	0.11878	0.082344	0.12097	0.16074	0.22621	0.032036	0.29203	0.035921	0.18809	0.18278	0.16732	0.09647	0.059605	0.062168	0.089718	0.24321	-2.8917	-3.7083	-3.8125	-3.2396	-3.9625	-3.5187	-3.5958	-3.9938	-3.2687	-3.6229	-4.0542	-3.2646	-4.1062	-3.7604	-3.3958	-4.0938	97.452	-41.016	84.994	225.015	136.986	-68.268	159.143	64.616	52.642	-16.937	211.760	117.487	101.777	-33.249	161.722	148.200	0.0002314	0.00053385	0.00010547	810.79	2.9232e-06	3.7003e-06	1420.3	242.44	1.9691e-06	2.3959e-06	517.44	175.23	65.854	21.607	3.4237e-06	73.065	0.00013186	8.0359e-05	2.2521e-05	747.42	9.7357e-07	8.782e-07	1318.4	224.81	9.9663e-07	9.3401e-07	478.96	163.89	61.783	19.965	9.5502e-07	68.183	219.914	9.707	11.334	-83.149	36.600	69.694	-81.889	-78.951	46.251	58.915	-77.982	-74.199	-74.837	-69.388	53.048	-68.560	-8191	255	
40607.250	1	1	0	0	0.23622	0.020187	0.10507	0.16155	0.21875	0.11563	0.36625	0.10688	0.13677	0.08206	0.20803	0.23262	0.041571	0.099143	0.11555	0.15337	-2.9375	-3.5896	-3.875	-3.0604	-3.9146	-3.6188	-3.3979	-4.0687	-3.1937	-3.5229	-4.0646	-3.3208	-3.7875	-3.8208	-3.1417	-4.1833	86.817	-48.049	248.272	259.925	33.302	110.681	208.064	82.256	-88.845	160.376	224.363	181.266	16.612	118.944	218.250	201.608	0.00022516	0.0004267	0.0001286	822.1	3.3905e-06	6.2405e-06	1430.8	242.31	1.1136e-06	3.49e-06	522.49	174.21	65.773	21.453	2.3786e-06	73.427	0.00013575	8.6323e-05	2.4058e-05	759.09	9.9373e-07	8.9459e-07	1327.7	225.43	9.8505e-07	9.2877e-07	481.52	163.7	61.841	19.901	1.0181e-06	68.083	219.364	-7.410	6.920	-83.120	37.381	40.309	-82.029	-79.151	89.467	68.486	-78.164	-73.814	-74.762	-69.998	59.886	-68.498	-8191	255	
40607.348	1	1	0	0	0.14565	0.10209	0.079664	0.048891	0.24366	0.091924	0.48035	0.19064	0.096735	0.10861	0.07727	0.26174	0.1259	0.2131	0.044015	0.17883	-3.075	-3.4333	-3.8438	-3.4208	-3.9813	-3.6792	-3.4313	-4.0417	-3.6208	-3.3667	-4.2562	-3.3521	-3.7188	-3.9188	-3.1688	-4.15	-69.135	-26.106	203.727	85.430	258.502	45.847	200.318	6.299	51.255	-66.803	-58.935	261.343	246.725	-76.348	124.305	212.657	0.00025554	0.00064224	0.00010712	831.8	3.6377e-06	7.1122e-06	1438	244.68	2.8993e-06	5.1898e-06	523.05	176.41	66.432	21.575	3.6158e-06	73.928	0.00012831	8.7378e-05	2.3468e-05	766.55	9.934e-07	9.4572e-07	1334.9	227.44	9.7885e-07	9.4647e-07	483.52	165.31	62.387	20.106	9.5692e-07	68.757	221.547	-14.924	33.120	-82.894	51.747	39.215	-82.052	-79.448	73.507	80.590	-78.115	-73.794	-74.592	-70.053	54.930	-68.714	-8191	255	
40607.441	1	1	0	0	0.047144	0.15511	0.075845	0.56415	0.11791	0.1249	0.33703	0.21684	0.067281	0.22079	0.19301	0.17286	0.16837	0.21808	0.14972	0.070783	-3.2271	-3.3271	-3.9417	-3.1917	-3.4646	-3.7917	-3.2125	-4.0542	-3.6542	-3.2667	-4.0938	-3.5	-3.65	-3.8667	-3.1896	-3.9729	256.279	-95.630	73.113	209.962	65.363	4.999	176.190	259.496	247.117	50.247	-44.202	199.553	-13.400	180.854	110.570	120.235	0.00021357	0.00041373	0.00016184	830.95	3.275e-06	4.0852e-06	1443.5	246.65	2.5314e-06	3.175e-06	523.63	175.28	66.915	21.566	4.698e-06	73.554	0.00013065	8.3749e-05	2.2961e-05	765.12	9.4426e-07	9.2876e-07	1336.5	227.55	9.7648e-07	9.6882e-07	483.73	164.93	62.251	20.036	9.735e-07	68.361	224.808	-28.862	-12.047	-82.918	46.826	21.027	-82.126	-79.215	46.884	53.398	-77.987	-73.773	-75.103	-69.666	60.699	-68.507	-8191	255	
40607.562	1	1	0	0	0.10752	0.090949	0.167	0.1835	0.11163	0.18238	0.41866	0.20053	0.17084	0.12062	0.28006	0.080371	0.18078	0.091477	0.081578	0.10064	-3.2812	-3.2854	-4.0292	-3.5604	-3.4896	-4.0687	-3.3417	-3.8875	-3.7458	-3.2229	-4.0958	-3.5812	-3.5938	-4.0854	-3.0021	-3.9437	193.027	260.145	211.183	169.458	178.686	-26.951	171.061	146.155	160.933	178.553	134.257	99.482	162.372	-92.983	-9.206	197.317	0.00024887	0.00053017	9.0285e-05	829.7	2.434e-06	4.0105e-06	1440.5	246.24	2.7221e-06	2.884e-06	517.99	173.76	65.929	21.329	3.7188e-06	72.322	0.00012722	8.9114e-05	2.3606e-05	762.69	9.7567e-07	9.5904e-07	1331.8	226.8	9.6768e-07	9.6092e-07	479.81	163.14	61.768	19.827	9.9834e-07	67.226	220.661	12.884	-14.105	-83.024	105.558	38.485	-81.989	-79.329	47.671	86.174	-78.113	-73.410	-74.641	-69.565	32.554	-68.766	-8191	255	
40607.656	1	1	0	0	0.26219	0.2456	0.23485	0.36565	0.21387	0.1382	0.35712	0.17213	0.058171	0.24864	0.30661	0.079929	0.17737	0.36423	0.066926	0.078558	-3.35	-3.0792	-3.9125	-3.7021	-3.3812	-3.9667	-3.5604	-3.8312	-3.8896	-3.25	-3.9167	-3.6021	-3.3146	-4.0271	-3.2896	-3.7438	231.505	-27.692	255.635	226.756	231.146	-39.690	231.548	235.565	-28.906	-9.988	235.250	39.355	257.422	148.078	161.678	241.527	0.00020906	0.00055415	0.00012337	830.85	4.1413e-06	1.7913e-06	1427.1	245.17	3.5542e-06	6.1205e-06	519.41	173.12	65.701	21.235	2.592e-06	71.892	0.0001235	9.2841e-05	2.4217e-05	764.05	9.9438e-07	9.1933e-07	1329.9	226.5	9.7583e-07	9.6159e-07	479.28	162.41	61.64	19.631	9.4331e-07	66.954	227.309	-50.115	-12.181	-82.736	59.212	31.735	-81.937	-79.359	72.928	55.342	-78.359	-73.651	-74.869	-69.498	74.475	-68.826	-8191	255	
40607.754	1	1	0	0	0.32709	0.01889	0.17492	0.10642	0.056803	0.20026	0.23832	0.19687	0.14104	0.10357	0.11496	0.056018	0.15909	0.090529	0.06166	0.23304	-3.5146	-3.2354	-3.8208	-3.7521	-3.4292	-4.1146	-3.5229	-3.4771	-3.8583	-3.3688	-3.7917	-3.8417	-3.3604	-4.0625	-3.5354	-3.6813	-43.506	63.032	223.435	-30.434	-56.254	-8.049	212.408	194.119	-68.113	39.535	135.727	148.323	-48.754	86.182	21.917	196.330	0.00020189	0.00054825	0.00014473	836.14	3.2862e-06	6.4582e-06	1445.7	244.48	3.1032e-06	4.7509e-06	522.82	175.22	65.72	21.411	4.7422e-06	73.067	0.00012855	8.7326e-05	2.3132e-05	768.38	1.011e-06	9.1494e-07	1336.7	227.31	9.7469e-07	9.792e-07	481.99	163.76	61.899	19.92	9.9215e-07	68.065	225.972	-9.402	-4.955	-82.704	39.600	53.548	-82.074	-79.432	46.430	39.223	-78.147	-73.463	-74.895	-69.716	51.409	-68.656	-8191	255	
40607.852	1	1	0	0	0.17627	0.24463	0.11167	0.21629	0.12711	0.12279	0.16698	0.24085	0.098845	0.1381	0.1804	0.048994	0.034946	0.27151	0.26522	0.19678	-3.6875	-3.225	-3.775	-3.7125	-3.1917	-3.9479	-3.6708	-3.4688	-4.0938	-3.2521	-3.9479	-3.8937	-3.2875	-3.8646	-3.5646	-3.6063	-0.202	177.958	246.334	242.179	139.408	63.832	215.638	222.383	259.255	208.439	221.393	172.280	114.223	-51.247	9.651	231.544	0.00019134	0.00066456	0.00010731	833.58	2.1942e-06	3.1043e-06	1437.1	244.81	3.0857e-06	4.7852e-06	523.37	176.1	66.572	21.805	5.4789e-06	73.725	0.00012827	9.1554e-05	2.3681e-05	766.44	9.6968e-07	9.4936e-07	1336.1	227.54	1.0439e-06	9.5536e-07	483.68	165.27	62.381	20.169	9.6063e-07	68.49	217.440	-4.324	-15.100	-82.993	67.389	21.950	-82.098	-78.914	21.034	35.244	-78.218	-73.520	-74.452	-69.992	51.148	-68.665	-8191	255	
40607.926	1	1	0	0	0.32958	0.27136	0.18102	0.25046	0.18944	0.043407	0.21573	0.071788	0.19328	0.25878	0.1466	0.14249	0.083655	0.12312	0.29185	0.23195	-3.5812	-3.2021	-3.5146	-3.9958	-2.9188	-3.7292	-3.8312	-3.2021	-3.9833	-3.3146	-3.7458	-4.0396	-3.1188	-3.9708	-3.7188	-3.2729	1.830	176.024	121.691	-88.324	-49.838	177.720	249.727	246.199	194.278	13.200	199.373	213.373	121.725	-60.462	7.494	216.964	0.00021659	0.0005035	0.00013409	831.45	1.6599e-06	4.0795e-06	1436.5	247.01	2.8531e-06	4.2154e-06	523.22	176.49	66.341	21.448	4.1475e-06	73.407	0.00012559	8.657e-05	2.3203e-05	763.09	9.7867e-07	8.9219e-07	1331.6	227.85	9.5414e-07	9.635e-07	481.85	165.05	62.328	20.05	9.1798e-07	68.09	232.545	-2.894	-2.058	-83.015	162.112	27.544	-81.987	-79.396	52.699	49.038	-78.417	-73.514	-75.490	-69.793	65.242	-68.773	-8191	255	
40608.043	1	1	0	0	0.10077	0.015299	0.0036873	0.13333	0.040487	0.24287	0.11929	0.308	0.20127	0.21354	0.28113	0.01774	0.14113	0.13723	0.15664	0.061246	-3.7438	-3.2833	-3.5167	-3.9354	-3.1771	-3.8542	-3.9083	-3.2021	-3.9229	-3.4562	-3.6042	-4.1833	-3.1542	-3.7604	-3.7292	-3.3542	-53.567	177.254	59.545	159.658	43.775	65.991	199.606	138.053	45.268	87.010	196.208	194.829	196.384	179.407	-51.885	117.773	0.00021325	0.00070386	0.00016933	829.12	1.6376e-06	3.3916e-06	1440.3	243.47	3.2307e-06	5.2846e-06	521.82	175.42	66.679	21.755	4.3082e-06	73.565	0.0001249	8.5141e-05	2.3147e-05	762.61	9.6053e-07	8.6224e-07	1333.3	227.2	9.5658e-07	9.0227e-07	482.63	165.25	62.55	20.18	9.1542e-07	68.355	213.860	-23.278	-5.508	-82.640	45.854	58.156	-82.290	-79.025	62.056	45.607	-78.110	-73.395	-75.016	-69.681	83.819	-68.737	-8191	255	
40608.141	1	1	0	0	0.2031	0.14838	0.099612	0.26715	0.26975	0.15199	0.12944	0.11731	0.20926	0.19611	0.16054	0.19603	0.14602	0.16536	0.35885	0.19906	-3.8208	-3.3417	-3.3708	-4.1083	-3.3042	-3.7729	-4.0167	-3.2229	-3.8771	-3.6021	-3.5771	-4.1813	-3.375	-3.7375	-3.7396	-3.3583	129.795	124.838	118.427	208.634	20.758	111.041	241.668	-11.272	162.570	211.306	186.877	184.069	-33.137	-10.737	205.793	258.877	0.00021824	0.00044234	5.945e-05	829.2	2.9336e-06	4.9154e-06	1434.6	245.91	2.6815e-06	2.2957e-06	526.46	176.04	67.094	21.457	4.3657e-06	73.854	0.00012779	8.6293e-05	2.3306e-05	763.74	9.5754e-07	8.931e-07	1330.5	227.38	9.4826e-07	8.5392e-07	483.62	165.34	62.56	20.034	9.5552e-07	68.481	226.109	-8.163	19.136	-82.701	67.589	68.039	-82.053	-79.230	16.804	70.879	-78.083	-73.379	-75.002	-69.592	51.569	-69.159	-8191	255	
40608.234	1	1	0	0	0.22627	0.11113	0.29123	0.43716	0.14286	0.33194	0.13484	0.25448	0.15021	0.20304	0.15016	0.15253	0.25228	0.059075	0.21804	0.089397	-3.5417	-3.3417	-3.1917	-4.0854	-3.2854	-3.3958	-4.1125	-3.1583	-3.8917	-3.75	-3.2417	-4.1896	-3.3125	-3.4417	-3.8771	-3.4042	130.341	200.779	-16.641	245.775	-27.126	239.672	205.208	225.754	135.695	139.413	254.301	-87.109	-31.162	-44.830	203.830	214.585	0.00022304	0.00041752	0.00011373	834.8	3.184e-06	3.8017e-06	1437.1	247.73	2.3011e-06	4.618e-06	525.59	177.39	66.18	21.66	2.7402e-06	73.916	0.00012308	8.5253e-05	2.4465e-05	761.94	9.7932e-07	9.1155e-07	1331	228.57	9.2233e-07	8.53e-07	484.32	165.79	62.184	20.078	9.6278e-07	68.564	223.933	6.998	16.195	-83.160	47.986	90.576	-81.737	-79.490	59.646	57.054	-78.018	-73.381	-75.165	-69.652	61.562	-68.635	-8191	255	
40608.355	1	1	0	0	0.030667	0.20053	0.22183	0.068322	0.19219	0.14575	0.24182	0.014435	0.28781	0.072227	0.12721	0.15231	0.16776	0.091142	0.17187	0.24475	-3.5604	-3.6833	-3.375	-4.0271	-3.3375	-3.4917	-4.2667	-3.3792	-3.7354	-3.95	-3.2021	-4.1146	-3.5687	-3.4354	-4.0146	-3.3292	158.366	154.253	152.368	26.638	-11.950	158.531	223.445	-71.006	32.906	148.226	-53.548	237.129	128.057	-40.531	88.381	188.018	0.00019827	0.0005382	0.00011548	818	2.1658e-06	4.5638e-06	1438.2	247.47	2.1132e-06	5.9467e-06	521.73	175.7	66.282	21.408	4.6271e-06	72.444	0.00012664	8.1706e-05	2.3174e-05	757.32	9.024e-07	9.2446e-07	1330.3	228.63	9.4476e-07	8.8848e-07	482.72	164.62	62.372	19.951	9.7895e-07	67.591	223.942	-7.992	13.825	-82.967	0.518	38.691	-82.182	-79.324	30.848	47.884	-78.334	-73.700	-74.277	-70.231	23.964	-68.693	-8191	255	
40608.453	1	1	0	0	0.25307	0.21533	0.052184	0.063701	0.21983	0.019411	0.060279	0.090979	0.069478	0.03317	0.21768	0.06384	0.24644	0.24691	0.14547	0.084466	-3.275	-3.6958	-3.1	-4.2208	-3.5479	-3.5104	-4.1917	-3.4604	-3.6063	-3.8979	-3.3146	-4.1479	-3.5708	-3.3917	-4.1396	-3.3729	56.808	137.986	2.689	18.281	26.043	152.686	166.039	-43.503	14.410	67.389	232.092	15.940	-50.245	133.101	89.416	-25.477	0.00022726	0.00025232	0.00011854	823.79	2.6265e-06	4.958e-06	1430.1	245.53	1.8587e-06	1.9896e-06	519.51	175.74	66.081	21.493	3.5182e-06	72.727	0.00012712	8.0434e-05	2.4874e-05	757.52	9.3802e-07	9.3e-07	1328.5	227.74	1.0142e-06	8.9363e-07	481.47	164.28	62.089	19.929	9.3192e-07	67.781	223.061	-51.511	-2.349	-82.822	62.169	40.822	-82.079	-79.055	59.115	34.190	-78.020	-73.798	-74.548	-69.708	49.083	-68.664	-8191	255	
40608.523	1	1	0	0	0.2122	0.13906	0.035394	0.1195	0.17113	0.2172	0.1745	0.22112	0.084088	0.25324	0.34774	0.044494	0.14333	0.12396	0.12124	0.16473	-3.2958	-4.0542	-3.2583	-4.0375	-3.7146	-3.2938	-4.2396	-3.4062	-3.4958	-4	-3.4104	-3.8208	-3.7625	-3.2833	-3.9417	-3.5104	34.679	-46.086	243.336	134.306	90.323	86.633	183.509	-31.851	17.753	129.273	221.713	253.807	-3.899	-51.563	113.235	-94.538	0.00020575	0.00055116	0.00014629	825.85	4.834e-06	4.4194e-06	1436.3	247.04	2.8909e-06	5.15e-06	525.56	176.52	67.255	21.782	5.5603e-06	73.814	0.00012231	7.9297e-05	2.3535e-05	755.85	8.9308e-07	9.8287e-07	1330.5	228.48	9.9174e-07	9.0601e-07	483.87	165.29	62.672	20.09	9.6072e-07	68.563	228.112	16.406	-15.568	-83.108	30.284	66.247	-81.999	-79.162	43.234	42.365	-78.522	-73.895	-74.989	-69.761	53.881	-68.745	-8191	255	
40608.645	1	1	0	0	0.15791	0.14782	0.12291	0.19966	0.11043	0.28065	0.25811	0.19133	0.019248	0.066254	0.17687	0.054535	0.17803	0.21094	0.077283	0.25539	-3.1229	-4.0813	-3.3292	-3.8937	-3.6979	-3.2188	-4.2188	-3.5167	-3.3604	-3.9688	-3.3833	-3.7396	-3.7771	-3.2562	-3.7938	-3.7792	66.723	124.176	73.379	-57.478	-80.972	75.379	-90.982	192.385	128.788	122.622	160.891	207.935	-81.287	-70.692	-0.410	34.594	0.0002226	0.00080757	0.00013953	823.44	2.6234e-06	3.5865e-06	1434.3	249.54	2.5303e-06	3.8252e-06	527.3	177.86	67.771	21.737	6.3795e-06	74.869	0.00012964	8.2312e-05	2.2909e-05	756.85	9.4037e-07	9.2197e-07	1331.5	229.67	9.919e-07	8.8166e-07	486.65	167.07	63.3	20.277	9.594e-07	69.498	220.448	0.972	9.780	-82.859	68.213	14.212	-82.044	-79.049	26.389	48.515	-77.893	-73.697	-74.490	-69.399	67.403	-68.555	-8191	255	
40608.738	1	1	0	0	0.079931	0.17742	0.091021	0.24292	0.1459	0.079666	0.17311	0.15587	0.18701	0.062615	0.05471	0.092218	0.065759	0.2863	0.18542	0.18829	-3.225	-4.0271	-3.3	-3.7042	-3.9313	-3.3417	-4.0396	-3.7771	-3.2104	-4.0104	-3.5875	-3.5625	-3.8625	-3.0708	-3.75	-3.7667	148.743	57.814	-31.906	216.308	-3.869	-3.300	258.366	245.929	92.439	-32.833	196.064	-72.393	128.836	241.128	21.595	182.237	0.00020246	0.00042717	8.9208e-05	815.9	3.4568e-06	4.4168e-06	1439.3	248.49	3.8001e-06	4.5185e-06	526.79	177.35	67.896	21.787	4.7472e-06	74.255	0.00012783	8.4333e-05	2.2986e-05	756.2	9.5583e-07	9.5888e-07	1334.2	229.89	9.9214e-07	8.7419e-07	486.29	166.55	63.258	20.254	9.4949e-07	68.998	225.105	-4.820	1.412	-82.829	82.477	29.027	-82.094	-79.126	59.774	36.607	-78.407	-73.871	-74.817	-70.065	67.227	-68.710	-8191	255	
40608.836	1	1	0	0	0.15149	0.16219	0.074139	0.23086	0.14079	0.05363	0.18071	0.093872	0.14928	0.14194	0.23311	0.21297	0.27823	0.26032	0.037493	0.35011	-2.8771	-3.7188	-3.4	-3.3021	-4.0312	-3.3708	-4.0521	-3.8125	-3.2833	-4.0354	-3.5333	-3.4604	-4.0896	-3.2562	-3.7625	-4.0333	217.182	-5.247	-0.096	241.871	207.021	240.597	156.854	127.616	7.855	182.993	-85.835	161.412	129.105	124.042	25.894	178.397	0.00022411	0.00047386	0.0001033	820.49	3.3283e-06	5.3691e-06	1432.1	248.52	3.6622e-06	3.2961e-06	526.01	176.89	67.289	21.719	4.1686e-06	74.02	0.00012507	8.1976e-05	2.259e-05	754.43	9.3802e-07	9.3786e-07	1329	228.97	1.0129e-06	8.7527e-07	485.51	166.28	63.008	20.146	9.2012e-07	68.894	226.040	-4.649	-6.862	-82.814	79.202	48.714	-81.965	-79.173	46.500	61.169	-78.211	-73.662	-75.343	-69.583	57.994	-68.341	-8191	255	
40608.953	1	1	0	0	0.15991	0.21008	0.19344	0.121	0.0713	0.24699	0.20712	0.11958	0.26759	0.27295	0.3369	0.06943	0.35627	0.16645	0.26037	0.1035	-2.8063	-4.0792	-3.4208	-3.5708	-4.0833	-3.2792	-3.8771	-4.0479	-3.1312	-4.0458	-3.7542	-3.4854	-4.0396	-3.5083	-3.5458	-3.9792	179.740	-67.517	80.836	183.384	-11.020	133.677	238.815	187.525	175.849	90.884	190.563	149.371	148.576	215.352	55.171	50.420	0.00021234	0.00056907	0.00010734	816.28	2.4094e-06	6.3167e-06	1430.8	246.22	2.7768e-06	4.1232e-06	524.8	177.77	66.995	21.81	3.8465e-06	74.333	0.00012902	8.0876e-05	2.2686e-05	752.21	9.1729e-07	8.8772e-07	1327.8	228.93	9.8227e-07	8.2135e-07	486.25	166.38	62.88	20.222	8.7078e-07	68.865	227.433	-4.106	15.522	-82.974	61.758	61.991	-81.937	-79.417	34.461	24.757	-78.316	-73.880	-74.797	-69.388	68.659	-68.439	-8191	255	
40609.051	1	1	0	0	0.16192	0.1301	0.16602	0.23475	0.057581	0.15826	0.23062	0.20633	0.21363	0.21602	0.090363	0.11072	0.054103	0.21734	0.16341	0.24152	-2.85	-3.6979	-3.5854	-3.4062	-3.9688	-3.4562	-3.7875	-4.0667	-3.2375	-3.7812	-3.8771	-3.2938	-4.0625	-3.5417	-3.4708	-4.1188	120.322	-71.152	215.096	187.155	-29.459	14.693	226.022	246.114	253.323	226.011	170.578	147.084	249.429	167.309	-20.181	241.217	0.00022014	0.00058685	0.00015076	814.72	1.1854e-06	5.8218e-06	1433.1	246.67	4.1164e-06	3.7767e-06	525.94	176.64	66.709	21.786	5.3556e-06	73.835	0.00012547	8.4939e-05	2.2161e-05	749.87	9.4215e-07	9.1982e-07	1324.8	228.71	9.9443e-07	8.7884e-07	485.38	166.19	62.628	20.24	9.1393e-07	69	229.823	-15.249	4.635	-83.211	41.483	62.622	-82.062	-79.109	65.525	59.018	-78.094	-73.856	-74.978	-69.629	49.760	-68.524	-8191	255	
40609.121	1	1	0	0	0.22881	0.13919	0.15006	0.2899	0.15445	0.1633	0.23704	0.16068	0.051036	0.2599	0.35814	0.21733	0.26478	0.04793	0.11598	0.097763	-2.9854	-3.8542	-3.8042	-3.175	-4.1125	-3.3896	-3.5375	-4.2792	-3.2875	-3.6646	-3.9437	-3.4854	-3.8646	-3.575	-3.3688	-4.0292	-7.801	-51.088	176.327	-86.396	49.148	88.025	219.646	197.727	42.865	-36.466	162.543	-51.690	84.799	220.416	74.073	146.212	0.00021359	0.00044079	0.00016786	818.75	2.7048e-06	3.7584e-06	1428.8	248.31	2.6603e-06	4.2109e-06	526.15	177.16	67.17	21.624	3.0184e-06	73.554	0.0001262	7.9499e-05	2.2709e-05	751.28	9.3567e-07	8.7473e-07	1327.7	229.35	9.3489e-07	8.7095e-07	486.47	166.25	62.965	20.196	9.1888e-07	68.802	225.131	-15.757	-16.581	-83.047	45.055	69.630	-82.306	-79.369	52.308	48.068	-78.133	-73.911	-74.937	-69.450	48.581	-68.727	-8191	255	
40609.242	1	1	0	0	0.16529	0.25568	0.24361	0.21037	0.27278	0.20122	0.1866	0.068557	0.096208	0.2096	0.24006	0.12545	0.2015	0.16188	0.22545	0.29331	-2.7812	-3.6167	-3.8354	-3.3583	-4.175	-3.7771	-3.4542	-4.1396	-3.2521	-3.5208	-4.2354	-3.3354	-3.8375	-3.6979	-3.1458	-4.1042	-70.054	-76.282	198.075	-86.397	-14.350	-34.650	217.715	157.953	93.000	153.391	187.242	202.134	-96.479	122.019	86.429	192.908	0.0002052	0.00049523	0.00013904	811.39	3.0044e-06	5.1047e-06	1425.8	246.47	2.4409e-06	3.3911e-06	521.72	176.68	66.69	21.535	5.463e-06	73.614	0.00012578	7.7673e-05	2.2578e-05	748.11	9.0774e-07	8.9326e-07	1323.3	227.81	9.8301e-07	8.2733e-07	483.16	165.2	62.339	19.964	9.7334e-07	68.205	227.489	-32.736	15.950	-82.737	72.793	40.977	-81.920	-79.256	47.683	52.671	-77.665	-73.844	-74.537	-69.629	46.292	-68.584	-8191	255	
40609.340	1	1	0	0	0.097744	0.16615	0.11443	0.258	0.15772	0.12222	0.30236	0.16248	0.25095	0.11254	0.038686	0.10787	0.22279	0.093967	0.099169	0.16972	-3.0646	-3.4792	-3.8917	-3.3104	-3.8604	-3.7958	-3.4313	-4.1354	-3.3958	-3.4188	-4.1312	-3.1708	-3.8167	-3.825	-3.4208	-4.1271	68.406	-73.234	151.533	198.627	217.457	211.877	218.935	230.962	252.622	129.362	258.799	257.809	-28.831	-15.869	88.831	119.815	0.00019196	0.00041396	0.0001287	813.88	3.03e-06	3.2897e-06	1427.8	247.97	3.883e-06	4.2466e-06	525.26	176.58	66.578	21.48	4.4956e-06	73.559	0.00012339	8.1519e-05	2.3251e-05	749.43	9.3859e-07	8.5289e-07	1325.7	228.88	9.2665e-07	8.9396e-07	484.56	165.75	62.412	20.003	9.0568e-07	68.288	230.725	9.590	-1.818	-82.800	54.630	60.976	-81.958	-78.934	38.615	65.123	-78.194	-73.890	-74.853	-69.733	68.242	-68.570	-8191	255	
40609.438	1	1	0	0	0.11005	0.013698	0.10077	0.41117	0.30861	0.068559	0.17673	0.1242	0.11843	0.22214	0.052227	0.097582	0.081324	0.097897	0.18897	0.18931	-3.1937	-3.325	-3.7875	-3.1646	-3.6375	-3.9	-3.4562	-4.0792	-3.5708	-3.2583	-4.0854	-3.4979	-3.5438	-3.9958	-3.1063	-4.0437	8.634	110.877	-27.176	246.939	142.325	-83.876	229.619	133.473	59.206	45.576	38.013	195.867	-50.365	247.863	-38.497	178.415	0.00022895	0.00038782	0.00013597	811.72	4.4143e-06	3.662e-06	1429.5	248.29	2.4904e-06	2.9861e-06	528.53	178.14	67.426	21.717	3.6036e-06	73.484	0.00012195	8.8635e-05	2.3595e-05	746.84	9.7017e-07	8.8151e-07	1324.8	229.1	9.5144e-07	9.4182e-07	486.92	166.35	62.744	20.033	8.9116e-07	68.544	221.544	8.021	-27.601	-83.285	48.373	62.892	-82.025	-79.420	67.081	33.630	-78.004	-73.838	-75.164	-69.667	65.924	-68.412	-8191	255	
40609.531	1	1	0	0	0.20864	0.099335	0.21851	0.18491	0.2545	0.10423	0.08034	0.076929	0.2167	0.096153	0.10405	0.1964	0.2287	0.17792	0.0096876	0.19751	-3.3396	-3.025	-3.9771	-3.4479	-3.5896	-3.8	-3.3458	-3.8958	-3.6208	-3.2333	-3.9667	-3.575	-3.6396	-4.075	-3.2708	-3.8729	62.158	162.748	146.438	-94.505	251.074	139.507	219.804	28.356	-5.576	145.950	-28.443	237.981	255.356	164.181	237.899	132.349	0.0002281	0.00044743	0.00017677	814.64	4.4821e-06	2.0263e-06	1433.5	248.81	1.3873e-06	4.8052e-06	526.71	178.14	67.408	21.895	5.266e-06	73.448	0.00012036	8.348e-05	2.2624e-05	748.79	8.943e-07	8.5462e-07	1329.4	230.23	9.1743e-07	9.1e-07	487.02	166.5	63.112	20.188	9.0428e-07	68.214	225.316	12.553	-4.507	-82.839	66.453	57.053	-82.119	-79.184	92.200	19.643	-77.913	-73.298	-74.873	-69.900	27.141	-68.768	-8191	255	
40609.652	1	1	0	0	0.07859	0.043143	0.1522	0.10951	0.14173	0.12008	0.14511	0.006146	0.14544	0.1518	0.084832	0.13186	0.19956	0.038274	0.12487	0.20827	-3.3521	-3.1333	-3.9083	-3.5979	-3.3812	-3.9854	-3.4792	-3.7896	-3.7313	-3.0896	-4.0042	-3.6271	-3.3917	-3.8729	-3.0771	-3.6875	36.355	114.131	46.175	212.771	63.705	-56.071	173.157	95.471	1.037	-39.176	198.171	159.391	-65.386	151.493	81.580	188.898	0.00021888	0.00058909	0.00012306	814.87	4.7147e-06	6.4635e-06	1434.2	249.27	2.6151e-06	3.3105e-06	526.11	176.51	67.746	21.741	4.3953e-06	72.973	0.00012168	8.2477e-05	2.2173e-05	749.02	9.7478e-07	8.3501e-07	1329.2	230.39	8.9663e-07	8.8823e-07	487.09	165.94	62.946	20.092	9.6006e-07	68.068	226.761	4.017	-12.708	-83.028	56.882	57.523	-81.956	-79.215	48.975	33.949	-78.085	-73.696	-74.940	-69.384	69.038	-68.573	-8191	255	
40609.746	1	1	0	0	0.17875	0.18823	0.1187	0.30308	0.023977	0.11364	0.28679	0.19842	0.10196	0.10079	0.15528	0.15321	0.1171	0.1843	0.076332	0.050841	-3.6562	-3.2396	-3.7917	-3.6188	-3.2646	-4.1333	-3.5292	-3.6229	-3.8375	-3.0438	-3.9188	-3.6479	-3.2062	-4.1083	-3.2292	-3.5875	146.208	99.438	-24.599	244.698	-78.578	136.800	-89.633	142.126	-48.517	-35.566	234.041	195.879	17.884	248.902	155.667	225.308	0.00021895	0.00051989	8.772e-05	812.74	1.9094e-06	5.2136e-06	1427.1	247.65	2.8373e-06	4.1059e-06	526.22	175.9	67.26	21.633	6.525e-06	73.441	0.00012398	8.3001e-05	2.1281e-05	745.93	9.5341e-07	8.3005e-07	1326.1	229.28	9.0715e-07	9.0825e-07	486.27	165.81	63.021	20.048	8.9883e-07	68.23	229.078	-17.662	-2.801	-83.266	11.636	50.397	-81.839	-79.319	54.762	78.506	-78.441	-73.773	-75.110	-69.344	42.981	-68.527	-8191	255	
40609.820	1	1	0	0	0.090427	0.11552	0.12751	0.053449	0.13452	0.14524	0.26589	0.256	0.092587	0.13877	0.12282	0.30549	0.10994	0.12225	0.034424	0.071616	-3.5125	-3.0542	-3.6125	-3.6875	-3.175	-3.925	-3.5771	-3.4125	-4.0333	-3.0417	-4	-3.8917	-3.0812	-3.9271	-3.3312	-3.475	-46.862	222.113	-89.779	242.630	163.832	61.964	-64.190	250.341	18.279	144.547	201.076	-67.928	-89.416	-45.840	30.201	-85.086	0.00017338	0.00056967	0.00015835	811.22	5.0614e-06	1.7148e-06	1433.7	249.94	2.5804e-06	4.5219e-06	526.58	177.68	66.361	21.447	3.2125e-06	73.294	0.00012266	8.2724e-05	2.1566e-05	744.83	9.4944e-07	8.4378e-07	1327	229.89	9.1376e-07	8.4627e-07	486.6	166.2	62.365	19.932	9.0164e-07	68.178	227.116	-12.601	-4.567	-82.662	64.741	76.612	-82.029	-79.402	72.706	63.112	-78.394	-73.791	-74.548	-70.437	47.187	-68.914	-8191	255	
40609.918	1	1	0	0	0.26237	0.052759	0.11541	0.22839	0.11072	0.29197	0.095288	0.073364	0.13851	0.19342	0.17577	0.27147	0.080102	0.12105	0.12385	0.09461	-3.5812	-3.2458	-3.525	-4.0479	-3.3854	-3.925	-3.7583	-3.5083	-4.0771	-3.3354	-3.6833	-4.0458	-3.2979	-3.9188	-3.6896	-3.3812	260.468	199.380	213.748	-87.060	55.035	-86.350	146.302	250.644	182.172	231.020	190.527	182.382	163.506	67.793	99.654	261.821	0.00021474	0.00068769	0.00014284	809.15	3.1993e-06	6.1157e-06	1428.2	247.01	1.4912e-06	5.2314e-06	525.17	177.13	66.968	21.546	3.5306e-06	73.569	0.00012281	8.6084e-05	2.2601e-05	744.17	9.5357e-07	8.4569e-07	1326.8	228.74	9.5952e-07	8.8947e-07	485.56	165.84	62.845	20.009	9.1426e-07	68.466	226.804	-19.655	-16.683	-82.738	47.971	58.240	-81.923	-79.178	48.333	43.594	-78.094	-73.637	-75.138	-69.682	49.462	-68.839	-8191	255	
40610.035	1	1	0	0	0.19186	0.32024	0.15564	0.15587	0.11913	0.1733	0.025201	0.042585	0.12066	0.1297	0.17722	0.16751	0.063564	0.1031	0.072518	0.40316	-3.7438	-3.2625	-3.5333	-4.1167	-3.1688	-3.9708	-4.0167	-3.3896	-3.9854	-3.2917	-3.6708	-4.0188	-3.2146	-3.7958	-3.7896	-3.3458	13.127	-41.866	10.768	229.192	26.660	211.714	194.974	60.549	53.152	107.843	-68.627	243.042	235.839	72.596	-96.551	-88.409	0.00024163	0.00029663	0.00014389	807.82	2.5861e-06	4.298e-06	1428	247.32	3.9119e-06	4.5874e-06	527.19	177.18	67.594	21.664	2.5755e-06	73.553	0.00012178	8.354e-05	2.3575e-05	742.4	9.4304e-07	8.7895e-07	1323.1	228.89	8.9786e-07	8.6139e-07	485.98	166.43	62.98	20.1	8.7969e-07	68.548	222.130	-27.884	4.903	-82.967	72.949	45.168	-81.697	-79.302	48.177	56.564	-78.478	-73.664	-74.912	-70.033	62.531	-68.866	-8191	255	
40610.133	1	1	0	0	0.15398	0.19391	0.14016	0.39778	0.11897	0.14812	0.18248	0.07369	0.32714	0.20197	0.21133	0.25687	0.17887	0.066061	0.014524	0.18852	-3.6333	-3.4271	-3.4667	-4.0229	-3.2313	-3.7167	-3.8417	-3.3	-3.7812	-3.4333	-3.4146	-3.9875	-3.2562	-3.7062	-3.8479	-3.3104	-19.576	187.970	100.362	214.565	-36.106	128.533	193.979	50.235	-37.190	232.534	219.709	128.719	-47.760	147.462	23.361	208.678	0.00021149	0.00052156	0.00011982	810.25	3.1273e-06	5.9171e-06	1421.2	247.11	2.4959e-06	5.5515e-06	526.38	177.8	66.748	21.717	4.2453e-06	74.127	0.00012189	8.113e-05	2.3239e-05	743.4	9.492e-07	9.0716e-07	1322.8	228.9	9.7657e-07	8.7361e-07	486.18	166.45	62.693	20.064	9.1055e-07	68.598	227.406	-21.124	-2.351	-83.171	40.346	55.474	-81.523	-79.490	40.554	66.410	-78.190	-73.779	-75.316	-69.600	48.501	-68.686	-8191	255	
40610.227	1	1	0	0	0.22754	0.21471	0.17772	0.074456	0.13262	0.17483	0.30575	0.14292	0.14248	0.083514	0.09522	0.014407	0.13788	0.066027	0.033264	0.08943	-3.5708	-3.5625	-3.2062	-3.9437	-3.3708	-3.5604	-4.125	-3.1813	-3.8625	-3.5458	-3.4833	-4.1	-3.5812	-3.4813	-3.9396	-3.5083	59.147	152.534	-87.052	166.405	98.005	-7.163	211.072	-83.844	-78.259	134.925	154.264	148.984	167.734	-92.635	108.664	61.744	0.00020424	0.00063895	0.00016466	804.62	3.5316e-06	5.2638e-06	1428.7	245.17	2.5516e-06	4.9233e-06	524.01	175.11	67.153	21.446	4.4862e-06	73.162	0.00012368	8.1549e-05	2.3996e-05	740.75	9.2515e-07	8.6612e-07	1321.1	227.56	9.5153e-07	8.7751e-07	483.59	164.95	62.33	19.936	8.9628e-07	68.098	220.073	-30.792	-6.232	-83.113	49.764	47.772	-81.855	-79.390	78.436	57.735	-78.301	-73.570	-74.573	-70.073	39.141	-68.615	-8191	255	
40610.324	1	1	0	0	0.05427	0.27046	0.17771	0.10568	0.12444	0.080891	0.14291	0.032421	0.2737	0.12981	0.19274	0.066307	0.12676	0.1114	0.23169	0.25731	-3.5917	-3.7146	-3.175	-4.0458	-3.2917	-3.5187	-4.2396	-3.075	-3.8021	-3.9229	-3.3292	-4.1083	-3.4771	-3.5062	-4.1062	-3.375	-33.050	227.222	130.239	195.046	234.144	115.473	78.031	136.731	253.133	87.039	-78.059	223.966	88.185	129.332	198.556	248.612	0.00021842	0.00042385	9.9407e-05	807.71	2.3551e-06	5.0897e-06	1423.9	246.11	6.0965e-07	5.0821e-06	523.17	176.28	66.366	21.412	3.2189e-06	72.838	0.00012645	8.4669e-05	2.3781e-05	743.94	9.0984e-07	9.0278e-07	1321.8	228.1	9.2257e-07	8.5018e-07	484.52	165.3	62.447	19.926	9.2128e-07	68.034	226.954	-9.109	-4.272	-82.671	62.237	37.898	-81.923	-78.895	37.497	43.818	-78.200	-73.903	-75.451	-69.657	67.088	-68.830	-8191	255	
40610.422	1	1	0	0	0.20716	0.092952	0.20965	0.11348	0.011728	0.26479	0.038913	0.22395	0.13811	0.12242	0.35323	0.14069	0.11748	0.1747	0.35742	0.056549	-3.1292	-3.7479	-3.2125	-4.1729	-3.6208	-3.3458	-4.1687	-3.2854	-3.55	-3.9521	-3.2125	-4.0417	-3.8479	-3.4625	-4.0271	-3.4333	9.311	223.735	150.716	232.692	219.787	21.046	102.239	180.832	219.821	82.045	189.942	158.860	152.555	-73.883	-51.510	253.926	0.00019052	0.00051462	0.00011519	803.86	2.3925e-06	3.6772e-06	1430.1	248.21	2.7345e-06	4.0763e-06	525.57	176.48	66.837	21.509	4.3634e-06	73.349	0.00012504	8.125e-05	2.4325e-05	742.8	9.041e-07	9.0261e-07	1323.9	228.41	9.4696e-07	9.1307e-07	484.4	165.23	62.522	19.945	9.155e-07	68.147	228.168	-15.055	7.601	-82.903	67.243	40.621	-81.972	-79.046	70.107	91.182	-77.990	-73.660	-74.737	-69.637	37.632	-68.664	-8191	255	
40610.516	1	1	0	0	0.1693	0.24227	0.23408	0.14379	0.054148	0.087111	0.21852	0.14167	0.2802	0.23835	0.14129	0.17611	0.17717	0.071469	0.071032	0.073685	-3.175	-3.8875	-3.0271	-3.9292	-3.6021	-3.1104	-4.2646	-3.3604	-3.4625	-3.8271	-3.2083	-4.025	-3.8083	-3.2229	-4.0437	-3.5021	-73.845	-9.182	-20.649	230.653	-90.403	-22.002	185.494	222.807	231.873	107.696	154.125	219.658	124.300	232.313	-79.723	-81.723	0.00020705	0.00060598	0.00017281	809.73	3.0239e-06	3.3274e-06	1422	244.59	2.2319e-06	4.8408e-06	522.62	175.98	67.165	21.625	3.4802e-06	72.877	0.00012351	8.6046e-05	2.3502e-05	743.35	8.8061e-07	9.0501e-07	1317.9	227.84	9.5854e-07	8.7917e-07	483.61	165.06	62.736	19.955	9.1039e-07	67.54	225.238	-6.159	-0.737	-83.123	46.619	54.902	-81.988	-79.007	94.356	79.713	-78.058	-73.675	-74.935	-69.865	37.018	-68.621	-8191	255	
40610.637	1	1	0	0	0.12905	0.21911	0.22243	0.1707	0.17238	0.24155	0.13147	0.089415	0.12665	0.17272	0.12497	0.047645	0.0037476	0.12661	0.067129	0.1154	-2.9708	-3.8937	-3.1417	-3.6833	-3.7771	-3.2792	-4.1292	-3.625	-3.275	-3.9958	-3.3208	-3.5312	-3.8583	-3.1896	-3.8937	-3.6917	-84.044	80.339	68.245	227.042	-15.177	-50.767	171.953	-86.733	154.439	-11.523	164.923	67.698	116.412	-75.035	129.615	212.933	0.00019484	0.00035333	0.0001401	797.12	3.4669e-06	4.5133e-06	1393.5	240.76	2.7375e-06	4.2541e-06	511.22	170.45	63.918	20.615	2.0469e-06	70.727	0.00012243	8.1863e-05	2.2273e-05	733.03	9.3875e-07	9.1883e-07	1299.4	222.62	9.9508e-07	8.8914e-07	474.47	160.78	60.064	19.187	9.1286e-07	65.836	222.731	19.239	-2.206	-82.870	67.796	42.350	-82.007	-79.475	70.019	65.816	-78.540	-73.565	-74.590	-69.251	88.769	-68.771	-8191	255	
40610.730	1	1	0	0	0.2128	0.079192	0.27572	0.20988	0.079487	0.20869	0.12469	0.26825	0.15517	0.18123	0.4007	0.12379	0.36307	0.17217	0.13878	0.17181	-2.85	-3.8646	-3.1208	-3.6125	-3.9625	-3.1167	-4.2146	-3.6688	-3.4125	-3.9062	-3.4979	-3.6646	-4.0479	-3.2083	-4.025	-3.7021	168.063	-91.842	105.053	-69.210	105.602	-50.110	253.541	49.261	-68.798	-42.840	-74.142	244.439	-35.367	-64.917	90.022	-96.753	0.00015459	0.00041552	0.00012492	797.62	4.6155e-06	5.4405e-06	1419.5	242.7	2.4305e-06	4.2103e-06	518.71	174.41	65.494	20.894	3.9711e-06	71.046	0.0001284	8.1145e-05	2.2765e-05	731.32	9.0782e-07	9.1908e-07	1310.4	225.16	9.2078e-07	9.1249e-07	477.78	162.44	61.404	19.356	8.8209e-07	66.14	220.920	-9.242	4.633	-82.816	58.641	47.173	-82.119	-79.390	64.485	44.802	-77.952	-73.544	-75.155	-69.833	51.490	-68.504	-8191	255	
40610.828	1	1	0	0	0.29807	0.013215	0.02085	0.21387	0.060098	0.081362	0.28306	0.16434	0.089565	0.09821	0.048476	0.4666	0.090613	0.16279	0.084774	0.25516	-2.7979	-4.0938	-3.3729	-3.475	-3.9062	-3.2438	-3.9792	-3.8292	-3.2792	-4.1188	-3.5563	-3.4333	-4.1	-3.3	-3.6146	-3.9125	240.996	67.921	30.460	256.007	61.709	-88.967	177.402	232.419	-4.948	202.458	161.931	233.066	-26.392	-21.347	-57.556	254.508	0.00021069	0.0001776	7.1344e-05	791.07	3.3206e-06	6.3109e-06	1410.7	243.31	2.0589e-06	3.4305e-06	517.86	172.65	65.136	20.963	1.7239e-06	71.311	0.00012247	8.1901e-05	2.3222e-05	732.08	9.5551e-07	9.1486e-07	1305.8	224.96	9.6303e-07	8.7061e-07	478.22	162.57	61.323	19.468	8.6814e-07	66.506	223.023	-17.723	-8.457	-83.056	53.606	61.275	-82.062	-79.198	44.520	42.025	-78.086	-74.010	-74.706	-69.933	26.764	-69.080	-8191	255	
40610.926	1	1	0	0	0.33292	0.14064	0.18583	0.17908	0.081544	0.088643	0.13026	0.16595	0.094486	0.1159	0.20938	0.25325	0.12218	0.12127	0.043922	0.25573	-2.7062	-3.9437	-3.5021	-3.3875	-3.9437	-3.2708	-3.8292	-4.0229	-3.0333	-3.9104	-3.8063	-3.3417	-3.8688	-3.3792	-3.6188	-3.9792	166.006	219.929	258.702	194.106	166.725	74.979	158.941	214.071	179.634	160.185	161.837	-75.032	250.273	-84.357	260.687	186.810	0.00020892	0.00037598	0.00012302	797.03	4.2363e-06	5.6226e-06	1407.8	243.11	2.5862e-06	3.6579e-06	519.66	174.49	65.93	21.125	2.4034e-06	72.242	0.00012648	7.9387e-05	2.3103e-05	732.04	9.3843e-07	8.8557e-07	1307.1	226.04	9.574e-07	8.6463e-07	481.1	163.77	61.916	19.683	8.8869e-07	67.105	225.189	-1.996	-17.389	-83.166	64.383	63.202	-82.176	-79.007	90.452	45.657	-78.318	-73.791	-74.857	-69.675	77.336	-68.399	-8191	255	
40611.047	1	1	0	0	0.10937	0.14936	0.10083	0.10268	0.059693	0.097031	0.040659	0.086587	0.31104	0.11996	0.15225	0.28671	0.079002	0.27462	0.13404	0.10938	-2.7687	-3.8	-3.6813	-3.4042	-3.7438	-3.375	-3.5125	-4.0125	-3.2958	-3.7958	-3.8396	-3.3	-3.9813	-3.4146	-3.5667	-4.1979	195.298	232.481	227.264	74.634	141.228	237.405	58.495	251.171	-35.050	223.881	-36.400	200.002	165.275	213.686	107.813	159.987	0.00019519	0.00066748	0.0001336	791.21	3.6864e-06	6.7382e-06	1404.5	242.32	3.5899e-06	4.0497e-06	522.53	175.24	66.007	21.197	4.9016e-06	72.477	0.00012457	8.2657e-05	2.3675e-05	729.46	8.9754e-07	8.9558e-07	1302.2	225.11	9.6303e-07	8.7427e-07	480.94	164.38	62.088	19.766	8.9067e-07	67.586	225.614	-5.958	-16.173	-83.100	78.509	59.690	-82.194	-78.742	60.874	83.629	-78.249	-73.796	-75.068	-69.963	32.347	-68.528	-8191	255	
40611.117	1	1	0	0	0.17979	0.24419	0.019455	0.1137	0.23723	0.22798	0.36851	0.11532	0.19223	0.1682	0.096905	0.23084	0.086017	0.20736	0.35582	0.082097	-2.7646	-3.6917	-3.7417	-3.2417	-3.7854	-3.5208	-3.5896	-4.1146	-3.2542	-3.5812	-3.9417	-3.1417	-4.2063	-3.6188	-3.2958	-4.2042	32.845	-22.952	36.588	-52.624	123.198	-86.326	217.160	214.053	48.193	107.005	137.099	204.237	259.876	239.709	-38.670	198.938	0.00022756	0.00026342	0.00012803	794.24	5.7208e-06	4.1153e-06	1411.1	245.5	3.7319e-06	3.2736e-06	524.43	176.82	67.929	21.794	4.0268e-06	73.995	0.00012072	8.0965e-05	2.2728e-05	729.37	9.3171e-07	8.7804e-07	1306.4	227.37	9.8399e-07	8.8341e-07	486.53	166.61	63.498	20.239	8.6748e-07	69.151	226.659	-3.364	-7.594	-83.278	55.683	20.012	-82.057	-79.020	49.414	65.290	-78.328	-73.870	-74.435	-69.684	51.649	-68.702	-8191	255	
40611.211	1	1	0	0	0.2254	0.038739	0.081568	0.12637	0.13086	0.14003	0.21374	0.25025	0.059928	0.10423	0.066199	0.34344	0.048433	0.18926	0.11418	0.17829	-2.9125	-3.725	-3.8771	-3.3708	-3.9167	-3.7375	-3.3563	-4.2042	-3.3333	-3.4833	-4.0479	-3.2833	-3.8167	-3.7875	-3.1063	-4.0354	75.404	-63.377	116.560	-21.373	158.706	59.306	77.088	149.936	125.879	67.629	-52.351	206.279	182.113	194.229	-96.457	248.314	0.00021565	0.00045698	0.00019185	794.23	2.7039e-06	4.6897e-06	1421.2	245.91	2.3651e-06	5.405e-06	527.89	178.39	67.689	21.736	4.4511e-06	73.71	0.00012146	7.2966e-05	2.0793e-05	733.13	8.7025e-07	8.2384e-07	1310.9	228.85	8.7722e-07	8.4494e-07	485.92	167.14	63.403	20.29	8.9413e-07	68.691	220.898	-19.749	-6.831	-82.909	50.576	68.307	-82.241	-78.982	29.613	59.571	-78.266	-73.636	-74.795	-69.857	55.151	-68.958	-8191	255	
40611.309	1	1	0	0	0.077935	0.12331	0.0036105	0.12513	0.072265	0.16852	0.21053	0.24814	0.09944	0.12897	0.059639	0.16178	0.12874	0.091543	0.052195	0.17822	-3.1417	-3.4313	-3.9688	-3.2625	-3.7479	-3.8375	-3.4917	-4.0104	-3.6021	-3.3021	-4.1458	-3.4417	-3.8021	-3.7583	-3.1896	-4.0125	6.901	235.284	184.640	61.915	0.392	202.010	66.922	252.800	-49.684	18.445	17.101	234.761	-47.655	93.968	142.246	-59.360	0.00023011	0.00060979	0.00011496	790.1	4.6019e-06	5.1098e-06	1418.8	248.84	2.4984e-06	4.5661e-06	528.01	178.7	68.621	21.959	3.9423e-06	73.788	0.00012123	7.9327e-05	2.1564e-05	731.85	8.7908e-07	8.111e-07	1314.4	229.98	8.91e-07	8.3074e-07	488.28	167.48	63.701	20.305	8.8497e-07	68.808	215.246	6.706	10.229	-82.999	82.175	57.981	-82.175	-79.289	66.453	76.298	-78.248	-73.793	-75.409	-69.405	50.791	-68.738	-8191	255	
40611.430	1	1	0	0	0.077598	0.16435	0.11205	0.15997	0.1449	0.077008	0.3011	0.091161	0.15279	0.079358	0.22774	0.10219	0.11936	0.25687	0.18226	0.072285	-3.0875	-3.2396	-4.0625	-3.5271	-3.65	-3.8833	-3.3542	-4.0125	-3.4854	-3.4313	-4.2729	-3.2854	-3.7479	-4.0104	-3	-4.0542	86.600	98.253	106.745	223.853	239.824	22.895	196.781	226.846	-70.872	119.251	-3.151	95.281	200.480	230.072	112.824	96.657	0.00021435	0.00047455	0.00012772	795.98	2.4412e-06	7.19e-06	1417.7	247.35	2.4664e-06	4.9405e-06	527.01	179.28	68.644	21.852	5.6844e-06	74.174	0.000124	7.9835e-05	2.2307e-05	730.36	8.9155e-07	8.7614e-07	1310.9	229.08	9.5577e-07	8.4162e-07	487.61	167.86	63.638	20.359	8.9083e-07	69.158	219.701	-3.609	-2.770	-82.837	42.115	51.797	-82.280	-78.804	77.074	55.596	-78.200	-73.947	-74.909	-69.773	53.299	-68.749	-8191	255	
40611.523	1	1	0	0	0.30534	0.2287	0.20061	0.32118	0.082308	0.029195	0.17418	0.32113	0.11844	0.08813	0.24041	0.10139	0.16755	0.17157	0.18475	0.19695	-3.3521	-3.3729	-3.8583	-3.5333	-3.5583	-3.9833	-3.4625	-3.9396	-3.725	-3.1937	-4.2375	-3.4208	-3.4208	-3.8583	-3.2771	-3.8688	74.573	-68.778	24.488	163.472	103.729	51.939	-37.573	230.729	41.328	254.968	-68.859	207.797	227.729	146.382	7.195	258.130	0.00020647	0.00040516	0.00012059	788.44	3.9092e-06	4.7876e-06	1426.3	247.63	2.8679e-06	4.4608e-06	527.75	178.8	68.256	21.862	4.3407e-06	74.349	0.00011767	8.0726e-05	2.0951e-05	726.64	9.1543e-07	8.9823e-07	1311	228.84	8.9182e-07	8.761e-07	487.56	167.78	63.513	20.329	8.8728e-07	69.21	223.832	-4.187	-8.637	-82.918	79.269	10.881	-82.114	-79.410	80.538	53.496	-78.317	-73.747	-75.328	-69.421	42.607	-68.828	-8191	255	
40611.621	1	1	0	0	0.12795	0.09992	0.12208	0.20457	0.20254	0.16752	0.30964	0.15442	0.077852	0.051545	0.1788	0.32229	0.10704	0.19455	0.00801	0.052795	-3.3396	-3.2771	-3.9125	-3.5563	-3.45	-3.9583	-3.4521	-3.8417	-3.8438	-3.4271	-4.0417	-3.5896	-3.2979	-3.9646	-3.1688	-3.7021	169.190	57.282	220.256	-81.593	107.973	-13.318	210.232	230.245	219.685	51.768	185.755	256.718	234.192	248.843	247.191	41.452	0.00021925	0.00040743	0.00016087	786.82	5.5644e-06	4.9156e-06	1414.3	247.53	2.1664e-06	4.7969e-06	526.5	177.82	67.454	21.841	3.4422e-06	73.132	0.00012221	8.0584e-05	2.1716e-05	727.53	9.4393e-07	8.1201e-07	1310.9	228.84	8.9671e-07	8.6264e-07	486.16	167.13	63.339	20.192	8.919e-07	68.226	223.353	-13.810	12.330	-83.098	57.909	53.386	-82.060	-79.259	50.182	40.787	-78.087	-73.760	-75.238	-70.221	46.145	-68.848	-8191	255	
40611.719	1	1	0	0	0.22484	0.10252	0.21467	0.040784	0.13104	0.062889	0.088758	0.068587	0.20426	0.48355	0.20563	0.24269	0.19102	0.082453	0.24506	0.091158	-3.5292	-2.9521	-3.7875	-3.6167	-3.1708	-3.9667	-3.3396	-3.6063	-4.0479	-3.2792	-4.0563	-3.7104	-3.3167	-3.9792	-3.3167	-3.6063	178.116	40.662	156.357	178.501	23.355	31.601	-50.096	-89.604	5.773	31.039	202.767	-78.593	111.539	229.081	-0.658	254.803	0.0002276	0.00050192	0.0001179	786.93	4.095e-06	4.9722e-06	1407.4	244.61	2.1095e-06	7.1438e-06	527.28	177.99	68.139	21.567	5.9031e-06	73.735	0.00011836	8.0689e-05	2.1026e-05	725.43	9.266e-07	7.8851e-07	1306	227.49	9.1409e-07	8.4818e-07	486.05	166.85	63.21	20.098	8.2499e-07	68.47	221.968	-7.340	-14.442	-83.008	54.478	62.060	-82.038	-79.296	73.021	56.841	-78.382	-73.601	-74.831	-69.725	74.894	-68.577	-8191	255	
40611.812	1	1	0	0	0.13731	0.1054	0.1098	0.23222	0.087254	0.087985	0.2283	0.41883	0.10252	0.21136	0.27811	0.15336	0.032466	0.2209	0.19208	0.19157	-3.6083	-3.0104	-3.8125	-3.6792	-3.2458	-4.0792	-3.5687	-3.4583	-4.0208	-3.2625	-3.7708	-3.8125	-3.2771	-3.9396	-3.3417	-3.4313	22.094	167.306	160.622	251.765	96.162	73.141	192.459	192.485	194.614	50.222	182.490	-44.178	-66.683	199.207	126.855	181.036	0.00022073	0.00071216	0.00014352	791.14	4.8899e-06	5.0102e-06	1420.4	249.1	2.366e-06	6.544e-06	529.89	180.35	68.677	22.139	3.4278e-06	75.716	0.00012535	7.9731e-05	2.2265e-05	727.84	9.0345e-07	7.8231e-07	1312	229.64	8.9565e-07	8.2442e-07	489.77	168.85	64	20.554	8.8968e-07	70.155	229.719	3.061	0.046	-82.999	47.768	62.131	-82.194	-79.066	68.672	49.993	-78.007	-73.648	-75.391	-70.063	66.813	-68.696	-8191	255	
40611.906	1	1	0	0	0.20924	0.092676	0.16924	0.15472	0.14244	0.14808	0.17594	0.021127	0.17887	0.18416	0.25157	0.17448	0.27037	0.25388	0.17159	0.18819	-3.6854	-3.1792	-3.4042	-3.9188	-3.0458	-3.9208	-3.8625	-3.3063	-3.9313	-3.4125	-3.7229	-3.9271	-3.1604	-3.9646	-3.7062	-3.2708	149.869	104.296	-80.687	159.276	114.435	-5.572	-60.180	211.568	124.974	109.025	179.198	185.964	224.633	155.946	238.691	203.727	0.00022671	0.00042004	0.00013901	794.78	3.921e-06	4.5161e-06	1420.6	246.86	1.3739e-06	3.1603e-06	532.13	181.03	67.963	22.223	4.1256e-06	74.778	0.00011928	7.7216e-05	2.1053e-05	730.47	9.2863e-07	8.2889e-07	1314.8	229.28	9.0707e-07	8.1204e-07	490.36	169.34	63.765	20.547	8.6996e-07	69.729	221.647	0.403	25.093	-82.859	54.653	69.545	-81.831	-79.260	93.372	44.983	-78.220	-73.843	-75.175	-69.711	72.641	-68.903	-8191	255	
40612.004	1	1	0	0	0.2015	0.28134	0.1827	0.13752	0.068455	0.12369	0.32149	0.010839	0.16119	0.17677	0.1489	0.18802	0.29859	0.20732	0.12314	0.17709	-3.5458	-3.2875	-3.45	-3.9125	-3.0292	-3.8438	-3.7771	-3.4437	-4.0437	-3.2313	-3.4854	-4.1292	-3.2438	-3.7917	-3.7313	-3.2917	120.205	226.524	96.251	190.793	36.700	162.673	212.582	77.597	166.883	27.724	-91.109	-96.016	248.072	243.782	212.356	262.478	0.0002161	0.00059398	0.00012357	788.68	5.0016e-06	3.4624e-06	1412.5	248.77	3.0197e-06	4.6657e-06	531.78	179.46	68.15	22.236	5.1771e-06	74.042	0.00011902	7.6513e-05	2.171e-05	727.32	8.8312e-07	8.6612e-07	1310.4	230.34	9.0218e-07	8.0564e-07	489.65	168.4	63.912	20.458	8.8291e-07	69.023	229.296	-15.770	3.687	-82.531	63.915	40.846	-82.182	-79.245	58.847	41.113	-78.416	-73.662	-75.333	-69.769	46.492	-68.793	-8191	255	
40612.125	1	1	0	0	0.19632	0.20084	0.23054	0.19441	0.19465	0.09489	0.21077	0.077503	0.1615	0.18573	0.23227	0.23797	0.055489	0.12768	0.064192	0.3077	-3.5667	-3.4188	-3.2604	-4.0396	-3.2146	-3.7708	-4.0479	-3.3	-3.9792	-3.4396	-3.375	-4.0896	-3.3833	-3.8083	-3.7458	-3.4271	96.910	-56.388	197.713	197.515	-0.524	258.740	-74.375	253.642	33.487	-83.326	136.141	136.206	-83.243	219.813	-15.675	210.037	0.00021791	0.00049691	7.7222e-05	788.93	2.4261e-06	4.2068e-06	1413.8	247.41	1.97e-06	4.9269e-06	529.38	179.99	67.748	21.827	5.8573e-06	73.707	0.00011963	7.6161e-05	2.1618e-05	727.03	8.4871e-07	8.2757e-07	1309	229.45	8.5813e-07	8.0614e-07	487.71	168.09	63.516	20.166	8.8572e-07	68.682	230.646	-0.117	-29.679	-82.912	14.146	61.512	-81.912	-79.321	68.279	69.444	-78.284	-73.822	-74.868	-69.750	47.548	-68.645	-8191	255	
40612.223	1	1	0	0	0.17391	0.069112	0.11222	0.13466	0.10442	0.26442	0.15989	0.18879	0.15424	0.20747	0.25597	0.14318	0.26351	0.2228	0.080502	0.1644	-3.5917	-3.5	-3.45	-4.1375	-3.3187	-3.6958	-3.9958	-3.1562	-3.8083	-3.7562	-3.3896	-4.2396	-3.4188	-3.5083	-3.9083	-3.2042	-55.301	149.594	196.271	-76.515	203.885	0.251	166.974	168.008	5.364	120.779	261.108	154.571	242.915	-92.549	-10.986	179.576	0.00022799	0.00025101	0.00012168	787.69	3.5534e-06	5.6084e-06	1415.8	247.42	2.4876e-06	4.286e-06	531.11	179.02	68.218	21.795	5.6709e-06	73.812	0.00011405	7.2487e-05	2.1324e-05	724.43	8.3139e-07	8.3104e-07	1309.3	229.11	8.5658e-07	8.0847e-07	489.01	167.52	63.375	20.205	8.3563e-07	68.698	223.776	17.675	-5.992	-82.685	35.393	60.625	-82.040	-79.212	47.754	41.008	-78.366	-73.827	-75.202	-69.747	61.107	-69.088	-8191	255	
40612.316	1	1	0	0	0.22312	0.24009	0.092064	0.12743	0.19695	0.15682	0.22912	0.030652	0.21476	0.30157	0.14269	0.26545	0.12669	0.014944	0.10531	0.22602	-3.4333	-3.6208	-3.1292	-3.9292	-3.475	-3.4479	-3.9833	-3.3104	-3.7146	-3.8812	-3.2604	-4.1312	-3.4646	-3.5646	-4.075	-3.4396	176.980	51.071	-81.296	245.411	260.925	188.801	-97.449	247.241	168.960	9.955	218.943	253.125	177.377	101.049	98.718	193.273	0.00022961	0.00031626	0.00010315	783.77	3.3544e-06	6.5125e-06	1409.2	246.19	3.4309e-06	2.7815e-06	523.93	177.32	67.182	21.519	3.1349e-06	73.55	0.00011763	7.3288e-05	2.073e-05	721.85	8.4045e-07	8.279e-07	1304.4	227.95	9.0675e-07	8.4951e-07	484.84	166.65	62.705	19.929	9.0395e-07	68.529	223.125	-19.297	4.632	-82.922	64.318	38.281	-81.918	-79.481	51.690	27.472	-78.285	-73.944	-74.793	-69.835	54.116	-68.899	-8191	255	
40612.414	1	1	0	0	0.089093	0.047852	0.25368	0.092947	0.29372	0.19097	0.12853	0.11442	0.3142	0.087781	0.24236	0.31655	0.23569	0.11129	0.22334	0.16127	-3.4333	-3.7979	-3.1937	-4.0188	-3.6604	-3.1917	-4.2271	-3.5333	-3.5708	-3.9062	-3.2021	-4.0125	-3.7021	-3.2042	-3.9813	-3.7188	-28.574	242.606	236.901	257.003	-15.656	175.740	-91.115	139.247	-69.583	52.430	233.254	232.820	-52.557	-62.060	226.893	145.332	0.00021915	0.00045455	0.00010575	782.93	1.897e-06	3.8383e-06	1402.3	243.34	2.9561e-06	2.7269e-06	523.36	177.3	66.792	21.493	2.9499e-06	73.422	0.00012132	8.0524e-05	2.2815e-05	719.63	8.9179e-07	8.7969e-07	1302	226.25	9.3472e-07	8.206e-07	484.01	165.93	62.463	19.946	8.3654e-07	68.378	224.133	23.033	5.298	-83.118	34.265	67.454	-81.927	-78.973	41.098	42.915	-78.508	-73.896	-75.001	-69.861	26.632	-68.861	-8191	255	
40612.512	1	1	0	0	0.077654	0.1021	0.27557	0.055456	0.079596	0.17911	0.18803	0.19749	0.065704	0.17763	0.028839	0.1672	0.029086	0.13469	0.13757	0.12121	-3.2458	-3.8896	-3.225	-4.05	-3.6125	-3.3167	-4.2333	-3.4354	-3.4771	-4.0563	-3.2708	-3.8479	-3.6813	-3.1021	-4.025	-3.6854	-33.346	56.575	219.787	58.264	97.076	64.178	242.383	-79.393	-18.949	56.842	-96.687	-68.949	202.727	-62.719	36.509	254.053	0.00023466	0.00054297	0.00020778	780.86	3.0426e-06	5.3005e-06	1412.2	244.4	2.6786e-06	3.5939e-06	523.41	178.01	67.121	21.612	3.4789e-06	73.846	0.00012439	7.6805e-05	2.2459e-05	719.85	9.0377e-07	8.2219e-07	1304.5	226.38	9.2061e-07	8.4719e-07	483.92	166.66	62.795	20.075	8.6385e-07	69.029	222.543	3.368	5.913	-83.104	41.725	42.776	-81.905	-79.480	67.829	67.034	-78.367	-73.922	-74.897	-70.386	92.957	-68.428	-8191	255	
40612.605	1	1	0	0	0.12694	0.18397	0.032134	0.085742	0.072876	0.23198	0.25257	0.084096	0.10657	0.24354	0.055445	0.068037	0.20226	0.20181	0.074242	0.14281	-3.05	-3.8729	-3.2146	-3.7417	-3.6562	-3.1625	-4.1062	-3.5521	-3.15	-4.1229	-3.3479	-3.8896	-3.8812	-3.2083	-3.9271	-3.6792	-72.957	-42.535	111.959	-45.480	96.512	93.308	188.864	183.511	-94.282	23.977	156.341	228.803	-64.316	223.475	213.033	240.903	0.00020783	0.00053314	0.00013524	780.54	3.5836e-06	3.0329e-06	1410.4	247.14	1.4804e-06	4.7395e-06	527.46	177.99	67.059	21.647	5.5516e-06	74.773	0.00011979	7.7965e-05	2.2063e-05	719.48	8.2685e-07	8.4081e-07	1304.1	227.47	9.3236e-07	8.3339e-07	484.76	166.72	62.719	20.076	8.5898e-07	69.441	222.990	0.733	-2.741	-82.700	68.504	19.014	-82.087	-78.914	79.763	57.601	-78.180	-73.695	-74.701	-69.961	56.582	-68.704	-8191	255	
40612.727	1	1	0	0	0.028941	0.11421	0.26184	0.16327	0.11204	0.28478	0.28541	0.21332	0.24682	0.044365	0.13469	0.091154	0.35082	0.16452	0.089531	0.18365	-3.0333	-3.8917	-3.3375	-3.4188	-3.7854	-3.0938	-4.175	-3.7562	-3.2417	-3.9333	-3.5187	-3.5792	-4.025	-3.0917	-3.8563	-3.6729	199.888	23.951	135.610	239.031	170.680	241.144	217.492	223.035	91.241	49.094	48.215	171.927	206.628	250.944	175.245	211.294	0.00022535	0.00038078	9.1117e-05	791.38	3.1599e-06	4.1273e-06	1416.3	244.9	2.8618e-06	3.7022e-06	525.24	178.6	66.7	21.695	3.6066e-06	75.289	0.00012398	7.578e-05	2.161e-05	728.63	8.6345e-07	8.538e-07	1307.3	227.1	9.8154e-07	8.2077e-07	484.52	167.3	62.464	20.124	8.3192e-07	70.134	221.479	-8.333	-4.025	-83.104	50.314	38.004	-82.215	-78.955	67.706	70.334	-78.190	-73.664	-75.043	-70.055	49.884	-68.704	-8191	255	
40612.820	1	1	0	0	0.35302	0.17463	0.20816	0.16936	0.10585	0.029465	0.21362	0.10903	0.23522	0.067409	0.080938	0.18961	0.083038	0.26151	0.083559	0.23312	-2.8854	-4.0083	-3.3542	-3.7188	-3.8563	-3.2271	-4.1188	-3.9208	-3.1896	-4.1062	-3.6354	-3.3729	-3.8417	-3.3479	-3.7333	-4.0333	173.036	-8.207	1.942	-80.716	-22.905	149.794	178.094	154.295	128.567	131.114	97.158	173.809	252.925	-34.134	2.242	63.139	0.00020663	0.00038057	0.0001393	792.29	4.1591e-06	5.396e-06	1417.1	247.89	3.4628e-06	3.8135e-06	530.19	180.21	67.94	21.823	2.5843e-06	75.707	0.00012782	7.6738e-05	2.287e-05	733.96	9.079e-07	8.83e-07	1313.6	229.26	9.4663e-07	8.0689e-07	488.59	168.84	63.434	20.41	8.6649e-07	70.495	229.440	-36.394	8.658	-82.784	72.640	50.393	-82.284	-78.870	66.405	59.242	-78.297	-73.925	-74.625	-69.949	73.477	-68.850	-8191	255	
40612.918	1	1	0	0	0.12257	0.020749	0.044709	0.29165	0.024562	0.28453	0.18639	0.1729	0.1928	0.1719	0.097957	0.18263	0.057584	0.16894	0.33849	0.21265	-2.8667	-3.9458	-3.4521	-3.4229	-3.9896	-3.3354	-3.7812	-3.9521	-3.1208	-4.0333	-3.7375	-3.3646	-4.1146	-3.3729	-3.3812	-4.0312	167.085	103.941	-67.709	-87.381	-27.330	80.076	185.091	166.398	195.403	157.767	204.886	-78.043	190.333	-84.834	29.350	203.287	0.0002077	0.0003864	5.2933e-05	796.11	1.2926e-06	4.1677e-06	1415.8	245.99	1.2824e-06	5.8729e-06	529.51	180.07	67.742	21.808	4.9283e-06	75.577	0.00012847	7.4747e-05	2.0968e-05	733.82	8.7406e-07	8.3261e-07	1314.4	228.84	8.8391e-07	8.0506e-07	488.81	168.54	63.652	20.306	8.8052e-07	70.197	229.964	-7.684	-17.611	-82.933	40.783	43.857	-82.221	-78.983	-1.693	45.859	-78.082	-73.677	-74.708	-69.490	60.448	-68.554	-8191	255	
40612.988	1	1	0	0	0.25782	0.22205	0.047975	0.15766	0.11694	0.16926	0.22626	0.18491	0.2927	0.088706	0.084411	0.17059	0.082107	0.091411	0.10257	0.2039	-2.9292	-3.8896	-3.6375	-3.5479	-4	-3.4896	-3.6208	-4.1229	-3.1104	-3.8063	-3.9104	-3.3896	-4.15	-3.2938	-3.5563	-4.0188	215.915	-88.870	-91.943	217.950	100.097	-75.685	189.824	168.520	159.754	11.937	238.208	-60.450	-88.357	-89.614	146.484	246.268	0.00019369	0.00022553	0.00012159	796.76	3.0878e-06	5.2721e-06	1416.8	246.96	3.6206e-06	3.657e-06	530.75	180.1	67.927	22.001	5.9681e-06	76.026	0.0001234	7.2382e-05	2.0818e-05	734.36	8.6483e-07	8.5462e-07	1315.4	229.72	9.074e-07	8.3182e-07	488.87	168.83	63.364	20.339	9.1699e-07	70.569	224.898	-2.898	11.114	-82.940	33.273	33.390	-82.311	-78.985	21.864	59.131	-78.459	-73.774	-75.101	-69.918	50.382	-68.908	-8191	255	
40613.109	1	1	0	0	0.058717	0.11918	0.12022	0.22994	0.051832	0.12177	0.29982	0.18248	0.15253	0.10107	0.24672	0.1158	0.072512	0.098491	0.049526	0.20597	-2.7729	-3.6854	-3.6917	-3.2292	-4.0729	-3.4688	-3.6375	-4.0771	-3.1875	-3.6167	-3.9313	-3.3792	-4.0042	-3.6083	-3.4479	-4.1396	202.155	64.169	154.678	-35.361	-56.721	26.359	186.916	133.765	84.872	35.900	184.610	184.911	-82.120	112.747	19.614	89.880	0.00020677	0.00050745	0.00013772	800.88	2.1524e-06	3.1691e-06	1417.9	249.12	4.4388e-06	1.9191e-06	532.34	180.6	68.193	22.071	3.9793e-06	75.914	0.00012842	7.2959e-05	2.1977e-05	736.84	8.3956e-07	8.2997e-07	1317.6	229.99	9.72e-07	8.0415e-07	491.15	169.05	63.467	20.426	8.8654e-07	70.773	226.235	5.951	15.572	-83.446	60.693	76.604	-81.841	-79.077	52.994	30.284	-78.111	-74.172	-74.722	-69.666	28.475	-68.746	-8191	255	
40613.203	1	1	0	0	0.10834	0.12796	0.31193	0.15898	0.23949	0.29298	0.11709	0.3106	0.022305	0.3507	0.085609	0.11558	0.087275	0.19626	0.1027	0.20441	-2.8604	-3.7021	-3.9458	-3.3208	-3.9479	-3.7854	-3.4646	-3.8896	-3.3979	-3.5875	-4.2333	-3.3271	-3.8958	-3.5854	-3.0729	-4.1312	113.742	189.558	47.085	256.091	173.893	212.834	-87.733	225.888	123.896	47.795	179.831	206.042	-8.143	-84.448	158.523	86.015	0.0002444	0.00031613	0.00011641	798.5	5.8888e-06	5.2341e-06	1429.5	249.71	2.3906e-06	3.0486e-06	534.98	181.42	68.278	22.032	5.2774e-06	76.292	0.00012457	7.7665e-05	2.2492e-05	735.04	9.0976e-07	8.3874e-07	1321.6	231.09	8.7934e-07	8.6023e-07	493.62	170.06	63.895	20.537	8.787e-07	71.066	225.945	13.990	0.901	-83.283	50.153	62.077	-82.172	-79.135	63.838	54.574	-78.059	-73.613	-74.772	-69.957	80.173	-68.495	-8191	255	
40613.301	1	1	0	0	0.06624	0.29197	0.050266	0.14459	0.047423	0.075682	0.30175	0.19689	0.21312	0.10196	0.25361	0.072734	0.055504	0.12252	0.17894	0.024304	-3.1	-3.5625	-3.7354	-3.1437	-3.7646	-3.8688	-3.3833	-4.0083	-3.4771	-3.3604	-4.0437	-3.2271	-3.6917	-3.775	-3.2042	-4.0958	-3.295	-81.573	-78.999	137.060	-20.309	90.110	203.589	-92.451	119.055	258.928	189.668	243.040	-69.984	154.782	131.471	159.359	0.00023005	0.00056936	0.00011307	802.17	3.0572e-06	4.6148e-06	1422.9	250.15	2.4532e-06	4.8989e-06	534.04	181.3	69.032	22.149	4.0735e-06	76.485	0.00012445	8.1295e-05	2.1314e-05	736.04	8.2199e-07	7.924e-07	1319.1	231.66	8.5267e-07	8.3024e-07	493.17	170.35	64.486	20.586	8.5024e-07	71.085	221.253	-7.999	7.874	-82.952	59.987	48.573	-82.187	-79.147	85.005	53.820	-78.243	-73.957	-75.120	-69.587	74.200	-68.670	-8191	255	
40613.398	1	1	0	0	0.13339	0.067163	0.14031	0.2454	0.12613	0.074211	0.22205	0.15919	0.056103	0.25311	0.12058	0.13342	0.17463	0.077011	0.15677	0.0098033	-2.9646	-3.1854	-4.0042	-3.2562	-3.5917	-3.8229	-3.4542	-3.9917	-3.5958	-3.3542	-4.0833	-3.5417	-3.5812	-3.8563	-3.0625	-3.8958	143.303	-61.744	27.877	192.060	4.895	239.426	223.170	203.402	236.102	-20.281	213.955	189.238	48.848	62.555	127.004	215.533	0.00024859	0.00053803	0.00011944	796.71	3.7237e-06	4.8731e-06	1431.6	249.35	3.2534e-06	3.7235e-06	535.62	181.98	68.801	22.227	4.568e-06	76.276	0.00012346	7.673e-05	2.0342e-05	735.74	8.394e-07	8.1276e-07	1325.3	232.08	8.5748e-07	7.8222e-07	492.89	171.01	64.448	20.618	8.8275e-07	71.008	233.533	-7.711	-9.764	-82.951	37.892	64.535	-82.160	-79.087	46.796	30.127	-78.081	-73.732	-75.000	-70.406	59.189	-68.779	-8191	255	
40613.520	1	1	0	0	0.11068	0.17908	0.10996	0.11776	0.15002	0.067861	0.23733	0.15439	0.067102	0.14815	0.050136	0.21047	0.095213	0.091623	0.16279	0.17781	-3.2896	-3.2708	-4.0125	-3.4146	-3.4229	-4.0292	-3.4062	-3.9396	-3.675	-3.2833	-4.0188	-3.6083	-3.3438	-4.1833	-3.1125	-3.875	58.480	256.748	215.981	235.291	111.816	-3.027	158.176	146.001	16.404	66.307	-83.227	196.269	218.018	-36.644	191.236	220.424	0.00024157	0.00077508	0.00016447	793.58	4.0731e-06	4.4294e-06	1426.3	250.37	2.5228e-06	6.2445e-06	534.3	181.28	69.284	22.181	5.4836e-06	76.084	0.00012016	7.9858e-05	2.0352e-05	733.51	8.556e-07	7.6229e-07	1323.2	232.09	8.5561e-07	8.3946e-07	493.68	170.11	64.508	20.573	8.5651e-07	70.798	224.235	2.686	-3.615	-82.837	44.047	36.078	-82.091	-79.215	41.452	66.326	-78.367	-73.747	-75.134	-69.758	52.910	-69.061	-8191	255	
40613.590	1	1	0	0	0.12895	0.35258	0.072971	0.068504	0.16145	0.16524	0.24402	0.090479	0.083126	0.1513	0.16172	0.098271	0.097552	0.20644	0.080858	0.12583	-3.5958	-3.1562	-4.0687	-3.7438	-3.5271	-3.9562	-3.4813	-3.6542	-3.9104	-3.2792	-3.9667	-3.625	-3.3833	-3.9875	-3.2958	-3.8042	50.351	72.061	-33.829	9.237	203.010	-71.540	190.196	124.094	106.093	154.169	138.720	220.589	-51.900	216.187	7.930	190.944	0.0002318	0.00051598	0.00015747	795.12	3.665e-06	5.976e-06	1428.5	251.31	3.2392e-06	5.0471e-06	535.87	182.09	68.161	22.158	3.6455e-06	75.896	0.00011883	7.6371e-05	2.0002e-05	733.78	8.5114e-07	7.766e-07	1321.7	232.08	8.4924e-07	8.6488e-07	494.02	170.35	64.203	20.532	8.1369e-07	70.565	227.461	-12.532	0.972	-82.859	79.913	60.622	-82.028	-79.478	52.246	22.133	-78.358	-73.768	-75.098	-69.994	72.940	-68.833	-8191	255	
40613.688	1	1	0	0	0.20406	0.18612	0.13454	0.20718	0.12968	0.11682	0.15615	0.19813	0.17532	0.11138	0.16959	0.10373	0.17	0.1487	0.093115	0.27178	-3.4146	-3.0479	-3.8875	-3.7854	-3.1792	-4.0042	-3.3896	-3.5833	-3.9521	-3.2938	-3.8396	-3.8208	-3.225	-4.2063	-3.3563	-3.4167	59.379	103.226	205.728	-70.770	-80.040	175.134	136.013	195.654	35.628	16.251	207.843	259.223	-25.272	213.290	36.780	252.881	0.00023181	0.00042291	0.00014308	794.51	2.6679e-06	3.9056e-06	1416.3	250.18	1.2845e-06	3.6934e-06	534.32	180.14	68.131	22.112	4.3318e-06	74.898	0.00012225	7.6715e-05	2.0621e-05	731.62	8.4135e-07	7.5136e-07	1315.7	231.73	8.658e-07	7.558e-07	491.68	169.21	64.036	20.422	8.476e-07	69.855	227.080	-21.978	-10.533	-82.756	55.959	62.810	-82.099	-79.176	83.752	33.981	-78.370	-73.768	-75.030	-70.101	70.038	-68.951	-8191	255	
40613.809	1	1	0	0	0.15776	0.16379	0.25036	0.13298	0.21995	0.0522	0.10156	0.0514	0.043759	0.20375	0.28234	0.13131	0.12851	0.16814	0.11618	0.20299	-3.5854	-3.1854	-3.9125	-3.7438	-3.0938	-3.9896	-3.4917	-3.5083	-3.9021	-3.1875	-3.8792	-3.8312	-3.2667	-4.1312	-3.4938	-3.5896	-82.377	41.473	87.166	69.853	-44.192	259.344	143.336	211.745	191.697	64.111	213.835	133.452	109.359	6.875	256.983	243.803	0.00021404	0.00046056	9.7213e-05	792.57	4.6182e-06	6.658e-06	1416.3	249.36	3.5037e-06	4.5373e-06	531.64	179.41	68.319	21.844	4.1732e-06	75.186	0.00012321	7.5009e-05	1.9032e-05	729.06	8.5462e-07	8.0879e-07	1312.2	231.29	8.9264e-07	8.0598e-07	490.53	168.63	63.895	20.323	7.8233e-07	69.676	236.138	-2.205	22.874	-82.874	56.741	48.209	-81.995	-79.191	40.968	53.547	-78.672	-73.892	-74.975	-70.110	55.126	-68.692	-8191	255	
40613.902	1	1	0	0	0.06074	0.23821	0.20437	0.18678	0.057701	0.053844	0.21142	0.29395	0.21037	0.054799	0.2372	0.16257	0.14891	0.22545	0.11671	0.2182	-3.8708	-2.9875	-3.6437	-3.8729	-3.0542	-3.9792	-3.6583	-3.4604	-3.9688	-3.2083	-3.775	-3.9833	-3.2667	-3.8375	-3.7104	-3.2562	36.366	86.739	255.052	55.769	-3.428	55.096	161.014	166.593	93.257	208.908	183.380	-84.627	96.565	-28.732	155.577	173.477	0.00021502	0.00053843	0.00012829	792.6	4.2911e-06	5.2402e-06	1419.1	250.41	2.1259e-06	4.0396e-06	531.27	179.32	68.127	21.789	3.2735e-06	75.339	0.00011798	7.358e-05	1.9362e-05	729.04	8.8612e-07	7.7652e-07	1315	231.48	8.676e-07	7.5239e-07	491.15	168.49	63.901	20.332	7.9892e-07	69.809	215.969	-9.071	-15.755	-82.949	48.154	28.750	-81.704	-79.483	25.772	52.620	-78.374	-73.618	-74.856	-69.624	51.924	-68.769	-8191	255	
40613.996	1	1	0	0	0.16042	0.025572	0.10947	0.11926	0.26361	0.083409	0.28766	0.11874	0.21946	0.15605	0.19076	0.39804	0.09747	0.2154	0.17953	0.0915	-3.6188	-3.1333	-3.4542	-4.1146	-3.2438	-3.7104	-3.8187	-3.2313	-4.0146	-3.4208	-3.6083	-4.0771	-3.2083	-3.9021	-3.6896	-3.2438	47.947	-68.653	161.215	29.198	47.486	111.823	202.480	251.097	20.549	105.592	60.657	178.123	97.673	208.941	-43.461	-69.362	0.00023166	0.00072641	0.00014541	788.28	2.4794e-06	4.161e-06	1412.8	249.73	7.2005e-07	6.0078e-06	534.2	180.66	68.597	21.911	3.8699e-06	75.648	0.00011398	7.4957e-05	1.9929e-05	727	8.7681e-07	7.7205e-07	1315	230.98	8.1499e-07	8.2633e-07	492.24	169.31	64.158	20.367	8.1649e-07	70.084	228.405	-8.027	-4.230	-82.889	56.487	58.022	-81.922	-79.294	59.792	38.016	-78.281	-73.637	-74.910	-69.958	60.592	-68.853	-8191	255	
40614.117	1	1	0	0	0.13553	0.04389	0.10947	0.1403	0.18611	0.1884	0.10272	0.20461	0.1742	0.0094412	0.13092	0.27313	0.36255	0.055702	0.025166	0.16079	-3.6229	-3.4313	-3.35	-4.0479	-3.1771	-3.7833	-3.9437	-3.0292	-3.825	-3.4708	-3.4833	-4.1729	-3.275	-3.6396	-3.9146	-3.1542	200.360	15.593	-2.831	241.119	203.669	177.774	177.846	254.684	92.623	127.447	262.109	243.343	-67.982	234.167	12.067	240.023	0.0002219	0.0004814	9.8892e-05	789.02	4.0674e-06	4.0205e-06	1407.8	249.83	1.6626e-06	3.5224e-06	532.3	179.75	68.715	21.913	4.4563e-06	74.992	0.00011723	7.5892e-05	2.0978e-05	725.92	8.5114e-07	7.7619e-07	1307.3	230.77	8.012e-07	7.6834e-07	490.99	168.53	63.945	20.351	7.995e-07	69.592	221.841	-4.575	-30.883	-82.951	25.053	68.355	-81.836	-79.755	36.400	59.403	-78.637	-73.491	-74.728	-69.850	69.912	-68.931	-8191	255	
40614.215	1	1	0	0	0.20437	0.27808	0.043857	0.18694	0.076765	0.24164	0.043608	0.18111	0.20688	0.15227	0.085051	0.21176	0.1889	0.20882	0.093031	0.089894	-3.5563	-3.5958	-3.1083	-3.9458	-3.2521	-3.5667	-4.1021	-3.2625	-4.0708	-3.6063	-3.2646	-3.9854	-3.2687	-3.6688	-3.9646	-3.3063	203.260	95.538	-40.016	-93.264	52.448	114.338	-11.683	234.110	-9.817	106.649	200.885	-30.178	-92.484	142.551	109.662	-67.040	0.00020716	0.00052115	0.00011921	786.2	4.9125e-06	5.166e-06	1412.3	249.96	3.1926e-06	4.8354e-06	530.08	179.47	67.891	22.02	3.6491e-06	74.747	0.00011433	7.2936e-05	2.1662e-05	722.96	8.2507e-07	8.0415e-07	1307.6	230.82	8.0863e-07	7.9302e-07	490.13	168.57	63.793	20.392	8.2738e-07	69.564	227.721	10.267	13.671	-82.871	50.214	38.196	-81.945	-79.377	58.253	51.754	-78.744	-74.112	-74.990	-69.665	65.393	-68.905	-8191	255	
40614.285	1	1	0	0	0.14294	0.22554	0.192	0.1778	0.091483	0.067987	0.10338	0.054059	0.2548	0.2702	0.18844	0.036664	0.15274	0.20452	0.15444	0.14798	-3.3729	-3.5729	-3.2396	-4.0333	-3.3583	-3.475	-4.1958	-3.3042	-3.7625	-3.8229	-3.2938	-3.9979	-3.4292	-3.4313	-3.9708	-3.3646	38.787	98.308	213.929	-72.835	-51.399	27.531	186.727	161.078	-8.856	53.705	168.673	60.821	228.319	-83.568	26.346	94.886	0.00023441	0.00043339	0.00012357	788.96	4.9852e-06	5.4727e-06	1413.5	250	2.1512e-06	3.6971e-06	533.83	180.69	67.364	21.853	3.8827e-06	75.142	0.00011586	6.7032e-05	2.0594e-05	723.42	8.6831e-07	8.1383e-07	1307.7	231.14	8.4019e-07	8.0191e-07	491.53	169.08	63.644	20.303	7.943e-07	69.777	228.777	-15.061	4.555	-82.861	64.416	53.563	-81.866	-79.368	36.717	76.839	-78.499	-73.910	-75.415	-69.966	33.867	-69.029	-8191	255	
40614.406	1	1	0	0	0.15809	0.087339	0.10612	0.1108	0.036122	0.231	0.13098	0.20754	0.28104	0.16584	0.46473	0.13519	0.22286	0.15068	0.16595	0.12137	-3.3604	-3.7354	-3.1583	-3.9917	-3.5729	-3.3875	-4.0604	-3.3771	-3.575	-3.8896	-3.2021	-4.0146	-3.6667	-3.3021	-3.9271	-3.3083	258.660	230.373	-45.577	181.346	150.415	86.302	24.645	169.297	-80.107	93.833	140.898	211.600	-70.465	231.270	213.346	182.358	0.00023861	0.00058093	9.703e-05	783.21	3.6373e-06	4.2363e-06	1407.1	247.77	3.5169e-06	3.522e-06	532.11	180.75	68.424	21.91	5.0218e-06	75.296	0.00011993	7.2106e-05	2.1126e-05	721.21	8.2313e-07	8.3286e-07	1306	229.9	8.636e-07	8.0008e-07	491.02	169.28	63.772	20.305	7.9653e-07	69.839	225.676	-15.459	20.086	-82.966	73.198	47.971	-81.890	-79.132	55.027	32.711	-78.350	-73.943	-75.280	-69.614	52.814	-69.050	-8191	255	
40614.504	1	1	0	0	0.2493	0.099431	0.37313	0.20823	0.18869	0.32861	0.23725	0.21291	0.041867	0.12005	0.061062	0.072683	0.22618	0.07964	0.11113	0.085159	-3.1792	-3.9333	-3.1229	-3.7521	-3.6896	-3.2646	-4.2729	-3.5479	-3.4396	-3.8042	-3.2396	-3.7833	-3.8146	-3.2542	-3.9375	-3.6437	91.597	195.277	-52.148	261.961	214.195	108.935	174.005	237.360	175.519	73.948	146.109	-64.017	226.193	-81.271	232.290	195.007	0.00021016	0.00075028	7.4617e-05	785.3	4.5483e-06	3.4862e-06	1411.5	250.46	2.8219e-06	4.822e-06	531.78	180.05	67.973	21.967	4.3508e-06	74.031	0.00011495	7.1514e-05	1.9762e-05	720.85	7.956e-07	8.1176e-07	1306.7	231.29	8.8929e-07	7.5904e-07	490.31	168.61	63.72	20.295	8.2078e-07	69.051	222.411	0.838	-9.490	-82.908	68.030	49.083	-82.210	-79.086	61.035	37.184	-78.522	-73.911	-74.740	-69.975	65.654	-68.831	-8191	255	
#DATA ENDS
