BOXY.EXE: ISS Imagent and Oximeter Data Acquisition Program Version 0.80
Ascii Record File

#ACQ INFORMATION
2  Detector Channels 
16  External MUX Channels 
1  Auxiliary Channels 
5000  Waveform (CCF) Frequency (Hz)
1  Waveforms Skipped 
30  Waveforms Averaged 
1  Cycles Averaged 
16  Acquisitions per Waveform 
10.0806  Updata Rate (Hz) 

#FILE INFORMATION
TRUE -- External MUX Channel results are PARSED.
FALSE -- AC DC and Phase are NOT grouped.
TRUE -- Companion Program Settings File CREATED.
FALSE -- AC data not excluded
FALSE -- DC data not excluded
FALSE -- Phase data not excluded
FALSE -- Auxillary Chn. data not excluded
Tab delimiters

#CALIBRATION STATE
TRUE -- Waveform Calibration Values APPLIED.


#AUX CALIBRATION VALUES
Val Type	aux-1	

Term	1.0000e+00	
Factor	0.0000e+00	


#WF CALIBRATION VALUES
A = Detector Channel
Val Type	A-AC1	A-AC2	A-AC3	A-AC4	A-AC5	A-AC6	A-AC7	A-AC8	A-AC9	A-AC10	A-AC11	A-AC12	A-AC13	A-AC14	A-AC15	A-AC16	A-DC1	A-DC2	A-DC3	A-DC4	A-DC5	A-DC6	A-DC7	A-DC8	A-DC9	A-DC10	A-DC11	A-DC12	A-DC13	A-DC14	A-DC15	A-DC16	A-Ph1	A-Ph2	A-Ph3	A-Ph4	A-Ph5	A-Ph6	A-Ph7	A-Ph8	A-Ph9	A-Ph10	A-Ph11	A-Ph12	A-Ph13	A-Ph14	A-Ph15	A-Ph16	

Term	0.00000e+00	0.00000e+00	0.00000e+00	0.00000e+00	0.00000e+00	0.00000e+00	0.00000e+00	0.00000e+00	0.00000e+00	0.00000e+00	0.00000e+00	0.00000e+00	0.00000e+00	0.00000e+00	0.00000e+00	0.00000e+00	0.00000e+00	0.00000e+00	0.00000e+00	0.00000e+00	0.00000e+00	0.00000e+00	0.00000e+00	0.00000e+00	0.00000e+00	0.00000e+00	0.00000e+00	0.00000e+00	0.00000e+00	0.00000e+00	0.00000e+00	0.00000e+00	0.00000e+00	0.00000e+00	0.00000e+00	0.00000e+00	0.00000e+00	0.00000e+00	0.00000e+00	0.00000e+00	0.00000e+00	0.00000e+00	0.00000e+00	0.00000e+00	0.00000e+00	0.00000e+00	0.00000e+00	0.00000e+00	
Factor	1.00000e+00	1.00000e+00	1.00000e+00	1.00000e+00	1.00000e+00	1.00000e+00	1.00000e+00	1.00000e+00	1.00000e+00	1.00000e+00	1.00000e+00	1.00000e+00	1.00000e+00	1.00000e+00	1.00000e+00	1.00000e+00	1.00000e+00	1.00000e+00	1.00000e+00	1.00000e+00	1.00000e+00	1.00000e+00	1.00000e+00	1.00000e+00	1.00000e+00	1.00000e+00	1.00000e+00	1.00000e+00	1.00000e+00	1.00000e+00	1.00000e+00	1.00000e+00	X	X	X	X	X	X	X	X	X	X	X	X	X	X	X	X	

B = Detector Channel
Val Type	B-AC1	B-AC2	B-AC3	B-AC4	B-AC5	B-AC6	B-AC7	B-AC8	B-AC9	B-AC10	B-AC11	B-AC12	B-AC13	B-AC14	B-AC15	B-AC16	B-DC1	B-DC2	B-DC3	B-DC4	B-DC5	B-DC6	B-DC7	B-DC8	B-DC9	B-DC10	B-DC11	B-DC12	B-DC13	B-DC14	B-DC15	B-DC16	B-Ph1	B-Ph2	B-Ph3	B-Ph4	B-Ph5	B-Ph6	B-Ph7	B-Ph8	B-Ph9	B-Ph10	B-Ph11	B-Ph12	B-Ph13	B-Ph14	B-Ph15	B-Ph16	

Term	0.00000e+00	0.00000e+00	0.00000e+00	0.00000e+00	0.00000e+00	0.00000e+00	0.00000e+00	0.00000e+00	0.00000e+00	0.00000e+00	0.00000e+00	0.00000e+00	0.00000e+00	0.00000e+00	0.00000e+00	0.00000e+00	0.00000e+00	0.00000e+00	0.00000e+00	0.00000e+00	0.00000e+00	0.00000e+00	0.00000e+00	0.00000e+00	0.00000e+00	0.00000e+00	0.00000e+00	0.00000e+00	0.00000e+00	0.00000e+00	0.00000e+00	0.00000e+00	-9.50993e+01	-1.28701e+02	-1.24987e+02	-1.83761e+02	-6.23572e+01	-7.40854e+01	-1.58106e+02	-1.62015e+02	-5.36995e+01	-7.02651e+01	-1.70714e+02	-1.70913e+02	-1.78902e+02	-1.77049e+02	-6.51981e+01	-1.49824e+02	
Factor	1.64770e-05	1.35927e-04	3.46547e-05	1.51834e-01	1.19814e-06	1.36781e-06	1.67260e-01	5.25101e-02	1.01735e-06	1.28790e-06	8.68415e-02	3.03108e-02	2.82728e-02	9.66055e-03	1.35503e-06	1.35419e-02	3.18107e-06	3.59181e-06	1.00104e-06	7.44679e-02	3.88649e-08	3.97153e-08	7.71580e-02	2.58867e-02	3.91507e-08	3.98793e-08	4.12608e-02	1.45034e-02	1.40702e-02	4.76425e-03	3.96035e-08	6.46411e-03	X	X	X	X	X	X	X	X	X	X	X	X	X	X	X	X	



#DISTANCE SETTINGS
A = Detector Channel
A-1	A-2	A-3	A-4	A-5	A-6	A-7	A-8	A-9	A-10	A-11	A-12	A-13	A-14	A-15	A-16	

2.5000e+00	3.0000e+00	2.5000e+00	3.0000e+00	2.0000e+00	3.0000e+00	1.5000e+00	3.0000e+00	3.0000e+00	3.0000e+00	3.0000e+00	3.0000e+00	3.0000e+00	3.0000e+00	1.5000e+00	3.0000e+00	

B = Detector Channel
B-1	B-2	B-3	B-4	B-5	B-6	B-7	B-8	B-9	B-10	B-11	B-12	B-13	B-14	B-15	B-16	

1.0000e+01	1.0000e+01	1.0000e+01	1.4400e+00	1.0000e+01	1.0000e+01	1.5100e+00	1.9400e+00	1.0000e+01	1.0000e+01	1.9900e+00	2.4900e+00	2.4100e+00	2.9000e+00	1.0000e+01	2.9800e+00	




#DATA BEGINS
time	group	step	mark	flag	A-AC1	A-AC2	A-AC3	A-AC4	A-AC5	A-AC6	A-AC7	A-AC8	A-AC9	A-AC10	A-AC11	A-AC12	A-AC13	A-AC14	A-AC15	A-AC16	A-DC1	A-DC2	A-DC3	A-DC4	A-DC5	A-DC6	A-DC7	A-DC8	A-DC9	A-DC10	A-DC11	A-DC12	A-DC13	A-DC14	A-DC15	A-DC16	A-Ph1	A-Ph2	A-Ph3	A-Ph4	A-Ph5	A-Ph6	A-Ph7	A-Ph8	A-Ph9	A-Ph10	A-Ph11	A-Ph12	A-Ph13	A-Ph14	A-Ph15	A-Ph16	B-AC1	B-AC2	B-AC3	B-AC4	B-AC5	B-AC6	B-AC7	B-AC8	B-AC9	B-AC10	B-AC11	B-AC12	B-AC13	B-AC14	B-AC15	B-AC16	B-DC1	B-DC2	B-DC3	B-DC4	B-DC5	B-DC6	B-DC7	B-DC8	B-DC9	B-DC10	B-DC11	B-DC12	B-DC13	B-DC14	B-DC15	B-DC16	B-Ph1	B-Ph2	B-Ph3	B-Ph4	B-Ph5	B-Ph6	B-Ph7	B-Ph8	B-Ph9	B-Ph10	B-Ph11	B-Ph12	B-Ph13	B-Ph14	B-Ph15	B-Ph16	aux-1	digaux	

39207.816	1	1	0	768	0.25522	0.038587	0.044041	0.068283	0.21935	0.067973	0.082822	0.27991	0.13945	0.10233	0.071406	0.043593	0.29948	0.26229	0.055654	0.23529	-3.6083	-4.2333	-3.4354	-4.5354	-4.1333	-3.5708	-4.6	-3.7167	-3.8854	-4.3542	-3.8771	-4.3812	-4.2646	-3.5979	-4.3313	-3.775	33.219	225.586	116.535	208.007	39.052	204.603	150.490	246.625	-7.398	110.366	216.358	258.738	6.884	-26.333	-4.224	247.708	0.000177	0.00070755	0.00010172	1528.4	6.2925e-06	2.2624e-06	1518.3	409.88	1.8226e-06	8.6684e-06	469.62	157.45	138.43	48.248	2.6708e-06	60.008	0.00066077	0.0006997	0.00019329	1536.4	7.668e-06	7.6411e-06	1532.9	415.96	7.5787e-06	7.558e-06	475.08	162.58	141.81	49.284	7.5544e-06	60.988	191.504	9.063	51.069	-30.859	116.445	149.260	-30.623	-26.264	96.548	134.305	-26.493	-22.074	-21.850	-17.372	36.011	-18.085	-8191	255	
39207.910	1	1	0	0	0.21505	0.37651	0.15054	0.32654	0.33117	0.17473	0.062785	0.070036	0.19012	0.071366	0.11056	0.14698	0.1287	0.038367	0.22412	0.20408	-3.6167	-4.3187	-3.4958	-4.3979	-4.1	-3.3792	-4.7375	-3.9708	-3.6917	-4.475	-3.3563	-4.1979	-4.3146	-3.3521	-4.3875	-3.9313	249.321	140.114	27.247	278.266	93.995	159.552	261.055	225.472	136.097	195.771	222.124	287.290	273.265	228.911	-16.360	186.204	0.00019378	0.00065403	0.00017332	1523.6	3.7305e-06	6.3326e-06	1522	409.87	2.4299e-06	4.8376e-06	467.57	158.49	137.75	48.145	6.1788e-06	59.643	0.00065296	0.00068952	0.00019122	1533.8	7.495e-06	7.5547e-06	1533.1	416.4	7.4682e-06	7.5111e-06	474.26	162.95	141.58	49.265	7.4691e-06	60.839	176.823	60.997	48.473	-30.721	164.393	105.662	-30.624	-26.210	70.973	117.750	-26.553	-22.150	-21.520	-17.487	105.314	-18.153	-8191	255	
39208.008	1	1	0	0	0.1401	0.084485	0.21457	0.13371	0.10508	0.18646	0.26554	0.14265	0.15004	0.1509	0.19369	0.26405	0.066461	0.2491	0.042422	0.17338	-3.2792	-4.4479	-3.4104	-4.3063	-4.3896	-3.4458	-4.7292	-4.1646	-3.6312	-4.5042	-3.7708	-4.0625	-4.5771	-3.575	-4.225	-4.0083	151.075	32.883	82.145	219.100	121.279	50.432	258.978	282.527	201.470	240.689	242.378	282.740	163.356	230.390	-2.015	206.730	0.00015706	0.00053576	4.8752e-05	1527.3	3.1777e-06	3.0958e-06	1524.2	409.67	5.9836e-06	6.0131e-06	469.19	158.16	138.5	48.246	4.719e-06	59.875	0.00064117	0.00068596	0.0001872	1535.1	7.3765e-06	7.4831e-06	1534.5	415.41	7.3973e-06	7.4134e-06	473.83	162.97	142	49.197	7.501e-06	60.883	189.497	19.098	89.881	-30.678	70.082	110.810	-30.626	-26.048	180.712	140.328	-26.873	-21.740	-21.839	-17.515	87.069	-18.236	-8191	255	
39208.105	1	1	0	0	0.22746	0.2065	0.22497	0.18216	0.031044	0.14739	0.39006	0.13104	0.36802	0.15655	0.18439	0.06241	0.15619	0.10449	0.17617	0.22244	-3.2938	-4.4667	-3.5354	-4.2562	-4.2854	-3.4333	-4.4729	-4.1625	-3.6146	-4.3812	-3.7083	-4.0917	-4.4938	-3.5958	-4.2438	-4.1771	138.389	-19.774	168.727	314.219	101.383	24.502	300.168	223.704	218.047	175.619	-27.075	-3.939	314.752	260.710	314.570	196.726	0.00023768	0.00028201	8.7612e-05	1522.8	2.6093e-06	4.9183e-06	1524.6	409.45	3.8476e-06	6.7246e-06	468.08	158.72	138.41	48.227	2.8624e-06	59.47	0.00064441	0.00066827	0.00018624	1532.4	7.3464e-06	7.4088e-06	1534.1	415.94	7.4355e-06	7.4031e-06	474.08	162.87	141.85	49.243	7.4521e-06	60.91	183.657	11.410	80.389	-30.733	154.307	85.327	-30.669	-26.308	123.395	116.245	-26.476	-21.874	-21.676	-17.254	104.204	-18.082	-8191	255	
39208.199	1	1	0	0	0.17279	0.057227	0.17043	0.21639	0.042034	0.13786	0.3915	0.22848	0.15845	0.18684	0.017852	0.3393	0.12328	0.081645	0.093202	0.22923	-3.2917	-4.3938	-3.6729	-3.9938	-4.3875	-3.4021	-4.5062	-4.3458	-3.2771	-4.4875	-3.8271	-3.9062	-4.5479	-3.4604	-4.1083	-4.2333	221.336	180.438	244.374	262.006	-15.447	64.534	279.945	222.206	-9.969	307.985	236.933	226.083	43.958	308.881	232.472	195.412	0.00014539	0.00040143	9.7972e-05	1522.8	4.6226e-06	2.9442e-06	1518.9	410.78	3.8278e-06	5.179e-06	469.99	158.77	138.69	48.193	2.7025e-06	59.569	0.00063693	0.00066235	0.00018831	1534.5	7.2878e-06	7.3035e-06	1533	416.81	7.4175e-06	7.4087e-06	473.71	162.39	141.76	49.163	7.3686e-06	60.946	167.999	38.114	25.767	-30.712	103.276	71.641	-30.637	-26.208	170.807	129.068	-26.779	-22.140	-21.590	-17.804	124.492	-17.968	-8191	255	
39208.297	1	1	0	0	0.094943	0.034498	0.092103	0.30698	0.20026	0.1546	0.065707	0.24538	0.12182	0.09847	0.037905	0.089586	0.075388	0.24588	0.14273	0.27514	-3.1583	-4.5312	-3.6396	-4.0521	-4.5896	-3.3083	-4.5292	-4.5	-3.2646	-4.4896	-3.8833	-3.6854	-4.6312	-3.4688	-3.9813	-4.3479	197.531	283.443	210.080	-31.458	-22.565	179.040	189.683	-27.258	259.635	278.042	196.771	50.653	268.836	277.134	78.416	257.135	0.00021462	0.00070326	9.2375e-05	1522.3	3.9618e-06	2.6703e-06	1520.5	408.52	2.5122e-07	3.5378e-06	466.71	157.53	138.83	48.153	2.5764e-06	59.869	0.0006381	0.00066072	0.0001848	1532.7	7.3533e-06	7.2585e-06	1533.2	415.19	7.3688e-06	7.3323e-06	472.74	162.47	141.99	49.19	7.3677e-06	60.918	185.939	59.766	39.802	-30.554	116.895	113.742	-30.527	-26.202	-42.250	77.676	-26.719	-21.726	-21.400	-17.548	106.308	-18.399	-8191	255	
39208.418	1	1	0	0	0.23079	0.20602	0.069617	0.083074	0.22838	0.29885	0.059499	0.15855	0.2057	0.065106	0.13984	0.18146	0.12238	0.080971	0.091389	0.10395	-3.1396	-4.4208	-3.8979	-3.875	-4.5333	-3.725	-4.3229	-4.5167	-3.4958	-4.5125	-4.0521	-3.8771	-4.425	-3.4917	-4.0271	-4.4521	180.288	17.254	168.857	268.330	80.134	-30.142	247.184	-24.978	216.920	299.791	209.709	-19.347	315.324	180.043	265.866	43.145	0.0002023	0.0005362	0.0001561	1513	5.7356e-06	8.3054e-06	1520.9	409.46	4.4221e-06	1.7635e-06	467.14	157.81	137.84	48.114	5.0222e-06	59.73	0.00062987	0.00066023	0.00018355	1528.2	7.2163e-06	7.2151e-06	1528.5	414.97	7.2845e-06	7.3457e-06	473.63	162.36	141.58	49.217	7.3328e-06	60.918	169.784	54.180	88.762	-30.920	95.586	151.298	-30.586	-26.357	69.603	131.685	-26.681	-22.041	-21.594	-17.668	185.693	-18.110	-8191	255	
39208.512	1	1	0	0	0.061987	0.27308	0.099929	0.17734	0.13511	0.12571	0.48921	0.35692	0.068642	0.053077	0.30746	0.26057	0.048817	0.079585	0.051693	0.11914	-3.2104	-4.4979	-4.0875	-3.8896	-4.5042	-3.5062	-4.1604	-4.5708	-3.5104	-4.5479	-4.2188	-3.7812	-4.8438	-3.5854	-3.9979	-4.4896	48.586	95.471	287.526	224.042	119.124	111.750	285.651	223.478	160.273	257.751	227.326	247.145	51.857	-2.142	86.241	121.812	0.00021293	0.00053644	0.00010698	1518.9	4.0985e-06	4.793e-06	1521	409.95	1.0957e-06	1.4807e-06	466.14	158.06	137.99	48.204	3.4271e-06	59.682	0.00062688	0.00065926	0.00018517	1528.1	7.272e-06	7.2816e-06	1530	415.54	7.2925e-06	7.3368e-06	472.4	162.22	141.65	49.115	7.4272e-06	60.912	178.918	8.619	99.401	-30.889	54.191	120.978	-30.581	-26.158	59.435	151.121	-26.738	-21.816	-21.471	-17.564	86.954	-17.998	-8191	255	
39208.609	1	1	0	0	0.07164	0.048022	0.16487	0.26836	0.19681	0.11621	0.38572	0.25122	0.18091	0.26353	0.22689	0.058633	0.33247	0.26635	0.033476	0.12831	-2.9021	-4.4688	-4.1354	-3.6979	-4.5917	-3.3271	-4.0417	-4.6625	-3.3854	-4.1813	-4.0813	-3.4667	-4.6062	-3.75	-3.6208	-4.6375	220.927	191.752	172.593	285.080	-30.971	-3.096	255.275	293.251	109.557	35.372	-35.704	156.479	-32.111	8.035	264.504	298.625	0.00016842	0.00052758	0.00013844	1519.1	5.6509e-06	6.9559e-06	1514.1	408.53	3.5183e-06	3.3956e-06	465.41	158.43	137.98	47.965	4.0104e-06	59.707	0.00062621	0.00066603	0.00018164	1525.7	7.2376e-06	7.2966e-06	1528.5	414.9	7.2913e-06	7.3638e-06	471.71	162.31	141.87	49.072	7.3922e-06	60.842	175.220	69.999	74.736	-30.830	139.529	103.028	-30.589	-26.308	167.378	75.111	-26.866	-21.905	-21.807	-17.821	88.451	-18.258	-8191	255	
39208.707	1	1	0	0	0.27379	0.2255	0.094809	0.18017	0.20516	0.054384	0.2374	0.17898	0.082578	0.0836	0.16019	0.14496	0.17001	0.1494	0.19433	0.16178	-3.1562	-4.2125	-3.875	-3.725	-4.25	-3.7	-4.0333	-4.3771	-3.5646	-4.1708	-4.1375	-3.8542	-4.5479	-3.8208	-3.8875	-4.4396	30.972	216.630	70.785	290.924	26.356	165.597	236.210	275.449	234.666	245.133	291.243	237.896	296.350	259.858	265.691	238.436	0.00020801	0.0010856	0.00017758	1511.2	4.209e-06	4.6576e-06	1515.3	408.72	6.5929e-06	4.7826e-06	464.28	158.23	138.46	48.133	8.3108e-06	59.732	0.00063348	0.00066237	0.00018643	1523.6	7.1943e-06	7.2326e-06	1528.5	415.02	7.355e-06	7.4131e-06	472.76	162.29	141.91	49.173	7.2779e-06	60.86	165.763	44.448	24.507	-31.060	119.384	82.014	-30.660	-26.502	118.166	96.418	-26.852	-22.100	-21.893	-17.629	122.550	-18.074	-8191	255	
39208.801	1	1	0	0	0.084523	0.27985	0.04556	0.27745	0.11572	0.22854	0.27865	0.12974	0.12515	0.17216	0.23025	0.24462	0.047114	0.31004	0.23575	0.18843	-3.0354	-4.1229	-4.2458	-3.8021	-4.4	-3.7958	-3.8333	-4.6146	-3.3958	-4.1479	-4.3458	-3.5312	-4.575	-3.9479	-3.6937	-4.4729	178.971	124.297	267.265	273.816	-23.387	-43.206	272.564	260.510	145.114	314.214	275.704	299.933	249.614	254.240	280.363	246.563	0.00017762	0.00043799	0.00016976	1516.7	2.1746e-06	3.4481e-06	1516.2	409.18	2.4807e-06	4.4376e-06	465.84	157.86	138.2	48.122	2.9833e-06	59.615	0.00063427	0.00066012	0.00018381	1526.8	7.2335e-06	7.1457e-06	1526.9	415.6	7.1806e-06	7.0856e-06	473.06	161.85	141.51	49.106	7.1879e-06	60.843	188.336	40.502	82.859	-30.718	167.406	78.592	-30.735	-26.158	225.158	159.438	-26.551	-22.063	-21.664	-17.642	136.396	-18.109	-8191	255	
39208.895	1	1	0	0	0.18797	0.10413	0.023149	0.17994	0.13575	0.21596	0.17105	0.10793	0.040167	0.11257	0.25575	0.094656	0.29772	0.17863	0.1308	0.12404	-3.3083	-4.1458	-4.2125	-3.7396	-4.3854	-3.8563	-3.9875	-4.6646	-3.4771	-4.1083	-4.4875	-3.6667	-4.6	-4.1208	-3.5563	-4.4625	158.329	146.042	-44.014	296.821	51.602	5.663	161.045	34.962	182.961	-18.426	253.530	106.737	3.109	243.126	-34.456	32.746	0.00022907	0.00042231	0.00017603	1516.9	5.2046e-06	5.6876e-06	1516.2	408.07	3.023e-06	3.8011e-06	468.53	157.95	137.91	47.997	6.366e-06	59.589	0.00061233	0.00064082	0.00017569	1525.6	6.9519e-06	7.0232e-06	1527.4	414.85	6.8736e-06	6.9878e-06	473.25	162.1	141.34	49.046	6.8036e-06	60.757	166.944	42.585	63.334	-31.099	97.251	93.516	-30.591	-26.114	203.182	165.629	-26.852	-21.915	-21.259	-17.453	166.436	-18.022	-8191	255	
39209.016	1	1	0	0	0.095542	0.21571	0.12097	0.14247	0.14018	0.078156	0.20228	0.22558	0.10464	0.23407	0.1495	0.16483	0.21207	0.14258	0.19969	0.12315	-3.4417	-3.9104	-4.2792	-3.7958	-4.3458	-3.8438	-4.0542	-4.4583	-3.5479	-3.9104	-4.4458	-3.7271	-4.3396	-4.1021	-3.6667	-4.5312	-15.646	5.081	304.696	247.194	298.659	244.745	204.077	272.930	20.749	128.696	281.612	233.760	241.587	160.648	276.790	274.495	0.00021575	0.00045287	0.0001936	1515.6	3.9495e-06	4.299e-06	1511.8	407.95	3.0859e-06	2.3157e-06	468.56	157.88	138.02	48.106	2.6873e-06	59.562	0.00058976	0.00062111	0.00017024	1523.7	6.6479e-06	6.6782e-06	1524.1	414.37	6.7736e-06	6.7256e-06	472.62	161.84	141.42	49.021	6.8457e-06	60.782	166.958	21.310	36.030	-30.942	117.360	82.430	-30.519	-26.240	72.548	79.691	-26.563	-22.218	-21.587	-17.459	112.130	-17.760	-8191	255	
39209.113	1	1	0	0	0.13194	0.19024	0.25893	0.25448	0.33923	0.15345	0.22665	0.34664	0.129	0.24871	0.2329	0.045375	0.12104	0.19696	0.16974	0.042667	-3.5083	-3.9667	-4.2729	-3.8146	-4.2667	-4.075	-3.9042	-4.6333	-3.525	-3.8396	-4.5062	-3.7708	-4.2104	-4.2688	-3.7083	-4.3667	104.614	42.259	95.680	267.468	136.244	314.590	280.284	299.229	156.268	145.648	307.547	171.205	287.223	247.824	304.128	134.212	0.00017798	0.0007608	0.00015372	1513.8	4.4169e-06	5.5441e-06	1509.4	408.45	4.6226e-07	4.1342e-06	465.56	158.24	138.06	47.896	2.7578e-06	59.863	0.00059143	0.00062004	0.00017243	1522.4	6.8597e-06	6.8746e-06	1521.3	414.45	6.9649e-06	6.9408e-06	471.92	161.95	141.28	49.024	6.9372e-06	60.851	183.577	4.811	55.193	-30.764	105.044	65.739	-30.528	-26.298	96.232	141.529	-26.639	-22.162	-21.616	-17.585	231.216	-17.862	-8191	255	
39209.211	1	1	0	0	0.22453	0.15161	0.17428	0.30792	0.20696	0.13685	0.099278	0.26751	0.20485	0.16226	0.1645	0.20901	0.46129	0.15692	0.085327	0.2627	-3.45	-3.9125	-4.3375	-3.8521	-4.1646	-4.1292	-3.8375	-4.5208	-4.0062	-3.7812	-4.4167	-3.5958	-4.3708	-4.1312	-3.6708	-4.5417	15.978	271.015	185.049	287.010	5.746	227.224	257.972	276.065	150.875	306.841	274.190	-18.980	2.974	-42.270	-10.744	297.574	0.0001652	0.00058217	7.6689e-05	1516	1.7854e-06	3.9262e-06	1510.4	408.93	4.1508e-06	2.6967e-06	466.47	158.17	138.26	48.182	5.1447e-06	59.732	0.00059885	0.00061395	0.00017264	1522.7	6.7428e-06	6.7988e-06	1522.9	414.8	6.8734e-06	6.8737e-06	471.96	161.81	141.52	48.959	6.9058e-06	60.821	181.163	55.105	33.624	-30.962	52.615	118.876	-30.794	-25.857	166.643	114.849	-26.669	-21.935	-21.541	-17.399	84.979	-18.118	-8191	255	
39209.305	1	1	0	0	0.13136	0.056131	0.072637	0.16855	0.10427	0.012536	0.24529	0.3326	0.1259	0.10611	0.25531	0.27614	0.31843	0.28224	0.12234	0.14401	-3.5958	-3.825	-4.2937	-3.7979	-4.1042	-4.2812	-3.75	-4.5062	-3.7292	-3.8312	-4.5646	-3.9688	-4.1396	-4.3146	-3.7188	-4.3333	151.051	-12.965	-39.670	203.541	203.764	-44.118	301.067	191.937	284.396	208.283	261.800	293.798	-27.850	294.105	118.864	282.020	0.00018742	0.00050409	0.00022342	1518.7	3.1277e-06	6.945e-06	1510.5	408.26	7.4436e-07	5.7376e-06	466.46	157.09	138.67	48.036	3.5359e-06	60.045	0.00058706	0.00061783	0.00017334	1525.6	6.6728e-06	6.7358e-06	1524.6	414.26	6.6638e-06	6.8227e-06	472.58	161.6	141.5	48.939	6.754e-06	60.948	181.361	51.181	39.697	-30.900	145.488	101.169	-30.636	-26.160	222.469	100.981	-26.530	-22.179	-21.417	-17.601	127.280	-17.965	-8191	255	
39209.379	1	1	0	0	0.12143	0.030793	0.22711	0.24239	0.014702	0.21422	0.087056	0.11185	0.20152	0.10192	0.33325	0.044793	0.1641	0.083246	0.003197	0.25405	-3.4875	-3.6625	-4.2104	-4.1167	-4.1375	-4.4104	-4.1271	-4.3333	-4.0083	-3.7104	-4.4146	-3.6917	-4.1896	-4.3542	-3.6917	-4.1396	191.381	-7.899	110.893	298.120	67.644	198.502	-12.903	262.391	126.026	116.851	278.407	308.482	271.294	238.757	254.021	258.262	0.00017077	0.00093771	9.4445e-05	1510	3.0897e-06	7.8653e-06	1512.1	409.47	4.063e-06	4.9915e-06	465.39	157.38	137.56	48.2	3.9583e-06	59.47	0.00057972	0.00059911	0.00016874	1520	6.5195e-06	6.6204e-06	1523.6	415	6.543e-06	6.5173e-06	471.85	161.68	141.13	49.049	6.5588e-06	60.793	164.012	19.091	68.324	-30.744	139.331	112.667	-30.756	-26.167	177.392	90.686	-26.677	-22.400	-21.533	-17.506	129.426	-17.836	-8191	255	
39209.496	1	1	0	0	0.122	0.14912	0.049455	0.30179	0.058061	0.22895	0.3361	0.04603	0.085069	0.040947	0.072954	0.060512	0.37962	0.25617	0.073719	0.32349	-3.875	-3.7771	-4.425	-3.9917	-3.9437	-4.3125	-3.825	-4.4167	-4.0917	-3.6104	-4.45	-3.9896	-4.05	-4.3187	-3.4583	-4.2979	244.880	263.521	5.718	229.819	269.691	8.556	214.766	-23.730	-42.719	207.721	262.890	206.925	294.536	215.752	205.179	279.630	0.00016522	0.0007925	0.00011026	1510.5	3.6102e-06	2.2663e-06	1508.6	409.92	3.4663e-06	3.768e-06	468.68	157.23	138.02	48.28	4.9486e-06	59.998	0.00055695	0.00059328	0.00016336	1519.2	6.4287e-06	6.4129e-06	1522.1	414.68	6.3713e-06	6.3543e-06	471.44	161.44	141.03	48.968	6.4055e-06	60.774	190.986	47.325	49.633	-30.896	68.867	35.009	-30.662	-26.163	162.105	84.951	-26.657	-22.299	-21.301	-17.681	105.003	-17.895	-8191	255	
39209.594	1	1	0	0	0.06916	0.12146	0.1367	0.077854	0.20599	0.076636	0.45519	0.12315	0.04355	0.17892	0.25918	0.1923	0.3263	0.27764	0.13754	0.20065	-3.6167	-3.5917	-4.3521	-3.8646	-3.8667	-4.3187	-3.8063	-4.3063	-4.0354	-3.6729	-4.5625	-3.8708	-3.9792	-4.4521	-3.625	-4.1854	69.483	16.288	180.904	295.499	-37.885	181.828	261.550	306.188	-26.528	-5.358	257.482	292.140	312.480	271.465	189.623	291.666	0.00018329	0.00044349	0.00022385	1511.3	5.244e-06	5.5764e-06	1507	408.58	2.1456e-06	3.7075e-06	464.38	157.81	138.01	48.066	5.5737e-06	59.625	0.00054989	0.00056915	0.00015912	1518.7	6.2678e-06	6.2703e-06	1519	413.98	6.2312e-06	6.2391e-06	470.64	161.33	141.26	48.934	6.2063e-06	60.643	180.825	60.290	55.872	-30.969	89.605	102.705	-30.749	-26.343	157.780	83.052	-26.466	-22.034	-21.563	-17.477	119.113	-17.735	-8191	255	
39209.691	1	1	0	0	0.15887	0.069402	0.18518	0.25888	0.12396	0.081151	0.16315	0.096379	0.0081011	0.027257	0.19437	0.20571	0.13746	0.2391	0.12107	0.20614	-3.9833	-3.6396	-4.2271	-4.1542	-3.8146	-4.4333	-4.0083	-4.2625	-4.2479	-3.5958	-4.5062	-3.9562	-3.8792	-4.5333	-3.5479	-4.1125	243.996	127.677	308.694	248.764	81.212	178.733	252.591	167.540	84.039	130.281	256.134	153.688	260.741	-16.960	209.637	311.524	0.00016634	0.0003444	0.00012976	1511.2	4.1159e-06	5.5109e-06	1506.9	407.41	2.0564e-06	5.2708e-06	467.91	158.01	138.13	47.913	2.329e-06	59.552	0.0005428	0.0005522	0.00015517	1519.5	6.1845e-06	6.0926e-06	1519.4	414.12	6.0815e-06	6.1632e-06	472.24	161.45	141.03	48.955	6.0976e-06	60.61	197.803	71.667	74.981	-30.871	100.115	86.987	-30.607	-25.956	210.555	107.983	-26.410	-21.967	-21.475	-17.424	115.000	-17.775	-8191	255	
39209.809	1	1	0	0	0.031078	0.053183	0.15	0.15872	0.098306	0.10703	0.085902	0.17741	0.063146	0.20519	0.15635	0.28838	0.060899	0.058984	0.10812	0.19809	-3.7958	-3.5792	-4.5062	-4.1562	-3.675	-4.3063	-3.7812	-4.4292	-4.175	-3.6583	-4.5	-4.1667	-3.725	-4.4583	-3.5167	-3.9604	314.343	-14.205	-38.036	-27.911	262.419	286.522	167.634	290.177	51.804	128.669	301.120	299.569	22.746	212.946	301.335	167.568	0.00017119	9.6887e-05	0.00013181	1510.6	2.0653e-06	4.2533e-06	1504.5	410.5	3.4716e-06	2.5318e-06	466.84	157.7	137.92	48.286	7.7405e-06	59.691	0.00053682	0.00055719	0.00015228	1519.6	6.0672e-06	6.0087e-06	1519.6	414.58	6.1003e-06	6.1007e-06	471.47	161.38	140.98	49.018	6.1073e-06	60.748	184.406	86.360	54.913	-30.891	135.215	111.661	-30.663	-25.947	121.860	89.905	-26.599	-21.933	-21.588	-17.376	64.468	-17.620	-8191	255	
39209.906	1	1	0	0	0.14582	0.244	0.1404	0.12941	0.1444	0.064554	0.21238	0.19967	0.23838	0.15008	0.22106	0.24636	0.19101	0.021717	0.22366	0.15287	-4.0896	-3.4813	-4.3729	-4.1917	-3.6667	-4.5208	-3.8042	-4.0437	-4.4292	-3.6625	-4.6458	-4.0813	-3.6792	-4.5708	-3.6708	-4.05	183.599	105.760	141.862	289.289	154.432	-34.563	-27.299	229.311	159.392	207.978	287.863	254.340	299.088	-9.716	52.415	14.540	0.00023198	0.0007493	0.00010835	1509.3	4.5704e-06	4.8055e-06	1516.2	409.9	2.1265e-06	4.0849e-06	469.22	157.36	138.37	48.163	3.79e-06	59.641	0.00052867	0.00055267	0.00015091	1519.4	6.0926e-06	6.0375e-06	1521.8	415.03	6.0787e-06	6.0886e-06	471.81	161.51	141.22	48.998	6.0983e-06	60.732	174.945	38.779	113.503	-31.124	127.374	121.692	-30.828	-26.287	1.403	83.169	-26.418	-22.143	-21.551	-17.712	109.223	-17.799	-8191	255	
39209.977	1	1	0	0	0.022906	0.23542	0.052871	0.20095	0.081899	0.089317	0.25251	0.095024	0.029954	0.10861	0.21508	0.16002	0.10309	0.2267	0.19419	0.14081	-4.0292	-3.5083	-4.2792	-4.125	-3.4313	-4.4167	-3.9021	-4.0708	-4.4437	-3.7021	-4.3688	-4.2375	-3.5271	-4.7146	-3.7396	-3.925	288.260	31.112	61.288	259.231	245.287	267.701	213.496	120.060	8.865	241.657	271.397	269.007	-36.905	275.607	26.549	164.468	0.00016333	0.00047817	0.00019238	1514.4	4.2778e-06	5.678e-06	1508.9	409.66	3.0633e-06	6.9384e-06	467.49	157.37	138.45	48.205	6.4532e-06	59.776	0.00053068	0.00054578	0.00015525	1521.6	6.1415e-06	6.0636e-06	1522.7	415.14	6.2376e-06	6.1458e-06	471.78	161.51	141.12	49.039	6.1833e-06	60.799	172.433	53.263	68.247	-30.848	154.790	102.973	-30.589	-25.863	68.218	143.186	-26.426	-22.328	-21.910	-17.143	135.381	-17.773	-8191	255	
39210.098	1	1	0	0	0.02875	0.023296	0.14364	0.18705	0.071812	0.28698	0.17361	0.0082256	0.11251	0.13215	0.13085	0.1442	0.19593	0.036751	0.10626	0.10468	-4.1583	-3.3875	-4.0813	-4.3333	-3.4604	-4.6042	-3.9042	-3.9979	-4.5563	-3.6437	-4.3562	-4.3021	-3.6625	-4.5979	-3.7979	-3.8688	188.496	304.784	213.804	292.877	-33.972	245.425	-31.960	-35.328	245.719	161.027	268.123	294.714	269.398	59.209	21.703	259.236	0.00018829	0.00023205	8.4575e-05	1510.6	3.2228e-06	9.4591e-06	1506.2	407.78	7.7504e-07	4.4053e-06	468.68	157.39	138.64	48.055	6.3962e-06	59.611	0.00054278	0.00056379	0.00015581	1517.1	6.1e-06	6.0817e-06	1519.5	414.87	6.2008e-06	6.2045e-06	472.25	161.26	141.21	49.006	6.1388e-06	60.725	184.137	47.608	81.504	-31.077	181.594	110.606	-30.990	-26.264	173.366	53.474	-26.495	-22.317	-21.858	-17.823	86.526	-17.818	-8191	255	
39210.191	1	1	0	0	0.22361	0.079134	0.089311	0.19356	0.29483	0.1509	0.12699	0.20837	0.13172	0.045755	0.47725	0.29	0.059772	0.28854	0.15328	0.054008	-4.1708	-3.4729	-4.0708	-4.5	-3.4271	-4.3604	-4.0813	-3.8937	-4.5938	-3.7417	-4.2104	-4.3604	-3.6458	-4.4854	-4.1083	-3.7333	115.536	183.848	242.714	238.915	294.927	196.813	162.134	-5.033	166.726	13.047	270.463	220.776	287.344	275.472	299.069	39.058	0.00017613	0.00067274	5.9162e-05	1512.4	6.0905e-06	4.5261e-06	1510.5	409.32	1.3724e-06	9.5078e-07	468.31	156.99	138.52	48.323	6.528e-06	60.212	0.00052802	0.00055172	0.00015445	1520.2	6.0871e-06	6.0757e-06	1520.8	415.32	6.0281e-06	6.1333e-06	472.25	161.36	141.35	49.085	6.0969e-06	60.971	176.698	59.727	33.711	-30.884	100.334	147.207	-31.010	-25.934	179.574	145.749	-26.597	-22.099	-21.690	-17.651	120.525	-18.062	-8191	255	
39210.289	1	1	0	0	0.13348	0.26281	0.16115	0.17131	0.2529	0.075991	0.32371	0.39463	0.19203	0.13942	0.21191	0.20071	0.17312	0.24401	0.017524	0.14412	-4.3042	-3.7771	-3.9521	-4.5833	-3.5083	-4.3792	-4.2479	-3.8896	-4.3875	-3.6771	-4.2271	-4.3375	-3.5125	-4.3875	-3.9646	-3.7125	-42.067	77.158	256.395	-18.825	-42.625	145.490	302.974	268.622	134.971	168.495	-33.137	249.284	297.851	-28.024	283.166	263.460	0.00019012	0.00015786	0.00012523	1512.2	4.4418e-06	7.8053e-06	1509.8	409.01	3.3252e-06	6.1809e-06	464.54	157.99	137.52	48.607	7.7391e-06	59.885	0.00052863	0.00055574	0.0001549	1520.2	6.1275e-06	6.1047e-06	1521.8	414.59	6.1918e-06	6.1378e-06	471.34	161.79	141.16	49.131	6.2918e-06	60.829	175.820	41.903	16.235	-30.843	132.144	76.597	-30.827	-26.125	175.505	74.022	-26.604	-22.109	-21.609	-17.167	118.380	-17.842	-8191	255	
39210.410	1	1	0	0	0.15898	0.10834	0.01039	0.28145	0.15386	0.23309	0.16698	0.29573	0.049869	0.085671	0.1881	0.086094	0.11424	0.19429	0.13207	0.085648	-4.2646	-3.725	-3.8646	-4.7771	-3.3271	-4.1937	-4.3	-3.7458	-4.2917	-3.7333	-4.1312	-4.5729	-3.3688	-4.5	-4.1271	-3.7	221.327	-7.390	300.763	217.617	141.474	144.731	161.879	280.850	81.539	76.069	-35.189	83.406	-1.557	162.615	151.685	246.673	0.00019803	0.00069617	0.00015701	1514.1	1.0034e-06	6.6157e-06	1509.6	407.87	5.4182e-06	5.6971e-06	469.03	156.94	137.93	48.213	3.8667e-06	59.904	0.00054367	0.00056387	0.00016107	1521.5	6.2184e-06	6.2698e-06	1521.6	414.57	6.2565e-06	6.2746e-06	472.79	161.54	141.23	49.166	6.3831e-06	60.802	175.310	57.560	12.402	-30.696	113.734	114.784	-30.809	-26.094	140.038	121.225	-26.632	-22.346	-21.918	-17.230	89.956	-17.880	-8191	255	
39210.508	1	1	0	0	0.13732	0.13787	0.051123	0.33788	0.15153	0.055108	0.18569	0.25064	0.027518	0.15871	0.29046	0.13261	0.09213	0.10418	0.33982	0.28999	-4.2125	-3.6042	-3.7708	-4.65	-3.3104	-4.3146	-4.4479	-3.4958	-4.5062	-3.85	-4.0729	-4.6	-3.4667	-4.0938	-4.2438	-3.5542	177.160	86.310	302.952	230.516	224.359	261.680	-41.046	229.322	130.841	-28.543	265.948	268.931	304.691	-8.198	113.706	152.388	0.00019403	0.00022303	0.00010943	1511.5	5.9892e-06	7.646e-06	1506.7	410.36	2.0272e-06	3.1229e-06	469.39	157.29	137.56	48.102	6.0396e-06	59.921	0.00054662	0.00058348	0.00015966	1519.3	6.3165e-06	6.3777e-06	1518.8	414.77	6.3166e-06	6.4222e-06	472.2	161.65	140.89	49.106	6.4666e-06	60.879	179.228	95.256	20.420	-31.031	119.251	155.900	-30.696	-26.050	168.730	102.927	-26.574	-21.910	-21.529	-17.199	106.330	-17.702	-8191	255	
39210.602	1	1	0	0	0.23331	0.15234	0.04844	0.30691	0.23211	0.11343	0.16728	0.12049	0.071015	0.11074	0.14761	0.25458	0.16382	0.20157	0.21231	0.12956	-4.2104	-3.7208	-3.625	-4.7333	-3.4875	-4.0208	-4.5854	-3.7313	-4.3688	-3.8875	-3.7396	-4.6396	-3.4833	-4.2125	-4.4792	-3.5417	312.247	277.471	275.817	268.819	159.409	275.719	263.268	-39.890	29.663	46.102	262.661	282.054	14.411	54.509	89.339	117.725	0.00018664	0.00051527	0.00011001	1506.6	5.3685e-06	2.7451e-06	1508	408.76	4.4236e-06	4.0074e-06	468.62	158.54	137.83	48.141	4.5697e-06	59.616	0.00055331	0.00058419	0.00016099	1518.4	6.5148e-06	6.5065e-06	1518.3	414.47	6.4776e-06	6.5809e-06	471.95	161.84	140.98	48.974	6.6198e-06	60.628	177.585	26.055	98.036	-30.799	141.857	44.717	-31.049	-26.076	95.355	106.559	-26.561	-22.114	-21.644	-17.419	95.506	-17.992	-8191	255	
39210.676	1	1	0	0	0.21271	0.19524	0.24124	0.36785	0.15562	0.12008	0.033949	0.18097	0.14793	0.2203	0.22326	0.24108	0.17147	0.16956	0.026761	0.11565	-4.1646	-3.7458	-3.7417	-4.7792	-3.4354	-3.9729	-4.6188	-3.8083	-4.4979	-3.9604	-3.5979	-4.6583	-3.6083	-4.2917	-4.3729	-3.6396	155.049	149.879	91.445	303.453	37.470	38.396	310.480	-40.969	50.842	58.158	294.903	258.866	292.345	-26.107	154.437	290.187	0.00016651	0.00084325	4.6898e-05	1514.3	3.8226e-06	5.2966e-06	1512.9	409.42	3.7203e-06	6.7639e-06	468.64	157.75	137.4	48.246	1.1847e-06	59.58	0.00058096	0.00060666	0.00016974	1521.7	6.752e-06	6.8185e-06	1523.4	414.49	6.8717e-06	6.8543e-06	472.85	161.87	141.11	49.27	6.84e-06	60.746	183.376	56.833	44.775	-30.958	156.514	109.404	-30.765	-26.215	160.615	123.919	-26.729	-22.176	-21.702	-17.434	32.096	-18.101	-8191	255	
39210.793	1	1	0	0	0.10477	0.25717	0.30803	0.27587	0.046452	0.16009	0.10499	0.11212	0.20413	0.23058	0.14755	0.11757	0.2077	0.36159	0.11806	0.06945	-4.0208	-3.7917	-3.6333	-4.8271	-3.5187	-3.8958	-4.6396	-3.2292	-4.3562	-4.1	-3.4104	-4.7312	-3.6667	-3.9375	-4.4812	-3.5583	6.642	165.090	242.676	301.907	2.001	137.346	312.268	307.709	234.935	164.414	238.886	126.056	276.838	-15.951	310.312	297.921	0.0001989	0.00052416	0.00015436	1514.3	4.2461e-06	7.5231e-06	1512.6	409.22	3.6929e-06	5.5858e-06	466.87	157.84	137.78	48.327	1.2046e-06	59.804	0.0006015	0.00062621	0.00017521	1522.3	6.9063e-06	6.9021e-06	1522.9	415.1	6.9684e-06	6.918e-06	472.89	161.99	141.23	49.214	6.8576e-06	60.857	173.986	31.120	39.347	-30.952	163.361	112.904	-30.530	-26.221	159.022	107.888	-26.497	-21.834	-21.815	-17.360	32.795	-17.906	-8191	255	
39210.891	1	1	0	0	0.26994	0.095314	0.30158	0.056294	0.10824	0.15552	0.30004	0.17859	0.25302	0.31345	0.2292	0.1072	0.29593	0.34075	0.09308	0.25708	-3.95	-4.1604	-3.4625	-4.8167	-3.6542	-3.5979	-4.6604	-3.5479	-4.1729	-4.1771	-3.6813	-4.4938	-3.7729	-3.8625	-4.5542	-3.6042	39.109	122.253	69.410	-11.446	61.560	-23.209	13.282	187.033	20.142	88.191	237.856	289.754	216.133	315.285	-13.508	-41.782	0.00014469	0.00044863	9.7642e-05	1511.5	3.1734e-06	5.5479e-06	1509.5	409.41	2.5112e-06	6.4798e-06	468.3	157.48	138.22	48.256	3.1472e-06	59.765	0.00060092	0.00063106	0.00017703	1524.5	6.9062e-06	6.9551e-06	1523.7	414.76	6.9397e-06	6.9201e-06	473.11	161.88	141.22	49.107	6.9589e-06	60.774	184.575	34.923	72.057	-30.840	103.810	106.443	-30.712	-26.368	113.690	126.077	-26.386	-22.087	-21.718	-17.643	142.121	-17.833	-8191	255	
39210.984	1	1	0	0	0.12678	0.18986	0.043469	0.22949	0.14374	0.12621	0.29669	0.13493	0.12793	0.21303	0.14618	0.10848	0.1353	0.091024	0.048139	0.13804	-3.9062	-4.1229	-3.5312	-4.65	-3.6646	-3.7417	-4.6312	-3.4313	-4.1917	-4.3146	-3.5083	-4.7375	-3.9708	-3.5104	-4.7854	-3.5187	-33.184	-24.359	9.591	251.245	219.432	-13.575	274.332	-34.378	255.682	-28.319	276.052	228.937	-11.023	191.141	244.128	306.927	0.00017772	0.0001352	0.00012434	1511	3.8123e-06	8.6208e-06	1513.5	408.11	1.3557e-06	6.1054e-06	467.76	158.93	137.86	48.402	3.9925e-06	60.017	0.0006005	0.00062756	0.00017523	1524	6.8682e-06	6.8571e-06	1524.4	414.17	6.8441e-06	6.8336e-06	472.97	162.66	141.38	49.316	6.9433e-06	60.913	175.396	38.903	40.665	-30.957	157.562	114.505	-30.759	-26.098	160.530	113.740	-26.590	-22.161	-21.732	-16.891	77.759	-18.071	-8191	255	
39211.082	1	1	0	0	0.35858	0.087796	0.20173	0.40915	0.17797	0.17001	0.068252	0.060483	0.19362	0.06085	0.23032	0.19492	0.074585	0.10404	0.21687	0.24327	-3.6167	-4.1479	-3.225	-4.6708	-3.8396	-3.6583	-4.5792	-3.6229	-4.0271	-4.3271	-3.6208	-4.5104	-3.9604	-3.5729	-4.4583	-3.5375	161.678	90.613	121.979	291.703	54.073	-37.528	261.713	1.529	-10.302	47.553	254.730	216.721	-41.590	279.748	-18.135	214.720	0.00021269	0.00040366	0.00011113	1515.4	8.9014e-06	4.2916e-06	1515.2	408.84	1.6576e-06	7.0418e-06	468.71	158.41	138.71	48.286	5.5596e-06	59.861	0.00060531	0.00062267	0.0001761	1526.6	6.8733e-06	6.8567e-06	1527.5	414.7	6.9723e-06	6.9342e-06	474.07	162.5	141.75	49.269	6.9484e-06	60.809	188.169	16.878	10.256	-30.818	126.203	35.979	-30.759	-26.356	138.272	117.774	-26.921	-21.805	-21.981	-17.474	87.343	-17.968	-8191	255	
39211.203	1	1	0	0	0.054746	0.14873	0.15005	0.17251	0.27877	0.05987	0.24463	0.20811	0.084938	0.20081	0.21854	0.09049	0.14311	0.12932	0.073739	0.14187	-3.7542	-4.4313	-3.2938	-4.6167	-3.8729	-3.6708	-4.6417	-3.6021	-4.1146	-4.3083	-3.5812	-4.4771	-4.0813	-3.8896	-4.4333	-3.6958	32.493	307.844	166.065	279.805	27.014	287.040	251.223	282.401	147.444	250.489	270.619	296.049	284.404	55.869	227.518	-28.822	0.00020901	0.00060979	5.7357e-05	1523.8	3.0131e-06	5.185e-06	1518.6	410.69	3.0755e-06	1.1155e-06	465.92	158.55	138.35	48.515	2.1169e-06	59.853	0.00059829	0.00062411	0.00017419	1532.5	6.7481e-06	6.8292e-06	1530.8	415.79	6.6833e-06	6.5954e-06	473.25	162.65	141.74	49.274	6.6726e-06	61.001	184.366	43.286	55.991	-30.841	75.713	96.209	-30.582	-26.177	118.636	75.367	-26.689	-22.323	-21.899	-17.335	93.664	-18.137	-8191	255	
39211.273	1	1	0	0	0.17881	0.1727	0.18706	0.20551	0.21543	0.12368	0.25589	0.36292	0.23973	0.25406	0.11003	0.091678	0.2169	0.26511	0.23334	0.13977	-3.4604	-4.4521	-3.4188	-4.575	-4.15	-3.5312	-4.7	-3.7021	-3.85	-4.5104	-3.4958	-4.4688	-4.2292	-3.5979	-4.4812	-3.8646	185.842	97.188	111.820	279.196	198.388	228.754	-16.722	249.461	295.865	75.636	-8.203	-6.064	-28.793	-43.958	224.591	225.177	0.00017488	0.00059682	0.0001239	1526.4	5.6236e-06	2.3241e-06	1521.3	409.01	2.0134e-06	2.9087e-06	471.52	158.39	138.46	48.378	5.8559e-06	60.03	0.00057314	0.00059848	0.0001687	1533.8	6.5649e-06	6.6398e-06	1532.9	415.32	6.6457e-06	6.6743e-06	474.7	162.73	141.73	49.252	6.6866e-06	61.014	169.124	107.447	79.258	-30.816	87.714	144.532	-30.530	-26.167	246.003	132.294	-26.650	-21.893	-21.664	-17.526	103.326	-17.982	-8191	255	
39211.371	1	1	0	0	0.40253	0.099898	0.15789	0.34413	0.04232	0.17228	0.13942	0.18956	0.18363	0.15675	0.21562	0.11457	0.10591	0.056091	0.21588	0.066921	-3.4188	-4.4958	-3.3979	-4.5396	-4.0312	-3.5417	-4.8708	-3.7708	-3.6312	-4.7333	-3.4313	-4.1917	-4.3771	-3.5083	-4.3562	-3.7292	137.546	169.817	20.771	265.942	40.983	194.942	251.299	282.922	194.496	46.766	300.798	227.735	296.854	267.546	207.188	212.755	0.00019178	0.00010721	0.00019017	1525.8	4.9103e-06	5.9396e-06	1517.2	409.34	1.1368e-06	4.4757e-06	468.4	158.55	139.12	48.355	5.5248e-06	59.835	0.00058321	0.00060652	0.00016905	1534.2	6.5908e-06	6.8115e-06	1533.3	415.15	6.7674e-06	6.7619e-06	474.1	163	141.92	49.311	6.8836e-06	60.956	190.637	89.296	52.751	-30.932	139.808	135.223	-30.533	-26.189	122.809	162.334	-26.863	-22.132	-21.945	-17.560	83.457	-18.311	-8191	255	
39211.488	1	1	0	0	0.12053	0.18932	0.045781	0.19121	0.14177	0.079189	0.19842	0.37182	0.059021	0.19308	0.11281	0.099223	0.22244	0.033825	0.16553	0.16345	-3.3125	-4.3542	-3.4146	-4.3896	-4.2021	-3.3979	-4.775	-4.0188	-3.8042	-4.5604	-3.6083	-4.1229	-4.4875	-3.5208	-4.3896	-3.9437	3.604	298.917	7.914	289.348	217.074	92.036	242.266	273.008	209.082	179.317	-7.547	205.576	252.907	288.129	183.649	66.871	0.00021574	0.00051828	0.0001797	1529.6	4.4419e-06	3.75e-06	1524.8	409.95	3.1911e-06	5.7255e-06	471.07	158.74	139.2	48.367	3.5269e-06	60.206	0.00057794	0.00061526	0.00017156	1536.3	6.7763e-06	6.8711e-06	1536.5	415.49	6.8433e-06	6.7958e-06	474.79	163.06	142.04	49.24	6.6619e-06	61.098	179.747	1.521	31.743	-30.716	142.704	123.393	-30.459	-26.458	175.465	87.942	-26.924	-21.856	-21.795	-17.526	121.176	-17.734	-8191	255	
39211.586	1	1	0	0	0.29829	0.32272	0.10446	0.2666	0.20711	0.092464	0.38723	0.21222	0.15986	0.23141	0.13245	0.026131	0.20316	0.17396	0.28895	0.11003	-3.3	-4.2167	-3.6792	-4.2458	-4.375	-3.4125	-4.7042	-4.0375	-3.5354	-4.4958	-3.6146	-4.25	-4.4104	-3.6437	-4.2021	-3.9396	179.148	164.920	264.193	281.706	92.418	131.592	232.605	280.689	68.433	210.927	262.306	204.599	277.632	151.958	54.628	200.862	0.00013871	0.00081231	0.00011733	1531.8	2.0953e-06	6.4743e-06	1529	410.16	4.36e-06	4.1621e-06	468.31	158.45	138.95	48.382	4.2045e-06	59.948	0.00058403	0.00061057	0.00016966	1537.9	6.6298e-06	6.682e-06	1538.2	416.83	6.6387e-06	6.7884e-06	473.97	162.98	142.12	49.17	6.6279e-06	61.102	185.363	37.662	-8.384	-30.884	195.797	101.584	-30.671	-26.259	148.272	111.025	-26.709	-21.669	-21.601	-17.570	124.796	-18.029	-8191	255	
39211.684	1	1	0	0	0.088044	0.076271	0.080656	0.29335	0.10532	0.42785	0.31606	0.25265	0.10487	0.14754	0.11157	0.32769	0.091609	0.25921	0.16161	0.19747	-3.4083	-4.3438	-3.5333	-4.2771	-4.1937	-3.6104	-4.3667	-4.0229	-3.6729	-4.3792	-3.8271	-4.1979	-4.4771	-3.5938	-4.2562	-4.2021	158.828	-33.338	77.358	246.367	262.287	14.776	279.543	130.486	248.379	152.954	290.252	302.370	44.777	206.396	160.732	153.425	0.00019279	0.00046681	0.00015009	1527.8	4.1137e-06	5.2826e-06	1526.9	409.98	4.3451e-06	3.7409e-06	469.59	158.99	138.25	48.487	6.7089e-06	60.257	0.00058106	0.00061066	0.00016969	1535.9	6.627e-06	6.6797e-06	1536.5	415.51	6.8507e-06	6.7937e-06	474.18	163.21	141.73	49.326	6.7738e-06	61.118	174.487	59.397	77.935	-30.736	69.873	107.530	-30.517	-26.267	127.393	97.365	-26.639	-22.066	-21.692	-17.415	113.894	-18.066	-8191	255	
39211.777	1	1	0	0	0.18619	0.10816	0.14388	0.34943	0.17574	0.29599	0.14476	0.16609	0.10523	0.28088	0.11808	0.22179	0.10944	0.28111	0.1507	0.32228	-3.4271	-4.425	-3.7479	-4.2208	-4.3458	-3.3792	-4.4125	-4.2146	-3.6083	-4.4833	-3.7729	-3.9292	-4.4812	-3.3417	-4.1062	-4.3125	83.622	136.931	139.375	293.032	-18.127	106.060	260.062	245.079	-15.093	300.255	269.635	256.697	143.298	264.739	-15.935	241.520	0.00019277	0.00024361	0.00016324	1524.5	3.3576e-06	6.9006e-06	1519.4	410.28	4.5798e-06	3.8602e-06	467.98	159.18	139.39	48.537	6.5167e-06	60.063	0.00058654	0.00061002	0.00016829	1535	6.6854e-06	6.6551e-06	1534.4	416.5	6.8334e-06	6.6544e-06	474.04	163.07	142.29	49.253	6.6753e-06	61.167	182.342	36.909	32.747	-30.942	95.432	128.602	-30.613	-26.256	239.325	116.280	-26.715	-22.091	-21.559	-17.496	105.231	-18.084	-8191	255	
39211.871	1	1	0	0	0.16144	0.096841	0.24601	0.081711	0.37901	0.1775	0.179	0.30557	0.31352	0.036415	0.24045	0.17489	0.18685	0.13991	0.29397	0.21428	-2.925	-4.3792	-3.8021	-3.8812	-4.3854	-3.3979	-4.3271	-4.2833	-3.4667	-4.2458	-3.8937	-3.8	-4.5729	-3.5646	-3.9896	-4.4292	241.442	171.677	-35.913	201.767	184.884	212.959	201.277	225.079	267.137	300.302	248.592	242.973	243.272	261.974	169.797	27.888	0.00017517	0.00099643	0.00022079	1530.7	4.8716e-06	6.1467e-06	1521.2	412.42	4.2432e-06	9.0498e-07	469.33	158.51	139.2	48.295	4.924e-06	59.841	0.00058049	0.00060107	0.00016806	1537.4	6.5194e-06	6.5311e-06	1535.6	416.75	6.5988e-06	6.5447e-06	474.15	162.71	142.12	49.236	6.6937e-06	61.132	188.571	29.952	40.535	-30.915	120.403	111.007	-30.352	-26.159	133.753	68.969	-26.702	-22.017	-21.640	-17.513	86.540	-17.941	-8191	255	
39211.969	1	1	0	0	0.19605	0.2142	0.023968	0.3729	0.18925	0.068349	0.30193	0.19785	0.15789	0.14974	0.23099	0.11941	0.10646	0.11843	0.31994	0.19619	-3.0563	-4.5667	-3.9313	-4.0104	-4.4667	-3.6333	-4.2646	-4.3542	-3.5417	-4.5083	-4.0958	-3.8646	-4.6375	-3.6396	-3.9625	-4.5708	10.633	161.402	314.271	269.325	-12.321	111.405	243.736	305.824	203.136	24.249	293.155	246.814	247.087	258.906	117.213	198.091	0.00014806	0.00040452	0.00014594	1526.1	6.6206e-06	4.4501e-06	1524.9	410.75	3.612e-06	5.5848e-06	466.69	159.63	139.12	48.334	3.6726e-06	59.988	0.00058379	0.00059135	0.00016419	1533.1	6.4605e-06	6.5898e-06	1536.6	415.96	6.61e-06	6.4809e-06	472.85	163.27	142.29	49.252	6.5403e-06	61.175	170.107	30.095	57.404	-30.853	111.757	93.110	-30.547	-25.975	52.857	112.410	-26.751	-21.925	-21.479	-17.728	87.643	-17.980	-8191	255	
39212.090	1	1	0	0	0.10458	0.093904	0.080548	0.40397	0.15294	0.23812	0.37835	0.24334	0.1773	0.031506	0.087959	0.13631	0.21673	0.23551	0.16893	0.079109	-2.9542	-4.575	-3.825	-3.7104	-4.2958	-3.3563	-3.9604	-4.7188	-3.7396	-4.3708	-4.0625	-3.7625	-4.625	-3.7	-3.8917	-4.2729	147.108	260.092	302.423	253.708	184.926	205.346	299.384	214.984	101.699	111.614	130.427	245.714	274.535	307.958	173.876	228.062	0.00014566	0.0007256	0.00021271	1527.7	2.9981e-06	9.3712e-06	1521.1	410.98	3.4446e-06	2.4103e-06	468.02	158.75	139.39	48.306	5.6785e-06	59.813	0.00056302	0.00059786	0.00016416	1533.1	6.4793e-06	6.5023e-06	1535.6	416.63	6.4763e-06	6.4772e-06	473.96	162.85	142.1	49.261	6.5871e-06	60.922	165.905	55.855	77.515	-30.671	191.552	120.864	-30.766	-26.463	118.621	83.593	-26.981	-22.050	-21.634	-17.528	98.345	-17.948	-8191	255	
39212.188	1	1	0	0	0.31461	0.11146	0.20316	0.32023	0.15034	0.20431	0.11742	0.13317	0.22634	0.084334	0.18824	0.072972	0.20337	0.22886	0.15953	0.29416	-3.0917	-4.2833	-3.9229	-3.9104	-4.4062	-3.5583	-4.0396	-4.4542	-3.5208	-4.2562	-4.3271	-3.6875	-4.5	-3.8521	-3.8312	-4.3875	72.879	38.359	238.476	247.226	233.954	54.180	173.104	228.939	15.550	-35.688	180.085	243.315	312.575	309.537	205.171	203.369	0.00017526	0.00045683	0.00011261	1516.1	3.8178e-06	4.6658e-06	1527.6	410.18	3.7704e-06	4.7235e-06	470.83	159.15	139.39	48.437	3.089e-06	60.25	0.00055941	0.00058123	0.00016206	1531.6	6.3637e-06	6.4651e-06	1537	416.03	6.513e-06	6.533e-06	474.27	163.17	142.26	49.275	6.4142e-06	61.135	187.014	28.088	-4.344	-30.800	106.638	104.257	-30.733	-26.206	126.460	43.302	-26.768	-22.252	-21.611	-17.574	163.033	-17.942	-8191	255	
39212.281	1	1	0	0	0.037874	0.17072	0.19202	0.34996	0.12676	0.059331	0.22202	0.17315	0.085165	0.18262	0.24075	0.15368	0.2853	0.11919	0.037955	0.066852	-3.2438	-4.0875	-3.9771	-3.6937	-4.1875	-3.7417	-4.0833	-4.4	-3.625	-4.2292	-4.1771	-3.7104	-4.4354	-4.0021	-3.7417	-4.4	109.755	-39.531	185.732	244.163	100.428	-9.181	236.677	222.868	138.750	20.883	253.820	-44.032	263.950	303.882	236.160	1.341	0.00017478	0.0006563	0.00021128	1523.8	3.8281e-06	6.9142e-06	1525.5	411.16	4.1835e-06	5.9536e-06	470.18	158.76	139.46	48.303	4.0425e-06	59.497	0.00055138	0.00057926	0.00016168	1533.8	6.303e-06	6.2978e-06	1534.5	416.28	6.4097e-06	6.3622e-06	473.69	162.69	142.37	49.343	6.4512e-06	61.041	183.440	45.640	47.279	-30.853	107.143	83.272	-30.655	-26.360	90.748	111.313	-26.634	-22.065	-21.497	-17.680	140.661	-17.808	-8191	255	
39212.379	1	1	0	0	0.078716	0.15945	0.13909	0.25191	0.23847	0.15395	0.22857	0.21197	0.30038	0.025082	0.06915	0.084251	0.58212	0.25286	0.07167	0.095224	-3.1646	-3.7917	-4.1687	-3.7687	-4.2958	-3.8083	-3.95	-4.425	-3.5146	-4.1667	-4.3292	-3.7125	-4.425	-3.9875	-3.6875	-4.6292	309.450	266.349	107.353	304.694	213.944	271.869	5.160	301.532	62.449	242.519	284.401	47.180	-15.935	29.079	287.824	205.654	0.00013853	0.00037871	0.00027712	1518.7	6.8269e-06	6.8459e-06	1526.8	408.74	2.8163e-06	1.202e-06	467.09	159.02	139.23	48.267	2.0205e-06	59.937	0.00055762	0.00057581	0.0001598	1531.4	6.2386e-06	6.3698e-06	1535.1	416.1	6.2209e-06	6.3352e-06	473.92	163.03	142.37	49.387	6.3174e-06	61.094	181.722	50.367	28.173	-30.758	102.339	91.011	-31.010	-26.286	242.203	36.109	-26.754	-22.016	-21.650	-17.339	104.699	-18.139	-8191	255	
39212.500	1	1	0	0	0.023073	0.26614	0.094079	0.39258	0.13538	0.10127	0.13818	0.17518	0.1842	0.13395	0.099452	0.16388	0.2363	0.18277	0.067568	0.17173	-3.4562	-4.0938	-4.2521	-3.8292	-4.3229	-4.0229	-4.0062	-4.4354	-3.6937	-4.0437	-4.4104	-3.8854	-4.3187	-4.225	-3.7875	-4.4479	291.518	302.929	-20.694	275.744	230.446	35.613	-36.533	-31.923	122.588	261.606	294.161	308.978	220.199	310.675	33.020	273.343	0.00017347	0.00066198	0.00012494	1521.3	4.9578e-06	3.0085e-06	1520.1	411.21	3.9355e-06	3.4601e-06	469.79	158.95	138.5	48.477	6.9355e-07	60.07	0.00054917	0.00057398	0.00015906	1530.5	6.3075e-06	6.2159e-06	1533.6	416.32	6.2367e-06	6.2889e-06	474.81	162.83	142.28	49.408	6.3348e-06	61.108	172.768	24.712	26.928	-30.895	96.225	104.402	-30.646	-26.131	125.570	91.192	-26.595	-22.329	-21.714	-17.466	101.154	-18.140	-8191	255	
39212.570	1	1	0	0	0.095631	0.16736	0.10457	0.19256	0.11463	0.030798	0.24664	0.17634	0.074941	0.036626	0.12267	0.13771	0.051349	0.19348	0.10562	0.37539	-3.3563	-3.8604	-4.3271	-3.8917	-4.2854	-4.0375	-4.0333	-4.5146	-3.8146	-3.9854	-4.4396	-3.7021	-4.3417	-4.0958	-3.4958	-4.3625	30.871	228.038	254.930	247.059	311.125	126.134	236.280	240.218	105.828	-15.137	214.727	6.875	314.850	20.530	211.301	240.518	0.00017334	0.00054805	0.00014905	1528.7	3.9478e-06	2.7014e-06	1516.7	411.17	2.435e-06	4.4135e-06	470.13	159.12	139.42	48.371	7.6433e-06	59.944	0.00055107	0.00056841	0.00015713	1533	6.3333e-06	6.2835e-06	1531.5	416.67	6.2839e-06	6.1939e-06	474.87	163.01	142.33	49.399	6.4208e-06	61.081	178.732	57.803	58.972	-30.883	181.451	102.733	-30.660	-26.144	156.209	92.320	-26.701	-21.967	-21.611	-17.967	117.349	-17.994	-8191	255	
39212.668	1	1	0	0	0.27431	0.080818	0.12489	0.3465	0.27681	0.035009	0.16217	0.26894	0.21657	0.19416	0.18945	0.16283	0.18534	0.23721	0.096256	0.28457	-3.4437	-3.8042	-4.2792	-3.8417	-4.1438	-3.9354	-3.8083	-4.3104	-3.7104	-3.8812	-4.3875	-3.8438	-4.1917	-4.2271	-3.5625	-4.525	100.137	120.035	133.600	250.568	-36.076	6.867	235.052	235.088	129.216	41.768	-29.349	-29.415	58.785	285.141	86.647	226.276	0.00015522	0.00044031	0.00019173	1527.4	5.3745e-06	4.9453e-06	1520.3	410.55	2.898e-07	5.2941e-06	470.62	159.4	139.88	48.44	6.3496e-06	60.211	0.00055621	0.00057568	0.00015965	1533.5	6.3081e-06	6.3548e-06	1532.9	416.88	6.386e-06	6.3524e-06	474.8	163.26	142.63	49.408	6.397e-06	61.135	197.015	63.832	9.415	-30.890	160.386	85.144	-30.750	-26.337	148.496	94.339	-26.630	-22.188	-21.758	-17.514	125.479	-18.033	-8191	255	
39212.762	1	1	0	0	0.1172	0.064729	0.18723	0.32598	0.083113	0.30756	0.40646	0.21757	0.063349	0.1383	0.17763	0.27908	0.33535	0.12832	0.13468	0.083301	-3.4938	-3.8792	-4.1667	-3.7396	-4.0563	-4.3	-3.9771	-4.5312	-3.8917	-3.8625	-4.5708	-3.7917	-4.2896	-4.1979	-3.6896	-4.3667	-15.785	8.477	153.412	313.801	142.429	-20.934	248.490	284.494	-7.768	73.344	235.943	252.710	244.551	259.491	116.085	184.925	0.0001303	0.00069943	0.00023691	1522.8	1.4818e-06	7.583e-06	1521.7	411.95	2.6471e-06	8.3992e-06	467.41	157.74	139.59	48.5	6.2666e-06	60.122	0.00055363	0.00058631	0.00016223	1531.8	6.4516e-06	6.4298e-06	1534.9	417.19	6.5119e-06	6.4941e-06	474.5	162.68	142.53	49.389	6.6831e-06	61.146	177.738	46.670	42.362	-30.838	116.813	133.582	-30.503	-26.190	137.186	75.245	-26.765	-22.042	-21.438	-17.501	76.602	-17.968	-8191	255	
39212.883	1	1	0	0	0.11578	0.15252	0.14263	0.11668	0.23376	0.081591	0.26448	0.30284	0.22092	0.13632	0.012711	0.43623	0.26225	0.33986	0.076096	0.032835	-3.6479	-3.7479	-4.1937	-3.9417	-4.1771	-4.2312	-3.8354	-4.3542	-3.9813	-3.65	-4.5708	-3.6729	-4.0625	-4.3771	-3.5792	-4.5188	12.535	194.026	81.578	289.985	308.069	153.711	219.829	234.144	308.868	284.170	98.362	299.389	255.156	-8.111	24.047	-22.347	0.00019338	0.00070832	0.00013991	1519.5	2.1566e-06	3.1967e-06	1516.4	412.49	4.1096e-06	7.0928e-06	466.63	158.78	139.01	48.673	3.395e-06	59.815	0.00056544	0.00059636	0.00016597	1530.3	6.5111e-06	6.5505e-06	1531.4	416.81	6.5248e-06	6.551e-06	473.91	162.72	142.51	49.566	6.5656e-06	61.086	184.569	36.477	53.900	-30.904	292.701	69.051	-30.743	-26.050	107.837	120.558	-26.554	-21.972	-21.509	-17.423	108.142	-17.873	-8191	255	
39212.977	1	1	0	0	0.019769	0.20213	0.33864	0.24316	0.14534	0.20997	0.19077	0.21081	0.25793	0.34161	0.37995	0.2263	0.33451	0.044925	0.22192	0.24774	-3.5917	-3.7271	-4.1958	-3.9854	-3.95	-4.275	-3.8833	-4.425	-3.8667	-3.6792	-4.6521	-3.8292	-3.9521	-4.3792	-3.6021	-4.2937	129.833	39.777	34.873	-31.810	305.707	28.464	275.179	265.879	42.430	313.841	-24.934	284.271	252.835	175.339	306.503	-25.162	0.00020442	0.0004912	0.0001542	1519.4	2.879e-06	4.2055e-06	1516.9	409.91	3.48e-06	5.1266e-06	468.25	159.3	138.95	48.371	5.6785e-06	59.781	0.00056503	0.00058813	0.00016283	1529.1	6.4121e-06	6.3865e-06	1530.8	416.11	6.2857e-06	6.4659e-06	474.08	162.73	142.06	49.35	6.4349e-06	61.118	176.091	-15.198	98.396	-30.768	107.183	60.684	-30.626	-25.867	120.616	107.018	-26.698	-22.086	-21.498	-17.578	80.343	-18.210	-8191	255	
39213.074	1	1	0	0	0.17466	0.17326	0.1984	0.36822	0.11655	0.044863	0.41946	0.15202	0.14136	0.023129	0.35568	0.2137	0.1222	0.39515	0.1754	0.086886	-3.7208	-3.7292	-4.4646	-4.0208	-3.9333	-4.5208	-3.7708	-4.3292	-4.1604	-3.7812	-4.5854	-3.9479	-4.0896	-4.45	-3.7042	-4.3771	169.923	233.339	90.475	311.800	278.838	304.229	297.729	228.743	207.379	160.431	-33.236	-20.993	168.124	254.543	81.085	109.689	0.00016576	0.00075568	3.2158e-05	1517	4.3816e-06	2.4924e-06	1517.1	410.27	4.3893e-06	4.4339e-06	469.08	158.98	138.78	48.4	5.6782e-06	60.07	0.00055406	0.0005742	0.00016286	1526.4	6.3145e-06	6.2269e-06	1529.1	415.94	6.371e-06	6.4346e-06	474.31	162.73	142.16	49.336	6.404e-06	61.055	187.737	31.065	-1.126	-30.961	118.107	59.866	-30.570	-26.299	135.760	126.007	-26.411	-22.252	-21.606	-17.383	139.249	-17.654	-8191	255	
39213.172	1	1	0	0	0.20724	0.12031	0.18655	0.39712	0.23696	0.14156	0.42632	0.36304	0.15553	0.14312	0.19548	0.097466	0.1022	0.18258	0.12069	0.21337	-3.7833	-3.5583	-4.5	-3.8646	-3.6979	-4.3354	-3.9083	-4.3917	-4.2208	-3.4229	-4.4458	-3.8292	-4.2417	-4.5021	-3.4229	-4.2312	77.715	-12.675	63.046	295.860	262.448	-2.828	298.208	269.013	166.063	118.807	214.935	247.915	9.522	261.819	306.927	-32.656	0.00015186	0.00023606	0.00019081	1519.4	5.8776e-06	9.7512e-06	1510.9	410.45	4.1085e-06	4.0395e-06	471.45	158.63	138.59	48.54	8.0154e-06	60.189	0.00055019	0.00057416	0.00015961	1525.7	6.3458e-06	6.3762e-06	1525.5	415.5	6.3443e-06	6.52e-06	474.57	162.44	142.11	49.496	6.489e-06	61.066	194.686	17.618	27.422	-30.918	156.043	98.883	-30.709	-26.217	134.291	133.694	-26.915	-22.005	-21.716	-17.619	126.870	-17.874	-8191	255	
39213.266	1	1	0	0	0.074312	0.065624	0.096418	0.14343	0.076031	0.18775	0.16656	0.27623	0.16359	0.24131	0.069018	0.28607	0.12917	0.16734	0.051256	0.14773	-3.9583	-3.4604	-4.5062	-4.1396	-3.5729	-4.4563	-3.6833	-4.3375	-4.2708	-3.4333	-4.6375	-4.1167	-3.6896	-4.6729	-3.5771	-3.9896	81.856	312.696	64.536	-7.268	57.932	167.797	247.999	-33.040	14.665	5.329	279.992	207.826	27.157	-35.777	235.034	291.819	0.00017685	0.00067207	0.00020177	1516.3	4.4866e-06	5.9198e-06	1517.4	411.07	2.8872e-06	1.8406e-06	469.6	158.21	139.25	48.782	3.1548e-06	59.964	0.00055744	0.0005903	0.00016383	1527.5	6.4475e-06	6.4862e-06	1528.9	416.46	6.5237e-06	6.5723e-06	474.9	162.65	142.42	49.505	6.6028e-06	61.079	176.774	43.257	65.130	-30.957	100.124	86.149	-30.661	-26.002	122.218	56.854	-26.436	-21.987	-21.394	-17.393	70.758	-18.043	-8191	255	
39213.363	1	1	0	0	0.091276	0.19861	0.1339	0.14213	0.095471	0.20072	0.14041	0.12188	0.25504	0.14202	0.41806	0.14212	0.17852	0.19669	0.2822	0.088276	-3.9042	-3.4542	-4.4708	-4.0229	-3.5417	-4.4313	-3.9188	-4.1438	-4.4208	-3.3979	-4.4521	-4.3063	-3.7083	-4.5583	-3.5292	-4.0375	81.577	281.147	259.305	224.880	250.949	313.707	185.395	219.228	159.577	-3.618	281.974	-43.528	298.750	275.666	251.251	196.161	0.00016366	0.00073311	8.6107e-05	1522	6.4952e-06	5.0967e-06	1521.4	410.4	4.5387e-06	5.1821e-06	470.43	158.01	138.98	48.748	8.4303e-06	60.385	0.00056799	0.00060169	0.00016674	1529.3	6.6253e-06	6.5898e-06	1531	416.96	6.6516e-06	6.7495e-06	474.87	162.52	142.49	49.595	6.6979e-06	61.374	176.492	61.851	20.096	-30.805	125.586	119.504	-30.821	-26.292	169.708	130.094	-26.585	-22.472	-21.505	-17.517	96.214	-18.037	-8191	255	
39213.461	1	1	0	0	0.39886	0.45877	0.19724	0.19335	0.20269	0.26496	0.12658	0.14608	0.22686	0.10794	0.37829	0.14794	0.033345	0.073506	0.22207	0.31975	-4.1625	-3.3958	-4.3938	-4.2312	-3.5083	-4.475	-3.7542	-3.9542	-4.4187	-3.3604	-4.5625	-4.1312	-3.6021	-4.4792	-3.7958	-3.9521	92.678	12.580	148.102	237.280	214.674	213.070	-34.444	292.036	4.023	212.070	216.583	-41.201	4.528	305.706	173.932	-37.635	0.00020177	0.00025026	0.00020825	1520.7	3.3751e-06	2.3726e-06	1523.2	409.2	4.8348e-06	3.7283e-06	468.87	158.22	139	48.311	6.9842e-06	59.786	0.00058163	0.00061749	0.00017375	1530.3	6.8465e-06	6.8521e-06	1531.4	416.37	6.9102e-06	7.0126e-06	475.17	162.8	142.43	49.412	7.224e-06	61.302	176.815	19.930	34.242	-31.036	210.577	30.859	-30.815	-26.063	138.484	83.375	-26.545	-22.114	-21.725	-17.568	99.933	-18.197	-8191	255	
39213.578	1	1	0	0	0.06653	0.15778	0.061758	0.30323	0.095138	0.12879	0.2195	0.10168	0.11285	0.075716	0.11639	0.05646	0.059818	0.071797	0.20618	0.14401	-4.1083	-3.4688	-4.2771	-4.3208	-3.4542	-4.6396	-3.8667	-3.8812	-4.6042	-3.3104	-4.2896	-4.4062	-3.5083	-4.6854	-3.7062	-3.8396	164.037	108.615	115.813	254.138	87.436	76.519	270.311	273.052	70.222	4.696	154.756	141.335	38.174	304.062	157.626	85.037	0.00015504	0.00074504	0.00014101	1526.1	3.9272e-06	8.1455e-07	1526	408.18	4.6581e-06	6.6056e-06	470.5	159.03	138.2	48.577	6.372e-06	60.063	0.00062202	0.00066303	0.00018556	1533.1	7.3094e-06	7.4054e-06	1532.8	417.37	7.4224e-06	7.5358e-06	476.92	162.96	142.36	49.478	7.6442e-06	61.314	183.361	44.357	33.367	-30.869	113.225	239.072	-30.863	-26.099	105.854	58.605	-26.427	-22.207	-21.544	-17.169	98.495	-18.076	-8191	255	
39213.676	1	1	0	0	0.28697	0.17436	0.12332	0.15954	0.15414	0.23445	0.22323	0.079885	0.18164	0.18809	0.26426	0.26935	0.16664	0.083601	0.22895	0.090217	-4.2958	-3.4188	-3.9208	-4.4292	-3.35	-4.5	-4.0292	-3.8292	-4.475	-3.4333	-4.2438	-4.4417	-3.5396	-4.65	-3.8396	-3.5625	-21.274	294.422	100.394	-26.807	135.802	167.060	257.215	1.763	157.072	161.301	206.536	254.867	297.811	259.937	116.725	180.861	0.00020677	0.00026276	0.00015039	1523.8	4.7357e-06	5.2175e-06	1515.9	409.99	3.2173e-06	6.3908e-06	468.77	158.52	138.57	48.493	4.5059e-06	59.972	0.00065288	0.00068352	0.00019232	1533	7.6783e-06	7.6267e-06	1532.3	416.9	7.6165e-06	7.611e-06	475.42	162.77	142.42	49.486	7.7151e-06	61.231	160.120	22.885	26.102	-30.930	128.069	138.087	-30.797	-26.212	175.594	119.998	-26.472	-22.178	-21.747	-17.694	110.203	-17.834	-8191	255	
39213.773	1	1	0	0	0.073624	0.041944	0.19804	0.13206	0.20361	0.13592	0.1805	0.19229	0.27215	0.11663	0.24413	0.28037	0.22757	0.36815	0.19763	0.16381	-4.2292	-3.3146	-3.9792	-4.4958	-3.5229	-4.5312	-4.0042	-3.5646	-4.6021	-3.6	-4.1396	-4.5229	-3.4042	-4.6854	-4.0292	-3.7042	86.287	-14.878	80.522	39.791	67.748	189.148	171.097	282.505	62.162	39.405	-39.348	254.010	273.724	304.362	296.492	183.848	0.00016531	0.00035068	0.00021169	1518.5	4.1676e-06	8.5553e-06	1517.5	410.52	1.3086e-06	4.0452e-06	470.65	158.61	138.7	48.521	3.528e-06	60.242	0.00064573	0.0006836	0.00019178	1529.3	7.4588e-06	7.5236e-06	1530.4	416.68	7.4166e-06	7.4066e-06	475.95	162.79	142.45	49.501	7.2591e-06	61.347	203.643	28.690	51.483	-30.889	112.072	110.078	-30.634	-26.056	115.859	156.315	-26.571	-22.445	-21.601	-17.309	108.067	-17.871	-8191	255	
39213.867	1	1	0	0	0.19338	0.22432	0.11641	0.28398	0.11703	0.20266	0.16289	0.24673	0.12025	0.2756	0.25023	0.12596	0.20473	0.18033	0.12662	0.2574	-4.3979	-3.6625	-3.7583	-4.4521	-3.4146	-4.4437	-4.1979	-3.7646	-4.4396	-3.7375	-4.05	-4.5312	-3.575	-4.5333	-4.2333	-3.8063	-12.547	269.165	121.457	288.657	111.869	124.392	228.806	284.531	-30.358	-18.752	221.750	290.782	260.171	310.739	147.697	54.102	0.00020064	0.00062888	0.00016566	1516.6	3.0312e-06	5.972e-06	1517	409.87	3.4194e-06	6.5284e-06	470.17	159.29	139.17	48.591	2.5379e-06	59.914	0.00062494	0.00065794	0.00018284	1530.8	7.2043e-06	7.2116e-06	1530.9	417.26	7.1597e-06	7.1978e-06	476.51	163.05	142.36	49.557	7.1226e-06	61.207	172.161	30.463	50.883	-30.862	152.234	47.037	-30.900	-26.112	81.638	72.887	-26.302	-22.097	-21.503	-17.303	91.268	-17.859	-8191	255	
39213.961	1	1	0	0	0.083438	0.17177	0.31429	0.35993	0.067718	0.15527	0.24562	0.28591	0.085681	0.21147	0.34416	0.055741	0.13175	0.23375	0.1594	0.15498	-4.1813	-3.6	-3.9333	-4.5833	-3.6521	-4.3833	-4.3021	-3.925	-4.5771	-3.7292	-4.125	-4.5521	-3.6083	-4.2937	-4.1	-3.5812	85.462	131.504	275.030	270.758	-23.673	156.382	268.188	-29.740	-41.004	180.875	-41.115	41.134	11.009	-40.358	55.363	17.340	0.00015701	0.0007665	0.00011432	1517.4	4.8438e-06	4.9971e-06	1515.7	410.22	3.2008e-06	4.1338e-06	470.69	158.52	138.71	48.741	1.872e-06	60.19	0.00061187	0.00065467	0.00018138	1530.2	7.1216e-06	7.1356e-06	1532.2	417.22	7.0961e-06	7.0857e-06	476.6	163.15	142.18	49.604	6.94e-06	61.275	167.025	26.163	26.403	-30.990	97.459	118.095	-30.935	-25.966	160.941	137.436	-26.440	-22.090	-21.524	-17.404	103.547	-18.163	-8191	255	
39214.059	1	1	0	0	0.26782	0.041913	0.056274	0.11448	0.17725	0.32512	0.13303	0.35651	0.23846	0.34153	0.068772	0.051623	0.10813	0.18185	0.028647	0.13769	-4.0292	-3.7896	-3.7021	-4.6854	-3.6271	-4.2167	-4.3083	-3.7583	-4.3271	-3.8729	-3.9979	-4.4313	-3.6437	-4.2667	-4.0854	-3.7	110.596	170.568	159.417	204.893	55.467	34.587	179.102	283.074	233.466	237.647	53.219	237.781	212.399	283.886	295.187	154.091	0.0001311	0.00046754	0.00012681	1520.9	4.1717e-06	4.8906e-06	1527.5	411.07	3.8601e-06	5.784e-06	472.14	159.22	139.31	48.586	6.1879e-06	59.867	0.00059777	0.00063062	0.00017791	1533.7	6.8794e-06	6.9278e-06	1532.6	417.23	7.0176e-06	6.9549e-06	476.05	163.29	142.42	49.563	7.0515e-06	61.228	177.205	15.701	25.668	-30.915	175.728	70.550	-30.582	-26.216	88.465	109.229	-26.491	-22.051	-21.810	-17.494	134.250	-17.848	-8191	255	
39214.156	1	1	0	0	0.029375	0.073888	0.047417	0.25815	0.18296	0.057836	0.21213	0.23025	0.19807	0.17713	0.27983	0.248	0.18173	0.15174	0.14874	0.15743	-4.1708	-3.675	-3.7188	-4.3646	-3.5187	-4.0729	-4.4354	-3.7771	-4.3396	-4.0542	-3.9542	-4.5042	-3.6542	-4.1438	-4.3104	-3.5896	24.709	116.304	243.862	-35.852	100.124	200.119	185.574	-19.266	206.906	88.564	-14.382	237.745	32.180	118.835	126.054	126.973	0.00015875	0.00060153	0.00014548	1521	4.0247e-06	2.4714e-06	1526.4	409.92	3.3082e-06	7.4994e-06	472.31	158.12	138.93	48.593	5.6104e-06	60.191	0.00060896	0.00063068	0.00017849	1532.9	6.9108e-06	6.9788e-06	1535.8	416.86	6.876e-06	6.8594e-06	475.66	162.87	142.29	49.611	6.9021e-06	61.249	180.896	66.323	52.068	-30.793	83.948	164.188	-30.741	-26.194	90.259	50.943	-26.833	-22.066	-22.062	-17.562	96.171	-18.029	-8191	255	
39214.273	1	1	0	0	0.13275	0.13847	0.14123	0.32123	0.098648	0.02449	0.086658	0.045427	0.11406	0.23754	0.19757	0.15647	0.12674	0.21308	0.18084	0.034703	-4.175	-3.8229	-3.6167	-4.6854	-3.4708	-3.9583	-4.5875	-3.3625	-4.5083	-3.9604	-3.7292	-4.7042	-3.7188	-3.9896	-4.3938	-3.5	167.775	113.246	292.983	-9.489	310.477	289.581	45.914	90.290	165.589	73.098	290.177	256.973	-35.967	265.361	-19.779	108.220	0.00018564	0.0004663	0.00011803	1527.6	3.001e-06	4.3889e-06	1524.7	410.83	4.6338e-06	3.6968e-06	471.42	158.93	139.59	49.051	6.4859e-06	59.945	0.00059532	0.00062646	0.00017162	1536.4	6.8594e-06	6.8022e-06	1536.3	417.51	6.7213e-06	6.8592e-06	476.24	163.29	142.59	49.737	6.7746e-06	61.23	189.531	26.944	37.385	-30.920	154.822	89.791	-30.693	-26.131	168.874	120.193	-26.476	-21.876	-21.752	-17.505	121.693	-18.129	-8191	255	
39214.371	1	1	0	0	0.31736	0.096379	0.21019	0.25737	0.23133	0.13411	0.18219	0.17322	0.2313	0.16222	0.34303	0.10195	0.13738	0.38704	0.44391	0.1103	-4.0208	-4.0521	-3.4688	-4.5896	-3.7333	-3.7479	-4.7875	-3.4625	-4.2875	-3.9542	-3.5958	-4.5146	-3.7562	-3.9062	-4.4771	-3.5917	159.639	277.319	-35.038	217.545	295.335	289.923	-28.526	307.141	281.200	119.440	282.705	208.504	278.632	277.104	129.103	284.385	0.00021402	0.00052595	0.00013102	1530.1	2.5466e-06	1.0381e-06	1524.6	411.6	3.5185e-06	5.2521e-06	470.12	159.78	139.78	48.562	4.8704e-06	60.457	0.00057862	0.00061145	0.00017125	1538.5	6.7874e-06	6.794e-06	1538.6	418.12	6.8139e-06	6.7865e-06	475.48	163.39	142.71	49.545	6.8671e-06	61.327	183.969	53.918	29.593	-31.027	142.000	4.694	-30.820	-26.218	138.261	69.807	-26.663	-21.901	-21.582	-17.415	72.314	-18.132	-8191	255	
39214.441	1	1	0	0	0.043827	0.15469	0.15992	0.28832	0.24857	0.20628	0.14529	0.37944	0.011805	0.17219	0.029246	0.2472	0.012378	0.15144	0.22585	0.1517	-3.9688	-4.075	-3.5604	-4.6375	-3.6937	-3.8458	-4.6979	-3.7354	-4.2729	-4.2333	-3.5229	-4.4771	-3.9375	-3.6833	-4.625	-3.525	-30.319	146.082	150.869	259.091	181.412	211.959	236.330	248.042	-14.007	255.286	-10.461	308.012	-21.590	314.043	259.452	1.207	0.00018505	0.00010826	0.00016151	1526.4	6.5575e-06	7.0617e-06	1525.8	412.08	2.1753e-06	2.6009e-06	471.7	159.11	139.1	48.592	2.8493e-06	60.175	0.00058993	0.00061288	0.00017198	1539	6.8221e-06	6.6795e-06	1539.1	417.18	6.8666e-06	6.7317e-06	476.13	163.46	142.59	49.61	6.9654e-06	61.271	169.862	60.274	44.295	-30.844	99.553	81.287	-30.642	-26.423	84.633	59.522	-26.599	-21.886	-21.775	-17.566	72.687	-18.298	-8191	255	
39214.539	1	1	0	0	0.16501	0.077829	0.098281	0.27616	0.16901	0.18664	0.24866	0.26861	0.10932	0.12137	0.35465	0.16068	0.13283	0.18026	0.033728	0.13066	-3.8833	-4.175	-3.4521	-4.5396	-3.8333	-3.6854	-4.7146	-3.5354	-3.9938	-4.1062	-3.5125	-4.3354	-4.0292	-3.6125	-4.4042	-3.6167	-39.560	223.206	46.346	256.006	229.854	65.210	222.534	213.588	-40.573	113.439	245.579	233.247	61.361	224.495	34.709	286.906	0.00022152	0.00048863	0.00014743	1526.1	2.1089e-06	1.7645e-06	1527.7	411.89	3.4283e-06	3.475e-06	470.88	159.4	138.59	48.755	7.1312e-06	60.052	0.00060956	0.00062854	0.00017637	1539.7	7.001e-06	6.91e-06	1537.6	417.15	6.9652e-06	6.9408e-06	476.09	163.42	142.26	49.611	7.2267e-06	61.262	194.608	67.937	27.855	-30.802	114.972	76.150	-30.583	-26.216	176.449	115.373	-26.604	-22.005	-21.424	-17.273	92.277	-17.915	-8191	255	
39214.660	1	1	0	0	0.3984	0.12302	0.28962	0.054263	0.13227	0.035098	0.39978	0.33636	0.10381	0.10982	0.25298	0.15398	0.10465	0.29982	0.083659	0.041317	-3.8479	-4.1542	-3.2458	-4.6396	-3.8271	-3.6875	-4.5875	-3.7208	-4.0396	-4.1875	-3.4938	-4.4604	-4.0396	-3.7417	-4.5583	-3.7313	19.894	150.368	305.003	204.643	120.860	295.732	260.452	306.549	139.338	157.365	266.909	209.148	210.521	228.849	186.685	92.519	0.00013736	0.00074425	0.0001408	1533	3.0444e-06	4.2765e-06	1527.4	411.45	2.1099e-06	4.143e-06	471	159.49	139.38	48.703	7.7861e-06	59.959	0.00061634	0.00064171	0.00018038	1541.9	7.1064e-06	7.0754e-06	1541.6	416.99	7.0562e-06	7.1599e-06	475.86	163.84	142.44	49.653	7.1948e-06	61.369	177.734	11.529	45.750	-30.784	104.923	26.330	-30.531	-26.287	60.183	112.478	-26.873	-21.835	-21.727	-17.664	99.731	-18.036	-8191	255	
39214.758	1	1	0	0	0.17921	0.36526	0.14194	0.18061	0.19133	0.23264	0.29805	0.16306	0.19997	0.11587	0.066257	0.1818	0.09674	0.34367	0.017672	0.025497	-3.8771	-4.1542	-3.5125	-4.575	-3.8333	-3.7042	-4.5687	-3.7625	-3.9292	-4.2812	-3.6333	-4.2438	-4.2375	-3.5646	-4.4104	-3.5875	94.526	216.815	160.147	285.228	-38.082	-41.850	257.606	268.518	201.148	311.589	211.614	39.724	195.839	236.364	31.653	224.505	0.00013207	0.00037171	0.00017522	1528.5	3.8461e-06	3.7701e-06	1529.1	411.94	2.2284e-06	8.4939e-07	470.52	159.81	139.22	48.813	4.685e-06	60.163	0.0006089	0.00064401	0.00018107	1540	7.1321e-06	7.2179e-06	1540.2	417.15	7.1218e-06	7.1251e-06	476.44	163.75	142.61	49.677	7.1994e-06	61.25	166.181	0.053	34.062	-30.768	138.899	53.178	-30.699	-26.325	157.509	211.901	-26.502	-21.930	-21.598	-17.440	159.659	-18.068	-8191	255	
39214.852	1	1	0	0	0.12121	0.13793	0.37283	0.4369	0.054074	0.086704	0.34021	0.32108	0.16985	0.087827	0.16209	0.26902	0.39633	0.099239	0.19003	0.25323	-3.4542	-4.3104	-3.2729	-4.3729	-3.9562	-3.5417	-4.7583	-3.8979	-3.6437	-4.2083	-3.5708	-4.4167	-4.1312	-3.3333	-4.5458	-3.8146	6.221	230.066	66.428	287.243	-22.612	144.525	236.947	250.954	183.235	299.121	277.779	283.265	-26.178	-13.943	94.373	162.970	0.00021047	0.00073551	0.00011695	1531.7	4.3594e-06	3.2178e-06	1531.1	410.74	5.0419e-06	5.2167e-06	467.89	159.69	139.75	48.891	6.9349e-06	60.069	0.00060918	0.0006478	0.00018016	1541.9	6.9568e-06	6.9969e-06	1540.5	417.05	6.9585e-06	6.9642e-06	475.3	163.61	142.59	49.649	6.9613e-06	61.148	178.002	29.506	74.986	-30.959	121.085	65.822	-30.627	-26.224	148.288	105.903	-26.598	-21.954	-21.529	-17.374	115.714	-18.023	-8191	255	
39214.973	1	1	0	0	0.24252	0.15566	0.43077	0.17928	0.099995	0.21071	0.22268	0.19414	0.19022	0.17457	0.071508	0.17331	0.043892	0.0054244	0.14622	0.29033	-3.5104	-4.3604	-3.2313	-4.3979	-3.9521	-3.4104	-4.6417	-3.7875	-3.6937	-4.45	-3.6167	-4.2229	-4.3667	-3.5875	-4.4146	-4.0542	65.466	-33.101	104.991	292.228	140.769	176.109	262.860	254.540	-32.155	188.256	183.632	-42.485	214.038	102.879	33.252	286.826	0.00023839	0.00038229	6.144e-05	1528.3	4.9539e-06	2.4898e-06	1527.3	409.81	5.141e-06	3.1523e-06	470.32	159.55	138.76	48.402	7.3603e-06	60.004	0.00060204	0.00062935	0.000176	1537.9	7.0084e-06	7.0704e-06	1537.3	415.97	7.1014e-06	6.9989e-06	474.99	163.4	142.35	49.57	7.2701e-06	61.103	177.074	15.235	97.823	-30.753	85.029	117.734	-30.569	-26.157	98.503	131.701	-26.804	-22.099	-21.911	-17.373	95.926	-18.143	-8191	255	
39215.043	1	1	0	0	0.13271	0.25141	0.15478	0.34589	0.12301	0.11151	0.18945	0.16304	0.18655	0.12335	0.24403	0.15948	0.086716	0.045637	0.12637	0.38567	-3.2979	-4.3771	-3.3792	-4.2417	-4.2646	-3.4313	-4.6667	-4.0583	-3.6063	-4.3979	-3.5917	-4.0312	-4.2896	-3.4542	-4.275	-3.8563	139.134	25.635	-9.619	283.306	299.518	222.136	237.575	213.564	108.819	267.914	271.655	-1.209	302.847	94.591	186.126	201.023	0.00015455	0.00064257	0.00018029	1527.6	5.6701e-06	6.8475e-06	1531	410.91	1.1866e-06	6.4213e-06	469.12	159.59	139.82	48.668	6.3222e-06	60.078	0.00062685	0.00065229	0.00018104	1539.1	7.0743e-06	7.3319e-06	1541.4	416.3	7.239e-06	7.2248e-06	475.41	163.9	142.74	49.547	7.1895e-06	61.326	180.904	40.196	38.372	-30.693	112.910	100.203	-30.589	-26.293	311.407	139.061	-26.672	-21.891	-21.782	-17.523	90.126	-18.328	-8191	255	
39215.141	1	1	0	0	0.15514	0.034173	0.20299	0.15993	0.27574	0.27013	0.32034	0.26799	0.13988	0.18331	0.11045	0.20372	0.33764	0.22093	0.18946	0.12287	-3.3708	-4.2542	-3.5479	-4.1167	-4.3208	-3.3917	-4.4646	-4.1667	-3.4208	-4.5188	-3.4938	-4.0625	-4.3292	-3.2938	-4.3708	-3.975	254.766	286.441	305.299	242.623	69.969	245.212	240.808	272.681	-27.253	147.186	249.249	272.881	255.367	230.487	312.835	230.268	0.00015743	0.00040416	0.00017509	1533.8	2.1725e-06	2.8246e-06	1530.5	411.33	2.1055e-06	5.4815e-06	470.33	160.26	140.38	48.758	5.219e-06	60.118	0.00061735	0.00063999	0.00017587	1542.1	7.0837e-06	7.1084e-06	1544.1	417.35	7.0705e-06	7.0022e-06	476.55	164.1	143.15	49.692	7.0131e-06	61.165	181.691	64.167	63.856	-30.794	90.770	153.483	-30.508	-26.216	108.661	105.957	-26.695	-21.621	-21.662	-17.255	84.149	-17.885	-8191	255	
39215.262	1	1	0	0	0.15446	0.068767	0.17537	0.12948	0.28758	0.077918	0.44503	0.19511	0.21591	0.12817	0.13971	0.21048	0.28942	0.026008	0.025446	0.22819	-3.0083	-4.6562	-3.325	-4.2688	-4.4292	-3.3125	-4.3833	-4.0938	-3.3458	-4.3833	-3.7854	-3.8937	-4.4792	-3.4521	-4.0417	-4.2417	81.906	257.190	283.679	-11.256	49.353	55.997	272.066	196.303	306.180	123.505	225.964	297.642	312.503	17.075	233.527	250.543	0.00017832	0.00035753	0.00011233	1533.9	2.1176e-06	8.8162e-06	1531.9	411.12	4.2967e-06	2.9719e-06	470.57	160.11	139.53	48.649	6.5165e-06	60.06	0.00061051	0.00063489	0.00017581	1541	6.7623e-06	6.8618e-06	1541.3	417.13	6.9774e-06	6.9533e-06	476.23	164.32	142.8	49.68	6.9337e-06	61.287	201.097	34.943	66.912	-30.919	145.014	84.544	-30.658	-26.302	121.831	74.984	-26.972	-22.123	-22.056	-17.859	142.292	-18.271	-8191	255	
39215.355	1	1	0	0	0.24224	0.20002	0.10179	0.15762	0.16775	0.15676	0.41976	0.20398	0.054535	0.13289	0.16479	0.22286	0.071514	0.2889	0.15255	0.14823	-3.0875	-4.2188	-3.5938	-4	-4.4021	-3.4375	-4.2562	-4.2667	-3.4813	-4.5813	-3.9062	-3.6917	-4.4604	-3.6521	-4.1333	-4.225	-18.471	174.301	-20.234	277.880	240.429	36.573	249.825	276.279	98.881	130.446	283.814	-42.672	-28.006	270.945	-1.107	257.036	0.00016865	0.00044479	0.00012233	1532.1	3.6336e-06	4.189e-06	1529.1	411.63	2.4445e-06	1.9063e-06	471.17	159.67	139.51	48.567	5.6684e-06	60.332	0.00059732	0.00062607	0.00017371	1541.1	6.9006e-06	6.8955e-06	1542.8	417.1	6.91e-06	6.8649e-06	475.73	163.71	142.8	49.579	6.8699e-06	61.337	187.067	20.845	86.138	-30.783	186.342	124.314	-30.657	-26.357	140.400	112.198	-27.001	-21.962	-21.922	-17.726	110.036	-18.350	-8191	255	
39215.453	1	1	0	0	0.23616	0.035747	0.36446	0.26452	0.29246	0.020438	0.29206	0.32952	0.24397	0.23132	0.19078	0.17015	0.075466	0.055605	0.097442	0.14862	-3.2375	-4.3187	-3.7917	-3.6958	-4.3375	-3.4208	-4.2583	-4.2917	-3.3542	-4.3938	-3.9562	-3.8167	-4.3458	-3.5667	-4.0104	-4.3458	-4.453	0.270	155.240	291.175	245.295	240.289	250.699	281.125	2.441	16.484	202.426	83.276	-33.834	163.980	60.507	221.065	0.00016209	6.1755e-05	4.4091e-05	1530.6	3.3835e-06	5.191e-06	1532.4	410.78	2.422e-06	4.5775e-06	469.93	159.54	139.64	48.351	3.9905e-06	59.916	0.00059583	0.00062551	0.00017341	1540.5	6.843e-06	6.7753e-06	1544.2	416.95	6.8523e-06	6.7865e-06	475.02	163.6	142.86	49.551	6.8144e-06	61.192	188.459	42.466	72.711	-30.930	143.160	91.903	-30.502	-26.315	185.017	57.386	-26.741	-21.961	-21.763	-17.661	125.074	-18.194	-8191	255	
39215.574	1	1	0	0	0.060279	0.1808	0.19508	0.21336	0.19172	0.093882	0.16385	0.34754	0.22144	0.10696	0.17829	0.32143	0.11329	0.1612	0.14326	0.097422	-2.8667	-4.4875	-3.8583	-3.6333	-4.5146	-3.35	-4.1917	-4.3604	-3.2104	-4.5458	-3.875	-3.4271	-4.5854	-3.5396	-4.0042	-4.5125	250.434	58.639	274.025	259.473	242.642	100.322	250.803	253.096	155.246	91.190	259.995	239.639	29.644	139.563	-29.478	106.705	0.00021204	0.00091404	5.2559e-05	1526.4	1.7757e-06	6.915e-06	1531.8	408.95	4.6015e-06	4.232e-06	470.1	159.64	140.53	48.531	6.4634e-06	59.962	0.00059874	0.00061956	0.00017318	1539.2	6.7405e-06	6.8876e-06	1542.3	416.24	6.8834e-06	6.7815e-06	475.01	163.83	143.03	49.546	6.9059e-06	61.302	182.288	53.794	47.803	-30.753	118.683	98.322	-30.744	-26.325	139.847	127.886	-26.961	-21.828	-21.667	-17.658	119.343	-17.949	-8191	255	
39215.668	1	1	0	0	0.22604	0.08617	0.065957	0.091392	0.045866	0.19378	0.10724	0.13333	0.051574	0.17383	0.19464	0.06851	0.064877	0.10339	0.035646	0.04479	-2.9437	-4.125	-3.8792	-3.7521	-4.3167	-3.4792	-4.0354	-4.4375	-3.5187	-4.1542	-4.2229	-3.6208	-4.5375	-3.7333	-3.8708	-4.4437	-35.349	294.777	282.429	-38.241	102.074	207.698	225.816	125.054	260.114	272.174	301.280	205.682	155.140	-37.215	254.411	174.286	0.00013728	0.00061423	0.00011145	1529.5	4.0617e-06	6.7962e-06	1528.7	409.27	4.7306e-06	7.7553e-06	471.14	159.18	138.46	48.56	3.1863e-06	59.499	0.00058629	0.00061799	0.0001726	1538.3	6.7546e-06	6.9088e-06	1539.4	416.53	6.9152e-06	6.9978e-06	475.32	163.65	142.56	49.578	7.0547e-06	61.01	183.157	60.773	-21.273	-30.785	109.600	100.808	-30.569	-26.109	101.417	109.119	-26.839	-22.247	-21.706	-17.640	109.418	-18.027	-8191	255	
39215.738	1	1	0	0	0.11849	0.1371	0.11838	0.27243	0.072596	0.2096	0.32281	0.081363	0.14145	0.089501	0.34085	0.12696	0.078784	0.11586	0.21974	0.2092	-3.1813	-4.0229	-3.9104	-3.8771	-4.2708	-3.7854	-4.1062	-4.6188	-3.4021	-4.0667	-4.1125	-3.6667	-4.4458	-3.7604	-3.7792	-4.3583	313.325	24.789	202.509	297.385	146.544	27.118	229.929	281.717	82.697	9.780	305.507	71.540	270.460	189.519	236.553	175.341	9.6725e-05	0.00054324	0.00011065	1533.4	5.9861e-06	4.7005e-06	1525.8	409.69	3.7012e-06	4.0525e-06	470.33	159.45	139.96	48.856	5.9057e-06	60.235	0.00060266	0.00064028	0.00017738	1540	7.033e-06	7.0215e-06	1541	416.96	6.9895e-06	7.0153e-06	475.97	163.85	143.31	49.695	7.0648e-06	61.298	188.848	11.983	18.493	-30.944	155.606	79.831	-30.591	-26.152	143.968	103.045	-26.579	-22.123	-21.891	-17.285	49.259	-17.966	-8191	255	
39215.859	1	1	0	0	0.14781	0.1318	0.1007	0.28332	0.0201	0.094962	0.14054	0.19294	0.15057	0.062893	0.088922	0.25691	0.1655	0.19766	0.15728	0.19811	-3.2938	-4.1167	-4.0042	-3.7604	-4.3021	-3.6562	-3.9437	-4.4208	-3.4208	-4.0333	-4.1646	-3.7792	-4.3938	-3.8083	-3.6771	-4.4563	223.667	220.434	200.167	-43.680	-10.557	-39.625	227.329	311.351	263.074	237.023	82.017	306.954	11.961	295.188	16.227	239.120	0.0001669	0.00070999	3.822e-05	1528.2	4.6811e-06	6.0794e-06	1535.1	410.98	3.8886e-06	5.9579e-06	471.47	159.68	139.63	48.749	6.7495e-06	59.705	0.00059622	0.00063171	0.00017482	1538.8	6.8686e-06	6.9081e-06	1544	417.46	6.8705e-06	6.8854e-06	476.39	163.81	143.31	49.77	7.0017e-06	61.093	174.760	34.582	56.847	-30.816	120.431	166.035	-30.543	-26.151	137.600	80.066	-26.633	-22.120	-21.520	-17.385	131.897	-18.035	-8191	255	
39215.953	1	1	0	0	0.1604	0.067883	0.16671	0.12005	0.055581	0.12919	0.19791	0.24402	0.08751	0.087182	0.3334	0.29627	0.011365	0.18244	0.21834	0.14043	-3.1646	-4.0521	-4.325	-3.7125	-4.2646	-3.8167	-3.9167	-4.6417	-3.4708	-4.1646	-4.5375	-3.4417	-4.6271	-3.9271	-3.5729	-4.5146	288.479	50.684	156.464	253.756	267.912	49.084	255.877	302.852	264.993	-20.904	291.302	-1.522	-38.167	245.154	294.071	206.337	0.00013302	0.00041528	7.1721e-05	1530.1	5.4808e-06	6.8146e-06	1522.7	410.71	2.8241e-06	7.9413e-06	470.5	159.54	139.52	48.479	3.6786e-07	60.174	0.00059865	0.00062945	0.00017327	1537.5	6.8168e-06	6.9153e-06	1539	417.2	7.0314e-06	6.9043e-06	476.13	163.79	143.16	49.611	6.8835e-06	61.309	188.847	37.458	-1.468	-30.930	132.155	102.367	-30.608	-26.086	154.369	83.083	-26.648	-22.056	-21.552	-17.582	88.777	-17.946	-8191	255	
39216.051	1	1	0	0	0.24688	0.10056	0.072084	0.221	0.21959	0.11376	0.42049	0.054141	0.20219	0.12402	0.25788	0.3044	0.037986	0.25147	0.035493	0.13938	-3.0042	-3.9646	-4.3833	-3.65	-4.3583	-3.9417	-3.7771	-4.5104	-3.5729	-3.9667	-4.2562	-3.6229	-4.4792	-3.9667	-3.5396	-4.4604	183.495	-25.906	237.431	278.388	314.684	293.301	268.173	207.561	212.754	104.666	296.168	261.713	24.692	284.891	-8.732	211.667	0.00019627	0.00038843	5.6521e-05	1526.3	4.7039e-06	7.9988e-06	1525.5	410.54	4.7208e-06	3.913e-06	469.86	158.76	139.47	48.802	5.528e-06	60.2	0.00060116	0.0006344	0.00017441	1536.8	6.8339e-06	6.8905e-06	1541.2	417.73	6.9594e-06	6.9893e-06	475.78	163.51	142.92	49.697	6.9765e-06	61.283	181.204	58.987	46.847	-30.764	134.749	130.646	-30.425	-26.289	202.746	124.634	-26.770	-22.042	-21.587	-17.594	93.825	-17.821	-8191	255	
39216.148	1	1	0	0	0.13089	0.13602	0.23896	0.4342	0.16432	0.22404	0.1171	0.058732	0.11812	0.031609	0.24942	0.20637	0.20437	0.12882	0.067763	0.0035951	-3.2583	-3.8312	-4.4646	-3.6917	-4.3458	-3.9604	-3.7	-4.6188	-3.5625	-3.8521	-4.4083	-3.4771	-4.2667	-4.1583	-3.3979	-4.5375	225.881	251.339	206.842	299.631	283.654	163.465	279.176	240.867	35.486	228.575	1.139	-27.069	140.378	100.056	250.202	29.170	0.00019189	0.00069178	4.7059e-05	1532.6	2.7801e-06	5.7509e-06	1527.1	411.43	1.5005e-06	4.3936e-06	470.82	159.63	139.46	48.753	1.5941e-06	59.673	0.00059833	0.00062658	0.00017329	1537.5	6.7346e-06	6.7984e-06	1540	417.61	6.8676e-06	6.8709e-06	475.79	163.57	143	49.641	6.8908e-06	61.17	201.224	25.568	-40.930	-30.720	119.130	136.966	-30.469	-26.002	202.792	89.350	-26.538	-22.188	-21.555	-17.722	146.604	-18.007	-8191	255	
39216.270	1	1	0	0	0.096035	0.29443	0.069381	0.13232	0.15509	0.10435	0.074631	0.12017	0.096603	0.15081	0.15458	0.22028	0.095009	0.15164	0.11932	0.1829	-3.275	-3.7562	-4.1833	-3.6583	-4.1646	-4.0938	-3.7667	-4.6167	-3.6688	-3.8312	-4.5396	-3.7771	-4.2417	-4.2562	-3.3208	-4.5854	5.115	4.968	118.025	-40.072	302.381	214.944	187.133	163.685	18.602	213.400	184.714	241.961	5.050	241.626	4.895	217.945	0.00014427	0.00053817	0.00014324	1527.2	3.0566e-06	3.8397e-06	1523.7	411.16	1.873e-06	6.6153e-06	469.07	159.09	139.5	48.837	6.1648e-06	60.321	0.00058776	0.00061333	0.00016768	1537.7	6.8109e-06	6.7312e-06	1540	417.91	6.7616e-06	6.7993e-06	475.53	163.57	143.25	49.781	6.8363e-06	61.249	169.328	54.599	53.842	-31.058	94.321	115.210	-30.740	-26.184	149.387	65.294	-26.575	-22.090	-21.436	-17.644	130.592	-17.878	-8191	255	
39216.340	1	1	0	0	0.11875	0.062245	0.38189	0.33386	0.0852	0.23759	0.22299	0.14387	0.34422	0.015276	0.22989	0.15682	0.034426	0.1991	0.16047	0.2147	-3.4625	-3.5625	-4.4229	-3.675	-4.1271	-4.2146	-3.6979	-4.7208	-3.8812	-3.8271	-4.6042	-3.6583	-4.0417	-4.5667	-3.3708	-4.4875	8.032	305.003	66.746	279.954	181.908	38.869	237.235	308.985	142.839	60.627	251.959	205.177	55.278	16.241	-30.390	196.846	0.00019	0.00053499	0.00015104	1525.8	5.7149e-06	2.1556e-06	1524.6	412.3	2.2963e-06	4.4477e-06	473.4	159.82	139.99	48.752	7.6005e-06	60.073	0.00058699	0.00061389	0.0001716	1536.7	6.766e-06	6.7892e-06	1540.2	417.96	6.8281e-06	6.8238e-06	476.85	163.71	143.35	49.698	6.804e-06	61.317	181.836	55.491	52.717	-30.911	125.207	99.364	-30.669	-26.081	195.763	103.707	-26.650	-22.062	-21.381	-17.474	99.224	-18.125	-8191	255	
39216.438	1	1	0	0	0.15294	0.15052	0.2296	0.10729	0.29524	0.19115	0.27513	0.22908	0.18818	0.04508	0.077955	0.13015	0.17024	0.22114	0.055922	0.20674	-3.5771	-3.6021	-4.4917	-3.7646	-3.9354	-4.175	-3.7771	-4.5292	-3.7938	-3.6562	-4.5854	-3.5375	-4.0125	-4.4583	-3.3375	-4.475	-3.985	120.053	175.830	248.230	314.855	200.175	213.338	283.389	-37.593	205.178	-17.587	-39.148	244.173	297.959	132.311	248.387	0.00018992	0.00056117	0.00015336	1530.1	6.4078e-06	2.3059e-06	1527	413.16	3.4627e-06	2.9239e-06	469.77	159.45	139.38	48.674	5.8592e-06	60.15	0.00060654	0.00062518	0.00017346	1538.3	6.8441e-06	6.8566e-06	1542.4	418.12	6.9171e-06	6.9209e-06	476.27	163.77	142.97	49.766	7.1083e-06	61.335	172.111	35.549	67.312	-31.016	115.252	80.068	-30.769	-26.259	141.898	151.172	-26.618	-22.356	-21.693	-17.719	160.128	-17.972	-8191	255	
39216.531	1	1	0	0	0.21011	0.081003	0.29878	0.1847	0.27679	0.13994	0.51862	0.095248	0.068819	0.092041	0.060469	0.20518	0.11429	0.091691	0.24019	0.21329	-3.7604	-3.4729	-4.5771	-3.675	-3.9042	-4.4708	-3.4292	-4.4917	-4.1875	-3.4667	-4.825	-3.7167	-3.9458	-4.6604	-3.4917	-4.4396	129.434	284.658	259.224	289.983	269.542	43.140	283.343	0.596	109.085	-34.112	267.071	266.502	-18.460	264.130	147.726	193.838	0.00015868	0.00076066	0.00010648	1529.3	5.498e-06	3.9092e-06	1529.5	412.76	3.9785e-06	7.7991e-06	472.37	159.68	139.98	48.682	4.9585e-06	60.018	0.00060436	0.00063273	0.00017591	1536.4	6.9442e-06	6.846e-06	1542.2	418.24	6.9501e-06	6.9976e-06	477.02	163.89	143.15	49.748	6.9869e-06	61.207	165.469	36.686	21.191	-30.977	122.763	127.639	-30.671	-26.062	182.245	50.933	-26.586	-22.093	-21.560	-17.481	114.685	-17.693	-8191	255	
39216.652	1	1	0	0	0.0056301	0.10591	0.10576	0.30316	0.30957	0.04863	0.21024	0.12691	0.15727	0.064822	0.088604	0.21958	0.23582	0.045866	0.17903	0.28814	-3.7667	-3.5021	-4.5708	-3.8521	-3.8563	-4.5146	-3.7229	-4.4062	-4.1979	-3.6146	-4.5625	-3.9167	-3.8792	-4.6625	-3.5542	-4.1417	-43.875	95.256	152.472	301.973	130.732	53.558	301.592	294.519	180.366	10.336	260.696	-10.744	-17.836	-21.072	28.217	108.878	0.00015779	0.00043819	0.00018971	1525.5	2.8493e-06	5.4112e-06	1524.1	411.27	3.7311e-06	3.1783e-06	470.23	159.38	139.89	48.884	1.0522e-05	60.183	0.00059634	0.0006173	0.00017163	1535.3	6.6673e-06	6.7583e-06	1537	417.78	6.6601e-06	6.7693e-06	475.48	163.24	142.93	49.775	6.6559e-06	61.28	169.634	55.120	28.580	-30.872	153.438	116.828	-30.653	-26.064	139.162	124.539	-26.819	-22.081	-21.556	-17.600	108.040	-17.922	-8191	255	
39216.746	1	1	0	0	0.29253	0.11855	0.12916	0.26064	0.10154	0.14574	0.38514	0.27872	0.10492	0.10076	0.20231	0.11089	0.15152	0.063187	0.17019	0.031351	-3.8667	-3.6375	-4.4875	-3.9729	-3.775	-4.4021	-3.5604	-4.2604	-4.1896	-3.3333	-4.5917	-3.7646	-3.8187	-4.6833	-3.4604	-4.0479	78.178	91.727	-39.097	305.208	-30.740	-11.699	240.619	218.981	12.016	147.716	283.392	62.841	11.515	275.079	99.144	-10.527	0.00014556	0.00041593	0.00014053	1525.1	2.5779e-06	2.2385e-06	1522	412.86	2.2195e-06	2.6484e-06	470.43	159.21	140.68	48.931	6.4488e-06	60.029	0.00057006	0.00059355	0.00016508	1535	6.4994e-06	6.4452e-06	1535.8	417.88	6.5868e-06	6.5303e-06	475.52	163.48	143.19	49.815	6.5088e-06	61.202	183.720	76.280	49.541	-30.863	94.735	176.790	-30.777	-26.236	81.383	102.893	-26.363	-22.199	-21.430	-17.422	93.361	-17.709	-8191	255	
39216.844	1	1	0	0	0.10614	0.27949	0.10684	0.26763	0.16201	0.12028	0.13586	0.30795	0.11209	0.12785	0.20943	0.18089	0.23582	0.12644	0.20158	0.16456	-4.0875	-3.3458	-4.3187	-3.9813	-3.7667	-4.5188	-3.4521	-4.2146	-4.2771	-3.4938	-4.5479	-4.0146	-3.4771	-4.6125	-3.4479	-4.2208	-1.142	-32.989	108.556	303.975	51.724	58.008	-5.019	247.065	304.504	212.424	230.513	138.666	221.853	259.137	61.735	277.899	0.00016832	0.00062397	0.00014215	1522.6	7.3427e-06	8.2095e-06	1515	412.32	3.186e-06	2.3525e-06	471.45	159.24	139.71	48.748	2.0842e-06	60.16	0.00056094	0.00059518	0.00016348	1530.9	6.3975e-06	6.317e-06	1531.8	417.79	6.4521e-06	6.4221e-06	475.94	163.06	142.84	49.756	6.4462e-06	61.297	181.330	23.205	80.391	-30.872	148.335	96.888	-30.772	-26.177	182.404	91.988	-26.521	-22.270	-21.520	-17.522	149.739	-17.717	-8191	255	
39216.941	1	1	0	0	0.064572	0.16565	0.13781	0.42117	0.16161	0.19945	0.35215	0.16759	0.17926	0.12525	0.15482	0.026138	0.28561	0.0781	0.40057	0.41878	-4.0771	-3.4521	-4.4187	-4.2229	-3.6604	-4.5292	-3.7042	-4.0188	-4.4604	-3.4917	-4.3979	-4.0479	-3.8458	-4.3958	-3.6917	-4.0979	50.212	-25.157	269.123	234.370	148.392	163.015	214.349	202.297	182.644	67.609	292.233	186.849	260.508	260.615	-27.440	281.522	0.0002398	0.00023961	0.00018272	1520.7	5.7594e-06	4.9357e-07	1525.3	411.99	1.1114e-06	2.8325e-06	470.16	159.43	139.3	48.85	4.4504e-06	60.223	0.00055628	0.00058903	0.00015951	1531	6.2705e-06	6.3262e-06	1533.9	417.63	6.2238e-06	6.2884e-06	475.19	163.14	142.77	49.829	6.3022e-06	61.307	180.240	-38.326	0.737	-31.035	85.469	51.209	-30.817	-25.839	170.676	51.393	-26.470	-22.218	-21.419	-17.510	69.587	-17.616	-8191	255	
39217.035	1	1	0	0	0.10139	0.1631	0.052691	0.15669	0.11226	0.13681	0.34674	0.2349	0.22175	0.14872	0.22974	0.31135	0.24059	0.3769	0.14416	0.15992	-4.0042	-3.4729	-4.2083	-4.1458	-3.4792	-4.3917	-3.9146	-4.0479	-4.4479	-3.4313	-4.3333	-4.1062	-3.7083	-4.4417	-3.8167	-4.0708	167.823	-11.658	8.642	266.474	39.507	81.120	278.001	254.764	71.673	214.987	287.045	271.316	304.595	-22.950	199.569	83.729	0.00018287	0.00016664	0.00020626	1517.5	1.8711e-06	7.3792e-06	1521	410.93	2.641e-06	6.109e-06	469.93	159.68	139.96	49.006	3.7663e-06	60.296	0.00054831	0.00056912	0.00015626	1530.2	6.3492e-06	6.2242e-06	1531.7	416.65	6.2844e-06	6.3743e-06	474.89	163.64	142.9	49.852	6.2314e-06	61.372	186.271	56.018	24.579	-30.868	35.099	117.959	-31.012	-26.147	121.131	91.132	-26.608	-21.953	-21.663	-17.456	109.203	-17.849	-8191	255	
39217.133	1	1	0	0	0.15892	0.21517	0.012685	0.21297	0.092623	0.23234	0.18731	0.34321	0.079758	0.20661	0.14884	0.087414	0.25881	0.18587	0.084988	0.37937	-4.0771	-3.45	-4.1375	-4.3104	-3.5292	-4.4396	-3.8875	-3.9333	-4.3375	-3.3125	-4.2771	-4.2083	-3.6771	-4.4729	-3.75	-3.7771	98.205	286.107	234.686	296.623	44.683	258.857	309.661	262.928	219.675	276.353	294.915	300.451	286.205	20.181	86.878	257.636	0.00017078	0.00055424	0.00015754	1519.4	3.8216e-06	8.6064e-06	1525.8	411.83	3.008e-06	6.3522e-06	472.71	158.67	140.27	49.051	5.2911e-06	60.269	0.00054893	0.00057146	0.000155	1528.7	6.2909e-06	6.3263e-06	1534.1	417.17	6.3561e-06	6.3207e-06	476.51	163.2	142.94	49.928	6.3247e-06	61.285	165.139	42.777	33.514	-30.935	136.720	110.598	-30.935	-26.053	86.152	106.612	-26.354	-22.083	-21.485	-17.571	90.297	-17.657	-8191	255	
39217.254	1	1	0	0	0.21526	0.23645	0.15363	0.14102	0.1389	0.16884	0.27025	0.23523	0.19874	0.24119	0.14108	0.10351	0.072901	0.13023	0.19941	0.12749	-3.9896	-3.4021	-4.0583	-4.5479	-3.6292	-4.1625	-4.0437	-3.7542	-4.6396	-3.3896	-4.2104	-4.2979	-3.4125	-4.6083	-3.7917	-3.7708	282.779	167.974	11.310	149.467	221.865	189.676	264.853	279.705	70.584	67.250	-41.521	240.696	37.803	211.259	109.502	277.649	0.00017582	0.00074124	0.0001247	1526.3	2.2115e-06	4.6111e-06	1513.9	413.1	2.4002e-06	3.7542e-06	471.92	159.69	139.77	49.002	7.4219e-06	60.372	0.00055105	0.00057811	0.00015983	1534.1	6.3445e-06	6.2293e-06	1533.3	417.7	6.2212e-06	6.3455e-06	475.42	163.63	142.8	49.916	6.3576e-06	61.34	178.962	55.156	81.640	-31.069	132.471	65.823	-30.910	-25.874	152.814	88.634	-26.430	-22.110	-21.611	-17.469	88.637	-18.178	-8191	255	
39217.348	1	1	0	0	0.14346	0.12946	0.10023	0.16745	0.033659	0.23162	0.39692	0.2272	0.038158	0.22618	0.14796	0.029888	0.14504	0.094459	0.073541	0.11599	-4.0917	-3.3208	-3.9646	-4.4625	-3.3021	-4.4958	-4.0917	-3.8083	-4.5833	-3.6354	-4.0854	-4.6438	-3.4	-4.4792	-3.8583	-3.7	267.303	-38.661	314.344	271.845	40.385	279.154	270.342	186.218	209.994	272.880	208.086	278.536	253.957	83.474	145.747	63.085	0.00016154	0.00079331	0.00016282	1525.5	2.3605e-06	9.3791e-06	1525.6	410.39	6.3899e-06	6.2103e-06	473.93	159.6	140.31	49.32	7.9581e-06	60.34	0.00054762	0.00058187	0.00016234	1532.6	6.4081e-06	6.3846e-06	1534.6	417.15	6.3966e-06	6.2791e-06	476.14	163.56	142.65	49.949	6.4205e-06	61.371	174.462	51.070	45.731	-30.835	96.231	107.268	-30.670	-26.162	143.108	79.412	-26.673	-22.150	-21.862	-17.384	103.997	-17.877	-8191	255	
39217.445	1	1	0	0	0.3175	0.14119	0.21805	0.47724	0.025377	0.022733	0.079233	0.20508	0.13102	0.14239	0.046298	0.13111	0.042607	0.13045	0.20599	0.045827	-4.0354	-3.5521	-3.9792	-4.5917	-3.4437	-4.3208	-4.3833	-3.5146	-4.5333	-3.4521	-3.95	-4.5062	-3.5021	-4.2646	-4.1042	-3.5854	236.812	192.461	115.685	263.577	47.206	119.239	258.007	304.540	66.403	38.181	66.162	183.092	128.902	307.267	-20.019	162.104	0.00015214	0.00055137	0.00012805	1526.2	3.0052e-06	9.558e-06	1525.1	411.83	1.7106e-06	4.6585e-06	472.7	159.5	139.72	49.217	4.7069e-06	60.127	0.00056353	0.00058574	0.0001626	1534	6.4468e-06	6.4534e-06	1534	417.3	6.3892e-06	6.4533e-06	477.32	163.74	142.85	50.029	6.5203e-06	61.261	158.346	41.905	13.352	-30.971	162.159	79.703	-31.027	-26.173	128.762	49.860	-26.430	-22.102	-21.706	-17.176	139.555	-18.174	-8191	255	
39217.539	1	1	0	0	0.12338	0.058435	0.20363	0.35152	0.057576	0.27827	0.33414	0.18222	0.098345	0.18182	0.33939	0.028127	0.12827	0.13087	0.11881	0.035861	-4.0792	-3.675	-3.7479	-4.7604	-3.4646	-4.275	-4.5563	-3.6813	-4.4792	-3.6125	-3.7708	-4.6125	-3.5438	-4.3542	-4.2167	-3.6729	50.287	173.241	146.531	278.762	86.461	-17.288	233.361	246.914	62.693	216.731	-28.215	90.399	205.430	-37.113	205.640	285.768	0.00018649	0.0006541	9.4857e-05	1522.6	3.6261e-06	1.6406e-06	1517.7	412.14	3.4872e-06	5.4814e-06	470.15	159.73	139.34	49.042	6.0131e-06	60.255	0.00056735	0.00058746	0.00016546	1534.3	6.3381e-06	6.4936e-06	1531.6	417.83	6.3668e-06	6.5184e-06	476.12	163.59	142.68	49.937	6.4972e-06	61.281	180.525	65.437	35.109	-30.987	144.933	107.160	-30.898	-25.869	96.517	100.104	-26.562	-21.906	-21.716	-17.402	124.012	-18.290	-8191	255	
39217.637	1	1	0	0	0.17542	0.047406	0.13478	0.21947	0.12099	0.032169	0.26212	0.38251	0.17799	0.063191	0.30522	0.32475	0.22315	0.20938	0.077065	0.2175	-4.0979	-3.7458	-3.7479	-4.7479	-3.45	-3.9833	-4.4021	-3.8438	-4.4208	-3.6917	-3.9042	-4.4688	-3.6229	-4.2604	-4.2812	-3.6417	58.815	158.031	161.663	303.495	61.858	247.579	220.944	256.807	272.698	213.126	287.138	-39.068	236.636	235.177	273.665	213.522	0.00020126	0.00069107	0.00019727	1525	5.7675e-06	5.9881e-06	1518.7	411.46	2.938e-06	4.673e-06	469.73	159.72	139.41	48.558	5.368e-06	60.355	0.00055986	0.00058644	0.00016438	1535.3	6.4184e-06	6.5219e-06	1532.1	417.14	6.472e-06	6.5349e-06	475.3	163.61	142.84	49.797	6.572e-06	61.332	179.162	22.228	55.057	-30.778	77.312	112.728	-30.727	-26.254	176.277	62.917	-26.580	-22.247	-21.848	-17.501	130.750	-17.870	-8191	255	
#DATA ENDS
