BOXY.EXE: ISS Imagent and Oximeter Data Acquisition Program Version 0.80
Ascii Record File

#ACQ INFORMATION
2  Detector Channels 
16  External MUX Channels 
1  Auxiliary Channels 
5000  Waveform (CCF) Frequency (Hz)
1  Waveforms Skipped 
30  Waveforms Averaged 
1  Cycles Averaged 
16  Acquisitions per Waveform 
10.0806  Updata Rate (Hz) 

#FILE INFORMATION
TRUE -- External MUX Channel results are PARSED.
FALSE -- AC DC and Phase are NOT grouped.
TRUE -- Companion Program Settings File CREATED.
FALSE -- AC data not excluded
FALSE -- DC data not excluded
FALSE -- Phase data not excluded
FALSE -- Auxillary Chn. data not excluded
Tab delimiters

#CALIBRATION STATE
TRUE -- Waveform Calibration Values APPLIED.


#AUX CALIBRATION VALUES
Val Type	aux-1	

Term	1.0000e+00	
Factor	0.0000e+00	


#WF CALIBRATION VALUES
A = Detector Channel
Val Type	A-AC1	A-AC2	A-AC3	A-AC4	A-AC5	A-AC6	A-AC7	A-AC8	A-AC9	A-AC10	A-AC11	A-AC12	A-AC13	A-AC14	A-AC15	A-AC16	A-DC1	A-DC2	A-DC3	A-DC4	A-DC5	A-DC6	A-DC7	A-DC8	A-DC9	A-DC10	A-DC11	A-DC12	A-DC13	A-DC14	A-DC15	A-DC16	A-Ph1	A-Ph2	A-Ph3	A-Ph4	A-Ph5	A-Ph6	A-Ph7	A-Ph8	A-Ph9	A-Ph10	A-Ph11	A-Ph12	A-Ph13	A-Ph14	A-Ph15	A-Ph16	

Term	0.00000e+00	0.00000e+00	0.00000e+00	0.00000e+00	0.00000e+00	0.00000e+00	0.00000e+00	0.00000e+00	0.00000e+00	0.00000e+00	0.00000e+00	0.00000e+00	0.00000e+00	0.00000e+00	0.00000e+00	0.00000e+00	0.00000e+00	0.00000e+00	0.00000e+00	0.00000e+00	0.00000e+00	0.00000e+00	0.00000e+00	0.00000e+00	0.00000e+00	0.00000e+00	0.00000e+00	0.00000e+00	0.00000e+00	0.00000e+00	0.00000e+00	0.00000e+00	0.00000e+00	0.00000e+00	0.00000e+00	0.00000e+00	0.00000e+00	0.00000e+00	0.00000e+00	0.00000e+00	0.00000e+00	0.00000e+00	0.00000e+00	0.00000e+00	0.00000e+00	0.00000e+00	0.00000e+00	0.00000e+00	
Factor	1.00000e+00	1.00000e+00	1.00000e+00	1.00000e+00	1.00000e+00	1.00000e+00	1.00000e+00	1.00000e+00	1.00000e+00	1.00000e+00	1.00000e+00	1.00000e+00	1.00000e+00	1.00000e+00	1.00000e+00	1.00000e+00	1.00000e+00	1.00000e+00	1.00000e+00	1.00000e+00	1.00000e+00	1.00000e+00	1.00000e+00	1.00000e+00	1.00000e+00	1.00000e+00	1.00000e+00	1.00000e+00	1.00000e+00	1.00000e+00	1.00000e+00	1.00000e+00	X	X	X	X	X	X	X	X	X	X	X	X	X	X	X	X	

B = Detector Channel
Val Type	B-AC1	B-AC2	B-AC3	B-AC4	B-AC5	B-AC6	B-AC7	B-AC8	B-AC9	B-AC10	B-AC11	B-AC12	B-AC13	B-AC14	B-AC15	B-AC16	B-DC1	B-DC2	B-DC3	B-DC4	B-DC5	B-DC6	B-DC7	B-DC8	B-DC9	B-DC10	B-DC11	B-DC12	B-DC13	B-DC14	B-DC15	B-DC16	B-Ph1	B-Ph2	B-Ph3	B-Ph4	B-Ph5	B-Ph6	B-Ph7	B-Ph8	B-Ph9	B-Ph10	B-Ph11	B-Ph12	B-Ph13	B-Ph14	B-Ph15	B-Ph16	

Term	0.00000e+00	0.00000e+00	0.00000e+00	0.00000e+00	0.00000e+00	0.00000e+00	0.00000e+00	0.00000e+00	0.00000e+00	0.00000e+00	0.00000e+00	0.00000e+00	0.00000e+00	0.00000e+00	0.00000e+00	0.00000e+00	0.00000e+00	0.00000e+00	0.00000e+00	0.00000e+00	0.00000e+00	0.00000e+00	0.00000e+00	0.00000e+00	0.00000e+00	0.00000e+00	0.00000e+00	0.00000e+00	0.00000e+00	0.00000e+00	0.00000e+00	0.00000e+00	-9.50993e+01	-1.28701e+02	-1.24987e+02	-1.83761e+02	-6.23572e+01	-7.40854e+01	-1.58106e+02	-1.62015e+02	-5.36995e+01	-7.02651e+01	-1.70714e+02	-1.70913e+02	-1.78902e+02	-1.77049e+02	-6.51981e+01	-1.49824e+02	
Factor	1.64770e-05	1.35927e-04	3.46547e-05	1.51834e-01	1.19814e-06	1.36781e-06	1.67260e-01	5.25101e-02	1.01735e-06	1.28790e-06	8.68415e-02	3.03108e-02	2.82728e-02	9.66055e-03	1.35503e-06	1.35419e-02	3.18107e-06	3.59181e-06	1.00104e-06	7.44679e-02	3.88649e-08	3.97153e-08	7.71580e-02	2.58867e-02	3.91507e-08	3.98793e-08	4.12608e-02	1.45034e-02	1.40702e-02	4.76425e-03	3.96035e-08	6.46411e-03	X	X	X	X	X	X	X	X	X	X	X	X	X	X	X	X	



#DISTANCE SETTINGS
A = Detector Channel
A-1	A-2	A-3	A-4	A-5	A-6	A-7	A-8	A-9	A-10	A-11	A-12	A-13	A-14	A-15	A-16	

2.5000e+00	3.0000e+00	2.5000e+00	3.0000e+00	2.0000e+00	3.0000e+00	1.5000e+00	3.0000e+00	3.0000e+00	3.0000e+00	3.0000e+00	3.0000e+00	3.0000e+00	3.0000e+00	1.5000e+00	3.0000e+00	

B = Detector Channel
B-1	B-2	B-3	B-4	B-5	B-6	B-7	B-8	B-9	B-10	B-11	B-12	B-13	B-14	B-15	B-16	

1.0000e+01	1.0000e+01	1.0000e+01	1.4400e+00	1.0000e+01	1.0000e+01	1.5100e+00	1.9400e+00	1.0000e+01	1.0000e+01	1.9900e+00	2.4900e+00	2.4100e+00	2.9000e+00	1.0000e+01	2.9800e+00	




#DATA BEGINS
time	group	step	mark	flag	A-AC1	A-AC2	A-AC3	A-AC4	A-AC5	A-AC6	A-AC7	A-AC8	A-AC9	A-AC10	A-AC11	A-AC12	A-AC13	A-AC14	A-AC15	A-AC16	A-DC1	A-DC2	A-DC3	A-DC4	A-DC5	A-DC6	A-DC7	A-DC8	A-DC9	A-DC10	A-DC11	A-DC12	A-DC13	A-DC14	A-DC15	A-DC16	A-Ph1	A-Ph2	A-Ph3	A-Ph4	A-Ph5	A-Ph6	A-Ph7	A-Ph8	A-Ph9	A-Ph10	A-Ph11	A-Ph12	A-Ph13	A-Ph14	A-Ph15	A-Ph16	B-AC1	B-AC2	B-AC3	B-AC4	B-AC5	B-AC6	B-AC7	B-AC8	B-AC9	B-AC10	B-AC11	B-AC12	B-AC13	B-AC14	B-AC15	B-AC16	B-DC1	B-DC2	B-DC3	B-DC4	B-DC5	B-DC6	B-DC7	B-DC8	B-DC9	B-DC10	B-DC11	B-DC12	B-DC13	B-DC14	B-DC15	B-DC16	B-Ph1	B-Ph2	B-Ph3	B-Ph4	B-Ph5	B-Ph6	B-Ph7	B-Ph8	B-Ph9	B-Ph10	B-Ph11	B-Ph12	B-Ph13	B-Ph14	B-Ph15	B-Ph16	aux-1	digaux	

40489.738	1	1	0	768	0.17366	0.11621	0.12184	0.25657	0.010078	0.021202	0.51094	0.44821	0.073053	0.29187	0.25009	0.15004	0.033926	0.03844	0.15801	0.29174	-3.1271	-3.2625	-4.0167	-3.4521	-3.5708	-3.9208	-3.3312	-3.9958	-3.7521	-3.35	-4.2083	-3.5042	-3.5208	-3.7875	-3.2062	-3.7708	172.717	204.203	249.831	448.299	323.596	301.684	413.173	435.511	220.227	460.600	465.761	450.347	340.801	176.786	213.852	454.166	0.00061629	0.00075076	0.00016703	1130.1	7.0899e-06	5.7908e-06	1537.5	321.86	3.2476e-07	8.6225e-06	543.04	168.29	79.617	20.474	8.3676e-06	58.809	0.0012805	0.0013619	0.00038676	1087.7	1.4803e-05	1.5271e-05	1478.9	313.29	1.5171e-05	1.5391e-05	525.78	164.3	79.824	21.062	1.5244e-05	58.011	221.603	189.316	190.590	157.313	249.561	186.734	157.263	160.595	429.395	270.466	160.938	165.085	165.066	169.626	278.362	170.384	-8191	255	
40489.836	1	1	0	0	0.044825	0.18476	0.11178	0.17248	0.16209	0.034078	0.32189	0.13191	0.055891	0.1813	0.28385	0.097581	0.17813	0.23619	0.097878	0.14722	-3.4167	-3.1396	-3.8917	-3.5229	-3.3812	-3.8854	-3.2604	-3.7917	-3.8208	-3.475	-4.0583	-3.4458	-3.4708	-3.9229	-3.1875	-3.7958	362.615	373.042	198.166	435.818	221.061	237.466	444.984	395.071	266.343	353.026	387.514	450.882	231.596	375.364	473.560	192.617	0.00052299	0.00021437	0.00018063	1095.3	2.6759e-06	1.0027e-05	1516	314.91	3.4019e-07	2.7864e-06	535	166.37	78.37	19.766	8.3415e-06	57.579	0.0012839	0.0013943	0.00038379	1057.1	1.4943e-05	1.5168e-05	1459.8	305.32	1.4814e-05	1.5207e-05	518.5	162.24	78.435	20.676	1.5178e-05	57.06	225.543	221.770	225.101	157.267	332.406	227.718	157.350	161.087	345.638	255.360	160.764	165.360	164.392	169.363	302.577	170.196	-8191	255	
40489.930	1	1	0	0	0.091132	0.23874	0.077319	0.22432	0.26941	0.11617	0.24247	0.053415	0.18777	0.11072	0.15958	0.17507	0.01119	0.1258	0.23875	0.0284	-3.3333	-3.0854	-3.85	-3.5875	-3.2521	-3.8542	-3.6083	-3.6479	-3.9833	-3.2271	-4.0229	-3.6958	-3.5229	-4.0792	-3.3667	-3.7438	427.360	349.713	276.963	460.607	191.666	241.949	353.916	412.307	320.837	304.961	460.100	470.665	455.707	215.312	294.342	308.419	0.00063844	0.00023533	0.00013214	1086	6.2211e-06	3.0054e-06	1505.9	313.24	4.5929e-06	1.2051e-05	533.45	165.15	77.85	20.031	6.4701e-06	57.372	0.0012803	0.0013715	0.00038059	1047.6	1.4838e-05	1.5334e-05	1451.9	303.21	1.5137e-05	1.5255e-05	517.17	161.52	77.904	20.603	1.5141e-05	57.114	220.078	274.513	173.620	157.048	333.008	161.770	157.541	160.673	274.332	260.948	161.029	165.660	164.558	169.392	252.721	170.335	-8191	255	
40490.027	1	1	0	0	0.3127	0.12788	0.089163	0.21511	0.10745	0.12203	0.20035	0.17548	0.16741	0.1522	0.24412	0.20038	0.054383	0.19604	0.13635	0.24102	-3.5458	-3.3375	-3.9333	-3.8979	-3.1333	-4.0813	-3.5812	-3.7083	-3.9042	-3.1604	-3.9813	-3.8375	-3.3812	-4.0208	-3.4417	-3.4125	408.306	409.329	279.664	459.357	176.410	273.644	450.992	418.513	248.813	421.995	471.924	499.991	300.500	205.678	263.956	420.067	0.00048928	0.00062572	0.00029298	1069.8	1.256e-06	5.9176e-06	1497.7	306.06	4.098e-06	2.4766e-06	524.97	165.39	75.956	19.609	5.891e-06	58.032	0.0013031	0.0013867	0.00038958	1032.2	1.5176e-05	1.5673e-05	1439.8	298.54	1.5579e-05	1.5655e-05	511.93	161.74	76.647	20.423	1.5918e-05	57.336	223.763	346.335	268.603	157.302	237.527	290.944	157.530	160.716	267.564	312.265	160.866	165.463	165.094	169.535	355.124	170.275	-8191	255	
40490.121	1	1	0	0	0.14496	0.26038	0.14084	0.28872	0.15136	0.11198	0.17607	0.12601	0.092862	0.070721	0.29496	0.048773	0.19816	0.13649	0.16395	0.11089	-3.7104	-3.0146	-3.5375	-3.8458	-3.3208	-4.0687	-3.6083	-3.6521	-3.975	-3.2729	-3.8312	-3.9437	-3.175	-3.9292	-3.5104	-3.3375	149.968	203.904	481.490	459.670	228.436	197.079	149.166	485.128	441.701	272.306	428.858	171.131	450.219	341.199	219.755	471.897	0.0005423	0.00089998	0.00010852	1012.5	5.3355e-06	8.5421e-06	1450.7	295.25	1.0714e-05	3.2137e-06	513.37	161.45	72.91	18.745	1.3983e-05	56.449	0.0013567	0.0014315	0.00040908	983.15	1.605e-05	1.6379e-05	1399.8	287.27	1.6406e-05	1.6618e-05	500.17	158.17	73.969	19.723	1.6935e-05	55.925	225.268	211.673	198.998	157.234	245.239	335.962	157.403	160.438	257.436	160.332	160.878	165.620	164.786	169.544	299.222	170.229	-8191	255	
40490.219	1	1	0	0	0.16185	0.10014	0.15681	0.14066	0.11975	0.14154	0.24996	0.14924	0.20651	0.29234	0.29573	0.17296	0.10544	0.1426	0.15822	0.09361	-3.5646	-3.2771	-3.6667	-4.0083	-3.2	-3.9208	-3.75	-3.4062	-3.8917	-3.1958	-3.8042	-4.1917	-3.3917	-3.8729	-3.6229	-3.3937	160.491	293.042	289.087	487.186	415.368	213.148	463.323	501.127	423.155	480.672	455.664	157.629	146.976	453.324	245.508	422.630	0.0005109	0.00089845	0.00017593	954.41	8.6646e-06	3.3647e-06	1406.2	283.11	3.6108e-06	4.8162e-06	505.96	159.43	71.463	18.57	1.0002e-05	56.467	0.001451	0.00154	0.00043085	932.19	1.6658e-05	1.7191e-05	1360.4	277.22	1.6657e-05	1.6803e-05	492.88	156.64	72.473	19.536	1.6415e-05	56.058	228.169	351.230	265.714	157.313	304.868	254.888	157.764	160.718	195.305	342.958	161.156	165.764	164.548	169.795	199.432	169.951	-8191	255	
40490.340	1	1	0	0	0.103	0.25353	0.2721	0.23906	0.12424	0.159	0.22924	0.29007	0.10444	0.15585	0.26553	0.25117	0.12588	0.22944	0.28628	0.17253	-3.6958	-3.3812	-3.5104	-4.1521	-3.3396	-3.8583	-4.0167	-3.4396	-4.1	-3.4104	-3.6167	-4.2312	-3.2479	-3.7313	-3.8417	-3.2833	200.664	414.392	262.862	486.165	176.537	168.868	403.789	388.549	432.066	385.026	375.903	417.985	488.303	386.551	266.883	468.856	0.0003852	0.00084588	0.00018188	938.91	3.5426e-06	5.7157e-06	1394.7	279.96	6.0794e-06	5.0504e-06	505.68	159.27	71.153	18.604	1.5535e-05	55.933	0.0013814	0.0014587	0.0004094	911.46	1.5835e-05	1.6101e-05	1346.4	273.75	1.5801e-05	1.605e-05	492.09	156.39	72.153	19.435	1.5875e-05	55.668	223.086	219.352	286.110	157.041	265.359	274.292	157.593	160.959	275.532	374.945	160.976	165.735	164.956	169.306	266.703	170.138	-8191	255	
40490.434	1	1	0	0	0.23303	0.12191	0.26636	0.19551	0.11338	0.080048	0.26427	0.062719	0.36393	0.19149	0.14164	0.21285	0.1678	0.11692	0.085463	0.18339	-3.6708	-3.4042	-3.4292	-4.0167	-3.1083	-3.5938	-4.0875	-3.3375	-3.9375	-3.3875	-3.3563	-4.2063	-3.3063	-3.7479	-3.8979	-3.4062	359.556	434.841	305.286	467.578	187.709	449.791	396.477	241.984	188.589	163.753	320.585	417.793	268.387	429.330	205.910	152.919	0.00059646	0.0004592	0.00018764	938.19	6.8195e-06	1.1176e-05	1390.9	278.8	6.8741e-06	5.9174e-06	503.81	159.88	70.49	18.394	3.9798e-06	56.45	0.0013405	0.0014349	0.00039859	909.45	1.5194e-05	1.5709e-05	1344.2	272.97	1.5566e-05	1.5692e-05	490.06	156.2	71.281	19.27	1.5758e-05	55.781	224.804	320.259	266.999	157.277	319.828	267.676	157.122	160.851	283.711	332.608	160.963	165.729	164.796	169.653	300.322	170.527	-8191	255	
40490.531	1	1	0	0	0.18421	0.36551	0.10804	0.13405	0.18402	0.14559	0.50692	0.1761	0.034415	0.25453	0.21081	0.36668	0.19012	0.19805	0.33324	0.15028	-3.6521	-3.5062	-3.3021	-4.1937	-3.4375	-3.6021	-4.0062	-3.2833	-3.9458	-3.6479	-3.5708	-4.0396	-3.2854	-3.4729	-3.9042	-3.5312	303.673	260.387	189.739	448.984	420.447	188.891	453.359	468.986	152.567	403.132	474.228	452.221	467.245	380.559	227.658	439.298	0.00052485	0.00049864	0.00017017	936.3	4.827e-06	4.7981e-06	1387.2	275.16	4.1148e-06	9.4158e-06	500.7	157.64	70.17	18.329	6.8371e-06	56.015	0.0013363	0.0014342	0.00040282	906.66	1.5432e-05	1.5725e-05	1337.3	269.57	1.55e-05	1.5694e-05	485.37	154.17	70.495	18.949	1.5173e-05	55.133	216.402	181.312	219.246	157.214	263.581	288.637	157.417	160.728	355.061	293.229	160.895	166.182	164.274	169.717	350.826	169.779	-8191	255	
40490.629	1	1	0	0	0.20364	0.28235	0.1748	0.23805	0.071638	0.13175	0.30785	0.271	0.065383	0.035685	0.18803	0.23113	0.084111	0.10835	0.087713	0.12917	-3.4167	-3.6417	-3.1542	-4.1354	-3.3854	-3.4375	-4.2188	-3.2687	-3.7062	-3.7188	-3.3375	-4.0042	-3.475	-3.3542	-4.025	-3.375	207.646	486.818	390.728	433.781	322.389	338.608	475.406	441.040	292.740	152.963	468.668	471.006	146.781	351.790	208.032	497.309	0.00054368	0.0010684	3.8331e-05	951.21	8.6002e-06	7.1219e-06	1401.9	279.06	2.4414e-06	1.1824e-05	506.23	159.67	70.484	18.594	1.7606e-06	57.233	0.0012819	0.0013677	0.0003765	920.53	1.4611e-05	1.4757e-05	1348.9	272.43	1.4226e-05	1.4392e-05	490.57	155.73	71.146	19.244	1.3792e-05	56.465	230.573	186.050	381.094	156.619	286.836	331.278	157.539	160.747	169.570	326.854	161.409	165.845	164.591	169.947	223.471	170.700	-8191	255	
40490.723	1	1	0	0	0.21615	0.086033	0.11316	0.018864	0.24724	0.10085	0.23353	0.30944	0.09533	0.15008	0.2084	0.27003	0.020946	0.12514	0.21282	0.26783	-3.6021	-3.7479	-3.1479	-3.9437	-3.4958	-3.4667	-4.2188	-3.3729	-3.7604	-3.9062	-3.3917	-4.1188	-3.5167	-3.3271	-4.0646	-3.3583	277.285	169.705	372.750	176.772	501.264	392.673	448.861	462.008	451.839	291.596	474.189	422.412	157.047	496.807	412.610	220.173	0.0006336	0.00034422	8.0371e-05	981.93	2.3102e-06	5.9493e-06	1430.7	292.07	2.6509e-06	8.1902e-06	522.28	165.84	75.7	19.921	7.1494e-06	59.242	0.0011683	0.001225	0.00033601	947.41	1.3127e-05	1.318e-05	1376.1	283.57	1.2942e-05	1.3013e-05	504.97	160.81	75.062	20.251	1.2588e-05	58.083	221.994	188.529	225.650	157.161	271.688	282.971	157.458	160.568	422.576	502.378	161.354	165.182	164.980	170.123	324.961	170.538	-8191	255	
40490.816	1	1	0	0	0.18275	0.18545	0.20205	0.24978	0.21293	0.16729	0.31359	0.24996	0.091358	0.090017	0.3913	0.029825	0.1661	0.065545	0.16388	0.19653	-3.1521	-3.975	-3.0708	-4.0458	-3.6	-3.2	-4.0687	-3.5938	-3.4813	-4.0188	-3.3083	-3.9104	-3.9604	-3.4167	-3.9854	-3.6229	401.402	222.230	500.374	496.264	151.702	149.760	473.653	198.783	436.726	198.395	457.914	500.598	495.353	248.212	457.478	446.236	0.0005586	0.00057437	5.809e-05	1033.7	1.5534e-06	4.7257e-06	1475.1	309.32	6.9935e-06	1.058e-05	537.6	169.33	78.543	20.702	8.2951e-06	60.049	0.0010905	0.0011446	0.00031791	993.61	1.237e-05	1.2579e-05	1413.7	299.07	1.2366e-05	1.2555e-05	519.22	164.38	77.949	20.989	1.2747e-05	59.079	235.023	296.428	385.215	157.117	421.429	316.722	157.505	161.013	279.944	362.116	161.105	165.610	164.321	169.373	346.346	170.493	-8191	255	
40490.938	1	1	0	0	0.10492	0.14965	0.14014	0.057747	0.15052	0.16276	0.20633	0.1956	0.074785	0.063223	0.35143	0.14643	0.17806	0.12247	0.2105	0.25584	-3.3042	-3.9562	-3.2917	-4	-3.8312	-3.1312	-4.3292	-3.5563	-3.4062	-3.9729	-3.5146	-3.7208	-3.7542	-3.2604	-4.0104	-3.5312	339.560	379.175	201.534	162.031	157.423	367.412	427.890	444.807	437.297	226.045	438.946	383.670	401.560	268.619	275.262	452.503	0.00056374	0.0011713	0.00021631	1051.6	7.5873e-06	1.4199e-05	1479.3	314.48	8.5889e-06	1.9738e-06	538.89	169.98	79.702	20.909	9.1554e-06	60.86	0.0011108	0.0011615	0.0003196	1011.5	1.2341e-05	1.2452e-05	1422.1	302.37	1.2248e-05	1.241e-05	519.76	165.17	79.125	21.098	1.234e-05	59.372	225.883	210.739	285.051	157.093	284.412	307.123	157.429	160.571	270.370	232.802	160.975	165.821	164.840	169.789	264.637	170.393	-8191	255	
40491.035	1	1	0	0	0.087982	0.22736	0.2471	0.063914	0.34235	0.15151	0.3308	0.18649	0.11385	0.15122	0.26551	0.26832	0.098405	0.19166	0.077288	0.047968	-2.8604	-4.0458	-3.3271	-3.8583	-3.8229	-3.2021	-4.1979	-3.7021	-3.2542	-4.2188	-3.5312	-3.6188	-3.975	-3.1729	-3.7938	-3.8438	446.133	258.980	439.824	481.894	267.174	356.219	465.810	429.120	339.416	321.734	461.136	453.215	153.937	163.135	172.954	188.839	0.00056138	0.00059503	0.00014047	1071.5	7.857e-06	1.3501e-05	1490.7	316.91	5.2511e-06	5.6338e-06	538.89	170.17	79.5	20.894	7.9151e-06	60.449	0.0010715	0.0011424	0.00031442	1031.1	1.2271e-05	1.2316e-05	1430.8	304.34	1.2295e-05	1.2469e-05	517.87	165.04	78.592	21.058	1.2297e-05	59.298	225.308	191.211	252.485	157.016	318.934	289.441	157.308	160.788	326.483	323.179	161.021	165.317	164.644	169.666	207.592	170.096	-8191	255	
40491.133	1	1	0	0	0.077129	0.19841	0.016675	0.23634	0.12871	0.13558	0.072546	0.10824	0.13847	0.032732	0.16798	0.094085	0.17132	0.10194	0.14367	0.1026	-2.8854	-4.0229	-3.4938	-3.65	-3.9458	-3.3542	-4.1146	-3.9437	-3.3063	-4.1458	-3.6875	-3.5271	-4.0125	-3.2792	-3.7979	-3.9521	341.914	458.717	407.937	204.699	272.795	277.622	357.880	394.095	217.054	468.583	452.736	428.230	376.590	363.641	235.819	468.733	0.00062343	0.00051972	0.00017845	1079.5	6.8068e-06	3.2004e-06	1499.2	315.64	4.1272e-06	3.3095e-06	541.01	170.18	79.475	20.648	3.3577e-06	60.856	0.0010634	0.001104	0.00030717	1037.4	1.2192e-05	1.2326e-05	1436.7	304.71	1.239e-05	1.2377e-05	519.81	165.03	78.429	20.97	1.2403e-05	59.384	223.758	263.683	259.392	156.898	367.720	285.594	157.252	160.987	280.088	324.801	161.269	165.680	165.050	170.363	309.715	170.435	-8191	255	
40491.227	1	1	0	0	0.075689	0.24627	0.053775	0.033021	0.09192	0.072105	0.25578	0.067862	0.21821	0.16256	0.33734	0.057369	0.18586	0.23444	0.14884	0.13248	-3.0271	-4.0771	-3.4104	-3.5438	-4.0833	-3.2958	-3.825	-4.0292	-3.0104	-3.9188	-3.6875	-3.4917	-4.125	-3.2146	-3.7333	-4.0062	384.981	241.072	265.760	264.868	167.558	334.197	464.626	433.356	190.320	145.285	163.517	472.057	182.454	439.092	195.226	214.562	0.00054767	0.0004945	0.00022011	1074.8	7.7272e-06	5.2214e-06	1494.4	314.43	3.5104e-06	5.1885e-06	541.78	170.12	79.705	20.652	1.0147e-05	59.739	0.0010606	0.0011333	0.0003078	1034	1.221e-05	1.2227e-05	1435.7	304.48	1.2143e-05	1.233e-05	521.23	164.96	78.668	20.882	1.2364e-05	58.972	222.677	277.622	230.674	156.981	236.755	321.182	157.566	160.802	251.977	338.146	161.183	165.511	164.757	169.473	253.989	170.417	-8191	255	
40491.301	1	1	0	0	0.088229	0.21496	0.16212	0.14103	0.27226	0.085495	0.45875	0.13843	0.045612	0.13704	0.12143	0.037653	0.05908	0.086712	0.3026	0.212	-2.7708	-3.9958	-3.6958	-3.6188	-4.2188	-3.5	-3.7708	-4.0479	-3.3563	-3.8167	-3.9313	-3.3479	-4.1438	-3.3417	-3.4375	-4.1521	481.700	233.017	244.796	163.017	220.291	403.112	448.652	409.871	425.432	494.677	463.317	168.423	205.062	159.914	212.418	424.791	0.00054347	0.00050888	0.00025815	1094.6	8.7402e-06	6.1012e-06	1504.6	319.92	7.4586e-06	9.2031e-06	542.29	169.27	79.569	20.564	5.5691e-06	59.848	0.0010612	0.0011386	0.00031839	1048.5	1.2192e-05	1.2564e-05	1441.9	307.69	1.2288e-05	1.2506e-05	522.88	164.21	78.461	20.865	1.2631e-05	58.773	233.858	232.599	194.013	157.211	291.711	363.082	157.192	161.044	301.900	314.521	161.206	165.519	164.780	170.124	291.536	170.696	-8191	255	
40491.422	1	1	0	0	0.12506	0.20696	0.29189	0.32702	0.17903	0.12558	0.11678	0.10455	0.13629	0.053851	0.14628	0.19191	0.12325	0.074519	0.12424	0.097885	-2.7938	-3.8979	-3.6396	-3.3854	-4.0833	-3.4521	-3.875	-4.1188	-3.15	-3.7271	-4.0229	-3.3208	-4.1208	-3.5625	-3.3542	-4.1	360.735	338.222	336.908	162.384	157.802	221.132	373.965	425.162	305.982	149.650	497.194	190.107	412.165	433.030	391.037	378.935	0.00059902	0.00058516	9.0666e-05	1092.4	5.0913e-06	9.7458e-06	1503.4	314.29	8.6645e-06	6.6262e-06	538.19	166.87	78.665	20.322	5.5314e-06	59.358	0.0010678	0.001149	0.00031985	1052.3	1.2519e-05	1.2891e-05	1442.3	304.96	1.2825e-05	1.3089e-05	518.32	162.79	77.771	20.705	1.3163e-05	58.364	219.059	250.390	497.313	157.093	254.785	289.538	157.475	161.018	345.026	297.796	160.946	165.572	165.190	169.302	244.487	170.699	-8191	255	
40491.516	1	1	0	0	0.16879	0.016003	0.026044	0.13345	0.12352	0.105	0.22476	0.039228	0.11848	0.29722	0.04567	0.1647	0.17357	0.094209	0.11062	0.14741	-2.775	-3.6896	-3.65	-3.2021	-3.9417	-3.5667	-3.5646	-4.0792	-3.3937	-3.6604	-4.0396	-3.2854	-3.8417	-3.5938	-3.2958	-4.0062	288.520	423.714	203.414	338.564	205.459	365.204	465.088	411.052	266.749	472.698	311.293	399.496	464.622	357.775	208.766	351.073	0.00047914	0.00078447	0.00022211	1071.9	7.0794e-06	8.8766e-06	1489	311.5	4.6254e-06	2.3123e-06	534.92	166.57	76.839	20.296	5.5303e-06	59.095	0.0011079	0.0011892	0.00033022	1032.8	1.2698e-05	1.3133e-05	1430.4	300.83	1.2658e-05	1.2948e-05	514.43	162.43	76.833	20.61	1.2659e-05	58.117	225.765	266.653	208.511	157.143	328.594	278.619	157.405	160.720	274.752	241.828	161.047	165.520	164.973	169.820	340.689	170.652	-8191	255	
40491.613	1	1	0	0	0.26362	0.1348	0.068065	0.28917	0.1701	0.023984	0.39181	0.13659	0.16984	0.17405	0.31137	0.089398	0.19756	0.12593	0.034315	0.07651	-2.9833	-3.4521	-3.8417	-3.3479	-4.0021	-3.4646	-3.4792	-4.1667	-3.5417	-3.5229	-4.1479	-3.2792	-4.0479	-3.7771	-3.2375	-4.1146	276.346	174.308	196.533	393.388	466.053	473.433	416.713	499.208	381.943	469.513	498.669	146.327	405.858	494.997	163.747	399.502	0.00053061	0.00033338	0.00011832	1077.8	2.2799e-06	6.0725e-06	1504.9	313.78	7.207e-06	8.4661e-06	538.42	167.47	77.658	20.129	9.9527e-06	59.131	0.0011147	0.0011528	0.00031952	1038.5	1.2612e-05	1.2805e-05	1436.7	302.9	1.2807e-05	1.2848e-05	518.17	162.62	77.239	20.604	1.3009e-05	58.407	223.000	151.826	227.681	156.993	216.210	287.532	157.437	160.816	283.880	278.139	161.114	165.398	165.221	169.960	268.830	170.458	-8191	255	
40491.730	1	1	0	0	0.052307	0.27429	0.031383	0.31691	0.29916	0.15959	0.22184	0.11141	0.20567	0.099698	0.08155	0.16329	0.28437	0.1644	0.11348	0.080294	-3.1542	-3.3979	-3.9	-3.4562	-3.7875	-3.7333	-3.325	-4.1479	-3.3542	-3.3875	-4.3771	-3.3229	-3.6958	-3.7146	-3.1979	-4.0646	426.741	235.860	367.496	390.929	176.069	334.743	432.641	437.490	212.655	217.500	147.872	479.832	375.519	216.569	304.300	451.083	0.00049446	0.00047343	5.0984e-05	1082.8	7.0722e-06	6.6655e-06	1493.7	312.5	7.0112e-07	1.6566e-06	537.05	167.52	77.77	20.249	3.2059e-06	59.511	0.0011181	0.0011806	0.00032815	1039.6	1.2787e-05	1.2869e-05	1433	301.38	1.2899e-05	1.2879e-05	516.66	162.57	77.053	20.51	1.2805e-05	58.3	226.276	180.067	177.551	157.416	296.706	199.679	157.466	160.568	415.549	312.369	160.849	165.076	164.151	169.752	451.446	170.323	-8191	255	
40491.828	1	1	0	0	0.10445	0.053354	0.10705	0.14276	0.082095	0.20532	0.22466	0.097831	0.1107	0.10446	0.17542	0.18745	0.18814	0.15045	0.23987	0.050475	-3.3104	-3.2104	-3.9583	-3.4188	-3.6708	-3.95	-3.2479	-4.0312	-3.7333	-3.3896	-4.1875	-3.5208	-3.6521	-4.0979	-2.9958	-4.1417	415.616	360.610	338.386	495.234	175.690	430.858	481.547	391.409	273.041	264.053	328.642	464.193	397.835	455.060	441.282	416.381	0.00061496	0.00060194	0.00020253	1075.2	1.673e-06	1.2659e-05	1494.1	308.45	8.6287e-06	5.4899e-06	532.91	165.26	77.115	19.971	6.7329e-06	58.828	0.0011232	0.0011857	0.00032862	1035.6	1.2897e-05	1.3157e-05	1430.4	299.36	1.2839e-05	1.2969e-05	514.34	161.1	76.697	20.348	1.2882e-05	57.624	225.192	227.206	317.886	157.234	298.917	333.042	157.585	160.706	290.182	228.221	161.112	165.544	164.858	170.448	268.466	170.148	-8191	255	
40491.898	1	1	0	0	0.068513	0.06877	0.15618	0.23478	0.03317	0.097772	0.14138	0.18099	0.20508	0.043245	0.27641	0.35675	0.22976	0.11987	0.1266	0.21051	-3.3271	-3.375	-3.9479	-3.4688	-3.5854	-3.9188	-3.45	-4.0958	-3.8333	-3.3333	-4.1854	-3.5417	-3.4708	-4.0479	-3.1271	-3.8312	461.859	187.601	252.212	205.527	148.549	268.335	143.913	466.221	499.753	145.299	145.324	458.398	190.072	371.592	310.325	458.454	0.00064106	0.00079335	0.00019518	1086.2	9.4437e-06	1.0207e-05	1496.3	314.24	6.367e-06	9.9739e-06	532.83	165.8	77.706	20.165	3.5163e-06	58.261	0.0011049	0.0011606	0.00032916	1043.7	1.2747e-05	1.3105e-05	1438.2	302.63	1.3061e-05	1.3022e-05	514.12	161.6	76.717	20.405	1.316e-05	57.548	223.913	281.045	223.920	157.340	292.150	287.964	157.410	160.545	285.892	313.536	161.068	165.645	164.969	169.803	374.725	170.596	-8191	255	
40492.020	1	1	0	0	0.32035	0.16324	0.018105	0.14498	0.11357	0.10348	0.24817	0.3177	0.10706	0.18484	0.074827	0.19661	0.21633	0.26236	0.11633	0.085338	-3.5271	-3.3729	-4.0188	-3.6229	-3.5	-4.1979	-3.5187	-3.8	-3.9521	-3.2562	-4.1438	-3.5354	-3.4062	-4.1208	-3.1396	-3.8396	232.574	163.383	420.867	482.664	216.072	446.361	357.892	457.122	337.666	228.284	266.978	341.888	265.733	412.534	419.771	207.828	0.00055312	0.00024032	0.00014849	1081.2	9.1221e-06	9.7907e-06	1495.5	310.68	2.1465e-06	5.8955e-06	529.38	165.19	76.405	19.752	3.6781e-06	58.531	0.0011239	0.0011954	0.00033333	1038.8	1.3016e-05	1.3245e-05	1434.2	299.43	1.3293e-05	1.3562e-05	511.7	161.14	75.915	20.186	1.3624e-05	57.604	233.160	185.865	218.866	157.246	321.612	264.915	157.204	160.739	249.104	327.568	161.056	165.790	164.662	170.243	306.662	170.785	-8191	255	
40492.113	1	1	0	0	0.11311	0.047333	0.066514	0.3125	0.25093	0.13799	0.31334	0.23234	0.17561	0.18121	0.16426	0.047888	0.18869	0.18902	0.18744	0.27951	-3.5104	-3.2625	-3.9708	-3.7521	-3.3354	-4.0708	-3.5271	-3.5979	-3.8896	-3.2042	-4.1125	-3.9271	-3.2062	-4.1104	-3.3063	-3.6375	458.077	338.860	484.400	490.985	307.170	466.132	478.164	476.723	355.774	205.362	373.617	156.240	496.288	419.252	276.789	464.979	0.00059483	0.00062656	0.00017871	1049.9	8.747e-06	7.0094e-06	1478.5	301.43	4.3503e-06	6.9325e-06	521.83	164.17	74.821	19.717	9.9937e-06	58.183	0.0011724	0.0012373	0.00034512	1017.5	1.3357e-05	1.3716e-05	1417.7	292.48	1.3474e-05	1.3876e-05	506.2	159.51	74.409	20.025	1.3729e-05	57.062	216.290	191.671	176.633	157.156	236.333	229.883	157.401	160.609	246.080	294.526	161.057	165.959	165.159	169.749	248.466	170.549	-8191	255	
40492.211	1	1	0	0	0.18345	0.24423	0.057661	0.29422	0.06961	0.31234	0.19499	0.47556	0.16046	0.21987	0.19575	0.31447	0.12274	0.25008	0.1115	0.061979	-3.7417	-3.0875	-3.8104	-3.9917	-3.2021	-4.075	-3.6229	-3.65	-4.2458	-3.3958	-4.0333	-4.0833	-3.1437	-4.0125	-3.3187	-3.4938	204.690	497.498	455.148	471.341	206.971	350.420	488.205	489.069	445.183	447.236	443.621	439.858	236.965	381.943	150.310	155.655	0.00053138	0.00075212	0.00025583	1041.1	1.1671e-05	9.0781e-06	1465.2	298.48	4.1024e-06	4.5819e-06	522.33	162.9	74.555	19.404	5.3755e-06	57.943	0.0011505	0.0012279	0.00034151	1003.3	1.315e-05	1.3435e-05	1409.1	289.62	1.3e-05	1.3282e-05	504.41	159.34	74.343	19.851	1.3185e-05	57.071	227.633	276.587	237.706	157.285	235.696	246.946	157.560	160.825	246.627	364.068	160.995	165.715	164.774	169.919	267.475	170.326	-8191	255	
40492.332	1	1	0	0	0.084408	0.13708	0.12126	0.1565	0.059248	0.24247	0.28836	0.2281	0.2044	0.07726	0.2448	0.1929	0.14807	0.047223	0.14378	0.098247	-3.6521	-3.0312	-3.5854	-3.95	-3.2146	-3.9396	-3.7333	-3.6521	-4.2271	-3.2854	-3.9208	-3.9688	-3.4396	-4.1125	-3.7271	-3.575	296.089	296.666	494.404	435.562	188.962	377.085	468.013	393.804	306.295	260.280	390.252	477.913	454.572	398.308	479.185	174.025	0.0005681	0.00043476	0.00015338	1041.6	5.0914e-06	1.2296e-05	1468.4	299.44	5.7614e-06	2.1375e-06	523.18	163.88	74.379	19.356	7.2254e-07	58.68	0.0011247	0.0012013	0.00033353	1005.6	1.2768e-05	1.3135e-05	1408.4	289.4	1.2759e-05	1.2821e-05	504.06	159.33	73.901	19.953	1.2907e-05	57.488	228.107	273.010	215.581	157.320	309.726	258.994	157.544	160.751	208.077	420.228	160.734	165.819	164.659	169.479	328.388	170.565	-8191	255	
40492.430	1	1	0	0	0.25703	0.08125	0.19485	0.24799	0.12439	0.13831	0.40094	0.1236	0.078146	0.17993	0.22198	0.13332	0.12132	0.098171	0.18991	0.13255	-3.8271	-3.4896	-3.6604	-4.1771	-3.3063	-3.8021	-3.9938	-3.5542	-4.1521	-3.3833	-3.6833	-4.1896	-3.2313	-3.9333	-3.8312	-3.3458	417.395	344.167	305.501	501.297	432.573	451.421	456.894	223.077	184.450	156.471	434.042	174.902	485.750	465.903	452.847	487.131	0.00055946	0.00052225	0.00028748	1036.9	6.6113e-06	4.7309e-06	1462.6	297.63	4.5565e-06	9.3237e-06	521.8	165.6	73.585	19.618	5.0358e-06	58.913	0.0011035	0.0011771	0.00032375	998.78	1.256e-05	1.3096e-05	1401.9	287.13	1.281e-05	1.2991e-05	504.35	160.61	73.67	19.936	1.3074e-05	57.848	226.345	213.690	217.880	157.213	230.332	395.763	157.738	160.807	250.970	280.602	161.216	165.925	164.758	170.290	276.498	170.507	-8191	255	
40492.523	1	1	0	0	0.17476	0.14655	0.10785	0.11955	0.070512	0.3053	0.10194	0.14786	0.15946	0.14147	0.22697	0.077475	0.15668	0.11759	0.12792	0.3485	-3.7833	-3.6083	-3.3583	-4.1583	-3.325	-3.7687	-3.9792	-3.3812	-4.1917	-3.5542	-3.5375	-4.1562	-3.5146	-3.7125	-4.025	-3.2646	332.540	238.231	488.446	351.326	478.717	369.253	405.001	430.602	296.521	256.587	477.636	401.848	420.710	205.788	498.419	415.147	0.00055422	0.00067602	0.00013319	1014.7	4.3509e-06	6.1992e-06	1433.2	289.51	1.0851e-05	6.9478e-06	516.26	162.64	72.566	19.172	7.8617e-06	58.383	0.0011288	0.0012134	0.00032895	978.23	1.3028e-05	1.3312e-05	1384.2	279.67	1.3232e-05	1.3144e-05	497.39	158.61	72.403	19.621	1.3077e-05	57.25	231.560	272.499	253.832	157.410	367.589	203.421	157.538	160.945	299.227	258.682	161.022	166.085	164.989	170.001	303.913	170.594	-8191	255	
40492.598	1	1	0	0	0.12694	0.30576	0.23205	0.4123	0.080622	0.31045	0.42373	0.13593	0.24385	0.36311	0.22027	0.11357	0.27702	0.26423	0.089885	0.14202	-3.5667	-3.4729	-3.1625	-4.0667	-3.2271	-3.6458	-4.1687	-3.4521	-3.9375	-3.5979	-3.3896	-4.25	-3.3354	-3.5958	-4.0083	-3.2875	184.012	147.272	473.561	490.764	167.423	395.813	426.470	452.002	253.008	420.706	142.945	177.344	337.117	284.289	369.465	498.009	0.00058105	0.00095192	0.0002566	989.3	1.0664e-05	6.9312e-06	1428.9	284.95	1.1045e-05	1.1529e-05	508.08	161.79	72.091	18.975	4.147e-06	58.066	0.0011133	0.0011816	0.00032708	956.68	1.2744e-05	1.2907e-05	1369.6	276.22	1.2608e-05	1.2703e-05	491.86	157.14	71.692	19.396	1.2773e-05	56.83	226.897	268.894	233.057	157.325	279.829	302.492	157.693	160.649	288.930	289.065	161.213	165.733	164.635	170.263	360.999	170.468	-8191	255	
40492.715	1	1	0	0	0.16671	0.16634	0.031473	0.32823	0.097973	0.087721	0.25123	0.2929	0.075981	0.22095	0.20975	0.095374	0.078145	0.15116	0.09772	0.089193	-3.725	-3.6542	-3.2854	-4.325	-3.425	-3.4396	-4.3646	-3.5021	-3.8187	-3.8896	-3.4021	-4.1375	-3.6312	-3.4938	-4.1875	-3.3708	196.609	239.469	342.507	176.079	363.562	264.453	474.053	451.751	191.655	420.087	425.171	182.239	407.193	181.177	283.562	295.063	0.00058536	0.00045336	0.00022767	981.34	1.0727e-05	5.8687e-06	1420.5	281.66	7.1902e-06	2.6374e-06	508.2	161.21	71.202	18.845	7.993e-06	58.038	0.001122	0.0011618	0.0003245	950.03	1.2767e-05	1.3059e-05	1362.6	274.02	1.2891e-05	1.3231e-05	490.24	156.96	71.257	19.29	1.3209e-05	56.916	223.986	325.912	266.251	157.370	365.646	178.582	157.386	160.839	336.080	387.954	161.082	166.018	165.064	169.560	279.611	170.939	-8191	255	
40492.812	1	1	0	0	0.04402	0.25659	0.17004	0.072558	0.013676	0.10795	0.2686	0.10472	0.058585	0.031955	0.083086	0.21451	0.14429	0.16632	0.059188	0.14688	-3.5458	-3.9583	-3.3312	-4.2354	-3.5312	-3.5979	-4.2917	-3.3292	-3.7333	-3.95	-3.35	-4.0667	-3.7042	-3.4708	-4.0333	-3.6396	409.826	376.956	497.750	289.019	400.311	425.976	472.490	162.825	435.810	295.270	394.829	407.377	237.835	336.677	219.745	203.063	0.00054109	0.00065638	9.7168e-05	960.27	6.0488e-06	9.2656e-06	1398.4	276.3	5.4421e-06	1.812e-06	501.52	159.42	70.527	18.601	8.282e-06	57.963	0.0011355	0.0011945	0.00033177	924.78	1.305e-05	1.3111e-05	1343.6	268.31	1.2953e-05	1.3214e-05	486.32	155.95	70.279	19.113	1.2989e-05	56.623	221.298	329.618	255.346	156.927	250.190	284.596	157.741	161.020	290.755	255.003	161.127	165.812	164.760	170.168	330.334	170.364	-8191	255	
40492.906	1	1	0	0	0.077991	0.040166	0.062403	0.011102	0.15746	0.017596	0.23349	0.37669	0.27078	0.085316	0.26362	0.14092	0.11204	0.13559	0.028186	0.19044	-3.5438	-3.8396	-3.1229	-3.9208	-3.6937	-3.3042	-4.3667	-3.425	-3.7208	-4.0146	-3.2417	-3.9938	-3.8104	-3.3458	-4.0833	-3.6125	334.747	271.290	212.384	374.675	495.080	502.273	442.474	417.751	284.284	320.703	466.335	468.806	155.600	355.172	246.321	321.723	0.00053507	0.00068971	0.00012308	945.15	7.0355e-06	4.3502e-06	1391.5	274.41	5.2252e-06	5.6996e-06	502.11	159.32	70.12	18.503	9.3652e-06	57.067	0.0011139	0.0011691	0.00032736	913.13	1.2749e-05	1.2841e-05	1336.4	266.26	1.2619e-05	1.2746e-05	485.44	155.47	69.843	18.995	1.2508e-05	56.177	225.462	189.048	315.102	157.144	243.563	234.616	157.737	160.935	280.314	308.332	161.124	165.781	164.638	169.648	272.028	170.988	-8191	255	
40493.004	1	1	0	0	0.14271	0.25309	0.16224	0.16651	0.074846	0.13282	0.2293	0.11705	0.083107	0.20851	0.18712	0.22329	0.20273	0.021654	0.14691	0.14742	-3.175	-4.1354	-3.1729	-3.9479	-3.8063	-3.1458	-4.2083	-3.6771	-3.4896	-4.1229	-3.5458	-3.7958	-3.9542	-3.2458	-4.1104	-3.7062	146.722	435.573	326.009	442.032	375.213	494.861	435.558	367.819	240.016	145.198	158.629	495.094	159.670	365.949	433.752	211.169	0.00055382	0.0007401	0.0002836	949.71	7.925e-06	2.994e-06	1390.1	277.37	1.763e-06	3.4344e-07	500.48	159.24	70.496	18.474	7.1302e-06	57.105	0.0010685	0.0011288	0.0003175	917.25	1.229e-05	1.2602e-05	1335	267.83	1.2228e-05	1.2421e-05	483.46	154.58	69.854	18.843	1.2032e-05	55.737	221.456	263.683	238.331	156.861	381.743	477.443	157.585	160.904	372.933	404.000	161.162	165.672	165.206	169.703	249.650	170.628	-8191	255	
40493.125	1	1	0	0	0.29757	0.05564	0.19173	0.3389	0.083379	0.1394	0.20023	0.20261	0.15413	0.1145	0.21591	0.3119	0.17902	0.071708	0.095808	0.13369	-2.9646	-4.0042	-3.3458	-3.6437	-3.8479	-3.3604	-4.2417	-3.7646	-3.4417	-4.0208	-3.4833	-3.7062	-3.9979	-3.1708	-3.8375	-3.6646	342.255	190.037	339.412	459.693	309.548	349.033	417.972	320.470	248.955	400.713	478.374	406.500	449.887	379.968	294.513	416.212	0.00056185	0.0006675	0.00011979	964.87	2.613e-06	1.3318e-06	1408.1	279.57	2.4575e-06	6.9719e-06	505.33	158.26	70.829	18.562	9.8843e-07	56.378	0.0010342	0.0010792	0.00030555	929.95	1.1992e-05	1.2627e-05	1348.1	271.94	1.3343e-05	1.4097e-05	487.79	155.18	71.192	19.139	1.4033e-05	55.656	227.762	261.055	188.445	157.133	371.656	290.107	157.227	160.912	265.564	344.213	160.903	165.791	164.840	170.198	248.393	170.329	-8191	255	
40493.195	1	1	0	0	0.29768	0.14955	0.10659	0.14286	0.26955	0.18292	0.044595	0.058009	0.15668	0.21946	0.048355	0.098604	0.20153	0.066965	0.12678	0.048098	-2.7979	-4.0563	-3.2979	-3.6604	-4.0813	-3.1979	-4.1083	-4.0354	-3.2979	-4.1292	-3.5979	-3.6625	-3.9813	-3.1083	-3.8333	-3.9521	485.299	157.611	206.509	476.068	416.389	195.349	220.537	368.095	207.657	475.154	441.222	462.991	383.672	417.347	354.075	255.405	0.0005861	0.00084708	9.7486e-05	984.99	8.0013e-06	7.3431e-06	1424.7	286.71	7.5501e-06	8.4765e-06	509.19	159.35	71.608	18.711	1.1518e-05	56.663	0.001179	0.0012435	0.00035471	954.38	1.3395e-05	1.37e-05	1368.1	278.16	1.3592e-05	1.3628e-05	492.84	155.46	72.192	19.277	1.3367e-05	55.704	225.460	261.747	271.629	157.102	370.215	232.274	157.555	161.028	265.444	296.195	161.145	165.766	165.132	169.883	328.974	170.584	-8191	255	
40493.293	1	1	0	0	0.055636	0.05829	0.20176	0.20188	0.19678	0.18292	0.28156	0.091373	0.21374	0.14562	0.072252	0.17918	0.30625	0.13873	0.13941	0.21226	-2.9646	-3.8438	-3.2438	-3.6458	-3.9354	-3.4	-4.0104	-3.9271	-3.3292	-4.0125	-3.7208	-3.55	-4.1417	-3.3438	-3.825	-3.9938	475.468	376.761	148.827	466.259	222.353	416.824	443.634	448.683	205.283	257.657	463.720	426.266	409.384	458.058	280.349	424.908	0.00049988	0.0010032	0.00020396	1017.1	6.0192e-06	3.0699e-06	1439	293.14	6.3651e-06	8.5322e-06	515.77	160.31	72.767	19.013	2.967e-06	56.624	0.0011455	0.0012167	0.00033552	980.77	1.3303e-05	1.343e-05	1385.2	283.37	1.3244e-05	1.3405e-05	497.42	156.26	73.049	19.434	1.3228e-05	55.718	225.105	227.943	292.146	157.125	286.174	330.667	157.477	160.986	311.004	369.825	161.202	165.875	164.953	170.218	358.254	170.236	-8191	255	
40493.414	1	1	0	0	0.2062	0.10691	0.090148	0.26586	0.018831	0.2257	0.25368	0.19388	0.13615	0.078172	0.13902	0.27125	0.10844	0.4448	0.14763	0.18204	-2.9062	-3.9313	-3.5479	-3.3458	-3.9375	-3.3521	-3.8792	-3.9896	-3.2125	-3.8625	-3.6896	-3.4562	-3.9896	-3.5062	-3.4875	-4.0729	238.140	476.373	334.274	460.686	367.579	177.675	473.514	448.388	438.711	265.176	348.096	437.373	162.409	428.994	271.315	450.616	0.00049773	0.0014848	4.3706e-05	1022	1.0361e-05	8.4381e-06	1441.9	288.76	4.9747e-06	5.1158e-06	513.37	160.28	72.544	18.814	2.8952e-06	56.769	0.0011441	0.0012045	0.00033444	983.86	1.3347e-05	1.3353e-05	1382.5	280.98	1.3295e-05	1.3399e-05	494.02	156.21	72.446	19.356	1.3017e-05	55.854	229.009	162.841	310.563	156.982	291.116	334.560	157.510	160.773	290.510	311.559	160.948	165.718	165.166	170.079	285.477	170.944	-8191	255	
40493.508	1	1	0	0	0.067243	0.30163	0.26813	0.32894	0.15457	0.063048	0.10757	0.21573	0.1204	0.14691	0.14545	0.12491	0.059331	0.057822	0.35523	0.11897	-2.7917	-3.9771	-3.5438	-3.3937	-4.2021	-3.5208	-3.5104	-4.225	-3.2292	-3.7771	-3.875	-3.3583	-4.0458	-3.45	-3.5375	-4.1542	328.757	502.964	493.856	454.612	477.392	235.654	180.140	467.561	250.425	502.586	415.620	186.594	257.940	451.624	215.421	306.121	0.00051023	0.0006309	0.00016364	1009.1	1.3069e-05	8.0345e-06	1435.5	285.75	5.7661e-06	1.1735e-05	510.64	160.31	72.505	18.951	6.3311e-06	56.93	0.0011198	0.00118	0.00032791	974	1.2994e-05	1.3005e-05	1376.6	278.6	1.2988e-05	1.297e-05	492.29	156.41	72.173	19.367	1.2602e-05	56.059	226.028	175.173	194.909	157.360	314.346	321.975	157.226	161.063	309.683	238.261	161.298	165.579	164.799	169.840	399.659	170.742	-8191	255	
40493.602	1	1	0	0	0.20944	0.10884	0.32884	0.32873	0.036644	0.44145	0.2096	0.15686	0.26173	0.066208	0.18793	0.037718	0.064231	0.11047	0.039019	0.20371	-3.0729	-3.5583	-3.9125	-3.2896	-3.9542	-3.6146	-3.6063	-4.1771	-3.2208	-3.8042	-3.9542	-3.3542	-3.9542	-3.625	-3.3396	-4.0062	295.207	175.885	406.792	500.227	157.036	255.987	376.362	392.904	295.484	473.248	473.143	270.300	395.326	326.422	236.138	426.172	0.00050681	0.0012749	0.00034636	1012.6	8.4619e-06	5.638e-07	1432.9	288.27	3.5464e-06	9.804e-06	509.7	159.38	71.912	18.718	1.1133e-05	56.776	0.0011186	0.0011777	0.00032318	974.62	1.2767e-05	1.2794e-05	1375.7	279.78	1.2763e-05	1.299e-05	492.49	155.78	71.917	19.252	1.3137e-05	55.819	220.030	219.218	216.440	157.125	357.620	244.539	157.500	161.038	352.025	286.430	161.213	165.825	164.756	169.493	231.318	170.399	-8191	255	
40493.699	1	1	0	0	0.19193	0.071448	0.18824	0.097457	0.11247	0.19802	0.41115	0.30421	0.23017	0.082409	0.12829	0.099226	0.15803	0.2374	0.27443	0.26467	-3.0708	-3.5729	-3.9813	-3.2375	-3.8812	-3.6375	-3.5812	-4.1771	-3.3812	-3.7083	-4.2063	-3.2313	-3.8563	-3.8542	-3.2646	-4.0542	337.129	402.037	388.577	204.919	253.873	354.667	465.076	494.254	495.718	223.917	285.021	144.312	201.079	460.742	343.191	161.872	0.00054065	0.0011208	9.9307e-05	1000.9	5.8488e-06	1.4029e-06	1431.9	284.62	5.4868e-06	7.7386e-06	508.11	159.47	72.62	18.664	6.9147e-06	56.311	0.0011161	0.0011972	0.0003298	969.03	1.2813e-05	1.3012e-05	1373.3	277.23	1.2832e-05	1.2891e-05	491.06	155.33	72.23	19.174	1.3084e-05	55.443	228.468	287.074	244.272	157.146	270.152	349.640	157.490	160.780	302.666	274.069	161.279	165.604	164.901	169.937	147.747	170.613	-8191	255	
40493.797	1	1	0	0	0.19312	0.1479	0.2423	0.37215	0.17024	0.27977	0.10213	0.24856	0.080893	0.1889	0.13813	0.11805	0.17803	0.15829	0.159	0.081129	-3.0646	-3.3958	-3.9875	-3.1917	-3.6562	-3.8187	-3.4292	-4.1125	-3.4313	-3.575	-4.1479	-3.2604	-3.7625	-3.9062	-3.0187	-4.1062	245.126	399.779	298.332	477.082	384.976	179.285	450.754	427.054	401.380	238.441	429.600	218.137	468.247	312.769	232.479	424.732	0.0005063	0.00047123	0.00025417	1008.4	3.0802e-06	1.1164e-05	1425.9	285.97	6.5276e-06	1.9328e-06	505.69	157.43	71.597	18.688	3.0577e-06	56.464	0.001117	0.0011776	0.00033928	973.7	1.2946e-05	1.3301e-05	1373.9	278.23	1.3114e-05	1.3242e-05	489.81	154.49	71.493	19.21	1.3693e-05	55.628	227.754	234.907	206.894	156.938	305.233	292.255	157.577	160.735	304.655	159.169	161.095	165.610	164.526	169.378	430.903	170.901	-8191	255	
40493.891	1	1	0	0	0.24169	0.12198	0.23896	0.21138	0.2102	0.093287	0.37641	0.092673	0.33885	0.11311	0.26307	0.15174	0.14616	0.10885	0.13916	0.28567	-3.2521	-3.4313	-4.0333	-3.4667	-3.6688	-3.8333	-3.4813	-4.1792	-3.4833	-3.3896	-4.1188	-3.2792	-3.6	-3.9938	-3.3104	-4.0792	187.774	381.961	354.137	433.216	177.727	219.278	434.319	388.848	455.832	360.436	448.512	454.334	230.317	183.311	180.579	404.322	0.00051781	0.00052008	0.00019403	997.41	4.542e-06	6.3945e-06	1420.5	282.16	3.7501e-06	4.6982e-06	502.62	158.85	70.317	18.615	1.7016e-06	56.429	0.0011375	0.0012244	0.00034525	962.53	1.3169e-05	1.3782e-05	1364.5	273.86	1.3481e-05	1.3776e-05	487.12	155.09	70.592	19.196	1.3787e-05	55.798	228.689	249.184	170.913	157.181	282.648	313.941	157.141	160.864	340.277	212.617	161.323	165.582	164.647	169.426	242.601	170.314	-8191	255	
40494.012	1	1	0	0	0.21161	0.054864	0.029471	0.17508	0.20159	0.15357	0.21992	0.28081	0.3993	0.095229	0.072563	0.20358	0.34918	0.24764	0.096139	0.16309	-3.1354	-3.1562	-3.9938	-3.4667	-3.5229	-3.9479	-3.5771	-3.8979	-3.7042	-3.3	-4.1271	-3.4354	-3.7354	-4.0708	-3.2625	-3.9125	470.643	409.637	250.297	484.951	311.202	384.488	461.175	407.306	316.304	379.204	404.623	450.253	388.061	374.494	180.302	208.656	0.00050871	0.00029639	0.00029365	990.9	2.6453e-06	5.0478e-06	1413.6	281.21	1.611e-06	4.7861e-06	504.99	158.85	70.426	18.805	6.3998e-06	56.963	0.0011321	0.0012178	0.00034742	951.57	1.3035e-05	1.3481e-05	1359.8	273.44	1.3047e-05	1.3488e-05	487.92	155	70.951	19.235	1.3402e-05	55.958	237.521	500.674	257.861	157.335	310.931	271.035	157.407	160.436	358.958	288.537	161.307	165.450	164.602	169.406	443.120	170.439	-8191	255	
40494.109	1	1	0	0	0.18287	0.14212	0.17761	0.092768	0.18812	0.076164	0.17887	0.20228	0.14893	0.071585	0.29155	0.16792	0.066362	0.26	0.12462	0.23578	-3.4625	-3.1792	-4.1083	-3.6167	-3.4917	-3.9979	-3.4479	-3.9708	-3.8208	-3.0687	-4.2771	-3.7375	-3.5042	-4.1354	-3.3417	-3.6479	375.666	212.294	387.780	422.559	321.588	485.881	440.824	155.188	475.596	172.627	417.358	487.598	251.070	281.130	407.587	415.145	0.00053563	0.00067785	0.00016907	994.31	3.467e-06	4.0253e-06	1412.5	281.51	9.3675e-06	8.799e-06	507.96	160.85	72.14	19.124	3.9659e-06	58.294	0.0011392	0.0012232	0.00034011	954.85	1.3121e-05	1.354e-05	1359	273.82	1.3261e-05	1.3589e-05	490.27	157.17	71.748	19.598	1.3134e-05	57.329	216.132	244.163	496.170	156.887	479.582	240.597	157.415	160.656	288.566	225.221	161.387	165.642	164.885	169.799	431.947	170.408	-8191	255	
40494.203	1	1	0	0	0.12219	0.095014	0.14519	0.11847	0.21968	0.17407	0.20587	0.17704	0.17028	0.24781	0.059947	0.14266	0.18096	0.055385	0.27007	0.30016	-3.5271	-3.0729	-3.9125	-3.8625	-3.4542	-4.0396	-3.5646	-3.9	-3.8187	-3.2646	-4.0917	-3.8688	-3.3167	-4.0271	-3.4125	-3.7104	388.605	191.240	204.476	487.662	245.675	410.543	446.255	175.729	338.540	413.100	342.267	157.093	325.065	311.513	478.045	461.358	0.00057113	0.00025161	0.00010313	979.14	8.4184e-06	4.627e-06	1406.4	281.71	1.8292e-06	2.2749e-06	504.48	161.75	71.528	19.106	8.0457e-06	58.437	0.0011324	0.0011996	0.00032911	943.06	1.2918e-05	1.3325e-05	1349.8	273.07	1.2985e-05	1.3275e-05	489.02	157.81	71.673	19.589	1.31e-05	57.185	221.779	174.762	310.562	157.050	288.211	268.578	157.427	160.782	346.777	458.360	161.186	165.998	164.489	170.070	301.653	170.531	-8191	255	
40494.301	1	1	0	0	0.12775	0.247	0.15193	0.064933	0.14617	0.1977	0.43305	0.176	0.1164	0.24581	0.37194	0.24923	0.30534	0.10627	0.17312	0.37491	-3.4979	-3.2729	-3.7708	-3.8708	-3.3604	-4.0521	-3.55	-3.6917	-3.8979	-3.2771	-3.8812	-3.9042	-3.2083	-4.1062	-3.525	-3.5646	275.453	247.734	431.026	200.153	350.509	191.230	496.436	490.931	351.599	435.453	466.974	393.331	208.869	192.659	243.440	416.891	0.00054729	0.0010399	0.0002135	970.98	5.9702e-06	2.3035e-06	1395.1	281.64	4.8243e-06	8.2892e-06	507.45	161.98	71.645	19.295	4.3929e-06	58.045	0.0011222	0.0011784	0.00032354	935.67	1.2838e-05	1.3094e-05	1345	273.22	1.3018e-05	1.3013e-05	489.22	157.47	71.992	19.698	1.2919e-05	57.011	217.518	250.579	231.436	157.238	191.073	307.115	157.750	160.608	260.279	495.648	161.202	165.752	164.805	169.845	305.044	170.392	-8191	255	
40494.422	1	1	0	0	0.1292	0.14234	0.075494	0.14633	0.10353	0.26971	0.16785	0.18958	0.087741	0.20874	0.25852	0.021038	0.0933	0.20941	0.24763	0.15762	-3.7333	-3.1646	-3.7562	-3.9021	-3.3521	-4.2229	-3.8063	-3.4604	-4.0104	-3.3771	-3.6917	-3.9896	-3.325	-3.8646	-3.55	-3.3396	222.285	211.453	200.828	483.540	273.275	146.063	428.300	447.454	410.980	373.291	160.896	470.475	437.364	251.190	440.008	422.579	0.00058588	0.00046082	0.00017304	976	8.6396e-06	3.9361e-06	1399.3	282.99	4.7159e-06	5.5616e-06	504.92	161.01	72.143	19.056	9.4684e-06	58.62	0.0011255	0.0011794	0.00032593	941.71	1.2929e-05	1.3183e-05	1346.7	274.05	1.3163e-05	1.3257e-05	488.84	157.44	72.032	19.629	1.2918e-05	57.247	222.911	248.056	180.517	157.102	278.137	231.684	157.490	160.742	247.175	227.783	161.032	165.917	164.745	170.004	217.294	170.643	-8191	255	
40494.492	1	1	0	0	0.23048	0.11485	0.45042	0.13033	0.15802	0.1448	0.13115	0.16658	0.14054	0.080691	0.11547	0.060989	0.16322	0.088219	0.23629	0.27823	-3.7896	-3.4292	-3.5708	-3.9583	-3.0583	-3.9729	-3.9938	-3.5938	-4.0687	-3.4625	-3.7083	-4.05	-3.2438	-3.8229	-3.7542	-3.225	196.289	321.408	455.342	422.216	475.501	330.318	369.822	457.332	380.974	203.539	461.540	232.632	426.096	479.784	419.759	435.041	0.00056923	4.4048e-05	7.8153e-05	967.53	2.71e-06	5.3976e-06	1398	279.51	3.0774e-06	4.2547e-06	504.37	162.01	71.652	19.143	6.2664e-06	58.243	0.0011361	0.0011892	0.00033265	935.69	1.3057e-05	1.3034e-05	1346.8	272.16	1.3178e-05	1.2957e-05	487.5	158.12	71.809	19.571	1.3153e-05	57.208	227.647	199.102	229.730	157.410	261.608	255.157	157.578	160.930	297.246	279.391	161.108	165.856	164.751	170.240	307.044	170.345	-8191	255	
40494.590	1	1	0	0	0.2717	0.13048	0.062685	0.28367	0.11616	0.24736	0.16823	0.27869	0.043302	0.10849	0.28954	0.11036	0.18841	0.093083	0.16704	0.16498	-3.7354	-3.5479	-3.5438	-4.1562	-3.1417	-3.9875	-3.9542	-3.2396	-4.0146	-3.6917	-3.4646	-4.1479	-3.0604	-3.6688	-3.7583	-3.3333	218.948	379.228	151.145	446.648	322.597	260.848	457.143	500.783	408.446	317.258	450.769	204.332	210.357	368.526	190.928	275.118	0.00065278	0.00060285	1.1876e-05	976.21	6.5018e-06	5.3135e-06	1408.2	281.08	1.5397e-06	6.4793e-06	503.99	160.67	71.894	19.073	5.1531e-06	58.028	0.001139	0.0011797	0.00033375	943.46	1.3006e-05	1.3279e-05	1348	273.28	1.3243e-05	1.3133e-05	488	157.33	71.892	19.523	1.323e-05	56.946	227.650	251.041	395.241	157.258	296.517	228.508	157.421	160.925	417.196	366.025	161.048	165.930	165.072	169.751	161.067	170.017	-8191	255	
40494.684	1	1	0	0	0.16622	0.018023	0.19858	0.28102	0.35074	0.1274	0.14146	0.19278	0.039971	0.14997	0.11106	0.14477	0.20035	0.2072	0.1595	0.18137	-3.8896	-3.6646	-3.3083	-4.2146	-3.2375	-3.6562	-4.0625	-3.4062	-4.1854	-3.6562	-3.425	-4.0625	-3.3521	-3.5875	-4.0396	-3.3292	257.735	424.140	185.536	480.890	227.118	164.999	421.366	475.389	442.043	236.449	145.204	385.940	199.189	413.237	474.491	452.251	0.00049205	0.0002141	0.00025969	980.95	1.1997e-05	3.9583e-06	1407.1	282.64	4.6635e-06	6.7834e-06	507.07	161.79	72.414	19.103	3.5742e-06	58.446	0.0011317	0.0011742	0.00033347	945.07	1.2917e-05	1.2951e-05	1353.6	274.97	1.2978e-05	1.304e-05	489.32	157.81	72.287	19.623	1.3104e-05	57.37	208.238	213.351	224.417	157.183	275.711	218.494	157.646	160.631	297.191	256.418	161.173	165.583	165.071	169.833	250.147	170.681	-8191	255	
40494.781	1	1	0	0	0.035279	0.098262	0.18635	0.08664	0.025836	0.056943	0.36601	0.2966	0.24531	0.24781	0.19998	0.27529	0.2216	0.079594	0.068105	0.017578	-3.7021	-3.6	-3.3333	-4.3104	-3.2104	-3.6167	-4.2542	-3.4042	-3.9104	-3.75	-3.4667	-4.1667	-3.4833	-3.5417	-3.8896	-3.275	224.133	403.985	494.745	214.698	446.001	165.145	456.778	415.658	428.486	245.833	416.467	155.189	149.101	313.075	209.430	421.201	0.00058161	0.00042625	0.00022838	989.24	3.3566e-06	5.0098e-06	1417.7	284.94	5.6605e-06	6.2683e-06	509.54	162.36	72.434	19.208	4.1305e-06	57.968	0.0011263	0.0011821	0.00033651	954.84	1.2841e-05	1.2992e-05	1359	276.41	1.2792e-05	1.3068e-05	491.55	157.8	72.291	19.667	1.3463e-05	57.076	222.137	188.508	248.447	156.819	455.061	289.534	157.399	160.781	332.888	304.993	161.091	165.774	164.680	169.966	352.787	170.511	-8191	255	
40494.898	1	1	0	0	0.087061	0.1568	0.21176	0.15455	0.19966	0.093822	0.21579	0.036108	0.15874	0.23291	0.14846	0.070957	0.08524	0.26521	0.16058	0.3401	-3.5646	-3.7687	-3.1562	-4.2312	-3.5542	-3.5354	-4.15	-3.3479	-3.7438	-3.8521	-3.3937	-4.2375	-3.5187	-3.4104	-4.2125	-3.3229	278.021	241.843	489.617	443.199	374.513	243.672	437.649	474.111	259.226	397.021	443.411	212.204	397.276	163.475	378.551	475.464	0.00049256	0.00024524	3.865e-05	1003.1	5.6473e-06	3.5886e-06	1419.9	287.69	2.6669e-06	8.7955e-06	510.77	161.54	72.822	19.241	5.677e-06	58.02	0.0011141	0.0011886	0.00033573	966.54	1.2924e-05	1.3194e-05	1364.4	279.46	1.3095e-05	1.3238e-05	493.97	157.99	72.556	19.704	1.3204e-05	57.207	227.242	311.679	293.316	157.134	340.848	266.760	157.522	160.761	296.991	267.047	161.135	165.740	164.958	170.079	304.768	170.480	-8191	255	
40494.996	1	1	0	0	0.27023	0.16672	0.19153	0.0038003	0.17551	0.19816	0.30622	0.24735	0.25512	0.11147	0.081255	0.24192	0.10046	0.14799	0.10653	0.12809	-3.25	-3.9229	-3.1708	-4.1292	-3.7333	-3.2396	-4.1083	-3.4708	-3.6333	-4.0229	-3.2583	-3.9417	-3.6688	-3.2458	-4.0229	-3.4229	372.469	261.975	175.036	395.491	446.788	264.807	440.203	496.122	365.899	319.871	254.969	456.189	348.127	234.211	411.178	234.903	0.00061735	0.0012107	0.00018268	1009.5	3.7983e-06	4.8553e-06	1426.4	290.15	6.4495e-06	7.4931e-06	511.2	162.21	72.967	19.287	6.3518e-06	58.19	0.0011297	0.0012201	0.00033758	973.72	1.3055e-05	1.3501e-05	1372.3	281.53	1.3117e-05	1.3833e-05	495.3	157.82	72.903	19.699	1.3728e-05	57.006	219.429	193.507	241.729	157.393	332.232	279.641	157.710	160.999	235.209	415.264	161.447	165.949	164.858	169.926	301.391	170.756	-8191	255	
40495.094	1	1	0	0	0.12312	0.13221	0.11263	0.13278	0.076108	0.10229	0.31354	0.02303	0.057713	0.10147	0.085057	0.12701	0.29816	0.042525	0.30699	0.159	-3.2833	-4.0563	-3.1063	-4.0375	-3.7146	-3.2771	-4.2646	-3.3667	-3.575	-3.9333	-3.3146	-3.8833	-3.7708	-3.2812	-3.9042	-3.5708	498.112	499.809	316.269	241.804	398.242	333.715	434.571	472.782	364.963	489.764	365.772	191.111	397.938	162.521	212.098	150.020	0.00051018	0.00084007	0.00017811	1000.8	9.5839e-06	7.2944e-06	1427	288.1	2.0278e-06	3.4422e-06	511.41	161.63	72.487	19.233	7.0009e-06	58.581	0.0011627	0.001242	0.00034585	968.12	1.1919e-05	1.1735e-05	1366.1	278.62	1.1287e-05	1.1429e-05	492.29	156.71	72.038	19.493	1.1223e-05	56.812	231.872	472.075	272.333	156.805	286.492	249.944	157.620	160.913	392.683	225.109	161.187	165.800	164.595	169.673	230.200	170.333	-8191	255	
40495.188	1	1	0	0	0.15154	0.11432	0.27557	0.1458	0.34401	0.13084	0.29399	0.22015	0.095185	0.050664	0.16213	0.15454	0.089215	0.042104	0.16457	0.18997	-2.9917	-4.0875	-3.0583	-3.7917	-3.7771	-3.0146	-4.125	-3.6083	-3.425	-3.9896	-3.625	-3.8354	-4.0687	-3.0167	-3.9125	-3.6458	155.910	392.678	258.650	471.331	471.179	169.763	446.610	496.380	336.044	439.622	318.613	440.688	213.534	440.773	414.103	150.697	0.00058594	0.00071123	9.7735e-05	1006.9	3.4684e-06	5.5877e-06	1422.2	288.55	3.8843e-06	8.7396e-06	509.77	162.06	72.243	19.162	6.9614e-06	57.837	0.00097211	0.0010211	0.00028478	967.3	1.1244e-05	1.1443e-05	1363.9	278.32	1.1293e-05	1.1576e-05	491.75	157.23	71.78	19.504	1.1393e-05	56.848	224.906	198.462	159.305	157.112	269.534	335.981	157.409	161.059	312.639	265.822	161.094	165.497	165.008	170.060	272.142	170.852	-8191	255	
40495.285	1	1	0	0	0.29093	0.078513	0.049684	0.45385	0.044145	0.07427	0.245	0.12759	0.18559	0.31867	0.092308	0.27024	0.19058	0.1798	0.16531	0.058362	-3.0208	-4.1208	-3.2875	-3.7188	-3.7313	-3.2333	-4.2125	-3.6854	-3.1958	-4.0271	-3.5542	-3.475	-4.0062	-3.2917	-3.925	-3.9792	206.250	481.879	362.267	466.555	193.015	406.412	469.407	434.313	293.553	369.769	345.630	434.518	475.421	432.695	156.913	330.234	0.00051717	0.00017855	0.00014346	998.54	9.9355e-06	9.2598e-06	1414.1	284.47	4.797e-06	3.4215e-06	510.33	162.02	72.554	19.115	5.5651e-06	57.987	0.00099098	0.0010485	0.00029153	960.39	1.1524e-05	1.1617e-05	1357.4	275.48	1.16e-05	1.1844e-05	490.54	157	71.59	19.357	1.1702e-05	56.63	224.926	159.445	222.097	157.214	310.184	324.345	157.450	160.764	246.521	426.459	160.968	165.967	164.701	170.141	223.509	170.317	-8191	255	
40495.383	1	1	0	0	0.12916	0.21033	0.050141	0.19951	0.17283	0.093343	0.07008	0.2995	0.25966	0.091907	0.15749	0.17039	0.20393	0.15031	0.032974	0.14198	-2.825	-3.9521	-3.5208	-3.6771	-4.0938	-3.3333	-4.2042	-4.0271	-3.3312	-3.975	-3.5354	-3.6792	-4.0083	-3.1958	-3.6688	-3.8729	159.766	166.158	245.028	395.417	480.603	218.014	180.059	478.036	336.450	472.009	436.652	427.977	464.401	348.616	288.864	436.042	0.00047993	0.00050964	0.00018559	988.99	5.1008e-06	5.3475e-06	1413.2	283.33	1.6217e-06	6.0185e-06	505.9	160.76	72.097	19.227	4.3363e-06	58.006	0.0010121	0.001057	0.0002925	954.12	1.1584e-05	1.1845e-05	1354.5	274.32	1.1532e-05	1.1868e-05	487.9	156	71.321	19.344	1.1753e-05	56.679	222.393	262.369	263.032	156.900	359.252	243.266	157.501	161.197	304.999	200.552	161.311	165.651	164.781	169.690	277.959	170.693	-8191	255	
40495.504	1	1	0	0	0.26324	0.067462	0.11368	0.19833	0.063556	0.21227	0.30969	0.06326	0.12716	0.06801	0.37004	0.20575	0.13639	0.1498	0.1394	0.22746	-2.8187	-4.0521	-3.4562	-3.5167	-3.9729	-3.3479	-3.9688	-4.0083	-3.2708	-3.8979	-3.8792	-3.6146	-4.1479	-3.3271	-3.6333	-4.0188	182.628	429.105	350.812	475.868	179.001	483.170	477.511	180.209	368.501	233.510	494.528	178.796	152.287	414.057	193.039	453.211	0.00047486	0.00041908	8.0586e-05	986.67	1.4619e-06	1.8188e-06	1406	282.55	3.2304e-06	1.0664e-06	503.04	159.39	71.042	18.875	6.5364e-07	57.735	0.0010264	0.0010519	0.00029734	947.42	1.1654e-05	1.1817e-05	1346.8	272.41	1.1873e-05	1.2052e-05	486.02	155.38	70.83	19.233	1.204e-05	56.53	218.023	263.724	253.481	157.011	296.921	391.533	157.469	160.894	222.432	190.612	161.377	165.706	165.319	169.788	349.407	170.394	-8191	255	
40495.598	1	1	0	0	0.13442	0.1547	0.035433	0.30786	0.19656	0.079028	0.30729	0.094465	0.18717	0.21152	0.17727	0.25267	0.31976	0.25755	0.31578	0.14284	-2.9125	-3.8667	-3.6771	-3.2854	-4.1438	-3.4146	-3.8792	-4.0375	-3.1833	-3.8854	-3.8417	-3.3292	-3.9667	-3.2542	-3.45	-4.0938	376.121	457.472	300.896	171.506	381.688	313.318	422.626	487.099	443.075	348.932	408.805	205.892	437.696	485.961	260.938	449.979	0.00055974	0.00030597	7.8376e-05	971.26	4.0351e-06	3.7841e-06	1391.7	280.03	4.3294e-06	4.4767e-06	500.16	158.69	70.636	18.83	3.3787e-06	57.795	0.0010495	0.0010944	0.0003111	935.09	1.2004e-05	1.2059e-05	1337	270.16	1.2014e-05	1.2142e-05	483.34	154.67	70.453	19.146	1.2308e-05	56.549	213.297	374.440	191.099	157.185	261.783	327.987	157.494	161.020	298.459	340.886	161.503	165.854	164.322	169.717	382.509	170.727	-8191	255	
40495.695	1	1	0	0	0.061	0.11307	0.082344	0.11639	0.19104	0.13164	0.28154	0.32086	0.1154	0.17009	0.48004	0.10089	0.1746	0.18551	0.11954	0.1749	-2.5958	-3.6208	-3.6312	-3.3271	-3.8417	-3.3042	-3.4167	-4.0583	-3.1958	-3.5583	-3.8771	-3.3021	-3.9271	-3.3542	-3.1167	-4.0062	336.213	178.704	497.393	434.236	363.135	409.336	491.431	469.930	287.818	358.841	454.006	281.263	426.168	176.546	211.827	368.323	0.00064539	0.0009474	5.9561e-05	960.16	1.0463e-05	6.7615e-06	1379.3	276.25	3.1208e-06	4.7802e-06	500.32	159.7	70.006	18.627	8.5305e-06	57.636	0.0010524	0.0010958	0.00031215	925.29	1.2189e-05	1.2385e-05	1327.5	267.32	1.2523e-05	1.2687e-05	482.28	155.26	69.828	19.094	1.2591e-05	56.577	221.657	263.273	160.674	156.994	261.993	358.937	157.526	161.133	296.995	246.506	161.524	165.862	164.987	170.258	239.240	170.601	-8191	255	
40495.789	1	1	0	0	0.068931	0.15823	0.12259	0.23691	0.25152	0.099574	0.20119	0.13384	0.10948	0.10745	0.17417	0.20152	0.1624	0.22182	0.04068	0.16069	-2.85	-3.3937	-3.8167	-3.0667	-3.8583	-3.375	-3.4792	-4.0792	-3.1354	-3.4562	-3.9396	-3.1833	-3.7687	-3.5042	-3.0812	-3.8937	209.947	499.912	424.107	460.623	261.098	492.066	416.697	484.271	474.536	366.544	162.557	443.379	162.189	499.434	485.324	363.581	0.00057076	0.00072385	7.2662e-05	944.66	8.0161e-06	4.3515e-06	1377.7	273.73	3.9567e-06	7.5164e-06	499.56	159.68	70.16	18.933	4.2947e-06	57.568	0.001075	0.001139	0.00032032	912.69	1.234e-05	1.2543e-05	1322.3	265.77	1.2425e-05	1.267e-05	482	155.55	70.103	19.317	1.2513e-05	56.864	225.327	259.965	250.473	156.899	345.016	340.124	157.363	160.809	175.431	185.570	161.358	165.904	164.918	170.293	334.049	170.519	-8191	255	
40495.887	1	1	0	0	0.12115	0.41054	0.18857	0.020588	0.34298	0.19685	0.12732	0.074386	0.24021	0.13703	0.11767	0.097699	0.12012	0.021745	0.30752	0.19145	-2.8375	-3.3292	-3.925	-3.1604	-3.65	-3.5958	-3.3396	-4.05	-3.1813	-3.25	-4.075	-3.2271	-3.7625	-3.6271	-3.0104	-4.1625	154.381	313.289	143.075	343.279	266.928	398.729	409.676	431.767	150.123	440.798	454.432	236.562	371.666	383.091	179.826	442.081	0.00051011	0.00017077	0.00015262	944.28	3.5037e-06	4.5854e-06	1369.4	274.78	5.601e-06	5.1913e-06	496.91	160.71	69.594	18.695	1.1961e-05	58.471	0.0010775	0.0011484	0.00031718	910.07	1.2402e-05	1.2544e-05	1314.3	265.34	1.2478e-05	1.27e-05	481.77	156.4	69.881	19.258	1.3072e-05	57.35	210.487	192.747	242.166	157.332	265.124	378.193	157.442	160.884	337.932	231.139	161.419	165.791	165.092	169.958	316.400	170.730	-8191	255	
40495.980	1	1	0	0	0.23021	0.082806	0.14226	0.24615	0.05065	0.083674	0.36875	0.17725	0.19769	0.20189	0.25664	0.089213	0.050585	0.057827	0.10967	0.061774	-2.9979	-3.3896	-3.9729	-3.2646	-3.6188	-3.7083	-3.0958	-3.9729	-3.5312	-3.3375	-3.8896	-3.35	-3.3521	-3.9104	-3.1875	-3.9979	318.119	384.273	199.460	397.523	475.077	314.231	432.484	463.193	500.715	163.574	499.517	365.296	148.131	396.822	238.379	381.983	0.00057836	0.00064289	0.00015525	924.67	3.6428e-06	3.6604e-06	1359	266.34	4.5683e-06	2.9879e-06	494.09	159.82	68.592	18.599	9.0016e-06	57.825	0.0011358	0.0011941	0.00034413	892.16	1.3273e-05	1.3601e-05	1302.7	259.76	1.3486e-05	1.3689e-05	477.93	155.94	69.382	19.114	1.3532e-05	56.819	225.916	242.643	250.783	157.347	267.292	304.822	157.587	161.027	299.547	225.177	161.007	166.051	165.169	170.131	280.597	170.448	-8191	255	
40496.102	1	1	0	0	0.12079	0.26456	0.12107	0.21808	0.049999	0.30404	0.27164	0.22809	0.17997	0.1495	0.16103	0.28442	0.14904	0.21536	0.20914	0.10146	-3.0563	-3.1479	-3.9229	-3.4188	-3.6125	-3.8375	-3.2458	-3.9938	-3.6042	-3.0771	-4.0687	-3.3604	-3.3792	-3.8104	-3.0875	-3.8333	233.299	333.975	468.609	471.957	500.704	209.347	435.937	373.170	389.421	363.904	387.239	488.653	363.516	433.697	494.194	474.768	0.00059394	0.0012763	0.00012511	903.04	3.423e-06	3.0552e-06	1342.1	265.83	1.2393e-05	6.0249e-06	491.91	157.36	69.14	18.451	4.4221e-06	57.15	0.0011447	0.0012297	0.00034193	872.22	1.3007e-05	1.3022e-05	1292.2	258.68	1.2801e-05	1.3104e-05	474.93	153.72	68.804	18.746	1.2486e-05	55.957	231.034	225.710	283.035	157.206	392.514	281.478	157.471	160.954	293.426	344.361	161.710	165.642	164.553	170.030	333.481	170.472	-8191	255	
40496.195	1	1	0	0	0.032294	0.069283	0.062274	0.27089	0.13142	0.23538	0.40917	0.23464	0.098846	0.43117	0.25007	0.19238	0.31391	0.1785	0.25844	0.12072	-3.2521	-3.0646	-3.95	-3.4313	-3.2083	-3.8146	-3.2521	-3.6625	-3.775	-3.175	-4.0563	-3.5187	-3.3812	-3.8937	-3.0667	-3.6937	238.449	318.665	317.400	485.194	165.214	393.783	421.678	419.813	256.092	351.081	427.454	412.294	164.850	413.061	180.427	397.380	0.00065289	0.00011852	9.2744e-05	935.15	5.7793e-06	8.2394e-06	1361.8	272.04	4.1976e-06	4.484e-06	491.89	158.19	69.77	18.478	5.8875e-06	57.111	0.0010611	0.001124	0.00031148	899.48	1.207e-05	1.2157e-05	1307.4	264.47	1.2024e-05	1.2113e-05	478.07	153.78	69.253	18.886	1.227e-05	55.995	227.275	324.004	248.969	157.024	261.820	299.543	157.570	160.956	307.790	226.927	161.573	165.837	165.025	170.038	222.995	170.124	-8191	255	
40496.293	1	1	0	0	0.10024	0.04546	0.28247	0.22941	0.16902	0.10624	0.19845	0.18231	0.16934	0.15284	0.20588	0.3178	0.31952	0.11556	0.25476	0.10329	-3.3812	-2.9792	-3.8104	-3.5854	-3.2	-3.9396	-3.3	-3.6562	-3.9333	-3.1396	-3.8937	-3.5667	-3.3667	-3.9417	-3.2479	-3.5479	344.425	353.671	319.795	469.451	494.746	263.622	496.751	450.708	190.058	490.740	360.929	432.504	446.821	419.552	448.677	277.195	0.00052741	0.0012152	0.00011606	947.4	9.8938e-06	7.4931e-06	1367.1	273.81	5.3334e-06	9.7545e-06	501.41	159.28	70.434	18.931	6.2941e-06	58.339	0.0010432	0.0011118	0.00031074	914.8	1.188e-05	1.2235e-05	1317.7	265.68	1.1874e-05	1.1989e-05	482.07	155.67	70.076	19.233	1.1767e-05	56.881	225.297	210.609	232.676	157.208	301.296	147.872	157.532	161.133	279.187	269.448	161.618	165.838	164.908	169.886	294.186	170.832	-8191	255	
40496.363	1	1	0	0	0.22354	0.016496	0.27256	0.083026	0.141	0.070947	0.30629	0.18472	0.053139	0.23629	0.10202	0.16363	0.098573	0.1721	0.10487	0.35443	-3.5	-2.8792	-3.7	-3.6208	-3.2271	-4.0292	-3.4938	-3.5354	-4.0708	-2.9271	-3.6042	-3.7687	-3.3146	-3.8167	-3.1729	-3.2938	233.927	259.349	299.714	463.115	474.189	430.345	392.727	365.481	151.732	330.113	481.168	186.352	168.682	348.577	292.008	412.289	0.00061965	0.00091501	0.00011139	973.79	7.0419e-06	5.6333e-06	1383	277.46	5.6129e-06	7.075e-06	500.65	160.84	70.844	18.929	8.1609e-06	57.872	0.0010031	0.0010642	0.00029482	936.53	1.1493e-05	1.18e-05	1328.7	268.5	1.1676e-05	1.1822e-05	483.57	156.09	70.239	19.196	1.1681e-05	56.759	227.185	207.906	256.702	156.965	229.494	292.461	157.583	161.292	279.345	322.346	161.307	165.736	165.158	170.026	291.327	170.741	-8191	255	
40496.484	1	1	0	0	0.16033	0.26517	0.17569	0.2773	0.13643	0.12947	0.49978	0.16748	0.23073	0.042605	0.3029	0.17492	0.18247	0.038428	0.16041	0.19878	-3.4813	-3.2042	-3.5833	-3.7458	-2.9479	-3.8896	-3.4854	-3.3917	-3.9375	-3.0438	-3.6854	-3.8875	-3.1396	-3.8792	-3.4375	-3.2625	308.309	252.053	202.753	442.520	468.594	307.188	146.416	325.000	302.428	197.338	478.382	405.171	193.832	368.314	408.585	480.497	0.00053713	0.00039781	0.00013666	972.74	7.9137e-06	1.8512e-06	1379.6	275.73	4.5948e-06	6.7905e-06	499.56	159.07	70.439	18.671	5.8038e-06	57.407	0.0010154	0.0010483	0.000295	933.49	1.1416e-05	1.1445e-05	1324.4	267.2	1.1604e-05	1.1622e-05	481.29	155.01	69.855	19.018	1.1597e-05	56.203	222.262	204.638	493.807	157.223	325.153	440.771	157.561	160.309	322.722	288.122	161.140	166.126	164.766	169.547	291.718	170.587	-8191	255	
40496.578	1	1	0	0	0.22749	0.2253	0.10621	0.20496	0.13174	0.10197	0.32717	0.46976	0.096746	0.11981	0.24759	0.20053	0.10457	0.058879	0.090615	0.088512	-3.4354	-3.2396	-3.5438	-3.9646	-3.0625	-3.8417	-3.7667	-3.3271	-3.9271	-3.3167	-3.5521	-4.0729	-3.2125	-3.7208	-3.55	-3.1646	427.963	449.761	336.032	453.829	198.243	287.152	404.013	428.178	418.591	174.450	404.157	428.700	279.581	289.915	344.602	323.870	0.00055783	0.0005031	3.6936e-05	970.27	4.9787e-06	1.226e-05	1386	279.09	5.1819e-06	4.7031e-06	496.59	158.51	70.53	18.725	2.4006e-06	56.814	0.00099667	0.0010316	0.00029157	932.46	1.1397e-05	1.1343e-05	1325.5	268.33	1.1328e-05	1.1365e-05	479.95	153.65	69.669	18.929	1.11e-05	55.585	231.025	237.993	310.496	157.140	285.020	340.471	157.374	160.961	327.340	247.089	161.189	165.829	164.939	170.199	269.991	170.520	-8191	255	
40496.676	1	1	0	0	0.23609	0.19819	0.25401	0.15304	0.29474	0.23239	0.3007	0.02916	0.079734	0.098441	0.25193	0.23069	0.15224	0.25255	0.21356	0.13144	-3.5521	-3.1562	-3.2729	-4.1646	-3.125	-3.5938	-3.8708	-3.1917	-4.0354	-3.3729	-3.4354	-3.9708	-3.1479	-3.6562	-3.5646	-3.2333	307.639	488.256	206.348	424.496	257.812	239.164	445.615	176.001	343.338	213.700	501.284	495.449	401.005	283.501	483.063	389.727	0.00051588	0.0006594	8.2773e-05	994.7	1.3461e-06	6.1974e-06	1407.8	282.82	4.4157e-06	4.0838e-06	502.69	157.98	71.492	18.638	1.0571e-05	56.306	0.00095945	0.0010144	0.00028011	952.98	1.0936e-05	1.1067e-05	1342.8	273.53	1.0977e-05	1.1307e-05	483.2	153.16	70.553	18.983	1.1453e-05	55.202	227.654	194.490	214.280	157.017	287.864	296.315	157.703	160.885	295.020	258.433	161.068	165.739	165.203	169.712	309.351	170.351	-8191	255	
40496.773	1	1	0	0	0.12438	0.14311	0.15308	0.28452	0.058267	0.12639	0.10004	0.11871	0.20344	0.051772	0.15248	0.29361	0.022979	0.049033	0.063755	0.031789	-3.5812	-3.3667	-3.3208	-4.1354	-3.2146	-3.6625	-3.8146	-3.1833	-3.7125	-3.475	-3.3438	-3.8708	-3.1813	-3.45	-3.8625	-3.2292	502.765	445.821	212.230	405.743	379.120	391.432	484.270	233.886	223.073	249.747	425.399	492.192	149.855	496.975	201.733	193.925	0.00056133	0.00048913	4.8728e-05	991.26	6.1315e-06	3.4034e-06	1399.7	280.35	6.0927e-06	6.1466e-06	497.94	157.14	70.384	18.528	1.3476e-06	56.01	0.00099207	0.0010344	0.00028874	956.04	1.1326e-05	1.1542e-05	1338.9	271.82	1.1514e-05	1.1768e-05	479.73	152.81	69.835	18.85	1.1696e-05	55.167	220.597	254.108	296.541	157.207	266.958	411.834	157.565	161.058	287.880	270.770	161.098	165.827	165.104	170.060	493.905	170.791	-8191	255	
40496.895	1	1	0	0	0.11262	0.0512	0.13709	0.24648	0.17431	0.42131	0.23998	0.30351	0.048326	0.038845	0.069374	0.15831	0.10005	0.17297	0.1548	0.1772	-3.4771	-3.5917	-3.1312	-4.0542	-3.2333	-3.4104	-4.0625	-3.2146	-3.6708	-3.6729	-3.35	-4.0292	-3.3229	-3.3146	-3.9188	-3.025	419.744	447.936	362.904	501.504	488.819	412.856	399.833	446.286	234.743	302.757	155.146	169.107	431.092	464.176	331.014	455.131	0.00048025	0.00011619	0.00021209	981.41	6.5741e-06	5.4157e-06	1384.3	274.96	4.4215e-06	6.3789e-06	494.73	155.83	68.969	18.379	1.0475e-05	56.173	0.0010223	0.0010833	0.0002982	943.92	1.1883e-05	1.2175e-05	1328.7	267.2	1.2083e-05	1.2309e-05	475.24	151.84	68.863	18.655	1.2094e-05	54.805	225.183	305.018	247.435	156.976	303.497	436.933	157.593	161.011	296.447	314.409	160.927	166.011	164.971	170.616	301.741	170.606	-8191	255	
40496.965	1	1	0	0	0.07374	0.05949	0.40701	0.1753	0.11321	0.15917	0.098273	0.26918	0.22922	0.21512	0.32649	0.20477	0.19117	0.31807	0.14823	0.059414	-3.4104	-3.5979	-3.1333	-4.1417	-3.3021	-3.3833	-3.9521	-3.1437	-3.4958	-3.6458	-3.1854	-3.9875	-3.4375	-3.2313	-3.8708	-3.2562	328.469	173.311	400.056	409.564	447.299	336.850	488.507	447.321	177.159	181.504	412.307	492.821	190.257	168.297	230.492	474.745	0.00047489	0.00045392	6.4434e-05	974.47	1.1466e-05	2.9412e-06	1382.8	274.74	6.961e-06	9.1645e-06	495.11	155.39	68.799	18.387	2.2534e-06	56.196	0.0010304	0.0010965	0.00030292	940.35	1.1937e-05	1.2056e-05	1327.4	266.06	1.2086e-05	1.2144e-05	475.71	151.92	68.855	18.809	1.2371e-05	55.267	227.332	329.313	255.941	157.208	310.436	393.825	157.756	160.963	286.058	253.871	160.893	166.051	165.201	170.276	207.687	170.674	-8191	255	
40497.062	1	1	0	0	0.10388	0.13695	0.028368	0.29543	0.15883	0.14343	0.24281	0.30492	0.14125	0.068398	0.40123	0.037041	0.25886	0.13886	0.26928	0.29809	-3.225	-3.6188	-2.9896	-3.9521	-3.5604	-3.1875	-4.1229	-3.25	-3.5042	-3.7083	-3.1583	-3.775	-3.725	-3.5167	-3.9979	-3.3542	144.868	485.833	445.858	155.938	502.524	338.381	441.246	484.767	389.688	186.006	154.347	450.091	257.668	466.155	147.184	462.343	0.00049749	0.00056661	0.00015054	962.86	6.1163e-06	7.3731e-06	1372.6	270.71	4.583e-06	1.02e-05	489.7	155.39	68.637	18.395	9.7508e-06	55.934	0.0010577	0.0011073	0.00031208	926.92	1.2294e-05	1.2425e-05	1316.7	262.4	1.2357e-05	1.2489e-05	472.39	151.41	68.611	18.721	1.2164e-05	55.085	225.775	250.629	282.541	157.302	256.940	232.874	157.650	160.845	218.863	220.507	161.294	165.953	164.905	169.876	284.885	170.757	-8191	255	
40497.184	1	1	0	0	0.21661	0.11284	0.44105	0.22659	0.18699	0.12291	0.13445	0.26406	0.036902	0.10415	0.1579	0.24314	0.10815	0.1015	0.15396	0.2776	-3.2833	-3.8	-3.0771	-3.9458	-3.5146	-3.2396	-4.2292	-3.4313	-3.3583	-3.7229	-3.1479	-3.8292	-3.7458	-3.1083	-3.8979	-3.3979	174.795	205.608	156.598	450.081	493.187	190.506	418.782	442.164	256.364	491.915	468.046	465.221	431.537	343.837	444.597	459.530	0.00050771	0.00032006	0.00013901	946.97	4.8498e-06	7.1136e-06	1363.1	269.59	3.1653e-06	8.545e-06	489.33	154.66	67.918	18.405	4.3732e-06	55.681	0.0010448	0.0011179	0.000307	912.11	1.1952e-05	1.1987e-05	1311	261.43	1.1966e-05	1.2079e-05	472.28	151.27	68.315	18.673	1.1936e-05	54.762	231.748	253.351	320.194	157.177	272.249	253.231	157.337	160.848	288.272	358.893	161.197	165.924	164.859	169.331	300.065	170.648	-8191	255	
40497.277	1	1	0	0	0.11572	0.22864	0.10568	0.077807	0.099376	0.20069	0.051579	0.16699	0.21553	0.27857	0.29651	0.17998	0.10114	0.16344	0.046813	0.28337	-2.9667	-3.9688	-3.2188	-3.7208	-3.6771	-3.2521	-4.1375	-3.4479	-3.4	-3.9729	-3.3021	-3.5896	-3.8271	-3.1479	-3.8208	-3.6312	383.501	282.003	478.342	474.099	480.176	459.433	413.917	227.651	197.652	200.626	441.284	373.140	471.915	207.754	367.525	382.559	0.00042842	0.00043631	0.00019549	957.71	6.922e-06	7.5302e-06	1371.3	271.38	1.0147e-05	1.03e-05	486.38	155.78	68.811	18.249	7.6121e-06	55.684	0.0010309	0.0010756	0.00030085	921.35	1.1709e-05	1.1704e-05	1317.6	262.85	1.1952e-05	1.1976e-05	471.92	151.68	68.674	18.635	1.2095e-05	54.475	226.319	341.606	290.612	157.070	316.526	305.974	157.865	160.935	291.061	272.468	161.218	165.854	164.671	170.004	328.688	170.471	-8191	255	
40497.375	1	1	0	0	0.12551	0.25571	0.054366	0.045098	0.23887	0.32315	0.1203	0.3581	0.18044	0.10395	0.064522	0.1493	0.13804	0.18922	0.048862	0.10621	-3.0792	-3.9125	-3.2438	-3.4938	-3.7146	-2.9979	-3.9062	-3.5896	-3.1437	-3.975	-3.4938	-3.5667	-3.9979	-3.0333	-3.6417	-3.7271	389.589	199.015	447.627	419.630	476.418	173.333	241.065	460.794	483.092	308.749	397.595	365.967	172.418	169.316	214.439	351.657	0.00051471	4.7878e-05	0.00014045	957.88	8.588e-06	7.9326e-06	1378.5	273.06	2.5126e-06	4.2669e-06	486.11	150.36	67.325	17.528	9.0661e-06	52.351	0.0010225	0.0010762	0.0003041	927.18	1.1827e-05	1.1801e-05	1323.7	264.22	1.2042e-05	1.1966e-05	467.65	146.58	66.955	17.733	1.2231e-05	51.312	219.807	482.832	257.118	156.895	254.264	315.410	157.335	161.358	244.929	341.020	161.055	165.868	165.357	169.945	263.776	170.867	-8191	255	
40497.496	1	1	0	0	0.17719	0.11467	0.15292	0.20378	0.11808	0.12051	0.10695	0.15542	0.064832	0.070682	0.28273	0.026423	0.21168	0.16709	0.17505	0.24563	-2.7604	-3.8333	-3.3208	-3.45	-3.8167	-3.15	-3.9208	-3.725	-3.1021	-3.95	-3.5292	-3.4	-3.9813	-3.2521	-3.6354	-3.9437	236.440	446.947	323.298	441.506	418.300	249.536	485.031	406.899	436.160	175.371	396.131	431.701	467.455	446.660	477.337	431.638	0.00045583	7.3761e-05	1.7785e-05	1005.6	6.785e-06	1.5442e-06	1407.4	276.98	9.9959e-06	6.5813e-06	480.51	145.88	65.806	16.709	6.9113e-06	50.44	0.0010108	0.0010767	0.00029665	964.69	1.1522e-05	1.1801e-05	1350	267.78	1.1748e-05	1.2271e-05	465.05	142.55	66.128	17.267	1.2421e-05	49.739	226.686	404.345	227.387	156.819	197.450	260.603	157.580	161.007	283.355	334.291	161.418	165.322	165.223	170.781	278.052	170.685	-8191	255	
40497.590	1	1	0	0	0.22594	0.1041	0.099523	0.26601	0.069765	0.17533	0.14181	0.09213	0.23865	0.21574	0.078564	0.13823	0.15839	0.13703	0.24672	0.10684	-2.8333	-3.8604	-3.5729	-3.325	-3.9229	-3.1646	-3.8375	-3.9104	-2.9146	-3.8646	-3.6854	-3.1083	-3.9771	-3.0708	-3.5729	-3.925	449.128	195.355	343.591	491.210	413.330	496.446	372.406	438.652	371.638	302.346	344.374	481.125	441.663	427.214	224.050	245.470	0.00051649	0.00033545	0.00021217	1021.5	7.6562e-06	5.4584e-06	1411.5	276.37	4.0355e-06	1.5956e-06	482.53	145.99	65.351	16.587	7.9978e-07	50.227	0.0010355	0.0011149	0.00031096	982.68	1.218e-05	1.2463e-05	1356.4	268.08	1.2453e-05	1.2908e-05	465.13	142.25	66.111	17.191	1.2556e-05	49.549	224.759	144.758	292.842	157.094	269.186	339.190	157.512	160.979	335.800	365.251	161.311	165.681	165.036	170.193	240.994	170.646	-8191	255	
40497.660	1	1	0	0	0.20161	0.01053	0.17671	0.21105	0.19098	0.13559	0.26148	0.057923	0.056773	0.26451	0.10738	0.17636	0.20961	0.0094976	0.038918	0.12476	-2.7583	-3.8229	-3.7292	-3.3104	-3.975	-3.1125	-3.6375	-3.9458	-3.0938	-3.6688	-3.7979	-3.2583	-3.9271	-3.4667	-3.4188	-4.0146	249.494	346.489	331.481	484.385	257.575	207.362	406.424	496.518	348.838	195.689	412.565	494.141	335.872	149.324	295.469	232.211	0.00047309	0.00025028	0.00010533	1017.4	6.9316e-06	7.0457e-06	1420.2	279.23	6.0005e-06	7.9566e-06	482.02	146.76	66.794	16.821	5.2033e-06	50.894	0.0010754	0.0011776	0.00032537	984.59	1.2493e-05	1.2808e-05	1360.9	270.66	1.2621e-05	1.2999e-05	468.12	143.59	66.96	17.419	1.3131e-05	50.383	214.637	188.944	257.218	157.116	280.512	189.001	157.523	160.955	315.374	249.605	161.012	166.055	165.257	170.188	320.624	171.040	-8191	255	
40497.781	1	1	0	0	0.32265	0.17272	0.12862	0.010275	0.029696	0.1024	0.062893	0.22212	0.22272	0.24849	0.33491	0.17077	0.10065	0.16178	0.22486	0.17909	-2.8792	-3.6771	-3.7583	-3.4	-4.0687	-3.3563	-3.5687	-4.0042	-2.9792	-3.5208	-3.9396	-3.1292	-3.8854	-3.5167	-3.3312	-4.0271	158.541	282.080	145.515	287.037	205.200	188.730	459.676	155.046	248.964	322.103	438.638	157.688	456.716	167.409	208.219	465.537	0.00046787	0.00087571	0.0001927	1021.4	8.2613e-06	5.4105e-06	1424.2	280.14	4.8638e-06	6.0202e-06	486.03	147.13	65.799	16.848	1.9393e-06	49.74	0.0011147	0.0012002	0.00033142	986.57	1.3001e-05	1.3302e-05	1364.2	271.57	1.315e-05	1.3399e-05	470.87	143.66	66.874	17.412	1.3527e-05	49.681	231.522	304.849	323.312	157.262	273.235	291.190	157.460	161.009	335.712	304.734	161.237	165.870	165.052	170.180	318.447	170.807	-8191	255	
40497.879	1	1	0	0	0.18165	0.13277	0.1143	0.30593	0.058615	0.1511	0.22706	0.19916	0.1593	0.11975	0.11385	0.27844	0.06105	0.13837	0.34161	0.1348	-2.8	-3.6063	-3.7667	-3.3292	-3.8292	-3.6	-3.3438	-4.0854	-3.0979	-3.6167	-4.1562	-3.125	-3.8625	-3.4708	-3.0667	-3.9813	187.335	166.567	384.823	443.602	362.617	398.823	492.945	415.531	247.574	331.014	245.216	460.340	300.463	367.314	218.420	154.277	0.0005298	0.00073781	0.00010258	1023.5	6.1772e-06	5.4606e-06	1414.7	277.34	6.7588e-06	7.4763e-06	478.48	141.37	65.203	15.925	5.0623e-06	47.105	0.0011831	0.0012631	0.00034918	990.1	1.3787e-05	1.4377e-05	1360	270.69	1.4581e-05	1.5078e-05	464.75	139.03	66.112	16.884	1.6053e-05	47.262	222.087	220.661	265.585	157.319	266.530	344.675	157.341	160.983	269.028	239.793	161.089	166.044	164.837	170.199	469.984	171.009	-8191	255	
40497.973	1	1	0	0	0.22228	0.24454	0.19558	0.39739	0.30357	0.042707	0.2354	0.25215	0.16833	0.15169	0.26118	0.19008	0.14105	0.19429	0.1951	0.226	-2.975	-3.4917	-3.8542	-3.2167	-3.775	-3.725	-3.4562	-4.0646	-3.3542	-3.5021	-4.1396	-3.2812	-3.7604	-3.7958	-3.1625	-3.8667	370.120	220.581	430.706	456.256	402.740	428.563	398.720	154.271	436.007	498.794	456.127	391.561	451.526	488.367	174.734	167.925	0.00033913	0.00076427	0.00011318	1008.9	7.8939e-06	1.805e-06	1403.9	271.13	4.3593e-06	2.6198e-06	468.25	136.32	62.176	15.13	5.4185e-06	45.145	0.0013785	0.0015092	0.00041367	980.68	1.637e-05	1.68e-05	1353.2	266.21	1.6846e-05	1.7364e-05	456.75	134.51	64.349	16.275	1.7027e-05	45.597	235.138	185.317	442.222	157.433	303.639	300.070	157.428	161.161	280.310	366.157	161.332	165.872	164.820	170.096	270.894	171.319	-8191	255	
40498.070	1	1	0	0	0.05662	0.038314	0.076338	0.26862	0.071671	0.074113	0.16195	0.14638	0.15411	0.20238	0.14586	0.19695	0.19254	0.17364	0.13064	0.23819	-3.025	-3.2958	-3.85	-3.3479	-3.6604	-3.8375	-3.4792	-3.9729	-3.5687	-3.2542	-3.9396	-3.2104	-3.7729	-3.8292	-3.2917	-3.8667	247.591	188.886	187.201	439.316	439.577	390.301	444.156	435.403	449.417	277.953	446.573	448.738	389.928	234.009	321.594	446.546	0.00036552	0.00024243	0.00022373	1008.2	7.0999e-06	4.4719e-06	1397.8	268.99	3.4795e-06	8.7787e-06	460.16	132.52	60.661	14.944	7.7813e-06	44.832	0.0014385	0.0015669	0.00043626	979.13	1.6978e-05	1.7216e-05	1349.3	263.15	1.6952e-05	1.7268e-05	451.13	132.03	63.094	16.113	1.7575e-05	45.187	224.001	285.104	216.641	157.085	256.841	407.808	157.548	161.013	228.936	374.675	161.484	165.910	165.117	170.465	362.857	171.067	-8191	255	
40498.191	1	1	0	0	0.16831	0.11899	0.14638	0.16919	0.26564	0.21129	0.16091	0.2243	0.17563	0.041847	0.14668	0.10153	0.32528	0.15599	0.21953	0.15253	-3.2104	-3.3771	-3.8896	-3.3604	-3.4792	-3.9188	-3.2729	-3.9437	-3.5854	-3.2188	-3.9813	-3.2979	-3.4062	-4.0625	-3.0229	-3.7896	288.871	499.477	239.332	457.554	257.486	434.766	471.877	418.756	310.750	418.791	211.799	430.203	262.511	302.295	337.196	303.455	0.00037589	0.0013305	0.00010129	993.41	2.9968e-06	6.0866e-06	1385.2	264.17	1.1888e-06	8.9336e-06	459.37	134.68	60.724	14.938	4.7802e-06	45.508	0.0014914	0.0016137	0.00045691	969.42	1.7881e-05	1.8172e-05	1339.8	260.63	1.803e-05	1.7961e-05	451.38	133.8	63.357	16.237	1.769e-05	45.879	230.990	195.320	226.057	157.004	243.221	268.347	157.553	160.741	253.756	293.410	161.418	166.233	165.042	170.149	367.833	171.005	-8191	255	
40498.262	1	1	0	0	0.049564	0.12115	0.19058	0.18899	0.092181	0.21088	0.22561	0.24424	0.20423	0.20305	0.20751	0.15199	0.18056	0.098229	0.21969	0.033152	-3.2896	-3.1479	-3.8438	-3.45	-3.2687	-3.8792	-3.0958	-3.6896	-3.7125	-3.1396	-3.8792	-3.4208	-3.4104	-3.9146	-3.175	-3.8812	453.279	189.603	280.018	486.751	372.135	477.631	448.703	159.606	487.364	475.020	436.272	481.450	244.397	457.548	319.742	334.942	0.00038833	0.0014533	2.5707e-05	983.74	2.18e-06	3.0274e-06	1378.9	268.4	1.0684e-06	1.2614e-05	462.08	135.25	61.39	15.03	9.0015e-06	44.904	0.0014203	0.001533	0.00042762	961.38	1.6082e-05	1.6441e-05	1335.1	262.46	1.5999e-05	1.621e-05	450.75	132.65	63.187	16.096	1.5429e-05	45.19	221.949	243.222	209.817	157.521	224.053	282.052	157.817	161.060	349.232	363.291	161.100	166.073	164.998	169.610	276.432	170.961	-8191	255	
40498.359	1	1	0	0	0.077378	0.12836	0.17137	0.12632	0.059872	0.14293	0.20146	0.17088	0.075153	0.16709	0.11904	0.087076	0.1343	0.075159	0.088079	0.13452	-3.3063	-3.1771	-3.9479	-3.4917	-3.3667	-3.975	-3.3125	-3.7562	-3.7562	-3.1833	-4.0062	-3.5208	-3.2188	-3.8771	-3.2792	-3.5938	274.200	477.082	357.805	165.508	254.584	246.000	430.704	456.689	432.924	303.696	432.407	267.668	248.481	427.674	258.027	144.510	0.00049368	0.0012335	0.00012292	1015.6	8.5042e-06	3.468e-06	1405	271.82	1.2503e-06	7.0302e-06	462.12	133.94	61.856	14.992	2.5469e-06	44.984	0.0013065	0.0013939	0.00039394	986.23	1.526e-05	1.5422e-05	1351.9	265.33	1.5039e-05	1.5377e-05	450.59	132.17	63.221	15.913	1.5272e-05	44.762	214.650	267.669	282.790	157.502	210.301	350.736	157.932	161.066	260.881	320.346	161.255	166.155	165.242	170.438	232.386	170.932	-8191	255	
40498.453	1	1	0	0	0.047512	0.27829	0.20372	0.23927	0.14344	0.10601	0.30678	0.10336	0.24636	0.13727	0.14506	0.13212	0.15956	0.14747	0.2882	0.11827	-3.4292	-2.8917	-3.5583	-3.5563	-3.0812	-4	-3.3667	-3.5354	-3.7958	-3.0542	-3.9062	-3.5271	-3.1542	-4.0208	-3.3125	-3.5646	190.798	347.086	384.499	411.323	356.311	253.331	431.732	405.167	297.188	163.374	393.430	178.581	398.597	313.587	259.816	458.744	0.00042735	0.00026858	0.00015174	1035.4	1.0646e-05	7.8673e-06	1419.8	277.71	1.1678e-06	2.6817e-06	469.03	134.45	63.047	15.249	4.1435e-06	44.737	0.0012765	0.0013832	0.0003848	1001.5	1.4722e-05	1.5137e-05	1364.8	271.12	1.4765e-05	1.5052e-05	456.68	132.43	64.369	16.166	1.4797e-05	44.565	229.383	399.503	236.550	157.336	333.142	230.170	157.464	160.817	444.810	294.223	161.050	165.818	165.122	170.485	287.985	170.718	-8191	255	
40498.574	1	1	0	0	0.31721	0.18841	0.12529	0.20837	0.15219	0.18783	0.29323	0.13373	0.11199	0.15076	0.20793	0.33725	0.11848	0.15111	0.22223	0.21531	-3.6021	-3.1271	-3.4292	-3.8146	-2.9833	-3.9896	-3.6562	-3.4292	-3.7938	-3.2313	-3.8771	-3.9729	-3.0062	-3.9417	-3.3292	-3.5062	470.355	149.860	216.654	464.008	171.939	207.910	429.231	192.767	206.945	270.650	423.480	490.412	234.205	274.443	279.041	390.825	0.00032296	0.00031227	0.00014002	1070.4	2.7592e-06	1.3813e-05	1435.3	285.62	2.7919e-06	1.0214e-05	472.97	136.69	64.708	15.833	8.0286e-06	46.04	0.0012134	0.0013296	0.00037012	1035.7	1.4057e-05	1.4368e-05	1386.1	278.15	1.4159e-05	1.4501e-05	459.57	134.59	65.533	16.592	1.4222e-05	45.945	228.752	253.887	361.654	157.392	297.009	313.726	157.580	161.216	238.701	356.695	160.943	166.182	165.415	169.829	244.602	170.990	-8191	255	
40498.668	1	1	0	0	0.16361	0.029118	0.27291	0.28972	0.09156	0.046921	0.12658	0.1004	0.14178	0.13121	0.13668	0.24117	0.34608	0.044306	0.095547	0.34032	-3.6437	-3.175	-3.4313	-3.8625	-3.0083	-3.8354	-3.4646	-3.3479	-3.8604	-3.2979	-3.6583	-3.9729	-3.1437	-3.775	-3.475	-3.2958	382.685	240.240	238.779	468.651	187.575	280.796	445.341	161.317	156.388	487.682	161.825	417.077	418.012	364.217	384.336	488.039	0.0003577	0.00027417	0.00016537	1051.8	1.5695e-06	5.4177e-06	1411.6	274.78	2.3808e-06	6.3196e-06	467.37	137.54	63.071	15.584	2.4349e-06	46.925	0.0012039	0.0012956	0.00036897	1016.3	1.4175e-05	1.4586e-05	1360.5	268.21	1.4445e-05	1.455e-05	453.3	134.89	64.134	16.475	1.4725e-05	46.678	215.016	145.439	263.416	157.429	259.513	237.916	157.632	160.983	185.082	320.717	161.050	166.194	165.279	170.566	363.413	170.776	-8191	255	
40498.766	1	1	0	0	0.16574	0.09959	0.21087	0.10002	0.16574	0.13529	0.12063	0.041364	0.1037	0.31985	0.047005	0.10114	0.092451	0.22001	0.24791	0.079131	-3.6375	-3.1521	-3.3625	-4.0125	-2.9708	-3.7313	-3.725	-3.3042	-4.0021	-3.1271	-3.5896	-3.9917	-3.1667	-3.7292	-3.7229	-3.1708	393.274	451.583	486.134	432.367	244.632	337.423	476.454	334.969	166.429	240.943	399.504	370.214	502.962	251.071	244.467	480.796	0.00048151	0.0012814	0.00012371	1008.8	6.7309e-06	1.9048e-06	1381.2	265.32	7.0569e-06	1.13e-05	461.39	137.05	62.049	15.501	9.2075e-06	46.704	0.001254	0.0013474	0.00037107	976.35	1.4358e-05	1.49e-05	1333.8	259.33	1.4883e-05	1.4953e-05	448.38	135	63.191	16.377	1.4825e-05	46.71	221.607	314.390	267.798	157.553	244.917	171.001	157.592	161.075	451.386	246.179	161.352	166.364	164.857	170.405	251.734	171.113	-8191	255	
40498.863	1	1	0	0	0.152	0.22306	0.23032	0.21862	0.31467	0.18296	0.4698	0.25419	0.10476	0.54165	0.18673	0.09415	0.29229	0.25847	0.099259	0.15555	-3.675	-3.2687	-3.2625	-4.1229	-3.1042	-3.6896	-3.8688	-3.2646	-3.8063	-3.6271	-3.2438	-4.1333	-3.2188	-3.6021	-3.8354	-3.2313	502.043	278.388	445.328	456.494	475.857	387.900	427.948	503.016	439.921	154.453	265.949	168.639	145.082	490.558	345.381	485.334	0.00039757	0.001315	5.321e-05	987.89	6.4771e-06	9.842e-06	1381.1	263.91	1.0451e-06	4.572e-06	457.25	136.04	61.601	15.223	5.7946e-06	46.082	0.0012739	0.0013649	0.00037863	958.32	1.4787e-05	1.509e-05	1328	257.5	1.4902e-05	1.5057e-05	447.15	133.57	62.901	16.196	1.4675e-05	45.84	213.168	194.361	160.144	157.292	415.605	263.406	157.896	161.020	337.035	247.143	161.353	165.872	164.524	170.677	372.201	171.294	-8191	255	
40498.957	1	1	0	0	0.060417	0.053743	0.26627	0.16949	0.20887	0.038206	0.16461	0.17697	0.29548	0.085336	0.23168	0.26258	0.35848	0.08356	0.16523	0.22253	-3.5333	-3.4188	-3.1625	-4.1729	-3.1354	-3.6667	-4.05	-3.2292	-3.8208	-3.7604	-3.2229	-4.0792	-3.2375	-3.4271	-3.8271	-3.1229	469.257	279.938	359.761	450.044	263.232	188.500	443.880	459.907	387.808	467.919	498.216	499.771	481.989	152.919	366.022	465.767	0.0003637	0.0004381	0.00017253	1010.7	5.1636e-06	3.4157e-06	1399.2	270.27	1.5133e-06	6.3064e-06	464.83	137.42	63.094	15.651	4.4578e-06	46.514	0.0012425	0.0013206	0.00036342	978.28	1.4127e-05	1.4186e-05	1342	262.42	1.4124e-05	1.4181e-05	449.72	134.3	63.803	16.38	1.3806e-05	46.173	228.143	379.003	315.749	157.506	239.257	315.107	157.766	161.050	258.232	293.981	161.230	166.314	165.270	170.064	307.395	170.895	-8191	255	
40499.055	1	1	0	0	0.12805	0.10189	0.1502	0.048309	0.26417	0.027779	0.23445	0.32831	0.074111	0.28932	0.25218	0.29374	0.15005	0.15784	0.25675	0.18116	-3.4938	-3.7083	-3.0229	-4.1667	-3.1937	-3.2958	-4.0417	-3.3063	-3.7167	-3.7583	-3.1875	-3.9583	-3.2271	-3.2875	-4.0188	-3.1417	196.675	182.882	336.795	352.453	466.775	216.584	448.746	496.304	436.095	430.978	455.139	176.711	170.826	372.002	477.363	398.095	0.00046875	0.0003342	0.00012266	1021	3.1659e-06	2.2688e-06	1393.1	270.98	2.6065e-06	4.9926e-06	462.76	137.94	63.845	15.834	3.3706e-06	47.501	0.0011582	0.0012376	0.00033688	986.34	1.326e-05	1.3632e-05	1341.8	263.33	1.3314e-05	1.3245e-05	449.79	135.17	64.062	16.494	1.3303e-05	46.957	221.478	355.771	186.725	157.273	187.953	259.983	157.625	160.690	241.301	253.142	161.309	166.023	164.945	170.651	165.930	170.923	-8191	255	
40499.176	1	1	0	0	0.064477	0.10567	0.062051	0.1237	0.23565	0.16886	0.12068	0.18469	0.15922	0.14062	0.13791	0.253	0.085001	0.14401	0.11824	0.054632	-3.2896	-3.8125	-3.1417	-4.0854	-3.3083	-3.2375	-4.2521	-3.2062	-3.4271	-3.8354	-3.1333	-3.8854	-3.4333	-3.2833	-3.9083	-3.2021	319.238	373.420	273.144	417.193	181.900	312.964	389.544	265.657	154.677	395.224	339.030	479.772	444.288	419.582	147.699	385.722	0.00043362	0.00017223	6.0632e-05	1010	6.3405e-06	4.1658e-06	1382.6	268.95	1.7792e-06	5.0414e-06	462.7	138.65	63.442	15.879	4.8816e-06	47.478	0.001136	0.0011846	0.00033229	971.85	1.295e-05	1.2955e-05	1326.9	260.74	1.2851e-05	1.2638e-05	450.2	135.88	63.834	16.468	1.2777e-05	47.055	213.684	415.139	228.771	157.383	279.099	235.686	157.427	160.886	305.006	359.508	161.604	165.456	165.402	170.127	214.668	170.910	-8191	255	
40499.270	1	1	0	0	0.12509	0.15698	0.18276	0.21598	0.31887	0.05664	0.11207	0.029613	0.34748	0.13201	0.27974	0.18795	0.1298	0.01077	0.032383	0.27635	-3.1521	-3.6896	-3.2	-3.9333	-3.5458	-3.3417	-4.1312	-3.2146	-3.2667	-4.0563	-3.1083	-3.6854	-3.5875	-3.2104	-3.8917	-3.4479	161.654	174.191	207.676	386.101	475.526	417.338	479.977	299.136	259.327	251.228	476.592	466.553	392.836	302.132	366.354	449.296	0.0004349	0.00038389	0.00016396	999.66	5.5689e-06	7.8017e-06	1389.1	268.61	4.3363e-06	5.0729e-06	462.56	138.24	63.043	15.965	6.6414e-06	47.213	0.0010752	0.001153	0.0003214	966.08	1.2582e-05	1.2756e-05	1329.6	261.06	1.2652e-05	1.2835e-05	447.42	135.41	63.637	16.409	1.3038e-05	46.663	236.276	433.110	219.945	157.306	290.492	358.190	157.783	161.104	324.164	253.035	161.121	166.259	165.558	170.446	267.373	171.421	-8191	255	
40499.367	1	1	0	0	0.16867	0.24446	0.076816	0.11981	0.28321	0.13504	0.20643	0.19104	0.12603	0.073192	0.29844	0.14766	0.081005	0.036622	0.024503	0.16981	-3.0979	-3.9313	-3.1458	-3.7313	-3.6417	-3.0667	-4.1625	-3.4521	-3.2687	-3.7104	-3.3812	-3.6146	-3.6792	-3.3792	-3.8417	-3.3937	426.073	251.851	444.831	215.324	360.644	256.464	412.113	352.134	421.963	400.336	451.212	466.797	318.914	270.629	367.770	419.879	0.00037928	0.00058828	0.00011356	999.59	6.0054e-06	5.3123e-06	1373.5	267.9	1.7776e-06	3.811e-06	461.66	138.18	62.869	15.947	3.5426e-06	47.876	0.0011064	0.0011809	0.00033648	963.51	1.297e-05	1.341e-05	1324.1	259	1.3071e-05	1.3481e-05	448.12	135.65	63.489	16.432	1.3173e-05	47.154	239.098	191.326	205.332	157.000	282.503	232.113	157.531	161.251	321.669	286.322	161.198	166.165	165.539	170.294	282.878	171.008	-8191	255	
40499.465	1	1	0	0	0.12196	0.2001	0.06516	0.082991	0.073202	0.27543	0.23143	0.16069	0.19449	0.16404	0.27096	0.14536	0.095953	0.033776	0.17616	0.21237	-3.0625	-3.8833	-3.0833	-3.6833	-3.7812	-3.0521	-4.0875	-3.5417	-3.1833	-4.0125	-3.3438	-3.6479	-3.8979	-3.0896	-3.9	-3.7229	418.831	411.519	479.335	442.127	250.898	419.295	405.858	467.775	254.582	383.157	479.768	469.499	479.818	204.941	160.772	437.510	0.00034561	0.0014248	0.00010681	987.79	1.108e-05	9.4869e-06	1373.5	267.59	8.1801e-07	1.634e-06	463.91	139.92	63.709	16.061	9.5379e-06	48.11	0.0010631	0.0011432	0.00031637	950.96	1.1854e-05	1.2073e-05	1318.3	259.36	1.1742e-05	1.21e-05	448.88	136.43	64.079	16.58	1.2257e-05	47.269	220.596	209.847	250.891	156.993	267.203	318.536	157.295	160.744	398.419	253.109	161.358	166.059	165.384	170.197	229.436	170.990	-8191	255	
40499.559	1	1	0	0	0.14983	0.075817	0.071084	0.26771	0.11978	0.10885	0.20978	0.15588	0.30193	0.21249	0.33852	0.19013	0.1923	0.22801	0.11648	0.19698	-2.9521	-3.8688	-3.3187	-3.6229	-3.8292	-3.0375	-3.8375	-3.8958	-3.2333	-4.0125	-3.4396	-3.3042	-4.0375	-3.0563	-3.7854	-3.7938	241.146	333.216	290.235	493.355	336.767	183.643	461.349	457.002	226.982	172.124	163.765	190.454	165.116	344.969	459.620	471.009	0.00045094	0.0004678	0.00015815	995.73	7.7371e-06	6.8597e-06	1370.2	267.23	5.7025e-06	7.0556e-06	463.95	139.49	64.128	15.835	2.7229e-06	47.625	0.0010433	0.0011332	0.00031391	957.21	1.2388e-05	1.2686e-05	1317.9	260.41	1.2623e-05	1.2924e-05	449.78	136.42	64.473	16.554	1.2906e-05	46.928	215.688	150.674	294.493	157.185	333.538	301.659	157.616	161.215	348.625	204.427	161.145	166.073	165.641	169.931	305.746	171.158	-8191	255	
#DATA ENDS
