BOXY.EXE: ISS Imagent and Oximeter Data Acquisition Program Version 0.80
Ascii Record File

#ACQ INFORMATION
2  Detector Channels 
16  External MUX Channels 
1  Auxiliary Channels 
5000  Waveform (CCF) Frequency (Hz)
1  Waveforms Skipped 
30  Waveforms Averaged 
1  Cycles Averaged 
16  Acquisitions per Waveform 
10.0806  Updata Rate (Hz) 

#FILE INFORMATION
TRUE -- External MUX Channel results are PARSED.
FALSE -- AC DC and Phase are NOT grouped.
TRUE -- Companion Program Settings File CREATED.
FALSE -- AC data not excluded
FALSE -- DC data not excluded
FALSE -- Phase data not excluded
FALSE -- Auxillary Chn. data not excluded
Tab delimiters

#CALIBRATION STATE
TRUE -- Waveform Calibration Values APPLIED.


#AUX CALIBRATION VALUES
Val Type	aux-1	

Term	1.0000e+00	
Factor	0.0000e+00	


#WF CALIBRATION VALUES
A = Detector Channel
Val Type	A-AC1	A-AC2	A-AC3	A-AC4	A-AC5	A-AC6	A-AC7	A-AC8	A-AC9	A-AC10	A-AC11	A-AC12	A-AC13	A-AC14	A-AC15	A-AC16	A-DC1	A-DC2	A-DC3	A-DC4	A-DC5	A-DC6	A-DC7	A-DC8	A-DC9	A-DC10	A-DC11	A-DC12	A-DC13	A-DC14	A-DC15	A-DC16	A-Ph1	A-Ph2	A-Ph3	A-Ph4	A-Ph5	A-Ph6	A-Ph7	A-Ph8	A-Ph9	A-Ph10	A-Ph11	A-Ph12	A-Ph13	A-Ph14	A-Ph15	A-Ph16	

Term	0.00000e+00	0.00000e+00	0.00000e+00	0.00000e+00	0.00000e+00	0.00000e+00	0.00000e+00	0.00000e+00	0.00000e+00	0.00000e+00	0.00000e+00	0.00000e+00	0.00000e+00	0.00000e+00	0.00000e+00	0.00000e+00	0.00000e+00	0.00000e+00	0.00000e+00	0.00000e+00	0.00000e+00	0.00000e+00	0.00000e+00	0.00000e+00	0.00000e+00	0.00000e+00	0.00000e+00	0.00000e+00	0.00000e+00	0.00000e+00	0.00000e+00	0.00000e+00	0.00000e+00	0.00000e+00	0.00000e+00	0.00000e+00	0.00000e+00	0.00000e+00	0.00000e+00	0.00000e+00	0.00000e+00	0.00000e+00	0.00000e+00	0.00000e+00	0.00000e+00	0.00000e+00	0.00000e+00	0.00000e+00	
Factor	1.00000e+00	1.00000e+00	1.00000e+00	1.00000e+00	1.00000e+00	1.00000e+00	1.00000e+00	1.00000e+00	1.00000e+00	1.00000e+00	1.00000e+00	1.00000e+00	1.00000e+00	1.00000e+00	1.00000e+00	1.00000e+00	1.00000e+00	1.00000e+00	1.00000e+00	1.00000e+00	1.00000e+00	1.00000e+00	1.00000e+00	1.00000e+00	1.00000e+00	1.00000e+00	1.00000e+00	1.00000e+00	1.00000e+00	1.00000e+00	1.00000e+00	1.00000e+00	X	X	X	X	X	X	X	X	X	X	X	X	X	X	X	X	

B = Detector Channel
Val Type	B-AC1	B-AC2	B-AC3	B-AC4	B-AC5	B-AC6	B-AC7	B-AC8	B-AC9	B-AC10	B-AC11	B-AC12	B-AC13	B-AC14	B-AC15	B-AC16	B-DC1	B-DC2	B-DC3	B-DC4	B-DC5	B-DC6	B-DC7	B-DC8	B-DC9	B-DC10	B-DC11	B-DC12	B-DC13	B-DC14	B-DC15	B-DC16	B-Ph1	B-Ph2	B-Ph3	B-Ph4	B-Ph5	B-Ph6	B-Ph7	B-Ph8	B-Ph9	B-Ph10	B-Ph11	B-Ph12	B-Ph13	B-Ph14	B-Ph15	B-Ph16	

Term	0.00000e+00	0.00000e+00	0.00000e+00	0.00000e+00	0.00000e+00	0.00000e+00	0.00000e+00	0.00000e+00	0.00000e+00	0.00000e+00	0.00000e+00	0.00000e+00	0.00000e+00	0.00000e+00	0.00000e+00	0.00000e+00	0.00000e+00	0.00000e+00	0.00000e+00	0.00000e+00	0.00000e+00	0.00000e+00	0.00000e+00	0.00000e+00	0.00000e+00	0.00000e+00	0.00000e+00	0.00000e+00	0.00000e+00	0.00000e+00	0.00000e+00	0.00000e+00	-9.50993e+01	-1.28701e+02	-1.24987e+02	-1.83761e+02	-6.23572e+01	-7.40854e+01	-1.58106e+02	-1.62015e+02	-5.36995e+01	-7.02651e+01	-1.70714e+02	-1.70913e+02	-1.78902e+02	-1.77049e+02	-6.51981e+01	-1.49824e+02	
Factor	1.64770e-05	1.35927e-04	3.46547e-05	1.51834e-01	1.19814e-06	1.36781e-06	1.67260e-01	5.25101e-02	1.01735e-06	1.28790e-06	8.68415e-02	3.03108e-02	2.82728e-02	9.66055e-03	1.35503e-06	1.35419e-02	3.18107e-06	3.59181e-06	1.00104e-06	7.44679e-02	3.88649e-08	3.97153e-08	7.71580e-02	2.58867e-02	3.91507e-08	3.98793e-08	4.12608e-02	1.45034e-02	1.40702e-02	4.76425e-03	3.96035e-08	6.46411e-03	X	X	X	X	X	X	X	X	X	X	X	X	X	X	X	X	



#DISTANCE SETTINGS
A = Detector Channel
A-1	A-2	A-3	A-4	A-5	A-6	A-7	A-8	A-9	A-10	A-11	A-12	A-13	A-14	A-15	A-16	

2.5000e+00	3.0000e+00	2.5000e+00	3.0000e+00	2.0000e+00	3.0000e+00	1.5000e+00	3.0000e+00	3.0000e+00	3.0000e+00	3.0000e+00	3.0000e+00	3.0000e+00	3.0000e+00	1.5000e+00	3.0000e+00	

B = Detector Channel
B-1	B-2	B-3	B-4	B-5	B-6	B-7	B-8	B-9	B-10	B-11	B-12	B-13	B-14	B-15	B-16	

1.0000e+01	1.0000e+01	1.0000e+01	1.4400e+00	1.0000e+01	1.0000e+01	1.5100e+00	1.9400e+00	1.0000e+01	1.0000e+01	1.9900e+00	2.4900e+00	2.4100e+00	2.9000e+00	1.0000e+01	2.9800e+00	




#DATA BEGINS
time	group	step	mark	flag	A-AC1	A-AC2	A-AC3	A-AC4	A-AC5	A-AC6	A-AC7	A-AC8	A-AC9	A-AC10	A-AC11	A-AC12	A-AC13	A-AC14	A-AC15	A-AC16	A-DC1	A-DC2	A-DC3	A-DC4	A-DC5	A-DC6	A-DC7	A-DC8	A-DC9	A-DC10	A-DC11	A-DC12	A-DC13	A-DC14	A-DC15	A-DC16	A-Ph1	A-Ph2	A-Ph3	A-Ph4	A-Ph5	A-Ph6	A-Ph7	A-Ph8	A-Ph9	A-Ph10	A-Ph11	A-Ph12	A-Ph13	A-Ph14	A-Ph15	A-Ph16	B-AC1	B-AC2	B-AC3	B-AC4	B-AC5	B-AC6	B-AC7	B-AC8	B-AC9	B-AC10	B-AC11	B-AC12	B-AC13	B-AC14	B-AC15	B-AC16	B-DC1	B-DC2	B-DC3	B-DC4	B-DC5	B-DC6	B-DC7	B-DC8	B-DC9	B-DC10	B-DC11	B-DC12	B-DC13	B-DC14	B-DC15	B-DC16	B-Ph1	B-Ph2	B-Ph3	B-Ph4	B-Ph5	B-Ph6	B-Ph7	B-Ph8	B-Ph9	B-Ph10	B-Ph11	B-Ph12	B-Ph13	B-Ph14	B-Ph15	B-Ph16	aux-1	digaux	

40558.625	1	1	0	768	0.096379	0.31648	0.18706	0.50688	0.11941	0.25021	0.20669	0.21034	0.12809	0.13617	0.16996	0.22487	0.014108	0.10465	0.12385	0.15889	-3.0042	-3.4917	-3.9146	-3.3021	-4.1958	-3.8021	-3.5187	-4.1625	-3.425	-3.5521	-4.1479	-3.4125	-3.9021	-3.8521	-3.1854	-4.1146	177.890	-31.347	-122.520	172.244	-30.756	57.152	217.484	169.002	113.028	155.221	171.518	212.243	-126.572	48.749	19.367	-5.161	0.00023834	0.00032986	5.8004e-05	1174.2	7.7948e-07	9.8584e-06	1385.3	352.04	5.5684e-06	5.3777e-06	500.72	156.44	93.392	24.092	3.1571e-06	52.435	0.00054897	0.00056443	0.00015766	1141.6	6.1278e-06	6.2333e-06	1354.3	345.47	6.1583e-06	6.3727e-06	487.01	155.38	92.81	23.965	6.3968e-06	51.765	-118.349	-10.372	-121.987	-120.551	-115.177	-2.649	-120.491	-116.980	37.818	9.576	-117.113	-112.870	-113.303	-108.498	20.187	-107.897	-8191	255	
40558.723	1	1	0	0	0.20616	0.21786	0.16302	0.14425	0.10958	0.063176	0.16004	0.038355	0.10663	0.13853	0.34991	0.083746	0.15076	0.24815	0.048472	0.12187	-3.0958	-3.3979	-4.0646	-3.4938	-3.8021	-3.8229	-3.5062	-4.2583	-3.4854	-3.3375	-4.2854	-3.5583	-3.7833	-3.8708	-3.1521	-4.0292	34.554	-57.722	42.979	214.030	-98.102	-24.142	176.486	179.581	53.809	-12.878	90.117	44.331	113.062	-65.733	34.490	220.255	0.00024874	0.00054907	0.00017594	1166.6	3.5633e-06	2.59e-06	1393	347.16	6.2223e-06	7.5925e-06	500.45	157.46	93.159	24.021	3.7953e-06	52.438	0.00055429	0.00057601	0.00016389	1137.7	6.215e-06	6.2834e-06	1361.5	340.26	6.1221e-06	6.045e-06	487.03	155.59	92.32	23.904	6.1129e-06	51.902	-119.586	-67.157	-12.106	-120.414	-101.540	-2.774	-120.016	-116.957	-4.500	5.105	-117.288	-113.279	-113.295	-108.366	50.073	-108.282	-8191	255	
40558.816	1	1	0	0	0.056257	0.04347	0.18153	0.30118	0.021333	0.2547	0.24723	0.40819	0.16381	0.078339	0.074345	0.16276	0.19675	0.12595	0.099529	0.13255	-3.1833	-3.1854	-4.1188	-3.4458	-3.6333	-3.9	-3.3312	-4.0708	-3.5875	-3.3208	-4.2542	-3.5938	-3.8	-4.1229	-3.2667	-4.1208	198.594	-72.155	-45.067	180.010	-46.842	99.062	175.057	149.823	22.563	93.731	-54.839	109.633	179.748	137.194	-81.457	185.160	0.00026251	0.00036239	3.0321e-05	1166.7	1.0393e-06	5.8212e-07	1384.7	349.83	3.4916e-06	4.2567e-06	500.06	156.14	92.984	23.876	5.1565e-06	52.297	0.00052889	0.00054654	0.00015283	1140.2	5.9241e-06	6.0994e-06	1353.5	342.8	5.9653e-06	6.0372e-06	488.09	155.33	92.174	23.817	6.0554e-06	51.623	-109.590	-61.559	90.328	-120.230	138.354	-13.284	-120.567	-116.965	-32.699	-13.817	-116.681	-112.909	-113.104	-108.550	31.118	-107.883	-8191	255	
40558.914	1	1	0	0	0.047648	0.12421	0.09345	0.12389	0.28641	0.21129	0.18294	0.24587	0.18568	0.066177	0.17124	0.34591	0.097921	0.15109	0.22724	0.30327	-3.4688	-3.2271	-4.0563	-3.5583	-3.5083	-3.9708	-3.5167	-3.8979	-3.5521	-3.3625	-4.0104	-3.5167	-3.6208	-4.0333	-3.2562	-3.9354	70.025	125.301	198.375	166.946	52.093	202.872	215.162	121.513	35.822	-17.025	-83.006	208.006	55.860	-61.677	220.056	86.421	0.0002873	0.00059255	6.4065e-05	1162	3.8613e-06	3.2924e-06	1379.6	351.19	2.4205e-06	5.7779e-06	502.48	156.67	94.388	24.124	5.726e-06	52.428	0.00052745	0.00054284	0.00014943	1130.9	5.8873e-06	5.9744e-06	1347.6	343.32	5.9463e-06	5.9107e-06	489.73	155.63	93.237	23.884	5.9046e-06	51.711	-128.612	-12.670	-67.522	-120.390	68.608	34.334	-120.807	-116.701	5.106	-11.410	-117.068	-112.988	-112.853	-108.358	-5.497	-107.525	-8191	255	
40559.012	1	1	0	0	0.21973	0.075398	0.17988	0.3269	0.074352	0.024454	0.25325	0.10425	0.081453	0.081646	0.23396	0.29592	0.11956	0.19288	0.045608	0.24851	-3.5375	-3.175	-3.8646	-3.6	-3.2542	-4.0583	-3.6333	-3.7625	-3.7938	-3.4583	-4.2021	-3.5771	-3.5229	-4.2417	-3.4229	-3.5729	211.713	-97.321	-26.501	-133.564	-9.144	-61.745	203.023	71.417	-52.016	168.064	206.998	156.772	213.047	-134.311	-13.614	209.664	0.00027285	0.00073838	0.00015741	1173.4	5.3172e-06	5.7772e-06	1384.4	353.64	5.7757e-06	6.3229e-06	503.3	156.97	94.076	24.19	4.6372e-06	52.358	0.00052309	0.00053707	0.00014824	1140.7	5.8636e-06	5.8482e-06	1354.9	346.56	5.9144e-06	5.9304e-06	491.3	155.42	93.139	23.915	5.7279e-06	51.54	-124.249	-80.461	-60.617	-120.342	9.744	-36.012	-120.414	-116.974	-16.461	-15.281	-116.998	-112.760	-113.188	-108.290	-29.268	-107.820	-8191	255	
40559.105	1	1	0	0	0.096769	0.092458	0.069347	0.16983	0.14178	0.089089	0.24539	0.19079	0.30027	0.084897	0.096949	0.17325	0.23446	0.089985	0.16855	0.20876	-3.6854	-3.3187	-3.9625	-3.7833	-3.2521	-4.025	-3.45	-3.7042	-4.0167	-3.2562	-4.0521	-3.7958	-3.3208	-4.0729	-3.3458	-3.7417	48.926	14.988	186.730	-107.601	26.807	-75.511	184.943	117.299	74.582	60.191	172.364	220.982	159.993	-38.310	-60.948	204.717	0.00026319	0.00066807	3.6525e-05	1184.1	7.3798e-06	5.0158e-06	1410	355.2	3.3544e-06	4.1984e-06	506.68	157.63	93.864	24.041	6.3528e-06	51.752	0.00051625	0.00053057	0.00014625	1149.8	5.7188e-06	5.7396e-06	1369.2	348.5	5.8079e-06	5.9019e-06	494.03	155.51	93.041	23.818	5.8689e-06	51.251	-127.012	-40.297	-73.547	-120.284	13.045	-17.424	-120.616	-116.879	-30.446	43.919	-117.210	-113.060	-113.242	-108.440	31.122	-107.853	-8191	255	
40559.227	1	1	0	0	0.25046	0.15494	0.1213	0.10024	0.061543	0.43471	0.21907	0.10772	0.11936	0.080866	0.22067	0.27922	0.10063	0.12772	0.077499	0.33964	-3.8375	-3.2	-3.85	-3.9437	-3.2792	-4.0521	-3.7396	-3.475	-4.1167	-3.1833	-3.9062	-3.9021	-3.0938	-4.1438	-3.5708	-3.375	165.906	43.582	-52.233	172.478	151.813	-66.973	128.996	133.263	-15.946	84.786	-20.163	131.646	101.173	27.168	77.585	86.603	0.00029831	0.00094159	0.00017229	1179.7	6.0531e-06	1.5299e-06	1406.6	359.02	3.6186e-06	4.2843e-06	506.06	156.33	93.836	24.038	5.4215e-06	51.411	0.00051905	0.00054197	0.00014791	1151.6	5.838e-06	5.9013e-06	1371.5	350.84	5.8602e-06	5.8495e-06	492.88	155.07	93.54	23.946	5.856e-06	50.68	-123.656	-33.908	-66.205	-120.357	0.279	-64.240	-120.528	-117.048	-45.866	36.551	-117.193	-112.908	-113.124	-108.397	-1.605	-107.838	-8191	255	
40559.324	1	1	0	0	0.19969	0.15825	0.12188	0.27258	0.3715	0.16452	0.24874	0.15264	0.22168	0.25162	0.065138	0.21079	0.05055	0.19519	0.040368	0.023137	-3.6708	-3.2792	-3.6958	-4.1958	-3.2771	-4.0521	-3.7375	-3.4896	-3.9229	-3.3521	-3.6542	-4.1062	-3.2479	-4.0875	-3.6312	-3.3917	204.138	98.438	114.612	-116.764	161.544	140.530	116.700	-18.368	80.652	28.772	141.370	181.868	-93.512	138.606	211.276	-60.444	0.00031002	5.4587e-05	0.00016739	1200.8	4.2974e-06	2.9775e-06	1406	362.38	3.6879e-06	4.6761e-06	506.02	156.98	95.166	24.437	2.7541e-06	51.247	0.00051831	0.00053516	0.00015062	1165.2	5.9458e-06	5.8837e-06	1373.7	354.3	5.8821e-06	5.8781e-06	494.15	155.18	94.369	24.102	5.9483e-06	50.743	-117.284	87.636	-38.904	-120.276	-6.566	-52.734	-120.608	-116.992	46.723	48.320	-117.225	-113.101	-113.533	-108.418	116.209	-108.472	-8191	255	
40559.418	1	1	0	0	0.15022	0.083455	0.15416	0.16264	0.090617	0.10767	0.24774	0.27323	0.29375	0.25895	0.15033	0.051929	0.21109	0.15927	0.15937	0.18584	-3.7083	-3.2708	-3.6083	-4.1146	-3.1813	-3.8104	-3.8792	-3.5	-3.9437	-3.3875	-3.6354	-4.0375	-3.1354	-3.8958	-3.7	-3.1875	153.216	-98.708	53.274	175.247	-50.758	109.324	173.158	166.184	-6.329	155.801	-126.007	100.275	125.360	166.796	-24.601	117.899	0.00027491	0.00056346	8.1957e-05	1204.3	3.8829e-06	7.1834e-06	1421.8	364.91	7.392e-06	5.3753e-06	512.11	157.04	95.742	24.42	2.0921e-06	51.481	0.00052931	0.00054872	0.00015145	1172.3	5.9647e-06	5.8979e-06	1382.6	357.42	5.9856e-06	5.9821e-06	497.58	155.74	95.232	24.275	5.9784e-06	50.922	-123.142	-72.664	-13.714	-120.247	35.955	14.196	-120.208	-116.860	38.230	56.847	-117.645	-112.967	-113.239	-108.685	28.054	-108.090	-8191	255	
40559.516	1	1	0	0	0.015421	0.076681	0.2723	0.23974	0.16715	0.21891	0.19016	0.38598	0.16834	0.1461	0.095847	0.14354	0.14242	0.056136	0.18264	0.14522	-3.6958	-3.2458	-3.1417	-4.1104	-3.2938	-3.7333	-4.0396	-3.4333	-3.9792	-3.4375	-3.6021	-4.2021	-3.3458	-3.7646	-3.8812	-3.1917	90.328	115.577	168.654	161.448	7.633	66.509	79.217	134.794	196.707	169.816	106.076	166.102	190.310	-113.338	-103.971	204.284	0.00030918	0.00021447	0.00021274	1217.9	4.4351e-07	8.8668e-06	1433	369.87	1.9984e-06	3.3048e-06	515.9	159.01	97.899	24.612	4.0761e-06	51.584	0.00052991	0.0005406	0.00015013	1186.1	5.958e-06	5.8731e-06	1396.7	362.7	5.9003e-06	5.9432e-06	502.62	157.18	96.86	24.608	5.8961e-06	50.994	-123.677	-43.222	-56.092	-120.221	104.237	19.746	-120.304	-116.911	23.091	1.852	-117.393	-113.113	-113.447	-108.792	42.834	-108.220	-8191	255	
40559.609	1	1	0	0	0.15134	0.25281	0.18246	0.044034	0.14209	0.25773	0.28533	0.11883	0.26318	0.12059	0.1881	0.12632	0.16465	0.22788	0.12228	0.10877	-3.7	-3.5958	-3.2708	-4.0917	-3.2542	-3.4604	-4.1396	-3.2292	-4.0708	-3.8042	-3.5479	-4.0625	-3.4208	-3.5729	-3.8354	-3.175	212.306	-15.115	-94.990	-125.357	163.071	216.913	116.799	42.806	-124.192	34.085	218.431	168.016	194.560	-113.082	167.422	75.654	0.00027498	0.00024574	0.00023804	1231.3	4.4639e-06	3.2767e-06	1436.1	373.04	1.364e-06	5.1132e-06	516.2	158.86	98.3	24.618	4.4301e-06	51.618	0.00052799	0.00053586	0.0001533	1198.4	6.0317e-06	6.0283e-06	1400.4	365.43	6.0053e-06	6.016e-06	502.02	157.19	97.137	24.66	6.0573e-06	50.863	-126.571	-24.004	-57.821	-120.319	25.343	-44.979	-120.500	-117.223	3.660	-4.222	-117.625	-113.550	-113.031	-109.056	-27.121	-108.266	-8191	255	
40559.707	1	1	0	0	0.087473	0.1475	0.14461	0.15735	0.14636	0.17743	0.18513	0.19465	0.15981	0.068852	0.084057	0.29152	0.078444	0.09833	0.17233	0.29211	-3.3937	-3.7438	-3.1562	-4.1271	-3.4604	-3.4146	-4.1188	-3.4458	-3.8021	-3.7396	-3.4583	-4.1708	-3.5729	-3.4125	-3.9667	-3.2229	183.398	35.569	-81.636	158.595	41.213	47.118	157.754	202.022	188.728	-43.388	-72.027	207.087	-71.423	165.871	191.164	158.977	0.00025107	0.00034701	6.9572e-05	1232.8	3.1227e-06	4.2635e-06	1434.3	375.34	5.1846e-06	3.4198e-06	515.1	159.29	98.862	25.037	3.6869e-06	51.452	0.0005281	0.00055089	0.00015322	1199.3	5.9744e-06	6.0112e-06	1400.2	367.43	5.9955e-06	6.0678e-06	501.83	157.16	97.749	24.849	6.0828e-06	50.888	-125.029	-36.765	-51.733	-120.269	58.234	-9.224	-120.811	-117.101	-19.618	67.570	-117.557	-113.276	-113.136	-108.680	15.427	-107.881	-8191	255	
40559.824	1	1	0	0	0.20741	0.14866	0.2009	0.12006	0.18614	0.23339	0.27774	0.25664	0.16267	0.14779	0.22767	0.28935	0.18139	0.21785	0.1864	0.13942	-3.4604	-3.7958	-3.075	-4.1271	-3.6417	-3.3396	-4.3646	-3.3312	-3.6854	-3.9896	-3.3604	-4.1	-3.7917	-3.4437	-4.1771	-3.3688	-84.284	-44.789	156.698	223.466	134.490	-83.494	151.278	196.956	-50.273	-51.924	169.902	206.744	192.802	216.334	36.877	208.432	0.00026999	0.00071678	9.1022e-05	1240.7	2.4161e-06	2.2061e-06	1434.8	377.18	4.0783e-06	2.9004e-06	518.25	159.45	98.736	25.165	4.032e-06	51.932	0.00053229	0.0005503	0.00015421	1206.2	6.0085e-06	6.0624e-06	1400.6	368.93	6.0697e-06	6.1338e-06	504.69	157.49	98.271	24.952	6.1366e-06	51.106	-122.584	-19.909	-42.165	-120.285	21.367	9.757	-120.607	-116.783	63.281	17.845	-117.630	-113.264	-113.217	-108.703	4.428	-108.487	-8191	255	
40559.922	1	1	0	0	0.081458	0.065704	0.13202	0.10525	0.14519	0.2576	0.38419	0.11313	0.28835	0.11415	0.29102	0.066884	0.23807	0.12132	0.22165	0.14203	-3.2479	-3.9771	-2.975	-4.1458	-3.6792	-3.4083	-4.3917	-3.4813	-3.5771	-4.1312	-3.3479	-3.9125	-3.8063	-3.3896	-3.9458	-3.4437	-123.197	-23.252	-121.352	196.827	-110.444	-72.592	158.233	165.301	175.344	-112.562	184.258	-114.021	119.368	40.151	-116.023	209.163	0.00027041	0.00093799	0.00019701	1244.3	5.0166e-06	2.0792e-06	1435.4	377.89	4.1136e-06	4.2636e-06	519	161.04	99.723	25.293	6.2986e-06	52.384	0.00053656	0.0005469	0.00015566	1208	6.0284e-06	6.0126e-06	1404.7	370.79	6.1564e-06	6.0376e-06	507.2	158.6	98.811	25.054	6.1717e-06	51.268	-121.523	-18.536	-26.767	-120.293	4.089	-41.533	-120.709	-116.805	-29.896	-19.464	-117.508	-113.230	-113.260	-108.797	1.711	-108.324	-8191	255	
40560.020	1	1	0	0	0.15539	0.2169	0.098174	0.41564	0.075186	0.086419	0.23964	0.22739	0.095448	0.24602	0.17518	0.22929	0.15431	0.19786	0.20166	0.10399	-3.1083	-4.0188	-3.125	-3.9646	-3.8167	-3.2917	-4.2104	-3.6083	-3.3729	-4.1729	-3.2687	-3.6688	-4.0188	-3.3417	-3.8333	-3.6188	129.403	44.335	-64.920	190.441	63.624	116.870	137.723	141.040	-115.397	-104.037	82.681	-111.929	52.426	100.624	114.025	168.561	0.00030703	0.00013774	0.00026616	1251.3	4.2165e-06	5.0953e-06	1440.6	381.86	2.0864e-06	3.4368e-06	519.49	159.98	100.26	25.471	6.129e-06	52.104	0.00054297	0.00056118	0.00015353	1213.8	6.1271e-06	6.1363e-06	1409.6	373.17	6.1728e-06	6.138e-06	507.6	159.14	99.519	25.336	6.1092e-06	51.51	-121.197	76.609	-49.528	-120.204	23.137	16.144	-120.650	-117.045	12.387	35.096	-117.497	-113.397	-113.643	-109.160	7.343	-108.319	-8191	255	
40560.113	1	1	0	0	0.18221	0.1024	0.11925	0.19894	0.18857	0.17635	0.3221	0.058563	0.11136	0.12691	0.19844	0.054055	0.28544	0.20134	0.059947	0.27883	-3.0583	-3.9437	-3.1958	-3.6604	-3.7979	-3.3146	-4.3958	-3.7521	-3.3	-4.1333	-3.5396	-3.8312	-3.9792	-3.3812	-3.95	-3.8771	48.465	-124.435	-10.962	201.785	101.013	50.279	192.659	193.876	-47.327	-96.244	181.503	141.309	203.256	128.932	121.017	124.710	0.00030334	0.00021991	0.00016648	1253.6	4.925e-06	5.8421e-06	1446.6	382.43	3.3892e-06	5.7233e-06	524.84	161.44	101.37	25.668	2.0214e-06	52.535	0.00053202	0.00054886	0.00015335	1216.8	6.1319e-06	6.3133e-06	1410.5	374.4	6.1524e-06	6.3037e-06	510.5	159.89	100.47	25.504	6.2092e-06	51.84	-123.617	184.731	-60.287	-120.408	56.810	7.926	-120.663	-116.992	35.305	-41.644	-117.289	-113.518	-113.290	-108.824	-13.393	-107.985	-8191	255	
40560.211	1	1	0	0	0.20448	0.019783	0.13215	0.017586	0.14932	0.063327	0.1942	0.33087	0.26625	0.098099	0.19477	0.1384	0.19806	0.21728	0.14556	0.26781	-3.0417	-3.8833	-3.3604	-3.7812	-4.0729	-3.1312	-4.0271	-4.0312	-3.2938	-3.9542	-3.5229	-3.5292	-4.0437	-3.2229	-3.7396	-3.7979	-115.935	-114.822	-26.945	-79.846	-34.217	37.480	76.670	184.683	187.514	142.405	222.231	220.592	220.686	-50.313	198.463	165.632	0.00035887	0.00062358	0.0001263	1255.1	3.954e-06	4.3174e-06	1452.2	385.95	3.9385e-06	1.2142e-06	524.21	161.83	101.97	25.718	2.7481e-06	52.335	0.00054673	0.00056485	0.00015459	1221.5	6.1097e-06	6.3118e-06	1417.9	377.32	6.3278e-06	6.2931e-06	511.53	160.29	100.85	25.651	6.3994e-06	51.753	-120.515	-39.464	-60.891	-120.453	-25.627	-19.259	-120.544	-116.887	-13.356	65.057	-117.192	-113.419	-113.465	-108.851	-61.992	-108.321	-8191	255	
40560.309	1	1	0	0	0.030325	0.056622	0.083721	0.30077	0.15165	0.1617	0.25937	0.22802	0.15387	0.086587	0.21643	0.29756	0.25107	0.16742	0.15594	0.22306	-2.8042	-3.9313	-3.5646	-3.6354	-4.0208	-3.0563	-3.8812	-4.0437	-3.1042	-4.025	-3.7292	-3.4229	-4.1667	-3.3229	-3.6437	-4.0854	-8.144	190.384	37.515	-129.078	106.717	-82.202	199.276	155.025	87.288	-56.628	-132.694	140.078	-110.013	-109.784	212.870	-107.030	0.00027054	0.00036347	0.00012196	1257.3	7.1003e-06	5.7031e-06	1454.7	386.04	1.3489e-06	6.575e-06	528.78	162.98	102.66	26.001	5.2229e-06	52.366	0.00056717	0.00058308	0.00016314	1225.5	6.4201e-06	6.3911e-06	1422.6	378.32	6.5947e-06	6.4128e-06	514.1	161.5	101.37	25.784	6.4625e-06	51.975	-122.768	-34.021	-57.534	-120.522	-9.868	41.164	-120.728	-116.823	-69.886	65.971	-117.485	-113.372	-113.299	-108.706	98.598	-108.113	-8191	255	
40560.402	1	1	0	0	0.085727	0.18802	0.013192	0.3889	0.1659	0.065697	0.14223	0.13786	0.17081	0.13791	0.19967	0.1091	0.13972	0.066012	0.16563	0.21554	-2.7958	-3.8812	-3.5917	-3.5104	-4.0292	-3.2417	-3.8583	-4.1458	-3.1917	-3.7313	-3.9938	-3.4271	-3.9896	-3.3563	-3.3208	-3.9875	74.351	61.314	145.765	-131.028	56.831	84.938	200.073	155.818	-66.324	60.923	150.450	86.195	177.575	106.897	149.769	164.826	0.00027186	0.00039734	6.3461e-05	1258.7	4.6158e-06	6.2306e-06	1462.4	389.44	2.4628e-06	6.32e-06	526.8	162.46	102.78	25.901	3.5217e-06	52.332	0.00058055	0.00058685	0.00016003	1228.5	6.4553e-06	6.5731e-06	1426.3	381.09	6.4946e-06	6.6166e-06	514.97	161.29	101.86	25.901	6.5187e-06	52.074	-126.644	-65.024	-87.347	-120.742	10.971	-12.126	-120.696	-117.065	0.032	40.742	-117.493	-113.429	-113.639	-108.506	39.669	-108.400	-8191	255	
40560.500	1	1	0	0	0.15553	0.29942	0.10379	0.14626	0.13859	0.19412	0.24591	0.24916	0.057483	0.15056	0.29021	0.18798	0.11611	0.1594	0.033545	0.084141	-2.6667	-3.6437	-3.6833	-3.2625	-4.0271	-3.3125	-3.4167	-4.1188	-3.1979	-3.675	-3.9208	-3.3937	-3.9542	-3.5146	-3.2354	-4.2063	141.728	37.313	72.386	-89.925	-14.754	124.955	175.086	138.161	141.920	83.841	206.372	-69.317	125.316	182.938	4.820	-0.693	0.00025527	0.00089646	8.1859e-05	1261.8	2.7304e-06	5.0528e-06	1462.3	389.14	2.986e-06	4.0133e-06	526.76	163.63	102.97	26.118	7.3059e-06	52.695	0.00058057	0.00061467	0.0001674	1229.5	6.5776e-06	6.6213e-06	1426.6	381.65	6.7708e-06	6.8658e-06	515.49	161.61	102.23	25.954	6.7475e-06	52.107	-113.247	-33.376	-77.686	-120.338	13.797	19.405	-120.805	-116.851	-34.652	-40.690	-117.279	-113.806	-113.379	-108.891	6.823	-108.245	-8191	255	
40560.594	1	1	0	0	0.15963	0.11561	0.12005	0.047578	0.1666	0.11811	0.18204	0.17882	0.16043	0.085606	0.18476	0.11801	0.27255	0.21154	0.065535	0.25935	-2.9208	-3.4625	-3.7208	-3.2792	-3.9625	-3.5062	-3.5563	-4.1646	-3.2229	-3.5187	-4.0396	-3.1542	-3.8833	-3.6396	-3.2625	-4.1583	173.850	36.615	59.220	-88.089	-89.701	-63.413	-84.110	116.207	131.769	-11.410	179.046	26.224	173.351	147.430	-121.778	142.487	0.00029631	0.00054272	0.00016947	1267.9	2.2177e-06	3.0599e-06	1463.8	390.71	1.582e-06	4.5895e-06	531.24	163.36	102.68	26.17	5.699e-06	52.429	0.0005845	0.00060143	0.00016995	1237.5	6.7817e-06	6.6798e-06	1429.9	383.12	6.7225e-06	6.6468e-06	518.2	161.84	102.32	26.075	6.8323e-06	52.163	-118.365	-71.144	-2.422	-120.635	-44.556	-18.702	-120.662	-117.032	-127.192	44.318	-117.630	-113.928	-113.620	-108.999	-38.989	-108.500	-8191	255	
40560.715	1	1	0	0	0.083193	0.13244	0.061037	0.21022	0.072442	0.13628	0.096621	0.099489	0.23087	0.078367	0.087055	0.15983	0.15802	0.27693	0.3209	0.18273	-2.8896	-3.5792	-3.8812	-3.3083	-3.8542	-3.7146	-3.4562	-4.3479	-3.4292	-3.3917	-4.1958	-3.3563	-3.7708	-3.7292	-3.1146	-4.1417	18.853	-107.197	-110.379	190.055	-62.583	-84.107	-100.394	81.558	26.190	-49.344	159.104	-96.515	124.151	190.591	201.387	105.979	0.00027584	0.00035304	3.4845e-05	1269.5	5.8671e-06	5.5479e-06	1466.2	392.61	2.8821e-06	8.9097e-06	531.3	163.98	102.92	25.986	4.6831e-06	52.787	0.00058967	0.00060793	0.00017108	1237.2	6.7689e-06	6.7888e-06	1432.8	383.58	6.7803e-06	6.9524e-06	518.93	162.21	102.42	25.998	6.9648e-06	52.28	-121.065	-64.913	-56.059	-120.637	5.159	20.807	-120.659	-116.901	-24.004	-4.881	-117.341	-113.472	-113.629	-108.733	4.028	-108.317	-8191	255	
40560.789	1	1	0	0	0.20608	0.18077	0.15674	0.067821	0.15579	0.12867	0.32371	0.0093414	0.08007	0.12366	0.18165	0.13172	0.11288	0.294	0.05653	0.46718	-3.2729	-3.3375	-3.9042	-3.4667	-3.5021	-3.9146	-3.4271	-4.1396	-3.4896	-3.4021	-4.2188	-3.4604	-3.5854	-4.1146	-3.2729	-4.0896	84.589	171.556	81.996	126.645	55.595	-27.045	151.805	-71.096	-41.627	-118.125	139.301	195.275	65.767	-59.540	162.237	186.700	0.0002464	0.00046	0.00018725	1266.7	1.9215e-06	4.0446e-06	1468.6	389.66	4.8797e-06	1.8458e-06	529.29	162.72	102.3	25.955	6.6447e-06	52.825	0.00060792	0.00062523	0.00017552	1234.2	6.8697e-06	6.8713e-06	1431.5	382.42	6.8546e-06	6.9396e-06	517.38	161.65	101.57	25.899	7.0859e-06	52.052	-126.848	-78.741	-68.664	-120.356	-17.332	61.025	-120.775	-116.893	-1.812	-25.455	-117.864	-113.370	-113.755	-108.735	25.913	-108.023	-8191	255	
40560.906	1	1	0	0	0.1453	0.10409	0.077956	0.40918	0.21757	0.27598	0.44099	0.16051	0.3864	0.28182	0.1453	0.086898	0.072957	0.31261	0.20724	0.16174	-3.425	-3.3083	-4.0917	-3.5729	-3.5667	-4.0146	-3.4562	-3.9521	-3.6604	-3.3229	-4.0604	-3.5229	-3.5125	-4.0188	-3.2771	-3.8833	119.523	43.083	23.102	209.774	24.394	33.988	189.815	192.323	172.406	139.758	152.767	72.745	155.756	159.024	81.893	118.900	0.00026617	0.00029366	0.00020122	1259.8	2.7261e-06	2.8799e-06	1454.7	388.5	1.3637e-06	5.7068e-06	528.39	162.57	102.52	25.694	8.4298e-06	52.532	0.00060478	0.00063764	0.00017883	1227.3	6.8475e-06	6.9903e-06	1424	380.81	6.9696e-06	7.1219e-06	515.55	160.95	101.75	25.792	7.0904e-06	52.056	-128.335	11.377	-85.779	-120.373	1.127	59.856	-120.551	-116.970	8.075	21.461	-117.643	-113.242	-113.604	-108.909	-10.321	-108.520	-8191	255	
40561.004	1	1	0	0	0.12079	0.16925	0.1477	0.23657	0.07451	0.19239	0.094897	0.17558	0.17064	0.24153	0.14381	0.19008	0.12879	0.20004	0.19459	0.049999	-3.3167	-3.0271	-4.1312	-3.7083	-3.4271	-3.9521	-3.4292	-3.9437	-3.7729	-3.1729	-4.1125	-3.45	-3.4417	-3.9479	-3.1688	-3.6354	-51.712	-30.031	194.382	-118.269	133.463	221.403	170.737	186.593	-110.573	-39.118	138.221	184.247	-113.250	-85.182	-109.968	69.532	0.0002511	6.2379e-05	0.00010465	1262.8	2.9417e-06	3.4726e-06	1455.4	389.02	4.7094e-06	2.7666e-06	528.73	162.15	102.36	25.935	6.895e-06	52.776	0.00059744	0.00063461	0.000175	1230.5	6.7973e-06	7.0829e-06	1427.5	381.44	7.0733e-06	7.143e-06	516.72	161.27	101.82	25.923	6.9823e-06	52.185	-111.688	78.153	-29.568	-120.166	30.213	-5.812	-120.496	-116.966	-1.114	2.127	-117.228	-113.682	-113.197	-108.967	-34.045	-108.154	-8191	255	
40561.098	1	1	0	0	0.16919	0.22676	0.074532	0.22811	0.26871	0.1269	0.27291	0.13295	0.27948	0.19927	0.22957	0.0062781	0.16832	0.087809	0.042799	0.22665	-3.4208	-3.1083	-3.9042	-3.7167	-3.2583	-4.0542	-3.4896	-3.7875	-3.9167	-3.15	-4.1896	-3.6917	-3.3917	-4.0083	-3.2833	-3.7062	-92.638	-85.435	21.740	205.063	-90.868	-6.920	192.885	53.405	-69.169	0.125	167.455	87.521	-82.892	117.093	201.593	192.882	0.00023305	0.00067661	4.6851e-05	1260.3	4.0494e-06	3.8745e-06	1450.2	389.15	4.2809e-06	3.9582e-06	527.27	163.19	101.95	25.94	7.3197e-06	53.19	0.0006096	0.00064963	0.00017725	1228.5	6.9341e-06	7.0002e-06	1423	380.1	7.0497e-06	7.0543e-06	516.66	161.96	101.43	25.845	6.9211e-06	52.53	-115.344	-56.409	-35.434	-120.589	-24.865	-20.466	-120.728	-117.238	50.563	-21.352	-117.666	-113.626	-113.342	-109.061	6.692	-108.406	-8191	255	
40561.195	1	1	0	0	0.099788	0.16145	0.33224	0.24745	0.20281	0.20219	0.3201	0.206	0.19453	0.11951	0.13732	0.11096	0.078383	0.11742	0.13319	0.27555	-3.7646	-3.0792	-3.8	-3.8375	-3.1333	-4.0875	-3.6479	-3.6979	-3.9708	-3.15	-3.9271	-3.8563	-3.4792	-4.0167	-3.45	-3.5729	-9.768	0.031	-35.730	174.145	-107.151	-37.965	-131.134	205.770	216.333	-28.308	117.155	141.651	94.834	-130.727	218.176	197.524	0.00025971	0.00040426	0.0001148	1260.3	5.8359e-06	7.3886e-06	1458.8	386.51	1.7025e-06	7.4773e-06	531.26	163.77	101.62	26.09	3.7318e-06	53.04	0.00060434	0.00062836	0.00017058	1227.3	6.8111e-06	6.8639e-06	1424.4	378.57	6.7829e-06	6.7752e-06	517.82	162.18	101.08	25.804	6.7074e-06	52.493	-123.536	-110.685	-47.583	-120.258	67.888	41.128	-120.489	-117.035	47.444	2.686	-117.474	-113.376	-113.465	-108.734	26.226	-108.237	-8191	255	
40561.316	1	1	0	0	0.15325	0.22129	0.16113	0.25078	0.03602	0.20388	0.14889	0.35614	0.22169	0.20309	0.069827	0.073395	0.30467	0.11079	0.1736	0.05081	-3.5417	-3.1583	-3.6292	-4.0354	-3.1813	-3.8083	-3.6708	-3.4062	-3.9688	-3.1562	-3.8396	-4.025	-3.3396	-3.7771	-3.4958	-3.3104	71.666	-62.109	7.092	-114.782	-21.156	-88.891	-129.996	205.495	177.303	-130.392	160.018	165.551	128.003	-105.441	32.409	-36.699	0.00030893	0.00043615	0.00014223	1251.4	1.5395e-06	4.3949e-06	1456.8	383.73	4.5777e-06	7.1004e-06	527.6	162.94	101.13	25.742	2.3486e-06	53.258	0.00060163	0.00062885	0.00017165	1219.7	6.7108e-06	6.8116e-06	1420.4	375.81	6.7649e-06	6.6807e-06	513.94	161.28	100.49	25.571	6.5747e-06	52.417	-120.947	-82.896	-52.870	-120.071	0.252	8.705	-120.718	-117.180	-40.569	6.871	-117.435	-113.488	-113.814	-108.566	66.777	-108.136	-8191	255	
40561.410	1	1	0	0	0.17695	0.10555	0.17015	0.19104	0.13511	0.094531	0.25127	0.30676	0.15009	0.05967	0.26235	0.28534	0.28532	0.13854	0.23299	0.058436	-3.6583	-3.35	-3.5292	-4.0542	-3.1104	-3.9021	-3.8979	-3.4208	-4.0667	-3.1688	-3.8	-4.0271	-3.2562	-3.8563	-3.7458	-3.45	78.491	69.189	-20.896	210.773	124.497	45.922	180.184	133.594	41.656	62.934	131.089	111.056	122.046	183.811	124.712	-69.542	0.00026389	0.00073632	9.2126e-05	1249.7	5.5457e-06	2.6035e-06	1458.2	382.98	2.3462e-06	3.5539e-06	527.96	163.36	100.98	25.797	6.2509e-06	52.989	0.00057984	0.00060376	0.00016737	1216.9	6.5808e-06	6.4949e-06	1420.9	374.72	6.6203e-06	6.6357e-06	514.72	161.83	100.42	25.585	6.4286e-06	52.518	-111.982	-65.731	-30.891	-120.201	-8.697	36.638	-120.388	-117.034	-31.426	116.770	-117.327	-113.373	-113.483	-108.535	42.050	-108.165	-8191	255	
40561.484	1	1	0	0	0.13338	0.056557	0.19211	0.15305	0.055959	0.055515	0.26771	0.29626	0.27226	0.097311	0.13887	0.1102	0.076695	0.12485	0.10086	0.084919	-3.85	-3.2687	-3.4125	-4.2167	-3.05	-3.7958	-4.0229	-3.3146	-4.0208	-3.5333	-3.5292	-4.2292	-3.2958	-3.7771	-3.8417	-3.1125	21.995	-85.421	37.679	74.365	99.252	186.219	193.106	94.190	-40.132	-6.090	126.252	-111.518	34.453	79.265	28.960	-94.457	0.00028563	0.00083911	9.5507e-05	1247.7	3.5999e-06	6.899e-06	1459.7	382.85	5.0088e-06	7.5494e-06	527.35	163.74	101.34	25.521	2.2218e-06	53.239	0.00056626	0.00058231	0.00016543	1215.1	6.4139e-06	6.317e-06	1419.3	374.76	6.3652e-06	6.2013e-06	514.35	161.79	99.988	25.392	6.2923e-06	52.533	-114.285	-58.511	-29.020	-120.296	33.848	2.886	-120.368	-116.905	-13.545	39.718	-117.133	-113.187	-113.429	-109.207	49.488	-108.102	-8191	255	
40561.602	1	1	0	0	0.066543	0.078738	0.096089	0.18089	0.047653	0.010504	0.22865	0.11962	0.1238	0.24859	0.064505	0.40235	0.19983	0.27465	0.18854	0.11782	-3.7417	-3.6375	-3.4104	-4.2	-3.1146	-3.8354	-4.0938	-3.2854	-3.8792	-3.6937	-3.4062	-4.0583	-3.4333	-3.5542	-3.9583	-3.2292	46.080	199.934	202.474	209.873	104.301	-12.705	144.841	72.244	-47.370	52.628	158.781	158.463	182.758	132.051	-80.570	-76.939	0.00028815	0.00022215	7.7874e-05	1246.8	1.9945e-06	2.4355e-06	1449.5	380.18	4.8926e-06	9.1264e-06	528.45	162.86	99.991	25.371	6.4217e-06	53.278	0.00053843	0.00055415	0.00015312	1213.8	6.0055e-06	6.1017e-06	1417.7	372.31	6.0846e-06	6.0308e-06	513.29	161.2	99.129	25.148	6.0035e-06	52.411	-128.250	-18.867	-53.831	-120.177	61.998	116.572	-120.530	-116.827	-24.110	-21.368	-117.511	-113.135	-113.219	-108.678	12.641	-108.210	-8191	255	
40561.699	1	1	0	0	0.19193	0.069264	0.13024	0.17205	0.23057	0.028495	0.2189	0.19361	0.2543	0.051135	0.045263	0.14929	0.12821	0.29842	0.1043	0.24883	-3.5687	-3.6958	-3.1771	-4.2333	-3.2583	-3.475	-4.2208	-3.4062	-3.7687	-3.7479	-3.4271	-4.1458	-3.4604	-3.4437	-4.0458	-3.3854	-3.877	-102.677	101.156	-95.414	170.133	21.259	174.908	164.477	-4.065	34.990	-105.905	156.134	179.743	-5.271	27.549	213.428	0.0003217	0.00076408	8.2259e-05	1241.4	3.0612e-06	3.0648e-06	1451.4	379.36	3.2312e-06	3.5249e-06	523.43	161.74	99.564	25.351	7.9844e-06	53.039	0.00051873	0.00053352	0.00015141	1207.2	5.8337e-06	5.8833e-06	1412.8	370.86	5.8922e-06	5.9815e-06	510.86	160.27	98.769	25.187	5.8733e-06	52.348	-131.015	-36.439	17.955	-120.217	24.377	72.730	-120.642	-116.959	66.236	12.574	-117.467	-113.342	-113.385	-108.764	43.780	-108.084	-8191	255	
40561.797	1	1	0	0	0.050946	0.24485	0.14899	0.32334	0.10475	0.038009	0.076448	0.26523	0.11798	0.085571	0.44341	0.18931	0.16665	0.091448	0.016977	0.056173	-3.4854	-3.7208	-3.0167	-4.1583	-3.5833	-3.3937	-3.975	-3.4333	-3.6917	-3.7896	-3.3833	-4.2333	-3.6729	-3.25	-4.0188	-3.4521	-106.699	77.949	-100.168	-127.246	129.599	-43.537	-122.611	144.108	-116.541	68.761	170.980	-44.419	79.509	220.113	-115.800	150.705	0.00028406	0.00035412	9.095e-05	1235.1	1.4337e-06	3.9841e-06	1444.8	379.1	5.3784e-06	6.2328e-06	525.57	162.57	99.805	25.377	5.6069e-06	53.113	0.00052869	0.00053665	0.00015218	1205.1	5.7927e-06	5.869e-06	1412.4	371.44	5.8296e-06	5.9767e-06	511.99	160.96	98.881	25.237	6.01e-06	52.389	-120.164	-23.042	45.858	-120.210	-10.792	-35.118	-120.485	-116.741	-35.318	10.230	-117.421	-113.530	-113.214	-108.487	-3.094	-108.270	-8191	255	
40561.891	1	1	0	0	0.093708	0.048674	0.1593	0.31027	0.035906	0.12287	0.077666	0.19484	0.33456	0.029108	0.23971	0.14688	0.19211	0.18633	0.060852	0.062914	-3.1333	-3.7625	-2.95	-4.125	-3.4479	-3.1625	-4.2937	-3.4646	-3.6229	-3.8958	-3.3125	-3.9958	-3.7771	-3.1083	-3.9646	-3.4167	194.377	28.345	-87.833	192.297	194.824	-88.178	187.153	194.947	160.781	-92.716	187.461	218.666	17.304	29.651	-127.910	19.662	0.00031104	0.00062509	0.00017219	1240.1	1.973e-06	5.8895e-06	1456.7	380.7	7.1001e-06	5.3944e-06	526.27	163.8	100.06	25.336	5.2029e-06	53.728	0.00051429	0.0005431	0.00015058	1209.1	5.7494e-06	5.9482e-06	1418.9	372.56	5.934e-06	6.0447e-06	513.63	161.11	99.179	25.333	5.925e-06	52.604	-114.665	-94.932	-10.338	-120.539	-17.287	-20.022	-120.629	-117.263	24.392	-41.765	-117.157	-113.488	-113.427	-108.857	4.118	-107.985	-8191	255	
40562.012	1	1	0	0	0.027238	0.17758	0.17159	0.23775	0.25524	0.016639	0.23306	0.088836	0.1505	0.34967	0.39494	0.20947	0.11467	0.092601	0.11673	0.10048	-3.3	-3.9917	-3.1583	-4.0396	-3.7125	-3.3375	-4.2812	-3.5521	-3.3542	-4.1	-3.2542	-3.8625	-3.9271	-3.1667	-4.0792	-3.625	123.563	-34.130	44.910	190.065	123.311	-13.917	184.601	132.030	20.111	-96.621	109.693	195.863	121.839	77.617	-63.016	192.872	0.0003544	0.00059526	6.676e-05	1244	3.7624e-06	1.3299e-06	1461.3	382.35	2.972e-06	8.1516e-06	529.43	163.51	100.78	25.838	7.2867e-06	53.328	0.00051951	0.00054864	0.00015412	1213.8	6.0491e-06	5.9842e-06	1426.4	374.08	5.9724e-06	6.0554e-06	514.71	161.44	99.6	25.48	6.0479e-06	52.503	-123.748	-57.434	-11.913	-120.365	-16.872	-77.960	-120.521	-117.010	-9.121	25.932	-117.306	-113.563	-113.155	-108.837	0.414	-108.131	-8191	255	
40562.082	1	1	0	0	0.087969	0.12943	0.10815	0.39752	0.11117	0.17723	0.4212	0.16402	0.10329	0.047282	0.026111	0.18405	0.20189	0.10834	0.1651	0.33183	-3.0417	-3.9396	-3.1042	-3.9042	-3.8354	-3.1917	-4.25	-3.7208	-3.4167	-4.1271	-3.5729	-3.7812	-4.0229	-3.2021	-4.0104	-3.8542	-90.505	178.738	58.531	220.568	-115.896	192.290	160.719	101.072	176.961	-116.231	-59.522	183.507	220.415	-13.887	-101.552	142.690	0.00031097	0.00087154	0.00019801	1246.6	3.2252e-06	4.1441e-06	1446.5	381.14	7.6736e-06	3.8474e-06	525.17	162.65	100.05	25.452	6.6456e-06	53.07	0.00052862	0.00054664	0.00015258	1213.6	5.9606e-06	6.0186e-06	1415.6	372.49	6.1478e-06	6.1654e-06	511.75	160.29	99.027	25.25	6.0488e-06	52.335	-117.568	-53.265	-64.098	-120.367	13.379	-6.987	-120.514	-116.889	-18.474	54.912	-117.568	-113.407	-113.565	-108.764	41.650	-107.915	-8191	255	
40562.180	1	1	0	0	0.14457	0.056628	0.129	0.33247	0.20847	0.18647	0.11235	0.10432	0.16084	0.10962	0.22444	0.13087	0.059997	0.17594	0.10535	0.03423	-3.0604	-4.075	-3.4479	-3.9521	-4.0104	-3.2125	-4.0479	-3.9521	-3.0833	-4.025	-3.6604	-3.5125	-4.0667	-3.2667	-3.7896	-3.825	0.341	49.273	169.144	-134.622	165.309	-104.828	178.131	-128.471	-77.226	69.842	179.189	166.902	-60.236	168.565	178.097	130.035	0.00031948	0.00046245	0.00016919	1245.2	4.1838e-06	4.3768e-06	1446.8	380.6	1.9748e-06	2.7872e-06	525.6	162.38	100.63	25.415	7.2575e-06	53.076	0.00053789	0.00056409	0.00015297	1209	6.144e-06	6.1036e-06	1416.9	372.33	6.2688e-06	6.1733e-06	511.87	160.93	99.467	25.378	5.9784e-06	52.327	-120.957	-22.392	-27.787	-120.352	100.348	3.509	-120.466	-117.040	2.307	80.075	-117.408	-113.409	-113.532	-108.572	2.068	-108.091	-8191	255	
40562.273	1	1	0	0	0.16156	0.1413	0.036912	0.10929	0.18286	0.13472	0.31618	0.2611	0.14232	0.080421	0.38001	0.19192	0.12248	0.060471	0.15717	0.17138	-3.0125	-3.9562	-3.5396	-3.7479	-4.0875	-3.1896	-3.9646	-3.9771	-3.2854	-4.0875	-3.825	-3.6604	-4.1792	-3.3958	-3.6667	-3.9833	14.010	28.356	-86.002	-65.100	28.107	-64.121	172.561	215.685	-36.338	217.232	170.588	200.232	124.027	-104.245	122.228	100.830	0.00022386	0.00013804	0.00015649	1246.5	7.0946e-06	5.4782e-06	1454.2	381.8	1.8351e-06	2.6714e-06	525.14	162.15	100.62	25.457	5.5572e-06	53.145	0.00054183	0.00055064	0.0001539	1212	6.071e-06	6.1688e-06	1420.8	373.26	6.106e-06	6.1918e-06	512.11	160.66	99.806	25.271	5.9486e-06	52.46	-112.621	128.454	-43.973	-120.398	-7.061	42.743	-120.661	-116.912	9.449	13.680	-117.477	-113.449	-113.284	-108.908	-10.358	-108.119	-8191	255	
40562.395	1	1	0	0	0.37612	0.061478	0.027274	0.066137	0.10197	0.057828	0.28035	0.14434	0.099701	0.06669	0.11093	0.062686	0.21244	0.13257	0.16351	0.24943	-2.9458	-4.0062	-3.5771	-3.4042	-4.0417	-3.4604	-3.7875	-4.075	-3.2188	-3.9667	-3.7854	-3.3625	-4.2167	-3.2833	-3.5896	-4.0687	189.709	167.317	58.177	195.364	-115.985	84.472	197.854	87.788	-129.739	-104.610	144.567	7.628	200.926	-19.745	-127.360	181.832	0.00032402	0.00044969	0.00014112	1245.6	4.359e-06	1.5709e-06	1455.6	379.06	3.8928e-06	1.9373e-06	525.7	163.12	99.612	25.571	2.9888e-06	52.935	0.00053717	0.00055339	0.00015647	1212.4	6.0963e-06	6.1797e-06	1420.9	372.26	6.1062e-06	6.1382e-06	512.23	160.99	99.463	25.41	6.0252e-06	52.37	-121.859	-59.160	-55.530	-120.341	56.039	-111.065	-120.678	-116.881	2.183	-93.094	-117.295	-113.627	-113.326	-108.672	-1.830	-108.021	-8191	255	
40562.492	1	1	0	0	0.13143	0.17829	0.17996	0.26051	0.029573	0.073243	0.23867	0.17771	0.2208	0.27743	0.05455	0.16229	0.20415	0.17565	0.34524	0.11183	-2.8354	-3.8563	-3.6896	-3.7479	-4.0375	-3.4792	-3.4813	-4.0417	-3.0458	-3.775	-3.8458	-3.3646	-4.0917	-3.3563	-3.1375	-4.1125	-13.105	131.085	-120.567	198.885	-39.533	222.268	137.492	176.875	184.541	-93.623	183.549	131.064	-109.053	-120.549	6.741	-127.911	0.00026849	0.00057422	0.00010484	1247.8	1.4033e-06	5.103e-06	1454.8	380.06	3.5156e-06	5.4533e-06	527.49	161.15	99.648	25.736	4.8298e-06	52.945	0.00054312	0.00054545	0.00015516	1213	6.1462e-06	6.018e-06	1418	372.79	6.1623e-06	6.0582e-06	510.75	159.83	99.32	25.437	6.0721e-06	52.137	-131.261	13.257	-22.674	-120.356	-17.928	57.490	-120.797	-117.071	3.294	13.848	-117.285	-113.617	-113.502	-108.763	34.161	-107.911	-8191	255	
40562.590	1	1	0	0	0.14688	0.063254	0.30601	0.12162	0.057871	0.3341	0.26892	0.10586	0.080515	0.2751	0.42121	0.21316	0.050803	0.17346	0.20549	0.17025	-2.9375	-3.7771	-3.7396	-3.3896	-3.7875	-3.5208	-3.5479	-4.1667	-3.2271	-3.5854	-4.0312	-3.3021	-4.0604	-3.5792	-3.425	-4.1208	-83.766	72.530	127.137	137.237	-21.721	61.434	163.567	-124.435	115.093	-53.309	197.961	183.245	-49.704	121.992	112.025	-11.697	0.00027746	0.00072416	0.00012153	1249	5.6838e-06	3.4374e-06	1454	379.08	3.9499e-06	8.1965e-06	522.66	161.23	100.8	25.511	7.8041e-06	52.998	0.00052963	0.00054436	0.00015375	1214.4	6.1245e-06	6.0602e-06	1418.3	373.1	6.1858e-06	6.0149e-06	510.19	160.2	99.86	25.432	6.114e-06	52.138	-114.344	-66.681	-41.540	-120.369	-13.899	21.202	-120.859	-116.822	14.633	32.212	-117.245	-113.531	-113.535	-108.738	-5.245	-108.231	-8191	255	
40562.684	1	1	0	0	0.099352	0.15173	0.20899	0.053922	0.17073	0.065434	0.23841	0.26999	0.26109	0.047952	0.31616	0.059483	0.10599	0.039675	0.0057293	0.23979	-2.8521	-3.5833	-3.9271	-3.4188	-3.7896	-3.8	-3.4792	-4.0375	-3.2292	-3.5625	-3.8833	-3.0187	-3.9062	-3.5687	-3.4604	-3.9437	142.598	-28.863	-82.361	211.125	46.991	138.665	197.191	198.412	-110.915	172.712	197.604	34.394	-104.953	58.183	205.725	213.790	0.00028322	0.00080008	9.9817e-05	1255	2.5676e-06	3.4617e-06	1460.5	384.49	3.356e-06	3.9329e-06	524.82	162.27	100.9	25.706	5.9016e-06	52.554	0.00053882	0.00054365	0.00015638	1219.6	6.062e-06	6.0561e-06	1420.7	375.54	6.1065e-06	6.2372e-06	512.32	160.64	100.17	25.521	6.2326e-06	52.071	-116.369	-35.718	-2.403	-120.389	-61.726	15.448	-120.738	-117.033	-1.889	89.201	-117.473	-113.431	-113.490	-108.738	-6.999	-108.291	-8191	255	
40562.777	1	1	0	0	0.12977	0.11099	0.13375	0.44687	0.11448	0.10452	0.21946	0.12345	0.11453	0.069865	0.19473	0.090427	0.11493	0.12744	0.15104	0.09441	-3.1188	-3.4458	-3.9417	-3.2646	-3.7917	-3.725	-3.3021	-4.0917	-3.4896	-3.3958	-4.1333	-3.3833	-3.7562	-4.0604	-3.1979	-4.0563	-16.534	146.442	207.921	183.765	-106.565	-134.599	180.210	130.522	124.679	7.059	180.232	137.567	-103.477	156.797	113.351	110.667	0.00031918	0.00034682	4.3864e-05	1250.9	4.1319e-06	6.2334e-06	1452.4	384.38	2.4501e-06	2.1097e-06	525.06	162.58	101.18	25.799	3.3469e-06	53.096	0.00054285	0.00056106	0.00015882	1217.6	5.9582e-06	6.1117e-06	1424.6	375.98	6.0733e-06	6.1763e-06	512.81	160.99	99.982	25.565	6.2639e-06	52.302	-116.098	-95.483	-70.259	-120.291	14.881	17.258	-120.484	-117.009	-33.987	27.431	-117.214	-113.690	-113.293	-108.658	127.550	-108.068	-8191	255	
40562.875	1	1	0	0	0.16003	0.060595	0.06688	0.060356	0.25783	0.11576	0.31409	0.36036	0.16746	0.21072	0.23176	0.14806	0.024729	0.078222	0.1813	0.082715	-3.0646	-3.4542	-4.0625	-3.5042	-3.6437	-3.9271	-3.2229	-4.0875	-3.7542	-3.3875	-4.2104	-3.5646	-3.7062	-3.8812	-3.2313	-4.1937	61.760	5.986	143.753	177.680	-75.721	145.968	154.110	196.954	2.921	-1.259	160.295	149.963	-85.481	29.788	204.270	-63.918	0.00026464	0.00077726	0.00017004	1251.6	5.133e-06	1.8959e-06	1449.1	382.73	3.8808e-06	9.1859e-06	522.98	161.47	100.18	25.787	5.1817e-06	52.117	0.00053547	0.00055559	0.00015728	1216.6	6.0982e-06	6.1435e-06	1418.3	373.71	6.102e-06	6.2851e-06	510.53	159.82	99.531	25.492	6.2038e-06	51.715	-113.490	-19.149	-33.960	-120.337	-7.574	-18.755	-120.657	-117.154	-32.829	-6.694	-117.409	-113.410	-113.837	-108.692	-44.825	-108.012	-8191	255	
40562.996	1	1	0	0	0.14709	0.1683	0.4285	0.24533	0.089864	0.11208	0.30617	0.19246	0.19741	0.24409	0.19409	0.21978	0.16184	0.19802	0.07364	0.22412	-3.3521	-3.2417	-4.0312	-3.6688	-3.5187	-4.0167	-3.5146	-4.1229	-3.7625	-3.3312	-4.2417	-3.6	-3.5687	-4.1271	-3.2208	-3.7562	151.463	-4.583	197.327	209.250	-101.784	199.363	103.693	191.329	215.608	107.577	185.922	210.904	16.519	-120.082	26.098	-107.220	0.00028085	0.00073551	0.00011082	1245.8	2.837e-06	8.0508e-06	1455.6	379.89	2.8532e-06	7.3258e-06	521.1	161.36	100.4	25.744	4.7066e-06	52.656	0.0005468	0.0005692	0.0001567	1213.8	6.216e-06	6.4047e-06	1416.9	372.41	6.1361e-06	6.3249e-06	509.44	159.88	99.77	25.473	6.3164e-06	51.878	-119.033	-60.978	-58.854	-120.255	-21.552	45.800	-120.601	-116.809	29.335	-14.825	-117.358	-113.168	-113.212	-108.323	4.962	-108.281	-8191	255	
40563.094	1	1	0	0	0.11758	0.26788	0.099836	0.12631	0.12165	0.020993	0.15698	0.23201	0.25667	0.22489	0.10352	0.085668	0.11973	0.17874	0.16341	0.18765	-3.4958	-3.175	-4.0854	-3.8104	-3.4167	-4.0583	-3.5333	-3.7062	-3.85	-3.1208	-4.2125	-3.6063	-3.4208	-4.1042	-3.4542	-3.7396	137.940	135.349	58.692	144.959	-36.185	-9.552	6.483	219.606	-57.927	163.106	167.199	106.843	61.183	174.386	200.439	172.459	0.00024848	0.00078307	0.00011003	1253.1	1.11e-06	2.8559e-06	1457.3	384.16	8.0834e-07	3.9942e-06	526.02	162.76	101.65	25.826	7.7497e-06	52.691	0.00055163	0.00056313	0.00015738	1219.9	6.1368e-06	6.238e-06	1425	376.52	6.2987e-06	6.3902e-06	512.93	160.61	100.82	25.73	6.1889e-06	52.177	-133.540	-53.927	-40.489	-120.139	169.169	-49.078	-120.450	-117.068	-7.381	-11.883	-117.775	-113.454	-113.053	-108.885	-36.842	-108.321	-8191	255	
40563.188	1	1	0	0	0.301	0.032446	0.22114	0.19022	0.19222	0.2098	0.12739	0.11451	0.1792	0.08318	0.3078	0.11906	0.1785	0.036956	0.11527	0.040543	-3.5687	-3.2646	-3.8167	-3.9542	-3.2938	-4.0979	-3.6688	-3.775	-3.9167	-3.1312	-4.0854	-3.8187	-3.2396	-3.9771	-3.3917	-3.6042	224.875	4.262	-42.182	-112.474	-104.491	-9.363	122.815	150.262	187.420	-52.475	213.805	-128.932	-65.543	177.308	179.649	147.183	0.00027502	0.00051916	0.00010514	1258.8	3.7655e-06	7.8789e-06	1458.6	387.02	2.4009e-06	7.8029e-06	526.06	162.2	101.49	25.713	3.1339e-06	52.678	0.0005611	0.00058007	0.00015826	1225	6.406e-06	6.3606e-06	1427.7	378.36	6.4197e-06	6.4128e-06	513.87	161.17	100.93	25.735	6.2841e-06	52.206	-119.471	-68.415	3.708	-120.284	-36.127	6.807	-120.471	-117.007	-8.764	14.790	-117.503	-113.260	-113.627	-108.964	40.889	-108.405	-8191	255	
40563.309	1	1	0	0	0.13054	0.095346	0.13434	0.33971	0.17153	0.15801	0.18492	0.21572	0.16866	0.1625	0.012425	0.19241	0.19692	0.3722	0.21029	0.12007	-3.7521	-3.2687	-3.7562	-3.9792	-3.325	-3.9917	-3.7104	-3.4688	-4.0208	-3.3208	-3.7729	-3.9625	-3.2479	-4.0188	-3.5187	-3.3521	37.728	-77.117	-42.293	-106.940	197.676	-77.440	114.646	219.379	-35.383	96.393	67.825	87.952	115.238	112.739	12.497	144.570	0.00035035	0.00040751	0.00016673	1259.5	4.1374e-06	5.3457e-06	1456.6	383.98	3.0133e-06	8.7394e-06	523.53	162.68	102.02	25.998	5.4264e-06	52.777	0.00057492	0.00058189	0.00016003	1224.3	6.5205e-06	6.5789e-06	1423.8	377.05	6.4834e-06	6.3936e-06	512.12	161.14	100.79	25.715	6.4049e-06	52.039	-115.503	-74.915	-18.279	-120.110	-56.115	10.077	-120.591	-117.109	-17.066	-22.223	-117.692	-113.317	-113.372	-109.102	37.742	-108.347	-8191	255	
40563.379	1	1	0	0	0.30737	0.042349	0.11239	0.24255	0.12842	0.080776	0.15945	0.39585	0.014016	0.13907	0.23221	0.14673	0.18222	0.11301	0.066592	0.3749	-3.6813	-3.3417	-3.5687	-4.1354	-3.175	-3.9125	-3.8146	-3.3375	-4.05	-3.3312	-3.8125	-4.05	-3.3646	-3.9021	-3.5312	-3.3646	161.984	125.108	104.565	210.701	23.551	-133.460	175.568	186.853	15.390	169.631	-122.252	110.694	219.777	130.742	195.161	179.317	0.00023253	0.00089787	0.00012164	1255.1	5.871e-06	3.2886e-06	1455	384.9	3.8751e-06	3.5075e-06	522.7	162.79	100.77	25.741	4.8506e-06	52.912	0.00056575	0.00058918	0.00016199	1222.4	6.4555e-06	6.486e-06	1420.3	376.33	6.4458e-06	6.4516e-06	511.36	160.72	100.32	25.576	6.5481e-06	52.033	-121.074	-28.263	-43.828	-120.373	-76.767	0.861	-120.632	-116.941	4.167	47.028	-117.330	-113.187	-113.451	-108.588	30.230	-108.271	-8191	255	
40563.477	1	1	0	0	0.21575	0.16553	0.14	0.19505	0.32055	0.16779	0.22388	0.14369	0.15922	0.17679	0.10863	0.21373	0.078734	0.069133	0.36416	0.14522	-3.6854	-3.3521	-3.4729	-4.0854	-3.2792	-3.7708	-3.9313	-3.4917	-4.0208	-3.45	-3.4938	-4.0312	-3.3083	-3.8312	-3.6813	-3.2292	-52.343	-86.832	110.378	179.901	11.676	119.949	89.915	157.320	93.570	-32.923	174.403	152.939	135.510	104.038	-30.341	-99.246	0.00026083	0.00030524	0.00021421	1253.1	3.0413e-06	4.7606e-06	1453.4	383.19	3.6659e-06	5.7042e-06	524.73	162.45	101.37	25.817	4.1942e-06	52.664	0.00057157	0.00057639	0.00016386	1217.6	6.4977e-06	6.4459e-06	1420.5	374.89	6.5213e-06	6.3919e-06	511.73	160.53	100.34	25.64	6.557e-06	52.027	-119.364	7.492	-29.449	-120.182	50.126	0.204	-120.575	-116.943	8.412	-17.966	-117.666	-113.371	-113.465	-109.263	-10.676	-108.262	-8191	255	
40563.574	1	1	0	0	0.054397	0.1729	0.15977	0.064712	0.12059	0.1306	0.15046	0.12676	0.040475	0.17423	0.22363	0.019624	0.2763	0.16592	0.052872	0.058061	-3.7562	-3.3438	-3.325	-4.0979	-3.1604	-3.6542	-4.0188	-3.1771	-3.9396	-3.6625	-3.3917	-4.1604	-3.2604	-3.6667	-3.9188	-3.1917	-36.225	-133.413	2.035	-90.190	-8.930	186.874	174.867	216.558	-123.459	78.806	-108.814	-107.818	125.034	59.973	-7.490	-43.881	0.00026274	0.00098527	0.00011756	1242.3	3.3814e-06	4.7633e-06	1448.1	381.73	5.2281e-06	3.0118e-06	521.38	161.97	100.17	25.644	4.2949e-06	52.751	0.00057952	0.00058847	0.00016772	1212.9	6.444e-06	6.5041e-06	1420.7	373.24	6.5874e-06	6.4614e-06	511.07	160.57	99.698	25.551	6.6788e-06	52.094	-121.593	-43.001	-26.091	-120.227	-43.451	4.204	-120.492	-117.002	9.747	-24.621	-117.538	-113.411	-113.323	-108.598	-7.717	-108.390	-8191	255	
40563.691	1	1	0	0	0.26924	0.15172	0.15277	0.078422	0.10793	0.11667	0.32655	0.14188	0.13114	0.22142	0.15389	0.2389	0.20542	0.10626	0.071622	0.16866	-3.4542	-3.4271	-3.2938	-4.2396	-3.2958	-3.5042	-4.1625	-3.2521	-3.6542	-3.7521	-3.2521	-4.1813	-3.3563	-3.4604	-4.1208	-3.3229	29.153	-39.909	-4.003	104.656	94.633	-129.095	219.713	164.961	53.929	104.435	177.151	160.089	212.848	70.515	79.872	172.361	0.0002783	0.00065706	0.00010507	1242.3	5.3766e-06	5.0673e-06	1440.2	380.18	2.784e-06	5.333e-06	520.45	160.4	99.584	25.489	1.7382e-06	52.439	0.00057823	0.00060235	0.00016579	1208.7	6.5104e-06	6.5261e-06	1413.4	371.18	6.5356e-06	6.688e-06	508.14	159.96	98.767	25.3	6.6283e-06	51.887	-122.047	-20.170	-39.721	-120.368	-65.183	24.827	-120.572	-117.027	51.459	17.541	-117.458	-113.287	-113.429	-109.069	-22.363	-108.065	-8191	255	
40563.789	1	1	0	0	0.29694	0.11295	0.1294	0.20213	0.097754	0.090833	0.32416	0.18509	0.092362	0.15228	0.037928	0.019723	0.13542	0.28862	0.13897	0.22446	-3.525	-3.6458	-3.2667	-4.2521	-3.4167	-3.4875	-4.2438	-3.1896	-3.6417	-3.7458	-3.3979	-3.9979	-3.5917	-3.4917	-3.9833	-3.4813	68.291	212.713	209.023	222.291	146.835	-42.528	162.069	-116.495	131.643	198.428	-47.040	182.525	43.092	-7.701	75.864	183.197	0.00024348	0.00087468	0.00014504	1233.4	4.3432e-06	2.9257e-06	1442.6	376.27	2.0856e-06	7.5119e-06	518.95	161.53	98.808	25.353	3.0362e-06	52.594	0.00057163	0.00059409	0.00016664	1201.5	6.5512e-06	6.5668e-06	1408.3	368.7	6.4975e-06	6.5623e-06	506.75	159.4	98.498	25.274	6.6725e-06	51.961	-126.706	-61.709	-70.622	-120.349	50.243	5.433	-120.533	-117.168	11.781	11.971	-117.671	-113.150	-113.417	-108.477	-10.891	-108.397	-8191	255	
40563.883	1	1	0	0	0.17622	0.1481	0.25478	0.17101	0.16858	0.031123	0.24208	0.044213	0.061709	0.11192	0.29521	0.17658	0.2187	0.15185	0.087284	0.06104	-3.2104	-3.8896	-3.1813	-4.2708	-3.55	-3.3375	-4.3146	-3.5563	-3.7167	-4.0687	-3.3104	-4.0896	-3.6542	-3.2521	-4.1292	-3.4854	91.548	191.176	-29.767	206.491	135.422	90.709	177.215	150.950	-113.722	-7.164	167.259	212.831	206.704	71.601	4.441	10.186	0.00026724	0.00070809	7.479e-05	1232.3	4.0085e-06	5.1833e-06	1439.2	376.15	1.0328e-06	7.8207e-06	523.63	161.4	99.126	25.512	6.3867e-06	52.898	0.00056677	0.00059994	0.00016859	1199.4	6.6261e-06	6.7053e-06	1409.2	369.44	6.4523e-06	6.6741e-06	509.29	159.93	98.416	25.265	6.5165e-06	52.146	-119.399	-64.975	-15.160	-120.273	42.476	-17.861	-120.481	-116.850	44.333	-21.966	-117.562	-113.268	-113.250	-108.719	38.649	-108.074	-8191	255	
40563.957	1	1	0	0	0.095993	0.094849	0.16344	0.13077	0.22328	0.22956	0.13068	0.19926	0.077477	0.042459	0.19116	0.39317	0.20747	0.25224	0.26392	0.046166	-3.3812	-4.0354	-3.0417	-4.0813	-3.7938	-3.2958	-4.3021	-3.7062	-3.4458	-4.0479	-3.3104	-3.7896	-3.8417	-3.2729	-4.0542	-3.6646	-118.144	197.490	-60.559	198.625	-127.960	210.144	6.267	146.229	149.912	-20.463	175.795	192.123	-128.817	165.273	60.188	-25.380	0.0002866	0.00076108	0.00024999	1237.4	6.1813e-06	8.277e-06	1457.7	377.02	3.6134e-06	2.3353e-06	521.34	162.32	99.627	25.436	4.2022e-06	52.721	0.00057002	0.00059544	0.00016543	1204.3	6.505e-06	6.7016e-06	1416.2	370.3	6.4836e-06	6.7163e-06	509.55	160.59	98.956	25.309	6.6447e-06	52.234	-117.367	-31.782	-61.961	-120.375	41.825	15.764	-120.546	-116.886	14.740	-27.610	-117.505	-113.461	-113.213	-109.229	-70.332	-107.859	-8191	255	
40564.074	1	1	0	0	0.17971	0.18507	0.1456	0.30188	0.10856	0.20473	0.23974	0.11595	0.33572	0.17152	0.097311	0.24623	0.15964	0.21043	0.23993	0.18388	-3.1042	-3.8729	-3.2625	-3.7396	-3.7146	-3.2479	-4.2	-3.575	-3.3937	-4	-3.2771	-3.6979	-3.9479	-2.9583	-3.8438	-3.5875	222.374	217.523	-108.548	168.936	7.725	-62.711	114.563	-74.602	-105.947	-35.495	2.243	181.585	192.500	178.066	-94.778	101.964	0.00023196	0.00056303	0.00023364	1237.7	2.3092e-06	5.2167e-06	1450.7	374.61	4.1133e-06	6.558e-06	520.11	161	99.308	25.268	6.641e-06	52.603	0.00057157	0.0005927	0.00016647	1202.6	6.4802e-06	6.5977e-06	1414.9	368.72	6.6231e-06	6.6303e-06	507.46	159.94	98.709	25.293	6.4106e-06	52.19	-112.147	-27.841	-10.219	-120.467	19.049	6.414	-120.308	-117.070	12.478	21.112	-117.429	-113.474	-113.372	-108.802	40.770	-108.184	-8191	255	
40564.172	1	1	0	0	0.21683	0.080993	0.28996	0.16954	0.19042	0.082388	0.21533	0.2805	0.21315	0.069634	0.28695	0.18114	0.052045	0.18051	0.16512	0.046737	-2.8479	-4.0354	-3.2479	-3.6813	-3.975	-3.1396	-4.1104	-3.6437	-3.2708	-4.0292	-3.4708	-3.5854	-3.8604	-3.1729	-3.8125	-3.7021	-14.044	171.240	-34.545	115.704	116.489	-50.714	143.696	217.570	-127.051	22.309	165.156	185.524	-121.289	-121.348	-57.353	221.149	0.00021548	0.0009614	0.00012697	1229.4	5.5027e-06	1.5191e-06	1437.6	373.84	4.1457e-06	2.6383e-06	519.77	161.8	98.834	25.256	4.8278e-06	52.517	0.00057837	0.00060744	0.00016227	1198.2	6.5409e-06	6.4647e-06	1408.6	366.92	6.667e-06	6.5543e-06	506.18	159.7	98.444	25.231	6.5073e-06	52.07	-132.361	-26.765	-41.468	-120.501	83.330	21.305	-120.508	-116.875	61.299	35.345	-117.414	-113.366	-113.217	-108.828	13.467	-108.177	-8191	255	
40564.270	1	1	0	0	0.070235	0.14267	0.12513	0.20125	0.16936	0.070589	0.29454	0.22936	0.15874	0.085513	0.40189	0.33158	0.11423	0.1137	0.056544	0.089388	-2.8833	-3.7104	-3.3542	-3.5521	-3.8438	-3.2375	-3.975	-3.8833	-3.2417	-3.9854	-3.675	-3.4208	-4.0417	-3.1771	-3.5896	-3.9521	35.540	202.803	172.744	179.253	220.290	-76.997	169.322	163.859	178.748	-79.156	174.099	171.757	-20.331	146.643	156.178	133.033	0.00035073	0.00015135	0.00014376	1233.9	3.6315e-06	2.4711e-06	1443.5	377.38	3.6074e-06	6.9426e-06	521.49	162.31	99.165	25.149	4.0281e-06	52.828	0.0005763	0.00058674	0.00016519	1200.5	6.5641e-06	6.5419e-06	1411	369.27	6.5289e-06	6.4776e-06	509.17	160.42	98.182	25.152	6.4489e-06	52.158	-115.115	-8.934	-30.617	-120.418	47.550	-86.040	-120.665	-117.092	-31.062	-12.821	-117.316	-113.571	-113.239	-109.084	31.476	-108.141	-8191	255	
40564.391	1	1	0	0	0.025917	0.2439	0.12548	0.32262	0.17	0.1629	0.088032	0.19542	0.24732	0.15916	0.29298	0.16574	0.27894	0.16352	0.26203	0.14185	-2.8667	-3.9417	-3.5646	-3.5229	-3.8104	-3.2313	-3.7271	-3.975	-3.1979	-3.9729	-3.7188	-3.4458	-4.2292	-3.1854	-3.5938	-3.9688	-72.704	-119.769	-32.471	187.073	171.327	218.366	-116.970	204.668	119.650	-4.124	181.645	-57.483	160.478	-72.506	185.088	127.100	0.00026925	0.00042037	4.1353e-05	1225.7	5.0086e-06	3.2026e-06	1442.7	375.73	3.8132e-06	7.6534e-06	520.3	161.71	98.699	25.412	3.9322e-06	53.247	0.00057878	0.00059109	0.00016033	1197.9	6.5093e-06	6.5522e-06	1410.5	368.16	6.5834e-06	6.5635e-06	508.03	159.88	98.311	25.245	6.6056e-06	52.532	-125.361	-29.652	-55.360	-120.529	-8.902	33.977	-120.796	-116.866	-2.879	48.661	-117.288	-113.462	-113.320	-108.803	17.201	-108.249	-8191	255	
40564.484	1	1	0	0	0.18914	0.17106	0.20923	0.11321	0.10482	0.17091	0.12598	0.10655	0.23166	0.34998	0.33555	0.22235	0.12747	0.26207	0.068646	0.14531	-2.7	-3.7333	-3.5479	-3.4813	-3.8854	-3.4125	-3.675	-4.1937	-3.1229	-3.8479	-3.8333	-3.4	-4.1396	-3.4313	-3.2917	-4.1562	67.327	-62.919	137.259	197.913	139.895	180.788	129.860	219.600	-123.752	-33.335	156.911	163.687	-108.228	174.062	-19.033	144.678	0.00026757	0.00035735	0.00017904	1225.6	7.0451e-06	6.2891e-06	1443.6	375.14	5.3348e-06	4.0186e-06	518.76	161.61	99.436	25.339	7.5131e-06	53.095	0.00057487	0.00057979	0.00016449	1193	6.3918e-06	6.3941e-06	1411.6	366.39	6.4971e-06	6.4349e-06	507.62	159.95	98.061	25.164	6.5522e-06	52.305	-120.044	5.341	-19.223	-120.132	-42.478	17.367	-120.640	-116.760	-3.128	45.540	-117.489	-113.519	-113.065	-108.648	14.131	-108.364	-8191	255	
40564.578	1	1	0	0	0.075513	0.031776	0.15692	0.14781	0.066385	0.18583	0.2134	0.19889	0.28472	0.083922	0.23036	0.30786	0.21138	0.14378	0.20103	0.18364	-2.7896	-3.7042	-3.8792	-3.325	-3.8646	-3.4854	-3.7146	-4.1771	-3.1979	-3.6458	-3.8979	-3.3083	-3.9125	-3.6208	-3.3208	-4.2604	150.952	-118.437	148.168	204.363	-66.233	-76.304	-99.466	-94.850	199.789	-16.680	126.865	149.078	-126.850	-68.620	-53.387	158.633	0.0002602	0.00061821	0.00021331	1225.2	2.8777e-06	7.4902e-06	1439.9	373.54	3.4485e-06	5.0415e-06	519.92	161.1	98.761	25.008	4.7364e-06	52.833	0.00056341	0.00057872	0.00016381	1191.2	6.4086e-06	6.4072e-06	1406.1	366.05	6.3582e-06	6.5284e-06	506.56	159.45	97.812	25.083	6.4276e-06	52.224	-129.039	-41.675	-51.786	-120.335	46.220	31.334	-120.591	-116.778	28.747	36.757	-117.346	-113.050	-113.340	-108.475	34.606	-108.184	-8191	255	
40564.676	1	1	0	0	0.29892	0.11851	0.17508	0.27709	0.18165	0.14736	0.24666	0.12263	0.1141	0.15858	0.068445	0.069665	0.12084	0.11579	0.089356	0.13002	-2.8604	-3.5583	-3.875	-3.2875	-3.9125	-3.5896	-3.475	-4.2562	-3.2062	-3.7292	-4.1521	-3.2375	-3.9646	-3.7146	-3.375	-4.1354	205.505	-9.972	156.421	194.304	79.286	166.147	163.272	164.404	-42.851	-44.913	162.397	-71.687	185.861	-96.924	12.500	173.279	0.00033844	0.00019449	0.00010391	1222.4	4.973e-06	5.4942e-06	1440.5	373.12	6.2641e-06	2.2709e-06	517.51	161.38	98.913	25.197	5.2238e-06	52.613	0.00055625	0.00058582	0.00016616	1188.8	6.4136e-06	6.5162e-06	1405.6	364.98	6.5002e-06	6.5018e-06	506.01	159.59	98.025	25.122	6.664e-06	52.208	-115.596	-68.874	-71.091	-120.632	42.266	-28.354	-120.579	-117.052	15.688	-12.429	-117.307	-113.658	-113.059	-108.429	21.962	-108.489	-8191	255	
40564.773	1	1	0	0	0.12703	0.25313	0.1293	0.24853	0.16881	0.17329	0.13645	0.32097	0.046311	0.10911	0.25246	0.1571	0.11615	0.23926	0.058345	0.077587	-3.0312	-3.4833	-3.9896	-3.35	-3.9479	-3.7958	-3.3854	-4.1	-3.4938	-3.4104	-4.0542	-3.4354	-3.6771	-3.7875	-3.1937	-4.0333	51.617	-122.041	-6.111	175.992	123.569	-12.812	-91.401	219.576	218.231	-64.902	131.313	90.367	-26.962	-132.481	-43.352	135.529	0.0003038	0.00073806	0.00019531	1221.7	5.1217e-06	9.6543e-06	1442.3	372.12	3.6236e-06	6.2584e-06	519.02	161.47	99.158	25.387	2.4302e-06	53.156	0.00056969	0.00059932	0.00016675	1190.1	6.4367e-06	6.4867e-06	1407.3	366.86	6.5161e-06	6.4723e-06	507.2	159.99	98.444	25.223	6.6331e-06	52.39	-119.330	-24.176	-27.553	-120.294	32.597	-23.091	-120.794	-116.773	-2.898	91.126	-117.089	-113.151	-113.627	-108.630	70.293	-108.324	-8191	255	
40564.867	1	1	0	0	0.063119	0.18512	0.16298	0.48493	0.1873	0.098187	0.16148	0.17084	0.22873	0.070614	0.22729	0.26869	0.059997	0.23012	0.15258	0.080536	-3.1042	-3.3625	-4.0167	-3.3458	-3.6083	-3.8333	-3.3792	-4.1208	-3.5229	-3.4292	-4.1333	-3.3292	-3.6917	-3.8667	-3.1312	-3.9708	-120.677	212.450	221.498	-132.570	88.441	-100.324	-111.943	198.642	112.388	-72.038	196.576	179.910	124.837	-119.516	91.450	194.195	0.00026174	0.00056661	0.00014352	1235.8	1.7315e-06	4.4929e-06	1436.1	376.03	5.0008e-06	5.147e-06	520.03	162.06	99.553	25.317	3.7501e-06	52.607	0.0005677	0.00059501	0.0001677	1198.6	6.4914e-06	6.5391e-06	1409.5	368.22	6.5128e-06	6.5503e-06	508.23	159.66	98.625	25.23	6.6474e-06	52.158	-116.480	1.098	18.245	-120.361	-29.645	-8.920	-120.625	-116.991	-26.147	-15.943	-117.237	-113.331	-113.272	-108.494	25.580	-108.372	-8191	255	
40564.988	1	1	0	0	0.10599	0.15922	0.036801	0.24612	0.108	0.1067	0.25317	0.13959	0.20759	0.067114	0.26578	0.012111	0.13796	0.10853	0.22995	0.04553	-3.3708	-3.1292	-4.0896	-3.4813	-3.4938	-3.875	-3.3563	-3.9917	-3.7438	-3.1625	-4.0875	-3.5812	-3.4375	-4.0458	-3.2271	-3.9375	75.931	121.877	68.386	202.852	139.671	-11.142	179.104	183.161	221.180	23.476	200.875	8.640	-109.684	67.050	51.800	184.123	0.00029227	0.00045775	0.00026872	1225.6	2.127e-06	6.7747e-06	1437.2	376.04	7.7701e-06	5.0945e-06	519.17	160.69	98.442	25.166	3.4227e-06	52.521	0.00057033	0.00059888	0.00016674	1194.8	6.4304e-06	6.6368e-06	1405.1	367.1	6.5258e-06	6.5466e-06	506.72	159.47	98.238	25.128	6.5105e-06	51.952	-117.892	-5.155	-66.874	-120.595	21.188	-15.035	-120.677	-117.026	6.917	80.154	-117.141	-113.376	-113.610	-108.867	31.059	-108.140	-8191	255	
40565.086	1	1	0	0	0.087304	0.23587	0.1935	0.096145	0.31115	0.066398	0.44895	0.020015	0.18694	0.035806	0.29728	0.079326	0.22426	0.073744	0.079765	0.089695	-3.3167	-3.1792	-3.9479	-3.4771	-3.4729	-4.1	-3.4042	-3.9167	-3.6688	-3.3729	-4.2542	-3.7771	-3.4208	-4	-3.2542	-3.7313	165.245	56.375	70.438	93.250	26.888	-22.283	165.019	68.442	-19.004	-37.863	194.188	-127.002	191.690	187.312	-104.051	219.121	0.00030889	0.00057007	7.8864e-05	1227.8	1.6684e-06	3.1383e-06	1435.3	372.99	4.7074e-06	4.6346e-06	519.13	160.29	98.943	25.21	2.4254e-06	52.091	0.00056626	0.00060179	0.0001623	1194.3	6.5226e-06	6.5222e-06	1405.6	366.84	6.6253e-06	6.7061e-06	506.14	159.48	98.312	25.047	6.4526e-06	51.935	-115.720	-68.680	-18.256	-120.299	-13.234	42.434	-120.665	-117.040	-5.082	-34.395	-117.428	-113.075	-113.188	-108.948	54.918	-108.158	-8191	255	
40565.180	1	1	0	0	0.096353	0.11822	0.14487	0.2277	0.21158	0.14327	0.15898	0.11416	0.14149	0.24608	0.042685	0.20713	0.14595	0.17793	0.20006	0.044507	-3.4292	-3.0729	-3.9604	-3.6354	-3.3375	-4.0687	-3.5625	-3.6354	-3.9167	-3.0979	-4.0917	-3.6646	-3.2833	-4.1771	-3.4562	-3.6583	8.514	112.527	219.500	-130.180	-69.406	84.771	183.230	170.357	-117.750	49.997	-88.923	-6.853	177.057	213.233	6.700	149.701	0.00030196	0.00061651	0.00021715	1230.8	4.2366e-06	9.4163e-06	1426.4	376.08	4.1943e-06	5.0988e-06	519.56	161.03	99.092	25.262	3.8833e-06	52.593	0.00057125	0.00059333	0.00016438	1196.1	6.5221e-06	6.5959e-06	1404.1	367.82	6.5726e-06	6.4414e-06	507.28	159.62	98.529	25.164	6.4275e-06	52.092	-128.052	-36.302	-42.595	-120.324	-29.464	37.456	-120.730	-117.017	-26.848	21.417	-116.985	-113.231	-113.374	-108.850	-28.343	-108.498	-8191	255	
40565.254	1	1	0	0	0.23094	0.38259	0.38878	0.22264	0.19767	0.089939	0.10616	0.12279	0.15804	0.16541	0.3119	0.18473	0.21092	0.13466	0.11242	0.2352	-3.8021	-3.2333	-3.7458	-4.0333	-3.2271	-3.9979	-3.55	-3.6	-4.0208	-3.0521	-3.8146	-3.9958	-3.2104	-4.0542	-3.5479	-3.3833	136.407	-59.224	-56.413	195.143	71.511	6.813	209.324	88.556	-40.990	208.551	170.015	160.238	100.522	214.837	158.450	0.933	0.00025954	0.00092879	0.00012258	1230.9	4.2226e-06	6.0565e-06	1439.2	378.14	3.5574e-06	3.1687e-06	521.07	161.58	99.809	25.437	5.1949e-06	52.456	0.00057239	0.00058927	0.00016292	1198.1	6.5011e-06	6.5173e-06	1408.7	369.98	6.4809e-06	6.437e-06	509.1	159.72	98.968	25.33	6.4852e-06	51.869	-116.483	-42.502	-51.272	-120.278	-58.667	-22.027	-120.435	-116.968	17.738	69.402	-117.407	-113.412	-113.360	-109.228	20.101	-108.266	-8191	255	
40565.371	1	1	0	0	0.07575	0.07467	0.2298	0.096093	0.10554	0.29869	0.23976	0.11056	0.18993	0.086821	0.0097871	0.16591	0.1316	0.13608	0.3352	0.1285	-3.6562	-3.0938	-3.6333	-4.1125	-3	-4.0292	-3.7208	-3.4167	-4.0458	-3.1708	-3.8063	-4.0667	-3.3583	-3.9229	-3.7583	-3.4833	-58.560	20.617	-42.800	-123.847	116.301	191.020	184.430	-86.761	85.224	-72.758	195.453	198.797	-71.459	126.190	87.177	90.155	0.00032408	0.00024798	0.00019536	1239.2	1.5902e-06	4.4537e-06	1440.7	380.2	2.4042e-06	3.7755e-06	524.1	161.18	100.11	25.465	5.0191e-06	52.37	0.00056197	0.00057307	0.00015894	1207.2	6.3368e-06	6.3009e-06	1412.4	372.75	6.4165e-06	6.3821e-06	509.8	159.59	99.315	25.301	6.4965e-06	51.706	-109.703	-76.792	-18.260	-120.124	-75.972	-24.414	-120.598	-117.241	-18.182	8.531	-117.487	-113.451	-113.243	-108.725	6.798	-108.188	-8191	255	
40565.469	1	1	0	0	0.095315	0.24445	0.10586	0.25094	0.11889	0.14148	0.23936	0.45863	0.10656	0.22148	0.29286	0.20021	0.10542	0.15858	0.17077	0.072821	-3.7625	-3.3563	-3.5646	-4.225	-2.9729	-3.8937	-3.8896	-3.4313	-3.9938	-3.3708	-3.6104	-4.0396	-3.3896	-4.05	-3.7	-3.3021	67.936	21.063	173.536	174.707	195.684	115.158	200.390	203.914	-34.137	210.490	109.276	198.081	-104.063	20.943	61.199	133.411	0.0003095	0.00017629	9.0567e-05	1235.5	1.6247e-06	2.7504e-06	1438.7	377.35	6.5024e-06	5.9448e-06	520.89	160.39	99.495	25.23	4.0767e-06	52.424	0.00056968	0.00058137	0.00016331	1200.4	6.4475e-06	6.3698e-06	1405.6	370.18	6.5178e-06	6.5456e-06	507.1	159.33	98.599	25.096	6.6578e-06	51.712	-122.952	188.118	-53.721	-120.107	10.435	10.749	-120.488	-117.171	-25.443	29.449	-117.374	-113.162	-113.530	-109.148	-92.368	-108.177	-8191	255	
40565.566	1	1	0	0	0.24443	0.29988	0.17869	0.096498	0.020041	0.14834	0.18339	0.26182	0.041679	0.16381	0.088904	0.12855	0.23748	0.11695	0.10603	0.16405	-3.6396	-3.3333	-3.2917	-4.0042	-3.2562	-3.7271	-3.9833	-3.325	-3.9229	-3.4938	-3.5438	-4.1833	-3.2917	-3.5938	-3.7083	-3.3771	130.839	207.786	83.124	20.908	105.104	-42.326	180.616	170.649	19.824	195.573	204.450	177.126	100.504	181.680	92.998	7.095	0.00020427	0.00080718	0.00011591	1232	7.9432e-06	6.3645e-06	1437.2	376.55	3.3256e-06	4.4785e-06	521.24	159.86	99.242	25.307	6.6133e-06	52.404	0.00057611	0.00058645	0.00016363	1197.7	6.4717e-06	6.3891e-06	1405.2	369.03	6.4593e-06	6.5731e-06	507.56	158.83	98.753	25.152	6.5471e-06	51.829	-118.054	-61.323	-34.670	-120.289	-12.201	-18.985	-120.567	-117.107	-66.937	-29.945	-117.437	-113.368	-113.251	-108.588	36.745	-108.425	-8191	255	
40565.660	1	1	0	0	0.13664	0.11299	0.23104	0.23787	0.21033	0.11003	0.16602	0.50223	0.13732	0.18857	0.28536	0.23583	0.07262	0.10222	0.049902	0.34217	-3.7146	-3.725	-3.3792	-4.1521	-3.1813	-3.4354	-4.1875	-3.2812	-3.9375	-3.6	-3.3833	-4.0771	-3.4083	-3.6375	-4.1	-3.3375	209.707	179.329	-98.785	203.600	-132.451	-37.984	120.374	208.055	-105.077	-120.817	181.820	213.043	-5.839	77.177	197.434	106.960	0.00024579	0.00040692	0.00014779	1227.6	1.5018e-06	1.9401e-06	1439.3	373.87	3.7863e-06	2.2535e-06	518.35	159.55	98.066	24.87	7.5879e-06	51.845	0.0005568	0.00059078	0.00016306	1196.2	6.3697e-06	6.522e-06	1405.1	366.93	6.421e-06	6.6453e-06	504.6	158.3	97.486	24.914	6.605e-06	51.476	-118.631	-62.855	-1.103	-120.304	65.511	35.852	-120.625	-116.948	-39.311	-29.966	-117.621	-113.361	-113.180	-108.695	14.886	-108.423	-8191	255	
40565.781	1	1	0	0	0.085328	0.069696	0.21943	0.27546	0.15333	0.19091	0.17173	0.10796	0.1379	0.10042	0.096804	0.28599	0.08022	0.15259	0.15718	0.088103	-3.5833	-3.6813	-3.2271	-4.1542	-3.4062	-3.5479	-4.3083	-3.4646	-3.8937	-3.6708	-3.35	-4.1813	-3.5125	-3.3333	-3.9479	-3.4333	-55.797	-29.376	147.013	176.170	120.882	-15.748	115.071	-132.926	70.086	-32.754	224.858	210.510	-74.983	114.574	171.726	156.069	0.00025881	0.00057916	0.00016983	1212.3	5.0514e-06	4.2285e-06	1430.3	369.95	1.6396e-06	2.4612e-06	512.68	158.79	97.599	24.929	3.3571e-06	51.483	0.00057507	0.00059526	0.00016603	1183.9	6.3177e-06	6.4757e-06	1395.3	363.99	6.5173e-06	6.4761e-06	500.79	157.63	97.298	24.904	6.5337e-06	51.054	-121.178	-45.820	-22.661	-120.334	59.597	17.289	-120.345	-117.014	194.231	163.586	-117.264	-113.205	-112.794	-109.207	44.606	-108.195	-8191	255	
40565.852	1	1	0	0	0.094958	0.081061	0.060462	0.21476	0.043486	0.21935	0.041289	0.3176	0.20802	0.11553	0.13009	0.16313	0.33475	0.12532	0.18509	0.26775	-3.2229	-3.6146	-3.1417	-4.2375	-3.5979	-3.3292	-4.2812	-3.4146	-3.6354	-3.9229	-3.3479	-4.0938	-3.8146	-3.3583	-3.9729	-3.4458	-3.422	141.003	115.375	207.497	-134.139	126.093	7.608	197.211	-118.583	-1.009	181.950	-86.834	179.782	-133.493	111.583	147.057	0.00024723	0.0011079	0.00011786	1222.4	5.3865e-06	4.0907e-06	1429.2	376.19	4.9552e-06	3.54e-06	516.01	159.55	99.294	25.332	6.7016e-06	51.586	0.00056026	0.00059581	0.00016732	1191.3	6.3171e-06	6.3952e-06	1397.1	367.88	6.5077e-06	6.5581e-06	503.06	158.14	98.358	25.075	6.5566e-06	51.219	-124.557	-47.375	-55.944	-120.411	71.649	35.756	-120.663	-117.195	33.440	1.528	-117.431	-113.469	-113.601	-108.680	-20.575	-108.402	-8191	255	
40565.949	1	1	0	0	0.07736	0.28462	0.14675	0.089966	0.024179	0.11295	0.19279	0.065346	0.1693	0.18094	0.18953	0.29279	0.084999	0.16519	0.2064	0.23552	-3.2417	-3.8375	-3.3229	-4.0646	-3.6167	-3.1542	-4.3292	-3.5708	-3.325	-4.0375	-3.4833	-3.9813	-3.6792	-3.2229	-3.9875	-3.5354	-28.366	-83.658	-128.826	162.253	-24.751	-109.645	143.298	31.994	-85.771	128.305	184.049	216.327	183.580	-120.888	133.614	-130.017	0.0002572	0.00059852	0.00021221	1228.1	3.6637e-06	5.2619e-06	1435.1	374.72	1.5491e-06	2.3162e-06	515.2	159.9	99.625	24.925	7.3435e-06	51.693	0.00057182	0.00060039	0.00016306	1195.6	6.5206e-06	6.5384e-06	1401.9	368.04	6.4968e-06	6.5218e-06	504.35	158.33	98.517	25.04	6.4419e-06	51.363	-115.253	-36.458	-58.605	-120.328	25.236	-63.937	-120.664	-116.739	32.407	-127.639	-117.260	-113.602	-113.273	-108.839	9.506	-108.002	-8191	255	
40566.070	1	1	0	0	0.27297	0.13813	0.023265	0.12997	0.17373	0.087793	0.2943	0.21666	0.04207	0.27153	0.27688	0.15119	0.26454	0.21202	0.16446	0.14614	-3.0458	-4.0542	-3.2583	-3.8937	-3.975	-3.3	-4.2562	-3.6896	-3.3896	-3.9958	-3.35	-3.8438	-3.9667	-3.1958	-3.8417	-3.7521	13.445	125.484	-15.968	-107.355	128.588	-65.051	215.291	151.819	219.394	-40.600	187.329	197.772	118.510	-100.867	68.380	160.258	0.00028944	0.00044776	0.00014922	1230.6	2.7634e-06	8.3686e-06	1437.7	378.22	2.4713e-06	3.8679e-06	521.06	161.13	100.2	25.568	6.7808e-06	52.002	0.00057509	0.00058957	0.00016415	1198.3	6.4468e-06	6.5824e-06	1407.5	370.47	6.5051e-06	6.6765e-06	506.88	159.07	99.131	25.287	6.5721e-06	51.507	-118.862	-10.647	-38.064	-120.409	46.046	-25.439	-120.675	-116.911	-69.041	-4.393	-117.158	-113.383	-113.218	-109.103	5.688	-108.400	-8191	255	
40566.164	1	1	0	0	0.065201	0.17431	0.12682	0.19447	0.15092	0.071353	0.063621	0.08182	0.16163	0.13782	0.33667	0.11305	0.1085	0.18402	0.10838	0.12018	-3.1667	-4.1083	-3.1167	-3.8063	-4.0729	-3.2375	-4.1958	-3.7604	-3.4167	-4.1667	-3.4708	-3.6562	-4.2021	-3.3625	-3.9313	-3.7292	-12.653	152.560	161.137	-128.041	196.126	-112.867	-38.632	218.412	-115.740	135.909	-110.928	134.831	140.040	-109.251	95.887	3.694	0.00030576	0.00058961	0.0001436	1237.3	3.9295e-06	3.9001e-06	1436.8	378.95	3.5417e-06	4.6654e-07	517.95	159.69	100.17	25.385	4.0293e-06	51.848	0.00058166	0.0005993	0.00016364	1204	6.5523e-06	6.5793e-06	1406.3	371.56	6.5871e-06	6.599e-06	505.85	158.28	99.362	25.323	6.6857e-06	51.186	-118.218	-52.701	-85.934	-120.595	-32.847	-6.963	-120.690	-117.128	62.690	31.809	-117.375	-113.404	-113.729	-109.241	-27.075	-108.410	-8191	255	
40566.262	1	1	0	0	0.41734	0.17523	0.23787	0.10521	0.10782	0.068894	0.46491	0.22622	0.10258	0.050012	0.1759	0.35103	0.17726	0.071617	0.15269	0.2061	-2.8771	-4.0729	-3.4458	-3.6708	-4.1542	-3.3312	-3.9833	-3.9917	-3.0896	-4.1646	-3.7167	-3.5167	-4.2396	-3.3458	-3.7562	-3.9354	117.532	81.633	-1.001	215.641	-92.940	184.829	177.404	147.840	-127.147	-24.613	140.547	-89.117	204.561	96.390	121.405	138.535	0.00023246	0.00070676	9.4052e-05	1236.4	8.5843e-06	5.6251e-06	1449.4	380.28	1.0069e-07	1.54e-06	520.35	160.35	100.69	25.513	4.0374e-06	51.855	0.00058886	0.0005996	0.00016498	1205.9	6.6769e-06	6.5984e-06	1408.1	372.91	6.6664e-06	6.5994e-06	506.11	158.7	99.836	25.34	6.7379e-06	51.24	-126.146	-63.775	-114.720	-120.462	20.082	6.055	-120.829	-116.876	66.813	151.487	-117.571	-113.414	-113.321	-109.237	-50.497	-108.332	-8191	255	
40566.355	1	1	0	0	0.21077	0.091314	0.086005	0.11101	0.12064	0.21901	0.19613	0.25155	0.16792	0.18276	0.24137	0.4411	0.15573	0.1957	0.078854	0.11764	-2.8479	-4.2188	-3.5187	-3.6083	-3.9813	-3.2812	-4.0604	-4.125	-3.3063	-4.0583	-3.9396	-3.3875	-4.075	-3.2833	-3.7875	-4.0354	113.048	72.385	43.177	210.019	-25.468	75.881	147.577	158.854	-21.883	164.675	188.595	218.185	63.637	209.110	192.284	95.660	0.00032189	0.00033388	4.7861e-05	1244.7	2.736e-06	4.6857e-06	1438.1	382.28	1.2353e-06	2.9563e-06	518.83	161.42	101.27	25.691	6.2376e-06	51.624	0.00058529	0.00060063	0.00016968	1211.5	6.6354e-06	6.5711e-06	1410.5	374.66	6.7565e-06	6.5756e-06	507.82	159.15	100.09	25.462	6.6571e-06	51.256	-117.951	-57.013	-74.110	-120.737	62.592	15.874	-120.570	-116.954	-107.804	35.239	-117.491	-113.429	-113.271	-109.504	49.524	-108.399	-8191	255	
40566.477	1	1	0	0	0.4177	0.078465	0.17326	0.081317	0.11065	0.10291	0.2218	0.080779	0.15189	0.13206	0.33395	0.095776	0.097228	0.29703	0.098783	0.32298	-2.8208	-3.9021	-3.6542	-3.5021	-4.2604	-3.3125	-3.7167	-4.2667	-3.1604	-4.0271	-3.8708	-3.4437	-3.9583	-3.3812	-3.5729	-4.0958	-22.913	214.594	1.797	-118.285	-100.186	-71.319	159.709	140.541	133.613	200.274	157.265	-44.674	129.704	150.140	31.357	164.950	0.00026095	0.00051006	5.7529e-05	1240	1.6964e-06	4.1115e-06	1448.1	381.51	2.1843e-06	7.4756e-06	520.86	160.9	100.8	25.381	3.5012e-06	51.731	0.00059164	0.00060271	0.00017007	1207.8	6.6499e-06	6.7651e-06	1411.7	372.84	6.7804e-06	6.7153e-06	507.76	158.85	99.848	25.33	6.8944e-06	51.343	-116.685	-56.761	115.054	-120.455	56.235	-29.637	-120.763	-117.032	-12.265	-17.707	-117.313	-113.445	-113.343	-108.693	-18.354	-108.146	-8191	255	
40566.551	1	1	0	0	0.3188	0.12503	0.064121	0.26711	0.11914	0.1396	0.042347	0.11365	0.033447	0.11474	0.21993	0.17585	0.14622	0.070158	0.068756	0.25075	-2.9	-3.7938	-3.8187	-3.3833	-4.175	-3.4625	-3.7896	-4.2021	-3.1854	-3.7229	-3.9188	-3.45	-4.0229	-3.6292	-3.4708	-4.125	-133.082	203.594	-92.520	-126.920	-121.550	12.254	173.633	-117.606	108.089	-36.957	173.307	87.746	-68.138	223.636	175.162	210.018	0.00030928	0.00074411	8.2841e-05	1235.9	2.8819e-06	5.6715e-06	1437.3	378.76	5.7988e-07	5.7675e-06	517.86	160.14	100.07	25.496	5.1966e-06	51.632	0.00058466	0.00060466	0.00017078	1206.1	6.7699e-06	6.7652e-06	1404.7	372.37	6.7296e-06	6.6893e-06	504.99	158.24	99.361	25.274	6.9154e-06	51.232	-120.704	-80.719	-22.452	-120.477	101.445	58.991	-120.641	-117.049	216.888	59.161	-117.265	-113.748	-113.422	-109.228	79.591	-108.394	-8191	255	
40566.668	1	1	0	0	0.25508	0.21597	0.13367	0.20443	0.20334	0.14503	0.2595	0.33015	0.1235	0.18516	0.16182	0.23352	0.14898	0.18502	0.14978	0.066501	-2.8542	-3.6167	-3.9021	-3.4354	-4.0083	-3.5521	-3.6792	-4.1479	-3.3792	-3.6375	-4.1	-3.4083	-4.0417	-3.8896	-3.1937	-4.2771	132.484	-18.664	96.103	196.904	165.254	169.605	212.569	192.912	-119.602	8.426	-103.600	154.595	209.805	142.508	38.916	-81.008	0.00031345	0.00049332	4.0521e-05	1235	6.8529e-06	3.3089e-06	1433.8	377.59	5.2561e-06	6.7651e-06	515.55	159.62	99.187	25.228	3.4343e-06	51.634	0.00058362	0.00062055	0.00016809	1201.6	6.7161e-06	6.7311e-06	1401.8	370	6.6827e-06	6.7852e-06	503.65	157.9	98.725	25.138	6.9207e-06	51.176	-117.455	-32.969	-32.366	-120.538	44.940	70.755	-120.986	-116.881	-35.994	84.104	-117.266	-113.602	-113.308	-109.003	4.644	-108.158	-8191	255	
40566.766	1	1	0	0	0.19258	0.12245	0.16532	0.22773	0.26001	0.0094664	0.38867	0.22275	0.15567	0.21358	0.29076	0.25799	0.15611	0.23934	0.46044	0.20409	-3.1167	-3.625	-4.0229	-3.4479	-3.8604	-3.7479	-3.5812	-4.2646	-3.4583	-3.4729	-4.2083	-3.3667	-3.9396	-3.7333	-3.2167	-4.1292	-129.319	-97.714	-21.987	178.326	-10.887	-127.927	136.425	200.298	204.075	-13.264	171.281	188.927	-125.113	-128.826	-69.854	-57.057	0.00022338	0.00062524	0.00010953	1220.4	3.3791e-06	1.0198e-05	1426.6	375.14	4.8171e-06	7.1769e-06	517.53	159.08	98.712	25.067	9.2985e-06	51.552	0.00059568	0.00061726	0.00017307	1190.6	6.6116e-06	6.7828e-06	1395.3	367.63	6.8319e-06	6.9974e-06	504.18	157.9	98.347	25.071	6.9413e-06	51.32	-125.811	11.507	-48.432	-120.211	55.682	11.893	-120.798	-116.836	-10.734	56.285	-117.289	-113.610	-113.361	-108.863	28.378	-108.205	-8191	255	
40566.859	1	1	0	0	0.13153	0.12044	0.18619	0.3181	0.16889	0.12787	0.21721	0.35435	0.33091	0.23258	0.083666	0.080492	0.39601	0.19084	0.092766	0.19823	-3.2021	-3.425	-4.1021	-3.55	-3.7396	-3.9229	-3.3063	-4.0542	-3.6979	-3.5208	-4.2	-3.6771	-3.6854	-3.8792	-3.3042	-4.2271	-49.009	14.172	88.157	194.047	72.731	40.929	144.806	187.675	189.419	97.978	191.752	-44.500	197.229	128.505	110.788	44.633	0.00030489	0.00030984	6.0593e-05	1219.7	6.7922e-06	7.4238e-06	1434.6	374.79	6.1911e-06	1.5424e-06	516.66	159.55	98.756	25.164	1.8741e-06	52.042	0.00059509	0.00061459	0.00016908	1188	6.6545e-06	6.8266e-06	1398.6	367.58	6.8071e-06	6.8564e-06	503.93	157.99	98.136	25.032	6.8361e-06	51.519	-119.477	-40.830	-51.383	-120.234	45.585	37.737	-120.596	-116.982	-32.228	35.556	-117.468	-113.266	-113.645	-108.836	-47.539	-108.509	-8191	255	
40566.957	1	1	0	0	0.26765	0.13392	0.11029	0.31706	0.01176	0.16617	0.22641	0.49374	0.14037	0.15263	0.10853	0.037392	0.19356	0.18862	0.061954	0.067383	-3.25	-3.3792	-4.0771	-3.3625	-3.5563	-3.8354	-3.4729	-3.9458	-3.6979	-3.3229	-4.2479	-3.6979	-3.7479	-4.1813	-3.2417	-3.9604	-10.312	-48.877	-14.968	169.328	-85.710	70.880	192.889	197.122	-109.843	79.127	-1.206	181.628	215.822	-10.886	114.155	-104.725	0.00030621	0.00070554	0.00012823	1214.6	4.4076e-06	5.6626e-06	1427.9	373.33	3.146e-06	4.7869e-06	511.98	158.58	98.095	25.069	4.152e-06	51.703	0.00059346	0.00062027	0.00017239	1186.2	6.6219e-06	6.8568e-06	1395.1	365.6	6.7297e-06	6.9195e-06	502.4	157.66	97.756	25.012	6.796e-06	51.177	-120.370	-80.409	-76.294	-120.240	23.389	46.776	-120.723	-117.116	16.670	-90.697	-117.291	-113.246	-113.310	-108.484	61.270	-108.245	-8191	255	
40567.078	1	1	0	0	0.14864	0.11381	0.14063	0.31034	0.13763	0.18289	0.14762	0.19321	0.16003	0.24139	0.20043	0.30993	0.035221	0.17992	0.076078	0.061971	-3.3208	-3.3187	-4.025	-3.7104	-3.4458	-4.0646	-3.5354	-3.9625	-3.8521	-3.2167	-4.1687	-3.5563	-3.4562	-4.1125	-3.325	-3.8708	93.943	-127.121	-0.233	186.267	-96.867	26.444	175.709	207.368	191.100	142.189	150.954	158.165	88.228	205.469	40.190	-120.133	0.00025105	0.00073177	0.00016265	1217.8	3.3219e-06	5.5573e-06	1425.4	372.53	1.7114e-06	3.7421e-06	513.39	158.58	98.96	25.062	4.4113e-06	51.854	0.00059749	0.00060874	0.00016994	1186.5	6.6738e-06	6.7749e-06	1391.2	365.87	6.8401e-06	6.8129e-06	502.26	157.36	98.034	24.923	6.7964e-06	51.156	-123.359	-41.348	-38.119	-120.222	-40.796	52.394	-120.861	-117.005	-12.465	15.798	-117.105	-113.525	-113.588	-108.485	24.315	-108.270	-8191	255	
40567.148	1	1	0	0	0.46607	0.1753	0.06953	0.10402	0.098282	0.22906	0.068446	0.3736	0.021065	0.41188	0.16951	0.19565	0.026339	0.1117	0.12761	0.22907	-3.4979	-3.3917	-4.1	-3.8187	-3.3333	-4.1417	-3.5583	-3.6208	-3.8833	-3.1083	-4.2312	-3.7708	-3.2354	-4.1396	-3.3812	-3.4958	83.791	56.960	-107.567	195.326	-95.179	161.097	30.853	159.774	181.649	-11.027	145.745	170.337	92.997	39.482	87.714	214.018	0.00022239	0.00058806	3.4767e-05	1217.6	6.3881e-06	5.0411e-06	1424.1	374.95	6.683e-06	3.755e-06	514.75	158.68	98.095	24.95	5.9467e-06	52.057	0.00058213	0.00061745	0.00016607	1187.7	6.7003e-06	6.7437e-06	1394.8	366.34	6.7418e-06	6.7934e-06	502.98	157.47	97.6	24.901	6.7767e-06	51.48	-119.012	-70.729	114.396	-120.579	-4.003	-26.095	-120.633	-117.136	10.378	27.641	-117.441	-113.350	-113.483	-108.866	54.387	-108.347	-8191	255	
40567.246	1	1	0	0	0.11252	0.18538	0.14811	0.19414	0.35154	0.086998	0.12388	0.073279	0.056596	0.052138	0.25352	0.093523	0.07965	0.18765	0.211	0.18827	-3.625	-3.3542	-3.8646	-3.9396	-3.3312	-4.0646	-3.7292	-3.8208	-4.025	-3.375	-3.9688	-3.8917	-3.3604	-4.3354	-3.5958	-3.6188	68.783	-28.367	156.687	114.562	149.871	-1.236	-88.922	-74.067	91.568	112.878	209.476	186.731	194.706	196.386	-127.354	178.895	0.00035231	0.00049963	4.3267e-05	1214.5	5.7033e-06	2.9192e-06	1425	371.83	2.3272e-06	6.5741e-06	512.77	159.05	97.696	24.859	3.7471e-06	52.368	0.00059255	0.00061763	0.00016877	1183.3	6.7751e-06	6.6973e-06	1390.4	363.92	6.8356e-06	6.7271e-06	500.97	157.79	96.985	24.806	6.624e-06	51.5	-121.193	-61.319	-61.658	-120.325	53.321	-28.588	-120.660	-117.122	5.335	49.096	-117.342	-113.213	-113.566	-108.903	-22.940	-108.065	-8191	255	
40567.344	1	1	0	0	0.23043	0.20547	0.092923	0.27485	0.14252	0.19169	0.35696	0.36351	0.065383	0.17049	0.35241	0.11626	0.15222	0.041137	0.27061	0.17491	-3.7375	-3.3167	-3.7792	-3.9167	-3.4042	-4.1417	-3.8	-3.5312	-4.0708	-3.4104	-3.8458	-4.1667	-3.3729	-3.9813	-3.725	-3.4125	-6.057	-8.719	-15.268	209.692	38.795	59.063	163.576	216.686	45.622	-55.628	223.181	183.714	167.152	120.943	34.722	-55.727	0.00023747	0.00042242	6.1e-05	1210.3	5.7908e-06	5.2404e-06	1422.4	370.33	1.5199e-06	4.0991e-06	512.59	159.08	98.321	24.975	3.1809e-06	52.124	0.00059246	0.00061424	0.00016849	1181.4	6.6442e-06	6.664e-06	1391	363.47	6.7297e-06	6.5763e-06	501.15	157.48	97.507	24.853	6.6179e-06	51.322	-124.327	11.986	14.804	-120.102	-42.982	16.618	-120.704	-117.164	55.062	31.579	-117.426	-113.350	-113.357	-108.941	43.446	-108.339	-8191	255	
40567.438	1	1	0	0	0.28626	0.063945	0.051298	0.27827	0.21013	0.15379	0.27437	0.2431	0.25457	0.076043	0.18906	0.28458	0.24484	0.12696	0.043103	0.16301	-3.4667	-3.2771	-3.7375	-4.2354	-3.1792	-4.0312	-4.1125	-3.4792	-4.1583	-3.5854	-3.7687	-4.1396	-3.3583	-3.9229	-3.7396	-3.3896	-55.881	158.558	156.508	184.947	133.972	-94.151	135.162	172.245	-48.816	-120.304	135.771	180.541	-82.538	64.275	161.845	28.462	0.00025001	0.00068133	0.00010455	1212.9	1.2735e-06	6.4952e-06	1420.6	371.29	4.2513e-06	2.7304e-06	512.38	157.95	97.712	24.752	4.8411e-06	51.806	0.00058357	0.00060358	0.00016791	1181.9	6.6513e-06	6.6203e-06	1389.2	363.87	6.6242e-06	6.6327e-06	499.72	157.26	97.356	24.818	6.5636e-06	51.167	-125.786	-26.184	6.860	-120.095	94.953	87.815	-120.635	-116.803	58.639	-8.945	-117.376	-113.137	-113.462	-108.668	-4.982	-108.208	-8191	255	
40567.559	1	1	0	0	0.27146	0.046613	0.053095	0.10002	0.18814	0.18515	0.11505	0.43228	0.090919	0.044163	0.24779	0.097286	0.17959	0.18701	0.30034	0.20411	-3.7687	-3.6312	-3.3792	-4.1854	-3.3458	-3.9688	-4.1417	-3.55	-4.0312	-3.575	-3.6437	-4.3063	-3.4146	-3.7958	-3.7938	-3.2062	-106.736	57.684	146.549	169.737	17.036	28.813	-113.725	165.056	124.114	35.141	123.501	149.313	-104.626	-55.955	-8.618	143.432	0.00027694	0.00052659	6.2428e-05	1218.6	7.3775e-06	2.2035e-06	1421.8	369.52	4.2935e-06	1.9506e-06	513.24	158.51	98.27	24.865	1.6901e-06	51.991	0.00058645	0.00059178	0.00016912	1183	6.58e-06	6.5578e-06	1388.9	363.01	6.5751e-06	6.5497e-06	500.76	157.5	97.402	24.903	6.7962e-06	51.405	-128.002	-43.207	-63.749	-120.360	10.852	169.028	-120.334	-116.839	20.162	26.126	-117.472	-113.042	-113.217	-108.687	19.794	-107.607	-8191	255	
40567.652	1	1	0	0	0.35169	0.043101	0.25062	0.14579	0.14897	0.16135	0.19502	0.12816	0.07622	0.13464	0.22008	0.26802	0.045123	0.2587	0.079696	0.059997	-3.7458	-3.5458	-3.5271	-4.1896	-3.2042	-3.875	-4.175	-3.4583	-4.0813	-3.7771	-3.5729	-4.2312	-3.4646	-3.8333	-3.9604	-3.3312	-74.349	166.429	214.679	183.219	126.747	188.095	162.049	199.017	-101.941	26.723	191.887	128.262	-49.497	218.517	-81.276	-87.050	0.00027404	0.00063334	0.00019356	1215.8	8.4849e-07	6.9497e-06	1424.4	372	4.31e-06	3.0914e-06	513.14	159.37	97.914	24.775	5.5112e-06	51.998	0.00057367	0.00059777	0.00016513	1181.9	6.5153e-06	6.632e-06	1392.3	364	6.5279e-06	6.7157e-06	501.65	157.88	97.147	24.823	6.6665e-06	51.486	-125.148	2.887	-20.501	-120.261	-74.154	-17.000	-120.508	-116.821	-7.188	-20.505	-117.281	-113.350	-113.248	-109.061	0.803	-108.060	-8191	255	
40567.750	1	1	0	0	0.25462	0.028028	0.21277	0.13492	0.31537	0.043401	0.20246	0.42241	0.040807	0.32747	0.35823	0.040381	0.093033	0.065476	0.16064	0.27446	-3.6958	-3.7583	-3.25	-4.1833	-3.3521	-3.6729	-4.2063	-3.35	-3.975	-3.7708	-3.475	-4.1958	-3.4688	-3.4458	-3.8688	-3.4271	149.044	124.556	164.964	215.423	78.487	-9.989	189.285	177.980	88.768	-39.529	-65.526	223.179	-119.386	43.186	81.266	-113.023	0.0002297	0.00090092	7.0141e-05	1209.9	5.306e-06	6.7831e-06	1424.6	372.05	2.2886e-06	6.6102e-06	511.46	158.54	98.237	24.719	2.7657e-06	52.113	0.00058121	0.00061311	0.00016894	1180.6	6.5556e-06	6.6397e-06	1391.1	363.94	6.6125e-06	6.6077e-06	499.63	157.47	97.266	24.801	6.5499e-06	51.374	-119.969	-41.169	-24.747	-120.443	66.327	30.478	-120.284	-117.037	74.235	24.486	-117.461	-113.174	-113.253	-109.046	66.566	-107.858	-8191	255	
40567.844	1	1	0	0	0.079391	0.064254	0.12272	0.17195	0.23652	0.056239	0.34747	0.29198	0.19351	0.10602	0.28046	0.14325	0.18485	0.25171	0.17405	0.27371	-3.5479	-3.9583	-3.2521	-4.125	-3.6	-3.4146	-4.2521	-3.5104	-3.7979	-3.9854	-3.3042	-4.1	-3.5146	-3.4521	-4.1125	-3.4188	-15.639	-61.856	203.020	-111.502	53.913	-14.612	185.942	154.814	48.721	-76.479	183.846	69.163	173.651	93.032	152.109	155.260	0.00028361	0.00051661	0.00012311	1214.5	2.8138e-06	7.703e-06	1417.6	370.92	7.3547e-06	5.1363e-06	509.63	157.91	97.959	24.872	2.4487e-06	51.97	0.00058068	0.00061202	0.00017158	1179.7	6.6469e-06	6.6747e-06	1386.6	363.7	6.6033e-06	6.6898e-06	499.04	156.89	97.276	24.818	6.6345e-06	51.269	-122.737	-50.465	-77.101	-120.205	-54.100	21.369	-120.481	-116.989	65.964	73.259	-117.181	-113.540	-113.459	-108.495	189.433	-108.038	-8191	255	
40567.941	1	1	0	0	0.10523	0.081203	0.097567	0.044453	0.15363	0.03044	0.043048	0.16857	0.22571	0.15711	0.17541	0.11716	0.065541	0.11859	0.10364	0.31214	-3.2208	-3.9708	-3.3604	-4.1062	-3.7229	-3.3125	-4.1354	-3.4625	-3.4292	-3.9167	-3.4583	-4.075	-3.7833	-3.2604	-4.0708	-3.5687	-41.882	54.704	-113.400	46.138	15.252	-47.735	156.602	175.060	139.469	-128.104	141.514	208.946	208.612	51.603	1.480	176.841	0.00023226	0.00052301	0.00010412	1214.8	7.6553e-06	4.0231e-06	1421.3	371.03	4.6917e-06	2.2752e-06	513.53	159.98	97.358	24.866	6.0082e-06	51.671	0.00057391	0.00060467	0.00016832	1182.2	6.6525e-06	6.6764e-06	1390.2	363.82	6.5804e-06	6.7819e-06	500.85	157.8	97.148	24.843	6.6759e-06	51.226	-117.237	-88.004	-73.927	-120.361	-13.234	30.901	-120.548	-117.130	45.640	70.687	-117.567	-113.059	-113.454	-108.538	12.452	-108.356	-8191	255	
40568.035	1	1	0	0	0.18268	0.18932	0.29954	0.14641	0.11752	0.25243	0.25438	0.1745	0.11531	0.057793	0.21885	0.47246	0.12312	0.20715	0.10435	0.30001	-3.0625	-3.8917	-3.2938	-4.0208	-3.8187	-3.1354	-4.2521	-3.5271	-3.4062	-3.9354	-3.6542	-3.8729	-4.0208	-3.3208	-4.0375	-3.5667	-32.409	48.735	220.639	216.356	182.674	137.290	141.838	166.054	115.624	206.267	133.331	160.326	175.043	224.039	46.378	153.946	0.00023643	0.00039634	0.00010398	1210.1	2.9444e-06	8.3749e-06	1427.7	370.36	2.6394e-06	4.6399e-06	512.86	157.8	97.936	24.973	4.9733e-06	51.643	0.00058208	0.00060995	0.00017069	1182	6.6382e-06	6.7728e-06	1390.4	363.32	6.6475e-06	6.7079e-06	501.32	157.44	97.383	24.901	6.7823e-06	51.378	-115.562	-66.782	-65.661	-120.383	20.457	25.533	-120.937	-116.908	-72.937	5.470	-117.930	-113.432	-113.161	-108.408	8.131	-108.089	-8191	255	
40568.156	1	1	0	0	0.1727	0.11423	0.13597	0.041552	0.2366	0.038173	0.21438	0.22756	0.28419	0.12102	0.32864	0.14762	0.052514	0.17702	0.1576	0.18196	-3.2667	-4.225	-3.3063	-3.9479	-3.9229	-3.3	-4.2188	-3.8146	-3.3812	-4.025	-3.4146	-3.7604	-3.9562	-3.2333	-3.9625	-3.7479	-126.599	-29.606	94.101	192.525	144.811	22.600	127.805	115.621	50.063	187.201	207.187	-83.258	-76.315	215.636	153.980	-45.423	0.00025074	0.00055757	0.00023732	1215.8	7.2375e-06	3.6144e-06	1422.9	373.07	6.686e-06	3.5172e-06	509.92	159.54	98.224	24.909	4.8295e-06	51.693	0.00058414	0.00060758	0.00016933	1184.7	6.6148e-06	6.6008e-06	1390.9	364.77	6.5649e-06	6.7011e-06	500.38	157.51	97.582	24.841	6.6562e-06	51.197	-121.054	-38.270	-84.239	-120.383	8.054	72.954	-120.601	-116.768	26.198	97.117	-117.292	-113.432	-113.245	-108.726	5.632	-107.902	-8191	255	
40568.254	1	1	0	0	0.10637	0.16148	0.31848	0.13059	0.13019	0.20644	0.21921	0.33708	0.10389	0.011206	0.1558	0.36358	0.15729	0.19122	0.18123	0.19589	-3.0042	-4.0896	-3.4875	-3.7667	-3.9646	-3.35	-4.1104	-3.9562	-3.3229	-4.0729	-3.6229	-3.6208	-3.9667	-3.2188	-3.7521	-3.9313	124.536	149.687	107.934	122.171	194.761	-23.684	166.082	109.003	-25.122	146.694	-114.437	169.484	118.963	150.732	-127.333	139.013	0.00028998	0.00064091	0.00023061	1211.7	4.5777e-06	6.9186e-06	1420.7	371.96	3.1493e-06	7.7862e-06	513.1	157.82	98.127	24.759	3.4167e-06	51.608	0.00057537	0.00060235	0.00016522	1184.4	6.5693e-06	6.6993e-06	1388.8	364.68	6.675e-06	6.6307e-06	500.06	156.81	97.463	24.82	6.6462e-06	51.132	-131.109	-49.612	-58.330	-120.498	52.097	-2.120	-120.550	-116.980	9.753	51.855	-117.318	-113.192	-113.024	-108.764	56.708	-108.213	-8191	255	
40568.352	1	1	0	0	0.25617	0.18321	0.14915	0.15237	0.02394	0.11923	0.11602	0.34077	0.23142	0.27239	0.2503	0.10211	0.16815	0.19634	0.26345	0.042517	-2.9271	-3.9938	-3.4708	-3.4521	-3.9875	-3.4583	-3.8854	-3.8792	-3.1604	-3.9875	-3.7958	-3.4437	-4.1167	-3.3646	-3.6917	-3.9208	96.273	25.357	127.428	191.345	81.903	19.078	110.724	159.977	-115.976	27.049	208.068	-32.259	195.733	89.425	-10.928	-15.751	0.00023213	0.0006095	7.2242e-05	1218.8	2.4486e-06	2.1713e-06	1417.8	374.38	4.8638e-06	1.4451e-06	512.82	158.74	97.89	25.145	4.6498e-06	51.724	0.00057525	0.00060676	0.00016779	1185.9	6.5734e-06	6.7634e-06	1388.5	365.31	6.6347e-06	6.5368e-06	500.62	157	97.785	24.907	6.4959e-06	51.048	-124.395	-22.208	-11.776	-120.395	53.644	31.907	-120.955	-117.010	37.678	-120.783	-117.504	-113.231	-113.398	-108.560	5.976	-108.134	-8191	255	
40568.445	1	1	0	0	0.057666	0.060738	0.45086	0.38552	0.042409	0.10376	0.22778	0.35038	0.022993	0.15364	0.097194	0.052455	0.12805	0.078115	0.10672	0.19325	-2.6333	-3.9083	-3.6042	-3.5271	-4.0708	-3.2646	-3.8479	-4.1833	-3.2792	-3.8208	-3.7583	-3.3187	-4.1208	-3.4208	-3.6646	-4.1521	139.126	18.135	-119.745	199.322	55.904	-9.681	181.483	194.781	5.280	197.822	206.851	207.246	-113.641	-101.779	179.672	-116.185	0.00026525	0.00071235	0.00012913	1220	1.267e-06	6.8897e-06	1423.3	377.34	3.2775e-06	9.9708e-06	517.62	158.84	99.221	25.053	1.7426e-06	51.748	0.00057556	0.00059825	0.00016383	1190	6.5947e-06	6.5755e-06	1393.4	368.57	6.5492e-06	6.4958e-06	503.38	157.59	98.602	24.961	6.5005e-06	51.221	-120.454	-10.511	-80.606	-120.426	-25.295	-8.395	-120.744	-117.259	11.334	46.922	-117.352	-113.612	-113.504	-108.579	-53.991	-108.078	-8191	255	
#DATA ENDS
