BOXY.EXE: ISS Imagent and Oximeter Data Acquisition Program Version 0.80
Ascii Record File

#ACQ INFORMATION
2  Detector Channels 
16  External MUX Channels 
1  Auxiliary Channels 
5000  Waveform (CCF) Frequency (Hz)
1  Waveforms Skipped 
30  Waveforms Averaged 
1  Cycles Averaged 
16  Acquisitions per Waveform 
10.0806  Updata Rate (Hz) 

#FILE INFORMATION
TRUE -- External MUX Channel results are PARSED.
FALSE -- AC DC and Phase are NOT grouped.
TRUE -- Companion Program Settings File CREATED.
FALSE -- AC data not excluded
FALSE -- DC data not excluded
FALSE -- Phase data not excluded
FALSE -- Auxillary Chn. data not excluded
Tab delimiters

#CALIBRATION STATE
TRUE -- Waveform Calibration Values APPLIED.


#AUX CALIBRATION VALUES
Val Type	aux-1	

Term	1.0000e+00	
Factor	0.0000e+00	


#WF CALIBRATION VALUES
A = Detector Channel
Val Type	A-AC1	A-AC2	A-AC3	A-AC4	A-AC5	A-AC6	A-AC7	A-AC8	A-AC9	A-AC10	A-AC11	A-AC12	A-AC13	A-AC14	A-AC15	A-AC16	A-DC1	A-DC2	A-DC3	A-DC4	A-DC5	A-DC6	A-DC7	A-DC8	A-DC9	A-DC10	A-DC11	A-DC12	A-DC13	A-DC14	A-DC15	A-DC16	A-Ph1	A-Ph2	A-Ph3	A-Ph4	A-Ph5	A-Ph6	A-Ph7	A-Ph8	A-Ph9	A-Ph10	A-Ph11	A-Ph12	A-Ph13	A-Ph14	A-Ph15	A-Ph16	

Term	0.00000e+00	0.00000e+00	0.00000e+00	0.00000e+00	0.00000e+00	0.00000e+00	0.00000e+00	0.00000e+00	0.00000e+00	0.00000e+00	0.00000e+00	0.00000e+00	0.00000e+00	0.00000e+00	0.00000e+00	0.00000e+00	0.00000e+00	0.00000e+00	0.00000e+00	0.00000e+00	0.00000e+00	0.00000e+00	0.00000e+00	0.00000e+00	0.00000e+00	0.00000e+00	0.00000e+00	0.00000e+00	0.00000e+00	0.00000e+00	0.00000e+00	0.00000e+00	0.00000e+00	0.00000e+00	0.00000e+00	0.00000e+00	0.00000e+00	0.00000e+00	0.00000e+00	0.00000e+00	0.00000e+00	0.00000e+00	0.00000e+00	0.00000e+00	0.00000e+00	0.00000e+00	0.00000e+00	0.00000e+00	
Factor	1.00000e+00	1.00000e+00	1.00000e+00	1.00000e+00	1.00000e+00	1.00000e+00	1.00000e+00	1.00000e+00	1.00000e+00	1.00000e+00	1.00000e+00	1.00000e+00	1.00000e+00	1.00000e+00	1.00000e+00	1.00000e+00	1.00000e+00	1.00000e+00	1.00000e+00	1.00000e+00	1.00000e+00	1.00000e+00	1.00000e+00	1.00000e+00	1.00000e+00	1.00000e+00	1.00000e+00	1.00000e+00	1.00000e+00	1.00000e+00	1.00000e+00	1.00000e+00	X	X	X	X	X	X	X	X	X	X	X	X	X	X	X	X	

B = Detector Channel
Val Type	B-AC1	B-AC2	B-AC3	B-AC4	B-AC5	B-AC6	B-AC7	B-AC8	B-AC9	B-AC10	B-AC11	B-AC12	B-AC13	B-AC14	B-AC15	B-AC16	B-DC1	B-DC2	B-DC3	B-DC4	B-DC5	B-DC6	B-DC7	B-DC8	B-DC9	B-DC10	B-DC11	B-DC12	B-DC13	B-DC14	B-DC15	B-DC16	B-Ph1	B-Ph2	B-Ph3	B-Ph4	B-Ph5	B-Ph6	B-Ph7	B-Ph8	B-Ph9	B-Ph10	B-Ph11	B-Ph12	B-Ph13	B-Ph14	B-Ph15	B-Ph16	

Term	0.00000e+00	0.00000e+00	0.00000e+00	0.00000e+00	0.00000e+00	0.00000e+00	0.00000e+00	0.00000e+00	0.00000e+00	0.00000e+00	0.00000e+00	0.00000e+00	0.00000e+00	0.00000e+00	0.00000e+00	0.00000e+00	0.00000e+00	0.00000e+00	0.00000e+00	0.00000e+00	0.00000e+00	0.00000e+00	0.00000e+00	0.00000e+00	0.00000e+00	0.00000e+00	0.00000e+00	0.00000e+00	0.00000e+00	0.00000e+00	0.00000e+00	0.00000e+00	-9.50993e+01	-1.28701e+02	-1.24987e+02	-1.83761e+02	-6.23572e+01	-7.40854e+01	-1.58106e+02	-1.62015e+02	-5.36995e+01	-7.02651e+01	-1.70714e+02	-1.70913e+02	-1.78902e+02	-1.77049e+02	-6.51981e+01	-1.49824e+02	
Factor	1.64770e-05	1.35927e-04	3.46547e-05	1.51834e-01	1.19814e-06	1.36781e-06	1.67260e-01	5.25101e-02	1.01735e-06	1.28790e-06	8.68415e-02	3.03108e-02	2.82728e-02	9.66055e-03	1.35503e-06	1.35419e-02	3.18107e-06	3.59181e-06	1.00104e-06	7.44679e-02	3.88649e-08	3.97153e-08	7.71580e-02	2.58867e-02	3.91507e-08	3.98793e-08	4.12608e-02	1.45034e-02	1.40702e-02	4.76425e-03	3.96035e-08	6.46411e-03	X	X	X	X	X	X	X	X	X	X	X	X	X	X	X	X	



#DISTANCE SETTINGS
A = Detector Channel
A-1	A-2	A-3	A-4	A-5	A-6	A-7	A-8	A-9	A-10	A-11	A-12	A-13	A-14	A-15	A-16	

2.5000e+00	3.0000e+00	2.5000e+00	3.0000e+00	2.0000e+00	3.0000e+00	1.5000e+00	3.0000e+00	3.0000e+00	3.0000e+00	3.0000e+00	3.0000e+00	3.0000e+00	3.0000e+00	1.5000e+00	3.0000e+00	

B = Detector Channel
B-1	B-2	B-3	B-4	B-5	B-6	B-7	B-8	B-9	B-10	B-11	B-12	B-13	B-14	B-15	B-16	

1.0000e+01	1.0000e+01	1.0000e+01	1.4400e+00	1.0000e+01	1.0000e+01	1.5100e+00	1.9400e+00	1.0000e+01	1.0000e+01	1.9900e+00	2.4900e+00	2.4100e+00	2.9000e+00	1.0000e+01	2.9800e+00	




#DATA BEGINS
time	group	step	mark	flag	A-AC1	A-AC2	A-AC3	A-AC4	A-AC5	A-AC6	A-AC7	A-AC8	A-AC9	A-AC10	A-AC11	A-AC12	A-AC13	A-AC14	A-AC15	A-AC16	A-DC1	A-DC2	A-DC3	A-DC4	A-DC5	A-DC6	A-DC7	A-DC8	A-DC9	A-DC10	A-DC11	A-DC12	A-DC13	A-DC14	A-DC15	A-DC16	A-Ph1	A-Ph2	A-Ph3	A-Ph4	A-Ph5	A-Ph6	A-Ph7	A-Ph8	A-Ph9	A-Ph10	A-Ph11	A-Ph12	A-Ph13	A-Ph14	A-Ph15	A-Ph16	B-AC1	B-AC2	B-AC3	B-AC4	B-AC5	B-AC6	B-AC7	B-AC8	B-AC9	B-AC10	B-AC11	B-AC12	B-AC13	B-AC14	B-AC15	B-AC16	B-DC1	B-DC2	B-DC3	B-DC4	B-DC5	B-DC6	B-DC7	B-DC8	B-DC9	B-DC10	B-DC11	B-DC12	B-DC13	B-DC14	B-DC15	B-DC16	B-Ph1	B-Ph2	B-Ph3	B-Ph4	B-Ph5	B-Ph6	B-Ph7	B-Ph8	B-Ph9	B-Ph10	B-Ph11	B-Ph12	B-Ph13	B-Ph14	B-Ph15	B-Ph16	aux-1	digaux	

39179.891	1	1	0	256	0.0385	0.093179	0.026765	0.15427	0.11262	0.12093	0.23211	0.32974	0.059306	0.13698	0.12764	0.16997	0.06353	0.20087	0.10498	0.34031	-3.5792	-3.4313	-4.4875	-3.8583	-3.7875	-4.4896	-3.5229	-4.2562	-4.125	-3.4646	-4.6521	-3.8542	-3.7812	-4.6687	-3.4396	-4.2604	409.527	327.711	232.153	413.251	337.148	275.560	456.106	414.062	441.075	344.095	370.645	173.655	163.742	496.688	191.894	252.499	0.00021819	0.00013335	6.6998e-05	1124.6	2.6963e-06	1.7083e-06	1206.9	230.6	3.5354e-06	2.35e-06	288.52	82.58	65.041	18.894	4.0608e-06	26.255	0.00012504	0.00011129	2.9992e-05	1099.5	1.251e-06	1.1471e-06	1190.8	227.7	1.1942e-06	1.1818e-06	284.31	82.347	64.997	18.99	1.1965e-06	26.202	233.953	278.141	224.273	171.889	273.988	302.776	172.145	179.574	304.455	287.714	179.411	186.226	186.808	193.373	293.303	192.860	-8191	255	
39180.008	1	1	0	0	0.14868	0.1214	0.10656	0.12509	0.38989	0.1658	0.11372	0.14611	0.060201	0.23217	0.1151	0.1089	0.19189	0.23581	0.34283	0.07824	-3.9146	-3.5021	-4.5333	-3.9917	-3.7313	-4.5917	-3.6562	-4.2521	-4.2125	-3.5354	-4.5271	-3.9604	-3.6729	-4.5958	-3.5563	-3.9917	391.055	500.619	286.220	489.919	202.327	483.742	495.837	329.306	248.223	164.094	169.834	415.324	203.866	279.231	247.724	511.954	0.00025011	0.00025142	6.7517e-05	1120.5	1.7235e-06	3.3762e-06	1211	229.63	2.6591e-06	3.1548e-06	288.81	82.684	65.305	18.968	2.3563e-06	25.865	0.00012291	0.0001065	2.9022e-05	1097.7	1.2132e-06	1.0914e-06	1190.9	227.53	1.1469e-06	1.1773e-06	284.35	82.302	64.884	18.918	1.1849e-06	26.119	229.962	292.315	293.503	171.690	268.293	302.658	171.932	179.637	312.743	340.982	179.336	185.696	186.306	193.852	297.113	193.221	-8191	255	
39180.105	1	1	0	0	0.041845	0.12627	0.027268	0.17737	0.14942	0.016213	0.11837	0.12767	0.21947	0.22152	0.11013	0.12873	0.19674	0.13944	0.089359	0.45367	-3.9604	-3.5563	-4.2917	-3.9146	-3.7542	-4.5833	-3.7875	-4.1771	-4.2104	-3.6188	-4.4437	-3.9104	-3.6625	-4.4979	-3.4979	-4.1146	333.367	204.980	259.203	485.196	481.291	397.960	473.661	162.601	448.160	173.154	220.526	274.282	387.990	464.657	269.235	397.707	0.00025409	0.00018119	0.00011603	1122.2	2.6909e-06	3.6391e-06	1209.6	229.98	3.667e-06	3.4416e-06	288.7	82.665	65.705	18.874	4.0278e-06	25.959	0.00012306	0.00010937	2.8813e-05	1099.4	1.256e-06	1.126e-06	1190	227.38	1.1622e-06	1.1266e-06	284.37	82.413	65.107	18.868	1.1877e-06	26.116	232.906	284.818	240.309	171.975	280.477	305.780	172.125	179.530	283.933	312.752	179.293	185.637	186.497	193.290	289.663	192.844	-8191	255	
39180.199	1	1	0	0	0.18235	0.08358	0.18186	0.18252	0.27176	0.25103	0.36368	0.32686	0.23625	0.35079	0.22227	0.075923	0.40419	0.066853	0.085433	0.23533	-4.2229	-3.5042	-4.4396	-4.1979	-3.7458	-4.575	-3.7313	-4.1146	-4.4938	-3.75	-4.3208	-4.0021	-3.7542	-4.2604	-3.5687	-4.0354	408.896	206.282	240.320	458.492	457.986	202.660	454.633	430.622	280.380	284.542	512.952	387.679	511.431	504.256	360.644	334.756	0.00020056	0.00025983	0.00011733	1116	1.9046e-06	9.24e-07	1209.3	229.23	2.6783e-06	2.0426e-06	288.05	82.117	65.03	18.897	4.1646e-06	25.904	0.00012182	0.00010624	2.9024e-05	1095.2	1.2279e-06	1.1062e-06	1187.8	227.25	1.25e-06	1.2474e-06	283.88	81.992	64.803	18.86	1.2397e-06	26.072	231.787	234.415	236.868	171.701	306.418	278.114	171.722	179.564	322.379	320.816	179.082	186.033	186.393	193.217	296.250	193.796	-8191	255	
39180.297	1	1	0	0	0.13259	0.022783	0.03341	0.017449	0.20301	0.15803	0.20027	0.095116	0.080846	0.092625	0.10722	0.26062	0.28439	0.1129	0.037084	0.069076	-4.0854	-3.6083	-4.3625	-4.1312	-3.5625	-4.5292	-3.6854	-4.0875	-4.5667	-3.4625	-4.2937	-4.1937	-3.4188	-4.5625	-3.7562	-3.8833	413.487	360.257	248.258	460.175	390.721	462.301	402.598	376.788	190.258	453.075	173.512	169.652	202.915	326.171	228.914	177.861	0.00023663	0.00037912	0.00010159	1112.8	3.2203e-06	1.3746e-06	1211.6	228.89	2.9463e-06	1.3491e-06	286.49	82.282	65.4	18.82	1.7834e-06	25.868	0.00012829	0.0001178	3.0317e-05	1094.6	1.3404e-06	1.1781e-06	1187.7	226.94	1.2469e-06	1.2491e-06	284.15	81.852	64.873	18.84	1.1675e-06	25.928	226.789	270.195	284.490	171.978	257.025	334.922	172.093	179.480	316.918	302.555	179.249	185.838	186.305	193.774	246.318	192.651	-8191	255	
39180.395	1	1	0	0	0.098706	0.10622	0.15645	0.39455	0.21418	0.2094	0.30347	0.15095	0.2084	0.20097	0.1496	0.30005	0.19845	0.11923	0.31832	0.077881	-3.9479	-3.5021	-4.2146	-4.2417	-3.5104	-4.3833	-3.7458	-3.8625	-4.3917	-3.4417	-4.1521	-4.1958	-3.4896	-4.5188	-3.7229	-3.6729	349.872	203.592	447.548	466.129	443.880	161.717	503.107	394.524	276.164	324.232	431.844	504.770	401.955	289.516	364.424	178.249	0.00022906	0.00037833	5.2054e-05	1117.9	3.1558e-06	3.0131e-06	1203.5	228.19	3.4868e-06	9.1e-07	286.71	81.303	65.125	18.709	1.1978e-06	25.737	0.00012725	0.00010856	2.907e-05	1096.6	1.3085e-06	1.1045e-06	1187.8	226.33	1.1996e-06	1.1754e-06	283.48	81.569	64.749	18.804	1.1807e-06	25.959	232.293	259.437	265.264	171.954	279.691	281.333	172.157	179.433	301.462	235.665	179.532	185.590	186.238	193.563	299.942	193.216	-8191	255	
39180.488	1	1	0	0	0.20016	0.22987	0.093069	0.21007	0.15815	0.17243	0.23797	0.18099	0.12812	0.19737	0.14966	0.073358	0.2634	0.11208	0.14501	0.080947	-4.1917	-3.625	-4.1604	-4.3438	-3.7458	-4.4708	-4.0563	-4.0104	-4.3854	-3.5375	-4.3146	-4.2125	-3.55	-4.4062	-3.8479	-3.8146	250.898	429.561	278.445	506.634	332.250	470.708	470.282	197.714	434.849	467.517	311.966	490.122	499.994	383.571	501.596	498.277	0.00023073	0.00034638	6.5069e-05	1115.4	2.0544e-06	3.7106e-06	1209.6	230.04	4.0896e-06	2.4676e-06	287.06	81.842	64.77	18.758	2.6363e-06	25.677	0.00012166	0.00010856	2.8661e-05	1095.6	1.2265e-06	1.1348e-06	1187.3	226.81	1.2142e-06	1.102e-06	282.9	81.5	64.544	18.791	1.1359e-06	25.866	228.049	270.022	239.037	171.904	287.326	292.253	171.751	179.301	291.228	299.125	179.131	185.986	186.516	194.091	343.226	193.073	-8191	255	
39180.586	1	1	0	0	0.047919	0.11482	0.28804	0.18459	0.098562	0.18392	0.13027	0.092794	0.30811	0.13157	0.25197	0.10701	0.15375	0.039854	0.09068	0.13521	-4.1562	-3.6646	-4.1521	-4.4333	-3.5958	-4.5188	-4.1271	-3.8104	-4.3875	-3.525	-4.1354	-4.525	-3.3625	-4.5938	-3.9708	-3.6875	236.568	520.305	441.718	180.205	478.905	248.369	385.395	467.470	285.917	281.110	457.787	505.178	250.036	276.964	311.426	283.714	0.00023348	0.00024013	4.4219e-05	1119.4	1.795e-06	3.2035e-06	1199.4	228.79	4.18e-06	2.685e-06	287.18	81.604	64.826	18.84	1.2029e-06	25.714	0.00011963	0.00010287	2.8457e-05	1094.2	1.224e-06	1.0867e-06	1182.8	225.79	1.1815e-06	1.0909e-06	282.71	81.447	64.405	18.797	1.1147e-06	25.878	240.592	265.471	254.438	171.835	264.875	298.862	172.136	179.706	304.387	302.713	179.391	186.295	186.451	193.775	308.192	193.801	-8191	255	
39180.707	1	1	0	0	0.2967	0.067126	0.13586	0.22269	0.065696	0.14887	0.14389	0.15235	0.065497	0.24919	0.2206	0.11229	0.2601	0.075067	0.30324	0.11528	-4.2896	-3.7729	-4.0521	-4.525	-3.6	-4.4542	-4.3021	-3.6667	-4.5292	-3.5229	-4.1271	-4.5833	-3.6562	-4.3375	-3.7958	-3.5396	165.595	376.019	354.412	165.982	213.765	443.562	421.895	517.874	363.651	169.159	399.417	481.939	516.330	434.645	480.934	497.376	0.00024555	0.00031309	2.6393e-05	1114.8	3.7965e-06	3.0143e-06	1196.1	228.47	3.1484e-06	3.5257e-06	285.69	81.479	65.074	18.664	3.9322e-06	25.788	0.000123	0.00010413	2.8384e-05	1091.1	1.2057e-06	1.1023e-06	1178.4	225.43	1.1611e-06	1.1049e-06	282.55	81.259	64.458	18.682	1.1492e-06	25.822	233.298	194.441	208.602	171.864	304.054	311.548	172.049	179.769	301.105	358.350	179.274	185.553	186.633	193.549	307.544	193.409	-8191	255	
39180.805	1	1	0	0	0.15722	0.05861	0.06791	0.35527	0.28717	0.039813	0.26063	0.091899	0.13807	0.16137	0.19559	0.1182	0.15921	0.10572	0.18053	0.19799	-4.3187	-3.5708	-4.0271	-4.525	-3.3708	-4.175	-4.2604	-3.5979	-4.4167	-3.6625	-3.9083	-4.4021	-3.7708	-4.2312	-4.1396	-3.7	404.812	398.963	415.715	503.211	431.059	468.137	480.436	437.728	399.387	207.777	420.222	176.641	446.543	239.351	231.512	409.169	0.00025105	0.00028299	7.4542e-05	1105.9	2.5333e-06	1.6174e-06	1193.1	228.17	3.1727e-06	2.176e-06	284.08	81.194	64.398	18.725	2.5842e-06	25.753	0.00011835	0.00010282	2.8611e-05	1085	1.1349e-06	1.0501e-06	1174.7	225.23	1.0843e-06	1.0664e-06	281.56	81.279	64.035	18.632	1.0853e-06	25.757	231.584	246.478	260.347	172.024	286.608	378.805	172.199	179.726	313.834	305.079	179.452	185.578	186.094	193.812	322.351	193.460	-8191	255	
39180.898	1	1	0	0	0.030425	0.116	0.072872	0.28747	0.074228	0.17303	0.12463	0.24317	0.079374	0.32063	0.15609	0.21174	0.16363	0.21786	0.023507	0.092077	-4.1229	-3.7542	-3.8729	-4.5167	-3.4854	-4.2292	-4.2292	-3.7062	-4.4187	-3.6625	-3.8583	-4.6042	-3.7208	-4.1208	-4.1	-3.7333	484.347	228.442	370.323	397.884	254.203	367.071	354.406	282.919	239.323	360.930	161.987	453.752	468.937	436.567	189.646	464.741	0.00020723	8.2566e-05	7.1918e-05	1102.1	3.2504e-06	2.3928e-06	1191.2	227.48	2.7339e-06	1.2098e-06	285.07	80.928	65.278	18.779	3.3087e-06	25.602	0.00011342	9.7937e-05	2.8163e-05	1081.5	1.1473e-06	1.0362e-06	1172.7	224.96	1.0977e-06	1.0465e-06	281.63	81.05	64.373	18.689	1.0104e-06	25.68	236.259	234.603	241.556	172.071	296.623	326.430	171.833	179.545	286.775	346.863	179.346	186.203	186.259	194.020	295.460	193.321	-8191	255	
39180.996	1	1	0	0	0.2084	0.33824	0.13487	0.22111	0.084506	0.16261	0.21537	0.12289	0.32364	0.025078	0.35122	0.097784	0.28483	0.057562	0.034467	0.20906	-4.0208	-3.775	-3.8937	-4.4479	-3.5417	-4.1854	-4.4458	-3.6437	-4.3583	-3.875	-3.7458	-4.4021	-3.6854	-4.0646	-4.2458	-3.4604	301.620	433.898	342.014	482.396	378.196	486.400	340.806	477.067	175.717	207.397	498.209	166.905	446.449	407.094	448.956	170.710	0.00022407	0.00023559	6.412e-05	1104.8	2.6893e-06	3.0453e-06	1192.8	228.49	2.9739e-06	3.2721e-06	285.72	81.535	64.887	18.57	2.8209e-06	25.734	0.000117	9.8041e-05	2.648e-05	1083.5	1.1209e-06	1.027e-06	1172.4	225.25	1.0726e-06	9.7787e-07	281.66	81.288	64.2	18.677	9.9603e-07	25.798	231.169	270.915	278.712	172.093	287.954	336.676	172.298	179.507	335.574	273.832	179.297	185.889	185.967	193.895	316.547	192.871	-8191	255	
39181.090	1	1	0	0	0.16735	0.038591	0.18252	0.17272	0.056838	0.16777	0.35847	0.15451	0.17166	0.034506	0.13516	0.25619	0.061025	0.14963	0.15544	0.33314	-4.2458	-4.0604	-3.5042	-4.7625	-3.4646	-4.0958	-4.6896	-3.5708	-4.3438	-3.7771	-3.6646	-4.5875	-3.6083	-3.95	-4.2958	-3.6312	287.811	374.351	201.603	403.932	413.582	262.142	439.600	423.062	397.937	283.121	254.058	215.442	506.922	443.343	320.317	384.088	0.00025888	0.00034646	7.8335e-05	1106.2	3.0921e-06	3.7398e-06	1189.1	227.58	1.5246e-06	3.8645e-06	285.87	80.983	64.689	18.818	1.3502e-06	25.45	0.0001114	9.4225e-05	2.6086e-05	1083.1	1.1013e-06	1.0439e-06	1173.4	224.49	1.0766e-06	1.0122e-06	281.37	81.043	63.968	18.699	1.021e-06	25.643	235.127	242.407	227.138	171.977	311.160	276.644	172.073	179.408	310.152	294.954	179.403	185.958	186.716	193.970	281.396	193.612	-8191	255	
39181.188	1	1	0	0	0.12156	0.070561	0.030814	0.30174	0.3074	0.10993	0.29764	0.138	0.21653	0.24972	0.12864	0.080193	0.2233	0.27108	0.25112	0.1925	-4.0729	-3.8479	-3.7083	-4.6479	-3.55	-3.9104	-4.525	-3.6583	-4.3771	-4.0583	-3.5604	-4.4333	-3.6521	-3.9979	-4.4	-3.3646	431.001	490.324	362.841	506.584	373.628	275.773	462.671	388.080	439.559	461.694	327.456	170.974	459.106	176.160	227.563	501.519	0.00024677	5.8243e-05	6.7669e-05	1105.9	5.2838e-06	9.6901e-07	1197.7	227.68	3.1221e-06	4.4965e-06	286.08	81.346	64.636	18.648	2.0357e-06	25.799	0.00011383	9.4068e-05	2.654e-05	1083.3	1.1403e-06	1.0626e-06	1175.6	225.15	1.0833e-06	1.0596e-06	281.81	81.122	64.018	18.605	1.0193e-06	25.671	225.992	279.341	218.331	171.915	301.606	351.875	172.339	179.831	304.373	304.212	179.171	185.708	186.440	193.570	273.809	192.971	-8191	255	
39181.305	1	1	0	0	0.19478	0.25111	0.21534	0.19101	0.21435	0.11177	0.2934	0.26784	0.14896	0.098317	0.21891	0.10422	0.12496	0.25316	0.15734	0.44378	-3.9396	-4.075	-3.55	-4.5542	-3.6979	-3.7521	-4.7396	-3.2667	-4.2958	-4.2771	-3.4125	-4.6396	-3.7896	-3.7062	-4.5271	-3.3771	241.729	311.891	230.103	437.689	233.988	379.050	499.995	463.641	493.659	394.568	458.539	451.474	433.914	288.789	511.685	182.574	0.00021078	0.00037127	7.265e-05	1104	3.2581e-06	2.9469e-06	1190	227.42	2.2663e-06	2.0212e-06	285.04	81.4	64.554	18.714	2.7317e-06	25.276	0.00011579	9.3829e-05	2.6498e-05	1084.8	1.137e-06	1.0511e-06	1173.3	224.63	1.1496e-06	1.0464e-06	281.89	81.019	64.001	18.634	1.0338e-06	25.476	232.555	218.573	191.457	171.622	331.965	311.081	172.033	179.462	279.854	293.000	179.553	185.943	186.223	193.475	311.983	193.162	-8191	255	
39181.402	1	1	0	0	0.30677	0.40696	0.27475	0.36958	0.07091	0.099779	0.15331	0.20973	0.13384	0.088219	0.10313	0.19845	0.16831	0.036239	0.26641	0.18276	-3.9188	-4.1792	-3.2687	-4.7562	-3.7917	-3.8667	-4.7896	-3.4458	-3.975	-4.2312	-3.6771	-4.5292	-3.7625	-3.9375	-4.4938	-3.5521	255.942	205.034	405.022	492.116	196.521	383.127	464.934	471.305	445.575	252.569	350.656	489.937	286.986	472.247	368.917	417.856	0.00024736	0.00012236	6.5232e-05	1107.2	1.5965e-06	3.7206e-06	1199	227.8	3.5415e-06	3.7212e-06	285.43	81.298	64.71	18.559	3.7013e-06	25.299	0.00011615	9.6971e-05	2.809e-05	1087.9	1.1256e-06	1.1011e-06	1179	224.95	1.2016e-06	1.1445e-06	280.95	81.004	63.989	18.599	1.1807e-06	25.469	228.115	188.136	256.233	172.211	329.115	304.839	171.998	179.358	316.345	332.011	179.258	185.996	186.105	193.476	261.464	193.254	-8191	255	
39181.500	1	1	0	0	0.22998	0.040012	0.049606	0.13701	0.067774	0.19732	0.050191	0.17257	0.057577	0.13891	0.16599	0.32484	0.1521	0.28134	0.15973	0.19365	-3.7313	-4.2021	-3.5438	-4.4583	-3.7333	-3.6979	-4.4292	-3.8063	-3.8458	-4.2417	-3.5292	-4.2667	-3.9854	-3.6521	-4.4667	-3.4437	252.026	282.193	213.924	449.571	284.640	164.766	461.677	443.720	317.872	371.229	420.852	406.044	382.542	400.387	415.718	480.186	0.0002424	0.00031784	7.3696e-05	1116.3	3.8341e-06	6.1862e-07	1207.9	229.86	1.571e-06	2.1048e-06	285.43	80.322	64.234	18.442	1.3645e-06	25.14	0.00013089	0.00010527	3.1575e-05	1095.4	1.3513e-06	1.2631e-06	1184.8	225.95	1.3287e-06	1.2291e-06	281.83	80.826	63.913	18.478	1.2133e-06	25.393	238.062	284.674	233.262	171.851	290.776	462.306	172.269	179.140	288.738	287.616	178.699	185.606	186.077	193.579	348.881	192.936	-8191	255	
39181.594	1	1	0	0	0.060204	0.13687	0.19774	0.16286	0.073513	0.22258	0.12676	0.12372	0.17061	0.11686	0.14292	0.22378	0.11114	0.23429	0.30052	0.24284	-3.8312	-4.1875	-3.4854	-4.5896	-3.9646	-3.5354	-4.6229	-3.4604	-4.1042	-4.2917	-3.6146	-4.2896	-3.9479	-3.4271	-4.4437	-3.9479	215.598	270.140	234.296	440.544	184.057	327.334	517.498	449.723	356.244	418.206	201.201	508.549	511.986	344.532	271.565	413.956	0.00022648	0.00039272	6.5311e-05	1121.9	4.594e-06	2.0407e-06	1204.9	227.9	3.0872e-06	2.424e-06	285.61	80.503	63.981	18.361	3.3235e-06	25.298	0.00013152	0.00011003	3.1502e-05	1098.8	1.2662e-06	1.167e-06	1186.2	225.36	1.2125e-06	1.2043e-06	281.53	80.615	63.606	18.403	1.1736e-06	25.297	228.913	279.094	276.339	172.249	283.253	334.993	172.188	179.105	288.956	304.156	179.191	185.930	186.302	193.994	324.780	192.954	-8191	255	
39181.664	1	1	0	0	0.20913	0.14049	0.33167	0.44901	0.29888	0.096104	0.39452	0.081069	0.14171	0.045419	0.063581	0.20271	0.27311	0.11904	0.28022	0.026219	-3.6813	-4.3833	-3.4062	-4.5042	-4.0938	-3.6521	-4.5125	-3.8729	-3.8458	-4.3625	-3.6312	-4.4313	-4.1813	-3.4229	-4.6854	-3.6104	242.277	170.277	250.737	482.724	231.318	270.133	416.554	205.595	469.710	484.102	213.410	226.870	420.242	346.766	519.675	506.150	0.00023018	0.00031375	7.0934e-05	1119	4.0343e-06	2.6716e-06	1206.1	227.42	3.8476e-06	1.3289e-06	284.79	81.064	64.251	18.263	3.158e-06	25.058	0.00012314	9.9748e-05	3.0192e-05	1096.4	1.1395e-06	1.1301e-06	1183.2	224.65	1.1717e-06	1.0953e-06	280.03	80.424	63.545	18.323	1.0912e-06	25.221	227.013	232.082	271.516	171.888	255.909	279.744	171.873	179.136	294.446	315.904	179.291	186.124	186.198	194.311	262.980	193.020	-8191	255	
39181.785	1	1	0	0	0.067631	0.19866	0.15029	0.21772	0.09132	0.19665	0.17647	0.21409	0.19246	0.10404	0.094949	0.14611	0.12734	0.27862	0.12214	0.2326	-3.5229	-4.3333	-3.2417	-4.4187	-4.2208	-3.6104	-4.7208	-3.8271	-3.7271	-4.6687	-3.5333	-4.3187	-4.3104	-3.3187	-4.7354	-3.7604	274.753	459.655	271.684	447.126	414.676	487.567	495.230	389.298	209.554	497.328	171.288	178.506	423.871	294.040	167.091	367.004	0.00023494	0.00024825	7.9923e-05	1113.9	3.452e-06	3.4958e-06	1196.6	226.7	2.5366e-06	1.4388e-06	284.03	80.279	63.377	18.319	2.3603e-06	25.287	0.00011794	9.6889e-05	2.8926e-05	1094.6	1.1738e-06	1.1233e-06	1178.7	223.8	1.1832e-06	1.0817e-06	279.4	80.038	63.217	18.322	1.1053e-06	25.212	227.804	269.286	275.606	172.162	267.467	299.535	172.111	179.387	323.034	347.728	178.873	185.700	186.378	194.013	358.050	192.811	-8191	255	
39181.883	1	1	0	0	0.24738	0.10844	0.16387	0.29531	0.14706	0.030985	0.21063	0.3855	0.11385	0.045209	0.16916	0.19171	0.16847	0.36667	0.09296	0.15986	-3.2604	-4.6104	-3.1813	-4.2396	-4.3375	-3.4229	-4.6583	-3.9708	-3.6646	-4.5542	-3.6521	-4.1771	-4.3521	-3.5125	-4.3521	-3.9437	384.355	373.149	275.925	503.643	364.219	448.658	444.251	505.618	509.040	343.150	424.392	487.756	378.660	504.797	410.638	466.154	0.00024768	0.00038214	4.8386e-05	1107.4	2.3228e-06	3.9329e-06	1193.2	227.18	2.2243e-06	2.2354e-06	282.2	80.571	63.773	18.455	3.4165e-06	24.812	0.00011895	9.6702e-05	2.716e-05	1089.4	1.1204e-06	1.07e-06	1175	223.85	1.1321e-06	1.0775e-06	278.82	80.213	63.247	18.341	1.0797e-06	25.111	230.327	274.127	189.116	172.351	338.096	309.039	171.988	179.157	321.056	314.329	178.609	185.868	186.303	193.948	282.814	193.369	-8191	255	
39181.980	1	1	0	0	0.19272	0.031676	0.2765	0.14126	0.043907	0.097934	0.17891	0.23292	0.10083	0.12743	0.26601	0.017181	0.13949	0.25721	0.21122	0.20048	-3.2417	-4.3792	-3.3333	-4.1417	-4.3688	-3.2979	-4.7229	-4.0625	-3.5792	-4.4229	-3.6646	-4.0563	-4.3542	-3.3458	-4.2792	-3.8667	350.237	519.448	254.940	222.429	235.029	257.782	416.047	430.901	315.309	323.996	454.022	175.303	516.754	421.846	444.746	438.188	0.0002234	0.00027041	2.872e-05	1110.1	2.5406e-06	2.4017e-06	1192.7	226.6	1.6458e-06	3.8325e-06	282.45	80.041	63.175	18.212	6.701e-07	25.045	0.0001135	9.7443e-05	2.7387e-05	1088.6	1.1094e-06	1.0422e-06	1174.3	223.47	1.1264e-06	1.0051e-06	278.54	79.924	63.25	18.29	1.0565e-06	25.135	230.553	293.411	279.433	172.159	268.805	317.168	172.158	179.380	299.353	317.189	179.079	186.208	186.314	193.799	246.224	193.182	-8191	255	
39182.098	1	1	0	0	0.11476	0.18204	0.11614	0.16482	0.20584	0.11231	0.29379	0.03263	0.045987	0.15539	0.14594	0.090485	0.18933	0.26019	0.20532	0.22233	-3.1312	-4.4583	-3.3563	-4.0625	-4.5271	-3.1625	-4.7312	-4.1	-3.3854	-4.5083	-3.7125	-3.9313	-4.5375	-3.2729	-4.175	-4.2188	221.622	174.939	284.780	491.336	375.921	495.732	470.706	227.162	435.354	515.308	173.821	224.068	220.304	388.845	502.116	401.741	0.00023396	0.0001795	6.6544e-05	1108.6	2.1153e-06	1.4627e-06	1193.1	226.22	3.9306e-06	3.9479e-06	280.51	79.959	63.373	18.265	3.9042e-06	24.825	0.0001184	9.766e-05	2.5835e-05	1087.5	1.1049e-06	1.0614e-06	1173	223.49	1.1049e-06	1.0271e-06	278.44	79.855	63.007	18.209	1.053e-06	25.027	231.854	279.813	237.038	172.325	264.980	354.286	172.125	179.154	310.684	323.153	179.246	185.686	186.514	193.671	333.670	192.804	-8191	255	
39182.195	1	1	0	0	0.29734	0.31013	0.1922	0.22631	0.23293	0.13946	0.18438	0.12299	0.13182	0.23887	0.19933	0.10542	0.21238	0.20237	0.21013	0.19849	-3.0625	-4.5646	-3.6979	-4.0646	-4.4313	-3.425	-4.1354	-4.1687	-3.6188	-4.2833	-3.5604	-3.85	-4.4396	-3.5271	-4.2312	-4.2833	426.969	338.656	447.177	440.576	226.932	424.776	431.145	402.108	404.098	364.369	466.587	224.736	498.214	495.473	485.915	405.146	0.00020889	0.00027543	5.0679e-05	1103.9	4.2705e-06	1.3462e-06	1194.4	226.04	2.9252e-06	2.4832e-06	281.02	79.937	63.604	18.148	1.7929e-06	25.185	0.00011739	9.2399e-05	2.5118e-05	1084	1.1377e-06	1.0616e-06	1171.5	223.17	1.1131e-06	1.0116e-06	277.39	79.889	63.12	18.204	1.0019e-06	25.114	229.939	255.442	256.110	172.117	282.098	308.409	172.188	179.346	300.508	295.913	179.041	186.457	186.483	194.025	300.124	193.144	-8191	255	
39182.270	1	1	0	0	0.093375	0.1238	0.18752	0.093129	0.091285	0.21729	0.27299	0.21257	0.094118	0.19866	0.033177	0.0907	0.2385	0.038383	0.15962	0.086655	-3.175	-4.4938	-3.9104	-3.7375	-4.4479	-3.5583	-4.2208	-4.3292	-3.4313	-4.5375	-3.9604	-3.6729	-4.5104	-3.6937	-4.0208	-4.2188	385.179	250.735	241.227	322.128	432.778	450.968	440.693	455.668	497.366	235.549	355.534	275.462	371.143	488.014	477.986	494.158	0.00022658	0.00020671	5.1297e-05	1100.3	1.9126e-06	4.4375e-06	1180.3	224.31	1.2512e-06	3.5871e-06	282.4	80.164	63.714	18.058	2.0653e-06	25.094	0.00011053	8.8351e-05	2.5399e-05	1080.3	1.0505e-06	1.0246e-06	1162.7	222.22	1.0743e-06	9.3824e-07	277.26	79.526	62.984	18.176	1.0242e-06	24.953	231.729	250.156	304.949	172.182	318.869	288.518	172.123	179.135	331.814	359.534	179.054	185.795	186.324	194.071	288.898	192.900	-8191	255	
39182.387	1	1	0	0	0.13234	0.18753	0.20291	0.11008	0.18245	0.12269	0.21854	0.14571	0.090167	0.075298	0.12863	0.13364	0.3521	0.15275	0.12316	0.23702	-3.0167	-4.5	-3.8438	-3.8417	-4.55	-3.4958	-4.1062	-4.2812	-3.4542	-4.3812	-3.8104	-3.6292	-4.4417	-3.4979	-3.9542	-4.4604	330.826	374.829	392.290	207.978	355.491	304.765	472.299	272.760	392.306	290.587	168.096	394.702	467.904	430.921	443.632	398.290	0.00021573	0.00045653	8.4463e-05	1093.4	2.399e-06	4.2383e-06	1183.3	223.8	2.5264e-06	2.7942e-06	280	80.251	64.197	18.109	2.9314e-06	24.76	0.00011679	8.8396e-05	2.5541e-05	1076.9	1.1068e-06	1.022e-06	1164.6	222.24	1.0903e-06	1.0207e-06	276.8	79.584	63.048	18.171	1.0473e-06	25.081	233.722	258.331	241.176	172.058	336.479	295.060	172.192	179.249	315.593	309.291	179.281	185.916	186.376	193.672	306.166	192.850	-8191	255	
39182.484	1	1	0	0	0.14381	0.1675	0.16531	0.36627	0.05305	0.15403	0.26625	0.16369	0.07138	0.2117	0.1561	0.12367	0.18108	0.1944	0.08727	0.1633	-3.2083	-4.2937	-3.7812	-3.7917	-4.4604	-3.5187	-4.0813	-4.4729	-3.3979	-4.2917	-4.0729	-3.7542	-4.5354	-3.4458	-3.8708	-4.2917	372.454	273.253	507.686	520.687	207.378	355.767	504.738	445.678	409.751	514.739	397.728	494.434	335.738	186.306	296.800	458.903	0.00020912	0.00023718	7.4146e-05	1095.5	4.367e-06	3.2551e-06	1185.6	225.21	2.3347e-06	3.0854e-06	282.58	79.283	63.496	18.287	3.3553e-06	25.078	0.00011371	9.1928e-05	2.5249e-05	1078.3	1.0634e-06	1.0238e-06	1164.6	222.32	1.0306e-06	9.6591e-07	277.87	79.354	62.929	18.233	1.076e-06	25.057	234.855	232.869	271.095	172.185	314.603	303.380	172.221	179.465	315.177	321.718	179.460	185.872	186.054	193.550	280.039	193.492	-8191	255	
39182.578	1	1	0	0	0.17683	0.29849	0.10681	0.20501	0.13698	0.11916	0.17447	0.22203	0.4403	0.26428	0.21494	0.11901	0.22738	0.31208	0.11088	0.073436	-2.9708	-4.275	-3.9583	-3.85	-4.3542	-3.525	-3.9938	-4.4667	-3.5187	-4.1958	-4.1896	-3.4688	-4.4646	-3.7562	-3.8417	-4.5146	443.835	394.056	279.886	470.692	198.741	421.455	464.631	421.877	328.084	468.705	464.200	244.776	402.023	245.377	271.086	462.374	0.00023882	0.00033329	5.7909e-05	1092.9	3.0453e-06	3.0465e-06	1182.6	225.5	2.1019e-06	2.0523e-06	280.51	80.102	63.343	18.174	6.2586e-07	24.875	0.00011204	8.9488e-05	2.5007e-05	1074.7	1.0141e-06	9.6798e-07	1162.1	222.42	9.9687e-07	9.7629e-07	276.74	79.375	63.058	18.179	1.0149e-06	25.007	229.546	215.263	279.739	172.142	264.368	315.825	172.136	179.399	314.754	277.239	179.140	185.982	186.898	193.485	309.764	193.404	-8191	255	
39182.699	1	1	0	0	0.093137	0.098371	0.056715	0.20794	0.10914	0.10222	0.08053	0.2715	0.2434	0.22985	0.24002	0.2587	0.29545	0.12838	0.030357	0.178	-2.8167	-4.3396	-4.2771	-3.5521	-4.6188	-3.7812	-3.8375	-4.6104	-3.4646	-4.1604	-4.3042	-3.4646	-4.4792	-3.7625	-3.7021	-4.4229	346.891	208.643	384.466	494.712	382.746	179.525	170.612	162.525	167.065	190.540	461.444	420.081	271.659	431.426	341.151	512.547	0.00023634	0.00041384	8.8709e-05	1096	2.2733e-06	1.5132e-06	1187.2	225.08	2.0671e-06	2.7252e-06	280.57	79.806	63.313	18.217	2.3609e-06	25.113	0.00011036	9.0738e-05	2.4273e-05	1076.2	1.0089e-06	9.7261e-07	1164.3	221.79	1.0709e-06	9.7389e-07	276.19	79.429	62.969	18.165	1.0464e-06	25.017	231.203	226.702	212.889	172.268	293.648	306.339	172.428	179.516	318.596	322.031	179.240	185.577	186.076	193.800	277.663	193.247	-8191	255	
39182.797	1	1	0	0	0.073184	0.29431	0.016364	0.17529	0.088819	0.089546	0.34983	0.10669	0.16311	0.067549	0.047539	0.22076	0.29823	0.094964	0.17887	0.16354	-3.2812	-4.0312	-4.0854	-3.4479	-4.3917	-3.7833	-3.8417	-4.6479	-3.3146	-4.1833	-4.35	-3.3917	-4.5104	-3.9229	-3.5479	-4.5958	404.196	427.119	481.053	462.737	484.746	459.833	452.887	436.397	165.135	517.866	508.483	442.692	416.513	362.597	197.957	308.656	0.00021705	0.00022104	8.0274e-05	1094.9	2.0882e-06	2.2505e-06	1183.7	224.34	2.4887e-06	4.2753e-06	279.33	79.512	63.755	18.061	3.3331e-06	25.014	0.00010406	9.1576e-05	2.5064e-05	1073	1.0285e-06	9.7857e-07	1160.6	221.65	1.0923e-06	1.0291e-06	276.44	79.28	63.16	18.098	9.6278e-07	25.003	229.801	294.869	248.292	171.743	296.205	273.660	172.049	179.591	287.216	318.665	179.297	185.604	186.343	193.768	284.198	193.053	-8191	255	
39182.867	1	1	0	0	0.19952	0.035724	0.12621	0.34283	0.24322	0.085754	0.10547	0.29953	0.058888	0.12883	0.14613	0.06988	0.011974	0.09438	0.041926	0.082553	-3.0479	-4.0229	-4.2375	-3.4958	-4.4479	-4.0271	-3.7917	-4.5146	-3.4604	-3.9542	-4.3438	-3.4	-4.4875	-4.1188	-3.3729	-4.6417	170.427	334.258	274.571	478.041	292.742	460.099	467.911	493.919	420.560	254.488	458.614	432.269	250.732	303.030	276.734	195.676	0.0002403	0.00030933	5.5328e-05	1096.5	1.8036e-06	1.4436e-06	1178.9	225.7	2.6945e-06	1.3815e-06	280.86	79.257	63.446	18.213	5.0698e-06	25.014	0.00011641	9.0012e-05	2.4192e-05	1072.7	1.073e-06	1.0167e-06	1159.4	222.59	1.1029e-06	9.6176e-07	276.95	79.293	62.956	18.16	1.0674e-06	25.033	232.367	209.841	227.690	172.201	279.878	293.841	172.046	179.173	289.870	245.030	179.386	185.667	186.206	193.723	319.115	193.512	-8191	255	
39182.988	1	1	0	0	0.10201	0.24292	0.041744	0.20201	0.057986	0.15486	0.078417	0.038039	0.24972	0.079078	0.10223	0.025316	0.073554	0.18443	0.22864	0.071759	-3.0104	-3.8479	-4.5667	-3.4729	-4.2458	-4.0083	-3.5583	-4.4021	-3.825	-3.8979	-4.4146	-3.6583	-4.3021	-4.0167	-3.5312	-4.5188	372.689	230.478	513.395	464.569	453.670	471.843	194.972	299.594	423.178	247.641	168.927	383.105	377.782	442.710	365.914	384.620	0.00022446	0.00022273	8.8095e-05	1096.2	2.9198e-06	2.4783e-06	1178.4	224.43	2.3755e-06	2.2894e-06	278.15	79.712	63.611	18.29	1.7994e-06	25.153	0.00011312	9.2803e-05	2.4225e-05	1072.5	1.0394e-06	9.7029e-07	1156.9	221.85	1.0975e-06	9.6475e-07	276.66	79.219	62.867	18.162	9.8959e-07	25.053	231.777	269.527	285.326	172.213	298.908	317.235	171.944	179.441	319.064	324.954	179.095	186.124	185.876	193.095	313.073	192.994	-8191	255	
39183.082	1	1	0	0	0.17784	0.17953	0.070978	0.21422	0.048471	0.19417	0.059701	0.29283	0.14594	0.21305	0.3217	0.31941	0.06746	0.16997	0.14203	0.19027	-3.3667	-3.75	-4.275	-3.8167	-4.1771	-3.9917	-3.8833	-4.4042	-3.6625	-3.8833	-4.3812	-3.4062	-4.2729	-4.0125	-3.5146	-4.3354	424.701	210.791	452.432	472.334	288.299	448.806	404.374	196.858	448.260	291.616	452.254	490.485	513.838	260.750	244.801	491.958	0.00021697	0.00039613	5.0691e-05	1098.7	2.4255e-06	1.9545e-06	1179.1	225.74	2.8889e-06	2.7565e-06	282.85	79.721	64.025	18.21	1.9975e-06	25.118	0.00011357	8.9922e-05	2.4348e-05	1074.3	1.0234e-06	1.0511e-06	1158.1	222.04	1.1085e-06	1.0296e-06	277.34	79.373	63.094	18.185	1.0254e-06	25.096	236.420	208.497	233.570	171.652	288.008	361.760	171.849	179.130	321.120	277.447	178.763	185.245	185.825	192.765	312.593	193.003	-8191	255	
39183.180	1	1	0	0	0.25463	0.23701	0.12759	0.32948	0.20363	0.17006	0.21767	0.059581	0.06364	0.21649	0.29763	0.051131	0.2233	0.077493	0.025293	0.033188	-3.4667	-3.7208	-4.3104	-3.6271	-4.1354	-4.0229	-3.6437	-4.4062	-3.7062	-3.5896	-4.7646	-3.4479	-4.1813	-4.225	-3.225	-4.5021	445.676	216.954	348.960	516.219	441.937	369.497	501.888	409.057	243.751	238.126	502.230	339.446	484.877	510.921	324.892	333.691	0.00023527	0.00013235	8.7224e-05	1100.9	2.7888e-06	2.6577e-06	1179.4	226.65	2.4116e-06	1.8971e-06	283.1	80.279	63.674	18.177	2.1156e-06	25.18	0.0001117	9.2085e-05	2.5499e-05	1074	1.1043e-06	9.899e-07	1160.6	222.54	1.0923e-06	9.9574e-07	277.32	79.462	62.998	18.162	1.0865e-06	25.158	229.789	202.827	280.473	171.612	275.501	362.887	171.913	179.101	299.703	325.654	178.810	185.486	186.416	193.647	329.068	192.919	-8191	255	
39183.273	1	1	0	0	0.15704	0.25909	0.018596	0.21858	0.11008	0.1007	0.26349	0.11723	0.12067	0.1084	0.1896	0.14351	0.3157	0.13373	0.17946	0.056478	-3.4729	-3.7125	-4.5146	-3.65	-4.1062	-4.1687	-3.4167	-4.4771	-3.8458	-3.8146	-4.475	-3.6063	-3.9167	-4.3771	-3.525	-4.5146	363.944	180.548	337.999	422.394	359.191	232.950	505.627	317.212	219.591	279.238	196.657	466.304	514.108	205.226	421.195	204.107	0.00021435	0.00025686	9.1361e-05	1092.8	4.2032e-06	4.6908e-06	1186.2	226.13	2.3437e-06	2.9144e-06	282.74	79.223	63.64	18.25	2.1645e-06	25.05	0.00011227	9.0791e-05	2.4175e-05	1072.4	1.1206e-06	9.4026e-07	1159.7	222.32	1.0625e-06	9.7563e-07	277.4	79.218	63.004	18.167	1.0381e-06	25.009	233.448	251.314	244.580	171.649	309.702	303.141	171.823	178.883	306.729	278.650	178.937	185.267	186.453	193.427	278.095	193.565	-8191	255	
39183.371	1	1	0	0	0.22231	0.11556	0.12029	0.04255	0.064488	0.25762	0.21257	0.23963	0.072706	0.1526	0.055115	0.26756	0.2527	0.14145	0.14701	0.19694	-3.5312	-3.3937	-4.4812	-3.6792	-3.7604	-4.3729	-3.6083	-4.2625	-3.7146	-3.4479	-4.5458	-3.5521	-3.85	-4.2521	-3.3833	-4.2729	464.474	353.196	292.007	501.808	373.048	328.278	417.896	417.624	236.156	192.939	383.146	203.210	163.718	387.847	396.316	312.805	0.00022149	0.00044036	5.7803e-05	1095.3	3.784e-06	3.2259e-06	1177.3	225.5	2.4067e-06	2.0479e-06	280.44	79.373	63.548	18.072	3.4551e-06	25.095	0.00011223	9.2003e-05	2.5898e-05	1072.3	1.0963e-06	9.7269e-07	1158.4	222.23	1.067e-06	1.0084e-06	276.83	79.117	62.996	18.146	1.1054e-06	25.008	236.084	285.183	250.877	171.788	299.097	345.836	172.093	179.594	325.393	270.829	179.261	185.362	186.303	193.707	297.204	193.721	-8191	255	
39183.492	1	1	0	0	0.11181	0.26141	0.046913	0.21404	0.088051	0.13172	0.20092	0.070891	0.094038	0.20836	0.28493	0.029247	0.198	0.14372	0.19945	0.030992	-3.7146	-3.2646	-4.2667	-3.7854	-3.8458	-4.3667	-3.5667	-4.3646	-3.8396	-3.4688	-4.5208	-3.6083	-3.6771	-4.2708	-3.6063	-4.05	252.878	263.573	302.401	454.668	442.873	329.855	477.551	397.640	296.651	279.607	385.315	196.662	460.205	248.186	505.794	405.174	0.00024585	0.00040693	5.8869e-05	1087.5	1.7175e-06	8.6617e-07	1172.8	224.75	1.792e-06	2.3474e-06	279.31	79.206	63.668	18.082	1.7183e-06	25.074	0.0001128	9.5213e-05	2.5072e-05	1069.9	1.0898e-06	9.5366e-07	1157.8	222.27	1.0793e-06	1.011e-06	276.97	79.085	63.017	18.147	1.0362e-06	25.005	230.025	221.617	274.242	171.851	311.056	314.520	172.325	179.553	344.117	313.217	179.723	185.525	186.206	193.782	326.359	193.164	-8191	255	
39183.562	1	1	0	0	0.17632	0.094756	0.18454	0.070635	0.24715	0.067858	0.078947	0.11399	0.069047	0.27162	0.13429	0.16893	0.1732	0.26528	0.22713	0.33182	-3.7271	-3.4375	-4.2438	-3.7125	-3.5958	-4.4187	-3.7375	-4.2063	-3.9229	-3.5042	-4.5167	-3.7313	-3.8875	-4.3167	-3.4771	-4.1687	424.566	288.361	207.052	439.588	275.010	484.633	373.622	422.770	369.266	501.717	384.079	186.885	282.213	477.034	326.257	391.321	0.00020655	0.00016871	8.371e-05	1087	2.8795e-06	2.0381e-06	1170.1	224.68	3.1975e-06	2.0811e-06	281.48	79.318	63.396	17.992	8.6426e-07	24.933	0.00010541	9.6111e-05	2.5585e-05	1068.6	1.0941e-06	1.0079e-06	1153.7	221.95	1.01e-06	9.9981e-07	276.91	78.994	62.835	18.071	1.0548e-06	25.006	227.815	217.699	243.831	172.048	286.079	277.107	171.958	179.556	284.510	280.936	179.372	185.657	186.601	193.875	292.323	193.408	-8191	255	
39183.660	1	1	0	0	0.1984	0.14441	0.12436	0.17811	0.23963	0.1683	0.047799	0.20371	0.10487	0.18432	0.074132	0.034113	0.30219	0.18128	0.096224	0.19127	-3.575	-3.5187	-4.2396	-3.7917	-3.6979	-4.3	-3.5583	-4.2021	-4.3583	-3.3479	-4.3562	-4.0396	-3.4875	-4.5188	-3.4396	-4.1188	297.192	423.507	310.630	485.648	244.319	256.873	496.023	216.871	424.907	404.303	337.399	427.778	255.243	387.712	213.740	166.732	0.00022348	0.00026287	4.2829e-05	1091.6	3.1792e-06	2.4243e-06	1172	225.61	2.3401e-06	1.7114e-06	280.99	79.05	63.299	18.225	2.9926e-06	25.184	0.00011114	9.5348e-05	2.5468e-05	1070.1	1.1102e-06	9.7658e-07	1153.5	221.98	1.0594e-06	1.059e-06	276.96	78.824	62.778	18.176	1.0594e-06	25.084	227.608	244.154	192.953	172.090	290.106	297.989	172.014	179.750	312.058	308.689	179.085	185.877	186.401	193.376	307.255	193.377	-8191	255	
39183.781	1	1	0	0	0.022977	0.27828	0.016344	0.19829	0.15256	0.094442	0.18512	0.2015	0.22698	0.1358	0.086856	0.04342	0.13745	0.14445	0.074029	0.22393	-3.9667	-3.2792	-4.5083	-4.1271	-3.4542	-4.2917	-3.7542	-4.0042	-4.1292	-3.3625	-4.4042	-3.8729	-3.4292	-4.325	-3.4875	-3.9313	427.982	279.297	400.154	464.596	487.981	215.888	474.631	433.419	164.016	208.612	435.706	458.331	195.212	289.176	481.608	412.364	0.00023798	0.00033942	8.0198e-05	1089	2.6975e-06	2.6963e-06	1171.5	224.1	1.8491e-06	2.9182e-06	281.79	79.636	63.119	18.165	2.419e-06	24.76	0.0001095	9.4442e-05	2.5854e-05	1067.3	1.0888e-06	9.7145e-07	1152.5	221.92	1.0668e-06	1.0089e-06	277.81	79.256	62.903	18.209	1.0007e-06	24.932	235.466	255.123	258.729	172.063	305.542	289.733	172.184	179.310	316.391	313.727	179.126	186.082	186.717	193.561	320.995	192.809	-8191	255	
39183.875	1	1	0	0	0.14771	0.15023	0.042664	0.15555	0.14067	0.18438	0.19695	0.19624	0.1758	0.12534	0.097257	0.23217	0.33076	0.14392	0.028308	0.18993	-3.8146	-3.6208	-4.2583	-4.0083	-3.4792	-4.2562	-3.6063	-3.9708	-4.1687	-3.4958	-4.3208	-4.0083	-3.8312	-4.3167	-3.7958	-4.1104	498.588	185.557	406.651	171.367	374.214	320.991	421.772	474.301	241.702	179.233	314.724	169.800	413.991	284.115	297.770	251.971	0.00021747	0.00031699	6.413e-05	1088	3.1461e-06	1.2331e-06	1173.9	223.85	2.6342e-06	2.4551e-06	279.26	79.27	63.51	18.246	2.3659e-06	24.848	0.00010841	9.2033e-05	2.4517e-05	1065.6	1.0682e-06	9.4738e-07	1152.8	221.53	9.8529e-07	1.0062e-06	276	79.041	62.726	18.169	1.006e-06	25.048	228.600	249.122	266.371	172.019	287.407	345.349	171.832	179.638	303.934	299.864	179.597	185.544	186.725	193.688	314.195	192.627	-8191	255	
39183.973	1	1	0	0	0.14201	0.14256	0.052355	0.13776	0.062661	0.21709	0.31542	0.059397	0.11808	0.15567	0.27921	0.077891	0.11431	0.14092	0.025249	0.26634	-4.0417	-3.2542	-4.0458	-4.1542	-3.3875	-4.4729	-3.8438	-3.8646	-4.3771	-3.4125	-4.3125	-4.0563	-3.5438	-4.5312	-3.7188	-3.6292	429.068	313.259	480.603	198.109	410.478	190.396	463.799	311.860	424.848	363.088	446.150	468.898	375.168	256.970	320.923	205.312	0.00023159	0.0001778	9.9857e-05	1092	2.3832e-06	3.6499e-06	1175.6	224.5	3.2754e-06	2.0558e-06	281.25	79.317	63.144	18.138	1.6197e-06	24.78	0.00010911	9.2235e-05	2.4002e-05	1067.6	1.0838e-06	1.0332e-06	1153.1	221.9	1.0576e-06	1.0168e-06	277.02	79.05	62.815	18.134	1.0102e-06	25.007	228.756	301.549	254.697	171.602	323.176	294.747	171.941	179.932	338.398	270.669	179.415	185.962	186.381	193.505	289.932	193.523	-8191	255	
39184.066	1	1	0	0	0.029766	0.3036	0.048673	0.23653	0.47049	0.28203	0.12717	0.17175	0.10575	0.30481	0.11124	0.13338	0.1364	0.18613	0.19355	0.11505	-4.1354	-3.4521	-4.0813	-4.3375	-3.2729	-4.4437	-3.8438	-3.7542	-4.4	-3.3646	-4.0521	-4.1979	-3.5167	-4.3146	-3.7687	-3.6937	240.924	239.312	501.562	516.766	281.450	292.093	330.967	251.652	351.921	301.509	280.790	269.712	287.473	335.094	205.343	203.775	0.00019779	0.00029845	7.9819e-05	1084.4	1.6922e-06	3.3407e-06	1174.2	223.64	3.0954e-06	1.3705e-06	281.85	79.452	63.234	18.134	3.1148e-06	25.03	0.00010765	8.8538e-05	2.4594e-05	1065.8	1.0921e-06	8.8383e-07	1153.2	221.71	9.981e-07	1.0019e-06	277.3	78.93	62.702	18.12	9.7499e-07	25	237.007	250.851	242.032	171.847	303.117	313.787	172.244	179.630	320.985	333.843	179.418	185.826	186.073	193.849	320.957	193.278	-8191	255	
39184.164	1	1	0	0	0.31661	0.057313	0.19139	0.18673	0.2666	0.15502	0.11778	0.13296	0.11916	0.11049	0.067029	0.14552	0.10768	0.26209	0.045594	0.14044	-4.05	-3.4271	-3.9208	-4.2958	-3.2292	-4.3292	-4.0833	-3.6854	-4.4229	-3.5187	-3.8208	-4.1833	-3.4583	-4.3542	-3.8583	-3.5708	320.900	203.775	391.947	464.404	382.641	291.368	420.964	517.754	230.415	333.831	242.218	509.083	182.251	327.444	445.647	479.470	0.00022032	0.00034516	0.00011771	1084.9	2.2858e-06	1.5915e-06	1167.6	224.11	2.7896e-06	1.9274e-06	280.2	79.575	63.298	18.032	2.5227e-06	25.091	0.00010887	8.99e-05	2.5095e-05	1064.9	1.0456e-06	9.2057e-07	1150.4	221.4	1.0452e-06	9.7339e-07	276.02	79.061	62.741	18.104	1.0091e-06	25.007	221.833	262.214	247.713	171.924	306.447	369.303	172.211	179.371	288.614	258.000	179.410	185.584	186.141	193.609	343.068	193.366	-8191	255	
39184.258	1	1	0	0	0.24093	0.039171	0.12353	0.32776	0.12027	0.20679	0.26509	0.17847	0.16788	0.090934	0.085855	0.15409	0.27594	0.12289	0.17394	0.32474	-3.9833	-3.4313	-4.0333	-4.35	-3.2708	-4.3208	-4.0417	-3.6167	-4.3667	-3.6542	-3.8229	-4.3542	-3.3854	-4.2812	-3.9396	-3.3833	479.808	375.323	313.914	464.689	441.557	277.622	472.070	437.890	196.847	506.453	284.923	213.885	314.823	410.700	464.378	438.365	0.00021038	0.00017751	8.4371e-05	1084.4	2.3305e-06	4.1506e-06	1171.2	224.2	1.9234e-06	2.9802e-06	279.97	78.833	62.884	18.165	2.8705e-06	24.91	0.00010849	8.9324e-05	2.4419e-05	1065.4	1.0643e-06	9.3041e-07	1151.3	221.47	9.7037e-07	9.8668e-07	276.49	78.945	62.664	18.119	9.8431e-07	24.944	232.649	228.471	253.088	171.888	309.193	316.293	172.029	179.547	304.127	256.055	179.376	185.764	186.476	193.758	285.742	193.357	-8191	255	
39184.379	1	1	0	0	0.12689	0.081926	0.16131	0.17042	0.22352	0.067592	0.068168	0.075701	0.18685	0.098165	0.092659	0.21585	0.096244	0.091415	0.12612	0.34695	-4.1104	-3.4583	-3.675	-4.5104	-3.3583	-4.3458	-4.1542	-3.6396	-4.3438	-3.6229	-3.8167	-4.4812	-3.5542	-4.2646	-3.8688	-3.425	375.564	439.508	204.174	183.524	494.388	376.060	388.400	337.870	485.595	194.091	415.903	410.639	521.117	362.558	234.058	503.563	0.00021904	0.00034133	9.0937e-05	1088.1	2.8117e-06	3.4838e-06	1171.2	224.68	1.4905e-06	2.6907e-06	280.22	79.029	63.012	18.187	2.776e-06	25.008	0.00010175	8.7513e-05	2.3935e-05	1066.1	1.0312e-06	9.4853e-07	1149.6	220.97	9.4826e-07	9.473e-07	276.24	78.839	62.523	18.128	9.457e-07	25.014	232.043	227.037	251.844	171.964	298.820	258.335	171.992	179.478	302.979	308.959	179.526	185.729	186.033	194.036	348.992	192.943	-8191	255	
39184.477	1	1	0	0	0.10764	0.1234	0.20353	0.29598	0.25162	0.15487	0.33008	0.26487	0.31085	0.25822	0.13359	0.077143	0.10679	0.089758	0.14699	0.10653	-4.1375	-3.7021	-3.8208	-4.5354	-3.5167	-4.2771	-4.2375	-3.7938	-4.3625	-3.6479	-3.7979	-4.5208	-3.5625	-4.0083	-4.0958	-3.5979	500.845	425.865	213.143	476.195	341.316	474.224	494.484	169.181	270.547	268.520	197.521	284.174	492.673	364.079	324.316	469.248	0.00021711	0.00030007	8.7185e-05	1083.9	2.0318e-06	1.3515e-06	1165.3	225.52	2.0478e-06	2.2984e-06	280.01	79.426	63.354	18.208	2.0647e-06	24.586	0.00010134	8.4512e-05	2.4136e-05	1063	1.0128e-06	9.0013e-07	1147.4	221.57	1.005e-06	9.4057e-07	275.25	78.923	62.54	18.185	9.3093e-07	24.82	239.075	256.530	269.374	171.996	283.486	313.759	172.057	179.512	323.786	321.466	179.403	185.626	186.161	193.975	298.178	192.663	-8191	255	
39184.570	1	1	0	0	0.11583	0.18693	0.12819	0.35559	0.2693	0.24736	0.24159	0.17616	0.12216	0.16174	0.24245	0.059482	0.24973	0.23184	0.16288	0.21523	-4.1312	-3.6208	-3.6937	-4.4708	-3.6104	-3.9979	-4.2646	-3.6396	-4.3167	-3.8333	-3.8083	-4.3313	-3.5125	-3.9271	-4.1708	-3.4146	202.214	199.399	359.242	452.750	383.659	272.541	431.447	357.602	180.333	313.001	363.675	344.750	192.822	200.399	258.173	163.824	0.00024823	0.00025598	9.6395e-05	1087.2	1.6381e-06	1.7006e-06	1173.2	224.56	2.8196e-06	3.1095e-06	279.44	79.327	63.145	18.176	3.1117e-06	24.722	0.00010488	8.4759e-05	2.4444e-05	1066.1	1.0486e-06	9.2305e-07	1153.7	220.88	9.4304e-07	9.1232e-07	276.01	78.957	62.588	18.155	9.6311e-07	24.947	225.733	241.966	241.127	172.065	258.623	338.565	171.944	179.496	293.107	290.812	179.102	186.232	186.500	193.427	305.412	193.062	-8191	255	
39184.668	1	1	0	0	0.048624	0.080088	0.20404	0.035976	0.22872	0.13288	0.12434	0.36311	0.074341	0.14392	0.18832	0.31567	0.096321	0.08955	0.1315	0.18634	-3.7917	-3.7375	-3.6167	-4.3438	-3.6104	-4.0708	-4.3292	-3.5938	-4.1625	-3.8375	-3.7104	-4.1562	-3.6792	-3.8771	-4.0104	-3.6729	481.208	285.916	295.103	510.759	345.591	195.303	175.483	347.302	265.149	304.610	513.272	412.018	475.171	382.190	365.253	426.771	0.00023368	0.00011034	0.00014471	1089.5	2.646e-06	2.9467e-06	1167.8	223.49	2.135e-06	3.0883e-06	277.68	78.896	62.976	18.007	4.252e-06	24.701	0.00010665	8.455e-05	2.5064e-05	1066	9.9753e-07	9.4009e-07	1151.4	220.93	9.6164e-07	9.2636e-07	275.11	78.828	62.562	18.157	9.4017e-07	24.846	234.409	249.072	268.122	171.947	276.410	331.680	172.132	179.449	302.372	282.158	179.285	185.660	186.343	193.546	308.765	193.206	-8191	255	
39184.789	1	1	0	0	0.1144	0.084215	0.096669	0.13796	0.11524	0.19481	0.32597	0.031526	0.14418	0.087137	0.34207	0.046046	0.10245	0.1953	0.091983	0.10589	-3.8875	-3.8583	-3.7687	-4.4083	-3.5687	-3.8854	-4.2583	-3.5771	-4.1625	-3.8729	-3.6625	-4.3438	-3.5771	-3.9604	-4.2562	-3.5479	337.516	204.956	502.348	477.459	411.388	322.479	463.610	277.077	461.928	380.377	496.810	502.358	510.448	175.327	325.227	469.933	0.0002039	0.00031817	6.5585e-05	1083.5	2.4747e-06	1.0029e-06	1169.9	223.16	2.9561e-06	2.4177e-06	280.05	79.522	62.963	18.082	1.9694e-06	24.972	0.0001055	8.5552e-05	2.3535e-05	1064.3	9.9802e-07	9.1883e-07	1149.9	220.61	1.0187e-06	9.1382e-07	275.85	78.986	62.385	18.103	8.9454e-07	24.988	230.867	260.037	232.239	172.036	299.081	336.097	171.945	179.836	308.745	321.891	179.045	185.987	186.714	193.784	315.226	193.554	-8191	255	
39184.859	1	1	0	0	0.24412	0.23145	0.037514	0.11118	0.058196	0.12758	0.13355	0.057516	0.10051	0.37304	0.11328	0.11367	0.21209	0.083016	0.24607	0.15566	-3.8646	-3.8958	-3.475	-4.3646	-3.6771	-3.8375	-4.4333	-3.5625	-4.1167	-4.0021	-3.4813	-4.4062	-3.6688	-3.6125	-4.4167	-3.3771	455.330	372.260	373.138	210.400	228.756	382.300	411.977	412.772	335.193	399.265	182.364	254.170	449.377	365.434	329.402	167.140	0.00023836	0.00037958	9.0269e-05	1091.9	2.7376e-06	1.9388e-06	1174.3	222.69	1.8827e-06	2.9324e-06	278.81	79.409	63.131	18.225	1.5738e-06	24.89	0.00010363	8.3382e-05	2.3303e-05	1067.2	9.9438e-07	9.4183e-07	1150.9	220.9	9.8276e-07	9.4049e-07	275.92	79.191	62.496	18.168	8.811e-07	24.901	232.157	229.643	245.347	172.118	317.004	341.999	172.257	179.548	306.162	315.279	179.266	185.825	186.134	194.244	329.355	193.207	-8191	255	
39184.957	1	1	0	0	0.069642	0.042423	0.10614	0.19499	0.10817	0.047272	0.27286	0.12187	0.24179	0.17935	0.054547	0.14511	0.16107	0.15707	0.2357	0.037898	-3.9833	-4.3354	-3.4188	-4.575	-3.6188	-3.7125	-4.5604	-3.6167	-4.0208	-4.2208	-3.575	-4.3792	-3.7146	-3.4854	-4.5292	-3.4417	308.727	187.518	201.015	426.337	512.231	383.479	465.161	204.219	212.328	496.562	186.129	444.849	423.655	443.464	202.298	357.244	0.0002484	0.00023649	0.000103	1084.5	2.6231e-06	2.5195e-06	1169.5	222.72	2.9169e-06	2.9553e-06	279.13	79.536	63.63	18.203	1.0071e-06	25.037	0.0001082	8.1661e-05	2.2653e-05	1065.2	1.0349e-06	9.4655e-07	1149.9	220.3	1.0034e-06	8.7145e-07	275.46	79.037	62.65	18.172	9.0511e-07	24.958	232.927	273.912	231.610	172.142	296.539	329.919	172.417	179.381	324.383	301.398	179.312	186.334	185.923	194.000	295.009	192.946	-8191	255	
39185.055	1	1	0	0	0.11823	0.063278	0.06605	0.14186	0.21396	0.1819	0.030111	0.2836	0.16401	0.12255	0.11873	0.14079	0.12223	0.19939	0.072653	0.073165	-3.7604	-4.2417	-3.425	-4.6333	-3.7625	-3.6375	-4.5771	-3.5917	-3.8729	-4.2667	-3.3458	-4.5667	-3.8521	-3.4708	-4.675	-3.3479	518.003	464.251	498.506	227.349	326.060	206.697	473.525	483.224	322.734	328.548	201.219	387.519	243.645	480.251	175.614	416.775	0.0002274	0.00028763	0.00011577	1086.4	1.6858e-06	3.6715e-06	1162.5	223.3	3.5464e-06	2.9228e-06	280.52	79.236	62.593	18.142	3.7467e-06	24.735	0.00010981	8.3173e-05	2.4111e-05	1065.1	9.6928e-07	9.0361e-07	1149.1	220.53	9.9867e-07	8.687e-07	275.96	79.071	62.348	18.141	8.8654e-07	24.862	230.643	256.797	267.227	172.274	288.632	293.023	172.143	179.385	308.038	327.368	179.120	185.984	186.232	193.506	330.058	193.088	-8191	255	
39185.172	1	1	0	0	0.14806	0.1239	0.20736	0.085268	0.12311	0.15695	0.33613	0.29881	0.18782	0.025065	0.11075	0.12525	0.14044	0.28766	0.15881	0.32914	-3.6875	-4.2167	-3.375	-4.3438	-3.75	-3.3771	-4.6396	-3.4646	-3.9229	-4.3417	-3.325	-4.4125	-3.9208	-3.4792	-4.4729	-3.5271	338.760	363.647	384.241	476.813	455.506	362.830	425.880	481.551	179.632	178.012	198.195	486.531	421.513	414.917	240.847	336.212	0.00023707	0.00028898	8.0307e-05	1085.8	3.7e-06	2.275e-06	1168	223.81	3.4396e-06	3.3283e-06	279.86	79.861	62.701	18.013	2.3027e-06	24.837	0.00010704	7.9783e-05	2.3931e-05	1064.4	9.8085e-07	9.1238e-07	1150.9	220.32	9.9353e-07	9.4315e-07	275.65	79.242	62.569	18.094	9.3341e-07	24.948	234.815	255.489	278.756	171.981	280.461	294.353	172.080	179.508	292.285	289.443	179.307	186.088	185.894	193.428	313.966	192.879	-8191	255	
39185.270	1	1	0	0	0.054	0.20515	0.34229	0.070969	0.13072	0.11493	0.043164	0.05939	0.050448	0.23033	0.16479	0.22846	0.11721	0.14201	0.10779	0.073914	-3.3271	-4.3125	-3.3583	-4.2354	-4.0208	-3.6083	-4.5708	-3.6625	-3.8167	-4.2667	-3.6979	-4.2417	-3.9021	-3.6625	-4.4917	-3.6437	291.977	292.413	504.555	509.143	517.437	500.521	179.743	373.712	220.485	286.007	483.601	229.046	490.056	462.357	295.423	390.825	0.0002371	0.00032685	8.7862e-05	1089.2	2.9382e-06	1.8369e-06	1168.5	224.15	2.722e-06	3.1146e-06	279.41	79.528	63.191	18.131	3.2159e-06	24.834	0.00010277	8.2686e-05	2.4217e-05	1065	9.7251e-07	9.5002e-07	1150.1	220.69	9.5316e-07	9.1124e-07	275.34	79.015	62.571	18.157	9.5098e-07	24.942	226.990	220.401	276.954	172.051	275.598	321.264	171.975	179.453	300.732	319.347	179.314	185.717	186.075	194.033	316.168	192.950	-8191	255	
39185.363	1	1	0	0	0.13638	0.25645	0.18545	0.31884	0.1868	0.15718	0.088139	0.17263	0.05256	0.12337	0.32536	0.23572	0.1199	0.063568	0.28164	0.21745	-3.4562	-4.2625	-3.3812	-4.3479	-4.1271	-3.4083	-4.6604	-3.8167	-3.6667	-4.4688	-3.5375	-4.0417	-4.1354	-3.3438	-4.4688	-3.7479	479.393	171.637	220.225	474.758	508.741	243.976	443.376	413.990	354.368	263.151	443.526	481.831	359.665	347.639	217.191	474.046	0.00025317	0.00028409	6.2182e-05	1086.8	3.8564e-06	8.633e-07	1171.7	223.81	1.8661e-06	1.571e-06	279.25	79.416	63.279	18.115	1.7577e-06	24.817	0.00010871	7.9469e-05	2.2774e-05	1067	9.7527e-07	9.5259e-07	1152.4	220.84	9.6294e-07	8.9762e-07	275.08	79.163	62.718	18.13	9.5362e-07	24.85	231.464	242.226	268.671	172.122	298.592	366.450	172.137	179.338	300.225	368.031	179.226	186.166	186.883	193.565	307.590	193.374	-8191	255	
39185.461	1	1	0	0	0.058894	0.049701	0.07256	0.35522	0.25213	0.12781	0.12902	0.13881	0.13364	0.1854	0.052238	0.084716	0.17499	0.079467	0.097216	0.32564	-3.1417	-4.4896	-3.25	-4.2375	-4.3542	-3.2854	-4.4167	-3.7479	-3.5	-4.4062	-3.4188	-4.2021	-4.3708	-3.2188	-4.5104	-3.8104	451.806	234.112	330.504	202.698	519.988	447.969	463.314	272.744	418.536	350.416	348.792	421.619	518.332	369.100	302.618	353.433	0.0002434	0.00021988	6.6392e-05	1090.4	2.3743e-06	2.8044e-06	1172.3	222.88	3.7285e-06	7.0594e-07	278.69	79.296	62.88	18.129	3.2259e-06	24.905	0.00010504	8.2956e-05	2.4448e-05	1067.7	1.0168e-06	9.7815e-07	1153.1	220.21	1.0125e-06	9.1889e-07	274.97	79.018	62.426	18.187	9.3976e-07	24.929	230.080	295.708	236.990	172.353	317.159	318.485	172.048	179.481	320.536	262.310	179.069	186.173	186.110	193.906	303.878	193.115	-8191	255	
39185.555	1	1	0	0	0.069007	0.035258	0.22272	0.14554	0.16957	0.02591	0.15321	0.12705	0.28722	0.32865	0.25946	0.13195	0.21799	0.063803	0.10865	0.32866	-3.0021	-4.3729	-3.5833	-3.9667	-4.3229	-3.2896	-4.625	-3.8792	-3.5062	-4.4792	-3.6604	-3.9083	-4.525	-3.2542	-4.2583	-4.025	236.533	247.128	227.828	457.526	414.576	344.404	519.175	405.530	257.911	241.484	452.172	449.455	490.212	438.496	204.248	454.618	0.00021894	0.0001225	7.3721e-05	1088.3	2.3433e-06	2.2229e-06	1172.1	222.6	2.1831e-06	2.0249e-06	279.85	79.317	63.305	18.112	1.6162e-06	24.954	0.00010736	8.0973e-05	2.2826e-05	1066.8	1.0243e-06	9.4225e-07	1153.4	220.48	1.0065e-06	8.9006e-07	274.74	79.018	62.715	18.15	9.4223e-07	24.952	231.176	240.883	261.865	172.215	327.244	293.546	172.160	179.449	297.244	330.139	179.045	186.149	185.701	193.381	339.190	193.324	-8191	255	
39185.652	1	1	0	0	0.042602	0.049716	0.26561	0.17108	0.2483	0.2247	0.19663	0.10451	0.22526	0.20297	0.2351	0.17992	0.030187	0.13256	0.1735	0.22629	-2.9542	-4.5375	-3.5917	-3.95	-4.3812	-3.3146	-4.4542	-3.9938	-3.2604	-4.5146	-3.7438	-3.8583	-4.4229	-3.6125	-4.1417	-4.0437	421.250	273.665	438.275	190.304	416.374	486.891	460.437	185.714	471.132	189.970	473.069	427.128	206.750	473.519	234.741	371.844	0.00024417	0.00016596	0.00010604	1090.9	2.7441e-06	1.9809e-06	1177.7	223.4	2.7357e-06	3.3366e-06	278.77	79.944	62.345	18.273	1.8033e-06	24.95	0.00010674	8.2948e-05	2.3558e-05	1069.3	9.6968e-07	9.4961e-07	1154.6	220.08	1.0262e-06	9.3932e-07	275	79.16	62.333	18.168	9.3167e-07	24.962	229.621	254.018	260.291	172.374	301.579	280.444	172.337	179.513	316.322	316.650	178.782	185.676	186.282	193.589	281.180	193.154	-8191	255	
39185.746	1	1	0	0	0.235	0.10152	0.1586	0.23098	0.12003	0.1069	0.1987	0.080836	0.26114	0.23126	0.17843	0.21446	0.1127	0.13804	0.12221	0.22353	-3.1771	-4.4229	-3.4104	-3.9958	-4.4042	-3.4146	-4.3708	-4.1687	-3.5271	-4.2667	-3.75	-3.825	-4.3313	-3.5438	-3.9875	-4	253.465	350.232	252.596	462.521	270.288	220.663	491.562	196.432	285.184	220.695	340.699	356.718	395.542	380.888	239.888	495.092	0.00024377	0.00016323	5.9532e-05	1089.7	2.5468e-06	3.0598e-06	1168.8	223.13	3.8049e-06	2.2987e-06	277.7	78.773	63.329	18.144	2.2928e-06	24.859	0.00010677	8.2028e-05	2.3408e-05	1065.1	9.9535e-07	9.851e-07	1151	220.05	9.9679e-07	9.3475e-07	274.54	78.752	62.599	18.145	9.7161e-07	24.913	232.089	264.592	298.905	172.246	301.423	306.965	172.032	179.405	325.186	322.487	179.380	186.122	186.233	193.901	334.153	192.907	-8191	255	
39185.867	1	1	0	0	0.068632	0.094589	0.28806	0.16376	0.29172	0.19174	0.12587	0.19962	0.12855	0.03863	0.16477	0.15285	0.045354	0.18201	0.24244	0.086683	-3.1333	-4.5542	-3.6292	-3.7729	-4.4729	-3.4125	-4.2333	-4.1625	-3.2604	-4.5479	-3.7104	-3.5833	-4.4479	-3.3604	-4.0687	-4.3854	240.060	425.896	503.201	440.595	438.236	270.686	492.422	466.281	405.436	491.978	383.944	473.360	510.281	208.427	178.146	335.441	0.000229	0.0003187	4.0757e-05	1084.8	1.7938e-06	1.3085e-06	1174.2	224.87	3.1999e-06	1.4373e-06	280	78.89	63.164	18.218	2.3728e-06	25.094	0.00010936	8.0674e-05	2.2934e-05	1065.8	9.5284e-07	9.3356e-07	1154.2	221.13	1.0364e-06	9.4389e-07	275.57	78.97	62.551	18.123	9.325e-07	24.959	233.920	266.011	262.372	172.189	285.536	298.954	172.353	179.477	294.151	312.304	179.303	186.281	186.707	193.328	301.446	192.700	-8191	255	
39185.965	1	1	0	0	0.25312	0.12691	0.18043	0.33859	0.1241	0.16001	0.18221	0.073149	0.10442	0.23608	0.10686	0.16447	0.05299	0.16641	0.14688	0.1155	-2.9542	-4.5083	-3.75	-3.4229	-4.5437	-3.125	-4.0792	-4.3688	-3.0958	-4.4917	-3.9375	-3.4188	-4.6042	-3.4771	-3.7604	-4.3417	383.926	261.424	330.972	456.389	248.396	300.721	509.278	520.318	198.350	402.368	306.479	179.017	428.049	282.611	246.415	319.409	0.00023327	0.00026666	7.2178e-05	1084	2.9121e-06	1.4416e-06	1171.9	223.54	1.1605e-06	2.5456e-06	278.44	79.78	63.071	17.976	2.0697e-06	24.693	0.00010906	8.2829e-05	2.2459e-05	1066.8	9.9e-07	8.9161e-07	1150.5	220.52	1.0481e-06	8.8765e-07	274.68	79.155	62.586	18.085	9.773e-07	24.894	225.945	258.119	250.953	172.393	285.259	366.567	172.059	179.346	328.428	312.876	178.598	185.943	186.573	193.842	282.521	193.142	-8191	255	
39186.062	1	1	0	0	0.099524	0.14969	0.19506	0.051928	0.058736	0.26883	0.14808	0.095562	0.20394	0.064165	0.095333	0.3401	0.14177	0.11347	0.25904	0.089133	-3.0583	-4.1458	-3.7938	-3.6063	-4.3625	-3.4083	-3.9792	-4.2562	-3.3146	-4.1771	-4.0771	-3.5854	-4.4167	-3.6375	-3.7667	-4.3688	249.287	257.109	504.767	231.551	225.789	164.587	432.488	474.843	369.410	260.268	520.388	385.432	470.072	293.065	447.387	430.755	0.00020617	0.00027692	6.419e-05	1084.5	1.3296e-06	2.3319e-06	1175.1	223.58	2.9176e-06	2.7109e-06	278.52	79.193	63.23	18.296	2.9618e-06	24.935	0.0001074	8.2926e-05	2.3062e-05	1061.9	1.0068e-06	9.094e-07	1150.2	220.3	9.9084e-07	8.6389e-07	274.27	78.947	62.574	18.127	9.3563e-07	24.922	232.125	274.910	293.873	172.167	287.431	318.071	172.114	179.134	313.186	325.513	179.253	185.763	186.443	193.618	311.051	193.165	-8191	255	
39186.156	1	1	0	0	0.14205	0.044076	0.097239	0.28632	0.16878	0.11861	0.24735	0.10704	0.1633	0.18068	0.13751	0.34322	0.087865	0.33166	0.14948	0.26186	-3	-4.2333	-3.9062	-3.8354	-4.3042	-3.6229	-3.8063	-4.3896	-3.5604	-4.2375	-4.1896	-3.4875	-4.3833	-3.7625	-3.7042	-4.4646	353.631	239.467	292.094	470.861	191.525	443.403	493.223	487.375	421.346	252.981	482.417	404.656	328.949	205.478	274.942	347.155	0.00021565	0.00018657	9.6818e-05	1085.3	4.0716e-06	4.5534e-06	1172.6	223.16	2.5354e-06	1.3221e-06	280.96	79.27	62.546	18.231	1.7732e-06	25.018	0.00010948	8.4198e-05	2.2642e-05	1061.6	9.4758e-07	9.142e-07	1150.3	220.9	9.9802e-07	8.7685e-07	275.38	79.085	62.507	18.139	9.1921e-07	25.032	229.316	248.421	267.762	172.120	289.292	311.916	172.225	179.608	310.248	329.238	179.187	186.210	186.730	193.174	304.727	192.706	-8191	255	
39186.254	1	1	0	0	0.14994	0.22627	0.20144	0.23102	0.097802	0.19294	0.26042	0.37805	0.12271	0.29118	0.21566	0.25751	0.10825	0.14321	0.095855	0.099764	-3.1729	-4.0604	-4.1354	-3.7521	-4.2104	-3.7375	-3.9146	-4.4563	-3.4229	-4.1167	-4.2063	-3.4125	-4.4396	-3.7562	-3.5896	-4.1438	261.658	378.973	184.464	463.797	374.612	354.130	448.047	514.612	199.201	429.900	501.504	390.140	495.417	371.491	307.100	499.422	0.00022799	0.00036428	3.8853e-05	1086.1	2.3294e-06	1.4113e-06	1172.2	222.16	3.4162e-06	3.4847e-06	278.92	79.608	63.262	18.203	2.9486e-06	24.958	0.00010065	8.2739e-05	2.2549e-05	1064	9.5511e-07	9.1436e-07	1150.5	220.07	9.2877e-07	9.2786e-07	274.7	78.986	62.636	18.149	8.877e-07	24.964	234.540	250.649	218.774	172.055	303.378	373.357	172.349	179.297	290.326	287.063	179.184	185.530	186.293	193.538	283.396	193.622	-8191	255	
39186.348	1	1	0	0	0.10349	0.036548	0.12719	0.27192	0.19543	0.31487	0.33263	0.11181	0.068707	0.19577	0.11398	0.1536	0.073853	0.14577	0.1465	0.19358	-3.2104	-3.9292	-3.9833	-3.6188	-4.325	-3.7188	-3.8583	-4.4771	-3.4583	-3.975	-4.2146	-3.4875	-4.3333	-3.8021	-3.4083	-4.3771	308.747	289.739	224.851	477.606	517.036	458.579	457.807	391.429	460.057	491.224	278.501	498.166	304.157	299.522	298.377	375.274	0.00025143	0.00036412	6.4761e-05	1080.8	3.1167e-06	1.5127e-06	1173.7	223.58	2.7738e-06	1.831e-06	280.24	79.095	62.955	18.186	7.8469e-07	24.831	0.00010332	8.5829e-05	2.2711e-05	1060.8	9.3656e-07	9.6202e-07	1150.7	220.83	1.0108e-06	8.9944e-07	275.09	78.634	62.512	18.114	9.4124e-07	24.958	226.704	244.900	236.086	172.037	273.185	354.405	172.172	179.350	320.316	333.511	179.194	185.746	186.186	193.362	318.009	193.196	-8191	255	
39186.469	1	1	0	0	0.23794	0.094838	0.16827	0.16914	0.049644	0.075062	0.13859	0.2363	0.26154	0.12575	0.059323	0.15581	0.2285	0.17612	0.083958	0.097454	-3.1833	-3.9562	-4.3396	-3.3083	-4.4646	-4.0896	-3.6792	-4.45	-3.3875	-3.9104	-4.4396	-3.3271	-4.4521	-3.8937	-3.3833	-4.5521	273.797	251.146	211.336	476.924	272.100	380.511	427.993	460.440	446.233	370.985	229.656	427.674	246.627	170.848	520.784	307.957	0.00020879	0.00034441	4.9764e-05	1085.2	2.5646e-06	7.0632e-07	1170.4	222.81	2.7061e-06	2.6053e-06	277.99	79.082	62.661	18.095	1.5136e-06	24.916	0.00010158	8.1818e-05	2.1777e-05	1063.2	9.5057e-07	8.7481e-07	1151.1	220.17	1.0078e-06	8.9421e-07	274.76	78.78	62.605	18.123	9.3052e-07	24.995	234.487	256.632	277.791	172.110	278.511	303.933	172.040	179.543	324.692	327.974	179.119	186.004	186.623	193.133	298.732	193.271	-8191	255	
39186.566	1	1	0	0	0.26684	0.097272	0.189	0.13078	0.026246	0.0041605	0.19916	0.11763	0.14268	0.079338	0.17623	0.37985	0.30146	0.24032	0.20596	0.15511	-3.2021	-3.8688	-4.3583	-3.5208	-4.1458	-4.0042	-3.5125	-4.4125	-3.5812	-3.8125	-4.55	-3.5	-4.2562	-3.9458	-3.2938	-4.4833	510.790	171.737	258.882	489.802	394.558	390.597	493.241	187.973	195.681	471.635	509.387	482.770	416.093	439.408	264.146	330.706	0.0002047	0.00033994	2.6965e-05	1084.7	4.1473e-06	2.5837e-06	1168	223.27	1.4782e-06	3.4087e-06	279.53	79.422	63.417	18.306	2.7404e-06	25.09	0.00010136	8.3599e-05	2.2023e-05	1062.6	9.9486e-07	8.6977e-07	1148.7	220.11	9.7828e-07	9.301e-07	274.6	78.968	62.687	18.173	9.2342e-07	25.046	224.922	269.502	222.788	172.012	288.733	329.484	171.976	179.637	296.317	301.505	179.254	185.811	186.896	193.159	338.177	193.072	-8191	255	
39186.660	1	1	0	0	0.061989	0.15959	0.10294	0.14009	0.28158	0.14984	0.12925	0.055424	0.23503	0.10223	0.25235	0.23432	0.23894	0.082829	0.13693	0.15074	-3.3375	-3.5521	-4.5333	-3.3708	-4.2292	-4.0958	-3.4229	-4.4208	-3.6583	-3.8104	-4.4792	-3.3354	-4.1021	-4.0708	-3.1375	-4.7021	442.719	228.270	467.068	503.325	323.280	425.380	465.443	482.558	506.586	352.545	452.053	491.454	486.406	212.022	498.158	407.397	0.00021255	0.0003225	3.0872e-05	1080.7	2.1377e-06	2.9914e-06	1163.3	223.09	1.2392e-06	4.8787e-06	278.25	79.08	63.251	17.968	1.9362e-06	24.923	0.00010313	8.434e-05	2.2017e-05	1059.6	9.8482e-07	8.9095e-07	1147	220.07	1.0231e-06	9.183e-07	274.71	78.724	62.698	18.083	9.0667e-07	24.94	234.944	235.155	204.396	172.002	287.453	289.318	172.115	179.605	326.186	294.667	179.026	185.339	186.569	193.709	272.747	193.037	-8191	255	
39186.734	1	1	0	0	0.26836	0.027572	0.13714	0.06269	0.14071	0.21915	0.2479	0.068529	0.24087	0.12036	0.14428	0.26693	0.085589	0.23119	0.13224	0.16222	-3.3937	-3.6854	-4.4563	-3.3333	-3.8771	-4.1188	-3.4083	-4.5458	-3.6375	-3.4292	-4.5458	-3.3708	-3.8396	-4.2229	-3.0396	-4.425	246.269	494.819	205.764	186.023	459.833	398.277	278.549	273.730	478.002	215.102	162.257	437.929	262.426	201.695	339.409	347.160	0.0002313	0.00019449	6.1415e-05	1080.3	3.9018e-06	3.6782e-06	1165.4	224.48	1.4275e-06	2.8851e-06	278.9	78.938	62.849	18.117	2.4397e-06	24.834	0.00010672	8.0674e-05	2.1858e-05	1059.3	1.0412e-06	8.4809e-07	1147	220.89	9.6939e-07	8.9587e-07	274.21	78.738	62.661	18.118	9.4661e-07	25.029	239.164	261.365	259.648	172.049	316.142	301.087	172.265	179.487	285.105	296.591	179.275	185.518	186.014	193.390	333.349	193.408	-8191	255	
39186.852	1	1	0	0	0.10012	0.12588	0.132	0.29428	0.17034	0.052221	0.34898	0.07948	0.13403	0.02769	0.14505	0.16294	0.23833	0.12495	0.12102	0.15259	-3.3979	-3.3625	-4.2333	-3.5708	-3.9188	-4.2708	-3.4375	-4.3583	-3.8625	-3.6417	-4.1896	-3.4688	-3.8417	-4.1979	-3.2667	-4.2729	316.921	423.702	265.048	403.005	235.814	252.025	456.407	408.979	430.451	320.248	476.927	277.988	423.718	251.558	371.976	260.642	0.00022852	0.00024668	0.00010182	1079.3	2.6093e-06	5.7062e-07	1166.1	223.01	2.4587e-06	2.9415e-06	277.75	78.933	63.225	18.202	3.6712e-06	24.901	0.00010385	8.6548e-05	2.1132e-05	1057.9	9.7697e-07	8.6943e-07	1146.5	220.36	9.6849e-07	8.7311e-07	274.34	78.41	62.74	18.167	9.2821e-07	24.933	229.983	232.613	262.633	171.954	306.987	503.004	172.215	179.567	300.904	307.455	179.258	186.249	186.845	193.650	303.789	193.354	-8191	255	
39186.949	1	1	0	0	0.12294	0.27762	0.072116	0.29343	0.22406	0.18154	0.22397	0.099168	0.14067	0.028675	0.18889	0.11657	0.28844	0.042931	0.28185	0.057677	-3.55	-3.3583	-4.5104	-3.5167	-3.6562	-4.1708	-3.2625	-4.4542	-4.0563	-3.4813	-4.4854	-3.3854	-3.8542	-4.4125	-3.2583	-4.2271	240.545	273.504	478.046	486.176	358.831	440.928	480.236	223.027	364.132	279.274	423.436	420.831	464.003	184.409	429.159	258.338	0.00021296	0.00017644	8.4365e-05	1078.5	2.6706e-06	1.9265e-06	1160.3	223.97	2.4513e-06	3.7297e-06	279.63	78.838	62.657	18.429	2.2279e-06	25.079	0.00010207	8.1646e-05	2.2751e-05	1059	9.7672e-07	8.5711e-07	1145	220.51	9.6417e-07	9.2254e-07	275.56	78.702	62.595	18.21	9.1443e-07	25.022	228.094	256.426	258.609	171.851	299.584	269.943	171.943	179.700	275.285	311.235	179.031	185.724	186.552	194.208	320.053	193.388	-8191	255	
39187.047	1	1	0	0	0.15588	0.16166	0.26692	0.19279	0.23785	0.12039	0.23549	0.18338	0.10777	0.1944	0.11642	0.2076	0.14212	0.037019	0.11787	0.19879	-3.5146	-3.2833	-4.5229	-3.7708	-3.7042	-4.4479	-3.5708	-4.1333	-3.9646	-3.4875	-4.5417	-3.5271	-3.7125	-4.3313	-3.2771	-3.9708	391.087	353.402	518.436	485.959	247.474	330.270	505.495	488.659	300.774	244.874	188.840	413.688	422.198	255.993	224.427	415.422	0.00020266	0.00030131	3.1681e-05	1077.3	2.2311e-06	1.9229e-06	1164.1	222.82	2.0855e-06	1.4462e-06	278.59	79.439	62.786	18.257	2.9418e-06	24.665	0.00010373	8.3809e-05	2.2282e-05	1058	9.6077e-07	8.6232e-07	1145.8	220.07	9.1482e-07	9.0825e-07	275.56	78.813	62.588	18.135	9.2978e-07	24.959	232.244	262.545	255.946	172.113	321.367	334.731	171.905	179.631	318.906	291.729	178.989	185.866	186.602	193.863	295.997	193.617	-8191	255	
39187.141	1	1	0	0	0.20699	0.20861	0.086238	0.242	0.27643	0.074612	0.35948	0.099294	0.101	0.26234	0.34912	0.057295	0.19529	0.021749	0.088398	0.092052	-3.6708	-3.3479	-4.4062	-3.9958	-3.5458	-4.5729	-3.4583	-4.2	-4.1562	-3.2438	-4.625	-3.9646	-3.55	-4.525	-3.3854	-4.1	260.439	296.507	356.442	173.096	291.998	203.279	474.211	261.687	173.951	401.991	504.054	334.297	312.458	485.484	217.679	372.365	0.00021791	0.00030969	5.4492e-05	1084	3.6036e-06	3.7263e-06	1165.8	223.97	1.833e-06	1.2741e-06	279.35	78.999	62.737	18.124	2.8443e-06	24.925	0.00010207	8.2948e-05	2.3898e-05	1059.7	9.7891e-07	8.6728e-07	1145.7	220.84	9.4679e-07	9.0858e-07	275.66	78.818	62.513	18.103	9.3415e-07	25.034	231.537	226.801	253.799	172.014	328.769	304.780	171.942	179.560	306.819	333.720	179.396	185.928	187.008	193.710	267.128	193.182	-8191	255	
39187.262	1	1	0	0	0.015628	0.15927	0.055808	0.21452	0.24102	0.1215	0.17294	0.069388	0.096155	0.083205	0.17579	0.054467	0.019708	0.098833	0.13829	0.02955	-4.1333	-3.175	-4.5167	-4.0521	-3.3833	-4.6458	-3.5625	-4.1646	-4.25	-3.3896	-4.35	-3.7667	-3.6	-4.3562	-3.4958	-4.0604	479.535	311.955	248.692	174.019	424.612	313.147	408.620	203.290	373.974	425.913	316.351	486.201	197.975	243.605	286.061	290.468	0.00025066	0.00041663	0.00010553	1081.9	2.4098e-06	2.7187e-06	1154.8	223.5	2.4769e-06	2.5753e-06	279.07	79.067	63.24	18.246	3.8357e-06	25.055	0.00010351	8.5582e-05	2.2369e-05	1061.3	1.0132e-06	9.0303e-07	1146	220.52	9.3644e-07	9.429e-07	275.1	78.612	62.643	18.196	9.6756e-07	25.005	227.465	289.334	264.648	171.869	324.583	316.670	172.018	179.437	305.689	328.307	178.876	185.982	186.563	193.605	303.585	192.986	-8191	255	
39187.332	1	1	0	0	0.088892	0.25275	0.18278	0.18926	0.094069	0.072079	0.021135	0.016261	0.08637	0.18333	0.2333	0.21814	0.22714	0.43496	0.12687	0.095746	-3.9437	-3.175	-4.3979	-3.9583	-3.3625	-4.3542	-3.7562	-3.8688	-4.3	-3.5312	-4.5021	-3.9854	-3.4646	-4.5375	-3.4771	-3.9708	507.034	269.457	351.110	488.076	417.733	267.392	225.911	405.362	419.620	300.547	438.424	235.045	205.945	161.824	216.467	183.543	0.00023512	0.00035263	2.7752e-05	1082.3	1.5531e-06	3.1661e-06	1169.3	223.16	3.6732e-06	1.7819e-06	280.55	78.781	63.049	18.194	3.7711e-06	25.033	0.00010277	8.7723e-05	2.2697e-05	1060.8	1.0026e-06	9.3877e-07	1147.6	220.58	9.2787e-07	9.6824e-07	275.44	78.751	62.566	18.173	9.6732e-07	25.001	234.429	239.135	256.001	171.998	314.655	303.077	172.202	179.622	291.870	303.753	179.426	185.471	186.797	193.934	280.713	193.120	-8191	255	
39187.430	1	1	0	0	0.18864	0.13052	0.22437	0.079578	0.41415	0.04811	0.22295	0.068318	0.23972	0.17775	0.26828	0.05333	0.10571	0.20645	0.22939	0.032823	-4.0542	-3.2375	-4.2146	-4.0583	-3.2167	-4.3688	-3.75	-3.9354	-4.3104	-3.15	-4.3042	-4.1937	-3.3646	-4.4688	-3.5563	-3.8063	502.435	479.751	399.608	387.883	232.001	482.934	387.797	484.271	422.899	444.242	430.094	262.670	434.109	179.074	359.303	482.204	0.00022267	0.00032405	5.376e-05	1079.8	2.8449e-06	3.2523e-06	1167.7	222.64	2.2031e-06	2.526e-06	279.61	79.06	63.243	18.141	4.3527e-06	24.949	0.00010611	8.9212e-05	2.3189e-05	1059.3	1.0206e-06	9.18e-07	1148.1	220.47	1.0398e-06	9.5328e-07	275.45	78.762	62.704	18.117	1.014e-06	25.026	229.931	249.993	288.680	171.986	322.758	351.392	172.171	179.350	271.895	338.608	179.315	185.997	186.019	194.023	286.557	193.225	-8191	255	
39187.551	1	1	0	0	0.12933	0.073919	0.093882	0.18983	0.13482	0.065509	0.33194	0.034352	0.16276	0.1633	0.17169	0.15659	0.19774	0.21961	0.14256	0.19413	-4.2146	-3.4542	-4.0625	-3.9958	-3.3417	-4.3812	-3.8063	-3.5542	-4.3958	-3.4458	-4.1479	-4.05	-3.5104	-4.4458	-3.6333	-3.9021	434.686	166.017	314.470	439.704	485.321	252.804	478.388	482.449	302.552	272.356	405.995	453.893	426.830	203.308	253.375	291.913	0.00022176	0.0002205	4.7971e-05	1082	4.2469e-06	2.0192e-06	1169.5	224.22	1.2666e-06	1.4455e-06	279.66	79.185	63.147	18.146	3.645e-06	24.959	0.00010866	9.1082e-05	2.4415e-05	1060.2	1.051e-06	9.7832e-07	1146.6	220.72	1.013e-06	9.8826e-07	275.82	78.691	62.624	18.149	1.0145e-06	25.042	232.143	211.240	218.592	171.755	288.230	293.590	172.046	179.438	298.355	277.423	179.155	186.024	186.320	193.509	306.645	193.206	-8191	255	
39187.645	1	1	0	0	0.29845	0.0249	0.096345	0.13444	0.30589	0.035131	0.32984	0.050722	0.046679	0.15069	0.18298	0.2028	0.14579	0.18541	0.19827	0.2664	-4.0125	-3.475	-4.1583	-4.1625	-3.1625	-4.4917	-3.8604	-3.6292	-4.2854	-3.3396	-4.0771	-4.2625	-3.3604	-4.4563	-3.8083	-3.5625	264.244	236.445	305.405	457.849	251.124	414.134	496.392	409.732	168.478	307.635	501.248	389.268	504.135	247.392	469.649	466.149	0.00024257	0.00042353	6.9159e-05	1081.7	2.7814e-06	3.6421e-06	1168	222.35	2.1596e-06	2.6109e-06	279.82	78.58	62.7	18.258	3.6033e-06	25.087	0.00011117	9.1225e-05	2.4471e-05	1062.1	1.1776e-06	1.0047e-06	1149	220.51	1.0391e-06	1.0254e-06	276.04	78.847	62.367	18.141	9.7928e-07	25.099	228.423	292.053	238.773	172.135	289.307	326.505	171.980	179.653	326.314	335.731	179.093	185.654	186.652	193.879	289.194	193.350	-8191	255	
39187.742	1	1	0	0	0.15303	0.18986	0.14394	0.28873	0.29122	0.045954	0.19464	0.33736	0.15472	0.081193	0.23495	0.080074	0.17257	0.22405	0.16368	0.18831	-4.1438	-3.3458	-3.8229	-4.3167	-3.3312	-4.4542	-4.075	-3.4188	-4.2958	-3.5771	-3.9938	-4.1188	-3.4542	-4.3	-3.9146	-3.5687	459.767	399.623	433.089	442.154	446.993	401.967	498.179	432.399	320.769	479.306	423.344	302.812	373.407	379.746	485.907	308.621	0.00021076	0.00032143	8.8183e-05	1086.1	3.488e-06	2.0809e-06	1169.5	222.46	2.8267e-06	2.4791e-06	278.79	79.14	62.918	18.092	3.1881e-06	24.877	0.00010866	8.571e-05	2.4375e-05	1063.4	1.0369e-06	9.4398e-07	1149.2	220.38	9.9378e-07	9.9981e-07	275.49	78.78	62.622	18.116	9.8225e-07	25.042	230.891	234.396	241.810	172.003	279.896	314.695	172.132	179.877	294.371	336.402	179.345	186.028	186.238	193.463	317.503	193.021	-8191	255	
39187.863	1	1	0	0	0.27575	0.057977	0.14713	0.18211	0.076739	0.30586	0.19715	0.13025	0.38984	0.13383	0.17457	0.085505	0.29775	0.32945	0.080213	0.058133	-3.9771	-3.5958	-3.9188	-4.2854	-3.4896	-4.0333	-4.0229	-3.4917	-4.3896	-3.6771	-3.9354	-4.1625	-3.3396	-4.1333	-3.7562	-3.4875	460.330	509.593	346.963	461.304	338.994	216.938	493.711	503.141	458.473	172.292	356.545	511.765	423.589	485.426	416.495	225.974	0.00021358	0.00037864	0.00010632	1084.7	2.775e-06	1.8794e-06	1162.9	223.82	2.4115e-06	2.1336e-06	278.77	79.821	63.659	18.249	2.0622e-06	25.111	0.00010566	8.6959e-05	2.3998e-05	1062.9	1.0589e-06	9.6285e-07	1148.5	220.54	1.0058e-06	9.7912e-07	275.85	78.952	62.649	18.146	9.5527e-07	25.081	227.614	251.783	249.651	171.936	321.590	335.184	171.961	179.489	330.292	338.787	179.086	185.862	186.651	193.669	322.558	193.016	-8191	255	
39187.957	1	1	0	0	0.12389	0.045725	0.12795	0.18373	0.15595	0.10208	0.15535	0.11821	0.0106	0.11599	0.15631	0.24165	0.14974	0.071613	0.2683	0.10445	-4.1958	-3.7125	-3.8208	-4.3	-3.3917	-4.1792	-3.9729	-3.4792	-4.4333	-3.7125	-3.8375	-4.4667	-3.4333	-4.0396	-4.0854	-3.3042	165.708	165.625	405.675	515.727	205.469	520.176	404.000	328.843	197.784	355.653	272.101	507.269	482.641	470.419	307.819	381.045	0.00023534	0.00022794	4.789e-05	1082.9	4.1614e-06	2.4784e-06	1164.7	224.62	1.4062e-06	3.1827e-06	281.45	78.869	62.709	18.337	2.6851e-06	24.886	0.00010537	8.7723e-05	2.4961e-05	1061.8	1.0404e-06	9.2578e-07	1148	221.03	9.8472e-07	9.4697e-07	276.17	78.805	62.565	18.238	9.7078e-07	25.084	234.370	250.691	282.372	172.015	310.797	309.884	171.888	179.939	311.810	326.117	179.393	185.601	186.431	194.403	311.165	193.291	-8191	255	
39188.031	1	1	0	0	0.096353	0.098876	0.30799	0.20306	0.16576	0.18159	0.11139	0.22466	0.20414	0.20286	0.33287	0.16944	0.29345	0.060201	0.096175	0.08067	-4.2208	-3.6646	-3.5667	-4.5	-3.1146	-4.1813	-4.3083	-3.5021	-4.3562	-3.8646	-3.7625	-4.5208	-3.3438	-4.0417	-4.1917	-3.4542	407.765	389.833	445.897	465.269	198.331	384.555	403.498	164.380	205.292	456.908	189.702	275.805	515.880	404.199	340.844	489.581	0.00023112	0.00033024	8.0235e-05	1079.9	1.927e-06	2.9431e-06	1168.9	222.2	2.2996e-06	2.6529e-06	279.88	79.243	63.2	18.179	3.5024e-06	24.939	0.00010392	8.6742e-05	2.3399e-05	1062.1	1.0627e-06	9.1651e-07	1149.1	220.47	9.8448e-07	9.6225e-07	275.4	78.844	62.508	18.172	9.4817e-07	24.937	234.247	234.219	248.458	172.139	333.974	332.425	171.960	179.873	294.891	331.644	179.168	185.960	186.237	194.360	330.217	192.820	-8191	255	
39188.148	1	1	0	0	0.20944	0.20785	0.14137	0.18773	0.25104	0.036322	0.082553	0.29499	0.12628	0.093355	0.034249	0.14267	0.23983	0.25993	0.07015	0.1014	-4.0146	-3.6875	-3.5	-4.6354	-3.4271	-3.6979	-4.2979	-3.2812	-4.5146	-3.7604	-3.725	-4.3625	-3.5354	-3.8667	-4.4854	-3.4104	202.913	426.605	419.156	484.824	216.414	173.621	510.289	441.714	317.974	249.850	480.568	422.011	489.923	208.967	223.906	302.846	0.00022825	0.00027527	5.5255e-05	1082	2.8962e-06	1.9216e-06	1170	223.06	1.6129e-06	4.3172e-06	281.5	78.898	62.865	18.208	1.6758e-06	24.766	0.00010642	8.7543e-05	2.4607e-05	1062.7	1.0567e-06	9.6492e-07	1149.8	220.6	1.0108e-06	9.6408e-07	276.3	78.639	62.459	18.151	9.7152e-07	24.963	227.855	262.196	230.744	172.142	286.340	325.243	172.069	179.765	328.956	287.646	179.479	185.799	186.012	193.724	346.329	193.386	-8191	255	
39188.246	1	1	0	0	0.098613	0.2282	0.18418	0.056656	0.077104	0.13879	0.15726	0.14682	0.17519	0.11443	0.093953	0.36996	0.23712	0.24589	0.18856	0.06924	-4.0208	-3.8958	-3.5687	-4.5521	-3.3625	-3.9792	-4.4833	-3.2417	-4.2854	-4.0771	-3.4021	-4.625	-3.475	-3.9208	-4.1708	-3.4771	216.311	255.003	465.175	197.032	380.396	228.552	402.136	171.251	255.129	199.924	414.487	465.772	516.075	339.610	269.618	247.049	0.00025282	0.00038173	7.1191e-05	1086.8	3.6896e-06	1.7633e-06	1171	222.59	2.1453e-06	1.145e-06	279.99	79.453	63.481	18.163	2.5905e-06	24.994	0.00011164	8.9212e-05	2.4807e-05	1064.4	1.0675e-06	1.0174e-06	1151.8	220.44	1.0611e-06	9.9191e-07	276.48	79.205	62.787	18.235	1.0742e-06	25.071	235.178	215.462	207.949	172.042	296.021	279.161	171.865	179.206	322.401	309.572	179.119	186.139	186.139	194.152	300.904	192.872	-8191	255	
39188.340	1	1	0	0	0.29295	0.24965	0.14177	0.089933	0.21419	0.18843	0.14311	0.14175	0.03801	0.1115	0.15322	0.119	0.24967	0.027531	0.11325	0.073583	-3.9813	-3.7875	-3.4708	-4.5604	-3.4979	-3.6542	-4.3438	-3.4542	-4.1583	-4.0271	-3.4479	-4.6062	-3.4875	-3.625	-4.2896	-3.4021	321.996	279.055	239.129	501.383	277.910	266.715	449.037	313.970	495.029	226.664	259.934	418.654	225.580	475.970	463.193	374.279	0.00021841	0.00020737	7.9509e-05	1091.1	2.0347e-06	2.7386e-06	1178.3	223.55	2.4045e-06	2.1915e-06	281.45	79.143	63.03	18.202	1.333e-06	24.911	0.00011356	8.999e-05	2.6025e-05	1066.6	1.0315e-06	1.0127e-06	1155.4	220.7	1.0785e-06	1.0374e-06	276.72	78.984	62.549	18.241	9.9883e-07	25.035	235.007	243.875	293.722	172.076	322.336	346.557	171.945	179.325	317.090	313.156	179.192	185.910	186.385	193.678	285.614	192.919	-8191	255	
39188.438	1	1	0	0	0.04603	0.058806	0.20238	0.17112	0.06939	0.12609	0.14559	0.18626	0.21127	0.23565	0.13514	0.04389	0.28731	0.22483	0.10184	0.11584	-3.7604	-3.8917	-3.4625	-4.4979	-3.525	-3.6667	-4.6708	-3.2792	-4.075	-4.0437	-3.4	-4.3271	-3.5729	-3.6854	-4.3	-3.4437	501.467	190.577	367.749	390.714	263.824	164.399	473.828	382.413	368.396	446.501	200.250	267.099	456.388	302.721	429.841	515.617	0.00022611	0.00024269	5.1744e-05	1090.4	2.9155e-06	3.0112e-06	1172.4	223.61	2.7965e-06	2.4129e-06	280.55	79.447	63.295	18.171	3.2734e-06	24.8	0.00011087	8.8149e-05	2.5877e-05	1068.6	1.1049e-06	1.0091e-06	1154.5	220.66	1.0705e-06	9.9939e-07	275.87	78.982	62.616	18.166	1.0105e-06	25.024	225.160	201.902	303.248	172.117	320.981	275.095	172.059	179.202	295.751	233.226	179.299	185.802	186.203	193.821	310.305	193.479	-8191	255	
39188.559	1	1	0	0	0.056172	0.19653	0.26207	0.084778	0.17951	0.19776	0.19519	0.22582	0.3646	0.20639	0.14012	0.16537	0.12119	0.15854	0.18756	0.29235	-3.7667	-4.0563	-3.275	-4.5188	-3.6458	-3.6083	-4.5188	-3.6729	-4.0042	-4.2438	-3.5687	-4.2937	-3.6708	-3.6542	-4.3521	-3.3375	401.971	406.637	399.434	391.311	456.418	246.607	463.722	370.895	487.308	206.627	485.487	253.515	510.892	168.961	370.310	480.314	0.00021789	0.00031212	6.9482e-05	1088.6	4.4056e-06	2.8226e-06	1178.6	223.82	3.585e-06	2.4355e-06	280.87	79.055	62.775	18.242	2.6961e-06	24.974	0.00010827	8.7064e-05	2.5418e-05	1068.2	1.1307e-06	9.7799e-07	1154.2	220.75	1.1075e-06	9.6151e-07	276.28	79.163	62.552	18.198	9.594e-07	25.095	222.886	236.300	260.606	171.941	315.722	261.564	172.340	179.479	328.036	299.638	179.063	186.112	185.810	194.177	317.733	192.747	-8191	255	
39188.629	1	1	0	0	0.33276	0.18934	0.18622	0.13798	0.15692	0.16695	0.34294	0.2022	0.12114	0.0702	0.2924	0.10863	0.097701	0.26744	0.091587	0.24201	-3.7562	-4.1958	-3.1396	-4.4896	-3.7062	-3.4271	-4.7104	-3.4875	-3.8396	-4.2958	-3.3688	-4.2229	-3.9521	-3.4854	-4.3958	-3.4521	298.861	296.800	492.268	161.770	484.673	364.086	421.252	438.798	406.381	451.299	359.596	195.601	205.194	179.540	249.646	221.539	0.00023219	0.00018396	8.1369e-05	1085	3.1046e-06	2.0531e-06	1170.9	222.8	1.9559e-06	1.8584e-06	279.44	79.722	63.142	18.166	2.1793e-06	24.733	0.00011051	8.8561e-05	2.6576e-05	1066.9	1.0844e-06	9.9412e-07	1152.3	220.36	1.0421e-06	9.8743e-07	275.37	79.287	62.499	18.197	9.6063e-07	25.008	231.083	269.812	244.674	172.284	303.997	293.658	172.201	179.466	273.126	323.008	178.887	185.942	186.295	193.962	346.466	192.976	-8191	255	
39188.727	1	1	0	0	0.33873	0.14729	0.15318	0.18639	0.17713	0.066585	0.29972	0.22895	0.063169	0.13169	0.14754	0.17279	0.23398	0.12669	0.144	0.173	-3.5	-4.15	-3.2	-4.4958	-3.9125	-3.4104	-4.6458	-3.3625	-3.7708	-4.4875	-3.5854	-4.3521	-3.9625	-3.4437	-4.4333	-3.65	350.911	517.641	265.841	423.745	503.065	231.640	406.457	499.480	289.081	381.720	448.542	452.321	229.297	497.650	170.924	194.239	0.00023448	0.00023993	9.1135e-05	1085.4	3.8531e-06	2.7878e-06	1176	222.39	3.8956e-06	3.4839e-06	280.51	79.209	63.068	18.06	2.9677e-06	24.828	0.0001065	8.5103e-05	2.6446e-05	1066.2	1.0657e-06	9.6516e-07	1153.9	220.54	1.0914e-06	9.3434e-07	275.63	78.914	62.584	18.215	9.8307e-07	25.032	227.345	243.603	247.246	172.191	315.298	305.620	172.190	179.300	294.602	334.755	179.211	185.975	186.082	193.684	311.826	193.136	-8191	255	
39188.820	1	1	0	0	0.1382	0.16052	0.31546	0.16385	0.076062	0.18838	0.13915	0.11104	0.2428	0.12936	0.27517	0.099799	0.28604	0.17206	0.12716	0.07806	-3.5208	-4.3625	-3.3875	-4.275	-3.7812	-3.3771	-4.6188	-3.6208	-3.7917	-4.4833	-3.2792	-4.1292	-4.1042	-3.4104	-4.6208	-3.8083	520.743	235.377	243.509	365.061	181.120	194.450	378.088	208.148	191.461	236.070	509.641	220.010	503.173	495.934	488.225	501.944	0.0002311	0.00036765	3.4184e-05	1091	2.6334e-06	2.4028e-06	1176.8	222.98	4.0757e-06	3.8453e-06	279.36	79.837	63.049	18.088	2.3995e-06	24.908	0.0001073	8.3158e-05	2.5312e-05	1067.9	1.0736e-06	9.8593e-07	1155.5	219.96	1.006e-06	9.4007e-07	275.39	79.4	62.56	18.166	9.5461e-07	25.084	234.853	254.075	230.044	172.223	291.371	255.903	172.383	179.436	307.782	305.627	179.277	185.705	186.275	193.381	329.462	192.964	-8191	255	
39188.941	1	1	0	0	0.17388	0.044806	0.16129	0.19329	0.078375	0.36183	0.18191	0.14896	0.22979	0.090645	0.1297	0.24023	0.11583	0.21057	0.16821	0.28571	-3.3708	-4.5354	-3.1479	-4.2146	-4.1438	-3.3708	-4.7292	-3.8333	-3.7542	-4.3896	-3.5042	-4.3438	-4.1667	-3.6458	-4.4521	-3.6583	498.739	187.516	472.788	388.807	409.653	288.222	460.838	227.944	280.773	196.134	446.668	229.890	333.304	433.155	331.652	458.812	0.00025236	0.0001765	6.2936e-05	1094.2	3.0402e-06	2.6947e-06	1170.8	223.9	3.1332e-06	1.7797e-06	280.07	79.481	63.208	18.145	3.292e-06	25.154	0.00011014	8.6787e-05	2.5055e-05	1069.4	9.666e-07	9.7087e-07	1154.1	220.63	1.0195e-06	9.2487e-07	275.99	79.175	62.608	18.175	9.6138e-07	25.111	230.780	243.961	272.088	172.217	343.425	317.997	172.196	178.995	316.351	338.127	179.008	185.920	186.211	193.528	313.839	192.761	-8191	255	
39189.039	1	1	0	0	0.16803	0.075398	0.024165	0.2413	0.22108	0.24507	0.4128	0.34575	0.16493	0.091039	0.083339	0.047293	0.21714	0.11277	0.25447	0.25407	-3.25	-4.5062	-3.3	-4.2375	-4.1875	-3.5229	-4.625	-3.825	-3.4958	-4.6083	-3.5292	-4.1042	-4.2646	-3.1063	-4.3208	-3.8771	512.515	440.980	403.680	483.430	432.077	480.226	501.419	505.501	235.969	497.199	477.278	507.876	277.927	518.947	227.527	394.201	0.00020771	0.00026294	6.7713e-05	1088.2	3.1916e-06	2.4452e-06	1179.6	224.13	2.1434e-06	1.1059e-06	278.73	79.573	63.428	18.154	4.3578e-06	24.995	0.00010785	8.1901e-05	2.435e-05	1066.6	9.8879e-07	9.7642e-07	1156.2	220.58	1.0249e-06	9.1282e-07	275.14	79.248	62.723	18.165	9.891e-07	25.037	231.849	272.379	271.484	172.154	334.525	297.046	171.984	179.230	295.103	306.948	178.828	185.995	186.050	193.683	312.668	193.165	-8191	255	
39189.133	1	1	0	0	0.041278	0.26976	0.065357	0.20808	0.014046	0.33629	0.22147	0.31576	0.2022	0.029002	0.083057	0.038392	0.18604	0.11605	0.094686	0.13379	-3.2021	-4.4417	-3.4021	-4.0521	-4.325	-3.4	-4.525	-4.1208	-3.6375	-4.4104	-3.575	-4.0312	-4.4542	-3.4146	-4.4479	-4.0354	490.303	181.355	178.683	502.532	171.402	389.740	163.552	450.442	359.424	181.656	511.684	270.071	431.425	481.056	386.140	276.563	0.00021239	0.00028898	9.2317e-05	1092.5	3.9444e-06	1.4205e-06	1171.8	223.4	2.9076e-06	2.494e-06	280.41	79.402	63.12	18.161	8.705e-07	24.812	0.00010543	8.5111e-05	2.5381e-05	1069.3	9.8757e-07	9.6963e-07	1154.8	220.78	1.0022e-06	9.6242e-07	275.91	79.152	62.654	18.23	9.405e-07	24.91	232.358	230.854	249.628	172.164	311.477	315.984	172.031	179.420	314.119	292.285	179.378	185.640	186.382	193.633	516.011	193.540	-8191	255	
39189.230	1	1	0	0	0.18588	0.23	0.089697	0.098764	0.040009	0.29646	0.077255	0.16976	0.25257	0.015393	0.20406	0.13118	0.16921	0.11543	0.25997	0.1579	-3.0042	-4.7083	-3.4729	-4.0875	-4.6562	-3.2417	-4.6396	-4.0646	-3.4604	-4.4521	-3.7292	-3.8688	-4.2917	-3.5354	-4.2208	-3.9375	225.370	283.850	353.788	251.978	424.591	170.271	378.184	508.906	262.627	227.322	417.629	251.772	253.658	512.916	520.062	246.928	0.00023288	0.00026156	5.7289e-05	1092.2	3.015e-06	4.025e-06	1173.1	223.68	1.5829e-06	2.2881e-06	279.25	79.571	63.253	18.301	3.2804e-06	25.031	0.00010828	8.3412e-05	2.5195e-05	1071.1	1.0689e-06	9.9388e-07	1154	220.33	1.0078e-06	9.5245e-07	275.43	79.096	62.739	18.163	9.3044e-07	25.017	232.590	211.935	244.336	172.370	272.248	295.117	172.327	179.524	302.098	307.329	179.131	185.995	185.937	193.181	297.420	193.458	-8191	255	
39189.324	1	1	0	0	0.040527	0.078493	0.048849	0.3777	0.18246	0.1853	0.27765	0.19771	0.091271	0.11645	0.17378	0.12655	0.1336	0.044921	0.16463	0.35625	-3.2542	-4.3854	-3.4896	-3.9229	-4.325	-3.2854	-4.25	-4.1687	-3.3729	-4.5479	-3.7667	-3.8917	-4.4	-3.6354	-4.2188	-4.1792	330.339	373.672	215.809	483.009	225.582	180.726	471.993	162.794	385.007	249.811	443.030	382.505	458.168	204.708	348.756	441.228	0.00022992	0.00033279	8.0118e-05	1091.4	4.6774e-06	3.465e-06	1177.1	224.14	3.0688e-06	3.3306e-06	280.61	79.501	63.483	18.186	1.784e-06	24.938	0.00011054	8.235e-05	2.3929e-05	1068	9.9583e-07	9.8122e-07	1155.7	220.9	9.7526e-07	9.1373e-07	275.83	79.262	62.772	18.137	9.0535e-07	25.058	230.926	221.039	198.334	171.990	308.437	277.148	172.142	179.179	294.241	306.566	179.399	185.760	186.105	193.310	320.679	192.945	-8191	255	
39189.422	1	1	0	0	0.07217	0.35846	0.1447	0.19009	0.070784	0.10385	0.1781	0.25061	0.13203	0.1879	0.26209	0.19128	0.13527	0.1106	0.11881	0.18847	-3.3458	-4.3875	-3.7062	-3.8021	-4.3417	-3.5646	-4.375	-4.4125	-3.6125	-4.45	-3.7958	-3.5958	-4.6375	-3.6312	-3.9833	-4.1354	206.627	215.399	227.825	468.467	510.695	345.104	373.195	388.769	414.266	351.117	459.190	448.537	176.652	183.504	214.642	463.891	0.00019451	0.00017455	6.3502e-05	1089.6	2.5856e-06	2.7261e-06	1171.6	222.7	2.1703e-06	3.235e-06	279.34	79.726	62.705	18.225	2.3429e-06	25.064	0.00010676	8.2911e-05	2.3043e-05	1068.3	9.9778e-07	9.3422e-07	1153.7	219.96	1.0275e-06	9.2902e-07	275.04	79.172	62.561	18.179	9.4298e-07	25.019	237.009	270.182	265.139	172.295	320.148	305.764	172.471	179.461	324.885	328.006	179.421	186.379	186.470	192.857	334.518	193.008	-8191	255	
39189.543	1	1	0	0	0.26615	0.01836	0.16982	0.19737	0.09655	0.063573	0.23127	0.19888	0.21125	0.054799	0.037566	0.21153	0.12012	0.11314	0.36124	0.048325	-3.1021	-4.3604	-3.5729	-3.8333	-4.3521	-3.3542	-4.1542	-4.1771	-3.2562	-4.5604	-3.9708	-3.3854	-4.6271	-3.3042	-3.9875	-4.2188	278.987	358.880	460.859	508.496	216.446	188.429	488.616	367.062	398.127	282.427	173.639	516.385	429.305	225.022	455.545	265.487	0.0002255	0.00026443	6.8737e-05	1087.2	3.3615e-06	2.1764e-06	1177.7	222.32	2.4888e-06	3.1703e-06	278.36	79.623	64.047	18.053	3.0825e-06	24.871	0.00011004	8.2238e-05	2.3614e-05	1065.3	9.8968e-07	9.2992e-07	1155	220.06	1.0225e-06	8.9263e-07	275.1	79.223	62.892	18.128	9.8819e-07	25.009	230.006	269.644	264.058	172.123	274.878	311.346	172.363	179.522	293.821	314.119	179.000	186.062	186.129	193.724	308.389	193.713	-8191	255	
39189.637	1	1	0	0	0.052025	0.15474	0.12752	0.21087	0.29249	0.23513	0.15025	0.22431	0.052973	0.070406	0.094068	0.17498	0.20518	0.18335	0.13502	0.098995	-3.0583	-4.6229	-3.8667	-3.8083	-4.3917	-3.3375	-4.05	-4.3458	-3.2917	-4.4437	-3.975	-3.4854	-4.4	-3.6	-3.8521	-4.3333	416.436	258.425	186.763	211.091	474.521	519.294	495.584	446.741	495.578	257.804	419.454	387.542	174.172	440.112	463.480	358.522	0.00022877	0.0001645	7.7979e-05	1079.2	5.1825e-07	2.7547e-06	1170.4	222.82	1.9904e-06	2.7017e-06	279.11	79.997	63.126	18.234	2.1468e-06	24.876	0.00011077	8.2425e-05	2.4071e-05	1063	9.5794e-07	9.1585e-07	1153.5	220.55	9.9573e-07	9.1357e-07	274.62	79.36	62.671	18.19	9.8745e-07	25.048	234.444	299.428	286.951	171.995	317.789	276.677	172.180	179.432	321.093	352.312	179.064	185.837	186.565	193.690	341.928	193.058	-8191	255	
39189.734	1	1	0	0	0.18836	0.040779	0.23083	0.13342	0.053665	0.091765	0.094734	0.037332	0.088837	0.10673	0.0029247	0.117	0.16065	0.1092	0.10633	0.22134	-2.8542	-4.225	-3.9104	-3.7125	-4.4583	-3.525	-3.8417	-4.3833	-3.2958	-4.3917	-4.0833	-3.4542	-4.4563	-3.75	-3.8771	-4.3667	197.363	189.837	189.916	519.729	221.414	487.217	432.972	178.576	241.139	419.359	184.281	498.691	171.967	233.688	277.866	406.302	0.00024252	0.00037558	0.00011702	1091.3	3.3221e-06	2.8933e-06	1175.8	222.9	2.5167e-06	2.5105e-06	278.72	80.273	63.153	18.418	3.1911e-06	24.977	0.00011032	8.8127e-05	2.3833e-05	1068.9	9.8272e-07	9.7857e-07	1155.3	220.6	1.0284e-06	8.6845e-07	275.62	79.465	62.73	18.185	9.9512e-07	25.049	227.240	269.795	232.032	172.148	284.014	305.663	172.303	179.264	312.087	304.847	179.297	185.507	186.368	193.504	295.644	193.347	-8191	255	
#DATA ENDS
