BOXY.EXE: ISS Imagent and Oximeter Data Acquisition Program Version 0.80
Ascii Record File

#ACQ INFORMATION
2  Detector Channels 
16  External MUX Channels 
1  Auxiliary Channels 
5000  Waveform (CCF) Frequency (Hz)
1  Waveforms Skipped 
30  Waveforms Averaged 
1  Cycles Averaged 
16  Acquisitions per Waveform 
10.0806  Updata Rate (Hz) 

#FILE INFORMATION
TRUE -- External MUX Channel results are PARSED.
FALSE -- AC DC and Phase are NOT grouped.
TRUE -- Companion Program Settings File CREATED.
FALSE -- AC data not excluded
FALSE -- DC data not excluded
FALSE -- Phase data not excluded
FALSE -- Auxillary Chn. data not excluded
Tab delimiters

#CALIBRATION STATE
TRUE -- Waveform Calibration Values APPLIED.


#AUX CALIBRATION VALUES
Val Type	aux-1	

Term	1.0000e+00	
Factor	0.0000e+00	


#WF CALIBRATION VALUES
A = Detector Channel
Val Type	A-AC1	A-AC2	A-AC3	A-AC4	A-AC5	A-AC6	A-AC7	A-AC8	A-AC9	A-AC10	A-AC11	A-AC12	A-AC13	A-AC14	A-AC15	A-AC16	A-DC1	A-DC2	A-DC3	A-DC4	A-DC5	A-DC6	A-DC7	A-DC8	A-DC9	A-DC10	A-DC11	A-DC12	A-DC13	A-DC14	A-DC15	A-DC16	A-Ph1	A-Ph2	A-Ph3	A-Ph4	A-Ph5	A-Ph6	A-Ph7	A-Ph8	A-Ph9	A-Ph10	A-Ph11	A-Ph12	A-Ph13	A-Ph14	A-Ph15	A-Ph16	

Term	0.00000e+00	0.00000e+00	0.00000e+00	0.00000e+00	0.00000e+00	0.00000e+00	0.00000e+00	0.00000e+00	0.00000e+00	0.00000e+00	0.00000e+00	0.00000e+00	0.00000e+00	0.00000e+00	0.00000e+00	0.00000e+00	0.00000e+00	0.00000e+00	0.00000e+00	0.00000e+00	0.00000e+00	0.00000e+00	0.00000e+00	0.00000e+00	0.00000e+00	0.00000e+00	0.00000e+00	0.00000e+00	0.00000e+00	0.00000e+00	0.00000e+00	0.00000e+00	0.00000e+00	0.00000e+00	0.00000e+00	0.00000e+00	0.00000e+00	0.00000e+00	0.00000e+00	0.00000e+00	0.00000e+00	0.00000e+00	0.00000e+00	0.00000e+00	0.00000e+00	0.00000e+00	0.00000e+00	0.00000e+00	
Factor	1.00000e+00	1.00000e+00	1.00000e+00	1.00000e+00	1.00000e+00	1.00000e+00	1.00000e+00	1.00000e+00	1.00000e+00	1.00000e+00	1.00000e+00	1.00000e+00	1.00000e+00	1.00000e+00	1.00000e+00	1.00000e+00	1.00000e+00	1.00000e+00	1.00000e+00	1.00000e+00	1.00000e+00	1.00000e+00	1.00000e+00	1.00000e+00	1.00000e+00	1.00000e+00	1.00000e+00	1.00000e+00	1.00000e+00	1.00000e+00	1.00000e+00	1.00000e+00	X	X	X	X	X	X	X	X	X	X	X	X	X	X	X	X	

B = Detector Channel
Val Type	B-AC1	B-AC2	B-AC3	B-AC4	B-AC5	B-AC6	B-AC7	B-AC8	B-AC9	B-AC10	B-AC11	B-AC12	B-AC13	B-AC14	B-AC15	B-AC16	B-DC1	B-DC2	B-DC3	B-DC4	B-DC5	B-DC6	B-DC7	B-DC8	B-DC9	B-DC10	B-DC11	B-DC12	B-DC13	B-DC14	B-DC15	B-DC16	B-Ph1	B-Ph2	B-Ph3	B-Ph4	B-Ph5	B-Ph6	B-Ph7	B-Ph8	B-Ph9	B-Ph10	B-Ph11	B-Ph12	B-Ph13	B-Ph14	B-Ph15	B-Ph16	

Term	0.00000e+00	0.00000e+00	0.00000e+00	0.00000e+00	0.00000e+00	0.00000e+00	0.00000e+00	0.00000e+00	0.00000e+00	0.00000e+00	0.00000e+00	0.00000e+00	0.00000e+00	0.00000e+00	0.00000e+00	0.00000e+00	0.00000e+00	0.00000e+00	0.00000e+00	0.00000e+00	0.00000e+00	0.00000e+00	0.00000e+00	0.00000e+00	0.00000e+00	0.00000e+00	0.00000e+00	0.00000e+00	0.00000e+00	0.00000e+00	0.00000e+00	0.00000e+00	-9.50993e+01	-1.28701e+02	-1.24987e+02	-1.83761e+02	-6.23572e+01	-7.40854e+01	-1.58106e+02	-1.62015e+02	-5.36995e+01	-7.02651e+01	-1.70714e+02	-1.70913e+02	-1.78902e+02	-1.77049e+02	-6.51981e+01	-1.49824e+02	
Factor	1.64770e-05	1.35927e-04	3.46547e-05	1.51834e-01	1.19814e-06	1.36781e-06	1.67260e-01	5.25101e-02	1.01735e-06	1.28790e-06	8.68415e-02	3.03108e-02	2.82728e-02	9.66055e-03	1.35503e-06	1.35419e-02	3.18107e-06	3.59181e-06	1.00104e-06	7.44679e-02	3.88649e-08	3.97153e-08	7.71580e-02	2.58867e-02	3.91507e-08	3.98793e-08	4.12608e-02	1.45034e-02	1.40702e-02	4.76425e-03	3.96035e-08	6.46411e-03	X	X	X	X	X	X	X	X	X	X	X	X	X	X	X	X	



#DISTANCE SETTINGS
A = Detector Channel
A-1	A-2	A-3	A-4	A-5	A-6	A-7	A-8	A-9	A-10	A-11	A-12	A-13	A-14	A-15	A-16	

2.5000e+00	3.0000e+00	2.5000e+00	3.0000e+00	2.0000e+00	3.0000e+00	1.5000e+00	3.0000e+00	3.0000e+00	3.0000e+00	3.0000e+00	3.0000e+00	3.0000e+00	3.0000e+00	1.5000e+00	3.0000e+00	

B = Detector Channel
B-1	B-2	B-3	B-4	B-5	B-6	B-7	B-8	B-9	B-10	B-11	B-12	B-13	B-14	B-15	B-16	

1.0000e+01	1.0000e+01	1.0000e+01	1.4400e+00	1.0000e+01	1.0000e+01	1.5100e+00	1.9400e+00	1.0000e+01	1.0000e+01	1.9900e+00	2.4900e+00	2.4100e+00	2.9000e+00	1.0000e+01	2.9800e+00	




#DATA BEGINS
time	group	step	mark	flag	A-AC1	A-AC2	A-AC3	A-AC4	A-AC5	A-AC6	A-AC7	A-AC8	A-AC9	A-AC10	A-AC11	A-AC12	A-AC13	A-AC14	A-AC15	A-AC16	A-DC1	A-DC2	A-DC3	A-DC4	A-DC5	A-DC6	A-DC7	A-DC8	A-DC9	A-DC10	A-DC11	A-DC12	A-DC13	A-DC14	A-DC15	A-DC16	A-Ph1	A-Ph2	A-Ph3	A-Ph4	A-Ph5	A-Ph6	A-Ph7	A-Ph8	A-Ph9	A-Ph10	A-Ph11	A-Ph12	A-Ph13	A-Ph14	A-Ph15	A-Ph16	B-AC1	B-AC2	B-AC3	B-AC4	B-AC5	B-AC6	B-AC7	B-AC8	B-AC9	B-AC10	B-AC11	B-AC12	B-AC13	B-AC14	B-AC15	B-AC16	B-DC1	B-DC2	B-DC3	B-DC4	B-DC5	B-DC6	B-DC7	B-DC8	B-DC9	B-DC10	B-DC11	B-DC12	B-DC13	B-DC14	B-DC15	B-DC16	B-Ph1	B-Ph2	B-Ph3	B-Ph4	B-Ph5	B-Ph6	B-Ph7	B-Ph8	B-Ph9	B-Ph10	B-Ph11	B-Ph12	B-Ph13	B-Ph14	B-Ph15	B-Ph16	aux-1	digaux	

39244.621	1	1	0	256	0.26225	0.10836	0.29394	0.22615	0.035006	0.19388	0.14054	0.21499	0.054716	0.14744	0.092039	0.38665	0.12802	0.25314	0.25234	0.15609	-3.4917	-3.7167	-4.5229	-3.5458	-4.1417	-4.0896	-3.6958	-4.625	-3.7792	-3.6792	-4.625	-3.5375	-4.1896	-4.3708	-3.4292	-4.6271	213.027	188.767	285.522	286.354	160.695	172.139	210.689	274.335	166.766	184.404	276.463	-30.775	-17.077	182.508	270.304	171.673	0.00019126	0.0007279	0.0002087	1523.9	2.027e-06	8.6279e-06	1524.5	403.19	2.8765e-06	6.6455e-06	466.34	158.32	138.6	48.445	5.7357e-06	59.975	0.0004245	0.00043652	0.00011815	1526.3	4.7427e-06	4.6564e-06	1529.7	408.72	4.7402e-06	4.6822e-06	470.3	161.62	141.56	49.187	4.8481e-06	60.711	188.692	80.783	48.612	-30.809	106.052	88.353	-30.675	-26.019	91.434	65.086	-26.633	-22.084	-21.747	-17.543	124.961	-17.755	-8191	255	
39244.742	1	1	0	0	0.11592	0.2627	0.24676	0.25657	0.1929	0.071566	0.28267	0.29598	0.29553	0.031469	0.035318	0.12949	0.20816	0.1435	0.22908	0.30447	-3.65	-3.4396	-4.6	-3.65	-3.9542	-4.2104	-3.7667	-4.625	-3.9396	-3.7021	-4.45	-3.575	-4.2312	-4.5104	-3.3625	-4.7	13.389	251.555	34.655	195.035	33.608	-6.993	251.957	283.863	77.853	-8.923	57.630	252.252	30.633	276.820	155.122	235.926	0.0002121	0.00034808	0.00013415	1523.4	5.4978e-06	7.8796e-06	1525.7	404.74	2.7174e-06	5.0933e-06	468.46	158.89	138.98	48.426	4.4847e-06	60.05	0.00042288	0.00043044	0.00011797	1527.6	4.6258e-06	4.6412e-06	1531.1	408.85	4.7539e-06	4.6731e-06	471.14	162.2	141.5	49.215	4.7668e-06	60.699	176.387	49.978	47.808	-30.933	138.266	121.068	-30.808	-26.033	184.165	124.457	-26.850	-22.164	-21.399	-17.269	101.593	-17.759	-8191	255	
39244.836	1	1	0	0	0.13422	0.19737	0.26951	0.40171	0.069268	0.051042	0.33124	0.027528	0.23538	0.10923	0.15717	0.10344	0.1569	0.2131	0.27211	0.056121	-3.5646	-3.3917	-4.4938	-3.7229	-3.7625	-4.25	-3.4708	-4.6312	-3.9979	-3.5292	-4.7167	-3.6604	-3.9708	-4.6188	-3.4729	-4.3313	33.175	69.219	14.262	307.473	67.847	55.148	199.552	46.212	49.637	166.156	200.532	245.034	306.629	-38.279	142.641	43.003	0.00017215	0.0007387	7.5825e-05	1526.9	6.0376e-06	5.3926e-06	1524.1	405.61	3.8442e-06	8.9313e-06	468.71	158.91	139.5	48.426	6.0174e-06	59.877	0.0004208	0.0004334	0.00011826	1528.3	4.7684e-06	4.6742e-06	1531.5	409.87	4.7634e-06	4.6909e-06	471.47	162.23	141.77	49.306	4.7212e-06	60.711	186.156	69.047	80.408	-31.040	125.577	107.635	-30.928	-25.906	109.753	89.540	-26.818	-22.218	-21.720	-17.457	96.496	-17.735	-8191	255	
39244.910	1	1	0	0	0.077476	0.18429	0.065583	0.076158	0.19389	0.15713	0.23662	0.21512	0.28812	0.28933	0.099166	0.22958	0.15042	0.3712	0.16951	0.40718	-3.6771	-3.5458	-4.5854	-3.8271	-3.7417	-4.2896	-3.7604	-4.3125	-3.9125	-3.525	-4.5958	-3.7313	-4.125	-4.525	-3.5125	-4.2854	304.817	254.425	-30.154	-36.148	76.576	149.896	-35.448	254.470	111.009	152.771	46.395	280.467	291.106	268.284	147.449	20.975	0.00018413	0.00040161	0.00016217	1524.5	5.7543e-06	4.9609e-06	1528.1	405.03	3.1042e-06	4.8631e-06	469.55	159.68	139.1	49.047	1.5321e-06	60.165	0.00041508	0.00042337	0.00011456	1531.1	4.666e-06	4.5744e-06	1535.7	410.28	4.5778e-06	4.5785e-06	473.02	162.8	142.26	49.56	4.6166e-06	60.899	184.658	65.017	75.398	-31.060	95.056	121.373	-30.870	-26.194	122.081	81.779	-26.515	-22.270	-21.667	-17.589	66.828	-18.026	-8191	255	
39245.027	1	1	0	0	0.19202	0.27519	0.27879	0.23416	0.050016	0.017883	0.19716	0.16413	0.16672	0.14842	0.24411	0.073496	0.26594	0.17747	0.12093	0.057066	-3.7521	-3.2771	-4.6396	-3.9729	-3.6333	-4.4979	-3.6792	-4.4146	-4.0854	-3.6229	-4.5833	-3.8542	-3.6708	-4.7625	-3.3583	-4.2458	259.435	263.561	-20.621	253.699	-9.889	19.774	264.110	272.904	194.663	82.117	302.957	262.532	266.348	27.669	103.258	40.379	0.00018276	0.00068598	0.00011567	1526	3.8222e-06	8.913e-06	1528.1	405.52	3.5837e-06	6.5823e-06	469.62	158.99	140.13	48.676	7.2892e-06	60.206	0.00041138	0.00042263	0.0001173	1532.6	4.7456e-06	4.5494e-06	1535.6	411.39	4.7052e-06	4.7267e-06	472.67	162.43	142.32	49.446	4.658e-06	60.959	184.793	55.737	68.183	-30.775	94.922	89.125	-30.986	-26.071	121.480	54.342	-26.566	-22.250	-21.553	-17.396	111.967	-17.659	-8191	255	
39245.125	1	1	0	0	0.063246	0.065698	0.14078	0.0089898	0.15135	0.16113	0.26387	0.12159	0.076287	0.10848	0.059159	0.19207	0.36105	0.37463	0.017997	0.081761	-4.0667	-3.2188	-4.7042	-3.9188	-3.7438	-4.5771	-3.6333	-4.3271	-4.2812	-3.3854	-4.5667	-3.9813	-3.65	-4.6146	-3.4646	-4.0583	44.946	263.011	-37.024	-15.527	41.921	287.838	210.581	-3.897	214.009	256.484	275.203	262.658	221.090	231.098	268.902	158.953	0.0002176	0.00059791	0.00015558	1530.1	5.9358e-06	6.259e-06	1533.2	408.17	3.4942e-06	3.8149e-06	469.84	159.5	139.65	48.97	2.0326e-06	60.32	0.00041462	0.00042072	0.00011481	1533.2	4.6809e-06	4.5973e-06	1537.2	412.57	4.6337e-06	4.6439e-06	473.27	162.89	142.33	49.579	4.6731e-06	61.039	170.906	21.875	59.207	-30.922	118.401	165.409	-30.699	-26.039	143.157	147.948	-26.653	-22.149	-21.445	-17.437	128.924	-17.869	-8191	255	
39245.223	1	1	0	0	0.033796	0.16902	0.21689	0.21959	0.10747	0.14167	0.38922	0.17054	0.12729	0.17546	0.095508	0.02046	0.29483	0.32429	0.088545	0.2095	-3.8896	-3.4042	-4.3896	-3.8771	-3.5479	-4.4604	-3.7	-4.0396	-4.2771	-3.2875	-4.425	-4.0854	-3.6708	-4.5208	-3.6896	-4.0042	90.453	285.390	169.814	301.402	-38.475	217.112	260.715	199.607	66.541	202.449	256.423	94.622	263.111	299.597	27.384	255.301	0.00016435	0.00093219	0.00013083	1533.4	5.1686e-06	3.0811e-06	1529.1	408.58	4.041e-06	1.9806e-06	472.41	159.21	140.16	48.875	3.8362e-06	60.135	0.00041162	0.00042713	0.0001156	1536.1	4.6627e-06	4.5625e-06	1539.3	412.41	4.6852e-06	4.6745e-06	474.49	163.03	142.62	49.575	4.7125e-06	60.99	181.432	61.828	62.365	-31.218	127.819	88.231	-30.879	-26.228	112.511	95.359	-26.359	-22.125	-21.410	-17.546	101.924	-17.573	-8191	255	
39245.316	1	1	0	0	0.1152	0.12757	0.028998	0.33977	0.21749	0.13215	0.055395	0.17336	0.040012	0.16504	0.18797	0.14208	0.028235	0.066484	0.17776	0.17389	-3.8771	-3.3875	-4.0292	-4.1542	-3.3646	-4.3521	-3.8292	-3.9479	-4.3146	-3.5979	-4.2688	-4.0354	-3.5625	-4.5125	-3.6354	-3.9313	192.149	251.363	75.519	291.318	26.095	214.440	303.015	288.812	246.022	62.180	275.949	200.253	225.694	310.427	-14.907	265.191	0.00017817	0.00060137	0.0001526	1532.9	2.1512e-06	4.7624e-06	1532.5	407.23	4.9573e-06	6.114e-06	471.1	159.92	139.68	48.721	4.3276e-06	60.13	0.00041457	0.00042008	0.00011629	1535.7	4.7281e-06	4.6536e-06	1539.5	412.14	4.6968e-06	4.6679e-06	474.3	163.08	142.25	49.574	4.7388e-06	60.909	179.062	40.973	33.687	-30.999	109.932	74.543	-30.980	-26.034	117.882	130.676	-26.653	-22.179	-21.550	-17.397	146.551	-17.482	-8191	255	
39245.438	1	1	0	0	0.049647	0.31139	0.037335	0.074234	0.090724	0.30535	0.074056	0.051085	0.15871	0.087616	0.088151	0.21236	0.24814	0.13477	0.221	0.21494	-4.1	-3.4938	-3.9917	-4.2542	-3.3896	-4.3812	-3.7333	-3.8583	-4.3063	-3.3479	-4.3375	-4.2292	-3.7687	-4.4625	-3.7271	-3.8333	192.639	115.266	135.038	286.332	313.894	119.196	253.986	235.958	170.260	159.287	107.910	166.832	224.993	-37.925	56.898	-36.775	0.00014789	0.00068355	0.00010892	1528.5	2.1042e-06	2.3155e-06	1529.4	406.86	1.0787e-06	4.0964e-06	472.61	158.96	139.24	48.76	5.8422e-06	60.021	0.00042332	0.00042714	0.00011862	1536.5	4.7947e-06	4.7198e-06	1537.9	411.97	4.8064e-06	4.7675e-06	474.76	162.42	142.09	49.456	4.8505e-06	60.876	186.803	5.198	24.905	-30.812	157.467	120.524	-30.782	-25.982	130.826	73.560	-26.534	-22.268	-21.615	-17.396	60.478	-17.700	-8191	255	
39245.535	1	1	0	0	0.007455	0.087658	0.20272	0.22639	0.13732	0.16243	0.3492	0.10086	0.13341	0.24914	0.1102	0.14278	0.13321	0.10916	0.079888	0.24943	-3.9771	-3.3875	-4.0833	-4.2896	-3.3833	-4.3979	-3.9333	-3.9917	-4.3021	-3.425	-4.2021	-4.1542	-3.4729	-4.3958	-3.6312	-3.7062	248.366	171.878	165.168	307.492	50.822	130.242	282.825	290.988	257.155	53.439	290.954	197.985	233.493	212.812	-39.851	246.713	0.00017025	0.00050909	0.00010788	1524.1	3.4223e-06	2.9006e-06	1527.4	406.15	1.3205e-06	2.3162e-06	470.11	159.87	139.77	48.709	5.3982e-06	59.982	0.00042097	0.00042866	0.00012133	1534.5	4.7273e-06	4.6478e-06	1536.8	411.08	4.782e-06	4.7373e-06	473.78	162.85	142.2	49.417	4.7138e-06	60.847	183.575	40.571	115.097	-31.020	122.208	83.828	-30.877	-26.080	149.074	80.366	-26.669	-22.067	-21.545	-17.319	130.805	-17.894	-8191	255	
39245.605	1	1	0	0	0.22972	0.10311	0.16452	0.1232	0.10057	0.26303	0.18017	0.04266	0.19359	0.097632	0.078522	0.27154	0.22995	0.2724	0.17292	0.14071	-4.0333	-3.3979	-3.9938	-4.3708	-3.5521	-4.3354	-4.0417	-3.7062	-4.4396	-3.7646	-4.0417	-4.2479	-3.6083	-4.3	-3.9	-3.7354	279.381	98.775	115.038	306.588	162.627	18.875	256.622	151.689	312.225	147.875	261.609	-43.650	294.109	270.861	35.451	276.560	0.00013646	0.00096052	0.00016155	1533.4	5.1873e-06	6.1815e-06	1527.9	406.7	4.0249e-06	4.2067e-06	471.58	159.75	139.71	49.12	3.6173e-06	60.296	0.00041986	0.00043254	0.0001161	1536.6	4.6882e-06	4.6103e-06	1538.6	411.66	4.6989e-06	4.7559e-06	473.68	163.2	142.36	49.66	4.6495e-06	61.037	184.488	85.319	77.708	-31.239	113.237	106.746	-30.647	-26.074	151.424	129.489	-26.688	-22.457	-21.751	-17.411	131.930	-17.740	-8191	255	
39245.703	1	1	0	0	0.17724	0.14158	0.20513	0.28863	0.17094	0.11673	0.27873	0.37041	0.13414	0.44243	0.2178	0.15738	0.28949	0.046228	0.15411	0.1036	-4.0062	-3.5	-4.0375	-4.3562	-3.6021	-4.2396	-4.0687	-3.7458	-4.3958	-3.6667	-4.0396	-4.4083	-3.7021	-4.4313	-3.95	-3.6667	73.897	295.561	166.386	276.607	269.631	71.379	215.775	253.565	286.603	107.745	267.741	278.537	230.103	26.580	48.589	226.278	0.00017542	0.00043318	0.00011213	1533.7	7.0138e-06	6.4703e-06	1524.8	407.83	2.7625e-06	2.1958e-06	472.04	160.27	140.71	49.225	5.0178e-06	60.434	0.00040906	0.00041312	0.00011602	1537.4	4.6348e-06	4.6251e-06	1538.8	412.84	4.497e-06	4.5083e-06	474.35	163.34	142.81	49.795	4.5933e-06	61.122	186.941	23.428	35.645	-31.040	108.973	86.640	-30.894	-26.122	206.925	94.089	-26.641	-22.055	-21.714	-17.577	92.390	-17.842	-8191	255	
39245.820	1	1	0	0	0.08758	0.10839	0.16284	0.26708	0.055846	0.16184	0.12262	0.28233	0.11204	0.13528	0.19399	0.185	0.13923	0.40112	0.088537	0.27661	-4.025	-3.5583	-3.8417	-4.4729	-3.4437	-4.2229	-4.2146	-3.6396	-4.3104	-3.5625	-4.1417	-4.2	-3.5979	-4.2458	-3.8875	-3.6854	141.006	199.547	149.550	306.616	204.680	242.323	241.994	294.461	142.520	61.124	233.379	186.517	93.393	294.760	200.358	254.644	0.00014861	0.00041586	0.00016054	1538.5	3.4791e-06	3.3647e-06	1534.8	409.82	3.4879e-06	5.144e-06	473.21	160.5	141.09	48.976	7.392e-06	60.533	0.00040423	0.00041215	0.00011218	1544.4	4.4659e-06	4.4973e-06	1540.8	414.14	4.5909e-06	4.5663e-06	475.51	163.89	143.06	49.761	4.4811e-06	61.163	170.664	16.225	49.912	-30.976	115.433	76.963	-30.826	-26.145	115.368	87.679	-26.608	-21.865	-21.455	-17.412	112.545	-17.627	-8191	255	
39245.918	1	1	0	0	0.12541	0.18273	0.047007	0.17169	0.25477	0.14626	0.21131	0.2864	0.12794	0.21891	0.18959	0.10718	0.080703	0.17496	0.21316	0.074259	-4.0542	-3.6646	-3.7625	-4.6625	-3.2875	-4.2479	-4.2792	-3.4833	-4.5125	-3.7896	-3.7229	-4.7042	-3.35	-4.2479	-4.2167	-3.6312	271.271	38.082	197.891	1.015	100.692	5.376	220.434	278.500	228.129	164.820	210.142	234.654	258.053	245.926	253.275	284.915	0.0001932	0.00056957	0.00017013	1538.9	3.3066e-06	4.7295e-06	1537.5	408.78	3.7585e-06	4.5673e-06	473.83	161.24	141.23	49.42	2.5487e-06	60.429	0.00040927	0.00040828	0.00011423	1542.4	4.5438e-06	4.4934e-06	1545.5	413.83	4.5848e-06	4.5153e-06	476.35	164.44	143.36	50.04	4.5846e-06	61.201	187.838	11.881	49.817	-30.952	109.065	91.717	-30.755	-26.214	123.847	76.461	-26.669	-22.063	-21.673	-17.339	106.778	-18.166	-8191	255	
39246.016	1	1	0	0	0.033675	0.13629	0.099044	0.30415	0.043517	0.08261	0.32201	0.098807	0.02104	0.13068	0.32792	0.11659	0.13762	0.1383	0.18622	0.20124	-4.1042	-3.6896	-3.4729	-4.6792	-3.3208	-4.0792	-4.4938	-3.65	-4.45	-3.9792	-3.5625	-4.4042	-3.4479	-4.1104	-4.2854	-3.3604	112.306	301.881	282.066	287.895	37.988	-14.628	262.735	185.615	112.527	91.587	-18.809	39.667	-11.477	238.839	20.509	258.661	0.00023205	0.00050022	0.00017491	1537.8	4.4977e-06	3.5806e-06	1538.8	408.47	2.198e-06	3.5581e-06	472.78	161.19	139.94	48.788	4.8466e-06	60.488	0.00040579	0.00040842	0.00011722	1542.8	4.6585e-06	4.5552e-06	1544.6	413.04	4.7022e-06	4.6452e-06	475.56	164.17	142.72	49.759	4.516e-06	61.128	174.347	39.174	42.140	-31.026	142.149	104.037	-30.793	-26.272	150.494	123.952	-26.572	-22.286	-21.479	-17.310	107.311	-17.994	-8191	255	
39246.133	1	1	0	0	0.10034	0.13858	0.047306	0.12845	0.20598	0.3522	0.23525	0.21807	0.11648	0.16532	0.14719	0.34309	0.19861	0.26258	0.1366	0.12111	-3.9292	-3.7938	-3.5646	-4.4208	-3.4292	-3.8937	-4.6062	-3.7167	-4.3146	-3.9083	-3.6208	-4.5917	-3.6458	-4.075	-4.3604	-3.4396	262.572	-10.038	113.230	18.691	248.973	94.587	245.752	188.396	81.514	-9.856	127.167	266.603	273.140	286.534	-34.796	291.494	0.00017017	0.00041005	0.00016583	1537	4.6831e-06	4.5181e-06	1532.1	408.58	5.5077e-06	3.9951e-06	472.78	161.19	140.21	49.054	7.7016e-06	60.397	0.00041501	0.00041544	0.00011623	1539.6	4.6394e-06	4.5313e-06	1542.6	413.18	4.6311e-06	4.493e-06	475.83	164.21	142.48	49.743	4.5443e-06	61.076	184.912	37.500	46.005	-31.009	96.866	106.147	-30.908	-26.249	158.697	92.086	-26.790	-21.873	-21.783	-17.270	140.687	-17.804	-8191	255	
39246.207	1	1	0	0	0.14847	0.067453	0.061714	0.077004	0.14678	0.20901	0.34031	0.31676	0.060423	0.30012	0.29093	0.13322	0.18486	0.11471	0.095398	0.2565	-3.8937	-4.0875	-3.3667	-4.7667	-3.4688	-3.7188	-4.5979	-3.2604	-4.3146	-4.0542	-3.5708	-4.5563	-3.7354	-3.8208	-4.4083	-3.3	258.721	254.850	162.792	186.856	17.236	30.933	276.215	241.239	88.969	119.504	312.245	227.036	306.842	281.936	214.195	272.872	0.00016237	0.00061191	0.00019455	1537.7	2.652e-06	4.0407e-06	1533.9	408.87	4.5444e-06	8.9364e-06	471.64	159.93	140.05	49.252	4.1641e-06	60.129	0.00040561	0.00040908	0.00011354	1541.8	4.5667e-06	4.4796e-06	1540.9	412.78	4.5766e-06	4.4041e-06	474.68	163.6	142.67	49.713	4.4457e-06	60.943	176.264	81.179	57.817	-30.647	140.330	91.572	-30.648	-26.086	131.663	113.272	-26.789	-22.108	-22.018	-17.347	134.380	-18.031	-8191	255	
39246.301	1	1	0	0	0.22413	0.11	0.21878	0.30466	0.11017	0.029976	0.19348	0.10862	0.15039	0.059589	0.17701	0.14801	0.16572	0.21063	0.22485	0.19757	-3.9667	-4.1875	-3.4458	-4.5604	-3.65	-3.7604	-4.5083	-3.5833	-4.1438	-4.0188	-3.5604	-4.2917	-3.7771	-3.7958	-4.4146	-3.6021	239.420	159.043	208.226	257.681	138.151	-3.130	218.667	242.673	288.089	4.020	8.754	182.154	260.917	210.898	134.738	239.442	0.00018993	0.00058427	0.00011089	1537.1	4.0642e-06	9.2933e-06	1535.8	407.28	1.0223e-06	6.0369e-06	472.46	159.7	139.41	49.073	3.512e-06	60.333	0.00040474	0.00040419	0.00011222	1539.5	4.3978e-06	4.4538e-06	1541.2	411.66	4.5282e-06	4.4413e-06	473.92	163.4	141.83	49.556	4.5504e-06	60.724	177.254	46.400	27.220	-30.879	135.648	81.342	-30.815	-26.234	155.894	109.224	-26.489	-22.074	-21.751	-17.390	61.304	-17.467	-8191	255	
39246.422	1	1	0	0	0.062035	0.11265	0.19766	0.11059	0.13384	0.05556	0.22956	0.24713	0.32952	0.13543	0.34134	0.04942	0.15258	0.11795	0.089169	0.081767	-3.7104	-4.1604	-3.4396	-4.7188	-3.8146	-3.6396	-4.6813	-3.4792	-3.9667	-4.2812	-3.5146	-4.4521	-4.0104	-3.5958	-4.2896	-3.5854	25.080	291.904	75.282	-16.176	283.232	39.903	259.939	291.314	184.573	178.093	245.525	-30.058	19.935	-30.881	140.311	262.546	0.0001457	0.00053243	4.0458e-05	1533.8	2.9213e-06	2.7896e-06	1530.3	405.88	4.0754e-06	2.2408e-06	470.57	159.53	138.78	48.762	6.9848e-06	60.083	0.00040788	0.00041471	0.00011493	1536.7	4.5796e-06	4.5652e-06	1538.3	410.74	4.5527e-06	4.4892e-06	472.99	162.96	141.52	49.377	4.5705e-06	60.764	167.286	19.504	108.990	-30.778	108.991	121.535	-30.789	-26.263	134.482	93.970	-26.695	-21.883	-21.932	-17.282	123.843	-17.974	-8191	255	
39246.520	1	1	0	0	0.24518	0.20245	0.064894	0.19766	0.10192	0.24147	0.13954	0.32345	0.17723	0.03381	0.17071	0.033849	0.056787	0.21406	0.10571	0.25923	-3.675	-4.1458	-3.3729	-4.3833	-3.8208	-3.3896	-4.5813	-3.5958	-3.8917	-4.3771	-3.4896	-4.3875	-4.0771	-3.4917	-4.4958	-3.5375	170.630	-0.522	218.757	292.273	291.839	212.899	269.818	239.604	-32.943	82.584	275.424	313.064	172.555	289.223	-43.991	-26.875	0.00015258	0.00049286	0.00012455	1532.6	4.6424e-06	8.2893e-06	1530	407.47	1.8866e-06	3.6657e-06	469.05	160.04	139.74	48.7	5.4242e-06	59.91	0.0004153	0.00040775	0.00011512	1536.2	4.5261e-06	4.564e-06	1538.2	410.98	4.5297e-06	4.5678e-06	472.89	163.37	142.05	49.479	4.4641e-06	60.721	181.170	45.136	76.368	-30.878	123.848	77.588	-30.476	-26.401	206.269	141.161	-26.811	-21.990	-21.825	-17.305	67.989	-17.922	-8191	255	
39246.613	1	1	0	0	0.079532	0.10012	0.1374	0.28619	0.11362	0.13701	0.11205	0.14232	0.23139	0.04058	0.30748	0.22764	0.25175	0.17496	0.11099	0.082651	-3.6479	-4.3667	-3.2188	-4.7771	-3.8792	-3.4667	-4.6542	-3.4896	-3.8542	-4.3771	-3.5271	-4.3479	-4.0062	-3.5438	-4.475	-3.5854	180.742	135.304	291.013	283.812	0.583	198.064	299.336	-26.188	214.372	-37.351	294.032	-36.543	264.013	279.391	189.265	180.733	0.00018175	0.00034045	0.00015444	1537.4	5.9642e-06	2.6752e-06	1535.6	406.92	2.1091e-06	6.2159e-06	472.43	160.53	139.65	49.05	9.3694e-07	60.374	0.00040899	0.00040726	0.00011273	1540.4	4.5214e-06	4.5554e-06	1539.8	411.07	4.4305e-06	4.4788e-06	473.39	163.4	142.22	49.605	4.5181e-06	60.814	172.105	24.120	52.536	-30.777	101.741	97.900	-30.648	-26.291	60.113	86.728	-27.052	-21.872	-21.781	-17.246	101.694	-18.012	-8191	255	
39246.734	1	1	0	0	0.11628	0.21444	0.058219	0.1748	0.13606	0.14393	0.08841	0.13685	0.13532	0.18956	0.078056	0.043027	0.041654	0.051214	0.031081	0.093627	-3.3937	-4.2208	-3.2417	-4.4313	-4.0687	-3.5896	-4.7438	-3.8167	-3.9854	-4.2833	-3.75	-4.2375	-4.2292	-3.4188	-4.5292	-3.8854	-33.326	144.366	92.494	211.400	49.559	236.568	-9.745	207.031	-11.950	288.815	26.298	7.737	160.418	140.385	167.991	283.136	0.00015712	0.00053992	6.6715e-05	1533.3	6.6309e-06	5.1646e-06	1529	407.26	4.527e-06	2.3122e-06	471.34	160.15	139.39	48.775	4.1848e-06	60.139	0.00040405	0.00040618	0.00011395	1538.2	4.467e-06	4.4133e-06	1538.8	411.4	4.4863e-06	4.4741e-06	473.18	163.38	141.88	49.579	4.513e-06	60.795	178.416	40.419	-16.259	-31.050	97.559	141.045	-30.449	-26.114	112.739	79.699	-26.676	-21.869	-21.990	-17.245	122.883	-17.909	-8191	255	
39246.809	1	1	0	0	0.1177	0.37991	0.18142	0.28472	0.11055	0.16269	0.20159	0.08453	0.13386	0.17555	0.31831	0.3093	0.032375	0.2035	0.13927	0.25229	-3.1896	-4.4146	-3.2958	-4.45	-4.1375	-3.4542	-4.6792	-3.9021	-3.6646	-4.4875	-3.6229	-4.25	-4.3292	-3.5375	-4.5	-3.9396	43.258	111.960	-36.470	302.464	189.574	192.133	-35.183	197.804	-31.996	32.699	228.192	274.151	-28.838	296.045	215.990	2.721	0.00015834	0.00032834	0.0001266	1531	3.3439e-06	1.8604e-06	1526.5	405.15	5.2209e-06	5.3227e-06	471.33	160.37	139.13	48.637	4.0652e-06	59.698	0.00041054	0.00041224	0.00011536	1537	4.5216e-06	4.5955e-06	1537.7	410.51	4.5916e-06	4.5906e-06	472.33	163.24	141.71	49.336	4.5782e-06	60.483	195.390	19.518	47.299	-30.843	155.553	89.962	-30.588	-26.187	135.654	121.035	-26.645	-21.940	-21.556	-17.397	127.583	-17.965	-8191	255	
39246.902	1	1	0	0	0.14805	0.21201	0.082393	0.22358	0.20306	0.11562	0.23102	0.062267	0.13431	0.16516	0.20712	0.10352	0.10586	0.18494	0.09987	0.10413	-3.2771	-4.325	-3.3438	-4.2833	-4.2	-3.3896	-4.5875	-4.0125	-3.6146	-4.4771	-3.4521	-4.3375	-4.3396	-3.6042	-4.3396	-3.9083	149.935	213.907	74.982	285.442	229.134	217.854	219.359	238.876	274.610	237.046	9.388	135.180	93.284	23.369	-6.097	201.214	0.00017728	0.0006953	0.00016497	1532.1	6.3751e-06	6.1773e-06	1524.8	406.84	3.5182e-06	6.154e-06	469.12	159.45	139.72	48.653	5.2311e-06	59.78	0.0004118	0.00041678	0.0001158	1536.1	4.5986e-06	4.5376e-06	1536.3	410.47	4.6796e-06	4.5614e-06	472.77	163.1	141.79	49.364	4.5216e-06	60.531	173.981	11.341	32.416	-30.702	114.126	114.798	-30.504	-26.152	139.470	110.409	-26.551	-21.524	-21.638	-17.412	127.947	-18.388	-8191	255	
39246.996	1	1	0	0	0.29058	0.047447	0.045783	0.3052	0.096331	0.20902	0.04728	0.13463	0.10484	0.19516	0.1473	0.059814	0.17606	0.15642	0.13603	0.08206	-3.1688	-4.4042	-3.4313	-4.2729	-4.4563	-3.0875	-4.6188	-3.9396	-3.6542	-4.4333	-3.575	-4.1438	-4.4313	-3.5833	-4.3854	-4.0833	228.583	301.956	-28.790	291.916	159.113	109.979	232.362	27.857	100.479	-11.798	214.191	289.761	269.166	252.089	202.817	206.067	0.00017996	0.00036552	0.0001785	1532.1	5.4714e-06	2.8624e-06	1532.4	405.54	2.6324e-06	4.7722e-06	467.67	160.21	139.02	48.585	5.4438e-06	59.833	0.00040822	0.00040626	0.00011729	1535.1	4.4597e-06	4.5491e-06	1538.3	410.18	4.5913e-06	4.49e-06	472.01	163.25	141.76	49.275	4.4364e-06	60.672	173.145	-2.396	34.958	-30.703	147.538	70.169	-30.628	-26.237	109.225	149.869	-26.754	-21.896	-21.802	-17.510	109.744	-17.961	-8191	255	
39247.117	1	1	0	0	0.13221	0.03811	0.25178	0.34225	0.15618	0.076411	0.35413	0.017343	0.08834	0.18446	0.1562	0.14846	0.15511	0.1434	0.068581	0.064381	-3.1063	-4.4729	-3.4729	-4.0417	-4.3667	-3.3458	-4.5229	-4.2146	-3.6917	-4.4313	-3.7771	-3.9604	-4.3042	-3.4896	-4.3875	-4.2125	226.939	53.739	262.892	-26.026	298.464	191.250	284.646	5.376	61.153	140.820	211.390	298.413	302.982	137.603	171.404	12.719	0.00018403	0.00079346	0.00016233	1533.4	5.0993e-06	4.1623e-06	1524.4	405.68	1.4175e-06	4.492e-06	469.88	159.7	140.04	48.845	1.1323e-05	59.971	0.00040927	0.00040405	0.00011564	1537.2	4.4165e-06	4.4012e-06	1537	410.27	4.5327e-06	4.4092e-06	472.81	163.08	142.09	49.396	4.5367e-06	60.717	169.098	44.859	48.055	-30.783	119.185	143.426	-30.563	-26.360	99.935	91.183	-26.701	-21.910	-21.591	-17.293	91.949	-17.737	-8191	255	
39247.215	1	1	0	0	0.18399	0.22586	0.038037	0.14235	0.078434	0.20977	0.13876	0.043796	0.18746	0.14436	0.099417	0.0053923	0.23651	0.082615	0.1593	0.076114	-3.2229	-4.4292	-3.6583	-3.7438	-4.3958	-3.1979	-4.4042	-4.2708	-3.5042	-4.5083	-3.8396	-4.0479	-4.6208	-3.5458	-4.0875	-4.4167	269.404	113.895	193.019	-14.420	131.294	70.827	182.343	-19.498	-10.180	184.592	116.597	106.420	275.266	240.461	-3.057	177.927	0.00016706	0.00046454	0.00015626	1531.4	3.6535e-06	6.6208e-06	1535.7	407.15	2.2465e-06	7.7462e-06	469.84	161.2	139.88	48.921	5.8176e-06	60.151	0.00040498	0.00039832	0.00011191	1536.5	4.3735e-06	4.4506e-06	1540.5	411.31	4.4452e-06	4.3101e-06	472.56	163.71	142.38	49.549	4.4553e-06	60.757	191.935	19.305	32.834	-30.848	173.292	81.892	-30.869	-26.198	147.018	146.874	-26.748	-22.074	-21.507	-17.463	118.503	-18.082	-8191	255	
39247.312	1	1	0	0	0.11481	0.089937	0.16411	0.17297	0.12585	0.13315	0.1256	0.11575	0.074452	0.17734	0.14154	0.032166	0.053311	0.11041	0.06545	0.21533	-3.1604	-4.4771	-3.8729	-3.9854	-4.4812	-3.3375	-4.2688	-4.2833	-3.5083	-4.5062	-3.9	-3.8833	-4.6854	-3.5771	-3.8792	-4.4958	137.168	-9.235	232.050	268.010	-23.144	245.595	199.608	276.277	116.222	-21.328	216.452	212.130	252.415	127.201	87.154	129.724	0.00019209	0.00071404	0.0001442	1535.8	5.5647e-06	5.0582e-06	1531	408.06	2.0715e-06	5.9549e-06	472.34	159.92	139.38	48.651	4.6473e-06	60.076	0.00040042	0.00039514	0.00010867	1536.6	4.3382e-06	4.3295e-06	1539.4	411.29	4.3873e-06	4.2846e-06	472.79	163.18	142.04	49.31	4.3739e-06	60.639	186.335	51.724	57.788	-30.751	145.191	115.565	-30.770	-26.266	140.032	89.692	-26.730	-22.168	-21.503	-17.683	112.227	-18.025	-8191	255	
39247.406	1	1	0	0	0.13047	0.2159	0.046444	0.18557	0.049949	0.14253	0.095275	0.18181	0.29532	0.038592	0.28234	0.17051	0.20417	0.20783	0.056008	0.26115	-3.1771	-4.3729	-3.7417	-3.7833	-4.6062	-3.4521	-4.1687	-4.525	-3.5083	-4.3187	-3.9062	-3.5604	-4.6583	-3.6188	-4.0167	-4.4812	35.747	193.361	120.400	257.104	260.049	60.372	27.424	155.532	300.520	96.127	306.440	243.110	80.276	238.789	77.262	252.670	0.00013553	0.00087646	0.00015498	1531.9	2.9961e-06	7.2296e-06	1532.8	406.71	4.7305e-06	4.9123e-06	469.46	160.39	139.95	48.515	4.0742e-06	59.914	0.00039575	0.00039128	0.00011211	1535.2	4.3488e-06	4.3951e-06	1537.1	410.44	4.4772e-06	4.4588e-06	472.08	163.42	142.25	49.326	4.3952e-06	60.639	179.947	71.295	53.641	-30.656	97.828	69.972	-30.763	-26.128	77.603	85.769	-26.892	-21.984	-21.503	-17.481	121.858	-18.022	-8191	255	
39247.504	1	1	0	0	0.063014	0.10939	0.18899	0.16106	0.23208	0.34249	0.29508	0.25109	0.080162	0.23042	0.20091	0.19121	0.22749	0.075802	0.1178	0.27783	-2.9833	-4.2125	-3.775	-3.7146	-4.4458	-3.5938	-4.0958	-4.4208	-3.2667	-4.3208	-4.0771	-3.5271	-4.5396	-3.6021	-3.75	-4.6792	190.710	179.675	202.709	-40.719	50.011	112.753	311.850	-29.351	230.400	184.945	239.378	238.899	204.894	149.400	214.815	271.119	0.00022466	0.0005019	0.0001939	1537.4	3.1157e-06	7.2831e-06	1536	405.51	1.5523e-06	3.2764e-06	470.63	158.72	139.81	48.668	6.9354e-06	59.962	0.00039507	0.00040393	0.0001119	1538.6	4.4047e-06	4.4038e-06	1541.4	410.89	4.4629e-06	4.3925e-06	472.82	162.71	142	49.204	4.4781e-06	60.537	178.595	28.390	16.998	-30.733	170.904	102.593	-30.383	-26.068	70.945	107.976	-26.758	-21.923	-21.762	-17.379	117.239	-17.782	-8191	255	
39247.598	1	1	0	0	0.12229	0.21274	0.10218	0.077098	0.092787	0.22745	0.28558	0.15863	0.26736	0.1619	0.11	0.24161	0.19296	0.17467	0.12953	0.083651	-2.9354	-4.2458	-3.9688	-3.3729	-4.6417	-3.75	-4.0375	-4.5062	-3.2125	-4.3438	-4.2583	-3.6333	-4.4979	-3.7771	-3.7333	-4.5917	220.015	299.433	155.378	209.403	-32.773	28.310	273.802	254.468	191.577	242.609	79.257	281.817	246.145	-0.285	174.669	240.360	0.0001948	0.00055906	0.00013171	1524.8	3.8911e-06	8.1991e-06	1539	405.1	2.9362e-06	5.6233e-06	470.12	159.75	139.78	48.724	3.9157e-06	60.162	0.00040673	0.00039561	0.0001118	1532.5	4.429e-06	4.372e-06	1541.3	410.74	4.5341e-06	4.3944e-06	472.3	162.87	142.15	49.278	4.4144e-06	60.681	167.326	39.012	7.828	-30.888	162.894	114.690	-30.513	-26.377	164.595	119.535	-26.923	-21.975	-21.494	-17.521	63.019	-18.119	-8191	255	
39247.695	1	1	0	0	0.060783	0.16931	0.054783	0.19856	0.093679	0.13295	0.14151	0.15657	0.13956	0.10561	0.078589	0.10517	0.18975	0.17022	0.1284	0.12121	-3.0917	-4.0938	-4.1625	-3.5771	-4.5875	-3.6854	-3.8771	-4.65	-3.5646	-4.0125	-4.1896	-3.6875	-4.5062	-3.9062	-3.6167	-4.5458	-31.509	108.927	246.004	-26.033	65.675	-3.345	260.945	-35.148	82.162	211.702	313.196	11.727	309.934	313.821	26.278	31.129	0.00017445	0.00060041	0.00015349	1523.3	1.6921e-06	6.6239e-06	1531.4	406.47	4.3354e-06	7.202e-06	471.02	160.81	139.54	48.588	6.096e-06	59.934	0.00040154	0.00040228	0.00011087	1534	4.4091e-06	4.37e-06	1539.8	411.09	4.4706e-06	4.5529e-06	473.19	163.3	142.17	49.294	4.4655e-06	60.667	177.402	-4.200	80.822	-30.941	229.197	128.211	-30.661	-26.227	154.736	120.846	-26.790	-22.149	-21.716	-17.615	107.492	-17.942	-8191	255	
39247.816	1	1	0	0	0.14042	0.16514	0.35267	0.16843	0.056437	0.21337	0.23504	0.077104	0.04237	0.039308	0.19704	0.15393	0.19122	0.11729	0.12801	0.039881	-3.1167	-4.0021	-4.1917	-3.7	-4.3958	-3.8271	-3.7146	-4.6396	-3.3958	-4.1521	-4.4396	-3.4	-4.4771	-4.0375	-3.4688	-4.7438	24.827	296.280	292.921	254.444	11.569	130.966	269.671	196.284	20.682	285.829	289.351	208.846	-10.866	253.929	-2.881	158.511	0.00019864	0.00032111	0.00012644	1535.4	4.342e-06	3.6935e-06	1532.1	406.35	2.9284e-06	4.8837e-06	469.86	160.23	140.18	48.775	5.827e-06	59.647	0.00040146	0.00040443	0.00011134	1538.3	4.48e-06	4.3757e-06	1541	411.45	4.5557e-06	4.443e-06	472.65	163.38	142.51	49.371	4.551e-06	60.71	169.596	26.316	43.221	-30.998	132.361	102.626	-30.697	-26.201	102.373	107.965	-26.649	-21.945	-21.586	-17.600	140.011	-17.815	-8191	255	
39247.910	1	1	0	0	0.034571	0.11807	0.14209	0.17249	0.15459	0.17387	0.13358	0.41267	0.16369	0.092037	0.14533	0.28574	0.16446	0.1538	0.052318	0.15317	-3.1896	-3.9292	-4.2896	-3.6229	-4.4062	-3.8354	-3.5583	-4.9771	-3.5	-4.0021	-4.4896	-3.5083	-4.4021	-4.1896	-3.6125	-4.5875	305.093	-26.306	292.054	279.538	168.435	10.478	214.885	246.610	2.223	297.560	291.128	235.876	309.481	-4.943	109.591	244.434	0.00019082	0.0003988	0.00016685	1532.4	5.4398e-06	5.3044e-06	1538.9	408.52	3.4746e-06	4.607e-06	470.67	160.23	139.87	48.578	5.0784e-06	60.349	0.00039939	0.0004007	0.00011267	1537	4.4201e-06	4.3959e-06	1540.9	412.39	4.5158e-06	4.4073e-06	473.74	163.42	142.48	49.405	4.4169e-06	60.821	173.581	25.108	65.552	-31.040	136.457	114.968	-30.520	-26.052	104.721	98.105	-26.632	-22.157	-21.582	-17.523	147.953	-17.763	-8191	255	
39248.008	1	1	0	0	0.096182	0.14197	0.11448	0.069706	0.15224	0.12823	0.049994	0.069056	0.20481	0.23417	0.16779	0.15178	0.26609	0.097844	0.2446	0.14511	-3.4083	-3.8104	-4.4854	-3.6896	-4.2375	-4.0437	-3.8896	-4.7625	-3.6667	-3.8458	-4.4229	-3.5625	-4.3604	-4.0604	-3.6417	-4.4437	286.406	5.661	71.928	88.922	102.434	267.836	266.016	-25.624	150.877	85.227	-3.137	-42.824	-27.984	281.534	170.376	244.472	0.00016693	0.00038699	0.00012244	1530.4	7.1614e-06	3.7742e-06	1534.4	406.91	4.2141e-06	4.0622e-06	469.49	160.75	139.76	48.965	3.5259e-06	60.221	0.00039062	0.00039018	0.00010793	1534.9	4.3371e-06	4.3025e-06	1541	412.14	4.448e-06	4.3214e-06	473.51	163.51	142.76	49.516	4.3833e-06	60.779	167.021	52.533	18.897	-31.120	120.046	153.278	-30.559	-26.144	147.845	87.589	-26.733	-22.104	-21.668	-17.522	142.777	-17.842	-8191	255	
39248.102	1	1	0	0	0.13083	0.13813	0.23693	0.45775	0.1446	0.09016	0.1069	0.098523	0.024943	0.16008	0.17764	0.051444	0.17935	0.065492	0.26978	0.20682	-3.3875	-3.9833	-4.3375	-3.7	-4.1562	-4.0833	-3.5396	-4.6	-3.6021	-3.7604	-4.5062	-3.6479	-4.2208	-4.1917	-3.5146	-4.4896	-33.255	177.140	172.692	288.081	82.951	297.590	235.985	259.341	147.100	-36.626	-42.530	124.300	259.815	221.116	42.580	232.396	0.00018639	0.00055038	0.00011998	1532.2	2.1666e-06	5.9956e-06	1534	408.35	1.2916e-06	6.7375e-06	467.05	160.66	139.91	48.723	5.3308e-06	60.198	0.00038987	0.00039318	0.00010863	1535.7	4.3409e-06	4.2296e-06	1541.4	412.24	4.2794e-06	4.2444e-06	473.31	163.23	142.61	49.346	4.2832e-06	60.799	181.079	47.544	41.114	-31.029	133.812	85.993	-30.436	-26.070	148.888	98.670	-26.615	-21.960	-21.713	-17.219	82.323	-17.940	-8191	255	
39248.199	1	1	0	0	0.17678	0.1976	0.042126	0.22358	0.11573	0.19137	0.18958	0.16596	0.12802	0.16593	0.12535	0.18311	0.1194	0.074905	0.017269	0.33049	-3.4979	-3.6958	-4.5	-3.7708	-4.0708	-4.2063	-3.8583	-4.4958	-3.7396	-3.5812	-4.4958	-3.6271	-3.9917	-4.1854	-3.4	-4.5521	306.086	28.124	74.646	280.032	15.332	87.252	218.371	281.979	273.828	223.544	180.536	57.672	167.562	234.949	29.576	247.758	0.00018161	0.00092189	0.00017007	1525	4.2582e-06	3.4159e-06	1529.8	405.97	2.3786e-06	4.6935e-06	469.36	158.97	140.1	48.738	5.1696e-06	59.711	0.00038427	0.00038028	0.00010633	1532.2	4.2613e-06	4.1616e-06	1535.8	411.29	4.2664e-06	4.2304e-06	472.15	162.52	142.02	49.271	4.2919e-06	60.498	169.628	53.405	40.642	-30.743	130.756	84.262	-30.576	-26.438	109.846	130.464	-26.675	-22.061	-21.582	-17.347	137.324	-17.912	-8191	255	
39248.297	1	1	0	0	0.060489	0.098243	0.2367	0.37019	0.10596	0.37468	0.25743	0.1103	0.21739	0.17839	0.15261	0.079108	0.20382	0.094575	0.044382	0.13577	-3.3917	-3.5771	-4.4229	-3.7167	-4.0375	-4.2125	-3.7667	-4.6417	-3.8458	-3.75	-4.5875	-3.7396	-3.9521	-4.4333	-3.5271	-4.5021	192.105	214.172	303.354	266.430	-15.302	75.045	273.731	241.096	-16.937	202.005	257.712	296.861	285.208	207.717	232.501	235.479	0.00021287	0.00047229	0.00018166	1528.5	4.1211e-06	2.6587e-06	1523.2	405.94	3.9166e-06	3.6271e-06	470.75	159.55	139.47	48.435	7.6865e-06	59.69	0.00038142	0.00038878	0.00010443	1532.1	4.2614e-06	4.1617e-06	1531.2	409.98	4.2656e-06	4.2783e-06	471.1	161.93	141.75	49.113	4.3575e-06	60.526	170.382	50.389	66.490	-30.990	120.908	102.979	-30.584	-25.994	150.209	134.962	-26.650	-22.142	-21.588	-17.487	113.793	-17.756	-8191	255	
39248.414	1	1	0	0	0.10968	0.24925	0.088958	0.048976	0.092781	0.083673	0.38401	0.33393	0.23006	0.11433	0.31352	0.13637	0.14477	0.36646	0.067703	0.11364	-3.7042	-3.6667	-4.3667	-3.7333	-3.8542	-4.2146	-3.7917	-4.4333	-3.7917	-3.7417	-4.5896	-3.8104	-3.9458	-4.3979	-3.5083	-4.2125	229.073	152.370	117.838	51.003	311.021	190.825	241.315	263.854	139.800	35.513	198.823	216.170	213.876	307.740	294.394	59.772	0.00017802	0.00038746	0.000104	1527.7	4.9173e-06	5.1386e-06	1522.4	405.16	3.3884e-06	4.2041e-06	469.92	158.85	138.26	48.441	6.2383e-06	59.69	0.0003797	0.00038807	0.00010763	1527	4.2784e-06	4.1524e-06	1527.5	409.8	4.2691e-06	4.2779e-06	470.83	161.84	141.26	49.014	4.3391e-06	60.287	182.467	50.262	58.135	-31.052	149.953	89.874	-30.771	-25.957	116.444	101.251	-26.688	-22.248	-21.725	-17.528	137.309	-18.001	-8191	255	
39248.512	1	1	0	0	0.27054	0.18308	0.031141	0.20524	0.094505	0.14363	0.15797	0.30177	0.20459	0.1347	0.23586	0.14572	0.18098	0.15846	0.12496	0.10579	-3.7188	-3.4896	-4.1813	-3.9292	-3.8875	-4.5271	-3.7188	-4.5271	-4.0188	-3.5229	-4.5625	-3.9562	-3.9104	-4.4208	-3.4833	-4.2125	143.229	265.353	241.080	280.135	231.023	163.988	236.034	196.685	118.414	55.217	-28.918	227.441	292.577	282.587	-19.951	194.906	0.000172	0.000512	4.2393e-05	1518.8	5.8567e-06	1.235e-06	1519.8	403.83	2.425e-06	5.7812e-06	468.97	159.04	138.74	48.508	4.7799e-06	59.666	0.00037856	0.00039162	0.00010829	1525.2	4.3059e-06	4.2928e-06	1529	409.32	4.2908e-06	4.3637e-06	471.57	161.9	141.31	49.131	4.2924e-06	60.393	172.764	53.806	0.913	-31.097	123.718	117.714	-30.695	-26.034	171.849	112.269	-26.705	-22.132	-21.720	-17.478	85.724	-17.561	-8191	255	
39248.609	1	1	0	0	0.080907	0.07911	0.24815	0.13789	0.089811	0.26425	0.035808	0.31477	0.047593	0.075	0.2027	0.19343	0.03023	0.13577	0.085356	0.096382	-3.9646	-3.4437	-4.4229	-3.9458	-3.4792	-4.475	-3.5208	-4.3458	-4.1667	-3.3854	-4.6896	-3.975	-3.7396	-4.6125	-3.3146	-4.2146	239.606	80.633	301.655	254.074	-3.794	281.099	113.986	225.695	80.200	315.288	237.604	226.459	294.301	205.440	46.706	218.347	0.00017666	0.00044483	0.00020527	1521.1	5.031e-06	5.0138e-06	1521.1	405.82	3.1961e-06	3.282e-06	470.11	158.44	139.11	48.425	4.6701e-06	59.569	0.00039157	0.00038691	0.00010773	1525.4	4.3312e-06	4.2875e-06	1528.7	410.05	4.374e-06	4.238e-06	470.99	161.79	141.47	49.08	4.3423e-06	60.312	172.896	69.697	69.423	-31.063	197.783	84.280	-30.792	-26.012	160.275	102.631	-26.418	-22.244	-21.600	-17.663	113.986	-17.773	-8191	255	
39248.703	1	1	0	0	0.16124	0.23383	0.16238	0.036899	0.18914	0.25453	0.12891	0.28806	0.12457	0.1443	0.20597	0.12271	0.14893	0.17213	0.12346	0.39055	-3.8063	-3.3563	-4.5729	-4.1	-3.3875	-4.6271	-3.4896	-4.2917	-4.4396	-3.4208	-4.6625	-3.9562	-3.525	-4.5542	-3.2062	-3.9146	-23.464	168.842	22.946	147.651	178.834	162.637	237.285	257.643	307.122	277.339	278.274	280.205	6.649	62.891	300.409	-6.362	0.00020774	0.0003609	0.00014564	1518.2	5.396e-06	7.4409e-06	1516.1	404.83	7.6638e-07	6.2667e-06	468.76	158.06	138.04	48.163	5.7996e-06	59.795	0.00038723	0.00038911	0.00011005	1522.9	4.3806e-06	4.3617e-06	1524.7	409.43	4.3906e-06	4.3709e-06	470.68	161.62	141.22	48.945	4.3839e-06	60.385	180.101	14.107	31.201	-30.809	111.928	101.623	-30.647	-25.934	60.647	84.086	-26.401	-22.232	-21.496	-17.691	78.956	-17.469	-8191	255	
39248.801	1	1	0	0	0.044299	0.15226	0.2057	0.39301	0.13321	0.1206	0.18774	0.21499	0.049475	0.15982	0.13216	0.2003	0.050672	0.21988	0.19591	0.063981	-3.9083	-3.5521	-4.1687	-4.0604	-3.5292	-4.4	-3.9042	-4.1083	-4.3708	-3.3625	-4.4583	-3.9292	-3.8646	-4.4271	-3.6021	-3.9708	4.273	212.270	78.541	286.482	165.725	48.092	252.018	220.903	105.163	305.897	220.481	-1.064	244.963	-37.692	254.910	233.364	0.00015569	0.00044223	0.00011407	1516.9	3.5437e-06	2.032e-06	1517.8	403.87	4.3969e-06	5.7701e-06	467.78	158.35	139.07	48.35	6.585e-06	59.755	0.00039466	0.0003979	0.00011284	1523.4	4.508e-06	4.4741e-06	1526.4	409.03	4.4671e-06	4.4437e-06	470.72	161.95	141.5	49.037	4.5078e-06	60.427	184.854	12.858	20.011	-30.951	128.387	106.417	-30.945	-26.042	144.970	131.186	-26.489	-22.037	-21.515	-17.429	131.160	-17.704	-8191	255	
39248.895	1	1	0	0	0.19867	0.22783	0.16677	0.35474	0.085674	0.25706	0.08702	0.049235	0.33723	0.12959	0.28004	0.27303	0.25454	0.21869	0.077417	0.22751	-3.8729	-3.4729	-4.1958	-4.1625	-3.3979	-4.4667	-3.8146	-4	-4.1917	-3.2167	-4.3896	-4.15	-3.7083	-4.5146	-3.65	-3.8729	-22.562	1.112	13.079	219.229	2.448	92.869	288.108	181.094	25.711	138.935	235.675	259.908	-16.980	-42.353	-37.008	310.008	0.00017096	0.00056947	0.00013034	1520.3	4.1418e-06	3.5973e-06	1522	404.66	3.6254e-06	3.2565e-06	470.39	157.95	139.03	48.588	4.6501e-06	59.667	0.00039801	0.00039594	0.0001106	1526	4.521e-06	4.3653e-06	1527.8	409.36	4.3647e-06	4.281e-06	472.35	161.75	141.57	49.237	4.4113e-06	60.477	174.503	63.772	27.786	-31.046	132.955	124.613	-30.829	-26.098	124.188	113.594	-26.701	-21.851	-21.622	-17.182	111.584	-17.444	-8191	255	
39248.992	1	1	0	0	0.10181	0.21908	0.19772	0.053976	0.20564	0.086281	0.083298	0.067779	0.10303	0.24885	0.21005	0.28989	0.14704	0.058911	0.041767	0.048432	-4.2479	-3.5438	-4.0729	-4.4333	-3.5187	-4.3708	-3.6813	-3.9333	-4.3854	-3.3146	-4.3208	-4.1583	-3.5438	-4.5687	-3.8354	-3.6437	18.620	53.293	50.851	250.683	258.052	171.460	263.192	150.471	305.721	1.630	297.870	310.397	-41.370	-2.034	284.641	125.020	0.00016658	0.00034268	0.00013997	1521.5	3.6948e-06	4.3017e-06	1521	404.76	2.4043e-06	3.5562e-06	468.6	159.39	139.33	48.582	6.5751e-06	59.787	0.00038619	0.00039522	0.00010842	1524.8	4.3452e-06	4.1432e-06	1526.5	409.57	4.2456e-06	4.3119e-06	472.19	162.41	141.6	49.23	4.2764e-06	60.55	175.271	43.661	67.052	-31.189	153.226	134.030	-30.766	-26.139	67.300	102.927	-26.553	-22.133	-21.703	-17.109	116.132	-17.803	-8191	255	
39249.086	1	1	0	0	0.093741	0.12943	0.073271	0.15302	0.20374	0.080469	0.15158	0.24796	0.24959	0.011262	0.13822	0.034364	0.25647	0.33039	0.11487	0.12115	-4.0646	-3.2417	-4.0167	-4.4708	-3.4354	-4.4083	-4.0479	-3.6792	-4.4854	-3.5042	-4.1937	-4.4417	-3.2458	-4.5646	-3.9917	-3.6042	45.327	2.785	-14.590	-38.649	56.028	248.352	285.997	244.976	245.709	301.352	-23.051	29.308	91.659	-31.082	301.431	-12.972	0.00018481	0.00050268	0.00018157	1514.1	5.7445e-06	7.3585e-06	1516.9	404.88	5.3472e-06	5.4576e-06	469.9	158.67	138.96	48.514	5.7353e-06	60.042	0.00038091	0.00038708	0.00010859	1522.4	4.2358e-06	4.2011e-06	1527	409.77	4.2067e-06	4.2314e-06	472.05	162.11	141.76	49.261	4.3401e-06	60.522	186.181	62.901	75.907	-30.963	160.942	94.485	-30.662	-26.168	156.428	77.163	-26.514	-21.967	-21.555	-17.345	132.365	-18.051	-8191	255	
39249.184	1	1	0	0	0.15034	0.083058	0.12407	0.33495	0.179	0.14604	0.20142	0.2365	0.043584	0.087889	0.096465	0.035289	0.13803	0.048905	0.035433	0.28368	-4.2542	-3.2146	-4.0604	-4.5396	-3.4604	-4.4146	-4.1896	-3.5833	-4.5354	-3.4583	-4.0271	-4.4646	-3.4313	-4.45	-3.8396	-3.5938	-37.031	151.541	296.421	295.947	137.812	75.145	162.551	181.435	196.981	120.347	289.166	32.413	302.514	28.555	91.935	274.055	0.00016723	0.00048359	0.00019117	1524.2	7.304e-06	4.4056e-06	1512.4	405.27	2.9338e-06	4.211e-06	468.79	158.17	138.26	48.421	2.5318e-06	59.733	0.00038854	0.00039423	0.00010978	1524.8	4.297e-06	4.2883e-06	1523.3	409.22	4.3036e-06	4.2993e-06	470.54	162.1	141.09	49.176	4.3202e-06	60.482	175.695	59.367	39.558	-30.939	117.344	78.225	-30.825	-26.067	92.005	131.876	-26.663	-22.385	-21.574	-17.299	67.862	-17.848	-8191	255	
39249.305	1	1	0	0	0.18867	0.097617	0.12101	0.16837	0.17072	0.20147	0.17328	0.25146	0.22433	0.20941	0.12818	0.20742	0.12814	0.11349	0.27278	0.080261	-4.2438	-3.4708	-3.8854	-4.55	-3.1104	-4.5146	-4.2063	-3.5667	-4.5417	-3.6146	-3.7792	-4.6042	-3.2938	-4.4104	-4.0792	-3.6167	155.717	174.348	284.888	-23.457	244.251	255.408	267.023	246.118	16.720	227.484	263.492	277.734	283.508	-39.723	172.278	208.568	0.00017681	0.00073493	0.00023975	1524	5.5969e-06	2.8619e-06	1519.3	406.82	2.034e-06	3.5671e-06	468.08	159.2	138.94	48.48	5.578e-06	59.719	0.00038712	0.00040027	0.00011083	1526.4	4.5185e-06	4.3232e-06	1527.8	409.94	4.4809e-06	4.4753e-06	471.23	162.08	141.35	49.197	4.5356e-06	60.388	187.327	20.097	34.504	-30.996	134.104	59.277	-30.663	-26.408	155.062	137.604	-26.408	-22.180	-21.843	-17.072	89.693	-17.694	-8191	255	
39249.375	1	1	0	0	0.29085	0.15349	0.20564	0.17492	0.11844	0.27115	0.5032	0.34324	0.18867	0.1902	0.11687	0.13428	0.23328	0.3218	0.09311	0.14411	-4.175	-3.65	-3.5208	-4.7063	-3.2917	-4.1333	-4.3792	-3.4958	-4.4583	-3.6833	-3.8563	-4.6104	-3.425	-4.3521	-4.1542	-3.5771	222.190	237.340	5.972	312.126	272.043	147.154	161.931	-42.055	222.176	310.142	160.516	275.708	310.936	247.478	-40.960	177.925	0.00020859	0.00061902	0.00011793	1518.1	3.9953e-06	2.1468e-06	1516.4	405.34	2.1857e-06	5.0184e-06	470.85	158.79	139.01	48.795	3.2633e-06	60.038	0.00041183	0.00040828	0.00011385	1525.1	4.5913e-06	4.4019e-06	1527.7	409.33	4.5597e-06	4.5064e-06	472.09	162.54	141.53	49.406	4.5214e-06	60.645	180.603	-4.081	41.811	-30.905	129.954	88.819	-30.876	-26.453	71.246	72.792	-26.491	-21.818	-21.679	-17.312	93.895	-17.444	-8191	255	
39249.496	1	1	0	0	0.075686	0.24839	0.10267	0.22021	0.2094	0.15135	0.25161	0.33931	0.1888	0.027444	0.24261	0.087717	0.18297	0.21439	0.10531	0.15893	-4.1583	-3.8104	-3.7146	-4.5833	-3.5563	-4.0979	-4.2312	-3.3354	-4.5396	-3.5896	-3.6125	-4.5083	-3.45	-4.0458	-4.3313	-3.4521	52.625	192.901	130.451	259.806	0.252	67.311	206.078	279.474	164.900	147.852	-41.187	30.878	252.535	58.616	52.590	242.690	0.00014482	0.00072804	0.00018097	1524.1	2.9632e-06	7.1758e-06	1517.9	405.31	1.3384e-06	3.5426e-06	468.48	159.56	139.22	48.574	5.0704e-07	60.137	0.00039773	0.00040289	0.00011092	1527.9	4.4172e-06	4.3057e-06	1528.7	409.61	4.3957e-06	4.2925e-06	471.67	162.66	141.32	49.309	4.2834e-06	60.658	171.663	75.758	43.967	-30.975	111.426	95.102	-30.785	-26.206	108.631	97.311	-26.510	-22.155	-21.504	-17.435	261.098	-17.766	-8191	255	
39249.594	1	1	0	0	0.078248	0.094083	0.19097	0.28845	0.032911	0.19891	0.023918	0.33771	0.061465	0.22311	0.20497	0.30449	0.22055	0.23079	0.23245	0.14023	-4.1479	-3.8146	-3.4854	-4.5938	-3.5146	-3.9688	-4.3979	-3.5146	-4.6667	-3.9229	-3.5792	-4.575	-3.5167	-3.8646	-4.6333	-3.4729	118.615	314.808	145.792	272.056	96.315	81.939	242.983	225.700	94.265	76.392	253.249	-34.756	163.223	-27.368	-41.970	272.807	0.00019159	0.00044837	9.8602e-05	1521.9	5.9534e-06	5.1768e-06	1514.2	404.81	1.3953e-06	3.5772e-06	470.19	159.76	138.76	48.957	7.0009e-06	59.845	0.00037798	0.00038673	0.00010677	1527.4	4.1932e-06	4.217e-06	1527.1	409.48	4.2549e-06	4.1784e-06	471.8	162.68	141.42	49.408	4.1519e-06	60.582	173.545	17.082	58.996	-30.818	153.403	81.324	-30.897	-26.292	48.417	80.905	-26.850	-21.903	-21.492	-17.231	120.108	-17.751	-8191	255	
39249.688	1	1	0	0	0.19175	0.084513	0.065236	0.21126	0.034383	0.12933	0.21165	0.14567	0.17256	0.22342	0.23599	0.21581	0.14193	0.061737	0.10216	0.17604	-3.9938	-3.775	-3.3729	-4.8771	-3.4458	-3.9	-4.6062	-3.2979	-4.2833	-4.0833	-3.4646	-4.7708	-3.6667	-3.9562	-4.55	-3.4188	164.758	104.436	87.537	266.447	313.855	103.109	275.001	294.952	23.941	30.159	168.750	-7.643	-31.623	247.652	-2.152	313.124	0.00015358	0.00041827	9.698e-05	1525.3	3.0772e-06	7.1424e-06	1526.3	405.14	2.7983e-06	4.9819e-06	469.43	159.3	138.95	48.632	4.3394e-06	59.713	0.000378	0.00037974	0.00010366	1528.7	4.115e-06	4.1127e-06	1531.4	409.81	4.1063e-06	4.0732e-06	471.6	162.9	141.21	49.214	4.209e-06	60.305	164.888	21.990	103.107	-30.878	139.683	98.293	-30.867	-26.232	125.832	98.572	-26.486	-21.826	-21.701	-17.187	117.327	-17.756	-8191	255	
39249.785	1	1	0	0	0.13092	0.12504	0.096112	0.098229	0.13721	0.048289	0.30472	0.33718	0.28752	0.069129	0.22554	0.10607	0.16412	0.30071	0.12068	0.19376	-4.0021	-4.0167	-3.1625	-4.7208	-3.5729	-3.9354	-4.625	-3.6146	-4.3438	-4.1042	-3.6771	-4.6583	-3.7458	-3.7979	-4.3792	-3.2729	262.107	60.236	300.809	231.033	95.162	-7.132	277.969	312.966	41.036	147.848	235.953	303.317	290.710	292.548	300.562	300.630	0.00015506	0.00035	6.3376e-05	1523.2	7.1031e-06	6.7629e-06	1523.8	404.7	1.707e-06	4.0887e-06	468.46	159.15	138.78	48.434	6.9693e-06	59.409	0.00037303	0.00036943	0.00010486	1526	4.1763e-06	4.1311e-06	1529.3	408.96	4.1531e-06	4.0021e-06	470.66	162.17	141.37	49.229	4.1136e-06	60.397	188.574	71.827	90.639	-30.932	114.386	99.441	-30.823	-26.220	155.076	96.060	-26.656	-22.207	-21.471	-17.335	108.046	-17.908	-8191	255	
39249.902	1	1	0	0	0.4342	0.26651	0.25017	0.41253	0.075162	0.11703	0.24654	0.35096	0.10116	0.17885	0.28481	0.18659	0.25792	0.40197	0.14566	0.15163	-3.9688	-4.1937	-3.2833	-4.8958	-3.7458	-3.6312	-4.8208	-3.5312	-4.2208	-4.1792	-3.5354	-4.65	-3.9833	-3.6688	-4.5583	-3.3646	16.895	18.954	297.964	270.137	256.312	12.210	256.416	239.181	-28.644	293.485	250.578	196.979	282.823	-32.650	268.976	189.370	0.00018021	0.00075767	0.00010622	1524.8	5.7096e-06	4.7724e-06	1525.2	406.4	2.3273e-06	4.1007e-06	468.39	159.16	138.92	48.673	5.824e-06	59.567	0.00036845	0.00036828	0.00010267	1529.3	3.9845e-06	4.0613e-06	1529.1	409.49	3.9914e-06	3.9248e-06	471.03	162.38	141.29	49.248	3.9259e-06	60.314	177.498	18.123	41.283	-30.861	137.637	102.004	-30.746	-26.096	125.017	100.146	-26.672	-21.784	-21.793	-17.204	104.605	-17.822	-8191	255	
39249.977	1	1	0	0	0.24146	0.18313	0.072749	0.23184	0.041374	0.09299	0.32914	0.21885	0.051266	0.083345	0.1283	0.10794	0.10416	0.29502	0.13611	0.27646	-3.7062	-4.4104	-3.3375	-4.6562	-3.7896	-3.4792	-4.8292	-3.6604	-4.1188	-4.3979	-3.425	-4.6792	-3.9625	-3.6813	-4.425	-3.5979	300.062	188.795	212.993	289.840	315.541	304.477	277.396	259.945	201.456	-11.149	15.631	224.079	-21.128	33.599	73.844	263.491	0.0001761	0.00046574	7.2827e-05	1520.7	4.8557e-06	4.299e-06	1521.6	404.8	2.8485e-06	5.7017e-06	467.26	158.47	138.29	48.367	6.3273e-06	59.438	0.00036152	0.00035884	0.00010069	1525.5	3.8933e-06	3.9289e-06	1530.6	408.82	4.0376e-06	3.896e-06	470.1	162.05	140.53	49.003	4.0967e-06	60.171	191.583	14.695	65.707	-30.781	144.089	92.925	-30.582	-26.293	166.983	81.149	-26.674	-22.001	-21.345	-17.684	105.740	-17.851	-8191	255	
39250.098	1	1	0	0	0.11145	0.17092	0.24288	0.282	0.18443	0.25266	0.19967	0.16256	0.06731	0.30968	0.095203	0.11489	0.049086	0.10736	0.2439	0.1061	-3.5771	-4.1521	-3.3042	-4.4167	-3.75	-3.5354	-4.6083	-3.6437	-4.0563	-4.3479	-3.4854	-4.3583	-3.9021	-3.5812	-4.4583	-3.7604	223.103	212.010	216.638	285.185	182.434	17.878	252.633	251.069	161.138	13.313	309.103	252.986	217.960	124.213	51.397	-39.257	0.0001451	0.00084671	0.00012143	1524.2	3.0161e-06	4.5292e-06	1513.4	406.76	8.8908e-07	5.2165e-06	466.39	159.53	138.72	48.322	1.0907e-06	59.624	0.00038044	0.00037585	0.00010381	1526.6	4.2249e-06	4.2131e-06	1527.6	408.65	4.239e-06	4.1855e-06	470.33	162.43	141.03	49.104	4.3321e-06	60.238	174.809	40.502	32.497	-30.940	131.490	112.236	-30.550	-26.252	163.552	91.490	-26.911	-21.904	-21.803	-17.233	90.055	-18.196	-8191	255	
39250.191	1	1	0	0	0.11546	0.09473	0.4207	0.1058	0.085768	0.25225	0.15775	0.33657	0.040414	0.26005	0.23474	0.15961	0.13383	0.12053	0.33117	0.28738	-3.5875	-4.3771	-3.6854	-4.5062	-3.9292	-3.6833	-4.5604	-3.7542	-3.8854	-4.3146	-3.6958	-4.3521	-4.0667	-3.6188	-4.4542	-3.8354	184.209	294.860	-43.718	282.466	199.275	59.285	287.499	243.779	258.444	52.139	-9.752	229.805	205.500	172.863	306.807	299.352	0.00018998	0.000596	0.00014029	1521	2.996e-06	4.4553e-06	1521.8	403.39	3.0363e-06	4.4551e-06	465.74	158.84	139.33	48.332	3.5695e-06	59.392	0.0003882	0.00038808	0.00010886	1523.8	4.3115e-06	4.3682e-06	1528.4	408.39	4.4053e-06	4.2817e-06	469.77	161.96	141.03	49.058	4.2209e-06	60.172	185.043	49.387	82.014	-30.814	130.766	64.415	-30.739	-26.466	116.696	85.866	-26.429	-21.946	-22.112	-17.408	121.344	-17.833	-8191	255	
39250.289	1	1	0	0	0.19135	0.046263	0.026691	0.12713	0.059882	0.37858	0.044467	0.19347	0.12751	0.041336	0.099169	0.09155	0.13147	0.19788	0.10454	0.050801	-3.5125	-4.3146	-3.4958	-4.4104	-3.8021	-3.6708	-4.5083	-3.8458	-3.8625	-4.3063	-3.5875	-4.175	-4.0396	-3.6813	-4.3583	-3.7729	306.180	222.409	10.782	-16.525	185.038	146.723	168.115	212.348	189.722	132.010	-26.919	-3.137	223.865	262.943	109.450	310.506	0.00014045	0.00030925	0.00017122	1520.5	4.2337e-06	7.3754e-06	1526.7	406.21	4.3352e-06	6.1301e-06	464.91	158.97	138.41	48.296	3.7856e-06	59.703	0.00038809	0.00038454	0.00010609	1527.6	4.2563e-06	4.2447e-06	1530.3	409.08	4.2993e-06	4.2012e-06	469.98	162.24	141.21	49.025	4.1673e-06	60.245	174.086	57.225	45.116	-30.862	100.170	130.586	-30.625	-26.405	119.340	83.175	-26.722	-21.802	-22.008	-17.271	176.174	-17.705	-8191	255	
39250.383	1	1	0	0	0.26125	0.22344	0.28699	0.14742	0.098334	0.12825	0.18661	0.26486	0.13204	0.117	0.12149	0.18843	0.11938	0.225	0.17412	0.069616	-3.375	-4.3771	-3.5583	-4.3938	-4.1333	-3.4417	-4.5375	-4.025	-3.6646	-4.3792	-3.6604	-4.2875	-4.3167	-3.575	-4.3125	-4.0521	260.914	28.139	-32.163	-37.601	55.987	115.776	216.426	271.650	-32.762	45.855	272.932	264.679	-7.479	279.409	96.714	212.550	0.00015687	0.00037807	0.00012029	1518.2	1.4245e-06	5.8652e-06	1516.7	404.59	4.8282e-06	3.521e-06	466.03	158.39	139.07	48.484	8.3016e-06	59.85	0.00038781	0.00039233	0.00010715	1527.1	4.3156e-06	4.2558e-06	1527.9	409.11	4.3869e-06	4.2881e-06	470.47	162.11	141.38	49.106	4.2401e-06	60.416	182.537	66.667	80.863	-30.697	211.353	93.921	-30.582	-26.251	135.880	95.672	-26.732	-21.789	-21.775	-17.581	90.961	-17.943	-8191	255	
39250.480	1	1	0	0	0.15337	0.14533	0.36701	0.13832	0.06586	0.092987	0.085527	0.21819	0.21	0.14068	0.10002	0.31949	0.10032	0.13559	0.015615	0.011404	-3.3312	-4.3667	-3.5604	-4.175	-4.2667	-3.525	-4.5875	-4.1312	-3.65	-4.4896	-3.5792	-4.0813	-4.5021	-3.5271	-4.4146	-4.0292	-33.923	145.899	18.828	2.858	156.764	164.913	299.040	236.214	62.315	179.791	309.344	255.080	243.242	201.840	113.673	-8.975	0.000195	0.00058396	0.00021991	1525.2	2.7897e-06	5.5149e-06	1527.1	407.64	8.1912e-07	5.1118e-06	470.55	161.03	140.32	48.731	3.13e-06	59.961	0.00039018	0.00038545	0.00010692	1533.8	4.1922e-06	4.2159e-06	1535.6	410.82	4.2176e-06	4.1467e-06	473.73	163.97	142.49	49.378	4.2415e-06	60.708	173.589	24.976	48.356	-30.611	177.305	95.472	-30.729	-26.082	219.684	112.751	-26.869	-21.900	-21.756	-17.682	114.222	-18.177	-8191	255	
39250.602	1	1	0	0	0.14358	0.15432	0.16182	0.28033	0.13011	0.18584	0.14619	0.24018	0.055605	0.23543	0.18397	0.187	0.11307	0.38102	0.039429	0.26173	-3.3292	-4.2708	-3.4792	-4.1354	-4.425	-3.3646	-4.5563	-4.2354	-3.4313	-4.4938	-3.7083	-3.8937	-4.6417	-3.3625	-4.3917	-4.0604	266.923	230.737	204.653	265.086	169.719	86.259	289.944	269.594	274.034	-21.173	253.439	314.478	206.284	248.430	21.212	314.141	0.00022899	0.00047457	0.00021482	1530.9	4.518e-06	4.2122e-06	1530.5	405.52	3.6275e-06	4.2311e-06	469.61	160.88	139.65	48.971	3.7143e-06	60.511	0.00037858	0.00038283	0.00010398	1534	4.2431e-06	4.1979e-06	1537.8	411.28	4.2452e-06	4.1579e-06	472.91	163.78	142.35	49.483	4.2206e-06	60.906	176.472	38.988	72.594	-30.750	42.915	110.365	-30.430	-26.148	129.282	75.045	-26.482	-21.931	-21.498	-17.315	137.607	-18.021	-8191	255	
39250.672	1	1	0	0	0.086862	0.1243	0.13392	0.32446	0.29466	0.10455	0.37504	0.15256	0.1272	0.11459	0.024295	0.24704	0.070475	0.12015	0.13678	0.23325	-3.0625	-4.5458	-3.6688	-3.9729	-4.3917	-3.3729	-4.525	-4.3396	-3.1625	-4.3917	-3.6958	-3.8896	-4.5542	-3.5479	-4.1229	-4.3187	214.903	-0.053	85.224	294.309	2.047	218.020	232.610	183.415	127.132	285.562	0.244	289.346	276.921	213.521	-40.180	300.945	0.00018057	0.0003549	0.00013992	1530.3	4.5558e-06	4.5335e-06	1540	407.78	3.1295e-06	6.7836e-06	473.15	160.67	140.81	48.779	6.1695e-06	59.902	0.0003844	0.00037145	0.00010531	1538.9	4.1602e-06	4.0891e-06	1545.3	412.21	4.1663e-06	4.0916e-06	474.4	164.05	142.83	49.462	4.202e-06	60.67	174.109	48.957	22.352	-30.722	133.087	53.604	-30.726	-26.164	73.765	98.323	-26.688	-21.986	-21.608	-17.572	143.736	-17.961	-8191	255	
39250.770	1	1	0	0	0.18155	0.22025	0.18241	0.15781	0.16313	0.11402	0.36122	0.2084	0.3392	0.10122	0.14626	0.13913	0.22275	0.17513	0.11617	0.14631	-3.0479	-4.4417	-3.6354	-3.9104	-4.4104	-3.4479	-4.3896	-4.4792	-3.5646	-4.5229	-3.9042	-3.8937	-4.5188	-3.6375	-4.0979	-4.2854	-16.840	267.015	74.096	263.607	68.607	186.945	253.629	311.227	277.332	-6.008	-0.710	311.203	47.854	308.055	-39.111	195.950	0.00017771	0.00041935	0.00013581	1535.6	3.6382e-06	4.7938e-06	1529.6	406.58	3.5524e-06	2.7763e-06	469.73	158.75	139.55	48.69	7.8442e-06	60.026	0.00037194	0.00036062	0.00010463	1535.7	4.0737e-06	4.0853e-06	1536.3	410.93	4.0618e-06	4.0139e-06	471.45	163.06	141.87	49.236	4.071e-06	60.445	173.527	35.920	45.818	-30.858	107.938	129.050	-30.519	-26.248	89.410	65.140	-26.879	-22.122	-21.621	-17.517	112.388	-18.169	-8191	255	
39250.863	1	1	0	0	0.17635	0.15474	0.32752	0.28726	0.036959	0.19655	0.33055	0.39812	0.098022	0.13358	0.15175	0.21435	0.24994	0.13811	0.043837	0.12523	-3.2479	-4.6167	-3.7917	-3.725	-4.5188	-3.4	-4.2625	-4.4771	-3.5812	-4.4375	-4.0042	-3.9146	-4.5083	-3.6417	-4.0375	-4.3938	84.433	175.247	167.667	-40.579	65.938	153.063	272.854	233.088	-35.114	118.623	63.502	258.702	185.405	-13.814	231.432	269.894	0.00019671	0.00043167	0.0002004	1526.2	5.9098e-06	3.6185e-06	1530.5	405.42	2.492e-06	4.7164e-06	468.77	159.41	139.39	48.409	3.1882e-06	59.522	0.00037632	0.00036947	0.00010335	1530.7	4.0173e-06	4.0698e-06	1538.3	409.41	4.107e-06	4.0546e-06	470.33	162.49	141.58	49.062	4.143e-06	60.298	172.994	15.256	53.941	-30.880	101.993	95.448	-30.614	-26.247	141.703	64.939	-26.768	-21.992	-21.762	-17.714	127.320	-18.056	-8191	255	
39250.984	1	1	0	0	0.028759	0.18397	0.10431	0.30567	0.26541	0.29409	0.12349	0.06091	0.010686	0.096111	0.34272	0.098908	0.35676	0.1863	0.11229	0.11461	-3.2625	-4.275	-3.925	-3.7875	-4.5708	-3.4938	-4.1708	-4.4792	-3.3583	-4.3396	-4.0354	-3.6417	-4.5208	-3.8396	-3.9021	-4.4437	129.414	6.003	194.447	253.464	21.353	84.666	278.046	111.786	147.596	69.794	251.599	295.595	264.761	268.243	-8.000	265.887	0.00020861	0.00062461	7.6539e-05	1529.2	4.5884e-06	4.1214e-06	1529.5	403.29	3.2997e-06	4.6463e-06	468.79	159.5	138.88	48.455	4.9704e-06	59.724	0.00037457	0.00036638	0.00010356	1532.9	4.1006e-06	4.1258e-06	1535.8	409.34	4.1386e-06	4.051e-06	471.16	162.78	141.56	49.109	4.1831e-06	60.369	172.511	29.290	40.039	-31.092	112.878	97.369	-30.791	-26.299	122.568	108.122	-26.848	-21.941	-21.542	-17.382	104.400	-18.058	-8191	255	
39251.078	1	1	0	0	0.084348	0.26908	0.14073	0.18038	0.093566	0.050757	0.11414	0.27807	0.072271	0.081083	0.056822	0.041896	0.10924	0.070374	0.094168	0.19764	-3.1146	-4.225	-4.0125	-3.7396	-4.3917	-3.55	-4.0687	-4.5417	-3.4042	-4.1062	-4.2667	-3.3937	-4.5833	-3.8375	-3.9167	-4.7271	0.874	257.953	180.557	255.486	95.678	-42.347	223.382	224.086	62.158	5.452	255.216	121.910	275.811	62.338	142.013	243.361	0.0001664	0.00031897	8.4533e-05	1529.8	4.2051e-06	6.6859e-06	1525.8	404.14	3.1e-06	5.8771e-06	465.5	159.27	139.89	48.456	7.0811e-06	59.644	0.00037887	0.0003834	0.00010527	1532.5	4.2151e-06	4.1474e-06	1536.3	408.86	4.2363e-06	4.2515e-06	470.16	162.72	141.89	49.074	4.225e-06	60.377	167.370	44.184	72.602	-30.617	139.725	103.504	-30.723	-26.244	161.986	135.190	-26.655	-21.886	-21.591	-17.357	92.183	-17.690	-8191	255	
39251.176	1	1	0	0	0.16131	0.13064	0.36537	0.11449	0.10923	0.29383	0.12448	0.24077	0.049453	0.17244	0.15579	0.15797	0.32386	0.22707	0.28323	0.022954	-2.9938	-4.3229	-4.0646	-3.7208	-4.5021	-3.6521	-4.1104	-4.6562	-3.3896	-4.1687	-4.2521	-3.7229	-4.4896	-3.9125	-3.6937	-4.6146	264.920	190.715	265.629	219.631	214.223	208.422	235.467	293.554	-37.700	3.880	278.066	-37.002	275.861	289.109	-3.812	63.949	0.00019262	0.00096453	0.00019961	1523.7	5.2126e-06	5.8602e-06	1526.3	404.95	3.9293e-06	6.7816e-06	468.11	158.9	139.01	48.045	2.6137e-06	59.406	0.00038084	0.00038824	0.00010639	1530.2	4.1533e-06	4.2471e-06	1535.9	409.07	4.303e-06	4.2543e-06	471.22	162.03	141.34	48.93	4.2734e-06	60.202	182.090	44.372	29.402	-30.983	141.651	123.145	-30.613	-26.086	125.424	84.692	-26.767	-22.050	-21.717	-17.414	147.070	-17.611	-8191	255	
39251.273	1	1	0	0	0.062214	0.20465	0.24373	0.35044	0.083387	0.46743	0.12481	0.13671	0.22839	0.14622	0.042139	0.14622	0.16549	0.16585	0.22736	0.14893	-3.0667	-4.0833	-4.2146	-3.8604	-4.2937	-3.7354	-3.8708	-4.6229	-3.3417	-3.925	-4.4375	-3.5521	-4.4646	-4.05	-3.7792	-4.7167	180.933	2.752	55.121	294.970	261.514	160.671	295.421	297.235	283.885	50.590	271.976	303.724	278.744	229.003	297.596	152.585	0.00015305	0.00043521	0.0001665	1522.2	4.8368e-06	2.0818e-06	1526.7	403.88	1.9482e-06	7.9893e-06	465.39	158.36	138.54	48.177	7.6695e-06	59.672	0.00038774	0.00038451	0.00010623	1526	4.2633e-06	4.2546e-06	1531.5	408.71	4.3789e-06	4.3699e-06	469.32	161.59	141.14	48.892	4.3829e-06	60.204	176.888	64.382	72.589	-30.905	109.670	77.059	-30.562	-26.031	129.169	114.434	-26.787	-22.188	-21.561	-17.711	138.029	-17.971	-8191	255	
39251.367	1	1	0	0	0.017532	0.087971	0.11321	0.24191	0.14456	0.093308	0.20006	0.29601	0.13152	0.1891	0.33768	0.33121	0.12662	0.30471	0.3087	0.039676	-3.1458	-3.8979	-4.2812	-3.6292	-4.3771	-3.8042	-3.8271	-4.5583	-3.6417	-3.7687	-4.4229	-3.5125	-4.425	-4.0167	-3.5125	-4.5979	175.527	244.501	132.280	283.783	-42.475	178.387	252.738	267.195	315.473	291.452	278.287	264.636	308.726	262.292	211.929	169.996	0.00016704	0.00062936	6.3108e-05	1525.2	5.6983e-06	4.0515e-06	1525.8	405.85	3.1735e-06	6.4402e-06	467.93	158.53	138.72	48.361	3.0469e-06	59.698	0.00038616	0.00038965	0.00010718	1528.9	4.372e-06	4.2688e-06	1533.3	409.61	4.383e-06	4.3362e-06	470.18	161.83	141.29	48.939	4.3663e-06	60.255	185.726	51.762	7.110	-30.918	146.686	89.245	-30.613	-26.125	141.764	135.365	-26.635	-21.771	-21.584	-17.566	128.659	-17.568	-8191	255	
39251.465	1	1	0	0	0.13088	0.049023	0.17674	0.19865	0.19262	0.11316	0.091651	0.094775	0.023751	0.21442	0.086811	0.40099	0.29234	0.25918	0.088935	0.13641	-3.2375	-3.8729	-4.2354	-3.4521	-4.2854	-3.9521	-3.7062	-4.6667	-3.5729	-3.6854	-4.4021	-3.3979	-4.5625	-4.0938	-3.4875	-4.6667	186.514	310.101	257.127	266.252	312.260	103.630	295.120	308.803	40.419	237.429	290.097	236.191	245.450	277.402	69.744	300.130	0.00019518	0.00061409	0.00016015	1519.6	4.7997e-06	4.9725e-06	1526.3	404.7	4.5021e-06	5.8041e-06	467.32	158.66	139.67	48.15	6.9807e-06	59.588	0.00038688	0.00039366	0.00010696	1526.4	4.3388e-06	4.2619e-06	1533.1	409.25	4.3691e-06	4.3435e-06	470.5	161.86	141.52	48.885	4.3436e-06	60.219	180.494	55.965	55.524	-30.882	167.522	67.974	-30.562	-26.066	135.546	126.516	-26.460	-22.141	-21.409	-17.621	106.391	-17.921	-8191	255	
39251.586	1	1	0	0	0.065274	0.083392	0.11393	0.37818	0.095004	0.040182	0.30884	0.082399	0.20602	0.30534	0.21958	0.088766	0.20471	0.17101	0.32204	0.23951	-3.3896	-3.8396	-4.275	-3.8271	-4.3167	-4.0208	-3.8417	-4.6375	-3.5917	-3.9688	-4.4542	-3.5625	-4.3042	-4.0208	-3.4458	-4.3333	133.824	223.655	166.332	284.580	168.714	296.905	251.503	252.925	143.772	143.221	280.282	284.222	19.307	162.268	132.735	274.124	0.00017514	0.000483	0.00017488	1527.1	5.363e-06	4.7488e-06	1528.9	405.55	3.0784e-06	5.337e-06	467.13	158.94	138.47	48.25	4.8875e-06	59.581	0.00039007	0.0003856	0.00010782	1529.3	4.2436e-06	4.2408e-06	1534.2	409.77	4.2935e-06	4.2489e-06	470.36	162.08	141.39	48.988	4.3107e-06	60.348	166.446	19.660	46.229	-31.074	149.826	92.632	-30.714	-26.198	99.173	89.004	-26.708	-21.917	-21.216	-17.617	87.702	-17.672	-8191	255	
39251.680	1	1	0	0	0.344	0.19036	0.25538	0.069655	0.15257	0.14092	0.36697	0.16229	0.18039	0.20065	0.2538	0.060248	0.22834	0.064412	0.19368	0.17373	-3.2562	-3.7833	-4.3396	-3.7417	-4.15	-4.1687	-3.875	-4.4812	-3.9313	-3.8979	-4.4771	-3.75	-4.1396	-4.2854	-3.45	-4.4625	209.857	232.020	142.011	232.719	111.417	251.139	280.589	-39.973	86.545	221.086	267.597	153.824	-15.909	-39.625	249.089	273.863	0.00016888	0.00081343	3.9067e-05	1520.8	2.9747e-06	8.8809e-06	1532.2	406.14	3.8295e-06	5.2839e-06	469.91	159.27	139.93	48.317	4.959e-06	59.531	0.00038156	0.00038463	0.00010715	1528.7	4.2254e-06	4.1783e-06	1537.1	410.17	4.2341e-06	4.2162e-06	471.57	162.15	141.71	48.971	4.2569e-06	60.329	170.165	43.927	41.972	-30.874	108.026	130.333	-30.681	-26.199	144.114	90.962	-26.735	-22.063	-21.417	-17.320	94.724	-17.643	-8191	255	
39251.777	1	1	0	0	0.16453	0.14723	0.12345	0.13119	0.23388	0.18695	0.37121	0.1785	0.080347	0.10616	0.24036	0.20154	0.0937	0.079863	0.10714	0.30975	-3.7479	-3.8917	-4.4292	-3.7021	-4.1167	-4.1771	-3.6583	-4.4854	-3.9875	-3.6958	-4.4229	-3.6083	-4.1438	-4.2812	-3.5833	-4.4896	180.808	103.727	152.915	233.749	254.412	33.785	219.809	212.049	205.038	284.045	232.447	279.247	277.910	208.471	214.765	282.201	0.00020538	0.00049241	0.00011226	1526.1	6.3789e-06	5.5496e-06	1531.5	405.57	3.533e-06	3.0608e-06	470.59	159.21	139.89	48.678	5.2627e-06	60.239	0.00038352	0.00037663	0.00010447	1531.5	4.1725e-06	4.1437e-06	1539.3	410.68	4.1129e-06	4.1499e-06	472.38	162.38	141.83	49.15	4.3339e-06	60.554	184.547	38.476	60.040	-30.746	102.538	94.035	-30.568	-25.998	146.623	96.146	-26.503	-21.972	-21.586	-17.463	133.493	-17.900	-8191	255	
39251.895	1	1	0	0	0.11629	0.18548	0.078338	0.16798	0.18749	0.014769	0.15304	0.31978	0.13976	0.24036	0.069055	0.1649	0.093061	0.17415	0.062929	0.13812	-3.5771	-3.7313	-4.4083	-3.6625	-3.8958	-4.4062	-3.6542	-4.6479	-3.9833	-3.5333	-4.6937	-3.7271	-4.0417	-4.5437	-3.5208	-4.4417	177.839	57.139	175.247	301.951	139.652	138.500	249.147	261.664	-15.101	192.453	167.772	16.559	303.798	-33.138	98.176	261.766	0.00018762	0.00064912	0.00011503	1533.2	3.4898e-06	4.7669e-06	1526.9	406.64	4.7485e-06	2.5417e-06	468.62	160.01	139.53	48.51	4.5765e-06	59.847	0.00037238	0.00037362	0.00010552	1534.1	4.1564e-06	4.0542e-06	1536.6	411.6	4.1011e-06	4.13e-06	472.18	162.86	142.02	49.178	4.1127e-06	60.643	186.172	54.074	8.275	-30.856	138.963	106.708	-30.760	-25.955	148.905	38.628	-26.520	-22.128	-21.449	-17.348	98.786	-17.906	-8191	255	
39251.969	1	1	0	0	0.15497	0.07317	0.054536	0.18113	0.23084	0.2382	0.34287	0.37745	0.037552	0.069737	0.24781	0.3535	0.31264	0.22489	0.19478	0.19108	-3.6625	-3.4292	-4.3313	-3.9229	-3.7729	-4.3625	-3.6979	-4.5375	-4.0771	-3.575	-4.5188	-3.7271	-3.7583	-4.5458	-3.2375	-4.1292	-10.831	-14.585	282.350	312.451	-5.532	53.316	278.866	231.558	86.912	-2.170	273.408	260.803	283.885	259.433	-10.174	295.439	0.00017376	0.00035347	4.0352e-05	1531.5	6.0127e-06	6.0987e-06	1532.5	407.21	3.0571e-06	5.9606e-06	470.76	159.18	140.17	48.482	4.354e-06	60.118	0.00037649	0.0003691	0.00010112	1534	4.1046e-06	3.9351e-06	1538.9	411.42	4.1052e-06	4.0895e-06	471.8	162.6	142.29	49.183	4.0959e-06	60.704	181.319	59.219	59.649	-30.936	145.141	93.555	-30.721	-25.984	40.659	113.958	-26.530	-22.283	-21.744	-17.367	140.211	-17.678	-8191	255	
39252.062	1	1	0	0	0.1776	0.11326	0.19747	0.11456	0.12181	0.07782	0.19996	0.21811	0.092035	0.076892	0.050157	0.2419	0.21949	0.22353	0.22162	0.1967	-3.9083	-3.3187	-4.4833	-3.85	-3.7146	-4.5083	-3.6688	-4.3958	-4.0667	-3.3917	-4.7083	-3.7125	-3.9083	-4.6312	-3.4667	-4.225	243.314	188.116	278.736	71.573	127.661	280.832	272.667	256.287	7.337	30.434	61.953	269.525	-20.800	-9.906	66.713	218.628	0.00017717	0.00049566	0.00015345	1529.8	2.7011e-06	3.3562e-06	1531.4	408.15	2.8395e-06	6.1371e-06	472.99	159.71	140.37	48.457	4.7042e-06	59.794	0.00036451	0.00036835	0.00010215	1534.8	4.0786e-06	3.9079e-06	1537.2	411.22	4.0545e-06	3.9743e-06	473.11	162.75	142.22	49.095	4.042e-06	60.579	184.334	59.102	76.088	-30.971	165.513	119.815	-30.623	-26.337	119.522	96.544	-26.398	-22.045	-21.545	-17.498	136.748	-17.510	-8191	255	
39252.160	1	1	0	0	0.23321	0.094006	0.21158	0.17963	0.15643	0.086842	0.018473	0.060861	0.021512	0.27321	0.035884	0.22885	0.26691	0.033427	0.15676	0.039621	-3.9042	-3.5229	-4.5125	-4.0979	-3.7208	-4.3479	-3.7	-4.0667	-4.3208	-3.3083	-4.6271	-3.8833	-3.5938	-4.6687	-3.3688	-4.075	161.071	276.988	254.957	270.298	41.371	265.047	173.508	249.649	25.887	20.172	-37.828	276.881	287.668	-24.562	32.906	189.164	0.00018149	0.00046043	0.00010105	1529.9	1.2031e-06	4.7345e-06	1527.7	406.63	4.9997e-06	4.5462e-06	470.4	158.99	139.68	48.517	4.1373e-06	59.762	0.00036936	0.00036396	0.0001013	1534.6	4.1009e-06	4.012e-06	1535.8	411.12	4.0225e-06	4.0261e-06	472.61	162.37	142.2	49.153	4.0954e-06	60.346	175.994	22.029	54.380	-30.950	48.256	59.520	-30.809	-25.871	123.779	88.357	-26.572	-22.049	-21.621	-17.519	116.968	-17.422	-8191	255	
39252.281	1	1	0	0	0.044794	0.22253	0.047246	0.29658	0.10696	0.055697	0.059841	0.1831	0.084061	0.12495	0.058301	0.096341	0.28582	0.16693	0.21827	0.21502	-3.9771	-3.35	-4.3875	-4.2104	-3.6229	-4.5813	-3.7396	-4.2063	-4.525	-3.3667	-4.5875	-4	-3.5417	-4.7625	-3.5396	-4.1062	-5.248	43.221	40.103	304.950	163.352	175.107	26.680	243.794	1.838	250.183	21.213	54.723	-35.773	285.709	184.890	257.701	0.00016562	0.00093001	0.00017624	1526.7	5.4855e-06	8.3229e-06	1526.2	407.98	2.9149e-06	7.0266e-06	471.25	159.02	139.93	48.613	3.7589e-06	59.605	0.00036549	0.00036556	0.00010039	1530.8	4.0611e-06	4.0012e-06	1536	411.54	4.0364e-06	4.0557e-06	472.55	162.21	141.91	49.141	4.0232e-06	60.341	160.223	60.206	49.910	-31.063	135.354	125.542	-30.918	-25.998	142.240	113.525	-26.732	-22.355	-21.755	-17.392	93.358	-17.910	-8191	255	
39252.379	1	1	0	0	0.082836	0.17161	0.18434	0.50589	0.17542	0.081799	0.48841	0.10283	0.035766	0.12283	0.11359	0.061217	0.26788	0.31716	0.10071	0.21973	-4.0792	-3.1875	-4.3646	-4.1875	-3.5583	-4.4479	-3.8563	-4.2083	-4.2937	-3.5021	-4.4812	-3.95	-3.6458	-4.4854	-3.5792	-4.1708	98.763	150.198	-28.535	288.065	199.375	286.587	223.151	297.175	113.778	149.943	293.288	228.297	311.318	-24.955	-18.089	275.996	0.00019405	0.00049132	0.00018341	1534.2	7.5225e-06	3.1176e-06	1527.3	404.84	3.5047e-06	6.5586e-06	467.7	159.12	139.25	48.479	5.686e-06	59.772	0.00037769	0.00036716	0.00010033	1530.3	4.0576e-06	4.03e-06	1532.1	409.95	4.1131e-06	4.0833e-06	471.54	161.8	141.52	49.072	4.1316e-06	60.465	173.480	70.356	56.555	-31.030	118.079	136.110	-30.817	-26.175	164.296	107.008	-26.672	-22.306	-21.922	-17.373	152.315	-17.659	-8191	255	
39252.473	1	1	0	0	0.14335	0.26532	0.22818	0.31664	0.20965	0.17456	0.17833	0.11538	0.050256	0.13291	0.11875	0.21356	0.10421	0.073736	0.067289	0.17783	-4.1354	-3.4729	-4.25	-4.3146	-3.7083	-4.4333	-3.9625	-4.2021	-4.2438	-3.4292	-4.3063	-4.1562	-3.875	-4.5	-3.7313	-3.9313	122.220	7.375	282.807	269.184	272.746	288.931	279.450	213.668	243.249	291.534	123.099	-25.698	254.114	150.889	18.095	309.719	0.0001783	0.00043607	0.00010571	1530.1	3.8227e-06	4.9305e-06	1524.4	408.53	2.9031e-06	6.3218e-06	472.52	160.4	138.76	48.446	4.109e-06	59.798	0.000368	0.00037151	0.00010326	1531.6	4.0862e-06	4.0678e-06	1534.6	411.43	4.0898e-06	4.1243e-06	473.84	162.56	141.56	49.181	4.2011e-06	60.395	187.647	33.434	35.153	-30.875	145.912	104.982	-30.877	-26.087	149.379	58.275	-26.651	-21.860	-21.645	-17.205	135.867	-17.714	-8191	255	
39252.547	1	1	0	0	0.15367	0.16531	0.05792	0.2358	0.2114	0.41057	0.21466	0.33835	0.10556	0.021852	0.19104	0.17141	0.29342	0.22781	0.19077	0.12259	-4.0729	-3.35	-4.2583	-4.2812	-3.3042	-4.5271	-3.8271	-3.8625	-4.3438	-3.5667	-4.1458	-4.3021	-3.5	-4.5708	-3.8708	-3.7208	303.350	-34.792	189.156	-34.347	84.820	146.092	268.876	291.657	223.298	247.905	181.857	230.666	292.577	191.178	148.579	264.855	0.00017841	0.0003899	8.1038e-05	1527.8	3.9097e-06	3.936e-06	1531.9	408.04	3.0173e-06	6.2474e-06	471.95	160.17	140.07	48.776	3.6402e-06	60.27	0.00037075	0.00037044	0.00010557	1536.6	4.1807e-06	3.9596e-06	1537.9	411.66	4.0665e-06	4.1415e-06	473.53	162.98	142.21	49.349	4.1162e-06	60.749	164.169	83.809	44.787	-31.002	95.707	105.913	-30.711	-26.495	127.635	86.913	-27.003	-21.993	-21.485	-17.101	109.620	-17.610	-8191	255	
39252.664	1	1	0	0	0.20128	0.25333	0.18404	0.27892	0.041832	0.15271	0.26834	0.093367	0.023052	0.37658	0.025649	0.10632	0.091481	0.28565	0.13725	0.11088	-3.9938	-3.5062	-3.8875	-4.6917	-3.2792	-4.3875	-4.0167	-3.7458	-4.4917	-3.7146	-4.0167	-4.2146	-3.6854	-4.4479	-3.975	-3.8104	312.227	139.568	295.773	-24.866	215.609	-2.760	273.082	250.688	7.427	178.797	254.590	275.681	296.174	285.085	132.781	54.908	0.00016527	0.00038477	0.00012756	1532.6	2.4999e-06	3.3991e-06	1533.4	410.13	2.1563e-06	1.8317e-06	471.14	161.04	139.86	49.009	5.2229e-06	60.046	0.00036381	0.00036618	0.00010264	1537.8	4.0675e-06	3.9868e-06	1542.1	413.22	4.0436e-06	4.0836e-06	474.49	163.55	142.54	49.501	4.0582e-06	60.732	163.717	55.573	51.250	-31.015	171.499	140.714	-30.840	-26.276	200.414	155.753	-26.599	-22.127	-21.819	-17.484	123.560	-17.639	-8191	255	
39252.762	1	1	0	0	0.16328	0.15867	0.045213	0.38949	0.025156	0.24854	0.096235	0.39983	0.20363	0.14646	0.23539	0.20636	0.10082	0.43386	0.14934	0.26017	-4.0979	-3.3021	-4.0896	-4.2896	-3.5333	-4.1958	-4.2042	-3.7167	-4.3896	-3.6208	-4.1333	-4.4021	-3.7167	-4.2375	-3.9854	-3.7583	25.490	-27.171	86.622	292.420	44.591	170.461	161.882	271.153	193.756	60.787	228.372	244.786	211.335	-16.858	112.255	255.224	0.00017424	0.00054446	0.00018025	1537.9	8.3754e-07	5.5772e-06	1532.1	408.95	1.4619e-06	3.4151e-06	474.12	160.64	139.71	48.724	1.7784e-06	59.962	0.00036209	0.00036992	0.00010306	1540.9	4.0993e-06	4.0785e-06	1540.8	412.96	4.1318e-06	4.1181e-06	474.71	163.47	142.37	49.442	4.0761e-06	60.816	179.830	-5.251	47.276	-31.007	123.756	109.951	-30.731	-26.268	207.722	91.241	-26.726	-22.081	-21.605	-17.349	120.160	-17.845	-8191	255	
39252.859	1	1	0	0	0.22036	0.035631	0.17317	0.27241	0.2999	0.034734	0.35588	0.23761	0.1284	0.14539	0.48636	0.1985	0.12042	0.26668	0.22024	0.33699	-3.9021	-3.6188	-3.8583	-4.5188	-3.4167	-4.2625	-4.3667	-3.6604	-4.4375	-3.7625	-3.875	-4.4688	-3.35	-4.375	-4.0146	-3.5729	-13.264	126.942	218.750	243.519	151.731	211.066	254.925	288.367	272.215	21.851	299.030	-42.049	204.070	-2.084	70.970	312.004	0.0001513	0.0004623	0.00020573	1535.5	3.8035e-06	1.1018e-06	1535.2	407.84	3.8939e-06	8.4374e-06	468.38	159.73	139.78	48.51	3.5335e-06	59.414	0.00036972	0.00037237	0.00010341	1540.1	4.0729e-06	4.0875e-06	1542.6	412.64	4.202e-06	4.1751e-06	473.19	162.79	141.83	49.198	4.1839e-06	60.459	160.680	74.990	35.607	-30.737	91.485	114.816	-30.779	-26.020	127.278	137.084	-26.755	-21.883	-21.634	-17.191	141.850	-17.838	-8191	255	
39252.977	1	1	0	0	0.085857	0.16096	0.076589	0.3052	0.10872	0.046554	0.097566	0.19334	0.14943	0.072804	0.065795	0.054523	0.1328	0.069384	0.19467	0.2899	-4.1896	-3.6354	-3.8688	-4.5958	-3.3708	-4.0938	-4.2458	-3.7042	-4.3562	-3.5229	-3.8271	-4.575	-3.4625	-4.325	-4.1438	-3.5167	300.325	19.179	306.543	282.063	37.152	161.808	270.875	300.532	124.914	237.517	117.475	86.483	235.622	257.986	-10.839	231.379	0.00017004	0.00053687	0.00012027	1536	2.6923e-06	4.9684e-06	1535.4	405.47	3.3824e-06	4.8029e-06	469.98	159.49	139.14	48.565	5.0587e-06	59.592	0.00038729	0.00038517	0.00010594	1538.2	4.2372e-06	4.2434e-06	1540.7	410.8	4.3762e-06	4.2307e-06	472.31	162.56	141.56	49.137	4.3737e-06	60.374	172.451	59.454	32.641	-30.756	133.679	134.414	-30.666	-26.248	128.119	105.984	-26.546	-22.021	-21.675	-17.261	115.439	-17.787	-8191	255	
39253.074	1	1	0	0	0.29551	0.095291	0.10005	0.20335	0.1149	0.0788	0.10253	0.26101	0.11756	0.27056	0.23837	0.23069	0.083995	0.13521	0.26983	0.18261	-4.1083	-3.8812	-3.6333	-4.5208	-3.4562	-3.9708	-4.3708	-3.575	-4.3812	-3.7458	-3.6625	-4.6438	-3.5729	-4.1125	-4.2854	-3.3625	171.336	58.672	-12.890	288.491	46.647	253.967	247.184	255.047	180.932	116.537	250.001	266.629	222.391	-20.990	102.254	44.885	0.00017365	0.00041611	7.4764e-05	1531.5	4.6074e-06	6.8386e-06	1532.1	406.62	2.9733e-06	6.1943e-06	471.77	160.02	139.5	48.594	6.5484e-06	59.553	0.00038321	0.00039547	0.00010779	1538.9	4.3879e-06	4.3251e-06	1540.6	411.21	4.307e-06	4.3165e-06	472.85	162.91	141.71	49.269	4.2571e-06	60.383	192.132	77.090	35.273	-30.866	101.766	96.365	-30.860	-26.234	152.997	116.042	-26.429	-22.043	-21.705	-17.034	116.447	-17.752	-8191	255	
39253.145	1	1	0	0	0.069941	0.20286	0.074497	0.15658	0.11506	0.22779	0.22326	0.24846	0.1768	0.089383	0.34794	0.15064	0.30729	0.3317	0.27041	0.1462	-3.9979	-3.7042	-3.3563	-4.5708	-3.275	-4.0188	-4.4792	-3.4854	-4.3396	-4.1604	-3.6813	-4.5188	-3.7354	-3.9771	-4.3562	-3.3667	272.533	99.450	-19.717	-41.079	111.639	227.134	13.206	241.720	125.220	21.035	295.318	307.513	254.002	274.557	111.179	174.134	0.00016514	0.00050179	0.00012548	1531.9	5.5735e-06	6.085e-06	1535.9	405.92	4.6361e-06	5.9051e-06	472.38	160.49	140.05	48.644	4.2667e-06	60.068	0.00037868	0.00038473	0.00010688	1540.3	4.2284e-06	4.2197e-06	1543	410.9	4.2349e-06	4.1946e-06	473.87	163.36	142.28	49.338	4.1349e-06	60.644	179.161	43.643	78.013	-31.032	135.312	117.077	-30.869	-26.233	145.640	120.729	-26.426	-22.127	-21.806	-17.312	104.775	-18.048	-8191	255	
39253.266	1	1	0	0	0.040723	0.062156	0.14026	0.35443	0.11618	0.17966	0.20721	0.26686	0.16343	0.070727	0.26454	0.059	0.11599	0.24721	0.22199	0.12345	-3.9479	-3.9625	-3.525	-4.5312	-3.5458	-3.8146	-4.3292	-3.5563	-4.4229	-3.9417	-3.7562	-4.4187	-3.9313	-3.85	-4.1479	-3.475	194.223	-38.326	216.802	261.234	294.858	-4.963	198.913	-24.106	171.062	53.309	-23.240	123.324	273.595	192.935	305.057	258.698	0.00017906	0.00073656	0.00014208	1543	2.6226e-06	4.9963e-06	1541.5	408.87	4.8589e-06	4.3381e-06	472.72	161.64	139.85	48.987	5.1692e-06	59.978	0.00038258	0.00038862	0.00010773	1544.6	4.253e-06	4.2103e-06	1549.4	412.56	4.3285e-06	4.2269e-06	474.35	164.05	142.59	49.532	4.3147e-06	60.814	166.504	47.564	50.849	-30.990	146.202	68.709	-30.801	-26.232	138.604	129.045	-26.668	-22.112	-21.813	-17.350	127.064	-17.546	-8191	255	
39253.359	1	1	0	0	0.14912	0.066888	0.10363	0.32644	0.30077	0.094414	0.33391	0.088577	0.21762	0.14972	0.092963	0.31108	0.22076	0.054207	0.13242	0.11657	-3.8583	-4.1333	-3.4062	-4.7604	-3.5271	-3.6688	-4.6667	-3.7708	-4.3187	-4.1917	-3.6688	-4.6188	-3.7208	-3.9542	-4.4187	-3.2562	82.356	-37.497	100.205	288.395	292.834	-8.124	244.956	257.911	23.461	88.059	310.093	273.027	255.940	21.423	49.954	8.572	0.00021067	0.00065273	4.9111e-05	1550.2	4.6941e-06	3.2761e-06	1549.7	409.52	3.5885e-06	6.7589e-06	473.47	160.47	140.94	49.227	6.3167e-06	60.103	0.00038123	0.00038815	0.00010767	1551.3	4.3157e-06	4.3132e-06	1554.9	413.88	4.3792e-06	4.2179e-06	475.6	164.24	142.91	49.751	4.3603e-06	60.956	176.792	72.716	10.493	-30.729	96.435	142.233	-30.631	-26.338	157.658	122.584	-26.808	-21.950	-21.611	-17.128	52.486	-17.946	-8191	255	
39253.457	1	1	0	0	0.21771	0.15702	0.16898	0.1379	0.14363	0.19382	0.19852	0.22385	0.26047	0.05171	0.1698	0.19071	0.11413	0.077351	0.18983	0.070826	-3.9854	-4.0083	-3.3854	-4.6292	-3.7146	-3.6312	-4.6479	-3.3604	-4.1146	-4.2583	-3.4396	-4.5813	-3.8229	-3.6104	-4.5563	-3.4646	245.027	113.901	-22.700	286.307	74.968	22.249	240.686	284.436	132.628	59.188	264.776	287.935	310.645	281.993	286.353	54.121	0.00019473	0.00050603	5.0524e-05	1549.6	5.1006e-06	3.5663e-06	1546.3	407.59	2.8557e-06	4.2849e-06	475.54	161.6	140.86	48.986	3.741e-06	60.169	0.00039879	0.00039778	0.00011272	1553.1	4.4026e-06	4.4408e-06	1554.8	413.19	4.4228e-06	4.3423e-06	475.77	164.52	143.1	49.71	4.4297e-06	60.818	178.835	63.590	45.540	-30.717	114.062	130.841	-30.856	-26.438	104.586	115.713	-26.676	-21.981	-21.737	-17.512	40.967	-18.212	-8191	255	
39253.578	1	1	0	0	0.079177	0.21757	0.15508	0.36529	0.18841	0.14844	0.31901	0.30819	0.18069	0.07062	0.15898	0.1408	0.19985	0.21452	0.11824	0.085714	-3.6458	-4.0958	-3.3625	-4.6958	-3.8937	-3.525	-4.6604	-3.65	-3.9583	-4.0687	-3.6312	-4.4313	-3.95	-3.5354	-4.2333	-3.5792	144.800	69.253	74.518	233.315	127.340	138.225	239.082	275.781	113.278	115.928	173.600	273.729	23.239	-11.969	20.586	224.101	0.00019852	0.00032348	0.00020978	1544.7	5.019e-06	4.4358e-06	1542.1	407.58	3.0449e-06	6.1296e-06	471.48	161.8	140.4	49.212	4.0472e-06	60.487	0.00040268	0.00040531	0.00011297	1553.3	4.4827e-06	4.4388e-06	1552.6	413.11	4.4573e-06	4.5194e-06	475.23	164.7	142.92	49.799	4.5537e-06	60.957	182.615	18.532	67.389	-30.751	103.779	109.788	-30.769	-26.387	84.275	76.367	-26.783	-22.073	-21.663	-17.422	99.187	-17.838	-8191	255	
39253.676	1	1	0	0	0.14918	0.13224	0.22988	0.26489	0.19475	0.048827	0.45982	0.14657	0.19302	0.055819	0.16217	0.21185	0.1792	0.11702	0.070331	0.1862	-3.5438	-4.3333	-3.2667	-4.425	-3.8167	-3.4583	-4.6042	-3.7167	-3.8312	-4.1396	-3.5292	-4.2167	-3.9458	-3.6521	-4.2854	-3.5292	106.171	128.662	150.333	277.064	-25.473	104.813	268.280	222.879	274.107	287.800	-43.332	241.075	-43.946	241.889	51.114	180.898	0.0001519	0.00077486	0.00017429	1552.8	4.4833e-06	4.5856e-06	1547.6	408.98	1.6368e-06	4.0094e-06	470.85	161.99	140.09	49.135	4.3428e-06	60.19	0.00040912	0.00040819	0.00011669	1554.4	4.4148e-06	4.5621e-06	1555.2	413.65	4.5454e-06	4.569e-06	475.49	164.81	142.86	49.755	4.4728e-06	60.911	192.013	35.958	71.161	-30.864	149.117	48.738	-30.736	-26.243	161.139	88.477	-26.960	-21.944	-21.681	-17.451	91.280	-17.754	-8191	255	
39253.770	1	1	0	0	0.14946	0.1479	0.11302	0.40591	0.17072	0.16167	0.17368	0.31473	0.2634	0.14123	0.14251	0.17238	0.16152	0.13474	0.085191	0.066235	-3.5021	-4.3187	-3.6604	-4.3771	-3.9688	-3.3792	-4.4812	-3.6688	-3.6813	-4.3229	-3.6208	-4.3583	-4.0854	-3.4271	-4.425	-3.7313	229.447	0.237	21.921	254.100	145.030	222.088	203.853	250.051	249.506	302.574	-6.980	267.426	239.313	-32.711	4.856	-23.114	0.00022523	0.00071209	0.00011988	1541.1	5.2291e-06	4.1165e-06	1550.2	409.04	3.0551e-06	7.1929e-06	474.4	161.15	140.41	49.023	6.569e-06	60.08	0.00040368	0.00041505	0.00011196	1554	4.5258e-06	4.5002e-06	1556.4	413.72	4.5958e-06	4.5662e-06	475.93	164.66	143.04	49.718	4.5109e-06	60.996	162.371	54.989	99.560	-31.011	115.448	123.655	-30.491	-26.397	112.872	132.982	-26.481	-22.000	-21.597	-17.368	94.189	-17.688	-8191	255	
39253.844	1	1	0	0	0.17132	0.12942	0.14843	0.16116	0.31549	0.031881	0.31923	0.28605	0.106	0.066014	0.34782	0.14028	0.041757	0.1471	0.073929	0.14384	-3.4375	-4.4583	-3.5438	-4.2354	-4.1604	-3.3854	-4.5813	-3.8812	-3.8438	-4.2208	-3.5812	-4.1167	-4.1875	-3.7458	-4.3104	-3.8312	-39.918	230.305	13.081	265.040	-41.263	22.442	285.805	271.149	167.250	215.407	268.584	276.453	119.658	-3.792	91.126	300.188	0.00015692	0.00053613	0.00022021	1551.4	4.0355e-06	4.7543e-06	1549.7	409.27	4.3482e-06	2.8359e-06	473.71	161.66	140.43	48.967	7.071e-06	59.994	0.0004114	0.00040651	0.00011392	1556.4	4.538e-06	4.4903e-06	1558.4	414.15	4.5681e-06	4.4683e-06	476.72	165.02	143.33	49.741	4.5622e-06	61.069	168.152	43.880	65.582	-30.695	176.928	128.454	-30.709	-26.306	161.913	103.715	-26.696	-22.025	-21.639	-17.563	135.340	-18.095	-8191	255	
39253.938	1	1	0	0	0.077933	0.049705	0.037599	0.29129	0.15105	0.12656	0.12227	0.18698	0.088155	0.044771	0.29748	0.095523	0.094875	0.18824	0.1213	0.15674	-3.3563	-4.3125	-3.4354	-4.4021	-4.0083	-3.3708	-4.6188	-3.8083	-3.5417	-4.4458	-3.5896	-4.0437	-4.3854	-3.5187	-4.3688	-3.9	14.669	238.685	230.688	251.825	120.051	-12.137	260.251	291.207	282.622	102.783	-16.778	-35.123	-39.233	-37.349	256.169	311.453	0.00015668	0.00037984	5.7504e-05	1559.4	4.258e-06	5.198e-06	1547.5	408.21	2.9016e-06	5.631e-06	473.37	161.48	140.66	49.174	3.2431e-06	60.304	0.00041133	0.00041142	0.00011538	1559.4	4.5109e-06	4.5558e-06	1557.3	413.79	4.6145e-06	4.5933e-06	475.85	164.79	143.3	49.781	4.5348e-06	61.032	194.757	44.443	54.440	-30.559	159.694	125.589	-30.675	-26.306	153.143	106.409	-26.608	-22.209	-21.925	-17.300	86.980	-18.043	-8191	255	
39254.059	1	1	0	0	0.29726	0.21496	0.11025	0.33958	0.23152	0.15711	0.1924	0.13433	0.066725	0.049532	0.27186	0.038346	0.42991	0.14828	0.032507	0.19823	-3.2125	-4.3688	-3.5062	-4.1417	-4.1021	-3.4188	-4.3708	-4.0396	-3.5187	-4.2771	-3.5625	-3.8937	-4.35	-3.5375	-4.1917	-3.9104	233.161	-3.946	254.739	277.530	119.728	2.625	-31.490	260.939	-25.481	-18.058	238.266	242.910	272.679	-22.051	245.993	-14.229	0.0001848	0.0004196	2.8395e-05	1550.2	3.2704e-06	5.1071e-06	1550.3	409.83	3.102e-06	3.4409e-06	474.02	161.67	140.45	49.275	3.4001e-06	60.143	0.00041223	0.00042453	0.00011449	1553.5	4.5891e-06	4.5157e-06	1556.6	414.18	4.694e-06	4.5377e-06	475.86	165.12	143.47	49.885	4.6055e-06	61.056	175.212	24.660	72.025	-30.959	128.761	104.680	-30.631	-26.230	161.367	100.549	-26.649	-22.021	-21.753	-17.570	128.693	-18.128	-8191	255	
39254.152	1	1	0	0	0.031373	0.1446	0.22231	0.46471	0.078231	0.18106	0.19125	0.2249	0.11734	0.074673	0.16942	0.24519	0.34998	0.48395	0.063706	0.15564	-3.1875	-4.2646	-3.5354	-4.1333	-4.2146	-3.6208	-4.5188	-4.2708	-3.5208	-4.4458	-3.6021	-4.0146	-4.5479	-3.5146	-4.2229	-4.0625	-14.340	306.132	132.403	-43.823	156.030	95.805	308.390	279.941	177.683	94.513	220.703	238.939	258.230	217.564	234.582	-22.904	0.00023521	0.000568	0.00010929	1548.6	5.9664e-06	2.8376e-06	1553	409.2	2.5605e-06	5.3682e-06	473.29	162.35	139.65	48.772	3.6253e-06	60.171	0.00041618	0.000407	0.00011552	1556.2	4.6159e-06	4.5855e-06	1558.7	413.95	4.6496e-06	4.5017e-06	474.84	164.67	142.87	49.484	4.5867e-06	60.783	175.399	61.961	30.915	-30.788	140.728	116.433	-30.572	-26.035	96.456	104.222	-26.482	-21.846	-21.856	-17.349	97.534	-18.047	-8191	255	
39254.250	1	1	0	0	0.10316	0.077633	0.16458	0.14176	0.16151	0.29836	0.2219	0.096774	0.11514	0.15226	0.01398	0.055437	0.22352	0.16519	0.14105	0.10335	-3.0083	-4.4604	-3.6562	-3.8063	-4.2604	-3.45	-4.4437	-4.2979	-3.3812	-4.5125	-3.7938	-3.8646	-4.5604	-3.3812	-4.1604	-4.3229	314.355	48.534	94.587	313.687	280.180	9.223	165.887	311.020	-2.987	42.735	196.732	9.587	309.522	309.265	162.579	87.003	0.0001843	0.00048691	0.00014185	1550.8	3.0779e-06	8.5025e-06	1544.1	408.04	2.1275e-06	6.225e-06	474.75	161.27	140.65	49.059	5.7898e-06	60.534	0.00041919	0.00041181	0.00011637	1552.8	4.5872e-06	4.5577e-06	1555	413.33	4.6691e-06	4.5565e-06	476.09	164.77	143.49	49.622	4.5297e-06	61.051	177.122	68.584	59.469	-30.818	160.925	69.226	-30.546	-26.170	134.801	106.402	-26.937	-21.704	-21.359	-17.317	109.509	-17.966	-8191	255	
39254.371	1	1	0	0	0.24458	0.064755	0.23967	0.1997	0.1442	0.22391	0.42164	0.067025	0.11811	0.114	0.24229	0.26266	0.17133	0.16818	0.15048	0.30566	-2.9125	-4.6375	-3.6937	-3.7521	-4.5792	-3.3187	-4.3063	-4.3292	-3.4813	-4.5083	-3.7896	-3.6375	-4.5437	-3.6771	-3.9771	-4.275	230.447	31.092	49.679	-41.861	96.853	-28.599	251.294	11.872	158.514	54.556	270.953	254.711	-17.743	-7.452	277.582	245.816	0.00018161	0.00040975	0.00010051	1545	2.2091e-06	6.3041e-06	1547.6	409.24	2.9184e-06	5.6569e-06	472.08	161.66	140.27	48.802	2.6785e-06	60.06	0.00040589	0.00041201	0.00011106	1553.4	4.5142e-06	4.5587e-06	1555.3	413.26	4.6102e-06	4.5389e-06	474.55	164.65	143.15	49.522	4.6358e-06	60.806	173.737	44.238	64.549	-30.922	121.869	117.492	-30.676	-26.250	175.618	127.527	-26.944	-21.692	-21.749	-17.604	95.330	-18.063	-8191	255	
39254.441	1	1	0	0	0.2151	0.10739	0.3118	0.22804	0.050496	0.10587	0.20457	0.39458	0.06107	0.068461	0.23938	0.11623	0.18592	0.15649	0.075447	0.068594	-3.3229	-4.3708	-3.8187	-3.9313	-4.2167	-3.5417	-4.3271	-4.4083	-3.5125	-4.35	-4.05	-3.8146	-4.4479	-3.6375	-3.9917	-4.2708	98.036	81.587	165.308	289.783	276.467	25.577	239.085	260.849	260.493	101.232	260.976	26.370	256.088	247.265	62.438	38.568	0.0001999	0.00066527	0.0001341	1553.6	6.2913e-06	5.5493e-06	1550.6	410.27	2.7557e-06	6.4207e-06	473.59	160.73	141.07	49.114	4.9747e-06	60.403	0.000411	0.00041273	0.0001129	1554.8	4.4989e-06	4.4919e-06	1555.4	413.84	4.4986e-06	4.548e-06	475.63	164.65	143.34	49.752	4.5822e-06	61.047	172.561	47.107	42.147	-30.826	139.575	104.187	-30.719	-26.182	104.441	71.762	-26.983	-22.100	-21.798	-17.694	85.679	-17.808	-8191	255	
#DATA ENDS
