BOXY.EXE: ISS Imagent and Oximeter Data Acquisition Program Version 0.80
Ascii Record File

#ACQ INFORMATION
2  Detector Channels 
16  External MUX Channels 
1  Auxiliary Channels 
5000  Waveform (CCF) Frequency (Hz)
1  Waveforms Skipped 
30  Waveforms Averaged 
1  Cycles Averaged 
16  Acquisitions per Waveform 
10.0806  Updata Rate (Hz) 

#FILE INFORMATION
TRUE -- External MUX Channel results are PARSED.
FALSE -- AC DC and Phase are NOT grouped.
TRUE -- Companion Program Settings File CREATED.
FALSE -- AC data not excluded
FALSE -- DC data not excluded
FALSE -- Phase data not excluded
FALSE -- Auxillary Chn. data not excluded
Tab delimiters

#CALIBRATION STATE
TRUE -- Waveform Calibration Values APPLIED.


#AUX CALIBRATION VALUES
Val Type	aux-1	

Term	1.0000e+00	
Factor	0.0000e+00	


#WF CALIBRATION VALUES
A = Detector Channel
Val Type	A-AC1	A-AC2	A-AC3	A-AC4	A-AC5	A-AC6	A-AC7	A-AC8	A-AC9	A-AC10	A-AC11	A-AC12	A-AC13	A-AC14	A-AC15	A-AC16	A-DC1	A-DC2	A-DC3	A-DC4	A-DC5	A-DC6	A-DC7	A-DC8	A-DC9	A-DC10	A-DC11	A-DC12	A-DC13	A-DC14	A-DC15	A-DC16	A-Ph1	A-Ph2	A-Ph3	A-Ph4	A-Ph5	A-Ph6	A-Ph7	A-Ph8	A-Ph9	A-Ph10	A-Ph11	A-Ph12	A-Ph13	A-Ph14	A-Ph15	A-Ph16	

Term	0.00000e+00	0.00000e+00	0.00000e+00	0.00000e+00	0.00000e+00	0.00000e+00	0.00000e+00	0.00000e+00	0.00000e+00	0.00000e+00	0.00000e+00	0.00000e+00	0.00000e+00	0.00000e+00	0.00000e+00	0.00000e+00	0.00000e+00	0.00000e+00	0.00000e+00	0.00000e+00	0.00000e+00	0.00000e+00	0.00000e+00	0.00000e+00	0.00000e+00	0.00000e+00	0.00000e+00	0.00000e+00	0.00000e+00	0.00000e+00	0.00000e+00	0.00000e+00	0.00000e+00	0.00000e+00	0.00000e+00	0.00000e+00	0.00000e+00	0.00000e+00	0.00000e+00	0.00000e+00	0.00000e+00	0.00000e+00	0.00000e+00	0.00000e+00	0.00000e+00	0.00000e+00	0.00000e+00	0.00000e+00	
Factor	1.00000e+00	1.00000e+00	1.00000e+00	1.00000e+00	1.00000e+00	1.00000e+00	1.00000e+00	1.00000e+00	1.00000e+00	1.00000e+00	1.00000e+00	1.00000e+00	1.00000e+00	1.00000e+00	1.00000e+00	1.00000e+00	1.00000e+00	1.00000e+00	1.00000e+00	1.00000e+00	1.00000e+00	1.00000e+00	1.00000e+00	1.00000e+00	1.00000e+00	1.00000e+00	1.00000e+00	1.00000e+00	1.00000e+00	1.00000e+00	1.00000e+00	1.00000e+00	X	X	X	X	X	X	X	X	X	X	X	X	X	X	X	X	

B = Detector Channel
Val Type	B-AC1	B-AC2	B-AC3	B-AC4	B-AC5	B-AC6	B-AC7	B-AC8	B-AC9	B-AC10	B-AC11	B-AC12	B-AC13	B-AC14	B-AC15	B-AC16	B-DC1	B-DC2	B-DC3	B-DC4	B-DC5	B-DC6	B-DC7	B-DC8	B-DC9	B-DC10	B-DC11	B-DC12	B-DC13	B-DC14	B-DC15	B-DC16	B-Ph1	B-Ph2	B-Ph3	B-Ph4	B-Ph5	B-Ph6	B-Ph7	B-Ph8	B-Ph9	B-Ph10	B-Ph11	B-Ph12	B-Ph13	B-Ph14	B-Ph15	B-Ph16	

Term	0.00000e+00	0.00000e+00	0.00000e+00	0.00000e+00	0.00000e+00	0.00000e+00	0.00000e+00	0.00000e+00	0.00000e+00	0.00000e+00	0.00000e+00	0.00000e+00	0.00000e+00	0.00000e+00	0.00000e+00	0.00000e+00	0.00000e+00	0.00000e+00	0.00000e+00	0.00000e+00	0.00000e+00	0.00000e+00	0.00000e+00	0.00000e+00	0.00000e+00	0.00000e+00	0.00000e+00	0.00000e+00	0.00000e+00	0.00000e+00	0.00000e+00	0.00000e+00	-9.50993e+01	-1.28701e+02	-1.24987e+02	-1.83761e+02	-6.23572e+01	-7.40854e+01	-1.58106e+02	-1.62015e+02	-5.36995e+01	-7.02651e+01	-1.70714e+02	-1.70913e+02	-1.78902e+02	-1.77049e+02	-6.51981e+01	-1.49824e+02	
Factor	1.64770e-05	1.35927e-04	3.46547e-05	1.51834e-01	1.19814e-06	1.36781e-06	1.67260e-01	5.25101e-02	1.01735e-06	1.28790e-06	8.68415e-02	3.03108e-02	2.82728e-02	9.66055e-03	1.35503e-06	1.35419e-02	3.18107e-06	3.59181e-06	1.00104e-06	7.44679e-02	3.88649e-08	3.97153e-08	7.71580e-02	2.58867e-02	3.91507e-08	3.98793e-08	4.12608e-02	1.45034e-02	1.40702e-02	4.76425e-03	3.96035e-08	6.46411e-03	X	X	X	X	X	X	X	X	X	X	X	X	X	X	X	X	



#DISTANCE SETTINGS
A = Detector Channel
A-1	A-2	A-3	A-4	A-5	A-6	A-7	A-8	A-9	A-10	A-11	A-12	A-13	A-14	A-15	A-16	

2.5000e+00	3.0000e+00	2.5000e+00	3.0000e+00	2.0000e+00	3.0000e+00	1.5000e+00	3.0000e+00	3.0000e+00	3.0000e+00	3.0000e+00	3.0000e+00	3.0000e+00	3.0000e+00	1.5000e+00	3.0000e+00	

B = Detector Channel
B-1	B-2	B-3	B-4	B-5	B-6	B-7	B-8	B-9	B-10	B-11	B-12	B-13	B-14	B-15	B-16	

1.0000e+01	1.0000e+01	1.0000e+01	1.4400e+00	1.0000e+01	1.0000e+01	1.5100e+00	1.9400e+00	1.0000e+01	1.0000e+01	1.9900e+00	2.4900e+00	2.4100e+00	2.9000e+00	1.0000e+01	2.9800e+00	




#DATA BEGINS
time	group	step	mark	flag	A-AC1	A-AC2	A-AC3	A-AC4	A-AC5	A-AC6	A-AC7	A-AC8	A-AC9	A-AC10	A-AC11	A-AC12	A-AC13	A-AC14	A-AC15	A-AC16	A-DC1	A-DC2	A-DC3	A-DC4	A-DC5	A-DC6	A-DC7	A-DC8	A-DC9	A-DC10	A-DC11	A-DC12	A-DC13	A-DC14	A-DC15	A-DC16	A-Ph1	A-Ph2	A-Ph3	A-Ph4	A-Ph5	A-Ph6	A-Ph7	A-Ph8	A-Ph9	A-Ph10	A-Ph11	A-Ph12	A-Ph13	A-Ph14	A-Ph15	A-Ph16	B-AC1	B-AC2	B-AC3	B-AC4	B-AC5	B-AC6	B-AC7	B-AC8	B-AC9	B-AC10	B-AC11	B-AC12	B-AC13	B-AC14	B-AC15	B-AC16	B-DC1	B-DC2	B-DC3	B-DC4	B-DC5	B-DC6	B-DC7	B-DC8	B-DC9	B-DC10	B-DC11	B-DC12	B-DC13	B-DC14	B-DC15	B-DC16	B-Ph1	B-Ph2	B-Ph3	B-Ph4	B-Ph5	B-Ph6	B-Ph7	B-Ph8	B-Ph9	B-Ph10	B-Ph11	B-Ph12	B-Ph13	B-Ph14	B-Ph15	B-Ph16	aux-1	digaux	

40633.539	1	1	0	256	0.23181	0.24771	0.20706	0.20753	0.27953	0.36657	0.17192	0.19089	0.21013	0.077862	0.16242	0.35451	0.13057	0.11763	0.08426	0.32204	-3.4062	-3.0104	-3.5667	-3.8417	-3.15	-3.7292	-3.5208	-3.35	-3.8646	-3.0833	-3.6813	-3.8958	-3.0854	-3.8542	-3.3271	-3.2875	18.176	137.102	-39.847	213.370	-84.536	187.016	156.631	139.124	211.008	-23.993	205.244	216.747	-63.394	-77.216	92.028	195.083	0.00017572	0.00057717	0.00015744	727.31	2.8854e-06	4.0365e-06	1329.1	226.83	3.459e-06	3.3445e-06	488.18	161.52	60.819	19.508	5.0539e-06	68.002	0.00010219	6.3238e-05	1.7191e-05	668.58	7.3196e-07	6.39e-07	1235.4	208.82	6.9917e-07	6.6665e-07	449.86	150.6	56.561	18.027	6.9958e-07	63.24	220.767	-9.403	3.040	-82.915	49.650	46.220	-81.884	-79.094	40.217	54.032	-78.197	-73.087	-75.111	-70.036	57.644	-68.705	-8191	255	
40633.660	1	1	0	0	0.21107	0.029061	0.1357	0.32034	0.065445	0.12917	0.24029	0.22945	0.10491	0.13936	0.10642	0.13328	0.14244	0.042363	0.14687	0.1059	-3.6208	-3.1063	-3.4208	-3.8396	-3.1083	-3.6708	-3.6188	-3.1188	-3.8417	-3.1208	-3.6188	-3.8771	-3.125	-3.7062	-3.5729	-3.2729	-30.528	-0.477	211.034	222.904	247.372	197.657	140.973	255.214	207.261	246.925	32.844	247.334	-91.231	-63.788	107.645	201.185	0.00020214	0.00051145	8.7101e-05	724.84	2.1427e-06	4.0562e-06	1340.4	229.11	2.979e-06	3.185e-06	495.42	163.76	61.741	19.822	3.8633e-06	69.876	9.9415e-05	6.3044e-05	1.7364e-05	669.45	6.6775e-07	6.3222e-07	1240.5	211.45	6.9207e-07	6.5435e-07	454.71	153.31	57.721	18.497	7.1814e-07	64.689	217.092	-13.049	-8.699	-82.786	67.490	65.858	-81.790	-79.194	71.320	45.411	-78.051	-73.228	-74.664	-69.922	73.870	-68.651	-8191	255	
40633.758	1	1	0	0	0.021663	0.074081	0.15168	0.14544	0.11605	0.28998	0.07913	0.19159	0.08035	0.18757	0.20717	0.32912	0.27308	0.012409	0.10706	0.26852	-3.5667	-3.0312	-3.3042	-3.8833	-3.0708	-3.7479	-3.9271	-3.0229	-3.8625	-3.4188	-3.2979	-3.8854	-3.1333	-3.7938	-3.6833	-3.2125	222.977	64.173	-48.418	51.145	72.423	236.180	248.434	166.083	232.709	158.304	219.989	216.516	208.108	69.381	147.251	208.396	0.00021484	0.00048603	0.00011661	728.09	4.0777e-06	4.6947e-06	1339.1	229.62	3.1931e-06	4.1606e-06	497.63	167	63.106	20.502	2.1915e-06	70.183	0.00010069	5.7656e-05	1.6644e-05	669.73	7.2564e-07	6.2775e-07	1242.3	212.66	7.4256e-07	6.1738e-07	458	155.81	58.83	18.832	5.9999e-07	65.263	222.786	1.327	4.744	-82.796	51.882	24.221	-81.816	-79.090	61.301	73.615	-78.540	-73.773	-75.437	-69.810	83.208	-68.855	-8191	255	
40633.852	1	1	0	0	0.076479	0.082503	0.16207	0.25992	0.13386	0.11136	0.15381	0.032681	0.17924	0.18052	0.051894	0.14599	0.17688	0.067434	0.11496	0.16187	-3.5938	-3.2375	-3.2938	-3.8542	-3.1104	-3.6333	-3.8146	-3.0479	-3.8563	-3.2292	-3.2708	-3.8688	-3.2042	-3.3896	-3.7146	-3.1292	113.563	166.412	-31.372	234.818	135.920	224.928	194.295	-88.774	242.838	254.477	-85.109	239.300	258.263	207.212	-2.642	245.769	0.00020378	0.00061914	0.00010314	722.21	1.2502e-06	4.7938e-06	1342	231.22	1.8065e-06	4.722e-06	500.33	166.75	62.584	20.322	4.1102e-06	70.296	0.00010307	6.0769e-05	1.6484e-05	668.12	6.6443e-07	5.9738e-07	1240.6	213.78	6.6532e-07	6.2021e-07	460.55	156.34	58.913	18.838	6.2829e-07	65.414	226.296	12.407	-46.403	-82.973	92.652	36.617	-81.766	-79.213	37.405	40.850	-78.398	-73.732	-74.851	-69.539	32.542	-68.613	-8191	255	
40633.926	1	1	0	0	0.21834	0.24771	0.40323	0.14811	0.066915	0.090305	0.25664	0.23663	0.22343	0.080752	0.11903	0.23962	0.13502	0.10231	0.032949	0.10003	-3.3875	-3.5062	-3.1792	-3.9188	-3.2438	-3.5354	-4.0208	-2.9083	-3.8146	-3.5292	-3.2438	-3.8375	-3.2979	-3.3604	-3.825	-3.1646	155.403	-50.443	100.405	233.781	83.857	63.012	186.649	230.500	166.486	-31.293	178.526	-73.576	216.488	-35.460	72.098	19.241	0.00022521	0.00021002	0.00014022	724.46	5.1725e-06	3.799e-06	1340.5	232.18	1.6961e-06	5.0537e-06	503.24	166.32	63.407	20.264	3.5869e-06	69.963	0.00010045	5.5097e-05	1.5251e-05	669.12	6.7123e-07	6.39e-07	1246.2	214.77	6.6393e-07	6.1414e-07	462.6	156.69	59.195	18.858	6.1311e-07	65.095	220.849	4.701	-7.049	-82.400	52.127	34.985	-81.857	-78.992	64.173	35.781	-78.099	-73.868	-74.960	-69.481	49.187	-68.764	-8191	255	
40634.047	1	1	0	0	0.24788	0.27665	0.11423	0.074298	0.27375	0.20037	0.35406	0.037806	0.21557	0.18286	0.13373	0.12569	0.10055	0.20505	0.053157	0.24041	-3.3542	-3.5542	-2.9625	-4.0146	-3.3875	-3.275	-4.1458	-3.1937	-3.4583	-3.5771	-3.0521	-3.9271	-3.4542	-3.2208	-3.8375	-3.1604	212.085	154.162	251.533	180.063	217.920	-21.927	151.207	52.074	-59.961	109.988	146.397	-38.258	34.021	221.583	5.670	202.863	0.00020413	0.00043459	0.0001404	727.82	3.1977e-06	4.7843e-06	1344.3	229.87	2.6993e-06	4.5238e-06	501.76	166.71	63.284	20.212	5.0487e-06	69.932	0.00010073	5.7589e-05	1.679e-05	669.23	6.9811e-07	5.8456e-07	1243.7	214.22	6.9085e-07	5.8257e-07	461.73	156.04	59.025	18.638	6.1262e-07	64.931	224.472	-18.622	-8.432	-82.761	65.568	42.821	-81.832	-79.430	72.544	43.208	-78.215	-73.598	-75.026	-70.171	62.041	-68.792	-8191	255	
40634.141	1	1	0	0	0.18978	0.14287	0.13212	0.1073	0.12642	0.12251	0.040023	0.14601	0.015747	0.16796	0.12863	0.041346	0.1966	0.25874	0.043008	0.23378	-3.2042	-3.7854	-2.9354	-3.775	-3.3583	-3.1146	-3.9938	-3.3104	-3.3917	-3.85	-3.2438	-3.9479	-3.5479	-3.2042	-3.8792	-3.4833	39.911	135.822	11.814	-6.812	187.584	128.915	143.428	10.493	95.648	71.646	-23.624	261.115	-62.083	238.294	133.374	-68.793	0.00017222	0.00039232	0.00010651	729.53	4.0109e-06	4.0826e-06	1346.2	233.53	2.5637e-06	3.9178e-06	497.24	166.57	63.195	20.269	2.9461e-06	69.732	9.7367e-05	5.6766e-05	1.6425e-05	669.67	6.7455e-07	6.419e-07	1247.2	215.09	7.1148e-07	5.8282e-07	460.43	156.46	58.886	18.728	6.5354e-07	64.619	224.288	-1.817	-4.272	-82.667	42.339	59.662	-81.705	-79.261	50.869	31.285	-78.085	-73.556	-74.542	-70.054	61.662	-68.291	-8191	255	
40634.238	1	1	0	0	0.29923	0.26216	0.22994	0.38933	0.13503	0.13205	0.33564	0.087272	0.23823	0.050635	0.040128	0.24347	0.23165	0.26049	0.07011	0.1354	-3.1271	-3.8812	-3.0687	-3.8958	-3.5187	-3.0125	-4.1333	-3.2125	-3.2854	-3.8896	-3.2313	-3.7792	-3.6875	-3.0875	-3.9437	-3.6333	-22.418	-3.066	-69.141	234.315	187.396	133.877	201.212	-86.843	197.843	-7.973	246.020	184.698	-63.074	156.768	219.622	-72.067	0.00015666	0.00043319	0.00015992	724.83	2.7746e-06	3.3222e-06	1350.9	233.77	1.1493e-06	3.7072e-06	496.2	166.88	62.916	20.36	4.2172e-06	69.626	0.00010127	5.6055e-05	1.659e-05	667.96	6.4265e-07	5.9838e-07	1247.3	215.91	6.5365e-07	6.1971e-07	459.77	156.08	58.912	18.674	6.4636e-07	64.766	223.641	5.016	14.506	-82.453	48.672	33.980	-81.985	-78.792	10.994	38.042	-78.081	-73.588	-74.536	-70.088	58.260	-68.751	-8191	255	
40634.355	1	1	0	0	0.18483	0.049921	0.31894	0.24613	0.21406	0.079888	0.25875	0.18946	0.17946	0.1299	0.082583	0.18853	0.081023	0.17488	0.2365	0.095561	-3.0042	-3.8521	-3.1813	-3.7354	-3.9167	-3.0938	-4.2104	-3.5979	-3.1813	-4.0646	-3.3417	-3.4896	-3.7771	-2.9146	-3.9479	-3.5479	217.527	43.210	33.122	229.673	164.513	121.237	212.492	182.909	175.752	116.127	111.192	-79.203	142.551	-20.377	200.591	140.221	0.00020999	0.00030433	0.00010114	726.01	3.5055e-06	2.1626e-06	1344.6	232.34	2.3486e-06	4.3699e-06	500.66	166.37	62.651	20.089	2.9774e-06	69.469	9.8752e-05	5.601e-05	1.6019e-05	667.96	6.4961e-07	5.6917e-07	1246.2	214.8	7.1793e-07	6.0725e-07	461.02	155.87	58.665	18.596	5.9892e-07	64.525	223.816	-9.371	5.101	-82.692	62.647	41.210	-82.002	-78.845	83.028	48.117	-78.017	-73.788	-74.637	-69.741	68.486	-68.480	-8191	255	
40634.453	1	1	0	0	0.15764	0.11602	0.026657	0.15696	0.060444	0.14801	0.1356	0.12018	0.013823	0.05931	0.47308	0.27754	0.44083	0.08034	0.20419	0.050755	-2.7708	-3.9313	-3.1437	-3.4688	-3.8542	-3.0333	-3.8688	-3.8875	-3.1375	-3.8958	-3.3542	-3.3563	-3.8125	-3.2792	-3.6562	-3.7521	9.243	184.592	58.839	245.368	167.553	129.764	-46.662	204.325	162.111	13.321	-87.002	228.278	-81.595	156.734	-13.693	-86.393	0.00020953	0.00039972	0.00010561	728.49	2.8989e-06	4.1189e-06	1341.1	231.55	1.9958e-06	2.8957e-06	501.02	165.46	62.425	19.822	5.8891e-06	68.547	9.9468e-05	5.2321e-05	1.5376e-05	665.16	6.3544e-07	6.0243e-07	1241.7	214.79	6.7992e-07	6.3624e-07	460.91	154.82	58.373	18.439	6.2343e-07	64.057	224.549	-5.608	-6.975	-82.911	56.782	54.298	-81.862	-79.108	66.085	49.630	-78.308	-73.480	-74.903	-69.205	48.829	-68.532	-8191	255	
40634.527	1	1	0	0	0.15592	0.16008	0.2506	0.17145	0.11869	0.061395	0.14716	0.10604	0.25643	0.055304	0.097975	0.3706	0.20591	0.19118	0.119	0.18071	-2.8792	-3.9167	-3.3125	-3.4354	-3.7375	-3.0146	-3.8958	-3.8854	-2.9875	-3.8104	-3.5375	-3.4	-4.0208	-3.0542	-3.6167	-3.8292	13.661	224.402	6.877	249.517	100.924	197.857	143.266	-33.802	-85.176	-46.649	205.886	194.376	-84.282	250.321	2.573	-66.816	0.00018706	0.00049533	0.00016696	720.11	3.9836e-06	2.5784e-06	1342.2	230.41	3.097e-06	3.2352e-06	496.3	165.74	62.908	19.965	5.5587e-06	68.444	9.9733e-05	5.601e-05	1.6911e-05	663.16	6.3439e-07	6.1145e-07	1241.8	213.75	6.7111e-07	5.878e-07	459.43	155.03	58.512	18.415	6.6847e-07	63.853	226.834	-9.449	-16.077	-82.571	46.624	39.637	-81.748	-79.036	54.298	52.563	-78.349	-73.645	-75.218	-70.255	52.536	-67.991	-8191	255	
40634.645	1	1	0	0	0.096882	0.14476	0.099749	0.24826	0.24961	0.15521	0.23903	0.2821	0.14919	0.29186	0.058733	0.26292	0.2166	0.14721	0.21541	0.09818	-2.6396	-3.8375	-3.4958	-3.2062	-3.875	-3.3063	-3.7917	-3.8625	-2.9729	-3.7708	-3.775	-3.2687	-3.925	-3.1875	-3.4813	-3.9188	57.174	153.748	-5.552	-46.242	-66.977	160.107	232.569	212.774	203.959	87.431	65.825	250.694	-82.368	230.419	234.457	206.318	0.00020568	0.00043484	0.00010165	727.24	4.4266e-06	5.2641e-06	1337.7	230.58	2.6583e-06	6.2455e-06	499.1	165.5	62.445	19.874	5.2091e-06	68.199	9.9495e-05	5.2149e-05	1.5126e-05	667.17	6.1447e-07	5.6843e-07	1240.2	214.51	6.8905e-07	6.2262e-07	458.47	154.43	58.172	18.354	6.4818e-07	63.444	225.172	3.945	14.860	-82.492	56.822	36.008	-81.930	-78.774	39.415	53.570	-78.369	-74.015	-74.606	-69.561	47.981	-68.374	-8191	255	
40634.742	1	1	0	0	0.090616	0.15799	0.018782	0.1931	0.15457	0.17692	0.46664	0.2853	0.18193	0.11905	0.064675	0.072375	0.16261	0.13002	0.26319	0.10753	-2.6896	-3.5667	-3.6625	-3.1146	-3.9375	-3.3417	-3.3	-3.8396	-3.0958	-3.5958	-3.7667	-3.2292	-3.7708	-3.4688	-3.3458	-4.0938	-74.871	30.367	95.919	191.764	-86.742	187.051	237.001	241.986	22.626	30.499	-64.535	242.952	137.001	211.707	240.660	215.468	0.00018665	0.00054284	0.00010511	718.26	2.9654e-06	5.0661e-06	1340.1	230.91	1.9415e-06	4.3925e-06	494.81	163.88	61.558	19.445	4.1276e-06	68.317	9.6426e-05	5.3877e-05	1.5347e-05	660.97	6.373e-07	6.2485e-07	1236	212.97	6.5969e-07	5.8058e-07	456.69	153.58	57.875	18.208	6.2961e-07	63.403	218.035	5.619	4.363	-82.941	80.875	42.881	-81.911	-78.853	60.007	59.879	-78.065	-73.786	-74.980	-69.680	83.407	-68.452	-8191	255	
40634.836	1	1	0	0	0.42345	0.12003	0.18403	0.40057	0.17849	0.17233	0.16734	0.16144	0.34808	0.24002	0.080377	0.16877	0.28578	0.20055	0.29386	0.19564	-3	-3.6104	-3.6896	-3.1854	-3.9813	-3.3896	-3.3875	-3.95	-3.1792	-3.5604	-3.9417	-3.1354	-3.8604	-3.6604	-3.1167	-3.9458	-37.779	238.336	-80.075	205.803	42.283	154.022	192.380	165.697	211.100	248.968	-25.481	185.820	126.878	41.436	-33.582	249.590	0.00020846	0.00041621	0.00013086	718.5	3.9691e-06	4.4583e-06	1336	230.4	1.96e-06	5.2716e-06	495.3	163.51	61.817	19.674	3.5073e-06	68.367	9.8302e-05	5.6773e-05	1.4204e-05	660.6	6.4475e-07	5.6917e-07	1234.1	212.81	6.6018e-07	6.0243e-07	456.97	153.41	57.711	18.224	6.6088e-07	63.489	226.334	-12.730	-31.767	-82.281	62.867	41.818	-82.058	-79.034	70.275	49.346	-77.890	-73.642	-74.679	-69.553	62.861	-68.256	-8191	255	
40634.957	1	1	0	0	0.15692	0.20785	0.082094	0.25672	0.092042	0.13141	0.18473	0.13568	0.11521	0.23632	0.24361	0.2547	0.13984	0.3228	0.14045	0.21449	-2.8896	-3.4458	-3.8729	-3.175	-3.6583	-3.6146	-3.2292	-4.0896	-3.2	-3.3792	-3.9958	-3.1604	-3.6917	-3.5812	-3.0729	-3.9792	97.831	83.778	252.264	89.654	174.097	104.887	215.917	220.284	8.089	188.342	213.522	-77.841	11.060	-78.021	2.516	246.365	0.00020304	0.00049692	0.00012049	713.46	4.6689e-06	5.9423e-06	1330.5	230.22	1.2245e-06	3.526e-06	494.47	164.13	62.141	19.791	4.3995e-06	68.012	9.575e-05	5.8808e-05	1.4615e-05	657.13	6.3253e-07	6.0831e-07	1233.5	213.36	6.4281e-07	6.2228e-07	457.12	154.21	57.866	18.274	6.2978e-07	63.359	223.026	5.221	19.918	-82.729	37.150	62.474	-81.918	-79.301	78.832	19.578	-78.206	-73.687	-74.710	-70.119	55.897	-68.824	-8191	255	
40635.055	1	1	0	0	0.17356	0.099962	0.11683	0.096276	0.078024	0.036106	0.14287	0.20601	0.18198	0.23886	0.079673	0.29405	0.18473	0.28935	0.15386	0.1524	-3.1271	-3.3792	-3.9271	-3.2438	-3.6417	-3.6688	-3.3021	-3.8875	-3.4125	-3.2687	-4.0208	-3.225	-3.6667	-3.7438	-3.1917	-3.8229	245.677	186.779	169.961	179.678	241.745	89.164	248.358	-88.304	-74.079	78.120	170.014	234.157	250.462	-93.123	-72.419	258.017	0.00018531	0.00033272	9.0601e-05	715.87	3.8947e-06	4.4624e-06	1327.9	229.71	1.9774e-06	3.6998e-06	494.63	165.27	62.417	19.756	3.9243e-06	68.041	9.9926e-05	5.6481e-05	1.4636e-05	658.03	6.3285e-07	5.762e-07	1231.9	213.32	6.2551e-07	6.1148e-07	456.64	154.38	58.349	18.342	6.259e-07	63.559	216.941	-2.188	11.160	-82.917	40.296	56.026	-82.263	-78.993	90.751	56.159	-78.275	-73.608	-75.007	-69.364	86.188	-68.593	-8191	255	
40635.148	1	1	0	0	0.038567	0.21199	0.10029	0.057899	0.20364	0.090905	0.42832	0.077381	0.1629	0.1351	0.1017	0.075972	0.026268	0.21451	0.15739	0.20096	-3.2562	-3.4875	-3.975	-3.3271	-3.5458	-3.8458	-3.1479	-3.8125	-3.3937	-3.0833	-4.175	-3.3438	-3.4	-3.6979	-3.1208	-3.9625	52.137	221.879	35.044	245.540	251.449	-2.030	158.377	-79.250	176.306	11.982	-54.541	258.671	-44.511	-87.396	72.259	183.396	0.00017146	0.00055556	0.00011584	712.75	3.2693e-06	5.2631e-06	1331.6	228.91	3.2594e-06	3.5613e-06	493.37	163.68	61.601	19.513	4.7952e-06	67.658	9.9641e-05	5.2897e-05	1.5132e-05	657.37	6.4305e-07	5.839e-07	1229.3	212.44	6.7078e-07	5.8548e-07	455.21	152.93	57.51	18.087	6.2268e-07	62.913	227.081	-18.168	-13.475	-82.505	62.045	32.399	-81.811	-78.790	51.782	50.890	-78.230	-73.443	-75.047	-69.431	61.855	-69.029	-8191	255	
40635.223	1	1	0	0	0.060871	0.15985	0.36734	0.070823	0.16006	0.08677	0.14912	0.19862	0.2096	0.14461	0.15542	0.23549	0.32086	0.18404	0.15818	0.25086	-3.3292	-3.1688	-3.9062	-3.2042	-3.4375	-3.8333	-3.1083	-3.7083	-3.5917	-3.1625	-4.0333	-3.2979	-3.0917	-4.0104	-3.0896	-3.7812	237.456	255.633	-58.548	238.053	230.577	234.305	244.686	220.495	106.735	219.139	201.766	253.331	24.166	248.914	163.963	256.616	0.00018677	0.00044203	0.00013602	708	2.532e-06	4.6122e-06	1327.4	228.75	3.074e-06	5.6922e-06	495.72	163.51	61.798	19.655	3.0421e-06	67.755	9.6261e-05	5.7611e-05	1.4019e-05	652.34	6.6313e-07	5.9043e-07	1225.2	211.39	6.6401e-07	6.1539e-07	456.27	153.24	57.647	18.2	6.3267e-07	63.216	214.286	-10.582	-8.213	-82.681	72.634	58.964	-81.793	-79.345	55.546	68.591	-78.243	-73.842	-74.650	-69.658	47.415	-68.903	-8191	255	
40635.316	1	1	0	0	0.22343	0.17468	0.23183	0.16524	0.048811	0.15455	0.072782	0.075291	0.17055	0.064602	0.015896	0.074079	0.28078	0.21176	0.16592	0.2191	-3.4938	-3.0771	-3.8354	-3.4146	-3.1333	-3.7667	-3.425	-3.6021	-3.7604	-3.0104	-4.0687	-3.7292	-3.1208	-3.9104	-3.0354	-3.5646	233.938	229.263	240.066	138.425	201.202	170.051	248.526	-71.690	-57.031	143.582	24.568	-19.769	-91.082	190.516	141.585	221.550	0.00019477	0.00040733	0.00012846	710.59	3.4822e-06	4.4381e-06	1323.1	228.51	3.4604e-06	3.067e-06	495.4	164.02	62.179	19.692	4.4207e-06	67.781	9.9084e-05	5.6796e-05	1.4724e-05	654.13	6.5657e-07	6.0988e-07	1228	211.76	6.7274e-07	6.0151e-07	455.92	153.73	57.88	18.205	6.2112e-07	63.051	222.793	-16.281	-19.966	-82.664	68.101	47.377	-81.863	-79.121	78.918	41.349	-78.372	-73.642	-75.049	-69.673	47.588	-68.563	-8191	255	
40635.438	1	1	0	0	0.12063	0.15127	0.064583	0.27944	0.085157	0.30676	0.27895	0.16557	0.27389	0.22301	0.26579	0.19582	0.13803	0.10118	0.1282	0.26865	-3.5458	-3.0938	-3.7521	-3.5604	-3.2542	-4.0167	-3.3646	-3.3563	-3.7125	-2.875	-3.7042	-3.6146	-3.2354	-3.9958	-3.2438	-3.3333	5.291	-32.741	50.609	220.328	-30.339	224.601	144.468	182.445	-10.960	154.936	242.197	207.291	240.118	236.802	-58.947	142.335	0.00019256	0.00049587	0.00013965	711.9	3.8352e-06	3.1339e-06	1314.5	229.75	1.8153e-06	2.5591e-06	494.2	161.59	62.313	19.489	4.5345e-06	67.633	9.6453e-05	5.6638e-05	1.4759e-05	653.06	6.3698e-07	5.2292e-07	1221.3	211.96	6.3987e-07	5.8116e-07	453.76	152.12	57.582	18.065	6.0857e-07	62.653	223.138	11.732	-5.741	-82.653	57.416	14.717	-82.005	-79.089	69.308	41.663	-78.153	-73.601	-74.923	-69.742	54.648	-68.910	-8191	255	
40635.531	1	1	0	0	0.16015	0.06915	0.16232	0.16288	0.20785	0.12614	0.14023	0.085231	0.2542	0.28548	0.036527	0.29723	0.20176	0.11091	0.11663	0.55086	-3.5271	-3.05	-3.6583	-3.6813	-3.1542	-3.7917	-3.7333	-3.3417	-3.9042	-3.3042	-3.5687	-3.8542	-3.0333	-3.8312	-3.3854	-3.1875	-25.750	238.342	14.929	190.039	-84.322	-25.439	188.129	148.045	66.789	-11.148	215.911	239.945	213.075	20.942	-57.259	202.298	0.00018557	0.00046787	0.00011736	703.44	2.9469e-06	5.1611e-06	1311.3	226.22	2.2583e-06	4.6802e-06	487.68	160.82	61.017	19.281	2.7595e-06	66.81	9.6307e-05	5.6758e-05	1.5483e-05	649.23	6.7633e-07	5.3276e-07	1215.2	210.07	6.685e-07	5.6828e-07	451.63	151.49	56.926	17.878	7.1039e-07	62.091	228.740	-12.005	-3.614	-82.764	89.214	51.929	-81.981	-78.853	97.556	48.600	-78.226	-73.480	-75.120	-69.767	30.118	-68.738	-8191	255	
40635.629	1	1	0	0	0.17514	0.10156	0.058178	0.020276	0.17176	0.12667	0.22472	0.11159	0.25344	0.059765	0.25284	0.13455	0.27504	0.16426	0.09106	0.19305	-3.8146	-2.9479	-3.5458	-3.9208	-3.1229	-3.7854	-3.6167	-3.225	-3.8792	-3.35	-3.625	-3.9938	-3.1625	-3.7062	-3.6521	-3.3271	182.049	175.785	49.381	87.085	180.432	-82.477	105.018	45.557	211.920	211.775	255.033	144.279	-73.788	-79.915	167.583	261.582	0.00020725	0.00051731	0.00013437	702.62	1.8074e-06	3.4074e-06	1311.8	226.49	1.7416e-06	4.0406e-06	488.35	160.57	59.572	19.032	3.7355e-06	66.218	9.8116e-05	5.9482e-05	1.6098e-05	649.2	6.5382e-07	5.8348e-07	1216.4	208.84	6.8098e-07	6.1697e-07	448.84	149.99	56.089	17.675	6.1352e-07	61.541	220.646	-17.640	15.637	-82.314	107.350	24.515	-81.653	-79.426	47.087	47.056	-78.418	-73.574	-75.411	-70.007	63.856	-68.641	-8191	255	
40635.750	1	1	0	0	0.19072	0.19604	0.1297	0.1692	0.26638	0.10692	0.13763	0.19327	0.10602	0.081625	0.25172	0.056933	0.13455	0.22259	0.10173	0.22813	-3.5083	-3.175	-3.25	-3.9542	-3.1125	-3.6271	-3.7771	-3.3708	-3.9042	-3.3604	-3.3917	-3.9813	-3.2396	-3.5708	-3.5792	-3.2708	213.066	192.915	20.790	249.635	222.663	45.056	210.869	234.504	243.337	-90.518	221.102	88.456	-74.465	78.498	239.200	224.089	0.00018854	0.00036547	7.8117e-05	709.78	3.2776e-06	4.4792e-06	1316.3	226.5	3.4429e-06	2.7265e-06	492.08	161.85	61.195	19.222	3.8721e-06	66.618	9.9402e-05	5.7828e-05	1.5885e-05	653.66	6.5074e-07	6.1021e-07	1223	210.23	6.5023e-07	6.1896e-07	452.65	151.75	56.955	17.782	6.5214e-07	62.043	228.735	-4.831	-40.191	-82.588	73.839	52.957	-81.683	-78.998	46.621	49.284	-77.894	-73.652	-74.353	-69.867	35.596	-68.544	-8191	255	
40635.820	1	1	0	0	0.1169	0.18012	0.095323	0.26866	0.40989	0.15028	0.21636	0.18246	0.088028	0.184	0.02642	0.10285	0.097968	0.37495	0.094541	0.26636	-3.4958	-3.5354	-3.3104	-3.9333	-2.9646	-3.5667	-3.9104	-3.0771	-3.7729	-3.4938	-3.3312	-4.1312	-3.3063	-3.5083	-3.8312	-3.3042	125.957	33.916	214.263	222.607	143.845	235.023	248.631	129.676	-65.702	77.459	195.480	-79.824	-5.235	237.394	109.931	-80.330	0.00020385	0.00047277	0.00011797	709.7	1.4004e-06	2.9431e-06	1321.6	228.38	3.3953e-06	2.622e-06	490	161.48	60.55	19.3	2.62e-06	67.213	9.2298e-05	5.5247e-05	1.571e-05	653	6.2815e-07	6.3801e-07	1221.6	210.94	6.1785e-07	5.7734e-07	451.91	151.46	56.985	17.906	6.4554e-07	62.201	220.371	-7.909	-1.903	-82.619	44.719	64.393	-81.899	-79.080	41.274	46.124	-78.057	-73.212	-74.821	-70.119	41.877	-68.426	-8191	255	
40635.918	1	1	0	0	0.16745	0.3372	0.074405	0.088459	0.15164	0.091276	0.17629	0.17573	0.059874	0.11716	0.17064	0.20894	0.12446	0.23828	0.20352	0.21032	-3.3917	-3.6229	-3.1875	-3.9062	-3.0938	-3.1437	-3.9583	-2.9917	-3.6146	-3.5292	-3.1937	-4.0708	-3.425	-3.3708	-3.8229	-3.2479	78.536	61.684	139.105	136.014	-43.714	108.015	182.378	100.253	14.772	-83.165	226.433	241.384	176.672	218.303	118.873	202.377	0.00021353	0.00043332	0.0001138	712.04	2.9502e-06	3.291e-06	1319.3	226.18	1.5544e-06	4.0207e-06	491.79	162.09	61.076	19.142	2.5569e-06	66.637	9.9362e-05	5.9362e-05	1.507e-05	655	6.684e-07	6.0574e-07	1224	209.86	6.5088e-07	6.0941e-07	452.66	152.09	57.231	17.854	5.8349e-07	62.016	227.855	6.190	-7.498	-82.583	61.233	9.785	-81.568	-79.390	14.074	34.850	-78.612	-73.293	-74.432	-70.061	51.837	-68.695	-8191	255	
40636.039	1	1	0	0	0.138	0.12746	0.10587	0.14599	0.053512	0.23001	0.16967	0.16257	0.15443	0.039889	0.26187	0.10084	0.10753	0.14942	0.11326	0.18031	-3.2771	-3.5771	-2.9792	-3.9854	-3.2708	-3.2375	-4.0958	-3.2188	-3.7021	-3.7062	-3.3583	-3.9625	-3.5438	-3.4854	-4.1312	-3.3229	199.100	27.149	95.940	258.638	126.278	230.073	235.668	-72.879	111.884	-81.260	162.450	75.043	-45.630	-50.954	102.117	248.699	0.00019735	0.00026401	9.789e-05	710.35	1.9648e-06	3.0747e-06	1320.4	227.73	1.7134e-06	3.1605e-06	491.16	162.74	61.562	19.267	2.6118e-06	67.345	9.4279e-05	5.1789e-05	1.6313e-05	654.87	6.182e-07	6.299e-07	1225.3	211.13	6.7266e-07	5.6313e-07	453.67	152.26	57.445	17.892	6.1847e-07	62.408	220.525	-13.133	-6.724	-82.722	26.415	50.570	-82.021	-78.515	35.147	56.189	-78.408	-73.534	-74.583	-69.156	46.785	-68.553	-8191	255	
40636.137	1	1	0	0	0.13523	0.059579	0.082344	0.21578	0.04233	0.018738	0.21945	0.30064	0.14628	0.14147	0.13117	0.084737	0.071374	0.037572	0.09106	0.042112	-3.3063	-3.7667	-2.8917	-3.8292	-3.4375	-3.1125	-4.2063	-3.2125	-3.2562	-3.9313	-3.1958	-3.9458	-3.5333	-3.1771	-4.0042	-3.3812	88.188	-78.299	-16.154	252.072	-12.771	21.290	164.218	154.923	42.353	151.094	-30.241	150.866	162.391	243.392	231.234	128.552	0.00019603	0.0004706	9.3877e-05	716.56	3.7356e-06	2.7851e-06	1326.5	228.6	1.7676e-06	4.4053e-06	492.53	161.43	61.462	19.355	4.3205e-06	66.722	9.8752e-05	5.6616e-05	1.6267e-05	656.07	6.6985e-07	6.2849e-07	1225.4	210.78	6.7413e-07	5.7709e-07	453.42	151.64	57.147	17.909	6.3712e-07	62.141	220.174	-6.195	23.209	-82.267	56.731	20.489	-81.884	-79.127	40.953	49.297	-78.178	-73.775	-74.699	-69.553	50.453	-68.715	-8191	255	
40636.230	1	1	0	0	0.16064	0.25361	0.20624	0.19803	0.14637	0.065875	0.22699	0.18947	0.16641	0.064709	0.14638	0.21884	0.34013	0.13832	0.23501	0.118	-3.0458	-3.7812	-3.2062	-3.625	-3.6729	-3.1729	-4.0854	-3.3896	-3.3396	-3.9521	-3.2646	-3.7062	-3.7771	-3.1833	-3.7958	-3.6167	166.423	203.625	218.280	261.936	-72.985	202.963	150.194	147.437	67.483	40.823	11.359	248.258	164.518	68.173	212.582	-89.819	0.00016771	0.00035899	7.6452e-05	713.58	4.8816e-06	5.1645e-06	1323.9	226.41	2.391e-06	3.5075e-06	492.56	161.77	61.195	19.248	4.5569e-06	66.837	0.00010155	5.5905e-05	1.6169e-05	654.23	6.6734e-07	6.1989e-07	1224.8	210.15	6.778e-07	6.3491e-07	452.97	151.69	57.093	17.806	6.3242e-07	62.235	224.342	10.821	-10.005	-82.740	61.081	61.636	-81.731	-78.776	53.927	36.757	-78.181	-74.002	-74.929	-70.214	59.029	-68.380	-8191	255	
40636.328	1	1	0	0	0.015873	0.071575	0.19729	0.12637	0.088472	0.080632	0.24005	0.1504	0.20781	0.12988	0.18004	0.24842	0.1648	0.099135	0.089004	0.10235	-2.8438	-3.8812	-3.1063	-3.6833	-3.6458	-3.0083	-4.0917	-3.8083	-3.2667	-3.8688	-3.3875	-3.5104	-3.8229	-3.0917	-3.8375	-3.6104	192.804	-13.632	-78.680	199.322	147.944	195.219	218.576	180.209	-53.176	181.083	133.862	-33.366	256.445	-70.280	17.354	32.739	0.00019827	0.00038113	0.00012109	712.92	2.7933e-06	3.0252e-06	1327.8	227.8	2.1023e-06	3.9101e-06	492.66	162.6	61.547	19.312	2.6259e-06	66.443	9.7301e-05	5.6855e-05	1.58e-05	654.01	6.3026e-07	6.2866e-07	1225.6	211.2	6.8742e-07	5.9404e-07	455.19	152.4	57.57	17.961	6.1798e-07	62.176	226.151	9.905	12.960	-82.855	30.273	38.747	-81.980	-78.775	43.352	31.853	-78.185	-73.828	-74.833	-69.531	31.543	-68.448	-8191	255	
40636.445	1	1	0	0	0.1615	0.063148	0.12519	0.012026	0.095281	0.21859	0.33909	0.14467	0.13956	0.13605	0.0032902	0.18596	0.062605	0.17379	0.16686	0.1785	-2.9437	-4.1562	-3.4417	-3.4979	-3.925	-3.0229	-3.9875	-3.6542	-3.0687	-3.9	-3.3958	-3.5479	-3.7792	-3.15	-3.6979	-3.8063	5.623	193.374	157.189	-4.807	165.462	81.585	206.250	225.946	198.542	97.490	150.193	239.525	63.822	66.041	175.123	229.115	0.00019911	0.00033898	0.00017029	709.39	3.4518e-06	4.3555e-06	1325.4	230.25	2.9625e-06	3.4907e-06	493.79	163.35	61.25	19.211	3.9203e-06	67.01	9.7725e-05	5.0667e-05	1.5933e-05	653.08	6.3407e-07	6.1865e-07	1224.3	212.11	7.0806e-07	5.7991e-07	455.71	152.61	57.326	17.856	6.2062e-07	62.15	224.093	5.363	34.317	-82.816	78.126	32.744	-81.965	-79.173	33.569	44.498	-78.157	-73.721	-74.741	-69.576	54.006	-68.599	-8191	255	
40636.516	1	1	0	0	0.06566	0.13401	0.078444	0.12183	0.097136	0.20686	0.27241	0.13899	0.12994	0.066945	0.19614	0.1712	0.19732	0.088556	0.26735	0.094834	-2.8229	-3.8229	-3.4208	-3.3167	-3.7646	-3.1312	-3.825	-3.7875	-2.9271	-3.8083	-3.5229	-3.2979	-3.9333	-3.0021	-3.3292	-3.9792	123.229	94.856	-13.446	164.516	28.055	-83.722	190.055	104.970	204.887	232.900	-16.281	-64.917	53.377	152.157	56.289	102.936	0.00021577	0.00027602	9.0414e-05	704.82	4.3782e-06	5.4054e-06	1316.4	227.52	1.8075e-06	4.4829e-06	493.11	162.1	61.279	19.356	4.7501e-06	67.336	9.6294e-05	5.7057e-05	1.5948e-05	650.57	6.6297e-07	5.9407e-07	1223.2	211.29	7.0161e-07	5.9769e-07	455	152.38	57.344	17.952	6.4182e-07	62.507	230.180	-32.276	0.754	-82.913	68.263	44.545	-81.824	-78.706	69.263	46.394	-77.946	-73.541	-74.408	-70.202	49.396	-68.667	-8191	255	
40636.613	1	1	0	0	0.085762	0.033432	0.03048	0.27724	0.13057	0.23406	0.067781	0.14929	0.22093	0.10079	0.17663	0.18816	0.14781	0.030918	0.05883	0.30651	-2.6813	-3.7625	-3.4771	-3.3438	-3.925	-3.1729	-3.6083	-4.0563	-3.0854	-3.8	-3.6271	-3.0708	-3.8688	-3.3625	-3.4917	-3.8792	123.970	233.011	125.517	208.393	-32.291	-1.165	49.423	211.687	147.700	-7.398	185.566	150.383	214.128	-44.176	93.327	178.235	0.00020046	0.0003418	0.00014815	712.59	2.357e-06	3.0196e-06	1324.3	229.2	1.5932e-06	3.5594e-06	495.13	161.95	61.807	19.365	4.8409e-06	67.171	9.6665e-05	5.3436e-05	1.6294e-05	654.9	5.9196e-07	5.5353e-07	1226.4	212.05	7.03e-07	6.6939e-07	456.27	152.49	57.52	18.013	6.509e-07	62.508	223.845	8.218	-5.697	-83.017	53.692	34.487	-81.806	-78.687	29.780	35.179	-77.976	-73.674	-74.723	-69.694	29.478	-68.739	-8191	255	
40636.734	1	1	0	0	0.13349	0.039929	0.07368	0.10954	0.23565	0.075419	0.1786	0.053895	0.18378	0.135	0.082433	0.22955	0.054593	0.14102	0.25745	0.12116	-2.4583	-3.7687	-3.5396	-3.0896	-3.7917	-3.3438	-3.5604	-3.9458	-3.125	-3.6417	-3.8417	-3.0187	-3.7729	-3.3312	-3.2667	-4.1312	-34.393	207.452	114.693	250.576	19.540	-36.767	208.443	52.438	-62.576	47.568	148.807	225.092	185.285	-40.933	222.580	194.314	0.00020649	0.00057079	7.6642e-05	713.77	3.4822e-06	3.7685e-06	1326.1	230.89	1.9564e-06	3.8765e-06	495.1	163.87	62.546	19.651	3.8573e-06	68.006	9.9183e-05	5.7027e-05	1.5326e-05	654.55	6.5382e-07	5.9416e-07	1228.4	212.91	6.6026e-07	6.0143e-07	457.5	153.63	58.158	18.226	6.6187e-07	63.255	226.278	7.235	-11.920	-82.760	54.724	46.097	-82.308	-78.762	68.672	57.485	-78.332	-73.887	-74.665	-69.657	57.930	-68.719	-8191	255	
40636.828	1	1	0	0	0.16006	0.21592	0.18131	0.39023	0.035661	0.068253	0.28788	0.27647	0.13674	0.27267	0.11016	0.069987	0.083237	0.12048	0.062057	0.17635	-2.7146	-3.3812	-3.7375	-3.1063	-4.0125	-3.5458	-3.3042	-4.0604	-3.0792	-3.5938	-4	-3.1437	-3.6708	-3.5812	-3.2313	-3.9271	261.444	254.381	26.310	253.993	172.287	-52.138	215.669	253.107	32.152	146.061	252.515	169.360	150.731	250.947	207.668	187.710	0.00020322	0.0005316	0.00012923	712.37	3.0619e-06	2.6734e-06	1329.5	231.34	1.9292e-06	2.8829e-06	496.95	165.18	63.08	19.846	2.9814e-06	68.438	9.6725e-05	5.9085e-05	1.625e-05	655.57	6.5325e-07	6.2328e-07	1230.8	213.61	6.9068e-07	5.9237e-07	459.24	154.66	58.762	18.32	6.8275e-07	63.502	221.329	5.785	4.002	-82.572	65.562	53.182	-82.056	-78.964	63.081	41.236	-78.325	-73.950	-75.307	-69.454	44.298	-68.607	-8191	255	
40636.926	1	1	0	0	0.14263	0.23442	0.15131	0.060357	0.19871	0.25295	0.21	0.35195	0.25221	0.2039	0.1206	0.22851	0.093102	0.088156	0.12472	0.20343	-2.8875	-3.3917	-3.8021	-3.1354	-3.7042	-3.6875	-3.1729	-3.9896	-3.4583	-3.475	-4.0792	-3.0917	-3.5812	-3.6979	-3.2062	-3.9083	17.193	-1.520	260.203	192.647	117.203	-24.637	161.272	83.317	55.960	195.002	-90.661	195.580	123.592	231.643	-57.303	156.794	0.0001995	0.00030536	0.00011346	710.61	2.9044e-06	4.4471e-06	1325	231.62	2.7314e-06	5.0141e-06	498.83	164.61	62.197	19.645	3.4524e-06	67.815	0.00010348	5.6197e-05	1.62e-05	654.11	6.3868e-07	6.1509e-07	1229.3	213.85	6.9713e-07	6.0143e-07	458.91	154.61	58.164	18.193	6.2516e-07	63.219	224.279	4.369	2.422	-82.677	33.148	60.277	-81.870	-79.014	67.190	61.980	-78.141	-73.980	-74.965	-69.587	76.804	-68.345	-8191	255	
40637.047	1	1	0	0	0.054331	0.42008	0.16505	0.10444	0.11796	0.16205	0.31664	0.27501	0.21175	0.27256	0.23669	0.30389	0.1647	0.14149	0.016518	0.20564	-3.025	-3.2417	-3.8292	-3.3417	-3.7354	-3.6521	-3.3042	-4	-3.375	-3.3063	-4.1479	-3.2313	-3.6104	-3.7896	-3.1813	-3.8604	-37.531	252.937	253.943	230.260	-23.000	-51.233	191.499	-85.581	31.400	141.069	184.339	221.799	-17.460	192.639	4.919	186.374	0.00020666	0.00037594	0.00015279	711.4	1.7488e-06	3.378e-06	1326.9	230.45	2.6584e-06	4.823e-06	496.26	164.7	61.665	19.465	3.4583e-06	67.254	9.9137e-05	6.1727e-05	1.5627e-05	654.75	6.9001e-07	6.2427e-07	1227.9	213.29	6.6915e-07	6.055e-07	457.79	154.06	57.844	18.051	6.6649e-07	62.697	224.221	-12.474	-8.170	-82.949	63.698	47.878	-81.895	-78.973	42.858	51.814	-78.078	-73.624	-75.203	-69.917	81.485	-68.356	-8191	255	
40637.117	1	1	0	0	0.20283	0.12627	0.16978	0.14495	0.12744	0.056954	0.2125	0.11701	0.097716	0.042578	0.28127	0.27821	0.24381	0.20958	0.095682	0.07592	-3.0521	-3.1688	-3.6708	-3.2229	-3.4646	-3.8083	-3.2625	-3.8771	-3.4792	-3.0146	-4.0667	-3.3604	-3.4729	-3.7854	-3.0354	-3.7125	49.207	253.997	-54.817	-73.586	166.681	-79.005	207.123	-69.160	241.881	191.916	222.598	210.134	209.102	142.198	41.328	165.234	0.00020363	0.0005207	0.00011137	710.12	3.4945e-06	4.27e-06	1325.2	229.08	2.4377e-06	2.8925e-06	490.54	163.46	61.381	19.236	4.0564e-06	67.091	0.00010323	5.8434e-05	1.6192e-05	652.21	6.6589e-07	6.4827e-07	1224.6	211.67	7.2429e-07	6.556e-07	454.48	152.3	57.37	17.873	6.3844e-07	62.262	227.444	-1.874	17.437	-82.590	42.212	40.558	-81.971	-78.925	63.499	93.632	-78.018	-73.609	-75.003	-69.542	58.403	-68.657	-8191	255	
40637.215	1	1	0	0	0.12586	0.20033	0.075015	0.10207	0.16552	0.16072	0.048187	0.27218	0.19545	0.078468	0.25392	0.34709	0.10981	0.27126	0.12915	0.43415	-3.3812	-3.2313	-4.0333	-3.2812	-3.2896	-3.8979	-3.3958	-3.8438	-3.6958	-3.0458	-3.9188	-3.3271	-3.3771	-3.8146	-3.1104	-3.4896	253.266	-55.819	234.195	182.206	-5.609	-86.240	228.416	235.301	144.005	154.100	-75.793	256.601	220.946	238.104	-69.523	240.166	0.00019294	0.00043727	0.00011692	709.32	2.1505e-06	4.7943e-06	1320.4	227.85	1.8501e-06	3.6683e-06	496.04	162.03	61.535	19.125	2.8301e-06	66.477	9.8998e-05	6.2281e-05	1.6607e-05	653.65	6.3739e-07	5.9705e-07	1224.2	210.93	6.8807e-07	6.5743e-07	454.68	152.27	57.201	17.838	6.6559e-07	62	227.162	14.092	11.627	-82.431	47.731	63.024	-81.846	-79.284	50.250	46.963	-78.596	-73.753	-74.706	-69.278	45.988	-68.972	-8191	255	
40637.312	1	1	0	0	0.31033	0.1204	0.096157	0.27063	0.066731	0.15825	0.17122	0.040556	0.20738	0.25793	0.26802	0.22308	0.062349	0.11983	0.05798	0.17559	-3.3729	-2.9708	-3.8833	-3.6083	-3.2667	-3.7875	-3.3458	-3.4854	-3.6875	-3.1417	-3.8979	-3.5979	-3.3896	-3.9354	-3.2042	-3.6208	185.567	-4.750	-54.887	200.496	75.196	15.527	170.359	224.289	-10.066	64.755	-85.246	229.203	-46.333	-18.966	125.304	-92.799	0.00018919	0.00040653	0.00010824	708.21	3.1089e-06	5.0146e-06	1316.1	226.6	1.4796e-06	3.5466e-06	493.74	162.49	61.383	19.141	2.9303e-06	66.992	9.5485e-05	5.7806e-05	1.6567e-05	653.04	6.901e-07	5.9267e-07	1222.3	210.3	6.4811e-07	6.1157e-07	454.57	152.3	57.113	17.81	6.3951e-07	62.284	227.058	-3.967	18.514	-82.566	61.121	52.451	-82.003	-78.843	53.135	64.716	-78.401	-73.745	-75.135	-69.918	44.820	-68.839	-8191	255	
40637.406	1	1	0	0	0.15041	0.095041	0.14893	0.12234	0.10103	0.038445	0.089098	0.43662	0.089994	0.20107	0.30467	0.14451	0.28034	0.14169	0.10317	0.27827	-3.4188	-2.9208	-3.8479	-3.8146	-3.2188	-4.1292	-3.475	-3.5042	-3.7729	-3.0792	-3.9104	-3.7292	-3.2167	-3.9271	-3.3167	-3.4042	146.857	-81.683	-23.708	-64.293	-28.815	57.296	193.397	197.406	70.993	-41.043	123.849	222.119	-62.492	21.896	-18.929	258.460	0.00018331	0.00045264	0.00010774	709.51	5.5131e-06	4.3497e-06	1322.4	227.13	2.2697e-06	3.7945e-06	493.01	162.73	61.537	19.229	2.9669e-06	66.91	9.7169e-05	5.7768e-05	1.6476e-05	654.24	7.0427e-07	5.9838e-07	1223.3	210.87	6.6548e-07	6.0816e-07	454.59	152.32	57.32	17.813	6.2986e-07	61.922	225.421	-8.733	-18.920	-82.732	67.282	61.918	-81.981	-78.843	47.277	74.587	-78.395	-73.327	-75.114	-70.232	66.298	-68.817	-8191	255	
40637.527	1	1	0	0	0.20438	0.15668	0.22928	0.35378	0.059207	0.066579	0.063065	0.10745	0.097484	0.12911	0.31072	0.30326	0.25353	0.084665	0.09091	0.25702	-3.5125	-2.9479	-3.6625	-3.7417	-3.0771	-3.8	-3.4917	-3.2583	-3.9083	-3.2188	-3.6958	-3.7458	-3.0125	-3.8312	-3.5229	-3.1771	167.871	142.255	258.180	-84.617	1.511	164.272	149.453	233.876	49.296	-35.327	220.039	214.239	-93.793	-46.061	79.978	250.950	0.0001818	0.00050937	0.00015189	707.79	4.3744e-06	4.1761e-06	1316.2	227.98	1.8139e-06	4.7199e-06	494.21	161.08	61.427	19.189	3.6303e-06	66.067	9.4736e-05	5.9048e-05	1.6013e-05	654.1	6.9795e-07	5.834e-07	1220.7	210.88	6.5961e-07	6.5252e-07	454.99	151.64	57.177	17.802	6.2895e-07	61.627	219.738	-15.748	2.839	-82.356	49.089	29.573	-82.057	-79.071	36.375	51.083	-78.447	-73.650	-74.852	-69.910	47.140	-68.728	-8191	255	
40637.621	1	1	0	0	0.13674	0.12133	0.021833	0.15798	0.19607	0.12459	0.19176	0.15044	0.08662	0.17781	0.17623	0.21083	0.20761	0.052456	0.051991	0.098404	-3.6167	-3.2333	-3.4125	-3.8542	-3.0646	-3.6396	-3.6208	-3.2354	-3.7583	-3.0479	-3.5521	-3.9813	-3.0687	-3.6937	-3.6104	-3.0604	115.326	-41.197	-52.448	253.985	253.469	212.421	215.235	60.606	178.218	-83.620	234.661	243.691	221.348	1.113	94.339	-14.668	0.00016955	0.00047942	0.00011019	711.79	3.6078e-06	4.9813e-06	1311.9	226.35	2.6128e-06	4.7131e-06	491.49	161.64	61.434	19.204	3.4567e-06	66.494	9.2039e-05	5.4229e-05	1.5385e-05	655.12	6.5884e-07	5.8142e-07	1219.5	210.21	6.5569e-07	6.4671e-07	453.81	151.5	57.152	17.809	5.7937e-07	61.778	229.155	9.440	-8.769	-82.672	41.383	52.244	-81.876	-79.047	81.011	61.262	-78.130	-73.704	-74.757	-69.650	39.841	-68.868	-8191	255	
40637.719	1	1	0	0	0.14326	0.19105	0.16671	0.22246	0.1271	0.14497	0.13506	0.19377	0.11969	0.20871	0.36819	0.037763	0.1999	0.10869	0.042056	0.015355	-3.525	-3.3563	-3.3083	-3.8333	-3.1375	-3.6625	-3.7792	-3.3021	-3.85	-3.4604	-3.4604	-4.0854	-3.1979	-3.6375	-3.8396	-3.2062	17.438	161.201	234.985	215.761	59.641	-9.590	-44.276	172.388	35.247	-23.362	214.271	121.904	-86.723	141.106	18.559	102.156	0.00021642	0.00043172	0.00011045	709.63	4.6583e-06	3.7792e-06	1316.3	227.63	2.4453e-06	4.9494e-06	491.03	161.47	61.106	19.01	5.2104e-06	66.501	9.4113e-05	5.5172e-05	1.5076e-05	652.49	6.7099e-07	6.0756e-07	1221	210.3	6.1377e-07	6.4455e-07	453.29	151.97	57.123	17.725	6.0701e-07	61.767	227.457	-19.623	-17.716	-82.711	61.272	47.557	-81.954	-78.856	42.910	32.048	-78.374	-73.702	-74.564	-69.770	53.843	-68.435	-8191	255	
40637.816	1	1	0	0	0.17676	0.23474	0.15016	0.21414	0.033722	0.096486	0.084952	0.044551	0.1802	0.091282	0.058862	0.37781	0.1892	0.11953	0.038883	0.17093	-3.6146	-3.4562	-3.1917	-4.0375	-3.2042	-3.55	-3.8292	-3.2854	-3.9021	-3.5625	-3.3438	-4.0083	-3.1312	-3.5687	-3.6833	-3.1521	23.906	72.492	168.517	206.929	-25.497	125.111	183.983	10.108	-54.979	9.710	147.826	196.270	217.722	-50.316	-83.956	109.847	0.00018579	0.00043848	0.0001272	716.14	3.1169e-06	5.5175e-06	1322.5	227.37	3.3517e-06	5.0047e-06	489.68	160.73	60.61	19.071	3.3697e-06	65.803	9.3928e-05	5.4012e-05	1.4682e-05	655.89	6.5325e-07	5.8688e-07	1224	211.01	6.4639e-07	5.9387e-07	452.37	151.25	56.993	17.681	6.0758e-07	61.253	224.431	-17.133	26.737	-82.582	43.961	48.315	-81.874	-79.418	45.032	48.417	-78.390	-73.621	-74.726	-69.820	70.480	-68.546	-8191	255	
40637.910	1	1	0	0	0.08778	0.073538	0.16347	0.11598	0.36759	0.37815	0.18781	0.20036	0.20061	0.09694	0.16502	0.1623	0.12037	0.15519	0.088741	0.15781	-3.4208	-3.4083	-3.2021	-4.0938	-3.1396	-3.2771	-4.0396	-3.0917	-3.7458	-3.6667	-3.2938	-4.0833	-3.3521	-3.3104	-3.9021	-3.3312	-30.974	21.690	95.270	-65.619	-10.785	35.908	146.746	-54.251	11.789	-63.179	-77.843	165.242	229.527	240.167	-37.848	163.003	0.0001945	0.00039155	0.00013467	712.71	3.3652e-06	5.0013e-06	1321.6	229.13	3.1024e-06	3.9749e-06	487.8	161.94	61.668	19.175	5.2028e-06	66.629	9.8699e-05	5.2433e-05	1.508e-05	656.75	6.5374e-07	6.0566e-07	1221.8	211.31	6.1018e-07	5.299e-07	451.59	151.91	57.345	17.84	6.2029e-07	61.94	226.913	0.102	-13.510	-82.680	73.053	54.157	-81.782	-79.113	52.229	68.013	-78.312	-73.505	-75.407	-69.769	17.698	-68.561	-8191	255	
40638.008	1	1	0	0	0.2849	0.14659	0.014084	0.19352	0.12824	0.035791	0.33389	0.14027	0.076846	0.13723	0.092799	0.17927	0.1814	0.16961	0.22373	0.41111	-3.3563	-3.5563	-3.0583	-3.8979	-3.4229	-3.4875	-4.1375	-3.1021	-3.6562	-3.75	-3.2313	-4.0083	-3.3937	-3.1708	-3.8854	-3.2938	-33.656	201.557	225.991	214.414	-63.119	23.717	171.817	257.553	16.889	28.060	187.637	-55.124	179.045	109.106	180.440	203.893	0.00020622	0.00035059	0.00012286	711.05	4.03e-06	3.7741e-06	1316.3	228.03	1.4601e-06	3.6114e-06	495.47	163.19	61.497	19.399	4.8154e-06	66.777	9.6685e-05	5.253e-05	1.6063e-05	656.42	6.607e-07	5.7231e-07	1222.6	211.19	6.5659e-07	5.8232e-07	454.36	152.56	57.56	17.987	6.0767e-07	62.385	221.266	14.741	-12.734	-82.773	53.987	20.523	-81.753	-79.291	-10.519	67.582	-78.220	-73.549	-74.370	-69.434	56.229	-68.797	-8191	255	
40638.129	1	1	0	0	0.15753	0.24023	0.22148	0.1993	0.30271	0.23001	0.23194	0.17042	0.14281	0.13024	0.25507	0.11129	0.084492	0.10516	0.1486	0.24434	-3.1292	-3.7542	-3.0354	-3.8333	-3.4958	-3.1896	-4.0833	-3.4417	-3.3167	-4.1333	-3.3937	-3.975	-3.5417	-3.2292	-3.9583	-3.2979	197.674	128.253	23.023	-37.669	35.177	1.411	196.734	119.106	-21.737	15.873	-92.997	183.508	-88.991	126.638	131.450	162.104	0.0001957	0.00064392	0.00010739	720.32	3.0464e-06	4.7531e-06	1326.8	229.93	2.6877e-06	2.7891e-06	495.52	164.08	62.725	19.604	3.2913e-06	67.353	9.3537e-05	5.1617e-05	1.4888e-05	660.33	6.2597e-07	5.6834e-07	1228.1	212.5	6.2967e-07	5.5042e-07	456.25	153.65	58.076	18.074	5.9149e-07	62.62	222.422	0.802	0.009	-82.577	74.178	45.452	-81.917	-78.618	53.925	52.834	-78.241	-73.751	-74.822	-70.016	28.774	-68.786	-8191	255	
40638.223	1	1	0	0	0.15665	0.13528	0.27942	0.233	0.15766	0.12657	0.25244	0.14326	0.074039	0.11975	0.092425	0.19952	0.13343	0.28558	0.081793	0.13817	-2.9437	-4.0021	-3.0646	-3.6792	-3.5833	-3.0396	-4.1167	-3.5333	-3.1417	-3.8646	-3.1958	-3.7771	-3.7271	-3.1312	-3.9188	-3.5521	102.824	-27.786	11.772	232.256	154.900	124.572	195.389	241.355	48.286	-12.649	185.854	157.744	119.292	74.888	186.772	-8.850	0.00020441	0.00038128	0.00012558	710.5	3.5229e-06	5.5559e-06	1322.3	228.93	1.4786e-06	4.8383e-06	491.55	163.24	61.635	19.443	2.7479e-06	66.922	9.298e-05	5.0862e-05	1.5558e-05	657.08	6.4581e-07	5.5097e-07	1224.1	211.87	6.4615e-07	5.7227e-07	454.45	152.81	57.672	17.968	5.6617e-07	61.987	226.301	-35.850	9.157	-82.898	29.004	54.665	-82.056	-78.737	37.555	59.883	-78.625	-73.897	-75.274	-69.454	38.107	-68.396	-8191	255	
40638.320	1	1	0	0	0.11482	0.086642	0.17491	0.19378	0.24674	0.12358	0.12446	0.12977	0.13594	0.092772	0.19593	0.31533	0.2457	0.26868	0.16753	0.049812	-2.9167	-4.0021	-3.0896	-3.5563	-3.9292	-3.3917	-4.0542	-3.5708	-3.1979	-3.9792	-3.1917	-3.6458	-3.7625	-3.0604	-3.7667	-3.5896	41.618	149.749	11.674	202.434	257.448	131.307	-82.053	-82.351	262.184	21.071	245.575	236.559	206.580	134.980	-0.929	73.509	0.00019758	0.00029086	8.7023e-05	713.29	3.4693e-06	4.3765e-06	1310.1	228.46	2.7065e-06	4.1586e-06	489.83	161.06	61.144	19.02	2.6903e-06	66.653	9.475e-05	4.9821e-05	1.614e-05	655.3	5.8905e-07	6.2188e-07	1217.7	211.23	6.3873e-07	5.2358e-07	452.92	151.4	57.42	17.743	6.0263e-07	61.565	224.251	-33.928	10.478	-82.832	56.382	37.846	-82.011	-78.950	69.993	63.055	-78.145	-73.333	-74.857	-70.069	86.848	-68.511	-8191	255	
40638.414	1	1	0	0	0.26655	0.10489	0.30835	0.080803	0.034558	0.16553	0.13525	0.042877	0.074947	0.13847	0.17188	0.13671	0.14827	0.13352	0.037231	0.16123	-2.8792	-3.8146	-3.2271	-3.6688	-3.6875	-3.0479	-4.0104	-3.5854	-3.0958	-3.9604	-3.5167	-3.4146	-3.9271	-3.1521	-3.7042	-3.8187	26.783	-30.317	126.635	92.743	-8.056	220.568	18.546	24.542	-1.938	229.480	244.561	-91.210	-93.386	-87.712	93.102	184.121	0.00018257	0.00033411	0.0001305	712.15	2.7404e-06	3.1553e-06	1315.5	228.82	2.4837e-06	4.5802e-06	489.16	161.32	62.181	19.249	2.9386e-06	66.329	9.2808e-05	4.8953e-05	1.5009e-05	654	5.7787e-07	5.7612e-07	1220.9	211.02	6.4411e-07	5.7509e-07	452.76	151.58	57.704	17.84	5.8778e-07	61.634	232.120	-3.542	-6.095	-82.689	60.711	73.699	-81.874	-79.067	39.367	43.707	-78.163	-73.731	-74.798	-70.202	73.338	-68.721	-8191	255	
40638.512	1	1	0	0	0.067751	0.13736	0.043817	0.19601	0.13259	0.14443	0.41192	0.26641	0.10759	0.084363	0.15887	0.43096	0.17508	0.13776	0.20668	0.39665	-2.6729	-3.7687	-3.3146	-3.5583	-3.9188	-3.1875	-3.7396	-3.8146	-3.1792	-3.7458	-3.5333	-3.2083	-3.8625	-3.1833	-3.5146	-4.0292	40.860	-73.381	127.260	-54.210	228.949	69.817	147.061	253.984	158.011	-28.866	232.265	-82.711	125.152	192.659	28.664	219.928	0.00016463	0.00032152	0.00014179	706.51	2.9101e-06	4.1134e-06	1311.9	227.59	3.1299e-06	4.093e-06	495.12	162.29	61.977	19.294	2.3064e-06	66.363	9.3809e-05	5.0891e-05	1.4966e-05	653.6	6.0767e-07	6.2361e-07	1218.8	211.33	6.7462e-07	5.7617e-07	455.34	152.04	57.955	17.898	6.2433e-07	61.882	223.310	3.413	8.580	-82.627	72.119	59.438	-81.800	-79.164	65.653	23.823	-78.221	-73.934	-74.754	-69.778	74.493	-68.613	-8191	255	
40638.605	1	1	0	0	0.15485	0.065217	0.098448	0.31279	0.28424	0.18353	0.17068	0.21731	0.074206	0.12149	0.17663	0.23321	0.092678	0.029625	0.27306	0.12076	-2.6542	-3.8688	-3.3104	-3.5438	-3.9042	-3.1792	-3.6667	-3.9021	-2.9104	-3.6063	-3.5125	-3.2396	-3.8625	-3.3	-3.2792	-4.0458	233.182	-77.774	240.696	200.201	58.667	-45.878	199.778	206.787	84.815	-92.637	-90.076	201.425	146.316	-19.050	217.142	224.696	0.00017812	0.00035961	7.1374e-05	713.98	3.4345e-06	5.5622e-06	1321.9	228.16	3.0127e-06	5.1118e-06	492.98	162.21	61.62	19.103	4.4963e-06	66.387	9.4551e-05	5.1595e-05	1.4405e-05	654.34	6.2726e-07	6.3321e-07	1221.2	211.27	6.7258e-07	5.5042e-07	454.28	152.11	57.503	17.765	6.0767e-07	61.712	222.456	-6.359	3.214	-83.084	87.286	40.614	-81.914	-79.053	59.643	57.248	-78.089	-73.770	-74.795	-70.035	48.830	-68.850	-8191	255	
40638.703	1	1	0	0	0.077167	0.24007	0.14033	0.11776	0.15434	0.21829	0.17746	0.15807	0.11678	0.21186	0.035884	0.14421	0.14766	0.1125	0.22031	0.1175	-2.7604	-3.6292	-3.6083	-3.2375	-3.6479	-3.1562	-3.6167	-3.9458	-3.0583	-3.5792	-3.8854	-3.2646	-3.9292	-3.4146	-3.3375	-4.0792	-64.561	-42.811	122.303	116.043	-63.564	3.394	-60.244	171.534	61.423	113.571	41.331	-31.965	-95.967	23.530	-90.562	7.414	0.00018335	0.00046751	0.00013544	708.01	1.9189e-06	3.1368e-06	1321.8	228.83	2.0342e-06	4.6178e-06	489.69	161.48	61.067	19.157	4.7111e-06	65.615	9.7082e-05	5.253e-05	1.4234e-05	653.03	6.2135e-07	5.4915e-07	1221.6	211.67	6.7682e-07	5.8191e-07	452.92	151.45	57.138	17.741	6.4991e-07	60.946	225.027	-4.552	7.489	-82.849	77.297	51.545	-81.702	-78.867	84.285	70.618	-78.256	-73.455	-75.007	-70.163	68.220	-68.642	-8191	255	
40638.824	1	1	0	0	0.10349	0.18903	0.26937	0.29293	0.049804	0.29747	0.034827	0.30525	0.083607	0.17861	0.27985	0.19178	0.32682	0.32852	0.096571	0.20776	-2.7979	-3.5479	-3.6396	-3.0021	-3.7875	-3.5125	-3.4271	-4.0417	-3.225	-3.4979	-3.95	-3.1667	-3.8563	-3.3479	-3.2625	-4.0104	78.716	140.915	208.872	-93.504	109.807	71.252	-96.539	245.799	-41.955	203.669	225.657	98.657	220.202	256.843	86.857	196.386	0.00020282	0.000626	9.2983e-05	707.95	2.7054e-06	3.4445e-06	1316.2	227.22	2.3405e-06	4.7731e-06	492.74	160.75	61.881	19.138	3.0768e-06	65.731	9.7467e-05	5.4857e-05	1.4271e-05	653.24	6.3439e-07	5.7554e-07	1217.6	210.83	6.2078e-07	6.1996e-07	453.6	150.72	57.342	17.694	6.2524e-07	61.07	218.754	-26.893	-27.359	-82.921	63.304	68.542	-81.990	-78.759	70.786	65.481	-78.133	-73.679	-75.082	-69.949	24.452	-68.888	-8191	255	
40638.918	1	1	0	0	0.055454	0.072566	0.1896	0.15706	0.11572	0.14163	0.19773	0.17867	0.22373	0.11178	0.18261	0.25508	0.25867	0.1631	0.18607	0.16794	-2.9208	-3.4	-3.7438	-3.0563	-3.7208	-3.8167	-3.4667	-3.9375	-3.2604	-3.25	-4.1479	-3.1937	-3.6125	-3.6958	-3.1396	-4.0292	-86.533	175.195	155.200	32.293	204.233	231.778	201.508	215.735	261.159	163.954	-72.497	199.588	232.757	-16.283	256.662	211.983	0.00019007	0.00036886	0.00011746	707.52	3.1523e-06	4.6837e-06	1320.9	228.45	2.7246e-06	3.0046e-06	491.32	161.03	61.014	19.191	2.9822e-06	66.258	9.5651e-05	5.375e-05	1.4734e-05	652.57	6.4038e-07	5.6189e-07	1221.8	210.52	6.6597e-07	5.4128e-07	453.12	151.56	57.17	17.828	6.1905e-07	61.51	218.738	-38.262	18.617	-82.703	66.374	42.398	-81.858	-78.845	29.916	63.593	-78.228	-73.830	-75.116	-69.403	39.465	-68.295	-8191	255	
40638.992	1	1	0	0	0.3056	0.19226	0.080035	0.30186	0.014036	0.15687	0.32269	0.32466	0.13471	0.14453	0.19991	0.069591	0.15034	0.12793	0.14199	0.14426	-2.9688	-3.1521	-3.8542	-3.3396	-3.5958	-3.8875	-3.2313	-3.9083	-3.3146	-3.2938	-4.1417	-3.2229	-3.5333	-3.7583	-3.1125	-3.9625	104.418	87.595	45.780	242.717	183.314	131.637	210.756	235.615	240.697	-28.712	244.756	19.095	176.963	-75.503	220.274	222.396	0.00018423	0.00051446	0.00010376	709.09	2.4571e-06	5.3443e-06	1325.2	229.17	3.065e-06	5.126e-06	495.01	162.32	62.085	19.42	4.1817e-06	66.606	9.4717e-05	5.4094e-05	1.5132e-05	653.45	6.2759e-07	5.5833e-07	1223.4	212.09	6.1377e-07	5.9329e-07	456.68	152.48	57.774	17.96	6.047e-07	61.882	223.402	11.160	2.116	-82.444	71.108	64.946	-81.911	-78.545	95.740	38.587	-78.202	-73.497	-75.268	-69.766	59.696	-68.802	-8191	255	
40639.086	1	1	0	0	0.070889	0.11893	0.11152	0.091737	0.32347	0.22217	0.14808	0.18715	0.1156	0.031742	0.29141	0.012423	0.12607	0.16179	0.18134	0.10863	-3.175	-3.1	-3.8875	-3.2792	-3.6813	-3.8646	-3.1146	-3.7104	-3.5708	-3.0167	-3.9813	-3.3042	-3.5438	-3.6833	-3.1813	-3.6125	103.415	235.341	-39.238	136.692	262.549	193.167	226.090	247.866	-58.254	182.213	191.626	236.104	-92.234	68.235	56.148	224.628	0.00018857	0.00034625	0.00014495	712.1	3.5614e-06	3.8667e-06	1317.1	230.37	3.0189e-06	4.3885e-06	491.23	163.07	61.538	19.365	3.99e-06	66.579	9.7937e-05	5.5127e-05	1.4275e-05	654.57	6.0702e-07	5.5254e-07	1222.2	212.12	6.6132e-07	5.5956e-07	454.18	152.53	57.609	17.948	6.2805e-07	61.747	217.764	-4.118	-7.167	-82.897	36.467	54.363	-82.009	-79.089	23.791	57.390	-78.481	-73.468	-74.569	-69.270	65.666	-68.736	-8191	255	
40639.207	1	1	0	0	0.065472	0.092645	0.071763	0.078381	0.16532	0.15127	0.16185	0.078593	0.076722	0.16363	0.3302	0.2605	0.21257	0.062292	0.2475	0.22134	-3.3646	-3.0458	-4.0146	-3.1937	-3.4188	-3.8625	-3.2229	-3.6854	-3.7604	-3.0646	-4.0875	-3.4229	-3.3583	-3.9854	-3.075	-3.6354	-46.543	16.565	201.988	117.029	-29.650	224.644	205.983	8.267	95.026	14.865	178.857	143.956	174.279	5.319	173.523	196.954	0.00020976	0.00033224	0.00012864	708.84	3.8167e-06	6.6198e-06	1315.8	229.35	1.2717e-06	4.5581e-06	494.01	162.52	61.756	19.484	3.994e-06	66.386	9.5744e-05	5.6272e-05	1.4398e-05	652.97	5.8119e-07	5.2209e-07	1220.6	211.88	6.3856e-07	6.2469e-07	456.33	152.42	57.744	17.957	6.2202e-07	61.664	223.197	-10.586	-1.162	-82.755	61.138	31.220	-82.029	-78.836	73.411	46.119	-78.241	-73.865	-75.288	-69.150	56.140	-68.400	-8191	255	
40639.301	1	1	0	0	0.1782	0.16641	0.073868	0.16267	0.2256	0.11645	0.35009	0.10738	0.21272	0.15691	0.17891	0.058299	0.069368	0.11913	0.18512	0.10853	-3.3375	-3.0979	-3.8271	-3.4813	-3.1896	-3.8375	-3.175	-3.5021	-3.8375	-3.0854	-3.8187	-3.6458	-3.3333	-4.0563	-3.3021	-3.7125	170.896	86.792	169.364	209.516	177.146	150.472	137.070	240.728	238.744	183.341	262.185	-49.513	233.489	-86.189	115.997	252.070	0.00019074	0.00039695	0.00011751	706.48	3.5453e-06	3.651e-06	1315.5	227.57	2.418e-06	3.2174e-06	492.17	162.8	61.636	19.437	3.5402e-06	66.379	9.4889e-05	5.482e-05	1.444e-05	652.92	5.8484e-07	5.6934e-07	1221.6	211.11	6.3082e-07	5.8639e-07	454.38	152.29	57.632	17.922	6.4265e-07	61.874	225.090	4.838	8.696	-82.582	63.589	41.221	-82.112	-79.281	41.816	36.418	-78.388	-73.457	-74.951	-69.596	42.958	-68.688	-8191	255	
40639.398	1	1	0	0	0.2752	0.11956	0.1281	0.21864	0.050833	0.26308	0.26365	0.16026	0.084737	0.17919	0.072864	0.080013	0.29803	0.097353	0.23361	0.24006	-3.4813	-3.1542	-3.7562	-3.5771	-3.2271	-3.9396	-3.4104	-3.5729	-3.9333	-3.0042	-3.8708	-3.7271	-3.2479	-4.0062	-3.4	-3.4396	32.865	-26.040	91.443	-78.787	-24.967	75.625	66.441	169.231	26.022	193.593	149.346	209.642	0.441	155.154	-82.450	146.113	0.00020193	0.00036135	0.00015776	711.08	3.454e-06	4.8448e-06	1322.3	230.53	3.9903e-06	3.0044e-06	493.69	164.03	62.509	19.335	3.1707e-06	67.275	9.3762e-05	5.2104e-05	1.6165e-05	653.54	6.3269e-07	5.6503e-07	1223.8	212.05	6.3571e-07	5.5665e-07	456.27	153.28	57.887	17.967	5.8572e-07	62.206	217.617	2.630	-0.183	-82.859	62.363	19.689	-81.759	-79.307	64.390	55.816	-78.467	-73.451	-75.328	-70.072	51.926	-68.738	-8191	255	
40639.520	1	1	0	0	0.24907	0.25246	0.060425	0.22246	0.27211	0.10699	0.12319	0.12542	0.12329	0.022195	0.20336	0.14318	0.10173	0.12631	0.1762	0.1976	-3.4771	-3.1146	-3.4979	-3.7	-3.0687	-3.9229	-3.6021	-3.2708	-3.9521	-3.1292	-3.7188	-3.8958	-3.0062	-4.0188	-3.4813	-3.2542	117.533	-64.879	215.975	202.916	237.454	-6.762	180.535	-87.693	168.119	151.165	60.340	206.518	83.490	-10.910	223.727	195.763	0.00021234	0.00033757	0.0001734	708.35	3.8377e-06	5.4723e-06	1327.2	230.33	2.927e-06	2.9637e-06	494.94	163.59	61.946	19.354	3.5566e-06	66.938	9.6393e-05	5.5703e-05	1.5216e-05	654.36	6.471e-07	5.6379e-07	1223.8	212.07	6.287e-07	5.4676e-07	456.18	153.34	57.888	17.94	6.0915e-07	62.065	223.292	-1.910	-5.509	-82.575	41.498	46.104	-81.767	-78.583	42.424	76.674	-78.292	-73.789	-74.719	-69.258	26.625	-68.701	-8191	255	
40639.613	1	1	0	0	0.037748	0.22183	0.16027	0.31515	0.34317	0.31947	0.053068	0.084713	0.2972	0.17932	0.13856	0.35353	0.093619	0.15344	0.20185	0.26806	-3.5938	-3.0812	-3.5792	-3.8479	-3.0292	-3.65	-3.6479	-3.2833	-3.9313	-3.2375	-3.3375	-4.0167	-3.0292	-3.7208	-3.6521	-3.2583	177.813	-90.277	87.985	206.536	120.584	-56.398	159.417	-72.716	-47.123	-6.937	222.179	217.342	102.628	-85.985	145.001	192.920	0.00019463	0.00059899	0.00014465	709.43	3.2262e-06	3.7499e-06	1316.6	229.59	2.4608e-06	4.3345e-06	491.97	163.92	61.79	19.288	3.8066e-06	66.672	9.4272e-05	5.8113e-05	1.6209e-05	653.61	6.1366e-07	5.9383e-07	1221.7	211.55	6.5553e-07	5.5108e-07	454.48	152.95	57.755	17.957	5.8407e-07	61.877	225.970	-13.445	8.002	-82.626	58.971	37.640	-81.946	-79.135	52.519	16.465	-78.601	-73.720	-75.071	-69.537	60.672	-68.471	-8191	255	
40639.688	1	1	0	0	0.10495	0.1661	0.064061	0.095971	0.26013	0.16341	0.35179	0.068012	0.16828	0.1857	0.35033	0.28748	0.38832	0.11703	0.11162	0.23169	-3.5396	-3.1396	-3.2625	-3.8271	-3.1229	-3.5958	-3.8063	-3.1604	-4.0458	-3.3542	-3.2521	-4.0188	-3.2188	-3.6417	-3.7313	-3.1458	19.018	74.511	135.016	-25.172	-2.530	-67.546	224.059	197.162	81.171	167.382	-84.856	234.681	171.230	261.210	-55.455	155.748	0.00019159	0.00027137	9.9919e-05	714.29	3.2063e-06	5.3517e-06	1316	228.73	3.0378e-06	3.7509e-06	496	164.43	62.142	19.526	5.7345e-06	66.669	9.2954e-05	5.6825e-05	1.5009e-05	654.83	6.5763e-07	5.537e-07	1222.1	212.11	5.9183e-07	5.3471e-07	457.59	153.89	58.246	18.081	5.6311e-07	62.25	220.300	12.042	-6.524	-82.699	53.696	53.623	-81.578	-79.291	73.024	38.170	-78.252	-73.895	-75.014	-69.504	52.424	-68.648	-8191	255	
40639.809	1	1	0	0	0.12322	0.23018	0.2048	0.24716	0.098566	0.055509	0.12125	0.080226	0.27655	0.14854	0.13306	0.24338	0.083766	0.20389	0.24451	0.094531	-3.575	-3.3271	-3.1104	-4.0896	-3.1875	-3.5708	-3.9688	-3.2417	-3.8521	-3.7208	-3.3271	-3.9083	-3.3271	-3.4375	-3.6979	-3.0771	-13.977	30.327	-27.983	223.073	-80.728	46.197	133.035	44.444	9.180	-17.898	215.231	239.038	73.176	261.765	144.683	99.609	0.00018097	0.00051571	0.00013778	714.38	4.3322e-06	4.5363e-06	1317.6	229.31	2.7715e-06	6.0006e-06	498.13	164.15	62.171	19.498	3.7664e-06	67.218	9.8925e-05	5.1707e-05	1.5264e-05	655.09	5.9512e-07	5.5866e-07	1222.3	212.33	6.3065e-07	5.8614e-07	458.75	153.85	58.116	18.095	5.3316e-07	62.314	215.925	3.851	-0.376	-82.459	44.845	72.675	-81.814	-79.365	46.990	42.967	-78.347	-73.650	-74.801	-69.726	45.022	-68.928	-8191	255	
40639.902	1	1	0	0	0.10327	0.071528	0.097501	0.1637	0.32207	0.19901	0.2692	0.10985	0.12165	0.21605	0.13893	0.1229	0.042306	0.18663	0.029539	0.13687	-3.6042	-3.4521	-2.9583	-4.0312	-3.2833	-3.3125	-4.0917	-3.1063	-3.6958	-3.6417	-3.2	-4.1104	-3.4604	-3.3792	-3.7708	-3.3438	-37.990	128.146	187.412	-40.329	-49.404	159.320	223.497	-87.996	134.993	118.887	-70.504	56.528	208.559	227.362	248.235	260.215	0.0002186	0.00047509	0.00012829	707.9	3.9904e-06	3.5252e-06	1321.3	230.33	1.6018e-06	3.4062e-06	496.6	164.82	62.475	19.456	3.9772e-06	66.759	9.6638e-05	4.9919e-05	1.5087e-05	654.2	6.2103e-07	5.7231e-07	1222.7	212.68	6.4036e-07	5.4427e-07	456.77	153.98	58.086	18.024	5.7854e-07	62.07	225.918	-9.722	-27.843	-83.067	66.938	45.361	-81.608	-79.256	60.825	47.619	-78.426	-73.635	-74.996	-70.179	66.951	-68.937	-8191	255	
40640.000	1	1	0	0	0.29915	0.11681	0.031145	0.13341	0.089976	0.20865	0.38845	0.14396	0.11054	0.14465	0.14362	0.18189	0.15725	0.076986	0.075278	0.16639	-3.3146	-3.6312	-3.3063	-4.0083	-3.5438	-3.3854	-3.9583	-3.1021	-3.4354	-3.6208	-3.0812	-3.9833	-3.5979	-3.0833	-3.9042	-3.1937	144.865	130.581	80.630	75.417	114.965	88.741	247.048	155.720	177.139	-36.520	258.299	241.278	-71.929	81.292	174.579	-67.282	0.00019131	0.00036774	0.00013182	714.02	3.021e-06	3.6997e-06	1318.6	229.9	3.1272e-06	2.6729e-06	495.73	165.21	62.621	19.696	3.4194e-06	67.584	9.3331e-05	4.9357e-05	1.6521e-05	653.31	6.1569e-07	5.6909e-07	1222.7	212.63	6.6931e-07	5.6047e-07	458.57	154.52	58.528	18.177	5.6039e-07	62.594	220.768	-17.903	-20.254	-82.950	42.032	29.632	-81.627	-78.982	49.266	67.814	-78.472	-73.749	-74.673	-69.695	57.134	-68.621	-8191	255	
40640.121	1	1	0	0	0.19985	0.078957	0.23287	0.2011	0.08919	0.20897	0.17566	0.27686	0.11775	0.10198	0.088344	0.12406	0.10757	0.16852	0.089808	0.33983	-3.2229	-3.7687	-3.0021	-4.0021	-3.5062	-3.2104	-4.2063	-3.3229	-3.3292	-3.6958	-3.2167	-3.7875	-3.6229	-3.0542	-3.8604	-3.5875	-35.326	23.774	181.014	-61.565	151.487	236.192	215.029	202.175	-56.991	67.426	227.099	83.530	-79.603	212.135	-27.621	221.617	0.00020724	0.00056357	8.2448e-05	718.19	2.5642e-06	3.7204e-06	1326.6	231.04	2.9854e-06	6.2876e-06	500.25	164.81	63.152	19.889	5.11e-06	67.818	9.8574e-05	5.2972e-05	1.4699e-05	658	6.1382e-07	5.9316e-07	1226.5	213.78	6.3179e-07	5.6122e-07	460.08	155.15	58.743	18.307	5.8811e-07	63.19	223.734	5.959	0.065	-82.592	44.182	33.629	-81.744	-78.981	69.948	40.500	-78.072	-73.533	-74.818	-70.108	60.098	-68.537	-8191	255	
40640.219	1	1	0	0	0.14099	0.074222	0.1209	0.15629	0.19883	0.14848	0.17541	0.085262	0.064532	0.26178	0.23518	0.036143	0.30153	0.21768	0.11442	0.028114	-3.0083	-4.0229	-3.1333	-3.7521	-3.5375	-3.1083	-3.9333	-3.3104	-3.2375	-3.9	-3.2354	-3.7188	-3.6646	-3.2271	-3.8688	-3.4583	-37.110	246.867	24.843	226.320	135.342	148.539	259.284	127.880	-83.366	13.721	193.693	218.437	189.711	227.869	15.125	-72.921	0.00020146	0.00053946	0.00012371	711.13	5.6617e-06	5.089e-06	1330.2	231.06	3.3215e-06	3.0581e-06	497.72	166.82	63.344	19.558	2.5592e-06	67.667	9.7109e-05	5.7327e-05	1.5153e-05	655.3	6.3147e-07	5.7951e-07	1228.9	214.05	6.5088e-07	5.2765e-07	460.71	155.63	58.931	18.204	5.6509e-07	62.938	221.856	-14.973	8.145	-82.658	51.481	36.873	-81.744	-79.065	72.295	45.302	-77.870	-73.855	-74.957	-69.855	55.082	-68.769	-8191	255	
40640.289	1	1	0	0	0.2112	0.14305	0.17429	0.21685	0.11957	0.16778	0.11979	0.19111	0.15494	0.050244	0.018837	0.1222	0.16351	0.070344	0.13006	0.11984	-2.9479	-3.9625	-3.1021	-3.6292	-3.7417	-3.0625	-4.0687	-3.5542	-3.275	-3.9062	-3.2146	-3.55	-3.8438	-3.2229	-3.8021	-3.8021	213.664	117.926	123.866	13.236	-87.735	2.414	196.081	-70.122	-34.188	231.330	-51.182	189.644	136.787	123.145	-39.318	195.954	0.00020777	0.00047323	8.7897e-05	710.28	3.139e-06	4.4707e-06	1322.4	229.87	2.4114e-06	5.3924e-06	497.01	163.64	62.274	19.434	1.4595e-06	66.801	9.7778e-05	5.4723e-05	1.492e-05	654.45	6.2645e-07	5.7231e-07	1225.7	213.02	6.0822e-07	5.407e-07	457.58	153.99	58.191	18.078	5.7722e-07	62.094	227.639	-13.610	-9.231	-82.848	61.069	57.023	-81.973	-78.916	48.801	50.332	-78.253	-73.658	-75.025	-69.796	53.121	-68.596	-8191	255	
40640.383	1	1	0	0	0.08841	0.26283	0.16132	0.15504	0.071856	0.11997	0.17072	0.25875	0.082915	0.15865	0.14983	0.19683	0.13108	0.14347	0.15363	0.2771	-2.7979	-3.8854	-3.3354	-3.4521	-3.9125	-3.125	-3.9583	-3.6437	-2.9458	-3.9458	-3.4479	-3.3937	-3.8583	-3.1063	-3.7229	-3.8854	-74.890	158.282	119.243	249.801	76.116	167.256	161.587	232.983	69.167	-59.638	-41.654	153.098	240.689	196.764	206.121	180.392	0.00024688	0.00048286	0.00014888	709.02	4.1984e-06	5.2869e-06	1323	230.79	4.0123e-06	3.901e-06	496.43	163.74	63.087	19.558	3.2148e-06	66.798	9.5903e-05	4.9679e-05	1.3783e-05	653.57	6.3123e-07	6.1592e-07	1222.8	212.78	6.7462e-07	5.8215e-07	456.9	154.13	58.436	18.079	5.7301e-07	62.316	229.343	10.371	-3.040	-82.486	67.567	45.379	-82.057	-78.842	60.382	50.799	-77.883	-73.753	-74.765	-69.816	42.543	-68.448	-8191	255	
40640.504	1	1	0	0	0.086958	0.060958	0.22282	0.16192	0.16746	0.27233	0.28567	0.19046	0.049481	0.099531	0.17803	0.2258	0.11284	0.13555	0.13434	0.012957	-2.775	-3.9	-3.4583	-3.075	-3.8792	-3.1	-3.6562	-3.8458	-3.0583	-3.8937	-3.4667	-3.3792	-3.9917	-3.4604	-3.5542	-3.6979	183.357	94.245	130.962	156.614	174.309	-3.050	182.646	222.517	153.595	10.929	222.013	259.639	91.056	77.340	112.798	26.031	0.00019152	0.00052579	0.00013342	712.29	4.002e-06	4.3829e-06	1328.1	230.91	2.0684e-06	3.3404e-06	499.87	165.91	62.853	19.828	5.0399e-06	67.223	9.64e-05	5.158e-05	1.4778e-05	655.2	5.9722e-07	6.117e-07	1223.8	213.28	6.6271e-07	5.52e-07	459.24	155.19	58.499	18.232	6.2607e-07	62.648	226.600	-15.460	4.296	-82.714	62.017	45.381	-81.954	-78.906	69.219	45.902	-78.043	-74.126	-74.900	-69.868	54.243	-68.539	-8191	255	
40640.598	1	1	0	0	0.40049	0.056323	0.29453	0.27354	0.18732	0.091658	0.12323	0.25476	0.068042	0.18682	0.0098524	0.19069	0.0069271	0.14153	0.10599	0.24064	-2.8917	-3.8937	-3.5	-3.3292	-4.0625	-3.2792	-3.6021	-3.925	-2.9938	-3.9375	-3.6208	-3.2396	-4.0708	-3.3854	-3.375	-3.7667	68.362	181.756	199.292	235.718	151.764	20.383	249.054	153.959	126.455	-43.029	34.396	150.828	241.089	147.112	-96.096	241.430	0.0001913	0.00043506	5.936e-05	714.73	3.8529e-06	4.2536e-06	1325.1	230.76	3.8059e-06	4.2676e-06	499.54	165.97	62.943	19.439	5.3178e-06	67.316	9.744e-05	4.8542e-05	1.4496e-05	655.45	6.118e-07	5.5444e-07	1223.9	213.28	6.5814e-07	5.5889e-07	459.19	155.2	58.623	18.122	6.193e-07	62.474	226.807	-13.167	-32.066	-82.825	51.055	37.140	-81.910	-78.727	74.111	55.513	-78.096	-74.055	-74.483	-69.621	56.430	-68.626	-8191	255	
40640.695	1	1	0	0	0.31914	0.17464	0.10421	0.056306	0.087001	0.25418	0.3304	0.18625	0.17753	0.037218	0.29514	0.26084	0.097948	0.10219	0.078786	0.1627	-2.7667	-3.7896	-3.6292	-3.2542	-3.8958	-3.3438	-3.5563	-3.9208	-2.9938	-3.7208	-3.8438	-3.2333	-3.7375	-3.3937	-3.3771	-4.15	158.432	114.506	123.916	249.569	210.758	105.904	238.382	247.910	94.733	31.885	95.309	-29.970	249.764	-15.582	136.789	255.928	0.00017497	0.00042706	0.00010236	710.97	3.6493e-06	4.0518e-06	1320	230.26	2.6394e-06	4.3159e-06	494.61	163.84	62.429	19.288	4.84e-06	66.672	9.6459e-05	5.5808e-05	1.4951e-05	654.89	6.0314e-07	5.4443e-07	1219.8	213.14	6.8767e-07	5.5407e-07	457.64	154.05	58.443	18.03	5.6427e-07	62.164	224.749	-13.224	4.079	-82.871	47.168	53.704	-81.894	-78.886	65.035	47.469	-78.379	-74.180	-74.955	-70.167	62.259	-68.519	-8191	255	
40640.793	1	1	0	0	0.18429	0.035752	0.052816	0.026244	0.099362	0.34059	0.35007	0.21322	0.15535	0.17374	0.14324	0.10962	0.20726	0.34316	0.096565	0.15094	-2.6896	-3.5667	-3.8271	-3.0833	-3.7667	-3.4771	-3.2479	-3.9625	-3.0833	-3.5667	-3.8833	-3.1271	-3.9167	-3.4979	-3.1813	-4.0458	190.690	88.025	-25.060	24.052	27.524	-78.640	205.237	184.875	47.282	170.528	101.917	-3.717	190.334	152.977	84.251	220.291	0.00020633	0.00043413	0.00016026	711.19	2.5283e-06	4.621e-06	1319.9	230.41	2.4791e-06	5.3854e-06	497.85	165.14	63.033	19.772	5.4206e-06	67.216	9.7208e-05	4.9971e-05	1.4688e-05	653.25	6.3269e-07	5.8299e-07	1222	213.4	6.052e-07	5.6944e-07	459.13	154.58	58.612	18.249	6.1806e-07	62.523	236.748	-16.308	-2.051	-82.713	61.256	51.223	-81.827	-79.145	45.014	67.270	-78.243	-74.183	-74.942	-69.992	69.302	-68.694	-8191	255	
40640.887	1	1	0	0	0.22499	0.23182	0.11879	0.18104	0.093668	0.094831	0.2996	0.22733	0.20463	0.07094	0.1734	0.27407	0.13433	0.19621	0.2583	0.16951	-2.85	-3.4646	-3.8646	-3.05	-3.7188	-3.7042	-3.2542	-4	-3.4146	-3.4125	-3.8917	-3.3167	-3.6542	-3.7708	-2.9458	-3.9667	99.782	35.960	242.222	-80.374	-59.267	110.460	200.472	184.216	233.558	124.846	-31.136	202.286	41.069	184.668	120.271	172.382	0.00020869	0.00054079	0.00015701	712.16	3.6695e-06	3.0594e-06	1319.6	230.36	3.0259e-06	2.0357e-06	498.12	165.15	63.304	19.746	2.7638e-06	67.698	9.5996e-05	5.5651e-05	1.4601e-05	654.52	6.1658e-07	5.2135e-07	1224.5	213.66	6.4427e-07	5.7484e-07	459.51	155.51	59.029	18.282	6.0123e-07	63.066	226.262	-20.157	-17.059	-82.553	57.814	54.135	-81.678	-79.320	81.246	51.735	-78.060	-73.704	-74.853	-69.993	33.158	-68.652	-8191	255	
40640.984	1	1	0	0	0.24399	0.25287	0.22064	0.45282	0.13225	0.24329	0.16653	0.22544	0.20709	0.20247	0.21225	0.056058	0.20118	0.19708	0.083152	0.060826	-3.2875	-3.2229	-3.8542	-3.1562	-3.5521	-3.7896	-3.2146	-4.0021	-3.4479	-3.325	-4.0563	-3.1708	-3.4	-3.8229	-3.0958	-3.8542	-69.045	6.663	-88.814	226.101	-51.538	-70.589	210.985	176.339	173.020	-60.303	197.110	149.230	234.934	-33.750	91.701	112.024	0.00018226	0.00036791	5.1602e-05	709.38	3.2534e-06	5.0283e-06	1314.2	229.19	2.9746e-06	3.5694e-06	497.57	165.33	62.387	19.512	4.7095e-06	67.467	0.00010057	5.4805e-05	1.482e-05	652.18	6.2419e-07	5.9639e-07	1219.9	213.18	6.3449e-07	5.6936e-07	458.26	155.14	58.357	18.123	6.1352e-07	62.694	229.423	-10.918	-6.526	-82.662	65.846	39.791	-81.812	-79.047	72.211	49.557	-77.965	-73.404	-75.032	-69.336	37.544	-68.748	-8191	255	
40641.078	1	1	0	0	0.1162	0.20961	0.15025	0.15108	0.22123	0.10496	0.089618	0.33068	0.040622	0.12233	0.29608	0.22588	0.069953	0.058631	0.23551	0.18399	-3.1146	-3.1312	-3.7042	-3.2687	-3.3292	-3.8083	-3.0854	-3.7646	-3.4	-3.1	-4.0792	-3.3187	-3.4583	-3.9313	-2.9875	-3.6896	19.296	-85.390	-68.903	60.643	94.060	-29.293	48.476	253.302	-14.685	238.260	-83.841	203.489	218.964	-95.533	-72.931	180.333	0.00019911	0.00044922	0.00010606	708.3	3.6787e-06	4.3732e-06	1317.1	230.71	2.7688e-06	3.6966e-06	498.02	164.64	62.393	19.562	5.5148e-06	66.677	9.2251e-05	5.491e-05	1.3212e-05	647.73	6.2856e-07	5.5436e-07	1216.6	213.02	6.4444e-07	5.5407e-07	457.66	154.21	58.232	18.053	6.3852e-07	61.96	226.221	-13.065	-24.568	-82.902	61.396	55.229	-81.934	-78.738	54.910	53.470	-78.516	-73.848	-75.180	-70.379	60.384	-68.479	-8191	255	
40641.199	1	1	0	0	0.11495	0.15256	0.18602	0.18582	0.077113	0.046276	0.1457	0.062531	0.14081	0.16059	0.15616	0.26633	0.11753	0.17694	0.14844	0.23709	-3.1688	-3.0125	-3.9188	-3.275	-3.2521	-4.0042	-3.2917	-3.7417	-3.6542	-3.0312	-4.1708	-3.4562	-3.3521	-3.9292	-2.9167	-3.9188	233.482	-35.426	-30.194	-5.840	205.086	-65.541	194.365	261.061	27.671	194.936	147.932	238.404	223.242	159.965	-34.848	189.494	0.00016717	0.00052376	0.00012201	704.15	2.8666e-06	6.0159e-06	1308.8	229.64	3.4535e-06	4.0503e-06	495.92	164.24	62.416	19.348	4.8789e-06	66.287	9.3921e-05	5.6242e-05	1.4234e-05	647.26	6.1204e-07	5.5171e-07	1215.5	212.34	6.4639e-07	5.9229e-07	457.34	153.83	58.117	17.991	6.2656e-07	61.846	218.176	-10.376	3.653	-82.440	71.695	40.333	-81.728	-78.898	32.829	42.306	-78.276	-73.487	-75.286	-70.285	35.864	-68.836	-8191	255	
40641.297	1	1	0	0	0.067281	0.15916	0.28045	0.19468	0.14608	0.085418	0.11158	0.089048	0.23552	0.32464	0.19365	0.2224	0.26978	0.11519	0.073478	0.098468	-3.4167	-2.9229	-3.8833	-3.5229	-3.05	-3.7896	-3.2958	-3.4271	-3.7521	-3.0187	-3.9354	-3.4854	-3.1396	-3.9375	-3.3104	-3.3417	60.726	86.655	-25.538	226.417	76.902	29.104	245.429	222.119	-50.790	132.540	65.676	230.433	-40.900	153.273	-14.669	232.073	0.00020852	0.00056294	0.00010602	704.37	3.0381e-06	3.6897e-06	1318	229.48	2.5762e-06	2.8832e-06	495.04	164.78	62.12	19.445	5.0344e-06	66.4	9.6035e-05	5.5291e-05	1.4217e-05	649.14	6.3431e-07	5.4807e-07	1220.2	213.07	6.4819e-07	5.7817e-07	457.44	154.15	58.406	18.001	6.259e-07	61.888	227.197	-13.417	-13.115	-82.763	42.509	62.097	-82.031	-79.309	48.497	33.178	-78.285	-73.853	-74.987	-69.552	55.258	-68.639	-8191	255	
40641.391	1	1	0	0	0.14532	0.13157	0.14593	0.25097	0.12465	0.11037	0.23577	0.10954	0.1751	0.18289	0.21886	0.22681	0.23755	0.13825	0.15193	0.16533	-3.3958	-3.0021	-3.5667	-3.5917	-3.1708	-3.9771	-3.4417	-3.4271	-3.9562	-3.0646	-3.9208	-3.8063	-3.1604	-3.9104	-3.3063	-3.4625	186.183	154.682	258.347	167.802	217.445	29.695	-71.126	219.999	32.008	78.491	214.365	203.887	254.851	123.431	97.289	223.447	0.00019659	0.00033697	0.00011139	704.86	2.198e-06	4.5836e-06	1309.6	229.61	2.3225e-06	5.2459e-06	497.74	164.9	62.768	19.582	4.8658e-06	67.079	9.3444e-05	5.2328e-05	1.493e-05	649.48	6.5034e-07	5.7703e-07	1216.4	213.47	6.2837e-07	6.2262e-07	458.51	154.85	58.582	18.164	5.665e-07	62.486	225.250	30.710	4.426	-82.763	79.737	84.732	-81.882	-79.188	71.487	53.825	-78.355	-73.609	-74.969	-69.817	36.785	-68.622	-8191	255	
40641.488	1	1	0	0	0.10386	0.18513	0.17284	0.095324	0.17486	0.09723	0.060772	0.075528	0.043229	0.16174	0.09578	0.082314	0.11805	0.20917	0.12032	0.13679	-3.5729	-2.9875	-3.5375	-3.7833	-3.1083	-3.8104	-3.6125	-3.3312	-3.8958	-3.1125	-3.6333	-3.8146	-3.1562	-3.8396	-3.4771	-3.1917	30.045	235.557	32.855	155.685	213.459	43.922	164.180	187.703	-11.157	-60.674	261.570	206.538	54.967	153.405	220.830	135.400	0.0002094	0.0003382	5.0651e-05	706.35	2.642e-06	3.349e-06	1314.6	230.2	1.6119e-06	2.9637e-06	498.49	165.86	62.971	19.484	2.9359e-06	67.387	9.239e-05	5.372e-05	1.4966e-05	649.95	6.3852e-07	5.6561e-07	1218.3	213.49	5.8596e-07	5.8614e-07	459.65	155.39	58.592	18.153	6.1204e-07	62.425	218.900	-13.338	-32.599	-83.077	62.111	65.490	-81.817	-79.186	47.065	58.052	-78.196	-73.616	-75.063	-70.266	63.742	-68.566	-8191	255	
40641.586	1	1	0	0	0.32395	0.083702	0.20429	0.1063	0.11859	0.15273	0.16978	0.27684	0.049101	0.083588	0.15225	0.23978	0.32436	0.22576	0.14713	0.16312	-3.6896	-3.1417	-3.7438	-3.825	-3.0479	-3.7833	-3.6021	-3.1604	-3.8875	-3.0708	-3.4917	-3.9437	-3.0167	-3.9479	-3.4125	-3.2687	179.213	88.763	60.697	122.178	26.049	5.298	233.113	221.005	159.563	166.652	234.981	178.380	198.582	256.893	-24.247	227.963	0.00019075	0.00053729	0.00012325	699.05	2.8814e-06	4.2035e-06	1300.5	226.84	1.2446e-06	2.5517e-06	490.64	161.78	61.485	19.131	4.3946e-06	65.526	9.6214e-05	5.3129e-05	1.4759e-05	642.84	6.4281e-07	5.4575e-07	1207.6	209.58	6.4721e-07	5.7526e-07	452.54	152.19	57.354	17.687	5.8077e-07	61.057	226.648	-2.776	-18.695	-82.828	75.908	35.807	-82.082	-79.067	24.861	58.734	-78.255	-73.715	-75.402	-69.969	65.146	-68.797	-8191	255	
40641.680	1	1	0	0	0.16211	0.048597	0.16801	0.04819	0.13669	0.24834	0.050445	0.18135	0.13277	0.1708	0.36828	0.18982	0.10077	0.25403	0.12858	0.20916	-3.4729	-3.1417	-3.3479	-3.9646	-2.9771	-3.575	-3.7625	-3.1021	-3.7438	-3.4958	-3.3104	-3.9896	-3.225	-3.525	-3.6396	-3.15	-59.245	231.843	-15.936	175.663	89.366	-96.469	230.328	29.965	134.959	142.884	-96.854	167.619	-47.092	-65.745	119.858	203.001	0.00020709	0.00050516	0.00010169	706.05	2.7662e-06	4.7172e-06	1305.2	226.43	1.6492e-06	3.9974e-06	487.9	161.61	61.165	19.116	2.8699e-06	65.236	9.2059e-05	5.5883e-05	1.4563e-05	646.64	6.2953e-07	5.9366e-07	1209	209.43	6.1344e-07	5.5573e-07	451.21	151.39	57.025	17.613	5.6295e-07	60.598	224.293	-26.009	1.762	-82.367	59.235	43.425	-81.779	-79.327	52.801	45.938	-78.265	-73.923	-74.808	-69.243	67.617	-68.556	-8191	255	
40641.801	1	1	0	0	0.32515	0.10791	0.15964	0.075512	0.061008	0.072307	0.18892	0.40034	0.063093	0.19781	0.29618	0.14961	0.15068	0.21442	0.046053	0.15061	-3.7188	-3.5021	-3.3042	-4.0125	-3.1437	-3.4979	-3.9375	-3.1583	-3.8812	-3.5104	-3.2708	-3.8583	-3.1875	-3.5354	-3.6896	-3.1375	223.981	-93.182	-38.388	-28.174	46.603	19.607	207.598	183.816	243.274	137.197	230.027	202.132	-44.834	187.073	39.366	-80.760	0.0001771	0.00041401	9.1554e-05	702.03	3.8322e-06	3.8868e-06	1299.8	227.11	4.1526e-06	4.6098e-06	490.25	162.73	61.896	19.042	2.1444e-06	66.337	9.3239e-05	4.7779e-05	1.4978e-05	647.2	6.786e-07	5.4302e-07	1208.7	210.12	6.5316e-07	5.7991e-07	452.77	152.08	57.496	17.743	6.1253e-07	61.202	221.362	-17.467	-5.387	-82.461	57.936	55.857	-81.666	-79.269	58.429	57.421	-78.231	-73.807	-74.608	-69.731	26.669	-68.475	-8191	255	
40641.895	1	1	0	0	0.18563	0.21406	0.18388	0.27749	0.1335	0.23383	0.24822	0.21574	0.075719	0.30002	0.20654	0.24944	0.18745	0.15392	0.36388	0.3234	-3.4188	-3.5687	-3.1521	-3.9354	-3.3563	-3.4479	-4.225	-3.2479	-3.5417	-3.7833	-3.2042	-4.0521	-3.3375	-3.3792	-3.8021	-3.2396	54.692	136.032	33.626	231.653	157.508	252.294	166.601	121.735	-25.800	55.674	151.090	227.683	-16.827	128.431	117.620	202.081	0.00019917	0.00038924	8.6639e-05	704.58	3.5734e-06	4.5669e-06	1309.1	227.98	1.7201e-06	3.713e-06	493.92	162.94	61.732	19.182	3.447e-06	65.493	9.3974e-05	5.1565e-05	1.5045e-05	649.06	6.1075e-07	5.6603e-07	1213.8	211.15	6.3848e-07	5.4909e-07	454.26	152.41	57.494	17.778	5.9752e-07	60.814	218.754	22.134	0.808	-82.580	81.792	39.838	-81.805	-79.196	78.565	62.584	-78.426	-73.521	-74.759	-69.533	30.539	-68.696	-8191	255	
40641.992	1	1	0	0	0.034172	0.050567	0.14233	0.30178	0.14976	0.14132	0.18639	0.024528	0.055728	0.065738	0.32566	0.24748	0.14656	0.14775	0.064153	0.16945	-3.3271	-3.8333	-2.9792	-3.8312	-3.1729	-3.2542	-4.0333	-3.1104	-3.5979	-3.9	-3.2646	-3.9396	-3.3292	-3.2313	-4.0542	-3.1937	102.211	39.652	54.953	229.571	34.882	136.735	207.921	-11.774	-92.664	-1.372	202.997	194.945	199.404	16.266	107.205	245.184	0.00018686	0.00045247	0.00010611	705.46	2.6267e-06	2.6911e-06	1314	226.23	2.1512e-06	5.0878e-06	489.43	160.91	61.727	18.845	4.5312e-06	63.816	9.3948e-05	5.063e-05	1.5577e-05	649.73	6.2718e-07	5.388e-07	1213.8	210.33	6.4427e-07	6.0434e-07	451.49	150.44	56.896	17.391	5.7904e-07	59.48	227.166	3.747	-9.830	-82.384	61.324	38.059	-81.625	-79.228	75.640	51.780	-78.034	-73.307	-74.687	-70.034	40.433	-68.864	-8191	255	
40642.086	1	1	0	0	0.23667	0.2829	0.2305	0.05265	0.096979	0.14615	0.34105	0.2238	0.087583	0.11681	0.19555	0.047049	0.081571	0.20831	0.029026	0.19485	-3.2396	-3.7646	-3.0854	-3.9062	-3.4958	-3.2333	-4.2021	-3.2354	-3.4667	-3.9146	-3.2083	-3.9604	-3.4188	-3.1625	-3.9104	-3.2917	103.924	52.730	161.167	196.863	193.471	-15.640	215.567	146.597	89.249	-13.181	191.318	247.630	170.233	-53.535	150.720	-73.417	0.00018646	0.00039953	0.0001384	710.2	3.2963e-06	4.2788e-06	1313.6	225.83	2.5907e-06	4.1395e-06	488.76	160.19	60.598	18.522	5.7161e-06	64.062	9.3126e-05	5.3361e-05	1.5264e-05	653.19	6.0297e-07	6.0359e-07	1215.4	209.59	6.7894e-07	5.4211e-07	450.16	149.89	56.86	17.287	6.3646e-07	59.516	228.729	-9.962	-2.545	-82.039	59.273	53.720	-81.697	-78.740	67.722	48.794	-78.549	-73.725	-74.947	-69.667	55.191	-68.805	-8191	255	
40642.184	1	1	0	0	0.12257	0.21278	0.069057	0.16337	0.13554	0.041309	0.28022	0.26288	0.081899	0.24552	0.13006	0.28348	0.14605	0.19393	0.15042	0.061225	-3.0292	-3.8458	-3.0771	-3.6354	-3.5542	-3.1125	-4.0563	-3.2833	-3.2167	-3.8	-3.2417	-3.5583	-3.7479	-3.0542	-3.8292	-3.3979	-78.339	56.451	75.609	218.053	-23.363	63.449	161.945	126.585	215.159	126.373	211.329	-89.964	211.218	237.655	133.452	-42.473	0.00016241	0.00053012	0.00013226	709.51	2.762e-06	4.392e-06	1317.5	226.06	1.9249e-06	3.1431e-06	489.46	160.35	61.356	18.789	2.5263e-06	64.311	9.2351e-05	5.6406e-05	1.601e-05	654.52	6.0459e-07	5.8663e-07	1219.6	209.87	6.5773e-07	5.569e-07	451.07	150.64	57.154	17.443	6.1592e-07	59.942	232.688	8.370	2.357	-82.841	74.086	49.868	-81.694	-78.969	83.037	50.742	-78.247	-73.729	-75.239	-69.839	54.874	-68.575	-8191	255	
40642.277	1	1	0	0	0.23863	0.23121	0.21919	0.18808	0.043916	0.19037	0.33316	0.27588	0.12855	0.10291	0.14902	0.10329	0.16766	0.22748	0.11198	0.12235	-2.75	-3.8771	-3.075	-3.5021	-3.6292	-3.0854	-3.8271	-3.4542	-3.075	-3.9562	-3.2021	-3.45	-3.8146	-3.0792	-3.8312	-3.6542	163.446	-69.425	38.589	-53.460	-54.210	-30.389	204.056	163.730	97.982	90.531	112.417	-69.306	153.442	-84.174	163.557	-33.739	0.00018186	0.0005073	0.00016682	717.79	2.6916e-06	4.9348e-06	1312	227.41	2.0819e-06	3.9732e-06	489.72	160.88	61.21	18.864	4.4554e-06	65.52	9.6725e-05	5.3511e-05	1.5253e-05	658	6.3763e-07	5.9523e-07	1218.3	211.4	6.7755e-07	5.4053e-07	452.76	151.33	57.336	17.61	6.2879e-07	60.829	226.145	-15.980	3.458	-82.900	78.240	45.113	-81.824	-78.656	41.690	63.836	-78.287	-73.819	-75.305	-69.724	39.709	-68.495	-8191	255	
40642.375	1	1	0	0	0.13964	0.057865	0.024555	0.093102	0.063076	0.11713	0.0922	0.11862	0.094456	0.18276	0.069522	0.06366	0.12934	0.18633	0.21791	0.21174	-2.8354	-3.9813	-3.2687	-3.3708	-3.7771	-3.1979	-3.9021	-3.8708	-3.1917	-3.9479	-3.2875	-3.4313	-3.8833	-3.2	-3.6562	-3.7812	139.844	195.507	-52.588	-62.656	67.583	136.129	228.226	209.359	56.350	248.270	156.051	105.667	231.203	40.095	156.614	259.796	0.00019273	0.00058327	0.00011773	714.53	2.6464e-06	4.5183e-06	1323.6	228.94	2.4923e-06	4.0383e-06	492.03	161.62	61.395	18.848	3.7891e-06	64.915	9.7361e-05	5.3907e-05	1.4857e-05	659.62	6.3415e-07	6.1666e-07	1222.3	212.23	6.8196e-07	5.8315e-07	454.37	151.46	57.497	17.583	5.8027e-07	60.555	226.253	-18.992	-2.798	-82.397	41.761	50.462	-81.682	-79.104	73.005	50.359	-78.174	-73.951	-75.044	-69.966	72.734	-68.482	-8191	255	
40642.473	1	1	0	0	0.23254	0.14605	0.060323	0.14057	0.24192	0.14316	0.17623	0.25958	0.23304	0.1409	0.20502	0.08935	0.17228	0.098994	0.13079	0.17652	-2.7021	-3.9729	-3.2896	-3.3917	-3.7646	-3.1479	-3.7833	-3.9417	-3.1479	-3.8208	-3.4917	-3.3917	-4.0292	-3.1562	-3.4396	-3.7604	135.615	71.178	-41.333	-70.884	96.516	95.930	224.287	166.035	43.282	-36.267	-49.661	-71.417	131.357	191.343	127.175	187.589	0.00018553	0.00059758	0.0001246	718.29	3.6083e-06	5.4836e-06	1319	229.47	2.6912e-06	5.6004e-06	496.26	161.87	61.661	19.259	3.6009e-06	65.786	9.7162e-05	5.2186e-05	1.5306e-05	660.6	6.3617e-07	5.9532e-07	1222.6	212.38	6.7315e-07	5.667e-07	455.67	152.26	57.891	17.752	6.2796e-07	61.191	222.361	11.278	-27.585	-82.827	62.627	39.113	-82.044	-78.654	74.228	68.474	-78.085	-73.977	-75.147	-69.597	48.606	-68.569	-8191	255	
40642.566	1	1	0	0	0.1416	0.034718	0.17851	0.32137	0.2165	0.072343	0.32857	0.21727	0.051334	0.2499	0.23959	0.29285	0.23375	0.050697	0.090447	0.30053	-2.7792	-3.7896	-3.3417	-3.2292	-4.0062	-3.4229	-3.5854	-3.8187	-3.0125	-3.7625	-3.6667	-3.3646	-3.725	-3.1979	-3.5521	-3.8396	260.717	76.591	17.944	145.080	5.429	20.175	233.426	-79.132	165.958	-33.251	196.403	256.318	-47.462	97.270	255.277	204.568	0.00018057	0.00047411	0.00010909	718.91	1.7184e-06	5.3027e-06	1328	228.26	2.8432e-06	4.1725e-06	493.84	163.39	61.854	19.168	4.3035e-06	66.143	9.6976e-05	5.3742e-05	1.4511e-05	660.47	6.0305e-07	5.7686e-07	1225.3	211.99	6.9835e-07	5.6305e-07	455.95	153.3	57.965	17.916	6.2277e-07	61.602	229.576	2.193	-6.788	-82.630	40.431	52.983	-81.741	-78.710	55.394	49.408	-77.867	-73.852	-74.784	-69.466	68.438	-68.239	-8191	255	
40642.688	1	1	0	0	0.076132	0.05651	0.23897	0.29453	0.16263	0.084177	0.35284	0.094906	0.15975	0.2774	0.17511	0.051024	0.030676	0.18176	0.1867	0.2896	-2.7146	-3.7625	-3.5708	-3.1604	-3.9083	-3.2	-3.6542	-4.1146	-3.0021	-3.5604	-3.7375	-3.1979	-3.8917	-3.3771	-3.3333	-3.9521	128.677	192.373	74.925	219.043	149.748	258.582	178.229	137.531	65.807	84.164	-89.856	-90.726	29.686	212.627	239.038	136.187	0.00018986	0.0004624	9.4332e-05	718.97	2.9672e-06	4.2909e-06	1317.2	230.58	2.6924e-06	3.6807e-06	493.31	164.23	62.46	19.495	3.2412e-06	66.382	9.6897e-05	5.173e-05	1.4415e-05	661.72	6.0718e-07	5.6296e-07	1226.8	213.34	6.5471e-07	6.0392e-07	457.34	153.98	58.36	17.967	6.6121e-07	61.876	223.974	-12.673	7.581	-82.932	68.210	44.420	-81.707	-79.004	59.980	49.164	-78.160	-73.559	-74.904	-69.932	68.684	-68.356	-8191	255	
40642.781	1	1	0	0	0.28415	0.12874	0.28103	0.085081	0.10376	0.1878	0.22886	0.066516	0.22323	0.10813	0.20462	0.11996	0.24243	0.13442	0.18761	0.27163	-2.9292	-3.6229	-3.8729	-3.0542	-3.8708	-3.5583	-3.3896	-4.1312	-3.3063	-3.5958	-3.8208	-3.2646	-3.7917	-3.6188	-3.2979	-4.1146	97.774	-20.464	116.038	32.277	175.913	92.251	202.921	-0.080	-75.600	55.844	-89.761	-42.775	224.271	114.209	131.538	116.585	0.00021103	0.00031172	0.00012866	722.48	4.6679e-06	4.7863e-06	1327.1	228.75	3.0634e-06	3.3518e-06	495.79	164.6	62.887	19.557	4.5926e-06	66.58	9.6314e-05	5.5157e-05	1.5443e-05	664.11	6.3722e-07	5.7612e-07	1228	213.05	6.4387e-07	6.2851e-07	458.37	154.08	58.317	18.057	6.127e-07	61.809	220.010	-17.072	0.773	-82.741	80.994	39.548	-81.945	-78.685	57.134	52.308	-78.029	-73.329	-74.656	-70.045	58.452	-68.781	-8191	255	
40642.879	1	1	0	0	0.16819	0.057942	0.25851	0.22266	0.045141	0.14826	0.32642	0.36739	0.23009	0.11138	0.20975	0.11716	0.3376	0.082482	0.14713	0.20972	-2.8917	-3.325	-3.7604	-2.9542	-3.7542	-3.6688	-3.2521	-4.0917	-3.1292	-3.2958	-3.8542	-3.05	-3.6937	-3.5146	-3.1917	-3.9417	17.382	202.338	-52.263	218.141	243.454	15.612	237.103	-95.015	132.363	223.485	-57.779	190.233	186.660	172.269	-28.487	-80.166	0.00020355	0.00048211	0.00015267	718.75	4.0875e-06	3.9917e-06	1319	231.22	2.3752e-06	4.7044e-06	498.63	165.5	62.926	19.453	2.9356e-06	67.395	9.4306e-05	5.5718e-05	1.5053e-05	662.69	6.054e-07	6.0582e-07	1227	214.77	6.2763e-07	6.0799e-07	459.83	154.97	58.829	18.067	6.2598e-07	62.4	222.899	-17.375	3.556	-82.593	53.186	39.341	-82.000	-78.600	61.295	23.863	-77.899	-73.742	-74.889	-70.198	48.839	-68.376	-8191	255	
40642.977	1	1	0	0	0.174	0.099592	0.16154	0.067918	0.22286	0.19966	0.27429	0.27646	0.18696	0.1146	0.19149	0.12442	0.11681	0.14641	0.17647	0.074733	-2.9104	-3.275	-3.7104	-3.0458	-3.7188	-3.7083	-3.3667	-3.9062	-3.3042	-3.0792	-3.9604	-3.3479	-3.4708	-3.7188	-3.0042	-3.8833	203.329	130.038	237.204	109.758	-24.906	-97.966	205.601	209.369	198.589	-35.213	217.170	166.979	-30.960	-98.290	-71.250	-74.899	0.00018715	0.00037158	0.00012478	735.3	2.753e-06	5.1346e-06	1355.9	239.25	4.1796e-06	2.3923e-06	509.36	170.75	65.821	20.313	6.105e-06	69.279	9.7354e-05	5.6481e-05	1.5306e-05	668.21	6.4224e-07	5.7281e-07	1235.6	217	6.7168e-07	5.4468e-07	463.82	157.48	59.924	18.507	6.2697e-07	63.508	222.214	7.017	-13.587	-83.816	72.611	42.222	-83.391	-80.622	49.944	49.413	-79.525	-75.284	-76.517	-71.392	48.848	-70.072	-8191	255	
40643.070	1	1	0	0	0.15422	0.079679	0.056701	0.25103	0.12122	0.12735	0.12606	0.11254	0.099167	0.14486	0.141	0.090215	0.23457	0.079365	0.048715	0.18329	-2.9333	-3.2	-3.775	-3.1458	-3.5354	-3.7917	-3.125	-3.8771	-3.3792	-3.175	-3.9792	-3.2438	-3.4646	-3.7354	-3.0375	-3.8667	16.571	-18.831	138.184	-78.691	245.637	-21.887	64.012	-56.063	26.450	105.217	231.792	228.861	244.584	41.637	49.661	212.291	0.00018857	0.00056811	0.00017991	741.06	2.7419e-06	4.0932e-06	1357.4	235.62	2.2549e-06	4.4819e-06	513.16	169.43	65.483	20.175	4.501e-06	68.843	9.2629e-05	5.8666e-05	1.4582e-05	670.17	6.3172e-07	5.8588e-07	1240.1	217.01	6.4656e-07	5.8207e-07	465.32	157.67	60.122	18.514	6.2557e-07	63.437	228.932	-20.729	-3.936	-84.100	80.072	43.522	-83.347	-80.437	56.586	50.499	-79.529	-75.068	-76.563	-70.531	58.584	-69.806	-8191	255	
40643.168	1	1	0	0	0.18587	0.058092	0.27796	0.18459	0.2934	0.10396	0.31554	0.11832	0.097537	0.17552	0.21542	0.098599	0.41161	0.16019	0.026503	0.11148	-3.1458	-3.175	-3.8312	-3.4375	-3.1813	-3.8417	-3.1458	-3.6958	-3.5771	-3.0479	-4.0938	-3.5333	-3.2833	-3.8875	-3.15	-3.7042	118.781	14.196	195.465	160.921	159.301	217.554	-90.151	149.316	-17.810	6.522	190.275	131.094	-68.247	-74.497	137.879	36.341	0.00019253	0.00036544	0.00010433	735.61	3.9345e-06	4.9142e-06	1353.8	238	1.7998e-06	3.9969e-06	508.91	170.49	65.224	20.028	4.4739e-06	68.622	9.6566e-05	5.3802e-05	1.4899e-05	668.66	6.7512e-07	5.6553e-07	1235.7	217.24	6.4223e-07	5.6446e-07	464.78	157.6	59.873	18.456	6.0024e-07	63.289	224.441	9.137	-7.682	-84.065	53.124	49.526	-83.471	-80.177	47.865	66.259	-79.657	-75.135	-76.106	-71.197	48.705	-69.715	-8191	255	
40643.289	1	1	0	0	0.12734	0.11148	0.22577	0.28934	0.27253	0.058537	0.30336	0.14737	0.068238	0.079285	0.069121	0.13598	0.069377	0.19368	0.23039	0.1058	-3.55	-2.9188	-3.8292	-3.525	-3.175	-4.0104	-3.2062	-3.7083	-3.8396	-3.1104	-3.8458	-3.55	-3.1354	-3.7896	-3.1458	-3.6583	234.057	-3.604	-34.364	243.775	-77.020	195.097	256.216	178.916	-14.214	70.367	-91.238	10.647	204.404	197.398	37.234	-53.940	0.00019327	0.00043674	7.9188e-05	735.05	3.0319e-06	5.7358e-06	1347.7	237.19	2.5059e-06	3.7275e-06	510.38	169.51	64.771	20.044	4.7863e-06	68.054	9.5247e-05	5.6661e-05	1.4127e-05	669.4	6.3593e-07	5.935e-07	1235.7	216.76	6.6173e-07	6.0932e-07	463.27	157.07	59.702	18.398	6.1022e-07	62.717	230.023	3.778	-7.238	-83.678	42.358	36.683	-82.905	-80.242	48.754	50.400	-78.816	-74.788	-76.295	-71.011	36.183	-69.514	-8191	255	
40643.383	1	1	0	0	0.19662	0.1141	0.096067	0.30496	0.21821	0.044221	0.217	0.31149	0.13075	0.35727	0.14884	0.25644	0.19455	0.14307	0.13486	0.148	-3.5583	-3.0583	-3.6667	-3.5729	-3.0292	-3.7875	-3.2667	-3.4417	-3.6771	-3.0146	-3.9271	-3.8458	-3.0583	-4.0854	-3.3	-3.4792	60.400	-58.091	-38.344	226.369	162.624	-68.572	183.392	142.387	29.506	198.344	162.868	249.087	260.899	241.816	212.819	139.036	0.00019281	0.00027233	0.00010067	734.77	2.8365e-06	5.9957e-06	1345.9	236.46	2.0295e-06	5.4331e-06	506.06	169.89	65.09	20.034	3.3095e-06	68.59	9.5797e-05	5.6444e-05	1.5224e-05	667.7	6.3147e-07	5.7504e-07	1234.5	216.15	6.2176e-07	6.2004e-07	462.28	157.34	59.816	18.344	6.0412e-07	62.997	224.864	3.767	11.568	-83.587	45.196	55.400	-83.009	-80.081	70.417	34.685	-79.468	-74.770	-75.604	-70.774	58.864	-69.502	-8191	255	
#DATA ENDS
