BOXY.EXE: ISS Imagent and Oximeter Data Acquisition Program Version 0.80
Ascii Record File

#ACQ INFORMATION
2  Detector Channels 
16  External MUX Channels 
1  Auxiliary Channels 
5000  Waveform (CCF) Frequency (Hz)
1  Waveforms Skipped 
30  Waveforms Averaged 
1  Cycles Averaged 
16  Acquisitions per Waveform 
10.0806  Updata Rate (Hz) 

#FILE INFORMATION
TRUE -- External MUX Channel results are PARSED.
FALSE -- AC DC and Phase are NOT grouped.
TRUE -- Companion Program Settings File CREATED.
FALSE -- AC data not excluded
FALSE -- DC data not excluded
FALSE -- Phase data not excluded
FALSE -- Auxillary Chn. data not excluded
Tab delimiters

#CALIBRATION STATE
TRUE -- Waveform Calibration Values APPLIED.


#AUX CALIBRATION VALUES
Val Type	aux-1	

Term	1.0000e+00	
Factor	0.0000e+00	


#WF CALIBRATION VALUES
A = Detector Channel
Val Type	A-AC1	A-AC2	A-AC3	A-AC4	A-AC5	A-AC6	A-AC7	A-AC8	A-AC9	A-AC10	A-AC11	A-AC12	A-AC13	A-AC14	A-AC15	A-AC16	A-DC1	A-DC2	A-DC3	A-DC4	A-DC5	A-DC6	A-DC7	A-DC8	A-DC9	A-DC10	A-DC11	A-DC12	A-DC13	A-DC14	A-DC15	A-DC16	A-Ph1	A-Ph2	A-Ph3	A-Ph4	A-Ph5	A-Ph6	A-Ph7	A-Ph8	A-Ph9	A-Ph10	A-Ph11	A-Ph12	A-Ph13	A-Ph14	A-Ph15	A-Ph16	

Term	0.00000e+00	0.00000e+00	0.00000e+00	0.00000e+00	0.00000e+00	0.00000e+00	0.00000e+00	0.00000e+00	0.00000e+00	0.00000e+00	0.00000e+00	0.00000e+00	0.00000e+00	0.00000e+00	0.00000e+00	0.00000e+00	0.00000e+00	0.00000e+00	0.00000e+00	0.00000e+00	0.00000e+00	0.00000e+00	0.00000e+00	0.00000e+00	0.00000e+00	0.00000e+00	0.00000e+00	0.00000e+00	0.00000e+00	0.00000e+00	0.00000e+00	0.00000e+00	0.00000e+00	0.00000e+00	0.00000e+00	0.00000e+00	0.00000e+00	0.00000e+00	0.00000e+00	0.00000e+00	0.00000e+00	0.00000e+00	0.00000e+00	0.00000e+00	0.00000e+00	0.00000e+00	0.00000e+00	0.00000e+00	
Factor	1.00000e+00	1.00000e+00	1.00000e+00	1.00000e+00	1.00000e+00	1.00000e+00	1.00000e+00	1.00000e+00	1.00000e+00	1.00000e+00	1.00000e+00	1.00000e+00	1.00000e+00	1.00000e+00	1.00000e+00	1.00000e+00	1.00000e+00	1.00000e+00	1.00000e+00	1.00000e+00	1.00000e+00	1.00000e+00	1.00000e+00	1.00000e+00	1.00000e+00	1.00000e+00	1.00000e+00	1.00000e+00	1.00000e+00	1.00000e+00	1.00000e+00	1.00000e+00	X	X	X	X	X	X	X	X	X	X	X	X	X	X	X	X	

B = Detector Channel
Val Type	B-AC1	B-AC2	B-AC3	B-AC4	B-AC5	B-AC6	B-AC7	B-AC8	B-AC9	B-AC10	B-AC11	B-AC12	B-AC13	B-AC14	B-AC15	B-AC16	B-DC1	B-DC2	B-DC3	B-DC4	B-DC5	B-DC6	B-DC7	B-DC8	B-DC9	B-DC10	B-DC11	B-DC12	B-DC13	B-DC14	B-DC15	B-DC16	B-Ph1	B-Ph2	B-Ph3	B-Ph4	B-Ph5	B-Ph6	B-Ph7	B-Ph8	B-Ph9	B-Ph10	B-Ph11	B-Ph12	B-Ph13	B-Ph14	B-Ph15	B-Ph16	

Term	0.00000e+00	0.00000e+00	0.00000e+00	0.00000e+00	0.00000e+00	0.00000e+00	0.00000e+00	0.00000e+00	0.00000e+00	0.00000e+00	0.00000e+00	0.00000e+00	0.00000e+00	0.00000e+00	0.00000e+00	0.00000e+00	0.00000e+00	0.00000e+00	0.00000e+00	0.00000e+00	0.00000e+00	0.00000e+00	0.00000e+00	0.00000e+00	0.00000e+00	0.00000e+00	0.00000e+00	0.00000e+00	0.00000e+00	0.00000e+00	0.00000e+00	0.00000e+00	-9.50993e+01	-1.28701e+02	-1.24987e+02	-1.83761e+02	-6.23572e+01	-7.40854e+01	-1.58106e+02	-1.62015e+02	-5.36995e+01	-7.02651e+01	-1.70714e+02	-1.70913e+02	-1.78902e+02	-1.77049e+02	-6.51981e+01	-1.49824e+02	
Factor	1.64770e-05	1.35927e-04	3.46547e-05	1.51834e-01	1.19814e-06	1.36781e-06	1.67260e-01	5.25101e-02	1.01735e-06	1.28790e-06	8.68415e-02	3.03108e-02	2.82728e-02	9.66055e-03	1.35503e-06	1.35419e-02	3.18107e-06	3.59181e-06	1.00104e-06	7.44679e-02	3.88649e-08	3.97153e-08	7.71580e-02	2.58867e-02	3.91507e-08	3.98793e-08	4.12608e-02	1.45034e-02	1.40702e-02	4.76425e-03	3.96035e-08	6.46411e-03	X	X	X	X	X	X	X	X	X	X	X	X	X	X	X	X	



#DISTANCE SETTINGS
A = Detector Channel
A-1	A-2	A-3	A-4	A-5	A-6	A-7	A-8	A-9	A-10	A-11	A-12	A-13	A-14	A-15	A-16	

2.5000e+00	3.0000e+00	2.5000e+00	3.0000e+00	2.0000e+00	3.0000e+00	1.5000e+00	3.0000e+00	3.0000e+00	3.0000e+00	3.0000e+00	3.0000e+00	3.0000e+00	3.0000e+00	1.5000e+00	3.0000e+00	

B = Detector Channel
B-1	B-2	B-3	B-4	B-5	B-6	B-7	B-8	B-9	B-10	B-11	B-12	B-13	B-14	B-15	B-16	

1.0000e+01	1.0000e+01	1.0000e+01	1.4400e+00	1.0000e+01	1.0000e+01	1.5100e+00	1.9400e+00	1.0000e+01	1.0000e+01	1.9900e+00	2.4900e+00	2.4100e+00	2.9000e+00	1.0000e+01	2.9800e+00	




#DATA BEGINS
time	group	step	mark	flag	A-AC1	A-AC2	A-AC3	A-AC4	A-AC5	A-AC6	A-AC7	A-AC8	A-AC9	A-AC10	A-AC11	A-AC12	A-AC13	A-AC14	A-AC15	A-AC16	A-DC1	A-DC2	A-DC3	A-DC4	A-DC5	A-DC6	A-DC7	A-DC8	A-DC9	A-DC10	A-DC11	A-DC12	A-DC13	A-DC14	A-DC15	A-DC16	A-Ph1	A-Ph2	A-Ph3	A-Ph4	A-Ph5	A-Ph6	A-Ph7	A-Ph8	A-Ph9	A-Ph10	A-Ph11	A-Ph12	A-Ph13	A-Ph14	A-Ph15	A-Ph16	B-AC1	B-AC2	B-AC3	B-AC4	B-AC5	B-AC6	B-AC7	B-AC8	B-AC9	B-AC10	B-AC11	B-AC12	B-AC13	B-AC14	B-AC15	B-AC16	B-DC1	B-DC2	B-DC3	B-DC4	B-DC5	B-DC6	B-DC7	B-DC8	B-DC9	B-DC10	B-DC11	B-DC12	B-DC13	B-DC14	B-DC15	B-DC16	B-Ph1	B-Ph2	B-Ph3	B-Ph4	B-Ph5	B-Ph6	B-Ph7	B-Ph8	B-Ph9	B-Ph10	B-Ph11	B-Ph12	B-Ph13	B-Ph14	B-Ph15	B-Ph16	aux-1	digaux	

40589.195	1	1	0	768	0.21714	0.14568	0.11724	0.13685	0.072708	0.19629	0.18539	0.15696	0.172	0.061832	0.1509	0.33239	0.30532	0.27867	0.097277	0.20197	-2.7667	-4.0437	-3.5896	-3.4833	-4.1813	-3.4313	-3.7271	-4.0125	-3.1792	-4.0042	-3.8125	-3.3771	-4.0521	-3.4104	-3.4437	-3.9646	92.026	218.605	176.518	158.467	0.637	248.439	185.567	182.393	203.641	55.004	-87.754	192.951	-36.807	201.097	242.905	203.925	0.00026187	0.00046073	0.00011783	868.88	2.9127e-06	5.5646e-06	1503.8	250.67	1.2222e-06	4.1898e-06	550.01	188.29	67.945	22.737	5.0282e-06	81.254	0.00013853	9.0192e-05	2.5404e-05	803.53	1.0736e-06	1.01e-06	1390.2	231.04	1.0951e-06	1.0019e-06	507.17	176.32	63.85	21.157	9.5882e-07	75.643	224.975	-15.794	-2.107	-82.942	66.929	48.488	-82.087	-79.398	35.335	39.212	-78.140	-73.435	-74.758	-69.337	51.426	-68.203	-8191	255	
40589.293	1	1	0	0	0.25842	0.15522	0.19279	0.21281	0.17867	0.017842	0.31927	0.083944	0.10517	0.11255	0.15856	0.065989	0.19282	0.20067	0.021131	0.19518	-2.8563	-3.9125	-3.6917	-3.2083	-4.0271	-3.6042	-3.7229	-4.0125	-3.2729	-3.7042	-3.8625	-3.2958	-3.9188	-3.45	-3.4583	-4.1229	113.612	18.162	-60.089	154.858	-10.479	6.223	223.123	259.488	192.709	255.156	228.886	50.621	216.531	194.413	-59.582	-70.019	0.00023206	0.0005712	0.00014096	875.53	4.5652e-06	2.5291e-06	1503.5	249.63	3.1979e-06	4.0466e-06	549.92	189.21	67.831	22.827	3.7169e-06	82.123	0.00013834	9.0521e-05	2.5182e-05	805.24	1.0975e-06	9.7741e-07	1387.4	230.78	1.0646e-06	9.4306e-07	507.55	176.9	63.818	21.134	9.8778e-07	76.195	228.688	20.610	-17.182	-83.382	47.061	54.687	-82.171	-79.198	69.838	59.945	-77.765	-73.458	-74.457	-69.620	31.397	-68.201	-8191	255	
40589.391	1	1	0	0	0.23711	0.036151	0.14169	0.46072	0.13228	0.090733	0.20643	0.086086	0.27682	0.1905	0.26626	0.32118	0.07371	0.043725	0.18701	0.091157	-2.8667	-3.6208	-3.6896	-3.4	-3.975	-3.5208	-3.6167	-4.1521	-3.1	-3.6458	-4.1312	-3.3063	-4.1042	-3.7708	-3.3479	-4.3271	225.064	122.617	-71.299	224.384	-49.928	113.597	179.789	166.245	-55.656	11.770	213.221	248.073	212.167	169.744	220.925	253.019	0.00024604	0.00068982	0.00011162	871.65	5.5709e-06	4.1154e-06	1496.8	250.4	4.4867e-06	7.1674e-06	547.91	188.8	68.181	22.947	3.358e-06	81.432	0.0001365	8.5949e-05	2.3552e-05	803.15	1.0124e-06	9.2313e-07	1389.5	231.57	9.9516e-07	9.5719e-07	507.94	176.9	64.048	21.259	9.7367e-07	75.87	220.743	5.234	-9.087	-83.155	66.907	33.514	-82.171	-79.425	43.230	65.357	-77.882	-73.201	-75.008	-69.694	45.424	-68.461	-8191	255	
40589.484	1	1	0	0	0.10299	0.11746	0.17579	0.26586	0.053054	0.14159	0.22886	0.32125	0.072123	0.20663	0.076739	0.1743	0.1527	0.25806	0.25999	0.29452	-2.9771	-3.5583	-3.9958	-3.3792	-3.925	-3.6833	-3.5833	-4.1	-3.3187	-3.6437	-4.0854	-3.3333	-3.7896	-3.7625	-3.1167	-4.0729	-35.596	-13.312	83.498	199.330	161.262	179.708	168.801	243.157	191.106	206.036	-15.285	30.109	15.042	79.180	-50.717	198.469	0.00023533	0.00071018	9.3321e-05	872.49	2.7331e-06	4.5632e-06	1497.7	247.83	2.799e-06	3.2542e-06	547.49	188	68.617	22.875	4.8226e-06	81.052	0.00013217	8.0591e-05	2.3479e-05	803.5	9.5154e-07	9.1304e-07	1387.1	229.58	1.0313e-06	8.8731e-07	505.81	176.27	63.84	21.144	9.6987e-07	75.423	226.068	-17.449	-20.613	-83.324	0.596	51.397	-82.132	-78.933	36.042	87.086	-78.079	-73.389	-75.015	-68.987	41.219	-68.459	-8191	255	
40589.578	1	1	0	0	0.24112	0.24662	0.12237	0.093798	0.2151	0.31031	0.27627	0.1153	0.17994	0.11612	0.40249	0.33561	0.1718	0.17057	0.14939	0.21076	-3.2375	-3.4771	-4.0292	-3.3583	-3.8458	-3.7208	-3.4062	-4.1958	-3.5896	-3.4646	-4.1188	-3.475	-3.6292	-3.9042	-3.2479	-4.2125	61.590	-58.482	227.842	211.982	184.005	200.692	254.300	119.056	109.789	133.897	229.522	175.140	215.712	214.559	127.349	146.287	0.00026594	0.00059697	0.00010046	874.95	3.4299e-06	3.9131e-06	1496.5	248.89	2.9462e-06	5.7963e-06	549	186.83	68.511	22.977	4.9918e-06	80.962	0.00013604	8.342e-05	2.2369e-05	808.64	9.3049e-07	8.4726e-07	1388.6	231.26	9.5169e-07	9.4049e-07	505.36	175.64	63.949	21.185	9.6426e-07	75.112	223.247	6.409	-6.651	-83.264	67.900	43.137	-82.093	-79.204	78.771	47.046	-77.922	-73.454	-74.549	-69.445	74.466	-68.603	-8191	255	
40589.676	1	1	0	0	0.14533	0.10798	0.13364	0.028197	0.18382	0.10238	0.22094	0.18179	0.062676	0.025401	0.10101	0.22178	0.071149	0.23294	0.19832	0.11614	-3.3563	-3.4125	-3.9896	-3.4	-3.575	-3.9208	-3.3458	-4.0479	-3.6813	-3.3646	-4.2	-3.4854	-3.6542	-3.9917	-3.15	-4.175	68.055	-0.138	102.005	74.650	-20.916	46.451	161.182	244.900	-39.244	178.748	19.630	219.731	175.742	224.663	147.679	-26.370	0.00023716	0.00044464	0.00013905	882.73	2.9524e-06	5.2976e-06	1492.2	250.9	2.862e-06	4.133e-06	548.3	187.53	68.052	22.788	2.8982e-06	80.837	0.00012672	8.3165e-05	2.1967e-05	813.58	9.8911e-07	8.7109e-07	1387.6	232.08	9.3374e-07	8.6355e-07	507.41	176.14	63.875	21.252	9.8307e-07	75.538	221.642	18.381	-24.278	-83.292	63.353	36.885	-82.169	-79.015	94.773	49.685	-77.975	-73.499	-75.007	-69.043	54.760	-68.713	-8191	255	
40589.797	1	1	0	0	0.1551	0.13247	0.19494	0.10571	0.088074	0.1476	0.19287	0.010897	0.05116	0.072745	0.07387	0.18079	0.087708	0.083798	0.10132	0.071297	-3.375	-3.2958	-4.1	-3.4667	-3.6688	-4.0292	-3.4062	-4.0125	-3.7729	-3.2188	-4.1979	-3.6854	-3.5729	-3.9333	-3.3146	-3.8604	261.990	-81.605	80.547	-67.424	6.701	140.448	193.533	194.911	-18.499	-42.410	109.922	135.291	-31.006	-40.308	258.315	35.998	0.00026442	0.00070147	0.00011285	880.05	4.6994e-06	5.127e-06	1493.7	250.48	1.9062e-06	4.5245e-06	546.07	188.5	68.931	23.08	6.3527e-06	82.029	0.00012848	8.4595e-05	2.2913e-05	808.79	9.2636e-07	8.6902e-07	1387.4	231.51	9.6816e-07	9.6134e-07	506.81	177.03	64.622	21.437	9.476e-07	76.402	219.954	-9.697	-3.172	-83.181	45.820	45.781	-82.225	-79.359	52.400	58.607	-78.024	-73.534	-74.974	-69.260	43.864	-68.640	-8191	255	
40589.895	1	1	0	0	0.036913	0.14436	0.02249	0.16708	0.08429	0.12508	0.22317	0.15545	0.29958	0.21047	0.33011	0.26321	0.051026	0.10495	0.13505	0.14405	-3.3771	-3.2792	-3.8458	-3.5354	-3.4688	-4.1354	-3.5625	-3.9083	-4.0042	-3.3417	-4.2063	-3.8021	-3.425	-4.0708	-3.1792	-3.8604	-44.208	121.745	84.811	155.731	5.078	222.178	212.087	164.383	186.722	189.972	222.885	230.099	245.307	-53.346	208.959	157.447	0.00022708	0.00055294	0.00013196	877.69	2.9116e-06	3.205e-06	1500	250.55	1.2345e-06	5.1322e-06	553.48	190.09	69.406	23.375	5.4381e-06	82.039	0.00012894	8.785e-05	2.2916e-05	806.13	9.2037e-07	9.2222e-07	1389.4	232.15	9.8709e-07	9.3151e-07	511.08	178.15	64.719	21.576	9.3819e-07	76.455	222.804	20.181	1.192	-82.933	48.575	60.888	-82.197	-79.317	42.091	51.329	-77.734	-73.310	-74.626	-69.506	54.541	-68.594	-8191	255	
40589.988	1	1	0	0	0.090797	0.28641	0.20047	0.15546	0.072056	0.16677	0.146	0.28062	0.19383	0.26301	0.15148	0.23402	0.079385	0.18036	0.14685	0.40316	-3.7188	-3.1813	-3.9708	-3.8125	-3.2146	-4.025	-3.5583	-3.5938	-3.9313	-3.2354	-3.9708	-3.9667	-3.5	-4.0167	-3.4417	-3.4854	-10.795	2.809	79.706	222.837	105.181	96.544	197.431	-76.015	250.418	255.153	186.050	239.955	-55.456	11.036	229.783	217.670	0.00024098	0.00045216	0.0001299	872.97	4.7516e-06	4.7284e-06	1494.7	251.78	2.2511e-06	3.5853e-06	548.53	189.7	69.125	23.174	5.2912e-06	81.983	0.00013081	8.1025e-05	2.2083e-05	804.49	9.8458e-07	8.9616e-07	1387.9	233.02	9.4125e-07	9.0011e-07	507.52	177.72	64.656	21.464	9.4355e-07	76.161	224.695	-4.132	-0.163	-82.959	37.279	43.748	-82.124	-79.131	46.334	67.111	-78.245	-73.382	-74.604	-69.337	63.068	-68.441	-8191	255	
40590.086	1	1	0	0	0.03049	0.053903	0.061845	0.14925	0.15206	0.42957	0.23604	0.11139	0.22725	0.44657	0.012003	0.4194	0.22462	0.22215	0.27135	0.2336	-3.7083	-3.2708	-3.7729	-3.9583	-3.2958	-4.0563	-3.6375	-3.5312	-4.0375	-3.2021	-3.8917	-3.9771	-3.1792	-4.0104	-3.6646	-3.5146	252.343	202.275	-2.942	-62.171	218.404	-5.755	216.918	94.345	29.070	162.541	22.129	232.713	225.993	215.765	199.605	223.048	0.00023395	0.00048808	7.3621e-05	868.14	2.1942e-06	4.424e-06	1488.7	250.98	3.3322e-06	4.5245e-06	548.46	189.07	68.924	23.21	6.6829e-06	82.028	0.00013504	8.5036e-05	2.3005e-05	799.81	9.4515e-07	9.1337e-07	1380	231.47	9.9606e-07	9.4107e-07	506.76	177.43	64.39	21.544	9.5783e-07	76.431	225.056	-7.451	9.121	-83.072	77.332	47.306	-82.004	-79.302	40.593	28.725	-78.020	-73.309	-75.214	-69.779	62.608	-68.584	-8191	255	
40590.180	1	1	0	0	0.23391	0.028744	0.19287	0.097879	0.16105	0.21435	0.23144	0.18402	0.17026	0.21174	0.14179	0.15099	0.21932	0.26262	0.072876	0.097721	-3.7167	-3.1917	-3.4792	-3.9229	-3.1896	-3.9667	-3.9708	-3.3125	-3.9875	-3.3646	-3.7687	-4.0417	-3.2458	-3.9646	-3.7396	-3.4667	-25.419	-66.168	175.640	204.764	-57.803	-30.092	221.910	155.717	96.406	112.767	250.737	199.049	-81.392	-81.826	-57.701	243.401	0.00026175	0.00047573	0.00012766	864.42	1.8425e-06	5.1952e-06	1494.1	247.6	2.9018e-06	5.1149e-06	553.45	190.08	69.13	22.981	3.9448e-06	82.058	0.00013279	8.4295e-05	2.2934e-05	799.16	9.3592e-07	8.9757e-07	1382.1	230.77	9.9165e-07	8.9828e-07	508.28	177.75	64.667	21.401	9.4537e-07	76.48	226.533	-29.086	-0.630	-83.066	67.387	37.046	-82.022	-79.161	34.325	62.027	-78.359	-73.238	-74.697	-69.613	47.931	-68.697	-8191	255	
40590.277	1	1	0	0	0.084255	0.076219	0.24104	0.38041	0.21435	0.16051	0.19749	0.10999	0.33858	0.091057	0.19988	0.061184	0.14818	0.1998	0.018944	0.21185	-3.6958	-3.4167	-3.4313	-4.2021	-3.0979	-3.9646	-3.8333	-3.2938	-3.9313	-3.3792	-3.6	-4.1708	-3.2417	-3.6833	-4.0083	-3.4167	76.499	-83.951	130.042	191.784	-55.255	116.889	121.750	-67.428	220.873	110.939	205.200	239.595	186.009	173.524	67.824	-92.470	0.00027676	0.00053142	0.00013789	866.51	4.2148e-06	5.4261e-06	1489.8	249.05	2.1277e-06	4.2061e-06	550.08	188.47	68.385	23.306	3.7951e-06	82.141	0.00013272	8.1991e-05	2.5105e-05	799.1	9.666e-07	9.0352e-07	1382.1	231.25	9.8056e-07	9.2329e-07	506.96	177.39	64.339	21.533	9.1525e-07	76.26	221.247	18.621	4.712	-82.982	53.018	56.322	-81.752	-79.604	43.911	26.552	-78.117	-73.296	-74.956	-69.887	68.221	-68.494	-8191	255	
40590.375	1	1	0	0	0.15919	0.25513	0.18671	0.23254	0.093059	0.015342	0.30627	0.09933	0.2646	0.191	0.1852	0.28443	0.11333	0.27704	0.15998	0.16795	-3.5563	-3.5771	-3.2833	-4.2312	-3.2229	-3.8458	-4.1833	-3.35	-4.0292	-3.7021	-3.4229	-4.2021	-3.1458	-3.5896	-3.9437	-3.2729	176.985	-33.696	-7.958	-75.298	66.985	87.460	200.823	214.830	59.395	228.640	245.879	205.945	-58.402	248.763	11.365	157.761	0.00024231	0.00039578	0.00010353	862.2	2.899e-06	4.6932e-06	1489.6	248.45	1.1184e-06	7.3895e-06	546.09	187.99	68.238	23.045	4.6993e-06	81.087	0.00013658	7.9401e-05	2.3704e-05	797.37	9.7e-07	8.9302e-07	1378.1	230.4	9.8807e-07	8.6713e-07	505.03	176.7	63.956	21.288	9.8043e-07	75.751	231.636	6.856	-22.262	-83.025	57.462	28.634	-82.225	-79.053	66.569	47.085	-78.231	-73.327	-74.844	-69.404	79.961	-68.490	-8191	255	
40590.492	1	1	0	0	0.077085	0.1923	0.30176	0.14555	0.18179	0.11027	0.23818	0.23403	0.12607	0.13002	0.16146	0.22025	0.12934	0.15984	0.060509	0.33648	-3.6792	-3.6479	-3.3792	-4.0979	-3.3167	-3.4667	-4.1562	-3.1917	-3.75	-3.8604	-3.5542	-4.0979	-3.5271	-3.5833	-4.0479	-3.5042	12.757	172.606	29.423	4.777	-54.404	85.244	190.593	199.313	232.990	-55.652	163.094	214.395	197.912	-4.373	57.571	185.843	0.0002109	0.00036234	0.00016666	869.4	6.1065e-06	6.7079e-06	1484.4	249.18	3.5614e-06	4.2169e-06	546.13	188.29	68.877	22.844	3.9366e-06	81.413	0.00013317	8.3749e-05	2.5068e-05	798.25	9.7681e-07	9.4258e-07	1378	230.95	9.441e-07	9.2778e-07	504.91	176.86	64.217	21.315	9.1426e-07	75.878	224.612	-15.833	-1.113	-83.106	71.602	34.205	-81.893	-79.138	64.092	52.411	-78.211	-73.327	-74.874	-69.294	48.096	-68.365	-8191	255	
40590.590	1	1	0	0	0.2095	0.063666	0.14261	0.1766	0.11512	0.08524	0.13754	0.22506	0.18708	0.18592	0.17492	0.21887	0.08755	0.16193	0.18909	0.29125	-3.6104	-3.8229	-3.1479	-4.1813	-3.425	-3.3667	-4.1917	-3.2417	-3.7771	-3.9271	-3.4062	-4.0917	-3.5354	-3.3875	-4.0729	-3.5083	19.340	167.573	36.441	239.760	-74.167	211.021	253.684	202.458	-89.919	128.003	258.860	-85.657	-7.660	66.013	199.090	168.513	0.0002561	0.00043622	0.00011035	871.63	4.4206e-06	6.3331e-06	1492.4	249.45	2.1353e-06	4.3081e-06	547.39	188.07	68.661	23.224	3.8888e-06	81.601	0.00013154	8.6301e-05	2.4578e-05	799.1	9.8944e-07	9.9189e-07	1381.4	230.92	1.0177e-06	9.6491e-07	505.34	176.87	64.293	21.367	9.1517e-07	76.054	228.217	-18.742	1.164	-83.391	35.356	26.103	-82.010	-79.340	68.537	57.885	-77.932	-73.496	-74.702	-69.666	43.963	-68.356	-8191	255	
40590.684	1	1	0	0	0.21209	0.10743	0.11026	0.19497	0.16461	0.030255	0.31259	0.16334	0.20268	0.1573	0.095994	0.20739	0.057721	0.19955	0.13711	0.1749	-3.35	-3.9146	-3.1312	-4.1708	-3.5792	-3.4313	-4.325	-3.4146	-3.5292	-3.9104	-3.3	-4.1458	-3.6833	-3.3208	-4.0375	-3.5833	258.328	173.577	176.882	163.270	-52.905	141.450	217.664	143.918	-65.973	5.998	-57.709	186.195	-24.900	-69.442	238.163	135.445	0.00024343	0.00032174	0.00013654	872.11	3.2933e-06	5.8053e-06	1495.9	250.51	2.4759e-06	5.3359e-06	546.99	187.63	68.495	22.967	6.0335e-06	81.313	0.00013284	8.5208e-05	2.4503e-05	803.16	9.1365e-07	1.0013e-06	1384.8	231.43	9.844e-07	9.0551e-07	505.81	176.65	64.141	21.301	9.858e-07	75.59	217.597	-22.312	14.894	-83.390	56.827	52.448	-81.852	-79.567	55.705	26.830	-78.335	-73.307	-74.601	-69.548	45.777	-68.283	-8191	255	
40590.758	1	1	0	0	0.054031	0.091141	0.094895	0.32971	0.013895	0.17994	0.22209	0.17468	0.14934	0.090217	0.28448	0.079301	0.083292	0.075728	0.034085	0.084088	-3.0771	-3.9625	-3.0833	-4.0167	-3.7938	-3.3896	-4.1875	-3.4042	-3.2875	-3.8958	-3.3917	-3.8229	-3.8208	-3.2521	-3.9958	-3.7062	146.213	175.126	-34.379	204.826	206.993	15.827	230.942	-82.694	175.287	49.443	185.587	-49.384	202.607	-25.038	254.648	-63.748	0.00021375	0.00050985	0.00015209	879.44	3.304e-06	3.3231e-06	1493.6	248.67	2.7723e-06	5.359e-06	550.24	188.49	68.145	22.756	4.7457e-06	81.244	0.00013477	8.9503e-05	2.4786e-05	810.16	1.011e-06	9.2131e-07	1387.3	231.55	1.0372e-06	9.311e-07	506.92	176.51	64.283	21.282	9.3563e-07	75.84	223.543	-6.440	-11.902	-82.986	74.718	27.426	-82.205	-79.158	66.165	70.482	-78.146	-73.626	-74.931	-69.625	44.370	-68.200	-8191	255	
40590.879	1	1	0	0	0.17878	0.076664	0.062494	0.11623	0.021253	0.075976	0.37528	0.26549	0.35393	0.0585	0.24686	0.33458	0.20999	0.23518	0.034878	0.30167	-3.0708	-4.0417	-3.3146	-3.6458	-3.8208	-3.1937	-4.1854	-3.8875	-3.3104	-4.1438	-3.3729	-3.8771	-3.9688	-3.1583	-3.9979	-3.8042	90.144	91.237	-34.520	-72.248	156.356	-69.298	-91.373	-70.085	223.473	-94.956	249.646	220.609	-22.534	207.818	255.864	182.696	0.00026333	0.00045323	0.00010191	880.68	2.901e-06	6.4501e-06	1493.2	250.55	3.9168e-06	2.4399e-06	550.15	189.6	69.391	23.029	4.0161e-06	81.947	0.00013809	8.6869e-05	2.3873e-05	810.16	9.6604e-07	1.0013e-06	1385.1	232.84	1.0186e-06	9.4481e-07	508.48	177.85	64.933	21.55	9.2111e-07	76.234	226.698	0.953	-4.387	-83.113	48.265	56.702	-82.200	-79.169	54.683	48.653	-78.231	-73.514	-74.425	-69.854	86.098	-68.586	-8191	255	
40590.973	1	1	0	0	0.21113	0.32693	0.19053	0.12812	0.23922	0.1741	0.30634	0.15395	0.39568	0.048197	0.069059	0.20062	0.068898	0.30455	0.28069	0.16148	-2.8979	-4.1083	-3.375	-3.7	-4.0188	-3.1833	-4.1625	-3.8208	-3.0625	-4.2271	-3.5625	-3.6458	-4.0979	-3.1958	-3.7979	-3.9354	139.713	-24.580	238.570	176.386	55.046	24.530	109.780	102.451	206.162	20.993	149.707	237.856	59.706	261.642	23.183	207.709	0.00028478	0.00068039	0.00013615	877.84	3.1247e-06	5.1023e-06	1491.9	252.05	2.5251e-06	4.6297e-06	552.45	191.23	69.608	23.306	6.2013e-06	82.072	0.00013662	9.085e-05	2.2434e-05	806.58	9.9972e-07	9.5623e-07	1383.7	233.27	1.0309e-06	9.3808e-07	510.32	178.66	65.072	21.637	9.6253e-07	76.532	225.380	-8.742	-5.893	-83.117	85.090	20.118	-82.264	-79.082	66.840	36.559	-77.905	-73.660	-74.643	-69.140	45.553	-68.282	-8191	255	
40591.070	1	1	0	0	0.20444	0.10552	0.084686	0.1364	0.048432	0.2951	0.38287	0.17653	0.20292	0.27493	0.21458	0.18965	0.14487	0.27199	0.047517	0.11739	-2.9792	-3.9562	-3.4583	-3.6042	-4.1792	-3.1896	-4.0687	-4.0104	-3.2417	-4.0104	-3.7833	-3.5042	-4.075	-3.6312	-3.9	-4.0833	-20.078	85.467	-2.965	210.869	11.153	-47.590	227.769	-53.614	253.659	247.580	252.517	142.935	150.115	-20.451	-75.192	172.471	0.00024109	0.00044559	0.00014703	875.71	3.8898e-06	5.0077e-06	1498.5	251.72	8.4577e-07	2.9898e-06	547.18	189.39	68.764	22.952	9.4018e-07	81.868	0.00013329	8.4288e-05	2.4317e-05	807.54	9.7964e-07	9.5805e-07	1388.5	233.99	9.9125e-07	9.3193e-07	508.17	176.91	64.621	21.291	9.3761e-07	76.031	226.596	-23.477	5.020	-82.826	79.020	38.406	-82.376	-78.894	85.637	45.124	-77.632	-73.692	-74.331	-69.566	64.557	-68.675	-8191	255	
40591.191	1	1	0	0	0.022865	0.080493	0.17863	0.47502	0.073318	0.045679	0.23538	0.21347	0.16382	0.14554	0.2043	0.1364	0.31719	0.16405	0.046595	0.25333	-2.8958	-3.9146	-3.5917	-3.6021	-3.9083	-3.3438	-3.8792	-4.1375	-3.15	-4.0875	-3.7479	-3.4813	-3.9875	-3.4396	-3.6458	-4.2312	130.990	-74.260	92.547	233.851	85.346	-43.963	229.419	245.438	179.595	35.715	213.810	-95.540	-76.789	102.863	-71.805	215.622	0.0002382	0.00043059	0.00015773	872.22	3.0897e-06	5.0044e-06	1503.4	252.01	1.6068e-06	3.8638e-06	549.09	188.61	69.145	23.136	5.9733e-06	82.496	0.00013201	8.3248e-05	2.3527e-05	805.73	9.7251e-07	9.0013e-07	1390.2	233.24	9.9712e-07	9.4879e-07	508.53	177.53	64.916	21.541	9.9892e-07	76.535	220.022	-8.928	-29.237	-83.423	44.994	51.078	-82.214	-79.118	40.910	74.729	-77.732	-73.261	-74.861	-69.523	56.775	-68.238	-8191	255	
40591.285	1	1	0	0	0.14028	0.14509	0.10722	0.34995	0.056693	0.27033	0.26915	0.39976	0.024532	0.025294	0.33531	0.19954	0.16089	0.12452	0.15043	0.12621	-2.9875	-3.9729	-3.8021	-3.475	-4.0479	-3.3937	-3.6	-3.9542	-3.1604	-3.7958	-3.9708	-3.4292	-4.05	-3.5583	-3.4271	-4.3458	70.581	168.868	160.265	214.638	174.937	-31.224	217.788	248.897	-53.371	63.436	224.279	246.690	234.764	-77.653	186.357	0.227	0.00025757	0.00054362	9.6458e-05	869.61	3.3695e-06	3.9259e-06	1493.8	250.14	2.2544e-06	5.9267e-06	552.22	193.44	70.661	23.699	4.1202e-06	83.596	0.00013543	8.0965e-05	2.4204e-05	801.4	9.9656e-07	8.8507e-07	1382.6	233.5	1.0044e-06	8.9271e-07	512.55	180.54	66.022	22.041	8.9438e-07	77.916	225.959	-19.225	-9.054	-83.155	66.883	29.448	-81.989	-79.032	74.773	45.678	-78.405	-73.743	-74.518	-69.620	50.045	-68.575	-8191	255	
40591.359	1	1	0	0	0.39979	0.058114	0.26229	0.12497	0.12311	0.036559	0.33963	0.085596	0.072325	0.25399	0.21477	0.10655	0.059238	0.1211	0.27144	0.14647	-2.9646	-3.7188	-3.7646	-3.3542	-4.0312	-3.6917	-3.6333	-4.1896	-3.2313	-3.6292	-4.1146	-3.35	-3.9875	-3.7146	-3.2667	-4.2063	-34.923	151.333	142.334	64.834	179.134	-90.102	194.954	216.884	169.467	-68.223	-89.378	118.361	7.173	-14.335	116.192	224.801	0.00027094	0.00058454	0.00014226	865.68	3.7021e-06	5.8805e-06	1494	255.51	3.4528e-06	3.5619e-06	559.65	193.15	70.911	23.572	4.5192e-06	83.417	0.00013107	8.134e-05	2.196e-05	799.15	8.7511e-07	8.4403e-07	1383.3	235.29	9.4916e-07	8.3256e-07	515.57	180.84	66.046	22.026	9.3332e-07	77.747	224.156	1.157	-0.972	-82.879	63.728	46.753	-82.027	-79.141	39.308	47.426	-77.949	-73.987	-74.786	-69.270	43.922	-68.626	-8191	255	
40591.477	1	1	0	0	0.22912	0.054097	0.28772	0.26836	0.15221	0.043271	0.27516	0.13139	0.13565	0.17388	0.083493	0.28845	0.22595	0.26752	0.18448	0.29463	-2.9333	-3.5208	-3.9062	-3.4333	-3.8812	-3.8771	-3.6458	-4.0958	-3.275	-3.5833	-4.2479	-3.3896	-3.7938	-3.7021	-3.3521	-4.1917	-70.216	152.667	147.702	118.342	174.380	211.562	180.361	202.241	212.061	256.087	252.374	222.078	77.307	129.071	96.133	166.358	0.00026197	0.00038494	0.00012026	870.62	5.1752e-06	5.6203e-06	1496	254.04	2.5944e-06	4.1194e-06	555.12	190.93	69.739	23.337	3.1676e-06	82.748	0.00013365	8.2402e-05	2.3794e-05	799.6	8.9316e-07	8.6033e-07	1384	234.57	9.357e-07	8.6621e-07	511.52	179.49	65.646	21.747	9.1179e-07	76.892	228.819	0.060	9.614	-83.158	68.064	54.951	-82.208	-79.284	58.303	40.191	-78.164	-73.716	-74.599	-69.736	75.715	-68.383	-8191	255	
40591.574	1	1	0	0	0.11473	0.10044	0.26677	0.06721	0.17036	0.07709	0.22853	0.10019	0.21917	0.23422	0.45414	0.23422	0.15505	0.047586	0.068175	0.1939	-3.1063	-3.3146	-3.9771	-3.3479	-3.8375	-3.8083	-3.3354	-4.1583	-3.5125	-3.475	-4.1896	-3.4208	-3.6708	-3.8417	-3.3125	-4.1417	-21.468	59.705	116.946	168.162	258.447	109.211	61.567	-3.392	117.539	-80.039	209.303	196.033	151.509	164.412	-22.267	176.375	0.00021901	0.00044838	9.3454e-05	879.13	3.0123e-06	4.6221e-06	1494.7	251.59	2.3694e-06	4.1077e-06	550.9	188.03	69.617	23.032	3.6803e-06	81.326	0.00013199	7.9768e-05	2.2044e-05	809.45	9.5786e-07	8.7117e-07	1387.2	233.9	9.1278e-07	9.0509e-07	507.91	177.01	65.027	21.469	9.2573e-07	75.76	218.305	-10.524	-12.023	-83.036	42.990	53.105	-81.823	-79.212	55.528	79.756	-78.026	-73.593	-74.721	-69.344	62.770	-68.241	-8191	255	
40591.668	1	1	0	0	0.24723	0.10521	0.22118	0.1466	0.23701	0.05276	0.069713	0.10348	0.15901	0.12578	0.18181	0.1558	0.26791	0.22622	0.19971	0.1468	-3.4313	-3.2833	-3.8479	-3.4062	-3.6625	-4.0167	-3.3292	-4.0208	-3.9167	-3.2188	-4.0875	-3.4583	-3.675	-3.9917	-3.2708	-4.1229	257.263	86.592	199.244	193.324	-83.350	223.479	111.396	-56.930	100.526	-70.109	233.914	78.724	80.860	-10.907	249.181	184.409	0.00022098	0.00065812	0.00010727	894	3.362e-06	1.9959e-06	1506.5	255.63	2.5662e-06	3.6675e-06	559.05	189.88	70.929	23.665	3.7393e-06	82.719	0.00013135	8.3293e-05	2.2701e-05	821.92	9.5171e-07	8.653e-07	1395.6	236.37	9.5878e-07	8.8856e-07	513.46	179.36	66.195	21.897	9.1864e-07	76.982	221.529	-15.699	-16.799	-82.992	51.306	38.353	-81.887	-79.308	53.109	77.108	-77.983	-73.480	-74.525	-69.503	41.268	-68.512	-8191	255	
40591.789	1	1	0	0	0.047483	0.087257	0.2549	0.14769	0.093863	0.15347	0.016194	0.08614	0.0085221	0.12872	0.35789	0.13319	0.049704	0.12328	0.066962	0.18703	-3.5167	-3.2458	-4.0417	-3.4792	-3.5208	-4.075	-3.4208	-3.8	-3.8354	-3.1417	-4.125	-3.6625	-3.3937	-4.1083	-3.375	-3.7854	85.283	101.258	198.455	18.686	72.566	260.040	36.642	196.636	147.986	97.271	143.798	224.604	-83.635	236.733	-78.942	193.694	0.0002337	0.00058616	0.00011977	896.54	3.3e-06	6.6681e-06	1505.6	257.42	2.9296e-06	4.4215e-06	556.27	192.65	71.635	23.829	4.5433e-06	83.188	0.00012863	8.6944e-05	2.2125e-05	821.05	9.2264e-07	8.6588e-07	1397	237.96	9.605e-07	9.1307e-07	516	181.32	67.105	22.129	9.1946e-07	77.696	226.499	-0.441	-14.036	-82.998	78.164	51.568	-81.905	-78.901	66.222	37.011	-78.058	-73.167	-74.439	-69.242	63.101	-68.479	-8191	255	
40591.887	1	1	0	0	0.014583	0.19153	0.062067	0.22558	0.021989	0.2246	0.3157	0.1045	0.058469	0.24653	0.16146	0.070559	0.21629	0.098382	0.096596	0.17156	-3.6271	-3.05	-3.8854	-3.675	-3.2792	-3.9771	-3.5208	-3.7583	-3.8646	-3.1729	-4.1771	-3.6125	-3.325	-4.0042	-3.0833	-3.7	225.971	-54.387	93.816	-68.215	-74.423	-96.336	220.914	-95.535	87.974	-44.518	262.482	-44.150	-17.658	-22.296	-65.023	202.644	0.00025463	0.00063033	0.00014288	888.67	4.1419e-06	4.9546e-06	1508.2	256.5	3.0387e-06	5.2282e-06	561.53	193.21	71.212	23.93	4.1115e-06	83.695	0.00013315	8.6727e-05	2.0361e-05	819.51	9.5203e-07	8.9302e-07	1394.7	238.24	9.22e-07	8.6114e-07	517.59	181.69	66.734	22.113	8.8687e-07	77.78	224.096	-2.679	-10.443	-82.996	66.033	67.008	-82.362	-79.503	87.888	49.071	-78.161	-73.594	-75.059	-69.367	61.773	-68.354	-8191	255	
40591.980	1	1	0	0	0.13873	0.11904	0.20312	0.36657	0.15504	0.20627	0.12046	0.21186	0.11634	0.15423	0.17792	0.19372	0.13316	0.069349	0.28316	0.24172	-3.6813	-3.1896	-3.9021	-3.7687	-3.3417	-4.0729	-3.5	-3.7583	-4.0604	-3.2729	-4.0813	-3.9208	-3.3542	-4.0667	-3.4229	-3.6229	142.582	27.934	11.557	-90.748	83.554	-8.940	190.422	182.315	135.201	247.597	252.453	230.964	153.896	-79.058	148.959	-40.843	0.00027759	0.00053109	0.00013856	886.06	3.7455e-06	5.7768e-06	1501.1	255.76	3.0515e-06	4.762e-06	559.76	193.82	71.332	23.914	5.3097e-06	83.233	0.00013082	8.0988e-05	2.2653e-05	817.56	9.5859e-07	8.1301e-07	1395.9	238.35	9.6613e-07	8.987e-07	516.11	181.56	66.691	22.073	9.188e-07	77.423	224.595	-17.534	1.894	-83.286	70.902	42.160	-82.183	-79.283	78.676	43.385	-78.069	-73.566	-75.074	-69.350	58.088	-68.744	-8191	255	
40592.055	1	1	0	0	0.014333	0.11787	0.1094	0.064643	0.15242	0.30432	0.24411	0.11548	0.12674	0.013667	0.27389	0.27687	0.26601	0.068611	0.10587	0.10169	-3.625	-3.1417	-3.7042	-3.8479	-3.0021	-3.9062	-3.6958	-3.6917	-3.9854	-3.2667	-3.6937	-3.85	-3.3187	-4.0229	-3.6188	-3.5	127.202	31.014	98.204	-65.674	118.754	-13.639	194.501	141.350	194.005	8.309	217.391	186.389	91.093	-59.790	17.156	123.331	0.00024464	0.00061863	9.973e-05	885.31	3.368e-06	5.1502e-06	1505	258.89	2.8478e-06	1.1961e-06	563.55	194.89	72.39	24.185	5.509e-06	84.073	0.0001292	8.0427e-05	2.1771e-05	818.13	9.3235e-07	8.7473e-07	1394	239.14	9.4435e-07	8.9662e-07	519.21	182.69	67.498	22.479	8.9619e-07	78.202	221.205	-6.506	-12.147	-82.800	49.307	30.731	-82.248	-79.340	49.129	119.487	-78.110	-73.465	-75.314	-69.192	35.477	-68.658	-8191	255	
40592.172	1	1	0	0	0.04558	0.1295	0.04711	0.23448	0.19497	0.23642	0.19459	0.14281	0.21535	0.099559	0.26676	0.26006	0.16338	0.29272	0.05684	0.072855	-3.6792	-3.2375	-3.55	-3.9208	-3.3833	-3.9771	-3.8063	-3.4062	-4.05	-3.2708	-3.7458	-4.1	-3.1458	-3.7625	-3.6271	-3.4625	-7.534	15.711	241.604	254.097	19.179	-73.218	208.616	-90.752	212.231	12.117	239.160	252.003	247.342	216.519	197.904	203.138	0.00024359	0.00050913	0.00013985	886.9	4.8048e-06	4.5176e-06	1503.2	259.84	3.1289e-06	4.1942e-06	563.7	193.22	71.97	23.957	6.7733e-06	82.871	0.00013014	8.095e-05	2.1445e-05	817.07	9.0887e-07	8.4982e-07	1396.6	240.23	8.9296e-07	8.3331e-07	518.39	182.07	67.427	22.164	8.924e-07	77.356	227.792	4.584	2.898	-82.983	85.656	58.444	-82.053	-79.142	63.072	63.634	-78.425	-73.635	-74.912	-69.468	63.676	-68.458	-8191	255	
40592.270	1	1	0	0	0.30312	0.14382	0.021757	0.2111	0.24921	0.054742	0.2706	0.34149	0.12303	0.14453	0.20428	0.15419	0.13939	0.18368	0.17828	0.21691	-3.6292	-3.3208	-3.4854	-4.1896	-3.3021	-3.7625	-4.0271	-3.3125	-3.9562	-3.4604	-3.6521	-4.0729	-3.3917	-3.8458	-3.8125	-3.3021	-76.258	61.877	-5.987	205.259	216.833	254.547	221.222	245.946	121.954	83.793	242.289	256.504	118.020	211.494	145.065	149.690	0.00024062	0.00058515	0.00017541	891.02	3.9345e-06	5.0327e-06	1497.3	257.68	3.0213e-06	4.4909e-06	563.95	193.11	72.118	23.993	4.8538e-06	83.233	0.00012973	8.1519e-05	2.2373e-05	817.06	8.8847e-07	8.1706e-07	1393.9	239.01	9.1719e-07	8.4436e-07	518.66	181.27	67.316	22.187	8.4595e-07	77.482	228.796	-7.401	-4.542	-82.820	41.703	47.387	-82.070	-79.229	75.776	46.456	-78.075	-73.342	-74.522	-69.347	64.142	-68.532	-8191	255	
40592.363	1	1	0	0	0.13972	0.23435	0.155	0.37142	0.097411	0.15551	0.28587	0.11005	0.17302	0.021635	0.17185	0.17989	0.30188	0.14837	0.24393	0.2232	-3.6813	-3.4729	-3.3979	-4.0792	-3.2958	-3.7313	-4.0958	-3.1667	-3.9562	-3.5042	-3.3583	-4.0604	-3.1771	-3.5333	-4.0292	-3.3083	119.938	-92.504	38.289	-49.355	-81.596	143.817	178.453	145.236	149.471	111.490	131.344	224.283	239.194	-91.003	8.844	-90.488	0.00025196	0.00072348	8.5532e-05	885.25	3.7621e-06	7.1716e-06	1506.7	260.2	4.7165e-06	4.0726e-06	561.09	193.91	72.511	24.219	4.4016e-06	83.499	0.00013004	8.3809e-05	2.2038e-05	815.67	8.8393e-07	8.3965e-07	1397.3	240.27	8.9843e-07	8.039e-07	518.72	182.72	67.666	22.405	8.759e-07	77.911	225.007	-38.831	19.515	-83.155	80.299	57.750	-81.936	-79.127	57.753	47.507	-78.259	-73.383	-75.016	-69.711	60.587	-68.667	-8191	255	
40592.461	1	1	0	0	0.062411	0.03305	0.22984	0.052681	0.17618	0.23506	0.27621	0.37416	0.18004	0.26591	0.12431	0.10033	0.054359	0.21628	0.11818	0.11859	-3.4979	-3.5375	-3.1625	-4.1083	-3.5104	-3.5083	-4.1583	-3.2229	-3.8729	-3.8667	-3.3375	-4.0708	-3.6063	-3.4	-4.0437	-3.3375	-46.552	-69.921	-35.248	172.659	4.505	81.727	214.965	217.279	212.568	141.469	200.983	112.977	224.348	-55.757	229.194	231.181	0.00026678	0.00062819	0.00012948	884.43	4.0607e-06	6.3279e-06	1505.5	259.75	2.9419e-06	5.6287e-06	562.25	194.8	72.599	23.958	6.0847e-06	83.299	0.00012215	7.7875e-05	2.2738e-05	814.17	8.7681e-07	8.3741e-07	1396.6	240.77	8.9859e-07	8.4677e-07	518.73	182.69	67.788	22.233	8.4974e-07	77.271	222.565	-1.956	22.340	-82.988	80.554	61.068	-81.924	-78.963	70.836	47.875	-78.131	-73.378	-74.672	-69.216	80.163	-68.765	-8191	255	
40592.582	1	1	0	0	0.18752	0.29345	0.090424	0.28499	0.029825	0.10274	0.10965	0.14387	0.13059	0.067565	0.38302	0.18444	0.075876	0.076531	0.11126	0.09166	-3.5312	-3.7292	-3.1937	-4.1375	-3.4458	-3.3063	-4.3313	-3.1792	-3.6021	-3.8292	-3.3646	-4.1312	-3.6771	-3.3271	-4.0396	-3.3292	209.164	116.277	231.168	244.946	-20.173	52.982	102.030	196.599	88.728	123.287	194.293	251.675	137.588	123.715	214.008	206.316	0.00024817	0.00038086	0.00014134	882.66	3.868e-06	4.4963e-06	1499.6	258.86	3.5195e-06	3.0377e-06	557.7	191.49	71.7	23.593	3.9811e-06	82.083	0.00012809	7.3078e-05	2.1358e-05	812.41	8.4904e-07	8.4188e-07	1393.1	239.78	8.9729e-07	8.0515e-07	516.57	180.44	66.947	21.877	8.6558e-07	76.366	216.695	13.067	-0.097	-82.971	51.679	43.349	-81.898	-79.149	52.481	41.816	-77.812	-73.581	-74.824	-69.972	53.311	-68.737	-8191	255	
40592.652	1	1	0	0	0.14593	0.11155	0.15605	0.14982	0.053438	0.28454	0.37458	0.045063	0.21897	0.162	0.14127	0.17899	0.34066	0.018756	0.078696	0.36519	-3.3771	-3.9292	-3.2146	-3.9979	-3.5646	-3.3729	-4.2063	-3.4896	-3.4021	-3.8229	-3.4542	-4.0437	-3.6417	-3.2062	-4.0125	-3.3896	158.691	-35.129	210.706	37.833	249.375	9.510	227.395	250.843	159.552	176.503	-75.536	154.039	128.028	-41.317	-22.388	206.143	0.00024932	0.00037456	0.00013475	879.06	3.1701e-06	5.6788e-06	1503.6	256.94	2.2274e-06	4.404e-06	559.82	192.99	71.704	23.851	4.2765e-06	82.6	0.00012527	7.5772e-05	2.1529e-05	807.65	8.6636e-07	8.5719e-07	1392.8	239.24	9.4459e-07	8.4245e-07	517.85	181.28	67.101	22.128	8.1905e-07	77.018	215.702	-1.836	11.691	-83.051	56.255	35.586	-82.136	-79.063	91.141	63.302	-78.512	-73.499	-74.745	-69.851	67.510	-68.806	-8191	255	
40592.750	1	1	0	0	0.15207	0.075819	0.18274	0.15917	0.15025	0.13603	0.057717	0.16859	0.13733	0.20121	0.13948	0.31241	0.064269	0.075369	0.13415	0.22079	-3.1708	-3.7792	-3.0771	-3.8854	-3.7062	-3.1167	-4.2188	-3.4708	-3.4604	-3.9917	-3.1833	-3.8937	-3.8875	-3.0583	-3.9104	-3.6437	240.664	-60.306	42.490	195.626	-0.981	154.019	161.382	-34.854	-46.628	214.575	166.346	239.221	255.579	151.473	53.569	-76.495	0.00023487	0.00069541	0.00019877	878.72	3.9132e-06	3.7405e-06	1504.9	258.62	3.978e-06	4.831e-06	561.77	193.86	72.562	23.945	6.3776e-06	83.541	0.00012977	7.3213e-05	2.1358e-05	808.2	8.8223e-07	8.2492e-07	1394.9	240.42	8.8293e-07	7.8745e-07	517.91	182.4	67.777	22.181	8.4545e-07	77.463	228.556	6.302	-19.033	-83.142	70.444	31.245	-81.750	-79.484	48.971	69.095	-78.364	-73.593	-74.732	-69.546	53.403	-68.451	-8191	255	
40592.871	1	1	0	0	0.070119	0.022582	0.19062	0.3099	0.095494	0.053381	0.29007	0.061376	0.079833	0.22713	0.17164	0.095007	0.17864	0.40799	0.051421	0.15217	-2.8688	-3.9292	-3.175	-3.7125	-3.8292	-3.1292	-4.1667	-3.6979	-3.4333	-3.9938	-3.3104	-3.6542	-3.95	-3.2	-4	-3.6292	36.268	-14.205	12.616	182.417	103.295	162.722	188.557	-79.947	-64.058	239.621	189.201	247.704	36.238	253.471	-34.694	231.280	0.00023481	0.00053071	0.00015204	872.14	4.4304e-06	4.0432e-06	1495.5	258.81	2.8851e-06	3.98e-06	557.93	194.57	72.615	24.167	3.8785e-06	82.823	0.0001313	7.6236e-05	2.1729e-05	805.86	8.556e-07	8.4221e-07	1383.2	239.83	9.1963e-07	8.2318e-07	517.29	182.29	67.815	22.293	8.4265e-07	77.301	222.643	-20.538	-5.770	-82.828	73.007	48.575	-82.206	-79.018	41.986	52.324	-78.218	-73.565	-74.638	-69.625	44.502	-68.743	-8191	255	
40592.969	1	1	0	0	0.15097	0.10534	0.12826	0.24766	0.10904	0.10247	0.30617	0.26721	0.056634	0.033032	0.33025	0.35683	0.10026	0.17311	0.30707	0.078539	-2.8812	-4.1146	-3.1604	-3.575	-3.8146	-3.1771	-4.1521	-3.6521	-3.1813	-3.9896	-3.6833	-3.475	-4.0354	-3.2708	-3.7562	-4.0437	140.894	-58.346	43.556	184.136	244.570	-28.329	242.972	173.599	69.024	-84.104	243.554	218.813	224.225	-59.169	256.080	-93.348	0.00025218	0.00049772	0.00010205	868.04	3.2674e-06	3.0368e-06	1495.6	257.19	3.8836e-06	4.1726e-06	559.23	193.25	72.202	24.086	4.3586e-06	83.064	0.00012833	7.7628e-05	2.1994e-05	798.91	8.8037e-07	8.4378e-07	1381.1	239.06	8.9794e-07	7.6759e-07	517.06	181.52	67.563	22.236	8.311e-07	77.289	226.150	8.199	-3.601	-83.387	31.392	58.527	-82.137	-79.041	83.723	51.558	-78.124	-73.813	-74.830	-69.467	38.187	-68.858	-8191	255	
40593.062	1	1	0	0	0.28807	0.053287	0.29365	0.17071	0.21219	0.33796	0.36395	0.094087	0.20285	0.11029	0.074788	0.30346	0.18085	0.1638	0.42678	0.20702	-2.9125	-4.0729	-3.4396	-3.3792	-3.9208	-3.1562	-3.9979	-3.9979	-3.1479	-4.0271	-3.7667	-3.4854	-4.0917	-3.2812	-3.6521	-4.0542	54.596	192.251	-26.576	198.859	-72.351	-20.756	238.986	60.629	-0.587	148.755	-16.262	122.855	-22.473	154.420	252.936	253.116	0.00026394	0.00048308	0.00015068	868.47	3.8939e-06	4.4518e-06	1486.5	257.85	1.852e-06	5.2072e-06	558.86	194.12	71.688	24.097	6.1078e-06	83.152	0.0001251	7.2248e-05	2.1566e-05	797.99	9.1527e-07	8.5959e-07	1379.7	239.02	8.9549e-07	7.8163e-07	517.76	182.46	67.357	22.324	9.0601e-07	77.41	227.052	1.597	4.944	-83.091	73.507	65.501	-82.408	-78.754	28.393	60.956	-78.092	-73.876	-74.725	-69.889	53.973	-68.509	-8191	255	
40593.160	1	1	0	0	0.085774	0.098895	0.13983	0.24296	0.12176	0.09057	0.19858	0.17436	0.081118	0.18366	0.24048	0.021638	0.071925	0.098891	0.12533	0.11982	-2.6875	-3.9313	-3.4938	-3.4771	-3.9917	-3.3583	-3.7396	-4.1312	-3.1646	-4.0979	-3.8958	-3.3833	-4.0771	-3.3688	-3.5208	-4.1021	127.695	-59.226	94.744	195.717	254.907	240.202	171.927	-93.239	102.160	130.963	225.033	199.359	262.317	119.187	-43.377	-78.260	0.00027264	0.00047365	0.00015142	869.46	4.7967e-06	5.4122e-06	1487	257.86	3.6851e-06	4.0587e-06	560.35	193.44	72.456	23.899	5.1069e-06	82.529	0.00013014	7.1118e-05	2.1032e-05	797.44	8.9365e-07	8.5495e-07	1380	238.52	9.649e-07	7.7515e-07	517.88	181.69	67.442	22.158	8.6591e-07	77.176	224.786	-20.686	-7.889	-83.459	60.327	40.117	-82.060	-79.330	74.588	70.565	-78.053	-73.880	-74.535	-69.603	47.728	-68.467	-8191	255	
40593.254	1	1	0	0	0.055594	0.061934	0.24553	0.27289	0.24178	0.062078	0.24866	0.12037	0.19402	0.2209	0.14777	0.113	0.23705	0.20289	0.039221	0.066021	-2.7958	-3.7625	-3.7146	-3.3438	-3.9417	-3.6271	-3.6104	-4.1896	-3.3167	-3.7083	-3.9458	-3.3563	-3.9167	-3.3083	-3.3354	-4.0604	235.577	-31.562	89.327	166.888	254.269	15.742	225.148	173.216	247.149	66.573	194.492	205.174	255.845	212.074	9.851	245.101	0.00025091	0.00051058	0.00013109	857.59	4.0402e-06	5.0025e-06	1485.2	255.77	3.3747e-06	4.3746e-06	557.22	192.84	71.971	23.664	5.3441e-06	82.071	0.00012273	7.682e-05	2.1066e-05	791.93	9.1551e-07	7.8711e-07	1376.1	237.55	9.0976e-07	8.4469e-07	514.74	180.61	66.939	21.909	9.2557e-07	76.526	218.665	-15.671	-13.238	-83.341	53.967	40.119	-82.085	-79.084	42.726	55.158	-78.068	-73.868	-74.715	-69.587	50.291	-68.434	-8191	255	
40593.348	1	1	0	0	0.077468	0.23764	0.064291	0.06039	0.080784	0.10737	0.18444	0.16842	0.046536	0.13976	0.29711	0.12929	0.1641	0.021733	0.22048	0.12597	-2.9542	-3.7708	-3.9583	-3.3521	-4.0979	-3.5479	-3.5333	-3.9854	-3.3167	-3.7188	-3.9938	-3.1937	-3.8021	-3.5979	-3.2271	-4.3479	-10.994	9.740	-17.879	220.787	-11.926	237.462	228.358	147.789	120.645	249.399	224.159	156.522	-62.318	-90.032	42.780	198.711	0.00025945	0.0006999	0.00010981	864.54	3.5854e-06	5.3907e-06	1481.1	254.07	2.5949e-06	2.2647e-06	553.27	190.98	70.537	23.373	4.6815e-06	81.305	0.00012346	7.9012e-05	2.1516e-05	793.18	9.1899e-07	8.5073e-07	1371.1	235.43	8.9223e-07	7.8388e-07	510.29	178.63	65.959	21.61	8.5997e-07	75.39	227.383	-15.991	2.777	-82.899	71.489	58.950	-82.332	-78.928	38.799	43.506	-78.300	-73.640	-74.664	-69.950	69.244	-68.210	-8191	255	
40593.469	1	1	0	0	0.080561	0.12986	0.0709	0.42516	0.06479	0.14307	0.23974	0.19521	0.047263	0.15522	0.13309	0.1595	0.18926	0.1408	0.24976	0.36644	-2.9667	-3.4938	-3.8937	-3.2979	-3.8063	-3.6917	-3.4292	-4.0312	-3.3542	-3.4813	-4.0875	-3.425	-3.9979	-3.7	-3.2604	-4.1188	45.947	-24.800	149.682	204.460	174.652	61.892	240.764	82.496	26.858	192.465	250.621	205.031	132.259	52.300	33.726	158.361	0.00023058	0.00057225	0.00013024	866.93	3.0615e-06	4.5984e-06	1482.8	254.14	4.7664e-06	4.3484e-06	554.91	188.08	70.29	23.145	5.26e-06	81.046	0.0001283	7.801e-05	2.1401e-05	796.97	8.9122e-07	8.7341e-07	1375.4	235.11	9.6539e-07	8.216e-07	510.54	177.42	65.721	21.437	8.8011e-07	75.29	228.606	5.614	-12.902	-83.126	62.341	69.310	-82.154	-79.134	70.149	69.515	-77.938	-73.627	-74.816	-69.475	66.207	-68.390	-8191	255	
40593.566	1	1	0	0	0.065341	0.25286	0.040694	0.090625	0.071627	0.13443	0.13707	0.052858	0.22166	0.10691	0.255	0.37767	0.062627	0.13721	0.20787	0.09264	-3.0104	-3.5333	-4.0854	-3.3063	-3.8833	-3.8438	-3.4979	-4.1708	-3.5271	-3.5312	-4.1667	-3.5062	-3.9229	-3.9646	-3.3688	-4.025	56.121	-84.139	223.114	118.277	185.101	184.940	168.790	201.466	122.874	142.649	207.862	204.061	126.645	119.337	163.818	114.119	0.00025312	0.000586	0.0001364	868.99	2.7344e-06	5.1369e-06	1487.4	252.38	1.3055e-06	5.2528e-06	550.42	188.15	69.301	22.864	5.06e-06	80.444	0.00012725	7.9446e-05	2.0033e-05	801.85	8.5835e-07	8.1905e-07	1376.9	234.72	9.2412e-07	8.7826e-07	507.97	176.73	64.926	21.247	8.9042e-07	74.611	220.760	-17.412	2.212	-83.019	58.320	44.071	-82.187	-79.096	108.573	58.623	-77.930	-73.453	-74.692	-69.840	47.107	-68.439	-8191	255	
40593.660	1	1	0	0	0.12891	0.31764	0.17384	0.055126	0.17063	0.23429	0.27476	0.10259	0.21266	0.16454	0.034558	0.25298	0.2212	0.07734	0.20097	0.1869	-3.2083	-3.2479	-4.1354	-3.4042	-3.7021	-3.9396	-3.425	-4.1625	-3.6146	-3.3688	-4.075	-3.4688	-3.6333	-4.0875	-3.3333	-3.9458	47.863	105.333	-49.670	192.735	-2.993	113.105	-83.179	30.117	76.409	-39.676	261.588	197.973	196.164	118.929	180.761	188.451	0.00024683	0.00048826	0.00015048	874.39	2.8935e-06	4.8137e-06	1479.8	249.39	3.6174e-06	4.6497e-06	544.13	185.9	68.853	22.614	4.7884e-06	79.262	0.00012934	8.8082e-05	2.0738e-05	804.9	9.0774e-07	9.0625e-07	1371.2	231.84	9.2127e-07	8.977e-07	503.29	174.75	64.346	21.09	9.2103e-07	73.948	224.118	-24.854	-7.194	-83.439	76.369	15.726	-82.106	-78.981	37.172	79.000	-78.106	-73.549	-74.615	-69.663	85.427	-68.578	-8191	255	
40593.758	1	1	0	0	0.081081	0.13184	0.075997	0.083741	0.1246	0.095945	0.22874	0.1291	0.35802	0.0062481	0.32521	0.12507	0.20354	0.22741	0.20154	0.21443	-3.2958	-3.1896	-4.025	-3.5208	-3.3396	-4.0625	-3.3604	-3.8583	-3.6188	-3.1458	-4.075	-3.475	-3.4125	-4.0583	-3.2458	-3.7542	204.286	136.965	3.605	167.574	205.490	135.552	127.603	247.747	144.869	258.651	227.626	252.160	-3.802	247.794	254.283	195.706	0.00022733	0.00041523	0.00015396	877.94	2.717e-06	3.8127e-06	1492.8	253.33	2.4048e-06	5.4395e-06	546.84	187.75	69.164	22.872	4.2379e-06	80.2	0.00012883	8.9698e-05	2.2079e-05	810.02	9.4069e-07	8.5371e-07	1377.7	234.59	9.5128e-07	9.4821e-07	506.47	175.95	64.926	21.263	9.5131e-07	74.501	227.896	-24.347	-35.759	-83.042	63.752	49.544	-82.167	-79.188	32.578	65.858	-78.104	-73.544	-74.569	-69.396	39.612	-68.575	-8191	255	
40593.879	1	1	0	0	0.049149	0.16405	0.22301	0.2665	0.43459	0.17727	0.38762	0.24573	0.32763	0.12773	0.36016	0.16755	0.13547	0.25946	0.17496	0.19472	-3.4167	-3.1521	-4.1125	-3.5958	-3.3187	-4.1146	-3.5438	-3.6958	-3.7562	-3.2792	-3.9646	-3.7958	-3.2812	-4.1958	-3.3354	-3.8375	11.287	183.955	212.515	199.540	-68.834	-35.953	245.696	-40.873	137.395	198.335	210.614	134.345	-61.623	-83.645	228.518	222.641	0.00023655	0.00048894	0.00013947	882.11	3.5919e-06	4.4831e-06	1491.2	254.51	3.5624e-06	2.3906e-06	550.97	189.1	69.795	23.032	5.3353e-06	80.427	0.00013126	7.9985e-05	2.3819e-05	808.89	9.5049e-07	8.7407e-07	1378.7	235.86	9.5234e-07	8.8366e-07	509.79	176.85	65.445	21.376	8.7483e-07	74.824	225.116	6.674	-31.827	-82.989	45.669	13.942	-81.984	-79.262	63.660	44.158	-78.297	-73.577	-74.789	-69.744	52.572	-68.247	-8191	255	
40593.949	1	1	0	0	0.10338	0.17411	0.072672	0.12573	0.052256	0.11673	0.27779	0.11375	0.1135	0.19899	0.18354	0.20147	0.15071	0.23364	0.066906	0.14643	-3.6146	-3.2062	-3.7417	-3.8458	-3.3042	-4.1188	-3.6271	-3.7479	-3.8604	-3.0229	-4.0083	-3.7479	-3.3625	-3.9167	-3.3063	-3.6292	219.053	261.964	-22.605	201.541	138.676	181.120	228.935	-42.039	-21.264	-74.610	258.648	234.630	6.209	138.426	152.005	-23.207	0.00019812	0.00055691	0.00013921	878.56	2.121e-06	4.6894e-06	1498.3	254.79	5.2632e-06	3.8112e-06	552.73	187.92	70.002	22.92	4.5454e-06	80.125	0.0001274	8.0906e-05	2.2453e-05	807.49	9.4345e-07	8.6439e-07	1383.9	235.96	1.0147e-06	8.7751e-07	511.52	177.23	65.517	21.248	8.9215e-07	74.714	224.746	-26.688	-34.330	-82.965	76.805	58.362	-81.984	-79.144	67.034	63.973	-78.194	-73.446	-75.263	-68.975	76.711	-68.506	-8191	255	
40594.047	1	1	0	0	0.040203	0.33606	0.079727	0.23856	0.39073	0.17218	0.3284	0.14721	0.10096	0.068709	0.11408	0.14524	0.18102	0.2491	0.2166	0.1607	-3.6396	-3.2042	-3.7667	-3.8688	-3.0958	-4.1188	-3.7562	-3.3833	-3.9542	-3.2562	-3.7479	-3.8104	-3.3292	-4.0021	-3.6562	-3.4479	-25.639	108.399	135.142	225.410	0.732	133.756	214.709	261.649	38.005	210.283	-68.597	144.378	219.709	-59.071	175.231	205.124	0.00020832	0.00051526	0.00016308	872.82	4.9077e-06	4.1273e-06	1486.8	250.82	3.8025e-06	3.7009e-06	547.56	188.23	68.892	22.841	6.0941e-06	79.808	0.00012698	8.2589e-05	2.2945e-05	805.14	9.6782e-07	8.8598e-07	1378.4	233.34	9.7135e-07	9.0867e-07	506.25	175.99	64.845	21.153	9.0775e-07	74.231	223.841	16.753	9.024	-83.278	37.230	30.992	-81.872	-79.413	49.182	68.541	-78.043	-73.371	-74.866	-69.620	64.350	-68.544	-8191	255	
40594.145	1	1	0	0	0.054408	0.020256	0.058989	0.19239	0.18416	0.24227	0.48541	0.22016	0.067594	0.11037	0.20621	0.12807	0.13925	0.3166	0.26338	0.14386	-3.625	-3.2042	-3.6146	-4.0729	-3.3833	-3.9917	-3.8104	-3.4292	-3.8854	-3.2438	-3.6729	-4.0167	-3.1375	-3.8563	-3.6979	-3.4625	-32.050	218.177	63.651	212.521	-74.671	-38.862	172.319	229.193	-6.730	89.930	224.940	173.790	155.506	233.090	78.174	109.289	0.00025932	0.00074283	0.00015085	872.58	4.6202e-06	4.4412e-06	1486.7	252.19	3.1513e-06	5.9289e-06	550.13	189.2	69.627	22.9	5.5275e-06	80.173	0.00013053	8.5874e-05	2.3057e-05	804.99	9.3535e-07	8.8549e-07	1376.4	234.31	1.0014e-06	8.7369e-07	507.23	176.75	65.063	21.294	9.1839e-07	74.531	223.718	-18.895	-14.021	-83.047	57.362	53.785	-81.965	-79.229	42.743	54.227	-78.178	-73.435	-74.871	-69.579	47.713	-68.864	-8191	255	
40594.262	1	1	0	0	0.15667	0.071156	0.057891	0.4557	0.062805	0.10875	0.27429	0.023406	0.30587	0.15107	0.33027	0.11772	0.3206	0.21053	0.031494	0.38779	-3.7583	-3.4688	-3.1521	-4.0667	-3.0312	-3.8292	-4.1062	-3.5042	-4.2063	-3.5417	-3.6583	-4.4167	-3.2292	-3.8604	-3.9333	-3.5583	10.237	40.187	12.849	230.560	206.831	145.072	183.772	21.699	149.065	-20.350	207.270	225.592	253.250	62.292	-93.395	208.476	0.00025452	0.00049776	0.00015195	871.7	4.2628e-06	4.6638e-06	1487.2	252.01	3.0434e-06	6.647e-06	551.96	187.36	69.731	22.944	6.1839e-06	79.498	0.00013101	8.1856e-05	2.3641e-05	802.3	9.7162e-07	8.5661e-07	1377.2	234.13	9.2534e-07	9.1432e-07	509.05	175.93	65.138	21.215	9.2722e-07	74.04	225.158	5.217	-1.029	-82.903	74.141	44.493	-81.876	-79.369	59.194	64.083	-78.015	-73.722	-74.386	-69.824	54.641	-68.206	-8191	255	
40594.359	1	1	0	0	0.14164	0.12744	0.23338	0.084404	0.061766	0.1321	0.14068	0.20572	0.17163	0.16384	0.019349	0.081733	0.15977	0.10871	0.097454	0.06227	-3.75	-3.5312	-3.3896	-4.0854	-3.1396	-3.6729	-4.1896	-3.3354	-3.9021	-3.6646	-3.5396	-4.1937	-3.3083	-3.7812	-3.8979	-3.2396	153.626	-0.705	53.871	163.295	113.946	227.325	135.671	221.838	-45.593	257.050	-68.035	-27.295	-54.975	116.471	-40.905	159.654	0.00023288	0.00055082	9.8927e-05	871.88	2.801e-06	4.7491e-06	1483.2	253.86	1.9256e-06	3.1967e-06	552.61	186.44	68.631	22.626	4.1257e-06	78.579	0.00013089	8.5822e-05	2.3743e-05	802.06	9.7964e-07	9.0311e-07	1375.8	234.05	9.8921e-07	9.2021e-07	507.06	175.4	64.628	21.005	9.7425e-07	73.541	222.498	-11.458	-21.518	-83.178	69.812	55.396	-82.093	-78.969	84.934	42.954	-77.964	-73.288	-74.240	-69.217	72.533	-68.857	-8191	255	
40594.453	1	1	0	0	0.072476	0.14006	0.19756	0.38471	0.19376	0.015469	0.093718	0.1646	0.10086	0.12244	0.28679	0.15246	0.35054	0.17104	0.16251	0.045169	-3.6875	-3.6958	-3.2354	-4.1021	-3.3146	-3.5687	-4.1104	-3.4021	-3.9229	-3.6479	-3.3875	-4.2208	-3.4021	-3.6708	-4.0813	-3.3	118.268	17.769	174.121	224.576	151.216	-66.664	169.746	253.833	33.655	-35.847	153.979	-69.828	237.263	257.354	-50.098	254.330	0.00025535	0.00044549	9.6353e-05	871.8	3.3481e-06	2.3438e-06	1485.1	252.24	2.1889e-06	5.6452e-06	546.02	186.21	68.95	22.445	4.6024e-06	78.98	0.00013444	8.3914e-05	2.4359e-05	802.52	9.9122e-07	9.4233e-07	1376.4	233.16	9.9051e-07	9.6416e-07	504.83	174.65	64.616	20.926	9.9446e-07	73.464	222.158	-21.807	-20.920	-82.978	87.770	37.755	-82.149	-79.503	73.525	35.687	-78.220	-73.151	-74.470	-69.753	47.212	-68.235	-8191	255	
40594.551	1	1	0	0	0.19439	0.072962	0.23647	0.238	0.24112	0.16415	0.16227	0.13715	0.27995	0.1561	0.21595	0.13798	0.14081	0.047503	0.15818	0.22331	-3.4292	-3.9854	-3.3937	-4.2542	-3.6479	-3.3167	-4.2604	-3.4813	-3.6125	-3.8937	-3.3958	-4.2312	-3.5687	-3.3708	-4.0437	-3.2438	-21.075	91.480	25.471	146.423	150.444	178.088	160.013	239.681	-94.390	117.127	-88.837	218.660	254.118	179.830	15.147	235.523	0.00023638	0.00040594	0.00011207	870.78	3.3411e-06	3.0411e-06	1479.7	248.62	1.2757e-06	3.8045e-06	545.1	185.44	68.653	22.648	3.2265e-06	78.788	0.00014021	8.8822e-05	2.513e-05	799.87	9.8442e-07	9.7195e-07	1372.5	231.33	1.028e-06	9.4373e-07	503.05	174.38	64.009	20.949	9.9314e-07	73.381	226.016	-10.761	-0.120	-82.819	47.204	39.392	-82.094	-79.160	70.100	45.726	-78.040	-73.834	-74.928	-69.456	74.675	-68.641	-8191	255	
40594.648	1	1	0	0	0.21033	0.058389	0.14896	0.15081	0.15315	0.15132	0.26163	0.057636	0.16589	0.053978	0.14031	0.082032	0.1859	0.084813	0.24289	0.091401	-3.3	-4.0021	-3.0625	-3.9646	-3.5667	-3.225	-4.1708	-3.3292	-3.5646	-4.1479	-3.3229	-4.0437	-3.7229	-3.2542	-4.0958	-3.4729	91.822	196.117	138.443	236.350	164.544	195.929	156.612	205.575	168.994	158.776	-55.711	207.475	6.907	-28.014	119.763	138.185	0.00023659	0.0004798	0.00018752	866.32	3.1298e-06	5.1475e-06	1482.2	251.02	2.6051e-06	2.9685e-06	543.63	186.06	68.986	22.819	2.2916e-06	79.378	0.00013485	8.8164e-05	2.591e-05	798.43	1.0071e-06	1.0304e-06	1374.2	232.02	1.0362e-06	9.5868e-07	503.83	174.81	64.537	21.066	9.1798e-07	73.883	224.184	13.671	-6.536	-83.106	104.523	57.056	-81.983	-79.399	33.805	61.969	-78.216	-73.492	-73.935	-69.357	2.690	-68.370	-8191	255	
40594.742	1	1	0	0	0.10237	0.11197	0.27419	0.085643	0.036761	0.22768	0.13845	0.18636	0.11816	0.10459	0.16062	0.22959	0.084685	0.22442	0.10356	0.15121	-3.1542	-3.9688	-3.3063	-4.0208	-3.8104	-3.2792	-4.3229	-3.5792	-3.6208	-4.125	-3.3875	-4.0021	-3.9375	-3.1396	-3.9792	-3.7292	185.834	2.616	186.512	54.951	-50.810	-91.814	177.736	77.241	67.541	71.922	-81.303	221.946	124.858	-84.186	215.420	199.373	0.00021605	0.00043616	0.00016994	865.81	2.8778e-06	4.789e-06	1482.7	251.7	4.7681e-07	4.2157e-06	551.53	188	69.895	23.153	5.2716e-06	79.958	0.00013659	8.6495e-05	2.5525e-05	797.43	1.021e-06	9.6516e-07	1375.9	233.49	1.0506e-06	9.3758e-07	508.58	176.66	65.39	21.403	9.7185e-07	74.696	226.853	-6.875	-17.006	-83.046	26.014	36.211	-82.060	-78.498	106.452	38.538	-77.874	-73.419	-74.438	-69.633	32.332	-68.351	-8191	255	
40594.840	1	1	0	0	0.17948	0.10322	0.21021	0.14649	0.17579	0.19983	0.2053	0.27296	0.19335	0.072351	0.17662	0.11175	0.26826	0.13146	0.072315	0.03972	-3.2021	-4.0875	-3.2687	-3.8396	-3.9313	-3.3229	-4.1667	-3.6771	-3.325	-4.0729	-3.4125	-3.7729	-3.8604	-3.3021	-3.8667	-4.0021	-58.009	124.518	57.736	190.281	166.506	96.727	233.756	243.945	-62.131	104.804	187.698	222.256	234.032	123.238	207.702	-85.056	0.000217	0.00054358	0.00012252	867.54	3.5031e-06	4.1057e-06	1481.7	253.93	3.1275e-06	2.864e-06	548.95	185.9	68.818	22.598	4.9296e-06	79.472	0.00013028	8.6795e-05	2.3873e-05	799.97	9.7915e-07	9.5275e-07	1377.1	235.04	9.9736e-07	8.8449e-07	506.51	175.23	64.743	21.095	1.0082e-06	73.882	223.460	-14.075	-6.289	-83.026	43.628	55.669	-81.797	-78.861	70.694	74.446	-78.228	-73.818	-74.797	-69.184	60.441	-68.455	-8191	255	
40594.961	1	1	0	0	0.13852	0.039625	0.16232	0.18818	0.1325	0.25617	0.39943	0.095734	0.28315	0.19077	0.39391	0.20375	0.08208	0.095476	0.20219	0.24589	-3.0417	-4.1625	-3.175	-3.6083	-4.0167	-3.3229	-4.0854	-3.8458	-3.2271	-3.9958	-3.4521	-3.8021	-4.0375	-3.1583	-3.8896	-3.95	-20.184	194.377	39.724	213.179	74.654	28.621	182.375	191.937	173.625	237.582	-93.019	239.168	193.243	257.489	218.180	208.094	0.00026107	0.00062635	0.00014454	864.76	3.0192e-06	4.8164e-06	1475.6	250.06	2.5491e-06	4.1009e-06	548.43	186.26	68.585	22.72	5.0517e-06	78.688	0.00013539	8.9444e-05	2.3197e-05	797.85	1.0367e-06	9.4597e-07	1369.6	232.05	1.0401e-06	9.0709e-07	504.51	174.5	64.57	21.036	9.5139e-07	73.734	223.678	-6.290	-16.626	-83.022	69.990	50.404	-82.178	-78.907	26.268	44.068	-77.812	-73.497	-74.416	-69.174	51.547	-68.447	-8191	255	
40595.055	1	1	0	0	0.089201	0.090574	0.20156	0.12855	0.10746	0.085383	0.33008	0.075527	0.18127	0.15797	0.27302	0.14876	0.17764	0.19196	0.18245	0.16532	-2.7896	-3.9437	-3.3187	-3.4562	-3.9146	-3.1667	-3.875	-3.9396	-3.1521	-4.0729	-3.7375	-3.3667	-3.9958	-3.3083	-3.65	-3.9792	90.245	151.430	85.782	175.083	-35.215	-33.749	239.052	175.945	169.706	125.166	-79.493	245.103	123.638	227.187	60.958	159.949	0.00022969	0.00043111	9.7762e-05	872.1	3.8515e-06	4.5981e-06	1482.3	252.26	2.0648e-06	5.1027e-06	547.54	186.2	68.748	22.736	5.9991e-06	79.643	0.00013509	8.1152e-05	2.3864e-05	802.94	1.0254e-06	9.6227e-07	1375.9	232.74	1.035e-06	9.1963e-07	504.53	175.01	64.498	21.044	9.6418e-07	74.029	217.559	16.864	7.326	-83.223	44.224	37.796	-81.919	-79.084	64.989	52.280	-78.181	-73.362	-75.007	-69.403	63.227	-68.333	-8191	255	
40595.152	1	1	0	0	0.30968	0.13991	0.19289	0.15652	0.12	0.15071	0.11553	0.29241	0.22028	0.047701	0.24657	0.16478	0.056737	0.091311	0.14023	0.048305	-2.875	-3.8	-3.4813	-3.4188	-4	-3.3167	-3.8542	-4.0104	-3.1542	-3.9333	-3.8917	-3.325	-4.1146	-3.5	-3.425	-4.0167	-4.869	-31.630	12.212	230.314	139.433	64.622	219.343	141.585	175.528	-84.559	217.613	200.184	30.684	183.279	-93.365	86.506	0.00025043	0.00028086	0.00015078	876.66	4.0342e-06	4.9297e-06	1488.9	252.21	1.1907e-06	4.8883e-06	550.7	187.88	69.659	22.914	1.6624e-06	80.179	0.00013734	8.5979e-05	2.3205e-05	804.55	1.0356e-06	9.3943e-07	1376.1	233.53	1.0549e-06	8.9886e-07	506.89	176.2	65.275	21.225	9.4397e-07	74.643	228.353	-25.832	-13.666	-83.191	47.564	30.752	-82.029	-79.314	71.827	60.047	-78.192	-73.778	-74.500	-69.442	56.642	-68.557	-8191	255	
40595.246	1	1	0	0	0.093216	0.12811	0.042029	0.10308	0.19335	0.26874	0.22065	0.35376	0.1462	0.17405	0.22079	0.066838	0.2257	0.24759	0.098417	0.24448	-2.7354	-3.9167	-3.7854	-3.3583	-4.0875	-3.3563	-3.5625	-4.1771	-3.2771	-3.7062	-3.9396	-3.2521	-3.9375	-3.5333	-3.2771	-4.0875	7.701	40.890	-90.002	176.442	-7.173	35.875	177.775	201.752	224.631	69.126	217.056	134.168	124.323	-89.295	252.495	132.075	0.00024302	0.00057866	0.00014566	873.67	3.6013e-06	5.281e-06	1484.9	256.11	1.8449e-06	4.2623e-06	551.21	189.4	70.273	23.171	4.9616e-06	80.351	0.00013846	8.88e-05	2.3869e-05	804.9	9.9778e-07	8.5744e-07	1380.6	236.28	9.8211e-07	9.3666e-07	510.51	177.37	65.994	21.523	1.0252e-06	74.945	229.292	-7.841	-24.827	-82.896	52.082	50.412	-82.242	-79.133	77.422	27.490	-77.887	-73.828	-74.935	-69.189	63.099	-68.709	-8191	255	
40595.344	1	1	0	0	0.14324	0.072209	0.32689	0.36325	0.22264	0.2517	0.21731	0.19602	0.086775	0.11304	0.22167	0.13943	0.068621	0.35967	0.18723	0.33388	-2.9667	-3.5583	-3.7604	-3.1437	-3.8438	-3.5604	-3.5146	-3.9479	-3.2417	-3.4208	-3.8854	-3.1813	-3.8854	-3.5583	-3.2938	-4.1875	-50.837	124.105	93.944	249.615	80.169	198.562	174.833	184.798	205.477	-28.872	216.762	259.178	228.631	183.738	-90.665	203.974	0.00026013	0.00041955	0.00012394	876.7	2.9562e-06	4.8451e-06	1482.1	257.01	2.8673e-06	3.9507e-06	548.39	186.36	68.714	22.468	5.1215e-06	78.257	0.00012781	8.66e-05	2.3862e-05	805.05	1.0029e-06	9.4373e-07	1377.7	236.64	1.0402e-06	9.8435e-07	506.95	174.85	64.716	20.866	1.0664e-06	72.468	229.173	-43.960	-3.463	-83.084	85.612	72.555	-82.048	-79.115	55.133	48.268	-78.014	-73.582	-74.860	-69.350	52.775	-68.785	-8191	255	
40595.438	1	1	0	0	0.0063579	0.081644	0.073116	0.30193	0.1886	0.15019	0.12621	0.12219	0.071347	0.21443	0.11391	0.054506	0.061847	0.26188	0.22666	0.24308	-3.0104	-3.4896	-3.8771	-3.0604	-3.7125	-3.6167	-3.3167	-4.1479	-3.3458	-3.5083	-4.0729	-3.2375	-3.9708	-3.9875	-3.25	-4.125	255.709	68.431	54.960	188.101	26.660	188.776	215.757	-16.320	179.047	-15.518	230.872	210.488	162.818	-68.882	76.005	-90.537	0.00025335	0.00053103	9.6606e-05	869.16	3.3886e-06	5.6855e-06	1483.8	251.08	3.7574e-06	4.013e-06	540.81	181.98	67.551	22.152	5.2103e-06	76.812	0.00013948	0.00010062	2.7268e-05	801.37	1.0464e-06	1.0279e-06	1375.6	231.76	1.1317e-06	1.0541e-06	499.59	171.16	63.538	20.514	1.0796e-06	71.578	223.314	-20.465	-14.104	-83.122	36.343	17.429	-82.274	-79.113	68.381	36.256	-78.167	-73.655	-74.551	-69.376	66.532	-68.495	-8191	255	
40595.559	1	1	0	0	0.15646	0.31494	0.1153	0.29637	0.1335	0.047258	0.24225	0.34803	0.15002	0.19629	0.19726	0.10524	0.10103	0.11317	0.21103	0.37766	-3.1312	-3.2687	-4.0104	-3.3458	-3.7396	-3.8417	-3.3875	-4.1125	-3.45	-3.3604	-4.125	-3.3292	-3.7313	-3.9792	-3.1521	-3.9667	214.066	-10.072	-20.466	-78.409	-57.189	156.968	226.553	66.404	62.356	-29.011	190.176	151.319	43.550	-54.948	-41.222	244.895	0.00022148	0.0005163	9.2312e-05	873.16	3.0636e-06	5.7043e-06	1498.3	252.56	2.0128e-06	6.4014e-06	545.71	183.4	68.772	22.266	4.058e-06	77.668	0.00014006	9.4719e-05	2.5806e-05	804.07	1.0523e-06	9.8486e-07	1382.2	233.68	1.0757e-06	9.7422e-07	503.64	172.48	64.067	20.536	1.0418e-06	72.026	229.186	11.125	-27.923	-83.135	55.709	55.190	-82.085	-79.218	82.577	55.348	-77.856	-73.747	-74.809	-69.992	32.888	-68.355	-8191	255	
40595.656	1	1	0	0	0.07789	0.13598	0.11418	0.26009	0.24057	0.071658	0.2707	0.1241	0.17753	0.17968	0.25094	0.079927	0.13039	0.25985	0.31073	0.024209	-3.175	-3.2458	-4.2917	-3.3396	-3.5479	-3.95	-3.3438	-3.9625	-3.6104	-3.1396	-4.2146	-3.5062	-3.5021	-4.0437	-3.2042	-3.9396	-67.550	-78.434	213.632	203.067	34.331	-66.174	205.016	165.890	60.547	44.664	226.917	166.975	26.538	248.209	146.278	90.012	0.00021674	0.00060131	0.00010265	863.82	3.9e-06	4.1204e-06	1491.1	253.19	2.195e-06	5.3659e-06	545.35	184.08	68.966	22.499	5.2552e-06	77.719	0.00013787	9.4831e-05	2.5823e-05	801.02	1.0065e-06	9.8701e-07	1381.3	234.52	1.0163e-06	1.0021e-06	505.31	173.09	64.734	20.809	1.0011e-06	72.247	223.296	-22.885	-2.036	-82.836	68.501	46.951	-82.312	-78.997	104.478	58.948	-77.973	-73.722	-75.050	-69.659	73.741	-68.608	-8191	255	
40595.750	1	1	0	0	0.14362	0.21679	0.087463	0.17229	0.22057	0.24058	0.2048	0.13428	0.16466	0.10359	0.35379	0.23426	0.098933	0.17071	0.21244	0.19006	-3.3958	-3.2396	-4.0354	-3.5979	-3.55	-4.15	-3.4062	-3.875	-3.975	-3.3354	-4.2542	-3.6479	-3.3271	-3.9646	-3.2333	-3.7771	173.872	153.534	24.950	193.175	7.011	-41.158	183.028	235.186	-94.354	201.692	250.351	209.247	143.570	-66.546	214.793	167.169	0.00022692	0.00063819	0.00015865	872.83	4.4522e-06	7.9986e-06	1488.5	254.91	2.8412e-06	2.2845e-06	549.76	185.71	69.277	22.513	3.2706e-06	78.198	0.00013469	9.311e-05	2.4384e-05	802.82	1.0444e-06	9.4762e-07	1380	236.38	1.0395e-06	9.4705e-07	507.53	174.14	65.062	20.996	1.0035e-06	73.08	218.201	5.308	-13.156	-82.899	56.917	63.193	-81.928	-79.155	77.173	52.370	-78.052	-73.694	-74.621	-69.505	24.883	-68.543	-8191	255	
40595.824	1	1	0	0	0.10912	0.053358	0.16002	0.16117	0.13966	0.081486	0.32126	0.19817	0.085629	0.040454	0.11121	0.30978	0.20416	0.13019	0.32159	0.26053	-3.5958	-3.2125	-3.9	-3.5812	-3.3375	-4.0417	-3.3708	-3.8854	-3.9229	-3.2417	-4.1333	-3.8396	-3.3229	-4.225	-3.2188	-3.5208	59.104	-86.834	-80.037	211.207	188.826	-10.811	207.262	158.125	-79.431	200.428	146.930	200.430	233.807	-55.852	116.329	-87.971	0.00023542	0.00061158	0.00014206	862.83	3.1797e-06	4.2074e-06	1484.9	255.04	3.2821e-06	5.9508e-06	548.69	186.24	69.762	22.61	5.2193e-06	78.367	0.000135	8.9563e-05	2.472e-05	796.27	9.9081e-07	9.2264e-07	1377.3	236.36	1.0132e-06	9.5536e-07	507.67	175.31	65.265	21.039	9.3184e-07	73.189	226.623	-23.137	-6.644	-82.869	97.041	53.692	-82.237	-79.244	71.990	35.996	-78.170	-73.256	-75.049	-69.818	69.689	-68.694	-8191	255	
40595.918	1	1	0	0	0.11787	0.076668	0.036584	0.40967	0.43098	0.13176	0.084345	0.035902	0.034048	0.13913	0.24595	0.28299	0.29152	0.25618	0.12679	0.17758	-3.6	-3.1333	-3.8083	-3.9271	-3.1813	-4.0042	-3.6063	-3.5938	-3.8688	-3.2812	-4.0833	-4.0333	-3.3792	-4.1042	-3.35	-3.6292	120.923	193.651	28.016	222.950	64.245	-12.718	194.086	-75.267	16.083	151.819	-83.125	222.641	227.636	254.200	136.985	107.290	0.00022361	0.00047619	0.00013317	865.35	3.3955e-06	4.9024e-06	1478.1	252.23	2.1153e-06	5.0491e-06	546.14	185.89	69.3	22.437	6.2882e-06	77.787	0.00012845	8.7326e-05	2.4384e-05	794.56	1.0402e-06	8.9906e-07	1372.3	233.9	9.7273e-07	9.1656e-07	505.14	174.57	64.879	20.833	9.0478e-07	72.534	222.675	-10.806	7.695	-83.047	73.576	47.680	-82.197	-79.308	44.894	41.529	-78.178	-73.591	-75.147	-69.796	68.928	-68.685	-8191	255	
40596.039	1	1	0	0	0.25119	0.21553	0.069947	0.11583	0.09784	0.068335	0.25412	0.3206	0.14866	0.13363	0.086956	0.21447	0.32967	0.077685	0.17463	0.21418	-3.6542	-3.0312	-3.9062	-3.9917	-3.1354	-4.1438	-3.8521	-3.4833	-4.0062	-3.4229	-3.6896	-4.0667	-3.3542	-4.1229	-3.4292	-3.4271	-0.748	189.790	200.395	66.023	151.151	-60.184	222.180	225.210	131.221	27.476	13.731	197.650	203.660	-82.761	8.903	189.472	0.00021992	0.00052284	0.00011008	856.85	4.2213e-06	3.8548e-06	1480.3	252.67	2.9389e-06	6.5453e-06	547.05	185.69	69.211	22.399	3.3606e-06	77.603	0.00013025	8.8516e-05	2.4957e-05	792.04	1.0036e-06	8.8185e-07	1370.6	234.4	1.0069e-06	9.6483e-07	505.02	173.73	64.616	20.803	9.1385e-07	72.318	218.155	-2.102	-5.890	-83.143	60.908	57.163	-81.822	-79.232	26.771	45.324	-78.577	-73.423	-74.963	-69.611	40.301	-68.689	-8191	255	
40596.137	1	1	0	0	0.17045	0.07008	0.01893	0.26992	0.19205	0.15801	0.13351	0.034075	0.27519	0.16848	0.29388	0.15864	0.21578	0.19119	0.34654	0.040091	-3.7625	-3.2458	-3.5333	-4.0938	-3.0604	-3.7979	-3.8021	-3.2979	-4.0479	-3.3583	-3.7021	-4.1917	-3.2479	-3.8792	-3.6833	-3.3396	-68.395	-41.536	-65.113	197.180	-90.806	3.584	190.033	-15.481	261.102	-55.738	238.565	206.130	117.760	166.817	180.518	106.876	0.00023162	0.00066276	0.00011123	851.09	3.6229e-06	5.0206e-06	1477.6	251.87	3.36e-06	4.1179e-06	543.69	184.76	68.53	22.422	2.4003e-06	77.154	0.00013114	9.0379e-05	2.3925e-05	788.27	1.0071e-06	9.7063e-07	1368.1	233.14	9.9581e-07	9.6209e-07	501.4	173.15	64.09	20.703	9.8935e-07	71.811	227.171	-19.624	-21.283	-82.850	76.886	51.213	-82.046	-79.363	101.062	54.691	-77.904	-73.476	-74.931	-69.157	62.003	-68.493	-8191	255	
40596.230	1	1	0	0	0.28434	0.1989	0.17634	0.49102	0.20216	0.11552	0.20399	0.22673	0.098874	0.086159	0.38331	0.083107	0.033493	0.2306	0.21111	0.19473	-3.7812	-3.5333	-3.4188	-4.0354	-3.1562	-3.7792	-3.9542	-3.3438	-3.9708	-3.375	-3.5396	-4.0437	-3.0938	-3.7729	-3.7562	-3.3396	153.322	-16.258	-31.992	217.525	-6.312	132.261	141.367	-34.462	48.418	206.644	217.692	121.512	172.727	200.093	233.073	173.243	0.00023393	0.00058011	0.00017112	859.39	3.749e-06	3.5772e-06	1473.1	250.61	4.1015e-06	4.0564e-06	542.57	183.02	68.294	21.946	5.6743e-06	76.88	0.0001338	8.987e-05	2.3541e-05	789.49	1.0662e-06	9.3703e-07	1363.9	231.45	1.0495e-06	9.4522e-07	499.58	171.28	63.584	20.426	9.8728e-07	71.536	226.498	-4.121	-4.004	-83.226	64.652	24.172	-82.179	-79.505	63.134	68.255	-78.131	-73.687	-74.716	-69.523	40.512	-68.499	-8191	255	
40596.352	1	1	0	0	0.282	0.14978	0.25876	0.059741	0.096224	0.12676	0.12615	0.08067	0.17692	0.10403	0.17223	0.095537	0.19322	0.045591	0.10976	0.32199	-3.5917	-3.65	-3.2604	-4.2688	-3.1167	-3.6396	-3.925	-3.2646	-4.0292	-3.5708	-3.4271	-4.2375	-3.2479	-3.6396	-3.9458	-3.3583	-62.792	103.564	-40.627	240.330	17.340	-67.824	253.970	165.185	163.458	251.746	185.732	86.872	68.901	56.445	11.581	242.553	0.00025696	0.00049933	0.00015244	855.76	3.0386e-06	6.2727e-06	1472.6	247.83	3.2854e-06	4.5522e-06	543.01	182.86	68.257	22.218	3.9341e-06	76.967	0.00013247	9.1419e-05	2.5683e-05	788.97	1.0566e-06	1.0085e-06	1368	230.97	9.9622e-07	9.7422e-07	500.17	171.82	63.609	20.61	9.82e-07	71.853	223.830	-31.432	2.917	-83.210	44.261	48.170	-82.090	-79.207	59.202	65.268	-78.300	-73.577	-74.783	-69.846	68.973	-68.553	-8191	255	
40596.422	1	1	0	0	0.044396	0.1334	0.11059	0.28781	0.39008	0.12481	0.1543	0.18323	0.14567	0.27368	0.12857	0.17634	0.33565	0.29154	0.12743	0.26123	-3.6083	-3.7062	-3.2271	-4.1167	-3.5062	-3.5021	-4.3896	-3.4792	-3.7188	-3.6104	-3.3146	-4.1854	-3.4958	-3.3125	-3.9958	-3.2396	151.176	-68.570	83.604	-37.878	4.991	125.560	194.749	146.835	36.588	75.714	177.831	179.504	226.498	-78.951	92.510	144.275	0.00023098	0.0004881	0.00011788	855.26	1.0947e-06	6.8845e-06	1477.1	251.38	2.7723e-06	1.9136e-06	543.22	184.96	68.571	22.355	1.9116e-06	77.398	0.00013034	8.7229e-05	2.5983e-05	787.67	1.0591e-06	9.7915e-07	1367.8	232.69	1.0134e-06	9.7389e-07	502.8	173.08	64.147	20.709	9.5923e-07	72.245	223.697	-19.871	-21.529	-83.193	44.679	32.353	-81.827	-79.222	72.332	81.594	-77.955	-73.366	-74.455	-69.566	45.659	-68.819	-8191	255	
40596.520	1	1	0	0	0.029085	0.13874	0.25655	0.040103	0.032353	0.34157	0.24729	0.17328	0.13878	0.029387	0.19628	0.35978	0.35041	0.31655	0.20206	0.28512	-3.4688	-3.675	-3.0667	-4.1646	-3.4938	-3.4062	-4.2792	-3.3104	-3.6167	-3.9375	-3.15	-3.9833	-3.5312	-3.2354	-4.0271	-3.2812	220.195	-66.419	111.026	119.104	-71.708	-65.914	255.466	225.303	246.281	166.581	185.328	212.742	123.716	254.081	224.273	-77.930	0.0002284	0.00048873	4.8879e-05	854.54	2.9122e-06	5.33e-06	1464.2	250.24	8.6988e-07	4.5964e-06	544.86	184.35	68.125	22.311	5.3016e-06	77.873	0.00013664	8.6563e-05	2.5614e-05	786.36	1.0313e-06	9.7898e-07	1363.3	232.62	1.0337e-06	1.0444e-06	502.38	172.94	64.068	20.75	1.0199e-06	72.344	220.846	6.056	6.675	-82.844	25.612	47.959	-82.289	-79.183	70.983	65.951	-78.407	-73.394	-75.140	-69.852	55.600	-68.809	-8191	255	
40596.641	1	1	0	0	0.14251	0.086113	0.11405	0.093877	0.18957	0.098349	0.28005	0.092598	0.10887	0.1005	0.22661	0.18493	0.17437	0.20291	0.24933	0.18653	-3.2792	-3.8021	-3.2125	-4.1521	-3.6417	-3.4042	-4.2812	-3.4625	-3.6333	-3.8833	-3.2229	-4.0604	-3.7979	-3.3333	-3.9396	-3.4146	-79.816	-59.373	7.548	20.112	250.580	-6.912	185.466	238.436	-78.788	216.129	194.146	-71.039	-45.785	158.729	193.282	148.217	0.00024486	0.00041809	0.00014502	850.76	2.2837e-06	6.5115e-06	1470.6	252.04	1.952e-06	5.2472e-06	543.92	184.35	68.926	22.537	6.2235e-06	77.856	0.0001319	9.231e-05	2.5708e-05	784.99	1.0057e-06	9.7898e-07	1364.8	233.07	1.0255e-06	9.3999e-07	502.97	173.38	64.457	20.867	1.0196e-06	72.466	218.368	-12.384	23.326	-83.166	58.853	33.508	-82.006	-79.209	5.594	42.366	-78.153	-73.623	-74.512	-69.559	58.171	-68.584	-8191	255	
40596.734	1	1	0	0	0.083342	0.2149	0.16574	0.1598	0.026388	0.087989	0.08376	0.12093	0.11812	0.12089	0.30774	0.15047	0.041488	0.069624	0.1297	0.15977	-2.9313	-3.825	-3.2396	-3.9208	-3.775	-3.2	-4.0188	-3.4646	-3.5083	-4.1104	-3.3083	-3.7958	-3.8354	-3.1354	-3.8292	-3.6646	167.153	145.254	-68.943	207.088	261.555	262.667	249.328	-67.941	101.917	234.583	262.207	208.324	72.995	16.447	186.025	158.360	0.00024029	0.00054713	0.00010636	853.37	3.8613e-06	3.7474e-06	1470.6	251.02	3.0481e-06	4.4368e-06	546.1	185.64	69.227	22.704	4.2314e-06	78.431	0.00013735	8.6765e-05	2.6455e-05	783.52	1.0478e-06	9.8568e-07	1364.4	233.3	1.0444e-06	9.6533e-07	505.11	174.4	64.798	21.009	9.9322e-07	73.052	224.644	-9.748	9.704	-82.912	75.492	70.002	-81.975	-78.992	62.087	49.605	-78.428	-73.406	-74.936	-69.307	43.764	-68.581	-8191	255	
40596.832	1	1	0	0	0.27189	0.099116	0.18225	0.19991	0.15176	0.071491	0.27417	0.090363	0.20535	0.088061	0.2814	0.2599	0.15769	0.14532	0.19324	0.051142	-3.0292	-4.1042	-3.1229	-3.5542	-3.8563	-3.0625	-4.0458	-3.7521	-3.2875	-4.1687	-3.3937	-3.7271	-4.0062	-3.1562	-3.6813	-3.725	145.932	105.328	227.600	220.061	49.714	227.063	196.811	231.510	-13.967	122.180	103.065	258.672	178.033	187.717	222.541	-96.962	0.00023672	0.00061651	0.00014829	848.46	2.5547e-06	4.582e-06	1472.4	252.99	2.7272e-06	3.459e-06	548.27	186.89	69.632	22.79	4.6484e-06	79.044	0.00014155	9.0169e-05	2.5731e-05	780.29	1.0065e-06	9.6368e-07	1364	234.13	1.104e-06	9.738e-07	506.43	175.75	65.11	21.204	1.0335e-06	73.681	226.665	-15.044	-3.824	-83.116	74.506	38.608	-82.060	-79.351	66.388	50.992	-78.193	-73.481	-74.811	-69.739	77.948	-68.954	-8191	255	
40596.953	1	1	0	0	0.10644	0.18186	0.066585	0.29916	0.043831	0.10237	0.25448	0.27194	0.070037	0.10808	0.34415	0.16854	0.17753	0.077665	0.047715	0.12954	-2.775	-4.1229	-3.1979	-3.5667	-3.9229	-3.1896	-4.0396	-3.8146	-3.1688	-4.0667	-3.5479	-3.3979	-3.8917	-3.1875	-3.6333	-4.0938	136.596	-16.947	57.657	252.004	203.469	-17.130	135.261	131.779	76.381	-71.224	205.820	142.708	227.380	134.110	9.988	188.446	0.0002341	0.00051589	0.0001346	846.55	2.892e-06	5.9887e-06	1471.5	253.55	1.5126e-06	4.7815e-06	550.46	188.16	69.504	22.907	3.587e-06	79.611	0.00013838	9.1958e-05	2.595e-05	778.11	1.0218e-06	9.4456e-07	1362	235.21	1.0873e-06	9.8942e-07	507.03	175.79	65.448	21.184	9.3786e-07	73.779	226.189	-4.256	-6.770	-82.983	60.921	47.909	-82.031	-79.175	52.425	26.582	-78.285	-73.321	-75.036	-69.398	39.989	-68.275	-8191	255	
40597.051	1	1	0	0	0.089594	0.068612	0.10924	0.15975	0.03405	0.18828	0.26571	0.2588	0.10746	0.18675	0.12474	0.093981	0.062088	0.14156	0.1121	0.15711	-2.8146	-4.0687	-3.375	-3.3375	-3.8708	-3.2854	-3.9437	-3.9854	-3.0979	-3.9167	-3.6896	-3.4479	-4.0125	-3.3021	-3.6604	-3.9521	38.350	244.845	214.645	234.169	216.223	-3.930	174.474	204.840	210.689	158.544	-40.410	207.465	-36.482	-39.511	187.518	-57.616	0.00023813	0.00036599	0.00011571	839.76	4.4218e-06	4.0674e-06	1467	253.98	3.3381e-06	3.0184e-06	546.3	187.31	69.936	22.971	4.7546e-06	79.303	0.00013636	8.8927e-05	2.5356e-05	773.66	9.9203e-07	1.0161e-06	1358.9	234.01	1.0302e-06	9.7148e-07	505.96	175.97	65.577	21.298	9.6286e-07	73.922	225.323	14.189	14.250	-82.836	47.654	56.594	-82.229	-79.323	58.832	23.639	-78.142	-73.626	-74.683	-69.276	44.536	-68.713	-8191	255	
40597.121	1	1	0	0	0.17864	0.11672	0.087129	0.1859	0.12628	0.11409	0.14274	0.12658	0.1191	0.051733	0.32117	0.26881	0.19448	0.26926	0.062751	0.14952	-2.8792	-3.8646	-3.4354	-3.3958	-4.0938	-3.2	-3.7062	-4.0583	-3.0958	-3.85	-3.8396	-3.3167	-4.225	-3.5354	-3.3958	-4.0583	151.612	61.928	2.924	211.159	225.630	210.782	210.783	86.370	96.581	138.633	193.472	167.562	171.263	158.351	-88.398	253.210	0.0002352	0.00050776	0.0001258	836.53	5.5891e-06	4.6813e-06	1467.8	251.95	3.1351e-06	4.6747e-06	550.5	187.44	70.95	23.053	4.4217e-06	79.588	0.0001347	8.4931e-05	2.3977e-05	771.62	9.6644e-07	9.6533e-07	1358.7	233.94	1.0771e-06	9.7139e-07	508.34	176.75	66.163	21.356	1.0646e-06	74.289	233.782	-20.822	1.668	-82.985	64.913	59.396	-82.039	-79.104	95.247	102.252	-78.168	-73.643	-74.732	-69.757	54.509	-68.728	-8191	255	
40597.215	1	1	0	0	0.22144	0.11778	0.15525	0.29579	0.25747	0.18439	0.249	0.32815	0.25263	0.023937	0.15279	0.21113	0.14932	0.097401	0.16293	0.29313	-2.8292	-3.6437	-3.7188	-3.3125	-3.9917	-3.4417	-3.3979	-4.0375	-3.1188	-3.8167	-3.8875	-3.3229	-3.9354	-3.5812	-3.4875	-4.0979	192.981	166.798	128.525	-40.233	-13.636	-59.147	162.530	188.588	-75.407	132.508	258.216	-74.878	-49.857	14.649	46.749	199.954	0.00026092	0.00061387	0.00012931	832	2.4226e-06	5.3382e-06	1463.3	253.23	2.1578e-06	5.4337e-06	548.13	189.15	69.444	23.064	3.8314e-06	79.002	0.00013816	8.5074e-05	2.3671e-05	767.32	1.0303e-06	9.4249e-07	1358.3	234.91	9.9704e-07	9.3376e-07	509.1	177.29	65.585	21.348	9.9487e-07	73.904	224.217	-1.833	12.312	-83.153	50.824	63.024	-82.074	-79.280	29.461	43.595	-78.250	-73.867	-74.658	-69.597	73.063	-68.643	-8191	255	
40597.336	1	1	0	0	0.061327	0.2708	0.1598	0.036347	0.12186	0.052793	0.063561	0.15015	0.2794	0.23115	0.15594	0.16835	0.15118	0.2195	0.15348	0.18336	-2.9771	-3.7542	-3.8042	-3.25	-4.0646	-3.6458	-3.5854	-4.2354	-3.0938	-3.5979	-4.0771	-3.2188	-3.9167	-3.5542	-3.1917	-4.2021	173.648	39.396	-96.651	-20.916	14.527	68.229	-13.666	241.608	58.444	-68.790	148.941	245.771	177.703	262.759	169.648	189.700	0.0002523	0.00071801	0.00012667	832.56	2.4037e-06	5.8558e-06	1458.1	251.37	1.7639e-06	5.1252e-06	549.56	187.46	70.319	22.671	5.7362e-06	79.243	0.00013754	9.2759e-05	2.5902e-05	766.9	1.0016e-06	9.439e-07	1353.2	233.33	1.0175e-06	1.0528e-06	507.66	175.92	65.678	21.163	1.0786e-06	73.535	222.653	0.433	-2.707	-83.395	24.956	47.960	-82.233	-79.071	43.805	57.354	-78.149	-73.682	-74.811	-69.697	81.036	-68.184	-8191	255	
40597.430	1	1	0	0	0.034619	0.1786	0.18588	0.026506	0.17375	0.23276	0.083977	0.2274	0.19566	0.12245	0.081922	0.25731	0.1908	0.23467	0.15191	0.14165	-3.0354	-3.3042	-3.9625	-3.275	-3.8271	-3.8042	-3.5708	-4.0729	-3.6354	-3.475	-4.1687	-3.4604	-3.7521	-3.6542	-3.1688	-4.2167	-60.241	20.848	86.399	188.602	239.675	134.042	-30.781	211.898	121.609	-16.880	161.526	-89.830	217.108	20.889	96.920	171.673	0.00022246	0.00038506	0.00012888	830.26	5.2465e-06	5.3727e-06	1454	252	4.468e-06	6.0026e-06	550.09	186.31	69.335	22.377	3.7009e-06	78.604	0.00014013	8.8052e-05	2.4578e-05	764.64	9.7332e-07	9.6384e-07	1351.5	233.83	1.0289e-06	1.0211e-06	506.82	174.86	64.972	20.925	1.0233e-06	72.778	221.816	-19.369	-4.635	-83.354	49.891	48.587	-82.215	-78.831	63.673	21.374	-78.483	-73.355	-75.018	-69.545	65.830	-68.435	-8191	255	
40597.527	1	1	0	0	0.094609	0.17614	0.054301	0.17107	0.09314	0.10813	0.17097	0.22133	0.12284	0.29652	0.15694	0.26746	0.15812	0.26676	0.070426	0.25843	-3.2938	-3.4583	-4.0521	-3.2	-3.7729	-3.95	-3.2271	-4.1625	-3.5521	-3.25	-4.1542	-3.1021	-3.6312	-3.9729	-3.2021	-4.0188	32.435	184.157	39.084	-67.558	47.346	-56.392	141.988	227.172	119.627	134.573	249.871	234.962	63.728	102.491	186.610	228.754	0.00021947	0.00063181	9.5147e-05	824.12	2.8015e-06	5.4464e-06	1450.9	251.21	3.0395e-06	5.2207e-06	545.42	187.7	69.829	22.783	5.0999e-06	78.885	0.00013263	9.228e-05	2.37e-05	756.38	9.7915e-07	9.2189e-07	1343.8	232.11	9.7836e-07	9.3567e-07	504.71	176.19	65.164	21.119	9.3423e-07	73.336	223.639	-34.593	-12.097	-83.174	55.576	70.004	-82.054	-78.904	52.340	66.246	-78.339	-73.398	-75.311	-69.365	61.548	-68.757	-8191	255	
40597.625	1	1	0	0	0.1145	0.15362	0.18776	0.20397	0.14922	0.11622	0.33518	0.13346	0.17881	0.072085	0.29968	0.30995	0.28701	0.30558	0.029564	0.24269	-3.2979	-3.2771	-3.7792	-3.5083	-3.7125	-3.9146	-3.2625	-4.0167	-3.7521	-3.4896	-4.15	-3.4583	-3.5792	-4.0354	-3.2083	-3.9875	130.087	192.805	7.286	-87.350	189.095	38.566	196.344	166.775	79.684	78.045	239.531	259.556	-37.149	-88.877	-92.583	230.584	0.00025185	0.00053411	0.00011792	817.66	2.7106e-06	3.4719e-06	1444.6	248.11	3.8572e-06	4.0036e-06	547.04	187.03	69.406	22.966	5.1128e-06	79.821	0.00013044	8.5605e-05	2.2934e-05	751.67	9.6604e-07	9.2595e-07	1336.8	229.71	1.0552e-06	1.0053e-06	504.48	175.73	65.215	21.303	1.036e-06	74.355	223.488	-11.342	-0.099	-82.762	85.832	68.523	-81.938	-79.131	66.666	39.987	-78.235	-73.686	-74.963	-69.400	74.191	-68.262	-8191	255	
40597.719	1	1	0	0	0.029118	0.08151	0.0071614	0.1266	0.15521	0.18975	0.41163	0.13104	0.22449	0.063888	0.3137	0.1237	0.18658	0.13545	0.1075	0.12872	-3.3438	-3.1646	-4.0104	-3.4792	-3.3708	-4.0813	-3.5521	-3.8917	-3.675	-3.0667	-4.1583	-3.7104	-3.4583	-4.1229	-3.1792	-3.8458	12.390	242.102	93.610	-79.135	-71.786	14.397	193.240	222.525	97.573	22.148	235.130	-60.243	222.848	200.332	97.578	226.128	0.00023934	0.00069594	0.00015174	824.65	4.7917e-06	6.5163e-06	1452.1	251.29	2.9429e-06	3.8286e-06	546.77	186.47	69.07	22.302	1.9299e-06	76.376	0.00014298	9.3724e-05	2.6184e-05	760.35	1.0305e-06	1.0032e-06	1343.2	232.95	1.0235e-06	1.0322e-06	504.81	174.23	64.921	20.714	9.7639e-07	71.266	219.658	-14.906	-6.694	-82.985	69.401	40.354	-82.019	-79.241	61.056	43.254	-78.326	-73.673	-75.107	-69.497	61.668	-68.751	-8191	255	
40597.816	1	1	0	0	0.26267	0.14391	0.10509	0.24488	0.033389	0.078608	0.23536	0.049915	0.19047	0.17175	0.22393	0.10025	0.22814	0.045146	0.12501	0.23194	-3.6708	-3.2417	-3.9792	-3.4958	-3.3146	-4.1604	-3.4146	-3.6667	-3.9396	-3.1437	-4.0646	-3.75	-3.3417	-4.075	-3.2875	-3.6375	-41.103	-57.368	0.232	153.672	-79.710	59.208	215.241	108.550	36.346	-85.036	220.968	208.036	226.449	29.872	28.880	186.635	0.00024888	0.00043696	0.00012317	830.75	3.8627e-06	5.661e-06	1457.4	249.96	4.0055e-06	3.6632e-06	541.53	182.99	68.932	21.947	6.4658e-06	75.306	0.00013421	8.9788e-05	2.3504e-05	764.98	1.0815e-06	9.9818e-07	1351.7	231.81	1.0387e-06	9.9557e-07	501.12	171.22	64.542	20.428	1.0143e-06	70.006	217.703	19.236	5.148	-82.767	73.825	63.422	-82.104	-79.211	63.791	48.414	-77.961	-73.606	-75.010	-69.204	61.161	-68.386	-8191	255	
40597.910	1	1	0	0	0.084979	0.22499	0.088587	0.23719	0.11805	0.08964	0.25311	0.35051	0.25674	0.11944	0.29586	0.19155	0.15194	0.13811	0.25891	0.23539	-3.7125	-3.1813	-3.6896	-3.7875	-3.0417	-4.0188	-3.7083	-3.7708	-3.9083	-3.1583	-3.9625	-3.7271	-3.1167	-4.1167	-3.2896	-3.5042	224.803	33.929	224.556	217.643	111.633	-22.756	231.675	222.666	204.828	250.748	209.587	162.305	3.642	-59.033	68.987	196.648	0.00022779	0.00049603	0.00014452	834.13	4.1697e-06	5.1678e-06	1461.6	252.72	2.5325e-06	4.1269e-06	541.21	181.6	68.831	21.804	2.824e-06	75.251	0.00013211	9.4352e-05	2.4736e-05	769.44	1.0754e-06	9.2868e-07	1357.1	234.04	1.0544e-06	1.0089e-06	501.34	170.96	64.009	20.271	1.1475e-06	70.172	220.047	-17.575	5.068	-82.718	59.276	52.931	-82.212	-79.201	43.754	29.047	-78.156	-73.694	-74.915	-69.571	47.803	-68.687	-8191	255	
40598.031	1	1	0	0	0.070265	0.17589	0.19578	0.20881	0.042098	0.11461	0.079847	0.065773	0.13073	0.22911	0.1109	0.4181	0.24086	0.15498	0.060104	0.11395	-3.6625	-3.2188	-3.6042	-3.9333	-3.1646	-3.9062	-3.5979	-3.5396	-4.0333	-3.2542	-3.7	-3.8375	-3	-3.9104	-3.3167	-3.4583	142.258	105.374	221.219	176.916	257.775	94.212	203.553	-42.973	70.576	147.139	229.555	199.364	66.642	152.253	-61.478	168.423	0.00024278	0.00036901	0.00014972	832.58	3.8119e-06	4.9541e-06	1466.6	245.57	2.5933e-06	3.6372e-06	530.67	175.64	64.471	20.835	4.1969e-06	71.159	0.00014186	9.7757e-05	2.8063e-05	770.27	1.1761e-06	1.1007e-06	1354.2	227.15	1.1157e-06	1.0553e-06	488.85	164.75	60.96	19.327	1.2098e-06	66.105	231.451	17.598	-2.708	-82.867	61.484	55.599	-81.928	-78.922	58.216	86.179	-78.462	-73.401	-74.861	-69.908	58.977	-68.889	-8191	255	
40598.129	1	1	0	0	0.055509	0.10971	0.18025	0.25689	0.13815	0.21092	0.28407	0.23152	0.13912	0.16146	0.18784	0.074016	0.12074	0.087574	0.14952	0.22523	-3.5896	-3.2062	-3.525	-3.9979	-3.1562	-3.8417	-3.7875	-3.2646	-4.0333	-3.325	-3.6271	-4.0958	-3.0167	-3.6167	-3.8458	-3.125	78.070	207.157	189.302	-67.994	124.437	35.262	195.927	163.682	165.292	20.661	167.417	262.558	-4.854	67.657	-53.382	231.857	0.00020205	0.00051537	0.00018792	840.61	3.662e-06	4.3459e-06	1465.9	247.1	2.8548e-06	3.7817e-06	533.85	176.43	67.059	21.024	3.8365e-06	71.826	0.00014547	0.00010695	2.9143e-05	770.75	1.1992e-06	1.0958e-06	1360	229.37	1.1678e-06	1.1169e-06	494.09	165.51	62.755	19.576	1.1333e-06	66.801	216.526	9.896	-41.704	-82.924	74.150	50.489	-81.975	-79.100	35.325	76.856	-78.220	-74.077	-74.541	-69.929	28.332	-68.486	-8191	255	
40598.223	1	1	0	0	0.086339	0.17814	0.17412	0.26865	0.082286	0.12872	0.36156	0.17252	0.24292	0.2152	0.14707	0.050708	0.1075	0.16582	0.095182	0.26448	-3.6792	-3.2979	-3.2979	-4.0938	-3.1937	-3.6562	-4	-3.4104	-3.9625	-3.5854	-3.5333	-4.0458	-3.325	-3.6479	-3.9625	-3.2896	87.494	53.598	58.485	189.184	26.553	220.574	163.412	-79.236	208.267	171.624	227.334	-76.784	129.142	147.793	200.831	245.046	0.00021365	0.00051546	0.00013241	850.07	4.1104e-06	3.1742e-06	1472.3	247.89	3.9794e-06	5.9064e-06	531.37	173.61	65.555	20.539	5.6101e-06	69.258	0.00013917	0.00010098	2.7887e-05	783.32	1.1204e-06	1.0832e-06	1366.9	230.33	1.2242e-06	1.0977e-06	490.6	162.92	61.371	19.035	1.2644e-06	64.56	231.399	-3.697	7.397	-83.113	50.809	36.631	-82.258	-79.054	71.869	53.818	-78.195	-73.510	-75.035	-69.387	47.749	-69.010	-8191	255	
40598.320	1	1	0	0	0.1238	0.062236	0.12294	0.24628	0.15818	0.21726	0.25955	0.14238	0.11743	0.12468	0.10611	0.14569	0.018624	0.078782	0.11062	0.21804	-3.6396	-3.4625	-3.2938	-4.1292	-2.9792	-3.4729	-4.1083	-3.0938	-3.8479	-3.5	-3.4583	-4.1604	-3.2	-3.4292	-3.8812	-3.1792	33.796	-37.005	0.341	238.087	-94.899	148.583	215.078	70.633	176.590	168.833	159.247	-91.493	32.743	239.826	139.231	250.998	0.0002315	0.00058781	0.00014194	853.84	5.9816e-06	3.4252e-06	1473	249.52	2.9653e-06	3.1204e-06	532.79	175.64	66.609	21.024	4.5883e-06	72.066	0.00015066	0.00011698	3.2934e-05	780.45	1.3058e-06	1.2405e-06	1368.9	230.54	1.2884e-06	1.1936e-06	493.8	165.23	62.58	19.507	1.1455e-06	67.135	225.646	-23.867	-13.769	-83.038	50.310	66.924	-81.795	-79.507	30.331	68.596	-77.835	-73.650	-74.740	-69.356	36.215	-68.837	-8191	255	
40598.414	1	1	0	0	0.17141	0.13759	0.13416	0.22009	0.1255	0.155	0.13823	0.16558	0.20388	0.26341	0.25575	0.15997	0.25866	0.18732	0.11991	0.19434	-3.1979	-3.7021	-3.1396	-4.0604	-3.4271	-3.4854	-3.9604	-3.1729	-3.7167	-3.7083	-3.2375	-4.2646	-3.4125	-3.475	-3.8542	-3.2625	56.760	241.124	202.147	108.061	24.927	-30.403	203.257	-36.959	162.730	-30.789	206.367	218.035	217.171	-94.378	43.685	233.379	0.00020138	0.00056824	7.9513e-05	859.13	3.0055e-06	5.6331e-06	1492.1	255.91	2.8462e-06	4.0062e-06	547.84	181.68	68.646	21.713	2.5505e-06	74.142	0.00014001	0.00010839	3.1635e-05	788.26	1.1897e-06	1.216e-06	1385.8	236.82	1.2318e-06	1.2104e-06	506.31	170.63	64.62	20.174	1.1749e-06	69.239	223.508	6.698	5.073	-82.932	65.209	56.330	-81.713	-79.179	75.867	52.510	-78.225	-73.847	-74.455	-69.458	78.817	-68.674	-8191	255	
40598.512	1	1	0	0	0.098927	0.11155	0.076381	0.1538	0.053752	0.16179	0.20671	0.25745	0.090182	0.1348	0.2656	0.16252	0.14972	0.21274	0.22253	0.30612	-3.3937	-3.65	-3.2042	-4.1083	-3.5083	-3.4313	-4.1146	-3.3979	-3.4667	-3.6875	-3.2979	-4.1208	-3.6396	-3.25	-4.1562	-3.3688	-43.071	159.231	24.496	205.259	73.155	184.920	192.746	127.877	148.026	-13.212	205.115	213.758	211.049	-35.522	56.912	233.440	0.00023184	0.0003448	0.0001499	849.22	4.6589e-06	3.2112e-06	1492.3	255.28	3.6782e-06	5.8687e-06	548.51	180.41	69.311	21.662	6.7196e-06	73.472	0.0001477	0.00011173	2.9896e-05	785.49	1.2017e-06	1.228e-06	1382.6	237.83	1.2499e-06	1.1864e-06	505.66	170	64.826	20.155	1.2401e-06	68.317	224.780	-7.310	-41.961	-83.020	33.650	30.046	-82.112	-79.521	92.162	61.601	-78.234	-73.776	-74.714	-69.885	50.693	-68.672	-8191	255	
40598.633	1	1	0	0	0.2623	0.065032	0.22781	0.34201	0.065316	0.099897	0.16008	0.23384	0.17351	0.15788	0.43574	0.16648	0.075747	0.19529	0.22761	0.14414	-3.0917	-3.9146	-2.9667	-4	-3.4583	-3.3583	-4.2417	-3.3417	-3.5125	-3.8729	-3.3583	-3.8542	-3.6312	-3.2313	-4.125	-3.5146	-86.270	-34.865	133.602	232.789	-92.715	-21.557	216.078	170.645	94.267	237.223	180.798	248.092	206.213	130.719	3.634	-93.771	0.00023598	0.00036919	7.0586e-05	849.76	3.3637e-06	7.1447e-06	1489	255.84	2.4266e-06	3.767e-06	546.3	180.12	68.849	21.439	5.4286e-06	72.524	0.00014484	0.00010457	3.1258e-05	784.17	1.1647e-06	1.1858e-06	1379.9	236.75	1.2767e-06	1.1508e-06	504.04	169.21	64.511	19.897	1.1504e-06	67.746	226.412	-53.703	17.987	-82.971	65.019	30.123	-82.059	-79.467	72.269	68.574	-78.301	-73.773	-75.020	-69.829	60.773	-68.474	-8191	255	
40598.730	1	1	0	0	0.17288	0.13009	0.067937	0.21666	0.25616	0.25047	0.29263	0.14324	0.23316	0.071145	0.25813	0.051454	0.15575	0.21984	0.099	0.24637	-3.0833	-3.9958	-3.1437	-3.8729	-3.7208	-3.1583	-4.2542	-3.3292	-3.2958	-4.0375	-3.3208	-3.7521	-3.9104	-3.1937	-3.8937	-3.7375	-20.333	-28.932	14.576	231.178	46.828	73.230	232.269	-44.909	127.880	4.540	240.246	-86.678	187.756	-85.931	186.113	209.790	0.00020565	0.00053122	0.00010363	845.42	4.5571e-06	5.5278e-06	1485.2	253.98	3.8977e-06	6.6934e-06	544.68	180.86	68.823	21.729	3.6287e-06	74.797	0.00015278	0.00010585	3.0102e-05	780.8	1.171e-06	1.1709e-06	1376.7	236.16	1.2956e-06	1.142e-06	503.87	170.18	64.581	20.171	1.1444e-06	69.558	222.503	-7.628	-35.856	-82.850	60.241	60.430	-82.123	-79.173	79.919	54.819	-78.183	-73.809	-75.032	-70.039	66.646	-68.579	-8191	255	
40598.824	1	1	0	0	0.28279	0.15562	0.19661	0.12236	0.17577	0.10508	0.52074	0.10663	0.087267	0.057124	0.36226	0.17519	0.19795	0.097729	0.19211	0.071536	-2.9521	-3.9021	-3.1271	-3.6146	-3.8917	-3.1688	-3.9771	-3.8563	-3.1792	-4.0646	-3.3937	-3.6688	-4.0312	-3.1063	-3.8333	-3.7396	202.173	108.852	-95.124	204.340	-16.236	173.203	204.761	243.660	197.941	-69.945	199.292	134.787	47.773	223.732	75.802	-50.273	0.00019357	0.00062671	0.00013036	848.85	2.0616e-06	5.2112e-06	1482.9	257.21	3.087e-06	5.7627e-06	549.84	182.88	69.452	22.184	3.7466e-06	75.25	0.00014438	0.00010585	2.9806e-05	777.22	1.1429e-06	1.1803e-06	1375.3	237.83	1.2401e-06	1.135e-06	507.22	172.14	64.838	20.401	1.1519e-06	69.981	224.595	-26.524	22.339	-83.079	64.360	28.315	-82.158	-79.142	26.633	49.852	-78.034	-73.592	-74.625	-69.477	52.338	-68.547	-8191	255	
40598.922	1	1	0	0	0.063593	0.065682	0.10096	0.073847	0.10688	0.093593	0.15177	0.078569	0.01397	0.054706	0.10274	0.16297	0.094636	0.28316	0.077985	0.32635	-2.775	-3.9396	-3.3396	-3.7125	-3.8521	-3.1271	-3.9708	-3.7521	-3.3	-3.875	-3.425	-3.6833	-3.8771	-3.2229	-3.8438	-3.9333	24.285	258.997	-40.080	-40.776	62.627	140.656	157.537	17.156	173.927	30.280	190.542	-79.257	116.224	-33.636	-71.785	196.542	0.00018545	0.00059757	0.0001039	837.58	3.6827e-06	4.0375e-06	1469.4	254.62	4.1903e-06	4.2553e-06	546.2	183.21	69.318	21.822	3.5493e-06	74.922	0.00013944	0.00010146	2.8667e-05	770.91	1.2147e-06	1.0741e-06	1365.3	236.31	1.2098e-06	1.0615e-06	504.74	172.1	64.923	20.256	1.1317e-06	69.552	225.346	0.370	10.172	-83.223	69.119	35.324	-82.191	-79.250	70.254	26.981	-78.285	-73.922	-74.803	-69.850	76.810	-68.747	-8191	255	
40599.016	1	1	0	0	0.23947	0.17593	0.20447	0.066923	0.23352	0.19201	0.094675	0.16415	0.13897	0.20847	0.13431	0.15553	0.26372	0.086376	0.11216	0.13813	-2.7271	-3.775	-3.525	-3.5667	-4.0188	-3.2229	-3.9208	-3.9688	-3.0625	-3.9604	-3.6021	-3.2771	-3.9917	-3.375	-3.5896	-4.0021	136.496	249.221	126.649	-94.777	140.675	6.353	171.633	148.319	105.812	-30.764	-96.940	-86.809	251.228	-74.204	191.258	195.226	0.00023369	0.00065495	0.00011572	834.33	3.5523e-06	2.7791e-06	1472.6	252.75	2.012e-06	5.2369e-06	544.91	182.85	69.529	22.014	5.0593e-06	75.615	0.0001426	0.00010009	2.7675e-05	768.95	1.1672e-06	1.0603e-06	1362.8	235.56	1.1587e-06	1.094e-06	504.62	171.57	65.031	20.505	1.1194e-06	69.772	222.986	-9.007	17.396	-82.818	59.890	58.866	-82.018	-78.977	64.202	38.802	-78.170	-73.692	-74.848	-69.867	51.253	-68.487	-8191	255	
#DATA ENDS
