BOXY.EXE: ISS Imagent and Oximeter Data Acquisition Program Version 0.80
Ascii Record File

#ACQ INFORMATION
2  Detector Channels 
16  External MUX Channels 
1  Auxiliary Channels 
5000  Waveform (CCF) Frequency (Hz)
1  Waveforms Skipped 
30  Waveforms Averaged 
1  Cycles Averaged 
16  Acquisitions per Waveform 
10.0806  Updata Rate (Hz) 

#FILE INFORMATION
TRUE -- External MUX Channel results are PARSED.
FALSE -- AC DC and Phase are NOT grouped.
TRUE -- Companion Program Settings File CREATED.
FALSE -- AC data not excluded
FALSE -- DC data not excluded
FALSE -- Phase data not excluded
FALSE -- Auxillary Chn. data not excluded
Tab delimiters

#CALIBRATION STATE
TRUE -- Waveform Calibration Values APPLIED.


#AUX CALIBRATION VALUES
Val Type	aux-1	

Term	1.0000e+00	
Factor	0.0000e+00	


#WF CALIBRATION VALUES
A = Detector Channel
Val Type	A-AC1	A-AC2	A-AC3	A-AC4	A-AC5	A-AC6	A-AC7	A-AC8	A-AC9	A-AC10	A-AC11	A-AC12	A-AC13	A-AC14	A-AC15	A-AC16	A-DC1	A-DC2	A-DC3	A-DC4	A-DC5	A-DC6	A-DC7	A-DC8	A-DC9	A-DC10	A-DC11	A-DC12	A-DC13	A-DC14	A-DC15	A-DC16	A-Ph1	A-Ph2	A-Ph3	A-Ph4	A-Ph5	A-Ph6	A-Ph7	A-Ph8	A-Ph9	A-Ph10	A-Ph11	A-Ph12	A-Ph13	A-Ph14	A-Ph15	A-Ph16	

Term	0.00000e+00	0.00000e+00	0.00000e+00	0.00000e+00	0.00000e+00	0.00000e+00	0.00000e+00	0.00000e+00	0.00000e+00	0.00000e+00	0.00000e+00	0.00000e+00	0.00000e+00	0.00000e+00	0.00000e+00	0.00000e+00	0.00000e+00	0.00000e+00	0.00000e+00	0.00000e+00	0.00000e+00	0.00000e+00	0.00000e+00	0.00000e+00	0.00000e+00	0.00000e+00	0.00000e+00	0.00000e+00	0.00000e+00	0.00000e+00	0.00000e+00	0.00000e+00	0.00000e+00	0.00000e+00	0.00000e+00	0.00000e+00	0.00000e+00	0.00000e+00	0.00000e+00	0.00000e+00	0.00000e+00	0.00000e+00	0.00000e+00	0.00000e+00	0.00000e+00	0.00000e+00	0.00000e+00	0.00000e+00	
Factor	1.00000e+00	1.00000e+00	1.00000e+00	1.00000e+00	1.00000e+00	1.00000e+00	1.00000e+00	1.00000e+00	1.00000e+00	1.00000e+00	1.00000e+00	1.00000e+00	1.00000e+00	1.00000e+00	1.00000e+00	1.00000e+00	1.00000e+00	1.00000e+00	1.00000e+00	1.00000e+00	1.00000e+00	1.00000e+00	1.00000e+00	1.00000e+00	1.00000e+00	1.00000e+00	1.00000e+00	1.00000e+00	1.00000e+00	1.00000e+00	1.00000e+00	1.00000e+00	X	X	X	X	X	X	X	X	X	X	X	X	X	X	X	X	

B = Detector Channel
Val Type	B-AC1	B-AC2	B-AC3	B-AC4	B-AC5	B-AC6	B-AC7	B-AC8	B-AC9	B-AC10	B-AC11	B-AC12	B-AC13	B-AC14	B-AC15	B-AC16	B-DC1	B-DC2	B-DC3	B-DC4	B-DC5	B-DC6	B-DC7	B-DC8	B-DC9	B-DC10	B-DC11	B-DC12	B-DC13	B-DC14	B-DC15	B-DC16	B-Ph1	B-Ph2	B-Ph3	B-Ph4	B-Ph5	B-Ph6	B-Ph7	B-Ph8	B-Ph9	B-Ph10	B-Ph11	B-Ph12	B-Ph13	B-Ph14	B-Ph15	B-Ph16	

Term	0.00000e+00	0.00000e+00	0.00000e+00	0.00000e+00	0.00000e+00	0.00000e+00	0.00000e+00	0.00000e+00	0.00000e+00	0.00000e+00	0.00000e+00	0.00000e+00	0.00000e+00	0.00000e+00	0.00000e+00	0.00000e+00	0.00000e+00	0.00000e+00	0.00000e+00	0.00000e+00	0.00000e+00	0.00000e+00	0.00000e+00	0.00000e+00	0.00000e+00	0.00000e+00	0.00000e+00	0.00000e+00	0.00000e+00	0.00000e+00	0.00000e+00	0.00000e+00	-9.50993e+01	-1.28701e+02	-1.24987e+02	-1.83761e+02	-6.23572e+01	-7.40854e+01	-1.58106e+02	-1.62015e+02	-5.36995e+01	-7.02651e+01	-1.70714e+02	-1.70913e+02	-1.78902e+02	-1.77049e+02	-6.51981e+01	-1.49824e+02	
Factor	1.64770e-05	1.35927e-04	3.46547e-05	1.51834e-01	1.19814e-06	1.36781e-06	1.67260e-01	5.25101e-02	1.01735e-06	1.28790e-06	8.68415e-02	3.03108e-02	2.82728e-02	9.66055e-03	1.35503e-06	1.35419e-02	3.18107e-06	3.59181e-06	1.00104e-06	7.44679e-02	3.88649e-08	3.97153e-08	7.71580e-02	2.58867e-02	3.91507e-08	3.98793e-08	4.12608e-02	1.45034e-02	1.40702e-02	4.76425e-03	3.96035e-08	6.46411e-03	X	X	X	X	X	X	X	X	X	X	X	X	X	X	X	X	



#DISTANCE SETTINGS
A = Detector Channel
A-1	A-2	A-3	A-4	A-5	A-6	A-7	A-8	A-9	A-10	A-11	A-12	A-13	A-14	A-15	A-16	

2.5000e+00	3.0000e+00	2.5000e+00	3.0000e+00	2.0000e+00	3.0000e+00	1.5000e+00	3.0000e+00	3.0000e+00	3.0000e+00	3.0000e+00	3.0000e+00	3.0000e+00	3.0000e+00	1.5000e+00	3.0000e+00	

B = Detector Channel
B-1	B-2	B-3	B-4	B-5	B-6	B-7	B-8	B-9	B-10	B-11	B-12	B-13	B-14	B-15	B-16	

1.0000e+01	1.0000e+01	1.0000e+01	1.4400e+00	1.0000e+01	1.0000e+01	1.5100e+00	1.9400e+00	1.0000e+01	1.0000e+01	1.9900e+00	2.4900e+00	2.4100e+00	2.9000e+00	1.0000e+01	2.9800e+00	




#DATA BEGINS
time	group	step	mark	flag	A-AC1	A-AC2	A-AC3	A-AC4	A-AC5	A-AC6	A-AC7	A-AC8	A-AC9	A-AC10	A-AC11	A-AC12	A-AC13	A-AC14	A-AC15	A-AC16	A-DC1	A-DC2	A-DC3	A-DC4	A-DC5	A-DC6	A-DC7	A-DC8	A-DC9	A-DC10	A-DC11	A-DC12	A-DC13	A-DC14	A-DC15	A-DC16	A-Ph1	A-Ph2	A-Ph3	A-Ph4	A-Ph5	A-Ph6	A-Ph7	A-Ph8	A-Ph9	A-Ph10	A-Ph11	A-Ph12	A-Ph13	A-Ph14	A-Ph15	A-Ph16	B-AC1	B-AC2	B-AC3	B-AC4	B-AC5	B-AC6	B-AC7	B-AC8	B-AC9	B-AC10	B-AC11	B-AC12	B-AC13	B-AC14	B-AC15	B-AC16	B-DC1	B-DC2	B-DC3	B-DC4	B-DC5	B-DC6	B-DC7	B-DC8	B-DC9	B-DC10	B-DC11	B-DC12	B-DC13	B-DC14	B-DC15	B-DC16	B-Ph1	B-Ph2	B-Ph3	B-Ph4	B-Ph5	B-Ph6	B-Ph7	B-Ph8	B-Ph9	B-Ph10	B-Ph11	B-Ph12	B-Ph13	B-Ph14	B-Ph15	B-Ph16	aux-1	digaux	

40507.098	1	1	0	256	0.1497	0.1379	0.06147	0.20722	0.19846	0.2081	0.23132	0.077095	0.076169	0.25209	0.27159	0.16571	0.14473	0.11819	0.13143	0.033527	-3.7021	-3.2042	-3.5	-3.9271	-3.1458	-3.9604	-3.6896	-3.3063	-3.9396	-3.2875	-3.7167	-4.0229	-3.2562	-3.9188	-3.6667	-3.3208	264.169	468.009	472.083	408.300	399.607	201.049	464.836	443.235	398.423	431.588	443.788	402.177	468.765	233.298	494.939	270.809	0.00053033	0.00020023	4.1209e-05	1075.3	7.2713e-06	7.1067e-06	1417.3	293.7	3.8855e-06	6.8766e-06	481.86	148.09	72.686	18.361	8.982e-06	51.642	0.0010635	0.0011293	0.00030761	1033.8	1.227e-05	1.2508e-05	1361.8	284.24	1.257e-05	1.2557e-05	466.8	144.21	72.228	18.723	1.2493e-05	50.788	232.042	287.493	158.799	157.318	369.215	337.071	157.600	160.558	215.885	338.797	161.194	165.847	164.988	169.903	256.196	170.596	-8191	255	
40507.191	1	1	0	0	0.12536	0.081037	0.26455	0.021785	0.15791	0.048478	0.11427	0.10296	0.22203	0.080907	0.29997	0.15603	0.15754	0.14565	0.1181	0.1586	-3.8042	-3.3375	-3.4646	-4.0021	-3.1437	-3.6833	-3.8042	-3.3979	-3.7708	-3.4979	-3.5479	-4.0771	-3.2521	-3.7875	-3.7333	-3.3563	145.239	333.754	336.537	199.630	377.856	311.769	452.435	465.316	211.492	364.035	420.697	465.623	471.991	463.067	172.765	410.393	0.00049777	0.00079595	0.00013406	1077.8	1.8078e-06	2.0363e-06	1421.7	293.88	7.7473e-06	2.4567e-06	482.35	149.3	72.772	18.43	1.2502e-05	51.792	0.0010658	0.0011321	0.00031467	1034.9	1.2497e-05	1.265e-05	1361.9	284.21	1.2365e-05	1.2613e-05	466.22	145.09	72.496	18.827	1.276e-05	50.97	227.429	204.916	318.843	157.358	282.084	443.619	157.675	160.803	306.688	393.202	161.358	165.902	165.495	169.987	292.811	170.450	-8191	255	
40507.289	1	1	0	0	0.18972	0.5193	0.30124	0.12733	0.4467	0.12596	0.07914	0.38233	0.2145	0.062065	0.23966	0.18052	0.1269	0.21678	0.11598	0.16952	-3.7458	-3.4083	-3.4604	-4.1917	-3.1437	-3.6958	-3.9771	-3.3979	-4.0042	-3.7833	-3.5771	-4.0729	-3.2417	-3.4708	-3.8292	-3.2646	298.864	401.471	362.071	412.476	266.769	359.044	386.646	471.052	284.277	285.681	468.312	411.221	336.569	328.305	299.723	152.102	0.00049467	0.00061057	0.00024168	1075.5	5.7405e-06	9.5888e-06	1417.5	295.27	3.8016e-06	6.3804e-06	484.32	148.82	72.555	18.275	4.3849e-06	51.232	0.0011024	0.0011708	0.00032489	1035.5	1.2591e-05	1.2824e-05	1360.1	284.1	1.2708e-05	1.2805e-05	466.95	144.53	72.271	18.756	1.2912e-05	50.742	216.678	225.841	195.806	157.240	259.600	313.030	157.666	160.825	280.656	267.718	161.177	165.970	164.708	169.822	477.567	170.581	-8191	255	
40507.383	1	1	0	0	0.09873	0.12545	0.10619	0.089408	0.1822	0.21895	0.37685	0.2091	0.12394	0.049278	0.16349	0.2271	0.017534	0.27369	0.17809	0.22568	-3.6146	-3.4833	-3.2229	-4.05	-3.4208	-3.6229	-4.1875	-3.2854	-3.75	-3.4979	-3.4313	-4.0646	-3.275	-3.5021	-3.9667	-3.2604	266.767	289.119	345.465	481.986	409.249	225.316	479.642	457.041	435.763	146.596	495.557	476.899	258.904	428.876	149.343	197.107	0.00050092	0.0016751	7.165e-05	1080.9	7.1563e-06	5.5613e-06	1414.5	293.69	8.2475e-06	7.2744e-06	482.49	147.72	72.432	18.353	1.0683e-05	51.218	0.001098	0.0011722	0.00032882	1038.2	1.2656e-05	1.2783e-05	1360.7	284.33	1.2552e-05	1.2713e-05	467.5	144.44	72.374	18.762	1.2877e-05	50.567	221.451	220.172	243.361	157.258	282.970	339.673	157.553	160.962	286.598	198.645	161.311	165.495	165.267	169.691	332.901	170.379	-8191	255	
40507.504	1	1	0	0	0.28599	0.060096	0.12853	0.30088	0.16337	0.20106	0.31295	0.054473	0.10349	0.18957	0.12264	0.16371	0.1966	0.16688	0.062905	0.049314	-3.4854	-3.6792	-3.1792	-4.2583	-3.4625	-3.4188	-4.2396	-3.4208	-3.7125	-3.7687	-3.2646	-4.0083	-3.5438	-3.5687	-4.0354	-3.4708	279.529	465.964	299.958	455.870	222.254	316.487	425.520	340.481	425.555	262.923	428.047	381.874	500.438	169.533	372.242	208.794	0.00045042	0.00094061	0.00018361	1083.2	4.8179e-06	3.4242e-06	1430.5	297.16	4.5545e-06	3.1308e-06	483.94	147.52	73.137	18.369	8.2637e-06	51.558	0.001101	0.0011638	0.00032418	1045.9	1.259e-05	1.3078e-05	1372.9	287.23	1.279e-05	1.2963e-05	468.13	144.62	72.956	18.917	1.2925e-05	50.861	223.558	300.584	317.995	157.300	314.617	315.449	157.550	160.564	264.520	470.310	161.207	165.803	164.668	170.084	292.344	170.639	-8191	255	
40507.602	1	1	0	0	0.010799	0.13015	0.21469	0.011753	0.17844	0.13638	0.32187	0.25181	0.18302	0.16201	0.14474	0.20101	0.19268	0.22852	0.24492	0.13841	-3.3896	-3.7208	-2.9854	-3.9979	-3.4979	-3.2938	-4.2417	-3.5333	-3.6271	-4.0604	-3.4854	-4.1146	-3.7396	-3.3896	-4.0312	-3.3937	247.885	333.313	172.234	445.925	403.591	346.820	487.500	467.945	424.228	465.983	436.816	428.396	292.602	277.719	148.526	289.970	0.00047773	0.00016004	0.00014046	1084.2	1.0764e-05	1.1649e-05	1415.4	293.98	6.6789e-06	1.1784e-05	482.83	148.29	72.415	18.328	7.8174e-06	51.362	0.0010934	0.0011999	0.00032793	1040.6	1.2617e-05	1.3104e-05	1364.1	284.81	1.2814e-05	1.3188e-05	466.81	144.05	72.504	18.842	1.3177e-05	50.637	232.826	226.245	322.662	157.159	302.696	231.745	157.255	160.893	263.046	259.714	161.137	165.739	164.619	169.814	230.829	170.735	-8191	255	
40507.695	1	1	0	0	0.29325	0.15503	0.089651	0.18478	0.11099	0.10434	0.34395	0.34967	0.26427	0.050992	0.1204	0.10256	0.12445	0.1508	0.16915	0.22851	-3.2896	-3.75	-3.2146	-3.9875	-3.6604	-3.2833	-4.1813	-3.5521	-3.4792	-4.0083	-3.3479	-3.8083	-3.95	-3.475	-3.9521	-3.5583	434.172	176.827	413.863	492.459	175.969	451.470	432.624	150.485	269.667	353.952	493.150	471.333	153.764	425.892	166.601	389.248	0.00044955	0.00049307	0.0002658	1084.4	6.4795e-06	1.0462e-05	1425.1	297.08	5.8505e-06	6.8395e-06	480.84	146.82	72.445	18.248	4.2215e-06	50.513	0.0010915	0.0011705	0.00032691	1042.7	1.2753e-05	1.2765e-05	1367.3	287.09	1.2906e-05	1.3307e-05	466.87	143.68	72.569	18.754	1.3159e-05	50.007	220.080	159.823	262.707	157.192	286.089	330.548	157.655	161.126	206.595	325.574	160.958	165.801	165.297	169.505	167.788	170.610	-8191	255	
40507.793	1	1	0	0	0.25637	0.012093	0.14599	0.30987	0.092094	0.23532	0.37535	0.1415	0.071091	0.054234	0.084316	0.17292	0.10194	0.096743	0.14196	0.23721	-2.9708	-3.9229	-3.1542	-3.9062	-3.8208	-3.175	-4.2229	-3.5521	-3.5125	-3.9583	-3.3896	-3.7125	-3.7646	-3.2271	-3.825	-3.7333	173.172	202.728	313.125	464.089	356.215	316.533	418.066	438.397	356.986	458.996	445.626	472.415	234.501	275.393	228.770	380.214	0.0004599	0.00072898	1.3341e-05	1087.5	9.5472e-06	4.4434e-06	1426.3	296.59	4.3445e-06	5.2128e-06	482.04	147.18	72.681	18.432	4.8984e-06	51.339	0.0011073	0.001187	0.00032975	1047.4	1.2829e-05	1.3089e-05	1368.6	287.27	1.3069e-05	1.3039e-05	468.93	143.73	72.985	18.829	1.2909e-05	50.503	231.673	276.125	410.463	157.301	269.956	402.287	157.560	161.203	282.169	399.462	161.011	165.885	164.909	169.756	176.880	170.704	-8191	255	
40507.891	1	1	0	0	0.15469	0.31287	0.10601	0.071044	0.1564	0.25133	0.30449	0.12725	0.067551	0.16522	0.12924	0.24553	0.302	0.14698	0.24782	0.1346	-2.9208	-4.0729	-3.1542	-3.6792	-3.8187	-3.1937	-3.875	-3.6854	-3.2313	-4.0563	-3.4771	-3.5229	-3.9104	-3.1792	-3.9583	-3.6604	284.685	444.651	240.271	468.526	461.376	422.468	152.514	291.885	171.014	414.437	429.223	494.171	427.712	461.492	414.927	180.746	0.00055445	0.00031887	6.6166e-05	1085.6	1.4117e-05	5.2479e-06	1435.1	296.66	7.2242e-06	9.5932e-06	483.82	149.71	73.958	18.892	8.5954e-06	52.181	0.0010875	0.0011689	0.0003232	1049.1	1.2735e-05	1.2955e-05	1376.3	288.87	1.281e-05	1.2807e-05	470.95	145.92	73.58	19.153	1.2691e-05	51.548	234.067	152.417	371.535	156.907	337.390	326.522	157.516	161.266	314.933	289.293	160.938	165.861	165.281	169.832	308.609	170.838	-8191	255	
40507.984	1	1	0	0	0.13848	0.1306	0.30779	0.083078	0.15703	0.1718	0.23626	0.30006	0.12091	0.036032	0.20808	0.1161	0.28546	0.28951	0.16188	0.23499	-2.9479	-3.9833	-3.4188	-3.5208	-3.8917	-3.1042	-4.0271	-3.9688	-3.2542	-3.9521	-3.5417	-3.4833	-3.9813	-3.3271	-3.6646	-3.7708	486.539	280.841	355.285	148.117	215.096	273.047	401.294	448.012	210.495	204.512	460.781	501.524	449.925	172.173	208.603	222.024	0.00049483	0.0005405	8.3603e-05	1081.1	3.1985e-06	5.1283e-06	1422.9	297.34	6.4544e-06	2.9224e-06	488.31	151.64	74.912	19.274	1.0304e-05	53.447	0.0010846	0.0011624	0.00031918	1039.9	1.2614e-05	1.2614e-05	1365.2	287.46	1.2258e-05	1.2248e-05	472.99	147.66	74.168	19.509	1.2151e-05	52.493	235.491	229.092	277.486	157.288	411.311	206.354	157.519	161.097	292.473	359.481	160.872	165.633	165.221	169.650	291.607	170.430	-8191	255	
40508.105	1	1	0	0	0.095497	0.31374	0.12292	0.19935	0.26726	0.25492	0.14696	0.1607	0.21785	0.12286	0.20807	0.15712	0.16085	0.16287	0.086105	0.069628	-2.8083	-4.0312	-3.3396	-3.5042	-3.9417	-3.175	-3.7604	-4.0083	-3.2083	-3.8021	-3.6771	-3.3854	-4.1146	-3.1167	-3.5729	-4	167.126	502.685	266.555	494.162	187.497	343.447	438.004	432.901	377.180	208.894	499.381	315.935	160.425	371.956	189.667	411.966	0.00061766	0.0012696	0.00015736	1083.2	7.0606e-06	9.1023e-06	1426.7	298.21	6.0559e-06	1.1076e-06	493.44	152.7	75.495	19.186	4.6797e-06	52.948	0.0010364	0.0011003	0.00030449	1042.5	1.1866e-05	1.1921e-05	1367.3	289.32	1.1733e-05	1.2052e-05	473.78	148.07	74.708	19.494	1.1914e-05	52.322	223.033	275.914	229.244	157.097	223.615	293.342	157.428	160.820	241.644	254.286	161.307	165.817	165.045	169.880	295.929	170.401	-8191	255	
40508.199	1	1	0	0	0.19483	0.096329	0.35757	0.22691	0.071118	0.18584	0.32918	0.081843	0.22282	0.23199	0.29756	0.21529	0.10153	0.18914	0.12139	0.10701	-2.675	-3.9125	-3.6208	-3.2896	-3.9271	-3.3208	-3.4562	-4.1375	-3.0708	-3.8875	-3.7958	-3.3979	-4.05	-3.3375	-3.3833	-3.9104	286.572	143.258	354.871	288.027	302.574	152.548	388.372	279.953	252.791	312.613	502.099	441.304	486.451	457.547	370.386	201.336	0.00051699	0.00058471	0.00010151	1091.4	3.6648e-06	6.7667e-06	1431.9	304.09	5.8412e-06	1.1699e-05	493.62	151.47	75.488	19.233	3.9166e-06	53.286	0.0010331	0.0010713	0.00030377	1052.3	1.1673e-05	1.181e-05	1372	292.48	1.1808e-05	1.1993e-05	476	147.66	74.803	19.548	1.193e-05	52.148	223.624	195.046	195.567	157.185	221.310	296.723	157.335	161.092	269.346	338.916	161.068	165.921	164.622	170.073	272.966	170.206	-8191	255	
40508.297	1	1	0	0	0.2071	0.26853	0.075254	0.3362	0.17421	0.1887	0.29774	0.18426	0.1764	0.062155	0.11475	0.13517	0.10348	0.098768	0.020121	0.084998	-2.8563	-3.7687	-3.5312	-3.2854	-3.7958	-3.5896	-3.5125	-4.1333	-3.2167	-3.6375	-3.8208	-3.2792	-3.9417	-3.425	-3.3125	-4.0021	209.437	277.797	363.443	437.945	368.585	147.482	412.235	400.021	310.863	406.716	449.406	449.997	199.158	492.544	470.271	487.412	0.00050957	0.00086496	0.00017562	1106.9	2.8275e-06	4.1125e-06	1442.9	306.65	3.3596e-06	3.3574e-06	493.27	153.28	75.73	19.334	2.8706e-06	52.87	0.0010131	0.0010694	0.00030281	1065.1	1.1862e-05	1.1825e-05	1384.6	294.85	1.1905e-05	1.2101e-05	477.19	148.39	75.169	19.52	1.1957e-05	52.162	224.239	301.687	237.260	157.221	332.056	296.804	157.229	160.840	240.987	286.057	161.440	165.570	165.009	170.348	393.296	170.383	-8191	255	
40508.395	1	1	0	0	0.27301	0.13148	0.10341	0.18507	0.086571	0.25044	0.11925	0.17631	0.32765	0.080729	0.14416	0.077935	0.18053	0.1295	0.14584	0.17796	-2.9875	-3.5396	-3.7021	-3.3854	-3.9021	-3.5271	-3.3917	-4.0271	-3.275	-3.4646	-4.0333	-3.2167	-4.0604	-3.6396	-3.2583	-4.175	488.703	485.609	355.846	484.438	159.458	494.824	327.975	417.315	283.100	164.430	461.621	254.640	187.774	195.931	290.055	459.632	0.00054364	0.00082362	0.00039496	1111.5	2.2944e-06	5.2326e-06	1439.1	306.3	1.2291e-06	5.1188e-06	493.21	152.25	75.814	19.5	7.738e-06	53.363	0.0010132	0.0010694	0.00029612	1066.7	1.158e-05	1.1785e-05	1381.4	295.09	1.1615e-05	1.2001e-05	476.72	148.45	75.396	19.702	1.1908e-05	52.628	219.839	252.719	249.606	157.190	384.436	157.059	157.462	161.227	350.863	371.722	160.972	165.752	165.435	169.649	292.838	170.501	-8191	255	
40508.488	1	1	0	0	0.17513	0.16181	0.16728	0.1737	0.13901	0.18409	0.3202	0.14614	0.18309	0.17257	0.32633	0.40045	0.13207	0.21844	0.049588	0.14028	-2.9479	-3.4667	-3.8042	-3.5542	-3.6521	-3.5896	-3.4208	-4.1479	-3.4437	-3.4396	-4.0604	-3.1333	-3.6292	-3.6792	-3.1625	-3.9979	466.272	326.935	358.141	146.163	163.215	283.133	468.330	458.176	474.533	160.301	432.554	461.577	238.208	453.301	467.302	414.100	0.00048307	0.0007133	0.00012282	1096.2	8.9021e-06	4.3336e-06	1433.3	302.14	8.9357e-06	7.9822e-06	492.18	152.96	75.209	19.42	4.3413e-06	54.06	0.0010049	0.0010659	0.00029988	1053.3	1.1362e-05	1.1777e-05	1371.6	291	1.1763e-05	1.1704e-05	474.24	148.36	74.527	19.63	1.1852e-05	52.882	215.665	252.423	455.288	157.089	273.055	207.427	157.523	161.023	331.047	286.742	161.411	165.411	164.872	170.078	242.755	170.675	-8191	255	
40508.586	1	1	0	0	0.1866	0.25466	0.23996	0.091632	0.27133	0.2933	0.26073	0.20621	0.23116	0.20126	0.12568	0.15609	0.14373	0.10345	0.063118	0.18182	-2.9896	-3.3708	-4.1667	-3.3479	-3.6354	-3.7292	-3.4083	-4.0146	-3.3396	-3.4958	-4.1479	-3.275	-3.7188	-3.8167	-3.2104	-3.9479	344.299	236.412	274.438	336.818	253.664	155.262	172.300	452.572	170.251	383.777	317.118	388.249	486.079	429.258	397.317	394.257	0.00053178	0.00071572	9.4496e-05	1090.9	3.2353e-06	2.7537e-06	1427.7	299.02	1.164e-06	6.5324e-06	488.58	151.23	75.09	19.013	2.7779e-06	53.068	0.0010084	0.0010889	0.00030242	1046.6	1.1788e-05	1.2076e-05	1366.4	288.83	1.1884e-05	1.1974e-05	472.06	147.2	74.182	19.306	1.1903e-05	51.99	225.024	217.753	185.884	157.139	326.873	242.896	157.081	160.778	167.654	325.711	161.080	166.067	164.792	170.161	328.000	170.629	-8191	255	
40508.680	1	1	0	0	0.27965	0.26042	0.15621	0.18003	0.25755	0.29582	0.25125	0.25048	0.10172	0.36524	0.25327	0.29976	0.12245	0.19757	0.28475	0.17203	-3.2458	-3.4167	-3.6917	-3.5708	-3.3479	-3.8708	-3.2417	-3.8354	-3.675	-3.1542	-4.0896	-3.4896	-3.425	-3.8917	-2.9979	-3.9437	478.472	405.010	366.937	471.080	235.400	280.499	489.625	406.854	196.708	143.443	473.538	420.798	329.159	454.593	307.209	144.367	0.00054466	0.00028251	0.00015384	1101.9	4.768e-06	8.7324e-06	1432.4	301.94	6.2581e-06	6.6718e-06	491.54	151.11	75.273	18.963	4.3094e-06	52.755	0.0010111	0.0010788	0.00029958	1055.6	1.1802e-05	1.1845e-05	1374.2	292.02	1.176e-05	1.2051e-05	474.64	146.97	74.721	19.409	1.193e-05	51.666	223.662	221.477	239.213	157.123	290.184	214.632	157.483	160.903	234.522	328.106	161.074	166.036	164.743	170.006	257.973	170.655	-8191	255	
40508.777	1	1	0	0	0.10388	0.11129	0.1075	0.18335	0.23947	0.12097	0.19985	0.037996	0.34635	0.19842	0.095017	0.11807	0.17744	0.12804	0.071059	0.19509	-3.2438	-3.2521	-3.9625	-3.5021	-3.2708	-3.7917	-3.35	-3.7646	-3.6063	-3.1667	-4.0437	-3.4896	-3.3604	-3.9354	-3.2708	-3.7875	301.217	193.604	252.599	431.462	378.093	293.714	426.900	324.802	151.732	267.130	481.486	155.837	208.495	416.931	451.814	292.380	0.00048142	0.00098079	0.00017369	1103.1	1.0449e-05	3.1445e-06	1429.7	303.47	4.7139e-06	2.7897e-06	488.54	150.24	75.088	19.214	6.4967e-06	52.568	0.0010236	0.0010853	0.00030101	1057.4	1.1764e-05	1.1904e-05	1371.4	292.34	1.1978e-05	1.2189e-05	471.94	146.49	74.66	19.446	1.1735e-05	51.651	227.289	238.208	145.599	157.118	327.235	319.443	157.455	161.059	295.742	201.683	161.346	165.795	164.981	170.229	272.568	170.440	-8191	255	
40508.898	1	1	0	0	0.12747	0.036936	0.17337	0.16118	0.063636	0.046174	0.3187	0.24008	0.033552	0.24249	0.12235	0.2689	0.32629	0.067532	0.20098	0.30912	-3.4667	-3.0187	-3.7833	-3.525	-3.3625	-3.9896	-3.3917	-3.7375	-3.8688	-3.3083	-4.1771	-3.5729	-3.2917	-4.1625	-3.2458	-3.4396	249.430	374.490	300.010	449.880	428.602	400.635	451.175	470.806	328.312	239.071	467.501	159.293	479.836	190.180	221.511	450.702	0.00051338	0.00086547	0.00023116	1102.1	4.9636e-06	3.4087e-06	1422.5	300.48	3.8258e-06	6.0249e-06	490.56	150.52	74.884	19.201	5.4434e-06	52.625	0.0010317	0.0010876	0.00030305	1053.8	1.1837e-05	1.1972e-05	1368.1	291.46	1.182e-05	1.2021e-05	472.55	146.2	74.473	19.4	1.1686e-05	51.643	223.753	211.328	225.062	157.221	297.833	357.915	157.348	160.767	279.798	281.879	161.217	165.946	164.212	170.215	289.068	170.311	-8191	255	
40508.992	1	1	0	0	0.19066	0.23803	0.18532	0.21675	0.12747	0.17437	0.050191	0.29111	0.10919	0.034555	0.084923	0.30095	0.3195	0.14296	0.15809	0.23846	-3.6146	-3.2062	-3.7729	-3.8021	-3.2146	-3.9417	-3.6104	-3.6208	-3.8875	-3.4917	-4.0146	-3.8542	-3.2188	-4.0896	-3.4104	-3.6042	460.776	281.402	335.231	486.765	389.888	309.826	381.153	455.926	221.580	335.988	418.051	163.907	372.444	484.410	486.139	437.871	0.00046245	0.00029187	4.6437e-05	1108.8	4.0319e-06	7.5716e-06	1433.6	304.39	1.0499e-05	8.0945e-06	492.44	150.66	75.755	19.349	7.1924e-06	52.884	0.00099733	0.0010555	0.0002951	1060.2	1.1428e-05	1.175e-05	1374.5	293.66	1.1735e-05	1.1931e-05	474.58	146.6	75.06	19.561	1.182e-05	51.973	227.573	245.415	158.557	157.276	254.320	298.112	157.204	160.967	305.185	309.679	161.347	165.639	164.921	169.518	257.716	170.464	-8191	255	
40509.066	1	1	0	0	0.26257	0.047351	0.025971	0.19418	0.25806	0.23699	0.31898	0.10884	0.14056	0.066073	0.28728	0.23706	0.09115	0.1107	0.063969	0.12763	-3.5542	-3.2646	-3.9813	-3.8958	-3.3354	-4.0292	-3.525	-3.65	-3.9333	-3.1854	-3.8917	-3.8833	-3.1917	-4.0625	-3.5104	-3.6646	289.144	441.562	265.024	422.111	243.256	432.352	425.894	440.229	447.561	290.906	444.162	152.718	308.321	260.768	300.371	318.789	0.000384	0.00026395	0.00012421	1094.9	1.132e-05	6.335e-06	1424.8	299.63	6.4385e-06	7.2823e-07	488.59	150.97	74.538	19.076	5.0467e-06	52.638	0.0010319	0.0010872	0.00030378	1054.1	1.201e-05	1.2207e-05	1366.4	290.11	1.2252e-05	1.2301e-05	470.31	146.98	74.05	19.428	1.2315e-05	51.818	233.906	256.623	234.578	156.991	307.294	327.332	157.532	160.842	273.255	413.974	161.167	165.922	164.679	170.653	283.664	170.883	-8191	255	
40509.188	1	1	0	0	0.078631	0.17192	0.36911	0.36109	0.21757	0.13228	0.1787	0.26335	0.15462	0.14784	0.45419	0.16265	0.26437	0.068429	0.38621	0.23901	-3.7354	-3.2938	-3.4979	-4.1208	-3.1667	-4.0042	-3.9146	-3.2896	-3.9458	-3.3083	-3.7167	-4.0563	-3.1	-3.8792	-3.5396	-3.4021	339.526	155.787	227.152	417.137	253.824	416.382	486.682	450.410	444.937	419.809	367.954	223.425	163.575	349.865	223.795	396.957	0.00051935	0.00090794	0.00018655	1069.7	4.9448e-06	6.8745e-06	1404.7	295.58	3.3744e-06	7.4273e-06	479.49	149.74	73.752	18.873	2.3938e-06	52.426	0.0010643	0.0011404	0.00031765	1031.9	1.2438e-05	1.2623e-05	1350.4	285.78	1.2642e-05	1.2489e-05	464.98	145.65	73.18	19.216	1.2587e-05	51.407	228.165	198.443	239.795	157.280	330.162	318.434	157.573	160.882	330.264	215.555	161.141	165.890	165.048	169.860	253.411	170.356	-8191	255	
40509.281	1	1	0	0	0.2905	0.11124	0.18692	0.19591	0.067963	0.21941	0.14807	0.36957	0.13247	0.1787	0.28084	0.13331	0.075079	0.19298	0.19759	0.13132	-3.6792	-3.2708	-3.3875	-4.1375	-3.1688	-3.7667	-4.0271	-3.3667	-4.0479	-3.2521	-3.6312	-4.1708	-3.2917	-3.7667	-3.7625	-3.3417	403.514	218.898	279.168	488.170	238.921	193.296	449.190	478.243	388.621	334.850	211.585	475.287	387.261	296.842	359.874	387.759	0.00060251	0.0010393	0.00019564	1071.5	5.8826e-06	1.0976e-06	1406.8	293.86	5.8216e-06	1.2632e-05	483.36	147.42	73.57	18.91	4.3663e-06	52.199	0.0010594	0.0011236	0.00031427	1026.9	1.2263e-05	1.2321e-05	1348.3	285.13	1.2227e-05	1.2558e-05	466.74	144.49	73.18	19.148	1.233e-05	51.198	228.461	212.416	317.159	157.261	283.234	442.325	157.885	160.918	289.133	292.016	161.167	165.649	164.873	169.836	215.003	170.384	-8191	255	
40509.379	1	1	0	0	0.17162	0.082653	0.18902	0.31548	0.12761	0.19494	0.23113	0.35909	0.1747	0.16458	0.1829	0.19264	0.26894	0.11559	0.1315	0.23549	-3.7333	-3.2375	-3.2042	-4.0771	-3.2729	-3.775	-3.9979	-3.0833	-3.9813	-3.4896	-3.4104	-4.1458	-3.3479	-3.575	-3.95	-3.2729	170.983	353.175	479.064	485.888	249.928	184.617	341.670	384.031	275.155	144.746	501.838	465.218	401.906	450.910	282.518	398.583	0.00046419	0.00021283	4.9051e-05	1076.7	3.1468e-06	2.6309e-06	1406.4	295.7	2.8025e-06	4.1537e-06	483.38	149	73.622	18.907	1.0172e-06	51.967	0.0010545	0.0011153	0.00030772	1033.2	1.2173e-05	1.232e-05	1349	285.9	1.2347e-05	1.2506e-05	466.27	145.11	73.33	19.227	1.2489e-05	51.184	220.048	248.953	354.156	156.905	275.331	486.330	157.755	161.105	265.376	263.105	161.312	165.707	165.337	170.641	208.147	170.405	-8191	255	
40509.496	1	1	0	0	0.2004	0.24993	0.028312	0.19312	0.16647	0.10419	0.14599	0.11289	0.071374	0.2348	0.37982	0.11673	0.28018	0.054592	0.078259	0.27083	-3.5875	-3.5396	-3.3063	-4.3104	-3.1	-3.3625	-4.0229	-3.2083	-3.7812	-3.5396	-3.3104	-4.2479	-3.325	-3.4396	-3.9458	-3.1792	338.685	344.657	490.357	436.089	349.504	421.835	473.609	167.116	444.841	430.511	396.166	501.242	367.971	501.770	261.749	453.686	0.00046136	0.00020382	0.00014758	1074.6	1.7809e-06	2.7422e-06	1404.5	295.08	6.0985e-06	3.7888e-06	482.68	148.44	74.134	18.73	5.5598e-06	51.652	0.0010621	0.0011336	0.00031893	1031.9	1.2295e-05	1.2469e-05	1349	286.37	1.2307e-05	1.2492e-05	467.31	144.97	73.474	19.169	1.2505e-05	51.134	221.680	231.292	208.372	157.276	398.223	272.017	157.622	160.942	344.370	268.417	160.825	165.749	165.375	169.950	419.667	170.853	-8191	255	
40509.594	1	1	0	0	0.25254	0.10653	0.21367	0.13609	0.015615	0.27392	0.04375	0.21851	0.11584	0.13903	0.037583	0.21478	0.25155	0.19832	0.21128	0.26986	-3.4958	-3.6292	-3.2104	-4.3833	-3.275	-3.3604	-4.2083	-3.2875	-3.7104	-3.9167	-3.4271	-4.0583	-3.4	-3.4042	-4	-3.3042	295.840	152.214	237.139	181.359	459.767	364.601	427.193	395.220	308.235	396.210	365.089	381.056	460.931	369.837	199.073	381.712	0.00045183	0.0004162	0.00019741	1082.2	4.6157e-06	7.4767e-06	1410	297.06	1.7924e-06	7.4581e-06	484.7	149.35	74.332	18.917	1.9456e-06	51.932	0.0010641	0.0011419	0.00031281	1041.7	1.2364e-05	1.2595e-05	1354.2	288.07	1.2359e-05	1.2553e-05	467.64	145.16	74.12	19.285	1.2456e-05	51.232	220.204	174.823	256.642	157.295	277.835	335.346	157.401	160.877	159.017	266.758	160.871	165.635	164.983	170.044	205.398	170.518	-8191	255	
40509.664	1	1	0	0	0.077013	0.085748	0.24681	0.24178	0.14322	0.20901	0.17418	0.23939	0.27827	0.31082	0.078113	0.25634	0.12706	0.04129	0.010941	0.037428	-3.2875	-3.8458	-3.1583	-4.2167	-3.4583	-3.2521	-4.225	-3.4167	-3.7542	-3.7521	-3.275	-4.0583	-3.7167	-3.3021	-3.925	-3.2667	289.524	222.490	460.302	474.109	155.758	498.750	419.118	487.575	388.871	440.419	167.021	456.798	386.604	201.285	399.684	447.298	0.00053705	0.00050627	0.00011342	1095.6	4.9536e-06	3.7535e-06	1419.4	301.98	3.7946e-06	1.0553e-05	485.92	150.67	75.949	19.329	7.132e-06	53.146	0.0010786	0.0011354	0.00031185	1052.1	1.2115e-05	1.239e-05	1362.8	292.12	1.2421e-05	1.2547e-05	470.43	146.69	75.236	19.685	1.2451e-05	52.261	230.877	162.424	182.528	157.436	293.878	348.868	157.652	160.955	351.576	268.970	161.144	165.802	165.115	170.395	302.961	170.598	-8191	255	
40509.785	1	1	0	0	0.17988	0.093843	0.42152	0.16917	0.080198	0.18979	0.29183	0.36466	0.22343	0.11947	0.2487	0.10221	0.11786	0.13739	0.18074	0.11344	-3.1729	-4.0333	-3.2229	-4.0938	-3.6417	-3.2917	-4.1792	-3.4021	-3.4792	-3.825	-3.3583	-4	-3.5646	-3.2021	-3.9417	-3.575	385.251	371.694	177.912	489.201	202.260	343.673	427.160	456.688	344.068	377.757	412.659	456.531	392.675	453.250	489.442	376.035	0.00048828	0.00047128	3.7657e-05	1092.1	5.6604e-06	1.1e-05	1428.2	302.08	3.2858e-06	7.3557e-06	492.85	153.37	76.981	19.917	3.3557e-06	54.327	0.0010547	0.0011178	0.00030312	1050.6	1.2036e-05	1.226e-05	1370.6	292.83	1.2054e-05	1.2225e-05	475.68	149.53	76.454	20.049	1.2262e-05	53.186	227.212	181.385	237.397	157.335	290.432	227.802	157.637	161.187	261.572	260.723	161.458	165.731	165.076	169.557	171.084	170.384	-8191	255	
40509.883	1	1	0	0	0.15369	0.14449	0.18107	0.16122	0.39865	0.17055	0.28074	0.20741	0.13819	0.21635	0.38124	0.20215	0.19894	0.16541	0.25856	0.053953	-3.1271	-3.9979	-3.15	-3.7667	-3.7292	-3.2375	-4.1729	-3.6208	-3.4062	-4.0208	-3.2562	-3.7458	-3.8896	-3.3104	-3.8771	-3.6333	481.024	261.657	209.437	476.747	320.506	297.265	436.368	162.767	247.662	317.527	433.756	207.632	390.504	470.439	279.255	396.028	0.00046602	0.00053956	8.242e-05	1093.1	7.9106e-06	6.3078e-06	1427.3	304.86	5.2615e-06	1.7208e-06	493.23	153.73	76.324	19.72	4.0791e-06	53.716	0.0010461	0.0011068	0.00030959	1050.2	1.1921e-05	1.2335e-05	1370.4	294.18	1.1974e-05	1.2067e-05	476.83	149.4	76.238	19.986	1.1897e-05	52.9	216.355	224.526	247.528	157.258	296.811	307.039	157.524	160.488	305.757	243.958	161.062	165.855	165.025	170.206	263.740	170.503	-8191	255	
40509.977	1	1	0	0	0.074241	0.14446	0.16644	0.28252	0.089327	0.3083	0.11636	0.18076	0.036362	0.17259	0.30046	0.24585	0.13787	0.16791	0.11594	0.17361	-3.0729	-4.1458	-3.3479	-3.7021	-3.8417	-3.1708	-3.8667	-3.7042	-3.15	-4.1229	-3.5229	-3.6604	-3.925	-3.2958	-3.7687	-3.8021	194.452	352.738	227.793	495.279	246.500	474.455	490.301	432.235	409.092	456.208	468.732	442.782	254.812	149.146	227.542	458.111	0.00054567	0.00056391	0.00015617	1113.7	6.0335e-06	1.1639e-05	1443.3	310.84	4.1923e-06	1.0903e-05	498.94	154	77.808	19.725	7.1734e-06	53.17	0.0010343	0.0010796	0.00029955	1069.6	1.1733e-05	1.1639e-05	1385.2	299.75	1.1657e-05	1.174e-05	480.08	149.34	77.325	20.005	1.1735e-05	52.315	222.830	211.347	305.039	157.085	350.728	230.951	157.363	160.958	432.473	257.291	161.076	165.785	164.834	169.644	291.552	170.657	-8191	255	
40510.074	1	1	0	0	0.18646	0.10936	0.053448	0.20553	0.0018016	0.12509	0.39149	0.12853	0.054513	0.16105	0.095736	0.125	0.070517	0.21768	0.19164	0.14466	-2.9979	-4.0125	-3.3979	-3.5375	-3.9875	-3.3667	-3.9479	-3.7188	-3.2771	-4.0375	-3.6104	-3.4875	-3.95	-3.2875	-3.7812	-3.8583	458.483	490.447	498.747	489.670	180.000	353.597	464.583	443.295	250.144	172.718	375.456	407.725	499.251	477.925	344.378	479.764	0.00052707	0.00031533	2.4205e-05	1134.2	1.0563e-05	7.017e-06	1457.8	314.05	4.7967e-06	2.4687e-06	500.07	154	78.577	20.06	9.3101e-06	53.632	0.00097276	0.0010395	0.00029426	1089.2	1.1251e-05	1.1486e-05	1394.8	303.12	1.1715e-05	1.167e-05	480.78	149.45	77.659	20.159	1.1736e-05	52.58	226.855	280.573	212.949	157.177	302.519	246.638	157.268	161.066	330.032	363.466	160.801	165.483	164.846	170.110	323.931	170.401	-8191	255	
40510.191	1	1	0	0	0.4435	0.32279	0.18357	0.23924	0.045401	0.39305	0.19104	0.066399	0.16394	0.22284	0.29851	0.32438	0.10485	0.12751	0.12186	0.13586	-2.8583	-3.8708	-3.4417	-3.4813	-3.9729	-3.1417	-4.0458	-4.0167	-3.3187	-3.8083	-3.5938	-3.2958	-4.1229	-3.3312	-3.4875	-3.975	308.229	266.625	347.934	491.310	218.244	315.114	419.687	481.761	173.447	284.401	405.446	423.430	414.853	420.493	306.827	497.230	0.00055489	0.00049249	0.00016341	1134.8	7.0435e-06	3.7651e-06	1461.3	314.59	2.8316e-06	5.7909e-06	500.96	154.54	79.177	19.895	2.6175e-06	54.053	0.0010032	0.0010537	0.0002972	1092.5	1.146e-05	1.1612e-05	1402	303.78	1.1491e-05	1.17e-05	482.99	149.73	77.968	20.192	1.1611e-05	52.822	226.808	223.245	213.440	157.168	288.183	222.226	157.101	160.994	438.515	343.378	161.042	165.380	164.878	169.449	347.709	170.536	-8191	255	
40510.289	1	1	0	0	0.17849	0.18329	0.12235	0.037845	0.17478	0.13244	0.18866	0.13832	0.26071	0.041987	0.23018	0.093542	0.13613	0.26059	0.23772	0.11732	-2.6354	-3.875	-3.5563	-3.3479	-4.0292	-3.4437	-3.6708	-4.1667	-3.225	-3.9375	-3.8542	-3.4437	-4.075	-3.3146	-3.4146	-4.1104	460.458	437.046	300.317	167.905	294.140	433.081	381.425	470.215	502.837	415.768	143.463	265.137	372.774	361.809	270.263	206.421	0.00046521	0.00062826	9.3867e-05	1142.1	5.9685e-06	7.8088e-06	1460	315.78	4.4794e-06	2.881e-06	502.55	153.9	78.702	19.851	7.2493e-06	53.798	0.0010074	0.001057	0.00029929	1096.9	1.1527e-05	1.1729e-05	1403.7	304.53	1.1652e-05	1.1667e-05	484.21	149.79	77.794	20.156	1.149e-05	52.714	233.443	237.847	387.664	157.131	221.294	284.901	157.298	160.950	216.490	274.499	160.786	165.499	164.936	170.208	401.352	170.747	-8191	255	
40510.359	1	1	0	0	0.20916	0.22494	0.11651	0.15929	0.14727	0.18325	0.2992	0.19159	0.056497	0.05631	0.24031	0.11311	0.13257	0.10689	0.12112	0.047225	-2.8875	-3.8	-3.7	-3.4167	-3.9979	-3.3083	-3.4354	-4.1396	-3.2271	-3.6688	-3.825	-3.2354	-3.8812	-3.4542	-3.4729	-4.1417	196.394	453.723	194.379	447.521	183.718	470.331	456.579	448.000	387.742	215.014	462.355	158.461	396.835	479.325	307.437	420.119	0.0004919	0.00024485	9.8156e-05	1143.5	1.4075e-06	5.229e-06	1468.3	315.29	7.12e-06	6.8908e-06	499.75	153.34	79.209	19.882	5.7085e-06	53.209	0.0010028	0.0010593	0.00029689	1097.6	1.1473e-05	1.174e-05	1405.3	304.15	1.1543e-05	1.1884e-05	483.19	148.78	77.764	20.093	1.1965e-05	52.053	230.900	246.451	210.084	157.081	413.436	180.710	157.269	161.120	255.428	234.022	161.333	165.626	164.951	169.813	243.100	170.525	-8191	255	
40510.457	1	1	0	0	0.19545	0.11368	0.19682	0.075582	0.078101	0.17149	0.34185	0.17307	0.15041	0.039696	0.28515	0.11386	0.29003	0.16592	0.11623	0.058175	-2.8354	-3.5375	-3.7542	-3.3917	-3.9021	-3.4771	-3.5354	-4.2333	-3.2812	-3.5479	-3.9208	-3.2104	-3.8958	-3.7146	-3.3563	-4.0292	436.045	171.451	497.275	150.113	340.783	353.250	458.089	448.383	187.841	386.155	162.168	447.077	307.226	446.439	212.406	156.011	0.00047268	0.00013639	0.00019865	1140.4	4.4263e-06	5.9426e-06	1458.9	314.62	6.7911e-06	6.5715e-06	497.18	151.85	77.436	19.67	8.0865e-06	52.809	0.001022	0.0010846	0.00030655	1094.3	1.1935e-05	1.2147e-05	1400.1	303.53	1.1963e-05	1.222e-05	480.62	147.79	77.302	19.969	1.2334e-05	52.046	233.255	482.995	357.647	157.173	358.088	382.928	157.104	161.056	307.241	288.636	161.138	165.360	164.957	170.127	310.039	170.625	-8191	255	
40510.578	1	1	0	0	0.13138	0.039895	0.13182	0.14223	0.21889	0.13598	0.23007	0.1724	0.068366	0.13113	0.052864	0.069646	0.013372	0.31451	0.052691	0.15988	-3.0208	-3.5167	-3.9042	-3.425	-3.7042	-3.45	-3.5208	-4.1917	-3.3688	-3.4917	-4.1125	-3.175	-3.8833	-3.7938	-3.1292	-3.9	170.163	268.256	498.048	445.459	149.465	391.770	433.473	462.412	386.480	379.661	502.602	296.963	213.480	167.411	303.364	420.977	0.00055555	0.00027535	8.3372e-05	1123.8	7.8239e-06	3.0652e-06	1447.1	310.15	2.6932e-06	5.5211e-06	499.34	152.37	77.802	19.792	4.3385e-06	53.075	0.0010528	0.0011173	0.00031091	1081.6	1.209e-05	1.2249e-05	1390	299.97	1.1994e-05	1.2093e-05	480.64	147.88	76.95	19.944	1.2014e-05	51.924	223.139	280.806	348.274	157.174	323.610	282.873	157.612	160.973	244.071	231.174	160.981	165.844	165.331	169.946	268.029	170.531	-8191	255	
40510.676	1	1	0	0	0.072925	0.059559	0.030078	0.19095	0.18258	0.13515	0.10679	0.19275	0.083023	0.039275	0.12573	0.1543	0.01275	0.080734	0.1403	0.10159	-3.0104	-3.3979	-4.0104	-3.4042	-3.6521	-3.8333	-3.4458	-4.1354	-3.3812	-3.3396	-4.2833	-3.2771	-3.675	-3.9333	-3.15	-4.0458	145.248	323.297	169.881	479.686	206.019	382.065	415.764	478.975	252.288	251.740	496.950	448.420	397.869	491.220	242.461	426.864	0.0004213	0.00022669	0.0002956	1124.9	3.156e-06	3.4909e-06	1450.7	312.14	7.545e-06	3.8545e-06	497.74	152.29	77.698	19.58	6.3664e-06	52.874	0.001031	0.0010993	0.00030491	1081	1.1884e-05	1.205e-05	1391.7	301.04	1.2004e-05	1.2181e-05	480.93	147.83	77.019	19.889	1.2076e-05	51.99	220.997	187.721	224.929	157.253	295.607	165.227	157.419	161.096	336.159	401.594	161.126	165.492	165.333	169.902	265.820	170.545	-8191	255	
40510.770	1	1	0	0	0.093687	0.054851	0.23379	0.23998	0.11394	0.057049	0.19304	0.15465	0.068742	0.065084	0.12421	0.17853	0.024447	0.15883	0.036056	0.24866	-3.1708	-3.3354	-3.9708	-3.625	-3.7292	-4.0042	-3.4167	-3.8729	-3.7729	-3.2625	-4.1333	-3.4	-3.7	-4.0167	-3.2687	-3.9875	364.503	189.612	342.553	471.563	212.775	227.742	473.741	478.278	255.780	474.081	360.544	149.445	297.533	445.323	239.521	478.632	0.00050215	0.00037422	0.00019032	1132	9.6537e-07	4.156e-06	1459.2	313.68	7.6771e-06	2.1096e-06	499.24	151.44	77.765	19.624	1.3298e-05	52.564	0.0010251	0.0010883	0.00030717	1088.9	1.2059e-05	1.2053e-05	1399.7	303.31	1.2026e-05	1.237e-05	481.1	147.51	77.221	19.917	1.2486e-05	51.385	226.029	252.245	240.159	156.922	219.532	327.128	157.218	160.957	284.757	278.763	161.243	165.821	164.442	169.854	302.311	170.357	-8191	255	
40510.867	1	1	0	0	0.093997	0.18418	0.16118	0.27182	0.069001	0.10308	0.27008	0.090033	0.047653	0.097146	0.14098	0.078537	0.13238	0.19086	0.15213	0.038222	-3.3146	-3.2021	-3.9375	-3.4167	-3.4479	-4.0687	-3.4562	-3.9021	-3.9729	-3.0812	-4.0771	-3.6375	-3.5354	-4	-3.2062	-4.0125	480.215	336.875	360.907	492.068	490.981	148.059	483.610	413.199	442.168	483.178	154.792	434.168	449.807	426.187	373.532	390.262	0.00052266	0.00043887	0.00023391	1118.4	2.3047e-06	4.6232e-06	1433.1	308.33	4.7906e-06	3.691e-06	492.5	149.44	77.031	19.504	5.9512e-06	51.597	0.0010895	0.0011443	0.00032146	1076.6	1.2478e-05	1.2596e-05	1377.4	298.48	1.2618e-05	1.2724e-05	475.24	145.89	76.083	19.754	1.2918e-05	51.227	221.368	401.193	296.973	157.239	205.267	276.723	157.260	160.739	182.234	293.926	161.102	165.766	164.806	170.165	337.849	170.496	-8191	255	
40510.965	1	1	0	0	0.01565	0.044131	0.027823	0.24417	0.19511	0.38219	0.19304	0.11407	0.060936	0.1314	0.081645	0.082846	0.10951	0.11762	0.11174	0.23519	-3.5833	-3.1854	-4.1042	-3.7708	-3.4104	-3.9667	-3.4625	-3.8083	-3.9125	-3.0563	-4.0167	-3.6396	-3.3792	-4.0188	-3.0896	-3.6917	313.651	353.018	373.919	480.133	316.568	227.468	427.441	320.685	407.270	326.931	499.505	248.831	501.852	377.615	400.040	462.058	0.00053206	0.0005199	7.9543e-05	1110.8	8.4653e-06	1.0212e-05	1429.5	307.73	7.599e-06	5.5588e-06	490.03	150.52	76.694	19.326	8.9343e-06	52.079	0.0010886	0.0011401	0.00031932	1069.9	1.2389e-05	1.2568e-05	1377	297.86	1.2392e-05	1.2578e-05	475.4	146.35	75.912	19.786	1.2609e-05	51.226	228.796	195.135	384.110	157.365	281.821	250.409	157.440	160.882	311.343	286.948	161.499	165.724	165.084	169.676	310.831	170.067	-8191	255	
40511.059	1	1	0	0	0.038924	0.13883	0.11094	0.19268	0.17301	0.22807	0.15548	0.11887	0.17629	0.17161	0.17096	0.25066	0.024834	0.050543	0.054067	0.16967	-3.4875	-3.0458	-3.8958	-3.7375	-3.2854	-3.9833	-3.4625	-3.6688	-4.0271	-3.1167	-3.9417	-3.7146	-3.2792	-4.0917	-3.3479	-3.5312	279.397	352.770	362.993	422.891	297.790	170.771	398.384	374.900	271.581	300.927	422.204	429.945	240.454	336.588	269.613	435.044	0.00052962	0.00076615	0.00012929	1122.1	6.6263e-06	9.2354e-06	1439.7	310.65	5.4587e-06	8.9954e-06	494.39	151	78.445	19.489	1.0984e-05	52.343	0.0010626	0.0011102	0.00031678	1078.9	1.2097e-05	1.2461e-05	1384.9	300.14	1.2176e-05	1.2423e-05	476.52	146.98	76.958	19.861	1.2319e-05	51.529	228.317	205.033	151.816	157.092	296.272	184.117	157.597	160.672	260.814	294.374	161.298	165.913	164.944	170.451	244.579	170.208	-8191	255	
40511.180	1	1	0	0	0.14653	0.14321	0.076502	0.24866	0.053754	0.3033	0.15415	0.2494	0.088807	0.19465	0.13517	0.1495	0.27728	0.23684	0.18355	0.1792	-3.6562	-2.9833	-3.6521	-3.8875	-3.0458	-3.8896	-3.5833	-3.5125	-3.9813	-3.1854	-3.6604	-3.85	-3.1792	-3.8812	-3.6646	-3.4979	222.422	271.200	460.038	498.848	178.544	373.059	400.471	372.656	479.856	470.124	325.615	288.814	428.245	470.957	386.948	501.736	0.00048178	0.00038145	8.5986e-05	1130.4	7.2364e-06	1.3105e-05	1461.2	314.72	7.8532e-06	9.7554e-06	501.25	152.47	78.045	19.836	5.1792e-06	52.555	0.0010439	0.0011004	0.00030665	1091.1	1.1679e-05	1.2135e-05	1397.6	303.25	1.1814e-05	1.2066e-05	482.17	147.59	77.205	19.982	1.1904e-05	51.541	224.570	223.087	291.687	157.164	332.813	224.344	157.321	160.846	245.634	267.618	161.255	165.772	165.259	170.071	289.501	170.386	-8191	255	
40511.273	1	1	0	0	0.25461	0.34599	0.11	0.16345	0.091252	0.14102	0.31694	0.028964	0.20604	0.13816	0.22744	0.20007	0.051288	0.10622	0.34323	0.032105	-3.6625	-3.4271	-3.5854	-4.0771	-3.2188	-3.8937	-3.7854	-3.2354	-3.9729	-3.2167	-3.6854	-3.8917	-3.1458	-3.9271	-3.6042	-3.3458	239.988	177.343	397.955	422.115	468.316	481.781	412.098	160.456	418.856	160.105	465.411	448.550	319.854	264.333	417.927	462.191	0.00049818	0.00086988	0.0001282	1143.2	4.8174e-06	3.2966e-06	1455	314.36	2.7155e-06	5.7822e-06	496.68	151.77	77.705	19.613	8.9912e-06	51.889	0.0010156	0.0010852	0.00030257	1098.2	1.1761e-05	1.2042e-05	1397.5	304.15	1.1653e-05	1.2128e-05	479.52	147.01	77.215	19.855	1.2403e-05	51.32	226.517	248.397	249.740	157.071	286.303	312.019	157.432	160.888	260.637	240.052	161.081	165.776	164.937	170.205	275.120	170.052	-8191	255	
40511.371	1	1	0	0	0.021021	0.12844	0.1193	0.14296	0.20838	0.017124	0.30458	0.17792	0.16598	0.3583	0.16394	0.10483	0.1661	0.13199	0.10472	0.06439	-3.5438	-3.2104	-3.3979	-4.0563	-3.1917	-3.8812	-3.8729	-3.3667	-4.0396	-3.3563	-3.5375	-4.1542	-3.0917	-3.6833	-3.7333	-3.35	390.359	189.851	301.979	402.462	452.184	364.252	458.326	375.765	460.674	147.081	456.484	152.511	434.641	230.339	154.410	431.642	0.00055206	0.00033975	0.00015041	1141.2	3.7355e-06	2.9437e-06	1448.9	313.39	5.5574e-06	7.672e-06	494.82	152.62	77.648	19.58	1.1681e-05	52.28	0.0010414	0.0010807	0.00030495	1093.4	1.1907e-05	1.2169e-05	1391	302.48	1.2124e-05	1.2159e-05	477.99	147.21	76.767	19.905	1.2231e-05	51.467	222.984	450.599	309.492	157.147	291.603	340.922	157.374	160.751	289.524	312.147	161.037	165.411	164.867	169.851	304.520	170.850	-8191	255	
40511.465	1	1	0	0	0.046551	0.11496	0.16728	0.17598	0.068885	0.17227	0.22296	0.19772	0.12459	0.12826	0.11855	0.15131	0.20497	0.074745	0.18999	0.12092	-3.7521	-3.4979	-3.4875	-4.1979	-3.0625	-3.6896	-3.9167	-3.3187	-3.9479	-3.6646	-3.4396	-4.1562	-3.4146	-3.6833	-3.9104	-3.2438	326.484	436.145	229.642	445.237	396.166	161.770	423.836	451.943	294.628	463.755	467.001	198.015	436.285	404.693	282.215	212.559	0.00051349	0.00069478	8.7469e-05	1125.7	1.0279e-05	4.2598e-06	1444.2	310.89	4.0878e-06	8.0555e-06	492.74	151.15	77.066	19.53	4.7319e-06	52.682	0.0010378	0.0010896	0.00030452	1081.1	1.1937e-05	1.2435e-05	1385.2	299.48	1.2173e-05	1.2182e-05	475.76	146.55	76.276	19.819	1.202e-05	51.631	225.117	240.725	221.283	157.205	288.574	243.919	157.328	161.030	288.118	328.960	161.219	165.802	165.058	169.848	217.374	170.374	-8191	255	
40511.586	1	1	0	0	0.23863	0.1138	0.10955	0.10299	0.243	0.14786	0.38133	0.050154	0.22232	0.16143	0.19173	0.17933	0.15589	0.16096	0.3028	0.026984	-3.5083	-3.5354	-3.2958	-4.2562	-3.325	-3.5187	-4.1292	-3.3104	-4.0271	-3.7313	-3.4104	-4.0833	-3.4521	-3.5792	-3.9354	-3.2896	208.954	456.862	149.569	308.261	301.484	487.953	473.809	444.424	321.015	363.359	425.264	229.904	232.949	397.354	458.960	162.666	0.00051729	0.00043673	0.0002119	1110.9	8.06e-06	7.4737e-07	1444.9	307.59	6.4075e-06	9.0799e-06	491.17	150.63	76.58	19.384	7.2785e-06	51.826	0.0010335	0.0010962	0.00030494	1071.7	1.1785e-05	1.2127e-05	1381.6	297.77	1.2121e-05	1.2254e-05	474.54	146.57	75.817	19.768	1.2037e-05	51.212	228.274	239.135	144.177	157.136	282.130	476.795	157.351	160.912	272.822	310.818	161.286	165.665	164.696	169.999	260.022	170.420	-8191	255	
40511.656	1	1	0	0	0.10912	0.19776	0.11352	0.25256	0.11638	0.21143	0.21546	0.17348	0.25089	0.07657	0.13396	0.10271	0.25135	0.17036	0.20279	0.25279	-3.4	-3.7542	-3.2521	-4.1625	-3.5333	-3.5354	-4.1167	-3.3104	-3.6854	-3.8792	-3.2458	-4.0521	-3.4188	-3.3896	-3.8563	-3.2792	464.684	297.165	474.030	485.843	287.877	375.183	465.789	453.559	302.601	327.073	404.933	398.587	424.118	400.026	364.771	456.344	0.00046395	0.00051992	0.00013325	1111.1	1.5368e-06	1.1182e-05	1427.7	306.96	1.7429e-06	4.5331e-06	488.71	149.65	76.922	19.313	1.214e-05	51.756	0.001033	0.0011007	0.00030358	1066.4	1.1945e-05	1.1993e-05	1374.7	295.73	1.2121e-05	1.2149e-05	472	145.64	75.889	19.579	1.2113e-05	51.018	225.135	188.314	244.881	157.337	221.053	332.434	157.595	160.523	364.226	290.055	161.199	165.723	164.605	169.649	293.388	170.416	-8191	255	
40511.754	1	1	0	0	0.078925	0.37152	0.075503	0.21195	0.24876	0.11436	0.16012	0.33058	0.21932	0.032235	0.14897	0.25164	0.16956	0.18086	0.1964	0.33104	-3.1688	-3.825	-3.0687	-4.0833	-3.5187	-3.3208	-4.3292	-3.3646	-3.6042	-3.9208	-3.3875	-4.0188	-3.5146	-3.2979	-3.9333	-3.4125	266.512	201.300	412.763	216.828	219.535	349.264	440.371	470.455	403.578	397.950	383.621	483.339	395.747	401.704	471.740	431.488	0.00049254	0.00052042	0.00015131	1117.6	6.236e-06	1.0099e-05	1438	308.69	4.1258e-07	7.5054e-06	490.37	150.18	77.113	19.396	1.2511e-05	51.905	0.0010366	0.0010796	0.00030647	1071.2	1.1803e-05	1.1884e-05	1377.2	297.81	1.1923e-05	1.1948e-05	474.22	145.8	76.113	19.678	1.202e-05	51.223	221.529	295.401	221.902	157.307	313.421	261.464	157.391	161.262	173.224	323.162	160.818	165.773	165.203	170.078	265.470	170.256	-8191	255	
40511.852	1	1	0	0	0.11923	0.15369	0.12365	0.083166	0.15901	0.20035	0.25918	0.16701	0.13088	0.22353	0.25839	0.28897	0.016715	0.16405	0.037219	0.073649	-3.1479	-3.9042	-3.175	-3.9375	-3.5625	-3.3042	-3.9479	-3.4375	-3.4375	-3.8937	-3.1646	-3.9167	-3.6792	-3.1667	-4.05	-3.2062	203.519	253.997	376.352	482.953	245.333	194.341	407.678	361.984	380.014	182.641	483.167	153.163	487.382	157.028	171.237	199.736	0.00040847	0.00057658	0.00025513	1120.9	1.0246e-05	2.9135e-06	1432.8	308.56	8.4216e-06	4.647e-06	489.59	149.67	76.501	19.085	9.93e-06	51.968	0.0010261	0.0010823	0.00030216	1071.8	1.1905e-05	1.2034e-05	1375.2	298.21	1.2003e-05	1.2061e-05	473.35	145.6	75.669	19.558	1.2144e-05	50.952	213.538	283.101	195.737	157.086	247.669	234.119	157.471	160.717	264.110	252.782	160.763	165.690	164.683	170.034	291.645	170.888	-8191	255	
40511.973	1	1	0	0	0.16446	0.21832	0.1559	0.33045	0.062482	0.14813	0.27041	0.24448	0.078395	0.23181	0.07042	0.12776	0.23438	0.13589	0.20863	0.052048	-2.975	-3.8438	-3.1542	-3.8979	-3.7875	-3.1458	-4.0563	-3.5354	-3.3083	-4.0979	-3.3	-3.8229	-3.9667	-3.1583	-3.8312	-3.4833	194.460	495.717	228.382	151.319	379.232	435.058	363.178	483.408	422.707	339.614	469.302	372.173	179.326	161.280	297.508	293.085	0.00050898	0.00075956	0.00013937	1118.5	4.4841e-06	6.2106e-06	1434.5	307.92	5.1006e-06	4.7818e-06	490.05	147.95	76.536	19.038	4.8893e-06	51.841	0.0010358	0.0010927	0.00030675	1072.9	1.1746e-05	1.1997e-05	1377.5	297.74	1.1959e-05	1.209e-05	472.84	145.14	75.919	19.611	1.1943e-05	50.835	222.150	217.145	488.304	157.181	373.256	187.298	157.551	161.147	299.508	265.518	160.681	166.058	165.293	169.852	243.135	170.417	-8191	255	
40512.066	1	1	0	0	0.084982	0.042817	0.03279	0.38449	0.21774	0.2722	0.10361	0.040056	0.16079	0.16417	0.44402	0.08513	0.15313	0.14463	0.13278	0.20576	-2.9958	-3.9771	-3.1771	-3.7687	-3.8479	-3.2188	-4.1375	-3.65	-3.25	-3.9646	-3.4625	-3.6667	-4	-3.2208	-3.8604	-3.5938	502.804	500.170	392.112	491.480	491.836	146.968	378.021	475.213	157.696	397.684	455.027	270.789	273.386	441.631	270.882	186.496	0.00053089	0.0005655	0.00029697	1110.7	4.3634e-07	7.1562e-06	1434.2	307.05	6.0941e-06	1.3744e-06	488.53	148.31	76.515	19.263	5.9135e-06	51.972	0.0010081	0.0010864	0.00030588	1069.9	1.1837e-05	1.1992e-05	1376	296.9	1.2014e-05	1.2154e-05	471.96	144.73	75.766	19.555	1.2088e-05	50.784	221.800	196.399	239.492	157.398	500.048	228.616	157.463	160.815	262.059	223.257	161.113	165.488	164.579	169.986	290.730	170.824	-8191	255	
40512.160	1	1	0	0	0.33797	0.11035	0.11238	0.23985	0.13065	0.090087	0.26653	0.37034	0.17078	0.13113	0.26757	0.10424	0.26653	0.21832	0.17087	0.12988	-3.0271	-3.8937	-3.2646	-3.5146	-4.1896	-3.1833	-3.95	-3.8208	-3.3	-4.0083	-3.4021	-3.5625	-3.9542	-3.2146	-3.6917	-3.6562	430.124	493.859	489.982	495.314	340.462	317.821	440.315	413.988	188.571	189.682	144.316	178.364	453.776	168.383	381.101	149.945	0.00051483	0.0012736	0.00019745	1113.7	5.9774e-06	4.1135e-06	1429.7	307	3.8337e-06	5.4054e-06	487.94	148.66	76.334	19.074	6.4697e-06	51.077	0.0010224	0.0011036	0.00030529	1069.8	1.1862e-05	1.2219e-05	1372.1	296.63	1.1862e-05	1.2208e-05	471.68	144.39	75.486	19.452	1.1972e-05	50.446	222.553	229.996	236.103	156.944	266.485	370.883	157.496	161.088	278.267	255.014	160.612	165.588	165.040	169.677	307.126	170.493	-8191	255	
40512.262	1	1	0	0	0.11856	0.044816	0.28696	0.15529	0.084021	0.25125	0.27454	0.29662	0.12679	0.23627	0.13804	0.10011	0.23869	0.24432	0.10352	0.17393	-2.7604	-3.9938	-3.2188	-3.4875	-3.9854	-3.2104	-3.8063	-3.8688	-3.1458	-4.0188	-3.8667	-3.4229	-3.9521	-3.3708	-3.6104	-3.8729	379.247	361.684	240.946	490.545	421.897	317.178	428.713	427.504	395.368	211.660	358.043	393.571	175.928	385.895	205.496	411.269	0.00050349	0.00045773	0.00018021	1121.2	7.2427e-06	5.3513e-06	1432.5	311.5	6.0142e-06	1.5306e-06	493.03	148.63	77.285	19.322	6.5529e-06	51.748	0.0010405	0.0010809	0.00030727	1078.7	1.1893e-05	1.1949e-05	1378.5	299.26	1.1746e-05	1.2039e-05	474.13	144.97	76.286	19.611	1.1875e-05	50.739	225.194	207.101	209.956	157.541	273.812	315.336	157.303	160.919	287.686	283.645	161.232	165.562	165.274	170.114	328.269	170.767	-8191	255	
40512.355	1	1	0	0	0.17414	0.21499	0.075646	0.28262	0.2384	0.13738	0.1426	0.15985	0.17403	0.11281	0.047285	0.41266	0.10223	0.092067	0.12351	0.18256	-2.8417	-3.7083	-3.525	-3.4208	-4.1625	-3.0812	-3.8875	-3.9875	-3.1125	-3.8563	-3.9062	-3.3354	-3.9958	-3.3229	-3.4354	-4.1604	389.808	165.905	179.216	165.545	181.634	274.133	457.146	223.417	476.378	470.714	457.484	474.172	493.272	154.029	397.593	445.183	0.00041352	0.00067167	0.00020462	1131.8	5.517e-07	7.6019e-06	1451	312.18	5.9127e-06	6.9667e-06	493.86	149.34	77.768	19.465	6.0446e-06	52.085	0.0010222	0.0010742	0.00030254	1086.4	1.19e-05	1.1955e-05	1389.2	301.94	1.1846e-05	1.204e-05	476.4	145.78	76.744	19.738	1.1755e-05	51.161	221.688	201.784	249.815	157.187	263.017	273.000	157.244	160.982	281.729	275.934	160.883	165.656	165.111	169.997	304.356	170.720	-8191	255	
40512.449	1	1	0	0	0.051368	0.13823	0.10393	0.23584	0.057048	0.060348	0.20668	0.20152	0.15795	0.12535	0.3375	0.056354	0.23002	0.14542	0.094349	0.034472	-2.8438	-3.7958	-3.7333	-3.2729	-3.9771	-3.4313	-3.6083	-4.0896	-3.075	-3.8458	-3.9458	-3.3125	-3.8625	-3.4938	-3.375	-4.2125	450.536	261.643	288.352	415.949	501.041	460.687	452.131	146.082	456.912	279.066	434.206	421.498	163.524	312.447	313.375	489.002	0.00058156	0.00019583	8.2343e-05	1140.9	2.5848e-06	6.0223e-06	1456.7	314.96	5.8339e-06	1.6292e-06	495.93	150	78.016	19.419	6.125e-06	52.197	0.001001	0.0010827	0.00029512	1095	1.1556e-05	1.1688e-05	1394.8	304.31	1.1817e-05	1.1804e-05	479.63	146.41	77.506	19.897	1.1557e-05	51.399	227.230	188.725	208.278	157.432	235.224	185.364	157.174	160.829	296.692	404.153	160.794	165.392	165.241	169.982	254.594	170.778	-8191	255	
40512.547	1	1	0	0	0.20352	0.19589	0.12824	0.28462	0.13732	0.25497	0.1525	0.077	0.32275	0.084522	0.22039	0.29609	0.11842	0.19915	0.27718	0.18712	-2.7875	-3.6896	-3.7542	-3.2938	-3.9646	-3.4708	-3.2958	-4.1729	-3.2042	-3.6562	-3.9083	-3.2854	-3.9917	-3.5687	-3.2188	-4.1542	300.579	200.432	446.921	424.423	426.799	338.890	402.850	430.169	423.276	416.687	470.812	487.673	156.705	451.361	375.443	387.635	0.00046769	0.00052605	5.7157e-05	1141.4	3.1867e-06	7.0519e-06	1461	317.74	2.8441e-06	9.9379e-06	497.57	150.31	78.717	19.694	4.9872e-06	52.107	0.0010085	0.0010636	0.00029414	1098.8	1.1625e-05	1.1708e-05	1396.6	305.69	1.1672e-05	1.1821e-05	479.5	146.49	77.643	19.946	1.1712e-05	51.257	235.533	211.803	179.994	156.920	297.864	325.204	157.063	160.851	242.288	246.458	160.830	165.762	164.841	170.229	403.475	170.303	-8191	255	
40512.668	1	1	0	0	0.084384	0.10584	0.095229	0.39965	0.19319	0.12456	0.40812	0.25969	0.073358	0.058681	0.089526	0.2888	0.053353	0.19726	0.056214	0.18884	-2.9729	-3.6937	-4.05	-3.2833	-3.8896	-3.5	-3.3021	-4.1208	-3.3854	-3.5646	-4.0625	-3.2833	-3.8063	-3.9479	-3.1896	-4.1896	439.532	182.072	256.303	157.471	379.974	280.005	480.163	382.217	184.056	193.430	377.263	469.746	397.342	428.354	448.525	479.309	0.00054965	0.00022819	0.00020151	1151.7	8.0218e-06	9.5155e-06	1469.7	319.36	4.1285e-06	3.7008e-06	500.23	151.35	80.065	19.813	2.9975e-06	52.306	0.001018	0.0010549	0.00029188	1103.9	1.1618e-05	1.1593e-05	1403.6	307.7	1.1553e-05	1.1895e-05	483.44	147.43	78.348	20.062	1.1696e-05	51.531	222.123	169.952	188.105	157.177	272.413	376.316	157.141	160.966	187.142	255.696	161.297	165.557	164.906	170.134	375.549	170.154	-8191	255	
40512.762	1	1	0	0	0.19667	0.2293	0.038291	0.20806	0.13159	0.23155	0.12267	0.08889	0.15623	0.081845	0.22924	0.19245	0.18312	0.12186	0.054998	0.032599	-3.0187	-3.3417	-3.9292	-3.4729	-3.625	-3.9688	-3.5042	-4.0729	-3.375	-3.2687	-4.0167	-3.2375	-3.7146	-3.8917	-3.1729	-3.9833	327.997	460.217	234.890	230.169	324.851	452.430	293.431	155.159	284.827	480.060	458.084	475.394	310.074	456.431	205.026	474.494	0.00047005	0.00067936	0.000265	1159.9	2.5502e-06	1.1556e-05	1467.5	322.68	8.6219e-06	9.3236e-06	502.7	152.22	79.229	19.83	4.1746e-06	52.669	0.0010024	0.0010604	0.00029581	1113.9	1.1625e-05	1.1705e-05	1409.4	310.42	1.1546e-05	1.1871e-05	485.21	147.97	78.518	20.179	1.1902e-05	51.649	221.831	228.646	175.623	157.423	490.297	227.068	157.218	160.732	299.647	323.246	161.003	165.755	165.107	169.736	430.748	170.539	-8191	255	
40512.859	1	1	0	0	0.068053	0.19775	0.079188	0.095669	0.27743	0.13276	0.22894	0.13444	0.15925	0.19493	0.12222	0.26161	0.055388	0.14805	0.073884	0.25833	-3.1271	-3.4021	-3.9	-3.5917	-3.4917	-3.8688	-3.2917	-4.0521	-3.5292	-3.2938	-4.2188	-3.4333	-3.7646	-4.0687	-3.1063	-4.0146	299.151	235.984	395.555	190.219	303.650	409.526	471.458	354.619	483.000	327.683	495.847	157.134	405.785	425.564	243.790	408.582	0.00047239	0.00079249	4.3841e-05	1167.4	4.15e-06	6.4141e-07	1465.9	321.17	7.0198e-06	8.4786e-06	502.55	152.46	79.123	19.937	1.8705e-06	52.362	0.00099972	0.001065	0.00030029	1115.8	1.1731e-05	1.1901e-05	1406.5	309.93	1.1753e-05	1.1924e-05	484.18	147.86	78.348	20.221	1.1789e-05	51.556	227.886	352.818	406.519	157.133	384.686	335.206	157.322	160.989	275.537	303.466	161.169	165.696	165.023	169.921	272.069	170.153	-8191	255	
40512.957	1	1	0	0	0.089965	0.033926	0.065183	0.20449	0.32244	0.099769	0.2363	0.31449	0.19332	0.15177	0.12534	0.209	0.31388	0.067151	0.062728	0.15708	-3.4458	-3.2521	-3.9625	-3.6708	-3.5	-3.9875	-3.5333	-3.8854	-3.75	-3.2542	-4.0708	-3.5333	-3.4667	-3.9042	-3.2229	-3.8646	238.350	191.604	191.158	479.761	459.928	289.688	493.963	461.936	234.782	465.978	312.546	446.900	237.698	144.971	387.141	406.779	0.00051284	0.00065711	0.00011179	1161.4	6.7727e-06	3.2925e-06	1460.3	319.79	2.8194e-06	1.8254e-06	504.79	152.41	79.973	20.036	2.6187e-06	53.009	0.0010165	0.0010929	0.00030272	1113	1.1602e-05	1.1818e-05	1406.5	308.5	1.1873e-05	1.2088e-05	485.11	147.98	78.654	20.266	1.1865e-05	52.061	222.673	206.744	325.092	157.255	273.323	277.914	157.235	160.782	335.117	434.123	160.841	165.706	164.824	170.178	291.941	170.781	-8191	255	
40513.051	1	1	0	0	0.24244	0.20439	0.06854	0.32694	0.20734	0.28036	0.33374	0.1634	0.18618	0.081063	0.15745	0.31092	0.31597	0.10644	0.088688	0.092751	-3.5187	-3.2542	-3.9625	-3.6271	-3.3167	-4.2042	-3.6271	-3.8833	-3.9229	-3.1521	-4.1687	-3.65	-3.4188	-4.05	-3.3854	-3.9021	375.218	209.823	466.224	444.418	215.084	256.506	415.025	476.658	288.792	471.265	277.765	449.477	464.460	241.801	378.386	266.835	0.00054159	0.00050618	5.5372e-05	1155.6	9.6802e-06	8.0157e-06	1468.2	320.43	9.3926e-06	2.3253e-06	504.27	152.65	80.234	20.319	6.7497e-06	53.17	0.0010205	0.0010879	0.00030335	1109.1	1.1761e-05	1.2071e-05	1408.9	308.81	1.1896e-05	1.2089e-05	485.96	148.64	78.829	20.427	1.2066e-05	52.256	230.592	276.493	183.160	157.258	296.516	354.124	157.332	160.852	262.338	310.272	160.926	165.670	164.710	170.171	292.515	170.512	-8191	255	
40513.145	1	1	0	0	0.22359	0.016369	0.12413	0.30487	0.080001	0.23145	0.27697	0.27051	0.35348	0.16519	0.21269	0.24028	0.18602	0.26084	0.067525	0.090164	-3.4896	-3.175	-3.9125	-3.7667	-3.1583	-4.0479	-3.5417	-3.7583	-3.8396	-3.2313	-3.9188	-3.8229	-3.1167	-4.1646	-3.275	-3.6833	379.439	144.595	438.883	425.706	185.408	218.428	385.644	460.287	419.909	341.491	469.678	168.903	479.018	456.030	295.170	341.640	0.00047976	0.00055065	0.00022879	1150	1.8736e-07	2.7506e-06	1465.4	318.59	5.1865e-06	9.354e-06	506.26	152.89	79.152	20.108	5.1008e-06	53.012	0.0010426	0.0010993	0.00031413	1107.7	1.1885e-05	1.232e-05	1406.5	307.59	1.2216e-05	1.2508e-05	485.83	149.08	78.427	20.385	1.2566e-05	52.05	222.552	202.223	261.231	157.310	334.814	277.673	157.614	160.802	318.781	217.495	160.828	165.812	164.752	169.429	306.805	170.560	-8191	255	
40513.266	1	1	0	0	0.2584	0.20205	0.15213	0.22456	0.28371	0.15905	0.50012	0.22045	0.1549	0.014311	0.15439	0.3349	0.090728	0.21819	0.16739	0.13107	-3.6229	-3.1375	-3.775	-3.9896	-3.1063	-4.0708	-3.6333	-3.6292	-3.875	-3.1375	-3.7771	-3.8354	-3.4021	-3.9833	-3.425	-3.2562	309.103	483.936	198.740	459.549	164.629	460.826	413.996	419.166	152.446	285.762	441.629	451.051	500.019	489.809	457.546	330.627	0.00054779	0.00022754	0.000371	1142.6	9.2719e-06	9.8202e-06	1450.7	315.27	6.6716e-06	2.8227e-06	498.56	152.04	78.084	19.659	2.0243e-06	52.879	0.0010682	0.0011343	0.00031354	1097.9	1.2238e-05	1.2609e-05	1395.9	304.07	1.2447e-05	1.2613e-05	480.68	148.02	77.79	20.082	1.2468e-05	51.71	224.015	286.730	253.494	156.968	211.489	278.427	157.454	161.081	288.739	160.180	160.939	165.879	165.283	170.460	447.488	170.559	-8191	255	
40513.363	1	1	0	0	0.26106	0.10327	0.088342	0.3595	0.15739	0.10707	0.12201	0.1843	0.22858	0.13469	0.18291	0.26457	0.17579	0.29448	0.16144	0.21622	-3.5875	-3.1604	-3.5646	-3.8333	-3.2167	-3.8771	-3.7417	-3.275	-4.0771	-3.4042	-3.8396	-3.9917	-3.1625	-3.8563	-3.6479	-3.3167	170.972	458.171	439.842	502.717	156.551	228.733	468.841	466.203	432.707	483.738	433.028	457.409	154.970	378.170	375.745	416.136	0.00053852	0.00032152	0.00015702	1120.2	6.0003e-06	3.7966e-06	1444.8	311.5	3.8308e-06	2.5358e-06	492.83	151.75	77.429	19.431	4.1973e-07	52.716	0.0010811	0.0011394	0.00031781	1082	1.2432e-05	1.2738e-05	1384.1	299.99	1.2643e-05	1.2971e-05	477.01	147.69	76.848	19.901	1.2731e-05	51.865	218.078	473.393	277.047	157.378	302.157	316.415	157.260	160.978	330.059	475.211	161.419	165.864	165.295	169.858	221.000	170.433	-8191	255	
40513.461	1	1	0	0	0.25061	0.11408	0.10477	0.26726	0.13164	0.072099	0.18095	0.35732	0.10065	0.25647	0.15577	0.16941	0.13158	0.2382	0.27605	0.16385	-3.6042	-3.225	-3.4792	-4.2438	-3.2375	-3.9292	-3.9229	-3.4	-4.0354	-3.2083	-3.5667	-3.9938	-3.2146	-3.7479	-3.7729	-3.2521	219.697	345.457	188.416	478.484	422.046	460.866	461.877	454.195	237.688	419.229	442.973	478.951	291.493	234.362	265.153	163.017	0.00045965	0.00070352	0.00013668	1111.7	5.5295e-06	5.9156e-06	1438.1	306	5.5088e-06	2.2936e-06	489.74	151.37	76.583	19.424	7.0208e-06	52.844	0.0010918	0.0011581	0.00032365	1068.9	1.2665e-05	1.2789e-05	1378.8	296.29	1.2823e-05	1.2945e-05	473.6	147.53	76.14	19.901	1.2945e-05	52.037	220.264	201.133	253.552	157.068	275.748	230.713	157.217	160.966	335.752	330.617	161.293	166.003	164.959	169.927	211.357	170.356	-8191	255	
40513.531	1	1	0	0	0.22319	0.15992	0.19299	0.1717	0.23876	0.10169	0.24527	0.21307	0.10132	0.12433	0.20266	0.042296	0.10887	0.11736	0.14635	0.1737	-3.7521	-3.55	-3.3354	-4.1833	-3.2583	-3.7	-3.9354	-3.3563	-3.9188	-3.3771	-3.4146	-4.1417	-3.3333	-3.6104	-3.7604	-3.3583	286.357	337.370	311.528	502.256	319.708	432.454	466.809	387.737	232.920	449.483	402.905	391.364	420.406	147.749	180.847	351.888	0.00051539	0.00011833	0.00040779	1098.4	6.5081e-06	6.4361e-07	1429.6	303.43	5.6501e-06	5.1109e-06	492.65	150.96	76.861	19.499	3.429e-06	52.809	0.0011087	0.0011571	0.00032908	1062.6	1.2969e-05	1.3241e-05	1373.3	295.09	1.3269e-05	1.3202e-05	475.16	147.3	76.535	19.897	1.3308e-05	51.887	219.144	185.758	239.988	157.309	271.409	267.189	157.471	160.840	249.772	274.281	161.018	165.932	164.907	170.457	284.060	170.380	-8191	255	
40513.652	1	1	0	0	0.30496	0.051017	0.070723	0.24285	0.12259	0.061438	0.062601	0.12027	0.17219	0.035949	0.33196	0.26598	0.23476	0.22538	0.17876	0.13546	-3.6604	-3.4958	-3.2396	-4.0417	-3.2958	-3.5083	-3.9833	-3.1854	-3.8438	-3.5146	-3.3104	-4.0521	-3.2854	-3.4875	-3.9958	-3.225	350.958	365.446	162.054	464.331	337.729	245.764	474.896	449.211	471.181	420.665	482.435	218.269	459.355	346.008	469.134	382.082	0.0004552	0.0012985	4.9861e-05	1102.5	9.1576e-06	5.9809e-06	1423.4	302.02	7.3677e-06	5.0036e-06	490.27	150.12	75.693	19.363	3.0927e-06	52.004	0.0011477	0.0011941	0.00033567	1060.5	1.3115e-05	1.3204e-05	1370.4	294.16	1.3156e-05	1.3397e-05	472.97	146.82	75.965	19.834	1.3597e-05	51.555	225.832	166.160	417.869	157.185	325.268	298.828	157.536	160.854	339.046	334.428	161.277	165.515	165.608	169.971	249.420	170.396	-8191	255	
40513.746	1	1	0	0	0.11697	0.13472	0.30364	0.23468	0.088152	0.098656	0.40733	0.27232	0.194	0.27239	0.18467	0.24963	0.17569	0.0040308	0.13919	0.079377	-3.5438	-3.6562	-3.0979	-4.1042	-3.3833	-3.5542	-4.2	-3.3312	-3.7313	-3.7479	-3.3	-4.2438	-3.4667	-3.375	-3.8646	-3.3312	391.343	490.844	303.913	149.790	147.024	227.318	452.526	462.758	481.071	198.044	426.876	183.544	363.323	411.605	300.456	484.262	0.00035785	0.00027966	0.00017007	1094.8	4.701e-06	3.6514e-06	1420.5	300.54	5.4499e-06	4.3067e-06	486.34	149.91	76.086	19.415	1.0917e-06	52.473	0.0011698	0.0012208	0.00034706	1056	1.3379e-05	1.3708e-05	1364.9	291.3	1.3673e-05	1.3947e-05	470.6	146.8	75.957	19.842	1.3778e-05	51.749	213.088	332.899	268.853	157.198	210.936	164.476	157.685	161.080	342.574	315.712	161.251	165.816	165.337	169.681	277.052	170.733	-8191	255	
40513.844	1	1	0	0	0.081853	0.28303	0.066213	0.17588	0.1093	0.14937	0.27655	0.52163	0.11405	0.085321	0.39003	0.22223	0.068971	0.1345	0.19562	0.12686	-3.3375	-3.6958	-3.0854	-3.975	-3.5229	-3.4417	-4.1271	-3.3208	-3.6125	-3.6896	-3.3917	-4.0625	-3.5875	-3.2792	-4.0583	-3.5625	183.753	458.332	440.523	460.529	483.170	212.099	410.619	421.540	287.380	217.150	451.103	456.498	473.361	399.570	338.975	184.321	0.00043279	0.00016206	0.00039138	1082	2.6027e-06	8.173e-06	1413.7	299.76	9.3662e-06	9.1475e-06	485.62	149.17	76.041	19.193	1.6895e-06	52.257	0.0011673	0.001254	0.00034858	1047.2	1.3511e-05	1.3574e-05	1358.8	291.05	1.3558e-05	1.3701e-05	470.62	146.55	75.775	19.774	1.3535e-05	51.296	233.179	178.505	289.187	157.426	499.872	282.829	157.526	160.968	269.989	299.060	160.841	165.764	164.603	170.378	267.343	171.049	-8191	255	
40513.941	1	1	0	0	0.1638	0.13189	0.18993	0.3865	0.2289	0.15198	0.49518	0.14989	0.23713	0.070316	0.20813	0.21066	0.088165	0.090953	0.20108	0.20316	-3.0958	-3.8187	-3.1333	-4.0646	-3.3875	-3.0396	-4.1604	-3.4979	-3.4125	-3.7854	-3.2812	-3.8417	-3.7708	-3.1229	-4.0687	-3.3312	304.944	472.970	419.117	430.874	196.313	169.112	441.521	460.254	281.994	345.499	463.660	198.244	320.878	159.087	175.539	424.614	0.00046286	0.00066706	0.00041724	1108.9	3.5236e-06	6.4917e-06	1427.8	305.45	3.7508e-06	1.0975e-05	489.65	149.93	76.835	19.524	6.8766e-06	51.533	0.001142	0.0012177	0.00033794	1064.2	1.2989e-05	1.333e-05	1374.3	295.7	1.3129e-05	1.336e-05	474.19	146.02	76.813	19.82	1.3304e-05	50.799	232.030	231.974	284.562	157.213	293.493	265.945	157.459	160.934	192.836	325.624	160.862	165.876	165.586	169.528	305.248	170.648	-8191	255	
40514.059	1	1	0	0	0.10447	0.28034	0.088061	0.27587	0.2182	0.13369	0.25486	0.29449	0.29708	0.0706	0.29634	0.15876	0.041464	0.14317	0.049862	0.10751	-3.1333	-4.0208	-3.2958	-3.8979	-3.8146	-3.2062	-4.1917	-3.5125	-3.2771	-4.0271	-3.3729	-3.6021	-3.8479	-3.2125	-3.9688	-3.5271	176.394	163.440	370.686	479.650	147.171	177.685	461.764	475.147	227.257	245.422	485.078	157.663	217.505	355.994	353.850	360.527	0.00046603	0.00059291	0.00024335	1124.3	9.1287e-06	1.2079e-06	1443.3	309.84	8.5056e-06	1.1561e-05	488.51	148.55	77.776	19.175	5.2568e-06	51.054	0.0011163	0.0012009	0.0003367	1082.4	1.3082e-05	1.3334e-05	1387.3	299.65	1.3253e-05	1.3402e-05	474.06	145.26	77.127	19.641	1.3404e-05	50.075	226.751	208.320	224.038	157.093	258.601	295.277	157.409	160.981	284.050	224.135	161.016	165.473	165.054	169.727	310.733	170.147	-8191	255	
40514.133	1	1	0	0	0.17434	0.13917	0.24252	0.11974	0.042935	0.18925	0.28867	0.22064	0.07649	0.1172	0.33415	0.17263	0.16209	0.17054	0.16703	0.19518	-2.7938	-3.9188	-3.2646	-3.6146	-3.9292	-3.0458	-4.05	-3.7958	-3.3958	-4.1438	-3.3792	-3.6188	-3.9125	-3	-3.725	-3.6458	212.822	319.222	356.132	429.091	193.391	224.357	410.692	501.607	425.529	177.490	443.764	195.721	411.625	444.850	280.170	491.133	0.00044203	0.00024579	9.6678e-05	1129.7	2.5095e-06	3.0361e-06	1440	308.1	1.2517e-06	7.2325e-06	488.27	148.06	76.576	19.003	7.1445e-06	50.73	0.0011271	0.0012192	0.00034245	1084	1.326e-05	1.3327e-05	1383.5	299.11	1.3374e-05	1.3641e-05	472.94	144.65	76.456	19.499	1.3685e-05	49.992	223.347	479.720	291.974	157.270	350.897	149.408	157.458	160.942	375.051	254.874	161.115	165.786	165.142	170.573	275.221	170.815	-8191	255	
40514.227	1	1	0	0	0.11456	0.13771	0.10215	0.20937	0.14313	0.13285	0.39642	0.0059579	0.16119	0.12259	0.33224	0.15767	0.22149	0.21777	0.14228	0.22762	-2.9979	-3.9896	-3.4271	-3.6854	-3.7958	-2.9875	-3.9917	-3.8521	-3.1437	-4.2312	-3.3958	-3.6	-3.9854	-3.0646	-3.7854	-3.8438	370.847	459.458	192.433	462.552	317.949	199.388	457.034	143.853	444.426	475.775	441.819	280.727	421.696	295.742	390.390	399.419	0.0005332	0.00060396	0.00032031	1100.8	7.892e-06	4.2903e-06	1411.2	300.71	2.7741e-06	3.8407e-06	482.2	146.92	74.516	18.732	5.6484e-06	50.439	0.001185	0.0012702	0.00034833	1061.8	1.3764e-05	1.4011e-05	1360.1	292.2	1.3557e-05	1.3908e-05	468.26	143.42	74.988	19.255	1.3703e-05	50.039	226.501	148.031	247.680	157.089	222.256	487.710	157.627	161.093	248.757	292.417	161.141	165.745	165.186	169.773	286.487	170.961	-8191	255	
40514.348	1	1	0	0	0.0046847	0.053493	0.074005	0.26463	0.15646	0.14939	0.010395	0.27169	0.29013	0.15224	0.3583	0.27726	0.036404	0.19694	0.30399	0.19981	-2.7646	-3.9562	-3.4521	-3.4437	-4.0437	-3.175	-3.7875	-3.6542	-3.0417	-3.9313	-3.6979	-3.3354	-3.8229	-3.2771	-3.6646	-3.8229	356.615	304.084	496.493	468.279	321.970	446.518	464.989	493.779	475.027	268.874	481.956	461.125	339.355	420.564	253.820	440.822	0.00047075	0.00053446	0.00016713	1094.1	5.8294e-06	5.4342e-06	1416.9	300.8	3.4979e-06	1.2086e-05	481	147.07	75.059	18.839	1.0362e-05	50.506	0.0011642	0.0012643	0.0003427	1055.2	1.3467e-05	1.3702e-05	1360.7	291.75	1.3522e-05	1.3474e-05	467.92	143.46	74.884	19.327	1.339e-05	50.095	228.753	294.994	219.575	157.199	258.274	251.789	157.514	160.919	262.279	289.819	160.919	165.675	164.903	170.167	312.414	170.567	-8191	255	
40514.441	1	1	0	0	0.1778	0.088639	0.21566	0.6051	0.14031	0.17059	0.17829	0.10358	0.3012	0.12911	0.19131	0.17102	0.07544	0.15201	0.12913	0.095345	-2.6688	-3.7833	-3.4521	-3.2521	-3.9604	-3.1729	-3.725	-4.0417	-3.2521	-3.8646	-3.8063	-3.3625	-4.1604	-3.5062	-3.4417	-4.0521	313.787	184.024	274.020	143.794	201.609	362.008	430.322	501.619	340.167	198.396	473.084	200.008	209.561	474.983	433.571	480.675	0.00041432	0.0006818	0.00031652	1098	3.7868e-06	5.7043e-06	1410.6	302.15	1.1023e-06	3.8711e-06	481.8	145.53	74.82	18.786	2.2143e-06	50.688	0.0011352	0.0012018	0.00033324	1056.1	1.285e-05	1.3038e-05	1357.5	292.59	1.3102e-05	1.3562e-05	465.86	142.62	74.966	19.258	1.3361e-05	49.86	229.693	256.436	231.397	157.093	315.320	285.784	157.354	160.728	193.623	278.863	160.799	165.703	165.144	170.565	231.562	170.646	-8191	255	
40514.539	1	1	0	0	0.18465	0.19077	0.087461	0.18158	0.12897	0.01709	0.31006	0.2042	0.19561	0.28144	0.24427	0.44668	0.064383	0.20112	0.069735	0.27327	-2.7375	-3.6333	-3.8708	-3.3292	-3.9417	-3.4604	-3.6229	-3.9875	-3.225	-3.6521	-3.9188	-3.2583	-4.0792	-3.3688	-3.2458	-4.0938	497.797	356.745	297.750	409.925	373.293	203.561	362.095	467.338	203.981	393.712	494.545	461.786	251.228	354.299	161.598	358.674	0.00052801	0.00018528	0.00013884	1086	5.753e-06	3.3209e-06	1413.7	299.62	9.1866e-06	9.7127e-06	480.57	146.5	75.285	18.973	8.4182e-06	50.348	0.0011308	0.0011985	0.00033699	1050.1	1.3e-05	1.3221e-05	1354.4	290.36	1.3003e-05	1.3386e-05	465.49	142.81	74.9	19.375	1.3147e-05	49.873	230.272	468.580	190.792	157.307	317.615	386.472	157.413	161.181	322.073	301.201	160.921	165.634	165.269	170.213	218.747	170.540	-8191	255	
40514.660	1	1	0	0	0.088011	0.20632	0.034969	0.3113	0.097282	0.32558	0.44042	0.36878	0.16448	0.13947	0.3307	0.18664	0.24844	0.09313	0.1798	0.24067	-2.8083	-3.5771	-3.7625	-3.2021	-3.7917	-3.4396	-3.3896	-4.125	-3.2896	-3.5708	-3.9542	-3.3	-3.8771	-3.5833	-3.0687	-4.0833	377.531	209.946	490.082	487.904	409.788	426.806	431.117	401.743	288.873	328.514	382.836	408.845	447.137	468.791	247.945	149.228	0.00037843	0.00027077	0.00017165	1100.2	1.0283e-05	5.8602e-06	1421.3	306.33	5.7813e-06	2.8371e-06	488.61	149.31	77.915	19.451	6.668e-06	51.249	0.0010956	0.0011793	0.0003236	1055.9	1.2205e-05	1.2515e-05	1365.3	295.66	1.2073e-05	1.2244e-05	471.72	144.73	76.796	19.699	1.2107e-05	50.494	224.630	470.196	502.824	157.121	348.916	301.278	157.227	160.993	308.565	411.352	161.033	165.747	165.065	169.840	318.421	170.443	-8191	255	
40514.758	1	1	0	0	0.079345	0.24256	0.2424	0.25518	0.25192	0.17746	0.28247	0.17406	0.15544	0.15455	0.23868	0.060982	0.4215	0.22695	0.11139	0.15884	-3.0292	-3.4667	-3.8771	-3.1562	-3.7875	-3.6667	-3.5375	-4.0479	-3.4062	-3.5187	-4.1167	-3.3375	-3.8479	-3.7687	-3.1312	-4.0625	178.341	344.126	341.237	484.506	280.361	383.748	476.459	469.692	317.218	402.858	448.563	176.830	488.796	154.482	352.997	474.834	0.00060786	0.00093418	0.00014739	1129.2	2.7595e-06	1.0878e-05	1455.9	312.76	1.5839e-06	2.8263e-06	496.76	150.79	79.334	19.914	1.1996e-05	51.652	0.0010276	0.0010997	0.00030572	1087.6	1.1827e-05	1.2036e-05	1393	303.28	1.1783e-05	1.2105e-05	478.58	146.42	78.129	20.02	1.2155e-05	50.646	229.359	236.276	477.547	157.108	375.365	243.187	157.134	161.021	438.900	376.180	160.911	165.630	165.252	169.499	262.640	170.032	-8191	255	
40514.828	1	1	0	0	0.11258	0.10243	0.12142	0.11128	0.11071	0.10258	0.13141	0.057853	0.23424	0.30986	0.22223	0.10846	0.15126	0.085853	0.057723	0.032655	-3.1021	-3.45	-3.9354	-3.3	-3.5771	-3.8521	-3.2521	-3.7583	-3.5333	-3.0521	-4.0687	-3.2583	-3.5417	-3.8292	-3.2562	-3.9437	255.567	142.923	408.797	384.669	236.915	419.128	461.666	413.645	481.924	335.075	474.392	486.928	461.375	214.486	478.069	220.638	0.00044748	0.00047819	0.00017446	1147.1	5.2733e-06	1.0515e-05	1454.8	312.94	5.0117e-06	3.9284e-06	495.61	149.84	79.361	19.602	1.2457e-05	51.348	0.0010332	0.0011054	0.00031098	1099.1	1.2026e-05	1.2283e-05	1394.9	303.87	1.2094e-05	1.2248e-05	477.15	146.01	78.167	19.951	1.2198e-05	50.391	220.729	151.670	192.555	157.061	294.327	310.482	157.457	160.893	282.815	317.492	161.185	165.429	164.949	169.469	231.612	170.447	-8191	255	
40514.949	1	1	0	0	0.13423	0.052466	0.069479	0.041488	0.27226	0.26165	0.14039	0.11407	0.26197	0.11392	0.18951	0.18967	0.28652	0.14314	0.16362	0.1911	-3.1542	-3.2229	-3.7438	-3.2562	-3.5875	-3.9688	-3.1813	-3.8854	-3.5271	-3.0833	-4.1333	-3.4562	-3.5417	-3.8125	-3.0125	-3.8979	186.962	393.553	317.495	350.542	246.674	345.619	462.255	450.426	148.258	251.920	457.513	176.594	331.605	474.347	270.956	326.181	0.00046348	0.00099364	0.00013973	1135.5	1.069e-05	6.9472e-06	1455.6	314.61	8.4096e-06	3.0797e-06	496.18	149.73	78.119	19.635	2.6502e-06	51.566	0.0010437	0.0010843	0.00030835	1095.2	1.1764e-05	1.2052e-05	1393.3	304.69	1.1886e-05	1.2086e-05	476.51	145.68	77.717	20.009	1.1951e-05	50.554	225.908	187.061	237.872	157.064	279.452	295.526	157.412	160.745	298.713	309.200	160.719	165.501	164.481	169.008	175.327	169.996	-8191	255	
40515.047	1	1	0	0	0.038225	0.08873	0.22031	0.21948	0.091584	0.29438	0.31388	0.068125	0.13357	0.13579	0.14938	0.2971	0.04962	0.12124	0.31667	0.42725	-3.45	-3.1229	-4.0417	-3.4771	-3.4625	-3.9333	-3.4521	-3.85	-3.7917	-3.1854	-4.05	-3.5812	-3.2542	-3.9604	-3.1146	-3.55	414.513	411.398	309.387	397.633	348.979	203.028	458.380	336.732	265.254	330.621	229.659	425.145	435.720	463.613	331.702	431.739	0.00055846	0.00014267	0.00031633	1144.1	1.7327e-06	1.9893e-06	1456.6	315.86	4.0632e-06	2.2402e-06	498.03	150.54	79.038	19.915	7.0732e-06	51.99	0.0010039	0.0010901	0.00029785	1101.3	1.1669e-05	1.1916e-05	1396.3	304.93	1.178e-05	1.1681e-05	479.1	146.89	78.337	20.121	1.1807e-05	51.144	228.861	326.126	199.010	157.266	382.115	204.994	157.244	160.859	232.207	474.758	161.103	165.557	164.880	169.674	343.913	170.188	-8191	255	
40515.141	1	1	0	0	0.098345	0.16975	0.20804	0.14618	0.24636	0.10247	0.32918	0.17305	0.17977	0.055408	0.15768	0.29754	0.44978	0.095009	0.17064	0.078989	-3.4875	-3.0438	-3.7729	-3.5896	-3.2	-3.8688	-3.4167	-3.5687	-3.7521	-3	-3.825	-3.7083	-3.2313	-3.975	-3.3375	-3.6042	278.565	231.241	411.651	484.653	146.041	150.388	434.672	414.946	485.260	263.513	489.071	379.051	463.713	405.110	391.910	396.466	0.00049417	0.00047126	0.00020001	1135.4	8.1699e-06	5.0681e-06	1449.3	312.42	3.9756e-06	6.3023e-06	493.92	151.12	78.277	19.783	4.6686e-06	52.072	0.0010175	0.0010681	0.00030335	1093.3	1.1776e-05	1.2155e-05	1389.2	301.84	1.2065e-05	1.2203e-05	477.74	146.86	77.672	20.005	1.1902e-05	51.12	216.231	239.643	234.698	157.307	247.148	259.742	157.464	161.047	352.819	205.896	161.095	165.767	164.658	169.360	261.839	170.073	-8191	255	
40515.234	1	1	0	0	0.12565	0.077982	0.21918	0.074498	0.15488	0.15511	0.33062	0.12634	0.11723	0.11288	0.32057	0.19552	0.10509	0.20403	0.15658	0.25222	-3.4292	-2.9167	-3.8438	-3.8479	-3.1646	-4.0896	-3.7313	-3.6417	-4.0146	-3.1312	-3.9229	-3.9542	-3.1854	-3.8625	-3.1604	-3.5333	259.515	459.032	321.842	337.451	392.254	395.629	462.480	423.509	438.610	321.265	472.718	434.365	266.488	204.059	165.381	481.363	0.00050148	0.00057677	0.00015089	1132.4	2.1264e-06	9.0671e-06	1443.7	311.74	7.7162e-06	5.5232e-06	494.29	150.25	78.634	19.765	3.3218e-06	51.675	0.0010297	0.0010907	0.00029989	1088.1	1.182e-05	1.2023e-05	1387.5	301.37	1.1929e-05	1.1791e-05	476.09	146.51	77.895	20.038	1.1869e-05	50.823	228.823	315.009	258.556	157.239	285.482	210.665	157.476	160.918	336.706	348.144	160.913	165.678	164.454	169.947	282.649	170.012	-8191	255	
40515.332	1	1	0	0	0.20715	0.10951	0.17001	0.10316	0.16299	0.052361	0.30053	0.21543	0.14636	0.16791	0.13806	0.33014	0.12753	0.22515	0.047112	0.028288	-3.6688	-3.2146	-3.8229	-3.9042	-3.2542	-4.0312	-3.5604	-3.575	-4.0625	-3.2208	-3.9333	-3.9333	-3.1875	-4.125	-3.35	-3.3604	253.799	265.648	207.917	433.620	293.372	398.675	442.600	201.583	262.114	459.398	235.137	243.465	497.852	499.269	478.432	439.453	0.00053205	0.00067234	7.6839e-05	1137.1	5.8228e-06	5.4119e-06	1455.5	312.72	4.9986e-06	5.1499e-06	496.79	150.86	78.501	19.838	7.0345e-06	52.039	0.0010199	0.0010846	0.0003023	1093.1	1.179e-05	1.1939e-05	1392.3	302.2	1.1777e-05	1.2024e-05	478.16	146.97	78.026	20.047	1.1968e-05	51.082	214.452	219.694	261.314	157.166	300.369	227.554	157.432	160.709	306.771	295.673	160.982	165.719	164.816	169.951	408.301	170.273	-8191	255	
40515.430	1	1	0	0	0.10139	0.17839	0.092416	0.34756	0.17546	0.099503	0.4445	0.28472	0.13851	0.1602	0.25733	0.23647	0.059331	0.25709	0.11628	0.38441	-3.625	-3.1354	-3.4437	-3.925	-3.1333	-4.0125	-3.8271	-3.5208	-3.9396	-3.1646	-3.7562	-4.0563	-3.1896	-3.9	-3.4208	-3.3729	297.367	398.148	411.501	418.351	357.079	326.546	447.410	151.773	157.699	477.236	189.666	261.965	470.232	380.126	343.799	429.907	0.00047259	0.00080916	0.00022346	1132.6	6.3102e-06	3.6888e-06	1448.2	310.44	3.3871e-06	3.9233e-06	492.74	152.55	78.151	19.745	6.3743e-06	52.182	0.0010311	0.0010808	0.00029905	1087.2	1.1679e-05	1.1693e-05	1386.7	299.81	1.1762e-05	1.1794e-05	475.97	147.95	77.736	19.998	1.1725e-05	51.441	227.561	276.334	280.193	157.349	318.545	293.503	157.231	160.840	340.134	285.681	161.241	165.695	165.337	169.506	289.501	170.417	-8191	255	
40515.523	1	1	0	0	0.077759	0.084877	0.028938	0.28626	0.33011	0.14857	0.27138	0.21344	0.13409	0.29266	0.2461	0.13372	0.19968	0.12446	0.05676	0.082313	-3.7938	-3.2479	-3.4708	-4.1333	-3.2146	-3.8271	-4.0542	-3.3646	-3.9167	-3.3583	-3.3021	-4.0125	-3.1896	-3.7229	-3.7646	-3.2396	260.892	416.311	144.080	456.217	449.822	473.104	455.073	453.233	279.735	203.677	144.935	479.665	432.824	429.401	293.732	452.918	0.00051591	0.0007801	0.0001131	1122.9	3.9548e-06	5.531e-06	1437.6	308.04	5.414e-06	6.2496e-06	494.8	152.22	77.787	19.75	5.1088e-06	53.138	0.0010052	0.0010577	0.00029707	1079.2	1.1523e-05	1.1858e-05	1382.7	297.73	1.171e-05	1.1824e-05	475.35	148.11	77.399	20.171	1.1948e-05	52.027	237.919	275.574	295.257	157.261	501.674	332.039	157.387	160.834	293.946	357.907	161.243	165.424	164.779	169.758	264.418	170.656	-8191	255	
40515.621	1	1	0	0	0.11608	0.17376	0.12467	0.25391	0.19634	0.13434	0.31887	0.076153	0.12253	0.13915	0.099507	0.1447	0.19091	0.2004	0.2313	0.41304	-3.725	-3.4958	-3.5021	-3.9292	-3.3187	-3.6979	-4.0312	-3.4188	-3.975	-3.4833	-3.6083	-4.2354	-3.1979	-3.7458	-3.8312	-3.3833	354.401	323.222	465.368	473.865	278.432	286.724	470.833	474.767	236.807	488.689	157.849	417.511	415.864	360.373	339.712	391.479	0.00055232	0.0009415	0.00026659	1113.3	3.162e-06	5.0865e-06	1428.3	303.69	9.011e-06	6.3738e-06	489.58	152.59	77.65	19.799	6.8245e-06	53.092	0.0010289	0.0010842	0.000301	1068.8	1.1804e-05	1.2044e-05	1375	294.23	1.1825e-05	1.2085e-05	473.57	148.82	77.056	20.039	1.1888e-05	52.076	219.558	202.536	298.005	157.188	329.263	287.177	157.507	160.688	288.012	279.781	161.226	166.143	165.115	169.688	267.080	170.574	-8191	255	
40515.738	1	1	0	0	0.21783	0.1609	0.27176	0.14929	0.21899	0.062714	0.051046	0.13987	0.25425	0.045347	0.29565	0.09545	0.074718	0.080337	0.039221	0.22338	-3.6958	-3.5208	-3.2958	-4.1021	-3.4146	-3.5187	-4.125	-3.2917	-3.8729	-3.7854	-3.4167	-4.2146	-3.4854	-3.4562	-3.9875	-3.2729	158.515	206.858	267.720	479.453	231.884	444.421	408.787	157.048	477.563	351.341	432.672	472.436	374.698	399.376	207.126	486.386	0.00054263	0.00043751	0.00020086	1098.5	9.7586e-07	1.3275e-06	1424.3	301.97	5.1259e-06	7.373e-06	489.04	151.74	77.085	19.871	2.1696e-06	53.482	0.0010184	0.0010883	0.00030225	1057.2	1.1772e-05	1.2166e-05	1368.3	292.05	1.1894e-05	1.2162e-05	472.31	148.57	76.78	20.069	1.2126e-05	52.338	216.109	217.143	249.432	156.671	249.109	365.690	157.399	160.742	247.767	208.199	161.257	165.702	165.281	169.410	395.399	170.574	-8191	255	
40515.836	1	1	0	0	0.23503	0.050873	0.19885	0.15293	0.2352	0.12549	0.30339	0.18516	0.10485	0.29419	0.33383	0.12846	0.25269	0.16057	0.20086	0.23315	-3.5458	-3.8479	-3.1625	-4.1604	-3.4188	-3.5938	-4.0479	-3.3896	-3.6417	-3.6875	-3.4938	-4.025	-3.5354	-3.4375	-3.9875	-3.2812	357.984	478.332	143.780	383.378	336.479	361.510	424.785	411.564	427.164	161.550	490.784	297.191	164.874	198.458	322.592	476.333	0.00051043	0.00093449	0.00021767	1095	2.959e-06	6.2811e-06	1425.8	299.88	6.1116e-06	5.7362e-06	490.34	152.81	77.44	19.817	7.4273e-06	52.987	0.0010473	0.0011013	0.00030587	1050.9	1.1642e-05	1.2143e-05	1363.1	290.52	1.1984e-05	1.2284e-05	472.38	148.42	76.495	19.947	1.2151e-05	52.227	221.385	164.583	259.347	157.093	198.848	223.285	157.315	161.109	333.499	311.112	161.291	165.703	165.052	169.972	280.982	170.702	-8191	255	
40515.934	1	1	0	0	0.26943	0.16036	0.090661	0.1189	0.17975	0.1523	0.18295	0.1621	0.20879	0.11944	0.087473	0.14588	0.21261	0.11052	0.25048	0.016677	-3.3042	-3.8	-3.0458	-4.1104	-3.5438	-3.275	-4.2958	-3.3979	-3.5958	-3.8583	-3.2375	-4.0062	-3.6896	-3.2604	-4.0917	-3.3688	342.132	265.817	157.838	346.956	438.088	187.143	416.543	455.503	454.996	309.826	404.366	498.128	481.978	407.978	347.906	458.105	0.00053273	0.00049772	0.00033104	1097.6	5.7518e-06	2.6059e-06	1423.4	301.6	5.6547e-06	1.1974e-06	489.6	151.4	78.096	19.631	5.3122e-06	52.63	0.0010344	0.0010953	0.00030683	1054	1.1651e-05	1.1973e-05	1362.2	291.66	1.19e-05	1.1955e-05	472.3	148.12	76.981	19.969	1.1965e-05	51.975	227.826	241.363	246.227	157.247	359.066	155.468	157.602	160.989	318.411	274.844	161.091	165.603	164.851	169.598	334.068	170.349	-8191	255	
40516.027	1	1	0	0	0.042754	0.16415	0.11555	0.095432	0.38585	0.13623	0.34044	0.17698	0.20571	0.19946	0.31463	0.077914	0.11907	0.36878	0.16207	0.19084	-3.2729	-4.0125	-3.0896	-4.025	-3.6771	-3.2479	-4.1208	-3.4583	-3.4979	-4.0042	-3.2875	-3.9542	-3.6396	-3.175	-3.8521	-3.5917	350.913	481.878	419.048	151.328	179.039	143.350	470.945	419.805	399.279	332.630	458.019	229.610	496.528	390.022	429.459	465.022	0.00051751	0.00059408	2.6545e-05	1109.4	1.0259e-05	3.3216e-06	1437.1	305.12	5.8686e-06	7.2432e-06	491.08	152.05	77.998	19.525	4.5817e-06	52.852	0.0010277	0.0010843	0.00030425	1065	1.1724e-05	1.2076e-05	1375	294.79	1.1996e-05	1.2127e-05	473.58	148.08	77.071	19.848	1.221e-05	51.849	225.691	234.553	482.848	156.948	270.877	352.730	157.366	160.830	258.938	282.381	160.855	165.401	165.073	169.649	287.794	170.177	-8191	255	
40516.125	1	1	0	0	0.11582	0.15443	0.066221	0.36837	0.048494	0.25946	0.10289	0.18253	0.073308	0.17808	0.093653	0.30779	0.031061	0.14132	0.16573	0.32898	-3.1229	-3.9354	-3.2146	-3.8937	-3.6917	-3.1771	-4.2021	-3.6375	-3.2812	-3.9104	-3.2938	-3.7833	-3.6042	-3.0646	-3.9292	-3.5167	144.408	257.802	432.987	471.152	447.814	424.989	421.611	476.747	400.852	185.426	164.804	169.988	177.971	316.203	265.322	287.142	0.00040231	0.0010222	0.00016052	1103.7	4.25e-06	1.3541e-05	1426.5	304.77	4.7042e-06	2.4883e-06	487.62	149.89	77.848	19.575	8.5709e-06	52.024	0.0010484	0.0011069	0.00031132	1061.7	1.2255e-05	1.224e-05	1368.3	293.91	1.2048e-05	1.2128e-05	471.24	146.59	76.876	19.823	1.2103e-05	51.203	223.702	243.905	227.816	157.232	288.419	324.953	157.228	160.482	364.901	374.509	160.947	165.797	165.189	170.414	374.257	170.378	-8191	255	
40516.223	1	1	0	0	0.15685	0.13369	0.13967	0.15291	0.16538	0.26432	0.16463	0.093753	0.17647	0.13342	0.52795	0.15373	0.029709	0.32778	0.23107	0.24789	-2.85	-4.1062	-3.3083	-3.6708	-3.7562	-3.0417	-4.2312	-3.8333	-3.3167	-3.9021	-3.5229	-3.7479	-4.0563	-3.1375	-3.9229	-3.7188	161.822	172.615	204.681	455.523	312.451	444.896	330.351	160.584	421.542	355.275	416.951	430.400	297.118	357.070	237.506	487.824	0.00050379	0.00046871	0.00016338	1114.8	5.7309e-06	3.3655e-06	1431.2	307.45	2.6417e-06	6.5361e-06	489.66	150.57	78.487	19.677	8.2948e-06	52.195	0.0010374	0.0010969	0.00030779	1070.7	1.1934e-05	1.2158e-05	1375.8	297.62	1.2022e-05	1.2225e-05	472.43	147.21	77.524	19.915	1.2137e-05	51.445	225.630	225.938	242.770	157.145	206.767	451.012	157.427	161.040	190.074	334.977	161.316	165.837	164.863	169.713	301.893	170.594	-8191	255	
40516.340	1	1	0	0	0.22758	0.028358	0.068723	0.1827	0.13908	0.29047	0.084669	0.22671	0.077327	0.057783	0.2033	0.08828	0.20801	0.13389	0.10335	0.15179	-3.0417	-3.9313	-3.3458	-3.5438	-3.9708	-3.0812	-3.9688	-3.6875	-3.2854	-4.0125	-3.5021	-3.4167	-3.9188	-3.2646	-3.7708	-3.925	375.250	283.013	188.437	157.244	277.314	146.545	402.825	145.998	384.278	341.868	145.534	211.315	435.604	190.333	470.706	462.377	0.00061432	0.00080554	0.00013408	1119.1	7.3128e-06	8.3321e-06	1445.7	309.72	5.2309e-06	3.0388e-06	492.29	151.96	78.432	19.788	9.3718e-06	52.676	0.001048	0.0010907	0.00030786	1077.5	1.1965e-05	1.2185e-05	1383.3	299.25	1.1996e-05	1.214e-05	477.32	148.04	77.845	20.067	1.218e-05	51.708	219.474	253.561	207.268	157.172	314.244	312.395	157.121	160.641	267.323	377.962	161.421	165.705	165.153	169.662	286.559	170.254	-8191	255	
40516.438	1	1	0	0	0.17769	0.25996	0.063248	0.17598	0.11128	0.19224	0.1553	0.19847	0.041166	0.23706	0.10467	0.16652	0.41422	0.10023	0.16756	0.16339	-2.8521	-3.9396	-3.4521	-3.3958	-4.0312	-3.1021	-3.9292	-3.775	-3.2104	-4.0146	-3.7042	-3.3312	-4.0938	-3.2396	-3.7021	-3.8625	386.469	364.575	496.495	208.324	263.889	331.075	406.746	476.020	388.259	178.576	373.709	448.478	474.377	162.915	424.100	199.909	0.00051685	0.0010026	9.5062e-05	1130.1	5.641e-06	3.8208e-06	1442.3	312.79	5.1929e-06	6.0011e-06	497.25	150.88	78.727	19.687	1.8014e-06	52.685	0.0010266	0.001097	0.00030292	1085.4	1.1884e-05	1.2073e-05	1388.9	300.97	1.1834e-05	1.2197e-05	478.33	147.89	78.259	20.06	1.2292e-05	51.752	225.074	187.776	291.118	157.203	298.235	268.223	157.291	160.854	328.205	207.699	160.804	165.515	165.345	169.891	145.140	170.449	-8191	255	
40516.531	1	1	0	0	0.06853	0.13347	0.16173	0.43138	0.2133	0.077615	0.22292	0.10162	0.29736	0.12164	0.057711	0.14578	0.054098	0.13588	0.223	0.21641	-2.7667	-3.9	-3.4271	-3.375	-4.0375	-3.3312	-3.6188	-3.8063	-3.0854	-3.8917	-3.7625	-3.3333	-4.0521	-3.3083	-3.3729	-3.9708	149.476	380.362	151.950	495.467	325.920	227.891	435.497	481.083	225.605	471.636	352.492	448.791	350.691	145.956	200.200	438.364	0.00055913	0.00072374	0.00012182	1135.2	5.8136e-06	4.9274e-06	1446.6	311.2	3.8605e-06	6.9865e-06	492.99	152.65	78.947	19.911	4.7712e-06	52.501	0.001022	0.0010965	0.00030546	1089.4	1.1783e-05	1.1954e-05	1387.7	300.39	1.1792e-05	1.1885e-05	476.89	148.07	78.359	20.175	1.2061e-05	51.699	230.112	178.437	193.646	157.109	373.978	311.035	157.074	161.147	264.421	383.055	161.066	165.611	165.029	169.760	315.961	170.260	-8191	255	
40516.629	1	1	0	0	0.15609	0.15092	0.11541	0.10256	0.065724	0.026023	0.17958	0.15958	0.08587	0.087693	0.24643	0.12748	0.080177	0.35399	0.018648	0.067627	-2.7229	-3.5854	-3.6104	-3.2104	-3.8646	-3.3104	-3.5521	-4.075	-3.2188	-3.6667	-3.8917	-3.2729	-3.8583	-3.4688	-3.1854	-4.0646	186.223	300.547	275.333	454.494	331.005	165.570	446.726	419.478	379.058	390.004	323.472	393.081	385.395	480.093	438.182	164.996	0.00051298	0.0004408	8.9278e-05	1131.7	8.1816e-06	4.9371e-06	1454.5	311.14	3.2189e-06	5.9234e-06	492.78	152.59	79.522	19.883	1.1585e-05	52.554	0.0010268	0.0010901	0.00030715	1085.8	1.1969e-05	1.2125e-05	1388.1	300.82	1.1894e-05	1.2075e-05	476.95	148.08	78.34	20.153	1.2245e-05	51.702	229.239	249.954	284.456	157.215	347.504	270.447	157.588	160.727	253.188	362.708	161.095	165.815	164.871	169.895	227.708	170.287	-8191	255	
40516.727	1	1	0	0	0.17547	0.17722	0.072246	0.011195	0.089541	0.069292	0.22007	0.081769	0.10293	0.071814	0.17593	0.27396	0.051935	0.078022	0.047734	0.16111	-2.8438	-3.5229	-3.8333	-3.2292	-4.0146	-3.5896	-3.5542	-3.9437	-3.2979	-3.5229	-3.9396	-3.1688	-3.7917	-3.6333	-3.0542	-4.0646	339.094	252.499	453.547	467.540	424.743	397.424	446.179	376.853	358.015	441.026	438.447	450.956	406.611	449.070	259.546	365.966	0.00059065	0.00059592	0.00016635	1128.6	7.0929e-06	3.1922e-06	1439.2	310.8	8.9129e-06	6.5674e-06	497.26	152.06	79.351	19.991	7.3703e-06	52.789	0.0010567	0.0011078	0.00030949	1083.7	1.2015e-05	1.2133e-05	1386.3	300.31	1.1997e-05	1.2401e-05	478.69	148.42	78.595	20.252	1.2466e-05	52.027	232.652	214.570	248.472	157.119	309.895	420.046	157.463	160.660	314.776	299.462	161.087	165.385	165.119	169.855	217.058	170.447	-8191	255	
40516.820	1	1	0	0	0.19024	0.07978	0.19126	0.16941	0.055531	0.15658	0.29639	0.10111	0.12628	0.20804	0.16173	0.10875	0.12121	0.19048	0.041542	0.46659	-2.7979	-3.4979	-3.8125	-3.2667	-3.8187	-3.6604	-3.45	-4.0646	-3.4271	-3.5646	-4.075	-3.1875	-3.825	-3.8479	-3.3167	-4.1937	439.701	242.258	502.165	185.537	415.879	327.576	460.077	399.639	430.976	261.359	455.054	367.462	493.588	329.971	387.272	492.309	0.00052319	0.00024465	0.00011608	1125	2.9303e-06	8.5666e-06	1450.9	311.65	3.6157e-06	1.0151e-05	492.63	151.44	78.804	19.777	5.5961e-06	52.054	0.0010667	0.0011173	0.00031517	1082.6	1.2244e-05	1.2484e-05	1390.6	300.72	1.2309e-05	1.2568e-05	477.86	147.8	78.533	20.12	1.2324e-05	51.045	224.792	161.446	171.008	157.146	191.984	476.831	157.153	160.863	454.881	265.999	161.219	165.706	165.161	170.196	349.373	170.335	-8191	255	
40516.918	1	1	0	0	0.17981	0.10597	0.14888	0.18897	0.19761	0.18217	0.2717	0.19769	0.069137	0.014565	0.28361	0.2039	0.11963	0.032933	0.085043	0.091735	-3.1042	-3.3271	-3.8875	-3.3354	-3.6771	-3.8438	-3.3458	-3.9708	-3.4021	-3.4375	-4.2188	-3.3521	-3.5521	-3.9125	-3.2229	-4.0896	289.135	150.038	165.018	452.922	396.522	215.906	479.703	447.219	423.768	406.963	487.485	419.778	200.835	309.553	229.326	377.464	0.00053689	0.00035893	7.0522e-05	1142.8	8.386e-06	3.4111e-06	1453.7	316.99	3.3844e-06	5.5549e-06	494.22	149.54	79.823	19.685	3.3601e-06	51.311	0.0010667	0.0011304	0.00031533	1101.2	1.2281e-05	1.2422e-05	1396.5	305.35	1.2421e-05	1.2478e-05	477.5	146.05	78.882	20.107	1.2301e-05	50.527	214.967	229.928	285.291	157.174	318.315	264.877	157.392	160.942	270.155	295.278	160.990	165.445	165.092	169.772	231.248	169.985	-8191	255	
#DATA ENDS
