BOXY.EXE: ISS Imagent and Oximeter Data Acquisition Program Version 0.80
Ascii Record File

#ACQ INFORMATION
2  Detector Channels 
16  External MUX Channels 
1  Auxiliary Channels 
5000  Waveform (CCF) Frequency (Hz)
1  Waveforms Skipped 
30  Waveforms Averaged 
1  Cycles Averaged 
16  Acquisitions per Waveform 
10.0806  Updata Rate (Hz) 

#FILE INFORMATION
TRUE -- External MUX Channel results are PARSED.
FALSE -- AC DC and Phase are NOT grouped.
TRUE -- Companion Program Settings File CREATED.
FALSE -- AC data not excluded
FALSE -- DC data not excluded
FALSE -- Phase data not excluded
FALSE -- Auxillary Chn. data not excluded
Tab delimiters

#CALIBRATION STATE
TRUE -- Waveform Calibration Values APPLIED.


#AUX CALIBRATION VALUES
Val Type	aux-1	

Term	1.0000e+00	
Factor	0.0000e+00	


#WF CALIBRATION VALUES
A = Detector Channel
Val Type	A-AC1	A-AC2	A-AC3	A-AC4	A-AC5	A-AC6	A-AC7	A-AC8	A-AC9	A-AC10	A-AC11	A-AC12	A-AC13	A-AC14	A-AC15	A-AC16	A-DC1	A-DC2	A-DC3	A-DC4	A-DC5	A-DC6	A-DC7	A-DC8	A-DC9	A-DC10	A-DC11	A-DC12	A-DC13	A-DC14	A-DC15	A-DC16	A-Ph1	A-Ph2	A-Ph3	A-Ph4	A-Ph5	A-Ph6	A-Ph7	A-Ph8	A-Ph9	A-Ph10	A-Ph11	A-Ph12	A-Ph13	A-Ph14	A-Ph15	A-Ph16	

Term	0.00000e+00	0.00000e+00	0.00000e+00	0.00000e+00	0.00000e+00	0.00000e+00	0.00000e+00	0.00000e+00	0.00000e+00	0.00000e+00	0.00000e+00	0.00000e+00	0.00000e+00	0.00000e+00	0.00000e+00	0.00000e+00	0.00000e+00	0.00000e+00	0.00000e+00	0.00000e+00	0.00000e+00	0.00000e+00	0.00000e+00	0.00000e+00	0.00000e+00	0.00000e+00	0.00000e+00	0.00000e+00	0.00000e+00	0.00000e+00	0.00000e+00	0.00000e+00	0.00000e+00	0.00000e+00	0.00000e+00	0.00000e+00	0.00000e+00	0.00000e+00	0.00000e+00	0.00000e+00	0.00000e+00	0.00000e+00	0.00000e+00	0.00000e+00	0.00000e+00	0.00000e+00	0.00000e+00	0.00000e+00	
Factor	1.00000e+00	1.00000e+00	1.00000e+00	1.00000e+00	1.00000e+00	1.00000e+00	1.00000e+00	1.00000e+00	1.00000e+00	1.00000e+00	1.00000e+00	1.00000e+00	1.00000e+00	1.00000e+00	1.00000e+00	1.00000e+00	1.00000e+00	1.00000e+00	1.00000e+00	1.00000e+00	1.00000e+00	1.00000e+00	1.00000e+00	1.00000e+00	1.00000e+00	1.00000e+00	1.00000e+00	1.00000e+00	1.00000e+00	1.00000e+00	1.00000e+00	1.00000e+00	X	X	X	X	X	X	X	X	X	X	X	X	X	X	X	X	

B = Detector Channel
Val Type	B-AC1	B-AC2	B-AC3	B-AC4	B-AC5	B-AC6	B-AC7	B-AC8	B-AC9	B-AC10	B-AC11	B-AC12	B-AC13	B-AC14	B-AC15	B-AC16	B-DC1	B-DC2	B-DC3	B-DC4	B-DC5	B-DC6	B-DC7	B-DC8	B-DC9	B-DC10	B-DC11	B-DC12	B-DC13	B-DC14	B-DC15	B-DC16	B-Ph1	B-Ph2	B-Ph3	B-Ph4	B-Ph5	B-Ph6	B-Ph7	B-Ph8	B-Ph9	B-Ph10	B-Ph11	B-Ph12	B-Ph13	B-Ph14	B-Ph15	B-Ph16	

Term	0.00000e+00	0.00000e+00	0.00000e+00	0.00000e+00	0.00000e+00	0.00000e+00	0.00000e+00	0.00000e+00	0.00000e+00	0.00000e+00	0.00000e+00	0.00000e+00	0.00000e+00	0.00000e+00	0.00000e+00	0.00000e+00	0.00000e+00	0.00000e+00	0.00000e+00	0.00000e+00	0.00000e+00	0.00000e+00	0.00000e+00	0.00000e+00	0.00000e+00	0.00000e+00	0.00000e+00	0.00000e+00	0.00000e+00	0.00000e+00	0.00000e+00	0.00000e+00	-1.36660e+02	-1.60266e+02	-1.34086e+02	-1.83745e+02	-7.87698e+01	-1.00516e+02	-1.56747e+02	-1.62015e+02	-7.40872e+01	-9.28821e+01	-1.74571e+02	-1.71654e+02	-1.88132e+02	-1.77417e+02	-8.50884e+01	-1.50494e+02	
Factor	2.03993e-05	1.07868e-04	3.57229e-05	1.87245e-01	1.07033e-06	1.41399e-06	1.72526e-01	6.12020e-02	1.23551e-06	1.13726e-06	9.66703e-02	3.45722e-02	6.45775e-02	1.00719e-02	1.45188e-06	1.40147e-02	9.56666e-07	9.86707e-07	2.74933e-07	9.45559e-02	1.08021e-08	1.08257e-08	8.21921e-02	3.07922e-02	1.08017e-08	1.08237e-08	4.65095e-02	1.66970e-02	3.00134e-02	5.01095e-03	1.08182e-08	6.73353e-03	X	X	X	X	X	X	X	X	X	X	X	X	X	X	X	X	



#DISTANCE SETTINGS
A = Detector Channel
A-1	A-2	A-3	A-4	A-5	A-6	A-7	A-8	A-9	A-10	A-11	A-12	A-13	A-14	A-15	A-16	

2.5000e+00	3.0000e+00	2.5000e+00	3.0000e+00	2.0000e+00	3.0000e+00	1.5000e+00	3.0000e+00	3.0000e+00	3.0000e+00	3.0000e+00	3.0000e+00	3.0000e+00	3.0000e+00	1.5000e+00	3.0000e+00	

B = Detector Channel
B-1	B-2	B-3	B-4	B-5	B-6	B-7	B-8	B-9	B-10	B-11	B-12	B-13	B-14	B-15	B-16	

1.0000e+01	1.0000e+01	1.0000e+01	1.4400e+00	1.0000e+01	1.0000e+01	1.5100e+00	1.9400e+00	1.0000e+01	1.0000e+01	1.9900e+00	2.4900e+00	2.4100e+00	2.9000e+00	1.0000e+01	2.9800e+00	




#DATA BEGINS
time	group	step	mark	flag	A-AC1	A-AC2	A-AC3	A-AC4	A-AC5	A-AC6	A-AC7	A-AC8	A-AC9	A-AC10	A-AC11	A-AC12	A-AC13	A-AC14	A-AC15	A-AC16	A-DC1	A-DC2	A-DC3	A-DC4	A-DC5	A-DC6	A-DC7	A-DC8	A-DC9	A-DC10	A-DC11	A-DC12	A-DC13	A-DC14	A-DC15	A-DC16	A-Ph1	A-Ph2	A-Ph3	A-Ph4	A-Ph5	A-Ph6	A-Ph7	A-Ph8	A-Ph9	A-Ph10	A-Ph11	A-Ph12	A-Ph13	A-Ph14	A-Ph15	A-Ph16	B-AC1	B-AC2	B-AC3	B-AC4	B-AC5	B-AC6	B-AC7	B-AC8	B-AC9	B-AC10	B-AC11	B-AC12	B-AC13	B-AC14	B-AC15	B-AC16	B-DC1	B-DC2	B-DC3	B-DC4	B-DC5	B-DC6	B-DC7	B-DC8	B-DC9	B-DC10	B-DC11	B-DC12	B-DC13	B-DC14	B-DC15	B-DC16	B-Ph1	B-Ph2	B-Ph3	B-Ph4	B-Ph5	B-Ph6	B-Ph7	B-Ph8	B-Ph9	B-Ph10	B-Ph11	B-Ph12	B-Ph13	B-Ph14	B-Ph15	B-Ph16	aux-1	digaux	

929.025	1	1	0	256	0.17689	0.24298	0.12037	0.2138	0.11138	0.17579	0.22937	0.044561	0.17798	0.050919	0.23812	0.051524	0.18245	0.31334	0.12026	0.24409	-1.5312	-2.1708	-2.4979	-1.9792	-2.3896	-2.1583	-1.8854	-2.4437	-2.0417	-2.2146	-2.5417	-1.8208	-2.2854	-2.2146	-1.7083	-2.5104	377.748	436.639	292.908	274.550	341.586	371.301	348.327	428.497	490.118	497.849	421.316	161.006	418.069	367.881	305.851	503.080	0.00019409	0.00043444	0.00029893	230.25	1.1346e-05	1.6185e-05	264.92	97.31	4.0281e-06	8.769e-06	113.75	46.052	38.507	20.265	1.0392e-05	22.721	0.0024322	0.002489	0.00069465	455.19	2.7234e-05	2.7168e-05	458.15	170.28	2.721e-05	2.7315e-05	222.35	85.226	109.34	31.484	2.7254e-05	38.079	150.211	307.991	474.112	163.730	238.932	301.261	160.637	167.975	280.584	181.664	164.126	167.291	173.489	176.214	411.354	170.825	-8191	255	
929.122	1	1	0	0	0.27592	0.14712	0.14306	0.34131	0.25312	0.17721	0.10917	0.12038	0.256	0.12776	0.066908	0.49442	0.042515	0.31283	0.070012	0.089461	-1.5646	-1.9042	-2.4646	-1.8708	-2.4417	-2.4771	-2.0042	-2.6521	-2.0687	-1.7854	-2.7042	-1.9646	-2.3854	-2.4813	-1.9375	-2.4792	192.059	415.101	383.783	387.262	376.404	291.732	355.838	498.901	247.226	162.627	458.046	485.548	401.597	153.088	275.257	381.844	0.00027923	0.00087358	0.00021853	228.33	6.0301e-06	1.7616e-05	268.34	97.054	2.0541e-05	8.2702e-06	114.9	47.169	39.184	19.927	2.0848e-05	23.205	0.002403	0.0024749	0.00068889	453.61	2.7148e-05	2.7196e-05	460.23	170.23	2.7114e-05	2.7206e-05	222.68	85.34	109.09	31.407	2.7272e-05	38.259	152.126	446.134	225.095	163.344	172.749	292.854	161.621	168.221	283.482	268.994	163.538	168.227	172.647	176.836	339.972	171.262	-8191	255	
929.217	1	1	0	0	0.18434	0.069337	0.14214	0.032184	0.29518	0.17285	0.12908	0.31414	0.0676	0.17938	0.1011	0.059103	0.056109	0.14145	0.24599	0.21986	-1.7333	-2.175	-2.7938	-1.7458	-2.3312	-2.4188	-1.775	-2.5771	-2.3271	-1.9813	-2.5917	-1.7896	-2.1521	-2.4229	-1.5708	-2.5333	215.945	474.094	479.975	153.911	239.921	429.834	285.666	432.585	368.201	312.845	207.087	502.654	292.621	323.880	248.121	497.418	0.0003279	0.00093444	0.00026925	229.71	3.1736e-06	6.9613e-06	271.96	98.916	5.7077e-06	8.8183e-06	116.94	47.165	40.114	20.197	7.4604e-06	23.174	0.0024197	0.0024927	0.00069717	457.47	2.7339e-05	2.7383e-05	464.1	171.59	2.7348e-05	2.7294e-05	224.02	85.942	110.03	31.61	2.7284e-05	38.415	200.170	173.538	341.503	164.054	356.205	482.497	161.355	167.919	290.165	150.926	163.843	167.738	172.566	175.997	508.198	171.084	-8191	255	
929.313	1	1	0	0	0.11827	0.42707	0.16946	0.12479	0.25293	0.047083	0.099573	0.15494	0.082737	0.099904	0.057328	0.38273	0.083571	0.1024	0.18769	0.22652	-1.875	-1.8979	-2.5021	-2.0979	-2.0187	-2.525	-1.9583	-2.5104	-2.5438	-1.825	-2.5563	-2.1854	-2.0792	-2.5563	-2.05	-2.4417	331.083	197.023	373.060	501.742	357.958	212.651	454.296	283.908	416.164	472.218	209.171	391.716	293.362	175.574	460.096	358.463	0.00052484	0.00016474	0.00027616	229.17	1.765e-05	1.225e-05	271.1	98.878	1.0901e-06	2.1077e-06	115.24	46.718	39.717	20.273	3.5319e-05	23.06	0.0024191	0.0024852	0.00069498	457.31	2.7182e-05	2.7259e-05	460.64	170.44	2.6987e-05	2.7078e-05	222.27	84.747	108.68	31.307	2.681e-05	37.993	155.674	280.683	388.465	163.488	288.716	217.129	160.574	168.336	191.390	286.605	164.391	167.260	170.683	175.889	479.179	171.375	-8191	255	
929.409	1	1	0	0	0.28383	0.37224	0.20792	0.13332	0.03332	0.12556	0.17416	0.17288	0.17783	0.1703	0.21897	0.070928	0.10432	0.13622	0.091988	0.089953	-1.9208	-1.775	-2.6708	-2.2979	-2.3167	-2.6312	-1.9312	-2.2167	-2.6229	-1.9333	-2.7479	-2.5604	-2.0438	-2.7354	-1.9833	-2.2938	260.134	450.207	434.644	475.283	403.988	505.942	392.900	407.077	255.425	259.041	454.964	503.935	383.341	321.640	285.901	194.242	0.00046711	0.0016953	0.00015907	232.17	7.0939e-06	1.1848e-05	268.8	97.662	3.4665e-06	1.5941e-05	115.87	47.123	38.693	20.151	1.5171e-05	23.039	0.0023695	0.0024487	0.00068463	453.07	2.6829e-05	2.6918e-05	457.36	169.08	2.6678e-05	2.6579e-05	220.07	84.345	107.83	31.186	2.659e-05	37.858	201.301	192.762	215.292	164.245	311.751	297.957	161.198	167.913	295.560	499.910	163.647	167.630	169.929	176.146	163.367	171.444	-8191	255	
929.530	1	1	0	0	0.059822	0.19839	0.099977	0.2554	0.092312	0.15398	0.16038	0.22415	0.13625	0.26014	0.14624	0.16125	0.28371	0.23837	0.24571	0.21218	-2.1708	-1.9833	-2.6375	-2.1479	-1.8104	-2.8875	-2.1396	-2.3	-2.5896	-1.9792	-2.3958	-2.3563	-1.9417	-2.8063	-2.1375	-2.0125	349.478	167.910	244.510	338.181	166.600	466.545	428.028	464.922	475.220	473.831	161.275	498.925	414.420	221.450	337.401	450.639	0.00031037	0.00058673	0.00032048	233.9	6.5256e-06	3.7848e-06	267.85	99.956	1.0696e-05	1.0877e-05	114.54	47.461	39.003	20.206	6.2708e-06	23.43	0.0023564	0.0024243	0.00067785	451.72	2.6452e-05	2.6585e-05	455.95	169.37	2.6314e-05	2.6489e-05	220.22	84.672	106.75	31.122	2.6144e-05	37.857	188.683	368.469	251.895	164.205	438.012	378.360	161.085	168.164	279.824	279.769	164.422	167.977	171.591	176.425	257.505	171.010	-8191	255	
929.626	1	1	0	0	0.048731	0.13686	0.28747	0.12328	0.1797	0.15068	0.18021	0.16672	0.33278	0.3083	0.34537	0.10878	0.12701	0.22586	0.19769	0.14747	-2.0521	-1.7896	-2.2229	-2.5146	-1.7938	-2.5812	-2.0646	-2.0833	-2.6417	-2.0396	-2.3625	-2.7542	-1.6771	-2.7083	-2.0604	-2.0396	182.323	338.667	181.135	435.428	197.532	223.137	215.760	165.002	196.839	152.167	336.620	379.746	213.424	389.176	466.091	360.402	0.00050803	0.00042591	7.8497e-05	233.06	1.5028e-05	9.8207e-06	269.23	100.9	8.1777e-06	8.2306e-06	115.08	48.066	39.195	20.487	8.0183e-06	23.392	0.0023253	0.0023683	0.00066398	448.99	2.6074e-05	2.5976e-05	454.48	168.14	2.6077e-05	2.5943e-05	218.95	84.105	106.09	31.212	2.5934e-05	37.748	173.379	207.833	356.589	163.618	405.238	202.476	160.939	168.305	310.303	190.027	164.335	168.629	171.659	176.302	238.057	171.266	-8191	255	
929.722	1	1	0	0	0.28905	0.24241	0.18925	0.077585	0.023086	0.23059	0.11532	0.24129	0.10504	0.16308	0.18689	0.10367	0.16176	0.10015	0.2224	0.11697	-2.2729	-1.9208	-2.3604	-2.3708	-1.9542	-2.6354	-2.3187	-2.0875	-2.6688	-1.8542	-2.1875	-2.675	-1.9396	-2.5687	-2.3438	-1.8292	451.734	500.301	341.469	305.885	229.119	248.713	292.361	494.163	337.135	457.497	320.900	155.889	332.284	398.433	419.624	174.439	0.00040698	0.00088081	0.00038975	233.24	1.7238e-05	1.8688e-05	268.56	99.139	8.4164e-06	1.8677e-05	115.21	47.21	39.1	20.342	1.8644e-05	23.039	0.0023078	0.0023639	0.0006617	448.12	2.5929e-05	2.5994e-05	453.15	168	2.5919e-05	2.6064e-05	218.91	84.038	106.46	31.119	2.6111e-05	37.605	178.555	199.016	181.672	163.570	335.358	438.489	161.580	167.591	309.267	216.194	164.880	167.417	171.473	176.190	360.869	170.876	-8191	255	
929.818	1	1	0	0	0.12808	0.067754	0.18972	0.24913	0.11063	0.092498	0.18409	0.067678	0.11123	0.013627	0.22906	0.09537	0.046385	0.14118	0.16635	0.11962	-2.3958	-1.975	-2.2104	-2.6979	-1.9167	-2.7313	-2.2771	-1.8875	-2.7687	-2.1813	-2.1083	-2.75	-1.9333	-2.4604	-2.5292	-1.8583	260.339	467.690	170.160	261.229	225.796	193.707	209.444	273.859	434.975	293.984	215.326	275.501	211.682	475.627	248.464	458.688	0.0004052	0.0006804	0.00022262	233.21	6.5012e-06	8.0532e-06	270.07	98.756	2.871e-06	8.4507e-06	116.88	47.629	39.732	20.36	6.3071e-06	23.302	0.0023191	0.0023822	0.00066503	449.2	2.6156e-05	2.6253e-05	456.04	168.84	2.6203e-05	2.6142e-05	220.22	84.723	107.64	31.261	2.6349e-05	37.952	193.463	256.778	347.581	164.318	408.441	404.762	160.752	168.094	343.004	212.051	164.634	167.564	172.337	176.758	192.455	171.361	-8191	255	
929.914	1	1	0	0	0.25238	0.15265	0.045413	0.14965	0.24297	0.14844	0.45245	0.29828	0.2092	0.19722	0.013566	0.13698	0.23209	0.16602	0.19668	0.3111	-2.2229	-2.2438	-1.9667	-2.5875	-1.8687	-2.2771	-2.6292	-1.8042	-2.8917	-2.1813	-1.9062	-2.8438	-2.1042	-2.3854	-2.5979	-1.9813	164.016	415.256	218.912	490.247	451.135	348.924	420.613	252.768	429.584	192.941	280.433	441.433	260.949	276.962	459.886	312.748	0.00046046	0.00058488	0.00017915	234.36	4.6977e-06	1.3365e-05	272.96	100.29	5.1495e-06	1.1736e-05	118.04	47.817	39.458	20.424	9.469e-06	23.66	0.0023498	0.0024164	0.00067425	453.96	2.6554e-05	2.6605e-05	460.38	170.27	2.6636e-05	2.6711e-05	223.39	85.813	109.01	31.509	2.6842e-05	38.483	501.688	198.603	176.836	164.150	433.516	163.915	161.247	169.056	164.741	470.307	163.921	168.071	172.548	176.232	197.232	171.597	-8191	255	
930.011	1	1	0	0	0.11312	0.36555	0.1406	0.15961	0.15624	0.0034094	0.2782	0.085732	0.1246	0.08053	0.15822	0.1943	0.1282	0.17363	0.10456	0.196	-2.0583	-2.325	-2.1521	-2.6979	-2.0583	-2.2271	-2.625	-1.8896	-2.5	-2.4854	-2.0083	-2.925	-2.0563	-1.9604	-2.4458	-1.8	268.386	432.233	275.120	246.066	509.114	350.765	248.268	464.520	384.456	278.361	218.143	321.183	472.963	192.136	194.282	217.856	0.00053132	0.0006951	0.00036475	237.54	1.6292e-05	5.861e-06	271.09	98.966	1.1393e-05	1.0949e-05	116.3	47.953	39.593	20.277	1.9028e-05	23.195	0.0024035	0.0024659	0.00069001	458.97	2.709e-05	2.7235e-05	464.63	172.01	2.7294e-05	2.738e-05	225.74	86.579	110.03	31.757	2.7367e-05	38.565	178.339	272.702	274.112	163.470	244.801	174.371	161.169	167.970	432.806	284.857	164.639	168.204	172.614	176.514	286.768	171.118	-8191	255	
930.107	1	1	0	0	0.019613	0.16025	0.089133	0.15234	0.070151	0.088545	0.12077	0.28905	0.19865	0.15788	0.093262	0.17212	0.084656	0.23137	0.07009	0.10387	-2.0729	-2.2229	-1.9229	-2.4708	-2.1271	-2.2208	-2.7687	-1.9229	-2.3479	-2.4167	-1.6667	-2.6667	-2.1583	-2.1354	-2.8	-2.0896	446.723	486.664	430.600	393.924	457.651	480.302	441.496	504.819	171.521	325.159	293.758	403.118	190.853	284.744	170.957	331.968	0.00028236	0.00018193	0.00044219	232.89	9.3e-06	2.2401e-05	270.28	99.355	6.8578e-06	1.2503e-05	114.48	46.816	39.265	20.571	9.3576e-06	23.314	0.0024304	0.0024885	0.00069548	459.69	2.7347e-05	2.7274e-05	464.96	171.01	2.6982e-05	2.7007e-05	223.16	85.36	108.64	31.555	2.6833e-05	38.276	171.610	196.564	471.690	163.703	370.383	224.269	161.301	168.643	283.966	300.868	164.946	167.185	173.051	176.422	219.763	171.080	-8191	255	
930.203	1	1	0	0	0.15355	0.18595	0.14287	0.12918	0.25561	0.017907	0.32092	0.12428	0.18875	0.13683	0.037839	0.21868	0.077718	0.17016	0.06436	0.14714	-1.8958	-2.2812	-2.0417	-2.8542	-2.3854	-2.1396	-2.8021	-2.05	-2.3854	-2.7292	-1.9188	-2.7083	-2.4188	-2.0062	-2.7	-2.1417	373.649	435.623	406.861	477.318	363.898	410.288	507.139	331.332	318.073	208.016	425.162	167.778	336.223	436.592	319.815	425.595	0.00011851	0.001449	0.00027591	235.19	1.7258e-05	1.4613e-05	274.54	98.71	8.6869e-06	1.279e-05	117.58	47.634	40.552	20.518	1.9905e-05	23.538	0.0023835	0.0024588	0.00068175	454.71	2.6818e-05	2.6792e-05	462.89	170.27	2.6813e-05	2.6948e-05	224.2	86.109	109.76	31.783	2.7339e-05	38.918	176.737	176.773	286.190	163.309	291.835	245.648	161.074	168.292	279.512	320.310	164.295	168.721	171.469	176.326	233.140	171.043	-8191	255	
930.322	1	1	0	0	0.070309	0.0825	0.1618	0.052719	0.17986	0.074178	0.34245	0.42177	0.17374	0.14193	0.14857	0.41203	0.30514	0.047292	0.31397	0.1823	-1.8958	-2.7542	-1.9438	-2.4833	-2.0687	-1.9312	-2.6646	-2.2062	-2.0958	-2.675	-1.7479	-2.4104	-2.3583	-1.9104	-2.7833	-2.1667	300.434	173.432	282.853	229.355	216.562	420.737	404.530	378.643	220.941	210.210	316.168	378.536	194.532	441.246	402.110	410.339	0.00040837	0.001501	9.5246e-05	234.82	1.5548e-05	1.7394e-05	274.53	100.89	1.138e-05	2.2327e-05	118.87	48.324	39.797	20.726	2.4085e-05	23.744	0.0024459	0.002523	0.00070468	466.72	2.7975e-05	2.8173e-05	475.21	175.36	2.809e-05	2.8099e-05	229.99	87.951	111.86	32.253	2.7821e-05	39.182	158.760	313.210	306.436	164.330	311.090	493.125	161.122	168.110	262.938	218.164	164.387	167.939	170.702	176.643	251.427	171.324	-8191	255	
930.418	1	1	0	0	0.15153	0.11268	0.13193	0.13805	0.25047	0.12186	0.14708	0.19286	0.10218	0.25295	0.065584	0.1722	0.10407	0.0725	0.11128	0.26575	-1.6792	-2.6	-1.8708	-2.4271	-2.4062	-1.8396	-2.7958	-2.0708	-2.0208	-2.6667	-1.9562	-2.275	-2.3771	-1.8646	-2.3438	-1.9729	251.344	198.277	432.826	428.594	352.975	292.386	368.092	468.003	280.276	167.313	469.349	320.341	494.257	276.250	362.719	165.321	0.00032036	0.00040736	0.00030313	234.15	9.3062e-06	2.8931e-06	274.1	99.791	9.7289e-06	6.1516e-06	115.51	47.826	40.573	20.452	8.3307e-06	23.668	0.0024681	0.0025393	0.00070902	464.7	2.7758e-05	2.7807e-05	470.01	172.99	2.7692e-05	2.7682e-05	225.96	87.051	111.07	31.948	2.7656e-05	38.941	158.205	379.610	468.074	164.376	198.298	274.353	161.370	168.122	213.453	158.168	165.050	168.460	172.372	176.862	185.730	171.216	-8191	255	
930.490	1	1	0	0	0.2534	0.072273	0.17967	0.26592	0.065151	0.12929	0.30803	0.0801	0.24677	0.12285	0.14041	0.18226	0.19225	0.2166	0.22118	0.060422	-1.3458	-2.6083	-1.9042	-2.1667	-2.2562	-1.7667	-2.4667	-2.35	-1.8521	-2.6063	-1.9854	-2.1	-2.2708	-1.5708	-2.4167	-2.2479	169.403	260.379	468.423	193.199	450.981	363.171	409.288	230.192	433.348	313.465	232.978	160.503	460.330	180.945	314.991	249.405	0.00022286	0.00027688	0.00018278	233.86	1.1396e-05	5.594e-06	271.81	99.613	1.4942e-05	1.9569e-05	115.16	48.122	39.829	20.385	1.5767e-05	23.496	0.0024508	0.002532	0.00070398	464.19	2.7563e-05	2.7729e-05	470.85	173.28	2.7686e-05	2.7807e-05	226.56	87.291	111.63	32.085	2.7936e-05	39.191	204.279	304.189	440.795	163.838	303.022	485.524	161.135	168.572	465.041	445.449	164.515	167.900	172.602	176.374	332.726	171.559	-8191	255	
930.610	1	1	0	0	0.13	0.009307	0.12731	0.093738	0.2269	0.22869	0.17985	0.15332	0.30751	0.17099	0.1081	0.1215	0.19355	0.16889	0.20471	0.12487	-1.3729	-2.5104	-1.9896	-2.0083	-2.5146	-1.8521	-2.1979	-2.2854	-1.6354	-2.5062	-2.0375	-1.8687	-2.4437	-1.95	-2.3333	-2.3458	377.881	280.483	209.492	303.370	374.334	252.698	293.179	462.555	166.318	284.986	366.740	501.378	406.376	416.290	474.809	479.434	0.0003535	0.00038761	0.00027343	237.71	6.2236e-06	6.6421e-06	274.31	99.615	9.3594e-06	2.194e-06	117.52	48.443	39.543	20.45	1.3385e-05	23.651	0.0024982	0.002562	0.0007163	469.95	2.8136e-05	2.8327e-05	474.62	174.76	2.813e-05	2.8226e-05	229.79	88.156	112.41	32.294	2.8165e-05	39.355	183.605	302.949	314.385	164.178	330.200	433.893	161.276	168.427	255.956	300.995	164.738	168.186	172.707	176.729	215.839	171.386	-8191	255	
930.706	1	1	0	0	0.087685	0.32654	0.13667	0.12034	0.25225	0.071752	0.12387	0.088979	0.20343	0.048416	0.38492	0.28561	0.26677	0.2561	0.36211	0.053707	-1.4062	-2.5062	-2.0583	-2.0375	-2.55	-1.775	-2.1604	-2.6979	-1.8563	-2.6208	-2.0354	-1.675	-2.7438	-2.0292	-2.0479	-2.7625	332.389	480.983	322.386	413.754	443.175	360.660	448.711	398.867	188.940	265.418	368.325	155.809	277.949	210.428	490.447	508.465	0.0004206	0.0010995	0.00034153	236.54	1.9577e-05	9.2281e-06	277.15	100.6	8.7456e-06	4.6104e-06	118	48.178	40.027	20.593	1.2422e-05	23.424	0.0025053	0.0025745	0.00071631	469.55	2.8136e-05	2.8208e-05	475.98	174.83	2.7956e-05	2.8065e-05	228.95	87.895	111.99	32.095	2.7998e-05	39.144	192.524	231.256	505.491	163.575	293.973	407.021	160.975	168.817	299.965	216.767	163.945	168.460	172.188	176.413	293.823	170.993	-8191	255	
930.802	1	1	0	0	0.25851	0.059424	0.16043	0.051274	0.14682	0.21535	0.16953	0.24506	0.17399	0.23667	0.17746	0.21848	0.27649	0.039335	0.21963	0.37195	-1.4688	-2.3479	-2.1188	-2.1063	-2.6479	-2.0771	-2.0854	-2.7625	-1.7917	-2.4354	-2.4771	-2.2542	-2.5604	-2.0062	-1.9854	-2.7167	328.977	325.733	226.050	316.172	168.699	163.382	300.948	454.678	487.518	431.177	489.324	468.729	173.164	194.688	330.051	472.487	0.00019777	0.00092903	0.00026537	233.84	6.3693e-06	6.2396e-06	272.83	99.955	1.5087e-05	7.5934e-06	116.64	47.453	39.438	20.289	2.0462e-05	23.357	0.0024801	0.002543	0.00070772	465.53	2.782e-05	2.7871e-05	470.45	173.3	2.7896e-05	2.8027e-05	227.46	87.279	111.96	32.096	2.8057e-05	39.046	231.062	169.864	168.915	163.669	176.023	236.992	160.694	168.206	348.918	475.396	163.830	167.955	170.081	176.821	380.211	171.605	-8191	255	
930.923	1	1	0	0	0.40347	0.14319	0.06639	0.40275	0.1477	0.11244	0.26072	0.10371	0.30856	0.23909	0.046053	0.11363	0.12333	0.37323	0.40267	0.16679	-1.5042	-2.5625	-2.5021	-1.8667	-2.4062	-2.1063	-2.3208	-2.6646	-1.7875	-2.3875	-2.4813	-1.7292	-2.65	-2.0542	-2.1542	-2.8958	415.628	361.402	470.469	158.141	192.967	502.293	417.100	391.383	326.673	314.701	365.242	479.568	181.008	385.775	300.438	248.960	0.00016741	0.0011776	0.0003997	233.46	5.305e-06	4.4822e-06	273.82	99.612	6.0403e-06	1.4571e-05	116.34	48.097	40.013	20.321	7.3012e-06	23.316	0.0024917	0.0025498	0.0007135	466.07	2.803e-05	2.8038e-05	472.05	173.4	2.7796e-05	2.774e-05	227.08	86.882	110.69	31.848	2.7528e-05	38.823	480.726	288.272	191.851	163.619	168.219	271.231	160.775	167.205	308.099	344.062	164.376	167.566	171.866	176.272	410.254	171.576	-8191	255	
931.017	1	1	0	0	0.28786	0.069726	0.04253	0.054469	0.079471	0.27712	0.23306	0.1693	0.054185	0.16134	0.1246	0.1743	0.21098	0.045439	0.16798	0.23819	-1.5271	-2.1833	-2.5958	-2.0646	-2.6833	-2.4	-2.1729	-2.7188	-1.6917	-2.1688	-2.5687	-1.8292	-2.7229	-2.5417	-1.9271	-2.5917	261.806	255.589	397.803	212.581	307.866	331.527	403.482	389.873	495.678	264.026	433.866	380.515	157.624	339.120	155.492	258.309	0.00025895	0.0014368	0.00030962	232.96	3.2582e-06	1.7064e-05	273.77	99.582	5.6711e-06	3.6825e-06	116.07	48.234	39.953	20.598	1.353e-05	23.519	0.0024374	0.0025133	0.00069812	461.2	2.732e-05	2.7362e-05	469.17	172.54	2.7332e-05	2.7589e-05	227.07	87.195	111.14	31.918	2.7635e-05	39.028	446.198	505.256	190.773	163.700	407.236	170.511	161.445	168.119	155.081	279.104	164.864	168.197	171.722	176.532	202.343	171.281	-8191	255	
931.091	1	1	0	0	0.28657	0.18681	0.16951	0.14973	0.23935	0.14397	0.084815	0.091359	0.1455	0.30167	0.018758	0.20686	0.15243	0.24363	0.19035	0.25848	-1.7125	-2.2625	-2.6	-1.9958	-2.4917	-2.1458	-1.9708	-2.6521	-2.1521	-2.0208	-2.7333	-1.6833	-2.3875	-2.3438	-1.8833	-2.8479	492.695	213.889	252.029	291.870	283.568	381.987	489.334	293.946	175.163	495.651	196.387	199.921	262.577	422.426	416.069	468.603	0.00023625	0.000723	0.00037854	237.69	5.3688e-06	5.1526e-06	274.99	99.11	2.2042e-05	9.3998e-06	115.48	47.787	39.565	20.459	7.4729e-06	23.457	0.0024365	0.0025158	0.00070084	463.48	2.7554e-05	2.7561e-05	469.69	172.85	2.7464e-05	2.756e-05	226.55	86.862	111.19	32.037	2.7611e-05	39.015	496.765	183.909	212.930	164.079	509.486	160.788	161.890	168.577	266.794	380.845	164.301	168.362	172.610	176.326	431.649	171.097	-8191	255	
931.187	1	1	0	0	0.10819	0.15027	0.12952	0.14293	0.15868	0.071675	0.046413	0.21598	0.04782	0.29092	0.082621	0.058803	0.31218	0.27569	0.085405	0.046705	-1.6313	-1.775	-2.5604	-1.7646	-2.4146	-2.5417	-1.9729	-2.5167	-2.1479	-1.9958	-2.5062	-2.0146	-2.4375	-2.6979	-1.8771	-2.6667	275.459	335.079	460.929	471.296	235.601	487.132	224.964	338.492	169.126	222.579	313.765	460.266	484.732	156.304	166.334	362.365	0.00036268	0.001379	6.4047e-05	235.29	2.9012e-06	1.0861e-05	273.18	100.85	1.3012e-05	1.0281e-05	115.76	47.664	39.981	20.485	1.1814e-05	23.7	0.0024537	0.0025312	0.00070835	465.87	2.7892e-05	2.7971e-05	473.27	173.93	2.7687e-05	2.7727e-05	227.29	87.045	111.23	32.049	2.7729e-05	39.034	181.487	253.541	309.388	163.997	233.381	381.789	160.557	168.770	421.507	447.976	164.273	167.915	171.514	176.010	200.616	171.212	-8191	255	
931.306	1	1	0	0	0.11287	0.13848	0.41029	0.082589	0.3232	0.095262	0.074698	0.27443	0.14387	0.36419	0.15739	0.2255	0.16144	0.18764	0.17961	0.20035	-1.8188	-2.0375	-2.525	-1.9771	-2.2792	-2.5604	-1.8542	-2.3917	-2.1292	-1.8208	-2.5312	-1.9396	-2.0187	-2.4875	-1.8188	-2.3521	226.922	398.450	303.535	255.907	304.050	204.099	203.101	388.437	299.335	345.409	490.974	281.532	492.947	340.088	272.280	338.930	0.0001714	0.0014816	0.00027196	235.9	6.6774e-06	2.8253e-06	274.06	100.91	1.1489e-05	1.842e-05	117.84	47.858	40.12	20.622	1.9328e-05	23.83	0.0024622	0.0025302	0.00070723	465.08	2.7847e-05	2.7998e-05	474.16	174.67	2.8019e-05	2.8089e-05	229.42	87.909	111.93	32.23	2.7789e-05	39.301	509.895	458.138	458.730	164.239	277.591	392.870	161.317	168.034	273.788	351.133	164.886	167.976	171.553	176.632	172.635	171.833	-8191	255	
931.402	1	1	0	0	0.20037	0.28516	0.25166	0.054961	0.15781	0.093555	0.10375	0.064868	0.047396	0.21052	0.08016	0.2018	0.21374	0.10276	0.1601	0.22986	-1.9083	-1.775	-2.5687	-2.0708	-2.0208	-2.6646	-1.7271	-2.4104	-2.3917	-1.7667	-2.5062	-2.2792	-1.9208	-2.5354	-1.5979	-2.3312	253.927	475.340	499.014	457.350	403.360	290.975	425.809	406.609	262.960	330.464	253.986	500.167	215.849	417.989	279.676	335.503	0.00035341	0.0018324	0.00028056	235.81	1.1844e-05	6.08e-06	275.21	100.61	5.9177e-06	1.1666e-05	117.36	47.982	39.983	20.749	9.6158e-06	23.822	0.0024642	0.0025358	0.00070773	466.1	2.7765e-05	2.7897e-05	473.87	174.49	2.7919e-05	2.7953e-05	228.19	87.669	111.17	32.104	2.7575e-05	39.153	159.712	399.605	241.898	163.968	291.949	336.904	160.870	168.409	315.111	377.768	164.584	167.435	171.277	176.054	223.122	170.923	-8191	255	
931.498	1	1	0	0	0.24345	0.10024	0.18065	0.09957	0.21925	0.20181	0.23384	0.15896	0.088336	0.16902	0.027574	0.33174	0.10615	0.1513	0.10961	0.29356	-2	-1.6104	-2.2708	-2.125	-1.7583	-2.5229	-1.9208	-2.2271	-2.5021	-1.8188	-2.5187	-2.1	-1.7125	-2.6979	-1.9604	-2.2708	370.787	196.935	366.366	158.366	504.602	501.210	468.117	393.240	465.550	228.733	239.865	446.861	370.402	458.157	225.809	192.745	0.00039174	0.000735	0.00036173	236.51	2.7338e-06	1.7508e-05	274.76	100.49	1.7913e-05	7.0347e-06	116.37	47.863	40.604	20.449	1.6919e-05	23.337	0.0024426	0.0025176	0.00070197	464.32	2.7699e-05	2.7724e-05	470.75	172.99	2.7681e-05	2.7636e-05	225.94	86.747	110.65	31.943	2.759e-05	38.875	172.864	476.504	486.890	163.754	186.199	402.610	160.954	168.453	379.262	498.036	164.760	167.645	172.635	176.549	431.952	171.127	-8191	255	
931.619	1	1	0	0	0.10877	0.13659	0.28567	0.050995	0.1081	0.1637	0.13853	0.079742	0.15496	0.29922	0.20836	0.18041	0.13538	0.0095413	0.095037	0.24199	-2.0646	-1.8333	-2.275	-2.1917	-1.7271	-2.6396	-1.8729	-1.9625	-2.4521	-1.7812	-2.3396	-2.2917	-1.8062	-2.6917	-2.0708	-2.0417	422.081	389.893	306.467	305.526	465.927	371.883	348.461	397.840	318.975	466.514	470.132	501.890	442.752	377.298	438.023	279.123	0.00039575	0.00032146	2.7977e-05	233.24	4.1148e-06	1.3322e-05	271.76	100.1	1.2886e-05	4.537e-06	116.42	48.09	39.974	20.449	1.9467e-05	23.408	0.0024596	0.0025237	0.00070541	462.75	2.7779e-05	2.7675e-05	469.92	173.12	2.7713e-05	2.7784e-05	226.85	86.773	111.27	32.062	2.7814e-05	38.961	181.687	243.483	375.890	163.518	456.525	236.128	160.935	168.153	458.907	192.471	164.666	168.106	172.350	176.387	319.880	171.014	-8191	255	
931.715	1	1	0	0	0.19647	0.070478	0.062781	0.11911	0.29364	0.099295	0.20693	0.15986	0.11081	0.12733	0.21036	0.21505	0.091747	0.13117	0.10444	0.21522	-2.2979	-1.7979	-2.2938	-2.3688	-1.7979	-2.4208	-2.1229	-1.825	-2.4833	-1.8937	-2.3146	-2.3312	-1.7062	-2.5667	-2.0167	-1.9625	321.781	453.138	396.326	163.606	158.326	360.622	417.619	370.993	350.765	158.649	175.597	473.026	150.530	469.557	404.556	428.600	0.00042232	0.0006401	0.00022048	234.93	1.3581e-05	1.2878e-05	272.96	99.559	1.2031e-05	4.1823e-06	117.1	47.819	40.455	20.61	8.7512e-06	23.696	0.0024678	0.0025366	0.00070741	463.1	2.7636e-05	2.7747e-05	469.94	172.4	2.7722e-05	2.7626e-05	226.89	87.108	110.77	31.917	2.7642e-05	38.789	222.027	280.616	386.155	163.458	216.544	346.239	161.011	168.026	453.419	400.162	164.727	168.098	173.433	176.009	290.243	171.266	-8191	255	
931.787	1	1	0	0	0.09028	0.2481	0.20119	0.11168	0.1185	0.055099	0.24311	0.23889	0.12789	0.2239	0.19163	0.072448	0.35512	0.2487	0.11933	0.37405	-2.15	-1.8146	-2.0271	-2.5625	-1.7292	-2.3771	-2.2396	-1.8875	-2.4375	-2.0563	-2.2167	-2.3833	-1.5104	-2.4958	-2.3042	-1.8667	337.124	169.664	389.972	193.146	435.024	151.329	209.110	499.173	367.596	168.199	463.390	420.452	491.149	508.969	446.765	413.797	0.00020058	0.0007446	0.00021681	234.59	5.9801e-06	2.6079e-05	272.22	99.705	1.0851e-05	1.2417e-05	115.94	47.199	39.238	20.412	8.467e-06	23.586	0.0024403	0.0025013	0.00069243	459.48	2.7232e-05	2.7259e-05	465.74	170.35	2.6999e-05	2.698e-05	222.48	85.157	108.45	31.435	2.6759e-05	38.299	186.408	347.232	307.631	163.987	181.566	383.027	161.418	168.609	395.674	207.988	164.698	167.720	171.878	176.043	161.054	171.805	-8191	255	
931.883	1	1	0	0	0.173	0.18485	0.12259	0.060913	0.13617	0.19863	0.18397	0.36243	0.059132	0.067635	0.1447	0.25559	0.14232	0.20714	0.12717	0.096659	-2.0146	-1.8521	-1.9917	-2.5646	-1.5938	-2.4562	-2.3583	-1.8542	-2.5083	-2.0104	-1.9021	-2.6688	-1.9417	-2.3812	-2.4167	-1.8396	297.137	492.462	223.366	426.320	246.653	239.801	382.320	403.330	251.739	306.657	190.748	238.600	187.168	177.038	431.515	279.069	0.00032505	0.0011267	0.00016672	235.09	3.3928e-06	1.7813e-05	269.84	98.076	1.8018e-05	6.8867e-06	113.36	47.071	39.355	20.157	1.4161e-05	22.945	0.0023757	0.0024363	0.00068042	454.08	2.6786e-05	2.6875e-05	462.35	169.27	2.7037e-05	2.7079e-05	221.51	85.296	109.3	31.455	2.7199e-05	38.322	186.925	183.984	346.270	163.695	307.986	344.885	161.289	168.234	342.302	278.920	164.335	167.429	171.761	176.435	269.147	171.629	-8191	255	
932.003	1	1	0	0	0.20731	0.11555	0.076864	0.13225	0.041815	0.11211	0.098851	0.37881	0.16436	0.14947	0.23527	0.09537	0.1454	0.099046	0.10618	0.24752	-2.0458	-2.0229	-1.8	-2.5917	-1.8625	-2.3375	-2.525	-1.7812	-2.5	-2.1208	-1.7875	-2.5625	-1.9583	-2.1292	-2.3875	-1.8271	454.587	479.943	321.781	219.802	243.363	392.723	217.020	437.811	249.541	364.385	224.530	231.448	278.019	229.931	433.347	232.040	0.00035039	0.00067227	0.00022676	231.22	6.2498e-06	2.5539e-05	270.46	98.953	1.2945e-05	8.1632e-06	112.55	47.196	38.981	20.418	6.1813e-06	23.058	0.0024306	0.0025004	0.00070033	460.21	2.7647e-05	2.7834e-05	468.79	171.97	2.7684e-05	2.7735e-05	224.19	86.236	110.84	31.835	2.7851e-05	38.714	179.364	274.359	489.467	163.830	173.687	176.633	161.514	168.453	352.672	214.050	164.856	169.085	170.342	176.814	390.777	170.918	-8191	255	
932.098	1	1	0	0	0.17695	0.098365	0.23769	0.24001	0.11232	0.29927	0.16745	0.11703	0.079826	0.052635	0.14486	0.075868	0.21135	0.038834	0.098998	0.22052	-2.1104	-2.3563	-1.7104	-2.6083	-1.8292	-2.025	-2.525	-1.925	-2.4375	-2.4437	-1.8042	-2.2854	-1.8687	-1.9208	-2.6208	-1.8292	432.551	352.257	349.675	331.430	201.518	424.336	280.372	366.707	474.376	448.538	160.884	265.610	468.451	390.964	329.827	463.895	0.00055974	0.00071827	0.00028138	232.63	1.035e-05	2.6423e-05	274.8	99.084	9.189e-06	1.3883e-05	116.04	47.385	39.377	20.114	8.058e-06	23.068	0.002486	0.0025593	0.0007127	466.31	2.8037e-05	2.812e-05	472.9	173.09	2.7819e-05	2.7949e-05	227.26	87.037	112.18	31.978	2.8332e-05	39.059	150.852	506.659	197.244	164.563	215.866	334.924	161.868	168.221	245.324	166.299	165.132	167.505	172.777	176.072	337.645	171.694	-8191	255	
932.194	1	1	0	0	0.1794	0.038605	0.10815	0.072712	0.10262	0.13251	0.16446	0.13349	0.24052	0.064688	0.17035	0.17607	0.11562	0.042086	0.038838	0.24924	-1.8708	-2.2417	-1.7563	-2.5417	-1.8417	-1.8896	-2.6063	-1.6625	-2.1583	-2.4292	-1.8583	-2.4313	-1.9417	-1.8792	-2.5729	-1.7917	288.719	280.557	337.425	422.238	384.822	252.607	436.145	341.928	376.076	490.803	240.999	164.709	340.110	427.431	422.305	387.583	0.00043935	0.00056917	0.00031192	233	5.7743e-06	1.6749e-05	273.99	98.879	1.3931e-05	2.2416e-06	113.99	46.691	38.776	19.936	1.5888e-05	22.798	0.002523	0.0025978	0.0007264	470	2.852e-05	2.8464e-05	475.62	174.04	2.8388e-05	2.8456e-05	227.24	87.588	112.64	31.938	2.8501e-05	38.725	182.059	302.855	292.153	163.808	289.082	260.272	160.664	168.075	271.355	257.929	164.259	168.185	171.503	176.857	220.774	171.159	-8191	255	
932.292	1	1	0	0	0.20561	0.16941	0.13111	0.26513	0.15957	0.1585	0.14893	0.020156	0.048354	0.10865	0.10868	0.20049	0.17332	0.048576	0.10129	0.1831	-1.8042	-2.4729	-1.6354	-2.5875	-2.0167	-1.8104	-2.5729	-1.8792	-1.9937	-2.625	-1.6271	-2.3958	-2.0833	-1.7167	-2.5396	-1.8458	352.581	292.750	261.977	289.089	210.516	443.151	402.040	414.176	380.537	150.978	272.556	198.127	163.217	186.611	277.116	485.748	0.00021719	0.00020467	0.00015831	234.06	9.2778e-06	1.0438e-05	273.63	96.867	1.5586e-05	7.9685e-07	113.57	46.266	38.87	19.885	2.3243e-06	22.687	0.0025351	0.0025985	0.00072269	468.92	2.8456e-05	2.8584e-05	476.14	173.62	2.8459e-05	2.8488e-05	227.11	87.005	112.27	31.924	2.8298e-05	38.709	154.314	266.088	360.193	163.982	169.833	490.075	161.831	168.190	206.653	430.419	164.308	167.730	172.076	176.109	458.062	171.087	-8191	255	
932.386	1	1	0	0	0.060631	0.21663	0.098626	0.087589	0.17572	0.15889	0.11636	0.35453	0.24387	0.06714	0.28597	0.2461	0.063896	0.17048	0.18049	0.098693	-1.7354	-2.3542	-1.7396	-2.3729	-2.4062	-1.8354	-2.5979	-1.8792	-2.0312	-2.6083	-1.7479	-2.3187	-2.4333	-1.7812	-2.4875	-2.1458	169.824	388.382	355.926	493.371	213.006	358.123	454.982	202.185	436.367	269.788	311.389	475.860	267.173	467.948	473.770	157.832	0.0004614	0.0014073	0.0002042	232.8	7.5669e-06	1.5711e-05	271.46	98.414	2.0889e-05	9.3924e-06	113.68	46.986	38.598	20.086	8.5136e-06	23.178	0.0025242	0.002585	0.00071972	467.87	2.8188e-05	2.8231e-05	473.52	172.84	2.8043e-05	2.8131e-05	225.61	86.675	111.45	31.829	2.805e-05	38.697	192.479	409.719	374.121	164.627	302.174	336.047	161.606	167.908	473.119	433.104	164.392	167.587	171.765	177.085	358.916	170.993	-8191	255	
932.482	1	1	0	0	0.30723	0.1785	0.20295	0.20176	0.13086	0.19817	0.037003	0.23643	0.087753	0.28184	0.29208	0.34586	0.17708	0.12672	0.012626	0.087247	-1.5438	-2.5458	-1.8625	-2.225	-2.325	-1.5354	-2.4729	-1.9646	-1.9854	-2.4625	-1.9042	-2.1708	-2.4625	-1.6292	-2.4375	-2.2104	324.115	454.642	376.703	296.503	258.831	481.150	427.474	469.781	353.824	460.870	264.659	417.970	488.845	192.016	444.372	455.618	0.00041568	0.00058489	0.00036993	235.45	1.6112e-05	1.0114e-05	278.96	99.169	1.2594e-05	1.004e-05	115.12	47.897	39.284	20.195	4.6918e-06	22.974	0.0024919	0.0025643	0.00071428	468.58	2.819e-05	2.8385e-05	480.41	175.13	2.8764e-05	2.879e-05	230.68	88.545	114.16	32.276	2.8839e-05	39.171	165.828	386.957	503.325	164.794	353.404	236.237	162.099	168.103	159.934	503.029	164.166	168.740	172.306	176.046	306.839	171.222	-8191	255	
932.603	1	1	0	0	0.24783	0.24649	0.03802	0.12725	0.038745	0.10738	0.24002	0.13186	0.1958	0.19912	0.069128	0.31244	0.18135	0.061462	0.36437	0.18411	-1.4167	-2.5521	-1.7479	-2.0271	-2.6479	-1.8354	-2.4458	-2.3146	-1.8875	-2.6063	-1.8729	-2.1	-2.3833	-2.0542	-2.1729	-2.3958	252.828	336.937	169.884	236.059	300.630	183.338	402.450	168.497	229.430	456.520	359.916	218.409	366.222	164.624	413.527	479.206	0.00034198	0.00067523	0.00056167	230.68	8.8114e-06	6.9032e-06	275.3	99.132	5.3632e-06	6.5616e-06	111.36	46.789	40.1	20.272	3.6654e-06	22.93	0.0025584	0.0026345	0.00073001	473.52	2.8791e-05	2.8883e-05	480.88	175.92	2.8989e-05	2.9224e-05	229.59	88.571	115.4	32.422	2.9178e-05	39.197	193.031	175.514	264.932	164.216	175.526	221.551	160.669	168.877	273.749	496.763	165.039	168.943	171.563	175.885	188.587	171.613	-8191	255	
932.699	1	1	0	0	0.074616	0.19725	0.054636	0.15295	0.21745	0.34747	0.083708	0.08222	0.11014	0.25555	0.086531	0.22705	0.14934	0.26491	0.2042	0.11683	-1.2729	-2.5146	-1.9146	-1.9792	-2.6021	-1.6042	-2.2917	-2.3833	-1.9229	-2.5167	-1.9792	-1.7292	-2.5354	-1.7812	-2.2625	-2.4479	167.229	408.506	314.827	179.027	427.427	477.353	250.135	385.913	316.648	477.791	152.282	503.432	498.335	255.062	209.377	339.596	0.00049432	0.00070396	2.1467e-05	236.67	1.122e-05	2.2746e-05	271.8	98.761	1.0865e-05	8.1821e-06	115.59	47.277	40.49	20.261	1.1958e-05	22.896	0.0025675	0.0026508	0.0007329	474.97	2.8998e-05	2.9064e-05	482.56	176.38	2.9215e-05	2.9375e-05	231.94	89.289	115.67	32.622	2.9426e-05	39.639	168.869	171.848	399.045	164.816	282.562	216.625	162.540	168.562	248.523	389.029	164.171	168.054	171.619	176.504	246.965	170.634	-8191	255	
932.795	1	1	0	0	0.026144	0.018379	0.1902	0.23168	0.12138	0.074257	0.0416	0.25205	0.19593	0.085259	0.27073	0.10909	0.085775	0.22438	0.31049	0.17212	-1.5208	-2.4437	-1.9625	-1.8292	-2.6167	-1.7313	-2.0208	-2.3479	-1.7146	-2.4062	-2.3104	-1.8521	-2.5938	-2.0438	-2.0187	-2.3521	174.906	389.633	452.124	446.410	493.675	334.654	394.477	197.637	184.031	227.650	352.164	259.315	203.546	223.008	188.689	182.209	0.00020573	0.00050346	0.00035792	232.2	7.1319e-06	6.1029e-06	277	99.872	1.8772e-05	1.4751e-05	113.01	47.414	39.585	20.311	6.3797e-06	23.109	0.0026282	0.0027075	0.00075623	483.56	2.9864e-05	3.0028e-05	490.5	178.52	2.9799e-05	2.9834e-05	235.1	90.071	116.77	32.732	2.986e-05	40.152	172.833	349.693	351.451	164.242	368.594	223.143	161.474	168.038	324.028	168.118	164.220	168.347	170.644	176.797	405.471	171.450	-8191	255	
932.892	1	1	0	0	0.19177	0.15467	0.28829	0.085394	0.13623	0.14283	0.13239	0.074847	0.013148	0.19534	0.23746	0.1237	0.099523	0.51439	0.15535	0.12765	-1.3521	-2.4208	-2.2604	-1.8604	-2.6042	-1.9208	-1.8937	-2.6667	-1.7583	-2.2708	-2.3771	-1.7396	-2.4896	-1.8604	-2.0667	-2.6104	429.377	156.085	230.973	160.580	319.510	408.091	294.317	394.387	222.573	410.739	415.414	224.219	273.797	472.227	285.176	243.597	0.00043031	0.00035648	0.00039252	237.59	1.6019e-05	1.479e-05	276.71	99.457	3.809e-06	7.924e-06	116.29	47.177	39.813	20.261	1.5293e-05	23.015	0.0026686	0.0027464	0.00076543	485.18	3.0027e-05	3.0043e-05	490.65	178.93	2.9873e-05	2.9826e-05	234.69	89.983	116.76	32.732	2.9733e-05	39.774	181.182	368.781	268.069	163.859	500.575	215.432	161.091	167.822	247.244	158.642	164.354	168.682	172.202	176.887	286.029	171.263	-8191	255	
933.012	1	1	0	0	0.14888	0.19149	0.23023	0.21247	0.14803	0.088866	0.18246	0.19499	0.18604	0.30501	0.22323	0.33955	0.091425	0.19661	0.064126	0.13958	-1.225	-2.2854	-2.3417	-1.8208	-2.6167	-2.0896	-1.9688	-2.6458	-1.6521	-2.3458	-2.4979	-1.775	-2.6646	-2.2812	-2.1667	-2.9104	264.827	366.779	427.034	321.490	411.010	332.722	334.085	360.259	373.367	173.232	452.551	229.889	351.441	176.642	281.722	455.324	0.00024307	0.0013756	0.00051864	235.72	7.528e-06	2.0076e-05	277.51	100.37	8.4381e-06	7.4695e-06	113.98	47.194	39.446	19.988	3.3484e-06	23.163	0.0026367	0.0027171	0.00075755	482.57	2.9726e-05	2.9899e-05	488.37	178.42	2.9744e-05	2.9903e-05	233.46	89.524	116.82	32.766	2.9888e-05	39.956	494.286	329.164	180.707	164.125	279.079	250.654	161.191	168.997	402.646	308.952	163.984	168.450	171.427	176.123	237.011	170.824	-8191	255	
933.084	1	1	0	0	0.056804	0.219	0.16249	0.066849	0.024552	0.38197	0.088091	0.14048	0.14386	0.1476	0.031052	0.071704	0.077957	0.18389	0.26375	0.16142	-1.4833	-1.9979	-2.6604	-2.1458	-2.6729	-2.3646	-2.0417	-2.5563	-1.9188	-2.4625	-2.6271	-1.8792	-2.6458	-2.3646	-1.8042	-2.8417	274.676	232.648	199.951	200.309	155.405	249.420	461.861	477.495	351.338	382.250	338.458	225.638	367.810	320.160	304.391	181.875	0.00022142	0.00060516	0.0003511	234.21	6.634e-06	3.6081e-05	273.31	98.528	8.6042e-06	1.1681e-06	114.6	47.212	38.977	20.222	4.3437e-06	22.926	0.0026551	0.0027352	0.00076114	484.27	2.9963e-05	3.0022e-05	490.31	178.83	3.0006e-05	3.014e-05	235.07	90.096	117.4	32.87	2.9944e-05	40.03	214.161	187.284	475.994	164.051	218.177	281.574	161.429	168.090	182.642	422.233	164.451	167.430	171.237	176.385	159.076	171.067	-8191	255	
933.178	1	1	0	0	0.067462	0.065198	0.12645	0.20492	0.20523	0.28184	0.23753	0.17235	0.11556	0.19919	0.054854	0.047406	0.20071	0.16103	0.071384	0.20551	-1.7521	-2.2458	-2.55	-1.975	-2.3729	-2.4917	-1.7542	-2.7146	-2.2396	-2.2229	-2.6021	-1.7417	-2.5646	-2.7271	-2.0583	-2.7271	323.030	392.272	504.661	261.778	260.442	206.553	504.839	454.486	495.841	288.193	457.555	335.564	365.228	157.244	363.120	487.677	0.00054245	0.00084569	0.00040249	233.39	1.5571e-05	6.8581e-06	277.53	99.096	1.2879e-05	7.3172e-06	114.75	47.665	38.892	20.256	1.1487e-05	23.097	0.0026534	0.0027318	0.00075876	483.55	2.9846e-05	2.9902e-05	490.04	178.6	2.9941e-05	3e-05	236.48	90.328	118.17	32.965	3.0025e-05	40.158	183.398	333.006	250.586	162.705	486.393	359.034	160.612	168.389	324.164	236.952	163.340	167.981	170.662	176.474	280.238	171.341	-8191	255	
933.274	1	1	0	0	0.26111	0.21054	0.15014	0.14959	0.16917	0.1795	0.10631	0.10042	0.30341	0.28461	0.10924	0.1975	0.0051973	0.10651	0.0099935	0.17793	-1.9667	-1.9083	-2.6167	-1.975	-2.2875	-2.7333	-1.8312	-2.625	-2.2458	-2.1521	-2.6854	-2.0396	-2.1625	-2.4229	-1.7896	-2.5687	368.138	487.719	298.774	381.988	306.460	389.164	508.569	389.351	344.777	156.663	393.263	408.184	457.006	487.737	347.226	277.654	0.00031323	0.001402	0.00010729	231.39	1.1543e-05	1.5459e-05	275.95	97.235	1.6913e-05	1.3168e-05	114.3	46.79	39.383	20.114	6.6806e-06	22.954	0.0026552	0.0027272	0.00075919	482.79	2.9904e-05	2.9858e-05	488.4	177.54	2.9619e-05	2.9747e-05	233.63	89.431	116.38	32.693	2.9739e-05	39.834	176.456	305.932	317.522	163.274	370.093	272.896	160.654	167.842	215.103	200.734	164.513	166.790	171.370	175.737	225.517	170.878	-8191	255	
933.395	1	1	0	0	0.20705	0.18267	0.35614	0.096781	0.054742	0.17053	0.091037	0.23308	0.049789	0.43784	0.20805	0.31848	0.086917	0.19406	0.14728	0.31665	-1.9688	-1.925	-2.8146	-2.1354	-2.1417	-2.5708	-2.0187	-2.575	-2.5854	-2.0479	-2.725	-1.8208	-2.0396	-2.5667	-2.0646	-2.6521	198.098	310.182	261.800	413.915	171.688	177.114	341.670	349.188	307.360	327.569	464.737	352.144	383.734	495.667	294.984	417.130	0.00031254	0.00071041	0.00029812	232.14	3.9881e-06	2.4991e-05	270.25	97.682	1.0337e-05	3.9703e-06	113.85	47.33	39.109	20.059	8.335e-06	22.986	0.0026574	0.0027395	0.00076646	484.25	3.0292e-05	3.0314e-05	490.33	178.54	3.0018e-05	2.9947e-05	233.79	89.376	116.48	32.725	2.9729e-05	39.839	505.771	236.029	468.652	163.009	309.106	164.582	161.118	167.798	474.718	490.388	163.990	167.514	170.320	176.424	221.083	171.528	-8191	255	
933.491	1	1	0	0	0.13271	0.14762	0.23005	0.078622	0.23665	0.27436	0.071756	0.13235	0.14976	0.10612	0.10095	0.23938	0.1826	0.23832	0.16028	0.2917	-2.0979	-1.65	-2.6021	-2.0729	-2.1875	-2.9375	-1.9813	-2.35	-2.3292	-1.9813	-2.7167	-2.2854	-1.9937	-2.7292	-1.9458	-2.2875	505.650	359.693	279.686	348.211	241.434	504.610	355.882	374.394	481.153	280.863	435.399	372.625	169.031	277.359	492.744	275.393	0.00032198	0.0011391	7.9639e-05	229.46	7.5946e-06	7.9829e-06	273.93	97.72	1.6556e-05	1.086e-05	112.95	47.31	39.093	20.32	1.5249e-05	22.874	0.0026574	0.0027339	0.00076039	481.18	2.9699e-05	2.978e-05	485.69	177.21	2.9384e-05	2.9548e-05	232.96	89.176	115.76	32.583	2.9552e-05	39.884	191.118	325.038	364.928	163.770	331.145	433.916	160.662	168.141	274.116	309.104	164.082	168.204	172.807	175.473	218.038	171.178	-8191	255	
933.587	1	1	0	0	0.14937	0.15854	0.082748	0.14927	0.31417	0.066898	0.12897	0.1871	0.26064	0.12864	0.065247	0.1021	0.070038	0.25455	0.42719	0.24187	-2.3625	-1.9896	-2.6604	-2.4604	-1.9667	-2.5542	-2.1083	-2.3646	-2.4479	-1.9	-2.8042	-2.2646	-1.9188	-2.8021	-2.2	-2.3458	263.982	354.673	181.691	408.298	406.509	232.163	203.161	185.077	200.122	462.267	331.193	151.926	321.201	501.199	480.223	274.253	0.00068661	0.0018835	0.00010702	235.59	9.0042e-06	2.0374e-05	279.27	98.62	7.7196e-06	1.0258e-05	116.97	46.679	38.753	19.973	2.4712e-05	22.741	0.0026372	0.002711	0.00075677	482.34	2.9802e-05	2.9796e-05	488.7	177.73	2.9497e-05	2.9596e-05	233.99	89.397	115.93	32.56	2.9597e-05	39.751	167.922	342.584	399.578	163.754	167.510	412.133	160.582	168.239	453.468	387.889	163.844	168.364	171.111	175.832	301.729	171.026	-8191	255	
933.683	1	1	0	0	0.24657	0.14934	0.18216	0.13187	0.13019	0.31064	0.34042	0.22928	0.0859	0.13626	0.14231	0.23028	0.24331	0.1603	0.25958	0.020942	-2.2417	-1.8979	-2.3042	-2.4938	-1.9521	-2.7812	-2.0896	-2.1521	-2.4396	-1.8354	-2.5187	-2.5292	-1.8667	-2.7938	-1.9083	-2.0021	365.947	347.777	258.541	343.125	296.684	213.739	476.993	216.226	325.024	298.480	362.351	186.925	404.934	166.892	483.317	370.161	0.00037883	0.00027994	0.00030995	233.22	4.1155e-06	8.1322e-06	276.36	96.894	1.9638e-05	6.4778e-06	112.88	46.916	38.191	20.166	6.3317e-06	23.172	0.0026434	0.0027143	0.00075817	481.84	2.9699e-05	2.979e-05	487.17	176.81	2.952e-05	2.9727e-05	233.03	89.139	115.82	32.6	2.953e-05	39.651	187.139	213.487	345.343	163.402	313.844	190.157	160.290	167.777	307.301	325.330	164.522	168.920	170.339	176.341	494.692	170.955	-8191	255	
933.780	1	1	0	0	0.099943	0.17531	0.096103	0.38461	0.21331	0.072166	0.50566	0.15508	0.062702	0.34495	0.2057	0.29162	0.12601	0.037751	0.18322	0.041568	-2.2771	-2.0208	-2.3271	-2.525	-1.9104	-2.6	-2.4062	-2.0021	-2.625	-1.6667	-2.3083	-2.3646	-1.7521	-2.3083	-2.1896	-1.8333	417.503	315.197	175.084	370.466	461.151	193.634	454.166	490.529	403.847	413.280	247.637	418.480	415.623	297.508	502.139	195.653	0.00034748	0.00082807	0.00055366	235.66	1.1239e-05	6.386e-06	274.76	98.42	1.4096e-05	2.5395e-06	115.43	47.415	40.659	20.303	1.6971e-05	23.319	0.0026055	0.0026726	0.0007459	475.65	2.9103e-05	2.9112e-05	482.98	175.29	2.8812e-05	2.895e-05	231.17	88.223	114.49	32.364	2.8811e-05	39.474	190.121	449.383	297.620	163.685	279.284	428.964	160.199	167.743	300.896	192.401	164.941	167.331	172.182	175.742	258.621	170.613	-8191	255	
933.876	1	1	0	0	0.1175	0.072465	0.18333	0.096092	0.15175	0.085246	0.13106	0.11793	0.17246	0.21638	0.31874	0.045989	0.13139	0.029228	0.2776	0.21474	-2.0479	-2.1167	-2.0083	-2.7125	-1.7917	-2.4208	-2.325	-1.8062	-2.425	-2.1396	-1.9896	-2.525	-1.8354	-2.2687	-2.0958	-1.7354	226.067	243.879	254.521	413.419	311.692	259.663	381.147	282.097	391.894	228.176	177.228	358.790	150.133	286.885	196.784	308.463	0.0002792	0.0011288	0.00072171	238.1	7.7943e-06	1.8356e-05	278.62	99.543	7.1652e-06	1.0159e-05	116.01	47.529	38.93	20.324	1.0202e-05	23.285	0.0025572	0.0026315	0.00073535	475.37	2.8918e-05	2.8972e-05	483.79	176.47	2.8889e-05	2.8954e-05	231.6	88.702	113.97	32.405	2.8676e-05	39.476	159.999	186.410	282.324	164.631	156.967	286.656	160.607	167.805	408.503	377.525	164.184	168.590	170.092	176.258	175.938	170.465	-8191	255	
933.972	1	1	0	0	0.059718	0.11506	0.21428	0.22125	0.14395	0.15133	0.19486	0.18529	0.045954	0.29175	0.15052	0.16583	0.13072	0.052524	0.10458	0.044463	-2.2062	-1.7146	-1.8854	-2.4875	-1.875	-2.1979	-2.4729	-1.8833	-2.4958	-2.0396	-2.0646	-2.5646	-1.7917	-2.2333	-2.4562	-1.8563	439.134	416.279	426.246	352.306	427.804	358.570	473.849	338.024	186.339	327.223	467.062	446.633	492.262	383.049	259.926	270.448	0.0001925	0.0020324	7.4623e-05	235.98	1.5148e-05	2.0383e-05	279.86	99.166	8.2913e-06	4.4666e-06	114.86	47.615	39.466	20.45	1.4434e-05	23.492	0.0025505	0.0026088	0.00073017	473.79	2.857e-05	2.8669e-05	481.52	175.17	2.8748e-05	2.8731e-05	231.16	88.762	114.32	32.406	2.891e-05	39.55	224.602	505.074	340.342	163.509	243.738	298.993	159.987	168.269	230.961	383.821	163.703	167.314	172.276	176.313	203.386	171.007	-8191	255	
934.093	1	1	0	0	0.22096	0.14923	0.2296	0.15601	0.21002	0.22046	0.053123	0.06463	0.15344	0.24021	0.42466	0.25523	0.23729	0.093178	0.16571	0.13059	-2.2625	-1.9771	-1.9604	-2.6125	-1.9062	-2.25	-2.5312	-1.8438	-2.4458	-2.1208	-1.9125	-2.5729	-1.9042	-2.2125	-2.4229	-1.6792	478.142	324.192	487.684	373.640	292.150	185.823	299.233	498.420	297.043	299.562	168.550	196.451	187.384	499.869	395.928	358.834	0.00025151	0.0012932	0.00016907	235.73	1.3678e-05	1.0835e-05	278.07	98.699	1.1104e-05	8.423e-06	116.35	47.29	39.457	20.45	1.4055e-05	23.022	0.0025797	0.0026525	0.00073993	477.76	2.9058e-05	2.9135e-05	486.11	176.05	2.9203e-05	2.9297e-05	232.9	89.178	115.27	32.683	2.9328e-05	39.788	225.578	365.886	215.350	164.220	218.625	419.822	160.848	168.295	242.311	207.585	164.804	167.233	172.459	175.995	448.446	170.732	-8191	255	
934.187	1	1	0	0	0.11438	0.17392	0.1496	0.14238	0.088525	0.24658	0.093757	0.11759	0.14389	0.12009	0.14051	0.21421	0.10811	0.16661	0.18422	0.29014	-2.0021	-2.4208	-1.7146	-2.4667	-1.9312	-2.0875	-2.5271	-1.7979	-2.2687	-2.4417	-1.5625	-2.4729	-1.975	-1.9854	-2.4479	-1.9562	500.936	215.005	341.828	344.156	369.488	425.057	367.014	466.660	260.519	150.666	159.820	433.346	318.359	304.957	504.898	485.574	0.00015106	0.00063427	0.00031251	238.08	1.7358e-05	4.201e-06	277.89	99.028	1.6856e-05	1.5426e-05	115.78	47.165	40.537	20.52	1.7772e-05	23.42	0.0026092	0.0026677	0.00074528	479.01	2.9087e-05	2.9096e-05	485.38	176.7	2.9021e-05	2.9116e-05	233.24	89.456	115.53	32.76	2.9489e-05	40.05	167.468	356.920	183.332	163.838	177.217	332.611	160.950	167.933	295.762	460.865	164.152	167.919	172.344	175.589	173.371	171.077	-8191	255	
934.283	1	1	0	0	0.11233	0.25558	0.19523	0.1178	0.080038	0.23389	0.26067	0.15423	0.21931	0.13739	0.18353	0.10651	0.025762	0.20065	0.060807	0.39296	-1.7958	-2.2583	-1.5458	-2.4729	-1.9542	-2.0104	-2.7417	-1.8729	-2.1917	-2.4083	-1.8333	-2.5958	-1.9188	-1.8104	-2.4	-1.7333	285.208	372.020	164.849	363.959	258.560	344.212	288.281	467.438	509.493	495.717	455.153	287.682	176.105	492.525	220.903	455.954	0.00057329	8.0976e-05	0.00033958	236.23	1.9211e-05	1.2898e-05	279.23	100.34	9.2927e-06	1.1971e-05	118.27	48.279	40.474	20.442	1.2799e-05	23.503	0.0026317	0.0026934	0.00075008	481.77	2.9423e-05	2.9452e-05	490.47	178.14	2.9444e-05	2.9485e-05	236.1	90.141	116.36	32.952	2.978e-05	40.47	170.971	158.924	177.617	163.582	298.975	372.708	160.279	167.696	452.848	163.654	163.891	167.139	171.967	176.745	479.843	170.927	-8191	255	
934.379	1	1	0	0	0.11281	0.059409	0.027831	0.25878	0.18539	0.19781	0.29933	0.19881	0.37534	0.30162	0.19866	0.22079	0.072847	0.28098	0.058949	0.5167	-1.7062	-2.4771	-1.6125	-2.5521	-2.1	-1.9021	-2.6437	-1.9792	-2.0917	-2.5312	-1.875	-2.2354	-2.2125	-1.7979	-2.6188	-1.9354	226.688	249.893	482.788	162.942	506.384	353.969	193.209	504.584	493.749	233.971	165.969	335.571	222.818	487.929	409.093	506.062	0.00021311	0.00072852	5.3981e-05	236.46	7.6937e-06	2.5027e-05	276.92	99.535	1.5383e-05	8.1762e-06	114.82	47.186	40.3	20.418	4.2741e-06	23.471	0.0026615	0.0027418	0.00076325	485.59	3.0032e-05	3.0129e-05	494.41	179.63	2.998e-05	3.016e-05	236.77	90.791	117.19	32.988	3.0003e-05	40.193	188.157	475.738	231.124	163.491	299.207	328.096	161.012	167.189	387.248	314.336	163.977	167.044	171.661	176.205	507.192	170.827	-8191	255	
934.475	1	1	0	0	0.13805	0.27238	0.21077	0.20581	0.019683	0.10344	0.44593	0.15865	0.11574	0.22511	0.089006	0.20311	0.16176	0.27747	0.016072	0.11828	-1.5187	-2.6979	-1.7	-2.4667	-2.2792	-1.7354	-2.6104	-2.025	-1.8813	-2.6083	-1.7125	-2.1958	-2.1875	-1.6604	-2.4875	-2.2	190.581	279.559	508.992	157.676	227.269	231.101	489.138	385.114	266.098	165.922	323.697	495.319	348.978	413.436	255.658	212.948	0.00027485	0.00096204	6.5026e-05	238.62	8.606e-06	1.5523e-05	281.15	98.609	4.9708e-06	6.772e-06	116.1	47.652	40.82	20.679	5.8351e-06	23.62	0.002651	0.0027412	0.00076198	485.37	2.9853e-05	2.9976e-05	494.45	179.08	2.9974e-05	3.018e-05	237.05	90.714	117.41	33.124	3.011e-05	40.475	150.461	429.207	312.921	163.173	271.267	178.490	161.102	167.730	174.574	223.713	164.104	166.930	170.830	175.467	279.818	170.395	-8191	255	
934.572	1	1	0	0	0.22697	0.075654	0.4004	0.20597	0.068921	0.23222	0.090176	0.14416	0.038132	0.14335	0.2256	0.24934	0.062918	0.14863	0.04026	0.14954	-1.5667	-2.4375	-1.8312	-2.3083	-2.4542	-1.8542	-2.6208	-2.1479	-1.9583	-2.6521	-2.1229	-2.3958	-2.3292	-1.6979	-2.5771	-2.4167	448.352	256.226	186.756	216.667	166.334	408.124	385.006	464.319	277.710	232.531	478.965	166.377	150.261	405.152	268.052	462.019	0.00043401	0.00086796	0.00045104	232.7	1.7703e-05	1.2059e-05	279.86	98.876	3.4173e-06	7.7866e-06	116.74	48.27	40.207	20.725	5.8679e-06	23.735	0.0026707	0.0027498	0.0007671	489.28	3.0343e-05	3.0284e-05	496.98	180.68	3.0528e-05	3.0555e-05	239.58	91.674	118.57	33.344	3.0305e-05	40.795	184.304	493.190	222.996	163.438	380.324	488.358	160.500	167.601	401.722	376.648	164.353	167.607	171.623	175.862	326.539	171.068	-8191	255	
934.692	1	1	0	0	0.010756	0.22156	0.32225	0.020951	0.12624	0.35957	0.23569	0.14255	0.11836	0.11375	0.2328	0.2849	0.1992	0.29659	0.17734	0.34135	-1.3563	-2.6833	-1.9604	-1.9458	-2.5417	-1.8813	-2.5042	-2.4917	-1.7729	-2.7313	-2.125	-2.0271	-2.6146	-2.0229	-2.4979	-2.2438	188.009	265.628	407.598	355.934	366.376	414.064	469.797	364.693	258.965	296.511	450.696	439.072	282.485	441.221	508.432	160.990	0.00030963	0.00087872	0.00021413	238.24	1.1565e-05	1.2887e-05	281.75	99.714	1.016e-05	1.4578e-05	118.67	48.331	40.429	20.51	1.1346e-05	23.936	0.0026845	0.002758	0.00076928	488.24	3.0254e-05	3.0138e-05	495.65	179.73	3.0014e-05	2.9969e-05	237.32	90.57	117.1	32.981	2.9705e-05	40.372	159.061	159.242	337.886	163.697	480.100	391.920	161.221	167.016	387.494	411.402	164.189	168.186	169.072	176.155	272.857	170.724	-8191	255	
934.788	1	1	0	0	0.3272	0.11935	0.2278	0.2077	0.088655	0.29007	0.20932	0.19688	0.14761	0.13081	0.12773	0.3705	0.28904	0.14487	0.30498	0.073175	-1.1083	-2.5521	-2.1854	-1.9	-2.6771	-1.9	-2.5625	-2.4271	-1.8312	-2.7229	-2.1521	-1.9688	-2.6083	-1.9	-2.1875	-2.4083	381.229	352.201	288.411	252.587	445.102	457.563	171.955	194.721	503.274	505.702	429.500	215.053	246.437	175.922	242.858	343.880	0.00049091	0.0014123	9.5174e-05	234.67	6.5001e-06	1.0115e-05	277.37	98.203	1.0762e-05	1.462e-05	116.09	48.002	39.514	20.32	9.1018e-06	23.445	0.0026386	0.0027127	0.00075368	483.71	2.9683e-05	2.9746e-05	490.31	177.71	2.9706e-05	2.9821e-05	235.76	90.448	117.57	33.086	3.0207e-05	40.671	161.132	399.918	246.804	163.864	392.776	310.044	160.715	167.894	430.750	356.884	163.774	167.879	172.086	175.765	434.479	171.173	-8191	255	
934.884	1	1	0	0	0.22056	0.26048	0.052371	0.29027	0.24217	0.26024	0.063673	0.1853	0.078713	0.15702	0.11422	0.27314	0.39871	0.23141	0.14937	0.36391	-1.2458	-2.5417	-2.1021	-1.8167	-2.5646	-1.9104	-2.5375	-2.6958	-1.7437	-2.5333	-2.2062	-2.0812	-2.6292	-2.1667	-2.1375	-2.6688	164.084	283.219	296.763	434.799	429.971	226.598	386.782	401.325	242.868	492.004	362.443	283.239	338.394	402.436	209.487	304.033	0.0003937	0.00058545	0.00036225	235.74	1.4143e-05	4.3258e-06	277.92	99.408	1.7305e-05	8.0905e-06	116.18	48.223	39.832	20.381	2.4855e-05	23.608	0.0026713	0.0027653	0.00076713	487.73	3.0216e-05	3.011e-05	493.53	179.56	2.9985e-05	3.009e-05	237.42	90.809	117.83	33.06	3.0056e-05	40.672	494.574	279.393	396.199	164.369	204.354	497.977	160.986	167.883	508.433	167.355	164.677	167.649	171.358	175.994	211.236	171.016	-8191	255	
934.956	1	1	0	0	0.30101	0.17216	0.02979	0.01362	0.21824	0.21717	0.13685	0.29054	0.1153	0.16631	0.122	0.16082	0.28226	0.13843	0.16562	0.19647	-1.4583	-2.3458	-2.2458	-1.9042	-2.5438	-2.0167	-1.9062	-2.6521	-1.7563	-2.2396	-2.4562	-1.7792	-2.5563	-2.1208	-1.7667	-2.6896	219.290	192.709	190.536	286.568	406.636	455.441	361.878	352.036	225.981	287.199	489.174	290.624	445.659	436.090	499.388	436.188	0.00022324	0.001132	0.00049888	235.21	3.5057e-06	1.0911e-05	284.26	100.91	5.6818e-06	8.6983e-06	118.66	47.978	40.774	20.719	1.6802e-05	23.548	0.0026774	0.0027549	0.00076673	487.17	3.026e-05	3.034e-05	497.75	181.12	3.0295e-05	3.0302e-05	239.96	91.628	118.79	33.378	3.0484e-05	41.06	483.018	249.418	164.723	163.650	203.367	364.948	160.222	167.904	244.804	290.028	164.929	167.754	169.300	176.126	466.866	170.896	-8191	255	
935.075	1	1	0	0	0.36402	0.1071	0.23949	0.28319	0.31458	0.18291	0.10964	0.022563	0.083683	0.21331	0.16174	0.16745	0.094702	0.058489	0.069087	0.22833	-1.4542	-2.3354	-2.3021	-1.7333	-2.6	-1.9375	-1.8646	-2.6521	-1.7479	-2.0667	-2.3937	-1.7333	-2.3688	-1.9604	-1.7375	-2.5333	475.189	311.356	472.592	151.229	403.533	381.838	160.841	469.103	482.692	205.717	476.611	491.865	204.143	502.837	470.940	492.058	0.00049007	0.00064478	0.00013193	236.6	1.4089e-05	1.8064e-05	278.49	99.96	1.4474e-05	3.1504e-06	118.49	47.913	41.036	20.717	1.4015e-05	23.484	0.0027187	0.0027869	0.00077532	492.44	3.0483e-05	3.0601e-05	498.49	181.46	3.0406e-05	3.0496e-05	240.43	91.729	119.31	33.313	3.0407e-05	40.71	175.177	280.794	469.276	163.128	489.894	392.661	161.389	167.510	285.317	182.630	163.991	168.353	172.717	176.383	264.205	171.015	-8191	255	
935.171	1	1	0	0	0.2035	0.078128	0.18516	0.23206	0.075577	0.13782	0.089633	0.27931	0.099003	0.19787	0.17585	0.095367	0.11715	0.12686	0.13599	0.18013	-1.5229	-2.1833	-2.3292	-1.725	-2.2875	-2.3625	-1.9167	-2.5208	-2.0875	-2.0896	-2.5542	-1.5771	-2.4896	-2.1542	-1.8292	-2.6542	156.362	230.471	229.962	247.211	322.232	421.929	202.554	464.110	259.706	299.108	265.467	453.690	421.414	454.087	486.621	454.028	0.00033579	0.00029277	0.00032968	237.11	4.3507e-06	1.7077e-05	278.72	99.107	5.4713e-06	1.236e-05	115.44	48.394	39.53	20.342	1.0197e-05	23.433	0.0026996	0.0027713	0.00076936	487.31	3.0292e-05	3.0252e-05	496.35	179.53	3.0045e-05	3.0096e-05	236.61	90.455	116.31	32.834	2.9319e-05	40.012	216.951	468.395	280.813	164.286	469.198	208.904	161.141	168.364	382.979	305.536	163.837	167.639	171.382	176.308	461.229	170.616	-8191	255	
935.267	1	1	0	0	0.020368	0.3357	0.019018	0.11089	0.10757	0.3372	0.12892	0.1927	0.17013	0.10123	0.11115	0.12884	0.20271	0.2531	0.21249	0.15127	-1.6646	-1.975	-2.7479	-1.8396	-2.4125	-2.3729	-1.8813	-2.3542	-2.0875	-1.9875	-2.6437	-1.7917	-2.1	-2.3125	-1.8896	-2.5042	378.869	280.818	338.722	335.583	292.151	211.975	175.103	388.457	176.374	367.046	159.257	331.335	476.408	168.917	468.295	204.675	0.0002712	0.00086706	0.00040199	236.49	1.6427e-05	1.7605e-05	280.75	99.244	7.1345e-06	6.552e-06	115.8	48.095	40.086	20.293	6.5743e-06	23.666	0.0025995	0.0026712	0.00074079	479.3	2.9223e-05	2.9312e-05	490.41	178.06	2.9381e-05	2.9499e-05	235.52	89.886	115.66	32.665	2.919e-05	40.044	181.139	352.015	409.427	163.828	372.135	320.798	161.620	168.009	407.277	392.530	163.883	167.915	171.048	176.236	395.474	171.080	-8191	255	
935.365	1	1	0	0	0.29231	0.17544	0.098461	0.096232	0.15663	0.11354	0.089106	0.10108	0.083274	0.027312	0.032433	0.14519	0.16933	0.19	0.29393	0.08427	-1.5417	-1.8563	-2.6167	-1.7458	-2.1708	-2.5208	-1.8188	-2.4458	-2.1063	-1.7896	-2.5771	-1.7687	-2.0271	-2.6688	-1.9104	-2.4729	258.027	504.751	282.705	180.001	315.313	287.403	295.737	494.391	497.218	261.857	350.225	460.483	187.550	425.929	413.259	278.255	0.00027249	0.00077879	0.00015839	237.79	6.8056e-06	9.1663e-06	281.01	99.809	8.1299e-06	1.0217e-05	119.92	48.151	40.5	20.235	6.164e-06	23.838	0.0025828	0.0026681	0.0007447	481.16	2.9435e-05	2.9633e-05	491.46	178.49	2.935e-05	2.9425e-05	236.48	90.17	115.92	32.721	2.9283e-05	40.266	152.511	422.203	302.226	163.297	198.440	346.474	160.829	168.495	503.795	251.103	164.841	168.130	172.502	176.011	207.529	171.391	-8191	255	
935.484	1	1	0	0	0.10128	0.36001	0.35531	0.22436	0.16911	0.24533	0.17485	0.26336	0.14721	0.15166	0.50388	0.20904	0.13318	0.18341	0.16255	0.16178	-1.9958	-1.8646	-2.4333	-1.9396	-1.9792	-2.5646	-1.9167	-2.4208	-2.1646	-1.95	-2.5042	-1.9625	-1.8333	-2.5792	-1.8708	-2.2854	417.373	325.601	388.696	235.270	226.652	315.668	443.739	151.415	209.807	204.124	153.597	455.836	240.674	493.366	400.742	274.411	0.00028569	0.00048654	0.00022582	238.1	3.5703e-06	2.0669e-05	282.33	99.022	1.0963e-05	5.0133e-06	118.07	48.52	40.392	20.36	1.4426e-05	23.762	0.0025996	0.002674	0.0007427	480.19	2.9298e-05	2.9452e-05	490.64	177.81	2.9252e-05	2.9402e-05	234.93	89.913	115.45	32.659	2.9224e-05	40.142	169.250	383.916	439.794	163.508	400.172	230.717	160.791	168.265	432.411	179.125	163.872	168.105	171.955	176.223	269.207	170.487	-8191	255	
935.556	1	1	0	0	0.11576	0.16055	0.13627	0.19829	0.18003	0.2024	0.097621	0.093936	0.29742	0.11389	0.14668	0.24305	0.13028	0.14641	0.099366	0.1882	-1.8333	-1.7542	-2.45	-2.1021	-2.0396	-2.5896	-1.7979	-2.3	-2.3833	-1.6458	-2.4417	-1.9875	-1.8146	-2.6417	-1.8167	-1.9896	378.475	321.119	393.981	446.267	244.758	480.102	304.052	421.644	164.405	411.635	434.653	197.672	476.543	169.455	506.365	445.394	0.00023052	0.00052353	0.00031596	236.82	2.9166e-06	7.0036e-06	280.46	99.802	1.0048e-05	1.6034e-05	118.11	48.437	40.15	20.291	1.1572e-05	23.82	0.0025981	0.002677	0.00074653	480.06	2.932e-05	2.9377e-05	488.61	177.26	2.9234e-05	2.9249e-05	234.65	89.804	115.22	32.588	2.9074e-05	40.014	201.834	449.846	371.987	163.654	208.817	208.629	160.578	168.057	421.444	186.863	164.936	168.005	171.109	176.082	233.484	171.678	-8191	255	
935.652	1	1	0	0	0.13349	0.14111	0.26554	0.26517	0.27201	0.21774	0.19004	0.21596	0.14297	0.17892	0.19492	0.2514	0.098116	0.23807	0.07821	0.12267	-2.3063	-1.75	-2.3542	-2.1792	-1.7	-2.5354	-1.9042	-2.0792	-2.5708	-1.8667	-2.5792	-2.5083	-1.8771	-2.7062	-1.95	-2.0979	213.242	343.082	404.207	483.967	354.973	343.113	390.425	169.413	264.529	325.532	165.767	503.941	407.650	159.878	226.264	397.723	0.00035693	0.0010115	0.0003366	233.05	1.1592e-05	1.982e-05	277.45	100.21	9.0308e-06	4.6532e-06	119.48	48.308	40.442	20.369	9.1203e-06	23.908	0.0025734	0.0026517	0.00074078	477.18	2.9053e-05	2.9136e-05	487.82	177.24	2.9122e-05	2.9112e-05	234.47	89.807	114.85	32.585	2.8957e-05	40.128	175.419	369.842	191.793	163.674	257.617	189.491	161.243	167.904	271.979	273.911	163.853	167.813	171.701	175.990	323.000	170.484	-8191	255	
935.773	1	1	0	0	0.19836	0.055366	0.013928	0.13126	0.062777	0.056576	0.26385	0.19356	0.11099	0.19832	0.34298	0.19054	0.06217	0.20889	0.11821	0.11312	-2.1229	-1.7125	-2.225	-2.2208	-1.8958	-2.5167	-2.1188	-1.9688	-2.4771	-1.7542	-2.2042	-2.4833	-1.7125	-2.5563	-2.1	-2.0042	392.627	494.526	374.346	487.893	224.615	192.301	272.385	467.762	392.367	356.056	489.376	191.356	208.276	471.245	435.112	210.761	0.00027146	0.0017596	0.00040988	234.97	1.4917e-06	7.4741e-06	281.61	100.71	3.4016e-05	9.0691e-06	118.48	48.413	41.183	20.311	7.3509e-06	23.497	0.0025917	0.0026532	0.00074126	477.38	2.9139e-05	2.9337e-05	489.67	177.75	2.9253e-05	2.9368e-05	236.27	90.485	116.19	32.854	2.9554e-05	40.429	160.921	285.277	167.009	162.978	169.239	484.489	160.869	168.345	376.425	366.897	163.696	167.461	170.356	176.177	245.741	170.954	-8191	255	
935.869	1	1	0	0	0.12555	0.11898	0.20628	0.22989	0.087657	0.26045	0.29073	0.27811	0.14778	0.038582	0.046847	0.15112	0.04939	0.082681	0.10498	0.14643	-2.1333	-1.8312	-2.1729	-2.3167	-1.6396	-2.4271	-2.2729	-1.9	-2.6729	-1.9583	-2.2146	-2.5354	-1.7167	-2.3854	-2.3729	-1.8229	454.445	307.190	259.494	330.934	480.352	153.448	178.442	286.131	373.211	183.735	381.790	460.611	264.635	467.958	178.686	301.214	0.0004963	0.00090298	0.0004245	233.88	1.3014e-05	6.5032e-06	279.7	99.722	7.842e-06	1.2294e-05	116.89	48.21	40.017	20.205	5.506e-06	23.608	0.0026447	0.0027121	0.00075293	480.82	2.9617e-05	2.9768e-05	491.17	178.49	2.9511e-05	2.9665e-05	236.12	90.508	116.63	32.769	2.9708e-05	40.241	178.323	179.825	459.731	164.173	268.935	378.161	161.075	167.673	374.331	497.999	164.320	167.088	172.609	176.232	459.380	171.598	-8191	255	
935.965	1	1	0	0	0.13667	0.11055	0.14612	0.1866	0.16425	0.12591	0.19784	0.11081	0.09756	0.30468	0.059961	0.14003	0.075241	0.05469	0.27401	0.15143	-2.1646	-2.0083	-2.1146	-2.5083	-1.7792	-2.475	-2.2417	-1.8771	-2.5333	-2.0021	-2.0271	-2.6937	-1.7792	-2.4292	-2.4646	-1.7417	353.058	215.024	251.026	405.199	483.948	224.876	303.614	504.476	185.974	227.596	314.061	302.471	438.110	324.615	379.218	489.765	0.00036669	0.00052781	0.00024333	236.49	5.0032e-06	2.6469e-05	281.45	100.47	1.3088e-05	1.0792e-05	117.64	48.528	39.295	20.274	1.7811e-05	23.687	0.002635	0.0026971	0.00075335	483.38	2.9732e-05	2.9705e-05	491.79	178.78	2.9558e-05	2.9616e-05	236.43	90.395	115.82	32.633	2.9338e-05	40.266	179.345	217.970	430.914	163.151	340.941	203.662	160.960	167.547	168.134	207.782	164.878	167.414	172.265	176.923	277.524	170.583	-8191	255	
936.085	1	1	0	0	0.13346	0.18481	0.16175	0.10492	0.093936	0.31932	0.15762	0.19226	0.13275	0.053296	0.099819	0.03057	0.28055	0.12608	0.12346	0.058429	-2.4417	-2.2667	-2.0312	-2.7812	-1.8917	-2.3917	-2.5146	-2.0208	-2.8	-2.1958	-1.9042	-2.6437	-1.7854	-2.1646	-2.4896	-1.9354	300.435	226.792	286.316	415.913	234.679	194.987	250.073	180.609	490.966	466.111	380.681	208.892	384.494	333.119	337.994	303.937	0.00022291	0.0012437	0.00036333	237.15	1.5415e-05	1.1579e-05	284.2	100.53	9.6403e-06	2.1861e-06	119.86	48.942	38.79	20.499	9.5675e-06	23.734	0.002602	0.0026802	0.00074238	480.73	2.9186e-05	2.934e-05	491.72	178.26	2.9313e-05	2.9395e-05	237.38	90.478	116.07	32.787	2.9448e-05	40.348	506.726	261.017	474.092	163.022	294.849	448.288	160.230	167.949	492.141	452.606	164.052	168.236	172.467	175.768	204.616	171.581	-8191	255	
936.180	1	1	0	0	0.20555	0.13024	0.075176	0.23114	0.13723	0.45884	0.18493	0.1153	0.06746	0.10146	0.048036	0.12467	0.1133	0.11309	0.15367	0.14667	-2.2271	-2.1979	-1.7896	-2.7687	-2.1667	-2.3812	-2.7521	-2.0312	-2.2854	-2.5292	-2.1458	-2.8521	-2.0438	-2.2	-2.5792	-1.7854	196.260	386.387	393.698	158.629	357.339	240.142	467.890	211.319	233.051	474.409	320.327	183.891	369.679	317.527	172.235	150.720	0.00013085	0.00022893	0.00035239	240.38	1.3168e-05	1.2517e-05	284.09	100.01	9.3892e-06	6.827e-06	118.23	48.587	39.861	20.647	7.7964e-06	23.583	0.0026117	0.0026805	0.00074913	480.58	2.9345e-05	2.9434e-05	492.12	178.01	2.9202e-05	2.9251e-05	235.88	90.122	115.96	32.753	2.9548e-05	40.208	161.104	202.360	448.315	164.111	411.426	259.217	160.822	168.527	476.474	318.038	163.658	168.354	170.790	176.416	177.638	170.995	-8191	255	
936.252	1	1	0	0	0.11723	0.028413	0.076881	0.0405	0.26088	0.29992	0.049019	0.33043	0.077701	0.13767	0.02243	0.046793	0.17748	0.18664	0.12484	0.15535	-2.1229	-2.2812	-1.9646	-2.4396	-2.0021	-1.9917	-2.6083	-1.6708	-2.325	-2.4188	-1.8729	-2.5417	-1.9083	-1.8729	-2.6646	-1.8333	504.292	343.895	311.267	395.367	262.596	238.519	450.266	434.026	305.168	299.113	491.655	291.207	153.142	433.877	268.646	417.092	0.00058901	0.00121	0.00013117	237.23	9.8668e-06	2.9661e-05	283.82	100.26	1.6262e-05	1.4509e-05	116.71	48.356	40.821	20.419	1.7026e-05	23.219	0.0026304	0.0026902	0.00075205	483.02	2.9641e-05	2.9696e-05	495.81	179.24	2.9847e-05	2.9813e-05	237.48	91.098	117.15	32.888	3.0099e-05	40.467	170.100	439.695	221.031	163.293	294.541	228.629	161.077	167.345	316.938	491.069	164.485	167.623	171.536	176.017	416.835	171.417	-8191	255	
936.372	1	1	0	0	0.20352	0.34253	0.024205	0.20147	0.24418	0.17699	0.28509	0.33066	0.12843	0.15884	0.2924	0.091538	0.17845	0.17694	0.045737	0.19691	-1.8563	-2.3563	-1.7208	-2.4	-2.1708	-1.9833	-2.6562	-1.6938	-2.1917	-2.4688	-1.6771	-2.6417	-2.0833	-1.9979	-2.4813	-1.8937	224.401	221.158	331.534	473.434	271.946	441.875	460.785	411.126	339.525	295.680	169.453	487.406	214.033	380.949	154.445	491.506	0.00044429	0.00064838	0.00027281	236.49	4.3197e-06	4.2349e-06	286.29	99.431	1.3309e-05	4.5373e-06	118.72	48.558	39.79	20.578	1.4834e-05	23.838	0.0026559	0.0027257	0.00075694	485.54	2.9757e-05	2.9841e-05	496.97	178.93	2.9637e-05	2.9677e-05	238.31	91.066	116.77	33.017	2.9772e-05	40.675	179.370	314.618	328.484	163.500	295.034	432.836	161.409	166.917	375.316	426.750	164.302	168.085	172.022	176.097	458.181	171.663	-8191	255	
936.468	1	1	0	0	0.0046847	0.15705	0.12466	0.31265	0.24238	0.21381	0.20722	0.14486	0.10979	0.091075	0.11898	0.25398	0.22509	0.3217	0.025883	0.13108	-1.6083	-2.4521	-1.7875	-2.3125	-2.1312	-1.7458	-2.5729	-1.7938	-2.1771	-2.4792	-1.9354	-2.3563	-2.3729	-1.7625	-2.6271	-2.0167	342.514	371.437	388.295	480.649	291.313	245.002	433.014	416.115	158.440	416.605	190.156	300.655	176.012	426.787	443.604	445.765	0.0004955	0.0012645	0.00021431	237.52	1.0069e-05	1.5283e-05	285.44	100.94	2.8124e-06	9.6777e-06	119.25	49.206	40.003	20.715	2.6622e-06	24.03	0.00266	0.0027413	0.00076063	486.21	2.9812e-05	3.0015e-05	498.48	180.18	2.9759e-05	2.9841e-05	239.21	91.514	117.49	33.195	2.9888e-05	40.813	206.069	220.551	482.012	163.809	504.666	496.494	160.928	167.985	355.466	386.956	164.252	168.362	171.175	176.111	280.002	170.945	-8191	255	
936.564	1	1	0	0	0.11728	0.17578	0.26981	0.10251	0.23345	0.32426	0.31714	0.20181	0.1815	0.17454	0.2365	0.19703	0.07243	0.13235	0.17425	0.25768	-1.6146	-2.4562	-1.8396	-2.4604	-2.4104	-1.5875	-2.5417	-2.1167	-1.8417	-2.6479	-1.7896	-2.2667	-2.4437	-1.5896	-2.2833	-2.0771	166.054	384.252	499.950	451.147	150.854	435.480	482.011	442.567	411.963	444.084	422.958	336.056	199.521	504.868	419.661	463.343	0.0005771	0.00056972	0.00040304	235.76	3.3325e-06	1.1233e-05	281.18	98.665	1.4995e-05	9.4824e-06	119.17	48.747	39.597	20.711	5.5341e-06	23.735	0.0026524	0.0027287	0.00076096	486.79	2.999e-05	3.0141e-05	497.41	179.55	2.9953e-05	3.016e-05	239.7	91.923	117.85	33.262	3.0249e-05	40.916	167.333	205.030	276.983	163.359	281.735	490.131	160.863	168.535	236.967	295.823	163.677	168.247	171.473	175.969	449.067	170.882	-8191	255	
936.661	1	1	0	0	0.21211	0.126	0.18791	0.30291	0.26123	0.17204	0.11034	0.11662	0.20043	0.14463	0.059787	0.31159	0.17835	0.081173	0.27905	0.063813	-1.5271	-2.5583	-1.8375	-2.1292	-2.3458	-1.8958	-2.3583	-2.2479	-1.825	-2.5271	-1.7979	-1.9646	-2.3875	-1.8125	-2.2938	-2.25	273.806	217.152	482.491	160.634	469.471	320.021	418.300	240.157	412.041	194.311	284.601	243.471	261.655	428.782	456.317	342.010	0.00011562	0.00065494	6.9149e-05	236.38	5.1935e-06	6.1809e-06	284.98	100.01	1.3283e-05	1.6949e-05	120.31	48.579	40.183	20.433	1.6241e-05	23.822	0.002682	0.0027577	0.00076613	487.31	2.9975e-05	3.0073e-05	497.71	179.7	2.9934e-05	3.0045e-05	238.53	91.499	117.89	33.133	2.9993e-05	40.8	152.246	450.250	445.618	164.212	206.883	179.515	160.376	167.743	471.290	295.360	164.880	168.050	171.270	176.432	252.891	171.066	-8191	255	
936.781	1	1	0	0	0.069276	0.016266	0.20847	0.17507	0.17535	0.19165	0.17642	0.14018	0.065151	0.051908	0.24663	0.45518	0.24675	0.34945	0.33127	0.21876	-1.2771	-2.5646	-1.9688	-1.9937	-2.3354	-1.7521	-2.3146	-2.2687	-1.625	-2.4771	-2.1188	-2.0646	-2.6479	-1.6854	-2.2292	-2.3625	406.367	379.836	350.162	177.061	384.085	276.089	401.751	317.499	193.813	440.269	370.185	233.628	485.846	493.382	172.393	501.622	0.00037314	0.001139	0.0002711	234.45	4.3456e-06	7.1587e-06	282.77	100.71	1.1988e-05	1.0512e-05	120.97	49.411	38.937	20.592	1.5503e-05	24.33	0.002658	0.002741	0.0007588	486.48	2.9914e-05	3.0037e-05	499.46	180.53	2.9984e-05	3.0205e-05	240	91.995	118.28	33.301	3.0143e-05	41.191	175.511	308.408	416.254	163.317	287.259	262.794	160.916	167.525	280.379	383.347	164.272	168.023	172.892	176.423	329.064	171.008	-8191	255	
936.853	1	1	0	0	0.13518	0.19071	0.043793	0.28329	0.24605	0.16787	0.30085	0.097615	0.12589	0.25233	0.10663	0.10578	0.091665	0.091254	0.081673	0.073773	-1.3146	-2.3688	-1.9333	-1.9042	-2.5875	-1.7292	-2.1979	-2.2208	-1.8792	-2.3271	-2.1437	-1.9271	-2.5375	-1.8292	-2.1312	-2.3979	445.265	209.037	250.249	485.884	281.704	335.478	399.400	413.517	415.283	204.373	386.332	280.725	472.799	411.493	249.359	182.536	0.0002719	0.0012028	4.4844e-05	236.61	1.2777e-05	1.3612e-05	285.86	101.5	1.9655e-05	1.8387e-05	119.4	49.074	40.781	20.748	1.1222e-05	24.069	0.002679	0.0027557	0.00076778	489.75	3.0285e-05	3.0211e-05	502.52	181.48	3.0223e-05	3.0474e-05	242.04	93.016	119.29	33.512	3.0511e-05	41.249	230.873	273.692	255.645	163.354	302.681	349.652	160.822	167.764	332.551	266.198	164.213	167.435	171.414	176.627	198.851	171.668	-8191	255	
936.949	1	1	0	0	0.091879	0.16232	0.1171	0.13835	0.14993	0.088623	0.085535	0.2273	0.067627	0.10821	0.19562	0.14925	0.13392	0.17242	0.21419	0.14003	-1.3479	-2.3625	-2.2167	-1.6708	-2.5458	-2.0062	-2.075	-2.3312	-1.6958	-2.4604	-2.075	-1.7812	-2.6292	-2.0062	-1.8729	-2.4771	502.033	235.229	244.377	447.225	352.108	374.620	351.470	151.760	262.479	450.695	437.206	160.311	498.264	475.837	281.762	374.375	0.00053383	0.0005606	0.00014118	238.27	3.1411e-06	2.1694e-05	283.26	99.521	2.1288e-05	5.1956e-06	117.01	48.689	40.641	20.687	7.8945e-06	23.929	0.0026904	0.0027678	0.0007678	487.88	3.032e-05	3.0236e-05	500.36	181.02	3.0336e-05	3.0313e-05	240.66	92.273	118.96	33.378	3.0365e-05	41.259	215.768	329.341	451.914	164.018	369.366	349.102	161.856	167.992	188.607	326.338	165.250	168.975	172.582	175.984	493.120	170.735	-8191	255	
937.045	1	1	0	0	0.41409	0.21717	0.13497	0.25748	0.16784	0.22294	0.31365	0.32305	0.17083	0.24935	0.23507	0.33554	0.22434	0.32938	0.15619	0.042932	-1.2771	-2.2583	-2.2708	-1.6583	-2.6833	-2.0708	-1.9562	-2.5021	-1.7125	-2.3438	-2.3271	-1.7542	-2.6146	-2.0083	-1.9438	-2.9062	432.021	404.490	413.073	183.764	363.275	258.739	372.779	387.364	331.520	377.292	289.882	467.394	228.032	420.914	186.691	318.054	0.00033074	0.0011796	0.00024577	238.6	4.9526e-06	5.7629e-06	284.9	99.841	1.5019e-05	1.3608e-05	118.6	49.082	39.513	20.757	1.6237e-05	24.212	0.0027006	0.0027657	0.00076862	489.64	3.0523e-05	3.0522e-05	501.56	181.15	3.039e-05	3.059e-05	242.14	92.761	119.86	33.568	3.0637e-05	41.509	167.732	488.881	390.342	164.033	389.062	207.567	160.958	167.380	200.833	371.405	163.583	168.394	172.975	176.206	194.595	171.654	-8191	255	
937.166	1	1	0	0	0.099641	0.17493	0.10439	0.32317	0.18899	0.12902	0.042227	0.07807	0.18888	0.29374	0.16154	0.078502	0.22014	0.22605	0.33933	0.16925	-1.4354	-2.125	-2.3521	-1.9042	-2.4458	-2.2542	-1.8333	-2.6479	-1.8188	-2.05	-2.4604	-1.8625	-2.4229	-2.075	-1.7396	-2.6771	272.134	475.715	271.608	460.232	405.057	330.058	246.534	497.751	158.548	482.716	170.662	323.426	423.991	455.661	187.393	353.194	0.00028177	0.00082368	0.00014999	239	8.0788e-06	1.9449e-05	287.61	100.1	1.1814e-05	1.5026e-05	119.53	49.919	40.697	20.877	8.7607e-06	24.576	0.0027242	0.0028084	0.00078425	493.59	3.0885e-05	3.092e-05	508.63	183.41	3.0923e-05	3.0936e-05	244.53	93.306	120.01	33.568	3.0423e-05	41.407	171.743	445.917	471.800	163.516	363.866	376.586	160.964	168.427	264.629	291.656	164.375	168.829	171.800	176.339	283.264	171.321	-8191	255	
937.260	1	1	0	0	0.098279	0.24563	0.087085	0.1582	0.031735	0.39976	0.16434	0.069441	0.11534	0.14131	0.1296	0.079057	0.24558	0.17586	0.086209	0.20486	-1.6208	-2.0021	-2.3083	-1.6396	-2.2854	-2.2625	-1.7687	-2.5438	-2.0646	-2.0563	-2.5271	-1.8146	-2.3292	-2.4417	-1.725	-2.375	340.618	475.395	444.974	476.720	390.364	267.221	467.846	248.938	219.217	166.411	449.558	246.438	325.474	336.915	425.950	181.670	0.00031937	0.00045231	0.00024486	236.4	5.4985e-06	7.0702e-06	281.86	99.8	1.7439e-06	8.0127e-06	119.13	48.613	39.938	20.64	6.0486e-06	24.196	0.0026803	0.0027497	0.00076607	487.1	2.9933e-05	2.9968e-05	498.49	179.89	2.9841e-05	2.9796e-05	240.26	91.587	117.66	33.215	2.9902e-05	40.972	177.344	446.392	225.734	163.244	423.077	366.971	161.138	168.142	275.929	300.070	164.735	168.557	170.906	176.394	331.557	171.026	-8191	255	
937.356	1	1	0	0	0.019683	0.13056	0.099598	0.30323	0.15364	0.16057	0.22924	0.080548	0.14435	0.048537	0.24804	0.23104	0.19912	0.14327	0.28077	0.12772	-1.6458	-2.0187	-2.4792	-1.8979	-2.1854	-2.5521	-1.6958	-2.3312	-2.0792	-1.9917	-2.4688	-1.9521	-2.1854	-2.5375	-1.7333	-2.6167	296.828	312.487	297.273	154.695	416.737	200.659	461.253	400.816	480.441	248.932	293.379	423.130	485.620	287.743	330.692	488.924	0.00015768	0.00074155	0.0002439	237.21	1.2239e-05	1.1954e-05	287.18	99.614	1.2494e-05	3.8206e-06	117.91	49.186	39.072	20.689	1.3511e-05	24.126	0.0026449	0.0027268	0.0007558	484.51	2.9784e-05	2.9779e-05	495.93	179.39	2.9743e-05	2.9804e-05	237.85	91.481	117.25	33.15	2.977e-05	40.824	216.855	177.679	227.340	163.584	166.365	344.834	161.518	168.453	380.019	281.908	163.672	167.987	171.510	176.146	232.493	171.547	-8191	255	
937.453	1	1	0	0	0.13587	0.10632	0.15604	0.29355	0.16998	0.14647	0.14032	0.23149	0.044726	0.30311	0.083838	0.31743	0.066325	0.067879	0.15451	0.065541	-1.8167	-1.6938	-2.3396	-1.9896	-2.3708	-2.6083	-1.8729	-2.4313	-2.3521	-2.0833	-2.7458	-1.9729	-2.0208	-2.5979	-1.7708	-2.4437	209.151	387.037	251.424	390.032	409.765	409.137	378.532	477.295	508.418	164.504	381.384	453.397	418.433	240.754	211.734	444.107	0.00028803	0.00036254	0.00021959	234.87	1.1825e-05	6.0398e-06	282.27	101.07	4.1184e-06	1.531e-06	121.55	49.517	40.024	20.614	9.172e-06	24.05	0.0026391	0.0027118	0.00075366	481.97	2.9601e-05	2.9659e-05	496.27	179.12	2.9654e-05	2.9643e-05	239.55	91.753	117.67	33.294	2.9949e-05	41.09	168.129	332.268	323.084	163.533	509.312	220.045	160.766	167.867	233.746	380.703	164.678	167.886	170.965	176.560	479.802	171.485	-8191	255	
937.549	1	1	0	0	0.29468	0.1574	0.090426	0.12567	0.08925	0.10897	0.056933	0.21998	0.20085	0.1998	0.15741	0.13155	0.1869	0.15867	0.030384	0.10796	-2.0438	-1.8542	-2.4771	-1.9333	-2.0438	-2.55	-2.05	-2.3271	-2.5375	-1.8438	-2.5292	-2.1167	-1.9208	-2.625	-1.6958	-2.3063	327.704	358.565	426.862	173.861	501.148	242.820	227.706	376.484	448.391	381.452	344.348	385.334	254.655	264.836	310.272	402.047	0.00049669	0.0010628	0.0002436	239.15	7.5844e-06	1.5884e-05	286.52	100.64	1.6049e-05	1.0956e-05	120.11	49.551	38.996	20.813	1.216e-05	24.126	0.0026677	0.0027518	0.00076646	488.87	3.0312e-05	3.0435e-05	503.78	181.47	3.0398e-05	3.0447e-05	242.59	92.638	118.98	33.445	3.0242e-05	41.11	507.170	436.212	207.203	163.582	213.549	160.932	160.912	168.516	383.528	205.359	164.362	167.673	172.003	176.143	239.772	170.662	-8191	255	
937.645	1	1	0	0	0.084612	0.13119	0.12851	0.24525	0.19944	0.091318	0.097141	0.18496	0.071588	0.24605	0.20525	0.14749	0.14658	0.20116	0.12544	0.17277	-2.1625	-1.7188	-2.4896	-2.1625	-1.7771	-2.5646	-1.9813	-2.1292	-2.5438	-1.7521	-2.4604	-2.15	-1.8062	-2.6604	-2.0312	-2.1458	244.903	398.791	232.052	354.486	408.992	295.520	209.485	473.291	398.784	463.638	480.942	509.868	304.691	468.629	394.899	308.012	0.00022528	0.00078462	0.00043876	238.69	1.8735e-05	1.7183e-05	282.72	98.414	5.7683e-06	2.0589e-05	117.99	48.835	39.511	20.41	4.1694e-06	23.844	0.0027016	0.0027578	0.00076932	490.02	3.04e-05	3.0562e-05	501.86	180.77	3.0596e-05	3.0468e-05	241.55	92.502	119.49	33.388	3.0502e-05	40.967	196.534	233.953	266.871	163.822	337.900	482.408	161.796	168.464	282.120	229.374	164.408	167.768	171.796	176.175	402.326	171.295	-8191	255	
937.765	1	1	0	0	0.40486	0.040485	0.38382	0.23206	0.02401	0.05538	0.16919	0.17666	0.2028	0.040188	0.14472	0.10129	0.24553	0.18434	0.12405	0.11323	-2.1708	-1.7354	-2.3042	-2.2438	-1.9479	-2.6271	-1.9542	-2.0312	-2.5354	-1.7687	-2.4021	-2.3646	-1.6708	-2.6292	-2.2083	-2.0646	394.984	272.766	395.413	270.920	274.243	293.313	502.316	348.820	304.114	487.507	352.066	482.410	216.584	420.555	227.160	451.642	0.00027778	0.00077959	0.00015845	234.02	1.3437e-05	9.9491e-06	281.2	98.165	9.5599e-06	1.6475e-05	119.43	48.216	39.543	20.327	7.7182e-06	23.919	0.0027092	0.0027803	0.00077514	489.45	3.0407e-05	3.0505e-05	500.81	180.44	3.0175e-05	3.0264e-05	239.27	91.417	117.85	33.039	3.0329e-05	40.828	160.295	297.016	277.264	163.808	246.321	346.614	161.265	168.902	287.124	493.523	164.908	168.759	172.680	176.698	348.847	170.903	-8191	255	
937.862	1	1	0	0	0.0047455	0.12584	0.077066	0.24862	0.16062	0.21016	0.12275	0.17194	0.065889	0.11393	0.2634	0.08143	0.14393	0.25299	0.074945	0.25203	-2.2229	-1.5771	-2.2854	-2.4271	-1.7687	-2.4958	-2.1083	-1.9937	-2.6354	-1.8708	-2.2458	-2.2729	-1.7437	-2.4354	-2.1208	-1.8979	272.193	414.739	237.352	211.595	419.824	347.969	391.332	459.108	267.482	399.240	480.687	399.198	474.454	168.896	450.526	311.344	0.00036271	0.00096803	0.0001953	234.45	6.8531e-06	2.505e-05	285.65	100.17	1.8917e-05	9.0721e-06	117.52	49.148	39.27	20.544	1.7145e-05	24.116	0.0026947	0.0027671	0.00077088	488.33	3.0198e-05	3.0297e-05	499.51	180.47	3.0148e-05	3.0147e-05	240.37	91.883	118.48	33.205	3.0129e-05	41.024	161.710	491.612	454.462	163.975	207.896	356.183	161.452	168.587	441.989	306.325	163.540	168.441	171.869	175.889	491.041	170.963	-8191	255	
937.958	1	1	0	0	0.095854	0.18218	0.063379	0.016587	0.16492	0.057928	0.23011	0.29492	0.2883	0.14876	0.13077	0.062796	0.039725	0.25009	0.080538	0.34491	-1.9833	-1.8667	-2.1375	-2.5812	-1.6688	-2.4125	-2.2938	-1.7313	-2.5292	-2.0542	-1.9854	-2.6792	-1.6646	-2.4437	-2.4271	-1.8354	494.068	159.570	492.100	284.751	204.121	416.014	236.741	498.593	232.538	203.339	414.671	280.082	354.794	442.726	397.779	382.727	0.00049372	0.0012198	0.00049705	239.56	1.9635e-05	1.3791e-05	283.7	99.519	8.1528e-06	1.4564e-05	117.58	48.744	39.816	20.421	4.9818e-06	23.486	0.0026874	0.0027496	0.00077007	489.62	3.0183e-05	3.0511e-05	501.83	181.11	3.0484e-05	3.0479e-05	240.36	91.96	118.71	33.226	3.048e-05	40.942	162.032	193.100	289.042	164.133	259.516	254.261	160.908	168.102	195.990	202.376	164.285	168.842	171.636	176.649	269.204	171.704	-8191	255	
938.054	1	1	0	0	0.16649	0.13534	0.047625	0.012067	0.23321	0.33241	0.28328	0.11641	0.11038	0.082941	0.1481	0.17844	0.24764	0.29231	0.204	0.12939	-2.2229	-1.9729	-1.9708	-2.4479	-1.6146	-2.2917	-2.3521	-1.7417	-2.6271	-2.1813	-1.825	-2.4583	-1.7542	-2.3688	-2.4583	-1.6	378.434	440.830	378.493	465.890	497.104	360.858	332.730	418.716	152.067	289.642	185.196	422.116	217.596	468.721	263.508	206.188	0.00030416	0.00039799	0.00026482	235.08	4.1624e-06	1.1949e-05	281.2	98.731	7.2709e-06	1.3199e-05	115.23	47.724	39.488	20.164	2.0698e-05	23.733	0.0027138	0.0027848	0.0007743	485.92	3.0034e-05	2.9946e-05	493.51	177.75	2.973e-05	2.9723e-05	235.43	90.363	116.51	32.748	2.9775e-05	40.228	183.504	425.893	161.965	164.375	366.790	447.701	161.118	168.575	320.389	316.758	164.423	167.566	171.435	175.996	241.554	171.117	-8191	255	
938.148	1	1	0	0	0.21794	0.27902	0.29997	0.18674	0.17985	0.11085	0.12787	0.19795	0.34306	0.2643	0.1528	0.054926	0.16258	0.38618	0.18049	0.15054	-2.2625	-2.1375	-1.8396	-2.7042	-1.7083	-2.5	-2.4583	-1.8312	-2.5917	-2.1167	-1.8646	-2.4625	-1.8229	-2.2687	-2.5438	-1.7771	469.195	486.941	339.854	219.173	213.545	211.938	251.411	344.812	486.216	151.214	224.179	197.002	311.051	480.965	328.279	477.503	0.0001876	0.0008185	0.00017459	235.76	1.0958e-05	9.0976e-06	282.12	99.082	1.4206e-05	1.2498e-05	117.79	48.055	39.256	20.383	1.8636e-05	23.64	0.0026401	0.0026984	0.00075191	482.47	2.9715e-05	2.9763e-05	494.37	178.14	2.9869e-05	3.0008e-05	237.77	91.092	117.46	32.996	3.0145e-05	40.753	191.985	407.943	271.986	163.501	249.245	313.856	161.086	168.149	267.010	274.827	164.799	167.823	172.201	176.910	366.591	170.985	-8191	255	
938.244	1	1	0	0	0.14591	0.004914	0.32432	0.024577	0.063362	0.37655	0.20047	0.24172	0.14383	0.15098	0.11755	0.19435	0.24563	0.09262	0.18096	0.19112	-2.0917	-2.0792	-1.8708	-2.6375	-2.0125	-2.175	-2.5583	-1.7083	-2.3542	-2.3542	-1.8292	-2.5812	-1.975	-2.3146	-2.4688	-1.9458	439.951	177.062	204.461	194.829	444.119	248.158	454.590	200.171	341.830	451.462	426.871	339.481	506.419	247.186	214.865	292.094	0.00027936	0.00056933	8.7751e-05	235.56	8.8573e-06	1.586e-05	283.29	99.529	9.8795e-06	1.211e-05	118.04	48.295	39.35	20.437	2.708e-05	23.957	0.0026886	0.0027659	0.00077176	488.99	3.0408e-05	3.0605e-05	501.46	180.45	3.057e-05	3.0632e-05	240.84	92.242	119.18	33.29	3.0658e-05	41.204	167.965	237.183	412.940	163.932	336.186	341.193	160.874	168.522	493.936	296.953	164.451	168.450	170.881	176.615	466.722	171.155	-8191	255	
938.341	1	1	0	0	0.062528	0.052845	0.10188	0.092768	0.085117	0.20058	0.081945	0.075934	0.22568	0.19363	0.1974	0.22767	0.16526	0.13803	0.10127	0.078553	-1.8646	-2.0854	-1.7208	-2.4688	-2.0271	-1.9896	-2.5125	-1.8583	-2.1896	-2.5	-1.6979	-2.4708	-2.0729	-1.8208	-2.7458	-1.7958	451.371	222.416	423.974	282.344	383.361	266.824	341.249	401.033	262.405	292.507	188.857	379.957	190.502	467.537	425.568	453.158	0.00048735	0.00097219	0.00027775	236.29	6.9826e-06	1.7535e-05	284.66	98.038	2.4345e-05	2.9318e-06	118.71	48.442	40.117	20.421	8.3462e-06	23.902	0.0027251	0.0028021	0.00078119	494.07	3.0876e-05	3.1007e-05	507.34	182.4	3.1359e-05	3.1407e-05	244.02	93.529	121.2	33.636	3.128e-05	41.448	208.486	314.486	245.916	163.217	484.423	200.028	161.565	168.261	262.530	501.398	164.313	167.660	171.317	176.431	320.001	171.026	-8191	255	
938.437	1	1	0	0	0.24915	0.206	0.10368	0.16824	0.15039	0.22155	0.10508	0.22851	0.21577	0.13239	0.036395	0.043377	0.2779	0.21823	0.34724	0.05275	-1.9521	-2.5042	-1.9083	-2.4542	-2.0521	-1.8875	-2.6458	-1.8667	-2.1708	-2.4479	-1.8312	-2.3479	-2.2521	-1.8292	-2.5375	-1.8646	440.054	477.233	303.719	340.319	320.581	468.057	181.359	500.364	205.229	256.726	421.546	248.494	211.276	375.175	240.356	465.711	0.00026	0.00072654	0.00038064	237.56	7.3568e-06	7.553e-06	278.4	98.601	1.0795e-05	6.1048e-06	116.12	48.452	38.746	20.569	1.262e-05	23.899	0.0027808	0.0028599	0.00079762	496.91	3.1341e-05	3.1263e-05	505.5	181.81	3.1031e-05	3.0896e-05	240.5	92.214	119.09	33.395	3.0609e-05	41.094	215.083	388.935	309.167	163.820	419.006	505.482	161.260	168.123	219.995	293.867	164.273	169.190	171.916	176.694	478.716	170.780	-8191	255	
938.557	1	1	0	0	0.076023	0.08147	0.23006	0.13801	0.06831	0.3245	0.19381	0.23245	0.054453	0.1598	0.21473	0.087593	0.43611	0.29188	0.13905	0.17522	-1.7292	-2.5375	-1.5521	-2.2708	-2.2875	-1.9104	-2.5687	-1.9438	-2.1208	-2.5563	-1.6042	-2.2625	-2.3458	-1.6292	-2.2625	-2.1125	342.793	368.464	270.052	476.696	479.606	356.056	462.603	473.821	202.125	415.648	190.803	270.782	406.534	394.762	507.971	439.576	9.6554e-05	0.0015431	0.0002686	236.9	1.735e-05	6.8995e-06	283.13	99.298	1.1251e-05	6.1509e-06	118.13	48.206	38.952	20.686	2.4704e-05	24.35	0.0027114	0.0027762	0.00077036	488.63	3.0404e-05	3.0513e-05	501.14	180.75	3.0352e-05	3.0488e-05	241.51	92.609	119.31	33.511	3.0693e-05	41.539	160.481	425.656	280.308	164.894	490.505	491.753	160.874	167.519	430.061	355.831	164.629	168.307	170.983	176.429	300.350	171.163	-8191	255	
938.654	1	1	0	0	0.22784	0.18342	0.1811	0.17529	0.11734	0.18052	0.28403	0.16121	0.25671	0.014614	0.2021	0.19411	0.11802	0.3661	0.10593	0.38043	-1.5896	-2.6188	-1.7708	-2.2	-2.4229	-1.7938	-2.5625	-2.1271	-1.9458	-2.6437	-1.7833	-2.1271	-2.6479	-1.8021	-2.5854	-2.2062	167.040	181.046	271.127	280.608	474.057	495.475	430.891	475.084	396.024	319.255	398.455	175.485	505.464	405.466	169.194	383.903	0.00024633	0.001096	0.00011763	236.06	3.9688e-06	1.1343e-05	287.07	100.02	9.2411e-06	3.9749e-06	119.85	49.385	39.78	20.838	9.0166e-06	24.397	0.0027282	0.0028112	0.00078197	494.41	3.0958e-05	3.1008e-05	506.93	182.53	3.0843e-05	3.0992e-05	243.5	93.517	120.53	33.785	3.0981e-05	41.83	230.713	174.907	351.925	163.513	381.513	400.546	161.157	168.298	194.414	348.649	164.093	168.253	172.077	176.376	274.991	170.612	-8191	255	
938.725	1	1	0	0	0.14111	0.27364	0.18482	0.1697	0.23663	0.1816	0.16491	0.2805	0.011362	0.11084	0.012108	0.21451	0.053601	0.13385	0.11963	0.063257	-1.5958	-2.7854	-2.0563	-2.0812	-2.5083	-1.7083	-2.4479	-2.1813	-1.7417	-2.6188	-1.9771	-1.9979	-2.5667	-1.8792	-2.5875	-2.425	197.103	487.792	188.050	161.582	472.331	274.003	427.741	158.813	225.981	244.782	492.383	195.507	493.970	238.075	240.865	152.466	0.00037377	0.00042068	0.00026232	236.02	1.1239e-05	2.0184e-05	284.62	99.243	2.5985e-05	3.3584e-06	118.53	48.909	39.698	20.743	2.424e-05	24.092	0.0027501	0.0028344	0.00078935	496.08	3.0938e-05	3.1168e-05	507.04	182.16	3.0927e-05	3.1137e-05	242.13	93.282	120.98	33.807	3.1335e-05	41.905	216.800	508.909	388.221	163.944	285.266	242.269	160.835	168.252	393.265	335.787	164.484	168.297	171.560	176.571	206.165	171.571	-8191	255	
938.846	1	1	0	0	0.073024	0.21902	0.088899	0.15577	0.12117	0.093684	0.082529	0.12277	0.10248	0.15433	0.023266	0.19506	0.20912	0.13942	0.068309	0.18194	-1.3	-2.6396	-1.875	-1.9604	-2.6479	-1.8104	-2.525	-2.2687	-1.6625	-2.4938	-2.1271	-1.9396	-2.7167	-1.9458	-2.2771	-2.5625	469.164	151.012	434.810	505.005	361.140	372.152	330.269	485.527	213.000	357.123	199.356	385.906	388.737	204.384	306.511	409.028	0.00041343	0.0013315	0.0001608	235.9	1.916e-05	1.1468e-05	280.37	99.007	1.6669e-06	6.5692e-06	117.4	49.263	40.012	20.884	1.7254e-05	24.268	0.0028003	0.0028772	0.00080204	500.05	3.1604e-05	3.171e-05	510.51	183.4	3.1391e-05	3.1456e-05	243.52	94.034	121.27	33.914	3.1326e-05	42.05	506.783	153.669	211.346	164.604	406.877	249.318	161.608	168.164	430.748	236.399	164.512	168.601	170.855	176.011	265.206	171.216	-8191	255	
#DATA ENDS
