BOXY.EXE: ISS Imagent and Oximeter Data Acquisition Program Version 0.80
Ascii Record File

#ACQ INFORMATION
2  Detector Channels 
16  External MUX Channels 
1  Auxiliary Channels 
5000  Waveform (CCF) Frequency (Hz)
1  Waveforms Skipped 
30  Waveforms Averaged 
1  Cycles Averaged 
16  Acquisitions per Waveform 
10.0806  Updata Rate (Hz) 

#FILE INFORMATION
TRUE -- External MUX Channel results are PARSED.
FALSE -- AC DC and Phase are NOT grouped.
TRUE -- Companion Program Settings File CREATED.
FALSE -- AC data not excluded
FALSE -- DC data not excluded
FALSE -- Phase data not excluded
FALSE -- Auxillary Chn. data not excluded
Tab delimiters

#CALIBRATION STATE
TRUE -- Waveform Calibration Values APPLIED.


#AUX CALIBRATION VALUES
Val Type	aux-1	

Term	1.0000e+00	
Factor	0.0000e+00	


#WF CALIBRATION VALUES
A = Detector Channel
Val Type	A-AC1	A-AC2	A-AC3	A-AC4	A-AC5	A-AC6	A-AC7	A-AC8	A-AC9	A-AC10	A-AC11	A-AC12	A-AC13	A-AC14	A-AC15	A-AC16	A-DC1	A-DC2	A-DC3	A-DC4	A-DC5	A-DC6	A-DC7	A-DC8	A-DC9	A-DC10	A-DC11	A-DC12	A-DC13	A-DC14	A-DC15	A-DC16	A-Ph1	A-Ph2	A-Ph3	A-Ph4	A-Ph5	A-Ph6	A-Ph7	A-Ph8	A-Ph9	A-Ph10	A-Ph11	A-Ph12	A-Ph13	A-Ph14	A-Ph15	A-Ph16	

Term	0.00000e+00	0.00000e+00	0.00000e+00	0.00000e+00	0.00000e+00	0.00000e+00	0.00000e+00	0.00000e+00	0.00000e+00	0.00000e+00	0.00000e+00	0.00000e+00	0.00000e+00	0.00000e+00	0.00000e+00	0.00000e+00	0.00000e+00	0.00000e+00	0.00000e+00	0.00000e+00	0.00000e+00	0.00000e+00	0.00000e+00	0.00000e+00	0.00000e+00	0.00000e+00	0.00000e+00	0.00000e+00	0.00000e+00	0.00000e+00	0.00000e+00	0.00000e+00	0.00000e+00	0.00000e+00	0.00000e+00	0.00000e+00	0.00000e+00	0.00000e+00	0.00000e+00	0.00000e+00	0.00000e+00	0.00000e+00	0.00000e+00	0.00000e+00	0.00000e+00	0.00000e+00	0.00000e+00	0.00000e+00	
Factor	1.00000e+00	1.00000e+00	1.00000e+00	1.00000e+00	1.00000e+00	1.00000e+00	1.00000e+00	1.00000e+00	1.00000e+00	1.00000e+00	1.00000e+00	1.00000e+00	1.00000e+00	1.00000e+00	1.00000e+00	1.00000e+00	1.00000e+00	1.00000e+00	1.00000e+00	1.00000e+00	1.00000e+00	1.00000e+00	1.00000e+00	1.00000e+00	1.00000e+00	1.00000e+00	1.00000e+00	1.00000e+00	1.00000e+00	1.00000e+00	1.00000e+00	1.00000e+00	X	X	X	X	X	X	X	X	X	X	X	X	X	X	X	X	

B = Detector Channel
Val Type	B-AC1	B-AC2	B-AC3	B-AC4	B-AC5	B-AC6	B-AC7	B-AC8	B-AC9	B-AC10	B-AC11	B-AC12	B-AC13	B-AC14	B-AC15	B-AC16	B-DC1	B-DC2	B-DC3	B-DC4	B-DC5	B-DC6	B-DC7	B-DC8	B-DC9	B-DC10	B-DC11	B-DC12	B-DC13	B-DC14	B-DC15	B-DC16	B-Ph1	B-Ph2	B-Ph3	B-Ph4	B-Ph5	B-Ph6	B-Ph7	B-Ph8	B-Ph9	B-Ph10	B-Ph11	B-Ph12	B-Ph13	B-Ph14	B-Ph15	B-Ph16	

Term	0.00000e+00	0.00000e+00	0.00000e+00	0.00000e+00	0.00000e+00	0.00000e+00	0.00000e+00	0.00000e+00	0.00000e+00	0.00000e+00	0.00000e+00	0.00000e+00	0.00000e+00	0.00000e+00	0.00000e+00	0.00000e+00	0.00000e+00	0.00000e+00	0.00000e+00	0.00000e+00	0.00000e+00	0.00000e+00	0.00000e+00	0.00000e+00	0.00000e+00	0.00000e+00	0.00000e+00	0.00000e+00	0.00000e+00	0.00000e+00	0.00000e+00	0.00000e+00	-1.36660e+02	-1.60266e+02	-1.34086e+02	-1.83745e+02	-7.87698e+01	-1.00516e+02	-1.56747e+02	-1.62015e+02	-7.40872e+01	-9.28821e+01	-1.74571e+02	-1.71654e+02	-1.88132e+02	-1.77417e+02	-8.50884e+01	-1.50494e+02	
Factor	2.03993e-05	1.07868e-04	3.57229e-05	1.87245e-01	1.07033e-06	1.41399e-06	1.72526e-01	6.12020e-02	1.23551e-06	1.13726e-06	9.66703e-02	3.45722e-02	6.45775e-02	1.00719e-02	1.45188e-06	1.40147e-02	9.56666e-07	9.86707e-07	2.74933e-07	9.45559e-02	1.08021e-08	1.08257e-08	8.21921e-02	3.07922e-02	1.08017e-08	1.08237e-08	4.65095e-02	1.66970e-02	3.00134e-02	5.01095e-03	1.08182e-08	6.73353e-03	X	X	X	X	X	X	X	X	X	X	X	X	X	X	X	X	



#DISTANCE SETTINGS
A = Detector Channel
A-1	A-2	A-3	A-4	A-5	A-6	A-7	A-8	A-9	A-10	A-11	A-12	A-13	A-14	A-15	A-16	

2.5000e+00	3.0000e+00	2.5000e+00	3.0000e+00	2.0000e+00	3.0000e+00	1.5000e+00	3.0000e+00	3.0000e+00	3.0000e+00	3.0000e+00	3.0000e+00	3.0000e+00	3.0000e+00	1.5000e+00	3.0000e+00	

B = Detector Channel
B-1	B-2	B-3	B-4	B-5	B-6	B-7	B-8	B-9	B-10	B-11	B-12	B-13	B-14	B-15	B-16	

1.0000e+01	1.0000e+01	1.0000e+01	1.4400e+00	1.0000e+01	1.0000e+01	1.5100e+00	1.9400e+00	1.0000e+01	1.0000e+01	1.9900e+00	2.4900e+00	2.4100e+00	2.9000e+00	1.0000e+01	2.9800e+00	




#DATA BEGINS
time	group	step	mark	flag	A-AC1	A-AC2	A-AC3	A-AC4	A-AC5	A-AC6	A-AC7	A-AC8	A-AC9	A-AC10	A-AC11	A-AC12	A-AC13	A-AC14	A-AC15	A-AC16	A-DC1	A-DC2	A-DC3	A-DC4	A-DC5	A-DC6	A-DC7	A-DC8	A-DC9	A-DC10	A-DC11	A-DC12	A-DC13	A-DC14	A-DC15	A-DC16	A-Ph1	A-Ph2	A-Ph3	A-Ph4	A-Ph5	A-Ph6	A-Ph7	A-Ph8	A-Ph9	A-Ph10	A-Ph11	A-Ph12	A-Ph13	A-Ph14	A-Ph15	A-Ph16	B-AC1	B-AC2	B-AC3	B-AC4	B-AC5	B-AC6	B-AC7	B-AC8	B-AC9	B-AC10	B-AC11	B-AC12	B-AC13	B-AC14	B-AC15	B-AC16	B-DC1	B-DC2	B-DC3	B-DC4	B-DC5	B-DC6	B-DC7	B-DC8	B-DC9	B-DC10	B-DC11	B-DC12	B-DC13	B-DC14	B-DC15	B-DC16	B-Ph1	B-Ph2	B-Ph3	B-Ph4	B-Ph5	B-Ph6	B-Ph7	B-Ph8	B-Ph9	B-Ph10	B-Ph11	B-Ph12	B-Ph13	B-Ph14	B-Ph15	B-Ph16	aux-1	digaux	

914.237	1	1	0	512	0.16177	0.073386	0.092645	0.17382	0.19777	0.18773	0.027493	0.13917	0.10133	0.20192	0.049499	0.18991	0.15758	0.37504	0.11999	0.27405	-1.5833	-2.6646	-2.2188	-2.0375	-2.675	-2.0396	-2.4417	-2.45	-2.0563	-2.7792	-2.3896	-1.9771	-2.6854	-2.1542	-2.3125	-2.8021	275.341	217.799	161.436	229.053	421.483	469.958	253.571	333.772	293.148	477.473	435.764	432.073	457.939	454.043	247.343	424.577	0.00016981	0.0016977	0.00025422	233.32	6.4652e-06	2.5695e-05	265.84	100.63	1.3122e-05	1.4534e-06	121.68	47.856	38.866	19.194	1.1562e-05	23.034	0.0023867	0.0024473	0.00067992	454.86	2.6828e-05	2.6774e-05	454.14	171.02	2.6878e-05	2.6847e-05	226.45	85.86	108.13	30.517	2.6798e-05	38.197	191.544	243.600	481.695	163.784	261.144	164.455	161.735	168.318	437.512	492.000	164.942	168.984	171.445	176.288	317.058	172.376	-8191	255	
914.333	1	1	0	0	0.22671	0.22189	0.16364	0.18006	0.2099	0.25802	0.10168	0.20977	0.024828	0.062151	0.044487	0.20249	0.07635	0.073577	0.22087	0.16738	-1.8479	-2.6167	-2.4375	-2.0792	-2.9688	-2.1167	-2.3563	-2.6562	-1.8979	-2.5771	-2.4146	-1.9917	-2.775	-2.2979	-2.3125	-2.7042	225.620	167.347	324.873	168.078	465.313	240.675	468.459	377.330	215.591	228.818	477.871	337.684	435.054	211.402	235.911	340.931	0.00039714	0.0010231	0.00015991	234.76	3.2087e-06	1.3964e-05	266.47	100.99	8.1483e-06	1.2913e-05	121.28	49.119	38.801	19.2	5.3717e-06	23.035	0.0023902	0.0024597	0.00068401	457.42	2.6903e-05	2.6946e-05	457.7	172.22	2.713e-05	2.7106e-05	228.26	86.801	108.81	30.655	2.721e-05	38.418	163.745	475.114	343.738	164.154	369.990	247.475	162.115	168.582	428.923	202.755	165.166	169.258	172.813	176.691	253.744	171.997	-8191	255	
914.429	1	1	0	0	0.19627	0.24556	0.10339	0.17704	0.11466	0.10333	0.28455	0.048929	0.046951	0.1194	0.0841	0.43446	0.19068	0.25325	0.28011	0.13614	-1.725	-2.5771	-2.5167	-1.8917	-2.8479	-2.2042	-2.275	-2.6833	-2.1229	-2.5896	-2.6292	-2.0854	-2.8292	-2.3208	-2.275	-2.8583	186.926	347.183	242.846	344.575	341.008	248.299	198.677	209.977	450.545	279.293	442.431	454.590	234.295	433.607	320.461	270.512	4.9513e-05	0.0014679	0.00036089	234.71	4.773e-06	1.207e-05	263.06	101.34	8.0356e-06	1.5385e-05	120.94	49.02	39.305	19.505	1.1688e-05	23.456	0.002407	0.0024895	0.00068791	458.52	2.709e-05	2.7225e-05	458.88	173.14	2.7258e-05	2.7332e-05	229.88	87.544	110.08	30.909	2.744e-05	38.832	261.412	198.145	236.883	163.383	440.575	392.560	162.658	168.186	477.808	495.555	164.010	169.082	172.222	176.442	329.899	172.305	-8191	255	
914.548	1	1	0	0	0.11609	0.12811	0.10975	0.16564	0.14179	0.24735	0.083044	0.097787	0.40514	0.26709	0.15836	0.16792	0.077073	0.037181	0.16712	0.073151	-1.6104	-2.6	-2.6167	-1.9896	-2.6708	-2.3563	-2.1625	-2.8458	-2.0875	-2.4292	-2.8438	-1.9458	-2.6937	-2.5625	-2.0604	-2.8354	460.064	173.847	351.565	156.906	268.949	224.679	269.178	310.938	358.707	347.264	344.534	385.260	265.918	317.176	296.458	273.345	0.00031375	0.00046623	0.00048441	234.73	4.7767e-06	1.4099e-05	265.88	99.748	1.6613e-05	5.0448e-06	119.05	48.324	38.776	19.182	1.4858e-05	23.364	0.0024576	0.0025141	0.00070267	464.12	2.7645e-05	2.7747e-05	462.68	174.57	2.7685e-05	2.7821e-05	230.51	87.548	110.96	30.989	2.7877e-05	38.872	178.709	179.584	289.854	163.509	492.014	240.190	162.437	168.288	246.044	313.566	164.954	169.352	172.309	176.697	358.689	172.237	-8191	255	
914.621	1	1	0	0	0.27908	0.21157	0.064406	0.092362	0.26424	0.15595	0.10222	0.1228	0.13915	0.23407	0.1824	0.20323	0.48047	0.11393	0.11125	0.13622	-1.8083	-2.15	-2.8083	-1.9813	-2.6208	-2.6	-2.0938	-2.8104	-2.1813	-2.15	-2.7812	-1.9312	-2.5292	-2.7375	-2.0687	-2.9667	195.988	242.979	378.219	179.579	230.153	371.227	362.010	500.826	416.395	397.813	500.500	397.191	214.887	332.237	228.076	372.742	0.00027365	0.0014781	0.00029629	232.97	8.1159e-06	1.6453e-05	264.87	100.55	9.7343e-06	6.3638e-06	119.86	48.353	38.496	19.22	5.603e-06	23.365	0.0024861	0.0025587	0.00071533	467.55	2.8133e-05	2.8306e-05	464.55	174.84	2.8115e-05	2.8101e-05	233.51	88.301	111.87	31.131	2.8144e-05	39.085	178.566	234.915	355.184	164.692	323.241	394.385	161.816	167.944	264.162	453.856	165.017	168.918	170.968	176.998	300.703	171.761	-8191	255	
914.717	1	1	0	0	0.30424	0.18858	0.13772	0.076221	0.22059	0.15544	0.13253	0.34362	0.11078	0.14115	0.19584	0.22371	0.10129	0.18701	0.18569	0.14059	-1.8729	-2.1583	-2.8229	-1.7938	-2.4458	-2.6917	-2.0458	-2.7438	-2.2917	-2.3187	-2.6896	-2.0917	-2.4	-2.7667	-1.95	-2.5979	164.647	455.685	339.693	497.674	269.287	306.120	411.886	254.146	345.478	473.930	177.023	466.655	271.173	156.966	410.794	382.075	0.00060362	0.0014108	0.00014832	231.43	7.3644e-06	1.7071e-05	264.78	100.5	4.3508e-06	1.9736e-05	121.21	48.41	39.219	19.364	7.6791e-06	23.493	0.0025027	0.0025845	0.00071749	466.01	2.8111e-05	2.8217e-05	464.28	174.89	2.7945e-05	2.7916e-05	231.86	88.248	111.65	31.204	2.8156e-05	39.176	196.705	158.125	500.685	164.422	395.314	480.053	161.635	169.224	365.600	368.696	164.391	168.554	173.010	176.958	372.075	172.293	-8191	255	
914.836	1	1	0	0	0.0767	0.3779	0.10492	0.26301	0.16425	0.17902	0.11902	0.12406	0.11246	0.15156	0.042054	0.18364	0.11903	0.10364	0.06922	0.19491	-1.9125	-2.0646	-2.75	-1.9833	-2.375	-2.6167	-1.8917	-2.7333	-2.5812	-2.0292	-2.7812	-2.2292	-2.3104	-2.8396	-1.8937	-2.6188	391.267	161.232	495.303	304.310	448.521	357.515	301.359	426.956	480.508	319.021	348.459	392.011	430.383	188.404	502.145	495.478	0.00044034	0.00079202	0.00020748	232.19	4.122e-06	7.8455e-06	263.05	100.44	1.4292e-05	1.0144e-05	120.04	48.708	38.594	19.391	1.2536e-05	23.426	0.0025277	0.0025924	0.00072615	470.91	2.8548e-05	2.8639e-05	469.23	176.15	2.8441e-05	2.8674e-05	234.63	89.137	113.49	31.535	2.8916e-05	39.652	185.345	487.500	488.902	164.696	389.688	259.221	162.559	168.155	248.470	194.998	165.455	168.753	172.027	176.711	330.203	171.476	-8191	255	
914.932	1	1	0	0	0.1197	0.20608	0.15367	0.13105	0.083253	0.10547	0.25039	0.29737	0.20295	0.16569	0.087251	0.26181	0.14829	0.16583	0.2097	0.31869	-2.0062	-1.9729	-2.7167	-2.075	-2.2125	-2.7271	-1.9312	-2.5354	-2.5979	-1.8667	-2.8021	-2.2271	-2.1333	-2.8229	-2.0667	-2.45	323.580	189.584	322.889	386.557	362.659	487.798	507.144	160.115	410.551	325.629	338.458	428.118	433.312	179.383	506.969	418.602	0.00032137	0.0012188	0.00037106	231.53	1.2607e-05	1.5162e-05	261.53	99.593	1.2834e-05	5.4876e-06	119.1	48.531	39.735	19.455	8.3523e-06	22.999	0.0025748	0.0026531	0.00074064	474.74	2.8985e-05	2.9051e-05	470.33	177.36	2.8882e-05	2.8946e-05	235.65	89.688	114.02	31.635	2.9174e-05	39.498	225.621	322.962	430.928	163.592	290.593	407.373	161.649	168.421	165.661	228.956	164.893	168.237	169.753	176.499	265.864	171.013	-8191	255	
915.029	1	1	0	0	0.26621	0.13188	0.20255	0.044569	0.16655	0.15502	0.097215	0.20619	0.21504	0.086563	0.078037	0.24322	0.23179	0.19454	0.13675	0.18355	-2.2083	-1.9958	-2.6875	-2.225	-2.1292	-2.8271	-2.1042	-2.2	-2.6813	-1.9438	-2.7167	-2.5062	-2.0896	-2.7833	-1.9625	-2.4792	439.223	170.889	392.607	189.654	330.189	363.757	227.543	287.602	393.250	172.409	400.092	488.557	171.756	173.053	161.070	158.360	0.00040621	0.00049921	0.00021105	234.08	2.6421e-06	7.748e-06	263.91	100.59	1.2368e-05	1.6865e-05	118.95	48.798	37.591	19.145	1.5103e-05	23.317	0.0025859	0.0026513	0.00073405	471.13	2.8669e-05	2.8736e-05	467.05	176.36	2.8742e-05	2.8803e-05	234.54	88.988	113.14	31.344	2.8552e-05	39.126	237.141	196.366	271.509	163.973	498.513	211.345	161.575	167.324	495.927	229.806	163.891	168.201	170.457	176.146	207.307	171.594	-8191	255	
915.125	1	1	0	0	0.35216	0.20291	0.25561	0.18131	0.18355	0.18437	0.25043	0.12901	0.12184	0.33994	0.15133	0.20444	0.18784	0.1808	0.19468	0.1682	-2.175	-1.7938	-2.5083	-2.35	-1.9208	-2.7604	-2.0979	-2.3292	-2.7729	-2.0146	-2.5854	-2.6	-1.9375	-2.8375	-2.0792	-2.2396	202.910	469.235	328.201	340.784	440.156	256.646	454.587	486.215	268.083	249.360	157.829	490.619	424.259	281.419	424.853	504.490	0.00026277	0.00042424	0.00040468	232.48	1.755e-05	7.6562e-06	262.99	101.28	1.3784e-05	1.1417e-05	119.14	48.02	39.288	19.106	1.9551e-05	22.984	0.0025273	0.0025961	0.00071954	468.45	2.8612e-05	2.8623e-05	467.61	175.63	2.8614e-05	2.8599e-05	233.63	88.628	112.57	31.178	2.8583e-05	39.142	189.312	239.304	349.308	163.065	152.490	347.886	161.619	168.122	352.342	345.365	164.327	167.490	171.972	177.057	184.780	171.560	-8191	255	
915.221	1	1	0	0	0.2065	0.16598	0.26545	0.10076	0.090824	0.35035	0.1057	0.25043	0.14163	0.052119	0.25177	0.13099	0.33363	0.19035	0.20085	0.12083	-2.4521	-1.9333	-2.4604	-2.5312	-1.8833	-2.8708	-2.2812	-2.3604	-2.7438	-2.1271	-2.4354	-2.5896	-1.8208	-2.6417	-2.2729	-2.2021	490.701	507.766	343.189	474.716	438.907	409.186	305.308	466.867	359.839	501.459	323.866	178.966	258.480	389.615	285.618	483.059	0.00048867	0.00080443	0.00039834	231.22	1.3582e-05	1.9684e-05	262.5	99.883	6.2164e-06	9.6952e-06	118.78	48.224	38.078	19.296	2.1967e-06	22.751	0.0025308	0.0026005	0.00072581	469.18	2.8561e-05	2.8768e-05	466.92	176.07	2.8565e-05	2.8692e-05	233.37	88.434	112.53	31.313	2.861e-05	38.894	188.859	285.238	356.786	162.683	248.685	363.492	161.101	167.876	447.494	391.231	163.489	168.179	172.050	175.995	174.007	170.836	-8191	255	
915.317	1	1	0	0	0.20481	0.17494	0.043552	0.085371	0.23117	0.067361	0.17063	0.16998	0.16683	0.18609	0.12912	0.16415	0.12502	0.11659	0.099115	0.085666	-2.3583	-2.0354	-2.3333	-2.7729	-1.75	-2.7708	-2.4854	-2.1458	-2.7292	-2.0604	-2.5667	-2.85	-1.9521	-2.75	-2.5292	-1.9917	315.205	243.552	428.735	489.788	440.662	456.801	219.759	208.078	417.106	444.444	422.397	291.238	446.417	215.815	197.966	290.354	0.00032241	0.0011787	7.7292e-05	229.8	2.2649e-06	8.5448e-06	259.5	98.931	1.1833e-05	1.4074e-05	117.24	47.464	38.648	19.167	2.048e-05	22.632	0.002547	0.0026089	0.000727	467.95	2.8632e-05	2.8662e-05	464.2	175.52	2.8634e-05	2.8731e-05	232.55	88.132	112.91	31.171	2.857e-05	38.804	177.218	446.220	378.386	163.915	387.091	158.914	161.013	167.412	249.242	361.372	164.785	168.497	171.600	176.255	222.765	171.357	-8191	255	
915.438	1	1	0	0	0.096546	0.074963	0.28327	0.17879	0.21087	0.24119	0.36356	0.23773	0.07737	0.21867	0.11701	0.20222	0.040651	0.096996	0.17728	0.15847	-2.5292	-2.0958	-2.3667	-2.6833	-1.9312	-2.7333	-2.725	-2.0938	-2.7979	-2.3542	-2.3208	-2.8417	-2.125	-2.4292	-2.5854	-1.9917	450.656	326.397	385.936	473.392	418.535	303.586	472.634	202.800	235.187	180.028	401.504	163.460	480.576	163.913	487.411	450.482	0.00034846	0.00060501	0.00024803	231.69	8.2207e-06	9.1686e-06	263.33	98.978	4.7609e-06	7.6033e-06	117.88	47.219	38.926	19.205	1.1692e-05	22.329	0.0025395	0.0026273	0.00073016	469.53	2.8789e-05	2.8905e-05	467.69	176.02	2.8907e-05	2.9098e-05	234.19	89.15	114.24	31.495	2.9416e-05	39.289	172.077	350.229	175.987	162.898	374.376	366.019	161.156	167.620	467.115	343.714	164.274	168.525	170.313	176.207	430.277	171.009	-8191	255	
915.534	1	1	0	0	0.050617	0.17217	0.22712	0.37134	0.0364	0.23946	0.15808	0.23799	0.15284	0.28382	0.037092	0.019018	0.18288	0.24727	0.16832	0.24602	-2.4146	-2.3292	-2.1229	-2.7583	-2.0208	-2.7208	-2.7062	-2.1104	-2.6813	-2.3458	-2.2146	-2.8271	-2.0875	-2.4417	-2.575	-1.9	384.668	419.460	211.427	198.314	240.096	468.436	249.555	197.273	188.838	411.711	462.760	444.223	207.274	423.713	317.121	224.021	0.00021637	0.00043475	0.00034117	230.82	6.0108e-06	6.469e-06	260.24	99.214	2.397e-05	6.8953e-06	118.54	47.034	38.246	19.301	2.0889e-05	22.62	0.002616	0.0027024	0.00075156	475.89	2.9257e-05	2.9251e-05	468.84	176.29	2.8858e-05	2.8905e-05	233.77	88.459	113.67	31.322	2.9104e-05	39.092	169.964	216.982	181.084	163.634	219.476	394.746	161.613	168.427	266.070	456.351	164.159	167.928	170.483	176.710	213.686	171.845	-8191	255	
915.628	1	1	0	0	0.091637	0.036056	0.18008	0.22546	0.10732	0.15459	0.11315	0.076016	0.074784	0.28715	0.17507	0.22844	0.082799	0.082281	0.14649	0.047399	-2.4229	-2.4229	-2.1417	-2.9708	-2.0917	-2.2896	-2.5979	-1.8917	-2.6229	-2.4646	-1.8312	-2.8583	-2.2979	-2.3083	-2.7771	-2.0604	342.848	364.812	475.614	444.189	374.220	416.550	487.185	379.283	438.254	391.703	275.816	451.941	256.733	277.204	376.030	254.685	0.00039131	0.0015432	0.00032743	229.26	6.131e-06	1.1958e-05	258.67	99.819	1.4368e-06	9.1992e-06	118.37	47.14	38.727	19.27	7.9267e-06	22.548	0.0025827	0.0026536	0.00073623	471.98	2.9094e-05	2.8976e-05	466.6	176.03	2.8775e-05	2.8975e-05	233.1	88.23	113.29	31.275	2.9139e-05	38.937	154.610	243.255	502.206	162.640	250.510	461.895	161.578	168.283	239.004	323.357	164.247	168.922	170.787	176.040	177.510	171.140	-8191	255	
915.724	1	1	0	0	0.061171	0.24213	0.20631	0.098915	0.20129	0.31547	0.19255	0.3542	0.10433	0.15135	0.22855	0.25476	0.14957	0.246	0.13769	0.079369	-2.2417	-2.3771	-1.9542	-2.8271	-2.2604	-2.1083	-2.6583	-1.9958	-2.4729	-2.5938	-1.8125	-2.7208	-2.3271	-2.1208	-2.5375	-1.9021	404.045	334.284	345.183	490.030	161.290	241.935	383.431	464.622	274.327	236.312	452.342	508.426	443.846	395.547	275.214	292.470	0.00021657	0.0013312	0.00045592	229.47	4.6398e-06	1.5876e-05	259.77	99.127	8.4151e-06	3.8242e-06	118.76	47.223	38.468	18.967	2.7584e-05	22.399	0.0025895	0.0026613	0.00074529	474.11	2.9301e-05	2.9463e-05	470.75	177.23	2.9473e-05	2.952e-05	235.76	89.271	115.34	31.55	2.9839e-05	39.358	218.992	167.623	285.541	163.268	436.166	199.318	161.173	167.853	168.079	431.844	163.684	168.033	171.110	175.721	206.332	171.256	-8191	255	
915.845	1	1	0	0	0.10196	0.12538	0.16968	0.21787	0.29776	0.12236	0.096789	0.19492	0.3065	0.094531	0.24315	0.070355	0.14063	0.17137	0.21974	0.083974	-1.9479	-2.7	-1.9458	-2.6333	-2.2771	-2.0854	-2.7958	-2.2146	-2.2896	-2.7167	-1.9312	-2.8187	-2.3729	-2.2313	-2.7792	-2.1688	315.680	451.200	503.948	240.724	342.006	273.769	425.107	439.322	458.419	360.569	483.175	274.805	212.548	182.566	296.989	155.468	0.00026878	0.0007031	0.00027588	228	1.7032e-05	1.4673e-05	263.21	99.044	1.894e-05	1.6034e-05	116.31	47.887	37.375	19.089	1.3615e-05	22.825	0.0026519	0.0027378	0.00076613	481.59	3.0302e-05	3.0475e-05	478.35	180.25	3.0354e-05	3.0557e-05	239.51	91.119	117.31	31.979	3.0434e-05	39.82	190.363	255.896	396.667	163.997	342.981	199.722	160.836	167.558	267.963	366.970	164.392	168.630	171.844	176.429	281.501	170.978	-8191	255	
915.917	1	1	0	0	0.21785	0.28408	0.36268	0.19379	0.10556	0.20887	0.094227	0.18659	0.2245	0.29232	0.37474	0.12449	0.17727	0.13677	0.079827	0.012766	-1.6938	-2.6333	-1.9833	-2.5833	-2.5021	-2.1271	-2.7479	-1.9896	-2.3438	-2.6042	-2.1312	-2.6146	-2.4833	-2.1354	-2.6625	-2.4688	393.767	324.061	261.220	407.534	322.972	320.328	168.542	371.560	278.309	169.602	189.705	503.020	283.445	198.376	423.010	379.593	0.00041034	0.0015251	0.00056777	231.52	3.9017e-06	1.2639e-05	260.7	99.408	1.5605e-05	5.9255e-06	120.06	47.239	37.735	19.225	2.0297e-06	22.439	0.0026858	0.0027623	0.00076917	484.34	3.0199e-05	3.0357e-05	478.24	179.73	3.008e-05	3.0086e-05	238.89	90.325	115.93	31.722	2.975e-05	39.398	191.326	310.564	296.692	163.020	452.886	265.469	160.760	168.376	364.388	224.444	165.101	168.592	169.463	176.649	200.378	171.488	-8191	255	
916.013	1	1	0	0	0.34407	0.16682	0.11835	0.12773	0.27782	0.21077	0.1056	0.20723	0.29648	0.1024	0.20604	0.10919	0.17126	0.18994	0.12834	0.1894	-1.7333	-2.7687	-2.0833	-2.3917	-2.5583	-2.0062	-2.8833	-2.2896	-2.025	-2.5187	-2.0917	-2.2583	-2.4333	-2.0625	-2.8333	-2.3354	473.904	474.670	490.892	156.625	403.477	450.753	161.138	427.170	497.867	501.197	411.763	237.575	384.899	458.364	174.258	383.341	0.00046795	0.001254	0.00011413	230.52	2.3302e-06	1.4506e-05	264.55	99.238	1.1864e-05	1.2781e-05	117.97	46.921	39.501	18.987	9.8675e-06	22.662	0.0026382	0.0027226	0.00075718	478.47	2.9619e-05	2.9715e-05	473.49	177.98	2.9474e-05	2.969e-05	236.55	89.581	115.37	31.535	2.9583e-05	39.174	156.620	196.405	243.023	163.866	496.883	244.459	161.795	168.234	509.403	387.489	164.502	168.715	171.650	176.192	232.893	171.671	-8191	255	
916.109	1	1	0	0	0.42825	0.1202	0.14751	0.12604	0.14003	0.042676	0.19695	0.17659	0.037284	0.10429	0.14006	0.085645	0.047842	0.28679	0.22594	0.24636	-1.75	-2.5979	-1.8917	-2.3646	-2.7896	-1.8792	-2.7229	-2.4917	-1.9188	-2.7646	-1.9708	-2.1771	-2.6583	-1.9354	-2.4396	-2.5417	452.632	367.505	422.626	450.265	331.563	372.729	480.225	454.320	466.710	262.179	278.038	481.631	476.933	406.234	503.783	161.422	0.00042453	0.0012158	0.00033345	229.91	1.6053e-05	1.5738e-05	261.03	100.19	9.1901e-06	9.9307e-06	118.3	47.801	37.52	19.212	3.7876e-06	22.586	0.0026053	0.0026799	0.00074595	477.31	2.9371e-05	2.9638e-05	473.04	178.83	2.9546e-05	2.98e-05	237.88	90.158	116.41	31.772	3.0114e-05	39.738	208.344	225.812	373.280	164.384	402.670	324.459	160.589	167.499	163.532	293.723	164.832	168.431	171.696	176.138	469.599	171.721	-8191	255	
916.230	1	1	0	0	0.0084759	0.20601	0.07407	0.23889	0.093279	0.10932	0.15392	0.076837	0.26453	0.19488	0.10276	0.12376	0.051943	0.17355	0.2322	0.14901	-1.4542	-2.6771	-2.2417	-2.1625	-2.7792	-2.1646	-2.7042	-2.4292	-2.0021	-2.8771	-2.1771	-2.1583	-2.7083	-1.825	-2.35	-2.5167	470.279	352.308	456.797	386.702	496.793	184.608	450.298	477.206	380.853	307.104	401.219	390.858	226.180	443.395	317.218	474.298	6.343e-05	0.00070541	0.00012328	231.79	9.6309e-06	7.2804e-06	264.74	98.673	2.451e-05	1.5364e-05	121.72	47.991	38.539	19.196	1.6305e-05	22.725	0.0026871	0.0027599	0.00076937	485.78	3.0287e-05	3.0389e-05	481.47	181.54	3.0544e-05	3.0742e-05	243.04	92.107	119.76	32.313	3.1161e-05	40.559	155.834	317.404	225.420	163.891	331.178	402.532	161.139	168.044	477.694	226.249	164.525	168.562	170.229	176.179	439.464	171.460	-8191	255	
916.326	1	1	0	0	0.16138	0.17543	0.082151	0.052744	0.29094	0.093833	0.37166	0.22444	0.08809	0.14414	0.22779	0.18714	0.10597	0.19488	0.04877	0.25593	-1.4312	-2.7583	-2.3979	-2.2562	-2.9208	-2.0125	-2.5687	-2.6417	-2.0292	-2.7521	-2.1771	-2.0583	-2.7896	-2.0542	-2.2479	-2.7562	441.812	315.225	484.063	225.308	414.739	232.650	246.414	464.819	502.013	430.425	153.735	494.521	477.959	486.780	289.703	246.481	0.00045189	0.00075415	0.00012645	233.6	8.0128e-06	2.5333e-06	263.06	100.51	2.117e-05	7.0034e-06	119.14	47.898	38.915	19.231	1.6381e-05	22.516	0.0027871	0.002869	0.00079954	497.55	3.1513e-05	3.1581e-05	491.71	184.61	3.1541e-05	3.1705e-05	245.43	93.36	121.42	32.584	3.154e-05	40.533	228.413	411.059	264.029	163.539	235.478	297.096	161.714	167.303	313.502	494.606	164.542	168.098	171.120	176.046	271.523	171.554	-8191	255	
916.422	1	1	0	0	0.037597	0.04303	0.18649	0.16374	0.15191	0.14136	0.14486	0.26374	0.16056	0.082435	0.15868	0.13385	0.074897	0.056493	0.096845	0.14631	-1.6313	-2.7146	-2.4688	-2.2083	-2.8688	-2.2333	-2.2438	-2.7458	-1.9813	-2.6167	-2.5687	-2.0438	-2.7562	-2.1229	-2.2396	-2.8917	238.465	420.076	460.163	398.307	279.575	361.440	436.200	502.568	278.647	409.790	475.932	491.576	410.779	353.134	210.707	428.251	0.00037215	0.0011914	0.00055175	231.39	4.292e-06	1.4329e-05	259.87	101.16	1.3361e-05	4.1475e-06	117.45	47.765	39.154	19.026	1.0651e-05	22.801	0.0027996	0.0028668	0.00079643	494.16	3.1193e-05	3.1126e-05	485.88	182.7	3.0808e-05	3.0734e-05	241.6	91.222	117.6	31.842	3.0318e-05	39.881	164.672	345.808	367.653	163.250	235.397	252.323	161.724	167.694	441.710	301.701	163.534	167.441	171.344	176.217	489.390	171.594	-8191	255	
916.518	1	1	0	0	0.35073	0.18211	0.26768	0.20409	0.14304	0.10817	0.11241	0.089389	0.097594	0.22955	0.16305	0.19482	0.043483	0.3304	0.16609	0.12209	-1.4125	-2.6063	-2.5979	-2.0167	-2.6792	-2.0521	-2.2625	-2.8354	-1.9396	-2.4625	-2.6688	-1.9417	-2.5521	-2.2375	-2.1063	-2.8646	363.709	151.023	382.673	284.068	240.462	434.830	201.657	160.650	211.798	489.059	471.749	364.738	370.633	171.948	191.387	468.024	0.00047558	0.0015634	8.4145e-05	230.78	1.2639e-05	1.9694e-05	264.97	100.34	1.3265e-06	1.025e-05	119	48.729	39.104	19.225	1.4759e-05	22.639	0.0027181	0.0027951	0.00077915	489.03	3.0661e-05	3.0848e-05	485.01	182.43	3.0816e-05	3.0938e-05	244.52	92.495	120.08	32.362	3.1046e-05	40.407	500.688	275.290	467.715	163.257	425.449	275.968	161.875	168.649	191.232	349.471	164.293	167.761	172.319	175.787	362.524	171.896	-8191	255	
916.614	1	1	0	0	0.14682	0.17978	0.049195	0.19449	0.042193	0.088614	0.090591	0.18818	0.22014	0.21755	0.22881	0.1643	0.17765	0.12423	0.20519	0.15198	-1.7083	-2.2562	-2.6458	-1.8	-2.4917	-2.4	-2.1771	-2.7938	-1.8438	-2.3854	-2.6958	-2.1125	-2.6437	-2.7021	-1.85	-2.9146	424.122	397.384	390.269	420.386	185.004	158.738	246.208	509.818	243.685	479.874	349.752	503.928	263.688	442.591	395.687	484.634	0.00038448	0.0017753	0.00024929	232.83	6.6031e-06	7.7368e-06	262.32	100.77	3.0134e-05	1.5933e-05	118.36	48.181	38.401	19.211	2.0948e-05	22.961	0.0027451	0.0028156	0.00078119	491.47	3.0842e-05	3.0908e-05	486.14	182.69	3.0938e-05	3.0958e-05	243.04	92.55	119.14	32.352	3.1041e-05	40.516	169.923	150.713	283.174	163.491	389.717	324.626	161.254	168.293	253.384	441.955	164.238	168.348	171.395	175.794	267.959	171.242	-8191	255	
916.709	1	1	0	0	0.096791	0.20784	0.084706	0.188	0.050711	0.05771	0.18085	0.40634	0.24667	0.15452	0.097395	0.18709	0.20773	0.074122	0.072416	0.067405	-1.7125	-2.175	-2.6229	-2.2438	-2.9542	-2.8042	-2.3937	-3.0312	-2.3479	-2.4229	-2.9562	-2.2417	-2.675	-2.9062	-2.1667	-2.9125	198.183	447.965	497.705	405.928	378.450	419.227	392.626	395.684	241.873	368.062	261.199	409.680	194.508	208.645	391.191	378.546	0.00039995	0.00029823	0.00034922	232.13	1.5374e-05	2.11e-05	264.03	101.36	1.0714e-05	5.2154e-06	118.07	47.494	38.37	19.135	4.2893e-06	22.767	0.0027501	0.0028364	0.00079304	492.16	3.1057e-05	3.1058e-05	485.56	182.86	3.0917e-05	3.1128e-05	243.55	92.204	119.81	32.436	3.1351e-05	40.566	491.423	199.811	425.582	162.685	279.693	333.856	161.503	168.379	238.630	403.823	165.208	168.126	171.164	176.218	406.685	170.961	-8191	255	
916.806	1	1	0	0	0.15085	0.048372	0.10847	0.055034	0.21126	0.10762	0.18321	0.3117	0.17563	0.11163	0.1235	0.36986	0.094997	0.16534	0.25981	0.15978	-1.7583	-1.8854	-2.6625	-2.025	-2.3187	-2.6813	-2.0375	-2.7938	-2.4083	-2.0812	-2.7479	-2.0312	-2.4146	-2.7833	-2.025	-2.675	182.145	333.627	238.693	205.587	323.200	288.113	422.811	447.112	330.116	167.185	454.737	451.994	245.400	456.827	438.401	494.243	0.00049503	0.0012594	0.00012646	232	8.5e-06	4.7514e-06	264.53	99.487	1.4338e-05	8.2465e-06	117.78	48.07	38.81	19.004	2.1672e-05	22.559	0.0027835	0.0028852	0.00080209	496.24	3.1549e-05	3.1591e-05	489.35	184.45	3.1352e-05	3.1414e-05	245.1	92.891	120.77	32.468	3.1502e-05	40.642	220.814	399.073	303.665	164.502	448.828	204.660	161.722	168.325	337.122	223.034	164.409	168.533	172.734	176.179	310.600	171.389	-8191	255	
916.925	1	1	0	0	0.024708	0.15716	0.1502	0.25833	0.12721	0.099611	0.068814	0.14711	0.31298	0.16859	0.062859	0.10135	0.12489	0.073027	0.04294	0.1501	-2.0104	-2.1542	-2.8625	-2.2229	-2.3271	-2.7604	-1.9083	-2.6125	-2.5187	-2.0833	-2.7812	-2.0875	-2.4417	-2.8729	-2.0604	-2.4646	452.022	212.980	333.119	230.320	196.959	221.487	299.212	368.608	460.080	236.316	386.955	426.810	472.543	371.168	276.314	388.346	0.00025137	0.001448	3.881e-05	232.64	8.1174e-06	1.057e-05	266.08	101.42	2.0886e-05	8.2776e-06	119.17	48.431	37.691	19.34	2.6285e-05	23.16	0.0027904	0.0028638	0.00079929	495.56	3.144e-05	3.1389e-05	491.13	184.42	3.1273e-05	3.1266e-05	245.83	93.086	121.16	32.595	3.1491e-05	40.907	207.270	344.004	388.938	164.073	393.034	381.638	161.250	167.403	260.735	299.635	164.435	168.450	171.243	176.201	496.795	170.808	-8191	255	
917.021	1	1	0	0	0.11145	0.30121	0.033412	0.21451	0.12341	0.13768	0.21404	0.29906	0.092387	0.21339	0.077963	0.052144	0.32152	0.21572	0.11187	0.065401	-2.0438	-2.0333	-2.5667	-2.2833	-2.3896	-2.6854	-2.1063	-2.55	-2.6542	-2.0125	-2.8167	-2.4271	-2.2062	-2.9542	-2.0104	-2.525	269.961	418.960	404.720	210.779	347.067	400.079	194.958	328.168	243.780	279.893	317.844	330.702	324.981	496.917	509.359	339.951	0.00055929	0.0013057	0.00022386	233.98	8.5713e-07	2.0509e-05	266.77	101.28	7.0916e-06	8.1466e-06	119.48	47.751	39.031	19.25	3.8775e-06	22.933	0.002798	0.0028817	0.00080289	497.59	3.1498e-05	3.1526e-05	491.52	184.26	3.1109e-05	3.1264e-05	244.5	92.571	120.17	32.507	3.1364e-05	40.552	174.475	398.426	152.745	163.102	320.581	490.958	160.983	167.947	399.872	388.798	164.589	168.155	171.066	176.002	242.486	171.406	-8191	255	
917.118	1	1	0	0	0.23217	0.29307	0.19084	0.13186	0.17317	0.045898	0.10915	0.20509	0.1224	0.15348	0.31417	0.29432	0.12489	0.087197	0.047157	0.16817	-2.2479	-1.9396	-2.7229	-2.4042	-2.25	-2.9896	-2.1729	-2.3396	-2.65	-2.0625	-2.7042	-2.5354	-2.1104	-2.9771	-2.0979	-2.6896	324.899	412.726	298.500	492.899	249.409	307.579	405.032	500.547	279.659	374.385	171.439	503.151	405.092	170.743	507.849	359.891	0.00054645	0.00063956	0.00052528	234.47	1.3165e-05	9.3192e-06	263.04	99.057	5.2063e-06	1.4657e-05	116.7	47.32	39.266	19.096	2.094e-05	22.642	0.0027982	0.002871	0.00080178	497.64	3.1519e-05	3.1676e-05	490.42	184.88	3.1641e-05	3.1724e-05	245.86	92.985	121.44	32.585	3.1678e-05	40.638	189.726	200.705	335.414	163.977	289.271	294.467	161.069	167.812	386.181	241.551	165.138	168.006	171.758	176.389	323.093	171.290	-8191	255	
917.214	1	1	0	0	0.12813	0.20237	0.16758	0.31242	0.16308	0.067805	0.29637	0.096002	0.0166	0.060964	0.099363	0.12075	0.10607	0.12849	0.09383	0.059447	-2.6229	-2.2583	-2.6229	-2.6083	-2.0146	-2.9813	-2.3667	-2.3979	-2.8354	-2.1458	-2.7604	-2.4896	-1.9521	-2.7229	-2.2167	-2.375	196.484	452.481	243.622	426.979	461.522	381.663	156.807	441.284	208.194	428.407	436.386	258.583	392.549	466.113	488.440	261.478	0.00030201	0.00060132	0.00041856	233.77	9.3964e-06	2.0646e-05	266.64	99.74	9.6701e-06	3.1756e-06	118.81	47.574	38.83	19.218	6.4558e-06	22.811	0.0028067	0.0028786	0.00080615	498.47	3.1625e-05	3.1787e-05	491.77	185.03	3.1821e-05	3.1776e-05	246.91	93.315	121.86	32.71	3.1852e-05	40.83	238.060	465.536	359.577	163.148	390.938	171.138	161.682	167.873	260.778	489.900	164.467	167.339	170.641	175.904	278.181	171.472	-8191	255	
917.310	1	1	0	0	0.038749	0.16078	0.058084	0.32477	0.10796	0.10361	0.19638	0.11084	0.081311	0.21966	0.24833	0.12593	0.16521	0.063735	0.30807	0.37753	-2.5396	-2.0083	-2.3292	-2.4271	-1.8292	-2.8688	-2.4042	-2.1875	-2.8312	-2.1063	-2.3688	-2.5021	-1.8833	-2.6479	-2.3708	-2.0187	312.522	453.905	426.605	478.707	486.256	304.918	489.659	477.423	486.088	340.609	485.818	183.303	294.503	290.149	457.142	494.484	0.00033857	0.0017527	4.8205e-05	233.1	1.3228e-05	1.9628e-05	264.79	100.31	6.4292e-06	6.4434e-06	119.74	48.133	38.447	19.191	2.1553e-05	22.669	0.0028345	0.002915	0.00081274	500.54	3.2052e-05	3.2134e-05	497.06	186.74	3.234e-05	3.2524e-05	250.27	95.008	124.58	33.267	3.2833e-05	41.676	204.737	273.863	271.549	163.440	243.316	285.455	161.406	167.962	483.543	341.204	164.028	167.940	172.844	176.437	267.984	171.135	-8191	255	
917.406	1	1	0	0	0.14812	0.26023	0.1056	0.17596	0.21849	0.15612	0.10892	0.22868	0.25599	0.14158	0.23877	0.22801	0.23245	0.035513	0.077098	0.25306	-2.5479	-2.0875	-2.4771	-2.6021	-1.8896	-2.6	-2.5521	-2.1562	-2.6813	-2.2146	-2.325	-2.7521	-2.0292	-2.8104	-2.4583	-1.9937	467.571	238.352	349.994	454.593	380.179	247.524	181.255	421.838	371.082	393.404	402.856	397.767	284.671	427.706	262.671	156.607	0.00037176	0.00047348	0.0005407	230.2	4.407e-06	8.3742e-06	262.1	100.95	1.243e-05	5.1612e-06	118.52	47.598	38.186	19.113	1.5023e-05	22.718	0.0029383	0.0030191	0.00084402	510.29	3.3171e-05	3.3298e-05	503.78	190.1	3.3513e-05	3.3611e-05	254.74	96.483	127.13	33.63	3.3914e-05	42.212	207.460	453.231	492.966	163.447	346.431	192.081	161.508	168.560	397.929	208.484	164.181	167.919	171.077	176.024	193.639	171.682	-8191	255	
917.527	1	1	0	0	0.2636	0.027197	0.16968	0.12944	0.2038	0.13598	0.12604	0.073599	0.1214	0.19357	0.21759	0.02798	0.28978	0.24555	0.1131	0.13703	-2.4479	-2.1208	-2.3917	-3.2542	-2.3354	-2.5875	-2.6354	-1.8542	-2.8542	-2.1854	-2.2833	-2.775	-2.0312	-2.5583	-2.4896	-2.05	412.908	358.190	305.361	489.434	297.785	477.136	359.580	428.683	426.245	246.401	181.940	383.995	224.771	209.568	250.690	405.762	0.00029839	0.002297	0.00047718	232.09	1.781e-05	1.1387e-05	265.8	98.96	1.6241e-05	6.9644e-06	115.84	48.055	38.229	19.158	5.521e-06	22.643	0.0030291	0.0031025	0.0008652	518.72	3.4045e-05	3.3976e-05	508.23	190.55	3.3796e-05	3.3787e-05	254.21	96.242	126.52	33.523	3.3579e-05	41.97	201.716	398.366	226.203	163.218	177.838	439.287	161.744	168.213	153.986	388.682	164.028	168.009	170.558	176.130	420.632	172.198	-8191	255	
917.621	1	1	0	0	0.10035	0.081281	0.031854	0.31146	0.11944	0.15134	0.037477	0.28216	0.070066	0.056493	0.05066	0.12705	0.13768	0.1338	0.26302	0.16596	-2.45	-2.3479	-2.1917	-2.7438	-2.0271	-2.5187	-2.575	-2.0458	-2.7562	-2.55	-2.1771	-2.825	-2.0792	-2.3771	-2.7542	-2.2188	430.512	222.927	284.135	497.601	418.424	190.569	307.042	232.088	184.550	320.285	396.133	387.926	457.562	227.997	479.846	476.648	0.00024371	0.0014295	0.0003261	234.46	1.273e-05	1.8618e-05	260.26	99.587	7.2661e-06	3.9347e-06	118.81	47.879	39.052	19.356	1.9732e-05	22.976	0.0029776	0.0030647	0.00085221	514.76	3.3587e-05	3.3586e-05	505.35	190.02	3.3713e-05	3.3745e-05	255.19	96.73	127.14	33.806	3.3847e-05	42.294	184.289	297.903	293.517	163.570	329.828	302.930	161.098	167.789	250.169	499.687	164.573	167.630	172.106	176.015	328.749	171.306	-8191	255	
917.717	1	1	0	0	0.17995	0.24216	0.27355	0.14587	0.076452	0.13084	0.1346	0.068939	0.21007	0.050946	0.086912	0.034921	0.26139	0.24133	0.18791	0.22601	-2.6167	-2.7271	-2.1375	-2.9229	-2.3708	-2.4646	-3.1083	-2.1292	-2.9375	-2.8792	-1.9958	-3.0979	-2.4792	-2.5792	-3.0229	-2.2021	315.447	440.776	296.213	192.574	413.291	353.366	384.054	462.150	246.511	277.605	404.516	346.414	150.079	363.996	378.011	333.450	0.00051148	0.0003055	0.00033697	233.56	1.1824e-05	1.4799e-05	263.55	100.12	2.3706e-05	2.358e-06	117.45	47.612	38.428	19.554	1e-05	22.894	0.003003	0.0030772	0.00085634	516.17	3.3617e-05	3.3704e-05	505.82	189.96	3.3586e-05	3.3656e-05	254.5	96.458	126.31	33.715	3.3617e-05	42.046	170.050	311.525	285.751	163.163	197.352	209.979	161.522	167.681	194.801	180.982	164.839	168.116	170.662	175.835	232.825	171.258	-8191	255	
917.789	1	1	0	0	0.20461	0.0307	0.14944	0.080306	0.15545	0.063174	0.1385	0.15457	0.24498	0.31573	0.11413	0.13378	0.31552	0.015733	0.1762	0.24579	-2.4375	-2.5354	-2.0812	-3.0417	-2.4646	-2.4625	-2.8833	-2.1833	-2.6979	-2.5875	-2.1917	-2.7417	-2.3458	-2.2021	-2.775	-2.2812	276.527	453.962	450.078	496.121	407.284	320.978	275.597	452.083	430.761	198.812	452.544	337.630	360.147	313.477	493.455	479.403	0.00056238	0.0010526	0.00027234	229.56	1.3241e-05	9.3872e-06	262.52	99.389	3.8905e-06	5.1016e-06	117	46.986	39.185	19.576	8.3091e-06	23.041	0.0029695	0.0030426	0.0008472	511.3	3.3266e-05	3.3248e-05	502.76	189.27	3.3426e-05	3.3633e-05	253.52	96.065	127.31	33.885	3.3824e-05	42.259	195.179	365.242	495.661	163.784	261.962	327.970	161.801	168.626	439.103	405.460	164.826	168.619	171.158	176.337	175.306	171.473	-8191	255	
917.910	1	1	0	0	0.10632	0.28562	0.0741	0.36286	0.29552	0.013945	0.11143	0.13609	0.086947	0.14283	0.018429	0.2453	0.12802	0.090623	0.0097414	0.29392	-1.9979	-2.8771	-2.2854	-2.9	-2.4104	-2.0542	-2.7687	-2.3417	-2.3	-2.7458	-1.9708	-2.5333	-2.3563	-2.0583	-2.5271	-2.2854	367.403	313.265	485.751	404.924	506.361	451.549	209.519	438.284	161.699	431.989	372.986	359.105	337.586	365.936	177.592	485.234	0.00021885	0.00081563	0.00012663	227.84	1.3438e-05	3.1492e-06	260.22	100.41	1.3191e-05	1.205e-05	118.37	47.883	39.25	19.543	2.8919e-05	22.88	0.0030023	0.0030781	0.00085614	513.11	3.3487e-05	3.3546e-05	503.86	189.22	3.3497e-05	3.3562e-05	254.2	96.722	127.09	33.97	3.4011e-05	42.564	166.306	316.026	182.529	162.901	172.628	246.006	161.521	167.753	431.155	223.509	164.195	168.294	170.965	176.826	166.582	171.593	-8191	255	
918.006	1	1	0	0	0.066992	0.16664	0.066255	0.092012	0.11635	0.10495	0.11842	0.18329	0.15435	0.28655	0.11887	0.20656	0.13979	0.053917	0.17892	0.39755	-2.1396	-2.9562	-2.1167	-3.0146	-2.7792	-2.1188	-3.2479	-2.375	-2.5312	-3.0229	-2.4062	-2.5646	-2.6354	-1.8667	-2.7292	-2.1521	500.445	402.286	334.454	438.110	379.628	249.811	154.950	210.347	443.610	297.359	466.067	364.461	477.073	369.597	168.972	441.589	0.00028063	0.00028992	0.00042063	231.09	1.2041e-05	3.1045e-06	263.6	100.49	1.527e-05	1.4736e-05	118.91	47.831	39.119	19.398	8.5426e-06	23.224	0.0030309	0.003131	0.00087602	520.19	3.449e-05	3.4744e-05	512.16	192.75	3.456e-05	3.4707e-05	258.93	97.864	129.68	34.284	3.4597e-05	42.938	161.468	311.353	165.712	164.262	158.108	509.049	161.267	167.147	324.870	335.082	163.565	168.183	171.744	175.985	295.161	171.466	-8191	255	
918.102	1	1	0	0	0.084125	0.11209	0.074194	0.017488	0.17571	0.19211	0.20475	0.23931	0.16704	0.18162	0.018797	0.26452	0.1225	0.36268	0.25747	0.10005	-2.2958	-2.9938	-2.4854	-2.8292	-2.6375	-2.2229	-2.8833	-2.6271	-2.2146	-2.9354	-2.2271	-2.4875	-2.8417	-2.2104	-2.6833	-2.4354	165.198	349.519	242.201	473.467	264.078	372.203	348.781	440.509	384.686	457.621	443.999	289.995	431.442	470.558	424.443	448.591	0.00028806	0.0010418	0.00011552	229.65	4.4482e-06	7.8825e-06	263.32	99.293	1.1226e-05	3.9974e-06	117.28	47.771	37.958	19.468	1.0782e-05	23.184	0.0030467	0.0031467	0.00087639	519.45	3.4119e-05	3.4206e-05	510.08	191.56	3.4238e-05	3.4195e-05	255.97	97.37	127.98	34.073	3.4094e-05	42.594	500.098	323.836	171.411	164.308	393.650	190.971	161.295	168.219	405.459	364.876	164.744	167.378	171.221	176.218	503.839	171.484	-8191	255	
918.198	1	1	0	0	0.092978	0.22424	0.16119	0.15593	0.28294	0.095659	0.17668	0.10578	0.14252	0.15325	0.21102	0.17538	0.10494	0.10261	0.31178	0.18628	-1.7583	-2.7667	-2.1771	-2.3812	-2.8917	-1.9125	-2.6562	-2.6229	-2.0771	-2.7458	-2.2333	-2.3604	-2.775	-1.8417	-2.5438	-2.6	154.932	176.337	194.099	494.888	374.983	314.223	440.173	404.725	231.835	255.805	468.463	245.070	424.160	157.057	402.326	375.799	0.00047024	0.0011549	0.00045272	229.56	5.5482e-06	8.6319e-06	262.8	100.35	5.0742e-06	5.5452e-06	116.44	47.473	38.624	19.367	1.5104e-05	22.863	0.0030153	0.0031134	0.00086613	517.18	3.4063e-05	3.4232e-05	508.36	191.45	3.4161e-05	3.4194e-05	255.64	96.768	128.17	33.976	3.4144e-05	42.496	194.001	176.700	235.416	163.668	237.207	377.130	162.048	167.321	165.984	150.718	164.694	168.136	171.689	176.037	172.611	170.967	-8191	255	
918.319	1	1	0	0	0.12541	0.11	0.12262	0.098148	0.11018	0.13638	0.15861	0.11895	0.1861	0.12428	0.24329	0.14745	0.21409	0.067478	0.15989	0.33414	-1.6333	-2.6167	-2.2333	-2.1562	-2.7479	-1.9438	-2.625	-2.6292	-2.1729	-2.7687	-2.4271	-2.0792	-2.8812	-2.1521	-2.4062	-2.8771	249.342	186.617	488.443	454.143	275.576	285.174	193.574	314.614	282.154	490.879	369.370	366.236	253.317	169.683	314.330	438.000	0.00051294	0.00069733	0.00021517	231.85	1.1922e-05	1.8191e-05	260.67	99.84	2.1073e-06	4.9881e-06	116.87	47.461	38.816	19.152	2.1542e-05	22.823	0.0030327	0.0031116	0.00086891	519.38	3.4388e-05	3.4382e-05	510.52	192.89	3.4608e-05	3.4786e-05	258.52	97.98	130.53	34.336	3.5155e-05	43.17	156.629	259.699	431.349	163.839	166.535	248.859	161.885	167.956	185.605	295.663	164.398	168.598	170.776	176.250	392.913	171.093	-8191	255	
918.390	1	1	0	0	0.11941	0.14269	0.21799	0.21364	0.083418	0.27916	0.17619	0.1261	0.26829	0.11878	0.45482	0.15971	0.19216	0.15781	0.19193	0.095539	-1.5917	-2.8563	-2.475	-2.2104	-2.95	-2.1875	-2.4813	-2.6833	-1.8687	-2.5792	-2.5812	-2.3958	-3.05	-2.1479	-2.6271	-2.9583	235.022	349.667	249.862	402.421	398.574	482.705	297.413	263.794	310.974	410.233	448.770	503.584	267.860	261.490	268.456	157.562	0.00039243	0.0018684	0.00015651	229.33	1.9422e-05	9.008e-06	263.87	99.711	8.3971e-06	1.0273e-05	118.12	47.721	39.152	19.554	9.065e-06	23	0.0031067	0.003203	0.00089069	525.02	3.5076e-05	3.5171e-05	516.88	194.4	3.5069e-05	3.5131e-05	260.15	98.676	130.31	34.395	3.4937e-05	43.039	497.011	168.131	253.335	163.978	223.653	281.219	161.406	168.345	246.198	268.938	163.691	168.035	170.259	177.151	491.871	171.167	-8191	255	
918.486	1	1	0	0	0.31337	0.13984	0.052472	0.1004	0.059218	0.30067	0.29269	0.16897	0.11566	0.068943	0.18491	0.18766	0.16829	0.12147	0.17438	0.082803	-1.5833	-2.6271	-2.2542	-2.1188	-2.8812	-2.0458	-2.2687	-3.0208	-2.1083	-2.7521	-2.575	-1.9875	-2.7833	-2.2812	-2.225	-2.8917	453.405	475.806	438.319	509.052	431.882	499.846	484.831	298.848	444.367	263.835	397.144	249.765	345.663	175.436	172.222	476.997	0.0004135	0.00056118	0.00013665	227.1	1.6738e-05	1.9179e-05	258.01	99.849	7.7677e-06	1.1154e-05	116.15	48.001	38.855	19.643	1.5688e-05	22.855	0.0030905	0.0031787	0.00088318	521.96	3.4724e-05	3.476e-05	511.73	192.68	3.4378e-05	3.4493e-05	256.51	97.285	128.99	34.179	3.4352e-05	42.687	151.529	495.852	369.013	163.380	219.933	303.161	162.377	168.440	406.798	185.987	164.783	167.918	170.529	176.345	343.974	171.388	-8191	255	
918.607	1	1	0	0	0.016979	0.052674	0.15084	0.11836	0.11369	0.047629	0.15219	0.12527	0.12666	0.11205	0.20729	0.023194	0.11519	0.14744	0.1495	0.15374	-1.5438	-2.7083	-2.4208	-1.9521	-2.6604	-2.2083	-2.1979	-2.8812	-2.0625	-2.5604	-2.6583	-2.0938	-2.6479	-2.4896	-2.2708	-2.8438	269.409	317.789	333.717	357.689	328.482	349.092	283.022	168.253	389.449	230.751	378.228	311.785	465.577	486.468	304.238	413.550	0.00021227	0.0013678	0.00011828	231.76	2.1241e-05	2.4679e-05	256.47	98.144	5.1002e-06	1.5052e-05	115.05	47.649	38.405	19.283	1.8094e-05	22.791	0.0030613	0.0031461	0.00087821	518.77	3.4313e-05	3.4389e-05	508.51	191.22	3.4139e-05	3.4047e-05	254.46	96.407	127.89	33.807	3.3881e-05	42.374	239.340	493.090	395.280	164.155	498.340	265.619	162.038	167.153	211.513	468.695	164.484	168.106	172.142	176.375	395.457	171.739	-8191	255	
918.702	1	1	0	0	0.17805	0.12473	0.15378	0.13418	0.19045	0.10794	0.36361	0.037216	0.13735	0.029553	0.1522	0.16659	0.33425	0.10947	0.037826	0.035313	-1.6063	-2.375	-2.8563	-1.9771	-2.6417	-2.5312	-2.0375	-2.8083	-2.1896	-2.3063	-2.7271	-2.0021	-2.8125	-2.5438	-1.9562	-2.8937	386.844	321.963	202.339	499.187	492.394	281.538	431.755	249.932	179.258	164.016	326.298	152.584	326.419	485.312	420.807	466.206	0.00024916	0.00061586	0.00040633	227.66	8.0693e-06	4.1351e-06	263.77	100.56	6.8964e-06	1.3033e-05	117.43	47.716	39.774	19.483	9.4715e-06	23.144	0.0030215	0.0031162	0.00087142	517.01	3.4153e-05	3.42e-05	509.9	191.08	3.4234e-05	3.4172e-05	256	97.196	128.65	33.972	3.4209e-05	42.606	170.452	345.286	327.320	163.660	467.109	448.931	162.044	168.204	447.462	414.464	164.123	168.064	173.056	176.001	380.160	171.454	-8191	255	
918.799	1	1	0	0	0.16508	0.11007	0.15716	0.25332	0.08581	0.16636	0.30783	0.12638	0.26073	0.30252	0.17775	0.10948	0.059259	0.17244	0.1411	0.17124	-1.7896	-2.2917	-2.7167	-2.0938	-2.575	-2.6167	-1.9771	-2.9417	-2.1354	-2.2667	-2.7833	-2.1333	-2.4958	-2.5708	-1.8667	-2.8521	390.469	150.535	500.853	274.791	414.799	160.025	381.469	154.332	218.868	491.025	340.033	209.860	413.981	260.119	392.385	443.805	0.00043691	0.00097304	0.00027657	233.91	9.3122e-06	1.3991e-05	261.68	101.24	1.2678e-05	4.9896e-06	116.67	47.357	38.829	19.279	2.5643e-05	23.099	0.0030521	0.0031456	0.00087868	522.55	3.4752e-05	3.4949e-05	514.97	193.71	3.4918e-05	3.4943e-05	259.24	98.039	130.29	34.242	3.4754e-05	42.922	506.291	232.071	417.266	164.066	249.394	450.550	161.079	167.956	341.412	191.946	164.701	168.185	170.305	177.167	471.709	171.374	-8191	255	
918.918	1	1	0	0	0.23077	0.17084	0.062561	0.14271	0.20523	0.3459	0.15028	0.22341	0.13366	0.050759	0.29235	0.13868	0.27278	0.14896	0.0062288	0.14107	-2.1333	-2.1625	-2.9938	-2.1458	-2.6479	-2.6917	-1.7479	-2.9333	-2.6708	-2.25	-2.8708	-2.2042	-2.3771	-2.8208	-2.1771	-2.9729	343.426	456.271	312.924	386.238	365.456	382.649	275.582	423.190	229.271	261.591	254.673	305.834	156.647	269.478	469.871	412.562	0.00072337	0.00071082	0.00049681	230.56	1.0212e-05	9.8885e-06	262.6	101.14	1.0411e-05	7.3504e-06	115.38	46.757	39.924	19.312	7.471e-06	22.609	0.0031021	0.0031911	0.00089472	526.37	3.5498e-05	3.5492e-05	519.5	195.85	3.5716e-05	3.5927e-05	262.27	99.04	133	34.609	3.5747e-05	43.172	203.017	298.864	299.157	163.707	394.608	407.536	161.080	167.103	171.372	392.537	164.535	168.613	172.063	176.287	380.098	171.741	-8191	255	
919.014	1	1	0	0	0.26694	0.17499	0.3209	0.31492	0.18019	0.12186	0.20954	0.13113	0.064098	0.087084	0.1032	0.1334	0.1476	0.15494	0.097285	0.15262	-2.1937	-2.0687	-2.7	-2.3979	-2.4479	-3.0646	-2.2625	-2.7792	-2.55	-2.0083	-2.9479	-2.4479	-2.3625	-2.9521	-2.0812	-2.5583	255.625	304.947	155.404	381.009	354.207	358.362	410.432	239.751	268.431	382.452	484.044	334.041	196.428	461.529	404.019	172.122	0.00036265	0.00053294	0.00048115	230.65	1.3525e-05	3.1961e-05	262.08	99.1	1.0453e-05	1.0626e-05	117.26	48.113	39.684	19.312	2.1495e-05	22.523	0.0031416	0.0032119	0.00089843	524.93	3.5178e-05	3.5264e-05	515.95	193.68	3.5129e-05	3.5175e-05	260.38	98.175	130.5	34.351	3.4915e-05	42.74	168.546	204.434	354.030	163.995	180.718	242.758	161.643	167.571	344.324	268.042	163.140	167.578	170.212	176.042	230.245	171.441	-8191	255	
919.086	1	1	0	0	0.034321	0.22124	0.03454	0.071203	0.041719	0.20252	0.10247	0.32657	0.17449	0.25036	0.19681	0.33649	0.24093	0.13546	0.10229	0.050082	-2.2604	-2.0667	-2.9625	-2.4354	-2.3208	-2.825	-1.9937	-2.6979	-2.7313	-2.3396	-2.9437	-2.4021	-2.0604	-3.0229	-2.4542	-2.8104	215.234	470.077	453.323	281.979	360.320	357.245	176.494	457.204	477.130	484.912	461.819	436.758	447.341	387.011	195.664	189.088	0.00047254	0.0025627	0.00053317	231.32	8.7844e-06	9.1074e-06	260.48	99.547	1.1807e-05	4.7202e-06	117.6	47.418	38.475	19.437	2.5912e-05	22.793	0.0030862	0.00316	0.00087845	518.92	3.4198e-05	3.4224e-05	509.49	191.55	3.424e-05	3.4462e-05	257.33	97.463	129.63	34.226	3.4593e-05	42.87	174.571	434.458	498.995	162.890	419.087	188.726	161.176	168.331	476.601	371.088	164.323	168.196	172.701	176.282	397.975	171.477	-8191	255	
919.182	1	1	0	0	0.20494	0.12144	0.075955	0.14401	0.24506	0.10423	0.20935	0.06595	0.18013	0.027525	0.073734	0.27317	0.23207	0.13429	0.10536	0.28859	-2.4896	-2.0625	-2.65	-2.5354	-2.1979	-3.0396	-2.4771	-2.5875	-2.8312	-2.2188	-2.9667	-2.7062	-2.3958	-2.9313	-2.2062	-2.3625	405.945	182.745	217.930	150.702	230.758	271.494	359.391	395.467	453.722	413.095	457.575	170.757	473.079	455.565	461.741	373.039	0.00060497	0.0012588	7.3248e-05	233.45	2.2471e-06	5.9302e-06	259.65	98.691	1.9693e-05	1.117e-05	115.9	47.861	38.968	19.251	2.9587e-06	22.62	0.0030919	0.0031536	0.00088507	522.56	3.453e-05	3.4425e-05	511.46	192.42	3.4643e-05	3.4635e-05	258.15	97.63	129.99	34.09	3.4772e-05	42.56	160.391	290.996	330.054	163.955	250.543	358.392	161.523	168.356	204.519	409.984	165.122	168.527	171.577	176.037	356.196	171.924	-8191	255	
919.303	1	1	0	0	0.11393	0.10321	0.12885	0.15748	0.11498	0.08611	0.1952	0.1218	0.04365	0.25747	0.073648	0.25385	0.22228	0.19149	0.042381	0.17508	-2.5312	-2.1333	-2.8208	-2.7583	-2.1562	-2.7833	-2.2917	-2.3417	-3.0542	-2.3187	-2.7062	-2.9042	-2.0167	-2.9521	-2.3146	-2.3833	228.277	215.899	202.451	503.771	352.253	301.501	494.349	385.701	196.917	222.380	309.866	466.689	392.482	485.038	172.886	476.374	0.00052266	0.001421	0.00067757	232.16	5.3512e-06	3.9271e-06	258.34	99.56	1.1354e-05	1.1103e-05	118.46	47.307	39.063	19.033	6.2827e-06	22.5	0.0030766	0.0031619	0.0008816	520.53	3.4524e-05	3.4547e-05	508.75	191.82	3.422e-05	3.4091e-05	254.68	96.156	127.52	33.628	3.3696e-05	41.938	152.505	155.066	221.108	163.598	150.527	489.245	161.809	168.144	504.232	217.878	165.456	168.345	171.105	176.561	449.816	171.661	-8191	255	
919.399	1	1	0	0	0.15705	0.25068	0.13347	0.15985	0.06202	0.24613	0.19995	0.28598	0.067745	0.15632	0.20523	0.058853	0.10057	0.36584	0.070358	0.20908	-2.3854	-2.2583	-2.5646	-2.7083	-2.1896	-2.9021	-2.5521	-2.3333	-2.8979	-2.1625	-2.6021	-2.7771	-2.2562	-2.9604	-2.6667	-2.0312	412.448	430.366	190.427	258.832	267.750	281.157	376.888	461.163	388.272	391.058	268.358	316.225	344.256	167.269	176.195	416.214	0.00012788	0.0010677	0.0003549	228.02	1.3912e-05	1.238e-05	255.07	98.465	1.2741e-05	9.9867e-06	117.8	47.323	38.75	19.336	9.0348e-06	22.588	0.0029963	0.0030665	0.00085505	511.01	3.341e-05	3.3679e-05	500.27	188.86	3.3445e-05	3.3455e-05	252.33	95.398	126.17	33.574	3.3515e-05	41.894	151.188	165.683	310.733	164.508	207.033	265.997	162.157	167.968	208.539	479.068	164.610	168.349	172.086	176.722	498.464	171.152	-8191	255	
919.495	1	1	0	0	0.069717	0.068459	0.14676	0.030766	0.28395	0.057986	0.049193	0.15114	0.24689	0.12625	0.097352	0.06285	0.081037	0.28116	0.37312	0.045727	-2.4333	-2.2792	-2.5417	-2.8521	-2.2646	-2.8583	-2.4437	-2.2188	-3.0917	-2.2938	-2.5062	-2.8979	-2.0812	-2.5292	-2.8125	-2.1354	193.724	440.796	239.417	193.254	456.475	454.632	168.940	288.730	345.893	310.861	477.760	470.371	358.230	411.362	162.748	375.660	0.00037459	0.00060074	0.00023656	231.34	1.3568e-05	6.7323e-06	258.48	99.413	1.4277e-05	8.6366e-06	116.57	47.88	37.434	19.303	1.3222e-05	22.748	0.0029807	0.0030679	0.00085657	511.9	3.3751e-05	3.3958e-05	504.15	190.31	3.3783e-05	3.3874e-05	253.58	96.058	126.55	33.757	3.358e-05	42.05	171.842	163.985	434.418	163.982	246.964	305.609	161.635	168.632	250.605	475.857	164.161	168.406	171.979	176.110	225.524	171.472	-8191	255	
919.591	1	1	0	0	0.084721	0.035162	0.15676	0.27406	0.075035	0.086532	0.29096	0.065368	0.245	0.095593	0.011238	0.06399	0.17522	0.21035	0.21704	0.20453	-2.6208	-2.2854	-2.4229	-2.7646	-2.2062	-2.7958	-2.6625	-2.2479	-2.85	-2.4	-2.3812	-3.1146	-2.1917	-2.8208	-2.6229	-2.0104	210.053	402.159	333.989	241.495	375.813	204.644	494.184	304.952	219.525	326.493	343.668	499.468	173.188	468.089	395.736	229.840	0.00036716	0.0018357	0.00039678	226.14	1.0327e-05	7.9197e-06	258.28	98.293	1.6607e-06	1.0991e-05	116.46	46.633	37.885	19.35	8.6191e-07	22.35	0.0029942	0.0030728	0.00085745	511.78	3.3766e-05	3.4112e-05	502.49	189.64	3.39e-05	3.4013e-05	253.88	96.456	128.54	34.087	3.4402e-05	42.375	174.214	498.341	403.226	164.287	312.827	497.906	160.987	168.687	160.317	347.054	165.209	168.960	170.767	176.591	316.310	171.681	-8191	255	
919.686	1	1	0	0	0.097486	0.2225	0.033032	0.083618	0.096704	0.11781	0.097325	0.19537	0.087304	0.047797	0.23218	0.08899	0.1484	0.12004	0.11145	0.11878	-2.4229	-2.5625	-2.2208	-3.0479	-2.3625	-2.7479	-2.7875	-2.2292	-2.7854	-2.3583	-2.3417	-3.1271	-2.2062	-2.375	-2.9979	-2.3937	318.736	444.522	153.742	199.438	367.867	389.448	381.645	172.558	427.204	383.022	453.547	315.215	483.715	432.626	482.559	491.787	0.00014404	0.000882	0.00040442	226.5	8.8981e-06	8.4683e-06	252.51	98.787	1.1304e-05	1.0133e-05	112.94	47.341	38.217	19.184	2.0963e-05	22.34	0.0030816	0.003174	0.00088477	520.33	3.4805e-05	3.4778e-05	507.49	191.83	3.4735e-05	3.4826e-05	255.66	97.209	129.36	33.971	3.4579e-05	42.252	381.482	416.733	261.838	163.876	251.393	352.789	161.430	167.902	169.091	462.857	164.698	168.409	172.891	177.161	198.143	171.377	-8191	255	
919.782	1	1	0	0	0.21405	0.14929	0.081003	0.19169	0.095451	0.11627	0.18354	0.15472	0.20659	0.17383	0.18797	0.094444	0.19402	0.17706	0.15541	0.31552	-2.4375	-2.8771	-2.1271	-3.0563	-2.3292	-2.5125	-2.9208	-2.2396	-2.7	-2.4604	-1.9146	-2.8937	-2.3521	-2.4042	-3.0167	-2.1854	503.150	161.706	186.411	178.499	178.591	445.125	258.056	159.353	411.267	507.395	412.169	241.194	274.809	167.338	281.275	367.092	0.00033551	0.00085186	0.00047744	227.69	3.0031e-06	1.252e-05	254.79	98.473	1.5181e-05	9.1914e-06	115.15	46.438	37.339	19.169	1.7499e-05	22.234	0.0030643	0.0031512	0.00088111	517.89	3.4385e-05	3.4749e-05	504.84	190.7	3.4537e-05	3.4646e-05	255.67	96.999	129.59	33.993	3.4818e-05	42.341	199.477	215.501	266.007	164.574	281.314	151.557	161.866	168.431	213.465	481.021	164.208	168.363	172.613	176.660	449.531	171.653	-8191	255	
919.880	1	1	0	0	0.017072	0.083814	0.39431	0.34495	0.22251	0.053267	0.088599	0.023445	0.27945	0.22915	0.058072	0.014761	0.22872	0.20416	0.098914	0.26258	-2.0208	-2.9125	-2.1188	-2.9688	-2.5917	-2.5708	-2.7896	-2.1437	-2.8292	-2.7458	-2.2583	-2.8667	-2.6583	-2.1479	-2.9188	-2.4396	261.572	237.164	323.974	227.113	348.959	417.098	439.103	400.715	366.321	402.589	318.289	271.584	230.606	487.675	480.804	272.666	4.3707e-05	0.0004289	0.00041495	225.62	7.398e-06	2.2892e-05	254.67	96.934	1.8028e-05	5.8485e-06	112.02	45.755	38.104	19.113	1.3464e-05	22.074	0.0030747	0.0031701	0.0008765	515.13	3.4405e-05	3.4422e-05	504.59	189.29	3.4256e-05	3.4271e-05	251.86	95.407	126.74	33.56	3.383e-05	41.663	214.935	310.361	297.919	163.504	174.723	240.299	162.005	168.344	277.879	228.782	164.592	168.664	171.147	176.774	261.898	172.188	-8191	255	
919.999	1	1	0	0	0.17877	0.12487	0.08778	0.28854	0.24061	0.31108	0.075816	0.18701	0.10183	0.20702	0.13367	0.18722	0.10275	0.068327	0.080114	0.17826	-2.4688	-3.05	-2.2938	-2.6646	-2.4354	-2.5812	-2.8812	-2.3563	-2.6771	-2.85	-2.1229	-2.8125	-2.7938	-2.2771	-2.975	-2.4583	221.308	340.686	457.790	429.986	352.036	358.259	343.317	272.940	358.491	251.725	214.510	375.294	249.834	239.558	224.002	272.688	0.00010239	0.00056316	0.00037022	222.81	5.2876e-06	7.5531e-06	252.95	96.773	1.0601e-05	2.8898e-06	111.57	45.747	37.252	18.924	8.5472e-06	21.916	0.0029992	0.0030917	0.00085382	506.39	3.3458e-05	3.3399e-05	494.31	185.81	3.3214e-05	3.3474e-05	248.56	94.358	125.68	33.377	3.3709e-05	41.442	242.899	153.552	407.733	163.831	467.963	414.763	162.152	167.855	297.394	321.819	164.738	168.909	171.425	177.238	198.825	171.386	-8191	255	
920.095	1	1	0	0	0.18134	0.017548	0.24486	0.1246	0.19069	0.26222	0.019735	0.16781	0.25897	0.28845	0.10144	0.073269	0.33113	0.11909	0.2817	0.20746	-1.7396	-2.7958	-2.3375	-2.7771	-2.7917	-2.3667	-2.9083	-2.2438	-2.3563	-3.0146	-2.3625	-2.8312	-2.7083	-1.9188	-3.0167	-2.6104	319.707	235.330	162.568	462.330	377.069	338.587	308.451	434.281	386.680	434.535	394.910	458.778	218.729	392.758	313.248	393.795	0.00021807	0.00059021	0.00044724	225.61	1.3311e-05	2.5373e-05	253.37	97.415	1.1671e-05	1.0289e-05	115.17	46.898	38.374	19.156	1.1852e-05	22.063	0.0029754	0.0030669	0.00085436	506.19	3.3519e-05	3.3709e-05	497.35	187.75	3.3593e-05	3.3785e-05	251.03	94.886	126.36	33.488	3.3846e-05	41.542	237.247	495.687	374.066	163.508	354.534	150.942	161.278	167.774	244.258	460.233	164.569	168.171	170.891	176.932	405.061	171.584	-8191	255	
920.191	1	1	0	0	0.22953	0.26424	0.32903	0.21877	0.24309	0.080345	0.22262	0.064273	0.1962	0.15678	0.051574	0.19973	0.051054	0.18298	0.094981	0.14149	-2.0583	-2.8958	-2.3354	-2.4458	-2.7917	-2.2521	-3.0708	-2.7667	-2.2313	-2.8854	-2.1542	-2.6146	-2.9188	-2.3875	-2.9167	-2.7521	393.716	205.659	267.881	231.928	425.102	196.108	458.473	420.220	211.671	170.579	286.254	195.611	451.290	172.285	417.989	202.035	0.00050348	0.0010256	0.00041019	222.76	6.3382e-06	1.2188e-05	253.86	97.336	1.0648e-05	3.208e-06	114.37	47.2	38.286	18.992	1.0041e-05	22.554	0.002998	0.0030909	0.0008631	510.64	3.3825e-05	3.3989e-05	501.78	188.11	3.3636e-05	3.3698e-05	250.72	95.123	125.45	33.348	3.3176e-05	41.294	180.649	376.786	174.435	164.339	174.502	162.659	161.675	168.956	394.397	394.863	165.195	168.554	171.617	177.277	352.334	171.955	-8191	255	
920.287	1	1	0	0	0.2309	0.087805	0.07086	0.31278	0.02189	0.067084	0.24187	0.05541	0.18615	0.089022	0.15144	0.20145	0.26588	0.13863	0.051299	0.093166	-1.6292	-2.7938	-2.5125	-2.5479	-2.8396	-2.2771	-2.75	-2.4271	-2.1042	-3.1271	-2.4396	-2.4604	-2.975	-2.0958	-2.8083	-2.7292	496.101	210.010	273.000	440.963	412.364	202.651	467.244	442.155	286.270	366.518	261.671	461.675	177.347	285.333	163.438	381.086	0.00045589	0.00087378	0.00042241	227.61	7.4103e-06	1.5669e-05	254	98.187	3.5254e-06	2.1683e-05	115.25	46.297	39.3	19.004	1.7463e-05	22.473	0.0029218	0.0030047	0.00083306	500.15	3.2697e-05	3.2754e-05	493.06	185.47	3.2678e-05	3.2707e-05	247.34	93.715	123.53	32.969	3.248e-05	40.863	193.181	344.446	381.259	163.873	405.048	354.074	161.338	168.146	362.332	228.714	165.302	168.638	170.995	176.332	318.860	171.205	-8191	255	
920.383	1	1	0	0	0.15051	0.11445	0.14397	0.20489	0.011307	0.2544	0.048636	0.11284	0.14786	0.2195	0.15698	0.14858	0.10861	0.074477	0.20063	0.13571	-1.7542	-3.0625	-2.3875	-2.1813	-2.9083	-2.4333	-2.8167	-2.9562	-2.0958	-3.0333	-2.25	-2.3063	-2.9729	-2.3625	-2.6917	-2.9313	327.250	479.755	441.459	361.561	314.913	287.512	187.739	313.884	220.501	261.388	317.140	293.839	187.528	370.391	494.798	224.738	0.0002874	0.00044528	0.00040149	223.17	1.427e-05	1.4294e-05	255.62	96.558	7.0864e-06	2.3662e-05	115.97	46.502	37.62	19.261	5.2737e-06	22.432	0.0028553	0.0029413	0.00081672	494.23	3.1934e-05	3.1876e-05	485.1	182.71	3.1742e-05	3.1822e-05	242.97	92.232	121.18	32.672	3.1766e-05	40.606	500.118	451.071	451.126	164.546	276.287	493.024	162.130	167.664	291.618	280.975	164.969	168.181	169.422	176.462	340.562	171.922	-8191	255	
920.479	1	1	0	0	0.050841	0.11336	0.14145	0.053728	0.047471	0.08037	0.32156	0.21095	0.29309	0.2394	0.031076	0.16632	0.18402	0.20636	0.25562	0.22142	-1.5729	-2.5625	-2.6771	-2.3375	-3.0646	-2.5021	-2.5458	-2.6813	-2.0167	-2.9042	-2.5396	-2.4146	-2.9021	-2.0292	-2.3271	-3.0062	378.101	261.723	495.003	277.678	243.794	507.824	488.737	452.088	164.667	220.137	185.835	373.181	499.720	241.777	337.669	440.375	0.0004756	0.00091354	0.00021644	224.82	9.8038e-06	2.1025e-05	256.17	97.991	6.7194e-06	2.3378e-05	114.85	46.744	37.903	19.106	1.6282e-05	22.473	0.0028018	0.0028948	0.00080139	491.93	3.1541e-05	3.1644e-05	485.4	182.46	3.1532e-05	3.1702e-05	243.06	92.454	121.15	32.568	3.1769e-05	40.642	187.292	165.905	404.972	163.531	509.163	232.367	161.446	168.078	488.672	316.562	164.883	168.560	171.622	176.547	234.265	171.581	-8191	255	
920.600	1	1	0	0	0.10599	0.078889	0.15481	0.12915	0.27408	0.2255	0.29052	0.07102	0.038337	0.19133	0.16079	0.090142	0.23971	0.30126	0.25252	0.042611	-1.8	-2.8042	-2.5708	-2.1833	-2.8312	-2.3583	-2.5896	-3.1083	-2.3375	-2.775	-2.6021	-1.9917	-2.8812	-2.5854	-2.5292	-2.8083	298.919	449.944	164.098	358.708	220.302	429.369	357.119	356.875	498.293	477.837	429.620	460.993	302.884	214.605	476.757	390.746	0.00041654	0.00037641	0.00034893	226.56	1.219e-05	1.1557e-05	259.32	98.312	3.7474e-06	1.2219e-05	116.94	46.618	38.608	19.091	2.0553e-05	22.67	0.0028305	0.0029315	0.0008168	497.88	3.2178e-05	3.2446e-05	490.95	184.94	3.2009e-05	3.2113e-05	245.68	93.04	122.23	32.827	3.2068e-05	40.956	200.637	222.133	431.258	164.547	478.501	310.937	161.560	167.750	285.431	367.445	165.473	168.470	172.110	177.008	150.921	171.949	-8191	255	
920.696	1	1	0	0	0.18287	0.1933	0.18896	0.37994	0.14508	0.2485	0.11856	0.14781	0.10942	0.13615	0.22332	0.13627	0.14752	0.25133	0.15244	0.18323	-1.7812	-2.4792	-2.8354	-2.3083	-2.875	-2.5667	-2.5812	-2.9813	-2.0417	-2.6354	-2.8333	-2.3271	-2.9	-2.6188	-2.0625	-2.9167	459.918	230.848	503.013	258.476	413.227	161.002	264.713	262.008	409.290	395.787	203.162	202.756	251.440	447.867	410.620	418.633	0.00026617	0.00043394	9.8826e-05	226.94	1.1437e-05	8.6331e-06	260.1	98.029	4.0326e-06	1.9518e-05	114.57	46.179	38.024	18.94	1.5149e-05	22.279	0.0028702	0.0029427	0.00082219	500.69	3.2365e-05	3.2424e-05	491.98	184.6	3.2132e-05	3.2238e-05	245.78	92.84	122.05	32.694	3.2141e-05	40.737	173.879	373.725	363.011	163.461	273.396	241.353	162.345	169.262	282.916	160.975	164.651	168.603	173.217	177.158	296.697	171.333	-8191	255	
920.791	1	1	0	0	0.080623	0.21762	0.15411	0.14001	0.22877	0.05268	0.20375	0.10211	0.22244	0.12594	0.17593	0.085713	0.16927	0.037519	0.19862	0.092724	-1.7896	-2.5479	-3.0146	-2.3146	-2.7792	-2.3604	-2.3479	-3.1063	-2.4583	-2.5812	-2.8042	-2.1625	-2.8521	-2.6875	-2.1854	-3.1396	474.712	215.643	157.126	180.483	389.422	358.560	415.125	177.012	432.420	217.552	157.519	249.605	204.321	166.470	372.108	169.375	0.0004011	0.00074371	0.00024572	228.48	8.3672e-06	2.7727e-05	255.99	97.819	8.0163e-06	7.2951e-06	116.86	46.857	38.69	19.058	1.0537e-05	22.39	0.0028389	0.0029391	0.00081745	497.17	3.2105e-05	3.2217e-05	490.52	184.24	3.1881e-05	3.1999e-05	245.33	92.835	121.76	32.613	3.1886e-05	40.664	163.548	326.832	192.000	163.506	172.051	217.347	161.425	168.530	406.021	350.976	164.798	168.714	172.205	176.059	318.301	171.290	-8191	255	
920.887	1	1	0	0	0.18653	0.16033	0.085983	0.21175	0.13104	0.12566	0.26628	0.23697	0.075126	0.29204	0.18404	0.13195	0.088086	0.19593	0.043433	0.049844	-2.1271	-2.0458	-2.8646	-2.3583	-2.6479	-2.7083	-1.9813	-2.7	-2.4375	-2.3438	-2.9479	-2.3542	-2.5438	-3.0708	-2.1688	-2.9333	372.104	510.063	485.537	185.026	350.319	382.989	364.411	383.414	491.311	347.133	368.555	395.848	275.212	449.416	303.633	371.465	0.00019971	0.0015921	3.5646e-05	229.97	9.0915e-06	1.5222e-05	256.58	99.904	6.9082e-06	5.6078e-06	116.71	47.438	38.488	19.269	6.7191e-06	22.77	0.002818	0.0028943	0.00080848	493.89	3.1594e-05	3.1541e-05	485.36	183.14	3.1128e-05	3.1219e-05	242.41	91.77	119.46	32.33	3.1065e-05	40.267	507.893	337.000	500.465	164.032	374.902	423.444	162.229	168.634	255.939	313.646	165.177	168.210	174.005	176.502	465.069	172.269	-8191	255	
920.983	1	1	0	0	0.2853	0.095012	0.20519	0.31649	0.15671	0.24426	0.29351	0.02427	0.13315	0.18028	0.25066	0.026033	0.24423	0.043327	0.22726	0.044202	-2.1208	-2.1167	-2.9521	-2.2896	-2.5625	-2.6688	-2.2188	-3.0042	-2.6396	-2.2542	-3.0146	-1.975	-2.5021	-2.7958	-2.1771	-2.6708	393.071	278.899	358.216	221.367	197.815	396.840	500.427	310.058	366.554	418.432	160.524	431.837	262.349	381.156	176.711	353.568	0.00035682	0.00062253	0.00035574	230.21	1.7693e-05	1.1512e-05	260.24	99.056	8.3606e-06	4.6479e-06	115.51	47.307	38.744	19.158	1.9957e-05	22.604	0.0027442	0.0028267	0.00079021	490.54	3.1085e-05	3.1198e-05	485.91	182.86	3.1094e-05	3.1304e-05	242.91	92.336	120.66	32.526	3.1665e-05	40.502	186.558	376.455	315.575	163.719	166.461	205.636	161.854	169.058	403.975	386.483	165.128	168.848	172.222	176.493	239.399	171.815	-8191	255	
921.079	1	1	0	0	0.11878	0.1711	0.030555	0.13395	0.033605	0.051599	0.21941	0.1453	0.071162	0.201	0.060926	0.10405	0.065781	0.13419	0.08797	0.036317	-2.1521	-2	-2.8187	-2.4313	-2.4437	-2.9125	-2.0646	-2.6479	-2.4729	-2.1771	-2.8333	-2.5146	-2.4667	-3.0687	-1.9875	-2.5187	387.216	396.804	416.814	458.320	319.784	381.621	421.869	430.936	397.551	318.492	243.917	434.009	480.340	184.816	445.571	377.187	0.00049844	8.873e-05	0.00026614	228.76	1.3692e-05	8.0913e-06	261.08	99.747	1.5067e-05	3.6922e-06	115.94	47.122	38.537	19.321	7.1036e-06	22.572	0.0027979	0.0028904	0.00080288	492.69	3.1606e-05	3.1704e-05	488.62	183.62	3.1582e-05	3.1704e-05	244.01	92.469	120.87	32.714	3.1665e-05	40.577	185.353	474.978	325.494	164.706	309.101	435.119	161.402	169.352	163.357	178.903	165.112	168.072	171.193	177.507	291.541	172.054	-8191	255	
921.175	1	1	0	0	0.077394	0.2881	0.24118	0.22482	0.16249	0.10049	0.34732	0.16293	0.16006	0.23132	0.11433	0.1264	0.14988	0.0637	0.15502	0.19829	-2.3208	-2.0312	-2.7771	-2.2417	-2.0125	-2.7417	-2.0979	-2.5229	-2.8042	-2.2146	-2.9021	-2.4125	-2.0854	-3.0708	-2.3125	-2.7042	347.311	381.664	378.130	433.511	468.122	152.050	462.235	364.610	415.499	346.407	453.576	200.186	281.682	314.541	196.627	234.378	0.00031682	0.00097	0.00037852	231.04	1.0771e-05	1.2944e-05	261.51	99.762	6.1431e-06	4.3807e-06	116.07	47.443	38.306	19.334	2.2827e-05	22.48	0.0028283	0.0029106	0.00081184	495.35	3.1889e-05	3.2066e-05	492.15	185.32	3.1966e-05	3.1992e-05	245.7	93.283	122.58	32.913	3.1897e-05	41.004	501.408	486.704	457.345	163.986	161.784	353.320	161.253	168.306	255.748	334.407	164.731	168.307	171.118	176.144	309.397	171.263	-8191	255	
921.271	1	1	0	0	0.23509	0.19867	0.3843	0.18558	0.11365	0.23695	0.15182	0.208	0.18859	0.10316	0.32616	0.35942	0.085268	0.22379	0.22791	0.16023	-2.3979	-2.1104	-2.8104	-2.6562	-2.2104	-2.9688	-2.2417	-2.4938	-2.9792	-2.25	-2.8896	-2.7687	-2.0062	-2.7438	-2.2021	-2.4417	466.136	252.968	326.250	162.995	334.917	470.677	392.161	461.635	474.986	382.001	367.812	409.380	176.080	162.312	454.592	290.999	0.00023007	0.0012311	0.00026328	230.27	9.2976e-06	4.6513e-06	263.95	100.11	1.6874e-05	7.7431e-06	117.55	48.085	38.627	19.315	2.2309e-06	22.577	0.0028473	0.002921	0.00081765	498.9	3.2159e-05	3.2301e-05	493.34	186.08	3.221e-05	3.2382e-05	248.04	94.047	122.61	33.106	3.2239e-05	41.082	501.732	507.095	415.356	163.264	506.063	470.137	161.591	167.759	484.594	430.713	164.835	168.221	169.620	176.212	495.068	171.159	-8191	255	
921.392	1	1	0	0	0.23439	0.18629	0.15903	0.15748	0.112	0.14968	0.1254	0.19471	0.17096	0.26881	0.3201	0.13971	0.02649	0.070663	0.26932	0.29874	-2.5646	-2.2188	-2.8125	-2.7687	-2.2188	-2.7958	-2.2208	-2.1604	-2.7562	-2.2917	-2.525	-2.5792	-1.8708	-2.9375	-2.3604	-2.3292	174.699	452.833	390.452	343.073	404.476	414.071	410.689	454.702	330.061	167.277	264.301	237.078	468.787	452.930	406.300	374.109	0.00027043	0.0004337	0.00041046	230.44	1.8424e-05	2.0122e-06	258.62	99.322	2.4113e-05	2.0141e-05	116.11	46.876	38.163	19.444	1.5819e-05	22.659	0.0028587	0.002939	0.00081918	499.71	3.2189e-05	3.2372e-05	493.21	185.75	3.2286e-05	3.2322e-05	246.7	93.275	122.28	32.997	3.2048e-05	40.883	182.939	467.810	277.537	163.683	211.373	401.251	160.514	167.026	405.348	318.982	164.288	168.085	171.451	176.484	441.511	170.974	-8191	255	
921.488	1	1	0	0	0.10999	0.21556	0.10599	0.17783	0.15755	0.095672	0.10952	0.069956	0.22661	0.045031	0.26158	0.058422	0.21837	0.095469	0.12624	0.067187	-2.5875	-2.1542	-2.4562	-2.9708	-2.1458	-2.7208	-2.25	-2.3563	-2.8729	-2.1333	-2.4813	-2.9771	-2.0687	-2.8438	-2.375	-2.0583	495.974	482.399	494.078	257.258	354.014	306.412	298.603	334.804	475.352	340.357	461.259	441.582	162.602	353.996	335.754	326.880	0.00023334	0.00066504	0.00033765	227.36	7.6104e-06	1.0569e-05	259.47	98.63	1.0731e-05	8.2816e-06	115.87	47.375	38.802	19.461	5.9531e-06	22.917	0.0028352	0.0029152	0.00081205	495.71	3.1925e-05	3.2007e-05	489.36	184.07	3.1942e-05	3.1915e-05	244.18	93.298	122.41	33.009	3.215e-05	41.146	201.262	432.183	214.724	163.555	497.199	317.890	161.017	168.211	357.101	284.240	164.472	168.133	171.351	175.964	389.518	170.569	-8191	255	
921.560	1	1	0	0	0.20456	0.17074	0.06035	0.13365	0.11777	0.099066	0.20345	0.15288	0.052604	0.091079	0.43993	0.16209	0.10067	0.078117	0.16721	0.07693	-2.4188	-2.4042	-2.3937	-2.9604	-2.1688	-2.5479	-2.6688	-2.1396	-3.0938	-2.425	-2.5521	-2.9083	-1.9438	-2.6104	-2.6958	-2.1958	320.009	184.500	152.520	340.748	454.600	482.809	260.918	469.199	411.548	388.687	168.243	404.788	164.891	203.806	225.381	459.270	0.00015459	0.00064519	0.00053394	225.69	7.2162e-06	1.5928e-05	257.65	98.433	1.0241e-05	1.6819e-05	117.31	47.274	38.674	19.526	1.2816e-05	23.071	0.0028649	0.0029464	0.00081692	499.12	3.2218e-05	3.247e-05	493.75	185.86	3.2663e-05	3.2759e-05	249.43	94.859	124.69	33.541	3.2905e-05	41.733	232.747	335.553	378.218	163.895	475.774	257.341	161.298	167.940	336.652	205.375	163.932	168.054	171.108	176.356	415.874	171.514	-8191	255	
921.680	1	1	0	0	0.14989	0.10902	0.063284	0.15204	0.15407	0.19882	0.08865	0.19392	0.21929	0.1015	0.16905	0.20741	0.25419	0.13556	0.16474	0.22519	-2.4729	-2.2708	-2.0229	-2.8271	-2.0771	-2.6396	-2.7313	-2.1208	-2.825	-2.4729	-2.4646	-2.8396	-2.2646	-2.6437	-2.6792	-1.9	462.630	255.895	383.684	414.626	319.780	244.962	496.558	437.549	460.674	186.352	261.147	381.724	196.522	214.500	429.072	326.500	0.00059709	0.00080986	0.00017782	224.53	1.5829e-05	1.5258e-05	259.9	98.562	1.7365e-05	1.8826e-05	117.59	47.137	39.902	19.571	8.8403e-06	22.864	0.0029151	0.0029903	0.000835	503.18	3.2862e-05	3.2829e-05	498.19	186.94	3.2868e-05	3.2945e-05	249.21	95.022	124.62	33.438	3.281e-05	41.707	181.825	408.678	380.349	163.816	471.059	367.802	161.146	167.730	221.451	160.214	164.441	168.239	171.351	176.403	489.020	171.599	-8191	255	
921.775	1	1	0	0	0.42376	0.21831	0.05235	0.2061	0.10532	0.29515	0.2031	0.19488	0.18923	0.097109	0.17123	0.18807	0.12187	0.175	0.16588	0.10139	-2.4083	-2.4688	-2.3187	-2.9417	-2.2062	-2.3812	-2.7042	-2.3104	-2.8875	-2.6042	-2.15	-3.0292	-2.0167	-2.4854	-2.8312	-2.2313	481.264	172.222	411.812	193.823	388.538	330.079	446.330	487.092	243.727	287.392	475.961	385.796	258.916	357.748	239.846	340.542	0.00024369	0.0009667	0.00062403	228.18	9.0478e-06	1.6539e-05	257.69	98.83	8.7998e-06	6.3815e-06	115.41	47.54	38.266	19.5	3.6354e-06	22.435	0.0029184	0.0030039	0.00083576	503.66	3.2764e-05	3.2895e-05	496.03	186.63	3.3128e-05	3.3303e-05	252.05	95.776	126.98	33.994	3.4148e-05	42.334	229.557	299.110	263.369	163.026	505.892	218.226	160.781	167.501	259.581	212.858	164.179	168.501	170.112	175.789	151.766	170.543	-8191	255	
921.871	1	1	0	0	0.14276	0.13886	0.063219	0.20242	0.097774	0.12078	0.1377	0.26543	0.15308	0.19907	0.13746	0.03619	0.16479	0.25188	0.087693	0.039751	-2.5083	-2.5708	-2.0083	-2.7458	-2.2938	-2.3312	-2.8875	-2.1333	-2.6688	-2.4583	-2.4021	-2.6667	-2.4146	-2.5333	-2.9562	-2.1312	410.589	219.194	212.130	362.948	170.983	201.079	296.116	474.741	440.085	341.514	336.192	462.713	209.378	213.309	357.681	153.676	0.00049006	0.00030695	0.00065316	225.13	8.0354e-06	1.0745e-05	259.04	98.888	1.6179e-05	1.5878e-05	116.68	47.448	38.335	19.386	2.4724e-05	22.866	0.0030454	0.0031261	0.00087634	518.64	3.4465e-05	3.4689e-05	510.05	191.9	3.4608e-05	3.4685e-05	256.23	97.253	129.45	34.355	3.4536e-05	42.545	175.415	180.519	210.664	163.320	332.653	406.069	161.090	167.997	221.561	412.359	164.454	167.904	170.926	176.432	246.719	170.947	-8191	255	
921.967	1	1	0	0	0.30211	0.026534	0.3097	0.241	0.099281	0.28288	0.26701	0.051488	0.047953	0.23151	0.13132	0.14604	0.31346	0.19425	0.16154	0.044376	-2.0083	-2.925	-2.1583	-2.8646	-2.6417	-2.2104	-2.6	-2.2917	-2.5229	-2.7417	-2.1604	-3.0229	-2.3708	-2.1979	-2.9979	-2.4646	394.433	486.616	319.804	346.473	316.270	294.891	155.273	502.734	418.407	499.052	319.026	189.285	316.499	450.747	500.156	156.967	0.00045376	0.0019524	0.00042201	230.22	8.054e-06	1.6171e-05	259.24	99.752	1.4512e-05	4.2633e-06	117.14	47.71	39.138	19.734	8.9877e-06	23.044	0.003042	0.0031049	0.00086596	511.7	3.3803e-05	3.384e-05	503.82	189.26	3.3708e-05	3.3773e-05	254.75	96.293	127.29	34.085	3.3952e-05	42.498	202.834	337.764	229.819	163.315	191.011	327.454	161.603	167.613	220.220	389.573	163.708	167.775	172.305	175.857	228.542	171.191	-8191	255	
922.088	1	1	0	0	0.36155	0.2366	0.15695	0.11008	0.38306	0.078711	0.18524	0.37121	0.1992	0.13839	0.13397	0.23419	0.053997	0.22452	0.072369	0.17103	-2.0333	-3.075	-2.0187	-2.6937	-2.525	-2.4417	-2.7667	-2.3417	-2.4188	-2.7229	-2.1417	-2.6917	-2.6708	-2.0333	-3.0354	-2.4813	372.182	409.143	200.665	201.494	415.868	400.612	330.296	353.978	163.721	424.088	206.330	397.247	241.606	432.096	457.508	345.036	0.00036984	0.0010517	0.0003449	230.28	5.4017e-06	4.4348e-06	260.04	99.062	1.0142e-05	1.3264e-05	113.4	47.327	38.016	19.63	1.7918e-05	22.654	0.0030254	0.0031172	0.00087218	517.28	3.442e-05	3.4515e-05	510.61	191.76	3.4816e-05	3.4986e-05	257.42	97.975	130.47	34.601	3.5201e-05	42.985	201.259	240.355	345.822	163.782	473.803	466.384	160.473	167.895	193.533	177.998	164.297	168.506	172.000	175.942	397.222	170.967	-8191	255	
922.184	1	1	0	0	0.21452	0.1673	0.19873	0.12598	0.3081	0.19394	0.28259	0.17139	0.12284	0.19667	0.098201	0.07567	0.045447	0.14023	0.13195	0.20004	-1.9271	-2.8667	-2.3	-2.5	-2.7833	-2.2375	-2.8208	-2.4229	-2.3854	-3.0229	-2.3854	-2.6542	-2.6813	-1.95	-2.8563	-2.6625	315.366	240.055	195.887	200.036	351.446	413.687	162.234	350.081	253.796	349.854	386.188	348.709	347.491	192.541	451.910	375.958	0.00020033	0.0019653	0.00018004	228.26	1.1556e-05	1.9365e-05	254.9	97.687	2.782e-05	1.051e-05	113.98	46.781	38.773	19.585	2.113e-05	22.673	0.0031139	0.0031961	0.00088834	522.61	3.4985e-05	3.494e-05	511.77	191.98	3.4784e-05	3.4757e-05	257.04	97.233	129.27	34.427	3.4656e-05	42.69	163.962	273.596	509.424	163.811	345.330	415.971	161.569	167.945	358.980	316.173	164.301	168.161	171.920	176.055	317.725	171.189	-8191	255	
922.280	1	1	0	0	0.06461	0.068362	0.070179	0.079749	0.14905	0.18676	0.32474	0.21411	0.23041	0.11371	0.15982	0.26971	0.11579	0.073792	0.11742	0.14521	-2.0917	-3.2292	-2.1521	-2.6167	-2.9375	-2.2854	-2.9667	-2.6813	-2.2938	-2.9208	-2.2438	-2.6021	-2.8125	-2.2021	-2.7292	-2.7146	161.071	355.284	200.445	185.699	200.643	459.318	208.896	424.305	399.070	451.978	372.559	270.740	151.187	436.831	181.691	488.570	0.00056632	0.00074459	0.00026809	226.77	6.1972e-06	2.2445e-05	257.88	97.962	7.6703e-06	1.9565e-05	116.03	47.02	37.764	19.472	1.8213e-05	22.717	0.0030837	0.0031734	0.00088201	519.44	3.4868e-05	3.5046e-05	512.77	192.69	3.5143e-05	3.5213e-05	258.39	97.931	130.67	34.594	3.5222e-05	43.123	172.874	204.657	320.824	163.634	163.729	302.474	161.275	168.223	492.614	393.237	164.266	167.966	171.735	176.547	327.503	170.028	-8191	255	
922.376	1	1	0	0	0.2777	0.28766	0.29337	0.15009	0.10211	0.06024	0.12512	0.12951	0.017905	0.15391	0.20244	0.12282	0.16523	0.15656	0.16639	0.058787	-1.5479	-2.8417	-2.3979	-2.2646	-2.7896	-2.0438	-2.6083	-2.5479	-2.1875	-3.0021	-2.5021	-2.3646	-2.9729	-2.2354	-2.7333	-2.7896	404.044	313.152	291.799	172.419	440.743	498.185	178.896	181.090	304.331	191.536	453.430	371.281	156.910	166.500	390.367	442.000	0.00025169	0.00033655	0.00025522	227.99	1.4126e-05	3.1499e-06	260.93	97.911	1.7238e-05	1.1949e-05	117.44	47.538	39.532	19.748	4.4085e-06	22.73	0.0031171	0.0032125	0.00089847	524.85	3.5438e-05	3.562e-05	520.22	194.7	3.5721e-05	3.5879e-05	262.6	99.428	133.38	35.095	3.5987e-05	43.563	167.854	406.741	210.486	163.204	247.514	434.811	161.348	167.186	207.620	403.934	163.432	167.676	170.866	176.284	235.797	171.392	-8191	255	
922.472	1	1	0	0	0.11864	0.041642	0.18127	0.34062	0.18468	0.31985	0.20473	0.14503	0.22137	0.058792	0.13381	0.15982	0.20211	0.12339	0.33504	0.28122	-1.7646	-2.8292	-2.4729	-2.1604	-2.9688	-2.1417	-2.5521	-2.6979	-2.0062	-2.6854	-2.3729	-2.1083	-3.0729	-2.1833	-2.5438	-2.9333	370.035	296.107	403.591	415.938	224.855	478.307	321.972	392.339	421.196	189.229	283.779	388.908	371.245	332.141	305.239	422.847	0.00038956	0.00094594	0.00044739	226.51	9.3291e-06	2.7524e-05	257.65	97.408	2.2913e-06	1.6851e-05	115.05	47.145	39.16	19.473	1.0422e-05	22.682	0.003188	0.0032718	0.00091016	528.67	3.5633e-05	3.5555e-05	515.78	193.43	3.5337e-05	3.5254e-05	258.78	97.888	130.9	34.569	3.5288e-05	42.865	172.743	395.346	219.660	163.568	173.104	388.905	160.399	167.473	234.368	188.955	163.675	168.503	172.455	175.848	264.148	171.445	-8191	255	
922.568	1	1	0	0	0.18812	0.37014	0.12305	0.073144	0.083965	0.061447	0.27192	0.097711	0.26341	0.14703	0.19304	0.065819	0.19224	0.10129	0.11967	0.16622	-1.4583	-2.6125	-2.6333	-2.2812	-2.9875	-2.4167	-2.55	-2.5667	-2.1562	-2.7021	-2.7729	-2.0687	-2.7875	-2.0667	-2.4271	-3.1625	176.919	437.490	150.798	419.550	475.664	485.180	439.252	446.974	488.390	501.555	286.664	476.348	461.928	432.210	431.580	268.918	0.00038471	0.00073049	0.00013499	224.63	1.2472e-05	5.3317e-06	258.51	98.479	6.8515e-06	2.7147e-05	116.03	47.338	39.579	19.314	1.8288e-05	22.523	0.0031394	0.0032246	0.00089642	523.69	3.537e-05	3.5294e-05	514.84	193.5	3.5324e-05	3.5355e-05	258.81	97.99	131.68	34.575	3.5323e-05	43.028	475.587	366.302	187.616	163.979	427.468	362.632	161.082	167.417	202.690	291.642	163.926	167.792	171.535	175.978	235.732	170.712	-8191	255	
922.687	1	1	0	0	0.01486	0.17933	0.072138	0.26772	0.04143	0.16469	0.10346	0.18821	0.20122	0.36333	0.27125	0.10371	0.3203	0.23088	0.25777	0.15129	-1.8333	-2.7062	-2.6479	-2.1708	-2.8708	-2.6167	-2.5146	-3.1021	-2.2042	-2.4062	-2.6021	-2.1312	-2.7396	-2.4854	-2.4458	-3.0979	275.425	219.262	175.472	241.624	278.908	231.326	157.206	230.095	358.359	436.816	375.273	318.266	353.797	175.412	320.597	373.476	0.00055695	0.0013048	0.00011973	227.31	7.5174e-06	1.0436e-05	258.95	98.04	1.1756e-05	7.1739e-06	115.61	47.359	38.047	19.422	3.6043e-05	23.068	0.0031357	0.0032315	0.00089911	526.58	3.5542e-05	3.5563e-05	517.3	194.65	3.5606e-05	3.5773e-05	260.89	98.773	131.92	34.776	3.5746e-05	43.281	159.800	214.406	296.762	163.883	152.699	408.776	160.987	167.768	210.670	213.062	164.303	168.202	170.158	175.583	448.827	171.512	-8191	255	
922.784	1	1	0	0	0.179	0.069721	0.036521	0.09893	0.14975	0.24008	0.20924	0.16221	0.12488	0.22493	0.23291	0.26683	0.15064	0.07216	0.08044	0.051413	-1.6646	-2.3958	-2.6271	-2.3646	-2.75	-2.6729	-2.2083	-2.8333	-2.1979	-2.6	-2.8688	-2.1396	-2.8563	-2.3667	-2.3896	-2.9938	299.338	507.280	241.730	233.385	158.400	282.144	164.604	437.233	288.222	457.326	501.290	453.531	223.812	153.762	263.777	462.866	0.00024441	0.0018049	0.00025472	224.9	1.0648e-05	4.0642e-06	260.13	97.529	9.1424e-06	8.6989e-06	114.6	46.331	38.351	19.1	1.5312e-05	22.633	0.0031729	0.0032546	0.00090852	529.51	3.5769e-05	3.5702e-05	517.93	194.41	3.5408e-05	3.5578e-05	258.94	98.21	132.14	34.611	3.5704e-05	43.154	182.763	459.992	349.632	163.463	278.612	225.480	161.017	168.381	343.271	471.988	164.491	167.674	170.457	175.643	314.180	171.108	-8191	255	
922.855	1	1	0	0	0.18375	0.26183	0.055814	0.17409	0.081089	0.094716	0.22677	0.24695	0.10249	0.037731	0.10742	0.0046917	0.14613	0.15293	0.15415	0.036389	-1.9104	-2.4104	-2.7458	-1.9854	-2.5479	-2.7687	-2.3083	-2.9333	-2.5042	-2.2562	-2.8208	-2.1625	-2.6042	-2.7229	-2.1979	-2.9896	438.257	199.866	237.715	372.165	270.248	257.877	225.227	401.435	280.447	375.267	304.702	366.149	326.885	257.035	404.099	451.455	0.00040575	0.00062718	0.00024428	228.41	1.8948e-06	3.7776e-06	258.04	96.763	9.4902e-06	1.1179e-05	112.73	46.487	38.744	19.165	1.6441e-05	22.313	0.0031873	0.0032618	0.00091232	527.63	3.576e-05	3.5705e-05	517.66	194.05	3.5539e-05	3.5726e-05	259.89	98.249	132.21	34.582	3.5729e-05	42.851	184.511	329.182	215.158	163.464	223.369	253.625	161.644	167.993	241.264	466.170	164.339	166.814	171.459	175.708	480.600	171.314	-8191	255	
922.951	1	1	0	0	0.11944	0.1238	0.15913	0.40978	0.19764	0.12045	0.069935	0.32153	0.26152	0.055762	0.1442	0.1134	0.13137	0.084401	0.10045	0.083654	-1.8979	-2.1375	-2.8833	-2.1542	-2.7104	-2.8542	-2.2021	-2.6458	-2.1917	-2.2833	-2.95	-2.3083	-2.5312	-2.6333	-2.0021	-2.9396	326.022	285.875	427.206	457.667	484.133	418.778	164.110	440.091	239.905	284.982	475.609	214.558	422.097	229.882	201.174	398.425	0.00034626	0.0010243	0.00025204	226.15	6.8582e-06	1.0029e-05	257.29	98.62	1.6259e-05	9.7782e-06	112.56	45.955	38.28	19.184	1.1217e-05	22.178	0.0031575	0.0032574	0.00090895	528.41	3.5782e-05	3.6132e-05	520.17	195.35	3.5968e-05	3.6067e-05	260.87	98.293	132.4	34.438	3.584e-05	42.868	153.197	237.530	206.307	163.354	168.727	347.636	161.342	167.908	488.446	452.963	165.305	167.443	170.791	175.647	255.219	171.048	-8191	255	
923.072	1	1	0	0	0.079557	0.17455	0.056095	0.18578	0.25969	0.050494	0.16366	0.142	0.038389	0.21913	0.040556	0.25051	0.075619	0.10535	0.14529	0.21459	-2.0979	-2.1625	-3.0458	-2.1458	-2.5396	-2.8521	-2.1729	-2.8708	-2.6021	-2.1604	-2.8146	-2.1688	-2.5333	-2.9708	-2.1104	-2.85	315.033	222.778	421.182	266.572	387.204	297.279	176.562	426.350	379.881	317.289	209.337	444.373	202.108	287.513	408.385	220.071	0.00040028	0.00040674	0.00014263	222.82	6.4202e-06	2.2912e-05	258.76	98.431	1.2579e-05	2.1822e-05	115.26	46.278	38.758	19.29	1.0043e-05	22.34	0.0031734	0.0032785	0.00091911	532.25	3.6214e-05	3.6353e-05	520.53	195.54	3.6098e-05	3.6058e-05	262	98.809	133.09	34.785	3.6127e-05	43.287	188.876	391.745	184.723	163.631	468.526	507.992	160.677	168.200	480.750	508.891	163.806	168.035	171.039	177.067	249.277	170.800	-8191	255	
923.168	1	1	0	0	0.14211	0.28563	0.1765	0.079115	0.14441	0.32642	0.11877	0.19668	0.18066	0.16515	0.07762	0.18854	0.21554	0.14756	0.18873	0.27581	-2.2313	-2.0375	-2.9958	-2.2708	-2.3937	-2.8937	-2.3146	-2.5479	-2.6063	-2.2021	-2.8563	-2.3042	-2.2333	-2.9688	-2.1875	-2.7271	174.799	352.390	240.252	288.301	251.784	170.925	352.708	452.698	242.506	389.430	300.279	442.500	460.911	276.558	453.907	184.314	0.00040257	0.00030706	7.5467e-05	228.32	4.9323e-06	5.0661e-06	259.71	97.635	1.4569e-05	5.686e-06	115	46.688	38.153	19.331	1.9238e-05	22.313	0.0032033	0.0033246	0.00092915	532.34	3.6353e-05	3.6388e-05	521.26	195.49	3.6042e-05	3.6215e-05	261.26	98.548	133.09	34.646	3.6107e-05	43.031	162.496	387.760	229.712	163.681	379.918	474.485	160.843	167.794	190.908	358.773	165.022	167.979	172.052	176.025	252.269	170.544	-8191	255	
923.264	1	1	0	0	0.27441	0.24919	0.19542	0.12427	0.071332	0.25681	0.2746	0.16978	0.075162	0.11539	0.19406	0.13974	0.21201	0.16844	0.12323	0.18168	-2.5896	-2.1167	-3.0521	-2.3229	-2.2854	-2.9083	-2.2812	-2.6896	-2.9375	-2.2938	-3.0583	-2.3479	-2.2854	-2.9646	-2.3917	-2.5792	482.256	413.064	277.571	177.209	490.845	364.298	479.238	274.106	282.255	362.001	165.846	414.426	432.283	401.573	304.965	198.292	0.00038286	0.00076612	0.00067051	224.08	5.2959e-06	1.0651e-05	254.55	97.072	1.6172e-05	6.1277e-06	114.59	46.361	38.135	19.167	2.1156e-05	22.051	0.0032035	0.0033136	0.00092419	531.11	3.6503e-05	3.6704e-05	521.7	196.92	3.663e-05	3.6875e-05	264.29	99.677	135.46	35.115	3.6984e-05	43.622	208.984	187.114	277.841	163.429	250.208	259.888	161.057	167.494	369.227	294.908	163.481	168.343	171.269	175.925	472.223	170.495	-8191	255	
923.360	1	1	0	0	0.30194	0.37599	0.26008	0.078607	0.25298	0.10084	0.14171	0.06125	0.4864	0.13298	0.31261	0.062042	0.075814	0.086687	0.14304	0.21472	-2.6958	-2.0875	-2.7938	-2.7	-2.2188	-3.0875	-2.3167	-2.4042	-2.6562	-2.2417	-2.7771	-2.6604	-2.2188	-3.0083	-2.3729	-2.3521	500.846	335.544	470.717	443.112	466.309	208.417	183.439	477.833	387.095	386.834	308.443	165.817	362.827	442.427	465.128	368.431	0.00043258	0.0015759	0.00032464	227.02	9.9725e-06	9.2283e-06	256.25	97.644	1.6515e-05	5.6376e-06	115.04	46.618	38.639	19.284	5.9746e-06	22.609	0.0032748	0.0033666	0.00093812	537.6	3.6667e-05	3.6868e-05	523.8	197.26	3.6864e-05	3.7096e-05	265.46	100.19	135.66	35.077	3.6598e-05	43.57	188.290	395.731	184.762	163.862	261.593	284.443	161.276	168.003	233.034	246.194	164.321	168.732	170.477	176.555	249.203	171.377	-8191	255	
923.479	1	1	0	0	0.22584	0.34553	0.099494	0.073885	0.16849	0.2179	0.26532	0.0080957	0.26002	0.15735	0.045019	0.17189	0.08745	0.15731	0.11444	0.12013	-2.6937	-2.2208	-2.6333	-2.8146	-2.1771	-2.875	-2.4813	-2.2938	-3.0312	-2.2208	-2.6875	-2.7062	-2.2667	-3.0354	-2.6063	-2.2188	251.753	351.073	269.999	188.920	315.311	198.392	250.231	344.261	299.369	500.582	461.120	159.934	500.870	210.698	310.017	414.052	0.00030188	0.0011358	0.00012977	224.68	1.7701e-05	9.1954e-06	257.3	97.783	1.9612e-05	1.6071e-05	114.93	46.314	38.036	19.259	2.5013e-05	22.447	0.003242	0.003322	0.00092537	531.86	3.6099e-05	3.6332e-05	521.86	196.18	3.6292e-05	3.633e-05	264.25	99.709	134.51	35.018	3.6233e-05	43.484	161.070	331.737	393.571	163.710	282.934	435.097	160.097	167.577	205.142	163.307	163.588	168.639	171.616	176.183	169.113	171.364	-8191	255	
923.553	1	1	0	0	0.18929	0.23483	0.2101	0.38804	0.063254	0.10555	0.23654	0.19842	0.19168	0.059264	0.41722	0.070258	0.34123	0.32754	0.070419	0.22235	-2.5604	-1.975	-2.5083	-2.6875	-2.2271	-2.7646	-2.6792	-2.2625	-2.725	-2.1792	-2.6896	-2.9437	-2.2229	-2.9042	-2.5	-2.1354	371.417	399.407	293.667	460.960	401.263	483.540	431.677	474.750	346.096	432.816	285.732	387.294	230.418	450.413	164.696	473.995	0.00042842	0.00042994	0.00019341	224.16	1.0467e-05	2.5786e-05	258.64	96.765	1.2212e-05	9.5705e-06	115.29	46.272	37.204	19.451	8.1724e-06	22.298	0.0032221	0.0033182	0.00092466	531.19	3.6366e-05	3.6408e-05	521.95	195.86	3.6263e-05	3.6287e-05	262.64	98.967	133.59	34.859	3.6068e-05	43.136	202.469	177.343	472.919	162.655	199.561	201.350	160.663	168.358	396.738	222.509	164.326	167.129	171.443	175.797	177.130	170.497	-8191	255	
923.649	1	1	0	0	0.14382	0.14275	0.074841	0.1457	0.43396	0.15344	0.085174	0.11247	0.18271	0.068023	0.034853	0.21573	0.24354	0.1111	0.13254	0.12972	-2.5771	-2.2687	-2.3979	-2.9813	-2.2125	-2.75	-2.7604	-2.0417	-3.0146	-2.4583	-2.4333	-2.7938	-2.1625	-2.7854	-2.8812	-2.1646	454.291	446.983	288.025	259.241	376.578	280.236	175.699	213.758	449.249	150.991	199.714	478.566	187.052	254.442	306.784	419.732	0.00050067	0.00066016	0.00044925	226.72	1.5973e-06	1.1628e-05	261.36	98.163	1.6974e-05	1.2292e-05	114.08	46.188	37.78	19.413	5.3031e-06	22.51	0.0031945	0.0032724	0.00090903	526.02	3.5462e-05	3.5361e-05	513.91	192.82	3.5261e-05	3.5275e-05	258.43	97.671	130.65	34.443	3.5003e-05	42.594	172.444	364.369	439.347	163.708	328.835	507.610	160.396	167.426	275.007	179.884	164.305	168.202	170.011	176.150	190.671	170.710	-8191	255	
923.768	1	1	0	0	0.16534	0.12193	0.25918	0.30611	0.1203	0.15215	0.083655	0.19364	0.24822	0.091045	0.11659	0.25057	0.18099	0.038743	0.12972	0.02324	-2.6833	-2.2479	-2.3083	-2.9938	-2.3771	-2.6583	-2.9292	-2.125	-2.8542	-2.5104	-2.2833	-3.0687	-2.2417	-2.4125	-2.7417	-2.0542	281.271	183.860	433.861	158.875	231.040	306.570	241.450	353.146	318.073	464.876	307.412	421.890	504.936	231.011	427.829	427.465	0.00016143	0.00057337	0.00041518	228.17	6.4592e-06	2.5151e-05	256.23	98.941	4.1962e-06	9.4716e-06	114.9	47.159	37.294	19.531	1.1689e-05	22.851	0.0030975	0.0031662	0.00088196	518.2	3.4658e-05	3.4742e-05	510.73	192.3	3.4831e-05	3.5028e-05	258.39	98.18	130.32	34.562	3.4846e-05	42.835	227.709	487.219	166.867	163.333	211.948	265.048	161.091	167.942	290.773	292.817	164.083	167.755	171.417	176.034	385.876	170.980	-8191	255	
923.864	1	1	0	0	0.16793	0.22597	0.044282	0.26973	0.16165	0.16132	0.12954	0.014394	0.36279	0.14647	0.29658	0.097373	0.10307	0.16946	0.15613	0.074175	-2.3625	-2.575	-2.4167	-3.0292	-2.2354	-2.5	-2.8375	-2.1688	-2.675	-2.6542	-2.2042	-2.9354	-2.3875	-2.5833	-2.9688	-2.1708	377.681	477.188	428.652	487.308	286.334	242.474	222.495	301.666	307.847	415.348	307.548	388.287	230.974	342.771	336.094	401.621	0.00053979	0.0020064	8.2572e-05	226.48	4.9506e-06	2.0829e-05	261.21	98.596	1.0974e-05	2.2256e-05	116.86	46.912	37.672	19.423	6.3698e-06	22.344	0.003086	0.0031574	0.00088231	519.01	3.4529e-05	3.4642e-05	510.38	191.8	3.4549e-05	3.464e-05	256.38	97.063	128.79	34.208	3.4595e-05	42.358	167.063	456.097	346.648	163.072	322.349	233.541	161.088	168.461	328.081	379.460	163.339	168.712	172.071	175.787	487.271	170.631	-8191	255	
923.960	1	1	0	0	0.085383	0.093562	0.15242	0.17033	0.098133	0.12262	0.31643	0.19547	0.27044	0.16426	0.15058	0.16045	0.19766	0.19295	0.15495	0.036254	-2.5104	-2.6667	-2.1708	-3	-2.4479	-2.3083	-2.8479	-2.3729	-2.7417	-2.625	-2.1958	-2.9083	-2.475	-2.3063	-2.9	-2.1083	377.760	363.204	402.547	305.074	414.222	475.922	364.022	326.375	367.241	158.366	433.564	333.307	429.347	501.487	311.843	363.238	0.00052007	0.0011476	0.00033677	228.87	1.2596e-05	2.022e-05	256.33	98.388	8.2041e-06	4.2335e-06	115.89	46.945	38.7	19.318	1.9399e-05	22.563	0.0030637	0.0031545	0.00087589	518.48	3.4416e-05	3.4516e-05	508.95	191.15	3.4588e-05	3.4665e-05	255.79	97.175	129.38	34.249	3.4659e-05	42.517	182.523	188.997	357.676	163.910	351.349	229.185	160.267	167.703	497.689	210.681	163.470	167.756	171.898	176.255	261.919	171.015	-8191	255	
924.081	1	1	0	0	0.13575	0.23077	0.14019	0.1215	0.2144	0.17501	0.016067	0.27122	0.37655	0.04109	0.066947	0.31147	0.11756	0.17112	0.22183	0.12758	-2.3667	-2.7521	-2.2542	-2.9104	-2.5479	-2.0917	-2.7979	-2.2333	-2.6437	-2.9792	-2.2375	-2.7792	-2.35	-2.1937	-2.9875	-2.3125	420.140	321.185	404.328	280.403	173.669	244.833	326.014	187.668	318.176	301.749	208.915	459.011	307.059	441.381	190.042	491.895	0.00037506	0.00062609	0.00032867	227.35	2.0488e-05	1.7776e-05	257.42	98.94	1.8913e-05	1.9655e-05	115.77	47.082	38.331	19.592	1.3251e-05	22.982	0.003071	0.0031514	0.00087583	516.7	3.4426e-05	3.4574e-05	508.71	190.93	3.4493e-05	3.4398e-05	255.7	97.032	128.43	34.291	3.4402e-05	42.548	480.780	198.091	235.021	163.436	248.427	307.180	161.023	167.869	334.381	446.060	164.331	166.892	170.117	176.043	440.808	171.276	-8191	255	
#DATA ENDS
