BOXY.EXE: ISS Imagent and Oximeter Data Acquisition Program Version 0.80
Ascii Record File

#ACQ INFORMATION
2  Detector Channels 
16  External MUX Channels 
1  Auxiliary Channels 
5000  Waveform (CCF) Frequency (Hz)
1  Waveforms Skipped 
30  Waveforms Averaged 
1  Cycles Averaged 
16  Acquisitions per Waveform 
10.0806  Updata Rate (Hz) 

#FILE INFORMATION
TRUE -- External MUX Channel results are PARSED.
FALSE -- AC DC and Phase are NOT grouped.
TRUE -- Companion Program Settings File CREATED.
FALSE -- AC data not excluded
FALSE -- DC data not excluded
FALSE -- Phase data not excluded
FALSE -- Auxillary Chn. data not excluded
Tab delimiters

#CALIBRATION STATE
TRUE -- Waveform Calibration Values APPLIED.


#AUX CALIBRATION VALUES
Val Type	aux-1	

Term	1.0000e+00	
Factor	0.0000e+00	


#WF CALIBRATION VALUES
A = Detector Channel
Val Type	A-AC1	A-AC2	A-AC3	A-AC4	A-AC5	A-AC6	A-AC7	A-AC8	A-AC9	A-AC10	A-AC11	A-AC12	A-AC13	A-AC14	A-AC15	A-AC16	A-DC1	A-DC2	A-DC3	A-DC4	A-DC5	A-DC6	A-DC7	A-DC8	A-DC9	A-DC10	A-DC11	A-DC12	A-DC13	A-DC14	A-DC15	A-DC16	A-Ph1	A-Ph2	A-Ph3	A-Ph4	A-Ph5	A-Ph6	A-Ph7	A-Ph8	A-Ph9	A-Ph10	A-Ph11	A-Ph12	A-Ph13	A-Ph14	A-Ph15	A-Ph16	

Term	0.00000e+00	0.00000e+00	0.00000e+00	0.00000e+00	0.00000e+00	0.00000e+00	0.00000e+00	0.00000e+00	0.00000e+00	0.00000e+00	0.00000e+00	0.00000e+00	0.00000e+00	0.00000e+00	0.00000e+00	0.00000e+00	0.00000e+00	0.00000e+00	0.00000e+00	0.00000e+00	0.00000e+00	0.00000e+00	0.00000e+00	0.00000e+00	0.00000e+00	0.00000e+00	0.00000e+00	0.00000e+00	0.00000e+00	0.00000e+00	0.00000e+00	0.00000e+00	0.00000e+00	0.00000e+00	0.00000e+00	0.00000e+00	0.00000e+00	0.00000e+00	0.00000e+00	0.00000e+00	0.00000e+00	0.00000e+00	0.00000e+00	0.00000e+00	0.00000e+00	0.00000e+00	0.00000e+00	0.00000e+00	
Factor	1.00000e+00	1.00000e+00	1.00000e+00	1.00000e+00	1.00000e+00	1.00000e+00	1.00000e+00	1.00000e+00	1.00000e+00	1.00000e+00	1.00000e+00	1.00000e+00	1.00000e+00	1.00000e+00	1.00000e+00	1.00000e+00	1.00000e+00	1.00000e+00	1.00000e+00	1.00000e+00	1.00000e+00	1.00000e+00	1.00000e+00	1.00000e+00	1.00000e+00	1.00000e+00	1.00000e+00	1.00000e+00	1.00000e+00	1.00000e+00	1.00000e+00	1.00000e+00	X	X	X	X	X	X	X	X	X	X	X	X	X	X	X	X	

B = Detector Channel
Val Type	B-AC1	B-AC2	B-AC3	B-AC4	B-AC5	B-AC6	B-AC7	B-AC8	B-AC9	B-AC10	B-AC11	B-AC12	B-AC13	B-AC14	B-AC15	B-AC16	B-DC1	B-DC2	B-DC3	B-DC4	B-DC5	B-DC6	B-DC7	B-DC8	B-DC9	B-DC10	B-DC11	B-DC12	B-DC13	B-DC14	B-DC15	B-DC16	B-Ph1	B-Ph2	B-Ph3	B-Ph4	B-Ph5	B-Ph6	B-Ph7	B-Ph8	B-Ph9	B-Ph10	B-Ph11	B-Ph12	B-Ph13	B-Ph14	B-Ph15	B-Ph16	

Term	0.00000e+00	0.00000e+00	0.00000e+00	0.00000e+00	0.00000e+00	0.00000e+00	0.00000e+00	0.00000e+00	0.00000e+00	0.00000e+00	0.00000e+00	0.00000e+00	0.00000e+00	0.00000e+00	0.00000e+00	0.00000e+00	0.00000e+00	0.00000e+00	0.00000e+00	0.00000e+00	0.00000e+00	0.00000e+00	0.00000e+00	0.00000e+00	0.00000e+00	0.00000e+00	0.00000e+00	0.00000e+00	0.00000e+00	0.00000e+00	0.00000e+00	0.00000e+00	-1.36660e+02	-1.60266e+02	-1.34086e+02	-1.83745e+02	-7.87698e+01	-1.00516e+02	-1.56747e+02	-1.62015e+02	-7.40872e+01	-9.28821e+01	-1.74571e+02	-1.71654e+02	-1.88132e+02	-1.77417e+02	-8.50884e+01	-1.50494e+02	
Factor	2.03993e-05	1.07868e-04	3.57229e-05	1.87245e-01	1.07033e-06	1.41399e-06	1.72526e-01	6.12020e-02	1.23551e-06	1.13726e-06	9.66703e-02	3.45722e-02	6.45775e-02	1.00719e-02	1.45188e-06	1.40147e-02	9.56666e-07	9.86707e-07	2.74933e-07	9.45559e-02	1.08021e-08	1.08257e-08	8.21921e-02	3.07922e-02	1.08017e-08	1.08237e-08	4.65095e-02	1.66970e-02	3.00134e-02	5.01095e-03	1.08182e-08	6.73353e-03	X	X	X	X	X	X	X	X	X	X	X	X	X	X	X	X	



#DISTANCE SETTINGS
A = Detector Channel
A-1	A-2	A-3	A-4	A-5	A-6	A-7	A-8	A-9	A-10	A-11	A-12	A-13	A-14	A-15	A-16	

2.5000e+00	3.0000e+00	2.5000e+00	3.0000e+00	2.0000e+00	3.0000e+00	1.5000e+00	3.0000e+00	3.0000e+00	3.0000e+00	3.0000e+00	3.0000e+00	3.0000e+00	3.0000e+00	1.5000e+00	3.0000e+00	

B = Detector Channel
B-1	B-2	B-3	B-4	B-5	B-6	B-7	B-8	B-9	B-10	B-11	B-12	B-13	B-14	B-15	B-16	

1.0000e+01	1.0000e+01	1.0000e+01	1.4400e+00	1.0000e+01	1.0000e+01	1.5100e+00	1.9400e+00	1.0000e+01	1.0000e+01	1.9900e+00	2.4900e+00	2.4100e+00	2.9000e+00	1.0000e+01	2.9800e+00	




#DATA BEGINS
time	group	step	mark	flag	A-AC1	A-AC2	A-AC3	A-AC4	A-AC5	A-AC6	A-AC7	A-AC8	A-AC9	A-AC10	A-AC11	A-AC12	A-AC13	A-AC14	A-AC15	A-AC16	A-DC1	A-DC2	A-DC3	A-DC4	A-DC5	A-DC6	A-DC7	A-DC8	A-DC9	A-DC10	A-DC11	A-DC12	A-DC13	A-DC14	A-DC15	A-DC16	A-Ph1	A-Ph2	A-Ph3	A-Ph4	A-Ph5	A-Ph6	A-Ph7	A-Ph8	A-Ph9	A-Ph10	A-Ph11	A-Ph12	A-Ph13	A-Ph14	A-Ph15	A-Ph16	B-AC1	B-AC2	B-AC3	B-AC4	B-AC5	B-AC6	B-AC7	B-AC8	B-AC9	B-AC10	B-AC11	B-AC12	B-AC13	B-AC14	B-AC15	B-AC16	B-DC1	B-DC2	B-DC3	B-DC4	B-DC5	B-DC6	B-DC7	B-DC8	B-DC9	B-DC10	B-DC11	B-DC12	B-DC13	B-DC14	B-DC15	B-DC16	B-Ph1	B-Ph2	B-Ph3	B-Ph4	B-Ph5	B-Ph6	B-Ph7	B-Ph8	B-Ph9	B-Ph10	B-Ph11	B-Ph12	B-Ph13	B-Ph14	B-Ph15	B-Ph16	aux-1	digaux	

832.193	1	1	0	512	0.093442	0.31392	0.056304	0.23139	0.30677	0.13891	0.24509	0.14974	0.08112	0.1207	0.30436	0.26284	0.18671	0.14085	0.070744	0.03841	-1.9229	-2.1917	-2.7479	-2.1813	-2.4292	-2.7854	-2.0021	-2.7687	-2.4646	-2.0583	-2.9667	-2.2104	-2.4083	-2.7833	-2.0271	-2.6375	191.561	80.325	254.076	130.873	228.017	79.370	63.219	56.637	78.766	167.477	89.316	121.412	67.833	180.848	268.860	165.598	1.8944e-05	0.0004405	0.00028854	187.46	4.4249e-06	3.4189e-06	197.38	75.332	1.3605e-06	2.6871e-06	86.028	29.115	30.789	13.279	2.9748e-06	11.835	0.00064845	0.00067416	0.00018829	240.15	7.3992e-06	7.3801e-06	241.2	91.615	7.3311e-06	7.3969e-06	109.81	38.492	46.734	15.747	7.3314e-06	15.36	138.640	52.896	247.223	-43.283	21.143	-19.800	-45.257	-38.253	137.689	227.462	-41.802	-37.882	-34.482	-29.819	-15.176	-35.421	-8191	255	
832.289	1	1	0	0	0.099414	0.22335	0.10091	0.14529	0.15151	0.13382	0.24847	0.21395	0.28381	0.083977	0.1439	0.26026	0.23576	0.056306	0.12361	0.064946	-2.1271	-2.2687	-2.9208	-2.2167	-2.3125	-2.8563	-2.2271	-2.7604	-2.7292	-2.2438	-2.8812	-2.3125	-2.3771	-2.9229	-2.1083	-2.7479	255.620	181.260	-45.420	70.766	109.313	3.466	-35.635	255.648	182.513	15.184	222.229	245.027	137.588	47.834	47.567	-55.585	0.00015869	0.00053686	0.0001201	186.34	5.5251e-06	9.1165e-06	195.35	75.961	1.1456e-06	8.1627e-06	84.689	29.371	30.63	13.293	9.666e-06	11.839	0.00065668	0.00067171	0.00018799	238.82	7.4242e-06	7.3856e-06	240.46	91.495	7.3442e-06	7.3472e-06	109.19	38.369	46.743	15.742	7.3038e-06	15.344	199.828	10.724	-0.439	-43.680	-8.628	43.698	-45.864	-37.863	299.267	-12.741	-41.990	-38.572	-34.800	-29.984	202.411	-34.580	-8191	255	
832.409	1	1	0	0	0.20627	0.12897	0.054169	0.23835	0.082929	0.14785	0.24221	0.080501	0.091328	0.0070787	0.14072	0.17411	0.14401	0.019315	0.1571	0.18669	-2.2417	-2.2833	-2.8104	-2.4146	-2.2521	-3.1667	-2.3396	-2.6063	-2.8417	-1.8896	-3.0938	-2.4917	-2.1188	-2.9979	-2.2833	-2.6688	123.286	137.297	16.030	188.418	263.039	125.682	76.612	69.032	217.398	215.344	276.444	111.666	-19.830	209.964	198.794	121.048	0.00012882	0.00030938	3.991e-05	187.37	1.7834e-06	1.2079e-05	194.08	75.662	1.6721e-06	2.1635e-06	84.762	29.55	30.703	13.386	1.1269e-05	11.755	0.00065233	0.00067138	0.00018555	239.82	7.3669e-06	7.3775e-06	239.79	91.633	7.3533e-06	7.358e-06	108.96	38.516	46.785	15.804	7.3728e-06	15.373	47.426	279.141	124.364	-44.496	280.421	287.495	-45.338	-37.758	127.803	48.575	-42.442	-37.840	-35.274	-29.926	197.630	-34.178	-8191	255	
832.505	1	1	0	0	0.027537	0.076958	0.097631	0.29089	0.14777	0.15512	0.085152	0.21512	0.20442	0.14154	0.34657	0.23858	0.058991	0.17978	0.2626	0.21788	-2.5812	-2.0104	-2.7687	-2.4938	-2.1729	-2.8896	-2.1104	-2.3229	-2.775	-2.1458	-2.6875	-2.5	-2.2062	-2.8375	-2.25	-2.25	268.289	301.791	247.823	37.923	158.793	116.562	232.436	179.378	167.180	141.145	247.603	166.567	273.548	170.611	-28.532	73.798	4.1637e-05	0.00075746	0.00014486	187.88	7.1442e-06	3.0963e-06	193.94	74.573	1.1218e-05	5.3675e-06	84.463	28.907	30.372	13.076	3.045e-06	11.578	0.00065375	0.00067492	0.0001868	240.21	7.4021e-06	7.3768e-06	238.45	91.105	7.3982e-06	7.3333e-06	108.09	38.231	46.592	15.647	7.4017e-06	15.175	-11.541	283.140	-40.137	-44.078	-48.839	251.118	-45.385	-38.398	160.166	28.902	-42.059	-37.380	-33.009	-29.817	281.593	-34.167	-8191	255	
832.600	1	1	0	0	0.12672	0.26733	0.025785	0.23446	0.26051	0.1759	0.22654	0.25587	0.095764	0.074987	0.084107	0.17569	0.075083	0.14722	0.16055	0.11295	-2.5292	-2.1562	-2.7854	-2.6562	-2.1312	-3.025	-2.2521	-2.4333	-2.8958	-2.0625	-2.6312	-2.7479	-2.05	-2.8125	-2.4667	-2.375	53.776	160.061	294.775	10.721	289.120	-46.489	230.121	-15.829	154.263	154.902	-4.814	297.606	188.000	139.055	93.686	171.923	7.3339e-05	0.00054589	0.00015381	186.03	4.2457e-06	7.2679e-06	192.02	74.326	4.3463e-06	3.1688e-06	82.836	28.698	30.008	13.066	2.679e-06	11.537	0.0006585	0.00067077	0.00018718	238.55	7.33e-06	7.3949e-06	236.86	90.471	7.3512e-06	7.3002e-06	107.84	38.223	46.295	15.578	7.3237e-06	15.17	155.069	149.035	30.706	-42.903	278.770	16.695	-45.282	-37.489	-6.133	140.809	-41.538	-38.618	-34.730	-30.305	-54.212	-35.064	-8191	255	
832.698	1	1	0	0	0.097717	0.10749	0.14061	0.047646	0.22606	0.29817	0.24775	0.096471	0.18534	0.12164	0.18594	0.29295	0.38337	0.060922	0.28003	0.076188	-2.4708	-2.0687	-2.5604	-2.5729	-2.0333	-2.9979	-2.6083	-2.2062	-2.8708	-2.2188	-2.4271	-2.7542	-2.0667	-2.7583	-2.4813	-2.2271	32.940	60.119	-8.376	65.160	167.675	163.335	96.734	270.627	-39.327	172.722	251.190	-25.852	3.432	135.394	104.977	1.687	5.9371e-05	0.0010673	0.00022054	187.7	5.1944e-06	7.4199e-06	193.51	74.665	1.0494e-05	8.4971e-06	84.821	29.535	30.425	13.106	6.8965e-06	11.86	0.00065233	0.00066317	0.00018603	238.77	7.2798e-06	7.3478e-06	238.1	90.714	7.4122e-06	7.3354e-06	108.43	38.322	46.563	15.606	7.356e-06	15.291	129.072	293.078	221.942	-44.100	51.348	57.573	-45.559	-37.995	78.394	133.533	-41.778	-38.899	-34.382	-29.808	143.769	-35.096	-8191	255	
832.817	1	1	0	0	0.35362	0.17764	0.12983	0.17408	0.046398	0.15314	0.23773	0.070293	0.19581	0.12371	0.086427	0.035333	0.069708	0.20331	0.18847	0.28678	-2.5271	-2.1312	-2.3521	-2.8333	-2.1521	-2.6542	-2.6937	-2.0792	-2.8146	-2.2604	-2.3958	-2.8604	-2.1021	-2.7417	-2.6458	-1.9625	118.925	177.086	100.641	112.072	-14.499	96.938	84.762	121.691	-36.280	115.900	57.799	197.769	201.845	302.612	-18.240	79.538	0.00013821	0.00084154	0.00017885	185.5	5.0524e-06	2.9382e-06	194.29	74.334	6.3336e-06	7.0183e-06	84.553	29.126	29.343	13.219	1.6236e-06	11.788	0.00065352	0.00067213	0.00018822	239.33	7.3618e-06	7.4184e-06	239.28	90.87	7.3084e-06	7.3367e-06	108.92	38.409	46.292	15.635	7.4195e-06	15.276	75.473	21.618	11.229	-44.686	-38.005	28.408	-45.618	-38.392	143.570	77.228	-42.268	-38.988	-34.139	-30.064	-39.080	-34.950	-8191	255	
832.888	1	1	0	0	0.12515	0.044931	0.14034	0.019646	0.17996	0.089447	0.083099	0.16306	0.22647	0.14125	0.027366	0.23762	0.14261	0.333	0.14306	0.18516	-2.55	-2.4	-2.3812	-3.0417	-2.2333	-2.7562	-2.8979	-2.0271	-2.8438	-2.5083	-2.2229	-2.8396	-2.1958	-2.6625	-2.8271	-2.1958	236.380	1.419	279.382	252.241	231.800	110.822	122.634	66.652	117.264	22.902	26.303	203.441	30.071	177.941	247.447	292.155	0.00020487	0.00066295	0.00010455	184.85	4.3274e-06	2.5266e-06	191.37	74.978	7.5786e-06	4.0989e-07	83.763	29.304	30.555	13.09	1.5831e-05	11.608	0.000654	0.00066854	0.0001873	239	7.3207e-06	7.4096e-06	237.41	90.888	7.3924e-06	7.3499e-06	108.11	38.158	46.218	15.61	7.4707e-06	15.218	107.574	46.946	36.201	-43.831	229.579	143.568	-45.778	-38.408	128.326	-43.840	-42.244	-38.572	-34.325	-30.161	207.213	-34.724	-8191	255	
833.009	1	1	0	0	0.22715	0.28573	0.1092	0.18979	0.12426	0.054436	0.23472	0.11264	0.12679	0.13859	0.12899	0.23844	0.29421	0.057605	0.26418	0.16115	-2.6354	-2.7	-2.2125	-2.8125	-2.1688	-2.3958	-2.8896	-1.9521	-2.8583	-2.3917	-2.2792	-3.0021	-2.2583	-2.4562	-2.8292	-2.1167	289.942	-49.053	193.234	-36.393	242.869	240.266	141.520	-43.569	5.024	288.190	275.898	241.426	161.371	21.765	71.111	214.690	9.4622e-05	0.00014751	4.9608e-05	185.41	6.5967e-06	1.6151e-06	193.72	74.051	5.9553e-06	1.5387e-06	84.88	29.054	30.044	13.104	3.8225e-06	11.582	0.00065647	0.00067723	0.00018853	238.57	7.3524e-06	7.4941e-06	238.54	90.451	7.4119e-06	7.422e-06	108.63	38.246	46.45	15.556	7.4345e-06	15.175	111.999	169.513	175.840	-44.479	64.581	192.901	-46.273	-38.481	261.449	57.977	-43.022	-38.249	-33.984	-30.296	262.132	-36.040	-8191	255	
833.105	1	1	0	0	0.35495	0.13119	0.15843	0.12177	0.091991	0.11592	0.23271	0.16778	0.085432	0.1575	0.34185	0.17286	0.33486	0.13253	0.2939	0.13928	-2.4083	-2.5833	-2.1083	-2.8354	-2.375	-2.4458	-2.8896	-2.0396	-2.6417	-2.6979	-2.1354	-2.8625	-2.4188	-2.2292	-2.9833	-2.2875	-31.912	137.514	50.369	-44.011	281.847	117.319	34.416	173.337	256.597	140.993	147.042	37.760	-34.581	87.022	104.457	288.404	0.0001604	0.0003641	0.00014988	186.06	1.2162e-06	1.2052e-05	196.81	75.553	2.3342e-06	5.9465e-06	84.257	29.861	30.416	13.346	8.3554e-06	11.674	0.00065939	0.00067811	0.00018916	240.16	7.3269e-06	7.4459e-06	240.29	91.373	7.4628e-06	7.3912e-06	108.94	38.792	46.629	15.751	7.504e-06	15.3	209.814	206.122	138.190	-43.312	1.991	29.614	-45.540	-38.306	44.377	120.825	-42.033	-38.341	-35.533	-30.496	158.142	-35.227	-8191	255	
833.201	1	1	0	0	0.085581	0.08468	0.25961	0.035912	0.08012	0.077976	0.02564	0.078257	0.094251	0.22506	0.069374	0.1735	0.086598	0.1811	0.13599	0.055126	-2.1896	-2.5687	-2.1813	-2.7875	-2.3083	-2.1292	-2.8042	-2.0396	-2.6125	-2.8083	-1.9813	-2.9	-2.3729	-2.1458	-2.7083	-2.2042	123.519	0.298	245.025	250.224	48.293	118.364	108.673	187.631	95.071	89.693	-45.241	238.786	-25.113	23.744	49.319	271.435	1.483e-05	0.00050012	9.5489e-05	187.3	1.0271e-05	4.6056e-06	192.96	75.387	7.082e-06	3.7524e-06	84.222	29.519	30.202	13.195	4.399e-06	11.685	0.00066176	0.00068597	0.00018736	240.36	7.3665e-06	7.4681e-06	240.99	91.819	7.4499e-06	7.4532e-06	109.14	38.692	46.91	15.712	7.5105e-06	15.309	-7.524	-48.379	84.077	-43.783	288.376	202.750	-44.984	-38.319	245.565	294.698	-42.844	-38.296	-34.782	-30.550	100.589	-35.086	-8191	255	
833.297	1	1	0	0	0.11602	0.25764	0.21788	0.12786	0.19911	0.19024	0.19892	0.16424	0.12498	0.26402	0.15661	0.10415	0.09364	0.09595	0.28706	0.16877	-2.3292	-2.875	-2.0708	-2.8563	-2.6896	-2.2708	-2.9625	-2.2979	-2.5833	-2.7208	-2.0729	-2.7792	-2.475	-2.1792	-2.8917	-2.3729	160.151	141.484	90.259	38.985	-9.382	-32.177	100.233	191.252	296.983	130.545	253.842	300.282	110.018	171.480	167.573	-50.660	0.00014855	0.00092087	4.1337e-05	185.23	4.1967e-06	2.474e-06	193.31	74.685	2.3199e-06	2.8941e-06	83.431	29.561	30.361	13.217	1.0209e-06	11.744	0.00066289	0.00068652	0.00018819	240.51	7.4329e-06	7.4711e-06	239.75	91.432	7.4123e-06	7.4868e-06	109.02	38.609	46.841	15.694	7.4231e-06	15.364	166.358	-41.906	281.702	-43.873	22.173	177.279	-45.950	-38.812	153.164	63.105	-41.944	-38.601	-35.102	-30.790	234.403	-35.344	-8191	255	
833.418	1	1	0	0	0.24838	0.10572	0.18847	0.21638	0.10898	0.1845	0.39592	0.3347	0.17205	0.12345	0.067989	0.14769	0.20719	0.41308	0.35228	0.11263	-1.9229	-2.8458	-2.1375	-2.7833	-2.8438	-2.2771	-2.8208	-2.3312	-2.1437	-3.0625	-2.0375	-2.6354	-2.7229	-2.0458	-2.8187	-2.3375	240.947	280.707	121.744	261.422	5.190	149.809	133.627	189.300	164.950	191.495	153.226	-49.154	146.074	280.924	200.948	88.573	5.3555e-05	0.00029221	0.00011816	187.59	3.3754e-06	6.8215e-06	193.83	75.617	6.8255e-06	4.078e-06	84.084	29.394	30.586	13.249	5.1435e-06	11.718	0.00066299	0.00068072	0.00018898	241.49	7.3979e-06	7.4163e-06	240.99	91.78	7.4592e-06	7.4897e-06	109.56	38.628	47.086	15.679	7.4603e-06	15.359	141.012	122.786	-51.312	-44.108	-30.202	22.665	-45.350	-38.340	-29.659	106.194	-42.485	-38.162	-34.322	-29.811	95.252	-34.394	-8191	255	
833.490	1	1	0	0	0.1104	0.096244	0.22472	0.20301	0.18465	0.051449	0.16353	0.21103	0.11574	0.22518	0.25148	0.16551	0.049018	0.14621	0.11823	0.17524	-1.8042	-2.7062	-2.1063	-2.7104	-2.8833	-2.0458	-2.875	-2.35	-2.0729	-2.9917	-2.1271	-2.5271	-2.6292	-2.0354	-2.7208	-2.5333	88.163	18.264	183.177	-49.396	122.235	-51.070	207.137	254.287	57.569	203.113	124.859	214.256	-22.703	42.363	111.067	-48.398	2.9784e-05	0.00037682	0.00014765	187.72	3.3198e-06	7.7001e-06	197.4	75.309	7.1775e-06	6.141e-06	84.692	29.814	30.444	13.255	2.7535e-06	11.855	0.00066169	0.0006769	0.0001887	241.77	7.4439e-06	7.4145e-06	241.55	91.87	7.4779e-06	7.4993e-06	109.88	38.799	47.145	15.684	7.4853e-06	15.448	83.355	-25.262	182.312	-43.983	106.722	177.118	-45.704	-38.446	-48.013	35.686	-42.158	-37.854	-35.480	-30.567	-27.891	-35.114	-8191	255	
833.586	1	1	0	0	0.22347	0.090528	0.15727	0.093347	0.081174	0.23161	0.09672	0.23978	0.27439	0.12021	0.27909	0.27998	0.10337	0.12951	0.17019	0.15969	-1.675	-2.7125	-2.0563	-2.3458	-2.6833	-2.0958	-2.6833	-2.7271	-2.0312	-2.9458	-2.3708	-2.3104	-2.7396	-2.3667	-2.6271	-2.575	197.191	91.863	-52.088	146.716	79.414	31.840	249.312	181.617	27.114	138.761	144.447	-19.190	-52.950	23.329	161.365	-49.072	3.0246e-05	0.00063932	4.6323e-05	185.92	6.0651e-06	5.1769e-06	195.18	75.508	1.4871e-06	5.3335e-06	84.601	29.187	30.736	13.097	6.546e-06	11.594	0.00066131	0.00067408	0.0001892	240.87	7.4497e-06	7.487e-06	240.27	91.572	7.4522e-06	7.4602e-06	109.35	38.541	46.92	15.607	7.4711e-06	15.257	174.977	182.185	177.076	-44.674	-23.089	-1.445	-45.199	-37.925	205.112	51.138	-42.161	-38.220	-34.462	-30.812	87.898	-34.986	-8191	255	
833.680	1	1	0	0	0.1479	0.13846	0.28841	0.27767	0.081947	0.20938	0.15551	0.10591	0.058454	0.12289	0.23653	0.2727	0.13149	0.12679	0.2457	0.089861	-1.7417	-2.6417	-2.3458	-2.3563	-2.9104	-2.0708	-2.5812	-2.4979	-2.0833	-2.7917	-2.3146	-2.2229	-2.7542	-1.9813	-2.4062	-2.9167	68.244	178.394	6.531	209.552	-45.856	243.570	186.853	104.785	27.377	299.005	-48.716	272.309	41.118	38.538	24.676	19.048	6.7959e-05	0.0005306	0.00021075	186.43	6.3165e-06	8.1604e-06	196.13	73.943	1.1751e-06	7.6558e-06	84.494	29.312	30.693	13.165	1.351e-05	11.791	0.00065771	0.00067522	0.00018897	239.68	7.4383e-06	7.4252e-06	240.24	91.285	7.3825e-06	7.4669e-06	109.08	38.597	46.952	15.634	7.4256e-06	15.378	159.608	240.425	299.279	-43.810	-32.070	205.588	-45.935	-38.472	24.537	85.918	-41.823	-38.998	-34.676	-30.659	181.293	-35.128	-8191	255	
833.778	1	1	0	0	0.14146	0.14934	0.16419	0.12182	0.27723	0.032433	0.065768	0.11667	0.1567	0.051612	0.26255	0.23565	0.21018	0.12134	0.037715	0.20769	-1.7396	-2.7354	-2.2958	-1.9292	-2.825	-2.1979	-2.5542	-2.6854	-1.9458	-2.5958	-2.625	-2.2646	-2.8854	-2.3021	-2.35	-2.8312	-45.811	20.298	38.106	-10.841	199.943	300.652	-0.017	41.178	235.582	215.014	45.140	135.908	98.150	250.644	138.686	297.585	0.00014953	0.00038255	0.0001584	185.75	4.961e-06	5.463e-06	196.03	75.182	6.729e-07	7.0917e-06	84.333	29.36	30.107	13.191	2.4708e-06	11.731	0.00065662	0.00068115	0.00018929	241.38	7.514e-06	7.4604e-06	242.26	91.862	7.4603e-06	7.4926e-06	109.56	38.631	46.808	15.732	7.4916e-06	15.425	211.623	79.153	235.249	-43.863	19.165	125.522	-45.974	-38.368	97.390	248.859	-42.180	-38.304	-34.565	-30.485	165.060	-34.817	-8191	255	
833.897	1	1	0	0	0.051797	0.13799	0.25254	0.053738	0.15543	0.090279	0.20515	0.099254	0.081968	0.11656	0.15486	0.26137	0.25613	0.15039	0.041185	0.16775	-1.525	-2.6104	-2.4188	-2.0312	-2.8063	-2.375	-2.2125	-2.7542	-2.1104	-2.5187	-2.6646	-1.9625	-2.9354	-2.4479	-2.2375	-3.0229	191.007	50.058	-31.364	33.026	13.000	137.354	-43.531	183.148	124.643	46.940	151.395	84.021	256.301	97.403	-41.174	170.449	9.0701e-05	0.00039734	0.00019403	186.72	2.5634e-06	4.4448e-06	197.83	74.959	2.5965e-06	5.1667e-06	84.723	29.692	30.15	13.241	1.5044e-06	11.889	0.00065495	0.00068228	0.00019063	240.76	7.4582e-06	7.5447e-06	241.84	92.025	7.4248e-06	7.5642e-06	109.39	38.784	47.164	15.637	7.4999e-06	15.406	-2.929	222.459	-32.904	-43.734	193.340	113.956	-45.763	-38.606	129.366	191.604	-42.616	-38.691	-33.999	-30.764	-51.896	-34.754	-8191	255	
833.993	1	1	0	0	0.18	0.069991	0.11479	0.20867	0.13369	0.19371	0.14285	0.40292	0.16825	0.30358	0.049636	0.20078	0.01618	0.033594	0.084564	0.21285	-1.55	-2.5396	-2.7854	-2.1104	-2.7854	-2.4208	-2.1479	-2.8729	-1.975	-2.4792	-2.8375	-2.0354	-2.775	-2.55	-2.2687	-2.8396	85.647	138.383	195.641	280.215	179.816	264.638	40.624	107.398	138.765	228.608	113.134	289.357	-18.636	-31.654	195.364	111.323	6.2733e-05	0.00038644	0.00027149	186.05	6.2713e-06	4.12e-06	196.29	75.51	9.7696e-06	5.1744e-06	84.843	29.219	30.359	13.233	7.4966e-06	11.74	0.00065618	0.00068771	0.00019033	240.67	7.4824e-06	7.4608e-06	240.47	91.736	7.4857e-06	7.5073e-06	109.95	38.497	46.879	15.683	7.4736e-06	15.416	123.516	40.690	128.588	-44.125	219.973	106.684	-44.483	-38.489	79.844	110.647	-42.249	-38.296	-33.937	-29.975	4.852	-34.447	-8191	255	
834.089	1	1	0	0	0.075604	0.031358	0.18453	0.11539	0.23435	0.056438	0.21992	0.20643	0.17064	0.070894	0.14361	0.20145	0.12497	0.087619	0.21601	0.18888	-1.8271	-2.3271	-2.7687	-2.0625	-2.6458	-2.5208	-2.3208	-2.9125	-2.2875	-2.3896	-2.7854	-2.0792	-2.6167	-2.6417	-2.0896	-2.8792	238.095	-0.494	-32.605	38.034	267.493	120.715	-24.280	-0.828	91.224	32.505	66.920	296.805	-47.084	139.945	154.020	297.559	8.3769e-05	0.0003807	3.4796e-05	187.5	4.8043e-07	4.3609e-06	196.41	75.542	1.7338e-06	8.5099e-06	83.902	29.484	30.233	13.339	8.7449e-06	11.726	0.00065843	0.00068521	0.00019138	240.29	7.5304e-06	7.4882e-06	241.89	91.85	7.4925e-06	7.5197e-06	110.1	38.708	47.091	15.682	7.4926e-06	15.402	243.843	90.308	148.386	-43.607	7.004	181.949	-45.080	-38.423	90.397	90.753	-41.698	-37.951	-33.801	-30.225	267.733	-35.080	-8191	255	
834.185	1	1	0	0	0.14136	0.1566	0.14261	0.25881	0.020603	0.085154	0.007931	0.12249	0.31868	0.21672	0.30201	0.075092	0.29178	0.1373	0.06597	0.085203	-1.9458	-2.2792	-2.6813	-2.0667	-2.6771	-2.6104	-2.0417	-2.7792	-2.2958	-2.1646	-2.8167	-2.1583	-2.5104	-2.6021	-1.8687	-2.9208	159.062	241.078	249.939	73.725	87.343	273.825	56.815	189.397	42.735	-33.188	183.332	86.845	-54.300	-33.659	167.193	-46.858	7.1427e-05	0.00060412	0.00018036	188.16	6.5317e-06	7.4306e-06	198.2	75.194	5.1944e-06	4.2198e-06	83.885	29.848	30.679	13.291	2.7274e-06	11.865	0.00066344	0.00068081	0.0001912	241.7	7.5487e-06	7.5054e-06	243.04	92.3	7.5143e-06	7.4984e-06	109.91	38.917	47.291	15.69	7.4494e-06	15.496	-45.481	-25.402	24.803	-44.002	121.801	-37.478	-45.438	-38.186	287.382	-41.071	-41.964	-38.083	-34.637	-29.668	80.880	-34.866	-8191	255	
834.282	1	1	0	0	0.28713	0.15496	0.19204	0.13655	0.055085	0.074308	0.11307	0.071363	0.13075	0.1287	0.056041	0.28577	0.19334	0.40897	0.1182	0.064122	-1.8646	-2.2646	-2.7708	-2.0292	-2.4771	-2.6833	-1.8937	-2.6458	-2.3604	-2.1979	-2.8187	-2.0563	-2.2896	-2.9313	-2.1	-2.5687	-50.008	158.781	45.859	-14.801	92.016	171.457	136.811	7.373	125.045	57.057	59.894	55.976	25.249	-33.552	251.705	-30.603	9.3956e-05	0.00063869	0.00024197	187.79	5.5215e-06	1.3064e-05	195.91	75.433	5.3151e-06	4.4648e-06	84.392	29.84	30.777	13.26	7.1109e-06	11.982	0.00066766	0.00068792	0.00019062	241.82	7.4771e-06	7.5519e-06	242.25	91.844	7.5246e-06	7.4827e-06	110.22	38.92	47.164	15.738	7.485e-06	15.502	121.064	-42.000	135.987	-44.194	151.348	175.439	-45.029	-38.044	134.775	111.796	-42.487	-37.879	-33.881	-29.870	-11.088	-35.775	-8191	255	
834.378	1	1	0	0	0.1065	0.14568	0.16592	0.33143	0.073857	0.15416	0.1246	0.07824	0.11403	0.029955	0.28166	0.085506	0.17011	0.064175	0.16299	0.21355	-2.2167	-1.9146	-2.7417	-2.4021	-2.3771	-2.9229	-2.0479	-2.4583	-2.5354	-2.2188	-2.8083	-2.1542	-2.1958	-2.8208	-2.0729	-2.6167	250.370	169.534	33.727	97.557	170.766	238.024	-39.631	178.960	-42.786	139.357	3.974	-28.369	211.512	-50.903	-52.506	198.695	8.4777e-05	0.00018022	4.2633e-05	189.28	5.8842e-06	3.5838e-06	195.1	74.684	9.42e-07	2.516e-06	84.368	29.562	30.607	13.21	5.255e-06	11.811	0.00066542	0.00067996	0.00019054	241.79	7.4601e-06	7.4499e-06	241.37	91.888	7.4606e-06	7.4387e-06	110.1	38.765	46.891	15.683	7.4086e-06	15.425	233.133	-51.290	276.464	-44.267	177.417	247.174	-45.030	-38.176	20.790	285.108	-42.309	-38.283	-34.785	-30.463	176.577	-35.087	-8191	255	
834.498	1	1	0	0	0.1789	0.13075	0.079377	0.15914	0.13554	0.18994	0.25952	0.15573	0.19523	0.22191	0.011233	0.033329	0.19048	0.093415	0.074669	0.10429	-2.0708	-2.1646	-2.7125	-2.475	-2.3042	-2.9104	-2.1208	-2.4917	-2.7229	-1.9271	-2.6646	-2.475	-2.1375	-2.8	-2.1188	-2.425	187.236	15.264	-29.597	89.424	60.212	180.393	188.825	298.753	20.921	150.175	52.258	95.167	65.320	111.987	173.018	28.302	0.00014213	0.00047365	0.00018017	188.33	5.5128e-06	2.1891e-06	197.28	75.412	5.1916e-06	1.2104e-05	85.26	29.038	30.062	13.335	1.0055e-05	11.965	0.00066426	0.00068166	0.0001921	241.72	7.4596e-06	7.5342e-06	242.86	91.916	7.4927e-06	7.4958e-06	110.48	38.626	47.192	15.731	7.5018e-06	15.511	125.797	267.159	275.371	-43.572	54.419	-1.511	-45.102	-37.801	33.026	135.719	-41.949	-37.685	-34.175	-30.582	245.657	-34.496	-8191	255	
834.593	1	1	0	0	0.16183	0.13653	0.28139	0.36628	0.15243	0.081088	0.1302	0.10072	0.0578	0.21157	0.12485	0.26257	0.18156	0.20091	0.19563	0.1937	-2.25	-2.1937	-2.825	-2.5	-2.2021	-3.0271	-2.2542	-2.45	-2.7875	-2.0438	-2.7354	-2.6146	-2.1396	-2.7	-2.1	-2.2479	252.978	155.488	244.063	114.192	181.502	75.904	37.093	232.640	130.221	30.382	116.750	125.791	242.324	124.056	-28.969	124.492	0.0001332	0.00016956	8.2636e-05	187.66	3.0042e-06	2.4499e-06	198.47	74.984	8.5384e-06	1.622e-06	85.191	29.306	30.775	13.336	1.2916e-05	11.737	0.00066903	0.00068138	0.00019341	241.9	7.4882e-06	7.5186e-06	243.68	92.112	7.5353e-06	7.523e-06	110.73	38.933	47.273	15.764	7.56e-06	15.476	101.796	4.167	199.542	-43.397	-18.769	290.419	-45.138	-37.751	-47.360	45.505	-42.113	-38.466	-35.897	-29.754	297.103	-34.575	-8191	255	
834.689	1	1	0	0	0.051972	0.097492	0.23845	0.10788	0.14006	0.13162	0.26322	0.10876	0.12445	0.10582	0.18578	0.16437	0.067466	0.2707	0.11442	0.069489	-2.5687	-2.0042	-2.7375	-2.6646	-1.9542	-2.9021	-2.3312	-2.4708	-3.0604	-2.1312	-2.5667	-2.6042	-1.95	-2.8958	-2.2333	-2.1604	186.016	21.352	214.832	156.103	251.208	26.770	223.834	42.129	279.365	75.429	257.177	105.789	140.981	208.338	83.987	-38.567	8.5234e-05	8.2048e-05	0.00018478	188.53	2.5602e-06	4.2531e-06	196.09	75.436	8.8242e-06	4.4874e-06	83.761	29.473	30.288	13.135	7.6882e-06	11.778	0.00066728	0.00068714	0.00019334	242.76	7.4294e-06	7.6357e-06	242.28	91.981	7.5591e-06	7.4593e-06	110.56	38.786	46.927	15.665	7.5415e-06	15.386	176.573	-5.447	184.568	-43.968	149.689	107.704	-45.498	-38.467	-50.696	294.461	-41.734	-38.090	-34.358	-30.276	194.402	-34.878	-8191	255	
834.785	1	1	0	0	0.048008	0.19114	0.15022	0.2103	0.05665	0.27525	0.084766	0.26823	0.17732	0.08537	0.070464	0.21486	0.10351	0.18883	0.081824	0.32736	-2.3688	-2.075	-2.5646	-2.5979	-2.0875	-2.6625	-2.4208	-2.3292	-2.8979	-1.9542	-2.3542	-2.775	-2.1375	-2.7354	-2.6354	-2.175	232.573	183.819	202.176	63.105	242.098	273.196	242.446	249.574	284.671	-31.782	60.374	116.286	289.595	197.996	-39.944	12.425	7.1969e-05	0.00064696	0.00010129	187.81	7.972e-06	6.7977e-06	197.13	75.353	8.8564e-06	3.9875e-06	85.24	29.446	30.073	13.153	5.7814e-06	11.817	0.00066797	0.00068837	0.00019323	241.42	7.5752e-06	7.6067e-06	241.22	92.045	7.5705e-06	7.5038e-06	110.36	38.893	47.047	15.697	7.5345e-06	15.424	109.967	-9.931	86.464	-43.326	149.889	-29.113	-45.037	-37.896	85.276	63.934	-42.113	-37.740	-33.715	-29.983	103.634	-34.917	-8191	255	
834.881	1	1	0	0	0.1694	0.16546	0.21141	0.25316	0.24931	0.10625	0.2553	0.26561	0.12987	0.11726	0.16044	0.11548	0.19426	0.20224	0.061418	0.17954	-2.3604	-2.2083	-2.1271	-2.6937	-2.1729	-2.6917	-2.7229	-1.9937	-3.0187	-2.2333	-2.2875	-2.875	-2.1312	-2.6354	-2.5396	-2.1917	260.103	95.423	280.906	290.299	54.954	-6.275	136.431	289.996	-46.990	210.621	177.033	225.226	82.124	240.813	21.573	300.609	0.00013693	0.00099327	6.4463e-05	189.63	5.1913e-06	1.6985e-06	197.42	75.993	6.1595e-06	6.4737e-06	86.221	29.589	30.195	13.196	2.0715e-06	11.78	0.0006711	0.00068944	0.00019263	242.47	7.4701e-06	7.5533e-06	242.66	91.984	7.5638e-06	7.5715e-06	110.62	38.91	47.272	15.798	7.5428e-06	15.456	188.756	86.768	-40.371	-43.101	217.521	202.031	-45.337	-38.357	202.122	76.804	-41.816	-38.410	-34.295	-30.214	242.584	-34.636	-8191	255	
834.977	1	1	0	0	0.12534	0.11872	0.14754	0.12411	0.15294	0.19968	0.049446	0.11322	0.12696	0.31584	0.13292	0.12749	0.34103	0.17213	0.12251	0.18075	-2.4813	-2.1417	-2.3771	-2.725	-2.0667	-2.5021	-2.6417	-2.0458	-2.8646	-2.2354	-2.1292	-2.8896	-2.0375	-2.7	-2.7896	-2.1312	234.626	142.411	215.232	229.158	242.927	-33.190	-46.242	46.579	238.798	64.059	228.141	226.100	139.109	166.281	156.767	-20.649	0.00015098	0.00035691	9.5671e-05	188	4.8674e-06	6.5613e-06	194.9	75.853	5.0997e-06	5.4021e-06	84.521	29.439	30.803	13.065	5.1023e-06	11.735	0.0006678	0.00068613	0.00019022	241.55	7.5168e-06	7.6272e-06	242.46	92.468	7.5583e-06	7.5249e-06	110.41	39.046	47.213	15.695	7.5578e-06	15.415	89.528	-31.008	24.278	-43.610	193.593	241.131	-45.291	-37.771	-43.227	190.993	-41.503	-38.190	-34.278	-29.654	191.897	-35.098	-8191	255	
835.074	1	1	0	0	0.10861	0.1714	0.35967	0.23062	0.11819	0.17898	0.13539	0.12572	0.36326	0.24406	0.10137	0.29834	0.39024	0.20011	0.42666	0.11014	-2.2625	-2.5042	-2.1354	-2.8271	-2.3542	-2.3604	-2.8708	-2.1312	-2.7833	-2.4917	-2.025	-2.7458	-2.3354	-2.275	-2.9271	-2.1	118.400	238.149	-30.897	167.583	186.472	265.982	-43.562	-36.921	124.446	34.026	16.108	225.034	155.850	262.530	175.667	230.250	0.0001035	0.00010898	0.00013787	186.24	3.6172e-06	6.9414e-06	198.5	75.646	4.1258e-06	5.1823e-06	84.537	29.467	30.866	13.226	6.6186e-06	11.744	0.0006752	0.00069014	0.00019153	240.63	7.5594e-06	7.5085e-06	242.87	92.134	7.6629e-06	7.5261e-06	109.9	38.85	47.125	15.713	7.5793e-06	15.416	266.050	211.443	-37.748	-43.336	28.408	-32.858	-44.577	-37.962	112.100	194.348	-42.112	-38.039	-34.199	-29.235	33.064	-34.654	-8191	255	
835.194	1	1	0	0	0.084522	0.30768	0.076444	0.11618	0.15888	0.26432	0.31911	0.2121	0.20978	0.081717	0.38962	0.34375	0.098387	0.10456	0.082772	0.12272	-2.4938	-2.7771	-2.0083	-2.8771	-2.375	-2.1667	-2.7875	-2.2062	-2.6292	-2.6146	-2.0354	-2.8792	-2.2229	-2.3333	-2.7938	-2.0938	17.493	4.508	-14.125	14.377	15.829	175.518	287.120	288.575	233.295	59.106	268.855	188.766	107.580	227.079	272.607	55.508	0.00011153	0.00029143	0.00010106	186.3	5.7722e-06	6.2927e-06	196.26	74.624	3.2184e-06	2.6874e-06	85.032	29.55	30.904	13.372	9.8334e-07	11.719	0.00067546	0.00068743	0.00019084	241.74	7.4985e-06	7.4937e-06	241.85	91.809	7.5919e-06	7.4841e-06	109.83	38.825	46.966	15.737	7.5391e-06	15.366	80.264	41.296	6.171	-43.668	99.074	294.595	-44.597	-37.635	255.574	87.132	-41.782	-38.023	-33.994	-30.359	254.577	-35.565	-8191	255	
835.290	1	1	0	0	0.039213	0.02749	0.24759	0.14114	0.34572	0.065189	0.25323	0.088074	0.11274	0.36874	0.1308	0.14556	0.049093	0.012671	0.16095	0.097391	-2.0438	-2.6188	-2.2562	-2.9229	-2.4854	-2.2896	-2.9271	-1.9896	-2.4208	-2.6354	-1.9396	-2.7229	-2.4583	-2.125	-2.7292	-2.1354	-29.392	-29.301	265.022	91.710	182.176	228.146	295.962	24.842	152.595	1.781	235.508	31.371	190.179	134.993	8.996	36.577	0.00012067	0.0001957	0.00030403	185.32	6.0764e-06	8.4593e-06	195.54	75.844	8.7063e-06	3.2376e-06	85.788	29.228	29.965	13.274	1.2288e-05	11.686	0.00067043	0.00068729	0.00018935	241.17	7.5144e-06	7.457e-06	242.04	92.293	7.4989e-06	7.5424e-06	110.07	38.907	46.931	15.712	7.5857e-06	15.351	196.408	-39.773	-6.238	-43.384	26.101	-29.420	-44.716	-38.364	-4.889	-43.320	-42.140	-37.653	-33.859	-29.815	-23.607	-34.562	-8191	255	
835.362	1	1	0	0	0.09539	0.12852	0.29368	0.15598	0.33985	0.33212	0.27199	0.17418	0.15737	0.33761	0.21096	0.28765	0.11863	0.12463	0.16087	0.089787	-1.9146	-2.7313	-2.0521	-2.6688	-2.5896	-2.1583	-2.6708	-2.3	-2.35	-2.9729	-1.9979	-2.7667	-2.525	-1.9458	-2.7875	-2.4146	94.678	118.850	182.601	34.375	-31.496	24.318	138.765	96.199	89.304	206.669	51.093	-40.535	-8.372	292.344	95.065	38.733	7.085e-05	0.00067013	6.8616e-05	187.58	1.3423e-06	7.2739e-06	194.05	75.276	2.1485e-06	2.2994e-06	84.927	29.049	31.033	13.107	6.3924e-06	11.46	0.00066946	0.00068197	0.00019207	241.61	7.4992e-06	7.4439e-06	240.26	91.539	7.4754e-06	7.519e-06	109.38	38.722	46.716	15.648	7.5438e-06	15.23	184.637	77.841	22.647	-43.080	9.506	61.850	-44.851	-37.918	14.854	43.221	-41.861	-38.160	-33.638	-30.072	175.432	-34.528	-8191	255	
835.458	1	1	0	0	0.1659	0.099726	0.33056	0.11569	0.18792	0.27676	0.20635	0.23735	0.22316	0.052199	0.087652	0.30869	0.14659	0.21418	0.26577	0.33893	-1.7437	-2.7333	-2.0521	-2.5042	-2.4396	-2.1521	-3.0333	-2.4271	-2.2292	-2.9938	-2.2479	-2.55	-2.7333	-1.925	-2.8021	-2.5229	198.757	262.037	140.350	135.360	14.076	143.254	1.273	197.418	40.055	192.098	-30.688	275.068	258.204	-53.066	240.887	157.609	1.9549e-05	0.00023768	0.00026955	188.54	2.1148e-06	5.4897e-06	192.12	75.403	6.1082e-06	3.8746e-06	84.578	28.921	29.549	13.206	1.3379e-06	11.57	0.00066931	0.00068241	0.00018938	240.25	7.4483e-06	7.4243e-06	239.21	91.47	7.4163e-06	7.5044e-06	109.03	38.403	46.843	15.58	7.5806e-06	15.192	265.523	268.127	-26.129	-43.086	289.309	273.629	-44.785	-37.810	161.430	191.252	-41.524	-37.419	-34.599	-29.279	-16.496	-33.877	-8191	255	
835.577	1	1	0	0	0.11483	0.10505	0.079917	0.17217	0.13073	0.085479	0.0024315	0.16399	0.23443	0.12277	0.13059	0.23037	0.11328	0.13405	0.14108	0.064976	-1.7375	-2.8146	-2.1896	-2.5042	-2.7188	-2.0229	-2.7396	-2.4375	-2.0396	-2.7917	-2.5	-2.2792	-2.7396	-2.225	-2.7812	-2.6417	-12.195	67.938	81.446	136.654	302.301	182.446	287.276	256.062	296.122	176.708	74.899	232.857	180.463	133.880	169.160	17.837	0.00010068	0.00034816	0.00012038	186.58	3.9522e-06	4.4256e-06	193.06	74.448	1.4114e-06	5.3903e-07	82.49	28.936	29.845	13.025	1.5514e-06	11.49	0.00066256	0.00068263	0.00018959	239.08	7.444e-06	7.4717e-06	238.9	91.207	7.4336e-06	7.5875e-06	108.75	38.459	46.95	15.524	7.5086e-06	15.197	213.244	204.725	129.827	-43.160	169.640	20.418	-44.984	-38.438	134.640	179.037	-41.884	-37.763	-35.237	-30.081	38.686	-34.972	-8191	255	
835.673	1	1	0	0	0.19148	0.18529	0.090249	0.176	0.1467	0.044124	0.046076	0.14719	0.15444	0.24814	0.28468	0.067082	0.14896	0.24226	0.11409	0.069213	-1.725	-2.9604	-2.2667	-2.3979	-3.0104	-2.2896	-2.6521	-2.55	-2.0917	-2.8896	-2.0667	-2.3271	-2.7708	-2.2104	-2.7104	-2.6312	27.453	220.163	159.173	27.695	45.859	134.391	19.327	208.916	51.910	63.981	-3.399	287.445	91.737	9.127	82.519	47.640	6.8187e-05	0.00022975	0.00013195	185.6	3.0311e-06	1.2936e-05	192.76	74.763	7.6385e-06	1.098e-05	83.76	29.375	30.329	13.008	9.3336e-06	11.55	0.00065687	0.0006849	0.00018918	240.11	7.5105e-06	7.4988e-06	239.05	91.393	7.4586e-06	7.5538e-06	108.92	38.549	46.861	15.553	7.5409e-06	15.162	107.375	103.493	107.934	-42.983	147.658	-33.277	-43.974	-37.599	127.541	98.941	-41.931	-37.411	-32.988	-29.584	-51.330	-34.315	-8191	255	
835.771	1	1	0	0	0.16736	0.2263	0.12269	0.1059	0.27296	0.20874	0.24117	0.14035	0.20107	0.10303	0.29154	0.084997	0.1665	0.19092	0.22272	0.24783	-1.7542	-2.7188	-2.3417	-2.1521	-2.9229	-2.1646	-2.6208	-2.7375	-2.0333	-2.5854	-2.4938	-2.2958	-2.825	-2.2583	-2.4875	-2.9188	262.348	272.218	241.776	202.249	304.715	99.591	92.047	271.188	140.194	119.706	200.700	36.807	39.809	-52.174	162.182	222.253	0.00015005	0.00042419	6.6781e-05	186.65	5.2197e-06	6.1947e-06	191.73	74.825	3.9288e-06	7.23e-06	83.651	28.947	29.91	12.988	5.1207e-06	11.419	0.00065995	0.00068701	0.00018959	238.15	7.5292e-06	7.4736e-06	236.93	91.055	7.4507e-06	7.5045e-06	108.19	38.267	46.515	15.479	7.4945e-06	15.093	146.726	-35.974	62.789	-43.494	244.333	93.834	-43.743	-37.186	199.609	203.494	-41.579	-37.409	-33.168	-28.942	304.687	-33.805	-8191	255	
835.890	1	1	0	0	0.42332	0.023283	0.17424	0.19553	0.077191	0.11029	0.2156	0.062087	0.14147	0.11612	0.27214	0.2538	0.12695	0.061217	0.13218	0.16445	-1.7375	-2.8771	-2.65	-1.9917	-2.8458	-2.4417	-2.4188	-2.8875	-2.1583	-2.7167	-2.3229	-2.1063	-2.7333	-2.5229	-2.2479	-2.7833	294.445	0.572	159.747	164.029	-43.358	-21.870	74.567	264.613	231.086	64.235	246.191	-50.357	303.019	-10.908	260.153	264.612	0.00018299	0.0017	4.5186e-05	186.06	3.7121e-06	4.5412e-06	192.52	74.087	4.2519e-06	5.8548e-06	84.832	29.042	30.213	13.013	6.0076e-06	11.638	0.00066368	0.0006866	0.00018924	238.65	7.5354e-06	7.4945e-06	238.1	91.157	7.4764e-06	7.5145e-06	108.89	38.337	47.172	15.527	7.4902e-06	15.287	249.201	252.437	107.710	-42.403	92.467	172.452	-44.146	-37.309	59.251	29.774	-41.218	-37.450	-33.950	-29.785	-13.302	-34.222	-8191	255	
835.986	1	1	0	0	0.077446	0.16667	0.1958	0.24703	0.12845	0.25721	0.02806	0.11816	0.075148	0.040348	0.024505	0.078439	0.15327	0.080597	0.14837	0.30417	-1.725	-2.6083	-2.7062	-1.9354	-2.9938	-2.4479	-2.3625	-2.9458	-2.0979	-2.5875	-2.8042	-1.9979	-2.8063	-2.6792	-2.0771	-2.9271	13.367	134.761	114.334	-50.458	45.693	252.501	54.692	237.460	272.050	245.615	47.929	281.851	210.194	223.438	274.291	242.007	0.00012671	0.00067788	0.00019545	184.59	2.9155e-06	6.7202e-06	193.73	75.409	4.094e-06	4.5368e-06	84.075	29.338	30.028	12.995	4.2109e-06	11.504	0.00066676	0.00068734	0.00018925	238.6	7.4791e-06	7.4949e-06	239.23	91.577	7.4573e-06	7.5367e-06	109.04	38.494	46.888	15.509	7.4609e-06	15.202	150.229	9.089	-18.658	-43.447	89.425	208.690	-44.579	-37.166	230.516	276.495	-41.827	-37.495	-33.698	-30.154	230.892	-35.479	-8191	255	
836.058	1	1	0	0	0.4035	0.13426	0.34931	0.22228	0.057943	0.065532	0.097919	0.20516	0.21283	0.035735	0.24539	0.15789	0.10073	0.13978	0.16793	0.066298	-1.5896	-2.5729	-2.85	-2.1417	-2.9062	-2.4979	-2.3833	-2.8812	-2.1063	-2.4708	-2.9854	-2.0687	-2.8438	-2.5458	-2.2	-2.8563	16.517	21.785	29.018	191.216	-12.239	166.559	154.373	182.111	296.458	203.128	287.232	212.688	111.226	20.430	185.648	117.566	0.00018444	0.0001919	8.163e-05	186.52	3.3625e-06	5.4172e-06	194.37	75.445	4.6976e-06	4.4693e-06	84.114	28.821	30.018	13.048	1.6419e-05	11.543	0.00066396	0.00068967	0.00018938	239.57	7.5234e-06	7.4819e-06	239.2	91.915	7.5115e-06	7.5579e-06	109.16	38.306	46.834	15.457	7.4556e-06	15.151	22.748	271.108	171.734	-44.199	176.268	56.379	-45.734	-38.313	158.648	230.202	-43.284	-38.886	-34.397	-30.942	-10.038	-35.349	-8191	255	
836.178	1	1	0	0	0.05493	0.14856	0.17964	0.22527	0.12778	0.22295	0.25477	0.12346	0.24472	0.18912	0.094766	0.23739	0.12639	0.083995	0.21522	0.22394	-1.7875	-2.3625	-2.6375	-2.0292	-2.6229	-2.4583	-2.125	-2.8792	-2.0958	-2.3375	-2.8375	-2.225	-2.7229	-2.6396	-2.0187	-2.9417	182.821	234.031	255.774	-53.950	107.838	227.943	245.175	222.120	232.171	151.449	299.222	90.567	303.408	81.194	258.804	264.282	8.2769e-06	0.00054667	0.00025957	181.51	2.9958e-06	1.5915e-06	194.32	75.469	8.8073e-06	6.6906e-06	84.477	28.898	30.138	12.758	1.3055e-06	11.37	0.00066575	0.00069004	0.00019145	239.43	7.5689e-06	7.5286e-06	239.97	91.482	7.5263e-06	7.5519e-06	109.19	38.13	46.857	15.393	7.5038e-06	15.14	203.770	-14.032	67.636	-44.068	223.637	106.421	-45.460	-38.339	51.684	216.029	-42.739	-39.322	-35.017	-30.937	113.491	-35.104	-8191	255	
836.275	1	1	0	0	0.12633	0.28085	0.11152	0.10571	0.040821	0.18849	0.078694	0.17095	0.12733	0.11525	0.20609	0.23194	0.30713	0.16858	0.19263	0.080082	-1.9208	-2.1417	-2.8271	-2.0667	-2.525	-2.5667	-2.0187	-2.6562	-2.2854	-2.1208	-2.7667	-2.1688	-2.7958	-2.7521	-2.1521	-2.9146	22.067	229.050	288.097	175.345	48.856	237.067	-22.098	274.600	283.389	15.591	-29.549	107.930	197.752	264.710	302.665	148.746	0.00011181	0.00039577	0.00013932	185.8	4.0416e-06	3.9208e-06	194.95	75.251	9.6526e-06	4.7277e-06	84.422	29.246	30.291	12.912	3.6925e-06	11.488	0.00067344	0.00068368	0.00019051	240.06	7.5987e-06	7.4754e-06	240.84	91.687	7.5203e-06	7.473e-06	109.28	38.363	46.908	15.46	7.534e-06	15.181	184.816	152.174	222.551	-43.601	287.031	176.839	-45.048	-38.528	90.463	98.613	-42.405	-39.032	-35.907	-30.273	254.061	-35.411	-8191	255	
836.371	1	1	0	0	0.30441	0.12552	0.20521	0.095816	0.11931	0.31032	0.063356	0.15531	0.22238	0.25603	0.13865	0.16106	0.18566	0.23036	0.15889	0.095788	-2.1896	-2.1583	-2.9396	-2.1292	-2.45	-2.8563	-2.0625	-2.7396	-2.5104	-2.2313	-2.8708	-2.3208	-2.3333	-2.9437	-2.1021	-2.7021	157.412	45.766	83.176	22.966	214.379	169.959	143.462	236.606	115.524	195.357	144.620	264.903	0.499	256.564	149.382	-50.413	3.622e-05	0.0002773	0.00016327	187.24	6.5911e-06	4.4912e-06	192.97	75.152	2.7953e-06	4.6301e-06	84.491	28.818	29.808	12.973	7.1508e-06	11.405	0.00067168	0.00069251	0.0001941	240.29	7.523e-06	7.5684e-06	240.28	91.892	7.5124e-06	7.5004e-06	109.82	38.392	46.863	15.506	7.544e-06	15.212	75.045	186.723	-11.224	-44.298	57.808	170.990	-45.415	-38.489	101.499	82.381	-42.186	-38.983	-34.650	-30.723	233.706	-34.870	-8191	255	
836.491	1	1	0	0	0.19112	0.054854	0.22634	0.27864	0.12504	0.16617	0.15807	0.30831	0.22811	0.20141	0.21899	0.11845	0.094168	0.23456	0.14848	0.43334	-2.2125	-2.0062	-2.875	-2.1813	-2.2687	-2.9875	-2.2687	-2.6708	-2.5792	-2.0396	-2.7854	-2.3729	-2.3042	-2.8604	-2.0354	-2.5792	67.341	1.780	117.978	262.340	-39.334	291.882	272.201	53.627	71.139	-39.997	219.548	95.613	181.628	264.254	120.899	-2.177	0.00013493	0.00058509	5.386e-05	184.21	5.4404e-06	6.2683e-06	193.33	74.701	4.0422e-06	6.0572e-06	83.916	28.687	29.739	12.812	7.5889e-06	11.421	0.00066552	0.00068598	0.00019334	239.79	7.5179e-06	7.5068e-06	239.37	91.781	7.5254e-06	7.5756e-06	109.25	38.185	46.644	15.404	7.6103e-06	15.126	293.500	295.294	166.824	-44.593	263.675	-42.684	-45.920	-38.606	28.027	-48.813	-42.239	-39.009	-35.474	-30.565	217.465	-35.019	-8191	255	
836.586	1	1	0	0	0.1905	0.12244	0.30452	0.10913	0.092493	0.1837	0.10725	0.081997	0.13566	0.16919	0.15561	0.063482	0.060188	0.20244	0.18179	0.083095	-2.4979	-2.0354	-2.8021	-2.3167	-2.1896	-2.8563	-2.0521	-2.3312	-2.7125	-2.1188	-2.7125	-2.3979	-2.0729	-2.6854	-2.1729	-2.1979	4.990	125.442	297.888	13.342	49.562	124.615	247.532	187.662	115.147	284.364	263.896	293.569	13.468	260.426	31.494	-38.878	8.506e-05	0.0003742	0.0001882	185.48	1.7635e-06	4.5434e-06	194.18	74.765	2.3871e-06	3.3312e-06	83.33	29.061	29.523	12.832	1.0943e-05	11.206	0.00067198	0.00069129	0.00019343	239.75	7.5736e-06	7.6604e-06	239.27	91.142	7.5697e-06	7.5797e-06	109.03	38.263	46.367	15.431	7.549e-06	14.969	148.381	286.544	203.957	-43.758	-27.295	-42.903	-45.756	-39.099	25.627	110.090	-42.545	-39.415	-34.891	-30.858	68.988	-35.289	-8191	255	
836.659	1	1	0	0	0.13555	0.05386	0.15354	0.057264	0.12154	0.10676	0.051299	0.19059	0.26173	0.10365	0.064892	0.25972	0.13059	0.084897	0.28994	0.2111	-2.3833	-2.075	-2.4792	-2.6042	-2.3354	-2.6854	-2.2833	-2.4583	-2.6917	-1.9042	-2.6708	-2.6292	-2.2125	-3.1437	-2.4542	-2.2375	261.730	272.121	150.294	29.048	-55.961	53.182	-16.144	-13.518	136.398	6.103	259.985	155.415	51.448	137.906	83.656	-30.450	0.00017224	0.00090643	0.0001652	187.5	6.0419e-06	3.6332e-06	195.41	75.047	1.4129e-06	6.5056e-06	84.032	28.929	30.369	12.984	1.2084e-06	11.411	0.00067412	0.00068937	0.00019539	240.24	7.5211e-06	7.6592e-06	240.49	91.469	7.561e-06	7.5715e-06	109.51	38.292	46.66	15.515	7.5318e-06	15.056	240.584	274.452	51.796	-44.377	202.989	206.399	-45.769	-38.686	231.594	12.404	-43.056	-38.342	-35.638	-30.239	285.575	-35.226	-8191	255	
836.754	1	1	0	0	0.0055935	0.062989	0.15245	0.11859	0.16417	0.038053	0.22198	0.28767	0.28108	0.27778	0.18577	0.25297	0.12824	0.1428	0.25621	0.12498	-2.6375	-2.1104	-2.6	-2.5583	-1.9917	-2.7771	-2.3958	-2.2979	-2.85	-2.2354	-2.6937	-2.7583	-2.0708	-2.7667	-2.5208	-2.2208	258.659	64.989	256.645	98.390	183.545	57.540	290.759	205.738	171.283	105.429	254.292	23.648	213.956	-42.356	258.700	220.358	0.00014596	0.00037921	6.643e-05	186.52	2.5466e-06	4.0763e-06	195.01	75.293	1.0163e-05	1.9963e-06	84.159	28.63	30.267	12.926	5.7103e-06	11.335	0.00067244	0.0006894	0.00019143	240.84	7.5478e-06	7.6496e-06	240.32	92.261	7.6193e-06	7.6016e-06	109.77	38.35	46.821	15.485	7.5713e-06	15.12	247.951	80.213	177.414	-44.388	284.919	55.322	-45.339	-38.296	53.559	151.971	-43.164	-38.992	-33.983	-30.518	-29.088	-34.948	-8191	255	
836.874	1	1	0	0	0.046965	0.064998	0.12446	0.14086	0.29724	0.048744	0.28735	0.18142	0.15731	0.1629	0.058295	0.17255	0.073575	0.21262	0.27235	0.23852	-2.4896	-2.1771	-2.4083	-2.85	-1.95	-2.6792	-2.3812	-1.9854	-2.9125	-2.1479	-2.3271	-2.8333	-2.1354	-2.8542	-2.3833	-2.1458	197.201	234.649	82.388	-0.556	289.108	236.025	175.527	132.947	60.113	45.244	271.517	199.258	116.247	-43.372	-46.121	180.356	2.1913e-05	0.00033656	9.1899e-05	185.54	4.9096e-06	3.5954e-06	191.29	74.627	5.0046e-07	9.0619e-06	84.229	28.439	29.491	12.913	3.6481e-06	11.318	0.00067302	0.00068835	0.00019162	240.07	7.5956e-06	7.5868e-06	239.27	91.445	7.6395e-06	7.5852e-06	109.35	38.19	46.536	15.461	7.5015e-06	14.968	213.516	88.045	218.007	-44.039	303.429	-38.317	-46.088	-38.393	42.474	129.216	-41.894	-38.509	-35.571	-30.468	172.124	-35.157	-8191	255	
836.970	1	1	0	0	0.26443	0.14819	0.075218	0.31749	0.29057	0.24508	0.079698	0.13574	0.1777	0.33196	0.23557	0.14617	0.11348	0.088896	0.03779	0.20892	-2.5896	-2.1583	-2.1792	-2.8937	-2.0625	-2.6292	-2.6646	-2.1167	-2.7729	-2.3167	-2.1771	-2.9375	-1.9479	-2.6917	-2.5125	-1.9271	38.033	204.983	193.820	215.913	251.728	-23.301	-13.297	188.600	254.306	162.945	268.159	246.050	253.777	7.053	81.264	-50.705	6.0044e-05	0.00037147	6.8064e-05	186.35	2.7896e-06	4.4864e-06	191.02	74.042	2.4447e-07	8.523e-06	83.41	28.731	29.785	12.871	5.1643e-06	11.181	0.00066881	0.00068319	0.00018955	238.83	7.5084e-06	7.5479e-06	237.72	91.091	7.5255e-06	7.5097e-06	108.99	38.002	46.5	15.364	7.4124e-06	14.964	244.119	147.911	211.263	-44.011	239.559	292.467	-45.708	-39.276	60.711	81.603	-42.165	-38.698	-34.213	-30.435	81.590	-34.585	-8191	255	
837.066	1	1	0	0	0.39243	0.15987	0.29174	0.33014	0.26563	0.10679	0.19793	0.1708	0.18827	0.15805	0.078613	0.12231	0.020417	0.3127	0.15811	0.14101	-2.5146	-2.2562	-2.2021	-2.9604	-1.9125	-2.5812	-2.625	-2.0792	-2.7542	-2.4875	-2.1937	-2.7875	-2.1333	-2.575	-2.7917	-1.9167	265.427	-42.326	207.000	69.280	233.364	40.579	268.529	124.611	40.005	82.054	66.761	289.264	218.782	182.983	201.896	271.207	3.0427e-05	0.00045101	0.00018893	186.1	8.0076e-06	8.3383e-06	192.54	74.379	5.8716e-06	2.3057e-06	82.866	28.67	29.464	12.719	5.6143e-06	11.286	0.00067248	0.00068571	0.00018989	239.79	7.5301e-06	7.5131e-06	238.56	91.306	7.615e-06	7.5651e-06	109.22	38.167	46.73	15.335	7.5473e-06	14.951	212.507	-39.376	244.541	-44.244	128.348	61.139	-45.691	-38.177	284.650	-27.929	-42.510	-38.640	-34.397	-30.759	189.051	-35.044	-8191	255	
837.163	1	1	0	0	0.092113	0.06292	0.04085	0.027263	0.12262	0.08583	0.24096	0.19194	0.25123	0.21022	0.16527	0.12333	0.16389	0.18438	0.11733	0.17889	-2.3187	-2.4	-1.9583	-2.9688	-2.0458	-2.3875	-2.7604	-1.9937	-2.5833	-2.6917	-2.0604	-2.8771	-2.225	-2.125	-2.7687	-2.0979	43.446	10.312	178.779	163.139	-7.027	58.373	232.892	81.802	203.261	204.705	138.407	256.340	193.572	109.950	97.466	15.321	0.00012583	0.00039344	0.00022443	186.2	2.9861e-06	7.6691e-06	192.89	74.8	3.1259e-06	9.1252e-06	82.742	28.302	29.906	12.532	8.1579e-06	11.008	0.00067446	0.00068855	0.00019148	240.14	7.5035e-06	7.5399e-06	238.33	91.11	7.5258e-06	7.5486e-06	108.32	38.103	46.357	15.193	7.6028e-06	14.81	180.911	-4.426	-1.004	-43.934	238.853	279.160	-45.811	-38.201	-53.367	69.913	-42.173	-38.720	-34.496	-30.292	214.635	-35.377	-8191	255	
837.283	1	1	0	0	0.15569	0.20972	0.12526	0.15993	0.10337	0.053528	0.13604	0.19592	0.11783	0.17651	0.08779	0.25247	0.026989	0.18865	0.23752	0.23111	-2.1333	-2.675	-2.0375	-2.7875	-2.1312	-2.2771	-2.8604	-1.9813	-2.5958	-2.5667	-1.9562	-2.8042	-2.3	-2.2938	-2.7354	-2.0479	163.164	100.043	36.234	127.410	300.625	214.929	267.707	-26.406	215.604	84.368	56.567	170.011	22.998	197.957	224.985	160.214	0.0002377	0.00040426	0.00019	184.4	1.5539e-06	4.5572e-06	190.96	74.249	1.0619e-05	2.1487e-06	81.883	28.172	29.197	12.762	6.9645e-06	11.241	0.0006741	0.00068338	0.00019142	239.31	7.5306e-06	7.5555e-06	237.41	90.974	7.5393e-06	7.5076e-06	108.06	37.859	46.483	15.299	7.6886e-06	14.899	140.249	211.270	276.008	-44.092	81.637	225.749	-46.239	-38.868	165.747	265.832	-42.630	-38.725	-34.537	-30.470	113.059	-35.383	-8191	255	
837.355	1	1	0	0	0.025903	0.20973	0.053753	0.064877	0.22624	0.26122	0.34377	0.094815	0.093918	0.12433	0.13396	0.051893	0.18159	0.15533	0.11635	0.19587	-1.9542	-2.5604	-2.0438	-2.7042	-2.625	-2.0917	-2.7042	-2.2354	-2.5646	-2.7875	-2.0167	-2.7687	-2.4729	-1.9979	-2.9167	-2.0812	-26.873	163.390	289.999	183.911	216.415	25.120	101.705	98.159	226.339	153.066	57.792	155.293	173.261	-27.748	25.146	41.907	4.0137e-05	0.00025902	0.00010608	187.08	3.1875e-06	3.5611e-06	192.73	74.473	7.854e-06	3.9095e-06	83.105	28.466	29.346	12.7	3.9572e-06	11.082	0.00067535	0.00069419	0.00019222	240.14	7.5413e-06	7.6004e-06	239.91	91.544	7.5977e-06	7.6267e-06	108.73	38.031	46.542	15.303	7.6029e-06	14.911	221.849	110.393	-14.241	-43.939	92.840	53.369	-45.817	-38.586	38.780	1.565	-42.815	-38.683	-35.432	-29.597	203.072	-35.148	-8191	255	
837.451	1	1	0	0	0.27361	0.2201	0.11317	0.038743	0.092468	0.20423	0.14521	0.13175	0.09987	0.095486	0.055184	0.12576	0.12705	0.014734	0.16052	0.14991	-1.9438	-2.7354	-2.0271	-2.6542	-2.5583	-2.1188	-2.8667	-2.1729	-2.4271	-2.6937	-2.0792	-2.5604	-2.5292	-2.1417	-2.6625	-2.3063	106.303	254.957	266.520	148.178	260.334	-33.084	197.336	-53.674	47.994	138.304	-43.001	6.608	60.540	158.378	160.540	237.614	8.3881e-05	0.00032061	0.00010808	185.8	5.0421e-06	7.6333e-06	195.42	74.546	3.0606e-06	1.1274e-05	82.449	28.701	29.325	12.919	3.8972e-06	11.16	0.00067516	0.00068756	0.0001927	240.41	7.5453e-06	7.5797e-06	240.53	91.792	7.5519e-06	7.6512e-06	108.88	38.298	46.679	15.354	7.6109e-06	14.89	161.877	164.859	119.069	-44.214	58.149	234.323	-46.450	-38.889	170.590	180.994	-42.618	-38.455	-35.052	-30.767	153.920	-35.670	-8191	255	
837.572	1	1	0	0	0.22163	0.066603	0.093278	0.18424	0.28532	0.12846	0.061786	0.062528	0.12029	0.10199	0.2082	0.13002	0.11546	0.2146	0.068615	0.063415	-1.9104	-2.7458	-2.0104	-2.6688	-2.7458	-1.9896	-2.8875	-2.4583	-2.2042	-2.9437	-2.1937	-2.4625	-2.8104	-1.95	-2.6708	-2.6354	246.559	257.423	1.087	32.207	287.098	257.694	210.430	-52.738	156.864	279.810	25.550	220.464	104.656	294.709	109.974	111.313	0.00010057	0.0010633	0.00023878	184.79	4.6728e-06	9.0706e-07	193.87	74.194	6.3686e-06	5.3985e-06	82.971	28.671	29.911	12.683	1.767e-05	10.936	0.00066865	0.00069822	0.0001929	239.58	7.5483e-06	7.6047e-06	240.06	91.21	7.5527e-06	7.561e-06	108.55	37.979	46.708	15.316	7.6167e-06	14.785	35.703	35.001	4.522	-44.181	101.150	-31.221	-45.341	-38.512	56.700	6.007	-42.589	-39.057	-35.097	-30.729	243.860	-34.533	-8191	255	
837.666	1	1	0	0	0.24754	0.089207	0.26617	0.17826	0.031231	0.067913	0.24144	0.15172	0.26868	0.097026	0.19569	0.15248	0.13275	0.16583	0.13127	0.19081	-1.675	-2.8438	-2.1375	-2.3875	-2.6813	-1.9375	-2.7292	-2.4292	-1.9562	-3.0187	-1.9896	-2.2479	-2.7438	-2.0958	-2.4792	-2.4979	187.163	-3.896	134.508	30.023	88.449	128.315	171.884	259.837	185.216	277.538	200.346	31.521	35.679	259.449	203.678	60.961	0.00010554	0.00048047	0.00024871	187.83	2.8027e-06	5.4274e-06	191.68	74.558	6.292e-06	3.1978e-06	82.654	28.425	29.468	12.689	1.1888e-05	11.095	0.0006678	0.00069129	0.00019253	240.82	7.5333e-06	7.5604e-06	238.48	91.09	7.5323e-06	7.5785e-06	108.23	37.876	46.776	15.316	7.6125e-06	14.867	270.639	12.680	183.405	-44.559	97.738	173.042	-45.643	-38.526	211.689	-37.124	-42.108	-37.929	-34.237	-30.375	303.124	-35.063	-8191	255	
837.762	1	1	0	0	0.20293	0.2129	0.20799	0.022128	0.11252	0.2714	0.15473	0.10464	0.32983	0.23885	0.074608	0.20603	0.081121	0.13228	0.16438	0.22204	-1.7667	-2.7646	-2.0438	-2.2667	-2.6667	-2.0563	-2.5667	-2.4938	-2.1813	-2.7125	-2.3021	-2.2021	-2.7292	-2.0812	-2.4896	-2.8208	-19.677	16.027	160.822	19.251	69.138	-43.145	137.197	35.050	162.226	67.537	268.532	279.916	259.624	39.984	256.820	222.419	3.5511e-05	0.00068643	9.4781e-05	186.05	5.1113e-06	3.8197e-06	194.6	74.717	9.2858e-06	2.7695e-06	82.423	28.617	30.123	12.789	9.031e-07	11.191	0.00067368	0.00069665	0.00019246	241.07	7.656e-06	7.5619e-06	240.09	91.519	7.5759e-06	7.6738e-06	108.83	38.128	47.066	15.289	7.5844e-06	14.871	187.189	116.935	253.299	-43.688	35.283	-13.483	-45.829	-38.951	216.894	215.643	-43.301	-38.918	-35.808	-30.735	53.316	-35.823	-8191	255	
837.858	1	1	0	0	0.308	0.081209	0.25683	0.036367	0.25333	0.3734	0.13564	0.10708	0.45821	0.19355	0.16726	0.20328	0.23381	0.10807	0.1204	0.23599	-1.675	-2.875	-2.3875	-2.0625	-2.7604	-2.2292	-2.5417	-2.8688	-1.9979	-2.7333	-2.5771	-1.9792	-2.6333	-2.0625	-2.4125	-2.9646	-42.854	279.103	242.204	133.389	264.674	-22.740	221.867	175.753	-7.787	108.934	-1.303	-32.109	272.008	229.170	259.325	132.269	7.1179e-05	0.00038177	7.1734e-05	186.99	4.79e-06	4.7694e-06	194.37	74.432	4.8905e-06	6.3849e-06	83.471	28.805	29.894	12.696	8.1604e-06	11.038	0.0006761	0.0006915	0.00019192	240.56	7.5914e-06	7.6171e-06	239.21	91.667	7.5853e-06	7.5938e-06	108.91	38.083	47.234	15.264	7.5723e-06	14.834	46.645	124.945	210.046	-43.850	-40.575	67.811	-45.626	-38.527	272.099	-15.040	-42.512	-38.819	-33.668	-31.176	163.361	-36.010	-8191	255	
837.955	1	1	0	0	0.11854	0.092224	0.13604	0.12818	0.17267	0.43359	0.093389	0.070066	0.10545	0.19232	0.060029	0.13454	0.29764	0.27032	0.1185	0.21514	-1.6979	-2.6625	-2.5292	-2.1167	-2.9625	-2.1979	-2.3458	-2.7583	-1.9875	-2.5833	-2.65	-2.1333	-2.6833	-2.1667	-2.3479	-2.7229	16.499	79.591	88.042	143.450	9.879	14.019	22.470	238.432	-47.729	250.354	258.527	90.804	248.692	-9.333	-23.754	-46.242	6.9426e-05	0.0006297	0.00015375	185.6	4.9593e-06	6.5714e-06	195.03	74.106	6.5702e-06	6.064e-06	82.695	27.773	30.39	12.78	7.7725e-06	11.15	0.00067621	0.00069629	0.00019245	241.02	7.6089e-06	7.6019e-06	239.76	91.618	7.5892e-06	7.6246e-06	108.53	37.956	46.879	15.266	7.5302e-06	14.899	66.486	-35.442	300.815	-43.873	0.353	38.576	-45.947	-38.756	126.816	25.974	-43.540	-38.596	-34.869	-30.678	95.944	-35.872	-8191	255	
838.051	1	1	0	0	0.29279	0.1585	0.089695	0.19526	0.19902	0.23118	0.21276	0.10537	0.18181	0.26405	0.10889	0.10373	0.2159	0.25293	0.20956	0.069342	-1.6771	-2.4813	-2.4771	-2.1063	-2.8167	-2.2771	-2.2313	-2.6479	-2.0646	-2.525	-2.7979	-2.0292	-2.7292	-2.4146	-2.0812	-2.8292	61.530	300.905	40.366	261.402	82.254	106.348	59.023	142.771	276.035	272.952	-15.133	-24.763	113.198	155.610	270.142	2.562	4.4457e-05	0.00068051	8.2709e-05	186.33	4.7742e-06	7.6849e-06	192.53	75.278	2.3693e-07	1.2406e-06	82.454	28.975	30.023	12.829	2.4347e-06	11.204	0.0006733	0.00069271	0.0001926	241.24	7.616e-06	7.5694e-06	239.45	91.979	7.543e-06	7.5783e-06	109.11	38.254	46.937	15.275	7.5733e-06	14.959	218.039	-0.933	-11.767	-44.206	151.169	288.425	-45.668	-38.729	246.864	292.960	-42.378	-38.443	-35.119	-30.769	63.364	-35.341	-8191	255	
838.171	1	1	0	0	0.29744	0.10345	0.19004	0.098545	0.09503	0.065184	0.056957	0.25838	0.21459	0.20779	0.13631	0.17135	0.038938	0.2658	0.32439	0.070721	-1.9646	-2.3063	-2.8	-2.0062	-2.7292	-2.4042	-2.1583	-2.7792	-2.1417	-2.4125	-2.8354	-2.0479	-2.5646	-2.5417	-1.8917	-2.7104	138.106	252.218	126.510	164.179	203.038	232.810	-36.882	208.294	54.339	64.921	69.972	66.237	201.730	119.016	61.578	29.401	0.00011556	0.00033381	0.00013701	188.22	4.0125e-06	7.2102e-06	198.11	76.37	3.2329e-06	4.0672e-06	84.046	29.25	30.553	12.751	8.3317e-06	11.165	0.00067107	0.0006866	0.00019266	241.88	7.5741e-06	7.6046e-06	241.53	92.717	7.5645e-06	7.5841e-06	110.07	38.305	47.142	15.403	7.6305e-06	15.004	189.032	32.657	203.821	-44.184	70.558	78.774	-45.681	-38.371	7.434	-6.589	-41.739	-38.749	-34.044	-30.594	50.224	-35.344	-8191	255	
838.267	1	1	0	0	0.34688	0.14982	0.1654	0.29462	0.16668	0.21963	0.097838	0.29706	0.14736	0.067828	0.13769	0.21919	0.28368	0.03704	0.25071	0.22106	-1.8042	-2.2062	-2.8729	-2.0875	-2.6854	-2.5792	-1.9333	-2.7292	-2.1979	-2.2021	-3.1125	-2.0062	-2.6	-2.5979	-1.8896	-2.825	-1.686	-48.029	158.147	-20.736	179.709	14.412	108.184	240.798	242.110	90.029	-27.974	258.604	188.157	16.606	301.667	222.447	0.0001119	0.00048892	0.00020112	186.32	7.6333e-06	6.0976e-06	195.07	74.682	5.6853e-06	2.0973e-06	84.5	28.607	29.741	12.788	1.209e-05	11.023	0.00067126	0.00069614	0.00019459	241.66	7.6412e-06	7.5721e-06	240.58	92.315	7.5817e-06	7.6324e-06	109.64	38.209	47.085	15.33	7.578e-06	14.913	247.381	215.593	107.162	-44.337	79.238	-12.619	-46.063	-39.026	136.646	267.452	-42.811	-38.598	-35.080	-30.809	-0.879	-35.114	-8191	255	
838.364	1	1	0	0	0.099196	0.12756	0.23532	0.22355	0.1462	0.039003	0.26638	0.20771	0.12714	0.24523	0.19995	0.13574	0.02434	0.19167	0.18577	0.055626	-1.8979	-2.0896	-2.8729	-2.0125	-2.4167	-2.65	-2.0146	-2.75	-2.3563	-2.4042	-2.8167	-2.1583	-2.2583	-2.7917	-2.1312	-2.7521	-0.526	-46.372	36.966	196.206	260.759	-15.384	-11.301	-42.352	-9.144	134.306	177.291	268.340	179.056	166.445	23.059	254.292	2.0762e-05	6.6843e-05	0.00010127	186.62	2.8453e-06	4.8294e-06	194.66	75.523	2.3043e-06	7.4196e-06	84.304	28.796	29.865	12.747	6.6204e-06	10.872	0.00067267	0.00069134	0.00019454	240.81	7.6275e-06	7.5897e-06	239.9	92.331	7.5686e-06	7.5832e-06	109.67	38.108	47.112	15.354	7.6176e-06	14.915	91.876	111.364	8.724	-44.393	30.128	178.626	-45.038	-39.001	277.365	98.770	-42.402	-39.100	-34.042	-30.106	18.094	-35.080	-8191	255	
838.460	1	1	0	0	0.11189	0.27526	0.1378	0.080378	0.26353	0.17306	0.12615	0.11222	0.19176	0.19183	0.074761	0.18412	0.18326	0.15324	0.11277	0.16287	-2.0125	-2.1625	-2.6562	-2.1125	-2.5667	-2.8896	-2.0333	-2.775	-2.5479	-2.1146	-2.7625	-2.3979	-2.3917	-2.8792	-2.0062	-2.8063	135.042	164.734	299.840	194.315	-52.098	298.789	211.848	246.596	184.094	241.788	234.406	165.612	130.315	-54.876	172.249	258.487	7.1176e-05	0.00047962	4.6717e-05	186.7	6.3003e-06	9.1198e-06	196.19	75.221	6.4756e-06	5.3887e-06	83.806	28.55	29.791	12.792	8.43e-06	11.026	0.00067285	0.00069548	0.00019392	241.2	7.6042e-06	7.5985e-06	241.5	92.064	7.5417e-06	7.5481e-06	109.89	38.209	46.929	15.327	7.64e-06	14.92	182.699	161.784	53.156	-43.929	12.221	265.037	-45.502	-38.744	259.040	115.350	-42.880	-39.267	-34.861	-30.297	-7.774	-34.933	-8191	255	
838.554	1	1	0	0	0.05564	0.20914	0.1091	0.19734	0.33664	0.29736	0.064524	0.21189	0.13868	0.092972	0.08451	0.19756	0.13646	0.26393	0.11268	0.1818	-2.35	-2.0333	-2.8979	-2.2438	-2.2354	-2.8625	-2.1854	-2.3958	-2.6979	-2.0729	-2.8354	-2.2958	-2.0854	-2.8708	-2.1188	-2.4938	40.451	-25.730	-17.439	226.083	177.055	301.023	209.943	255.885	-5.791	301.195	155.639	221.019	-32.198	43.039	256.754	201.960	7.7634e-05	0.00049386	0.00026099	188.55	1.4412e-06	4.8327e-06	194.81	75.816	3.9919e-06	8.3386e-06	84.47	28.429	29.885	12.662	6.9474e-06	10.969	0.00067796	0.0006982	0.00019592	242.08	7.6492e-06	7.7235e-06	243.72	92.502	7.6608e-06	7.6598e-06	110.84	38.35	47.238	15.322	7.6826e-06	14.879	112.383	109.629	-32.124	-43.995	-54.037	96.843	-45.803	-38.587	273.233	109.482	-42.683	-38.882	-33.811	-30.583	37.193	-34.885	-8191	255	
838.650	1	1	0	0	0.023564	0.078982	0.24012	0.12188	0.12396	0.14897	0.202	0.31551	0.17225	0.20007	0.14759	0.0046572	0.16479	0.18035	0.13313	0.20733	-2.3396	-2.0312	-2.6646	-2.575	-1.9667	-2.8021	-2.3187	-2.5312	-2.8104	-1.9833	-2.6479	-2.4979	-2.0583	-2.8833	-2.1833	-2.3771	-50.078	175.939	107.727	223.277	14.928	291.292	299.112	239.824	115.356	202.934	151.228	294.694	289.777	-0.543	159.818	33.079	0.00010355	0.00050675	4.5729e-05	187.85	1.0128e-05	5.985e-06	195.82	75.406	1.5972e-06	2.933e-06	85.322	28.695	29.362	12.441	4.2568e-06	10.906	0.00068442	0.00070054	0.00019681	243.4	7.7192e-06	7.7809e-06	243.81	92.488	7.7404e-06	7.7339e-06	110.64	38.144	46.68	15.154	7.7068e-06	14.795	150.953	-50.128	58.100	-44.039	116.689	187.556	-45.408	-38.305	122.998	80.429	-42.760	-39.115	-34.356	-30.116	-13.356	-35.076	-8191	255	
838.746	1	1	0	0	0.17725	0.30362	0.14552	0.060452	0.19806	0.19643	0.10888	0.076947	0.073449	0.074691	0.24849	0.19114	0.14587	0.056593	0.20965	0.12464	-2.3396	-1.9542	-2.6833	-2.4958	-2.0125	-2.9188	-2.2146	-2.2458	-2.8375	-2.1021	-2.4583	-2.5708	-1.9521	-2.9208	-2.2938	-2.3688	244.961	241.053	21.820	94.271	299.725	31.496	108.632	100.823	116.829	284.809	188.598	218.037	-13.450	81.738	217.877	237.126	7.1193e-05	0.00024719	0.00010546	187.89	1.3461e-05	8.1942e-06	202.12	74.782	1.7439e-06	2.5736e-06	85.308	28.457	29.213	12.437	1.0773e-05	10.89	0.00068896	0.00070747	0.00019706	243.02	7.8084e-06	7.7923e-06	246.5	92.838	7.8365e-06	7.7949e-06	111.63	38.179	47.196	15.152	7.7793e-06	14.732	143.357	51.699	254.742	-44.409	-34.154	126.036	-45.736	-39.197	253.363	176.442	-42.502	-38.538	-35.198	-30.452	166.944	-34.717	-8191	255	
838.843	1	1	0	0	0.16973	0.2974	0.28056	0.32378	0.14963	0.18237	0.097236	0.13267	0.11059	0.079685	0.18607	0.16314	0.01177	0.22439	0.27981	0.10741	-2.75	-2.1375	-2.4479	-2.7229	-2.0083	-2.6604	-2.3083	-2.2	-2.8438	-2.1479	-2.5125	-2.7438	-2.1021	-2.7458	-2.3625	-2.225	111.275	-19.567	242.463	-42.020	4.503	258.517	67.761	-1.327	145.821	234.214	200.963	286.848	82.244	289.238	22.231	164.878	0.00010977	0.0006692	6.6458e-05	190.65	6.5502e-06	3.433e-06	203.6	76.547	4.8916e-06	5.2928e-06	85.846	28.609	29.231	12.264	1.3137e-05	10.687	0.00069877	0.00071445	0.00020003	246.82	7.8117e-06	7.8336e-06	250.4	93.987	7.877e-06	7.8106e-06	112.35	38.405	47.454	15.028	7.814e-06	14.722	133.923	290.097	232.345	-44.018	10.810	-14.451	-46.050	-38.877	112.558	245.761	-42.697	-39.270	-34.115	-30.040	35.051	-34.710	-8191	255	
838.963	1	1	0	0	0.18698	0.078355	0.080268	0.29179	0.21554	0.064144	0.16623	0.083255	0.15689	0.15682	0.068142	0.25963	0.34014	0.30289	0.083014	0.1639	-2.5396	-2.0625	-2.4708	-2.7583	-2.0792	-2.7292	-2.7083	-2.0125	-2.7542	-2.2	-2.2979	-2.7396	-1.8958	-2.5146	-2.6312	-2.175	-7.744	61.745	276.674	251.416	257.103	-26.400	223.007	-38.299	46.936	-19.223	278.292	229.621	130.345	262.937	47.115	161.927	0.00011448	0.0012664	0.000131	190.84	2.1245e-06	5.5296e-06	203.57	76.562	6.2854e-06	3.9938e-06	85.542	27.972	29.28	12.325	9.2624e-06	10.72	0.0007032	0.00071479	0.0002005	247.58	7.857e-06	7.8381e-06	251.09	93.533	7.9317e-06	7.8025e-06	112.17	38.168	47.416	15.014	7.8135e-06	14.549	52.939	-51.989	-41.821	-44.314	224.852	235.650	-45.542	-38.175	34.007	22.305	-42.868	-38.679	-33.927	-30.595	87.598	-35.814	-8191	255	
839.059	1	1	0	0	0.19632	0.13013	0.15125	0.049508	0.18822	0.29564	0.20864	0.19641	0.27042	0.21641	0.05785	0.11311	0.21332	0.032911	0.031518	0.10229	-2.4917	-2.1271	-2.2292	-2.9604	-2.1417	-2.4917	-2.625	-1.9708	-2.7625	-2.3333	-2.3458	-2.6771	-2.1458	-2.6375	-2.7167	-2.0458	217.771	206.449	243.768	238.025	-2.538	99.216	227.553	268.007	-46.764	100.420	-21.375	128.131	300.163	123.849	220.556	131.141	4.4498e-05	0.00016752	0.00017852	188.13	3.8336e-06	7.0784e-06	203.23	75.762	1.5468e-06	8.3538e-06	85.824	28.16	28.635	12.086	5.3189e-06	10.655	0.0007004	0.00071461	0.00020163	245.98	7.8858e-06	7.9602e-06	250.99	93.544	7.9034e-06	7.8984e-06	111.74	38.053	47.081	14.85	7.8714e-06	14.541	300.786	97.311	103.755	-44.414	-55.449	3.047	-46.204	-39.045	208.574	100.684	-42.422	-38.339	-34.492	-30.310	24.346	-35.043	-8191	255	
839.156	1	1	0	0	0.059567	0.068119	0.1497	0.19574	0.19135	0.16114	0.10791	0.10792	0.26852	0.27856	0.085343	0.19722	0.32521	0.25129	0.12327	0.2006	-2.2854	-2.4583	-2.2458	-2.7417	-2.15	-2.6354	-2.8812	-2.2833	-2.6271	-2.4938	-2.2812	-2.8875	-2.2604	-2.2562	-2.8292	-1.9208	89.255	270.618	-46.532	143.743	197.401	159.901	5.884	-4.275	274.230	84.190	47.478	175.856	255.208	62.930	74.246	286.221	0.00014863	0.00013246	0.00017179	188.71	7.3479e-06	2.4985e-06	206.03	76.327	4.3347e-06	2.2397e-06	85.712	28.266	28.677	12.09	7.5555e-06	10.513	0.00070401	0.0007174	0.00020274	246.19	7.8257e-06	7.9571e-06	254.09	93.72	7.8872e-06	7.9012e-06	112.73	38.075	47.187	14.884	7.9887e-06	14.467	166.424	22.804	269.403	-43.484	115.565	19.266	-45.783	-38.743	240.660	-46.172	-42.916	-39.332	-34.734	-30.434	1.652	-34.900	-8191	255	
839.252	1	1	0	0	0.19826	0.067768	0.15575	0.30931	0.21279	0.154	0.065457	0.085759	0.16485	0.15142	0.16807	0.17539	0.26198	0.053812	0.10608	0.12319	-2.4062	-2.5563	-2.1354	-2.7771	-2.0833	-2.1771	-2.8729	-2.0333	-2.5917	-2.6042	-1.9396	-2.6292	-2.3063	-2.3833	-2.85	-2.3333	-28.884	266.313	75.600	243.167	283.453	271.590	160.531	157.380	297.547	-11.683	-21.169	30.389	134.304	172.238	275.065	112.039	0.00023873	0.00071338	0.00036687	190.84	1.0831e-05	9.1959e-06	204.98	76.687	1.8219e-06	1.56e-06	86.654	28.346	29.799	12.063	7.3901e-06	10.367	0.00070633	0.00073	0.00020097	247.76	7.929e-06	7.9849e-06	255.54	93.913	7.9478e-06	8.0004e-06	113.28	38.399	47.359	14.844	8.0383e-06	14.485	262.072	122.604	27.168	-44.043	-9.829	200.045	-46.052	-38.760	24.285	-10.348	-41.895	-38.426	-35.179	-30.104	115.963	-34.700	-8191	255	
839.348	1	1	0	0	0.09867	0.2872	0.17799	0.11449	0.23967	0.089597	0.18722	0.10108	0.15495	0.22111	0.2091	0.23751	0.031888	0.47176	0.12834	0.3579	-2.1083	-2.4854	-2.0667	-2.9875	-2.2792	-2.25	-2.8104	-2.0667	-2.4521	-2.8104	-2.0979	-2.5708	-2.2333	-2.2104	-2.8167	-2.2583	247.198	68.012	285.150	235.804	52.851	97.142	198.861	56.674	73.479	117.159	220.602	36.462	86.879	299.503	219.074	-42.418	0.00011994	0.00094142	0.00010596	190.55	5.5111e-06	6.7555e-06	205.1	76.681	5.0918e-06	1.0194e-05	86.742	27.831	28.499	11.944	2.7003e-06	10.219	0.00070419	0.0007283	0.0002035	247.82	7.9613e-06	8.0566e-06	255.27	94.062	8.0069e-06	8.0518e-06	113.26	38.102	47.288	14.774	8.1184e-06	14.412	141.096	43.577	162.679	-43.908	9.291	49.549	-45.315	-38.148	96.025	83.584	-42.137	-38.054	-33.948	-30.145	257.830	-34.647	-8191	255	
839.444	1	1	0	0	0.13066	0.21096	0.22634	0.18791	0.086898	0.085544	0.21538	0.098297	0.2769	0.13199	0.13523	0.020019	0.066115	0.24258	0.26108	0.088691	-2.1125	-2.6625	-2	-2.7958	-2.5125	-2.1562	-2.7146	-2.3396	-2.3083	-2.6917	-2.0625	-2.8063	-2.3146	-2.2083	-2.9854	-2.4167	-33.614	201.782	142.888	88.269	229.036	-54.030	213.130	117.830	217.564	65.415	136.635	97.885	247.314	299.434	99.274	219.974	0.00010377	0.00042983	0.00012735	187.55	7.6842e-06	7.5718e-06	208.28	75.741	4.4684e-06	3.7876e-06	85.416	27.36	28.681	11.846	5.7769e-06	10.015	0.00071892	0.00073665	0.00020576	247.84	8.0802e-06	8.0529e-06	257.46	93.869	8.1073e-06	8.1894e-06	113.33	37.904	47.605	14.763	8.195e-06	14.324	168.231	13.419	88.524	-43.986	199.838	291.413	-46.037	-38.466	31.599	133.729	-42.370	-38.752	-34.053	-30.611	237.023	-34.841	-8191	255	
839.540	1	1	0	0	0.11517	0.2495	0.26342	0.038877	0.011606	0.086989	0.13526	0.2532	0.21856	0.094468	0.13485	0.22412	0.23274	0.070656	0.17356	0.090681	-1.8417	-2.6771	-1.7687	-2.6104	-2.5938	-2.1354	-2.825	-2.2958	-2.2271	-2.8479	-2.2375	-2.5125	-2.7667	-1.9813	-2.8375	-2.3167	48.515	57.035	154.415	247.855	-1.125	39.169	49.754	193.476	-28.413	273.917	49.420	221.222	138.763	62.515	268.709	3.493	4.5098e-05	0.00034726	7.3884e-05	191.86	7.5108e-06	7.3874e-06	209.75	76.181	8.3616e-06	6.8447e-06	88.158	27.508	28.486	11.772	6.9257e-06	10.32	0.00071406	0.00073566	0.00020508	248.71	8.0554e-06	8.0904e-06	258.21	94.263	8.0454e-06	8.0861e-06	113.56	37.851	47.279	14.643	8.0578e-06	14.279	194.272	303.307	80.456	-44.430	108.501	206.527	-45.585	-38.374	69.632	46.972	-42.685	-38.694	-34.496	-29.928	294.564	-35.988	-8191	255	
839.659	1	1	0	0	0.13436	0.05249	0.26635	0.075271	0.24151	0.070424	0.18073	0.27644	0.083149	0.21939	0.043878	0.079233	0.18237	0.27453	0.18783	0.11028	-1.8896	-2.7042	-2.0917	-2.4958	-2.7812	-2.1646	-2.7958	-2.5312	-2.275	-2.8708	-2.1417	-2.4417	-2.6229	-2.1833	-2.7521	-2.3604	296.617	113.535	287.152	18.664	232.853	17.538	10.515	55.765	155.684	46.174	242.528	99.453	207.477	-43.078	108.467	165.509	6.3648e-05	0.00055405	6.3431e-05	190.64	4.9287e-06	1.2662e-05	208.16	76.066	9.1934e-06	1.0725e-05	86.881	27.462	28.804	11.584	4.1192e-06	10.126	0.00070986	0.00073708	0.0002017	248.44	8.0703e-06	7.994e-06	259.38	94.403	7.992e-06	8.1256e-06	113.87	37.981	47.285	14.573	8.0535e-06	14.188	182.226	-5.174	64.740	-44.074	265.358	235.022	-44.827	-38.850	52.622	58.128	-42.874	-38.414	-34.951	-30.278	30.504	-34.471	-8191	255	
839.755	1	1	0	0	0.059147	0.1289	0.086023	0.10176	0.12507	0.053422	0.19899	0.14733	0.1927	0.080349	0.092335	0.14953	0.29213	0.17939	0.13476	0.095614	-1.6646	-2.7375	-2.0938	-2.3896	-2.9333	-2.0833	-2.5604	-2.4958	-1.9167	-3.0583	-2.1854	-2.3667	-2.725	-2.0417	-2.4917	-2.7812	196.846	38.592	97.961	58.591	39.921	191.699	138.231	-27.614	79.489	45.823	7.802	288.179	-49.637	-28.663	-55.649	139.956	6.4077e-05	0.00067806	0.00015621	190.21	3.7792e-06	6.8642e-06	206.22	75.495	7.1675e-07	9.5824e-06	85.524	27.176	28.983	11.567	1.1564e-05	9.9861	0.0007141	0.00074271	0.00020486	248.34	8.1089e-06	8.0652e-06	257.19	94.007	8.1825e-06	8.1407e-06	113.07	37.546	47.242	14.479	8.0994e-06	14.127	3.582	204.964	210.953	-43.987	138.398	236.570	-45.720	-38.449	-9.777	221.978	-42.522	-38.393	-34.932	-29.726	281.425	-35.742	-8191	255	
839.829	1	1	0	0	0.19333	0.089561	0.077895	0.16473	0.17069	0.21469	0.10237	0.22359	0.3951	0.20735	0.28321	0.093687	0.14819	0.28605	0.2584	0.018209	-1.7792	-2.8396	-2.1521	-2.0167	-2.7354	-2.1562	-2.575	-2.625	-1.9937	-2.7167	-2.3146	-2.2896	-2.7083	-1.9396	-2.6312	-2.8917	184.351	164.945	-2.104	68.616	194.115	209.940	-42.795	172.550	222.324	272.918	201.860	103.404	-12.750	288.227	108.677	19.356	2.9579e-05	0.00056682	6.5531e-05	191.15	3.5884e-06	1.254e-05	206.83	75.577	9.1448e-07	9.9753e-06	84.287	27.2	28.888	11.54	3.1791e-06	9.9286	0.00071454	0.0007343	0.0002048	248.57	8.1527e-06	8.0633e-06	257.04	93.678	8.0592e-06	8.0549e-06	112.64	37.502	47.222	14.449	8.0781e-06	14.103	300.586	233.865	118.878	-44.051	261.569	83.573	-45.517	-38.595	72.643	6.936	-42.230	-38.281	-34.885	-29.988	10.501	-35.034	-8191	255	
839.947	1	1	0	0	0.18972	0.17767	0.12595	0.15835	0.2252	0.1433	0.31971	0.12602	0.25926	0.1767	0.39446	0.31172	0.22141	0.23348	0.15196	0.10739	-1.6771	-2.8708	-2.4083	-2.2313	-2.9875	-2.2917	-2.4104	-2.8208	-2.3083	-2.775	-2.4375	-2.1271	-2.8583	-2.2938	-2.2875	-3	296.990	139.554	163.550	208.300	64.133	39.315	197.216	282.991	122.060	275.812	270.766	9.056	250.050	-36.404	195.356	188.438	6.4547e-05	0.00026195	3.0765e-05	189.76	6.0272e-06	5.3145e-06	207.79	75.988	6.9296e-06	6.3108e-06	85.079	27.019	28.862	11.611	6.5227e-06	9.9269	0.00071669	0.00073594	0.00020528	248.25	8.0427e-06	8.0879e-06	257.45	94.294	8.0599e-06	8.0982e-06	113.65	37.517	47.334	14.457	8.1181e-06	14.109	246.129	-24.105	174.355	-43.842	40.172	108.459	-45.798	-38.140	15.728	85.864	-43.094	-38.346	-33.615	-30.175	-47.879	-35.105	-8191	255	
840.044	1	1	0	0	0.22476	0.23388	0.06387	0.32178	0.046907	0.19929	0.20092	0.093658	0.22282	0.099124	0.21366	0.34431	0.11616	0.19105	0.085354	0.21428	-1.5438	-2.6688	-2.65	-2.0417	-2.9	-2.4271	-2.4083	-2.7375	-2.1854	-2.6354	-2.6417	-2.1542	-2.6792	-2.2708	-2.1833	-2.9313	117.045	-34.162	157.335	261.327	280.674	35.946	189.561	-54.599	58.051	107.275	-27.165	-46.055	-14.192	301.518	-4.534	-42.469	0.00016014	0.00061195	4.0313e-05	190.4	5.0475e-06	6.9425e-06	208.69	75.721	4.1676e-06	5.5174e-06	85.066	26.895	28.413	11.308	1.6332e-06	9.7259	0.00071512	0.00073856	0.00020654	248.94	8.1166e-06	8.0657e-06	257.74	93.95	7.9844e-06	8.0848e-06	112.51	37.194	46.813	14.273	8.1031e-06	13.976	-33.190	79.227	192.185	-43.603	-10.751	20.855	-45.093	-38.353	170.649	58.896	-42.234	-39.243	-34.514	-30.690	181.357	-35.206	-8191	255	
840.140	1	1	0	0	0.35867	0.10471	0.053811	0.20437	0.22429	0.14098	0.084867	0.36826	0.23438	0.047222	0.21884	0.15928	0.071413	0.15923	0.071422	0.12189	-1.9542	-2.6667	-2.5771	-2.1458	-2.8854	-2.3854	-2.1208	-2.9688	-2.1333	-2.4583	-2.7229	-1.9917	-2.8125	-2.6479	-2.0396	-2.85	56.436	55.217	124.009	138.806	209.115	17.514	258.828	-21.025	-29.589	192.251	183.628	25.663	103.997	81.929	7.684	197.100	4.7435e-05	0.00024953	0.00019355	188.68	4.958e-06	5.9525e-06	206.26	75.357	7.5685e-06	6.2613e-06	84.331	26.639	28.613	11.389	1.3616e-05	9.6067	0.00071358	0.00074071	0.00020678	246.83	8.0856e-06	8.1396e-06	255	93.335	8.0202e-06	8.124e-06	112.03	36.723	46.921	14.201	8.1397e-06	13.887	89.638	20.347	222.384	-43.793	167.825	291.207	-45.833	-38.054	261.771	5.739	-42.311	-39.480	-33.601	-30.853	-26.003	-34.974	-8191	255	
840.260	1	1	0	0	0.20943	0.18584	0.17927	0.071515	0.03697	0.07925	0.21448	0.32428	0.18436	0.18945	0.16354	0.086275	0.11384	0.069547	0.13076	0.15062	-1.8875	-2.3812	-2.8958	-2.1562	-2.6625	-2.5979	-2.1271	-2.7854	-2.2354	-2.2812	-2.8208	-2.1521	-2.6688	-2.6771	-2.15	-3.0708	94.117	8.120	68.735	303.611	281.061	-21.256	249.032	236.041	150.872	245.582	-47.867	302.283	116.953	281.954	268.288	225.005	0.00013452	0.00018446	9.8343e-05	186.95	5.1381e-06	1.3709e-05	209.45	75.981	7.5787e-07	5.9627e-06	85.335	26.479	27.561	11.27	6.2063e-06	9.4667	0.00071803	0.00073955	0.00020671	246.49	8.0608e-06	8.0909e-06	256.6	94	8.0179e-06	8.2069e-06	112.34	36.878	46.788	14.171	8.0811e-06	13.795	-52.531	-54.605	6.316	-43.392	286.546	297.040	-45.739	-38.253	255.009	102.415	-42.079	-38.710	-33.968	-29.897	214.391	-34.358	-8191	255	
840.357	1	1	0	0	0.36607	0.19114	0.073896	0.086316	0.15917	0.18152	0.14224	0.16697	0.076962	0.2448	0.11127	0.13521	0.14583	0.20808	0.19926	0.095016	-1.8937	-2.3646	-2.8021	-2.0125	-2.5292	-2.9146	-2.1854	-2.8729	-2.3771	-2.0604	-3.0271	-1.9667	-2.6063	-2.6896	-2.0229	-3.0187	185.474	203.608	138.406	164.410	44.669	22.661	300.836	112.300	73.900	25.334	101.373	198.294	197.648	217.873	207.707	92.542	9.5608e-05	0.00052442	0.0001873	188.5	3.5189e-06	7.9311e-06	207.48	74.611	1.1234e-05	1.2558e-06	83.721	26.332	27.557	11.129	5.8067e-06	9.6222	0.00071844	0.0007427	0.00020626	248.23	8.1076e-06	8.13e-06	257.2	93.473	8.097e-06	8.1897e-06	112.21	36.792	46.615	14.155	8.1249e-06	13.78	53.215	41.652	189.053	-43.937	10.387	150.404	-45.997	-38.962	74.115	181.426	-42.559	-38.217	-33.811	-30.383	253.173	-34.611	-8191	255	
840.453	1	1	0	0	0.14581	0.035707	0.23619	0.041213	0.19702	0.10136	0.12745	0.13091	0.13766	0.1039	0.091235	0.081395	0.060973	0.22343	0.18128	0.24696	-1.9083	-1.9271	-2.9354	-2.1229	-2.3812	-2.7729	-2.1792	-2.8312	-2.3396	-2.0667	-2.9062	-1.9583	-2.3	-2.8438	-2.0542	-2.6417	78.775	9.241	178.731	14.443	263.350	218.409	83.766	219.440	252.971	138.610	289.779	-14.510	218.850	-55.083	-14.706	171.901	6.6151e-05	0.00086805	0.00031508	186.29	4.7751e-06	5.3409e-06	204.79	74.71	4.4334e-06	5.0497e-06	82.03	25.734	27.745	11.075	4.5107e-06	9.5318	0.00072402	0.00073949	0.00020644	245.95	8.1468e-06	8.1849e-06	252.98	92.924	8.07e-06	8.0777e-06	111.01	36.477	46.291	14.039	8.0514e-06	13.682	300.507	76.612	126.747	-43.503	190.392	-10.423	-45.771	-38.353	75.340	258.300	-41.823	-38.763	-34.531	-29.881	-17.392	-35.069	-8191	255	
840.524	1	1	0	0	0.16529	0.26836	0.05182	0.17521	0.34517	0.18069	0.098968	0.22873	0.04787	0.16833	0.18383	0.042268	0.1391	0.18999	0.094564	0.21262	-2.0438	-2.1792	-2.8771	-2.1875	-2.3792	-2.9229	-2.1021	-2.7625	-2.5292	-1.9667	-2.9458	-2.2812	-2.2625	-2.7708	-2.0563	-2.5021	72.036	-32.733	213.775	31.885	109.645	296.232	-52.371	198.949	-43.166	2.558	-20.933	128.694	-20.823	104.373	15.780	279.074	0.00010697	0.00036362	8.7344e-05	187.7	6.2027e-06	8.615e-06	206.56	73.532	3.8129e-06	9.19e-07	82.243	25.712	27.85	11.208	6.9017e-06	9.4486	0.00071694	0.00073605	0.00020526	245.55	8.0495e-06	8.1545e-06	253.41	92.668	8.114e-06	8.1055e-06	111.15	36.335	46.473	14.122	8.0674e-06	13.752	119.442	225.790	50.335	-43.731	133.777	231.779	-45.052	-38.171	125.114	119.942	-41.973	-38.351	-35.584	-30.030	268.745	-34.869	-8191	255	
840.621	1	1	0	0	0.25643	0.065955	0.089678	0.27085	0.04228	0.3242	0.20858	0.28537	0.2621	0.013331	0.13407	0.17051	0.17623	0.24209	0.17766	0.3044	-2.1521	-2.1312	-2.6354	-2.2812	-2.1063	-2.8875	-2.0583	-2.4333	-2.7271	-1.9729	-2.8417	-2.325	-2.175	-2.8729	-2.1021	-2.4958	224.477	257.337	137.909	189.095	22.363	280.651	216.560	146.920	90.486	270.265	57.654	193.637	144.231	108.085	218.675	251.288	0.00018045	0.0011062	0.00023246	187.76	4.0048e-06	2.9221e-06	204	74.362	4.3149e-06	1.273e-05	84.218	25.743	27.6	11.276	7.3499e-06	9.6139	0.0007194	0.00073473	0.00020635	246.56	8.1372e-06	8.1346e-06	253.32	92.863	8.0622e-06	8.0479e-06	111.93	36.646	46.506	14.152	7.9893e-06	13.777	207.612	56.520	292.422	-44.131	188.899	178.252	-45.644	-37.946	8.781	49.935	-42.041	-38.415	-34.479	-30.290	109.243	-34.018	-8191	255	
840.739	1	1	0	0	0.20717	0.24462	0.095801	0.14487	0.17518	0.21958	0.14505	0.066799	0.10031	0.18938	0.11975	0.12986	0.087658	0.23907	0.32567	0.19752	-2.4562	-1.8667	-2.6396	-2.2687	-2.1458	-2.9125	-2.3083	-2.2917	-2.7021	-1.8979	-2.7896	-2.4167	-2.0896	-2.9479	-2.2208	-2.1792	68.624	234.815	53.242	199.181	218.519	176.519	-33.526	245.102	178.314	217.639	178.353	-46.876	154.251	-14.257	2.829	56.849	9.966e-05	0.00037564	0.00031196	188.56	5.6418e-06	4.8949e-06	203.39	73.819	1.5891e-06	5.0336e-06	83.089	26.022	27.283	11.248	2.0847e-06	9.5902	0.00072219	0.00073321	0.00020582	246.3	8.1322e-06	8.1647e-06	253.88	92.686	8.1085e-06	8.0819e-06	111.58	36.615	46.514	14.152	8.1758e-06	13.788	137.654	47.532	-41.671	-43.489	-5.813	-4.025	-45.142	-38.014	85.658	264.552	-41.918	-38.142	-34.161	-29.433	-12.179	-34.284	-8191	255	
840.836	1	1	0	0	0.12483	0.30859	0.038509	0.042451	0.18015	0.19685	0.15659	0.081293	0.13214	0.12082	0.16531	0.10778	0.17004	0.33951	0.14305	0.029176	-2.4229	-2.0521	-2.6854	-2.5333	-2.1625	-2.9042	-2.2292	-2.0896	-2.8729	-1.9042	-2.5938	-2.5375	-2.0583	-2.8688	-2.2562	-2.1458	195.855	156.820	3.445	189.177	78.922	4.037	99.606	29.933	-11.046	105.560	32.305	163.809	67.920	181.638	136.465	34.090	8.6626e-05	0.00073233	0.00022792	183.96	4.4977e-06	1.11e-06	199.93	74.536	4.3033e-06	4.2268e-06	83.212	25.574	27.397	11.193	6.175e-06	9.4915	0.00071904	0.00073473	0.00020756	245.13	8.0802e-06	8.1489e-06	252.32	92.68	8.1208e-06	8.1298e-06	111.07	36.36	46.288	14.119	8.1652e-06	13.753	60.502	16.640	47.507	-43.439	13.418	137.899	-46.099	-38.526	16.364	93.593	-42.336	-39.138	-34.636	-30.051	-8.084	-34.802	-8191	255	
840.932	1	1	0	0	0.069797	0.10393	0.23089	0.16115	0.16811	0.30228	0.1813	0.21901	0.11268	0.21371	0.10046	0.19584	0.10091	0.24719	0.38675	0.19862	-2.5792	-2.1063	-2.6813	-2.7604	-2.1792	-2.8646	-2.5	-2.0521	-2.8438	-2.2375	-2.3063	-2.7542	-2.0208	-2.6542	-2.5167	-2.225	293.388	-42.962	-30.416	275.141	298.253	244.703	94.016	6.701	255.471	265.298	264.034	296.470	97.107	163.681	160.846	165.996	0.00014461	0.00099851	3.7526e-05	186.73	2.1577e-06	1.2641e-06	203.68	74.159	6.8457e-06	2.0864e-06	83.061	25.905	27.673	11.102	6.3118e-06	9.4816	0.00072768	0.00073889	0.0002089	246.04	8.11e-06	8.145e-06	254.8	92.823	8.23e-06	8.1309e-06	111.55	36.597	46.388	14.174	8.1306e-06	13.761	110.679	114.738	74.715	-43.772	74.421	127.459	-45.548	-38.358	289.330	76.301	-42.106	-38.867	-34.778	-29.570	-40.878	-34.429	-8191	255	
841.052	1	1	0	0	0.21698	0.26884	0.11717	0.26229	0.17731	0.10068	0.15211	0.21618	0.12876	0.063771	0.2173	0.20078	0.078832	0.32371	0.15818	0.1111	-2.5479	-2.1896	-2.1208	-2.8333	-1.9896	-2.6333	-2.6188	-2.075	-2.8896	-2.4146	-2.5604	-2.8104	-2.0833	-2.5917	-2.5875	-2.0708	205.662	256.016	254.591	160.490	298.009	121.151	60.054	-3.245	121.399	181.915	49.455	29.767	194.205	18.376	272.124	4.860	9.9596e-05	0.00052251	9.2897e-05	187.38	6.3039e-06	6.4903e-07	205.7	74.36	1.67e-06	5.4662e-06	84.954	26.235	27.932	11.297	6.9901e-06	9.461	0.00072691	0.00074289	0.00020823	247.08	8.1164e-06	8.2239e-06	256.32	92.898	8.1982e-06	8.1997e-06	112.7	36.878	46.751	14.237	8.174e-06	13.793	82.090	296.821	197.328	-43.400	51.285	258.068	-44.730	-37.965	196.760	147.487	-42.039	-38.525	-34.806	-30.411	268.859	-34.911	-8191	255	
841.124	1	1	0	0	0.22423	0.1888	0.23615	0.32094	0.037882	0.012809	0.060053	0.1602	0.3461	0.1502	0.19512	0.17908	0.21962	0.24947	0.29405	0.46632	-2.3563	-2.2188	-2.3312	-2.7833	-2.0042	-2.4417	-2.5708	-2.1312	-2.8458	-2.2896	-2.325	-2.8458	-2.1271	-2.4542	-2.7521	-1.9542	177.074	138.708	-9.702	251.403	30.852	145.096	175.123	272.825	-44.199	47.531	43.738	174.607	56.104	226.641	42.969	-42.924	4.2353e-05	0.00026369	0.00036528	185.02	3.5471e-06	7.2855e-06	203.65	74.139	3.6563e-06	4.829e-06	82.413	26.214	27.562	11.221	9.7887e-06	9.2642	0.00072475	0.00074672	0.00020936	246.08	8.1333e-06	8.1942e-06	254.47	92.597	8.2003e-06	8.1183e-06	111.72	36.602	46.42	14.172	8.2436e-06	13.657	10.655	-38.775	-53.582	-43.114	6.766	140.882	-45.062	-37.487	225.256	185.251	-41.589	-38.057	-35.057	-29.408	60.536	-33.673	-8191	255	
841.220	1	1	0	0	0.19127	0.077381	0.22676	0.060318	0.33032	0.35762	0.28755	0.22789	0.073203	0.23869	0.079204	0.13174	0.22556	0.18477	0.28694	0.29583	-2.4792	-2.5104	-2.1646	-2.7979	-2.2396	-2.425	-2.7729	-1.9646	-2.7167	-2.45	-2.2333	-2.95	-2.1417	-2.4896	-2.8729	-1.9	66.035	75.273	175.629	-2.582	114.919	263.698	78.867	165.814	6.765	70.370	-21.322	15.572	106.944	53.280	22.414	216.885	0.00012479	4.0586e-05	0.00013118	186.06	2.7848e-06	5.9945e-06	203.34	74.58	2.532e-06	8.7048e-06	83.636	25.929	27.547	11.273	5.5411e-06	9.5673	0.00072639	0.00074462	0.00020748	246.72	8.1123e-06	8.2007e-06	253.73	92.855	8.1889e-06	8.1694e-06	111.99	36.495	46.649	14.197	8.2376e-06	13.78	122.882	100.316	92.829	-44.158	138.283	-21.291	-45.754	-38.088	233.757	112.623	-42.008	-38.475	-34.869	-30.181	79.330	-34.013	-8191	255	
841.341	1	1	0	0	0.17908	0.20601	0.278	0.1293	0.13177	0.18489	0.024778	0.17046	0.073112	0.20323	0.27418	0.2584	0.32154	0.23086	0.176	0.088665	-2.2438	-2.5042	-2.1208	-3.0125	-2.3479	-2.3958	-2.8958	-2.1813	-2.7771	-2.6979	-2.1167	-2.7562	-2.3771	-2.225	-2.95	-2.1104	260.916	256.638	-30.204	290.845	136.985	254.690	165.913	231.708	-6.570	213.213	-21.455	42.360	268.915	245.783	130.158	261.205	9.2685e-05	0.00023572	0.00017263	185.29	3.1039e-06	2.9456e-06	203.66	74.283	3.88e-06	5.4903e-06	82.91	25.801	27.562	11.085	6.799e-07	9.434	0.00073424	0.00074947	0.00020783	247.11	8.1934e-06	8.2192e-06	255.65	92.788	8.2694e-06	8.3174e-06	112.05	36.698	46.651	14.119	8.2742e-06	13.746	167.193	270.330	29.091	-43.607	76.078	47.227	-45.698	-37.963	200.194	113.893	-41.789	-37.701	-34.557	-29.771	151.837	-34.763	-8191	255	
841.437	1	1	0	0	0.1525	0.27679	0.14181	0.23315	0.25326	0.15542	0.12387	0.16107	0.049115	0.24738	0.28207	0.31539	0.19084	0.12833	0.16926	0.18457	-2.0771	-2.6917	-2.1542	-2.8042	-2.3583	-2.3208	-3.0021	-2.1625	-2.45	-2.8	-2.0875	-2.7875	-2.4479	-2.2417	-2.8542	-2.3354	123.987	104.694	79.666	287.097	202.880	-8.197	107.433	74.487	238.532	246.519	26.964	-28.976	130.426	251.314	115.638	-21.387	4.4217e-05	0.00034084	0.00015168	187.82	3.2406e-06	2.0514e-05	206.97	74.788	3.6457e-06	4.5755e-06	84.91	25.838	27.727	11.12	3.8011e-06	9.3027	0.00074452	0.00075867	0.00021023	248.87	8.3362e-06	8.3133e-06	257.91	93.16	8.4235e-06	8.4167e-06	113.76	36.859	47.087	14.155	8.3733e-06	13.803	225.258	63.720	269.990	-43.539	226.635	10.615	-45.264	-37.735	40.693	32.547	-41.762	-38.335	-35.127	-29.595	-49.209	-34.404	-8191	255	
841.533	1	1	0	0	0.025455	0.26305	0.07528	0.13307	0.23045	0.21072	0.16179	0.16532	0.2001	0.15952	0.1951	0.2517	0.14016	0.21773	0.1266	0.18624	-2.0979	-2.7958	-1.9479	-2.8229	-2.425	-2.0125	-2.9292	-2.2313	-2.2479	-2.9417	-1.9688	-2.725	-2.6375	-2.1229	-2.7604	-2.175	87.857	94.387	286.297	-25.114	62.045	62.215	273.808	122.064	-1.664	78.567	244.576	-5.385	63.430	149.206	-52.550	226.195	7.4783e-05	0.00033738	0.00036948	188.25	3.2353e-06	6.0542e-06	203.02	73.853	2.4446e-06	2.918e-06	83.977	25.751	27.13	11.057	4.0577e-06	9.4146	0.00074027	0.00076027	0.00021019	248.89	8.3663e-06	8.323e-06	255.89	92.935	8.3344e-06	8.325e-06	112.48	36.59	46.953	14.12	8.3758e-06	13.744	279.742	93.107	37.282	-44.114	194.576	53.530	-44.941	-38.472	26.719	209.205	-42.190	-38.447	-33.849	-30.158	-38.512	-34.689	-8191	255	
841.652	1	1	0	0	0.24413	0.10092	0.086958	0.20266	0.28726	0.09787	0.24946	0.043897	0.090075	0.30377	0.097251	0.28317	0.10232	0.11601	0.21872	0.17454	-1.9375	-2.9458	-1.9708	-2.6625	-2.6104	-1.9667	-2.9167	-2.35	-2.1708	-2.8625	-2.1688	-2.5438	-2.7979	-2.0208	-2.8812	-2.4771	126.071	201.320	165.082	287.470	256.036	190.615	-55.058	57.037	297.089	219.226	293.869	256.795	55.942	290.499	-23.555	11.935	3.9664e-05	5.44e-05	0.00031113	186.01	3.0259e-06	3.9505e-06	202.39	74.494	4.6953e-06	2.4719e-06	84.331	25.828	27.055	11.078	1.8436e-06	9.2433	0.00073289	0.00076508	0.00021218	247.83	8.3734e-06	8.3389e-06	256.77	92.981	8.425e-06	8.355e-06	112.74	36.679	46.99	14.124	8.4158e-06	13.735	-44.699	154.579	119.132	-43.666	135.111	284.625	-45.037	-38.216	128.441	72.227	-43.133	-37.766	-32.826	-29.531	169.749	-34.877	-8191	255	
841.724	1	1	0	0	0.014545	0.14327	0.08766	0.13645	0.11395	0.06818	0.18894	0.052388	0.1839	0.22337	0.011906	0.21246	0.073843	0.18887	0.069787	0.2956	-1.5833	-2.9625	-2.175	-2.4729	-2.7938	-2.1583	-2.8563	-2.4521	-2.1333	-2.8104	-2.2417	-2.425	-2.7417	-2.0583	-2.7604	-2.5729	115.219	-52.308	241.356	136.267	193.044	28.058	209.085	32.319	185.224	-31.376	116.901	-36.128	135.530	48.080	155.654	21.653	6.8499e-05	0.0010614	0.00010521	188.94	5.9778e-06	5.131e-06	203.6	73.252	4.7234e-06	3.0342e-06	82.89	25.371	27.799	11.33	9.3666e-06	9.4939	0.00073707	0.00076499	0.00021254	248.77	8.392e-06	8.359e-06	258.63	93.223	8.3424e-06	8.4885e-06	112.81	36.839	47.255	14.236	8.4447e-06	13.863	189.277	175.986	100.195	-43.236	-25.310	239.648	-45.567	-38.284	-52.593	155.848	-42.242	-38.345	-33.888	-30.434	1.093	-35.113	-8191	255	
841.820	1	1	0	0	0.35842	0.0875	0.36888	0.22194	0.0058197	0.080879	0.10455	0.18377	0.17721	0.044107	0.13545	0.19195	0.12268	0.073288	0.14686	0.22443	-1.7437	-2.9062	-2.3563	-2.2417	-2.9479	-1.9917	-2.7458	-2.7583	-2.2333	-2.9667	-2.3312	-2.4688	-2.9604	-2.1333	-2.6792	-2.675	-26.872	122.060	73.179	118.111	29.282	123.340	211.879	249.368	105.455	83.044	158.208	141.071	-20.219	13.650	238.244	-49.460	0.00012078	0.0010743	0.00019325	187.24	5.4169e-06	4.7229e-06	208	74.478	1.187e-05	1.1374e-06	83.73	25.496	27.358	11.089	3.1633e-06	9.4623	0.00074789	0.00076901	0.0002143	249.46	8.4648e-06	8.3944e-06	259.3	93.718	8.449e-06	8.5075e-06	112.94	36.854	47.266	14.178	8.5156e-06	13.867	200.687	29.851	297.933	-43.456	47.265	-50.761	-45.501	-38.624	23.413	253.620	-42.332	-39.175	-34.575	-29.765	266.927	-34.905	-8191	255	
841.916	1	1	0	0	0.25716	0.092999	0.18625	0.10943	0.076224	0.028677	0.053153	0.16873	0.071013	0.22313	0.059987	0.0649	0.060785	0.1654	0.16238	0.062657	-1.5063	-2.9396	-2.3542	-2.2854	-2.9292	-2.1833	-2.6979	-2.6937	-1.9042	-2.7104	-2.6479	-2.1688	-2.9583	-2.275	-2.4375	-2.9021	128.871	-12.751	90.592	2.899	133.936	44.288	294.118	83.519	219.909	56.678	268.243	91.667	290.056	59.736	31.357	292.685	0.00011212	0.00048853	0.00010605	185.08	5.4337e-06	8.3084e-06	202.91	73.632	1.3028e-05	6.5905e-06	83.714	25.401	27.367	11.24	1.21e-05	9.3003	0.00074733	0.00077245	0.00021416	247.24	8.4118e-06	8.3935e-06	256.27	93.028	8.3371e-06	8.5162e-06	112.96	36.567	46.978	14.229	8.4902e-06	13.851	83.346	49.724	228.120	-44.101	88.844	180.850	-44.953	-38.173	58.544	-22.436	-42.211	-38.080	-33.764	-29.760	172.596	-35.175	-8191	255	
842.035	1	1	0	0	0.11688	0.18605	0.034157	0.24075	0.097063	0.21106	0.18327	0.16057	0.21207	0.29896	0.083068	0.137	0.030036	0.24688	0.095253	0.42142	-1.6604	-2.9521	-2.5333	-2.1917	-2.7979	-2.4271	-2.45	-2.7583	-1.9396	-2.7083	-2.4917	-2.0687	-2.875	-2.15	-2.2625	-2.9333	224.453	212.664	246.011	14.917	222.534	5.054	276.894	139.710	297.875	176.232	90.294	-5.871	-28.450	-52.969	-29.827	176.919	5.6014e-05	0.00032937	6.6105e-05	186.12	2.0353e-06	3.505e-06	202.56	72.976	8.5249e-06	6.7114e-06	83.75	26.046	27.35	11.211	8.768e-06	9.5669	0.00074125	0.00077389	0.00021359	248.01	8.4003e-06	8.3528e-06	256.27	92.833	8.3481e-06	8.4728e-06	113.23	36.827	47.107	14.348	8.4385e-06	13.935	32.194	227.751	213.465	-43.305	87.785	301.748	-44.855	-37.582	136.357	206.722	-43.053	-37.897	-33.993	-30.507	163.849	-34.422	-8191	255	
#DATA ENDS
