BOXY.EXE: ISS Imagent and Oximeter Data Acquisition Program Version 0.80
Ascii Record File

#ACQ INFORMATION
2  Detector Channels 
16  External MUX Channels 
1  Auxiliary Channels 
5000  Waveform (CCF) Frequency (Hz)
1  Waveforms Skipped 
30  Waveforms Averaged 
1  Cycles Averaged 
16  Acquisitions per Waveform 
10.0806  Updata Rate (Hz) 

#FILE INFORMATION
TRUE -- External MUX Channel results are PARSED.
FALSE -- AC DC and Phase are NOT grouped.
TRUE -- Companion Program Settings File CREATED.
FALSE -- AC data not excluded
FALSE -- DC data not excluded
FALSE -- Phase data not excluded
FALSE -- Auxillary Chn. data not excluded
Tab delimiters

#CALIBRATION STATE
TRUE -- Waveform Calibration Values APPLIED.


#AUX CALIBRATION VALUES
Val Type	aux-1	

Term	1.0000e+00	
Factor	0.0000e+00	


#WF CALIBRATION VALUES
A = Detector Channel
Val Type	A-AC1	A-AC2	A-AC3	A-AC4	A-AC5	A-AC6	A-AC7	A-AC8	A-AC9	A-AC10	A-AC11	A-AC12	A-AC13	A-AC14	A-AC15	A-AC16	A-DC1	A-DC2	A-DC3	A-DC4	A-DC5	A-DC6	A-DC7	A-DC8	A-DC9	A-DC10	A-DC11	A-DC12	A-DC13	A-DC14	A-DC15	A-DC16	A-Ph1	A-Ph2	A-Ph3	A-Ph4	A-Ph5	A-Ph6	A-Ph7	A-Ph8	A-Ph9	A-Ph10	A-Ph11	A-Ph12	A-Ph13	A-Ph14	A-Ph15	A-Ph16	

Term	0.00000e+00	0.00000e+00	0.00000e+00	0.00000e+00	0.00000e+00	0.00000e+00	0.00000e+00	0.00000e+00	0.00000e+00	0.00000e+00	0.00000e+00	0.00000e+00	0.00000e+00	0.00000e+00	0.00000e+00	0.00000e+00	0.00000e+00	0.00000e+00	0.00000e+00	0.00000e+00	0.00000e+00	0.00000e+00	0.00000e+00	0.00000e+00	0.00000e+00	0.00000e+00	0.00000e+00	0.00000e+00	0.00000e+00	0.00000e+00	0.00000e+00	0.00000e+00	0.00000e+00	0.00000e+00	0.00000e+00	0.00000e+00	0.00000e+00	0.00000e+00	0.00000e+00	0.00000e+00	0.00000e+00	0.00000e+00	0.00000e+00	0.00000e+00	0.00000e+00	0.00000e+00	0.00000e+00	0.00000e+00	
Factor	1.00000e+00	1.00000e+00	1.00000e+00	1.00000e+00	1.00000e+00	1.00000e+00	1.00000e+00	1.00000e+00	1.00000e+00	1.00000e+00	1.00000e+00	1.00000e+00	1.00000e+00	1.00000e+00	1.00000e+00	1.00000e+00	1.00000e+00	1.00000e+00	1.00000e+00	1.00000e+00	1.00000e+00	1.00000e+00	1.00000e+00	1.00000e+00	1.00000e+00	1.00000e+00	1.00000e+00	1.00000e+00	1.00000e+00	1.00000e+00	1.00000e+00	1.00000e+00	X	X	X	X	X	X	X	X	X	X	X	X	X	X	X	X	

B = Detector Channel
Val Type	B-AC1	B-AC2	B-AC3	B-AC4	B-AC5	B-AC6	B-AC7	B-AC8	B-AC9	B-AC10	B-AC11	B-AC12	B-AC13	B-AC14	B-AC15	B-AC16	B-DC1	B-DC2	B-DC3	B-DC4	B-DC5	B-DC6	B-DC7	B-DC8	B-DC9	B-DC10	B-DC11	B-DC12	B-DC13	B-DC14	B-DC15	B-DC16	B-Ph1	B-Ph2	B-Ph3	B-Ph4	B-Ph5	B-Ph6	B-Ph7	B-Ph8	B-Ph9	B-Ph10	B-Ph11	B-Ph12	B-Ph13	B-Ph14	B-Ph15	B-Ph16	

Term	0.00000e+00	0.00000e+00	0.00000e+00	0.00000e+00	0.00000e+00	0.00000e+00	0.00000e+00	0.00000e+00	0.00000e+00	0.00000e+00	0.00000e+00	0.00000e+00	0.00000e+00	0.00000e+00	0.00000e+00	0.00000e+00	0.00000e+00	0.00000e+00	0.00000e+00	0.00000e+00	0.00000e+00	0.00000e+00	0.00000e+00	0.00000e+00	0.00000e+00	0.00000e+00	0.00000e+00	0.00000e+00	0.00000e+00	0.00000e+00	0.00000e+00	0.00000e+00	-7.21242e+01	-1.36190e+02	-1.31975e+02	-1.84208e+02	-5.78500e+01	-7.12383e+01	-1.57919e+02	-1.62015e+02	-5.00457e+01	-6.58011e+01	-1.73678e+02	-1.74622e+02	-1.83192e+02	-1.77394e+02	-5.50764e+01	-1.50270e+02	
Factor	1.50587e-05	1.53820e-04	4.27858e-05	1.63141e-01	1.38621e-06	1.57826e-06	1.57083e-01	5.08700e-02	1.06407e-06	1.56460e-06	8.91376e-02	3.09256e-02	2.10338e-02	7.86656e-03	1.28744e-06	1.15860e-02	1.22195e-05	2.56875e-05	7.18329e-06	8.46512e-02	2.51754e-07	2.89162e-07	7.65242e-02	2.66035e-02	2.46997e-07	2.91659e-07	4.50603e-02	1.56519e-02	1.11339e-02	4.15076e-03	2.61534e-07	5.90229e-03	X	X	X	X	X	X	X	X	X	X	X	X	X	X	X	X	



#DISTANCE SETTINGS
A = Detector Channel
A-1	A-2	A-3	A-4	A-5	A-6	A-7	A-8	A-9	A-10	A-11	A-12	A-13	A-14	A-15	A-16	

2.5000e+00	3.0000e+00	2.5000e+00	3.0000e+00	2.0000e+00	3.0000e+00	1.5000e+00	3.0000e+00	3.0000e+00	3.0000e+00	3.0000e+00	3.0000e+00	3.0000e+00	3.0000e+00	1.5000e+00	3.0000e+00	

B = Detector Channel
B-1	B-2	B-3	B-4	B-5	B-6	B-7	B-8	B-9	B-10	B-11	B-12	B-13	B-14	B-15	B-16	

1.0000e+01	1.0000e+01	1.0000e+01	1.4400e+00	1.0000e+01	1.0000e+01	1.5100e+00	1.9400e+00	1.0000e+01	1.0000e+01	1.9900e+00	2.4900e+00	2.4100e+00	2.9000e+00	1.0000e+01	2.9800e+00	




#DATA BEGINS
time	group	step	mark	flag	A-AC1	A-AC2	A-AC3	A-AC4	A-AC5	A-AC6	A-AC7	A-AC8	A-AC9	A-AC10	A-AC11	A-AC12	A-AC13	A-AC14	A-AC15	A-AC16	A-DC1	A-DC2	A-DC3	A-DC4	A-DC5	A-DC6	A-DC7	A-DC8	A-DC9	A-DC10	A-DC11	A-DC12	A-DC13	A-DC14	A-DC15	A-DC16	A-Ph1	A-Ph2	A-Ph3	A-Ph4	A-Ph5	A-Ph6	A-Ph7	A-Ph8	A-Ph9	A-Ph10	A-Ph11	A-Ph12	A-Ph13	A-Ph14	A-Ph15	A-Ph16	B-AC1	B-AC2	B-AC3	B-AC4	B-AC5	B-AC6	B-AC7	B-AC8	B-AC9	B-AC10	B-AC11	B-AC12	B-AC13	B-AC14	B-AC15	B-AC16	B-DC1	B-DC2	B-DC3	B-DC4	B-DC5	B-DC6	B-DC7	B-DC8	B-DC9	B-DC10	B-DC11	B-DC12	B-DC13	B-DC14	B-DC15	B-DC16	B-Ph1	B-Ph2	B-Ph3	B-Ph4	B-Ph5	B-Ph6	B-Ph7	B-Ph8	B-Ph9	B-Ph10	B-Ph11	B-Ph12	B-Ph13	B-Ph14	B-Ph15	B-Ph16	aux-1	digaux	

1276.873	1	1	0	256	0.11819	0.18966	0.04283	0.061316	0.27883	0.1314	0.20955	0.13559	0.15076	0.11021	0.091318	0.14277	0.12114	0.26619	0.12398	0.13247	-2.4896	-2.1333	-2.5687	-2.65	-2.3	-2.6813	-2.7396	-2.4521	-2.8979	-2.0604	-2.7479	-2.8438	-2.3292	-2.7729	-2.4917	-2.3708	369.959	318.565	218.299	444.780	443.771	431.793	492.471	472.415	265.942	358.428	531.372	234.661	454.570	458.453	490.350	534.176	0.00031284	0.00044458	0.00013493	1236.5	4.63e-06	8.2346e-07	1163.4	397.62	4.6683e-06	3.7553e-06	406.42	94.445	90.883	28.68	4.7109e-06	32.676	0.0008339	0.0014142	0.00040791	1199	1.4311e-05	1.5477e-05	1127.4	387.5	1.3963e-05	1.5164e-05	395.25	92.531	88.888	28.249	1.4043e-05	32.254	252.408	287.056	283.920	192.550	311.598	319.468	190.839	195.828	317.616	329.626	194.289	199.022	200.793	206.274	358.276	203.511	-8191	255	
1276.970	1	1	0	0	0.066625	0.14476	0.23002	0.016867	0.30679	0.090683	0.30745	0.030813	0.14685	0.1549	0.1573	0.17451	0.23604	0.12738	0.11687	0.16633	-2.6458	-2.2521	-2.5187	-2.7646	-2.2375	-2.8354	-2.7146	-2.3917	-2.8	-2.6	-2.6104	-3.1271	-2.3729	-2.8563	-2.6208	-2.5042	472.641	338.036	465.312	414.327	201.328	227.491	486.381	273.541	220.240	363.508	527.265	412.627	513.920	204.342	523.731	490.800	0.00027895	0.00015989	0.00014556	1233.2	4.2856e-06	2.5691e-06	1161.3	397.99	4.5765e-06	5.1486e-06	406	94.147	89.804	28.715	4.2833e-06	32.703	0.00081606	0.0013733	0.00038645	1199.3	1.4164e-05	1.5653e-05	1128.8	389.2	1.4387e-05	1.5795e-05	396.34	92.5	88.596	28.222	1.445e-05	32.231	251.852	291.246	251.514	192.445	302.963	332.128	191.318	196.120	327.418	303.309	194.566	199.411	201.098	206.614	330.974	203.942	-8191	255	
1277.066	1	1	0	0	0.2603	0.054408	0.28599	0.18978	0.084349	0.13829	0.26399	0.37563	0.070557	0.13175	0.14	0.13402	0.30804	0.12237	0.010338	0.10219	-2.5271	-2.3021	-2.425	-3.0042	-2.4854	-2.7792	-2.9271	-2.2687	-2.8479	-2.7167	-2.4208	-3.0563	-2.4458	-2.7375	-2.7875	-2.3187	291.240	351.918	253.718	460.694	363.473	345.340	445.307	508.491	196.014	225.805	448.350	473.131	204.088	356.993	452.789	528.341	0.00027872	0.00058959	0.0001596	1232.8	4.6096e-06	6.9889e-06	1161.9	397.82	4.2442e-06	4.3886e-06	408.39	95.117	90.688	28.735	3.9512e-06	32.758	0.00082912	0.0013769	0.00038206	1197.5	1.3877e-05	1.5701e-05	1127.9	388.93	1.41e-05	1.5979e-05	397.38	93.183	88.918	28.296	1.4451e-05	32.26	256.976	283.544	258.502	192.715	329.854	318.376	191.518	196.222	306.341	336.074	194.351	199.278	200.997	206.330	323.395	203.473	-8191	255	
1277.162	1	1	0	0	0.12911	0.13596	0.22182	0.17327	0.12355	0.079708	0.32193	0.21516	0.081187	0.13778	0.33425	0.32868	0.32581	0.029354	0.21871	0.1278	-2.5229	-2.4292	-2.3812	-3.2125	-2.1208	-2.6063	-2.875	-2.2438	-3.025	-2.65	-2.4542	-3.0396	-2.3958	-2.65	-2.9375	-2.4062	534.568	468.066	313.841	487.109	513.320	179.568	189.138	504.434	469.165	475.767	530.534	178.604	519.359	255.210	295.721	508.879	0.00028293	0.00058917	0.00013014	1233.8	4.9735e-06	3.8548e-07	1164.5	397.38	5.9909e-06	6.3051e-06	402.71	94.827	90.736	28.689	4.3614e-06	32.686	0.00083688	0.0013828	0.00038718	1197	1.4198e-05	1.5745e-05	1127	388.23	1.4213e-05	1.6144e-05	394.93	93.017	89.121	28.273	1.4182e-05	32.235	260.212	260.775	258.938	192.537	356.524	460.095	191.282	195.934	321.475	317.560	194.030	199.156	200.915	206.424	329.605	203.814	-8191	255	
1277.256	1	1	0	0	0.060879	0.20498	0.24477	0.10275	0.17489	0.053662	0.13684	0.12689	0.041244	0.14874	0.12682	0.25903	0.1452	0.32088	0.36818	0.32601	-2.4813	-2.425	-2.1729	-3.1813	-2.3521	-2.4708	-3.0729	-2.3583	-2.7146	-2.7792	-2.2562	-2.7875	-2.4146	-2.5563	-2.6542	-2.3312	340.910	249.120	349.375	508.436	276.624	256.117	516.318	496.095	230.253	432.168	260.505	219.179	460.593	480.223	313.253	326.441	0.00030224	0.00091641	8.4124e-05	1240.4	4.1227e-06	5.4302e-06	1154.3	394.99	1.8136e-06	3.1031e-06	403.74	93.872	89.942	28.554	5.8722e-06	32.547	0.00085452	0.0014315	0.00039309	1199.1	1.4465e-05	1.5973e-05	1124.5	386.37	1.4218e-05	1.6442e-05	395.12	92.787	88.661	28.245	1.44e-05	32.282	252.741	263.432	239.179	192.232	331.983	312.956	191.375	196.559	353.726	323.355	194.635	199.053	201.077	206.496	348.290	204.321	-8191	255	
1277.354	1	1	0	0	0.23007	0.29861	0.23305	0.038994	0.060225	0.19975	0.45238	0.29625	0.23498	0.14553	0.1057	0.17784	0.25863	0.042931	0.10718	0.15515	-2.2708	-2.7208	-2.075	-2.8292	-2.2938	-2.2979	-2.7938	-2.4354	-2.6854	-2.6646	-2.2542	-2.8187	-2.5854	-2.3688	-2.7438	-2.3375	373.724	432.084	373.612	423.058	403.306	406.602	421.433	516.851	273.475	215.523	498.056	237.473	515.028	295.927	453.502	459.591	0.00027984	0.00065352	0.00011833	1240	6.0313e-06	4.4293e-06	1170	399.63	4.0773e-06	4.1096e-06	406.48	95.321	90.835	28.7	2.4324e-06	33.383	0.00084207	0.0014125	0.00039477	1198.4	1.4668e-05	1.5836e-05	1129.4	387.9	1.4189e-05	1.6066e-05	396.04	93.172	89.026	28.348	1.4324e-05	32.604	258.488	261.428	289.168	192.107	282.379	332.190	190.876	195.998	353.415	309.890	194.107	198.814	200.553	206.377	314.723	203.839	-8191	255	
1277.473	1	1	0	0	0.12759	0.08964	0.070857	0.21148	0.25075	0.18091	0.22808	0.07493	0.23885	0.079509	0.13437	0.036718	0.34257	0.08538	0.11512	0.21097	-2.0521	-2.5729	-2.1521	-3.0687	-2.5333	-2.3479	-3.0854	-2.4917	-2.6229	-2.8979	-2.2208	-2.9688	-2.5938	-2.2625	-3.0583	-2.3688	497.929	494.021	367.312	460.606	257.299	209.375	453.380	232.808	448.288	198.436	242.919	371.761	198.835	235.209	308.024	328.757	0.00030677	0.00058103	0.00011187	1238.6	5.8168e-06	5.0128e-06	1156.9	396.23	3.4312e-06	5.0564e-06	404.84	93.915	89.668	28.541	5.031e-06	32.882	0.00084566	0.0014246	0.00039909	1197.6	1.4417e-05	1.5297e-05	1126.6	387.45	1.4336e-05	1.5893e-05	395.1	92.905	88.497	28.219	1.444e-05	32.33	263.397	281.799	283.454	192.509	340.329	330.199	191.561	196.362	307.910	350.273	194.797	198.844	201.414	206.759	342.701	204.204	-8191	255	
1277.569	1	1	0	0	0.37248	0.1145	0.16446	0.12433	0.27015	0.18713	0.12179	0.11659	0.15327	0.18667	0.20799	0.24729	0.22686	0.041999	0.23538	0.21406	-2.0333	-2.9646	-2.2104	-2.8896	-2.5042	-2.2417	-2.9875	-2.6771	-2.4104	-2.9521	-2.1437	-2.5958	-2.7062	-2.4688	-2.7687	-2.6458	267.058	267.916	434.434	473.422	354.387	430.895	455.216	485.742	307.638	279.509	457.581	459.099	246.478	209.038	380.018	428.401	0.00027737	0.00020518	0.00010565	1226.9	4.0158e-06	2.1961e-06	1163.7	396.37	5.0364e-06	2.927e-06	406.94	94.809	90.091	28.497	5.9563e-06	32.635	0.00085315	0.0014466	0.00039716	1196.7	1.4299e-05	1.6221e-05	1126.3	386.13	1.4815e-05	1.6319e-05	394.68	92.664	88.388	28.116	1.49e-05	32.203	263.424	278.534	252.893	192.667	325.510	321.124	191.130	196.493	316.269	349.973	193.803	198.975	201.018	206.341	325.012	204.179	-8191	255	
1277.665	1	1	0	0	0.34685	0.26771	0.046404	0.21757	0.0079806	0.12999	0.084966	0.047293	0.098315	0.062392	0.19132	0.093425	0.15844	0.2251	0.15765	0.22469	-1.85	-2.9208	-2.2542	-2.6042	-2.65	-2.2896	-2.9792	-2.7896	-2.5208	-2.9938	-2.4396	-2.6896	-2.7771	-2.2292	-2.8208	-2.6312	488.626	464.433	488.741	474.996	184.841	429.514	490.390	446.082	197.301	345.613	455.805	378.404	535.639	516.604	442.603	440.535	0.00028196	0.00045656	0.0001948	1235.1	5.3133e-06	4.6733e-06	1161.3	398.12	2.8453e-06	2.4304e-06	406.47	95.688	90.973	28.691	5.4196e-06	32.593	0.00084729	0.0014323	0.00041507	1197.1	1.4751e-05	1.649e-05	1127.6	387.54	1.4632e-05	1.6224e-05	394.22	92.823	88.569	28.141	1.4551e-05	32.27	256.215	242.280	241.304	192.426	309.643	314.433	191.024	196.063	331.792	302.379	194.102	198.633	200.358	205.960	339.158	203.803	-8191	255	
1277.761	1	1	0	0	0.39496	0.2476	0.13896	0.13607	0.17171	0.16463	0.16648	0.33325	0.24478	0.20088	0.36451	0.067948	0.22377	0.29418	0.11562	0.30677	-1.8312	-2.7896	-2.3146	-2.8812	-2.7646	-2.2833	-2.9667	-2.9062	-2.2708	-3.0708	-2.5792	-2.4625	-3.1479	-2.1875	-2.6833	-2.9146	289.124	333.411	414.869	205.810	259.765	433.272	511.346	453.705	411.916	291.051	418.293	515.872	419.204	301.655	336.339	446.799	0.00029928	0.00074104	0.00016253	1230.6	3.5471e-06	2.7801e-06	1157.4	393.47	3.7381e-06	2.7487e-06	404.31	94.293	90.322	28.409	5.2924e-06	32.589	0.00085378	0.0014171	0.00040958	1193.3	1.4314e-05	1.6061e-05	1125	386.05	1.4629e-05	1.5857e-05	394.64	92.956	88.598	28.143	1.4593e-05	32.261	258.929	256.313	273.594	192.576	311.950	320.731	191.341	196.203	291.375	349.107	194.546	198.767	201.336	206.815	314.882	203.913	-8191	255	
1277.858	1	1	0	0	0.15152	0.13633	0.11216	0.28054	0.23292	0.12154	0.12208	0.27559	0.12849	0.044771	0.10248	0.12214	0.21569	0.27915	0.33185	0.20089	-1.9312	-3.1354	-2.4688	-2.7979	-3.1146	-2.3354	-3.0458	-2.8021	-2.1562	-3.1042	-2.7771	-2.4062	-3.1312	-2.2729	-2.6063	-2.7271	359.620	415.180	267.670	535.327	412.476	312.592	426.947	424.979	534.015	278.999	459.609	312.316	491.071	185.906	320.992	210.177	0.00027234	0.00034738	0.00016183	1228.1	4.9768e-06	3.6188e-06	1159.9	394.89	5.28e-06	3.9996e-06	403.24	94.868	89.553	28.527	3.8889e-06	32.912	0.00086733	0.001411	0.00040084	1195.5	1.4327e-05	1.5897e-05	1123.5	385.18	1.4513e-05	1.5969e-05	393.03	92.504	88.007	28.174	1.4771e-05	32.331	247.021	277.137	309.456	192.569	346.058	287.574	191.209	196.097	307.048	328.801	194.223	199.055	200.797	206.378	374.350	204.215	-8191	255	
1277.954	1	1	0	0	0.31655	0.17424	0.073083	0.23501	0.10312	0.25171	0.25134	0.27075	0.092896	0.33823	0.16919	0.23018	0.15409	0.063976	0.2445	0.26193	-1.9396	-2.9479	-2.5792	-2.4396	-2.8479	-2.5	-2.8833	-2.9813	-2.175	-2.8542	-2.7854	-2.3125	-3.0875	-2.3604	-2.5687	-2.9042	443.792	269.937	354.219	496.775	250.405	407.830	476.468	476.646	454.871	524.322	308.256	488.519	196.057	415.855	250.863	380.412	0.00030631	0.00078767	8.3387e-05	1220.4	7.3549e-06	2.0428e-06	1157.6	396.95	3.4976e-06	7.3578e-06	406.6	94.317	89.948	28.623	3.894e-06	33.204	0.0008563	0.001436	0.00040626	1189.8	1.4593e-05	1.634e-05	1122	386.21	1.4485e-05	1.6533e-05	394.45	92.822	88.45	28.202	1.4822e-05	32.506	255.573	236.962	270.065	192.659	332.975	290.920	190.766	196.173	302.194	321.520	194.220	198.991	200.908	206.450	323.586	203.784	-8191	255	
1278.050	1	1	0	0	0.1387	0.10009	0.1355	0.23029	0.2655	0.098335	0.032034	0.25356	0.079394	0.18946	0.12444	0.21103	0.28223	0.14288	0.20082	0.039236	-1.7229	-2.7979	-2.7271	-2.4646	-2.8896	-2.6083	-2.6292	-2.8458	-2.4521	-2.9437	-3.0375	-2.2812	-3.025	-2.6021	-2.4562	-2.975	255.211	494.380	379.526	521.054	394.526	307.816	530.489	479.207	234.742	379.050	354.423	530.409	207.026	464.929	340.421	296.852	0.00030514	0.00052241	0.00015528	1240	1.9644e-06	4.5619e-06	1169	399.95	4.0808e-06	4.4067e-06	409.86	95.018	90.857	29.051	5.0866e-06	33.364	0.0008631	0.0014314	0.00041186	1192.7	1.454e-05	1.64e-05	1126	386.73	1.4529e-05	1.6439e-05	395.13	92.828	88.56	28.328	1.4538e-05	32.546	259.363	272.937	242.159	192.089	323.114	237.479	190.485	195.768	299.061	346.633	194.037	197.971	200.483	206.117	319.102	203.753	-8191	255	
1278.169	1	1	0	0	0.18971	0.20145	0.23753	0.4887	0.23102	0.24011	0.14883	0.1222	0.14242	0.061393	0.20295	0.17476	0.34161	0.28659	0.11826	0.39496	-1.7812	-2.5438	-2.775	-2.3146	-2.9604	-2.5021	-2.5438	-3.0187	-2.3375	-2.6229	-2.8479	-2.4333	-2.8875	-2.7896	-2.1604	-2.9521	194.723	399.024	453.185	483.190	315.616	240.384	207.552	443.916	208.211	532.203	494.793	209.720	201.320	537.162	300.704	241.318	0.00031471	0.00028832	6.3686e-05	1233.8	5.0508e-06	4.5815e-06	1170.3	400.17	2.6578e-06	6.8476e-06	409.64	95.401	91.189	28.879	2.3277e-06	33.621	0.00085625	0.0014163	0.00040493	1189.5	1.4187e-05	1.637e-05	1126	387.78	1.4888e-05	1.6579e-05	394.6	93.22	88.698	28.335	1.4784e-05	32.678	257.617	258.601	229.816	191.896	293.680	333.867	190.624	195.783	264.571	339.584	194.198	198.347	200.388	205.702	312.943	203.437	-8191	255	
1278.265	1	1	0	0	0.036561	0.055658	0.13483	0.17143	0.30422	0.14439	0.38838	0.16543	0.062969	0.2209	0.1976	0.29926	0.17496	0.22918	0.12514	0.14769	-1.7042	-2.45	-2.8271	-2.2792	-2.875	-2.5687	-2.3312	-3.1479	-2.4896	-2.5271	-3.1042	-2.3063	-2.8187	-2.9458	-2.375	-3.0458	235.308	194.338	475.131	489.334	250.743	257.578	531.443	219.779	410.806	420.007	242.649	532.463	484.165	500.648	420.633	488.270	0.00029359	0.00072637	0.00019204	1232.9	5.0575e-06	1.2661e-06	1169.7	398.9	5.1763e-06	6.8153e-06	408.83	95.221	90.806	28.883	3.947e-06	33.26	0.00086369	0.0014619	0.00038871	1187.7	1.4792e-05	1.637e-05	1124.3	385.75	1.4508e-05	1.6683e-05	394.16	92.916	88.714	28.274	1.5038e-05	32.468	253.816	302.024	285.721	191.980	288.000	324.750	190.718	195.848	297.448	337.302	193.953	198.421	200.602	206.162	358.109	203.322	-8191	255	
1278.361	1	1	0	0	0.21092	0.27362	0.079156	0.30038	0.19501	0.24992	0.40979	0.3574	0.084877	0.18067	0.13603	0.13263	0.2038	0.28806	0.078789	0.086567	-2.1792	-2.4	-3.0479	-2.4979	-2.8521	-2.9313	-2.3771	-3.1083	-2.6229	-2.5875	-3.2271	-2.2958	-2.6917	-2.9229	-2.3396	-2.9458	247.385	355.801	513.737	193.744	330.708	246.214	498.961	508.006	313.218	493.799	281.697	226.699	504.197	496.574	307.822	473.670	0.00029136	0.00038106	0.0001469	1242.5	4.8218e-06	2.2959e-06	1160.7	397.91	2.8479e-06	3.7365e-06	407.18	94.897	90.353	28.896	5.3407e-06	33.034	0.00086163	0.0014242	0.0003983	1193.7	1.4396e-05	1.6201e-05	1120.3	385.66	1.4799e-05	1.6582e-05	394.09	92.596	88.095	28.201	1.5259e-05	32.361	253.118	239.267	280.216	191.905	341.562	293.540	190.661	195.630	339.591	319.828	193.787	198.844	200.160	205.909	309.624	203.654	-8191	255	
1278.457	1	1	0	0	0.23119	0.095095	0.064896	0.13679	0.24603	0.056634	0.2152	0.067471	0.20463	0.024679	0.10431	0.094447	0.23993	0.09632	0.22266	0.11041	-2.3146	-2.3292	-2.9167	-2.2792	-2.8438	-2.7562	-2.525	-2.8833	-2.4833	-2.2938	-2.9771	-2.5	-2.6604	-2.8604	-2.3208	-2.8104	463.757	512.033	381.665	192.357	278.836	212.144	235.302	506.866	312.300	488.323	222.160	375.520	202.480	415.779	443.550	274.782	0.00031023	0.00052986	0.0001266	1237.9	1.1844e-06	5.9681e-06	1171.1	397.38	2.4441e-06	5.7044e-06	407.28	94.98	90.172	29.096	4.0199e-06	33.15	0.00087145	0.0014415	0.00040617	1190.4	1.4468e-05	1.6406e-05	1123.9	385.44	1.4693e-05	1.6176e-05	393.67	93.016	88.029	28.371	1.4869e-05	32.503	263.200	266.327	229.248	191.963	365.311	314.347	190.559	195.633	239.655	307.124	193.756	198.601	200.623	206.102	356.800	203.234	-8191	255	
1278.553	1	1	0	0	0.23745	0.20817	0.17078	0.28875	0.13653	0.40826	0.37292	0.038309	0.076345	0.16448	0.28829	0.21697	0.25935	0.20701	0.15406	0.24616	-2.3667	-2.4417	-3.0083	-2.5021	-2.4792	-2.8812	-2.5521	-2.7667	-2.9458	-2.3958	-3.0396	-2.7021	-2.5854	-2.9792	-2.3958	-2.8479	499.139	247.331	210.254	498.405	235.704	431.768	489.800	370.431	347.614	469.013	508.845	519.953	255.228	419.978	525.069	193.210	0.00034966	0.0003869	0.00010812	1236	2.7299e-06	1.9217e-06	1163.7	398.33	2.8896e-06	5.8667e-06	407.9	95.516	90.17	28.977	3.7764e-06	33.29	0.00085692	0.0014128	0.00040605	1188.7	1.4505e-05	1.5469e-05	1122.4	384.8	1.4302e-05	1.5915e-05	395.01	93.192	88.305	28.342	1.4719e-05	32.477	260.170	295.034	247.163	192.201	315.098	425.085	190.406	195.622	329.257	309.270	193.787	198.821	200.383	205.926	319.621	203.447	-8191	255	
1278.650	1	1	0	0	0.10248	0.25749	0.080538	0.089091	0.23065	0.22305	0.2521	0.10763	0.23503	0.44004	0.084882	0.055345	0.20065	0.11976	0.12921	0.11372	-2.4604	-2.2542	-2.9333	-2.6688	-2.6667	-2.8292	-2.5958	-2.7521	-2.8583	-2.2958	-3.0354	-2.6375	-2.4396	-3.1229	-2.4833	-2.8146	456.035	281.665	370.829	232.989	322.928	282.849	501.453	474.141	372.643	199.441	255.393	494.899	438.747	430.906	287.173	256.462	0.0002897	0.00067368	9.6567e-05	1233.2	4.4373e-06	5.2359e-06	1155.2	395.56	6.2033e-06	9.8905e-06	403.28	94.715	90.079	28.613	2.7329e-06	32.958	0.00084633	0.0014382	0.00039861	1186.9	1.4596e-05	1.5568e-05	1116.1	383.92	1.4542e-05	1.5764e-05	393.13	92.746	88.213	28.161	1.4476e-05	32.414	256.772	216.767	221.646	192.494	326.920	338.372	191.047	195.987	306.741	347.625	194.344	198.851	200.656	206.524	365.482	203.598	-8191	255	
1278.746	1	1	0	0	0.026624	0.25257	0.22078	0.29594	0.13594	0.15101	0.30075	0.21331	0.059482	0.090209	0.15958	0.022812	0.020624	0.079197	0.093844	0.11993	-2.4813	-2.1854	-2.65	-2.8479	-2.3833	-3.0271	-2.5	-2.6021	-2.7021	-2.1667	-2.7208	-2.7042	-2.475	-3.0146	-2.4688	-2.5229	321.780	512.995	483.993	535.343	383.938	324.357	465.220	197.953	260.708	413.194	490.323	497.064	453.836	425.284	471.090	503.140	0.00026563	0.00053452	0.00012267	1220.2	8.0867e-06	4.9544e-06	1148	394.15	4.6821e-06	2.7612e-06	400.56	95.137	89.641	28.768	3.4673e-06	33.271	0.0008242	0.0013985	0.00038838	1183.6	1.4065e-05	1.588e-05	1115.1	384.63	1.4038e-05	1.5694e-05	392.07	93.16	88.286	28.335	1.4277e-05	32.719	254.471	263.273	244.744	192.743	326.175	320.557	191.407	196.392	318.377	293.148	194.615	199.294	200.997	206.955	354.226	204.322	-8191	255	
1278.842	1	1	0	0	0.1138	0.10981	0.25881	0.11927	0.11335	0.085706	0.26755	0.3645	0.09893	0.15881	0.2409	0.029122	0.033661	0.14421	0.20953	0.4124	-2.5333	-2.5021	-2.5896	-2.8792	-2.3937	-3.1042	-2.5646	-2.6458	-2.9354	-2.2479	-2.8521	-2.8375	-2.425	-2.925	-2.7062	-2.4917	522.658	222.893	264.757	429.670	495.428	459.349	499.716	472.732	264.903	292.519	235.201	444.566	270.351	366.214	506.262	447.720	0.0002973	0.00049057	0.00015426	1215.5	3.1663e-06	4.5604e-06	1144.3	393.02	3.9629e-06	3.2766e-06	401.77	95.115	90.054	28.704	3.2554e-06	33.377	0.00081397	0.0013955	0.00038374	1181.8	1.3967e-05	1.5447e-05	1115.6	384.75	1.3797e-05	1.5172e-05	394.69	93.487	88.429	28.428	1.4244e-05	32.716	255.596	228.265	289.901	192.909	285.344	343.661	191.366	196.245	326.935	296.688	194.946	199.359	201.279	206.804	311.448	204.083	-8191	255	
1278.962	1	1	0	0	0.11989	0.35717	0.09621	0.32816	0.26783	0.18396	0.24007	0.1658	0.019769	0.082081	0.10201	0.16748	0.23118	0.34136	0.21465	0.12607	-2.7833	-2.3083	-2.6146	-2.7333	-2.3708	-2.9208	-2.8354	-2.5375	-2.9917	-2.4333	-2.8417	-3.0896	-2.4437	-2.7938	-2.6937	-2.4854	432.979	515.217	267.582	465.709	349.228	252.908	457.281	522.575	533.044	211.865	471.659	470.833	514.982	243.172	329.449	189.850	0.00029437	0.00037341	0.0001538	1218.7	6.9136e-06	3.9272e-06	1144.6	391.8	5.0275e-06	4.7002e-06	400.68	94.46	89.607	28.876	2.2278e-06	33.089	0.00081234	0.0014001	0.000388	1182.7	1.4261e-05	1.5419e-05	1115.1	383.78	1.4312e-05	1.5737e-05	392.39	93.062	88.216	28.418	1.4801e-05	32.646	257.517	257.361	251.838	192.319	312.619	352.758	191.583	196.423	327.674	288.860	194.504	199.004	201.464	206.237	327.156	203.695	-8191	255	
1279.059	1	1	0	0	0.25989	0.070621	0.24449	0.1716	0.24994	0.19776	0.35799	0.12797	0.23054	0.16895	0.29366	0.17876	0.13939	0.12964	0.12646	0.13414	-2.6437	-2.5604	-2.4917	-3.0396	-2.3937	-2.8563	-2.8292	-2.4354	-2.9021	-2.3646	-2.75	-3.0208	-2.3625	-2.7396	-2.6625	-2.3187	341.489	494.095	264.331	268.636	454.383	452.443	466.249	343.159	259.482	302.456	534.016	330.363	396.265	487.602	242.332	449.596	0.0003134	0.00039632	9.3307e-05	1217.6	2.0024e-06	3.8987e-06	1147.9	389.97	5.347e-06	2.9343e-06	398.58	94.445	89.233	28.632	1.4695e-06	33.175	0.00085259	0.0014014	0.00039481	1182.7	1.4286e-05	1.5996e-05	1112.9	382.05	1.4021e-05	1.6114e-05	391.1	92.675	87.875	28.299	1.4754e-05	32.625	257.664	263.409	256.185	192.669	344.066	389.407	191.583	196.390	301.046	311.133	194.678	199.195	201.123	206.469	329.436	203.850	-8191	255	
1279.155	1	1	0	0	0.080588	0.19146	0.083813	0.15512	0.20577	0.17586	0.26194	0.5486	0.21906	0.19631	0.12047	0.20072	0.13898	0.067941	0.32128	0.29408	-2.6333	-2.4437	-2.5021	-2.9854	-2.5354	-2.5917	-2.8979	-2.4146	-2.7812	-2.6125	-2.4771	-3.1458	-2.5417	-2.7354	-3.0583	-2.4292	190.136	229.899	285.193	530.320	387.772	334.597	514.444	502.644	298.916	237.723	527.724	511.552	490.572	251.151	438.135	244.003	0.00030126	0.00044869	0.00014163	1209.9	9.8916e-07	4.8535e-06	1145.2	389.6	2.4988e-06	3.3653e-06	400.04	94.502	90.298	28.97	6.5671e-06	33.295	0.00084383	0.0013845	0.00039318	1178.3	1.4028e-05	1.5588e-05	1114.3	382.12	1.3954e-05	1.5439e-05	391.76	92.991	88.511	28.546	1.4107e-05	32.85	258.699	234.573	247.155	192.830	206.133	334.774	191.814	196.333	296.268	318.647	194.440	199.315	201.127	206.195	337.930	203.670	-8191	255	
1279.249	1	1	0	0	0.1716	0.30637	0.1761	0.12194	0.077047	0.17732	0.23579	0.31221	0.24386	0.044521	0.069814	0.10109	0.047701	0.10918	0.21201	0.17033	-2.5354	-2.6875	-2.3563	-3.3438	-2.5	-2.8229	-3.1021	-2.3417	-2.9042	-2.7687	-2.5292	-3.0687	-2.6521	-2.65	-2.9021	-2.6542	447.866	282.813	260.463	297.717	529.513	265.458	407.657	518.378	343.755	412.255	218.109	235.057	512.739	241.060	199.817	471.325	0.00029596	0.00039068	0.00016633	1214.3	4.2848e-06	4.1538e-06	1145.7	393.97	2.5112e-06	5.213e-06	402.43	95.043	89.9	28.822	2.6065e-06	33.328	0.00084197	0.001383	0.00038676	1180.1	1.4472e-05	1.5453e-05	1116.3	384.28	1.3652e-05	1.5315e-05	393.19	93.424	88.321	28.479	1.4535e-05	32.789	264.309	259.489	280.752	192.831	347.999	382.234	191.500	196.148	343.235	313.608	194.619	199.186	201.139	206.838	297.149	204.043	-8191	255	
1279.345	1	1	0	0	0.18366	0.18182	0.19334	0.32383	0.1123	0.13927	0.14492	0.26949	0.12977	0.27295	0.12171	0.16772	0.11588	0.2674	0.20348	0.16068	-2.3479	-2.8458	-2.3083	-3.0167	-2.675	-2.4542	-3.3208	-2.5979	-2.8042	-2.9458	-2.3625	-2.9667	-2.6417	-2.5271	-3.0917	-2.4062	322.242	189.770	314.971	531.748	217.510	212.663	479.162	468.047	475.374	474.301	446.372	491.300	418.941	390.399	477.386	477.044	0.00031221	0.00031038	0.00018423	1210.4	4.13e-06	4.2659e-06	1146.1	391.53	4.3317e-06	4.7576e-06	400.42	94.597	89.332	28.811	3.3217e-06	32.996	0.00083922	0.0014103	0.00038998	1178	1.371e-05	1.5057e-05	1111.6	383.29	1.4012e-05	1.5648e-05	392.46	93.132	88.418	28.396	1.4206e-05	32.617	256.313	243.466	258.883	192.813	354.196	316.395	191.397	196.326	309.311	338.813	194.496	199.037	201.191	206.660	340.357	204.018	-8191	255	
1279.441	1	1	0	0	0.068601	0.087417	0.031106	0.39695	0.15329	0.10694	0.11634	0.43813	0.20224	0.11384	0.086863	0.082626	0.14209	0.13006	0.18391	0.16503	-2.2708	-3.0563	-2.2958	-3.0521	-2.5083	-2.3792	-3.2104	-2.5208	-2.7458	-3.0187	-2.4167	-2.9062	-2.7438	-2.425	-3.0771	-2.6542	246.181	241.384	226.519	194.291	507.402	227.144	343.788	524.305	366.152	411.194	459.892	429.529	200.241	519.455	443.016	348.456	0.00027025	0.00036056	7.7042e-05	1215.9	5.6951e-06	7.7778e-06	1143.1	389.03	3.5873e-06	1.7938e-06	403.21	94.719	89.659	28.65	3.8752e-06	33.075	0.00083635	0.0013993	0.00038893	1178.6	1.4071e-05	1.598e-05	1111	381.74	1.4103e-05	1.5674e-05	391.78	93.147	88.016	28.315	1.4369e-05	32.616	258.848	294.323	226.575	192.761	347.864	341.462	191.479	196.396	292.725	279.551	194.436	199.264	201.279	206.646	357.796	203.711	-8191	255	
1279.562	1	1	0	0	0.044173	0.21936	0.14287	0.22811	0.14017	0.17183	0.22336	0.4676	0.090913	0.26454	0.19736	0.18799	0.11884	0.10932	0.13739	0.42749	-2.1979	-3.0917	-2.2	-3.0146	-2.6875	-2.2583	-3.2042	-2.6792	-2.5083	-3.1333	-2.525	-2.8792	-2.725	-2.4667	-2.9208	-2.8688	495.770	285.848	228.155	411.055	497.694	249.358	487.960	468.876	491.734	197.327	188.865	187.208	487.031	477.636	308.048	537.248	0.00028177	0.00036318	7.1123e-05	1219.4	3.3595e-06	5.026e-06	1142	390.88	3.9387e-06	3.5532e-06	402.33	95.206	89.533	28.649	5.2667e-06	33.148	0.00083566	0.0013793	0.00039894	1179.1	1.4123e-05	1.5688e-05	1112.6	382.01	1.4161e-05	1.4988e-05	392.27	93.436	88.188	28.344	1.4468e-05	32.719	251.791	315.051	253.885	192.576	269.727	343.464	191.323	196.320	307.926	343.943	194.504	199.051	201.234	206.148	345.830	204.350	-8191	255	
1279.658	1	1	0	0	0.088397	0.058437	0.29185	0.13277	0.26079	0.046232	0.21243	0.24985	0.080786	0.15054	0.17975	0.12371	0.17011	0.28301	0.0045613	0.17721	-2.0875	-2.9479	-2.6333	-2.8563	-2.8833	-2.3812	-3.2333	-2.5625	-2.5312	-2.9167	-2.7313	-2.6396	-3.1042	-2.2854	-2.7667	-2.7604	408.639	463.060	322.795	199.095	297.256	403.253	469.190	502.559	315.952	298.388	527.160	484.478	234.202	499.462	319.775	322.597	0.00027245	0.00025938	0.00010355	1213.7	5.2468e-06	3.6038e-06	1147	392.45	4.9838e-06	3.7814e-06	402.77	94.732	90.144	28.768	3.2813e-06	33.059	0.00083413	0.0013629	0.0003829	1178.6	1.4255e-05	1.5306e-05	1113.7	383.83	1.4012e-05	1.5457e-05	394.02	93.017	88.535	28.364	1.4393e-05	32.641	259.232	236.762	236.697	192.657	297.205	347.223	191.143	196.334	317.844	297.606	194.829	199.519	201.086	206.693	302.335	204.019	-8191	255	
1279.754	1	1	0	0	0.23821	0.25058	0.078702	0.11907	0.28659	0.18284	0.0278	0.10538	0.076329	0.17032	0.16436	0.048118	0.28319	0.24447	0.12551	0.19128	-1.9896	-2.6917	-2.2792	-2.6813	-2.7708	-2.2354	-2.9188	-2.7854	-2.3729	-2.9833	-2.6646	-2.6458	-2.8792	-2.5708	-2.5667	-2.9229	215.999	264.452	342.552	200.587	372.009	183.522	353.464	255.579	266.833	298.463	448.397	471.917	501.409	538.159	331.229	306.557	0.00032037	0.00051474	0.00014512	1216.8	6.3425e-06	5.9059e-06	1146.5	393.06	4.1207e-06	4.764e-06	404.93	94.965	89.841	28.419	3.6422e-06	32.702	0.00084941	0.0013752	0.00040681	1178.5	1.4189e-05	1.5747e-05	1114.4	383.46	1.4631e-05	1.5976e-05	392.97	93.002	88.159	28.052	1.5005e-05	32.276	258.240	223.765	290.564	192.879	318.779	357.898	191.310	196.433	309.019	313.964	194.426	198.714	200.438	206.360	332.361	204.045	-8191	255	
1279.851	1	1	0	0	0.12129	0.16712	0.071572	0.20574	0.042437	0.083125	0.29087	0.2084	0.031753	0.083706	0.13216	0.12581	0.12518	0.14677	0.26275	0.12393	-2.1521	-2.9167	-2.4979	-2.8063	-3.1042	-2.6146	-2.8542	-2.9771	-2.3354	-2.7729	-2.675	-2.4583	-2.9125	-2.4188	-2.625	-2.9125	483.095	339.884	204.850	526.013	401.878	446.310	472.807	195.704	295.364	181.153	450.968	435.654	472.653	480.026	294.724	180.465	0.00030606	0.00061465	4.3193e-05	1219.1	3.0486e-06	5.9165e-06	1146.8	392.96	4.0775e-06	5.1019e-06	403.65	94.573	89.678	28.349	2.5029e-06	32.797	0.00086216	0.0014284	0.00041256	1180.2	1.4664e-05	1.6621e-05	1114.2	383.09	1.4726e-05	1.5734e-05	393.02	92.359	87.737	27.961	1.5141e-05	32.277	255.922	256.199	256.899	192.505	313.714	355.062	191.177	196.335	334.787	328.803	194.373	199.113	200.906	206.385	336.766	204.108	-8191	255	
1279.947	1	1	0	0	0.14014	0.18991	0.1969	0.061628	0.19142	0.086595	0.10357	0.30881	0.28536	0.15079	0.07971	0.21428	0.17313	0.13279	0.090219	0.0417	-2.0938	-2.7	-2.7604	-2.5104	-2.9646	-2.4417	-2.7417	-3.0271	-2.3771	-2.9146	-2.8896	-2.3187	-3.0125	-2.6188	-2.3896	-3.1104	487.663	407.055	401.738	488.193	260.796	275.183	450.768	467.235	421.220	227.406	253.218	323.575	460.511	472.415	394.062	402.755	0.00028944	0.00028667	0.00015621	1215.8	3.8477e-06	5.5531e-06	1146.6	394.14	2.9277e-06	4.2462e-06	403.2	94.035	89.838	28.379	5.2668e-06	32.857	0.00086471	0.0014402	0.00040098	1176.6	1.4287e-05	1.6619e-05	1113.3	382.85	1.4329e-05	1.6505e-05	392.98	92.479	87.798	27.935	1.4842e-05	32.374	257.971	271.103	293.724	192.141	265.572	363.823	191.095	196.121	327.072	300.937	194.748	198.378	201.026	206.668	339.846	203.961	-8191	255	
1280.043	1	1	0	0	0.30856	0.15407	0.13677	0.17187	0.1764	0.095454	0.1496	0.089949	0.34853	0.031875	0.11367	0.097859	0.14539	0.12085	0.051198	0.16296	-1.9021	-2.7792	-2.6958	-2.4771	-3.0021	-2.525	-2.55	-3.1042	-2.4479	-2.8708	-2.8958	-2.5625	-3.0479	-2.7229	-2.3292	-2.9875	187.088	531.059	243.257	494.614	378.097	378.240	297.548	535.018	270.530	337.750	465.912	534.524	196.071	264.544	415.657	536.791	0.00030951	0.0005923	0.00013338	1219.7	3.5314e-06	4.3091e-06	1155	394.47	5.5569e-06	3.4117e-06	404.11	94.723	89.962	28.255	4.5506e-06	33.065	0.00083971	0.00145	0.00040629	1178.6	1.4508e-05	1.588e-05	1116.4	383.39	1.4042e-05	1.6125e-05	392.78	92.507	87.667	27.85	1.5161e-05	32.225	260.509	246.863	262.095	192.350	316.436	312.217	190.870	196.099	288.205	300.454	194.583	198.823	201.000	206.449	339.437	203.772	-8191	255	
1280.139	1	1	0	0	0.091298	0.13807	0.084117	0.42972	0.26332	0.13351	0.10779	0.16389	0.098876	0.085235	0.27049	0.057472	0.16273	0.11223	0.15031	0.075516	-1.9708	-2.5979	-2.9396	-2.3771	-3.0438	-2.7417	-2.6271	-3.1813	-2.4708	-2.5312	-3.1854	-2.2896	-3.1063	-2.6917	-2.4542	-3.125	298.743	287.723	269.820	524.423	505.841	483.864	446.764	435.504	420.012	191.540	250.411	292.761	248.305	533.558	375.304	313.937	0.00030602	0.00046115	0.0001162	1211.7	6.4603e-06	3.4956e-06	1145.8	390.82	3.0757e-06	6.2669e-06	402.35	94.292	88.705	28.337	3.9607e-06	32.502	0.00086104	0.0014071	0.00039786	1173.9	1.4535e-05	1.5901e-05	1112.4	381.54	1.4386e-05	1.6347e-05	391.3	92.318	87.411	27.823	1.4606e-05	32.078	254.920	292.738	278.830	192.182	270.849	361.692	191.061	196.135	322.594	312.745	194.086	198.882	200.686	206.319	310.411	204.170	-8191	255	
1280.235	1	1	0	0	0.20038	0.15899	0.19338	0.188	0.16907	0.1712	0.16783	0.22838	0.28657	0.30498	0.091753	0.057403	0.21261	0.28068	0.21499	0.19473	-1.9896	-2.6396	-2.9479	-2.4313	-2.8646	-2.8854	-2.5229	-3.2146	-2.2938	-2.5854	-2.875	-2.4646	-2.9062	-2.8354	-2.4042	-3.0917	368.165	536.899	479.927	231.590	236.218	369.583	196.476	493.176	438.451	226.561	526.642	518.857	179.121	290.257	216.963	469.723	0.00030947	0.00091908	0.00015774	1213.3	5.9825e-06	2.5078e-06	1148.2	391.27	4.5877e-06	6.1995e-06	402.31	93.946	88.848	28.111	3.6493e-06	32.576	0.00086247	0.0014596	0.00038868	1175.6	1.5153e-05	1.5976e-05	1110.7	380.97	1.4848e-05	1.6197e-05	391.66	92.41	87.206	27.772	1.4911e-05	32.118	259.854	246.993	261.209	192.518	328.193	354.901	191.219	196.174	329.962	302.494	194.460	199.137	201.056	206.611	347.676	204.168	-8191	255	
1280.354	1	1	0	0	0.31888	0.29683	0.027916	0.26588	0.14771	0.10227	0.47715	0.207	0.099983	0.1153	0.3136	0.083665	0.25472	0.066047	0.14004	0.23069	-2.1417	-2.6958	-3.0854	-2.3333	-2.8625	-2.9646	-2.3208	-2.925	-2.5229	-2.5833	-3.0396	-2.4229	-2.725	-2.8688	-2.4229	-2.7458	307.825	258.847	203.588	482.217	445.130	219.147	476.474	510.114	415.775	362.192	472.688	258.802	182.533	486.033	296.849	265.623	0.00029637	0.00042227	5.7241e-05	1210.5	5.7382e-06	4.4845e-06	1144.4	388.35	3.9344e-06	6.4631e-06	399.69	93.354	88.368	28.151	8.9984e-07	32.715	0.00084841	0.0014477	0.00039068	1174.4	1.4734e-05	1.5983e-05	1113	380.63	1.444e-05	1.6456e-05	391.23	92.172	87.14	27.831	1.4814e-05	32.313	262.287	241.572	236.989	192.731	346.004	338.660	191.240	196.416	301.173	348.112	194.744	199.237	201.188	206.687	344.123	203.620	-8191	255	
1280.426	1	1	0	0	0.15444	0.22312	0.10662	0.15367	0.25635	0.17543	0.087129	0.11324	0.13658	0.25162	0.13742	0.11329	0.18107	0.31051	0.098768	0.11629	-2.1833	-2.5042	-2.8646	-2.5646	-2.5229	-3.1312	-2.2771	-3.0563	-2.5729	-2.3396	-3.1333	-2.5062	-2.8021	-2.6813	-2.2604	-2.8771	303.300	225.024	336.981	234.320	514.026	433.681	490.159	478.125	408.579	531.502	263.120	339.425	490.974	224.359	498.458	534.175	0.00033955	0.00035738	0.00010657	1204	3.5473e-06	3.9183e-06	1145.5	389.02	4.267e-06	3.9542e-06	397.62	93.51	88.586	28.165	4.1245e-06	32.302	0.00086244	0.0014586	0.00039406	1172.8	1.4615e-05	1.5774e-05	1111.3	380.35	1.4549e-05	1.6457e-05	389.76	91.99	86.969	27.88	1.4822e-05	32.106	257.827	270.696	280.459	192.768	354.790	350.855	191.295	196.282	286.932	327.628	194.363	199.380	201.092	206.699	323.929	204.356	-8191	255	
1280.524	1	1	0	0	0.26687	0.11739	0.058773	0.23719	0.11885	0.27395	0.1095	0.091714	0.037235	0.22854	0.13328	0.070254	0.14685	0.16431	0.19264	0.11335	-2.125	-2.3792	-2.9854	-2.7021	-2.3771	-2.9083	-2.5604	-2.9167	-2.8688	-2.3438	-3.0896	-2.6042	-2.5438	-2.9917	-2.4646	-2.6	314.337	432.594	463.414	195.489	291.998	234.596	219.900	511.080	440.977	218.904	395.221	365.524	494.290	384.515	327.743	472.142	0.00027371	0.00027385	0.00020476	1205.1	6.8131e-06	4.7782e-06	1141.1	388.24	4.7058e-06	3.3392e-06	397.13	93.394	87.782	28.342	6.3951e-06	32.721	0.00086058	0.0014089	0.00039605	1169.3	1.4622e-05	1.5767e-05	1108.1	379.33	1.4289e-05	1.6025e-05	388.91	91.916	86.673	27.86	1.4908e-05	32.231	257.468	280.896	275.460	192.877	320.209	308.717	191.217	196.158	300.190	329.239	194.821	198.879	200.884	206.906	282.104	203.932	-8191	255	
1280.642	1	1	0	0	0.11991	0.18621	0.27401	0.046206	0.26063	0.10946	0.094832	0.080395	0.12657	0.19347	0.12137	0.11047	0.25819	0.18068	0.24045	0.27967	-2.4354	-2.3542	-2.8688	-2.7646	-2.5042	-3.0062	-2.7042	-2.6104	-2.9167	-2.2771	-3.1333	-2.5542	-2.4292	-3.0917	-2.3167	-2.8458	187.312	296.521	495.655	370.198	514.958	521.594	512.171	305.009	452.622	213.541	371.132	207.543	454.655	413.301	478.154	532.819	0.00029011	0.00031687	0.00011542	1207.6	8.3837e-06	3.1927e-06	1142.8	387.03	2.666e-06	6.8617e-06	399.33	93.768	87.889	28.094	3.5009e-06	32.608	0.00085531	0.0014348	0.00039067	1170.5	1.4805e-05	1.6208e-05	1110	378.36	1.4144e-05	1.6733e-05	389.26	92.079	86.672	27.747	1.4888e-05	32.21	260.594	288.429	231.205	192.763	340.140	321.439	191.364	196.025	332.648	330.167	194.420	198.956	200.988	206.503	312.826	204.045	-8191	255	
1280.739	1	1	0	0	0.042742	0.11982	0.10359	0.23949	0.21821	0.23983	0.16138	0.20551	0.13132	0.19293	0.18589	0.07601	0.28422	0.061318	0.06389	0.19283	-2.4875	-2.1646	-2.7542	-2.85	-2.5521	-3.0604	-2.7229	-2.7271	-2.8792	-2.3083	-2.9542	-3.1125	-2.4104	-3.1104	-2.4958	-2.6396	455.287	474.535	438.649	260.945	522.800	218.990	473.488	474.566	440.573	414.808	530.815	451.013	190.886	223.345	267.319	314.532	0.00030596	0.00033446	0.00022729	1197.2	4.5819e-06	4.8174e-06	1140.9	387.34	4.5126e-06	4.3563e-06	396.54	94.398	88.294	28.313	3.8629e-06	32.611	0.00085529	0.0014837	0.00040433	1167	1.4648e-05	1.5718e-05	1108.2	378.48	1.4401e-05	1.6819e-05	387.78	92.202	86.877	27.816	1.4816e-05	32.194	260.211	237.368	261.066	192.611	350.467	333.651	191.304	196.291	327.750	354.849	194.545	199.160	200.964	206.680	328.505	203.880	-8191	255	
1280.835	1	1	0	0	0.23885	0.072483	0.14804	0.12758	0.36691	0.14652	0.15411	0.1595	0.22711	0.067151	0.13662	0.27166	0.099298	0.10015	0.06751	0.058337	-2.5104	-2.3458	-2.7396	-2.8	-2.3583	-2.8896	-2.7271	-2.7229	-3.0083	-2.4	-2.8438	-2.7958	-2.4208	-2.8167	-2.6167	-2.575	392.291	396.204	455.533	406.193	242.316	470.786	445.456	529.251	379.639	317.718	500.414	489.738	208.980	277.584	242.616	486.127	0.00032165	0.00065956	9.5513e-05	1203.6	3.9789e-06	6.3945e-06	1143.5	387.33	5.2465e-06	3.182e-06	399.82	93.764	88.252	28.395	6.8298e-06	32.917	0.0008464	0.0014419	0.00039719	1169.9	1.4632e-05	1.5885e-05	1107.6	377.59	1.4534e-05	1.5928e-05	389.12	92.272	86.841	27.89	1.5137e-05	32.302	259.815	270.370	303.874	192.880	316.056	325.009	191.411	196.143	318.393	300.234	194.336	199.270	201.165	206.474	338.733	203.904	-8191	255	
1280.955	1	1	0	0	0.16828	0.1909	0.12694	0.0081389	0.094591	0.23913	0.21646	0.13453	0.070263	0.26115	0.059447	0.064007	0.34455	0.1287	0.17511	0.16855	-2.8042	-2.3021	-2.5812	-3.0146	-2.3354	-2.9792	-2.7208	-2.6167	-3.0125	-2.3354	-2.8021	-3.0083	-2.3875	-2.9896	-2.7854	-2.2208	447.792	266.073	227.231	524.751	381.951	264.142	493.171	277.626	353.400	221.130	197.655	450.322	458.024	359.833	306.543	486.673	0.00031434	0.00050933	0.00011652	1194.6	4.175e-06	7.689e-06	1139.4	388.89	5.2338e-06	9.0068e-07	398.27	93.819	87.984	28.475	3.0331e-06	32.607	0.0008561	0.0014206	0.00041605	1168.9	1.4511e-05	1.6109e-05	1106.3	378.25	1.4376e-05	1.6592e-05	388.92	92.309	86.746	27.99	1.48e-05	32.354	250.600	233.211	251.353	192.814	276.972	362.724	191.310	195.711	316.141	356.274	194.282	199.713	201.172	206.791	311.775	204.189	-8191	255	
1281.027	1	1	0	0	0.11516	0.13703	0.1661	0.26793	0.26717	0.16977	0.060201	0.22405	0.21495	0.023285	0.1218	0.17729	0.26811	0.19641	0.12155	0.045944	-2.6833	-2.6333	-2.575	-3.2271	-2.2062	-2.7854	-2.8479	-2.3854	-3.1292	-2.6292	-2.5458	-2.9896	-2.6188	-2.6813	-2.9458	-2.4479	331.950	208.185	479.419	520.095	302.193	181.913	249.492	511.930	402.034	434.316	279.705	459.932	479.666	463.916	377.210	327.964	0.00029637	0.00037708	0.00013877	1202.2	7.0482e-06	6.3197e-06	1139.4	387.42	3.0085e-06	1.7137e-06	397.55	93.763	88.143	28.135	5.8783e-06	32.765	0.00084892	0.0014517	0.00040472	1170.1	1.4875e-05	1.6268e-05	1108.8	378.75	1.4652e-05	1.6215e-05	389.54	92.492	86.817	27.899	1.4897e-05	32.358	259.847	216.363	236.457	192.967	279.108	307.173	191.568	196.507	320.279	310.302	194.454	199.086	200.958	206.420	360.003	204.051	-8191	255	
1281.123	1	1	0	0	0.075772	0.075878	0.22264	0.16645	0.021382	0.15326	0.29384	0.23172	0.20638	0.1013	0.18469	0.29824	0.095052	0.10362	0.12592	0.37933	-2.5458	-2.6958	-2.2208	-3.2208	-2.3812	-2.5396	-3.0667	-2.4292	-3.0292	-2.7125	-2.5375	-3.1271	-2.4938	-2.8333	-2.9021	-2.4583	282.244	390.146	262.032	223.595	343.900	443.771	498.521	502.408	242.335	511.478	478.285	209.260	494.486	320.703	488.049	435.059	0.00032076	0.00038365	0.00013268	1208.8	1.7588e-06	4.4428e-06	1140.8	387.1	3.7592e-06	6.3117e-06	398.19	93.176	88.785	28.325	3.189e-06	32.626	0.00086267	0.0014176	0.00040174	1173.3	1.4373e-05	1.6182e-05	1109.2	378.72	1.4243e-05	1.62e-05	389.05	92.237	86.957	27.94	1.4735e-05	32.259	253.396	260.216	220.973	192.759	309.963	295.070	191.615	196.243	333.976	318.190	194.772	199.389	200.979	206.614	312.497	203.994	-8191	255	
1281.244	1	1	0	0	0.32132	0.37097	0.11342	0.27903	0.25935	0.17894	0.38173	0.064795	0.10188	0.14114	0.1501	0.091587	0.11835	0.24317	0.20319	0.17579	-2.3521	-2.6958	-2.3563	-3.0375	-2.3417	-2.4062	-3.1375	-2.3375	-2.8125	-2.8354	-2.3042	-3.0167	-2.6312	-2.625	-3.0271	-2.475	247.833	357.403	401.108	516.866	475.172	185.687	482.220	489.389	357.606	292.992	247.172	284.170	535.857	475.067	235.186	419.592	0.00028639	0.00044178	6.5317e-05	1208.3	3.2267e-06	5.67e-06	1141	386.36	3.8627e-06	7.3983e-06	396.4	93.484	88.286	28.258	4.5739e-06	32.742	0.00085964	0.0014343	0.00040666	1171.6	1.4719e-05	1.6108e-05	1106.4	377.61	1.4666e-05	1.6749e-05	387.55	92.168	86.804	27.845	1.5225e-05	32.279	255.022	238.726	265.931	192.691	353.742	335.293	191.751	196.338	292.584	316.318	194.528	199.153	201.194	206.217	310.760	204.258	-8191	255	
1281.338	1	1	0	0	0.18097	0.047412	0.27077	0.38539	0.19804	0.31308	0.063425	0.075043	0.31406	0.013544	0.16413	0.16152	0.10495	0.14902	0.18961	0.05845	-2.3917	-2.6146	-2.3438	-3.0708	-2.6937	-2.2521	-3.1979	-2.4583	-2.7021	-2.8812	-2.2229	-2.9188	-2.7729	-2.275	-2.9417	-2.3479	294.293	329.408	226.116	503.631	351.802	527.143	374.684	471.609	476.785	248.766	481.878	242.389	537.772	213.303	466.849	276.270	0.00028648	0.00072868	0.00014625	1206.4	2.8521e-06	4.1884e-06	1144	386.84	4.6444e-06	5.6563e-06	395.78	93.709	88.762	28.293	4.4416e-06	32.847	0.00086863	0.0015004	0.00041217	1170.7	1.5151e-05	1.6482e-05	1108.3	377.05	1.5165e-05	1.6246e-05	388.25	92.32	86.749	27.878	1.5195e-05	32.348	255.636	249.521	233.979	192.765	302.276	311.757	191.309	196.415	318.019	347.908	194.221	199.107	201.141	206.773	311.194	204.096	-8191	255	
1281.434	1	1	0	0	0.34026	0.10941	0.13631	0.336	0.19313	0.20405	0.19496	0.15512	0.21738	0.15709	0.11701	0.10329	0.22173	0.085616	0.23677	0.13077	-2.425	-2.8312	-2.2375	-2.9521	-2.6646	-2.2875	-3.05	-2.55	-2.5583	-2.8021	-2.3875	-2.8083	-2.8542	-2.4104	-2.9542	-2.6396	510.453	210.703	193.140	532.247	212.671	213.150	508.631	507.705	512.038	228.107	197.473	530.610	182.376	398.747	188.787	428.216	0.00028918	0.0006747	0.00011133	1206.2	5.7952e-06	4.8387e-06	1144.9	385.35	6.0971e-06	1.429e-06	396.77	93.648	88.362	28.322	3.7057e-06	32.767	0.00087316	0.0014809	0.00040045	1172.2	1.4947e-05	1.6486e-05	1109	377	1.5216e-05	1.6746e-05	387.72	92.23	86.806	27.872	1.5249e-05	32.471	263.988	257.062	247.243	192.539	342.297	280.056	191.703	196.420	306.529	260.760	194.251	199.177	201.057	206.423	368.917	204.075	-8191	255	
1281.531	1	1	0	0	0.20905	0.087686	0.10448	0.10633	0.20559	0.18135	0.31954	0.16646	0.13658	0.17121	0.12327	0.17875	0.26349	0.13093	0.17914	0.23546	-2.2292	-3.0792	-2.1375	-2.7354	-2.7208	-2.1562	-3.3792	-2.7	-2.3042	-3.0354	-2.2687	-2.8583	-3.0083	-2.4167	-2.8229	-2.7625	415.565	446.233	456.185	279.815	197.967	215.212	451.715	194.425	388.153	512.849	186.755	409.287	518.789	505.016	413.773	489.098	0.00029202	0.00058849	0.00013712	1210.2	3.9577e-06	4.0722e-06	1140.6	387.48	2.8523e-06	5.1083e-06	397.9	93.991	88.32	28.539	4.4076e-06	32.942	0.00089225	0.0014952	0.00042419	1170.1	1.4943e-05	1.6612e-05	1108.8	376.23	1.4689e-05	1.6473e-05	387.57	92.22	86.703	27.944	1.5282e-05	32.384	255.600	285.880	250.370	192.495	305.397	307.331	191.351	196.072	295.420	330.614	194.563	198.897	200.617	206.483	307.443	203.900	-8191	255	
1281.651	1	1	0	0	0.25252	0.094578	0.26037	0.2698	0.043648	0.26206	0.24812	0.37005	0.1745	0.26856	0.34798	0.30205	0.1085	0.23122	0.13058	0.12922	-1.9854	-3.025	-2.1875	-2.6063	-2.8125	-2.2396	-2.9688	-2.7292	-2.3542	-2.8708	-2.6063	-2.6604	-3.075	-2.2458	-2.9125	-2.75	338.850	245.077	242.335	524.302	308.844	467.074	492.699	453.007	407.911	462.770	464.461	406.209	220.956	311.815	381.319	309.200	0.00029708	0.00018635	0.00017232	1204.7	3.3077e-06	3.6862e-06	1142.5	387.43	4.2013e-06	4.7287e-06	395.05	93.243	88.102	28.358	2.6966e-06	32.855	0.00086689	0.0014452	0.00042036	1168.6	1.4579e-05	1.6201e-05	1105.9	377.5	1.4777e-05	1.6216e-05	387.02	92.178	86.723	28.002	1.4519e-05	32.396	260.793	319.503	262.510	192.456	314.476	350.878	191.169	196.215	312.607	356.297	194.557	199.275	201.263	206.763	308.408	204.313	-8191	255	
1281.723	1	1	0	0	0.19059	0.11227	0.14802	0.10318	0.040092	0.18359	0.16216	0.20341	0.25215	0.36812	0.18557	0.33701	0.087577	0.13193	0.17306	0.28475	-1.9604	-3.125	-2.1083	-2.6937	-2.9917	-2.3521	-2.9646	-2.8667	-2.3042	-2.9396	-2.5708	-2.5438	-3.0438	-2.3271	-2.7958	-3.0312	214.832	423.551	304.605	376.538	219.374	347.743	486.403	435.725	461.161	218.359	212.772	429.665	481.415	483.042	394.920	203.541	0.00032832	0.00040559	0.00012371	1199.5	3.27e-06	3.8168e-06	1136.8	386.92	3.5808e-06	3.1809e-06	398.05	93.869	88.625	28.538	3.4331e-06	33.225	0.00086837	0.0014141	0.0004043	1166.4	1.4813e-05	1.6408e-05	1105.5	377.33	1.463e-05	1.6231e-05	387.93	92.317	86.925	28.118	1.5269e-05	32.689	259.433	278.347	288.563	192.641	294.611	287.947	191.206	196.150	309.061	322.244	194.710	198.545	201.099	206.495	322.301	203.667	-8191	255	
1281.819	1	1	0	0	0.12684	0.18789	0.087595	0.10426	0.10039	0.26292	0.1328	0.23144	0.26595	0.16435	0.28713	0.19933	0.11928	0.21163	0.32175	0.16869	-2.0042	-2.9562	-2.3083	-2.65	-2.8604	-2.1771	-2.7083	-3.0271	-2.4458	-2.8042	-2.9271	-2.4562	-3.1437	-2.4854	-2.6896	-2.95	246.251	449.745	411.970	204.215	444.546	270.587	359.717	439.341	215.293	259.422	527.048	527.307	470.838	282.040	294.328	441.017	0.00031633	0.00042583	9.8092e-05	1208.1	4.9983e-06	3.2269e-06	1143.6	387.71	4.8576e-06	3.5459e-06	398.82	93.674	88.548	28.347	2.3677e-06	33.085	0.00087191	0.0014672	0.00041151	1170.7	1.4755e-05	1.6476e-05	1107.6	378.2	1.4549e-05	1.6142e-05	388.79	92.383	86.811	27.955	1.5231e-05	32.623	253.572	250.075	252.731	192.608	314.660	324.708	191.107	196.133	319.503	298.807	194.688	199.250	201.115	206.507	255.701	204.475	-8191	255	
1281.915	1	1	0	0	0.052358	0.19818	0.13637	0.15717	0.042997	0.21254	0.15012	0.19354	0.15748	0.2046	0.11034	0.17025	0.34681	0.29521	0.20182	0.14332	-1.9125	-2.9604	-2.7562	-2.3583	-3.1312	-2.4667	-2.7458	-3.0396	-2.2771	-2.8667	-2.7771	-2.4167	-3.1208	-2.5271	-2.6646	-2.9521	429.455	312.697	327.434	191.955	271.391	292.150	453.488	468.302	365.936	345.521	515.304	211.320	447.130	475.642	435.541	374.132	0.00030467	0.00053972	0.0001743	1209	2.7009e-06	1.7319e-06	1147	388.98	5.0743e-06	4.4507e-06	398.98	93.876	88.838	28.341	4.8529e-06	33.201	0.00088219	0.0014779	0.0004157	1171.2	1.4338e-05	1.6845e-05	1108.6	377.94	1.4958e-05	1.6584e-05	388.33	92.096	86.89	27.912	1.5292e-05	32.521	262.511	246.470	256.686	192.563	333.469	394.781	190.949	196.183	329.898	331.983	194.083	199.005	200.815	206.813	335.596	204.134	-8191	255	
1282.036	1	1	0	0	0.24526	0.28384	0.23892	0.082439	0.011425	0.087297	0.34982	0.50761	0.16397	0.19998	0.11249	0.042872	0.12309	0.16507	0.12575	0.048071	-1.7729	-2.7354	-2.7729	-2.5187	-3.0229	-2.4625	-2.5167	-3.1417	-2.3563	-2.8312	-2.9771	-2.4021	-2.6979	-2.4958	-2.3708	-3.0479	522.771	315.998	356.861	511.986	237.310	415.478	463.228	495.259	390.799	215.118	296.503	298.658	513.931	359.442	253.047	182.142	0.0002902	0.00038717	0.00012886	1207.2	2.6613e-06	5.1107e-06	1136.9	388.21	4.1405e-06	6.6252e-06	398.86	94.32	88.704	28.374	3.7029e-06	33.423	0.00087285	0.0014587	0.00040463	1168.7	1.4747e-05	1.6689e-05	1104.3	377.83	1.4815e-05	1.6415e-05	388.32	92.374	86.877	28.007	1.4912e-05	32.65	262.321	266.357	293.797	192.361	306.836	326.181	191.035	196.294	338.717	331.175	194.504	199.261	200.933	206.413	284.632	203.778	-8191	255	
1282.132	1	1	0	0	0.14536	0.12735	0.051386	0.063729	0.048292	0.044916	0.2141	0.19651	0.1991	0.10604	0.2354	0.095768	0.051884	0.28556	0.30714	0.14689	-2.0125	-2.6417	-2.8125	-2.2771	-2.8187	-2.7396	-2.6771	-3.1875	-2.3708	-2.5271	-2.9458	-2.2667	-2.8438	-2.7208	-2.3563	-3.1146	190.778	467.372	532.849	229.952	235.651	263.690	502.081	470.570	350.621	254.938	333.073	227.664	363.235	200.754	341.763	194.411	0.00028371	0.00039217	0.00010362	1210.3	4.0783e-06	5.8293e-06	1146.5	388.54	3.3553e-06	5.1369e-06	400.01	95.292	88.828	28.509	3.7549e-06	33.186	0.00083904	0.001432	0.00039492	1169.2	1.4523e-05	1.6216e-05	1109.3	378.42	1.4788e-05	1.6262e-05	389.37	92.82	87.216	28.135	1.5346e-05	32.692	254.930	262.620	276.526	192.025	363.957	345.947	190.957	196.217	314.429	366.918	194.400	199.187	200.719	206.534	355.168	203.851	-8191	255	
1282.226	1	1	0	0	0.34058	0.19029	0.15186	0.27693	0.21157	0.14983	0.2332	0.22101	0.29197	0.31186	0.060883	0.080223	0.37707	0.22428	0.10122	0.27681	-1.9958	-2.7125	-2.8937	-2.4875	-2.7167	-2.8458	-2.2979	-2.9792	-2.3792	-2.4417	-3.1958	-2.3208	-2.8604	-2.8833	-2.3208	-3.0354	370.767	493.609	259.197	520.393	528.098	350.281	507.786	490.634	282.710	327.300	446.122	466.111	520.652	201.025	264.724	506.339	0.00027697	0.00034432	0.00016734	1199.8	7.3687e-06	3.8705e-06	1141.9	387.03	4.9982e-06	1.0652e-06	396.23	94.199	88.38	28.277	4.5941e-06	33.025	0.00087311	0.0014584	0.0004022	1167.7	1.5109e-05	1.6384e-05	1106.2	377.83	1.4165e-05	1.6368e-05	388.17	92.607	87	28.014	1.494e-05	32.751	257.843	279.904	278.576	192.713	348.859	322.493	191.362	196.524	322.868	278.980	194.367	199.380	201.133	206.835	364.445	204.450	-8191	255	
1282.324	1	1	0	0	0.23978	0.083671	0.10011	0.19655	0.074871	0.036184	0.21753	0.17116	0.16796	0.16187	0.32455	0.18897	0.21958	0.21601	0.15791	0.16453	-2.1063	-2.3979	-2.7792	-2.2833	-2.6542	-3.0062	-2.5292	-3.0646	-2.5875	-2.5896	-3.1771	-2.3396	-2.8125	-3.1417	-2.3146	-2.9062	329.457	206.327	514.976	520.110	254.694	301.668	495.944	382.031	442.902	292.741	526.706	509.479	538.002	239.507	337.723	307.712	0.00029336	0.00039669	0.00015323	1196.5	4.9788e-06	1.7396e-06	1134.7	386.21	4.8565e-06	5.5121e-06	398.35	94.293	88.618	28.394	5.2724e-06	33.267	0.00086684	0.0014502	0.00040173	1166.9	1.4858e-05	1.5317e-05	1104.3	378.29	1.467e-05	1.6219e-05	388.32	92.661	87.105	28.128	1.4924e-05	32.727	263.608	288.377	289.068	192.722	328.246	254.956	191.245	196.529	324.790	363.779	194.544	199.064	200.925	206.638	316.146	204.042	-8191	255	
1282.419	1	1	0	0	0.052007	0.11117	0.30505	0.24467	0.35838	0.11627	0.32624	0.40803	0.11132	0.0483	0.18347	0.099935	0.19327	0.056317	0.084957	0.1364	-2.35	-2.5083	-2.8875	-2.5687	-2.7083	-2.9792	-2.5458	-2.9938	-2.6396	-2.3896	-2.8667	-2.4875	-2.5438	-2.8063	-2.4604	-2.9792	291.535	275.296	466.021	533.508	353.698	374.715	185.125	467.338	418.384	501.184	260.213	437.836	482.233	332.392	467.776	258.441	0.00025971	0.00030659	0.0001228	1205.1	5.035e-06	5.3153e-06	1138.3	388.06	3.5801e-06	4.2749e-06	398.03	94.098	88.825	28.682	3.7449e-06	33.183	0.00084169	0.0013703	0.00040324	1169.5	1.4608e-05	1.6103e-05	1104.6	378.39	1.4421e-05	1.618e-05	389.19	92.724	87.111	28.229	1.4968e-05	32.818	259.000	251.047	257.321	192.522	317.104	337.162	191.294	196.035	331.002	327.839	194.592	199.420	200.921	206.500	313.342	204.276	-8191	255	
1282.515	1	1	0	0	0.27749	0.23863	0.18157	0.34679	0.087004	0.2332	0.10518	0.094281	0.11522	0.012762	0.071235	0.30414	0.052663	0.087423	0.10055	0.27305	-2.3646	-2.2042	-2.8	-2.5167	-2.425	-2.9354	-2.4688	-2.9271	-2.6437	-2.3375	-3.0583	-2.5271	-2.3438	-3.0167	-2.4813	-2.6312	200.635	220.694	380.782	490.572	451.923	360.348	468.788	347.145	450.693	402.498	437.677	517.549	423.712	475.280	326.805	207.162	0.00031346	0.00058972	0.00010732	1200.8	1.8871e-06	6.6922e-06	1141.4	385.5	5.3758e-06	6.9552e-06	397.04	93.911	88.655	28.358	4.7421e-06	33.244	0.00086282	0.0014523	0.00039364	1168.2	1.4234e-05	1.6058e-05	1106.8	377.9	1.4377e-05	1.6263e-05	388.91	92.599	87.339	28.179	1.4798e-05	32.985	258.663	241.663	234.708	192.566	298.612	327.797	191.178	196.186	321.906	356.411	194.649	199.678	200.983	207.055	332.358	204.146	-8191	255	
1282.635	1	1	0	0	0.038039	0.16498	0.041286	0.13422	0.024835	0.18463	0.1573	0.20074	0.071684	0.1945	0.13536	0.16513	0.16753	0.1356	0.30155	0.066223	-2.425	-2.3833	-2.9375	-2.8042	-2.3875	-2.8333	-2.4333	-2.6896	-2.8625	-2.2687	-2.9854	-2.7208	-2.5583	-3.0021	-2.4229	-2.7417	510.592	512.851	428.128	488.501	487.669	367.045	531.490	260.438	481.101	480.496	432.736	385.464	366.500	180.209	500.729	258.553	0.00029081	0.00036092	0.00011332	1209.4	4.4393e-06	4.0121e-06	1137.1	386.94	4.4742e-06	4.4648e-06	398.17	93.941	88.762	28.64	3.7282e-06	33.291	0.00083813	0.0014286	0.00040439	1171.4	1.4675e-05	1.5645e-05	1106.3	377.95	1.4566e-05	1.659e-05	388.72	92.855	87.264	28.256	1.4664e-05	32.931	257.737	282.214	224.312	192.281	332.876	293.436	191.672	196.418	320.397	332.229	194.678	199.079	201.088	206.380	340.598	203.896	-8191	255	
1282.732	1	1	0	0	0.049194	0.097699	0.24194	0.10271	0.30453	0.18708	0.092679	0.12944	0.19816	0.31264	0.043896	0.32097	0.17914	0.1069	0.13053	0.032495	-2.475	-2.2313	-2.8479	-2.8542	-2.4125	-3.1542	-2.6125	-2.8083	-2.8667	-2.3271	-2.9813	-2.8083	-2.3875	-3.0542	-2.5542	-2.4333	380.011	445.254	386.295	510.082	284.670	341.329	194.152	382.618	284.856	428.759	275.987	440.892	179.710	413.994	337.900	453.454	0.00031356	0.0006186	5.4543e-05	1205.3	4.7531e-06	3.7774e-06	1134	388.87	3.7222e-06	6.1786e-06	400.57	95.471	89.022	28.839	1.5948e-06	33.464	0.00085233	0.0014253	0.00040193	1169.4	1.4417e-05	1.5564e-05	1103.8	378.26	1.4213e-05	1.5858e-05	389.83	93.271	87.383	28.274	1.4881e-05	32.925	258.714	251.235	245.690	192.397	327.849	289.275	191.161	195.695	299.612	318.722	194.697	199.098	200.924	206.585	349.254	203.306	-8191	255	
1282.828	1	1	0	0	0.080878	0.22644	0.18507	0.16502	0.27076	0.094009	0.13632	0.18196	0.086102	0.27581	0.31521	0.14579	0.22759	0.18481	0.30223	0.049521	-2.5021	-2.4542	-2.7167	-2.9229	-2.2583	-2.9021	-2.6625	-2.4792	-3.0083	-2.5312	-2.6833	-2.8021	-2.3333	-2.8063	-2.5479	-2.4792	396.461	490.519	501.665	519.216	494.241	405.731	403.356	480.471	279.970	366.190	518.480	222.885	531.872	303.106	345.796	182.342	0.00030828	0.00048567	9.8021e-05	1211.4	1.1749e-06	5.6905e-06	1139.7	390.09	5.2109e-06	4.0797e-06	401.95	95.307	89.873	28.579	5.2452e-06	33.661	0.00084928	0.0014107	0.00040586	1169.8	1.4111e-05	1.5558e-05	1106.7	379.03	1.4077e-05	1.5558e-05	390.83	93.315	87.745	28.253	1.4552e-05	33.117	253.462	271.777	225.607	192.470	299.654	292.649	191.447	196.047	328.356	335.386	194.165	199.297	200.796	206.606	324.487	204.328	-8191	255	
1282.924	1	1	0	0	0.092334	0.098545	0.12475	0.31002	0.28892	0.23362	0.1989	0.32406	0.19878	0.16832	0.095124	0.074166	0.14852	0.11291	0.20296	0.16036	-2.625	-2.2958	-2.5812	-3.0375	-2.2771	-2.7979	-2.8667	-2.4292	-3.0479	-2.4813	-2.775	-2.9708	-2.2792	-2.8292	-2.7271	-2.4813	381.130	402.872	423.891	482.537	242.487	199.073	489.894	513.863	532.373	367.570	292.548	461.552	529.940	527.113	241.798	399.920	0.00030886	0.00050718	0.00010071	1207.1	3.3928e-06	3.0974e-06	1141.1	390.77	4.6539e-06	2.4749e-06	399.63	94.839	88.832	28.856	3.9332e-06	33.961	0.00082385	0.0014094	0.0003915	1171.5	1.4347e-05	1.5621e-05	1106.2	379.47	1.4113e-05	1.6134e-05	390.9	93.384	87.536	28.376	1.4422e-05	33.186	253.017	258.670	284.365	192.685	268.621	354.517	191.537	196.057	299.774	332.708	194.243	199.355	201.070	206.451	363.942	203.926	-8191	255	
1283.020	1	1	0	0	0.082359	0.055222	0.24876	0.17985	0.13502	0.11742	0.23673	0.34199	0.14928	0.18105	0.25791	0.15647	0.19926	0.14234	0.03607	0.26148	-2.6604	-2.4562	-2.5625	-3.0458	-2.4562	-2.7313	-2.9938	-2.6	-2.9667	-2.675	-2.5333	-2.9125	-2.5333	-2.85	-2.9313	-2.4354	220.433	508.898	201.749	503.205	389.501	368.920	493.516	494.943	308.673	471.368	495.256	221.678	530.371	301.604	324.070	429.994	0.00030812	0.00057804	0.00010794	1206.1	4.9576e-06	7.1049e-06	1140.6	389.56	4.6589e-06	7.1393e-06	398.91	94.587	88.546	28.468	2.4439e-06	33.375	0.00084113	0.0014095	0.00039059	1172.2	1.4167e-05	1.6059e-05	1108.8	379.66	1.3712e-05	1.666e-05	390.59	93.223	87.343	28.186	1.453e-05	32.883	260.483	240.578	263.317	192.732	318.333	331.312	191.212	195.973	341.702	361.697	194.418	198.972	201.204	206.402	344.164	203.984	-8191	255	
1283.116	1	1	0	0	0.25283	0.29684	0.16591	0.11345	0.087973	0.076821	0.21128	0.32854	0.17339	0.040977	0.19152	0.20746	0.10701	0.17396	0.027154	0.18662	-2.4646	-2.7854	-2.4583	-3.3667	-2.3063	-2.8271	-2.9104	-2.3438	-3.0229	-2.7875	-2.4667	-2.9021	-2.5438	-2.4646	-3.0979	-2.3521	480.814	385.448	462.933	472.742	302.153	321.340	510.877	190.455	297.239	356.237	507.776	210.716	299.149	219.366	389.405	455.677	0.00032949	0.0002427	0.00017776	1208.9	6.9655e-06	4.5739e-06	1147.1	390.76	5.2915e-06	5.0096e-06	401.36	94.545	88.492	28.47	5.0097e-06	33.26	0.00083563	0.0014289	0.00039415	1172	1.4928e-05	1.5921e-05	1108.5	379.53	1.4173e-05	1.6216e-05	390.03	92.848	87.098	28.043	1.4505e-05	32.772	252.151	221.698	255.561	192.743	320.004	345.005	191.206	195.919	341.115	349.520	194.198	199.462	200.714	206.411	349.530	204.136	-8191	255	
1283.212	1	1	0	0	0.26773	0.30749	0.046401	0.18286	0.15055	0.12473	0.2015	0.25039	0.021604	0.11247	0.07523	0.096437	0.20961	0.27337	0.076002	0.13315	-2.5625	-2.6896	-2.1771	-3.075	-2.5563	-2.6208	-3.1646	-2.4646	-2.6896	-2.8458	-2.5708	-2.9458	-2.6208	-2.6208	-2.8812	-2.4	306.049	308.504	384.817	523.268	331.322	315.494	323.821	478.235	372.866	259.714	478.686	529.087	535.991	335.476	381.393	288.558	0.00031764	0.00036879	0.00015075	1203.7	2.3014e-06	3.5654e-06	1140	389.28	3.8425e-06	5.8546e-06	400.94	95.293	88.39	28.345	4.6391e-06	33.048	0.00087792	0.0014245	0.00040173	1169.3	1.441e-05	1.6135e-05	1107.8	378.86	1.4513e-05	1.5967e-05	390.44	92.982	87.044	27.97	1.4651e-05	32.768	258.820	259.964	236.512	192.453	386.125	339.755	191.264	196.196	344.975	321.920	194.293	199.061	200.907	206.363	279.700	204.116	-8191	255	
1283.331	1	1	0	0	0.12117	0.17056	0.20429	0.15579	0.052101	0.14282	0.092734	0.37387	0.19916	0.37263	0.14881	0.042327	0.12313	0.35412	0.14279	0.30793	-2.3354	-2.8979	-2.1625	-2.9562	-2.5479	-2.425	-3.0438	-2.4167	-2.65	-2.8375	-2.4042	-2.9979	-2.6813	-2.2542	-3.0229	-2.2938	197.681	213.157	236.669	513.104	272.560	450.013	515.081	452.218	305.280	289.087	477.256	300.309	504.925	263.110	316.284	535.834	0.00030006	0.00035079	0.00011527	1210.4	2.8073e-06	6.0106e-06	1139	387.01	2.5091e-06	3.1686e-06	399.24	94.711	89.277	28.379	3.6581e-06	33.204	0.00085692	0.0014346	0.00040886	1170.2	1.4154e-05	1.6175e-05	1107.4	378.84	1.4573e-05	1.6271e-05	390.37	93.004	87.484	27.983	1.4963e-05	32.744	257.155	292.766	262.767	192.282	304.835	330.853	191.383	196.256	307.251	309.706	194.297	198.781	200.993	206.169	314.890	203.987	-8191	255	
1283.427	1	1	0	0	0.1868	0.14352	0.17975	0.1446	0.10662	0.27809	0.35528	0.15671	0.24713	0.24534	0.14014	0.053779	0.18939	0.23629	0.27826	0.45636	-2.0792	-2.8354	-2.2062	-2.8458	-2.6875	-2.3417	-3.1208	-2.5729	-2.6875	-2.8083	-2.4042	-2.9354	-2.8896	-2.5	-2.8729	-2.3958	363.427	386.694	219.895	487.695	373.158	499.765	457.371	536.789	212.770	206.822	351.654	221.899	501.177	469.052	202.841	507.410	0.00029221	0.00069468	5.5649e-05	1205.4	3.3198e-06	5.2062e-06	1145.3	389.8	4.037e-06	6.9731e-06	399.27	94.213	87.828	28.266	2.902e-06	33.097	0.00086002	0.0014365	0.00039357	1168.8	1.4556e-05	1.5851e-05	1107.4	378.68	1.4546e-05	1.6389e-05	389.09	92.729	86.748	27.907	1.4673e-05	32.596	257.059	243.308	227.480	192.471	367.714	320.046	191.127	196.200	336.338	343.341	194.313	199.209	200.891	206.608	311.858	204.209	-8191	255	
1283.523	1	1	0	0	0.17936	0.25065	0.28131	0.088539	0.15086	0.13527	0.29874	0.10862	0.1218	0.22409	0.22551	0.14612	0.28753	0.11883	0.1204	0.36261	-2.0792	-2.9625	-2.175	-2.7396	-3.0208	-2.425	-3.0875	-2.6458	-2.3583	-2.8333	-2.4208	-2.7438	-2.9729	-2.3833	-2.9125	-2.8771	271.369	414.098	418.587	490.545	342.422	240.921	521.439	431.789	364.242	437.650	445.379	496.890	508.313	483.785	418.463	417.741	0.00028534	0.00041373	0.00014774	1200.1	5.5097e-06	4.3383e-06	1144.1	386.78	3.1342e-06	5.889e-06	398.92	94.511	88.16	28.203	4.4379e-06	32.917	0.00086336	0.0014124	0.00039692	1164.9	1.4207e-05	1.5698e-05	1105.6	377.82	1.4144e-05	1.6428e-05	389.49	92.864	86.898	27.868	1.4707e-05	32.595	264.054	253.392	243.769	192.850	315.735	309.266	191.576	196.574	309.515	340.417	194.492	199.033	200.990	206.573	331.757	204.277	-8191	255	
1283.595	1	1	0	0	0.025296	0.3296	0.1629	0.19847	0.095839	0.23191	0.17605	0.22379	0.16334	0.083077	0.20836	0.065786	0.17407	0.081489	0.20632	0.25359	-2.0458	-2.9458	-2.2583	-2.6854	-2.6708	-2.3792	-3.0146	-2.7938	-2.3396	-3.0542	-2.4646	-2.8146	-2.9104	-2.325	-2.6937	-2.8396	328.384	292.780	299.639	495.085	206.073	469.564	527.056	525.544	320.694	506.224	481.530	425.922	492.169	252.144	382.178	462.473	0.00026925	0.00060034	5.1661e-05	1199.1	4.4751e-06	9.6857e-07	1135.6	385.32	5.571e-06	4.3304e-06	396.77	95.012	88.83	28.433	3.4246e-06	33.207	0.0008393	0.0014058	0.00040029	1165.8	1.4235e-05	1.5874e-05	1104.7	377.81	1.4296e-05	1.5867e-05	388.67	92.985	87.082	27.962	1.484e-05	32.746	251.468	264.347	295.475	192.577	351.594	431.717	191.305	196.404	310.010	311.633	194.665	198.944	201.095	206.270	303.063	204.225	-8191	255	
1283.716	1	1	0	0	0.23951	0.080136	0.25405	0.057936	0.13314	0.073106	0.21099	0.19481	0.26011	0.17377	0.26654	0.32453	0.33036	0.30044	0.10522	0.25106	-2.0333	-2.8833	-2.3979	-2.7396	-2.9875	-2.3292	-2.7354	-2.9375	-2.1333	-2.8771	-2.6146	-2.4521	-2.8542	-2.5146	-2.5229	-2.7438	522.301	328.257	379.060	413.581	537.435	435.536	498.456	510.235	413.879	187.448	251.893	181.908	487.793	458.012	503.703	528.025	0.00030324	0.0006536	9.4254e-05	1203	4.7397e-06	1.8658e-06	1142.3	386.49	3.2778e-06	4.954e-06	404.16	95.886	89.409	28.596	3.1066e-06	33.693	0.0008507	0.0014341	0.00039554	1168.7	1.4043e-05	1.6092e-05	1106.4	377.33	1.4074e-05	1.5702e-05	391.37	93.291	87.189	28.029	1.446e-05	32.933	254.794	242.165	270.010	192.512	311.813	396.685	190.990	196.148	294.656	313.869	194.168	198.667	200.716	206.102	327.320	203.581	-8191	255	
1283.812	1	1	0	0	0.040298	0.10202	0.036853	0.20264	0.16234	0.17908	0.14972	0.11134	0.16564	0.035213	0.18133	0.1761	0.12566	0.12807	0.17548	0.21222	-1.8604	-2.9104	-2.7104	-2.7125	-2.7417	-2.3833	-2.8417	-3.0479	-2.3063	-3.0125	-2.7917	-2.5667	-3.0875	-2.4917	-2.5812	-2.9625	400.304	342.517	385.737	507.713	418.148	422.544	424.365	508.464	388.660	279.552	451.421	475.528	357.267	410.557	208.361	481.280	0.00030554	0.00052085	3.1665e-05	1199.4	5.9424e-06	5.1659e-06	1134.8	386.96	3.7178e-06	5.4743e-06	397.23	94.132	88.662	28.403	4.2708e-06	33.234	0.00084332	0.0013758	0.00038924	1164.9	1.4475e-05	1.5755e-05	1103.2	377.12	1.4312e-05	1.5781e-05	388.28	92.425	87.014	27.951	1.4497e-05	32.81	252.927	262.824	386.250	192.494	304.220	307.511	191.166	196.457	330.234	323.099	194.773	199.057	200.788	206.408	338.784	203.774	-8191	255	
1283.908	1	1	0	0	0.23505	0.10484	0.19305	0.16484	0.1165	0.1619	0.50717	0.3447	0.17628	0.23279	0.19749	0.20587	0.12228	0.40819	0.10586	0.067636	-1.9312	-2.7875	-2.6875	-2.4958	-2.8812	-2.4479	-2.6833	-3.1188	-2.3063	-2.8	-2.9062	-2.4521	-3.2396	-2.5292	-2.4583	-3.2	301.370	470.184	199.988	538.484	379.908	475.992	487.374	450.221	358.659	273.859	208.084	456.563	226.767	198.320	499.110	222.744	0.00031369	0.00042218	0.00017555	1196.5	3.8602e-06	4.6433e-06	1134.1	385.59	3.4056e-06	4.1632e-06	397.2	94.627	88.476	28.371	3.9098e-06	33.39	0.0008588	0.0014132	0.00038953	1161.2	1.4408e-05	1.5903e-05	1101	377.06	1.4248e-05	1.5909e-05	388.21	92.907	86.838	28.067	1.446e-05	32.895	256.064	251.248	241.776	192.607	326.536	351.622	191.119	196.485	318.138	340.500	194.308	199.185	201.188	206.741	342.126	204.386	-8191	255	
1284.004	1	1	0	0	0.1836	0.064677	0.17295	0.2977	0.18639	0.21917	0.22761	0.049534	0.1564	0.12319	0.060682	0.24767	0.18995	0.13605	0.1015	0.22505	-1.7917	-2.5083	-2.9146	-2.4188	-2.9125	-2.5229	-2.5125	-3.0833	-2.3792	-2.8167	-3.0104	-2.4708	-3.0542	-2.5229	-2.3792	-3.2167	428.993	371.498	521.531	506.333	249.843	340.642	475.700	326.719	477.831	374.026	381.604	533.457	231.803	440.647	378.459	527.544	0.00029417	0.00058266	0.00020262	1195.9	2.14e-06	3.77e-06	1137	387.05	3.9866e-06	2.3787e-06	398.2	94.439	88.489	28.655	4.4944e-06	33.385	0.00084676	0.0014132	0.00039629	1160	1.4053e-05	1.5636e-05	1103.4	376.86	1.4199e-05	1.59e-05	389.03	92.978	87.003	28.085	1.4874e-05	33.021	261.066	236.002	286.555	192.719	336.998	356.557	191.143	196.045	297.311	271.994	194.444	199.059	201.000	206.435	303.962	204.274	-8191	255	
1284.125	1	1	0	0	0.238	0.028506	0.26807	0.23432	0.18192	0.10836	0.38941	0.30203	0.051063	0.042138	0.020466	0.0083841	0.28737	0.21993	0.18823	0.038878	-1.9708	-2.7188	-2.7438	-2.2042	-2.8729	-2.7021	-2.3271	-3.1104	-2.4917	-2.5312	-2.8271	-2.3354	-2.8875	-2.8438	-2.5542	-3.1083	497.623	360.711	308.255	534.443	443.558	363.158	480.488	499.945	352.410	516.359	303.262	459.369	534.312	293.118	534.687	431.160	0.00032753	0.00045253	9.6429e-05	1195.9	4.5033e-06	5.3569e-06	1139.3	384.59	5.2093e-06	4.1716e-06	396.9	95.419	88.419	28.339	2.9774e-06	33.442	0.00085396	0.0014344	0.00039248	1162.3	1.4565e-05	1.5779e-05	1103.7	375.88	1.4313e-05	1.6208e-05	388.52	93.294	86.922	28.051	1.4587e-05	33.011	255.714	321.463	280.763	192.725	312.953	333.722	191.173	196.265	332.938	339.627	194.325	198.976	200.747	206.551	348.962	204.106	-8191	255	
1284.197	1	1	0	0	0.15495	0.13757	0.068592	0.11669	0.37866	0.1332	0.17376	0.10892	0.082123	0.13227	0.18687	0.15362	0.25036	0.25807	0.23134	0.14614	-1.8354	-2.5396	-2.8729	-2.5354	-2.7333	-2.7542	-2.5708	-2.9729	-2.4875	-2.4771	-2.9062	-2.3438	-2.8625	-2.7042	-2.2	-3.1521	457.227	283.743	220.309	403.626	468.274	217.364	187.771	470.853	348.746	354.610	434.796	447.491	210.039	476.143	317.857	513.236	0.00027953	0.00071264	7.0408e-05	1197.5	5.3834e-06	4.4721e-06	1138.8	386.68	3.9379e-06	8.4623e-06	399	94.791	88.176	28.479	5.7332e-06	33.659	0.00083609	0.0014607	0.00039574	1160.6	1.4267e-05	1.568e-05	1103.5	376.25	1.4475e-05	1.6038e-05	388.29	92.803	86.862	28.078	1.4691e-05	33.069	263.479	266.608	315.068	192.563	329.867	291.787	191.267	196.126	353.907	365.367	194.300	199.031	201.221	206.522	319.978	203.983	-8191	255	
1284.317	1	1	0	0	0.1124	0.18658	0.10529	0.081931	0.11762	0.079668	0.2336	0.12835	0.046439	0.25802	0.17882	0.22327	0.078392	0.16939	0.051567	0.10658	-2.2042	-2.1875	-2.9521	-2.6937	-2.9229	-2.7958	-2.4375	-3.1229	-2.7042	-2.4417	-3.125	-2.4229	-2.7875	-2.9708	-2.3854	-2.9125	362.465	334.192	355.434	196.367	300.705	243.704	428.882	471.575	267.823	366.788	459.499	482.312	248.268	191.347	184.995	395.276	0.00027538	0.00058968	0.00012858	1198.4	4.355e-06	5.6768e-06	1133.8	385.83	3.5576e-06	5.8967e-06	396.94	94.179	88.396	28.485	2.6545e-06	33.456	0.00087071	0.0014482	0.00039595	1162	1.4515e-05	1.622e-05	1101.8	375.89	1.4362e-05	1.5917e-05	388.47	92.771	86.736	28.028	1.4602e-05	33.041	258.053	263.253	279.489	192.812	312.118	303.946	191.266	196.262	278.977	351.165	194.851	199.732	201.155	206.584	318.100	204.201	-8191	255	
1284.412	1	1	0	0	0.069856	0.12563	0.078632	0.063107	0.08157	0.10973	0.11297	0.13515	0.20052	0.072225	0.24279	0.17672	0.21809	0.10202	0.18723	0.062139	-2.2938	-2.3625	-3.0271	-2.7333	-2.6562	-2.8292	-2.4417	-3.0375	-2.5042	-2.4	-3.1875	-2.4521	-2.525	-3.0354	-2.2833	-2.8479	312.207	394.909	234.956	275.740	335.330	306.844	430.412	484.639	475.952	501.072	501.874	193.698	210.696	409.922	440.984	339.571	0.00033527	0.00067998	9.2189e-05	1194.1	4.0342e-06	6.2605e-06	1137.5	384.76	3.8492e-06	2.7158e-06	397.3	94.606	88.489	28.205	4.2389e-06	33.586	0.00088102	0.0014547	0.00039417	1160.2	1.4514e-05	1.5819e-05	1103	375.76	1.4292e-05	1.5863e-05	388.7	93.27	86.964	28.02	1.4718e-05	33.1	257.760	258.449	221.410	192.738	274.567	307.276	191.426	196.252	299.374	348.487	194.681	199.489	200.880	206.748	315.052	204.018	-8191	255	
1284.508	1	1	0	0	0.27863	0.28396	0.2189	0.13267	0.15808	0.35993	0.14059	0.3452	0.12307	0.20544	0.090091	0.18719	0.19081	0.055914	0.054228	0.34366	-2.3812	-2.1771	-2.9083	-2.6083	-2.4562	-2.8896	-2.4667	-2.8937	-2.825	-2.2	-2.875	-2.6063	-2.2646	-3.1104	-2.4188	-2.8396	312.994	199.669	210.515	415.896	440.875	500.728	530.559	530.791	482.826	523.351	536.219	494.292	417.597	457.941	431.604	268.603	0.00030612	0.00050511	0.00012168	1205.3	4.812e-06	6.4075e-06	1135.1	384.41	3.3783e-06	3.4084e-06	398.39	94.586	88.346	28.496	3.1851e-06	33.839	0.00086091	0.0014262	0.00040291	1163.9	1.4617e-05	1.5985e-05	1102.6	374.98	1.4856e-05	1.614e-05	387.78	93.059	86.482	28.005	1.5008e-05	33.163	251.567	236.016	248.826	192.465	308.660	273.653	191.290	196.277	325.452	397.178	194.422	199.179	201.099	206.621	368.542	204.142	-8191	255	
1284.604	1	1	0	0	0.20046	0.11633	0.11379	0.14495	0.25331	0.30773	0.18594	0.22745	0.14674	0.11158	0.19364	0.06707	0.10983	0.084758	0.12631	0.26161	-2.575	-2.0438	-2.7646	-2.8729	-2.325	-2.9854	-2.5792	-2.6479	-2.9188	-2.5125	-3.1042	-2.8896	-2.3354	-2.9875	-2.25	-2.4562	368.203	489.996	461.395	280.017	419.223	369.600	443.138	483.449	439.715	355.314	359.491	476.256	474.518	220.551	328.873	525.973	0.00031963	0.00044444	0.00012432	1192.7	2.7555e-06	5.8693e-06	1135.3	385.37	4.6554e-06	4.5862e-06	398.13	94.485	88.538	28.491	4.4036e-06	33.685	0.00085335	0.0014554	0.00040645	1160.4	1.4894e-05	1.6188e-05	1099.7	375.01	1.4518e-05	1.5809e-05	387.56	92.876	86.811	28.072	1.4607e-05	33.194	259.166	258.894	221.776	192.550	323.361	306.883	191.170	196.106	323.005	303.611	194.560	199.125	201.214	206.354	350.917	203.449	-8191	255	
1284.724	1	1	0	0	0.17756	0.32876	0.10931	0.18717	0.28738	0.17698	0.2123	0.10138	0.20299	0.14648	0.13171	0.056312	0.21917	0.098414	0.15296	0.37019	-2.5625	-2.1625	-2.8625	-2.9646	-2.2188	-2.9583	-2.7104	-2.6312	-3.0729	-2.2208	-2.7979	-2.7729	-2.2958	-2.7646	-2.6875	-2.3479	454.335	363.625	408.543	304.936	341.303	245.252	492.100	513.757	518.726	485.508	498.687	406.441	476.458	207.413	480.676	526.575	0.00027445	0.00036725	0.00012609	1203.7	4.1234e-06	3.8849e-06	1132.9	385.88	4.3401e-06	2.296e-06	402.28	95.254	88.888	28.505	3.5993e-06	33.823	0.0008506	0.0014097	0.00040554	1161.8	1.4798e-05	1.5424e-05	1100.3	374.93	1.4241e-05	1.5926e-05	389.25	93.088	86.927	28.11	1.4527e-05	33.249	255.262	197.544	233.399	192.479	290.401	282.256	191.189	196.171	328.528	325.031	194.394	199.200	200.777	206.417	303.220	203.673	-8191	255	
1284.821	1	1	0	0	0.12196	0.15645	0.14428	0.21972	0.17823	0.1651	0.13934	0.17641	0.068868	0.12837	0.2363	0.035295	0.14217	0.2328	0.20767	0.15148	-2.2958	-2.275	-2.5708	-2.9625	-2.3	-3.0583	-2.6875	-2.4396	-2.9375	-2.5563	-2.9146	-2.9583	-2.3771	-2.8125	-2.5833	-2.3021	331.470	319.034	197.079	513.807	414.397	362.097	189.153	485.765	265.640	345.213	467.278	225.556	462.319	214.733	287.273	183.877	0.00030489	0.00068004	0.00012592	1200.6	1.6209e-06	4.6514e-06	1138.8	385.61	5.5772e-06	3.5532e-06	399.88	95.178	88.496	28.595	2.3469e-06	33.781	0.00085661	0.0014661	0.00039948	1162.2	1.4443e-05	1.5846e-05	1102.7	375.4	1.4415e-05	1.6204e-05	388.55	93.161	86.839	28.092	1.4371e-05	33.289	252.477	229.942	299.301	192.567	369.263	316.259	191.234	195.984	332.440	353.749	194.215	199.059	200.918	206.471	307.063	204.108	-8191	255	
1284.892	1	1	0	0	0.153	0.017735	0.074453	0.15297	0.16724	0.27188	0.2717	0.21503	0.083206	0.052704	0.11631	0.2155	0.24638	0.17171	0.12809	0.17469	-2.5521	-2.4146	-2.5708	-2.9792	-2.3646	-2.6354	-2.7146	-2.4979	-2.8396	-2.5229	-2.3771	-2.8688	-2.4313	-2.75	-2.7313	-2.4188	516.896	241.602	189.144	504.147	483.360	335.823	212.058	485.652	344.650	292.217	531.738	528.538	263.746	207.806	465.361	436.381	0.00031025	0.00077825	9.8164e-05	1201.1	4.3265e-06	7.4823e-06	1140.4	386.9	4.0494e-06	2.739e-06	398.58	95.576	88.71	28.66	3.6499e-06	33.961	0.00084981	0.0014114	0.0003958	1159.5	1.408e-05	1.5568e-05	1100.6	375.24	1.4024e-05	1.5586e-05	387.95	93.42	87.163	28.212	1.4552e-05	33.382	260.183	259.142	206.342	192.402	360.118	315.948	191.062	195.653	317.528	309.047	194.399	199.079	200.774	206.325	331.518	204.133	-8191	255	
1285.013	1	1	0	0	0.027288	0.20533	0.093861	0.13544	0.14001	0.22396	0.20694	0.22478	0.14462	0.47358	0.21862	0.16662	0.12538	0.30463	0.18553	0.0816	-2.5542	-2.3833	-2.3688	-2.9938	-2.5021	-2.6729	-2.8542	-2.475	-2.9	-2.4271	-2.3771	-2.8604	-2.1458	-2.5687	-2.8937	-2.325	370.334	374.482	260.906	180.745	325.574	300.749	509.610	518.382	383.565	288.518	492.116	405.942	511.070	204.096	458.496	530.493	0.00033407	0.00063059	0.00016177	1199.7	4.0354e-06	5.0641e-06	1137.5	386.55	6.435e-06	4.1523e-06	400.82	95.589	88.579	28.761	4.3744e-06	33.851	0.00082838	0.0013819	0.00039697	1161.2	1.4245e-05	1.5911e-05	1100.4	375.97	1.417e-05	1.5632e-05	388.8	93.664	87	28.252	1.4266e-05	33.247	260.670	249.608	297.845	192.626	306.377	321.672	191.093	195.800	326.774	348.491	194.169	198.948	200.947	206.432	343.383	203.667	-8191	255	
1285.109	1	1	0	0	0.18013	0.25928	0.10931	0.18449	0.13838	0.14238	0.20571	0.13472	0.078991	0.31754	0.2245	0.14597	0.20779	0.068752	0.18815	0.097503	-2.6021	-2.6854	-2.4021	-2.9208	-2.2292	-2.4167	-3.0042	-2.3333	-2.7229	-2.5958	-2.4271	-3.2229	-2.5021	-2.7062	-2.9354	-2.3708	313.307	357.506	335.331	487.542	458.826	233.073	501.000	180.096	339.062	374.899	512.621	182.084	530.056	485.117	360.526	522.378	0.00029735	0.00038981	0.00019221	1207.9	5.5418e-06	5.3539e-06	1138.5	387.17	5.2662e-06	4.8955e-06	402.44	96.064	88.847	28.483	3.2854e-06	34.04	0.0008282	0.0014026	0.00039225	1162.7	1.4266e-05	1.5904e-05	1102.4	375.9	1.4705e-05	1.5921e-05	388.89	93.64	87.213	28.208	1.4285e-05	33.388	256.084	262.828	269.498	192.408	324.369	294.572	191.143	196.061	316.558	356.145	194.214	199.458	200.882	206.316	342.986	204.179	-8191	255	
1285.203	1	1	0	0	0.22009	0.25273	0.12991	0.32349	0.18855	0.11485	0.02953	0.17264	0.25743	0.061673	0.13728	0.14648	0.065257	0.08828	0.16731	0.032708	-2.4583	-2.5729	-2.3812	-2.85	-2.4729	-2.425	-3.1063	-2.375	-2.6896	-2.8604	-2.3792	-2.8042	-2.5708	-2.5208	-2.8708	-2.1958	395.506	508.059	179.005	492.148	531.694	305.705	237.035	350.681	480.570	212.723	537.601	532.056	335.155	207.490	453.947	236.002	0.00030134	0.00069658	0.00016008	1202.8	3.6148e-06	3.7965e-06	1138.3	386.81	6.8812e-06	3.9372e-06	399.49	95.643	89.121	28.751	4.4275e-06	34.003	0.00084879	0.0014116	0.00038959	1161.6	1.449e-05	1.6232e-05	1103.9	376.05	1.4505e-05	1.5779e-05	388.02	93.682	87.23	28.191	1.4736e-05	33.298	255.450	240.280	248.236	192.668	326.283	317.064	191.153	196.035	315.813	317.733	194.503	199.414	201.035	206.271	348.638	203.764	-8191	255	
1285.300	1	1	0	0	0.01735	0.29576	0.18441	0.073373	0.26776	0.21882	0.12996	0.2328	0.12314	0.042657	0.24021	0.1106	0.20672	0.28954	0.21164	0.16122	-2.2687	-2.7438	-2.3187	-3.0229	-2.7042	-2.3292	-3.2167	-2.4354	-2.6396	-2.7938	-2.2875	-2.7708	-2.7458	-2.4979	-2.9104	-2.5979	413.927	463.379	345.312	520.597	386.049	468.150	531.233	415.680	447.215	334.092	405.969	513.263	203.802	528.835	282.805	468.917	0.0003447	0.00061159	8.4936e-05	1201.9	7.7434e-06	4.4852e-06	1138.3	383.99	4.0578e-06	5.6728e-06	399.89	95.236	88.894	28.601	3.2416e-06	33.692	0.00085091	0.0013742	0.00040322	1162.9	1.4407e-05	1.5961e-05	1100.6	375.28	1.4511e-05	1.6586e-05	387.85	93.35	87.017	28.067	1.4832e-05	33.243	254.542	250.894	288.543	192.516	304.074	316.873	191.304	196.105	305.858	340.285	194.395	198.971	200.847	206.474	342.153	204.150	-8191	255	
1285.398	1	1	0	0	0.14935	0.24628	0.14861	0.38651	0.21731	0.22112	0.084441	0.25781	0.22126	0.088957	0.17296	0.079261	0.13678	0.11817	0.15642	0.10882	-2.1063	-2.7833	-2.2646	-2.8063	-2.7604	-2.3771	-3.0042	-2.5938	-2.4625	-2.875	-2.45	-2.7708	-2.8375	-2.4479	-2.9792	-2.5125	200.113	424.556	464.139	505.967	461.464	383.782	514.709	412.310	421.638	496.812	440.612	314.072	517.865	420.272	422.986	411.678	0.00029625	0.00060247	0.00017174	1199.7	4.7815e-06	3.849e-06	1136.8	384.89	2.5907e-06	3.1448e-06	398.42	95.202	88.296	28.386	3.2981e-06	33.806	0.00085628	0.001411	0.0003943	1160.5	1.4428e-05	1.5554e-05	1100.1	375.46	1.431e-05	1.5979e-05	387.66	93.549	86.75	28.054	1.4594e-05	33.215	257.654	259.145	229.458	192.426	302.812	302.822	190.982	196.097	302.973	314.500	194.718	199.044	200.938	206.273	295.924	204.357	-8191	255	
1285.492	1	1	0	0	0.22105	0.072171	0.10661	0.070977	0.36823	0.039939	0.14088	0.17175	0.069024	0.082452	0.068637	0.047316	0.24062	0.24402	0.1301	0.16041	-2.1854	-2.85	-2.1104	-2.8375	-2.8229	-2.3875	-3.15	-2.7521	-2.4479	-2.9313	-2.35	-2.5208	-2.7979	-2.4188	-2.7104	-2.7292	389.519	390.937	346.470	301.155	208.492	424.275	378.773	522.110	286.426	494.693	293.464	212.714	393.558	179.470	261.607	297.918	0.00028675	0.00038521	0.00014282	1202.1	3.7591e-06	4.4779e-06	1137	382.15	2.8571e-06	4.4104e-06	400.6	94.722	88.421	28.378	3.7769e-07	33.833	0.00085312	0.0014302	0.00039737	1161.2	1.4511e-05	1.5789e-05	1100.5	374.46	1.434e-05	1.5511e-05	388.49	93.473	86.759	28.049	1.4693e-05	33.366	254.362	259.800	279.190	192.613	332.806	341.849	191.029	196.294	309.743	372.540	194.336	199.523	201.279	206.571	285.982	204.134	-8191	255	
1285.588	1	1	0	0	0.059015	0.1412	0.26554	0.29589	0.094169	0.19595	0.39837	0.2274	0.25055	0.10374	0.059833	0.20821	0.13277	0.13282	0.27759	0.23816	-1.775	-2.9458	-2.1958	-2.8375	-2.8375	-2.3229	-3.0917	-2.7	-2.4479	-2.8917	-2.4396	-2.6021	-2.9562	-2.2667	-2.7917	-2.6979	471.924	442.508	489.411	479.883	250.472	455.075	474.661	489.545	266.343	374.955	448.722	440.261	180.098	281.028	231.675	438.090	0.00026336	0.00068906	0.00014571	1198	3.8752e-06	5.8156e-06	1137.5	386.45	4.9154e-06	3.5697e-06	399.91	94.804	88.688	28.57	7.3527e-06	33.926	0.00083948	0.0014258	0.00040797	1158.7	1.4007e-05	1.5369e-05	1101	375.78	1.4034e-05	1.5266e-05	388.81	93.332	86.905	28.092	1.428e-05	33.377	256.833	260.338	266.139	192.268	303.298	298.654	191.329	196.228	318.798	293.877	194.599	198.803	201.095	206.682	345.503	203.857	-8191	255	
1285.684	1	1	0	0	0.1045	0.10089	0.032029	0.30413	0.1363	0.12029	0.11563	0.2734	0.15049	0.20382	0.026704	0.27564	0.04167	0.14297	0.29557	0.29732	-1.975	-2.8833	-2.375	-2.5771	-2.9562	-2.4708	-2.9167	-3.0292	-2.1333	-3.0104	-2.6375	-2.6521	-3	-2.2708	-2.7125	-3.0979	523.856	507.387	328.536	469.250	509.185	318.366	194.625	527.841	197.166	317.509	410.751	516.667	516.590	200.601	398.222	490.628	0.00032979	0.00050514	0.00013724	1199	3.918e-06	4.8078e-06	1138.7	388.19	1.9474e-06	2.8549e-06	400.41	95.667	89.196	28.712	3.6409e-06	34.226	0.00083828	0.0013967	0.0003902	1160.8	1.4111e-05	1.5522e-05	1101.5	376.52	1.3933e-05	1.6056e-05	388.78	93.611	86.984	28.172	1.4284e-05	33.392	253.713	278.504	233.833	192.299	330.958	326.669	190.885	196.023	308.818	340.553	194.095	199.054	200.841	206.194	286.887	203.480	-8191	255	
1285.805	1	1	0	0	0.062388	0.17732	0.10967	0.20127	0.031562	0.081526	0.18801	0.22027	0.16954	0.052654	0.06447	0.18895	0.12338	0.21981	0.16914	0.14635	-1.95	-2.7958	-2.5167	-2.625	-2.9688	-2.2	-2.8208	-3.1354	-2.2042	-2.8729	-2.7479	-2.4292	-3.1312	-2.3625	-2.4583	-3.0208	470.233	267.843	416.058	474.458	427.521	418.032	195.162	449.713	339.729	438.871	320.003	454.374	368.961	492.458	284.010	496.112	0.00030498	0.0003733	0.00010477	1205.2	5.0188e-06	4.8071e-06	1141	389.87	2.8461e-06	2.433e-06	401.65	96.12	89.492	28.799	3.4609e-06	34.031	0.00083113	0.0014022	0.00038519	1161.9	1.4176e-05	1.5534e-05	1101.2	376.8	1.4459e-05	1.5429e-05	389.64	93.796	87.33	28.214	1.4725e-05	33.471	261.443	273.178	298.118	191.959	324.978	334.466	190.754	195.917	349.222	349.496	194.297	198.576	200.662	206.176	325.221	203.379	-8191	255	
1285.901	1	1	0	0	0.042449	0.18098	0.075225	0.31474	0.26954	0.23454	0.15705	0.27338	0.029714	0.23847	0.1937	0.14414	0.061528	0.35165	0.097057	0.13886	-1.9208	-2.7625	-2.8729	-2.4646	-2.8271	-2.5687	-2.6542	-3.1937	-2.2125	-2.8458	-2.7938	-2.3167	-3.1792	-2.4271	-2.6417	-3.0104	470.890	243.089	200.083	493.912	324.746	217.533	528.957	200.667	434.614	352.519	216.902	326.776	268.976	515.470	399.513	392.483	0.00028548	0.00049714	0.00020731	1209.7	4.6912e-06	6.9218e-06	1146.3	388.4	5.7716e-06	4.2365e-06	403.59	95.41	89.383	28.856	2.0925e-06	34.524	0.00084948	0.0014064	0.00039345	1162.3	1.4237e-05	1.545e-05	1104.3	376.3	1.4394e-05	1.583e-05	390.35	93.774	87.152	28.221	1.4575e-05	33.598	257.794	251.313	279.434	192.020	317.452	308.691	190.542	195.925	320.103	338.523	194.029	198.292	200.598	206.147	299.030	203.623	-8191	255	
1285.997	1	1	0	0	0.20108	0.24827	0.175	0.144	0.15833	0.23978	0.15162	0.12441	0.25298	0.2106	0.23838	0.049436	0.1887	0.34343	0.096834	0.18036	-2.0667	-2.6292	-2.8104	-2.5729	-2.9271	-2.6958	-2.7229	-2.975	-2.3187	-2.6437	-2.8833	-2.5771	-2.9708	-2.6479	-2.5521	-3.2	467.174	407.386	247.474	531.474	183.746	319.832	206.991	440.870	358.684	348.933	465.528	535.706	238.157	496.432	414.643	433.692	0.00034154	0.00061752	0.00014296	1207.8	4.0432e-06	5.5224e-06	1148.1	389.52	3.7041e-06	4.6432e-06	400.68	96.039	89.557	28.78	6.1301e-06	34.203	0.00086432	0.0013973	0.00038386	1164	1.4183e-05	1.5384e-05	1104.3	377.24	1.4099e-05	1.6022e-05	390.69	93.839	87.146	28.18	1.4182e-05	33.43	255.645	214.501	257.858	192.136	256.727	284.117	190.641	195.836	298.684	343.783	194.082	198.505	200.609	206.053	329.215	203.256	-8191	255	
1286.118	1	1	0	0	0.15213	0.10205	0.15893	0.15491	0.11875	0.08397	0.057081	0.047024	0.21582	0.28229	0.27171	0.14505	0.042617	0.26207	0.10391	0.13192	-1.875	-2.8958	-2.8917	-2.3708	-2.7938	-2.8979	-2.5125	-3.1958	-2.5583	-2.6042	-3.0333	-2.3729	-2.7896	-2.9437	-2.2333	-3.0875	320.183	496.769	241.521	497.552	445.642	346.616	188.307	212.196	197.312	384.813	187.503	528.848	218.901	451.649	403.938	424.245	0.00032926	0.00073884	0.00016718	1207.7	5.7706e-06	6.6807e-06	1145.4	388.41	4.6634e-06	4.1146e-06	402.15	96.225	89.506	28.891	1.6695e-06	34.221	0.00085503	0.0013888	0.00040168	1162.8	1.4151e-05	1.5701e-05	1103.5	376.68	1.4642e-05	1.5899e-05	389.89	93.869	87.133	28.152	1.4502e-05	33.387	250.496	268.956	257.877	192.032	340.067	353.771	190.458	195.794	324.118	334.064	194.154	198.836	200.524	206.456	358.984	203.395	-8191	255	
1286.189	1	1	0	0	0.073897	0.20127	0.16386	0.30525	0.099312	0.25591	0.24902	0.25734	0.17308	0.086563	0.28184	0.035274	0.1446	0.17492	0.13185	0.15839	-2.0729	-2.3021	-3.1229	-2.3958	-2.7833	-2.8125	-2.5875	-3.2042	-2.5542	-2.6042	-3.0354	-2.4708	-2.8542	-2.9354	-2.3396	-2.9667	198.953	403.468	325.591	490.120	333.458	308.266	219.024	502.402	256.688	203.160	525.468	223.252	252.472	190.895	537.442	471.023	0.00033194	0.00039639	0.00017449	1205.1	5.1061e-06	2.7497e-06	1138.6	386.94	3.4666e-06	4.6977e-06	401.01	95.831	88.533	28.544	3.3157e-06	33.923	0.00084655	0.0014313	0.00039628	1161.6	1.4178e-05	1.5591e-05	1098.8	375.78	1.4458e-05	1.5846e-05	389.55	93.564	86.866	28.085	1.4978e-05	33.36	254.536	247.263	274.934	191.895	328.546	341.373	191.220	195.830	325.801	333.671	194.383	199.182	200.859	206.621	311.329	203.911	-8191	255	
1286.286	1	1	0	0	0.17352	0.22966	0.3134	0.079961	0.30715	0.2438	0.27646	0.053882	0.074669	0.24322	0.24559	0.20684	0.23607	0.069657	0.091052	0.24646	-2.2958	-2.6208	-2.8792	-2.6479	-2.6667	-2.7271	-2.5958	-3.0292	-2.5458	-2.4979	-3.0521	-2.6146	-2.7083	-3.0229	-2.3583	-2.9625	459.207	372.473	392.845	461.915	373.570	268.394	417.403	183.857	198.447	533.269	509.285	247.783	294.464	334.385	377.470	393.059	0.00031422	0.00050573	0.00015691	1189.3	4.4013e-06	4.1071e-06	1128.4	383.26	3.7577e-06	6.8548e-06	398.94	94.711	87.538	28.537	3.1666e-06	33.927	0.00086873	0.0014536	0.00037961	1156.5	1.4346e-05	1.5635e-05	1098	375.28	1.4293e-05	1.6468e-05	388.91	93.516	86.596	28.08	1.4626e-05	33.4	255.223	260.444	263.654	192.680	308.572	345.774	190.968	196.341	337.541	337.172	194.266	199.037	200.956	207.071	300.810	204.188	-8191	255	
1286.404	1	1	0	0	0.096856	0.29068	0.22271	0.12468	0.22321	0.34157	0.24808	0.15403	0.057419	0.035934	0.049683	0.14062	0.12725	0.26903	0.087938	0.25821	-2.3833	-2.3292	-2.925	-2.4688	-2.625	-3.0021	-2.5917	-3.0062	-2.775	-2.5271	-3.1271	-2.6021	-2.6146	-2.9896	-2.3729	-2.8729	249.266	462.577	299.830	527.713	251.911	257.867	402.475	529.533	391.471	351.205	263.957	390.130	242.981	244.324	189.763	322.365	0.00029067	0.00050069	0.00015327	1197	4.4062e-06	1.605e-06	1132.3	382.98	3.78e-06	5.3564e-06	397.02	94.521	88.178	28.248	4.7706e-06	33.54	0.00083507	0.0013853	0.00038823	1159.6	1.4394e-05	1.5997e-05	1098.1	375.02	1.4117e-05	1.6146e-05	387.66	93.124	86.486	27.931	1.4487e-05	33.199	257.619	244.564	253.069	192.497	320.840	316.444	191.364	196.177	307.483	337.777	194.591	199.378	201.304	206.315	314.836	204.093	-8191	255	
1286.501	1	1	0	0	0.24452	0.13946	0.050317	0.11022	0.31292	0.026669	0.16314	0.15251	0.28808	0.023582	0.22037	0.13503	0.08244	0.059764	0.18835	0.07622	-2.3646	-2.3625	-3.1396	-2.6896	-2.6437	-3.1646	-2.6146	-2.925	-2.8521	-2.3417	-2.9896	-2.7104	-2.3417	-3.2229	-2.6771	-2.7583	449.381	265.639	462.427	486.549	247.631	371.573	193.785	404.734	348.336	278.441	388.929	467.022	353.656	350.800	338.936	341.231	0.00030835	0.00042619	0.000169	1191.2	5.584e-06	3.8737e-06	1127.8	384.3	3.6978e-06	7.5093e-06	397.76	94.351	88.044	28.401	5.5081e-06	33.55	0.00085378	0.001389	0.00038917	1156.7	1.4224e-05	1.5253e-05	1097.8	374.88	1.4444e-05	1.6148e-05	388.43	92.943	86.458	27.91	1.5098e-05	32.995	256.236	219.898	262.394	192.687	346.255	328.903	191.305	196.031	332.112	345.654	194.603	198.794	201.171	206.397	339.274	204.214	-8191	255	
1286.597	1	1	0	0	0.26815	0.19186	0.079014	0.037047	0.25867	0.31799	0.24895	0.27204	0.25999	0.10355	0.24372	0.24582	0.29876	0.080506	0.19977	0.10337	-2.7229	-2.1813	-2.7604	-2.9083	-2.2292	-3.0812	-2.6333	-2.7458	-3.0354	-2.3375	-2.9542	-2.8688	-2.4854	-3.1792	-2.5708	-2.675	301.861	510.557	473.392	235.268	534.751	272.577	449.601	512.930	326.132	397.823	179.409	468.788	196.389	394.236	385.290	417.575	0.00029971	0.00047542	9.6429e-05	1189.7	3.765e-06	7.5998e-07	1132.2	385.28	5.3463e-06	5.1246e-06	396.75	95.051	87.953	28.245	4.075e-06	33.319	0.00083558	0.0014101	0.00038645	1157	1.4513e-05	1.556e-05	1098.8	375.61	1.4092e-05	1.5982e-05	388.11	93.224	86.507	27.872	1.4691e-05	33.083	256.812	256.075	263.430	192.691	315.860	220.350	191.436	196.514	305.664	352.198	194.590	199.478	201.156	206.493	358.369	204.240	-8191	255	
1286.693	1	1	0	0	0.1919	0.29446	0.15109	0.080828	0.35944	0.31138	0.22763	0.31845	0.207	0.08698	0.043484	0.25815	0.1649	0.035841	0.11593	0.23241	-2.7125	-2.3812	-2.8292	-3.0208	-2.4396	-3.0625	-2.8042	-2.6354	-3.0812	-2.4771	-2.9979	-3.0979	-2.5	-3.0792	-2.6979	-2.5708	446.285	192.828	481.361	486.039	232.060	338.174	516.759	474.635	303.441	245.879	265.725	505.075	450.215	383.664	537.291	524.488	0.00030544	0.00064843	8.6217e-05	1189.8	4.6143e-06	3.801e-06	1134.6	383.9	3.7579e-06	4.5809e-06	398.44	95.496	87.996	28.169	3.0232e-06	33.55	0.00083859	0.0014691	0.00038969	1157.5	1.4397e-05	1.5543e-05	1101	374.45	1.4262e-05	1.6437e-05	388.12	93.154	86.311	27.769	1.4484e-05	33.044	257.267	243.523	264.920	192.506	357.368	315.043	191.340	196.032	298.124	334.276	194.695	199.043	200.855	206.365	281.217	203.947	-8191	255	
#DATA ENDS
