BOXY.EXE: ISS Imagent and Oximeter Data Acquisition Program Version 0.80
Ascii Record File

#ACQ INFORMATION
2  Detector Channels 
16  External MUX Channels 
1  Auxiliary Channels 
5000  Waveform (CCF) Frequency (Hz)
1  Waveforms Skipped 
30  Waveforms Averaged 
1  Cycles Averaged 
16  Acquisitions per Waveform 
10.0806  Updata Rate (Hz) 

#FILE INFORMATION
TRUE -- External MUX Channel results are PARSED.
FALSE -- AC DC and Phase are NOT grouped.
TRUE -- Companion Program Settings File CREATED.
FALSE -- AC data not excluded
FALSE -- DC data not excluded
FALSE -- Phase data not excluded
FALSE -- Auxillary Chn. data not excluded
Tab delimiters

#CALIBRATION STATE
TRUE -- Waveform Calibration Values APPLIED.


#AUX CALIBRATION VALUES
Val Type	aux-1	

Term	1.0000e+00	
Factor	0.0000e+00	


#WF CALIBRATION VALUES
A = Detector Channel
Val Type	A-AC1	A-AC2	A-AC3	A-AC4	A-AC5	A-AC6	A-AC7	A-AC8	A-AC9	A-AC10	A-AC11	A-AC12	A-AC13	A-AC14	A-AC15	A-AC16	A-DC1	A-DC2	A-DC3	A-DC4	A-DC5	A-DC6	A-DC7	A-DC8	A-DC9	A-DC10	A-DC11	A-DC12	A-DC13	A-DC14	A-DC15	A-DC16	A-Ph1	A-Ph2	A-Ph3	A-Ph4	A-Ph5	A-Ph6	A-Ph7	A-Ph8	A-Ph9	A-Ph10	A-Ph11	A-Ph12	A-Ph13	A-Ph14	A-Ph15	A-Ph16	

Term	0.00000e+00	0.00000e+00	0.00000e+00	0.00000e+00	0.00000e+00	0.00000e+00	0.00000e+00	0.00000e+00	0.00000e+00	0.00000e+00	0.00000e+00	0.00000e+00	0.00000e+00	0.00000e+00	0.00000e+00	0.00000e+00	0.00000e+00	0.00000e+00	0.00000e+00	0.00000e+00	0.00000e+00	0.00000e+00	0.00000e+00	0.00000e+00	0.00000e+00	0.00000e+00	0.00000e+00	0.00000e+00	0.00000e+00	0.00000e+00	0.00000e+00	0.00000e+00	0.00000e+00	0.00000e+00	0.00000e+00	0.00000e+00	0.00000e+00	0.00000e+00	0.00000e+00	0.00000e+00	0.00000e+00	0.00000e+00	0.00000e+00	0.00000e+00	0.00000e+00	0.00000e+00	0.00000e+00	0.00000e+00	
Factor	1.00000e+00	1.00000e+00	1.00000e+00	1.00000e+00	1.00000e+00	1.00000e+00	1.00000e+00	1.00000e+00	1.00000e+00	1.00000e+00	1.00000e+00	1.00000e+00	1.00000e+00	1.00000e+00	1.00000e+00	1.00000e+00	1.00000e+00	1.00000e+00	1.00000e+00	1.00000e+00	1.00000e+00	1.00000e+00	1.00000e+00	1.00000e+00	1.00000e+00	1.00000e+00	1.00000e+00	1.00000e+00	1.00000e+00	1.00000e+00	1.00000e+00	1.00000e+00	X	X	X	X	X	X	X	X	X	X	X	X	X	X	X	X	

B = Detector Channel
Val Type	B-AC1	B-AC2	B-AC3	B-AC4	B-AC5	B-AC6	B-AC7	B-AC8	B-AC9	B-AC10	B-AC11	B-AC12	B-AC13	B-AC14	B-AC15	B-AC16	B-DC1	B-DC2	B-DC3	B-DC4	B-DC5	B-DC6	B-DC7	B-DC8	B-DC9	B-DC10	B-DC11	B-DC12	B-DC13	B-DC14	B-DC15	B-DC16	B-Ph1	B-Ph2	B-Ph3	B-Ph4	B-Ph5	B-Ph6	B-Ph7	B-Ph8	B-Ph9	B-Ph10	B-Ph11	B-Ph12	B-Ph13	B-Ph14	B-Ph15	B-Ph16	

Term	0.00000e+00	0.00000e+00	0.00000e+00	0.00000e+00	0.00000e+00	0.00000e+00	0.00000e+00	0.00000e+00	0.00000e+00	0.00000e+00	0.00000e+00	0.00000e+00	0.00000e+00	0.00000e+00	0.00000e+00	0.00000e+00	0.00000e+00	0.00000e+00	0.00000e+00	0.00000e+00	0.00000e+00	0.00000e+00	0.00000e+00	0.00000e+00	0.00000e+00	0.00000e+00	0.00000e+00	0.00000e+00	0.00000e+00	0.00000e+00	0.00000e+00	0.00000e+00	-7.21242e+01	-1.36190e+02	-1.31975e+02	-1.84208e+02	-5.78500e+01	-7.12383e+01	-1.57919e+02	-1.62015e+02	-5.00457e+01	-6.58011e+01	-1.73678e+02	-1.74622e+02	-1.83192e+02	-1.77394e+02	-5.50764e+01	-1.50270e+02	
Factor	1.50587e-05	1.53820e-04	4.27858e-05	1.63141e-01	1.38621e-06	1.57826e-06	1.57083e-01	5.08700e-02	1.06407e-06	1.56460e-06	8.91376e-02	3.09256e-02	2.10338e-02	7.86656e-03	1.28744e-06	1.15860e-02	1.22195e-05	2.56875e-05	7.18329e-06	8.46512e-02	2.51754e-07	2.89162e-07	7.65242e-02	2.66035e-02	2.46997e-07	2.91659e-07	4.50603e-02	1.56519e-02	1.11339e-02	4.15076e-03	2.61534e-07	5.90229e-03	X	X	X	X	X	X	X	X	X	X	X	X	X	X	X	X	



#DISTANCE SETTINGS
A = Detector Channel
A-1	A-2	A-3	A-4	A-5	A-6	A-7	A-8	A-9	A-10	A-11	A-12	A-13	A-14	A-15	A-16	

2.5000e+00	3.0000e+00	2.5000e+00	3.0000e+00	2.0000e+00	3.0000e+00	1.5000e+00	3.0000e+00	3.0000e+00	3.0000e+00	3.0000e+00	3.0000e+00	3.0000e+00	3.0000e+00	1.5000e+00	3.0000e+00	

B = Detector Channel
B-1	B-2	B-3	B-4	B-5	B-6	B-7	B-8	B-9	B-10	B-11	B-12	B-13	B-14	B-15	B-16	

1.0000e+01	1.0000e+01	1.0000e+01	1.4400e+00	1.0000e+01	1.0000e+01	1.5100e+00	1.9400e+00	1.0000e+01	1.0000e+01	1.9900e+00	2.4900e+00	2.4100e+00	2.9000e+00	1.0000e+01	2.9800e+00	




#DATA BEGINS
time	group	step	mark	flag	A-AC1	A-AC2	A-AC3	A-AC4	A-AC5	A-AC6	A-AC7	A-AC8	A-AC9	A-AC10	A-AC11	A-AC12	A-AC13	A-AC14	A-AC15	A-AC16	A-DC1	A-DC2	A-DC3	A-DC4	A-DC5	A-DC6	A-DC7	A-DC8	A-DC9	A-DC10	A-DC11	A-DC12	A-DC13	A-DC14	A-DC15	A-DC16	A-Ph1	A-Ph2	A-Ph3	A-Ph4	A-Ph5	A-Ph6	A-Ph7	A-Ph8	A-Ph9	A-Ph10	A-Ph11	A-Ph12	A-Ph13	A-Ph14	A-Ph15	A-Ph16	B-AC1	B-AC2	B-AC3	B-AC4	B-AC5	B-AC6	B-AC7	B-AC8	B-AC9	B-AC10	B-AC11	B-AC12	B-AC13	B-AC14	B-AC15	B-AC16	B-DC1	B-DC2	B-DC3	B-DC4	B-DC5	B-DC6	B-DC7	B-DC8	B-DC9	B-DC10	B-DC11	B-DC12	B-DC13	B-DC14	B-DC15	B-DC16	B-Ph1	B-Ph2	B-Ph3	B-Ph4	B-Ph5	B-Ph6	B-Ph7	B-Ph8	B-Ph9	B-Ph10	B-Ph11	B-Ph12	B-Ph13	B-Ph14	B-Ph15	B-Ph16	aux-1	digaux	

1300.841	1	1	0	512	0.12343	0.091439	0.21995	0.38495	0.14312	0.34748	0.35432	0.31614	0.12031	0.15863	0.095299	0.36043	0.076944	0.07445	0.099111	0.10623	-2.6417	-2.4188	-2.7396	-3.0667	-2.4688	-2.6979	-2.9146	-2.7604	-3.1667	-2.5417	-2.8812	-3.1083	-2.5542	-3.0083	-2.6979	-2.6562	45.154	-29.319	19.154	251.537	-19.928	87.686	232.430	-75.361	128.499	28.869	250.718	-28.087	276.489	181.440	266.590	264.540	0.00014516	0.00081696	0.00019239	1497.3	5.0853e-06	6.0352e-06	1430.8	501.08	2.9999e-06	4.2763e-06	525.61	130.22	118.95	38.781	4.0269e-06	46.975	0.00076107	0.0013132	0.00035867	1402.1	1.3587e-05	1.4364e-05	1342	472.25	1.3567e-05	1.4917e-05	495.33	123.72	113.36	36.878	1.3558e-05	44.523	208.132	-16.493	21.572	-65.304	57.114	44.128	-66.266	-62.144	72.917	73.714	-63.328	-58.785	-57.389	-51.931	57.996	-54.340	-8191	255	
1300.939	1	1	0	0	0.1617	0.13021	0.17124	0.22151	0.18416	0.21659	0.32333	0.16558	0.17511	0.12844	0.23326	0.061801	0.29727	0.073935	0.15543	0.14834	-2.6104	-2.5354	-2.6208	-3.1688	-2.4979	-3.0104	-3.2062	-2.5354	-3.1125	-2.4625	-2.5292	-3.1854	-2.5979	-2.9729	-2.9229	-2.3688	251.617	239.844	-23.069	-68.549	254.765	92.150	-79.995	183.934	201.130	100.765	221.061	124.983	-67.603	28.034	67.224	203.138	0.00010041	0.00055158	0.00020353	1489.8	1.5565e-06	6.1492e-06	1436.8	504.06	2.8662e-06	4.5576e-06	527.74	128.87	119.57	38.862	7.0251e-06	46.99	0.00076242	0.0012738	0.00037182	1396.3	1.3381e-05	1.4674e-05	1342.5	473.27	1.3745e-05	1.4965e-05	497.32	123.38	113.61	36.993	1.3776e-05	44.622	247.936	7.799	27.591	-65.549	91.959	64.084	-66.360	-62.031	65.307	82.543	-63.497	-58.231	-57.043	-51.791	83.378	-54.134	-8191	255	
1301.033	1	1	0	0	0.094211	0.10539	0.31813	0.24455	0.2085	0.088581	0.30605	0.22742	0.12767	0.1438	0.14188	0.17032	0.047765	0.11376	0.17424	0.21974	-2.7562	-2.5812	-2.6354	-3.2313	-2.5708	-2.8312	-3.3104	-2.8354	-3.2104	-2.7438	-2.5812	-3.1417	-2.4313	-2.5604	-2.8771	-2.4542	110.771	195.950	207.998	-74.943	120.290	78.376	189.255	225.512	165.549	168.073	231.855	-79.303	-25.507	98.282	131.114	257.542	0.00010398	0.0008625	0.00023517	1485.1	4.7954e-06	3.4658e-06	1424.3	501.94	3.2611e-06	8.2015e-06	525.29	129.42	119.14	38.879	5.7076e-06	47.321	0.00074681	0.0013649	0.00037296	1396.6	1.3356e-05	1.4903e-05	1340	472.41	1.3317e-05	1.4351e-05	496.59	123.64	113.53	36.933	1.3765e-05	44.78	221.640	-4.827	16.327	-65.234	106.164	75.980	-66.188	-61.962	60.109	51.647	-63.385	-58.693	-57.372	-52.038	111.361	-54.263	-8191	255	
1301.129	1	1	0	0	0.18133	0.083342	0.13569	0.31526	0.092489	0.24689	0.13987	0.20074	0.26187	0.19435	0.2225	0.10322	0.0081226	0.28921	0.095448	0.039858	-2.5083	-2.8333	-2.5563	-3.3646	-2.4542	-2.7271	-3.2021	-2.5438	-2.7792	-2.85	-2.6646	-3.0771	-2.725	-2.7208	-2.9417	-2.425	147.357	-40.707	173.767	-69.571	55.553	171.222	227.777	51.546	267.125	-8.804	253.915	-26.763	-24.306	259.512	147.232	-11.494	7.2059e-05	0.00045125	0.00010835	1499.4	4.308e-06	5.2125e-06	1431.8	503.22	3.0834e-06	5.4867e-06	528.07	129.53	119.96	38.875	3.9718e-06	47.29	0.00074691	0.0013214	0.00036968	1404.1	1.3389e-05	1.4957e-05	1343.8	472.95	1.3693e-05	1.4809e-05	497.32	123.79	114.08	36.976	1.3282e-05	44.732	233.475	-12.160	5.493	-65.422	95.380	63.343	-66.408	-61.854	66.651	77.241	-63.520	-58.977	-57.491	-52.048	69.126	-53.813	-8191	255	
1301.250	1	1	0	0	0.02401	0.22042	0.17794	0.21171	0.078563	0.31376	0.10944	0.032994	0.14744	0.21694	0.2747	0.10429	0.1159	0.18841	0.12323	0.12643	-2.6083	-2.7625	-2.3792	-3.1833	-2.7021	-2.8583	-3.4417	-2.8542	-2.9271	-2.9333	-2.6271	-3.1271	-2.7917	-2.7146	-3.2479	-2.6396	265.344	84.026	-31.775	193.015	84.174	34.471	196.918	178.725	256.712	87.152	264.691	25.761	279.545	2.370	84.215	-16.777	9.6174e-05	0.00048078	0.00025974	1494.9	5.7306e-06	4.9578e-06	1431.5	499.05	2.4734e-06	8.037e-06	532.07	130	119.77	38.926	3.577e-06	47.807	0.00077069	0.0013364	0.00037759	1397.6	1.3361e-05	1.4742e-05	1342.2	472.3	1.3148e-05	1.4344e-05	498.56	123.8	113.93	37.121	1.344e-05	45.081	221.035	28.086	-25.484	-65.479	96.048	76.822	-66.230	-61.886	52.845	73.864	-63.568	-58.634	-57.215	-52.199	151.750	-54.064	-8191	255	
1301.346	1	1	0	0	0.11535	0.059816	0.071974	0.27855	0.12334	0.13282	0.23132	0.22342	0.18316	0.096028	0.22252	0.28384	0.12381	0.13793	0.1711	0.21428	-2.4375	-2.9708	-2.4042	-3.2479	-2.9313	-2.5896	-3.3208	-2.75	-2.8542	-2.8771	-2.5875	-3.25	-2.9437	-2.6688	-3.175	-2.6292	236.181	251.798	41.896	-73.327	200.181	221.612	201.408	208.405	-35.165	129.626	-1.310	-76.708	-36.187	223.543	272.908	134.109	6.5774e-05	0.00077801	0.00017171	1494.6	2.634e-06	2.7751e-06	1434.7	504.81	3.1126e-06	7.6077e-06	530.9	130.81	120.39	39.008	7.5943e-06	47.67	0.00078795	0.001282	0.00037878	1400	1.337e-05	1.4558e-05	1341.9	473.67	1.3547e-05	1.4908e-05	498.73	124.39	114.11	37.094	1.3808e-05	44.975	237.681	-10.448	-10.311	-65.582	127.769	98.037	-66.393	-62.225	126.386	78.475	-63.624	-58.609	-57.002	-52.207	94.524	-54.121	-8191	255	
1301.442	1	1	0	0	0.15603	0.12671	0.12213	0.17819	0.23493	0.19308	0.25118	0.076863	0.16016	0.083488	0.087828	0.10363	0.11586	0.40795	0.23894	0.2957	-2.1771	-2.9	-2.2771	-3.1667	-3.0958	-2.5438	-3.2854	-2.875	-2.4313	-3.1479	-2.6583	-3.0229	-2.9083	-2.6292	-3.0396	-2.7292	104.766	101.599	-27.130	232.589	-10.880	-23.173	171.925	260.505	-33.384	100.211	-56.690	271.547	-51.241	-65.503	257.105	87.992	0.00011108	0.00043333	0.00016096	1499.2	5.1264e-06	6.1896e-06	1447.2	503.6	2.5779e-06	8.8457e-06	529.06	131.49	120.43	39.291	2.4483e-06	47.636	0.00076649	0.0013012	0.00034956	1403	1.3359e-05	1.4757e-05	1347.4	473.38	1.3631e-05	1.4729e-05	498.26	124.35	114.27	37.203	1.3734e-05	45.223	221.741	-37.425	4.704	-65.747	85.923	63.157	-66.625	-62.034	80.566	76.270	-63.492	-58.587	-57.577	-52.182	91.066	-54.224	-8191	255	
1301.514	1	1	0	0	0.12495	0.13384	0.087545	0.28318	0.34783	0.1768	0.13923	0.19379	0.065614	0.12051	0.22627	0.13324	0.16246	0.23326	0.035224	0.17464	-2.2354	-3.1542	-2.4188	-3.1354	-3.0062	-2.5042	-3.3333	-2.8521	-2.6417	-3.1667	-2.7354	-2.8271	-3.1583	-2.5333	-3.1354	-2.9396	174.912	104.726	194.670	-62.853	2.531	236.236	234.861	237.253	245.524	110.437	56.065	-48.937	-61.572	3.614	-30.004	155.765	0.00012087	0.00059026	0.00016206	1482.5	1.0993e-06	5.052e-06	1426.6	500.26	2.51e-06	8.291e-06	526.73	129.82	119.69	39.173	1.9579e-06	47.631	0.00077856	0.0012902	0.00035596	1396.5	1.3627e-05	1.4497e-05	1342.9	473.64	1.3288e-05	1.4776e-05	498.8	124.19	114.22	37.276	1.3513e-05	45.197	222.303	27.363	-3.533	-65.455	131.786	52.297	-66.049	-61.659	56.317	71.593	-63.066	-58.386	-57.230	-51.501	46.704	-53.583	-8191	255	
1301.635	1	1	0	0	0.067583	0.1866	0.32003	0.38281	0.032191	0.13788	0.3715	0.18516	0.19437	0.049441	0.06458	0.10904	0.34143	0.10135	0.081765	0.056335	-1.9937	-3.0792	-2.4125	-2.8729	-3.0958	-2.4229	-3.2333	-2.8792	-2.5896	-3.2062	-2.6542	-2.8604	-3.1604	-2.7208	-2.8854	-3.1708	185.526	213.124	207.893	259.357	-17.222	163.788	192.739	232.180	234.655	-72.105	150.778	-36.837	-46.300	131.407	137.238	177.137	0.00010158	0.00061249	9.1629e-05	1487.3	4.6277e-06	7.5397e-06	1437.1	502.84	3.4385e-06	4.3601e-06	530.91	129.87	120.97	39.169	2.5311e-06	47.691	0.00075025	0.0012726	0.00036671	1398	1.2912e-05	1.3916e-05	1345.1	473.44	1.3431e-05	1.4251e-05	498.91	124.52	114.64	37.277	1.3457e-05	45.358	230.588	-19.161	-0.965	-65.548	48.915	52.260	-66.361	-61.799	84.131	72.690	-63.153	-58.760	-57.416	-51.982	88.730	-53.895	-8191	255	
1301.731	1	1	0	0	0.15421	0.019351	0.19504	0.076281	0.01532	0.1506	0.5043	0.13481	0.095597	0.078945	0.19071	0.11145	0.32992	0.14604	0.24159	0.15453	-2.1271	-3.0438	-2.6646	-2.8187	-3.0146	-2.5542	-3.2396	-3.2167	-2.5458	-3.0083	-2.8646	-2.6146	-3.1917	-2.5542	-2.7625	-3.0187	223.484	-6.306	80.037	249.294	49.704	227.168	206.569	243.703	84.110	150.919	255.762	257.655	250.114	255.158	237.387	223.551	8.8833e-05	0.00071267	0.0002087	1498.6	4.8046e-06	4.3785e-06	1435.9	505	2.1967e-06	6.9358e-06	533.88	131.09	121.53	39.545	6.0555e-06	47.792	0.00077079	0.0012891	0.00035355	1399.3	1.2972e-05	1.4342e-05	1344.6	475.77	1.3096e-05	1.4362e-05	501.08	125.13	115.03	37.482	1.3535e-05	45.464	215.699	14.300	17.719	-65.667	120.891	57.540	-66.654	-61.943	77.530	97.113	-63.706	-58.794	-57.380	-52.070	50.922	-53.664	-8191	255	
1301.827	1	1	0	0	0.050778	0.21739	0.26442	0.33667	0.18528	0.07108	0.15612	0.43637	0.16212	0.066681	0.10667	0.10573	0.42508	0.22447	0.2789	0.19071	-2.0708	-3.0958	-2.7771	-2.7	-3.0958	-2.5458	-3.0687	-3.2792	-2.4125	-3.0083	-2.9979	-2.675	-3.05	-2.6854	-2.7542	-3.2271	142.041	268.400	-12.741	256.426	60.766	255.150	224.390	247.401	106.923	203.073	274.387	132.165	251.478	232.881	-34.871	179.784	8.2719e-05	0.00044157	0.00015754	1494.8	5.4417e-06	8.4737e-06	1429.7	504.03	2.1592e-06	5.3562e-06	534.42	130.94	121.35	39.635	6.5352e-06	48.112	0.00076059	0.0012139	0.00035806	1400.4	1.2961e-05	1.4001e-05	1343.4	476.94	1.3013e-05	1.4789e-05	503.27	125.34	115.44	37.584	1.3695e-05	45.83	222.814	13.130	15.737	-65.528	77.602	87.512	-66.545	-61.725	73.963	59.101	-63.205	-59.093	-57.328	-52.006	81.893	-53.688	-8191	255	
1301.921	1	1	0	0	0.20167	0.18274	0.25722	0.13562	0.086872	0.29065	0.26544	0.19718	0.20811	0.12324	0.13587	0.10019	0.14159	0.081209	0.10344	0.13471	-2.0104	-3.0687	-2.9917	-2.5229	-3.1333	-2.4583	-2.9229	-3.3375	-2.4333	-2.8271	-2.9271	-2.4917	-3.2021	-2.6604	-2.6208	-3.0438	18.216	87.833	68.934	123.178	75.652	123.615	208.464	164.125	277.742	80.795	53.776	-17.455	-68.919	96.011	253.623	215.084	9.1758e-05	0.00044559	0.00016756	1498.8	6.4346e-06	3.9196e-06	1441	503.81	4.4276e-06	4.6683e-06	535.44	131.27	121.13	39.285	3.3863e-06	48.241	0.00076598	0.0012534	0.0003473	1402.5	1.2912e-05	1.3793e-05	1346.8	476.6	1.3216e-05	1.4369e-05	503.24	125.45	115.11	37.528	1.3541e-05	45.652	225.668	21.004	-1.593	-65.509	149.120	20.614	-66.540	-61.966	98.637	79.276	-63.369	-58.759	-57.259	-51.975	52.541	-53.711	-8191	255	
1302.042	1	1	0	0	0.16092	0.29732	0.12396	0.24179	0.10294	0.30335	0.18569	0.18727	0.18803	0.25708	0.17258	0.15149	0.29484	0.12845	0.12485	0.19463	-2.0396	-2.8979	-2.9375	-2.7729	-3.1292	-2.7604	-2.7354	-3.3625	-2.3875	-2.8812	-3.0271	-2.4875	-3.125	-2.8875	-2.6063	-3.2125	57.018	53.276	30.617	-76.639	13.950	225.566	237.751	177.315	198.468	150.827	198.168	185.355	-75.532	269.165	66.661	233.882	0.00010398	0.00057508	0.00017634	1493.7	5.8632e-06	7.4173e-06	1438.1	504.5	1.4566e-06	4.1137e-06	538	131.84	120.74	39.459	3.3117e-06	47.928	0.00074534	0.0012975	0.00036671	1398.5	1.269e-05	1.4312e-05	1343.5	476.46	1.2752e-05	1.4502e-05	503.08	125.76	115.07	37.487	1.3071e-05	45.612	233.792	9.260	-11.801	-65.594	73.050	66.141	-66.396	-62.011	166.939	103.297	-63.520	-58.542	-57.027	-51.451	74.576	-53.709	-8191	255	
1302.114	1	1	0	0	0.092113	0.12386	0.13732	0.46904	0.11869	0.19574	0.31738	0.36709	0.15579	0.16374	0.074095	0.40321	0.13764	0.15357	0.084416	0.10131	-2.0396	-2.8896	-3.1208	-2.3937	-2.9292	-2.7687	-2.6542	-3.1917	-2.5438	-2.6667	-3.0854	-2.4813	-2.9833	-3.0208	-2.5312	-3.0875	186.126	98.131	183.276	264.900	65.592	157.136	194.180	245.888	19.131	195.430	221.124	-69.974	248.302	242.448	18.760	19.095	5.8077e-05	0.00039485	0.00021756	1493.5	3.6574e-06	7.432e-06	1440.4	505.56	9.7904e-07	7.9307e-06	534.99	132.5	121.6	39.657	5.112e-06	48.466	0.00076519	0.0012839	0.00036059	1401.3	1.3006e-05	1.4198e-05	1345.9	476.24	1.3593e-05	1.4453e-05	502.55	125.79	115.27	37.528	1.3313e-05	45.878	232.806	-25.794	20.109	-65.733	47.765	80.624	-66.566	-61.933	239.846	84.471	-63.198	-58.379	-57.286	-51.974	74.442	-53.885	-8191	255	
1302.212	1	1	0	0	0.13674	0.05265	0.065812	0.20261	0.06189	0.11669	0.2182	0.28723	0.10449	0.054977	0.14515	0.33273	0.26653	0.060561	0.27599	0.082425	-2.1	-2.5333	-3.1854	-2.8479	-2.8063	-3.0354	-2.6417	-3.2	-2.7479	-2.5354	-3.4375	-2.6292	-2.8375	-2.9333	-2.4417	-3.2875	80.203	191.879	112.395	267.197	146.074	154.461	244.547	193.338	181.888	187.362	-11.750	224.094	181.338	-21.343	-66.709	67.858	9.6214e-05	0.00046035	0.00014032	1502.4	3.8333e-06	7.3464e-06	1440.5	507.6	1.3767e-06	5.4243e-06	537.73	132.58	121.34	39.51	2.4184e-06	47.916	0.00076586	0.001246	0.00035333	1405	1.357e-05	1.4698e-05	1347.2	477.37	1.313e-05	1.4551e-05	504.19	125.75	115.28	37.512	1.3042e-05	45.69	224.923	-0.093	17.296	-65.442	124.958	74.937	-66.680	-61.809	86.092	58.028	-63.162	-58.556	-57.401	-52.061	66.546	-53.775	-8191	255	
1302.330	1	1	0	0	0.18628	0.077235	0.14856	0.14614	0.11605	0.24246	0.067909	0.25836	0.092718	0.17101	0.27778	0.20799	0.26446	0.08447	0.29253	0.066937	-2.3833	-2.5	-3.1458	-2.7896	-2.9833	-2.9292	-2.4771	-3.2625	-2.6813	-2.4167	-3.1708	-2.7021	-2.9	-3.0938	-2.3229	-3.1667	211.513	199.007	205.764	250.530	235.122	154.528	264.218	194.685	-67.047	-39.160	257.543	230.071	251.637	181.167	48.384	-10.289	0.00014411	0.00059171	0.00020514	1505.9	3.0443e-06	3.1812e-06	1442.6	507.62	2.5024e-06	7.7962e-06	534.85	132.12	122.23	39.869	3.5318e-06	48.216	0.00076967	0.0012748	0.0003599	1405.6	1.3445e-05	1.3721e-05	1349.6	476.43	1.3254e-05	1.3832e-05	502.38	125.33	115.34	37.649	1.3375e-05	45.583	226.348	7.271	3.938	-65.578	53.818	103.799	-66.507	-62.097	-13.384	84.213	-63.723	-58.827	-57.539	-52.012	131.363	-54.279	-8191	255	
1302.427	1	1	0	0	0.14229	0.067733	0.31868	0.38726	0.051559	0.13036	0.32485	0.12473	0.28628	0.019907	0.22162	0.23285	0.14227	0.33822	0.044938	0.44792	-2.5083	-2.3792	-3.0625	-2.7396	-2.6542	-3.0167	-2.8729	-3.1458	-2.7458	-2.5563	-3.2646	-2.6479	-2.7479	-3.3083	-2.4604	-2.8625	60.678	112.432	54.022	262.584	91.218	38.186	265.619	202.638	45.093	189.599	59.837	86.839	-48.829	-75.166	33.182	240.935	8.923e-05	0.00044444	0.00024023	1503	3.8677e-06	8.7465e-06	1438	508.07	4.64e-06	7.3679e-06	536.11	132.1	121.68	39.599	3.0074e-06	48.333	0.00076555	0.0013077	0.00034764	1404.3	1.3243e-05	1.3908e-05	1345	476.17	1.3337e-05	1.4327e-05	503.3	125.63	114.97	37.603	1.3051e-05	45.74	230.223	-7.209	25.081	-65.306	66.789	73.973	-66.530	-62.131	84.472	70.724	-63.652	-58.757	-57.642	-51.922	129.544	-54.256	-8191	255	
1302.523	1	1	0	0	0.1945	0.20653	0.33708	0.3154	0.24167	0.13138	0.17195	0.32983	0.071315	0.109	0.13561	0.086255	0.23218	0.078534	0.07016	0.26582	-2.3021	-2.4854	-3.0583	-2.8375	-2.5687	-3.15	-2.5167	-2.9479	-3.0875	-2.5187	-3.2646	-2.6688	-2.5667	-3.0333	-2.5729	-3.0542	134.602	273.437	266.459	214.939	28.131	40.752	179.902	239.070	77.972	155.965	183.333	-50.358	261.769	201.598	144.357	-76.125	0.000103	0.00054398	0.00017199	1506.8	3.0902e-06	7.9237e-06	1442.3	507.42	5.1377e-07	6.201e-06	535.02	132.29	121.84	39.547	4.4336e-06	48.52	0.00076736	0.0013099	0.00035237	1405.1	1.3176e-05	1.4596e-05	1348	476.69	1.3233e-05	1.4852e-05	502.37	125.96	115.36	37.622	1.316e-05	45.872	223.914	-24.681	15.584	-65.569	104.717	77.515	-66.652	-62.151	60.664	90.999	-63.826	-58.870	-57.872	-52.299	68.536	-54.337	-8191	255	
1302.619	1	1	0	0	0.18267	0.23345	0.095019	0.40855	0.19898	0.030725	0.27434	0.082677	0.145	0.23166	0.054532	0.083873	0.1326	0.093247	0.36712	0.33909	-2.6021	-2.5333	-2.7396	-3.1729	-2.5667	-3.2125	-2.7896	-2.8229	-3.0396	-2.4625	-3.0187	-2.8958	-2.6771	-3.3292	-2.5604	-2.7792	34.819	27.415	203.841	-61.932	124.509	275.611	219.503	238.656	50.207	110.755	89.419	245.074	-34.371	8.876	138.113	-39.218	0.00013246	0.00023098	0.00013192	1509.7	1.0241e-06	1.8007e-06	1448.1	510.29	1.5233e-06	6.4425e-06	538.32	132.73	121.33	39.881	3.8499e-06	48.742	0.00077069	0.0012973	0.0003543	1405.7	1.299e-05	1.4686e-05	1350.9	477.4	1.294e-05	1.4066e-05	503.9	126.27	115.66	37.741	1.3644e-05	45.946	216.729	9.449	23.865	-65.805	114.104	30.402	-66.722	-62.420	69.908	83.577	-63.726	-58.771	-57.626	-52.254	99.166	-54.546	-8191	255	
1302.740	1	1	0	0	0.12358	0.052389	0.095985	0.33937	0.087976	0.14015	0.33568	0.22449	0.12748	0.051683	0.11538	0.15819	0.11213	0.1408	0.17703	0.15795	-2.4604	-2.4938	-3	-3.1333	-2.5958	-3.1396	-2.8208	-2.7417	-3.1583	-2.5563	-2.8542	-3.0542	-2.6354	-3.0958	-2.7021	-2.6375	21.266	-34.426	62.730	274.685	-45.441	-46.560	250.434	-69.336	83.422	20.794	-4.378	20.273	-70.990	258.244	69.150	263.752	0.00011134	0.00069171	0.00016145	1501.7	1.3931e-06	6.7552e-06	1431.6	506.09	2.8202e-06	6.7342e-06	536.83	132.3	121.48	39.561	4.4866e-06	48.301	0.00074215	0.0013182	0.00036325	1406	1.326e-05	1.4383e-05	1345	476.22	1.3193e-05	1.4149e-05	502.28	125.97	115.29	37.56	1.3808e-05	45.736	232.233	-6.803	11.711	-65.582	60.163	82.117	-66.448	-62.182	98.453	62.405	-63.693	-58.526	-57.292	-52.159	98.391	-54.276	-8191	255	
1302.811	1	1	0	0	0.062654	0.22022	0.084855	0.089926	0.18818	0.045815	0.36415	0.24332	0.18916	0.18038	0.063142	0.10532	0.42959	0.14395	0.1588	0.0095711	-2.7	-2.4958	-2.8646	-3.3	-2.1979	-3.1188	-2.8812	-2.8792	-3.2167	-2.5146	-2.8646	-3.1312	-2.4125	-2.9229	-2.825	-2.6667	28.182	239.398	215.816	-73.232	262.439	163.887	223.587	198.726	128.848	77.800	137.939	196.537	225.380	-30.404	168.397	173.810	0.00010601	0.00021913	0.00016273	1510.1	5.2874e-06	7.3435e-06	1438.3	504.07	1.3786e-06	5.4597e-06	535.07	131.54	121.15	39.505	3.1909e-06	48.042	0.00075091	0.0013024	0.00036475	1405.9	1.345e-05	1.4418e-05	1348	475.32	1.3026e-05	1.4716e-05	502.74	125.47	114.96	37.484	1.3355e-05	45.783	233.959	25.336	-11.154	-65.653	91.337	88.537	-66.096	-62.022	68.347	84.785	-63.552	-58.422	-57.194	-51.915	94.399	-54.347	-8191	255	
1302.907	1	1	0	0	0.15693	0.1899	0.24364	0.12411	0.072166	0.3993	0.2537	0.40104	0.13346	0.065645	0.24209	0.10977	0.12555	0.25086	0.11875	0.26193	-2.7458	-2.55	-2.5667	-3.2604	-2.5979	-2.9062	-3.1167	-2.8042	-3.1542	-2.55	-2.725	-3.1521	-2.4292	-2.9938	-2.9458	-2.6417	-35.865	206.317	15.487	-73.499	31.226	17.586	247.547	192.147	83.362	10.504	-62.874	199.119	107.377	254.936	121.474	1.511	7.2809e-05	0.00034535	0.00022723	1498.2	5.4136e-06	5.1171e-06	1435.4	504.07	1.2801e-06	7.088e-06	531.69	130.76	121.32	39.486	4.8066e-06	48.339	0.00075224	0.001289	0.00036446	1403.8	1.3048e-05	1.4488e-05	1348	475.5	1.2866e-05	1.4944e-05	501.35	125.63	114.99	37.526	1.3539e-05	45.786	232.605	-16.859	23.361	-65.365	73.548	58.952	-66.192	-61.996	258.591	43.825	-63.642	-58.915	-57.376	-52.302	67.201	-53.965	-8191	255	
1303.026	1	1	0	0	0.24474	0.10659	0.11072	0.060312	0.095565	0.023729	0.18166	0.10524	0.055579	0.082808	0.2333	0.12531	0.20333	0.22847	0.055467	0.051824	-2.7687	-2.6229	-2.6021	-3.3958	-2.4688	-2.8333	-3.1833	-2.5583	-3.1	-2.7375	-2.6979	-3.1708	-2.6167	-2.8229	-3.0042	-2.6354	-46.305	78.155	130.055	230.524	-5.384	160.312	180.008	109.225	190.243	118.902	261.058	173.415	-13.718	253.514	-16.660	4.358	0.0001448	0.00073104	0.00010726	1496.3	4.8535e-06	8.5715e-06	1442.2	505.12	2.7132e-06	4.647e-06	534.05	131.1	120.91	39.411	6.6561e-06	47.81	0.00076183	0.0013281	0.00036992	1404.8	1.354e-05	1.4871e-05	1351.2	475.4	1.3656e-05	1.4678e-05	502.04	125.24	114.91	37.374	1.3459e-05	45.366	227.023	-6.779	5.586	-65.464	65.457	60.834	-66.319	-62.074	83.303	87.427	-63.601	-58.641	-57.266	-52.291	70.468	-54.183	-8191	255	
1303.122	1	1	0	0	0.38027	0.10115	0.1858	0.3039	0.14782	0.099662	0.23963	0.24404	0.054095	0.11585	0.18877	0.24033	0.081929	0.10848	0.17108	0.12605	-2.6146	-2.9313	-2.4167	-3.3417	-2.6646	-2.5146	-3.2604	-2.6437	-3.1479	-2.8667	-2.6458	-3.1667	-2.5729	-2.7833	-2.9125	-2.7771	29.208	134.874	115.123	-43.701	180.229	5.168	189.342	228.297	65.733	109.511	264.205	279.134	218.490	-52.462	-78.648	248.910	0.00010271	0.00055286	0.00014183	1490.9	4.7441e-06	5.0129e-06	1440.9	504.29	4.4995e-06	5.3225e-06	533.64	131.67	121.23	39.399	2.9303e-06	47.867	0.00077762	0.001252	0.00037013	1400.6	1.3437e-05	1.4682e-05	1345.7	475.33	1.3278e-05	1.4324e-05	501.16	125.18	114.82	37.354	1.3005e-05	45.394	222.109	4.415	17.903	-65.525	84.229	54.665	-66.262	-62.166	58.674	41.853	-63.852	-58.658	-57.691	-52.080	74.111	-54.037	-8191	255	
1303.219	1	1	0	0	0.25235	0.049784	0.15605	0.19308	0.19753	0.19056	0.24372	0.33396	0.1052	0.24142	0.11994	0.33597	0.27877	0.097909	0.16329	0.23318	-2.375	-2.8458	-2.5146	-3.2042	-2.6542	-2.7062	-3.3167	-2.8083	-3.1917	-2.9646	-2.6979	-3.3042	-2.8208	-2.6875	-3.0958	-2.5438	-14.163	-23.834	92.667	-46.821	65.671	265.462	205.800	224.090	41.822	168.872	234.353	232.710	-68.662	195.433	97.206	-77.537	8.1158e-05	0.00085554	0.00022156	1495.1	4.4006e-06	7.234e-06	1444.1	505.79	1.7874e-06	7.666e-06	533.25	131.36	121.75	39.16	4.2145e-06	48.064	0.00076008	0.0013015	0.00036114	1402.1	1.3635e-05	1.4385e-05	1349.9	475.8	1.2905e-05	1.5309e-05	502.23	125.2	115.08	37.175	1.3436e-05	45.397	211.372	25.088	25.466	-65.302	89.066	46.558	-66.290	-62.071	88.096	52.894	-63.600	-58.563	-57.213	-52.376	63.758	-54.123	-8191	255	
1303.339	1	1	0	0	0.11928	0.1391	0.24516	0.31171	0.080475	0.11419	0.14413	0.14456	0.27083	0.13371	0.18711	0.27039	0.23283	0.24341	0.22487	0.18403	-2.3187	-3.0021	-2.1875	-3.0812	-2.675	-2.5021	-3.2458	-2.625	-2.7687	-3.1667	-2.6583	-3.1188	-2.9604	-2.6146	-3.1208	-2.5792	160.859	0.211	227.783	255.420	-16.662	250.150	9.811	224.585	24.122	46.377	235.955	256.067	276.665	-21.818	267.180	-17.198	0.00010509	0.0005835	0.00015743	1506.8	3.8633e-06	8.6119e-06	1449.5	507.77	1.8049e-06	5.7703e-06	535.24	131.52	120.94	39.36	3.287e-06	47.979	0.00075185	0.0012798	0.00036457	1407.4	1.3358e-05	1.5149e-05	1353.1	476.46	1.3395e-05	1.4522e-05	502.71	125.51	114.65	37.222	1.3288e-05	45.337	227.128	19.615	4.757	-65.656	60.985	72.347	-66.664	-61.971	-11.310	74.643	-63.711	-58.682	-57.420	-52.264	85.248	-54.093	-8191	255	
1303.411	1	1	0	0	0.18621	0.19363	0.20502	0.19442	0.29688	0.13697	0.15684	0.25905	0.087201	0.167	0.18127	0.21876	0.28438	0.090451	0.25946	0.22491	-2.3146	-3.1479	-2.4792	-3.1271	-2.8229	-2.5167	-3.3812	-2.7396	-2.7667	-3.0958	-2.4354	-3.0167	-2.8937	-2.3875	-3.1417	-2.8146	120.282	188.799	158.321	219.384	196.673	246.651	262.839	211.468	30.674	-1.505	243.570	192.900	195.583	-50.972	-34.066	231.520	0.00010122	0.0009846	0.00017612	1508.1	2.0605e-06	1.0491e-05	1442.3	504.75	3.0274e-06	3.4812e-06	534.06	131.12	120.82	38.978	4.0044e-06	47.681	0.00076473	0.0013013	0.0003665	1409	1.3305e-05	1.4348e-05	1351.2	475.59	1.3071e-05	1.4425e-05	501.66	124.61	114.55	37.019	1.3668e-05	44.997	219.612	0.252	25.591	-65.860	99.896	92.931	-66.289	-62.016	67.236	102.180	-63.313	-58.714	-57.028	-52.191	93.309	-54.084	-8191	255	
1303.507	1	1	0	0	0.29155	0.24092	0.052098	0.1148	0.057452	0.07069	0.14937	0.30473	0.24968	0.14478	0.18911	0.12921	0.080984	0.16462	0.21616	0.18713	-2.1562	-3.0875	-2.4792	-2.9104	-2.9	-2.4896	-3.3167	-2.8792	-2.4521	-3.0312	-2.7042	-2.9083	-3.2417	-2.5083	-3.0979	-2.8917	38.234	115.772	-58.976	-79.540	249.587	51.265	262.339	228.411	133.923	21.470	100.937	-71.427	213.485	236.148	-7.394	-43.373	0.00010164	0.0007013	0.00022454	1500.3	5.9089e-06	5.4973e-06	1435.8	506.65	2.1447e-06	8.168e-06	535.33	131.49	120.95	39.014	3.2639e-06	47.785	0.00077186	0.0013307	0.00037247	1403.4	1.3618e-05	1.4323e-05	1346.6	475.52	1.3371e-05	1.4765e-05	501.26	124.9	114.52	36.96	1.3552e-05	45.181	222.079	7.469	5.334	-65.676	91.338	87.840	-66.672	-62.213	101.308	94.918	-63.883	-58.976	-57.444	-52.424	87.540	-54.302	-8191	255	
1303.603	1	1	0	0	0.13902	0.15421	0.10466	0.1826	0.15521	0.20468	0.21646	0.25776	0.073038	0.20862	0.1217	0.2349	0.26815	0.071248	0.187	0.17154	-2.3187	-3.1458	-2.2458	-2.9542	-3.1375	-2.4042	-3.3125	-2.9354	-2.5125	-3.15	-2.7708	-2.8937	-3.0646	-2.7021	-2.8542	-2.8937	191.835	69.620	121.159	214.441	49.014	264.209	249.429	257.125	12.531	65.911	-41.399	182.018	235.755	-70.013	79.796	211.277	6.3823e-05	0.00033648	0.00022431	1510.3	2.9964e-06	6.3424e-06	1450.7	508.15	3.0573e-06	8.1931e-06	538.94	132.26	121.67	39.21	1.0723e-06	47.804	0.00077637	0.0013261	0.00036537	1405.6	1.3187e-05	1.4232e-05	1349.7	476.58	1.3206e-05	1.4533e-05	501.99	125.26	114.72	37.089	1.3444e-05	45.162	219.375	21.348	3.252	-65.761	85.122	31.941	-66.846	-62.283	54.459	52.256	-63.855	-59.403	-57.660	-52.119	89.905	-54.260	-8191	255	
1303.699	1	1	0	0	0.20747	0.18274	0.36034	0.25818	0.12444	0.15968	0.42419	0.13869	0.26917	0.037904	0.27103	0.3146	0.20697	0.32931	0.20636	0.2669	-2.0292	-2.8563	-2.6833	-2.6375	-3.0917	-2.4708	-3.0938	-3.2167	-2.5396	-3.0062	-2.8875	-2.7292	-3.1813	-2.5417	-2.8604	-3.2021	88.244	37.052	-4.062	262.001	53.764	-25.111	278.676	219.899	0.460	271.284	-60.127	210.413	-69.888	221.430	207.165	228.123	0.00013112	0.00063636	0.00024509	1503.4	1.3746e-06	5.09e-06	1444.7	507.75	2.6478e-06	8.0143e-06	532.88	131.48	120.98	38.988	3.2581e-06	47.886	0.00074862	0.0013125	0.00037489	1404	1.2887e-05	1.4262e-05	1350.2	476.62	1.3764e-05	1.4735e-05	501.65	124.83	114.46	36.98	1.3332e-05	45.141	230.577	32.097	2.247	-65.676	140.398	68.142	-66.861	-62.053	47.510	82.318	-63.615	-59.116	-57.602	-52.265	87.445	-54.190	-8191	255	
1303.820	1	1	0	0	0.069483	0.17361	0.074253	0.26837	0.14143	0.24536	0.38358	0.30641	0.1258	0.096292	0.41552	0.16058	0.16596	0.34145	0.19218	0.16774	-2.125	-2.9688	-2.8042	-2.5417	-3.1104	-2.6813	-2.975	-3.0333	-2.3958	-3.0583	-2.7875	-2.5271	-3.1583	-2.5417	-2.7542	-3.1042	-77.066	57.921	8.451	-73.398	30.659	80.953	222.204	213.495	-0.309	72.284	212.187	-28.487	135.941	232.457	35.127	52.692	0.00013722	0.00062377	0.00013632	1502.1	6.4794e-06	5.8767e-06	1449.9	507.17	2.7147e-06	4.929e-06	538.39	131.43	120.69	38.692	3.3366e-06	47.683	0.00076102	0.0013204	0.00036467	1403.4	1.3041e-05	1.4594e-05	1349.9	475.79	1.3452e-05	1.4207e-05	502.79	124.66	114.24	36.734	1.3365e-05	44.904	229.247	-11.715	-15.868	-65.640	70.265	86.323	-66.587	-62.120	87.188	63.819	-63.766	-58.746	-57.399	-52.378	104.007	-54.220	-8191	255	
1303.914	1	1	0	0	0.27598	0.028254	0.24058	0.23216	0.14642	0.13251	0.39219	0.2439	0.075844	0.18737	0.11681	0.45818	0.096002	0.089714	0.12509	0.16944	-2.0229	-2.8812	-2.7792	-2.6437	-3.0479	-2.6667	-2.8375	-3.1521	-2.3146	-2.7938	-3.2729	-2.4896	-3.25	-2.7479	-2.55	-3.1188	64.931	-43.045	64.440	219.185	-73.190	62.590	191.191	269.907	23.374	181.066	95.702	224.657	260.341	142.191	279.841	235.588	8.9003e-05	0.00063631	0.00023083	1506.5	6.197e-06	6.7028e-06	1442.9	509.76	2.7939e-06	4.8302e-06	536.92	130.47	121.07	38.307	4.7939e-06	46.984	0.00074292	0.0012645	0.00034626	1406.5	1.3043e-05	1.4401e-05	1351.4	477.44	1.3183e-05	1.4715e-05	504.24	124.48	114.48	36.435	1.3619e-05	44.398	238.498	2.723	17.347	-65.609	107.784	69.798	-66.590	-61.691	33.234	71.304	-63.697	-58.751	-57.315	-52.074	53.728	-54.038	-8191	255	
1304.012	1	1	0	0	0.032261	0.22389	0.20177	0.13285	0.20461	0.21207	0.16302	0.3001	0.35281	0.30228	0.13701	0.13444	0.16298	0.15765	0.066475	0.19537	-1.8687	-2.8479	-2.9021	-2.6562	-3.1208	-2.6354	-2.6146	-3.3167	-2.4917	-2.7833	-3.1833	-2.5687	-3.2333	-2.7625	-2.3375	-3.2	196.963	123.202	128.455	268.377	125.737	256.886	198.133	-75.526	24.026	24.989	-71.355	41.609	157.191	253.735	52.136	89.520	0.00010057	0.00071019	0.00014555	1519.5	1.2235e-06	8.2211e-06	1465.1	517.94	9.934e-07	7.2814e-06	547.18	131.47	122.8	38.17	5.8253e-06	46.791	0.00076726	0.0012685	0.00035268	1421.5	1.2922e-05	1.4368e-05	1368.8	485.76	1.2883e-05	1.4336e-05	512.82	125.44	116.01	36.212	1.3608e-05	44.071	228.407	-11.982	15.830	-65.536	98.205	55.078	-66.738	-62.330	-3.301	57.332	-63.617	-58.811	-57.546	-51.973	112.320	-54.704	-8191	255	
1304.107	1	1	0	0	0.18294	0.16509	0.20133	0.21462	0.067651	0.11576	0.20347	0.077612	0.29052	0.16318	0.16425	0.11924	0.12509	0.32661	0.22293	0.034208	-1.9937	-2.7313	-2.9021	-2.5833	-3.0375	-2.7979	-2.7229	-3.2958	-2.6688	-2.6958	-3.1521	-2.3	-2.8479	-2.7896	-2.4229	-3.1813	-49.479	166.855	122.367	277.187	81.133	-8.735	-29.684	186.298	72.149	238.463	239.137	-35.674	170.621	230.684	208.570	-78.039	8.338e-05	0.00096352	0.00010256	1536.3	3.3219e-06	4.1206e-06	1477.8	521.86	2.5359e-06	3.1743e-06	550.51	133.1	122.49	38.212	4.4635e-06	46.411	0.0007658	0.0012891	0.00035412	1436.7	1.2923e-05	1.4269e-05	1379.2	489.69	1.3056e-05	1.4845e-05	514.42	126.48	115.97	36.273	1.3429e-05	44.202	244.472	6.065	9.743	-65.705	109.642	78.359	-66.571	-62.242	58.826	85.325	-63.905	-59.183	-57.609	-52.318	102.082	-54.084	-8191	255	
1304.203	1	1	0	0	0.15584	0.049478	0.039955	0.20845	0.062757	0.28215	0.23896	0.23129	0.13011	0.24633	0.032783	0.17389	0.18284	0.13426	0.16669	0.24513	-2.0438	-2.4271	-2.9604	-2.7292	-2.8187	-2.7979	-2.6708	-3.2875	-2.4688	-2.5854	-3.0729	-2.4292	-2.9229	-2.9083	-2.4146	-2.9729	0.286	174.123	-17.864	213.138	35.553	48.410	-56.927	231.435	262.826	13.568	215.437	-5.728	264.737	-59.701	70.162	214.652	0.00010049	0.00071694	0.0001991	1529.8	5.2164e-06	8.7827e-06	1468.1	515.97	7.126e-07	5.4557e-06	543.98	132.95	122.47	38.418	3.0251e-06	47.064	0.00076372	0.0012975	0.00035987	1431.3	1.355e-05	1.4489e-05	1371.6	484.99	1.3298e-05	1.4242e-05	510.5	125.85	115.61	36.347	1.3404e-05	44.491	228.616	-6.412	21.979	-65.753	78.519	68.016	-66.580	-62.065	106.410	84.648	-63.801	-58.982	-57.784	-52.201	100.267	-53.864	-8191	255	
1304.299	1	1	0	0	0.17037	0.10562	0.29962	0.23127	0.31712	0.1942	0.18168	0.24296	0.24538	0.14227	0.14957	0.16034	0.16399	0.14795	0.12997	0.2092	-2.3125	-2.5687	-3.0854	-2.7271	-2.7354	-3.0021	-2.6104	-3.3	-2.8417	-2.5729	-3.1792	-2.6229	-2.7375	-3.0729	-2.3229	-2.8979	252.833	204.610	264.752	247.396	-19.257	61.446	261.074	217.859	52.764	-47.436	111.364	-56.370	-72.179	-7.342	-12.857	201.120	0.00011493	0.00053924	0.00015981	1527.5	6.8928e-06	7.933e-06	1461.1	515.17	4.8504e-07	6.6151e-06	543	132.69	122.47	38.445	4.9932e-06	47.187	0.00075549	0.0012701	0.00036062	1422.4	1.2933e-05	1.391e-05	1363.1	483.78	1.3309e-05	1.4293e-05	509.99	125.94	115.78	36.511	1.3251e-05	44.581	234.113	-0.510	17.867	-65.544	83.382	50.060	-66.614	-62.046	170.010	69.161	-63.964	-59.348	-57.545	-52.377	71.998	-54.098	-8191	255	
1304.420	1	1	0	0	0.027039	0.14257	0.081361	0.086829	0.31123	0.27603	0.32634	0.096031	0.020359	0.14542	0.1516	0.25382	0.36473	0.12046	0.0024279	0.11268	-2.4271	-2.4458	-2.9771	-2.7083	-2.6813	-2.9292	-2.7625	-3.0521	-2.7083	-2.4521	-3.2021	-2.6042	-2.7396	-3.1479	-2.4646	-2.9958	-72.271	-11.030	233.325	-54.474	-16.353	194.345	-74.958	-40.667	97.768	-43.134	-53.109	205.473	270.464	221.318	174.233	263.827	7.6225e-05	0.00072455	0.00016202	1517.9	5.2035e-06	5.3014e-06	1465.5	518.51	3.1609e-06	6.2559e-06	547.8	133.7	122.68	38.586	2.8942e-06	47.781	0.0007309	0.0012861	0.00034793	1419	1.3307e-05	1.4233e-05	1366.3	484.91	1.3076e-05	1.4189e-05	512.04	126.27	116	36.639	1.3209e-05	44.934	207.068	-7.660	6.236	-65.569	99.021	39.770	-66.812	-62.137	48.181	82.075	-63.611	-58.885	-57.795	-52.305	74.043	-54.022	-8191	255	
1304.516	1	1	0	0	0.26546	0.21408	0.056815	0.10211	0.12899	0.20613	0.099871	0.11144	0.099576	0.18384	0.26487	0.34705	0.23716	0.07163	0.25448	0.14438	-2.5604	-2.2854	-3.0167	-2.9062	-2.5417	-3.0104	-2.8729	-2.9875	-2.9771	-2.5167	-3.1854	-2.7354	-2.4917	-3.1271	-2.5042	-2.9708	4.568	7.013	4.409	215.728	-10.760	234.122	203.079	263.878	83.989	53.745	-41.454	243.094	-52.623	53.801	190.424	214.160	0.00010585	0.00042815	0.00015375	1525.5	4.2192e-06	9.9061e-06	1458.7	514.87	1.419e-06	5.8127e-06	545.26	132.03	122.69	38.807	3.1999e-06	47.245	0.00074129	0.0012119	0.0003503	1423.1	1.3131e-05	1.3972e-05	1368.9	484.05	1.3077e-05	1.4271e-05	511.24	126.34	115.75	36.762	1.292e-05	44.869	215.467	37.836	0.666	-65.724	76.197	69.655	-66.698	-62.284	75.850	78.115	-63.690	-58.561	-57.715	-52.406	47.559	-54.407	-8191	255	
1304.612	1	1	0	0	0.12786	0.1415	0.20221	0.19071	0.028999	0.19448	0.36312	0.12682	0.081322	0.235	0.19538	0.32556	0.23344	0.07963	0.037254	0.092028	-2.7021	-2.3146	-2.9375	-2.9771	-2.5458	-3.1146	-2.9042	-2.8792	-3.1104	-2.25	-3.1021	-2.8833	-2.4417	-3.2146	-2.7271	-2.7375	76.041	-72.674	115.122	-74.112	154.408	157.938	184.706	146.909	-54.576	9.076	224.971	-44.370	-56.313	231.994	-67.588	110.503	9.9302e-05	0.00092768	0.00013458	1516.5	7.3188e-06	6.7913e-06	1469.4	514.48	4.2466e-06	5.5516e-06	544.9	132.72	122.03	38.729	4.7271e-06	47.285	0.00074872	0.0012773	0.00035339	1417.6	1.2876e-05	1.38e-05	1365.8	483.57	1.3199e-05	1.3946e-05	510.39	126.19	115.57	36.704	1.3e-05	44.793	222.689	12.825	34.156	-65.405	56.410	68.214	-66.419	-62.094	87.544	77.003	-64.106	-58.990	-57.669	-52.215	76.093	-54.447	-8191	255	
1304.708	1	1	0	0	0.14244	0.099721	0.037184	0.64911	0.18134	0.14957	0.088473	0.40864	0.11033	0.2232	0.033808	0.14168	0.16531	0.06581	0.11873	0.1073	-2.5687	-2.3563	-2.7979	-2.9646	-2.625	-3.0125	-2.9271	-2.8521	-3.2229	-2.5812	-3.0167	-3.1958	-2.4938	-3.1104	-2.5375	-2.6208	50.494	254.768	186.712	246.607	88.912	195.724	229.712	256.370	-4.348	123.637	193.295	233.385	250.518	-55.503	262.303	-27.800	0.00012429	0.0003806	0.00010495	1511.9	4.184e-06	7.1272e-06	1444.1	507.47	2.7795e-06	6.9981e-06	537.5	131.42	120.95	38.42	2.531e-06	47.215	0.00072324	0.0012142	0.00035499	1413.2	1.2863e-05	1.4293e-05	1358.2	479.08	1.2974e-05	1.4269e-05	507.37	125.58	115.1	36.6	1.2873e-05	44.786	224.311	12.496	-37.567	-65.682	102.051	62.450	-66.366	-61.931	43.601	86.679	-63.557	-58.636	-57.565	-52.082	85.201	-53.895	-8191	255	
1304.804	1	1	0	0	0.14422	0.17825	0.16495	0.19282	0.28562	0.32802	0.42976	0.49558	0.30192	0.28557	0.19975	0.053208	0.55386	0.31012	0.10588	0.21128	-2.6646	-2.4521	-2.6667	-3.1333	-2.6167	-2.9917	-2.8688	-2.7729	-3.2333	-2.5042	-2.9313	-3.1542	-2.4292	-2.9792	-2.8812	-2.675	11.859	249.671	269.370	-33.825	-76.763	120.731	261.094	257.329	175.239	24.655	36.718	4.437	260.389	274.175	94.596	-19.723	0.00010101	0.00034615	0.00016035	1509.9	3.7942e-06	8.2998e-06	1448.9	507.68	3.7754e-06	5.1708e-06	535.62	131.75	121.02	38.248	4.8295e-06	47.414	0.00074839	0.0012914	0.00035526	1411.6	1.2865e-05	1.4017e-05	1356.9	478.98	1.272e-05	1.4324e-05	506.63	125.81	114.88	36.537	1.2996e-05	44.782	220.945	-41.920	13.116	-65.577	85.703	95.164	-66.467	-62.118	24.795	70.291	-63.595	-58.680	-57.411	-52.298	75.856	-54.249	-8191	255	
1304.900	1	1	0	0	0.1265	0.2319	0.21756	0.28995	0.11666	0.18704	0.3142	0.1588	0.12047	0.12115	0.19538	0.22044	0.12126	0.24296	0.1645	0.12193	-2.6833	-2.5875	-2.6562	-3.1708	-2.5271	-2.7229	-3.0812	-2.6167	-3.1625	-2.6875	-2.9292	-3.0687	-2.4292	-2.8875	-2.9417	-2.6146	114.935	24.322	154.864	-51.337	92.772	77.010	202.522	165.621	20.724	100.797	269.890	262.603	275.021	-64.481	48.575	246.175	0.00012115	0.0006132	0.00020823	1515	4.9606e-06	2.8546e-06	1441.8	509.79	2.2192e-06	4.8775e-06	539.55	132.16	121.05	38.308	5.8709e-06	46.88	0.00074625	0.0012404	0.00034686	1414.4	1.2646e-05	1.4153e-05	1358.8	479.73	1.2731e-05	1.4426e-05	506.33	125.41	115.15	36.522	1.2757e-05	44.614	233.816	-26.728	-3.543	-65.451	99.874	66.367	-66.376	-62.299	94.876	76.846	-63.776	-58.573	-57.463	-52.183	85.742	-53.970	-8191	255	
1304.995	1	1	0	0	0.13725	0.12794	0.18379	0.17832	0.31284	0.051383	0.042115	0.42484	0.19723	0.085231	0.04419	0.10006	0.11906	0.090771	0.19016	0.10549	-2.8625	-2.5792	-2.55	-3.3417	-2.3896	-2.8167	-3.2396	-2.625	-3.0333	-2.8271	-2.7729	-3.2188	-2.5958	-3.0104	-3.0604	-2.6	10.489	-62.643	223.594	72.052	143.770	-26.587	224.292	255.659	21.674	-7.677	240.158	-29.412	248.087	226.881	131.031	255.499	0.00011259	0.00075992	0.00017938	1504.6	4.9613e-06	6.4118e-06	1446.2	507.62	1.58e-06	6.8948e-06	536.17	130.69	120.71	38.276	2.1745e-06	47.238	0.00071957	0.001259	0.00035432	1409	1.2623e-05	1.3751e-05	1355.7	478.22	1.2983e-05	1.4376e-05	506.62	125.36	114.69	36.471	1.3249e-05	44.853	234.587	-11.279	-7.587	-65.602	111.924	51.119	-66.459	-62.102	71.513	82.827	-63.458	-58.566	-57.094	-51.782	84.862	-53.980	-8191	255	
1305.115	1	1	0	0	0.2435	0.087203	0.10282	0.23451	0.096176	0.099925	0.013435	0.33001	0.057817	0.066376	0.24208	0.18861	0.049434	0.045251	0.18081	0.033224	-2.6479	-2.8458	-2.4458	-3.2938	-2.5729	-2.6792	-3.1625	-2.5812	-2.9042	-2.9062	-2.6396	-3.0708	-2.7083	-2.7708	-3.0312	-2.5292	65.678	244.808	44.985	-29.144	175.447	111.035	90.914	238.812	49.728	53.617	229.844	-31.919	-79.324	-58.812	84.509	243.343	0.00011531	0.00051507	0.00012855	1498.3	3.1294e-06	7.3876e-06	1434.4	504.5	2.5876e-06	7.3197e-06	532.92	131.61	120.25	38.528	3.3884e-06	47.223	0.00075865	0.0012543	0.00036142	1406.4	1.3271e-05	1.3821e-05	1352.8	476.72	1.2737e-05	1.4428e-05	503.38	125.44	114.45	36.603	1.303e-05	44.954	231.005	11.235	15.940	-65.300	103.674	73.918	-65.997	-61.834	69.706	47.742	-63.529	-58.482	-57.266	-52.096	57.771	-53.952	-8191	255	
1305.211	1	1	0	0	0.34342	0.16556	0.14523	0.27466	0.24773	0.14267	0.1813	0.28724	0.15975	0.26559	0.033325	0.088277	0.21065	0.11556	0.23353	0.13917	-2.4729	-2.975	-2.3646	-3.1417	-2.5771	-2.6917	-3.2479	-2.6104	-2.9375	-2.9604	-2.6542	-3.2375	-2.9437	-2.5729	-3.2729	-2.6229	-50.553	59.396	-74.737	270.753	-46.783	57.287	-74.919	204.818	-67.523	165.652	-76.094	240.203	277.300	-37.104	196.003	232.082	0.00010914	0.0005304	0.00021214	1502	3.1493e-06	3.5823e-06	1439.2	506.22	2.5478e-06	4.9912e-06	535.76	131.83	120.56	38.296	5.601e-06	47.663	0.00074788	0.0012585	0.00036223	1407.5	1.3413e-05	1.4405e-05	1352.1	476.7	1.3675e-05	1.4024e-05	504.7	125.89	114.62	36.608	1.3066e-05	45.02	235.948	43.085	21.406	-65.433	58.716	131.584	-66.396	-61.851	59.021	85.762	-63.285	-58.681	-56.999	-52.050	89.323	-53.927	-8191	255	
1305.283	1	1	0	0	0.10646	0.18215	0.28382	0.30887	0.16469	0.19048	0.16651	0.29472	0.1358	0.1104	0.035558	0.20383	0.22781	0.21066	0.21711	0.21174	-2.3354	-2.8063	-2.3958	-3.1458	-2.6396	-2.6083	-3.2479	-2.7458	-2.95	-3.0646	-2.5146	-2.9521	-2.9188	-2.6479	-3.1854	-2.7042	117.092	278.597	5.230	-30.066	0.322	133.529	275.011	240.216	222.832	131.622	200.195	266.041	260.747	133.419	7.162	255.110	9.6255e-05	0.00060327	0.0002779	1493.5	5.7886e-06	4.5873e-06	1434.3	503.38	2.6425e-06	5.0997e-06	533.75	129.99	119.49	38.406	3.9797e-06	47.12	0.00075631	0.0012754	0.00034879	1403.1	1.2983e-05	1.4029e-05	1348.6	475.33	1.3416e-05	1.406e-05	503.17	125.14	113.98	36.561	1.311e-05	44.98	233.891	44.360	-8.366	-65.186	104.403	82.472	-66.417	-61.858	68.831	76.146	-63.471	-58.498	-57.353	-51.881	50.538	-53.662	-8191	255	
1305.379	1	1	0	0	0.19979	0.32055	0.17666	0.076646	0.065946	0.23024	0.10224	0.24668	0.11187	0.018815	0.25882	0.018379	0.18793	0.16644	0.19683	0.16294	-2.3333	-2.9146	-2.4625	-3.0042	-2.8083	-2.6437	-3.2	-2.8146	-2.5083	-3.2687	-2.3583	-2.925	-3.2188	-2.6542	-3.0646	-2.7021	-64.542	-31.526	-52.168	-35.398	82.192	245.365	222.620	242.972	-21.182	66.727	268.492	-77.779	273.971	217.545	204.258	121.075	8.0747e-05	0.00061627	0.00011546	1491.1	2.8297e-06	5.083e-06	1431.5	504.81	1.127e-06	7.2112e-06	531.34	130.05	119.51	38.358	6.2322e-06	47.321	0.00075817	0.0012259	0.00035518	1401.8	1.2981e-05	1.406e-05	1347.1	476.12	1.3072e-05	1.3732e-05	502.06	124.81	114.19	36.631	1.3092e-05	45.065	231.677	-30.502	24.552	-65.428	98.847	58.055	-66.342	-61.678	70.597	86.348	-63.441	-58.644	-57.218	-52.074	59.640	-53.641	-8191	255	
1305.500	1	1	0	0	0.071203	0.083913	0.25214	0.087177	0.1086	0.12745	0.26032	0.15201	0.24197	0.2268	0.098303	0.19303	0.19151	0.29415	0.10656	0.085074	-2.0583	-3.2583	-2.3917	-3.1021	-2.8937	-2.4854	-3.1917	-2.7062	-2.6583	-3.2438	-2.5375	-2.8187	-2.9979	-2.3854	-2.9167	-2.775	218.803	121.236	98.179	-75.567	128.939	101.327	272.113	267.557	216.223	55.077	187.113	-47.401	275.219	155.514	244.945	250.208	8.0711e-05	0.00045203	0.00017692	1489.4	4.4032e-06	4.344e-06	1437.7	504.13	1.1363e-06	5.6675e-06	535.5	131.32	120.27	38.469	4.6905e-06	47.481	0.00074322	0.0012295	0.00036533	1401.5	1.2962e-05	1.3918e-05	1348.5	475.89	1.3248e-05	1.3677e-05	502.46	125.37	114.59	36.72	1.2846e-05	45.183	218.607	-19.882	4.098	-65.252	101.563	35.077	-66.363	-61.721	169.701	76.940	-63.506	-58.836	-57.098	-52.132	60.390	-53.539	-8191	255	
1305.596	1	1	0	0	0.15204	0.23153	0.30434	0.12884	0.096897	0.13162	0.11597	0.42119	0.24665	0.18705	0.16168	0.099761	0.19321	0.21973	0.19212	0.15428	-2.0333	-3.1312	-2.4896	-2.8563	-3.0333	-2.4167	-3.1958	-3.0625	-2.5	-3.0563	-2.6958	-2.75	-3.2188	-2.3896	-2.9167	-2.925	194.871	53.145	-43.750	77.538	183.747	-7.631	193.641	272.874	-56.959	268.891	223.855	46.144	241.902	28.081	188.621	-18.465	0.00011397	0.00074919	0.00021915	1489.6	4.2394e-06	6.6481e-06	1422	503.42	7.0098e-07	4.7781e-06	533.08	131	119.94	38.284	4.0278e-06	47.504	0.00074053	0.0012546	0.00034872	1399.2	1.2152e-05	1.4129e-05	1346.3	476.45	1.3335e-05	1.4378e-05	502.48	125.39	114.31	36.685	1.2792e-05	45.173	246.579	7.070	33.347	-65.271	97.908	52.954	-66.304	-61.442	80.256	43.434	-63.310	-58.516	-56.889	-52.118	90.921	-53.603	-8191	255	
1305.692	1	1	0	0	0.053599	0.21949	0.0996	0.21945	0.11065	0.1008	0.15868	0.15046	0.31261	0.30029	0.053217	0.16135	0.1573	0.11539	0.098808	0.162	-2.0542	-3.0167	-2.5917	-2.7438	-2.9	-2.4021	-2.8438	-3.1625	-2.4958	-3.15	-2.9083	-2.5521	-3.1646	-2.6604	-2.8646	-2.8542	78.048	142.120	25.936	5.835	231.776	175.171	95.313	219.510	91.615	64.360	159.445	235.387	-60.161	0.777	-19.435	121.901	0.00011053	0.00067772	0.00015777	1488.2	4.6929e-06	6.0403e-06	1431.7	500.5	1.7999e-06	7.3503e-06	530.54	130.08	119.24	38.518	3.8761e-06	47.071	0.00076186	0.0012373	0.00035804	1398.3	1.3077e-05	1.4073e-05	1344.1	474.26	1.274e-05	1.3899e-05	502.08	124.99	113.76	36.678	1.3098e-05	44.967	217.772	21.367	6.105	-65.539	51.385	30.080	-66.480	-61.629	156.039	83.402	-63.134	-58.578	-56.994	-51.979	54.492	-53.742	-8191	255	
1305.813	1	1	0	0	0.099181	0.30859	0.07331	0.19866	0.19812	0.20329	0.062391	0.22668	0.081578	0.19612	0.23401	0.15376	0.042404	0.20772	0.39438	0.11477	-2.0271	-3.1583	-2.6583	-2.6917	-3.1667	-2.6271	-2.8917	-3.0604	-2.4146	-3.0583	-2.8833	-2.5604	-3.1146	-2.6	-2.6479	-3.1292	261.394	-36.805	145.590	227.350	227.201	70.183	266.228	-39.329	246.123	120.151	-59.598	233.001	267.402	-34.183	272.865	125.223	8.5218e-05	0.00052972	0.00018556	1487.7	4.9065e-06	5.9467e-06	1426	499.06	2.6222e-06	7.397e-06	529.72	130.42	119.82	38.283	5.7209e-06	47.277	0.00073128	0.0012491	0.0003531	1398.3	1.2628e-05	1.4352e-05	1344.3	473.31	1.3287e-05	1.4242e-05	501.82	124.88	114.11	36.598	1.3537e-05	44.959	223.687	-16.313	32.891	-65.401	110.568	69.404	-66.094	-61.660	19.988	71.337	-63.380	-58.247	-56.828	-51.687	66.870	-53.665	-8191	255	
1305.907	1	1	0	0	0.24237	0.094994	0.18116	0.24834	0.13359	0.19466	0.13294	0.32992	0.11594	0.21582	0.20587	0.14062	0.020473	0.25381	0.24809	0.095427	-1.8937	-3.0771	-2.7625	-2.5604	-3.1417	-2.675	-2.9646	-3.3063	-2.3729	-2.9188	-3.0729	-2.5958	-3.2229	-2.7333	-2.4313	-3.2562	244.252	-17.698	75.201	252.469	263.846	171.554	269.805	210.792	63.495	128.449	254.644	-4.564	141.598	163.773	223.769	208.522	8.9837e-05	0.00079052	0.00015084	1488.7	5.3423e-06	5.1212e-06	1435.1	500.47	2.3666e-06	1.6303e-06	533.98	130.9	119.28	38.278	4.6504e-06	47.453	0.00075236	0.0013006	0.00036775	1398	1.2884e-05	1.3888e-05	1347.2	473.8	1.2574e-05	1.452e-05	502.81	125.13	114.2	36.658	1.3206e-05	45.073	247.978	22.695	14.864	-65.174	47.062	98.402	-66.388	-61.765	93.811	33.983	-63.336	-58.668	-56.794	-51.469	111.235	-53.861	-8191	255	
1305.981	1	1	0	0	0.15316	0.41606	0.14952	0.22239	0.071644	0.062466	0.25294	0.076578	0.19577	0.22501	0.13591	0.21289	0.046839	0.016937	0.23628	0.096496	-2.1375	-2.8417	-2.7854	-2.4333	-3.0375	-2.8917	-2.7562	-3.0792	-2.5396	-2.7708	-3.1	-2.4167	-3.2771	-2.8312	-2.4833	-3.05	159.509	-78.410	34.049	274.022	214.410	172.828	238.380	-22.574	-23.774	-59.192	86.806	203.705	225.162	244.247	269.949	-55.233	7.9386e-05	0.0007605	0.00018095	1494.6	2.086e-06	8.2941e-06	1416.9	500.67	2.9181e-06	5.3939e-06	530.98	130.49	119.08	38.297	3.9491e-06	47.084	0.00074898	0.0012841	0.00035379	1400.3	1.3391e-05	1.443e-05	1341.8	474.08	1.3186e-05	1.4576e-05	501.37	124.91	113.85	36.631	1.3377e-05	45.004	228.545	-25.602	18.769	-65.449	139.063	60.908	-66.069	-61.352	105.111	61.954	-63.055	-58.445	-56.986	-51.594	66.952	-53.216	-8191	255	
1306.100	1	1	0	0	0.21515	0.07723	0.20151	0.081607	0.12849	0.26571	0.11004	0.37543	0.093467	0.057498	0.12672	0.090324	0.21466	0.073161	0.17375	0.088327	-1.9875	-2.7604	-2.7833	-2.6083	-3.0208	-3.0021	-2.5646	-3.4562	-2.5812	-2.5854	-3.1562	-2.6417	-2.975	-3.0396	-2.2833	-3.1083	-29.459	34.594	261.638	277.691	38.627	89.858	272.530	249.159	105.879	-61.353	-0.303	238.392	278.948	-10.436	155.444	141.713	9.7468e-05	0.00065031	9.8033e-05	1481.9	7.3328e-06	6.5707e-06	1419.6	499.31	4.0526e-06	4.9895e-06	529.78	130.21	118.46	38.325	3.6491e-06	47.181	0.00076499	0.0012877	0.00034906	1393.3	1.3158e-05	1.4053e-05	1340.4	472.31	1.2821e-05	1.4881e-05	500.45	124.46	113.47	36.639	1.3053e-05	45.023	227.670	9.618	-0.919	-64.991	92.178	65.764	-66.016	-61.695	74.629	96.027	-63.084	-58.408	-57.131	-51.648	108.444	-53.771	-8191	255	
1306.196	1	1	0	0	0.33727	0.30104	0.13751	0.28675	0.26692	0.30967	0.21772	0.35728	0.22624	0.086926	0.34886	0.14413	0.20937	0.15247	0.2456	0.10928	-2.2833	-2.65	-3.0458	-2.7021	-2.9	-2.8312	-2.5833	-3.2833	-2.5625	-2.4979	-3.3146	-2.5708	-2.9958	-3.1167	-2.4292	-3.1437	-24.072	35.686	252.054	-40.067	120.909	248.067	173.621	229.274	-3.736	271.636	271.853	-36.981	253.667	215.144	194.347	151.017	0.00011047	0.0006742	0.0001918	1486.1	4.8817e-06	5.8487e-06	1424.6	499.56	3.7326e-06	5.6694e-06	530.53	129.74	118.96	38.352	3.6869e-06	47.41	0.00074274	0.0012596	0.00036353	1394.1	1.2777e-05	1.3989e-05	1339.4	471.81	1.2936e-05	1.4449e-05	499.91	124.49	113.77	36.568	1.2998e-05	45.014	244.406	7.088	10.674	-65.314	52.534	41.709	-65.860	-61.604	66.147	49.687	-62.964	-58.570	-56.852	-51.432	97.414	-53.885	-8191	255	
1306.292	1	1	0	0	0.14079	0.056266	0.36673	0.34484	0.19489	0.041451	0.2672	0.20708	0.25838	0.12559	0.26622	0.23223	0.16917	0.15213	0.12387	0.14473	-2.2875	-2.4542	-3.1333	-2.6292	-2.7313	-3.15	-2.7146	-3.125	-2.6437	-2.4958	-3.2083	-2.7604	-2.8396	-3.0542	-2.4	-3.15	-49.970	130.091	265.529	222.251	150.428	21.038	-61.422	158.169	152.445	33.689	-72.527	246.349	188.006	-36.235	115.208	265.871	6.848e-05	0.00041137	0.00020101	1486.4	3.9113e-06	8.8027e-07	1429.5	498.56	3.5694e-06	5.948e-06	529.54	131.47	119.15	38.288	5.5598e-06	47.271	0.00076438	0.0012967	0.00036135	1394.8	1.3465e-05	1.4577e-05	1344.1	471.88	1.3173e-05	1.4725e-05	500.69	125.32	113.72	36.574	1.3779e-05	45.021	226.334	12.729	-19.388	-65.281	80.456	65.355	-66.197	-61.851	110.428	82.258	-63.413	-58.736	-57.070	-51.760	81.777	-53.858	-8191	255	
1306.412	1	1	0	0	0.25692	0.22449	0.10739	0.2521	0.18041	0.1902	0.26236	0.31206	0.15413	0.16169	0.27629	0.13873	0.19025	0.10069	0.26285	0.1039	-2.3312	-2.475	-3.2354	-2.8688	-2.6583	-2.9646	-2.4229	-3.15	-2.9562	-2.3563	-3.1312	-2.8375	-2.7354	-3.1771	-2.5917	-2.9333	-64.888	26.538	12.708	-50.557	96.398	7.480	210.148	193.654	31.721	156.625	253.661	244.977	-58.382	38.247	83.721	-79.627	9.5147e-05	0.00054027	0.00015479	1484.3	5.6915e-06	6.9149e-06	1431.7	499.41	1.9412e-06	7.6515e-06	530.71	129.96	118.53	38.126	4.9548e-06	46.89	0.00078103	0.0012812	0.00036584	1396.1	1.3549e-05	1.4054e-05	1344	472.01	1.3098e-05	1.4003e-05	500.61	124.54	113.27	36.451	1.3266e-05	44.636	222.987	-12.631	13.218	-65.024	83.125	92.718	-66.325	-61.930	17.705	100.836	-63.367	-58.060	-56.914	-51.667	68.488	-53.907	-8191	255	
1306.509	1	1	0	0	0.18832	0.15442	0.030152	0.28919	0.22473	0.23174	0.10384	0.30892	0.072206	0.074798	0.45629	0.1985	0.29543	0.18809	0.24039	0.10133	-2.5604	-2.4313	-3.0417	-2.8604	-2.6437	-3.1479	-2.8104	-2.9833	-2.8604	-2.5125	-3.1083	-2.9437	-2.5687	-3.2812	-2.6667	-2.8958	163.164	47.925	233.034	254.992	145.744	-22.428	256.156	234.572	108.512	252.938	253.224	150.738	-4.023	130.051	128.361	239.737	9.6265e-05	0.00069368	0.00022236	1482.2	3.0579e-06	5.4976e-06	1427.5	501.82	2.3704e-06	5.0633e-06	526.75	129.29	118.71	37.786	4.5194e-06	46.975	0.00073518	0.0012789	0.00036457	1394.1	1.3289e-05	1.3995e-05	1343.4	473.04	1.3545e-05	1.5045e-05	499.82	123.91	113.39	36.225	1.3452e-05	44.525	238.457	34.913	-17.598	-64.914	79.800	102.550	-66.172	-61.714	34.718	80.654	-63.355	-58.387	-57.121	-51.715	76.809	-53.759	-8191	255	
1306.580	1	1	0	0	0.2106	0.2192	0.167	0.19236	0.25972	0.059166	0.34404	0.25715	0.25921	0.053384	0.045952	0.16588	0.32613	0.34603	0.063906	0.2232	-2.6292	-2.4125	-2.9646	-2.8688	-2.5125	-3.3583	-2.7604	-3.1021	-3.1104	-2.6167	-3.0083	-2.9042	-2.6521	-3.1375	-2.5708	-2.7917	92.876	43.712	-57.150	271.614	189.792	148.698	221.618	248.626	74.176	-52.372	-6.876	152.319	270.608	253.691	248.111	260.134	0.00010833	0.00036504	0.00015539	1480.3	2.2845e-06	5.6658e-06	1419.8	497.16	1.063e-06	7.655e-06	531.13	128.42	118.36	37.751	5.9913e-06	46.587	0.00076855	0.0012786	0.00036593	1393	1.3054e-05	1.4193e-05	1340.5	471.08	1.33e-05	1.4983e-05	500.52	123.64	113.11	36.077	1.3509e-05	44.227	204.272	14.112	4.192	-64.873	80.016	67.447	-66.090	-61.833	14.261	86.920	-63.068	-57.974	-56.355	-51.763	102.881	-53.915	-8191	255	
1306.676	1	1	0	0	0.20307	0.19335	0.047678	0.22693	0.15252	0.34244	0.20081	0.20672	0.076281	0.049401	0.3316	0.10595	0.33076	0.09398	0.24095	0.34962	-2.7479	-2.4854	-2.7271	-3.1146	-2.5104	-3.0938	-2.6396	-2.7271	-3.1063	-2.4896	-2.9938	-3.0792	-2.4625	-3.125	-2.7333	-2.6625	69.259	-13.171	54.855	243.735	198.316	190.702	227.030	262.046	95.839	260.520	-71.116	186.702	186.883	176.259	-69.260	213.626	0.00010599	0.00054002	0.0001656	1476	4.0315e-06	5.4713e-06	1422.3	495.76	7.9601e-07	7.1617e-06	528.77	128.32	117.49	37.79	2.2145e-06	46.049	0.00075165	0.0013088	0.00036865	1394.5	1.3095e-05	1.4147e-05	1341.2	470.17	1.3346e-05	1.5175e-05	500.36	123.59	112.66	35.98	1.3608e-05	44.12	220.989	8.529	-6.537	-65.028	94.216	71.582	-65.955	-61.812	89.529	76.998	-63.175	-57.925	-56.756	-51.589	80.080	-53.657	-8191	255	
1306.797	1	1	0	0	0.094932	0.047327	0.38182	0.29851	0.19147	0.022572	0.46355	0.28131	0.033306	0.3321	0.091479	0.1898	0.30575	0.027432	0.23572	0.055441	-2.7062	-2.5708	-2.8625	-3.1083	-2.4208	-3.1229	-2.9708	-2.5771	-3.0708	-2.4729	-2.6937	-2.9458	-2.5042	-3.0167	-2.8333	-2.4417	59.552	7.394	254.843	-44.129	-59.408	265.013	205.023	216.117	-3.449	142.271	213.763	189.070	236.100	235.077	125.076	232.400	0.00012764	0.00042807	0.00018587	1478.3	5.5718e-06	6.4138e-06	1422.8	496.8	1.6233e-06	4.8704e-06	529.73	128.64	118.41	37.612	2.7045e-06	46.11	0.00075397	0.0012723	0.00035267	1390.7	1.3205e-05	1.4017e-05	1339.8	470.05	1.3073e-05	1.4722e-05	498.07	123.1	112.46	35.941	1.3216e-05	43.894	221.887	12.433	14.423	-64.877	95.205	63.679	-66.121	-61.636	99.705	82.956	-63.286	-58.437	-57.136	-51.753	83.973	-53.839	-8191	255	
1306.891	1	1	0	0	0.092559	0.094678	0.090069	0.33904	0.069609	0.23631	0.28909	0.25594	0.18942	0.10545	0.12442	0.081883	0.17477	0.19948	0.046986	0.2534	-2.8979	-2.4896	-2.5708	-3.0729	-2.3021	-2.7833	-2.9917	-2.6271	-2.9188	-2.5167	-2.7417	-3.0271	-2.4437	-2.9333	-2.8458	-2.5146	-7.830	28.678	-55.286	246.572	-46.459	204.497	197.672	232.540	245.482	131.698	178.798	131.720	-77.392	215.130	31.960	155.977	0.00010049	0.00070101	0.00019089	1481.6	4.0177e-06	5.4841e-06	1427.7	497.99	3.5801e-06	9.8111e-06	530.89	127.92	116.99	37.265	4.6738e-06	46.281	0.00074954	0.0012987	0.0003643	1393	1.309e-05	1.4626e-05	1339.9	470.4	1.3204e-05	1.4853e-05	498.38	123.11	112.29	35.696	1.3418e-05	43.904	210.975	4.468	27.656	-65.024	117.373	73.047	-66.244	-61.901	34.773	62.135	-63.368	-58.371	-56.987	-51.871	90.152	-54.101	-8191	255	
1306.988	1	1	0	0	0.022427	0.13582	0.035536	0.40963	0.23367	0.22556	0.10521	0.19292	0.026141	0.27552	0.22941	0.19854	0.13354	0.061725	0.085252	0.079213	-2.7604	-2.5167	-2.5896	-3.1583	-2.5771	-2.8479	-3.1583	-2.6021	-3.0187	-2.6167	-2.6021	-2.9167	-2.4458	-2.7979	-3.0292	-2.4562	173.775	-28.960	172.188	232.208	41.340	105.747	35.283	202.449	10.668	49.546	192.748	252.031	-36.136	108.334	239.422	221.896	0.00010074	0.00075468	0.00010771	1477.4	5.1769e-06	9.5816e-06	1422.1	496.35	2.5042e-06	2.6919e-06	527.03	128.09	117.21	37.659	6.4563e-06	45.979	0.00073895	0.0013073	0.00036201	1391.1	1.3484e-05	1.5092e-05	1338.8	469.09	1.3546e-05	1.4819e-05	497.37	123.08	111.99	35.909	1.3398e-05	43.889	245.870	15.384	5.779	-64.970	76.505	81.352	-66.375	-61.850	128.939	66.757	-63.387	-58.354	-56.822	-51.340	90.418	-53.629	-8191	255	
1307.084	1	1	0	0	0.073106	0.13033	0.18702	0.20415	0.21524	0.1396	0.26361	0.15492	0.12632	0.21685	0.30538	0.30887	0.32267	0.21531	0.19071	0.18116	-2.4167	-2.7	-2.3854	-3.3125	-2.6188	-2.7125	-3.2167	-2.5458	-2.9437	-2.925	-2.5792	-3.025	-2.5062	-2.5854	-3.0042	-2.5438	190.079	-30.017	193.139	258.265	214.947	-2.478	-48.102	260.036	222.040	155.612	256.586	237.639	257.075	-13.423	238.901	152.948	9.761e-05	0.00032445	0.0002421	1478.9	4.8903e-06	4.3818e-06	1420.5	496.63	1.362e-06	7.2366e-06	529.5	129.24	117.08	37.667	3.6481e-06	45.767	0.00075633	0.0013392	0.00036518	1389.6	1.3408e-05	1.4952e-05	1340.2	469.15	1.3387e-05	1.4603e-05	497.48	123.18	111.96	35.808	1.3308e-05	43.757	217.924	19.123	19.128	-65.162	72.423	75.787	-66.136	-61.886	42.830	60.792	-63.200	-58.320	-57.133	-51.961	73.324	-53.687	-8191	255	
1307.204	1	1	0	0	0.14455	0.29475	0.18132	0.26771	0.30995	0.054849	0.21393	0.22917	0.036308	0.084149	0.30964	0.21575	0.064573	0.20712	0.066249	0.13501	-2.4396	-2.7438	-2.2854	-3.0958	-2.7417	-2.5771	-3.3083	-2.5958	-2.775	-2.9833	-2.6896	-3.0583	-2.725	-2.6937	-3.0729	-2.6083	64.681	108.166	-13.785	271.471	66.229	189.122	271.515	270.936	-77.920	21.927	-74.096	273.464	264.089	-11.367	178.747	-25.240	5.5778e-05	0.00072267	0.00019143	1472.6	4.8302e-06	4.8464e-06	1421.6	492	3.1934e-07	4.2762e-06	524.92	127.8	117.58	37.206	2.7712e-06	46.206	0.00076812	0.001306	0.00036202	1388.4	1.3458e-05	1.4818e-05	1337.4	466.99	1.3365e-05	1.5163e-05	495.76	122.73	111.9	35.615	1.4061e-05	43.776	206.774	9.187	6.161	-65.199	111.620	53.072	-66.127	-61.572	90.608	32.879	-63.352	-58.315	-56.969	-51.787	105.930	-53.692	-8191	255	
1307.276	1	1	0	0	0.088486	0.15869	0.19689	0.36567	0.22382	0.14506	0.13129	0.2244	0.12293	0.019633	0.2309	0.19957	0.22362	0.25622	0.26047	0.13049	-2.4896	-2.8979	-2.2771	-3.025	-2.4896	-2.425	-3.1375	-2.45	-2.4854	-2.9958	-2.5062	-2.9625	-2.8896	-2.4521	-2.95	-2.4667	-76.083	194.899	252.521	245.837	38.059	269.848	-60.750	223.778	159.603	173.368	181.457	237.675	264.933	195.992	-24.437	214.536	0.00011131	0.00049063	0.00017632	1480.1	5.7843e-06	4.5277e-06	1421.8	495.69	1.753e-06	8.1211e-06	521.85	127.44	116.98	37.358	1.708e-06	46.229	0.00075654	0.0012853	0.00037836	1387.6	1.3717e-05	1.4283e-05	1335.9	467.16	1.3264e-05	1.4714e-05	493.95	122.46	111.81	35.646	1.3094e-05	43.867	224.611	18.132	9.171	-65.309	85.586	81.669	-66.562	-61.793	69.062	84.305	-63.086	-58.758	-57.177	-52.293	23.450	-53.863	-8191	255	
1307.372	1	1	0	0	0.03345	0.077875	0.17459	0.17761	0.083092	0.084464	0.17009	0.16688	0.17297	0.27995	0.17448	0.35959	0.33364	0.10234	0.086399	0.25062	-2.1667	-3.0458	-2.35	-2.9125	-2.6875	-2.3792	-3.2	-2.6688	-2.5062	-2.9688	-2.5521	-2.7917	-2.9604	-2.5083	-2.9896	-2.6021	-34.530	-27.867	28.731	-53.151	134.398	40.548	184.099	189.034	34.360	136.317	-31.624	-60.056	190.117	254.438	214.987	-24.385	9.1186e-05	0.00071373	0.00011	1472.4	6.889e-06	6.522e-06	1422.3	491.88	1.9093e-06	7.8341e-06	528.68	128.82	117.4	37.267	2.9647e-06	46.17	0.00075094	0.0012865	0.00037839	1384.8	1.3282e-05	1.4555e-05	1336.1	466.89	1.3515e-05	1.4298e-05	496.39	123.12	111.77	35.745	1.3349e-05	43.967	218.184	7.776	-3.863	-65.220	94.311	71.843	-66.273	-61.675	86.553	45.209	-63.448	-58.499	-56.827	-51.881	65.756	-53.562	-8191	255	
1307.493	1	1	0	0	0.11815	0.30392	0.051205	0.15242	0.14196	0.17098	0.23713	0.22775	0.19405	0.12326	0.22156	0.16049	0.17335	0.22875	0.22313	0.11399	-2.0854	-2.9	-2.25	-2.9583	-2.9625	-2.3	-3.125	-2.9583	-2.5312	-2.9375	-2.5646	-2.875	-2.9917	-2.3896	-3.0083	-2.8125	72.363	35.257	-44.036	267.337	-14.513	214.877	184.790	213.351	216.663	-53.836	236.745	-45.611	219.926	30.625	25.213	160.770	0.00012033	0.00096701	0.0001845	1482.1	4.0735e-06	3.241e-06	1428	497.77	2.8118e-06	7.2096e-06	519.47	127.63	115.92	37.454	2.057e-06	46.129	0.00076792	0.0012706	0.00035167	1388.8	1.3722e-05	1.443e-05	1337	467.9	1.3504e-05	1.4726e-05	493.23	122.44	111.35	35.739	1.3371e-05	43.753	234.114	-13.552	0.998	-65.553	111.109	54.115	-66.561	-61.952	116.220	83.384	-62.962	-58.587	-56.692	-51.636	84.246	-53.469	-8191	255	
1307.589	1	1	0	0	0.11623	0.18768	0.21619	0.29657	0.20571	0.18155	0.09328	0.068185	0.35954	0.068242	0.2921	0.16487	0.16543	0.24713	0.024864	0.19551	-2.2562	-2.9125	-2.3083	-2.8729	-2.9521	-2.4729	-3.2167	-3.1562	-2.6542	-3.1521	-2.8083	-2.7333	-2.9562	-2.5333	-2.7313	-2.8771	71.504	272.043	-41.490	0.210	250.177	78.596	-42.646	226.586	-4.828	123.995	253.219	-31.630	216.647	-43.471	45.896	223.768	8.6637e-05	0.00046313	0.00012704	1468.1	4.0107e-06	3.1449e-06	1420.8	491.68	3.2835e-06	7.1324e-06	522.33	127.91	117.57	37.359	2.9675e-06	45.971	0.00075786	0.0012813	0.00036265	1382.5	1.2952e-05	1.403e-05	1333.9	466.05	1.3559e-05	1.4532e-05	494.4	122.45	111.73	35.6	1.3471e-05	43.66	224.808	30.384	-12.111	-65.391	72.733	87.017	-66.329	-61.541	106.161	94.740	-63.086	-58.266	-56.932	-51.783	74.417	-53.614	-8191	255	
1307.685	1	1	0	0	0.12146	0.21313	0.088084	0.42611	0.34146	0.33142	0.19083	0.30784	0.15747	0.13195	0.31645	0.32806	0.17008	0.1611	0.03846	0.17776	-2.1479	-2.8542	-2.6875	-2.8083	-2.9604	-2.3854	-2.8833	-3.1437	-2.6229	-3.0625	-2.8604	-2.7188	-3.2687	-2.4604	-2.8187	-3.1583	-22.472	62.775	106.257	265.330	106.713	-12.972	259.992	247.909	134.615	243.121	79.358	265.214	231.947	228.225	31.767	177.824	8.1321e-05	0.00043575	0.00022254	1472.9	4.6605e-06	8.0238e-06	1414.8	493.84	8.612e-07	4.8858e-06	525.13	129.27	117.44	37.452	6.8687e-06	46.349	0.00075086	0.0012729	0.00036089	1380.8	1.3e-05	1.4357e-05	1332.2	466.59	1.3337e-05	1.4378e-05	494.46	122.77	111.48	35.707	1.3624e-05	43.864	234.629	18.325	12.707	-65.286	104.465	65.549	-66.160	-61.672	37.499	45.192	-63.340	-58.769	-57.061	-51.837	99.410	-53.945	-8191	255	
1307.781	1	1	0	0	0.26228	0.31406	0.082399	0.18354	0.13205	0.2078	0.13293	0.1355	0.2544	0.1432	0.14684	0.24703	0.23732	0.21538	0.21742	0.19872	-1.9396	-3.1104	-2.5125	-2.5042	-2.975	-2.2146	-3.0396	-3.0875	-2.2958	-3.1458	-3.0854	-2.4437	-3.2479	-2.5604	-2.6583	-2.9479	-49.241	138.764	-57.549	-77.474	196.263	267.212	266.416	182.481	49.536	-65.476	231.588	205.851	-72.764	109.983	199.921	212.541	9.0201e-05	0.00068986	0.00028466	1469.8	2.2135e-06	5.6062e-06	1421.8	491.21	1.197e-06	5.7734e-06	523.12	129.34	117.13	37.479	5.4895e-06	46.545	0.00074926	0.0013179	0.00037931	1379.6	1.3146e-05	1.4029e-05	1332.6	465.29	1.2796e-05	1.463e-05	494.77	122.95	111.62	35.758	1.3606e-05	44.048	232.897	-1.704	14.558	-65.397	81.587	85.290	-66.323	-61.557	36.038	29.437	-63.244	-58.332	-57.137	-51.778	129.571	-53.970	-8191	255	
1307.877	1	1	0	0	0.42281	0.091881	0.20118	0.22446	0.15353	0.10119	0.124	0.39622	0.033179	0.2337	0.11022	0.21079	0.18665	0.52787	0.23904	0.2434	-1.9	-2.9854	-2.7938	-2.6083	-3.0187	-2.5187	-2.8354	-3.1292	-2.4667	-2.7729	-3.0417	-2.4208	-2.9437	-2.6813	-2.4729	-3.1875	121.829	41.376	178.471	246.156	83.710	257.439	185.708	-75.272	98.001	276.480	1.425	-75.051	100.761	23.482	66.219	253.712	8.0158e-05	0.00017382	0.00012982	1473.6	8.8537e-07	7.5054e-06	1416.8	494.46	1.5263e-07	2.1665e-06	521.49	127.03	116.73	37.368	4.4511e-06	45.792	0.00076135	0.0012983	0.00035981	1383.9	1.296e-05	1.4654e-05	1331.8	466.64	1.3517e-05	1.456e-05	493.51	122.31	111.55	35.706	1.3652e-05	43.785	200.092	53.466	12.445	-65.343	28.229	97.889	-66.460	-61.615	-24.182	29.654	-62.970	-58.179	-56.864	-51.929	92.124	-53.445	-8191	255	
1307.972	1	1	0	0	0.22239	0.22264	0.087186	0.14125	0.2262	0.1568	0.18752	0.18126	0.15513	0.18381	0.22316	0.23466	0.2089	0.21102	0.23892	0.22346	-2.0312	-2.6104	-2.9	-2.4729	-2.75	-2.7021	-2.7	-3.0208	-2.4938	-2.5479	-3.1208	-2.3792	-2.6854	-2.6042	-2.4646	-3.0812	80.227	142.284	111.297	-19.729	239.346	202.112	225.993	244.412	42.559	261.156	258.854	247.451	-68.911	-49.234	-59.585	-1.276	9.3346e-05	0.0006265	0.00016413	1472.6	4.2381e-06	4.6407e-06	1414.7	491.38	3.9222e-06	3.083e-06	523.5	128.92	117.34	37.426	2.3664e-06	46.12	0.00075705	0.0012705	0.00037992	1382	1.3058e-05	1.4392e-05	1332.3	464.83	1.2992e-05	1.4457e-05	494.87	122.66	111.65	35.734	1.3545e-05	43.916	247.493	14.160	-3.676	-65.158	36.715	96.922	-66.250	-61.689	63.005	80.063	-63.208	-58.410	-56.799	-51.684	88.126	-53.810	-8191	255	
1308.092	1	1	0	0	0.19627	0.066481	0.1653	0.41028	0.11458	0.10269	0.10841	0.27235	0.22329	0.13838	0.043329	0.15852	0.078052	0.16292	0.10249	0.25268	-2.0604	-2.5021	-2.9167	-2.4104	-2.9792	-2.6646	-2.6979	-3.2854	-2.4375	-2.6542	-3.1937	-2.5354	-3.0625	-2.7479	-2.3542	-3.1729	37.194	36.105	146.859	249.596	-76.421	214.282	232.748	-41.687	15.620	85.716	99.326	196.962	250.895	184.583	274.531	240.707	7.9578e-05	0.00057124	0.00021257	1463.5	3.9602e-06	4.0368e-06	1421.7	493.46	1.2108e-06	8.4704e-06	526.33	128.06	117.83	37.365	6.1547e-06	46.214	0.00076412	0.0012685	0.00036518	1379.4	1.3208e-05	1.4796e-05	1333.1	465.98	1.342e-05	1.4908e-05	494.74	122.93	111.79	35.66	1.3947e-05	44.091	230.979	-5.555	-40.768	-65.307	96.523	44.437	-66.196	-61.591	84.350	53.466	-63.224	-58.412	-57.228	-51.710	70.366	-53.322	-8191	255	
1308.189	1	1	0	0	0.073955	0.24687	0.12764	0.17756	0.066623	0.27846	0.12746	0.12164	0.17179	0.10733	0.14385	0.23623	0.13072	0.040335	0.2737	0.073371	-2.0833	-2.4375	-2.9458	-2.375	-2.7438	-2.7875	-2.4062	-3.1333	-2.7479	-2.45	-3.1271	-2.5333	-2.7646	-2.9604	-2.4375	-3.0479	113.859	131.118	67.558	259.939	-65.304	279.939	256.746	176.750	105.723	-29.248	221.853	193.201	115.776	160.240	8.353	-51.774	8.0227e-05	0.00083224	0.00021109	1465.4	6.107e-06	5.4986e-06	1420.9	495.6	1.9196e-06	4.1145e-06	523.92	128.33	117.21	37.735	5.1502e-06	46.118	0.00076939	0.0012825	0.00035547	1378.2	1.3224e-05	1.4601e-05	1332.3	467.15	1.3482e-05	1.4889e-05	495.03	122.92	111.8	35.896	1.3381e-05	44.11	219.388	-29.880	35.488	-65.427	89.602	83.985	-66.232	-61.858	40.780	42.535	-62.874	-58.045	-57.139	-51.518	90.976	-53.810	-8191	255	
1308.285	1	1	0	0	0.15299	0.25544	0.074908	0.12977	0.18814	0.23701	0.22431	0.12588	0.13258	0.1622	0.050877	0.11853	0.1408	0.13414	0.12837	0.30938	-2.0792	-2.3604	-3.025	-2.6688	-2.7479	-3.0333	-2.6562	-3.1104	-2.7146	-2.25	-3.3125	-2.5583	-2.7313	-3.1125	-2.3667	-2.925	6.610	243.528	194.916	-76.660	89.481	278.474	-71.740	251.222	16.246	108.763	259.516	243.424	247.476	224.899	132.453	245.066	9.324e-05	0.00079928	0.00021402	1465.5	2.4852e-06	5.7172e-06	1414.6	490.73	2.3854e-06	2.8305e-06	522.45	128.03	116.9	37.559	4.3698e-06	46.172	0.00075756	0.0013124	0.00034653	1379.1	1.3165e-05	1.3911e-05	1331	465.18	1.2735e-05	1.4314e-05	494.35	123.15	111.64	35.929	1.3497e-05	44.08	226.478	8.469	-5.234	-65.159	68.769	47.371	-66.154	-61.974	130.170	115.414	-62.803	-58.281	-57.377	-51.645	90.956	-53.616	-8191	255	
1308.381	1	1	0	0	0.19694	0.12622	0.081205	0.048733	0.23684	0.18874	0.23004	0.17545	0.13023	0.22869	0.29361	0.1656	0.11517	0.26195	0.22636	0.18457	-2.3187	-2.3979	-2.9792	-2.6646	-2.4979	-2.8729	-2.4354	-2.9854	-2.7167	-2.5917	-3.1625	-2.7562	-2.6604	-2.9125	-2.2333	-2.8167	243.819	259.221	172.916	109.023	275.077	-71.229	225.412	229.479	-18.100	112.446	214.937	45.310	50.595	-68.276	86.035	5.269	8.8866e-05	0.00049213	0.00012557	1463.1	4.8593e-06	4.5781e-06	1413.1	495.68	1.5124e-06	5.3339e-06	525.42	128.45	117.3	37.35	3.283e-06	46.59	0.00074903	0.0012922	0.00035215	1378.4	1.3308e-05	1.4188e-05	1330.4	466.91	1.3057e-05	1.4249e-05	495.94	123.25	111.84	35.791	1.3437e-05	44.099	224.224	26.108	3.713	-64.980	131.076	40.447	-66.234	-61.760	-32.245	98.339	-63.206	-58.304	-57.153	-51.522	52.676	-54.027	-8191	255	
1308.453	1	1	0	0	0.19912	0.1912	0.13365	0.13099	0.31344	0.034822	0.1456	0.41201	0.040721	0.071821	0.39158	0.32683	0.32914	0.19821	0.16315	0.35383	-2.3292	-2.1312	-2.8958	-2.5854	-2.5604	-2.9188	-2.4458	-3.0271	-2.8958	-2.3875	-3.2146	-2.6771	-2.5521	-3.1458	-2.3146	-2.7292	260.741	-38.939	79.978	185.279	16.141	113.594	28.213	262.803	269.169	32.888	251.405	-78.335	265.726	-41.661	276.080	257.753	7.9315e-05	0.00082219	0.00022054	1469.3	3.7546e-06	4.0138e-06	1412.8	492.98	1.5347e-06	4.2909e-06	528.51	128.99	117.54	37.583	1.9281e-06	46.523	0.0007406	0.001337	0.00035713	1379.5	1.3592e-05	1.4338e-05	1329.9	466.18	1.3054e-05	1.4823e-05	496.63	123.28	111.98	35.856	1.3431e-05	44.269	221.324	-9.108	-22.441	-65.174	94.850	77.800	-66.239	-61.812	94.991	67.533	-63.529	-58.298	-57.258	-51.833	71.184	-53.726	-8191	255	
1308.573	1	1	0	0	0.15925	0.30998	0.18625	0.19238	0.1252	0.078249	0.16495	0.10213	0.10323	0.042511	0.06307	0.18987	0.24449	0.1125	0.088493	0.23465	-2.5042	-2.1188	-2.9917	-3.0125	-2.2854	-3.1229	-2.6271	-2.775	-3.0563	-2.4437	-3.0854	-2.8229	-2.4562	-3.1417	-2.5958	-2.5146	201.004	-35.763	41.503	258.315	195.470	-41.075	189.038	273.334	23.876	79.037	-70.877	223.495	208.462	261.788	-40.571	203.134	9.3344e-05	0.00043223	0.00020683	1474.8	3.0646e-06	7.021e-06	1420.5	494.09	2.5762e-06	7.4113e-06	528.56	128.75	116.9	37.692	3.3183e-06	46.368	0.00072418	0.0012281	0.0003531	1383.1	1.3062e-05	1.3624e-05	1334.8	466.64	1.3315e-05	1.4514e-05	496.34	123.37	111.69	35.845	1.3306e-05	44.111	220.894	5.490	6.185	-65.403	139.372	65.972	-66.270	-62.081	109.972	76.654	-63.431	-58.302	-57.263	-51.974	41.924	-53.940	-8191	255	
1308.669	1	1	0	0	0.13519	0.080352	0.21054	0.22956	0.10579	0.044777	0.29366	0.32878	0.088306	0.081716	0.26555	0.073514	0.15193	0.18646	0.17957	0.28576	-2.6479	-2.3208	-2.8792	-2.8479	-2.3354	-3.0667	-2.8396	-2.7562	-3.0729	-2.4562	-3.0792	-2.9396	-2.5375	-3.0187	-2.7146	-2.6208	43.893	141.192	9.701	252.520	-15.906	31.229	230.671	209.029	42.323	37.188	225.723	-68.199	206.333	-72.693	223.411	140.508	8.2744e-05	0.00069295	7.152e-05	1476.9	4.8566e-06	3.9108e-06	1417.5	492.4	2.6181e-06	7.1992e-06	524.87	129.09	117.42	37.675	3.8691e-06	46.431	0.00072734	0.001246	0.00034802	1382.7	1.3162e-05	1.4047e-05	1333.8	465.84	1.2721e-05	1.4502e-05	495.9	123.38	111.63	35.845	1.3376e-05	44.119	228.708	14.544	43.610	-65.291	92.261	30.494	-66.256	-61.793	129.635	82.974	-63.258	-58.070	-57.146	-51.821	69.993	-53.836	-8191	255	
1308.766	1	1	0	0	0.19181	0.081059	0.21632	0.11832	0.079816	0.10779	0.25345	0.3514	0.19751	0.3503	0.23948	0.1306	0.36583	0.13034	0.23526	0.17548	-2.5125	-2.325	-2.6396	-3.1604	-2.5021	-2.9625	-2.8438	-2.6167	-2.8667	-2.4271	-2.7833	-2.9354	-2.4646	-2.9146	-2.7604	-2.5771	72.275	0.524	6.115	259.646	1.529	-53.681	234.348	202.347	40.646	-20.973	-73.896	263.943	245.926	191.801	100.537	172.424	0.00011252	0.00047472	0.00020017	1476.5	5.0391e-06	4.9023e-06	1419.2	494.45	3.4631e-06	3.9343e-06	523.53	128.61	116.4	37.479	3.106e-06	46.505	0.00076652	0.0012488	0.00037067	1382.4	1.3123e-05	1.3959e-05	1333.9	466.44	1.2706e-05	1.4153e-05	495.16	123.14	111.7	35.764	1.3496e-05	44.229	219.441	37.311	-12.025	-65.166	77.380	98.697	-65.980	-61.671	46.330	93.118	-63.476	-58.680	-57.194	-52.186	105.826	-54.010	-8191	255	
1308.862	1	1	0	0	0.30333	0.1272	0.16922	0.13448	0.21614	0.13143	0.21112	0.034027	0.17564	0.14212	0.10231	0.048026	0.30144	0.24537	0.10886	0.11495	-2.4208	-2.5271	-2.5604	-3.0854	-2.3	-2.7	-3.0833	-2.4062	-2.9313	-2.6104	-2.6229	-3.0938	-2.5208	-2.8979	-2.9729	-2.3979	235.387	181.995	185.758	174.266	75.180	-19.859	135.897	18.604	227.953	61.326	278.806	27.795	268.101	260.865	238.485	139.473	0.00013589	0.00046651	0.00023336	1468	6.8352e-06	6.384e-06	1417.1	491.19	2.8588e-06	7.0243e-06	524.43	128.5	117.45	37.471	2.8983e-06	46.619	0.00073513	0.0013028	0.00036802	1381.2	1.2949e-05	1.4082e-05	1336	465.94	1.2805e-05	1.4503e-05	496.38	123.46	111.86	35.839	1.3049e-05	44.216	221.925	7.184	5.965	-65.224	67.542	71.984	-65.928	-61.641	86.722	40.232	-63.440	-58.496	-57.103	-51.892	81.483	-54.034	-8191	255	
1308.981	1	1	0	0	0.096627	0.29976	0.088636	0.25857	0.18041	0.1625	0.30498	0.27589	0.13713	0.11615	0.11027	0.29101	0.08858	0.17175	0.26893	0.15538	-2.7375	-2.6125	-2.4125	-3.1271	-2.2833	-2.8063	-2.9958	-2.3646	-3.0896	-2.7854	-2.7292	-3.1479	-2.4729	-2.8896	-2.9854	-2.3479	-75.987	-17.992	-10.706	262.190	-66.774	176.371	235.606	196.338	-12.666	261.980	184.526	-58.399	204.765	224.218	20.353	11.658	7.8638e-05	0.00047182	9.2335e-05	1469.3	4.3571e-06	4.6649e-06	1426.7	491.68	2.0608e-06	3.3811e-06	524.34	127.98	117.63	37.727	3.4457e-06	46.058	0.00073943	0.0012881	0.00036849	1381	1.3244e-05	1.3836e-05	1337.9	465.58	1.3129e-05	1.44e-05	494.55	123.12	111.78	35.788	1.3258e-05	43.937	228.312	-13.864	12.103	-65.240	91.970	55.317	-66.186	-61.675	80.397	78.482	-63.793	-58.159	-57.126	-51.939	93.848	-53.953	-8191	255	
1309.077	1	1	0	0	0.27454	0.060246	0.20891	0.21782	0.061077	0.05225	0.30216	0.4584	0.13442	0.29817	0.14293	0.18431	0.23324	0.2063	0.10932	0.13351	-2.5625	-2.65	-2.3812	-3.3312	-2.4	-2.6437	-3.1917	-2.5104	-3.0896	-2.6792	-2.5812	-3.2125	-2.6542	-2.5146	-2.8396	-2.4562	0.294	-36.866	268.668	262.188	-33.768	26.005	192.962	200.105	38.492	132.424	-40.839	-62.620	-64.390	257.807	-4.350	214.460	0.00013611	0.00067149	0.00015614	1472.6	7.0195e-06	4.4135e-06	1418.3	494.51	3.1088e-06	6.3313e-06	526.7	129.4	116.98	37.412	4.9521e-06	46.386	0.00075506	0.0012765	0.00035635	1380.6	1.276e-05	1.4163e-05	1333	466.52	1.3242e-05	1.4302e-05	495.63	123.46	111.69	35.77	1.2899e-05	43.974	227.390	1.215	26.369	-65.150	56.649	61.911	-66.314	-61.788	52.525	89.124	-63.191	-58.615	-57.228	-52.052	98.587	-54.085	-8191	255	
1309.173	1	1	0	0	0.3327	0.043881	0.045637	0.15924	0.023795	0.082046	0.22235	0.32807	0.026162	0.11457	0.29934	0.16151	0.29598	0.19218	0.14204	0.27996	-2.5333	-2.7375	-2.3771	-3.2604	-2.6396	-2.55	-3.3979	-2.6458	-2.9583	-2.7708	-2.5812	-3.2042	-2.7146	-2.7625	-3.1604	-2.3583	14.391	178.643	243.451	248.040	-55.522	183.808	157.142	234.009	171.554	21.444	-45.337	185.511	219.505	243.626	178.298	-66.555	8.4021e-05	0.00058682	0.00013666	1476.9	8.3196e-06	4.748e-06	1422.4	493.58	2.2382e-06	2.906e-06	527.35	129.71	117.51	37.869	4.6247e-06	46.544	0.00073635	0.0012782	0.00034586	1381.9	1.3085e-05	1.4244e-05	1335.3	466.27	1.2912e-05	1.4177e-05	497.71	123.81	111.98	35.999	1.2558e-05	44.261	230.232	25.891	14.007	-65.597	101.886	41.942	-66.238	-62.221	143.957	67.319	-63.417	-58.337	-57.085	-51.912	83.130	-54.352	-8191	255	
1309.269	1	1	0	0	0.21289	0.12854	0.047997	0.21976	0.1108	0.20666	0.39175	0.085472	0.24904	0.087484	0.26042	0.38893	0.29881	0.23834	0.051513	0.15683	-2.3312	-2.7938	-2.3	-3.0208	-2.7	-2.4854	-3.0667	-2.6292	-2.6396	-3.0229	-2.5604	-3.1	-2.7708	-2.5583	-3.1646	-2.5833	240.635	73.254	194.831	247.555	60.285	66.549	190.976	-29.940	240.805	29.762	272.068	249.873	271.982	261.195	102.521	216.938	7.7495e-05	0.00075091	0.00017927	1468.8	3.1207e-06	5.678e-06	1413.7	493.55	3.8696e-06	1.692e-06	525.6	129.22	117.73	37.575	3.4747e-06	46.219	0.00074523	0.0012658	0.00034646	1379.4	1.289e-05	1.3897e-05	1334	466.81	1.2793e-05	1.3898e-05	496.69	123.94	112.51	35.978	1.2503e-05	44.195	226.085	-7.469	1.379	-65.117	82.444	72.712	-65.892	-61.685	61.867	34.342	-62.995	-58.378	-56.886	-51.852	99.526	-53.616	-8191	255	
1309.365	1	1	0	0	0.24306	0.19716	0.10652	0.23014	0.27108	0.12479	0.12312	0.48123	0.27248	0.17532	0.11593	0.14893	0.12187	0.24814	0.18723	0.20956	-2.3187	-2.9958	-2.3417	-2.9729	-2.9958	-2.5792	-3.3333	-2.5958	-2.5708	-3.0583	-2.3479	-2.8563	-2.9125	-2.4542	-3.0917	-2.6979	122.721	-69.661	91.750	267.465	162.198	188.753	200.400	223.153	-2.539	-15.805	-68.728	261.276	256.473	-35.636	-41.220	223.409	9.0474e-05	0.00033319	0.00020346	1465.5	2.0094e-06	7.2241e-06	1414	492.91	1.8293e-06	8.0367e-06	523.57	129.36	117.69	37.428	3.4338e-06	46.522	0.00074763	0.0012582	0.00034794	1379.8	1.304e-05	1.4294e-05	1334.5	465.93	1.2959e-05	1.3825e-05	495.75	123.59	112.27	35.842	1.2857e-05	44.201	232.991	30.377	23.411	-65.130	96.467	77.883	-65.871	-61.404	64.544	84.140	-62.980	-57.951	-56.901	-51.835	89.890	-53.944	-8191	255	
1309.461	1	1	0	0	0.16133	0.31829	0.21433	0.59913	0.30129	0.27599	0.38092	0.13707	0.17354	0.21203	0.21753	0.16373	0.09205	0.1944	0.11937	0.15945	-2.2708	-2.9396	-2.4083	-3.0187	-2.9083	-2.4167	-3.1208	-2.8646	-2.5125	-3.0208	-2.6	-2.8896	-2.9813	-2.5479	-3.0438	-2.625	-4.162	139.753	23.181	-47.505	216.395	272.495	204.532	235.115	-33.582	6.300	217.449	188.406	-39.278	-25.337	218.663	-58.651	0.00011303	0.00069419	0.00015217	1459.2	4.1368e-06	5.7979e-06	1415.8	492.49	2.1285e-06	6.3631e-06	523.51	129.12	117.46	37.568	2.1608e-06	45.878	0.00073546	0.0012578	0.00035101	1376.8	1.331e-05	1.3874e-05	1333	466.62	1.3039e-05	1.3888e-05	495.37	123.28	112.04	35.931	1.3271e-05	43.962	246.075	18.253	-17.492	-65.144	55.614	49.733	-65.964	-61.583	70.963	73.588	-63.149	-58.227	-56.972	-51.854	79.745	-53.814	-8191	255	
1309.582	1	1	0	0	0.13594	0.042945	0.17028	0.31264	0.14834	0.1655	0.095462	0.39441	0.072899	0.10271	0.2205	0.28711	0.092273	0.073874	0.024943	0.15531	-2.0042	-2.9458	-2.4062	-2.9479	-2.9083	-2.4583	-3.0729	-2.8792	-2.575	-3.0646	-2.6771	-2.8208	-2.9979	-2.575	-2.7667	-2.6813	18.082	253.940	59.994	-77.240	206.563	-55.276	144.852	180.894	-24.879	150.138	219.953	51.595	-59.834	-44.065	45.838	276.684	9.8744e-05	0.0005263	0.00015715	1463.2	7.1624e-06	4.9339e-06	1416.8	492.18	1.6834e-06	5.572e-06	524.33	129.23	117.5	37.455	4.0205e-06	46.471	0.00071812	0.0012237	0.00034785	1378.3	1.3105e-05	1.4003e-05	1335	466.88	1.2945e-05	1.3591e-05	496.9	123.92	112	35.919	1.2772e-05	44.319	234.014	5.783	28.089	-65.314	60.430	72.302	-65.917	-61.334	117.314	66.311	-63.427	-58.534	-56.767	-51.833	79.991	-53.967	-8191	255	
1309.678	1	1	0	0	0.052416	0.21111	0.10016	0.30637	0.1154	0.13587	0.24485	0.099177	0.12758	0.17154	0.12166	0.17484	0.17941	0.08466	0.2689	0.1622	-1.8958	-2.9938	-2.5854	-2.8792	-3.0667	-2.4062	-3.0458	-3.0896	-2.3875	-3.0438	-2.575	-2.5854	-3.0771	-2.4062	-2.7938	-2.9521	80.430	147.957	-70.919	-60.124	-56.055	273.385	238.600	-74.349	248.874	50.069	-70.246	172.540	-42.401	217.023	25.834	139.790	9.0236e-05	0.00051259	0.00023398	1476	2.6289e-06	4.1438e-06	1417.5	492.55	1.586e-06	5.18e-06	523.86	128.66	117.65	37.488	5.0053e-06	46.679	0.00074019	0.0012751	0.00035256	1382.6	1.2548e-05	1.3973e-05	1336.1	467.45	1.2739e-05	1.387e-05	496.61	123.57	112.33	35.843	1.3115e-05	44.163	223.287	10.839	-7.240	-65.309	120.380	70.816	-66.155	-61.591	96.687	70.921	-62.986	-58.732	-56.940	-51.642	53.041	-53.887	-8191	255	
1309.774	1	1	0	0	0.076921	0.059728	0.17677	0.19584	0.17985	0.058795	0.29936	0.28966	0.050712	0.23681	0.11289	0.21159	0.21304	0.2714	0.11093	0.21534	-2.1542	-3.0187	-2.5687	-2.6063	-3.2354	-2.5687	-2.8104	-3.1479	-2.3292	-2.9938	-2.8563	-2.525	-3.0958	-2.5687	-2.8646	-3.1729	43.495	164.940	76.623	136.496	18.358	89.202	275.405	222.068	59.247	136.928	185.490	250.844	210.138	181.868	61.633	105.134	9.5605e-05	0.00037521	0.00012827	1463.7	6.0154e-06	4.4542e-06	1421.9	493.92	1.7975e-06	4.9913e-06	523.35	128.85	117.33	37.736	2.1801e-06	45.956	0.00073205	0.0012336	0.00034017	1379.7	1.2996e-05	1.4265e-05	1335.5	468.03	1.2903e-05	1.4063e-05	495.8	123.31	112.13	35.841	1.3426e-05	43.896	216.113	-14.671	-26.783	-65.331	120.116	54.085	-66.479	-61.494	-20.394	78.599	-63.064	-58.707	-57.138	-51.997	124.075	-53.553	-8191	255	
1309.870	1	1	0	0	0.22566	0.15907	0.26576	0.18692	0.15591	0.16985	0.28481	0.22603	0.095472	0.031513	0.19819	0.18473	0.16532	0.33576	0.24886	0.15599	-1.8854	-2.7458	-2.7667	-2.5812	-3.1417	-2.6729	-2.825	-3.3292	-2.3812	-2.9979	-2.8958	-2.7438	-3.2208	-2.7375	-2.5146	-3.1729	56.283	212.243	-67.540	254.337	86.278	-51.243	204.197	193.899	55.382	264.511	224.447	-57.523	236.732	-18.607	69.966	268.932	0.00010259	0.00049192	0.00018914	1467.2	7.1313e-06	4.5679e-06	1420.7	496.15	1.1389e-06	5.3447e-06	526.47	127.79	116.72	37.434	4.6595e-06	45.841	0.00074338	0.0012466	0.00035249	1380.2	1.3042e-05	1.4228e-05	1337.2	468.53	1.2606e-05	1.405e-05	496.95	122.97	111.75	35.741	1.3127e-05	43.768	229.817	7.067	43.545	-65.163	92.048	89.918	-65.918	-61.517	50.982	86.525	-63.219	-58.349	-56.735	-51.690	56.733	-53.670	-8191	255	
1309.965	1	1	0	0	0.0085611	0.14475	0.14762	0.22911	0.11994	0.0054861	0.34926	0.19548	0.26573	0.23787	0.1725	0.20021	0.19732	0.065153	0.075071	0.18489	-1.9688	-2.7562	-2.7062	-2.5729	-3.0833	-2.7646	-2.6583	-3.1688	-2.2958	-2.6271	-2.9792	-2.4125	-3.0062	-2.7771	-2.4313	-3.2146	15.315	275.430	90.325	-78.975	200.255	6.426	223.334	250.992	86.302	44.818	266.025	180.303	-61.975	40.693	162.629	-73.869	7.5991e-05	0.00070188	0.00023415	1466.3	2.5261e-06	9.0447e-06	1421.5	491.81	2.2115e-06	4.4845e-06	529	128.21	117.18	37.406	3.4446e-06	45.883	0.00074676	0.0012852	0.00034685	1379.7	1.2952e-05	1.4626e-05	1334.8	467.53	1.276e-05	1.3765e-05	498.38	123.11	112.04	35.641	1.3195e-05	43.652	245.710	-2.852	21.757	-65.492	112.671	86.279	-66.327	-61.706	54.208	67.768	-63.094	-58.566	-57.161	-51.547	61.024	-53.638	-8191	255	
1310.061	1	1	0	0	0.09607	0.11884	0.24616	0.27332	0.084615	0.12908	0.047751	0.23708	0.052659	0.25467	0.21174	0.13252	0.36102	0.2938	0.14932	0.11635	-2.0917	-2.9021	-3.0104	-2.6417	-3.0458	-2.7708	-2.6917	-3.3688	-2.5812	-2.725	-3.1333	-2.45	-2.9667	-3.0167	-2.4292	-3.1792	278.429	-59.656	-44.361	230.068	56.975	154.476	3.160	263.210	113.709	200.071	142.714	-0.459	-69.036	262.776	10.008	154.120	0.00010242	0.00058865	0.00018867	1474.3	4.519e-06	2.9355e-06	1422.2	496.78	1.657e-06	8.5405e-06	527.23	128.47	117.04	37.002	4.1007e-06	45.454	0.00075458	0.0012964	0.00034978	1385.5	1.3027e-05	1.392e-05	1342.4	469.69	1.3053e-05	1.4305e-05	497.94	122.95	111.95	35.323	1.3057e-05	43.329	233.921	-9.449	17.264	-65.337	124.665	80.574	-66.282	-61.722	-8.803	76.676	-63.277	-58.445	-57.135	-51.676	72.556	-54.041	-8191	255	
1310.157	1	1	0	0	0.2307	0.28274	0.083339	0.087899	0.038642	0.24319	0.33115	0.35979	0.03354	0.041004	0.16457	0.28263	0.23994	0.11631	0.13613	0.12424	-2.1479	-2.5854	-3.0167	-2.6021	-2.9083	-2.925	-2.6146	-3.0396	-2.4604	-2.7542	-3.0875	-2.5604	-2.8937	-3.0229	-2.3958	-3.0917	-37.001	10.690	255.973	133.006	274.107	2.335	-71.672	256.296	42.637	164.886	251.858	40.867	279.136	98.511	227.581	38.053	0.00011008	0.00038001	0.0001305	1475.4	6.0014e-06	4.2425e-06	1416.2	495.03	1.9352e-06	7.7212e-06	529.83	128.05	117.07	37.042	7.0315e-06	45.95	0.00072495	0.0013172	0.00035268	1385.6	1.312e-05	1.4247e-05	1336.7	469.53	1.2986e-05	1.4757e-05	499.58	123.11	111.93	35.361	1.3024e-05	43.496	217.232	7.049	-7.063	-65.247	66.493	107.832	-65.923	-61.477	24.976	53.520	-63.172	-58.231	-56.957	-51.933	102.405	-53.817	-8191	255	
1310.278	1	1	0	0	0.29479	0.027248	0.21704	0.33307	0.23091	0.089519	0.26312	0.17471	0.19156	0.12591	0.13718	0.10255	0.086727	0.18674	0.10779	0.2632	-2.2271	-2.4813	-3.1167	-2.5354	-2.7208	-2.8958	-2.6104	-3.0687	-2.6562	-2.5271	-3.1896	-2.4	-2.8438	-3.2021	-2.3937	-2.9896	-68.937	-43.670	231.970	274.882	205.531	261.475	259.830	249.219	123.140	123.170	225.263	192.844	215.486	-77.411	204.235	-47.905	0.00010001	0.00099306	0.00018917	1463.4	6.7312e-06	4.6572e-06	1423.3	494.84	2.062e-06	6.3138e-06	525.76	128.68	117.09	37.114	4.7713e-06	45.204	0.00074501	0.0012532	0.0003489	1381.8	1.2869e-05	1.3732e-05	1338.5	468.04	1.2775e-05	1.4739e-05	498.27	122.7	111.78	35.282	1.3533e-05	43.254	241.144	17.836	22.810	-65.370	64.271	78.459	-66.050	-61.618	73.211	88.113	-63.016	-58.302	-57.175	-51.926	92.176	-54.013	-8191	255	
1310.374	1	1	0	0	0.27436	0.25999	0.36819	0.19982	0.13019	0.28608	0.26364	0.3265	0.21748	0.042004	0.097658	0.085747	0.29899	0.095895	0.21203	0.080095	-2.4729	-2.3729	-2.9792	-2.7625	-2.8104	-3.1292	-2.7229	-3.175	-2.8521	-2.4542	-3.2292	-2.5896	-2.5458	-2.9958	-2.3937	-2.9917	77.722	218.610	93.857	194.699	-21.316	112.931	177.939	226.606	-54.199	234.312	195.685	183.539	268.765	217.034	220.427	59.029	0.00010709	0.00056803	0.00020037	1460.6	2.4581e-06	6.9907e-06	1423.5	494.41	3.0697e-06	4.2342e-06	527.16	128.94	116.91	37.383	5.67e-06	45.762	0.00072848	0.001261	0.00035222	1381.4	1.3024e-05	1.3653e-05	1336.2	467.62	1.3295e-05	1.4164e-05	497.71	123.04	111.59	35.499	1.3454e-05	43.478	235.561	-2.161	-6.831	-65.170	178.685	58.726	-66.105	-61.718	110.916	97.267	-63.325	-58.502	-57.516	-52.050	95.861	-54.066	-8191	255	
1310.446	1	1	0	0	0.11227	0.26152	0.062616	0.6931	0.12843	0.07266	0.37832	0.40774	0.11548	0.28974	0.25503	0.2352	0.07781	0.14084	0.094634	0.2214	-2.3333	-2.1688	-2.9396	-2.8792	-2.3292	-3.0375	-2.6333	-2.9583	-2.8229	-2.5729	-3.0604	-2.6375	-2.6437	-3.0458	-2.4542	-2.9229	124.147	-7.231	104.184	196.805	-56.228	251.416	265.098	188.919	28.908	209.595	-38.775	259.216	268.094	242.750	166.662	-40.999	9.2881e-05	0.00072834	0.00011791	1470.1	4.1286e-06	4.6132e-06	1424.1	495.7	1.7935e-06	7.1324e-06	527.62	128.22	115.64	36.958	2.7528e-06	45.471	0.00074213	0.0012366	0.00035562	1383.8	1.3034e-05	1.4108e-05	1339.6	468.24	1.2793e-05	1.4173e-05	496.25	122.79	111.2	35.3	1.3021e-05	43.349	223.991	3.622	0.649	-65.194	87.563	63.382	-66.221	-61.776	116.121	88.058	-63.428	-58.483	-56.887	-51.631	101.611	-53.659	-8191	255	
1310.542	1	1	0	0	0.15546	0.058394	0.17953	0.067156	0.24529	0.16134	0.36954	0.22154	0.32758	0.16618	0.12929	0.090077	0.29016	0.16964	0.18213	0.06851	-2.4104	-2.4146	-2.9562	-2.9	-2.5896	-2.9042	-2.7229	-2.8646	-2.9354	-2.3896	-3.0958	-2.8646	-2.5062	-3.075	-2.5062	-2.6271	160.671	-64.631	-24.326	216.616	-35.739	-3.075	195.482	-74.621	135.845	28.465	212.796	228.630	265.542	-26.448	94.618	-49.755	9.798e-05	0.00054293	0.00024091	1466.4	6.7409e-06	4.5452e-06	1410.8	491.7	1.5464e-06	3.9508e-06	524.69	127.66	116.46	37.075	3.6928e-06	45.553	0.00072525	0.0013158	0.00035303	1380.7	1.3368e-05	1.4231e-05	1332.8	466.3	1.2672e-05	1.4093e-05	494.83	122.61	111.25	35.42	1.3179e-05	43.442	232.855	11.759	11.851	-65.169	84.248	32.087	-66.329	-61.695	144.357	99.053	-62.890	-58.264	-56.989	-51.555	85.093	-53.733	-8191	255	
1310.662	1	1	0	0	0.035046	0.049011	0.07491	0.18636	0.056702	0.30562	0.14716	0.17165	0.071662	0.19593	0.1207	0.1739	0.1218	0.29939	0.14674	0.19104	-2.5667	-2.3688	-2.7979	-3.1229	-2.2083	-3.0062	-2.7812	-2.5417	-2.9896	-2.4562	-2.9083	-2.9313	-2.4167	-3.1354	-2.675	-2.4396	265.260	220.469	187.118	223.038	264.690	190.474	248.925	274.908	268.473	18.723	123.755	-54.235	-54.191	255.349	228.474	-67.812	0.00010399	0.00039902	0.00020325	1471.2	4.5937e-06	6.3697e-06	1416.3	492.02	1.4756e-06	6.3827e-06	523.81	129.02	116.9	37.23	2.6154e-06	46.024	0.00073701	0.0012759	0.00036002	1380.3	1.2836e-05	1.4081e-05	1334	465.3	1.2873e-05	1.4192e-05	496.16	123.16	111.27	35.543	1.3492e-05	43.777	245.669	-13.551	17.957	-65.189	112.412	78.312	-66.248	-61.781	168.448	51.121	-63.283	-58.253	-57.219	-52.019	44.952	-53.816	-8191	255	
#DATA ENDS
