BOXY.EXE: ISS Imagent and Oximeter Data Acquisition Program Version 0.80
Ascii Record File

#ACQ INFORMATION
2  Detector Channels 
16  External MUX Channels 
1  Auxiliary Channels 
5000  Waveform (CCF) Frequency (Hz)
1  Waveforms Skipped 
30  Waveforms Averaged 
1  Cycles Averaged 
16  Acquisitions per Waveform 
10.0806  Updata Rate (Hz) 

#FILE INFORMATION
TRUE -- External MUX Channel results are PARSED.
FALSE -- AC DC and Phase are NOT grouped.
TRUE -- Companion Program Settings File CREATED.
FALSE -- AC data not excluded
FALSE -- DC data not excluded
FALSE -- Phase data not excluded
FALSE -- Auxillary Chn. data not excluded
Tab delimiters

#CALIBRATION STATE
TRUE -- Waveform Calibration Values APPLIED.


#AUX CALIBRATION VALUES
Val Type	aux-1	

Term	1.0000e+00	
Factor	0.0000e+00	


#WF CALIBRATION VALUES
A = Detector Channel
Val Type	A-AC1	A-AC2	A-AC3	A-AC4	A-AC5	A-AC6	A-AC7	A-AC8	A-AC9	A-AC10	A-AC11	A-AC12	A-AC13	A-AC14	A-AC15	A-AC16	A-DC1	A-DC2	A-DC3	A-DC4	A-DC5	A-DC6	A-DC7	A-DC8	A-DC9	A-DC10	A-DC11	A-DC12	A-DC13	A-DC14	A-DC15	A-DC16	A-Ph1	A-Ph2	A-Ph3	A-Ph4	A-Ph5	A-Ph6	A-Ph7	A-Ph8	A-Ph9	A-Ph10	A-Ph11	A-Ph12	A-Ph13	A-Ph14	A-Ph15	A-Ph16	

Term	0.00000e+00	0.00000e+00	0.00000e+00	0.00000e+00	0.00000e+00	0.00000e+00	0.00000e+00	0.00000e+00	0.00000e+00	0.00000e+00	0.00000e+00	0.00000e+00	0.00000e+00	0.00000e+00	0.00000e+00	0.00000e+00	0.00000e+00	0.00000e+00	0.00000e+00	0.00000e+00	0.00000e+00	0.00000e+00	0.00000e+00	0.00000e+00	0.00000e+00	0.00000e+00	0.00000e+00	0.00000e+00	0.00000e+00	0.00000e+00	0.00000e+00	0.00000e+00	0.00000e+00	0.00000e+00	0.00000e+00	0.00000e+00	0.00000e+00	0.00000e+00	0.00000e+00	0.00000e+00	0.00000e+00	0.00000e+00	0.00000e+00	0.00000e+00	0.00000e+00	0.00000e+00	0.00000e+00	0.00000e+00	
Factor	1.00000e+00	1.00000e+00	1.00000e+00	1.00000e+00	1.00000e+00	1.00000e+00	1.00000e+00	1.00000e+00	1.00000e+00	1.00000e+00	1.00000e+00	1.00000e+00	1.00000e+00	1.00000e+00	1.00000e+00	1.00000e+00	1.00000e+00	1.00000e+00	1.00000e+00	1.00000e+00	1.00000e+00	1.00000e+00	1.00000e+00	1.00000e+00	1.00000e+00	1.00000e+00	1.00000e+00	1.00000e+00	1.00000e+00	1.00000e+00	1.00000e+00	1.00000e+00	X	X	X	X	X	X	X	X	X	X	X	X	X	X	X	X	

B = Detector Channel
Val Type	B-AC1	B-AC2	B-AC3	B-AC4	B-AC5	B-AC6	B-AC7	B-AC8	B-AC9	B-AC10	B-AC11	B-AC12	B-AC13	B-AC14	B-AC15	B-AC16	B-DC1	B-DC2	B-DC3	B-DC4	B-DC5	B-DC6	B-DC7	B-DC8	B-DC9	B-DC10	B-DC11	B-DC12	B-DC13	B-DC14	B-DC15	B-DC16	B-Ph1	B-Ph2	B-Ph3	B-Ph4	B-Ph5	B-Ph6	B-Ph7	B-Ph8	B-Ph9	B-Ph10	B-Ph11	B-Ph12	B-Ph13	B-Ph14	B-Ph15	B-Ph16	

Term	0.00000e+00	0.00000e+00	0.00000e+00	0.00000e+00	0.00000e+00	0.00000e+00	0.00000e+00	0.00000e+00	0.00000e+00	0.00000e+00	0.00000e+00	0.00000e+00	0.00000e+00	0.00000e+00	0.00000e+00	0.00000e+00	0.00000e+00	0.00000e+00	0.00000e+00	0.00000e+00	0.00000e+00	0.00000e+00	0.00000e+00	0.00000e+00	0.00000e+00	0.00000e+00	0.00000e+00	0.00000e+00	0.00000e+00	0.00000e+00	0.00000e+00	0.00000e+00	-7.21242e+01	-1.36190e+02	-1.31975e+02	-1.84208e+02	-5.78500e+01	-7.12383e+01	-1.57919e+02	-1.62015e+02	-5.00457e+01	-6.58011e+01	-1.73678e+02	-1.74622e+02	-1.83192e+02	-1.77394e+02	-5.50764e+01	-1.50270e+02	
Factor	1.50587e-05	1.53820e-04	4.27858e-05	1.63141e-01	1.38621e-06	1.57826e-06	1.57083e-01	5.08700e-02	1.06407e-06	1.56460e-06	8.91376e-02	3.09256e-02	2.10338e-02	7.86656e-03	1.28744e-06	1.15860e-02	1.22195e-05	2.56875e-05	7.18329e-06	8.46512e-02	2.51754e-07	2.89162e-07	7.65242e-02	2.66035e-02	2.46997e-07	2.91659e-07	4.50603e-02	1.56519e-02	1.11339e-02	4.15076e-03	2.61534e-07	5.90229e-03	X	X	X	X	X	X	X	X	X	X	X	X	X	X	X	X	



#DISTANCE SETTINGS
A = Detector Channel
A-1	A-2	A-3	A-4	A-5	A-6	A-7	A-8	A-9	A-10	A-11	A-12	A-13	A-14	A-15	A-16	

2.5000e+00	3.0000e+00	2.5000e+00	3.0000e+00	2.0000e+00	3.0000e+00	1.5000e+00	3.0000e+00	3.0000e+00	3.0000e+00	3.0000e+00	3.0000e+00	3.0000e+00	3.0000e+00	1.5000e+00	3.0000e+00	

B = Detector Channel
B-1	B-2	B-3	B-4	B-5	B-6	B-7	B-8	B-9	B-10	B-11	B-12	B-13	B-14	B-15	B-16	

1.0000e+01	1.0000e+01	1.0000e+01	1.4400e+00	1.0000e+01	1.0000e+01	1.5100e+00	1.9400e+00	1.0000e+01	1.0000e+01	1.9900e+00	2.4900e+00	2.4100e+00	2.9000e+00	1.0000e+01	2.9800e+00	




#DATA BEGINS
time	group	step	mark	flag	A-AC1	A-AC2	A-AC3	A-AC4	A-AC5	A-AC6	A-AC7	A-AC8	A-AC9	A-AC10	A-AC11	A-AC12	A-AC13	A-AC14	A-AC15	A-AC16	A-DC1	A-DC2	A-DC3	A-DC4	A-DC5	A-DC6	A-DC7	A-DC8	A-DC9	A-DC10	A-DC11	A-DC12	A-DC13	A-DC14	A-DC15	A-DC16	A-Ph1	A-Ph2	A-Ph3	A-Ph4	A-Ph5	A-Ph6	A-Ph7	A-Ph8	A-Ph9	A-Ph10	A-Ph11	A-Ph12	A-Ph13	A-Ph14	A-Ph15	A-Ph16	B-AC1	B-AC2	B-AC3	B-AC4	B-AC5	B-AC6	B-AC7	B-AC8	B-AC9	B-AC10	B-AC11	B-AC12	B-AC13	B-AC14	B-AC15	B-AC16	B-DC1	B-DC2	B-DC3	B-DC4	B-DC5	B-DC6	B-DC7	B-DC8	B-DC9	B-DC10	B-DC11	B-DC12	B-DC13	B-DC14	B-DC15	B-DC16	B-Ph1	B-Ph2	B-Ph3	B-Ph4	B-Ph5	B-Ph6	B-Ph7	B-Ph8	B-Ph9	B-Ph10	B-Ph11	B-Ph12	B-Ph13	B-Ph14	B-Ph15	B-Ph16	aux-1	digaux	

1132.043	1	1	0	512	0.10412	0.15	0.10516	0.083851	0.069252	0.14471	0.21949	0.33953	0.38169	0.25799	0.12202	0.23947	0.20545	0.33704	0.038265	0.054837	-2.9896	-2.4708	-3.0812	-3.1292	-2.5479	-3.3	-3.0125	-2.8354	-3.2438	-2.9021	-3.0687	-3.0354	-2.8333	-3.275	-2.8542	-2.8875	191.465	259.600	366.071	126.787	200.794	243.529	345.334	61.550	179.612	386.276	226.247	309.794	55.020	356.416	35.188	131.355	0.00043107	0.00052877	0.001108	1048.9	2.3091e-05	3.1307e-05	966.05	319.21	7.4613e-06	3.9542e-05	352.55	117.17	104.86	43.136	1.4268e-05	49.243	0.083795	0.17533	0.04918	1591.9	0.001714	0.0019681	1452.4	491.34	0.0016864	0.001996	649.15	221.87	178.16	70.709	0.0017966	88.464	187.128	31.687	157.831	41.764	267.148	143.316	41.058	47.378	83.839	236.500	45.087	49.924	52.099	56.577	286.790	53.361	-8191	255	
1132.138	1	1	0	0	0.12078	0.15796	0.10169	0.29307	0.22274	0.085357	0.12779	0.18809	0.20738	0.098349	0.15793	0.28084	0.19897	0.028751	0.16115	0.093748	-2.9708	-2.5687	-2.9854	-3.2	-2.7229	-3.4271	-3.0458	-2.8646	-3.2938	-2.7875	-3.1833	-3.1562	-2.7479	-3.3708	-3.2021	-2.7521	119.576	100.271	163.048	380.170	66.218	312.742	142.796	374.728	102.342	344.155	328.069	345.899	302.261	352.235	259.438	358.667	0.00021618	0.0023345	0.00037777	1058.7	3.8174e-05	2.0478e-05	955.04	316.92	6.3101e-06	4.1386e-05	353.45	116.6	104.61	43.103	9.8732e-06	49.247	0.083902	0.17662	0.049673	1597.7	0.0017226	0.0019893	1453.2	491.32	0.00169	0.0020112	651.11	222.14	179.23	71.002	0.0018198	88.604	162.869	344.906	120.346	42.211	71.132	263.399	41.033	47.535	284.325	227.464	45.389	50.159	51.750	55.972	356.689	53.046	-8191	255	
1132.235	1	1	0	0	0.41425	0.27779	0.089865	0.11262	0.17088	0.14345	0.20285	0.12925	0.06254	0.18865	0.19438	0.12169	0.20802	0.17337	0.27475	0.18711	-3.1813	-2.5354	-2.7542	-3.3312	-2.4938	-3.1792	-3.2292	-2.8542	-3.2208	-2.8063	-2.7458	-3.3	-2.6729	-2.8854	-3.0125	-2.7292	46.806	380.548	110.813	105.472	150.348	314.522	342.405	115.456	238.686	93.764	304.969	359.536	150.058	35.953	144.772	383.797	0.00020616	0.0037757	0.00050122	1046.3	5.8806e-06	4.3299e-05	968.59	319.56	2.8156e-05	1.1207e-05	347.18	117.77	104.9	43.144	2.7379e-05	49.518	0.08443	0.17855	0.049819	1597.6	0.0017328	0.0020068	1462.1	492.29	0.001704	0.0020309	652.41	222.38	179.28	71.028	0.0018136	88.522	226.567	95.608	299.230	41.720	261.583	200.542	40.930	47.482	213.830	253.957	45.159	49.951	51.771	55.926	180.864	53.538	-8191	255	
1132.330	1	1	0	0	0.14869	0.16661	0.041296	0.17455	0.11006	0.31449	0.29539	0.064576	0.19806	0.24851	0.11308	0.19172	0.15825	0.18286	0.07842	0.21298	-2.8917	-2.5229	-2.7062	-3.425	-2.5062	-3.125	-3.2104	-2.7333	-3.175	-2.7292	-2.6688	-3.2583	-2.6521	-2.9667	-3.0854	-2.5938	197.879	241.792	54.939	309.395	351.985	218.579	363.842	85.618	293.487	134.881	214.513	343.340	370.243	349.394	356.078	189.640	0.00042062	0.001562	0.0011248	1051.4	3.5016e-05	1.4282e-05	962.84	320.12	1.3331e-05	8.2343e-06	347.86	117.95	105.95	43.416	8.8228e-06	49.47	0.084418	0.17905	0.050116	1599.5	0.00174	0.0020238	1460.2	492.55	0.001707	0.0020395	652.28	222.92	179.9	71.353	0.0018219	88.882	192.160	324.058	170.033	41.373	252.764	191.670	41.114	47.228	124.118	381.725	45.429	50.168	52.077	55.682	348.984	53.305	-8191	255	
1132.426	1	1	0	0	0.071192	0.029852	0.15779	0.32419	0.13022	0.057358	0.10854	0.082484	0.079083	0.24006	0.23653	0.15538	0.18615	0.25971	0.073363	0.24865	-2.8667	-2.825	-2.8563	-3.3875	-2.425	-2.6354	-3.2354	-2.6312	-3.1521	-2.8063	-2.5687	-3.2917	-2.7646	-2.8833	-3.0625	-2.6667	347.215	99.914	330.902	381.437	289.341	256.968	303.380	261.299	151.207	60.751	368.783	65.966	60.923	328.088	74.124	290.898	0.00065209	0.0020449	0.00064257	1058.7	1.4456e-05	1.0424e-05	963.7	320.35	1.435e-05	4.321e-05	350.38	117.44	105.36	43.846	1.8127e-05	49.606	0.085125	0.17988	0.04985	1599.8	0.001738	0.0020026	1454.6	491.58	0.0017038	0.0020299	651.52	222.62	180.09	71.394	0.0018038	88.932	186.358	296.601	294.483	41.520	368.766	94.611	40.887	47.321	118.096	325.579	44.881	50.002	51.748	55.832	254.376	53.657	-8191	255	
1132.522	1	1	0	0	0.050372	0.24009	0.039424	0.26791	0.11342	0.25001	0.1792	0.048654	0.15487	0.12943	0.19258	0.27366	0.28332	0.30054	0.22103	0.26898	-2.6271	-2.9896	-2.4333	-3.3729	-2.6833	-2.8729	-3.1958	-2.8125	-3.0917	-3.0708	-2.8958	-3.0417	-2.9458	-2.9042	-3.15	-2.8917	197.142	235.582	192.450	48.824	192.251	47.422	345.605	74.468	164.051	379.353	69.828	348.757	382.746	35.653	135.457	364.020	0.00026002	0.0045699	0.00014419	1059.7	4.5775e-05	3.7053e-05	962.36	318.68	2.3257e-05	2.3361e-05	348.64	116.66	105.95	43.442	7.8333e-06	49.339	0.084874	0.17956	0.049737	1600.3	0.0017597	0.0020209	1458.7	494.22	0.0017301	0.0020496	653.04	222.57	180.89	71.572	0.0018293	89.345	290.643	213.888	213.867	41.544	87.890	54.458	40.731	47.270	199.182	122.460	44.842	49.931	51.927	55.756	70.815	53.159	-8191	255	
1132.643	1	1	0	0	0.11808	0.13194	0.054089	0.15949	0.27704	0.085237	0.20267	0.19514	0.16596	0.20655	0.18628	0.13988	0.11728	0.09189	0.075329	0.07007	-2.6083	-3.0021	-2.55	-3.3083	-2.8229	-2.7583	-3.3583	-2.7729	-2.9833	-3.075	-2.6729	-3.0979	-3.0208	-2.5146	-3.2271	-2.7104	327.843	122.061	221.088	322.667	249.370	319.326	51.676	389.118	352.329	29.605	48.969	210.831	50.812	377.973	82.160	47.063	0.00060828	0.0036359	0.00071083	1053.7	6.2148e-06	2.1742e-05	958.61	318.03	1.5517e-05	4.3674e-05	350.14	117.99	105.39	43.421	1.0862e-05	49.651	0.086449	0.18132	0.050421	1607.8	0.0017729	0.0020309	1457.4	493.43	0.0017226	0.0020405	652.8	223.41	180.53	71.267	0.0018098	89.159	199.646	321.950	152.702	41.356	115.890	355.784	40.999	47.420	226.372	218.910	44.674	49.698	52.018	55.612	234.803	53.038	-8191	255	
1132.739	1	1	0	0	0.17111	0.15409	0.25313	0.073799	0.19616	0.23148	0.2563	0.18945	0.10447	0.19896	0.064725	0.34143	0.14396	0.35938	0.057486	0.23513	-2.4479	-3.3667	-2.4375	-3.1771	-3.0375	-2.5646	-3.35	-2.8354	-2.6188	-3.3917	-2.7062	-3.0563	-2.9979	-2.6375	-3.3438	-2.7792	177.902	164.347	322.774	359.676	338.200	367.708	298.924	284.677	286.132	152.798	223.443	376.571	65.189	44.352	385.653	258.064	0.00035874	0.00059283	0.00050709	1053.4	1.4007e-05	2.0443e-05	965.1	321.35	2.4789e-05	3.0893e-05	352.76	118.57	105.4	43.539	3.665e-05	50.063	0.085475	0.1788	0.049896	1604.6	0.0017596	0.0020082	1458.4	495.47	0.0017192	0.0020289	653.15	223.99	180.19	71.067	0.0018031	89.332	182.549	186.846	128.226	41.158	233.545	192.019	40.699	47.280	292.866	147.165	45.023	49.996	51.602	56.438	290.398	53.580	-8191	255	
1132.835	1	1	0	0	0.080043	0.070797	0.10702	0.10342	0.3168	0.11309	0.036553	0.11799	0.051875	0.11928	0.044142	0.093077	0.021061	0.214	0.2456	0.14681	-2.4604	-2.8771	-2.6771	-3.0708	-3.2479	-2.5167	-3.3542	-3.0021	-2.6437	-3.0958	-2.65	-2.9792	-3.15	-2.5917	-3.2583	-2.9292	132.142	167.185	219.512	270.327	221.642	37.205	379.132	368.830	74.901	328.652	37.461	294.741	385.247	382.205	196.993	286.763	0.0003059	0.0021973	0.00026839	1056.3	1.5138e-05	2.6774e-05	962.21	320.51	1.8311e-05	1.0154e-05	348.65	116.79	105.59	42.988	2.7583e-05	49.029	0.084889	0.17681	0.049442	1602.7	0.0017366	0.0019805	1451	492.77	0.0016918	0.001989	646.82	221.29	178.45	70.039	0.0017702	87.737	130.751	346.044	288.062	41.639	280.831	88.852	40.659	47.128	212.581	105.197	45.247	50.193	52.232	56.312	232.624	53.532	-8191	255	
1132.907	1	1	0	0	0.1036	0.24468	0.37005	0.093688	0.060269	0.17078	0.080116	0.15876	0.029905	0.11433	0.16125	0.2187	0.053451	0.12741	0.052533	0.14624	-2.2083	-3.1646	-2.7188	-2.9083	-3.0438	-2.6958	-3.1917	-3.1292	-2.4938	-3.2812	-2.9188	-2.8042	-3.2042	-2.4083	-3.1292	-3.0062	77.923	302.991	41.731	381.544	385.267	270.846	315.432	300.139	194.704	40.975	219.329	322.255	374.916	126.110	156.421	98.752	0.0004074	0.0029541	0.00096076	1052.3	3.5542e-06	8.5015e-06	963.15	317.15	1.8654e-05	3.9415e-05	348.36	117.22	104.57	42.548	1.576e-05	48.588	0.082799	0.17363	0.04871	1583.4	0.0016948	0.0019414	1439.9	487.56	0.0016511	0.0019488	639.58	218.16	175.83	69.255	0.0017383	86.587	208.708	142.415	281.656	41.488	72.578	334.175	40.627	47.348	117.669	388.569	45.432	49.740	51.802	56.218	30.149	53.537	-8191	255	
1133.003	1	1	0	0	0.25035	0.19315	0.16859	0.10448	0.085919	0.26582	0.15161	0.15337	0.15217	0.17081	0.057106	0.20594	0.082169	0.12416	0.10435	0.12653	-2.1542	-3.0292	-2.7313	-2.8	-3.2042	-2.4771	-3.15	-3.1	-2.4042	-3.2229	-2.8896	-2.8667	-3.3625	-2.4625	-3.0271	-3.1667	277.436	229.054	135.804	231.895	190.785	168.295	119.066	385.278	224.567	128.467	158.428	108.934	240.100	293.258	197.054	305.928	0.00027105	0.0024397	0.00014642	1050.2	1.592e-05	2.3902e-05	962.42	318.02	3.3169e-05	3.0223e-05	347.59	116.36	104.23	42.619	3.3338e-05	48.763	0.081242	0.17012	0.04787	1575.6	0.0016661	0.001917	1435.6	484.63	0.0016242	0.0019284	635.8	216.25	174.55	68.782	0.0017283	86.322	194.660	113.183	241.455	41.517	31.983	165.640	40.740	47.210	189.906	288.609	44.887	50.126	51.661	56.042	176.364	53.042	-8191	255	
1133.124	1	1	0	0	0.29891	0.085567	0.17077	0.11308	0.22362	0.13174	0.18344	0.12767	0.18805	0.081652	0.17928	0.18947	0.24216	0.16665	0.016187	0.14815	-2.4062	-3.0542	-2.7458	-2.825	-3.3271	-2.5812	-2.9646	-3.3625	-2.6125	-3.0833	-3.1688	-2.7125	-3.4458	-2.6271	-2.9854	-3.2188	76.142	377.899	55.117	334.380	236.838	103.491	313.995	331.818	155.971	178.208	47.467	102.557	353.295	262.049	305.389	365.473	0.00039619	0.001278	0.00029809	1042.9	3.6465e-05	3.1869e-06	960.25	316.14	3.0305e-05	7.7274e-06	348.9	115.54	104.43	42.688	1.3628e-05	47.998	0.080382	0.16932	0.04782	1569	0.0016571	0.001912	1432.2	482.93	0.0016146	0.0019271	635.86	215.82	174.22	68.905	0.0017222	85.796	220.099	168.081	34.482	41.537	388.152	48.823	40.801	47.195	133.622	207.098	45.146	49.782	51.985	56.103	283.829	52.931	-8191	255	
1133.218	1	1	0	0	0.25261	0.31294	0.28502	0.12911	0.19747	0.20296	0.31054	0.12118	0.23751	0.1713	0.30976	0.1518	0.13036	0.21537	0.22803	0.18586	-2.0687	-3.0333	-2.9583	-2.7375	-3.2125	-2.6729	-2.8042	-3.5	-2.7208	-3.1813	-3.0479	-2.5604	-3.4313	-2.9958	-2.7438	-3.4396	267.430	155.765	220.381	300.265	373.564	362.620	330.697	364.665	34.935	229.517	33.952	41.806	332.076	81.248	278.524	362.633	0.0005755	0.0040435	0.0013872	1047.2	6.9312e-06	4.1478e-05	959.44	316.35	3.2383e-05	1.4285e-05	346.98	115.94	103.67	42.535	1.2298e-05	47.703	0.080381	0.17	0.0478	1568	0.0016628	0.0019213	1431.5	482.75	0.0016259	0.001934	635.7	214.86	174.25	68.815	0.0017291	85.474	209.391	114.337	348.378	41.346	30.388	151.210	40.588	47.591	253.219	125.529	45.173	49.959	51.819	56.294	304.107	53.335	-8191	255	
1133.316	1	1	0	0	0.2537	0.11028	0.039072	0.25532	0.10581	0.12534	0.14666	0.27895	0.11214	0.010562	0.19852	0.23298	0.22084	0.22818	0.086241	0.10014	-2.4271	-2.9688	-3.0896	-2.8187	-3.1271	-2.7938	-2.7938	-3.125	-2.8021	-2.9458	-3.0875	-2.6188	-3.3083	-2.8521	-2.7896	-3.3312	302.228	348.917	227.082	369.353	80.467	176.912	308.338	319.924	29.939	383.556	89.045	100.344	29.070	204.327	91.715	310.064	0.00080496	0.0033451	0.00067322	1042.6	3.1952e-05	8.8279e-06	959.49	315.53	3.0209e-05	4.2706e-05	345.63	115.22	103	42.113	1.1144e-05	47.908	0.080637	0.1698	0.047665	1558.6	0.0016559	0.0019188	1425.5	480.08	0.001622	0.0019297	631.43	213.76	173.47	68.503	0.0017136	85.032	232.697	387.636	94.641	41.285	176.964	238.037	40.590	46.963	222.120	294.224	44.861	48.927	52.141	56.114	123.475	53.374	-8191	255	
1133.435	1	1	0	0	0.07327	0.208	0.21406	0.22762	0.10297	0.26613	0.13552	0.22501	0.29883	0.16014	0.26981	0.12998	0.0735	0.20511	0.2526	0.15493	-2.2729	-2.9562	-3.1688	-2.8563	-3.0979	-2.8063	-3.075	-3.3417	-2.725	-2.7875	-3.2708	-2.6729	-3	-3.0187	-2.6354	-3.4208	83.142	214.374	31.912	303.256	236.677	132.195	350.947	309.574	319.133	53.772	302.283	282.410	62.459	341.868	237.160	324.299	0.00052243	0.0024257	0.00096728	1051.2	1.4518e-05	2.9015e-05	958.53	316.95	3.9636e-05	3.3803e-05	345.45	116.16	104.12	42.526	1.3334e-05	48.358	0.08046	0.16902	0.047188	1559.5	0.0016475	0.0019125	1420.8	479.72	0.0016337	0.0019349	634.44	215.53	174.86	69.322	0.0017416	86.131	202.673	256.360	323.756	41.541	113.368	172.271	40.994	46.930	129.579	227.148	45.841	49.905	52.181	56.122	33.412	53.633	-8191	255	
1133.506	1	1	0	0	0.34755	0.28068	0.1355	0.19429	0.45889	0.16227	0.14032	0.16855	0.24559	0.1367	0.097551	0.15069	0.1549	0.049292	0.063186	0.10924	-2.275	-2.8417	-3.1688	-2.6271	-2.9333	-3.1625	-2.6688	-3.1917	-3.0042	-2.7021	-3.3896	-2.5708	-2.9271	-3.1833	-2.5396	-3.1604	212.963	231.115	221.392	305.194	358.015	92.255	304.107	369.648	225.422	192.226	226.929	333.464	77.686	90.739	154.768	387.701	0.00050096	0.0015925	0.00082464	1050.3	1.9334e-05	1.7162e-05	960.94	319.61	1.8757e-05	3.9931e-05	347.64	116.25	104.36	42.683	3.7981e-05	48.128	0.081898	0.17222	0.047911	1571.4	0.0016851	0.001945	1434.9	484.8	0.0016575	0.0019649	638.64	217.85	176.83	69.885	0.0017665	87.017	197.143	262.355	202.200	41.557	235.098	277.202	40.737	47.206	222.593	112.158	45.546	50.254	51.382	56.024	211.020	53.206	-8191	255	
1133.603	1	1	0	0	0.20835	0.14609	0.27671	0.19821	0.13589	0.056841	0.11465	0.29005	0.22361	0.054438	0.28624	0.22702	0.34717	0.21688	0.016959	0.040699	-2.3667	-2.5833	-3.3229	-2.7875	-2.7417	-3.1792	-2.7229	-3.3021	-2.9208	-2.8729	-3.425	-2.8146	-3.0042	-3.3146	-2.7062	-3.0083	168.916	107.301	143.209	346.100	228.870	124.522	44.210	320.949	209.219	106.581	313.923	229.776	44.023	388.105	82.388	283.149	0.00024001	0.0022568	0.00067404	1046.6	1.1308e-05	2.5588e-05	955.62	318.46	2.0565e-05	4.6154e-05	346.07	115.19	103.93	42.796	2.0035e-05	48.062	0.083363	0.17484	0.048706	1582.1	0.0017102	0.0019627	1432.7	485.57	0.0016761	0.0019716	638.66	217.72	176.56	69.556	0.0017566	86.923	203.849	164.858	149.895	41.730	342.530	108.679	40.894	47.455	288.460	132.057	45.195	50.156	52.278	55.880	244.334	53.162	-8191	255	
1133.723	1	1	0	0	0.23205	0.083626	0.14589	0.1343	0.14066	0.067779	0.18521	0.20334	0.0097555	0.25578	0.24692	0.11009	0.12482	0.038587	0.23631	0.2615	-2.6125	-2.5687	-3.2104	-2.8375	-2.8688	-3.0667	-2.6437	-3.2812	-2.9167	-2.725	-3.2625	-2.9396	-2.8542	-3.2667	-2.7646	-3.025	307.488	272.716	56.130	367.022	76.377	109.764	330.261	272.781	161.771	369.247	49.473	86.953	223.076	107.071	179.032	338.792	0.0004776	0.0010179	0.00066361	1045.1	3.2422e-05	4.2826e-05	962.45	318.46	3.6644e-06	1.7707e-05	344.77	115.14	103.57	42.554	3.9174e-05	48.411	0.083454	0.17386	0.048517	1581.8	0.0017095	0.0019605	1438.7	487.6	0.0016768	0.0019728	639.59	218.28	176	69.472	0.0017508	86.808	222.341	215.633	100.568	41.374	61.361	110.595	40.429	46.958	290.555	144.518	44.859	50.201	51.907	56.224	207.765	53.391	-8191	255	
1133.819	1	1	0	0	0.10196	0.076672	0.29377	0.16038	0.10974	0.16787	0.048135	0.24798	0.057123	0.15935	0.078654	0.10646	0.37385	0.29925	0.087307	0.074312	-2.8604	-2.5208	-3.2542	-2.9042	-2.7125	-3.0833	-2.8271	-2.9188	-3.2	-2.6771	-3.3688	-2.8771	-2.7771	-3.3438	-2.6792	-2.9938	231.322	40.869	205.595	63.534	215.307	252.884	159.096	319.702	375.533	110.113	195.226	108.125	374.490	362.797	364.913	172.882	0.00078125	0.0019549	0.00091383	1047.2	7.2807e-06	2.7097e-05	960.56	319.03	1.7404e-05	1.725e-05	349.29	116.27	105.06	42.817	2.6051e-05	49.018	0.082627	0.1726	0.048331	1580	0.0016949	0.0019481	1437.4	486.47	0.0016727	0.0019649	640.42	219.61	177.1	69.81	0.001771	87.636	233.172	196.129	116.976	41.948	363.492	368.959	40.978	47.157	49.530	50.990	45.093	50.149	51.742	56.230	119.878	53.323	-8191	255	
1133.915	1	1	0	0	0.29119	0.17588	0.10925	0.12837	0.088501	0.13724	0.083868	0.17119	0.03398	0.033659	0.25769	0.23796	0.17521	0.33348	0.026401	0.14815	-2.6854	-2.6229	-2.9396	-2.9396	-2.5604	-3.4313	-2.85	-3.0229	-3.1271	-2.6542	-3.2729	-3.0646	-2.6521	-3.5687	-2.6813	-2.7771	209.619	174.523	63.780	162.103	41.444	276.160	143.063	269.583	364.744	376.365	35.039	44.562	45.582	339.585	235.568	60.532	0.00058379	0.0010345	0.0012185	1049.4	2.0431e-05	1.4486e-05	963.2	316.15	1.8773e-05	2.2207e-05	349.99	116.39	104.56	42.912	3.5436e-05	48.58	0.083125	0.17346	0.048793	1586.5	0.0016956	0.0019466	1440.5	487.29	0.0016643	0.0019657	643.69	219.92	177.05	69.988	0.0017905	87.921	229.597	180.081	76.026	41.666	267.487	185.827	40.929	47.107	268.918	178.576	45.546	50.643	51.779	56.775	169.532	53.570	-8191	255	
1134.036	1	1	0	0	0.26575	0.34317	0.2352	0.050715	0.068716	0.22372	0.17726	0.11662	0.15729	0.2404	0.22738	0.13431	0.07014	0.4302	0.24122	0.17101	-3.0167	-2.5438	-3.1	-3.2292	-2.5417	-3.2812	-3.0271	-2.9792	-3.2125	-2.7479	-3.1	-3.1417	-2.7938	-3.25	-2.825	-2.8646	298.223	166.110	145.126	220.941	297.549	129.869	350.513	257.883	73.065	291.835	319.430	30.325	271.449	384.076	154.486	247.146	0.0005156	0.0016852	0.00014674	1054.2	2.6328e-05	1.0023e-05	958.04	317.24	2.9451e-05	2.8481e-05	348.18	115.87	103.61	42.967	9.7869e-06	48.509	0.084	0.17564	0.049566	1596.7	0.0017209	0.001982	1453.5	490.06	0.0016822	0.0019913	645.32	219.89	176.79	69.959	0.0017811	87.48	174.378	110.475	75.774	41.988	66.105	182.080	41.235	47.232	271.952	320.812	45.389	50.520	51.913	56.256	200.767	53.218	-8191	255	
1134.132	1	1	0	0	0.23571	0.20751	0.14435	0.1179	0.17849	0.066292	0.1645	0.10021	0.18434	0.043312	0.20104	0.20933	0.19926	0.17514	0.076452	0.16183	-3.0125	-2.6312	-3.0521	-3.1312	-2.5979	-3.3292	-3.0833	-2.8042	-3.3042	-2.8875	-3.0875	-3.3563	-2.475	-3.3104	-3.1583	-2.5667	365.044	181.026	73.616	49.295	110.909	162.445	235.442	305.207	193.261	335.332	147.851	370.298	47.406	302.824	271.099	199.712	0.00084648	0.0053225	0.00067662	1043.8	2.5742e-05	1.3101e-06	963.95	317.11	3.7057e-05	4.1814e-05	349.81	116.95	103.89	42.881	2.2849e-05	48.963	0.082963	0.17465	0.048993	1587.8	0.0017014	0.0019648	1447.3	487.45	0.0016652	0.0019748	644.12	219.38	176.39	70.01	0.0017835	87.611	196.110	109.228	186.471	41.444	129.581	360.834	41.127	47.179	271.894	154.004	44.444	50.123	51.925	56.247	325.081	52.594	-8191	255	
1134.202	1	1	0	0	0.26888	0.12441	0.20612	0.34104	0.18222	0.15803	0.19924	0.35836	0.11157	0.1021	0.14204	0.19694	0.13555	0.2559	0.11374	0.05387	-2.9667	-2.6437	-2.8563	-3.3896	-2.4562	-3.125	-3.2125	-2.7521	-3.1937	-2.9167	-2.6708	-3.5208	-2.8	-2.9042	-3.1146	-2.7854	366.055	275.469	253.501	332.431	339.495	195.532	366.084	378.790	149.560	327.073	257.162	317.868	347.712	42.904	333.453	220.191	0.00050798	0.0016586	0.00089413	1051.3	1.4514e-05	9.0257e-06	965.41	319.63	1.6097e-05	1.4456e-05	351.72	116.77	104.24	42.963	4.0583e-05	48.709	0.083059	0.17585	0.049373	1590.1	0.0017116	0.0019849	1455.1	488.99	0.0016809	0.0019945	647.77	220.52	177.51	70.159	0.0017861	87.652	188.080	151.922	223.443	41.609	196.107	87.012	40.902	47.297	340.276	382.772	45.406	50.086	51.526	56.297	355.648	53.514	-8191	255	
1134.298	1	1	0	0	0.2745	0.022795	0.12217	0.22054	0.13752	0.35801	0.057077	0.16462	0.10911	0.27225	0.27711	0.076901	0.11532	0.20453	0.23138	0.14089	-2.6167	-2.7021	-2.6417	-3.3229	-2.6958	-2.95	-3.0542	-2.6417	-2.975	-2.8458	-2.6229	-3.3521	-2.8063	-2.9083	-3.0417	-2.5396	227.386	238.686	358.456	365.333	137.131	285.512	329.951	30.841	347.152	279.931	39.916	35.000	267.401	39.635	35.490	46.631	0.00022002	0.0043686	0.00030766	1058.3	1.4379e-05	1.4672e-05	970.41	319	1.305e-05	3.1003e-05	350.41	117.46	105.03	43.013	7.8269e-06	48.884	0.082697	0.17568	0.049009	1594	0.0017136	0.0019848	1456.2	489.15	0.0016894	0.0020194	649.98	221.2	178.43	70.707	0.0018126	88.305	254.100	373.737	232.507	41.807	227.767	201.178	40.999	47.366	247.418	190.760	45.620	50.025	51.686	56.042	384.911	53.707	-8191	255	
1134.419	1	1	0	0	0.26759	0.12364	0.11094	0.32474	0.1793	0.27705	0.26452	0.41487	0.17298	0.068878	0.13185	0.11426	0.40285	0.18775	0.28264	0.09577	-2.9062	-2.8458	-2.5292	-3.4917	-2.4813	-3.0292	-3.2646	-2.675	-3.1417	-2.9833	-2.5958	-3.3625	-2.7938	-2.8583	-3.0958	-2.6417	289.427	72.261	384.774	353.308	186.620	123.804	308.563	43.945	141.960	302.549	288.771	313.574	374.043	321.427	33.017	62.505	0.00047087	0.0010861	0.00039735	1057.4	4.1203e-05	2.435e-05	969.88	316.2	1.089e-05	2.3863e-05	353.11	115.77	104.93	43.068	4.1251e-05	48.823	0.085072	0.17958	0.049922	1604.4	0.0017456	0.0020201	1462.7	491.83	0.0017138	0.0020436	650.48	222.17	179.63	70.962	0.0018107	88.493	242.069	227.306	223.979	41.743	264.359	277.217	40.977	47.221	272.815	30.576	45.204	50.442	52.132	56.036	175.534	54.184	-8191	255	
1134.515	1	1	0	0	0.14284	0.10182	0.080318	0.27162	0.04042	0.13652	0.28357	0.41664	0.24664	0.22499	0.18914	0.32324	0.13397	0.17996	0.15438	0.13458	-2.5833	-3.075	-2.675	-3.2208	-2.65	-2.7979	-3.2208	-2.6708	-3.075	-3.0292	-2.4646	-3.2417	-3.075	-2.7417	-3.2729	-2.6125	197.508	340.734	343.986	336.200	324.943	168.738	272.368	107.737	344.995	324.291	89.712	278.865	320.594	294.422	143.297	270.798	0.00018513	0.001329	0.00022964	1057.4	1.8638e-05	7.2756e-06	964.8	318.43	2.2858e-05	2.9152e-05	348.39	116.97	105.04	42.856	7.6999e-06	49.165	0.085322	0.17987	0.049973	1604.5	0.0017486	0.0020213	1462.2	492.22	0.0017205	0.0020309	651.01	222.48	179.65	70.834	0.0018017	88.685	199.062	35.951	191.075	41.909	328.113	234.268	41.045	47.008	305.805	287.908	44.646	49.755	52.002	56.130	88.496	53.028	-8191	255	
1134.611	1	1	0	0	0.21856	0.27034	0.018667	0.31502	0.31945	0.15017	0.029298	0.12232	0.19315	0.15574	0.21755	0.21959	0.23055	0.20367	0.18398	0.10407	-2.5312	-3.1188	-2.3833	-3.1958	-2.8125	-2.6042	-3.3396	-2.7062	-2.7458	-3.2188	-2.6792	-3.2333	-3.1229	-2.5292	-3.325	-2.6229	73.373	374.003	285.143	58.833	32.153	381.422	127.465	366.603	141.047	90.914	325.746	366.938	344.718	124.101	86.305	363.952	0.00044792	0.0047445	0.0006139	1047.4	3.0987e-05	3.3633e-06	972.3	317.73	2.0858e-05	2.5624e-05	348.91	117.19	104.4	43.153	1.2912e-05	49.241	0.085279	0.179	0.049732	1602.6	0.0017566	0.0020134	1461.5	493.25	0.001712	0.0020311	651.84	222.47	179.52	70.896	0.0018003	88.871	200.200	279.317	61.544	42.005	215.162	97.112	40.708	47.235	159.081	195.860	45.467	50.529	52.179	56.078	277.439	53.772	-8191	255	
1134.707	1	1	0	0	0.1031	0.18073	0.17279	0.20722	0.22803	0.1882	0.35218	0.10682	0.30999	0.21801	0.07967	0.10556	0.057405	0.30811	0.20679	0.17671	-2.3917	-3.1583	-2.5875	-3.3104	-2.7625	-2.5687	-3.2083	-2.7875	-2.8625	-3.1271	-2.7354	-3.0729	-3.1458	-2.7062	-3.1625	-2.875	58.420	242.691	30.117	272.540	197.020	123.371	307.076	319.145	278.809	332.297	323.161	144.514	125.368	344.119	80.637	82.717	0.00042261	0.0031529	0.00040758	1049.8	8.2586e-06	2.1315e-05	970.38	319.8	1.3097e-05	1.2923e-05	350.37	117.67	104.13	43.005	1.1545e-05	48.86	0.085565	0.1788	0.050127	1608.7	0.0017668	0.0020255	1464.3	496.11	0.0017332	0.0020484	654.23	223.75	180.41	70.796	0.0018156	88.767	143.271	155.833	196.959	41.528	37.478	168.810	41.015	47.422	298.973	269.759	45.562	50.592	52.261	56.162	217.524	53.920	-8191	255	
1134.804	1	1	0	0	0.007762	0.23714	0.12065	0.32977	0.21497	0.032817	0.12563	0.29555	0.080317	0.14892	0.1442	0.039731	0.2138	0.25351	0.096359	0.27721	-2.4583	-3.175	-2.6375	-3.2313	-3.2604	-2.7875	-3.3979	-3.0563	-2.7938	-3.2479	-2.7292	-3.0583	-3.0042	-2.6417	-3.2146	-3.0896	102.954	389.250	230.088	353.355	33.225	188.930	348.202	313.958	43.325	216.478	99.348	298.043	147.493	378.040	320.501	347.980	0.00056527	0.0046787	0.00044706	1052.6	1.8178e-05	7.0485e-06	964.28	318.25	2.448e-05	4.3015e-05	346.3	115.9	103.96	42.408	1.4713e-05	48.018	0.085401	0.17789	0.049613	1599.1	0.0017322	0.0019787	1452.2	490.42	0.0016864	0.0019885	644.64	219.71	177.56	69.707	0.0017804	87.449	226.723	331.876	156.095	41.568	51.025	128.272	41.212	47.619	75.391	161.594	45.485	50.156	52.121	56.264	124.453	53.723	-8191	255	
1134.900	1	1	0	0	0.14929	0.062717	0.12752	0.3836	0.18031	0.047601	0.19014	0.17081	0.05542	0.099661	0.23343	0.19715	0.26544	0.14965	0.052372	0.2495	-2.2646	-3.2208	-2.6479	-2.9917	-3.1417	-2.4188	-3.4021	-3.0208	-2.8667	-3.2146	-2.8729	-2.9771	-3.1896	-2.7479	-3.0104	-3.0208	376.850	144.420	346.216	70.065	224.703	195.537	346.381	365.907	103.264	139.773	330.901	75.019	387.918	355.560	128.679	287.626	0.00075653	0.0023611	0.00020787	1047.8	1.1547e-05	2.5395e-05	959.69	316.98	9.1682e-06	1.7313e-05	345.37	115.45	103.44	41.823	3.8545e-05	47.807	0.083536	0.17447	0.049009	1591.7	0.0017116	0.0019629	1448.7	488.11	0.001668	0.0019654	640.42	218.29	175.53	68.776	0.0017538	86.463	190.890	281.433	195.764	41.819	203.135	209.242	41.304	47.428	53.811	137.948	45.909	49.953	52.233	56.221	234.582	53.345	-8191	255	
1134.996	1	1	0	0	0.17735	0.15912	0.20922	0.27338	0.065945	0.12511	0.12655	0.11753	0.18739	0.13135	0.14069	0.25426	0.12382	0.26405	0.15766	0.081816	-2.3167	-3.3125	-2.7875	-3.0396	-3.325	-2.525	-3.1229	-3.2375	-2.6167	-3.2062	-2.8438	-2.7271	-3.2833	-2.6729	-2.975	-3.1375	59.835	113.737	183.079	291.903	94.760	160.412	239.893	31.302	151.255	112.263	262.804	51.987	374.904	387.124	168.054	376.780	0.00058774	0.0037603	0.00017472	1046.3	4.8307e-05	2.257e-05	968.7	316.53	1.43e-05	1.8999e-05	344.61	113.85	102.45	41.531	1.3669e-06	47.599	0.081861	0.17248	0.048578	1580.9	0.0016867	0.0019399	1442.3	484.09	0.0016496	0.001955	639.51	216.88	175.06	68.825	0.0017684	86.275	224.458	110.771	116.447	41.763	214.280	32.189	41.072	47.654	229.595	166.390	45.436	49.518	51.767	56.449	348.290	53.342	-8191	255	
1135.116	1	1	0	0	0.30614	0.12185	0.11428	0.3449	0.11921	0.23022	0.2463	0.40888	0.15012	0.11177	0.16294	0.043021	0.075234	0.05983	0.21169	0.11525	-2.2917	-3.1458	-2.7	-2.6604	-3.4583	-2.6208	-3.0187	-3.1	-2.6021	-3.3792	-3.0958	-2.7125	-3.2792	-2.8542	-2.8063	-3.3563	245.806	174.417	317.745	319.372	265.690	312.402	348.978	355.799	195.687	283.003	209.135	39.562	339.498	388.434	323.494	227.813	0.00041582	0.0034066	0.00040598	1046.6	3.4709e-05	5.109e-06	951.53	314.57	2.0708e-05	2.6256e-05	344.04	113.85	102.64	41.892	2.31e-05	47.832	0.082122	0.17248	0.0486	1578.2	0.0016836	0.0019464	1439.1	483.78	0.0016467	0.0019611	639.18	216.69	174.39	68.562	0.0017604	85.77	207.065	97.544	175.513	41.607	143.325	343.833	40.975	47.515	222.947	144.555	45.524	49.949	52.274	56.342	270.121	53.254	-8191	255	
1135.211	1	1	0	0	0.10378	0.19151	0.3163	0.068714	0.040841	0.2664	0.12084	0.25924	0.061328	0.14952	0.15108	0.27033	0.30184	0.15969	0.178	0.10495	-2.2062	-3.1	-2.875	-2.6646	-3.2896	-2.5646	-3.0875	-3.25	-2.4813	-3.2146	-3.1104	-2.4583	-3.375	-2.6479	-2.8271	-3.4458	68.466	69.353	236.873	360.641	361.187	190.670	340.285	344.117	304.644	185.891	209.157	345.967	378.398	69.028	163.158	246.484	0.0005119	0.0021288	0.0003264	1050.4	2.0572e-05	2.1865e-05	960.05	311.84	2.0114e-05	3.76e-05	343.48	113.76	102.4	41.816	3.1902e-05	47.544	0.081709	0.17163	0.04822	1573.8	0.0016698	0.0019337	1435	480.85	0.0016449	0.0019573	635.26	215.45	173.54	68.474	0.0017503	85.656	180.950	127.945	319.256	41.433	104.785	310.924	40.667	46.912	207.928	261.416	45.263	49.989	51.913	56.076	213.464	53.181	-8191	255	
1135.307	1	1	0	0	0.21427	0.072971	0.11077	0.23678	0.16848	0.19954	0.20437	0.14831	0.059018	0.020369	0.087243	0.15311	0.13893	0.14113	0.065249	0.085399	-2.0667	-2.8375	-2.9083	-2.775	-3.2833	-2.7438	-2.8854	-3.5187	-2.6729	-2.8667	-3.0708	-2.7396	-3.3083	-2.9854	-2.6688	-3.2771	117.256	254.565	268.238	321.134	190.967	134.037	280.663	350.813	247.108	49.460	65.138	305.009	314.244	385.264	185.995	146.590	0.00042484	0.004305	0.0010969	1049.1	3.2195e-05	1.2992e-05	959.86	315.85	1.4921e-05	2.9528e-05	347.79	113.5	102.18	41.581	4.57e-06	47.497	0.081488	0.17198	0.048138	1569.2	0.0016661	0.0019336	1434.1	479.81	0.001639	0.0019483	635.33	214.95	173.33	68.335	0.0017453	85.446	168.639	97.974	84.231	41.610	76.849	200.017	40.651	47.305	292.735	350.527	45.396	50.066	52.130	55.832	263.175	53.645	-8191	255	
1135.403	1	1	0	0	0.0981	0.12665	0.35762	0.20239	0.32938	0.27993	0.064828	0.21796	0.12589	0.011107	0.18787	0.064891	0.24354	0.11712	0.19028	0.11716	-2.4208	-2.7562	-3.1375	-2.6396	-2.8583	-2.9292	-2.6437	-3.325	-2.7396	-2.7042	-3.2479	-2.4354	-3.4354	-2.9625	-2.5542	-3.4583	236.188	109.709	149.271	320.743	368.965	83.761	226.159	331.316	135.560	297.798	317.521	387.009	300.536	339.132	236.224	187.641	0.00039206	0.001884	0.00027344	1045	1.356e-05	2.8897e-05	956.63	313.93	1.8509e-05	4.3533e-05	341.13	113.7	102.43	41.815	4.0441e-05	48.082	0.081839	0.17275	0.048203	1575.2	0.0016952	0.0019671	1439.1	483.18	0.0016699	0.0019965	639.76	218.02	175.31	69.326	0.0017776	86.645	153.550	180.330	114.666	41.583	232.578	180.335	40.699	47.150	224.761	335.148	45.734	49.820	52.527	56.072	209.261	54.026	-8191	255	
1135.499	1	1	0	0	0.21192	0.081902	0.11088	0.09495	0.28619	0.093906	0.15592	0.080824	0.07778	0.16612	0.20087	0.15244	0.1988	0.16709	0.26987	0.11684	-2.1542	-2.675	-3.1937	-2.6688	-2.8896	-3.0438	-2.6333	-3.2208	-2.7083	-2.7375	-3.1979	-2.8396	-2.9667	-3.1688	-2.6521	-3.2625	382.951	311.997	47.577	288.289	321.616	231.151	283.569	334.990	77.032	365.357	153.079	84.059	384.106	322.229	111.346	312.258	0.00032558	0.0043804	0.00080163	1045.3	1.2742e-05	1.4602e-05	954.09	312.86	2.5302e-05	3.4176e-05	346.45	115.14	102.67	41.783	2.2562e-06	47.88	0.084059	0.17744	0.049354	1588.9	0.0017467	0.0020222	1450.9	488.3	0.0017248	0.0020458	647.79	221.05	178.25	70.088	0.0018215	87.874	151.087	318.671	196.975	41.446	201.317	63.140	40.544	47.798	240.071	238.284	45.279	49.759	51.779	56.811	91.290	53.608	-8191	255	
1135.595	1	1	0	0	0.29245	0.10303	0.052919	0.17423	0.18421	0.044483	0.21584	0.18159	0.15277	0.24218	0.16983	0.094335	0.11109	0.1948	0.084722	0.046236	-2.5083	-2.8083	-3.2083	-2.8292	-2.8708	-3.1437	-2.7083	-3.3104	-2.825	-2.6542	-3.4021	-2.8208	-2.9938	-3.1417	-2.6146	-3.35	312.437	198.301	81.990	361.690	339.655	272.211	261.193	32.988	35.754	225.488	345.288	355.009	42.929	114.745	38.787	98.143	0.00036889	0.0023708	0.0006589	1043.9	1.9782e-05	9.6213e-05	954.28	312.82	1.5955e-05	7.1601e-06	345.09	115.52	103.67	42.383	1.3e-05	47.922	0.085935	0.18068	0.050442	1601.2	0.001777	0.0020455	1459	493.27	0.0017477	0.0020699	652.79	223.52	179.95	70.849	0.0018522	88.936	220.206	361.075	298.301	41.548	184.788	250.639	40.891	46.859	92.960	36.713	45.084	49.216	52.029	55.773	56.678	52.752	-8191	255	
1135.716	1	1	0	0	0.1167	0.27838	0.082523	0.14188	0.19108	0.053078	0.10917	0.19576	0.11348	0.1871	0.27233	0.20374	0.2927	0.30085	0.33501	0.21129	-2.4958	-2.7854	-3.2792	-2.7979	-2.7458	-3.3375	-2.8187	-3.2125	-3.1021	-2.5417	-3.2542	-2.9458	-2.8125	-3.3875	-2.525	-3.175	151.976	232.731	383.686	363.266	217.919	326.954	341.825	375.489	34.390	65.132	107.526	347.751	326.383	322.394	124.774	262.109	0.00043681	0.0012583	0.00014845	1053.3	1.0474e-05	3.826e-06	962.73	316.12	2.8575e-05	2.3689e-05	346.47	116.68	103.48	42.75	1.9366e-05	48.921	0.087931	0.1844	0.051484	1620.8	0.0018151	0.0020817	1471.9	497.15	0.0017845	0.0021097	659.93	226.48	182.31	71.63	0.0018929	90.187	174.523	377.589	124.928	41.840	380.198	100.391	41.075	47.208	359.149	264.260	45.349	50.071	51.888	56.225	307.452	53.521	-8191	255	
1135.812	1	1	0	0	0.18953	0.091162	0.21614	0.3478	0.12651	0.13295	0.18534	0.38006	0.13505	0.14451	0.061881	0.33209	0.082806	0.24361	0.10479	0.29691	-2.7188	-2.5125	-3.1333	-2.8896	-2.8667	-3.1813	-2.7938	-3.0354	-3.1688	-2.5687	-3.2625	-2.9646	-2.6521	-3.3542	-2.675	-3.0458	387.069	82.234	193.105	46.258	254.647	271.135	357.640	351.444	86.227	76.932	186.318	383.627	67.270	360.419	344.273	339.430	0.00015121	0.0013749	0.00030837	1051.5	1.3721e-05	5.5613e-05	967.64	316.28	2.7064e-05	6.4522e-06	347.05	116.42	104.11	42.613	4.95e-06	48.382	0.08974	0.1874	0.05255	1634.3	0.0018438	0.0021119	1488.4	501.87	0.0018066	0.002133	665.15	228.19	182.67	72.027	0.001912	90.754	266.346	122.787	125.310	41.654	281.699	136.194	40.721	47.190	206.768	336.090	44.937	50.119	52.268	56.140	158.439	53.619	-8191	255	
1135.908	1	1	0	0	0.17567	0.19571	0.08468	0.22297	0.12159	0.079732	0.18501	0.15078	0.10487	0.32413	0.26881	0.07863	0.11195	0.073497	0.20372	0.054966	-2.6979	-2.6271	-3.1104	-2.8896	-2.5229	-3.3063	-2.6479	-3.1625	-2.9688	-2.5458	-3.1604	-2.8292	-2.5646	-3.3021	-2.6875	-2.8375	63.786	332.365	221.437	71.223	175.746	168.294	99.796	341.044	191.388	141.886	349.066	387.024	88.708	366.656	74.855	73.709	0.00042224	0.0036457	0.0012078	1047.9	3.2181e-06	2.7384e-05	961.71	316.55	4.1562e-06	3.8512e-05	349.56	116.11	102.07	42.701	3.7304e-05	48.886	0.090298	0.1885	0.052967	1638.6	0.001851	0.0021221	1488.8	501.65	0.0018138	0.0021393	668.92	228.39	182.82	72.22	0.0019286	90.999	198.435	261.001	165.448	41.803	266.752	214.756	40.946	47.360	338.237	207.728	45.328	50.163	51.832	56.397	132.532	53.232	-8191	255	
1136.005	1	1	0	0	0.12246	0.25307	0.22808	0.14928	0.15408	0.047845	0.26397	0.22896	0.2378	0.10741	0.12048	0.23456	0.3439	0.21653	0.14381	0.15519	-2.9021	-2.4521	-3.1063	-3.1146	-2.4688	-3.1458	-2.8312	-2.8625	-3.1646	-2.7667	-3.3146	-3.1729	-2.7042	-3.4021	-2.7375	-2.7562	252.923	285.153	303.447	346.149	375.763	269.468	337.700	318.757	354.424	308.294	356.588	337.958	317.751	273.426	217.885	36.060	0.00042036	0.0032166	0.00048264	1051.6	1.5718e-05	4.8552e-05	964.04	317.75	3.0489e-05	2.5146e-05	345.78	117.46	103.98	42.53	1.8244e-05	48.754	0.090287	0.18921	0.053371	1643.7	0.0018514	0.0021375	1497.3	504.34	0.0018224	0.0021534	668.64	229.14	183.13	72.42	0.0019366	90.988	218.457	82.811	76.235	41.807	362.641	244.990	41.086	47.135	220.714	259.133	45.235	50.420	52.239	55.935	236.201	53.360	-8191	255	
1136.101	1	1	0	0	0.20336	0.10438	0.25925	0.25891	0.18064	0.087173	0.2883	0.17029	0.24347	0.14452	0.15884	0.21714	0.14926	0.25657	0.099549	0.28909	-3.0604	-2.7521	-3.1	-3.1813	-2.8208	-3.1813	-3.0563	-2.8979	-3.2188	-2.9333	-3.0125	-3.1958	-2.7812	-3.2	-2.8271	-2.5667	362.875	71.480	277.913	243.827	239.669	330.353	70.076	337.649	121.010	257.077	283.319	59.325	358.004	324.653	175.294	277.205	0.00025722	0.0031197	0.00046011	1052.9	2.1709e-05	6.1844e-05	973.64	319.5	2.1671e-05	2.5916e-05	350.66	117.57	105.34	43.003	1.0696e-05	48.916	0.090091	0.18955	0.053205	1643.7	0.0018464	0.0021358	1499.6	504.44	0.0018033	0.0021497	671.23	228.73	183.8	72.539	0.0019329	91.357	230.779	182.886	301.472	41.447	217.946	208.343	40.522	47.269	194.464	154.518	44.810	49.847	51.535	56.115	302.237	52.657	-8191	255	
1136.195	1	1	0	0	0.13563	0.102	0.19795	0.37886	0.078582	0.05783	0.33706	0.090484	0.13857	0.030522	0.056167	0.14952	0.093423	0.099297	0.11384	0.21425	-2.7979	-2.4396	-2.7542	-3.0542	-2.45	-3.0938	-3.1625	-2.7854	-3.0958	-2.8979	-2.8125	-3.3229	-2.575	-3.3521	-3.0083	-2.7771	202.084	36.632	330.516	358.977	88.266	342.667	356.284	321.816	260.710	338.181	189.370	308.449	359.851	234.467	123.324	373.778	0.00063219	0.00035497	0.00059988	1051	1.864e-05	3.2743e-05	967.84	317.53	1.5697e-05	3.0363e-05	351.64	116.99	104.7	42.987	1.1787e-05	48.844	0.090311	0.19077	0.053519	1644.2	0.0018591	0.0021496	1503.4	504.23	0.0018217	0.0021682	673.68	229.25	184.1	72.813	0.0019464	91.334	232.816	110.225	90.570	41.617	327.323	137.824	40.901	47.406	131.518	222.150	45.504	50.201	52.118	56.101	361.547	53.265	-8191	255	
1136.291	1	1	0	0	0.27863	0.065025	0.049069	0.086196	0.15277	0.036969	0.12781	0.15857	0.086283	0.21947	0.1078	0.21599	0.13163	0.22319	0.20925	0.10215	-2.7229	-2.8187	-2.6896	-3.1125	-2.5708	-2.8438	-3.1688	-2.8292	-3.1125	-3.0521	-2.8583	-3.1792	-2.6437	-2.8729	-3.0667	-2.7479	40.169	353.615	240.749	289.600	35.024	150.246	30.061	170.091	140.822	359.482	335.224	183.789	282.648	278.412	255.458	265.540	0.00050336	0.0010834	0.00077298	1056.4	1.0739e-05	5.0086e-05	970.43	318.33	1.612e-05	3.6697e-05	349.06	118.18	105.06	43.133	1.0315e-05	49.13	0.090457	0.19153	0.053543	1644.2	0.0018618	0.002152	1500.4	504.46	0.0018288	0.0021838	674.71	230.04	184.56	72.982	0.00194	91.432	175.168	91.371	361.483	41.514	70.096	306.565	40.630	47.084	173.856	55.982	45.340	49.993	51.567	55.935	136.431	53.289	-8191	255	
1136.387	1	1	0	0	0.17686	0.1615	0.12477	0.4462	0.096909	0.1037	0.16989	0.15554	0.085361	0.11739	0.052295	0.093037	0.2061	0.2202	0.17085	0.12773	-2.6208	-3.0062	-2.7104	-3.3771	-2.6312	-3.0146	-3.3042	-2.5229	-3.2625	-2.8063	-2.5917	-3.1813	-2.7604	-2.8125	-3.1354	-2.6312	242.739	205.188	156.226	351.655	348.290	96.306	321.779	376.107	357.017	291.947	324.405	222.867	43.919	71.896	90.121	227.753	0.00062292	0.0026429	0.0012398	1058.9	1.5628e-05	1.1695e-05	969.79	318.98	2.4245e-05	1.1978e-05	347.01	117.99	104.11	43.329	2.2846e-05	49.169	0.090522	0.19163	0.053387	1645.2	0.0018651	0.0021563	1503.3	505.26	0.0018333	0.0021816	674.77	230.79	185.18	73.305	0.0019491	91.861	214.270	350.727	291.713	41.622	191.290	117.590	40.603	47.208	248.841	352.853	44.819	50.023	51.359	55.899	376.381	52.858	-8191	255	
1136.508	1	1	0	0	0.030899	0.13486	0.21763	0.12703	0.34217	0.066603	0.26606	0.068965	0.16597	0.20376	0.195	0.21275	0.2288	0.29266	0.11283	0.28373	-2.7104	-2.7271	-2.6146	-3.4125	-2.5958	-2.7542	-3.2104	-2.6583	-3.0708	-3.0396	-2.5667	-3.2625	-2.7417	-2.7208	-2.9625	-2.6708	318.474	80.859	353.100	386.342	47.282	298.935	316.298	330.736	199.630	310.153	349.587	338.386	282.588	60.337	308.239	344.148	0.00072674	0.0016973	0.00049276	1062.2	5.4979e-05	3.8338e-05	974.14	318.7	1.9538e-05	3.3678e-05	352.01	117.3	105.11	43.108	2.5473e-05	49.368	0.091446	0.19286	0.053632	1652.8	0.0018828	0.0021657	1506.7	506.03	0.0018373	0.0021897	676.63	231.35	186.13	73.307	0.0019527	92.24	207.740	283.058	65.086	41.319	60.990	214.100	40.646	46.998	257.294	155.743	45.225	50.547	52.172	55.820	147.782	52.962	-8191	255	
1136.604	1	1	0	0	0.037774	0.18545	0.20378	0.22804	0.1141	0.15951	0.08017	0.16575	0.15949	0.13625	0.11824	0.28871	0.24206	0.12404	0.088744	0.027705	-2.6229	-2.8604	-2.5104	-3.3667	-2.8187	-2.5521	-3.2979	-2.8042	-2.9646	-3.1271	-2.5812	-2.8812	-2.9333	-2.8187	-3.1937	-2.6729	332.710	224.428	98.443	314.747	95.002	340.946	71.211	315.910	278.642	198.073	315.109	318.837	336.412	363.148	251.637	169.361	0.00049233	0.00096184	0.00028744	1054.2	2.2115e-05	2.6196e-05	966.23	316.36	3.8173e-05	5.3924e-05	351.3	117.76	104.12	42.982	1.8121e-05	49.438	0.092043	0.19436	0.053915	1654.4	0.0018978	0.002176	1508.2	506.97	0.0018545	0.0021944	677.21	231.82	185.77	73.207	0.0019471	92.133	169.959	326.667	108.825	41.562	340.665	77.503	40.921	46.938	96.799	29.899	45.614	49.983	52.238	55.917	75.173	53.278	-8191	255	
1136.676	1	1	0	0	0.21325	0.17665	0.22909	0.086332	0.18492	0.27939	0.14496	0.17257	0.12171	0.14719	0.074198	0.376	0.40959	0.096744	0.23069	0.12962	-2.3458	-3.1167	-2.7854	-2.9354	-2.7229	-2.5396	-3.4708	-2.9875	-2.8604	-3.1021	-2.7208	-3.1417	-3.1333	-2.5229	-3.1667	-2.9083	193.508	117.945	84.685	364.383	317.563	214.160	351.266	289.741	265.350	161.201	284.201	66.308	336.851	328.648	192.380	322.882	0.00070894	0.0014415	0.00068546	1052.3	1.6948e-05	1.7419e-05	973.21	318.64	1.3378e-05	1.0543e-05	349.92	116.56	104.91	43.291	2.9878e-05	49.463	0.091957	0.19286	0.053763	1653.6	0.001892	0.0021717	1507.3	509.02	0.0018613	0.0021907	676.06	231.84	186.17	73.351	0.0019609	92.616	214.877	30.750	322.505	41.797	348.736	252.696	40.751	47.161	351.823	143.934	45.069	49.406	51.965	55.773	238.478	53.275	-8191	255	
1136.796	1	1	0	0	0.075833	0.027748	0.17003	0.057147	0.10927	0.065853	0.14339	0.34348	0.26788	0.02833	0.11734	0.26064	0.16471	0.13472	0.17001	0.1688	-2.2021	-3.1333	-2.4667	-2.9833	-3.1083	-2.55	-3.1813	-2.9188	-2.6917	-3.2938	-2.4896	-3.0125	-3.1271	-2.4958	-3.0333	-3.0062	82.745	106.963	274.606	290.358	384.299	265.202	292.411	59.570	262.540	320.870	386.132	58.611	191.639	306.449	342.229	30.284	0.00061665	0.0022691	0.0009245	1059.5	3.8487e-05	4.5846e-05	971.06	319.04	1.8759e-05	3.6873e-05	351.75	117.72	105.61	43.185	1.7347e-05	49.931	0.092586	0.19336	0.054141	1661	0.0019034	0.0021809	1513.6	510.48	0.0018665	0.0022021	680.4	233.36	186.51	73.329	0.0019588	92.9	189.725	198.374	140.859	41.805	146.338	337.967	40.668	47.330	114.459	261.665	45.097	50.669	51.787	56.235	90.938	53.740	-8191	255	
1136.893	1	1	0	0	0.20335	0.1566	0.19232	0.17728	0.36972	0.12582	0.21085	0.21902	0.19794	0.10332	0.25695	0.26987	0.047108	0.1333	0.085832	0.28594	-2.3417	-3.0625	-2.5125	-3.025	-3.0292	-2.425	-3.3042	-3.0104	-2.7021	-3.2417	-2.5625	-2.9792	-3.2104	-2.5021	-3.1333	-3.075	85.106	75.818	55.647	44.546	321.514	185.528	352.678	75.770	151.546	175.761	375.492	299.939	298.186	90.028	352.897	364.909	0.00020249	0.0028979	0.00061819	1060.6	2.6073e-05	1.7784e-05	972.56	319.54	5.5918e-06	3.2785e-05	350.49	117.97	104.96	43.357	2.4945e-05	49.251	0.0925	0.19204	0.053922	1660.1	0.0018894	0.0021757	1517.7	511.1	0.0018677	0.002215	683.01	234.23	186.96	73.577	0.0019833	93.312	154.758	30.512	101.560	41.659	211.727	159.474	40.574	47.186	314.523	284.404	45.017	50.150	51.880	55.923	251.941	53.387	-8191	255	
1136.989	1	1	0	0	0.21049	0.11577	0.071737	0.051558	0.064441	0.16022	0.21519	0.097255	0.19793	0.16322	0.12606	0.12013	0.10861	0.20849	0.074339	0.18663	-2.0604	-3.1333	-2.7687	-2.9188	-2.9813	-2.6	-3.2	-3.075	-2.5479	-3.2729	-2.7833	-2.9146	-3.2667	-2.6562	-2.8667	-3.2313	241.757	214.787	63.487	385.823	184.576	267.642	386.726	128.035	183.953	283.918	55.122	380.937	59.071	368.783	51.324	323.492	0.0004046	0.0014832	0.00059137	1058.6	2.0475e-05	3.1214e-05	971.13	317.13	3.3216e-05	2.3703e-05	349.71	117.14	104.77	42.847	7.1054e-06	49.57	0.093107	0.19449	0.054763	1665.3	0.0019081	0.0021956	1520.2	509.83	0.0018552	0.0021972	680.58	232.72	185.96	73.27	0.0019722	92.794	237.375	165.494	90.724	41.787	106.851	345.679	40.686	47.768	238.102	118.646	45.436	49.878	52.575	56.340	204.443	53.417	-8191	255	
1137.085	1	1	0	0	0.10223	0.43486	0.20843	0.072824	0.27178	0.16408	0.36009	0.27726	0.0064249	0.053048	0.18894	0.057514	0.12926	0.079047	0.23431	0.2497	-2.2604	-2.9979	-2.6667	-2.5875	-3.1896	-2.6104	-2.8625	-3.2458	-2.4542	-2.9792	-2.9313	-2.6229	-3.2979	-2.5542	-2.8312	-3.3688	203.255	320.617	79.380	343.294	304.744	172.956	386.856	344.668	190.568	146.337	122.990	85.827	183.198	123.862	143.012	379.823	0.00015298	0.0032167	0.00098094	1053.4	2.1127e-06	2.6453e-05	973.48	317.72	2.4314e-05	3.4803e-05	349.95	117.13	104.77	43.225	3.249e-05	49.441	0.092228	0.19381	0.054479	1659.3	0.0018886	0.0021695	1513.8	508.13	0.0018316	0.0021811	679.94	231.61	185.19	73.06	0.0019564	92.457	220.032	355.696	144.909	41.881	69.911	35.662	40.730	47.017	171.939	167.349	44.643	50.138	52.071	56.011	249.890	53.329	-8191	255	
1137.204	1	1	0	0	0.1745	0.033802	0.13619	0.21652	0.087212	0.24658	0.15764	0.17736	0.036489	0.13063	0.35133	0.047874	0.1681	0.2123	0.16691	0.32867	-2.4	-2.9479	-2.8875	-2.7625	-3.3125	-2.5542	-2.8167	-3.3854	-2.7104	-3.1208	-2.9333	-2.7417	-3.2646	-2.8063	-2.7146	-3.1667	147.956	225.796	220.169	40.726	306.749	68.183	182.964	313.637	224.133	352.341	37.229	239.567	291.990	57.891	253.927	43.895	0.00035903	0.0020113	0.00090652	1061.8	2.1267e-05	3.9561e-05	971.84	318.16	2.2618e-05	1.3618e-05	354.95	119.02	104.9	43.237	7.0728e-06	49.935	0.090801	0.1916	0.054037	1654.3	0.001872	0.0021661	1510	507.64	0.001833	0.0021817	678.87	231.35	184.35	72.901	0.0019425	92.038	173.715	302.249	76.873	41.545	49.351	145.045	40.457	47.203	107.416	210.815	45.532	50.069	51.817	56.153	284.958	53.552	-8191	255	
1137.300	1	1	0	0	0.1063	0.15907	0.090256	0.22788	0.16872	0.1098	0.24099	0.21463	0.087888	0.14224	0.32266	0.30438	0.37193	0.2226	0.13324	0.079762	-2.1604	-3.1292	-3.0375	-2.7729	-3.2687	-2.4958	-2.9167	-3.2646	-2.5396	-2.9417	-3.1042	-2.7083	-3.2646	-2.8021	-2.5187	-3.3396	204.327	211.610	82.985	225.149	85.050	143.392	248.170	359.243	235.093	249.364	382.246	369.650	343.175	323.142	84.513	341.449	0.00043541	0.0030035	0.00092398	1071.2	4.4687e-05	2.2393e-05	979.27	317.52	3.8432e-05	3.7103e-05	354.7	118.63	105.29	43.146	2.7878e-05	49.418	0.090068	0.19016	0.053337	1647.6	0.0018505	0.0021328	1504.1	502.72	0.0017966	0.0021387	670.88	228.74	182.97	72.439	0.0019144	91.268	196.796	370.474	327.470	41.146	209.594	147.505	40.623	47.224	70.706	76.261	45.046	49.734	51.520	55.900	122.124	53.077	-8191	255	
1137.396	1	1	0	0	0.049439	0.2826	0.15794	0.094592	0.077735	0.073511	0.11282	0.25634	0.13799	0.22834	0.24289	0.16549	0.22817	0.23063	0.18116	0.22144	-2.2188	-2.8583	-2.9917	-2.6625	-3.2062	-3.0438	-2.6937	-3.3854	-2.7833	-2.9313	-3.225	-2.2667	-3.1083	-3.1	-2.3875	-3.2417	348.562	294.876	133.199	82.903	159.702	363.035	210.054	211.751	230.889	328.777	305.309	295.299	31.864	39.492	122.619	300.641	0.00014477	0.0032258	0.0005235	1064.4	1.7162e-05	4.7721e-05	980.14	320.54	1.252e-05	4.9979e-05	353.15	117.73	105.04	43.333	2.2239e-05	49.877	0.08952	0.18902	0.052883	1639.5	0.001836	0.0021291	1503.3	503.02	0.0018044	0.0021471	673.5	229.19	183.51	72.552	0.0019081	91.212	305.862	74.743	361.345	41.586	39.430	56.191	40.662	47.283	233.905	380.170	45.472	50.235	51.721	56.136	237.166	52.969	-8191	255	
1137.492	1	1	0	0	0.083791	0.18742	0.22735	0.069324	0.072188	0.31413	0.14855	0.2129	0.091038	0.061235	0.16902	0.18582	0.1744	0.0711	0.092201	0.11351	-2.3646	-2.9583	-2.975	-2.5396	-3.025	-3.0458	-2.6188	-3.2042	-2.6312	-2.6688	-3.3646	-2.5229	-3.2208	-3.1813	-2.7188	-3.1437	211.207	351.578	226.354	385.945	170.030	374.938	68.040	38.916	104.194	63.924	360.823	246.755	278.010	56.590	137.729	232.314	0.00042821	0.0025263	0.001036	1060.8	3.9649e-05	3.2202e-05	975.85	319.74	1.2042e-05	4.4886e-05	353.47	117.85	105.47	43.22	6.2209e-05	49.592	0.089192	0.18714	0.052286	1630.5	0.001833	0.0021035	1497.3	502.66	0.0017969	0.0021315	668.09	227.98	183.07	72.391	0.0018861	91.11	219.131	375.067	141.043	41.614	228.295	242.280	40.344	47.031	220.590	152.993	45.069	50.028	51.496	56.533	156.118	53.362	-8191	255	
1137.588	1	1	0	0	0.2717	0.17531	0.13303	0.16368	0.1341	0.20673	0.086799	0.31344	0.14818	0.04035	0.26398	0.20663	0.2303	0.048205	0.10843	0.11409	-2.3875	-2.6063	-3.2729	-2.8667	-3.0938	-3.0396	-2.7708	-3.2771	-2.8667	-2.6792	-3.2771	-2.7062	-3.0875	-3.2521	-2.6375	-3.2354	169.341	290.591	377.940	315.959	130.362	124.397	64.028	334.123	211.830	119.855	337.589	86.263	377.386	54.992	70.349	349.932	0.00018531	0.0031941	0.00040667	1060.5	1.7749e-05	1.6983e-05	981.22	320.89	1.6025e-05	2.1138e-05	354.82	117.31	105.96	43.337	2.9675e-05	50.022	0.088959	0.18699	0.052096	1634.5	0.001829	0.0020979	1493.6	502.17	0.0017863	0.0021132	667.43	227.76	183.22	72.202	0.0018821	91.172	284.859	141.224	264.181	41.309	257.227	381.733	40.385	47.678	311.210	228.154	45.101	50.704	51.865	56.537	48.031	53.505	-8191	255	
1137.685	1	1	0	0	0.2734	0.085117	0.10161	0.19272	0.035136	0.28341	0.19924	0.14987	0.094945	0.04531	0.13469	0.15215	0.10467	0.2119	0.15301	0.17072	-2.55	-2.4313	-3.1417	-2.7771	-2.95	-3.2458	-2.7375	-3.2125	-2.9292	-2.6479	-3.3312	-2.9229	-2.8479	-3.0938	-2.6146	-3.0083	85.191	30.436	42.033	262.345	244.170	148.901	52.443	335.447	166.588	362.116	275.651	148.265	365.191	56.722	315.539	317.802	0.00042468	0.0012727	0.00033164	1060.8	2.0263e-05	2.7315e-05	981.85	317.04	1.575e-05	7.4369e-06	353.56	117.59	104.37	42.829	3.9658e-05	49.655	0.089123	0.18684	0.051833	1634.7	0.0018308	0.0020963	1494.7	500.74	0.0017993	0.0021242	669.35	229.61	183.63	72.516	0.0019083	91.503	164.065	32.441	272.273	41.637	349.092	357.059	40.650	47.392	186.719	300.535	45.318	49.802	51.881	56.038	166.531	53.571	-8191	255	
1137.805	1	1	0	0	0.20879	0.073764	0.10436	0.066047	0.12611	0.14749	0.18045	0.19041	0.13928	0.16211	0.12161	0.30025	0.059006	0.14366	0.34556	0.17524	-2.6458	-2.6979	-3.05	-2.9688	-2.9083	-3.0812	-2.5938	-3.2125	-3.0021	-2.5229	-3.3417	-2.7667	-2.8604	-3.3354	-2.5708	-2.8771	115.345	201.020	241.370	341.198	43.841	229.326	293.126	347.496	64.463	88.461	360.335	353.247	269.374	340.376	96.242	316.464	0.00077267	0.0011303	0.00060849	1057.7	1.2053e-05	2.4702e-05	972.93	317.56	1.1087e-05	3.0973e-05	350.51	118.19	104.24	42.777	4.0925e-05	49.798	0.089674	0.18686	0.052104	1638.7	0.0018329	0.0020907	1494.4	501.64	0.0017884	0.0021124	667.82	228.93	182.93	72.126	0.0019082	91.565	231.058	349.121	241.018	41.413	241.796	354.791	41.181	47.390	95.702	89.980	45.106	50.184	51.861	56.253	311.920	53.113	-8191	255	
1137.901	1	1	0	0	0.048139	0.077971	0.24803	0.20883	0.12586	0.23918	0.10229	0.25604	0.2049	0.14062	0.15394	0.1556	0.24645	0.065522	0.23863	0.12218	-2.8229	-2.5792	-3.1188	-2.8063	-2.4021	-3.1125	-2.6083	-2.9146	-2.975	-2.6125	-3.1167	-2.9708	-2.7313	-3.2	-2.5917	-2.9167	255.833	107.307	337.573	245.259	282.348	183.477	364.430	50.699	117.017	318.131	384.978	325.452	355.265	37.724	165.423	123.754	0.0001997	0.0030338	0.00096178	1060.4	1.6418e-05	2.3861e-05	977.38	319.17	1.2325e-05	2.1496e-05	350.98	118.3	104.33	42.975	3.9115e-05	49.829	0.089667	0.18716	0.052461	1644	0.0018317	0.0020976	1499.1	502.9	0.0017906	0.0021179	669.35	230.25	183.21	72.077	0.0019049	91.6	149.533	201.338	290.104	42.096	181.813	197.496	40.956	47.079	322.270	76.904	45.122	50.502	52.334	55.799	246.201	53.105	-8191	255	
1137.973	1	1	0	0	0.1953	0.075903	0.091586	0.061675	0.12199	0.19617	0.38883	0.12671	0.11081	0.14079	0.24789	0.10021	0.20911	0.22799	0.20203	0.25644	-2.9437	-2.3854	-2.875	-2.8854	-2.575	-3.2833	-2.6646	-2.7208	-3.2479	-2.6479	-3.1771	-3.0125	-2.6875	-3.2313	-2.7167	-2.7771	337.287	225.933	57.540	329.994	230.943	371.474	336.627	357.835	170.870	268.550	286.376	108.489	376.481	307.142	344.382	91.565	0.0003199	0.0032379	0.00050563	1068.8	2.3332e-05	3.2094e-05	982.81	318.62	1.2308e-05	2.8197e-05	354.17	118.96	105.37	43.369	4.3542e-05	50.126	0.089407	0.18689	0.052311	1645.7	0.0018238	0.0021041	1506.5	504.19	0.0018057	0.0021385	675.46	230.98	184.1	72.652	0.00193	91.968	172.731	31.154	215.965	41.344	223.775	171.295	40.436	46.950	34.569	316.388	45.231	49.834	52.106	56.125	156.914	52.601	-8191	255	
1138.069	1	1	0	0	0.20178	0.21667	0.28652	0.027569	0.097437	0.097364	0.27039	0.093904	0.12622	0.095172	0.19599	0.17508	0.10284	0.069746	0.24988	0.11842	-2.8	-2.6167	-2.875	-3.1125	-2.5229	-3.1021	-2.9583	-3.0479	-3.0625	-2.3833	-3.0542	-3.2479	-2.6688	-3.1813	-3.0667	-2.7667	84.418	181.906	202.760	346.009	250.388	109.095	366.559	29.279	38.535	149.572	243.102	381.082	239.044	303.053	197.835	292.224	0.00024542	0.0024398	0.00093324	1067.5	2.1036e-05	1.9166e-05	982.68	319.9	1.2575e-05	3.6215e-05	352.02	118.59	104.71	42.81	2.7425e-05	49.729	0.090101	0.18923	0.053484	1655.9	0.0018613	0.0021578	1513.3	508.58	0.0018316	0.0021758	679.52	232.25	184.79	72.859	0.001958	92.574	115.427	177.094	210.851	41.638	140.219	119.106	40.614	46.863	269.772	213.509	45.253	49.809	52.072	56.078	71.826	52.968	-8191	255	
1138.190	1	1	0	0	0.14764	0.049466	0.067568	0.22964	0.20404	0.049278	0.22938	0.32106	0.073097	0.10977	0.20534	0.084122	0.12059	0.13336	0.16919	0.21318	-2.8521	-2.5062	-3.0062	-3.2917	-2.5708	-3.075	-3.2833	-2.6729	-3.3604	-2.7417	-3.0667	-3.2354	-2.9417	-3.2062	-3.0646	-2.7417	225.203	233.149	237.049	337.319	195.315	377.900	312.274	39.771	232.049	273.660	315.498	239.837	84.944	267.030	258.215	317.182	0.0004963	0.0020577	0.00083819	1063	2.4207e-05	1.4695e-05	980.94	321.49	9.2723e-06	8.8282e-06	358.33	118.83	104.25	43.321	1.9178e-05	49.693	0.091416	0.1929	0.054326	1665.5	0.0018841	0.0021852	1525.7	510.36	0.0018525	0.0022085	685.38	233.39	185.8	73.388	0.001984	92.877	210.434	368.405	29.716	41.546	337.733	61.134	40.612	46.857	76.060	104.788	45.275	49.878	52.013	55.973	35.200	53.451	-8191	255	
1138.284	1	1	0	0	0.043357	0.34466	0.068215	0.18902	0.090328	0.16076	0.12122	0.18743	0.19985	0.12348	0.054435	0.17623	0.29902	0.03323	0.20986	0.18811	-2.7292	-2.8667	-2.7375	-3.4375	-2.8396	-2.9833	-3.3729	-2.8417	-3.1937	-2.8167	-2.9167	-3.3625	-2.8896	-2.9854	-3.1021	-2.7271	116.609	45.636	127.678	351.389	154.967	257.920	240.307	232.908	60.289	292.330	278.145	214.673	88.140	147.982	189.477	64.756	0.00061529	0.0036209	0.0013691	1067.3	1.758e-05	2.628e-05	984.25	320.04	1.287e-05	5.745e-05	353.58	118.09	104.74	43.351	5.0499e-06	49.384	0.092217	0.19477	0.054662	1667	0.0018933	0.0021954	1528.7	510.01	0.0018522	0.0022111	683.7	233.06	185.95	73.416	0.0019654	92.638	256.379	279.669	101.239	41.876	282.619	239.446	40.446	47.142	334.736	48.694	45.423	50.629	51.495	56.073	70.223	53.186	-8191	255	
1138.380	1	1	0	0	0.0087412	0.09392	0.19208	0.11287	0.34802	0.27337	0.35635	0.16304	0.054383	0.10621	0.19727	0.29567	0.21968	0.15152	0.086144	0.19114	-2.5646	-2.8542	-2.6625	-3.3	-2.5542	-2.7479	-3.3312	-2.6021	-2.9854	-2.8063	-2.6521	-3.2271	-2.7833	-3.0604	-3.0979	-2.55	181.500	257.202	306.992	350.481	64.590	87.384	348.837	59.646	348.679	329.483	381.651	70.736	277.626	44.317	45.947	306.219	0.0006383	0.0026817	0.0012776	1071.7	2.6082e-05	3.0214e-05	983.73	320.44	1.6121e-05	2.142e-05	352.96	118.73	105.15	43.343	1.9215e-05	49.295	0.091922	0.19382	0.054429	1666.1	0.0018945	0.0021962	1527.6	509.55	0.0018647	0.0022209	685.3	233.75	186.22	73.683	0.0019798	92.827	227.534	387.944	82.207	41.667	145.402	36.510	40.681	46.826	299.570	296.428	45.180	49.876	52.293	56.063	376.231	53.174	-8191	255	
1138.476	1	1	0	0	0.07247	0.33545	0.1452	0.11289	0.22413	0.076478	0.16964	0.19657	0.11392	0.26389	0.29258	0.040985	0.19659	0.38143	0.10914	0.034352	-2.7729	-2.9042	-2.5187	-3.1833	-2.6125	-2.8333	-3.2667	-2.5687	-3.1521	-3.0146	-2.5479	-3.2125	-2.6521	-2.8187	-3.0604	-2.4875	204.625	106.660	377.583	341.260	37.632	320.734	323.328	330.419	214.792	141.933	313.547	186.425	344.016	30.468	191.883	299.492	0.00059511	0.00077334	0.00099875	1071.2	2.7743e-05	3.694e-05	984.7	320.11	1.595e-05	2.2869e-05	354.69	119.24	104.91	43.353	1.1599e-05	49.941	0.093017	0.19587	0.054602	1672.9	0.0019175	0.0022122	1532.2	511.56	0.0018832	0.0022372	684.56	234.76	187.26	73.989	0.0019814	93.197	222.435	57.831	290.985	41.293	95.125	59.180	40.767	46.792	139.712	78.510	44.954	50.104	52.164	55.380	155.252	53.199	-8191	255	
1138.597	1	1	0	0	0.068222	0.16304	0.092624	0.19464	0.14137	0.17443	0.13633	0.15263	0.10628	0.015276	0.23898	0.17786	0.04994	0.092095	0.061446	0.1456	-2.8521	-2.9354	-2.4729	-3.3625	-2.9688	-2.7083	-3.3646	-2.8083	-2.9771	-3.1375	-2.6542	-3.1437	-2.9813	-2.7479	-3.1688	-2.7542	259.928	323.286	198.879	352.792	325.948	151.898	367.072	258.699	316.375	324.903	31.224	82.426	374.121	315.802	215.870	321.794	0.00013362	0.0004378	0.0014278	1070.5	6.2501e-05	4.6084e-05	982.73	319.69	8.8313e-06	1.7973e-05	354.17	119.61	105.81	42.813	7.7845e-06	49.871	0.09341	0.1964	0.054588	1670.6	0.0019122	0.002205	1525.3	511.04	0.0018748	0.0022206	682.92	233.78	187.2	73.773	0.0019768	93.338	194.613	83.130	67.086	41.354	236.093	280.986	40.548	47.068	254.600	92.058	44.598	50.236	51.643	55.817	209.815	53.135	-8191	255	
1138.669	1	1	0	0	0.087425	0.13189	0.18066	0.23051	0.04917	0.20981	0.20495	0.15024	0.077989	0.15699	0.1612	0.052608	0.20557	0.31854	0.17221	0.37916	-2.6021	-2.9625	-2.55	-3.2375	-2.8646	-2.6667	-3.2146	-2.8229	-2.9354	-3.2208	-2.3729	-3.1979	-3.2375	-2.7271	-3.2062	-2.8646	342.951	239.765	224.094	310.161	315.245	70.501	331.373	331.547	269.980	137.559	375.577	304.406	40.410	294.430	276.351	344.004	0.00023099	0.0013225	0.00025056	1075.8	2.2013e-06	3.8498e-05	994.48	318.87	1.454e-05	4.4429e-05	353.46	118.98	104.98	43.613	1.5123e-05	50.193	0.09374	0.1962	0.054569	1675.2	0.0019193	0.0022093	1532.2	512.17	0.0018805	0.0022178	685.33	234.72	187.42	73.932	0.0019841	93.886	229.679	226.793	144.849	41.497	63.970	157.030	40.457	47.169	385.176	72.268	45.295	49.102	51.596	55.989	300.020	53.502	-8191	255	
1138.765	1	1	0	0	0.062931	0.057119	0.518	0.14939	0.15399	0.28332	0.11719	0.46274	0.10391	0.18434	0.25552	0.22989	0.25516	0.24535	0.1627	0.19255	-2.2021	-3.2104	-2.3729	-3.1896	-2.8854	-2.7687	-3.45	-2.9854	-2.6437	-3.1646	-2.6521	-3.0375	-3.1771	-2.5062	-3.3	-2.8917	114.644	349.430	90.960	354.945	33.966	309.546	278.120	320.218	246.989	239.325	382.760	55.403	320.498	303.273	236.899	355.224	0.00041606	0.0018825	0.00057765	1072.4	3.1567e-05	3.1677e-05	986.95	319.68	1.0066e-05	2.1262e-05	354.79	117.73	104.99	43.13	1.2065e-05	50.181	0.093863	0.1962	0.054799	1682	0.0019348	0.002217	1538.2	514.47	0.0019051	0.0022445	688.22	236.74	188.31	74.222	0.002013	94.563	247.683	104.235	62.264	41.537	136.677	270.870	40.721	47.200	315.192	335.390	45.678	49.791	52.285	55.956	209.967	52.970	-8191	255	
1138.886	1	1	0	0	0.12462	0.19915	0.076241	0.16869	0.39035	0.15211	0.41395	0.42848	0.1966	0.19759	0.10061	0.07894	0.29722	0.27489	0.058385	0.35835	-2.1833	-3.2125	-2.75	-2.8583	-3.1562	-2.6125	-3.1542	-2.8979	-2.75	-3.1458	-2.6188	-3.1125	-3.2542	-2.6917	-3.1208	-3.1229	296.284	301.747	361.140	345.250	343.941	335.554	283.132	342.296	30.911	364.322	310.605	387.443	369.134	90.801	231.811	346.208	0.00034003	0.00077156	0.0011586	1067.3	1.1005e-05	4.6141e-05	989.31	318.61	9.4514e-06	3.9874e-05	350.37	119.13	104.49	43.258	1.4462e-05	49.525	0.095015	0.19897	0.055864	1690.9	0.0019544	0.0022345	1542.4	516.33	0.0019183	0.0022552	690.98	237.19	188.46	74.435	0.0020279	94.42	175.670	97.920	193.891	40.933	226.356	275.922	40.780	47.382	176.572	122.243	46.132	50.036	51.935	55.760	164.919	53.578	-8191	255	
1138.982	1	1	0	0	0.25494	0.011383	0.13496	0.22456	0.054661	0.10331	0.3241	0.15996	0.11763	0.061511	0.062896	0.11449	0.26447	0.14093	0.059796	0.28618	-2.1708	-3.3229	-2.6854	-2.7396	-3.1375	-2.6271	-3.1646	-2.8083	-2.5104	-3.2042	-2.7042	-2.975	-3.4583	-2.3771	-2.9271	-3.1521	260.958	272.183	190.244	374.920	340.229	130.697	342.462	242.574	148.616	191.638	80.912	326.356	71.081	327.541	275.809	332.794	0.00059602	0.0027119	0.00024937	1062.2	5.967e-05	3.9359e-05	990.55	322.82	4.6183e-06	1.8802e-05	355.81	118.22	104.62	43.239	4.2423e-05	49.817	0.095537	0.19883	0.056048	1689.8	0.001949	0.002245	1547.7	518.72	0.0019131	0.0022615	695.71	237.7	188.64	74.351	0.002036	94.678	201.111	278.954	64.863	41.468	199.996	277.841	40.451	47.550	153.263	195.155	44.841	49.208	51.836	55.897	162.965	53.965	-8191	255	
1139.078	1	1	0	0	0.20291	0.11119	0.19298	0.032498	0.12871	0.15877	0.25186	0.13901	0.24943	0.084844	0.19138	0.29277	0.44348	0.12007	0.068491	0.36605	-2.0146	-3.325	-2.7042	-2.7854	-3.2917	-2.4833	-2.9813	-3.2687	-2.7083	-3.0375	-3.0792	-2.8042	-3.2438	-2.8167	-3.0375	-3.1	174.535	41.025	153.518	102.372	159.507	373.006	95.589	39.962	238.467	100.527	375.182	340.836	50.279	309.100	144.690	328.225	0.00016987	0.0030517	0.00090053	1075	4.3326e-05	1.8817e-05	991.71	318.65	2.432e-05	2.5525e-05	353.93	119.94	105.75	43.489	1.3072e-05	49.62	0.094559	0.19929	0.055828	1687.3	0.0019382	0.0022335	1548.1	516.33	0.0019005	0.0022548	694.34	237.82	188.5	74.475	0.002034	94.448	164.201	357.870	98.308	41.339	149.405	117.586	40.701	47.175	233.815	119.940	44.747	50.563	51.760	55.686	236.304	53.266	-8191	255	
1139.197	1	1	0	0	0.051735	0.15568	0.12381	0.26195	0.1426	0.1704	0.19429	0.3517	0.19297	0.23787	0.17818	0.11768	0.050863	0.45446	0.13211	0.18262	-2.2479	-3.3833	-2.775	-2.8875	-3.1771	-2.6979	-2.7958	-3.1271	-2.6729	-3.1	-2.9958	-2.6083	-3.4583	-2.6521	-2.7542	-3.4583	98.294	135.016	146.732	316.471	210.421	330.953	270.167	385.610	178.418	131.938	360.937	348.144	332.063	371.170	40.221	298.062	0.00048083	0.0017128	0.0001598	1074	1.5505e-05	3.7267e-05	986.36	319.74	2.6871e-05	1.2497e-05	352.71	117.63	105.03	43.382	2.3564e-06	49.941	0.094432	0.19914	0.055925	1694.7	0.0019515	0.0022558	1550.6	518.02	0.0019144	0.0022749	695.75	237.15	188.63	74.712	0.0020548	94.66	216.710	52.688	187.651	41.170	322.953	84.929	40.263	47.072	107.846	93.041	45.500	49.920	52.108	56.282	337.574	53.508	-8191	255	
1139.268	1	1	0	0	0.16943	0.22802	0.20207	0.17681	0.17032	0.13251	0.10125	0.10626	0.1284	0.14245	0.17711	0.23115	0.30139	0.042221	0.24715	0.19208	-2.075	-2.7396	-3.0708	-2.7646	-3.1292	-2.6417	-2.8667	-3.2396	-2.6	-2.9292	-3.0479	-2.6479	-3.3	-2.8625	-2.7208	-3.4292	90.123	338.037	334.888	53.789	331.814	96.119	243.890	312.873	328.773	60.032	36.729	374.421	373.554	366.867	238.575	367.401	0.00016301	0.0030908	0.0012318	1068.7	3.4511e-05	5.5563e-05	986.85	318.26	1.8525e-05	1.6009e-05	351.76	118.75	104.37	42.835	2.9705e-05	50.024	0.095413	0.20174	0.056496	1690.3	0.0019619	0.0022595	1548.9	516.35	0.001904	0.0022751	691.74	235.94	187.94	74.321	0.0020259	94.278	250.732	193.754	78.850	41.142	316.285	249.388	40.204	47.558	104.323	143.996	44.914	49.798	51.788	56.220	248.727	53.439	-8191	255	
1139.365	1	1	0	0	0.029901	0.28054	0.09287	0.16259	0.077926	0.20053	0.06615	0.024143	0.25151	0.067626	0.094262	0.11146	0.2677	0.29548	0.28314	0.26053	-2.1688	-2.8937	-3.1167	-2.7229	-3.1188	-2.9979	-2.8521	-3.2271	-2.625	-2.9604	-3.0833	-2.5979	-3.2458	-3.1063	-2.9271	-3.2	190.862	187.363	89.713	121.888	153.501	219.183	373.712	308.215	230.078	146.500	347.015	298.351	340.619	327.545	109.226	293.044	0.00043246	0.0028677	0.001598	1069.6	1.1344e-05	3.2792e-05	988.16	318.43	2.5613e-05	3.7587e-05	353.87	119.05	104.54	43.319	2.7369e-05	49.388	0.094444	0.20003	0.05581	1684.5	0.0019485	0.0022501	1545.5	515.23	0.0019124	0.0022744	694.8	236.3	188.61	74.527	0.0020239	94.17	158.286	225.099	177.909	41.066	181.023	145.876	40.757	46.844	210.414	279.467	44.998	49.684	51.652	55.867	168.358	53.396	-8191	255	
1139.485	1	1	0	0	0.22981	0.22524	0.12793	0.29343	0.14152	0.076681	0.083358	0.07402	0.13651	0.15675	0.095829	0.28374	0.21882	0.18402	0.3072	0.083005	-2.1917	-2.8708	-3.1	-2.6875	-2.9167	-3.0479	-2.9021	-3.1833	-2.8875	-2.7812	-3.3792	-2.5875	-3.0458	-3.1354	-2.6333	-3.2104	81.670	369.705	115.799	350.858	263.403	132.891	350.413	101.813	290.946	81.008	324.955	64.822	313.766	327.826	198.199	358.813	0.00011871	0.0033286	0.00037762	1068.8	1.5303e-05	2.6826e-05	982.99	318.9	2.0504e-05	4.0034e-05	350	118.11	104.66	42.75	5.8145e-05	49.552	0.094702	0.19943	0.055549	1686	0.0019473	0.0022485	1539.3	514.22	0.0018959	0.0022484	687.9	234.89	187.48	73.809	0.001995	93.54	178.286	247.943	233.058	41.436	229.483	95.328	40.606	47.609	62.433	223.928	45.040	50.256	51.811	56.112	219.919	53.339	-8191	255	
1139.581	1	1	0	0	0.2137	0.22869	0.19885	0.24282	0.15701	0.1047	0.11519	0.27949	0.081943	0.061529	0.25575	0.1071	0.11093	0.083467	0.18632	0.14484	-2.2604	-2.7687	-3.2146	-2.7354	-3.0208	-3.1229	-2.8396	-3.3583	-2.7146	-2.7208	-3.3812	-2.7021	-3.0333	-3.2062	-2.7229	-3.3042	201.321	129.296	361.583	361.373	124.965	187.555	353.830	344.120	105.124	342.662	328.361	246.330	261.209	376.149	205.087	244.056	0.00023422	0.00090673	0.00074829	1061.1	2.9262e-05	2.8982e-05	988.79	319.64	3.1239e-05	1.4753e-05	352.87	118.2	104.31	42.999	3.0143e-05	49.133	0.093915	0.19863	0.055088	1677.4	0.0019339	0.0022294	1535.6	512.23	0.0018933	0.0022347	686.16	233.48	186.49	73.27	0.0019757	92.563	197.097	318.167	89.858	41.469	246.574	252.204	40.479	47.348	148.591	141.006	44.648	50.363	51.616	55.956	256.580	53.565	-8191	255	
1139.677	1	1	0	0	0.18184	0.04465	0.11525	0.50977	0.10711	0.12246	0.064745	0.17681	0.071397	0.091841	0.17467	0.12997	0.19501	0.11553	0.13218	0.41399	-2.65	-2.6562	-3.2562	-2.6458	-3.1188	-3.3208	-2.6833	-3.1437	-2.7708	-2.5729	-3.425	-2.6708	-2.8229	-3.2313	-2.6292	-2.8771	163.274	121.119	234.847	385.688	77.440	344.339	79.078	378.900	48.688	108.819	337.094	81.547	339.443	54.190	40.756	355.052	0.0002043	0.002051	0.0011106	1065.7	6.494e-05	2.682e-05	982.29	319.3	8.3588e-06	5.1538e-05	353.09	117.84	103.7	42.54	9.2508e-06	49.413	0.093067	0.19461	0.054082	1664	0.0018925	0.002169	1515.5	506.96	0.0018552	0.0021836	676.76	232.2	184.68	72.644	0.0019373	91.869	255.838	272.517	202.428	41.282	186.621	316.035	40.855	47.133	299.112	333.054	45.399	50.174	51.772	56.076	121.268	52.985	-8191	255	
1139.774	1	1	0	0	0.10613	0.17199	0.16631	0.28653	0.1744	0.15179	0.022047	0.15999	0.17955	0.16054	0.13708	0.24526	0.18325	0.19586	0.049755	0.32951	-2.7125	-2.5708	-3.1937	-2.825	-2.7542	-3.2833	-2.6917	-3.0875	-3.1917	-2.5458	-3.4458	-2.8187	-3.0479	-3.3604	-2.4938	-2.9625	183.568	325.254	50.756	327.915	274.538	292.503	81.798	71.729	388.433	277.323	78.198	91.507	113.404	127.842	226.651	32.004	0.00086604	0.0017859	0.00080504	1068.2	6.6395e-06	9.1299e-06	981.7	314.97	1.5629e-05	4.3364e-05	352.31	118.32	103.67	42.528	1.5e-05	49.43	0.091315	0.19098	0.053168	1655	0.0018662	0.0021294	1509.8	504	0.0018264	0.0021557	672.35	230.36	183.63	72.241	0.001933	91.834	235.482	343.827	292.187	41.717	275.636	342.956	40.739	47.140	329.956	212.671	45.762	50.037	51.422	56.515	337.025	53.506	-8191	255	
1139.845	1	1	0	0	0.20408	0.06297	0.11684	0.069049	0.10672	0.28961	0.16421	0.17545	0.12533	0.27954	0.1182	0.067656	0.13853	0.25277	0.21492	0.050028	-2.6854	-2.4229	-2.7646	-3.1417	-2.6479	-3.1	-2.8583	-3.0604	-3.1646	-2.4625	-3.4208	-2.9146	-2.9125	-3.2708	-2.7542	-3.0438	353.694	328.387	156.710	367.832	70.216	124.318	281.299	113.228	324.068	247.493	101.550	246.532	375.946	318.980	115.836	224.238	0.00054352	0.0019101	0.00050017	1065.2	6.7933e-06	2.6725e-05	987.43	316.88	1.9762e-05	1.2609e-05	351.1	116.51	102.91	42.007	2.0973e-06	48.847	0.091181	0.19003	0.053437	1658	0.0018737	0.0021388	1514.6	504.63	0.0018314	0.0021658	674.64	230.3	183.16	71.752	0.0019393	91.518	216.470	170.374	268.897	41.358	285.197	216.462	40.481	47.037	184.045	191.545	45.890	50.065	51.798	56.107	327.041	53.070	-8191	255	
1139.966	1	1	0	0	0.12305	0.14186	0.38096	0.11704	0.027231	0.075333	0.29716	0.35178	0.14513	0.067902	0.3157	0.42383	0.14123	0.30068	0.17512	0.12491	-2.7313	-2.5917	-3.1333	-2.9688	-2.7438	-3.275	-2.6521	-2.9	-3.3479	-2.6458	-3.2583	-3.0354	-2.7896	-3.4292	-2.7729	-2.7354	227.496	317.339	145.385	38.065	63.786	165.383	347.748	350.927	199.790	121.510	331.376	112.576	227.581	340.958	129.910	34.106	0.00066089	0.0017884	0.00097438	1069	9.7549e-06	5.459e-05	979.32	317.26	1.6708e-05	1.952e-05	353.12	115.43	102.92	41.936	3.0631e-05	48.921	0.091146	0.19082	0.053653	1659.4	0.0018725	0.0021503	1514.5	504.77	0.001828	0.0021562	673.6	229.54	182.37	71.472	0.0019286	91.062	250.631	386.157	66.310	41.199	242.355	378.742	40.653	46.912	324.455	311.590	44.643	50.472	51.973	56.377	220.325	52.755	-8191	255	
1140.062	1	1	0	0	0.28562	0.221	0.090815	0.29618	0.1368	0.26077	0.40968	0.22877	0.21435	0.12593	0.21508	0.22573	0.18745	0.09013	0.20729	0.042573	-2.8042	-2.3937	-2.9417	-3.1396	-2.5833	-3.1229	-2.9729	-2.8333	-3.2021	-2.6792	-3.1	-2.9437	-2.5792	-3.3375	-2.7375	-2.6333	243.600	384.749	387.314	34.389	351.348	131.545	387.574	342.508	133.429	47.245	355.642	344.033	87.193	123.477	222.344	192.933	0.00059319	0.0018876	0.0017135	1064.3	5.8348e-06	1.1936e-05	972.77	313.86	1.1633e-05	2.7174e-05	349.07	117.29	102.95	41.871	4.277e-05	49.005	0.089708	0.18818	0.052883	1644.1	0.0018382	0.0021175	1503.7	499.6	0.0017988	0.0021422	671.03	229.53	182.75	72.042	0.0019558	91.802	134.992	95.172	101.514	41.684	238.708	341.427	40.649	47.012	41.480	197.936	45.333	50.142	51.833	55.999	156.966	52.854	-8191	255	
1140.158	1	1	0	0	0.14711	0.092136	0.17221	0.056181	0.058094	0.22648	0.23539	0.27905	0.18461	0.13	0.17736	0.068202	0.48357	0.17893	0.25807	0.083047	-2.8396	-2.6	-2.6104	-3.275	-2.6354	-3.1021	-3.0604	-2.8271	-3.3063	-2.8854	-2.7958	-2.9958	-2.5021	-3.0625	-3.0417	-2.8625	389.453	377.022	241.063	38.838	32.052	148.973	362.262	298.822	319.756	291.813	363.064	284.375	327.680	349.681	198.215	47.433	0.00035278	0.0025934	0.0016553	1060.7	3.4804e-05	4.4334e-05	974.65	315.51	4.6932e-05	1.4892e-05	349.02	117.26	103.17	42.058	2.242e-05	49.062	0.091731	0.19359	0.054519	1662.9	0.0018863	0.0021789	1522.9	507.79	0.0018414	0.0021837	677.89	231.07	183.14	72.23	0.0019538	91.563	134.664	230.239	107.032	41.589	321.469	246.440	40.917	47.467	176.974	357.897	45.247	50.351	52.033	56.229	243.092	53.334	-8191	255	
1140.277	1	1	0	0	0.19928	0.10925	0.16857	0.083522	0.12822	0.16388	0.081561	0.27801	0.062505	0.25336	0.18241	0.29346	0.18207	0.2484	0.26662	0.16311	-2.7896	-2.6729	-2.7896	-3.2792	-2.4979	-3.2125	-3.0271	-2.7854	-3.3729	-2.6896	-2.8021	-3.3563	-2.7896	-3.0417	-3.0833	-2.5812	297.958	378.621	105.828	261.801	149.834	168.444	70.259	351.833	144.618	304.384	140.784	373.835	242.831	389.013	387.709	152.418	0.00012223	0.004145	0.00084008	1058.9	8.9578e-06	3.3157e-05	975.3	316.16	2.6709e-05	2.7364e-05	351.89	117.39	103.49	42.204	6.751e-06	48.965	0.091087	0.19248	0.054255	1658	0.001889	0.0021901	1523.7	507.73	0.001869	0.0022272	684.14	233.05	185.85	73.291	0.0020055	92.811	326.049	194.658	312.207	42.030	359.843	107.052	41.292	47.097	325.245	132.796	45.141	49.875	52.078	56.205	37.514	53.011	-8191	255	
1140.373	1	1	0	0	0.067692	0.18185	0.25005	0.31281	0.25803	0.11999	0.032475	0.1023	0.21821	0.10576	0.099004	0.10187	0.26237	0.12287	0.18941	0.063561	-2.6625	-3.0062	-2.6312	-3.3812	-2.7875	-2.7896	-3.1625	-2.8479	-3.1479	-2.9646	-2.7792	-3.325	-2.7271	-3.0292	-3.1	-2.7042	296.713	159.583	253.406	85.094	134.084	54.449	60.914	361.530	176.583	201.799	66.224	133.200	33.635	336.274	101.698	359.942	0.00048338	0.0031792	0.00053912	1056.1	1.3009e-05	3.6909e-05	978.99	316.48	2.0345e-05	3.5671e-05	351.03	117.98	103.86	42.775	2.132e-05	49.02	0.093873	0.19844	0.055591	1673.4	0.0019301	0.0022304	1533.9	510.85	0.0018987	0.0022609	689.32	235.4	187.67	74.118	0.0020405	93.717	166.989	354.253	224.748	41.510	312.522	222.197	40.976	46.848	297.227	218.455	44.742	49.831	51.662	55.480	72.651	53.163	-8191	255	
1140.469	1	1	0	0	0.34755	0.091903	0.059898	0.14345	0.18792	0.04571	0.35393	0.14123	0.23333	0.085459	0.26534	0.32863	0.17151	0.36799	0.17444	0.043932	-2.9437	-2.7833	-2.7583	-3.4396	-2.5812	-2.9792	-3.1771	-2.7104	-2.9	-3.0938	-2.9458	-3.175	-2.7354	-2.9458	-3.0521	-2.5312	374.059	229.543	259.811	304.881	260.527	154.638	354.204	325.379	111.785	116.171	44.500	63.710	48.477	29.921	185.732	273.456	0.00065566	0.0031236	0.00096269	1068.9	3.7049e-05	5.2417e-05	980.72	318.76	1.9126e-05	5.9552e-05	351.47	118.21	104.74	42.764	1.9923e-05	49.852	0.096037	0.20254	0.056646	1690.6	0.001986	0.0022965	1549.7	516.57	0.0019403	0.0023052	693.14	236.99	189.01	74.356	0.0020471	94.321	235.659	209.947	310.813	41.540	257.962	202.334	40.452	46.741	220.757	128.145	44.877	50.124	51.344	55.588	113.454	52.256	-8191	255	
1140.566	1	1	0	0	0.14831	0.37263	0.27051	0.29628	0.13512	0.23397	0.11712	0.061458	0.25261	0.073802	0.20242	0.23256	0.070854	0.064502	0.082222	0.09285	-2.5271	-3.0958	-2.5958	-3.4437	-2.6292	-2.7313	-3.3812	-2.6333	-3.0875	-3.0604	-2.7146	-3.1625	-2.9771	-2.9437	-3.1292	-2.6562	31.204	332.085	355.550	347.373	194.094	385.036	181.912	223.695	262.117	379.148	378.723	355.894	301.456	313.816	356.829	307.402	0.0005644	0.0019228	0.00079468	1071.5	4.6806e-05	2.1154e-05	991.84	321.51	2.3864e-05	1.3111e-05	352.22	119.43	104.38	42.717	1.9226e-05	49.719	0.096392	0.20292	0.056402	1690.7	0.0019761	0.0022796	1549	516.68	0.0019423	0.0022993	695.23	238.35	189.61	74.637	0.0020506	94.698	198.589	349.850	220.157	40.967	307.128	382.491	40.353	46.775	119.639	222.412	45.100	49.744	51.783	55.589	43.673	53.236	-8191	255	
1140.662	1	1	0	0	0.24782	0.28395	0.35763	0.24808	0.27171	0.21004	0.16609	0.2443	0.15261	0.065549	0.2323	0.11289	0.26711	0.33087	0.10044	0.19896	-2.3688	-3.1708	-2.6813	-3.2687	-2.7771	-2.6792	-3.3354	-2.7438	-2.8833	-3.0729	-2.5187	-3.2458	-2.8771	-2.5917	-3.2562	-2.675	371.031	138.373	386.944	356.467	374.168	311.228	272.970	308.558	290.141	286.999	332.914	232.802	62.711	211.320	376.750	380.748	0.00065964	0.0029156	0.0014638	1066.9	1.5419e-05	2.3814e-05	987.84	316.88	3.3334e-05	2.9415e-05	352.27	117.07	104.58	42.941	2.3798e-05	49.985	0.097218	0.20342	0.056751	1695.1	0.0019977	0.002297	1552.8	519.44	0.0019702	0.0023314	697.98	239.4	190.35	74.731	0.002069	95.02	229.866	350.100	68.627	41.560	209.141	223.411	40.576	47.207	231.279	275.201	45.565	49.582	51.925	55.321	312.096	53.132	-8191	255	
1140.758	1	1	0	0	0.19044	0.12719	0.32616	0.15209	0.10447	0.17559	0.01107	0.11826	0.3069	0.0094092	0.15928	0.25615	0.15268	0.19598	0.087307	0.1878	-2.5229	-3.2417	-2.3937	-3.2229	-3.1271	-2.4979	-3.4854	-2.9625	-2.7979	-3.0479	-2.6	-3.0312	-2.9979	-2.8104	-3.2292	-2.775	281.292	363.084	254.726	203.903	53.204	221.164	295.351	76.174	57.518	368.705	304.152	264.387	371.221	373.386	78.026	228.699	0.00044398	0.002489	0.00053222	1072.2	4.8266e-05	8.2028e-06	992.68	316.61	3.9329e-05	5.5813e-05	352.72	118.4	103.73	42.871	1.7018e-05	49.46	0.097523	0.20411	0.056944	1702.9	0.0020069	0.0023036	1553.6	519.11	0.001967	0.002321	697.36	239.29	190.1	74.465	0.0020603	95.04	198.468	387.220	79.968	41.170	111.489	119.337	40.197	47.320	212.851	64.245	44.429	49.883	51.896	55.497	360.951	53.078	-8191	255	
1140.878	1	1	0	0	0.42835	0.18489	0.12713	0.16158	0.16131	0.1849	0.09248	0.12165	0.092318	0.042207	0.24165	0.16285	0.089984	0.15521	0.14452	0.19726	-2.3479	-3.1479	-2.6688	-3.0938	-3.1479	-2.5854	-3.3708	-2.9458	-2.5333	-3.325	-2.8063	-3.0833	-3.2229	-2.7021	-3.2042	-3.1146	318.761	382.875	236.703	369.771	312.783	348.999	269.549	255.562	273.915	225.406	286.831	278.531	314.568	339.368	130.609	252.572	0.00054958	0.0010439	0.00049115	1074.7	4.4045e-05	5.7201e-06	990.87	317.57	1.0962e-05	1.8873e-05	355.83	117.87	104.56	42.932	3.1207e-05	49.609	0.09708	0.20384	0.056779	1702.4	0.0019957	0.0022824	1554	518.65	0.0019556	0.0023013	698.06	239.1	189.26	74.206	0.0020553	94.675	243.533	382.358	344.239	41.591	75.491	358.603	40.124	47.180	179.430	188.623	45.284	49.419	52.054	55.662	176.642	53.883	-8191	255	
1140.975	1	1	0	0	0.15484	0.076819	0.15015	0.25971	0.20264	0.19084	0.21889	0.098667	0.28031	0.43004	0.19736	0.30367	0.13908	0.13284	0.33851	0.075003	-2.0417	-3.2438	-2.6146	-2.8479	-3.4104	-2.3896	-3.3792	-3.0042	-2.6354	-3.2062	-2.6437	-2.7292	-3.3271	-2.4896	-3.0229	-3.1208	262.360	233.940	273.809	317.910	366.340	299.545	315.218	327.810	186.844	82.754	317.239	344.899	337.840	111.378	211.581	318.959	6.7011e-05	0.0029904	0.00087455	1067.5	6.5234e-06	3.6361e-05	988.65	316.42	1.4408e-05	2.9572e-05	352.66	118.13	104.08	42.439	9.2913e-06	49.607	0.096077	0.20035	0.056187	1693.5	0.0019614	0.0022554	1550.4	517.43	0.0019343	0.0022887	698.75	239.04	189.04	74.423	0.0020715	95.297	83.716	170.895	109.162	41.194	76.704	142.102	40.949	47.252	197.343	38.559	45.191	49.841	51.995	55.602	102.351	53.373	-8191	255	
1141.071	1	1	0	0	0.18746	0.20039	0.1082	0.096539	0.36282	0.22342	0.31371	0.16375	0.21746	0.17564	0.10598	0.17655	0.22828	0.12998	0.059858	0.11503	-2.1875	-3.1146	-2.75	-2.9229	-3.3583	-2.7917	-3.2021	-3.0521	-2.6875	-3.2104	-2.8875	-2.9229	-3.2167	-2.65	-3.1458	-3.1417	191.615	215.325	152.299	333.786	364.651	258.024	263.728	289.133	263.280	359.986	385.145	56.604	329.161	184.911	270.400	95.217	0.00041275	0.0027602	0.0011039	1070	3.4065e-05	9.7858e-06	985.7	316.61	1.5966e-05	8.3567e-06	348.23	117.49	103.79	42.468	1.2805e-05	49.532	0.097014	0.20346	0.057327	1704.6	0.0019926	0.0023024	1561.9	519.83	0.0019587	0.0023195	698.89	239.06	189.49	74.463	0.0020826	95.021	188.830	335.321	50.250	41.627	193.751	155.288	40.514	46.794	182.297	132.712	45.239	49.614	52.047	56.509	183.757	53.205	-8191	255	
1141.142	1	1	0	0	0.07897	0.10512	0.37056	0.24358	0.23252	0.34303	0.21846	0.1725	0.0022351	0.14727	0.099008	0.30759	0.24464	0.36553	0.3231	0.19436	-2.1958	-2.9562	-2.8604	-2.7583	-3.2687	-2.7667	-2.8604	-3.1667	-2.5812	-3.0563	-3.0771	-2.6083	-3.3063	-2.7958	-2.6271	-3.2	164.187	86.913	211.712	372.330	58.896	107.165	294.265	332.541	264.717	226.476	369.865	369.762	382.028	336.687	302.917	323.470	0.00081301	0.00062441	0.0011491	1065.1	2.1779e-05	3.1255e-05	989.03	318.21	4.2802e-06	1.4982e-05	352.63	117.97	103.88	42.64	4.7953e-05	49.356	0.09709	0.20433	0.057574	1706.4	0.0019882	0.0022985	1562.5	519.78	0.0019497	0.0023143	700.89	238.97	189.4	74.467	0.0020729	94.53	178.832	200.191	371.309	41.110	67.701	203.950	40.687	46.789	141.721	167.838	45.047	49.205	51.601	55.862	323.997	52.699	-8191	255	
1141.261	1	1	0	0	0.17041	0.27176	0.029225	0.2506	0.11186	0.024867	0.14473	0.29425	0.23461	0.18498	0.17181	0.14686	0.17168	0.11384	0.28606	0.28181	-2.0854	-2.9396	-2.9271	-2.6625	-3.3292	-2.7917	-2.9354	-3.3625	-2.5958	-2.9604	-3.0479	-2.7938	-3.2333	-2.8521	-2.6688	-3.1521	188.336	158.027	270.832	379.867	216.838	215.567	130.594	328.130	266.695	66.445	44.588	382.205	262.812	375.826	253.671	285.639	0.00015524	0.0029265	0.00049856	1074.8	1.9865e-05	1.5231e-05	986.8	318.96	1.6238e-05	2.2629e-05	355.07	117.1	102.91	42.766	3.7099e-05	49.479	0.096346	0.20392	0.057153	1701.9	0.0019752	0.0022803	1556	516.17	0.00192	0.0022852	695.64	236.59	187.66	74.202	0.0020558	94.438	172.148	366.541	298.456	41.203	267.501	121.114	40.964	47.399	367.716	355.008	45.275	50.171	52.030	56.318	327.277	53.191	-8191	255	
1141.357	1	1	0	0	0.23586	0.071812	0.099462	0.0056177	0.16833	0.040834	0.082531	0.21499	0.21864	0.10692	0.14665	0.16705	0.16976	0.23674	0.21667	0.35247	-2.2979	-2.9146	-2.9979	-2.6521	-3.1833	-2.8208	-2.9062	-3.2917	-2.5938	-2.9	-3.2771	-2.675	-3.0104	-2.9188	-2.6417	-3.3187	386.563	138.733	298.268	243.782	232.618	325.209	174.053	370.304	123.183	251.707	269.920	337.133	335.230	319.312	189.954	324.488	0.00086771	0.0036125	0.0012008	1072	2.92e-05	4.183e-05	989.09	318.38	1.2223e-05	5.7083e-05	351.03	117.12	103.78	42.578	3.3889e-05	49.234	0.095983	0.20332	0.057015	1697.5	0.0019853	0.0022978	1562.4	518.9	0.0019456	0.002319	699.06	237.69	188.7	74.493	0.002061	94.012	219.235	63.841	194.736	41.492	312.961	187.984	40.618	46.828	57.590	303.959	45.120	50.251	51.922	56.038	330.990	53.245	-8191	255	
1141.454	1	1	0	0	0.17311	0.12097	0.11066	0.097949	0.21108	0.3276	0.049806	0.094805	0.18747	0.041955	0.16232	0.42087	0.22738	0.22383	0.28653	0.30436	-2.4521	-2.6417	-2.9208	-2.5563	-2.8521	-2.7208	-2.8167	-3.2458	-2.6167	-2.7875	-3.175	-2.5083	-3.1958	-3.05	-2.5021	-3.2625	167.596	271.519	196.622	91.625	139.301	113.212	301.138	215.495	193.759	205.565	314.735	332.298	325.758	250.173	267.394	307.760	8.2627e-05	0.00086044	0.00055427	1071.3	1.2107e-05	5.2417e-06	994.2	319.59	2.643e-05	4.545e-05	351.82	118.16	104.6	42.592	3.8738e-05	49.504	0.095894	0.2025	0.056586	1692.8	0.0019701	0.0022876	1554.7	516.95	0.0019372	0.0023066	697.63	237.45	189.47	74.373	0.0020512	94.063	81.046	39.904	309.770	41.455	326.182	30.841	40.116	47.046	202.529	161.294	44.612	49.448	51.710	55.930	146.453	53.063	-8191	255	
1141.550	1	1	0	0	0.13023	0.033549	0.11878	0.34065	0.066467	0.13424	0.31073	0.22348	0.070864	0.076409	0.30315	0.11017	0.15528	0.26421	0.1046	0.22873	-2.4125	-2.7354	-3.0354	-2.7062	-3.0229	-2.9646	-2.6604	-3.1917	-2.6896	-2.6458	-3.1354	-2.6417	-3.1625	-3.0396	-2.4667	-3.1958	385.198	191.420	138.659	330.546	99.646	285.170	268.775	326.123	121.887	193.235	354.736	60.224	270.232	330.314	90.300	202.806	0.00022684	0.0011487	0.00063559	1074.5	3.0958e-05	2.329e-05	995.35	319.71	3.2658e-05	2.8845e-05	353.68	118.1	104.41	42.616	2.9848e-05	49.377	0.095695	0.20145	0.05603	1687.3	0.0019552	0.0022505	1540.7	513.6	0.0019035	0.0022663	687.56	234.87	187.29	73.559	0.0020096	93.487	204.704	379.051	38.666	41.380	137.314	282.867	40.089	46.680	236.531	222.409	45.201	49.310	51.852	55.819	241.874	52.652	-8191	255	
1141.670	1	1	0	0	0.29049	0.25906	0.2452	0.20968	0.16454	0.097976	0.093029	0.11348	0.28172	0.28955	0.10151	0.17787	0.13121	0.17635	0.074459	0.13608	-2.4208	-2.6917	-3.1958	-2.9604	-2.9458	-3.1562	-2.7854	-3.2021	-2.7604	-2.6104	-3.1896	-2.6771	-2.9542	-3.4271	-2.4729	-3.1583	111.140	336.214	117.357	211.673	176.796	115.517	388.933	320.305	59.263	312.406	31.879	383.912	330.239	110.850	262.145	279.079	0.00045944	0.006617	0.00080293	1073	1.0059e-05	3.1451e-06	995.3	319.27	9.509e-06	2.8719e-05	353.85	118.64	104.09	42.413	1.1196e-05	49.284	0.094844	0.19952	0.055771	1685.9	0.0019506	0.0022464	1543.5	514.57	0.0019088	0.002253	688.94	235.63	187.31	73.662	0.0020066	93.903	240.223	103.504	247.463	41.175	54.762	168.916	40.531	47.175	260.773	126.161	45.042	49.812	51.568	56.031	165.037	52.989	-8191	255	
1141.767	1	1	0	0	0.048464	0.035635	0.16179	0.22241	0.12071	0.10602	0.10659	0.32603	0.17739	0.1481	0.036857	0.14514	0.11735	0.33224	0.24782	0.29756	-2.5771	-2.5667	-3.3229	-2.7604	-2.8854	-3.2708	-2.5375	-3.3229	-3.0479	-2.5875	-3.1562	-2.8917	-2.9229	-3.3208	-2.5938	-3.2792	262.403	61.350	34.912	101.664	264.766	173.108	338.501	340.443	161.685	186.095	343.986	344.638	324.431	316.964	106.409	281.886	0.00044643	0.0036715	0.00084577	1072.3	2.0094e-05	3.0035e-05	990.07	318.15	3.1332e-05	3.1449e-05	355.09	117.81	103.42	42.77	1.1526e-05	49.396	0.095131	0.19932	0.055797	1692.3	0.0019685	0.0022542	1546.8	515.72	0.0019267	0.0022739	692.13	236.69	187.87	73.821	0.0020261	94.207	155.699	361.008	150.839	41.601	134.872	204.045	40.120	46.614	306.997	235.186	44.539	50.293	51.357	55.745	307.695	52.414	-8191	255	
1141.838	1	1	0	0	0.26949	0.091533	0.17923	0.16388	0.13443	0.14272	0.1331	0.092398	0.15808	0.22084	0.047904	0.24084	0.33008	0.23646	0.076208	0.11306	-2.6063	-2.4437	-3.2208	-3.125	-2.4604	-3.15	-2.9208	-3.0729	-3.0479	-2.6271	-3.3896	-3.05	-2.7521	-3.4125	-2.8083	-3.0396	102.642	328.358	252.854	97.123	250.904	371.518	44.238	271.477	85.004	366.726	118.253	370.747	378.630	344.470	168.636	384.986	0.00019877	0.0035705	0.00055277	1081.1	1.5054e-05	2.2479e-05	989.39	318.38	2.338e-05	2.2048e-05	353.97	117.79	103.94	42.688	4.5111e-05	49.284	0.095761	0.19981	0.055771	1693.9	0.0019583	0.0022449	1546	516.81	0.0019265	0.0022641	692.43	236.95	188.27	73.84	0.0020244	94.035	292.159	267.807	219.568	41.293	362.199	125.092	40.198	46.495	187.784	196.150	44.223	49.856	51.094	55.629	375.367	52.769	-8191	255	
#DATA ENDS
