BOXY.EXE: ISS Imagent and Oximeter Data Acquisition Program Version 0.80
Ascii Record File

#ACQ INFORMATION
2  Detector Channels 
16  External MUX Channels 
1  Auxiliary Channels 
5000  Waveform (CCF) Frequency (Hz)
1  Waveforms Skipped 
30  Waveforms Averaged 
1  Cycles Averaged 
16  Acquisitions per Waveform 
10.0806  Updata Rate (Hz) 

#FILE INFORMATION
TRUE -- External MUX Channel results are PARSED.
FALSE -- AC DC and Phase are NOT grouped.
TRUE -- Companion Program Settings File CREATED.
FALSE -- AC data not excluded
FALSE -- DC data not excluded
FALSE -- Phase data not excluded
FALSE -- Auxillary Chn. data not excluded
Tab delimiters

#CALIBRATION STATE
TRUE -- Waveform Calibration Values APPLIED.


#AUX CALIBRATION VALUES
Val Type	aux-1	

Term	1.0000e+00	
Factor	0.0000e+00	


#WF CALIBRATION VALUES
A = Detector Channel
Val Type	A-AC1	A-AC2	A-AC3	A-AC4	A-AC5	A-AC6	A-AC7	A-AC8	A-AC9	A-AC10	A-AC11	A-AC12	A-AC13	A-AC14	A-AC15	A-AC16	A-DC1	A-DC2	A-DC3	A-DC4	A-DC5	A-DC6	A-DC7	A-DC8	A-DC9	A-DC10	A-DC11	A-DC12	A-DC13	A-DC14	A-DC15	A-DC16	A-Ph1	A-Ph2	A-Ph3	A-Ph4	A-Ph5	A-Ph6	A-Ph7	A-Ph8	A-Ph9	A-Ph10	A-Ph11	A-Ph12	A-Ph13	A-Ph14	A-Ph15	A-Ph16	

Term	0.00000e+00	0.00000e+00	0.00000e+00	0.00000e+00	0.00000e+00	0.00000e+00	0.00000e+00	0.00000e+00	0.00000e+00	0.00000e+00	0.00000e+00	0.00000e+00	0.00000e+00	0.00000e+00	0.00000e+00	0.00000e+00	0.00000e+00	0.00000e+00	0.00000e+00	0.00000e+00	0.00000e+00	0.00000e+00	0.00000e+00	0.00000e+00	0.00000e+00	0.00000e+00	0.00000e+00	0.00000e+00	0.00000e+00	0.00000e+00	0.00000e+00	0.00000e+00	0.00000e+00	0.00000e+00	0.00000e+00	0.00000e+00	0.00000e+00	0.00000e+00	0.00000e+00	0.00000e+00	0.00000e+00	0.00000e+00	0.00000e+00	0.00000e+00	0.00000e+00	0.00000e+00	0.00000e+00	0.00000e+00	
Factor	1.00000e+00	1.00000e+00	1.00000e+00	1.00000e+00	1.00000e+00	1.00000e+00	1.00000e+00	1.00000e+00	1.00000e+00	1.00000e+00	1.00000e+00	1.00000e+00	1.00000e+00	1.00000e+00	1.00000e+00	1.00000e+00	1.00000e+00	1.00000e+00	1.00000e+00	1.00000e+00	1.00000e+00	1.00000e+00	1.00000e+00	1.00000e+00	1.00000e+00	1.00000e+00	1.00000e+00	1.00000e+00	1.00000e+00	1.00000e+00	1.00000e+00	1.00000e+00	X	X	X	X	X	X	X	X	X	X	X	X	X	X	X	X	

B = Detector Channel
Val Type	B-AC1	B-AC2	B-AC3	B-AC4	B-AC5	B-AC6	B-AC7	B-AC8	B-AC9	B-AC10	B-AC11	B-AC12	B-AC13	B-AC14	B-AC15	B-AC16	B-DC1	B-DC2	B-DC3	B-DC4	B-DC5	B-DC6	B-DC7	B-DC8	B-DC9	B-DC10	B-DC11	B-DC12	B-DC13	B-DC14	B-DC15	B-DC16	B-Ph1	B-Ph2	B-Ph3	B-Ph4	B-Ph5	B-Ph6	B-Ph7	B-Ph8	B-Ph9	B-Ph10	B-Ph11	B-Ph12	B-Ph13	B-Ph14	B-Ph15	B-Ph16	

Term	0.00000e+00	0.00000e+00	0.00000e+00	0.00000e+00	0.00000e+00	0.00000e+00	0.00000e+00	0.00000e+00	0.00000e+00	0.00000e+00	0.00000e+00	0.00000e+00	0.00000e+00	0.00000e+00	0.00000e+00	0.00000e+00	0.00000e+00	0.00000e+00	0.00000e+00	0.00000e+00	0.00000e+00	0.00000e+00	0.00000e+00	0.00000e+00	0.00000e+00	0.00000e+00	0.00000e+00	0.00000e+00	0.00000e+00	0.00000e+00	0.00000e+00	0.00000e+00	-7.21242e+01	-1.36190e+02	-1.31975e+02	-1.84208e+02	-5.78500e+01	-7.12383e+01	-1.57919e+02	-1.62015e+02	-5.00457e+01	-6.58011e+01	-1.73678e+02	-1.74622e+02	-1.83192e+02	-1.77394e+02	-5.50764e+01	-1.50270e+02	
Factor	1.50587e-05	1.53820e-04	4.27858e-05	1.63141e-01	1.38621e-06	1.57826e-06	1.57083e-01	5.08700e-02	1.06407e-06	1.56460e-06	8.91376e-02	3.09256e-02	2.10338e-02	7.86656e-03	1.28744e-06	1.15860e-02	1.22195e-05	2.56875e-05	7.18329e-06	8.46512e-02	2.51754e-07	2.89162e-07	7.65242e-02	2.66035e-02	2.46997e-07	2.91659e-07	4.50603e-02	1.56519e-02	1.11339e-02	4.15076e-03	2.61534e-07	5.90229e-03	X	X	X	X	X	X	X	X	X	X	X	X	X	X	X	X	



#DISTANCE SETTINGS
A = Detector Channel
A-1	A-2	A-3	A-4	A-5	A-6	A-7	A-8	A-9	A-10	A-11	A-12	A-13	A-14	A-15	A-16	

2.5000e+00	3.0000e+00	2.5000e+00	3.0000e+00	2.0000e+00	3.0000e+00	1.5000e+00	3.0000e+00	3.0000e+00	3.0000e+00	3.0000e+00	3.0000e+00	3.0000e+00	3.0000e+00	1.5000e+00	3.0000e+00	

B = Detector Channel
B-1	B-2	B-3	B-4	B-5	B-6	B-7	B-8	B-9	B-10	B-11	B-12	B-13	B-14	B-15	B-16	

1.0000e+01	1.0000e+01	1.0000e+01	1.4400e+00	1.0000e+01	1.0000e+01	1.5100e+00	1.9400e+00	1.0000e+01	1.0000e+01	1.9900e+00	2.4900e+00	2.4100e+00	2.9000e+00	1.0000e+01	2.9800e+00	




#DATA BEGINS
time	group	step	mark	flag	A-AC1	A-AC2	A-AC3	A-AC4	A-AC5	A-AC6	A-AC7	A-AC8	A-AC9	A-AC10	A-AC11	A-AC12	A-AC13	A-AC14	A-AC15	A-AC16	A-DC1	A-DC2	A-DC3	A-DC4	A-DC5	A-DC6	A-DC7	A-DC8	A-DC9	A-DC10	A-DC11	A-DC12	A-DC13	A-DC14	A-DC15	A-DC16	A-Ph1	A-Ph2	A-Ph3	A-Ph4	A-Ph5	A-Ph6	A-Ph7	A-Ph8	A-Ph9	A-Ph10	A-Ph11	A-Ph12	A-Ph13	A-Ph14	A-Ph15	A-Ph16	B-AC1	B-AC2	B-AC3	B-AC4	B-AC5	B-AC6	B-AC7	B-AC8	B-AC9	B-AC10	B-AC11	B-AC12	B-AC13	B-AC14	B-AC15	B-AC16	B-DC1	B-DC2	B-DC3	B-DC4	B-DC5	B-DC6	B-DC7	B-DC8	B-DC9	B-DC10	B-DC11	B-DC12	B-DC13	B-DC14	B-DC15	B-DC16	B-Ph1	B-Ph2	B-Ph3	B-Ph4	B-Ph5	B-Ph6	B-Ph7	B-Ph8	B-Ph9	B-Ph10	B-Ph11	B-Ph12	B-Ph13	B-Ph14	B-Ph15	B-Ph16	aux-1	digaux	

1343.768	1	1	0	512	0.21435	0.1332	0.22842	0.36572	0.25073	0.02121	0.50611	0.35852	0.16448	0.11095	0.15536	0.25365	0.16612	0.095037	0.18558	0.17948	-1.7667	-2.8583	-2.7313	-2.6104	-2.9354	-2.5021	-2.7188	-3.3021	-2.4396	-2.8833	-2.9667	-2.3604	-2.9813	-2.7375	-2.5792	-3.0667	210.346	-99.658	-37.845	214.184	36.563	48.129	175.030	198.128	-59.985	143.168	187.700	-109.161	-118.469	-92.525	108.504	163.726	0.00028241	0.00074984	0.00020255	1538.1	3.5389e-06	4.6226e-06	1460.9	552.77	2.5033e-06	6.0095e-06	594.49	159.37	148.44	53.396	5.2419e-06	62.522	0.001056	0.0017254	0.00048363	1417.9	1.7452e-05	2.0139e-05	1354.1	514.95	1.8346e-05	1.9738e-05	548.9	150.1	138.4	49.997	1.8478e-05	58.518	-91.955	-36.164	-12.057	-113.117	-27.954	51.919	-113.864	-109.313	-8.071	21.820	-110.681	-107.058	-104.973	-100.129	32.673	-102.043	-8191	255	
1343.864	1	1	0	0	0.18594	0.20027	0.04508	0.30909	0.16428	0.078917	0.28885	0.23909	0.22873	0.3495	0.10251	0.23943	0.074313	0.20782	0.17506	0.1293	-1.9854	-2.85	-2.7083	-2.5438	-2.8312	-2.575	-2.4417	-3.25	-2.5	-2.7833	-3.05	-2.5812	-3.0146	-2.7812	-2.4062	-2.9938	-58.426	193.312	191.372	219.258	-121.837	-26.213	177.942	220.520	225.201	134.752	210.601	-18.546	146.778	122.200	91.741	151.372	0.00030023	0.00085325	0.00016175	1533.8	4.704e-06	7.4918e-06	1467.1	557.28	5.3424e-06	2.3581e-06	590.98	160.54	147.78	53.098	1.6007e-06	62.902	0.0010929	0.001818	0.00050882	1414.2	1.7575e-05	1.9839e-05	1354.3	515.71	1.8364e-05	1.9626e-05	546.75	150.01	138.01	49.754	1.855e-05	58.866	-89.758	-37.671	-30.529	-113.335	14.552	45.842	-114.005	-109.471	5.136	-28.840	-111.161	-107.001	-105.204	-100.187	28.484	-102.233	-8191	255	
1343.960	1	1	0	0	0.19076	0.18147	0.29906	0.22245	0.14104	0.17758	0.13552	0.067252	0.19211	0.046208	0.26613	0.24285	0.10228	0.10863	0.043322	0.12778	-1.9937	-2.5938	-3.0125	-2.5667	-2.8167	-2.7708	-2.6021	-3.2938	-2.6437	-2.5604	-3.0292	-2.3604	-2.8729	-2.8708	-2.2271	-3.1688	-79.407	122.461	220.097	174.686	-113.802	126.669	214.551	-108.279	145.573	-79.250	172.127	162.638	191.985	210.355	-20.964	76.347	0.00032399	0.00058264	0.0001832	1533.6	7.4433e-06	5.0706e-06	1466.4	554.27	3.9789e-06	6.3146e-06	592.07	159.31	147.7	53.356	5.6938e-06	63.013	0.0010774	0.0017791	0.0004937	1412	1.7583e-05	1.9748e-05	1355.7	515.71	1.8351e-05	2.0634e-05	547.61	149.53	138.09	50.024	1.8638e-05	58.827	-92.485	-35.964	-31.998	-113.170	28.960	36.758	-113.816	-109.417	-25.568	15.467	-110.981	-106.267	-105.059	-99.962	24.570	-101.777	-8191	255	
1344.056	1	1	0	0	0.11231	0.089028	0.24377	0.11352	0.28925	0.35274	0.13762	0.33379	0.068036	0.21018	0.1996	0.12115	0.13184	0.25236	0.12142	0.2845	-2.0479	-2.6417	-2.9708	-2.5458	-2.8375	-2.7625	-2.4458	-3.2313	-2.625	-2.3667	-3.0938	-2.5062	-2.9458	-3.0729	-2.3333	-3.1771	191.993	187.616	220.952	-3.315	199.296	-54.310	87.076	200.878	92.875	5.135	-116.010	198.947	-96.133	188.283	-71.997	-47.377	0.00032358	0.00078283	0.00020144	1531	7.3845e-06	4.1784e-06	1463.2	555.23	3.8793e-06	8.1464e-06	592.35	160.89	148.26	53.576	2.4278e-06	63.164	0.0010617	0.001809	0.00048092	1413.1	1.8219e-05	1.991e-05	1352.7	515.32	1.8194e-05	1.9991e-05	548.52	150.23	138.5	50.223	1.8835e-05	59.095	-100.404	-3.217	9.173	-112.976	-3.456	-8.891	-114.180	-109.748	21.562	60.273	-111.299	-106.662	-105.147	-100.030	90.425	-102.019	-8191	255	
1344.152	1	1	0	0	0.1151	0.047297	0.30542	0.30147	0.04075	0.23646	0.10221	0.33933	0.074465	0.089358	0.21308	0.082633	0.19648	0.35455	0.021356	0.31934	-2.1833	-2.5042	-2.8958	-2.4562	-2.8583	-2.8063	-2.6146	-3.1354	-2.7375	-2.5542	-3.1646	-2.5146	-2.8063	-3.1	-2.3937	-2.9333	62.060	93.075	-98.162	201.502	127.790	-49.915	188.008	163.771	149.922	191.744	88.944	144.517	218.099	217.325	22.548	192.377	0.00035126	0.00071405	0.00033723	1536.8	5.5187e-06	6.2819e-06	1465.4	552.21	4.8076e-06	6.2551e-06	589.39	160.01	147.51	53.731	5.9973e-06	62.849	0.0010768	0.0017982	0.0005097	1415.6	1.7803e-05	1.9408e-05	1353.5	515.05	1.792e-05	1.9942e-05	546.7	150.32	138.18	50.2	1.831e-05	58.907	-94.201	-43.376	-55.314	-113.109	4.609	9.060	-113.977	-109.304	8.151	15.118	-111.084	-106.639	-104.867	-99.854	49.487	-102.259	-8191	255	
1344.248	1	1	0	0	0.21189	0.23579	0.15453	0.25026	0.21035	0.18114	0.25237	0.27417	0.21011	0.2785	0.41308	0.12537	0.17479	0.086213	0.18289	0.10595	-2.3583	-2.4521	-3.1229	-2.4792	-2.6521	-3.0583	-2.7625	-3.1208	-2.7875	-2.3146	-3.2125	-2.4875	-2.8354	-3.0208	-2.3729	-2.9625	-35.174	49.080	145.423	195.886	219.584	-111.289	160.779	154.488	98.342	63.162	190.216	22.137	-74.458	186.206	79.359	183.472	0.00025011	0.00057674	0.00013944	1526.3	4.5612e-06	3.0375e-06	1450	552.78	6.1793e-06	8.4528e-06	586.78	158.05	147.19	53.021	4.8016e-06	62.52	0.0010622	0.0017561	0.00047901	1413.1	1.7889e-05	1.9202e-05	1349.2	513.5	1.7309e-05	2.0584e-05	546.2	149.48	137.64	49.952	1.8517e-05	58.642	-89.803	-5.664	-33.992	-113.014	28.967	26.044	-113.745	-109.379	7.567	7.386	-110.454	-106.488	-104.969	-99.969	38.313	-102.272	-8191	255	
1344.367	1	1	0	0	0.03915	0.10557	0.058043	0.31491	0.34104	0.16718	0.20511	0.49393	0.19299	0.041617	0.19387	0.15722	0.13285	0.27168	0.1905	0.31818	-2.3396	-2.1437	-3.0708	-2.6458	-2.6208	-2.9854	-2.5146	-2.9917	-2.8792	-2.1708	-3.1417	-2.5646	-2.6708	-3.2729	-2.3354	-2.8708	11.107	169.792	-66.356	187.271	67.674	-19.943	140.303	201.032	-111.906	53.474	195.238	-15.333	121.552	226.041	-60.768	179.447	0.00027602	0.00040558	0.00011816	1525.7	3.4162e-06	4.1334e-06	1451.1	548.92	4.8877e-06	2.7515e-06	587.04	157.56	146.08	53.19	7.2178e-06	62.757	0.0010696	0.0017319	0.00048634	1415.6	1.8133e-05	1.9411e-05	1351.1	512.51	1.812e-05	1.9597e-05	546.27	149.38	137.48	49.969	1.8906e-05	58.811	-99.313	-3.511	-53.860	-112.618	94.314	5.683	-113.841	-109.193	17.550	7.384	-110.828	-106.405	-104.856	-99.683	-15.080	-102.139	-8191	255	
1344.463	1	1	0	0	0.059975	0.18992	0.13776	0.21149	0.14883	0.23591	0.02187	0.24094	0.18122	0.11545	0.1321	0.22672	0.18984	0.23184	0.24888	0.07434	-2.5583	-2.4583	-2.9083	-2.9729	-2.2812	-3.0104	-2.4854	-2.9188	-3.0167	-2.3875	-2.975	-2.6042	-2.4292	-3.1292	-2.4667	-2.7667	-118.371	61.938	-14.291	158.939	20.499	5.335	116.867	143.241	-21.238	206.801	14.910	53.205	224.751	-94.026	18.350	-64.580	0.00029782	0.00055948	0.00027968	1534.6	6.7237e-06	9.5106e-06	1456.6	551.08	6.2798e-06	5.4068e-06	588.93	159.84	146.34	53.485	5.4717e-06	63.06	0.0010632	0.0017784	0.00048825	1413	1.7937e-05	1.9516e-05	1351.8	513.52	1.7597e-05	1.9753e-05	548.21	150.24	137.84	50.223	1.861e-05	59.096	-106.074	-54.145	-51.656	-112.921	27.115	9.759	-113.879	-109.313	-26.329	-6.877	-111.042	-106.073	-104.627	-99.956	25.251	-101.880	-8191	255	
1344.560	1	1	0	0	0.094528	0.24849	0.059148	0.1625	0.079472	0.08451	0.24572	0.23612	0.28169	0.14715	0.15922	0.14833	0.23135	0.10281	0.091017	0.29505	-2.6	-2.2458	-2.5833	-2.9458	-2.425	-3.1292	-2.9125	-2.7687	-2.8917	-2.3021	-3.1146	-3.0042	-2.4708	-3.0583	-2.6146	-2.6042	186.079	103.922	167.728	-101.852	147.136	47.221	148.768	193.375	-0.827	104.941	-105.304	202.697	210.986	163.302	158.682	-121.771	0.0002388	0.00018037	0.00019786	1521.2	8.1244e-06	6.8576e-06	1465.7	552.67	2.0707e-06	6.1756e-06	588.6	159.88	147.95	53.693	5.9191e-06	62.514	0.0010531	0.0017128	0.00048344	1410.5	1.8321e-05	1.9415e-05	1355.5	514.15	1.7755e-05	2.0306e-05	547.37	150.19	138.14	50.215	1.8106e-05	58.666	-90.455	-9.732	-21.154	-112.934	11.098	30.921	-113.984	-109.602	-14.748	17.860	-111.012	-106.723	-105.344	-99.953	12.711	-102.171	-8191	255	
1344.656	1	1	0	0	0.19763	0.22134	0.14901	0.39002	0.059941	0.1333	0.45235	0.32996	0.25829	0.32157	0.17239	0.21675	0.22557	0.42391	0.28125	0.28198	-2.7313	-2.4437	-2.575	-2.9729	-2.4125	-3.0417	-2.7667	-2.5729	-3.0187	-2.5479	-2.8771	-2.9896	-2.3	-2.9625	-2.5604	-2.5896	-39.095	221.175	-96.981	207.426	-34.662	45.356	180.367	159.821	-45.450	182.737	-83.838	-73.072	-105.225	-94.761	-50.057	199.271	0.0002688	0.00079559	0.00018	1529	5.5996e-06	7.1162e-06	1464.4	550.77	4.5258e-06	9.6138e-06	588.9	159.94	146.84	53.439	8.2049e-06	62.419	0.0010493	0.0017928	0.00048971	1413.6	1.7984e-05	1.9843e-05	1353.4	513.06	1.8111e-05	2.0344e-05	545.94	150.05	137.74	50.038	1.9051e-05	58.524	-98.975	-39.454	-9.997	-113.023	18.512	27.429	-113.827	-109.624	18.830	40.361	-110.912	-106.894	-104.685	-99.781	16.998	-101.679	-8191	255	
1344.752	1	1	0	0	0.16681	0.15504	0.14057	0.21839	0.17888	0.060051	0.13433	0.21988	0.082698	0.27133	0.43501	0.23944	0.25827	0.13416	0.19078	0.26075	-2.7062	-2.2625	-2.5292	-3.0563	-2.3458	-2.8271	-2.9229	-2.6333	-2.9833	-2.4417	-2.5771	-3.0417	-2.4333	-2.9229	-2.8312	-2.5583	140.659	-24.195	113.337	183.283	-66.085	224.255	156.460	-104.736	91.344	218.708	214.719	162.087	143.927	-126.548	-86.394	-104.394	0.00028407	0.00057207	0.00020941	1523.8	8.2728e-06	7.8581e-06	1457.4	550.78	4.1805e-06	8.7748e-06	584.37	160.26	147.42	53.528	8.1429e-06	62.501	0.001089	0.0017835	0.00049551	1410.3	1.8118e-05	2.0514e-05	1351.7	511.64	1.7978e-05	2.0363e-05	545	149.87	137.72	49.974	1.8715e-05	58.732	-100.092	-42.692	-56.353	-112.956	19.603	8.320	-113.732	-109.376	-0.158	49.535	-111.075	-106.542	-104.664	-99.974	28.413	-102.096	-8191	255	
1344.848	1	1	0	0	0.12288	0.016355	0.15672	0.30448	0.16715	0.16314	0.12982	0.1596	0.16616	0.03111	0.24676	0.20833	0.33723	0.29001	0.1571	0.15822	-2.7208	-2.4604	-2.3812	-3.0938	-2.4042	-2.6833	-3.0021	-2.5458	-3.1417	-2.4896	-2.6854	-3.0083	-2.5521	-2.7438	-2.8958	-2.5146	117.707	-32.871	201.664	226.583	123.797	22.716	161.587	210.410	229.718	97.736	174.867	228.429	209.514	-116.550	24.071	211.416	0.00027316	0.00054718	0.00026353	1527.3	3.3089e-06	6.6692e-06	1461.6	551.61	2.3344e-06	7.9522e-06	584.82	159.55	146.54	52.998	4.838e-06	62.443	0.0010898	0.0018337	0.00049044	1411.1	1.8369e-05	2.021e-05	1354.1	512.79	1.7748e-05	2.05e-05	546.03	149.92	137.49	49.833	1.8397e-05	58.514	-89.604	-56.733	-46.535	-112.706	33.014	3.947	-114.044	-109.277	-14.958	35.839	-110.846	-106.569	-104.866	-99.888	2.920	-101.592	-8191	255	
1344.969	1	1	0	0	0.13907	0.23533	0.29958	0.096116	0.094244	0.23063	0.30037	0.3026	0.19943	0.27671	0.22571	0.050171	0.44681	0.3102	0.16071	0.1112	-2.4542	-2.6292	-2.225	-3.1708	-2.4646	-2.6375	-3.2542	-2.5271	-2.8375	-2.7396	-2.5062	-2.9875	-2.5229	-2.6917	-2.8917	-2.6458	132.105	93.594	-94.776	214.108	67.616	-115.230	217.185	166.715	-71.406	131.435	-27.675	34.640	176.654	175.637	176.025	131.913	0.00029896	0.0006208	0.0002223	1526.6	6.7661e-06	7.7629e-06	1457.8	550.45	2.6154e-06	5.957e-06	589.55	158.61	146.23	52.996	3.5524e-06	62.573	0.0010868	0.0018508	0.00050813	1415.2	1.7765e-05	1.9967e-05	1353.3	512.63	1.7985e-05	1.992e-05	544.05	149.16	137.29	49.662	1.8658e-05	58.497	-101.121	-50.925	-21.490	-112.849	29.875	25.835	-114.015	-109.501	-4.761	40.432	-111.052	-106.636	-104.684	-99.960	46.614	-101.926	-8191	255	
1345.065	1	1	0	0	0.15921	0.20219	0.070845	0.1733	0.29424	0.10081	0.36196	0.10409	0.35594	0.079528	0.2104	0.22053	0.28181	0.26215	0.14535	0.4322	-2.5104	-2.6312	-2.4688	-3.1688	-2.4604	-2.6729	-3.1604	-2.5333	-2.8021	-2.9083	-2.3792	-3.2542	-2.6875	-2.5187	-3.0604	-2.4021	176.136	122.381	207.359	178.414	160.299	15.421	204.765	155.989	167.170	82.560	180.788	207.115	170.660	185.644	162.221	155.457	0.00034662	0.00082861	0.0001972	1527	4.8088e-06	7.6748e-06	1453.9	550.48	2.8234e-06	1.0666e-05	588.81	159.14	146.65	53.026	3.6556e-06	62.68	0.001105	0.001881	0.00051569	1411.8	1.8455e-05	1.9888e-05	1350.9	513.02	1.8115e-05	2.0382e-05	545.34	149.3	137.22	49.862	1.7973e-05	58.552	-99.227	-3.594	-21.217	-113.180	54.514	0.107	-113.686	-109.446	-5.147	39.674	-111.004	-106.783	-105.033	-100.181	7.843	-101.729	-8191	255	
1345.161	1	1	0	0	0.18737	0.067403	0.18704	0.23477	0.15737	0.059967	0.21333	0.06687	0.098747	0.12645	0.2784	0.14754	0.15737	0.24802	0.017181	0.10368	-2.6083	-2.7583	-2.3104	-3.0938	-2.5625	-2.5542	-3.2375	-2.5312	-2.7458	-3.0667	-2.2708	-2.9375	-2.5625	-2.5458	-3.0104	-2.5417	61.409	98.110	135.745	190.183	76.980	182.001	152.083	141.559	-118.828	25.164	176.161	-20.968	-64.371	210.499	162.518	198.271	0.00032679	0.0013533	0.00030461	1526.3	5.74e-06	7.5404e-06	1460.9	550.53	5.7474e-06	9.9828e-06	586.95	159.25	145.71	52.793	5.6236e-06	62.401	0.0010893	0.0017756	0.00051582	1412.1	1.8448e-05	2.0074e-05	1353.5	512.39	1.8264e-05	2.0329e-05	543.48	149.51	137.04	49.624	1.8009e-05	58.62	-103.789	-51.020	-48.405	-112.709	4.807	22.935	-113.656	-109.282	-2.138	16.216	-111.149	-106.297	-104.781	-100.047	49.353	-101.999	-8191	255	
1345.257	1	1	0	0	0.16913	0.10641	0.15201	0.23079	0.37617	0.10026	0.18602	0.28486	0.037742	0.082596	0.27487	0.21104	0.16169	0.30098	0.14738	0.21604	-2.2292	-2.9979	-2.1854	-2.9979	-2.6542	-2.6042	-3.1188	-2.7479	-2.6979	-2.9896	-2.4917	-2.9729	-2.8958	-2.6417	-2.9875	-2.2625	41.165	83.018	55.041	191.181	-123.804	71.955	157.560	219.700	21.034	-80.213	191.081	65.812	153.439	187.018	166.622	109.218	0.00027167	0.00073273	0.00027459	1530.8	8.6064e-06	2.7287e-06	1455	550.43	2.369e-06	9.7584e-06	584.26	158.49	146.82	53.049	2.1239e-06	62.404	0.0010843	0.0017699	0.00050823	1414.7	1.8826e-05	1.9859e-05	1352.1	511.44	1.8383e-05	2.0137e-05	543.86	149.46	137.37	49.752	1.8481e-05	58.43	-100.057	0.378	-51.236	-113.038	31.963	62.736	-114.001	-109.435	41.193	9.073	-110.755	-106.533	-104.742	-100.169	53.056	-101.802	-8191	255	
1345.352	1	1	0	0	0.066096	0.19348	0.05011	0.17207	0.3404	0.09871	0.19799	0.15806	0.097376	0.20337	0.20306	0.17756	0.16224	0.11959	0.067647	0.40453	-2.2479	-2.9	-2.3563	-2.8812	-3.0625	-2.3542	-3.1688	-2.6688	-2.3583	-2.9604	-2.4583	-2.7604	-3.0417	-2.6396	-3.1042	-2.8146	158.889	6.056	53.598	206.825	98.317	-93.894	118.665	-113.334	86.673	77.615	176.890	-117.637	-110.181	-9.754	143.702	181.100	0.00027951	0.00072041	0.00011924	1522.2	3.6421e-06	6.4235e-06	1453	552.38	3.4889e-06	4.8262e-06	583.58	159.14	145.06	52.837	2.0325e-06	61.715	0.0011014	0.0017571	0.00050831	1406.6	1.7717e-05	1.9893e-05	1350.2	512.39	1.8435e-05	1.97e-05	543.11	149.12	136.88	49.689	1.8539e-05	58.23	-101.649	-66.278	-52.516	-112.919	50.962	6.003	-113.920	-109.422	21.362	6.569	-110.568	-106.586	-104.771	-99.578	66.450	-102.017	-8191	255	
1345.448	1	1	0	0	0.07784	0.17743	0.02767	0.2074	0.082129	0.073096	0.34496	0.25682	0.21138	0.37438	0.039098	0.034038	0.15117	0.29959	0.12978	0.34666	-2.0625	-2.9188	-2.2417	-2.8583	-2.8438	-2.4333	-3.1021	-2.8979	-2.4188	-2.9146	-2.4729	-2.8229	-3.0708	-2.3417	-2.8979	-2.7979	-65.687	70.367	-12.676	203.493	91.743	12.441	190.966	-97.089	-76.894	-56.502	117.208	65.392	-112.045	230.001	35.669	220.531	0.00029968	0.0007437	0.00028179	1514.3	7.2222e-06	5.6115e-06	1460.2	550.17	3.3033e-06	3.3975e-06	585.99	158.99	145.97	52.964	3.7277e-06	62.739	0.0011013	0.0017502	0.00049927	1405.4	1.849e-05	2.0059e-05	1351.4	511.59	1.8083e-05	2.0083e-05	544.66	149.04	137.17	49.699	1.8406e-05	58.749	-87.538	-30.454	-22.259	-113.022	30.861	43.689	-113.941	-109.197	2.394	57.511	-110.646	-106.724	-104.683	-99.804	-14.703	-101.985	-8191	255	
1345.544	1	1	0	0	0.35628	0.15733	0.11323	0.11028	0.21582	0.1983	0.24261	0.34201	0.33525	0.076284	0.15597	0.26171	0.18454	0.20409	0.26755	0.15187	-2.0187	-2.9125	-2.4833	-2.8208	-3.0417	-2.3563	-3.1042	-3.0167	-2.3729	-2.8312	-2.5042	-2.6875	-3.1333	-2.5083	-2.9271	-2.8979	14.271	110.282	25.531	-89.978	50.560	41.656	142.218	199.633	7.889	6.865	187.380	146.900	200.873	210.063	-97.772	192.509	0.00032572	0.0010467	0.00019907	1518	2.9144e-06	5.4856e-06	1461.1	553.34	2.9752e-06	7.3878e-06	586.99	158.91	147.65	53.479	2.6266e-06	62.603	0.0010875	0.0018169	0.00049643	1406.3	1.753e-05	2.0306e-05	1350.9	513.2	1.8131e-05	1.9868e-05	544.59	149.52	137.43	49.928	1.8887e-05	58.685	-98.481	-53.943	-36.804	-112.929	33.680	48.622	-114.157	-109.066	-0.031	43.359	-110.822	-106.688	-104.945	-99.957	8.378	-102.017	-8191	255	
1345.664	1	1	0	0	0.19391	0.097013	0.25461	0.16901	0.090567	0.17174	0.15409	0.05008	0.14964	0.17139	0.44873	0.074555	0.16806	0.21203	0.10398	0.067946	-1.9979	-3.0333	-2.6208	-2.7687	-2.9458	-2.4729	-3.0062	-3.075	-2.2292	-3.1063	-2.6729	-2.4625	-3.0312	-2.5042	-2.7771	-3.025	168.424	-79.776	-55.634	208.049	90.794	117.290	157.075	145.823	52.557	8.779	-122.858	-72.426	157.978	-93.684	-21.099	34.886	0.00030619	0.00058835	0.00015313	1527.2	5.8969e-06	9.7375e-06	1459	549.97	6.0405e-06	1.126e-05	584.34	158.4	146.35	53.338	3.9629e-06	62.297	0.0011013	0.0017867	0.0005112	1409.4	1.7599e-05	1.9642e-05	1349.2	512.05	1.8553e-05	1.9818e-05	543.37	149.4	137.13	49.972	1.8046e-05	58.459	-97.864	-59.814	-24.176	-113.126	0.164	-7.110	-113.751	-109.288	27.653	33.553	-110.890	-106.228	-105.088	-99.726	18.829	-101.857	-8191	255	
1345.761	1	1	0	0	0.27308	0.22348	0.094718	0.28468	0.10425	0.21011	0.33645	0.33329	0.05523	0.24553	0.093167	0.26678	0.35558	0.41513	0.16485	0.018433	-1.8667	-2.9146	-2.6437	-2.6083	-3.175	-2.5687	-2.9396	-3.1979	-2.3312	-3.0125	-2.8167	-2.6646	-3.0958	-2.6417	-2.5875	-2.8688	29.703	230.759	108.307	191.416	226.506	-112.352	165.275	124.271	204.998	2.423	171.892	212.589	222.728	193.459	217.143	172.559	0.0003144	0.00082827	0.00019875	1523.3	7.1745e-06	3.8022e-06	1446.7	550.55	2.9491e-06	6.2289e-06	586.98	158.2	146.06	53.113	5.6881e-06	62.246	0.0010757	0.0017279	0.00050217	1408.7	1.765e-05	1.9561e-05	1346	512.05	1.8031e-05	2.0361e-05	544.1	148.9	137.09	49.758	1.8843e-05	58.342	-97.509	-27.071	-53.015	-112.993	25.802	35.008	-114.110	-109.167	-20.207	53.655	-110.860	-106.824	-105.173	-99.865	24.771	-101.834	-8191	255	
1345.832	1	1	0	0	0.13024	0.19634	0.20463	0.22077	0.010705	0.11912	0.33397	0.12668	0.033273	0.044582	0.25861	0.22012	0.40709	0.13327	0.19742	0.15758	-1.775	-2.9375	-2.6667	-2.5354	-3.025	-2.4854	-2.575	-3.1917	-2.5708	-2.8312	-3.0938	-2.4896	-3.0563	-2.7313	-2.4125	-2.9417	95.379	156.422	176.758	-70.706	60.669	57.556	218.876	203.433	143.423	212.179	180.672	-119.151	-105.249	133.909	21.237	229.805	0.00029427	0.00045893	0.00030605	1520.3	6.7205e-06	7.4775e-06	1454.4	550.61	2.5928e-06	7.4214e-06	584.47	159.09	146.67	53.539	7.2052e-06	62.501	0.0010635	0.0017649	0.00050862	1408.1	1.7969e-05	1.9891e-05	1348	511.7	1.8027e-05	1.9685e-05	544.29	149.21	137.38	50.024	1.8854e-05	58.562	-92.819	-30.591	-42.963	-112.947	36.847	14.506	-113.689	-109.388	-7.290	23.962	-110.888	-106.761	-105.097	-100.194	29.880	-102.081	-8191	255	
1345.928	1	1	0	0	0.15062	0.28844	0.20282	0.16749	0.19295	0.14928	0.18967	0.14485	0.24205	0.022458	0.156	0.31818	0.29649	0.46076	0.054152	0.15441	-1.9	-2.7292	-2.875	-2.4771	-3.0104	-2.4125	-2.6521	-3.1625	-2.3812	-2.8021	-3.1958	-2.3271	-2.8792	-2.6729	-2.4437	-3.1458	159.438	121.683	-40.008	216.904	169.075	155.716	139.894	130.465	111.223	183.621	198.914	174.559	160.187	179.879	-42.979	52.477	0.00028608	0.00082295	0.00019232	1526.2	4.3126e-06	9.5557e-06	1459.8	549.31	3.6244e-06	3.2274e-06	586.75	159.11	147.25	53.337	7.7511e-06	62.497	0.001122	0.001828	0.00050439	1409.2	1.8482e-05	2.033e-05	1351.9	511.54	1.8562e-05	2.0881e-05	545.06	149.35	137.79	49.945	1.8854e-05	58.552	-92.212	-63.062	-27.488	-113.103	24.152	12.152	-114.091	-109.400	-46.421	54.964	-111.038	-106.968	-104.963	-99.853	-3.018	-102.194	-8191	255	
1346.049	1	1	0	0	0.22719	0.15114	0.25283	0.17056	0.11135	0.27163	0.30588	0.11274	0.22077	0.1574	0.13579	0.10386	0.24906	0.15202	0.13137	0.063452	-2.0687	-2.6458	-2.6813	-2.5146	-2.8292	-2.7146	-2.3896	-3.3042	-2.5771	-2.5875	-3.1917	-2.4875	-3.0812	-2.875	-2.4479	-2.8229	-68.282	-70.158	105.776	225.205	-28.890	29.196	134.503	-97.532	-119.977	224.116	206.521	189.962	213.414	228.818	-26.304	-72.602	0.00028274	0.00070528	0.00021169	1516	5.5368e-06	7.678e-06	1443.6	547.03	2.4962e-06	9.0372e-06	585.3	157.69	146.45	52.863	8.9037e-06	62.253	0.001084	0.001814	0.0004987	1406.2	1.7959e-05	1.9521e-05	1344.3	510.92	1.8184e-05	2.0858e-05	543.05	148.43	137.1	49.766	1.8767e-05	58.448	-103.152	-13.728	-22.583	-112.891	21.699	17.526	-113.891	-109.053	4.019	19.343	-110.569	-106.699	-104.732	-99.796	12.491	-102.222	-8191	255	
1346.145	1	1	0	0	0.028258	0.01519	0.091413	0.19466	0.18186	0.18982	0.1752	0.16033	0.31185	0.077719	0.14999	0.14389	0.15138	0.10119	0.12728	0.070948	-2.1188	-2.4792	-2.9396	-2.6521	-2.8042	-2.8625	-2.5812	-2.8458	-2.5229	-2.6354	-3.1458	-2.4292	-3.0646	-3.0292	-2.1229	-2.9813	133.912	-7.811	75.259	-108.203	182.521	-76.332	154.209	169.378	-65.401	171.066	221.030	168.173	15.189	74.485	156.634	-29.961	0.00028917	0.00099613	0.00019288	1519.8	6.4116e-06	5.1543e-06	1450.2	548.97	3.7803e-06	8.7123e-06	581.61	158.07	146.55	53.024	4.3873e-06	62.836	0.0010948	0.0018161	0.00049376	1405.3	1.7846e-05	1.948e-05	1344.9	511.4	1.8079e-05	1.991e-05	542.45	148.88	137.07	49.822	1.8808e-05	58.54	-96.951	-42.157	-27.005	-113.084	35.536	32.967	-113.999	-109.394	-18.664	60.472	-110.611	-106.475	-104.966	-99.849	48.193	-102.221	-8191	255	
1346.241	1	1	0	0	0.12994	0.10515	0.3083	0.24169	0.040967	0.16395	0.34459	0.3457	0.28701	0.11311	0.061532	0.19292	0.26096	0.077932	0.08807	0.040473	-2.3521	-2.2438	-3.1688	-2.6292	-2.6625	-2.8667	-2.4979	-3.0396	-2.7021	-2.3646	-3.0833	-2.4771	-2.6312	-3.0542	-2.4479	-2.8771	-108.927	173.979	156.662	183.491	-41.620	19.188	208.933	188.962	-2.482	-95.702	150.232	176.945	220.981	77.099	-113.778	-41.537	0.00031306	0.00087088	0.00022215	1513.8	4.9805e-06	6.849e-06	1454	549.92	2.8259e-06	1.0078e-05	582.9	159.24	145.91	53.237	7.7489e-06	62.57	0.0010904	0.0018433	0.00048929	1400.8	1.771e-05	1.9997e-05	1348.7	511.47	1.7959e-05	2.0303e-05	543.34	149.13	137.12	49.922	1.8825e-05	58.581	-95.864	-45.986	-35.342	-112.902	20.392	-1.678	-113.928	-109.542	9.207	11.771	-111.050	-106.594	-104.989	-99.823	26.443	-102.292	-8191	255	
1346.360	1	1	0	0	0.12514	0.089114	0.20624	0.24898	0.092116	0.24159	0.19664	0.282	0.071385	0.21998	0.1742	0.24362	0.11043	0.295	0.22689	0.12725	-2.3563	-2.2979	-2.8854	-2.6729	-2.6458	-2.7833	-2.5042	-3.1104	-2.6437	-2.4458	-3.1188	-2.7854	-2.5646	-3.1396	-2.2188	-2.9354	175.180	133.490	84.195	207.376	-75.214	151.452	202.198	178.964	-81.584	-96.326	193.477	218.147	211.401	214.225	-123.776	192.271	0.00032735	0.00073155	0.00025232	1517.5	5.1268e-06	4.0915e-06	1454.9	549.92	5.2813e-06	7.3658e-06	584.32	159.31	146.7	53.368	4.0886e-06	62.263	0.0010873	0.0018007	0.00048546	1405.8	1.8481e-05	1.9922e-05	1347.4	511.29	1.8501e-05	1.9853e-05	542.94	149.45	137.43	49.984	1.87e-05	58.406	-95.089	-43.423	-31.105	-112.994	9.649	-5.527	-113.932	-109.258	-11.188	26.465	-111.063	-106.483	-104.779	-99.933	58.302	-102.238	-8191	255	
1346.456	1	1	0	0	0.21218	0.12473	0.24413	0.075331	0.23017	0.10626	0.32145	0.050503	0.083834	0.11342	0.20174	0.25038	0.11358	0.22371	0.042876	0.13522	-2.5479	-2.2167	-2.9417	-2.8708	-2.45	-3.0833	-2.5687	-2.7021	-2.6583	-2.3208	-3.0708	-2.7354	-2.5271	-3	-2.4021	-2.6542	-70.792	48.249	122.052	220.578	-119.299	-121.628	171.323	-114.041	224.000	224.143	124.277	-115.374	186.899	-98.856	-52.220	-91.134	0.00029625	0.00052442	0.00020148	1518.2	6.8502e-06	1.1079e-05	1453.7	548.56	3.4971e-06	8.2896e-06	582.04	158.63	145.86	52.895	5.8002e-06	61.998	0.0010758	0.0018433	0.00048932	1404.9	1.744e-05	1.9688e-05	1345.2	510.51	1.8103e-05	2.0253e-05	541.96	148.83	136.69	49.671	1.825e-05	58.065	-96.072	-36.593	-39.566	-112.786	15.076	40.354	-114.097	-109.352	-23.657	32.494	-111.224	-106.600	-105.138	-99.797	-3.565	-101.971	-8191	255	
1346.528	1	1	0	0	0.042383	0.26667	0.27736	0.3311	0.14076	0.034113	0.22339	0.051803	0.21319	0.23966	0.24859	0.21588	0.1968	0.20629	0.079499	0.087077	-2.6604	-2.3771	-2.8521	-2.8292	-2.5187	-3.0583	-2.7104	-2.9229	-2.8104	-2.4104	-3.1	-2.7458	-2.5375	-3.1813	-2.4729	-2.7	175.506	86.121	134.289	159.763	217.616	125.195	204.038	174.025	138.761	-42.939	225.184	198.011	205.193	-80.537	-84.593	128.458	0.00027964	0.00056941	0.00019768	1520.2	5.1157e-06	5.7581e-06	1450.8	549.26	1.9484e-06	7.4876e-06	584.11	158.36	145.65	53.088	4.7923e-06	62.052	0.0010833	0.0017722	0.00049589	1405.3	1.8213e-05	1.9319e-05	1341.7	510.27	1.7773e-05	2.033e-05	540.58	148.67	136.66	49.542	1.9106e-05	57.941	-107.401	-52.244	-35.295	-112.828	48.286	12.958	-113.822	-109.761	50.072	33.871	-111.158	-106.439	-104.725	-100.091	49.421	-102.479	-8191	255	
1346.649	1	1	0	0	0.17292	0.20458	0.079616	0.29776	0.14114	0.22646	0.13984	0.19879	0.20351	0.20395	0.16032	0.1289	0.19446	0.30604	0.12239	0.098933	-2.3417	-2.2979	-2.8792	-3.0417	-2.25	-2.9729	-2.7	-2.7188	-3.0563	-2.4813	-2.9646	-3.0021	-2.4833	-3.0667	-2.5958	-2.4292	203.256	29.739	-65.467	207.690	99.530	68.552	204.319	171.343	9.223	163.274	174.589	181.691	174.267	194.980	-68.521	86.185	0.00030926	0.00014865	0.00016234	1515.3	6.027e-06	4.8868e-06	1456.6	549.04	6.0065e-06	8.6548e-06	583.71	157.62	145.75	52.707	4.0884e-06	62.286	0.0010336	0.0017626	0.00051067	1400.1	1.8273e-05	1.9876e-05	1347	510.02	1.7957e-05	1.9912e-05	541.15	148.24	136.75	49.5	1.8601e-05	58.154	-102.111	-23.824	-57.104	-112.841	45.259	13.976	-113.993	-109.553	-35.848	52.385	-111.185	-106.597	-105.199	-100.051	23.568	-102.408	-8191	255	
1346.745	1	1	0	0	0.18413	0.14483	0.21032	0.19027	0.28176	0.027648	0.19494	0.34686	0.10835	0.1224	0.024712	0.23385	0.16963	0.24866	0.19387	0.19081	-2.6583	-2.4437	-2.4583	-3.1333	-2.3833	-2.9938	-3.1042	-2.6729	-3.0958	-2.2875	-2.8375	-3.1063	-2.3917	-3.1125	-2.8042	-2.3646	148.071	-40.283	230.564	229.992	-94.269	186.766	152.191	187.106	16.241	99.939	-118.929	85.761	214.025	218.114	200.071	125.647	0.00028637	0.00062731	0.00015835	1525.3	3.7227e-06	7.6225e-06	1461.6	549.35	5.2551e-06	8.8916e-06	585.34	158.57	145.81	52.771	3.0002e-06	61.273	0.0010814	0.0017919	0.00050837	1406.3	1.7623e-05	1.9313e-05	1346.9	511.21	1.7568e-05	1.9354e-05	542.44	148.36	136.51	49.27	1.7874e-05	57.378	-97.887	-37.406	-60.012	-112.760	28.264	10.508	-113.713	-109.582	13.928	-11.179	-111.192	-106.435	-105.327	-99.873	-43.705	-102.267	-8191	255	
1346.841	1	1	0	0	0.18092	0.23709	0.33749	0.23829	0.15987	0.11913	0.11759	0.20328	0.27885	0.095776	0.034545	0.13668	0.079972	0.11172	0.18067	0.12176	-2.3708	-2.625	-2.6937	-3.125	-2.4104	-2.9125	-2.8958	-2.8125	-3.0125	-2.5396	-2.6	-3.2188	-2.4479	-2.825	-3.0104	-2.5354	172.614	201.882	3.518	-116.970	8.171	130.330	194.197	186.706	209.697	230.874	-107.018	174.825	-61.355	215.690	-79.286	213.848	0.00030521	0.0012263	0.00024482	1517.5	7.8241e-06	7.2888e-06	1456.9	550.91	4.1817e-06	5.351e-06	582.56	158.13	146.5	52.676	3.4731e-06	61.18	0.0010453	0.0018105	0.00050362	1404	1.8096e-05	2.0158e-05	1343.4	509.34	1.7996e-05	2.0222e-05	541.31	148.48	136.52	49.274	1.8864e-05	57.337	-102.309	-24.080	-36.572	-113.127	15.249	-5.214	-113.915	-109.676	15.656	-7.435	-110.918	-106.467	-104.947	-100.093	-1.576	-102.128	-8191	255	
1346.962	1	1	0	0	0.25875	0.21356	0.16605	0.19497	0.1135	0.12558	0.18161	0.4376	0.16018	0.15131	0.28882	0.11426	0.16843	0.37501	0.053255	0.11964	-2.6896	-2.5458	-2.5021	-3.0979	-2.5167	-2.8646	-3.0917	-2.6292	-3.0458	-2.6646	-2.6146	-3.0042	-2.3625	-2.9125	-3.0812	-2.6146	62.809	127.434	114.666	221.758	88.699	91.366	178.191	184.464	211.914	121.656	226.365	-4.554	202.634	-83.214	194.811	-102.852	0.00027004	0.00076377	0.00020783	1515.2	5.1882e-06	8.8288e-06	1440.3	542.62	4.5108e-06	5.3227e-06	578.05	156.88	145.17	52.345	7.0437e-06	60.847	0.0010481	0.001773	0.00050087	1403.7	1.8283e-05	2.0049e-05	1344.1	507.85	1.8149e-05	2.0197e-05	539.99	147.78	136.16	48.978	1.8551e-05	57.291	-94.039	-44.549	-46.523	-112.695	-2.875	30.093	-113.722	-109.427	4.918	49.335	-110.971	-106.629	-104.885	-100.170	13.184	-102.188	-8191	255	
1347.056	1	1	0	0	0.36225	0.40163	0.16428	0.097847	0.2156	0.14602	0.26757	0.21754	0.19454	0.2632	0.19753	0.20447	0.35783	0.18722	0.074417	0.13875	-2.5917	-2.6417	-2.3292	-3.2333	-2.5146	-2.6104	-3.1479	-2.5854	-3.0729	-2.8625	-2.5729	-3.0417	-2.7354	-2.7542	-3.0521	-2.2938	118.050	136.110	223.502	203.029	164.211	-78.103	141.660	-120.002	-2.129	-13.460	147.895	-125.571	-124.356	196.635	-91.891	159.904	0.00028292	0.00097857	0.0001663	1505.6	5.8421e-06	6.2325e-06	1445.6	545.31	7.3012e-06	7.938e-06	582.88	157.9	144.38	52.093	2.5877e-06	61.19	0.0010868	0.0017934	0.0004969	1399.4	1.8292e-05	2.0605e-05	1345.5	509.24	1.7757e-05	2.0442e-05	542.07	148.13	136.04	49.025	1.8491e-05	57.263	-95.399	-50.576	-16.568	-112.571	3.030	19.691	-113.698	-109.246	-11.977	-1.682	-111.138	-106.366	-104.762	-99.995	34.597	-102.253	-8191	255	
1347.129	1	1	0	0	0.21979	0.15654	0.11585	0.03317	0.18534	0.11891	0.24936	0.20931	0.097623	0.229	0.20539	0.18819	0.12292	0.043998	0.073695	0.15391	-2.3646	-2.7062	-2.3271	-3.2104	-2.5271	-2.525	-3.3208	-2.5896	-2.9479	-2.8312	-2.425	-3.1125	-2.6604	-2.6333	-2.9917	-2.5292	93.977	-100.166	207.942	141.684	196.603	199.891	193.863	200.072	-43.237	-89.362	-113.819	194.492	230.617	70.956	35.856	0.908	0.0002878	0.00092208	0.00024657	1520.1	3.49e-06	5.9186e-06	1448	547.42	3.9595e-06	6.5236e-06	580.62	156.42	144.9	51.995	3.655e-06	61.165	0.0010603	0.0017883	0.00051076	1405.9	1.8006e-05	2.0265e-05	1343.6	509.58	1.8239e-05	2.0422e-05	540.53	147.47	135.53	48.855	1.817e-05	57.185	-106.333	-52.993	-29.078	-112.858	21.391	24.389	-113.880	-109.602	13.264	9.231	-110.886	-106.427	-104.951	-100.413	42.525	-102.369	-8191	255	
1347.226	1	1	0	0	0.12354	0.10213	0.22881	0.11876	0.051172	0.091724	0.25689	0.53764	0.38766	0.17913	0.19341	0.056089	0.043814	0.2529	0.29069	0.14874	-2.4813	-2.7292	-2.4771	-3.3271	-2.6542	-2.4875	-3.2729	-2.6958	-2.5292	-3.0375	-2.5625	-3.0646	-2.7042	-2.4979	-2.95	-2.4313	98.484	203.770	55.682	152.532	96.769	88.806	220.429	-122.455	40.302	186.859	200.485	97.404	-80.974	-121.528	125.288	-100.618	0.0002978	0.00064359	0.00018443	1515.7	6.1009e-06	9.8804e-06	1445.3	546.72	3.8818e-06	1.2276e-05	580.41	156.64	144.73	52.058	4.5932e-06	60.74	0.0010717	0.0017802	0.00049915	1401.9	1.8129e-05	2.053e-05	1343.9	509.37	1.7845e-05	1.9757e-05	539.7	147.07	135.57	48.908	1.8092e-05	57.194	-95.033	-41.040	-69.306	-112.864	39.972	49.195	-113.898	-109.416	-24.303	24.548	-111.060	-106.433	-104.663	-99.977	27.753	-102.170	-8191	255	
1347.344	1	1	0	0	0.036847	0.25562	0.16311	0.10916	0.11319	0.18967	0.05751	0.20877	0.17178	0.18805	0.14315	0.052971	0.055005	0.36923	0.27193	0.17579	-2.1312	-2.9167	-2.3187	-3.0208	-2.7646	-2.5875	-3.3708	-2.6792	-2.6167	-2.8937	-2.5875	-3.0021	-2.8375	-2.6042	-3.0479	-2.7479	133.892	62.021	118.945	-92.440	8.285	223.754	182.367	200.204	137.897	-101.785	-80.927	-84.382	49.502	180.848	204.947	88.364	0.00029979	0.0010334	0.00027056	1515.4	7.3649e-06	6.5283e-06	1438.3	541.7	2.5193e-06	6.5387e-06	577.24	155.79	144.22	52.129	2.6342e-06	61.181	0.0010863	0.0017408	0.00050382	1397.4	1.7841e-05	2.0527e-05	1339	506.01	1.8173e-05	1.9414e-05	537.45	146.95	135.19	48.885	1.7901e-05	57.325	-91.958	-39.830	-43.564	-112.849	-30.077	-13.124	-113.771	-109.394	-37.995	49.020	-110.748	-106.634	-104.831	-100.020	16.141	-101.691	-8191	255	
1347.441	1	1	0	0	0.22807	0.19882	0.11507	0.17583	0.088959	0.18092	0.15028	0.34317	0.083086	0.13303	0.29431	0.26747	0.20924	0.12544	0.069442	0.143	-2.2979	-2.8854	-2.3792	-3.0604	-2.9437	-2.4708	-3.1042	-2.8875	-2.3646	-3.1042	-2.5417	-2.6229	-3.0042	-2.475	-3.0854	-2.6479	29.869	39.190	52.943	133.859	-109.932	-111.321	85.822	191.869	215.994	26.569	-120.710	214.635	143.454	201.952	40.895	93.955	0.00031703	0.00060068	0.00018871	1512.6	7.5991e-06	6.4333e-06	1447	543.51	3.1047e-06	3.6001e-06	576.97	155.47	143.79	52.08	2.8516e-06	61.427	0.0010864	0.0017478	0.00049277	1397.4	1.793e-05	1.9869e-05	1339.2	506.61	1.7823e-05	1.9572e-05	538.04	147	135.15	48.926	1.8341e-05	57.327	-99.837	-34.821	-65.439	-112.973	10.274	22.162	-113.951	-109.310	-32.522	70.492	-111.013	-106.964	-104.962	-100.068	28.327	-101.966	-8191	255	
1347.537	1	1	0	0	0.14906	0.030661	0.10674	0.27045	0.13933	0.21069	0.38971	0.24241	0.37621	0.095017	0.16368	0.19919	0.074816	0.29754	0.41441	0.22596	-2.0958	-3.0354	-2.3458	-2.9854	-3.0583	-2.4396	-3.175	-2.8125	-2.3479	-3.15	-2.5958	-2.6854	-3.1979	-2.4875	-2.9062	-2.8396	-86.625	38.253	169.599	214.431	168.520	110.895	151.779	176.981	-96.513	-57.975	123.862	188.067	159.164	-98.731	213.301	186.124	0.00026769	0.0005301	0.00021311	1510.2	7.0358e-06	5.4437e-06	1450	546.2	3.5353e-06	5.6771e-06	577.92	155.83	144.02	51.862	5.4181e-06	61.07	0.0010876	0.0017665	0.00049774	1395.3	1.7485e-05	1.9738e-05	1339.3	506.63	1.7634e-05	2.0237e-05	537.05	146.29	135.16	48.826	1.8946e-05	57.392	-89.484	-21.263	-52.654	-113.174	-6.359	40.131	-114.111	-109.339	4.518	38.070	-111.139	-106.341	-104.787	-99.576	37.186	-102.406	-8191	255	
1347.633	1	1	0	0	0.19246	0.064723	0.11757	0.15643	0.20004	0.082551	0.12217	0.19541	0.25591	0.17126	0.29376	0.099389	0.1046	0.12686	0.18586	0.096891	-2.0875	-2.8354	-2.3521	-2.7083	-3.025	-2.3104	-3.0292	-3.1688	-2.3271	-2.9562	-2.5646	-2.6688	-2.9979	-2.5229	-2.9854	-3.0708	103.992	-125.872	-63.769	222.203	18.383	84.874	208.158	151.208	126.247	214.021	212.588	165.841	49.351	-111.412	1.872	222.493	0.00031243	0.00049271	0.00010966	1511.4	5.3769e-06	5.5633e-06	1436.1	542.04	2.4329e-06	6.058e-06	580.82	155.93	143.17	52.375	5.2407e-06	61.439	0.0010751	0.0017699	0.00050871	1395.5	1.7946e-05	1.9443e-05	1332.5	505.3	1.8115e-05	1.9708e-05	537.84	146.64	134.9	49.198	1.8732e-05	57.634	-92.242	-36.264	-29.748	-113.083	31.891	34.082	-113.813	-109.164	-11.101	32.108	-111.149	-106.695	-104.875	-100.006	23.676	-102.186	-8191	255	
1347.754	1	1	0	0	0.20619	0.12095	0.054372	0.17955	0.19875	0.057447	0.21032	0.25432	0.071631	0.17752	0.2004	0.12857	0.18566	0.312	0.24674	0.18623	-2.1229	-3.0083	-2.5125	-2.7917	-3.1354	-2.4042	-2.925	-3.1208	-2.4833	-3.1958	-2.7875	-2.5479	-3.0583	-2.4729	-2.7812	-3.1396	17.994	-126.886	157.802	-106.734	4.887	58.649	221.690	118.229	125.972	113.744	151.289	190.362	231.966	161.379	222.493	199.321	0.00030872	0.00024657	0.00026098	1498.1	3.0455e-06	7.1703e-06	1442.9	542.09	5.275e-06	1.0252e-05	578.46	156.39	144.56	52.409	6.1987e-06	61.6	0.001059	0.0017714	0.0005013	1392.6	1.8054e-05	2.0196e-05	1337.2	505.15	1.8242e-05	1.9791e-05	538.15	147.14	135.3	49.14	1.848e-05	57.603	-99.198	-24.419	-48.680	-112.887	2.558	-1.163	-114.097	-109.396	-0.257	12.469	-110.868	-106.241	-105.031	-99.838	0.899	-101.740	-8191	255	
1347.825	1	1	0	0	0.092736	0.079207	0.070064	0.41905	0.32492	0.12917	0.18544	0.32646	0.13327	0.33226	0.32645	0.18419	0.059879	0.37315	0.1843	0.18701	-1.9146	-2.825	-2.5938	-2.4646	-2.9833	-2.4021	-2.6854	-3.0771	-2.375	-3.0167	-2.8583	-2.5146	-3.0438	-2.6333	-2.5271	-3.2583	10.529	141.971	-81.552	194.349	136.191	-63.970	155.009	142.317	104.127	4.298	222.509	-98.555	148.902	-124.363	20.612	129.698	0.0002916	0.00054737	9.5805e-05	1514.5	2.3844e-06	4.7835e-06	1445.5	542.57	4.8416e-06	8.7403e-06	578.35	156.87	143.96	52.584	7.7007e-06	61.593	0.001078	0.0018265	0.00049479	1394.1	1.7977e-05	1.9818e-05	1337.4	505.78	1.7933e-05	2.0437e-05	538.47	147.41	135.15	49.18	1.8925e-05	57.545	-93.185	-30.101	-49.737	-113.131	-24.246	-22.584	-114.211	-109.301	-9.046	11.809	-110.840	-106.490	-104.950	-99.667	10.265	-101.749	-8191	255	
1347.921	1	1	0	0	0.18998	0.085854	0.12528	0.049573	0.18175	0.13866	0.065342	0.32114	0.06019	0.34467	0.072676	0.22319	0.38884	0.13477	0.40006	0.22164	-1.9958	-2.8479	-2.6833	-2.5417	-2.9396	-2.7125	-2.7958	-3.2771	-2.2979	-2.7958	-2.9792	-2.5438	-3.1792	-2.6771	-2.4271	-3.1437	86.149	65.878	-82.000	103.026	207.577	136.034	-12.893	156.359	82.720	3.245	159.800	164.150	-110.053	228.570	13.836	-94.509	0.0002835	0.0011045	0.00012442	1510.3	6.3596e-06	7.3777e-06	1444.1	545.33	2.5664e-06	6.8221e-06	579.36	157.16	144.94	52.585	3.7496e-06	61.376	0.0010695	0.0018023	0.00048801	1393.5	1.8304e-05	1.9567e-05	1336.2	505.62	1.8129e-05	2.0178e-05	537.9	147	135.33	49.188	1.8904e-05	57.575	-104.306	-42.922	-13.034	-112.993	9.016	16.331	-114.141	-109.574	38.721	24.074	-110.887	-106.989	-105.081	-100.007	-5.361	-102.443	-8191	255	
1348.042	1	1	0	0	0.11734	0.18283	0.17845	0.17742	0.10793	0.26571	0.11608	0.092016	0.0023263	0.33068	0.47079	0.24343	0.3056	0.19253	0.10488	0.28142	-1.925	-2.7771	-2.9396	-2.4625	-2.9813	-2.9208	-2.5979	-3.4229	-2.3167	-2.7083	-3.1375	-2.4688	-3.0021	-2.9042	-2.4562	-3.1937	-45.134	-76.064	23.234	162.696	135.363	77.505	101.892	218.971	180.000	-85.169	187.742	171.442	183.923	199.763	189.867	200.601	0.00029374	0.00084446	0.00017101	1505.3	6.6385e-06	3.8124e-06	1447	545.5	5.1356e-06	9.6206e-06	576.76	156.11	145.33	52.543	1.9654e-06	61.477	0.0010676	0.0017946	0.00049065	1391.4	1.7837e-05	2.0297e-05	1336.6	505.89	1.8388e-05	2.0424e-05	537.18	147.03	135.66	49.209	1.7915e-05	57.69	-92.805	-36.932	-38.752	-113.193	30.317	-0.369	-114.222	-109.370	-2.663	15.576	-110.654	-106.674	-104.764	-100.045	8.038	-102.011	-8191	255	
1348.138	1	1	0	0	0.20712	0.22457	0.15724	0.063831	0.015894	0.34387	0.39928	0.421	0.15939	0.08491	0.3046	0.26938	0.018631	0.1059	0.22902	0.1193	-2.0667	-2.5708	-2.8208	-2.5333	-2.9021	-2.575	-2.5729	-3.0333	-2.4	-2.6063	-3.2042	-2.4083	-2.9854	-2.9604	-2.4229	-3.0083	165.408	-25.844	138.041	134.643	84.591	-49.176	144.557	199.895	98.200	151.931	134.850	181.483	92.112	186.347	83.381	227.679	0.00032324	0.00080772	4.7151e-05	1510.5	7.7996e-06	8.0927e-06	1435.8	543.76	1.8779e-06	1.0662e-05	578.21	156.75	145.22	52.952	3.5916e-06	62.334	0.0010887	0.0018228	0.00049384	1393.4	1.8188e-05	1.9737e-05	1336.5	506.87	1.8029e-05	2.0715e-05	537.66	147.41	135.71	49.389	1.8539e-05	57.853	-94.924	-41.308	-68.609	-113.113	23.187	11.747	-114.014	-109.403	9.931	17.821	-110.810	-106.370	-104.749	-100.010	25.408	-102.372	-8191	255	
1348.233	1	1	0	0	0.089486	0.051713	0.15751	0.35983	0.25697	0.14618	0.11678	0.032435	0.14194	0.33292	0.29173	0.13822	0.30408	0.093325	0.09183	0.15005	-2.0792	-2.5208	-3.0958	-2.6354	-2.6542	-2.775	-2.5375	-3.1875	-2.5667	-2.5938	-3.0917	-2.5604	-2.7313	-3.1708	-2.4229	-3.0187	-43.741	-46.077	136.488	211.764	134.640	47.592	-79.719	-109.288	126.237	168.617	134.152	183.397	-125.402	196.012	23.413	217.079	0.00027193	0.0005124	0.00024936	1512.2	5.4228e-06	8.3936e-06	1442	539.59	5.0565e-06	8.4841e-06	579.88	156.9	145.15	52.367	7.5656e-06	61.433	0.0010724	0.0018115	0.00048755	1394.1	1.8479e-05	2.0542e-05	1336.7	504.75	1.8203e-05	2.0067e-05	538.4	147.21	135.28	49.199	1.8817e-05	57.56	-87.896	-48.749	-27.814	-113.059	57.599	8.764	-114.093	-109.407	-11.190	36.427	-110.922	-106.846	-105.148	-99.755	12.238	-101.938	-8191	255	
1348.330	1	1	0	0	0.23155	0.16282	0.18288	0.11713	0.094974	0.1616	0.03432	0.26602	0.077009	0.24884	0.37806	0.294	0.37231	0.33903	0.14092	0.18953	-2.2708	-2.375	-3.1104	-2.6417	-2.775	-3.1188	-2.5312	-3.125	-2.7771	-2.475	-3.2354	-2.75	-2.6604	-3.0521	-2.4521	-2.9479	105.621	4.237	-59.201	204.329	-13.394	-20.507	91.160	156.666	59.592	9.971	181.529	-98.813	-100.254	207.297	29.638	131.566	0.00028957	0.00068946	0.00027484	1502.5	5.0804e-06	4.1819e-06	1439.4	541.18	4.861e-06	1.3396e-05	577.07	155.7	144.84	52.25	3.339e-06	61.15	0.0010712	0.0017597	0.00050701	1390.8	1.8267e-05	1.9839e-05	1335	504.32	1.8478e-05	2.0821e-05	536.96	146.67	135.1	48.962	1.881e-05	57.43	-92.488	-70.218	-5.705	-112.884	16.150	26.505	-113.853	-109.285	10.377	18.601	-110.916	-106.596	-105.139	-99.908	-1.316	-101.965	-8191	255	
1348.425	1	1	0	0	0.023694	0.11758	0.069434	0.10827	0.03091	0.11565	0.23949	0.16495	0.42077	0.056678	0.19537	0.18793	0.17868	0.14604	0.23175	0.25144	-2.4125	-2.325	-2.8792	-2.7771	-2.6042	-3.0667	-2.4167	-3.0104	-2.8187	-2.5208	-3.0542	-2.7417	-2.7208	-3.1375	-2.4688	-2.7833	19.394	156.094	62.045	217.040	187.780	-0.214	194.018	182.780	85.680	108.844	178.085	-76.859	164.340	187.320	-84.706	188.444	0.0002576	0.00064013	0.0002068	1497.7	6.2816e-06	6.0601e-06	1448.6	542.81	5.5227e-06	5.9504e-06	577.5	156.07	143.94	52.3	3.8289e-06	61.477	0.0010827	0.0017976	0.00051217	1389.2	1.8772e-05	2.0651e-05	1337.5	504.41	1.8482e-05	1.9736e-05	537.24	146.83	134.69	49.08	1.8856e-05	57.486	-99.279	-26.398	-15.662	-112.697	51.135	27.711	-113.908	-109.349	17.385	18.423	-110.845	-106.636	-104.986	-99.922	20.026	-102.028	-8191	255	
1348.521	1	1	0	0	0.3241	0.20399	0.15909	0.20424	0.22815	0.10671	0.22374	0.17768	0.20926	0.20739	0.28207	0.22341	0.10735	0.31103	0.11409	0.074437	-2.3708	-2.3438	-2.9854	-2.8167	-2.5104	-3.175	-2.6167	-2.9062	-3.0875	-2.3542	-3.1979	-2.8229	-2.7188	-3.1688	-2.4292	-2.8625	51.620	46.032	-72.004	212.345	-108.430	-120.205	184.556	167.180	224.747	35.177	-81.055	226.884	181.489	-109.621	175.832	38.018	0.00026752	0.00072154	8.9504e-05	1504.3	5.0175e-06	8.3927e-06	1438.3	540.01	3.4272e-06	5.9857e-06	579.36	156.9	144.07	52.417	2.3747e-06	61.906	0.0010732	0.0018412	0.00049681	1389.8	1.9063e-05	2.0032e-05	1332.9	503.5	1.8526e-05	2.033e-05	537.92	147.29	134.86	49.185	1.9124e-05	57.804	-95.739	-28.523	-72.015	-112.923	29.136	50.133	-113.943	-109.203	-20.423	44.573	-110.939	-106.557	-104.935	-99.809	7.445	-102.301	-8191	255	
1348.642	1	1	0	0	0.19412	0.01184	0.14157	0.26509	0.42828	0.082394	0.1769	0.27355	0.024095	0.11371	0.17265	0.19974	0.035596	0.29397	0.081627	0.080535	-2.4646	-2.3917	-2.8354	-2.7396	-2.3875	-3.1208	-2.6292	-2.8542	-2.9854	-2.1604	-3.0146	-3.0042	-2.4875	-3.1542	-2.5708	-2.5729	79.002	49.643	91.478	204.825	147.306	72.397	146.082	201.242	8.830	-81.292	-88.834	176.232	-64.042	57.430	-32.870	143.566	0.0002906	0.00081699	0.00019456	1509.7	9.916e-06	8.9166e-06	1446.9	544.44	5.885e-06	5.6308e-06	575.32	157	144.58	52.669	5.0723e-06	62.141	0.0010892	0.0017238	0.00050536	1393.2	1.9164e-05	2.0205e-05	1338	505.36	1.7937e-05	2.0412e-05	536.21	146.98	134.8	49.165	1.8363e-05	57.647	-102.123	-48.380	-34.357	-112.813	23.866	-17.207	-113.852	-109.574	-7.147	2.901	-111.123	-106.663	-105.199	-100.082	-13.483	-102.315	-8191	255	
1348.738	1	1	0	0	0.13375	0.27036	0.11991	0.24043	0.19087	0.12661	0.18492	0.3543	0.11592	0.19195	0.058888	0.26363	0.097754	0.2614	0.077078	0.19217	-2.6792	-2.2313	-2.8458	-3.0229	-2.3125	-2.95	-2.7625	-2.8292	-3.0021	-2.4167	-2.875	-2.9854	-2.4208	-3.2583	-2.5646	-2.7625	139.994	91.018	-125.905	-66.869	-87.862	192.583	158.714	225.473	-123.289	142.652	201.848	-121.183	-103.396	200.860	90.166	-73.540	0.00029556	0.00060771	0.00015921	1503.7	1.3481e-06	6.1701e-06	1450.1	539.9	3.5289e-06	5.8251e-06	577.43	156.91	143.17	52.139	6.1011e-06	61.356	0.0010724	0.001806	0.00052155	1391	1.7764e-05	1.9921e-05	1338	502.84	1.812e-05	2.0116e-05	536.26	146.76	134.66	49.072	1.8923e-05	57.39	-104.739	-28.166	-30.766	-112.947	24.903	-5.449	-113.732	-109.491	-31.186	42.635	-111.216	-106.684	-104.831	-100.013	25.240	-102.128	-8191	255	
1348.834	1	1	0	0	0.2036	0.18217	0.12151	0.11745	0.17129	0.072846	0.030448	0.25548	0.15705	0.20528	0.10079	0.051692	0.05083	0.13254	0.23111	0.10224	-2.6771	-2.3292	-2.65	-2.9	-2.3896	-2.8229	-3.05	-2.6625	-3.1896	-2.4667	-2.9	-2.9354	-2.7625	-3.0583	-2.6667	-2.6521	164.488	62.736	-12.030	223.611	-105.238	33.852	-92.652	228.630	84.174	131.300	200.421	55.823	-126.223	198.258	39.699	203.323	0.00028422	0.0012141	0.00010758	1510	6.2858e-06	9.3451e-06	1446.5	543.48	3.7746e-06	6.2619e-06	578.42	157.39	145.66	52.68	4.6513e-06	62.048	0.0010909	0.0017916	0.00050735	1392.7	1.8044e-05	1.9918e-05	1336.8	504.61	1.7521e-05	2.0084e-05	536.56	147.41	135.33	49.301	1.8648e-05	57.884	-100.672	-37.510	-19.163	-112.834	41.321	14.447	-113.904	-109.483	11.188	30.944	-110.967	-106.725	-105.117	-100.072	36.742	-102.441	-8191	255	
1348.930	1	1	0	0	0.069066	0.15283	0.12284	0.30637	0.043554	0.15629	0.24693	0.18699	0.098331	0.094259	0.35332	0.20239	0.25605	0.23314	0.098872	0.30906	-2.525	-2.4271	-2.6104	-3.0583	-2.4792	-2.8	-3.1896	-2.5583	-2.9229	-2.6833	-2.6437	-2.9313	-2.6063	-2.7708	-2.8333	-2.5812	-66.241	57.126	-1.485	-112.443	12.264	-8.223	160.559	132.355	51.469	156.985	186.417	192.045	93.982	180.839	167.845	162.891	0.00027746	0.0004867	0.00016209	1506.7	8.3497e-06	4.6267e-06	1445.7	544.47	5.0788e-06	4.7106e-06	580.4	157.08	144.76	52.805	3.5915e-06	62.027	0.0010949	0.0018084	0.00050455	1392.1	1.7885e-05	2.0372e-05	1337.2	504.66	1.8111e-05	2.0183e-05	539.3	147.77	135.38	49.471	1.8514e-05	57.902	-93.289	-62.459	-58.304	-112.919	75.677	-16.835	-113.859	-109.589	29.932	-11.530	-111.296	-106.878	-104.872	-99.964	32.502	-102.295	-8191	255	
1349.002	1	1	0	0	0.17826	0.1244	0.18569	0.67205	0.072759	0.19207	0.35797	0.16033	0.32495	0.15893	0.48584	0.26147	0.12625	0.09503	0.18156	0.30699	-2.5667	-2.6896	-2.55	-3.0375	-2.3646	-2.8208	-3.2292	-2.6208	-2.8729	-2.7708	-2.5458	-3.1208	-2.7375	-2.7729	-2.8958	-2.4375	180.233	29.570	-82.693	232.753	12.767	-0.708	204.520	-111.969	-82.492	105.419	186.208	179.149	-116.315	-75.534	206.370	171.104	0.00028783	0.0004586	0.00013857	1512.7	7.6459e-06	7.8081e-06	1440.2	542.28	4.7714e-06	3.7906e-06	580.73	156.84	144.92	52.581	5.1865e-06	62.423	0.0010712	0.001795	0.00051022	1394.6	1.7724e-05	2.0606e-05	1333.8	504.52	1.8436e-05	1.9588e-05	537.82	147.35	135.54	49.319	1.8243e-05	57.988	-100.300	-44.253	-37.362	-112.945	-0.097	39.430	-113.912	-109.213	36.176	26.094	-110.987	-106.596	-105.114	-100.008	43.943	-102.279	-8191	255	
1349.122	1	1	0	0	0.12028	0.16597	0.0046535	0.31039	0.21765	0.066494	0.18035	0.3307	0.1557	0.11376	0.074083	0.12707	0.37455	0.11112	0.20724	0.086861	-2.6375	-2.9146	-2.2604	-3.2292	-2.6042	-2.4813	-3.1875	-2.4917	-2.9125	-2.6562	-2.5625	-3.0417	-2.6729	-2.7396	-2.95	-2.4688	107.296	-26.962	203.786	-118.756	60.443	215.209	-26.317	186.775	135.505	15.408	189.847	-53.659	-89.097	160.505	210.656	-51.180	0.00028934	0.00074032	0.00035608	1511.9	5.5227e-06	6.846e-06	1453.8	546.71	5.4808e-06	3.4224e-06	579.49	156.78	145.05	52.389	7.9806e-06	61.449	0.0010865	0.0017864	0.00051063	1393.9	1.8531e-05	1.9908e-05	1338.6	505.8	1.8258e-05	2.0157e-05	536.43	147.37	134.93	49.104	1.9352e-05	57.627	-98.653	-31.808	-31.640	-113.042	33.680	-11.091	-113.994	-109.478	9.813	-24.201	-110.993	-106.381	-104.852	-99.919	5.032	-102.168	-8191	255	
1349.219	1	1	0	0	0.070257	0.19666	0.054571	0.11085	0.13156	0.29333	0.054148	0.32385	0.10282	0.20185	0.12779	0.37435	0.25993	0.11319	0.20596	0.17525	-2.5271	-2.6875	-2.2583	-2.9562	-2.4313	-2.6125	-3.2146	-2.5333	-2.675	-2.8542	-2.3583	-3.025	-2.7021	-2.45	-3.1	-2.5896	-96.483	135.334	35.271	212.109	21.527	58.278	-50.340	157.787	178.434	-72.626	69.426	207.264	166.556	213.987	-10.313	-80.885	0.00030401	0.00058519	0.00018555	1505.8	2.6958e-06	6.4272e-06	1434.3	539.27	7.8368e-06	5.6403e-06	575.74	157.2	144.47	52.484	4.2316e-06	61.599	0.001092	0.0018149	0.00051398	1392.1	1.8421e-05	2.0409e-05	1335.1	503.84	1.8085e-05	2.039e-05	536.3	147.45	135.17	49.154	1.9189e-05	57.705	-93.431	-72.258	-59.429	-112.615	-12.810	15.201	-113.811	-109.060	21.548	21.505	-110.894	-106.682	-104.778	-99.846	14.168	-101.856	-8191	255	
1349.313	1	1	0	0	0.26214	0.25987	0.078984	0.19389	0.17645	0.19446	0.26284	0.44774	0.16638	0.13814	0.19933	0.36066	0.31013	0.25458	0.11681	0.1731	-2.2875	-2.9125	-2.2292	-3.0625	-2.6958	-2.4083	-3.0479	-2.6333	-2.5604	-3.0021	-2.5646	-3.0125	-2.8187	-2.6521	-2.9292	-2.5146	-102.700	-99.485	164.748	-104.576	-8.415	-74.857	210.717	209.045	99.475	175.732	25.489	222.994	212.358	176.204	48.924	183.831	0.00033344	0.00060966	0.0002193	1503.8	5.0185e-06	5.756e-06	1436.4	539.27	5.7043e-06	4.6466e-06	577.26	156.9	143.33	52.399	7.363e-06	61.271	0.0011162	0.0018576	0.0005123	1390.7	1.852e-05	2.0179e-05	1336.2	503.91	1.8313e-05	2.0392e-05	536.98	147.23	134.76	49.062	1.9166e-05	57.48	-104.006	-69.499	-40.771	-112.962	-6.500	9.533	-113.880	-109.279	-5.565	72.390	-110.979	-106.532	-104.776	-99.964	33.036	-101.863	-8191	255	
1349.411	1	1	0	0	0.20657	0.25501	0.14732	0.24982	0.35123	0.39853	0.3796	0.085587	0.053836	0.09801	0.33579	0.087767	0.11391	0.13539	0.23884	0.23665	-2.4042	-2.8875	-2.475	-3.0479	-2.8792	-2.5833	-3.1646	-2.7938	-2.4667	-3.0312	-2.6104	-2.7625	-2.875	-2.5458	-3.0917	-2.5812	29.438	-30.508	83.707	120.902	-53.802	226.594	124.036	201.834	153.533	135.834	165.405	193.152	-59.302	212.374	-71.869	212.072	0.00027178	0.00086826	0.00020238	1496.8	5.0204e-06	8.4081e-06	1448.2	542.07	4.8983e-06	5.3788e-06	578.08	156.54	143.44	52.088	9.2637e-06	61.022	0.0011118	0.0018329	0.00051244	1389	1.9183e-05	2.0545e-05	1335.2	503.62	1.8512e-05	2.0781e-05	535.7	146.86	134.6	48.914	1.9582e-05	57.223	-96.033	-47.858	-28.521	-113.051	-3.377	-4.424	-113.884	-109.436	-4.234	-8.260	-110.818	-106.801	-104.878	-99.860	38.959	-102.124	-8191	255	
1349.530	1	1	0	0	0.28813	0.17499	0.16444	0.33424	0.34172	0.22915	0.16483	0.10328	0.2014	0.23429	0.2675	0.052017	0.28468	0.06442	0.067921	0.079224	-1.8854	-2.8917	-2.2646	-2.8187	-2.9354	-2.3208	-3.1583	-2.8937	-2.5917	-3.1021	-2.625	-2.7979	-2.8167	-2.4938	-2.8625	-2.8104	-1.904	146.038	45.200	216.470	127.126	86.194	204.890	136.017	-31.411	-29.540	201.065	14.889	-127.156	193.666	-65.415	-94.145	0.00027913	0.00051797	0.00022029	1504.9	4.1092e-06	7.0537e-06	1435.8	541.69	3.9989e-06	6.8953e-06	574.91	155.71	143.36	52.154	4.6619e-06	61.291	0.0010823	0.0017822	0.00051952	1390.7	1.8381e-05	1.9571e-05	1332.1	503.39	1.8486e-05	2.0677e-05	535.94	146.63	134.38	48.9	1.9656e-05	57.394	-91.741	-43.583	-67.443	-113.206	64.788	24.001	-114.249	-109.338	-17.476	9.343	-110.926	-106.774	-104.611	-99.862	31.627	-102.125	-8191	255	
1349.626	1	1	0	0	0.12562	0.13685	0.16262	0.47131	0.11321	0.2474	0.11253	0.30376	0.24049	0.14637	0.12021	0.17482	0.12811	0.16898	0.0952	0.048811	-1.9896	-3.0146	-2.4208	-2.8312	-3.0062	-2.4437	-3.1521	-3.0771	-2.4833	-3.2125	-2.6292	-2.6792	-3.3042	-2.3875	-2.9646	-3.0854	182.701	19.180	138.496	217.862	28.126	138.169	167.693	183.117	92.231	-2.024	-21.612	-94.555	170.137	202.442	87.062	182.712	0.00032024	0.00072901	0.0002976	1502.5	5.2851e-06	1.1421e-05	1445	540.29	1.364e-06	6.1643e-06	580.98	156.1	144.69	52.439	3.7649e-06	61.987	0.0011036	0.0018139	0.00050864	1385.4	1.8498e-05	2.0312e-05	1336.1	503.04	1.857e-05	2.0922e-05	536.85	146.59	135.08	49.017	1.8913e-05	57.714	-98.604	-58.550	-29.539	-112.924	7.250	14.063	-113.971	-109.416	62.420	34.915	-110.913	-106.932	-104.662	-99.967	36.135	-102.119	-8191	255	
1349.722	1	1	0	0	0.090246	0.18903	0.070271	0.35492	0.14837	0.13724	0.29649	0.2072	0.21926	0.18339	0.15004	0.18582	0.12732	0.36136	0.066757	0.098236	-2.0812	-2.95	-2.6979	-2.7646	-3.1542	-2.4583	-3.1229	-3.2458	-2.4979	-2.9792	-2.8167	-2.7313	-3.1354	-2.3729	-2.8521	-2.975	156.650	37.911	52.949	215.498	95.377	116.282	172.560	221.770	148.161	-59.898	129.294	-84.537	-101.012	219.722	-43.601	166.048	0.00027227	0.00059889	0.00026035	1509.2	3.0004e-06	7.9938e-06	1449	541.55	6.8539e-06	6.9835e-06	580.36	156.75	144.37	52.299	7.0509e-06	61.401	0.001081	0.00186	0.00049391	1390.3	1.7827e-05	2.0103e-05	1335.4	503.75	1.8216e-05	2.0946e-05	537.02	146.97	134.85	48.994	1.9878e-05	57.412	-92.309	0.443	-20.362	-112.973	20.245	31.566	-113.881	-109.366	22.646	-1.341	-110.635	-106.422	-105.052	-99.782	0.395	-102.459	-8191	255	
1349.818	1	1	0	0	0.16922	0.18667	0.095196	0.23663	0.15309	0.080666	0.18111	0.078523	0.09895	0.16864	0.14526	0.027804	0.28576	0.055071	0.077973	0.055886	-2.2167	-2.8167	-2.625	-2.6958	-3.0417	-2.4188	-2.9125	-3.1875	-2.3229	-2.9083	-2.7833	-2.3792	-3.1333	-2.7354	-2.5417	-3.1458	83.832	224.009	180.157	-121.284	175.196	110.259	197.469	-99.537	67.619	-73.276	67.050	42.982	-118.096	80.110	-2.874	224.226	0.00027325	0.00053734	0.00022923	1494	3.3147e-06	2.9174e-06	1441.2	542.11	3.0583e-06	2.9768e-06	575.05	155.86	143.14	52.237	3.2611e-06	61.375	0.0011058	0.0018265	0.00050751	1385.6	1.8622e-05	2.079e-05	1334.1	502.57	1.8403e-05	2.0894e-05	534.54	146.26	134.28	48.998	1.9291e-05	57.437	-96.763	-32.171	-8.675	-113.306	32.699	23.760	-114.188	-109.183	-6.573	1.808	-111.133	-106.684	-104.594	-99.709	2.005	-102.179	-8191	255	
1349.914	1	1	0	0	0.12513	0.22711	0.22561	0.25132	0.34848	0.12851	0.21733	0.41447	0.1888	0.099608	0.11998	0.39304	0.10091	0.3022	0.20641	0.026956	-1.9208	-3.0021	-2.7792	-2.675	-2.9854	-2.5604	-2.8167	-3.2708	-2.3208	-2.9396	-3.0708	-2.4375	-3.1146	-2.7188	-2.425	-3.0417	141.675	227.906	-106.643	157.527	-46.686	224.265	-123.079	181.930	-123.080	60.802	155.545	143.649	196.323	218.200	193.636	169.198	0.00032821	0.00082722	0.00022657	1497.7	8.4643e-06	2.842e-06	1434.3	539.25	6.9498e-06	6.3642e-06	578.16	156.31	144.15	52.729	5.8143e-06	61.434	0.0010861	0.0017799	0.00050421	1384.1	1.8033e-05	1.9571e-05	1330.6	502.08	1.8573e-05	2.1394e-05	536.13	146.74	134.8	49.235	1.9809e-05	57.532	-105.660	-35.841	-37.607	-112.797	9.188	83.631	-113.763	-109.361	17.652	32.058	-111.246	-106.858	-105.029	-99.907	25.148	-102.071	-8191	255	
1350.010	1	1	0	0	0.14281	0.076059	0.096734	0.15943	0.20267	0.25454	0.23492	0.049424	0.42144	0.1526	0.097013	0.43003	0.0047977	0.23324	0.17888	0.10576	-1.925	-2.75	-2.8542	-2.7042	-2.9875	-2.5792	-2.8083	-3.2042	-2.2729	-2.8333	-2.9771	-2.3521	-3.0604	-2.8375	-2.4646	-3.075	215.446	-110.313	210.911	154.351	53.016	-94.099	202.830	9.669	-126.139	0.161	-75.306	171.787	38.443	193.930	22.920	-113.052	0.00034517	0.00064466	0.00018036	1506.6	7.7053e-06	8.711e-06	1438.5	541.64	2.817e-06	6.1189e-06	578.87	156.66	145.06	52.625	4.6335e-06	61.638	0.0011054	0.0018509	0.00050826	1387.7	1.8682e-05	2.0168e-05	1333.2	503.3	1.8428e-05	2.1348e-05	536.46	146.7	135.16	49.048	1.9328e-05	57.633	-104.470	-42.384	-5.550	-113.080	16.917	0.932	-114.185	-109.561	-3.242	77.737	-111.067	-106.572	-105.219	-100.081	0.237	-102.315	-8191	255	
1350.131	1	1	0	0	0.22913	0.16606	0.16345	0.11374	0.28301	0.17986	0.24991	0.18095	0.14455	0.21915	0.25022	0.17615	0.29017	0.098631	0.2556	0.14894	-2.0167	-2.6083	-2.8625	-2.4042	-2.8917	-2.4542	-2.5896	-3.3292	-2.4729	-2.5646	-3.0625	-2.45	-2.9458	-2.8729	-2.4854	-3.1333	-22.566	-50.965	139.994	134.004	-114.750	-45.954	231.600	202.748	194.825	-33.414	185.800	66.529	-107.557	216.168	-44.914	88.201	0.00029639	0.00052753	0.00021912	1498.4	4.0756e-06	8.8555e-06	1437	538.26	3.0133e-06	8.3533e-06	573.29	154.67	143.94	51.806	3.1044e-06	60.674	0.0010756	0.0018692	0.00050198	1385.2	1.8626e-05	2.0103e-05	1330.1	501.96	1.8459e-05	2.1114e-05	533.59	145.77	134.25	48.628	1.9487e-05	56.856	-96.208	-41.191	-33.340	-113.188	45.571	11.985	-114.001	-109.370	-27.399	16.446	-110.790	-106.538	-104.750	-99.689	13.646	-102.094	-8191	255	
1350.226	1	1	0	0	0.34978	0.12656	0.10487	0.031241	0.067038	0.32933	0.25956	0.23623	0.39232	0.15638	0.086949	0.20205	0.32061	0.23332	0.34324	0.11051	-2.0167	-2.45	-2.8646	-2.5021	-2.8146	-2.7604	-2.65	-3.1125	-2.6021	-2.4229	-2.9562	-2.3083	-2.7979	-2.9188	-2.3125	-3.2	-60.577	192.454	-38.979	57.757	-39.509	-90.171	221.254	189.250	76.084	-40.380	-0.748	228.579	218.495	222.638	39.738	-8.467	0.00034721	0.00087475	0.00020567	1491.6	6.1546e-06	5.4364e-06	1429.3	538.27	1.9057e-06	9.8289e-06	572.79	154.35	142.76	51.544	5.0235e-06	60.401	0.0010749	0.0018575	0.00049565	1381.7	1.8786e-05	2.0246e-05	1326.6	501.58	1.8469e-05	2.0282e-05	534.42	145.56	133.76	48.5	1.9148e-05	56.71	-91.887	-56.706	-17.939	-112.528	21.809	-9.741	-113.917	-109.239	-41.499	29.970	-110.672	-106.477	-104.869	-99.744	20.942	-102.111	-8191	255	
1350.322	1	1	0	0	0.14473	0.23886	0.085678	0.37059	0.10062	0.24566	0.30945	0.35693	0.20301	0.227	0.31961	0.19844	0.25615	0.29596	0.1448	0.16326	-2.1312	-2.3646	-2.9396	-2.4938	-2.6021	-2.7979	-2.6104	-3.1688	-2.5604	-2.5604	-3.1542	-2.5792	-2.7104	-3.1417	-2.5854	-3.0083	149.170	-95.544	96.771	148.439	106.504	-85.953	218.001	160.494	175.327	99.216	200.456	-106.819	168.403	-91.077	18.789	226.081	0.00030346	0.00029909	0.0001897	1498.3	5.9776e-06	5.9506e-06	1437.6	538.71	7.0284e-06	4.3085e-06	573.19	155.18	143.74	51.95	1.8323e-06	60.793	0.0010976	0.0017832	0.00050698	1383.4	1.8501e-05	2.0935e-05	1329.4	501.31	1.8282e-05	2.0408e-05	534.4	145.83	134.21	48.634	1.9212e-05	56.921	-95.786	-84.355	-41.570	-113.024	13.855	-12.875	-114.001	-109.278	32.010	21.120	-111.283	-106.957	-104.952	-99.771	3.417	-102.271	-8191	255	
1350.418	1	1	0	0	0.13447	0.34061	0.17688	0.17451	0.16688	0.18931	0.17393	0.10273	0.18293	0.31924	0.22017	0.12638	0.0726	0.18395	0.22937	0.087981	-2.2125	-2.2479	-2.9646	-2.6937	-2.6396	-2.9917	-2.4792	-3.1229	-2.8312	-2.4229	-3.175	-2.5771	-2.5563	-3.0292	-2.3063	-2.8917	-40.241	17.635	161.073	-90.052	160.367	-57.677	156.322	199.080	148.063	159.143	209.878	83.558	48.212	180.693	-91.604	42.221	0.00028593	0.00055369	0.00018744	1499.5	5.4599e-06	6.8051e-06	1440.5	541.64	5.2569e-06	5.4392e-06	576.55	154.87	143.55	51.825	3.0689e-06	60.84	0.0010919	0.0017979	0.0005211	1383.4	1.8925e-05	1.9764e-05	1332.4	502.16	1.8423e-05	2.0996e-05	534.11	145.87	133.82	48.54	1.8915e-05	56.791	-92.703	-27.561	13.655	-113.123	18.466	23.713	-113.862	-109.600	-26.296	-7.893	-111.092	-106.539	-105.079	-99.713	41.692	-102.040	-8191	255	
1350.514	1	1	0	0	0.24878	0.115	0.14252	0.25341	0.26313	0.19836	0.082821	0.26461	0.22069	0.11507	0.080138	0.25161	0.41983	0.064444	0.083835	0.18573	-2.5687	-2.5729	-2.9313	-2.8063	-2.5062	-2.95	-2.6875	-3.1146	-2.8042	-2.1979	-2.9479	-2.5062	-2.4958	-3.2313	-2.3875	-2.75	47.641	171.368	-58.091	185.764	24.780	-103.392	175.562	-124.995	168.997	52.977	-116.589	153.883	205.196	95.424	4.824	127.286	0.00032518	0.00043469	0.00021698	1495.1	6.5217e-06	9.8742e-06	1432.1	537.19	6.7279e-06	3.5509e-06	568.88	154.89	142.91	51.938	1.9112e-06	60.149	0.0011011	0.0018034	0.00051194	1382.2	1.8637e-05	2.0315e-05	1326.1	499.55	1.8855e-05	2.0708e-05	531.21	145.47	133.49	48.472	1.8785e-05	56.659	-102.612	-51.929	-6.704	-112.643	-11.548	31.905	-113.907	-109.463	-6.312	43.817	-110.976	-106.583	-104.891	-99.729	74.716	-102.123	-8191	255	
1350.610	1	1	0	0	0.16857	0.11277	0.25409	0.44968	0.15596	0.17528	0.14789	0.087724	0.12062	0.043839	0.25152	0.32124	0.084277	0.16962	0.21043	0.29939	-2.5979	-2.3021	-2.8396	-2.8042	-2.5542	-3	-2.6854	-2.7667	-2.9729	-2.2854	-3.0792	-2.6937	-2.4188	-3.1604	-2.4062	-2.6271	-41.871	-3.652	213.464	178.823	221.984	61.020	206.216	215.447	193.226	143.254	-8.961	218.474	50.200	5.348	-112.860	171.601	0.00032276	0.0011336	0.00012166	1491.7	8.9527e-06	9.8666e-06	1428.4	537.99	4.625e-06	4.4397e-06	574.99	154.37	142.94	51.847	6.1322e-06	60.769	0.001072	0.0018226	0.00050301	1377.1	1.8506e-05	2.0293e-05	1325.4	500.02	1.839e-05	2.0326e-05	533	145.52	133.45	48.561	1.8447e-05	56.827	-92.076	-51.783	13.169	-112.876	27.173	-1.227	-113.841	-109.417	11.769	2.804	-111.061	-106.542	-104.997	-100.083	5.502	-102.016	-8191	255	
1350.706	1	1	0	0	0.10441	0.12616	0.33352	0.23365	0.054768	0.046929	0.074362	0.06121	0.033885	0.27162	0.11993	0.26887	0.15213	0.083531	0.12793	0.16905	-2.6	-2.2833	-2.7229	-2.7521	-2.3729	-3.0062	-2.6479	-2.8667	-2.9062	-2.4167	-2.9229	-2.8354	-2.5167	-3.0938	-2.5062	-2.5792	147.305	32.378	203.825	-111.264	130.571	-100.026	161.019	151.280	3.442	114.435	-106.180	-96.184	185.470	163.104	-74.276	222.233	0.00027963	0.0010571	0.0002928	1500.4	5.7766e-06	6.1485e-06	1434.3	537.45	5.0765e-06	6.5507e-06	572.35	155.77	142.6	51.978	5.8862e-06	61.258	0.0010628	0.0018412	0.00051178	1384.4	1.867e-05	2.0699e-05	1325.5	498.94	1.8458e-05	2.0535e-05	532.04	145.78	133.7	48.698	1.8666e-05	56.988	-99.580	-47.210	-45.024	-112.581	29.534	10.402	-114.088	-109.736	-7.528	13.894	-111.110	-106.687	-105.118	-99.929	51.251	-102.666	-8191	255	
1350.827	1	1	0	0	0.13831	0.21811	0.12637	0.21466	0.14265	0.13921	0.22111	0.36365	0.13048	0.13328	0.1129	0.21683	0.19081	0.32262	0.18146	0.088513	-2.6271	-2.4521	-2.6708	-3.1021	-2.4708	-3.0563	-2.8563	-2.6417	-3.0021	-2.5458	-2.8104	-3.1875	-2.6271	-3.0396	-2.7021	-2.6146	148.530	70.223	141.753	177.297	-119.414	-9.925	182.507	155.638	103.642	6.638	179.204	153.314	97.662	167.212	81.719	54.928	0.00027989	0.00084428	0.00017083	1494.6	3.9768e-06	9.3452e-06	1425.3	535.05	7.7192e-06	1.1578e-05	572.33	155.65	142.88	52.112	4.2643e-06	60.777	0.0010829	0.0018179	0.00049792	1381.4	1.8289e-05	2.0568e-05	1325.5	498.74	1.7927e-05	2.0392e-05	531.78	145.69	133.64	48.767	1.92e-05	56.789	-102.007	-64.101	-13.361	-112.947	38.250	28.286	-113.630	-109.512	-28.473	24.243	-111.032	-106.507	-105.010	-100.115	-20.635	-102.290	-8191	255	
1350.923	1	1	0	0	0.21966	0.1515	0.12266	0.18252	0.29756	0.14927	0.20934	0.18005	0.18147	0.058636	0.18442	0.17367	0.088329	0.18908	0.26466	0.07691	-2.7896	-2.3958	-2.5438	-3.2021	-2.375	-2.95	-2.8125	-2.7625	-3.0167	-2.7104	-2.7812	-3.1063	-2.3979	-3.0625	-2.825	-2.4562	-12.341	-74.821	221.251	222.958	229.989	177.316	139.901	188.306	-4.661	169.598	184.346	207.491	173.091	193.252	109.498	123.430	0.0002975	0.0010742	0.00023087	1493.8	6.5124e-06	7.7025e-06	1432.8	538.66	4.3357e-06	6.7622e-06	573.81	154.42	142.54	51.811	3.9781e-06	60.41	0.0010915	0.0018581	0.00051298	1378.3	1.8663e-05	2.0449e-05	1324	498.96	1.8043e-05	1.9953e-05	531.58	145.05	133.38	48.505	1.8775e-05	56.619	-96.672	-21.215	-68.692	-112.947	0.294	37.480	-113.858	-109.582	-12.339	19.870	-111.243	-106.706	-105.109	-99.861	3.389	-102.302	-8191	255	
1350.995	1	1	0	0	0.10131	0.18469	0.17202	0.28231	0.23689	0.10865	0.33471	0.40843	0.18432	0.16909	0.24095	0.15306	0.17404	0.19842	0.10697	0.29263	-2.525	-2.5312	-2.5979	-3.2062	-2.1896	-2.875	-3.0708	-2.8187	-3.2021	-2.6292	-2.6375	-3.1292	-2.5458	-2.9437	-2.8521	-2.5875	-102.950	-81.555	41.785	-124.513	-85.878	33.072	146.681	183.435	82.177	-35.074	229.145	-126.933	231.822	199.472	-5.625	176.019	0.00032079	0.0010556	0.00022748	1493	5.0793e-06	1.3615e-06	1434.9	538.23	3.7953e-06	1.1092e-05	572.25	154.92	142.26	51.883	5.2575e-06	60.84	0.0010939	0.0018517	0.00051765	1378.1	1.8576e-05	2.0356e-05	1326	497.79	1.8633e-05	2.0811e-05	530.15	145.34	133.17	48.485	1.8329e-05	56.857	-98.061	-48.778	-40.888	-112.923	4.711	-3.862	-114.066	-109.483	6.404	46.672	-111.312	-106.721	-105.078	-100.076	74.462	-101.979	-8191	255	
1351.091	1	1	0	0	0.095218	0.10117	0.27881	0.21428	0.14454	0.10733	0.15378	0.26347	0.06901	0.13574	0.24884	0.22234	0.20353	0.33879	0.28902	0.088546	-2.5958	-2.7062	-2.4562	-3.1479	-2.4021	-2.6854	-3.1333	-2.6229	-2.825	-2.8833	-2.4625	-3.2646	-2.6354	-2.7875	-2.8917	-2.5563	-83.251	-23.165	-45.632	214.337	173.362	28.013	124.574	224.642	196.777	-12.190	189.818	45.453	151.551	229.977	-9.843	16.215	0.00033112	0.00051016	0.0001892	1493.4	9.1489e-06	4.708e-06	1432.9	537.63	4.4483e-06	4.9544e-06	576.1	156.11	142.72	52.135	5.0234e-06	61.244	0.0010867	0.0018036	0.00051179	1377.2	1.8271e-05	2.0449e-05	1325.8	498.58	1.8914e-05	2.0446e-05	532.32	145.93	133.57	48.789	1.8894e-05	57.214	-97.947	-73.650	5.153	-112.845	24.749	-0.401	-114.137	-109.463	5.237	-12.956	-111.431	-106.572	-104.742	-100.086	38.104	-102.310	-8191	255	
1351.210	1	1	0	0	0.12826	0.28508	0.15396	0.18561	0.042467	0.25225	0.25737	0.3156	0.023169	0.10527	0.42336	0.21821	0.089877	0.28557	0.21475	0.25251	-2.4104	-2.8521	-2.5042	-3.2833	-2.5729	-2.6333	-3.0812	-2.7083	-2.7583	-2.7188	-2.5812	-3.1562	-2.7729	-2.5896	-3.1083	-2.5604	49.117	-10.396	170.895	158.660	14.711	-73.263	173.934	180.036	-65.496	-88.829	160.305	143.320	-102.872	229.242	170.539	58.312	0.00029193	0.00062045	0.00016743	1493.2	6.2051e-06	4.3115e-06	1437.1	537.29	7.4656e-06	8.4107e-06	569.21	153.74	141.71	52.062	5.8984e-06	60.463	0.001091	0.0018039	0.00050226	1377.2	1.8133e-05	2.0393e-05	1328.1	499.19	1.9086e-05	2.0501e-05	531.38	145.6	133.23	48.755	1.8465e-05	56.921	-99.686	-31.530	-26.131	-112.871	116.038	28.280	-113.989	-109.506	8.684	10.818	-110.760	-106.738	-104.779	-99.934	30.978	-101.821	-8191	255	
1351.306	1	1	0	0	0.23837	0.23707	0.1001	0.29414	0.19397	0.20897	0.32697	0.34322	0.16621	0.11313	0.066988	0.13243	0.16206	0.19089	0.29481	0.35172	-2.3354	-2.9938	-2.3521	-3.1667	-2.6979	-2.4521	-3.2	-2.5208	-2.7604	-2.7417	-2.5958	-3.0958	-2.9729	-2.4396	-3.0292	-2.6104	65.240	97.537	72.854	-94.199	147.545	-76.568	219.643	162.713	-60.113	102.789	139.109	-118.903	156.092	189.564	-60.250	148.019	0.00028482	0.00054233	0.00027779	1493.1	6.5747e-06	9.4431e-06	1427.3	537.74	3.4363e-06	1.1513e-05	571.06	154.72	142.42	52.029	3.1044e-06	61.243	0.0010845	0.0018141	0.00050946	1377.3	1.8477e-05	2.099e-05	1326	498.18	1.8868e-05	2.0601e-05	530.85	145.47	133.4	48.708	1.9053e-05	57.107	-105.317	-28.014	-59.089	-113.116	-14.647	0.193	-114.006	-109.532	9.122	19.116	-111.068	-106.517	-104.820	-99.800	74.248	-102.226	-8191	255	
1351.404	1	1	0	0	0.012006	0.21943	0.060115	0.36008	0.26577	0.17983	0.086636	0.23807	0.19046	0.093787	0.18066	0.090429	0.27301	0.35633	0.35025	0.08857	-2.3937	-2.8875	-2.2333	-3.275	-2.7292	-2.4583	-3.1937	-2.6146	-2.5271	-3.0354	-2.6312	-3.0646	-2.8812	-2.5438	-2.9437	-2.6583	-97.972	-78.529	123.990	225.441	77.605	-34.268	151.695	135.472	-22.316	125.454	110.922	215.897	-119.603	206.976	19.007	167.256	0.00030957	0.00083032	0.00015239	1493	6.6032e-06	3.8008e-06	1432.2	536.25	4.2378e-06	3.5928e-06	572.81	154.48	142.49	52.363	3.2719e-06	61.168	0.0011096	0.0018292	0.00051178	1378	1.88e-05	2.0762e-05	1325.3	498.32	1.8881e-05	2.0303e-05	531.76	145.49	133.27	48.862	1.9124e-05	57.325	-96.603	-42.944	-62.288	-112.872	22.294	32.534	-113.851	-109.183	1.367	25.256	-111.027	-106.693	-104.837	-99.939	19.950	-102.090	-8191	255	
1351.523	1	1	0	0	0.10568	0.086241	0.30023	0.18249	0.13716	0.080966	0.29037	0.36558	0.15466	0.23345	0.16412	0.11482	0.41309	0.084631	0.10315	0.23476	-2.1604	-3.0708	-2.3979	-2.8958	-2.6625	-2.4542	-3.1479	-2.6937	-2.4	-3.0771	-2.525	-3.0792	-2.9729	-2.5563	-3.1188	-2.9188	94.707	189.886	165.531	-85.420	56.453	136.136	-114.267	-123.076	128.306	17.829	-94.770	172.032	-116.023	-116.266	-14.258	59.472	0.00025732	0.00028584	0.00020514	1497.6	7.1597e-06	6.4516e-06	1443.1	536.63	4.616e-06	1.0055e-05	571.25	156.23	143.26	52.249	5.1648e-06	61.825	0.0010775	0.0018707	0.00050238	1377.2	1.8419e-05	2.0659e-05	1328	498.47	1.8696e-05	2.0767e-05	532.14	146.15	133.98	48.946	1.9965e-05	57.574	-101.700	-51.416	-27.327	-113.219	53.656	15.294	-114.040	-109.462	9.298	40.452	-110.686	-106.572	-104.983	-99.930	34.106	-102.170	-8191	255	
1351.594	1	1	0	0	0.087435	0.09025	0.12136	0.42563	0.14864	0.028154	0.28832	0.30237	0.07962	0.044539	0.32115	0.27184	0.19359	0.345	0.19875	0.15396	-2.1375	-2.9708	-2.4833	-2.8604	-2.9583	-2.3458	-3.3896	-3.0167	-2.425	-3.1167	-2.6583	-2.6625	-3.0771	-2.5125	-3.0958	-2.9625	78.205	10.244	-13.552	-121.268	131.308	91.378	205.494	192.419	96.955	229.247	167.092	-126.213	-121.822	175.150	39.431	170.233	0.00030675	0.0004764	9.9447e-05	1491.8	6.3374e-06	6.6245e-06	1431	535.54	4.2283e-06	8.4513e-06	574.5	155.39	142.05	52.119	6.1961e-06	61.528	0.0010852	0.0018361	0.00050549	1375	1.8817e-05	2.0672e-05	1325.9	498.67	1.8797e-05	2.0507e-05	531.73	145.72	133.34	48.733	1.9217e-05	57.316	-102.451	-27.606	-69.465	-113.116	26.573	26.525	-113.880	-109.554	-37.847	38.559	-111.140	-107.056	-104.818	-99.896	25.750	-102.387	-8191	255	
1351.690	1	1	0	0	0.092504	0.15024	0.13935	0.14677	0.21731	0.084122	0.039275	0.22526	0.089017	0.18162	0.035837	0.34742	0.17483	0.1007	0.24583	0.20254	-1.9479	-2.8792	-2.4813	-2.8521	-2.8083	-2.3208	-3.1604	-2.9604	-2.3458	-3.0687	-2.6229	-2.6562	-3.1771	-2.5187	-2.8063	-3.0542	152.184	114.663	25.974	151.374	34.931	97.176	16.694	156.285	-8.115	-96.019	-96.416	193.184	208.883	188.147	173.534	227.444	0.00029159	0.00053913	0.00011416	1496.1	7.6059e-06	9.81e-06	1436.5	533.85	1.6276e-06	6.9819e-06	571.39	155.29	142.23	51.67	3.4643e-06	60.734	0.0010806	0.0018176	0.00052754	1378.8	1.885e-05	2.0273e-05	1328.7	497.8	1.8614e-05	2.0427e-05	530.99	146.04	133.56	48.575	1.8961e-05	57.133	-98.992	-18.157	-19.125	-113.322	56.492	16.524	-113.882	-109.232	-31.596	25.086	-110.709	-106.469	-104.797	-99.878	-38.899	-101.789	-8191	255	
1351.811	1	1	0	0	0.11194	0.16378	0.26053	0.14491	0.16753	0.22544	0.19763	0.25156	0.12638	0.15539	0.22794	0.12014	0.29594	0.30598	0.15587	0.068429	-2.0333	-2.9708	-2.5604	-2.6979	-3.1167	-2.6479	-2.9042	-2.9833	-2.2083	-3.0125	-2.7125	-2.5854	-3.1688	-2.5271	-2.7479	-3.1229	217.369	-16.481	-54.658	131.696	-127.164	183.633	184.252	166.774	-87.923	-85.154	191.158	213.764	162.863	192.402	-93.369	181.631	0.00031427	0.00041096	0.00022346	1485.3	7.2895e-06	9.2685e-06	1426.3	533.65	3.5373e-06	7.7127e-06	573.64	154.98	142.03	51.501	4.7047e-06	61.196	0.0010815	0.001794	0.00051814	1375.5	1.8657e-05	2.0352e-05	1325.4	497.43	1.8439e-05	2.1033e-05	531.86	145.57	133.27	48.548	1.9557e-05	57.318	-89.492	-46.125	-58.835	-112.860	23.848	58.654	-113.687	-109.314	5.238	34.666	-110.595	-106.489	-104.926	-99.786	39.108	-101.729	-8191	255	
1351.907	1	1	0	0	0.16485	0.32108	0.074778	0.35613	0.01248	0.011325	0.18496	0.21078	0.17067	0.17235	0.28693	0.1636	0.22484	0.14711	0.3463	0.23111	-2.0375	-2.9521	-2.7042	-2.3875	-3.1417	-2.4188	-2.7896	-3.0625	-2.3167	-3.0521	-2.9792	-2.3688	-3.225	-2.6271	-2.4875	-3.1646	152.632	-92.299	-100.606	179.286	32.942	34.020	230.235	155.284	164.697	181.278	-52.923	-18.512	-116.584	-119.184	116.401	226.339	0.00027872	0.00025646	0.00017138	1478.9	5.1737e-06	4.6742e-06	1430.4	533.71	2.0943e-06	3.589e-06	575.04	154.7	141.69	51.781	3.6157e-06	61.001	0.0011275	0.0018646	0.00052577	1372.7	1.8609e-05	2.059e-05	1325.5	497.97	1.8934e-05	2.0787e-05	533.34	145.77	133.04	48.604	1.9597e-05	57.237	-98.746	-27.059	-16.719	-112.592	-6.113	-1.612	-114.114	-109.287	-85.960	22.257	-110.784	-106.616	-104.516	-99.647	42.776	-101.807	-8191	255	
1352.003	1	1	0	0	0.34652	0.36249	0.16306	0.063354	0.096368	0.085752	0.3316	0.43265	0.30226	0.10014	0.44333	0.27719	0.2132	0.27691	0.034566	0.1618	-2.1	-2.7375	-2.9271	-2.4854	-2.9	-2.2604	-2.6708	-3.0625	-2.5	-2.8438	-3.0354	-2.5729	-3.1958	-2.7896	-2.5479	-3.2521	124.111	-30.578	46.060	-13.872	-51.348	78.343	170.419	149.592	-75.747	-95.899	219.102	197.714	232.677	-120.583	146.780	173.377	0.0002608	0.0011487	0.00021319	1480.5	6.8485e-06	4.8938e-06	1428	533.17	4.1384e-06	5.1571e-06	566.95	154.67	141.87	51.643	7.8225e-06	61.017	0.0010975	0.0018893	0.0005164	1374.6	1.9213e-05	2.1004e-05	1320.8	496.97	1.8674e-05	2.1182e-05	529.58	145.42	133.08	48.577	1.9149e-05	57.142	-96.076	-48.431	-48.954	-112.916	49.455	31.905	-113.982	-109.136	-8.054	46.393	-110.815	-106.641	-104.615	-99.507	15.599	-102.092	-8191	255	
1352.124	1	1	0	0	0.17184	0.023624	0.22685	0.44743	0.1328	0.13386	0.24719	0.11173	0.061216	0.22337	0.15008	0.21075	0.26654	0.36082	0.24796	0.28066	-2.2104	-2.7687	-3.0542	-2.5979	-2.8875	-2.7188	-2.8146	-3.2292	-2.4583	-2.7062	-3.1104	-2.5625	-3.1312	-2.8396	-2.5292	-3.2208	148.245	-106.417	25.338	204.760	214.177	202.109	219.175	41.264	-17.031	150.242	212.189	201.414	-114.247	-102.528	202.287	185.917	0.00026553	0.00074095	0.0002748	1483	7.3555e-06	6.2725e-06	1433.2	535.22	4.5202e-06	6.2989e-06	569.69	155.28	141.9	51.772	6.4348e-06	61.172	0.0010935	0.0018667	0.00051468	1372.9	1.8611e-05	2.0847e-05	1322.3	497.58	1.8349e-05	2.1264e-05	530.31	145.64	133.23	48.611	1.91e-05	57.443	-98.323	-71.603	-29.809	-112.763	20.889	17.803	-114.075	-109.149	8.323	45.310	-110.889	-106.747	-104.821	-99.619	14.511	-101.775	-8191	255	
1352.196	1	1	0	0	0.081661	0.32372	0.18463	0.33351	0.035892	0.22606	0.1731	0.20344	0.26215	0.14979	0.070668	0.33698	0.12911	0.1	0.30911	0.1325	-2.1417	-2.6708	-2.9562	-2.6083	-3.0312	-2.8542	-2.5958	-3.0917	-2.6292	-2.4	-3.0563	-2.425	-3.1458	-2.9646	-2.5417	-3.15	-1.916	197.129	183.998	221.444	140.025	150.242	226.678	160.712	172.765	40.942	187.068	171.440	-124.021	224.113	223.971	-90.101	0.00030915	0.00062051	0.00014927	1480.3	2.5964e-06	6.7458e-07	1423.7	534.74	4.4746e-06	4.056e-06	571.02	155.96	142.22	52.362	3.6468e-06	61.31	0.0010645	0.0018494	0.00051293	1372.7	1.7967e-05	2.0708e-05	1322	497.18	1.8935e-05	2.1328e-05	531.69	146.17	133.25	48.935	1.8873e-05	57.508	-98.485	-38.507	-63.937	-112.790	2.864	-5.706	-113.918	-109.168	-12.974	48.917	-110.788	-106.650	-104.983	-99.623	36.992	-102.102	-8191	255	
1352.292	1	1	0	0	0.024371	0.1626	0.068503	0.19867	0.04354	0.26952	0.22911	0.17746	0.073163	0.1576	0.058724	0.18822	0.23445	0.12373	0.33046	0.033418	-2.1354	-2.4771	-3.0833	-2.6229	-2.9854	-2.8833	-2.4188	-3.1208	-2.8417	-2.4896	-3.2417	-2.4917	-2.8125	-3.1021	-2.3229	-3.2083	83.673	104.405	102.118	221.489	-93.484	187.249	147.707	212.746	216.202	146.119	104.283	153.844	-51.602	179.360	-118.834	22.772	0.00025946	0.00091191	0.00023586	1487.6	5.6361e-06	7.3322e-06	1436.2	536.31	3.3786e-06	5.7428e-06	570.59	155.01	142.12	52.094	5.7618e-06	61.531	0.0011147	0.0019002	0.00051149	1375.4	1.8641e-05	2.0687e-05	1325.7	497.69	1.8469e-05	2.1123e-05	531.89	145.63	133.2	48.853	1.8506e-05	57.523	-94.198	-41.308	-44.723	-112.960	39.077	13.514	-113.996	-109.279	32.114	-6.286	-110.882	-106.935	-104.697	-99.785	-0.757	-102.014	-8191	255	
1352.386	1	1	0	0	0.0482	0.15605	0.14162	0.053216	0.29416	0.30393	0.42196	0.12225	0.098334	0.096434	0.11024	0.18829	0.12395	0.17762	0.049343	0.1497	-2.1229	-2.5458	-3.0563	-2.6083	-2.7021	-3.0042	-2.5667	-3.2062	-2.7042	-2.4625	-3.1854	-2.7708	-2.8271	-3.2396	-2.2708	-3.0687	-1.879	-75.961	-62.107	141.694	139.593	159.857	199.495	25.489	-10.575	96.819	209.938	-126.382	153.586	220.610	-95.680	179.047	0.00028359	0.00026671	0.00021127	1477.3	4.4772e-06	9.7141e-06	1429.7	534.48	3.098e-06	2.8168e-06	569.98	155.41	142.26	52.136	3.0276e-06	61.14	0.0011087	0.0018632	0.00051387	1371.8	1.9177e-05	2.0324e-05	1320	497.59	1.8672e-05	2.0121e-05	530.53	145.89	133.35	48.982	1.8814e-05	57.516	-96.000	-71.375	-11.217	-112.784	12.179	32.728	-113.545	-109.272	5.217	13.377	-110.869	-106.462	-104.686	-99.396	39.349	-102.174	-8191	255	
1352.507	1	1	0	0	0.26708	0.20602	0.15578	0.27419	0.23694	0.034894	0.4223	0.2991	0.23691	0.11944	0.25365	0.13982	0.45732	0.36241	0.10342	0.13378	-2.5208	-2.5271	-3.0667	-2.7188	-2.6271	-3.1437	-2.7958	-3.2583	-2.8937	-2.275	-3.2854	-2.7229	-2.7646	-3.3	-2.2188	-2.6813	164.887	23.800	220.743	210.439	39.003	-108.941	156.312	189.015	121.210	109.449	-53.986	219.050	211.536	195.123	170.372	66.822	0.00029138	0.0005785	0.00024173	1478.7	7.3706e-06	9.1395e-06	1421	532.68	3.8197e-06	8.4077e-06	568.39	154.2	141.42	52.269	4.6178e-06	61.201	0.0010963	0.0017989	0.00051736	1373.4	1.902e-05	2.0612e-05	1320.5	496.41	1.8879e-05	2.0653e-05	530.92	145.53	133.14	48.975	1.9343e-05	57.57	-99.671	-63.475	-61.599	-112.710	-3.256	35.834	-113.795	-109.025	24.740	30.016	-110.390	-106.070	-104.745	-99.655	9.752	-101.914	-8191	255	
1352.601	1	1	0	0	0.037387	0.2343	0.066345	0.29542	0.249	0.198	0.17498	0.46158	0.14612	0.096813	0.11077	0.018413	0.19233	0.14043	0.23727	0.1348	-2.5542	-2.3583	-2.8583	-2.9313	-2.6188	-3.3563	-2.6063	-2.7479	-2.95	-2.5104	-3.3	-2.9375	-2.6354	-3.2167	-2.4958	-2.8521	64.988	115.762	-61.158	176.467	53.941	193.221	186.013	194.312	-12.271	18.873	172.144	197.780	203.777	-125.899	-124.213	50.750	0.0002786	0.00051315	0.00018458	1470.8	7.3205e-06	7.0367e-06	1421.6	531.64	6.0428e-06	4.6851e-06	569.03	155.64	141.41	52.403	3.1714e-06	61.216	0.0011305	0.0017934	0.00051492	1370.4	1.8992e-05	2.0299e-05	1321.7	496.17	1.8339e-05	2.0611e-05	531.1	146.55	133.41	49.203	1.911e-05	57.701	-99.348	-29.550	-54.032	-112.629	17.917	8.081	-113.470	-109.042	28.996	21.975	-110.619	-106.407	-104.600	-99.601	30.974	-101.877	-8191	255	
1352.697	1	1	0	0	0.18595	0.054478	0.10142	0.19942	0.21631	0.14638	0.15427	0.15739	0.050564	0.15391	0.25515	0.21901	0.13852	0.51485	0.22594	0.14481	-2.4562	-2.3625	-2.7708	-2.8792	-2.5458	-3.1792	-2.7792	-2.8708	-2.9458	-2.5938	-2.9958	-2.9146	-2.6042	-3.225	-2.5833	-2.6208	8.406	231.472	58.336	230.029	-54.374	162.854	135.476	175.066	-0.416	-122.512	218.588	-118.147	-85.190	224.158	125.039	116.074	0.00028909	0.0010492	0.0002378	1484.7	7.6396e-06	9.721e-06	1430.4	535.35	6.6649e-07	1.2256e-05	567.65	155.27	142.49	51.969	2.4378e-06	61.536	0.0010924	0.0018431	0.00051959	1372.5	1.8539e-05	1.9926e-05	1323.9	497.67	1.8625e-05	2.1857e-05	529.61	146.16	133.23	48.954	1.8939e-05	57.726	-98.837	-67.516	-60.871	-112.611	12.712	28.455	-113.670	-109.495	-57.585	17.816	-110.841	-106.257	-104.833	-99.773	-19.494	-102.154	-8191	255	
1352.795	1	1	0	0	0.16305	0.21309	0.11984	0.43356	0.12881	0.093663	0.23202	0.20806	0.25711	0.15703	0.33916	0.19239	0.21681	0.34969	0.082368	0.23274	-2.6146	-2.3021	-2.8396	-3.0417	-2.4437	-3.0062	-2.8479	-2.9104	-3.0792	-2.4896	-2.8208	-3.15	-2.4667	-3.0458	-2.6729	-2.6167	-105.477	121.535	83.545	187.883	61.867	187.746	141.216	172.611	50.141	-19.563	-118.567	159.072	-107.587	163.445	41.109	-16.704	0.00030721	0.00050108	0.00017446	1491.2	5.6638e-06	6.4608e-06	1421.3	534.58	3.2561e-06	5.1816e-06	571.96	155.08	142.16	52.237	7.3094e-06	61.345	0.0011061	0.001773	0.00051732	1375.5	1.8212e-05	2.0418e-05	1321.5	496.99	1.8315e-05	2.0929e-05	530.51	145.98	133.39	49.053	1.9417e-05	57.566	-98.527	-74.875	-64.575	-112.547	24.325	4.311	-113.731	-109.304	2.379	27.697	-110.710	-106.567	-104.717	-99.872	4.268	-102.218	-8191	255	
1352.890	1	1	0	0	0.070384	0.1301	0.26035	0.23931	0.11306	0.24939	0.25394	0.27215	0.37953	0.22247	0.12972	0.28565	0.41455	0.35856	0.035644	0.030957	-2.7938	-2.375	-2.5792	-3.1229	-2.3229	-2.9104	-2.8438	-2.7625	-3.0833	-2.375	-2.8292	-3.2292	-2.4021	-3.0208	-2.7729	-2.5292	137.845	44.605	180.142	183.793	158.927	-107.114	149.010	191.271	-26.793	25.456	200.567	-92.013	-113.351	223.854	-23.209	99.586	0.00028376	0.0005517	0.0001853	1487.7	4.7442e-06	5.9136e-06	1428.4	535.91	4.9414e-06	3.7828e-06	573.68	157.64	142.43	52.681	3.8325e-06	61.589	0.0011101	0.0018303	0.0005268	1372.4	1.8513e-05	2.0381e-05	1322.6	498.14	1.8878e-05	2.0533e-05	531.02	146.67	133.31	49.269	1.9227e-05	57.875	-98.775	-66.235	-22.908	-113.110	-39.243	0.939	-114.094	-109.509	5.618	21.554	-111.194	-106.665	-105.178	-99.952	25.491	-101.947	-8191	255	
1352.986	1	1	0	0	0.23408	0.1407	0.12998	0.47689	0.2362	0.375	0.17553	0.22829	0.26885	0.15198	0.37764	0.14001	0.1413	0.30398	0.21125	0.2776	-2.5958	-2.5438	-2.6688	-3.3125	-2.4958	-2.9729	-3.1458	-2.6667	-3.0563	-2.5333	-2.8458	-3.1771	-2.6521	-2.9333	-2.7354	-2.5271	180.962	97.892	-117.423	154.127	-50.070	156.483	211.436	168.202	218.726	67.139	194.056	-48.265	-70.268	-119.994	47.047	-1.500	0.00030858	0.0006794	0.00015214	1482.9	3.3366e-06	7.6294e-06	1428.7	532.89	3.7512e-06	4.7951e-06	569.3	157.26	142.27	52.583	4.933e-06	62.065	0.0011035	0.0018018	0.00051109	1372.4	1.804e-05	2.0457e-05	1321	497.31	1.8313e-05	2.071e-05	532.15	147.04	133.58	49.286	1.8958e-05	58.123	-96.295	-28.676	-64.565	-112.452	-60.175	8.382	-113.676	-109.200	7.712	34.408	-110.939	-106.431	-104.817	-99.535	22.822	-102.014	-8191	255	
1353.082	1	1	0	0	0.12052	0.23138	0.050726	0.26649	0.23475	0.19831	0.2459	0.32543	0.062252	0.24569	0.24078	0.13066	0.34419	0.097566	0.12582	0.2693	-2.7625	-2.6437	-2.5458	-3.3937	-2.5021	-2.8125	-3.1896	-2.5333	-2.8729	-2.7208	-2.6042	-3.2875	-2.4042	-2.7625	-2.8563	-2.5333	-2.059	-112.048	64.541	199.961	158.330	-126.006	160.758	141.957	213.863	71.219	219.968	-126.910	181.798	125.953	-41.035	180.339	0.00030804	0.00057324	0.00021316	1489.1	7.6955e-06	9.2251e-06	1426.4	532.45	2.5143e-06	1.3258e-05	570.14	155.79	142.5	52.532	7.6962e-06	62.22	0.0010927	0.001873	0.0005257	1374.9	1.8662e-05	2.0688e-05	1323	496.34	1.8774e-05	2.0817e-05	530.84	146.47	133.62	49.296	1.9135e-05	58.023	-92.501	-39.743	-41.966	-112.671	0.401	41.260	-114.015	-109.330	29.369	26.259	-110.499	-106.329	-104.707	-99.828	46.905	-102.430	-8191	255	
1353.203	1	1	0	0	0.11989	0.043047	0.13915	0.12385	0.15322	0.20563	0.072929	0.30468	0.30222	0.061506	0.074799	0.021094	0.13777	0.12064	0.02294	0.14736	-2.7271	-2.6229	-2.2875	-3.225	-2.225	-2.7979	-3.1646	-2.5312	-2.9333	-2.7542	-2.45	-3.0667	-2.5958	-2.6604	-3.075	-2.4625	-119.650	125.779	138.528	169.236	-58.193	84.378	159.744	133.049	-51.596	113.603	68.349	94.225	-119.916	-100.549	40.109	29.390	0.00030604	0.00060727	0.00026807	1483.6	5.6226e-06	4.8521e-06	1420.2	533.21	6.0356e-06	8.9254e-06	573.12	156.37	143.08	52.659	5.3323e-06	62.203	0.0011248	0.0018218	0.00049689	1370.1	1.9059e-05	2.0086e-05	1318.8	495.45	1.8975e-05	2.0861e-05	531.26	146.61	133.76	49.445	1.9299e-05	58.215	-91.731	-14.212	-54.360	-112.679	12.443	33.060	-113.639	-109.257	5.478	23.017	-111.092	-106.355	-105.172	-99.695	20.311	-101.976	-8191	255	
1353.299	1	1	0	0	0.19873	0.099877	0.15202	0.21157	0.15078	0.18579	0.31276	0.087686	0.25987	0.055866	0.1516	0.063955	0.20129	0.10619	0.42848	0.22789	-2.4083	-2.7875	-2.1958	-3.0521	-2.5396	-2.5417	-3.2583	-2.7375	-2.7125	-2.8146	-2.5271	-3.1875	-2.6625	-2.6354	-3.1021	-2.5458	89.326	-79.397	-10.804	205.290	124.316	120.759	202.926	110.547	-41.659	171.988	209.406	221.674	211.297	164.816	39.634	-122.216	0.00030488	0.00081328	0.00023276	1478.2	5.8771e-06	6.0525e-06	1430.4	536.27	3.311e-06	9.0418e-06	573.32	155.58	143.79	52.995	4.2468e-06	62.429	0.0011012	0.0018561	0.00051202	1368.2	1.8895e-05	2.0165e-05	1320.4	498.43	1.8107e-05	2.1431e-05	531.32	146.67	134.15	49.462	1.9417e-05	58.386	-97.636	-49.756	-93.722	-113.248	9.816	13.591	-113.956	-109.471	6.807	30.286	-111.216	-106.154	-104.796	-100.196	60.842	-102.158	-8191	255	
1353.395	1	1	0	0	0.18359	0.11275	0.22901	0.14028	0.33978	0.12853	0.33032	0.31664	0.19867	0.168	0.063276	0.20781	0.045259	0.21322	0.34882	0.049172	-2.2292	-2.7229	-2.3854	-3.0625	-2.475	-2.5667	-3.2062	-2.375	-2.6146	-2.8937	-2.5646	-2.9021	-2.8833	-2.6542	-3.1583	-2.4167	-0.883	-4.435	109.368	171.154	-15.314	114.715	172.195	144.294	-47.660	29.553	138.316	217.988	211.734	-124.093	41.267	141.247	0.0002887	0.00050181	0.00021323	1488.1	5.665e-06	6.5253e-06	1436.4	539.39	2.5477e-06	4.5163e-06	575.77	158.34	144.76	53.062	5.3123e-06	62.438	0.0010856	0.0018593	0.00051052	1371.9	1.8988e-05	2.0484e-05	1323.7	499.01	1.8862e-05	2.0946e-05	531.94	147.68	134.67	49.498	1.9237e-05	58.4	-91.078	-55.776	-42.532	-112.902	56.811	22.304	-114.227	-109.364	27.417	1.309	-111.147	-106.339	-104.903	-100.162	13.215	-102.210	-8191	255	
1353.491	1	1	0	0	0.14567	0.0242	0.086289	0.33031	0.18376	0.091543	0.082196	0.36693	0.23943	0.12135	0.066059	0.35265	0.12325	0.028997	0.15906	0.24861	-2.4	-2.9604	-2.3917	-3.1188	-2.825	-2.55	-3.2771	-2.6	-2.5417	-3.0062	-2.6625	-2.9729	-2.975	-2.7562	-3.0667	-2.6875	103.463	83.404	32.119	206.273	-44.401	78.691	173.338	206.261	14.883	50.332	58.108	121.498	0.286	64.257	-77.589	171.489	0.00024844	0.00039779	0.00024815	1491.1	5.1989e-06	2.4173e-06	1438.1	540.14	5.8257e-06	7.0189e-06	573.71	156.3	143.76	52.811	5.8607e-06	62.145	0.0010727	0.0018462	0.00051522	1373.9	1.8647e-05	2.0479e-05	1323	499.19	1.8263e-05	2.0351e-05	532.04	146.8	134.17	49.354	1.9562e-05	58.095	-101.656	-49.981	-52.343	-113.166	16.732	29.059	-114.340	-109.525	28.033	-13.191	-111.065	-106.405	-104.666	-100.205	17.651	-101.917	-8191	255	
1353.587	1	1	0	0	0.1476	0.13627	0.11988	0.2024	0.13484	0.099543	0.35558	0.23966	0.11429	0.03563	0.22657	0.17907	0.28628	0.43925	0.10376	0.087024	-2.1188	-3.0771	-2.4083	-2.8333	-3.0542	-2.4188	-3.2292	-2.8521	-2.4062	-2.9729	-2.7271	-2.9	-3.0333	-2.5979	-2.9792	-2.8479	104.930	110.329	-22.058	-96.791	-118.748	0.935	-121.773	199.626	-111.005	55.554	219.853	108.490	-115.856	113.237	137.954	10.706	0.00025566	0.00076349	0.00019076	1489.8	3.1692e-06	1.0091e-05	1431.8	536.22	7.4867e-06	6.28e-06	575.4	157.9	144.3	52.616	3.4843e-06	62.012	0.0010945	0.0018545	0.00050909	1369.7	1.8585e-05	2.0178e-05	1319.4	498.52	1.8899e-05	2.0933e-05	531.6	146.88	134.53	49.114	1.9096e-05	57.984	-97.559	-25.844	-60.243	-112.923	13.196	5.116	-114.292	-109.648	-20.253	-6.677	-111.088	-106.817	-104.708	-99.976	31.022	-102.317	-8191	255	
#DATA ENDS
