BOXY.EXE: ISS Imagent and Oximeter Data Acquisition Program Version 0.80
Ascii Record File

#ACQ INFORMATION
2  Detector Channels 
16  External MUX Channels 
1  Auxiliary Channels 
5000  Waveform (CCF) Frequency (Hz)
1  Waveforms Skipped 
30  Waveforms Averaged 
1  Cycles Averaged 
16  Acquisitions per Waveform 
10.0806  Updata Rate (Hz) 

#FILE INFORMATION
TRUE -- External MUX Channel results are PARSED.
FALSE -- AC DC and Phase are NOT grouped.
TRUE -- Companion Program Settings File CREATED.
FALSE -- AC data not excluded
FALSE -- DC data not excluded
FALSE -- Phase data not excluded
FALSE -- Auxillary Chn. data not excluded
Tab delimiters

#CALIBRATION STATE
TRUE -- Waveform Calibration Values APPLIED.


#AUX CALIBRATION VALUES
Val Type	aux-1	

Term	1.0000e+00	
Factor	0.0000e+00	


#WF CALIBRATION VALUES
A = Detector Channel
Val Type	A-AC1	A-AC2	A-AC3	A-AC4	A-AC5	A-AC6	A-AC7	A-AC8	A-AC9	A-AC10	A-AC11	A-AC12	A-AC13	A-AC14	A-AC15	A-AC16	A-DC1	A-DC2	A-DC3	A-DC4	A-DC5	A-DC6	A-DC7	A-DC8	A-DC9	A-DC10	A-DC11	A-DC12	A-DC13	A-DC14	A-DC15	A-DC16	A-Ph1	A-Ph2	A-Ph3	A-Ph4	A-Ph5	A-Ph6	A-Ph7	A-Ph8	A-Ph9	A-Ph10	A-Ph11	A-Ph12	A-Ph13	A-Ph14	A-Ph15	A-Ph16	

Term	0.00000e+00	0.00000e+00	0.00000e+00	0.00000e+00	0.00000e+00	0.00000e+00	0.00000e+00	0.00000e+00	0.00000e+00	0.00000e+00	0.00000e+00	0.00000e+00	0.00000e+00	0.00000e+00	0.00000e+00	0.00000e+00	0.00000e+00	0.00000e+00	0.00000e+00	0.00000e+00	0.00000e+00	0.00000e+00	0.00000e+00	0.00000e+00	0.00000e+00	0.00000e+00	0.00000e+00	0.00000e+00	0.00000e+00	0.00000e+00	0.00000e+00	0.00000e+00	0.00000e+00	0.00000e+00	0.00000e+00	0.00000e+00	0.00000e+00	0.00000e+00	0.00000e+00	0.00000e+00	0.00000e+00	0.00000e+00	0.00000e+00	0.00000e+00	0.00000e+00	0.00000e+00	0.00000e+00	0.00000e+00	
Factor	1.00000e+00	1.00000e+00	1.00000e+00	1.00000e+00	1.00000e+00	1.00000e+00	1.00000e+00	1.00000e+00	1.00000e+00	1.00000e+00	1.00000e+00	1.00000e+00	1.00000e+00	1.00000e+00	1.00000e+00	1.00000e+00	1.00000e+00	1.00000e+00	1.00000e+00	1.00000e+00	1.00000e+00	1.00000e+00	1.00000e+00	1.00000e+00	1.00000e+00	1.00000e+00	1.00000e+00	1.00000e+00	1.00000e+00	1.00000e+00	1.00000e+00	1.00000e+00	X	X	X	X	X	X	X	X	X	X	X	X	X	X	X	X	

B = Detector Channel
Val Type	B-AC1	B-AC2	B-AC3	B-AC4	B-AC5	B-AC6	B-AC7	B-AC8	B-AC9	B-AC10	B-AC11	B-AC12	B-AC13	B-AC14	B-AC15	B-AC16	B-DC1	B-DC2	B-DC3	B-DC4	B-DC5	B-DC6	B-DC7	B-DC8	B-DC9	B-DC10	B-DC11	B-DC12	B-DC13	B-DC14	B-DC15	B-DC16	B-Ph1	B-Ph2	B-Ph3	B-Ph4	B-Ph5	B-Ph6	B-Ph7	B-Ph8	B-Ph9	B-Ph10	B-Ph11	B-Ph12	B-Ph13	B-Ph14	B-Ph15	B-Ph16	

Term	0.00000e+00	0.00000e+00	0.00000e+00	0.00000e+00	0.00000e+00	0.00000e+00	0.00000e+00	0.00000e+00	0.00000e+00	0.00000e+00	0.00000e+00	0.00000e+00	0.00000e+00	0.00000e+00	0.00000e+00	0.00000e+00	0.00000e+00	0.00000e+00	0.00000e+00	0.00000e+00	0.00000e+00	0.00000e+00	0.00000e+00	0.00000e+00	0.00000e+00	0.00000e+00	0.00000e+00	0.00000e+00	0.00000e+00	0.00000e+00	0.00000e+00	0.00000e+00	-7.21242e+01	-1.36190e+02	-1.31975e+02	-1.84208e+02	-5.78500e+01	-7.12383e+01	-1.57919e+02	-1.62015e+02	-5.00457e+01	-6.58011e+01	-1.73678e+02	-1.74622e+02	-1.83192e+02	-1.77394e+02	-5.50764e+01	-1.50270e+02	
Factor	1.50587e-05	1.53820e-04	4.27858e-05	1.63141e-01	1.38621e-06	1.57826e-06	1.57083e-01	5.08700e-02	1.06407e-06	1.56460e-06	8.91376e-02	3.09256e-02	2.10338e-02	7.86656e-03	1.28744e-06	1.15860e-02	1.22195e-05	2.56875e-05	7.18329e-06	8.46512e-02	2.51754e-07	2.89162e-07	7.65242e-02	2.66035e-02	2.46997e-07	2.91659e-07	4.50603e-02	1.56519e-02	1.11339e-02	4.15076e-03	2.61534e-07	5.90229e-03	X	X	X	X	X	X	X	X	X	X	X	X	X	X	X	X	



#DISTANCE SETTINGS
A = Detector Channel
A-1	A-2	A-3	A-4	A-5	A-6	A-7	A-8	A-9	A-10	A-11	A-12	A-13	A-14	A-15	A-16	

2.5000e+00	3.0000e+00	2.5000e+00	3.0000e+00	2.0000e+00	3.0000e+00	1.5000e+00	3.0000e+00	3.0000e+00	3.0000e+00	3.0000e+00	3.0000e+00	3.0000e+00	3.0000e+00	1.5000e+00	3.0000e+00	

B = Detector Channel
B-1	B-2	B-3	B-4	B-5	B-6	B-7	B-8	B-9	B-10	B-11	B-12	B-13	B-14	B-15	B-16	

1.0000e+01	1.0000e+01	1.0000e+01	1.4400e+00	1.0000e+01	1.0000e+01	1.5100e+00	1.9400e+00	1.0000e+01	1.0000e+01	1.9900e+00	2.4900e+00	2.4100e+00	2.9000e+00	1.0000e+01	2.9800e+00	




#DATA BEGINS
time	group	step	mark	flag	A-AC1	A-AC2	A-AC3	A-AC4	A-AC5	A-AC6	A-AC7	A-AC8	A-AC9	A-AC10	A-AC11	A-AC12	A-AC13	A-AC14	A-AC15	A-AC16	A-DC1	A-DC2	A-DC3	A-DC4	A-DC5	A-DC6	A-DC7	A-DC8	A-DC9	A-DC10	A-DC11	A-DC12	A-DC13	A-DC14	A-DC15	A-DC16	A-Ph1	A-Ph2	A-Ph3	A-Ph4	A-Ph5	A-Ph6	A-Ph7	A-Ph8	A-Ph9	A-Ph10	A-Ph11	A-Ph12	A-Ph13	A-Ph14	A-Ph15	A-Ph16	B-AC1	B-AC2	B-AC3	B-AC4	B-AC5	B-AC6	B-AC7	B-AC8	B-AC9	B-AC10	B-AC11	B-AC12	B-AC13	B-AC14	B-AC15	B-AC16	B-DC1	B-DC2	B-DC3	B-DC4	B-DC5	B-DC6	B-DC7	B-DC8	B-DC9	B-DC10	B-DC11	B-DC12	B-DC13	B-DC14	B-DC15	B-DC16	B-Ph1	B-Ph2	B-Ph3	B-Ph4	B-Ph5	B-Ph6	B-Ph7	B-Ph8	B-Ph9	B-Ph10	B-Ph11	B-Ph12	B-Ph13	B-Ph14	B-Ph15	B-Ph16	aux-1	digaux	

1262.180	1	1	0	512	0.19063	0.13487	0.27144	0.20526	0.095879	0.10669	0.20553	0.063636	0.14099	0.11562	0.22967	0.18593	0.25518	0.19243	0.23658	0.079888	-1.7313	-2.8146	-2.5146	-2.5271	-2.9688	-2.225	-2.85	-2.9854	-2.3083	-2.8	-2.7229	-2.5958	-2.9354	-2.5021	-2.4625	-2.9062	502.680	268.219	518.311	434.885	371.822	215.728	475.519	260.955	423.806	414.498	216.210	178.007	413.844	523.127	208.989	306.653	0.00031091	0.00038087	0.00020662	1341.2	4.2447e-06	5.8456e-06	1261.9	408.37	4.558e-06	4.8629e-06	417.51	94.44	89.529	28.08	6.4943e-06	32.487	0.00086068	0.0014197	0.00041675	1299.9	1.4903e-05	1.6223e-05	1217	397.99	1.5048e-05	1.648e-05	404.36	92.221	87.679	27.49	1.5308e-05	31.819	249.443	219.541	253.949	192.290	326.278	301.712	190.586	195.822	327.687	326.272	194.157	198.811	200.859	206.490	334.657	203.912	-8191	255	
1262.276	1	1	0	0	0.16187	0.25693	0.24608	0.42151	0.38451	0.35283	0.19422	0.20056	0.1086	0.087839	0.24115	0.14424	0.24821	0.31447	0.14657	0.058816	-1.7771	-2.8104	-2.6021	-2.4292	-2.9875	-2.4208	-2.8167	-2.9604	-2.3625	-2.7313	-2.925	-2.3792	-3.2771	-2.6583	-2.6375	-3.0187	285.149	514.920	236.041	507.876	470.518	343.613	528.831	406.987	308.921	191.407	260.970	266.376	486.510	487.126	411.089	308.867	0.00026047	0.00050083	9.2371e-05	1349.3	4.8694e-06	5.6805e-06	1260.5	410.58	4.8349e-06	3.2664e-06	416.38	94.042	90.224	27.862	2.4192e-06	32.507	0.00087293	0.0014882	0.00041204	1299.7	1.4378e-05	1.6747e-05	1215.5	397.34	1.5146e-05	1.6668e-05	403.43	91.819	87.897	27.446	1.5154e-05	31.789	264.071	273.576	236.750	192.051	322.919	337.361	190.674	195.680	326.135	293.380	194.106	199.103	201.016	206.298	325.084	204.114	-8191	255	
1262.397	1	1	0	0	0.27199	0.088001	0.070369	0.12953	0.24153	0.20133	0.21343	0.25556	0.20306	0.25212	0.13775	0.12925	0.11092	0.32422	0.12366	0.064184	-1.8563	-2.4958	-2.9208	-2.3792	-2.8958	-2.4625	-2.4813	-3.2583	-2.425	-2.6375	-2.9583	-2.4292	-3.0271	-2.5333	-2.4875	-3.0146	336.901	356.583	246.542	525.148	526.534	481.558	431.856	190.618	479.944	444.260	463.435	415.825	468.739	503.806	425.454	499.443	0.00030257	0.00078437	8.0723e-05	1345.6	6.6334e-06	5.3056e-06	1258	409.05	4.6463e-06	4.8989e-06	415.16	94.489	89.612	28.152	5.9241e-06	32.421	0.00083719	0.0014448	0.00040155	1302	1.4934e-05	1.6733e-05	1214.7	397.4	1.4418e-05	1.6642e-05	402.72	92.357	87.863	27.695	1.4897e-05	31.908	259.479	263.384	282.062	192.220	293.552	328.949	190.746	195.791	309.419	337.417	194.138	198.577	200.927	206.563	327.064	204.192	-8191	255	
1262.491	1	1	0	0	0.12027	0.17429	0.058455	0.19803	0.31077	0.14972	0.071985	0.21599	0.18344	0.28583	0.20253	0.1484	0.40282	0.2525	0.16931	0.33311	-2.0479	-2.6667	-3.0625	-2.4833	-2.7146	-2.5917	-2.4167	-3.0479	-2.3583	-2.4375	-3.1312	-2.3792	-2.9938	-2.6771	-2.5292	-2.9729	362.515	202.777	385.490	479.440	214.965	348.898	465.751	489.045	407.681	423.403	458.985	478.240	246.585	213.182	320.563	528.749	0.00030492	0.00041639	9.2754e-05	1339	6.1977e-06	5.5563e-06	1252.5	407.9	4.9284e-06	3.4736e-06	413.58	94.304	89.406	28.01	2.7529e-06	32.245	0.000842	0.0014418	0.00041044	1295.1	1.4914e-05	1.6212e-05	1214	397.95	1.4657e-05	1.6454e-05	404.24	92.37	87.986	27.642	1.4579e-05	31.915	258.131	286.474	330.608	192.085	294.607	320.156	190.933	195.965	306.282	348.357	194.638	199.081	200.996	206.672	311.205	204.470	-8191	255	
1262.587	1	1	0	0	0.1884	0.1897	0.2663	0.22477	0.27762	0.24706	0.33162	0.25093	0.1395	0.16741	0.1545	0.1976	0.20394	0.11614	0.092885	0.24423	-2.2458	-2.4354	-2.8729	-2.4729	-2.5708	-2.7188	-2.4875	-3.0542	-2.5958	-2.5542	-2.9729	-2.3271	-2.8146	-2.7875	-2.4104	-2.9167	367.827	257.537	350.666	182.928	343.519	190.971	457.032	494.411	339.066	497.383	485.597	530.073	206.529	218.233	487.044	515.626	0.00028924	0.00049886	0.00013785	1340.5	5.0532e-06	4.3997e-06	1257.3	408.79	4.7996e-06	5.9964e-06	414.31	93.753	89.256	27.999	2.8129e-06	32.218	0.00082436	0.0014029	0.00039505	1298.1	1.4921e-05	1.6158e-05	1216.6	398.83	1.4537e-05	1.6809e-05	403.99	92.251	87.973	27.641	1.5002e-05	31.847	256.482	265.003	253.061	192.334	280.695	298.554	190.995	196.033	338.762	359.661	194.340	199.280	201.292	206.581	330.143	204.325	-8191	255	
1262.661	1	1	0	0	0.16428	0.23369	0.16045	0.31404	0.17045	0.24127	0.15419	0.1566	0.23989	0.23683	0.23808	0.23014	0.14485	0.19659	0.25077	0.24993	-2.1479	-2.2875	-2.825	-2.5604	-2.6229	-2.8896	-2.6104	-3.0083	-2.6229	-2.2875	-3.2042	-2.2146	-2.7667	-2.8896	-2.2062	-2.8792	431.022	224.560	229.448	492.582	367.156	284.133	291.258	509.972	538.259	293.066	497.530	196.822	515.109	182.450	455.077	511.588	0.00030188	0.00059143	0.00017206	1334.6	5.3099e-06	4.1214e-06	1240.3	405.09	3.433e-06	4.7703e-06	410.19	93.061	89.685	27.932	4.8855e-06	32.685	0.00086234	0.0014502	0.00039707	1293.4	1.4821e-05	1.5976e-05	1207.6	396.07	1.4636e-05	1.6029e-05	402.04	91.786	88.065	27.603	1.5149e-05	31.956	258.173	286.964	251.130	192.599	323.162	332.763	191.205	196.544	325.183	314.485	194.930	199.028	200.704	206.720	334.756	203.607	-8191	255	
1262.779	1	1	0	0	0.094306	0.091281	0.12259	0.26692	0.17633	0.17731	0.22952	0.23716	0.18262	0.1144	0.17107	0.24824	0.15137	0.27774	0.15864	0.090581	-2.4188	-2.3063	-2.9625	-2.4958	-2.5646	-2.9646	-2.5687	-2.9021	-2.8979	-2.2812	-2.9646	-2.6292	-2.5208	-2.6604	-2.3208	-2.9437	315.402	286.225	361.193	216.002	328.159	329.940	528.677	469.010	308.439	180.397	361.413	491.877	233.669	462.979	354.233	228.020	0.00027949	0.00037382	0.00013944	1346.2	5.2341e-06	3.7289e-06	1255.6	411.51	5.2548e-06	5.3401e-06	419.6	95.108	90.168	28.147	4.4035e-06	32.424	0.00085951	0.0014252	0.00039662	1297	1.4246e-05	1.5715e-05	1211	398.32	1.4242e-05	1.5923e-05	404.95	92.415	88.133	27.679	1.4826e-05	31.865	256.601	243.023	254.460	192.066	320.623	317.908	190.705	195.735	336.430	297.725	193.846	198.718	200.489	206.457	328.349	203.578	-8191	255	
1262.876	1	1	0	0	0.13807	0.083492	0.36678	0.31522	0.1169	0.16818	0.24686	0.21189	0.18123	0.08809	0.2881	0.13721	0.23445	0.13345	0.092772	0.082529	-2.3125	-2.2687	-2.7396	-2.8312	-2.5667	-2.9333	-2.4813	-2.7729	-2.8729	-2.2667	-3.0687	-2.8292	-2.4708	-3.1688	-2.3729	-2.5583	194.944	223.583	506.073	528.114	328.459	284.519	395.504	447.528	493.312	197.526	213.100	410.073	185.753	394.351	292.152	462.643	0.00027467	0.00053807	9.3898e-05	1342	3.2866e-06	8.9341e-06	1256.8	411.26	3.2848e-06	7.2091e-06	418.18	94.386	89.801	28.247	3.9743e-06	32.455	0.00082907	0.0014288	0.0003915	1298.1	1.4519e-05	1.6034e-05	1212.5	399.22	1.4045e-05	1.5408e-05	405.04	92.38	88.046	27.739	1.4671e-05	31.995	261.062	249.226	244.427	192.275	383.047	307.068	190.493	195.950	330.641	332.161	194.254	199.273	200.838	206.436	336.430	203.783	-8191	255	
1262.972	1	1	0	0	0.18115	0.13644	0.1834	0.24279	0.12218	0.093064	0.11657	0.24036	0.12846	0.22418	0.037764	0.11649	0.19398	0.036907	0.36069	0.16556	-2.4708	-2.3187	-2.9021	-2.7625	-2.4167	-2.9271	-2.4875	-2.7708	-2.7396	-2.4292	-2.9062	-2.8896	-2.2687	-2.875	-2.5646	-2.3979	511.686	512.209	254.665	422.921	190.534	478.917	393.653	534.674	418.568	297.155	225.472	520.551	312.579	521.321	524.202	484.357	0.00032677	0.00062759	0.00022341	1351.2	4.6126e-06	4.7037e-06	1256.3	411.85	4.2925e-06	5.4531e-06	414.17	94.614	90.207	28.161	4.5528e-06	32.466	0.00083818	0.0013968	0.00038945	1301.3	1.4814e-05	1.5644e-05	1213	398.87	1.4206e-05	1.5737e-05	404.11	92.437	88.093	27.586	1.3987e-05	31.828	260.190	251.682	265.806	192.099	325.341	318.303	191.076	195.811	299.664	314.085	194.247	199.149	200.778	206.466	331.875	203.943	-8191	255	
1263.068	1	1	0	0	0.1557	0.35898	0.086978	0.17406	0.19993	0.024094	0.14337	0.50705	0.13385	0.18113	0.17124	0.13916	0.21861	0.092952	0.36667	0.080057	-2.7854	-2.2833	-2.7292	-3.1667	-2.2729	-2.8812	-2.6646	-2.5604	-2.8896	-2.3208	-2.7333	-2.8333	-2.3021	-2.9188	-2.5396	-2.45	526.337	383.770	383.478	237.220	352.860	314.371	465.933	508.327	517.404	452.327	202.899	207.172	258.166	273.601	179.245	495.996	0.00029292	0.00035055	9.684e-05	1344.3	4.9516e-06	3.5232e-06	1257.1	409.45	3.3977e-06	6.2611e-06	415.64	94.284	89.964	27.893	1.846e-06	32.234	0.00082387	0.0014309	0.00038746	1298.2	1.4146e-05	1.6106e-05	1213.1	398.15	1.4267e-05	1.664e-05	403.75	92.318	88.006	27.548	1.4403e-05	31.677	253.521	234.938	281.864	192.406	326.051	319.255	190.848	195.745	300.143	349.098	194.192	198.943	201.073	206.553	334.583	203.695	-8191	255	
1263.189	1	1	0	0	0.13183	0.16105	0.138	0.39842	0.28039	0.10235	0.21808	0.26255	0.050158	0.15999	0.066923	0.25983	0.42763	0.079475	0.28955	0.19354	-2.7708	-2.3563	-2.7458	-2.8917	-2.3563	-2.8958	-2.9521	-2.4229	-2.9	-2.4354	-2.5687	-2.8312	-2.2	-2.7604	-2.425	-2.375	226.643	517.867	453.496	180.168	393.879	203.163	512.110	516.747	192.578	312.391	378.270	463.226	202.621	273.365	193.932	179.738	0.00029848	0.00046875	0.00012383	1342.3	5.8691e-06	5.3868e-06	1259.1	410.28	4.5908e-06	3.5781e-06	417.94	94.642	90.262	28.26	4.8933e-06	32.439	0.00084274	0.0014414	0.00041222	1294.8	1.4375e-05	1.5921e-05	1211.9	397.8	1.4134e-05	1.6049e-05	404.4	92.219	88.018	27.491	1.419e-05	31.694	258.144	249.300	284.949	192.386	326.485	288.033	190.730	195.572	311.357	321.888	193.780	198.985	200.480	205.997	328.217	203.895	-8191	255	
1263.260	1	1	0	0	0.26734	0.21882	0.15309	0.1166	0.025099	0.29481	0.11603	0.28019	0.068108	0.070276	0.061339	0.033952	0.13814	0.20425	0.10534	0.15518	-2.4625	-2.5271	-2.425	-3.0687	-2.175	-2.7167	-2.8271	-2.7417	-2.9	-2.6167	-2.55	-2.8521	-2.3458	-2.8104	-2.8958	-2.4208	439.229	451.891	512.245	402.074	445.734	411.075	460.967	512.805	252.542	319.690	536.182	532.402	216.449	190.597	500.670	489.674	0.00027785	0.00043451	0.00010432	1346.4	3.9018e-06	2.7239e-06	1257.2	411.41	2.9858e-06	5.6517e-06	415.95	94.748	90.141	27.865	4.5321e-06	32.282	0.00081471	0.0014126	0.00038832	1296	1.4202e-05	1.5945e-05	1211.3	398.55	1.4177e-05	1.5877e-05	405.2	92.156	87.93	27.395	1.4493e-05	31.672	257.100	230.058	214.533	192.320	320.101	350.441	190.691	195.960	269.521	319.269	194.182	198.722	200.957	206.324	309.325	204.077	-8191	255	
1263.356	1	1	0	0	0.056963	0.17747	0.042294	0.15034	0.22265	0.16418	0.15626	0.23336	0.063175	0.15244	0.24862	0.22694	0.15189	0.1003	0.25631	0.10196	-2.3479	-2.4479	-2.2812	-3.1167	-2.3937	-2.6437	-2.9958	-2.4	-2.9313	-2.8333	-2.5396	-3.0271	-2.55	-2.7771	-2.9146	-2.1958	212.741	242.278	447.313	283.422	382.255	216.375	435.554	486.830	432.751	286.975	477.961	205.154	500.140	355.525	404.207	413.646	0.00025825	0.00044635	0.00013341	1341.9	4.9249e-06	3.8311e-06	1259.2	408.23	7.3996e-06	5.594e-06	412.29	94	89.068	27.852	1.75e-06	31.919	0.00084958	0.0014818	0.00040445	1295.7	1.476e-05	1.5985e-05	1209.6	396.83	1.4471e-05	1.6034e-05	401.49	91.848	87.278	27.177	1.4577e-05	31.322	258.561	285.875	264.766	192.177	326.360	333.651	191.031	196.050	325.152	325.309	194.168	198.455	200.703	206.130	314.266	203.565	-8191	255	
1263.477	1	1	0	0	0.10802	0.15012	0.38107	0.090321	0.45492	0.10099	0.26082	0.19557	0.34175	0.10141	0.16872	0.064926	0.18403	0.11103	0.086986	0.058887	-2.4292	-2.5375	-2.3667	-3.0729	-2.4208	-2.4562	-2.9188	-2.5604	-2.6937	-2.6417	-2.2146	-2.7979	-2.5854	-2.5917	-2.9354	-2.3958	357.437	247.293	315.125	500.885	420.207	273.847	519.862	426.477	220.411	365.909	531.998	285.520	484.539	358.775	321.608	201.394	0.00027371	0.0003431	0.00012713	1340.9	3.8487e-06	3.624e-06	1250.6	407.27	3.1684e-06	1.1716e-06	415.81	93.111	89.289	27.81	2.8707e-06	31.85	0.00083304	0.0014006	0.00040044	1293.1	1.4164e-05	1.5657e-05	1206.5	396.26	1.4073e-05	1.5974e-05	402.01	91.096	87.385	27.15	1.4313e-05	31.221	257.924	249.936	279.385	192.375	348.200	319.792	190.876	195.839	293.855	357.669	193.841	198.922	200.826	205.856	317.580	203.777	-8191	255	
1263.573	1	1	0	0	0.011228	0.13366	0.26357	0.26529	0.11301	0.13945	0.26998	0.15387	0.090635	0.16621	0.35354	0.09809	0.17766	0.043354	0.27497	0.13253	-2.2875	-2.6937	-2.1875	-3.1979	-2.5208	-2.3688	-3.0604	-2.5083	-2.8	-2.7438	-2.4896	-2.9792	-2.65	-2.475	-2.8854	-2.4917	246.008	304.538	251.001	537.126	356.051	340.949	439.071	537.365	258.139	235.704	191.285	427.304	234.280	522.764	252.950	224.865	0.00030298	0.00058119	0.00017146	1338.8	5.5014e-06	4.2334e-06	1256.5	408.04	3.6028e-06	5.5625e-06	412.48	93.692	89.654	27.755	3.8273e-06	32.289	0.000842	0.0013878	0.00039725	1293.9	1.4523e-05	1.5679e-05	1207.6	395.69	1.4114e-05	1.5647e-05	401.32	91.541	87.595	27.215	1.4335e-05	31.497	249.721	245.922	266.301	192.018	316.852	338.361	190.804	195.782	311.263	367.530	194.157	198.360	200.900	206.180	345.031	203.922	-8191	255	
1263.669	1	1	0	0	0.079846	0.16181	0.136	0.04554	0.10365	0.15575	0.1399	0.21155	0.11028	0.26632	0.086324	0.016191	0.26858	0.025065	0.264	0.32373	-2.1104	-2.7729	-2.3625	-2.975	-2.7167	-2.4062	-3.3	-2.4688	-2.4646	-3.0812	-2.3708	-2.9333	-2.9396	-2.4771	-3.1042	-2.5396	428.104	444.694	419.139	372.392	229.225	275.876	452.071	526.363	383.640	358.980	252.756	519.302	187.756	293.140	377.882	510.190	0.00025975	0.00040031	0.00014211	1339	3.8284e-06	1.7136e-06	1256.5	410.42	4.4064e-06	7.9548e-06	414.74	94.099	89.299	27.88	2.7487e-06	32.167	0.00084128	0.0013933	0.00038749	1291.6	1.3972e-05	1.578e-05	1207.7	397.07	1.405e-05	1.5601e-05	402.12	91.797	87.433	27.285	1.4566e-05	31.457	259.317	313.745	240.209	191.978	323.686	347.435	190.936	195.793	330.277	329.167	194.217	198.886	200.850	206.067	305.721	203.973	-8191	255	
1263.788	1	1	0	0	0.035501	0.12742	0.22398	0.20631	0.032942	0.30792	0.15461	0.36294	0.11137	0.11915	0.15495	0.12396	0.38689	0.10714	0.22796	0.082993	-2.2167	-2.9125	-2.3458	-3.0479	-2.9208	-2.4521	-3.1521	-2.7604	-2.3729	-2.8542	-2.5104	-3.0333	-2.8521	-2.3167	-2.9396	-2.6063	274.211	308.102	431.590	214.941	534.789	436.495	339.595	525.164	247.608	426.571	263.235	454.024	430.775	523.258	258.690	520.122	0.00029527	0.00027948	0.00011794	1336.8	3.0182e-06	4.2301e-06	1247.3	410.25	2.7469e-06	5.8916e-06	413.69	93.817	89.207	27.8	2.1051e-06	31.904	0.00083907	0.0013816	0.00038959	1287.2	1.4515e-05	1.5621e-05	1202.8	395.97	1.4144e-05	1.5755e-05	400.68	91.41	87	27.164	1.4455e-05	31.338	255.997	227.364	239.309	191.976	352.399	318.560	190.793	195.844	298.152	349.586	194.017	198.560	200.642	206.304	342.718	203.911	-8191	255	
1263.884	1	1	0	0	0.097085	0.20781	0.022497	0.031985	0.13238	0.35926	0.053279	0.069971	0.20874	0.13296	0.11767	0.2589	0.083234	0.19224	0.067868	0.10969	-2.1396	-3.1146	-2.1813	-2.8958	-2.8958	-2.1167	-3.1542	-2.6188	-2.4542	-2.9396	-2.5917	-2.8688	-3.05	-2.5083	-2.8583	-2.925	235.538	212.730	446.552	384.916	208.005	442.326	463.765	503.409	226.456	362.447	517.075	444.038	390.334	473.547	516.755	417.419	0.00028689	0.00033142	0.00010505	1336.2	3.6203e-06	6.6454e-06	1242.9	405.27	4.8131e-06	2.3125e-06	414.25	93.371	88.961	27.673	4.108e-06	32.086	0.0008504	0.001365	0.00038808	1284	1.4573e-05	1.5306e-05	1197.9	393.36	1.4048e-05	1.57e-05	399.35	91.028	86.976	27.163	1.4463e-05	31.45	253.643	242.331	237.164	191.901	375.150	294.861	190.804	195.986	305.119	325.241	193.965	198.345	200.867	206.050	344.526	204.067	-8191	255	
1263.956	1	1	0	0	0.18115	0.028413	0.054919	0.2803	0.10224	0.19939	0.21285	0.057516	0.11563	0.2012	0.20417	0.12972	0.10534	0.18619	0.16236	0.3366	-2.15	-2.9146	-2.3708	-2.6771	-3.0583	-2.4667	-2.9583	-2.7917	-2.475	-3	-2.6208	-2.6458	-3.0917	-2.3896	-2.7562	-2.8167	261.970	443.403	342.449	477.333	305.781	398.599	505.659	532.385	359.942	217.674	393.253	180.872	375.736	534.779	435.639	421.681	0.00028796	0.00054498	0.00017821	1331.1	3.9116e-06	3.494e-06	1239.8	406.3	3.8633e-06	3.7272e-06	411.3	93.492	89.151	27.856	2.8762e-06	32.026	0.00083836	0.0013781	0.00040443	1282.6	1.4381e-05	1.5302e-05	1197.6	393.66	1.4123e-05	1.5705e-05	398.93	91.15	87.007	27.34	1.4565e-05	31.438	261.105	235.684	270.823	192.106	306.928	282.979	190.826	195.860	328.039	336.829	194.208	198.648	200.793	206.192	320.416	204.187	-8191	255	
1264.077	1	1	0	0	0.23593	0.069566	0.11871	0.22693	0.16513	0.20178	0.16264	0.032804	0.13671	0.3338	0.10767	0.19176	0.15422	0.08112	0.058209	0.2087	-1.8167	-3.0187	-2.4875	-2.6146	-2.975	-2.5771	-2.8583	-3.0896	-2.4646	-2.9396	-2.6771	-2.5354	-3.0021	-2.4042	-2.6354	-2.8375	499.654	514.210	404.190	479.346	233.468	241.866	431.660	474.417	370.536	350.615	234.523	446.589	226.007	537.786	305.896	221.724	0.00030137	0.00075154	0.00012165	1325.1	3.9049e-06	3.2793e-06	1235.9	405.86	5.0701e-06	3.7165e-06	413.61	93.49	88.874	27.814	4.4279e-06	31.865	0.00083747	0.0014033	0.00038407	1279.7	1.3924e-05	1.5231e-05	1194.2	393.76	1.3814e-05	1.5708e-05	398.76	91.062	86.884	27.283	1.4583e-05	31.392	255.424	234.930	237.478	192.190	353.836	377.347	190.780	195.844	305.513	290.062	194.124	198.611	200.689	206.147	297.615	203.960	-8191	255	
1264.173	1	1	0	0	0.1051	0.18684	0.33768	0.090999	0.26198	0.30733	0.089575	0.12571	0.1153	0.16677	0.18989	0.08164	0.1196	0.18543	0.19773	0.088237	-2.0938	-3.0062	-2.6833	-2.6896	-3.05	-2.2729	-2.8646	-3.0938	-2.2583	-2.875	-2.825	-2.5583	-3.1354	-2.4938	-2.7646	-2.9708	419.155	311.771	352.724	194.994	220.310	531.525	469.655	388.547	522.022	250.374	505.016	436.827	316.371	491.331	343.711	307.968	0.00026599	0.00049613	0.00014507	1318.8	2.7173e-06	4.1451e-06	1237.6	402.69	1.2216e-06	2.166e-06	408.36	92.739	88.74	27.64	2.7363e-06	31.966	0.00083764	0.0014102	0.00039317	1273.8	1.3354e-05	1.5339e-05	1193.9	392.53	1.4068e-05	1.55e-05	397.06	90.565	86.586	27.17	1.4285e-05	31.374	252.233	264.697	258.880	192.078	283.585	383.734	190.972	195.880	342.499	314.464	194.359	198.891	200.930	206.145	347.995	204.131	-8191	255	
1264.269	1	1	0	0	0.18374	0.025881	0.087265	0.1901	0.23086	0.17183	0.12356	0.12188	0.12347	0.1274	0.15307	0.12886	0.1699	0.21047	0.23153	0.36656	-1.9646	-2.7667	-2.7875	-2.5167	-2.9188	-2.5312	-2.7542	-3.1458	-2.3354	-2.85	-3.0104	-2.3771	-3.3125	-2.4792	-2.4562	-3.1562	296.493	399.216	450.603	261.579	409.577	356.341	383.834	187.532	470.195	271.882	426.263	441.185	403.390	483.166	219.711	428.250	0.00029264	0.00041726	0.00014879	1318.7	3.246e-06	3.9071e-06	1233.3	402.53	4.6066e-06	5.1989e-06	408.3	92.507	88.762	27.574	1.756e-06	32.149	0.00082675	0.0014086	0.00038517	1272.9	1.4066e-05	1.5797e-05	1190.4	391.76	1.3732e-05	1.6231e-05	397.19	90.481	86.921	27.169	1.4423e-05	31.439	259.721	268.217	245.945	191.716	340.038	365.944	190.931	195.972	321.448	335.567	193.950	198.727	200.737	206.217	298.903	203.687	-8191	255	
1264.365	1	1	0	0	0.30938	0.017141	0.016969	0.084822	0.20908	0.14668	0.20807	0.086922	0.13238	0.20299	0.079036	0.27025	0.048655	0.19266	0.3785	0.26816	-1.9167	-2.7583	-2.8937	-2.5042	-2.8479	-2.5667	-2.5979	-3.1646	-2.5229	-2.8729	-3.0187	-2.4271	-2.9354	-2.6729	-2.5292	-3.0604	521.931	238.020	528.165	211.934	530.975	521.039	485.405	486.514	505.612	429.581	241.937	285.165	417.849	397.957	356.657	446.850	0.00029733	0.00040979	0.00019481	1315.2	3.6126e-06	4.9164e-06	1229.9	405.03	4.4469e-06	3.1845e-06	410.61	93.825	88.867	27.934	3.6262e-06	32.506	0.00083846	0.001397	0.00039412	1271.5	1.3733e-05	1.5557e-05	1187.5	392.24	1.3883e-05	1.5523e-05	397.81	91.284	86.802	27.399	1.4547e-05	31.6	260.485	288.830	279.217	192.246	312.617	331.557	190.717	195.915	329.613	396.310	194.648	198.648	200.495	205.939	341.999	204.092	-8191	255	
1264.486	1	1	0	0	0.28159	0.069504	0.08364	0.40601	0.235	0.097189	0.21693	0.16791	0.058936	0.061193	0.17986	0.11805	0.083694	0.2476	0.1665	0.15606	-2.1688	-2.5667	-2.9854	-2.4875	-2.6875	-2.8083	-2.5208	-3.0938	-2.3833	-2.4604	-2.9979	-2.5521	-3.0333	-2.8854	-2.15	-3.2271	319.508	347.837	481.464	516.029	535.622	383.827	527.416	421.284	371.962	368.644	258.762	473.064	479.624	493.146	477.946	410.259	0.00029199	0.00050372	0.00016297	1330	5.1882e-06	4.309e-06	1240.7	405.73	2.2192e-06	2.9688e-06	409.46	93.327	89.071	27.666	5.4759e-06	32.214	0.00083495	0.0013557	0.00037651	1276.7	1.4114e-05	1.5135e-05	1191.3	392.48	1.3922e-05	1.5674e-05	397.48	90.99	86.658	27.209	1.4478e-05	31.391	254.237	247.901	261.809	192.032	323.431	345.000	190.559	195.682	342.821	286.366	194.000	198.987	200.778	206.333	348.061	203.795	-8191	255	
1264.557	1	1	0	0	0.21992	0.13391	0.13676	0.15791	0.13716	0.2223	0.20337	0.26655	0.24913	0.25968	0.18179	0.19862	0.23029	0.16161	0.28495	0.030144	-2.2833	-2.275	-3.0021	-2.5125	-2.7104	-2.8833	-2.4875	-3.2062	-2.6312	-2.575	-3.0667	-2.5021	-2.6417	-2.9146	-2.3292	-2.9188	264.807	198.510	482.235	476.201	203.872	532.101	289.197	504.136	231.482	454.841	215.220	491.634	260.073	485.449	283.536	259.752	0.00031851	0.00050264	0.00013339	1319.9	3.0392e-06	4.5125e-06	1228	403.24	4.1234e-06	5.8223e-06	407.26	92.543	88.579	27.654	2.0714e-06	31.943	0.00082683	0.0013885	0.00037543	1271.3	1.4183e-05	1.5136e-05	1185.9	390.87	1.3685e-05	1.5627e-05	396.64	90.564	86.469	27.251	1.4316e-05	31.386	263.581	261.321	255.137	191.946	337.412	291.720	190.876	195.742	296.079	321.580	193.826	199.321	200.589	206.278	324.221	203.444	-8191	255	
1264.654	1	1	0	0	0.44821	0.19154	0.26569	0.35655	0.091869	0.3981	0.26164	0.10289	0.10721	0.12148	0.2852	0.069964	0.31112	0.036498	0.068442	0.14634	-2.2458	-2.3042	-2.8917	-2.7875	-2.65	-3	-2.3917	-3.1771	-2.6229	-2.5167	-3.05	-2.3021	-2.6833	-3.0333	-2.3771	-2.8438	367.630	514.457	299.369	438.803	330.317	412.729	498.623	222.497	516.314	466.818	485.539	384.600	187.776	368.069	435.500	489.884	0.00029845	0.00039207	0.00017543	1314.7	5.0484e-06	4.312e-06	1224.7	404.12	2.0212e-06	3.6404e-06	409.07	93.061	88.299	27.72	4.4537e-06	32.229	0.00081914	0.0013504	0.00038365	1267.7	1.4173e-05	1.5185e-05	1184.9	391.17	1.3957e-05	1.524e-05	397.22	90.725	86.348	27.275	1.4379e-05	31.457	257.919	258.567	239.271	191.916	325.503	300.018	190.812	195.674	305.158	310.142	194.272	198.940	200.887	206.428	332.026	203.698	-8191	255	
1264.750	1	1	0	0	0.21158	0.1478	0.30166	0.27299	0.089391	0.088963	0.20971	0.24656	0.06067	0.022759	0.087244	0.037461	0.28783	0.050367	0.20743	0.076254	-2.3417	-2.1312	-2.9479	-2.5354	-2.4854	-3.0479	-2.4521	-3.0292	-2.9313	-2.3479	-3.0417	-2.6604	-2.5125	-3.0625	-2.2896	-2.825	456.943	205.231	188.205	190.428	227.661	492.801	407.624	430.156	367.749	267.556	519.666	531.134	277.115	379.592	384.639	470.065	0.00029757	0.00047116	0.00014388	1317.2	4.2511e-06	6.7723e-06	1227.5	401.84	6.4232e-06	3.6211e-06	407.16	92.46	88.157	27.679	3.3069e-06	31.923	0.00083082	0.0014052	0.00037667	1271.2	1.4245e-05	1.5221e-05	1184.8	390.27	1.392e-05	1.5694e-05	395.48	90.631	86.315	27.236	1.4393e-05	31.445	261.632	269.458	234.017	192.172	354.507	265.966	190.984	195.616	298.348	348.304	194.216	199.265	200.863	206.186	339.944	203.793	-8191	255	
1264.869	1	1	0	0	0.12582	0.13811	0.096525	0.21939	0.014895	0.14578	0.076838	0.36732	0.2945	0.11407	0.0094035	0.25715	0.36379	0.11241	0.23177	0.14959	-2.6042	-2.4479	-2.8937	-2.8583	-2.5854	-3.0583	-2.8208	-2.6875	-2.9104	-2.0833	-3.1333	-2.7125	-2.4458	-3.2	-2.4292	-2.7958	302.545	377.694	506.378	204.607	251.923	266.365	421.885	481.595	460.114	372.000	397.933	223.808	489.630	219.957	521.151	209.367	0.00027655	0.00085518	0.00018461	1311.8	4.4878e-06	3.3634e-06	1223.9	400.03	2.5449e-06	4.7388e-06	410.31	92.657	88.552	27.833	1.4117e-06	31.972	0.00081725	0.0013687	0.0003896	1266.9	1.3934e-05	1.4991e-05	1181.4	389.17	1.3667e-05	1.5681e-05	396.04	90.302	86.263	27.247	1.4493e-05	31.315	260.454	243.361	269.636	192.336	304.451	339.278	190.852	195.739	312.383	293.436	193.830	199.387	200.640	206.448	319.995	203.227	-8191	255	
1264.965	1	1	0	0	0.057343	0.23283	0.19518	0.19451	0.22951	0.11329	0.12482	0.22951	0.18787	0.085407	0.12543	0.2791	0.24755	0.13947	0.034197	0.079906	-2.5312	-2.3312	-2.8583	-3.0354	-2.5583	-2.9417	-2.55	-2.6063	-3.0729	-2.3792	-2.8854	-2.7875	-2.5333	-3.0375	-2.7583	-2.5604	264.841	512.932	364.809	235.728	422.773	368.153	269.736	451.476	333.514	480.890	442.715	516.550	246.351	531.012	430.356	192.735	0.00026239	0.00044677	9.4355e-05	1314.1	4.1463e-06	4.6158e-06	1224.5	401.26	4.4857e-06	4.0667e-06	403.45	92.832	87.849	27.529	3.9783e-06	31.999	0.0008254	0.0013904	0.00039159	1267.2	1.4323e-05	1.5542e-05	1179.3	389.28	1.3597e-05	1.56e-05	393.28	90.125	86.024	27.136	1.4771e-05	31.254	254.436	261.801	305.688	191.975	355.036	304.714	190.620	195.752	331.276	351.241	194.108	199.091	200.851	206.383	355.305	203.830	-8191	255	
1265.061	1	1	0	0	0.15729	0.17419	0.027015	0.3042	0.16863	0.049701	0.32714	0.34156	0.10832	0.35667	0.23536	0.24642	0.25854	0.28099	0.048835	0.31471	-2.4729	-2.3292	-2.6063	-2.8063	-2.3354	-3.0083	-2.6125	-2.6792	-3.1417	-2.4	-2.8958	-2.8917	-2.3833	-3.0062	-2.725	-2.5917	419.859	396.278	445.668	500.719	532.173	439.362	471.783	522.487	353.554	270.370	443.671	508.942	268.126	448.367	416.401	397.315	0.00029035	0.00027884	0.00016759	1308.1	3.1267e-06	7.2402e-06	1214.2	399.22	3.7305e-06	6.6893e-06	404.68	91.914	88.203	27.748	4.0653e-06	31.961	0.0008421	0.001426	0.00039665	1262.5	1.4369e-05	1.587e-05	1177	388.06	1.4002e-05	1.6172e-05	393.12	90.075	86.162	27.225	1.4328e-05	31.348	257.244	280.548	256.254	192.274	315.285	325.444	190.894	195.891	317.314	335.082	194.703	199.211	200.485	206.530	371.937	203.617	-8191	255	
1265.157	1	1	0	0	0.028477	0.095528	0.25647	0.20252	0.25368	0.23336	0.14364	0.28404	0.18197	0.18216	0.11657	0.084904	0.19495	0.099351	0.09932	0.13808	-2.6083	-2.2875	-2.5854	-2.9417	-2.2354	-2.8604	-2.8438	-2.6188	-3.0104	-2.5854	-2.6708	-3.0833	-2.4042	-2.8312	-2.6083	-2.5062	532.590	272.895	381.637	185.068	496.835	297.114	456.015	514.954	532.031	184.530	384.908	513.697	303.201	357.998	340.822	199.781	0.00029843	0.00045964	7.0233e-05	1312.4	4.5659e-06	4.1661e-06	1221.9	401.78	5.5579e-06	5.0783e-06	405.13	92.012	87.874	27.713	1.201e-06	31.857	0.00084276	0.0013763	0.00039562	1261.7	1.4228e-05	1.5567e-05	1177	389.03	1.4026e-05	1.5833e-05	393.71	90.282	85.994	27.214	1.4594e-05	31.273	261.627	250.335	249.329	192.348	325.529	327.857	190.667	195.771	301.206	339.693	194.265	199.041	200.731	206.295	352.785	203.958	-8191	255	
1265.253	1	1	0	0	0.16713	0.12192	0.20703	0.064371	0.049066	0.10419	0.20128	0.14902	0.075365	0.062036	0.11681	0.16327	0.036132	0.19913	0.39185	0.068451	-2.5042	-2.5	-2.4625	-3.1437	-2.2958	-2.85	-2.8625	-2.2771	-2.9417	-2.3917	-2.525	-3.0917	-2.3563	-2.8229	-2.8292	-2.2354	465.574	262.677	265.901	423.636	438.330	468.744	413.996	388.088	178.547	369.165	424.194	500.914	420.734	485.999	226.993	198.285	0.00028954	0.00067242	0.00011393	1311.5	4.4782e-06	2.8202e-06	1214.8	400.9	3.7001e-06	5.4135e-06	402.05	92.138	87.981	27.751	3.6384e-06	31.624	0.00082993	0.0014379	0.00039815	1263.5	1.3924e-05	1.5304e-05	1174.5	388	1.4342e-05	1.5437e-05	391.17	89.874	85.88	27.178	1.4442e-05	31.123	259.300	236.326	240.194	192.338	334.327	345.341	190.721	195.610	339.544	331.003	194.094	199.193	200.912	206.529	321.232	203.966	-8191	255	
1265.349	1	1	0	0	0.071398	0.17088	0.25136	0.20371	0.052655	0.024112	0.08417	0.26231	0.14125	0.23928	0.10844	0.20019	0.055813	0.26951	0.14553	0.29477	-2.7021	-2.6583	-2.3854	-3.0563	-2.2167	-2.875	-2.8979	-2.4625	-3.1083	-2.6312	-2.6312	-3.1312	-2.5125	-2.8375	-2.7438	-2.4	435.151	219.615	418.630	214.118	334.807	334.860	483.040	449.540	266.243	179.771	374.551	334.970	388.254	501.128	337.233	490.628	0.00028975	0.00083267	0.00015399	1308.4	1.4493e-06	1.011e-06	1212.1	400.32	5.0427e-06	5.485e-06	403.99	92.246	87.636	27.574	3.1448e-06	31.837	0.00081924	0.0014078	0.00039334	1263.4	1.4268e-05	1.5516e-05	1173.4	387.49	1.4276e-05	1.5841e-05	392.27	89.96	85.7	27.052	1.433e-05	31.139	258.392	275.854	229.173	192.205	303.358	297.592	191.025	196.043	316.625	285.961	194.316	199.046	200.909	206.369	309.877	203.859	-8191	255	
1265.470	1	1	0	0	0.15371	0.13722	0.09318	0.12357	0.17785	0.25508	0.25101	0.26849	0.20041	0.10048	0.27078	0.27614	0.12409	0.22977	0.16224	0.31376	-2.3229	-2.675	-2.425	-3.0979	-2.4979	-2.5187	-3.0542	-2.4437	-2.7958	-2.8354	-2.5396	-3.0104	-2.5583	-2.525	-3.0083	-2.2396	232.301	217.719	438.685	243.196	299.104	502.518	492.176	492.866	466.324	480.983	212.645	431.405	222.344	323.980	425.478	366.657	0.00027616	0.00038736	4.9284e-05	1303.5	3.5568e-06	5.5301e-06	1216.3	401.4	3.0048e-06	5.1803e-06	403.57	92.169	88.248	27.623	3.3198e-06	31.882	0.00082479	0.0014041	0.00039496	1258.5	1.419e-05	1.5606e-05	1173.8	387.88	1.4288e-05	1.5159e-05	391.26	90.19	86.028	27.088	1.446e-05	31.23	258.248	229.885	186.085	192.094	331.119	340.240	190.863	195.826	336.278	297.397	194.097	198.936	200.636	206.153	338.153	203.714	-8191	255	
1265.566	1	1	0	0	0.11005	0.15353	0.14372	0.29763	0.15904	0.12164	0.20789	0.10922	0.25411	0.25134	0.094478	0.28695	0.24656	0.12199	0.10333	0.16438	-2.3021	-2.8479	-2.2854	-3.2479	-2.4333	-2.3958	-3.1958	-2.5938	-2.7562	-2.7833	-2.4521	-3.0521	-2.6354	-2.4167	-3.0979	-2.3583	387.182	225.403	344.980	508.204	223.536	394.685	450.239	522.169	228.978	332.076	180.465	268.577	472.892	199.368	282.608	449.891	0.00031311	0.00042923	8.5245e-05	1307.2	4.5893e-06	4.6846e-06	1222.4	401.9	7.208e-06	4.7693e-06	406.2	92.625	87.477	27.73	2.798e-06	31.893	0.00081736	0.001365	0.00038909	1262.3	1.4155e-05	1.5843e-05	1176.7	388.31	1.4149e-05	1.5775e-05	392.76	90.161	86.029	27.098	1.4062e-05	31.194	258.162	261.608	292.509	192.000	340.687	269.061	191.014	195.950	327.505	325.049	194.124	198.573	200.601	205.896	338.707	203.811	-8191	255	
1265.661	1	1	0	0	0.11893	0.11454	0.2599	0.18466	0.25	0.066862	0.28105	0.23552	0.21792	0.16656	0.10899	0.23957	0.15464	0.22756	0.075534	0.13201	-2.3563	-2.9813	-2.2125	-3.0687	-2.7542	-2.3563	-3.1417	-2.4979	-2.5979	-2.9688	-2.3479	-2.8458	-2.8167	-2.3375	-3.0812	-2.55	224.137	487.683	235.638	515.228	516.166	509.162	417.979	513.186	210.991	317.944	270.261	361.767	457.599	459.032	180.967	347.374	0.00028122	0.0005547	9.9987e-05	1313.3	4.8854e-06	5.4292e-06	1213.4	400.39	5.2636e-06	2.2551e-06	402.12	91.224	87.636	27.614	1.0613e-06	31.937	0.00082929	0.0014113	0.00038709	1259.6	1.4553e-05	1.5461e-05	1172.1	387.83	1.4573e-05	1.6094e-05	391.05	89.486	85.797	27.044	1.43e-05	31.105	259.906	254.679	269.194	191.853	326.539	348.561	190.894	196.061	328.197	324.004	193.959	199.005	200.696	206.321	299.052	203.814	-8191	255	
1265.758	1	1	0	0	0.23437	0.11923	0.23218	0.21957	0.068278	0.21082	0.048431	0.20245	0.31014	0.071369	0.24085	0.20542	0.14701	0.10339	0.44844	0.21225	-2.1437	-3.0458	-2.2979	-2.9792	-2.8063	-2.4062	-3.0146	-2.7979	-2.5333	-3.0958	-2.6625	-2.7875	-2.825	-2.4375	-2.8375	-2.4333	304.289	415.935	318.585	507.148	447.634	178.314	192.471	391.687	246.516	232.239	535.528	245.104	527.746	496.256	253.081	507.086	0.00027924	0.00055479	0.00013146	1306	1.3022e-06	3.0373e-06	1218.6	396.7	5.3109e-06	6.1272e-06	405.86	91.359	87.751	27.874	5.769e-06	31.832	0.00083627	0.0013872	0.00039197	1256.6	1.415e-05	1.5435e-05	1168.8	385.53	1.4425e-05	1.5841e-05	391.58	89.411	85.846	27.123	1.4619e-05	31.145	260.922	307.188	262.771	192.094	331.211	299.863	190.899	195.986	300.653	325.726	194.125	198.677	200.864	206.448	335.858	204.077	-8191	255	
1265.853	1	1	0	0	0.51709	0.26757	0.12123	0.10072	0.060805	0.080147	0.055971	0.24092	0.057735	0.14627	0.32653	0.10508	0.16041	0.12447	0.10416	0.013743	-2.1083	-2.9729	-2.1917	-2.8	-2.7562	-2.2354	-3.0312	-2.8375	-2.3667	-3.0729	-2.4771	-2.5854	-2.8833	-2.4417	-3.1813	-2.8521	202.924	319.161	311.623	196.614	310.537	181.855	273.565	438.298	265.330	272.505	515.270	233.143	215.623	477.012	521.582	516.622	0.00029761	0.00070367	0.00012695	1301.8	4.0413e-06	7.0286e-06	1214.2	397.9	4.1401e-06	5.4011e-06	400.97	92.115	87.443	27.509	4.7137e-06	31.739	0.00085473	0.0013575	0.00039752	1255.4	1.4075e-05	1.5515e-05	1169	385.98	1.4914e-05	1.5446e-05	389.89	89.673	85.502	26.999	1.4928e-05	31.099	257.024	274.563	272.655	192.109	296.250	357.479	190.990	195.835	317.826	309.353	194.374	199.270	200.999	206.213	326.498	203.967	-8191	255	
1265.949	1	1	0	0	0.21375	0.088154	0.14552	0.11919	0.17226	0.075077	0.1767	0.084305	0.20512	0.071768	0.10192	0.14765	0.1313	0.15757	0.31939	0.13631	-1.8458	-3.0271	-2.6271	-2.9458	-2.9813	-2.4396	-3.1729	-2.775	-2.3521	-3.0833	-2.6312	-2.675	-3.1083	-2.4729	-2.8146	-3.0333	515.664	234.745	500.987	532.192	244.732	233.414	448.370	449.151	515.707	275.310	250.174	282.016	245.466	513.364	262.235	373.368	0.00028189	0.00060812	9.1364e-05	1296.4	2.934e-06	7.3976e-06	1209.3	394.78	3.905e-06	3.6042e-06	400.93	91.355	87.109	27.45	5.6118e-06	31.586	0.00085086	0.0013642	0.00038959	1253	1.4633e-05	1.5889e-05	1166	384.95	1.4183e-05	1.5678e-05	389.42	89.269	85.291	26.936	1.4552e-05	30.993	261.348	251.293	304.201	192.030	320.596	359.921	190.861	196.065	316.613	325.854	194.357	199.261	201.116	206.473	353.646	204.064	-8191	255	
1266.045	1	1	0	0	0.13295	0.38315	0.25158	0.21396	0.15053	0.057848	0.13441	0.1646	0.045068	0.19342	0.04954	0.051682	0.24653	0.084052	0.1839	0.11751	-1.9396	-2.8875	-2.4104	-2.575	-2.7833	-2.4458	-2.8333	-3.1833	-2.3083	-2.9604	-2.5958	-2.5521	-3.0563	-2.4146	-2.5396	-2.8854	397.732	355.921	262.011	451.707	282.022	469.712	436.367	477.742	338.115	507.101	465.340	320.365	181.135	429.839	263.963	189.154	0.00027745	0.00035911	9.4434e-05	1295.1	3.0733e-06	6.0417e-06	1203.8	396.75	3.717e-06	2.8844e-06	402.13	91.419	87.145	27.542	2.381e-06	31.439	0.00079875	0.0013816	0.00039754	1250.9	1.3966e-05	1.5401e-05	1165	385.28	1.4095e-05	1.5129e-05	389.26	89.358	85.357	26.973	1.458e-05	30.988	260.954	272.587	261.814	192.235	344.633	316.739	190.867	196.275	329.468	353.653	194.313	199.063	201.176	206.436	279.684	203.460	-8191	255	
1266.141	1	1	0	0	0.075926	0.070886	0.057612	0.3755	0.028567	0.2767	0.26021	0.011144	0.090297	0.17103	0.17904	0.083748	0.14562	0.22267	0.14997	0.1804	-1.9458	-2.8771	-2.7875	-2.4437	-3.1708	-2.4833	-2.7812	-3.0417	-2.3312	-2.8438	-2.8	-2.5021	-3.0187	-2.5979	-2.5167	-2.8604	253.037	439.755	510.286	185.291	432.641	532.385	465.277	514.134	416.033	262.996	211.362	392.559	441.915	518.982	363.811	339.490	0.00031973	0.00063792	0.00019492	1294.4	3.8002e-06	4.4014e-06	1207.3	397.28	4.6677e-06	3.6556e-06	400.66	90.697	87.659	27.632	5.795e-06	31.783	0.00083734	0.0014124	0.00039167	1250.7	1.437e-05	1.5365e-05	1165.7	385.24	1.4145e-05	1.6072e-05	388.6	89.176	85.4	27.024	1.4857e-05	31.063	259.667	272.241	276.514	192.278	310.786	292.833	190.644	195.780	344.614	331.576	194.394	198.619	200.726	206.303	336.971	203.564	-8191	255	
1266.262	1	1	0	0	0.30282	0.21258	0.083749	0.13512	0.13019	0.15235	0.20591	0.23699	0.15473	0.2546	0.2113	0.27021	0.25117	0.086227	0.20326	0.18504	-1.9958	-2.7792	-2.6833	-2.4271	-3.1271	-2.4271	-2.6667	-3.1646	-2.3958	-2.8354	-2.8458	-2.4708	-2.9833	-2.7188	-2.4833	-3.0604	466.583	225.496	459.798	277.092	392.563	413.255	226.194	513.584	264.919	424.901	513.525	391.823	459.693	203.329	364.220	431.942	0.00027589	0.00050702	9.9871e-05	1297.6	5.67e-06	3.9223e-06	1213.4	397.88	5.6926e-06	1.9969e-06	401.13	91.208	87.321	27.373	6.571e-06	31.547	0.00080939	0.0013916	0.00039137	1249.9	1.4116e-05	1.589e-05	1166.2	385.34	1.4043e-05	1.6112e-05	389.55	89.192	85.529	26.966	1.4922e-05	30.946	259.754	246.083	270.227	192.051	340.168	294.723	191.034	196.074	301.110	363.812	194.223	198.868	201.120	206.638	304.100	204.133	-8191	255	
1266.358	1	1	0	0	0.1532	0.11128	0.14334	0.29089	0.09924	0.096058	0.2641	0.080136	0.10893	0.078802	0.36155	0.1731	0.26596	0.11341	0.13086	0.18837	-2.0479	-2.5958	-2.9208	-2.5604	-3.0542	-2.5542	-2.6646	-3.2021	-2.2729	-2.95	-2.7979	-2.4938	-2.8167	-2.7604	-2.3187	-3.1125	524.636	198.047	390.003	507.621	504.142	327.633	522.166	381.976	189.510	241.135	492.305	488.994	521.892	279.620	297.717	456.728	0.00031974	0.00047046	8.2989e-05	1295.8	4.9028e-06	5.9566e-06	1202.1	397.15	5.052e-06	5.8513e-06	398.97	90.149	86.306	27.074	2.897e-06	31.139	0.00084569	0.0014486	0.00038884	1250.5	1.4064e-05	1.5423e-05	1161.9	384.89	1.4425e-05	1.6171e-05	387.94	88.498	84.808	26.69	1.4894e-05	30.769	259.165	298.265	247.545	192.492	319.166	322.319	190.897	195.872	310.721	327.973	194.337	199.032	201.116	206.603	275.720	204.206	-8191	255	
1266.430	1	1	0	0	0.206	0.1479	0.096012	0.12294	0.12843	0.041485	0.10699	0.17887	0.28901	0.056746	0.2969	0.18722	0.18157	0.21502	0.29176	0.14369	-1.9667	-2.3292	-2.8375	-2.2729	-3.0271	-2.65	-2.6646	-3.1188	-2.5542	-2.5604	-3.0229	-2.5292	-3.0396	-3.0083	-2.4104	-3.0458	314.497	480.314	268.409	216.800	505.856	274.643	431.570	465.423	429.911	465.204	486.230	215.022	521.505	446.931	206.987	379.760	0.00026331	0.00055605	0.00010877	1296	4.9053e-06	2.3273e-06	1203.3	396.19	3.6651e-06	2.1691e-06	399.16	91.007	86.613	27.356	1.2828e-06	31.375	0.00083006	0.0014254	0.00037877	1249	1.3681e-05	1.5314e-05	1158	384.07	1.4516e-05	1.5486e-05	388.2	88.621	84.733	26.765	1.4356e-05	30.648	259.399	273.758	240.478	191.951	334.559	300.389	190.606	196.109	299.972	319.995	194.334	199.298	201.234	206.709	310.533	203.383	-8191	255	
1266.550	1	1	0	0	0.053948	0.036853	0.014904	0.33983	0.29408	0.072897	0.23285	0.43058	0.083349	0.14199	0.26117	0.44423	0.18772	0.1812	0.15715	0.052726	-2.2	-2.4396	-2.9979	-2.4271	-2.9188	-2.6604	-2.5312	-3.1437	-2.7208	-2.3563	-3.1083	-2.6271	-2.725	-2.9896	-2.4021	-3.0125	267.841	390.742	315.884	447.444	193.690	429.465	199.851	450.757	336.171	353.109	502.171	256.323	514.719	447.186	213.645	222.910	0.00028051	0.00038764	0.0001977	1290.8	4.5693e-06	6.7733e-06	1192.2	394.42	2.8041e-06	5.7827e-06	400.26	89.896	86.303	26.882	6.1092e-06	30.664	0.00081746	0.0014287	0.00039028	1248.3	1.4405e-05	1.5403e-05	1157.7	382.93	1.4364e-05	1.6081e-05	387.57	88.168	84.698	26.533	1.4844e-05	30.364	261.118	261.577	285.269	192.435	338.255	343.940	191.152	195.918	302.900	298.577	194.463	198.973	200.822	206.582	310.081	203.980	-8191	255	
1266.646	1	1	0	0	0.3433	0.055395	0.24383	0.23291	0.19501	0.27264	0.041552	0.19184	0.14032	0.053377	0.042323	0.15826	0.20766	0.15439	0.24161	0.15833	-2.2896	-2.5583	-3.0854	-2.6	-2.5333	-3.0417	-2.4604	-3.1896	-2.7896	-2.325	-3.2562	-2.5312	-2.7125	-3.0187	-2.4417	-2.9	444.075	357.672	377.132	440.297	209.205	520.060	366.554	489.903	390.261	529.413	254.212	488.802	205.787	288.713	448.612	448.791	0.00024784	0.00046313	9.9516e-05	1288.5	4.3384e-06	4.1897e-06	1201.1	396	4.5721e-06	3.7086e-06	396.79	90.181	86.572	26.831	2.4412e-06	31.031	0.00081761	0.0013962	0.00039113	1246.8	1.4431e-05	1.5928e-05	1158.8	384.07	1.4547e-05	1.6013e-05	386.98	88.28	84.658	26.475	1.4449e-05	30.391	261.445	234.449	255.770	192.609	295.086	370.516	190.791	195.857	308.917	290.928	194.222	198.784	200.917	206.277	311.529	203.598	-8191	255	
1266.741	1	1	0	0	0.17233	0.13186	0.16138	0.21005	0.18558	0.14613	0.11364	0.1162	0.093632	0.22241	0.39532	0.22122	0.051402	0.14636	0.13735	0.08513	-2.4042	-2.4458	-2.8	-2.7292	-2.4979	-3.1021	-2.2812	-2.9396	-2.8021	-2.3417	-2.8812	-2.6937	-2.45	-3.2271	-2.5	-2.7375	471.170	339.399	251.761	494.054	344.320	463.021	496.187	373.349	486.010	422.829	186.675	416.158	355.689	318.500	220.694	262.487	0.00027824	0.00044219	0.00010969	1283	2.6941e-06	1.3128e-06	1193.2	393.79	5.3257e-06	7.7092e-06	395.6	89.185	85.117	26.623	4.2216e-06	30.638	0.00081939	0.0014018	0.00039481	1242.5	1.429e-05	1.5139e-05	1154.1	382.17	1.3998e-05	1.5751e-05	385.32	87.521	83.811	26.308	1.4445e-05	30.118	253.577	284.689	304.262	192.266	346.282	353.969	190.940	196.012	341.991	334.473	194.427	199.050	200.888	206.599	367.545	203.762	-8191	255	
1266.839	1	1	0	0	0.28757	0.19567	0.175	0.19354	0.20172	0.21224	0.10967	0.16553	0.19868	0.099923	0.23876	0.10804	0.25831	0.33086	0.25999	0.064378	-2.4917	-2.5583	-2.8479	-2.9375	-2.3708	-3.0875	-2.5417	-2.9104	-3.2292	-2.4542	-2.925	-2.7854	-2.5417	-3.1208	-2.3563	-2.6542	244.186	348.111	320.602	178.629	403.140	303.976	470.417	496.130	234.381	247.920	488.764	192.256	233.599	519.163	237.527	224.576	0.0003038	0.00015214	0.00011147	1284.6	4.5714e-06	6.2044e-06	1191.1	390.63	6.4636e-06	1.7865e-06	396.41	90.048	85.682	26.54	3.6141e-06	30.475	0.00081667	0.001408	0.00039936	1241.7	1.4495e-05	1.5556e-05	1151.5	380.61	1.4097e-05	1.6159e-05	384.74	87.801	84.09	26.218	1.4499e-05	30.066	259.984	263.778	234.849	192.321	278.990	323.791	190.965	196.075	329.975	330.703	193.967	198.966	200.961	206.359	349.721	203.598	-8191	255	
1266.958	1	1	0	0	0.14919	0.13598	0.10173	0.20233	0.23511	0.11273	0.045868	0.22428	0.13923	0.09914	0.12761	0.18452	0.11109	0.30131	0.028524	0.1326	-2.5	-2.2771	-2.7771	-2.7625	-2.4	-2.975	-2.8	-2.7125	-2.9396	-2.2417	-2.9667	-2.9167	-2.4729	-3.1083	-2.3958	-2.6125	188.447	393.946	335.123	525.023	524.785	232.614	397.673	329.827	436.169	370.565	439.227	496.988	476.373	474.250	477.866	394.627	0.00026263	0.00042227	0.00020725	1281.5	3.0525e-06	3.7158e-06	1189.4	390.96	4.3409e-06	5.1041e-06	395.08	89.466	86.014	26.973	2.636e-06	30.677	0.00082517	0.0014362	0.00039254	1241.6	1.4296e-05	1.6178e-05	1153.1	381.38	1.3794e-05	1.544e-05	384.61	87.83	84.037	26.44	1.4386e-05	30.318	258.856	259.715	249.600	192.399	304.961	325.128	191.049	195.943	299.810	353.642	193.801	199.178	201.027	206.210	343.951	204.430	-8191	255	
1267.054	1	1	0	0	0.26516	0.15024	0.044884	0.20321	0.18476	0.1192	0.22404	0.02373	0.083103	0.1067	0.16912	0.095343	0.11133	0.087418	0.20723	0.18261	-2.5938	-2.3042	-2.8479	-2.9875	-2.3	-2.9583	-2.8083	-2.6437	-2.9437	-2.5187	-2.6792	-2.9354	-2.4417	-3.1125	-2.5271	-2.4813	418.329	429.670	251.204	489.315	435.217	482.620	471.775	426.770	280.775	261.879	451.428	478.003	520.962	205.204	269.276	345.266	0.00028775	0.00032446	9.5268e-05	1285.6	8.2089e-06	2.7114e-06	1195.2	391.72	4.9201e-06	3.865e-06	395.64	89.466	85.813	26.724	5.3948e-06	30.641	0.00082446	0.0014006	0.00038627	1244.4	1.4728e-05	1.5477e-05	1155.4	382.18	1.4071e-05	1.5589e-05	385.41	87.606	84.111	26.363	1.4559e-05	30.129	256.675	260.142	298.999	192.227	332.438	311.659	191.156	196.110	315.607	333.651	194.308	198.907	201.002	206.499	357.668	203.414	-8191	255	
1267.150	1	1	0	0	0.10161	0.072855	0.22397	0.39432	0.1424	0.16079	0.38535	0.24084	0.18499	0.058439	0.13593	0.10749	0.23684	0.18511	0.11469	0.20271	-2.5333	-2.5062	-2.4583	-3.2458	-2.3917	-2.9333	-2.8875	-2.7146	-2.8479	-2.5833	-2.8125	-3.2146	-2.1813	-3.0708	-2.8438	-2.4437	528.100	190.702	348.586	501.590	509.219	268.033	517.225	522.252	272.492	368.427	294.802	460.832	363.807	483.084	458.165	418.168	0.00028072	0.00054711	9.6272e-05	1287.9	4.641e-06	6.1795e-06	1192.1	392.37	4.5679e-06	3.1875e-06	392.04	89.584	86.567	26.979	2.5844e-06	30.721	0.00082181	0.0014008	0.00037937	1242.3	1.4517e-05	1.5374e-05	1150.2	380.68	1.4297e-05	1.5893e-05	382.38	87.696	84.204	26.375	1.4596e-05	30.133	254.054	285.165	244.575	192.217	307.788	332.252	190.954	195.969	329.537	343.091	194.308	199.094	200.458	206.173	297.510	203.828	-8191	255	
1267.246	1	1	0	0	0.095106	0.12673	0.24158	0.070064	0.15078	0.20667	0.12113	0.28956	0.10955	0.041202	0.26657	0.036114	0.1596	0.11451	0.12078	0.013198	-2.6583	-2.4229	-2.4875	-2.9792	-2.3417	-2.7229	-2.9208	-2.4083	-3.1604	-2.6958	-2.5542	-3.1104	-2.4792	-2.5896	-2.7396	-2.3771	281.766	418.859	366.704	465.410	437.017	320.232	487.709	524.671	512.626	189.837	525.766	479.544	424.270	408.245	345.357	301.434	0.0002958	0.00041358	0.00010646	1283.5	4.8431e-06	1.8168e-06	1186.1	389.07	4.4712e-06	5.1763e-06	392.45	89.565	85.425	26.864	3.0398e-06	30.584	0.00085241	0.0014523	0.00039185	1239.6	1.4552e-05	1.5952e-05	1150.2	379.5	1.4311e-05	1.5744e-05	382.31	87.737	83.834	26.389	1.4976e-05	30.136	254.502	227.213	239.204	192.579	308.252	310.478	191.059	196.214	292.191	315.004	194.079	199.303	200.998	206.693	368.757	203.639	-8191	255	
1267.342	1	1	0	0	0.077497	0.16606	0.28743	0.20349	0.058883	0.22513	0.088409	0.17328	0.27751	0.12661	0.25408	0.2481	0.20845	0.1523	0.24093	0.030669	-2.6063	-2.6104	-2.2458	-3.1458	-2.4396	-2.6479	-3.2562	-2.5125	-2.8646	-2.7062	-2.4833	-3.2146	-2.5187	-2.5979	-2.8396	-2.4979	313.114	519.672	282.726	487.384	266.080	186.153	372.726	524.284	510.773	459.413	536.176	495.633	204.358	459.353	344.380	474.002	0.00028671	0.00066529	2.2179e-05	1284.8	2.8137e-06	4.8245e-06	1188.6	388.98	4.9564e-06	4.1209e-06	393.31	88.931	85.398	26.884	5.1459e-06	30.937	0.00082713	0.0014189	0.00039619	1239.9	1.4426e-05	1.6265e-05	1149.8	378.91	1.4072e-05	1.5979e-05	382.71	87.549	83.731	26.423	1.4146e-05	30.382	251.098	278.513	300.933	192.096	328.110	345.853	191.033	195.987	298.004	293.718	193.841	199.325	200.669	206.638	321.785	203.910	-8191	255	
1267.438	1	1	0	0	0.17947	0.13973	0.10809	0.22742	0.15211	0.15751	0.40383	0.15874	0.3676	0.17168	0.44301	0.21399	0.26161	0.11376	0.31865	0.046919	-2.5083	-2.7583	-2.1354	-2.9813	-2.7354	-2.4188	-3.1396	-2.4854	-2.8187	-2.7021	-2.4	-2.8896	-2.5375	-2.5354	-3.1292	-2.2875	315.873	183.825	440.990	532.816	296.514	227.986	518.345	528.054	253.928	523.024	501.505	519.225	227.538	352.227	189.957	388.444	0.0002916	0.00055372	0.00013012	1284.3	5.3045e-06	6.6143e-06	1194.3	392.68	4.4978e-06	5.7789e-06	394.48	89.785	86.044	27.072	2.9235e-06	31.072	0.00083859	0.0013961	0.00039682	1240.3	1.3877e-05	1.6094e-05	1150.3	380.66	1.3606e-05	1.5323e-05	383.54	87.888	84.039	26.476	1.4471e-05	30.379	257.655	239.945	239.789	192.462	324.531	339.156	190.832	195.911	307.912	357.573	194.324	199.058	200.799	206.355	341.385	203.645	-8191	255	
1267.559	1	1	0	0	0.058087	0.13957	0.27724	0.15939	0.29091	0.28244	0.036556	0.18755	0.08676	0.11231	0.16903	0.22271	0.030938	0.1459	0.065884	0.1144	-2.4333	-2.5687	-2.3	-3.1292	-2.4188	-2.4646	-2.9771	-2.4146	-2.7604	-2.8708	-2.1979	-3.0792	-2.6333	-2.5875	-2.9813	-2.4708	433.507	499.802	180.096	190.176	263.878	315.465	510.741	534.229	411.763	267.160	187.480	522.768	508.663	182.107	503.060	293.631	0.00028094	0.00038996	0.0001129	1279	6.5618e-06	3.8639e-06	1197.4	392.36	5.7178e-06	3.7533e-06	394.43	89.621	85.861	27.032	4.3556e-06	31.039	0.00080781	0.0013953	0.00038618	1235.4	1.3924e-05	1.5773e-05	1150.8	380.63	1.4475e-05	1.5625e-05	382.9	87.682	84.104	26.445	1.4165e-05	30.409	261.312	238.307	266.562	192.008	325.781	373.257	190.708	195.565	307.264	303.873	194.068	198.649	200.904	205.935	337.464	203.505	-8191	255	
1267.653	1	1	0	0	0.16951	0.24678	0.18394	0.21517	0.21258	0.19846	0.063797	0.33772	0.16872	0.10363	0.18474	0.16698	0.22811	0.13418	0.18821	0.14237	-2.3792	-2.7396	-2.35	-2.9917	-2.7417	-2.1021	-3.1125	-2.4167	-2.6375	-2.9062	-2.5187	-2.9938	-2.7604	-2.5021	-2.9458	-2.7875	303.448	435.450	301.673	444.020	429.960	313.976	422.268	418.937	454.088	437.773	206.552	231.973	178.917	221.284	261.471	393.877	0.00025443	0.00066041	7.1862e-05	1281.8	6.1302e-06	2.4463e-06	1184.4	391.01	5.4532e-06	1.5735e-06	394.89	89.675	86.498	27.014	7.0938e-06	30.761	0.00082148	0.0014169	0.00039334	1237.4	1.441e-05	1.5362e-05	1147.6	379.8	1.381e-05	1.5648e-05	383.43	87.919	84.347	26.558	1.4293e-05	30.401	260.759	276.646	264.579	192.148	310.260	337.925	191.274	195.994	319.048	345.187	194.476	198.724	200.812	206.198	320.186	203.851	-8191	255	
1267.727	1	1	0	0	0.21534	0.17726	0.14491	0.12131	0.01499	0.16792	0.18355	0.070113	0.33531	0.26545	0.16797	0.010579	0.15485	0.10071	0.18538	0.22567	-2.1854	-3.0167	-2.3937	-2.9688	-2.7833	-2.4854	-3.0938	-2.7708	-2.4437	-3.1208	-2.3479	-2.7333	-2.9562	-2.4625	-2.9792	-2.5771	432.297	270.482	358.042	502.388	196.548	533.436	523.536	430.533	425.825	262.164	365.146	461.533	534.480	526.643	419.813	286.882	0.00027224	0.00034321	0.00014972	1278.3	4.0071e-06	4.6802e-06	1189.7	389.24	3.5859e-06	3.4895e-06	392.83	90.257	86.118	27.03	5.4947e-06	30.924	0.00083744	0.001387	0.00038929	1236	1.3924e-05	1.5601e-05	1149.4	379.47	1.4529e-05	1.535e-05	383.21	88.106	84.398	26.471	1.4638e-05	30.453	255.815	261.348	301.423	192.327	303.739	323.427	190.829	196.072	341.336	272.917	194.521	198.746	201.133	206.197	356.035	204.467	-8191	255	
1267.846	1	1	0	0	0.25006	0.093383	0.14168	0.068257	0.18468	0.2895	0.28185	0.3048	0.15269	0.10081	0.092428	0.067107	0.11611	0.11505	0.12615	0.16305	-1.9667	-3.2417	-2.4188	-2.8292	-2.7917	-2.3438	-2.9875	-2.65	-2.6	-2.8958	-2.4979	-2.4771	-2.9979	-2.3063	-2.9417	-2.6937	340.681	422.392	438.924	199.739	256.387	344.703	475.562	447.942	372.065	504.479	499.251	223.693	404.166	470.674	510.579	487.578	0.0002635	0.0001432	0.00018932	1273.5	4.1201e-06	5.2123e-06	1184.1	391.31	3.6342e-06	4.5773e-06	393.07	89.369	85.177	27.047	5.4372e-06	30.664	0.00082492	0.001376	0.00039682	1233.8	1.3926e-05	1.5655e-05	1145.2	379.75	1.4222e-05	1.5657e-05	382.11	87.73	83.74	26.459	1.4153e-05	30.233	256.335	283.366	265.125	192.525	320.024	311.219	191.061	196.194	316.872	312.388	194.518	198.950	201.291	206.574	361.842	203.790	-8191	255	
1267.942	1	1	0	0	0.39519	0.15211	0.1099	0.059611	0.19199	0.0087027	0.19862	0.15393	0.17549	0.080521	0.03721	0.33249	0.097523	0.23912	0.20196	0.10482	-2.1208	-3.0292	-2.4542	-2.8042	-2.775	-2.4	-3.0938	-2.7208	-2.375	-3.05	-2.3979	-2.4833	-2.9979	-2.3333	-2.8375	-2.9	342.854	326.739	500.162	513.808	301.513	248.174	527.642	518.751	391.256	518.593	180.921	483.054	450.459	273.386	433.528	451.021	0.00026731	0.0005219	0.00010544	1274.9	2.9561e-06	4.91e-06	1184.1	389.68	4.1184e-06	4.6511e-06	392.9	89.148	85.857	27.068	4.9399e-06	31.03	0.00082769	0.0014007	0.00038552	1234.1	1.3944e-05	1.5021e-05	1143.7	378.49	1.376e-05	1.4926e-05	381.64	87.556	83.895	26.525	1.4242e-05	30.45	253.048	260.755	261.543	192.174	336.104	299.835	191.005	195.879	318.024	312.055	194.107	198.808	200.883	206.171	331.705	203.695	-8191	255	
1268.038	1	1	0	0	0.16853	0.045001	0.25113	0.21165	0.34898	0.19977	0.2321	0.22636	0.034512	0.20467	0.050659	0.17613	0.10249	0.18817	0.086201	0.081257	-2	-3.1458	-2.5375	-2.8271	-2.7833	-2.5042	-2.8042	-3.0875	-2.2938	-2.975	-2.6167	-2.3479	-3.0125	-2.625	-2.5062	-3.0146	349.273	470.144	347.340	210.700	524.366	270.512	499.402	483.833	297.321	490.428	474.889	183.912	461.715	537.353	363.603	436.613	0.00030361	0.00052805	0.00017264	1284.3	2.8012e-06	2.9357e-06	1186.5	390.54	4.5159e-06	6.8334e-06	392.67	89.461	85.823	26.949	4.3732e-06	30.949	0.00083082	0.0013645	0.0004037	1238.7	1.3901e-05	1.5605e-05	1145.7	378.82	1.4304e-05	1.5667e-05	381.55	87.775	83.954	26.534	1.4539e-05	30.535	258.780	258.269	290.022	192.147	293.240	299.954	190.837	196.095	326.839	314.214	194.290	198.837	200.844	206.480	335.566	204.040	-8191	255	
1268.134	1	1	0	0	0.2857	0.21491	0.030296	0.27449	0.038693	0.13138	0.17751	0.28293	0.2074	0.15311	0.21148	0.22743	0.13668	0.050928	0.15753	0.14758	-2.0021	-2.9104	-2.7104	-2.65	-2.9354	-2.5438	-2.7104	-3.1396	-2.2062	-3.0521	-2.7729	-2.6042	-3.0167	-2.3958	-2.7104	-3.1292	194.779	342.785	383.514	518.411	408.012	505.811	463.343	526.484	294.623	337.132	472.973	493.714	484.776	416.235	438.504	429.253	0.00027573	0.00040627	0.00011381	1273.3	6.1863e-06	2.1541e-06	1185.7	390.29	3.7048e-06	3.6717e-06	394.24	90.516	85.724	27.029	4.1322e-06	31.147	0.00081203	0.0013899	0.00038139	1232.8	1.37e-05	1.5388e-05	1146.9	379.58	1.4039e-05	1.5113e-05	383.69	88.226	84.164	26.662	1.446e-05	30.616	256.460	270.793	200.952	192.251	302.633	351.720	190.916	196.012	316.198	335.612	194.564	198.690	201.025	206.634	358.810	204.250	-8191	255	
1268.230	1	1	0	0	0.061442	0.33145	0.1644	0.19471	0.19294	0.08315	0.12479	0.12105	0.046238	0.11916	0.21117	0.19704	0.034195	0.19987	0.13418	0.027772	-1.8729	-2.7896	-2.6208	-2.6562	-2.8937	-2.7438	-2.7646	-3.2917	-2.3979	-2.8833	-3.0271	-2.3917	-2.8958	-2.6437	-2.3792	-3.1813	324.075	294.160	326.878	187.103	329.422	374.909	502.195	322.329	231.895	357.448	190.747	471.589	350.060	525.569	353.209	210.515	0.00032909	0.00022961	0.00014861	1273.2	4.7961e-06	2.9475e-06	1188.3	390.32	5.1748e-06	1.3858e-06	392.88	89.151	86.049	27.277	3.557e-06	31.207	0.00082186	0.0013972	0.00038161	1234.4	1.4339e-05	1.527e-05	1144.8	380	1.4089e-05	1.5673e-05	382.43	87.551	84.224	26.648	1.4302e-05	30.568	257.733	277.515	255.295	192.420	331.812	311.161	191.060	196.026	306.830	283.048	194.454	198.911	200.920	205.917	320.639	203.998	-8191	255	
1268.326	1	1	0	0	0.23338	0.16226	0.18931	0.2363	0.092819	0.18616	0.18359	0.26055	0.18609	0.15798	0.083344	0.17884	0.092404	0.23906	0.29078	0.039326	-1.9604	-2.6979	-2.8208	-2.3792	-2.8229	-2.5271	-2.625	-3.0292	-2.3729	-2.5854	-2.7625	-2.3875	-2.9062	-2.6063	-2.4313	-3.0938	412.515	320.839	422.699	482.223	384.515	423.284	517.527	429.757	355.091	331.529	186.215	379.205	207.004	499.680	248.075	422.483	0.00028363	0.00041264	3.6536e-05	1271	4.4774e-06	5.3518e-06	1178.9	389	6.2296e-06	2.9235e-06	395.75	89.816	85.688	26.994	3.1473e-06	31.062	0.00081453	0.0013698	0.00038995	1232	1.4229e-05	1.5645e-05	1142.2	379.12	1.4212e-05	1.5804e-05	382.95	87.947	83.943	26.577	1.4451e-05	30.577	257.009	262.378	282.647	192.392	306.394	339.746	190.700	196.006	297.740	335.284	194.716	198.806	201.231	206.712	347.019	203.992	-8191	255	
1268.423	1	1	0	0	0.17377	0.42905	0.28068	0.12796	0.10825	0.010578	0.08545	0.16785	0.17621	0.19684	0.18936	0.15013	0.052813	0.3149	0.32444	0.20402	-2	-2.5542	-2.8187	-2.5333	-2.7542	-2.7354	-2.5708	-2.9979	-2.5146	-2.4667	-3.0271	-2.4042	-2.9104	-2.9313	-2.2021	-3	462.063	470.802	519.289	393.216	474.943	337.699	466.155	515.067	209.190	348.089	519.682	503.489	518.310	516.611	496.411	431.584	0.00028376	0.00019708	0.00013881	1273.9	3.9891e-06	2.3592e-06	1185.7	389.09	3.6684e-06	3.2589e-06	393.83	90.092	86.01	26.997	4.6871e-06	31.009	0.00082046	0.0013984	0.0003829	1232.3	1.4375e-05	1.5867e-05	1144.2	378.27	1.3869e-05	1.5782e-05	382.35	88.137	84.207	26.554	1.4343e-05	30.598	264.000	241.630	282.199	192.171	297.080	364.601	190.806	196.157	316.800	295.790	194.242	198.969	200.885	206.546	297.883	204.199	-8191	255	
1268.519	1	1	0	0	0.21551	0.24879	0.18529	0.18653	0.073172	0.11692	0.53022	0.17929	0.10221	0.10923	0.30042	0.15267	0.026385	0.14308	0.22871	0.19357	-2.2062	-2.5708	-3	-2.4938	-2.7604	-2.9813	-2.2958	-3.0979	-2.5771	-2.4708	-3.0917	-2.4104	-2.7396	-3.0854	-2.3063	-2.8708	278.756	189.388	355.534	536.581	276.277	337.751	492.163	448.030	352.307	208.255	517.102	191.946	448.740	417.978	319.735	295.705	0.00028988	0.00033951	0.00011643	1270.7	4.2988e-06	5.3768e-06	1185	388.68	3.8818e-06	6.702e-06	392.78	89.719	85.776	27.03	4.2801e-06	31.066	0.00081461	0.0013729	0.00038558	1230.6	1.3889e-05	1.5214e-05	1145.7	379.03	1.4313e-05	1.6005e-05	382.44	88.176	84.109	26.613	1.4619e-05	30.506	258.739	275.563	255.189	192.146	319.415	322.850	190.645	195.941	334.507	348.674	194.042	199.234	201.096	206.689	354.165	204.155	-8191	255	
1268.639	1	1	0	0	0.075017	0.15243	0.072346	0.24285	0.15457	0.23035	0.22513	0.21009	0.074036	0.31673	0.26636	0.19204	0.17227	0.21345	0.34332	0.1417	-2.225	-2.4583	-3.1042	-2.3958	-2.3979	-2.7812	-2.5042	-3.0417	-2.65	-2.4167	-3.1104	-2.6833	-2.6542	-2.9813	-2.4292	-3.1083	274.304	426.214	235.497	501.311	414.751	345.004	479.582	179.413	472.043	486.700	200.315	429.638	396.171	436.077	471.505	424.009	0.00027597	0.00045656	0.00013077	1274.7	6.1358e-06	1.5642e-06	1172.6	387.44	5.7464e-06	4.9347e-06	389.69	89.138	85.593	27.24	2.9445e-06	31.008	0.00081583	0.0014071	0.00037905	1231.7	1.3989e-05	1.5267e-05	1138.5	377.52	1.4576e-05	1.5285e-05	381.05	87.715	83.998	26.64	1.449e-05	30.5	255.441	276.480	281.328	192.347	361.008	357.339	191.252	196.421	332.246	324.397	194.536	199.303	200.925	206.616	371.496	203.759	-8191	255	
1268.734	1	1	0	0	0.29652	0.069937	0.094058	0.27783	0.027801	0.22187	0.26746	0.33726	0.035992	0.17543	0.12503	0.082407	0.39179	0.12444	0.19513	0.18047	-2.3792	-2.4896	-3.0521	-2.7938	-2.375	-3.0187	-2.5417	-3.0708	-2.9979	-2.3021	-3.0979	-2.4208	-2.6333	-2.9771	-2.4188	-2.8792	536.325	337.660	380.517	192.653	324.503	489.489	457.663	489.919	426.128	315.228	469.972	216.480	439.280	189.856	451.135	495.438	0.00027759	0.00036851	0.00011285	1271.2	5.7755e-06	4.127e-06	1186.6	391.02	5.2389e-06	6.6267e-06	394.84	89.493	86.017	27.008	3.1602e-06	31.138	0.00082698	0.0013893	0.00038947	1230.5	1.4101e-05	1.5344e-05	1144	378.89	1.3909e-05	1.5728e-05	383.07	87.668	83.974	26.608	1.4243e-05	30.558	259.406	198.785	287.019	192.554	292.414	288.814	191.117	195.850	311.247	376.358	194.108	198.788	200.742	206.113	355.407	203.984	-8191	255	
1268.832	1	1	0	0	0.015361	0.26566	0.028913	0.16959	0.16674	0.077732	0.17651	0.22339	0.22414	0.12929	0.05299	0.19313	0.10031	0.12055	0.31901	0.24914	-2.4688	-2.3792	-2.9979	-2.8458	-2.4229	-2.8917	-2.6292	-2.85	-2.8042	-2.4708	-3.0542	-2.7229	-2.4667	-3.0833	-2.4229	-2.6792	518.048	211.669	535.268	247.050	516.043	363.042	519.091	468.940	512.230	410.275	249.830	293.283	418.549	518.477	530.600	488.859	0.0002593	0.00043628	0.00011689	1280.2	5.2641e-06	5.0755e-06	1182.6	388.62	3.5792e-06	3.3861e-06	392.59	89.263	85.268	26.942	3.2983e-06	31.078	0.00082413	0.0013765	0.00039107	1232.3	1.4057e-05	1.5272e-05	1143.9	378.29	1.3733e-05	1.5401e-05	382.54	88.092	83.895	26.583	1.4467e-05	30.577	247.997	262.133	273.547	192.347	331.495	303.856	191.024	196.007	325.481	240.590	194.347	199.712	200.996	206.523	316.057	203.740	-8191	255	
1268.951	1	1	0	0	0.14456	0.12626	0.080613	0.20252	0.10796	0.14691	0.18307	0.25986	0.20382	0.21724	0.15375	0.11284	0.10177	0.074453	0.25228	0.096167	-2.5646	-2.2208	-2.6979	-2.8875	-2.2792	-3.0375	-2.6771	-2.4917	-2.9313	-2.4667	-2.8896	-2.7625	-2.4896	-3.05	-2.5479	-2.575	226.005	391.801	363.374	178.801	380.909	222.409	536.129	427.275	290.086	522.613	474.649	209.050	209.215	181.964	238.467	395.989	0.00025063	0.00031761	0.00016869	1269.8	4.5348e-06	4.7738e-06	1184	389.54	4.4087e-06	6.215e-06	392.63	90.004	85.571	27.003	4.4863e-06	30.986	0.00079442	0.0013439	0.00038848	1230.8	1.3992e-05	1.4984e-05	1144.1	379.02	1.4028e-05	1.5647e-05	381.33	87.856	83.79	26.552	1.4568e-05	30.478	258.702	264.460	287.392	192.531	337.522	326.378	191.055	195.923	306.162	353.060	194.315	199.044	200.763	206.854	341.084	204.319	-8191	255	
1269.022	1	1	0	0	0.19926	0.24225	0.066308	0.059036	0.1011	0.14962	0.25334	0.079825	0.14686	0.20048	0.01722	0.1773	0.12269	0.29556	0.16622	0.065059	-2.6021	-2.3625	-2.6792	-2.9	-2.325	-3.0208	-2.8479	-2.6708	-2.9792	-2.4583	-2.8167	-2.9562	-2.4271	-3.1063	-2.7521	-2.4604	235.387	300.568	255.565	215.632	329.603	226.802	437.020	425.199	322.960	340.263	312.574	228.752	528.396	527.268	536.461	462.675	0.00027932	0.00016274	0.00014446	1269.4	4.0874e-06	2.5027e-06	1178.1	387.61	5.012e-06	1.7124e-06	387.87	89.205	85.166	26.976	3.8256e-06	30.844	0.000824	0.001397	0.00038253	1231.6	1.3888e-05	1.5161e-05	1141.2	377.73	1.4096e-05	1.5818e-05	379.69	87.767	83.612	26.577	1.3949e-05	30.496	252.930	231.220	273.154	192.500	297.215	328.276	191.121	196.200	343.514	313.135	194.818	199.317	201.246	206.844	357.877	204.133	-8191	255	
1269.118	1	1	0	0	0.17927	0.048768	0.20474	0.50624	0.24187	0.21791	0.079495	0.17925	0.24115	0.32563	0.18259	0.21374	0.17151	0.1604	0.09268	0.072044	-2.5021	-2.4042	-2.6521	-3.0583	-2.2208	-2.7167	-2.8688	-2.5167	-3.0708	-2.5917	-2.5854	-2.75	-2.4229	-2.5938	-2.8167	-2.3917	504.753	398.272	341.252	480.162	222.844	437.655	195.041	526.740	430.991	388.093	438.848	375.255	234.218	371.774	416.909	534.220	0.00028947	0.00027333	8.5997e-05	1264.8	2.4787e-06	5.3938e-06	1175.5	388.16	3.4654e-06	2.9114e-06	391.94	89.877	85.532	27.1	6.6201e-06	31.142	0.00081672	0.0013653	0.0003879	1227	1.3962e-05	1.5611e-05	1142.1	377.45	1.3928e-05	1.5784e-05	380.92	87.941	83.839	26.677	1.4092e-05	30.68	258.170	274.986	354.808	192.730	329.058	342.418	191.332	196.012	281.448	326.750	194.314	198.882	200.825	206.656	348.632	203.868	-8191	255	
1269.239	1	1	0	0	0.1215	0.25991	0.24637	0.28266	0.23299	0.21164	0.15988	0.12862	0.14231	0.20099	0.10175	0.2872	0.087167	0.34383	0.1118	0.28603	-2.4813	-2.4271	-2.475	-2.9917	-2.4729	-2.7	-2.9938	-2.4729	-3.0083	-2.8667	-2.5271	-3.1208	-2.4042	-2.8771	-2.7917	-2.2583	492.429	480.426	243.947	522.210	513.761	311.079	477.224	224.790	310.423	517.607	484.511	184.126	519.973	208.138	409.509	253.312	0.00027642	0.00032467	0.00021803	1270.7	3.268e-06	7.1962e-06	1184.6	387.62	7.5766e-06	8.1759e-06	392.72	90.406	85.422	27.056	9.7798e-07	31.153	0.00080712	0.0013851	0.00038229	1231.5	1.4048e-05	1.5565e-05	1142.2	377.85	1.4035e-05	1.5426e-05	382.58	88.397	83.997	26.709	1.3813e-05	30.764	260.217	250.060	270.777	192.764	323.728	332.541	191.162	196.032	335.283	351.654	194.453	198.828	200.700	206.804	251.820	204.203	-8191	255	
1269.335	1	1	0	0	0.094852	0.29202	0.10009	0.22161	0.20393	0.13117	0.1019	0.18668	0.14405	0.26378	0.089927	0.24784	0.056571	0.01597	0.12556	0.17141	-2.6396	-2.5042	-2.3937	-3.1667	-2.2354	-2.7125	-3.1312	-2.3604	-2.8354	-2.7604	-2.7396	-3.0146	-2.3542	-2.7313	-2.9667	-2.4646	202.694	421.143	178.971	511.389	267.536	288.035	372.573	332.021	346.301	460.527	179.767	515.339	217.388	527.523	490.818	522.762	0.00030292	0.00040423	0.00014982	1278.6	4.8093e-06	4.6919e-06	1183.8	389.33	4.7284e-06	9.617e-06	393.43	90.088	85.428	27.115	3.0626e-06	31.116	0.00079253	0.0013459	0.00038841	1233.1	1.3703e-05	1.5068e-05	1143.9	379.12	1.3455e-05	1.509e-05	383.04	88.167	84.161	26.767	1.4097e-05	30.684	258.745	241.608	259.309	192.357	285.819	294.110	191.166	196.000	319.960	325.010	193.942	198.933	200.783	206.559	315.863	204.260	-8191	255	
1269.431	1	1	0	0	0.092482	0.094471	0.24197	0.34986	0.16776	0.13733	0.23398	0.095467	0.049112	0.14741	0.13855	0.1313	0.11496	0.11976	0.12989	0.23459	-2.4292	-2.55	-2.3146	-3.0979	-2.4188	-2.4729	-3.1875	-2.7562	-2.9229	-2.9313	-2.4833	-3.0438	-2.6042	-2.4021	-3.0208	-2.2958	190.583	178.536	346.932	503.410	384.385	428.030	499.687	237.000	249.324	419.296	376.800	326.319	476.826	359.826	203.999	384.300	0.0002675	0.00012444	0.00016231	1270.3	4.7188e-06	4.9338e-06	1178.9	388.43	4.8208e-06	3.1527e-06	390.3	89.872	86.574	27.198	5.8066e-06	31.235	0.00079763	0.0013442	0.0003751	1230.7	1.3768e-05	1.4911e-05	1142.4	378.59	1.3589e-05	1.516e-05	381.6	88.285	84.302	26.708	1.3868e-05	30.638	254.225	246.287	271.297	192.483	343.179	303.448	191.163	195.984	299.488	271.033	194.019	199.095	200.574	206.154	333.851	204.395	-8191	255	
1269.527	1	1	0	0	0.26318	0.066604	0.056439	0.37696	0.13887	0.15042	0.073711	0.31113	0.28462	0.21514	0.18567	0.10096	0.077443	0.11322	0.28299	0.14493	-2.5896	-2.8229	-2.3208	-3.0312	-2.5563	-2.4167	-3.1771	-2.5229	-2.7438	-2.8354	-2.4437	-2.8354	-2.5208	-2.45	-2.9771	-2.3271	314.582	227.070	356.470	212.647	309.789	457.368	467.991	486.122	344.514	375.781	449.563	460.742	215.877	203.731	193.895	359.766	0.00028333	0.00048178	0.000159	1271.7	5.9205e-06	3.401e-06	1182.2	388.93	4.9813e-06	4.2254e-06	392.97	90.095	86.05	27.143	1.4884e-06	31.067	0.00079615	0.0013313	0.00038335	1232	1.4175e-05	1.5394e-05	1143.4	378.43	1.3819e-05	1.5381e-05	382.57	88.166	84.372	26.671	1.3907e-05	30.746	256.576	254.563	277.080	192.447	328.142	363.076	191.074	195.977	321.266	328.905	194.187	199.142	201.088	206.483	301.016	204.215	-8191	255	
1269.624	1	1	0	0	0.096164	0.16945	0.10267	0.12424	0.1382	0.1114	0.42233	0.28137	0.20214	0.13093	0.039624	0.17234	0.16502	0.14977	0.15187	0.1399	-2.1188	-2.7812	-2.2667	-3.0875	-2.8688	-2.3521	-3.1146	-2.6521	-2.7604	-3.0583	-2.4396	-2.875	-2.8438	-2.2625	-3.0083	-2.6083	470.505	340.337	424.957	469.319	217.484	487.625	470.224	468.193	268.494	317.681	247.133	210.272	371.953	500.050	249.482	248.332	0.00029199	0.00047902	6.1805e-05	1268.1	4.2516e-06	4.6657e-06	1177	388.46	4.182e-06	2.3584e-06	391.93	90.137	86.155	27.022	2.1528e-06	31.05	0.00080929	0.0013676	0.0003772	1230.9	1.3668e-05	1.5316e-05	1142.9	378.86	1.392e-05	1.4762e-05	383.08	88.162	84.175	26.581	1.4163e-05	30.579	257.642	266.519	273.178	192.722	318.632	349.979	191.188	196.079	306.996	377.563	194.421	198.861	201.041	206.672	367.259	204.261	-8191	255	
1269.720	1	1	0	0	0.19676	0.16178	0.10786	0.17592	0.2409	0.30835	0.24282	0.15564	0.3142	0.20198	0.13416	0.14738	0.229	0.15512	0.14172	0.35113	-2.2417	-2.9604	-2.4333	-2.9271	-2.7583	-2.4104	-3.2167	-2.8146	-2.3875	-3.0396	-2.4333	-2.7583	-3.1354	-2.3	-2.9042	-2.4854	341.415	333.792	261.224	469.641	342.301	313.197	440.366	217.939	299.707	300.309	499.300	470.281	508.946	226.053	516.776	470.955	0.00027093	0.00022174	9.3887e-05	1273.7	4.4187e-06	5.8804e-06	1185.6	392.76	3.9305e-06	2.9191e-06	395.42	90.938	86.137	27.051	3.4104e-06	31.251	0.00080096	0.0013249	0.00037949	1230.5	1.388e-05	1.5336e-05	1142.4	379.52	1.3226e-05	1.5086e-05	383.14	88.252	84.154	26.536	1.3854e-05	30.554	255.986	210.506	192.002	191.898	311.556	302.531	190.911	195.832	314.665	305.809	193.879	198.787	200.721	206.029	336.165	203.325	-8191	255	
1269.814	1	1	0	0	0.17117	0.30777	0.081204	0.28342	0.066242	0.18688	0.099995	0.13172	0.092114	0.22989	0.21637	0.23631	0.10954	0.13511	0.35982	0.22158	-2.0187	-3.0396	-2.2229	-2.9583	-2.6875	-2.225	-2.975	-2.7646	-2.1562	-2.8396	-2.55	-2.6292	-2.9542	-2.3208	-2.9542	-2.6896	316.837	438.024	484.108	475.604	262.554	500.805	207.649	291.449	363.408	402.243	516.713	507.158	190.518	289.303	329.995	497.495	0.00033392	0.00043409	0.00013076	1276.2	4.5797e-06	6.2166e-06	1191.4	391.59	5.4746e-06	5.3618e-06	396.94	90.862	86.311	27.134	5.8852e-06	31.136	0.00082845	0.0013515	0.0003725	1231	1.3624e-05	1.5065e-05	1145.6	379.12	1.3986e-05	1.5645e-05	383.07	88.143	84.058	26.546	1.4411e-05	30.48	255.814	296.013	281.837	191.808	320.938	346.419	190.612	195.760	290.170	332.146	193.690	198.634	200.664	206.460	351.347	203.764	-8191	255	
1269.912	1	1	0	0	0.21335	0.0041019	0.092027	0.31685	0.15802	0.37451	0.28838	0.27473	0.16347	0.15066	0.061926	0.041836	0.072257	0.065223	0.18469	0.132	-1.9	-3.0021	-2.2667	-2.5479	-3.0271	-2.3521	-2.925	-2.7708	-2.3833	-2.8312	-2.7042	-2.5917	-3.1917	-2.4146	-2.8958	-2.9229	183.184	392.059	480.958	496.458	348.567	415.901	453.999	521.289	237.715	499.916	468.543	406.641	338.307	527.393	416.007	250.400	0.00027956	0.00044991	0.00025554	1270.3	5.4638e-06	6.3976e-06	1182	389.48	2.4863e-06	4.9907e-06	391.43	89.01	85.432	26.516	3.004e-06	30.986	0.00082914	0.0013749	0.00039261	1231.7	1.4014e-05	1.5717e-05	1143.6	378.99	1.3889e-05	1.5543e-05	382.34	87.557	83.61	26.382	1.4284e-05	30.461	255.788	251.333	266.369	192.424	307.734	344.617	191.038	196.087	331.630	305.531	194.962	199.108	200.784	206.880	384.299	203.935	-8191	255	
1270.031	1	1	0	0	0.089522	0.093612	0.094577	0.28328	0.074492	0.2414	0.23897	0.27974	0.14647	0.3332	0.13196	0.15822	0.26912	0.094277	0.15555	0.16868	-1.9438	-2.9625	-2.5271	-2.5271	-2.9458	-2.4437	-2.8396	-3.0375	-2.3979	-2.8104	-2.7396	-2.35	-3.1167	-2.4625	-2.8063	-2.8937	291.962	273.647	528.682	492.213	320.032	458.376	487.099	519.949	184.624	238.521	474.680	235.333	506.209	346.883	200.421	391.129	0.00024124	0.00039211	0.0001341	1273.8	5.0099e-06	4.2435e-06	1180.6	386.42	2.5091e-06	3.6263e-06	391.9	88.105	84.353	26.521	3.5548e-06	30.646	0.00081794	0.0013318	0.00038971	1232.6	1.3504e-05	1.5402e-05	1143.6	377.96	1.3817e-05	1.5161e-05	382.61	87.258	83.509	26.327	1.4331e-05	30.213	258.088	281.029	214.076	192.220	307.528	333.674	191.093	196.372	334.416	282.426	194.583	199.241	201.276	206.452	330.426	204.056	-8191	255	
1270.127	1	1	0	0	0.24885	0.1301	0.35338	0.059617	0.13025	0.10509	0.24851	0.262	0.13379	0.25034	0.22903	0.1723	0.15536	0.10628	0.15469	0.074932	-1.9562	-2.9542	-2.7062	-2.4979	-3.0875	-2.3771	-2.8771	-2.8771	-2.3812	-2.9688	-2.7104	-2.2625	-3.1917	-2.5	-2.5938	-3.125	261.271	280.803	243.230	198.166	300.287	187.489	479.307	181.116	442.629	463.381	519.904	253.933	429.121	519.992	180.317	488.364	0.0002224	0.00040586	0.00010376	1268.2	2.6684e-06	5.7588e-06	1172.2	386.55	4.5589e-06	2.4685e-06	391.57	87.799	85.003	26.517	6.1901e-06	30.606	0.00079187	0.0013605	0.00039456	1228.2	1.3718e-05	1.4991e-05	1140.6	377.59	1.3685e-05	1.5198e-05	381.2	87.084	83.431	26.212	1.4107e-05	30.135	260.445	257.991	262.144	192.511	329.859	345.951	191.197	196.214	329.038	341.541	194.262	199.064	201.300	206.555	338.256	203.992	-8191	255	
1270.223	1	1	0	0	0.12749	0.18976	0.018324	0.23627	0.18934	0.17411	0.039637	0.15602	0.1545	0.25465	0.038806	0.062709	0.26547	0.071063	0.23119	0.13924	-1.9542	-2.6521	-2.7313	-2.425	-2.9229	-2.4521	-2.6562	-3.2521	-2.2708	-2.8	-2.9271	-2.4104	-2.9229	-2.8542	-2.4604	-3.1833	495.628	366.618	302.351	461.723	468.308	273.098	341.830	492.104	509.738	332.501	453.674	369.007	388.577	398.408	225.141	243.300	0.00029337	0.00051353	0.00011165	1266.6	4.9676e-06	3.7985e-06	1173.1	386.57	2.98e-06	4.0134e-06	389.92	89.254	84.944	26.802	2.0812e-06	30.952	0.00080559	0.0013696	0.00036395	1226.4	1.3359e-05	1.4915e-05	1138.8	377.52	1.3337e-05	1.4942e-05	381.14	87.519	83.429	26.298	1.4055e-05	30.326	257.608	273.708	240.248	192.737	303.309	312.440	191.083	196.220	298.771	335.658	194.891	198.919	200.879	207.124	313.560	204.245	-8191	255	
1270.319	1	1	0	0	0.080156	0.17887	0.20193	0.15217	0.059204	0.13364	0.049977	0.28662	0.14216	0.14984	0.059333	0.1145	0.4221	0.25685	0.20292	0.20008	-2.175	-2.6437	-2.9792	-2.3646	-3.1042	-2.6333	-2.5958	-3.2833	-2.4958	-2.6604	-3.0333	-2.2917	-3.0021	-2.6583	-2.6042	-2.9938	443.878	419.126	437.983	474.819	373.269	459.496	189.632	440.277	186.112	232.926	466.951	495.372	532.211	475.909	299.160	443.917	0.00027686	0.00041609	0.00013443	1264.8	4.2368e-06	5.5611e-06	1178.4	387.1	5.8174e-06	2.6557e-06	393.71	89.296	86.008	27.09	4.4409e-06	30.906	0.00081853	0.0013851	0.00037842	1227.4	1.3545e-05	1.5601e-05	1142.2	378.04	1.3325e-05	1.5653e-05	382.82	88.004	84.078	26.54	1.4156e-05	30.449	253.453	288.001	247.782	192.456	304.180	346.925	191.063	196.055	341.080	333.270	194.399	199.091	200.995	206.225	316.931	203.853	-8191	255	
1270.416	1	1	0	0	0.16568	0.048039	0.1844	0.25286	0.33528	0.12369	0.18163	0.23079	0.13759	0.092331	0.27834	0.12941	0.097547	0.27876	0.1289	0.28581	-2.0312	-2.6833	-2.8958	-2.4083	-2.7562	-2.5792	-2.725	-3.1917	-2.6521	-2.3812	-3.0479	-2.3312	-2.9167	-3.0083	-2.2021	-2.9417	521.294	536.760	200.535	496.119	388.338	378.246	333.433	495.330	437.353	216.854	522.211	316.027	449.188	507.631	350.507	363.508	0.00028839	0.00050326	0.00015242	1271.5	5.2755e-06	3.1961e-06	1180.3	384.76	2.2297e-06	7.0819e-06	391.68	89.1	85.24	26.825	6.1305e-06	30.873	0.00081254	0.0013865	0.00037768	1230.2	1.3726e-05	1.5457e-05	1142.3	377.01	1.3703e-05	1.502e-05	381.7	87.573	83.736	26.453	1.3892e-05	30.439	263.358	252.476	304.123	192.507	283.314	319.808	190.903	196.429	328.184	326.128	194.668	199.004	200.993	206.852	328.572	204.549	-8191	255	
1270.512	1	1	0	0	0.1464	0.2313	0.23898	0.058899	0.1733	0.086356	0.208	0.16336	0.085787	0.11686	0.15304	0.1617	0.35665	0.28375	0.13406	0.16303	-1.9875	-2.3021	-3.0271	-2.2854	-2.9021	-2.9417	-2.4667	-2.9792	-2.5312	-2.3854	-3.1042	-2.5271	-2.7438	-2.925	-2.3104	-3.0417	376.236	505.144	366.195	382.978	382.580	191.420	216.478	490.041	325.401	322.283	190.109	389.924	189.168	271.167	348.710	306.859	0.00028501	8.0129e-05	0.00017589	1265.1	3.6998e-06	2.886e-06	1181.5	386.82	2.8191e-06	6.2525e-06	393.18	89.247	84.964	26.93	1.3822e-06	31.21	0.00080944	0.0013374	0.00038311	1225.9	1.3724e-05	1.502e-05	1141.4	377.17	1.4004e-05	1.5459e-05	382.37	87.492	83.554	26.449	1.428e-05	30.532	255.819	254.941	278.430	192.523	356.581	332.623	191.057	196.244	305.163	320.572	194.465	199.279	200.712	206.289	278.001	204.057	-8191	255	
1270.632	1	1	0	0	0.24041	0.2004	0.15164	0.21631	0.025496	0.082948	0.062581	0.32004	0.22212	0.086665	0.17313	0.15801	0.18733	0.066184	0.10884	0.13087	-2.2979	-2.4375	-2.9979	-2.5021	-2.5438	-3.0479	-2.5542	-2.9875	-2.7125	-2.275	-3.2479	-2.4667	-2.6063	-2.8937	-2.2625	-2.7979	350.984	476.472	386.347	391.036	373.003	253.979	518.365	457.784	490.017	477.138	501.290	415.934	511.575	189.233	520.152	485.288	0.00026031	0.00062514	0.00014891	1268.5	2.6928e-06	3.276e-06	1180.5	386.46	3.5994e-06	2.3536e-06	393.28	89.065	85.632	26.819	5.2564e-06	31.138	0.0008129	0.0013779	0.00036442	1225.5	1.4047e-05	1.5271e-05	1141.8	376.38	1.4204e-05	1.5083e-05	382.11	87.743	83.671	26.396	1.3708e-05	30.61	249.302	242.670	242.577	192.634	277.010	339.253	191.071	195.741	302.917	316.027	194.657	198.969	200.766	206.517	340.078	203.799	-8191	255	
1270.728	1	1	0	0	0.14854	0.1964	0.047325	0.33879	0.15564	0.12452	0.08379	0.10866	0.14836	0.15728	0.061676	0.43807	0.14944	0.13561	0.27846	0.14839	-2.4938	-2.3187	-3.0521	-2.6104	-2.4062	-3.0563	-2.3958	-2.8729	-2.7271	-2.1937	-3.0083	-2.7687	-2.6188	-3.0979	-2.3646	-2.6167	399.660	220.990	330.923	506.197	427.482	447.450	521.529	496.992	456.477	180.820	476.509	179.765	488.568	211.854	394.687	499.186	0.00029134	0.00021267	0.0001976	1268.5	4.5552e-06	5.1181e-06	1181.6	387.17	4.6282e-06	3.8649e-06	391.43	89.705	85.403	26.976	3.578e-06	31.034	0.00082695	0.0013645	0.00037875	1226.4	1.385e-05	1.5133e-05	1141.4	376.9	1.3997e-05	1.5165e-05	382	88.035	83.759	26.485	1.4164e-05	30.623	257.059	271.500	268.919	192.168	279.179	324.789	191.155	195.968	303.864	334.302	194.260	199.173	201.062	206.654	331.558	204.119	-8191	255	
1270.823	1	1	0	0	0.3488	0.24551	0.03349	0.23784	0.12834	0.22631	0.19871	0.27252	0.17891	0.14639	0.25108	0.20749	0.24391	0.2565	0.15245	0.091943	-2.4729	-2.4646	-2.8917	-2.7333	-2.5583	-2.9938	-2.8021	-2.6708	-2.8917	-2.3708	-2.9167	-2.8563	-2.325	-3.0187	-2.6042	-2.7625	499.704	181.316	367.823	208.927	382.660	246.049	190.612	501.495	360.450	483.222	506.665	535.174	531.398	244.696	418.446	365.932	0.00027623	0.00063297	0.00014534	1265.8	5.6609e-06	2.2903e-06	1174.2	386.29	4.0907e-06	5.1359e-06	391.28	90.506	85.197	26.873	3.6665e-06	30.887	0.00081023	0.0013749	0.00038681	1225.6	1.3857e-05	1.5282e-05	1139.2	376.38	1.3778e-05	1.5364e-05	381.15	88.136	83.659	26.534	1.4245e-05	30.48	260.125	252.839	222.783	192.486	337.772	328.276	191.226	196.131	334.977	284.164	193.992	199.297	200.970	206.526	342.708	204.019	-8191	255	
1270.919	1	1	0	0	0.048964	0.30032	0.098337	0.12262	0.062503	0.073729	0.2654	0.27973	0.072127	0.16238	0.061826	0.22701	0.1514	0.12071	0.1669	0.15542	-2.6417	-2.3396	-2.7167	-2.8875	-2.3771	-3.0104	-2.5667	-2.725	-2.8708	-2.5333	-2.9042	-2.8292	-2.3854	-3.0708	-2.5479	-2.5	481.167	308.749	494.703	190.058	298.385	499.153	515.822	505.775	458.472	356.703	455.689	513.425	234.115	497.524	289.109	182.959	0.00026624	0.00059985	0.00014001	1260.1	6.1413e-06	3.9056e-06	1175.6	387.3	3.1024e-06	3.3273e-06	391.1	90.021	85.11	26.987	4.6887e-06	31.105	0.0008129	0.001395	0.00038642	1223.2	1.4411e-05	1.5829e-05	1138.4	375.93	1.3931e-05	1.5757e-05	380.26	88.069	83.563	26.515	1.434e-05	30.548	258.392	253.123	249.489	192.525	295.201	341.043	190.993	195.595	325.947	337.204	194.272	199.006	200.800	206.249	300.937	203.697	-8191	255	
1271.015	1	1	0	0	0.20575	0.23017	0.20644	0.30616	0.13399	0.17259	0.11975	0.30526	0.23349	0.1231	0.097032	0.23607	0.038929	0.30024	0.2172	0.14614	-2.5792	-2.4854	-2.5	-3.0208	-2.2917	-2.9313	-2.7708	-2.6312	-2.9792	-2.5292	-2.6792	-3.0708	-2.4521	-2.9479	-2.6312	-2.7542	324.868	390.747	377.584	492.260	409.800	496.331	483.036	402.650	197.359	424.848	200.335	516.271	230.723	326.857	305.415	476.934	0.00027986	0.00043272	0.00015988	1265.6	4.8395e-06	3.5607e-06	1174.9	387.69	5.004e-06	4.686e-06	389.02	89.846	85.064	26.898	5.3178e-06	31.073	0.00080743	0.0013988	0.00038745	1224.5	1.3802e-05	1.5407e-05	1139	375.64	1.4133e-05	1.5812e-05	380.08	87.937	83.506	26.509	1.466e-05	30.575	258.770	253.210	254.949	192.366	310.537	324.869	191.109	195.961	304.033	357.645	194.295	199.331	200.705	206.201	318.591	203.655	-8191	255	
1271.111	1	1	0	0	0.19598	0.18846	0.16555	0.32902	0.22595	0.1658	0.27101	0.32522	0.10386	0.11912	0.16367	0.059414	0.3041	0.19944	0.20408	0.13768	-2.5771	-2.2833	-2.55	-3.15	-2.3417	-2.8167	-2.6917	-2.5083	-2.8917	-2.5104	-2.5687	-2.9437	-2.5062	-2.7833	-2.8833	-2.2854	200.315	237.811	267.819	261.722	355.027	511.293	534.336	497.801	501.242	340.793	453.364	431.011	235.878	225.266	407.710	495.580	0.00028796	0.000555	6.1413e-05	1269.2	4.3472e-06	3.809e-06	1176.6	385.25	3.3484e-06	3.4361e-06	390.59	89.958	85.3	26.888	4.4243e-06	31.28	0.00083141	0.0013784	0.00039878	1224.2	1.4603e-05	1.5876e-05	1140.8	375.86	1.403e-05	1.6077e-05	380.18	88.184	83.522	26.545	1.439e-05	30.662	254.756	254.464	264.342	192.309	354.071	341.366	190.928	196.030	290.790	334.110	194.537	199.300	201.065	206.668	332.279	203.565	-8191	255	
1271.207	1	1	0	0	0.16838	0.27812	0.037277	0.2218	0.144	0.042351	0.19403	0.1209	0.30404	0.13943	0.2161	0.19132	0.18333	0.064691	0.36682	0.17846	-2.5458	-2.65	-2.5479	-3.1063	-2.2708	-2.6979	-2.8646	-2.5	-2.9458	-2.5333	-2.5896	-3.0917	-2.2958	-2.7604	-2.8875	-2.4917	267.922	502.412	209.874	518.221	492.477	417.251	342.196	525.386	403.964	422.122	528.006	298.251	454.209	533.812	486.229	521.709	0.00029106	0.00045735	0.00011463	1262.3	5.1286e-06	5.7267e-06	1182.5	387.63	5.7545e-06	4.3506e-06	391.32	89.54	85.169	27.322	5.3993e-06	31.305	0.00082102	0.0014114	0.00039346	1223.3	1.3931e-05	1.5914e-05	1138.3	375.51	1.3642e-05	1.5728e-05	380.65	88.002	83.525	26.665	1.4432e-05	30.675	255.245	212.777	309.042	192.647	325.873	297.145	190.994	195.702	322.384	317.397	193.727	199.150	200.937	206.189	355.942	203.765	-8191	255	
1271.328	1	1	0	0	0.16605	0.035966	0.039157	0.042885	0.20963	0.08157	0.2039	0.057336	0.16265	0.087926	0.1643	0.04906	0.20476	0.27987	0.049416	0.35977	-2.5917	-2.6583	-2.2188	-3.1625	-2.4167	-2.6208	-3.0875	-2.4583	-2.9208	-2.5354	-2.6958	-2.9729	-2.2729	-2.6667	-3.0167	-2.3167	399.807	260.253	423.764	445.972	421.438	309.486	450.580	453.630	292.810	533.752	444.200	482.110	522.541	531.281	486.538	233.457	0.000291	0.00041744	0.00013663	1257.3	4.9898e-06	5.481e-06	1172.7	385.66	3.662e-06	3.8854e-06	392.74	89.641	85.687	27.028	1.2688e-06	31.189	0.00081832	0.0013686	0.00038675	1221.4	1.4129e-05	1.5877e-05	1137.3	375.56	1.3569e-05	1.5347e-05	381.17	87.924	83.707	26.61	1.4491e-05	30.641	263.378	261.878	292.398	192.425	303.185	335.045	191.434	196.096	341.448	335.566	194.520	199.293	200.752	206.525	326.299	203.932	-8191	255	
1271.424	1	1	0	0	0.23119	0.076186	0.16558	0.036542	0.27172	0.20376	0.12962	0.26728	0.16567	0.18686	0.29358	0.044721	0.24842	0.058888	0.061006	0.27894	-2.4583	-2.6979	-2.2667	-2.9333	-2.3625	-2.5917	-3.2604	-2.5083	-2.8604	-2.8833	-2.3125	-3.0479	-2.5896	-2.4521	-2.8625	-2.2771	474.313	372.504	230.375	296.907	413.717	218.751	476.465	467.481	213.109	239.336	491.075	457.760	526.357	288.660	350.297	197.568	0.00027224	0.00078125	0.00015972	1261.7	4.319e-06	6.0875e-06	1172.5	383.42	4.1508e-06	5.0255e-06	393.14	89.937	85.248	26.872	1.6111e-06	31.364	0.00083283	0.0014273	0.00039644	1221.6	1.4191e-05	1.5271e-05	1139	374.41	1.4482e-05	1.5607e-05	382.2	88.308	83.749	26.52	1.4521e-05	30.817	258.887	228.880	188.964	192.583	309.255	333.448	191.336	196.103	300.141	309.602	194.321	199.500	201.359	206.421	355.182	203.892	-8191	255	
1271.496	1	1	0	0	0.14603	0.14231	0.12002	0.19274	0.11476	0.16266	0.052918	0.46677	0.0089986	0.19829	0.25125	0.16953	0.17487	0.10704	0.085618	0.16915	-2.3479	-2.825	-2.3083	-2.9667	-2.6146	-2.7062	-3.1917	-2.6875	-2.7979	-2.8854	-2.6104	-2.9021	-2.6021	-2.3729	-2.8604	-2.3604	393.841	199.528	374.535	509.636	178.206	426.542	462.979	462.291	529.879	505.545	291.201	530.740	475.053	387.092	297.892	400.290	0.00025115	0.00046529	7.9185e-05	1262	1.6066e-06	6.0596e-06	1178.8	386.58	2.6294e-06	4.0786e-06	389.79	89.007	85.252	26.893	3.3708e-06	30.88	0.00083502	0.0013981	0.00038302	1225	1.4191e-05	1.5597e-05	1141.3	375.56	1.4023e-05	1.5634e-05	380.1	87.632	83.516	26.488	1.4421e-05	30.473	255.398	263.535	260.113	192.388	393.132	351.039	191.247	195.994	333.268	318.699	194.398	199.166	200.996	206.486	328.059	204.041	-8191	255	
1271.592	1	1	0	0	0.25414	0.099664	0.30382	0.50956	0.15833	0.092466	0.27288	0.20862	0.18395	0.15421	0.23136	0.11677	0.13143	0.1517	0.048806	0.12054	-1.9604	-3.0229	-2.2062	-2.9042	-2.5896	-2.3604	-3.2667	-2.5771	-2.5917	-2.8187	-2.575	-2.8979	-2.7958	-2.4833	-2.9729	-2.6854	317.415	404.792	196.196	510.498	323.611	299.663	512.337	507.479	205.074	221.473	203.082	500.705	195.452	475.619	203.593	514.383	0.00027203	0.0003921	0.00011426	1268.3	4.4244e-06	3.4729e-06	1169.6	385.24	4.4084e-06	3.6841e-06	389.11	89.061	85.297	26.887	3.1709e-06	31.025	0.00083395	0.0014007	0.00039306	1225	1.408e-05	1.5579e-05	1136.8	374.6	1.4309e-05	1.5832e-05	378.9	87.278	83.204	26.476	1.4054e-05	30.509	254.710	251.220	283.144	192.448	329.986	366.458	191.261	196.290	303.942	340.710	194.078	198.715	201.298	206.668	339.788	204.404	-8191	255	
1271.711	1	1	0	0	0.23744	0.17032	0.082437	0.10479	0.11755	0.042328	0.19263	0.35799	0.13847	0.1073	0.13977	0.1056	0.21142	0.068341	0.13302	0.17423	-2.0125	-2.9521	-2.2604	-2.9208	-2.7667	-2.5104	-3.2458	-2.6	-2.5438	-3.0896	-2.3229	-2.8	-2.95	-2.3479	-2.8438	-2.7729	497.232	401.881	419.852	346.791	458.953	219.808	502.858	485.230	365.075	214.928	507.460	434.598	476.998	480.684	520.294	358.466	0.00030146	0.00052909	0.00011105	1257.8	2.9491e-06	3.2273e-06	1173.3	384.58	6.425e-06	1.5928e-06	389.52	89.199	85.231	26.94	5.2966e-06	31.039	0.00082896	0.0013777	0.00038127	1220.7	1.4237e-05	1.5477e-05	1136.4	374.33	1.3884e-05	1.5949e-05	379.4	87.76	83.453	26.518	1.4827e-05	30.585	259.936	258.428	231.146	192.654	298.043	319.721	191.174	196.321	311.009	267.806	194.368	198.930	201.459	206.509	339.723	203.950	-8191	255	
1271.807	1	1	0	0	0.032032	0.21871	0.042741	0.23965	0.18891	0.19462	0.20304	0.1467	0.25091	0.28166	0.27884	0.15425	0.10733	0.15348	0.15387	0.086319	-2.0563	-2.9833	-2.2229	-2.7812	-2.9833	-2.4542	-3.1604	-2.9813	-2.4896	-3.2438	-2.4979	-2.6583	-3.1562	-2.5271	-2.9021	-2.8521	352.870	234.911	249.151	532.020	511.456	363.908	464.622	180.001	292.333	188.821	198.631	273.911	492.768	521.099	335.449	505.011	0.0003003	0.00038332	9.3309e-05	1257	5.6719e-06	3.8635e-06	1170.6	384.83	4.8958e-06	3.8477e-06	388.9	89.101	84.658	26.855	2.1119e-06	30.836	0.00084981	0.0014034	0.00039519	1223.5	1.4105e-05	1.5722e-05	1137.4	375.39	1.4295e-05	1.5694e-05	379.68	87.832	83.469	26.522	1.4814e-05	30.517	253.801	255.648	281.602	192.698	307.581	346.197	191.146	196.205	344.512	321.402	194.623	199.029	201.275	207.157	355.210	204.163	-8191	255	
1271.903	1	1	0	0	0.051802	0.19733	0.14269	0.13105	0.38215	0.14921	0.20799	0.14685	0.082943	0.246	0.133	0.12	0.13052	0.063703	0.21441	0.20195	-1.9396	-2.9729	-2.3625	-2.6729	-2.9354	-2.4458	-3.0833	-2.9104	-2.2667	-3.1	-2.6042	-2.7375	-3.05	-2.2792	-2.5854	-3.0083	406.031	241.880	349.463	328.621	411.689	437.954	488.081	505.361	219.886	400.483	459.495	377.697	256.853	404.209	475.381	196.697	0.00027122	0.00031258	0.00011288	1265.4	3.5902e-06	5.3677e-06	1171.8	384.59	4.8359e-06	4.9223e-06	387.02	88.322	84.375	26.581	4.2996e-06	30.85	0.00083701	0.0013972	0.0003946	1225.2	1.3899e-05	1.5867e-05	1138.9	375.37	1.4387e-05	1.5825e-05	378.94	87.294	83.182	26.313	1.4617e-05	30.283	260.367	248.065	267.345	192.561	309.056	322.068	191.402	196.479	324.943	328.690	194.772	199.353	201.628	206.864	341.590	204.658	-8191	255	
1271.999	1	1	0	0	0.30852	0.094144	0.17022	0.23157	0.13757	0.06945	0.17827	0.086655	0.18261	0.40691	0.26525	0.095364	0.073602	0.12172	0.20393	0.1517	-2.0604	-2.8812	-2.5521	-2.5708	-3.1646	-2.3458	-2.8333	-2.9	-2.5083	-3.2396	-2.8792	-2.5271	-3	-2.5438	-2.5875	-3.0208	269.512	197.318	213.538	186.742	212.588	431.502	496.446	413.039	455.847	323.606	386.279	351.368	237.112	392.054	527.085	351.654	0.00029222	0.00025968	0.00016587	1263.6	3.5984e-06	4.5934e-06	1170.6	386.16	4.2332e-06	3.4536e-06	389.1	89.352	84.681	26.905	3.2045e-06	30.688	0.00083169	0.0013782	0.00040457	1224.3	1.4513e-05	1.5668e-05	1137.7	375.87	1.429e-05	1.6101e-05	378.68	87.417	83.168	26.352	1.4721e-05	30.332	255.649	264.222	255.368	192.607	305.812	301.348	191.323	196.419	305.721	344.462	194.360	199.765	201.448	207.033	307.632	203.824	-8191	255	
#DATA ENDS
