BOXY.EXE: ISS Imagent and Oximeter Data Acquisition Program Version 0.80
Ascii Record File

#ACQ INFORMATION
2  Detector Channels 
16  External MUX Channels 
1  Auxiliary Channels 
5000  Waveform (CCF) Frequency (Hz)
1  Waveforms Skipped 
30  Waveforms Averaged 
1  Cycles Averaged 
16  Acquisitions per Waveform 
10.0806  Updata Rate (Hz) 

#FILE INFORMATION
TRUE -- External MUX Channel results are PARSED.
FALSE -- AC DC and Phase are NOT grouped.
TRUE -- Companion Program Settings File CREATED.
FALSE -- AC data not excluded
FALSE -- DC data not excluded
FALSE -- Phase data not excluded
FALSE -- Auxillary Chn. data not excluded
Tab delimiters

#CALIBRATION STATE
TRUE -- Waveform Calibration Values APPLIED.


#AUX CALIBRATION VALUES
Val Type	aux-1	

Term	1.0000e+00	
Factor	0.0000e+00	


#WF CALIBRATION VALUES
A = Detector Channel
Val Type	A-AC1	A-AC2	A-AC3	A-AC4	A-AC5	A-AC6	A-AC7	A-AC8	A-AC9	A-AC10	A-AC11	A-AC12	A-AC13	A-AC14	A-AC15	A-AC16	A-DC1	A-DC2	A-DC3	A-DC4	A-DC5	A-DC6	A-DC7	A-DC8	A-DC9	A-DC10	A-DC11	A-DC12	A-DC13	A-DC14	A-DC15	A-DC16	A-Ph1	A-Ph2	A-Ph3	A-Ph4	A-Ph5	A-Ph6	A-Ph7	A-Ph8	A-Ph9	A-Ph10	A-Ph11	A-Ph12	A-Ph13	A-Ph14	A-Ph15	A-Ph16	

Term	0.00000e+00	0.00000e+00	0.00000e+00	0.00000e+00	0.00000e+00	0.00000e+00	0.00000e+00	0.00000e+00	0.00000e+00	0.00000e+00	0.00000e+00	0.00000e+00	0.00000e+00	0.00000e+00	0.00000e+00	0.00000e+00	0.00000e+00	0.00000e+00	0.00000e+00	0.00000e+00	0.00000e+00	0.00000e+00	0.00000e+00	0.00000e+00	0.00000e+00	0.00000e+00	0.00000e+00	0.00000e+00	0.00000e+00	0.00000e+00	0.00000e+00	0.00000e+00	0.00000e+00	0.00000e+00	0.00000e+00	0.00000e+00	0.00000e+00	0.00000e+00	0.00000e+00	0.00000e+00	0.00000e+00	0.00000e+00	0.00000e+00	0.00000e+00	0.00000e+00	0.00000e+00	0.00000e+00	0.00000e+00	
Factor	1.00000e+00	1.00000e+00	1.00000e+00	1.00000e+00	1.00000e+00	1.00000e+00	1.00000e+00	1.00000e+00	1.00000e+00	1.00000e+00	1.00000e+00	1.00000e+00	1.00000e+00	1.00000e+00	1.00000e+00	1.00000e+00	1.00000e+00	1.00000e+00	1.00000e+00	1.00000e+00	1.00000e+00	1.00000e+00	1.00000e+00	1.00000e+00	1.00000e+00	1.00000e+00	1.00000e+00	1.00000e+00	1.00000e+00	1.00000e+00	1.00000e+00	1.00000e+00	X	X	X	X	X	X	X	X	X	X	X	X	X	X	X	X	

B = Detector Channel
Val Type	B-AC1	B-AC2	B-AC3	B-AC4	B-AC5	B-AC6	B-AC7	B-AC8	B-AC9	B-AC10	B-AC11	B-AC12	B-AC13	B-AC14	B-AC15	B-AC16	B-DC1	B-DC2	B-DC3	B-DC4	B-DC5	B-DC6	B-DC7	B-DC8	B-DC9	B-DC10	B-DC11	B-DC12	B-DC13	B-DC14	B-DC15	B-DC16	B-Ph1	B-Ph2	B-Ph3	B-Ph4	B-Ph5	B-Ph6	B-Ph7	B-Ph8	B-Ph9	B-Ph10	B-Ph11	B-Ph12	B-Ph13	B-Ph14	B-Ph15	B-Ph16	

Term	0.00000e+00	0.00000e+00	0.00000e+00	0.00000e+00	0.00000e+00	0.00000e+00	0.00000e+00	0.00000e+00	0.00000e+00	0.00000e+00	0.00000e+00	0.00000e+00	0.00000e+00	0.00000e+00	0.00000e+00	0.00000e+00	0.00000e+00	0.00000e+00	0.00000e+00	0.00000e+00	0.00000e+00	0.00000e+00	0.00000e+00	0.00000e+00	0.00000e+00	0.00000e+00	0.00000e+00	0.00000e+00	0.00000e+00	0.00000e+00	0.00000e+00	0.00000e+00	-9.39495e+01	-1.35721e+02	-1.25820e+02	-1.82069e+02	-5.43409e+01	-6.46157e+01	-1.59155e+02	-1.62015e+02	-5.88718e+01	-7.21298e+01	-1.73297e+02	-1.72413e+02	-1.88332e+02	-1.77837e+02	-6.17040e+01	-1.50152e+02	
Factor	2.01488e-05	2.23168e-04	6.04090e-05	1.68445e-01	1.69383e-06	2.40167e-06	2.07806e-01	7.28711e-02	1.55576e-06	2.23671e-06	1.33238e-01	3.79796e-02	4.46465e-02	1.08739e-02	1.81721e-06	1.57391e-02	1.63297e-05	3.41947e-05	9.55667e-06	8.38009e-02	3.19477e-07	3.86555e-07	9.64301e-02	3.65082e-02	3.37376e-07	3.84469e-07	6.46773e-02	1.85256e-02	2.24160e-02	5.48690e-03	3.49829e-07	7.69830e-03	X	X	X	X	X	X	X	X	X	X	X	X	X	X	X	X	



#DISTANCE SETTINGS
A = Detector Channel
A-1	A-2	A-3	A-4	A-5	A-6	A-7	A-8	A-9	A-10	A-11	A-12	A-13	A-14	A-15	A-16	

2.5000e+00	3.0000e+00	2.5000e+00	3.0000e+00	2.0000e+00	3.0000e+00	1.5000e+00	3.0000e+00	3.0000e+00	3.0000e+00	3.0000e+00	3.0000e+00	3.0000e+00	3.0000e+00	1.5000e+00	3.0000e+00	

B = Detector Channel
B-1	B-2	B-3	B-4	B-5	B-6	B-7	B-8	B-9	B-10	B-11	B-12	B-13	B-14	B-15	B-16	

1.0000e+01	1.0000e+01	1.0000e+01	1.4400e+00	1.0000e+01	1.0000e+01	1.5100e+00	1.9400e+00	1.0000e+01	1.0000e+01	1.9900e+00	2.4900e+00	2.4100e+00	2.9000e+00	1.0000e+01	2.9800e+00	




#DATA BEGINS
time	group	step	mark	flag	A-AC1	A-AC2	A-AC3	A-AC4	A-AC5	A-AC6	A-AC7	A-AC8	A-AC9	A-AC10	A-AC11	A-AC12	A-AC13	A-AC14	A-AC15	A-AC16	A-DC1	A-DC2	A-DC3	A-DC4	A-DC5	A-DC6	A-DC7	A-DC8	A-DC9	A-DC10	A-DC11	A-DC12	A-DC13	A-DC14	A-DC15	A-DC16	A-Ph1	A-Ph2	A-Ph3	A-Ph4	A-Ph5	A-Ph6	A-Ph7	A-Ph8	A-Ph9	A-Ph10	A-Ph11	A-Ph12	A-Ph13	A-Ph14	A-Ph15	A-Ph16	B-AC1	B-AC2	B-AC3	B-AC4	B-AC5	B-AC6	B-AC7	B-AC8	B-AC9	B-AC10	B-AC11	B-AC12	B-AC13	B-AC14	B-AC15	B-AC16	B-DC1	B-DC2	B-DC3	B-DC4	B-DC5	B-DC6	B-DC7	B-DC8	B-DC9	B-DC10	B-DC11	B-DC12	B-DC13	B-DC14	B-DC15	B-DC16	B-Ph1	B-Ph2	B-Ph3	B-Ph4	B-Ph5	B-Ph6	B-Ph7	B-Ph8	B-Ph9	B-Ph10	B-Ph11	B-Ph12	B-Ph13	B-Ph14	B-Ph15	B-Ph16	aux-1	digaux	

42175.984	1	1	0	768	0.04853	0.14191	0.1835	0.11142	0.47893	0.11184	0.30198	0.3	0.23537	0.20947	0.29343	0.1783	0.068717	0.1655	0.068401	0.13463	-2.0417	-2.6854	-2.5208	-2.8854	-2.7458	-2.3854	-2.9625	-2.5833	-2.3667	-2.7812	-2.475	-2.65	-2.5542	-2.2083	-2.7104	-2.4083	448.894	412.988	110.078	394.502	443.092	100.242	355.487	444.522	375.267	416.330	344.449	272.318	261.184	317.581	304.808	195.089	0.00047648	0.00041837	0.0001519	1392.2	6.6994e-06	4.3185e-06	1375.2	371.46	4.9474e-06	5.4032e-06	423.91	137.67	119.76	41.509	4.5596e-06	51.698	0.00049459	0.00045842	0.00012414	1410.5	5.0344e-06	5.0558e-06	1392.3	378.21	5.1541e-06	4.8667e-06	432.15	140.78	122.86	42.454	4.9552e-06	52.953	211.361	174.597	181.562	106.324	254.308	226.764	106.401	110.983	267.606	235.472	110.406	114.928	115.666	120.062	263.180	119.371	-8191	255	
42176.078	1	1	0	0	0.021574	0.24354	0.077352	0.17547	0.10187	0.26649	0.15127	0.3176	0.06156	0.032952	0.10869	0.27665	0.10041	0.363	0.11345	0.10372	-1.95	-2.6625	-2.4208	-2.8729	-2.5938	-2.4188	-2.8229	-2.4958	-2.425	-2.525	-2.3521	-2.6125	-2.7521	-2.4208	-2.6167	-2.5521	246.462	229.914	125.898	452.864	184.121	328.188	358.198	430.036	283.997	339.176	150.052	384.779	358.043	402.376	345.557	416.110	0.00045811	0.00049381	0.00011619	1397.3	5.7923e-06	4.7301e-06	1372.7	371.3	4.0865e-06	5.418e-06	425.22	137.65	120.22	41.324	5.4119e-06	51.492	0.0004905	0.00043591	0.0001315	1411.2	5.065e-06	5.1911e-06	1390.7	378.6	5.041e-06	4.9532e-06	432.28	140.99	122.91	42.443	4.9304e-06	52.879	211.059	178.847	174.426	106.098	267.302	261.569	106.429	110.890	251.364	246.183	110.400	115.236	115.777	119.988	253.158	119.059	-8191	255	
42176.176	1	1	0	0	0.20274	0.066984	0.34838	0.03698	0.26341	0.027757	0.21896	0.16214	0.1373	0.078437	0.16018	0.053095	0.094521	0.18084	0.08303	0.19236	-2.025	-2.8167	-2.3771	-2.6937	-2.5021	-2.2833	-2.7667	-2.5021	-2.5563	-2.7979	-2.4625	-2.2542	-2.5729	-2.3208	-2.6312	-2.5542	139.001	97.988	376.305	413.720	194.577	274.388	410.032	93.448	361.349	329.743	180.292	125.204	416.555	429.390	263.669	143.682	0.00046311	0.00054571	0.00011091	1392.7	5.7892e-06	5.7443e-06	1375.8	371.93	3.9906e-06	4.9818e-06	426.1	137.33	120.06	41.472	4.6564e-06	51.468	0.00049622	0.00043719	0.00012356	1411.5	5.1249e-06	5.0373e-06	1393.4	378.86	5.1682e-06	4.729e-06	432.61	140.95	123	42.522	4.8889e-06	52.96	210.612	175.267	178.256	106.336	265.312	247.535	106.311	111.063	250.898	231.485	110.399	115.225	115.560	119.905	248.737	119.192	-8191	255	
42176.273	1	1	0	0	0.14876	0.026187	0.29208	0.114	0.075588	0.13524	0.07372	0.20093	0.33047	0.31063	0.056196	0.32447	0.20704	0.29634	0.050673	0.30908	-1.8354	-2.7146	-2.4083	-2.5229	-2.7083	-2.2833	-2.625	-2.8458	-2.3479	-2.6729	-2.4188	-2.3333	-2.7313	-2.3312	-2.5354	-2.6833	132.034	134.816	266.195	412.710	391.041	177.392	106.731	386.975	207.680	412.922	167.682	403.168	372.706	400.107	164.467	307.915	0.00048989	0.0006153	0.00017132	1399.3	6.4931e-06	5.8549e-06	1374.7	371.53	3.5208e-06	6.0185e-06	424.91	138.08	120.06	41.484	4.0704e-06	51.911	0.0005066	0.00046754	0.00012995	1414.5	5.3446e-06	5.4045e-06	1395	378.61	5.4353e-06	5.3337e-06	432.81	141.54	123.15	42.591	4.9005e-06	53.114	211.940	186.246	187.922	106.188	252.767	244.321	106.369	110.983	258.139	244.904	110.133	115.194	115.471	119.824	245.859	119.147	-8191	255	
42176.367	1	1	0	0	0.17523	0.24235	0.35463	0.29883	0.25142	0.082607	0.22886	0.12282	0.18086	0.19686	0.067073	0.14406	0.27004	0.088362	0.18942	0.16229	-1.7687	-2.6167	-2.4458	-2.5979	-2.6292	-2.4417	-2.7458	-2.6375	-2.3812	-2.7125	-2.6292	-2.4646	-2.9917	-2.5083	-2.5812	-2.6125	120.247	247.461	361.017	114.303	367.533	368.811	437.312	442.592	237.327	327.920	219.992	275.361	205.271	130.478	227.774	139.240	0.00047603	0.00051299	0.0001529	1399.7	5.0816e-06	3.2456e-06	1379.6	371.72	4.9748e-06	5.2847e-06	426.59	138.29	121.04	41.551	4.661e-06	51.824	0.00050915	0.00046184	0.00012505	1416	5.0823e-06	5.088e-06	1396.5	379.49	5.5203e-06	5.2392e-06	433.49	141.42	123.4	42.641	5.1031e-06	53.119	210.458	166.127	183.863	106.319	251.917	257.788	106.141	110.912	255.684	242.774	110.389	115.038	115.626	119.786	255.368	119.005	-8191	255	
42176.465	1	1	0	0	0.18877	0.20711	0.1209	0.18243	0.31623	0.20851	0.3042	0.11595	0.17979	0.25596	0.063645	0.14991	0.13765	0.11666	0.27795	0.088465	-1.9479	-2.4583	-2.5271	-2.5458	-2.6229	-2.2687	-2.6979	-2.7208	-2.2812	-2.7979	-2.6	-2.4542	-2.8688	-2.4021	-2.5417	-2.7	308.030	295.044	283.268	360.901	119.776	221.375	358.209	443.559	434.949	347.219	373.329	124.862	436.549	434.102	235.102	399.199	0.00046972	0.000334	0.00014952	1396.7	4.8882e-06	6.1099e-06	1381.8	370.98	4.8357e-06	3.5024e-06	424.78	138.41	120.05	41.565	4.9961e-06	51.854	0.00050456	0.00044375	0.00012997	1414.2	5.1236e-06	5.0091e-06	1397.4	378.65	5.2455e-06	4.785e-06	432.6	141.53	123.36	42.706	5.1935e-06	53.144	209.756	173.486	203.491	106.240	257.019	247.895	106.103	111.094	260.889	237.238	110.648	115.316	115.671	120.071	249.636	119.110	-8191	255	
42176.586	1	1	0	0	0.10125	0.15284	0.2102	0.19765	0.23217	0.043641	0.10116	0.29392	0.24048	0.17571	0.12919	0.12045	0.088602	0.14806	0.2083	0.20551	-1.9854	-2.6542	-2.4167	-2.4542	-2.825	-2.3479	-2.4667	-2.6479	-2.2479	-2.5896	-2.6333	-2.4083	-2.5771	-2.5792	-2.4125	-2.6271	188.533	175.329	382.365	354.899	384.049	251.364	406.903	363.124	369.745	298.519	288.710	280.780	328.239	97.953	186.343	429.725	0.00047619	0.0004198	0.00014012	1396.2	4.9686e-06	4.6156e-06	1375.7	372.56	4.0229e-06	4.5283e-06	425.74	138.48	121.07	41.718	4.5409e-06	51.952	0.00050357	0.0004446	0.00012322	1414.5	5.0238e-06	5.0462e-06	1395.5	379.21	5.164e-06	4.777e-06	433.21	141.81	123.68	42.755	5.2074e-06	53.245	209.917	168.420	195.114	106.267	258.076	236.063	106.200	110.860	240.511	249.212	110.319	115.310	115.319	119.976	247.609	119.018	-8191	255	
42176.684	1	1	0	0	0.20701	0.1529	0.13663	0.22878	0.24561	0.25112	0.088956	0.13193	0.14715	0.12044	0.057231	0.16706	0.1588	0.18172	0.14806	0.26822	-1.9271	-2.5062	-2.6542	-2.5375	-2.55	-2.4521	-2.7167	-2.9	-2.375	-2.5458	-2.6208	-2.4792	-2.5896	-2.5125	-2.3146	-2.8021	155.479	450.144	176.077	394.308	302.954	270.772	293.678	285.106	442.608	368.590	96.296	106.195	342.304	404.970	410.713	355.968	0.00048512	0.00046299	0.0001145	1396.6	3.9405e-06	5.0993e-06	1377.4	373.27	5.1932e-06	4.0558e-06	426.04	138.27	121.55	41.721	5.969e-06	52.126	0.00050394	0.00045621	0.00012637	1414.4	5.0803e-06	4.7482e-06	1397.4	379.48	5.1162e-06	4.938e-06	432.87	141.73	123.95	42.857	5.2008e-06	53.388	209.736	180.735	207.634	106.281	254.848	225.006	106.272	111.014	248.695	245.140	110.293	115.021	115.902	119.954	243.829	119.078	-8191	255	
42176.777	1	1	0	0	0.13421	0.14501	0.10735	0.20549	0.11241	0.095336	0.12203	0.41825	0.12503	0.1504	0.10765	0.04611	0.14487	0.082316	0.064884	0.10296	-2.0396	-2.5167	-2.6458	-2.525	-2.6583	-2.6896	-2.3792	-2.7146	-2.35	-2.4125	-2.8146	-2.4896	-2.5312	-2.4896	-2.3417	-2.7979	288.466	104.750	277.663	396.642	249.666	387.322	369.504	345.749	398.063	262.836	111.561	377.358	134.530	98.268	152.179	437.433	0.00047223	0.00052271	0.00010074	1399.8	5.3144e-06	4.3834e-06	1383.7	373.52	4.5284e-06	3.9952e-06	427.55	140.1	122.45	41.983	4.2605e-06	52.565	0.00050282	0.00045465	0.000128	1417.6	5.1682e-06	5.1726e-06	1402.7	381.1	5.197e-06	5.0942e-06	434.62	143.28	124.97	43.229	5.2649e-06	53.731	210.136	183.734	191.702	106.226	244.455	228.170	106.166	111.015	252.548	245.593	110.221	115.014	115.505	119.949	250.394	119.094	-8191	255	
42176.875	1	1	0	0	0.14822	0.20777	0.11738	0.14373	0.097582	0.14704	0.060995	0.24832	0.33556	0.18662	0.14551	0.16338	0.40847	0.047909	0.2561	0.28139	-2.0458	-2.425	-2.7333	-2.4562	-2.4417	-2.5083	-2.575	-2.8458	-2.3792	-2.5146	-2.5938	-2.4646	-2.6	-2.8042	-2.4375	-2.8292	193.907	238.048	93.773	452.694	241.742	360.324	449.840	394.959	233.980	425.699	251.814	116.108	428.252	187.286	432.576	293.002	0.00048235	0.00037251	0.00014366	1407.6	5.7495e-06	4.8568e-06	1393.2	375.19	4.4863e-06	3.6352e-06	430.32	141.6	123.7	42.397	5.8873e-06	52.774	0.00051252	0.00045963	0.00012945	1424.7	5.2161e-06	5.2378e-06	1411	382.32	5.2589e-06	5.2921e-06	436.44	144.68	126.09	43.627	5.4544e-06	54.127	210.747	186.612	184.575	106.185	246.364	244.142	105.987	110.970	243.020	253.439	110.410	114.944	115.621	119.651	244.322	118.960	-8191	255	
42176.969	1	1	0	0	0.0509	0.17589	0.10401	0.17444	0.19624	0.11376	0.13078	0.24228	0.027317	0.1423	0.19317	0.29137	0.20993	0.22349	0.14929	0.17904	-2.1396	-2.4146	-2.6125	-2.6188	-2.5417	-2.7354	-2.6958	-2.6667	-2.7729	-2.4313	-2.8875	-2.525	-2.4771	-2.7021	-2.2521	-2.825	445.203	400.256	232.352	410.031	150.255	442.176	427.743	414.126	182.087	357.199	415.073	367.189	225.965	105.138	447.309	406.934	0.00049253	0.00062509	0.00011191	1414.1	5.5394e-06	5.5905e-06	1402.2	375.69	5.6351e-06	4.1466e-06	430.16	141.69	123.53	42.667	5.8214e-06	52.798	0.00051483	0.00046612	0.00012452	1431.4	5.3007e-06	5.0478e-06	1418.3	382.96	5.1541e-06	5.067e-06	437.54	145.02	126.52	43.653	5.1797e-06	54.04	210.363	174.659	188.198	106.325	247.962	241.266	106.184	110.853	254.177	243.938	110.390	114.853	115.688	119.705	239.745	119.154	-8191	255	
42177.066	1	1	0	0	0.067705	0.22314	0.11101	0.24286	0.28352	0.38909	0.072713	0.16217	0.16019	0.26355	0.033249	0.1704	0.084427	0.1833	0.21018	0.33692	-2.1562	-2.2396	-2.8063	-2.6292	-2.4354	-2.7292	-2.4479	-2.8688	-2.6396	-2.2604	-2.6958	-2.4354	-2.5187	-2.9792	-2.2354	-2.6646	232.096	373.779	158.605	141.294	249.432	180.155	373.729	154.409	234.150	341.288	214.326	114.539	451.666	428.468	180.060	352.578	0.0004825	0.00049423	0.00012052	1414.1	4.7477e-06	4.4742e-06	1402.7	374.65	5.0769e-06	5.7905e-06	429.87	142.36	124.5	42.514	4.6892e-06	52.953	0.0005116	0.00048286	0.00012625	1432	5.1615e-06	4.8803e-06	1419.7	382.41	5.1668e-06	5.3329e-06	436.94	145.31	126.78	43.691	5.2044e-06	54.169	208.292	173.811	174.302	106.176	251.858	233.244	106.194	110.841	254.713	229.881	110.473	114.916	115.597	119.501	253.638	119.197	-8191	255	
42177.160	1	1	0	0	0.14084	0.15827	0.36423	0.19534	0.065536	0.19316	0.35327	0.13624	0.13106	0.080506	0.22128	0.11583	0.32404	0.11858	0.23655	0.14074	-2.0687	-2.1625	-2.7313	-2.7313	-2.4292	-2.7354	-2.7313	-2.7875	-2.6229	-2.1542	-2.7812	-2.7729	-2.3667	-2.9646	-2.5042	-2.6167	190.199	118.564	376.625	287.834	111.592	131.166	427.871	392.063	275.545	132.080	410.689	347.507	331.212	413.784	237.575	404.653	0.00050048	0.0005464	0.0001547	1412.7	5.1631e-06	5.7665e-06	1404	376.89	5.2454e-06	4.9558e-06	430.29	143.6	124.07	42.856	4.8273e-06	53.191	0.00051694	0.00047609	0.00013443	1433.2	5.5529e-06	5.2765e-06	1422.3	383.69	5.7361e-06	5.5532e-06	437.27	146.39	127.49	43.99	5.6155e-06	54.443	209.685	175.558	186.305	106.278	250.564	250.673	106.189	110.858	240.340	216.913	110.538	114.812	115.343	119.796	248.198	118.994	-8191	255	
42177.281	1	1	0	0	0.13142	0.34665	0.17968	0.09685	0.24955	0.15894	0.20909	0.16764	0.16534	0.26294	0.12547	0.32346	0.27918	0.067258	0.17166	0.17129	-2.1875	-2.3646	-2.6375	-2.7583	-2.3875	-2.8229	-2.4125	-2.8688	-2.7438	-2.3729	-2.6958	-2.5083	-2.5812	-2.8146	-2.5146	-2.5125	430.504	158.991	93.672	145.686	351.529	310.608	99.982	404.103	368.589	376.686	92.981	429.579	287.739	372.691	412.337	311.572	0.00047412	0.0006926	0.00015201	1423.8	6.228e-06	5.9432e-06	1415.4	377.77	5.9534e-06	3.8842e-06	434.05	144.46	125.56	43.264	4.5003e-06	53.517	0.00052524	0.00053451	0.00014548	1442.2	5.9789e-06	5.5914e-06	1432.3	385.64	5.9554e-06	5.763e-06	440.32	147.69	128.61	44.429	5.7809e-06	54.734	210.802	179.163	165.587	106.188	273.521	249.936	106.231	110.908	243.350	227.738	110.316	114.733	115.420	119.605	235.507	119.067	-8191	255	
42177.379	1	1	0	0	0.10979	0.1288	0.057917	0.4146	0.26701	0.18983	0.16896	0.11941	0.15427	0.20085	0.064824	0.29978	0.18406	0.19139	0.21907	0.030288	-2.3875	-2.1521	-2.6479	-2.7396	-2.4229	-2.7542	-2.75	-2.525	-2.7021	-2.4604	-2.5687	-2.6917	-2.3937	-2.8312	-2.3792	-2.4792	402.444	161.155	264.429	402.968	324.545	293.612	335.676	386.966	417.997	408.020	165.875	95.536	347.907	347.344	347.342	158.943	0.0005034	0.00069149	0.00010912	1425.9	6.0503e-06	5.5662e-06	1418.2	378.07	4.3017e-06	4.6365e-06	430.55	144.17	124.95	43.012	6.1993e-06	53.417	0.00053306	0.00053728	0.0001362	1442.3	5.8058e-06	5.5624e-06	1432.3	385.62	5.7874e-06	5.5892e-06	439.09	147.61	128.36	44.303	5.6388e-06	54.741	212.190	192.185	171.713	106.150	256.183	240.136	106.100	111.053	252.363	237.836	110.248	114.619	115.378	119.523	241.594	119.000	-8191	255	
42177.473	1	1	0	0	0.098004	0.03977	0.22471	0.20383	0.19379	0.085779	0.17833	0.10404	0.13626	0.084694	0.036475	0.1132	0.26479	0.22158	0.084904	0.0755	-2.3063	-2.4375	-2.4792	-2.8563	-2.425	-2.7854	-2.8146	-2.5333	-2.6437	-2.3021	-2.6562	-2.7062	-2.1896	-2.7875	-2.5687	-2.4875	159.951	188.842	128.294	420.382	448.105	288.265	449.141	370.460	307.965	415.910	428.756	136.453	177.828	326.098	116.206	159.624	0.00050005	0.00071711	0.00014685	1428.2	5.3357e-06	5.212e-06	1415.8	377.85	5.1923e-06	5.3748e-06	431.62	143.93	125.8	43.229	5.095e-06	53.27	0.00053698	0.00052475	0.000137	1445.8	5.7932e-06	5.506e-06	1433	385.56	5.8078e-06	5.6821e-06	439.63	147.67	128.72	44.336	5.6978e-06	54.648	209.159	184.323	195.241	106.178	254.817	212.073	106.268	110.871	251.091	236.079	110.529	114.767	115.541	119.713	254.045	119.066	-8191	255	
42177.547	1	1	0	0	0.081794	0.12513	0.046487	0.32995	0.19399	0.13503	0.18147	0.13146	0.081999	0.11413	0.18569	0.32643	0.084265	0.42888	0.26708	0.023958	-2.3021	-2.5708	-2.4604	-2.9521	-2.4188	-2.6104	-2.6333	-2.3979	-2.7854	-2.3521	-2.6604	-2.8208	-2.5625	-2.625	-2.4375	-2.3917	373.997	247.997	425.795	412.731	245.140	384.519	387.437	390.901	443.483	93.912	334.918	444.921	304.137	421.724	397.776	231.045	0.00050824	0.00058146	0.00012259	1422.9	5.6344e-06	4.3389e-06	1413.3	378.51	5.615e-06	4.7405e-06	431.98	144.36	126.59	43.105	7.3905e-06	53.46	0.00053878	0.00051684	0.00014492	1444.5	5.9429e-06	5.5825e-06	1433.9	386.06	5.7459e-06	5.5091e-06	440.54	148.09	129.17	44.437	6.012e-06	54.807	210.388	160.932	176.499	106.258	252.176	257.906	106.320	110.734	245.404	242.754	110.137	114.867	115.646	119.677	261.871	119.161	-8191	255	
42177.664	1	1	0	0	0.11865	0.055909	0.12534	0.37425	0.074812	0.027997	0.41816	0.14184	0.10478	0.24959	0.37042	0.18627	0.21508	0.34178	0.17822	0.24538	-2.3271	-2.4583	-2.6188	-2.7625	-2.4479	-2.6021	-2.8417	-2.4729	-2.6354	-2.45	-2.5312	-2.7479	-2.275	-2.7208	-2.5292	-2.45	372.523	392.825	370.382	415.188	224.065	279.719	398.517	407.126	374.467	227.992	422.418	104.720	241.510	109.002	165.575	97.159	0.00048134	0.00053291	0.00013279	1429.1	6.4257e-06	4.5831e-06	1419.2	380.35	5.7537e-06	6.0308e-06	432.41	145.24	126.39	43.492	4.5135e-06	53.67	0.00052701	0.00050765	0.00014046	1448.6	5.6381e-06	5.5414e-06	1435	386.56	5.6468e-06	5.5684e-06	441.16	148.75	129.34	44.626	5.4501e-06	54.982	209.971	197.888	183.310	106.182	252.272	243.747	106.067	111.022	251.795	247.573	110.311	114.709	115.443	119.588	251.973	118.856	-8191	255	
42177.762	1	1	0	0	0.32255	0.15887	0.25757	0.012477	0.03394	0.18499	0.060213	0.4364	0.089137	0.091628	0.35189	0.22445	0.046892	0.41985	0.032857	0.11221	-2.2438	-2.4271	-2.3979	-2.9062	-2.4729	-2.6875	-2.7021	-2.4042	-2.5646	-2.6104	-2.3583	-2.9229	-2.4021	-2.4917	-2.7604	-2.475	124.869	203.302	189.049	380.267	270.514	265.129	232.646	416.733	198.035	202.221	407.236	432.282	147.511	104.504	163.791	330.882	0.00047953	0.00049414	0.00019017	1423.8	5.4774e-06	6.4105e-06	1414.8	380.07	4.9472e-06	6.4086e-06	431.55	144.9	126.34	43.518	4.0079e-06	53.538	0.00051837	0.00049411	0.00014331	1446.2	5.6048e-06	5.5004e-06	1434.8	386.91	5.5295e-06	5.4322e-06	440.57	148.46	129.05	44.645	5.5878e-06	54.872	211.326	174.400	181.320	106.338	255.566	242.652	106.163	111.095	246.368	235.433	110.187	114.680	115.517	119.617	251.539	119.117	-8191	255	
42177.859	1	1	0	0	0.33319	0.092355	0.14757	0.30138	0.13576	0.22858	0.098401	0.051535	0.14196	0.050184	0.26526	0.24149	0.047353	0.21531	0.1231	0.14928	-2.05	-2.4479	-2.2458	-2.8063	-2.4333	-2.5458	-2.9771	-2.3833	-2.6625	-2.6562	-2.3979	-2.7542	-2.3375	-2.4313	-2.6521	-2.425	178.835	177.653	444.211	358.471	409.955	250.089	111.495	438.071	251.227	439.392	94.845	387.142	145.070	366.051	365.831	351.205	0.00047564	0.00060223	9.8256e-05	1430.2	6.2114e-06	4.7704e-06	1419.6	379.22	4.3906e-06	5.3582e-06	435.27	144.79	125.61	43.239	6.6675e-06	53.381	0.00052636	0.00050273	0.0001413	1446.1	5.5609e-06	5.6179e-06	1435.1	386.04	5.6679e-06	5.5003e-06	440.92	148.03	128.63	44.391	5.5477e-06	54.643	209.063	177.952	191.492	106.103	254.834	251.930	106.057	111.086	255.048	255.799	110.461	114.861	115.517	119.697	248.104	118.799	-8191	255	
42177.953	1	1	0	0	0.27981	0.036277	0.11968	0.27045	0.17651	0.1341	0.19071	0.2267	0.10699	0.078374	0.092393	0.12767	0.14409	0.17627	0.041462	0.17694	-2.1833	-2.5812	-2.2229	-2.8438	-2.4646	-2.4146	-2.8625	-2.4729	-2.5687	-2.5542	-2.2542	-2.6833	-2.6458	-2.3792	-2.6979	-2.4313	444.543	161.588	415.078	397.202	321.092	312.521	398.289	400.309	155.709	267.535	117.701	264.730	174.262	317.367	187.634	347.381	0.0004909	0.00072031	8.9247e-05	1426.1	5.1906e-06	5.6432e-06	1418.9	378.84	5.1257e-06	5.0416e-06	433.54	144.51	125.98	43.116	5.3521e-06	52.935	0.0005198	0.0005095	0.00013565	1445.1	5.5815e-06	5.6654e-06	1434.2	385.56	5.5787e-06	5.2696e-06	439.62	147.85	128.67	44.244	5.2649e-06	54.496	211.019	179.221	186.993	106.160	258.092	244.609	106.200	110.916	261.939	232.589	110.362	114.755	115.746	119.545	242.188	119.126	-8191	255	
42178.074	1	1	0	0	0.20985	0.062644	0.10444	0.20622	0.35444	0.21509	0.29672	0.28496	0.19788	0.065966	0.092942	0.15985	0.13057	0.16298	0.33537	0.0701	-1.9062	-2.55	-2.2521	-3.0208	-2.5312	-2.2208	-2.9313	-2.5229	-2.45	-2.4979	-2.2375	-2.6	-2.5396	-2.5667	-2.6708	-2.6292	329.770	130.480	380.003	423.792	288.730	251.012	389.746	449.337	228.225	349.521	114.367	308.266	117.692	405.001	355.778	409.236	0.00048964	0.00064609	0.00016309	1428.6	5.8478e-06	5.342e-06	1417.5	377.22	5.9919e-06	5.5665e-06	429.87	144.46	125.63	42.823	5.1183e-06	53.137	0.00052436	0.00048236	0.00013805	1445.4	5.5649e-06	5.3876e-06	1432.8	384.98	5.6405e-06	5.2552e-06	438.71	147.58	128.21	44.087	5.3662e-06	54.328	209.415	169.324	198.920	106.115	226.675	269.094	106.088	110.829	260.789	239.175	110.547	115.028	115.472	119.476	241.209	119.040	-8191	255	
42178.148	1	1	0	0	0.19184	0.11113	0.21811	0.3512	0.28107	0.21309	0.14896	0.13506	0.10903	0.33613	0.10445	0.068675	0.15981	0.25339	0.17692	0.024037	-2.0938	-2.6813	-2.3021	-2.55	-2.6083	-2.1271	-2.9083	-2.4521	-2.4521	-2.6417	-2.6229	-2.6875	-2.4375	-2.4708	-2.6208	-2.6312	252.502	106.957	269.435	411.479	173.285	149.022	114.539	105.660	355.330	198.222	290.176	451.554	382.721	432.429	267.428	153.268	0.00049908	0.00054979	0.00012521	1425.1	5.3726e-06	4.2706e-06	1409.6	377.66	5.505e-06	4.7708e-06	431.71	143.57	125.39	42.946	5.3296e-06	52.993	0.00053364	0.00048385	0.00013158	1445.3	5.708e-06	5.5833e-06	1430.9	385.03	5.6693e-06	5.284e-06	439.2	147.09	128.08	44.107	5.4078e-06	54.366	208.730	168.547	184.641	106.260	244.727	246.250	106.204	110.878	254.077	243.478	110.508	114.924	115.288	119.786	256.694	119.094	-8191	255	
42178.266	1	1	0	0	0.18898	0.212	0.18539	0.24269	0.097874	0.20631	0.18161	0.17524	0.018448	0.11322	0.13204	0.17683	0.082303	0.25364	0.050313	0.14053	-1.9042	-2.5979	-2.3792	-2.75	-2.7646	-2.3125	-2.8271	-2.65	-2.4437	-2.6667	-2.5271	-2.6	-2.6646	-2.3688	-2.575	-2.4979	103.124	450.162	347.721	410.266	167.855	306.513	107.283	108.978	208.458	151.436	333.048	400.690	173.043	374.107	391.732	128.804	0.00047657	0.00050067	0.00011159	1424.7	4.4567e-06	6.0188e-06	1413.1	378.33	4.6848e-06	5.9091e-06	432.22	143.95	125.27	42.881	5.08e-06	52.93	0.00052473	0.00045778	0.00013246	1443	5.5516e-06	5.4633e-06	1432	384.89	5.6489e-06	5.1239e-06	438.5	146.98	127.94	43.973	5.4041e-06	54.28	209.126	165.916	182.247	106.313	252.524	248.702	106.228	110.884	245.958	244.629	110.379	114.875	115.455	119.652	244.906	119.057	-8191	255	
42178.363	1	1	0	0	0.081859	0.062502	0.18089	0.14467	0.22242	0.1199	0.14878	0.19505	0.27135	0.090468	0.17571	0.31165	0.22638	0.079665	0.18232	0.043893	-1.8583	-2.6792	-2.5542	-2.775	-2.725	-2.4917	-2.625	-2.7417	-2.1479	-2.675	-2.5792	-2.5542	-2.7896	-2.5333	-2.4813	-2.7188	290.710	197.809	392.030	408.988	438.155	199.012	440.260	100.356	140.091	206.942	164.478	100.991	308.472	313.209	357.460	97.620	0.00047516	0.00058109	0.0001231	1424	4.7795e-06	6.0773e-06	1415.4	376.28	4.6978e-06	5.2158e-06	430.39	143.48	124.96	42.711	4.4217e-06	52.666	0.00050534	0.00046369	0.00013186	1442	5.1629e-06	5.1468e-06	1429	383.67	5.3854e-06	4.8956e-06	438.06	146.61	127.53	43.918	5.2088e-06	54.154	210.520	183.112	196.487	106.247	252.717	251.343	106.301	111.142	247.881	229.316	110.347	115.027	115.493	119.583	258.537	119.087	-8191	255	
42178.457	1	1	0	0	0.11386	0.11581	0.21896	0.13898	0.18226	0.12335	0.14443	0.11322	0.29066	0.022283	0.36269	0.21422	0.11579	0.099453	0.076913	0.15827	-1.8958	-2.6292	-2.3417	-2.4292	-2.6937	-2.275	-2.7729	-2.65	-2.2458	-2.6458	-2.4604	-2.4667	-2.6583	-2.3833	-2.5708	-2.6646	398.314	437.727	213.937	108.266	332.744	102.724	294.409	105.992	105.399	252.397	366.823	397.739	376.750	118.553	266.242	406.654	0.00048228	0.00055861	0.00014995	1425.8	5.5828e-06	5.5081e-06	1413.1	377.37	4.9805e-06	4.1542e-06	429.95	143.26	125.15	42.776	5.6857e-06	52.741	0.00052776	0.00046341	0.00013013	1441.6	5.2481e-06	5.2789e-06	1430.3	384.13	5.5182e-06	5.1102e-06	437.59	146.53	127.71	43.898	5.5105e-06	54.26	210.075	173.740	191.209	106.000	243.939	251.102	106.288	110.780	250.094	232.160	110.144	115.081	115.606	119.843	255.850	119.168	-8191	255	
42178.555	1	1	0	0	0.29719	0.21829	0.10857	0.18387	0.24851	0.10415	0.095733	0.11816	0.14922	0.10399	0.26214	0.092543	0.054964	0.051662	0.078237	0.18557	-1.95	-2.625	-2.4771	-2.4104	-2.7438	-2.4062	-2.5271	-2.8604	-2.4521	-2.6396	-2.6042	-2.5	-2.7042	-2.4646	-2.4646	-2.625	400.788	120.215	153.107	152.667	361.408	196.565	368.550	417.567	93.127	427.658	418.824	401.880	331.888	391.088	97.978	372.365	0.0004848	0.00052515	0.00013341	1421.8	5.5696e-06	5.9283e-06	1411.9	376.38	4.1555e-06	5.7886e-06	431.17	143.64	125.09	42.59	5.1808e-06	53.142	0.00052167	0.00045949	0.00013228	1441.3	5.1336e-06	5.2451e-06	1428.5	384.14	5.4247e-06	5.1679e-06	438.33	146.69	127.53	43.84	5.3101e-06	54.327	208.575	182.946	178.131	106.400	255.431	261.107	106.421	110.794	252.031	246.537	110.601	114.697	115.629	119.530	254.210	119.180	-8191	255	
42178.676	1	1	0	0	0.13806	0.17261	0.036414	0.20141	0.17445	0.24147	0.2855	0.11357	0.042023	0.028284	0.16087	0.19688	0.17591	0.062245	0.061879	0.091022	-1.7833	-2.4792	-2.4771	-2.5146	-2.7979	-2.5958	-2.7062	-2.8	-2.3271	-2.7458	-2.5583	-2.4958	-2.6667	-2.5417	-2.3438	-2.7104	390.401	109.309	215.933	93.160	371.644	214.871	448.410	99.852	395.993	177.937	215.733	446.409	350.779	153.132	410.525	400.702	0.00047669	0.00044076	0.00010274	1424.3	5.9706e-06	5.3194e-06	1410.2	378.91	4.471e-06	5.2021e-06	430.33	142.69	124.88	42.646	5.3965e-06	52.821	0.00052225	0.00049255	0.00012951	1442.2	5.4025e-06	5.3103e-06	1430.1	384.5	5.3797e-06	4.9925e-06	437.89	146.29	127.66	43.852	5.5258e-06	54.187	210.267	180.025	197.750	106.294	251.173	233.323	106.245	111.062	260.978	249.733	110.295	114.751	115.513	119.667	242.716	118.851	-8191	255	
42178.770	1	1	0	0	0.18413	0.18917	0.34994	0.15484	0.2469	0.23835	0.11689	0.22614	0.16514	0.21772	0.29102	0.041227	0.18549	0.22584	0.077311	0.01686	-1.9937	-2.525	-2.7104	-2.4458	-2.6646	-2.5083	-2.5083	-2.7146	-2.4021	-2.6458	-2.775	-2.4167	-2.7333	-2.6208	-2.1688	-2.75	367.938	227.728	367.197	391.857	135.170	141.225	374.690	410.138	115.349	428.719	245.357	277.283	136.080	184.985	309.590	277.742	0.00049113	0.00054315	0.00012818	1422.3	5.9551e-06	5.1422e-06	1411.5	376.96	4.832e-06	5.6448e-06	431.73	142.82	124.41	42.746	4.9544e-06	52.604	0.00052003	0.00047723	0.00012702	1442.5	5.4018e-06	5.2926e-06	1428.9	384.02	5.3994e-06	5.4635e-06	438.38	146.27	127.54	43.84	5.4224e-06	54.12	208.984	188.765	182.904	106.176	259.742	247.963	106.096	110.939	262.285	245.815	110.249	114.911	115.647	119.638	261.378	118.939	-8191	255	
42178.867	1	1	0	0	0.089932	0.32656	0.028971	0.30302	0.03578	0.18308	0.19228	0.21001	0.090356	0.32291	0.031461	0.18777	0.31528	0.11949	0.05679	0.087637	-1.8604	-2.425	-2.6271	-2.4708	-2.5812	-2.6667	-2.6021	-2.8167	-2.7396	-2.4458	-2.7542	-2.4958	-2.8063	-2.6417	-2.3417	-2.8063	201.635	259.213	354.878	114.158	292.093	417.300	121.766	410.687	151.416	290.694	124.469	445.979	367.192	233.139	347.707	271.329	0.00048652	0.0005291	0.00015496	1425.4	5.1005e-06	4.759e-06	1413.3	378.05	5.229e-06	5.795e-06	430.43	142.69	124.78	42.609	4.4636e-06	52.718	0.00052136	0.00049825	0.00012816	1442.9	5.4977e-06	5.0743e-06	1428.9	384.32	5.5906e-06	5.2536e-06	438.43	146.31	127.68	43.771	5.4056e-06	54.094	210.898	170.185	180.562	106.099	240.260	234.815	106.190	110.868	244.751	228.214	110.386	114.876	115.338	119.714	254.011	118.827	-8191	255	
42178.965	1	1	0	0	0.1043	0.34801	0.25387	0.057825	0.24877	0.27141	0.38048	0.17649	0.19565	0.053883	0.2029	0.24446	0.17927	0.26148	0.11227	0.072987	-2.0729	-2.4042	-2.7104	-2.4313	-2.4229	-2.5458	-2.5104	-2.7979	-2.35	-2.5271	-2.8458	-2.4979	-2.4958	-2.6417	-2.2875	-2.7021	212.779	168.805	355.642	434.486	225.659	95.204	375.800	187.423	277.697	374.138	414.995	434.225	319.879	400.664	404.710	406.021	0.00050524	0.00059163	0.00012363	1425.8	5.3764e-06	5.7378e-06	1414.2	377.51	5.114e-06	4.7141e-06	431.98	142.66	124.3	42.499	5.6963e-06	52.63	0.00052476	0.00050523	0.00013224	1441.6	5.4737e-06	5.2886e-06	1429.3	384.16	5.5555e-06	5.3377e-06	438.76	146.08	127.33	43.715	5.3888e-06	53.918	209.753	197.889	201.385	106.127	252.884	249.820	106.221	110.831	250.754	246.766	110.219	114.650	115.371	119.636	236.600	119.254	-8191	255	
42179.059	1	1	0	0	0.026776	0.25671	0.059569	0.26577	0.089408	0.040526	0.16149	0.12547	0.1864	0.10916	0.1729	0.1409	0.23387	0.062558	0.183	0.039999	-2.0479	-2.4146	-2.6125	-2.5479	-2.5	-2.6688	-2.4	-2.7354	-2.4875	-2.3833	-2.8667	-2.4437	-2.5646	-2.7167	-2.3667	-2.7625	406.039	273.708	304.890	440.728	158.138	237.873	343.994	439.576	142.134	171.380	389.523	341.551	139.996	390.818	124.247	217.205	0.00049513	0.00060471	0.00015591	1423.1	5.2535e-06	6.0264e-06	1410.7	377.38	6.3583e-06	3.507e-06	428.8	142.73	124.79	42.758	5.8381e-06	52.693	0.00052276	0.00049119	0.00012896	1441.2	5.2827e-06	5.2483e-06	1428.5	383.79	5.4036e-06	5.1463e-06	437.12	145.99	127.29	43.71	5.3422e-06	54.095	208.314	170.398	193.253	106.267	255.717	249.523	106.070	110.968	260.803	235.750	110.529	114.890	115.325	119.576	248.298	119.104	-8191	255	
42179.152	1	1	0	0	0.2347	0.10682	0.17688	0.3218	0.098903	0.35865	0.20806	0.050774	0.026366	0.06283	0.25987	0.050096	0.15739	0.2602	0.075019	0.32685	-2.0458	-2.3333	-2.5854	-2.6125	-2.3917	-2.7792	-2.6125	-2.6771	-2.3312	-2.2979	-2.7	-2.5771	-2.4354	-2.8458	-2.2979	-2.6917	309.859	177.793	250.806	411.126	97.507	193.990	364.970	207.919	131.023	270.323	391.673	368.460	103.271	444.681	215.820	367.290	0.00049987	0.00054915	0.00018148	1426.4	4.7318e-06	5.1077e-06	1411.7	376.33	3.9836e-06	6.3198e-06	429.66	143.32	124.73	42.439	5.8387e-06	52.953	0.00051047	0.00048592	0.00012774	1442.3	5.2521e-06	5.3047e-06	1427.3	383.51	5.2785e-06	5.1879e-06	437.22	146.28	127.22	43.681	5.1906e-06	54.122	210.000	186.019	194.278	106.252	261.717	237.401	106.252	111.076	250.394	254.845	110.294	115.001	115.378	120.031	239.153	119.126	-8191	255	
42179.250	1	1	0	0	0.16214	0.023927	0.19111	0.2554	0.24532	0.13788	0.23691	0.037778	0.26496	0.11583	0.24658	0.20582	0.31938	0.11944	0.069276	0.42112	-2.1562	-2.3875	-2.6729	-2.7125	-2.2167	-2.825	-2.4188	-2.7625	-2.5104	-2.3187	-2.5958	-2.4646	-2.4271	-2.6979	-2.3875	-2.7167	249.188	402.501	297.156	412.986	197.225	287.959	383.437	385.917	292.500	282.951	433.202	384.979	361.760	299.784	223.733	328.617	0.00049057	0.00057092	0.00012028	1423.3	5.7262e-06	5.1648e-06	1412.8	378.43	4.3539e-06	5.2074e-06	430.34	142.69	125.2	42.564	4.9912e-06	52.784	0.00052082	0.00048414	0.00012788	1441.1	5.3845e-06	5.3047e-06	1429.3	384.33	5.1865e-06	5.0053e-06	438.11	146.32	127.49	43.758	5.2569e-06	54.056	209.935	180.824	192.622	106.166	254.948	242.637	106.350	111.015	244.517	259.284	110.345	114.734	115.723	119.742	247.719	119.052	-8191	255	
42179.371	1	1	0	0	0.33803	0.13537	0.044342	0.067343	0.050144	0.14019	0.24221	0.26403	0.057221	0.096903	0.24428	0.13948	0.15428	0.16507	0.13109	0.42353	-2.1083	-2.1521	-2.6625	-2.7479	-2.3104	-2.7125	-2.6271	-2.5021	-2.6063	-2.5292	-2.6979	-2.5417	-2.4708	-2.8104	-2.4604	-2.4333	147.265	317.991	385.622	237.321	412.087	290.425	411.029	436.288	452.438	331.340	404.062	326.224	343.809	168.952	236.682	341.074	0.00049475	0.00049502	0.00013096	1423.5	5.5629e-06	5.0341e-06	1414.1	378.7	4.9816e-06	6.094e-06	428.31	142.69	124.62	42.534	6.4937e-06	52.786	0.00049748	0.00046063	0.00012688	1441.5	5.3792e-06	4.9076e-06	1430	384.66	5.0466e-06	4.8643e-06	437.61	146.22	127.45	43.74	5.1942e-06	54.124	208.721	162.756	196.471	106.196	255.370	256.672	106.395	111.097	255.359	240.203	110.390	114.840	115.567	119.727	253.787	119.260	-8191	255	
42179.441	1	1	0	0	0.33457	0.076627	0.091166	0.090892	0.24722	0.14577	0.13155	0.14601	0.052368	0.017453	0.10999	0.04976	0.0566	0.2178	0.14851	0.15442	-2.1646	-2.3354	-2.4521	-2.7542	-2.1833	-2.65	-2.6646	-2.4771	-2.6875	-2.3063	-2.5875	-2.65	-2.175	-2.7333	-2.4979	-2.4458	389.614	180.480	228.041	425.901	158.988	325.388	123.319	412.869	417.078	287.245	378.168	442.738	437.638	437.657	215.856	406.682	0.00050035	0.00050551	0.00014352	1424.5	5.0346e-06	6.7532e-06	1413.1	377.71	5.1897e-06	5.2849e-06	430.14	142.88	124.57	42.812	4.9788e-06	52.817	0.00050769	0.00046533	0.00013268	1442.3	5.2101e-06	4.9592e-06	1429.2	384.24	5.2722e-06	5.1871e-06	438.1	146.19	127.49	43.812	5.246e-06	54.156	209.869	169.486	188.083	106.121	264.128	235.429	106.223	111.118	262.183	258.769	110.312	114.692	115.337	119.604	243.887	119.090	-8191	255	
42179.539	1	1	0	0	0.12343	0.11674	0.10317	0.30498	0.12859	0.15335	0.14508	0.37094	0.2203	0.12192	0.15588	0.22698	0.071871	0.19855	0.20159	0.14376	-2.3896	-2.3479	-2.5083	-2.6896	-2.1792	-2.6896	-2.6729	-2.5479	-2.8812	-2.4333	-2.7021	-2.7208	-2.4333	-2.6833	-2.7208	-2.4958	191.811	171.809	173.142	433.930	94.151	244.259	411.778	363.616	158.492	267.264	426.493	294.950	253.858	358.912	285.085	438.778	0.00051256	0.00050023	0.00012575	1426.7	3.8346e-06	3.1269e-06	1413.5	376.28	5.1393e-06	4.0307e-06	430.14	143.48	124.28	42.682	5.4442e-06	53.03	0.00050894	0.000483	0.00012892	1443.3	5.1156e-06	4.9133e-06	1430.6	383.69	5.2968e-06	5.0438e-06	437.93	146.49	127.24	43.763	5.1243e-06	54.219	209.169	176.830	182.171	106.146	251.792	235.803	106.268	110.762	259.618	251.062	110.374	114.996	115.323	119.537	245.732	119.082	-8191	255	
42179.633	1	1	0	0	0.053526	0.072265	0.23357	0.29009	0.10638	0.13452	0.19216	0.090651	0.2728	0.12701	0.18951	0.19654	0.18365	0.1267	0.28943	0.34212	-2.1104	-2.4437	-2.3438	-2.9437	-2.5208	-2.6729	-2.6271	-2.4708	-2.7958	-2.4458	-2.4604	-2.6229	-2.5229	-2.7104	-2.6667	-2.5583	429.993	251.192	357.902	407.479	367.035	449.922	445.712	99.035	390.257	360.977	120.874	310.540	430.575	200.904	415.197	447.105	0.0004874	0.0005887	0.00017168	1424.8	5.472e-06	5.1111e-06	1415.3	378.48	4.9474e-06	4.9823e-06	431.31	142.9	124.36	42.64	4.2224e-06	52.785	0.00050803	0.00047053	0.00012864	1442.5	5.1303e-06	5.076e-06	1430.5	384.11	5.1605e-06	5.3898e-06	438.45	146.21	127.39	43.807	5.1673e-06	54.145	207.786	186.446	188.863	106.261	264.317	251.218	106.091	111.034	250.124	228.838	110.488	114.699	115.475	119.761	270.524	119.108	-8191	255	
42179.754	1	1	0	0	0.16731	0.11671	0.1269	0.36962	0.12177	0.086193	0.23253	0.15919	0.14903	0.10896	0.16598	0.14825	0.11796	0.099441	0.20034	0.19272	-2.3	-2.3896	-2.2625	-3.0708	-2.3708	-2.4521	-2.8208	-2.3833	-2.5938	-2.5833	-2.4125	-2.8167	-2.4188	-2.5833	-2.5708	-2.3458	294.027	134.403	123.303	418.538	345.633	327.560	395.768	428.621	442.070	447.785	144.408	385.777	128.737	127.395	136.179	286.787	0.00048535	0.00044918	0.00012844	1426.6	5.6583e-06	5.1167e-06	1413.5	377.26	3.6753e-06	4.6585e-06	430.14	142.86	124.85	42.623	5.2609e-06	52.856	0.00050136	0.0004555	0.00013124	1443.1	5.4391e-06	5.349e-06	1429.3	384.17	5.2778e-06	5.083e-06	437.7	146.09	127.58	43.78	5.3356e-06	54.114	209.174	199.320	186.886	106.243	259.534	247.234	106.266	111.013	246.037	238.432	110.070	114.973	115.415	119.787	250.718	119.082	-8191	255	
42179.852	1	1	0	0	0.15476	0.15803	0.16068	0.24421	0.070789	0.059884	0.39089	0.23365	0.12686	0.15555	0.13093	0.2395	0.16308	0.08552	0.27441	0.31039	-2.1771	-2.5583	-2.2729	-2.7271	-2.3729	-2.5875	-2.9062	-2.4042	-2.675	-2.7083	-2.4729	-2.925	-2.4562	-2.6833	-2.5979	-2.5812	327.460	243.065	332.216	399.839	430.792	140.580	435.267	401.216	355.307	112.000	138.464	146.770	386.752	392.737	359.098	363.288	0.0004893	0.00050484	0.00013486	1424.7	4.4034e-06	5.7036e-06	1411.2	376.54	4.1282e-06	3.5142e-06	432.91	142.88	125.13	42.403	4.7973e-06	52.772	0.00050602	0.00046804	0.00013915	1441.7	5.4231e-06	5.4947e-06	1430	384.18	5.1921e-06	5.3698e-06	438.36	146.23	127.52	43.717	5.1534e-06	54.128	209.059	167.027	190.424	106.181	243.037	258.237	106.070	111.044	243.410	240.796	110.256	114.896	115.592	119.560	251.926	119.133	-8191	255	
42179.945	1	1	0	0	0.114	0.19163	0.10999	0.12612	0.09842	0.24495	0.3684	0.23595	0.15471	0.073145	0.1093	0.083453	0.29615	0.21282	0.2056	0.25693	-2.175	-2.3958	-2.2208	-2.9458	-2.5062	-2.5542	-2.8937	-2.3896	-2.5687	-2.4167	-2.4562	-2.7021	-2.5812	-2.5125	-2.6479	-2.6792	332.944	376.112	236.716	381.045	385.004	273.822	413.005	367.845	94.181	367.307	247.391	451.383	399.364	426.480	393.237	378.567	0.00046422	0.00043409	0.00011847	1422.8	5.6298e-06	5.1034e-06	1411.1	377.18	4.7047e-06	4.9799e-06	429.78	142.3	125.01	42.459	5.01e-06	52.794	0.00050541	0.00046626	0.00012981	1442.2	5.3779e-06	5.0292e-06	1429.8	383.98	5.2961e-06	5.2576e-06	437.39	146.11	127.52	43.745	4.9938e-06	54.189	211.333	179.565	185.164	106.198	273.028	238.033	106.082	110.806	244.521	233.432	110.404	114.893	115.452	119.782	246.694	119.120	-8191	255	
42180.043	1	1	0	0	0.13306	0.20029	0.014782	0.24717	0.0951	0.18614	0.34231	0.21923	0.18196	0.053577	0.17068	0.121	0.20911	0.28009	0.16038	0.16492	-2.1979	-2.6396	-2.2271	-2.7333	-2.5021	-2.5479	-2.8625	-2.3917	-2.5729	-2.6042	-2.4562	-2.6854	-2.5833	-2.2938	-2.5042	-2.5021	112.621	363.997	413.678	339.497	426.135	328.796	427.950	409.721	214.337	415.097	253.891	389.500	370.749	375.904	113.797	313.153	0.0005011	0.00055187	0.00013492	1421.4	4.8037e-06	5.5106e-06	1410.9	376.6	4.9943e-06	4.7912e-06	431.48	142.79	124.32	42.487	5.2661e-06	52.98	0.00051724	0.00047011	0.00013572	1441	5.3413e-06	5.258e-06	1429.5	383.81	5.4437e-06	5.1463e-06	437.84	146.41	127.55	43.776	5.1279e-06	54.127	209.172	179.279	182.889	106.062	270.844	241.494	106.094	110.740	244.742	243.815	110.261	114.879	115.394	119.718	241.664	119.068	-8191	255	
42180.141	1	1	0	0	0.14854	0.065101	0.045956	0.26641	0.16965	0.056743	0.19345	0.40361	0.243	0.079056	0.17545	0.099518	0.13424	0.032339	0.21888	0.23425	-1.7729	-2.5792	-2.2562	-2.8729	-2.4042	-2.3854	-2.9021	-2.5917	-2.4771	-2.675	-2.3292	-2.5521	-2.7167	-2.2625	-2.6396	-2.6292	423.051	341.807	344.797	443.918	452.250	144.568	350.782	444.944	343.852	186.850	375.218	370.379	407.077	417.458	174.279	375.848	0.00047685	0.00034817	0.00015199	1425	6.1851e-06	4.3544e-06	1416.8	377.1	5.2944e-06	4.9741e-06	431.75	142.55	124.95	42.57	6.1602e-06	52.942	0.00051173	0.00045807	0.0001327	1444.4	5.3972e-06	5.324e-06	1432	384.43	5.4964e-06	5.063e-06	438.56	146.38	127.49	43.782	5.2095e-06	54.191	209.270	165.249	188.333	105.943	253.804	244.592	106.170	111.026	261.168	219.294	110.410	114.871	115.389	119.596	265.318	119.063	-8191	255	
42180.234	1	1	0	0	0.20135	0.24798	0.36775	0.35121	0.050038	0.02858	0.2212	0.26803	0.053486	0.070454	0.29718	0.16649	0.20253	0.31298	0.21568	0.043156	-2.0104	-2.6375	-2.2438	-2.7521	-2.4479	-2.2542	-2.8292	-2.6271	-2.4146	-2.6604	-2.5563	-2.6708	-2.6917	-2.4917	-2.6604	-2.5583	170.564	403.975	147.174	97.971	384.770	343.842	404.896	435.891	332.380	378.288	362.984	249.221	432.790	414.876	258.974	302.622	0.00047221	0.00063473	0.00011206	1426.1	5.7552e-06	2.7755e-06	1414.4	378.07	4.3595e-06	3.9032e-06	430.52	143.33	124.76	42.804	4.9657e-06	52.565	0.00051112	0.00046818	0.00013099	1445.3	5.4005e-06	5.3546e-06	1431.9	384.01	5.6904e-06	5.063e-06	438.38	146.42	127.46	43.863	5.3378e-06	54.098	210.648	161.802	195.899	106.095	265.424	243.252	105.952	110.849	252.877	242.878	110.223	115.141	115.536	119.631	255.059	118.994	-8191	255	
42180.355	1	1	0	0	0.28377	0.11585	0.32184	0.23905	0.15645	0.28921	0.27713	0.072085	0.20329	0.14819	0.18192	0.082312	0.30323	0.13395	0.10195	0.29535	-1.8667	-2.7854	-2.25	-2.8375	-2.5875	-2.3271	-2.6292	-2.6083	-2.1854	-2.6979	-2.4125	-2.7479	-2.725	-2.4	-2.4646	-2.7125	226.610	248.653	228.544	372.175	182.632	414.601	444.558	438.597	116.480	269.731	361.376	123.236	328.378	168.357	196.826	380.714	0.00047837	0.00039733	0.00017411	1426.3	5.8244e-06	2.4038e-06	1415.9	378.61	5.0054e-06	4.302e-06	430.18	143.29	124.83	42.651	4.7905e-06	52.764	0.00051296	0.00045657	0.00013943	1446.7	5.5955e-06	5.3562e-06	1432.5	384.9	5.6588e-06	5.2208e-06	438.06	146.67	127.52	43.823	5.3772e-06	54.204	209.657	161.744	183.142	106.161	261.079	250.540	105.947	111.047	263.792	240.365	110.347	114.929	115.508	119.653	247.275	118.881	-8191	255	
42180.449	1	1	0	0	0.18698	0.089727	0.16179	0.23338	0.25946	0.053737	0.31145	0.25527	0.13115	0.10341	0.26871	0.2155	0.014418	0.18695	0.013001	0.050411	-1.8438	-2.5354	-2.4896	-2.6542	-2.6083	-2.4125	-2.85	-2.7687	-2.2313	-2.6625	-2.55	-2.4708	-2.9042	-2.3979	-2.3792	-2.6583	200.878	200.348	340.617	431.756	398.415	329.764	430.712	413.223	299.211	124.464	421.214	312.298	137.147	207.193	173.803	180.757	0.00045624	0.00049043	0.00015774	1429.9	6.2157e-06	5.2857e-06	1423.9	378.66	4.9277e-06	4.5524e-06	432.19	143.26	124.97	42.801	5.3808e-06	52.852	0.00052191	0.00049746	0.00014046	1450.5	5.6454e-06	5.7122e-06	1438.1	384.56	5.6468e-06	5.5684e-06	439.85	146.86	127.88	43.971	5.7423e-06	54.291	211.575	176.316	191.849	106.070	258.856	232.135	106.154	111.178	261.200	252.805	110.207	114.963	115.840	119.776	239.814	118.796	-8191	255	
42180.547	1	1	0	0	0.31213	0.25666	0.12465	0.035835	0.074413	0.08629	0.040763	0.13889	0.24701	0.15438	0.21566	0.20876	0.041184	0.034015	0.074815	0.12027	-1.9458	-2.6188	-2.4062	-2.5333	-2.6312	-2.3167	-2.6312	-2.8292	-2.3417	-2.5958	-2.5687	-2.3146	-2.7042	-2.425	-2.4667	-2.5979	298.747	127.300	153.941	163.850	211.504	306.472	344.070	350.890	240.272	241.441	135.378	441.799	287.749	400.781	124.613	276.084	0.00046395	0.00071743	0.00011907	1432.3	6.1476e-06	3.242e-06	1422.6	378.38	5.1597e-06	4.1789e-06	430.21	143.39	125.45	42.837	4.2881e-06	52.74	0.00052415	0.00051534	0.00014152	1449.9	5.5556e-06	5.7097e-06	1436.6	384.77	5.7495e-06	5.6261e-06	438.52	146.57	127.73	43.887	5.477e-06	54.134	210.459	182.250	194.484	106.248	268.439	261.953	106.208	111.074	255.267	235.187	110.302	114.738	115.493	119.975	247.334	119.107	-8191	255	
42180.668	1	1	0	0	0.1442	0.31632	0.18504	0.093946	0.10599	0.13616	0.087199	0.082886	0.16661	0.079305	0.064596	0.097335	0.073227	0.070059	0.24896	0.12162	-1.8146	-2.4729	-2.3417	-2.5625	-2.7396	-2.3583	-2.5146	-2.6958	-2.3229	-2.5896	-2.6896	-2.3292	-2.7896	-2.5271	-2.3896	-2.7438	99.675	412.290	175.551	328.646	203.633	235.915	378.553	156.724	351.698	372.912	418.590	116.332	394.365	210.765	214.310	264.740	0.00048947	0.00053047	0.00017067	1428.8	5.3042e-06	5.6739e-06	1423	378.19	6.5794e-06	5.0901e-06	432.92	143.33	125.04	42.781	6.5198e-06	53.09	0.00052697	0.00051363	0.00014265	1449.7	5.6894e-06	5.8177e-06	1439.1	385.44	6.0397e-06	6.0025e-06	439.01	146.55	127.74	43.88	5.8378e-06	54.289	210.339	170.855	192.408	106.171	242.474	264.139	106.083	110.918	248.756	264.217	110.334	114.796	115.343	119.841	236.859	119.062	-8191	255	
42180.738	1	1	0	0	0.19152	0.20566	0.068716	0.10765	0.066799	0.14321	0.14707	0.20673	0.13434	0.09225	0.23677	0.25228	0.17084	0.09122	0.22017	0.24089	-1.8438	-2.4021	-2.6958	-2.4979	-2.6958	-2.5458	-2.4875	-2.7979	-2.4521	-2.6771	-2.3688	-2.3542	-2.6667	-2.4938	-2.3333	-2.9021	441.386	174.512	151.525	447.291	367.930	204.438	434.110	419.079	312.436	120.813	143.463	130.275	421.858	106.197	107.399	352.538	0.00049702	0.00058073	0.00015096	1432	5.6437e-06	5.2869e-06	1422.4	378.13	5.1009e-06	4.9219e-06	433.14	143.62	125.37	42.577	4.94e-06	52.911	0.00054773	0.00053415	0.00014902	1451.2	5.7453e-06	5.804e-06	1439.1	384.86	5.779e-06	5.9272e-06	439.58	146.71	127.85	43.89	5.8188e-06	54.261	209.230	178.279	187.034	106.070	248.749	229.261	106.161	110.944	256.527	256.801	110.083	115.064	115.628	119.738	253.668	118.938	-8191	255	
42180.836	1	1	0	0	0.20328	0.11164	0.082671	0.030954	0.096641	0.10605	0.33241	0.17204	0.39602	0.20421	0.2331	0.30217	0.26744	0.13324	0.20486	0.32439	-1.7563	-2.3146	-2.525	-2.4646	-2.6375	-2.5042	-2.3438	-2.7062	-2.3438	-2.5312	-2.9062	-2.2917	-2.725	-2.6646	-2.2938	-2.7854	299.990	176.283	234.606	451.498	291.737	370.296	378.149	429.270	137.983	301.598	412.678	112.142	383.095	371.766	260.447	365.059	0.00050502	0.00044551	0.00011924	1435.5	5.4427e-06	5.3817e-06	1423.6	378.9	5.0043e-06	5.2955e-06	432.26	144.01	125.76	42.886	3.777e-06	52.85	0.00054106	0.00052012	0.00014038	1452	5.919e-06	5.7677e-06	1439.3	385.8	5.7108e-06	5.8455e-06	439.96	147.24	128.37	44.063	5.5062e-06	54.378	208.792	148.084	184.394	106.265	259.435	258.823	106.375	111.155	251.976	246.389	110.430	115.043	115.559	119.656	251.229	119.046	-8191	255	
42180.930	1	1	0	0	0.24575	0.063454	0.28117	0.42584	0.18585	0.064424	0.1787	0.32893	0.097883	0.049846	0.15562	0.13206	0.094632	0.077933	0.1189	0.37287	-1.9271	-2.4125	-2.6396	-2.5646	-2.5208	-2.5687	-2.4271	-2.825	-2.4208	-2.475	-2.8271	-2.4729	-2.7771	-2.75	-2.3896	-2.7917	438.536	109.582	261.715	398.886	144.391	316.802	146.734	136.231	267.088	347.674	123.529	101.616	170.070	219.490	95.119	362.200	0.00048156	0.00041964	0.00014035	1436.3	6.0833e-06	4.2093e-06	1421	378.5	4.8878e-06	5.0475e-06	434.56	144.54	125.99	43.196	4.7327e-06	53.296	0.00054899	0.00053215	0.00013869	1454.6	6.0627e-06	5.7959e-06	1441	386.12	5.968e-06	5.7847e-06	441.52	147.94	128.83	44.327	6.0469e-06	54.676	210.903	179.197	190.441	106.131	268.555	240.216	106.237	111.045	239.269	236.336	110.204	114.499	115.310	119.700	241.850	118.651	-8191	255	
42181.051	1	1	0	0	0.1413	0.12193	0.16544	0.44459	0.23055	0.27997	0.17007	0.11571	0.086759	0.14801	0.075496	0.29124	0.15938	0.25159	0.1313	0.18108	-2.2896	-2.4104	-2.7771	-2.5083	-2.725	-2.7208	-2.8625	-2.9333	-2.6354	-2.2958	-2.9146	-2.6667	-2.6063	-2.8458	-2.4167	-2.8187	375.265	312.204	100.016	433.395	318.581	156.005	384.291	404.710	173.308	224.758	263.696	388.851	253.452	108.745	389.432	324.344	0.00048914	0.00050778	0.00014999	1441.1	5.5686e-06	4.9812e-06	1431.9	379.5	3.9358e-06	4.933e-06	435.05	145.21	126.7	43.393	4.924e-06	53.657	0.00055133	0.00055395	0.00014224	1458.4	6.1173e-06	5.8531e-06	1447.4	387.77	6.3399e-06	6.041e-06	442.6	149.07	129.86	44.707	6.1971e-06	54.998	211.650	179.814	203.143	106.078	252.697	234.635	106.222	110.929	248.650	251.116	110.609	114.990	115.398	119.617	252.281	119.053	-8191	255	
42181.145	1	1	0	0	0.08779	0.11621	0.23758	0.29854	0.2452	0.19674	0.22068	0.23948	0.085936	0.16117	0.2439	0.071396	0.03186	0.27669	0.087229	0.27625	-2.3438	-2.325	-2.75	-2.6312	-2.6042	-2.95	-2.5146	-2.8208	-2.775	-2.3375	-2.8104	-2.6125	-2.4562	-2.9604	-2.3917	-2.6125	344.692	211.521	247.358	370.217	338.631	113.377	361.060	442.469	427.980	133.954	433.756	103.372	413.072	115.939	208.092	427.963	0.00047485	0.00045399	0.0001089	1440.8	6.0376e-06	5.7148e-06	1437.1	382.37	4.0664e-06	4.8888e-06	434.71	146.45	127.75	43.727	4.3944e-06	54.05	0.0005433	0.00055816	0.00014719	1461.8	6.4088e-06	6.106e-06	1452.2	388.99	6.3399e-06	6.1195e-06	443.15	149.63	130.5	44.944	6.3815e-06	55.35	210.848	184.719	187.151	106.053	258.400	251.372	106.159	111.054	266.000	245.260	110.282	114.576	115.296	119.366	263.765	119.054	-8191	255	
42181.242	1	1	0	0	0.048329	0.20831	0.14615	0.24644	0.14966	0.046558	0.16959	0.096367	0.1281	0.12729	0.11308	0.20601	0.071608	0.24612	0.27359	0.28625	-2.2833	-2.3708	-2.5917	-2.6083	-2.4333	-2.775	-2.6708	-2.8167	-2.7583	-2.3063	-2.7792	-2.8063	-2.4354	-2.8333	-2.4479	-2.7417	191.811	398.022	148.919	369.277	143.500	407.653	419.887	448.306	174.428	302.867	180.518	176.248	115.745	123.677	259.880	430.335	0.00051355	0.0005136	0.0001503	1448.1	5.2943e-06	3.6261e-06	1437.1	382.86	5.0751e-06	6.0229e-06	436.55	146.67	128.54	43.802	5.8932e-06	54.022	0.0005644	0.00057803	0.0001552	1466.1	6.3636e-06	5.8998e-06	1454.1	389.13	6.3026e-06	6.0266e-06	444.61	150.02	130.95	45.061	5.9245e-06	55.31	209.982	168.087	192.021	106.088	253.483	245.139	106.217	110.931	256.949	248.428	110.398	114.820	115.183	119.294	248.398	118.908	-8191	255	
42181.316	1	1	0	0	0.22721	0.26524	0.27586	0.37134	0.020972	0.12018	0.1713	0.21457	0.049392	0.12861	0.1412	0.40524	0.080794	0.20492	0.13929	0.17344	-2.2771	-2.3042	-2.7625	-2.8042	-2.4229	-2.7458	-2.6354	-2.8563	-2.7458	-2.4625	-2.675	-2.5229	-2.5208	-2.9729	-2.6729	-2.6063	429.826	175.144	240.256	399.127	106.797	157.851	110.308	381.594	430.342	330.276	308.084	107.226	441.781	435.991	321.948	424.919	0.00051653	0.00039355	0.00017521	1446.5	4.9847e-06	4.9188e-06	1438.4	383.23	4.8777e-06	5.9802e-06	437.48	147.23	128.18	43.899	6.6024e-06	54.013	0.00055599	0.00056015	0.00015038	1465.3	6.0834e-06	6.0729e-06	1455.9	389.93	5.8472e-06	6.2396e-06	445.13	150.37	130.94	45.028	6.1934e-06	55.337	210.696	179.099	189.767	106.220	256.283	246.511	106.161	110.672	242.617	226.755	110.605	114.698	115.321	119.501	252.111	118.819	-8191	255	
42181.434	1	1	0	0	0.23408	0.038751	0.14594	0.12382	0.38351	0.13124	0.52504	0.14215	0.19053	0.30196	0.12116	0.31807	0.15436	0.34196	0.090317	0.17761	-2.3	-2.4083	-2.6063	-2.9458	-2.3167	-2.7604	-2.8312	-2.6063	-2.7875	-2.3875	-2.7667	-2.9021	-2.3937	-2.675	-2.6146	-2.6354	319.002	134.985	208.694	446.787	98.168	135.888	361.144	418.822	363.817	258.435	235.892	371.232	201.255	425.612	93.011	377.666	0.00045464	0.00065421	0.00016237	1449.9	4.6268e-06	6.0337e-06	1439.1	380.65	4.5873e-06	4.2358e-06	434.46	146.33	127.88	43.702	5.905e-06	54.042	0.00053463	0.00056934	0.00015354	1465.9	5.9982e-06	6.023e-06	1454.8	389.33	6.0559e-06	6.3077e-06	443.46	150.01	130.8	45.037	6.2117e-06	55.386	209.262	188.491	183.502	106.096	257.351	262.428	106.020	110.854	254.699	238.690	110.485	114.655	115.260	119.528	249.266	118.843	-8191	255	
42181.531	1	1	0	0	0.04893	0.16536	0.19369	0.33598	0.1719	0.065009	0.25849	0.10653	0.25116	0.18156	0.25755	0.21019	0.15708	0.28706	0.18249	0.24204	-2.2125	-2.4958	-2.4938	-2.8729	-2.4313	-2.6792	-2.725	-2.5292	-2.7812	-2.4854	-2.6	-2.7333	-2.4625	-2.8521	-2.4646	-2.5479	284.328	352.415	432.217	425.739	239.005	342.599	373.834	102.525	237.824	330.679	164.294	146.829	140.103	435.263	260.539	390.387	0.0004941	0.00071787	0.00013953	1440.9	5.1968e-06	3.6882e-06	1434.8	382.41	6.1672e-06	5.2455e-06	436.41	146.68	127.67	43.945	5.4681e-06	53.951	0.0005447	0.00055951	0.00015358	1464.8	6.0394e-06	6.2018e-06	1455.1	389.74	6.1916e-06	6.2428e-06	444.71	150.26	130.94	45.064	6.0615e-06	55.34	210.807	160.235	174.385	106.221	250.702	260.310	106.204	110.837	262.134	246.891	110.352	114.790	115.416	119.270	250.938	118.879	-8191	255	
42181.629	1	1	0	0	0.34245	0.10453	0.27011	0.2997	0.11117	0.26817	0.33208	0.14709	0.17424	0.15858	0.13814	0.19793	0.064956	0.13872	0.12718	0.24505	-2.3396	-2.2417	-2.3625	-2.7458	-2.2333	-2.775	-2.8479	-2.5396	-2.7771	-2.3542	-2.6271	-2.8396	-2.6792	-2.5917	-2.7417	-2.45	423.993	195.268	419.989	435.615	442.022	315.705	368.380	319.617	165.434	329.688	443.838	441.861	249.017	419.740	221.131	356.756	0.00049496	0.00064724	0.00013065	1446	6.0507e-06	5.4704e-06	1436.9	384.13	4.5511e-06	4.4542e-06	437.04	146.53	128.17	43.891	3.7607e-06	53.894	0.00055644	0.00055901	0.00015751	1466	6.1473e-06	6.0472e-06	1456.8	390.28	6.0489e-06	6.2012e-06	443.68	149.96	130.81	45.077	6.0127e-06	55.332	208.740	193.732	201.050	106.068	258.673	249.000	106.019	110.670	262.150	240.039	110.266	114.808	115.093	119.481	267.369	118.742	-8191	255	
42181.746	1	1	0	0	0.10324	0.11678	0.18489	0.23075	0.20356	0.20061	0.26785	0.14279	0.33536	0.3832	0.078092	0.16684	0.086042	0.15566	0.2444	0.20521	-2.375	-2.5125	-2.35	-3.1083	-2.4458	-2.6854	-3.0917	-2.5708	-2.6542	-2.5667	-2.5417	-2.8187	-2.5729	-2.7042	-2.9208	-2.5333	144.213	297.409	304.883	142.158	230.006	252.975	98.009	402.415	201.420	178.522	242.243	439.197	336.337	150.662	317.217	435.744	0.00051633	0.00060068	0.00014172	1450.1	5.657e-06	6.2251e-06	1436.9	383.76	3.9489e-06	4.347e-06	435.62	147.64	127.85	43.964	5.9144e-06	53.823	0.00056236	0.00056108	0.0001586	1468.4	6.2984e-06	6.11e-06	1455.9	390.31	6.3469e-06	6.2308e-06	444.42	150.57	131.08	45.116	6.2066e-06	55.331	209.466	155.832	185.520	106.098	259.479	242.943	106.046	110.981	256.113	251.157	110.118	114.609	115.344	119.533	239.086	118.998	-8191	255	
42181.844	1	1	0	0	0.083374	0.19454	0.21328	0.28159	0.14518	0.043815	0.10728	0.16627	0.17343	0.11908	0.03575	0.21029	0.17943	0.10319	0.16927	0.30499	-2.3521	-2.7292	-2.25	-2.8375	-2.25	-2.4979	-2.8646	-2.4104	-2.725	-2.5938	-2.5	-2.9896	-2.5042	-2.6292	-2.8417	-2.4854	276.189	322.758	252.076	357.837	102.640	127.082	312.291	408.901	224.913	188.147	331.376	409.256	397.944	223.870	314.294	383.539	0.00049494	0.00059091	0.0001926	1453.2	5.7462e-06	7.0834e-06	1447.2	383.25	5.0262e-06	4.5819e-06	436.7	146.93	128.09	43.895	5.2765e-06	53.713	0.00056851	0.000589	0.00016183	1470.1	6.2551e-06	6.5867e-06	1460.2	390.21	6.3757e-06	6.4839e-06	444.68	150.5	131.03	45.091	6.3742e-06	55.26	211.993	181.187	178.589	106.329	249.270	242.185	106.088	110.851	241.601	220.412	110.267	114.606	115.354	119.415	249.517	118.601	-8191	255	
42181.941	1	1	0	0	0.19294	0.1482	0.23524	0.2281	0.14027	0.086011	0.23747	0.16123	0.17316	0.2816	0.25535	0.33095	0.12503	0.22424	0.11908	0.041568	-2.1979	-2.6146	-2.5167	-3.0375	-2.4938	-2.5646	-2.95	-2.6625	-2.6083	-2.6188	-2.3458	-2.7313	-2.5042	-2.7458	-2.8271	-2.6604	162.721	285.044	241.491	370.925	448.305	190.794	392.629	397.459	239.634	446.944	152.583	191.669	360.112	195.540	107.769	171.349	0.00049593	0.00033879	0.00015194	1451.7	5.2684e-06	5.7494e-06	1436	383.81	4.9506e-06	6.3411e-06	435.21	146.41	127.41	43.776	4.9185e-06	54.21	0.0005776	0.00058737	0.00016256	1471.3	6.4927e-06	6.8308e-06	1457.7	390.61	6.2991e-06	6.4286e-06	444.68	150.2	130.62	45.092	6.337e-06	55.372	209.612	151.037	189.057	106.151	263.423	264.223	105.913	110.710	250.093	227.885	110.290	114.621	115.445	119.388	229.751	118.629	-8191	255	
42182.035	1	1	0	0	0.20913	0.19886	0.058292	0.11756	0.081725	0.096665	0.24057	0.37035	0.21359	0.062618	0.14282	0.25535	0.16487	0.17272	0.13557	0.14253	-2.2792	-2.7604	-2.2771	-3.0229	-2.4396	-2.5083	-2.9292	-2.4938	-2.6063	-2.7104	-2.5062	-2.6833	-2.6625	-2.4479	-2.725	-2.5604	206.642	281.128	122.526	405.337	446.076	263.091	423.145	411.065	378.704	410.308	117.269	116.846	281.014	422.881	313.366	303.839	0.00049404	0.00067102	0.00016803	1452.8	5.9299e-06	5.4973e-06	1442.2	383.54	5.4218e-06	4.64e-06	438.09	147.04	127.69	43.793	5.7166e-06	54.201	0.00058311	0.00059769	0.00016591	1472.9	6.3323e-06	6.5988e-06	1460.7	390.93	6.6245e-06	6.5776e-06	445.49	150.49	131.09	45.129	6.3611e-06	55.49	211.683	164.624	205.796	106.121	253.314	227.144	106.200	111.034	255.336	229.602	110.279	114.895	115.251	119.537	243.468	118.884	-8191	255	
42182.133	1	1	0	0	0.11642	0.23814	0.16407	0.39806	0.20362	0.15168	0.32703	0.18424	0.17161	0.18728	0.14399	0.25856	0.062682	0.067998	0.083885	0.067945	-2.0771	-2.6375	-2.4167	-2.8625	-2.6021	-2.4917	-3.0292	-2.7188	-2.55	-2.8229	-2.3479	-2.6042	-2.6208	-2.4688	-2.5833	-2.5396	110.569	125.018	192.877	374.882	223.944	177.863	344.868	410.757	233.392	288.853	384.938	365.130	119.715	449.866	132.406	210.070	0.00050024	0.00038909	0.00016027	1454.6	5.3637e-06	5.1576e-06	1441	383.06	5.6758e-06	3.2645e-06	436.62	146.43	128.18	44.052	4.9219e-06	53.877	0.00057375	0.00057084	0.0001674	1473.4	6.2578e-06	6.3782e-06	1460.3	390.89	6.3539e-06	6.1403e-06	445.36	150.46	131.25	45.172	6.2758e-06	55.399	210.248	174.558	177.376	106.211	252.754	250.987	106.311	110.795	262.354	230.056	110.165	114.826	115.605	119.555	241.536	118.778	-8191	255	
42182.227	1	1	0	0	0.14128	0.35539	0.15318	0.24604	0.089622	0.015002	0.36027	0.22151	0.1954	0.22159	0.45911	0.15875	0.1618	0.16059	0.18902	0.29274	-1.9583	-2.6375	-2.4562	-2.7875	-2.6375	-2.2667	-2.9375	-2.6063	-2.2646	-2.7812	-2.5292	-2.5812	-2.6312	-2.4938	-2.7542	-2.7292	144.756	107.688	390.201	403.815	443.722	382.063	414.964	133.975	293.387	386.988	395.325	288.841	127.579	322.273	369.701	410.309	0.00051648	0.00063119	0.00014667	1451.9	6.6734e-06	3.811e-06	1441.6	383.38	5.3063e-06	5.1615e-06	437.88	147.28	128.48	44.029	4.8871e-06	54.164	0.00057981	0.00058423	0.0001667	1471.2	6.0248e-06	6.267e-06	1460.1	390.42	6.5191e-06	6.081e-06	445.75	150.66	131.43	45.202	6.1366e-06	55.43	208.796	186.436	155.915	106.218	269.687	250.099	106.168	110.931	260.612	245.701	110.379	114.506	115.347	119.521	244.068	118.897	-8191	255	
42182.348	1	1	0	0	0.11942	0.14509	0.23957	0.15105	0.05782	0.14679	0.16264	0.21507	0.092641	0.20675	0.067448	0.041498	0.12944	0.19202	0.13198	0.20078	-2.0146	-2.7896	-2.475	-2.7771	-2.5438	-2.5229	-2.9292	-2.6667	-2.3917	-2.7229	-2.45	-2.6437	-2.7313	-2.4604	-2.7625	-2.6104	380.236	442.512	375.308	408.948	322.918	126.562	320.200	406.208	254.846	216.141	335.730	451.122	426.513	409.551	107.503	381.779	0.00048844	0.00070835	0.00014961	1454.5	4.6522e-06	6.2982e-06	1443.5	383.45	4.6445e-06	4.1258e-06	437.87	147.22	128.03	44.087	5.4279e-06	54.328	0.00056168	0.00056179	0.00015376	1471.9	5.9815e-06	6.0689e-06	1461.8	390.84	6.181e-06	6.0378e-06	445.51	150.66	131.39	45.317	6.079e-06	55.605	209.683	182.049	187.642	106.144	246.386	247.327	106.310	110.851	257.066	229.127	110.226	114.806	115.215	119.345	250.767	119.105	-8191	255	
42182.445	1	1	0	0	0.22176	0.089344	0.12343	0.13373	0.24698	0.16889	0.14713	0.14213	0.23822	0.1484	0.044876	0.17183	0.056737	0.22092	0.18923	0.064276	-1.9042	-2.5812	-2.4021	-2.6958	-2.6771	-2.4354	-2.9	-2.9667	-2.3083	-2.7354	-2.5521	-2.5396	-2.825	-2.3563	-2.8167	-2.4375	138.644	182.591	251.953	392.977	248.236	259.405	374.324	340.053	136.869	439.577	392.941	440.328	140.596	438.136	327.862	365.382	0.00050134	0.0006487	0.00016869	1449.1	6.3513e-06	4.291e-06	1439.3	382.98	5.2596e-06	4.729e-06	437.94	147.14	128.35	44.01	5.6906e-06	54.307	0.00056464	0.00054092	0.00015741	1472	5.9176e-06	6.3194e-06	1460.4	390.92	6.4235e-06	5.8712e-06	445.71	150.83	131.36	45.253	6.0936e-06	55.599	211.592	179.994	185.489	106.101	262.296	245.524	106.098	110.896	252.987	241.939	110.353	114.663	115.318	119.334	253.525	118.880	-8191	255	
42182.539	1	1	0	0	0.1723	0.28107	0.10135	0.29279	0.19502	0.16513	0.10558	0.14091	0.040027	0.13023	0.11631	0.23716	0.22023	0.14209	0.10826	0.23672	-1.8021	-2.6667	-2.3979	-2.5062	-2.7938	-2.2687	-2.6417	-2.7542	-1.9646	-2.5854	-2.4854	-2.3625	-2.725	-2.5354	-2.5083	-2.6458	130.882	410.067	201.128	397.908	419.793	187.354	358.082	395.172	323.538	229.147	313.959	424.477	105.924	377.076	355.091	100.831	0.00049456	0.00056206	0.00016735	1450.6	5.4821e-06	5.1189e-06	1443.1	382.67	5.6822e-06	4.3729e-06	436.82	147.85	128.82	43.971	4.8609e-06	54.228	0.00056416	0.00055118	0.0001535	1471.2	6.2298e-06	6.3298e-06	1461.4	390.54	6.3328e-06	6.1355e-06	444.73	151.04	131.71	45.261	5.95e-06	55.532	209.908	181.929	191.591	106.202	267.080	260.181	106.159	110.953	269.077	237.420	110.484	114.885	115.333	119.575	233.912	118.836	-8191	255	
42182.609	1	1	0	0	0.30033	0.2199	0.13451	0.091011	0.21694	0.10327	0.3388	0.086229	0.11792	0.1037	0.16545	0.12806	0.21056	0.080754	0.082587	0.13708	-1.7708	-2.4958	-2.5563	-2.5854	-2.8771	-2.4562	-2.8	-2.6042	-2.3187	-2.6854	-2.6063	-2.3958	-2.6562	-2.4833	-2.4083	-2.6562	449.743	434.930	202.131	439.083	342.224	405.235	440.809	276.786	310.852	132.132	320.534	255.989	376.699	375.794	418.900	452.957	0.00050031	0.00051365	0.0001399	1451.4	5.5712e-06	6.9473e-06	1446	384.66	4.9786e-06	5.5989e-06	439.05	147.65	128.48	44.087	4.9007e-06	54.203	0.00057491	0.00053486	0.00015263	1472.5	6.1266e-06	5.9787e-06	1460.8	391	6.1248e-06	6.1435e-06	444.93	150.78	131.24	45.229	6.079e-06	55.527	210.219	189.251	188.635	106.074	253.980	239.352	106.284	110.972	252.293	236.507	110.339	114.809	115.627	119.709	262.091	118.687	-8191	255	
42182.707	1	1	0	0	0.080213	0.13566	0.14373	0.37528	0.19191	0.020827	0.18182	0.1844	0.10533	0.051347	0.14448	0.19837	0.23867	0.1094	0.10505	0.23978	-1.75	-2.6104	-2.7812	-2.5187	-2.5729	-2.4229	-2.7208	-2.9062	-2.3854	-2.4354	-2.7208	-2.5271	-2.7958	-2.5292	-2.1646	-2.8187	371.516	315.274	188.747	415.613	306.724	136.195	337.415	395.577	272.375	184.954	178.824	384.702	103.057	415.852	452.632	390.937	0.00050354	0.00065598	0.00018197	1454.4	5.1411e-06	6.3145e-06	1442.8	383.77	5.2349e-06	8.0638e-06	435.88	147.7	128.94	44.139	5.5307e-06	54.258	0.00057348	0.00054904	0.0001459	1471.7	5.9223e-06	6.0278e-06	1459.8	391.36	5.9856e-06	5.8832e-06	445.03	151.1	131.74	45.319	5.8524e-06	55.642	211.206	163.524	187.150	106.002	245.889	241.219	106.262	110.777	241.853	248.718	110.579	114.688	115.228	119.525	252.267	118.886	-8191	255	
42182.828	1	1	0	0	0.080619	0.070628	0.024083	0.38881	0.13764	0.19746	0.014291	0.10953	0.12171	0.046158	0.18453	0.32208	0.16001	0.20128	0.23433	0.20791	-2.0375	-2.6021	-2.55	-2.4292	-2.7083	-2.4562	-2.5167	-2.7354	-2.2625	-2.4979	-2.9625	-2.3458	-2.525	-2.5208	-2.3229	-2.7417	432.367	212.670	142.129	437.035	380.158	199.418	292.958	356.132	341.293	418.057	400.851	390.007	163.633	452.165	323.316	429.813	0.00051403	0.00057142	0.00015363	1454.3	6.2006e-06	4.6514e-06	1442.1	384.62	5.5655e-06	5.8937e-06	439.44	147.28	128.74	44.161	5.8714e-06	54.32	0.00056872	0.00055224	0.00014673	1473.2	6.0381e-06	5.75e-06	1459.1	391.52	6.0812e-06	5.8055e-06	446.05	150.91	131.78	45.302	5.9814e-06	55.683	211.248	165.515	173.509	106.133	255.586	235.206	106.142	110.810	260.192	240.779	110.206	114.722	115.233	119.664	237.534	118.840	-8191	255	
42182.926	1	1	0	0	0.20211	0.058925	0.12471	0.30123	0.18486	0.095502	0.14418	0.19832	0.14086	0.17575	0.081508	0.096392	0.29677	0.13018	0.067297	0.1552	-2.0292	-2.3708	-2.6562	-2.6083	-2.7438	-2.5333	-2.4146	-2.675	-2.4938	-2.3979	-2.6688	-2.4292	-2.6271	-2.6083	-2.1542	-2.775	177.410	421.827	281.649	445.704	382.238	332.063	189.825	445.967	420.276	444.878	118.011	417.691	175.765	387.536	212.418	443.106	0.00049994	0.00031363	0.00015529	1453.6	4.6835e-06	4.8995e-06	1442.2	384.11	5.0222e-06	4.5192e-06	437.17	148.28	128.94	44.202	5.2686e-06	54.291	0.0005466	0.00053529	0.00014546	1472.4	5.8065e-06	5.7726e-06	1459.3	391.55	5.8942e-06	5.7983e-06	445.48	151.18	131.72	45.288	5.8327e-06	55.658	209.469	166.563	178.653	106.159	253.180	244.120	106.145	110.926	260.872	233.250	110.205	114.678	115.594	119.584	257.154	118.593	-8191	255	
42183.020	1	1	0	0	0.29985	0.13788	0.15456	0.2089	0.28323	0.3099	0.21938	0.057325	0.29416	0.1455	0.23459	0.27332	0.34545	0.22774	0.22259	0.20051	-1.9813	-2.3583	-2.8271	-2.5021	-2.5062	-2.5625	-2.4375	-2.8354	-2.2188	-2.4437	-2.7354	-2.3812	-2.6437	-2.5938	-2.1854	-2.7875	225.980	117.514	266.566	386.199	180.685	356.170	389.490	407.656	135.471	199.161	135.303	449.642	343.765	417.823	130.978	387.826	0.00050905	0.00065496	9.4843e-05	1450.8	5.525e-06	4.3973e-06	1441.2	382.8	5.2305e-06	3.823e-06	437.18	148.06	128.62	44.212	5.5731e-06	54.072	0.00056382	0.00053743	0.00014924	1471.1	5.9676e-06	5.8587e-06	1461	390.92	5.954e-06	5.7606e-06	446.25	151.23	131.63	45.313	6.1767e-06	55.548	210.193	182.627	203.377	106.013	256.400	236.343	105.941	110.853	264.501	225.636	110.269	114.696	115.383	119.401	239.060	118.978	-8191	255	
42183.117	1	1	0	0	0.23663	0.14528	0.22858	0.3981	0.14439	0.10261	0.12865	0.27525	0.043443	0.1942	0.13087	0.11769	0.39155	0.089174	0.1699	0.23342	-2.0667	-1.9979	-2.525	-2.5396	-2.6333	-2.8229	-2.3583	-2.7604	-2.4771	-2.275	-2.85	-2.4188	-2.7188	-2.5417	-2.2625	-2.5104	221.966	191.724	190.566	384.756	307.781	426.804	293.628	358.047	222.600	401.038	329.567	411.417	407.160	302.522	292.794	303.801	0.00052136	0.00044561	0.00017978	1454.6	6.2923e-06	4.8105e-06	1446	384.37	5.8377e-06	4.7265e-06	437.45	147.68	128.59	44.019	5.9528e-06	54.158	0.00056402	0.00055531	0.00015032	1472.6	5.7918e-06	5.8466e-06	1460.8	391.54	5.8162e-06	6.1139e-06	445.75	151.04	131.7	45.275	6.0477e-06	55.632	210.173	168.467	188.043	106.132	248.300	242.252	106.132	110.856	256.552	247.565	110.304	115.021	115.298	119.235	255.014	118.778	-8191	255	
42183.215	1	1	0	0	0.17719	0.30966	0.19121	0.31769	0.07022	0.29417	0.055798	0.19448	0.083448	0.022823	0.16665	0.085342	0.1616	0.36772	0.16671	0.17417	-2.0229	-2.1333	-2.5812	-2.4333	-2.4229	-2.5833	-2.4708	-2.8688	-2.6396	-2.375	-2.825	-2.5875	-2.3688	-2.5187	-2.3604	-2.5938	217.565	282.820	247.606	415.486	219.577	172.617	127.142	100.550	428.519	414.201	277.181	172.791	367.388	368.491	236.359	110.453	0.00049684	0.0004652	0.00017148	1451.3	5.7261e-06	7.5781e-06	1444.7	384.61	4.5714e-06	5.8789e-06	438.55	147.66	129.55	44.099	5.4171e-06	54.064	0.00054341	0.00054455	0.00014584	1473.3	5.9669e-06	5.7806e-06	1461.3	391.49	5.9659e-06	6.0241e-06	446.21	151.21	131.93	45.349	6.0003e-06	55.668	209.583	165.746	173.271	106.283	257.317	262.340	106.356	110.852	247.858	246.543	110.447	114.653	115.167	119.563	262.521	118.962	-8191	255	
42183.309	1	1	0	0	0.097924	0.095432	0.13307	0.33253	0.36578	0.15105	0.25799	0.056491	0.13195	0.13035	0.20342	0.13212	0.21408	0.22854	0.18673	0.16753	-2.0271	-2.1417	-2.7521	-2.4833	-2.1958	-2.6792	-2.6354	-2.4292	-2.625	-2.1708	-2.675	-2.4896	-2.2792	-2.7979	-2.3604	-2.6021	260.692	145.016	168.407	413.728	254.782	310.621	350.958	309.617	119.365	420.590	412.273	392.405	443.584	147.862	377.231	356.596	0.00052828	0.00067407	0.00012338	1456.9	5.6848e-06	5.7638e-06	1440.6	385.31	5.5008e-06	4.7799e-06	436.43	147.93	128.86	44.153	5.789e-06	54.021	0.00055497	0.0005308	0.00014474	1473.8	5.9835e-06	5.9586e-06	1459.4	391.78	5.9027e-06	5.9809e-06	445.51	151.2	131.89	45.37	6.0885e-06	55.579	209.853	174.195	164.657	106.144	259.134	245.284	106.150	110.813	257.094	223.800	110.467	114.715	115.407	119.506	249.036	118.685	-8191	255	
42183.430	1	1	0	0	0.18488	0.28381	0.11426	0.57293	0.10854	0.078972	0.26663	0.25732	0.20605	0.17149	0.30045	0.31702	0.23462	0.34162	0.16087	0.28718	-2.2104	-2.2792	-2.6167	-2.6292	-2.4	-2.5833	-2.5875	-2.6771	-2.55	-2.2896	-2.6792	-2.65	-2.4292	-2.8354	-2.2792	-2.65	105.705	246.641	419.109	381.794	341.844	98.194	360.318	419.080	137.951	138.712	421.646	114.111	123.163	121.132	298.248	318.523	0.00048389	0.00037072	0.00016089	1457.7	3.9193e-06	6.5178e-06	1445	385.03	5.1034e-06	5.1472e-06	440.02	147.89	128.6	43.875	5.5368e-06	54.191	0.00053732	0.00053721	0.00014606	1472.9	5.8544e-06	5.7524e-06	1461.1	391.89	5.7965e-06	5.9833e-06	446.93	151.24	131.72	45.284	6.1337e-06	55.648	210.681	193.690	190.796	106.108	250.375	233.266	106.062	110.778	250.200	233.433	110.340	114.649	115.530	119.359	254.816	118.728	-8191	255	
42183.523	1	1	0	0	0.17551	0.20662	0.21849	0.19525	0.22796	0.33473	0.19716	0.27544	0.048582	0.30688	0.23003	0.06166	0.30204	0.066984	0.049061	0.099383	-2.1312	-2.0583	-2.5208	-2.7146	-2.175	-2.8083	-2.5458	-2.6125	-2.5771	-2.1833	-2.5021	-2.5271	-2.2333	-2.6063	-2.4917	-2.4083	221.813	208.133	364.620	443.321	228.502	101.818	324.341	386.363	205.342	155.977	343.325	441.381	122.019	338.737	258.624	96.392	0.00049373	0.00041272	0.00013073	1456.9	6.7323e-06	4.8131e-06	1442.7	384.71	5.3004e-06	5.3625e-06	437.29	147.35	128.67	44.201	8.3309e-06	54.053	0.00054599	0.00053693	0.00014741	1473.8	6.0581e-06	5.9062e-06	1461.4	391.78	5.8879e-06	5.8543e-06	445.59	151.22	131.93	45.389	6.1388e-06	55.784	211.574	200.684	192.835	105.994	259.641	241.671	106.117	110.776	257.506	246.226	110.357	114.849	115.306	119.634	253.474	118.958	-8191	255	
42183.621	1	1	0	0	0.041155	0.22666	0.15553	0.21799	0.1925	0.055305	0.38756	0.18647	0.18084	0.042841	0.23627	0.2042	0.24561	0.16752	0.035144	0.18379	-2.2667	-2.1354	-2.3438	-2.7	-2.2396	-2.6708	-2.6875	-2.2542	-2.6021	-2.5417	-2.6479	-2.7271	-2.2958	-2.6792	-2.5833	-2.3729	390.463	263.926	244.770	407.856	218.210	149.149	413.598	429.103	307.407	375.809	112.985	408.320	437.895	447.036	291.466	321.263	0.00051008	0.00067448	0.00012607	1454.7	7.0838e-06	4.6667e-06	1442.6	386.16	5.358e-06	4.0238e-06	438.48	147.19	128.52	44.404	5.4543e-06	54.552	0.00055092	0.00054583	0.00014829	1473.2	5.9389e-06	5.6365e-06	1462.6	392.79	6.1958e-06	5.8343e-06	446.43	151.18	131.7	45.526	5.7496e-06	55.782	210.432	195.466	180.542	106.347	257.889	260.931	105.938	111.074	258.746	241.836	110.414	114.841	115.530	119.552	248.717	118.715	-8191	255	
42183.715	1	1	0	0	0.23879	0.26996	0.096973	0.076855	0.13755	0.17001	0.060724	0.067977	0.11063	0.12093	0.21817	0.014602	0.27028	0.33427	0.19368	0.089903	-2.1021	-2.1104	-2.3146	-2.8	-2.2729	-2.4146	-2.8521	-2.4917	-2.6	-2.4708	-2.4688	-2.8396	-2.2896	-2.5333	-2.5917	-2.3042	154.355	383.943	319.565	405.742	382.334	417.957	103.531	384.183	418.547	167.484	100.904	159.201	446.485	420.376	364.694	436.180	0.00049741	0.00060304	0.0001104	1458.4	4.7762e-06	5.9915e-06	1445.7	384.24	4.7285e-06	4.7293e-06	438.91	147.72	129.19	44.389	4.9391e-06	54.29	0.00054558	0.00056058	0.00014946	1475.6	5.9729e-06	5.6904e-06	1463.5	391.46	6.0081e-06	5.8904e-06	446.75	151.63	132.08	45.562	5.883e-06	55.74	211.470	172.353	185.296	106.169	255.717	248.584	106.055	110.943	259.957	225.266	110.207	114.905	115.173	119.545	238.518	118.774	-8191	255	
42183.836	1	1	0	0	0.24078	0.25325	0.30153	0.24725	0.13221	0.09522	0.008966	0.1733	0.16081	0.18717	0.28218	0.28777	0.28915	0.2569	0.13871	0.027326	-2.1854	-2.2958	-2.3312	-2.7646	-2.55	-2.5208	-2.7417	-2.4646	-2.5542	-2.4354	-2.3333	-2.6833	-2.2604	-2.6	-2.6604	-2.1104	169.221	185.427	417.611	387.375	116.179	220.211	418.476	382.108	234.304	151.670	362.828	104.386	421.222	113.277	160.493	323.577	0.00050007	0.00068116	0.00016069	1454.1	4.9827e-06	7.2175e-06	1442.6	385.38	5.5553e-06	4.576e-06	437.74	148.17	129.33	44.389	5.8599e-06	54.468	0.00055552	0.00055445	0.00015006	1474.8	6.0374e-06	6.0262e-06	1461.5	392.08	6.0039e-06	5.8752e-06	446.76	151.5	132.08	45.481	5.9697e-06	55.811	209.149	163.943	185.177	106.133	245.802	242.833	106.274	110.876	258.615	251.299	110.395	114.846	115.316	119.576	228.147	118.858	-8191	255	
42183.910	1	1	0	0	0.10414	0.20284	0.11538	0.31746	0.20388	0.19732	0.18093	0.16334	0.15007	0.10276	0.32962	0.1894	0.011909	0.15404	0.30052	0.18331	-2.1	-2.3438	-2.3729	-2.8125	-2.3146	-2.6	-2.8604	-2.4167	-2.6458	-2.4521	-2.3917	-2.5563	-2.3125	-2.4	-2.6375	-2.3688	149.959	451.773	356.905	412.199	137.456	359.317	156.685	125.765	166.738	307.040	380.068	111.498	378.517	98.775	349.902	374.157	0.00049342	0.00037895	0.00013248	1455.2	6.0228e-06	6.2545e-06	1445.1	386.2	4.3887e-06	4.7685e-06	438.58	148.13	129.83	44.283	5.8498e-06	54.366	0.00054943	0.00053059	0.00015161	1473.4	6.11e-06	6.0504e-06	1462.7	392.55	5.6391e-06	5.8127e-06	446.41	151.55	132.18	45.466	5.9179e-06	55.829	209.540	169.091	189.663	106.131	253.422	229.528	105.944	110.832	263.976	254.220	110.422	114.825	115.103	119.545	266.514	118.678	-8191	255	
42184.027	1	1	0	0	0.23526	0.094283	0.23535	0.28755	0.052527	0.16007	0.2056	0.15464	0.12293	0.36525	0.14673	0.073713	0.22669	0.31861	0.18106	0.13214	-1.9292	-2.4708	-2.2833	-2.9354	-2.4125	-2.4417	-2.8708	-2.5833	-2.5125	-2.6708	-2.35	-2.6437	-2.3729	-2.3521	-2.4938	-2.6042	129.585	334.292	290.024	402.388	437.244	392.277	167.847	162.534	139.234	298.515	408.038	184.226	450.133	387.450	343.447	162.018	0.00050592	0.00067645	0.00016131	1452.1	5.2095e-06	5.7004e-06	1446.8	385.06	4.4545e-06	5.6837e-06	439.85	148.57	129.55	44.358	4.6242e-06	54.507	0.00055691	0.00055602	0.00016059	1473.9	6.0281e-06	6.1341e-06	1463.7	392.36	6.3385e-06	6.2436e-06	447.24	151.73	132.21	45.577	6.0426e-06	55.858	210.882	190.792	177.897	106.230	255.937	263.848	106.147	110.814	260.941	233.260	110.478	114.644	115.405	119.480	256.075	118.895	-8191	255	
42184.125	1	1	0	0	0.040308	0.15768	0.11156	0.54935	0.24577	0.12042	0.23626	0.29719	0.23892	0.28649	0.17813	0.19715	0.13281	0.26473	0.085051	0.30152	-2.0708	-2.6167	-1.9958	-2.7854	-2.3875	-2.3021	-2.7396	-2.2292	-2.4437	-2.5375	-2.3833	-2.6937	-2.5708	-2.4625	-2.5854	-2.3979	413.042	278.302	322.144	374.921	377.565	135.979	118.034	416.738	336.651	306.026	332.362	374.961	127.132	187.824	295.942	381.722	0.00050216	0.000576	0.00013412	1454.6	6.3647e-06	5.391e-06	1447.1	384.68	4.2389e-06	4.8768e-06	438.68	147.66	129.74	44.453	5.2626e-06	54.445	0.00055548	0.00055417	0.0001596	1476.8	6.0301e-06	6.0198e-06	1466	392	5.8247e-06	6.0802e-06	446.48	151.57	132.45	45.54	6.1133e-06	55.803	209.923	168.119	173.910	106.094	247.932	229.338	106.170	110.984	255.041	255.765	110.425	114.773	115.341	119.560	248.234	118.936	-8191	255	
42184.219	1	1	0	0	0.085389	0.055877	0.11634	0.073792	0.22472	0.026945	0.27171	0.066596	0.05958	0.041531	0.17123	0.14795	0.34259	0.20457	0.17742	0.23213	-2.0958	-2.5458	-2.0792	-2.6875	-2.4167	-2.1854	-2.85	-2.2438	-2.4354	-2.6396	-2.3625	-2.6729	-2.4583	-2.2292	-2.5375	-2.5354	352.348	275.652	402.584	104.878	402.347	433.050	413.061	103.662	371.138	404.133	344.255	175.500	319.966	121.120	189.084	448.113	0.00049396	0.00059698	0.00014999	1458.7	4.2967e-06	5.0816e-06	1442.1	385.22	3.7931e-06	6.2752e-06	438.64	147.47	129.19	44.256	4.8031e-06	54.352	0.00056406	0.00055531	0.00015932	1478.2	6.0914e-06	6.4265e-06	1465	392.38	6.2232e-06	6.1787e-06	446.63	151.6	132.06	45.548	6.0965e-06	55.764	212.047	178.393	190.485	106.035	248.243	262.857	106.133	110.881	240.273	239.397	110.390	114.679	115.337	119.393	241.424	118.691	-8191	255	
42184.316	1	1	0	0	0.22057	0.04643	0.33838	0.37181	0.0053271	0.21819	0.28261	0.12414	0.087076	0.17346	0.23691	0.079749	0.15168	0.25846	0.17318	0.22286	-2.0021	-2.5229	-2.1917	-2.8917	-2.6188	-2.1625	-2.6854	-2.5292	-2.4354	-2.6937	-2.2521	-2.7875	-2.6813	-2.3354	-2.6937	-2.6688	184.646	347.566	280.110	395.786	98.841	418.574	407.279	368.556	302.186	107.172	141.716	96.766	320.832	398.436	276.924	419.457	0.00048683	0.00056992	0.00010719	1456	4.0483e-06	5.5534e-06	1447.1	386.15	5.3197e-06	5.1453e-06	441.06	147.69	129.52	44.401	5.7703e-06	54.554	0.0005531	0.00054569	0.00015675	1477.5	5.9136e-06	6.4088e-06	1465.7	392.96	6.2063e-06	5.7935e-06	447.33	151.73	132.06	45.524	6.1213e-06	55.896	210.333	176.687	190.945	106.119	257.562	250.578	106.013	110.831	259.898	220.434	110.508	114.892	115.315	119.331	254.488	118.765	-8191	255	
42184.438	1	1	0	0	0.088356	0.19828	0.23889	0.5726	0.18056	0.042975	0.36632	0.31304	0.20443	0.1228	0.057422	0.22839	0.10683	0.18931	0.17687	0.23171	-1.9208	-2.5563	-2.4104	-2.5833	-2.5	-2.175	-2.7521	-2.5292	-2.2667	-2.775	-2.4667	-2.4646	-2.6583	-2.3563	-2.4979	-2.6792	451.267	452.921	144.335	417.369	269.572	408.167	395.645	429.317	207.202	314.837	210.098	354.703	440.995	426.599	423.680	378.443	0.00050484	0.00051686	0.00014443	1456.1	6.9478e-06	6.1736e-06	1447.1	385.09	4.8454e-06	5.831e-06	437.9	148.71	130.23	44.305	5.2108e-06	54.499	0.00057835	0.0005635	0.00015794	1477.4	6.2657e-06	6.354e-06	1465.2	392.38	6.4045e-06	5.9841e-06	447.48	152.04	132.79	45.578	6.227e-06	55.905	211.732	166.022	176.887	106.238	250.143	250.086	106.208	111.020	248.162	247.762	110.251	114.730	115.102	119.495	254.643	118.803	-8191	255	
42184.508	1	1	0	0	0.092251	0.14428	0.16977	0.18622	0.16186	0.1438	0.035837	0.028971	0.17833	0.19905	0.329	0.18806	0.11307	0.15565	0.26808	0.20719	-1.6979	-2.5896	-2.475	-2.6312	-2.7146	-2.3667	-2.6979	-2.6958	-2.4854	-2.6562	-2.5833	-2.4562	-2.6458	-2.5021	-2.4708	-2.7854	145.916	134.443	158.763	384.632	373.026	239.912	316.690	419.566	161.990	117.098	440.376	450.580	162.025	100.575	258.035	309.612	0.00049042	0.00063709	0.00014275	1463.7	6.4404e-06	5.9315e-06	1448.4	385.72	4.0809e-06	6.803e-06	440.16	148.98	129.81	44.518	6.1521e-06	54.617	0.0005629	0.00055495	0.00015325	1479.2	6.2351e-06	6.0899e-06	1468.2	393.15	6.4059e-06	6.1723e-06	447.39	152.18	132.6	45.662	6.1023e-06	55.935	209.796	174.275	182.720	106.119	255.585	239.716	106.031	110.854	257.278	227.596	110.503	114.509	115.485	119.335	253.401	118.843	-8191	255	
42184.605	1	1	0	0	0.15493	0.37681	0.19391	0.17673	0.26577	0.31806	0.27931	0.22126	0.25839	0.26448	0.18201	0.13797	0.26561	0.023273	0.17105	0.1231	-1.6646	-2.5354	-2.4271	-2.5083	-2.6354	-2.4333	-2.5375	-2.5979	-2.0854	-2.5854	-2.4979	-2.4833	-2.7271	-2.3896	-2.3583	-2.9146	106.792	290.391	364.141	443.159	114.105	330.338	352.943	379.393	162.728	345.061	355.165	349.164	439.175	329.427	172.604	118.733	0.00050574	0.00075835	0.00013503	1459.2	6.6163e-06	6.3204e-06	1449.7	385.63	4.5373e-06	5.3637e-06	439.19	148.94	128.91	44.407	5.2586e-06	54.592	0.0005728	0.0005729	0.00015538	1478.4	6.0674e-06	6.2759e-06	1467	392.87	6.3785e-06	6.0522e-06	447.25	152.07	132.43	45.602	6.1956e-06	55.849	212.409	181.847	198.887	106.140	253.961	246.429	106.111	110.957	255.052	234.177	110.431	114.508	115.482	119.528	242.580	118.709	-8191	255	
42184.699	1	1	0	0	0.080116	0.13771	0.041062	0.14544	0.127	0.069288	0.21532	0.053594	0.12833	0.11001	0.26759	0.14519	0.27885	0.21378	0.13581	0.13925	-1.8229	-2.4542	-2.4229	-2.5292	-2.6021	-2.4167	-2.6188	-2.6729	-2.3021	-2.5771	-2.4521	-2.2604	-2.6729	-2.5354	-2.5354	-2.5875	358.888	451.618	438.661	439.268	99.941	323.035	424.246	363.194	392.604	400.670	436.895	355.541	320.227	410.890	423.310	406.507	0.00050012	0.00047557	0.00014043	1462.6	5.3781e-06	4.7734e-06	1448	385.68	5.8356e-06	4.5855e-06	439.51	148.47	129.63	44.335	5.1932e-06	54.462	0.00056562	0.00057134	0.00015516	1480.6	5.9982e-06	6.2823e-06	1466.7	392.89	6.304e-06	6.1843e-06	447.38	151.81	132.29	45.57	6.3319e-06	55.849	210.577	155.318	177.721	106.162	261.050	241.284	106.276	110.920	245.064	228.020	110.688	114.655	115.060	119.288	246.228	118.771	-8191	255	
42184.797	1	1	0	0	0.23341	0.26101	0.077331	0.079166	0.10045	0.032365	0.34981	0.40278	0.15459	0.10031	0.26733	0.075069	0.23156	0.13242	0.15564	0.17144	-1.9042	-2.5854	-2.5812	-2.4854	-2.55	-2.3896	-2.4396	-2.7833	-2.2625	-2.6146	-2.6083	-2.1688	-2.6562	-2.3646	-2.25	-2.6625	100.631	330.471	402.959	263.325	196.464	298.890	380.409	418.090	368.312	223.647	381.589	446.198	309.858	406.206	99.171	387.431	0.00049909	0.00049768	0.00017746	1460.2	5.8452e-06	5.9407e-06	1450.9	385.77	5.2622e-06	4.3092e-06	440.01	147.53	129.11	44.282	5.5725e-06	54.597	0.00056964	0.00055103	0.00015484	1479.7	6.0627e-06	6.1551e-06	1466.7	392.92	6.4031e-06	5.7214e-06	447.44	151.58	132.53	45.469	6.4784e-06	55.987	210.375	182.398	179.790	106.180	242.498	262.137	105.999	110.726	263.755	243.249	110.181	114.664	115.570	119.422	245.125	118.942	-8191	255	
42184.918	1	1	0	0	0.076743	0.012238	0.22246	0.28824	0.1053	0.09486	0.14073	0.19328	0.33087	0.13276	0.16194	0.15416	0.12961	0.13416	0.013942	0.37219	-1.8458	-2.5146	-2.3875	-2.3563	-2.5167	-2.4542	-2.4875	-2.6979	-2.1562	-2.3979	-2.6146	-2.1854	-2.7792	-2.625	-2.2042	-2.7562	208.909	408.020	178.116	422.216	324.872	176.460	322.097	400.399	438.586	372.597	383.072	425.215	95.546	371.247	274.820	416.684	0.00049915	0.00030139	0.00010576	1462.8	5.018e-06	6.3214e-06	1451.3	385.72	4.1615e-06	4.834e-06	439.63	148.22	129.36	44.493	4.8186e-06	54.588	0.00055729	0.00055524	0.00015498	1480	5.923e-06	6.0222e-06	1469.1	393	6.0067e-06	6.0306e-06	446.74	152	132.37	45.661	6.1242e-06	55.959	210.556	181.457	190.884	106.065	259.166	267.250	106.075	110.616	256.541	228.078	110.436	114.695	115.320	119.362	258.562	118.858	-8191	255	
42185.012	1	1	0	0	0.097291	0.10356	0.031264	0.095477	0.062249	0.28619	0.23815	0.14901	0.22595	0.23096	0.1849	0.093917	0.18989	0.31334	0.18594	0.25233	-1.8708	-2.1792	-2.5896	-2.375	-2.5792	-2.5271	-2.375	-2.7125	-2.4229	-2.3396	-2.7833	-2.3917	-2.4958	-2.6979	-2.1833	-2.7583	299.946	240.345	206.649	98.340	450.298	393.887	403.078	129.100	144.620	372.418	150.765	348.618	248.163	393.749	285.930	139.825	0.00049959	0.00067988	0.00015021	1459.4	4.6791e-06	6.8962e-06	1451.5	386.36	5.4699e-06	4.6274e-06	440.64	148.4	129.61	44.313	5.7881e-06	54.639	0.00055504	0.00057276	0.00015175	1479.3	6.08e-06	5.9304e-06	1468.1	392.78	6.1557e-06	6.0762e-06	447.52	152.12	132.63	45.619	6.2838e-06	55.918	210.146	180.945	160.014	106.163	249.822	247.901	106.104	110.943	259.394	225.996	110.205	114.798	115.468	119.443	251.195	118.948	-8191	255	
42185.109	1	1	0	0	0.065628	0.042912	0.23966	0.19781	0.27204	0.11789	0.36782	0.14861	0.060169	0.086646	0.049496	0.19952	0.17086	0.066211	0.11391	0.030973	-1.9542	-2.425	-2.7521	-2.4667	-2.7292	-2.7875	-2.5812	-2.5771	-2.4271	-2.3021	-2.8104	-2.5333	-2.3812	-2.5667	-2.3187	-2.6667	206.317	116.574	266.226	447.290	347.575	119.797	384.925	219.855	266.503	335.538	273.987	134.594	414.122	256.191	290.269	307.966	0.00051428	0.00054021	0.00013424	1460.4	6.3526e-06	7.3337e-06	1448.4	385.55	5.4312e-06	4.0517e-06	440.01	148.17	129.73	44.319	4.7496e-06	54.408	0.00056811	0.00057497	0.00015852	1479.7	6.1952e-06	6.3395e-06	1466.5	392.86	6.1641e-06	6.2476e-06	447.76	151.73	132.37	45.554	6.3939e-06	55.858	208.985	184.232	206.549	106.195	255.002	237.999	106.090	110.638	259.417	240.605	110.137	114.556	115.348	119.266	254.569	118.641	-8191	255	
42185.207	1	1	0	0	0.29229	0.2278	0.19668	0.24513	0.15464	0.1773	0.1803	0.13271	0.063502	0.089208	0.25904	0.31973	0.1926	0.23384	0.084515	0.1168	-1.9896	-2.1604	-2.6292	-2.6312	-2.2958	-2.5312	-2.6208	-2.4979	-2.4479	-2.2062	-2.6562	-2.2854	-2.4604	-2.6875	-2.1833	-2.5583	251.671	211.996	250.174	367.978	269.523	426.832	412.035	278.635	199.642	351.437	443.311	419.358	134.712	451.322	414.733	192.447	0.00049203	0.00045683	0.00012198	1464.2	5.5813e-06	5.0127e-06	1450.3	384.16	5.0284e-06	5.383e-06	438.26	147.8	129.24	44.313	4.7048e-06	54.255	0.00056055	0.00056492	0.00015299	1480.5	6.2884e-06	6.0907e-06	1467.1	392.81	6.1866e-06	6.2484e-06	446.49	151.92	132.26	45.548	6.3837e-06	55.836	210.297	173.843	192.398	106.326	256.420	239.882	106.022	110.727	243.183	240.284	110.238	114.514	115.356	119.421	243.669	118.744	-8191	255	
42185.301	1	1	0	0	0.24367	0.082517	0.15235	0.36324	0.23424	0.24214	0.24451	0.24872	0.15132	0.15935	0.17452	0.0712	0.38338	0.044878	0.17694	0.11636	-2.0687	-2.2562	-2.7062	-2.5812	-2.0812	-2.7875	-2.5729	-2.6479	-2.5729	-2.1958	-2.6958	-2.3875	-2.3438	-2.8396	-2.3312	-2.55	283.822	287.774	104.681	108.568	135.324	245.942	369.220	441.490	401.601	297.128	376.510	396.356	405.380	347.974	400.336	401.038	0.00052344	0.00052468	0.00015039	1461.2	4.8497e-06	6.0955e-06	1453.3	385.07	3.6834e-06	6.0022e-06	439.41	148.39	128.63	44.167	5.1346e-06	54.502	0.00057096	0.00055851	0.00015647	1479.7	6.337e-06	6.0923e-06	1469.7	392.94	6.0116e-06	6.1355e-06	447.14	151.67	132.12	45.518	6.2189e-06	55.789	208.330	174.376	179.622	106.128	258.307	263.931	106.276	110.860	259.607	230.818	110.364	114.616	115.278	119.435	258.675	118.875	-8191	255	
42185.398	1	1	0	0	0.21094	0.14206	0.29229	0.30695	0.17481	0.18113	0.19401	0.054279	0.040579	0.23893	0.19322	0.12612	0.19972	0.18205	0.29978	0.1449	-1.9833	-2.1667	-2.6208	-2.6167	-2.1937	-2.7313	-2.5021	-2.4792	-2.7083	-2.4042	-2.8063	-2.4646	-2.4542	-2.75	-2.2104	-2.7313	391.588	385.926	367.124	434.399	338.194	224.857	425.355	227.843	433.742	331.718	362.673	300.876	102.410	160.666	138.887	381.033	0.00049481	0.00047961	0.00014828	1459.6	7.0548e-06	5.6527e-06	1453	385.13	4.8746e-06	4.0844e-06	439.54	148.24	129.41	44.256	5.3278e-06	54.716	0.0005547	0.00059107	0.00015838	1478.6	6.4594e-06	6.0021e-06	1468.4	392.73	6.0967e-06	6.2212e-06	447.04	151.64	132.15	45.487	6.0491e-06	55.929	209.538	180.696	180.920	106.086	253.062	237.368	106.162	110.898	248.099	239.813	110.043	114.534	115.413	119.352	248.366	118.956	-8191	255	
42185.516	1	1	0	0	0.34206	0.31796	0.14101	0.15412	0.094945	0.10532	0.21883	0.2126	0.053251	0.31155	0.19919	0.10891	0.11829	0.29084	0.31459	0.16629	-2.1792	-2.2104	-2.5708	-2.6104	-2.3271	-2.7146	-2.6979	-2.5583	-2.5979	-2.2625	-2.6333	-2.7646	-2.3604	-2.8646	-2.3854	-2.5083	354.752	335.718	342.792	93.093	298.781	377.438	448.191	94.608	173.324	328.337	405.376	211.041	346.680	360.451	358.318	409.375	0.00050837	0.00044993	0.00015082	1463.5	6.7977e-06	3.2018e-06	1449.4	384.94	4.7049e-06	4.5001e-06	438.92	148.5	129.52	44.394	4.9944e-06	54.555	0.00056753	0.00056799	0.00015565	1480	6.2371e-06	5.6985e-06	1467.8	392.96	6.2654e-06	6.1699e-06	447.21	151.9	132.4	45.547	6.2321e-06	55.791	210.933	154.741	176.441	106.176	252.193	236.785	106.103	110.762	260.693	239.002	110.113	114.656	115.309	119.188	244.592	118.540	-8191	255	
42185.613	1	1	0	0	0.40105	0.052481	0.30319	0.31563	0.27305	0.15133	0.20245	0.059885	0.11378	0.08057	0.47203	0.21173	0.079937	0.12904	0.099076	0.15085	-2.2313	-2.3771	-2.4167	-2.6292	-2.2958	-2.7708	-2.8104	-2.4354	-2.7104	-2.4583	-2.4354	-2.7208	-2.35	-2.7354	-2.4104	-2.4938	362.704	379.522	320.191	445.280	165.794	233.866	310.101	129.281	137.312	180.661	446.701	409.017	339.417	407.561	157.330	272.447	0.000501	0.00064142	0.00016054	1466	5.0579e-06	5.3505e-06	1448.2	386.51	4.6642e-06	6.3307e-06	438.08	148.3	130.03	44.4	4.7002e-06	54.327	0.00055399	0.00055908	0.00015498	1480.2	6.2484e-06	6.0005e-06	1468.9	393.27	6.0475e-06	6.1996e-06	446.79	151.9	132.61	45.581	6.0214e-06	55.835	209.806	156.894	194.359	106.198	241.271	231.295	106.041	110.754	250.442	250.354	110.293	114.733	115.523	119.468	240.939	118.562	-8191	255	
42185.711	1	1	0	0	0.11241	0.32518	0.12826	0.097647	0.46845	0.41041	0.47564	0.21556	0.16629	0.079158	0.05789	0.32565	0.098641	0.2928	0.19324	0.21889	-2.3458	-2.2083	-2.3563	-2.7479	-2.1813	-2.6208	-2.7104	-2.5917	-2.7229	-2.4458	-2.3187	-2.9542	-2.2167	-2.6979	-2.4458	-2.3958	160.065	399.138	284.286	439.070	357.404	241.980	397.673	367.721	314.559	219.519	306.446	353.764	147.962	439.393	387.620	438.541	0.00053839	0.00058978	0.00015422	1460.5	5.609e-06	6.3065e-06	1453.6	387.32	5.2504e-06	5.2926e-06	439.4	148.98	129.82	44.201	5.3616e-06	54.624	0.00057185	0.00056122	0.00015506	1480.4	6.1586e-06	5.9884e-06	1470.3	393.44	5.9336e-06	6.2412e-06	447.77	152.11	132.61	45.507	6.044e-06	55.9	210.352	182.013	201.077	106.231	250.389	248.552	106.057	110.895	244.470	243.549	110.207	114.619	115.405	119.325	241.841	118.901	-8191	255	
42185.805	1	1	0	0	0.26838	0.26059	0.18004	0.29893	0.22034	0.3865	0.22801	0.37278	0.23661	0.050657	0.23462	0.11041	0.075309	0.18136	0.12193	0.28899	-2.2917	-2.2438	-2.3354	-2.9104	-2.2396	-2.375	-2.7438	-2.3521	-2.5187	-2.4417	-2.5604	-2.85	-2.2604	-2.6375	-2.6771	-2.3563	270.076	197.840	155.248	420.962	259.928	322.037	358.938	410.949	237.919	337.297	410.273	102.612	93.423	394.438	384.202	93.752	0.00050725	0.00037455	0.00017956	1458	6.4726e-06	5.3542e-06	1449.2	384.85	5.9479e-06	3.9785e-06	439.18	148.33	129.24	44.473	3.8795e-06	54.47	0.00056178	0.00055773	0.00016268	1479.8	5.927e-06	6.3371e-06	1466.1	392.5	5.9702e-06	6.0025e-06	447.03	151.81	132.29	45.599	6.0346e-06	55.868	211.981	167.724	182.935	106.254	253.303	261.513	106.066	110.875	253.726	223.175	110.368	114.693	115.467	119.434	255.667	118.551	-8191	255	
#DATA ENDS
