BOXY.EXE: ISS Imagent and Oximeter Data Acquisition Program Version 0.80
Ascii Record File

#ACQ INFORMATION
2  Detector Channels 
16  External MUX Channels 
1  Auxiliary Channels 
5000  Waveform (CCF) Frequency (Hz)
1  Waveforms Skipped 
30  Waveforms Averaged 
1  Cycles Averaged 
16  Acquisitions per Waveform 
10.0806  Updata Rate (Hz) 

#FILE INFORMATION
TRUE -- External MUX Channel results are PARSED.
FALSE -- AC DC and Phase are NOT grouped.
TRUE -- Companion Program Settings File CREATED.
FALSE -- AC data not excluded
FALSE -- DC data not excluded
FALSE -- Phase data not excluded
FALSE -- Auxillary Chn. data not excluded
Tab delimiters

#CALIBRATION STATE
TRUE -- Waveform Calibration Values APPLIED.


#AUX CALIBRATION VALUES
Val Type	aux-1	

Term	1.0000e+00	
Factor	0.0000e+00	


#WF CALIBRATION VALUES
A = Detector Channel
Val Type	A-AC1	A-AC2	A-AC3	A-AC4	A-AC5	A-AC6	A-AC7	A-AC8	A-AC9	A-AC10	A-AC11	A-AC12	A-AC13	A-AC14	A-AC15	A-AC16	A-DC1	A-DC2	A-DC3	A-DC4	A-DC5	A-DC6	A-DC7	A-DC8	A-DC9	A-DC10	A-DC11	A-DC12	A-DC13	A-DC14	A-DC15	A-DC16	A-Ph1	A-Ph2	A-Ph3	A-Ph4	A-Ph5	A-Ph6	A-Ph7	A-Ph8	A-Ph9	A-Ph10	A-Ph11	A-Ph12	A-Ph13	A-Ph14	A-Ph15	A-Ph16	

Term	0.00000e+00	0.00000e+00	0.00000e+00	0.00000e+00	0.00000e+00	0.00000e+00	0.00000e+00	0.00000e+00	0.00000e+00	0.00000e+00	0.00000e+00	0.00000e+00	0.00000e+00	0.00000e+00	0.00000e+00	0.00000e+00	0.00000e+00	0.00000e+00	0.00000e+00	0.00000e+00	0.00000e+00	0.00000e+00	0.00000e+00	0.00000e+00	0.00000e+00	0.00000e+00	0.00000e+00	0.00000e+00	0.00000e+00	0.00000e+00	0.00000e+00	0.00000e+00	0.00000e+00	0.00000e+00	0.00000e+00	0.00000e+00	0.00000e+00	0.00000e+00	0.00000e+00	0.00000e+00	0.00000e+00	0.00000e+00	0.00000e+00	0.00000e+00	0.00000e+00	0.00000e+00	0.00000e+00	0.00000e+00	
Factor	1.00000e+00	1.00000e+00	1.00000e+00	1.00000e+00	1.00000e+00	1.00000e+00	1.00000e+00	1.00000e+00	1.00000e+00	1.00000e+00	1.00000e+00	1.00000e+00	1.00000e+00	1.00000e+00	1.00000e+00	1.00000e+00	1.00000e+00	1.00000e+00	1.00000e+00	1.00000e+00	1.00000e+00	1.00000e+00	1.00000e+00	1.00000e+00	1.00000e+00	1.00000e+00	1.00000e+00	1.00000e+00	1.00000e+00	1.00000e+00	1.00000e+00	1.00000e+00	X	X	X	X	X	X	X	X	X	X	X	X	X	X	X	X	

B = Detector Channel
Val Type	B-AC1	B-AC2	B-AC3	B-AC4	B-AC5	B-AC6	B-AC7	B-AC8	B-AC9	B-AC10	B-AC11	B-AC12	B-AC13	B-AC14	B-AC15	B-AC16	B-DC1	B-DC2	B-DC3	B-DC4	B-DC5	B-DC6	B-DC7	B-DC8	B-DC9	B-DC10	B-DC11	B-DC12	B-DC13	B-DC14	B-DC15	B-DC16	B-Ph1	B-Ph2	B-Ph3	B-Ph4	B-Ph5	B-Ph6	B-Ph7	B-Ph8	B-Ph9	B-Ph10	B-Ph11	B-Ph12	B-Ph13	B-Ph14	B-Ph15	B-Ph16	

Term	0.00000e+00	0.00000e+00	0.00000e+00	0.00000e+00	0.00000e+00	0.00000e+00	0.00000e+00	0.00000e+00	0.00000e+00	0.00000e+00	0.00000e+00	0.00000e+00	0.00000e+00	0.00000e+00	0.00000e+00	0.00000e+00	0.00000e+00	0.00000e+00	0.00000e+00	0.00000e+00	0.00000e+00	0.00000e+00	0.00000e+00	0.00000e+00	0.00000e+00	0.00000e+00	0.00000e+00	0.00000e+00	0.00000e+00	0.00000e+00	0.00000e+00	0.00000e+00	-9.39495e+01	-1.35721e+02	-1.25820e+02	-1.82069e+02	-5.43409e+01	-6.46157e+01	-1.59155e+02	-1.62015e+02	-5.88718e+01	-7.21298e+01	-1.73297e+02	-1.72413e+02	-1.88332e+02	-1.77837e+02	-6.17040e+01	-1.50152e+02	
Factor	2.01488e-05	2.23168e-04	6.04090e-05	1.68445e-01	1.69383e-06	2.40167e-06	2.07806e-01	7.28711e-02	1.55576e-06	2.23671e-06	1.33238e-01	3.79796e-02	4.46465e-02	1.08739e-02	1.81721e-06	1.57391e-02	1.63297e-05	3.41947e-05	9.55667e-06	8.38009e-02	3.19477e-07	3.86555e-07	9.64301e-02	3.65082e-02	3.37376e-07	3.84469e-07	6.46773e-02	1.85256e-02	2.24160e-02	5.48690e-03	3.49829e-07	7.69830e-03	X	X	X	X	X	X	X	X	X	X	X	X	X	X	X	X	



#DISTANCE SETTINGS
A = Detector Channel
A-1	A-2	A-3	A-4	A-5	A-6	A-7	A-8	A-9	A-10	A-11	A-12	A-13	A-14	A-15	A-16	

2.5000e+00	3.0000e+00	2.5000e+00	3.0000e+00	2.0000e+00	3.0000e+00	1.5000e+00	3.0000e+00	3.0000e+00	3.0000e+00	3.0000e+00	3.0000e+00	3.0000e+00	3.0000e+00	1.5000e+00	3.0000e+00	

B = Detector Channel
B-1	B-2	B-3	B-4	B-5	B-6	B-7	B-8	B-9	B-10	B-11	B-12	B-13	B-14	B-15	B-16	

1.0000e+01	1.0000e+01	1.0000e+01	1.4400e+00	1.0000e+01	1.0000e+01	1.5100e+00	1.9400e+00	1.0000e+01	1.0000e+01	1.9900e+00	2.4900e+00	2.4100e+00	2.9000e+00	1.0000e+01	2.9800e+00	




#DATA BEGINS
time	group	step	mark	flag	A-AC1	A-AC2	A-AC3	A-AC4	A-AC5	A-AC6	A-AC7	A-AC8	A-AC9	A-AC10	A-AC11	A-AC12	A-AC13	A-AC14	A-AC15	A-AC16	A-DC1	A-DC2	A-DC3	A-DC4	A-DC5	A-DC6	A-DC7	A-DC8	A-DC9	A-DC10	A-DC11	A-DC12	A-DC13	A-DC14	A-DC15	A-DC16	A-Ph1	A-Ph2	A-Ph3	A-Ph4	A-Ph5	A-Ph6	A-Ph7	A-Ph8	A-Ph9	A-Ph10	A-Ph11	A-Ph12	A-Ph13	A-Ph14	A-Ph15	A-Ph16	B-AC1	B-AC2	B-AC3	B-AC4	B-AC5	B-AC6	B-AC7	B-AC8	B-AC9	B-AC10	B-AC11	B-AC12	B-AC13	B-AC14	B-AC15	B-AC16	B-DC1	B-DC2	B-DC3	B-DC4	B-DC5	B-DC6	B-DC7	B-DC8	B-DC9	B-DC10	B-DC11	B-DC12	B-DC13	B-DC14	B-DC15	B-DC16	B-Ph1	B-Ph2	B-Ph3	B-Ph4	B-Ph5	B-Ph6	B-Ph7	B-Ph8	B-Ph9	B-Ph10	B-Ph11	B-Ph12	B-Ph13	B-Ph14	B-Ph15	B-Ph16	aux-1	digaux	

42139.969	1	1	0	256	0.052903	0.079916	0.19922	0.085889	0.15865	0.20811	0.31454	0.12241	0.071484	0.21964	0.16543	0.24186	0.12442	0.27747	0.26963	0.19665	-2.2	-2.175	-2.625	-2.6229	-2.3063	-2.6729	-2.4938	-2.5375	-2.4313	-2.175	-2.675	-2.5271	-2.25	-2.7896	-2.3833	-2.4979	-4.961	0.551	-157.870	138.856	-36.201	-159.935	71.751	143.986	-76.757	179.117	20.679	-36.336	170.616	25.463	-130.660	-168.442	0.00020415	0.00037893	8.006e-05	1163.3	2.1874e-06	2.2591e-06	1243.5	242.48	3.1859e-06	4.8363e-06	303.77	81.717	64.318	19.123	3.0889e-06	26.757	0.00046387	0.00073839	0.00019675	1148.5	7.4005e-06	7.8189e-06	1228.2	240.62	7.4968e-06	8.1195e-06	302.54	82.379	65.203	19.331	7.8522e-06	27.118	-125.527	-98.568	-93.943	-167.140	-43.589	-34.088	-167.111	-159.995	-45.767	-8.863	-160.193	-153.310	-152.913	-145.248	-28.308	-146.144	-8191	255	
42140.066	1	1	0	0	0.24796	0.27947	0.33109	0.26207	0.15167	0.14003	0.24592	0.12362	0.086371	0.15903	0.079949	0.091832	0.039522	0.060043	0.1689	0.088148	-1.8875	-2.0667	-2.6688	-2.6479	-2.1125	-2.75	-2.5062	-2.6146	-2.5438	-2.3167	-2.7208	-2.3375	-2.2917	-2.7438	-2.3333	-2.4688	-82.408	1.216	100.875	129.646	68.365	3.328	93.355	172.567	41.218	182.169	22.906	-4.916	48.341	-96.296	-124.359	53.570	0.00021382	0.00045147	5.7098e-05	1169.8	2.0984e-06	2.7492e-06	1244.7	241.2	4.1771e-06	1.275e-06	304.67	81.89	64.624	19.133	2.7788e-06	26.779	0.00046387	0.00072942	0.00020447	1147.7	7.4418e-06	7.7818e-06	1229.7	240.29	7.3569e-06	8.1772e-06	302.7	82.422	65.256	19.276	7.7101e-06	27.084	-122.579	-75.907	-26.303	-167.058	-51.672	-60.063	-167.247	-159.840	-45.490	17.267	-159.833	-153.264	-152.781	-145.657	-8.363	-145.862	-8191	255	
42140.188	1	1	0	0	0.17219	0.11992	0.11442	0.22029	0.15687	0.15613	0.14883	0.21198	0.17302	0.1591	0.24205	0.067317	0.097443	0.13081	0.14411	0.14287	-2.0979	-2.2812	-2.6479	-2.6729	-2.1583	-2.6125	-2.675	-2.4167	-2.7375	-2.2458	-2.4979	-2.5021	-2.3646	-2.6375	-2.4125	-2.3854	-155.645	-55.639	124.782	153.595	114.888	157.546	149.826	-47.466	-36.337	66.260	-154.406	-85.838	-120.229	179.445	-89.156	174.371	0.00021261	0.00029088	7.465e-05	1163.7	4.6118e-06	3.0248e-06	1250.7	243.39	1.4758e-06	2.0613e-06	303.32	81.795	64.977	19.118	2.2291e-06	26.724	0.00047918	0.00072186	0.00019464	1147.2	7.7034e-06	8.174e-06	1232.3	240.75	7.3028e-06	8.3238e-06	302.46	82.513	65.281	19.301	7.3741e-06	27.121	-126.345	-101.551	4.465	-167.086	-12.861	-14.737	-167.336	-160.244	-62.423	-40.453	-160.131	-153.385	-152.782	-145.142	-28.230	-145.689	-8191	255	
42140.281	1	1	0	0	0.25547	0.19398	0.13007	0.38107	0.085276	0.27126	0.084272	0.165	0.23591	0.040716	0.12434	0.092725	0.049129	0.20763	0.069498	0.10345	-2.1896	-2.1604	-2.575	-2.8396	-2.3438	-2.6729	-2.5563	-2.4917	-2.7	-2.3229	-2.5729	-2.6167	-2.4021	-2.5625	-2.3812	-2.0667	-36.133	123.415	111.288	115.187	86.307	-82.905	60.691	-115.493	142.132	5.628	96.101	-114.646	87.975	-70.330	164.808	154.387	0.00023757	0.00039306	0.00013299	1163.1	2.9184e-06	3.3458e-06	1247.5	243.1	4.022e-06	2.4793e-06	304.98	81.433	64.087	19.107	1.8252e-06	26.725	0.00046462	0.0007302	0.00019593	1145.8	7.6095e-06	8.2497e-06	1230.6	240.9	7.4434e-06	8.0074e-06	302.64	82.2	65.159	19.273	7.3136e-06	27.083	-124.414	-145.823	-95.086	-167.203	-26.412	5.002	-167.152	-159.869	-52.916	5.466	-160.025	-153.165	-152.969	-145.519	-33.776	-146.157	-8191	255	
42140.379	1	1	0	0	0.13602	0.28882	0.1217	0.37645	0.12293	0.21136	0.31372	0.13133	0.16664	0.23897	0.18177	0.038294	0.18561	0.18589	0.35429	0.177	-2.2333	-2.2854	-2.3104	-2.7854	-2.3604	-2.5938	-2.65	-2.5125	-2.6521	-2.4917	-2.4521	-2.7146	-2.4292	-2.6979	-2.5396	-2.2521	-126.991	86.142	-105.679	159.550	149.097	114.538	81.940	91.858	88.268	164.911	-79.930	43.806	165.928	109.405	160.294	172.536	0.00021196	0.00046393	7.0968e-05	1164.5	2.2271e-06	2.2196e-06	1243.9	241.93	2.3737e-06	4.3402e-06	304.21	81.437	64.182	19.057	3.852e-06	26.924	0.00047574	0.00075727	0.00019854	1145.5	7.4425e-06	7.9791e-06	1227.7	240.12	7.4813e-06	7.868e-06	302.28	82.315	64.996	19.308	7.4324e-06	27.158	-122.167	-88.372	-82.499	-167.231	-66.844	7.282	-167.205	-159.927	-72.880	-59.967	-159.880	-153.201	-153.001	-145.640	15.922	-146.203	-8191	255	
42140.477	1	1	0	0	0.056635	0.16645	0.11672	0.29851	0.1626	0.19962	0.17409	0.33497	0.27061	0.11067	0.22729	0.1116	0.11424	0.11715	0.28829	0.16335	-2.0958	-2.6125	-2.3229	-2.6667	-2.3333	-2.7313	-2.8333	-2.3146	-2.5396	-2.4604	-2.4375	-2.8417	-2.3521	-2.4729	-2.5312	-2.2667	42.863	112.404	145.974	151.094	-66.370	103.048	104.758	139.119	76.464	-110.961	-69.264	-71.768	-1.003	-29.532	43.971	-95.975	0.00021485	0.00043575	0.00013593	1166.6	2.7187e-06	5.0767e-06	1251	242.23	3.3021e-06	2.23e-06	304.41	81.731	64.857	19.129	3.3683e-06	26.617	0.0004805	0.00069714	0.00019633	1146.1	7.531e-06	8.1523e-06	1229.2	240.5	7.4961e-06	8.1315e-06	302.38	82.551	65.193	19.285	7.2495e-06	27.07	-123.714	-73.027	-78.701	-167.158	-41.754	19.300	-167.382	-159.600	-65.494	-27.447	-160.134	-153.947	-153.047	-145.389	-3.556	-145.938	-8191	255	
42140.570	1	1	0	0	0.054626	0.023292	0.068089	0.29841	0.18728	0.35609	0.23397	0.23594	0.2935	0.26618	0.17985	0.091864	0.19791	0.17498	0.10835	0.058462	-2.3708	-2.4979	-2.4062	-3.0083	-2.4979	-2.5042	-2.7333	-2.2062	-2.7771	-2.6063	-2.3917	-2.775	-2.525	-2.4542	-2.7708	-2.4729	122.844	-25.344	-4.003	113.060	106.183	-145.205	127.247	112.920	117.971	99.821	159.661	-51.700	-140.558	54.466	32.855	91.895	0.00019984	0.00023452	9.1119e-05	1170.7	1.887e-06	2.6438e-06	1246	241.91	3.0182e-06	5.4006e-06	302.33	81.538	64.82	19.151	3.5025e-06	26.543	0.00046393	0.00069223	0.00020079	1147.3	7.4738e-06	7.7802e-06	1230.2	240.03	7.4153e-06	7.9609e-06	302.38	82.447	65.281	19.302	7.1919e-06	27.043	-129.402	-131.263	-90.261	-167.171	-42.101	-42.479	-167.265	-159.964	-43.389	-21.371	-159.984	-153.517	-152.702	-145.269	-42.640	-146.243	-8191	255	
42140.668	1	1	0	0	0.086401	0.12384	0.12423	0.34038	0.22033	0.033302	0.26315	0.1196	0.24535	0.12616	0.073792	0.10362	0.2567	0.32392	0.044608	0.24019	-2.2646	-2.5667	-2.3146	-2.8063	-2.4792	-2.4792	-2.6875	-2.2625	-2.5271	-2.4521	-2.3187	-2.5708	-2.4875	-2.5104	-2.6312	-2.3375	50.045	74.815	-50.340	161.570	-65.377	-33.407	150.812	-158.308	-3.755	153.393	155.339	-138.115	82.623	-145.652	-29.880	179.477	0.0002254	0.00028961	5.7102e-05	1171.1	4.2807e-06	2.8009e-06	1247	242.94	3.5602e-06	9.365e-07	302.54	81.859	65.378	19.084	1.3592e-06	26.623	0.00047319	0.00071973	0.0001982	1148.7	7.4937e-06	8.0234e-06	1229.6	240.55	7.6718e-06	7.9625e-06	301.97	82.449	65.448	19.286	7.3282e-06	27.125	-123.764	-85.788	-70.002	-167.159	-24.655	-6.375	-167.313	-159.600	-66.288	14.418	-160.186	-153.514	-153.203	-145.633	-16.383	-146.280	-8191	255	
42140.762	1	1	0	0	0.11137	0.16437	0.067002	0.29663	0.20223	0.19984	0.3037	0.20457	0.057616	0.11903	0.31373	0.11158	0.080156	0.12808	0.070993	0.1969	-2.0792	-2.5771	-2.2958	-2.7562	-2.6188	-2.5062	-2.9896	-2.375	-2.6979	-2.6708	-2.5083	-2.8146	-2.4437	-2.3646	-2.7542	-2.575	134.983	-130.374	54.585	129.331	-93.993	-60.746	146.294	123.007	8.136	64.228	149.429	-157.677	166.022	22.337	110.976	-108.356	0.00021626	0.00014391	0.00012025	1167.4	3.7828e-06	1.6859e-06	1248.8	242.1	1.9451e-06	3.1923e-06	304.15	81.877	64.636	19.122	2.1191e-06	26.952	0.00047911	0.00069486	0.00019593	1148.3	7.3034e-06	7.9139e-06	1230.7	240.58	7.5066e-06	7.8304e-06	302.62	82.565	65.23	19.348	7.1657e-06	27.178	-128.010	-91.612	-87.359	-167.181	-27.345	-19.056	-167.298	-159.896	-35.178	-59.789	-159.826	-153.610	-153.283	-145.311	-35.122	-145.762	-8191	255	
42140.859	1	1	0	0	0.11535	0.20831	0.22789	0.1674	0.16222	0.030561	0.14651	0.1268	0.1836	0.15506	0.22495	0.11709	0.20735	0.045968	0.16859	0.096023	-2.0062	-2.5187	-2.2542	-2.7167	-2.7792	-2.3854	-2.9313	-2.5146	-2.4917	-2.6917	-2.5521	-2.6937	-2.5187	-2.3292	-2.6833	-2.5417	14.705	-66.173	8.742	152.607	60.775	-60.372	168.017	-43.391	35.535	0.712	163.817	114.383	-165.368	-31.080	-94.779	-67.699	0.0002208	0.00038029	2.7771e-05	1165.3	3.6243e-06	3.0055e-06	1250.4	241.64	2.3901e-06	3.7324e-06	300.59	81.993	64.795	19.102	3.8511e-06	26.686	0.00046676	0.00069907	0.00020314	1146.5	7.4431e-06	8.4156e-06	1231	240.37	7.5903e-06	7.9753e-06	301.7	82.672	65.276	19.292	7.3588e-06	27.159	-120.859	-78.627	-114.475	-167.292	-27.888	-42.125	-167.233	-159.821	-59.832	-39.547	-160.150	-153.333	-153.162	-145.592	-41.382	-145.961	-8191	255	
42140.977	1	1	0	0	0.051584	0.17692	0.18408	0.12052	0.07517	0.12609	0.21944	0.32263	0.27586	0.29812	0.041804	0.18746	0.16914	0.075148	0.32065	0.088498	-2.0271	-2.7125	-2.3563	-2.825	-2.6896	-2.4688	-2.8479	-2.45	-2.4688	-2.725	-2.3396	-2.4833	-2.6437	-2.2938	-2.6375	-2.5062	-72.498	-139.199	36.982	115.568	176.706	-133.040	18.338	147.042	174.365	-150.406	51.732	-168.579	-158.441	151.583	-71.326	93.473	0.00022894	0.0002388	7.3635e-05	1165.9	3.22e-06	2.1142e-06	1249	242.71	1.8067e-06	4.6472e-06	304.17	81.293	64.673	19.087	5.2803e-06	26.672	0.00045904	0.00071973	0.00020248	1147.2	7.3679e-06	7.9582e-06	1230.5	240.65	7.4595e-06	7.8376e-06	302.52	82.445	65.474	19.374	7.31e-06	27.185	-119.285	-99.908	-61.811	-167.126	-47.655	-6.016	-167.371	-160.091	-96.248	-23.780	-160.325	-153.625	-153.123	-145.555	-42.342	-146.254	-8191	255	
42141.074	1	1	0	0	0.15631	0.10709	0.061151	0.24641	0.086848	0.18048	0.25276	0.092269	0.25873	0.19091	0.17324	0.22603	0.18272	0.23876	0.26888	0.087498	-1.9375	-2.9083	-2.3646	-2.7562	-2.7125	-2.3292	-2.8125	-2.6312	-2.425	-2.5542	-2.4688	-2.6021	-2.5708	-2.4021	-2.7562	-2.6729	-129.984	56.936	29.470	141.577	96.679	-8.051	130.249	42.009	89.064	175.893	56.950	162.177	-30.233	-159.180	-150.434	178.132	0.00021142	0.00032907	6.9233e-05	1170	3.6463e-06	3.4371e-06	1254.5	241.96	2.3212e-06	2.8205e-06	304.01	81.821	64.375	19.041	2.6083e-06	26.695	0.00047377	0.00068831	0.00020346	1149.7	7.4531e-06	8.0726e-06	1232.2	240.63	7.7618e-06	7.7062e-06	302.75	82.42	65.218	19.328	7.4951e-06	27.123	-121.957	-94.646	-123.914	-167.208	-45.657	-1.237	-166.988	-159.861	-55.319	-38.289	-160.015	-153.476	-153.085	-145.413	-19.122	-146.099	-8191	255	
42141.145	1	1	0	0	0.22216	0.11839	0.20358	0.42564	0.14215	0.12257	0.15989	0.30391	0.12974	0.12798	0.078816	0.38461	0.07661	0.21394	0.1335	0.12726	-1.8729	-2.6958	-2.3208	-2.6604	-2.7417	-2.3542	-2.8417	-2.6458	-2.1917	-2.8521	-2.5667	-2.3833	-2.7687	-2.4	-2.7438	-2.7125	-39.061	-51.414	-53.480	165.796	110.669	-83.398	148.978	126.426	167.466	-110.379	86.036	-138.341	30.543	120.655	-48.291	-98.768	0.00022797	0.00023539	0.00013468	1170.6	3.0201e-06	6.4792e-06	1249.3	240.85	1.8053e-06	4.4467e-06	303.88	82.216	64.975	19.09	9.649e-07	26.594	0.00048727	0.00071617	0.00019898	1148.5	7.2168e-06	8.1491e-06	1230.6	240.4	7.501e-06	8.1788e-06	302.56	82.675	65.213	19.303	7.2641e-06	27.105	-124.792	-101.779	-100.861	-167.153	-24.201	-8.985	-167.038	-159.593	-13.607	-27.182	-160.226	-153.257	-152.731	-145.672	-45.924	-146.231	-8191	255	
42141.266	1	1	0	0	0.1514	0.036684	0.14887	0.18271	0.28554	0.046618	0.23714	0.27975	0.39606	0.1046	0.17423	0.20484	0.14307	0.2689	0.15864	0.05838	-1.8229	-2.8187	-2.5042	-2.5875	-2.5396	-2.3833	-2.8042	-2.6646	-2.2313	-2.8354	-2.3937	-2.3083	-2.5958	-2.4646	-2.6188	-2.6604	51.300	34.008	-47.341	-176.105	136.271	64.907	76.695	146.073	-2.793	-7.472	153.845	158.015	47.297	174.505	-176.048	64.728	0.00022249	0.00054705	6.5862e-05	1171.6	3.4774e-06	1.6333e-06	1252.2	242.16	3.0382e-06	2.2394e-06	303.55	81.875	65.275	19.033	2.6627e-06	26.619	0.00046655	0.00071844	0.00020141	1148.7	7.4498e-06	7.86e-06	1231.2	240.44	7.4209e-06	7.3578e-06	302.49	82.455	65.415	19.297	7.4273e-06	27.059	-119.688	-78.877	-151.035	-167.167	-46.539	6.066	-167.024	-159.855	-70.455	-62.699	-160.272	-153.409	-153.220	-145.544	-10.570	-146.180	-8191	255	
42141.363	1	1	0	0	0.076426	0.23901	0.1212	0.25715	0.25326	0.12031	0.29587	0.21795	0.11267	0.21846	0.19545	0.19236	0.30175	0.1653	0.17781	0.11101	-1.9021	-2.6583	-2.4375	-2.4792	-2.9021	-2.4208	-2.6562	-2.8042	-2.375	-2.6458	-2.6437	-2.5208	-2.7438	-2.3792	-2.3646	-2.7458	-118.344	-94.975	92.850	160.362	-15.840	162.250	159.287	150.958	8.569	-112.387	84.110	71.349	-166.214	5.176	-0.287	-41.653	0.00020695	0.00042376	7.7007e-05	1171.1	3.3612e-06	3.5364e-06	1249.2	241.25	2.6742e-06	4.0626e-06	302.17	81.728	64.485	19.189	2.8764e-06	26.775	0.00046577	0.00071282	0.00019858	1148.8	7.2628e-06	7.6554e-06	1231.6	240.33	7.385e-06	7.9657e-06	302.18	82.559	65.121	19.303	7.361e-06	27.164	-126.298	-84.449	-77.926	-167.196	-71.828	-5.641	-167.398	-159.936	-54.704	-24.483	-160.035	-153.309	-153.152	-145.594	-38.915	-146.309	-8191	255	
42141.461	1	1	0	0	0.016679	0.10487	0.24266	0.29074	0.12876	0.41625	0.043132	0.24836	0.053859	0.083087	0.12469	0.10758	0.065951	0.26458	0.15098	0.039244	-1.8417	-2.6312	-2.5917	-2.5021	-2.8333	-2.3875	-2.7229	-2.7458	-2.375	-2.525	-2.6875	-2.3292	-2.7771	-2.5875	-2.5271	-2.6937	85.281	-11.253	115.313	-170.957	171.482	-150.352	64.848	-88.298	-126.005	-27.003	-30.842	-108.520	5.583	160.770	134.327	-79.217	0.00022317	0.00027561	0.00011276	1169.4	2.1568e-06	2.5559e-06	1249.2	241.64	2.7725e-06	4.4029e-06	304.08	81.722	64.649	19.095	2.9775e-06	26.707	0.00046979	0.00070975	0.00019233	1147.8	7.3107e-06	7.959e-06	1230.9	240.46	7.3302e-06	7.7406e-06	302.1	82.278	65.259	19.344	7.3785e-06	27.099	-129.781	-86.481	-117.741	-167.276	-14.907	-28.849	-167.252	-159.831	-21.983	-33.654	-159.943	-153.092	-153.090	-145.584	1.867	-146.188	-8191	255	
42141.578	1	1	0	0	0.075908	0.057318	0.022698	0.22809	0.079362	0.16112	0.35681	0.03453	0.20616	0.070453	0.1466	0.13045	0.48793	0.3462	0.20205	0.22203	-1.9021	-2.4583	-2.6083	-2.2771	-2.6271	-2.4854	-2.4854	-2.8229	-2.3917	-2.6292	-2.65	-2.2354	-2.5583	-2.5083	-2.35	-2.6396	-65.920	147.710	111.635	156.310	-99.352	70.278	125.752	-86.623	137.364	-78.736	48.558	129.367	179.394	37.006	-107.373	182.066	0.00022128	0.00043952	7.4372e-05	1169.2	3.1041e-06	3.1212e-06	1246.9	242.37	2.854e-06	3.438e-06	303.05	81.25	64.936	19.105	2.7009e-06	26.733	0.00048115	0.00067413	0.00019105	1145.7	7.0718e-06	7.7585e-06	1230.3	240.65	7.4223e-06	7.7759e-06	302.02	82.281	65.346	19.302	7.3756e-06	27.092	-125.058	-79.381	-106.622	-167.301	-27.022	-8.566	-167.137	-159.924	-40.668	-17.496	-159.872	-153.197	-153.495	-145.678	-22.080	-145.748	-8191	255	
42141.676	1	1	0	0	0.23764	0.08066	0.15879	0.29611	0.1261	0.16736	0.047734	0.28174	0.043674	0.10051	0.064559	0.011744	0.20722	0.099204	0.14652	0.019276	-1.9937	-2.4813	-2.7812	-2.4688	-2.4604	-2.5354	-2.6375	-2.8979	-2.4062	-2.4938	-2.7438	-2.3583	-2.5938	-2.4354	-2.1688	-2.6333	62.547	-36.230	45.977	108.116	-126.561	70.920	140.487	60.326	-62.065	-73.610	-43.363	-164.720	-168.444	83.141	-46.224	78.369	0.00021383	0.00027789	0.0001038	1164.6	1.8304e-06	3.9064e-06	1246.4	242.17	3.2268e-06	3.0661e-06	303	81.652	64.411	19.125	2.8972e-06	26.707	0.00047795	0.0006876	0.00019778	1146.5	7.3107e-06	7.5934e-06	1229.5	240.26	7.6184e-06	7.8848e-06	302.38	82.604	65.015	19.338	7.4754e-06	27.091	-119.774	-104.400	-63.346	-167.159	-38.516	-32.923	-167.288	-159.469	-32.235	-26.450	-160.072	-153.254	-153.285	-145.186	-28.359	-145.269	-8191	255	
42141.770	1	1	0	0	0.19744	0.11691	0.1476	0.25062	0.095482	0.24337	0.36425	0.2157	0.072049	0.051776	0.13593	0.11438	0.12137	0.15883	0.12647	0.14024	-1.9104	-2.4708	-2.6	-2.5125	-2.4583	-2.7271	-2.4271	-2.875	-2.5	-2.3375	-2.7354	-2.5917	-2.5917	-2.625	-2.225	-2.7042	63.545	178.784	-105.273	177.032	45.987	-157.443	109.461	167.038	-161.649	175.986	37.481	-161.505	-30.817	-155.733	-177.408	-145.286	0.00022353	0.00042492	0.00011667	1165.9	2.1129e-06	3.8413e-06	1246.6	241.11	3.6015e-06	1.6876e-06	303.15	81.156	64.886	19.216	2.0224e-06	26.822	0.0004588	0.00068233	0.00019733	1146.6	7.141e-06	7.5177e-06	1229.9	240.55	7.1074e-06	7.832e-06	302.04	82.298	65.196	19.373	7.2386e-06	27.092	-126.241	-85.191	-73.643	-167.090	-57.556	12.444	-167.192	-159.941	-61.079	-127.133	-159.908	-153.658	-153.276	-145.524	-23.952	-146.208	-8191	255	
42141.867	1	1	0	0	0.20194	0.18342	0.15768	0.32912	0.11265	0.27972	0.22382	0.073303	0.19246	0.264	0.10872	0.23386	0.19524	0.038074	0.11659	0.23611	-2.1104	-2.4229	-2.6625	-2.55	-2.5604	-2.5875	-2.4208	-2.7583	-2.4979	-2.5583	-2.8875	-2.6021	-2.7125	-2.7333	-2.3	-2.8417	-33.615	76.784	-38.091	172.495	28.753	-132.987	123.338	-129.988	157.295	-69.960	-166.716	66.296	-97.659	-106.630	-136.706	-132.430	0.00022302	0.0002313	9.7321e-05	1168.8	2.6634e-06	3.6291e-06	1248	240.79	2.436e-06	2.1518e-06	305.21	81.96	64.42	19.089	5.286e-06	26.725	0.00046836	0.00070135	0.00019275	1148.2	7.1337e-06	7.8116e-06	1230.3	239.82	7.2051e-06	7.9986e-06	303.51	82.438	65.184	19.256	7.3034e-06	27.131	-120.784	-64.106	-50.461	-167.164	-4.546	-56.475	-167.116	-159.765	-34.286	-5.520	-159.929	-153.616	-152.857	-145.276	-51.400	-146.330	-8191	255	
42141.965	1	1	0	0	0.049929	0.30523	0.27305	0.48923	0.25283	0.055654	0.031808	0.32014	0.15716	0.2429	0.11152	0.25895	0.18802	0.247	0.22873	0.14568	-2.1542	-2.3917	-2.8042	-2.5854	-2.6	-2.6437	-2.4708	-2.8167	-2.6375	-2.2708	-2.6479	-2.55	-2.5812	-2.6958	-2.2146	-2.5938	47.594	-120.979	-66.180	129.909	-114.099	-56.120	-25.568	93.029	34.017	-75.013	-146.134	135.997	52.508	-132.477	-132.003	150.382	0.00021755	0.00050815	9.3152e-05	1166.7	2.7555e-06	3.9876e-06	1242	242.17	4.6081e-06	2.5609e-06	301.48	82.072	65.071	19.123	1.5102e-06	26.715	0.00046557	0.00071381	0.00019223	1146	7.1004e-06	7.9695e-06	1228.9	240.28	7.0505e-06	7.8824e-06	301.95	82.428	65.25	19.278	7.4215e-06	27.059	-125.102	-91.516	-130.706	-167.279	-8.927	-5.279	-167.256	-159.786	-56.988	-77.167	-159.868	-153.583	-152.865	-145.388	-55.668	-145.762	-8191	255	
42142.059	1	1	0	0	0.27638	0.025211	0.10916	0.202	0.1901	0.22406	0.16108	0.028456	0.082915	0.07476	0.067465	0.15435	0.23327	0.18627	0.31928	0.24577	-2.2708	-2.2854	-2.6521	-2.5187	-2.3979	-2.6396	-2.4688	-2.7021	-2.6104	-2.4125	-2.75	-2.6333	-2.3917	-2.8563	-2.5646	-2.6667	-113.995	-141.862	177.773	-83.127	85.203	-55.788	152.771	-91.405	0.729	96.097	113.800	159.910	96.685	-44.624	-116.843	-88.724	0.00022035	0.00029483	8.579e-05	1167.7	3.2229e-06	2.9719e-06	1252	241.48	1.7983e-06	3.2267e-06	303.69	82.334	64.36	19.041	1.9622e-06	26.658	0.00046019	0.00074202	0.00019289	1147.8	7.5443e-06	7.9993e-06	1231	240.74	7.2107e-06	7.8896e-06	302.53	82.542	65.259	19.3	7.7597e-06	27.096	-121.872	-75.097	-65.216	-167.211	-25.229	-45.411	-167.331	-159.999	-63.193	-32.469	-160.058	-153.337	-152.706	-145.752	-69.299	-146.117	-8191	255	
42142.156	1	1	0	0	0.096276	0.28163	0.043452	0.032496	0.32446	0.072813	0.031373	0.11837	0.074393	0.17616	0.30343	0.15376	0.20527	0.16676	0.21963	0.19211	-2.2521	-2.2625	-2.675	-2.4521	-2.3708	-2.85	-2.55	-2.4854	-2.75	-2.5187	-2.5375	-2.6042	-2.5458	-2.7208	-2.375	-2.4771	55.337	147.728	-124.305	4.997	179.387	153.867	-123.543	-46.877	-175.247	87.363	65.712	60.556	158.141	98.016	178.296	-3.599	0.00022883	0.00033494	0.00010337	1171.3	2.7588e-06	1.5689e-06	1244.8	241.98	2.7196e-06	3.1025e-06	305.27	82.03	64.877	19.234	3.8771e-06	26.841	0.00048874	0.00074074	0.0002026	1147.5	7.6481e-06	8.3488e-06	1229.5	240.69	7.8749e-06	8.5673e-06	303.61	82.532	65.579	19.426	7.6518e-06	27.17	-128.501	-96.936	-55.420	-167.316	-55.528	0.438	-167.174	-159.950	-35.765	-13.070	-160.128	-153.328	-152.931	-145.639	-22.713	-145.995	-8191	255	
42142.277	1	1	0	0	0.16927	0.074839	0.16238	0.22833	0.16053	0.25469	0.2652	0.058017	0.24884	0.15738	0.18835	0.091165	0.10138	0.185	0.16157	0.063962	-2.3688	-2.4437	-2.7104	-2.6396	-2.1708	-2.5833	-2.5104	-2.4917	-2.6937	-2.5104	-2.6021	-2.6667	-2.3312	-2.8333	-2.4437	-2.4646	70.342	179.054	-51.809	-174.860	140.343	-16.450	22.536	-159.897	-150.490	96.822	160.113	119.262	-152.216	-148.234	80.067	140.287	0.00020394	0.00022437	0.00012129	1173.6	1.2709e-06	3.5185e-06	1249.1	243.79	3.3643e-06	2.6051e-06	304.99	82.141	65.277	19.072	2.4561e-06	26.729	0.00046625	0.0007733	0.00019916	1151.4	7.8605e-06	8.5292e-06	1233.8	242.33	7.6331e-06	7.8496e-06	303.94	82.677	65.656	19.41	7.7706e-06	27.165	-124.380	-56.621	-56.888	-167.369	-89.772	-55.391	-167.314	-160.141	-45.999	-9.716	-159.856	-153.203	-153.216	-145.578	-78.401	-146.133	-8191	255	
42142.371	1	1	0	0	0.21671	0.22257	0.078472	0.2073	0.19703	0.078746	0.20442	0.16344	0.21577	0.17594	0.095472	0.42668	0.22152	0.24951	0.18898	0.1926	-2.2271	-2.2854	-2.5167	-2.8104	-2.2208	-2.6646	-2.6083	-2.3396	-2.45	-2.4	-2.5687	-2.3958	-2.2667	-2.7771	-2.4833	-2.5042	-110.409	102.408	-26.558	118.082	-150.880	11.729	-177.304	70.116	22.024	58.217	-162.063	-144.521	90.011	154.051	-76.968	171.672	0.0002053	0.00023181	0.00014193	1169.1	2.9703e-06	4.1362e-06	1252.4	242.91	2.4921e-06	3.619e-06	304.76	81.898	65.27	19.276	1.9737e-06	26.985	0.00048346	0.00073027	0.00020951	1150.7	7.7227e-06	8.0613e-06	1235.4	241.96	7.6844e-06	8.0378e-06	304.09	82.85	65.677	19.412	7.7662e-06	27.244	-126.225	-104.504	-83.747	-167.164	-67.136	-23.890	-167.306	-159.779	-30.100	-51.221	-160.092	-153.500	-153.290	-145.563	-26.811	-145.977	-8191	255	
42142.441	1	1	0	0	0.21808	0.10215	0.159	0.25337	0.048668	0.026743	0.2841	0.15362	0.13096	0.308	0.046621	0.058419	0.071724	0.31914	0.081249	0.1008	-2.2625	-2.4729	-2.4667	-2.8875	-2.2958	-2.6312	-2.7042	-2.3417	-2.6021	-2.5375	-2.4521	-2.9229	-2.4229	-2.5125	-2.5	-2.2396	48.704	-82.942	111.367	129.535	53.450	-153.807	31.897	122.005	-100.396	-174.116	-15.184	-106.300	64.444	-32.313	-0.848	24.195	0.00021604	0.0003597	9.416e-05	1170.7	2.9468e-06	3.1605e-06	1253.8	244.25	3.7154e-06	2.4476e-06	305.25	82.468	64.924	19.088	3.1492e-06	26.832	0.00049503	0.00073739	0.00021212	1149.9	7.8345e-06	8.3625e-06	1235.8	242.62	7.7168e-06	8.2901e-06	304.18	83.074	65.663	19.455	7.9725e-06	27.265	-119.602	-80.598	-88.901	-167.103	-23.216	-29.198	-167.160	-159.989	-58.338	-23.463	-159.675	-153.319	-153.095	-145.531	-43.404	-146.019	-8191	255	
42142.539	1	1	0	0	0.2294	0.1704	0.040053	0.26826	0.093106	0.050779	0.24452	0.10119	0.19835	0.094925	0.11988	0.13739	0.02075	0.16074	0.086559	0.18577	-2.1646	-2.3563	-2.4646	-2.6917	-2.2875	-2.7042	-2.7146	-2.2896	-2.7917	-2.5729	-2.4562	-2.7021	-2.3417	-2.5708	-2.6542	-2.3854	-150.664	46.360	-15.477	78.192	29.922	62.023	132.915	-16.491	51.788	166.230	31.039	166.771	166.736	-176.184	140.459	85.962	0.00019688	0.00028615	0.00013823	1173.2	2.7038e-06	2.5863e-06	1254.5	244.66	2.3474e-06	2.2535e-06	306.28	82.42	65.568	19.317	2.0338e-06	26.646	0.0004971	0.00074195	0.00021309	1152.6	7.4398e-06	8.0565e-06	1237	242.84	7.8166e-06	8.3398e-06	304.63	83.113	65.789	19.532	7.8741e-06	27.225	-122.142	-72.268	-109.392	-167.118	-53.126	-46.735	-167.099	-160.014	-20.037	-55.817	-160.084	-153.385	-153.161	-145.348	16.677	-145.938	-8191	255	
42142.660	1	1	0	0	0.28262	0.2217	0.10608	0.55194	0.077442	0.17969	0.345	0.2172	0.32628	0.05693	0.28652	0.20582	0.27795	0.13877	0.30639	0.22919	-2.0521	-2.4042	-2.3167	-2.9	-2.4125	-2.5729	-2.7417	-2.3875	-2.5792	-2.6125	-2.3063	-2.7313	-2.5271	-2.5542	-2.7	-2.4458	168.985	0.192	-75.229	138.681	-13.703	83.578	170.365	148.847	-65.894	-24.173	150.920	-30.259	103.795	73.858	20.496	94.048	0.00022763	0.00024034	9.9952e-05	1173.6	4.7998e-06	3.3365e-06	1255.6	242.82	2.4436e-06	3.112e-06	308.23	82.454	65.385	19.342	3.3264e-06	27.123	0.00049782	0.00075656	0.00022144	1153.6	7.9883e-06	8.7877e-06	1241.4	243.14	8.0619e-06	8.7827e-06	306.34	83.279	65.911	19.571	8.3296e-06	27.44	-119.734	-118.795	-110.803	-167.433	-45.537	-72.733	-167.357	-160.189	-38.043	-36.929	-160.433	-153.518	-152.948	-145.622	-30.723	-146.497	-8191	255	
42142.754	1	1	0	0	0.087825	0.22762	0.19407	0.38884	0.1608	0.11476	0.05577	0.21796	0.19883	0.052353	0.090192	0.067592	0.16049	0.063654	0.27698	0.15137	-2.1083	-2.5042	-2.4667	-2.9729	-2.4854	-2.4792	-2.8812	-2.3667	-2.6146	-2.6771	-2.475	-2.6458	-2.3646	-2.2875	-2.6708	-2.2562	-5.980	-112.312	10.150	139.779	-134.551	11.911	153.021	98.027	27.927	-33.384	178.679	140.768	-40.540	-114.874	143.808	-150.644	0.00020023	0.00038791	7.2632e-05	1181.2	1.4494e-06	3.987e-06	1260.3	244.97	3.8611e-06	3.9873e-06	307.2	82.507	65.221	19.423	2.7812e-06	26.824	0.00050292	0.00079909	0.00021889	1158.1	7.8392e-06	8.8416e-06	1241.1	243.75	8.1139e-06	8.7699e-06	306.53	83.417	66.133	19.624	8.0453e-06	27.381	-126.606	-72.256	-52.343	-167.256	-14.938	-26.097	-167.343	-159.836	-48.995	-22.997	-159.935	-153.406	-153.552	-145.587	-26.647	-146.025	-8191	255	
42142.852	1	1	0	0	0.13202	0.29394	0.15459	0.11818	0.076915	0.30031	0.21516	0.25267	0.074058	0.15319	0.13321	0.088141	0.18919	0.22126	0.10063	0.33779	-1.9458	-2.5771	-2.3125	-2.5667	-2.4292	-2.3604	-2.5896	-2.3187	-2.4458	-2.7396	-2.3688	-2.6542	-2.5958	-2.4313	-2.7833	-2.3167	40.702	44.555	140.947	-124.068	162.425	110.469	129.428	42.549	36.486	43.027	86.383	86.131	91.454	143.351	93.641	128.022	0.000217	0.00034915	7.9598e-05	1178.2	1.9492e-06	4.8471e-06	1256.3	246.26	3.1519e-06	4.9279e-06	305.97	82.763	65.379	19.465	2.9941e-06	27.141	0.00051605	0.00079018	0.00021457	1158	7.9583e-06	8.6919e-06	1240.9	244.37	8.0289e-06	8.669e-06	305.9	83.557	65.964	19.635	8.3923e-06	27.442	-131.460	-49.522	-101.544	-167.395	11.915	-35.724	-167.369	-159.846	-31.298	2.900	-160.418	-153.232	-153.243	-145.296	-50.973	-145.971	-8191	255	
42142.949	1	1	0	0	0.45411	0.1594	0.14445	0.39063	0.22874	0.14053	0.38955	0.25538	0.38706	0.08721	0.24081	0.2049	0.16405	0.041076	0.18494	0.27781	-2.1625	-2.5917	-2.0896	-2.5583	-2.6042	-2.4708	-3.0167	-2.4	-2.3812	-2.5604	-2.3583	-2.6646	-2.55	-2.3708	-2.7542	-2.5292	-28.901	-151.592	-109.386	-144.793	157.700	156.299	123.495	181.935	-114.131	-45.252	128.647	50.846	-173.570	-9.127	85.820	-36.994	0.0002162	0.00049443	6.0798e-05	1181.1	2.7182e-06	2.8808e-06	1259.7	246.19	1.9978e-06	2.2535e-06	306.88	82.763	65.112	19.362	1.6722e-06	26.953	0.000495	0.00078975	0.00021232	1158.8	8.0328e-06	8.7072e-06	1242.4	244.56	8.1512e-06	8.4759e-06	306.3	83.689	66.049	19.6	8.1088e-06	27.432	-123.361	-82.441	-96.457	-167.277	-28.055	-4.894	-167.183	-159.831	-51.561	-14.931	-160.017	-153.837	-153.493	-145.918	-32.460	-146.272	-8191	255	
42143.066	1	1	0	0	0.17556	0.21567	0.13989	0.17738	0.26503	0.082625	0.1256	0.28065	0.30072	0.3313	0.15508	0.16559	0.21434	0.11	0.0073062	0.24886	-1.9688	-2.4688	-2.1979	-2.7	-2.5021	-2.2625	-2.8833	-2.4062	-2.4083	-2.6958	-2.4958	-2.5625	-2.4854	-2.1333	-2.6354	-2.4604	29.072	41.224	-6.190	-175.116	-94.747	-3.550	170.294	153.906	-40.784	-57.256	-50.967	176.820	18.245	-83.561	93.439	79.018	0.00024433	0.00023366	0.0001155	1179.9	3.9345e-06	4.4178e-06	1263.7	245.22	1.327e-06	3.1216e-06	308.21	83.561	65.561	19.573	1.2984e-06	26.952	0.00050697	0.00077679	0.00021982	1159.1	8.16e-06	8.9576e-06	1246	244.46	8.2552e-06	8.878e-06	306.54	83.944	66.317	19.714	7.9317e-06	27.462	-125.131	-82.825	-92.067	-167.353	-51.069	-26.271	-167.120	-159.977	-51.491	-22.000	-159.961	-153.423	-153.400	-145.917	52.362	-146.398	-8191	255	
42143.141	1	1	0	0	0.044212	0.23743	0.088478	0.12512	0.21822	0.13069	0.069	0.022042	0.15226	0.085797	0.11541	0.046184	0.12875	0.20539	0.085452	0.13989	-2.0167	-2.4792	-2.4625	-2.6417	-2.6583	-2.4479	-2.8958	-2.6292	-2.575	-2.6354	-2.5229	-2.4104	-2.7271	-2.3063	-2.775	-2.6063	1.505	1.032	-162.033	41.413	123.310	100.524	115.545	-77.192	-20.407	64.668	-97.321	114.810	111.238	-26.454	170.162	-108.143	0.0002518	0.00035148	0.0001593	1179.9	1.4322e-06	2.7803e-06	1267.7	247.06	2.3506e-06	3.1065e-06	307.59	83.103	65.458	19.424	1.7165e-06	27.259	0.00052058	0.00080336	0.00021943	1159.6	8.2072e-06	9.0792e-06	1245.4	245.46	8.523e-06	8.6658e-06	306.64	84.048	66.274	19.737	7.8041e-06	27.559	-128.465	-100.835	-84.917	-167.183	-29.058	-0.805	-167.294	-159.960	-23.850	25.069	-160.050	-153.510	-153.636	-145.892	29.671	-146.522	-8191	255	
42143.262	1	1	0	0	0.16506	0.14191	0.28747	0.14216	0.34954	0.062026	0.14588	0.18188	0.084373	0.17514	0.15521	0.036187	0.082505	0.16214	0.081618	0.1405	-1.6167	-2.6229	-2.3208	-2.5646	-2.5375	-2.475	-2.7562	-2.5854	-2.2042	-2.5167	-2.4229	-2.4917	-2.6104	-2.3021	-2.5062	-2.6896	-56.729	-73.451	-24.834	139.337	8.663	-74.069	79.057	16.927	180.390	29.602	-135.054	25.554	-55.650	125.656	-157.085	-112.107	0.00021168	0.0004227	5.3377e-05	1180.7	3.5588e-06	3.2492e-06	1263.2	245.38	4.6166e-06	3.0086e-06	308	83.432	65.864	19.389	3.0531e-06	27.056	0.00051813	0.0007988	0.00022398	1161.3	8.1147e-06	9.2862e-06	1247.6	245.08	8.5469e-06	8.8164e-06	307.31	84.193	66.482	19.743	8.5067e-06	27.544	-126.028	-98.669	-98.721	-167.263	-43.531	-37.531	-167.132	-160.031	-57.963	-0.379	-160.247	-153.627	-153.416	-145.955	-45.419	-146.129	-8191	255	
42143.355	1	1	0	0	0.1761	0.2228	0.09483	0.31167	0.071513	0.010234	0.097558	0.15075	0.22978	0.24323	0.13102	0.27925	0.12794	0.14383	0.18388	0.15498	-1.7208	-2.6229	-2.5021	-2.4667	-2.4875	-2.3458	-2.5625	-2.6229	-2.2583	-2.7917	-2.6729	-2.3708	-2.6979	-2.3917	-2.5375	-2.6729	-161.352	-13.283	1.070	156.193	96.204	32.326	106.601	166.099	-137.104	-86.999	-11.529	180.830	33.430	153.617	86.971	125.090	0.0002422	0.00039693	4.7159e-05	1179.7	1.8483e-06	1.1929e-06	1263.7	245.71	2.1515e-06	3.1281e-06	310.82	82.884	65.9	19.494	1.4602e-06	27.164	0.00052463	0.00077608	0.00023342	1161.7	7.9117e-06	8.6194e-06	1247.6	245.17	8.8477e-06	8.4743e-06	308.44	83.992	66.676	19.753	8.2501e-06	27.563	-120.452	-99.001	-100.728	-167.352	-50.141	-24.895	-167.159	-159.690	-58.862	-5.567	-160.018	-153.611	-153.407	-146.083	-33.855	-146.557	-8191	255	
42143.453	1	1	0	0	0.062757	0.094862	0.084137	0.16631	0.25247	0.062714	0.064596	0.066674	0.16354	0.03297	0.031339	0.28236	0.13734	0.25317	0.067166	0.21056	-1.9083	-2.7125	-2.5667	-2.3167	-2.6063	-2.2792	-2.8	-2.55	-2.2917	-2.8229	-2.5375	-2.4167	-2.8312	-2.4688	-2.4271	-2.6458	-6.127	65.377	114.147	-160.050	34.124	23.169	37.263	-97.317	119.063	-12.439	-137.477	96.635	31.984	153.207	-148.908	181.502	0.0002437	0.00048905	9.8917e-05	1186.7	3.2008e-06	4.7721e-06	1263.3	246.73	3.8677e-06	4.539e-06	308.37	83.688	65.894	19.523	2.5646e-06	27.232	0.00052143	0.00078256	0.0002203	1164.7	7.9909e-06	8.6468e-06	1248.7	245.32	8.0401e-06	8.5737e-06	307.66	84.154	66.605	19.773	8.6925e-06	27.634	-124.472	-96.708	-132.709	-167.222	-22.373	-15.195	-167.212	-159.974	-58.607	-26.705	-159.991	-153.885	-153.067	-145.546	-44.321	-146.964	-8191	255	
42143.547	1	1	0	0	0.29092	0.13989	0.17028	0.26992	0.27814	0.1979	0.037722	0.025941	0.19583	0.053679	0.39386	0.16323	0.21438	0.31003	0.092181	0.14822	-1.85	-2.7333	-2.4917	-2.5375	-2.6562	-2.3333	-2.4188	-2.7167	-2.5167	-2.625	-2.5312	-2.3312	-2.4354	-2.5021	-2.3479	-2.7333	119.838	41.721	-50.643	67.658	-26.435	-55.828	-28.378	-79.191	-29.314	88.986	49.544	-73.693	-134.353	178.708	-145.138	126.372	0.00020886	0.00039036	0.00014261	1180.4	2.9608e-06	2.9807e-06	1265.3	245.74	4.8291e-06	2.3997e-06	307.59	83.171	66.138	19.643	4.631e-06	27.303	0.00052636	0.00080144	0.00022564	1162.7	8.0282e-06	9.4545e-06	1250.4	245.08	8.7957e-06	9.0414e-06	307.79	84.266	66.728	19.874	8.7253e-06	27.653	-122.099	-79.305	-63.553	-167.538	-48.351	-24.343	-167.285	-160.025	-60.008	37.037	-160.289	-153.810	-153.395	-145.945	-50.689	-146.397	-8191	255	
42143.668	1	1	0	0	0.25695	0.1541	0.13376	0.21141	0.040588	0.24503	0.15199	0.30061	0.20086	0.2084	0.11238	0.32895	0.25764	0.092685	0.3154	0.13551	-1.8771	-2.4813	-2.575	-2.4583	-2.6979	-2.5604	-2.6354	-2.8771	-2.3521	-2.3979	-2.7979	-2.3375	-2.7188	-2.55	-2.2083	-2.8438	57.400	-35.532	-41.163	-170.048	-144.048	146.898	-40.400	174.452	178.472	-158.071	58.085	64.011	-50.536	-114.901	-39.503	166.731	0.00022107	0.00050937	0.00010102	1180.4	2.9576e-06	3.1314e-06	1270.9	247.66	2.3548e-06	2.8146e-06	308.6	83.096	66.408	19.595	2.6168e-06	27.053	0.00053351	0.00082288	0.00023352	1164.4	8.3137e-06	9.4392e-06	1252.2	245.54	8.5919e-06	9.3474e-06	307.24	84.334	66.974	19.832	8.7086e-06	27.548	-123.725	-98.474	-70.249	-167.375	-47.090	0.091	-167.285	-159.940	-34.728	49.151	-160.217	-153.610	-153.317	-146.088	-22.899	-146.172	-8191	255	
42143.742	1	1	0	0	0.17959	0.11026	0.25242	0.60612	0.11487	0.024379	0.16156	0.13718	0.080602	0.064401	0.26871	0.30096	0.11635	0.043245	0.086512	0.074114	-1.9771	-2.5917	-2.5042	-2.4354	-2.5417	-2.4042	-2.4729	-2.7542	-2.5146	-2.4167	-2.5583	-2.175	-2.4396	-2.4604	-2.2062	-2.5125	133.495	98.673	136.740	151.858	-106.579	124.502	108.274	-89.674	-131.869	-38.437	-152.699	157.079	-5.222	10.155	138.746	-126.385	0.0002115	0.00049105	0.00012448	1187.3	2.5104e-06	1.8551e-06	1267	246.79	2.458e-06	5.937e-06	308.73	83.769	65.871	19.597	3.7429e-06	27.211	0.00052187	0.00086434	0.00023979	1166	8.3869e-06	9.3216e-06	1250.1	245.59	8.7563e-06	9.7976e-06	308.33	84.449	66.812	19.853	8.6627e-06	27.64	-119.440	-99.629	-84.827	-167.099	10.361	12.917	-167.327	-160.044	-50.884	-49.401	-160.208	-153.663	-152.928	-145.671	-38.015	-146.566	-8191	255	
42143.836	1	1	0	0	0.10802	0.098089	0.041646	0.25605	0.068009	0.32087	0.31578	0.053257	0.026034	0.068504	0.1656	0.059463	0.087348	0.36655	0.15482	0.091233	-1.8708	-2.4917	-2.4958	-2.4021	-2.5667	-2.5979	-2.4417	-2.7438	-2.4917	-2.4479	-2.6937	-2.475	-2.6188	-2.7875	-2.1063	-2.6479	-22.157	-49.215	-66.558	148.357	151.761	163.831	126.088	-108.014	-79.559	46.664	128.198	68.358	162.652	171.804	171.416	-167.647	0.00025216	0.00042962	6.9792e-05	1187.2	1.741e-06	5.0933e-06	1274.2	248.01	2.8052e-06	6.4161e-07	308.21	83.625	66.615	19.492	2.5664e-06	27.219	0.00054766	0.00084012	0.00023165	1168	8.6924e-06	9.676e-06	1253.6	246.15	8.9967e-06	9.5292e-06	307.81	84.439	67.039	19.823	8.9833e-06	27.638	-121.404	-117.667	-92.471	-167.292	-41.700	-21.305	-167.364	-160.107	-59.488	-107.405	-160.040	-153.721	-153.259	-145.748	-14.075	-146.292	-8191	255	
42143.957	1	1	0	0	0.15155	0.30498	0.1343	0.11706	0.13668	0.075073	0.16574	0.090443	0.18493	0.31762	0.1634	0.14481	0.15969	0.035893	0.12156	0.037292	-2.0542	-2.3458	-2.8854	-2.4917	-2.6312	-2.6125	-2.4417	-2.5979	-2.3771	-2.4604	-2.6396	-2.4688	-2.4875	-2.6813	-2.3146	-2.5	111.089	64.799	-134.150	182.088	-137.059	-168.603	176.296	1.614	73.606	89.145	96.242	32.037	-96.203	85.284	-79.882	36.281	0.00021414	0.00026963	7.2737e-05	1187.1	3.5238e-06	3.1366e-06	1270.7	246.86	2.2456e-06	2.6943e-06	309.96	83.66	66.467	19.578	2.0649e-06	27.058	0.00052218	0.00086021	0.00023077	1166.6	8.9966e-06	9.5117e-06	1251.4	246.15	8.6368e-06	9.4748e-06	307.8	84.345	66.86	19.891	8.6969e-06	27.679	-123.861	-85.968	-85.994	-167.522	-33.902	-58.336	-167.119	-159.856	-39.855	-23.689	-160.165	-153.661	-153.503	-145.988	-23.676	-146.562	-8191	255	
42144.051	1	1	0	0	0.0084142	0.17349	0.1663	0.1383	0.22875	0.29493	0.14258	0.045184	0.18617	0.083893	0.23801	0.24531	0.099175	0.26622	0.092254	0.091131	-2.0187	-2.3521	-2.5896	-2.5583	-2.4667	-2.7687	-2.5271	-2.5229	-2.7062	-2.3042	-2.8354	-2.5917	-2.3875	-2.6583	-2.3187	-2.6271	155.212	154.221	-126.886	145.420	-9.802	-154.723	109.054	11.852	-162.732	-160.244	-20.773	3.482	12.263	-10.274	43.147	-11.092	0.00020673	0.00050265	5.5543e-05	1186.1	1.8334e-06	3.0002e-06	1272.5	246.46	1.6908e-06	2.503e-06	306.54	83.237	66.512	19.443	3.2686e-06	27.063	0.00055436	0.00086121	0.00022116	1166.2	8.725e-06	9.2322e-06	1251.8	245.34	8.6938e-06	9.4627e-06	307.8	84.542	67.027	19.803	8.8529e-06	27.594	-121.652	-62.030	-76.959	-167.394	-22.799	-31.462	-167.130	-160.230	-36.218	-66.809	-160.028	-153.330	-153.280	-146.193	-47.805	-146.252	-8191	255	
42144.148	1	1	0	0	0.13419	0.20867	0.02249	0.20713	0.061455	0.11673	0.34226	0.028695	0.072376	0.30947	0.25632	0.18465	0.31079	0.12082	0.026041	0.079822	-2.2917	-2.2062	-2.8292	-2.5687	-2.3979	-2.7875	-2.4333	-2.6792	-2.5146	-2.1437	-2.6375	-2.5083	-2.4604	-2.5521	-2.4437	-2.5229	-29.315	-109.873	141.146	138.151	-49.757	-44.479	59.685	112.429	-18.986	-105.898	-156.339	144.739	-120.787	100.449	-80.237	155.227	0.00021344	0.00033234	6.0616e-05	1187	2.6868e-06	3.4384e-06	1270.5	248.1	2.9591e-06	3.9313e-06	307.28	83.39	66.223	19.537	2.6087e-06	27.169	0.00053732	0.00087745	0.00023519	1166.5	8.7996e-06	8.9343e-06	1251.8	245.95	8.9869e-06	9.2289e-06	307.69	84.242	66.898	19.818	9.191e-06	27.574	-117.876	-95.666	-36.037	-167.167	-65.548	-24.303	-167.208	-160.083	-39.105	11.168	-160.013	-153.575	-153.169	-145.688	-11.782	-146.523	-8191	255	
42144.242	1	1	0	0	0.26105	0.15856	0.099038	0.16921	0.070306	0.097299	0.30184	0.15933	0.18885	0.15959	0.043071	0.33011	0.33956	0.19422	0.43448	0.10673	-2.0521	-2.3771	-2.6042	-2.4167	-2.4625	-2.5146	-2.475	-2.6104	-2.5312	-2.2854	-2.6729	-2.5854	-2.2917	-2.7	-2.3417	-2.3521	179.357	82.924	-130.255	170.335	62.695	89.278	131.223	117.535	66.532	46.752	-37.844	164.714	67.291	-86.087	-85.527	24.554	0.00021878	0.00023304	0.00010643	1186.7	1.7412e-06	4.8921e-06	1264.5	247.59	3.2573e-06	2.506e-06	307.94	83.24	66.378	19.662	3.3362e-06	27.142	0.00053905	0.00085843	0.00023969	1164.5	8.8262e-06	9.2507e-06	1252.3	246.1	8.5764e-06	9.5989e-06	307.16	84.117	66.739	19.839	8.7691e-06	27.573	-123.029	-128.734	-94.975	-167.491	-30.480	-33.426	-167.361	-159.784	-27.064	13.675	-159.954	-153.834	-153.649	-145.612	-23.201	-146.226	-8191	255	
42144.340	1	1	0	0	0.1032	0.036075	0.46232	0.27515	0.10006	0.23476	0.37479	0.15656	0.21892	0.026048	0.13938	0.069229	0.038825	0.1877	0.1803	0.089402	-2.0833	-2.2479	-2.5208	-2.7042	-2.3042	-2.7625	-2.6	-2.4458	-2.4729	-2.3875	-2.5667	-2.4979	-2.2708	-2.6417	-2.2896	-2.4083	-48.235	-89.733	82.963	-136.173	-163.146	131.676	153.061	-118.804	-163.401	-88.496	99.769	-172.948	-48.615	-124.528	77.960	36.348	0.00020735	0.00034495	4.0898e-05	1185.7	3.5815e-06	2.7858e-06	1270.9	246.51	1.9329e-06	3.452e-06	305.35	83.462	65.965	19.646	2.9929e-06	27.157	0.00053711	0.00084568	0.00023187	1166.4	8.5141e-06	9.2363e-06	1253.3	245.75	8.7289e-06	9.0719e-06	306.77	84.321	66.753	19.821	9.0373e-06	27.63	-122.838	-97.853	-66.887	-167.100	-32.727	-1.586	-167.353	-160.177	-69.648	-21.612	-160.021	-153.916	-153.638	-146.273	-1.986	-146.597	-8191	255	
42144.438	1	1	0	0	0.11662	0.083006	0.23678	0.22751	0.10971	0.10898	0.21947	0.014491	0.14348	0.076137	0.29682	0.14298	0.035084	0.19972	0.0909	0.12452	-2.3125	-2.1958	-2.6354	-2.7854	-2.3667	-2.5812	-2.4146	-2.4396	-2.7104	-2.3354	-2.5896	-2.7208	-2.4708	-2.5604	-2.5479	-2.4562	2.501	16.924	53.775	107.058	-34.864	56.135	147.479	-110.261	-19.287	176.704	-159.348	134.218	-143.426	93.584	15.640	134.944	0.00021944	0.00029105	5.2211e-05	1187.1	4.1315e-06	6.5006e-06	1271.9	245.62	2.3377e-06	1.7004e-06	309.88	83.455	66.197	19.612	1.7215e-06	27.115	0.00054021	0.00084012	0.00023772	1166.5	8.7816e-06	8.9552e-06	1252.8	245.14	8.4428e-06	9.3466e-06	308.5	84.393	66.666	19.859	8.9797e-06	27.665	-122.326	-128.457	-102.807	-167.378	-32.228	-26.238	-167.297	-160.117	-47.930	-57.405	-159.948	-153.879	-153.366	-146.151	1.255	-145.921	-8191	255	
42144.531	1	1	0	0	0.11735	0.15244	0.21214	0.18696	0.17709	0.17111	0.12073	0.15239	0.26803	0.33344	0.21491	0.42852	0.12506	0.075412	0.098151	0.25168	-2.4042	-2.475	-2.3583	-2.8438	-2.2479	-2.6625	-2.7042	-2.2896	-2.85	-2.5167	-2.5458	-2.7292	-2.3104	-2.6042	-2.4188	-2.3625	-126.083	133.105	19.524	107.827	-97.764	81.230	-100.527	-6.067	149.217	-95.073	165.562	-145.066	86.154	-125.035	134.549	82.025	0.00022438	0.00039633	5.1245e-05	1184.7	1.7894e-06	5.4409e-06	1266.1	246.76	2.4509e-06	2.9157e-06	306.51	83.599	66.182	19.675	2.7125e-06	27.22	0.00054351	0.00087332	0.00023575	1166	8.7197e-06	9.6397e-06	1251.1	245.79	8.5982e-06	9.5356e-06	307.75	84.587	66.95	19.878	8.5745e-06	27.639	-125.310	-127.494	-116.199	-167.239	-71.309	-61.039	-167.313	-159.980	-12.739	-37.361	-160.167	-153.814	-153.507	-146.611	-10.316	-146.562	-8191	255	
42144.629	1	1	0	0	0.076579	0.27674	0.17419	0.30896	0.066037	0.24269	0.42549	0.37145	0.16184	0.17147	0.29149	0.23342	0.20409	0.22902	0.14222	0.16585	-2.1875	-2.1729	-2.3063	-2.8563	-2.2938	-2.5646	-2.7667	-2.3146	-2.7771	-2.575	-2.3063	-2.6521	-2.1813	-2.7354	-2.5479	-2.1875	-136.299	108.375	-174.291	152.602	127.786	148.050	83.805	131.576	67.766	-4.049	170.852	-115.955	-170.227	-82.062	85.873	-96.800	0.0002519	0.00013344	0.00010812	1185.5	2.732e-06	3.8424e-06	1267.4	246.82	2.1711e-06	4.8312e-06	309.33	83.6	66.577	19.693	2.7563e-06	27.261	0.00055501	0.00087688	0.00023971	1166	8.8269e-06	9.5753e-06	1251.8	246.04	8.563e-06	9.6766e-06	307.34	84.466	67.083	19.884	8.8674e-06	27.698	-120.581	-111.005	-68.840	-167.165	-24.849	-38.912	-167.162	-159.947	-46.271	-33.526	-160.137	-153.607	-153.006	-145.804	-39.820	-146.250	-8191	255	
42144.750	1	1	0	0	0.45996	0.20564	0.44827	0.19474	0.35472	0.24116	0.084551	0.30887	0.085389	0.18595	0.087384	0.090902	0.065282	0.019743	0.13134	0.072786	-2.3792	-2.6292	-2.3708	-2.7938	-2.3667	-2.6146	-2.7479	-2.4146	-2.6521	-2.6	-2.3563	-2.8312	-2.4062	-2.525	-2.5312	-2.1792	87.648	-60.724	-45.396	116.419	146.450	30.025	-118.890	135.695	-169.385	-42.083	88.132	-54.698	40.361	-174.051	-22.045	106.964	0.00024333	0.00036631	0.0001045	1185.2	1.7815e-06	5.4474e-06	1266	246.88	2.8041e-06	2.5182e-06	310.13	83.867	66.245	19.726	3.0045e-06	27.224	0.00055759	0.00088187	0.00023826	1165.6	8.8302e-06	9.3877e-06	1252	245.78	8.9482e-06	9.3346e-06	308.37	84.422	66.995	19.895	8.5125e-06	27.667	-121.491	-87.409	-91.732	-167.243	-21.119	1.060	-167.312	-160.080	-50.897	-37.182	-159.939	-153.576	-153.338	-146.267	-6.702	-146.403	-8191	255	
42144.844	1	1	0	0	0.21202	0.14467	0.13686	0.16494	0.17328	0.054456	0.16537	0.071509	0.15698	0.26603	0.081591	0.036244	0.20989	0.3285	0.10108	0.1557	-2.1375	-2.4313	-2.2708	-2.7938	-2.4167	-2.4625	-2.8771	-2.3333	-2.6437	-2.575	-2.3292	-2.7396	-2.4604	-2.4896	-2.6896	-2.4437	-80.509	-52.901	120.690	-110.090	54.998	-51.722	151.082	0.921	-131.260	6.063	-69.652	-137.156	130.963	-134.622	60.084	104.693	0.00022574	0.00030409	6.3241e-05	1185.1	1.4663e-06	2.6041e-06	1270.4	247.69	2.0433e-06	3.4281e-06	308.65	84.049	66.048	19.524	2.5898e-06	27.377	0.00054273	0.00085629	0.0002373	1167.1	8.8928e-06	9.5793e-06	1252	246.09	9.003e-06	9.6221e-06	307.7	84.548	66.845	19.817	8.5307e-06	27.722	-116.723	-92.649	-30.228	-167.411	-47.479	8.671	-167.518	-159.649	-27.151	-29.819	-160.257	-153.830	-153.312	-145.916	-15.359	-146.408	-8191	255	
42144.941	1	1	0	0	0.0065115	0.054973	0.21107	0.29077	0.1504	0.18041	0.26633	0.070043	0.096696	0.10971	0.24504	0.14056	0.075847	0.1325	0.10097	0.2691	-2.15	-2.4188	-2.1792	-2.7146	-2.5062	-2.4583	-2.9479	-2.3375	-2.4479	-2.5146	-2.2729	-2.7583	-2.4875	-2.5521	-2.7396	-2.3208	-96.331	12.695	101.731	136.467	-16.304	-126.114	61.007	-19.835	-46.895	8.655	-173.003	61.124	-62.574	54.816	42.546	-124.705	0.00021792	0.00029726	7.4662e-05	1185.5	3.6448e-06	2.2844e-06	1270.9	247.2	9.7945e-07	4.453e-06	310.66	84.112	66.283	19.61	1.3868e-06	27.142	0.00054514	0.00082224	0.00023732	1166.9	8.9001e-06	9.4215e-06	1252.4	246	9.2012e-06	9.1584e-06	308.11	84.627	66.994	19.823	8.9702e-06	27.605	-125.334	-68.800	-121.665	-167.296	-37.235	68.584	-167.245	-159.838	30.134	-24.905	-160.510	-153.430	-153.365	-145.830	25.671	-146.475	-8191	255	
42145.035	1	1	0	0	0.21257	0.2585	0.41685	0.1248	0.023903	0.17268	0.17914	0.35789	0.041323	0.14363	0.11024	0.092345	0.18882	0.23278	0.13248	0.020411	-1.9688	-2.6875	-2.2979	-2.6437	-2.5938	-2.4896	-2.9479	-2.425	-2.5354	-2.7438	-2.3542	-2.7354	-2.6625	-2.25	-2.7583	-2.4313	3.708	-136.450	-9.942	124.139	68.254	155.675	127.574	80.855	116.286	24.254	86.479	-101.725	-34.860	89.956	-90.926	105.073	0.00021918	0.00028243	8.6904e-05	1189.1	3.3457e-06	2.2552e-06	1272.2	247.79	2.5869e-06	3.0731e-06	311.2	83.527	66.465	19.575	1.2832e-06	27.273	0.00053997	0.00086441	0.00023675	1168.6	8.7211e-06	9.6107e-06	1253.7	246.19	8.8498e-06	9.0038e-06	308.34	84.572	66.793	19.868	8.7261e-06	27.706	-123.360	-58.578	-85.177	-167.325	-63.810	-20.980	-167.510	-159.755	-88.963	-15.683	-160.031	-153.465	-153.363	-145.996	10.342	-146.661	-8191	255	
42145.133	1	1	0	0	0.13092	0.06427	0.1099	0.14741	0.15534	0.31278	0.04194	0.11424	0.2651	0.13443	0.066378	0.16692	0.14209	0.082447	0.14147	0.18479	-1.8375	-2.6979	-2.0479	-2.6958	-2.6104	-2.2958	-2.7021	-2.4771	-2.5312	-2.8958	-2.3438	-2.6104	-2.5354	-2.2479	-2.5625	-2.6875	-73.297	6.130	-35.361	-176.563	-68.476	-99.345	98.511	-92.152	-174.809	149.065	157.991	27.536	67.295	101.421	-110.220	-162.278	0.00023597	0.00036502	9.3497e-05	1187.6	2.4402e-06	2.0377e-06	1271.9	247.71	3.4177e-06	2.0579e-06	307.66	84.186	66.688	19.584	2.006e-06	27.393	0.00054681	0.0008476	0.0002426	1168.8	8.7237e-06	9.5213e-06	1254.3	246.33	9.178e-06	9.5052e-06	308.13	84.613	67.198	19.861	8.8449e-06	27.696	-129.418	-83.509	-40.448	-167.323	-63.426	-61.284	-167.122	-160.010	-26.881	-55.390	-160.141	-153.935	-153.318	-146.069	23.360	-146.265	-8191	255	
42145.227	1	1	0	0	0.098519	0.24436	0.23741	0.18168	0.327	0.16015	0.31727	0.16944	0.094204	0.18307	0.27499	0.078837	0.11376	0.088484	0.083887	0.075131	-2.0771	-2.7854	-2.4437	-2.6667	-2.7021	-2.2979	-2.8979	-2.5583	-2.5271	-2.7771	-2.5	-2.5312	-2.5646	-2.2792	-2.6021	-2.5146	170.047	26.197	-18.323	163.703	56.852	-43.959	94.114	86.749	62.248	-154.977	-140.170	-93.894	-40.067	-4.446	77.669	-90.771	0.00022722	0.00037569	8.7767e-05	1188.1	3.749e-06	2.6659e-06	1267.1	247.84	3.09e-06	4.9891e-06	309.76	83.731	66.384	19.5	9.3667e-07	27.249	0.00056025	0.00083542	0.0002373	1168.8	8.6305e-06	9.7919e-06	1253.9	246	8.8097e-06	9.5565e-06	307.62	84.51	66.919	19.894	8.7523e-06	27.653	-125.094	-89.769	-48.296	-167.148	-66.966	6.250	-167.356	-159.914	-73.452	-60.086	-160.002	-153.586	-153.421	-146.023	-72.239	-146.234	-8191	255	
42145.348	1	1	0	0	0.27754	0.05438	0.062733	0.11789	0.044236	0.22932	0.24274	0.21267	0.18318	0.26025	0.22674	0.088423	0.20461	0.34698	0.13593	0.15855	-2.1542	-2.7104	-2.2667	-2.7833	-2.7146	-2.35	-2.7708	-2.7354	-2.4917	-2.7438	-2.4667	-2.4646	-2.6396	-2.5104	-2.6521	-2.6521	-45.528	68.802	-112.600	-164.771	161.102	41.552	94.032	115.387	-28.901	-54.986	106.326	131.281	127.439	142.486	-147.608	138.998	0.00021228	0.00052647	3.4633e-05	1194.2	3.0154e-06	5.0025e-06	1272.2	248.31	5.6936e-07	3.0325e-06	309.21	83.132	66.654	19.811	2.7627e-06	27.093	0.00055834	0.00084753	0.00023828	1169	8.54e-06	9.8789e-06	1255.3	246.39	8.8892e-06	9.7791e-06	308.18	84.351	67.061	19.925	9.0773e-06	27.66	-124.296	-52.049	-118.289	-167.235	-64.909	-23.355	-167.290	-160.076	-82.726	-16.962	-159.880	-153.770	-153.414	-145.715	-15.559	-146.367	-8191	255	
42145.445	1	1	0	0	0.46558	0.20255	0.16568	0.39528	0.1076	0.19681	0.16149	0.087735	0.05208	0.088041	0.071228	0.25412	0.28063	0.19959	0.12716	0.12385	-1.7563	-2.6937	-2.2833	-2.5563	-2.7708	-2.1937	-2.8458	-2.5521	-2.2917	-2.6063	-2.6417	-2.4458	-2.7792	-2.3208	-2.6125	-2.5875	-37.884	135.826	87.984	140.990	-93.625	-130.012	118.842	92.421	111.937	122.591	-132.666	-133.322	-111.994	-91.364	39.619	180.736	0.00021338	0.00033729	0.00011029	1185	3.7018e-06	2.6873e-06	1268.5	246.6	1.5583e-06	4.9703e-06	307.89	83.2	66.936	19.635	4.3749e-06	27.1	0.00055079	0.00083029	0.00023985	1167.6	8.8894e-06	9.8008e-06	1254.8	245.81	8.9735e-06	9.6221e-06	307.67	84.434	67.089	19.89	8.9717e-06	27.627	-127.393	-93.774	-87.096	-167.232	-17.805	-37.030	-167.135	-160.163	-41.627	-47.368	-160.121	-153.468	-153.429	-145.842	-11.161	-145.964	-8191	255	
42145.539	1	1	0	0	0.096626	0.13783	0.32382	0.33328	0.062831	0.19175	0.047305	0.094476	0.2163	0.17551	0.098447	0.19926	0.15161	0.16947	0.051461	0.30257	-1.7646	-2.5333	-2.3979	-2.3583	-2.8083	-2.5375	-2.4938	-2.7167	-2.3187	-2.6979	-2.5604	-2.5125	-2.7292	-2.2854	-2.5229	-2.5812	-41.200	-95.353	-144.926	155.121	53.817	87.885	95.659	-25.315	-82.788	46.681	102.023	119.919	92.585	128.380	-119.577	71.929	0.00023212	0.00046919	6.763e-05	1188	2.2515e-06	2.2629e-06	1269.7	246.74	2.8715e-06	3.1253e-06	310.78	84.233	66.719	19.659	3.5836e-06	27.239	0.00055273	0.00083435	0.00024276	1168.3	8.6758e-06	9.7557e-06	1253.1	245.81	8.6579e-06	9.4267e-06	308.64	84.711	67.079	19.943	9.2122e-06	27.667	-124.091	-94.236	-67.220	-167.506	-90.850	-17.757	-167.103	-160.100	-68.829	-30.246	-160.337	-153.499	-153.120	-146.333	-0.746	-146.233	-8191	255	
42145.613	1	1	0	0	0.16333	0.09	0.05083	0.14954	0.11094	0.29804	0.39183	0.1728	0.11315	0.29475	0.42342	0.073437	0.13399	0.16111	0.19891	0.13264	-1.8583	-2.5563	-2.4396	-2.4021	-2.6375	-2.4437	-2.6063	-2.8375	-2.1458	-2.4854	-2.5312	-2.4417	-2.6188	-2.2042	-2.4979	-2.7646	-20.800	38.442	131.725	-121.729	83.356	-10.340	147.067	-95.942	-55.478	142.662	-55.339	155.289	165.039	-108.382	174.602	85.439	0.00025271	0.00014512	0.00012414	1191	2.5993e-06	4.6485e-06	1275.7	247.91	2.1763e-06	1.4036e-06	308.43	83.774	66.064	19.6	4.7418e-06	27.18	0.0005594	0.00084903	0.00023832	1168.6	8.7643e-06	9.9924e-06	1254.9	245.9	8.9398e-06	9.3602e-06	307.55	84.786	66.875	19.882	9.0227e-06	27.666	-124.049	-118.897	-63.329	-167.113	-2.984	-41.339	-167.187	-159.891	-67.512	-10.357	-160.341	-153.747	-153.148	-146.043	-38.738	-146.313	-8191	255	
42145.730	1	1	0	0	0.35836	0.093504	0.2292	0.17568	0.079788	0.051563	0.019208	0.13638	0.15285	0.18417	0.13501	0.071372	0.091627	0.075148	0.29543	0.092681	-1.8729	-2.5396	-2.5271	-2.3812	-2.6354	-2.3604	-2.4583	-2.7729	-2.3396	-2.3292	-2.6146	-2.0854	-2.6875	-2.5583	-2.2729	-2.7458	43.300	-127.346	96.853	89.182	131.594	-132.995	32.574	-149.017	122.163	50.580	136.662	52.632	-99.299	-127.326	57.565	-154.778	0.0002273	0.00028152	0.00016907	1187.8	2.8581e-06	6.7615e-07	1276.5	247.04	2.9005e-06	3.312e-06	309.43	83.008	66.163	19.618	3.6317e-06	27.097	0.00056474	0.00085928	0.00023581	1168.6	8.5853e-06	9.5318e-06	1255.8	245.97	8.8899e-06	9.329e-06	308.18	84.485	66.948	19.881	9.0897e-06	27.628	-122.690	-88.729	-96.593	-167.197	-90.525	33.396	-167.275	-159.967	-29.653	-34.499	-160.355	-153.246	-153.073	-146.214	-17.112	-146.261	-8191	255	
42145.828	1	1	0	0	0.20792	0.24314	0.29713	0.33785	0.21209	0.18024	0.30624	0.099943	0.19741	0.10637	0.072539	0.224	0.2211	0.11953	0.24738	0.1894	-1.9813	-2.3187	-2.5167	-2.4771	-2.5	-2.5187	-2.3583	-2.8271	-2.5792	-2.5167	-2.7042	-2.4437	-2.4396	-2.5479	-2.3063	-2.7146	152.982	-64.944	13.819	121.288	-127.699	81.795	122.627	98.034	-163.701	127.562	-125.121	16.616	127.090	163.675	-1.282	89.770	0.00022259	0.00052259	0.00010469	1186.9	3.5338e-06	3.7621e-06	1272.9	247.64	4.3445e-06	1.7149e-06	309.3	83.974	66.632	19.673	3.3039e-06	27.038	0.00055807	0.00087859	0.00022884	1168.3	8.8548e-06	9.4859e-06	1252.4	246.13	9.2076e-06	9.3867e-06	308.23	84.512	67.133	19.892	8.8332e-06	27.637	-125.457	-71.468	-66.113	-167.118	-47.590	-62.162	-167.171	-159.972	-43.220	-25.322	-160.163	-153.579	-153.208	-146.153	-19.490	-146.510	-8191	255	
42145.926	1	1	0	0	0.19329	0.01626	0.17208	0.19371	0.24174	0.16999	0.10763	0.16025	0.07142	0.083062	0.16404	0.21228	0.15071	0.27684	0.30974	0.25706	-2.0292	-2.5583	-2.5458	-2.5271	-2.6875	-2.5979	-2.4625	-2.8333	-2.4521	-2.3312	-2.6292	-2.4417	-2.7375	-2.6188	-2.2313	-2.7396	135.466	119.231	11.641	141.864	85.258	43.531	-102.487	148.552	89.864	46.441	116.854	147.390	121.552	129.097	3.829	62.360	0.00022112	0.00032373	5.614e-05	1192	2.3458e-06	2.8589e-06	1273.9	246.6	2.8322e-06	3.965e-06	308.18	83.627	66.236	19.658	3.4426e-06	27.377	0.00054899	0.00085045	0.0002385	1170	8.5926e-06	9.4481e-06	1256.3	245.72	9.1274e-06	9.9425e-06	308	84.482	67.091	19.892	9.0941e-06	27.744	-123.262	-116.306	-88.425	-167.346	-17.588	-25.569	-167.418	-160.174	-32.882	-4.060	-160.244	-153.609	-153.743	-145.938	-45.309	-146.207	-8191	255	
42146.020	1	1	0	0	0.14724	0.16876	0.17264	0.30512	0.11585	0.25826	0.21834	0.2918	0.28815	0.14047	0.19165	0.12577	0.075367	0.10688	0.17799	0.15635	-2.0521	-2.2604	-2.6625	-2.6188	-2.3937	-2.6583	-2.1646	-2.5083	-2.4437	-2.3458	-2.8479	-2.4437	-2.5375	-2.6937	-2.3167	-2.6021	-23.561	-101.542	172.671	177.977	96.386	-100.789	52.188	95.351	159.961	98.728	-108.736	-41.526	139.968	-43.695	69.606	-4.487	0.00024308	0.00040727	0.00010456	1192.2	3.1757e-06	3.4025e-06	1273.8	247.54	8.4418e-07	3.1506e-06	307.25	83.278	65.659	19.663	1.2427e-06	27.103	0.00055181	0.0008357	0.00022898	1170.9	8.6166e-06	9.3345e-06	1256.1	246.08	8.6122e-06	9.675e-06	307.59	84.46	66.881	19.893	9.3091e-06	27.666	-128.112	-98.504	-96.009	-167.402	-49.990	-0.357	-167.311	-159.945	-51.053	-32.776	-160.217	-153.586	-153.379	-145.777	-110.223	-146.499	-8191	255	
42146.141	1	1	0	0	0.31773	0.2811	0.094121	0.23483	0.011798	0.13025	0.097284	0.13587	0.10868	0.091098	0.26196	0.12429	0.079802	0.087827	0.11372	0.19495	-1.8687	-2.3604	-2.7167	-2.4437	-2.4188	-2.7562	-2.4354	-2.5583	-2.6188	-2.2958	-2.6917	-2.575	-2.3729	-2.7083	-2.4437	-2.4604	52.735	-35.305	-98.565	-160.905	141.118	-31.794	141.833	116.801	142.161	-43.374	110.796	54.648	170.036	12.418	36.210	-32.595	0.00020836	0.0002519	0.00010498	1189.3	3.0206e-06	2.9469e-06	1272.4	247.81	3.6415e-06	3.0039e-06	307.85	83.751	66.629	19.664	3.8807e-06	27.22	0.00054038	0.00081497	0.00023699	1169.1	8.7244e-06	9.291e-06	1255.3	245.99	8.6439e-06	9.1504e-06	308.15	84.55	67.177	19.873	8.7953e-06	27.705	-127.548	-100.730	-85.948	-167.526	-34.049	46.407	-167.199	-159.980	-25.318	-35.076	-160.007	-153.735	-153.389	-146.429	-16.652	-146.299	-8191	255	
42146.238	1	1	0	0	0.17292	0.088833	0.2796	0.16221	0.22133	0.12979	0.24136	0.093627	0.1035	0.16813	0.058793	0.16863	0.29821	0.19395	0.45374	0.062097	-2.0229	-2.45	-2.7	-2.6021	-2.2938	-2.7062	-2.5583	-2.75	-2.5833	-2.2479	-2.7125	-2.1688	-2.3875	-2.6417	-2.3333	-2.3896	-104.239	142.918	32.591	-134.452	106.539	174.850	157.944	104.064	-68.164	140.699	-132.133	140.358	116.826	160.609	-28.004	-56.811	0.00023296	0.00043291	9.4959e-05	1189.4	1.9251e-06	4.0954e-06	1273.6	246.98	1.3477e-06	9.1866e-07	310.14	83.21	66.245	19.65	1.6559e-06	27.092	0.00055273	0.00088322	0.00023685	1169	8.8482e-06	9.4352e-06	1255.9	246.41	8.8723e-06	9.7054e-06	309.03	84.471	67.101	19.895	8.9571e-06	27.63	-125.955	-83.055	-110.662	-167.324	-29.010	-12.742	-167.359	-160.120	-60.447	-25.719	-159.923	-153.751	-153.166	-146.088	-43.839	-146.280	-8191	255	
42146.309	1	1	0	0	0.13909	0.083319	0.035885	0.2803	0.17413	0.16539	0.21391	0.27145	0.20765	0.12042	0.15357	0.20476	0.17606	0.046519	0.21257	0.27159	-2.2583	-2.2958	-2.5771	-2.6875	-2.2562	-2.7208	-2.6083	-2.5187	-2.8646	-2.2938	-2.7271	-2.5979	-2.4542	-2.6854	-2.3646	-2.5896	13.417	21.610	-41.079	165.998	-154.023	146.542	163.988	-116.592	143.941	-72.897	-156.793	-116.706	4.862	16.949	73.023	-73.605	0.00022765	0.00020714	6.7507e-05	1190.1	9.7116e-07	4.3457e-06	1270.5	247.71	1.2789e-06	1.6743e-06	309.65	83.61	67.067	19.577	3.0061e-06	27.069	0.00053466	0.00088073	0.00023941	1169.9	8.8795e-06	9.6437e-06	1255.5	246.28	9.086e-06	9.6654e-06	309.02	84.554	67.422	19.92	9.1029e-06	27.621	-120.333	-122.292	-53.212	-167.283	-45.707	-48.227	-167.422	-159.937	-10.955	16.282	-160.176	-153.532	-153.378	-146.049	-60.022	-146.236	-8191	255	
42146.430	1	1	0	0	0.033212	0.069293	0.042539	0.26616	0.09755	0.23486	0.12496	0.080235	0.19929	0.29594	0.11099	0.11574	0.092238	0.11302	0.25316	0.12434	-2.1896	-2.2458	-2.6813	-2.7	-2.3375	-2.5792	-2.6937	-2.5083	-2.8458	-2.3771	-2.7375	-2.7083	-2.4792	-2.4542	-2.5417	-2.3708	-120.778	-55.326	167.453	167.040	-100.275	-64.679	52.909	18.138	141.273	163.854	-123.619	164.940	-161.750	21.067	136.224	-73.501	0.00019039	0.00032529	6.0838e-05	1189.7	2.1555e-06	3.2552e-06	1272.6	247.2	2.3085e-06	2.7337e-06	308.35	83.784	66.327	19.587	2.2522e-06	27.235	0.0005168	0.00088878	0.00023937	1170.4	8.8954e-06	9.618e-06	1255.3	246.14	8.9819e-06	9.9754e-06	308.54	84.724	67.092	19.881	9.1852e-06	27.764	-124.651	-92.658	-109.626	-167.393	-7.333	-34.006	-167.333	-159.944	-60.301	-30.622	-159.990	-153.520	-153.204	-146.101	-17.289	-146.065	-8191	255	
42146.523	1	1	0	0	0.10137	0.12664	0.19471	0.39093	0.053236	0.15122	0.26594	0.096533	0.22503	0.059717	0.14462	0.2782	0.056242	0.33689	0.23823	0.1943	-2.2479	-2.4188	-2.4146	-2.8875	-2.1792	-2.6292	-2.5646	-2.4146	-2.7521	-2.4208	-2.4833	-2.4521	-2.3333	-2.5229	-2.6437	-2.3708	-102.347	142.819	76.869	104.130	-52.731	-87.492	61.111	72.553	-39.452	41.006	121.227	-27.074	33.312	167.246	132.139	-99.206	0.00023037	0.00036575	8.0775e-05	1192	2.8889e-06	2.7314e-06	1272.3	247.46	3.7615e-06	2.9014e-06	308.92	83.391	66.842	19.682	3.0883e-06	27.251	0.00054834	0.00088728	0.00024057	1170.7	8.956e-06	9.8177e-06	1254	246.31	9.2209e-06	9.8608e-06	308.1	84.62	67.083	19.937	9.1211e-06	27.715	-127.317	-61.830	-100.660	-167.369	-34.352	-8.298	-167.253	-160.154	-67.568	-21.443	-160.507	-153.787	-153.048	-145.612	-8.721	-146.268	-8191	255	
42146.621	1	1	0	0	0.19484	0.20198	0.17059	0.29474	0.071291	0.094225	0.31033	0.23654	0.18698	0.15746	0.21235	0.066132	0.1327	0.099961	0.13602	0.094236	-2.1833	-2.4104	-2.4688	-2.8063	-2.2792	-2.4146	-2.5979	-2.3	-2.7292	-2.4667	-2.4875	-2.6333	-2.1667	-2.6833	-2.35	-2.1813	-135.963	-175.429	166.690	167.465	-84.915	-123.678	74.971	60.224	105.421	-11.326	128.894	-141.849	-22.267	34.455	181.762	-143.822	0.00023482	0.00024482	7.6699e-05	1189.4	3.5352e-06	3.1672e-06	1269.4	246.89	3.3399e-06	3.5206e-06	309.2	83.666	66.473	19.77	2.4847e-06	27.194	0.0005528	0.00089056	0.00024439	1170.7	8.8635e-06	1.0144e-05	1256.1	246.11	9.0846e-06	9.9802e-06	309.02	84.57	67.104	19.949	9.0628e-06	27.652	-121.889	-125.283	-83.392	-167.366	-74.175	-50.360	-167.372	-160.155	-56.168	-30.413	-160.207	-153.581	-153.200	-146.021	-116.873	-146.327	-8191	255	
42146.742	1	1	0	0	0.23316	0.26129	0.096204	0.14722	0.10957	0.20799	0.38294	0.29087	0.11901	0.10229	0.29206	0.032831	0.088933	0.12383	0.3379	0.078196	-2.2625	-2.3187	-2.3896	-2.7771	-2.275	-2.6396	-2.7687	-2.2917	-2.8604	-2.5583	-2.2438	-2.8187	-2.4688	-2.4708	-2.7	-2.2875	-140.159	-50.304	-132.952	67.698	53.400	169.456	104.166	168.683	5.307	-71.391	90.884	37.664	-33.820	92.368	92.530	5.018	0.00023103	0.00057387	0.00014442	1189.2	3.279e-06	3.41e-06	1272	247.77	2.7494e-06	3.4219e-06	311.3	84.007	66.749	19.788	1.7014e-06	27.113	0.00054681	0.00087809	0.00024385	1170	9.0119e-06	1.0161e-05	1255.3	246.25	9.0754e-06	9.9137e-06	309.22	84.81	67.23	19.93	9.1881e-06	27.689	-129.135	-57.041	-98.988	-167.212	-19.620	15.210	-167.602	-159.907	-6.546	-62.702	-159.685	-153.766	-153.473	-145.962	-54.270	-146.389	-8191	255	
42146.836	1	1	0	0	0.33914	0.28175	0.28166	0.34314	0.015247	0.15129	0.019873	0.16932	0.15419	0.053183	0.32153	0.10481	0.15933	0.11079	0.1797	0.26481	-2.2438	-2.4521	-2.35	-2.8458	-2.4583	-2.6479	-2.7604	-2.35	-2.6042	-2.6875	-2.5292	-2.8396	-2.3917	-2.5083	-2.6854	-2.3375	43.815	-42.184	-129.592	135.251	128.423	119.154	24.749	53.147	-33.955	12.373	173.708	-100.330	-150.903	171.324	-60.695	41.683	0.00023413	0.00043886	9.417e-05	1194.5	3.0685e-06	3.8019e-06	1274	246.92	3.2414e-06	3.5531e-06	309.2	83.99	66.082	19.625	2.9008e-06	27.387	0.00056202	0.00090203	0.00024513	1171.9	8.9513e-06	9.8604e-06	1256.2	246.23	8.8751e-06	9.7984e-06	308.63	84.672	66.981	19.882	9.2311e-06	27.761	-122.352	-88.237	-79.881	-167.265	-31.629	-9.035	-167.402	-160.193	-27.516	-33.763	-159.871	-153.570	-153.167	-146.104	-16.217	-146.039	-8191	255	
42146.906	1	1	0	0	0.22076	0.085025	0.070699	0.1626	0.13797	0.11462	0.25473	0.089708	0.13318	0.2421	0.13064	0.054619	0.098212	0.23659	0.078876	0.19448	-2.3333	-2.5354	-2.3417	-2.8271	-2.4479	-2.4375	-2.9292	-2.4979	-2.7229	-2.6375	-2.3312	-2.875	-2.4208	-2.5438	-2.7146	-2.4708	112.710	73.973	-31.682	164.105	-110.153	180.061	33.779	179.242	-126.164	-40.885	32.754	69.016	-177.013	15.204	-160.239	165.465	0.00023118	0.00034401	9.5387e-05	1188.6	3.0814e-06	3.6581e-06	1274.5	247.06	2.8226e-06	3.8547e-06	310.24	83.691	66.527	19.76	2.7013e-06	27.142	0.00055667	0.00087118	0.00025259	1170.6	9.0885e-06	9.8692e-06	1255.5	245.96	9.0579e-06	9.7423e-06	308.31	84.827	67.196	19.929	9.1714e-06	27.787	-120.721	-146.198	-72.527	-167.288	-60.937	-27.583	-167.181	-159.949	-39.413	-33.463	-159.972	-153.648	-153.576	-146.267	-42.699	-146.085	-8191	255	
42147.027	1	1	0	0	0.12111	0.14997	0.092777	0.23421	0.1401	0.084426	0.19187	0.23118	0.2683	0.16477	0.061197	0.21385	0.22554	0.045187	0.10062	0.17906	-2.1521	-2.575	-2.2104	-2.7375	-2.5792	-2.45	-2.9062	-2.3104	-2.4292	-2.5563	-2.3063	-2.7354	-2.5979	-2.325	-2.5708	-2.4896	88.103	51.573	-38.063	-122.076	174.843	75.230	143.190	-165.362	166.165	-84.564	59.354	164.906	62.326	2.761	-63.417	39.502	0.00022656	0.00043743	0.0001173	1189.7	3.8989e-06	5.1701e-06	1274.6	246.71	3.3373e-06	1.6614e-06	309.67	83.665	66.453	19.743	3.4301e-06	27.05	0.00055429	0.00088265	0.00025118	1170.9	8.95e-06	1.0265e-05	1254.5	245.51	8.9855e-06	9.8969e-06	308.26	84.732	67.113	19.952	9.0591e-06	27.624	-125.121	-111.181	-100.487	-167.323	-40.522	-29.876	-167.419	-159.955	-62.506	-34.743	-160.101	-153.664	-153.356	-145.812	-14.345	-146.567	-8191	255	
42147.125	1	1	0	0	0.12256	0.081196	0.096904	0.21215	0.19714	0.49426	0.24888	0.13345	0.21278	0.16632	0.1361	0.1508	0.12427	0.10841	0.13317	0.1688	-2.025	-2.5167	-2.3646	-2.5958	-2.6333	-2.3729	-2.8333	-2.5	-2.4062	-2.8917	-2.4083	-2.6458	-2.525	-2.3625	-2.5792	-2.3354	180.710	-79.222	123.737	97.566	52.547	-87.643	143.051	106.300	-148.172	-38.691	124.843	-166.497	93.204	25.119	32.182	-75.093	0.00021815	0.00024216	9.8401e-05	1190	3.048e-06	4.5747e-06	1272.4	248.66	2.86e-06	3.3882e-06	308.19	84.339	66.703	19.648	3.7242e-06	27.235	0.00055487	0.00084596	0.00025273	1170.1	9.0492e-06	9.8217e-06	1256.3	246.48	9.1422e-06	9.9433e-06	307.36	84.818	67.177	19.903	9.3142e-06	27.699	-124.782	-86.183	-69.851	-167.248	-80.216	-4.990	-167.293	-160.067	-25.994	-14.546	-160.094	-153.692	-153.398	-146.479	-51.628	-146.419	-8191	255	
42147.223	1	1	0	0	0.047408	0.10592	0.2827	0.17475	0.10249	0.26516	0.14782	0.08815	0.35178	0.28647	0.30186	0.31722	0.1547	0.11741	0.25289	0.14215	-2.1146	-2.5792	-2.0771	-2.7104	-2.5979	-2.25	-2.7771	-2.4021	-2.2146	-2.6229	-2.2229	-2.4708	-2.5	-2.2687	-2.6083	-2.2271	63.624	-0.629	-29.556	108.238	-94.441	119.642	53.024	122.352	-158.846	-153.808	46.205	-177.055	-25.158	99.953	-149.827	6.098	0.00021741	0.00040237	6.4942e-05	1191.7	2.4486e-06	1.358e-06	1273.9	247.4	2.243e-06	2.8676e-06	310.02	83.596	66.802	19.634	3.1847e-06	27.217	0.00056324	0.00087481	0.00024955	1170.9	9.0425e-06	9.7347e-06	1256.1	246.55	9.2757e-06	9.4812e-06	308.24	84.726	67.378	19.887	9.0176e-06	27.643	-123.322	-112.468	-75.220	-167.474	-9.809	21.742	-167.412	-160.248	-48.091	-11.434	-160.480	-153.573	-153.376	-145.760	6.914	-146.540	-8191	255	
42147.316	1	1	0	0	0.30162	0.20249	0.12249	0.21398	0.035029	0.047835	0.057048	0.25819	0.27447	0.083077	0.29306	0.10187	0.23055	0.032034	0.1284	0.089634	-1.8708	-2.7146	-2.25	-2.7	-2.4667	-1.9604	-2.7625	-2.4313	-2.1125	-2.5	-2.3854	-2.4958	-2.6146	-2.1375	-2.4396	-2.4417	-134.168	65.896	-51.226	97.263	-27.561	-11.993	140.678	131.310	82.697	-132.280	74.735	-74.758	176.879	149.990	-148.646	-173.334	0.00024684	0.00040033	0.00014774	1192.3	1.9155e-06	2.703e-06	1278	247.93	3.158e-06	3.3054e-06	309.23	83.46	65.95	19.591	2.5072e-06	27.215	0.00056229	0.00088408	0.0002384	1171	8.9034e-06	9.9216e-06	1258	246.35	8.8055e-06	9.7623e-06	307.95	84.484	66.862	19.875	9.237e-06	27.685	-125.311	-114.867	-58.593	-167.243	-42.638	57.556	-167.401	-160.170	-15.744	-26.907	-160.255	-153.639	-153.519	-146.087	-19.706	-146.794	-8191	255	
42147.438	1	1	0	0	0.20723	0.26993	0.25405	0.066526	0.38716	0.2155	0.26771	0.37697	0.15397	0.1135	0.1825	0.22039	0.1867	0.039072	0.18105	0.056259	-1.8979	-2.5125	-2.2333	-2.5708	-2.5417	-2.1167	-2.7042	-2.4688	-2.2979	-2.6125	-2.4021	-2.5458	-2.5792	-2.4833	-2.4667	-2.6083	88.200	134.209	29.623	-71.428	-2.767	162.822	144.609	84.784	4.901	162.827	79.044	-118.326	12.572	-114.683	20.699	-61.411	0.00020088	0.00057599	9.1097e-05	1189.9	2.7371e-06	4.041e-06	1275.6	248.83	2.3067e-06	3.0396e-06	307.16	83.837	66.623	19.706	2.5998e-06	27.099	0.00056283	0.0008927	0.00024268	1172.2	9.0632e-06	9.9337e-06	1255.6	246.33	9.2764e-06	1.0075e-05	307.7	84.651	67.047	19.957	9.2872e-06	27.633	-116.606	-108.218	-71.852	-167.279	-20.895	4.789	-167.222	-159.855	-112.604	-37.680	-160.593	-153.608	-153.147	-145.923	-53.641	-146.573	-8191	255	
42147.512	1	1	0	0	0.14052	0.15281	0.35391	0.25661	0.051602	0.14152	0.18968	0.13266	0.19072	0.14348	0.21887	0.26595	0.20687	0.26641	0.096613	0.076411	-1.7479	-2.5312	-2.4979	-2.5896	-2.6375	-2.3208	-2.7604	-2.5479	-2.2542	-2.4708	-2.325	-2.2917	-2.7729	-2.3292	-2.4396	-2.5625	181.759	140.794	131.479	152.458	-67.412	-97.749	166.699	-128.559	91.313	107.283	-175.057	-153.438	9.498	-91.712	72.100	-46.840	0.00021568	0.00018689	6.3021e-05	1191.2	2.88e-06	3.0951e-06	1278.1	247.32	3.2586e-06	7.4229e-07	309.41	83.575	66.501	19.762	2.5754e-06	27.333	0.0005482	0.00089027	0.00025009	1172.5	8.7157e-06	9.8563e-06	1257.5	246.29	9.2427e-06	9.6382e-06	307.88	84.6	67.178	19.96	9.675e-06	27.693	-119.006	-75.030	-69.294	-167.341	-72.550	-4.904	-167.293	-160.130	-47.337	-30.237	-160.048	-153.193	-153.736	-145.807	-50.587	-146.446	-8191	255	
42147.605	1	1	0	0	0.067684	0.27389	0.27202	0.28925	0.097142	0.28856	0.33265	0.31333	0.14465	0.15057	0.24268	0.22056	0.14201	0.068485	0.11164	0.13697	-1.7667	-2.4813	-2.3458	-2.3458	-2.4625	-2.2792	-2.5833	-2.5312	-2.3563	-2.6937	-2.4854	-2.275	-2.6771	-2.2104	-2.5146	-2.7896	84.620	-130.155	16.266	130.500	113.128	-89.315	103.907	166.537	-2.325	-135.061	134.687	-70.150	28.104	125.775	32.224	-128.232	0.0002087	0.00039402	8.5154e-05	1188.6	2.4768e-06	3.671e-06	1274.3	246.6	2.4468e-06	1.9161e-06	308.83	83.364	66.211	19.656	1.2629e-06	27.133	0.00056824	0.00089868	0.00024342	1171.5	9.0698e-06	1.0235e-05	1254.5	246.25	9.4381e-06	9.9281e-06	309.08	84.542	67.055	19.918	9.4257e-06	27.669	-124.373	-95.072	-67.452	-167.245	-62.740	-39.526	-167.115	-160.135	-51.143	-71.021	-160.233	-154.152	-153.284	-146.317	1.496	-146.765	-8191	255	
42147.703	1	1	0	0	0.056385	0.18653	0.22243	0.24434	0.19051	0.15711	0.27434	0.24132	0.21108	0.16395	0.035831	0.11449	0.20179	0.25224	0.17112	0.22682	-1.9083	-2.5542	-2.5	-2.4313	-2.65	-2.4938	-2.5125	-2.5708	-2.1104	-2.5771	-2.7083	-2.3292	-2.6208	-2.5687	-2.3833	-2.8125	18.593	108.447	-84.391	64.305	-174.842	46.726	173.850	-25.238	131.633	-137.321	-139.284	-114.304	-47.629	168.407	-136.325	116.347	0.00022485	0.00024387	8.3943e-05	1190.2	1.8731e-06	3.734e-06	1277.3	247.78	3.4147e-06	4.03e-06	309.79	83.715	66.22	19.744	1.7576e-06	27.139	0.00057515	0.00089512	0.00025275	1169.7	9.3347e-06	1.0083e-05	1256.9	246.18	9.462e-06	1.0213e-05	307.98	84.673	66.979	19.927	9.3084e-06	27.636	-126.274	-96.940	-94.891	-167.320	-63.939	-51.174	-167.438	-160.003	-50.383	-57.956	-160.059	-153.753	-153.326	-145.835	-43.677	-146.251	-8191	255	
42147.820	1	1	0	0	0.32043	0.12795	0.15688	0.26388	0.10232	0.12114	0.23924	0.11035	0.34421	0.073955	0.089316	0.051693	0.18114	0.098379	0.16994	0.14113	-1.8646	-2.4771	-2.5417	-2.3125	-2.5333	-2.6167	-2.5438	-2.8958	-2.1896	-2.5625	-2.6333	-2.3375	-2.7417	-2.3708	-2.2667	-2.7625	3.951	-106.071	4.884	56.052	66.486	-68.140	135.155	38.085	-80.302	161.193	-65.634	-146.802	-169.993	-127.493	16.154	7.100	0.00020271	0.00050158	9.5476e-05	1190.1	2.9831e-06	3.7651e-06	1272	246.97	3.9824e-06	4.3138e-06	309.75	83.711	66.514	19.64	3.0481e-06	27.177	0.00057474	0.00088315	0.0002434	1169.5	9.0079e-06	9.8555e-06	1255.1	245.95	9.3025e-06	9.872e-06	308.29	84.697	67.214	19.912	9.3193e-06	27.644	-120.873	-92.844	-113.706	-167.289	-41.866	-13.291	-167.255	-159.972	-48.732	-23.782	-160.325	-153.690	-153.421	-146.213	-35.585	-146.892	-8191	255	
42147.918	1	1	0	0	0.15185	0.11256	0.23148	0.27274	0.076031	0.15963	0.14684	0.32857	0.25281	0.082346	0.28578	0.1594	0.033218	0.22784	0.080313	0.12953	-2.1104	-2.3458	-2.4125	-2.3354	-2.5312	-2.5	-2.2938	-2.8083	-2.4479	-2.475	-2.775	-2.2979	-2.7292	-2.4667	-2.3104	-2.6604	-12.025	46.572	171.642	148.160	92.105	26.223	-33.100	143.155	-72.693	-174.953	-170.822	97.263	130.632	-116.024	74.244	-12.864	0.00022236	0.00027052	0.00011514	1190.3	2.8524e-06	3.9762e-06	1271	246.22	2.8772e-06	3.5198e-06	309.42	83.802	66.187	19.624	1.6855e-06	27.18	0.00057661	0.00090644	0.00024664	1171.8	9.0658e-06	9.9345e-06	1255.4	245.58	9.2863e-06	9.9698e-06	307.74	84.617	67.021	19.937	9.5103e-06	27.721	-120.329	-95.032	-80.218	-167.210	-48.465	-48.922	-167.254	-160.065	-20.544	-50.821	-160.065	-153.527	-153.380	-146.019	-15.291	-146.417	-8191	255	
42148.012	1	1	0	0	0.065751	0.16008	0.15016	0.095218	0.2687	0.33645	0.14745	0.21751	0.12436	0.2641	0.22918	0.10515	0.12001	0.24478	0.049259	0.066838	-2.0083	-2.3812	-2.4771	-2.4688	-2.5792	-2.4667	-2.4354	-2.7188	-2.3563	-2.3688	-2.6813	-2.4792	-2.4208	-2.6	-2.3083	-2.6	-27.597	161.980	94.008	152.262	-35.361	-41.855	92.905	-58.928	74.362	110.480	133.560	-39.272	-40.815	56.779	79.506	118.210	0.00022279	0.00046769	2.522e-05	1192.1	2.7325e-06	3.1931e-06	1274.6	247.7	3.0762e-06	3.7234e-06	309.38	83.779	66.64	19.66	2.9335e-06	27.419	0.00055038	0.00088543	0.00025783	1170.7	9.2741e-06	1.0104e-05	1257	246.19	9.4697e-06	9.8993e-06	307.95	84.621	67.16	19.944	9.1735e-06	27.751	-125.762	-126.555	-85.291	-167.250	-46.945	-30.921	-167.277	-160.016	-56.666	-6.466	-160.166	-153.726	-153.693	-146.020	-3.703	-146.594	-8191	255	
42148.109	1	1	0	0	0.29255	0.019055	0.122	0.16284	0.19163	0.1594	0.22086	0.061842	0.31207	0.2018	0.23358	0.21187	0.16975	0.24127	0.1701	0.22598	-1.8646	-2.4437	-2.6937	-2.4958	-2.5875	-2.6458	-2.575	-2.6979	-2.5771	-2.4458	-2.8	-2.3917	-2.2958	-2.7438	-2.1896	-2.6333	-147.698	11.711	168.226	163.895	25.867	90.054	83.597	-11.808	67.854	3.225	181.848	-130.609	-93.283	78.181	-68.263	149.205	0.00023578	0.00042885	6.9174e-05	1192.6	2.8279e-06	2.5829e-06	1271.5	246.81	2.5969e-06	3.6513e-06	309.55	84.112	66.798	19.707	1.7893e-06	27.052	0.00056307	0.00089804	0.00024817	1169.9	9.2103e-06	1.0038e-05	1255.6	245.7	9.1408e-06	1.0116e-05	308.12	84.564	67.116	19.958	9.7391e-06	27.689	-127.066	-98.019	-105.395	-167.372	-11.335	-10.208	-167.024	-159.912	-34.299	-26.097	-160.210	-153.837	-153.459	-146.017	-36.559	-146.453	-8191	255	
42148.203	1	1	0	0	0.17309	0.22844	0.20644	0.13432	0.21239	0.29079	0.16725	0.25219	0.11357	0.2029	0.096943	0.021289	0.21177	0.22684	0.16528	0.10218	-1.9229	-2.1771	-2.6979	-2.3979	-2.3542	-2.6021	-2.3833	-2.6958	-2.6417	-2.4083	-2.7083	-2.4771	-2.3396	-2.6104	-2.3979	-2.5438	-39.591	75.000	-115.837	69.712	20.218	-147.436	125.396	98.019	130.221	53.074	52.454	43.232	-117.806	149.651	113.818	9.142	0.00021517	0.00067668	8.4217e-05	1189.9	4.285e-06	5.9926e-06	1266.3	247.03	3.7185e-06	4.3584e-06	310.97	83.957	66.17	19.57	2.8092e-06	27.212	0.00055752	0.00092005	0.00024583	1170.3	9.1084e-06	9.9474e-06	1254.3	246.13	9.2455e-06	9.8993e-06	308.52	84.782	67.042	19.958	9.5197e-06	27.726	-127.874	-80.162	-81.468	-167.416	-39.381	-12.944	-167.234	-160.112	0.429	-59.373	-159.971	-153.588	-153.259	-146.298	2.546	-146.129	-8191	255	
42148.301	1	1	0	0	0.099856	0.14678	0.13194	0.16014	0.13753	0.23011	0.16994	0.35155	0.12905	0.13434	0.086997	0.27295	0.25682	0.33387	0.11667	0.18926	-2.0396	-2.2812	-2.5979	-2.4021	-2.3229	-2.6708	-2.4333	-2.5854	-2.6312	-2.3063	-2.6667	-2.525	-2.4583	-2.6104	-2.3354	-2.3104	0.648	-138.844	145.147	180.407	75.805	94.473	158.633	136.851	-114.888	107.189	-79.008	95.974	119.482	-123.651	-134.447	-74.724	0.00023919	0.00035361	8.8267e-05	1188.5	1.1139e-06	4.1631e-06	1271.5	248.19	3.7706e-06	2.8383e-06	307.79	83.754	66.557	19.668	1.8086e-06	27.067	0.00056763	0.00091414	0.00024441	1170.5	8.9933e-06	9.9151e-06	1256.3	246.19	9.3763e-06	9.7607e-06	307.68	84.638	67.213	19.954	9.1706e-06	27.716	-121.784	-97.656	-63.165	-167.455	-54.824	-15.877	-167.373	-160.021	-58.813	-86.572	-160.534	-153.867	-153.651	-146.408	-52.402	-146.382	-8191	255	
42148.422	1	1	0	0	0.1187	0.12553	0.2962	0.14247	0.082917	0.14523	0.2139	0.20155	0.19485	0.19954	0.26775	0.35455	0.33917	0.23069	0.15118	0.31123	-2.3042	-2.0187	-2.5854	-2.6354	-2.2979	-2.6771	-2.5125	-2.4854	-2.7021	-2.2313	-2.8333	-2.5521	-2.4229	-2.5417	-2.4437	-2.325	71.517	51.214	89.921	-161.918	-127.955	-171.813	101.263	-119.354	95.553	-18.884	78.275	-137.373	89.984	-173.375	-61.452	-152.840	0.00020287	0.00050154	8.8979e-05	1191	1.4525e-06	3.1684e-06	1273.4	247.68	4.1507e-06	3.3487e-06	308.6	84.222	66.511	19.733	1.9542e-06	27.226	0.0005596	0.00092689	0.00024913	1170.2	9.334e-06	9.7935e-06	1254.1	246.33	9.2849e-06	1.01e-05	307.58	84.752	67.018	19.953	9.2413e-06	27.685	-123.817	-90.798	-75.241	-167.251	-42.678	-40.857	-167.081	-159.953	-36.101	-23.284	-160.425	-153.809	-153.422	-146.235	-35.039	-146.458	-8191	255	
42148.520	1	1	0	0	0.0082111	0.25606	0.065789	0.063503	0.23355	0.35054	0.29597	0.14928	0.29836	0.12309	0.34367	0.25269	0.14534	0.1249	0.089121	0.046361	-2.0417	-2.2313	-2.4062	-2.5625	-2.3208	-2.8083	-2.5417	-2.4125	-2.5396	-2.2729	-2.5646	-2.5292	-2.3833	-2.6833	-2.2292	-2.4146	144.292	-14.691	-107.836	-2.023	4.498	-126.826	100.785	-172.148	-62.173	-3.692	-106.831	176.030	-82.624	89.443	178.740	-163.320	0.00022411	0.00059538	5.2175e-05	1193	4.4322e-06	4.4716e-06	1274	247.02	2.4514e-06	1.5658e-06	308.24	84.2	66.5	19.547	2.3459e-06	27.096	0.00055858	0.00093252	0.00024294	1172	9.161e-06	9.9828e-06	1257.2	245.66	9.3411e-06	9.8056e-06	307.54	84.644	67.262	19.946	9.2144e-06	27.694	-124.694	-82.200	-121.764	-167.337	-24.442	-53.792	-167.154	-159.999	-57.772	3.109	-160.084	-153.713	-153.542	-146.256	-46.711	-146.408	-8191	255	
42148.613	1	1	0	0	0.20386	0.16339	0.067649	0.19356	0.26421	0.092674	0.23904	0.17902	0.11715	0.12048	0.099119	0.39399	0.15806	0.18648	0.16366	0.07835	-2.1792	-2.2458	-2.4917	-2.7771	-2.1208	-2.7062	-2.4938	-2.3958	-2.5687	-2.2208	-2.3583	-2.6562	-2.2417	-2.5563	-2.4708	-2.4667	-130.599	148.655	-105.700	117.121	-175.952	173.851	158.012	-128.581	134.193	108.569	-111.757	-19.607	44.158	109.080	95.178	78.071	0.00022027	0.0006054	0.00011876	1188.5	2.4043e-06	3.6305e-06	1270	246.5	3.333e-06	1.6522e-06	312.08	83.812	66.979	19.725	2.5064e-06	27.45	0.00057062	0.00092967	0.000252	1171.1	9.3181e-06	1.0196e-05	1255.8	245.7	9.1064e-06	1.0025e-05	308.38	84.605	67.432	19.924	9.3995e-06	27.806	-124.167	-101.914	-56.799	-167.232	-54.068	-64.267	-167.155	-159.840	-79.108	30.956	-159.978	-153.643	-152.948	-145.922	-4.455	-146.536	-8191	255	
42148.711	1	1	0	0	0.16775	0.060983	0.13055	0.37596	0.076681	0.31229	0.24643	0.16559	0.3106	0.11776	0.032493	0.12658	0.29011	0.01289	0.14984	0.1742	-2.3646	-2.275	-2.4583	-2.8229	-2.1688	-2.6083	-2.5875	-2.3146	-2.5583	-2.3625	-2.4646	-2.4646	-2.375	-2.4875	-2.3812	-2.3729	-96.418	-70.828	117.480	132.987	-108.562	-19.545	45.508	169.198	-24.824	104.187	-124.891	107.753	165.413	-86.016	58.512	-145.942	0.00022391	0.0002902	0.00013665	1189.1	3.6385e-06	4.0024e-06	1276.5	246.95	2.4894e-06	2.8335e-06	309.09	83.913	66.492	19.556	1.6423e-06	27.25	0.00056266	0.00091777	0.00024991	1171	9.6615e-06	1.0247e-05	1255.2	246.32	9.5267e-06	1.0236e-05	308.06	84.603	67.264	19.964	9.2501e-06	27.724	-123.943	-117.088	-93.496	-167.394	-4.668	-81.718	-167.374	-160.010	-2.554	-28.251	-160.310	-154.232	-153.693	-145.933	-30.965	-146.564	-8191	255	
42148.805	1	1	0	0	0.12044	0.36793	0.30907	0.22972	0.041797	0.16295	0.41072	0.050125	0.31341	0.16826	0.12618	0.13095	0.13773	0.14015	0.07843	0.24488	-2.3583	-2.2875	-2.1917	-2.5979	-2.1604	-2.5042	-2.5979	-2.3771	-2.6063	-2.55	-2.3542	-2.675	-2.3917	-2.4313	-2.6437	-2.2604	67.436	32.551	-73.213	163.248	-17.256	-91.830	144.668	156.957	-109.185	22.695	-168.357	-26.183	-43.551	13.665	-52.891	154.710	0.00020998	0.0001628	9.4601e-06	1191	3.1951e-06	5.1522e-06	1276.6	248.48	3.416e-06	3.4533e-06	310.54	83.632	66.901	19.61	9.661e-07	27.005	0.00056936	0.00091328	0.00025447	1172	9.3001e-06	1.0331e-05	1258.6	246.45	9.1998e-06	1.0269e-05	308.89	84.618	67.38	19.896	9.6189e-06	27.69	-127.637	-118.887	-10.862	-167.462	-32.637	-16.399	-167.388	-159.844	-70.160	-76.963	-160.467	-153.919	-153.535	-146.237	-59.072	-146.104	-8191	255	
42148.902	1	1	0	0	0.071993	0.31686	0.39423	0.080571	0.093103	0.25623	0.074729	0.20326	0.24334	0.035652	0.043097	0.12371	0.29309	0.057205	0.068778	0.22885	-2.1458	-2.4062	-2.3521	-2.7458	-2.2917	-2.3979	-2.6417	-2.1604	-2.6833	-2.5312	-2.3771	-2.5875	-2.3146	-2.3625	-2.4771	-2.3937	95.233	125.859	-50.175	-137.222	-79.158	-161.596	-140.705	59.305	-69.304	-42.664	-74.986	-148.895	148.927	-76.210	-96.420	179.159	0.00023663	0.00026092	8.9531e-05	1190.7	1.9876e-06	2.9719e-06	1271.8	247.67	3.276e-06	2.7764e-06	308.68	84.388	66.53	19.661	2.6947e-06	27.265	0.00056525	0.00089241	0.00025745	1171.1	9.2415e-06	1.0121e-05	1256.6	246.31	9.4079e-06	1.0173e-05	308.56	84.78	67.182	19.965	9.5278e-06	27.746	-128.684	-39.033	-103.799	-167.562	-81.917	3.251	-167.267	-160.010	-23.961	-31.720	-160.025	-153.794	-153.634	-145.847	-23.464	-146.215	-8191	255	
42148.996	1	1	0	0	0.17325	0.15979	0.18726	0.14322	0.071556	0.32875	0.22531	0.18209	0.15043	0.24292	0.053564	0.33173	0.076626	0.1075	0.14233	0.303	-2.2146	-2.4	-2.3396	-2.6771	-2.3396	-2.4917	-2.7271	-2.4333	-2.4792	-2.6937	-2.3333	-2.6771	-2.1167	-2.3833	-2.7167	-2.4792	151.559	14.963	-101.333	84.912	161.572	92.873	121.895	25.337	111.456	-95.516	-177.813	120.536	-84.253	4.128	-117.422	-44.830	0.00023378	0.00050344	8.3551e-05	1191.2	1.7371e-06	4.3179e-06	1279.1	246.11	2.0951e-06	4.0401e-06	308.62	83.677	66.469	19.712	4.4785e-06	27.209	0.00055079	0.00091499	0.00025863	1172	8.972e-06	1.0166e-05	1258.4	246.01	9.3116e-06	1.0124e-05	308.31	84.883	66.995	19.959	9.1378e-06	27.731	-123.925	-76.688	-96.123	-167.522	-8.033	-30.791	-167.266	-159.943	-7.292	-43.466	-160.115	-153.373	-153.280	-146.130	-55.823	-146.461	-8191	255	
42149.094	1	1	0	0	0.21061	0.49601	0.18883	0.27236	0.11384	0.095508	0.39565	0.12706	0.079663	0.141	0.29213	0.15967	0.19248	0.28463	0.16782	0.14223	-2.1604	-2.4396	-2.2917	-2.7167	-2.4271	-2.5687	-2.7	-2.4021	-2.5312	-2.7875	-2.175	-2.5896	-2.5563	-2.2979	-2.6333	-2.3229	52.911	25.946	-152.290	84.355	106.545	-67.505	117.645	46.137	165.105	181.719	168.209	96.071	-76.595	-66.213	-149.466	28.244	0.00023737	0.00044881	8.92e-05	1189.8	2.3251e-06	2.7371e-06	1272.4	248.4	2.6904e-06	2.7061e-06	309.24	83.728	66.293	19.648	6.5333e-07	27.323	0.00058148	0.0009224	0.00025297	1172	8.9773e-06	1.0466e-05	1256.5	246.51	9.4971e-06	1.0227e-05	308.66	84.677	67.268	19.967	9.4432e-06	27.777	-127.716	-64.427	-64.169	-167.423	-41.733	-20.808	-167.282	-160.273	-68.609	-69.294	-160.170	-153.691	-153.867	-146.065	-52.093	-146.509	-8191	255	
42149.215	1	1	0	0	0.076296	0.0968	0.16232	0.26237	0.15143	0.14577	0.10834	0.28229	0.12199	0.050235	0.062204	0.16868	0.19964	0.083737	0.19162	0.14625	-1.8979	-2.45	-2.0812	-2.7062	-2.4792	-2.3021	-2.7917	-2.3979	-2.3083	-2.6146	-2.2042	-2.575	-2.3583	-2.2333	-2.6146	-2.4521	-53.287	151.377	-26.581	146.922	141.844	-147.807	-105.741	87.217	-156.146	113.849	57.312	84.603	56.259	49.244	-161.958	178.991	0.00022719	0.00054114	0.00010249	1192.8	3.613e-06	1.4819e-06	1270.3	245.71	2.9153e-06	3.9929e-06	309.5	84.286	66.62	19.64	2.9009e-06	27.212	0.00056773	0.00093266	0.00025327	1172.5	8.8861e-06	1.0256e-05	1256.3	245.77	9.346e-06	1.0337e-05	307.75	84.818	67.318	19.977	8.9476e-06	27.737	-120.175	-96.272	-95.067	-167.497	-18.571	-13.739	-167.219	-160.060	-6.843	-56.727	-159.987	-153.665	-153.025	-146.045	-48.518	-146.426	-8191	255	
42149.309	1	1	0	0	0.071063	0.20383	0.28228	0.20962	0.17441	0.19503	0.16241	0.18397	0.30577	0.27828	0.062034	0.13546	0.20451	0.2462	0.23625	0.1003	-1.9021	-2.5771	-2.2313	-2.6104	-2.275	-2.3208	-2.7	-2.5083	-2.4521	-2.8542	-2.2271	-2.6333	-2.4896	-2.0292	-2.6979	-2.45	-132.071	-140.362	91.935	-177.239	-14.540	-88.595	70.191	82.323	-167.082	180.063	-148.666	158.054	-28.338	-97.781	153.850	-140.968	0.00023356	0.0004354	8.7828e-05	1189.7	2.8884e-06	7.5894e-06	1270.7	248.09	3.7855e-06	3.4434e-06	310.08	83.604	66.371	19.749	1.9324e-06	27.178	0.00058896	0.00090267	0.00025118	1170.4	9.167e-06	1.0296e-05	1257.7	246.44	9.5653e-06	1.0199e-05	308.57	84.588	67.067	19.94	9.1889e-06	27.696	-121.026	-87.415	-120.385	-167.401	-38.612	-39.913	-167.288	-159.758	-24.094	-20.292	-160.286	-153.511	-153.261	-146.035	-36.909	-146.385	-8191	255	
42149.406	1	1	0	0	0.34109	0.083681	0.19343	0.26056	0.10283	0.22812	0.2737	0.25155	0.1414	0.12397	0.12066	0.28895	0.12411	0.25163	0.055439	0.14053	-1.9937	-2.8042	-2.1625	-2.4625	-2.3896	-2.2979	-2.7854	-2.4104	-2.4667	-2.6292	-2.4167	-2.4562	-2.4917	-2.2062	-2.45	-2.3396	128.309	-42.031	14.610	74.251	1.466	94.287	119.931	166.715	130.255	30.689	118.443	63.410	170.330	84.347	81.579	76.181	0.00023641	0.00050262	9.0767e-05	1194.4	1.1409e-06	1.7564e-06	1277.3	247.06	4.3345e-06	3.1457e-06	307.03	84.63	66.499	19.541	1.8018e-06	27.266	0.00056889	0.0009083	0.00025437	1171.5	9.1909e-06	1.0063e-05	1256.4	246.03	9.2279e-06	9.973e-06	307.36	84.8	67.175	19.909	9.218e-06	27.719	-122.370	-69.444	-79.609	-167.220	-18.372	-11.190	-167.463	-159.998	-21.510	-51.556	-160.006	-153.617	-153.146	-146.274	10.316	-146.768	-8191	255	
42149.504	1	1	0	0	0.17727	0.17501	0.23932	0.19696	0.17895	0.26722	0.34224	0.47225	0.10687	0.098818	0.11815	0.16809	0.14903	0.094292	0.037898	0.22866	-1.8542	-2.5312	-2.2438	-2.6375	-2.4979	-2.2729	-2.6437	-2.5979	-2.3104	-2.6937	-2.5	-2.4208	-2.6771	-2.2667	-2.4792	-2.5938	60.537	3.470	-60.616	76.112	0.044	17.334	110.890	111.418	-175.012	-83.456	48.942	163.439	-130.074	120.988	109.587	-69.965	0.00019964	0.0002503	0.00012828	1189.9	2.1759e-06	1.4751e-06	1269.7	248.08	2.0576e-06	2.7144e-06	308.56	84.491	66.82	19.724	1.8889e-06	27.196	0.00057192	0.00089091	0.00024875	1171.6	9.147e-06	9.9506e-06	1255.5	246.42	9.5028e-06	9.9073e-06	308.24	84.815	67.129	19.952	9.1655e-06	27.649	-125.668	-111.379	-65.478	-167.239	-97.035	10.607	-167.341	-159.716	-48.874	-27.527	-159.899	-153.647	-153.576	-145.859	158.156	-146.496	-8191	255	
42149.598	1	1	0	0	0.15726	0.43724	0.012501	0.084351	0.25243	0.16617	0.26433	0.13727	0.12057	0.10908	0.084514	0.16577	0.24639	0.28305	0.034771	0.023845	-1.7583	-2.3792	-2.1729	-2.3333	-2.725	-2.3646	-2.6417	-2.5979	-2.3812	-2.7292	-2.4917	-2.35	-2.7375	-2.4292	-2.4083	-2.4354	-12.614	5.018	173.787	-164.957	117.924	-154.577	89.728	122.731	-113.892	174.965	103.074	37.208	160.563	-158.155	94.671	150.922	0.00023542	0.00022904	8.3793e-05	1190.4	2.6883e-06	5.0308e-06	1274.6	246.88	3.8714e-06	2.5532e-06	311.55	84.215	66.656	19.565	3.4955e-06	27.221	0.00056885	0.00087033	0.0002393	1170.4	9.0026e-06	9.6325e-06	1256	245.69	9.514e-06	9.7423e-06	308.79	84.746	67.268	19.927	9.5977e-06	27.696	-126.431	-127.571	-96.905	-167.348	-27.776	-37.757	-167.486	-160.365	-41.606	-43.363	-160.111	-153.562	-153.388	-145.776	-22.746	-146.425	-8191	255	
42149.695	1	1	0	0	0.15143	0.26006	0.094346	0.13255	0.03635	0.013881	0.18299	0.15417	0.095537	0.095178	0.13197	0.24958	0.062492	0.12333	0.059259	0.069573	-1.8292	-2.5708	-2.3333	-2.4583	-2.7271	-2.4042	-2.6063	-2.575	-2.2646	-2.5833	-2.4167	-2.2375	-2.5417	-2.3292	-2.4875	-2.6	90.187	30.060	3.088	137.186	129.606	49.619	-159.715	-157.007	-163.568	-102.523	-176.832	168.012	-63.221	-85.524	107.251	-49.888	0.00023417	0.00030115	5.4113e-05	1192.1	3.5316e-06	4.678e-06	1271.2	248.56	2.8652e-06	1.7811e-06	309.61	83.549	66.255	19.617	2.66e-06	27.17	0.00055807	0.00092668	0.00024352	1171.7	9.0538e-06	9.8563e-06	1256.3	246.41	9.2533e-06	9.7375e-06	308.81	84.611	67.199	19.923	9.7041e-06	27.672	-126.044	-134.977	-136.863	-167.393	-21.463	-6.735	-167.071	-160.247	-27.882	-7.882	-160.462	-153.578	-153.354	-146.202	-50.607	-146.604	-8191	255	
42149.789	1	1	0	0	0.3024	0.14826	0.058351	0.28787	0.14117	0.1456	0.17899	0.10659	0.21382	0.14118	0.21392	0.18624	0.13609	0.11446	0.061878	0.09245	-1.6229	-2.6458	-2.5271	-2.4792	-2.8229	-2.5417	-2.6417	-2.6667	-2.3417	-2.6896	-2.5187	-2.2125	-2.6729	-2.4083	-2.4625	-2.7938	-177.594	5.448	-152.258	129.963	84.466	-128.501	-155.869	114.519	174.406	-137.460	152.167	141.385	142.789	-90.240	-49.161	-21.876	0.00021025	0.00011629	2.3611e-05	1190.7	2.5853e-06	3.7496e-06	1275.6	246.77	2.1247e-06	2.848e-06	308.01	83.948	66.067	19.733	3.9367e-06	27.437	0.00054242	0.0008969	0.00025212	1171.6	9.0325e-06	1.0034e-05	1258.9	246.15	9.5119e-06	9.9257e-06	307.72	84.658	67.144	19.985	9.3725e-06	27.704	-126.298	-68.429	-73.529	-167.405	-64.211	-5.121	-167.452	-160.064	-17.869	-47.851	-160.134	-153.160	-153.365	-146.111	-17.522	-146.376	-8191	255	
#DATA ENDS
