BOXY.EXE: ISS Imagent and Oximeter Data Acquisition Program Version 0.80
Ascii Record File

#ACQ INFORMATION
2  Detector Channels 
16  External MUX Channels 
1  Auxiliary Channels 
5000  Waveform (CCF) Frequency (Hz)
1  Waveforms Skipped 
30  Waveforms Averaged 
1  Cycles Averaged 
16  Acquisitions per Waveform 
10.0806  Updata Rate (Hz) 

#FILE INFORMATION
TRUE -- External MUX Channel results are PARSED.
FALSE -- AC DC and Phase are NOT grouped.
TRUE -- Companion Program Settings File CREATED.
FALSE -- AC data not excluded
FALSE -- DC data not excluded
FALSE -- Phase data not excluded
FALSE -- Auxillary Chn. data not excluded
Tab delimiters

#CALIBRATION STATE
TRUE -- Waveform Calibration Values APPLIED.


#AUX CALIBRATION VALUES
Val Type	aux-1	

Term	1.0000e+00	
Factor	0.0000e+00	


#WF CALIBRATION VALUES
A = Detector Channel
Val Type	A-AC1	A-AC2	A-AC3	A-AC4	A-AC5	A-AC6	A-AC7	A-AC8	A-AC9	A-AC10	A-AC11	A-AC12	A-AC13	A-AC14	A-AC15	A-AC16	A-DC1	A-DC2	A-DC3	A-DC4	A-DC5	A-DC6	A-DC7	A-DC8	A-DC9	A-DC10	A-DC11	A-DC12	A-DC13	A-DC14	A-DC15	A-DC16	A-Ph1	A-Ph2	A-Ph3	A-Ph4	A-Ph5	A-Ph6	A-Ph7	A-Ph8	A-Ph9	A-Ph10	A-Ph11	A-Ph12	A-Ph13	A-Ph14	A-Ph15	A-Ph16	

Term	0.00000e+00	0.00000e+00	0.00000e+00	0.00000e+00	0.00000e+00	0.00000e+00	0.00000e+00	0.00000e+00	0.00000e+00	0.00000e+00	0.00000e+00	0.00000e+00	0.00000e+00	0.00000e+00	0.00000e+00	0.00000e+00	0.00000e+00	0.00000e+00	0.00000e+00	0.00000e+00	0.00000e+00	0.00000e+00	0.00000e+00	0.00000e+00	0.00000e+00	0.00000e+00	0.00000e+00	0.00000e+00	0.00000e+00	0.00000e+00	0.00000e+00	0.00000e+00	0.00000e+00	0.00000e+00	0.00000e+00	0.00000e+00	0.00000e+00	0.00000e+00	0.00000e+00	0.00000e+00	0.00000e+00	0.00000e+00	0.00000e+00	0.00000e+00	0.00000e+00	0.00000e+00	0.00000e+00	0.00000e+00	
Factor	1.00000e+00	1.00000e+00	1.00000e+00	1.00000e+00	1.00000e+00	1.00000e+00	1.00000e+00	1.00000e+00	1.00000e+00	1.00000e+00	1.00000e+00	1.00000e+00	1.00000e+00	1.00000e+00	1.00000e+00	1.00000e+00	1.00000e+00	1.00000e+00	1.00000e+00	1.00000e+00	1.00000e+00	1.00000e+00	1.00000e+00	1.00000e+00	1.00000e+00	1.00000e+00	1.00000e+00	1.00000e+00	1.00000e+00	1.00000e+00	1.00000e+00	1.00000e+00	X	X	X	X	X	X	X	X	X	X	X	X	X	X	X	X	

B = Detector Channel
Val Type	B-AC1	B-AC2	B-AC3	B-AC4	B-AC5	B-AC6	B-AC7	B-AC8	B-AC9	B-AC10	B-AC11	B-AC12	B-AC13	B-AC14	B-AC15	B-AC16	B-DC1	B-DC2	B-DC3	B-DC4	B-DC5	B-DC6	B-DC7	B-DC8	B-DC9	B-DC10	B-DC11	B-DC12	B-DC13	B-DC14	B-DC15	B-DC16	B-Ph1	B-Ph2	B-Ph3	B-Ph4	B-Ph5	B-Ph6	B-Ph7	B-Ph8	B-Ph9	B-Ph10	B-Ph11	B-Ph12	B-Ph13	B-Ph14	B-Ph15	B-Ph16	

Term	0.00000e+00	0.00000e+00	0.00000e+00	0.00000e+00	0.00000e+00	0.00000e+00	0.00000e+00	0.00000e+00	0.00000e+00	0.00000e+00	0.00000e+00	0.00000e+00	0.00000e+00	0.00000e+00	0.00000e+00	0.00000e+00	0.00000e+00	0.00000e+00	0.00000e+00	0.00000e+00	0.00000e+00	0.00000e+00	0.00000e+00	0.00000e+00	0.00000e+00	0.00000e+00	0.00000e+00	0.00000e+00	0.00000e+00	0.00000e+00	0.00000e+00	0.00000e+00	-9.39495e+01	-1.35721e+02	-1.25820e+02	-1.82069e+02	-5.43409e+01	-6.46157e+01	-1.59155e+02	-1.62015e+02	-5.88718e+01	-7.21298e+01	-1.73297e+02	-1.72413e+02	-1.88332e+02	-1.77837e+02	-6.17040e+01	-1.50152e+02	
Factor	2.01488e-05	2.23168e-04	6.04090e-05	1.68445e-01	1.69383e-06	2.40167e-06	2.07806e-01	7.28711e-02	1.55576e-06	2.23671e-06	1.33238e-01	3.79796e-02	4.46465e-02	1.08739e-02	1.81721e-06	1.57391e-02	1.63297e-05	3.41947e-05	9.55667e-06	8.38009e-02	3.19477e-07	3.86555e-07	9.64301e-02	3.65082e-02	3.37376e-07	3.84469e-07	6.46773e-02	1.85256e-02	2.24160e-02	5.48690e-03	3.49829e-07	7.69830e-03	X	X	X	X	X	X	X	X	X	X	X	X	X	X	X	X	



#DISTANCE SETTINGS
A = Detector Channel
A-1	A-2	A-3	A-4	A-5	A-6	A-7	A-8	A-9	A-10	A-11	A-12	A-13	A-14	A-15	A-16	

2.5000e+00	3.0000e+00	2.5000e+00	3.0000e+00	2.0000e+00	3.0000e+00	1.5000e+00	3.0000e+00	3.0000e+00	3.0000e+00	3.0000e+00	3.0000e+00	3.0000e+00	3.0000e+00	1.5000e+00	3.0000e+00	

B = Detector Channel
B-1	B-2	B-3	B-4	B-5	B-6	B-7	B-8	B-9	B-10	B-11	B-12	B-13	B-14	B-15	B-16	

1.0000e+01	1.0000e+01	1.0000e+01	1.4400e+00	1.0000e+01	1.0000e+01	1.5100e+00	1.9400e+00	1.0000e+01	1.0000e+01	1.9900e+00	2.4900e+00	2.4100e+00	2.9000e+00	1.0000e+01	2.9800e+00	




#DATA BEGINS
time	group	step	mark	flag	A-AC1	A-AC2	A-AC3	A-AC4	A-AC5	A-AC6	A-AC7	A-AC8	A-AC9	A-AC10	A-AC11	A-AC12	A-AC13	A-AC14	A-AC15	A-AC16	A-DC1	A-DC2	A-DC3	A-DC4	A-DC5	A-DC6	A-DC7	A-DC8	A-DC9	A-DC10	A-DC11	A-DC12	A-DC13	A-DC14	A-DC15	A-DC16	A-Ph1	A-Ph2	A-Ph3	A-Ph4	A-Ph5	A-Ph6	A-Ph7	A-Ph8	A-Ph9	A-Ph10	A-Ph11	A-Ph12	A-Ph13	A-Ph14	A-Ph15	A-Ph16	B-AC1	B-AC2	B-AC3	B-AC4	B-AC5	B-AC6	B-AC7	B-AC8	B-AC9	B-AC10	B-AC11	B-AC12	B-AC13	B-AC14	B-AC15	B-AC16	B-DC1	B-DC2	B-DC3	B-DC4	B-DC5	B-DC6	B-DC7	B-DC8	B-DC9	B-DC10	B-DC11	B-DC12	B-DC13	B-DC14	B-DC15	B-DC16	B-Ph1	B-Ph2	B-Ph3	B-Ph4	B-Ph5	B-Ph6	B-Ph7	B-Ph8	B-Ph9	B-Ph10	B-Ph11	B-Ph12	B-Ph13	B-Ph14	B-Ph15	B-Ph16	aux-1	digaux	

42743.492	1	1	0	768	0.39297	0.25099	0.34021	0.21658	0.12511	0.057308	0.11088	0.26412	0.2047	0.28573	0.27687	0.29476	0.14928	0.46715	0.1733	0.19384	-1.1875	-2.125	-2.1958	-1.8667	-2.2	-1.9604	-1.6833	-2.3604	-1.9062	-1.9604	-2.175	-1.8375	-2.2417	-2.0875	-2.1146	-2.4229	204.434	128.039	159.121	-4.017	131.131	-29.996	206.520	292.900	84.305	-6.197	-49.642	22.435	263.499	274.699	3.008	181.587	0.00013452	0.00038126	7.0398e-05	377.9	2.01e-06	3.9185e-06	340.14	144.46	3.7175e-05	1.5418e-05	161.95	77.781	71.002	38.637	2.3546e-05	39.981	0.00044046	0.00063011	0.00017877	396.57	6.2172e-06	6.8992e-06	346.91	148.94	1.2332e-05	7.6501e-05	166.59	80.436	74.078	40.158	5.0303e-05	41.127	196.987	29.825	68.048	-42.571	108.228	69.346	-43.328	-36.634	39.897	142.173	-39.560	-35.488	-32.375	-28.666	159.943	-32.440	-8191	255	
42743.586	1	1	0	0	0.36102	0.30846	0.01965	0.21748	0.10987	0.19576	0.10459	0.14346	0.083709	0.26737	0.12407	0.20624	0.27399	0.13553	0.061179	0.29589	-1.4875	-2.1937	-2.1854	-1.9375	-2.4833	-2.0667	-1.8188	-2.3146	-2.1854	-1.9854	-2.4938	-2.1854	-2.2958	-2.1167	-1.9625	-2.3812	150.937	158.210	263.885	52.395	192.793	11.212	-33.864	221.435	2.646	148.315	156.445	208.682	57.972	218.327	-6.575	164.173	0.00011617	0.00046779	8.1133e-05	369.3	2.36e-06	3.1714e-06	329.44	144.3	1.4991e-06	2.4478e-05	161.92	77.811	71.894	39.512	3.4106e-05	40.746	0.00042386	0.00071602	0.00018357	399.1	6.0681e-06	7.0361e-06	336.56	148.4	6.2267e-06	5.4925e-05	166.62	81.058	75.126	41.055	9.1158e-05	42.153	206.222	31.478	45.530	-42.532	103.606	115.158	-43.342	-36.327	154.463	47.406	-39.438	-35.594	-32.421	-28.486	171.280	-32.301	-8191	255	
42743.684	1	1	0	0	0.31526	0.34457	0.089503	0.37605	0.28225	0.14229	0.074314	0.14717	0.18545	0.07416	0.2308	0.23351	0.1125	0.21124	0.22498	0.22463	-1.5125	-1.8521	-2.2854	-1.8312	-2.0625	-2.5125	-1.9896	-2.2562	-2.0438	-2.0146	-2.2729	-1.9271	-2.0062	-2.1083	-1.875	-2.2792	237.546	128.138	195.359	282.828	92.981	120.244	200.017	39.332	294.494	206.187	274.708	13.827	-50.817	-30.076	207.917	1.818	0.00012987	0.00037329	9.7513e-05	377.93	1.121e-05	4.6648e-06	336.14	146.04	1.9534e-06	5.6497e-05	164.48	79.814	73.112	40.142	1.9249e-05	41.718	0.0004276	0.00070762	0.00017998	390.5	1.3975e-05	7.1738e-06	342.35	150.84	6.2344e-06	0.00010091	169.69	82.677	76.371	41.706	5.0937e-05	42.921	202.174	53.896	16.357	-42.402	258.336	120.086	-43.783	-36.243	103.880	47.916	-38.935	-35.208	-32.830	-28.665	170.783	-32.202	-8191	255	
42743.777	1	1	0	0	0.26543	0.10972	0.10659	0.072625	0.15221	0.12813	0.16393	0.14902	0.34164	0.071597	0.25275	0.26147	0.2918	0.13147	0.23167	0.05804	-1.5688	-1.7625	-2.3708	-1.8563	-2.2333	-2	-1.9333	-2.1521	-2.1917	-1.8125	-2.2292	-1.9771	-1.875	-2.3625	-2.0979	-2.1688	1.108	176.087	26.451	237.399	292.808	160.735	41.757	223.239	118.664	-33.545	202.588	253.116	-29.004	94.812	61.853	-28.058	0.00013189	0.00050527	9.6268e-05	379.15	2.5753e-05	5.7447e-06	342.11	148.11	1.9729e-06	2.6621e-05	169.04	81.574	74.269	40.566	4.0774e-05	42.478	0.00043624	0.0007557	0.00017098	386.59	6.9681e-05	7.1706e-06	349.32	152.03	6.3223e-06	5.5393e-05	172.82	84.598	77.353	42.213	9.2469e-05	43.922	197.635	24.208	27.348	-42.688	264.551	85.298	-43.152	-36.327	134.470	49.136	-39.239	-35.219	-32.727	-28.652	172.447	-32.035	-8191	255	
42743.875	1	1	0	0	0.19205	0.20674	0.17965	0.17144	0.17624	0.12178	0.29098	0.14639	0.067178	0.23326	0.060907	0.21257	0.16442	0.13488	0.086592	0.066835	-1.6	-1.925	-2.3146	-2.0708	-2.0083	-2.2313	-1.95	-2.1729	-2.0812	-1.8479	-2.075	-2.0146	-2.0875	-2.2062	-1.8667	-2.1562	48.197	138.104	229.861	-46.379	164.172	101.877	48.422	-32.366	132.483	244.976	231.552	244.329	208.201	-39.496	-22.475	-8.741	0.00011755	0.00055995	9.2991e-05	379.08	1.8331e-05	2.8678e-06	345.15	147.54	2.834e-06	4.1393e-05	166.86	80.255	72.439	39.578	1.2033e-05	40.786	0.0004558	0.00071624	0.00017622	387.4	4.6685e-05	7.0522e-06	352.27	151.72	6.569e-06	0.00010143	171.19	82.958	75.727	41.075	3.4309e-05	42.532	184.610	41.400	44.401	-42.496	-53.295	100.181	-43.524	-36.378	109.124	60.919	-39.470	-35.280	-32.197	-28.671	110.616	-32.073	-8191	255	
42743.973	1	1	0	0	0.14681	0.28139	0.20939	0.12719	0.2937	0.24338	0.27646	0.36732	0.24136	0.11707	0.12017	0.25239	0.14873	0.16794	0.42761	0.1331	-1.8271	-1.925	-2.1875	-2.2188	-2.0438	-2.4646	-1.9854	-2.1375	-2.1208	-2.0208	-2.1375	-2.1042	-2.0167	-2.6167	-1.9167	-2.0729	236.479	152.827	97.215	51.432	-5.015	126.225	116.193	282.417	7.152	304.373	175.403	-49.920	303.409	-35.629	5.875	216.739	0.00013339	0.00035186	9.1186e-05	375.26	3.6965e-05	2.0133e-06	337.79	146.4	1.5453e-06	2.3046e-05	164.85	79.913	72.892	39.979	1.704e-06	40.967	0.00043777	0.00074167	0.00017674	381.73	8.5889e-05	7.1062e-06	342.44	150.24	6.4931e-06	5.6581e-05	169	82.76	76.116	41.467	7.084e-06	44.454	200.514	-17.114	45.548	-42.320	-38.104	78.038	-43.667	-36.609	62.984	61.355	-39.389	-35.222	-32.663	-28.699	133.513	-31.862	-8191	255	
42744.094	1	1	0	0	0.25953	0.16776	0.17864	0.20273	0.064745	0.12439	0.22669	0.22021	0.34901	0.021424	0.13463	0.040808	0.083163	0.11715	0.14912	0.041986	-1.6771	-1.8354	-2.4188	-2.0792	-1.7354	-2.3271	-2.1021	-2.3292	-2.2438	-1.7188	-2.1125	-2.1021	-1.9333	-2.3937	-1.9979	-2.15	23.193	25.697	112.644	209.996	-24.302	-16.684	239.819	15.014	121.798	120.977	117.393	209.467	257.132	261.309	47.870	121.775	0.00014174	0.00030096	8.19e-05	376.84	1.7765e-05	3.0812e-06	340.43	147.87	2.1043e-06	4.8219e-05	165.99	80.61	72.966	40.026	3.4531e-06	41.586	0.00044665	0.00067962	0.00017075	384.48	4.7856e-05	6.8356e-06	346.5	151.63	6.5817e-06	0.00010395	170.61	83.516	76.295	41.56	6.8151e-06	44.048	193.331	26.076	8.626	-42.620	-35.766	83.772	-43.456	-36.598	74.323	79.622	-39.158	-35.308	-32.366	-28.692	115.631	-32.227	-8191	255	
42744.188	1	1	0	0	0.054581	0.028917	0.13752	0.031091	0.11744	0.1419	0.16684	0.057379	0.22461	0.10503	0.064439	0.11996	0.20748	0.10898	0.21816	0.24063	-1.8188	-1.7417	-2.0563	-2.0604	-1.8687	-2.3396	-2.125	-2.2	-2.2896	-2.0958	-2.1875	-2.2958	-1.95	-2.4333	-2.1792	-2.0771	-53.131	298.622	286.411	155.419	-46.924	-47.811	34.722	232.811	13.267	220.973	247.098	189.780	284.230	289.358	227.645	262.620	0.00011998	0.00054192	9.1556e-05	378.1	4.3908e-05	2.6262e-06	340.52	146.06	1.2298e-06	3.0309e-05	167.97	80.925	73.254	40.353	1.4342e-06	42.169	0.00042798	0.00067734	0.00018178	384.71	8.9854e-05	6.9242e-06	348.39	150.89	6.5683e-06	3.6669e-05	174.78	84.017	76.59	41.905	6.9274e-06	45.826	203.484	13.193	47.709	-42.541	-22.518	85.882	-43.393	-36.629	74.922	51.899	-39.266	-35.324	-32.605	-28.746	87.979	-31.935	-8191	255	
42744.281	1	1	0	0	0.017725	0.13628	0.21104	0.13887	0.25721	0.052198	0.28608	0.28776	0.20331	0.19589	0.1892	0.071559	0.17598	0.10878	0.2053	0.31053	-1.8312	-2.0187	-2.2604	-2.3333	-1.8375	-2.5021	-2.1063	-1.9854	-2.2396	-1.8729	-2.1479	-2.1979	-1.9917	-2.2604	-2.1667	-2.1063	-22.385	84.526	-11.946	236.245	41.050	44.321	185.954	224.569	60.939	-11.259	35.073	202.091	140.654	267.059	275.897	-28.203	0.00013149	0.00026466	0.00011185	379.22	1.7894e-05	4.4576e-06	345.48	146.74	1.6701e-06	4.2716e-06	165.21	78.837	71.896	39.035	1.9006e-06	40.184	0.00044107	0.00066217	0.0001892	385.4	4.9915e-05	6.954e-06	350.19	150.83	6.2829e-06	6.9028e-06	184.88	81.777	74.767	40.494	6.9711e-06	42.587	206.365	16.835	59.247	-42.415	-15.358	103.843	-43.805	-36.599	103.825	112.504	-38.391	-35.221	-32.936	-28.931	156.416	-32.012	-8191	255	
42744.383	1	1	0	0	0.21486	0.1444	0.29481	0.26405	0.11242	0.12126	0.070954	0.12754	0.22371	0.23281	0.14006	0.25523	0.28984	0.013064	0.16566	0.096546	-1.7646	-1.9708	-2.0333	-2.3458	-1.9521	-2.1875	-2.1667	-1.7042	-2.4146	-2.2083	-2.0417	-2.1792	-1.8833	-2.3104	-2.0854	-2.1375	28.581	-44.684	99.563	48.221	280.785	119.811	17.342	274.456	-39.500	54.858	169.466	288.553	117.815	41.358	115.907	-42.026	0.00012543	0.00031988	0.00011126	372.06	3.6232e-05	3.8733e-06	329.82	144.2	2.1148e-06	4.1556e-06	163.25	78.078	71.596	39.262	2.6779e-06	40.326	0.00042345	0.00062455	0.00020555	378.21	8.9303e-05	6.9258e-06	336.11	148.21	6.3061e-06	6.8604e-06	175.09	80.683	74.998	40.861	6.9631e-06	44.096	193.746	10.324	59.365	-42.527	-25.618	77.428	-43.306	-36.650	87.472	80.732	-39.454	-34.987	-32.256	-28.552	116.987	-32.493	-8191	255	
42744.477	1	1	0	0	0.46985	0.13365	0.2271	0.099797	0.15356	0.24692	0.12504	0.12685	0.11167	0.25631	0.22064	0.43726	0.031246	0.099475	0.10186	0.22291	-1.7708	-1.8813	-2.1208	-2.4437	-2.1167	-2.125	-2.2542	-1.8875	-2.3021	-2.0917	-1.9833	-2.3438	-2.0062	-2.3354	-2.3604	-1.9729	260.055	102.078	17.394	35.483	204.186	162.909	243.675	176.255	-25.340	113.764	267.184	-24.264	137.924	-3.646	-22.682	284.022	0.00011826	0.00031717	0.00011657	376.03	1.7973e-05	3.8534e-06	335.39	146.66	2.273e-06	3.2812e-06	167.22	79.621	73.344	40.161	1.5716e-06	41.291	0.00043396	0.0006264	0.00020405	382.36	2.8515e-05	2.378e-05	341.71	150.85	6.3125e-06	6.6649e-06	186.44	82.49	76.35	41.737	6.9303e-06	43.886	196.467	40.644	33.912	-42.512	17.065	270.340	-43.559	-36.525	98.113	65.505	-38.659	-35.297	-32.933	-28.528	101.717	-32.109	-8191	255	
42744.570	1	1	0	0	0.11063	0.13306	0.21245	0.11561	0.17542	0.088076	0.11122	0.15113	0.14006	0.16605	0.10901	0.079915	0.18028	0.3301	0.055444	0.16865	-1.8021	-2.1729	-1.9021	-2.4958	-2.05	-1.9729	-2.3063	-1.9208	-2.1167	-2.1729	-2.075	-2.3875	-2.0708	-2.3438	-2.3187	-1.9167	72.787	-49.420	75.008	2.325	236.924	-12.811	136.945	171.499	-6.732	188.003	210.131	261.351	-30.951	288.031	-2.889	287.465	0.0001179	0.00033343	0.00011242	376.96	2.6257e-06	1.6061e-05	340.41	147.29	2.1677e-06	1.8969e-06	168.5	80.4	73.545	40.393	1.4834e-06	41.907	0.0004327	0.00064379	0.00020648	384.01	5.9948e-06	0.0001023	345.65	151.68	6.3898e-06	6.9645e-06	180.18	83.643	76.812	41.962	6.8275e-06	45.471	192.587	23.387	70.699	-42.251	131.832	288.231	-43.900	-36.496	95.759	78.845	-39.065	-35.362	-32.415	-28.777	48.910	-32.386	-8191	255	
42744.668	1	1	0	0	0.17647	0.20904	0.26707	0.22433	0.24424	0.23543	0.034683	0.20555	0.15814	0.33477	0.038486	0.10811	0.1619	0.32331	0.082213	0.08893	-1.8354	-2.2167	-1.9042	-2.4021	-2.0208	-2.1354	-2.3958	-1.9958	-2.3563	-2.3187	-1.7042	-2.3417	-2.1688	-1.9521	-2.45	-2.0271	127.063	35.523	133.933	298.488	124.370	8.426	48.275	93.328	76.966	15.958	-34.881	290.961	192.772	5.415	-6.686	51.936	0.00012934	0.00038635	0.00013218	379.69	3.0177e-06	2.7563e-05	341.56	147.07	4.2436e-07	1.3099e-06	167.96	79.1	71.9	39.273	2.9475e-06	40.441	0.00044458	0.00062327	0.00019553	385.95	6.0514e-06	6.0286e-05	347.38	151.22	6.5528e-06	6.9437e-06	187.22	81.997	75.099	40.755	6.5987e-06	42.116	189.682	28.593	27.389	-42.506	130.443	-1.346	-43.414	-36.470	135.476	92.403	-38.820	-35.318	-32.668	-28.696	68.754	-32.476	-8191	255	
42744.789	1	1	0	0	0.13482	0.24658	0.04471	0.1377	0.012005	0.14573	0.13751	0.027179	0.11179	0.23129	0.46075	0.22505	0.10853	0.27645	0.18459	0.27136	-1.6833	-2.3312	-1.9	-2.3812	-2.1604	-2.0187	-2.4667	-1.9646	-2.0417	-2.2208	-1.9125	-2.4583	-2.0771	-2.1521	-2.3375	-2.0917	12.894	-5.322	216.872	27.734	179.464	106.508	278.035	293.436	155.719	65.123	-35.742	262.759	19.821	303.773	293.039	264.780	0.00035978	0.00018406	8.0671e-05	372.7	2.503e-06	5.7951e-05	331.11	143.75	2.699e-06	2.1967e-06	163.12	78.127	72.481	39.373	1.6032e-06	40.777	0.0012651	0.00062726	0.0001941	378.38	5.9849e-06	0.00010953	336.66	148.5	6.8762e-06	6.5632e-06	175.08	80.682	75.265	40.949	6.4522e-06	41.962	204.392	10.120	72.762	-42.651	80.960	-0.389	-43.764	-36.598	125.131	80.254	-39.224	-35.359	-32.487	-28.600	119.194	-32.513	-8191	255	
42744.883	1	1	0	0	0.21646	0.16928	0.16138	0.20028	0.043539	0.053514	0.056971	0.22646	0.078659	0.16653	0.35166	0.090675	0.21669	0.17808	0.16205	0.16113	-1.6729	-2.2083	-1.9771	-2.2917	-2.05	-1.8458	-2.3354	-1.9896	-2.0687	-2.3792	-2.1813	-2.3208	-2.2313	-1.8708	-2.475	-2.0979	226.480	163.438	44.338	252.255	156.399	4.083	-11.321	16.899	98.734	66.741	-51.443	110.080	260.315	269.338	72.276	220.309	0.00058447	0.00029025	6.9469e-05	373.17	1.9525e-06	3.2867e-05	333.81	147.3	1.8414e-06	3.7227e-06	167.58	80.566	73.388	40.333	2.6759e-06	41.686	0.0047679	0.00062284	0.00018634	380.73	6.0674e-06	5.9797e-05	341.62	151.63	7.5137e-06	6.7715e-06	187.8	83.221	76.94	41.902	6.442e-06	42.997	203.717	13.568	10.050	-42.475	140.798	10.715	-43.175	-36.276	95.894	87.285	-38.166	-35.128	-32.402	-28.556	115.063	-32.353	-8191	255	
42744.980	1	1	0	0	0.30843	0.10357	0.23177	0.028441	0.027197	0.17065	0.17763	0.31125	0.1094	0.32054	0.15188	0.25615	0.092614	0.28034	0.12738	0.17577	-1.2729	-2.3104	-1.9271	-2.3396	-2.125	-1.7125	-2.3354	-2.1312	-1.9521	-2.4417	-2.1167	-2.2479	-2.2875	-1.9562	-2.25	-2.3312	19.184	299.946	-5.057	-53.199	297.066	20.072	286.329	152.520	126.456	241.701	53.769	258.984	-26.979	-20.223	-44.076	92.077	0.0003648	0.00030156	0.00010964	379.25	2.4378e-06	5.5178e-05	340.18	148.32	2.0914e-06	2.7823e-06	169.47	81.289	74.34	40.952	2.2573e-06	42.651	0.0026864	0.00062021	0.00019243	384.9	5.8897e-06	0.00011004	346.43	152.63	7.2993e-06	6.7082e-06	176.09	85.571	77.588	42.51	6.8035e-06	43.876	212.720	11.510	27.743	-42.451	131.966	12.625	-43.543	-36.408	68.932	103.895	-39.227	-34.853	-32.423	-28.862	148.644	-32.210	-8191	255	
42745.051	1	1	0	0	0.15775	0.040201	0.22987	0.079766	0.061076	0.073795	0.22192	0.14235	0.23591	0.11909	0.13805	0.022487	0.178	0.095903	0.088323	0.088784	-1.6896	-2.3	-1.8458	-2.1688	-2.275	-2.1	-2.3333	-2.2792	-1.9833	-2.4333	-1.9708	-2.1167	-2.3292	-2.0021	-2.3833	-2.3771	71.264	239.958	25.410	195.195	196.291	63.524	93.074	274.022	266.010	156.376	157.714	-28.618	102.237	-53.346	148.253	264.343	0.00060597	0.00016306	8.7101e-05	381.46	2.5809e-06	2.4784e-05	343.84	148.96	1.8287e-06	3.0366e-06	168.41	81.8	73.653	40.259	2.4665e-06	41.658	0.0048601	0.00063695	0.00017598	387.43	6.2185e-06	6.0218e-05	349.59	153.07	7.631e-06	6.7739e-06	173.08	89.622	76.921	41.8	7.0119e-06	43.018	220.433	77.885	39.544	-42.427	98.986	35.349	-43.573	-36.688	108.885	76.796	-39.347	-34.735	-32.355	-28.791	112.278	-32.322	-8191	255	
42745.172	1	1	0	0	0.098461	0.24334	0.14483	0.21635	0.072717	0.060897	0.29793	0.18338	0.15209	0.1697	0.094573	0.18849	0.13417	0.14777	0.16274	0.28492	-1.5063	-2.4104	-1.9229	-2.1562	-2.4667	-1.8687	-2.2313	-2.1562	-2	-2.3896	-2.3438	-2.0167	-2.3125	-1.8708	-1.9479	-2.3542	74.692	234.121	189.296	-19.345	278.203	228.494	-9.337	231.526	249.467	27.509	83.911	170.449	303.915	-46.036	125.757	270.748	0.00035195	0.00051318	7.7771e-05	377.11	3.0178e-06	5.6509e-05	334.57	145.84	1.9787e-06	3.4168e-06	165.15	79.633	72.959	39.967	2.3585e-06	41.509	0.0026658	0.00059556	0.00017202	383.12	6.1087e-06	0.00010925	341.71	150.6	6.9907e-06	6.7218e-06	169.13	85.087	76.198	41.53	7.2291e-06	42.873	209.054	18.616	43.145	-42.002	82.776	36.520	-43.561	-36.445	130.658	80.346	-39.301	-35.030	-32.131	-28.530	131.573	-32.262	-8191	255	
42745.270	1	1	0	0	0.20757	0.025789	0.2277	0.14993	0.40172	0.064741	0.359	0.14037	0.17041	0.17534	0.097666	0.16039	0.15203	0.369	0.12422	0.080886	-1.5187	-2.3937	-2.0854	-2.0563	-2.3021	-1.9896	-2.0667	-2.1667	-1.8646	-2.4167	-2.3187	-2.0438	-2.375	-1.9562	-2.2062	-2.4229	176.144	198.540	-28.170	-51.777	29.788	264.381	182.241	187.357	124.013	255.952	217.726	304.120	152.421	296.713	49.108	290.069	0.00063193	0.00021266	9.5342e-05	375.19	2.4919e-06	3.6709e-05	338.45	147.72	2.5488e-06	2.3937e-06	165.71	80.824	73.661	40.196	2.5932e-06	41.857	0.0048327	0.0006264	0.00017417	382.91	5.9596e-06	2.7855e-05	349.6	151.42	7.1362e-06	7.1679e-06	170.03	88.685	76.539	41.821	7.3085e-06	43.14	229.022	61.120	53.663	-42.451	138.542	29.464	-43.539	-36.435	114.758	98.637	-38.908	-34.431	-32.269	-28.636	96.527	-31.834	-8191	255	
42745.363	1	1	0	0	0.24777	0.21884	0.11444	0.17793	0.23366	0.13969	0.19081	0.19721	0.31542	0.17602	0.043864	0.30372	0.13518	0.1368	0.13667	0.36388	-1.6042	-2.2083	-2.1208	-2.1063	-2.2625	-2.0542	-2.0458	-2.1542	-2.0292	-2.2146	-2.1708	-1.8354	-2.4083	-2.0146	-1.9875	-2.375	256.289	166.975	243.753	-17.892	247.133	116.078	246.216	95.557	-18.353	-39.283	182.640	248.745	81.466	214.558	168.133	282.655	0.00032592	0.00031702	9.1088e-05	376.95	2.5114e-06	2.4668e-06	344.07	146.93	7.3275e-07	3.8013e-06	166.34	81.22	73.429	40.505	1.9713e-06	42.464	0.0027142	0.00065768	0.0001809	382.89	5.7113e-06	6.9322e-06	370.91	150.7	6.4854e-06	7.1271e-06	170.83	86.595	76.497	42.034	8.2013e-06	43.729	229.419	19.013	30.167	-42.459	105.619	82.840	-43.781	-36.520	106.353	97.107	-39.217	-34.666	-32.442	-28.775	74.466	-32.121	-8191	255	
42745.461	1	1	0	0	0.29608	0.28464	0.16996	0.1633	0.27678	0.078483	0.28577	0.19825	0.1627	0.2111	0.088566	0.10672	0.23836	0.32765	0.18491	0.28654	-1.2854	-2.0583	-2.05	-1.9479	-2.3563	-2.1292	-2.0333	-2.2792	-2.0167	-2.1479	-2.3042	-2.0146	-2.4208	-2.1396	-1.9875	-2.3375	80.609	87.421	200.453	-29.746	-21.663	67.266	198.424	-37.925	29.895	26.291	85.941	264.679	41.306	150.505	178.639	253.488	0.00022888	0.00052084	8.5816e-05	379.24	1.6627e-06	2.6634e-06	344.31	147.26	1.7924e-06	3.0292e-06	167.9	80.922	72.732	39.767	2.3536e-06	41.108	0.0046863	0.00063588	0.00017666	383.98	5.7899e-06	6.9813e-06	361.36	151.07	6.6562e-06	7.4154e-06	171.69	88.799	75.825	41.219	7.3486e-06	42.37	277.435	37.805	28.838	-42.433	103.160	76.847	-43.702	-36.505	77.906	78.368	-39.125	-34.579	-32.050	-28.794	97.050	-32.079	-8191	255	
42745.578	1	1	0	0	0.15562	0.3627	0.22902	0.17188	0.22274	0.16041	0.13346	0.30971	0.34996	0.27765	0.20033	0.15797	0.15191	0.056551	0.3067	0.23345	-1.5604	-2.1312	-2.1312	-1.9771	-2.1625	-2.1708	-1.9792	-2.3167	-2.0125	-2.1521	-2.3	-1.8917	-2.0083	-2.1479	-1.9542	-2.3688	87.043	38.742	7.538	48.679	110.923	213.637	-47.958	187.378	138.475	194.527	-17.717	266.519	278.967	257.924	189.185	-30.826	0.00012624	0.0013559	8.5954e-05	372.85	2.2149e-06	2.9364e-06	335.87	143.47	1.2968e-06	7.7944e-07	161.56	77.61	71.254	39.234	3.1623e-06	40.746	0.0011854	0.0029587	0.00017172	377.44	5.9083e-06	6.9789e-06	362.39	147.53	6.1677e-06	7.1719e-06	165.74	83.223	74.419	40.746	7.7604e-06	42.039	255.075	177.809	34.378	-42.287	143.146	79.169	-43.422	-36.584	228.690	146.543	-39.427	-34.987	-32.752	-28.904	104.925	-32.356	-8191	255	
42745.652	1	1	0	0	0.23232	0.097113	0.084028	0.089471	0.10994	0.22953	0.23305	0.18622	0.23994	0.029574	0.19357	0.018862	0.26551	0.32657	0.081482	0.054238	-1.4667	-2.1083	-2.2104	-1.9625	-2.3312	-2.1562	-1.8687	-2.3563	-2.0938	-2.1292	-2.2479	-1.9688	-2.3688	-2.2333	-1.9438	-2.3854	220.113	305.063	8.384	181.797	267.226	117.725	216.171	-50.490	85.297	217.072	259.555	154.078	238.774	232.875	267.728	-29.255	0.00010977	0.00513	5.6727e-05	372.79	3.0197e-06	2.781e-06	337.04	146.07	1.9772e-06	2.9161e-06	165.97	79.985	72.771	40.454	1.2861e-06	41.989	0.00043515	0.0096029	0.00016947	378.91	6.1506e-06	7.016e-06	353.54	149.87	6.5275e-06	8.1692e-06	168.94	87.311	76.122	41.897	7.2714e-06	43.243	201.126	225.976	22.789	-42.299	144.363	99.278	-43.644	-36.336	99.708	64.499	-39.004	-35.490	-32.574	-28.574	128.100	-32.318	-8191	255	
42745.773	1	1	0	0	0.09576	0.16976	0.20993	0.1422	0.30956	0.098756	0.079165	0.31619	0.11792	0.018286	0.23089	0.24306	0.088333	0.17038	0.05847	0.16105	-1.35	-2.325	-2.2708	-2.1354	-2.2958	-2.2625	-1.8104	-2.275	-2.0458	-2.0333	-2.1271	-1.875	-2.0042	-2.3667	-2.0708	-2.4667	-5.705	56.840	213.921	37.106	303.210	126.016	173.719	124.477	47.002	273.762	120.122	138.458	57.143	236.075	-27.089	207.145	0.00012533	0.0023316	0.00011466	373.18	2.2917e-06	3.8737e-06	341.53	146.26	2.5705e-06	2.425e-06	166.64	81.523	72.807	40.777	2.2856e-06	42.82	0.00043903	0.0053334	0.00016852	380.57	6.6192e-06	7.2962e-06	369.02	150.46	6.4952e-06	7.4995e-06	170.31	84.702	78.047	42.266	7.2189e-06	44.238	197.930	241.824	32.008	-42.331	104.787	114.739	-43.279	-36.526	115.078	67.717	-38.969	-35.039	-32.201	-28.689	107.798	-32.200	-8191	255	
42745.867	1	1	0	0	0.4831	0.32146	0.16705	0.066041	0.24022	0.064281	0.13056	0.035625	0.26088	0.32712	0.038369	0.15057	0.12883	0.20607	0.19237	0.23819	-1.6396	-1.9021	-2.4813	-2.1688	-2.3604	-2.3896	-2.0771	-2.5208	-2.2271	-2.175	-2.5333	-2.2458	-2.05	-2.35	-2.1854	-2.3729	175.645	-3.429	289.766	-39.555	168.916	204.517	89.367	226.194	44.555	221.622	279.787	269.320	7.581	128.790	151.973	268.758	0.00012161	0.0052878	0.00011065	376.38	1.0149e-06	3.3965e-06	344.32	146.54	2.6698e-06	3.6569e-06	167.26	82.059	73.33	40.395	3.0756e-06	42.344	0.00043805	0.0095536	0.00017314	383.79	6.6518e-06	6.7897e-06	360.26	150.57	6.6625e-06	7.9385e-06	171.54	84.727	82.155	41.973	7.2407e-06	43.539	198.007	241.487	45.904	-42.550	125.844	85.890	-43.259	-36.544	72.489	70.851	-39.191	-35.212	-31.799	-28.879	88.243	-32.304	-8191	255	
42745.965	1	1	0	0	0.24025	0.16896	0.25918	0.074766	0.12771	0.22238	0.27781	0.12633	0.13759	0.15603	0.27591	0.085989	0.35347	0.26371	0.09587	0.27812	-1.8604	-2.0104	-2.3771	-2.0896	-2.1083	-2.4188	-2.0812	-2.6354	-2.4188	-2.1021	-2.5729	-2.3854	-2.2667	-2.5812	-2.1937	-2.3583	110.974	98.962	75.285	300.021	153.857	-41.863	-28.464	158.233	12.357	226.743	202.440	152.806	205.428	296.607	-50.782	208.347	0.00012836	0.002378	0.00010747	372.79	1.7007e-06	2.3838e-06	340.41	144.12	2.7836e-06	1.8035e-06	162.91	79.046	71.95	40.112	2.3338e-06	41.766	0.00043706	0.0051291	0.00017829	378.95	7.0278e-06	6.7993e-06	360.75	148.41	6.4172e-06	7.4707e-06	167.57	81.963	78.292	41.519	7.4827e-06	43.016	200.539	251.037	60.321	-42.406	149.357	81.305	-43.484	-36.190	80.587	61.021	-39.402	-35.305	-32.056	-28.707	97.741	-32.332	-8191	255	
42746.062	1	1	0	0	0.1767	0.10728	0.061377	0.10384	0.19009	0.16144	0.18825	0.31906	0.26102	0.25018	0.19026	0.22488	0.1698	0.048409	0.37867	0.15706	-1.8062	-2.0729	-2.5208	-2.2875	-2.1937	-2.4854	-2.1104	-2.3833	-2.3063	-2.1229	-2.5104	-2.1875	-2.0542	-2.5604	-2.2208	-2.2687	69.530	299.977	62.754	132.902	115.788	121.393	-44.860	221.444	304.267	77.532	196.182	296.049	8.562	150.468	28.345	48.637	0.00013739	0.00409	0.00013221	373.66	2.8262e-06	7.5872e-07	336.44	146.16	2.1843e-06	1.5404e-06	165.55	80.486	72.976	40.995	2.465e-06	42.9	0.00044788	0.0091374	0.00017521	379.58	6.9839e-06	6.838e-06	343.25	153	6.4411e-06	7.8496e-06	169.34	83.562	82.132	42.447	6.9798e-06	44.185	196.912	258.749	34.968	-42.573	132.040	61.679	-43.682	-36.494	90.977	139.550	-39.402	-35.364	-31.478	-28.785	124.562	-32.355	-8191	255	
42746.180	1	1	0	0	0.39048	0.11983	0.20688	0.39829	0.098976	0.12803	0.11604	0.13019	0.23448	0.03354	0.27041	0.20129	0.2368	0.25914	0.096992	0.20401	-1.975	-2.0854	-2.3625	-2.3667	-2.0625	-2.5396	-2.3354	-2.3042	-2.3688	-2.35	-2.5667	-2.4104	-2.2417	-2.5292	-2.3625	-2.5271	73.723	-23.047	65.051	-30.057	-15.891	-24.937	218.311	-2.471	246.512	90.193	269.472	9.825	112.291	275.635	9.974	25.488	0.00012572	0.002517	0.00011209	375.52	2.319e-06	1.3487e-06	336.33	148.43	9.8186e-07	1.7616e-06	168.66	81.838	72.919	41.321	1.5154e-06	43.765	0.000439	0.0050326	0.00018172	382.59	7.1849e-06	6.8605e-06	344.94	160.14	6.6126e-06	7.51e-06	171.8	84.876	79.951	42.899	6.9638e-06	45.223	195.291	266.650	30.733	-42.206	153.310	122.629	-43.562	-36.312	114.347	79.887	-39.120	-34.849	-32.020	-28.750	148.618	-31.999	-8191	255	
42746.277	1	1	0	0	0.069817	0.13864	0.082292	0.17026	0.14477	0.17707	0.13843	0.072048	0.25843	0.052557	0.059848	0.033228	0.17421	0.11736	0.054168	0.11395	-1.9229	-2.0833	-2.2917	-2.35	-2.1417	-2.5854	-2.2833	-2.1354	-2.4771	-2.1146	-2.0708	-2.4292	-2.0917	-2.4604	-2.2021	-2.3021	221.714	-17.849	285.421	302.643	301.264	216.515	282.746	-34.418	111.171	290.607	242.055	290.209	271.770	132.903	62.947	214.011	0.00011992	0.0040209	0.00052862	379.44	2.4207e-06	2.5889e-06	345.18	148.69	8.1448e-07	2.6838e-06	170.06	83.525	73.72	41.381	2.241e-06	44.078	0.00044032	0.0076108	0.00024009	385.67	6.6884e-06	6.987e-06	351.47	157.04	6.5317e-06	7.7206e-06	174.47	86.329	82.922	42.953	7.1168e-06	45.201	193.977	289.682	216.099	-42.241	127.241	101.850	-43.494	-36.264	122.754	87.418	-39.306	-35.231	-31.733	-28.592	76.233	-32.337	-8191	255	
42746.371	1	1	0	0	0.074317	0.19477	0.16563	0.34564	0.039845	0.025686	0.14178	0.091607	0.10037	0.17077	0.14702	0.042918	0.13788	0.12138	0.11957	0.1662	-2.0625	-2.1354	-2.4833	-2.5021	-2.2062	-2.4292	-2.2854	-2.2521	-2.5083	-2.35	-2.3042	-2.4062	-2.25	-2.7333	-2.2917	-2.1479	-8.995	-38.817	43.086	-40.412	95.121	97.135	-15.865	246.205	149.202	134.665	275.571	123.778	240.002	160.450	133.308	250.701	0.00013	0.0020397	0.000129	377.34	1.3904e-06	4.0596e-06	342.94	147.15	2.7293e-06	3.8699e-06	168.16	81.132	73.145	40.394	2.5505e-06	42.352	0.00044516	0.0015689	0.00096311	384.28	6.6311e-06	7.2165e-06	347.98	159.6	6.4151e-06	7.24e-06	171.24	83.829	79.248	41.936	7.1125e-06	43.649	197.912	300.652	229.697	-42.331	155.227	97.950	-43.571	-35.796	106.166	116.737	-38.708	-35.358	-32.073	-28.789	105.919	-32.116	-8191	255	
42746.469	1	1	0	0	0.22775	0.078649	0.16726	0.1899	0.03404	0.034006	0.23507	0.14778	0.048247	0.020515	0.47688	0.11979	0.10533	0.20336	0.14963	0.044688	-2.1521	-2.3208	-2.2104	-2.6208	-2.3312	-2.4083	-2.3688	-2.2271	-2.6104	-2.025	-2.2479	-2.5208	-2.1021	-2.4708	-2.4625	-2.2375	57.053	160.979	294.440	182.606	-49.895	96.403	80.849	278.696	68.105	-28.715	288.495	-34.825	184.122	200.818	264.677	-43.682	0.0001156	0.00041017	0.0011581	375.67	3.0793e-06	1.9811e-06	339.6	148.6	2.6455e-06	2.4137e-06	167.9	81.293	73.812	40.575	3.2769e-06	42.79	0.00042665	0.00065618	0.0025209	382.61	6.4914e-06	7.285e-06	346.06	156.33	6.5339e-06	7.2681e-06	172.39	84.391	81.396	42.392	6.8632e-06	44	189.679	12.950	290.111	-42.761	96.126	180.585	-43.582	-36.325	86.664	80.027	-38.867	-35.182	-32.360	-28.434	128.307	-32.436	-8191	255	
42746.562	1	1	0	0	0.056848	0.069772	0.33654	0.22642	0.15362	0.094171	0.063939	0.0525	0.16388	0.081582	0.12222	0.19282	0.26817	0.064228	0.21194	0.21043	-2.0729	-2.2646	-2.2979	-2.4229	-2.2229	-2.4021	-2.2792	-2.0667	-2.4604	-2.3417	-2.125	-2.5646	-2.0812	-2.3396	-2.4458	-2.0563	253.094	-46.204	237.650	191.092	273.238	106.312	252.615	-23.137	78.026	123.570	76.477	291.054	197.644	-29.997	-15.470	214.882	0.00013463	0.00036861	0.00066634	378.19	2.594e-06	3.7613e-06	338.7	147.42	1.6449e-06	4.4554e-06	167.7	81.37	72.782	40.599	1.6926e-06	42.722	0.00045931	0.0006777	0.0014443	383.71	6.4574e-06	7.5572e-06	345.04	159.87	6.6266e-06	7.3273e-06	171.54	84.182	76.785	42.594	6.7867e-06	44.025	190.568	-2.418	294.563	-42.286	103.212	102.514	-43.583	-36.102	123.626	113.860	-39.297	-35.243	-32.731	-28.409	82.448	-32.267	-8191	255	
42746.660	1	1	0	0	0.067735	0.26967	0.10539	0.10989	0.21399	0.13774	0.18076	0.14218	0.2043	0.24287	0.12567	0.13303	0.16252	0.19445	0.13097	0.18323	-1.9438	-2.1396	-2.2542	-2.5042	-2.1208	-2.4646	-2.5812	-2.1479	-2.4417	-2.3375	-2.1625	-2.3875	-2.0875	-2.3729	-2.5187	-2.2208	163.711	278.476	183.576	278.175	203.115	-43.345	-53.825	201.076	216.588	49.779	-37.802	139.330	52.938	180.110	1.201	202.871	0.00013573	0.00029404	0.0012906	375.97	1.2456e-06	2.1501e-06	341.79	146.97	2.1251e-06	2.9857e-06	168.47	82.075	73.006	40.235	3.1232e-06	42.486	0.00045502	0.0006591	0.002642	382.73	6.2065e-06	7.7247e-06	347.91	156.08	6.8846e-06	7.0854e-06	172.47	84.896	76.45	43.421	6.8953e-06	43.749	194.027	-15.107	-53.372	-42.277	99.078	54.013	-43.502	-36.403	136.967	70.011	-39.283	-35.212	-32.212	-28.601	100.019	-32.229	-8191	255	
42746.758	1	1	0	0	0.33563	0.17182	0.2831	0.030253	0.098464	0.11978	0.20435	0.1125	0.036493	0.35791	0.021206	0.13598	0.082223	0.25115	0.053075	0.16512	-1.6854	-2.3646	-2.0125	-2.5521	-2.2292	-2.2292	-2.5375	-2.1063	-2.35	-2.2562	-1.95	-2.3167	-2.2583	-2.1729	-2.4021	-2.0604	72.974	148.877	132.984	186.376	91.524	164.938	-51.875	163.228	178.535	49.966	-25.231	254.914	273.304	59.671	67.949	50.920	0.00013014	0.00032009	0.00078705	371.52	2.3275e-06	3.3101e-06	332.54	145.51	3.0534e-05	2.8272e-06	162.62	78.243	71.681	39.022	2.1578e-06	40.768	0.00045267	0.00063623	0.0014726	379.03	6.3177e-06	8.1579e-06	339.33	155.21	1.6491e-05	7.0854e-06	166.96	80.986	74.503	41.355	6.7124e-06	42.009	200.484	38.416	-51.317	-42.255	127.587	109.613	-43.351	-36.130	183.441	68.502	-39.080	-35.084	-32.277	-28.692	129.993	-32.242	-8191	255	
42746.879	1	1	0	0	0.1264	0.098543	0.10468	0.38067	0.084843	0.39467	0.27417	0.18392	0.19986	0.16778	0.32691	0.1453	0.20562	0.11909	0.17217	0.078522	-1.7	-2.1896	-1.8146	-2.3979	-2.3146	-2.0833	-2.6271	-2.1792	-2.3667	-2.275	-2.2	-2.5771	-2.2271	-2.2021	-2.5042	-2.1688	192.919	63.142	17.204	297.048	130.326	299.764	139.826	301.775	-52.851	220.260	81.195	292.628	82.980	302.351	-3.150	236.083	0.00013225	0.00037099	0.0015657	369.99	1.9119e-06	1.3667e-06	332.51	145.74	1.513e-05	2.777e-06	164.68	79.263	72.996	39.687	1.5771e-06	41.734	0.00046945	0.0006264	0.002712	377.08	6.1233e-06	7.3373e-06	337.63	149.74	4.0701e-05	6.6217e-06	168.67	82.426	76.019	43.016	6.6781e-06	42.921	196.322	18.284	-43.737	-42.480	99.037	24.177	-43.214	-36.474	182.297	101.736	-39.260	-35.135	-32.223	-28.723	104.443	-32.209	-8191	255	
42746.949	1	1	0	0	0.17929	0.13317	0.13176	0.18631	0.21568	0.34207	0.010908	0.13068	0.27912	0.056919	0.12214	0.1532	0.1934	0.17515	0.15759	0.19733	-1.9229	-2.1688	-2.0125	-2.3104	-2.3792	-2.0771	-2.4292	-2.1604	-1.9833	-2.4854	-2.1417	-2.3479	-2.4313	-2.025	-2.4625	-2.1771	86.053	48.388	178.059	56.120	243.914	-54.627	219.003	141.605	198.891	239.402	163.081	248.337	262.796	61.042	-40.256	238.765	0.00012989	0.0003783	0.00073484	374.89	1.3313e-06	1.8168e-06	335.22	145.69	3.9195e-05	3.8733e-06	165.4	80.703	72.963	40.384	1.9424e-06	42.504	0.00047118	0.00060311	0.0015153	379.84	6.082e-06	8.0782e-06	340.74	150.24	9.7106e-05	6.745e-06	169.61	83.595	76.211	42.763	6.9776e-06	43.709	198.641	51.088	-38.409	-42.333	134.702	105.146	-43.215	-36.645	139.670	99.694	-38.884	-35.514	-32.459	-28.750	107.747	-32.351	-8191	255	
42747.047	1	1	0	0	0.1048	0.19927	0.25994	0.085161	0.19985	0.05353	0.21537	0.024074	0.13844	0.17765	0.24928	0.12092	0.21586	0.36404	0.20399	0.12415	-1.5958	-2.4229	-1.9104	-2.3625	-2.3208	-1.9125	-2.4542	-2.2562	-2.2292	-2.6	-2.275	-2.2812	-2.3542	-1.9625	-2.4042	-2.3542	28.777	-40.696	64.494	18.935	96.527	178.698	-34.321	71.591	112.648	286.861	0.175	37.068	69.068	249.621	300.671	131.214	0.00013218	0.00033949	0.0015907	372.51	2.4592e-06	2.7526e-06	341.6	147.31	2.0471e-05	3.5354e-06	168.7	81.843	73.655	40.435	1.4025e-06	43.094	0.00047873	0.00061201	0.0019604	384.7	6.108e-06	7.529e-06	346.51	151.67	5.314e-05	6.9765e-06	172.73	85.173	77.045	43.76	7.3719e-06	44.329	192.055	28.754	-35.376	-42.110	93.935	90.735	-43.412	-36.416	147.537	97.922	-39.174	-35.412	-32.305	-29.025	125.495	-32.427	-8191	255	
42747.141	1	1	0	0	0.2649	0.021436	0.17674	0.32968	0.26509	0.11066	0.16869	0.094259	0.31696	0.15797	0.098143	0.10505	0.26775	0.21103	0.1985	0.14716	-1.8271	-2.3333	-1.7583	-2.2562	-2.4667	-2.0958	-2.3229	-2.3521	-2.0187	-2.4021	-2.0542	-2.1292	-2.4604	-2.025	-2.3812	-2.2604	149.427	274.130	152.788	261.452	89.653	202.967	180.920	31.115	-33.849	165.959	174.784	-9.783	233.671	182.647	292.984	221.739	0.00014082	0.000444	0.00084871	376.42	3.5645e-06	3.4752e-06	335.17	145.43	3.5857e-05	3.2402e-06	166.4	79.877	72.779	39.893	2.3122e-06	41.514	0.00047564	0.00062177	0.00027408	392.5	6.0494e-06	8.0258e-06	344.01	150.23	9.5227e-05	6.9188e-06	170.36	83.004	75.993	42.164	7.1875e-06	42.878	196.939	29.055	-30.755	-42.410	125.039	117.786	-43.280	-36.569	156.188	69.386	-38.903	-34.971	-32.236	-28.974	103.883	-32.118	-8191	255	
42747.262	1	1	0	0	0.01704	0.1182	0.24215	0.12866	0.060893	0.069682	0.22494	0.12529	0.23599	0.0032448	0.16468	0.23045	0.11079	0.15835	0.16925	0.078967	-1.5271	-2.3521	-2.1229	-2.1729	-2.35	-2.1917	-2.3187	-2.2958	-2.0062	-2.5021	-2.375	-2.3	-2.2542	-2.0375	-2.3271	-2.3146	0.325	114.385	72.001	67.556	93.198	67.904	221.065	250.741	70.039	22.063	163.543	-46.081	213.558	-11.372	184.761	259.632	0.00014412	0.00034932	6.1239e-05	375.67	3.2854e-07	1.6561e-06	334.37	147.78	1.7307e-05	3.6809e-06	167.43	81.224	73.585	40.583	3.3391e-05	42.253	0.00046962	0.00064243	0.00018219	401.04	5.8198e-06	7.6288e-06	341.87	151.29	5.2322e-05	7.0935e-06	171.53	84.285	76.859	42.996	2.5155e-05	43.631	193.137	13.679	12.488	-42.701	80.958	106.113	-43.143	-36.352	152.534	74.971	-39.418	-35.296	-32.385	-28.954	257.233	-32.194	-8191	255	
42747.355	1	1	0	0	0.18893	0.052946	0.2718	0.13016	0.22399	0.28176	0.089146	0.22068	0.028068	0.10639	0.22693	0.090738	0.29558	0.41019	0.081233	0.297	-1.4625	-2.225	-1.9854	-2.2292	-2.4813	-2.0542	-2.025	-2.3812	-2.0146	-2.4458	-2.2271	-2.0229	-2.3812	-2.1625	-2.2896	-2.3792	294.220	243.826	31.988	241.514	100.474	98.667	292.464	209.485	215.749	135.129	294.887	262.542	265.229	232.860	248.333	191.773	0.00012998	0.00025133	0.00010421	377.5	1.1013e-06	3.1485e-06	341.02	146.76	3.8771e-05	2.359e-06	168.22	82.09	73.85	40.471	1.593e-05	42.731	0.00045509	0.0006269	0.0001803	393.67	6.1226e-06	7.6296e-06	346.51	151.33	9.44e-05	7.3073e-06	172.67	85.073	77.064	42.064	4.6407e-05	44.16	186.935	37.233	14.321	-42.588	132.599	104.155	-43.266	-36.666	169.133	117.377	-39.007	-35.210	-32.345	-28.873	267.645	-32.321	-8191	255	
42747.453	1	1	0	0	0.091833	0.16597	0.10775	0.28378	0.18376	0.18874	0.31424	0.08909	0.1523	0.21574	0.089308	0.11645	0.17256	0.16109	0.080798	0.44909	-1.5479	-2.3354	-2.05	-2.0229	-2.3937	-2.0583	-2.0687	-2.5	-2.0812	-2.4167	-2.3104	-2.1854	-2.5771	-2.1896	-2.1167	-2.5	196.458	25.892	152.490	300.991	83.392	41.078	273.859	242.393	143.157	-30.997	144.324	4.381	-35.418	-50.166	99.951	240.083	0.00012837	0.00044626	6.5818e-05	380.38	3.6846e-06	4.1849e-06	343.33	147.28	2.1756e-05	4.0766e-06	171.79	82.966	73.658	40.859	4.2601e-05	43.298	0.00048166	0.00067862	0.00017767	406.68	6.3569e-06	7.2986e-06	349.89	152.23	5.3389e-05	7.228e-06	175.07	86.041	77.249	42.303	9.9461e-05	44.589	199.025	20.945	42.581	-42.701	120.258	102.092	-43.455	-36.584	173.956	74.638	-38.985	-35.367	-32.502	-28.621	296.101	-32.376	-8191	255	
42747.547	1	1	0	0	0.10111	0.091482	0.25469	0.096835	0.093435	0.2807	0.29238	0.061393	0.28821	0.13152	0.226	0.052598	0.13323	0.048044	0.17132	0.34337	-1.5938	-2.3479	-2.2833	-2.0083	-2.4646	-2.2083	-2.0979	-2.4229	-1.9792	-2.3292	-2.2562	-1.9896	-2.275	-2.3	-2.0646	-2.3146	238.199	30.557	280.831	227.009	277.520	274.159	232.738	272.447	47.758	242.193	291.943	181.490	246.775	231.701	179.075	87.870	0.00012494	0.00045873	9.9063e-05	381.03	2.3397e-06	3.3279e-06	343.63	145.99	1.8019e-05	5.3589e-05	165.52	79.89	71.745	39.333	1.7641e-05	41.311	0.00044349	0.00065939	0.00017646	395.69	6.2265e-06	6.9435e-06	348.89	150.07	5.9607e-05	3.0564e-05	170.42	82.987	75.177	40.791	5.3533e-05	42.588	194.787	52.812	49.148	-42.539	88.175	69.553	-43.342	-36.565	112.960	198.758	-38.949	-35.128	-32.334	-28.830	303.774	-32.159	-8191	255	
42747.645	1	1	0	0	0.1993	0.1512	0.011904	0.086556	0.1878	0.15898	0.076771	0.34661	0.28474	0.22707	0.13298	0.21098	0.23063	0.047744	0.41444	0.1631	-1.5646	-2.0563	-2.2521	-1.9354	-2.5042	-2.2854	-2.2708	-2.5687	-2.0583	-2.4854	-2.4708	-1.9417	-2.1958	-2.3167	-1.9917	-2.5375	56.709	223.341	32.334	176.010	258.085	31.262	300.949	211.712	65.473	180.739	-28.121	-50.503	178.820	-3.838	298.744	-47.640	0.00012655	0.00018815	0.00011996	373.83	1.0928e-06	3.7109e-06	337.98	145.17	4.2934e-07	2.8299e-05	168.18	81.175	72.805	40.001	3.7079e-05	42.246	0.00045335	0.00068275	0.00017011	399.82	6.104e-06	6.9242e-06	342.57	149.66	6.5901e-06	5.1029e-05	171.76	84.176	76.301	41.524	9.6587e-05	43.554	195.715	49.162	40.885	-42.462	98.815	115.651	-43.106	-36.621	136.414	204.972	-38.894	-35.352	-32.332	-28.577	-53.653	-32.474	-8191	255	
42747.742	1	1	0	0	0.27349	0.083853	0.17712	0.039357	0.15994	0.08523	0.16037	0.1203	0.22308	0.1608	0.2492	0.19842	0.11807	0.22464	0.15732	0.13549	-1.675	-2.1042	-2.3979	-2.0438	-2.4771	-2.1708	-2.1792	-2.5125	-2.1771	-2.1333	-2.4979	-2.1229	-2.2896	-2.2854	-1.9917	-2.5146	114.214	25.228	101.207	193.843	4.761	25.388	290.063	292.757	-14.175	78.707	178.461	-47.270	268.736	183.304	242.381	-33.243	0.00012599	0.00040246	0.00012548	376.86	3.0727e-06	3.8888e-06	343.38	147.61	2.3024e-06	5.0773e-05	169.74	82.1	73.599	40.437	1.7651e-05	43.041	0.00046302	0.00067527	0.0001686	392.86	6.1053e-06	6.6117e-06	348.24	151.45	6.3434e-06	0.0001067	173.51	85.368	76.733	41.886	5.4625e-05	44.307	194.062	57.726	22.284	-42.332	98.049	106.617	-43.529	-36.397	98.936	179.852	-39.252	-35.076	-32.426	-28.662	-33.192	-32.178	-8191	255	
42747.859	1	1	0	0	0.21583	0.18483	0.13532	0.15577	0.10476	0.36235	0.3218	0.10411	0.15801	0.20628	0.23079	0.16453	0.22733	0.078004	0.24245	0.23882	-1.675	-2.0229	-2.2021	-2.0104	-2.3542	-2.4521	-2.1312	-2.5417	-2.2729	-2.1688	-2.3833	-2.1083	-2.5	-2.6083	-2.1458	-2.5521	148.068	78.508	6.326	157.417	279.704	187.026	153.286	251.014	233.657	144.547	0.081	137.630	225.234	40.440	57.069	-23.670	0.00013853	0.00029463	9.8577e-05	380.81	1.9264e-05	3.4768e-06	343.7	147.42	3.0848e-06	2.964e-05	170.94	83.048	73.782	40.521	3.8185e-05	43.454	0.00043835	0.00071018	0.00017732	396.14	2.958e-05	6.7945e-06	351.82	151.87	6.5634e-06	5.8507e-05	175.3	86.314	76.977	42.02	9.65e-05	44.731	189.950	19.194	59.272	-42.687	173.521	90.389	-43.294	-36.375	95.820	185.343	-39.380	-35.439	-32.263	-28.703	-30.180	-32.030	-8191	255	
42747.957	1	1	0	0	0.22017	0.16297	0.21953	0.23117	0.44555	0.14203	0.15318	0.25979	0.11153	0.15968	0.086063	0.3255	0.18401	0.13623	0.049128	0.087012	-1.7812	-2.1375	-2.5021	-2.3292	-2.4125	-2.5208	-2.0167	-2.3875	-2.125	-2	-2.5083	-2.2167	-2.2646	-2.5229	-1.9104	-2.2625	98.945	16.999	165.503	276.741	252.135	297.328	250.002	278.337	-10.606	164.625	174.846	289.362	132.801	234.253	304.259	196.795	0.00011556	0.0003027	0.00010593	376.9	1.0669e-05	4.9859e-06	345.72	146.67	2.4938e-06	4.8434e-05	166.38	80.36	72.056	39.035	1.9636e-05	41.026	0.00043015	0.00065326	0.00017485	383.57	4.4961e-05	6.7196e-06	351.76	150.19	6.1501e-06	0.00010612	171.49	83.198	75.183	40.593	5.355e-05	42.462	200.782	55.155	27.184	-42.447	169.045	85.745	-43.551	-36.242	98.709	192.206	-39.124	-35.088	-32.219	-28.764	-37.223	-32.135	-8191	255	
42748.055	1	1	0	0	0.10485	0.19857	0.087879	0.16132	0.056235	0.26723	0.099253	0.2165	0.23478	0.16572	0.27011	0.040644	0.14582	0.13978	0.10425	0.093766	-1.725	-2.0875	-2.3354	-2.1896	-2.0854	-2.4417	-2.1229	-2.3854	-2.35	-2.2854	-2.3979	-2.0938	-2.2	-2.5312	-2.0625	-2.4	195.276	213.930	166.024	94.739	192.264	-8.626	30.182	286.771	173.696	159.423	277.888	250.533	83.441	81.038	193.191	174.789	0.00012655	0.00026312	6.8252e-05	372.11	4.1261e-05	3.3547e-06	333.74	147	1.777e-06	3.2058e-05	167.19	81.013	72.903	39.797	3.5372e-05	41.8	0.00042393	0.00072286	0.00017148	377.77	8.7495e-05	6.7478e-06	341.21	149.96	6.148e-06	5.841e-05	171.33	83.817	76.177	41.299	5.3895e-05	44.01	197.278	30.017	21.978	-42.567	99.660	77.767	-43.971	-36.452	130.412	197.071	-39.052	-35.042	-31.870	-28.788	-1.075	-32.203	-8191	255	
42748.176	1	1	0	0	0.24791	0.15359	0.25303	0.16961	0.16692	0.38278	0.20223	0.22571	0.1083	0.28268	0.045909	0.16271	0.24958	0.126	0.21956	0.179	-1.85	-2.025	-2.3042	-2.2208	-2.1396	-2.4333	-1.95	-2.1729	-2.3521	-1.7896	-2.5125	-2.3875	-2.2104	-2.55	-1.9562	-2.2104	9.439	201.498	-45.333	173.023	120.296	266.180	-6.725	257.231	301.228	234.363	133.187	-7.527	258.847	256.743	54.332	180.295	0.0001108	0.00029876	8.1411e-05	374.57	2.2222e-05	4.0089e-06	344.77	147.66	1.4968e-06	4.7345e-05	170.01	82.795	74.146	40.408	1.5921e-06	43.025	0.00041481	0.00067143	0.00016987	381.89	4.9077e-05	6.9789e-06	349.17	152.09	6.2007e-06	0.00010501	174.22	85.825	77.449	42.019	7.1948e-06	45.402	200.677	60.878	29.199	-42.405	110.344	89.852	-42.986	-36.151	92.188	207.888	-39.246	-35.156	-32.597	-28.717	117.492	-32.043	-8191	255	
42748.246	1	1	0	0	0.17343	0.087046	0.31363	0.014925	0.11659	0.36265	0.11113	0.23674	0.11938	0.1699	0.28705	0.063593	0.19597	0.11304	0.12609	0.26306	-1.9667	-1.9646	-2.2479	-2.3146	-2.0625	-2.3625	-2.325	-2.1937	-2.4437	-2.0271	-2.3625	-2.0896	-2.0667	-2.3896	-2.225	-2.0333	119.408	177.312	256.725	-4.327	-35.072	130.081	-41.928	192.757	49.814	17.266	-17.307	130.854	298.786	260.096	174.026	258.066	0.00012973	0.0003978	6.0293e-05	380.03	3.8179e-05	4.3193e-06	348.53	149.18	1.4817e-06	2.7844e-05	172.68	84.435	74.361	40.832	2.3331e-06	44.057	0.00043107	0.00072535	0.00018176	385.29	8.7668e-05	7.1005e-06	355.56	153.32	6.2548e-06	5.7877e-05	177.91	87.556	77.857	42.427	6.8115e-06	47.24	199.461	56.074	63.684	-42.301	117.565	94.968	-43.465	-36.556	113.919	218.107	-39.262	-35.118	-32.534	-28.996	130.570	-32.654	-8191	255	
42748.344	1	1	0	0	0.25926	0.25049	0.06165	0.15058	0.32825	0.27077	0.10916	0.053013	0.23854	0.076441	0.14342	0.1539	0.21257	0.27412	0.028304	0.12501	-1.8167	-2.0312	-2.1854	-2.175	-2.1208	-2.4208	-2.2208	-2.1521	-2.3354	-1.9583	-2.2604	-2.425	-1.9729	-2.4708	-2.3	-2.2313	45.318	97.698	207.083	217.250	107.813	305.186	149.327	239.258	295.336	94.818	253.500	-33.284	259.876	214.995	175.186	156.158	0.00013631	0.00043141	0.0001241	382.78	2.301e-05	4.9056e-06	352.86	148.71	1.7849e-06	6.1786e-07	169.3	82.767	73.769	39.986	2.0373e-06	42.585	0.00043124	0.00069308	0.00018377	387.98	4.8054e-05	7.2326e-06	359.87	153.3	6.3848e-06	5.3032e-05	183.04	86.275	77.038	41.498	6.7043e-06	44.834	201.733	38.198	13.399	-42.352	119.476	121.224	-43.532	-36.698	89.735	115.353	-38.992	-35.101	-32.382	-28.891	91.601	-32.512	-8191	255	
42748.438	1	1	0	0	0.10513	0.026635	0.25554	0.23776	0.19545	0.11946	0.26881	0.082448	0.25576	0.053134	0.33371	0.21101	0.099921	0.055477	0.17604	0.11345	-2.0458	-2.05	-2.1521	-2.3063	-1.9708	-2.5229	-2.3354	-2.0729	-2.4417	-2.0771	-2.2292	-2.4479	-1.9667	-2.4521	-2.1458	-2.1375	120.740	164.985	10.022	259.786	-11.837	224.640	171.411	90.177	176.677	283.943	135.456	186.129	54.280	283.700	77.283	-52.507	0.00013189	0.00039166	0.00010875	373.87	3.9628e-05	2.3836e-06	342.96	147.1	1.272e-06	3.2093e-06	170.31	82.592	73.917	40.295	2.7275e-06	43.069	0.00044366	0.0006445	0.00019774	382.45	8.605e-05	7.2407e-06	350.02	151.81	6.4924e-06	7.2617e-06	184.26	85.843	77.241	41.84	6.7029e-06	46.295	196.556	25.269	70.058	-42.753	122.844	118.149	-43.458	-36.485	103.604	73.243	-38.387	-35.201	-32.342	-28.732	89.632	-32.541	-8191	255	
42748.559	1	1	0	0	0.43815	0.23122	0.18217	0.15814	0.037804	0.14089	0.14027	0.20223	0.29804	0.040071	0.23803	0.32344	0.14027	0.1538	0.22333	0.12208	-1.8729	-2.1583	-1.95	-2.1604	-2.0312	-2.4062	-2.2646	-2.1958	-2.3104	-2.2229	-2.325	-2.4292	-2.0438	-2.2875	-2.2542	-1.7021	243.334	95.625	121.625	297.914	278.625	107.983	201.906	-29.864	114.856	1.487	292.639	214.796	26.375	250.348	126.111	37.355	0.00013601	0.00028579	6.207e-05	378.38	1.9624e-05	4.4781e-06	345.3	147.9	1.9596e-06	2.655e-06	168.8	83.692	73.259	40.28	2.6965e-06	43.149	0.00043702	0.00063609	0.00018572	384.27	4.8178e-05	6.9459e-06	352.22	152.25	6.4123e-06	6.9533e-06	192.57	86.677	76.994	41.815	6.63e-06	45.446	189.192	43.390	49.512	-42.551	117.514	87.016	-43.790	-36.649	101.858	99.354	-39.292	-35.131	-32.483	-28.949	118.442	-32.451	-8191	255	
42748.652	1	1	0	0	0.085065	0.28554	0.13807	0.11814	0.14719	0.16133	0.23449	0.19666	0.031324	0.14962	0.077837	0.35477	0.1588	0.14909	0.18448	0.091784	-1.8375	-1.9875	-2.1979	-2.4771	-1.9167	-2.2	-2.3521	-2.0625	-2.3875	-2.2	-2.0312	-2.5021	-2.0417	-2.1979	-2.2375	-1.9646	252.300	278.059	171.770	301.796	168.897	-21.759	-10.389	-39.071	140.966	-3.640	-27.897	135.497	137.364	259.771	295.566	186.539	0.00012047	0.00017711	2.1598e-05	377.02	3.3672e-05	4.8993e-05	350.14	148.22	1.4474e-06	4.2713e-06	172.09	84.295	74.462	40.693	3.167e-06	44.196	0.00043958	0.00062156	0.00020073	384.41	4.1008e-05	4.8272e-05	355.78	152.38	6.7293e-06	7.0991e-06	186.91	87.395	77.581	42.16	7.0104e-06	47.256	194.421	6.636	-33.826	-42.684	88.714	184.261	-43.462	-36.579	111.771	128.235	-39.100	-35.235	-32.419	-28.809	121.053	-32.358	-8191	255	
42748.750	1	1	0	0	0.40215	0.42771	0.31509	0.44792	0.06481	0.13177	0.16188	0.19563	0.031708	0.1764	0.15119	0.11507	0.15195	0.18092	0.24485	0.1275	-1.8937	-2.1375	-1.9854	-2.4625	-2.1312	-2.0958	-2.4875	-2.0708	-2.4917	-2.1625	-2.0687	-2.55	-1.9813	-2.225	-2.5229	-2.125	-34.960	21.035	132.959	42.477	136.244	-14.123	-49.939	235.295	265.993	153.207	103.099	284.190	292.360	-26.648	154.399	216.334	0.00012859	0.00056281	8.0778e-05	381.12	1.9616e-06	2.884e-05	351.94	146.91	6.4859e-07	2.2983e-06	168.47	81.587	72.55	38.897	1.9578e-06	41.762	0.00045961	0.00061878	0.00018946	386.21	6.2957e-06	5.9006e-05	358.83	151.87	6.6126e-06	6.52e-06	192.85	84.878	75.579	40.508	6.6511e-06	43.904	195.280	26.283	39.846	-42.354	127.998	131.266	-43.427	-36.699	157.863	76.123	-39.264	-35.168	-32.676	-28.672	137.045	-32.361	-8191	255	
42748.820	1	1	0	0	0.10903	0.26409	0.044957	0.14299	0.15062	0.11344	0.30985	0.16952	0.32298	0.090767	0.065417	0.18741	0.090165	0.16677	0.09828	0.092869	-1.9375	-2.4042	-1.9354	-2.4188	-2.1688	-2.2938	-2.4688	-2.1	-2.3063	-2.4271	-2.1042	-2.5042	-2.0604	-2.1292	-2.3542	-1.9875	291.508	40.680	249.645	213.556	141.839	230.722	207.048	12.169	45.111	135.444	295.067	-24.635	-52.443	-21.418	80.241	1.985	0.00012057	0.00032782	8.7782e-05	371.25	1.9488e-06	4.9856e-05	337.04	144.72	1.4972e-06	2.9847e-06	165.75	81.055	72.649	39.564	2.6916e-06	42.166	0.00042508	0.00061536	0.00019882	377.77	6.0993e-06	0.00011011	345.66	149.33	6.4298e-06	6.7338e-06	181.72	84.064	75.814	41.008	6.8078e-06	44.094	201.592	41.521	79.107	-42.644	102.464	134.342	-43.777	-36.355	133.275	103.991	-39.310	-35.144	-32.375	-28.723	116.729	-32.577	-8191	255	
42748.941	1	1	0	0	0.44629	0.11616	0.11477	0.11564	0.16287	0.14122	0.18386	0.44042	0.31052	0.0099184	0.14086	0.11673	0.077731	0.27076	0.060914	0.088217	-1.9208	-2.2854	-2.0979	-2.3458	-2.2875	-1.9875	-2.4646	-2.0042	-2.1083	-2.4167	-2.0021	-2.3375	-2.2208	-2.1771	-2.3937	-2.2812	298.784	100.630	123.477	165.990	126.716	167.829	148.346	274.132	225.775	-52.143	49.272	280.575	217.938	21.669	112.725	100.006	0.00014581	0.00034249	8.5678e-05	375.42	1.7385e-06	2.8924e-05	341.42	146.96	6.8464e-07	3.0557e-06	166.34	82.167	73.708	39.99	1.3372e-06	42.695	0.0025178	0.00062256	0.00019372	381.54	5.9689e-06	6.2603e-05	348.04	151.07	6.9935e-06	6.8027e-06	192.32	85.3	76.68	41.453	7.1015e-06	43.912	175.748	25.389	60.932	-42.327	103.593	146.571	-43.401	-36.652	107.069	61.411	-39.534	-35.186	-32.248	-28.702	79.742	-32.210	-8191	255	
42749.039	1	1	0	0	0.20068	0.18555	0.076019	0.046761	0.049479	0.21394	0.31084	0.059833	0.066663	0.016044	0.081919	0.21148	0.1812	0.21925	0.20094	0.18872	-1.8	-2.2167	-2.0458	-2.3417	-2.0667	-1.9083	-2.4521	-2.1708	-2.1979	-2.3063	-2.1104	-2.3333	-2.4396	-2.0042	-2.4979	-2.1688	80.304	59.638	119.358	-41.799	112.952	101.954	248.587	260.915	147.639	140.459	90.350	132.206	168.737	212.632	185.377	146.044	0.00013063	0.00031113	0.000115	375.38	3.8752e-06	6.4379e-05	344.85	146.98	2.3696e-06	4.0764e-06	171.03	83.259	73.985	40.115	3.4391e-06	43.441	0.002807	0.00062484	0.00020013	381.54	6.0308e-06	0.00011488	350.92	151.29	6.9781e-06	6.902e-06	184.77	86.299	76.735	41.737	7.0068e-06	44.623	-14.654	39.823	46.267	-42.141	107.469	147.184	-43.304	-36.449	92.893	84.166	-39.213	-34.893	-32.366	-28.726	125.476	-32.206	-8191	255	
42749.133	1	1	0	0	0.31574	0.25657	0.16661	0.32034	0.11766	0.18163	0.36026	0.16263	0.062503	0.028227	0.26778	0.25705	0.081228	0.14357	0.065312	0.25387	-1.9208	-2.4083	-2.2167	-2.2646	-2.3063	-2.0417	-2.4271	-2.1354	-2.1813	-2.2167	-2.0604	-2.2229	-2.4458	-1.9896	-2.475	-2.3104	147.424	69.366	-45.501	-19.657	165.698	108.770	133.337	259.090	65.655	276.894	39.685	268.149	215.944	-48.792	208.280	216.460	0.00040028	0.00037571	0.00011702	376.57	1.9057e-06	3.0548e-05	348.13	146.8	1.8886e-06	3.1208e-06	170.38	81.507	72.395	39.167	2.8594e-06	41.857	0.0049202	0.00063937	0.00018777	382.71	5.8285e-06	6.2716e-05	354.89	150.84	7.5607e-06	7.1119e-06	180.81	87.696	75.472	40.67	6.8924e-06	43.023	4.710	5.670	46.276	-42.398	148.573	156.645	-43.756	-36.483	83.919	92.869	-39.831	-35.183	-32.713	-28.660	122.553	-32.242	-8191	255	
42749.254	1	1	0	0	0.11284	0.30502	0.14985	0.044805	0.071888	0.30782	0.19252	0.21473	0.15239	0.1702	0.26071	0.13048	0.28393	0.21024	0.29354	0.16531	-1.6083	-2.5479	-2.0812	-2.1312	-2.3479	-2.0083	-2.2458	-2.3479	-1.9208	-2.5646	-2.2021	-2.3563	-2.4	-2.1042	-2.4354	-2.1188	189.739	169.748	197.726	0.342	52.611	186.148	258.861	217.150	245.634	78.533	152.665	243.703	264.815	-18.553	278.994	66.416	6.5643e-05	0.00063924	0.00010607	367.8	2.4196e-06	5.1626e-05	336.26	145.06	2.8732e-06	2.8424e-06	167.89	80.917	72.61	39.413	2.317e-06	41.996	0.0027254	0.00064258	0.00017875	376.61	6.1439e-06	0.00011116	343.13	149.24	6.9338e-06	7.0999e-06	172.2	86.726	75.815	41.072	6.9128e-06	43.435	16.920	22.548	68.137	-42.262	111.107	162.971	-43.513	-36.601	117.388	103.889	-39.343	-35.081	-32.546	-28.938	120.150	-32.120	-8191	255	
42749.348	1	1	0	0	0.13765	0.26874	0.20286	0.2073	0.28617	0.16589	0.24168	0.099913	0.057001	0.16449	0.15016	0.066235	0.032906	0.15507	0.084194	0.30606	-1.6292	-2.35	-2.1375	-2.2958	-2.425	-2.0417	-2.3292	-2.3208	-2.025	-2.3896	-2.2021	-2.2542	-2.475	-1.9896	-2.2854	-2.3146	108.590	-22.207	274.891	90.612	267.469	-53.628	298.829	40.685	-15.287	271.860	191.947	166.454	89.278	292.535	227.447	214.065	0.00036085	0.00053634	0.00012604	374.56	2.5876e-06	1.9543e-05	339.31	146.13	1.9097e-06	4.7373e-06	170.18	82.282	73.351	40.225	3.1065e-06	42.927	0.0048056	0.00062769	0.00016567	381.1	6.1366e-06	5.6115e-05	347.99	150.55	7.4708e-06	7.0502e-06	174.76	90.933	76.737	41.723	7.0418e-06	44.397	14.795	32.534	41.611	-42.730	87.921	98.014	-43.610	-36.338	131.265	84.819	-39.313	-35.439	-32.738	-28.825	99.745	-32.190	-8191	255	
42749.445	1	1	0	0	0.28978	0.08772	0.13513	0.24094	0.2482	0.086767	0.15085	0.056593	0.11212	0.074299	0.22263	0.11463	0.18268	0.096007	0.2115	0.28642	-1.3646	-2.3729	-2.1292	-2.3	-2.4938	-2.1854	-2.2792	-2.3479	-1.9958	-2.3771	-2.1937	-1.9125	-2.5375	-2.1604	-2.2188	-2.3792	276.693	281.042	265.377	223.216	141.288	114.657	251.362	129.205	201.739	71.450	-6.097	23.692	125.949	47.680	172.244	180.428	0.00012228	0.00024044	9.2096e-05	376.27	2.6493e-06	2.9171e-05	340.4	147.22	1.7192e-06	3.4895e-06	171.83	83.265	73.859	40.61	2.04e-06	43.785	0.0027034	0.00067428	0.0001715	382.93	6.116e-06	3.7722e-05	366.75	151.48	7.2529e-06	7.3666e-06	176.87	89.569	76.987	42.128	7.646e-06	45.282	62.513	11.759	50.831	-42.259	112.411	94.701	-42.761	-36.214	98.864	81.417	-39.358	-35.408	-32.422	-28.974	148.396	-32.271	-8191	255	
42749.539	1	1	0	0	0.094103	0.040202	0.2505	0.28194	0.12631	0.1163	0.057314	0.089092	0.045763	0.25846	0.074216	0.10174	0.18006	0.13708	0.070789	0.12494	-1.5354	-2.3521	-1.9958	-2	-2.4167	-2.0854	-2.1729	-2.15	-1.9021	-2.35	-2.3771	-1.9438	-2.3875	-2.3063	-2.4479	-2.3854	205.882	44.592	91.591	283.267	272.946	171.053	-33.947	290.930	4.572	236.338	305.270	125.836	148.021	293.549	71.129	223.536	0.00036507	0.00033124	0.000118	379.75	1.8998e-06	1.2985e-06	349.42	147.41	1.5131e-06	2.7881e-06	172.7	83.996	73.245	39.858	3.1675e-06	43.047	0.0048742	0.00065846	0.00016947	384.81	6.281e-06	6.9709e-06	370.21	151.51	7.4504e-06	7.1984e-06	177.15	92.353	76.413	41.48	7.4157e-06	44.291	35.560	21.537	50.544	-42.355	63.384	154.890	-43.181	-36.415	105.905	111.260	-39.596	-35.737	-32.285	-29.031	113.410	-32.267	-8191	255	
42749.637	1	1	0	0	0.053454	0.058966	0.10114	0.18736	0.27915	0.067396	0.18707	0.18543	0.15718	0.12342	0.11985	0.1507	0.10396	0.28119	0.14758	0.16368	-1.7458	-2.1688	-2.1625	-2.0312	-2.2979	-2.1437	-2.4146	-2.3438	-2.1646	-2.3521	-2.3438	-1.95	-2.3417	-2.2896	-2.2062	-2.5187	-2.413	172.608	286.230	-38.490	-2.486	128.977	39.960	162.667	93.850	233.919	-17.265	241.038	195.088	247.383	272.503	212.262	0.00012327	0.00049118	6.9921e-05	372.89	1.1892e-06	1.5465e-06	340.21	146.47	1.2826e-06	2.1189e-06	170.56	81.996	73.353	39.826	2.386e-06	42.937	0.002399	0.00064514	0.00017256	380.84	6.1226e-06	6.7631e-06	375.12	150.25	7.1285e-06	7.2312e-06	174.33	87.911	76.375	41.374	7.9681e-06	44.288	52.384	40.416	54.862	-42.762	152.022	93.849	-43.331	-36.652	92.841	103.700	-39.141	-35.613	-32.433	-28.830	152.168	-32.434	-8191	255	
42749.734	1	1	0	0	0.25106	0.09842	0.14995	0.078356	0.12764	0.155	0.20935	0.20864	0.13371	0.1948	0.10779	0.12466	0.12866	0.15344	0.38774	0.42551	-1.6292	-2.3	-2.3958	-2.05	-2.3958	-2.2167	-2.1375	-2.375	-2.1708	-2.1354	-2.3083	-2.2021	-2.3729	-2.2229	-2.1542	-2.3771	220.136	241.137	80.389	222.539	95.999	292.233	0.926	270.940	289.078	84.626	133.145	12.920	300.563	33.814	76.113	283.012	0.00037612	0.0022318	8.0761e-05	377.05	1.2015e-06	1.3032e-06	342.78	147.2	1.9071e-06	3.5205e-06	172.4	83.252	73.501	40.317	3.3492e-06	43.47	0.0015172	0.0059435	0.00018172	382.55	6.0448e-06	6.6769e-06	366.19	151.37	6.4228e-06	7.9825e-06	176.59	91.611	76.755	41.722	7.6066e-06	44.757	23.091	89.921	51.853	-42.460	166.905	63.979	-43.417	-36.479	118.312	102.717	-39.123	-35.618	-32.499	-28.871	117.690	-32.388	-8191	255	
42749.855	1	1	0	0	0.18633	0.17743	0.083612	0.26942	0.13603	0.064537	0.2376	0.1403	0.037468	0.068918	0.3328	0.11232	0.18519	0.078456	0.34573	0.074696	-1.7292	-2.0896	-2.2583	-2.1083	-2.4146	-2.3187	-2.0833	-2.3438	-2.1833	-2.05	-2.4708	-1.9708	-2.3583	-2.4146	-2.0146	-2.3896	128.759	0.842	20.825	136.639	271.953	231.858	292.639	-48.643	100.017	265.166	128.277	56.277	217.754	302.787	158.889	46.449	0.00013715	0.0033859	0.00012296	377.61	1.786e-06	4.7178e-06	343.37	147.16	2.4861e-06	4.5656e-06	175.16	84.597	74.011	40.439	2.6291e-06	43.794	0.00044077	0.0052625	0.00018494	383.84	6.2424e-06	6.8614e-06	381.32	152.09	6.4509e-06	7.8768e-06	178.96	89.94	77.571	42.019	8.119e-06	45.316	195.086	16.964	32.886	-42.304	84.298	94.583	-42.762	-36.607	131.404	105.094	-39.063	-35.371	-32.518	-28.659	188.945	-32.344	-8191	255	
42749.949	1	1	0	0	0.19675	0.15184	0.18396	0.28584	0.2111	0.16049	0.1741	0.13397	0.062552	0.19691	0.13873	0.18188	0.09329	0.077712	0.14388	0.13935	-1.6313	-2.0479	-2.2938	-2.0417	-2.2375	-2.3312	-1.9354	-2.3354	-2.3563	-2.0229	-2.3208	-1.9958	-2.2354	-2.325	-1.9917	-2.5062	66.956	29.669	260.618	269.989	181.741	7.596	141.205	-3.283	286.179	233.747	85.434	232.764	-34.174	257.300	249.652	188.733	0.00013014	0.0052862	9.087e-05	378.17	2.6316e-06	2.4429e-06	355.25	147.73	1.1899e-06	2.7625e-06	174.98	84.74	73.062	39.705	2.87e-06	42.546	0.00044077	0.0094204	0.00018102	386.34	6.4241e-06	7.0434e-06	376.07	152.44	6.3188e-06	8.1724e-06	179.58	88.621	80.441	41.092	7.6409e-06	43.925	200.677	22.651	56.934	-42.701	143.059	123.855	-43.079	-36.197	79.983	81.955	-38.929	-35.652	-32.532	-28.951	118.125	-32.376	-8191	255	
42750.047	1	1	0	0	0.18528	0.08783	0.22646	0.062503	0.070546	0.054916	0.24814	0.012421	0.13693	0.11084	0.20497	0.086603	0.11474	0.28404	0.34426	0.016843	-1.5667	-2.2167	-2.5125	-2.1979	-2.2104	-2.2521	-1.9937	-2.3563	-2.1896	-2.0479	-2.4417	-2.0708	-2.2375	-2.2917	-2.0875	-2.3979	65.062	226.302	88.085	285.397	232.392	211.166	-7.505	44.166	167.633	195.202	230.778	270.612	157.865	-45.911	1.241	1.189	0.00011519	0.0027263	0.00011162	373.19	2.2331e-06	2.4547e-06	339.61	145.18	1.8438e-06	2.451e-06	170.03	81.685	72.182	39.205	1.6644e-06	42.113	0.00041729	0.0052415	0.00017256	378.92	6.7809e-06	6.8718e-06	375.35	149.24	6.3701e-06	7.6886e-06	173.69	84.75	78.552	40.677	7.7065e-06	43.466	205.996	23.474	47.623	-42.401	127.571	86.730	-43.185	-36.563	82.481	112.039	-39.124	-35.307	-32.917	-28.891	132.379	-32.081	-8191	255	
42750.117	1	1	0	0	0.13788	0.27092	0.30837	0.2676	0.046317	0.08053	0.15315	0.40918	0.071631	0.16756	0.32706	0.078738	0.12931	0.22178	0.20917	0.087345	-1.8	-1.9646	-2.45	-2.2271	-2.1229	-2.4646	-2.0646	-2.3042	-2.3104	-1.9083	-2.4562	-2.2938	-2.45	-2.3167	-2.0604	-2.3042	25.834	97.928	9.172	4.940	-17.397	300.284	-31.212	21.891	75.645	186.865	-51.897	102.447	169.940	-53.549	-24.797	102.304	0.00012712	0.0053858	8.9311e-05	374.73	3.0146e-06	3.8288e-06	347.07	146.48	1.2454e-06	4.0896e-06	172.16	83.456	73.551	40.026	3.2648e-06	43.039	0.00043692	0.0093242	0.00017218	381.55	6.5034e-06	6.958e-06	363.22	151.9	6.4488e-06	7.9809e-06	177.3	86.651	82.704	41.505	7.2247e-06	44.349	195.712	34.535	37.380	-42.520	94.122	107.408	-43.493	-36.557	75.788	82.382	-39.143	-35.380	-33.609	-28.898	119.592	-32.186	-8191	255	
42750.238	1	1	0	0	0.15669	0.07721	0.20615	0.053361	0.11688	0.37388	0.10037	0.35332	0.458	0.058118	0.17655	0.23078	0.1172	0.18316	0.18195	0.26582	-1.8104	-2.1021	-2.4333	-2.125	-2.0312	-2.4625	-2.0896	-2.3063	-2.2146	-2.0833	-2.4229	-2.3083	-1.9854	-2.5417	-2.2521	-2.1833	245.058	258.644	219.406	234.074	-51.223	82.722	273.196	-16.122	156.445	245.998	75.794	302.352	90.907	-51.616	205.371	9.503	0.00014073	0.0027624	0.00012626	377.06	1.7391e-06	4.223e-06	350.92	147.75	2.3522e-06	3.6549e-06	175.79	84.189	73.762	40.186	2.8557e-06	43.585	0.00043621	0.0051888	0.00016969	383.95	7.2455e-06	6.9451e-06	361.95	159.39	6.4446e-06	7.6165e-06	179.54	87.829	80.321	41.679	6.6941e-06	45.038	196.097	42.794	33.614	-42.401	123.837	109.502	-43.508	-36.396	103.402	96.094	-38.860	-35.078	-32.999	-28.845	80.459	-32.258	-8191	255	
42750.332	1	1	0	0	0.13837	0.22321	0.31233	0.14305	0.16505	0.093971	0.091122	0.37264	0.13259	0.082828	0.19894	0.25823	0.081101	0.26651	0.04884	0.25161	-1.8875	-2.0625	-2.2812	-2.4167	-2.0646	-2.6229	-2.0729	-2.1333	-2.3917	-1.9917	-2.2	-2.2875	-2.0479	-2.3333	-2.2	-2.2521	300.886	189.820	39.892	99.239	105.324	114.238	45.476	267.414	230.634	-50.678	66.551	-31.535	-17.821	56.335	93.131	-27.052	0.00012329	0.0048847	0.00011046	381.56	2.5923e-06	4.1974e-06	355.38	148.35	3.194e-06	2.8096e-06	176.39	85.169	74.098	39.858	2.4738e-06	42.796	0.00045002	0.0092933	0.00017606	387.45	6.8368e-06	7.053e-06	362.5	158.31	6.4586e-06	7.8328e-06	180.36	88.397	83.082	41.413	6.5921e-06	44.284	189.638	41.264	34.720	-42.661	114.929	73.780	-43.335	-36.423	99.929	33.897	-38.795	-34.939	-33.137	-28.794	120.546	-32.177	-8191	255	
42750.430	1	1	0	0	0.23105	0.12171	0.11354	0.10297	0.25571	0.3078	0.11522	0.17925	0.28348	0.20625	0.065842	0.22523	0.15329	0.16056	0.1947	0.097041	-1.8625	-1.9646	-2.3583	-2.2938	-2.1229	-2.5042	-2.2708	-2.1708	-2.4396	-2.0667	-2.4271	-2.3167	-1.9854	-2.6042	-2.2458	-2.2438	-49.036	265.034	131.999	231.512	101.743	299.892	-42.191	-50.062	62.216	240.807	232.352	18.620	297.409	256.140	62.848	271.981	0.000126	0.0026877	0.00060169	373.54	3.0361e-06	2.8634e-06	345.44	145.25	1.4155e-06	3.0366e-06	171.49	81.677	73.147	39.176	2.2477e-06	41.821	0.00043294	0.0039523	0.00032405	382.21	6.938e-06	6.8565e-06	352.39	160.74	6.3174e-06	7.0614e-06	175.62	85.071	79.324	40.762	6.6876e-06	43.298	186.740	-4.810	104.462	-42.583	138.862	76.984	-43.598	-36.532	77.696	81.903	-38.906	-35.154	-32.791	-28.908	132.587	-31.893	-8191	255	
42750.523	1	1	0	0	0.091354	0.21883	0.23299	0.11956	0.17482	0.2842	0.19704	0.081372	0.24499	0.29354	0.13652	0.10291	0.26808	0.17575	0.17639	0.18332	-1.9104	-2.0187	-2.2854	-2.1854	-2.2354	-2.425	-2.2062	-2.225	-2.6521	-2.2083	-2.3375	-2.3396	-2.1146	-2.4104	-2.1917	-2.2167	263.421	60.835	24.646	292.359	281.132	-36.030	-33.263	272.212	304.460	-17.114	-36.958	15.347	83.939	170.473	136.356	258.849	0.00013773	0.0047248	0.0011604	374.83	7.0565e-07	4.8528e-06	343.76	146.44	1.586e-06	3.902e-06	173.23	83.156	74.052	39.874	1.6551e-06	42.825	0.00044128	0.0016097	0.0019561	382.24	6.3902e-06	6.8517e-06	351.55	156.67	6.3504e-06	6.7418e-06	177.66	86.335	82.902	41.395	7.1081e-06	44.039	195.129	2.516	118.803	-42.480	150.251	86.538	-43.541	-36.459	98.290	90.044	-39.001	-35.232	-33.035	-29.002	108.870	-32.118	-8191	255	
42750.621	1	1	0	0	0.15401	0.12878	0.20281	0.20426	0.24093	0.12255	0.1413	0.12118	0.11433	0.25031	0.13118	0.27653	0.25411	0.068704	0.13448	0.184	-1.9604	-2.0604	-2.3646	-2.4021	-2	-2.4	-2.175	-2.0208	-2.4792	-2.1042	-2.3917	-2.5729	-2.0667	-2.3833	-2.3271	-1.9833	74.173	4.350	218.288	240.710	0.059	122.740	210.275	294.396	30.432	278.170	286.335	265.233	210.389	37.011	271.019	-47.976	0.00012834	0.00037185	0.00080331	375.8	2.0677e-06	4.7933e-06	349.26	147.09	1.8709e-06	3.3137e-06	174.6	84.345	74.187	39.951	1.9171e-06	43.43	0.00042294	0.00060653	0.0014504	383.65	6.6405e-06	7.1931e-06	356.67	161.87	6.2281e-06	6.7106e-06	178.42	87.45	79.387	41.684	6.7998e-06	44.728	189.348	47.476	57.061	-42.582	104.586	75.001	-43.421	-36.729	107.840	116.656	-39.280	-35.479	-32.930	-28.648	182.053	-32.013	-8191	255	
42750.719	1	1	0	0	0.3283	0.13077	0.26234	0.10523	0.17379	0.19044	0.13816	0.22633	0.095458	0.18014	0.34429	0.19813	0.039887	0.29408	0.1674	0.052313	-2.0167	-2.0542	-2.0875	-2.4354	-2.0833	-2.25	-2.4083	-2.2708	-2.3292	-2.1542	-1.9792	-2.4313	-2.225	-2.1854	-2.2875	-2.0521	171.232	228.111	241.288	89.653	53.302	92.126	84.750	73.516	-20.305	-9.400	133.486	115.907	280.956	281.192	44.197	297.230	0.00013401	0.00048292	0.0013547	380.24	2.5803e-06	3.713e-06	353.99	148.55	1.0993e-06	3.1744e-06	175.93	85.385	74.62	40.067	3.0725e-06	43.192	0.00043512	0.00062883	0.0026155	386.27	6.1473e-06	7.2777e-06	361.54	158.43	6.2337e-06	6.8187e-06	180.73	88.409	77.872	42.708	6.8581e-06	44.616	192.707	18.447	81.552	-42.539	103.274	98.121	-43.630	-36.611	106.602	101.821	-39.177	-35.195	-33.542	-28.777	123.763	-31.873	-8191	255	
42750.812	1	1	0	0	0.17487	0.031913	0.04569	0.20481	0.065077	0.19446	0.15715	0.20567	0.15491	0.144	0.17345	0.14329	0.23613	0.13918	0.12802	0.19922	-1.8917	-2.1104	-1.9312	-2.2812	-2.2042	-2.1375	-2.5062	-2.1271	-2.4021	-2.3042	-2.0333	-2.5625	-2.025	-2.2646	-2.4792	-2.1521	186.707	55.122	252.533	303.378	33.895	151.661	163.299	-22.517	17.500	265.155	300.667	108.402	80.501	-15.618	169.495	179.785	0.0001403	0.00048421	0.00082701	377.29	2.524e-06	2.8797e-06	349.92	145.66	2.3071e-06	3.2556e-06	170.87	82.318	73.08	39.208	1.406e-06	41.826	0.00044356	0.0006549	0.001448	383.93	6.0175e-06	8.0033e-06	354.93	161.05	6.505e-06	6.898e-06	176.45	85.309	76.131	41.434	6.6854e-06	43.274	195.991	9.998	80.404	-42.486	110.066	86.659	-43.295	-36.701	106.678	61.937	-39.059	-35.259	-32.293	-29.074	87.677	-32.092	-8191	255	
42750.934	1	1	0	0	0.25642	0.24559	0.14918	0.089497	0.1657	0.16352	0.17161	0.24813	0.19979	0.13734	0.23334	0.22426	0.2052	0.3941	0.15786	0.11868	-1.8792	-2.1979	-2.0042	-2.4354	-2.1125	-2.2188	-2.2104	-2.1354	-2.3208	-2.1521	-2.0354	-2.4104	-2.2229	-2.0896	-2.3958	-2.0896	69.162	250.300	249.478	243.123	114.592	111.143	134.171	261.395	141.974	252.997	-12.397	200.835	282.890	193.230	150.423	36.783	0.00012402	0.00024407	0.0012649	375.36	2.4369e-06	2.8328e-06	346.07	147.72	1.3436e-05	4.4054e-06	172.17	83.158	73.526	39.623	2.0032e-06	42.564	0.00043495	0.00063004	0.0026524	381.75	5.9057e-06	7.7021e-06	353.58	154.98	1.5071e-05	7.1639e-06	177.25	86.337	76.759	42.562	6.7226e-06	43.883	197.561	37.184	86.666	-42.261	109.634	114.608	-43.450	-36.484	254.349	87.202	-39.445	-35.053	-32.646	-28.979	82.963	-32.138	-8191	255	
42751.031	1	1	0	0	0.24776	0.089435	0.1297	0.29928	0.16152	0.03993	0.21543	0.106	0.12823	0.15133	0.19125	0.075178	0.32306	0.34681	0.10943	0.081614	-1.9625	-2.2562	-1.8958	-2.2896	-2.0563	-1.9813	-2.5479	-2.0271	-2.1813	-2.4854	-2.0646	-2.5625	-2.1271	-2.1854	-2.4771	-2.2208	131.270	31.455	23.715	-27.680	216.010	-34.867	226.508	36.710	187.680	158.293	242.061	93.297	155.860	282.204	154.157	28.833	0.00012605	0.00046787	0.00074968	377.26	2.6995e-06	3.3772e-06	349.99	148.17	2.5872e-05	3.6882e-06	174.09	84.401	73.568	39.691	2.6533e-06	43.047	0.00045216	0.00063153	0.0014686	382.95	6.078e-06	7.6538e-06	356.05	152.69	7.8545e-05	6.8115e-06	178.37	87.018	76.726	41.969	6.6803e-06	44.399	202.620	18.027	97.655	-42.490	126.745	88.013	-43.653	-36.990	251.705	95.626	-38.964	-35.341	-32.638	-28.806	148.360	-32.299	-8191	255	
42751.129	1	1	0	0	0.023083	0.18366	0.20628	0.10604	0.086609	0.19889	0.15149	0.15803	0.1457	0.14184	0.20458	0.044894	0.086431	0.14389	0.26506	0.2108	-1.7375	-2.4083	-2.1792	-2.3563	-2.4083	-2.0021	-2.4396	-2.1937	-2.2938	-2.4833	-1.9667	-2.3167	-2.1104	-2.0333	-2.3792	-2.2	159.204	-14.899	24.103	99.271	169.392	264.490	27.601	110.194	198.874	215.688	58.519	146.583	-13.285	-34.986	99.029	195.404	0.00014061	0.00046302	0.0015201	377.33	1.994e-06	3.4952e-06	352.32	148.05	2.0079e-05	4.5389e-06	175.06	85.185	73.28	39.968	1.0689e-06	43.138	0.00048278	0.00063673	0.0026521	385.05	6.0328e-06	7.4903e-06	360.31	152.25	5.3062e-05	6.7867e-06	179.68	88.055	76.699	42.73	6.5265e-06	44.471	203.378	34.309	94.834	-42.469	116.446	80.529	-43.545	-36.568	297.805	102.467	-39.258	-35.272	-32.800	-28.805	81.792	-32.132	-8191	255	
42751.223	1	1	0	0	0.17856	0.06043	0.15598	0.17078	0.11644	0.094341	0.21284	0.074273	0.17606	0.1172	0.3076	0.072158	0.23808	0.17858	0.11299	0.19114	-1.6063	-2.3083	-1.8937	-2.3125	-2.3854	-2.1083	-2.3563	-2.2792	-2.1917	-2.3792	-2.0229	-2.25	-2.4667	-2.0042	-2.4437	-2.2812	1.838	208.169	69.579	179.008	-48.498	173.700	30.309	-18.928	242.552	53.575	248.161	235.082	284.872	56.715	135.008	183.035	0.00013892	0.00025561	0.00044359	374.25	2.0049e-06	3.3678e-06	346.96	145.4	3.4518e-05	2.9137e-06	170.27	81.529	71.946	38.867	2.2835e-06	41.422	0.00046332	0.00061152	0.00095887	385.22	5.8278e-06	7.6055e-06	353.37	150.31	9.4431e-05	6.5872e-06	174.94	84.785	75.369	41.033	6.6628e-06	42.91	200.319	58.491	25.373	-42.300	94.574	104.699	-43.207	-36.493	301.298	93.338	-39.084	-35.113	-32.233	-28.752	124.155	-32.234	-8191	255	
42751.344	1	1	0	0	0.055794	0.091574	0.17692	0.17401	0.15123	0.069755	0.12377	0.10414	0.056134	0.24386	0.2891	0.048044	0.036419	0.14548	0.25312	0.17653	-1.5604	-2.3083	-1.9042	-2.1917	-2.2333	-1.9479	-2.4229	-2.1375	-2.15	-2.5354	-2.1125	-2.0646	-2.3583	-1.9708	-2.4896	-2.1771	-46.808	11.879	211.651	-48.698	233.622	266.668	83.111	161.605	109.350	211.570	220.954	155.068	-13.962	225.253	9.797	227.064	0.00012811	0.00021438	9.6753e-05	373.18	1.9721e-06	4.4716e-06	346.37	146.14	1.6071e-05	3.3074e-06	173.05	82.235	73.428	39.651	2.3779e-06	42.612	0.00047588	0.00060318	0.0001686	399.95	5.8943e-06	7.3598e-06	352.37	151.13	5.2948e-05	6.4879e-06	176.63	86.073	76.455	42.497	6.5484e-06	43.905	198.776	-5.141	37.873	-42.065	126.030	95.570	-43.257	-36.775	-41.940	86.818	-39.407	-35.211	-32.480	-28.695	104.388	-32.193	-8191	255	
42751.414	1	1	0	0	0.38241	0.045097	0.11938	0.16418	0.31231	0.28662	0.080753	0.20926	0.20771	0.19124	0.07253	0.30297	0.19397	0.03332	0.0070618	0.18734	-1.4729	-2.275	-2.225	-2.1167	-2.4625	-2.0333	-2.3646	-2.3625	-2.1146	-2.4313	-2.075	-2.2521	-2.5625	-2.0062	-2.2417	-2.2833	173.693	192.918	257.434	215.548	257.818	2.691	114.632	54.891	200.188	284.059	133.122	13.607	191.429	194.793	119.309	262.819	0.00013754	0.0004592	9.7874e-05	377.15	2.9214e-06	3.5998e-06	351.38	148.1	2.8586e-05	2.6023e-06	173.65	84.125	73.846	39.832	1.1501e-05	43.093	0.00044849	0.0006051	0.00017174	395.44	5.8158e-06	7.4879e-06	356.4	152.1	9.4085e-05	6.5264e-06	178.25	87.098	76.949	41.72	2.105e-05	44.461	200.920	2.802	49.964	-42.121	100.221	104.590	-43.794	-36.350	-43.223	99.250	-39.333	-34.901	-32.660	-28.814	147.618	-32.112	-8191	255	
42751.535	1	1	0	0	0.16954	0.094402	0.040358	0.15059	0.15552	0.12092	0.27545	0.3855	0.20934	0.19416	0.16924	0.24137	0.35437	0.059278	0.16937	0.19655	-1.425	-2.45	-2.2188	-2.0542	-2.3542	-1.9854	-2.1	-2.4	-1.8167	-2.2521	-2.3563	-2.05	-2.4333	-2.0521	-2.2042	-2.4	130.120	238.889	279.088	214.552	180.736	183.491	165.054	295.791	97.065	160.017	103.005	134.687	46.095	62.482	258.368	204.286	0.00013146	0.00054991	0.00010326	378.24	2.642e-06	3.5503e-06	355.9	148.13	1.6703e-05	4.0446e-06	175.82	84.574	73.593	40.019	1.9531e-05	43.256	0.00048782	0.00060147	0.00017061	407.74	5.9376e-06	7.0281e-06	360.61	152.64	5.3085e-05	6.6978e-06	180.45	87.981	76.988	41.4	9.043e-05	44.774	190.190	38.284	46.878	-41.895	94.567	81.195	-43.046	-36.793	-39.471	120.145	-39.274	-35.178	-32.422	-28.502	155.005	-32.185	-8191	255	
42751.629	1	1	0	0	0.22893	0.18446	0.31199	0.041151	0.32648	0.14027	0.17395	0.18979	0.17925	0.015107	0.16297	0.17282	0.19926	0.24776	0.037462	0.037464	-1.4479	-2.1917	-2.0938	-2.0646	-2.3375	-2.1021	-2.3187	-2.2771	-2.1292	-2.4792	-2.2562	-1.9708	-2.3708	-2.3146	-2.1333	-2.5187	-44.022	-50.130	68.695	139.935	1.666	138.908	254.988	190.665	97.093	121.364	46.389	233.496	-23.101	-14.193	202.456	248.396	0.00014042	0.00037842	0.00010404	377.23	1.3852e-06	3.3812e-06	351.23	146.71	3.4388e-05	2.8604e-06	172.35	82.879	72.863	39.028	2.4145e-05	42.006	0.00044529	0.00063068	0.00017314	396.62	5.7952e-06	6.8855e-06	359.59	151.43	9.2038e-05	6.9108e-06	177.13	86.064	75.824	40.526	5.3839e-05	43.403	200.231	45.768	44.959	-42.322	102.261	102.177	-43.270	-36.383	-35.009	101.735	-39.057	-35.034	-32.589	-28.701	84.301	-32.082	-8191	255	
42751.727	1	1	0	0	0.28785	0.11242	0.33358	0.10662	0.15019	0.16724	0.10885	0.047031	0.34209	0.069301	0.29198	0.18585	0.15558	0.13238	0.044254	0.18339	-1.6354	-2.4313	-2.2104	-2.1458	-2.3083	-2.2896	-2.2042	-2.4104	-1.9813	-2.3854	-2.3292	-1.975	-2.3812	-2.1688	-2.0354	-2.5792	270.504	119.545	144.211	92.004	-41.162	-40.474	238.330	254.597	39.645	279.758	-23.560	297.767	21.533	79.733	167.235	291.445	0.00013988	0.00016429	0.00013685	373.56	2.3311e-06	4.504e-06	350.75	147.69	1.2703e-05	9.0824e-06	174.72	83.785	73.816	39.582	4.1584e-05	42.825	0.00045019	0.00064485	0.00017971	403.3	5.9123e-06	6.7494e-06	356.44	151.41	2.9735e-05	2.4069e-05	178.06	86.925	76.603	41.1	9.6119e-05	44.116	196.917	3.250	43.652	-41.818	126.647	69.750	-43.302	-36.664	12.040	273.670	-39.715	-35.167	-32.553	-28.698	95.423	-32.121	-8191	255	
42751.824	1	1	0	0	0.098363	0.027994	0.22236	0.20435	0.23344	0.14938	0.25513	0.16017	0.24644	0.20819	0.11384	0.070413	0.088629	0.2875	0.21938	0.10964	-1.5458	-2.1458	-2.4792	-1.95	-2.3583	-2.2667	-2.3042	-2.3812	-2.2021	-2.2875	-2.3792	-2.0104	-2.2125	-2.0708	-2.0812	-2.3625	236.805	220.965	175.409	273.684	274.381	289.709	142.221	-31.497	199.771	91.897	73.610	-1.041	-18.528	277.936	227.028	239.540	0.0001319	0.00021967	0.00010235	375.04	1.5678e-06	2.534e-06	352.51	148.18	7.0032e-07	1.6669e-05	175.24	84.356	73.138	39.739	2.554e-05	43.252	0.00043577	0.00065433	0.00016943	394.79	5.8344e-06	6.7977e-06	358.79	151.81	6.2387e-06	9.9521e-05	178.87	87.331	76.601	41.142	5.3619e-05	44.631	194.381	62.721	37.222	-42.246	111.995	92.524	-43.241	-36.431	139.674	249.279	-39.542	-34.899	-32.520	-28.634	100.255	-32.145	-8191	255	
42751.918	1	1	0	0	0.064852	0.070055	0.16868	0.19839	0.14557	0.17999	0.19527	0.14526	0.061975	0.14325	0.16794	0.086377	0.4461	0.11203	0.22056	0.12343	-1.5354	-2.2146	-2.25	-2.1292	-2.2917	-2.3271	-2.1333	-2.4938	-2.1813	-2.2979	-2.4396	-2.0458	-2.2917	-2.25	-2.0542	-2.4	155.579	87.389	165.593	220.663	213.148	-52.716	167.207	12.616	84.249	90.133	-51.175	131.742	285.602	65.285	160.662	189.006	0.00013331	0.00030311	0.00011405	377.28	9.4341e-07	3.1706e-06	354.89	148.15	1.8664e-06	2.3084e-05	176	84.646	73.455	39.759	3.8891e-05	43.49	0.00043039	0.0007069	0.00016579	407.39	5.8804e-06	6.9475e-06	362.47	152.2	6.304e-06	5.8141e-05	180.38	87.976	76.556	41.261	9.2785e-05	44.837	187.886	-14.207	37.301	-42.263	142.132	116.295	-43.220	-36.336	90.208	-11.162	-39.142	-34.979	-32.621	-28.898	105.478	-32.182	-8191	255	
42752.016	1	1	0	0	0.073943	0.15613	0.1655	0.22406	0.11158	0.058699	0.14425	0.41245	0.13585	0.042696	0.21078	0.10493	0.090182	0.062242	0.028372	0.17729	-1.5854	-2.0854	-2.425	-2.1813	-2.1354	-2.5208	-2.05	-2.2646	-2.2771	-2.1937	-2.5229	-2.1146	-2.4688	-2.3229	-2.0208	-2.6	121.144	-5.918	19.984	273.609	-45.750	184.148	238.603	269.245	50.157	29.080	-29.849	74.512	178.486	139.840	107.076	-36.839	0.00013222	0.00033866	0.00010955	376.45	1.9682e-05	3.6403e-06	351.34	145.31	1.5801e-06	4.8599e-05	170.49	81.846	71.376	38.358	2.3503e-05	41.638	0.00043332	0.00065768	0.00017057	388.99	2.1722e-05	6.8895e-06	359.88	149.44	6.207e-06	9.9907e-05	175.01	84.516	74.469	39.864	5.1031e-05	42.961	201.498	24.204	24.257	-42.435	231.432	72.971	-43.520	-36.645	86.249	-24.657	-38.886	-34.993	-32.479	-28.788	101.657	-32.464	-8191	255	
42752.109	1	1	0	0	0.11559	0.11657	0.3135	0.15354	0.19086	0.3208	0.14665	0.15034	0.19459	0.13895	0.13456	0.20045	0.17694	0.19777	0.15208	0.19932	-1.6146	-1.9729	-2.4417	-2	-2.0729	-2.4104	-1.9208	-2.5083	-2.3229	-2.0021	-2.3521	-1.9937	-2.3896	-2.6042	-2.1583	-2.25	248.656	252.513	209.714	200.109	149.322	157.402	-15.073	296.915	-28.591	122.804	234.059	270.784	-40.020	260.219	57.986	-53.282	0.00013	0.00037342	6.5079e-05	372.54	2.972e-05	2.4638e-06	343.83	145.36	1.5222e-06	2.3666e-05	171.42	82.158	72.55	39.136	4.2739e-05	42.595	0.00042825	0.00071182	0.0001591	378.93	8.3734e-05	6.722e-06	351.38	149.3	6.4087e-06	5.6321e-05	175.56	85.657	75.654	40.704	9.19e-05	43.92	202.443	20.475	0.841	-42.298	223.234	109.031	-43.362	-36.628	88.226	-9.566	-38.959	-35.015	-32.379	-28.806	117.215	-32.094	-8191	255	
42752.207	1	1	0	0	0.1332	0.18381	0.26212	0.35178	0.094829	0.35096	0.16735	0.19676	0.048353	0.1434	0.16562	0.11017	0.09514	0.16187	0.22395	0.14734	-1.9271	-1.9333	-2.4417	-2.0792	-2.2229	-2.4479	-2.0625	-2.3333	-2.5021	-2.1188	-2.4	-2.3667	-2.0917	-2.6458	-2.1875	-2.3688	136.473	-8.303	209.544	213.313	186.575	209.914	210.210	58.291	176.807	156.332	214.319	6.229	40.222	112.633	182.586	299.689	0.00011832	0.00031932	0.00011367	374.23	1.8862e-05	4.4189e-06	353.4	146.76	2.1439e-06	4.3935e-05	173.63	84.077	72.908	39.591	2.3757e-05	43.331	0.00042029	0.00066138	0.00016338	381.31	4.7184e-05	6.7406e-06	357.88	150.7	6.2949e-06	0.00010015	178.06	86.891	76.15	41.2	2.5546e-05	45.17	200.874	39.382	32.615	-42.300	237.440	86.253	-43.179	-36.507	105.601	-2.915	-39.303	-35.161	-32.412	-28.910	78.540	-31.933	-8191	255	
42752.305	1	1	0	0	0.18879	0.078343	0.2771	0.2474	0.091219	0.19876	0.21402	0.26567	0.16327	0.20469	0.10708	0.12477	0.095466	0.1993	0.06568	0.28823	-1.875	-1.95	-2.5479	-2.3771	-2.1458	-2.625	-2.0833	-2.3375	-2.2062	-2.0833	-2.3667	-2.3458	-2.1458	-2.4021	-2.1937	-2.3271	271.391	161.904	61.692	240.737	-22.355	232.391	169.399	285.055	157.532	152.772	-9.378	191.467	229.212	263.680	-53.573	237.331	0.00013411	0.00038578	7.8011e-05	378.44	3.6003e-05	3.1287e-06	356.25	147.12	1.8737e-06	2.5605e-05	176.17	85.255	73.283	39.894	1.2047e-06	44.021	0.00044131	0.00068696	0.00017903	385.01	8.4768e-05	6.4917e-06	363.29	151.76	6.3645e-06	5.7085e-05	179.91	88.332	76.613	41.418	6.7131e-06	47.334	194.950	20.666	5.516	-42.811	252.483	116.740	-43.434	-36.751	84.871	-0.435	-38.881	-35.131	-32.348	-28.819	99.044	-31.811	-8191	255	
42752.422	1	1	0	0	0.05491	0.368	0.14387	0.078238	0.013737	0.31006	0.32069	0.17017	0.23999	0.30239	0.19457	0.21984	0.36822	0.27353	0.19999	0.22609	-1.9375	-2.2	-2.3312	-2.2458	-2.1521	-2.4979	-1.9125	-2.2771	-2.4188	-2.0542	-2.2333	-2.35	-1.9958	-2.4375	-2.0958	-2.3187	284.430	-37.670	119.436	-25.723	163.220	12.918	253.061	293.638	203.150	79.883	-50.812	192.767	-24.420	211.073	284.346	94.687	0.00012966	0.00042255	9.772e-05	376.62	1.8041e-05	1.796e-06	355.88	146.14	1.1788e-06	5.0453e-05	171.48	82.972	71.82	38.903	1.5131e-06	42.175	0.0004339	0.00064835	0.00016971	385.02	4.8422e-05	6.7663e-06	363.25	150.6	5.999e-06	0.00010228	176.41	85.74	75.086	40.321	6.8311e-06	44.593	193.077	27.673	10.634	-42.540	250.745	55.252	-43.582	-36.653	88.879	13.546	-39.162	-35.256	-32.747	-28.959	88.124	-31.860	-8191	255	
42752.520	1	1	0	0	0.084429	0.066908	0.36894	0.17791	0.20487	0.078731	0.12376	0.20308	0.20531	0.19114	0.18643	0.030668	0.29392	0.15933	0.26625	0.10436	-1.8854	-1.8625	-2.3333	-2.4083	-2	-2.3396	-2.3063	-2.1271	-2.4062	-2.2854	-2.2271	-2.3312	-2.0583	-2.2583	-2.1521	-2.2542	256.004	216.184	57.760	165.226	67.706	99.561	303.391	63.698	207.253	86.884	76.844	15.267	260.965	190.472	183.170	170.126	0.00012483	0.00039864	7.1972e-05	370.83	3.1093e-05	4.2816e-06	346.87	144.83	2.2868e-06	2.8017e-05	170.67	82.852	72.436	39.164	2.1202e-06	42.947	0.00042855	0.00065604	0.00018102	378.56	8.5719e-05	6.9032e-06	352.45	149.43	6.084e-06	2.5947e-05	179.21	85.848	75.513	40.757	6.8851e-06	46.093	199.557	20.275	39.936	-42.506	265.355	108.014	-43.426	-36.704	100.314	17.325	-39.135	-35.033	-32.297	-28.866	109.513	-31.777	-8191	255	
42752.613	1	1	0	0	0.18908	0.23241	0.16361	0.31453	0.26549	0.24613	0.39977	0.065353	0.014581	0.22849	0.18992	0.1724	0.18237	0.17293	0.19595	0.19364	-2.1271	-2.0271	-2.2417	-2.3125	-2.0646	-2.475	-2.3542	-1.9354	-2.2812	-2.0354	-2.2104	-2.4333	-1.6729	-2.3438	-2.0958	-2.0958	248.280	284.178	219.244	251.188	158.596	53.364	198.232	285.155	-13.072	110.254	275.025	15.455	-12.672	111.009	-33.010	152.347	0.00012575	0.00044026	0.00010208	372.05	2.0331e-05	3.2569e-06	344.23	144.39	1.1502e-06	2.1696e-06	174.55	82.764	71.552	39.178	1.1082e-06	43.023	0.00042382	0.00065746	0.00018713	380	4.8585e-05	6.904e-06	352.72	149.33	5.9673e-06	7.1159e-06	192.67	85.768	74.853	40.762	6.8078e-06	45.427	197.021	-0.113	15.539	-42.447	269.000	115.401	-43.258	-36.505	131.094	93.060	-39.723	-35.055	-32.591	-28.903	93.518	-31.863	-8191	255	
42752.711	1	1	0	0	0.183	0.12778	0.15741	0.20865	0.13031	0.29262	0.077061	0.034059	0.071988	0.17507	0.13996	0.14873	0.13401	0.074481	0.21292	0.29923	-1.7563	-2.1792	-2.1562	-2.0938	-1.9875	-2.1854	-2.2146	-1.9479	-2.2604	-2.1604	-1.9896	-2.2917	-2.0271	-2.3167	-2.3042	-2.0438	-18.717	-29.560	-7.431	237.545	239.127	94.316	6.126	13.384	154.075	209.656	252.607	266.057	279.158	73.521	154.773	275.163	0.00013147	0.00029773	9.0303e-05	372.62	1.3672e-05	5.2691e-06	349.25	145.28	2.1221e-06	3.8206e-06	173.37	83.442	71.931	39.404	2.0988e-06	43.466	0.00043617	0.00062669	0.00020218	379.49	8.6529e-05	7.2769e-06	355.46	149.18	6.0095e-06	6.9341e-06	185.3	86.448	74.895	40.948	6.896e-06	46.844	199.099	24.206	2.204	-42.479	-9.218	104.419	-43.582	-36.844	108.945	102.329	-39.636	-35.487	-32.440	-28.528	132.909	-31.822	-8191	255	
42752.809	1	1	0	0	0.2536	0.28175	0.19989	0.13035	0.19129	0.16932	0.25386	0.17414	0.12526	0.14481	0.21801	0.25697	0.10486	0.14492	0.22481	0.26289	-1.7354	-2.0042	-1.9896	-2.3438	-2.1333	-2.4208	-2.1542	-1.8292	-2.1833	-2.2104	-2.1229	-2.4125	-2.1021	-2.2438	-2.4167	-2.0625	205.901	245.314	185.223	179.105	-34.089	31.638	-8.327	164.866	124.130	21.253	300.618	-46.976	1.741	175.326	0.014	-15.058	0.00013164	0.00019389	8.503e-05	372.68	8.4743e-06	2.206e-05	346.14	141.78	2.2972e-06	2.5723e-06	171.13	80.472	69.981	37.719	1.9346e-06	41.099	0.00044386	0.00062477	0.00018902	379.29	2.1127e-05	3.509e-05	355.16	146.88	6.5676e-06	6.9557e-06	190.22	83.368	72.578	39.319	6.4835e-06	43.633	194.051	26.232	57.130	-42.396	-4.471	245.994	-43.684	-36.618	92.810	58.883	-39.840	-35.310	-32.401	-29.045	85.274	-31.787	-8191	255	
42752.902	1	1	0	0	0.16109	0.20858	0.21054	0.13714	0.38006	0.11092	0.19351	0.14853	0.12115	0.23652	0.051449	0.16415	0.1002	0.19149	0.15841	0.079005	-1.7271	-2.1354	-1.975	-2.4437	-2.3021	-2.3125	-2.2083	-2.0375	-2.2354	-2.2479	-2.0104	-2.3271	-2.2062	-2.2812	-2.3125	-2.0667	10.761	109.060	248.910	222.227	92.413	293.509	230.162	271.837	44.231	127.907	-23.396	-44.378	253.309	-42.068	235.161	59.227	0.00012941	0.00048714	9.8339e-05	367.69	2.5061e-06	5.5324e-05	339.31	142	2.467e-06	2.3589e-06	169.24	80.836	71.024	38.576	2.7174e-06	42.119	0.0004391	0.00061686	0.00020093	373.01	6.112e-06	0.0001129	344.9	146.05	6.4825e-06	6.8419e-06	181.56	83.717	73.995	40.045	6.4114e-06	45.199	189.578	36.143	34.876	-42.354	108.599	285.239	-43.273	-36.675	102.286	67.054	-39.416	-35.358	-32.458	-28.499	97.852	-31.894	-8191	255	
42753.023	1	1	0	0	0.19385	0.14697	0.23501	0.10206	0.18108	0.043675	0.041597	0.13878	0.12242	0.061733	0.097921	0.14002	0.16978	0.19262	0.2633	0.16731	-2.0125	-2.1396	-2.0583	-2.5458	-2.2854	-2.3083	-2.3833	-2.0854	-2.3688	-2.4917	-2.2	-2.5521	-2.4167	-2.2479	-2.625	-2.2479	232.915	220.762	105.372	221.679	25.458	29.621	281.641	-8.833	259.172	222.980	251.828	267.086	301.718	-27.165	-9.321	219.720	0.00012741	0.00025439	7.027e-05	369.94	1.4521e-06	2.4754e-05	346.35	144.24	8.6632e-07	2.8933e-06	173.49	81.854	71.946	38.776	2.3576e-06	42.371	0.00044192	0.00062747	0.00017767	376.94	6.0534e-06	6.3243e-05	350.06	148.27	6.6456e-06	6.5792e-06	192.58	85.19	74.904	40.326	6.3829e-06	43.962	196.726	22.992	28.202	-42.464	96.539	280.944	-43.419	-36.732	104.472	100.486	-39.730	-35.409	-32.488	-28.624	117.329	-32.296	-8191	255	
42753.121	1	1	0	0	0.11029	0.11033	0.15254	0.40093	0.23467	0.085457	0.21892	0.10737	0.23111	0.050184	0.29551	0.19688	0.24542	0.073305	0.13604	0.029386	-1.8125	-2.3833	-1.9417	-2.3333	-2.1813	-2.1958	-2.4562	-2.0771	-2.3146	-2.4688	-2.1125	-2.4896	-2.1958	-2.1083	-2.4292	-2.2562	39.512	268.209	52.440	237.688	50.676	116.846	-43.667	16.289	258.341	298.778	220.778	272.434	-39.006	53.071	230.820	21.299	0.00038809	0.00025173	8.0094e-05	374.86	1.8657e-06	5.1926e-05	350.67	144.53	2.1273e-06	2.5788e-06	174.08	83.658	72.235	39.017	2.1071e-06	42.836	0.0017135	0.0005994	0.00018245	380.17	5.8424e-06	0.00010889	356.42	149.48	6.5866e-06	6.5784e-06	186.16	86.672	75.322	40.462	6.3166e-06	44.253	183.810	-8.769	53.781	-42.647	103.674	291.862	-43.647	-36.214	113.455	79.196	-39.270	-34.800	-32.619	-28.743	112.992	-32.293	-8191	255	
42753.215	1	1	0	0	0.1691	0.30307	0.1061	0.12346	0.11871	0.10666	0.13366	0.24885	0.25534	0.26869	0.14327	0.11007	0.15463	0.099353	0.080033	0.16902	-1.875	-2.3229	-2.0458	-2.3979	-2.3396	-2.1458	-2.4104	-1.9688	-2.2687	-2.4542	-2.1312	-2.4125	-2.3937	-2.1292	-2.35	-2.3792	0.204	109.262	45.104	-36.952	137.902	208.285	3.114	302.210	30.713	246.504	-22.140	-35.982	124.456	95.661	-7.089	35.253	0.00056946	0.0004089	8.8138e-05	376.44	2.3911e-06	2.5136e-05	354.31	146.02	2.0655e-06	2.4527e-06	177.42	82.839	71.45	38.157	2.018e-06	41.772	0.0044947	0.00060069	0.00017994	382.75	5.8943e-06	5.6071e-05	362.22	149.88	6.9429e-06	6.3349e-06	191.24	85.743	74.584	39.672	6.2634e-06	42.954	155.899	35.029	31.133	-42.232	113.852	-51.384	-43.571	-36.758	147.437	79.764	-39.606	-35.460	-32.587	-28.799	95.998	-32.142	-8191	255	
42753.312	1	1	0	0	0.041799	0.32265	0.34756	0.09106	0.069835	0.12468	0.17962	0.079854	0.13458	0.071431	0.28373	0.17199	0.21075	0.2124	0.096786	0.047967	-1.725	-2.3104	-2.0167	-2.2167	-2.3917	-1.9062	-2.3438	-2.15	-2.2188	-2.4771	-2.125	-2.3438	-2.3312	-2.0854	-2.4938	-2.2646	30.326	21.322	208.599	-5.451	107.924	252.571	130.532	304.977	263.753	90.284	61.402	156.315	150.029	274.011	46.473	236.653	0.00034764	0.00027475	7.012e-05	372.23	2.4227e-06	5.2496e-05	344.49	143.38	2.5084e-06	2.3259e-06	170.39	81.458	71.862	38.492	7.4438e-07	41.939	0.0025019	0.0005754	0.00017578	377.75	5.4777e-06	0.0001013	351.91	148.06	6.6084e-06	6.2749e-06	175.97	86.124	74.453	39.969	6.7991e-06	43.153	164.958	15.915	5.899	-42.330	132.703	-53.006	-43.309	-36.745	108.417	114.722	-39.178	-35.222	-32.626	-28.851	234.844	-32.240	-8191	255	
#DATA ENDS
