BOXY.EXE: ISS Imagent and Oximeter Data Acquisition Program Version 0.80
Ascii Record File

#ACQ INFORMATION
2  Detector Channels 
16  External MUX Channels 
1  Auxiliary Channels 
5000  Waveform (CCF) Frequency (Hz)
1  Waveforms Skipped 
30  Waveforms Averaged 
1  Cycles Averaged 
16  Acquisitions per Waveform 
10.0806  Updata Rate (Hz) 

#FILE INFORMATION
TRUE -- External MUX Channel results are PARSED.
FALSE -- AC DC and Phase are NOT grouped.
TRUE -- Companion Program Settings File CREATED.
FALSE -- AC data not excluded
FALSE -- DC data not excluded
FALSE -- Phase data not excluded
FALSE -- Auxillary Chn. data not excluded
Tab delimiters

#CALIBRATION STATE
TRUE -- Waveform Calibration Values APPLIED.


#AUX CALIBRATION VALUES
Val Type	aux-1	

Term	1.0000e+00	
Factor	0.0000e+00	


#WF CALIBRATION VALUES
A = Detector Channel
Val Type	A-AC1	A-AC2	A-AC3	A-AC4	A-AC5	A-AC6	A-AC7	A-AC8	A-AC9	A-AC10	A-AC11	A-AC12	A-AC13	A-AC14	A-AC15	A-AC16	A-DC1	A-DC2	A-DC3	A-DC4	A-DC5	A-DC6	A-DC7	A-DC8	A-DC9	A-DC10	A-DC11	A-DC12	A-DC13	A-DC14	A-DC15	A-DC16	A-Ph1	A-Ph2	A-Ph3	A-Ph4	A-Ph5	A-Ph6	A-Ph7	A-Ph8	A-Ph9	A-Ph10	A-Ph11	A-Ph12	A-Ph13	A-Ph14	A-Ph15	A-Ph16	

Term	0.00000e+00	0.00000e+00	0.00000e+00	0.00000e+00	0.00000e+00	0.00000e+00	0.00000e+00	0.00000e+00	0.00000e+00	0.00000e+00	0.00000e+00	0.00000e+00	0.00000e+00	0.00000e+00	0.00000e+00	0.00000e+00	0.00000e+00	0.00000e+00	0.00000e+00	0.00000e+00	0.00000e+00	0.00000e+00	0.00000e+00	0.00000e+00	0.00000e+00	0.00000e+00	0.00000e+00	0.00000e+00	0.00000e+00	0.00000e+00	0.00000e+00	0.00000e+00	0.00000e+00	0.00000e+00	0.00000e+00	0.00000e+00	0.00000e+00	0.00000e+00	0.00000e+00	0.00000e+00	0.00000e+00	0.00000e+00	0.00000e+00	0.00000e+00	0.00000e+00	0.00000e+00	0.00000e+00	0.00000e+00	
Factor	1.00000e+00	1.00000e+00	1.00000e+00	1.00000e+00	1.00000e+00	1.00000e+00	1.00000e+00	1.00000e+00	1.00000e+00	1.00000e+00	1.00000e+00	1.00000e+00	1.00000e+00	1.00000e+00	1.00000e+00	1.00000e+00	1.00000e+00	1.00000e+00	1.00000e+00	1.00000e+00	1.00000e+00	1.00000e+00	1.00000e+00	1.00000e+00	1.00000e+00	1.00000e+00	1.00000e+00	1.00000e+00	1.00000e+00	1.00000e+00	1.00000e+00	1.00000e+00	X	X	X	X	X	X	X	X	X	X	X	X	X	X	X	X	

B = Detector Channel
Val Type	B-AC1	B-AC2	B-AC3	B-AC4	B-AC5	B-AC6	B-AC7	B-AC8	B-AC9	B-AC10	B-AC11	B-AC12	B-AC13	B-AC14	B-AC15	B-AC16	B-DC1	B-DC2	B-DC3	B-DC4	B-DC5	B-DC6	B-DC7	B-DC8	B-DC9	B-DC10	B-DC11	B-DC12	B-DC13	B-DC14	B-DC15	B-DC16	B-Ph1	B-Ph2	B-Ph3	B-Ph4	B-Ph5	B-Ph6	B-Ph7	B-Ph8	B-Ph9	B-Ph10	B-Ph11	B-Ph12	B-Ph13	B-Ph14	B-Ph15	B-Ph16	

Term	0.00000e+00	0.00000e+00	0.00000e+00	0.00000e+00	0.00000e+00	0.00000e+00	0.00000e+00	0.00000e+00	0.00000e+00	0.00000e+00	0.00000e+00	0.00000e+00	0.00000e+00	0.00000e+00	0.00000e+00	0.00000e+00	0.00000e+00	0.00000e+00	0.00000e+00	0.00000e+00	0.00000e+00	0.00000e+00	0.00000e+00	0.00000e+00	0.00000e+00	0.00000e+00	0.00000e+00	0.00000e+00	0.00000e+00	0.00000e+00	0.00000e+00	0.00000e+00	-9.39495e+01	-1.35721e+02	-1.25820e+02	-1.82069e+02	-5.43409e+01	-6.46157e+01	-1.59155e+02	-1.62015e+02	-5.88718e+01	-7.21298e+01	-1.73297e+02	-1.72413e+02	-1.88332e+02	-1.77837e+02	-6.17040e+01	-1.50152e+02	
Factor	2.01488e-05	2.23168e-04	6.04090e-05	1.68445e-01	1.69383e-06	2.40167e-06	2.07806e-01	7.28711e-02	1.55576e-06	2.23671e-06	1.33238e-01	3.79796e-02	4.46465e-02	1.08739e-02	1.81721e-06	1.57391e-02	1.63297e-05	3.41947e-05	9.55667e-06	8.38009e-02	3.19477e-07	3.86555e-07	9.64301e-02	3.65082e-02	3.37376e-07	3.84469e-07	6.46773e-02	1.85256e-02	2.24160e-02	5.48690e-03	3.49829e-07	7.69830e-03	X	X	X	X	X	X	X	X	X	X	X	X	X	X	X	X	



#DISTANCE SETTINGS
A = Detector Channel
A-1	A-2	A-3	A-4	A-5	A-6	A-7	A-8	A-9	A-10	A-11	A-12	A-13	A-14	A-15	A-16	

2.5000e+00	3.0000e+00	2.5000e+00	3.0000e+00	2.0000e+00	3.0000e+00	1.5000e+00	3.0000e+00	3.0000e+00	3.0000e+00	3.0000e+00	3.0000e+00	3.0000e+00	3.0000e+00	1.5000e+00	3.0000e+00	

B = Detector Channel
B-1	B-2	B-3	B-4	B-5	B-6	B-7	B-8	B-9	B-10	B-11	B-12	B-13	B-14	B-15	B-16	

1.0000e+01	1.0000e+01	1.0000e+01	1.4400e+00	1.0000e+01	1.0000e+01	1.5100e+00	1.9400e+00	1.0000e+01	1.0000e+01	1.9900e+00	2.4900e+00	2.4100e+00	2.9000e+00	1.0000e+01	2.9800e+00	




#DATA BEGINS
time	group	step	mark	flag	A-AC1	A-AC2	A-AC3	A-AC4	A-AC5	A-AC6	A-AC7	A-AC8	A-AC9	A-AC10	A-AC11	A-AC12	A-AC13	A-AC14	A-AC15	A-AC16	A-DC1	A-DC2	A-DC3	A-DC4	A-DC5	A-DC6	A-DC7	A-DC8	A-DC9	A-DC10	A-DC11	A-DC12	A-DC13	A-DC14	A-DC15	A-DC16	A-Ph1	A-Ph2	A-Ph3	A-Ph4	A-Ph5	A-Ph6	A-Ph7	A-Ph8	A-Ph9	A-Ph10	A-Ph11	A-Ph12	A-Ph13	A-Ph14	A-Ph15	A-Ph16	B-AC1	B-AC2	B-AC3	B-AC4	B-AC5	B-AC6	B-AC7	B-AC8	B-AC9	B-AC10	B-AC11	B-AC12	B-AC13	B-AC14	B-AC15	B-AC16	B-DC1	B-DC2	B-DC3	B-DC4	B-DC5	B-DC6	B-DC7	B-DC8	B-DC9	B-DC10	B-DC11	B-DC12	B-DC13	B-DC14	B-DC15	B-DC16	B-Ph1	B-Ph2	B-Ph3	B-Ph4	B-Ph5	B-Ph6	B-Ph7	B-Ph8	B-Ph9	B-Ph10	B-Ph11	B-Ph12	B-Ph13	B-Ph14	B-Ph15	B-Ph16	aux-1	digaux	

42204.270	1	1	0	256	0.049877	0.063787	0.27784	0.023867	0.17643	0.14421	0.29489	0.15251	0.19975	0.098004	0.09612	0.21338	0.17794	0.31005	0.09948	0.086836	-2.3	-2.5604	-2.4646	-2.9583	-2.3646	-2.5292	-2.8167	-2.3771	-2.5687	-2.2479	-2.375	-2.6208	-2.2167	-2.4083	-2.5438	-2.35	149.171	416.034	295.382	154.360	297.872	426.239	416.652	335.086	334.422	142.698	344.904	390.478	431.532	135.184	435.226	181.136	0.00029124	0.00030277	7.8793e-05	1133.9	3.1938e-06	2.8568e-06	1224.7	232.44	3.8059e-06	3.7119e-06	294.72	80.565	63.064	18.651	5.23e-06	26.572	0.00060349	0.00098994	0.00026589	1118.1	9.6821e-06	1.0684e-05	1207	232.46	9.8465e-06	1.107e-05	295.61	81.397	64.198	19.065	9.9731e-06	27.028	216.708	219.144	192.005	108.749	283.923	277.879	108.813	116.596	261.484	253.025	115.542	122.871	123.397	130.420	246.539	130.025	-8191	255	
42204.363	1	1	0	0	0.18792	0.23542	0.074883	0.19793	0.21641	0.28709	0.2263	0.12038	0.025613	0.13397	0.23302	0.24626	0.070809	0.08756	0.12553	0.24666	-2.1813	-2.55	-2.3479	-2.825	-2.3458	-2.4479	-2.7313	-2.4125	-2.5771	-2.6	-2.1875	-2.6896	-2.4458	-2.3083	-2.7313	-2.3	340.693	444.702	164.371	404.387	351.535	427.786	336.381	437.326	290.848	349.924	405.973	405.169	207.561	219.551	413.705	368.189	0.00021891	0.00039133	0.00011005	1133	5.1963e-06	3.4605e-06	1220.8	231.85	2.872e-06	3.6549e-06	294.14	80.786	63.633	18.763	2.8884e-06	26.589	0.00059838	0.00098331	0.00027143	1117.4	9.7594e-06	1.0745e-05	1206.3	232.26	1.0071e-05	1.0522e-05	295.66	81.433	64.1	19.101	9.8441e-06	27.026	212.975	247.905	194.101	108.712	242.047	270.988	108.927	116.421	257.973	288.387	115.950	123.181	123.549	130.328	246.007	129.864	-8191	255	
42204.461	1	1	0	0	0.26131	0.19331	0.019195	0.25557	0.077069	0.30138	0.269	0.20321	0.4497	0.02384	0.19215	0.19287	0.034741	0.11021	0.2549	0.086977	-2.0896	-2.5625	-2.1292	-2.6625	-2.6854	-2.4708	-3.0104	-2.6125	-2.6146	-2.7125	-2.3	-2.7208	-2.4042	-2.4604	-2.7854	-2.3187	123.486	296.336	350.959	147.968	251.376	275.059	378.521	383.017	376.217	276.613	419.187	174.316	439.199	148.310	334.790	444.625	0.00024529	0.00031712	7.5321e-05	1132.3	4.255e-06	2.1998e-06	1226	233.28	3.6251e-06	2.8935e-06	296.4	79.985	63.341	18.815	2.7356e-06	26.578	0.00061519	0.0009333	0.00025668	1116.7	9.7866e-06	1.088e-05	1206.6	232.18	9.9688e-06	1.0305e-05	295.08	81.021	63.952	19.086	9.683e-06	27.04	206.724	158.397	193.573	108.711	247.602	244.116	108.814	116.556	259.726	211.220	115.860	122.723	123.103	130.530	241.326	129.828	-8191	255	
42204.555	1	1	0	0	0.28746	0.27645	0.11392	0.33494	0.076143	0.083406	0.36763	0.18428	0.13843	0.062287	0.11168	0.18287	0.21521	0.18975	0.17551	0.19899	-2.0792	-2.5354	-2.2854	-2.8958	-2.3833	-2.2792	-2.8708	-2.4188	-2.5896	-2.7625	-2.5583	-2.6396	-2.5542	-2.2562	-2.6229	-2.4896	220.781	314.090	191.146	106.595	260.328	279.134	395.019	287.451	443.870	232.660	343.976	350.460	427.910	207.370	129.662	278.927	0.00026346	0.0003326	0.00010526	1129.6	3.1205e-06	2.4807e-06	1213.2	232.42	3.1893e-06	3.6538e-06	294.9	80.505	63.425	18.855	4.1933e-06	26.403	0.00060645	0.00094449	0.0002689	1115	9.6422e-06	1.0677e-05	1201.9	231.9	9.8591e-06	1.0416e-05	294.78	81.377	64.016	19.084	9.7121e-06	26.952	213.750	248.053	168.372	108.621	242.063	289.461	108.919	116.750	306.341	256.233	116.052	123.053	123.578	130.794	273.360	130.013	-8191	255	
42204.676	1	1	0	0	0.26325	0.20446	0.23292	0.063213	0.12559	0.13295	0.19244	0.15097	0.10669	0.10022	0.13856	0.25919	0.1339	0.15562	0.3037	0.059112	-2.0646	-2.6396	-2.2521	-2.6771	-2.6521	-2.2958	-2.8438	-2.4229	-2.3729	-2.8292	-2.4458	-2.8396	-2.5146	-2.4771	-2.6625	-2.4833	320.992	365.118	100.555	107.089	457.748	299.357	382.707	399.756	113.034	454.943	144.452	183.824	369.797	435.540	290.938	172.105	0.00026413	0.00028815	9.1407e-05	1127.5	4.0539e-06	1.4332e-06	1219.6	232.75	3.7664e-06	2.7896e-06	294.8	80.282	63.98	18.666	3.6692e-06	26.379	0.00061192	0.00093522	0.00026896	1113.7	9.9663e-06	1.0778e-05	1202.4	232.13	9.4627e-06	1.0501e-05	294.79	81.066	64.016	19.024	1.0149e-05	26.979	214.333	160.434	207.352	108.755	239.354	297.876	108.566	116.352	254.205	223.092	115.900	123.262	123.562	130.413	259.935	130.153	-8191	255	
42204.770	1	1	0	0	0.08575	0.12714	0.12204	0.06717	0.099161	0.066914	0.33435	0.25732	0.18121	0.20092	0.14913	0.13743	0.21277	0.28451	0.29762	0.22884	-1.8833	-2.5604	-2.3792	-2.8354	-2.7792	-2.5542	-2.7833	-2.4958	-2.3417	-2.8229	-2.5146	-2.4521	-2.6792	-2.2979	-2.7229	-2.6063	315.866	217.491	286.943	343.900	313.304	241.139	118.730	417.899	148.131	391.593	347.220	304.579	376.343	439.643	417.066	379.139	0.00026104	0.0004432	8.0316e-05	1129	3.0363e-06	5.2646e-06	1223.3	232.74	3.1579e-06	1.0339e-06	293.82	80.161	63.7	18.526	4.9421e-06	26.668	0.00061709	0.00094427	0.00026556	1113.3	9.4505e-06	1.0617e-05	1204.3	231.65	9.7825e-06	1.0867e-05	294.64	81.099	63.952	19.046	9.7551e-06	27.026	213.553	153.001	223.247	108.714	237.698	254.951	108.866	116.666	262.269	170.263	116.046	123.146	123.668	130.685	262.157	129.736	-8191	255	
42204.844	1	1	0	0	0.090419	0.30052	0.16835	0.28577	0.26794	0.13412	0.16736	0.11489	0.26732	0.12899	0.20557	0.21591	0.25555	0.15154	0.1487	0.11572	-1.9438	-2.7104	-2.3542	-2.5146	-2.7062	-2.5104	-2.7771	-2.7458	-2.2729	-2.8021	-2.6063	-2.4021	-2.7479	-2.2896	-2.7375	-2.6688	213.452	421.348	149.109	401.763	407.248	306.140	361.179	233.436	167.254	456.194	368.728	439.484	191.818	456.561	410.907	162.780	0.0002544	0.00023058	0.00011395	1128.1	4.4278e-06	7.3811e-06	1220.8	232.47	2.1246e-06	4.553e-06	296.12	80.639	63.573	18.774	3.2751e-06	26.598	0.00064353	0.00094848	0.00027348	1114.4	9.5004e-06	1.0948e-05	1203.3	232.01	9.9498e-06	1.0684e-05	294.64	81.416	64.088	19.063	1.0278e-05	26.984	214.367	197.215	178.358	108.778	229.302	243.701	109.009	116.420	262.379	225.686	115.834	123.160	123.510	130.463	291.830	129.289	-8191	255	
42204.965	1	1	0	0	0.2868	0.39375	0.18236	0.27206	0.11659	0.40904	0.4924	0.20963	0.21203	0.1909	0.082608	0.047002	0.29035	0.30299	0.15268	0.12157	-1.8375	-2.6	-2.3979	-2.5812	-2.7812	-2.3417	-2.8021	-2.825	-2.2708	-2.8896	-2.6688	-2.6688	-2.7146	-2.3937	-2.6813	-2.8063	291.915	271.539	315.379	131.058	105.969	232.942	423.693	137.633	219.563	255.769	381.715	117.706	376.540	291.737	411.939	327.386	0.00027848	0.00040256	6.3305e-05	1127.7	2.3397e-06	4.2242e-06	1211.6	231.05	3.0033e-06	5.3451e-06	293.2	80.122	63.637	18.762	3.136e-06	26.647	0.00060594	0.00098139	0.0002688	1113.4	9.2462e-06	1.1106e-05	1201.6	231.76	9.9751e-06	1.054e-05	294.51	81.096	63.861	19.12	9.8965e-06	26.987	212.968	197.127	196.633	108.748	257.595	233.811	108.873	116.482	240.400	221.389	115.959	123.116	123.078	130.255	252.493	129.551	-8191	255	
42205.059	1	1	0	0	0.25424	0.091141	0.069458	0.37727	0.34814	0.072734	0.19613	0.081063	0.10115	0.23143	0.48712	0.14957	0.21599	0.10253	0.18285	0.096347	-1.7917	-2.4896	-2.3896	-2.4229	-2.5438	-2.1604	-2.5271	-2.75	-2.3792	-2.6021	-2.6125	-2.3812	-2.6562	-2.5021	-2.4792	-2.6	276.325	215.081	244.197	434.293	431.764	214.271	394.594	280.938	240.301	419.673	452.024	344.659	345.493	327.762	237.022	213.547	0.00023108	0.00028659	0.0001113	1134.1	1.0824e-06	1.3792e-06	1222.5	231.64	2.6499e-06	2.7601e-06	293.95	81.107	63.023	18.86	3.8327e-06	26.481	0.00058158	0.00095075	0.00027215	1115.4	9.7747e-06	1.0692e-05	1205.2	231.71	1.001e-05	1.0881e-05	295.1	81.438	63.866	19.086	9.9862e-06	26.984	209.222	192.940	193.721	108.736	281.123	353.919	108.868	116.551	289.966	237.467	116.130	123.476	123.516	130.479	250.446	130.019	-8191	255	
42205.156	1	1	0	0	0.1299	0.11713	0.14966	0.074241	0.028477	0.12529	0.040995	0.16295	0.073585	0.21315	0.047455	0.13464	0.17028	0.23656	0.16447	0.22996	-1.7771	-2.5979	-2.525	-2.4938	-2.6188	-2.3833	-2.7271	-2.65	-2.2833	-2.6354	-2.5938	-2.0687	-2.7479	-2.5	-2.35	-2.8354	298.816	328.222	157.484	214.298	388.493	279.371	336.938	421.982	391.269	163.047	433.279	445.517	199.344	362.851	145.081	427.542	0.00026092	0.0003493	6.1118e-05	1127.3	3.5999e-06	4.3041e-06	1223.6	233.14	4.4297e-06	8.0333e-07	295.28	80.034	63.48	18.735	2.6976e-06	26.494	0.00060315	0.00096137	0.00026086	1114.4	9.8079e-06	1.0716e-05	1204.6	231.79	1.0088e-05	1.0812e-05	295.22	81.118	63.989	19.098	9.718e-06	26.946	221.008	165.339	203.504	108.599	256.418	247.046	108.868	116.505	231.886	273.447	116.077	122.923	123.248	130.488	267.742	130.142	-8191	255	
42205.254	1	1	0	0	0.21132	0.20517	0.10801	0.24029	0.11061	0.095983	0.1956	0.04243	0.073998	0.30758	0.14807	0.10708	0.32802	0.15464	0.2482	0.16139	-1.9188	-2.5583	-2.6083	-2.5208	-2.5375	-2.4729	-2.6979	-2.6583	-2.1896	-2.4417	-2.7396	-2.2625	-2.4896	-2.4437	-2.5021	-2.8354	407.686	343.536	405.420	425.284	303.287	292.878	393.589	351.879	341.578	274.096	348.428	448.839	136.861	442.890	174.373	116.024	0.00022603	0.00030056	8.3185e-05	1128	3.5803e-06	2.3297e-06	1219.4	231.33	3.5159e-06	2.4059e-06	294.74	80.289	62.824	18.728	2.3923e-06	26.492	0.00058906	0.00095368	0.0002606	1114.1	9.4938e-06	1.0666e-05	1204	231.57	9.7073e-06	1.0488e-05	294.8	81.358	63.738	19.072	9.8674e-06	26.962	213.931	182.910	200.354	108.585	251.911	285.097	108.746	116.347	277.533	233.346	115.867	123.309	123.563	130.596	288.299	130.403	-8191	255	
42205.348	1	1	0	0	0.18584	0.091643	0.14	0.26926	0.23864	0.23613	0.10157	0.088169	0.071507	0.18928	0.079926	0.26675	0.19618	0.096462	0.13972	0.21291	-1.9562	-2.6646	-2.5271	-2.5708	-2.725	-2.5625	-2.4313	-2.8042	-2.4333	-2.5625	-2.825	-2.5187	-2.7292	-2.6813	-2.1417	-2.8292	416.225	143.623	384.360	426.470	287.019	239.712	410.370	325.861	402.918	225.279	325.166	146.888	357.211	264.893	158.701	345.972	0.00025178	0.00014103	0.00010017	1132	3.8947e-06	4.8343e-06	1222.9	232.29	4.0023e-06	4.3291e-06	293.64	80.389	63.425	18.793	3.5188e-06	26.511	0.00061186	0.00096978	0.00025697	1114.1	9.5344e-06	1.0638e-05	1205.1	231.46	1.0033e-05	1.05e-05	294.29	81.256	63.841	19.075	9.9483e-06	26.974	211.619	162.668	193.414	108.784	282.805	247.654	109.231	116.881	258.135	236.487	115.888	123.152	123.458	130.534	275.263	130.082	-8191	255	
42205.445	1	1	0	0	0.15152	0.11615	0.11301	0.1322	0.12843	0.33746	0.19055	0.11518	0.21389	0.15856	0.16848	0.17051	0.059547	0.024384	0.17155	0.23776	-2.0292	-2.5771	-2.6479	-2.5146	-2.5271	-2.6292	-2.325	-2.825	-2.6104	-2.3479	-2.7188	-2.4188	-2.5958	-2.6604	-2.2	-2.8667	321.098	212.529	340.436	447.870	319.971	136.859	414.068	106.901	330.594	364.892	434.733	410.819	384.255	107.489	250.595	376.618	0.00024882	0.0002984	0.00013019	1125.9	5.0045e-06	1.594e-06	1218.4	232.49	1.9439e-06	2.4138e-06	294.17	80.31	62.888	18.669	3.0393e-06	26.63	0.00060505	0.00097583	0.00026143	1112.2	1.0201e-05	1.0577e-05	1202.7	231.62	9.6462e-06	1.0705e-05	293.85	81.184	63.896	19.018	9.8375e-06	26.968	221.098	181.749	200.994	108.559	269.038	267.835	108.977	116.502	263.930	277.423	115.989	122.916	123.338	130.293	230.805	129.814	-8191	255	
42205.539	1	1	0	0	0.20545	0.30976	0.29093	0.2618	0.30284	0.11952	0.25179	0.055421	0.25856	0.080939	0.17866	0.14659	0.17225	0.19363	0.16372	0.24772	-2.0208	-2.4146	-2.6458	-2.4625	-2.6146	-2.8063	-2.4208	-2.7313	-2.4875	-2.3708	-2.7333	-2.4042	-2.6292	-2.4917	-2.1854	-2.6937	280.145	291.780	294.250	430.151	292.110	323.736	391.431	175.814	396.430	124.596	357.223	168.213	164.335	140.627	448.804	325.090	0.0002542	0.00041196	6.5496e-05	1128.9	4.2412e-06	3.0679e-06	1219.7	233.4	2.7199e-06	2.8374e-06	295.43	79.955	63.615	18.579	2.0103e-06	26.34	0.00058702	0.00095688	0.00026583	1112.8	9.3933e-06	1.058e-05	1201.9	231.76	9.7228e-06	1.0582e-05	294.2	81.133	64.068	18.981	9.8965e-06	26.936	215.506	136.471	195.931	108.613	253.469	248.251	108.891	116.343	248.898	288.082	116.086	123.227	123.426	130.548	240.035	130.086	-8191	255	
42205.637	1	1	0	0	0.051433	0.028981	0.29698	0.23498	0.23541	0.21385	0.093205	0.16162	0.070823	0.21427	0.12464	0.1573	0.33288	0.28068	0.26293	0.23212	-1.9688	-2.3667	-2.7979	-2.6292	-2.175	-2.6708	-2.2958	-2.5229	-2.5062	-2.4875	-2.7333	-2.6021	-2.4188	-2.6208	-2.3438	-2.6125	100.291	322.469	427.393	267.793	287.842	170.013	413.941	243.867	242.098	382.484	118.238	401.555	441.325	407.506	192.225	401.550	0.00025346	0.00027668	5.9438e-05	1128.7	3.9927e-06	2.0576e-06	1217.1	232.37	2.768e-06	2.2469e-06	294.3	80.683	63.176	18.794	2.7611e-06	26.419	0.00061254	0.0009494	0.00026504	1111.9	9.4379e-06	1.0856e-05	1202.1	231.68	9.9055e-06	1.0638e-05	294.12	81.219	63.763	19.058	9.9191e-06	26.936	212.226	201.471	182.764	108.837	266.398	220.769	109.104	116.561	286.372	254.458	115.996	123.092	123.557	130.800	274.916	129.824	-8191	255	
42205.758	1	1	0	0	0.23891	0.17324	0.19345	0.16235	0.39046	0.10732	0.10685	0.085751	0.1681	0.17073	0.15096	0.25572	0.044788	0.22507	0.16301	0.17377	-2.1417	-2.2771	-2.6292	-2.6708	-2.2417	-2.5146	-2.4938	-2.2562	-2.5854	-2.1042	-2.9104	-2.4875	-2.2542	-2.6354	-2.4083	-2.5229	372.184	220.910	335.883	189.133	130.131	206.239	189.662	354.117	211.284	232.212	395.968	381.612	153.042	430.720	394.651	353.026	0.00025432	0.00028444	8.6396e-05	1127.5	3.3494e-06	3.316e-06	1218.7	232.16	3.017e-06	3.5552e-06	295.2	80.484	63.662	18.706	4.3082e-06	26.418	0.00060165	0.0009722	0.00027018	1111.8	9.7061e-06	1.0944e-05	1203.1	231.92	9.8247e-06	1.1189e-05	294.1	81.321	64.147	19.055	1.0591e-05	26.931	214.464	185.726	241.437	108.883	245.959	244.200	108.919	116.360	273.217	283.646	116.181	123.197	123.857	130.396	242.388	130.023	-8191	255	
42205.852	1	1	0	0	0.14482	0.23689	0.14555	0.36252	0.33401	0.10162	0.18092	0.25874	0.094446	0.16678	0.11332	0.14017	0.061851	0.20233	0.26263	0.074266	-2.0938	-2.0208	-2.6354	-2.5563	-2.3125	-2.8063	-2.5	-2.55	-2.6854	-2.5208	-2.6833	-2.5958	-2.2938	-2.6188	-2.3771	-2.5708	183.766	306.660	253.682	411.655	280.580	314.515	405.983	334.934	298.311	216.912	377.780	115.877	352.676	397.740	368.509	182.897	0.00022284	0.00017822	0.00015413	1127.7	2.5048e-06	3.8353e-06	1220.2	232.54	2.9329e-06	3.2745e-06	295.49	80.765	63.848	18.581	3.1268e-06	26.575	0.00059818	0.0010112	0.00027778	1114.5	1.0157e-05	1.1352e-05	1205.4	232.31	1.0019e-05	1.1141e-05	295.37	81.354	64.086	19.051	1.0322e-05	26.98	214.821	197.939	177.780	108.812	265.420	278.117	108.828	116.390	302.093	237.127	116.082	122.945	123.549	130.785	259.955	130.064	-8191	255	
42205.949	1	1	0	0	0.2584	0.07271	0.13235	0.2649	0.087007	0.10033	0.16699	0.28666	0.052103	0.23225	0.16893	0.10642	0.35344	0.31868	0.12088	0.14489	-2.2292	-2.225	-2.5938	-2.6604	-2.2083	-2.6875	-2.4938	-2.4437	-2.7125	-2.425	-2.4625	-2.4313	-2.2125	-2.7458	-2.2854	-2.4125	227.025	125.187	416.053	424.188	226.015	151.708	404.814	370.033	382.005	366.793	213.027	373.095	152.713	192.065	387.200	281.564	0.00027601	0.00045626	0.00010627	1132.9	3.6634e-06	1.0612e-06	1225.4	233.88	3.2937e-06	2.8423e-06	295.54	80.432	63.457	18.735	2.7188e-06	26.638	0.000614	0.0010174	0.00027768	1116.8	9.9876e-06	1.1242e-05	1209.5	232.54	1.0003e-05	1.1209e-05	295.62	81.455	63.987	19.09	1.0596e-05	27.087	215.294	163.969	198.970	108.783	269.467	341.470	108.885	116.469	292.838	204.701	116.017	122.600	123.290	130.333	243.833	129.861	-8191	255	
42206.070	1	1	0	0	0.18607	0.093771	0.17161	0.28795	0.11912	0.095735	0.19773	0.0364	0.090431	0.14046	0.16464	0.085772	0.23824	0.098526	0.069581	0.15581	-2.3812	-2.5042	-2.3917	-2.7792	-2.3292	-2.7396	-2.6354	-2.3937	-2.7708	-2.3958	-2.4854	-2.6229	-2.1292	-2.525	-2.4313	-2.5125	237.838	136.101	358.728	431.083	255.930	370.905	98.946	262.730	252.836	143.293	290.138	358.867	328.290	372.954	283.762	310.594	0.00024269	0.00053739	4.3223e-05	1136.2	3.3879e-06	3.8898e-06	1225.6	232.68	3.219e-06	3.8488e-06	294.11	80.362	63.379	18.916	3.819e-06	26.621	0.00060417	0.0009858	0.00026982	1118.5	1.0297e-05	1.144e-05	1209.2	232.23	9.895e-06	1.0916e-05	295.08	81.319	64.095	19.176	1.0113e-05	27.028	215.828	171.772	217.651	108.837	227.931	319.941	108.816	116.520	271.600	247.612	116.121	123.272	124.172	130.582	246.685	129.938	-8191	255	
42206.141	1	1	0	0	0.34102	0.22471	0.084047	0.26161	0.29751	0.1376	0.12333	0.18038	0.15191	0.24358	0.11296	0.15219	0.22111	0.21358	0.035148	0.051949	-2.2708	-2.475	-2.6063	-2.8146	-2.2083	-2.7917	-2.6375	-2.4083	-2.575	-2.4229	-2.5208	-2.5958	-2.3438	-2.4917	-2.6146	-2.3771	220.016	206.465	166.976	351.002	124.175	222.524	129.057	377.747	422.354	391.556	111.120	293.273	342.486	393.919	328.983	368.868	0.00022859	0.00023157	9.8996e-05	1135	2.5396e-06	3.9205e-06	1225.7	233.17	3.3055e-06	4.1009e-06	294.88	80.157	63.322	18.948	2.6965e-06	26.616	0.00062124	0.00099385	0.00026894	1119.2	1.0036e-05	1.109e-05	1208	233	1.0075e-05	1.087e-05	295.35	81.405	63.915	19.151	1.0129e-05	27.039	204.853	237.535	196.818	108.917	278.291	215.244	109.173	116.370	287.978	256.201	116.201	123.235	123.263	130.613	253.496	129.680	-8191	255	
42206.234	1	1	0	0	0.030753	0.16534	0.097201	0.12733	0.021263	0.24405	0.19498	0.26051	0.12119	0.18191	0.15697	0.065258	0.18463	0.097684	0.18806	0.087428	-2.0667	-2.2667	-2.1271	-2.6562	-2.3646	-2.6083	-2.8833	-2.0958	-2.6729	-2.2812	-2.3729	-2.7021	-2.4396	-2.4042	-2.5875	-2.2042	456.263	246.030	175.468	99.710	211.272	181.450	384.056	448.527	190.563	256.489	293.403	370.714	450.350	328.624	272.657	188.208	0.00023549	0.0001747	0.00010877	1134.4	4.3993e-06	2.6415e-06	1224.4	234.46	2.1614e-06	1.974e-06	293.16	80.305	64.032	18.871	2.9969e-06	26.601	0.00059117	0.00098338	0.00028039	1119.6	1.0348e-05	1.0877e-05	1207.7	233.1	1.0271e-05	1.1184e-05	295.49	81.494	64.503	19.141	1.0413e-05	27.075	216.111	200.080	191.521	108.598	287.408	193.264	109.010	116.456	260.991	289.104	116.118	122.932	123.475	130.765	250.475	129.745	-8191	255	
42206.355	1	1	0	0	0.084857	0.046527	0.056095	0.0081529	0.2189	0.21509	0.2618	0.06327	0.12902	0.27423	0.13329	0.16121	0.18891	0.15093	0.14794	0.18532	-2.1729	-2.4292	-2.1708	-2.7792	-2.4562	-2.5708	-2.8167	-2.4167	-2.5354	-2.6042	-2.4417	-2.6792	-2.5333	-2.425	-2.5542	-2.3625	174.128	278.519	239.918	346.463	113.424	295.441	358.112	284.211	400.761	328.355	192.122	407.411	210.606	114.802	145.573	395.010	0.00026221	0.00012196	9.1697e-05	1135.2	5.4919e-06	5.0184e-06	1224.9	232.71	2.6587e-06	2.121e-06	295.75	80.642	63.683	18.788	2.5536e-06	26.422	0.00061931	0.00097227	0.00027418	1121.7	9.8705e-06	1.0642e-05	1209.6	232.83	1.0002e-05	1.1235e-05	296.66	81.507	64.286	19.19	1.0406e-05	27.104	210.338	156.661	175.640	108.871	241.981	232.966	108.948	116.438	216.009	218.351	116.298	123.479	123.654	130.709	287.284	129.866	-8191	255	
42206.453	1	1	0	0	0.094716	0.012232	0.095059	0.15713	0.10033	0.20013	0.25435	0.074693	0.22523	0.20184	0.10154	0.16492	0.1524	0.22616	0.13693	0.2736	-1.9875	-2.4646	-2.2417	-2.5292	-2.425	-2.5021	-2.6042	-2.4896	-2.3792	-2.6729	-2.3604	-2.6646	-2.3438	-2.1792	-2.7104	-2.3312	395.596	205.219	277.565	427.536	201.532	299.946	416.109	134.099	135.390	422.606	113.366	334.434	318.084	215.920	381.680	299.710	0.00025963	0.00063137	5.9791e-05	1137.1	5.2501e-06	2.5482e-06	1230.4	233.85	4.1504e-06	2.2484e-06	297.94	80.418	63.744	18.915	3.1198e-06	26.566	0.00062676	0.0010372	0.0002783	1123.4	1.0362e-05	1.1646e-05	1213	233.56	1.035e-05	1.1162e-05	297.84	81.585	64.511	19.239	1.1033e-05	27.129	219.310	162.553	202.388	108.812	268.282	241.089	109.050	116.465	229.853	183.721	116.229	123.035	122.854	130.177	215.883	129.739	-8191	255	
42206.551	1	1	0	0	0.15405	0.17828	0.18848	0.29522	0.087056	0.030786	0.18159	0.18325	0.32195	0.07182	0.099868	0.16078	0.20328	0.25194	0.07575	0.49573	-2.1125	-2.4979	-2.2375	-2.8792	-2.4813	-2.3583	-2.9167	-2.425	-2.5833	-2.6188	-2.1729	-2.525	-2.5979	-2.4062	-2.5708	-2.3521	387.403	152.281	265.379	106.610	260.311	366.043	402.579	329.041	267.420	207.633	426.498	128.824	105.148	312.472	441.177	383.597	0.00024875	0.00033402	0.00014781	1143.2	2.5605e-06	4.3119e-06	1238.5	237.24	3.8074e-06	3.8935e-06	298.67	82.142	64.405	19.047	4.7509e-06	26.753	0.00065479	0.001033	0.00029508	1128.6	1.0543e-05	1.2206e-05	1221.7	236.47	1.1005e-05	1.2066e-05	299.87	82.486	64.914	19.38	1.1489e-05	27.245	207.835	205.408	168.581	108.546	234.755	261.873	108.618	116.459	247.975	222.622	116.112	123.037	123.711	130.368	272.204	129.518	-8191	255	
42206.645	1	1	0	0	0.064309	0.33294	0.052984	0.14197	0.1954	0.18804	0.033264	0.15677	0.24444	0.088595	0.21793	0.17049	0.14718	0.070176	0.015528	0.15304	-2.0062	-2.6083	-2.0583	-2.5833	-2.5708	-2.4833	-2.8479	-2.3479	-2.3833	-2.6646	-2.3375	-2.6146	-2.475	-2.1354	-2.5458	-2.4792	216.229	278.730	158.297	117.771	105.524	320.322	348.648	383.424	452.910	179.164	435.549	258.882	425.892	414.582	128.948	402.035	0.00027808	0.00022004	7.2379e-05	1147.8	2.8514e-06	2.7048e-06	1242.3	238.91	3.6095e-06	5.4919e-06	300.84	81.53	64.644	19.02	5.2188e-06	26.972	0.00067224	0.0011385	0.00030693	1133.9	1.0899e-05	1.2261e-05	1226.8	238.52	1.1071e-05	1.2333e-05	301.57	82.526	65.265	19.437	1.1299e-05	27.407	215.422	241.364	189.867	108.711	256.445	210.377	108.789	116.467	265.380	237.720	115.907	122.541	123.210	130.314	263.399	129.865	-8191	255	
42206.738	1	1	0	0	0.12623	0.096727	0.16562	0.33079	0.065127	0.26995	0.17445	0.098978	0.42345	0.13614	0.12675	0.20109	0.083119	0.17578	0.098833	0.072037	-1.8229	-2.6125	-2.3667	-2.5583	-2.7104	-2.1979	-2.7083	-2.6292	-2.3125	-2.8021	-2.3625	-2.6312	-2.5563	-2.4167	-2.6292	-2.5104	178.253	164.911	438.403	426.938	287.922	429.426	157.156	433.938	296.259	232.772	182.582	420.411	161.311	442.698	306.426	263.875	0.00025172	0.0003499	0.00010527	1152.7	5.0764e-06	2.8239e-06	1242.7	240.32	2.0963e-06	1.3073e-06	302.98	82.22	64.26	18.879	2.3211e-06	26.897	0.0006669	0.0010841	0.00029805	1138.8	1.1189e-05	1.2394e-05	1228.5	239.42	1.1164e-05	1.2124e-05	302.54	82.832	65.254	19.37	1.1406e-05	27.441	215.549	225.181	221.690	108.540	295.418	266.118	108.916	116.444	319.432	253.554	115.989	122.903	123.266	130.399	233.418	129.745	-8191	255	
42206.836	1	1	0	0	0.090641	0.026719	0.10108	0.21297	0.064265	0.36952	0.43043	0.31473	0.19629	0.22098	0.22808	0.031314	0.10719	0.03695	0.055875	0.11508	-1.85	-2.7979	-2.2958	-2.6833	-2.4875	-2.1417	-2.6396	-2.5354	-2.3312	-2.7458	-2.5	-2.4292	-2.6542	-2.2083	-2.6875	-2.5625	310.777	425.302	208.739	426.654	427.407	302.654	412.644	353.416	115.954	108.949	182.430	373.598	427.834	363.173	107.533	156.059	0.0002474	0.00032744	0.00012998	1154	3.3665e-06	3.1274e-06	1246.9	240.59	2.3556e-06	2.7995e-06	302.1	81.603	64.532	19.15	3.9665e-06	26.803	0.00067663	0.0010875	0.0003124	1137.2	1.0728e-05	1.2312e-05	1231.6	239.94	1.1375e-05	1.207e-05	302.53	82.822	65.441	19.434	1.1367e-05	27.353	214.931	199.373	183.940	108.468	249.724	231.638	109.028	116.241	268.481	235.775	116.123	122.952	122.865	129.927	269.089	129.415	-8191	255	
42206.934	1	1	0	0	0.19952	0.17114	0.16167	0.428	0.18102	0.16417	0.082921	0.20909	0.053266	0.19643	0.089782	0.33296	0.26831	0.25448	0.24964	0.097443	-1.7396	-2.625	-2.3937	-2.5312	-2.6458	-2.2375	-2.6521	-2.7333	-2.2375	-2.6083	-2.6167	-2.3771	-2.4979	-2.2083	-2.4896	-2.2896	401.908	425.913	267.494	365.630	390.913	183.539	328.682	451.694	401.378	224.423	106.701	131.119	436.155	415.262	355.014	111.541	0.00024628	0.00037119	8.6398e-05	1153	3.929e-06	4.6342e-06	1243.1	240.81	3.6581e-06	4.798e-06	302.22	81.95	65.113	19.039	2.358e-06	26.848	0.0006818	0.0011024	0.00030838	1138.1	1.0597e-05	1.1849e-05	1230	240.02	1.1167e-05	1.2269e-05	302.24	82.786	65.371	19.416	1.1331e-05	27.422	209.523	176.040	143.664	108.651	261.575	303.412	108.717	116.236	229.087	233.839	115.915	122.956	123.207	130.360	235.880	129.798	-8191	255	
42207.027	1	1	0	0	0.29838	0.13803	0.11917	0.058068	0.14784	0.10357	0.15935	0.15841	0.27371	0.064601	0.10388	0.15629	0.067196	0.1814	0.17947	0.38595	-1.6083	-2.6292	-2.3208	-2.4708	-2.5187	-2.25	-2.5187	-2.5208	-2.1396	-2.5792	-2.7542	-2.3667	-2.8312	-2.4062	-2.5104	-2.8083	121.308	353.566	175.976	456.552	142.855	141.525	324.689	306.380	403.260	122.964	228.380	407.209	224.823	122.729	240.531	402.536	0.00026384	0.00022391	0.00014001	1153.1	3.082e-06	2.5085e-06	1243.8	241.06	2.5416e-06	1.7478e-06	302.49	81.624	64.181	18.953	5.869e-06	26.633	0.00067755	0.0010763	0.000299	1137	1.0798e-05	1.2278e-05	1229.3	240	1.1327e-05	1.185e-05	302.56	82.775	64.981	19.367	1.1099e-05	27.289	218.024	206.851	235.357	108.535	280.230	210.379	108.790	116.583	264.628	261.690	115.975	123.010	123.537	130.444	280.451	129.895	-8191	255	
42207.148	1	1	0	0	0.084012	0.04393	0.1918	0.28032	0.13517	0.13232	0.37148	0.14252	0.14973	0.21853	0.093699	0.24575	0.039402	0.11035	0.13223	0.24127	-1.7354	-2.475	-2.475	-2.5729	-2.6688	-2.35	-2.4417	-2.7313	-2.3479	-2.6604	-2.6604	-2.3896	-2.7875	-2.3271	-2.2104	-2.8937	115.909	131.769	385.855	128.196	400.778	372.226	427.573	372.957	291.241	123.771	357.919	360.896	433.572	174.928	314.488	350.969	0.00026813	0.00031105	7.144e-05	1156	4.8649e-06	3.0826e-06	1243.1	240.67	4.1699e-06	4.5674e-06	300.46	81.807	64.593	19.085	2.0989e-06	26.682	0.00063795	0.001111	0.00029114	1137.8	1.0734e-05	1.2092e-05	1227.1	239.8	1.1084e-05	1.1584e-05	301.93	82.633	65.238	19.393	1.099e-05	27.35	218.687	213.734	248.982	108.813	251.642	204.411	108.818	116.277	250.449	276.799	115.956	122.817	123.680	130.224	216.009	129.702	-8191	255	
42207.246	1	1	0	0	0.064005	0.13932	0.19654	0.27268	0.17862	0.070234	0.2289	0.062042	0.13604	0.21067	0.013177	0.25937	0.10152	0.054876	0.020369	0.21215	-1.8625	-2.5021	-2.3604	-2.4562	-2.7083	-2.4667	-2.4437	-2.7604	-2.1667	-2.4188	-2.7104	-2.2542	-2.5333	-2.3667	-2.2792	-2.7042	112.642	339.933	312.427	348.569	314.181	366.592	379.475	382.020	108.714	401.652	330.355	409.573	106.355	383.526	223.502	358.513	0.00027061	0.00011179	6.9785e-05	1152.1	3.2714e-06	1.3293e-06	1244.1	241.02	3.4592e-06	5.0564e-06	301.63	81.56	64.382	19	3.2551e-06	26.811	0.00066809	0.0010278	0.00029417	1135.3	1.0386e-05	1.1486e-05	1228	239.89	1.102e-05	1.1491e-05	301.73	82.749	65.169	19.347	1.0611e-05	27.29	216.782	324.745	147.837	108.717	286.395	204.579	108.877	116.088	223.641	265.551	115.679	122.890	123.403	130.325	255.948	129.710	-8191	255	
42207.340	1	1	0	0	0.37346	0.16645	0.17451	0.28111	0.033621	0.11806	0.21154	0.18501	0.2149	0.088273	0.14273	0.18253	0.30211	0.21567	0.12843	0.22242	-2.05	-2.6417	-2.5146	-2.35	-2.5167	-2.5042	-2.5375	-2.6042	-2.2917	-2.5458	-2.5667	-2.2354	-2.4979	-2.5292	-2.2104	-2.7479	170.582	182.473	148.693	429.845	326.242	217.496	415.616	157.246	263.363	107.555	312.043	423.033	424.969	424.342	435.486	124.143	0.00023466	0.00050914	0.00012447	1147.5	3.9561e-06	1.9585e-06	1246.1	240.58	4.9387e-07	4.6558e-06	303.31	82.124	64.289	18.995	2.697e-06	26.685	0.00065183	0.0010412	0.00028636	1134.6	1.0111e-05	1.1506e-05	1228.6	239.64	1.0409e-05	1.1371e-05	302.05	82.617	65.085	19.335	1.1205e-05	27.292	216.596	191.924	181.570	108.809	246.726	261.254	108.818	116.357	154.507	275.111	116.128	122.802	123.117	130.403	237.599	129.981	-8191	255	
42207.438	1	1	0	0	0.16764	0.13835	0.16667	0.076961	0.14635	0.099884	0.28779	0.085776	0.25058	0.02098	0.048315	0.18887	0.30299	0.187	0.14035	0.13618	-2.0042	-2.4646	-2.3563	-2.4479	-2.4583	-2.55	-2.5187	-2.8167	-2.5062	-2.5917	-2.7479	-2.4458	-2.4729	-2.5542	-2.325	-2.8	123.775	404.892	209.748	416.414	321.472	268.111	99.500	367.661	363.133	307.521	386.896	344.639	344.826	112.507	353.175	315.884	0.0002712	0.00050645	0.00011562	1155	4.3925e-06	5.8013e-06	1245.8	240.53	3.4029e-06	4.5892e-06	301.48	81.371	64.675	18.882	4.3333e-06	26.874	0.00062972	0.0010404	0.00028692	1135.4	1.0207e-05	1.1409e-05	1226.6	239.23	1.044e-05	1.1236e-05	301.26	82.453	64.958	19.31	1.1098e-05	27.302	218.514	184.266	167.590	108.918	247.498	242.264	108.831	116.377	226.205	255.445	115.680	123.265	123.414	130.180	253.434	130.051	-8191	255	
42207.535	1	1	0	0	0.28388	0.30698	0.14607	0.14372	0.23905	0.18561	0.33317	0.07903	0.18036	0.10522	0.21321	0.10707	0.17949	0.2211	0.21359	0.083114	-1.9208	-2.2083	-2.7146	-2.3812	-2.4062	-2.5312	-2.45	-2.6208	-2.5208	-2.2229	-2.8292	-2.3812	-2.5625	-2.4979	-2.4688	-2.6583	189.151	212.396	443.886	437.252	142.986	108.980	375.043	107.408	308.053	231.812	375.439	413.279	189.019	262.926	314.407	326.190	0.00026389	0.00027687	6.1858e-05	1143.5	4.294e-06	4.6282e-06	1242.9	239.44	3.4789e-06	3.3585e-06	302.15	81.784	64.09	19.114	2.5183e-06	26.893	0.00063183	0.0010221	0.00028839	1132.2	9.9577e-06	1.1182e-05	1226.5	239.24	1.0225e-05	1.1509e-05	301.57	82.66	64.844	19.394	1.0296e-05	27.34	214.886	225.585	162.763	108.793	263.061	242.457	108.926	116.327	226.743	249.511	116.150	123.140	123.424	130.278	257.856	129.781	-8191	255	
42207.629	1	1	0	0	0.20023	0.1888	0.11312	0.2014	0.21747	0.22724	0.31911	0.22303	0.19749	0.28802	0.22403	0.17107	0.34687	0.11787	0.25992	0.14801	-1.9854	-2.3625	-2.6583	-2.6896	-2.2229	-2.6312	-2.3854	-2.4375	-2.4958	-2.2917	-2.7292	-2.3417	-2.3438	-2.7104	-2.375	-2.6875	311.177	123.091	272.188	150.713	413.060	231.806	339.594	427.795	445.697	114.030	125.411	130.542	422.375	284.200	186.533	163.928	0.00025181	0.00030108	6.7844e-05	1150	3.6834e-06	3.177e-06	1237.4	239.76	3.2792e-06	4.5892e-06	303.49	81.8	64.775	18.951	1.092e-06	26.64	0.00062533	0.00098481	0.00028101	1133.6	1.0065e-05	1.1035e-05	1224.9	239.06	1.0014e-05	1.1074e-05	302.37	82.563	65.145	19.335	1.026e-05	27.255	220.764	176.669	156.609	108.835	269.145	277.575	108.961	116.298	258.539	222.783	115.851	123.211	123.750	130.271	212.528	129.562	-8191	255	
42207.750	1	1	0	0	0.25513	0.055671	0.26991	0.24078	0.15382	0.25155	0.19664	0.13224	0.25335	0.060818	0.2339	0.079642	0.17628	0.11441	0.21478	0.36047	-2.2833	-2.3563	-2.8229	-2.4208	-2.5208	-2.7292	-2.5667	-2.5833	-2.5563	-2.3771	-2.6729	-2.3896	-2.2687	-2.6208	-2.3292	-2.475	203.215	243.250	424.136	432.959	356.660	250.364	348.163	313.775	452.892	387.092	364.808	301.028	366.606	334.912	240.381	256.918	0.00026848	0.0004827	8.944e-05	1151.3	3.1776e-06	4.6613e-06	1241.6	240.57	4.5304e-06	3.8011e-06	302.53	81.695	64.3	19.065	2.3193e-06	26.741	0.00062295	0.00098153	0.00026988	1136.8	9.9577e-06	1.1082e-05	1227	239.49	1.019e-05	1.1335e-05	302.21	82.616	65.178	19.41	1.0135e-05	27.284	214.053	166.633	222.093	108.926	274.227	217.469	108.811	116.201	242.594	257.692	116.171	123.113	123.372	130.223	274.155	129.744	-8191	255	
42207.844	1	1	0	0	0.095999	0.073192	0.2139	0.2979	0.13733	0.21665	0.27727	0.19582	0.073127	0.27762	0.015706	0.12223	0.08546	0.10888	0.16964	0.32967	-2.2708	-2.3396	-2.6229	-2.5667	-2.4167	-2.7625	-2.5	-2.4875	-2.6042	-2.2375	-2.6333	-2.5979	-2.4146	-2.8521	-2.2646	-2.4771	172.771	288.367	142.749	429.225	247.844	173.742	447.767	452.364	209.541	455.135	263.627	127.720	174.506	375.920	384.590	388.334	0.00025076	0.00047198	0.00013482	1152.2	4.1838e-06	4.1616e-06	1244.1	240.32	5.0761e-06	1.0049e-06	302.12	81.539	64.48	19.017	3.3441e-06	26.764	0.0006224	0.00098702	0.00027828	1135.6	1.0135e-05	1.1288e-05	1228.2	239.76	1.0223e-05	1.0949e-05	302.5	82.729	65.1	19.361	1.0216e-05	27.343	209.379	185.318	165.138	108.831	231.222	305.883	108.460	116.116	266.032	167.575	116.166	123.072	123.197	130.534	263.866	129.768	-8191	255	
42207.941	1	1	0	0	0.049755	0.16584	0.06407	0.18061	0.059624	0.16516	0.044166	0.16123	0.13565	0.15315	0.14119	0.32087	0.34254	0.094295	0.061666	0.070625	-2.1583	-2.225	-2.5187	-2.6917	-2.2687	-2.7646	-2.475	-2.3146	-2.7438	-2.2875	-2.8167	-2.5521	-2.4146	-2.5479	-2.35	-2.3729	315.031	141.960	382.956	158.155	212.436	161.563	308.961	146.543	114.102	295.264	109.295	453.896	308.411	413.522	405.377	216.495	0.0002524	0.00029766	7.975e-05	1150.3	2.4686e-06	5.6303e-06	1247.4	241.18	4.6144e-06	1.9991e-06	302.12	81.916	64.604	19.191	2.8333e-06	26.674	0.00061982	0.00097362	0.00026275	1136.7	9.5983e-06	1.0912e-05	1230.3	240.13	1.0065e-05	1.083e-05	302.4	82.8	65.014	19.363	1.0188e-05	27.283	210.173	199.363	186.674	108.596	249.764	293.081	108.940	116.071	258.686	259.931	116.340	123.264	123.187	130.455	261.561	130.140	-8191	255	
42208.035	1	1	0	0	0.29218	0.14354	0.31358	0.061798	0.04856	0.25563	0.09319	0.11295	0.13138	0.14088	0.17757	0.27922	0.093291	0.08007	0.19919	0.24817	-2.1854	-2.2521	-2.4917	-2.6979	-2.2375	-2.8771	-2.5563	-2.4479	-2.7313	-2.2938	-2.6104	-2.7917	-2.1417	-2.6771	-2.5354	-2.3479	333.774	130.362	210.202	384.275	201.932	407.134	276.039	389.954	404.375	269.440	133.955	236.274	437.120	447.049	117.907	408.370	0.00026878	0.00029391	7.5583e-05	1152.3	4.4807e-06	4.4246e-06	1247.3	240.16	2.4115e-06	1.4029e-06	302.81	81.504	64.653	19.085	3.3434e-06	26.724	0.00061849	0.00094057	0.0002724	1137.7	1.0109e-05	1.0424e-05	1229.7	239.8	9.7214e-06	1.0075e-05	303.08	82.605	65.336	19.454	9.4286e-06	27.371	217.618	153.619	102.458	108.782	260.645	243.792	108.755	116.190	233.996	212.225	116.147	123.180	123.123	130.321	272.440	129.710	-8191	255	
42208.133	1	1	0	0	0.16551	0.21154	0.055896	0.13188	0.14842	0.25204	0.19426	0.02658	0.22003	0.23399	0.070179	0.071225	0.020073	0.2148	0.16797	0.061476	-2.2333	-2.1729	-2.4958	-2.8438	-2.325	-2.5875	-2.6	-2.4062	-2.675	-2.4437	-2.5646	-2.8125	-2.3521	-2.6188	-2.5875	-2.3354	252.721	339.894	100.605	354.843	419.348	214.721	404.785	305.878	212.874	301.641	457.434	410.564	142.833	158.173	306.634	144.165	0.00025424	0.00024172	8.3103e-05	1152.3	3.4348e-06	4.7839e-06	1247.5	240.11	3.3534e-06	5.9318e-06	303.22	81.769	64.854	19.173	3.0932e-06	26.796	0.00058372	0.000914	0.0002552	1137	9.3813e-06	1.005e-05	1231.7	239.71	9.4135e-06	9.9065e-06	302.35	82.828	65.233	19.474	9.4476e-06	27.37	216.864	211.442	164.566	108.629	244.587	239.623	108.822	116.462	247.438	259.589	115.962	123.010	123.590	130.426	261.635	130.261	-8191	255	
42208.230	1	1	0	0	0.27032	0.15412	0.026466	0.31997	0.35079	0.13977	0.063261	0.1421	0.23876	0.089904	0.14508	0.031771	0.16332	0.059571	0.17959	0.19004	-2.3604	-2.2167	-2.4146	-2.8167	-2.3875	-2.7	-2.8021	-2.4313	-2.6562	-2.5396	-2.4813	-2.7021	-2.4458	-2.7479	-2.6417	-2.3167	429.869	211.649	323.232	382.941	341.127	254.879	276.100	288.407	192.979	390.222	456.665	225.158	395.968	386.480	143.548	109.442	0.00023703	0.000325	8.9925e-05	1152.1	5.2204e-06	3.4967e-06	1246	239.73	3.2531e-06	3.3655e-06	301.08	81.857	64.729	19.022	3.8413e-06	26.834	0.0005811	0.00095731	0.00025699	1136.5	9.4059e-06	1.0357e-05	1228.3	239.5	9.2961e-06	1.0397e-05	302.36	82.761	65.157	19.402	9.7515e-06	27.39	212.210	185.225	203.763	108.543	278.007	255.287	108.948	116.384	272.578	233.139	116.208	123.175	123.047	130.310	244.048	129.614	-8191	255	
42208.324	1	1	0	0	0.29085	0.14683	0.33498	0.24594	0.20494	0.17286	0.41772	0.2	0.081455	0.14927	0.1539	0.12703	0.082295	0.11412	0.29858	0.22745	-2.3125	-2.3521	-2.3271	-2.8021	-2.3375	-2.5354	-2.8021	-2.2854	-2.7583	-2.4542	-2.4208	-2.5958	-2.4917	-2.525	-2.6896	-2.3	391.533	411.096	153.512	422.287	406.108	434.620	385.613	400.117	121.391	406.979	376.669	105.447	250.660	316.541	184.216	346.531	0.00026064	0.00042123	4.9211e-05	1151.4	6.6486e-06	3.1694e-06	1247.6	241.06	3.5317e-06	5.4383e-07	301.72	81.675	64.454	18.983	1.4157e-06	26.759	0.00057899	0.00085978	0.00025494	1136	9.3334e-06	1.0507e-05	1227.6	240.13	9.424e-06	1.0249e-05	302.54	82.634	65.189	19.377	9.6269e-06	27.322	215.213	182.941	222.049	108.896	259.463	277.055	108.876	116.293	256.245	292.477	115.820	122.951	123.126	130.213	296.887	129.881	-8191	255	
42208.445	1	1	0	0	0.1448	0.063041	0.19425	0.24059	0.1111	0.038809	0.2233	0.020076	0.13557	0.11474	0.091932	0.29052	0.093423	0.20457	0.081415	0.2308	-2.2229	-2.4188	-2.3458	-2.8563	-2.1646	-2.5125	-2.8479	-2.5208	-2.5687	-2.6396	-2.2771	-2.7625	-2.4479	-2.4375	-2.7812	-2.4208	120.755	191.577	403.868	444.820	427.034	212.559	385.858	142.702	268.009	268.975	292.437	428.464	211.764	377.644	418.949	329.336	0.00024122	0.00035064	4.4217e-05	1152	2.2738e-06	1.3047e-06	1246.5	240.23	3.8884e-06	2.334e-06	301.91	81.516	64.739	18.918	1.2896e-06	26.935	0.00058284	0.00091378	0.00026193	1136.8	9.3707e-06	1.0853e-05	1228.8	239.91	9.4416e-06	1.0601e-05	302.48	82.79	65.138	19.363	9.4228e-06	27.399	210.947	227.370	190.536	108.693	264.495	203.223	108.742	116.531	256.956	234.259	115.957	122.901	123.522	130.508	271.320	129.520	-8191	255	
42208.543	1	1	0	0	0.073352	0.19629	0.20115	0.11365	0.24094	0.11628	0.17442	0.053203	0.012798	0.24424	0.37376	0.28644	0.050204	0.14692	0.14858	0.16941	-2.1	-2.6188	-2.1771	-2.8958	-2.5104	-2.4292	-2.7583	-2.3875	-2.5875	-2.5646	-2.1708	-2.725	-2.4729	-2.3063	-2.4938	-2.2854	376.504	311.658	277.202	189.125	195.096	350.666	398.134	167.929	222.330	209.650	391.974	417.462	167.957	398.467	218.504	272.671	0.00022852	0.00018906	5.358e-05	1155	4.62e-06	1.5055e-06	1240.9	240.36	1.8552e-06	3.2833e-06	300.88	81.664	64.492	18.971	3.1233e-06	26.869	0.00058229	0.00093986	0.00025699	1137.8	9.5776e-06	1.0673e-05	1227.3	239.88	9.7059e-06	1.0465e-05	302.11	82.456	65.135	19.345	9.7945e-06	27.324	218.739	188.214	186.916	108.712	280.537	279.731	108.906	116.364	242.731	235.449	115.756	123.049	123.619	130.483	255.905	129.424	-8191	255	
42208.613	1	1	0	0	0.063493	0.11829	0.11824	0.29358	0.22237	0.16694	0.14651	0.20721	0.20554	0.10239	0.10359	0.055577	0.23543	0.16522	0.18555	0.088785	-1.9708	-2.5604	-2.2521	-2.775	-2.5854	-2.4042	-2.9646	-2.625	-2.3667	-2.5875	-2.1229	-2.6917	-2.6333	-2.3208	-2.7062	-2.4646	182.082	373.110	218.704	137.638	259.576	259.317	453.156	340.318	132.179	132.551	342.949	260.655	453.335	201.072	185.395	176.734	0.00025394	0.00034778	0.00011114	1153.3	5.7887e-06	1.9547e-06	1252.3	241.6	3.5769e-06	2.7495e-06	302.01	81.817	63.902	19.02	2.1979e-06	26.622	0.00060019	0.00097733	0.00027698	1136	1.0089e-05	1.081e-05	1227.5	240.07	9.9512e-06	1.0858e-05	302.55	82.64	65.146	19.429	9.7828e-06	27.288	215.997	178.834	195.979	108.773	258.897	266.004	108.827	116.492	270.573	217.132	115.934	122.989	123.047	130.073	255.705	130.026	-8191	255	
42208.711	1	1	0	0	0.12977	0.2602	0.092085	0.20928	0.3772	0.089642	0.1339	0.064304	0.28274	0.092005	0.28354	0.22384	0.37668	0.024144	0.005437	0.16591	-2.1813	-2.5563	-2.2583	-2.6729	-2.6625	-2.3563	-2.8854	-2.5292	-2.3875	-2.6979	-2.4875	-2.45	-2.7167	-2.3854	-2.7521	-2.5417	313.206	185.709	262.883	118.842	145.845	346.633	349.262	312.030	307.219	120.071	131.018	390.208	384.114	297.063	181.359	390.261	0.00026037	0.00019238	7.7242e-05	1150.5	2.5038e-06	3.7458e-06	1246.1	240.03	3.3433e-06	2.0647e-06	301.01	82.17	64.533	18.948	3.8278e-06	26.735	0.00061893	0.00094363	0.00027059	1135.7	9.7008e-06	1.0809e-05	1228.1	239.58	9.966e-06	1.0637e-05	302.42	82.739	65.112	19.403	9.8732e-06	27.31	217.196	202.205	192.937	108.833	266.519	256.533	108.928	116.447	244.746	262.714	116.078	123.409	123.600	130.637	284.019	129.937	-8191	255	
42208.828	1	1	0	0	0.07384	0.20997	0.099961	0.2449	0.087381	0.036657	0.45361	0.095647	0.078029	0.13817	0.14001	0.13142	0.28278	0.11246	0.12073	0.12364	-2.0375	-2.5292	-2.1771	-2.6167	-2.5417	-2.4	-2.8104	-2.3771	-2.1146	-2.7812	-2.4542	-2.5687	-2.7333	-2.3104	-2.4958	-2.4542	325.877	214.662	173.769	443.638	335.569	428.594	406.244	115.752	217.831	293.929	226.870	218.728	411.315	166.530	286.442	307.701	0.00025128	0.00040018	5.8572e-05	1152.8	4.799e-06	3.2976e-06	1244.4	241.3	5.2921e-06	1.2649e-06	301.24	82.206	64.465	19.055	4.7842e-06	26.729	0.00061182	0.00098751	0.00025901	1137.3	9.4545e-06	1.0526e-05	1228.7	240.13	1.0127e-05	1.1143e-05	301.85	82.674	65.101	19.401	1.0072e-05	27.312	217.027	178.432	196.935	108.567	232.819	250.510	108.992	116.240	256.211	201.613	115.969	123.121	123.349	130.174	239.012	129.728	-8191	255	
42208.926	1	1	0	0	0.072428	0.12113	0.047289	0.20001	0.2884	0.07723	0.16909	0.21841	0.16486	0.28956	0.15792	0.032818	0.11706	0.10375	0.10019	0.090219	-1.7792	-2.5667	-2.2792	-2.6958	-2.375	-2.15	-2.7042	-2.5417	-2.1188	-2.7354	-2.5438	-2.6396	-2.6604	-2.2917	-2.6667	-2.6312	103.322	213.382	400.972	360.953	266.207	198.851	440.782	376.849	426.808	353.021	146.223	144.014	388.625	411.126	379.114	187.943	0.00024914	8.1017e-05	7.3156e-05	1151.5	4.7291e-06	4.7292e-06	1241.7	238.79	3.4976e-06	3.0401e-06	301.95	81.748	64.051	19.102	1.435e-06	26.631	0.00061124	0.00097049	0.00027201	1137	1.0094e-05	1.1006e-05	1228.7	239.15	1.0328e-05	1.0688e-05	302.73	82.638	65.022	19.426	1.0338e-05	27.211	210.409	457.945	170.077	108.575	274.389	250.119	108.732	116.058	275.564	219.192	115.863	123.147	123.194	130.567	245.027	130.163	-8191	255	
42209.020	1	1	0	0	0.22792	0.023836	0.24654	0.13569	0.18454	0.26513	0.10454	0.10239	0.21266	0.066776	0.28052	0.22255	0.057766	0.11037	0.11522	0.17841	-1.9583	-2.6688	-2.4583	-2.5208	-2.7167	-2.4667	-2.75	-2.5812	-2.5	-2.6271	-2.5396	-2.4375	-2.6729	-2.4479	-2.5583	-2.5958	302.830	392.172	390.954	343.564	264.291	241.017	112.025	280.028	195.504	425.049	411.811	428.512	372.047	104.460	186.120	327.369	0.00026407	0.00026507	0.0001739	1155.1	3.7018e-06	1.5887e-06	1243.3	239.12	3.3286e-06	2.14e-06	300.6	81.712	64.119	18.865	2.2753e-06	26.744	0.0005993	0.00096479	0.0002569	1138.2	9.8153e-06	1.0633e-05	1228.9	238.96	9.9589e-06	1.0181e-05	301.95	82.63	64.901	19.326	1.0181e-05	27.283	214.036	249.216	174.790	108.562	246.185	287.877	108.731	116.280	267.789	268.859	115.804	122.813	123.110	130.350	232.058	129.682	-8191	255	
42209.117	1	1	0	0	0.09658	0.21662	0.065278	0.17363	0.15425	0.37308	0.13076	0.34792	0.12751	0.10406	0.15699	0.13796	0.24382	0.21408	0.18966	0.19331	-1.975	-2.6396	-2.4521	-2.4604	-2.6708	-2.2771	-2.6021	-2.7208	-2.3708	-2.7625	-2.5646	-2.2687	-2.6875	-2.2875	-2.4479	-2.6604	427.182	369.006	362.155	445.755	181.840	170.581	450.406	400.397	350.383	195.708	424.054	230.924	272.258	308.638	320.021	401.583	0.00024084	0.0002641	4.7334e-05	1151	1.8796e-06	3.9413e-06	1241.1	240.51	2.9537e-06	3.3982e-06	301.04	81.588	64.405	18.848	3.112e-06	26.841	0.00061458	0.00092732	0.00027107	1136	9.6495e-06	1.1066e-05	1227.8	239.73	1.026e-05	1.0357e-05	302.1	82.619	65.258	19.362	1.0117e-05	27.345	217.469	203.706	236.389	108.887	232.828	239.558	108.720	116.304	272.659	246.194	115.822	122.803	123.553	130.235	238.718	129.851	-8191	255	
42209.238	1	1	0	0	0.22266	0.072846	0.068872	0.15893	0.096848	0.090117	0.30739	0.073937	0.067901	0.20877	0.044911	0.17311	0.20493	0.10165	0.10324	0.24474	-1.7771	-2.575	-2.5354	-2.3771	-2.6458	-2.425	-2.5312	-2.7812	-2.3208	-2.4125	-2.6188	-2.3312	-2.5333	-2.5167	-2.35	-2.7833	104.080	301.419	249.315	432.177	319.866	372.253	398.056	116.923	255.122	144.889	166.130	181.776	444.707	274.115	161.680	99.230	0.00024584	0.00041697	0.00011311	1153.1	3.1719e-06	4.6889e-06	1251	240.45	4.1055e-06	3.2805e-06	301.67	81.629	64.697	19.138	3.5729e-06	26.726	0.00061345	0.00093836	0.00026627	1136.5	9.4598e-06	1.0727e-05	1231.6	239.47	1.0305e-05	1.0433e-05	301.91	82.575	65.027	19.418	9.8856e-06	27.286	210.989	195.057	210.445	108.720	276.287	218.933	108.875	116.483	251.836	235.951	115.797	122.798	123.407	130.330	248.462	130.198	-8191	255	
42209.309	1	1	0	0	0.042503	0.16933	0.24123	0.19925	0.19066	0.33574	0.25752	0.1933	0.16023	0.15948	0.28746	0.038563	0.075659	0.227	0.15914	0.1082	-1.875	-2.5687	-2.4521	-2.5146	-2.675	-2.1979	-2.6	-2.8792	-2.2833	-2.6063	-2.7042	-2.3812	-2.6875	-2.2687	-2.4458	-2.6021	420.117	228.831	431.226	394.416	233.365	384.988	317.206	257.269	260.158	386.303	394.274	353.000	225.119	381.633	358.954	409.747	0.00025464	0.00037005	8.7916e-05	1151.7	2.5141e-06	4.7301e-06	1246.7	239.57	3.9067e-06	5.4174e-06	303.03	81.482	64.482	18.994	1.9124e-06	26.745	0.00061097	0.00096059	0.00026791	1135.3	9.6029e-06	1.091e-05	1229	239.23	9.8191e-06	1.0643e-05	302.05	82.429	65.102	19.389	1.0027e-05	27.314	209.927	184.967	196.897	108.515	250.208	258.397	108.792	116.602	243.286	221.294	115.911	122.561	123.154	129.963	276.238	130.068	-8191	255	
42209.430	1	1	0	0	0.29991	0.10339	0.13281	0.21896	0.14845	0.1344	0.34757	0.14612	0.15789	0.25895	0.15938	0.10874	0.04992	0.2755	0.28173	0.14372	-1.8167	-2.4604	-2.6958	-2.3542	-2.4354	-2.5354	-2.6792	-2.6354	-2.4562	-2.3458	-2.6562	-2.3417	-2.6646	-2.5708	-2.2271	-2.6667	179.270	212.667	360.315	108.220	308.938	129.064	440.973	433.279	184.604	175.792	453.754	243.959	214.735	454.140	306.884	159.913	0.0002246	0.00026428	0.00011248	1154.4	4.1841e-06	2.6092e-06	1245.9	240.85	2.5537e-06	2.4242e-06	301.2	82.343	64.467	18.886	2.1829e-06	26.817	0.00059311	0.0009613	0.00026287	1135.7	9.5291e-06	1.0686e-05	1229.1	239.51	9.7776e-06	1.0671e-05	301.94	82.568	64.961	19.297	1.0434e-05	27.317	215.022	224.347	132.792	108.840	245.337	347.243	108.611	116.206	258.123	287.569	115.618	122.733	123.300	130.678	251.780	130.210	-8191	255	
42209.527	1	1	0	0	0.18337	0.1199	0.060111	0.32546	0.19342	0.36997	0.29448	0.19167	0.27182	0.12994	0.20756	0.11228	0.069867	0.084136	0.14928	0.23574	-1.9125	-2.4521	-2.5396	-2.4042	-2.5417	-2.5187	-2.6208	-2.7479	-2.5146	-2.5354	-2.8229	-2.3042	-2.5417	-2.6417	-2.3958	-2.6875	382.860	132.372	283.200	414.408	146.739	423.561	392.751	389.996	387.985	323.823	103.122	413.733	427.751	336.306	99.830	235.197	0.00024225	0.00056352	9.7015e-05	1150.1	4.2228e-06	2.4661e-06	1239.8	239.31	2.9397e-06	1.6038e-06	299.8	82.453	64.709	19.039	1.679e-06	26.913	0.00059202	0.00096963	0.0002682	1135.9	9.5856e-06	1.0728e-05	1226.8	239.41	1.0065e-05	1.0742e-05	301.87	82.741	64.956	19.362	1.0161e-05	27.38	212.652	204.382	191.493	108.525	265.999	260.143	108.844	116.222	264.366	248.975	115.848	123.156	123.361	130.928	232.051	129.669	-8191	255	
42209.621	1	1	0	0	0.047732	0.13186	0.31268	0.2248	0.15701	0.089706	0.38193	0.11565	0.24994	0.082835	0.18561	0.17624	0.10734	0.1303	0.17557	0.13496	-2.05	-2.5271	-2.5917	-2.2958	-2.5312	-2.5229	-2.3646	-2.8812	-2.4167	-2.3042	-2.6396	-2.5479	-2.4938	-2.6021	-2.3583	-2.6562	440.543	226.619	307.512	123.477	311.854	363.006	391.105	110.255	451.152	137.093	145.997	182.976	422.274	258.792	321.370	304.757	0.00027447	0.00036261	6.8776e-05	1156.2	1.2994e-06	4.7669e-06	1243.4	239.91	2.4723e-06	4.4408e-06	302.92	81.532	64.536	18.998	2.9663e-06	26.976	0.00062026	0.00096671	0.00026828	1137.5	9.9956e-06	1.0626e-05	1227.4	239.65	9.9723e-06	1.1152e-05	301.76	82.391	65.074	19.421	1.0052e-05	27.349	213.868	181.764	192.322	108.717	232.696	254.019	108.920	116.293	293.952	258.114	115.926	123.007	123.406	130.517	309.401	129.945	-8191	255	
42209.719	1	1	0	0	0.013499	0.18288	0.059505	0.18703	0.19218	0.048961	0.15867	0.026374	0.10283	0.18999	0.10428	0.3104	0.11275	0.18968	0.15362	0.064134	-2.3146	-2.3083	-2.7542	-2.5833	-2.5521	-2.7583	-2.2708	-2.6625	-2.6833	-2.4396	-2.6396	-2.5292	-2.4708	-2.6375	-2.3312	-2.5062	207.655	404.781	325.725	414.070	411.793	170.491	396.956	318.957	389.491	243.953	454.218	395.478	340.181	425.982	256.839	216.561	0.00024474	0.00030166	4.3776e-05	1150	3.4404e-06	4.5e-06	1242.4	240.64	2.2986e-06	6.6679e-06	301.98	81.367	64.508	18.931	2.2862e-06	26.65	0.0006221	0.00096536	0.00026072	1137.4	9.8292e-06	1.1254e-05	1227	239.7	9.9899e-06	1.1298e-05	301.79	82.426	65.019	19.297	1.0023e-05	27.274	205.143	211.518	153.114	108.545	241.688	222.630	108.870	116.504	272.775	252.841	116.012	122.790	123.511	130.261	211.766	129.674	-8191	255	
42209.840	1	1	0	0	0.060212	0.17854	0.15804	0.27205	0.0396	0.06593	0.54641	0.21805	0.070971	0.2588	0.24478	0.21247	0.058937	0.0716	0.052556	0.15493	-2.1875	-2.1479	-2.5062	-2.6625	-2.3458	-2.525	-2.3625	-2.6583	-2.5479	-2.2375	-2.5229	-2.6042	-2.4688	-2.7854	-2.3021	-2.4562	306.736	114.140	106.496	452.140	306.005	263.904	382.357	327.959	428.793	295.276	151.216	129.980	188.324	381.778	384.243	360.525	0.00028205	0.00042088	7.7403e-05	1151.3	4.3633e-06	3.4616e-06	1246.7	239.59	3.3464e-06	2.5972e-06	301.67	81.707	64.803	18.99	1.1767e-06	26.768	0.00062557	0.0009816	0.00026679	1136.9	9.6049e-06	1.0547e-05	1229.2	239.16	1.0027e-05	1.0843e-05	302.09	82.589	65.13	19.356	9.9133e-06	27.321	217.378	113.175	198.094	108.574	249.333	230.746	108.878	116.281	242.840	265.306	115.941	123.389	123.245	130.426	290.933	129.736	-8191	255	
42209.910	1	1	0	0	0.099233	0.073261	0.18821	0.10756	0.17246	0.10741	0.10574	0.17318	0.047556	0.017919	0.15234	0.1491	0.21064	0.16903	0.22064	0.065406	-2.0812	-2.1917	-2.5333	-2.4667	-2.3479	-2.7271	-2.4979	-2.4292	-2.7083	-2.3292	-2.6792	-2.5104	-2.4062	-2.8146	-2.4604	-2.6667	229.924	295.311	212.947	348.440	366.183	223.711	251.813	149.631	391.049	444.243	444.450	412.244	250.976	357.158	347.063	228.407	0.0002502	0.00036018	0.00011824	1149.4	3.1673e-06	4.087e-06	1243.7	239.93	3.3687e-06	1.8301e-06	301.46	81.808	64.991	19.186	2.4359e-06	26.915	0.00059389	0.00095831	0.00026289	1135.6	9.571e-06	1.0359e-05	1228.9	239.31	9.9041e-06	1.0442e-05	301.52	82.651	65.129	19.421	9.7311e-06	27.266	210.859	185.532	184.994	108.554	267.462	209.104	108.830	116.425	278.354	286.460	116.076	123.055	123.290	130.397	269.095	129.776	-8191	255	
42210.004	1	1	0	0	0.21861	0.092899	0.15284	0.057243	0.046289	0.23621	0.15629	0.16704	0.068866	0.18903	0.067101	0.15922	0.11716	0.050127	0.42383	0.10367	-2.1042	-2.1604	-2.5208	-2.5833	-2.1708	-2.6958	-2.4938	-2.4875	-2.8021	-2.3563	-2.6125	-2.6979	-2.125	-2.6042	-2.3937	-2.4021	322.884	111.926	330.738	199.162	147.304	417.201	383.962	351.543	446.714	172.171	125.949	221.742	365.487	212.218	426.123	285.766	0.00026939	0.00043019	0.00012134	1150.9	4.4191e-06	2.6669e-06	1247.3	239.31	2.6492e-06	2.1764e-06	301.24	81.863	64.768	19.007	2.7323e-06	26.872	0.0005945	0.00093238	0.0002597	1135.6	9.8399e-06	1.0418e-05	1227.7	239.54	9.9421e-06	1.0468e-05	302.34	82.636	65.212	19.314	9.8353e-06	27.335	215.372	211.486	205.998	108.741	246.765	269.196	108.734	116.517	251.487	287.735	115.849	122.948	123.547	130.399	266.088	129.710	-8191	255	
42210.102	1	1	0	0	0.065307	0.29867	0.089818	0.13391	0.047011	0.072501	0.16664	0.11404	0.17645	0.12055	0.15285	0.13195	0.26304	0.31282	0.2155	0.17003	-2.3312	-2.4479	-2.4188	-2.7896	-2.2812	-2.7417	-2.6104	-2.3729	-2.7562	-2.5396	-2.3646	-2.6458	-2.2625	-2.65	-2.325	-2.1188	443.929	172.362	180.217	441.998	106.610	388.695	410.599	300.659	341.752	370.412	364.629	254.169	146.301	388.012	257.510	320.650	0.00024089	0.00025602	4.5651e-05	1148.7	2.7538e-06	1.8125e-06	1247.4	240.26	1.721e-06	4.2085e-06	303.31	82.092	64.103	19.049	2.288e-06	26.743	0.00058563	0.00092532	0.00025891	1135.9	9.6296e-06	1.0426e-05	1229.7	239.83	9.3882e-06	1.0587e-05	302.46	82.773	64.951	19.41	9.8987e-06	27.3	215.913	136.406	226.051	108.645	268.797	246.425	108.875	116.037	296.919	267.029	116.409	123.161	123.805	130.262	246.061	129.853	-8191	255	
42210.223	1	1	0	0	0.10081	0.25381	0.074581	0.3943	0.046887	0.090675	0.18877	0.22096	0.095064	0.1393	0.23478	0.13608	0.18979	0.16729	0.15712	0.29527	-2.375	-2.3583	-2.4188	-2.7104	-2.4458	-2.7188	-2.7333	-2.3021	-2.7771	-2.4062	-2.4229	-2.6521	-2.2646	-2.5875	-2.4875	-2.3812	178.125	273.680	222.745	431.330	286.831	127.635	405.393	135.680	309.206	421.210	433.860	250.658	318.435	201.174	249.537	181.854	0.00028875	0.00039914	8.8226e-05	1154	3.3243e-06	5.1222e-06	1246.1	239.98	3.9769e-06	5.63e-06	301.6	81.149	64.515	18.968	3.6419e-06	26.788	0.00060015	0.00095303	0.0002687	1136.8	9.563e-06	1.0675e-05	1228.7	238.97	9.7326e-06	1.0448e-05	302.24	82.377	65.137	19.353	9.8105e-06	27.329	208.099	184.315	217.673	108.637	235.232	254.924	108.790	116.382	271.499	215.097	115.614	123.175	123.339	130.305	230.373	129.609	-8191	255	
42210.316	1	1	0	0	0.18807	0.28783	0.03072	0.15226	0.069195	0.11027	0.27038	0.34214	0.20411	0.30197	0.10326	0.19511	0.29339	0.1014	0.059231	0.15913	-2.1333	-2.2521	-2.4354	-2.8438	-2.2458	-2.6396	-2.5646	-2.2542	-2.7104	-2.4208	-2.3021	-2.5667	-2.4167	-2.4917	-2.5646	-2.4417	279.036	388.283	340.745	231.352	205.372	200.322	326.422	353.577	134.904	142.717	203.359	456.613	105.782	184.886	184.566	401.990	0.00022001	0.00033473	5.4046e-05	1155.7	3.6209e-06	4.9074e-06	1250	240.23	2.8473e-06	3.5577e-06	303	81.766	65.16	19.16	1.4177e-06	26.948	0.00058331	0.00097369	0.00026341	1138.2	9.3241e-06	1.0681e-05	1230.8	239.56	9.7185e-06	1.0752e-05	301.73	82.434	65.236	19.402	9.5518e-06	27.316	213.296	134.446	206.126	108.507	262.556	236.156	108.916	116.441	287.482	257.343	116.211	123.053	123.111	130.528	291.975	129.927	-8191	255	
42210.414	1	1	0	0	0.070944	0.17113	0.084465	0.26356	0.11686	0.31136	0.18808	0.21759	0.14708	0.07952	0.16883	0.29918	0.048837	0.30308	0.12194	0.18794	-2.0667	-2.3875	-2.4042	-2.6396	-2.1937	-2.4813	-2.8063	-2.4104	-2.3333	-2.4417	-2.3937	-2.7646	-2.4167	-2.2146	-2.6208	-2.1375	448.155	282.250	406.489	392.898	422.876	328.265	374.599	363.404	381.158	264.489	146.101	358.498	185.005	426.806	331.275	350.346	0.00028242	0.00050263	0.00010929	1147.7	3.8907e-06	2.9246e-06	1249	239.92	2.8621e-06	3.7515e-06	301.26	81.89	64.924	19.171	2.7807e-06	26.779	0.00062203	0.0009702	0.00027284	1135.7	9.5717e-06	1.0982e-05	1229.5	239.63	9.8908e-06	1.0679e-05	301.44	82.507	65.421	19.444	9.8951e-06	27.345	211.127	203.622	170.956	108.294	260.060	245.066	108.682	116.426	269.440	228.362	115.795	123.041	123.390	130.619	243.512	130.119	-8191	255	
42210.512	1	1	0	0	0.30759	0.31634	0.062201	0.23318	0.053017	0.13419	0.2152	0.23659	0.12353	0.18209	0.30309	0.11135	0.11403	0.23894	0.11036	0.042803	-2.0771	-2.4042	-2.2292	-2.9479	-2.3854	-2.4354	-2.6229	-2.35	-2.5479	-2.5667	-2.4042	-2.4792	-2.4646	-2.3083	-2.5563	-2.4125	399.514	175.618	307.850	454.343	301.860	449.872	381.898	417.666	120.088	428.681	449.192	184.056	120.109	265.671	326.637	341.430	0.00026523	0.00028937	8.9163e-05	1149.6	1.8216e-06	5.193e-06	1246.3	240	2.3188e-06	2.4286e-06	302.87	81.548	64.062	19.027	3.12e-06	26.657	0.00060631	0.00096892	0.00026534	1135.9	9.7381e-06	1.104e-05	1230.5	239.42	1.0012e-05	1.0504e-05	302.42	82.577	64.849	19.382	9.5766e-06	27.298	216.245	165.433	182.533	108.765	281.773	261.302	108.851	116.260	215.535	260.455	116.056	123.164	123.701	130.283	247.734	129.815	-8191	255	
42210.605	1	1	0	0	0.16601	0.12528	0.34942	0.31349	0.13586	0.24333	0.1755	0.048408	0.080245	0.035221	0.20679	0.18377	0.21216	0.049465	0.11999	0.21482	-2.0458	-2.375	-2.3667	-2.6771	-2.425	-2.5625	-2.7958	-2.3187	-2.55	-2.6188	-2.3563	-2.6583	-2.4354	-2.325	-2.7708	-2.2167	328.992	338.053	331.503	127.506	290.605	441.275	384.712	385.276	387.766	127.463	105.842	413.356	150.244	405.938	254.466	155.435	0.00026048	0.0002604	0.00012574	1153	2.2685e-06	4.0981e-06	1246	240.28	3.5066e-06	5.0275e-06	300.95	81.914	64.835	19.023	2.1135e-06	26.771	0.00061631	0.00093437	0.00026818	1137.5	9.8858e-06	1.1175e-05	1227.8	239.42	9.8106e-06	1.0633e-05	302.01	82.732	65.035	19.36	9.6917e-06	27.325	213.264	178.976	206.551	108.597	226.132	250.581	108.894	116.427	237.126	234.699	115.601	123.145	123.266	130.572	238.344	129.928	-8191	255	
42210.699	1	1	0	0	0.22364	0.092098	0.067371	0.20767	0.11359	0.10509	0.05922	0.17022	0.1054	0.18655	0.1935	0.1369	0.22667	0.075852	0.19401	0.14079	-2.1917	-2.6604	-2.3604	-2.675	-2.4458	-2.3208	-2.8646	-2.4583	-2.3812	-2.5563	-2.2812	-2.4833	-2.6833	-2.2333	-2.5646	-2.4688	421.497	151.836	307.810	356.109	240.838	343.467	350.234	301.142	319.472	334.334	133.574	324.215	369.655	275.895	293.710	448.296	0.00026984	0.00035078	4.7649e-05	1154.2	3.1243e-06	3.8801e-06	1244.9	238.22	1.651e-06	1.5696e-06	302.82	81.569	64.672	19.041	3.4059e-06	26.69	0.00062009	0.00094669	0.00026627	1136.9	9.7986e-06	1.0636e-05	1229.5	239.08	1.0001e-05	1.0643e-05	302.22	82.482	65.075	19.36	9.9089e-06	27.282	213.395	198.096	198.228	108.671	256.789	242.438	108.867	116.306	270.422	250.520	115.804	123.033	123.093	130.119	286.978	129.363	-8191	255	
42210.797	1	1	0	0	0.17308	0.096676	0.11518	0.12413	0.037105	0.013237	0.07206	0.10332	0.21056	0.23367	0.18091	0.22534	0.37526	0.2409	0.15582	0.25486	-2.0271	-2.7521	-2.1625	-2.5604	-2.5417	-2.0979	-2.9188	-2.3792	-2.2604	-2.8292	-2.3688	-2.4062	-2.4104	-2.2438	-2.6458	-2.4354	320.766	216.123	370.453	405.838	393.297	247.642	105.691	378.166	399.282	292.273	401.951	428.192	417.345	442.995	426.765	256.170	0.00027405	0.00021479	0.00011895	1151.3	3.8563e-06	4.7809e-06	1245.2	239.84	3.4542e-06	4.5661e-06	302.35	81.446	64.506	18.998	1.5342e-06	26.804	0.00062495	0.00095724	0.00026512	1137	9.7773e-06	1.0823e-05	1228.6	239.75	1.0018e-05	1.0422e-05	302.06	82.496	65.015	19.398	1.0023e-05	27.334	218.737	173.014	191.903	108.780	261.360	250.799	108.726	116.205	248.506	293.710	115.934	123.118	123.408	130.135	292.591	129.676	-8191	255	
42210.918	1	1	0	0	0.14407	0.051755	0.30433	0.13537	0.22343	0.10866	0.12778	0.085344	0.2277	0.17003	0.058444	0.071631	0.10751	0.35759	0.14027	0.17246	-1.9625	-2.8	-2.0896	-2.5312	-2.575	-2.3229	-2.7604	-2.5792	-2.2938	-2.6729	-2.5229	-2.4979	-2.5271	-2.3146	-2.7333	-2.6063	149.058	402.446	426.041	403.591	302.056	184.355	267.496	197.572	175.347	377.421	381.088	176.092	439.145	417.880	373.764	265.137	0.00026622	0.00032896	8.3504e-05	1153.3	2.7813e-06	3.9812e-06	1242.8	239.91	3.757e-06	1.8563e-06	301.75	81.989	63.782	18.979	4.1033e-06	26.663	0.00062203	0.00095895	0.00027422	1136.5	9.9557e-06	1.0725e-05	1228.2	239.4	1.0167e-05	1.0768e-05	301.59	82.59	64.889	19.389	1.0273e-05	27.274	215.922	190.748	168.740	108.725	297.175	270.866	109.185	116.274	263.201	262.887	115.900	123.274	123.449	130.325	226.819	129.849	-8191	255	
42211.016	1	1	0	0	0.18554	0.068289	0.063783	0.26641	0.097364	0.16743	0.35702	0.091157	0.242	0.054517	0.23971	0.13408	0.088396	0.057221	0.18742	0.053833	-1.8667	-2.4667	-2.3333	-2.6104	-2.5854	-2.3021	-2.6521	-2.6667	-2.2646	-2.6875	-2.5854	-2.3292	-2.5979	-2.2979	-2.6458	-2.5708	425.754	233.084	360.792	449.107	208.049	249.155	385.543	335.907	113.732	354.329	378.186	420.523	317.655	146.178	225.191	197.494	0.00030408	0.00026312	2.7374e-05	1153.6	2.5692e-06	3.7338e-06	1245.5	240.19	4.0412e-06	2.5838e-06	301.47	82.1	64.638	19.167	2.6073e-06	26.802	0.00063676	0.00096757	0.00026763	1138.6	9.8658e-06	1.1246e-05	1229.9	239.64	9.9118e-06	1.0686e-05	302.03	82.66	65.187	19.406	1.0255e-05	27.275	216.286	194.761	422.613	108.707	245.646	265.470	108.941	116.527	287.639	250.442	115.992	123.193	123.127	130.047	214.616	129.718	-8191	255	
42211.109	1	1	0	0	0.19418	0.13484	0.15579	0.32911	0.095105	0.22418	0.39068	0.27079	0.18354	0.16287	0.36542	0.051219	0.084513	0.28764	0.1684	0.28742	-1.7042	-2.6896	-2.2687	-2.5083	-2.6208	-2.3917	-2.75	-2.4646	-2.1813	-2.6125	-2.5458	-2.2708	-2.675	-2.3167	-2.2896	-2.575	270.007	157.702	397.055	428.474	362.736	235.801	448.689	116.300	189.350	421.996	195.747	313.340	190.513	147.827	168.246	113.539	0.00023799	0.00054182	9.2383e-05	1150.2	4.31e-06	2.9889e-06	1246.6	240.33	4.5322e-06	4.4921e-06	302.28	81.942	64.308	19.041	4.6486e-06	26.802	0.00062808	0.00099293	0.00028144	1137.8	9.9224e-06	1.107e-05	1230.3	239.51	1.043e-05	1.0977e-05	302.13	82.686	65.03	19.402	1.0703e-05	27.298	210.918	189.043	212.652	108.548	235.851	317.097	108.845	116.075	254.663	237.630	115.697	123.173	123.056	130.274	247.406	129.903	-8191	255	
42211.203	1	1	0	0	0.18872	0.12771	0.1034	0.037754	0.21773	0.03024	0.21731	0.21031	0.20969	0.18879	0.23231	0.15386	0.20722	0.15299	0.085147	0.10508	-1.8875	-2.6271	-2.4354	-2.4521	-2.5458	-2.5	-2.7	-2.6437	-2.1979	-2.6646	-2.4188	-2.2604	-2.5938	-2.4292	-2.3646	-2.6833	144.369	347.792	215.840	324.685	117.284	277.199	437.492	416.242	349.515	165.964	452.222	326.296	321.548	420.086	101.000	419.928	0.00026378	0.0003208	8.6812e-05	1151	3.9027e-06	2.9762e-06	1244.5	240.55	4.771e-06	3.4493e-06	302.21	82.001	63.894	18.961	3.4556e-06	26.711	0.00063298	0.0010239	0.00028566	1137.6	1.018e-05	1.1534e-05	1230.6	239.93	1.0684e-05	1.1187e-05	302.72	82.616	65.114	19.382	1.1222e-05	27.334	211.647	148.134	224.901	108.779	257.375	258.403	108.987	116.142	295.176	241.621	115.996	122.865	123.509	130.190	243.115	129.844	-8191	255	
42211.301	1	1	0	0	0.20466	0.07898	0.13574	0.17513	0.21434	0.081026	0.10707	0.093959	0.079564	0.21752	0.34086	0.19731	0.22646	0.22393	0.11439	0.066375	-1.8208	-2.475	-2.3917	-2.575	-2.6792	-2.6271	-2.625	-2.6021	-2.3542	-2.5979	-2.6937	-2.2687	-2.5042	-2.4396	-2.2583	-2.7458	137.923	168.529	124.551	455.887	345.338	419.966	105.217	363.377	298.808	353.828	358.380	237.045	300.628	258.866	136.591	135.532	0.00024377	0.00049891	8.0053e-05	1156	4.7668e-06	2.3987e-06	1247.7	240.19	2.9033e-06	6.2972e-07	301.11	81.743	64.534	19.133	2.3845e-06	26.863	0.0006733	0.0010977	0.00030844	1139.6	1.0726e-05	1.2518e-05	1230.8	239.89	1.2149e-05	1.2873e-05	302.97	82.868	65.307	19.491	1.2446e-05	27.417	213.893	172.278	161.444	108.809	257.626	227.391	108.729	116.399	272.402	312.407	116.065	122.935	123.407	130.953	235.745	129.541	-8191	255	
42211.398	1	1	0	0	0.30116	0.1546	0.13512	0.24433	0.1577	0.052187	0.13537	0.017594	0.032083	0.067602	0.041622	0.17793	0.14143	0.15865	0.22259	0.36009	-1.8417	-2.4437	-2.5271	-2.3771	-2.4521	-2.4729	-2.475	-2.8625	-2.3292	-2.6625	-2.6542	-2.2583	-2.5271	-2.4104	-2.3333	-2.8083	184.655	419.384	261.184	128.827	267.360	399.397	240.935	170.654	371.590	206.853	247.805	454.016	227.971	341.334	223.895	374.620	0.00025268	0.00031189	0.00015394	1160.1	4.146e-06	4.4699e-06	1258	242.01	2.8274e-06	3.1437e-06	305.36	82.084	65.199	19.13	2.7429e-06	27.026	0.00074379	0.0012547	0.00035682	1145.9	1.276e-05	1.4297e-05	1242.4	242.03	1.3151e-05	1.4871e-05	306.05	83.441	66.126	19.578	1.3648e-05	27.569	215.674	212.365	198.228	108.758	251.000	228.210	108.757	116.104	294.026	251.183	115.937	122.439	123.448	130.305	244.740	129.607	-8191	255	
42211.520	1	1	0	0	0.33036	0.15451	0.16385	0.041855	0.12357	0.10698	0.31747	0.22191	0.1861	0.12506	0.040697	0.11953	0.036364	0.046011	0.067777	0.24114	-2.0187	-2.2875	-2.5708	-2.4167	-2.4979	-2.3521	-2.3646	-2.6292	-2.2604	-2.4583	-2.5917	-2.2	-2.5583	-2.4646	-2.2667	-2.7271	106.487	130.392	179.854	189.246	425.129	141.671	429.443	363.781	355.954	270.648	224.827	258.422	403.386	314.902	204.621	414.007	0.00025776	0.00036482	5.5452e-05	1165.4	2.8894e-06	4.0407e-06	1260.4	243.7	4.4017e-06	2.4561e-06	305.15	83.144	65.886	19.212	3.087e-06	27.099	0.00079162	0.0013822	0.00037066	1152	1.3611e-05	1.5084e-05	1243.6	242.97	1.3985e-05	1.5291e-05	306.45	83.811	66.552	19.732	1.4175e-05	27.732	208.943	204.085	259.760	108.506	248.177	277.203	108.705	116.254	258.590	201.802	115.553	122.620	123.059	129.911	261.454	129.452	-8191	255	
42211.613	1	1	0	0	0.054726	0.25061	0.18846	0.090646	0.088486	0.29669	0.20755	0.26338	0.13325	0.22223	0.069082	0.22974	0.045568	0.082285	0.16646	0.27743	-1.9479	-2.3104	-2.5208	-2.5271	-2.5167	-2.5146	-2.4375	-2.5938	-2.4333	-2.3917	-2.7792	-2.5104	-2.3729	-2.6208	-2.2979	-2.7313	180.382	152.064	280.397	436.877	313.729	235.608	428.340	451.678	341.093	266.984	144.524	111.361	414.790	142.376	433.006	391.038	0.00027203	0.00039543	0.00011669	1170.9	3.6743e-06	3.7686e-06	1270.2	246.57	2.174e-06	2.8361e-06	305.7	83.8	66.285	19.694	3.047e-06	27.525	0.00082499	0.0014072	0.00038426	1156.2	1.4408e-05	1.6467e-05	1253.4	246.02	1.5497e-05	1.6841e-05	309.15	85.347	67.42	20.134	1.5632e-05	28.159	216.734	211.313	222.764	108.533	258.329	252.518	108.589	115.778	245.191	333.624	116.146	122.614	122.874	129.977	193.833	129.237	-8191	255	
42211.711	1	1	0	0	0.18973	0.22961	0.17778	0.22283	0.11982	0.072734	0.27003	0.21404	0.15973	0.13391	0.24185	0.31343	0.053767	0.21623	0.16499	0.26646	-1.9062	-2.2917	-2.6417	-2.3917	-2.4833	-2.6083	-2.5104	-2.7729	-2.3333	-2.3208	-2.5583	-2.4271	-2.5396	-2.7229	-2.3396	-2.5646	458.174	352.388	190.984	386.279	396.645	181.953	390.068	109.593	417.325	111.770	320.524	373.409	420.491	395.538	336.998	391.897	0.00024203	0.0004378	4.145e-05	1176.5	3.546e-06	5.3895e-06	1270.4	246.25	2.6673e-06	3.3828e-06	310.52	84.503	66.589	19.699	1.2972e-06	27.532	0.00087929	0.0015195	0.0004112	1165	1.4934e-05	1.6994e-05	1258.2	246.82	1.5761e-05	1.7174e-05	310.86	85.624	67.814	20.15	1.5772e-05	28.157	212.258	187.515	185.912	108.500	305.820	218.055	108.677	116.422	291.502	241.972	116.016	122.652	122.873	129.808	242.523	129.571	-8191	255	
42211.781	1	1	0	0	0.25009	0.10911	0.19639	0.026255	0.0043965	0.35859	0.23508	0.16349	0.094766	0.40932	0.28809	0.097147	0.15553	0.24698	0.15515	0.36018	-1.9958	-2.3021	-2.3854	-2.5687	-2.4458	-2.5854	-2.4688	-2.5479	-2.5771	-2.1188	-2.7562	-2.325	-2.4604	-2.6375	-2.4479	-2.5917	302.843	202.489	123.916	302.618	329.831	284.247	117.457	407.061	339.473	313.023	135.894	250.717	264.727	450.686	302.887	148.370	0.00027664	0.00014738	4.0757e-05	1180	2.5915e-06	1.8705e-06	1276.6	247.19	1.5708e-06	1.7795e-06	309.52	84.491	66.874	19.604	9.1895e-07	27.262	0.00089698	0.0015331	0.0004193	1167	1.5487e-05	1.6859e-05	1261.9	247.41	1.5973e-05	1.7613e-05	310.16	85.632	67.831	20.159	1.625e-05	28.04	211.566	167.107	263.444	108.541	245.450	275.622	108.708	116.185	277.223	141.130	115.726	122.608	122.482	129.330	260.895	129.790	-8191	255	
42211.902	1	1	0	0	0.047221	0.21455	0.13701	0.095385	0.34292	0.11758	0.35027	0.024949	0.20889	0.16848	0.12546	0.12355	0.044684	0.082031	0.2458	0.14731	-2.0625	-2.0708	-2.6292	-2.4229	-2.2771	-2.6292	-2.2458	-2.6	-2.5875	-2.4229	-2.4917	-2.4896	-2.3292	-2.625	-2.3771	-2.5021	420.908	116.489	375.400	424.906	394.859	180.851	377.737	295.201	154.400	151.609	165.398	367.309	337.671	449.262	339.376	102.208	0.00028497	0.00037501	0.00010363	1181.8	6.0244e-06	3.0083e-06	1275.1	248.09	3.9979e-06	3.23e-06	309.66	84.274	66.909	19.78	3.1628e-06	27.499	0.00091566	0.001542	0.00042686	1167.7	1.5499e-05	1.724e-05	1262.6	247.78	1.5791e-05	1.7086e-05	310.83	85.676	67.9	20.2	1.5912e-05	28.154	219.253	236.223	290.953	108.695	266.754	323.151	108.706	116.109	290.582	277.173	115.925	122.705	123.048	129.688	258.178	129.709	-8191	255	
42211.996	1	1	0	0	0.19191	0.042322	0.17406	0.31343	0.24589	0.12322	0.09658	0.14604	0.13389	0.18913	0.18104	0.23599	0.33508	0.1678	0.11924	0.15044	-2.2896	-2.125	-2.4938	-2.4688	-2.2917	-2.6271	-2.5479	-2.5479	-2.5938	-2.3104	-2.6208	-2.5187	-2.2771	-2.7083	-2.3271	-2.4708	391.163	355.643	239.427	376.508	218.470	367.339	383.472	411.842	393.727	272.483	437.757	114.489	141.698	420.955	124.198	252.361	0.00024646	0.00050523	0.00011431	1176.9	4.4618e-06	7.4214e-06	1280.4	247.34	1.6788e-06	2.3392e-06	309.11	84.791	66.983	19.753	3.7713e-06	27.429	0.00087252	0.0015459	0.00042724	1166.9	1.4776e-05	1.6527e-05	1263.9	247.8	1.5032e-05	1.6828e-05	310.34	85.703	67.823	20.161	1.508e-05	28.143	209.883	167.767	165.459	108.518	249.536	218.573	108.902	116.021	276.875	249.395	115.904	122.305	123.092	129.586	264.636	129.553	-8191	255	
42212.094	1	1	0	0	0.20827	0.14704	0.090541	0.20253	0.12801	0.17202	0.11759	0.097492	0.13682	0.037916	0.27277	0.18956	0.10488	0.30839	0.26574	0.051317	-2.1896	-2.3146	-2.6917	-2.7958	-2.5021	-2.6229	-2.5333	-2.4208	-2.675	-2.3708	-2.5479	-2.7208	-2.1458	-2.5438	-2.4125	-2.3083	173.712	224.677	424.764	419.216	337.778	113.927	432.304	407.443	365.149	280.377	389.155	431.356	229.797	407.191	204.152	324.409	0.00028122	0.00046717	0.00011864	1182.1	4.6635e-06	3.533e-06	1280.9	248.18	3.002e-06	3.1022e-06	310.34	84.913	66.649	19.834	6.9622e-07	27.395	0.00085935	0.0014712	0.00041145	1167.1	1.4675e-05	1.6705e-05	1262.8	247.66	1.4601e-05	1.6272e-05	311.38	85.72	67.75	20.293	1.5535e-05	28.023	211.626	222.648	196.626	108.493	289.961	303.955	108.695	115.951	263.288	242.633	115.418	122.971	122.960	129.703	259.166	129.420	-8191	255	
42212.191	1	1	0	0	0.18398	0.094881	0.18769	0.27474	0.025439	0.31066	0.10617	0.063747	0.20876	0.08101	0.26042	0.16753	0.26008	0.09571	0.16001	0.1645	-1.9917	-2.2958	-2.3812	-2.6604	-2.1979	-2.6188	-2.7833	-2.4521	-2.5854	-2.2958	-2.4771	-2.3333	-2.2896	-2.5687	-2.4667	-2.4146	394.258	281.991	225.807	434.461	330.011	251.860	155.144	121.883	239.926	188.442	426.845	230.742	112.860	372.063	318.072	457.377	0.00026961	0.00042026	6.3085e-05	1186.1	5.3533e-06	3.6017e-06	1277.1	247.36	1.4335e-06	3.0791e-06	311.3	84.557	66.782	19.787	4.1512e-06	27.508	0.00083374	0.0014765	0.00040359	1169.3	1.437e-05	1.6439e-05	1263.3	247.81	1.4665e-05	1.5974e-05	311.92	85.685	67.898	20.276	1.5083e-05	28.244	217.404	137.854	213.677	108.273	245.302	301.646	108.720	116.312	244.389	298.413	115.788	122.641	122.632	129.876	222.829	129.712	-8191	255	
42212.309	1	1	0	0	0.15889	0.10171	0.14901	0.057796	0.26924	0.18315	0.10894	0.15294	0.13961	0.21324	0.16727	0.033252	0.13858	0.10086	0.065745	0.11513	-2.3146	-2.2104	-2.45	-2.7667	-2.4188	-2.6646	-2.7875	-2.1458	-2.6875	-2.4042	-2.5542	-2.6083	-2.4125	-2.6396	-2.5438	-2.225	313.987	341.547	184.275	407.977	365.592	276.802	407.241	276.611	433.757	406.195	342.672	272.908	119.450	123.391	252.094	403.769	0.00028824	0.00049523	0.0001511	1184.8	5.2175e-06	6.2469e-06	1277.2	248.37	2.9203e-06	3.3121e-06	309.92	85.024	67.024	19.842	8.5694e-07	27.74	0.00084782	0.001448	0.00040705	1169.8	1.4286e-05	1.605e-05	1265	248.32	1.4271e-05	1.6394e-05	311.18	85.784	68.06	20.248	1.4914e-05	28.275	214.926	197.839	176.690	108.650	209.841	248.542	108.909	116.554	272.807	306.943	115.640	122.489	123.149	129.660	174.588	129.471	-8191	255	
42212.406	1	1	0	0	0.074738	0.1127	0.038288	0.19025	0.20016	0.10437	0.44399	0.15772	0.1195	0.15295	0.26476	0.17295	0.31311	0.12253	0.083597	0.21709	-2.2667	-2.5333	-2.4042	-2.6375	-2.4646	-2.6042	-2.6771	-2.4896	-2.5729	-2.6854	-2.5625	-2.8937	-2.3917	-2.5687	-2.6	-2.2792	450.083	210.606	457.363	339.876	100.270	229.280	348.600	428.659	123.782	252.640	377.080	412.731	356.467	296.067	210.477	133.847	0.0002827	0.00041729	5.9567e-05	1188.4	3.6518e-06	3.9896e-06	1285	248.07	3.6113e-06	4.5414e-06	309.98	84.734	66.644	19.879	2.341e-06	27.658	0.00083227	0.001479	0.00039531	1171.2	1.4028e-05	1.6367e-05	1267.7	248.15	1.4632e-05	1.5899e-05	312.33	86.099	68.003	20.299	1.4676e-05	28.2	215.800	199.257	153.529	108.510	281.021	259.716	108.514	116.018	280.356	232.513	115.711	122.436	122.515	129.974	217.964	129.438	-8191	255	
42212.480	1	1	0	0	0.19408	0.17433	0.010686	0.099776	0.13696	0.34204	0.36335	0.10126	0.21734	0.31276	0.10109	0.32496	0.08454	0.018663	0.14257	0.15307	-2.2396	-2.3958	-2.2958	-2.8917	-2.2521	-2.5812	-2.9083	-2.275	-2.6708	-2.6354	-2.475	-2.85	-2.3396	-2.4208	-2.6125	-2.3875	356.459	322.066	356.946	355.070	259.743	170.711	126.039	137.146	187.614	164.848	437.883	397.223	419.268	123.504	419.881	378.877	0.00026298	0.00027678	0.00013944	1185.9	3.211e-06	6.8429e-07	1279.8	248.01	1.2557e-06	4.5784e-06	309.97	84.605	66.713	19.969	2.9686e-06	27.39	0.00083401	0.0014424	0.00039103	1171.3	1.4262e-05	1.5953e-05	1265.4	248.39	1.4555e-05	1.5875e-05	311.46	85.819	68.073	20.331	1.405e-05	28.151	214.865	208.101	252.001	108.580	275.188	186.403	108.628	116.163	284.892	254.365	115.708	122.614	122.821	129.793	231.657	129.125	-8191	255	
42212.598	1	1	0	0	0.018273	0.15465	0.26315	0.46122	0.062047	0.05871	0.026571	0.11467	0.30671	0.13183	0.14689	0.16526	0.21419	0.10432	0.21607	0.18535	-2.2458	-2.4375	-2.3354	-2.9188	-2.3271	-2.4604	-2.8729	-2.45	-2.4583	-2.6771	-2.3146	-2.7667	-2.5229	-2.5438	-2.6771	-2.3792	365.548	426.913	155.343	423.152	400.876	167.496	300.228	319.456	296.344	314.406	111.536	371.091	371.315	425.289	216.629	149.571	0.00027102	0.00029053	0.00010371	1186.9	3.7586e-06	5.3681e-06	1282.4	247.29	3.6284e-06	3.6576e-06	310.32	84.563	67.036	19.775	4.6093e-06	27.661	0.00085071	0.0014273	0.00039246	1171.9	1.4309e-05	1.6032e-05	1267.5	247.67	1.4117e-05	1.5771e-05	311.46	85.78	67.848	20.194	1.4461e-05	28.196	211.234	296.393	212.097	108.603	238.324	281.625	108.709	115.980	240.149	249.261	115.736	123.012	123.155	129.664	209.457	129.663	-8191	255	
42212.695	1	1	0	0	0.064034	0.18061	0.15856	0.16997	0.1492	0.21248	0.2743	0.077433	0.13215	0.092466	0.3039	0.28863	0.10856	0.14525	0.048046	0.073368	-2.1146	-2.5042	-2.2854	-2.7021	-2.4062	-2.3625	-2.7979	-2.3688	-2.5604	-2.7604	-2.2729	-2.6958	-2.5646	-2.4229	-2.6813	-2.5083	386.210	424.319	413.690	418.885	252.870	308.982	401.006	163.983	177.653	99.112	416.726	444.409	261.749	449.335	156.129	432.425	0.00028366	0.00040544	3.8388e-05	1187.4	3.2073e-06	4.1788e-06	1279.8	247.38	4.0672e-06	3.3352e-06	310.86	84.619	67.036	19.719	4.2302e-06	27.524	0.00085612	0.0013764	0.00038941	1172.4	1.3985e-05	1.5815e-05	1265.3	248.3	1.417e-05	1.5555e-05	312.04	85.861	68.097	20.188	1.4538e-05	28.193	215.819	148.943	162.071	108.672	290.244	251.039	108.729	115.951	252.029	227.564	115.652	122.721	123.054	129.611	246.487	129.311	-8191	255	
42212.789	1	1	0	0	0.092658	0.054239	0.12153	0.09765	0.0325	0.17954	0.26473	0.33893	0.27729	0.1094	0.078444	0.085994	0.33008	0.12637	0.098863	0.13784	-1.9688	-2.6104	-2.3688	-2.8104	-2.4938	-2.3292	-2.7583	-2.4854	-2.4729	-2.5979	-2.2125	-2.5854	-2.6375	-2.2438	-2.7167	-2.3937	213.229	268.668	422.865	123.970	210.424	453.656	413.393	158.141	130.681	173.998	125.450	209.731	216.479	354.623	328.528	249.243	0.00028403	0.00026303	6.9756e-05	1187.4	4.7423e-06	4.6228e-06	1286.6	248.21	3.4751e-06	2.5556e-06	310.13	84.747	66.974	19.713	3.1006e-06	27.656	0.00083411	0.0013908	0.00039708	1174.2	1.3767e-05	1.5338e-05	1268.1	248.09	1.3856e-05	1.5275e-05	311.4	85.706	67.826	20.182	1.4425e-05	28.175	219.314	132.483	191.247	108.520	248.005	246.490	108.659	116.155	257.433	261.536	115.794	122.630	122.946	130.023	232.633	129.304	-8191	255	
42212.910	1	1	0	0	0.096848	0.058797	0.23283	0.19301	0.097206	0.26413	0.29191	0.11333	0.26682	0.1715	0.26284	0.089551	0.091322	0.12573	0.23819	0.097659	-2.0542	-2.7313	-2.2854	-2.7083	-2.5542	-2.2833	-2.7562	-2.3104	-2.6937	-2.6521	-2.375	-2.6479	-2.3729	-2.125	-2.5896	-2.4813	227.521	167.326	417.754	412.598	237.748	161.085	395.536	135.729	393.590	297.542	138.293	118.070	257.830	327.187	347.327	322.357	0.00026964	0.00023945	3.0017e-05	1186.7	4.7022e-06	3.4814e-06	1285.6	247.8	2.7809e-06	3.0255e-06	313.16	84.734	66.959	19.713	1.735e-06	27.387	0.0008008	0.0013557	0.00038059	1172.8	1.3653e-05	1.5354e-05	1267.3	248	1.4039e-05	1.5583e-05	311.52	85.797	67.865	20.155	1.4448e-05	28.108	210.050	129.186	149.097	108.784	249.342	216.572	108.595	116.059	243.227	187.377	115.451	122.842	122.961	129.784	249.089	129.409	-8191	255	
42213.008	1	1	0	0	0.17794	0.13585	0.15509	0.20175	0.036289	0.17111	0.11589	0.018363	0.091241	0.22328	0.1535	0.029311	0.316	0.25487	0.096631	0.17227	-1.9792	-2.5875	-2.2333	-2.8375	-2.5292	-2.2917	-2.8375	-2.4896	-2.2062	-2.6542	-2.4229	-2.5	-2.4396	-2.225	-2.6229	-2.5229	300.643	330.556	453.940	390.073	316.250	382.386	419.175	369.570	252.487	303.631	400.839	422.690	378.299	455.503	156.853	418.103	0.00025036	0.00018133	3.6656e-05	1185.9	4.7067e-06	4.1353e-06	1283.1	247.92	3.354e-06	2.9438e-06	312.17	84.748	66.592	19.736	4.464e-06	27.557	0.00079764	0.001354	0.00038103	1170.6	1.3271e-05	1.5387e-05	1265.2	247.85	1.3884e-05	1.5629e-05	311.58	85.682	67.705	20.154	1.4519e-05	28.171	208.049	186.997	173.156	108.559	259.868	279.981	108.817	116.245	228.803	277.350	115.721	123.083	123.094	129.508	263.873	129.537	-8191	255	
42213.078	1	1	0	0	0.050228	0.16771	0.39609	0.17613	0.28994	0.24128	0.29488	0.24454	0.076521	0.27231	0.48754	0.055537	0.21497	0.17001	0.3178	0.15863	-1.7979	-2.5146	-2.375	-2.5958	-2.7021	-2.3708	-2.6333	-2.7313	-2.3083	-2.5438	-2.5312	-2.3563	-2.7104	-2.3583	-2.5396	-2.5687	174.555	327.730	194.399	162.840	110.326	438.856	403.344	423.223	279.276	313.418	369.506	372.693	297.518	445.552	227.158	241.246	0.00026221	0.00024276	0.00017488	1183.7	5.2249e-06	2.2733e-06	1284.3	247.14	5.4047e-06	3.1103e-06	308.81	84.262	67.218	19.755	1.6007e-06	27.339	0.00078563	0.0013283	0.00037038	1169.7	1.3156e-05	1.519e-05	1264.8	247.76	1.4019e-05	1.4921e-05	310.94	85.459	67.766	20.155	1.3294e-05	28.095	214.300	160.877	196.014	108.637	268.670	167.136	108.436	116.158	271.588	224.914	115.546	122.760	123.024	129.660	204.793	129.176	-8191	255	
42213.199	1	1	0	0	0.31498	0.22142	0.16298	0.19713	0.36087	0.21766	0.24277	0.31703	0.1546	0.0363	0.13358	0.2279	0.26225	0.062561	0.083933	0.25642	-1.8833	-2.6458	-2.5083	-2.3708	-2.7208	-2.3937	-2.7729	-2.6333	-2.225	-2.5708	-2.4208	-2.2333	-2.6063	-2.1479	-2.4667	-2.6292	236.345	225.838	271.865	320.180	114.367	336.790	114.941	438.540	276.235	149.173	137.489	113.750	108.406	392.012	415.297	132.028	0.00024611	0.00035506	8.8229e-05	1184.7	4.5497e-06	3.7912e-06	1273.4	247.86	3.2814e-06	3.6327e-06	310.39	84.44	66.882	19.7	4.1565e-06	27.55	0.00079618	0.00133	0.00036586	1171.6	1.3052e-05	1.5619e-05	1264.2	247.84	1.3348e-05	1.5333e-05	311.38	85.5	67.805	20.102	1.382e-05	28.146	214.136	201.992	163.671	108.630	272.609	294.625	108.833	115.860	270.119	208.012	115.981	122.650	123.278	129.598	287.543	129.641	-8191	255	
42213.293	1	1	0	0	0.27277	0.074367	0.10313	0.3497	0.32883	0.12398	0.25494	0.12258	0.24887	0.11913	0.1428	0.094919	0.16707	0.171	0.11042	0.064565	-1.9229	-2.6688	-2.4708	-2.3854	-2.65	-2.2687	-2.4583	-2.5125	-2.3396	-2.7104	-2.525	-2.3917	-2.6917	-2.4458	-2.5104	-2.6771	417.363	346.229	284.524	449.893	169.744	235.664	382.244	444.234	147.884	434.549	397.045	208.583	163.471	384.918	262.051	223.274	0.00024654	0.00021837	6.5931e-05	1188.1	4.8672e-06	2.4784e-06	1281.2	248.6	3.7062e-06	4.1218e-06	309.99	84.623	67.046	19.711	2.4335e-06	27.49	0.00079944	0.0013459	0.00037277	1171.2	1.3188e-05	1.4659e-05	1265.8	248.36	1.3523e-05	1.4839e-05	311.29	85.645	67.697	20.152	1.3949e-05	28.097	212.094	167.320	191.685	108.467	271.704	268.448	108.729	116.098	278.681	227.310	115.840	122.459	122.839	129.919	199.446	129.261	-8191	255	
42213.391	1	1	0	0	0.15356	0.22193	0.078858	0.1533	0.11359	0.34803	0.25074	0.23902	0.074457	0.13716	0.22776	0.25728	0.24456	0.29842	0.064815	0.35731	-1.8188	-2.5708	-2.5	-2.4437	-2.6521	-2.3937	-2.4958	-2.825	-2.25	-2.6312	-2.6292	-2.1146	-2.5833	-2.4167	-2.2729	-2.4688	102.975	444.106	116.250	380.420	390.009	172.628	404.905	125.038	344.292	361.714	287.558	269.224	283.154	162.587	342.513	453.309	0.00023105	0.00035105	9.7393e-05	1188.3	1.416e-06	2.5276e-06	1280.9	247.07	4.0749e-06	4.7304e-06	310.7	84.577	66.389	19.777	2.5747e-06	27.347	0.00079669	0.0013283	0.00036875	1171.1	1.2766e-05	1.4633e-05	1265.1	247.07	1.3683e-05	1.4755e-05	310.83	85.512	67.454	20.165	1.3707e-05	28.048	215.223	152.396	182.398	108.628	299.428	147.073	108.736	116.170	243.321	247.397	115.709	122.668	122.990	130.031	291.234	129.676	-8191	255	
42213.484	1	1	0	0	0.15253	0.081507	0.12729	0.071892	0.22742	0.18991	0.29846	0.23582	0.13081	0.12788	0.18964	0.26443	0.079436	0.21915	0.17026	0.19282	-1.9667	-2.5292	-2.5542	-2.3688	-2.575	-2.4375	-2.5146	-2.7062	-2.1437	-2.4167	-2.5292	-2.2083	-2.6375	-2.3521	-2.3854	-2.6063	193.345	261.037	289.929	192.483	103.084	302.213	423.499	320.997	144.522	214.650	292.628	149.805	454.942	347.149	213.757	236.501	0.00028064	0.00062347	0.00012208	1188.2	4.2297e-06	2.03e-06	1278.4	248.13	4.1647e-06	1.6694e-06	311.69	84.202	66.626	19.581	8.3334e-07	27.409	0.0007955	0.0013126	0.00036522	1172.1	1.2475e-05	1.4299e-05	1264.6	247.5	1.3354e-05	1.3694e-05	311.17	85.514	67.486	20.107	1.3384e-05	27.995	215.701	189.718	226.521	108.467	270.717	328.237	108.778	116.398	244.721	227.152	115.668	122.724	122.757	129.909	109.565	129.522	-8191	255	
42213.605	1	1	0	0	0.11223	0.19394	0.23308	0.21308	0.12296	0.10655	0.12216	0.10824	0.30499	0.09501	0.24973	0.056736	0.10505	0.2178	0.22649	0.11914	-1.7875	-2.3604	-2.5375	-2.2271	-2.2667	-2.4479	-2.3792	-2.7458	-2.3125	-2.4292	-2.5021	-2.3229	-2.3792	-2.3875	-2.2313	-2.8104	116.217	444.459	365.934	357.245	448.396	107.219	396.034	354.629	120.410	438.014	112.258	105.841	209.645	144.144	354.165	176.389	0.00025906	0.00012069	5.9621e-05	1184.5	3.5907e-06	5.1346e-06	1284.1	248.31	3.5585e-06	2.2364e-06	309.57	84.521	67.221	19.638	2.7555e-06	27.443	0.00074368	0.0012751	0.00035911	1169.9	1.2868e-05	1.419e-05	1265.5	247.74	1.3032e-05	1.4739e-05	310.66	85.588	67.603	20.055	1.3038e-05	28.014	215.518	229.630	159.807	108.687	276.376	261.616	108.771	116.095	270.732	255.274	115.568	122.678	123.027	129.953	263.309	129.145	-8191	255	
42213.703	1	1	0	0	0.11267	0.29102	0.11319	0.10427	0.4063	0.22197	0.30784	0.083809	0.20145	0.19387	0.077317	0.10384	0.20751	0.42838	0.23224	0.18383	-2.0021	-2.3667	-2.7729	-2.3937	-2.5042	-2.5833	-2.2979	-2.7729	-2.4521	-2.2396	-2.7146	-2.4062	-2.5021	-2.5687	-2.1292	-2.5146	301.569	171.263	254.416	398.467	429.272	302.975	388.628	396.951	146.395	116.508	241.627	385.308	288.308	435.376	141.261	183.054	0.00027061	0.00014725	4.9114e-05	1182.5	5.273e-06	3.6912e-06	1282.9	247.89	5.2449e-06	1.096e-06	309.7	84.594	66.887	19.621	2.1444e-06	27.172	0.00076964	0.0013036	0.000353	1169.3	1.2597e-05	1.3966e-05	1263.6	247.77	1.3046e-05	1.394e-05	310.07	85.283	67.298	20.013	1.3047e-05	27.908	213.380	225.725	235.035	108.456	277.781	236.511	108.700	115.863	256.633	192.645	115.266	122.838	123.361	130.075	247.687	129.493	-8191	255	
42213.773	1	1	0	0	0.18129	0.20238	0.074971	0.22458	0.11903	0.23788	0.084616	0.047492	0.082513	0.080315	0.075528	0.22007	0.11832	0.10232	0.23425	0.24668	-1.9229	-2.2667	-2.5687	-2.525	-2.3729	-2.6312	-2.4021	-2.65	-2.5646	-2.1813	-2.4896	-2.3708	-2.4396	-2.5	-2.4021	-2.4625	440.295	443.282	453.242	421.410	190.507	145.765	384.972	412.710	186.135	296.199	144.760	443.030	187.820	194.149	213.169	330.740	0.00024998	0.00039208	6.7826e-05	1186.5	3.5969e-06	3.492e-06	1278.3	247.33	3.3853e-06	4.3129e-06	308.83	83.852	66.812	19.671	3.7628e-06	27.396	0.00074998	0.0012691	0.00035224	1171.8	1.2595e-05	1.3983e-05	1263	247.16	1.2868e-05	1.4418e-05	310.26	85.252	67.482	20.012	1.3302e-05	27.999	218.016	183.090	189.586	108.458	254.327	254.547	108.649	116.189	265.057	272.294	115.760	122.617	123.221	129.582	238.337	129.213	-8191	255	
42213.871	1	1	0	0	0.11813	0.19353	0.11275	0.20327	0.22304	0.2242	0.45489	0.14041	0.11204	0.21232	0.018934	0.021536	0.087019	0.15461	0.39218	0.16801	-1.9937	-2.2021	-2.5146	-2.3208	-2.2938	-2.7271	-2.3458	-2.4708	-2.3917	-2.1979	-2.6	-2.3542	-2.3875	-2.7667	-2.2854	-2.6312	153.540	425.113	116.833	417.980	255.683	193.475	372.379	405.145	383.231	429.058	424.894	143.946	319.299	301.857	164.153	455.384	0.00027476	0.00022911	9.2764e-05	1181.8	4.2485e-06	2.7596e-06	1280.6	247.48	1.7564e-06	1.1e-06	310.9	84.597	66.79	19.686	3.8061e-06	27.383	0.00075675	0.0012583	0.00035921	1170.7	1.2665e-05	1.3912e-05	1264.4	246.78	1.269e-05	1.4736e-05	310.45	85.532	67.506	20.071	1.3353e-05	28.018	215.456	168.063	198.760	108.441	286.041	342.269	108.558	116.008	222.341	215.393	115.780	122.676	122.856	129.914	214.174	129.563	-8191	255	
42213.992	1	1	0	0	0.25707	0.10458	0.089824	0.28954	0.19786	0.32094	0.33444	0.066793	0.093828	0.35691	0.096757	0.097973	0.157	0.1824	0.088972	0.14496	-2.05	-2.3563	-2.6625	-2.625	-2.425	-2.8771	-2.5479	-2.5687	-2.6312	-2.15	-2.7229	-2.5208	-2.4375	-2.5958	-2.2479	-2.4125	274.458	154.065	144.107	415.297	335.618	216.198	417.780	186.060	184.937	248.338	125.177	145.474	107.148	126.004	274.212	358.639	0.0002815	0.00032919	0.00013919	1184.3	6.077e-06	1.8471e-06	1278.3	248.33	1.9201e-06	3.3052e-06	310.27	84.176	66.312	19.58	3.3561e-06	27.308	0.00075797	0.0012863	0.00036043	1171	1.2768e-05	1.4079e-05	1263.3	247.45	1.3318e-05	1.4388e-05	310.79	85.187	67.197	20.032	1.3689e-05	27.973	212.116	169.055	218.952	108.610	265.094	265.822	108.756	116.467	259.321	186.664	115.737	122.467	122.884	129.698	244.320	129.409	-8191	255	
42214.090	1	1	0	0	0.097234	0.11191	0.062232	0.10611	0.12244	0.087279	0.048017	0.12852	0.061705	0.15151	0.36708	0.26095	0.14873	0.099736	0.076483	0.29131	-2.2188	-2.2396	-2.5479	-2.6042	-2.3042	-2.6708	-2.5	-2.3458	-2.7771	-2.2625	-2.5792	-2.5646	-2.3146	-2.6292	-2.3812	-2.4396	359.386	212.069	194.197	326.851	315.700	318.938	321.974	393.164	271.858	363.178	217.692	137.927	271.018	230.921	265.559	413.794	0.00028128	0.00044537	9.2482e-05	1183.9	4.6589e-06	4.9301e-06	1280.7	248.59	4.2619e-06	3.3097e-06	309.08	84.985	66.342	19.601	2.0656e-06	27.516	0.00077389	0.00128	0.00035692	1169.7	1.2691e-05	1.4319e-05	1264.5	247.45	1.3068e-05	1.4829e-05	309.89	85.607	67.514	20.008	1.2944e-05	28.059	210.666	216.808	179.486	108.635	256.976	256.548	108.684	116.226	250.200	233.853	115.737	122.986	122.994	129.884	296.110	129.262	-8191	255	
#DATA ENDS
