BOXY.EXE: ISS Imagent and Oximeter Data Acquisition Program Version 0.80
Ascii Record File

#ACQ INFORMATION
2  Detector Channels 
16  External MUX Channels 
1  Auxiliary Channels 
5000  Waveform (CCF) Frequency (Hz)
1  Waveforms Skipped 
30  Waveforms Averaged 
1  Cycles Averaged 
16  Acquisitions per Waveform 
10.0806  Updata Rate (Hz) 

#FILE INFORMATION
TRUE -- External MUX Channel results are PARSED.
FALSE -- AC DC and Phase are NOT grouped.
TRUE -- Companion Program Settings File CREATED.
FALSE -- AC data not excluded
FALSE -- DC data not excluded
FALSE -- Phase data not excluded
FALSE -- Auxillary Chn. data not excluded
Tab delimiters

#CALIBRATION STATE
TRUE -- Waveform Calibration Values APPLIED.


#AUX CALIBRATION VALUES
Val Type	aux-1	

Term	1.0000e+00	
Factor	0.0000e+00	


#WF CALIBRATION VALUES
A = Detector Channel
Val Type	A-AC1	A-AC2	A-AC3	A-AC4	A-AC5	A-AC6	A-AC7	A-AC8	A-AC9	A-AC10	A-AC11	A-AC12	A-AC13	A-AC14	A-AC15	A-AC16	A-DC1	A-DC2	A-DC3	A-DC4	A-DC5	A-DC6	A-DC7	A-DC8	A-DC9	A-DC10	A-DC11	A-DC12	A-DC13	A-DC14	A-DC15	A-DC16	A-Ph1	A-Ph2	A-Ph3	A-Ph4	A-Ph5	A-Ph6	A-Ph7	A-Ph8	A-Ph9	A-Ph10	A-Ph11	A-Ph12	A-Ph13	A-Ph14	A-Ph15	A-Ph16	

Term	0.00000e+00	0.00000e+00	0.00000e+00	0.00000e+00	0.00000e+00	0.00000e+00	0.00000e+00	0.00000e+00	0.00000e+00	0.00000e+00	0.00000e+00	0.00000e+00	0.00000e+00	0.00000e+00	0.00000e+00	0.00000e+00	0.00000e+00	0.00000e+00	0.00000e+00	0.00000e+00	0.00000e+00	0.00000e+00	0.00000e+00	0.00000e+00	0.00000e+00	0.00000e+00	0.00000e+00	0.00000e+00	0.00000e+00	0.00000e+00	0.00000e+00	0.00000e+00	0.00000e+00	0.00000e+00	0.00000e+00	0.00000e+00	0.00000e+00	0.00000e+00	0.00000e+00	0.00000e+00	0.00000e+00	0.00000e+00	0.00000e+00	0.00000e+00	0.00000e+00	0.00000e+00	0.00000e+00	0.00000e+00	
Factor	1.00000e+00	1.00000e+00	1.00000e+00	1.00000e+00	1.00000e+00	1.00000e+00	1.00000e+00	1.00000e+00	1.00000e+00	1.00000e+00	1.00000e+00	1.00000e+00	1.00000e+00	1.00000e+00	1.00000e+00	1.00000e+00	1.00000e+00	1.00000e+00	1.00000e+00	1.00000e+00	1.00000e+00	1.00000e+00	1.00000e+00	1.00000e+00	1.00000e+00	1.00000e+00	1.00000e+00	1.00000e+00	1.00000e+00	1.00000e+00	1.00000e+00	1.00000e+00	X	X	X	X	X	X	X	X	X	X	X	X	X	X	X	X	

B = Detector Channel
Val Type	B-AC1	B-AC2	B-AC3	B-AC4	B-AC5	B-AC6	B-AC7	B-AC8	B-AC9	B-AC10	B-AC11	B-AC12	B-AC13	B-AC14	B-AC15	B-AC16	B-DC1	B-DC2	B-DC3	B-DC4	B-DC5	B-DC6	B-DC7	B-DC8	B-DC9	B-DC10	B-DC11	B-DC12	B-DC13	B-DC14	B-DC15	B-DC16	B-Ph1	B-Ph2	B-Ph3	B-Ph4	B-Ph5	B-Ph6	B-Ph7	B-Ph8	B-Ph9	B-Ph10	B-Ph11	B-Ph12	B-Ph13	B-Ph14	B-Ph15	B-Ph16	

Term	0.00000e+00	0.00000e+00	0.00000e+00	0.00000e+00	0.00000e+00	0.00000e+00	0.00000e+00	0.00000e+00	0.00000e+00	0.00000e+00	0.00000e+00	0.00000e+00	0.00000e+00	0.00000e+00	0.00000e+00	0.00000e+00	0.00000e+00	0.00000e+00	0.00000e+00	0.00000e+00	0.00000e+00	0.00000e+00	0.00000e+00	0.00000e+00	0.00000e+00	0.00000e+00	0.00000e+00	0.00000e+00	0.00000e+00	0.00000e+00	0.00000e+00	0.00000e+00	-9.39495e+01	-1.35721e+02	-1.25820e+02	-1.82069e+02	-5.43409e+01	-6.46157e+01	-1.59155e+02	-1.62015e+02	-5.88718e+01	-7.21298e+01	-1.73297e+02	-1.72413e+02	-1.88332e+02	-1.77837e+02	-6.17040e+01	-1.50152e+02	
Factor	2.01488e-05	2.23168e-04	6.04090e-05	1.68445e-01	1.69383e-06	2.40167e-06	2.07806e-01	7.28711e-02	1.55576e-06	2.23671e-06	1.33238e-01	3.79796e-02	4.46465e-02	1.08739e-02	1.81721e-06	1.57391e-02	1.63297e-05	3.41947e-05	9.55667e-06	8.38009e-02	3.19477e-07	3.86555e-07	9.64301e-02	3.65082e-02	3.37376e-07	3.84469e-07	6.46773e-02	1.85256e-02	2.24160e-02	5.48690e-03	3.49829e-07	7.69830e-03	X	X	X	X	X	X	X	X	X	X	X	X	X	X	X	X	



#DISTANCE SETTINGS
A = Detector Channel
A-1	A-2	A-3	A-4	A-5	A-6	A-7	A-8	A-9	A-10	A-11	A-12	A-13	A-14	A-15	A-16	

2.5000e+00	3.0000e+00	2.5000e+00	3.0000e+00	2.0000e+00	3.0000e+00	1.5000e+00	3.0000e+00	3.0000e+00	3.0000e+00	3.0000e+00	3.0000e+00	3.0000e+00	3.0000e+00	1.5000e+00	3.0000e+00	

B = Detector Channel
B-1	B-2	B-3	B-4	B-5	B-6	B-7	B-8	B-9	B-10	B-11	B-12	B-13	B-14	B-15	B-16	

1.0000e+01	1.0000e+01	1.0000e+01	1.4400e+00	1.0000e+01	1.0000e+01	1.5100e+00	1.9400e+00	1.0000e+01	1.0000e+01	1.9900e+00	2.4900e+00	2.4100e+00	2.9000e+00	1.0000e+01	2.9800e+00	




#DATA BEGINS
time	group	step	mark	flag	A-AC1	A-AC2	A-AC3	A-AC4	A-AC5	A-AC6	A-AC7	A-AC8	A-AC9	A-AC10	A-AC11	A-AC12	A-AC13	A-AC14	A-AC15	A-AC16	A-DC1	A-DC2	A-DC3	A-DC4	A-DC5	A-DC6	A-DC7	A-DC8	A-DC9	A-DC10	A-DC11	A-DC12	A-DC13	A-DC14	A-DC15	A-DC16	A-Ph1	A-Ph2	A-Ph3	A-Ph4	A-Ph5	A-Ph6	A-Ph7	A-Ph8	A-Ph9	A-Ph10	A-Ph11	A-Ph12	A-Ph13	A-Ph14	A-Ph15	A-Ph16	B-AC1	B-AC2	B-AC3	B-AC4	B-AC5	B-AC6	B-AC7	B-AC8	B-AC9	B-AC10	B-AC11	B-AC12	B-AC13	B-AC14	B-AC15	B-AC16	B-DC1	B-DC2	B-DC3	B-DC4	B-DC5	B-DC6	B-DC7	B-DC8	B-DC9	B-DC10	B-DC11	B-DC12	B-DC13	B-DC14	B-DC15	B-DC16	B-Ph1	B-Ph2	B-Ph3	B-Ph4	B-Ph5	B-Ph6	B-Ph7	B-Ph8	B-Ph9	B-Ph10	B-Ph11	B-Ph12	B-Ph13	B-Ph14	B-Ph15	B-Ph16	aux-1	digaux	

42117.668	1	1	0	256	0.18352	0.39351	0.18627	0.38386	0.17063	0.12695	0.2773	0.10114	0.092238	0.20904	0.069514	0.13256	0.26937	0.4008	0.073697	0.10964	-2.3063	-2.4688	-2.3083	-3.0354	-2.3312	-2.4542	-2.9708	-2.4625	-2.5708	-2.5208	-2.425	-2.8271	-2.5687	-2.4938	-2.5687	-2.4229	272.580	214.022	495.018	503.290	275.445	312.265	530.406	252.549	313.648	220.668	255.970	408.421	517.883	511.141	308.066	442.782	0.00046982	0.00046629	0.00013891	1463.6	4.9265e-06	6.1037e-06	1441.6	388.23	3.8675e-06	4.7697e-06	441.24	145.7	126.93	43.758	3.5072e-06	54.158	0.00051622	0.00049654	0.00013614	1478.6	5.5216e-06	5.3433e-06	1460.3	394.24	5.5456e-06	5.256e-06	448.64	149.25	129.94	44.735	5.4114e-06	55.399	232.643	263.087	269.243	190.158	327.717	330.094	190.215	194.894	314.138	306.410	194.566	198.590	199.013	203.747	331.141	203.126	-8191	255	
42117.738	1	1	0	0	0.068274	0.23759	0.21245	0.22044	0.08493	0.054853	0.45505	0.092506	0.06365	0.088283	0.061894	0.14033	0.42698	0.020227	0.092035	0.14228	-2.1604	-2.6063	-2.4042	-2.8042	-2.325	-2.3354	-2.8396	-2.4437	-2.55	-2.6771	-2.1646	-2.8792	-2.6271	-2.5375	-2.8333	-2.4896	214.985	315.249	322.653	483.355	432.526	258.780	481.510	498.647	437.140	375.968	516.324	455.079	474.679	180.231	354.897	244.263	0.00047329	0.00060136	0.00013668	1464	3.5445e-06	5.0651e-06	1447.6	388.4	4.0215e-06	4.5548e-06	442.51	146.05	127.92	43.832	5.1304e-06	53.995	0.00051167	0.0004929	0.00013646	1477.6	5.3905e-06	5.3047e-06	1463	394.44	5.6602e-06	5.3537e-06	448.74	149.62	130.41	44.792	5.2088e-06	55.398	231.596	269.124	254.903	190.265	301.082	348.372	190.023	194.719	310.618	333.814	194.294	198.405	198.957	203.759	317.060	202.739	-8191	255	
42117.836	1	1	0	0	0.11958	0.10043	0.095361	0.036684	0.28123	0.20557	0.29191	0.26228	0.059724	0.17957	0.1477	0.043608	0.20962	0.11429	0.21977	0.55068	-1.9229	-2.6063	-2.2208	-2.8271	-2.6	-2.6021	-2.9354	-2.5521	-2.4833	-2.7396	-2.3396	-2.7417	-2.7021	-2.3875	-2.5979	-2.5833	487.868	465.442	465.933	327.769	300.038	381.059	430.655	489.904	504.405	461.583	480.272	527.106	535.722	211.911	457.467	458.978	0.00045855	0.00055549	0.00012567	1462	3.6505e-06	3.8531e-06	1445.1	387.84	4.7404e-06	3.5762e-06	442.09	146.15	127.4	43.946	4.9206e-06	54	0.0005083	0.00047117	0.00013296	1478.1	5.4145e-06	5.3457e-06	1460.9	393.89	5.5702e-06	5.2064e-06	448.33	149.65	130.46	44.764	5.1017e-06	55.42	234.285	269.212	268.430	190.091	311.100	331.411	190.064	194.863	315.396	339.084	194.258	198.487	198.942	203.604	329.270	202.843	-8191	255	
42117.953	1	1	0	0	0.090419	0.23975	0.24639	0.19698	0.20112	0.086464	0.27172	0.14939	0.06344	0.18313	0.16337	0.10791	0.11567	0.20269	0.10029	0.04777	-2.0521	-2.5771	-2.2833	-2.8896	-2.7667	-2.2687	-2.8083	-2.6917	-2.4396	-2.975	-2.3438	-2.7	-2.6437	-2.4542	-2.7062	-2.6688	508.863	283.278	417.250	496.290	199.970	312.121	503.158	461.194	269.618	526.624	226.163	193.547	431.378	222.497	242.241	291.574	0.00046362	0.00055049	0.00016455	1462.9	4.9476e-06	6.2819e-06	1446.6	387.88	4.9014e-06	4.8056e-06	444.57	146.83	127.9	43.663	4.1645e-06	54.245	0.00049714	0.00046918	0.00013375	1478.2	5.3752e-06	5.3441e-06	1461.2	393.97	5.6229e-06	5.1487e-06	449.5	149.97	130.62	44.811	5.2431e-06	55.482	230.542	265.010	267.093	190.207	324.693	340.520	190.099	194.683	323.879	330.807	194.263	198.376	199.030	203.684	321.819	202.991	-8191	255	
42118.051	1	1	0	0	0.1773	0.1652	0.43295	0.15768	0.08738	0.1912	0.32943	0.1774	0.17983	0.1355	0.3545	0.16923	0.33771	0.10667	0.16735	0.1127	-1.8188	-2.6479	-2.3542	-2.675	-2.7729	-2.3521	-2.7625	-2.6	-2.3104	-2.7333	-2.4437	-2.6833	-2.6417	-2.4167	-2.7333	-2.6229	320.983	346.428	189.190	505.252	227.132	293.063	469.295	481.079	277.297	389.467	230.779	320.285	369.572	209.741	198.038	500.260	0.00048457	0.00046742	0.00014915	1467.3	4.1597e-06	4.9198e-06	1447.1	386.79	5.6016e-06	5.3134e-06	443.29	146.36	127.67	44.036	6.2359e-06	53.94	0.00050915	0.00045493	0.00013517	1479.7	5.3945e-06	5.332e-06	1463.9	394.27	5.604e-06	5.1695e-06	448.81	149.61	130.58	44.92	5.4566e-06	55.456	231.131	259.407	285.896	190.154	313.863	325.065	190.049	194.767	315.128	327.916	194.305	198.565	198.970	203.618	332.209	203.161	-8191	255	
42118.148	1	1	0	0	0.10248	0.10891	0.21314	0.44881	0.10999	0.1456	0.15789	0.35635	0.24304	0.078725	0.060331	0.10882	0.096199	0.34801	0.11438	0.21681	-1.9979	-2.6813	-2.4146	-2.6562	-2.6354	-2.5083	-2.7667	-2.7083	-2.5375	-2.8521	-2.4833	-2.525	-2.9458	-2.4417	-2.6083	-2.6688	392.932	329.991	269.954	535.952	187.155	409.098	465.524	499.247	195.738	189.650	366.874	443.677	533.787	521.586	400.493	409.699	0.0004896	0.00032552	0.00015531	1466.9	4.793e-06	6.4133e-06	1447.3	387.93	3.5758e-06	4.0583e-06	440.55	146.91	127.86	43.948	5.215e-06	54.05	0.00052575	0.00046832	0.0001369	1479.5	5.4844e-06	5.3425e-06	1462.9	394.92	5.4282e-06	5.0221e-06	448.48	150.09	130.87	44.968	5.3961e-06	55.457	231.670	264.364	266.180	190.225	325.297	330.383	190.177	194.857	334.213	316.852	194.213	198.447	198.928	203.807	324.439	203.216	-8191	255	
42118.242	1	1	0	0	0.17579	0.20441	0.11216	0.22599	0.15275	0.24612	0.48094	0.079733	0.073	0.093581	0.1158	0.27789	0.29835	0.28436	0.081378	0.17282	-1.7646	-2.6646	-2.4458	-2.4646	-2.6229	-2.425	-2.6813	-2.7917	-2.2938	-2.5438	-2.5979	-2.5812	-2.675	-2.4708	-2.3833	-2.6479	227.909	369.993	523.652	476.167	459.595	373.273	458.354	535.916	284.546	307.917	303.716	534.443	498.832	461.404	490.203	449.086	0.00049452	0.00061015	0.00017681	1465.3	4.5943e-06	7.6692e-06	1445.6	388.19	5.5134e-06	6.0581e-06	442.01	145.44	127.34	43.992	3.786e-06	54.329	0.00051793	0.00047253	0.0001373	1479	5.3033e-06	5.3079e-06	1462.3	394.12	5.5224e-06	5.1263e-06	448.98	149.71	130.51	44.955	5.5215e-06	55.63	232.843	266.847	275.992	190.349	316.931	328.353	190.081	194.641	311.086	329.957	194.390	198.442	199.271	203.884	314.240	203.134	-8191	255	
42118.340	1	1	0	0	0.25723	0.10478	0.27478	0.41662	0.15959	0.34758	0.059668	0.086262	0.15526	0.1817	0.31699	0.13631	0.21544	0.054252	0.065708	0.13127	-1.9229	-2.5104	-2.5083	-2.5958	-2.725	-2.5271	-2.9396	-2.7646	-2.2562	-2.6604	-2.5896	-2.4708	-2.7729	-2.6417	-2.5396	-2.8375	273.526	240.340	244.542	504.236	204.472	266.591	323.583	350.697	371.271	313.268	436.643	498.357	450.623	184.280	267.445	401.236	0.00049812	0.00063119	0.00013413	1465	3.0227e-06	5.5514e-06	1447.1	388.22	4.8642e-06	4.0205e-06	440.47	147.5	128.39	44.19	5.025e-06	54.266	0.00052558	0.00047452	0.0001374	1480.1	5.5236e-06	5.4794e-06	1465.2	394.82	5.5168e-06	5.3409e-06	449.15	150.91	131.6	45.206	5.5441e-06	55.743	234.710	252.092	261.580	190.253	304.317	325.324	190.055	194.685	319.674	326.749	194.222	198.555	199.127	203.607	323.656	203.281	-8191	255	
42118.438	1	1	0	0	0.11472	0.20407	0.11739	0.20454	0.16605	0.099142	0.09417	0.17772	0.28131	0.29062	0.23857	0.023187	0.092596	0.14167	0.045721	0.082483	-1.7958	-2.4729	-2.3771	-2.5479	-2.7062	-2.5187	-2.5375	-2.7625	-2.3833	-2.5208	-2.8208	-2.3646	-2.7687	-2.7021	-2.5354	-2.775	353.174	258.002	281.224	511.447	307.830	232.838	505.688	483.808	533.888	193.191	456.794	481.978	410.366	488.445	468.157	469.185	0.00046238	0.00047094	0.00014781	1470.3	4.3567e-06	5.5599e-06	1449.6	388.32	4.0122e-06	4.9189e-06	443.74	148.37	129.13	44.445	5.0247e-06	54.885	0.00051602	0.00049632	0.00013718	1483	5.32e-06	5.3264e-06	1466	395.16	5.3924e-06	5.1455e-06	450.18	151.84	132.06	45.428	5.6337e-06	56.039	233.057	256.202	264.028	190.192	316.421	335.591	190.142	194.668	323.575	318.325	194.211	198.567	199.166	203.528	328.638	202.992	-8191	255	
42118.531	1	1	0	0	0.074875	0.24502	0.30786	0.20999	0.14348	0.23991	0.42129	0.24178	0.1051	0.12199	0.11307	0.20216	0.32333	0.40426	0.12499	0.042446	-2.0146	-2.4583	-2.4792	-2.5271	-2.7292	-2.4562	-2.45	-2.7417	-2.3604	-2.5792	-2.6437	-2.2917	-2.5833	-2.5062	-2.2458	-2.8271	289.291	184.665	285.326	477.172	392.925	536.377	498.707	471.950	410.508	532.288	225.553	335.759	182.196	530.908	476.310	203.298	0.00047042	0.00049363	0.00015268	1468.7	3.297e-06	5.1094e-06	1457.7	390.23	6.1228e-06	2.1462e-06	443.47	148.48	130.19	44.608	5.1634e-06	54.9	0.00051456	0.00049226	0.0001413	1484.8	5.5063e-06	5.5438e-06	1472.2	396.4	5.7466e-06	5.3569e-06	451.12	152.35	132.99	45.659	5.7948e-06	56.278	232.371	254.983	275.431	190.322	304.736	329.687	190.064	194.699	311.622	316.163	194.208	198.383	199.007	203.556	312.245	203.229	-8191	255	
42118.629	1	1	0	0	0.15292	0.06751	0.0446	0.24353	0.012017	0.18466	0.20318	0.14872	0.10757	0.072206	0.14613	0.12304	0.24697	0.28002	0.21614	0.2109	-2.025	-2.4125	-2.6083	-2.5083	-2.5021	-2.5792	-2.5938	-2.8292	-2.5229	-2.3958	-2.6604	-2.3229	-2.6396	-2.6417	-2.2438	-2.5563	324.991	282.742	197.413	463.666	500.272	521.558	524.591	513.690	317.780	338.167	460.899	486.519	196.752	471.373	179.978	177.654	0.00049282	0.00039096	0.00014644	1466.5	2.877e-06	4.3331e-06	1450.2	390.8	5.5754e-06	5.2031e-06	443.87	148.46	129.51	44.385	4.3988e-06	54.642	0.00052391	0.00050601	0.00013746	1484.3	5.716e-06	5.659e-06	1471.5	396.39	5.838e-06	5.6661e-06	451.28	151.81	132.49	45.446	5.4194e-06	55.968	233.309	266.070	267.743	190.389	316.573	355.510	190.235	194.624	315.215	342.363	194.252	198.225	198.883	203.692	315.894	203.125	-8191	255	
42118.746	1	1	0	0	0.018738	0.024651	0.14599	0.33325	0.13895	0.099355	0.25619	0.2011	0.08395	0.042653	0.2452	0.12317	0.081764	0.097474	0.081314	0.21487	-2.0229	-2.4313	-2.6375	-2.4646	-2.6458	-2.7417	-2.5812	-2.725	-2.4417	-2.35	-2.7146	-2.5458	-2.5812	-2.8187	-2.4521	-2.7542	306.475	307.611	320.915	440.890	289.321	445.292	501.931	506.333	209.965	274.490	523.258	385.900	498.215	213.535	302.847	463.869	0.00050028	0.00057585	9.572e-05	1471.1	3.8679e-06	6.408e-06	1454.4	389.4	4.2052e-06	5.1374e-06	442.21	147.53	129.13	44.258	4.0355e-06	54.645	0.00052378	0.00052581	0.0001407	1484.5	5.7466e-06	5.452e-06	1470.9	395.29	5.753e-06	5.4819e-06	450.18	151.06	132.08	45.384	5.6804e-06	55.986	235.231	249.698	260.112	190.321	314.440	338.278	190.144	194.776	304.912	311.598	194.405	198.573	198.929	203.606	320.269	203.052	-8191	255	
42118.844	1	1	0	0	0.11965	0.18975	0.22506	0.37856	0.14189	0.12333	0.29673	0.098886	0.27365	0.17965	0.10599	0.084007	0.1213	0.29654	0.15244	0.15184	-2.1979	-2.2062	-2.7458	-2.6	-2.4521	-2.7396	-2.7146	-2.8333	-2.35	-2.3542	-2.7917	-2.4667	-2.5667	-2.6188	-2.2958	-2.7208	432.488	239.574	311.202	485.040	218.895	237.651	476.129	419.242	424.565	296.799	359.917	186.697	224.517	482.998	374.778	193.011	0.00047002	0.00055978	0.00013836	1467.3	5.0435e-06	5.6347e-06	1452.1	389.72	3.2805e-06	4.2623e-06	444.39	147.72	129.18	44.143	4.8318e-06	54.618	0.00051459	0.00050865	0.00013459	1484.4	5.5869e-06	5.5769e-06	1470.9	396.16	5.7902e-06	5.5724e-06	450.49	151.27	131.83	45.217	5.6774e-06	55.854	233.971	251.807	260.282	190.277	309.912	329.821	190.099	194.681	311.155	329.896	194.461	198.419	199.016	203.558	336.936	203.230	-8191	255	
42118.938	1	1	0	0	0.22576	0.13227	0.26301	0.35669	0.21051	0.36142	0.24197	0.046368	0.098148	0.079401	0.12576	0.12193	0.05455	0.10302	0.15083	0.21321	-2.0292	-2.4042	-2.7125	-2.7083	-2.4479	-2.8542	-2.55	-2.7854	-2.6417	-2.3458	-2.7896	-2.5271	-2.5896	-2.8292	-2.3792	-2.6896	306.857	328.345	255.098	528.887	242.970	315.447	495.502	488.930	254.277	385.960	514.833	365.554	535.599	495.834	443.816	477.390	0.0004683	0.00055164	0.00013044	1470.6	3.9691e-06	4.883e-06	1456.5	389.02	4.9792e-06	4.3126e-06	441.68	147.93	129.63	44.256	3.8283e-06	54.913	0.00051612	0.00051499	0.00013586	1484.9	5.6368e-06	5.3103e-06	1471.9	395.54	5.8134e-06	5.546e-06	450.12	151.56	132.39	45.34	5.9588e-06	56.085	233.676	252.154	281.306	190.172	322.325	338.295	190.143	194.833	316.499	304.733	194.182	198.434	198.984	203.712	337.740	202.965	-8191	255	
42119.035	1	1	0	0	0.064964	0.13587	0.29753	0.16189	0.027684	0.031919	0.32858	0.2734	0.25093	0.012849	0.20613	0.1871	0.18524	0.11213	0.2452	0.22029	-2.1833	-2.3125	-2.4708	-2.5729	-2.4313	-2.6979	-2.4604	-2.5104	-2.65	-2.3479	-2.7917	-2.6458	-2.4813	-2.8667	-2.3958	-2.6083	491.737	360.220	237.215	229.887	238.062	316.069	496.579	237.694	255.062	354.762	471.704	403.279	238.892	213.564	373.902	436.700	0.00047741	0.00047477	0.00014441	1475.8	4.0841e-06	5.1561e-06	1456.6	390.41	4.514e-06	4.849e-06	443.36	148.8	129.64	44.577	5.2504e-06	54.832	0.00051527	0.00051883	0.0001366	1487.2	5.6541e-06	5.2934e-06	1473.9	396.62	5.5323e-06	5.3786e-06	450.38	151.75	132.42	45.483	5.3852e-06	56.089	231.858	253.170	270.580	190.228	317.492	322.940	190.051	194.331	305.286	333.322	194.475	198.386	198.969	203.617	321.540	203.152	-8191	255	
42119.133	1	1	0	0	0.12532	0.078914	0.24538	0.35704	0.26087	0.2231	0.18172	0.042421	0.19418	0.33382	0.27629	0.16861	0.1397	0.051893	0.17933	0.25865	-2.1833	-2.4375	-2.6875	-2.6875	-2.35	-2.7812	-2.7104	-2.5708	-2.5333	-2.1063	-2.5917	-2.5792	-2.2771	-2.7333	-2.5604	-2.6333	274.016	204.994	536.679	514.962	284.371	339.616	459.695	477.231	324.782	494.689	488.593	280.927	245.009	317.117	402.930	181.290	0.0004839	0.00053264	0.00013184	1476	4.7627e-06	6.2903e-06	1458.6	389.83	4.2681e-06	5.4411e-06	447.9	149.43	130.08	44.755	4.0251e-06	55.144	0.00050258	0.00050608	0.00013584	1489.2	5.4258e-06	5.0735e-06	1475.3	397.1	5.2673e-06	5.3449e-06	451.94	152.61	133	45.716	5.27e-06	56.451	233.604	244.519	261.666	190.242	317.749	324.244	190.044	194.835	325.887	334.424	194.105	198.397	198.980	203.740	314.559	203.026	-8191	255	
42119.227	1	1	0	0	0.041109	0.15947	0.045463	0.4198	0.36283	0.12703	0.42163	0.21513	0.15906	0.4082	0.050846	0.34652	0.064197	0.11899	0.052681	0.22043	-2.0292	-2.2812	-2.6333	-2.6729	-2.3521	-2.7458	-2.6771	-2.7167	-2.6646	-2.3458	-2.5521	-2.5042	-2.2687	-2.6583	-2.5479	-2.3354	253.136	192.730	517.264	183.255	523.673	304.637	535.586	224.247	388.974	295.797	429.704	493.165	415.598	535.664	395.693	403.332	0.00046881	0.00053426	0.00015097	1475.9	3.7744e-06	5.8783e-06	1458.5	392.47	4.8562e-06	6.5746e-06	446	149.52	129.86	44.93	3.9843e-06	55.245	0.00050915	0.000483	0.00013463	1489.7	5.6215e-06	5.1573e-06	1476.5	397.81	5.5505e-06	5.5059e-06	452.46	152.9	133.23	45.944	5.7525e-06	56.525	234.685	260.800	272.111	190.262	322.156	330.025	190.032	194.660	309.573	323.009	194.397	198.327	198.787	203.714	325.041	202.909	-8191	255	
42119.348	1	1	0	0	0.2498	0.13617	0.12354	0.23334	0.17228	0.23417	0.2168	0.084944	0.25486	0.060517	0.34127	0.20398	0.43575	0.34621	0.15714	0.05797	-2.0604	-2.5083	-2.3792	-2.7667	-2.3146	-2.5563	-2.7875	-2.4979	-2.5062	-2.5833	-2.5771	-2.675	-2.3187	-2.6542	-2.5333	-2.3479	331.312	337.449	248.919	177.643	437.047	304.906	457.661	510.409	484.391	393.518	260.565	480.851	517.745	517.182	256.304	195.851	0.00048091	0.00061755	0.00013184	1478.4	4.0745e-06	4.9415e-06	1458.4	391.05	4.3077e-06	3.8217e-06	444.89	149.46	129.59	44.684	4.6e-06	54.771	0.00051667	0.00050836	0.00014012	1493.4	5.6141e-06	5.6212e-06	1477.7	397.53	5.5794e-06	5.6781e-06	452.03	152.64	132.92	45.714	5.5798e-06	56.209	233.686	248.906	264.364	190.319	330.088	303.026	189.958	194.702	315.414	322.600	194.514	198.288	199.022	203.487	323.968	203.136	-8191	255	
42119.445	1	1	0	0	0.10708	0.098314	0.13924	0.22577	0.20467	0.31681	0.1478	0.075887	0.11574	0.21519	0.13716	0.23252	0.21159	0.07545	0.15337	0.034136	-2.1604	-2.2417	-2.3312	-2.9875	-2.2042	-2.5125	-2.9271	-2.275	-2.6271	-2.5583	-2.5458	-2.8167	-2.075	-2.7583	-2.6146	-2.5125	414.053	312.707	378.737	525.239	513.000	371.079	218.237	214.347	473.674	510.980	310.797	412.547	217.755	284.310	349.116	479.240	0.00049343	0.00067331	0.00014706	1473.2	5.3262e-06	4.2925e-06	1457.6	390.95	3.8998e-06	5.7157e-06	444.15	148.76	129.6	44.687	5.52e-06	54.874	0.00052003	0.00051755	0.00014212	1490.1	5.6075e-06	5.4536e-06	1475.7	397.35	5.4514e-06	5.558e-06	451.83	152.56	132.93	45.738	5.5324e-06	56.286	233.637	256.470	288.549	190.191	317.639	338.745	190.054	194.713	316.904	320.810	194.235	198.399	199.004	203.699	316.744	203.131	-8191	255	
42119.539	1	1	0	0	0.15275	0.071261	0.095713	0.18549	0.059909	0.21263	0.40084	0.19654	0.15177	0.34879	0.080359	0.1667	0.074564	0.064277	0.054009	0.30963	-2.1875	-2.3875	-2.2479	-2.925	-2.2438	-2.7812	-2.8979	-2.3646	-2.9375	-2.5979	-2.5312	-2.7854	-2.4771	-2.4833	-2.4667	-2.2583	187.801	389.964	186.869	214.184	526.950	317.555	480.289	224.892	453.455	182.096	517.878	533.720	306.838	260.584	308.341	437.773	0.00048538	0.00064008	0.00016336	1477.6	3.2e-06	4.6022e-06	1457.7	391.68	4.6804e-06	5.2498e-06	445.5	149.22	130.81	44.966	4.2002e-06	55.11	0.00051578	0.00050166	0.00014391	1489.7	5.5869e-06	5.56e-06	1476.7	397.44	5.5744e-06	5.3017e-06	452.45	152.88	133.48	45.885	5.4916e-06	56.437	233.963	252.235	286.041	190.119	306.975	346.193	190.135	194.688	317.908	327.526	194.389	198.464	198.927	203.543	324.615	202.907	-8191	255	
42119.637	1	1	0	0	0.038202	0.12017	0.19109	0.27519	0.11383	0.19315	0.30669	0.081523	0.036912	0.11784	0.13902	0.12115	0.042052	0.18906	0.078883	0.32727	-2.1729	-2.7542	-2.4896	-3.1271	-2.3479	-2.5687	-2.775	-2.4792	-2.6354	-2.5125	-2.4917	-2.7583	-2.425	-2.6625	-2.7917	-2.3479	382.624	428.764	475.664	486.249	444.542	521.441	476.784	331.388	529.700	224.295	479.105	264.210	202.906	214.685	369.384	429.349	0.00048626	0.00043846	0.00013515	1474.8	3.9242e-06	5.0911e-06	1457.5	392.41	4.0702e-06	4.5856e-06	445.23	150.01	131.07	44.862	5.1422e-06	55.041	0.00051371	0.00051869	0.00013409	1491	5.5815e-06	5.5197e-06	1477.1	397.84	5.4627e-06	5.4987e-06	452.03	153.32	133.66	45.989	5.2912e-06	56.499	233.737	243.742	263.706	190.244	310.185	332.336	190.200	194.861	326.477	338.057	194.434	198.382	198.831	203.482	324.275	202.945	-8191	255	
42119.730	1	1	0	0	0.21973	0.10717	0.18933	0.033979	0.079709	0.19417	0.18574	0.11217	0.08482	0.10144	0.19113	0.40492	0.093744	0.06842	0.011948	0.14016	-2.1521	-2.3479	-2.2438	-2.6333	-2.2833	-2.5625	-2.8104	-2.3979	-2.4104	-2.5979	-2.3375	-2.7479	-2.4771	-2.5583	-2.7375	-2.2917	258.289	530.235	335.866	485.678	207.859	492.443	528.244	212.553	358.341	338.873	224.351	487.113	487.518	199.781	396.579	463.229	0.0004504	0.00060275	0.00010889	1476.6	4.8729e-06	5.0107e-06	1459.9	391.29	4.6743e-06	4.59e-06	446.44	149.91	130.94	44.941	4.9859e-06	55.204	0.00051776	0.00049141	0.00013879	1491.3	5.6062e-06	5.5736e-06	1477.9	398.2	5.6454e-06	5.441e-06	452.5	153.27	133.45	45.966	5.2088e-06	56.458	235.073	262.558	257.197	190.112	323.633	333.758	190.110	194.628	313.523	322.056	194.181	198.481	198.899	203.588	312.846	203.007	-8191	255	
42119.828	1	1	0	0	0.043281	0.093277	0.2592	0.05401	0.14221	0.1903	0.43423	0.23816	0.13208	0.11208	0.14664	0.13408	0.20145	0.05151	0.13835	0.13149	-2.1396	-2.525	-2.2771	-2.8104	-2.4833	-2.2562	-2.9292	-2.675	-2.5792	-2.7979	-2.4313	-2.7667	-2.6437	-2.4708	-2.5646	-2.4958	514.209	519.868	243.624	199.151	487.074	354.011	491.119	417.905	509.625	362.879	263.104	491.938	481.934	188.328	204.536	469.910	0.00049777	0.00046876	0.00017699	1480.4	5.8557e-06	6.2007e-06	1464.8	391.16	4.9291e-06	3.3937e-06	446.04	149.67	130.66	44.916	4.6076e-06	55.505	0.00054024	0.0004976	0.00014156	1492.8	5.6634e-06	5.6663e-06	1480.7	397.84	5.734e-06	5.3882e-06	452.97	153.31	133.81	46.041	5.6446e-06	56.674	233.205	259.668	265.454	190.191	308.109	334.231	190.087	194.861	318.142	338.757	194.308	198.507	198.948	203.328	302.321	202.842	-8191	255	
42119.922	1	1	0	0	0.2057	0.1244	0.15116	0.09807	0.016114	0.13653	0.27396	0.31169	0.057156	0.22599	0.094534	0.087207	0.098713	0.12991	0.22727	0.21152	-2.2625	-2.5438	-2.2271	-2.8854	-2.5	-2.2792	-2.8208	-2.5812	-2.4958	-2.7313	-2.3958	-2.7521	-2.4708	-2.3708	-2.7354	-2.4771	200.765	394.389	512.556	217.955	447.795	536.304	508.245	506.435	502.370	528.580	502.342	196.775	454.083	204.649	256.113	438.499	0.00046234	0.00064212	0.0001579	1482.8	4.1728e-06	6.0238e-06	1462.5	390.91	5.5189e-06	6.0075e-06	446.84	149.84	130.7	44.951	5.0101e-06	55.071	0.0005235	0.0005053	0.0001462	1494.9	5.8265e-06	5.4915e-06	1480.9	397.76	5.9301e-06	5.4539e-06	453.39	153.19	133.59	45.963	5.7183e-06	56.584	233.398	252.297	276.808	190.205	316.279	346.619	189.992	194.736	316.801	316.184	194.190	198.296	198.987	203.608	327.396	202.905	-8191	255	
42120.043	1	1	0	0	0.18436	0.059136	0.073773	0.12461	0.21758	0.13902	0.38365	0.35332	0.095894	0.054839	0.12032	0.1528	0.06927	0.32208	0.034936	0.088997	-1.9688	-2.7146	-2.3167	-2.8458	-2.6625	-2.2896	-2.9646	-2.6146	-2.2313	-2.6375	-2.3875	-2.6917	-2.5708	-2.5521	-2.7042	-2.4146	508.153	342.138	421.257	452.017	311.237	202.296	474.802	186.227	269.001	457.260	216.632	286.273	437.162	513.444	376.854	292.867	0.00047755	0.00052447	0.00013788	1477.9	4.8653e-06	4.3315e-06	1462.9	390.43	5.5733e-06	4.1007e-06	445.85	149.25	130.83	44.784	5.6513e-06	55.08	0.00053055	0.00051905	0.0001462	1492.9	5.7646e-06	5.5092e-06	1480.9	397.54	5.9406e-06	5.6197e-06	452.4	153.21	133.54	45.884	5.7394e-06	56.458	232.995	267.586	263.971	190.317	324.253	330.565	189.992	194.543	316.165	331.579	194.405	198.388	198.918	203.665	312.050	202.826	-8191	255	
42120.141	1	1	0	0	0.08933	0.079611	0.22064	0.33158	0.25824	0.096092	0.12093	0.16014	0.091927	0.10742	0.32681	0.20461	0.11695	0.35067	0.22521	0.21776	-1.9396	-2.7375	-2.3688	-2.6125	-2.4042	-2.3083	-2.6125	-2.7292	-2.4188	-2.6271	-2.5125	-2.5438	-2.5479	-2.3875	-2.4896	-2.6167	213.811	222.835	386.795	191.812	522.437	296.797	437.215	510.211	381.369	465.491	470.263	182.093	448.465	465.588	265.738	414.143	0.0005096	0.00055644	0.00013226	1478.6	4.6407e-06	4.134e-06	1462.2	391.74	4.898e-06	5.8569e-06	448.02	150.45	129.62	44.997	3.8759e-06	54.892	0.00054371	0.00051776	0.00014309	1493.1	5.682e-06	5.5946e-06	1480.6	397.64	5.7389e-06	5.55e-06	453	153.32	133.05	45.892	5.7802e-06	56.282	233.614	258.915	283.611	190.139	322.077	320.761	190.027	194.690	304.277	321.762	194.360	198.325	198.852	203.461	308.764	203.103	-8191	255	
42120.211	1	1	0	0	0.26585	0.078694	0.13079	0.40024	0.34187	0.10209	0.3658	0.044268	0.31776	0.21895	0.13629	0.12452	0.39045	0.23854	0.22022	0.10424	-1.7979	-2.6479	-2.3563	-2.7208	-2.6417	-2.2938	-2.7979	-2.5125	-2.3021	-2.6646	-2.4646	-2.4688	-2.7562	-2.2667	-2.5479	-2.3771	535.862	288.935	180.908	497.010	411.177	233.615	500.815	297.585	447.799	223.086	224.048	504.497	505.547	177.667	391.120	282.439	0.00049401	0.00064558	0.00013609	1477.8	5.1858e-06	5.4105e-06	1462.1	391.61	4.8255e-06	5.3545e-06	446.94	149.85	131	44.829	3.8834e-06	54.808	0.00052834	0.00052475	0.00014705	1492.9	5.5083e-06	5.742e-06	1479.7	397.53	5.6419e-06	5.4018e-06	452.51	152.97	133.59	45.851	5.7248e-06	56.351	233.032	259.456	275.801	190.234	313.895	332.002	190.024	194.619	317.275	334.606	194.153	198.261	199.024	203.468	334.027	203.052	-8191	255	
42120.309	1	1	0	0	0.16981	0.23918	0.1081	0.164	0.23829	0.079063	0.27205	0.097866	0.15852	0.13797	0.16967	0.076516	0.12315	0.16555	0.10442	0.3	-1.6979	-2.6167	-2.4	-2.5604	-2.5708	-2.3438	-2.7271	-2.7062	-2.3812	-2.6125	-2.4021	-2.2854	-2.6375	-2.3917	-2.4292	-2.6125	340.719	426.217	377.642	496.852	431.962	239.121	471.626	373.750	193.950	234.512	508.271	227.521	186.224	183.868	527.277	413.888	0.00048619	0.00064733	8.6062e-05	1480.2	4.7937e-06	5.164e-06	1463.4	391.01	5.0341e-06	6.0243e-06	445.9	148.27	130.11	44.815	3.9409e-06	54.884	0.00052902	0.00050644	0.00014102	1495.4	5.7353e-06	5.965e-06	1478.5	397.36	5.9449e-06	5.8912e-06	452.25	152.21	133.11	45.721	5.8341e-06	56.279	231.363	254.430	264.153	190.168	323.784	350.253	190.016	194.461	312.870	320.444	194.125	198.333	199.026	203.509	325.614	202.909	-8191	255	
42120.430	1	1	0	0	0.090826	0.15451	0.15261	0.10402	0.24384	0.1126	0.2428	0.07707	0.16448	0.12369	0.1679	0.12239	0.16794	0.2159	0.2356	0.10604	-1.7583	-2.7	-2.5187	-2.4479	-2.6125	-2.4021	-2.7479	-2.6688	-2.2833	-2.5792	-2.65	-2.3625	-2.8479	-2.6667	-2.3104	-2.7542	199.160	363.002	340.981	486.696	200.603	504.132	453.040	256.302	435.864	517.372	504.593	431.138	439.772	470.675	274.905	406.118	0.00049086	0.00041318	0.00017698	1478.7	4.2022e-06	5.691e-06	1463.1	392.01	3.1453e-06	3.121e-06	442.9	148.87	130.7	44.685	5.612e-06	54.877	0.00055511	0.00051306	0.00015446	1494.2	5.5835e-06	5.7862e-06	1480.4	397.9	5.9582e-06	5.7694e-06	451.43	152.62	133.46	45.703	5.8327e-06	56.288	232.092	276.095	252.721	190.340	310.156	344.867	189.967	194.786	299.677	331.624	194.280	198.528	198.704	203.596	338.442	202.897	-8191	255	
42120.523	1	1	0	0	0.23653	0.11123	0.14331	0.27195	0.24771	0.080575	0.32339	0.051813	0.24408	0.23061	0.26997	0.081749	0.14708	0.039753	0.15268	0.11862	-1.9771	-2.4854	-2.4396	-2.6542	-2.7333	-2.4917	-2.5333	-2.6854	-2.3333	-2.5729	-2.7083	-2.3167	-2.6625	-2.4	-2.4167	-2.8271	312.030	402.869	392.419	522.848	455.796	302.315	487.928	306.200	289.339	475.783	191.270	305.152	182.332	435.678	330.219	442.724	0.00048509	0.00076258	0.00012927	1476.8	4.7896e-06	6.1871e-06	1463.4	389.61	4.7504e-06	5.1713e-06	442.56	148.96	130.07	44.744	4.1549e-06	54.977	0.0005447	0.00054498	0.00014737	1491.8	6.0441e-06	5.9634e-06	1478.1	396.57	5.9378e-06	5.9376e-06	451.25	152.58	133.09	45.783	6.0666e-06	56.428	231.561	267.165	276.764	190.140	327.161	338.924	190.084	194.637	306.381	328.710	194.275	198.332	198.939	203.755	329.201	202.952	-8191	255	
42120.621	1	1	0	0	0.12531	0.022773	0.19721	0.30799	0.24311	0.084923	0.2503	0.21025	0.1834	0.044277	0.086474	0.012441	0.23325	0.2473	0.3829	0.23119	-1.9958	-2.4813	-2.5729	-2.4521	-2.5667	-2.4688	-2.575	-2.8792	-2.3021	-2.35	-2.8875	-2.425	-2.8792	-2.5833	-2.3208	-2.7125	409.688	404.710	486.773	462.596	430.439	403.952	497.558	529.369	481.074	220.974	448.054	319.458	486.488	509.221	505.634	507.478	0.00047847	0.00048245	0.00017358	1477.3	3.1386e-06	5.0648e-06	1463.3	389.89	5.9255e-06	5.7216e-06	445.84	149.2	129.85	44.577	4.272e-06	54.692	0.00054844	0.00056193	0.00015366	1494.8	6.0554e-06	6.2855e-06	1481.9	396.75	6.1452e-06	6.1443e-06	451.73	152.77	133.16	45.762	6.2131e-06	56.163	232.685	256.017	275.136	190.337	326.296	315.421	190.064	194.640	306.507	329.591	194.105	198.552	198.903	203.610	317.136	202.729	-8191	255	
42120.742	1	1	0	0	0.17246	0.073366	0.26241	0.3016	0.1322	0.13804	0.39303	0.19118	0.11837	0.33855	0.086996	0.14962	0.30392	0.25995	0.2378	0.11079	-2.1208	-2.4396	-2.5875	-2.4354	-2.6854	-2.4083	-2.6188	-2.6833	-2.2917	-2.25	-2.7271	-2.3833	-2.5563	-2.7292	-2.2375	-2.9396	221.580	320.767	463.533	448.934	244.637	408.693	515.506	186.929	180.112	245.458	290.209	481.517	470.248	197.758	427.608	191.492	0.00048097	0.00060261	0.00013222	1478	4.3721e-06	6.4382e-06	1466.6	388.38	4.8436e-06	5.8508e-06	445.42	149.11	129.66	44.662	3.9124e-06	54.815	0.00054892	0.00057319	0.0001535	1493.4	6.0328e-06	6.1188e-06	1482.9	396.38	6.5535e-06	6.3157e-06	451.75	152.32	132.93	45.625	6.4004e-06	56.246	232.122	253.467	255.620	190.154	314.460	329.953	190.052	194.605	311.313	321.446	194.142	198.344	198.943	203.690	317.232	202.972	-8191	255	
42120.840	1	1	0	0	0.22857	0.29963	0.23624	0.45173	0.037315	0.22774	0.27526	0.30668	0.10733	0.25009	0.098018	0.232	0.18697	0.12411	0.15268	0.31035	-1.9604	-2.4167	-2.6208	-2.5187	-2.65	-2.5812	-2.5312	-2.7875	-2.5833	-2.2438	-2.8042	-2.4542	-2.5771	-2.7771	-2.2375	-2.8542	484.798	383.497	316.095	182.871	500.177	416.068	483.034	479.087	485.842	441.282	195.643	423.943	319.044	521.250	414.859	448.950	0.0004922	0.00046356	0.00010186	1475.5	3.7123e-06	4.2669e-06	1462.7	390.9	5.1815e-06	4.4577e-06	442.56	147.92	129.84	44.296	4.0956e-06	54.224	0.00056389	0.00058081	0.00015452	1492.4	6.319e-06	6.0907e-06	1481	396.56	6.4727e-06	6.1972e-06	450.21	151.75	132.36	45.278	6.4237e-06	55.668	234.527	275.093	273.495	190.173	330.940	329.618	189.957	194.541	314.936	324.555	194.096	198.304	199.270	203.347	337.446	203.011	-8191	255	
42120.910	1	1	0	0	0.24513	0.18269	0.10691	0.16077	0.11176	0.28102	0.42844	0.030539	0.15495	0.062966	0.43136	0.044917	0.043494	0.062901	0.2821	0.2726	-1.9729	-2.2562	-2.8104	-2.6208	-2.3833	-2.5438	-2.6104	-2.6875	-2.5687	-2.4062	-2.6937	-2.3583	-2.525	-2.7938	-2.3417	-2.4229	368.570	184.221	431.579	510.157	501.899	466.539	476.988	523.924	324.501	470.099	185.591	321.320	409.265	229.868	350.627	529.903	0.00048568	0.00063781	0.00015415	1474.4	4.5451e-06	5.6036e-06	1459.4	388.54	4.7412e-06	4.4636e-06	443.71	148.14	128.88	44.451	4.4122e-06	54.629	0.0005415	0.00057953	0.00015725	1491.9	6.0381e-06	5.7516e-06	1477	395.04	6.0362e-06	5.9793e-06	450.15	151.54	132.3	45.411	6.1329e-06	55.891	233.712	265.236	255.176	190.154	307.960	327.720	189.969	194.679	320.982	288.201	194.213	198.274	198.834	203.685	318.074	202.999	-8191	255	
42121.027	1	1	0	0	0.11878	0.086598	0.080875	0.13805	0.091513	0.063688	0.098885	0.22375	0.1372	0.11495	0.38177	0.14913	0.17422	0.013869	0.32207	0.32861	-2.0229	-2.2521	-2.7583	-2.5563	-2.475	-2.8542	-2.4708	-2.6437	-2.3979	-2.3563	-2.7313	-2.3563	-2.2938	-2.7771	-2.4104	-2.5646	236.273	449.984	485.078	524.499	400.092	479.405	438.901	501.293	513.882	198.810	205.613	411.508	237.821	385.787	195.680	510.571	0.00047363	0.00077144	0.00010037	1478.8	4.744e-06	5.9298e-06	1462.3	388.51	4.5403e-06	5.9444e-06	441.52	148.27	129.42	44.185	4.801e-06	54.551	0.00053562	0.00057191	0.00014508	1492.7	6.1499e-06	5.9087e-06	1480.7	395.43	6.2176e-06	6.3477e-06	449.16	151.5	132.28	45.363	6.5178e-06	55.854	232.520	259.522	267.248	190.232	324.138	316.555	189.944	194.555	322.784	323.869	194.163	198.192	198.881	203.707	329.099	203.027	-8191	255	
42121.125	1	1	0	0	0.18116	0.21202	0.1255	0.17903	0.25857	0.049858	0.14474	0.23866	0.08537	0.10247	0.19237	0.27037	0.19665	0.43408	0.12344	0.13615	-2.0583	-2.2896	-2.6083	-2.7104	-2.3563	-2.7479	-2.4792	-2.7313	-2.4979	-2.1146	-2.7771	-2.6125	-2.3896	-2.7292	-2.3021	-2.5542	517.219	485.771	472.784	505.436	245.451	260.614	415.983	480.865	405.750	340.808	494.466	253.746	351.452	478.520	281.500	482.459	0.00048439	0.00059715	0.00017715	1479.2	4.4339e-06	4.2412e-06	1466.6	389.6	4.0585e-06	5.6468e-06	444.22	149.18	130.19	44.784	3.5781e-06	54.657	0.00055038	0.0005759	0.00015822	1493.7	6.1679e-06	6.1503e-06	1482.4	396.31	6.1248e-06	6.6169e-06	450.48	152.6	133.27	45.745	6.2729e-06	56.217	232.284	257.582	273.940	190.275	310.098	357.173	189.930	194.525	318.102	321.472	194.485	198.389	198.723	203.428	310.350	203.164	-8191	255	
42121.219	1	1	0	0	0.11459	0.32009	0.12955	0.35426	0.14056	0.046633	0.14161	0.22869	0.12175	0.048288	0.11815	0.17498	0.35773	0.080262	0.18199	0.27543	-2.1312	-2.2562	-2.4833	-2.5479	-2.2021	-2.8646	-2.6667	-2.5062	-2.7812	-2.2917	-2.7375	-2.5312	-2.3937	-2.65	-2.3958	-2.5812	293.525	460.192	190.404	499.107	495.645	292.184	432.887	535.219	496.691	517.465	536.519	205.903	500.124	220.135	194.898	352.383	0.00048435	0.0005782	0.00021094	1481.2	3.9264e-06	4.9629e-06	1463.5	390.2	6.3643e-06	4.0107e-06	443.44	148.53	130.38	44.798	5.5525e-06	55.026	0.00054422	0.00057155	0.00015466	1495.5	6.1213e-06	6.1543e-06	1482.5	396.94	6.2077e-06	6.1819e-06	451.27	152.45	133.24	45.769	6.2255e-06	56.326	231.894	257.293	265.641	190.104	325.004	327.240	190.054	194.706	312.588	304.214	194.621	198.420	198.923	203.264	335.679	202.874	-8191	255	
42121.340	1	1	0	0	0.11696	0.067488	0.19143	0.43182	0.21605	0.11824	0.12942	0.23734	0.11126	0.30746	0.23513	0.053114	0.077106	0.21802	0.13635	0.08835	-2.1979	-2.3458	-2.4542	-2.5521	-2.2292	-2.6979	-2.5979	-2.6646	-2.7229	-2.2125	-2.6104	-2.6063	-2.1333	-2.5354	-2.4479	-2.5167	437.968	181.076	360.914	512.783	536.414	336.543	502.150	426.390	318.628	430.598	250.593	411.306	505.529	525.430	207.452	284.081	0.00047223	0.00055802	0.00011402	1481.9	4.2404e-06	4.2741e-06	1468.6	391.15	4.5036e-06	6.3979e-06	445.45	149.73	129.96	44.683	4.4199e-06	54.956	0.00053909	0.00055274	0.00015428	1496.8	6.2098e-06	5.9296e-06	1486.1	397.41	6.2218e-06	6.3389e-06	452.86	152.97	133.23	45.906	6.1781e-06	56.426	232.429	260.137	275.800	190.001	313.340	342.240	189.880	194.497	312.926	323.607	194.052	198.330	199.123	203.706	329.393	202.814	-8191	255	
42121.438	1	1	0	0	0.10983	0.055552	0.23244	0.26307	0.27122	0.12611	0.073545	0.36506	0.15805	0.11309	0.16073	0.27038	0.15493	0.24354	0.14915	0.082674	-2.3937	-2.275	-2.3688	-2.7583	-2.2417	-2.675	-2.6167	-2.4021	-2.8042	-2.4167	-2.5771	-2.8417	-2.2083	-2.6375	-2.4542	-2.4417	185.373	391.166	324.791	525.724	257.975	491.727	436.648	475.873	439.584	389.573	488.583	486.042	224.110	412.365	187.743	374.553	0.00048102	0.00047879	0.00013604	1483.9	4.5258e-06	6.6919e-06	1472	390.71	5.0308e-06	5.3705e-06	445.28	150.94	130.78	45.141	4.0991e-06	55.368	0.00054385	0.00057789	0.00015295	1499.3	6.1373e-06	5.9344e-06	1486.9	397.79	6.2583e-06	6.2156e-06	452.97	153.99	133.91	46.174	5.9661e-06	56.609	233.023	252.161	270.240	190.141	334.922	319.546	189.958	194.645	309.460	340.176	194.122	198.570	198.669	203.359	320.910	202.839	-8191	255	
42121.508	1	1	0	0	0.19951	0.10554	0.16569	0.31626	0.237	0.0085525	0.11844	0.1346	0.21258	0.30884	0.15721	0.10931	0.17556	0.14609	0.28046	0.35804	-2.2417	-2.2979	-2.3625	-2.8042	-2.2021	-2.7375	-2.7104	-2.3604	-2.7729	-2.3104	-2.4792	-2.7583	-2.45	-2.6479	-2.4646	-2.2792	362.263	415.910	229.401	491.892	403.363	520.987	408.219	396.077	331.424	232.888	415.084	533.663	442.200	209.218	230.742	490.750	0.00048905	0.0005105	0.00014796	1485.5	4.4522e-06	4.0377e-06	1469.4	392.64	4.1158e-06	3.8922e-06	446.8	150.85	131.32	44.999	5.0861e-06	55.15	0.00054075	0.00057041	0.00015761	1501.2	6.1526e-06	6.0069e-06	1488.2	398.89	6.3455e-06	6.1339e-06	453.37	154.17	134.46	46.225	6.0076e-06	56.625	232.849	251.265	265.871	190.090	341.929	317.707	190.124	194.596	324.232	328.407	194.267	198.297	199.073	203.445	325.596	202.807	-8191	255	
42121.605	1	1	0	0	0.085834	0.1178	0.23944	0.28301	0.2027	0.21978	0.38065	0.11485	0.06783	0.098487	0.38833	0.33029	0.21995	0.34816	0.025431	0.049193	-2.1667	-2.3833	-2.5354	-3.0083	-2.2042	-2.4188	-2.8125	-2.4708	-2.6042	-2.5896	-2.3812	-2.85	-2.275	-2.4646	-2.6583	-2.2396	445.028	305.465	438.665	528.051	518.013	338.664	495.276	526.613	240.468	438.449	397.618	296.151	359.552	529.726	234.098	391.563	0.00049226	0.00075028	0.00013223	1485.7	5.2442e-06	4.6939e-06	1467.3	391.87	5.3952e-06	4.3492e-06	446.18	150.71	131.01	45.269	5.2297e-06	55.176	0.00053963	0.00056614	0.00015384	1502.3	6.299e-06	5.9723e-06	1487.5	397.83	6.2309e-06	6.1075e-06	453.18	153.76	134.2	46.218	6.044e-06	56.624	234.438	264.337	287.101	190.172	337.102	328.460	189.888	194.587	321.320	318.923	194.397	198.437	198.781	203.371	338.387	202.796	-8191	255	
42121.723	1	1	0	0	0.077772	0.2273	0.04327	0.12825	0.24135	0.18402	0.32763	0.35674	0.19286	0.093333	0.062858	0.30513	0.055188	0.15599	0.20629	0.27056	-2.1083	-2.3958	-2.2125	-2.9917	-2.3271	-2.5208	-2.7896	-2.2958	-2.6771	-2.2521	-2.5021	-2.7833	-2.3229	-2.6021	-2.6125	-2.4667	265.273	369.940	523.178	191.894	403.352	240.527	501.322	478.091	203.239	310.274	427.665	247.739	326.858	455.344	228.493	478.534	0.00049499	0.00047838	0.00017512	1484.5	4.953e-06	6.5636e-06	1473.8	391.84	3.9444e-06	5.7448e-06	446.35	150.72	131.42	45.242	3.6486e-06	55.526	0.00055739	0.00055274	0.00015916	1500	6.1845e-06	6.3008e-06	1489.2	398.58	6.2506e-06	6.3958e-06	453.56	154.29	134.49	46.371	6.1432e-06	56.994	232.105	251.498	277.444	190.271	293.736	333.521	190.128	194.630	315.628	329.530	194.445	198.160	198.963	203.523	314.538	202.795	-8191	255	
42121.820	1	1	0	0	0.093001	0.031481	0.010924	0.31684	0.27538	0.14788	0.2531	0.11514	0.077451	0.19987	0.17544	0.1871	0.12555	0.132	0.23772	0.23392	-2.0833	-2.4417	-2.3625	-2.7583	-2.2958	-2.3521	-2.9271	-2.3667	-2.4354	-2.425	-2.3458	-2.6854	-2.2979	-2.5583	-2.8271	-2.3833	502.137	322.933	509.879	528.413	437.810	448.842	179.651	288.101	281.380	440.890	528.307	199.656	512.635	451.768	190.836	182.724	0.00049172	0.00062071	0.00018097	1488.9	3.9919e-06	4.5916e-06	1472.6	392.47	5.0796e-06	5.3706e-06	447.24	151.46	132.17	45.387	4.2776e-06	55.854	0.00055746	0.00055851	0.0001627	1503.9	6.2511e-06	6.3347e-06	1491.5	399.64	6.1803e-06	6.234e-06	455.05	155.01	135.14	46.548	6.2918e-06	57.127	230.162	244.860	276.931	190.058	323.074	333.332	189.921	194.677	314.646	323.795	194.221	198.560	198.890	203.300	325.825	202.883	-8191	255	
42121.914	1	1	0	0	0.29251	0.17726	0.25229	0.26955	0.24359	0.23892	0.1838	0.18981	0.24231	0.16493	0.20987	0.30273	0.14256	0.13198	0.26929	0.14316	-2.125	-2.4354	-2.1188	-2.8792	-2.5521	-2.4104	-2.9771	-2.4146	-2.6229	-2.5625	-2.1417	-2.7562	-2.5	-2.2417	-2.675	-2.2438	462.538	316.625	431.464	452.761	445.840	265.723	267.614	476.805	212.204	185.583	288.860	532.259	454.962	494.742	433.146	453.331	0.0004916	0.00066218	0.00014841	1488.4	5.2033e-06	5.5221e-06	1475.1	393.17	4.3807e-06	5.0263e-06	448.67	152.01	132.93	45.572	4.2715e-06	55.857	0.00055793	0.00055666	0.00016258	1503.9	6.2744e-06	6.4047e-06	1492.9	400.08	6.1866e-06	6.0097e-06	455.39	155.46	135.77	46.714	6.1184e-06	57.256	232.999	263.004	272.190	190.034	306.821	327.034	190.040	194.624	326.163	328.736	194.356	198.101	198.850	203.310	323.620	202.892	-8191	255	
42122.012	1	1	0	0	0.081559	0.29117	0.3019	0.37912	0.24581	0.10205	0.30446	0.05975	0.20696	0.073794	0.25521	0.25746	0.26726	0.054442	0.032937	0.27994	-2.175	-2.5812	-2.3979	-2.8208	-2.5563	-2.4188	-2.8979	-2.6688	-2.4688	-2.6125	-2.3312	-2.7333	-2.4792	-2.4542	-2.6	-2.3812	322.540	340.336	408.204	460.531	229.475	194.961	486.604	210.512	275.717	395.482	390.651	481.226	434.224	220.578	233.726	473.060	0.00048126	0.00058768	0.00014974	1495.9	4.5367e-06	5.1289e-06	1477	393.78	5.2837e-06	5.6372e-06	449.46	152.36	132.8	45.893	3.9362e-06	55.816	0.00055565	0.00054334	0.00015932	1506.7	6.2005e-06	6.3202e-06	1492.5	400.77	6.3146e-06	5.9665e-06	455.69	155.87	135.82	46.933	6.3305e-06	57.327	230.942	248.517	272.573	190.085	315.577	316.998	189.880	194.707	323.558	334.437	194.287	198.222	198.490	203.132	310.932	202.738	-8191	255	
42122.109	1	1	0	0	0.26687	0.16155	0.096259	0.42049	0.089466	0.017522	0.17701	0.2423	0.17973	0.20225	0.19993	0.16068	0.046478	0.26434	0.15261	0.32004	-2.0354	-2.5021	-2.3854	-2.8854	-2.5187	-2.3563	-3.0687	-2.5458	-2.4229	-2.6312	-2.4062	-2.6854	-2.6896	-2.4042	-2.6333	-2.4188	207.405	509.740	433.319	529.459	381.713	390.859	450.823	509.446	500.402	496.585	486.342	497.368	214.481	480.039	393.128	499.066	0.00047207	0.00042444	0.00013568	1494	5.153e-06	5.7525e-06	1475.8	394.86	4.7877e-06	5.7564e-06	449.52	152.52	132.61	46.066	5.42e-06	55.777	0.00055497	0.00056528	0.00015886	1507.8	6.2604e-06	6.2541e-06	1495	401.84	6.2401e-06	6.1091e-06	456.05	155.88	135.84	46.976	6.0521e-06	57.296	231.873	272.122	269.311	190.253	320.347	337.640	189.965	194.727	320.412	327.600	193.890	198.437	198.873	203.379	321.733	202.634	-8191	255	
42122.203	1	1	0	0	0.14998	0.35528	0.17824	0.14406	0.2313	0.17805	0.13938	0.13907	0.2233	0.20797	0.1372	0.09464	0.2543	0.063918	0.27782	0.34843	-2.0833	-2.5708	-2.4292	-2.5979	-2.4354	-2.2854	-2.7979	-2.6292	-2.4062	-2.575	-2.5312	-2.6604	-2.6646	-2.3042	-2.5563	-2.6854	505.722	423.872	528.326	494.957	448.978	363.018	422.243	262.185	289.208	293.787	268.883	352.709	420.254	305.804	232.513	207.888	0.00049508	0.00046614	0.00010016	1490.1	4.1349e-06	6.6526e-06	1474.7	394.27	3.7623e-06	4.6362e-06	450.27	152.46	131.78	45.707	5.0442e-06	55.769	0.00056065	0.00054982	0.00015639	1504.7	6.3769e-06	6.3653e-06	1493.4	400.52	6.3483e-06	6.2428e-06	456.16	155.5	135.57	46.78	5.9937e-06	57.275	233.624	254.746	265.394	190.156	318.331	320.881	190.064	194.474	319.484	321.411	194.113	198.231	199.010	203.511	317.635	202.677	-8191	255	
42122.301	1	1	0	0	0.20169	0.13029	0.077994	0.1544	0.17826	0.074123	0.28571	0.22222	0.26153	0.12297	0.1367	0.092774	0.11045	0.26443	0.29887	0.23807	-1.8292	-2.8312	-2.3833	-2.6479	-2.6104	-2.4688	-2.85	-2.6771	-2.4708	-2.5979	-2.5563	-2.5375	-2.7979	-2.3917	-2.5875	-2.6083	478.996	278.972	309.292	506.731	482.324	485.662	462.807	526.745	479.342	303.328	237.186	323.484	502.448	304.163	466.361	457.243	0.00049099	0.00064612	0.00016029	1489.9	4.5307e-06	4.8521e-06	1475.6	395.55	4.9077e-06	5.2598e-06	449.62	151.69	132.15	45.868	4.5507e-06	56.083	0.00056521	0.00056143	0.00015482	1505	6.09e-06	6.139e-06	1493.2	400.77	6.4256e-06	6.0858e-06	455.96	155.42	135.62	46.805	6.2998e-06	57.446	234.029	255.030	279.227	190.033	332.786	336.307	190.040	194.585	310.996	325.278	194.586	198.184	198.768	203.588	322.393	202.624	-8191	255	
42122.422	1	1	0	0	0.044352	0.073056	0.13944	0.18212	0.10494	0.18495	0.21657	0.27228	0.17474	0.22068	0.28448	0.069396	0.052124	0.18269	0.18806	0.47949	-1.8354	-2.8208	-2.5229	-2.5771	-2.8063	-2.3625	-2.9	-2.6646	-2.2042	-2.7604	-2.4292	-2.7	-2.8729	-2.4104	-2.4104	-2.6146	306.517	187.806	359.483	494.500	350.275	391.819	425.646	507.947	472.112	247.530	467.203	345.683	208.945	192.018	319.986	468.537	0.00049131	0.0006516	0.00015727	1494.6	5.7386e-06	5.4084e-06	1479.4	394.59	4.1746e-06	4.3778e-06	447.01	151.76	132.75	45.741	5.0424e-06	55.821	0.00056742	0.00057426	0.00015828	1508.5	6.1865e-06	6.3596e-06	1494	400.75	6.4432e-06	6.1115e-06	455.39	155.57	135.79	46.775	6.1606e-06	57.215	233.688	271.617	264.146	190.179	317.255	325.100	190.001	194.717	327.134	308.423	194.087	198.323	198.708	203.235	313.451	202.717	-8191	255	
42122.516	1	1	0	0	0.20924	0.36044	0.28271	0.25865	0.2546	0.11006	0.11717	0.29507	0.21299	0.19599	0.26187	0.14676	0.14576	0.10478	0.20874	0.11065	-1.9354	-2.5042	-2.4188	-2.4479	-2.675	-2.3229	-2.7792	-2.7083	-2.3542	-2.6188	-2.5917	-2.3375	-2.7104	-2.4479	-2.4146	-2.7167	245.092	353.317	412.248	499.115	393.800	298.386	478.806	508.825	314.928	190.700	478.081	460.442	327.662	486.250	373.182	489.017	0.0004982	0.00075215	0.00021665	1491.3	5.1247e-06	5.3847e-06	1476.9	395.43	4.0101e-06	4.895e-06	446.79	153.07	132.71	45.683	5.0036e-06	55.822	0.00055926	0.0005474	0.00014656	1506.9	6.2564e-06	5.8386e-06	1493.4	401.27	6.3096e-06	6.0858e-06	455.26	155.9	135.61	46.855	6.1942e-06	57.308	233.090	260.185	276.431	190.092	310.917	318.557	190.049	194.584	333.952	327.816	194.106	198.362	198.762	203.239	320.833	202.618	-8191	255	
42122.613	1	1	0	0	0.24732	0.18974	0.10238	0.16999	0.23797	0.1914	0.10103	0.19845	0.14826	0.10004	0.088268	0.10914	0.14718	0.31932	0.13002	0.20678	-1.9125	-2.4562	-2.3771	-2.3292	-2.7333	-2.3896	-2.6229	-2.7	-2.3063	-2.4208	-2.4542	-2.5208	-2.7021	-2.5521	-2.1396	-2.7833	260.135	241.026	338.861	202.137	237.729	236.508	442.746	488.749	415.689	246.268	227.159	523.413	296.568	202.059	358.435	188.291	0.00049889	0.00052979	0.00016433	1490.9	4.3033e-06	5.5871e-06	1473.2	395.02	4.8466e-06	5.8072e-06	448.17	152.04	132.47	45.884	5.6036e-06	55.875	0.00056429	0.00056578	0.0001582	1505	6.1852e-06	6.4676e-06	1492.5	400.94	6.7672e-06	6.4038e-06	455.49	155.89	135.96	47.009	6.5455e-06	57.417	230.827	254.025	270.274	190.057	288.278	335.731	189.892	194.730	321.304	321.013	194.306	198.182	198.745	203.241	329.202	202.720	-8191	255	
42122.707	1	1	0	0	0.19074	0.094656	0.098693	0.12165	0.17082	0.11321	0.14183	0.20842	0.13499	0.17441	0.37555	0.11398	0.16847	0.22028	0.18331	0.072219	-1.8958	-2.4396	-2.5125	-2.3563	-2.6542	-2.575	-2.4938	-2.8375	-2.2542	-2.6437	-2.6458	-2.5396	-2.6708	-2.6229	-2.5771	-2.7729	368.085	494.371	242.319	464.229	201.895	452.660	358.321	448.776	451.450	522.359	498.573	466.439	234.949	445.413	367.675	220.835	0.00049132	0.00063945	9.5234e-05	1495.7	3.426e-06	5.577e-06	1475.7	394.37	4.6429e-06	4.4185e-06	449.49	152	133.1	45.818	5.3814e-06	56.136	0.00057712	0.00059235	0.00016563	1507.9	6.3443e-06	6.5867e-06	1494.4	400.73	6.4586e-06	6.3117e-06	456.4	155.61	136.1	46.902	6.4799e-06	57.397	232.461	256.972	259.624	190.266	320.605	326.883	189.939	194.446	322.262	328.995	194.255	198.382	198.948	203.416	327.376	202.751	-8191	255	
42122.805	1	1	0	0	0.2206	0.18107	0.1513	0.15161	0.25277	0.15279	0.30255	0.22121	0.10541	0.24435	0.064015	0.11236	0.30189	0.24108	0.17443	0.17052	-1.7833	-2.6437	-2.3021	-2.5729	-2.5604	-2.45	-2.5	-2.7521	-2.4688	-2.4708	-2.6333	-2.5146	-2.4833	-2.4021	-2.3646	-2.7083	344.141	474.315	335.444	491.230	496.780	390.428	489.842	498.872	441.117	315.490	357.617	528.792	200.821	482.805	523.454	499.709	0.00048494	0.00053745	0.00016403	1490.9	5.656e-06	4.9638e-06	1478	392.36	5.268e-06	5.5967e-06	448.83	151.93	132.6	45.754	4.4921e-06	55.89	0.0005696	0.00058993	0.00016316	1506.7	6.327e-06	6.0214e-06	1493.6	399.61	6.1972e-06	6.3045e-06	454.97	155.52	135.58	46.79	6.267e-06	57.275	232.739	262.159	265.061	190.018	311.858	346.963	189.929	194.648	300.375	323.310	194.337	198.212	198.503	203.302	321.915	202.788	-8191	255	
42122.898	1	1	0	0	0.037035	0.090224	0.26627	0.32919	0.25757	0.2662	0.10704	0.46071	0.19497	0.21405	0.23199	0.10938	0.13461	0.17507	0.26866	0.23361	-1.8667	-2.35	-2.7	-2.5812	-2.6521	-2.3896	-2.3521	-2.6854	-2.1896	-2.3417	-2.5792	-2.3812	-2.4437	-2.7562	-2.2146	-2.6896	312.798	206.134	432.916	479.305	294.433	489.349	416.574	486.375	529.662	476.197	177.717	439.226	218.192	373.059	241.535	497.158	0.00049637	0.00052271	0.00014032	1484.9	5.071e-06	4.4306e-06	1474.6	392.71	4.3986e-06	5.2989e-06	449.63	152.54	132	45.934	5.258e-06	55.795	0.00055991	0.00056621	0.00015715	1503.6	6.1087e-06	6.2163e-06	1493	399.61	6.4446e-06	6.4791e-06	455.74	155.76	135.82	46.891	6.388e-06	57.251	232.047	245.480	261.806	190.039	312.780	327.013	190.076	194.641	328.074	334.881	194.418	198.058	198.884	203.469	318.556	202.870	-8191	255	
42123.020	1	1	0	0	0.064566	0.26438	0.094704	0.077605	0.21951	0.1494	0.21318	0.050833	0.267	0.20895	0.11645	0.1085	0.24088	0.2125	0.20476	0.28863	-2.0271	-2.3104	-2.4938	-2.3917	-2.4313	-2.4792	-2.2438	-2.7479	-2.3833	-2.4458	-2.6417	-2.45	-2.525	-2.6854	-2.3583	-2.6896	311.109	301.167	375.312	430.014	322.609	513.348	526.208	348.177	335.687	382.944	278.785	177.185	179.841	214.375	210.544	521.824	0.00048674	0.00064608	0.00015028	1490	6.2617e-06	6.6185e-06	1472.9	393.1	4.8669e-06	5.016e-06	447.16	152.05	132.06	45.519	4.3801e-06	55.668	0.00056304	0.0005905	0.00015802	1506.6	6.4741e-06	6.751e-06	1492.1	400.13	6.4987e-06	6.528e-06	454.79	155.33	135.34	46.637	6.4252e-06	57.085	231.432	274.681	278.614	190.120	316.911	332.690	189.897	194.636	316.957	331.926	194.279	198.311	198.847	203.468	316.292	202.566	-8191	255	
42123.113	1	1	0	0	0.18895	0.28948	0.071203	0.12748	0.21223	0.36207	0.081313	0.24709	0.31437	0.27024	0.15442	0.18976	0.19257	0.071699	0.12295	0.073608	-2.0667	-2.4229	-2.7042	-2.4479	-2.3438	-2.5646	-2.4833	-2.7125	-2.45	-2.475	-2.8	-2.3958	-2.4208	-2.8	-2.225	-2.6271	351.879	431.205	409.976	183.430	379.121	272.678	444.440	420.817	468.605	295.997	182.872	209.882	493.345	265.278	531.273	499.726	0.00049178	0.00050982	0.00014291	1487.5	4.5817e-06	6.3888e-06	1470.6	393.55	5.9082e-06	5.2101e-06	448.24	151.45	131.77	45.558	4.4876e-06	55.769	0.00057004	0.00061216	0.00016161	1502.9	6.4195e-06	6.201e-06	1489.9	399.67	6.531e-06	6.6906e-06	454.44	154.84	135.11	46.581	6.2598e-06	57.049	234.105	259.999	270.321	190.197	330.476	323.881	190.064	194.679	316.128	321.605	194.317	198.253	198.641	203.566	325.745	203.004	-8191	255	
42123.211	1	1	0	0	0.092786	0.077967	0.15274	0.1983	0.17178	0.21567	0.31504	0.14652	0.14681	0.18649	0.062077	0.20378	0.038819	0.10231	0.099858	0.17688	-2.1458	-2.3375	-2.5792	-2.7375	-2.2438	-2.825	-2.4042	-2.6146	-2.4875	-2.2479	-2.6083	-2.5625	-2.3	-2.6354	-2.3	-2.6167	458.672	193.835	369.551	491.025	455.697	385.294	471.208	433.529	380.514	185.171	203.586	422.353	377.315	436.555	528.984	475.210	0.0004827	0.00057914	0.00015915	1491.6	3.7347e-06	5.4493e-06	1474.1	393.52	6.1707e-06	4.0115e-06	447.41	152.31	132.84	45.595	3.6786e-06	55.888	0.00056287	0.00058316	0.00015619	1505.7	6.1985e-06	6.1188e-06	1492.9	400.06	6.3378e-06	6.3149e-06	455.34	155.64	135.88	46.8	6.1038e-06	57.376	233.854	250.159	277.039	190.043	322.236	327.827	189.933	194.640	304.527	316.815	194.351	198.191	198.981	203.566	313.188	202.763	-8191	255	
42123.309	1	1	0	0	0.10243	0.16138	0.11076	0.35677	0.20446	0.20965	0.38326	0.073392	0.16908	0.23942	0.17896	0.29154	0.08349	0.092173	0.14898	0.23732	-2.1792	-2.1375	-2.5438	-2.5833	-2.3229	-2.7792	-2.5292	-2.5229	-2.5646	-2.375	-2.5583	-2.6083	-2.4979	-2.6958	-2.4271	-2.5333	385.723	255.425	387.449	459.229	359.342	270.944	473.922	479.837	500.984	496.889	512.601	316.713	340.567	356.734	292.088	221.075	0.00048521	0.0005611	0.00017237	1488.9	3.5624e-06	5.3347e-06	1474.9	394.97	4.9087e-06	4.6642e-06	449.16	151.94	132.76	45.742	5.2845e-06	55.877	0.00056378	0.00057597	0.00015651	1504	6.2271e-06	6.106e-06	1494.1	400.95	6.5571e-06	6.3782e-06	455.72	155.87	136.01	46.804	6.2962e-06	57.277	232.934	267.892	270.418	190.164	321.557	349.485	189.878	194.528	309.009	335.271	194.121	198.236	198.745	203.295	303.257	202.784	-8191	255	
42123.383	1	1	0	0	0.29886	0.068158	0.26296	0.19422	0.19205	0.21228	0.069476	0.36614	0.18923	0.034895	0.13017	0.17138	0.19968	0.10067	0.082799	0.28163	-2.0083	-2.2271	-2.5208	-2.7125	-2.1521	-2.6708	-2.625	-2.5104	-2.8042	-2.3875	-2.65	-2.5042	-2.2	-2.7938	-2.4479	-2.4458	184.266	255.547	269.156	504.768	491.807	499.059	459.663	441.360	458.668	505.854	520.925	257.559	182.271	379.315	280.933	271.098	0.00049553	0.00068214	0.00019185	1489.4	4.3008e-06	5.8584e-06	1474.2	392.36	5.2531e-06	4.649e-06	446.87	152.46	132.38	45.582	4.7117e-06	55.97	0.00055109	0.00059157	0.00016051	1504	6.4408e-06	6.3959e-06	1491.6	400.12	6.4348e-06	6.419e-06	455.12	155.6	135.74	46.727	6.3822e-06	57.329	233.426	247.063	275.014	189.966	315.225	338.729	189.861	194.693	317.110	323.584	194.484	198.374	198.823	203.204	326.986	202.864	-8191	255	
42123.500	1	1	0	0	0.17742	0.2935	0.068167	0.23492	0.16262	0.21473	0.1885	0.27493	0.093435	0.18606	0.18719	0.22647	0.036252	0.38715	0.19416	0.23695	-2.2146	-2.1792	-2.5021	-2.55	-2.3125	-2.5771	-2.5521	-2.4667	-2.6958	-2.2812	-2.5583	-2.6292	-2.3167	-2.6167	-2.6542	-2.35	199.152	445.760	439.209	482.481	220.702	297.468	500.666	453.014	216.071	221.604	468.837	475.335	211.007	492.355	315.815	179.232	0.00048307	0.00056798	0.0001319	1485.6	4.6949e-06	4.1803e-06	1470.5	393.08	4.3061e-06	4.7636e-06	449.81	151.75	132.66	45.667	4.0426e-06	55.841	0.00056433	0.00057789	0.00016483	1503.7	6.3456e-06	5.8909e-06	1491.2	400.11	6.3216e-06	6.568e-06	455.27	155.22	135.61	46.775	6.4361e-06	57.262	230.617	263.948	279.829	190.170	326.800	324.542	189.892	194.527	303.513	306.539	194.303	198.119	198.692	203.549	341.062	202.894	-8191	255	
42123.598	1	1	0	0	0.07058	0.097869	0.24309	0.37173	0.25464	0.3059	0.17285	0.30414	0.085444	0.21921	0.094035	0.083644	0.090779	0.12509	0.17977	0.13351	-2.3521	-2.3354	-2.4979	-2.5958	-2.3104	-2.6417	-2.5646	-2.4771	-2.5708	-2.4021	-2.6813	-2.7333	-2.2208	-2.5479	-2.5	-2.2938	445.131	464.665	233.854	455.669	522.772	262.971	503.009	488.973	266.180	410.565	224.630	434.332	407.086	194.210	492.457	263.080	0.00050582	0.00054253	0.00014177	1492.7	4.6084e-06	5.9665e-06	1474	394.63	4.5689e-06	4.6509e-06	450	152.06	132.83	46.114	3.4152e-06	56.072	0.00054776	0.00058466	0.00016248	1505	6.5852e-06	6.1454e-06	1492	400.12	6.387e-06	6.5392e-06	455.53	155.67	135.9	46.982	6.5309e-06	57.448	231.925	251.866	267.212	190.225	308.749	334.083	189.917	194.602	316.365	330.934	194.059	198.232	198.920	203.507	337.192	203.064	-8191	255	
42123.691	1	1	0	0	0.068489	0.091708	0.44006	0.26578	0.1409	0.20526	0.22563	0.19619	0.13308	0.16875	0.19402	0.25663	0.081225	0.074955	0.20363	0.10212	-2.2292	-2.3479	-2.3375	-2.8646	-2.4562	-2.575	-2.8646	-2.2729	-2.6375	-2.7021	-2.5125	-2.8688	-2.4354	-2.625	-2.5458	-2.5521	270.803	501.281	215.225	500.762	202.101	331.556	507.225	416.879	351.809	509.342	458.381	233.879	221.600	231.013	271.437	473.850	0.0004918	0.00055021	0.00013581	1489.9	4.0277e-06	5.3532e-06	1476.2	395.32	4.9742e-06	6.5296e-06	448.79	152.88	132.81	45.928	5.1195e-06	55.88	0.00056256	0.00057447	0.00016123	1506	6.2285e-06	6.4386e-06	1495.5	401.98	6.2422e-06	6.4551e-06	456.36	156.6	136.34	47.09	6.5236e-06	57.592	231.540	258.705	282.007	190.087	314.873	325.846	190.036	194.647	314.935	316.403	194.154	198.035	198.709	203.586	326.207	202.737	-8191	255	
42123.789	1	1	0	0	0.21231	0.18497	0.19434	0.2609	0.27163	0.18595	0.34	0.38525	0.18223	0.25349	0.1224	0.26655	0.2487	0.2902	0.096905	0.14706	-2.1271	-2.5187	-2.4125	-2.8021	-2.3833	-2.5167	-2.6854	-2.4104	-2.7062	-2.6708	-2.4417	-2.8125	-2.3271	-2.6646	-2.5896	-2.4396	304.888	210.434	371.961	512.825	336.297	534.742	438.046	491.128	184.745	189.012	530.177	495.491	525.642	187.468	381.102	316.819	0.00048295	0.00067363	0.00017158	1493.7	4.1764e-06	5.0791e-06	1476	395.9	4.0847e-06	4.7063e-06	449.96	152.85	133.68	46.117	5.9622e-06	56.436	0.00056702	0.00057661	0.00016766	1509.3	6.3656e-06	6.3258e-06	1494.6	401.99	6.2611e-06	6.2572e-06	457.44	156.6	136.67	47.2	6.1876e-06	57.833	232.689	257.037	269.662	190.109	321.664	319.231	189.970	194.864	301.475	326.385	194.239	198.232	198.726	203.221	314.645	202.695	-8191	255	
42123.910	1	1	0	0	0.2048	0.10206	0.17301	0.34711	0.21611	0.28784	0.31625	0.26797	0.12602	0.10976	0.097401	0.15104	0.21565	0.19091	0.14242	0.075688	-1.9896	-2.3896	-2.375	-2.8729	-2.5458	-2.6208	-2.6625	-2.5333	-2.4979	-2.3729	-2.375	-2.7042	-2.3792	-2.4854	-2.7167	-2.6083	283.831	421.000	493.707	498.365	365.074	444.994	465.603	206.134	250.065	269.541	520.161	459.716	479.228	237.198	416.346	296.048	0.00052276	0.00050864	0.00019065	1495	3.9302e-06	3.9288e-06	1479.4	395.75	4.3885e-06	4.72e-06	450.97	153.23	134.31	46.043	5.2223e-06	56.335	0.00055793	0.00058437	0.00016392	1509.3	6.285e-06	6.1962e-06	1498.1	402.27	6.4544e-06	6.3509e-06	458.27	157.09	137.17	47.282	6.251e-06	57.85	233.254	252.205	280.802	190.094	321.009	314.160	189.989	194.367	315.158	314.764	194.188	198.253	198.684	203.304	328.655	202.842	-8191	255	
42124.004	1	1	0	0	0.081914	0.24001	0.049681	0.43727	0.34509	0.15537	0.42266	0.24551	0.37045	0.066114	0.058706	0.075949	0.26131	0.28349	0.28228	0.12779	-1.8083	-2.5083	-2.1917	-2.8063	-2.3167	-2.3438	-2.7729	-2.3896	-2.6479	-2.5167	-2.35	-2.7687	-2.4562	-2.3937	-2.7333	-2.3104	272.152	287.727	318.378	459.111	319.896	239.455	479.146	410.868	475.989	456.041	493.520	383.777	181.110	468.568	196.921	367.667	0.00049386	0.00056699	0.00016689	1494.1	4.3364e-06	5.8059e-06	1478.7	395.84	4.6201e-06	5.346e-06	450.06	152.46	133.79	46.113	5.1246e-06	56.217	0.00056474	0.00056948	0.00017475	1508.9	6.2717e-06	6.3975e-06	1496.1	402.34	6.3645e-06	6.3389e-06	456.94	156.49	136.58	47.131	6.364e-06	57.681	232.550	266.092	263.626	190.177	316.301	345.072	189.900	194.526	311.664	323.353	194.200	197.974	198.376	203.369	317.796	202.734	-8191	255	
42124.102	1	1	0	0	0.20437	0.099342	0.13123	0.36346	0.10487	0.19194	0.26617	0.31363	0.20565	0.13638	0.18774	0.11284	0.15084	0.17223	0.053306	0.029697	-2.1083	-2.7687	-2.2104	-2.8271	-2.3771	-2.2917	-2.875	-2.4938	-2.5208	-2.6042	-2.5125	-2.6771	-2.5875	-2.2875	-2.5396	-2.4521	314.552	424.470	224.330	510.938	356.311	195.334	529.329	523.905	458.654	320.827	422.660	435.844	327.071	408.846	275.579	486.250	0.0004925	0.00063711	0.00016328	1489.4	5.5648e-06	5.7418e-06	1475.1	394.78	5.0161e-06	5.5829e-06	450.79	153.56	133.31	45.899	5.5745e-06	56.261	0.00056562	0.0005863	0.00016153	1505.2	6.5193e-06	6.6794e-06	1493.2	401.57	6.5388e-06	6.4823e-06	457.18	156.7	136.62	47.135	6.3501e-06	57.681	231.946	262.413	269.887	190.102	332.514	320.659	189.888	194.596	297.335	313.042	194.292	198.170	198.755	203.365	315.739	202.593	-8191	255	
42124.195	1	1	0	0	0.13031	0.12928	0.06945	0.38937	0.18619	0.053961	0.17742	0.17787	0.13165	0.27328	0.27263	0.32002	0.078873	0.061614	0.10697	0.11811	-1.8521	-2.5854	-2.3708	-2.7646	-2.6104	-2.2771	-2.7417	-2.4688	-2.3229	-2.6396	-2.2458	-2.7479	-2.6792	-2.4375	-2.7521	-2.5458	305.755	487.363	279.337	524.782	203.842	344.561	447.062	519.453	238.510	298.431	487.045	184.534	305.507	457.959	430.073	327.967	0.00051705	0.00064806	0.00013589	1494	3.9998e-06	3.2573e-06	1481.4	395.87	5.2317e-06	5.9199e-06	449.85	153.98	134.21	46.413	6.141e-06	56.645	0.00058324	0.0005957	0.00016346	1508.5	6.4894e-06	6.631e-06	1498.4	402.63	6.6442e-06	6.596e-06	458.68	157.55	137.34	47.5	6.4267e-06	58.027	232.544	267.070	273.670	190.092	325.001	341.231	190.034	194.536	316.954	320.744	194.292	198.129	198.692	203.297	320.206	202.742	-8191	255	
42124.293	1	1	0	0	0.15994	0.19895	0.055179	0.24758	0.10173	0.19793	0.27642	0.20648	0.12134	0.15548	0.09223	0.19715	0.098333	0.27961	0.077696	0.064018	-1.9188	-2.5917	-2.1125	-2.7208	-2.5979	-2.2812	-2.6896	-2.5396	-2.3667	-2.6	-2.3354	-2.6292	-2.6688	-2.2083	-2.5771	-2.5833	207.361	296.900	386.087	502.519	330.878	532.534	443.300	446.669	192.788	186.118	531.384	437.602	259.442	183.911	235.545	513.793	0.0005032	0.00057109	0.00015868	1496	4.3968e-06	6.3769e-06	1478.9	397.62	4.845e-06	5.7234e-06	451.34	153.93	134.96	46.508	3.7598e-06	56.664	0.00058447	0.00059306	0.00015834	1511.1	6.4601e-06	6.6334e-06	1498.6	403.71	6.5437e-06	6.1675e-06	458.7	157.86	137.81	47.622	6.3844e-06	58.099	232.288	265.344	288.171	190.093	325.165	331.535	190.084	194.349	300.465	331.234	194.468	198.175	198.741	203.001	312.826	202.607	-8191	255	
42124.391	1	1	0	0	0.1432	0.22835	0.10628	0.1361	0.14748	0.13055	0.25272	0.13202	0.13811	0.049049	0.20979	0.12074	0.10395	0.21384	0.08648	0.12321	-1.8021	-2.4958	-2.4771	-2.7896	-2.9167	-2.2896	-2.8333	-2.6188	-2.3104	-2.6333	-2.3937	-2.6125	-2.6958	-2.4021	-2.4021	-2.5833	281.922	369.071	477.161	509.024	188.317	485.341	431.067	351.190	349.480	289.454	247.434	405.887	348.520	517.725	384.107	479.489	0.00050523	0.00064042	0.00017082	1497.5	4.7467e-06	3.6412e-06	1486.9	397.93	6.5215e-06	5.3966e-06	452.52	154.62	135.04	46.637	4.7664e-06	56.787	0.00056569	0.00058124	0.0001668	1512.3	6.4747e-06	6.5714e-06	1502.9	403.86	6.6639e-06	6.3598e-06	459.57	158.35	138.12	47.717	6.5185e-06	58.307	232.017	272.051	263.237	190.139	319.972	332.306	190.099	194.654	313.286	328.767	194.276	198.341	198.714	203.128	327.988	202.669	-8191	255	
42124.508	1	1	0	0	0.20699	0.15809	0.028626	0.12633	0.13724	0.14076	0.16662	0.20966	0.27768	0.15887	0.15384	0.4248	0.099284	0.17159	0.11703	0.17354	-1.7812	-2.7229	-2.3958	-2.4125	-2.6542	-2.4062	-2.575	-2.6396	-2.3333	-2.5875	-2.5604	-2.3979	-2.6437	-2.3063	-2.6083	-2.6417	317.867	407.577	222.444	506.489	380.297	416.910	499.109	452.895	529.525	317.961	499.558	176.878	483.303	187.748	205.637	459.797	0.00049968	0.00044352	0.00011631	1502.7	5.1227e-06	5.6622e-06	1483.4	398.89	4.7676e-06	4.8251e-06	451.96	155.18	135.55	46.701	4.6743e-06	56.764	0.0005711	0.00055552	0.00015358	1515.6	6.2584e-06	6.4474e-06	1503.5	404.99	6.3314e-06	6.1499e-06	459.73	158.75	138.64	47.778	6.3633e-06	58.342	232.755	265.960	254.067	190.215	310.572	333.677	189.894	194.738	296.901	324.045	194.399	198.106	198.871	203.304	318.873	202.787	-8191	255	
42124.605	1	1	0	0	0.30911	0.045983	0.13242	0.24455	0.17558	0.26743	0.23241	0.16895	0.17041	0.23774	0.24214	0.13226	0.21776	0.23081	0.17482	0.20072	-1.7917	-2.6021	-2.4042	-2.5083	-2.7313	-2.5417	-2.6979	-2.7188	-2.2083	-2.625	-2.5542	-2.2562	-2.7313	-2.7958	-2.575	-2.8167	341.828	393.570	222.374	491.640	234.065	534.114	485.465	491.286	518.904	284.861	498.885	510.631	530.661	516.156	481.033	519.656	0.00048581	0.00061165	0.00015268	1499.3	3.7528e-06	5.098e-06	1485.3	397.93	5.4702e-06	7.5757e-06	453.13	155.17	134.63	46.633	6.1678e-06	56.851	0.00056324	0.00057077	0.00015991	1514.3	6.0468e-06	6.201e-06	1502.6	404.21	6.3012e-06	6.1683e-06	459.75	158.73	138.46	47.832	6.388e-06	58.4	230.863	251.283	263.197	190.101	339.821	333.869	189.910	194.828	318.893	331.254	193.911	198.154	198.661	203.181	308.718	202.752	-8191	255	
42124.676	1	1	0	0	0.16234	0.055219	0.16173	0.17238	0.12815	0.22611	0.1568	0.21491	0.2348	0.10468	0.18905	0.25848	0.1246	0.40852	0.194	0.21961	-1.8771	-2.5854	-2.5542	-2.6	-2.5687	-2.5708	-2.5417	-2.8688	-2.1917	-2.65	-2.6667	-2.4354	-2.6667	-2.4125	-2.3208	-2.7	406.053	277.196	517.859	501.803	418.636	450.857	459.150	452.514	303.814	501.094	526.338	492.483	348.419	486.560	504.715	402.046	0.00050165	0.00052351	0.0001775	1494.7	4.4671e-06	5.5848e-06	1485	398.71	4.7062e-06	5.3588e-06	453.52	155.74	135.22	46.589	5.1711e-06	56.886	0.00057124	0.00056478	0.00015412	1511.8	5.9988e-06	6.0456e-06	1502.9	404.69	6.4755e-06	5.8471e-06	459.84	158.71	138.2	47.692	6.3669e-06	58.352	234.214	257.036	281.839	190.186	323.551	341.686	190.037	194.460	325.733	309.067	194.303	198.195	198.751	203.206	329.721	202.641	-8191	255	
42124.797	1	1	0	0	0.08864	0.13269	0.14825	0.091671	0.1905	0.09178	0.1444	0.17386	0.22247	0.22982	0.14133	0.11102	0.13635	0.28045	0.37031	0.075723	-1.8625	-2.5062	-2.5312	-2.45	-2.6521	-2.4979	-2.7	-2.925	-2.5042	-2.4979	-2.8667	-2.2604	-2.7021	-2.4146	-2.3625	-2.675	195.768	503.473	399.768	179.369	300.224	234.136	467.360	457.902	316.100	420.917	391.516	527.480	531.192	488.703	209.987	489.180	0.00051223	0.00044769	0.00010848	1498.1	5.1241e-06	5.7808e-06	1482.3	396.34	4.8493e-06	6.3822e-06	451.78	154.27	134.95	46.621	4.857e-06	56.936	0.00056593	0.00056208	0.00015229	1511.2	5.9755e-06	6.3476e-06	1500.2	403.59	6.2717e-06	6.2949e-06	459.04	158.15	138.03	47.678	6.2802e-06	58.216	233.121	265.680	280.105	190.161	324.973	326.698	189.864	194.702	315.587	312.596	194.343	198.057	198.956	203.311	319.469	202.787	-8191	255	
42124.895	1	1	0	0	0.05569	0.17175	0.17204	0.16445	0.26795	0.21568	0.16185	0.20379	0.078846	0.07558	0.30865	0.16052	0.13271	0.13612	0.18348	0.083341	-1.9521	-2.3417	-2.7292	-2.4625	-2.5354	-2.3542	-2.5021	-2.9667	-2.6333	-2.4417	-2.7042	-2.4667	-2.6875	-2.7479	-2.4146	-2.7604	187.996	294.161	207.726	358.961	236.465	447.477	488.372	517.496	489.255	221.314	499.037	476.069	484.951	333.976	442.388	510.153	0.00050966	0.00048803	0.00019636	1497.3	5.1186e-06	5.3302e-06	1483.8	396.5	4.8276e-06	4.7757e-06	451.45	153.83	135.12	46.638	4.1717e-06	56.61	0.00056776	0.0005682	0.00015295	1510.9	6.096e-06	6.1398e-06	1499.5	403.74	6.3954e-06	6.2733e-06	458.18	157.79	137.95	47.591	6.3246e-06	58.093	233.595	259.324	266.890	190.085	318.696	337.810	190.073	194.498	305.889	321.784	194.493	198.114	198.841	203.349	317.318	202.553	-8191	255	
42124.988	1	1	0	0	0.23581	0.1938	0.18971	0.095918	0.14357	0.23048	0.024305	0.23859	0.11653	0.1304	0.21689	0.20974	0.22581	0.13001	0.39829	0.13209	-2.0458	-2.4292	-2.6521	-2.575	-2.5479	-2.6	-2.5167	-2.7562	-2.6875	-2.2708	-2.7792	-2.2833	-2.7417	-2.6771	-2.2208	-2.6063	471.280	386.178	401.775	514.752	481.494	182.378	187.878	473.105	474.397	350.335	497.487	212.969	393.962	529.651	526.137	230.057	0.00050949	0.00047399	0.00015831	1497.1	4.2238e-06	5.9953e-06	1486.5	396.81	4.8967e-06	4.4012e-06	450.98	153.91	134.22	46.436	3.71e-06	56.768	0.0005728	0.00056371	0.00015171	1511.8	6.1632e-06	6.0746e-06	1501.4	403.71	6.141e-06	6.1723e-06	458.88	157.64	137.48	47.53	6.3108e-06	57.992	233.484	261.799	274.785	190.241	318.850	339.031	190.045	194.614	324.756	354.681	194.391	198.048	198.790	203.154	307.638	202.723	-8191	255	
42125.086	1	1	0	0	0.1448	0.037824	0.20974	0.34759	0.14306	0.07456	0.24622	0.2907	0.15174	0.15407	0.16605	0.28983	0.32543	0.28494	0.22828	0.27455	-1.9354	-2.4417	-2.6458	-2.3646	-2.6583	-2.7313	-2.3771	-2.6771	-2.4958	-2.4708	-2.75	-2.4792	-2.6625	-2.6417	-2.3583	-2.7792	384.232	246.046	444.933	178.110	245.374	335.201	518.812	532.028	526.800	518.442	386.224	461.470	179.438	233.068	288.407	198.089	0.00049495	0.00055532	0.00011179	1493.8	4.6552e-06	3.909e-06	1485.2	396.74	4.5334e-06	6.4497e-06	452.88	154.88	135.11	46.328	5.0696e-06	56.509	0.00055048	0.00056542	0.00014944	1510.5	6.0934e-06	5.7065e-06	1498.2	403.25	6.1395e-06	6.1034e-06	459.32	157.84	137.64	47.444	6.1096e-06	57.929	232.175	271.187	273.100	190.015	323.357	338.628	190.044	194.552	316.666	335.706	194.179	198.326	198.726	203.385	327.611	202.627	-8191	255	
42125.203	1	1	0	0	0.16387	0.17298	0.084654	0.16869	0.23049	0.10432	0.14584	0.19071	0.052112	0.044701	0.13397	0.14362	0.084116	0.16422	0.20069	0.096982	-2.125	-2.2729	-2.6667	-2.675	-2.5375	-2.9042	-2.5271	-2.6417	-2.6646	-2.3896	-2.7646	-2.4813	-2.3542	-2.75	-2.3146	-2.6437	193.210	399.351	510.617	384.520	239.093	223.008	494.462	512.297	497.412	191.196	500.722	478.401	274.983	391.984	280.942	251.565	0.00050606	0.00055062	0.00013622	1489.7	4.0652e-06	4.7497e-06	1479.2	395.35	4.4458e-06	4.6619e-06	450.15	153.05	133.69	45.717	4.627e-06	55.981	0.00054739	0.00055175	0.00013969	1507	5.9556e-06	5.9312e-06	1495.6	402.31	5.9006e-06	6.0033e-06	457.2	156.43	136.35	46.87	5.8771e-06	57.446	231.335	260.219	269.631	190.244	324.999	342.373	189.968	194.477	309.579	297.056	194.120	198.183	198.929	203.412	322.802	202.875	-8191	255	
42125.277	1	1	0	0	0.27763	0.16719	0.071146	0.4773	0.18836	0.24421	0.11471	0.14832	0.17171	0.17879	0.12285	0.26375	0.17386	0.17262	0.12526	0.22882	-2.2208	-2.2167	-2.6833	-2.65	-2.4042	-2.7833	-2.4833	-2.5083	-2.5792	-2.4042	-2.7521	-2.4479	-2.2812	-2.7854	-2.5208	-2.7208	348.992	516.927	404.214	179.877	195.494	493.289	252.924	438.972	447.787	299.581	509.649	234.154	358.700	510.814	238.184	481.663	0.00047784	0.0006164	0.00017734	1489.8	4.7146e-06	4.7531e-06	1467.6	393.13	4.9017e-06	4.9462e-06	448.03	151.65	132.15	45.344	3.9061e-06	55.51	0.00052728	0.00052809	0.00013909	1504.1	5.6654e-06	5.7178e-06	1487.3	399.81	5.6518e-06	5.7214e-06	454.99	154.97	135.07	46.367	5.5288e-06	56.913	232.993	269.919	250.853	190.063	317.346	340.746	190.020	194.567	315.197	333.750	194.365	198.440	198.805	203.615	316.809	202.827	-8191	255	
42125.371	1	1	0	0	0.11967	0.1196	0.068435	0.16061	0.077393	0.11605	0.35098	0.24402	0.25319	0.18955	0.063065	0.23707	0.19136	0.13546	0.12898	0.15736	-2.2021	-2.2958	-2.6229	-2.7521	-2.3438	-2.8	-2.6	-2.6271	-2.6937	-2.3312	-2.6312	-2.7396	-2.5667	-2.8438	-2.35	-2.5833	188.377	339.696	386.028	481.551	230.379	198.204	501.682	275.536	510.672	277.285	493.816	411.673	478.667	262.563	386.998	426.453	0.00046515	0.00050395	0.00017502	1483.5	6.0661e-06	6.4564e-06	1469.4	392.63	5.3678e-06	4.2455e-06	446.11	150.77	131.59	45.167	3.3545e-06	55.35	0.00051177	0.00050088	0.0001376	1497.6	5.6414e-06	5.4142e-06	1485	399.52	5.8493e-06	5.4587e-06	454.15	154.3	134.51	46.26	5.3925e-06	56.804	233.231	244.222	286.798	190.016	337.545	328.216	190.047	194.693	307.865	317.038	194.214	198.435	198.713	203.471	306.874	202.834	-8191	255	
42125.469	1	1	0	0	0.16917	0.22185	0.25631	0.21896	0.20553	0.20451	0.081628	0.20526	0.16247	0.061055	0.11841	0.22752	0.039648	0.075796	0.056423	0.30312	-2.1729	-2.2917	-2.6104	-2.8125	-2.3125	-2.7313	-2.6292	-2.4792	-2.5938	-2.2083	-2.8937	-2.6146	-2.4021	-2.6813	-2.5312	-2.5917	218.289	309.005	375.461	184.705	184.713	393.272	531.721	488.624	192.129	523.940	530.469	463.333	514.797	482.370	351.961	491.427	0.0004751	0.00050333	0.00013747	1478.6	4.1661e-06	5.5372e-06	1465.1	391.34	4.7289e-06	3.9624e-06	446.28	149.96	131.39	45.011	4.2417e-06	55.14	0.00051122	0.00048934	0.00013674	1494.8	5.6507e-06	5.4174e-06	1479.6	397.71	5.4444e-06	5.3473e-06	451.91	153.46	133.99	46.006	5.7379e-06	56.634	234.550	250.047	255.006	190.167	325.754	321.568	190.007	194.507	309.356	310.601	194.155	198.477	198.845	203.535	312.613	202.961	-8191	255	
42125.590	1	1	0	0	0.13495	0.11011	0.1551	0.21766	0.22059	0.21174	0.23152	0.10988	0.18085	0.23411	0.19191	0.33638	0.10937	0.0085171	0.14464	0.25634	-2.4479	-2.3833	-2.5333	-2.7417	-2.3458	-2.7042	-2.5521	-2.5229	-2.7708	-2.5229	-2.5021	-2.7562	-2.4396	-2.7229	-2.5958	-2.4562	218.152	285.547	215.550	490.929	413.155	226.073	487.005	443.696	279.662	390.556	189.561	500.859	266.001	464.887	443.227	433.504	0.00047853	0.00061029	0.0001597	1481	5.5161e-06	5.2115e-06	1460.3	391.77	4.8602e-06	4.5732e-06	447.78	149.68	131.11	44.78	5.4851e-06	54.877	0.00051085	0.00049582	0.00013839	1493.6	5.5203e-06	5.3337e-06	1478.8	397.45	5.3095e-06	5.2672e-06	452.98	153.14	133.66	45.915	5.3444e-06	56.409	231.131	260.172	267.173	190.127	321.944	334.351	190.044	194.783	326.005	334.646	194.320	198.491	199.207	203.414	308.856	203.053	-8191	255	
42125.684	1	1	0	0	0.089355	0.22573	0.072978	0.36685	0.10885	0.059152	0.20077	0.39047	0.25074	0.27237	0.084452	0.082836	0.10953	0.091663	0.12401	0.18327	-2.275	-2.4125	-2.5083	-2.7583	-2.2375	-2.6146	-2.8271	-2.4813	-2.6604	-2.4813	-2.7542	-2.8042	-2.4375	-2.7292	-2.6	-2.4688	264.840	241.282	310.520	182.884	264.431	470.160	522.678	478.025	335.367	197.437	356.808	497.567	311.853	510.710	351.531	402.009	0.00047154	0.00055885	0.00010412	1474	4.1994e-06	6.4246e-06	1463.4	390.13	4.7431e-06	2.6683e-06	446.3	149.8	130.21	44.93	3.8966e-06	55.262	0.00050418	0.00052183	0.00013903	1489.9	5.3053e-06	5.4126e-06	1477.4	397.15	5.2624e-06	5.2152e-06	452.21	153.55	133.75	46.083	5.2759e-06	56.608	232.857	269.362	273.201	190.156	325.082	346.846	190.053	194.869	314.370	323.216	194.152	198.547	199.081	203.735	316.810	203.127	-8191	255	
42125.781	1	1	0	0	0.12126	0.15668	0.27402	0.30889	0.20618	0.078114	0.086797	0.20674	0.16486	0.15841	0.063908	0.050991	0.11484	0.28346	0.17382	0.12635	-2.1396	-2.3292	-2.4313	-2.7479	-2.2042	-2.6104	-2.8083	-2.4521	-2.5104	-2.3854	-2.4396	-2.7604	-2.3563	-2.4958	-2.5479	-2.3917	315.428	229.748	276.747	215.396	449.846	472.851	258.111	465.483	520.982	184.717	294.266	284.694	260.240	504.980	509.682	393.806	0.00050435	0.00053287	0.00017933	1482.1	3.3142e-06	7.5077e-06	1458.2	390.2	4.2932e-06	5.7212e-06	446.05	150.19	131.1	45.144	4.59e-06	55.216	0.00051476	0.00049504	0.00013503	1491.7	5.5496e-06	5.353e-06	1477.1	397.33	5.4402e-06	5.4338e-06	452.8	153.83	134.08	46.172	5.2387e-06	56.744	231.751	272.805	262.337	190.063	317.066	323.112	189.939	194.673	315.404	325.710	194.342	198.209	198.910	203.555	323.189	203.013	-8191	255	
42125.902	1	1	0	0	0.059508	0.13433	0.047734	0.25424	0.063952	0.25004	0.24363	0.19519	0.31259	0.25227	0.4377	0.21795	0.18167	0.16061	0.058949	0.099947	-2.2229	-2.5229	-2.3458	-2.6833	-2.3396	-2.2979	-2.6146	-2.3021	-2.5417	-2.6042	-2.275	-2.7792	-2.4375	-2.5208	-2.5104	-2.3187	450.195	247.355	379.465	489.215	180.262	375.997	463.482	497.899	501.998	433.447	180.067	211.126	506.922	476.953	469.514	250.367	0.0004842	0.00064478	0.00014596	1478.1	4.4381e-06	6.2213e-06	1463	391.78	3.699e-06	6.0465e-06	444.29	150.72	130.71	45.314	4.764e-06	55.456	0.00050809	0.00048685	0.00013401	1491.3	5.6947e-06	5.4021e-06	1480.1	397.81	5.339e-06	5.5315e-06	452.87	154.27	134.2	46.236	5.4952e-06	56.801	233.467	249.009	267.413	190.313	315.500	322.812	190.197	194.679	329.139	322.535	194.163	198.264	198.959	203.670	319.388	202.900	-8191	255	
42125.973	1	1	0	0	0.11243	0.12778	0.2027	0.2622	0.094319	0.3742	0.33712	0.14886	0.21381	0.14801	0.3134	0.2667	0.11728	0.11752	0.03723	0.33331	-2.1604	-2.5687	-2.1688	-2.9271	-2.2333	-2.6042	-2.775	-2.3125	-2.7979	-2.5521	-2.4625	-2.8292	-2.4625	-2.5042	-2.725	-2.4479	292.544	219.202	404.143	462.336	189.027	270.334	452.739	468.521	261.290	419.152	518.408	189.852	304.269	479.690	534.144	486.637	0.00049897	0.00063546	0.00011833	1480.9	4.1747e-06	4.4052e-06	1461.9	391.95	5.525e-06	5.2135e-06	445.22	150.7	131.94	45.315	3.9642e-06	55.374	0.00051677	0.00049846	0.00013202	1493.2	5.5043e-06	5.3957e-06	1479.6	398.08	5.4908e-06	5.385e-06	453.12	154.18	134.87	46.376	5.3517e-06	56.959	232.511	251.481	280.508	190.254	324.107	328.210	189.892	194.709	319.244	328.197	194.191	198.364	198.978	203.494	323.120	202.934	-8191	255	
42126.070	1	1	0	0	0.2337	0.1671	0.16126	0.18212	0.071626	0.088083	0.1778	0.16816	0.15378	0.19337	0.29947	0.078985	0.32156	0.10496	0.091531	0.16304	-2.0438	-2.5812	-2.1333	-2.7542	-2.5083	-2.4917	-2.9021	-2.4896	-2.5417	-2.5604	-2.1667	-2.7104	-2.4021	-2.4521	-2.7146	-2.4437	410.685	343.118	240.606	489.597	315.608	520.130	392.998	426.045	487.455	226.591	183.419	317.277	199.775	206.425	363.354	510.590	0.0004899	0.00061996	0.0001767	1479	4.3113e-06	5.3312e-06	1463.5	392.02	4.8744e-06	4.861e-06	446.94	150.7	131.75	45.283	4.9043e-06	55.706	0.0005235	0.00050423	0.00013658	1494.2	5.6521e-06	5.4118e-06	1480.6	398.37	5.7178e-06	5.3826e-06	453.31	154.43	135.02	46.415	5.1512e-06	57.048	234.969	263.121	273.275	190.288	303.888	340.494	190.025	194.560	313.263	325.863	194.235	198.645	198.688	203.411	313.929	202.845	-8191	255	
42126.191	1	1	0	0	0.38393	0.19463	0.15295	0.60444	0.30557	0.31924	0.1598	0.1749	0.28282	0.16973	0.23881	0.15243	0.25904	0.39344	0.1975	0.231	-2.1271	-2.4604	-2.2292	-2.8979	-2.3229	-2.4188	-2.8771	-2.3917	-2.4167	-2.5667	-2.3917	-2.7083	-2.5396	-2.3625	-2.6917	-2.5104	316.834	471.741	507.323	503.504	510.381	445.034	204.863	431.404	533.897	202.967	194.852	326.647	492.319	369.275	410.621	460.351	0.00047809	0.00060847	0.0001667	1481.9	3.8866e-06	5.254e-06	1464.2	392.48	4.7445e-06	6.8991e-06	447.28	151.48	132.08	45.46	4.889e-06	55.724	0.00051901	0.00049126	0.00013875	1495.5	5.5356e-06	5.6067e-06	1481.8	399.13	5.462e-06	5.4667e-06	454.64	155	134.96	46.541	5.4304e-06	57.175	233.745	252.044	274.577	190.275	314.635	334.999	190.159	194.762	305.493	312.798	194.358	198.064	198.589	203.717	327.497	202.548	-8191	255	
42126.285	1	1	0	0	0.14017	0.082503	0.21387	0.29785	0.11728	0.20618	0.083129	0.17979	0.11956	0.13581	0.1106	0.19124	0.2846	0.071369	0.22603	0.10593	-1.9792	-2.5458	-2.4167	-2.7271	-2.4479	-2.0417	-2.8646	-2.7021	-2.4792	-2.5312	-2.3833	-2.625	-2.5042	-2.3729	-2.7062	-2.4896	463.588	262.044	423.328	493.809	275.115	517.594	475.247	426.957	273.253	210.516	507.273	376.249	186.252	519.772	307.319	478.725	0.00047127	0.00053706	0.0001019	1479.7	4.868e-06	5.7476e-06	1465.2	394.01	4.813e-06	4.285e-06	446.7	151.7	132.92	45.825	4.5596e-06	55.775	0.00052398	0.00047837	0.00014138	1496.2	5.5356e-06	5.2644e-06	1484.1	399.98	5.6166e-06	5.1086e-06	454.03	155.43	135.69	46.734	5.4318e-06	57.308	233.825	256.022	278.341	190.028	326.188	318.647	190.107	194.684	311.159	330.215	194.242	198.445	198.762	203.656	313.179	202.827	-8191	255	
42126.383	1	1	0	0	0.16836	0.24961	0.070272	0.3254	0.21788	0.2617	0.22645	0.10602	0.1258	0.24481	0.08479	0.25635	0.2275	0.24424	0.15505	0.23965	-1.9375	-2.6208	-2.3792	-2.8583	-2.7562	-2.3292	-2.8708	-2.6125	-2.3792	-2.7271	-2.2167	-2.7458	-2.5583	-2.375	-2.6083	-2.5812	484.012	528.067	536.248	532.918	277.334	183.061	420.705	392.083	498.201	203.439	243.101	283.340	473.996	524.073	467.606	504.119	0.00049284	0.00065721	0.00014186	1482.6	3.8297e-06	4.5603e-06	1465.4	393.24	5.803e-06	5.085e-06	446.5	152.3	132.62	45.799	4.6041e-06	56.014	0.00052017	0.00049297	0.00014158	1496.7	5.4078e-06	5.4102e-06	1483.9	400.09	5.8865e-06	5.1823e-06	455.04	155.82	135.87	46.893	5.5871e-06	57.482	232.797	258.043	270.893	190.153	324.035	338.501	190.021	194.705	315.074	317.912	194.257	198.282	198.899	203.319	317.778	202.941	-8191	255	
42126.504	1	1	0	0	0.24302	0.20084	0.091431	0.38707	0.1369	0.23628	0.31981	0.23332	0.019712	0.061011	0.1601	0.30768	0.19985	0.1878	0.1297	0.094564	-1.9958	-2.5271	-2.2729	-2.7125	-2.7604	-2.2792	-2.7979	-2.65	-2.4146	-2.6917	-2.4396	-2.35	-2.8729	-2.4083	-2.7562	-2.7042	377.484	445.973	515.891	496.803	455.053	471.498	480.337	474.999	445.841	340.082	455.724	464.236	387.380	535.826	468.290	448.306	0.00049407	0.00049307	0.0001371	1489.4	4.2258e-06	4.9267e-06	1472.6	394.06	4.0299e-06	5.4466e-06	448.7	151.95	132.72	45.644	4.8451e-06	56.184	0.00051891	0.00048507	0.00013602	1500.6	5.4284e-06	5.4561e-06	1488.2	401.01	5.8071e-06	5.4378e-06	455.55	155.85	135.87	46.882	5.6694e-06	57.535	233.491	264.815	272.109	190.301	318.110	317.322	190.054	194.686	321.201	323.673	194.410	198.351	198.957	203.441	326.180	202.778	-8191	255	
42126.574	1	1	0	0	0.17643	0.25663	0.26641	0.12511	0.18762	0.14397	0.26157	0.14003	0.12129	0.20072	0.15338	0.28825	0.10884	0.13459	0.17597	0.19395	-1.925	-2.5083	-2.3521	-2.6083	-2.7562	-2.4979	-2.9792	-2.7354	-2.3146	-2.7646	-2.45	-2.5083	-2.7938	-2.1833	-2.4479	-2.5667	229.504	522.600	402.827	201.959	377.857	535.727	451.876	348.878	306.603	483.097	448.021	525.530	195.318	268.891	393.913	473.598	0.00049241	0.00054801	0.00019081	1484.7	4.4951e-06	5.7525e-06	1474.3	393	4.6058e-06	3.9992e-06	448.63	152.52	132.74	46.02	4.2386e-06	56.178	0.00052891	0.00049518	0.00014572	1500.3	5.6707e-06	5.6961e-06	1488.7	400.35	5.8296e-06	5.3673e-06	455.73	156.01	136.01	46.867	5.5186e-06	57.481	232.854	250.910	262.785	190.165	322.166	321.991	190.035	194.704	323.046	313.297	194.469	198.421	198.775	203.762	322.590	202.713	-8191	255	
42126.668	1	1	0	0	0.094365	0.064898	0.18001	0.28791	0.12441	0.092977	0.19179	0.18573	0.091981	0.14616	0.085711	0.23	0.11782	0.059194	0.16372	0.03728	-1.8125	-2.3688	-2.3354	-2.6667	-2.5917	-2.3604	-2.7812	-2.6708	-2.2854	-2.8479	-2.7396	-2.4979	-2.8729	-2.2583	-2.4479	-2.7521	478.836	348.664	317.610	452.684	178.120	336.695	506.616	533.598	471.959	364.884	248.524	471.594	362.841	496.790	245.292	284.450	0.00048726	0.00051232	0.0001485	1481.7	3.1404e-06	5.6627e-06	1470.2	393.71	4.55e-06	5.8098e-06	447	152.38	133.68	45.808	4.4314e-06	56.104	0.00053626	0.00048784	0.00013459	1498.5	5.4431e-06	5.7782e-06	1486	400.6	5.7284e-06	5.2808e-06	454.31	155.77	136.09	46.823	5.6862e-06	57.481	233.207	263.298	273.395	190.193	321.898	338.831	189.977	194.681	311.476	333.517	194.174	198.318	198.835	203.485	323.500	202.972	-8191	255	
42126.766	1	1	0	0	0.20126	0.21829	0.097018	0.14092	0.18997	0.15692	0.29505	0.15623	0.39039	0.13954	0.15179	0.21341	0.093908	0.2672	0.20883	0.19783	-1.8146	-2.7812	-2.4729	-2.5187	-2.6083	-2.3771	-2.6188	-2.7625	-2.1271	-2.5833	-2.6958	-2.4875	-2.65	-2.45	-2.2646	-2.5354	357.902	341.843	262.868	466.773	468.996	257.786	484.739	495.758	421.749	422.469	428.074	457.893	244.767	443.469	490.688	382.634	0.00051503	0.00059942	0.00012777	1482.8	4.237e-06	5.0102e-06	1472.4	395.87	4.7874e-06	6.6538e-06	452.36	151.9	132.45	45.881	5.4627e-06	56.282	0.0005367	0.00052354	0.00014373	1500.1	5.5296e-06	5.8378e-06	1488.4	400.94	5.876e-06	5.6421e-06	457.16	155.93	136.19	46.923	5.5871e-06	57.578	232.680	278.467	274.227	190.219	327.264	324.522	190.054	194.723	316.262	334.803	194.268	198.429	198.942	203.378	323.802	202.723	-8191	255	
42126.887	1	1	0	0	0.1252	0.20522	0.16508	0.32199	0.13089	0.29307	0.44551	0.053765	0.18526	0.038376	0.30074	0.07704	0.14075	0.22332	0.24278	0.36789	-1.7125	-2.4229	-2.5896	-2.5292	-2.6875	-2.4625	-2.675	-2.7229	-2.3146	-2.7479	-2.725	-2.5771	-2.6312	-2.6937	-2.3792	-2.8917	307.653	318.239	522.337	177.439	222.618	325.894	490.054	443.813	411.525	382.417	526.843	240.555	492.992	519.652	241.960	407.836	0.00049726	0.00047434	0.00017394	1487.1	4.2195e-06	5.764e-06	1471.7	394.36	5.2129e-06	3.4789e-06	449.86	153.24	132.76	46.16	4.6042e-06	56.147	0.00053293	0.00051392	0.0001358	1502.9	5.5223e-06	5.502e-06	1488.2	400.76	5.7171e-06	5.3425e-06	456.47	156.51	136.29	47.082	5.4508e-06	57.604	233.245	246.937	266.888	190.119	315.795	334.781	190.023	194.662	325.618	321.945	194.426	198.489	198.986	203.506	335.594	202.837	-8191	255	
42126.980	1	1	0	0	0.054151	0.18823	0.33727	0.31161	0.24738	0.26561	0.20172	0.089354	0.16742	0.22705	0.076826	0.1399	0.1899	0.37873	0.12065	0.065491	-1.9813	-2.5083	-2.6312	-2.5687	-2.6604	-2.5875	-2.4833	-2.9313	-2.3625	-2.5479	-2.6708	-2.4938	-2.7604	-2.4583	-2.2646	-2.7771	182.210	181.067	395.139	493.342	497.085	304.370	454.532	438.344	452.142	492.260	185.671	503.071	294.659	469.324	336.777	209.638	0.00050536	0.00075964	0.00015666	1485.1	4.4808e-06	5.6366e-06	1468.7	394.36	5.1995e-06	4.1952e-06	449.07	153.48	133.43	46.116	4.0049e-06	56.398	0.00053255	0.00049832	0.00013377	1501.2	5.5789e-06	5.5632e-06	1489.5	401.56	5.7382e-06	5.4891e-06	456.07	156.65	136.55	47.099	5.7481e-06	57.766	233.345	271.581	278.698	190.170	335.047	329.201	190.027	194.509	316.145	322.843	194.170	198.238	199.098	203.483	332.644	202.941	-8191	255	
42127.078	1	1	0	0	0.30929	0.085498	0.11504	0.31987	0.087104	0.060108	0.055248	0.32974	0.060164	0.002822	0.04712	0.027842	0.092554	0.083921	0.1276	0.1205	-2.0792	-2.5125	-2.7	-2.5646	-2.5104	-2.675	-2.4188	-2.8333	-2.5187	-2.4354	-2.9333	-2.3688	-2.6479	-2.6771	-2.2708	-2.8	394.324	389.467	491.136	232.455	241.243	488.847	469.194	381.088	346.646	180.000	314.193	431.279	184.826	229.348	233.581	492.736	0.00049891	0.00076015	0.0001561	1486.3	5.5688e-06	6.4556e-06	1468.1	394.53	4.5144e-06	4.2293e-06	450.38	153.34	134.18	46.038	4.1481e-06	56.521	0.00053473	0.00051413	0.00013252	1501.5	5.7539e-06	5.3723e-06	1487.2	401.66	5.734e-06	5.5548e-06	457.46	156.94	136.81	47.096	5.6082e-06	57.778	233.187	256.428	266.921	190.142	323.939	314.676	190.157	194.735	308.837	334.940	194.328	198.226	198.934	203.407	304.787	202.816	-8191	255	
42127.172	1	1	0	0	0.23936	0.22496	0.018033	0.28986	0.080447	0.1347	0.45686	0.24133	0.13436	0.092599	0.25571	0.10529	0.039227	0.22869	0.1179	0.046865	-1.9292	-2.4	-2.7396	-2.5167	-2.4813	-2.6375	-2.4333	-2.7833	-2.4021	-2.3458	-2.7604	-2.3833	-2.4979	-2.6146	-2.3167	-2.7	350.362	441.960	371.278	487.908	195.210	393.492	496.408	523.715	374.208	266.742	179.223	533.437	349.966	536.698	300.374	187.605	0.00049365	0.00065634	0.00018529	1486.1	5.0541e-06	5.8246e-06	1469.5	393.5	4.3342e-06	5.6857e-06	448.39	153.52	133.1	46.011	4.2937e-06	56.208	0.00052633	0.00051798	0.00013867	1500.3	5.7499e-06	5.4206e-06	1487.8	400.83	5.767e-06	5.5091e-06	456.63	156.77	136.4	47.054	5.6731e-06	57.723	231.917	262.886	271.740	190.125	332.088	334.549	190.183	194.684	310.998	327.070	194.329	198.302	199.002	203.380	305.342	202.865	-8191	255	
42127.270	1	1	0	0	0.30967	0.11443	0.27446	0.30134	0.16016	0.15058	0.22447	0.18184	0.25591	0.069303	0.10713	0.32458	0.23178	0.19838	0.040004	0.043776	-2.0917	-2.4167	-2.675	-2.6208	-2.4875	-2.5938	-2.5	-2.7792	-2.3979	-2.35	-2.6688	-2.3771	-2.35	-2.7479	-2.2896	-2.8229	520.336	191.142	209.651	478.957	197.199	268.279	503.318	498.252	413.594	406.073	486.200	514.872	182.551	507.877	338.221	257.539	0.00047845	0.00072696	0.00016029	1483.9	5.2971e-06	6.7559e-06	1473	393.11	5.1158e-06	4.9616e-06	449.01	152.28	132.91	45.803	6.1332e-06	56.213	0.00052663	0.00050793	0.0001364	1500.9	5.5995e-06	5.4762e-06	1488.9	400.65	5.7888e-06	5.6381e-06	456.14	156.08	136.15	46.95	5.8181e-06	57.653	234.375	255.520	277.848	190.074	316.225	325.834	189.962	194.550	309.274	328.701	194.408	198.408	198.915	203.313	310.914	202.892	-8191	255	
42127.363	1	1	0	0	0.15202	0.15652	0.05662	0.16929	0.21691	0.24899	0.042433	0.25895	0.16703	0.025276	0.16246	0.11145	0.35211	0.068543	0.21332	0.19536	-2.2292	-2.2687	-2.6063	-2.6292	-2.55	-2.7438	-2.4875	-2.8354	-2.675	-2.3875	-2.6771	-2.5875	-2.4625	-2.8833	-2.4979	-2.5458	382.885	360.834	535.003	419.496	235.617	358.416	223.304	532.908	272.479	201.743	522.592	459.661	420.873	476.709	242.051	516.493	0.00049975	0.00063437	0.00019077	1484.5	5.1855e-06	7.1302e-06	1464.1	393.9	2.7397e-06	5.7226e-06	447.49	151.93	132.72	45.58	5.0724e-06	56.145	0.00053602	0.00051093	0.00013853	1499.6	5.7459e-06	5.2998e-06	1484.7	400.69	5.5456e-06	5.4202e-06	454.65	155.65	135.67	46.809	5.5769e-06	57.483	233.438	254.827	268.114	190.161	325.208	335.592	190.191	194.779	331.988	315.724	194.385	198.324	198.746	203.581	327.034	202.898	-8191	255	
42127.461	1	1	0	0	0.085148	0.12987	0.15683	0.34718	0.28179	0.11342	0.25817	0.29405	0.10151	0.29363	0.12154	0.21073	0.16335	0.036785	0.16324	0.17611	-1.875	-2.2771	-2.5083	-2.7521	-2.1396	-2.5646	-2.4792	-2.4604	-2.5917	-2.2542	-2.6604	-2.5917	-2.3583	-2.7771	-2.2854	-2.5083	355.664	289.361	221.514	495.276	426.763	426.815	517.138	493.841	281.248	410.534	325.640	181.964	201.807	191.746	452.578	250.769	0.0004954	0.00041625	0.00014671	1483.9	4.4878e-06	6.2829e-06	1462.2	393.06	3.891e-06	6.0988e-06	448.2	151.45	133.24	45.695	4.1024e-06	56.238	0.00052259	0.00049946	0.00013407	1498	5.5569e-06	5.4222e-06	1484.3	400.03	5.5154e-06	5.5564e-06	455.42	155.52	135.81	46.803	5.4311e-06	57.473	234.631	264.581	280.351	190.131	314.993	340.707	190.049	194.521	315.234	330.023	194.123	198.267	198.812	203.517	329.989	202.846	-8191	255	
#DATA ENDS
