BOXY.EXE: ISS Imagent and Oximeter Data Acquisition Program Version 0.80
Ascii Record File

#ACQ INFORMATION
2  Detector Channels 
16  External MUX Channels 
1  Auxiliary Channels 
5000  Waveform (CCF) Frequency (Hz)
1  Waveforms Skipped 
30  Waveforms Averaged 
1  Cycles Averaged 
16  Acquisitions per Waveform 
10.0806  Updata Rate (Hz) 

#FILE INFORMATION
TRUE -- External MUX Channel results are PARSED.
FALSE -- AC DC and Phase are NOT grouped.
TRUE -- Companion Program Settings File CREATED.
FALSE -- AC data not excluded
FALSE -- DC data not excluded
FALSE -- Phase data not excluded
FALSE -- Auxillary Chn. data not excluded
Tab delimiters

#CALIBRATION STATE
TRUE -- Waveform Calibration Values APPLIED.


#AUX CALIBRATION VALUES
Val Type	aux-1	

Term	1.0000e+00	
Factor	0.0000e+00	


#WF CALIBRATION VALUES
A = Detector Channel
Val Type	A-AC1	A-AC2	A-AC3	A-AC4	A-AC5	A-AC6	A-AC7	A-AC8	A-AC9	A-AC10	A-AC11	A-AC12	A-AC13	A-AC14	A-AC15	A-AC16	A-DC1	A-DC2	A-DC3	A-DC4	A-DC5	A-DC6	A-DC7	A-DC8	A-DC9	A-DC10	A-DC11	A-DC12	A-DC13	A-DC14	A-DC15	A-DC16	A-Ph1	A-Ph2	A-Ph3	A-Ph4	A-Ph5	A-Ph6	A-Ph7	A-Ph8	A-Ph9	A-Ph10	A-Ph11	A-Ph12	A-Ph13	A-Ph14	A-Ph15	A-Ph16	

Term	0.00000e+00	0.00000e+00	0.00000e+00	0.00000e+00	0.00000e+00	0.00000e+00	0.00000e+00	0.00000e+00	0.00000e+00	0.00000e+00	0.00000e+00	0.00000e+00	0.00000e+00	0.00000e+00	0.00000e+00	0.00000e+00	0.00000e+00	0.00000e+00	0.00000e+00	0.00000e+00	0.00000e+00	0.00000e+00	0.00000e+00	0.00000e+00	0.00000e+00	0.00000e+00	0.00000e+00	0.00000e+00	0.00000e+00	0.00000e+00	0.00000e+00	0.00000e+00	0.00000e+00	0.00000e+00	0.00000e+00	0.00000e+00	0.00000e+00	0.00000e+00	0.00000e+00	0.00000e+00	0.00000e+00	0.00000e+00	0.00000e+00	0.00000e+00	0.00000e+00	0.00000e+00	0.00000e+00	0.00000e+00	
Factor	1.00000e+00	1.00000e+00	1.00000e+00	1.00000e+00	1.00000e+00	1.00000e+00	1.00000e+00	1.00000e+00	1.00000e+00	1.00000e+00	1.00000e+00	1.00000e+00	1.00000e+00	1.00000e+00	1.00000e+00	1.00000e+00	1.00000e+00	1.00000e+00	1.00000e+00	1.00000e+00	1.00000e+00	1.00000e+00	1.00000e+00	1.00000e+00	1.00000e+00	1.00000e+00	1.00000e+00	1.00000e+00	1.00000e+00	1.00000e+00	1.00000e+00	1.00000e+00	X	X	X	X	X	X	X	X	X	X	X	X	X	X	X	X	

B = Detector Channel
Val Type	B-AC1	B-AC2	B-AC3	B-AC4	B-AC5	B-AC6	B-AC7	B-AC8	B-AC9	B-AC10	B-AC11	B-AC12	B-AC13	B-AC14	B-AC15	B-AC16	B-DC1	B-DC2	B-DC3	B-DC4	B-DC5	B-DC6	B-DC7	B-DC8	B-DC9	B-DC10	B-DC11	B-DC12	B-DC13	B-DC14	B-DC15	B-DC16	B-Ph1	B-Ph2	B-Ph3	B-Ph4	B-Ph5	B-Ph6	B-Ph7	B-Ph8	B-Ph9	B-Ph10	B-Ph11	B-Ph12	B-Ph13	B-Ph14	B-Ph15	B-Ph16	

Term	0.00000e+00	0.00000e+00	0.00000e+00	0.00000e+00	0.00000e+00	0.00000e+00	0.00000e+00	0.00000e+00	0.00000e+00	0.00000e+00	0.00000e+00	0.00000e+00	0.00000e+00	0.00000e+00	0.00000e+00	0.00000e+00	0.00000e+00	0.00000e+00	0.00000e+00	0.00000e+00	0.00000e+00	0.00000e+00	0.00000e+00	0.00000e+00	0.00000e+00	0.00000e+00	0.00000e+00	0.00000e+00	0.00000e+00	0.00000e+00	0.00000e+00	0.00000e+00	-9.39495e+01	-1.35721e+02	-1.25820e+02	-1.82069e+02	-5.43409e+01	-6.46157e+01	-1.59155e+02	-1.62015e+02	-5.88718e+01	-7.21298e+01	-1.73297e+02	-1.72413e+02	-1.88332e+02	-1.77837e+02	-6.17040e+01	-1.50152e+02	
Factor	2.01488e-05	2.23168e-04	6.04090e-05	1.68445e-01	1.69383e-06	2.40167e-06	2.07806e-01	7.28711e-02	1.55576e-06	2.23671e-06	1.33238e-01	3.79796e-02	4.46465e-02	1.08739e-02	1.81721e-06	1.57391e-02	1.63297e-05	3.41947e-05	9.55667e-06	8.38009e-02	3.19477e-07	3.86555e-07	9.64301e-02	3.65082e-02	3.37376e-07	3.84469e-07	6.46773e-02	1.85256e-02	2.24160e-02	5.48690e-03	3.49829e-07	7.69830e-03	X	X	X	X	X	X	X	X	X	X	X	X	X	X	X	X	



#DISTANCE SETTINGS
A = Detector Channel
A-1	A-2	A-3	A-4	A-5	A-6	A-7	A-8	A-9	A-10	A-11	A-12	A-13	A-14	A-15	A-16	

2.5000e+00	3.0000e+00	2.5000e+00	3.0000e+00	2.0000e+00	3.0000e+00	1.5000e+00	3.0000e+00	3.0000e+00	3.0000e+00	3.0000e+00	3.0000e+00	3.0000e+00	3.0000e+00	1.5000e+00	3.0000e+00	

B = Detector Channel
B-1	B-2	B-3	B-4	B-5	B-6	B-7	B-8	B-9	B-10	B-11	B-12	B-13	B-14	B-15	B-16	

1.0000e+01	1.0000e+01	1.0000e+01	1.4400e+00	1.0000e+01	1.0000e+01	1.5100e+00	1.9400e+00	1.0000e+01	1.0000e+01	1.9900e+00	2.4900e+00	2.4100e+00	2.9000e+00	1.0000e+01	2.9800e+00	




#DATA BEGINS
time	group	step	mark	flag	A-AC1	A-AC2	A-AC3	A-AC4	A-AC5	A-AC6	A-AC7	A-AC8	A-AC9	A-AC10	A-AC11	A-AC12	A-AC13	A-AC14	A-AC15	A-AC16	A-DC1	A-DC2	A-DC3	A-DC4	A-DC5	A-DC6	A-DC7	A-DC8	A-DC9	A-DC10	A-DC11	A-DC12	A-DC13	A-DC14	A-DC15	A-DC16	A-Ph1	A-Ph2	A-Ph3	A-Ph4	A-Ph5	A-Ph6	A-Ph7	A-Ph8	A-Ph9	A-Ph10	A-Ph11	A-Ph12	A-Ph13	A-Ph14	A-Ph15	A-Ph16	B-AC1	B-AC2	B-AC3	B-AC4	B-AC5	B-AC6	B-AC7	B-AC8	B-AC9	B-AC10	B-AC11	B-AC12	B-AC13	B-AC14	B-AC15	B-AC16	B-DC1	B-DC2	B-DC3	B-DC4	B-DC5	B-DC6	B-DC7	B-DC8	B-DC9	B-DC10	B-DC11	B-DC12	B-DC13	B-DC14	B-DC15	B-DC16	B-Ph1	B-Ph2	B-Ph3	B-Ph4	B-Ph5	B-Ph6	B-Ph7	B-Ph8	B-Ph9	B-Ph10	B-Ph11	B-Ph12	B-Ph13	B-Ph14	B-Ph15	B-Ph16	aux-1	digaux	

42070.418	1	1	0	768	0.065251	0.02623	0.048611	0.30725	0.026297	0.38714	0.25167	0.076143	0.097395	0.25951	0.24353	0.13833	0.17315	0.069783	0.1058	0.34594	-2.0833	-2.3396	-2.3604	-2.7979	-2.2625	-2.4	-2.7854	-2.4625	-2.6083	-2.5583	-2.5042	-2.6375	-2.3896	-2.6917	-2.6479	-2.3292	311.246	489.926	288.976	482.294	451.660	460.688	520.485	449.085	392.304	255.921	198.175	485.829	262.487	431.517	307.367	454.070	0.00042436	0.00055658	0.00011072	1361	3.9301e-06	4.2416e-06	1358.3	367.32	4.9174e-06	5.7473e-06	418.5	139.06	120.6	41.748	4.6502e-06	51.765	0.00052643	0.00054605	0.0001537	1377	6.1147e-06	6.0399e-06	1374.8	373.4	6.193e-06	6.0089e-06	426.68	142.65	123.92	42.833	6.1468e-06	53.093	232.609	258.885	270.955	190.439	319.458	326.944	190.283	195.094	312.411	328.626	194.876	199.020	199.218	204.263	312.695	203.571	-8191	255	
42070.516	1	1	0	0	0.23756	0.1322	0.059538	0.079762	0.074342	0.078231	0.29756	0.10152	0.29468	0.13721	0.16309	0.27052	0.16517	0.30419	0.38474	0.35651	-2.1125	-2.6146	-2.35	-2.9125	-2.3729	-2.6167	-2.7	-2.4833	-2.5875	-2.4813	-2.3729	-2.7687	-2.4521	-2.6292	-2.6521	-2.5042	259.186	392.515	279.398	322.905	312.040	505.628	440.804	308.484	507.225	185.925	366.450	384.826	237.175	508.724	262.631	532.806	0.00046171	0.00054767	0.00014637	1366.5	2.3126e-06	4.2793e-06	1362.4	367.04	5.0444e-06	3.6875e-06	420.56	139.92	121.38	41.811	4.0015e-06	51.802	0.00053388	0.00055951	0.00016318	1377.1	6.124e-06	6.2614e-06	1376.9	373.49	6.1325e-06	6.2749e-06	426.22	142.74	124.18	42.818	6.2809e-06	53.016	232.634	264.586	291.445	190.647	333.282	327.166	190.253	195.035	311.763	318.478	194.646	198.869	199.579	204.104	330.885	203.425	-8191	255	
42070.609	1	1	0	0	0.33176	0.089132	0.17597	0.31565	0.12525	0.13064	0.30103	0.39261	0.057293	0.011403	0.25796	0.13713	0.25227	0.15451	0.05725	0.25081	-2.2833	-2.3667	-2.3479	-2.8438	-2.425	-2.4	-2.9125	-2.4062	-2.7167	-2.6333	-2.3354	-2.6979	-2.5333	-2.5708	-2.6417	-2.5167	219.824	363.124	389.474	453.265	389.254	529.196	525.227	486.221	254.135	223.923	184.730	221.487	199.172	366.638	227.755	194.929	0.00043159	0.00032395	0.00013149	1363.5	5.1516e-06	6.1539e-06	1357.3	367.65	4.1569e-06	3.6751e-06	421.18	139.35	121.48	41.927	4.9229e-06	51.713	0.00052612	0.00055752	0.0001599	1377.7	6.1692e-06	6.3629e-06	1376	373.63	6.1656e-06	6.3245e-06	426.91	142.88	124.22	42.906	6.1322e-06	53.037	232.187	252.610	287.702	190.542	301.261	331.567	190.347	195.154	319.387	336.920	194.614	198.948	199.228	204.176	313.066	203.546	-8191	255	
42070.707	1	1	0	0	0.22418	0.27322	0.19892	0.36945	0.038046	0.20548	0.14804	0.21306	0.045617	0.17031	0.11214	0.37608	0.096553	0.11646	0.2069	0.33546	-2.1542	-2.4583	-2.2417	-2.7958	-2.5	-2.3583	-2.9688	-2.2562	-2.7271	-2.6188	-2.3937	-2.9125	-2.2833	-2.5208	-2.8312	-2.6167	273.332	328.207	316.995	507.915	212.927	345.185	447.134	448.522	178.397	231.539	480.417	519.987	351.690	472.263	205.304	481.831	0.0004567	0.00042918	0.00014285	1361.6	4.0194e-06	4.6827e-06	1363.1	369.21	4.5176e-06	4.4261e-06	419.92	140.22	121.53	42.044	4.8027e-06	51.919	0.00052493	0.00056521	0.00015569	1378.4	6.0967e-06	6.5674e-06	1377.8	374.92	6.1332e-06	6.1683e-06	427.06	143.5	124.42	43.071	6.1891e-06	53.3	231.642	252.243	250.705	190.720	314.189	330.941	190.492	195.089	319.032	331.031	194.510	199.125	199.599	204.190	300.823	203.373	-8191	255	
42070.801	1	1	0	0	0.10031	0.087385	0.13514	0.23999	0.12585	0.056984	0.20258	0.16668	0.2205	0.28905	0.20069	0.25794	0.21828	0.28641	0.21315	0.2265	-2.1708	-2.5625	-2.1854	-2.7833	-2.6479	-2.5312	-2.7812	-2.4896	-2.5396	-2.5812	-2.4938	-2.7458	-2.5938	-2.5875	-2.7854	-2.5667	483.678	232.640	332.090	521.465	363.986	470.185	463.687	498.239	256.794	207.582	187.781	440.937	522.773	199.448	505.777	517.103	0.00046037	0.00049404	0.00013433	1367.5	2.9796e-06	4.9506e-06	1365.1	368.15	4.6585e-06	5.8777e-06	421.12	140.36	121.8	41.962	2.5237e-06	51.587	0.00054368	0.00058587	0.00015956	1381.7	6.1879e-06	6.3017e-06	1379.2	374.5	6.1297e-06	6.5368e-06	427.51	143.5	124.73	43.035	5.9384e-06	53.165	231.706	264.233	261.040	190.590	332.577	314.834	190.426	194.813	318.840	327.693	194.685	198.903	199.286	204.170	334.931	203.604	-8191	255	
42070.898	1	1	0	0	0.19127	0.19406	0.19907	0.11398	0.16924	0.14965	0.19859	0.16969	0.23818	0.13403	0.12235	0.25811	0.35172	0.017721	0.25226	0.079089	-1.9042	-2.7396	-2.1729	-2.9	-2.6458	-2.2333	-2.9	-2.5542	-2.325	-2.7896	-2.5125	-2.5354	-2.575	-2.3125	-2.6771	-2.7208	187.841	444.664	410.902	266.636	424.691	437.730	523.189	479.601	258.863	200.959	421.487	514.204	524.981	447.110	328.500	328.571	0.00047621	0.00032858	0.0001646	1367	3.0687e-06	5.3657e-06	1363.9	368.74	5.4283e-06	5.135e-06	421.66	140.41	122.15	42.106	4.0259e-06	51.711	0.00054609	0.00057611	0.00016077	1382.3	6.3163e-06	6.1962e-06	1381.5	375.07	6.5268e-06	6.3141e-06	428.05	143.63	124.77	43.078	6.0827e-06	53.192	233.524	258.458	269.021	190.512	333.020	343.623	190.348	195.070	320.526	319.926	194.720	198.663	199.391	204.128	312.544	203.414	-8191	255	
42071.020	1	1	0	0	0.19686	0.20761	0.15504	0.24587	0.10538	0.036451	0.089627	0.14072	0.19839	0.071657	0.3256	0.13587	0.12299	0.14777	0.37915	0.25594	-2.0458	-2.6833	-2.2562	-2.7896	-2.7438	-2.0646	-2.6896	-2.4729	-2.2792	-2.7188	-2.5042	-2.6521	-2.5896	-2.5438	-2.8021	-2.4146	469.120	508.888	449.650	179.293	182.286	305.975	490.715	505.646	273.390	401.841	206.495	372.631	451.272	416.160	385.960	242.872	0.00045206	0.00049614	0.00011437	1369.6	4.7065e-06	5.6385e-06	1362	367.87	4.3386e-06	5.5485e-06	420.18	140.13	121.34	42.023	5.5195e-06	52.007	0.00054963	0.00056428	0.00015579	1381.8	6.3995e-06	6.5449e-06	1379.6	374.26	6.1508e-06	6.1507e-06	427.11	143.54	124.56	43.055	6.0426e-06	53.284	229.890	240.532	264.045	190.642	306.898	329.914	190.280	194.872	311.059	319.409	194.776	198.815	199.297	204.113	323.727	203.301	-8191	255	
42071.113	1	1	0	0	0.1024	0.064017	0.054205	0.22723	0.36853	0.089458	0.22549	0.1322	0.17572	0.17646	0.11581	0.14589	0.13353	0.069941	0.068741	0.19126	-1.8625	-2.625	-2.2687	-2.5625	-2.6521	-2.2125	-2.7	-2.6063	-2.325	-2.7521	-2.3729	-2.5292	-2.5375	-2.4437	-2.6125	-2.5542	521.019	351.995	360.348	373.466	506.426	339.771	480.408	454.024	444.080	266.491	352.138	255.455	475.219	448.360	310.377	442.844	0.00044299	0.00079784	0.00011041	1369.1	3.7749e-06	4.1636e-06	1364.4	369.11	5.2471e-06	3.6552e-06	422.41	139.62	121.27	42.08	4.2736e-06	51.872	0.00053283	0.00055004	0.00015888	1382.1	6.1067e-06	6.172e-06	1380.8	374.71	6.4109e-06	6.2885e-06	428.06	143.33	124.5	43.084	6.1257e-06	53.228	234.716	261.716	270.595	190.522	323.299	344.704	190.371	195.094	324.174	327.681	194.592	198.820	199.146	204.159	323.759	203.264	-8191	255	
42071.211	1	1	0	0	0.16441	0.084258	0.19725	0.43142	0.23495	0.039118	0.17158	0.1186	0.097345	0.20022	0.02381	0.16911	0.27114	0.13296	0.16066	0.068409	-1.8813	-2.5646	-2.4083	-2.5792	-2.6688	-2.1792	-2.6917	-2.7479	-2.3479	-2.7479	-2.625	-2.2896	-2.6937	-2.3563	-2.4833	-2.6875	516.996	213.101	366.529	188.648	369.814	387.177	456.197	475.278	376.327	423.511	509.251	530.220	210.692	315.581	246.429	254.922	0.00047295	0.00037726	0.00013361	1366.7	4.925e-06	5.2823e-06	1363.7	367.15	4.4033e-06	4.3413e-06	420.05	139.97	121.86	41.964	3.4802e-06	52.015	0.00054715	0.00055495	0.00015948	1379.9	6.0308e-06	6.4386e-06	1379.9	373.81	6.07e-06	6.1547e-06	427.15	143.56	124.71	42.938	5.8932e-06	53.214	232.849	265.698	275.304	190.591	320.087	351.081	190.479	194.980	306.993	327.097	194.805	198.919	199.448	204.170	311.664	203.330	-8191	255	
42071.305	1	1	0	0	0.099296	0.21553	0.1059	0.2052	0.25291	0.051436	0.18273	0.30006	0.1363	0.26817	0.072255	0.22041	0.1089	0.18841	0.12477	0.22732	-1.8229	-2.4688	-2.3167	-2.5187	-2.5646	-2.1208	-2.7792	-2.5125	-2.2854	-2.6917	-2.6562	-2.3542	-2.7458	-2.5417	-2.5771	-2.7542	291.721	188.081	247.651	210.965	224.701	513.247	182.934	503.544	469.652	482.965	471.456	388.943	349.625	230.881	211.318	523.218	0.00045021	0.00049696	8.1188e-05	1365.2	3.125e-06	3.8354e-06	1363.9	368.72	4.8626e-06	4.8362e-06	421.3	140.23	121.79	42.106	3.6818e-06	52.114	0.00053061	0.00054683	0.00015396	1380.2	6.0581e-06	6.1261e-06	1379.4	374.46	6.2703e-06	6.0089e-06	427.94	143.39	124.39	43.089	6.2051e-06	53.27	234.446	253.153	277.600	190.422	333.197	326.603	190.505	195.041	302.865	331.765	194.281	198.830	199.429	204.131	328.649	203.448	-8191	255	
42071.402	1	1	0	0	0.024104	0.1317	0.27492	0.40293	0.21654	0.18797	0.24775	0.4107	0.10322	0.19093	0.058375	0.31223	0.28009	0.20238	0.015441	0.23568	-1.9292	-2.6312	-2.475	-2.3688	-2.7438	-2.4083	-2.6063	-2.6271	-2.2771	-2.775	-2.5729	-2.2958	-2.7938	-2.4271	-2.3583	-2.7396	250.455	418.383	462.701	519.902	518.676	410.614	493.058	457.706	244.416	264.773	198.762	482.389	290.259	537.025	458.560	510.360	0.000455	0.00058709	0.00012203	1370.1	4.4922e-06	7.0828e-06	1363.9	367.55	4.684e-06	6.3826e-06	419.45	140.1	121.44	41.977	4.2704e-06	52.042	0.00053752	0.00055467	0.00015816	1382.7	6.0574e-06	6.2678e-06	1380.5	374.63	6.2141e-06	6.0954e-06	426.77	143.35	124.53	43.023	6.2889e-06	53.268	231.777	247.966	285.937	190.612	320.213	324.678	190.526	195.045	310.609	307.723	194.514	198.909	199.348	203.960	319.046	203.572	-8191	255	
42071.496	1	1	0	0	0.22378	0.24219	0.025346	0.11972	0.23954	0.13557	0.32865	0.40146	0.17527	0.20874	0.16246	0.022914	0.32543	0.23179	0.10458	0.21612	-2.0542	-2.6458	-2.5458	-2.5375	-2.6937	-2.5187	-2.7167	-2.7125	-2.3521	-2.6625	-2.5812	-2.1771	-2.7146	-2.5938	-2.5625	-2.7333	460.644	365.256	256.805	429.295	385.752	240.819	492.632	410.148	518.872	504.455	189.954	177.745	507.973	336.301	526.634	334.411	0.00046745	0.00054331	0.0001552	1359.9	4.6601e-06	4.7163e-06	1364	368.17	4.2209e-06	4.9223e-06	421.53	140.16	122.28	42.08	4.0745e-06	51.996	0.00054082	0.0005625	0.0001631	1378.4	6.0241e-06	6.3983e-06	1380.1	374.2	6.2576e-06	6.3734e-06	427.92	143.54	124.96	43.029	6.1038e-06	53.292	233.510	270.356	256.760	190.591	322.012	351.953	190.467	195.033	303.095	333.986	194.741	198.772	199.474	204.153	326.820	203.353	-8191	255	
42071.594	1	1	0	0	0.14345	0.1276	0.14691	0.11358	0.2839	0.31675	0.1998	0.033413	0.21459	0.17974	0.058089	0.16839	0.26916	0.20348	0.10865	0.02544	-2.0417	-2.5646	-2.6208	-2.4354	-2.6229	-2.4229	-2.6188	-2.9146	-2.4437	-2.4875	-2.6167	-2.3458	-2.5771	-2.6854	-2.4667	-2.65	434.835	394.166	286.849	513.044	286.196	444.099	472.986	506.714	406.660	340.921	204.819	534.367	385.236	333.903	182.259	240.199	0.00043607	0.0005187	0.00010788	1367.8	5.4949e-06	6.2708e-06	1368.2	369.11	4.0475e-06	4.546e-06	422.66	139.9	121.49	41.941	4.4524e-06	52.111	0.00052286	0.00058808	0.00015649	1381.5	6.1573e-06	6.1857e-06	1381.7	374.39	6.3349e-06	6.3181e-06	427.66	143.56	124.57	43.055	6.1854e-06	53.295	233.223	250.443	249.712	190.633	339.273	335.215	190.249	195.232	321.101	324.498	194.821	199.001	199.534	204.267	313.056	203.295	-8191	255	
42071.715	1	1	0	0	0.29406	0.15624	0.18954	0.25797	0.23945	0.080981	0.10123	0.10587	0.14233	0.21395	0.19452	0.19552	0.36122	0.24662	0.2891	0.10419	-1.9042	-2.4833	-2.5563	-2.4313	-2.5979	-2.4083	-2.5354	-2.6542	-2.525	-2.3167	-2.7417	-2.3104	-2.6979	-2.6292	-2.4604	-2.8167	346.171	514.893	184.618	526.593	383.084	290.206	267.004	451.314	274.003	377.222	461.863	483.977	506.577	397.617	483.822	387.715	0.00045196	0.00052285	0.00015288	1366	4.515e-06	4.4765e-06	1359.7	367.62	6.3036e-06	2.4848e-06	420.85	140.79	121.71	41.953	3.7902e-06	51.907	0.0005381	0.0005734	0.00015693	1380.8	6.2018e-06	6.4402e-06	1379.1	374.17	6.3708e-06	6.0738e-06	427.36	143.51	124.51	43.025	5.9967e-06	53.253	234.118	266.957	279.555	190.729	320.257	332.172	190.370	195.096	308.446	321.621	194.760	198.918	199.238	204.022	321.043	203.290	-8191	255	
42071.809	1	1	0	0	0.042012	0.059442	0.13994	0.36784	0.048945	0.29809	0.18216	0.13148	0.051349	0.089312	0.12509	0.24962	0.049004	0.12928	0.25736	0.17022	-2.1042	-2.4458	-2.8438	-2.4292	-2.6625	-2.5938	-2.7292	-2.7792	-2.4458	-2.4792	-2.8729	-2.4104	-2.6458	-2.9729	-2.3479	-2.8625	343.862	321.835	252.623	512.387	253.320	398.844	477.803	273.158	190.773	309.123	371.342	425.136	384.512	458.732	468.523	410.333	0.00044923	0.00059764	0.00016119	1365.5	3.2971e-06	4.2266e-06	1365	369.04	4.6369e-06	5.359e-06	422.76	139.62	121.99	42.118	2.7803e-06	52.099	0.00053443	0.00056514	0.00014992	1380.8	6.0142e-06	6.1003e-06	1381.9	374.74	6.0397e-06	6.2444e-06	427.88	143.5	124.8	43.073	6.353e-06	53.348	234.237	259.495	275.580	190.460	322.594	334.967	190.411	195.256	326.087	323.396	194.603	198.663	199.200	204.129	333.187	203.415	-8191	255	
42071.906	1	1	0	0	0.22544	0.067911	0.078564	0.15001	0.1027	0.23066	0.19705	0.3843	0.12727	0.17497	0.14488	0.38908	0.28233	0.18469	0.19925	0.2129	-2.1333	-2.2625	-2.5604	-2.5292	-2.4062	-2.6083	-2.625	-2.6604	-2.3833	-2.4125	-2.8333	-2.5354	-2.475	-2.6	-2.3375	-2.7167	458.176	264.210	371.629	194.733	215.748	429.705	210.990	457.673	338.175	227.081	184.825	499.434	438.921	267.399	519.845	487.009	0.00046374	0.00063488	0.0001645	1364.8	2.5418e-06	5.9539e-06	1362.8	368.1	3.7968e-06	5.1783e-06	419.72	139.9	121.56	41.889	4.0789e-06	51.775	0.00053269	0.00058665	0.00014793	1379.8	6.2385e-06	6.1945e-06	1381	374.5	6.4235e-06	6.085e-06	427.43	143.53	124.74	43.025	6.3698e-06	53.284	231.765	253.529	275.224	190.519	307.586	327.641	190.434	195.033	325.264	339.140	194.524	198.640	199.440	204.100	320.780	203.259	-8191	255	
42071.980	1	1	0	0	0.08626	0.23237	0.24621	0.10884	0.39409	0.069401	0.11779	0.13483	0.1385	0.20531	0.10997	0.29727	0.26647	0.18641	0.13534	0.10255	-2.0542	-2.225	-2.5208	-2.5458	-2.5854	-2.6854	-2.4479	-2.5583	-2.8021	-2.2938	-2.8229	-2.5187	-2.5396	-2.7104	-2.3063	-2.6292	367.042	307.742	352.773	433.532	351.502	299.828	497.117	291.969	442.433	363.592	396.585	485.881	512.915	421.040	228.768	472.870	0.00044285	0.00060414	0.0001405	1368.1	4.3127e-06	5.2552e-06	1364.7	367.75	4.5785e-06	3.113e-06	421.63	140.82	122.07	42.106	4.7026e-06	51.962	0.00053449	0.00057319	0.00015886	1380.5	6.3443e-06	6.2783e-06	1379.9	374.48	6.3968e-06	6.2404e-06	428.41	143.72	124.73	43.057	6.2736e-06	53.248	233.376	265.605	276.056	190.568	329.320	367.212	190.490	194.861	308.773	315.770	194.601	198.808	199.503	203.960	312.465	203.537	-8191	255	
42072.098	1	1	0	0	0.29597	0.10688	0.26005	0.24148	0.077589	0.22109	0.21098	0.14318	0.087448	0.045473	0.060986	0.076116	0.057591	0.068425	0.063666	0.036318	-2.2792	-2.3104	-2.5875	-2.6667	-2.4188	-2.7062	-2.6542	-2.6271	-2.625	-2.2583	-2.6562	-2.65	-2.2542	-3.0396	-2.3021	-2.5729	244.132	533.164	480.702	523.154	241.922	326.176	498.046	494.689	245.774	418.657	179.702	513.375	447.483	428.361	527.753	371.668	0.00045338	0.00050843	0.00010493	1365.2	3.7907e-06	6.5131e-06	1368.5	368.82	4.655e-06	5.1999e-06	421.69	140.23	121.82	41.929	5.0489e-06	52.132	0.00053892	0.00056186	0.00015623	1382	6.1752e-06	6.0786e-06	1382.1	374.86	6.1466e-06	6.0233e-06	428.44	143.55	124.96	43.054	6.2401e-06	53.3	234.678	267.963	278.362	190.670	332.982	341.791	190.394	195.148	315.448	314.265	194.663	198.858	199.313	204.194	305.467	203.435	-8191	255	
42072.195	1	1	0	0	0.20692	0.23693	0.14969	0.26464	0.16236	0.11385	0.087528	0.19474	0.18803	0.17048	0.082184	0.18358	0.09389	0.19867	0.26682	0.21617	-2.1729	-2.4479	-2.6063	-2.825	-2.3771	-2.6667	-2.5812	-2.4083	-2.6333	-2.175	-2.6083	-2.4854	-2.3625	-2.8187	-2.3792	-2.4104	358.083	332.097	495.705	510.711	449.206	199.066	535.751	511.447	249.754	418.534	464.428	401.273	419.604	447.186	464.291	496.038	0.00044035	0.00054263	0.00013298	1371.6	3.8395e-06	3.0657e-06	1364.5	369.12	4.2106e-06	5.612e-06	420.98	139.9	121.93	42.099	3.9858e-06	52.24	0.00053779	0.00057319	0.00016326	1384.6	6.3476e-06	5.9554e-06	1380.9	374.59	6.1677e-06	6.2725e-06	428.1	143.57	124.84	43.114	6.0899e-06	53.369	234.046	262.335	273.291	190.653	312.017	324.814	190.229	195.194	319.142	311.965	194.784	198.744	199.512	203.910	311.583	203.240	-8191	255	
42072.289	1	1	0	0	0.12516	0.12598	0.23404	0.43953	0.16778	0.039875	0.17161	0.09388	0.094874	0.17357	0.21794	0.073196	0.11675	0.19989	0.14607	0.25762	-2.1417	-2.2917	-2.4833	-2.6521	-2.4854	-2.7771	-2.45	-2.575	-2.6979	-2.2313	-2.5521	-2.7271	-2.3333	-2.5771	-2.5042	-2.5208	293.409	527.068	341.960	511.036	203.010	201.742	498.077	524.164	277.567	256.492	185.794	212.007	266.438	361.431	221.046	505.933	0.00045251	0.00050264	0.00016873	1370.6	4.1352e-06	4.7926e-06	1364.1	368.43	3.8478e-06	4.4669e-06	423.24	140.73	122.09	42.251	4.1851e-06	51.99	0.00052987	0.0005838	0.0001588	1383.7	6.3902e-06	6.2831e-06	1382.3	375.15	5.9427e-06	6.2676e-06	428.86	143.78	124.93	43.127	6.2736e-06	53.32	234.410	280.341	271.514	190.615	335.876	342.107	190.402	195.058	300.009	321.709	194.541	198.882	199.244	204.035	316.785	203.468	-8191	255	
42072.410	1	1	0	0	0.19074	0.1222	0.10482	0.20394	0.23549	0.14527	0.14703	0.28522	0.25524	0.078605	0.067985	0.28702	0.13278	0.22329	0.049416	0.021613	-2.5062	-2.3167	-2.3917	-2.6813	-2.2833	-2.5875	-2.6104	-2.5021	-2.6021	-2.5104	-2.6688	-2.7896	-2.3708	-2.8042	-2.5792	-2.5896	411.940	203.723	311.346	193.655	530.427	447.043	476.354	503.004	457.431	482.025	487.565	491.195	392.826	393.589	236.225	343.355	0.00044947	0.000576	0.00015764	1369.8	4.6197e-06	5.8024e-06	1367.3	368.16	4.4913e-06	4.8829e-06	420.27	140.46	121.85	41.919	4.8111e-06	52.107	0.00053973	0.00057376	0.00015593	1382.8	6.0474e-06	6.2549e-06	1382.6	374.82	5.9294e-06	6.3798e-06	427.64	143.73	124.72	43.084	6.1446e-06	53.402	232.211	266.102	274.372	190.594	312.934	322.684	190.307	194.920	314.318	330.915	194.575	198.652	199.367	204.060	310.102	203.279	-8191	255	
42072.504	1	1	0	0	0.25675	0.09625	0.099854	0.35686	0.14947	0.11169	0.019702	0.082218	0.2505	0.027275	0.10808	0.095666	0.17489	0.25024	0.10725	0.17136	-2.25	-2.2958	-2.1979	-2.8604	-2.2854	-2.6583	-2.5521	-2.4396	-2.5958	-2.3937	-2.4771	-2.6854	-2.3667	-2.6146	-2.6188	-2.5708	446.116	305.797	295.361	469.637	326.259	404.534	532.127	392.575	203.879	477.039	384.726	527.910	195.804	455.316	418.544	311.012	0.00046968	0.00064955	0.00014873	1365.7	4.2887e-06	7.2108e-06	1365.3	367.07	5.0377e-06	5.3325e-06	422.94	140.08	122.33	42.293	4.3042e-06	52.167	0.00052942	0.00056891	0.00016256	1381.7	6.0401e-06	6.4208e-06	1382.2	374.36	6.2949e-06	6.1387e-06	428.04	143.59	124.83	43.104	6.1789e-06	53.367	233.644	260.220	268.812	190.575	333.074	335.579	190.339	195.170	324.147	322.636	194.858	198.670	199.283	204.003	324.235	203.501	-8191	255	
42072.578	1	1	0	0	0.1093	0.118	0.078776	0.49427	0.20031	0.1003	0.26213	0.083641	0.040777	0.15279	0.069271	0.37488	0.057007	0.16484	0.21738	0.10066	-2.1625	-2.3479	-2.2458	-2.8312	-2.3937	-2.4813	-2.6354	-2.2771	-2.6021	-2.4917	-2.4458	-2.6458	-2.45	-2.6271	-2.5417	-2.3604	317.107	386.813	258.164	486.068	491.799	182.088	509.270	267.615	270.599	223.263	293.717	458.513	205.422	232.295	381.592	473.564	0.00045195	0.0004743	0.00017303	1369	4.2201e-06	6.3648e-06	1365.5	368.18	4.6745e-06	3.9312e-06	420.19	140.18	121.36	42.011	3.5451e-06	52.099	0.00053698	0.00057105	0.0001596	1382.6	6.2172e-06	6.379e-06	1380.6	374.75	6.1487e-06	6.3622e-06	427.83	143.69	124.79	43.047	6.0965e-06	53.287	234.958	237.320	259.698	190.450	317.687	324.111	190.475	195.071	309.172	329.380	194.659	198.841	199.407	204.117	332.587	203.639	-8191	255	
42072.699	1	1	0	0	0.064405	0.19566	0.16672	0.1847	0.14365	0.10349	0.088905	0.46414	0.29153	0.088866	0.13022	0.052994	0.11718	0.17019	0.058786	0.27226	-2.1375	-2.2521	-2.5687	-2.8833	-2.2521	-2.5438	-2.7479	-2.5396	-2.4354	-2.5938	-2.3	-2.7313	-2.4542	-2.4917	-2.5563	-2.3042	177.202	366.129	351.760	342.543	439.908	245.130	503.841	495.278	321.164	475.150	470.626	512.019	407.330	462.555	438.245	191.160	0.00047551	0.00053499	0.00013707	1365	5.8498e-06	3.7814e-06	1363.6	369.11	4.2221e-06	3.7325e-06	420.81	140	121.86	41.805	5.0074e-06	52.05	0.0005449	0.00057276	0.00015223	1380.7	6.3343e-06	6.4619e-06	1382.7	374.87	6.4249e-06	6.4302e-06	427.21	143.45	124.65	42.979	6.3523e-06	53.285	232.166	256.552	260.069	190.334	316.348	320.879	190.185	194.935	322.825	341.293	194.582	198.965	199.416	204.236	325.534	203.611	-8191	255	
42072.793	1	1	0	0	0.27667	0.16631	0.18116	0.21925	0.13188	0.11176	0.33254	0.18899	0.061195	0.17454	0.028217	0.13934	0.23962	0.15778	0.17955	0.02469	-2.0229	-2.5021	-2.2938	-2.6125	-2.4354	-2.3896	-2.7042	-2.3937	-2.4875	-2.7771	-2.1292	-2.5687	-2.6083	-2.4562	-2.6792	-2.2396	440.580	401.033	419.575	515.692	192.193	275.537	459.723	224.429	366.907	385.330	309.949	431.080	290.930	180.094	456.174	298.070	0.00043543	0.00074676	0.00010334	1364.4	5.2185e-06	5.3812e-06	1363.2	366.91	3.8552e-06	6.5342e-06	421.23	139.43	120.98	42.189	4.0068e-06	51.771	0.00053752	0.00059178	0.0001593	1381	6.3609e-06	6.5505e-06	1378.5	374.31	6.3813e-06	6.3349e-06	427.17	142.84	124.23	43.007	6.063e-06	53.136	233.124	236.075	257.058	190.742	312.657	343.718	190.271	194.974	311.202	310.813	194.592	198.721	199.267	204.100	303.376	203.234	-8191	255	
42072.891	1	1	0	0	0.11781	0.23432	0.19489	0.17666	0.17719	0.098721	0.19737	0.43054	0.20866	0.12864	0.23455	0.32029	0.28768	0.25652	0.1352	0.28061	-2.075	-2.4146	-2.0458	-2.6937	-2.3646	-2.3792	-2.8875	-2.3479	-2.2833	-2.4854	-2.1771	-2.7333	-2.4625	-2.4479	-2.6167	-2.3063	431.511	212.643	272.387	528.054	407.101	223.690	494.723	466.574	514.357	247.666	513.255	531.968	514.609	457.917	403.212	444.894	0.00046598	0.00052866	0.00013169	1370.2	4.1483e-06	7.1583e-06	1366	368.8	4.2541e-06	4.3194e-06	421.45	139.99	121.4	42.111	3.8168e-06	51.9	0.00055457	0.00058409	0.00016001	1381.2	6.1852e-06	6.4571e-06	1381.7	374.3	6.3427e-06	6.2684e-06	428.16	143.26	124.5	43.024	6.0244e-06	53.255	233.154	265.305	280.116	190.494	304.558	328.114	190.226	195.100	296.526	296.812	194.613	198.948	199.148	204.047	320.531	203.463	-8191	255	
42073.012	1	1	0	0	0.14053	0.11542	0.067273	0.17407	0.047485	0.10941	0.15512	0.27875	0.21744	0.42976	0.30646	0.046426	0.23985	0.20119	0.097055	0.32504	-1.9979	-2.5417	-2.2375	-2.6417	-2.3375	-2.2583	-2.7958	-2.3229	-2.4292	-2.6542	-2.525	-2.6833	-2.4083	-2.1917	-2.5187	-2.45	406.383	421.624	217.768	501.504	223.418	286.641	426.395	355.533	453.107	531.394	489.151	219.778	233.467	494.584	423.082	519.758	0.00042637	0.00053314	0.00015379	1370.2	3.7117e-06	6.7293e-06	1371.5	370.89	3.5905e-06	5.3486e-06	425.43	141.95	123.08	42.533	2.7664e-06	52.432	0.00052772	0.00057426	0.00016461	1385.6	6.2751e-06	6.2251e-06	1386.4	376.72	6.2815e-06	6.2388e-06	431.23	145.41	126.23	43.562	6.0841e-06	53.86	232.730	263.296	294.774	190.452	326.863	330.505	190.416	195.044	306.007	327.197	194.665	198.864	199.355	204.063	329.501	203.408	-8191	255	
42073.105	1	1	0	0	0.19096	0.094552	0.33	0.033247	0.35578	0.11418	0.27142	0.12309	0.098984	0.28768	0.098217	0.018146	0.28483	0.28006	0.16036	0.24369	-1.8312	-2.6646	-2.0875	-2.6583	-2.4625	-2.35	-2.7521	-2.4813	-2.3292	-2.6083	-2.3979	-2.6958	-2.5292	-2.5604	-2.4146	-2.4042	499.504	216.817	291.227	208.035	281.923	213.987	427.005	196.231	238.241	238.800	183.865	533.503	531.883	458.893	440.636	502.702	0.00044827	0.00058658	0.0001329	1382.8	4.7596e-06	4.8973e-06	1373	370.84	4.5244e-06	4.1217e-06	425.01	143.06	124.07	42.97	3.9498e-06	52.866	0.00053483	0.00055531	0.00015717	1392.6	5.9057e-06	6.3725e-06	1391.5	377.2	5.9786e-06	5.8864e-06	431.48	146.18	127.21	44.016	5.6599e-06	54.38	232.804	270.173	261.433	190.563	317.126	324.290	190.308	195.110	321.891	307.715	194.633	198.592	199.051	203.870	332.878	203.658	-8191	255	
42073.203	1	1	0	0	0.27398	0.38528	0.16787	0.23271	0.1769	0.26342	0.10695	0.29082	0.092193	0.1573	0.069588	0.2674	0.15283	0.17028	0.12758	0.10435	-1.8708	-2.6104	-2.1604	-2.5333	-2.5583	-2.3375	-2.9458	-2.3875	-2.3604	-2.6646	-2.4083	-2.4417	-2.5042	-2.3854	-2.5396	-2.4813	455.179	303.221	264.333	536.367	290.935	392.649	335.609	500.718	294.174	490.821	302.671	469.027	355.349	469.951	338.969	229.965	0.00048025	0.00061459	0.00019177	1386.1	4.6283e-06	4.8259e-06	1385.4	375.62	4.4149e-06	3.2937e-06	428.16	143.48	125.59	43.17	5.381e-06	52.977	0.00052575	0.00048713	0.00014881	1400.5	5.6015e-06	5.7597e-06	1400.9	381.44	5.7937e-06	5.4731e-06	434.4	147.01	128.01	44.144	5.6024e-06	54.339	233.360	266.150	278.875	190.456	328.432	326.779	190.334	194.971	323.805	320.220	194.351	198.890	199.217	203.971	318.710	203.063	-8191	255	
42073.273	1	1	0	0	0.080768	0.16986	0.21073	0.3246	0.11001	0.17946	0.31199	0.24816	0.097181	0.080183	0.27743	0.10911	0.18196	0.057219	0.15005	0.20417	-1.8	-2.5375	-2.3042	-2.6125	-2.6729	-2.3104	-2.8875	-2.4833	-2.3729	-2.6625	-2.3438	-2.6375	-2.6104	-2.3417	-2.4125	-2.5625	365.058	211.554	430.393	189.322	465.763	388.418	506.400	525.912	261.158	503.841	514.780	525.436	385.371	511.925	323.451	214.044	0.0004657	0.00070967	0.00013728	1380.1	5.1047e-06	5.9906e-06	1380.3	373.58	4.1522e-06	4.9128e-06	424.04	143.16	124.35	43.037	4.7122e-06	52.747	0.0005167	0.00052631	0.00014584	1396.4	5.6913e-06	5.7194e-06	1400.2	379.21	5.8507e-06	5.7927e-06	432.12	146.58	127.19	44.027	5.8064e-06	54.182	234.417	264.053	279.742	190.523	299.209	318.962	190.430	194.964	312.703	342.263	194.622	198.659	199.125	203.831	321.337	203.306	-8191	255	
42073.395	1	1	0	0	0.14905	0.13838	0.14597	0.26916	0.10168	0.19135	0.32556	0.29788	0.15957	0.10425	0.24068	0.18025	0.15809	0.1934	0.055934	0.1053	-1.8083	-2.5229	-2.2771	-2.5271	-2.6521	-2.2292	-2.9	-2.4813	-2.4313	-2.5229	-2.5125	-2.3854	-2.6208	-2.2979	-2.5104	-2.6958	391.006	447.907	298.691	510.947	263.935	205.614	516.837	441.668	333.749	433.826	400.913	414.152	461.232	177.909	429.648	179.102	0.00044505	0.00048691	0.00014352	1379.5	3.9719e-06	5.8406e-06	1375.5	371.68	3.8658e-06	3.6459e-06	425.1	142	123.64	42.765	4.3228e-06	52.538	0.00051224	0.0005251	0.00014847	1395.1	5.475e-06	5.7983e-06	1394.6	377.69	5.8394e-06	5.5179e-06	431.16	145.58	126.5	43.715	5.7438e-06	53.805	232.396	246.487	283.177	190.748	327.623	344.185	190.295	195.275	316.430	332.103	194.795	198.553	198.983	204.073	346.614	203.262	-8191	255	
42073.492	1	1	0	0	0.096645	0.27048	0.14502	0.15402	0.16014	0.32629	0.11885	0.19711	0.061581	0.24862	0.15545	0.11905	0.10939	0.068761	0.098552	0.4508	-1.6708	-2.6167	-2.3417	-2.2479	-2.6292	-2.2521	-2.6646	-2.6208	-2.3146	-2.6625	-2.5729	-2.3812	-2.6083	-2.5021	-2.4458	-2.7146	367.273	519.888	326.446	184.692	205.742	267.239	236.955	511.031	345.710	389.723	244.366	518.089	185.333	329.565	493.690	533.835	0.00045291	0.00057256	0.00014962	1379.8	5.3141e-06	7.0709e-06	1372.9	371.55	4.7983e-06	4.2714e-06	423.59	140.98	122.17	42.18	3.8125e-06	52.02	0.00052204	0.00052888	0.00014263	1393.8	5.6161e-06	6.0005e-06	1389.6	376.66	5.845e-06	5.6797e-06	429.93	144.17	125.35	43.217	5.7831e-06	53.446	231.128	261.295	264.672	190.515	319.567	333.859	190.252	195.074	317.350	315.024	194.643	199.031	199.176	203.940	309.016	203.704	-8191	255	
42073.590	1	1	0	0	0.16775	0.18458	0.19862	0.21673	0.0069728	0.17212	0.18199	0.16067	0.048527	0.23575	0.14441	0.092606	0.14375	0.2332	0.079862	0.26513	-1.8521	-2.6333	-2.4688	-2.4188	-2.6708	-2.4521	-2.4458	-2.7562	-2.1437	-2.5583	-2.5396	-2.3875	-2.4625	-2.375	-2.325	-2.7417	180.874	330.721	478.944	411.164	401.010	432.192	489.311	517.733	383.540	431.273	238.438	525.891	380.147	181.576	321.059	380.242	0.00045338	0.00056548	0.00010166	1377.4	4.4085e-06	7.2719e-06	1372.9	371.85	5.342e-06	4.9731e-06	423.68	140.14	122.13	42.042	4.2196e-06	52.002	0.00051527	0.00049896	0.00014094	1391.7	5.6321e-06	5.9159e-06	1388.4	377.03	6.032e-06	5.6429e-06	429.09	143.65	125.16	43.055	6.0047e-06	53.332	233.026	251.050	263.544	190.669	328.379	324.420	190.422	195.009	309.202	330.553	194.604	198.784	198.964	204.179	332.480	203.563	-8191	255	
42073.684	1	1	0	0	0.22886	0.18381	0.18175	0.31008	0.070575	0.24252	0.13963	0.22906	0.18249	0.13124	0.19001	0.23959	0.23757	0.14375	0.21569	0.14492	-1.8958	-2.4479	-2.3812	-2.375	-2.6104	-2.3625	-2.5042	-2.7167	-2.3729	-2.5771	-2.6	-2.2979	-2.5646	-2.4562	-2.3563	-2.8688	477.154	216.181	396.604	495.496	355.019	346.219	423.833	195.376	215.435	317.149	488.801	525.059	197.660	184.596	316.715	512.513	0.00047477	0.00052558	0.00014911	1383	4.7472e-06	6.5302e-06	1377.1	369.73	3.7729e-06	5.5265e-06	421.75	139.41	120.96	41.622	4.4304e-06	51.803	0.00054395	0.00054362	0.00014922	1394.8	6.136e-06	6.2968e-06	1393	375.79	6.311e-06	5.8359e-06	428.16	142.62	123.95	42.727	6.3261e-06	53.104	234.405	256.499	259.874	190.391	310.113	336.475	190.175	195.071	313.714	326.056	194.418	198.749	199.314	204.029	324.565	203.398	-8191	255	
42073.805	1	1	0	0	0.13533	0.16531	0.17436	0.17782	0.08453	0.221	0.27805	0.34074	0.042386	0.21815	0.40144	0.19996	0.037136	0.089697	0.24032	0.16205	-1.7771	-2.5833	-2.3563	-2.2875	-2.6021	-2.6125	-2.3646	-2.7521	-2.4021	-2.4375	-2.6396	-2.1729	-2.4688	-2.3333	-2.2583	-2.7	287.935	300.472	302.092	470.118	401.065	208.373	523.939	188.296	389.479	362.642	427.712	384.791	323.343	180.282	417.616	411.427	0.0004414	0.00049809	0.00015154	1374.8	4.2718e-06	4.2255e-06	1369.7	369.08	5.1244e-06	4.9048e-06	420.03	139.14	120.81	41.673	2.7889e-06	51.449	0.00054123	0.00055595	0.00014805	1390.7	5.9363e-06	6.1567e-06	1387.9	375.39	6.2337e-06	6.1851e-06	427.92	142.41	123.6	42.603	6.079e-06	52.778	232.342	269.272	264.995	190.495	318.637	345.053	190.307	195.082	314.043	324.112	194.451	198.804	199.333	204.087	321.811	203.523	-8191	255	
42073.875	1	1	0	0	0.46672	0.13895	0.03584	0.2104	0.03612	0.066096	0.049149	0.20603	0.20986	0.18436	0.020742	0.18818	0.044003	0.20172	0.23904	0.13676	-2.0479	-2.3521	-2.5062	-2.3937	-2.5792	-2.5	-2.3333	-2.6146	-2.3229	-2.4646	-2.8396	-2.3	-2.4979	-2.4792	-2.1042	-2.5854	461.457	302.440	383.168	473.478	354.183	502.217	440.418	446.065	358.197	264.010	233.542	184.671	185.446	225.862	199.171	535.593	0.00043349	0.00040455	0.00015936	1369.6	3.04e-06	3.0848e-06	1367.6	366.94	4.8711e-06	4.413e-06	418.84	137.85	119.7	41.377	3.9034e-06	50.991	0.00053864	0.0005806	0.00016105	1384.6	6.311e-06	6.4192e-06	1382.3	373.11	6.4298e-06	6.5456e-06	425.34	140.9	122.72	42.339	6.6322e-06	52.535	231.632	256.150	267.934	190.498	326.044	352.301	190.387	194.998	312.232	320.831	194.691	198.768	199.482	204.163	335.061	203.378	-8191	255	
42073.969	1	1	0	0	0.17725	0.27263	0.10917	0.11284	0.1004	0.14732	0.20468	0.18448	0.27327	0.25327	0.15793	0.26357	0.158	0.16703	0.25533	0.22781	-1.9667	-2.1354	-2.6958	-2.3854	-2.4625	-2.5938	-2.4354	-2.5396	-2.3292	-2.3542	-2.6458	-2.2667	-2.675	-2.7021	-2.0812	-2.6417	463.644	393.302	433.120	513.106	354.246	303.879	514.547	512.893	309.686	314.660	208.965	536.470	484.600	510.213	501.315	280.196	0.00045823	0.00054716	0.00013573	1373.4	3.4937e-06	6.3204e-06	1362.5	365.99	4.9047e-06	4.9195e-06	418.48	136.92	119.79	41.154	4.5643e-06	51.155	0.0005528	0.00061536	0.0001677	1385.4	6.516e-06	6.7035e-06	1381	371.79	7.0905e-06	6.9252e-06	424.84	140.41	122.48	42.179	6.88e-06	52.308	235.826	262.499	272.385	190.505	306.686	329.283	190.320	195.185	296.606	325.984	194.685	198.861	199.161	204.054	320.742	203.269	-8191	255	
42074.090	1	1	0	0	0.16388	0.10898	0.14965	0.36387	0.24792	0.13622	0.39362	0.23827	0.26274	0.083921	0.22703	0.12554	0.35194	0.026023	0.093286	0.12667	-1.9646	-2.3417	-2.8458	-2.6396	-2.4583	-2.5979	-2.3187	-2.6437	-2.45	-2.2521	-2.7146	-2.3688	-2.3979	-2.7292	-2.3708	-2.7	220.358	321.073	503.775	510.876	409.459	191.578	431.425	495.266	190.089	300.236	458.480	284.929	190.077	268.218	261.247	523.995	0.00043939	0.00054343	0.00016417	1373.2	3.0926e-06	4.3904e-06	1365.1	365.44	4.2077e-06	4.365e-06	417.73	136.33	118.52	41.036	3.4454e-06	50.784	0.00057055	0.00063353	0.00017284	1384.1	6.6445e-06	7.2825e-06	1378.9	371.51	6.9802e-06	7.3634e-06	423.49	139.47	121.54	41.98	7.1956e-06	52.126	231.356	259.796	252.848	190.551	320.587	335.552	190.399	195.006	321.570	325.515	194.495	198.800	199.274	204.153	310.192	203.270	-8191	255	
42074.188	1	1	0	0	0.11094	0.21208	0.15707	0.055503	0.19108	0.18087	0.14194	0.22284	0.081078	0.1582	0.17819	0.30925	0.31003	0.096286	0.13521	0.10677	-1.8937	-2.3125	-2.7167	-2.4792	-2.2979	-2.5125	-2.35	-2.8417	-2.5792	-2.2646	-2.6583	-2.5	-2.3354	-2.7646	-2.3875	-2.5958	509.388	469.178	280.633	534.847	446.121	400.548	441.254	420.743	201.654	491.855	291.211	512.749	193.794	210.759	197.731	206.891	0.00046009	0.00048168	0.00015903	1369.3	3.9445e-06	5.2231e-06	1361.9	365.38	4.6327e-06	5.3662e-06	418.16	136.28	119.04	40.999	3.2153e-06	50.757	0.00057117	0.00066473	0.00018564	1385.8	7.1124e-06	7.2978e-06	1380.5	371.88	7.2058e-06	7.534e-06	424.83	139.75	121.81	42.033	7.3792e-06	52.166	233.942	251.578	288.942	190.589	305.973	327.194	190.310	194.992	318.607	348.486	194.637	198.808	199.205	204.148	321.144	203.549	-8191	255	
42074.281	1	1	0	0	0.19904	0.11418	0.25777	0.25328	0.19066	0.33063	0.22414	0.23899	0.077144	0.20868	0.10907	0.28154	0.32958	0.058744	0.22043	0.1926	-1.9771	-2.1813	-2.575	-2.5167	-2.1979	-2.7271	-2.4875	-2.4979	-2.5292	-2.1646	-2.8646	-2.5917	-2.3292	-2.5312	-2.3937	-2.5042	313.443	332.496	202.643	184.192	302.021	267.467	491.773	480.184	340.992	190.705	422.269	481.747	467.838	515.110	269.100	347.511	0.00045949	0.00057307	0.0001477	1373.5	4.5475e-06	2.879e-06	1370.9	366.96	2.9042e-06	5.4639e-06	420.44	136.85	119.94	41.144	4.0826e-06	50.991	0.00059988	0.00070897	0.00019663	1388.5	7.4352e-06	7.6723e-06	1387	373.47	7.3232e-06	7.9265e-06	425.99	140.37	122.53	42.269	7.6481e-06	52.306	232.921	260.066	266.325	190.336	335.008	331.931	190.340	195.025	288.352	322.128	194.576	198.856	199.293	204.219	347.729	203.155	-8191	255	
42074.379	1	1	0	0	0.058489	0.050595	0.097846	0.1695	0.13252	0.2112	0.17463	0.19507	0.026694	0.17771	0.14351	0.19177	0.11305	0.091334	0.027811	0.12876	-2.1312	-2.2083	-2.5521	-2.5708	-2.2896	-2.5646	-2.5854	-2.525	-2.6042	-2.1771	-2.425	-2.4875	-2.1167	-2.5708	-2.2188	-2.5271	234.106	517.256	377.097	203.403	368.817	411.344	352.359	475.166	451.304	279.444	418.790	535.745	187.144	423.255	228.210	263.159	0.00046004	0.00058275	0.00017613	1377.4	3.5965e-06	6.5417e-06	1367.9	365.51	4.3986e-06	5.1189e-06	421.62	136.81	119.22	41.214	4.0827e-06	50.979	0.00059913	0.0007126	0.00019052	1390.8	7.4651e-06	7.6828e-06	1385.9	372.24	7.6711e-06	7.8936e-06	426.54	140.16	122.14	42.219	7.6452e-06	52.275	231.500	254.942	268.929	190.377	334.490	314.938	190.310	194.863	303.024	329.591	194.592	198.806	199.005	204.169	327.914	203.437	-8191	255	
42074.477	1	1	0	0	0.11394	0.24771	0.14125	0.19452	0.16557	0.092383	0.22338	0.14027	0.0059309	0.071457	0.21093	0.16647	0.24276	0.14887	0.044816	0.11576	-2.0625	-2.2229	-2.4188	-2.6833	-2.1396	-2.5708	-2.6437	-2.6604	-2.6125	-2.2729	-2.4583	-2.3812	-2.1417	-2.7854	-2.4813	-2.3312	449.258	243.137	418.339	525.490	293.658	472.692	417.164	398.056	257.870	248.283	179.277	316.351	522.751	200.873	342.720	504.413	0.00044944	0.00038563	0.00012129	1370	5.203e-06	5.6812e-06	1371	366.48	3.0945e-06	4.5544e-06	417.38	136.38	118.85	41.206	4.4237e-06	50.888	0.00058777	0.00073006	0.00018958	1386	7.6335e-06	7.4597e-06	1384	372.85	7.2543e-06	7.8135e-06	424.59	139.8	121.96	42.128	7.4871e-06	52.135	234.204	271.584	291.593	190.396	334.542	333.056	190.320	194.898	305.676	322.677	194.584	198.707	199.356	204.051	312.710	203.289	-8191	255	
42074.570	1	1	0	0	0.21023	0.13595	0.16231	0.04571	0.094691	0.2161	0.10891	0.16275	0.0094005	0.11808	0.19403	0.19207	0.31804	0.019628	0.22783	0.25038	-2.3042	-2.2896	-2.2875	-2.5583	-2.4188	-2.6333	-2.5625	-2.2562	-2.6708	-2.3063	-2.5438	-2.6604	-2.4625	-2.6458	-2.3063	-2.5	217.781	356.664	393.397	504.137	441.313	271.514	500.427	185.940	471.541	341.283	418.086	192.565	257.169	516.296	213.747	530.641	0.00042993	0.0005669	0.00018895	1371.1	3.6929e-06	4.1454e-06	1362.8	365.87	3.1621e-06	2.654e-06	419.85	136.02	118.63	40.898	4.3088e-06	50.783	0.00058219	0.00068945	0.00019374	1384.7	7.2401e-06	7.38e-06	1380.6	371.98	7.5073e-06	7.7839e-06	425.02	139.32	121.41	41.891	7.4922e-06	51.933	231.589	264.043	278.623	190.364	316.584	328.506	190.119	194.935	312.020	335.152	194.251	198.739	199.572	204.332	318.723	203.435	-8191	255	
42074.691	1	1	0	0	0.17746	0.23722	0.28504	0.27327	0.084084	0.34998	0.24744	0.33377	0.072971	0.12047	0.12888	0.20416	0.14496	0.034591	0.078471	0.055012	-2.1542	-2.1813	-2.3458	-2.7708	-2.2458	-2.6125	-2.5	-2.4062	-2.6417	-2.4292	-2.6521	-2.7146	-2.2729	-2.6625	-2.5187	-2.3604	444.018	479.950	196.768	436.897	339.174	301.632	474.715	428.157	250.885	407.180	424.003	454.172	426.850	189.258	414.475	501.590	0.00044057	0.00049883	0.00015345	1371.2	5.7564e-06	5.9472e-06	1359.7	364.24	3.9165e-06	5.1736e-06	414.99	134.78	117.76	40.707	4.7353e-06	50.165	0.00059879	0.00070206	0.00019424	1384.5	7.6508e-06	7.806e-06	1378.4	370.87	7.6486e-06	7.8215e-06	422.42	138.36	120.7	41.648	7.826e-06	51.657	233.791	256.555	270.816	190.519	342.442	333.715	190.226	195.110	331.540	325.482	194.384	198.786	199.110	204.053	320.405	203.472	-8191	255	
42074.785	1	1	0	0	0.20177	0.026153	0.17909	0.18877	0.11392	0.019058	0.20244	0.10386	0.31114	0.050247	0.17503	0.17186	0.20141	0.27301	0.12661	0.032842	-2.15	-2.4583	-2.3458	-2.8354	-2.2604	-2.6021	-2.7729	-2.6	-2.6708	-2.2438	-2.5187	-2.6125	-2.3083	-2.5292	-2.6021	-2.3042	439.307	194.906	474.077	183.946	475.230	306.848	517.491	334.368	391.042	338.354	197.015	177.639	196.840	468.326	520.094	513.656	0.0004188	0.00057256	0.00014179	1367.7	3.8385e-06	4.2935e-06	1360.2	363.29	4.025e-06	5.9276e-06	413.79	134.63	117.98	40.602	5.0545e-06	50.429	0.00060298	0.00075812	0.00021182	1381.9	8.0734e-06	8.5839e-06	1377.2	370.2	8.809e-06	8.8772e-06	421.54	137.98	120.62	41.521	8.8456e-06	51.609	232.883	260.968	274.453	190.459	325.617	348.022	190.207	194.887	304.241	303.607	194.659	198.697	199.001	204.099	318.088	203.460	-8191	255	
42074.883	1	1	0	0	0.24696	0.10563	0.17442	0.050732	0.17792	0.29455	0.18125	0.19207	0.072029	0.085788	0.16819	0.14582	0.25723	0.34785	0.20279	0.19507	-2.1271	-2.3875	-2.3208	-2.875	-2.2917	-2.475	-2.875	-2.2521	-2.7875	-2.4125	-2.3833	-2.6125	-2.2708	-2.5229	-2.5583	-2.3375	418.376	427.910	495.708	358.148	234.238	225.691	230.113	479.904	329.509	373.841	495.977	272.369	428.995	484.270	254.249	368.130	0.00044371	0.00052102	0.00010563	1373.6	3.9944e-06	4.9503e-06	1366.7	364.1	4.4574e-06	6.6627e-06	417.03	135.74	117.84	40.629	4.4799e-06	50.431	0.00065377	0.0008268	0.00023693	1388.9	8.7044e-06	9.3353e-06	1387.1	371.65	9.0227e-06	9.2777e-06	423.83	138.86	121.22	41.717	9.4527e-06	51.762	231.971	244.687	252.202	190.594	305.978	332.891	190.293	195.027	316.452	335.474	194.621	198.552	199.297	204.269	323.241	203.557	-8191	255	
42074.980	1	1	0	0	0.05866	0.18159	0.12452	0.26283	0.11423	0.067861	0.12402	0.21614	0.23698	0.16164	0.21936	0.31154	0.07853	0.22966	0.07814	0.15082	-2.0958	-2.4167	-2.1646	-2.85	-2.3146	-2.325	-2.6979	-2.4333	-2.5229	-2.6542	-2.2979	-2.7458	-2.3708	-2.5708	-2.5958	-2.3187	465.912	188.718	263.568	461.602	220.669	331.621	300.667	476.739	183.439	233.548	515.523	232.462	224.545	473.740	438.856	390.069	0.00044878	0.00054272	0.00010869	1378.8	4.3996e-06	7.0747e-06	1368.9	366.18	3.6182e-06	5.5153e-06	417.52	135.7	118.76	40.721	2.9944e-06	50.467	0.00065612	0.00087624	0.00024839	1395.1	9.1736e-06	9.7951e-06	1388.2	372.34	9.3186e-06	9.6622e-06	424.5	138.88	121.64	41.796	9.2552e-06	51.816	233.119	272.084	264.059	190.300	330.095	335.285	190.206	194.819	306.670	313.007	194.541	198.760	199.327	203.967	325.998	203.110	-8191	255	
42075.102	1	1	0	0	0.385	0.024712	0.20124	0.021851	0.099977	0.22094	0.19189	0.21477	0.11686	0.27109	0.1509	0.0063826	0.14094	0.24134	0.31729	0.23493	-2.2875	-2.4646	-2.1021	-2.7854	-2.4437	-2.5729	-2.8458	-2.475	-2.5625	-2.7604	-2.375	-2.7438	-2.4167	-2.5042	-2.6937	-2.4167	413.743	420.466	426.760	457.673	386.683	197.958	407.410	236.672	353.738	213.237	513.514	535.411	455.989	438.849	404.648	421.656	0.00044055	0.00049734	0.00012001	1384.4	4.1586e-06	7.1167e-06	1376.9	367.69	4.6921e-06	3.9972e-06	417.71	135.84	118.79	40.884	3.9178e-06	50.47	0.00066928	0.00087481	0.00024684	1398.7	8.8994e-06	9.7227e-06	1393.7	373.69	9.0417e-06	9.3242e-06	425.11	139.41	121.82	41.919	8.7253e-06	51.886	234.229	255.331	275.537	190.492	304.520	305.614	190.393	195.053	335.837	340.476	194.420	198.823	199.387	204.066	318.925	203.459	-8191	255	
42075.172	1	1	0	0	0.24596	0.29612	0.067816	0.34919	0.22769	0.049219	0.13433	0.10508	0.087629	0.10338	0.14937	0.1248	0.033067	0.32166	0.18481	0.24972	-2.0771	-2.4792	-2.2583	-2.5812	-2.3292	-2.2625	-2.7979	-2.5521	-2.55	-2.6646	-2.3146	-2.6813	-2.5292	-2.3854	-2.6979	-2.3688	220.190	276.442	487.264	462.164	528.648	507.609	185.783	473.612	388.601	380.698	443.608	457.967	523.035	507.063	315.354	479.760	0.00044707	0.00052163	0.00011295	1383.7	3.4528e-06	6.1215e-06	1375.2	366.72	4.2701e-06	4.8101e-06	417.7	135.99	118.8	41.215	4.9185e-06	50.557	0.00065401	0.00083805	0.00022872	1397.2	8.335e-06	9.0985e-06	1391.7	372.79	8.6291e-06	9.0583e-06	425.78	139.62	122.05	42.097	8.9287e-06	52.077	233.318	264.319	292.829	190.489	320.320	333.897	190.150	195.126	314.015	327.528	194.650	198.794	199.187	204.205	326.187	203.311	-8191	255	
42075.270	1	1	0	0	0.12443	0.26385	0.175	0.2046	0.29491	0.20692	0.087899	0.19384	0.22907	0.01452	0.32619	0.11541	0.16318	0.24432	0.11111	0.027296	-1.8604	-2.6542	-2.0917	-2.6688	-2.5271	-2.175	-2.7333	-2.5375	-2.2562	-2.9083	-2.4458	-2.6333	-2.7313	-2.4542	-2.5021	-2.4792	230.552	420.212	342.802	450.589	437.809	424.437	425.460	250.252	266.181	351.482	442.431	192.241	222.240	180.580	228.749	475.132	0.00043958	0.00043847	0.00014554	1388.7	5.0288e-06	3.7314e-06	1378.1	367.74	3.6334e-06	6.3958e-06	419.38	136.37	119.05	41.078	5.0896e-06	50.772	0.00066336	0.00082395	0.00024425	1403.1	8.8136e-06	9.8572e-06	1397.7	374.15	9.4634e-06	9.7623e-06	426.2	140.03	122.19	42.113	8.9709e-06	52.155	234.975	269.223	257.390	190.352	300.428	336.922	190.252	194.909	318.191	327.469	194.730	198.853	199.193	204.269	321.114	203.397	-8191	255	
42075.363	1	1	0	0	0.094205	0.12515	0.018977	0.25811	0.13899	0.15799	0.29209	0.17838	0.10712	0.17967	0.2718	0.21677	0.080559	0.15251	0.14229	0.29206	-1.9104	-2.5187	-2.0979	-2.6083	-2.5292	-2.2271	-2.7708	-2.5604	-2.2583	-2.5479	-2.5521	-2.675	-2.6208	-2.3125	-2.525	-2.6458	182.984	275.197	533.925	476.531	289.829	222.840	178.574	199.281	484.482	182.571	410.736	189.624	354.116	511.831	363.553	383.127	0.00045415	0.00057959	0.00014829	1395.9	5.3671e-06	2.981e-06	1381.4	368.87	3.2907e-06	4.1216e-06	419.62	136.8	118.98	41.055	5.6642e-06	50.721	0.00068326	0.00087966	0.000246	1408.9	9.0092e-06	9.7162e-06	1400.3	374.56	9.1387e-06	9.4075e-06	426.65	139.93	122.02	42.072	8.7239e-06	52.014	232.559	275.215	258.119	190.301	313.169	316.126	190.208	195.089	286.375	337.466	194.752	198.902	199.204	203.864	316.722	203.501	-8191	255	
42075.484	1	1	0	0	0.45183	0.11091	0.12595	0.24915	0.05826	0.073465	0.19734	0.065283	0.17445	0.18439	0.14049	0.20205	0.37447	0.23985	0.22771	0.067869	-1.8229	-2.4854	-2.2917	-2.7042	-2.7396	-2.0521	-2.6813	-2.7542	-2.2896	-2.6625	-2.5021	-2.4917	-2.6458	-2.2562	-2.4792	-2.6021	423.592	309.275	389.352	484.454	371.786	455.151	474.801	437.355	408.518	503.050	468.848	428.000	360.864	470.457	313.378	390.057	0.00046272	0.00028543	0.00015559	1388.2	5.628e-06	3.351e-06	1381	366.75	5.637e-06	7.2866e-06	420.58	136.34	119.42	41.178	5.5498e-06	50.9	0.00066149	0.00080514	0.00022173	1401.9	8.4222e-06	9.1549e-06	1396.5	373.5	8.4942e-06	8.8043e-06	426.3	139.99	122.05	42.118	8.6736e-06	52.158	232.305	236.491	278.824	190.425	322.082	347.030	190.321	195.021	319.321	318.152	194.481	198.808	198.963	203.952	329.096	203.433	-8191	255	
42075.578	1	1	0	0	0.090968	0.19797	0.1866	0.17484	0.085309	0.060873	0.38417	0.39104	0.23744	0.33907	0.10381	0.38248	0.097543	0.20708	0.14835	0.22305	-1.7875	-2.5187	-2.25	-2.6646	-2.6667	-2.3146	-2.6042	-2.5083	-2.3229	-2.6417	-2.5167	-2.45	-2.8458	-2.3312	-2.5312	-2.6771	307.738	232.811	252.300	533.736	303.744	323.339	479.232	469.612	480.172	224.198	486.621	496.750	480.337	215.178	277.881	411.282	0.00042717	0.00058606	0.00011917	1389.9	5.493e-06	6.3945e-06	1382.1	367.01	4.6874e-06	4.221e-06	420.51	137.11	118.98	41.38	2.9674e-06	51.21	0.00066564	0.00080585	0.00022629	1404.5	8.7424e-06	9.0414e-06	1399.7	374.14	9.0445e-06	8.8492e-06	426.4	140.26	122.37	42.301	8.8121e-06	52.436	232.969	260.199	281.630	190.442	318.594	365.448	190.061	194.739	316.934	308.001	194.682	198.627	199.273	203.967	291.938	203.178	-8191	255	
42075.676	1	1	0	0	0.16718	0.2666	0.32055	0.10985	0.20931	0.10041	0.36111	0.084195	0.13234	0.22914	0.24051	0.17503	0.14062	0.10183	0.27755	0.24978	-1.8479	-2.55	-2.4208	-2.4562	-2.7646	-2.2042	-2.6479	-2.8042	-2.1562	-2.6333	-2.4146	-2.325	-2.7062	-2.4458	-2.4417	-2.5646	374.313	277.388	288.988	451.095	200.101	333.236	471.176	436.668	258.649	401.482	458.255	314.557	236.800	491.471	465.515	491.948	0.00046129	0.00063396	0.00020032	1395.4	6.5695e-06	6.0565e-06	1393.6	368.66	5.5808e-06	4.4544e-06	420.9	138.39	120.57	41.538	4.4151e-06	51.388	0.00067666	0.00083143	0.0002337	1409.9	8.7923e-06	9.9135e-06	1408.5	375.88	9.0916e-06	9.2489e-06	428.75	141.49	123.67	42.522	9.1706e-06	52.66	232.466	271.545	255.051	190.292	320.872	320.338	190.260	194.969	326.707	320.937	194.348	198.618	199.105	203.722	357.201	203.165	-8191	255	
42075.773	1	1	0	0	0.048013	0.10199	0.074932	0.17166	0.056695	0.25099	0.17446	0.1712	0.11525	0.28698	0.43989	0.17219	0.13771	0.36788	0.13391	0.064733	-1.7792	-2.4583	-2.3583	-2.6333	-2.6104	-2.3438	-2.5167	-2.6646	-2.1646	-2.6188	-2.5187	-2.3312	-2.7333	-2.5687	-2.5458	-2.6833	483.924	218.890	302.663	508.504	196.445	206.747	412.970	424.738	515.706	216.162	491.797	476.846	498.742	251.272	394.042	229.122	0.00045357	0.00040961	0.00014797	1400.5	3.9072e-06	4.4006e-06	1400	371.43	4.2346e-06	5.8044e-06	424.41	138.82	120.88	41.787	3.4405e-06	51.302	0.00068388	0.00085009	0.00024624	1419.1	8.9101e-06	9.4319e-06	1416.4	377.74	9.2504e-06	9.4908e-06	430.97	142.61	124.36	42.822	9.6655e-06	52.944	231.535	273.516	266.112	190.317	333.028	325.773	190.182	194.835	321.175	314.927	194.620	198.775	199.047	203.878	298.611	203.122	-8191	255	
42075.867	1	1	0	0	0.18593	0.084285	0.027632	0.14969	0.054486	0.083879	0.1137	0.092516	0.42883	0.18274	0.19039	0.25702	0.21471	0.19161	0.22978	0.20297	-1.6646	-2.3438	-2.5812	-2.3833	-2.4521	-2.3625	-2.4792	-2.7604	-2.4958	-2.4813	-2.7104	-2.2917	-2.5979	-2.4917	-2.3042	-2.7646	469.605	533.195	238.850	193.418	185.152	422.753	273.833	482.710	422.177	365.661	219.119	415.258	489.822	219.277	514.842	447.951	0.00046607	0.00039505	0.00017796	1407.8	4.7299e-06	4.3921e-06	1400	372.03	4.359e-06	4.0982e-06	424.86	139.45	121.74	42.148	3.4248e-06	51.92	0.00068173	0.00086427	0.00024559	1422.1	8.7577e-06	9.4706e-06	1418.4	379.3	9.029e-06	9.4443e-06	432.17	143.37	124.98	43.141	9.2785e-06	53.211	232.587	256.847	251.107	190.264	312.366	336.529	190.065	194.858	292.059	301.643	194.335	198.855	198.907	203.742	319.386	203.086	-8191	255	
42075.965	1	1	0	0	0.093934	0.10276	0.15908	0.23987	0.11874	0.26263	0.13598	0.38483	0.15547	0.14557	0.26929	0.18197	0.094196	0.19464	0.16062	0.046265	-1.8917	-2.2979	-2.5104	-2.2646	-2.4917	-2.4208	-2.5458	-2.6188	-2.2854	-2.5292	-2.7313	-2.3229	-2.8729	-2.5438	-2.2958	-2.7021	274.790	389.644	268.195	513.420	423.186	282.267	218.257	447.626	382.074	293.785	451.544	296.843	196.401	399.566	199.637	195.949	0.00044788	0.00040469	0.00013375	1409	2.9254e-06	4.608e-06	1401.2	373	5.4266e-06	5.2367e-06	422.07	140.62	122.27	42.049	3.7888e-06	52.031	0.0006668	0.00085002	0.00023434	1423.6	8.4721e-06	9.6075e-06	1419.9	379.62	9.0079e-06	9.3618e-06	431.76	143.89	125.43	43.166	9.0037e-06	53.272	232.792	238.709	276.262	190.265	300.850	338.632	190.403	194.894	321.824	333.580	194.406	198.660	199.257	204.007	333.194	203.207	-8191	255	
42076.059	1	1	0	0	0.10129	0.23348	0.069537	0.37254	0.18509	0.1501	0.30854	0.13334	0.066491	0.054797	0.17766	0.1476	0.23968	0.10642	0.15629	0.21884	-1.9188	-2.5771	-2.5854	-2.4396	-2.4188	-2.6583	-2.5208	-2.6958	-2.2625	-2.3646	-2.8125	-2.2562	-2.6813	-2.65	-2.225	-2.7146	259.895	483.531	211.349	516.850	317.176	328.490	190.429	518.398	239.118	490.688	199.776	508.276	308.141	323.431	190.969	483.482	0.00045711	0.00052533	0.00013267	1410.7	5.5448e-06	3.9911e-06	1402.1	372.22	4.2797e-06	3.3916e-06	425.67	140.62	122.51	42.084	4.372e-06	51.67	0.00066064	0.00082003	0.00022693	1425.4	8.6884e-06	9.1936e-06	1422	379.98	8.8976e-06	9.3009e-06	433.01	144.13	125.69	43.233	9.0562e-06	53.346	233.458	259.741	267.429	190.549	322.629	330.768	190.342	194.846	316.276	305.645	194.297	198.580	199.300	203.862	325.084	203.152	-8191	255	
42076.180	1	1	0	0	0.29131	0.17119	0.10302	0.24888	0.18875	0.14095	0.50713	0.15094	0.32654	0.28112	0.25844	0.14484	0.15418	0.3921	0.14427	0.050724	-2.1583	-2.2542	-2.5479	-2.3667	-2.3417	-2.7583	-2.3708	-2.675	-2.3771	-2.2583	-2.6833	-2.3875	-2.5146	-2.6292	-2.2729	-2.7687	456.487	322.523	258.707	516.046	233.120	334.603	462.369	469.115	510.275	250.492	472.785	259.416	218.348	187.441	452.578	505.660	0.00043957	0.00051336	0.00012248	1414.6	3.2854e-06	5.9243e-06	1403	372.79	5.4799e-06	4.6362e-06	424.78	140.57	122.67	42.227	5.0922e-06	51.888	0.00066499	0.00087346	0.00021773	1427.3	8.4775e-06	9.3095e-06	1423.5	379.88	8.9103e-06	9.2521e-06	432.43	144.05	125.85	43.309	9.0744e-06	53.343	232.813	266.227	271.788	190.194	310.400	344.829	190.297	194.651	312.198	328.231	194.351	198.599	199.459	203.749	325.876	203.156	-8191	255	
42076.277	1	1	0	0	0.092697	0.099499	0.086707	0.021869	0.26159	0.21722	0.22525	0.17248	0.12396	0.094145	0.27876	0.31914	0.16706	0.19615	0.27663	0.11057	-2.0167	-2.3042	-2.7333	-2.5375	-2.5521	-2.6708	-2.3583	-2.8125	-2.4188	-2.375	-2.6792	-2.3917	-2.6875	-2.7292	-2.4417	-2.6958	506.324	482.070	269.901	273.219	447.748	502.382	512.156	435.591	418.859	239.957	528.925	183.544	344.788	478.293	450.719	467.282	0.00045427	0.00040582	6.9762e-05	1408.6	4.0273e-06	5.2556e-06	1407.9	374.79	4.9352e-06	5.3268e-06	424.69	141.44	122.49	42.278	2.253e-06	52.126	0.00066255	0.00082438	0.00023149	1425	8.4189e-06	9.01e-06	1423.8	380.5	8.6066e-06	8.9077e-06	433.05	144.69	126.14	43.444	8.5978e-06	53.574	233.633	271.106	264.744	190.293	320.647	341.424	190.195	194.902	297.619	323.758	194.301	198.536	199.225	203.956	317.799	203.213	-8191	255	
42076.371	1	1	0	0	0.17435	0.1792	0.14814	0.32851	0.18137	0.37059	0.082026	0.30223	0.22067	0.24536	0.27518	0.28334	0.27856	0.096602	0.14683	0.13897	-2.0833	-2.2979	-2.7208	-2.5458	-2.3896	-2.6229	-2.3646	-2.3896	-2.6917	-2.5083	-2.75	-2.475	-2.3417	-2.7167	-2.3583	-2.6188	212.726	516.598	427.957	186.191	399.662	419.598	407.701	510.360	180.891	516.986	528.197	508.089	493.866	351.268	295.286	362.012	0.0004593	0.00063726	0.0001186	1411.3	2.9683e-06	5.5904e-06	1408.9	373.28	3.5251e-06	5.1651e-06	425.41	141.34	123.14	42.567	2.8103e-06	52.199	0.00065887	0.00081312	0.00021234	1427.9	8.4056e-06	9.0003e-06	1426.5	380.46	8.5434e-06	8.9605e-06	433.23	144.91	126.39	43.533	8.4455e-06	53.605	233.193	247.591	265.709	190.295	323.756	323.781	190.243	194.734	295.248	305.251	194.517	198.841	199.095	203.898	318.939	203.025	-8191	255	
42076.469	1	1	0	0	0.020752	0.21338	0.15282	0.15849	0.24206	0.54529	0.20879	0.19125	0.1665	0.28772	0.34097	0.10563	0.3065	0.23403	0.27737	0.27624	-2.2396	-1.9979	-2.6063	-2.6813	-2.3312	-2.5812	-2.6583	-2.5417	-2.5458	-2.3771	-2.6688	-2.4604	-2.4146	-2.6208	-2.3542	-2.6521	463.689	347.461	483.872	512.104	194.712	535.300	495.319	507.170	424.139	233.689	461.917	373.239	515.708	196.724	268.717	205.819	0.00042376	0.00056162	0.00014652	1412.7	5.0294e-06	3.7659e-06	1404.4	374.6	4.3812e-06	4.4115e-06	427.43	141.37	123.22	42.616	3.8878e-06	52.163	0.00064941	0.00077964	0.00021582	1427.1	8.2352e-06	8.6e-06	1425.4	380.78	8.6165e-06	8.7971e-06	433.91	144.74	126.46	43.537	8.5468e-06	53.604	234.995	261.196	277.982	190.366	306.258	312.983	190.208	194.756	321.517	315.733	194.415	198.758	198.878	203.726	337.847	203.076	-8191	255	
42076.566	1	1	0	0	0.29997	0.077472	0.11935	0.069028	0.035255	0.20451	0.095501	0.18923	0.090688	0.20092	0.16091	0.10259	0.081881	0.17092	0.30065	0.16143	-2.2146	-2.2667	-2.5854	-2.7354	-2.3354	-2.5917	-2.5312	-2.5271	-2.5687	-2.4	-2.575	-2.6042	-2.1729	-2.6792	-2.4354	-2.6479	467.600	434.607	452.156	520.978	202.112	351.218	249.189	460.474	330.263	369.586	249.525	278.862	247.967	364.656	229.769	483.682	0.00044602	0.00052641	0.00017916	1416.1	4.1936e-06	5.7359e-06	1414.1	374.14	4.4855e-06	5.3896e-06	425.31	141.75	122.88	42.51	5.5741e-06	52.534	0.0006404	0.00077608	0.00021514	1429.3	8.359e-06	8.5445e-06	1427.1	381.14	8.4913e-06	8.5793e-06	434.18	145.31	126.58	43.694	8.3748e-06	53.794	231.609	267.498	263.663	190.319	334.610	337.024	190.323	194.925	295.098	337.283	194.797	198.740	199.223	203.658	327.960	203.235	-8191	255	
42076.660	1	1	0	0	0.17029	0.17034	0.22128	0.26075	0.30296	0.050391	0.21228	0.17407	0.11519	0.2108	0.15875	0.28596	0.17051	0.25188	0.1843	0.19841	-2.1521	-2.1792	-2.4042	-2.6312	-2.3438	-2.6792	-2.5875	-2.6125	-2.725	-2.3542	-2.6708	-2.6083	-2.2792	-2.725	-2.45	-2.4167	370.654	273.038	430.163	179.372	287.424	221.075	494.109	210.006	200.090	299.504	439.917	504.874	533.591	184.046	189.437	181.576	0.00047002	0.00054944	0.00016119	1418	2.9563e-06	2.1816e-06	1412	377.47	5.3993e-06	5.9169e-06	427.51	142.38	124.64	42.943	4.5085e-06	52.734	0.0006455	0.0007904	0.00021254	1432.2	8.1999e-06	8.5646e-06	1430	382.83	8.2496e-06	8.9149e-06	435.17	146.15	127.53	43.954	8.3748e-06	54.187	233.262	254.557	280.052	190.316	323.437	354.325	190.073	194.777	309.034	316.502	194.363	198.498	199.081	203.758	357.907	203.076	-8191	255	
42076.781	1	1	0	0	0.2332	0.036387	0.15672	0.024465	0.099049	0.15266	0.38136	0.059784	0.18234	0.13704	0.0093038	0.32632	0.24015	0.13621	0.23062	0.20162	-2.1521	-2.0625	-2.4625	-2.6917	-2.3979	-2.5771	-2.575	-2.3167	-2.6458	-2.2125	-2.7292	-2.8125	-2.1854	-2.6937	-2.3375	-2.35	289.093	278.615	220.601	246.579	493.609	193.593	268.031	228.317	294.110	452.595	472.782	453.937	205.106	242.797	396.540	220.799	0.00044605	0.00040232	0.00012064	1416.7	6.3136e-06	5.1777e-06	1415.2	377.28	4.9614e-06	6.0691e-06	430.36	144.26	125.6	43.225	4.678e-06	52.965	0.00062706	0.00078363	0.00021781	1434.3	8.3064e-06	8.5711e-06	1432.3	383.42	8.3191e-06	8.6978e-06	437.13	147.26	128.74	44.392	8.1707e-06	54.479	233.501	265.885	271.391	190.438	308.207	325.274	190.174	194.728	320.867	304.631	194.648	198.433	199.219	203.596	328.041	203.030	-8191	255	
42076.875	1	1	0	0	0.077598	0.29903	0.056796	0.080855	0.14555	0.21553	0.14085	0.22575	0.17839	0.21465	0.16572	0.12781	0.10692	0.028968	0.098006	0.19794	-2.2333	-2.325	-2.6479	-2.7042	-2.2792	-2.5542	-2.5812	-2.3833	-2.6458	-2.25	-2.3979	-2.6146	-2.4604	-2.6333	-2.5271	-2.3417	344.764	439.280	401.114	435.938	189.897	270.362	449.727	228.118	489.973	424.576	417.587	431.468	178.614	218.025	218.419	274.479	0.00045273	0.00065403	0.00013482	1422.1	5.2356e-06	4.3612e-06	1419.2	379.57	3.3512e-06	5.1255e-06	432.71	144.53	126.07	43.597	5.1047e-06	53.281	0.00063574	0.00077693	0.00021948	1439.8	8.1566e-06	8.3874e-06	1439.2	385.29	8.0963e-06	8.3021e-06	438.68	148.15	129.21	44.686	8.4345e-06	54.786	233.961	253.878	298.997	190.309	322.181	339.817	190.079	194.822	296.526	336.555	194.520	198.468	199.009	203.634	334.540	203.073	-8191	255	
42076.973	1	1	0	0	0.28517	0.092668	0.23188	0.11928	0.087967	0.12326	0.10034	0.23634	0.0494	0.085073	0.077174	0.085328	0.32338	0.065804	0.16285	0.095546	-2.1583	-2.4917	-2.2354	-2.7438	-2.1771	-2.5021	-2.4917	-2.3604	-2.4	-2.5563	-2.4188	-2.7625	-2.3292	-2.5208	-2.525	-2.3438	359.108	201.916	267.720	390.401	307.351	268.094	179.818	490.646	200.829	199.378	344.791	232.865	259.424	494.585	489.524	230.287	0.00049046	0.0006007	0.00013809	1426.7	4.562e-06	4.4919e-06	1418.4	377.36	5.8382e-06	4.4811e-06	430.91	145.14	126.6	43.837	4.6882e-06	53.725	0.00062972	0.00077273	0.00021893	1441.4	8.0195e-06	8.7579e-06	1438.7	384.48	8.2299e-06	8.6674e-06	438.97	148.68	129.75	44.877	8.3274e-06	55.061	230.809	275.051	259.921	190.311	306.726	339.516	190.200	194.809	303.404	328.967	194.466	198.532	199.243	203.401	320.090	203.051	-8191	255	
42077.043	1	1	0	0	0.079511	0.18559	0.32354	0.13899	0.42038	0.20639	0.18481	0.32964	0.018846	0.24741	0.11168	0.16039	0.12662	0.3014	0.059301	0.12117	-2.2104	-2.3875	-2.2854	-2.9104	-2.3875	-2.2708	-2.7042	-2.2896	-2.6083	-2.4667	-2.4208	-2.6688	-2.45	-2.2958	-2.6937	-2.325	518.795	431.505	226.837	459.408	411.015	402.251	458.598	491.605	507.452	241.912	206.003	502.139	452.629	482.175	526.478	503.293	0.00048919	0.0005262	0.00015288	1432.6	5.4142e-06	6.6901e-06	1429.6	378.86	4.435e-06	4.5752e-06	430.66	145.16	126.46	43.468	4.2976e-06	53.502	0.00064319	0.00079011	0.00021861	1447	8.2325e-06	8.7909e-06	1445.5	386.04	8.1715e-06	8.7659e-06	439.66	148.95	129.58	44.693	8.4141e-06	54.819	234.101	265.314	271.512	190.399	318.103	340.660	190.094	194.969	313.177	351.241	194.372	198.616	199.090	203.619	326.821	203.155	-8191	255	
42077.141	1	1	0	0	0.11946	0.044705	0.20986	0.24062	0.18439	0.37715	0.19943	0.24759	0.17764	0.23333	0.18864	0.21864	0.21785	0.25112	0.17202	0.050501	-2.2938	-2.3583	-2.0583	-2.9104	-2.2292	-2.5042	-2.7042	-2.2458	-2.5062	-2.6125	-2.3688	-2.7896	-2.4188	-2.3708	-2.7	-2.3	403.974	372.407	511.887	520.775	370.081	254.262	498.000	449.723	442.703	349.383	230.925	505.659	511.808	513.875	496.399	394.159	0.00050209	0.00060601	0.00011412	1430.7	4.1029e-06	3.7133e-06	1422.9	379.62	4.5951e-06	7.6641e-06	431.24	145.35	126.49	43.674	4.4538e-06	53.434	0.00066418	0.00079723	0.00021893	1445.9	8.3796e-06	8.592e-06	1442.8	385.94	8.2404e-06	8.6345e-06	438.63	148.66	129.53	44.776	8.256e-06	54.902	232.045	249.490	273.284	190.396	341.152	335.344	190.047	194.841	323.630	320.462	194.325	198.574	198.932	203.437	310.169	203.256	-8191	255	
42077.262	1	1	0	0	0.095153	0.086046	0.094004	0.20722	0.26718	0.40679	0.13494	0.25471	0.22822	0.17232	0.12226	0.13643	0.34997	0.40919	0.12513	0.13878	-2.0292	-2.5854	-2.3208	-2.7958	-2.4958	-2.3812	-2.775	-2.3958	-2.4437	-2.5604	-2.3354	-2.7271	-2.45	-2.5187	-2.9	-2.2479	276.511	343.074	250.014	467.328	504.388	197.025	489.500	508.522	238.187	458.990	304.009	223.577	457.397	248.816	299.229	453.403	0.00044338	0.00042909	0.00012337	1432.5	5.813e-06	4.5798e-06	1426.7	378.06	4.6159e-06	3.6048e-06	431.79	144.6	126.91	43.469	4.1682e-06	53.031	0.00064727	0.0007728	0.00021656	1446.4	8.3177e-06	8.8457e-06	1444.4	384.94	8.594e-06	8.3742e-06	439.01	148.17	129.47	44.56	8.2523e-06	54.633	232.255	262.011	292.057	190.419	316.719	330.993	190.036	194.695	306.910	285.961	194.421	198.518	198.841	203.723	314.895	202.702	-8191	255	
42077.355	1	1	0	0	0.042359	0.14182	0.14043	0.13795	0.053325	0.29645	0.21005	0.14835	0.046048	0.13506	0.21781	0.23475	0.1886	0.2117	0.10103	0.14199	-1.9958	-2.7062	-2.0917	-2.6271	-2.6	-2.3937	-2.7375	-2.4104	-2.3312	-2.5146	-2.375	-2.5083	-2.4313	-2.3021	-2.6667	-2.4354	316.497	292.858	225.994	217.799	213.153	428.176	205.438	429.271	411.839	226.271	513.516	504.821	197.810	417.142	432.700	308.664	0.00048579	0.00075788	0.00013861	1430	3.8808e-06	6.1083e-06	1422.4	379.15	5.4748e-06	5.2743e-06	431.9	144.29	125.3	43.463	4.7913e-06	53.253	0.00066945	0.00079218	0.0002209	1444.2	8.2738e-06	8.6186e-06	1441.2	384.88	8.3824e-06	8.508e-06	438.29	147.7	128.68	44.414	8.2494e-06	54.531	232.703	280.090	258.545	190.410	301.601	336.315	190.359	194.826	311.814	320.043	194.391	198.599	199.121	204.036	314.680	203.124	-8191	255	
42077.453	1	1	0	0	0.17783	0.22533	0.055499	0.39463	0.19125	0.10736	0.32231	0.21733	0.23738	0.13426	0.30809	0.3083	0.11198	0.25286	0.17841	0.026799	-1.9729	-2.4479	-2.2042	-2.725	-2.3771	-2.2958	-2.8417	-2.4771	-2.2708	-2.6063	-2.2542	-2.4833	-2.6292	-2.2958	-2.5417	-2.4771	326.074	272.399	428.494	525.441	336.157	298.062	477.707	489.254	274.612	290.585	524.460	506.317	332.007	476.192	506.860	348.647	0.00047438	0.00060668	0.00014999	1429.4	3.649e-06	3.7644e-06	1423.1	378.54	3.9906e-06	4.1965e-06	430.97	144.23	125.83	43.227	4.4001e-06	52.97	0.0006536	0.00079225	0.00021202	1444.6	8.0588e-06	8.8851e-06	1440.5	384.34	8.4189e-06	8.3294e-06	438.07	147.69	128.46	44.418	8.3631e-06	54.433	232.254	227.547	252.058	190.355	304.838	312.588	190.062	194.834	326.394	309.587	193.929	198.469	199.011	203.808	328.572	203.132	-8191	255	
42077.574	1	1	0	0	0.28846	0.050931	0.15239	0.025288	0.1973	0.30402	0.052071	0.20826	0.045791	0.04658	0.32597	0.11851	0.14572	0.092882	0.088751	0.24635	-1.9312	-2.4542	-2.2354	-2.625	-2.4625	-2.2667	-2.6688	-2.5563	-2.375	-2.525	-2.4229	-2.4708	-2.7292	-2.3667	-2.4208	-2.5521	251.947	452.462	464.557	381.693	523.765	287.846	388.509	438.467	214.071	187.835	242.339	384.440	480.649	507.103	457.797	484.963	0.0004812	0.0005684	0.00012433	1421.3	4.2239e-06	6.4052e-06	1420.6	376.8	4.4878e-06	4.8056e-06	430.72	143.2	125.16	43.025	4.8366e-06	52.802	0.00065703	0.00075912	0.00021319	1440.1	8.0069e-06	8.8392e-06	1439	384.03	8.3142e-06	8.1612e-06	437.23	147.1	128.3	44.191	8.0556e-06	54.249	231.969	245.226	261.085	190.450	325.389	335.930	190.044	194.764	309.201	311.712	194.166	198.797	198.983	203.604	310.901	203.149	-8191	255	
42077.645	1	1	0	0	0.33393	0.083279	0.22511	0.076325	0.20641	0.23206	0.12772	0.080229	0.24579	0.068924	0.126	0.22855	0.05374	0.10811	0.28916	0.089923	-2.0708	-2.6188	-2.3604	-2.7021	-2.6771	-2.2208	-2.7854	-2.6771	-2.2229	-2.6229	-2.4688	-2.5354	-2.7729	-2.3125	-2.3812	-2.5854	479.665	534.570	185.012	374.296	199.278	387.936	518.843	240.319	467.751	518.490	266.767	489.439	445.300	390.088	447.856	520.750	0.00045344	0.00052169	0.00012216	1426.7	3.0839e-06	6.3682e-06	1418.7	377.83	5.4455e-06	3.744e-06	429.61	143.19	124.75	43.122	4.2105e-06	52.821	0.00062914	0.00076318	0.00021015	1440	7.752e-06	8.5815e-06	1437.8	383.43	8.4688e-06	8.0298e-06	436.8	146.83	128.02	44.049	7.8056e-06	54.211	232.606	248.529	248.219	190.341	336.401	345.964	190.143	194.851	314.789	358.114	194.476	198.411	199.269	203.711	305.004	202.913	-8191	255	
42077.742	1	1	0	0	0.042402	0.087794	0.21711	0.31569	0.10655	0.19199	0.22713	0.16596	0.28165	0.21651	0.23876	0.22907	0.10635	0.097305	0.17696	0.18434	-1.7667	-2.4646	-2.1958	-2.5917	-2.5583	-2.2562	-2.5896	-2.6646	-2.3396	-2.7125	-2.575	-2.3354	-2.8125	-2.4604	-2.5687	-2.8312	302.574	328.852	526.791	529.809	314.512	342.592	484.567	471.136	213.145	210.244	529.686	221.460	517.924	466.167	214.196	440.513	0.00047252	0.00037446	9.9098e-05	1424.8	4.1039e-06	5.4887e-06	1417	376.84	4.7714e-06	5.7111e-06	428.9	142.71	124.65	42.983	4.5823e-06	53.012	0.00062584	0.00075891	0.00020804	1440.1	7.5343e-06	8.3802e-06	1435.3	383.15	8.116e-06	7.9817e-06	435.54	146.54	127.91	44.01	8.1532e-06	54.243	233.235	275.226	270.110	190.246	316.003	336.883	190.202	194.525	312.059	320.323	194.464	198.472	199.236	203.741	327.655	203.262	-8191	255	
42077.859	1	1	0	0	0.24981	0.38613	0.25928	0.072692	0.18197	0.19737	0.34036	0.189	0.093056	0.20905	0.078715	0.18427	0.19768	0.2085	0.083861	0.089301	-1.8312	-2.5958	-2.4313	-2.4938	-2.5292	-2.3438	-2.6958	-2.6771	-2.2438	-2.6792	-2.45	-2.4083	-2.5833	-2.3104	-2.2875	-2.6708	360.557	466.285	250.869	381.370	384.118	246.004	195.057	513.745	414.034	207.614	503.471	344.501	275.881	489.398	527.759	183.293	0.00048349	0.00028741	0.00015717	1424.8	4.5746e-06	5.6122e-06	1415	375.66	5.3385e-06	5.7305e-06	430.24	143.14	124.76	42.924	5.1046e-06	52.784	0.00062696	0.0007478	0.00020822	1438.9	7.7506e-06	8.1845e-06	1435.2	382.8	7.9972e-06	8.2877e-06	436.5	146.56	128.03	43.996	8.1022e-06	54.144	233.067	284.887	271.368	190.410	310.765	331.402	190.111	194.800	296.712	317.544	194.344	198.531	199.050	203.689	319.401	203.066	-8191	255	
42077.957	1	1	0	0	0.12262	0.20882	0.16729	0.14768	0.19076	0.15596	0.31497	0.18127	0.23151	0.025571	0.22281	0.28575	0.12142	0.21089	0.22806	0.17646	-1.8021	-2.4083	-2.2292	-2.5667	-2.4375	-2.2854	-2.5375	-2.8146	-2.2271	-2.6188	-2.6063	-2.3042	-2.7604	-2.3396	-2.2333	-2.8125	393.224	313.494	333.960	498.317	268.942	200.080	503.846	413.232	236.482	531.672	514.320	443.709	258.204	432.911	397.425	486.535	0.00045581	0.00041302	0.00016374	1421	2.0979e-06	5.7209e-06	1419.1	376.51	4.3346e-06	5.4545e-06	430.24	143.02	123.46	42.96	2.531e-06	52.877	0.00063063	0.00074958	0.00020903	1437.4	7.8505e-06	8.6113e-06	1434.6	382.77	8.3072e-06	8.3478e-06	435.91	146.35	127.35	43.934	8.1029e-06	54.031	232.570	245.292	293.845	190.290	307.726	352.611	190.242	194.843	327.311	325.436	194.610	198.672	199.124	203.656	322.496	203.362	-8191	255	
42078.051	1	1	0	0	0.26529	0.26783	0.18912	0.19424	0.11483	0.2564	0.45139	0.31262	0.10887	0.13311	0.03534	0.17051	0.25044	0.21798	0.30498	0.19797	-1.9854	-2.3417	-2.4188	-2.4625	-2.6188	-2.4792	-2.4104	-2.5375	-2.15	-2.3146	-2.7208	-2.2208	-2.6479	-2.4458	-2.3375	-2.7792	508.792	350.303	394.636	518.274	412.639	474.037	522.550	249.535	280.753	526.482	435.218	447.558	193.173	435.415	490.112	499.443	0.00046169	0.00040941	0.00010017	1422.4	5.1176e-06	6.2769e-06	1417.8	375.61	4.6313e-06	3.811e-06	429.18	143.31	124.66	42.98	3.9958e-06	52.647	0.00063655	0.00073718	0.00020242	1437.7	7.8525e-06	8.6532e-06	1434.6	382.57	8.3466e-06	8.4047e-06	436.02	146.32	127.42	44	8.3019e-06	54.112	236.006	237.487	272.660	190.311	326.520	326.137	190.040	194.659	323.403	290.788	194.430	198.551	199.071	203.710	316.130	203.117	-8191	255	
42078.172	1	1	0	0	0.24867	0.14469	0.15898	0.3384	0.29416	0.11084	0.35666	0.19694	0.14964	0.043171	0.31675	0.15521	0.023004	0.22015	0.27234	0.088693	-1.7875	-2.475	-2.6771	-2.2729	-2.5333	-2.5042	-2.3458	-2.8208	-2.4042	-2.4042	-2.7083	-2.3	-2.6625	-2.675	-2.2562	-2.8479	318.241	245.353	469.832	522.970	436.112	513.404	438.531	450.864	275.240	198.603	406.154	479.236	509.730	303.073	406.331	410.971	0.00046657	0.00043825	0.00022302	1423.8	5.6224e-06	6.1902e-06	1414.3	376.89	4.3015e-06	4.1744e-06	428.81	142.49	124.39	42.719	4.1152e-06	52.519	0.00064472	0.00075079	0.00021266	1440.1	7.9343e-06	8.7297e-06	1435.3	382.76	8.3409e-06	8.2965e-06	436.11	146.3	127.58	43.864	8.151e-06	53.986	232.342	275.396	262.084	190.436	329.480	343.325	190.045	194.794	309.340	305.113	194.595	198.486	199.078	203.590	310.347	203.137	-8191	255	
42078.270	1	1	0	0	0.32358	0.07054	0.2537	0.041389	0.2304	0.24423	0.25594	0.13595	0.16541	0.099739	0.111	0.20135	0.090557	0.094578	0.24659	0.25097	-1.8979	-2.4792	-2.425	-2.6396	-2.5333	-2.3667	-2.4771	-2.6458	-2.4896	-2.3167	-2.6396	-2.2792	-2.6625	-2.5667	-2.1979	-2.7375	427.274	209.707	266.558	536.472	358.809	182.274	506.102	496.289	524.157	470.032	339.252	399.604	239.189	204.874	252.863	454.276	0.00047133	0.00075038	0.00010834	1422.9	4.1411e-06	5.0438e-06	1418	375.38	4.5739e-06	3.9815e-06	430.48	142.43	124.49	42.662	3.8432e-06	52.779	0.00063523	0.00077408	0.00021114	1438.6	7.8758e-06	8.3891e-06	1435.1	382.35	8.4822e-06	8.4759e-06	436.39	146.13	127.47	43.846	8.1328e-06	53.984	229.751	264.859	291.797	190.360	321.028	348.851	190.120	194.918	322.801	337.717	194.453	198.675	199.121	204.062	320.189	203.343	-8191	255	
42078.340	1	1	0	0	0.11299	0.085052	0.17803	0.40532	0.093975	0.1222	0.15355	0.14508	0.054717	0.29598	0.16666	0.20384	0.14574	0.1098	0.26382	0.16396	-1.7229	-2.2875	-2.5917	-2.4521	-2.4667	-2.5625	-2.45	-2.7521	-2.2188	-2.3792	-2.6167	-2.5062	-2.4062	-2.6125	-2.1042	-2.6646	475.393	483.157	471.673	439.847	403.339	486.446	511.820	436.324	212.570	474.455	314.288	188.927	203.471	487.550	197.542	461.551	0.00046308	0.00042435	0.00013764	1425.5	3.2498e-06	5.9877e-06	1410.5	375.8	5.433e-06	3.6806e-06	429.16	142.75	124.52	42.867	3.5079e-06	52.48	0.0006339	0.00074024	0.00020591	1438.1	7.7999e-06	8.3778e-06	1431.9	382	8.2812e-06	8.1684e-06	435.53	146.27	127.8	43.897	7.9652e-06	54.067	232.016	264.267	283.450	190.496	302.941	320.478	189.913	195.033	316.388	329.466	194.558	198.744	199.077	203.850	304.431	203.323	-8191	255	
42078.438	1	1	0	0	0.12852	0.23764	0.056314	0.25465	0.1234	0.24959	0.1922	0.060191	0.096537	0.093719	0.094128	0.26977	0.23635	0.14818	0.052396	0.16208	-1.9438	-2.2875	-2.6229	-2.4896	-2.4062	-2.5104	-2.5187	-2.5208	-2.3479	-2.3146	-2.775	-2.4396	-2.3438	-2.5646	-2.4062	-2.5104	463.171	263.477	299.015	507.452	241.328	248.876	472.265	455.099	509.442	516.848	235.379	496.031	518.346	378.947	317.750	228.406	0.00046122	0.00067453	0.00014712	1422	4.8406e-06	5.9855e-06	1412.9	377.17	5.3878e-06	3.6811e-06	429.46	143.35	124.29	42.749	3.7189e-06	52.558	0.00062944	0.00076632	0.00021007	1436.9	7.8092e-06	8.207e-06	1431.9	382.17	8.1926e-06	8.2653e-06	435.64	146.13	127.45	43.865	8.1313e-06	54.073	232.765	241.852	266.242	190.200	327.957	336.049	190.025	194.757	319.073	310.081	194.614	198.688	199.380	203.652	342.471	203.216	-8191	255	
42078.555	1	1	0	0	0.22964	0.10914	0.11878	0.35567	0.15211	0.17589	0.14895	0.36949	0.11603	0.25869	0.17581	0.082588	0.30658	0.36776	0.30216	0.092861	-2.1188	-2.1958	-2.5125	-2.5187	-2.1437	-2.7354	-2.55	-2.6208	-2.5167	-2.2604	-2.7188	-2.5208	-2.3396	-2.7521	-2.1771	-2.5521	313.263	229.401	226.219	466.762	271.232	282.758	505.931	183.109	303.115	487.983	228.411	293.659	513.282	514.397	340.162	312.468	0.00046512	0.00032909	0.00015706	1421.5	4.425e-06	4.8542e-06	1419.6	376.24	3.8546e-06	4.396e-06	428.5	143.1	124.76	42.826	3.2195e-06	52.619	0.00062808	0.00076667	0.00020869	1436.9	7.7733e-06	8.2578e-06	1433.3	382.65	8.0823e-06	8.3149e-06	435.34	146.26	127.62	43.891	8.0723e-06	54.051	232.438	242.957	269.085	190.313	314.590	341.734	190.200	194.814	330.907	322.989	194.562	198.775	199.067	203.702	317.443	203.121	-8191	255	
42078.652	1	1	0	0	0.23475	0.1485	0.073041	0.33053	0.17809	0.16852	0.051876	0.18179	0.35473	0.21015	0.22561	0.19112	0.18262	0.033662	0.1964	0.11846	-2.2375	-2.2188	-2.7146	-2.6958	-2.4688	-2.8104	-2.4625	-2.4854	-2.7125	-2.3208	-2.5312	-2.6833	-2.4229	-2.7562	-2.2542	-2.6979	493.236	396.871	235.776	453.830	289.348	273.678	228.562	497.349	260.495	341.341	488.859	509.071	522.360	237.932	394.525	265.841	0.00046979	0.00062642	0.00016758	1422.5	4.322e-06	3.3149e-06	1418.3	376.52	4.4964e-06	4.8904e-06	428.47	142.59	124.52	42.956	4.6508e-06	52.368	0.00061791	0.0007661	0.00020867	1436.6	7.7653e-06	8.3641e-06	1435.3	382.16	7.7203e-06	8.6498e-06	435.74	146.12	127.55	43.952	7.8595e-06	53.985	234.184	266.265	246.732	190.277	325.182	347.883	190.170	194.813	321.417	313.377	194.370	198.719	199.097	203.866	337.568	203.319	-8191	255	
42078.746	1	1	0	0	0.33275	0.13267	0.3581	0.14252	0.12229	0.18781	0.021907	0.16172	0.067405	0.11807	0.12137	0.1284	0.3186	0.17465	0.05964	0.1768	-2.0583	-2.3646	-2.5792	-2.675	-2.2521	-2.7062	-2.6104	-2.3771	-2.6813	-2.0563	-2.6521	-2.5104	-2.3292	-2.7146	-2.4167	-2.1937	182.651	435.872	433.821	199.714	217.432	479.889	486.219	463.693	313.357	438.022	412.280	494.731	187.439	476.124	448.803	498.964	0.00046527	0.00074018	0.0001415	1424.2	4.4472e-06	5.4846e-06	1420.7	376.24	2.9174e-06	4.8397e-06	428.92	142.87	124.2	42.9	3.574e-06	52.768	0.00062723	0.00076439	0.00020756	1436.5	7.6708e-06	8.2505e-06	1433.1	382.24	7.9501e-06	8.1588e-06	435.49	146.07	127.51	43.868	8.0206e-06	54.013	232.079	257.760	278.956	190.356	315.203	314.051	190.138	194.695	332.995	320.348	194.586	198.605	199.320	204.031	315.278	203.177	-8191	255	
42078.844	1	1	0	0	0.07882	0.19322	0.14116	0.16608	0.12156	0.15036	0.26274	0.05961	0.17548	0.25003	0.16817	0.23311	0.085789	0.22808	0.17378	0.17598	-2.1771	-2.475	-2.5083	-2.75	-2.3479	-2.6229	-2.6917	-2.3167	-2.8333	-2.375	-2.5917	-2.6208	-2.4	-2.65	-2.4458	-2.4792	513.041	269.962	224.843	525.346	351.791	293.788	512.435	436.910	284.866	517.955	515.393	507.995	321.601	486.124	383.805	482.584	0.00044805	0.00063653	0.00020379	1419.8	5.0004e-06	5.4196e-06	1412.3	375.42	4.1316e-06	4.178e-06	428.88	142.51	123.65	42.707	4.6129e-06	52.455	0.00062267	0.00073162	0.00021092	1435.5	7.9723e-06	8.3971e-06	1431.6	382.13	7.7632e-06	8.3918e-06	435	145.86	127.27	43.805	7.8355e-06	53.946	232.202	272.984	272.378	190.191	310.791	314.286	190.159	194.834	324.833	325.288	194.246	198.481	199.160	203.641	334.043	203.058	-8191	255	
42078.941	1	1	0	0	0.031957	0.2394	0.22618	0.236	0.33025	0.17033	0.035276	0.10468	0.19129	0.14521	0.20442	0.13658	0.12693	0.1654	0.10765	0.066946	-2.2375	-2.2083	-2.3833	-2.6562	-2.0167	-2.6063	-2.5417	-2.4813	-2.5938	-2.3271	-2.3604	-2.7229	-2.4354	-2.6375	-2.7625	-2.4146	203.971	385.881	384.088	530.242	375.747	256.876	488.893	218.569	182.724	416.053	236.150	471.918	369.636	456.025	200.917	427.110	0.00048158	0.0003457	0.0001306	1418.5	5.0928e-06	5.2083e-06	1414.6	374.92	3.4108e-06	4.2129e-06	428.42	142.6	123.98	42.995	4.9977e-06	52.371	0.00062352	0.00076518	0.00020712	1434.6	8.0448e-06	8.323e-06	1433.4	382.26	8.064e-06	8.2621e-06	435.49	146.13	127.59	43.926	7.9856e-06	53.881	233.119	269.593	281.078	190.379	316.694	325.680	190.125	194.839	344.475	333.164	194.603	198.486	198.862	203.589	310.869	203.107	-8191	255	
42079.035	1	1	0	0	0.041699	0.12797	0.12395	0.19125	0.065394	0.15637	0.12429	0.4328	0.011192	0.097308	0.1169	0.15153	0.19663	0.11409	0.11796	0.10592	-2.2646	-2.1146	-2.3208	-2.8125	-2.2438	-2.6333	-2.8	-2.4479	-2.5708	-2.4625	-2.3187	-2.8688	-2.5146	-2.8125	-2.5292	-2.4437	389.794	474.802	256.033	513.331	199.606	200.434	441.627	513.323	370.616	417.805	310.070	452.731	201.756	200.933	183.037	421.601	0.00046897	0.00052872	0.00010472	1419	5.8348e-06	5.5798e-06	1417.6	376.37	3.3326e-06	5.3598e-06	429.13	143.43	125.19	42.83	5.4401e-06	52.424	0.00062369	0.00076881	0.00020533	1435.6	7.9397e-06	8.1789e-06	1434.3	382.35	8.0886e-06	8.5921e-06	435.09	146.23	127.64	43.864	8.0016e-06	54.14	234.309	302.824	275.908	190.310	323.899	324.502	190.225	194.828	335.887	320.071	194.419	198.465	199.082	203.728	325.445	203.172	-8191	255	
42079.133	1	1	0	0	0.16655	0.10782	0.12419	0.071239	0.27004	0.3535	0.15062	0.23242	0.36556	0.12639	0.1	0.072895	0.24616	0.14874	0.10881	0.087517	-2.1604	-2.2708	-2.3396	-2.8083	-2.1854	-2.475	-2.6937	-2.3875	-2.4938	-2.4437	-2.45	-2.6188	-2.2375	-2.4646	-2.6208	-2.3521	369.868	412.092	215.281	258.313	407.463	357.964	418.122	369.533	200.420	242.861	505.600	502.752	322.225	529.866	515.715	306.160	0.00045668	0.00047966	0.00015478	1418.4	4.8526e-06	6.2813e-06	1414.2	375.61	3.5441e-06	4.7375e-06	428.8	142.71	124.11	43.027	5.1422e-06	52.671	0.00063189	0.00074523	0.00020487	1436.3	7.8585e-06	8.0267e-06	1433.6	382.38	8.1237e-06	8.2453e-06	435.54	146.12	127.34	43.908	7.6897e-06	53.944	231.690	269.405	274.258	190.225	313.076	323.608	190.283	194.904	309.408	338.197	194.444	198.638	199.114	203.627	318.629	203.144	-8191	255	
42079.254	1	1	0	0	0.1578	0.16108	0.30015	0.39472	0.23652	0.024695	0.40082	0.19401	0.18194	0.29871	0.02302	0.18695	0.072614	0.26894	0.036073	0.23329	-2.0604	-2.2625	-2.2104	-2.6896	-2.2896	-2.5646	-2.9042	-2.2875	-2.5354	-2.5354	-2.2	-2.7125	-2.3	-2.4792	-2.4729	-2.1937	244.805	277.935	524.279	505.735	381.656	337.054	440.268	486.038	211.803	400.785	474.304	528.304	364.597	527.304	476.649	523.076	0.00045906	0.0006567	0.00014419	1424.4	4.3977e-06	5.0086e-06	1420.7	376.48	5.1924e-06	7.2473e-06	429.41	142.79	124.06	43.052	4.353e-06	52.709	0.0006305	0.00071702	0.00020913	1436.9	8.0222e-06	8.0903e-06	1434.4	382.59	8.1701e-06	8.0362e-06	436.41	146.23	127.65	43.977	7.987e-06	54.038	233.351	255.161	296.013	190.213	318.041	348.298	190.048	194.714	296.799	317.020	194.440	198.489	198.962	203.924	330.996	203.100	-8191	255	
42079.352	1	1	0	0	0.23423	0.022942	0.17817	0.32342	0.18014	0.14224	0.12576	0.097691	0.17558	0.1672	0.19451	0.24064	0.12185	0.16139	0.12544	0.23412	-2.2479	-2.4792	-2.2729	-2.7583	-2.3229	-2.3375	-2.6396	-2.3021	-2.4167	-2.3812	-2.3688	-2.7229	-2.375	-2.3042	-2.6292	-2.3375	393.481	487.064	492.073	193.393	379.884	264.522	463.481	414.249	458.493	461.715	505.949	533.646	511.640	234.679	243.343	407.080	0.00049087	0.00061312	0.000176	1424.2	3.5684e-06	6.3884e-06	1419	375.82	4.1465e-06	5.8027e-06	429.98	143.36	124.52	42.948	3.2435e-06	52.856	0.00063611	0.00073091	0.00020415	1439	7.8571e-06	8.0339e-06	1434.1	382.5	8.0443e-06	8.021e-06	436.04	146.68	127.8	43.962	7.7837e-06	54.234	233.396	266.052	268.892	190.446	302.640	322.024	190.083	194.808	307.107	317.790	194.554	198.301	199.147	203.884	307.763	202.982	-8191	255	
42079.445	1	1	0	0	0.11361	0.21434	0.068616	0.21972	0.21864	0.26288	0.35835	0.43676	0.24646	0.20103	0.18035	0.11683	0.19276	0.16527	0.073961	0.10282	-2.0583	-2.5354	-2.1813	-2.8979	-2.2229	-2.325	-2.5917	-2.3333	-2.4417	-2.6354	-2.4604	-2.7125	-2.2229	-2.3354	-2.7667	-2.3812	472.172	476.940	177.880	497.146	263.559	437.540	409.704	508.962	477.964	351.237	395.407	405.505	201.480	428.914	395.212	196.656	0.00047156	0.00062226	0.0001917	1423	3.3147e-06	5.2635e-06	1414.4	377.01	4.1323e-06	5.3882e-06	429.75	142.63	125.04	42.959	3.4341e-06	52.871	0.00062839	0.00071275	0.00021053	1437.9	7.8298e-06	8.0194e-06	1434.1	382.48	8.0661e-06	7.8528e-06	436.07	146.58	127.78	44.047	8.0453e-06	54.184	233.560	267.990	264.277	190.282	313.100	322.104	190.032	194.902	325.532	323.771	194.598	198.587	199.023	203.838	322.753	203.155	-8191	255	
42079.543	1	1	0	0	0.23033	0.32334	0.066689	0.32126	0.093532	0.013317	0.23961	0.26975	0.12516	0.26244	0.16877	0.23925	0.11086	0.10359	0.2315	0.30258	-2.025	-2.6479	-2.2917	-2.7083	-2.4271	-2.475	-2.9042	-2.2979	-2.1146	-2.6271	-2.1583	-2.4125	-2.6604	-2.5083	-2.625	-2.4979	285.281	215.670	521.530	449.837	277.819	259.378	461.161	510.326	184.644	193.815	483.079	509.444	386.025	416.574	523.716	427.360	0.00047933	0.00040651	0.00011728	1423.2	3.4612e-06	6.2514e-06	1417.6	377.2	3.3789e-06	4.8034e-06	430.38	143.3	124.84	42.917	3.6077e-06	52.985	0.00061781	0.00072842	0.00020734	1438.1	7.6621e-06	8.2538e-06	1434.2	383.16	7.9298e-06	8.0242e-06	436.34	146.92	127.99	44.048	7.6897e-06	54.161	233.258	250.932	277.997	190.423	309.780	322.889	190.159	194.755	308.963	344.892	194.453	198.557	199.040	203.758	331.451	203.211	-8191	255	
42079.637	1	1	0	0	0.24316	0.07837	0.10124	0.44061	0.20492	0.051262	0.29238	0.30404	0.1009	0.22444	0.19381	0.37406	0.18789	0.19509	0.2532	0.4643	-1.7417	-2.5583	-2.1917	-2.7	-2.4479	-2.1167	-2.8479	-2.5917	-2.1833	-2.6208	-2.3312	-2.5687	-2.5812	-2.3604	-2.425	-2.4854	525.131	436.489	377.735	448.585	193.808	506.842	510.285	493.761	407.549	269.759	406.084	521.389	207.572	454.699	440.237	506.968	0.00046303	0.00070186	0.00018031	1423.3	3.8432e-06	5.234e-06	1418.5	376.94	4.4724e-06	3.5183e-06	428.11	143.19	124.47	42.928	4.4701e-06	52.897	0.00061805	0.00071688	0.00020911	1437.6	7.8964e-06	8.4277e-06	1436	383	7.9684e-06	7.9497e-06	436.01	146.67	127.9	44.003	7.7298e-06	54.255	234.890	255.625	260.380	190.354	310.711	333.476	190.258	194.662	324.328	314.931	194.484	198.404	199.039	203.712	310.654	203.073	-8191	255	
42079.730	1	1	0	0	0.2354	0.26882	0.097885	0.21876	0.1252	0.19551	0.18654	0.1549	0.035387	0.12059	0.06805	0.2111	0.28151	0.17505	0.008028	0.0394	-1.8188	-2.5854	-2.1396	-2.6063	-2.5812	-2.1417	-2.6792	-2.5563	-2.4333	-2.7104	-2.3708	-2.3708	-2.6437	-2.2542	-2.5187	-2.6437	410.780	256.121	523.702	534.418	268.742	213.987	437.845	183.831	366.640	194.608	256.716	471.442	512.961	425.684	368.558	451.028	0.00048662	0.00025203	0.00022591	1425.7	5.5701e-06	5.1494e-06	1421.7	376.82	4.7975e-06	5.2956e-06	426.09	143.11	124.94	43.106	4.2876e-06	52.693	0.00063278	0.00073376	0.00020529	1438.5	7.752e-06	8.4945e-06	1436.3	383.17	8.109e-06	7.9369e-06	436.12	146.83	127.85	44.115	7.8537e-06	54.201	230.776	249.443	272.352	190.492	314.031	349.360	189.983	195.029	324.983	330.990	194.302	198.412	199.083	203.690	318.268	203.236	-8191	255	
42079.852	1	1	0	0	0.1299	0.17569	0.24535	0.47311	0.19874	0.33241	0.1325	0.4074	0.1843	0.19319	0.26482	0.26708	0.2213	0.21749	0.055435	0.21986	-1.8542	-2.6625	-2.4146	-2.4458	-2.6104	-2.5187	-2.7125	-2.5958	-2.125	-2.5687	-2.5146	-2.3896	-2.8	-2.4354	-2.4688	-2.6042	489.825	414.251	501.481	211.323	307.322	487.079	208.262	481.147	343.473	220.330	497.153	521.804	494.127	197.516	402.057	443.369	0.00047457	0.00055373	8.8165e-05	1421.5	4.9169e-06	5.8913e-06	1416.3	376.74	4.2951e-06	5.3089e-06	431.11	143.82	125.32	43.009	4.508e-06	52.914	0.00062499	0.00073583	0.00020053	1437.7	7.7526e-06	8.2038e-06	1434.9	382.97	8.0303e-06	7.8344e-06	436.44	146.9	128.29	44.086	7.8085e-06	54.229	231.400	249.374	278.956	190.352	330.519	331.520	190.154	195.027	312.741	310.404	194.445	198.603	199.436	204.061	331.010	203.192	-8191	255	
42079.949	1	1	0	0	0.024971	0.16901	0.24226	0.44293	0.17931	0.15474	0.30533	0.20049	0.15488	0.16362	0.21908	0.22953	0.28015	0.32495	0.10102	0.38127	-1.6979	-2.7333	-2.4333	-2.3604	-2.5729	-2.4333	-2.7375	-2.6333	-2.2292	-2.5417	-2.5167	-2.5021	-2.8167	-2.5042	-2.4417	-2.6729	206.062	333.326	313.003	517.762	192.268	534.136	481.863	471.152	327.403	394.833	512.769	499.442	452.888	498.380	232.019	336.823	0.00046661	0.00056522	0.0001619	1424.9	3.9739e-06	6.308e-06	1416.1	376.99	4.1642e-06	4.046e-06	430.86	143.03	124.86	43.049	3.7368e-06	52.994	0.00063006	0.00073583	0.00020272	1438	7.5796e-06	8.1805e-06	1434.7	382.89	8.1034e-06	8.1291e-06	437.07	146.64	128.13	44.129	7.8406e-06	54.255	232.388	252.215	288.454	190.221	312.540	330.211	190.221	194.567	316.724	319.374	194.023	198.398	199.164	203.843	321.076	203.007	-8191	255	
42080.047	1	1	0	0	0.11861	0.065388	0.2028	0.32941	0.18257	0.10725	0.30253	0.19994	0.19757	0.03283	0.015146	0.24895	0.082028	0.16053	0.16746	0.047781	-1.8	-2.5438	-2.4854	-2.6375	-2.6604	-2.5229	-2.5938	-2.7229	-2.3125	-2.6813	-2.5812	-2.4458	-2.6708	-2.4521	-2.4333	-2.45	263.473	428.007	262.339	492.549	246.719	315.429	470.305	423.332	354.904	230.618	309.321	210.045	439.960	484.992	352.202	456.265	0.00048615	0.00053897	0.00012395	1423.8	3.8977e-06	5.6048e-06	1414.5	377.56	4.8851e-06	4.6642e-06	429.98	143.93	124.94	43.02	4.5936e-06	52.78	0.00063543	0.00073682	0.00020194	1438.6	7.8132e-06	8.3415e-06	1434.9	383.49	7.9726e-06	7.8648e-06	436.77	147.03	128.02	44.145	7.775e-06	54.241	231.013	282.935	274.444	190.376	332.452	325.306	190.094	194.865	321.817	335.799	194.646	198.181	199.245	203.743	303.172	203.130	-8191	255	
42080.141	1	1	0	0	0.31669	0.13542	0.29045	0.019385	0.23636	0.14591	0.33865	0.10941	0.098187	0.084024	0.24053	0.040836	0.14049	0.18295	0.097144	0.12076	-1.8958	-2.4021	-2.3646	-2.4583	-2.6417	-2.4021	-2.7	-2.6958	-2.2646	-2.5667	-2.3958	-2.2667	-2.8396	-2.4583	-2.2812	-2.7188	525.138	298.458	231.223	315.365	422.256	420.017	495.423	432.937	379.393	437.089	527.835	188.750	403.173	227.287	529.988	526.775	0.00044352	0.00056437	0.00013648	1424.2	4.5684e-06	5.1375e-06	1421	375.68	4.7922e-06	4.0131e-06	430.55	143.1	125.24	43.015	4.8035e-06	52.735	0.00063744	0.00072521	0.00020276	1437.8	7.5483e-06	8.1813e-06	1436.1	383.02	8.0401e-06	8.2124e-06	437.01	146.85	128.08	44.086	7.7604e-06	54.278	234.633	263.931	279.395	190.326	314.594	331.475	190.113	194.908	316.189	337.134	194.341	198.676	199.191	203.746	319.335	203.143	-8191	255	
42080.238	1	1	0	0	0.15214	0.13973	0.43148	0.33956	0.10158	0.059493	0.16932	0.12378	0.14775	0.068638	0.39712	0.085648	0.086989	0.075828	0.19614	0.37616	-1.6896	-2.5458	-2.5042	-2.4333	-2.5875	-2.3625	-2.5417	-2.9625	-2.3396	-2.5542	-2.7667	-2.3812	-2.7771	-2.7042	-2.4188	-2.775	259.372	259.487	229.146	498.456	202.562	266.991	513.003	451.438	281.409	275.072	470.286	531.390	215.623	496.520	521.460	456.507	0.00044571	0.00069616	0.00013845	1425.1	3.4456e-06	4.6604e-06	1419.3	375.79	4.8574e-06	6.0382e-06	431.33	143.95	124.74	43.129	3.8975e-06	52.853	0.00062301	0.00075869	0.00020105	1439.9	7.75e-06	7.7698e-06	1438.5	383.32	7.889e-06	8.0426e-06	436.77	147.01	128.13	44.253	7.8602e-06	54.372	232.237	254.776	290.157	190.433	330.163	346.617	189.991	194.854	305.888	338.081	194.426	198.502	199.067	203.716	309.064	203.072	-8191	255	
#DATA ENDS
