BOXY.EXE: ISS Imagent and Oximeter Data Acquisition Program Version 0.80
Ascii Record File

#ACQ INFORMATION
2  Detector Channels 
16  External MUX Channels 
1  Auxiliary Channels 
5000  Waveform (CCF) Frequency (Hz)
1  Waveforms Skipped 
30  Waveforms Averaged 
1  Cycles Averaged 
16  Acquisitions per Waveform 
10.0806  Updata Rate (Hz) 

#FILE INFORMATION
TRUE -- External MUX Channel results are PARSED.
FALSE -- AC DC and Phase are NOT grouped.
TRUE -- Companion Program Settings File CREATED.
FALSE -- AC data not excluded
FALSE -- DC data not excluded
FALSE -- Phase data not excluded
FALSE -- Auxillary Chn. data not excluded
Tab delimiters

#CALIBRATION STATE
TRUE -- Waveform Calibration Values APPLIED.


#AUX CALIBRATION VALUES
Val Type	aux-1	

Term	1.0000e+00	
Factor	0.0000e+00	


#WF CALIBRATION VALUES
A = Detector Channel
Val Type	A-AC1	A-AC2	A-AC3	A-AC4	A-AC5	A-AC6	A-AC7	A-AC8	A-AC9	A-AC10	A-AC11	A-AC12	A-AC13	A-AC14	A-AC15	A-AC16	A-DC1	A-DC2	A-DC3	A-DC4	A-DC5	A-DC6	A-DC7	A-DC8	A-DC9	A-DC10	A-DC11	A-DC12	A-DC13	A-DC14	A-DC15	A-DC16	A-Ph1	A-Ph2	A-Ph3	A-Ph4	A-Ph5	A-Ph6	A-Ph7	A-Ph8	A-Ph9	A-Ph10	A-Ph11	A-Ph12	A-Ph13	A-Ph14	A-Ph15	A-Ph16	

Term	0.00000e+00	0.00000e+00	0.00000e+00	0.00000e+00	0.00000e+00	0.00000e+00	0.00000e+00	0.00000e+00	0.00000e+00	0.00000e+00	0.00000e+00	0.00000e+00	0.00000e+00	0.00000e+00	0.00000e+00	0.00000e+00	0.00000e+00	0.00000e+00	0.00000e+00	0.00000e+00	0.00000e+00	0.00000e+00	0.00000e+00	0.00000e+00	0.00000e+00	0.00000e+00	0.00000e+00	0.00000e+00	0.00000e+00	0.00000e+00	0.00000e+00	0.00000e+00	0.00000e+00	0.00000e+00	0.00000e+00	0.00000e+00	0.00000e+00	0.00000e+00	0.00000e+00	0.00000e+00	0.00000e+00	0.00000e+00	0.00000e+00	0.00000e+00	0.00000e+00	0.00000e+00	0.00000e+00	0.00000e+00	
Factor	1.00000e+00	1.00000e+00	1.00000e+00	1.00000e+00	1.00000e+00	1.00000e+00	1.00000e+00	1.00000e+00	1.00000e+00	1.00000e+00	1.00000e+00	1.00000e+00	1.00000e+00	1.00000e+00	1.00000e+00	1.00000e+00	1.00000e+00	1.00000e+00	1.00000e+00	1.00000e+00	1.00000e+00	1.00000e+00	1.00000e+00	1.00000e+00	1.00000e+00	1.00000e+00	1.00000e+00	1.00000e+00	1.00000e+00	1.00000e+00	1.00000e+00	1.00000e+00	X	X	X	X	X	X	X	X	X	X	X	X	X	X	X	X	

B = Detector Channel
Val Type	B-AC1	B-AC2	B-AC3	B-AC4	B-AC5	B-AC6	B-AC7	B-AC8	B-AC9	B-AC10	B-AC11	B-AC12	B-AC13	B-AC14	B-AC15	B-AC16	B-DC1	B-DC2	B-DC3	B-DC4	B-DC5	B-DC6	B-DC7	B-DC8	B-DC9	B-DC10	B-DC11	B-DC12	B-DC13	B-DC14	B-DC15	B-DC16	B-Ph1	B-Ph2	B-Ph3	B-Ph4	B-Ph5	B-Ph6	B-Ph7	B-Ph8	B-Ph9	B-Ph10	B-Ph11	B-Ph12	B-Ph13	B-Ph14	B-Ph15	B-Ph16	

Term	0.00000e+00	0.00000e+00	0.00000e+00	0.00000e+00	0.00000e+00	0.00000e+00	0.00000e+00	0.00000e+00	0.00000e+00	0.00000e+00	0.00000e+00	0.00000e+00	0.00000e+00	0.00000e+00	0.00000e+00	0.00000e+00	0.00000e+00	0.00000e+00	0.00000e+00	0.00000e+00	0.00000e+00	0.00000e+00	0.00000e+00	0.00000e+00	0.00000e+00	0.00000e+00	0.00000e+00	0.00000e+00	0.00000e+00	0.00000e+00	0.00000e+00	0.00000e+00	-6.52519e+01	-1.12272e+02	-1.40546e+02	-1.81760e+02	-6.76519e+01	-1.21665e+02	-1.56710e+02	-1.62015e+02	-7.69798e+01	-7.43317e+01	-1.71259e+02	-1.70793e+02	-1.83439e+02	-1.78028e+02	-8.90177e+01	-1.50152e+02	
Factor	1.93908e-05	8.47056e-05	2.70298e-05	2.28357e-01	9.52142e-07	1.06308e-06	1.77083e-01	6.50480e-02	1.16910e-06	1.01617e-06	9.54342e-02	3.47082e-02	3.35300e-02	1.00324e-02	1.07200e-06	1.43386e-02	6.12713e-07	6.25095e-07	1.73856e-07	1.09696e-01	6.82513e-09	6.83262e-09	8.13591e-02	3.12826e-02	6.82206e-09	6.81802e-09	4.37548e-02	1.58284e-02	1.56341e-02	4.75119e-03	6.80086e-09	6.48096e-03	X	X	X	X	X	X	X	X	X	X	X	X	X	X	X	X	



#DISTANCE SETTINGS
A = Detector Channel
A-1	A-2	A-3	A-4	A-5	A-6	A-7	A-8	A-9	A-10	A-11	A-12	A-13	A-14	A-15	A-16	

2.5000e+00	3.0000e+00	2.5000e+00	3.0000e+00	2.0000e+00	3.0000e+00	1.5000e+00	3.0000e+00	3.0000e+00	3.0000e+00	3.0000e+00	3.0000e+00	3.0000e+00	3.0000e+00	1.5000e+00	3.0000e+00	

B = Detector Channel
B-1	B-2	B-3	B-4	B-5	B-6	B-7	B-8	B-9	B-10	B-11	B-12	B-13	B-14	B-15	B-16	

1.0000e+01	1.0000e+01	1.0000e+01	1.4400e+00	1.0000e+01	1.0000e+01	1.5100e+00	1.9400e+00	1.0000e+01	1.0000e+01	1.9900e+00	2.4900e+00	2.4100e+00	2.9000e+00	1.0000e+01	2.9800e+00	




#DATA BEGINS
time	group	step	mark	flag	A-AC1	A-AC2	A-AC3	A-AC4	A-AC5	A-AC6	A-AC7	A-AC8	A-AC9	A-AC10	A-AC11	A-AC12	A-AC13	A-AC14	A-AC15	A-AC16	A-DC1	A-DC2	A-DC3	A-DC4	A-DC5	A-DC6	A-DC7	A-DC8	A-DC9	A-DC10	A-DC11	A-DC12	A-DC13	A-DC14	A-DC15	A-DC16	A-Ph1	A-Ph2	A-Ph3	A-Ph4	A-Ph5	A-Ph6	A-Ph7	A-Ph8	A-Ph9	A-Ph10	A-Ph11	A-Ph12	A-Ph13	A-Ph14	A-Ph15	A-Ph16	B-AC1	B-AC2	B-AC3	B-AC4	B-AC5	B-AC6	B-AC7	B-AC8	B-AC9	B-AC10	B-AC11	B-AC12	B-AC13	B-AC14	B-AC15	B-AC16	B-DC1	B-DC2	B-DC3	B-DC4	B-DC5	B-DC6	B-DC7	B-DC8	B-DC9	B-DC10	B-DC11	B-DC12	B-DC13	B-DC14	B-DC15	B-DC16	B-Ph1	B-Ph2	B-Ph3	B-Ph4	B-Ph5	B-Ph6	B-Ph7	B-Ph8	B-Ph9	B-Ph10	B-Ph11	B-Ph12	B-Ph13	B-Ph14	B-Ph15	B-Ph16	aux-1	digaux	

3245.817	1	1	0	768	0.18492	0.098129	0.091509	0.072521	0.23149	0.10139	0.21695	0.12008	0.26396	0.12361	0.21983	0.1068	0.059356	0.091195	0.19737	0.061189	-4.1729	-4.4313	-5.1396	-4.4062	-4.8021	-4.9521	-4.3854	-5.0167	-4.5604	-4.25	-4.9604	-4.3958	-4.8104	-5.2375	-4.125	-5.1208	363.143	451.195	257.192	372.169	308.000	337.181	381.738	500.666	372.578	446.774	479.015	191.293	222.850	319.770	369.685	454.498	0.00060973	0.00019076	6.8294e-05	1378	1.1854e-05	1.2402e-05	1374.1	372.81	7.4592e-06	1.162e-06	422.74	141.25	123.38	42.137	2.5164e-06	52.099	0.00066543	0.00066632	0.00018338	1413.2	7.1954e-06	7.1956e-06	1407.4	383.3	7.2111e-06	7.145e-06	437.68	146.71	128.19	43.956	6.9676e-06	54.384	250.979	233.396	269.957	178.043	257.816	262.876	177.650	182.475	326.529	519.423	182.098	186.237	187.028	191.220	287.900	190.529	-8191	255	
3245.913	1	1	0	0	0.25412	0.15927	0.33996	0.067064	0.030194	0.070214	0.02696	0.17271	0.13774	0.075428	0.062241	0.20839	0.18111	0.016038	0.016343	0.055641	-4.2292	-4.3375	-5.0687	-4.4854	-4.625	-4.9	-4.2875	-5.0479	-4.6583	-4.1958	-5.3625	-4.4521	-4.6604	-5.1958	-4.2125	-4.9375	230.043	207.172	458.447	193.856	245.627	410.817	286.871	367.833	354.395	484.468	439.115	521.644	418.451	404.279	351.217	225.740	0.000438	0.0004733	9.8227e-05	1376.2	4.2093e-06	1.6515e-06	1375.7	371.79	1.6437e-06	5.2604e-06	422.84	141.24	123.01	42.015	8.5524e-06	52.139	0.00064443	0.00064052	0.00017598	1408.5	6.8934e-06	6.9055e-06	1400.8	381.61	6.8686e-06	6.8276e-06	435.74	145.94	127.11	43.792	6.805e-06	54.304	271.771	195.853	207.828	178.140	309.734	218.765	177.573	182.530	323.746	463.451	182.174	186.241	186.936	191.371	355.895	190.606	-8191	255	
3246.009	1	1	0	0	0.18827	0.095421	0.13226	0.27063	0.18588	0.12312	0.14344	0.063229	0.12057	0.083902	0.10903	0.13142	0.13428	0.062218	0.13243	0.17509	-4.375	-4.2688	-5.1333	-4.4875	-4.4375	-5.0375	-4.3208	-4.9479	-4.9729	-4.2188	-5.1479	-4.55	-4.3979	-5.2042	-4.3604	-4.8583	252.522	334.506	267.247	451.045	313.388	180.332	182.856	281.721	247.388	451.113	473.995	454.540	482.599	336.531	195.218	473.203	0.00050284	0.0003351	4.8026e-05	1369.5	9.6977e-06	6.1023e-06	1372.9	371.3	9.5731e-06	8.4154e-06	423.28	142	122.49	41.921	8.1629e-06	52.002	0.00063283	0.00063201	0.00017613	1406.4	7.0353e-06	6.9926e-06	1402.6	382.55	7.0914e-06	7.001e-06	437.2	146.77	127.95	43.971	7.1149e-06	54.505	256.720	218.793	330.870	177.790	301.872	432.271	177.786	182.588	284.149	365.493	181.866	186.121	186.902	191.704	293.415	190.399	-8191	255	
3246.105	1	1	0	0	0.087723	0.11106	0.063465	0.10785	0.075635	0.17499	0.25295	0.087932	0.10393	0.31406	0.095856	0.10736	0.19568	0.076408	0.34091	0.1503	-4.6333	-4.2417	-4.9583	-4.6875	-4.4667	-5.1104	-4.4396	-4.7875	-4.9146	-4.1771	-5.0646	-4.725	-4.5521	-5.2521	-4.3812	-4.7021	365.079	215.228	229.111	379.098	465.385	380.017	463.346	319.161	243.866	351.655	191.775	178.511	504.861	234.436	500.429	399.622	0.00052136	0.00030521	0.00029954	1381	3.8782e-06	4.5665e-06	1378.2	372.4	3.0858e-06	9.5864e-06	423.81	140.55	123.17	42.089	4.3125e-06	52.034	0.00065974	0.00065648	0.00018513	1417.8	7.2933e-06	7.2325e-06	1414.5	384.51	7.3182e-06	7.2336e-06	439.1	146.81	128.49	44.094	7.2318e-06	54.658	267.129	217.789	286.568	177.674	352.189	258.156	177.653	182.462	216.121	324.453	181.899	186.163	186.880	191.237	380.975	190.409	-8191	255	
3246.201	1	1	0	0	0.030692	0.17358	0.05777	0.15256	0.12391	0.17629	0.10948	0.10133	0.12224	0.1596	0.21769	0.18283	0.13045	0.25942	0.26807	0.30579	-4.8125	-4.2958	-5.0062	-4.6854	-4.4021	-5.1188	-4.625	-4.7729	-5.2833	-4.1354	-4.9062	-4.7729	-4.2521	-5.2354	-4.4583	-4.4125	186.794	347.357	449.317	419.370	401.199	280.999	423.818	475.770	180.356	437.392	491.205	165.292	432.354	520.599	416.967	395.772	0.00055277	0.0002851	0.00012524	1383.9	1.1991e-05	5.2589e-06	1371.8	371.65	1.4773e-05	4.3785e-06	423.56	141.55	122.81	41.917	9.6348e-06	51.855	0.00065492	0.00065272	0.00018222	1414.6	7.0777e-06	7.0143e-06	1405.1	382.09	6.9531e-06	6.9272e-06	436.54	146.28	127.32	43.788	6.858e-06	54.135	249.991	276.288	254.774	177.835	352.720	197.225	177.568	182.553	249.865	246.434	182.263	186.459	186.924	191.497	521.169	190.553	-8191	255	
3246.298	1	1	0	0	0.13521	0.016269	0.061007	0.073129	0.13413	0.38727	0.26018	0.093336	0.15497	0.27457	0.17034	0.15704	0.079354	0.099019	0.18637	0.20032	-4.8021	-4.2	-4.9271	-4.9875	-4.1813	-5.0896	-4.6438	-4.5125	-5.1708	-4.2875	-4.8333	-5.0375	-4.4458	-5.1271	-4.5208	-4.3875	187.190	341.113	417.624	336.276	449.711	192.790	502.335	480.759	392.388	226.678	447.266	442.677	479.241	172.075	504.877	167.328	0.00051482	0.00026681	5.6842e-05	1374.5	7.3933e-07	4.0379e-06	1370.5	372.21	1.023e-05	9.1826e-06	421.48	141.29	123.19	42.025	4.7426e-06	52.303	0.00062422	0.000632	0.00017625	1408.6	6.9068e-06	6.982e-06	1402.9	382.99	7.0125e-06	7.1284e-06	438.13	146.93	128.32	44.093	7.3393e-06	54.688	254.697	278.137	509.341	178.018	207.822	227.025	177.658	182.508	293.272	415.316	181.789	186.362	186.752	191.018	297.207	190.578	-8191	255	
3246.418	1	1	0	0	0.072485	0.19644	0.12923	0.17473	0.1747	0.11377	0.22281	0.16972	0.11862	0.21417	0.14156	0.26668	0.21165	0.1572	0.051413	0.26323	-4.925	-4.2375	-4.5542	-5.0479	-4.4104	-4.9437	-4.8562	-4.3792	-5.1583	-4.3854	-4.8271	-5.1146	-4.3063	-5.1521	-4.7354	-4.5354	200.928	381.656	347.352	465.051	403.370	251.026	190.722	186.302	182.798	280.307	399.449	462.745	288.823	511.261	394.932	431.317	0.00045395	0.00090498	0.00016872	1375.9	2.6358e-06	7.9793e-06	1381.1	371.29	1.0094e-05	3.6002e-06	423.22	141.66	122.67	42.105	2.6926e-06	52.111	0.00066534	0.00067676	0.00018857	1417.1	7.3832e-06	7.4022e-06	1412.3	383.74	7.3452e-06	7.4358e-06	439.79	147.23	128.59	44.165	7.3767e-06	54.745	261.785	300.502	249.157	177.998	457.022	217.252	177.831	182.371	208.391	424.859	181.892	186.428	186.539	191.493	286.693	190.472	-8191	255	
3246.513	1	1	0	0	0.096689	0.19516	0.33914	0.28752	0.19681	0.14623	0.24167	0.223	0.17424	0.15497	0.051591	0.2381	0.080544	0.022318	0.33984	0.20552	-4.8562	-4.3104	-4.4208	-5.2146	-4.2417	-5.05	-4.9313	-4.3354	-5.1042	-4.5	-4.4292	-5.2354	-4.4396	-4.9917	-5.0104	-4.2438	191.009	268.982	262.431	482.731	456.166	200.694	446.386	172.309	510.435	311.298	462.962	471.841	424.105	476.553	471.260	349.318	0.0005911	0.00032151	9.2052e-05	1380.8	4.3181e-06	4.4646e-06	1376.3	370.73	6.3526e-07	7.9572e-06	422.13	140.91	123.85	42.1	2.9406e-06	52.058	0.00066727	0.00067831	0.00018667	1418	7.281e-06	7.3265e-06	1410.4	383.6	7.1905e-06	7.2444e-06	438.8	146.82	128.32	44.079	7.1381e-06	54.492	241.041	254.374	255.890	177.735	307.596	284.291	177.857	182.270	179.649	284.572	181.825	186.375	186.853	191.418	386.502	190.603	-8191	255	
3246.609	1	1	0	0	0.14694	0.17954	0.21399	0.10108	0.17331	0.041998	0.25101	0.20619	0.14738	0.045516	0.026222	0.21195	0.028108	0.29005	0.091411	0.10761	-4.6813	-4.525	-4.5229	-5.1458	-4.1312	-4.7667	-5.0646	-4.3083	-5.2667	-4.6625	-4.5542	-5.3479	-4.4229	-4.7625	-5.0021	-4.2792	523.012	236.355	307.117	476.211	205.403	188.316	464.979	491.858	229.468	433.134	475.847	494.996	347.528	522.379	188.915	433.630	0.00048047	0.00078943	8.7427e-05	1371.6	5.7713e-06	3.8115e-06	1372.2	371.02	1.1748e-05	7.1059e-06	423	141.38	123.01	42.013	3.7746e-06	51.99	0.00065005	0.00065727	0.00018208	1410.7	7.1405e-06	7.1691e-06	1405.4	382.46	7.1394e-06	7.0978e-06	437.48	146.7	127.9	43.94	6.9921e-06	54.449	265.433	210.204	477.897	178.042	195.959	338.618	177.953	182.419	268.412	348.282	182.097	186.270	186.718	191.553	376.241	190.566	-8191	255	
3246.705	1	1	0	0	0.031968	0.10479	0.14324	0.083504	0.10745	0.071347	0.24972	0.18695	0.13211	0.13147	0.046298	0.091655	0.21871	0.20619	0.13726	0.39339	-4.7604	-4.6417	-4.1729	-5.2604	-4.1937	-4.6167	-5.1729	-4.4208	-4.9792	-4.7792	-4.3375	-5.2083	-4.4729	-4.5604	-4.9938	-4.2896	167.081	176.171	299.698	463.833	481.897	475.640	412.269	447.111	495.441	279.326	328.030	184.316	455.920	407.854	438.387	477.741	0.00051635	0.0007241	0.00014402	1373.4	4.8866e-06	8.5246e-06	1371.7	369.07	8.5286e-07	7.1441e-06	423.99	141.67	122.95	42.205	7.1996e-06	52.144	0.0006433	0.00064719	0.00017791	1409.3	7.059e-06	7.0831e-06	1404.1	381.36	7.0412e-06	7.0395e-06	437.24	146.33	127.58	43.894	6.8492e-06	54.274	268.752	306.764	171.541	177.948	200.453	252.479	177.652	182.445	324.810	493.429	182.050	186.435	186.718	191.311	340.772	190.731	-8191	255	
3246.801	1	1	0	0	0.2242	0.25646	0.28045	0.27165	0.080968	0.061136	0.20682	0.056182	0.20536	0.12385	0.035115	0.24857	0.13803	0.070333	0.12736	0.049837	-4.5479	-4.7937	-4.2312	-5.3562	-4.4437	-4.4458	-5.325	-4.2104	-4.7708	-4.95	-4.2542	-5.0833	-4.4938	-4.5396	-5.025	-4.2875	270.621	348.985	233.590	521.590	328.321	370.707	466.024	283.487	411.375	221.168	375.036	486.408	512.707	462.228	229.196	499.413	0.00054513	0.00055161	0.0001954	1374.1	2.8569e-06	6.4685e-06	1374.6	370.94	6.2001e-06	5.3066e-06	422.19	140.72	121.23	42.167	4.2873e-06	52.015	0.00063309	0.00062835	0.0001733	1403.2	6.8268e-06	6.7649e-06	1398	379.77	6.757e-06	6.6825e-06	434.11	145.49	126.54	43.694	6.6454e-06	54.088	265.494	258.371	523.112	177.904	262.651	309.641	177.806	182.523	318.845	332.564	181.866	186.155	186.766	191.339	260.547	190.778	-8191	255	
3246.897	1	1	0	0	0.095191	0.06088	0.28187	0.085007	0.10663	0.12195	0.13524	0.17278	0.20465	0.061762	0.25627	0.12328	0.19666	0.072895	0.085074	0.16843	-4.3396	-4.9396	-4.1312	-5.1458	-4.6708	-4.325	-5.3396	-4.2896	-4.6729	-5.0667	-4.2812	-5.0437	-4.7188	-4.3083	-5.2167	-4.5	178.037	284.647	304.820	523.189	390.191	497.437	371.669	170.560	386.464	256.887	433.200	323.756	193.774	168.174	295.516	491.767	0.00050788	0.00012978	0.00021124	1372.6	2.6084e-06	8.6243e-06	1373.5	369.87	2.1761e-06	1.175e-05	422.03	141.66	122.97	41.928	6.0806e-06	51.867	0.00062203	0.00062418	0.00017431	1403.4	6.8967e-06	6.8251e-06	1399.8	380.76	6.8615e-06	6.848e-06	435.02	146.03	127.25	43.68	6.8552e-06	54.182	270.375	297.881	225.284	178.053	331.884	271.596	177.845	182.629	476.659	334.471	181.904	186.387	186.914	191.256	329.330	190.644	-8191	255	
3247.018	1	1	0	0	0.090177	0.08106	0.15287	0.18612	0.21357	0.19193	0.18458	0.25654	0.13124	0.28794	0.15346	0.053744	0.089549	0.14944	0.22658	0.31737	-4.1625	-4.9542	-4.2229	-4.9354	-4.6792	-4.0792	-5.325	-4.3021	-4.5042	-4.9854	-4.1229	-4.9271	-4.8458	-4.3438	-4.9958	-4.5625	391.381	276.092	437.114	286.405	290.249	268.596	450.020	350.882	244.719	183.510	506.085	444.765	421.725	443.567	299.065	399.957	0.000471	0.00031758	8.6039e-05	1376.7	3.1593e-06	2.8212e-06	1369.1	371.3	4.4489e-06	1.7018e-06	422.96	140.77	122.32	42.02	2.7178e-06	51.758	0.00062971	0.00062831	0.000176	1407.4	6.9182e-06	6.9446e-06	1400.4	381.08	6.9806e-06	6.909e-06	436.28	146.15	127.25	43.792	7.0059e-06	54.406	267.729	233.635	204.872	177.764	294.616	500.873	177.531	182.425	331.541	506.587	181.959	186.356	187.033	191.386	174.495	190.847	-8191	255	
3247.114	1	1	0	0	0.062575	0.26645	0.11754	0.069721	0.22004	0.16197	0.18862	0.19394	0.1412	0.04441	0.01159	0.11505	0.076834	0.14334	0.264	0.1394	-4.1604	-5.075	-4.3479	-4.8812	-4.8917	-4.3021	-5.1792	-4.5771	-4.3375	-5.2458	-4.4979	-4.7958	-5.0208	-4.2479	-5.0396	-4.7708	428.669	283.441	456.548	457.307	223.279	333.786	446.766	487.713	436.865	408.998	349.147	332.404	479.198	338.625	299.858	502.388	0.00049685	0.00049382	5.5203e-05	1374.2	1.7451e-06	6.5337e-06	1371.7	370.46	6.3201e-06	4.104e-06	421.91	140.85	122.59	41.896	2.751e-06	51.686	0.00064105	0.00064012	0.00017893	1407.7	6.9744e-06	6.9692e-06	1401.3	381.45	6.9171e-06	6.9164e-06	435.92	146.22	127.28	43.724	6.8818e-06	54.063	254.221	252.485	499.251	178.026	266.772	261.565	177.726	182.590	378.593	284.598	182.092	186.195	186.739	191.247	248.894	190.872	-8191	255	
3247.210	1	1	0	0	0.058591	0.058551	0.021838	0.13383	0.18335	0.068903	0.17499	0.1796	0.20566	0.16431	0.019632	0.072044	0.25286	0.2053	0.14838	0.33483	-3.9917	-5.0938	-4.2896	-4.7292	-5.0687	-4.2125	-5.1104	-4.8812	-4.2771	-5.1729	-4.3354	-4.5417	-5.0458	-4.4896	-4.7812	-4.9146	350.948	185.512	365.009	513.618	495.268	470.151	495.534	447.424	211.872	240.680	252.255	206.005	188.118	514.519	333.710	201.802	0.00051451	0.00018926	6.5598e-05	1372.6	1.1559e-05	5.7657e-06	1370.1	370.92	6.1133e-06	7.2279e-06	422.08	141.22	122.72	42.041	8.6097e-06	51.909	0.00062626	0.00062602	0.00017512	1403.1	6.7968e-06	6.8141e-06	1401.2	380.86	6.8517e-06	6.8881e-06	435.66	146.01	127.24	43.791	6.9231e-06	54.173	258.307	262.049	217.892	177.734	342.319	263.966	177.703	182.444	337.490	347.275	181.946	186.380	186.652	191.185	274.694	191.020	-8191	255	
3247.305	1	1	0	0	0.045324	0.10743	0.031516	0.2382	0.044303	0.11977	0.20734	0.1917	0.093465	0.16875	0.065898	0.11281	0.20901	0.094728	0.10417	0.087295	-3.8875	-5.0896	-4.1833	-4.6542	-5.0979	-4.1417	-5.1458	-4.8833	-4.3833	-5.2292	-4.3667	-4.3438	-5.2188	-4.2917	-4.6792	-4.9833	365.958	348.488	362.532	457.669	317.923	400.170	434.777	178.727	173.221	481.781	433.713	190.623	249.308	465.337	230.806	422.740	0.00058598	0.00069198	0.00012413	1367.3	6.0444e-06	4.2271e-06	1371.7	368.69	9.9354e-06	7.8865e-06	421.25	140.64	122.79	41.912	1.0197e-05	51.886	0.00063081	0.00063765	0.00017904	1402.2	6.9037e-06	6.9419e-06	1400	380.88	6.8588e-06	6.8732e-06	435.1	145.63	126.96	43.669	6.8262e-06	54.043	265.844	267.652	488.575	177.720	395.851	415.095	177.881	182.594	259.119	311.456	182.093	186.375	186.906	191.307	384.410	190.802	-8191	255	
3247.401	1	1	0	0	0.1204	0.059077	0.078977	0.16936	0.36883	0.071297	0.12986	0.1867	0.11131	0.067246	0.028019	0.041304	0.1255	0.1893	0.040794	0.23532	-3.9083	-5.125	-4.4708	-4.3208	-5.0813	-4.2208	-4.9958	-5.0104	-4.225	-5.0125	-4.7083	-4.4208	-5.0667	-4.5292	-4.7208	-5.1271	250.984	433.992	256.919	513.782	242.529	405.508	402.430	491.097	378.785	463.178	344.817	431.563	242.035	483.399	510.803	492.141	0.00057647	0.00062621	5.8675e-05	1367.8	1.535e-06	5.1798e-06	1368.9	369.64	2.9836e-06	3.0563e-06	421.88	140.76	122.98	41.881	4.6553e-06	51.962	0.00061986	0.00062467	0.00017432	1398.8	6.7787e-06	6.8958e-06	1396.4	380.17	6.8538e-06	6.8814e-06	435.53	145.57	127.07	43.712	6.8051e-06	53.977	256.467	329.505	414.219	177.667	234.366	311.533	177.570	182.334	480.328	523.376	182.301	186.343	187.005	191.655	374.374	190.434	-8191	255	
3247.497	1	1	0	0	0.10226	0.089514	0.1648	0.14664	0.15313	0.077878	0.19422	0.046393	0.15624	0.035262	0.15455	0.18974	0.077687	0.1485	0.21069	0.13933	-3.8563	-4.775	-4.6042	-4.3896	-5.0896	-4.2417	-4.825	-4.9938	-4.0958	-4.9313	-4.8083	-4.2667	-5.0771	-4.5583	-4.4854	-4.9667	324.758	314.404	430.526	425.179	289.255	351.008	454.374	366.208	354.216	439.028	507.770	502.685	382.612	472.379	199.895	397.285	0.00050193	0.00037291	0.00017646	1367.1	2.3155e-06	4.9421e-06	1368.9	370.54	6.0261e-06	7.3237e-06	420.66	140.45	122.71	41.691	1.0913e-06	51.614	0.00062255	0.00062923	0.00017406	1400	6.7961e-06	6.8222e-06	1397	379.8	6.7284e-06	6.7198e-06	433.82	145.15	126.55	43.473	6.6171e-06	53.781	275.383	250.084	253.209	177.724	413.929	171.027	177.709	182.736	211.114	322.443	182.430	186.339	186.759	191.305	521.797	190.697	-8191	255	
3247.593	1	1	0	0	0.16916	0.13444	0.20878	0.1524	0.068688	0.2486	0.11967	0.20427	0.26099	0.2106	0.28807	0.089402	0.11714	0.10125	0.1049	0.16639	-3.8396	-4.8417	-4.6917	-4.3479	-5.0188	-4.4396	-4.7688	-5.1062	-4.2125	-4.7396	-4.9417	-4.2708	-5.125	-4.5146	-4.5396	-5.1771	515.992	177.126	397.078	335.597	171.022	492.837	165.528	496.091	511.408	416.699	478.680	304.202	260.829	408.962	511.802	396.768	0.00051571	0.00084904	9.2952e-05	1363.6	2.6828e-06	4.7816e-06	1367.7	369.31	8.1722e-06	5.2018e-06	421.21	141.13	122.06	41.771	1.1181e-05	51.447	0.0006048	0.00061072	0.00016901	1396.8	6.6374e-06	6.6507e-06	1392.4	378.43	6.5932e-06	6.5717e-06	432.45	144.41	125.99	43.283	6.3427e-06	53.426	263.566	260.984	506.552	178.018	274.776	373.542	177.883	182.708	267.416	304.343	182.087	186.232	186.758	191.413	263.345	190.897	-8191	255	
3247.689	1	1	0	0	0.10462	0.2122	0.12599	0.085538	0.068066	0.09809	0.08794	0.072457	0.19931	0.12817	0.13992	0.13167	0.13113	0.097609	0.10118	0.037674	-3.7833	-4.6375	-4.8833	-4.2188	-4.9417	-4.6917	-4.4396	-5.3104	-4.2771	-4.5896	-5.0708	-4.1	-4.9083	-4.7833	-4.2167	-5.2312	521.490	369.503	327.542	182.502	334.269	448.341	318.345	450.074	299.491	423.930	236.871	444.711	240.519	271.933	491.245	224.883	0.0005389	0.00023679	0.00015846	1362.7	2.6828e-06	5.8758e-06	1361.7	368.35	6.226e-06	3.88e-06	418.89	140.33	121.8	41.904	2.454e-06	51.754	0.00058788	0.00058543	0.00016078	1387.7	6.3839e-06	6.3663e-06	1385.1	376.44	6.3957e-06	6.3227e-06	429.56	143.81	125.34	43.129	6.2169e-06	53.322	269.568	339.407	522.595	177.951	303.416	245.272	177.608	182.534	346.650	168.563	181.972	186.160	187.332	191.343	373.092	190.698	-8191	255	
3247.785	1	1	0	0	0.20232	0.18565	0.12423	0.21631	0.11099	0.17801	0.14766	0.13895	0.036965	0.043284	0.17515	0.25101	0.06242	0.10523	0.14772	0.11487	-3.8937	-4.5813	-4.7937	-4.2208	-4.7688	-4.7896	-4.3	-5.1146	-4.3	-4.5271	-5.1813	-4.2312	-4.8396	-4.8167	-4.0479	-5.3833	404.185	499.233	458.370	466.819	177.044	214.428	302.157	189.188	413.107	181.436	443.229	456.605	231.080	214.170	468.950	351.391	0.00057916	0.00038978	0.00014102	1362	8.0406e-06	3.0095e-06	1358.6	368	9.353e-06	7.1336e-06	420.02	140.56	121.75	41.789	7.1315e-07	51.884	0.00058027	0.00057683	0.00016047	1384.6	6.3617e-06	6.4102e-06	1384.6	376.61	6.4619e-06	6.4059e-06	430.3	144.48	125.68	43.222	6.4383e-06	53.57	261.856	307.757	243.176	177.749	251.405	196.883	177.761	182.505	316.425	359.505	182.008	186.413	187.040	191.459	253.988	190.750	-8191	255	
3247.906	1	1	0	0	0.13122	0.029273	0.069506	0.16865	0.14554	0.1339	0.13081	0.18265	0.085381	0.11751	0.12636	0.087402	0.1017	0.10736	0.25845	0.14026	-4.175	-4.3708	-5.1188	-4.3604	-4.6396	-4.9042	-4.3896	-5.2312	-4.4104	-4.3167	-5.1125	-4.3396	-4.7646	-4.9417	-3.9458	-5.1937	381.088	486.156	198.902	167.147	469.072	307.296	415.854	468.282	356.470	496.202	386.315	191.892	414.897	185.140	524.563	362.126	0.00052079	0.0005875	0.00015324	1361.9	1.3213e-06	4.638e-06	1363.3	369.51	1.0875e-05	2.6546e-06	420.62	140.1	121.88	41.75	4.7485e-06	51.59	0.00059452	0.00058935	0.0001649	1388.8	6.4749e-06	6.4414e-06	1386.9	377.28	6.4578e-06	6.3679e-06	430.17	143.96	125.34	43.087	6.3707e-06	53.434	264.288	248.774	238.689	177.938	267.397	363.965	177.654	182.737	255.245	333.550	181.914	186.316	187.017	191.352	240.070	190.685	-8191	255	
3247.978	1	1	0	0	0.089688	0.16183	0.20443	0.20868	0.25601	0.15329	0.15417	0.21096	0.096475	0.3175	0.22392	0.067341	0.058095	0.16312	0.10601	0.13092	-4.4958	-4.2708	-5.0542	-4.5542	-4.4896	-4.8792	-4.3417	-4.9833	-4.625	-4.1792	-5.2958	-4.375	-4.4333	-5.1208	-4.0521	-4.9854	285.947	442.605	239.262	171.891	360.557	195.235	442.166	169.867	480.610	318.285	480.874	182.203	458.993	439.629	429.960	480.219	0.00036628	0.00083938	9.9502e-05	1362	2.6538e-06	4.7302e-07	1355	368.99	6.4459e-06	3.9149e-06	418.29	139.82	121.27	41.609	5.1092e-06	51.865	0.00058037	0.00057816	0.00016076	1383.6	6.2939e-06	6.2903e-06	1380.6	375.63	6.2229e-06	6.1925e-06	427.9	143.61	124.47	42.926	6.1731e-06	53.275	265.637	304.077	415.016	177.707	332.204	191.335	177.839	182.561	458.137	309.453	181.760	186.239	186.794	191.338	330.771	190.666	-8191	255	
3248.098	1	1	0	0	0.16866	0.10816	0.17444	0.1336	0.1486	0.21437	0.28802	0.19675	0.15395	0.17528	0.26629	0.16106	0.15016	0.22205	0.048746	0.090024	-4.5083	-4.3333	-5.0854	-4.5083	-4.4521	-5.0292	-4.1542	-4.9729	-4.6375	-4.4042	-5.25	-4.6562	-4.5563	-5.3	-4.2	-4.8833	166.427	414.979	317.813	474.929	238.923	221.153	181.101	466.678	250.893	261.763	523.917	449.594	516.275	233.608	262.909	418.383	0.00036289	0.00022179	0.00012063	1357.4	1.104e-06	3.9401e-06	1354.9	369.21	7.8905e-06	6.8571e-07	419.74	139.96	121.33	41.734	5.9409e-06	51.535	0.00056244	0.00055858	0.00015704	1380.2	6.1627e-06	6.1442e-06	1378.2	375.48	6.1328e-06	6.1781e-06	428.68	143.31	124.64	42.896	6.2626e-06	53.244	280.890	218.268	408.712	177.879	397.393	259.475	177.869	182.418	309.104	281.379	182.218	186.258	186.813	191.277	303.517	190.715	-8191	255	
3248.194	1	1	0	0	0.10305	0.10018	0.11906	0.11714	0.23619	0.099358	0.10395	0.14425	0.090542	0.14207	0.22275	0.13131	0.087106	0.2022	0.16465	0.072221	-4.6021	-4.0875	-4.9729	-4.7438	-4.3625	-5.225	-4.6354	-4.6729	-4.9062	-4.1271	-4.9771	-4.6333	-4.4521	-5.25	-4.2854	-4.6562	487.806	171.697	514.205	514.506	293.923	229.994	454.467	181.422	514.628	478.583	464.114	408.581	402.691	511.758	235.092	477.991	0.00044246	0.00078545	5.5456e-05	1359.8	3.6949e-06	7.2966e-06	1358	366.95	9.1182e-06	7.24e-06	418.49	139.47	121.98	41.76	4.9425e-06	51.453	0.00056967	0.00057464	0.00016098	1381.2	6.2401e-06	6.2911e-06	1380.8	375.25	6.2525e-06	6.2662e-06	428.81	143.44	124.96	43.068	6.2722e-06	53.223	270.815	235.566	293.422	177.970	433.550	191.037	177.779	182.471	278.209	184.051	182.033	186.512	186.852	191.477	275.170	190.623	-8191	255	
3248.291	1	1	0	0	0.074223	0.10985	0.03567	0.084951	0.26061	0.32548	0.44465	0.25131	0.055483	0.081295	0.025276	0.12222	0.10467	0.12505	0.13906	0.27999	-4.6729	-4.2333	-4.9583	-4.8208	-4.2479	-5.1937	-4.5729	-4.5938	-5.0729	-4.2292	-4.8187	-4.8354	-4.3729	-5.2604	-4.5542	-4.5708	221.660	372.863	299.522	521.758	277.857	326.401	470.183	173.951	494.830	260.450	254.440	486.195	296.687	471.151	340.760	438.776	0.00042224	0.00021558	6.1591e-05	1360.7	2.4574e-06	3.3637e-06	1357.2	368.44	3.1372e-06	2.3678e-06	418.12	140.3	121.72	41.734	2.2804e-06	51.705	0.00057156	0.00057236	0.00015959	1382.1	6.2405e-06	6.2496e-06	1379.3	375.52	6.2019e-06	6.2146e-06	428.01	143.5	124.87	43.062	6.2282e-06	53.278	275.898	235.911	256.640	177.733	497.641	225.131	177.588	182.381	481.775	221.962	182.025	186.252	186.896	191.801	348.317	190.834	-8191	255	
3248.387	1	1	0	0	0.053782	0.12897	0.15389	0.19536	0.16077	0.11322	0.23933	0.12238	0.15388	0.17214	0.092788	0.22435	0.22327	0.067401	0.094191	0.25156	-4.7208	-4.1937	-4.8938	-4.9708	-4.2937	-5.0104	-4.7063	-4.5979	-5.0167	-4.4604	-4.8125	-4.925	-4.2479	-5.2042	-4.6708	-4.4437	286.758	442.677	346.167	374.485	446.083	249.508	453.078	172.731	191.883	469.521	435.450	465.609	435.016	208.254	432.514	441.762	0.00055463	0.00029039	0.00024175	1354.7	6.5361e-06	4.5401e-06	1358.2	368.34	7.3307e-06	5.586e-06	417.25	139.92	121.6	41.812	7.2913e-06	51.543	0.00057263	0.00057689	0.00016	1381.1	6.2712e-06	6.3036e-06	1379.6	375.53	6.2505e-06	6.2678e-06	428.13	143.61	124.87	43.103	6.2539e-06	53.231	265.520	270.837	264.064	178.052	217.908	239.740	177.851	182.338	353.595	282.320	181.819	186.480	186.894	191.315	354.275	190.653	-8191	255	
3248.506	1	1	0	0	0.063193	0.21179	0.23413	0.1961	0.23179	0.17549	0.1223	0.076798	0.23437	0.1092	0.1755	0.010375	0.10985	0.20767	0.018706	0.062892	-4.8708	-4.2354	-4.7479	-5.1	-4.2875	-5.0687	-4.9563	-4.3917	-5.0583	-4.4354	-4.7083	-5.0917	-4.2146	-5.0917	-4.6667	-4.4396	231.952	264.310	480.299	520.665	304.253	490.788	342.324	442.750	378.274	321.009	166.675	468.354	333.877	469.714	395.973	253.930	0.00043616	0.00024191	8.7204e-05	1360.2	5.1869e-06	6.3769e-06	1359	367.29	2.829e-06	8.5572e-06	420.16	140.16	122.02	41.675	2.5804e-06	51.564	0.00057762	0.00058071	0.00016006	1382.7	6.3309e-06	6.3266e-06	1379.7	375.35	6.3085e-06	6.3842e-06	428.91	143.65	125.26	43.09	6.2837e-06	53.301	249.914	516.867	235.582	178.030	306.760	189.112	177.885	182.577	312.265	315.857	181.816	186.443	186.982	191.323	226.355	190.621	-8191	255	
3248.602	1	1	0	0	0.087968	0.2589	0.12469	0.18837	0.086524	0.25292	0.1856	0.043949	0.18169	0.064708	0.28177	0.12716	0.36365	0.033295	0.0039878	0.12402	-4.9875	-4.3604	-4.6104	-5.0854	-4.2229	-4.9062	-4.8708	-4.4729	-4.9854	-4.5521	-4.6583	-5.0917	-4.3146	-4.8792	-4.7063	-4.2375	237.406	444.124	464.256	194.739	417.284	282.980	435.150	292.393	305.149	420.542	431.350	218.077	436.071	354.289	479.279	178.825	0.0005689	0.00044717	0.0002119	1361	7.4304e-06	7.6149e-06	1354.3	367.3	6.5357e-06	5.1887e-07	418.47	139.78	121.87	41.777	4.3347e-06	51.704	0.00057929	0.00058004	0.00015963	1382.9	6.315e-06	6.2669e-06	1378.6	375.03	6.2836e-06	6.2976e-06	428.49	143.65	125.08	43.039	6.2307e-06	53.253	264.648	306.424	272.859	177.856	270.759	215.502	177.904	182.458	282.674	517.866	181.924	186.224	186.989	191.379	190.787	190.741	-8191	255	
3248.673	1	1	0	0	0.15798	0.13072	0.14284	0.17934	0.08466	0.1763	0.093109	0.075883	0.33683	0.1375	0.068643	0.2381	0.079808	0.13216	0.10018	0.22201	-4.8187	-4.5479	-4.3167	-5.2375	-4.3167	-4.7771	-5.1521	-4.3958	-5.1062	-4.6312	-4.4354	-5.0792	-4.1646	-4.85	-4.9646	-4.1333	335.553	379.474	394.164	501.302	318.224	327.805	464.529	421.348	319.550	522.394	456.370	164.675	172.630	512.770	166.363	248.925	0.00057529	0.00026691	8.3798e-05	1357.1	2.2587e-06	1.2847e-05	1360.5	366.87	7.8903e-06	5.5603e-06	419.33	140.8	121.66	41.709	1.9756e-06	51.535	0.00057396	0.00057422	0.00015917	1380.6	6.3062e-06	6.22e-06	1380	375.08	6.2743e-06	6.2719e-06	428.47	143.94	124.92	43.053	6.3244e-06	53.379	255.741	353.889	230.589	177.934	258.123	250.262	177.852	182.468	243.939	302.175	181.893	186.424	187.107	191.371	331.798	190.714	-8191	255	
3248.794	1	1	0	0	0.23282	0.12378	0.20888	0.24683	0.23601	0.12465	0.37109	0.32475	0.035971	0.10229	0.18868	0.085951	0.11518	0.1876	0.22467	0.25455	-4.5979	-4.7146	-4.3187	-5.2188	-4.3646	-4.7042	-4.9979	-4.1146	-4.9042	-4.6646	-4.2688	-5.3521	-4.2458	-4.6875	-5.2083	-4.1312	504.247	183.047	200.770	520.883	178.811	314.898	496.950	436.458	168.011	397.072	399.121	179.156	440.066	326.322	498.141	446.902	0.00038956	0.00070943	7.721e-05	1360.8	2.7651e-06	4.4461e-06	1356.1	368.05	4.3073e-06	2.1556e-06	418.89	139.46	121.88	41.756	5.9506e-06	51.504	0.0005773	0.00057964	0.00016087	1384	6.3308e-06	6.2778e-06	1378.5	375.58	6.278e-06	6.2737e-06	428.7	143.66	124.86	43.042	6.2203e-06	53.249	253.665	279.330	219.172	177.908	419.968	182.550	177.711	182.483	226.052	325.318	181.743	186.467	187.168	191.518	258.379	190.601	-8191	255	
3248.890	1	1	0	0	0.044042	0.18036	0.3046	0.067519	0.095537	0.053846	0.21583	0.23242	0.21474	0.16106	0.16476	0.18847	0.16785	0.23275	0.20945	0.10099	-4.625	-4.8417	-4.2438	-5.1417	-4.5563	-4.5312	-5.275	-4.3458	-4.7312	-4.6979	-4.4104	-5.1312	-4.4375	-4.4708	-5.1542	-4.2354	381.777	297.403	296.889	175.714	331.771	351.094	445.213	517.655	287.902	367.008	173.857	472.938	522.700	507.296	439.762	463.480	0.00047467	0.00029485	0.00016875	1356.1	1.9813e-06	6.8115e-06	1358.7	365.76	1.2133e-05	9.7068e-06	419.51	140.81	121.62	41.824	5.5308e-06	51.687	0.00057077	0.00057136	0.00016013	1381.7	6.282e-06	6.2514e-06	1380.1	374.55	6.203e-06	6.2156e-06	428.47	143.55	124.69	43.021	6.2297e-06	53.293	264.622	203.459	199.468	177.919	257.156	286.993	177.636	182.568	255.530	247.339	181.747	186.183	186.622	191.454	319.592	190.794	-8191	255	
3248.986	1	1	0	0	0.17268	0.21927	0.28307	0.11734	0.15364	0.1151	0.10609	0.1382	0.10171	0.13801	0.14069	0.17382	0.090077	0.17628	0.16091	0.18896	-4.3417	-4.8042	-3.9979	-5.0938	-4.5875	-4.2167	-5.2604	-4.2479	-4.5083	-4.9062	-4.1271	-5.025	-4.7125	-4.3562	-5.1208	-4.4208	279.596	201.860	443.203	420.811	462.279	231.335	343.016	461.240	500.884	374.800	522.562	227.636	452.041	242.517	517.517	439.112	0.00057574	0.00062757	0.00018095	1359.4	6e-06	7.998e-06	1355.7	365.76	7.5425e-06	2.1116e-06	418.88	139.71	121.43	41.678	2.3852e-06	51.764	0.00056533	0.00056949	0.00016073	1381.1	6.263e-06	6.2431e-06	1380.3	374.72	6.2215e-06	6.2583e-06	428.44	143.58	124.74	43.029	6.2701e-06	53.281	258.644	419.520	258.295	177.927	284.916	292.910	177.540	182.435	217.040	208.312	181.860	186.110	186.849	191.325	441.357	190.724	-8191	255	
3249.083	1	1	0	0	0.182	0.094098	0.14362	0.063214	0.28161	0.26302	0.11651	0.2413	0.10342	0.12806	0.17556	0.13837	0.1572	0.31119	0.21366	0.26152	-4.175	-5.0625	-4.0563	-5.1167	-4.7771	-4.1646	-5.1333	-4.3646	-4.3958	-4.9979	-4.1354	-4.9521	-4.7417	-4.2146	-5.1208	-4.4938	234.259	420.350	220.901	311.046	387.202	308.333	197.982	520.635	410.852	312.041	395.587	256.788	444.489	307.660	478.723	459.629	0.00047179	0.00083438	0.00016327	1356.9	3.9652e-06	6.3147e-06	1356.3	367.23	6.7672e-06	3.8207e-06	420.12	140.61	121.85	41.588	1.0968e-06	51.512	0.00056936	0.00057822	0.00016107	1381.5	6.2723e-06	6.2975e-06	1379.3	375.37	6.2279e-06	6.2694e-06	428.25	143.48	124.59	43.012	6.1962e-06	53.26	270.179	263.021	208.899	177.986	327.671	307.418	177.784	182.695	409.295	249.780	181.757	186.232	186.881	191.245	226.218	190.775	-8191	255	
3249.203	1	1	0	0	0.088333	0.10732	0.091556	0.16563	0.05431	0.031482	0.14626	0.059813	0.21073	0.084535	0.28263	0.175	0.12774	0.20742	0.15572	0.19901	-4.0771	-5.0521	-4.0958	-4.8625	-4.7146	-4.1813	-5.2375	-4.5938	-4.2729	-5.0521	-4.2812	-4.775	-4.8042	-4.125	-4.8958	-4.5271	476.164	450.657	517.570	321.528	487.996	353.028	465.943	492.536	265.971	429.139	256.128	282.519	216.309	255.334	509.469	466.581	0.00053399	0.00042362	0.00014293	1356.4	7.1409e-06	3.2152e-06	1352.6	368	1.2758e-06	7.9337e-06	418.77	139.79	121.32	41.781	5.8246e-06	51.434	0.00057049	0.00057098	0.00015919	1378.3	6.219e-06	6.2541e-06	1376.2	374.74	6.15e-06	6.2261e-06	427.82	143.37	124.55	43.02	6.1838e-06	53.048	258.611	322.686	200.507	177.856	274.405	517.202	177.766	182.513	271.586	282.784	182.004	186.411	186.879	191.447	357.538	190.677	-8191	255	
3249.275	1	1	0	0	0.059702	0.15312	0.15258	0.073213	0.11085	0.16669	0.17413	0.21252	0.12759	0.11771	0.1005	0.04902	0.042895	0.1716	0.11091	0.14182	-3.9833	-5.1271	-4.0896	-4.5813	-4.8083	-4.0771	-5.0604	-4.5396	-4.2396	-5.1854	-4.2958	-4.5417	-4.8729	-4.1667	-4.775	-4.7354	446.659	487.369	168.395	263.289	400.958	493.099	523.353	469.218	182.245	180.195	464.855	187.170	457.025	301.058	168.788	391.744	0.00049191	0.00044884	0.00019814	1353.8	2.1426e-06	5.8069e-06	1357.1	367.68	7.6436e-06	4.3879e-06	417.84	139.74	121.01	41.68	7.5011e-06	51.833	0.00057153	0.00057419	0.0001606	1377	6.2437e-06	6.3087e-06	1377.4	375.24	6.2978e-06	6.2735e-06	428.36	143.41	124.7	42.976	6.2426e-06	53.309	257.713	518.258	213.258	177.955	226.134	310.044	177.821	182.650	270.408	304.513	181.866	186.422	186.752	191.341	242.912	190.811	-8191	255	
3249.371	1	1	0	0	0.17225	0.062399	0.13357	0.31197	0.058395	0.097967	0.14059	0.27521	0.22697	0.073197	0.092819	0.26869	0.098509	0.16236	0.12391	0.06075	-3.8604	-5.1188	-4.2688	-4.6062	-4.7854	-4.1271	-4.975	-4.7208	-4.175	-5.1208	-4.4125	-4.5062	-5.0229	-4.2375	-4.7958	-4.9958	170.698	258.259	345.950	489.959	203.743	378.814	443.109	173.626	202.327	490.454	483.581	203.615	407.565	457.089	217.840	165.153	0.00038184	0.00018571	8.3946e-05	1356.9	3.5778e-06	4.1784e-06	1356.2	367.93	5.1459e-06	5.2048e-06	418.54	139.55	121.25	41.677	9.2304e-07	51.631	0.00057705	0.0005828	0.00016087	1380.7	6.3613e-06	6.3607e-06	1377.2	375.16	6.3568e-06	6.3355e-06	428.24	143.83	124.85	43.062	6.2663e-06	53.41	265.874	213.932	251.059	177.827	327.472	483.471	177.870	182.587	188.064	387.481	182.071	186.386	186.856	191.460	179.538	190.637	-8191	255	
3249.467	1	1	0	0	0.13661	0.059853	0.086589	0.25204	0.12502	0.11733	0.063577	0.046864	0.20778	0.086223	0.08268	0.20296	0.065358	0.25093	0.059559	0.2308	-3.8229	-4.8667	-4.4688	-4.5792	-5.1312	-4.4854	-4.9458	-5.0583	-4.1375	-4.8792	-4.6167	-4.2625	-5.0396	-4.3313	-4.5604	-5.0458	180.618	238.331	303.856	519.017	316.021	324.207	498.498	246.859	228.721	405.807	489.577	184.184	351.592	445.233	480.138	498.156	0.00041346	0.00070876	0.00016539	1351.4	5.6196e-06	8.902e-06	1359.5	365.99	2.4538e-06	1.3694e-06	416.91	140.3	121.65	41.687	7.527e-06	51.775	0.00058541	0.00058202	0.00016122	1376.2	6.3444e-06	6.3339e-06	1380.3	375.23	6.3519e-06	6.3247e-06	427.47	143.62	124.98	43.041	6.216e-06	53.336	260.149	296.352	287.239	177.901	268.043	362.915	177.653	182.494	371.764	294.226	181.954	185.990	186.912	191.319	345.157	190.567	-8191	255	
3249.586	1	1	0	0	0.15613	0.10517	0.12744	0.014863	0.14449	0.16245	0.28233	0.19952	0.2159	0.068169	0.20596	0.060403	0.22079	0.12113	0.069066	0.35123	-3.8708	-5.0354	-4.5375	-4.3688	-5.1229	-4.2083	-4.8271	-4.9958	-4.05	-4.7688	-4.7771	-4.3	-5.0375	-4.3854	-4.4479	-5.1167	379.595	428.259	199.693	230.787	258.117	254.772	454.370	503.870	228.400	255.713	453.743	336.500	246.140	470.707	341.528	177.776	0.00054109	0.00029181	6.884e-05	1353.6	4.171e-06	5.7591e-06	1354.2	367.84	4.7703e-06	3.9701e-06	418.9	139.37	121.63	41.518	4.403e-06	51.52	0.0005807	0.00057287	0.00016093	1379.3	6.3433e-06	6.3152e-06	1378.1	375.63	6.3224e-06	6.2851e-06	428.33	143.63	125.04	43.033	6.3367e-06	53.343	273.853	295.469	187.420	177.766	233.869	226.931	177.730	182.579	405.418	373.356	181.874	186.144	186.990	191.517	213.914	190.709	-8191	255	
3249.682	1	1	0	0	0.11209	0.26022	0.091463	0.047344	0.13889	0.13278	0.089433	0.19977	0.15488	0.17414	0.13195	0.20224	0.078826	0.12276	0.096521	0.088803	-3.8625	-4.9208	-4.6813	-4.3292	-5.1167	-4.3313	-4.5062	-5.2375	-4.1	-4.7917	-4.95	-4.2438	-5.1875	-4.4875	-4.4292	-5.1333	306.411	206.928	490.788	170.800	497.208	172.254	461.564	397.800	299.022	365.653	463.268	394.495	448.346	175.114	180.602	478.531	0.00053247	0.0004137	0.0001024	1350.6	3.097e-06	2.0814e-06	1351.4	367.06	8.533e-06	6.4396e-06	419.58	139.42	121.19	41.592	5.2666e-06	51.563	0.00058424	0.00058058	0.0001623	1379.2	6.3773e-06	6.3334e-06	1377.9	375.9	6.3563e-06	6.3402e-06	428.76	143.77	125.07	43.027	6.2956e-06	53.383	268.827	320.409	265.776	177.763	283.564	356.113	177.720	182.669	211.504	263.245	181.862	186.211	186.989	191.413	225.887	191.011	-8191	255	
3249.778	1	1	0	0	0.15718	0.13596	0.17525	0.13317	0.081458	0.22004	0.22999	0.19588	0.27874	0.26606	0.11339	0.24748	0.16025	0.33822	0.14646	0.24671	-3.9688	-4.7292	-4.9354	-4.3396	-5.0583	-4.5417	-4.4042	-5.2312	-4.2021	-4.425	-5.1479	-4.3187	-5.0563	-4.7542	-4.2833	-5.1271	319.487	195.569	396.475	482.011	184.382	471.178	165.174	194.585	486.508	518.262	436.241	251.155	201.378	497.677	281.945	476.552	0.00052084	0.00011496	2.4817e-05	1357.7	6.6683e-06	9.2445e-06	1358.4	367.52	9.84e-06	1.7519e-06	418.48	140.32	121.95	41.755	3.443e-06	51.523	0.00057815	0.0005754	0.00016102	1381.9	6.3195e-06	6.2705e-06	1379.2	375.42	6.2609e-06	6.2136e-06	428.32	143.61	124.83	42.973	6.2217e-06	53.205	249.734	296.662	228.617	177.832	210.275	314.100	177.746	182.378	310.678	277.733	182.119	186.123	186.911	191.410	351.396	190.547	-8191	255	
3249.874	1	1	0	0	0.12048	0.11724	0.21846	0.098111	0.26014	0.14409	0.2936	0.073995	0.26508	0.17633	0.28744	0.23062	0.086642	0.21375	0.22791	0.051095	-3.8125	-4.5625	-4.9125	-4.2396	-4.8542	-4.5521	-4.35	-5.2583	-4.3104	-4.575	-5.1604	-4.4062	-4.8938	-4.8167	-4.3042	-5.3812	438.525	501.758	508.816	353.453	436.095	501.840	447.873	491.813	200.994	280.385	508.621	469.146	191.668	452.936	342.150	202.344	0.00047722	0.00051578	9.5916e-05	1361	2.2476e-06	1.188e-06	1356.6	368.28	7.2189e-06	3.7372e-06	419.38	140.09	121.99	41.731	3.8179e-06	51.35	0.00056877	0.00056778	0.00015886	1380.6	6.2068e-06	6.2151e-06	1378.8	375.14	6.2584e-06	6.2398e-06	428.51	143.59	124.76	43.026	6.2843e-06	53.171	259.261	278.310	207.638	177.791	294.191	349.543	177.560	182.466	315.970	273.555	182.102	186.205	186.721	191.146	319.099	190.513	-8191	255	
3249.971	1	1	0	0	0.22248	0.035171	0.095765	0.066864	0.11947	0.098253	0.23286	0.083159	0.057482	0.14245	0.11196	0.048951	0.1811	0.040069	0.072392	0.077097	-4.0729	-4.3292	-5.0604	-4.2708	-4.8479	-4.8854	-4.3708	-5.1104	-4.4896	-4.375	-5.1292	-4.3854	-4.8417	-4.9271	-4.1708	-5.1646	344.083	410.492	299.192	410.240	437.754	195.208	493.304	186.798	484.681	458.702	408.964	315.091	205.203	464.247	189.663	168.910	0.00062217	9.8448e-05	0.00021517	1358.5	5.0835e-06	7.1645e-06	1353.3	366.97	1.1432e-05	5.9196e-06	418.44	139.49	121.94	41.442	1.0356e-05	51.657	0.00057507	0.00057572	0.00015994	1379.2	6.2371e-06	6.2978e-06	1377.6	375.31	6.3081e-06	6.335e-06	429.11	143.56	125.12	43.049	6.363e-06	53.355	250.902	173.884	333.711	177.893	298.862	333.004	177.885	182.610	274.103	224.630	182.032	186.169	186.910	191.464	339.300	190.808	-8191	255	
3250.067	1	1	0	0	0.25529	0.12295	0.071751	0.25987	0.11233	0.32879	0.25296	0.012547	0.15799	0.056477	0.20338	0.075401	0.12006	0.10179	0.24573	0.022007	-4.3458	-4.3917	-5.0646	-4.2417	-4.7271	-4.9333	-4.2104	-5.0646	-4.5271	-4.5458	-5.2833	-4.3604	-4.725	-5.0813	-4.0604	-4.9938	423.069	320.130	261.216	164.917	275.213	428.810	511.523	408.774	300.481	499.864	475.716	349.358	359.673	327.218	276.216	240.640	0.00059648	0.00041839	1.0924e-05	1352.5	3.1439e-06	1.4002e-06	1361.6	367.6	3.6103e-06	4.2436e-06	420.06	140.06	121.17	41.588	3.6542e-06	51.651	0.00058266	0.00058261	0.00016289	1381.9	6.3384e-06	6.3946e-06	1382.1	375.33	6.3282e-06	6.3374e-06	429.28	143.57	124.88	43.016	6.2963e-06	53.351	261.815	246.070	218.263	177.967	340.186	435.007	177.697	182.556	270.942	360.199	182.127	186.162	186.690	191.542	292.828	190.577	-8191	255	
3250.187	1	1	0	0	0.12684	0.16328	0.11325	0.03281	0.15819	0.11215	0.15894	0.1569	0.12966	0.18862	0.084394	0.15454	0.080903	0.085931	0.074717	0.16196	-4.3146	-4.2312	-5.1917	-4.4875	-4.4854	-4.9771	-4.3938	-4.9146	-4.6875	-4.1167	-5.1542	-4.4563	-4.6708	-4.9833	-4.3292	-4.9042	303.628	449.197	272.726	179.457	471.655	168.152	428.557	510.294	303.451	289.916	330.982	420.015	382.529	519.996	283.408	169.433	0.00056965	0.00071292	0.0001771	1354.6	4.4954e-06	7.7824e-06	1356	368.53	2.9945e-06	2.8835e-06	416.92	139.78	120.88	41.778	9.7021e-06	51.846	0.00058054	0.00058421	0.0001611	1379.2	6.3988e-06	6.3922e-06	1378.3	375.31	6.3622e-06	6.3895e-06	429.26	143.66	124.89	43.144	6.3626e-06	53.466	260.098	395.445	331.230	177.864	346.113	287.212	177.748	182.393	302.547	350.693	181.836	186.334	187.066	191.557	238.859	190.642	-8191	255	
3250.284	1	1	0	0	0.095266	0.28533	0.18008	0.26795	0.16686	0.19421	0.14297	0.25373	0.026415	0.17403	0.31304	0.26254	0.18443	0.059873	0.22355	0.15122	-4.5333	-4.2125	-4.9375	-4.6417	-4.3812	-5.0229	-4.4729	-4.7479	-4.8688	-4.0854	-5.2708	-4.6646	-4.3542	-5.1146	-4.2333	-4.6104	433.232	382.411	471.315	181.448	290.687	202.869	484.066	468.273	301.788	356.004	514.975	186.008	504.010	514.692	306.875	445.596	0.00070834	0.00032399	5.4186e-05	1358.7	2.3897e-06	7.6604e-06	1359.4	366.88	7.9655e-06	6.2777e-06	420.27	139.72	120.98	41.773	6.1295e-06	51.742	0.00059159	0.00059329	0.00016305	1382.4	6.461e-06	6.4723e-06	1382.1	375.6	6.4776e-06	6.4805e-06	429.78	143.7	125.07	43.182	6.3923e-06	53.405	265.690	396.243	263.263	177.906	180.353	265.402	177.775	182.621	266.043	298.992	181.888	186.145	186.713	191.245	285.362	190.925	-8191	255	
3250.378	1	1	0	0	0.024632	0.20298	0.15694	0.088905	0.17917	0.021265	0.20135	0.09238	0.083245	0.23053	0.037917	0.0032012	0.20823	0.27115	0.14053	0.19115	-4.6417	-4.2083	-4.8667	-4.75	-4.2417	-5.0417	-4.5479	-4.6458	-4.8875	-4.1333	-4.9479	-4.7646	-4.275	-5.1312	-4.375	-4.6062	486.641	379.703	331.563	359.196	422.118	412.455	436.644	472.298	183.110	301.433	468.678	424.498	229.363	490.364	322.215	475.848	0.00044733	0.00051511	0.00013913	1359.2	5.4858e-06	2.5223e-06	1353.8	367.42	5.6737e-06	6.0651e-06	418.48	139.87	121.17	41.644	5.0374e-06	51.703	0.00059191	0.00059258	0.00016395	1382.4	6.4519e-06	6.4888e-06	1380.9	376.36	6.4822e-06	6.4451e-06	429.03	143.79	125.16	43.082	6.4349e-06	53.513	268.672	284.560	333.407	178.090	326.453	481.242	177.894	182.202	454.092	277.928	182.222	186.558	186.741	191.370	398.299	190.675	-8191	255	
3250.499	1	1	0	0	0.079235	0.069199	0.28419	0.061392	0.081962	0.17739	0.020108	0.018074	0.11513	0.17169	0.10305	0.24603	0.13759	0.086447	0.12558	0.08346	-4.7104	-3.9771	-4.8208	-4.9542	-4.2354	-5.1958	-4.5792	-4.6042	-5.1292	-4.2562	-5.0146	-4.8688	-4.1937	-5.0563	-4.5	-4.4396	229.474	309.678	451.144	419.577	183.898	516.962	410.228	368.865	426.990	461.575	385.724	478.794	238.795	166.008	443.367	460.015	0.0004319	0.00075116	5.4269e-05	1353.3	5.5399e-06	3.3933e-06	1353.9	366.17	7.3911e-06	3.1882e-06	418.51	140.36	121.87	41.608	5.4374e-06	51.515	0.00059093	0.00059305	0.00016322	1385	6.4987e-06	6.4493e-06	1380	375.95	6.4489e-06	6.3958e-06	429.39	144.02	125.28	43.117	6.4136e-06	53.418	260.180	282.849	277.056	177.919	211.857	397.546	177.681	182.486	297.898	273.781	181.828	186.628	186.652	191.539	218.983	190.380	-8191	255	
3250.570	1	1	0	0	0.13733	0.083831	0.1547	0.13808	0.23726	0.27399	0.1218	0.15359	0.14941	0.15943	0.26728	0.034795	0.097079	0.27524	0.16764	0.078976	-4.8271	-4.2146	-4.4958	-4.9542	-4.0771	-5.075	-4.8708	-4.425	-5.0792	-4.1792	-4.7792	-5.0687	-4.2937	-5.0563	-4.6958	-4.4479	230.854	346.756	487.626	421.094	233.597	492.894	466.413	446.651	239.103	216.024	496.425	362.265	165.568	496.114	248.426	472.764	0.00057015	0.00048289	8.9767e-05	1357.6	3.1728e-06	4.5296e-06	1362.1	366.84	1.0997e-05	4.7157e-06	420.1	140.23	121.23	41.698	4.4187e-06	51.821	0.00059028	0.00059218	0.00016351	1384.4	6.5078e-06	6.443e-06	1382.4	375.85	6.4193e-06	6.3946e-06	429.53	143.97	125.14	43.055	6.3814e-06	53.489	269.194	345.651	324.804	177.857	258.879	392.481	177.729	182.379	405.817	516.362	181.958	186.401	186.758	191.241	218.354	190.691	-8191	255	
3250.666	1	1	0	0	0.19801	0.20961	0.27204	0.20708	0.17381	0.094645	0.36109	0.33457	0.083776	0.11933	0.09423	0.1934	0.19137	0.039926	0.19362	0.074851	-4.8021	-4.3625	-4.5625	-5.0792	-4.0271	-4.8896	-4.9667	-4.4062	-5.0042	-4.35	-4.5729	-5.0458	-4.2354	-4.8604	-4.7708	-4.2292	444.823	466.358	207.716	472.107	185.166	430.399	401.788	522.430	434.492	208.500	492.341	426.402	456.154	205.124	413.485	203.032	0.00055493	0.00036309	9.6352e-05	1358.3	2.2637e-06	2.6191e-06	1356.4	368.31	1.3442e-05	6.2471e-06	419.43	139.38	121.98	41.719	2.7928e-06	51.8	0.00058191	0.00058043	0.00016211	1382.7	6.3621e-06	6.3088e-06	1381.4	375.59	6.2707e-06	6.2747e-06	428.25	143.62	124.78	42.962	6.231e-06	53.282	276.322	305.992	494.796	178.042	284.806	499.117	177.615	182.383	318.813	362.611	182.157	186.150	186.697	191.446	368.609	190.580	-8191	255	
3250.763	1	1	0	0	0.079933	0.19667	0.23213	0.045381	0.095431	0.076109	0.063683	0.16639	0.11434	0.10827	0.18259	0.25469	0.15016	0.10974	0.22801	0.25516	-4.7833	-4.2354	-4.4	-5.2167	-4.1896	-4.7396	-5.1229	-4.2188	-5.0062	-4.5604	-4.4625	-5.0667	-4.2646	-4.7042	-4.925	-3.9938	174.576	170.608	226.718	180.041	177.246	438.517	397.666	490.515	223.051	378.573	246.107	186.872	454.699	447.848	357.012	495.350	0.0005425	0.00029273	0.00021582	1357.1	2.8799e-06	1.126e-05	1359.6	367.48	2.9043e-06	8.0139e-06	419.43	139.85	121.27	41.699	8.1914e-06	51.66	0.00056508	0.00057197	0.00015853	1380	6.1799e-06	6.2206e-06	1379.3	374.87	6.1464e-06	6.1995e-06	427.57	143.16	124.37	42.976	6.17e-06	53.162	275.733	337.411	279.673	177.910	524.523	201.277	177.757	182.650	480.080	243.628	182.139	186.311	186.723	191.458	286.374	190.656	-8191	255	
3250.883	1	1	0	0	0.24651	0.074984	0.10162	0.11341	0.037322	0.15706	0.098732	0.12329	0.075658	0.059345	0.15484	0.19934	0.34099	0.13268	0.096958	0.037523	-4.6479	-4.6542	-4.25	-5.0979	-4.1958	-4.6521	-5.1438	-4.1667	-4.9563	-4.7521	-4.2979	-5.0563	-4.3083	-4.6	-4.85	-4.2125	270.206	311.024	353.194	165.460	333.767	478.284	449.134	496.324	294.721	208.696	448.217	212.389	215.638	429.284	260.067	371.994	0.00048127	0.00022002	0.00014864	1357.5	8.0013e-06	8.8833e-06	1353	366.45	2.1772e-06	3.8854e-06	417.67	139.93	121.66	41.832	3.6001e-06	51.6	0.00055869	0.00055825	0.00015614	1375.8	6.1015e-06	6.087e-06	1377.9	373.92	6.0544e-06	6.0895e-06	426.72	143.25	124.25	42.94	6.0626e-06	53.106	268.251	317.855	233.879	177.882	302.964	282.116	177.942	182.568	283.480	291.428	181.808	186.323	186.788	191.273	354.012	190.600	-8191	255	
3250.979	1	1	0	0	0.14176	0.15671	0.1676	0.1022	0.21992	0.022584	0.10818	0.10745	0.096692	0.13706	0.18512	0.16376	0.14543	0.097735	0.086314	0.29489	-4.675	-4.6917	-4.0958	-5.1625	-4.3104	-4.3625	-5.1604	-4.325	-4.8438	-4.7021	-4.3104	-5.0375	-4.5188	-4.3771	-4.9833	-4.0708	405.169	520.252	428.730	522.834	482.334	262.657	480.589	319.320	314.829	419.245	433.917	209.915	195.789	301.862	426.685	471.948	0.00046001	0.00032092	0.00015647	1357.6	3.3733e-06	5.0324e-06	1358	367.26	2.7775e-06	4.2828e-06	419.07	140.32	121.61	41.645	7.8954e-06	51.453	0.00055815	0.00056044	0.00015558	1377.4	6.0733e-06	6.1296e-06	1378.6	374.16	6.0837e-06	6.1068e-06	426.95	143.21	124.51	42.849	6.0988e-06	53.092	271.254	413.056	288.596	178.045	263.675	276.574	177.674	182.559	258.946	230.718	181.995	186.528	187.007	191.310	336.683	190.597	-8191	255	
3251.075	1	1	0	0	0.054974	0.38419	0.23388	0.18088	0.13475	0.1558	0.21461	0.048132	0.22865	0.15059	0.36868	0.025465	0.22231	0.066933	0.13184	0.2219	-4.4208	-4.8208	-4.0979	-5.0938	-4.2208	-4.3833	-5.4542	-4.3708	-4.7583	-4.7688	-4.2	-5.1	-4.5042	-4.2854	-5.0396	-4.2667	415.221	495.623	333.156	176.237	248.418	311.749	458.762	267.553	420.187	494.282	470.689	397.834	417.352	232.022	520.067	458.009	0.00050767	0.00055807	0.00022216	1360.3	5.9142e-06	9.5384e-06	1357.6	367.05	1.2389e-05	3.4884e-06	419.56	139.93	121.6	41.637	1.0449e-05	51.802	0.00056401	0.00056896	0.00015741	1379.1	6.1298e-06	6.1647e-06	1377.5	374.27	6.1542e-06	6.1686e-06	427.97	142.88	124.47	42.924	6.1239e-06	53.177	254.488	299.152	195.997	178.015	241.159	195.012	177.807	182.521	244.429	339.593	181.959	186.578	186.515	191.468	326.733	190.589	-8191	255	
3251.147	1	1	0	0	0.17356	0.079668	0.12749	0.22767	0.16055	0.094992	0.2405	0.2322	0.11817	0.095909	0.037965	0.12991	0.2994	0.23191	0.11266	0.10136	-4.2146	-4.9771	-4.025	-5.025	-4.5813	-4.2292	-5.0521	-4.5604	-4.4604	-4.8917	-4.2479	-4.8938	-4.7312	-4.4521	-5.0979	-4.45	363.503	251.398	185.117	493.750	413.368	207.435	437.668	452.992	274.714	357.412	421.294	351.830	402.079	223.242	165.203	245.858	0.0005675	0.00037815	6.608e-05	1356.6	1.8748e-06	6.6185e-06	1362.3	366.11	4.4615e-06	3.8343e-06	418.92	140.32	121.19	41.813	1.037e-05	51.704	0.00056728	0.00056744	0.00015778	1379.5	6.2299e-06	6.2193e-06	1378.7	374.44	6.2114e-06	6.2119e-06	427.01	143.57	124.63	42.995	6.1872e-06	53.242	263.165	311.196	217.128	178.180	428.410	305.137	177.904	182.473	301.050	247.152	181.868	186.104	186.950	191.208	291.422	190.578	-8191	255	
3251.268	1	1	0	0	0.2155	0.099399	0.23926	0.087982	0.19432	0.001457	0.26156	0.23881	0.058225	0.36577	0.16201	0.11976	0.15678	0.18767	0.13465	0.1703	-4.1562	-5.05	-4.175	-4.7042	-4.7667	-4.3333	-5.0833	-4.5542	-4.3812	-5.0188	-4.2292	-4.7458	-4.8104	-4.0625	-5.0667	-4.6333	293.526	339.397	522.115	476.750	372.716	180.000	360.662	511.595	432.054	387.728	509.225	166.437	231.608	433.092	262.330	439.812	0.00048924	0.00043707	3.7084e-05	1358.9	3.2699e-06	4.7293e-06	1356.9	368.65	6.7231e-06	9.7245e-06	419.81	140.24	121.44	41.723	4.3113e-06	51.904	0.00057409	0.00057423	0.00015894	1381.2	6.3116e-06	6.2863e-06	1380.5	375.53	6.3217e-06	6.2869e-06	428.38	143.7	125.12	43.124	6.327e-06	53.396	257.340	342.484	235.678	177.945	342.494	429.470	177.681	182.444	258.880	326.712	181.729	186.267	186.859	191.554	178.027	190.793	-8191	255	
3251.364	1	1	0	0	0.16698	0.15935	0.23084	0.1575	0.1242	0.2162	0.16448	0.35532	0.2475	0.23597	0.26823	0.17069	0.026862	0.16552	0.045482	0.29312	-4.0167	-4.9792	-4.2083	-4.7292	-4.8146	-4.1125	-5.1104	-4.8	-4.1708	-5.1104	-4.4708	-4.7	-5.0042	-4.1125	-4.9	-4.6375	243.357	181.522	211.099	236.647	369.550	435.152	514.461	434.304	479.549	400.678	517.145	171.769	265.452	197.863	471.010	450.841	0.00051215	0.00027529	0.00013014	1362.6	3.1433e-06	1.1432e-05	1358.1	369.25	5.771e-06	4.838e-06	418.42	140.01	122.47	41.723	5.6448e-07	51.872	0.00058599	0.00058654	0.00016262	1386.4	6.3886e-06	6.4195e-06	1381.2	376.25	6.4554e-06	6.4133e-06	429.75	144.17	125.49	43.232	6.5258e-06	53.597	255.127	319.875	187.557	177.924	471.746	258.584	177.592	182.631	317.451	320.204	181.931	186.164	186.863	191.271	350.560	190.659	-8191	255	
3251.460	1	1	0	0	0.031427	0.078867	0.16887	0.14238	0.10682	0.17022	0.033473	0.43016	0.078407	0.091933	0.33227	0.23732	0.036709	0.11442	0.082932	0.026017	-3.9896	-5.1417	-4.3417	-4.6188	-4.9437	-4.1771	-4.9646	-4.8375	-4.2875	-5.125	-4.475	-4.2896	-5.0917	-4.2146	-4.6896	-4.9208	413.305	291.474	464.142	516.676	313.080	430.627	481.682	169.466	369.520	408.076	451.023	409.709	253.312	389.570	393.337	440.378	0.00042248	0.00065856	9.4289e-05	1362	5.0254e-06	7.8881e-06	1356.4	368.62	3.2567e-06	6.2923e-06	418.91	140.15	121.13	41.799	4.1584e-06	51.738	0.00060319	0.0006004	0.00016881	1388.2	6.63e-06	6.632e-06	1387.1	377.46	6.6471e-06	6.6233e-06	431.21	144.45	125.63	43.322	6.6408e-06	53.699	264.596	248.661	285.175	177.783	202.290	267.814	177.474	182.764	338.153	255.800	181.707	186.315	187.327	191.277	272.049	190.210	-8191	255	
3251.579	1	1	0	0	0.17246	0.084292	0.19501	0.24646	0.10807	0.077786	0.24729	0.25133	0.20775	0.17729	0.080242	0.16	0.14899	0.16903	0.22315	0.24284	-3.7625	-5.1229	-4.5208	-4.4083	-5.1042	-4.0958	-4.8542	-4.9104	-4.1896	-5.0125	-4.6125	-4.4271	-5.1083	-4.3229	-4.7542	-4.9917	434.381	199.819	419.385	174.897	418.165	313.254	472.951	471.234	368.252	441.153	330.294	189.366	186.186	504.501	473.696	217.756	0.00048102	0.00028319	0.00017584	1359.4	4.3197e-06	4.4926e-06	1361.7	367.34	1.0869e-05	5.8314e-06	417.98	139.66	121.81	41.774	3.9948e-06	51.47	0.00061029	0.00061236	0.00017134	1390.9	6.7563e-06	6.724e-06	1390.4	378.2	6.7831e-06	6.7781e-06	431.78	145.11	126.2	43.497	6.8342e-06	53.836	267.626	227.871	204.273	177.923	333.840	337.974	177.635	182.531	266.207	306.310	182.008	186.341	187.211	191.309	414.577	190.886	-8191	255	
3251.675	1	1	0	0	0.04749	0.072167	0.22426	0.14406	0.23901	0.094745	0.12954	0.051016	0.25501	0.071261	0.21096	0.26772	0.21534	0.13976	0.17614	0.35511	-3.7521	-4.9896	-4.6083	-4.3562	-5.0208	-4.3562	-4.8187	-4.9688	-4.1229	-4.8854	-4.5479	-4.3646	-5.1979	-4.2292	-4.5375	-5.0917	222.775	514.226	310.453	171.809	211.030	334.072	509.263	213.985	199.541	363.510	491.587	433.199	455.806	510.376	485.495	442.090	0.00038632	0.00018475	8.6767e-05	1355.7	9.3416e-06	4.3528e-06	1362.2	368.58	1.7821e-06	7.1077e-06	419.21	140.1	121.75	41.716	5.9122e-06	51.364	0.00062422	0.00062782	0.00017549	1394.1	6.8291e-06	6.8763e-06	1392	378.85	6.8438e-06	6.7978e-06	432.55	144.98	125.94	43.448	6.8337e-06	53.845	250.091	229.201	431.589	177.842	297.305	265.823	177.686	182.577	316.073	320.282	181.789	186.342	187.072	191.384	308.754	190.799	-8191	255	
3251.771	1	1	0	0	0.042189	0.17876	0.035042	0.15166	0.011698	0.056162	0.16286	0.1874	0.14749	0.13324	0.074799	0.082336	0.13727	0.011395	0.11824	0.06838	-3.8833	-4.8833	-4.75	-4.2479	-4.9979	-4.4479	-4.8146	-5.1167	-4.0167	-4.9917	-4.8854	-4.2896	-5.1146	-4.5646	-4.4021	-5.1542	272.851	231.513	379.197	184.478	195.092	493.127	384.407	466.750	406.391	409.998	518.011	512.779	454.983	307.869	217.324	453.609	0.00044541	0.00049614	0.00015915	1353.8	4.3737e-06	2.3942e-06	1359.5	368.22	9.4863e-06	4.7117e-06	418.78	140.01	121.76	41.756	3.9626e-06	51.894	0.00062444	0.00062666	0.00017585	1393.7	6.8015e-06	6.892e-06	1390.5	378.87	6.8695e-06	6.8683e-06	433.24	144.95	126.26	43.499	6.8898e-06	53.941	249.779	344.275	345.172	177.794	283.263	291.299	177.704	182.788	225.108	302.213	181.800	186.505	186.792	191.388	496.844	190.502	-8191	255	
3251.867	1	1	0	0	0.10948	0.12534	0.13545	0.20685	0.099541	0.022654	0.21499	0.032613	0.097202	0.24937	0.22783	0.077992	0.17566	0.20011	0.25557	0.24952	-3.95	-4.6979	-4.9667	-4.2875	-5.0312	-4.5687	-4.3438	-5.2271	-4.2167	-4.5729	-5.0521	-4.2479	-4.8396	-4.6667	-4.375	-5.2688	176.796	434.962	404.784	469.466	281.005	343.674	487.647	507.609	384.951	329.367	437.561	398.137	249.402	186.282	316.401	452.241	0.00047865	0.00051863	8.2006e-05	1365.3	4.044e-06	7.2896e-06	1353.2	367.83	6.0576e-06	5.4698e-06	420.72	139.49	121.76	41.722	5.0622e-06	51.873	0.00063046	0.00063271	0.00017649	1394.8	6.8534e-06	6.9201e-06	1388.9	377.76	6.8581e-06	6.8362e-06	432.71	144.58	126.37	43.497	6.8187e-06	53.832	262.960	321.711	450.426	177.726	372.795	238.249	177.530	182.437	316.601	294.277	181.997	186.475	186.634	191.420	228.807	190.735	-8191	255	
3251.964	1	1	0	0	0.12241	0.047484	0.20054	0.10677	0.075768	0.24894	0.39884	0.29536	0.17948	0.081336	0.13077	0.131	0.057971	0.22069	0.1602	0.15866	-4.0938	-4.5583	-5.0563	-4.2083	-4.9917	-4.7104	-4.4833	-5.1896	-4.4021	-4.6125	-5.1271	-4.2771	-4.8458	-4.7521	-4.2479	-5.1604	286.483	265.396	215.629	224.648	515.286	371.505	488.417	483.713	413.925	305.877	395.820	170.810	483.609	164.860	416.661	190.871	0.00044292	0.00070847	0.00023659	1366.5	6.8662e-06	1.1388e-05	1360.7	369.8	5.3225e-06	2.1564e-06	421.64	139.9	121.77	41.585	7.5528e-06	52.061	0.00062791	0.00063115	0.00017521	1394.6	6.879e-06	6.9175e-06	1391.8	379.03	6.9581e-06	6.9654e-06	433.94	145.24	126.72	43.466	6.9448e-06	53.995	280.455	261.372	255.254	177.820	421.885	295.135	177.824	182.709	296.354	424.978	181.770	186.428	187.056	191.375	329.811	190.723	-8191	255	
3252.060	1	1	0	0	0.19651	0.045736	0.083064	0.096637	0.047419	0.095354	0.072312	0.20024	0.088772	0.17637	0.13076	0.20876	0.19977	0.17537	0.10631	0.14588	-4.1479	-4.5854	-5.1646	-4.2271	-4.8271	-4.7146	-4.4771	-5.1292	-4.4167	-4.4062	-5.175	-4.3063	-4.8417	-4.8604	-4.2	-5.2375	430.090	437.482	272.114	191.203	431.090	368.107	430.288	329.595	499.528	523.170	519.043	292.467	261.753	165.792	201.008	392.373	0.00058632	0.00057111	0.00011262	1362.8	1.0201e-05	4.6177e-06	1361.7	368.06	3.6928e-06	2.8832e-06	419.2	140.14	122	41.779	8.3461e-06	51.69	0.00063891	0.00063852	0.00017782	1396.1	6.9714e-06	7.0019e-06	1392.7	379.14	6.9685e-06	7.0278e-06	433.25	145.12	126.65	43.542	6.9039e-06	53.974	270.954	315.430	458.628	177.841	332.268	302.365	177.577	182.612	417.836	304.582	181.977	186.442	186.974	191.579	244.660	190.948	-8191	255	
3252.180	1	1	0	0	0.057283	0.26918	0.11468	0.084441	0.10473	0.14212	0.17196	0.065698	0.1473	0.24894	0.07726	0.10861	0.164	0.18227	0.083495	0.16521	-4.2042	-4.2562	-5.1167	-4.3438	-4.6104	-4.9521	-4.3708	-5.1542	-4.5062	-4.2854	-5.2438	-4.3375	-4.7167	-5.1458	-4.1771	-5.2125	420.623	320.707	249.396	430.661	337.993	216.552	369.760	377.619	252.291	517.114	462.451	179.916	497.303	515.137	235.678	331.753	0.00052521	0.00043936	0.0001284	1367.4	7.5845e-06	5.7359e-06	1366.2	369.16	5.7419e-06	2.6372e-06	420.44	140.17	121.77	41.645	8.4556e-07	51.943	0.00063553	0.00063854	0.00017639	1398.6	7.0393e-06	7.0119e-06	1393.2	379.58	7.0289e-06	6.9848e-06	433.12	145.24	126.68	43.579	6.9493e-06	54.031	272.559	221.609	308.058	178.056	350.042	342.706	177.823	182.334	214.670	178.126	181.770	186.415	186.942	191.784	451.345	190.428	-8191	255	
3252.275	1	1	0	0	0.32644	0.16569	0.16871	0.10299	0.23682	0.21854	0.22865	0.14914	0.2219	0.11742	0.18153	0.14566	0.2315	0.1688	0.17953	0.052909	-4.4042	-4.1646	-5.025	-4.5146	-4.6062	-5.0437	-4.1813	-4.9604	-4.7812	-4.1354	-5.1729	-4.3167	-4.6104	-5.1021	-4.0771	-4.7896	212.613	396.860	384.513	208.261	321.062	457.284	466.488	482.431	487.597	427.499	463.234	410.244	473.091	405.417	265.596	261.124	0.00058687	0.00017656	0.0002137	1363.5	6.1423e-06	7.2155e-06	1366	367.74	8.8031e-06	2.7137e-06	418.65	140.43	122.07	41.762	4.4223e-06	51.555	0.00064508	0.00064604	0.00017819	1398.2	7.032e-06	7.016e-06	1394.5	379.62	7.0393e-06	6.9844e-06	433.74	145.35	126.77	43.544	6.9248e-06	54.01	259.204	442.123	493.366	177.994	246.171	208.077	177.517	182.587	244.539	334.523	181.859	186.247	186.812	191.443	293.490	190.616	-8191	255	
3252.371	1	1	0	0	0.17458	0.16554	0.15413	0.20402	0.19994	0.11919	0.1953	0.072917	0.15073	0.21343	0.073807	0.16774	0.36172	0.11708	0.11883	0.14174	-4.4875	-4.2167	-4.9521	-4.6021	-4.3333	-5.0333	-4.2708	-4.825	-4.7812	-4.1562	-5.1458	-4.5938	-4.2375	-5.1604	-4.0958	-4.5979	400.760	347.880	466.959	497.420	197.113	292.888	452.239	426.795	459.720	298.700	446.380	190.483	503.596	392.833	417.419	511.047	0.00051734	0.00057779	0.00014852	1361.8	1.0863e-06	4.3193e-06	1363.1	367.34	4.4731e-06	2.802e-06	421.97	140.29	122.08	41.687	1.0671e-06	51.654	0.00063865	0.00063886	0.00017889	1397.9	7.0155e-06	6.9648e-06	1393.5	379.48	7.0636e-06	7.0401e-06	434.55	145.51	126.83	43.561	7.0348e-06	54.071	250.427	335.048	290.033	177.778	264.859	408.184	177.702	182.288	323.429	334.044	181.691	186.677	186.810	191.365	501.666	190.485	-8191	255	
3252.444	1	1	0	0	0.085023	0.29043	0.11317	0.071834	0.066023	0.22967	0.18639	0.61855	0.022945	0.036655	0.071221	0.17236	0.080923	0.1755	0.031017	0.081949	-4.6208	-4.1292	-5.0188	-4.6562	-4.3208	-5.1167	-4.5771	-4.65	-4.925	-4.0542	-5.0208	-4.7	-4.3792	-5.1312	-4.2729	-4.6792	308.398	399.810	355.134	510.209	444.931	395.702	431.877	505.202	196.948	350.945	516.366	475.312	408.430	352.378	434.728	354.320	0.00048764	0.00017439	0.0002505	1360.6	3.8197e-06	7.0193e-06	1363.2	368.72	1.0335e-05	4.5038e-06	419.88	140.23	121.75	41.733	1.0131e-05	51.679	0.00064227	0.00064573	0.0001792	1399.7	7.0455e-06	7.0309e-06	1394.9	379.76	7.0251e-06	7.0611e-06	434.35	145.82	126.77	43.643	7.0635e-06	54.13	271.399	521.504	289.603	177.849	252.585	299.453	177.666	182.535	315.984	313.417	181.929	186.447	186.813	191.262	326.416	190.498	-8191	255	
3252.563	1	1	0	0	0.099636	0.14741	0.19942	0.068527	0.16267	0.086016	0.022874	0.1142	0.14736	0.068054	0.08695	0.16113	0.064316	0.22703	0.076872	0.15069	-4.4833	-4.1104	-4.8667	-4.7833	-4.2	-5.0104	-4.4875	-4.5062	-4.9854	-4.2188	-4.8167	-4.7979	-4.2958	-5.1396	-4.5021	-4.6875	217.973	314.648	246.386	190.122	356.050	427.154	464.612	416.698	306.072	363.944	271.991	422.347	405.532	513.319	446.527	426.185	0.0006834	0.00077437	0.00026525	1362.7	7.3112e-06	5.0443e-06	1361.5	368.33	4.3318e-06	5.0807e-06	419.65	139.71	121.55	41.68	2.3909e-06	51.713	0.00064106	0.00064662	0.00017938	1400.1	7.0435e-06	7.0069e-06	1395.3	379.49	6.9956e-06	7.0217e-06	433.93	145.38	126.7	43.575	7.0052e-06	53.906	274.694	395.227	288.841	177.856	312.268	293.289	177.770	182.444	251.477	348.310	181.942	186.279	186.462	191.417	209.912	190.409	-8191	255	
3252.659	1	1	0	0	0.072872	0.015033	0.16905	0.18027	0.10523	0.10045	0.14863	0.2581	0.19035	0.17632	0.12771	0.15279	0.065424	0.15745	0.35668	0.10713	-4.7854	-4.15	-4.6021	-5	-4.175	-5.0833	-4.6687	-4.5813	-5.0771	-4.1146	-4.8875	-5.0354	-4.3313	-5.25	-4.5625	-4.3771	336.764	199.582	319.259	465.980	184.701	167.860	402.948	443.426	253.261	376.157	210.559	462.449	217.464	199.610	275.967	496.210	0.00043695	0.00094154	9.629e-05	1368.8	1.0337e-05	3.6508e-06	1360.7	366.14	4.0053e-06	5.815e-06	419.51	139.93	121.85	41.703	6.7209e-06	51.719	0.00063374	0.00064127	0.0001783	1397.8	6.9591e-06	6.9702e-06	1393	378.8	6.94e-06	7.0038e-06	433.26	145.17	126.58	43.482	6.9646e-06	54.042	252.408	317.541	258.483	177.755	390.616	307.432	177.633	182.584	312.701	337.031	182.103	186.543	186.914	191.294	423.262	190.448	-8191	255	
3252.755	1	1	0	0	0.29225	0.086512	0.23854	0.25657	0.034382	0.12458	0.035811	0.13601	0.16194	0.13471	0.055056	0.058664	0.3015	0.15295	0.067596	0.022496	-4.8417	-4.2688	-4.5729	-5.0958	-4.1125	-4.8417	-4.9521	-4.4354	-5.1396	-4.2812	-4.6208	-4.9354	-4.0771	-5.0062	-4.7208	-4.375	261.474	484.495	353.279	320.997	361.009	238.420	185.765	485.707	341.569	273.746	504.240	179.638	208.999	354.934	314.725	486.305	0.00062901	0.00077681	9.1849e-05	1360.4	6.469e-06	1.6655e-06	1363.4	366.98	8.4397e-06	5.3109e-06	420.53	140.71	121.38	41.632	2.792e-07	51.597	0.00063334	0.00063973	0.00017766	1396.5	6.9532e-06	7.0169e-06	1392.5	378.66	6.9036e-06	6.969e-06	433.7	145.21	126.32	43.512	6.9492e-06	53.867	267.113	288.715	271.549	177.715	332.232	244.917	177.731	182.468	326.380	362.859	181.855	186.352	186.777	191.093	487.618	190.403	-8191	255	
3252.852	1	1	0	0	0.1211	0.17781	0.18421	0.1205	0.1156	0.13521	0.23419	0.20987	0.13432	0.18533	0.13772	0.12737	0.21603	0.12772	0.074959	0.13559	-4.9583	-4.4062	-4.4313	-5.1396	-4.2521	-4.6604	-5.0542	-4.3125	-4.9938	-4.4563	-4.4021	-4.8354	-4.2583	-4.6396	-4.7562	-4.2271	507.018	180.102	493.666	514.356	376.735	221.271	455.700	461.497	241.975	262.820	300.768	411.345	503.004	411.457	294.741	482.093	0.00066886	0.00025078	0.00014742	1362.2	3.6767e-06	1.795e-06	1366.6	368.24	1.0198e-05	5.064e-06	419.42	140.12	121.78	41.801	8.2184e-06	51.705	0.00063396	0.00064117	0.00017765	1396.3	6.9764e-06	7.0066e-06	1394.4	378.86	6.9655e-06	7.0121e-06	433.41	145.09	126.54	43.527	6.8857e-06	53.941	255.387	452.076	299.059	177.900	305.191	227.813	177.578	182.431	249.666	277.982	181.736	186.593	187.084	191.308	290.491	190.371	-8191	255	
3252.948	1	1	0	0	0.088322	0.16477	0.096031	0.073473	0.21954	0.11123	0.35467	0.070184	0.15998	0.12655	0.37255	0.038615	0.22607	0.075293	0.10502	0.16041	-4.7188	-4.4292	-4.3458	-5.2688	-4.2812	-4.6729	-5.1	-4.3063	-5.0542	-4.6771	-4.2375	-5.0292	-4.4667	-4.7146	-4.9354	-4.1479	401.392	228.707	454.368	259.181	367.012	521.673	470.015	334.854	466.818	218.888	495.749	434.738	442.460	421.462	299.467	228.478	0.00052158	0.00042639	7.8953e-05	1361.9	4.5722e-06	8.9044e-06	1363.3	370	6.8235e-06	7.9985e-06	419.75	140.47	121.63	41.589	2.2983e-06	51.388	0.00062942	0.00063815	0.00017503	1397.2	6.9128e-06	6.9221e-06	1391.4	378.61	6.919e-06	6.9687e-06	432.94	145.26	126.37	43.514	6.8937e-06	53.901	249.511	190.963	262.068	177.814	247.667	255.398	177.740	182.503	267.370	375.419	181.859	186.064	187.243	191.432	273.594	190.695	-8191	255	
3253.044	1	1	0	0	0.095549	0.036887	0.20136	0.2129	0.076479	0.13652	0.23671	0.094679	0.17481	0.20921	0.077544	0.21105	0.25615	0.094661	0.073564	0.23122	-4.4583	-4.6292	-4.2271	-5.1896	-4.3542	-4.5375	-5.2521	-4.2771	-4.8479	-4.75	-4.2562	-5.0271	-4.4938	-4.5125	-5.05	-4.1479	452.128	376.345	296.003	509.915	414.149	341.858	428.964	483.530	209.139	191.900	274.753	481.641	499.461	405.185	307.548	417.123	0.00044098	0.00071396	0.00022529	1368	6.5559e-06	4.9501e-06	1362.8	368.92	1.0627e-05	1.7935e-06	421.2	140.68	122.09	41.71	1.1588e-05	51.761	0.00063856	0.00064229	0.0001778	1397.8	7.0771e-06	7.0475e-06	1394.4	379.55	7.0732e-06	7.0438e-06	434.27	145.77	126.97	43.604	7.0227e-06	54.154	262.803	203.076	199.442	178.123	522.641	451.041	177.755	182.420	377.170	346.113	181.945	186.185	186.885	191.338	294.347	190.457	-8191	255	
3253.140	1	1	0	0	0.10722	0.27429	0.10144	0.30031	0.11327	0.02158	0.076075	0.17214	0.19833	0.12831	0.23142	0.20241	0.28928	0.048882	0.10681	0.11855	-4.5375	-4.8146	-4.1042	-5.1375	-4.4208	-4.4479	-5.2625	-4.325	-4.5813	-4.8812	-4.3562	-4.9958	-4.5667	-4.5458	-5.0896	-4.3083	463.107	484.790	398.323	475.493	301.428	411.107	417.698	387.148	280.234	454.164	485.069	447.700	496.484	422.037	183.814	457.139	0.00047897	0.00015682	5.2848e-05	1360.5	2.4498e-06	1.5142e-06	1367	369.34	2.629e-06	9.8115e-06	419.5	140.42	122.21	41.938	4.1317e-06	51.801	0.00064572	0.00064838	0.00017964	1399.9	7.1541e-06	7.0706e-06	1396.4	379.97	7.065e-06	7.0385e-06	434.27	145.56	127.13	43.664	7.0046e-06	54.132	263.903	270.116	268.492	177.859	517.989	340.915	177.833	182.535	185.181	374.265	181.861	186.101	186.817	191.182	197.251	190.631	-8191	255	
3253.261	1	1	0	0	0.08791	0.098467	0.22536	0.18643	0.30519	0.28999	0.075501	0.065353	0.056282	0.064782	0.19624	0.16459	0.028665	0.11536	0.22026	0.19903	-4.3458	-4.9375	-4.125	-5.0521	-4.6542	-4.3521	-5.2667	-4.3792	-4.5583	-4.9938	-4.3187	-4.9	-4.8542	-4.4375	-5.1667	-4.2917	262.877	233.921	334.893	269.991	383.427	358.575	429.368	442.097	187.972	490.749	217.332	495.138	237.069	227.201	412.224	500.147	0.00047181	0.00048605	0.00023898	1368.9	5.536e-06	9.4274e-07	1358.3	368.8	6.6097e-06	6.6288e-06	420.3	140.83	121.95	41.727	8.7815e-06	51.954	0.00064557	0.00064816	0.00018076	1402.2	7.109e-06	7.0813e-06	1394	379.83	7.0867e-06	7.0478e-06	434.57	145.89	127.08	43.634	7.057e-06	54.19	257.913	187.399	271.454	177.882	316.856	273.775	177.824	182.609	333.297	293.031	181.849	186.198	186.962	191.615	330.122	190.646	-8191	255	
3253.357	1	1	0	0	0.051835	0.2232	0.10889	0.17276	0.31358	0.027385	0.17066	0.14651	0.11444	0.13613	0.27315	0.090745	0.23176	0.18246	0.05451	0.076098	-4.2854	-5.0021	-4.0625	-5.0042	-4.775	-4.1521	-5.2771	-4.5625	-4.3292	-5.1687	-4.3812	-4.9062	-4.8604	-4.2104	-4.9437	-4.575	185.849	205.399	381.193	493.951	341.090	227.829	244.498	491.196	485.312	462.320	189.417	278.215	181.586	503.538	467.078	400.253	0.00056146	0.00099366	0.000114	1363.8	6.8832e-06	2.8425e-06	1368.5	368.12	4.1123e-06	4.8797e-06	420.44	140.91	122.04	41.72	1.2018e-06	51.635	0.00064831	0.00064922	0.00018183	1401.4	7.1779e-06	7.1097e-06	1398.6	380.08	7.1373e-06	7.1125e-06	435.73	146.11	127.19	43.685	7.1427e-06	54.187	249.700	265.964	320.514	177.931	329.078	480.210	177.580	182.363	251.822	354.240	182.023	186.383	187.009	191.213	484.582	190.766	-8191	255	
3253.451	1	1	0	0	0.073249	0.093101	0.17626	0.27311	0.17106	0.080551	0.15063	0.19279	0.062845	0.082075	0.20998	0.055341	0.088677	0.089876	0.28653	0.19719	-4.0437	-5.0583	-4.3208	-4.7875	-4.8833	-4.2188	-5.2125	-4.6562	-4.4375	-5.2958	-4.4229	-4.8354	-4.8812	-4.1562	-5.0563	-4.7792	265.353	261.835	282.543	481.982	295.489	170.132	174.003	510.792	360.540	507.848	449.140	416.290	204.667	391.768	177.101	238.708	0.00049595	9.3495e-05	0.00018247	1364.7	6.1163e-06	4.8769e-06	1368.1	369.87	1.4546e-05	7.5754e-06	420.7	140.66	121.65	41.75	9.1567e-06	51.382	0.00065227	0.00064735	0.00018225	1403	7.0949e-06	7.0705e-06	1397.9	380.22	6.9992e-06	6.9934e-06	434.97	145.62	126.77	43.588	6.9781e-06	54.021	262.627	516.136	257.645	177.880	334.845	502.094	177.691	182.838	275.769	340.262	181.920	186.068	186.956	191.372	296.171	190.852	-8191	255	
3253.549	1	1	0	0	0.25933	0.10024	0.15086	0.24324	0.32357	0.16537	0.15607	0.13812	0.081665	0.14073	0.085635	0.12156	0.095752	0.12963	0.15025	0.09399	-3.8771	-5.0125	-4.2917	-4.5042	-4.9604	-4.0792	-5.0896	-4.7438	-4.2979	-5.0208	-4.4729	-4.5104	-5.1104	-4.2146	-4.8313	-4.9313	492.941	192.948	167.028	236.434	500.495	223.950	422.111	198.749	485.349	187.472	459.300	520.018	441.923	514.747	242.280	440.425	0.00046263	0.00046307	6.0412e-05	1367.9	4.3797e-06	5.856e-06	1363.5	366.71	2.1193e-06	2.7347e-06	419.29	140.38	121.98	41.733	5.0122e-06	51.898	0.00063697	0.00063963	0.00017911	1398.7	6.9373e-06	6.9747e-06	1392.5	378.85	6.8297e-06	6.9092e-06	433.38	145.23	126.41	43.488	6.8739e-06	53.925	253.693	403.544	228.640	177.779	322.690	233.281	177.669	182.448	242.183	335.595	181.829	186.301	186.904	191.566	212.989	190.633	-8191	255	
3253.668	1	1	0	0	0.27121	0.16229	0.026647	0.1922	0.13282	0.2876	0.18183	0.086422	0.043387	0.27241	0.22974	0.24917	0.089203	0.16258	0.061096	0.25073	-3.9083	-5.0792	-4.4792	-4.4167	-5.0062	-4.1479	-4.9062	-5.0708	-4.1271	-4.975	-4.7312	-4.3604	-5.2167	-4.3917	-4.7312	-5.0083	507.222	339.456	406.751	453.070	306.950	205.305	472.973	452.187	334.693	199.535	505.804	182.140	378.143	483.107	427.969	458.233	0.00057565	0.00042362	0.000133	1363.8	6.0982e-06	1.2859e-06	1362.7	368.23	7.3433e-06	5.2001e-07	418.28	139.92	122.12	41.641	5.4266e-06	51.67	0.00062339	0.00063015	0.00017501	1395.5	6.7825e-06	6.8631e-06	1391.4	378.2	6.8055e-06	6.8287e-06	432.47	145.17	126.44	43.469	6.9053e-06	53.907	264.907	188.886	223.061	177.913	275.137	305.212	177.719	182.350	421.407	482.048	182.064	186.251	186.886	191.419	241.112	190.753	-8191	255	
3253.740	1	1	0	0	0.27178	0.1405	0.1803	0.11199	0.34162	0.17087	0.28553	0.16353	0.22663	0.16943	0.062307	0.17398	0.19087	0.11613	0.10298	0.051543	-3.8479	-4.9875	-4.5667	-4.5792	-4.9583	-4.1479	-4.8271	-5.2667	-4.1104	-5.0687	-4.7729	-4.5417	-5.1604	-4.3417	-4.6542	-5.1562	300.709	519.983	244.269	428.190	199.776	369.545	477.334	514.474	241.683	201.286	493.099	176.752	507.788	509.499	486.715	323.105	0.00063238	0.00029839	6.621e-05	1364.9	3.0243e-06	4.6273e-06	1363.8	370.15	7.6102e-06	4.9244e-06	421.96	140.92	121.69	41.753	7.0904e-06	51.926	0.00063314	0.00064046	0.0001784	1397.1	6.9776e-06	7.0545e-06	1394.7	379.48	7.0096e-06	7.0071e-06	434.46	145.85	126.63	43.6	6.9945e-06	53.992	256.802	247.077	326.812	177.858	411.414	290.079	177.608	182.414	249.395	305.495	182.078	186.454	186.839	191.397	346.415	190.318	-8191	255	
3253.860	1	1	0	0	0.17349	0.26954	0.21393	0.25694	0.16206	0.081635	0.21448	0.30149	0.35496	0.13827	0.10716	0.41374	0.2202	0.054948	0.13731	0.21238	-3.8	-4.9	-4.7896	-4.4	-5.05	-4.3833	-4.6937	-5.15	-4.0875	-4.8042	-4.9271	-4.3708	-5.1687	-4.7021	-4.4396	-5.2458	385.199	289.878	200.391	499.144	168.836	446.905	449.833	490.328	366.040	242.234	241.425	524.476	226.310	458.338	253.263	488.918	0.00053185	0.00046261	5.8781e-05	1366.1	6.9145e-06	4.3067e-06	1365.3	370.27	9.0093e-06	5.1595e-06	421.11	140.71	121.41	41.798	8.7038e-06	51.63	0.00064518	0.00064307	0.00017893	1399.2	6.9752e-06	6.9568e-06	1392.4	379.25	6.8756e-06	6.8061e-06	433.26	144.88	126.04	43.442	6.6469e-06	53.706	262.469	281.845	219.722	177.956	246.316	506.525	177.776	182.520	261.253	232.727	182.049	186.289	186.693	191.268	334.213	190.561	-8191	255	
3253.956	1	1	0	0	0.052191	0.046705	0.16342	0.071709	0.31842	0.045273	0.29496	0.18175	0.2138	0.11267	0.31762	0.053049	0.09183	0.24459	0.064382	0.30041	-3.7792	-4.8313	-4.8083	-4.2438	-4.925	-4.4083	-4.6458	-5.1417	-4.2229	-4.7375	-5.1625	-4.3104	-4.9104	-4.725	-4.3354	-5.325	477.013	459.876	253.208	202.086	349.643	344.646	431.554	476.429	297.394	194.027	524.139	504.388	523.956	495.612	342.503	484.412	0.00060877	0.00015401	7.1938e-05	1360.8	5.3944e-06	3.4788e-06	1361.6	370.55	3.5715e-06	4.3708e-06	419.51	139.25	121.55	41.685	7.8954e-06	51.803	0.00060815	0.0006063	0.00016707	1388.4	6.603e-06	6.5795e-06	1386	377.82	6.6411e-06	6.6329e-06	430.86	144.51	126.04	43.438	6.7444e-06	53.879	258.454	343.909	414.665	177.797	348.026	235.438	177.734	182.377	340.462	404.644	182.303	186.135	186.797	191.521	292.545	190.677	-8191	255	
3254.053	1	1	0	0	0.15143	0.21273	0.016915	0.26609	0.15585	0.060919	0.11856	0.25381	0.053694	0.17393	0.1635	0.10741	0.14545	0.067454	0.094853	0.18447	-3.9813	-4.7021	-4.9104	-4.1438	-4.8417	-4.7396	-4.3771	-5.225	-4.4479	-4.4833	-5.1271	-4.1854	-4.9229	-4.7063	-4.125	-5.3	372.845	182.498	410.861	461.388	295.262	318.927	426.014	419.572	235.076	478.773	449.011	257.773	197.989	510.247	198.875	190.013	0.0005747	0.00035604	0.00018271	1367.9	1.0497e-05	4.7753e-06	1365.6	369.19	8.5808e-07	6.1097e-06	420.93	140.28	122.07	41.712	1.0019e-05	51.869	0.00063065	0.00063102	0.00017605	1399.3	6.9567e-06	6.9095e-06	1394.9	379.56	6.9239e-06	6.8464e-06	433.26	145.34	126.46	43.446	6.7638e-06	53.99	258.155	489.155	262.822	177.705	285.819	184.799	177.609	182.626	521.173	310.194	181.831	185.941	186.820	191.485	336.959	190.453	-8191	255	
3254.149	1	1	0	0	0.24307	0.053804	0.18376	0.073876	0.10247	0.067561	0.2802	0.32792	0.14065	0.16842	0.13037	0.16174	0.053617	0.063317	0.18685	0.12135	-3.9896	-4.4958	-4.9854	-4.4125	-4.8292	-4.7896	-4.3104	-5.075	-4.3854	-4.3771	-5.05	-4.2896	-4.875	-4.9125	-4.1	-5.2	317.088	205.749	369.466	489.989	475.190	351.921	511.786	169.280	459.321	419.793	399.947	509.814	222.754	391.664	279.476	421.991	0.00053898	0.00034652	0.00010717	1365.3	3.6693e-06	4.6136e-06	1362.5	370.97	1.068e-05	4.1987e-06	422.12	140.36	122.22	41.912	3.686e-06	51.673	0.00062395	0.0006207	0.00017328	1397.1	6.7699e-06	6.756e-06	1393	379.08	6.7749e-06	6.6702e-06	432.74	144.86	126.16	43.432	6.6741e-06	53.823	252.517	295.810	259.793	177.985	441.685	169.252	177.633	182.689	301.084	402.423	182.237	186.342	186.688	191.241	391.808	190.495	-8191	255	
3254.245	1	1	0	0	0.1827	0.055882	0.11608	0.3389	0.24614	0.076402	0.12119	0.18492	0.14306	0.16087	0.032081	0.13838	0.22171	0.15417	0.3737	0.20066	-4.1979	-4.3167	-5.0479	-4.325	-4.6521	-4.9604	-4.3646	-5.1667	-4.6104	-4.2167	-5.2312	-4.2854	-4.7104	-4.9208	-4.0375	-5.0375	430.783	407.282	350.600	499.346	203.781	269.185	449.038	496.825	442.092	261.244	358.246	263.398	219.039	464.778	460.136	432.377	0.00040359	0.000365	0.00016343	1360.4	8.9409e-06	4.5077e-06	1364.9	369.01	4.523e-06	6.8567e-06	418.14	140.14	121.61	41.574	4.3837e-06	51.728	0.00061395	0.00060873	0.00017106	1394.6	6.7319e-06	6.7204e-06	1392.6	378.58	6.7682e-06	6.7241e-06	432.67	144.97	126.24	43.395	6.7261e-06	53.856	272.897	282.136	351.534	178.058	270.529	521.250	177.640	182.367	459.903	255.212	181.923	186.428	186.513	191.336	314.847	190.478	-8191	255	
3254.341	1	1	0	0	0.10645	0.12095	0.05463	0.091567	0.13045	0.13424	0.30606	0.047348	0.082847	0.26101	0.15893	0.23769	0.1907	0.10758	0.18019	0.17722	-4.4062	-4.3396	-4.9667	-4.5229	-4.5687	-4.9708	-4.2	-4.8938	-4.6333	-4.1562	-5.0792	-4.4167	-4.4667	-5.1354	-4.2125	-4.9458	361.082	308.398	384.883	179.301	282.325	515.590	406.201	376.099	386.856	361.588	402.098	452.671	482.739	429.300	472.391	430.878	0.0004936	0.00013579	0.00013058	1362.5	4.0016e-06	4.6123e-06	1369.1	370.58	7.8489e-07	2.5286e-06	420.72	140.03	122.47	41.659	4.9432e-06	51.698	0.00061683	0.00061601	0.00017258	1397.2	6.7055e-06	6.7095e-06	1396.5	379.2	6.7602e-06	6.7427e-06	432.77	144.97	126.35	43.399	6.7117e-06	53.822	263.061	273.605	216.175	177.668	449.188	311.125	177.709	182.386	252.323	232.893	182.034	186.091	186.857	191.406	279.095	190.726	-8191	255	
3254.437	1	1	0	0	0.05851	0.12677	0.073528	0.20131	0.32511	0.23994	0.35285	0.099614	0.13792	0.020317	0.061005	0.11063	0.092151	0.1541	0.13602	0.15309	-4.5188	-4.175	-5.1604	-4.6375	-4.3354	-5.0333	-4.2333	-4.8583	-4.65	-4.1896	-5.2	-4.6375	-4.4396	-5.1021	-4.1708	-4.7292	403.442	394.359	313.322	503.319	294.808	311.262	488.581	420.057	428.483	241.849	368.218	339.739	331.180	462.107	505.507	505.684	0.00049664	0.00088554	0.00019941	1362	4.9034e-06	6.7516e-06	1364.8	368.26	8.2114e-07	3.8495e-06	420.8	140.41	121.67	41.722	4.3474e-06	51.643	0.00060971	0.0006129	0.00017038	1392.7	6.6369e-06	6.6488e-06	1391.5	377.85	6.6026e-06	6.6365e-06	432.16	144.8	125.92	43.368	6.6229e-06	53.7	256.092	258.391	260.510	177.867	313.053	321.776	177.730	182.448	224.439	503.861	181.858	186.267	186.892	191.504	244.329	190.598	-8191	255	
3254.533	1	1	0	0	0.040175	0.056718	0.10864	0.27097	0.1195	0.071253	0.28457	0.18681	0.12465	0.085212	0.063115	0.21847	0.127	0.17299	0.2041	0.0845	-4.5083	-4.125	-4.7688	-4.6042	-4.2042	-5.1417	-4.4417	-4.6	-4.8542	-4.1729	-5.0375	-4.65	-4.3187	-5.15	-4.4292	-4.4729	254.625	256.349	353.515	171.047	273.495	478.935	181.702	477.837	444.771	492.157	368.446	446.480	203.443	433.527	421.716	470.176	0.00053734	0.0003162	0.00027576	1363.9	1.0426e-05	3.6061e-06	1367.3	369.61	7.1136e-06	2.7011e-06	419.19	140.24	122.19	41.789	4.6997e-06	51.665	0.00059816	0.00060658	0.00016749	1393.9	6.5356e-06	6.621e-06	1391.3	377.72	6.5853e-06	6.6194e-06	432.14	144.53	125.86	43.416	6.5948e-06	53.714	265.044	279.048	224.107	177.732	310.930	252.880	177.672	182.673	233.633	315.468	182.047	186.291	186.970	191.565	263.432	190.345	-8191	255	
3254.630	1	1	0	0	0.074694	0.13737	0.10945	0.15812	0.13306	0.15569	0.16554	0.21909	0.085041	0.21454	0.15681	0.16641	0.24105	0.096233	0.12322	0.14854	-4.6771	-4.1146	-4.975	-5.0062	-4.1687	-5.0437	-4.4729	-4.6687	-4.7667	-4.2083	-4.875	-4.8771	-4.1604	-5.1562	-4.3146	-4.4729	353.247	457.608	428.975	498.326	240.375	231.146	185.695	455.505	375.095	262.141	476.080	212.288	519.238	398.134	309.983	164.618	0.00046324	0.00086243	0.00016047	1362.3	4.0593e-06	5.9238e-06	1359.2	367.94	3.161e-06	9.7267e-06	421.98	140.67	121.69	41.943	7.362e-06	51.9	0.00059489	0.0006016	0.00016559	1391.6	6.4379e-06	6.4689e-06	1387.3	375.94	6.3993e-06	6.3647e-06	431.01	144.19	125.26	43.243	6.307e-06	53.404	244.261	294.699	220.600	177.795	308.262	260.867	177.689	182.348	417.121	372.871	182.090	186.269	186.600	191.358	277.298	190.587	-8191	255	
3254.748	1	1	0	0	0.17455	0.15395	0.1882	0.23625	0.042248	0.18768	0.25665	0.16505	0.27754	0.046772	0.096589	0.14346	0.22908	0.028755	0.1361	0.15141	-4.6792	-3.9771	-4.7167	-4.9437	-4.0583	-5.0021	-4.5271	-4.3104	-5.2146	-4.2625	-4.7854	-5.0417	-4.1813	-4.9833	-4.5958	-4.4292	316.377	395.537	498.579	474.373	322.028	247.639	504.080	378.862	262.146	240.397	487.018	488.317	304.299	261.822	273.250	208.364	0.00051196	0.00034954	0.00024763	1363.3	7.4329e-06	2.5908e-06	1358.7	368.33	8.6665e-06	8.9063e-06	418.46	140.29	121.81	41.806	4.7409e-06	51.768	0.00057563	0.0005788	0.00015935	1386.5	6.2705e-06	6.2538e-06	1382.1	375.9	6.2328e-06	6.2549e-06	429	143.66	125.22	43.147	6.2307e-06	53.336	263.445	259.505	242.875	177.841	252.657	361.106	177.912	182.489	466.469	325.762	182.021	186.540	186.849	191.562	448.875	190.495	-8191	255	
3254.845	1	1	0	0	0.11502	0.34387	0.065764	0.25391	0.13241	0.20944	0.39696	0.28982	0.099728	0.15407	0.12514	0.18322	0.12453	0.1255	0.10997	0.14568	-4.6813	-4.3458	-4.7167	-5.0208	-4.0208	-4.9583	-4.7354	-4.3417	-5.0083	-4.2438	-4.7958	-5.1021	-4.2458	-4.9563	-4.7083	-4.3729	236.736	180.612	254.837	493.086	260.519	442.445	471.821	504.197	497.129	198.188	435.051	485.464	519.743	456.328	460.495	415.347	0.00048333	0.00031565	5.8709e-05	1367.1	4.2071e-06	1.0069e-05	1363.8	368.61	1.5243e-05	3.815e-06	419.54	140.07	122.22	42.011	3.4815e-06	51.789	0.00056663	0.00057099	0.0001565	1384.6	6.2027e-06	6.1478e-06	1382.8	375.3	6.1411e-06	6.1335e-06	428.67	143.63	124.89	43.067	6.0796e-06	53.265	262.157	286.109	275.651	177.797	329.654	333.839	177.782	182.288	263.980	302.521	181.991	186.545	186.697	191.643	265.768	190.482	-8191	255	
3254.941	1	1	0	0	0.30199	0.065767	0.06073	0.42053	0.16085	0.10226	0.18924	0.11003	0.15883	0.066749	0.067455	0.092149	0.13443	0.19496	0.19093	0.091595	-4.9958	-4.4062	-4.4437	-5.075	-4.05	-4.7979	-4.9292	-4.2375	-4.925	-4.4729	-4.6042	-5.2479	-4.25	-4.8167	-4.8562	-4.3625	315.121	409.668	196.150	464.225	215.910	181.856	439.840	455.795	179.756	231.460	372.258	262.431	494.343	210.094	460.701	502.656	0.00063368	0.00062747	0.00020879	1365.1	4.9388e-06	9.6665e-06	1359.6	367.28	3.4886e-06	2.2222e-06	420.25	140.61	121.46	41.714	2.2138e-06	52.062	0.00056042	0.00056254	0.00015471	1384	6.1724e-06	6.0716e-06	1382.1	375.04	6.0962e-06	6.053e-06	427.79	143.58	124.48	42.958	6.0077e-06	53.183	259.888	257.557	513.917	177.920	211.712	268.046	177.818	182.548	259.510	369.824	181.778	186.396	186.893	191.290	438.634	190.547	-8191	255	
3255.037	1	1	0	0	0.2188	0.077189	0.20507	0.088124	0.064713	0.086858	0.39157	0.26451	0.1413	0.11137	0.14043	0.13646	0.19082	0.29244	0.10221	0.16586	-4.5729	-4.5188	-4.3125	-5.1146	-4.2854	-4.6708	-5.025	-4.2188	-4.9146	-4.5479	-4.2625	-5.0958	-4.225	-4.9104	-5.0021	-4.1813	304.082	433.721	519.491	471.869	480.484	278.040	464.685	169.434	411.270	509.331	179.481	522.668	447.793	499.976	250.926	455.112	0.00045955	0.00027575	0.00012707	1363	2.0811e-06	9.0739e-06	1358.8	367.56	8.5538e-06	7.7555e-06	422.27	140.73	121.7	41.88	6.3136e-06	51.716	0.00055742	0.00055181	0.00015346	1384.6	6.0554e-06	5.985e-06	1382.6	375.26	5.9921e-06	5.9671e-06	428.41	143.27	124.51	42.89	5.9299e-06	53.112	259.574	360.421	263.263	177.792	265.372	302.280	177.575	182.465	223.567	356.323	181.740	186.408	187.032	191.375	276.160	190.844	-8191	255	
3255.133	1	1	0	0	0.18671	0.018383	0.12316	0.12084	0.071176	0.18968	0.27783	0.10025	0.17283	0.057543	0.25983	0.16231	0.06147	0.12785	0.059646	0.1255	-4.6271	-4.6062	-4.2417	-5.0083	-4.2542	-4.5042	-5.2625	-4.1396	-4.8063	-4.8562	-4.3792	-5.0021	-4.3458	-4.5479	-5.0854	-4.2812	437.984	444.783	172.207	518.363	329.103	436.795	428.311	479.656	259.977	307.685	520.074	211.652	512.696	424.180	238.628	439.063	0.00049803	0.00045156	0.00011767	1364.6	3.7895e-06	6.0615e-07	1365.8	369.66	1.0844e-05	2.0961e-06	419.97	139.55	122.8	41.784	2.9429e-06	51.39	0.00054124	0.00054599	0.00015102	1383.3	5.9298e-06	5.8983e-06	1383.2	374.75	5.8516e-06	5.7855e-06	426.66	142.77	124.25	42.801	5.7199e-06	52.778	259.902	216.656	275.198	177.830	266.419	254.585	177.813	182.579	314.693	278.459	181.905	186.443	187.083	191.129	314.022	190.539	-8191	255	
3255.229	1	1	0	0	0.023132	0.15977	0.058182	0.084012	0.090632	0.29804	0.074707	0.22538	0.31543	0.092887	0.086377	0.29283	0.31842	0.1671	0.37818	0.1904	-4.4792	-4.8063	-4.1021	-5.1896	-4.2396	-4.3521	-5.1229	-4.1104	-4.5083	-4.7812	-4.2021	-5.0854	-4.5917	-4.3958	-4.9125	-4.4667	303.565	469.744	205.560	350.948	464.427	521.106	321.177	185.474	324.836	451.565	431.814	171.413	514.248	434.637	209.855	374.198	0.00047163	0.00047775	0.00014212	1367.5	2.6533e-06	4.2132e-06	1362.9	370.26	7.8326e-06	1.4772e-06	419.19	141.21	121.69	41.912	2.903e-06	51.979	0.00051836	0.00051949	0.0001451	1380.4	5.7021e-06	5.6935e-06	1379.7	373.79	5.6248e-06	5.6414e-06	426.12	142.94	123.65	42.69	5.5968e-06	52.816	260.078	271.913	272.069	177.920	324.015	497.984	177.762	182.423	314.262	337.862	182.110	186.336	187.009	191.347	452.929	190.818	-8191	255	
3255.350	1	1	0	0	0.12734	0.13416	0.070914	0.25362	0.075009	0.14903	0.17323	0.18979	0.26516	0.098603	0.018953	0.14313	0.037307	0.10436	0.044062	0.22395	-4.2688	-4.9625	-4.175	-5.075	-4.5667	-4.2646	-5.1937	-4.3292	-4.6583	-4.9604	-4.0271	-4.9208	-4.6854	-4.3333	-5.0958	-4.4583	435.714	509.112	168.201	207.984	317.826	412.554	481.884	431.513	507.945	187.776	170.766	280.285	465.333	488.406	198.056	408.959	0.00043911	0.0005473	0.00018595	1361.6	3.012e-06	4.5707e-06	1366.6	369.11	4.4669e-06	2.2105e-06	420.39	139.63	121.83	41.798	5.4274e-06	51.839	0.00051155	0.0005128	0.00014292	1375.2	5.5519e-06	5.5865e-06	1378.5	372.67	5.5663e-06	5.6111e-06	425.39	142.33	123.41	42.652	5.6432e-06	52.829	267.504	344.850	218.462	177.819	426.863	241.814	177.724	182.429	324.903	495.620	181.479	186.230	186.633	191.568	255.044	190.581	-8191	255	
3255.444	1	1	0	0	0.075916	0.1425	0.18019	0.16037	0.25476	0.13043	0.07682	0.23772	0.042028	0.19848	0.10133	0.15948	0.0507	0.17129	0.062358	0.043192	-4.1833	-4.925	-4.0813	-4.9375	-4.7917	-3.9875	-5.275	-4.425	-4.4396	-5.0125	-4.225	-4.8292	-4.8479	-4.3458	-4.9792	-4.4729	355.838	446.266	345.668	509.966	379.754	203.462	482.238	464.862	392.364	324.304	172.716	222.526	386.725	219.992	485.749	370.795	0.00047395	0.00061587	0.00015489	1363.6	1.5763e-06	5.6062e-06	1366	368.35	6.5247e-06	4.0194e-06	422.28	140.15	121.63	41.905	3.9737e-06	51.782	0.00051608	0.0005191	0.00014684	1376.9	5.7051e-06	5.7603e-06	1382.3	373.63	5.7948e-06	5.8693e-06	427.37	142.93	124.21	42.977	5.969e-06	53.101	270.937	318.052	181.920	177.826	207.059	374.217	177.736	182.315	263.629	508.633	181.944	185.966	187.111	191.544	288.369	190.635	-8191	255	
3255.540	1	1	0	0	0.14798	0.21326	0.11691	0.087228	0.13905	0.038295	0.12637	0.25183	0.2036	0.29033	0.027831	0.21287	0.31752	0.086033	0.10073	0.14554	-3.9938	-5.0542	-4.1396	-4.6958	-4.8833	-4.1542	-5.2229	-4.6687	-4.3458	-5.0479	-4.3042	-4.8146	-4.9396	-4.2188	-5.05	-4.625	455.991	342.685	450.731	444.279	423.822	402.795	495.576	166.527	189.817	354.980	263.708	433.513	414.277	499.722	325.301	447.657	0.00050548	3.6619e-05	0.00011318	1361.2	1.2803e-06	8.6065e-06	1364	367.41	7.7045e-06	1.4757e-05	419.96	140.59	122.9	41.715	5.1745e-06	51.557	0.00055088	0.0005563	0.00015581	1384.2	6.1765e-06	6.2219e-06	1383.7	375.95	6.2771e-06	6.4117e-06	430.81	144.17	125.53	43.205	6.3327e-06	53.258	261.660	518.567	475.288	177.778	351.860	332.596	177.632	182.410	512.378	342.623	182.128	186.188	186.825	191.246	239.028	190.470	-8191	255	
3255.636	1	1	0	0	0.16107	0.17978	0.23797	0.06478	0.092865	0.16015	0.17944	0.2134	0.097249	0.10172	0.10726	0.089975	0.16777	0.14025	0.078488	0.10724	-4.0062	-5.1375	-4.2396	-4.7167	-4.9292	-4.0729	-5.1188	-4.6771	-4.3375	-5.0833	-4.3771	-4.7583	-5.1146	-4.3292	-5.025	-4.8896	512.058	418.180	436.971	356.466	293.160	326.386	398.139	478.214	295.463	350.849	451.834	180.485	428.541	473.862	342.066	255.976	0.00044985	0.0004437	8.806e-05	1356.6	5.1585e-06	5.2435e-06	1358.4	368.76	5.7193e-06	6.802e-06	418.4	140.64	122.04	41.694	1.0031e-05	51.475	0.00057786	0.00057746	0.00015949	1379.8	6.2073e-06	6.2996e-06	1380.4	374.78	6.3051e-06	6.3473e-06	429.37	144.1	125.44	43.219	6.5556e-06	53.641	267.532	289.259	412.584	177.765	278.002	272.875	177.971	182.552	249.997	324.285	182.026	186.412	186.863	191.380	292.897	190.631	-8191	255	
#DATA ENDS
