BOXY.EXE: ISS Imagent and Oximeter Data Acquisition Program Version 0.80
Ascii Record File

#ACQ INFORMATION
2  Detector Channels 
16  External MUX Channels 
1  Auxiliary Channels 
5000  Waveform (CCF) Frequency (Hz)
1  Waveforms Skipped 
30  Waveforms Averaged 
1  Cycles Averaged 
16  Acquisitions per Waveform 
10.0806  Updata Rate (Hz) 

#FILE INFORMATION
TRUE -- External MUX Channel results are PARSED.
FALSE -- AC DC and Phase are NOT grouped.
TRUE -- Companion Program Settings File CREATED.
FALSE -- AC data not excluded
FALSE -- DC data not excluded
FALSE -- Phase data not excluded
FALSE -- Auxillary Chn. data not excluded
Tab delimiters

#CALIBRATION STATE
TRUE -- Waveform Calibration Values APPLIED.


#AUX CALIBRATION VALUES
Val Type	aux-1	

Term	1.0000e+00	
Factor	0.0000e+00	


#WF CALIBRATION VALUES
A = Detector Channel
Val Type	A-AC1	A-AC2	A-AC3	A-AC4	A-AC5	A-AC6	A-AC7	A-AC8	A-AC9	A-AC10	A-AC11	A-AC12	A-AC13	A-AC14	A-AC15	A-AC16	A-DC1	A-DC2	A-DC3	A-DC4	A-DC5	A-DC6	A-DC7	A-DC8	A-DC9	A-DC10	A-DC11	A-DC12	A-DC13	A-DC14	A-DC15	A-DC16	A-Ph1	A-Ph2	A-Ph3	A-Ph4	A-Ph5	A-Ph6	A-Ph7	A-Ph8	A-Ph9	A-Ph10	A-Ph11	A-Ph12	A-Ph13	A-Ph14	A-Ph15	A-Ph16	

Term	0.00000e+00	0.00000e+00	0.00000e+00	0.00000e+00	0.00000e+00	0.00000e+00	0.00000e+00	0.00000e+00	0.00000e+00	0.00000e+00	0.00000e+00	0.00000e+00	0.00000e+00	0.00000e+00	0.00000e+00	0.00000e+00	0.00000e+00	0.00000e+00	0.00000e+00	0.00000e+00	0.00000e+00	0.00000e+00	0.00000e+00	0.00000e+00	0.00000e+00	0.00000e+00	0.00000e+00	0.00000e+00	0.00000e+00	0.00000e+00	0.00000e+00	0.00000e+00	0.00000e+00	0.00000e+00	0.00000e+00	0.00000e+00	0.00000e+00	0.00000e+00	0.00000e+00	0.00000e+00	0.00000e+00	0.00000e+00	0.00000e+00	0.00000e+00	0.00000e+00	0.00000e+00	0.00000e+00	0.00000e+00	
Factor	1.00000e+00	1.00000e+00	1.00000e+00	1.00000e+00	1.00000e+00	1.00000e+00	1.00000e+00	1.00000e+00	1.00000e+00	1.00000e+00	1.00000e+00	1.00000e+00	1.00000e+00	1.00000e+00	1.00000e+00	1.00000e+00	1.00000e+00	1.00000e+00	1.00000e+00	1.00000e+00	1.00000e+00	1.00000e+00	1.00000e+00	1.00000e+00	1.00000e+00	1.00000e+00	1.00000e+00	1.00000e+00	1.00000e+00	1.00000e+00	1.00000e+00	1.00000e+00	X	X	X	X	X	X	X	X	X	X	X	X	X	X	X	X	

B = Detector Channel
Val Type	B-AC1	B-AC2	B-AC3	B-AC4	B-AC5	B-AC6	B-AC7	B-AC8	B-AC9	B-AC10	B-AC11	B-AC12	B-AC13	B-AC14	B-AC15	B-AC16	B-DC1	B-DC2	B-DC3	B-DC4	B-DC5	B-DC6	B-DC7	B-DC8	B-DC9	B-DC10	B-DC11	B-DC12	B-DC13	B-DC14	B-DC15	B-DC16	B-Ph1	B-Ph2	B-Ph3	B-Ph4	B-Ph5	B-Ph6	B-Ph7	B-Ph8	B-Ph9	B-Ph10	B-Ph11	B-Ph12	B-Ph13	B-Ph14	B-Ph15	B-Ph16	

Term	0.00000e+00	0.00000e+00	0.00000e+00	0.00000e+00	0.00000e+00	0.00000e+00	0.00000e+00	0.00000e+00	0.00000e+00	0.00000e+00	0.00000e+00	0.00000e+00	0.00000e+00	0.00000e+00	0.00000e+00	0.00000e+00	0.00000e+00	0.00000e+00	0.00000e+00	0.00000e+00	0.00000e+00	0.00000e+00	0.00000e+00	0.00000e+00	0.00000e+00	0.00000e+00	0.00000e+00	0.00000e+00	0.00000e+00	0.00000e+00	0.00000e+00	0.00000e+00	-6.52519e+01	-1.12272e+02	-1.40546e+02	-1.81760e+02	-6.76519e+01	-1.21665e+02	-1.56710e+02	-1.62015e+02	-7.69798e+01	-7.43317e+01	-1.71259e+02	-1.70793e+02	-1.83439e+02	-1.78028e+02	-8.90177e+01	-1.50152e+02	
Factor	1.93908e-05	8.47056e-05	2.70298e-05	2.28357e-01	9.52142e-07	1.06308e-06	1.77083e-01	6.50480e-02	1.16910e-06	1.01617e-06	9.54342e-02	3.47082e-02	3.35300e-02	1.00324e-02	1.07200e-06	1.43386e-02	6.12713e-07	6.25095e-07	1.73856e-07	1.09696e-01	6.82513e-09	6.83262e-09	8.13591e-02	3.12826e-02	6.82206e-09	6.81802e-09	4.37548e-02	1.58284e-02	1.56341e-02	4.75119e-03	6.80086e-09	6.48096e-03	X	X	X	X	X	X	X	X	X	X	X	X	X	X	X	X	



#DISTANCE SETTINGS
A = Detector Channel
A-1	A-2	A-3	A-4	A-5	A-6	A-7	A-8	A-9	A-10	A-11	A-12	A-13	A-14	A-15	A-16	

2.5000e+00	3.0000e+00	2.5000e+00	3.0000e+00	2.0000e+00	3.0000e+00	1.5000e+00	3.0000e+00	3.0000e+00	3.0000e+00	3.0000e+00	3.0000e+00	3.0000e+00	3.0000e+00	1.5000e+00	3.0000e+00	

B = Detector Channel
B-1	B-2	B-3	B-4	B-5	B-6	B-7	B-8	B-9	B-10	B-11	B-12	B-13	B-14	B-15	B-16	

1.0000e+01	1.0000e+01	1.0000e+01	1.4400e+00	1.0000e+01	1.0000e+01	1.5100e+00	1.9400e+00	1.0000e+01	1.0000e+01	1.9900e+00	2.4900e+00	2.4100e+00	2.9000e+00	1.0000e+01	2.9800e+00	




#DATA BEGINS
time	group	step	mark	flag	A-AC1	A-AC2	A-AC3	A-AC4	A-AC5	A-AC6	A-AC7	A-AC8	A-AC9	A-AC10	A-AC11	A-AC12	A-AC13	A-AC14	A-AC15	A-AC16	A-DC1	A-DC2	A-DC3	A-DC4	A-DC5	A-DC6	A-DC7	A-DC8	A-DC9	A-DC10	A-DC11	A-DC12	A-DC13	A-DC14	A-DC15	A-DC16	A-Ph1	A-Ph2	A-Ph3	A-Ph4	A-Ph5	A-Ph6	A-Ph7	A-Ph8	A-Ph9	A-Ph10	A-Ph11	A-Ph12	A-Ph13	A-Ph14	A-Ph15	A-Ph16	B-AC1	B-AC2	B-AC3	B-AC4	B-AC5	B-AC6	B-AC7	B-AC8	B-AC9	B-AC10	B-AC11	B-AC12	B-AC13	B-AC14	B-AC15	B-AC16	B-DC1	B-DC2	B-DC3	B-DC4	B-DC5	B-DC6	B-DC7	B-DC8	B-DC9	B-DC10	B-DC11	B-DC12	B-DC13	B-DC14	B-DC15	B-DC16	B-Ph1	B-Ph2	B-Ph3	B-Ph4	B-Ph5	B-Ph6	B-Ph7	B-Ph8	B-Ph9	B-Ph10	B-Ph11	B-Ph12	B-Ph13	B-Ph14	B-Ph15	B-Ph16	aux-1	digaux	

4932.460	1	1	0	512	0.25876	0.053378	0.0462	0.21617	0.10852	0.10977	0.1827	0.17977	0.14482	0.058974	0.046598	0.095703	0.11644	0.17855	0.067773	0.22157	-3.6667	-4.3021	-4.7021	-3.9813	-4.5437	-4.4271	-3.9896	-4.8229	-4.1687	-4.1854	-4.9688	-3.9125	-4.5354	-4.6417	-3.8021	-4.9417	159.376	231.741	223.267	283.035	193.255	-39.216	227.963	115.964	116.767	175.345	281.365	149.544	52.807	267.471	312.417	282.732	0.0002235	0.00026911	7.267e-05	467.19	5.9728e-06	6.2257e-06	722.55	148.54	5.162e-06	9.5311e-06	296.6	110.75	48.347	17.184	7.8898e-07	43.628	0.00018685	0.00018578	5.0987e-05	458.55	2.0053e-06	2.0154e-06	693.74	144.58	1.9834e-06	2.01e-06	277.87	103.99	47.354	16.94	2.0014e-06	40.509	194.267	2.268	98.085	-30.590	67.760	62.621	-29.612	-25.334	215.558	44.350	-26.092	-21.221	-21.258	-17.484	-30.312	-18.451	-8191	255	
4932.556	1	1	0	0	0.15637	0.091097	0.23208	0.052526	0.29342	0.071571	0.18187	0.076567	0.16769	0.05974	0.1848	0.090088	0.12548	0.069374	0.13656	0.11295	-3.8542	-4.125	-4.6917	-4.2167	-4.5938	-4.7792	-4.0896	-4.8896	-4.3708	-3.9521	-4.9208	-4.0229	-4.3187	-4.6854	-3.7292	-4.7833	113.524	-28.709	191.074	313.176	285.038	77.281	-35.340	89.146	111.360	-24.309	231.521	257.683	-0.776	-25.376	259.585	204.586	0.00017152	0.00020796	0.00010578	472.84	3.067e-06	2.9328e-06	728.8	150.24	1.9463e-06	3.6712e-06	297.47	110.44	48.329	17.533	4.4101e-06	43.546	0.00018217	0.00018186	4.9503e-05	460.32	1.9562e-06	1.9513e-06	699.82	145.9	1.9616e-06	1.9383e-06	279.19	104.22	47.247	17.037	1.9511e-06	40.316	215.285	-32.673	53.732	-30.097	-4.956	136.083	-29.348	-25.048	-1.668	52.349	-25.694	-21.114	-20.948	-17.826	75.398	-18.415	-8191	255	
4932.677	1	1	0	0	0.0056588	0.10472	0.082708	0.030884	0.15074	0.21477	0.031972	0.18396	0.096111	0.19155	0.075832	0.17992	0.069852	0.12823	0.12321	0.037834	-4.3125	-3.9979	-4.8292	-4.0833	-4.2229	-4.8333	-4.0021	-4.8292	-4.5521	-3.9958	-4.8708	-4.1333	-4.2833	-4.7854	-3.7854	-4.75	231.943	54.121	259.736	257.583	204.336	75.825	295.319	225.108	165.185	71.147	45.514	50.050	105.125	233.369	73.632	168.839	0.00016163	0.00014717	0.00017558	472.87	3.135e-06	4.8451e-06	722.33	146.97	4.095e-06	5.1661e-06	290.23	108.57	46.625	17.062	5.9604e-06	42.541	0.00017918	0.00017793	4.9264e-05	461.99	1.9353e-06	1.9308e-06	693.24	142.85	1.9005e-06	1.9092e-06	272.04	101.6	45.9	16.543	1.8766e-06	39.433	171.136	-42.725	54.764	-30.162	138.297	199.028	-29.726	-25.337	95.555	137.235	-25.865	-21.168	-21.264	-18.000	102.212	-18.859	-8191	255	
4932.773	1	1	0	0	0.2846	0.10741	0.2488	0.29305	0.19566	0.050242	0.051263	0.24238	0.17615	0.14127	0.074597	0.218	0.041422	0.27409	0.13392	0.1584	-4.2375	-3.8917	-5.0188	-4.1271	-4.2354	-4.8938	-4.125	-4.4917	-4.6438	-4	-4.8896	-4.4104	-4.2729	-4.9542	-3.8688	-4.4688	86.980	197.616	302.631	251.203	149.647	259.623	183.604	98.896	121.362	-28.755	216.000	163.252	-42.490	7.517	104.058	303.459	0.00013937	0.000322	9.0711e-05	470.51	3.6928e-06	1.6047e-06	717.91	146.1	5.3118e-06	4.9602e-06	290.17	108.59	47.403	17.334	1.3167e-07	43.382	0.00017445	0.00017216	4.679e-05	456.92	1.8697e-06	1.8801e-06	691.09	142.21	1.8873e-06	1.886e-06	272.52	102.15	46.344	16.76	1.8653e-06	40.009	200.128	48.777	58.894	-30.169	52.078	83.728	-29.438	-25.304	175.896	59.606	-25.805	-20.993	-21.114	-17.404	93.838	-18.517	-8191	255	
4932.869	1	1	0	0	0.078135	0.19338	0.0075283	0.12783	0.19967	0.098343	0.30245	0.11858	0.20216	0.015682	0.19834	0.060658	0.15351	0.091701	0.15701	0.16112	-4.3854	-3.975	-4.7188	-4.3167	-4.0021	-4.8583	-4.1021	-4.3479	-4.7104	-3.7125	-4.7792	-4.4583	-4.0333	-4.7833	-3.9938	-4.3208	162.465	149.838	218.026	-23.640	106.943	179.110	247.690	245.928	261.007	259.536	278.999	160.805	254.260	312.605	196.511	-28.294	0.0002021	0.00018465	0.00014457	475.41	3.9939e-06	4.7542e-06	721.16	147.23	7.0237e-06	5.1373e-06	295.64	109.3	47.832	17.355	4.6746e-06	43.769	0.00017408	0.00017192	4.779e-05	460.37	1.8794e-06	1.8522e-06	694.52	143.27	1.8614e-06	1.8641e-06	275.21	102.77	46.583	16.909	1.8872e-06	40.43	207.954	249.351	297.979	-30.062	61.419	43.763	-29.564	-25.429	117.304	140.087	-25.776	-21.017	-21.059	-17.563	74.397	-18.539	-8191	255	
4932.963	1	1	0	0	0.12862	0.018105	0.084898	0.091357	0.11875	0.042736	0.018349	0.17634	0.081875	0.055298	0.13619	0.074801	0.12184	0.16767	0.21075	0.18335	-4.3583	-3.825	-4.5458	-4.4625	-3.9417	-4.8708	-4.2042	-4.0667	-4.6146	-3.9167	-4.5271	-4.5979	-3.9792	-4.8042	-4.0208	-4.2917	315.373	-9.340	24.971	200.704	169.113	-18.026	-36.960	251.294	229.755	105.830	173.287	97.978	246.370	217.102	253.681	276.424	0.00019604	0.00037882	6.8271e-05	478.05	2.9103e-06	4.966e-06	732.11	150.39	2.5969e-06	6.6152e-06	297.82	110.32	48.127	17.484	3.8842e-06	43.83	0.00017425	0.0001747	4.7885e-05	465.81	1.8927e-06	1.9025e-06	701.06	146.07	1.9353e-06	1.912e-06	278.36	103.69	46.96	17.048	1.9475e-06	40.632	219.221	108.942	8.896	-30.245	179.522	44.051	-29.457	-25.427	93.518	91.257	-25.827	-20.653	-20.965	-17.972	99.690	-18.346	-8191	255	
4933.059	1	1	0	0	0.2064	0.15516	0.025079	0.20434	0.057716	0.26518	0.087809	0.056776	0.20203	0.27604	0.108	0.28109	0.17424	0.092823	0.18358	0.27594	-4.7083	-3.8646	-4.2458	-4.6771	-3.9146	-4.7229	-4.3063	-4.0875	-4.8438	-3.8104	-4.3854	-4.7021	-3.925	-4.7792	-4.4271	-4.0271	71.004	227.307	204.452	165.056	101.561	261.288	223.716	271.815	11.822	-0.152	293.199	212.991	267.567	-10.468	97.551	-34.821	0.00017518	0.000179	7.2228e-05	475.29	3.1082e-06	1.9378e-06	721.33	147.38	3.1193e-06	1.2563e-06	291.12	108.79	47.384	17.128	6.1414e-07	42.397	0.00017925	0.00017697	4.9261e-05	461.35	1.9473e-06	1.9318e-06	692.71	143.44	1.9454e-06	1.9351e-06	273.67	102.32	46.532	16.666	1.9425e-06	39.494	187.194	19.980	-24.888	-30.505	82.211	-38.626	-29.341	-25.418	201.202	282.111	-26.222	-21.244	-21.334	-17.760	-21.482	-18.541	-8191	255	
4933.156	1	1	0	0	0.034308	0.097787	0.18443	0.19591	0.12022	0.13211	0.12606	0.24762	0.13356	0.2304	0.15302	0.20772	0.14022	0.26856	0.051175	0.18805	-4.5687	-4.0875	-4.4729	-4.8333	-3.9771	-4.5854	-4.5146	-3.8729	-4.8042	-4.1354	-4.3063	-4.6479	-3.8396	-4.6042	-4.3896	-4.0208	49.427	-16.569	157.124	275.646	227.011	-39.734	302.888	260.406	101.664	140.151	132.313	-7.574	172.486	256.670	72.366	240.043	8.3973e-05	0.00035269	0.00016811	470.56	5.7804e-06	4.7527e-06	715.87	147.41	3.9322e-06	3.1707e-06	292.01	109.06	47.497	17.29	5.4495e-06	43.085	0.00017977	0.00018066	5.0243e-05	458.63	1.973e-06	1.9403e-06	690.98	143.51	1.9497e-06	1.9593e-06	273.65	102.29	46.522	16.757	1.9573e-06	39.838	182.288	74.158	0.505	-30.674	134.448	-25.217	-29.517	-25.644	92.550	-21.156	-25.993	-20.962	-21.353	-18.024	74.698	-18.590	-8191	255	
4933.276	1	1	0	0	0.023934	0.11392	0.043547	0.18053	0.036546	0.017046	0.23813	0.19666	0.22818	0.045009	0.19879	0.18551	0.23084	0.13251	0.043191	0.19627	-4.5	-4.0708	-4.0917	-4.7896	-4.0333	-4.6708	-4.5938	-3.9979	-4.6917	-4.1896	-4.1771	-4.975	-3.9667	-4.475	-4.5792	-3.8875	12.638	209.650	238.829	5.796	176.953	29.962	-19.420	22.072	265.417	182.407	-8.267	45.945	295.292	-22.539	51.892	226.367	0.00015831	0.00033028	2.0332e-05	476.71	3.0744e-06	4.112e-06	720.21	149.28	5.1601e-06	4.3925e-06	294.62	109.07	48.169	17.307	1.0106e-06	42.969	0.00018172	0.00018167	5.0136e-05	463.13	1.9658e-06	1.9522e-06	694.56	144.7	1.9677e-06	1.9705e-06	275.66	102.87	47.058	16.873	1.9888e-06	39.988	205.131	160.183	101.394	-30.417	110.117	125.019	-29.666	-25.452	3.140	148.875	-25.290	-20.960	-21.123	-17.500	115.321	-19.002	-8191	255	
4933.372	1	1	0	0	0.11955	0.2292	0.17366	0.07444	0.22948	0.04123	0.13545	0.16444	0.31558	0.13601	0.18832	0.24369	0.282	0.044056	0.11852	0.18604	-4.4083	-4.2271	-3.9562	-4.8604	-3.8896	-4.4583	-4.6875	-3.9229	-4.6917	-4.3562	-4.0312	-4.8396	-4.1354	-4.45	-4.7583	-4.0813	106.416	254.341	115.611	262.486	37.796	296.722	279.141	29.246	22.098	75.701	233.853	-37.545	310.913	218.858	295.075	-40.255	0.0001501	0.00049895	0.00010123	478.75	3.2573e-06	3.0276e-06	724.9	149	2.3322e-06	5.8549e-06	294.59	110.15	48.089	17.324	2.7704e-06	42.792	0.00018646	0.00018457	5.1613e-05	465.66	2.0407e-06	2.0324e-06	698.86	145.59	2.0278e-06	2.0251e-06	276.94	103.14	47.057	16.883	2.0179e-06	39.765	219.942	43.555	110.554	-30.377	-11.444	285.459	-29.467	-25.210	309.955	61.471	-25.743	-21.184	-20.468	-18.146	147.038	-18.326	-8191	255	
4933.469	1	1	0	0	0.1788	0.15781	0.18327	0.23477	0.12942	0.15561	0.17591	0.25868	0.034015	0.16452	0.18565	0.082682	0.17593	0.096974	0.13959	0.13905	-4.3812	-4.4708	-3.8646	-4.9125	-4.0625	-4.2	-4.7188	-4.0271	-4.4688	-4.4313	-4.0583	-4.7667	-4.2042	-4.0604	-4.7771	-3.9437	-27.959	83.522	316.250	191.211	-17.313	293.571	276.902	150.913	298.378	48.811	123.195	-41.787	146.602	6.089	80.938	35.244	0.00020083	0.00030251	4.2643e-05	468.21	6.6903e-06	4.2754e-06	715.04	146.58	2.3665e-06	1.7796e-06	285.51	107.17	46.67	16.869	1.5078e-06	41.986	0.00018828	0.00018647	5.1451e-05	459.91	2.0115e-06	2.0354e-06	688.93	142.94	2.0295e-06	2.0311e-06	270.21	101.02	46.151	16.578	2.0645e-06	39.096	212.936	184.411	128.569	-29.976	74.590	126.699	-29.749	-25.197	133.058	99.993	-25.515	-20.820	-21.252	-17.865	3.148	-18.478	-8191	255	
4933.565	1	1	0	0	0.059232	0.055209	0.061387	0.13377	0.050874	0.013137	0.20226	0.13754	0.062863	0.18576	0.22747	0.26689	0.11222	0.10188	0.18078	0.052881	-4.1542	-4.5333	-4.0437	-4.6396	-4.2521	-4.125	-4.7833	-4.0646	-4.3917	-4.6937	-4.0458	-4.9104	-4.4167	-3.9771	-4.8104	-4.0583	31.181	61.125	-39.582	247.204	206.543	79.352	282.093	235.485	34.849	286.582	64.310	5.843	25.941	210.128	294.780	276.992	0.00012714	0.00049215	3.8963e-05	462.36	3.8434e-06	1.1388e-06	715.05	145.74	2.8754e-06	4.3941e-06	289	107.66	47.25	16.997	3.9398e-06	42.529	0.0001895	0.00018963	5.2238e-05	455.29	2.0452e-06	2.018e-06	686.47	142.63	2.0171e-06	2.0366e-06	271.09	101.32	46.536	16.653	2.0127e-06	39.464	214.287	26.051	217.990	-30.076	221.001	-8.405	-29.470	-25.195	100.623	116.185	-25.949	-20.995	-20.951	-18.167	46.817	-18.559	-8191	255	
4933.661	1	1	0	0	0.056809	0.13192	0.29734	0.077316	0.15494	0.0088933	0.22715	0.28194	0.16581	0.21754	0.42089	0.11555	0.14754	0.068354	0.070535	0.15471	-4.0687	-4.6312	-3.7792	-4.7562	-4.5083	-4.0229	-4.9042	-4.0604	-4.4083	-4.8083	-3.8917	-4.5646	-4.4062	-4.0583	-4.7333	-4.1875	-35.215	-3.980	226.816	235.029	223.129	-10.732	232.002	148.055	242.614	192.129	283.814	22.227	243.183	99.025	88.814	170.873	0.00015453	0.00069813	9.5307e-05	469.77	3.841e-06	7.7489e-07	718.22	146.84	5.2714e-06	5.2117e-06	291.34	108.68	48.002	17.108	4.8017e-06	42.906	0.00018633	0.00018499	5.1597e-05	459.87	2.0117e-06	2.0247e-06	691.4	143.34	2.0095e-06	2.0129e-06	273.7	102.23	46.571	16.736	1.9751e-06	39.881	233.946	65.711	51.653	-30.206	125.916	283.574	-29.471	-25.384	110.160	155.492	-25.624	-20.915	-20.867	-17.962	68.441	-18.303	-8191	255	
4933.757	1	1	0	0	0.074484	0.13924	0.020441	0.06786	0.12932	0.29441	0.087873	0.12752	0.20702	0.22391	0.052077	0.17493	0.10433	0.020796	0.10284	0.14394	-3.8354	-4.7083	-3.9771	-4.5583	-4.5396	-3.9375	-4.8979	-4.1708	-4.2646	-4.9417	-3.9958	-4.4313	-4.6854	-3.7667	-4.625	-4.3125	37.172	195.677	296.952	182.788	155.483	13.126	303.423	129.195	239.004	130.479	186.929	311.836	181.160	146.653	146.998	219.058	0.00019499	0.00033423	0.00010579	473.41	2.9906e-06	2.4216e-06	728.17	149.01	2.6636e-06	3.8599e-06	294.76	108.71	47.444	17.18	3.7114e-06	42.872	0.0001851	0.000183	5.0517e-05	463.28	2.0154e-06	2.0325e-06	698.94	144.95	2.032e-06	2.0287e-06	275.77	102.49	46.651	16.804	2.0206e-06	39.829	209.300	32.795	170.403	-30.462	314.934	67.567	-29.366	-25.032	121.715	78.759	-25.561	-21.002	-21.064	-17.600	86.509	-18.212	-8191	255	
4933.853	1	1	0	0	0.20972	0.10892	0.2671	0.058128	0.13022	0.27341	0.1528	0.17082	0.073791	0.20701	0.11784	0.034676	0.098303	0.12504	0.25243	0.11326	-3.9	-4.7917	-3.8208	-4.4042	-4.5604	-3.9417	-4.8396	-4.4729	-4.1771	-4.9146	-4.1375	-4.325	-4.8083	-3.8104	-4.8208	-4.4333	114.474	264.366	178.523	24.606	-26.792	-20.411	215.143	272.618	237.010	-14.131	246.571	43.758	246.150	173.412	70.347	115.590	0.00012513	0.00046644	0.00014243	469.56	3.1055e-06	2.5561e-06	713.58	144.82	4.6231e-06	8.9404e-06	284.86	106.8	46.252	16.905	4.7243e-06	41.888	0.00019206	0.00018784	5.2416e-05	460.97	2.0661e-06	2.0552e-06	689.61	142.4	2.0632e-06	2.0532e-06	269.89	100.82	45.865	16.56	2.0614e-06	38.997	211.981	55.958	105.948	-30.611	189.844	-19.723	-29.223	-25.659	55.922	125.579	-25.600	-21.088	-21.151	-18.090	105.751	-18.509	-8191	255	
4933.972	1	1	0	0	0.15397	0.17723	0.070465	0.11238	0.018035	0.12133	0.035366	0.062623	0.054997	0.11502	0.085693	0.027843	0.10525	0.10631	0.15131	0.15949	-3.7125	-4.8812	-3.9896	-4.3333	-4.6333	-3.9229	-4.6208	-4.5333	-3.7979	-4.8146	-4.1208	-4.2292	-4.6958	-3.7521	-4.4187	-4.5979	171.257	289.884	-32.340	91.984	129.253	59.373	271.584	48.681	-8.849	147.461	257.785	-19.243	236.986	-33.061	-37.551	280.767	0.00022255	0.00030944	0.00011379	463.61	4.66e-06	1.1821e-05	711.82	144.44	2.7892e-06	1.3502e-06	285.84	106.72	46.883	16.958	3.1373e-06	42.123	0.00019119	0.00018896	5.2685e-05	457.17	2.0954e-06	2.0833e-06	685.81	141.74	2.0936e-06	2.0616e-06	270.51	100.77	46.214	16.549	2.0917e-06	39.244	196.649	43.692	36.974	-30.389	176.030	56.201	-29.652	-24.898	123.774	39.252	-25.655	-21.469	-20.971	-17.850	189.835	-18.245	-8191	255	
4934.068	1	1	0	0	0.092301	0.12803	0.15429	0.1958	0.054506	0.091955	0.13875	0.11851	0.13016	0.091293	0.40839	0.061516	0.18382	0.23197	0.075267	0.16789	-3.5625	-4.8187	-4.2167	-4.1146	-4.8667	-3.9	-4.5813	-4.5604	-3.8229	-4.8042	-4.4042	-4.1646	-4.9542	-3.8063	-4.3438	-4.7875	51.174	5.829	202.629	262.105	40.884	257.865	296.572	143.066	71.848	143.884	281.438	303.371	164.344	225.795	8.954	251.829	0.00014429	0.0001875	5.8719e-05	469.68	4.4663e-06	1.1585e-06	714.81	147.08	4.7278e-06	1.312e-06	289.64	107.35	47.031	16.938	3.1369e-06	42.317	0.00019518	0.00019171	5.3916e-05	461.07	2.1224e-06	2.117e-06	691.07	143.13	2.1329e-06	2.135e-06	272.4	101.6	46.539	16.747	2.146e-06	39.583	210.805	308.767	198.145	-30.463	133.734	-21.917	-29.299	-25.424	-9.089	57.218	-25.800	-21.067	-21.108	-17.844	-10.157	-18.925	-8191	255	
4934.140	1	1	0	0	0.23514	0.24608	0.14792	0.12027	0.075588	0.08435	0.013071	0.25739	0.1336	0.18909	0.20509	0.26119	0.15046	0.19347	0.16101	0.05124	-3.4688	-4.8021	-4.1917	-4.0667	-4.7958	-4.0896	-4.3792	-4.8187	-3.9458	-4.7333	-4.4875	-4.0417	-4.925	-4.0792	-4.3854	-4.9583	202.158	-5.848	35.707	191.521	55.427	147.864	33.727	-9.824	129.922	70.372	133.801	-36.935	-39.831	71.572	-7.425	27.051	0.00014223	0.00021945	0.0001612	470.22	3.4219e-06	1.6928e-06	724.01	147.23	3.1516e-06	4.3464e-06	288.55	107.64	47.071	16.999	2.7621e-06	41.997	0.00020027	0.00019977	5.5505e-05	464.78	2.1918e-06	2.2024e-06	696.91	144.7	2.1822e-06	2.1706e-06	272.63	101.53	46.429	16.733	2.1829e-06	39.104	186.382	6.504	62.872	-30.585	193.907	60.903	-29.249	-25.255	157.691	151.471	-25.548	-20.973	-21.237	-17.619	184.380	-18.620	-8191	255	
4934.238	1	1	0	0	0.10703	0.24746	0.22575	0.17792	0.11071	0.17011	0.22045	0.34375	0.044106	0.022657	0.061338	0.21783	0.29662	0.1097	0.21134	0.11545	-3.675	-4.5813	-4.4333	-3.9417	-4.8146	-4.0896	-4.2063	-4.925	-3.9958	-4.6896	-4.5896	-3.8958	-4.8229	-4.1583	-4.0292	-4.9229	262.305	226.192	139.340	68.104	3.612	82.307	-14.339	247.821	-34.282	33.822	256.526	280.426	263.034	170.941	314.154	251.607	0.00013502	0.00044104	0.00014098	464.23	2.0019e-06	3.5654e-06	705.75	144.12	7.5057e-06	6.0324e-06	285.22	105.16	46.188	16.667	3.1217e-06	41.496	0.00020001	0.00019685	5.5287e-05	457.19	2.1298e-06	2.1367e-06	682.39	141.59	2.1319e-06	2.1048e-06	268.68	99.864	45.712	16.379	2.1194e-06	38.602	196.755	88.938	14.509	-30.754	57.491	46.772	-29.401	-25.534	162.429	-30.065	-25.897	-21.266	-20.806	-17.316	130.600	-18.936	-8191	255	
4934.357	1	1	0	0	0.16946	0.20076	0.13782	0.17756	0.070482	0.22298	0.16391	0.054814	0.087926	0.16642	0.11016	0.25553	0.094038	0.031386	0.13418	0.11398	-3.7938	-4.3583	-4.7604	-3.7792	-4.6229	-4.325	-3.9958	-4.9458	-3.8083	-4.2937	-4.8396	-3.9188	-4.7812	-4.4604	-4.0292	-4.8333	191.753	294.742	126.240	19.182	146.699	53.514	285.488	120.930	28.451	47.498	284.853	266.635	254.177	299.528	-0.033	102.444	0.00015724	0.00041843	0.00014476	465.74	1.3772e-06	7.9113e-06	708.03	145.27	4.8327e-06	6.2792e-06	288.28	107.25	47.113	16.781	6.9777e-06	42.177	0.00019461	0.00018961	5.3578e-05	456.81	2.0834e-06	2.1063e-06	683.65	141.98	2.0706e-06	2.0975e-06	270.65	101.02	46.223	16.538	2.0622e-06	39.245	176.835	152.655	72.569	-30.156	-10.598	37.662	-29.386	-25.346	199.267	39.696	-25.413	-21.265	-21.332	-17.301	242.279	-18.065	-8191	255	
4934.453	1	1	0	0	0.1431	0.15032	0.18025	0.10865	0.20344	0.21139	0.024581	0.076533	0.14516	0.077105	0.10106	0.24381	0.12195	0.059411	0.13414	0.1358	-3.8458	-4.2562	-4.7375	-3.8917	-4.6708	-4.4896	-4.1917	-4.9062	-4.1229	-4.1625	-4.7125	-3.8	-4.6813	-4.6271	-3.8271	-4.9167	32.361	69.171	-34.073	275.171	120.769	-15.073	125.734	265.595	47.454	0.723	39.785	222.403	128.937	-15.798	223.807	152.973	0.00015511	7.556e-05	4.3704e-05	467.57	5.8227e-06	1.5955e-06	713.02	145.65	2.0138e-06	1.9189e-06	288.22	107.46	47.467	17.055	3.125e-06	42.663	0.00019173	0.00019045	5.2798e-05	459.11	2.0763e-06	2.0673e-06	688.23	142.66	2.0543e-06	2.0679e-06	272.4	101.63	46.419	16.637	2.031e-06	39.614	215.204	222.119	17.403	-30.038	133.954	124.228	-29.356	-25.412	110.711	138.034	-25.911	-20.534	-20.888	-17.419	113.286	-18.686	-8191	255	
4934.549	1	1	0	0	0.20028	0.13186	0.025128	0.17638	0.063043	0.28817	0.0082931	0.18046	0.24974	0.075687	0.066333	0.41187	0.20983	0.17725	0.50378	0.091467	-3.9208	-3.9583	-4.5854	-3.9354	-4.3333	-4.6875	-3.8083	-4.8875	-4.1625	-4	-4.8625	-4.0979	-4.325	-4.6333	-3.9313	-4.725	244.957	184.658	80.605	127.653	147.539	26.590	242.518	240.845	313.792	-12.664	-20.784	307.875	-3.544	-43.125	-10.240	14.923	0.0001838	0.00014114	9.0965e-05	472.84	2.8267e-06	4.2032e-06	724.1	147.99	2.7677e-06	1.3448e-06	291.07	108.3	47.129	16.959	2.0638e-06	42.277	0.00018852	0.00018901	5.2322e-05	462.96	2.0293e-06	2.0638e-06	697.07	144.33	2.0661e-06	2.0488e-06	273.77	101.75	46.509	16.664	2.0061e-06	39.243	197.919	102.046	55.592	-30.322	134.848	79.923	-29.477	-25.514	222.608	8.081	-25.642	-21.138	-21.174	-17.838	120.342	-18.394	-8191	255	
4934.670	1	1	0	0	0.29424	0.16769	0.1639	0.057128	0.17222	0.38882	0.1174	0.080608	0.1027	0.19697	0.091454	0.17357	0.12546	0.11669	0.18014	0.14824	-4.0479	-3.9437	-4.8021	-4.025	-4.1875	-4.7646	-3.8854	-4.7146	-4.375	-4.1854	-4.9292	-3.9958	-4.3542	-4.8521	-3.8583	-4.65	234.480	141.047	32.929	188.446	211.484	-24.330	220.645	77.188	69.713	0.830	229.844	251.358	-9.075	243.827	171.110	284.459	0.00011676	0.00026914	6.6833e-05	468.89	4.7608e-06	1.9031e-06	712.73	145.28	2.0544e-06	3.7499e-06	286.71	106.17	46.71	16.607	4.9029e-06	41.477	0.00018782	0.00018317	5.1314e-05	457.23	2.0117e-06	1.9987e-06	684.78	141.87	2.0013e-06	1.9974e-06	269.31	100.15	45.724	16.309	2.0028e-06	38.518	225.802	83.232	39.404	-30.185	127.838	21.561	-29.158	-25.043	135.536	87.116	-25.537	-21.000	-21.476	-17.944	197.826	-18.313	-8191	255	
4934.764	1	1	0	0	0.095498	0.12693	0.15086	0.38423	0.26322	0.18001	0.071536	0.098698	0.12402	0.1754	0.080322	0.10956	0.23085	0.19695	0.061185	0.25304	-4.1062	-3.9354	-4.7417	-4.1396	-4.0667	-4.7521	-3.9437	-4.5708	-4.6604	-3.9437	-5.0104	-4.3146	-4.0437	-4.8063	-3.8271	-4.5604	54.876	134.903	-36.113	98.932	43.467	-38.892	284.346	304.882	282.218	76.082	279.193	270.262	-10.700	-17.096	153.576	46.166	5.3143e-05	0.00022697	5.2456e-05	470.6	6.6301e-06	1.2455e-06	710.75	145.28	3.4206e-06	2.8515e-06	289.4	106.45	46.466	16.861	3.718e-06	41.743	0.00018555	0.00018495	5.1942e-05	458.45	2.0678e-06	2.0418e-06	686.56	142.28	2.0499e-06	2.066e-06	270.61	100.31	45.98	16.512	2.079e-06	38.957	202.352	151.597	-30.471	-30.238	63.585	61.313	-29.560	-25.483	93.786	147.322	-25.910	-20.772	-21.037	-17.738	64.746	-18.507	-8191	255	
4934.837	1	1	0	0	0.18785	0.076463	0.098253	0.21613	0.045913	0.15465	0.19163	0.021817	0.074521	0.084392	0.12048	0.045458	0.057491	0.14303	0.022113	0.23238	-4.3646	-3.9125	-4.7	-4.2292	-3.9562	-4.7771	-3.9688	-4.5042	-4.5583	-3.9708	-4.8146	-4.2542	-3.9938	-4.8958	-4.0104	-4.4396	2.290	151.370	11.556	216.875	274.293	-20.474	197.500	316.444	115.456	275.879	105.865	233.524	239.449	163.819	250.362	299.683	0.00017333	0.00039026	0.00018845	470.6	2.2676e-06	4.9276e-06	716.38	146.67	3.7629e-06	1.0993e-06	289.72	106.55	47.103	16.884	2.7328e-07	42.215	0.00019196	0.00018993	5.2284e-05	461.55	2.0943e-06	2.0957e-06	691.75	143.21	2.1047e-06	2.0903e-06	271.79	101.07	46.247	16.591	2.0777e-06	39.325	206.239	74.069	57.180	-30.571	169.522	86.502	-29.623	-25.172	139.464	99.105	-25.402	-20.860	-21.208	-17.784	166.289	-18.296	-8191	255	
4934.958	1	1	0	0	0.027333	0.19069	0.15694	0.17949	0.28238	0.15508	0.056819	0.11316	0.21435	0.048617	0.28684	0.23866	0.08708	0.08845	0.21797	0.13154	-4.3646	-3.7771	-4.6813	-4.3917	-4.0188	-4.7583	-4.1937	-4.2729	-4.6625	-3.7771	-4.7354	-4.4187	-3.7604	-4.8104	-4.1271	-4.25	206.721	65.759	101.842	279.349	164.431	51.961	153.085	154.442	164.344	4.670	232.700	227.765	14.752	308.413	177.893	75.477	0.00014293	0.00016076	2.7501e-06	476.93	2.1892e-06	3.2327e-06	719.06	148.17	1.7587e-06	4.1696e-06	290.91	106.25	46.79	16.77	4.0464e-06	41.661	0.00018994	0.00018815	5.2353e-05	466.07	2.0643e-06	2.07e-06	694.53	144.58	2.068e-06	2.0583e-06	272.97	100.78	46.189	16.508	2.0252e-06	38.726	231.692	306.868	174.057	-30.390	121.716	-15.616	-29.303	-25.423	172.625	312.068	-25.623	-21.258	-20.682	-17.587	86.694	-18.871	-8191	255	
4935.052	1	1	0	0	0.08642	0.15536	0.11619	0.14259	0.16803	0.054679	0.055902	0.1037	0.23794	0.13214	0.02896	0.2376	0.070424	0.19766	0.15306	0.17634	-4.2958	-3.7687	-4.3562	-4.6229	-3.9125	-4.6333	-4.1979	-4.2208	-4.8104	-3.7771	-4.5604	-4.6167	-3.8688	-4.725	-4.2979	-3.9917	283.920	100.825	160.845	-40.969	19.308	107.321	65.100	185.752	209.996	232.639	238.733	24.071	258.191	82.430	171.970	-4.821	0.00011948	0.00016039	0.00010201	463.79	3.2271e-06	5.5922e-06	710.45	144.79	3.9618e-06	2.8193e-06	284.38	105.68	46.453	16.605	2.4878e-06	41.217	0.00018694	0.0001869	5.157e-05	457.14	2.0582e-06	2.0177e-06	684.62	141.29	2.0357e-06	2.0467e-06	268.4	99.834	45.671	16.359	2.0351e-06	38.461	232.157	13.921	50.473	-30.161	173.065	84.377	-29.381	-25.580	-26.520	230.474	-25.666	-20.934	-20.683	-17.876	82.897	-18.465	-8191	255	
4935.149	1	1	0	0	0.20382	0.30051	0.032924	0.20986	0.20255	0.13853	0.16254	0.041481	0.13611	0.15511	0.035194	0.29011	0.050647	0.034169	0.19905	0.27867	-4.6271	-3.8708	-4.3458	-4.9708	-3.8438	-4.6271	-4.4229	-4.0021	-4.8271	-3.8583	-4.3625	-4.8604	-3.9813	-4.5604	-4.3833	-3.9188	137.150	22.651	273.671	189.225	39.044	248.752	271.492	237.832	216.826	263.719	-10.893	235.461	115.341	278.532	194.872	311.510	0.00013135	0.00026454	7.7109e-05	466.44	3.7956e-06	6.9296e-07	710.84	145.14	4.7429e-06	3.1279e-06	285.3	106.49	46.778	16.789	4.6853e-06	41.946	0.00018998	0.00018889	5.2406e-05	457.35	2.0655e-06	2.0652e-06	684.59	141.85	2.0234e-06	2.0085e-06	269.76	100.3	45.962	16.476	2.0346e-06	38.916	222.282	119.104	-10.028	-29.808	92.792	193.766	-29.757	-25.305	123.188	89.694	-25.534	-20.872	-21.030	-18.008	92.656	-18.601	-8191	255	
4935.269	1	1	0	0	0.25475	0.097912	0.13019	0.20045	0.11397	0.044039	0.20047	0.081718	0.095661	0.1259	0.13542	0.18811	0.28594	0.32277	0.080927	0.22404	-4.5042	-4.1042	-4.2083	-4.6708	-3.8063	-4.5687	-4.5938	-3.8146	-4.9625	-4.2208	-4.1354	-4.95	-3.8229	-4.6542	-4.4979	-4.025	285.433	245.969	301.581	104.155	50.471	83.136	258.279	303.619	91.166	207.465	207.552	316.133	225.249	254.447	205.605	273.177	0.0001156	0.00045241	5.4827e-05	473.14	4.6595e-06	7.6468e-06	714.37	146.66	4.5674e-06	1.6028e-06	289.64	107.47	47.379	17.037	6.9028e-06	42.508	0.0001877	0.00018552	5.2237e-05	459.86	2.0475e-06	2.0372e-06	688.12	143.02	2.0003e-06	2.0186e-06	272.57	101.41	46.557	16.608	2.0399e-06	39.425	217.402	66.746	-39.455	-29.707	118.324	71.482	-29.245	-25.027	76.216	4.064	-25.674	-20.603	-21.322	-17.710	112.324	-17.973	-8191	255	
4935.365	1	1	0	0	0.068042	0.14291	0.080108	0.11715	0.30145	0.19614	0.065926	0.15513	0.16786	0.06319	0.034667	0.29231	0.15729	0.21419	0.15715	0.14212	-4.4125	-4.4125	-4.0396	-4.7396	-3.8854	-4.3313	-4.6854	-3.8417	-4.8396	-4.2688	-4.0958	-4.8271	-4.0396	-4.2917	-4.5646	-3.8583	270.429	295.836	164.489	127.565	237.065	260.481	252.017	-22.143	184.708	180.925	246.903	289.271	153.314	31.942	-20.335	209.847	0.00016392	0.00015308	7.6808e-05	474.59	3.325e-06	1.1315e-06	726.77	147.92	4.5365e-06	8.0231e-08	290.55	108.38	47.318	16.957	1.6656e-06	42.024	0.00018494	0.00018666	5.1799e-05	463.47	2.0393e-06	2.0203e-06	695.64	144.73	2.0048e-06	2.014e-06	273.05	101.8	46.408	16.614	2.0053e-06	39.082	174.022	162.023	23.757	-29.974	106.156	-6.604	-29.138	-25.349	177.552	117.734	-25.465	-20.874	-20.251	-18.071	159.704	-18.283	-8191	255	
4935.437	1	1	0	0	0.36197	0.10474	0.0044562	0.25569	0.026196	0.29939	0.097195	0.10688	0.03201	0.19826	0.16619	0.083288	0.1366	0.030063	0.18167	0.010893	-4.4021	-4.3917	-3.9792	-4.7271	-4.1042	-4.1583	-4.8375	-3.7313	-4.5687	-4.4458	-3.9292	-4.9812	-4.0833	-4.1917	-4.7937	-3.9333	296.359	267.686	39.688	1.624	310.588	294.556	234.161	-17.083	125.351	13.609	273.907	205.842	264.513	163.247	16.103	279.606	7.0528e-05	0.00040894	9.4241e-05	469.67	3.1902e-06	3.0419e-06	719.11	145.81	4.0424e-07	2.3507e-06	287.32	107.23	46.549	16.85	3.0281e-06	41.613	0.00018446	0.00018255	5.0962e-05	458.89	1.9902e-06	2.0002e-06	689.39	142.39	1.974e-06	1.9893e-06	270.22	100.67	45.917	16.474	1.9793e-06	38.701	175.548	29.624	-11.061	-30.222	84.195	8.063	-29.679	-25.125	60.626	4.046	-25.361	-21.190	-20.494	-17.546	155.414	-18.651	-8191	255	
4935.533	1	1	0	0	0.076381	0.15574	0.07443	0.064099	0.14254	0.23543	0.21092	0.28004	0.24136	0.095157	0.09771	0.064554	0.17864	0.23183	0.23767	0.11852	-4.2125	-4.5604	-4.05	-4.7458	-4.1438	-4.0771	-4.7625	-3.9188	-4.5375	-4.5625	-4.0583	-4.7792	-4.1479	-4.0333	-4.9167	-4.0375	223.476	247.847	-42.983	237.215	-7.869	251.294	212.214	100.134	102.682	254.014	84.090	237.058	-18.809	313.231	114.716	141.005	8.8464e-05	0.00015448	5.429e-05	469.34	1.869e-06	3.9594e-06	716.5	146.69	9.0698e-06	3.662e-06	288.43	107.44	47.742	16.941	4.7367e-06	41.803	0.00018393	0.00018387	5.0933e-05	458.43	1.987e-06	2.0142e-06	689.37	143.06	1.9903e-06	1.9701e-06	271.49	101.15	46.609	16.602	1.9808e-06	39.08	204.294	124.676	-42.448	-30.135	155.085	39.686	-29.703	-25.026	122.158	128.196	-25.792	-21.274	-20.380	-18.101	107.980	-18.377	-8191	255	
4935.654	1	1	0	0	0.059161	0.12666	0.23802	0.02876	0.17231	0.29771	0.10952	0.11481	0.057064	0.12065	0.31112	0.034936	0.22068	0.037307	0.10326	0.06389	-4.1083	-4.5417	-3.8125	-4.7958	-4.3146	-4.1604	-4.8667	-4.0083	-4.4292	-4.6917	-3.9708	-4.7104	-4.3896	-3.9521	-4.9417	-4.1125	179.905	245.008	294.223	81.176	214.651	74.359	207.478	249.510	254.110	258.939	313.267	107.668	239.517	55.869	300.530	55.400	0.00012993	8.137e-05	7.0554e-05	475.65	1.685e-06	2.5069e-06	723.59	148.47	3.3748e-06	5.2284e-06	290.25	107.88	47.7	17.035	3.3647e-06	42.589	0.00018367	0.00018395	5.1142e-05	463.61	2.0145e-06	2.0162e-06	695.6	144.55	2.0147e-06	1.986e-06	273.15	101.45	46.517	16.7	1.9708e-06	39.541	179.785	62.099	-31.844	-29.908	142.290	178.904	-29.383	-25.049	-10.483	64.708	-25.309	-20.884	-21.336	-18.290	87.089	-18.717	-8191	255	
4935.750	1	1	0	0	0.13299	0.14246	0.19703	0.073136	0.064572	0.080247	0.33538	0.22781	0.11353	0.18356	0.12027	0.16016	0.14078	0.21005	0.084451	0.10965	-3.9292	-4.6	-3.9188	-4.7625	-4.5708	-3.9625	-5.0062	-4.2167	-4.2604	-4.7354	-3.8896	-4.7146	-4.4667	-3.85	-4.7979	-4.2646	-43.027	-39.772	197.529	280.925	239.563	141.562	202.743	-33.649	281.192	251.047	237.029	-41.692	34.502	170.545	203.806	280.925	0.00011599	0.00010712	4.1671e-05	475.9	3.6159e-06	5.7938e-06	721.01	148.19	1.1939e-06	3.7134e-06	289.89	107.34	46.866	16.848	4.4792e-06	41.786	0.0001836	0.00018081	5.1003e-05	466.6	1.9809e-06	1.9711e-06	694.55	144.84	1.9963e-06	1.9511e-06	272.38	101.13	46.14	16.494	1.9626e-06	38.8	230.852	74.272	264.489	-30.693	92.712	60.935	-29.166	-25.419	180.726	112.964	-25.583	-21.281	-20.575	-17.794	145.110	-18.447	-8191	255	
4935.846	1	1	0	0	0.13879	0.12754	0.18839	0.23566	0.20705	0.16768	0.20698	0.24001	0.11843	0.2195	0.10056	0.16951	0.022522	0.22753	0.12709	0.066104	-3.7833	-4.7458	-4.1104	-4.5354	-4.6521	-3.9146	-4.775	-4.2937	-4.1021	-4.9583	-4.0354	-4.525	-4.5854	-3.8646	-4.5771	-4.3396	305.872	297.143	251.383	262.695	218.926	171.094	228.928	278.138	-41.368	265.532	233.981	254.513	237.308	-25.284	-31.323	220.843	0.00016991	0.000273	0.00015552	462.71	8.5549e-07	5.7787e-06	705.39	145.58	6.1157e-06	6.004e-06	284.36	105.71	46.745	16.636	1.3456e-06	41.662	0.00018246	0.00018152	5.0832e-05	453.85	1.9799e-06	1.977e-06	680.48	141.15	1.9553e-06	1.9356e-06	268.33	99.474	45.606	16.324	1.9521e-06	38.608	210.410	-12.293	46.798	-30.260	-12.978	50.353	-29.182	-25.487	24.853	109.253	-25.415	-20.912	-20.897	-18.041	112.472	-18.206	-8191	255	
4935.940	1	1	0	0	0.14098	0.12849	0.10248	0.088951	0.17721	0.10305	0.12513	0.10393	0.17556	0.13786	0.090749	0.034712	0.2604	0.15105	0.06793	0.045082	-3.9	-4.7917	-3.9146	-4.3479	-4.7083	-3.9083	-4.5833	-4.4292	-4.1708	-4.8208	-4.1042	-4.25	-4.65	-3.9354	-4.5104	-4.6104	178.400	224.412	-19.877	175.262	287.351	-37.064	-5.915	123.604	-5.314	75.682	281.109	253.877	221.397	135.828	26.518	221.296	0.00011711	0.00016677	9.8285e-05	464.38	3.4913e-06	3.1829e-06	714.26	146.16	3.9601e-06	3.4808e-06	286.85	105.76	46.252	16.545	1.3947e-06	41.647	0.00018196	0.00017722	5.0306e-05	455.04	1.9734e-06	1.9684e-06	685.09	142.43	1.9677e-06	1.9651e-06	269.39	99.793	45.586	16.305	1.9931e-06	38.632	195.689	144.350	264.390	-30.232	87.421	62.423	-29.539	-25.130	131.909	151.616	-25.900	-21.450	-21.058	-17.867	19.143	-18.265	-8191	255	
4936.061	1	1	0	0	0.098412	0.1513	0.17644	0.25612	0.23213	0.076901	0.1514	0.16214	0.10039	0.044841	0.15942	0.31451	0.1014	0.092789	0.14122	0.012707	-3.6312	-4.7417	-4.1896	-4.15	-4.8875	-3.9146	-4.5167	-4.6375	-3.9479	-4.7667	-4.3229	-4.25	-4.8625	-3.8563	-4.5104	-4.7292	-29.045	186.388	37.012	303.101	189.514	-35.516	171.717	211.192	213.763	-10.649	219.217	271.000	2.531	205.732	235.591	109.932	0.00014643	0.00013951	0.00010597	468.75	3.087e-06	1.9446e-06	710.62	145.42	2.9153e-06	4.587e-06	286.65	106.12	46.242	16.709	2.5806e-06	42.322	0.00018419	0.00018216	5.1337e-05	457.99	2.0043e-06	2.001e-06	686.96	142.45	1.971e-06	1.9436e-06	270.07	100.11	45.57	16.43	1.9629e-06	39.117	242.814	181.090	48.838	-30.126	42.362	87.499	-29.523	-24.962	-42.885	113.401	-25.400	-21.129	-20.722	-17.765	44.919	-18.644	-8191	255	
4936.133	1	1	0	0	0.10265	0.22652	0.088011	0.14678	0.041187	0.26279	0.1313	0.10597	0.15774	0.12441	0.12175	0.12051	0.084631	0.17791	0.23326	0.19141	-3.5417	-4.6667	-4.2438	-4.1188	-4.7167	-4.0917	-4.4229	-4.7271	-3.6979	-4.9021	-4.5062	-4.1937	-4.7833	-4.1042	-4.3896	-4.7625	161.124	266.260	177.221	135.439	212.159	35.192	118.314	222.636	234.211	221.243	187.595	299.863	197.510	298.161	18.799	-17.296	0.00014876	0.00013605	7.6654e-05	467.47	1.3813e-06	1.354e-06	716.31	145.49	2.1579e-06	2.1776e-06	286.52	105.12	45.784	16.644	3.9273e-06	41.412	0.00018256	0.00017821	5.0206e-05	458.5	1.9834e-06	2.0017e-06	690.1	141.94	2.0048e-06	2.0104e-06	269.55	98.889	44.963	16.197	1.9579e-06	38.252	241.116	252.412	47.551	-29.873	66.771	47.187	-29.476	-25.247	111.884	132.891	-25.531	-21.188	-20.740	-17.846	94.656	-18.332	-8191	255	
4936.229	1	1	0	0	0.15848	0.087208	0.098517	0.041544	0.11412	0.27185	0.12853	0.039636	0.12877	0.091666	0.047518	0.11302	0.059295	0.12929	0.18906	0.1501	-3.5521	-4.55	-4.3812	-4.05	-4.6438	-4.1021	-4.35	-4.8708	-3.8021	-4.6229	-4.5979	-3.8521	-4.7979	-4.2104	-4.1	-4.7271	75.995	280.855	274.615	189.302	268.885	82.201	213.685	298.472	299.040	120.086	49.397	288.472	104.888	71.138	261.199	174.766	0.00011986	0.00032863	0.00018905	470.18	4.742e-06	4.8406e-06	719.21	144.44	2.3018e-06	2.4693e-06	284.29	103.83	44.944	16.55	4.4011e-06	40.852	0.00018372	0.00018151	5.0327e-05	461.09	1.989e-06	1.9923e-06	689.89	141.31	2.0046e-06	2.0144e-06	267.05	97.923	44.551	16.127	1.9952e-06	38.034	208.798	80.773	44.179	-30.790	139.363	81.442	-29.511	-25.313	193.322	165.947	-25.918	-21.171	-20.708	-17.717	105.258	-18.749	-8191	255	
4936.350	1	1	0	0	0.093092	0.079805	0.17437	0.20665	0.12567	0.22358	0.15881	0.089158	0.082602	0.13757	0.34732	0.28698	0.20211	0.21816	0.19196	0.179	-3.6479	-4.3667	-4.5062	-3.9062	-4.775	-4.1917	-4.3229	-4.8625	-3.9313	-4.3396	-4.5625	-3.975	-4.7104	-4.4396	-3.8833	-4.7438	212.845	-33.109	219.424	53.529	285.457	141.133	-31.417	-7.078	304.973	252.152	305.827	-23.200	143.154	230.694	295.056	-12.048	0.00023774	0.00024509	6.8194e-05	475.58	1.8712e-06	2.903e-06	718.81	146.09	5.0798e-06	3.7171e-06	285.5	105.17	45.69	16.731	4.8283e-06	41.377	0.00018453	0.00018145	5.0697e-05	462.91	1.9782e-06	2.0022e-06	691.94	142.66	1.9899e-06	1.9863e-06	269.71	98.947	45.261	16.33	1.9841e-06	38.669	217.883	74.894	284.411	-30.125	38.978	-6.113	-29.753	-25.234	111.649	303.565	-25.543	-20.787	-20.600	-17.457	162.033	-18.273	-8191	255	
4936.446	1	1	0	0	0.12186	0.11164	0.084893	0.099903	0.095902	0.15552	0.07699	0.091347	0.2439	0.098268	0.24481	0.067872	0.187	0.35289	0.15083	0.034554	-3.5687	-4.3	-4.65	-3.9188	-4.7104	-4.4708	-4.1792	-4.8354	-4.0625	-4.15	-4.8333	-4.0604	-4.5563	-4.5896	-3.8729	-4.8438	114.093	57.862	208.203	304.556	278.528	206.213	-18.718	-9.034	206.738	113.022	191.221	230.524	21.296	270.311	90.844	93.930	0.00014563	0.00020494	8.4476e-05	469.55	1.551e-06	8.28e-07	715.4	146.2	4.7257e-06	4.5385e-06	287.43	107.56	46.464	17.056	2.8171e-06	42.619	0.00018341	0.00018271	5.0645e-05	460.11	1.9792e-06	1.9875e-06	689.29	142.51	1.9776e-06	1.9688e-06	271.22	100.43	45.915	16.618	1.9645e-06	39.306	184.330	201.001	139.001	-30.244	91.935	204.723	-29.642	-25.428	127.936	124.147	-25.365	-20.951	-20.505	-17.805	303.827	-18.408	-8191	255	
4936.542	1	1	0	0	0.20466	0.28018	0.20115	0.19934	0.11966	0.094065	0.14065	0.080159	0.072261	0.044052	0.23817	0.071564	0.088938	0.17388	0.090496	0.0027041	-3.7792	-4.1667	-4.7812	-3.9229	-4.5958	-4.5729	-4.0687	-4.8125	-4.0979	-4.0813	-4.9021	-3.8	-4.4458	-4.6625	-3.9292	-4.8562	98.040	160.275	144.011	-34.209	18.822	292.166	181.273	198.660	-16.512	99.674	205.497	215.732	-4.465	-3.183	256.826	202.431	0.00015463	0.00015501	9.4642e-05	477.19	2.84e-06	1.3606e-06	720.29	146.79	5.3073e-06	3.6331e-06	287.01	106.09	46.164	16.778	6.5511e-06	41.049	0.00018087	0.00017981	4.9604e-05	464.24	1.9388e-06	1.955e-06	693.23	143.56	1.9563e-06	1.9595e-06	269.98	99.488	45.25	16.367	1.9551e-06	38.234	224.736	253.985	22.578	-30.183	122.430	153.818	-29.724	-25.189	136.488	72.506	-26.202	-20.871	-20.729	-17.687	80.660	-18.168	-8191	255	
4936.638	1	1	0	0	0.11864	0.19038	0.13779	0.04986	0.10837	0.066539	0.14695	0.1756	0.27091	0.15178	0.041644	0.18373	0.019823	0.26958	0.21076	0.14309	-3.8021	-4.0229	-4.7562	-3.6979	-4.5062	-4.6875	-4.2438	-4.6042	-4.3729	-4.1479	-4.9125	-4.0771	-4.275	-4.8333	-3.9188	-4.7542	175.624	313.356	252.159	241.338	147.556	64.392	287.694	115.847	255.673	180.740	153.212	314.723	271.383	-18.082	243.543	113.367	0.00013261	0.00054626	5.8039e-05	466.77	3.8237e-06	3.305e-06	711	145.04	9.1403e-06	3.2789e-06	283.88	104.14	45.43	16.616	2.2106e-06	41.492	0.00018043	0.00017892	4.9742e-05	456.91	1.9376e-06	1.9394e-06	682.38	140.86	1.9242e-06	1.9316e-06	265.67	98.293	44.705	16.259	1.9238e-06	38.252	196.100	19.335	95.957	-30.187	98.450	58.972	-29.485	-25.353	19.001	138.878	-25.556	-21.130	-20.986	-17.637	130.941	-18.787	-8191	255	
4936.734	1	1	0	0	0.059961	0.32623	0.084711	0.090971	0.1162	0.11962	0.10558	0.085308	0.086543	0.27093	0.089253	0.12684	0.13373	0.17027	0.057572	0.1623	-4.0896	-4.0604	-4.8979	-4.05	-4.2188	-4.7354	-3.9271	-4.6062	-4.4375	-3.9354	-4.775	-4.1312	-4.1583	-4.6896	-4.0208	-4.5375	16.167	177.742	103.307	177.412	141.955	272.595	270.504	4.781	129.969	214.109	272.221	105.365	-35.220	13.558	243.197	266.371	0.00015597	0.00017053	2.584e-05	469.4	2.5302e-06	1.7709e-07	711.53	146.09	5.1954e-06	3.5511e-06	286.6	105.24	46.278	16.909	1.5574e-06	41.607	0.00017393	0.00017196	4.7787e-05	456.96	1.8785e-06	1.857e-06	684.38	141.65	1.8524e-06	1.8451e-06	268.52	99.162	45.344	16.391	1.8373e-06	38.646	199.464	57.275	207.941	-30.399	76.151	-31.813	-29.513	-25.276	30.148	136.378	-26.039	-21.236	-21.330	-18.108	162.640	-18.294	-8191	255	
4936.830	1	1	0	0	0.30547	0.11367	0.10746	0.11622	0.26616	0.17371	0.11334	0.28068	0.20936	0.21448	0.21371	0.17632	0.25888	0.11727	0.1491	0.26024	-4.225	-3.9313	-4.8917	-4.3063	-4.0458	-4.7688	-3.9458	-4.4062	-4.5792	-3.875	-4.7771	-4.2979	-4.0208	-4.8167	-3.9688	-4.3729	75.556	-12.744	93.005	251.962	294.462	68.775	256.458	102.939	186.079	295.429	269.615	167.013	83.256	218.724	141.339	269.338	0.00012887	0.00024206	7.2391e-05	472.69	4.7258e-06	7.1614e-06	715.55	147.06	3.2165e-06	3.8826e-06	287.02	106.63	46.818	17.022	1.5293e-06	42.266	0.00017098	0.00017145	4.6652e-05	458.55	1.8671e-06	1.8548e-06	688.52	142.87	1.8471e-06	1.8736e-06	270.28	99.902	45.572	16.553	1.8884e-06	39.068	231.444	59.618	77.778	-30.207	146.295	9.140	-29.716	-25.089	48.712	83.164	-25.340	-20.920	-21.300	-17.282	50.177	-18.634	-8191	255	
4936.949	1	1	0	0	0.18769	0.20474	0.15018	0.14577	0.09449	0.13122	0.13319	0.19679	0.066769	0.25933	0.14866	0.1318	0.10387	0.033776	0.034414	0.088678	-4.3417	-3.875	-4.7833	-4.375	-3.8354	-4.8438	-4.1229	-4.3354	-4.8104	-3.6979	-4.575	-4.3979	-3.8896	-4.8271	-3.9854	-4.3146	1.101	-10.479	196.997	-41.651	207.926	92.679	217.691	43.506	102.253	129.783	92.896	178.608	-0.452	25.242	220.970	45.776	0.00012444	0.00016445	4.7933e-05	470.3	1.267e-06	5.3344e-07	714.57	145.93	2.2462e-06	5.536e-06	284.86	105.94	45.953	16.67	1.7626e-06	41.469	0.00017191	0.00016779	4.7097e-05	460.5	1.8707e-06	1.8525e-06	688.63	142.37	1.8647e-06	1.8379e-06	267.95	99.274	44.941	16.288	1.8873e-06	38.198	220.420	135.337	81.127	-29.599	284.884	316.361	-29.579	-25.552	218.240	36.982	-25.943	-20.987	-21.298	-17.794	160.263	-18.810	-8191	255	
4937.045	1	1	0	0	0.16677	0.045413	0.1231	0.082172	0.1019	0.14718	0.085395	0.13035	0.25636	0.046591	0.085014	0.23747	0.075814	0.19598	0.34784	0.09361	-4.4854	-3.8708	-4.5312	-4.4646	-3.9146	-4.9271	-4.2688	-4.2208	-4.9375	-3.9604	-4.4354	-4.7063	-3.7	-4.7	-4.1208	-4.0125	-41.467	-42.549	105.205	-40.049	63.982	28.647	232.291	8.133	136.509	170.065	29.415	-19.802	115.451	153.137	63.937	107.619	0.00016095	0.00014183	0.00011893	464.15	3.3571e-06	5.2543e-06	712.93	144.98	1.8395e-06	6.3563e-06	284.23	104.26	45.768	16.622	3.6454e-06	41.35	0.00017142	0.00017212	4.6866e-05	455.77	1.8339e-06	1.8472e-06	684.46	141.07	1.8346e-06	1.85e-06	266.22	98.245	44.818	16.252	1.8721e-06	38.383	226.477	92.420	48.177	-29.887	138.944	15.832	-29.516	-24.885	153.518	2.093	-25.585	-20.788	-20.681	-18.162	-24.172	-18.492	-8191	255	
4937.141	1	1	0	0	0.15111	0.22157	0.24756	0.067805	0.074645	0.15222	0.109	0.32786	0.12165	0.12447	0.21049	0.090208	0.14664	0.14991	0.15733	0.11596	-4.4583	-4.0104	-4.4896	-4.5854	-3.7354	-4.7292	-4.2937	-3.9167	-4.6979	-3.9833	-4.35	-4.7042	-3.8333	-4.6292	-4.2625	-4.0188	127.841	-25.292	63.520	314.687	103.744	-26.985	277.974	275.265	231.432	-25.428	245.178	131.298	94.880	305.174	118.481	223.509	0.00014667	0.00018754	0.00011284	473.1	2.9194e-06	1.7848e-06	714.89	146.43	1.0744e-06	4.8334e-06	286.6	105.84	46.66	17.071	4.7725e-06	41.997	0.00017328	0.00017431	4.7957e-05	460.83	1.9071e-06	1.9044e-06	687.51	142.34	1.9115e-06	1.9117e-06	269.39	99.637	45.752	16.568	1.9327e-06	39.033	205.768	167.796	-36.208	-30.467	11.679	85.492	-29.567	-25.464	7.842	230.148	-25.905	-21.048	-21.121	-17.879	21.124	-18.381	-8191	255	
4937.238	1	1	0	0	0.23908	0.014451	0.14012	0.13076	0.09415	0.091138	0.10657	0.2099	0.10575	0.072446	0.10224	0.074348	0.18044	0.026881	0.03824	0.23436	-4.5292	-3.975	-4.125	-4.7021	-3.9	-4.5396	-4.5292	-3.9375	-4.6771	-3.9875	-4.0521	-4.7167	-3.9271	-4.5437	-4.4812	-4.1479	54.876	245.028	234.487	141.064	259.530	-14.174	171.874	273.907	204.946	158.215	-2.361	152.363	30.688	241.510	16.584	208.060	0.0001395	0.00017334	3.864e-05	473.93	2.7575e-06	4.6458e-06	723.83	149.74	4.5713e-06	3.3834e-06	290.33	107.73	47.227	17.454	2.3839e-06	42.719	0.0001765	0.00017821	5.0129e-05	463.89	1.938e-06	1.9311e-06	695.15	144.5	1.9534e-06	1.9666e-06	273.04	101	46.403	16.812	1.9698e-06	39.468	207.501	62.064	233.987	-30.476	132.212	74.850	-29.213	-25.296	13.079	114.272	-26.013	-20.875	-20.831	-17.631	186.384	-18.328	-8191	255	
4937.334	1	1	0	0	0.095068	0.033724	0.16611	0.11541	0.19922	0.24254	0.25047	0.14218	0.29927	0.22302	0.071817	0.12663	0.33373	0.077053	0.16971	0.061303	-4.5417	-4.1958	-4.0708	-4.8958	-3.8438	-4.2917	-4.6542	-3.8333	-4.7375	-4.2667	-4.0833	-4.8396	-4.0333	-4.4125	-4.6438	-3.9	278.931	51.796	93.214	47.067	292.123	294.362	274.734	268.211	244.411	-2.076	-31.107	241.946	-40.124	101.637	200.472	302.822	8.43e-05	0.00024391	3.0888e-05	477.02	3.3706e-06	2.9869e-06	722.86	147.52	5.7807e-06	1.8929e-06	288.17	106.32	46.467	16.849	1.3599e-06	41.308	0.00017973	0.00018047	4.9515e-05	468.16	2.0086e-06	2.0094e-06	695.2	144.29	2.0347e-06	2.034e-06	271.33	100.23	45.912	16.493	1.9878e-06	38.408	225.493	41.681	146.903	-30.055	30.096	-2.523	-29.193	-25.226	124.034	172.871	-25.791	-21.032	-20.866	-17.887	60.347	-18.779	-8191	255	
4937.430	1	1	0	0	0.37135	0.12379	0.27379	0.14078	0.063869	0.16381	0.10662	0.14401	0.18859	0.15785	0.21731	0.12602	0.061279	0.12399	0.2392	0.019812	-4.3125	-4.3875	-4.1292	-4.925	-4.0792	-4.3688	-4.8688	-3.9729	-4.6917	-4.4958	-4.1667	-4.8667	-4.1771	-4.0667	-4.8146	-3.9396	293.583	268.522	113.086	28.677	281.243	248.738	197.513	289.834	12.445	74.640	230.478	13.788	35.144	67.106	258.496	173.220	0.00011842	0.00034459	7.175e-05	471.87	1.36e-06	2.6022e-06	713.98	146.43	4.7389e-06	3.4156e-06	285.31	105.36	46.325	16.723	5.3058e-06	41.234	0.00018596	0.0001865	5.1469e-05	461.88	2.0305e-06	2.0156e-06	685.63	142.37	1.9895e-06	2.0041e-06	268.02	99.32	45.789	16.385	1.9578e-06	38.384	209.255	83.742	113.938	-29.885	29.933	11.617	-29.500	-25.382	75.461	113.205	-25.346	-20.981	-21.211	-18.036	188.173	-18.742	-8191	255	
4937.526	1	1	0	0	0.12228	0.059614	0.11643	0.16809	0.14387	0.12041	0.079227	0.12628	0.0056194	0.16697	0.17578	0.081866	0.087125	0.22724	0.089494	0.077085	-4.4229	-4.3187	-3.8812	-4.8729	-4.0687	-4.2729	-4.7646	-4.025	-4.5167	-4.4062	-3.9208	-4.9604	-4.2438	-4.1854	-4.8667	-4.0583	81.085	202.344	184.087	211.588	73.356	-0.699	265.340	203.068	186.657	129.150	306.233	2.077	179.862	189.593	-11.536	-31.750	0.00013259	0.00017273	0.00018674	470.13	4.7368e-06	1.603e-06	711.11	146.28	4.8537e-06	6.8894e-06	287.36	107.22	47.841	16.931	3.1837e-06	41.717	0.00018301	0.00018174	5.0458e-05	458.3	1.9899e-06	1.9804e-06	686	142.94	1.979e-06	1.9847e-06	270.74	100.86	46.601	16.561	1.9775e-06	38.812	217.801	-6.168	41.381	-29.844	85.726	39.533	-29.377	-25.416	69.276	85.039	-25.741	-20.953	-20.751	-17.894	84.484	-18.497	-8191	255	
4937.622	1	1	0	0	0.025208	0.15219	0.20226	0.15456	0.049518	0.086455	0.19898	0.20264	0.10484	0.05391	0.26298	0.22413	0.18996	0.25198	0.13992	0.23738	-4.0563	-4.6562	-3.7729	-4.7854	-4.2542	-4.0104	-4.875	-3.9021	-4.4271	-4.6479	-3.9562	-4.7458	-4.2812	-3.9813	-4.8792	-4.2104	40.728	7.761	274.717	76.488	-8.256	-35.096	15.118	286.248	191.025	32.777	215.687	107.638	-31.563	-18.226	243.029	185.980	0.00011427	0.00025625	2.3608e-05	479.21	2.0557e-06	3.5073e-06	720.88	148.85	4.5052e-06	3.6256e-06	291.85	108.13	48.013	17.195	2.9027e-06	42.316	0.00018264	0.00018268	5.1017e-05	465.42	2.0204e-06	2.0233e-06	693.01	145.08	2.0176e-06	2.04e-06	274.26	101.9	47.222	16.805	2.0273e-06	39.44	213.792	-28.242	134.780	-30.280	41.264	178.702	-29.602	-25.162	113.526	148.281	-25.623	-21.000	-21.004	-17.917	115.515	-18.404	-8191	255	
4937.743	1	1	0	0	0.048914	0.29709	0.2786	0.26058	0.18942	0.094033	0.23306	0.12807	0.16775	0.1504	0.29206	0.12172	0.15334	0.054314	0.2149	0.14824	-4.1854	-4.8187	-3.9042	-4.7917	-4.4396	-3.7854	-4.8938	-4.2667	-4.2208	-4.6833	-3.8458	-4.6312	-4.4729	-3.8271	-4.8354	-4.0833	250.074	98.182	81.985	220.078	245.678	29.840	72.327	37.644	4.006	-28.405	291.136	-36.941	237.300	211.701	140.910	142.278	0.00015993	0.00021533	9.6516e-05	474.22	6.0525e-07	8.154e-07	718.25	148.65	7.2315e-06	6.1463e-06	287.74	107.89	46.965	16.856	3.4761e-06	41.296	0.00018504	0.00018713	5.1654e-05	465.38	2.0007e-06	1.9844e-06	691.24	144.95	1.9591e-06	1.9541e-06	271.23	100.83	46.153	16.419	1.8963e-06	38.481	215.830	6.580	95.125	-30.355	174.239	11.409	-29.510	-25.411	70.508	70.431	-25.684	-20.864	-21.284	-18.059	313.854	-18.775	-8191	255	
4937.837	1	1	0	0	0.079972	0.10501	0.1044	0.20712	0.19977	0.20277	0.31451	0.17596	0.11512	0.092731	0.22205	0.25439	0.17009	0.22695	0.1908	0.11962	-3.75	-4.7583	-3.8604	-4.4812	-4.6729	-3.7604	-4.8917	-4.1833	-3.9854	-4.8292	-4.0479	-4.4625	-4.4688	-3.6854	-4.725	-4.3375	265.422	105.163	176.513	282.946	180.989	207.307	96.983	296.001	274.121	136.863	252.562	237.567	70.993	-11.824	117.631	-4.000	0.00019209	0.00031237	4.8161e-05	467.39	1.3559e-06	3.2568e-07	713.47	145.79	3.0179e-06	3.0823e-06	286.83	107.1	47.308	16.931	3.395e-06	41.749	0.00017587	0.00017476	4.9143e-05	454.71	1.897e-06	1.9191e-06	681.36	141.85	1.895e-06	1.8797e-06	269.65	100.66	46.174	16.416	1.872e-06	38.728	232.127	55.284	53.976	-30.052	161.950	157.992	-29.404	-24.927	111.009	-15.875	-25.897	-21.187	-21.151	-17.899	14.852	-18.260	-8191	255	
4937.933	1	1	0	0	0.055352	0.085211	0.086581	0.10313	0.14081	0.085667	0.11934	0.16525	0.22893	0.13388	0.18619	0.10833	0.11135	0.29368	0.19915	0.13711	-3.7771	-4.7708	-3.9479	-4.4083	-4.7458	-3.8833	-4.7229	-4.4917	-4.0229	-4.8458	-3.8458	-4.2625	-4.6792	-3.8521	-4.7729	-4.5417	312.645	203.444	-4.614	126.117	19.350	83.132	-16.865	188.048	252.810	124.058	221.621	217.692	278.395	129.434	-15.418	269.002	9.1124e-05	0.00052498	8.3322e-05	470.53	8.5197e-06	9.347e-07	716.52	148.12	6.1341e-06	4.1859e-06	290.1	108.27	47.493	17.193	2.4962e-06	42.313	0.00017379	0.00017129	4.7798e-05	457.1	1.8816e-06	1.8983e-06	687	143.64	1.8824e-06	1.8541e-06	271.93	101.73	46.577	16.73	1.8641e-06	39.286	231.801	77.857	-12.832	-30.143	111.812	198.058	-29.401	-25.274	60.326	143.880	-25.714	-20.918	-20.876	-17.561	296.000	-18.296	-8191	255	
4938.031	1	1	0	0	0.10076	0.10446	0.11356	0.1222	0.092965	0.29662	0.27901	0.16343	0.19955	0.12401	0.051448	0.1484	0.14637	0.14319	0.14515	0.15418	-3.7208	-4.7917	-4.1458	-4.2354	-4.7896	-3.8312	-4.6396	-4.5667	-3.9042	-4.7667	-4.2896	-4.0563	-4.8208	-3.9125	-4.4208	-4.5979	194.104	156.430	307.977	262.970	43.511	51.177	224.131	-16.062	175.728	171.877	239.095	-12.308	255.735	-11.158	291.238	74.888	0.00020062	5.1721e-05	7.643e-05	473.98	3.5511e-06	3.8569e-06	720.1	148.73	3.4223e-06	3.7105e-06	293.33	108.69	48.127	17.239	3.6293e-06	42.95	0.00017243	0.00017229	4.8136e-05	459.07	1.8983e-06	1.8894e-06	691.14	144.7	1.8964e-06	1.8721e-06	274.69	102.71	47.024	16.828	1.8558e-06	39.767	229.190	117.131	91.391	-30.475	-27.655	84.569	-29.321	-25.052	50.161	139.728	-25.378	-20.969	-20.927	-18.227	97.822	-18.250	-8191	255	
4938.126	1	1	0	0	0.27436	0.066732	0.20983	0.059027	0.060858	0.20171	0.12443	0.12101	0.12699	0.29003	0.15769	0.057846	0.10456	0.04347	0.03871	0.40873	-3.3583	-4.7292	-4.1	-4.05	-4.8042	-3.7188	-4.4208	-4.5958	-3.625	-4.7438	-4.3063	-4.0208	-4.875	-4.0833	-4.2458	-4.7542	280.461	67.970	168.089	242.851	206.542	173.125	244.273	30.522	250.178	32.702	212.862	301.820	276.602	47.259	222.933	184.120	0.00015923	0.00017066	6.3512e-05	473.12	2.5651e-06	5.1382e-06	718.17	148.2	5.5745e-06	5.4286e-06	291.32	107.85	47.279	16.882	1.1846e-06	41.59	0.00017474	0.00017288	4.7949e-05	462.33	1.8708e-06	1.9075e-06	690.34	143.78	1.8737e-06	1.859e-06	271.93	100.94	46.218	16.447	1.8513e-06	38.482	209.233	196.625	80.815	-30.275	121.163	40.505	-29.355	-25.417	187.783	131.598	-25.562	-21.141	-20.769	-17.586	10.208	-18.376	-8191	255	
4938.222	1	1	0	0	0.16825	0.13372	0.26926	0.19514	0.020585	0.29858	0.10265	0.16968	0.15125	0.17671	0.14301	0.15721	0.12666	0.22976	0.060875	0.2524	-3.5396	-4.6833	-4.4604	-3.9062	-4.7937	-3.875	-4.3125	-4.7604	-3.75	-4.5708	-4.4271	-3.9854	-4.8771	-4.0542	-4.1	-4.5958	-35.253	32.560	233.261	278.384	268.025	49.203	34.896	15.530	306.017	258.399	204.981	-25.907	265.573	205.581	282.615	248.219	0.00019041	0.0001032	4.7533e-05	468.64	3.2784e-06	3.6896e-06	719.52	148.17	1.5381e-06	4.4403e-06	286.92	106.19	46.901	16.894	3.9678e-06	41.514	0.00017229	0.00016902	4.7265e-05	457.47	1.8412e-06	1.8794e-06	686.19	143.32	1.8513e-06	1.8323e-06	269.82	100.04	45.94	16.393	1.8607e-06	38.42	193.972	80.241	21.929	-30.449	124.779	35.791	-29.568	-25.159	131.298	85.754	-25.659	-21.169	-21.089	-17.940	115.880	-18.294	-8191	255	
4938.318	1	1	0	0	0.12147	0.12803	0.12641	0.11942	0.11067	0.078591	0.16848	0.13659	0.013154	0.038569	0.26394	0.11171	0.12978	0.047882	0.12062	0.050469	-3.6354	-4.3958	-4.4896	-3.8146	-4.7312	-4.1625	-4.2417	-4.6438	-3.7188	-4.5083	-4.7042	-3.8396	-4.6708	-4.2646	-3.7938	-4.7937	74.943	-21.690	232.844	45.814	219.975	122.539	273.778	178.716	218.662	272.081	301.787	269.622	6.940	46.303	64.302	247.704	0.00019054	0.00014641	6.9161e-05	477.29	2.7154e-06	1.8935e-06	719.62	147.62	2.17e-06	3.1298e-06	287.87	106.3	46.964	16.769	1.9792e-06	41.587	0.00017366	0.00017025	4.8029e-05	462.48	1.8711e-06	1.9032e-06	690.2	143.57	1.9255e-06	1.8937e-06	270.95	100.37	46.171	16.42	1.9485e-06	38.657	206.799	-25.397	-24.143	-30.286	135.524	70.753	-29.444	-25.187	309.457	277.447	-25.588	-20.864	-21.097	-17.812	57.703	-18.287	-8191	255	
4938.439	1	1	0	0	0.21669	0.23005	0.067211	0.26715	0.24064	0.051002	0.24553	0.18025	0.21428	0.042617	0.094397	0.12761	0.098326	0.098744	0.14853	0.18837	-3.45	-4.3896	-4.7292	-3.7646	-4.5917	-4.1271	-4.2083	-4.8125	-3.95	-4.2896	-4.6312	-3.8479	-4.6292	-4.3625	-4.0292	-4.7771	119.469	9.313	211.829	-10.205	39.341	147.395	278.359	74.636	101.998	147.283	286.376	119.700	149.826	136.806	118.132	227.443	0.00013547	0.00022183	0.00011188	477.09	5.322e-06	4.8014e-06	720.14	149.22	1.1363e-06	3.1758e-06	292.21	107.15	47.328	16.964	1.1615e-06	41.928	0.00018649	0.00018357	5.1956e-05	467.09	2.0464e-06	2.0852e-06	695.95	145.58	2.0998e-06	2.0801e-06	274.33	101.31	46.752	16.645	2.1019e-06	38.952	202.603	27.381	130.218	-30.505	51.641	38.098	-29.413	-25.491	195.790	31.145	-25.721	-20.745	-20.862	-17.514	-0.174	-18.228	-8191	255	
4938.535	1	1	0	0	0.050234	0.18829	0.24959	0.18026	0.096622	0.086159	0.17302	0.094073	0.053234	0.21003	0.12884	0.08649	0.044319	0.090782	0.18901	0.1625	-3.4979	-3.9854	-4.6458	-3.7542	-4.5062	-4.4146	-3.9167	-4.7958	-4.1771	-4.0833	-4.7604	-3.8542	-4.6479	-4.6417	-3.775	-4.6979	222.307	268.832	-40.655	10.175	238.196	136.556	-12.371	172.283	261.768	252.874	248.888	208.915	119.349	300.558	134.737	221.083	0.00011983	0.00034455	8.8463e-05	478.48	6.3081e-06	2.2122e-06	717.62	147.99	2.5486e-06	1.4729e-06	286.89	105.74	46.889	16.506	4.5334e-06	40.612	0.0001953	0.00019454	5.4077e-05	468.36	2.1344e-06	2.1446e-06	693.01	144.66	2.1772e-06	2.1412e-06	270.57	99.998	46.235	16.331	2.2004e-06	38.139	201.395	25.725	6.947	-30.206	148.744	192.316	-29.484	-25.513	284.749	-32.581	-25.431	-21.360	-20.937	-17.392	234.036	-18.291	-8191	255	
4938.606	1	1	0	0	0.043721	0.1055	0.17313	0.079158	0.26857	0.19606	0.17483	0.098504	0.054493	0.084037	0.15846	0.18596	0.24331	0.24131	0.020463	0.17343	-3.8667	-4.0375	-4.6917	-3.8917	-4.4417	-4.5271	-3.8604	-4.7125	-4.125	-3.9417	-4.9396	-4.0104	-4.3729	-4.6687	-3.8625	-4.8271	134.211	211.046	315.959	261.289	206.027	289.002	-33.826	-25.076	51.244	281.360	197.312	-18.195	245.199	270.311	4.755	-9.555	0.00011615	0.00013628	0.00011975	472.76	1.817e-06	1.1891e-06	709.7	147.1	3.8292e-07	1.6073e-06	284.85	105.81	46.576	16.639	1.421e-06	40.983	0.00020406	0.00020152	5.6969e-05	463.97	2.263e-06	2.2855e-06	689.99	144.14	2.3744e-06	2.4017e-06	271.51	100.94	47.145	16.678	2.5863e-06	38.756	223.297	264.392	48.310	-30.510	29.820	313.551	-29.560	-25.172	124.094	42.635	-25.208	-20.964	-21.226	-18.095	186.545	-18.549	-8191	255	
4938.727	1	1	0	0	0.18158	0.21412	0.083637	0.23527	0.10641	0.28564	0.11048	0.15651	0.26104	0.10877	0.24355	0.12631	0.16318	0.059893	0.061118	0.1047	-4.0208	-3.9646	-4.7854	-3.8292	-4.3021	-4.7188	-3.9542	-4.7104	-4.5437	-3.8812	-4.7729	-4.025	-4.2229	-4.6625	-3.7771	-4.4708	154.706	76.439	175.192	194.610	211.015	159.120	237.545	185.994	-24.318	3.876	68.683	232.803	87.237	154.154	214.331	18.528	0.00012034	0.0002187	0.0001395	471.46	4.7549e-06	4.869e-06	717.96	148.23	7.0537e-06	9.9656e-07	288.18	107.75	47.51	16.78	2.1756e-06	41.514	0.0002458	0.00024486	6.9089e-05	475.82	2.7655e-06	2.8117e-06	702.46	147.71	2.8648e-06	2.8911e-06	277.62	102.74	48.516	17.097	2.9529e-06	39.591	214.109	29.021	109.292	-30.570	152.058	171.512	-29.793	-25.029	99.947	11.279	-25.897	-21.168	-21.246	-17.656	177.569	-18.166	-8191	255	
4938.823	1	1	0	0	0.14877	0.13686	0.13068	0.2609	0.037364	0.092809	0.22087	0.1195	0.16713	0.032893	0.04181	0.24199	0.22354	0.092089	0.23297	0.13649	-4.1458	-3.8771	-4.7229	-4.2417	-3.9208	-4.7479	-3.9729	-4.6917	-4.4646	-3.925	-4.8979	-4.1562	-4.0542	-4.8292	-3.8542	-4.5188	166.388	-11.464	44.949	-20.907	12.214	5.125	3.680	118.231	315.310	274.371	37.735	247.769	-23.557	293.198	268.798	296.141	0.00023515	0.00035556	1.0464e-05	477.97	1.1271e-06	4.7281e-06	719.19	148.99	4.0731e-06	3.4054e-06	289.27	107.45	47.814	16.975	5.4561e-06	42.129	0.00027213	0.00027543	7.642e-05	482.19	3.0056e-06	3.017e-06	706.44	149.69	3.0096e-06	3.059e-06	280.29	103.87	49.166	17.386	3.062e-06	40.325	212.303	75.604	92.556	-30.094	95.291	48.754	-29.401	-25.341	135.838	169.150	-25.738	-20.795	-21.116	-17.663	69.564	-18.410	-8191	255	
4938.918	1	1	0	0	0.098992	0.1456	0.19432	0.22217	0.23692	0.065979	0.15797	0.19694	0.094573	0.12897	0.13575	0.091013	0.23284	0.1371	0.2214	0.093029	-4.4521	-3.8	-4.6333	-4.2063	-3.9208	-4.7646	-3.8604	-4.2812	-4.6188	-3.7833	-4.675	-4.4688	-3.8667	-4.6854	-4.1625	-4.2896	22.613	295.883	44.325	27.750	134.101	55.850	241.705	226.207	104.353	60.673	281.057	-7.634	311.573	-35.339	57.682	260.869	6.4469e-05	0.00027679	0.00020553	474.03	8.3981e-06	4.7628e-06	718.99	147.93	6.9523e-06	2.4209e-06	287.85	106.98	47.223	16.72	3.9049e-06	41.159	0.00027756	0.00027894	7.7057e-05	481.92	3.0208e-06	3.0221e-06	704.56	148.75	3.006e-06	3.0128e-06	277.66	102.87	48.544	17.027	2.9778e-06	39.251	165.015	95.752	-18.802	-30.044	100.706	120.068	-29.668	-25.505	145.065	205.588	-25.835	-20.789	-21.553	-17.837	43.165	-18.092	-8191	255	
4939.038	1	1	0	0	0.13247	0.21467	0.072195	0.17595	0.076591	0.17934	0.22099	0.23211	0.13731	0.09601	0.15346	0.083221	0.35526	0.075921	0.11205	0.20799	-4.4042	-3.8208	-4.5146	-4.5542	-3.7958	-4.7875	-4.15	-4.1854	-4.8208	-3.8771	-4.7438	-4.6062	-3.85	-4.8438	-4.1562	-4.1937	41.850	62.228	316.436	82.603	167.285	23.712	248.322	232.511	98.722	301.749	212.854	68.393	36.889	-18.698	80.744	255.177	0.00014449	0.00036854	9.3534e-05	469.58	7.6788e-06	1.0429e-06	712.18	146.81	5.0403e-06	2.2775e-06	287.78	106.31	46.701	16.728	3.9316e-06	41.058	0.00026921	0.00026928	7.4241e-05	475.56	2.9236e-06	2.9343e-06	696.99	147.21	2.9157e-06	2.9226e-06	276.1	102.32	48.185	16.991	2.8665e-06	39.106	227.147	74.859	121.221	-30.192	3.093	278.094	-29.534	-24.812	36.680	82.064	-25.582	-20.769	-20.756	-17.699	197.679	-18.370	-8191	255	
4939.134	1	1	0	0	0.13654	0.13914	0.049723	0.1602	0.038131	0.27995	0.067488	0.24806	0.059706	0.12017	0.17915	0.1846	0.16299	0.019391	0.18466	0.13119	-4.5333	-3.9875	-4.5604	-4.5833	-3.8771	-4.8729	-4.3875	-4.1312	-4.8167	-3.9083	-4.4958	-4.7729	-3.7562	-4.8146	-4.3417	-3.9958	306.458	11.546	56.366	20.352	28.901	-15.675	-13.869	180.185	30.171	103.126	21.294	222.809	186.291	265.983	167.039	240.213	0.0001139	0.0002091	1.6356e-05	472.95	9.7583e-07	2.1175e-06	716.61	148.06	4.448e-06	2.6809e-06	289.44	106.99	47.226	16.774	5.1763e-06	41.49	0.00026243	0.00026256	7.2446e-05	475.29	2.8587e-06	2.8586e-06	701.24	147.99	2.8651e-06	2.8513e-06	277.8	102.86	48.565	17.055	2.8885e-06	39.438	214.862	91.741	158.087	-30.254	-34.643	58.735	-29.494	-25.386	159.570	149.089	-25.807	-21.292	-20.813	-17.663	159.057	-18.562	-8191	255	
4939.231	1	1	0	0	0.1531	0.2637	0.095787	0.14096	0.20458	0.10881	0.20192	0.071658	0.19309	0.25257	0.028975	0.17125	0.0062637	0.15944	0.04218	0.098769	-4.4792	-3.9083	-4.4021	-4.6667	-3.8042	-4.6292	-4.4146	-3.9729	-4.7438	-4.1	-4.2562	-4.8208	-3.7521	-4.625	-4.375	-4.0563	281.873	110.816	-20.890	-39.660	123.704	133.197	149.594	144.817	97.004	301.772	-18.844	227.604	53.052	43.121	119.465	228.161	0.00013017	0.00033552	0.00015095	479.4	3.8158e-06	1.3905e-06	727.68	148.88	4.556e-06	2.87e-06	288.97	107.53	47.74	17.008	5.3967e-06	41.983	0.00026421	0.00026659	7.4323e-05	482.93	2.9439e-06	2.9624e-06	709.2	150.12	2.939e-06	2.9615e-06	279.85	103.4	48.894	17.259	2.9595e-06	39.855	201.486	103.040	41.618	-30.190	156.588	211.442	-29.165	-25.021	140.532	132.132	-25.517	-20.679	-20.620	-17.569	68.740	-17.889	-8191	255	
4939.302	1	1	0	0	0.0862	0.11309	0.070155	0.081019	0.19753	0.21581	0.37282	0.03158	0.039065	0.029681	0.20581	0.1425	0.093045	0.052975	0.047828	0.20559	-4.6479	-4.0062	-4.2146	-4.5938	-3.8625	-4.5188	-4.6833	-3.9542	-4.6312	-4.0667	-4.3021	-4.7208	-3.9479	-4.625	-4.7	-3.8937	232.915	-1.376	304.920	63.259	71.033	243.620	229.719	46.920	33.859	-15.230	34.545	-32.235	278.036	213.286	292.706	261.328	0.00020663	0.00033691	9.6652e-05	474.19	1.7325e-06	2.0613e-06	716.85	146.09	1.5512e-06	3.3031e-06	285.08	105.47	46.483	16.516	5.5634e-06	40.874	0.00026857	0.00027067	7.5589e-05	480.04	2.9919e-06	2.9558e-06	700.09	147.63	2.9528e-06	2.9333e-06	274.74	101.77	47.958	16.819	2.8908e-06	38.814	181.937	29.241	53.086	-30.324	299.520	195.871	-29.173	-24.887	46.027	179.190	-25.444	-20.947	-21.465	-17.543	247.909	-18.607	-8191	255	
4939.398	1	1	0	0	0.21085	0.22958	0.15572	0.031352	0.055115	0.070096	0.17149	0.27476	0.14946	0.075382	0.18265	0.067399	0.08647	0.25259	0.066244	0.23406	-4.3333	-3.9813	-4.0563	-4.8146	-3.9708	-4.3646	-4.7688	-3.7125	-4.5771	-4.275	-4.0729	-4.9521	-3.925	-4.2896	-4.575	-3.8937	141.382	39.178	255.986	122.870	187.532	292.292	298.825	-2.574	12.460	156.751	308.595	97.874	137.835	187.913	242.741	312.054	0.00013175	0.00025794	0.00010982	469.63	1.9003e-06	5.5207e-06	709.27	145.9	2.4826e-06	4.9323e-06	286.85	106.41	46.978	16.587	5.5805e-06	41.224	0.00026355	0.00026615	7.402e-05	473.88	2.9067e-06	2.9144e-06	694.98	146.91	2.8843e-06	2.9239e-06	275.4	102.04	48.121	16.957	2.8919e-06	39.186	198.775	159.270	39.330	-29.760	70.806	158.037	-29.323	-25.479	68.606	76.295	-25.876	-20.772	-21.007	-17.872	248.707	-18.762	-8191	255	
4939.519	1	1	0	0	0.17282	0.2225	0.028426	0.066319	0.18428	0.12446	0.1107	0.1721	0.17426	0.12354	0.13348	0.10944	0.22352	0.093043	0.22767	0.1515	-4.3938	-4.3229	-3.9625	-4.8063	-4.0833	-4.1771	-4.8625	-3.95	-4.6396	-4.6833	-4.0062	-4.925	-4.325	-4.2208	-4.7833	-3.8937	199.158	240.088	196.580	197.147	26.056	268.384	214.234	17.147	181.631	35.547	295.584	-14.776	166.305	295.022	165.927	179.650	0.00033418	0.00010623	8.8422e-05	470.98	6.2566e-06	1.5773e-06	717.47	147.25	5.38e-06	2.1165e-06	287.64	107.03	47.054	16.827	2.5716e-06	41.789	0.00026815	0.00026798	7.4922e-05	477.51	2.9009e-06	2.9109e-06	699.71	147.97	2.9023e-06	2.9058e-06	276.58	102.59	48.408	17.081	2.9018e-06	39.664	220.832	49.013	-6.993	-30.161	54.173	44.074	-29.390	-25.476	181.336	297.156	-25.400	-20.526	-20.826	-18.095	174.645	-18.317	-8191	255	
4939.615	1	1	0	0	0.31454	0.088153	0.13941	0.27349	0.3481	0.024451	0.054805	0.031017	0.039182	0.05369	0.070789	0.33712	0.081994	0.17379	0.024038	0.17136	-4.1854	-4.4208	-3.8771	-4.8771	-4.0375	-4.1146	-5.0708	-4.125	-4.4271	-4.6667	-3.8229	-4.6333	-4.2292	-4.1	-4.7104	-4.0125	22.971	130.330	63.656	142.692	12.090	71.890	107.512	247.068	219.440	290.916	276.880	295.687	55.486	173.829	259.473	55.131	0.00017748	0.00063809	8.8055e-05	476.56	7.8869e-06	2.575e-06	720.27	149.12	2.0751e-06	3.1707e-06	290.75	108.85	47.726	16.989	3.5539e-06	42.075	0.00026451	0.00026142	7.3548e-05	479.25	2.8636e-06	2.8542e-06	703.93	149.17	2.822e-06	2.8225e-06	279.09	103.47	48.636	17.204	2.7879e-06	39.881	219.939	32.764	72.793	-29.518	161.106	55.682	-29.399	-24.997	-38.853	129.606	-25.960	-20.925	-20.254	-18.162	34.796	-18.238	-8191	255	
4939.711	1	1	0	0	0.231	0.16963	0.096304	0.1569	0.25675	0.26648	0.11557	0.13615	0.21413	0.10585	0.068306	0.17009	0.069675	0.11134	0.12782	0.32947	-4.0813	-4.7312	-3.6833	-4.9021	-4.3917	-4.0062	-4.8812	-3.9458	-4.3125	-4.7354	-4.05	-4.6292	-4.3958	-4.0563	-4.7271	-4.3229	102.702	52.841	161.737	229.805	14.874	295.626	186.763	294.140	-23.147	30.470	87.201	270.963	-41.969	262.674	51.965	289.263	0.0001774	0.00026486	9.3837e-05	473.37	1.9388e-06	2.3935e-06	710.02	145.9	6.5515e-06	8.1712e-06	286.39	106.7	47.333	16.625	3.8477e-06	41.277	0.00025855	0.00025748	7.0888e-05	475.33	2.7719e-06	2.797e-06	695.03	146.84	2.7807e-06	2.7582e-06	275.53	102.38	48.083	16.91	2.7582e-06	39.204	186.669	265.585	125.575	-30.043	211.775	172.713	-29.174	-25.399	12.645	137.929	-25.516	-20.519	-20.564	-17.290	56.286	-18.239	-8191	255	
4939.832	1	1	0	0	0.046937	0.21108	0.24613	0.20582	0.00094466	0.23609	0.10639	0.080846	0.20374	0.23122	0.079959	0.13457	0.061211	0.14663	0.11591	0.094928	-3.8292	-4.6292	-3.7812	-4.6354	-4.4104	-3.9271	-4.8104	-4.3063	-4.1	-4.7458	-4.0167	-4.6042	-4.4563	-3.8917	-4.7375	-4.2562	154.093	100.357	310.549	256.778	180.000	39.637	299.187	180.360	80.619	104.004	3.395	184.815	244.609	311.599	-40.317	70.974	6.4702e-05	0.00050297	4.9635e-05	469.42	5.3385e-06	2.7781e-06	709.83	145.89	2.752e-07	5.7019e-06	287.29	107.63	47.218	16.884	4.7757e-06	41.815	0.00025553	0.00025521	7.1143e-05	471.7	2.7992e-06	2.7691e-06	693.96	146.37	2.7864e-06	2.7941e-06	275.86	102.69	47.999	16.982	2.7329e-06	39.546	241.106	2.997	264.823	-29.865	107.490	120.722	-29.345	-25.174	24.323	48.642	-25.368	-20.924	-20.117	-17.495	280.601	-18.395	-8191	255	
4939.904	1	1	0	0	0.16229	0.25469	0.13845	0.22685	0.11983	0.1362	0.082853	0.24284	0.11847	0.22787	0.09256	0.20088	0.092107	0.12793	0.082273	0.054559	-3.7708	-4.7688	-3.8563	-4.4792	-4.7583	-4.0104	-4.9542	-4.4792	-3.9583	-4.8479	-4.1083	-4.5542	-4.625	-3.8833	-4.5896	-4.3667	174.261	164.997	226.055	255.767	268.260	46.576	237.800	232.185	-17.387	43.733	303.160	242.646	187.836	0.844	51.573	69.634	0.00017615	0.00025625	9.0859e-05	469.92	5.1174e-06	4.7523e-06	716.78	146.89	3.8008e-06	4.8455e-06	287.86	107.62	47.069	17.045	2.1877e-06	42.111	0.00025071	0.00025217	7.0216e-05	472.21	2.7446e-06	2.7383e-06	697.29	146.91	2.74e-06	2.7141e-06	276.97	103.13	48.148	17.112	2.669e-06	39.943	153.851	153.407	43.321	-30.521	145.476	-17.872	-29.734	-24.943	67.438	54.870	-25.340	-20.605	-21.014	-17.754	59.296	-18.356	-8191	255	
4940.000	1	1	0	0	0.27222	0.10402	0.32755	0.17552	0.21085	0.12586	0.17288	0.16316	0.19527	0.13197	0.18536	0.037307	0.14659	0.15236	0.10296	0.22982	-3.6437	-4.8167	-3.9417	-4.3438	-4.6917	-3.9208	-4.7896	-4.5667	-4.0146	-4.6854	-4.2292	-4.2604	-4.7063	-3.9333	-4.5375	-4.6208	224.510	271.694	58.642	276.003	182.812	63.932	282.768	237.989	174.265	43.046	-30.299	177.360	-15.259	99.408	159.257	182.008	7.0266e-05	0.00052121	0.00019334	469.43	8.2583e-07	7.6673e-08	713.99	148.72	3.4193e-06	4.1991e-06	290.38	108.75	48.146	17.28	2.8258e-06	42.392	0.00024978	0.00024612	6.9029e-05	470.67	2.6996e-06	2.705e-06	696.47	148.06	2.6903e-06	2.6654e-06	278.38	104.03	48.419	17.28	2.6835e-06	39.918	197.569	67.974	77.879	-30.207	120.848	238.043	-29.384	-25.115	76.946	34.251	-25.434	-21.262	-20.613	-17.450	292.695	-18.656	-8191	255	
4940.119	1	1	0	0	0.12395	0.18594	0.21253	0.22379	0.2022	0.14719	0.032977	0.063022	0.095246	0.12938	0.1185	0.095345	0.27894	0.22928	0.086149	0.1254	-3.4667	-4.7375	-4.1312	-4.0646	-4.7375	-3.8479	-4.5458	-4.6104	-3.6312	-4.7458	-4.3021	-3.9708	-4.7292	-4.1146	-4.2667	-4.7771	131.078	45.402	150.521	224.356	62.945	187.426	68.885	184.406	298.632	135.372	41.960	279.154	315.287	306.680	82.760	-18.862	0.00013347	7.4237e-05	0.00012346	467.15	1.8745e-06	4.6905e-06	709.49	145.33	5.958e-06	4.9509e-06	287.17	106.63	46.49	16.817	6.2861e-06	41.53	0.00024638	0.00024668	6.8484e-05	467.98	2.666e-06	2.6698e-06	690.93	145.53	2.6879e-06	2.6167e-06	273.92	101.59	47.324	16.865	2.5893e-06	39.09	201.816	107.628	49.632	-30.023	122.193	187.294	-29.026	-25.193	104.066	57.997	-25.465	-20.584	-20.913	-17.819	142.809	-18.002	-8191	255	
4940.215	1	1	0	0	0.23197	0.068727	0.068185	0.15144	0.068842	0.15723	0.05228	0.27218	0.16675	0.17451	0.26714	0.28839	0.16497	0.14863	0.083555	0.21763	-3.5333	-4.6708	-4.4875	-4.0146	-4.825	-3.875	-4.4458	-4.8187	-3.9542	-4.6687	-4.2438	-4.0104	-4.9688	-4.0938	-4.175	-4.8812	208.309	121.550	253.851	256.308	69.728	83.811	1.575	302.733	229.158	195.790	12.740	232.180	97.914	4.003	190.469	191.555	0.00011885	0.00024197	0.00015409	462.85	7.3764e-06	4.9606e-06	705.35	145.18	3.9626e-06	3.997e-06	286.41	105.64	46.657	16.698	1.9576e-06	41.529	0.00024067	0.00024197	6.7594e-05	464.04	2.6251e-06	2.6254e-06	689.15	145.14	2.6604e-06	2.6436e-06	273.16	101.34	47.165	16.809	2.6361e-06	39.226	204.357	231.082	314.353	-30.023	145.171	68.917	-29.296	-24.937	242.742	-17.379	-25.610	-20.831	-21.072	-17.659	237.453	-18.169	-8191	255	
4940.311	1	1	0	0	0.076905	0.077468	0.26597	0.093909	0.038819	0.15712	0.10123	0.1787	0.35235	0.067302	0.15461	0.39209	0.12185	0.22005	0.13045	0.083844	-3.5938	-4.6188	-4.4583	-3.9813	-4.8583	-4.1562	-4.1521	-4.95	-3.775	-4.5521	-4.4917	-3.9437	-4.7646	-4.2021	-4.1729	-4.9833	150.351	29.244	117.033	-10.440	211.440	203.078	310.960	249.983	196.343	64.535	-28.242	-3.456	69.044	194.095	80.706	210.338	0.00019901	0.00055615	7.6969e-05	467.82	5.0529e-06	5.3976e-06	711.63	146.04	2.2892e-06	6.9693e-06	287.47	105.58	46.442	16.829	3.5922e-06	41.555	0.00024348	0.00024527	6.7679e-05	469.09	2.6488e-06	2.645e-06	692.33	145.39	2.6578e-06	2.6302e-06	274.32	101.4	47.216	16.922	2.631e-06	39.469	210.943	25.461	26.405	-29.950	162.400	0.290	-29.240	-24.968	216.717	101.967	-25.056	-21.170	-20.991	-17.186	40.419	-18.417	-8191	255	
4940.432	1	1	0	0	0.17353	0.30397	0.12016	0.31545	0.19909	0.20325	0.038853	0.43414	0.038151	0.18766	0.13881	0.19575	0.034338	0.17241	0.13074	0.35119	-3.4271	-4.3479	-4.6375	-3.9479	-4.7083	-4.1125	-4.1687	-4.8	-3.9646	-4.3021	-4.7875	-3.825	-4.8063	-4.2458	-3.7792	-4.9	298.288	137.128	272.436	-11.819	-30.779	-18.296	73.573	50.176	238.525	77.718	196.262	-33.282	119.829	56.074	308.443	232.647	0.00026053	0.00055478	0.00010043	468.19	3.0075e-06	2.0059e-07	716.17	146.81	4.8211e-06	4.4037e-06	290.28	106.31	47.123	16.925	5.2989e-06	41.93	0.00024222	0.00023994	6.736e-05	469.91	2.6403e-06	2.6427e-06	696.12	146.58	2.6585e-06	2.6366e-06	275.87	102.04	47.649	16.984	2.6461e-06	39.573	248.429	72.775	108.628	-30.440	150.755	133.875	-29.544	-25.390	83.015	106.701	-24.826	-21.198	-20.856	-17.629	150.584	-18.575	-8191	255	
4940.503	1	1	0	0	0.1186	0.24405	0.20622	0.1693	0.11825	0.24226	0.22934	0.17944	0.090142	0.041463	0.048502	0.091359	0.21855	0.17799	0.075416	0.013365	-3.6312	-4.1104	-4.5583	-3.9479	-4.5542	-4.375	-4.0417	-4.7937	-4.0813	-4.2146	-4.7854	-3.9208	-4.5875	-4.3313	-3.8417	-4.8792	238.931	-17.722	-0.166	32.551	154.573	64.094	203.711	273.979	-23.518	-4.448	49.737	243.058	60.236	141.271	264.968	313.706	6.5183e-05	0.00034841	0.00011379	464.45	5.8145e-06	3.8406e-06	705.1	144.85	4.1481e-06	3.2303e-06	285.18	105.49	46.535	16.581	2.5374e-06	41.216	0.00024695	0.00024324	6.808e-05	466.67	2.6388e-06	2.6725e-06	688.31	145.04	2.6424e-06	2.6411e-06	272.31	100.87	46.885	16.684	2.6076e-06	38.959	167.047	45.912	87.811	-29.726	257.928	199.049	-29.537	-24.807	135.310	278.977	-24.918	-20.477	-20.731	-17.645	31.910	-18.340	-8191	255	
4940.599	1	1	0	0	0.10759	0.14243	0.12251	0.2419	0.0129	0.17626	0.03985	0.024215	0.25538	0.074617	0.10582	0.17287	0.082216	0.043029	0.060901	0.10834	-3.8292	-4.0479	-4.6188	-3.8792	-4.3562	-4.2771	-3.8417	-4.6417	-4.0667	-4.0312	-4.9125	-3.6771	-4.2958	-4.5062	-3.8438	-4.7646	135.309	137.377	41.799	88.750	247.127	199.557	26.373	114.906	91.845	141.966	4.505	234.688	285.675	181.254	145.565	272.014	0.00018941	0.00010199	8.9158e-05	460.1	9.0843e-06	5.3651e-07	705.44	144.71	2.3404e-06	3.7879e-06	284.82	106.16	46.288	16.627	3.6642e-06	41.727	0.00023817	0.00023891	6.6632e-05	462.68	2.5721e-06	2.5955e-06	687.92	144.46	2.5551e-06	2.5395e-06	272.14	101.2	46.783	16.691	2.5403e-06	39.211	207.927	20.753	59.057	-30.027	94.526	83.594	-29.441	-25.140	80.124	177.419	-25.171	-20.566	-21.251	-17.096	119.457	-18.025	-8191	255	
4940.696	1	1	0	0	0.32983	0.074566	0.14538	0.088054	0.20487	0.22683	0.05628	0.28799	0.20273	0.090755	0.05014	0.21381	0.15526	0.11899	0.19997	0.2282	-3.8333	-3.9375	-4.775	-3.8812	-4.2521	-4.6375	-3.8125	-4.7104	-4.25	-3.8312	-4.8083	-4.0563	-4.2021	-4.5667	-3.8771	-4.6188	236.169	65.198	201.173	-32.626	16.595	55.454	298.925	267.947	130.553	138.132	305.983	124.150	298.187	46.661	67.385	243.107	0.00013781	0.00032405	0.00015257	457.8	2.7673e-06	3.8588e-06	705.28	144.85	2.8365e-06	2.4723e-06	288.12	106.67	46.246	16.626	7.4834e-06	42.533	0.00023352	0.00023152	6.4238e-05	461.84	2.5328e-06	2.5311e-06	686.22	144.25	2.5316e-06	2.5299e-06	274.25	101.55	46.873	16.772	2.5499e-06	39.768	184.086	36.553	95.221	-29.878	74.787	132.508	-29.010	-24.815	149.596	154.310	-25.253	-20.875	-20.717	-17.394	107.007	-18.070	-8191	255	
4940.814	1	1	0	0	0.09279	0.21399	0.38322	0.060252	0.091047	0.15001	0.10619	0.18367	0.086993	0.17981	0.22182	0.12053	0.074185	0.14898	0.16108	0.12618	-4.0896	-3.9792	-4.7542	-3.8396	-4.1646	-4.7083	-4.0125	-4.5229	-4.4313	-3.7229	-4.8292	-4.1667	-4.0854	-4.7937	-3.8396	-4.4354	-13.363	-8.005	57.343	71.821	67.190	137.524	66.767	-11.214	312.917	283.951	-33.828	104.580	21.031	230.242	161.150	85.408	0.00019377	0.00016761	0.00011329	466.14	6.1013e-07	2.5181e-06	715.41	147.66	6.1139e-06	3.4301e-06	290.8	106.99	46.456	16.889	2.3227e-06	42.317	0.00023141	0.00023203	6.4695e-05	467.03	2.5462e-06	2.54e-06	695.98	146.57	2.563e-06	2.5633e-06	275.96	101.93	46.917	16.911	2.5594e-06	39.725	182.802	-9.785	-28.409	-30.262	191.959	65.345	-29.163	-24.692	134.852	206.510	-25.247	-20.943	-21.182	-16.906	10.207	-18.187	-8191	255	
4940.911	1	1	0	0	0.20872	0.27557	0.049972	0.21267	0.11196	0.27479	0.23523	0.18327	0.11767	0.14975	0.068395	0.16592	0.11071	0.061008	0.10343	0.17188	-4.1604	-3.8521	-4.5792	-4.1792	-3.9188	-4.6771	-3.7771	-4.5021	-4.5208	-3.8187	-4.7125	-4.3229	-3.9146	-4.7104	-3.8979	-4.4688	-33.729	223.735	205.821	268.573	139.520	-12.414	220.597	267.172	-27.291	307.813	171.850	159.879	43.144	166.128	95.017	272.132	0.00016115	0.00016333	3.6238e-05	467.92	3.1642e-06	2.1545e-06	704.75	145.42	6.8892e-06	3.5846e-06	283.72	104.94	45.619	16.732	5.9859e-06	41.432	0.00023509	0.00023576	6.5369e-05	466.21	2.5215e-06	2.5328e-06	687.3	143.48	2.4872e-06	2.4648e-06	270.36	100.1	46.033	16.627	2.4544e-06	38.834	174.822	92.873	50.348	-29.726	32.796	249.695	-29.190	-24.926	48.644	203.909	-25.183	-20.682	-20.505	-17.306	153.573	-18.081	-8191	255	
4941.007	1	1	0	0	0.097942	0.093078	0.13604	0.037127	0.18337	0.19761	0.20804	0.21008	0.093416	0.10509	0.22059	0.15086	0.093819	0.31357	0.20964	0.19183	-4.2021	-3.7292	-4.8771	-4.4125	-3.8604	-4.6021	-4.0896	-4.2417	-4.4833	-3.675	-4.5604	-4.4396	-3.8604	-4.6562	-4.0375	-4.1104	154.544	-11.322	71.233	28.634	124.743	279.899	278.672	205.588	255.694	273.612	253.242	-23.071	256.799	-28.898	166.834	69.930	0.00017755	0.00014798	0.00012489	463.71	2.1104e-06	2.6363e-06	705.94	143.14	6.4853e-06	4.2284e-06	285.93	106.05	46.111	16.795	1.126e-06	41.574	0.00022144	0.0002232	6.1746e-05	459.12	2.4105e-06	2.4232e-06	683.59	142.63	2.4296e-06	2.4228e-06	270.99	100.38	46.141	16.661	2.4182e-06	39.076	190.181	3.839	76.271	-29.732	31.550	251.197	-29.239	-25.050	220.764	40.255	-25.066	-20.789	-19.924	-17.030	189.144	-18.268	-8191	255	
4941.103	1	1	0	0	0.11712	0.1054	0.2059	0.15092	0.27146	0.058706	0.16011	0.053481	0.2725	0.1307	0.067609	0.22607	0.089154	0.07653	0.17448	0.23104	-4.4187	-3.7896	-4.6396	-4.4563	-3.7708	-4.7771	-4.0604	-4.1104	-4.7333	-3.9	-4.4417	-4.5604	-3.7604	-4.6833	-4.1792	-3.9062	37.513	97.606	153.487	34.771	106.478	88.034	133.995	150.749	39.056	137.325	1.673	6.213	143.964	-19.656	289.658	-29.153	0.00015941	0.00027282	0.00014327	462.73	2.3927e-06	2.0777e-06	708.41	145.54	5.585e-06	5.8992e-06	287.49	106.09	46.357	16.688	4.6135e-06	41.906	0.00021979	0.00021874	6.1376e-05	459.83	2.3834e-06	2.395e-06	687.19	143.7	2.407e-06	2.4038e-06	272.6	100.7	46.461	16.705	2.4359e-06	39.443	178.282	311.506	70.450	-29.439	221.171	247.662	-29.127	-24.764	-3.714	119.844	-25.763	-20.600	-20.821	-16.859	75.316	-17.957	-8191	255	
4941.199	1	1	0	0	0.093335	0.097956	0.082953	0.07056	0.082797	0.044918	0.082123	0.13016	0.023945	0.044252	0.2933	0.18857	0.18737	0.23473	0.15524	0.20842	-4.4354	-3.775	-4.3479	-4.5146	-3.7521	-4.65	-4.4417	-3.9771	-4.85	-4.0938	-4.3396	-4.5938	-3.7979	-4.6146	-4.2979	-3.9271	-41.045	18.773	17.582	229.123	5.173	167.455	9.645	80.753	59.567	-27.428	226.365	-3.910	-3.660	-16.383	286.254	263.252	0.000131	0.00037667	0.00011356	466.18	4.8522e-06	2.9234e-06	713.28	146.82	2.5715e-06	2.6665e-06	286.39	106.01	45.531	16.776	4.7823e-06	41.507	0.0002203	0.00022469	6.1133e-05	463.11	2.4086e-06	2.4091e-06	691.56	144.8	2.417e-06	2.4122e-06	272.37	100.44	46.032	16.65	2.429e-06	38.996	200.801	11.899	3.215	-29.893	143.251	-10.743	-29.020	-24.888	228.213	133.913	-24.961	-20.581	-20.441	-17.516	34.954	-18.176	-8191	255	
4941.295	1	1	0	0	0.17125	0.16678	0.27528	0.14014	0.17067	0.26366	0.12448	0.13566	0.1468	0.15202	0.16619	0.062882	0.15435	0.046398	0.099878	0.38346	-4.4313	-3.9896	-4.2604	-4.7708	-3.7521	-4.6562	-4.4667	-3.7521	-4.8313	-4.1667	-4.1667	-4.6375	-3.85	-4.4896	-4.3875	-3.7917	148.950	218.472	290.440	223.069	273.427	205.891	262.886	271.379	183.160	231.753	9.137	224.366	293.744	9.354	231.398	-27.526	0.00014384	0.00019691	0.00015312	464.78	1.267e-06	3.1252e-06	704.05	143.83	2.1784e-06	8.6297e-07	282.97	104.95	44.896	16.559	3.0904e-06	41.282	0.00022443	0.00022495	6.1523e-05	460.34	2.4004e-06	2.3815e-06	682.92	141.97	2.4144e-06	2.393e-06	268.97	99.468	45.544	16.424	2.3577e-06	38.681	219.886	75.324	119.273	-29.628	62.339	308.546	-29.074	-24.765	169.880	305.219	-25.300	-20.769	-20.547	-16.699	145.563	-17.781	-8191	255	
4941.391	1	1	0	0	0.18081	0.22141	0.3292	0.1181	0.16678	0.11357	0.2822	0.07361	0.048331	0.090934	0.26357	0.098235	0.059862	0.02566	0.14363	0.036052	-4.5292	-3.9583	-3.9292	-4.7271	-3.7896	-4.4646	-4.7729	-4.0083	-4.7396	-4.2312	-4.075	-4.6625	-3.9688	-4.4	-4.4771	-3.8979	201.454	132.464	264.594	222.293	-31.890	235.592	250.906	153.644	228.083	-41.621	263.090	-22.197	66.308	166.600	5.557	277.698	0.00012957	7.6811e-05	6.3722e-05	461.16	1.2086e-06	3.7126e-06	697.51	143.49	4.3819e-06	5.0843e-06	284.92	105.09	45.6	16.648	2.1963e-06	41.584	0.00021866	0.00021824	6.1148e-05	457.72	2.4077e-06	2.3917e-06	678.49	141.77	2.3827e-06	2.4051e-06	269.84	99.828	45.814	16.53	2.3536e-06	38.946	202.781	-32.430	195.503	-30.026	94.542	13.612	-28.792	-25.076	36.948	97.085	-25.643	-20.735	-20.828	-17.515	284.634	-18.083	-8191	255	
4941.510	1	1	0	0	0.08687	0.23549	0.13889	0.10981	0.087613	0.18288	0.1496	0.17431	0.081357	0.19485	0.085724	0.23953	0.042475	0.023606	0.20813	0.2383	-4.2625	-4.3333	-4.0833	-4.8354	-3.9458	-4.2917	-4.8042	-3.8396	-4.525	-4.45	-3.9917	-4.7021	-4.0396	-4.1375	-4.6562	-3.9083	224.661	180.204	265.069	22.840	124.466	175.364	261.942	316.114	129.801	124.174	81.586	309.381	-42.433	144.744	-30.676	302.584	0.00012296	0.00046576	0.00010759	461.94	2.4057e-06	5.9287e-06	702.41	143.94	6.4575e-06	1.0211e-06	283.78	106.23	46.028	16.819	1.7581e-06	41.837	0.00021646	0.00021233	5.9774e-05	457.12	2.3745e-06	2.3608e-06	680.62	141.93	2.3213e-06	2.3384e-06	270.23	100.62	46.031	16.679	2.3519e-06	39.341	218.860	176.545	39.562	-30.202	18.355	17.285	-29.045	-25.195	83.566	109.262	-25.156	-20.306	-20.405	-17.474	172.327	-18.232	-8191	255	
4941.606	1	1	0	0	0.27423	0.12212	0.19826	0.34071	0.095117	0.049089	0.091025	0.11585	0.17128	0.13356	0.1051	0.14996	0.12076	0.075697	0.1569	0.46345	-4.2604	-4.3812	-3.9208	-4.7854	-3.9042	-4.1146	-4.9688	-4.0208	-4.5229	-4.5417	-3.9521	-4.7583	-4.3063	-4.0854	-4.7625	-4.0042	81.306	-24.199	181.709	246.345	182.515	304.248	99.866	-26.954	-6.776	238.272	171.992	253.162	82.180	38.472	168.304	307.318	0.00015948	0.00021644	6.0602e-05	459.59	5.2519e-06	4.3137e-06	709.96	144.72	6.2493e-06	6.7291e-07	285.5	106.03	45.797	16.821	2.5582e-06	41.85	0.00021651	0.00021491	5.9769e-05	456.62	2.3665e-06	2.3408e-06	684.69	142.7	2.3513e-06	2.3363e-06	271.16	100.97	46.231	16.714	2.3262e-06	39.164	222.276	35.469	15.058	-29.952	90.685	-41.703	-28.959	-24.812	314.853	260.926	-25.578	-20.729	-20.122	-17.482	125.645	-18.075	-8191	255	
4941.703	1	1	0	0	0.22032	0.16159	0.27164	0.10445	0.11549	0.18697	0.26708	0.17812	0.11109	0.15891	0.021554	0.15089	0.24553	0.027966	0.23445	0.23413	-3.9792	-4.4792	-3.9396	-4.6125	-4.2417	-3.9667	-4.9563	-3.9271	-4.475	-4.625	-3.8375	-4.4667	-4.4167	-3.7833	-4.6604	-4.1396	152.274	-19.113	301.483	34.872	78.447	287.458	242.750	-37.507	49.920	-42.237	169.680	272.949	226.993	199.038	33.019	281.884	5.0863e-05	0.00033153	5.1673e-05	460.58	3.8535e-06	2.624e-06	700.99	142.8	1.8228e-06	1.9358e-06	281.81	104.83	45.215	16.617	3.797e-06	41.354	0.0002139	0.00021258	6.0266e-05	455.92	2.3271e-06	2.3373e-06	679.49	141.21	2.3243e-06	2.3156e-06	268.06	99.474	45.474	16.412	2.2897e-06	38.71	179.288	174.437	-30.499	-30.032	82.963	204.011	-28.966	-25.088	183.100	272.351	-24.968	-20.519	-20.704	-17.938	98.249	-18.137	-8191	255	
4941.799	1	1	0	0	0.29511	0.065356	0.21019	0.057828	0.10344	0.28489	0.065479	0.064385	0.079895	0.069032	0.19156	0.1457	0.25482	0.26532	0.15964	0.16989	-3.8958	-4.6542	-3.675	-4.5625	-4.3625	-3.925	-4.8396	-4.075	-4.0875	-4.7458	-3.6875	-4.4458	-4.4104	-3.9458	-4.6813	-4.1813	-17.760	66.771	202.710	-33.909	-6.496	185.183	87.654	48.544	6.581	93.224	-21.406	271.125	80.055	-2.395	127.415	210.652	0.00011414	0.00031921	7.6999e-05	458.19	1.2029e-06	5.8671e-06	701.63	143.79	4.6044e-06	6.1062e-06	282.24	105.18	45.89	16.8	5.6032e-06	41.88	0.00021392	0.00021347	5.9666e-05	453.85	2.3406e-06	2.3826e-06	680.02	141.99	2.4036e-06	2.3828e-06	269.73	100.15	46.056	16.623	2.4089e-06	39.175	212.761	34.442	5.898	-29.675	128.980	-2.557	-29.031	-24.471	36.474	121.122	-25.088	-20.709	-20.558	-17.342	153.068	-18.187	-8191	255	
4941.895	1	1	0	0	0.24694	0.21349	0.13533	0.17023	0.087201	0.21082	0.12348	0.30395	0.028214	0.11018	0.034658	0.24358	0.21795	0.30248	0.05093	0.21433	-3.7	-4.7083	-3.8812	-4.5188	-4.4833	-3.8625	-4.8771	-4.0625	-4.0813	-4.7937	-4.0646	-4.2875	-4.6542	-3.8604	-4.6771	-4.3708	26.088	50.232	166.902	229.417	297.806	218.705	79.885	311.746	-19.826	151.778	315.170	82.281	11.098	29.022	191.005	172.888	5.4925e-05	0.0003296	0.0001466	460.61	1.715e-06	1.6893e-06	701.76	144.77	3.7826e-06	5.9247e-06	287.16	105.36	46.257	16.776	3.8967e-06	42.114	0.00022135	0.00022288	6.2432e-05	458.7	2.4649e-06	2.4505e-06	684.96	143.3	2.4803e-06	2.4938e-06	271.91	100.62	46.568	16.737	2.5076e-06	39.486	282.627	301.846	22.198	-30.109	105.255	278.755	-29.263	-24.531	90.125	253.007	-25.379	-20.571	-20.709	-17.639	267.336	-17.927	-8191	255	
4941.991	1	1	0	0	0.15117	0.31024	0.068105	0.32931	0.095964	0.20975	0.069051	0.053083	0.25255	0.036759	0.16515	0.13668	0.12413	0.090794	0.13581	0.26188	-3.6188	-4.6042	-3.9271	-4.3	-4.4979	-3.8729	-4.6958	-4.3146	-3.9917	-4.7896	-3.9583	-4.3333	-4.675	-3.7146	-4.6792	-4.3396	64.330	218.695	22.690	262.628	38.705	78.704	80.752	123.606	242.555	-9.170	227.538	-29.805	252.963	314.845	-2.247	-36.360	9.0065e-05	9.7278e-05	0.00015179	469	2.8786e-06	4.2244e-06	713.59	144.43	4.5894e-06	3.2413e-06	287.76	105.24	45.235	16.643	2.3215e-06	41.534	0.00023199	0.00023338	6.4376e-05	467.51	2.5439e-06	2.5465e-06	693.05	144.63	2.5798e-06	2.5505e-06	272.26	100.24	45.996	16.652	2.5429e-06	39.003	205.978	273.961	73.893	-30.182	27.699	24.683	-29.035	-24.831	32.120	53.272	-25.298	-20.704	-20.323	-17.211	-28.815	-17.764	-8191	255	
4942.112	1	1	0	0	0.23139	0.15199	0.13056	0.13678	0.16178	0.12696	0.063243	0.27883	0.29124	0.07408	0.10984	0.11847	0.20869	0.11165	0.12146	0.13966	-3.5396	-4.6312	-4	-4.0729	-4.6062	-3.9625	-4.6021	-4.4125	-3.9771	-4.6604	-4.1104	-4.125	-4.825	-3.8521	-4.3833	-4.5833	313.333	-7.542	261.869	206.640	196.161	291.995	262.538	56.471	255.461	135.689	121.994	-4.831	138.786	128.312	256.219	101.478	0.00012768	0.00026544	4.338e-05	459.74	1.7986e-06	3.3177e-06	698.9	142.37	5.8488e-06	3.9449e-06	279.42	103.13	44.238	16.154	3.7791e-06	40.678	0.00023641	0.00023337	6.6579e-05	460.35	2.5646e-06	2.5549e-06	680.64	141.63	2.569e-06	2.5368e-06	266.63	98.273	45.251	16.317	2.5199e-06	38.362	251.464	270.239	-12.995	-30.135	117.929	66.884	-29.725	-25.046	124.310	-42.055	-25.208	-20.988	-20.476	-17.566	100.215	-18.289	-8191	255	
4942.208	1	1	0	0	0.075388	0.095062	0.16002	0.14343	0.052167	0.075033	0.15184	0.13246	0.38861	0.14462	0.16382	0.077308	0.066925	0.24167	0.10358	0.10192	-3.4271	-4.8208	-4.0458	-4.0229	-4.5437	-3.9979	-4.3542	-4.5792	-3.75	-4.7604	-4.1354	-4.1188	-4.6271	-3.95	-4.1875	-4.7875	29.738	69.913	297.871	147.554	223.749	159.247	238.780	-40.359	198.098	309.545	212.507	53.483	101.509	-9.206	85.215	125.183	0.00017669	0.00035232	0.00015325	454.04	1.7599e-06	2.4958e-06	699.14	140.78	2.9749e-06	1.306e-06	280.25	103.46	44.573	16.312	3.8316e-06	40.924	0.00023349	0.00023065	6.4814e-05	455.22	2.5461e-06	2.538e-06	678.63	140.7	2.5609e-06	2.5405e-06	266.9	98.816	45.345	16.429	2.5311e-06	38.61	226.365	70.486	193.162	-30.245	281.240	132.853	-29.410	-24.628	60.339	45.693	-25.273	-20.722	-20.889	-17.775	84.292	-18.194	-8191	255	
4942.302	1	1	0	0	0.17323	0.20609	0.12338	0.15225	0.12314	0.19312	0.384	0.13942	0.024502	0.03693	0.051973	0.12002	0.2696	0.06947	0.090486	0.20989	-3.4979	-4.5979	-4.2271	-3.7812	-4.7021	-4.1312	-4.3313	-4.5813	-3.7458	-4.5792	-4.4187	-3.9854	-4.6729	-4.0854	-3.9938	-4.6667	131.402	211.135	237.128	37.990	68.366	253.167	244.584	15.924	304.053	219.328	165.969	184.225	79.768	139.323	314.690	0.555	0.00015015	0.00035054	0.00014635	457.98	1.4361e-06	1.8685e-06	696.25	141.85	3.7225e-06	3.053e-07	282.15	103.94	45.508	16.338	2.289e-06	41.341	0.00023153	0.00023175	6.4739e-05	456.17	2.5475e-06	2.5474e-06	677.7	141.27	2.5535e-06	2.5464e-06	268.73	99.422	45.874	16.467	2.5195e-06	39.032	200.005	83.498	-33.737	-29.873	299.242	52.218	-29.216	-25.040	131.476	17.466	-25.388	-20.720	-20.360	-17.519	176.748	-17.946	-8191	255	
#DATA ENDS
