BOXY.EXE: ISS Imagent and Oximeter Data Acquisition Program Version 0.80
Ascii Record File

#ACQ INFORMATION
2  Detector Channels 
16  External MUX Channels 
1  Auxiliary Channels 
5000  Waveform (CCF) Frequency (Hz)
1  Waveforms Skipped 
30  Waveforms Averaged 
1  Cycles Averaged 
16  Acquisitions per Waveform 
10.0806  Updata Rate (Hz) 

#FILE INFORMATION
TRUE -- External MUX Channel results are PARSED.
FALSE -- AC DC and Phase are NOT grouped.
TRUE -- Companion Program Settings File CREATED.
FALSE -- AC data not excluded
FALSE -- DC data not excluded
FALSE -- Phase data not excluded
FALSE -- Auxillary Chn. data not excluded
Tab delimiters

#CALIBRATION STATE
TRUE -- Waveform Calibration Values APPLIED.


#AUX CALIBRATION VALUES
Val Type	aux-1	

Term	1.0000e+00	
Factor	0.0000e+00	


#WF CALIBRATION VALUES
A = Detector Channel
Val Type	A-AC1	A-AC2	A-AC3	A-AC4	A-AC5	A-AC6	A-AC7	A-AC8	A-AC9	A-AC10	A-AC11	A-AC12	A-AC13	A-AC14	A-AC15	A-AC16	A-DC1	A-DC2	A-DC3	A-DC4	A-DC5	A-DC6	A-DC7	A-DC8	A-DC9	A-DC10	A-DC11	A-DC12	A-DC13	A-DC14	A-DC15	A-DC16	A-Ph1	A-Ph2	A-Ph3	A-Ph4	A-Ph5	A-Ph6	A-Ph7	A-Ph8	A-Ph9	A-Ph10	A-Ph11	A-Ph12	A-Ph13	A-Ph14	A-Ph15	A-Ph16	

Term	0.00000e+00	0.00000e+00	0.00000e+00	0.00000e+00	0.00000e+00	0.00000e+00	0.00000e+00	0.00000e+00	0.00000e+00	0.00000e+00	0.00000e+00	0.00000e+00	0.00000e+00	0.00000e+00	0.00000e+00	0.00000e+00	0.00000e+00	0.00000e+00	0.00000e+00	0.00000e+00	0.00000e+00	0.00000e+00	0.00000e+00	0.00000e+00	0.00000e+00	0.00000e+00	0.00000e+00	0.00000e+00	0.00000e+00	0.00000e+00	0.00000e+00	0.00000e+00	0.00000e+00	0.00000e+00	0.00000e+00	0.00000e+00	0.00000e+00	0.00000e+00	0.00000e+00	0.00000e+00	0.00000e+00	0.00000e+00	0.00000e+00	0.00000e+00	0.00000e+00	0.00000e+00	0.00000e+00	0.00000e+00	
Factor	1.00000e+00	1.00000e+00	1.00000e+00	1.00000e+00	1.00000e+00	1.00000e+00	1.00000e+00	1.00000e+00	1.00000e+00	1.00000e+00	1.00000e+00	1.00000e+00	1.00000e+00	1.00000e+00	1.00000e+00	1.00000e+00	1.00000e+00	1.00000e+00	1.00000e+00	1.00000e+00	1.00000e+00	1.00000e+00	1.00000e+00	1.00000e+00	1.00000e+00	1.00000e+00	1.00000e+00	1.00000e+00	1.00000e+00	1.00000e+00	1.00000e+00	1.00000e+00	X	X	X	X	X	X	X	X	X	X	X	X	X	X	X	X	

B = Detector Channel
Val Type	B-AC1	B-AC2	B-AC3	B-AC4	B-AC5	B-AC6	B-AC7	B-AC8	B-AC9	B-AC10	B-AC11	B-AC12	B-AC13	B-AC14	B-AC15	B-AC16	B-DC1	B-DC2	B-DC3	B-DC4	B-DC5	B-DC6	B-DC7	B-DC8	B-DC9	B-DC10	B-DC11	B-DC12	B-DC13	B-DC14	B-DC15	B-DC16	B-Ph1	B-Ph2	B-Ph3	B-Ph4	B-Ph5	B-Ph6	B-Ph7	B-Ph8	B-Ph9	B-Ph10	B-Ph11	B-Ph12	B-Ph13	B-Ph14	B-Ph15	B-Ph16	

Term	0.00000e+00	0.00000e+00	0.00000e+00	0.00000e+00	0.00000e+00	0.00000e+00	0.00000e+00	0.00000e+00	0.00000e+00	0.00000e+00	0.00000e+00	0.00000e+00	0.00000e+00	0.00000e+00	0.00000e+00	0.00000e+00	0.00000e+00	0.00000e+00	0.00000e+00	0.00000e+00	0.00000e+00	0.00000e+00	0.00000e+00	0.00000e+00	0.00000e+00	0.00000e+00	0.00000e+00	0.00000e+00	0.00000e+00	0.00000e+00	0.00000e+00	0.00000e+00	-6.52519e+01	-1.12272e+02	-1.40546e+02	-1.81760e+02	-6.76519e+01	-1.21665e+02	-1.56710e+02	-1.62015e+02	-7.69798e+01	-7.43317e+01	-1.71259e+02	-1.70793e+02	-1.83439e+02	-1.78028e+02	-8.90177e+01	-1.50152e+02	
Factor	1.93908e-05	8.47056e-05	2.70298e-05	2.28357e-01	9.52142e-07	1.06308e-06	1.77083e-01	6.50480e-02	1.16910e-06	1.01617e-06	9.54342e-02	3.47082e-02	3.35300e-02	1.00324e-02	1.07200e-06	1.43386e-02	6.12713e-07	6.25095e-07	1.73856e-07	1.09696e-01	6.82513e-09	6.83262e-09	8.13591e-02	3.12826e-02	6.82206e-09	6.81802e-09	4.37548e-02	1.58284e-02	1.56341e-02	4.75119e-03	6.80086e-09	6.48096e-03	X	X	X	X	X	X	X	X	X	X	X	X	X	X	X	X	



#DISTANCE SETTINGS
A = Detector Channel
A-1	A-2	A-3	A-4	A-5	A-6	A-7	A-8	A-9	A-10	A-11	A-12	A-13	A-14	A-15	A-16	

2.5000e+00	3.0000e+00	2.5000e+00	3.0000e+00	2.0000e+00	3.0000e+00	1.5000e+00	3.0000e+00	3.0000e+00	3.0000e+00	3.0000e+00	3.0000e+00	3.0000e+00	3.0000e+00	1.5000e+00	3.0000e+00	

B = Detector Channel
B-1	B-2	B-3	B-4	B-5	B-6	B-7	B-8	B-9	B-10	B-11	B-12	B-13	B-14	B-15	B-16	

1.0000e+01	1.0000e+01	1.0000e+01	1.4400e+00	1.0000e+01	1.0000e+01	1.5100e+00	1.9400e+00	1.0000e+01	1.0000e+01	1.9900e+00	2.4900e+00	2.4100e+00	2.9000e+00	1.0000e+01	2.9800e+00	




#DATA BEGINS
time	group	step	mark	flag	A-AC1	A-AC2	A-AC3	A-AC4	A-AC5	A-AC6	A-AC7	A-AC8	A-AC9	A-AC10	A-AC11	A-AC12	A-AC13	A-AC14	A-AC15	A-AC16	A-DC1	A-DC2	A-DC3	A-DC4	A-DC5	A-DC6	A-DC7	A-DC8	A-DC9	A-DC10	A-DC11	A-DC12	A-DC13	A-DC14	A-DC15	A-DC16	A-Ph1	A-Ph2	A-Ph3	A-Ph4	A-Ph5	A-Ph6	A-Ph7	A-Ph8	A-Ph9	A-Ph10	A-Ph11	A-Ph12	A-Ph13	A-Ph14	A-Ph15	A-Ph16	B-AC1	B-AC2	B-AC3	B-AC4	B-AC5	B-AC6	B-AC7	B-AC8	B-AC9	B-AC10	B-AC11	B-AC12	B-AC13	B-AC14	B-AC15	B-AC16	B-DC1	B-DC2	B-DC3	B-DC4	B-DC5	B-DC6	B-DC7	B-DC8	B-DC9	B-DC10	B-DC11	B-DC12	B-DC13	B-DC14	B-DC15	B-DC16	B-Ph1	B-Ph2	B-Ph3	B-Ph4	B-Ph5	B-Ph6	B-Ph7	B-Ph8	B-Ph9	B-Ph10	B-Ph11	B-Ph12	B-Ph13	B-Ph14	B-Ph15	B-Ph16	aux-1	digaux	

3341.432	1	1	0	256	0.13986	0.23247	0.063474	0.18614	0.015275	0.22862	0.17389	0.072729	0.20542	0.29614	0.34709	0.085046	0.14793	0.21603	0.26652	0.12434	-3.8396	-4.9187	-4.5125	-4.3479	-4.9208	-4.075	-4.5146	-5.0188	-4.0333	-4.7729	-4.7042	-4.1146	-4.9896	-4.3812	-4.4958	-4.8542	4.810	215.070	312.397	3.611	264.061	72.689	259.258	311.589	109.223	229.287	14.867	236.261	104.163	342.494	336.794	134.051	0.00011928	0.00027068	0.00013534	1105.2	5.4163e-06	5.3234e-06	1193.2	225.06	1.2281e-06	1.2611e-06	286.66	81.204	62.931	18.589	2.3921e-06	25.685	0.00016018	0.00015791	4.4105e-05	1035.3	1.7339e-06	1.7082e-06	1132	214.9	1.6957e-06	1.6632e-06	269.13	77.294	59.984	18.031	1.6463e-06	24.784	165.423	44.065	22.615	3.291	223.151	131.663	3.520	11.177	264.862	94.703	10.671	17.811	18.316	24.790	94.100	24.571	-8191	255	
3341.527	1	1	0	0	0.11699	0.028478	0.18333	0.015763	0.16899	0.087998	0.32249	0.13717	0.2029	0.26927	0.12736	0.14012	0.064207	0.066257	0.2509	0.056536	-3.8167	-4.7667	-4.5771	-4.1708	-5.1708	-4.3271	-4.6438	-4.9667	-4.05	-4.8021	-4.7688	-3.9979	-5.0958	-4.4417	-4.2812	-5.0375	81.000	127.324	120.642	56.383	76.820	324.775	323.628	-6.828	294.350	288.825	68.822	322.781	112.308	261.262	316.685	294.396	0.00011124	0.00028421	0.00012306	1095	5.6464e-06	2.932e-06	1184.8	224.58	2.913e-06	5.7673e-06	282.56	80.471	63.361	18.591	1.9946e-06	25.906	0.00015196	0.0001508	4.2231e-05	1024.6	1.6497e-06	1.6259e-06	1122.5	213.87	1.6531e-06	1.6423e-06	266.36	77.022	59.994	18.041	1.6273e-06	24.767	205.608	161.255	95.712	3.219	118.639	137.721	3.655	10.920	185.194	112.345	10.635	17.999	18.134	24.510	246.463	24.424	-8191	255	
3341.623	1	1	0	0	0.22725	0.17002	0.19611	0.14336	0.099802	0.22343	0.068386	0.24222	0.10967	0.039731	0.17453	0.15877	0.27226	0.1305	0.16226	0.13018	-3.8104	-4.6375	-4.6854	-4.2417	-5.0146	-4.4354	-4.5583	-5.0646	-4.1708	-4.6125	-4.8875	-4.1771	-4.8521	-4.4896	-4.2083	-5.0292	69.225	65.488	222.989	125.833	339.074	49.796	4.208	323.293	33.473	335.314	335.066	180.673	353.020	3.222	6.017	316.577	8.1799e-05	0.00025713	4.2342e-05	1089.5	1.602e-06	6.8782e-06	1185	224.33	1.6557e-06	4.3803e-06	285.15	81.076	62.91	18.642	2.4049e-06	25.732	0.00015094	0.00014924	4.1708e-05	1023.7	1.6538e-06	1.6397e-06	1124.7	213.9	1.6515e-06	1.616e-06	267.63	76.955	59.995	18.023	1.605e-06	24.674	219.898	136.665	24.229	3.241	29.044	44.883	3.677	11.261	231.287	128.781	10.315	17.976	17.954	24.808	163.137	24.714	-8191	255	
3341.721	1	1	0	0	0.061202	0.12957	0.21968	0.18918	0.12329	0.31145	0.20788	0.17742	0.093476	0.10077	0.031023	0.11266	0.081801	0.18008	0.23708	0.21264	-3.8604	-4.5146	-4.8187	-4.1458	-4.7917	-4.3583	-4.3688	-5.175	-4.1021	-4.3875	-4.9375	-4.1708	-4.8187	-4.5604	-4.2063	-4.9521	212.848	-6.593	99.727	4.891	171.968	19.643	280.303	19.712	181.813	142.876	31.380	3.946	24.422	0.470	100.645	201.537	0.00023655	0.00050587	0.00012736	1097.5	3.6902e-06	1.576e-06	1182.6	223.21	6.4705e-06	2.8911e-06	283.66	80.887	62.847	18.572	2.6487e-06	25.538	0.00015163	0.0001481	4.1229e-05	1025.2	1.62e-06	1.6407e-06	1122.5	213.79	1.6664e-06	1.6322e-06	267.11	77.075	59.976	18.031	1.6726e-06	24.731	204.183	58.478	69.861	3.331	112.718	51.830	3.362	11.228	176.126	273.657	10.582	17.803	18.064	24.992	218.682	23.932	-8191	255	
3341.840	1	1	0	0	0.023934	0.23268	0.122	0.16533	0.086375	0.20412	0.10705	0.30193	0.18284	0.18957	0.12496	0.16073	0.18431	0.19471	0.056864	0.10419	-3.9042	-4.4042	-4.9646	-4.1542	-4.7542	-4.6542	-4.2667	-4.8396	-4.3771	-4.4083	-5.1167	-4.1375	-4.7479	-4.8313	-4.1958	-4.9729	80.882	133.002	117.786	-6.089	156.696	76.446	45.380	336.433	153.429	81.528	131.158	78.290	57.085	243.950	168.700	305.967	0.00011634	7.1257e-05	0.0001259	1090.2	2.1947e-06	6.2458e-06	1190.4	224.61	4.7678e-07	2.5372e-06	286.14	80.873	63.726	18.469	7.9353e-07	25.772	0.00015393	0.00015262	4.2141e-05	1025.1	1.6603e-06	1.6723e-06	1126.6	214.13	1.6885e-06	1.688e-06	268.04	77.155	60.24	18.068	1.7009e-06	24.845	211.442	99.287	21.125	3.369	219.214	73.287	3.705	11.194	349.260	163.286	10.326	18.182	18.497	25.261	202.082	24.491	-8191	255	
3341.936	1	1	0	0	0.19198	0.10296	0.039936	0.35639	0.20907	0.15032	0.24208	0.11085	0.12954	0.12929	0.091806	0.1795	0.17083	0.090744	0.18458	0.015422	-4.1979	-4.1792	-4.8229	-4.3208	-4.5479	-4.9375	-4.1521	-4.7542	-4.3333	-4.2354	-4.9917	-4.1708	-4.4833	-4.9771	-3.9146	-4.8479	43.752	126.734	286.041	44.565	307.121	-6.344	289.430	180.259	213.341	15.446	295.890	224.443	254.923	252.315	123.699	171.203	0.00012977	0.00038521	0.00010749	1097.3	6.9128e-07	4.0688e-06	1189.6	224.3	3.8267e-06	4.0754e-06	285.74	81.279	63.35	18.508	8.4444e-07	25.719	0.00015748	0.00015787	4.3448e-05	1027	1.7339e-06	1.727e-06	1128.2	214.65	1.7217e-06	1.7238e-06	268.39	77.205	60.158	18.064	1.6737e-06	24.781	218.152	189.570	79.877	3.254	141.448	110.263	3.487	11.165	163.706	175.855	10.133	17.722	18.326	24.870	42.336	24.080	-8191	255	
3342.032	1	1	0	0	0.17709	0.074668	0.11108	0.15568	0.16124	0.19713	0.29754	0.34151	0.19039	0.080288	0.13436	0.055292	0.30022	0.058143	0.22584	0.20554	-4.3354	-4.1562	-5.0625	-4.1937	-4.4896	-4.7667	-4.1125	-4.8979	-4.6937	-4.1708	-4.9542	-4.3417	-4.4125	-4.9646	-3.9771	-4.6813	272.713	0.508	124.774	105.752	1.617	191.789	343.149	318.166	12.024	172.857	34.190	37.080	316.913	336.041	219.367	189.049	0.00011635	0.00027615	0.00013461	1098.1	1.4175e-06	1.4124e-07	1190.3	225.68	3.2087e-06	4.9356e-06	285.1	80.775	63.174	18.456	1.3012e-06	25.634	0.00015437	0.0001527	4.2216e-05	1030	1.6848e-06	1.6572e-06	1126.7	214.84	1.6723e-06	1.6619e-06	267.54	76.97	60.095	18.032	1.6662e-06	24.721	218.405	102.946	71.084	3.738	180.753	192.965	3.273	11.042	256.995	189.310	10.535	17.919	17.954	24.665	47.078	23.748	-8191	255	
3342.128	1	1	0	0	0.1389	0.083523	0.017991	0.14666	0.28051	0.067218	0.01814	0.078664	0.12645	0.061697	0.18322	0.06292	0.073069	0.14265	0.034145	0.18494	-4.3854	-3.9854	-4.9146	-4.4458	-4.0708	-4.9938	-4.3104	-4.5458	-4.7667	-4.0021	-5.0875	-4.3979	-4.3438	-5.0458	-4.2625	-4.5625	84.981	230.772	208.360	116.892	82.397	164.468	34.524	67.949	70.070	32.708	298.995	44.923	153.401	287.843	105.462	44.405	9.4561e-05	0.00011088	0.00012075	1097.2	4.4933e-06	1.2958e-06	1183.6	225.43	2.4603e-06	3.7429e-06	285.1	80.623	63.406	18.549	4.8114e-06	25.789	0.00015161	0.00015027	4.1618e-05	1026.3	1.6642e-06	1.6336e-06	1121.7	214.49	1.6311e-06	1.6276e-06	267.46	76.858	60.078	17.998	1.624e-06	24.721	193.800	197.562	48.406	3.163	136.456	28.365	3.437	10.990	129.321	164.425	10.531	18.284	18.101	24.779	146.228	24.233	-8191	255	
3342.224	1	1	0	0	0.16517	0.1859	0.045208	0.20246	0.10437	0.22137	0.25125	0.11111	0.30918	0.028717	0.034207	0.053355	0.16805	0.13728	0.21527	0.21004	-4.5312	-3.9688	-4.7146	-4.6708	-4.1229	-4.9187	-4.3354	-4.4146	-4.8479	-4.1521	-4.8229	-4.6	-4.1854	-5.0917	-4.2417	-4.4187	231.897	42.454	158.602	248.540	174.387	326.073	270.554	82.339	90.186	172.499	220.008	283.688	206.908	231.819	334.608	261.627	0.00017456	0.00021387	8.5158e-05	1097	3.3338e-06	6.0762e-06	1193	226.57	6.4707e-06	3.2275e-06	284.65	80.542	63.612	18.485	1.5775e-06	25.86	0.00014955	0.00015005	4.1295e-05	1026.1	1.6324e-06	1.5972e-06	1125.4	214.36	1.5989e-06	1.6e-06	267.01	76.88	59.918	17.976	1.6091e-06	24.669	204.425	125.081	352.455	3.518	117.631	15.729	3.855	11.078	141.509	137.667	10.303	18.259	17.523	24.455	88.302	24.143	-8191	255	
3342.320	1	1	0	0	0.13025	0.12328	0.035428	0.19153	0.32542	0.06126	0.19377	0.097215	0.09689	0.034341	0.11411	0.25127	0.21946	0.16164	0.30137	0.16287	-4.6917	-3.9667	-4.8646	-4.8042	-4.0667	-4.8667	-4.5729	-4.4042	-4.8708	-4.1083	-4.7604	-4.7729	-4.2063	-4.8708	-4.1729	-4.2417	313.687	207.933	158.287	3.489	276.193	236.173	249.119	113.655	164.719	173.036	221.191	290.236	242.058	34.692	174.004	44.436	4.8448e-05	0.0002805	8.9033e-05	1091.9	3.9216e-06	1.5985e-06	1188.1	224.76	7.4747e-06	3.2763e-06	283.26	80.578	62.804	18.58	4.6991e-06	25.877	0.00014553	0.00014661	4.0815e-05	1025	1.5742e-06	1.5746e-06	1123.8	214.2	1.6008e-06	1.5962e-06	266.72	76.763	59.821	18.032	1.6063e-06	24.675	214.277	101.759	90.787	3.164	225.777	282.371	3.467	10.989	84.587	99.484	10.396	18.058	18.126	24.801	165.409	23.952	-8191	255	
3342.441	1	1	0	0	0.10782	0.084495	0.12397	0.19782	0.14317	0.17361	0.2848	0.14882	0.046054	0.16214	0.19417	0.17196	0.32246	0.13203	0.18256	0.16851	-4.625	-4.2063	-4.5437	-4.7646	-3.8771	-4.9167	-4.6833	-4.1979	-5.0417	-4.0167	-4.4792	-4.8354	-4.0729	-4.9042	-4.3771	-4.1417	18.533	299.691	274.879	314.497	337.346	46.587	271.840	77.029	341.382	59.462	214.371	61.365	27.273	348.187	242.433	143.079	0.00018857	0.00025589	0.00011453	1086.8	2.6963e-06	3.1953e-06	1180	224.66	2.5516e-06	2.9468e-06	285.17	80.593	62.982	18.665	3.3592e-06	25.847	0.000147	0.00014871	4.0892e-05	1023.8	1.5951e-06	1.5955e-06	1122.5	213.64	1.6e-06	1.6002e-06	267.16	76.91	59.701	17.987	1.6103e-06	24.732	196.193	145.265	96.017	3.062	103.023	0.022	3.638	10.992	128.997	300.931	10.565	18.147	18.270	24.844	124.393	24.135	-8191	255	
3342.535	1	1	0	0	0.14962	0.20154	0.24292	0.2423	0.15924	0.17914	0.09395	0.033083	0.19543	0.17045	0.044938	0.13507	0.10739	0.11038	0.25637	0.10424	-4.825	-4.1375	-4.3812	-4.9021	-3.9958	-4.7583	-4.9479	-4.0813	-5.1521	-4.1521	-4.5188	-4.9604	-4.1562	-4.8021	-4.7667	-4.0417	190.292	280.526	82.071	332.901	254.697	320.729	152.340	83.566	123.283	197.997	69.373	189.345	86.297	204.748	164.193	239.119	0.00014418	0.00033939	6.4652e-05	1091.4	3.3177e-06	1.6894e-06	1190.2	224.71	1.496e-06	2.8776e-06	285.1	80.506	63.272	18.632	1.7774e-06	25.971	0.00014568	0.00014598	4.0838e-05	1025.6	1.6175e-06	1.5904e-06	1123.6	214.08	1.5843e-06	1.6093e-06	267.25	76.834	59.827	17.978	1.5611e-06	24.708	206.833	126.734	102.402	3.261	66.230	16.592	3.628	11.201	119.583	315.215	10.158	17.764	17.717	24.764	132.773	24.123	-8191	255	
3342.631	1	1	0	0	0.075019	0.20791	0.18064	0.12639	0.13618	0.16409	0.34055	0.26069	0.14983	0.31482	0.093469	0.095811	0.10035	0.14609	0.16865	0.17878	-4.7583	-4.25	-4.3521	-5.0292	-4.1208	-4.7438	-5.0208	-4.1458	-4.9104	-4.4396	-4.4271	-5.1062	-4.1583	-4.6542	-4.775	-4.0854	59.141	142.625	315.882	188.935	213.607	-3.647	265.734	-4.678	318.155	69.063	77.188	12.472	182.950	323.849	288.417	260.966	0.00014132	0.00027554	0.00011069	1092.5	7.9286e-07	3.4865e-06	1185.5	224.87	2.8457e-06	3.6524e-06	285.92	80.033	63.343	18.564	5.1288e-07	25.493	0.00014286	0.00014277	3.9829e-05	1023.6	1.5764e-06	1.5754e-06	1120.9	213.46	1.5649e-06	1.5624e-06	267.17	76.448	59.551	17.906	1.5364e-06	24.55	197.652	134.076	53.747	3.363	17.433	73.453	3.689	11.193	304.487	253.842	10.504	18.143	18.069	24.854	74.219	23.917	-8191	255	
3342.703	1	1	0	0	0.080637	0.11258	0.17134	0.13916	0.072847	0.23865	0.16253	0.14439	0.10357	0.042904	0.20887	0.089871	0.25016	0.14928	0.077157	0.10263	-4.5854	-4.4313	-4.0021	-4.9437	-4.2271	-4.5167	-5.1083	-3.825	-4.9333	-4.6625	-4.2333	-5.0125	-4.2979	-4.4021	-4.9042	-3.9271	242.476	164.563	225.470	263.494	160.845	274.467	228.511	122.077	43.321	315.478	170.283	13.494	311.048	43.302	271.291	3.838	0.00018501	0.00049587	3.5926e-05	1089	1.911e-06	2.3688e-06	1179.5	223.22	3.5453e-06	1.8449e-06	284.17	80.799	62.594	18.43	3.0742e-06	25.742	0.00014222	0.00014202	3.9994e-05	1022.2	1.5449e-06	1.5416e-06	1118	213.17	1.56e-06	1.5349e-06	266.08	76.464	59.51	17.838	1.5212e-06	24.537	218.576	64.140	37.316	3.338	167.259	151.972	3.763	11.074	140.140	65.258	10.275	17.736	18.168	24.951	52.750	24.052	-8191	255	
3342.824	1	1	0	0	0.066771	0.24994	0.084805	0.12605	0.14386	0.19311	0.11992	0.084877	0.12533	0.11107	0.035207	0.077472	0.26745	0.25397	0.073889	0.035701	-4.4417	-4.5437	-3.9958	-4.9062	-4.2958	-4.3583	-5.1125	-4.0875	-4.75	-4.7604	-4.1021	-5.0437	-4.3292	-4.2979	-4.9688	-4.0437	269.355	7.547	234.741	289.322	151.729	133.623	260.260	47.787	64.767	19.404	89.810	181.799	45.779	324.819	210.986	199.289	0.00014105	0.000519	2.5396e-05	1092.3	1.0644e-06	2.9231e-06	1181.4	224.39	1.5927e-06	3.672e-06	282.99	80.735	63.004	18.37	4.2954e-06	25.778	0.00014073	0.00014011	3.8742e-05	1019.5	1.5464e-06	1.5315e-06	1117.6	212.87	1.5439e-06	1.5431e-06	265.63	76.515	59.44	17.867	1.5515e-06	24.532	181.697	124.431	191.333	3.418	190.132	46.696	3.720	11.079	270.801	144.084	10.176	17.851	18.400	24.781	70.151	24.168	-8191	255	
3342.920	1	1	0	0	0.073033	0.14789	0.17645	0.2438	0.062165	0.12451	0.02782	0.21314	0.098653	0.19256	0.15225	0.1788	0.16171	0.089397	0.22874	0.20763	-4.3667	-4.7188	-3.8896	-4.8896	-4.3771	-4.2688	-5.0042	-4.1521	-4.4833	-4.7937	-4.1312	-4.8833	-4.4458	-4.2792	-4.9417	-4.1813	148.421	231.450	42.366	6.053	246.878	85.405	326.395	324.608	277.231	217.089	249.854	351.735	144.260	198.734	345.924	326.625	0.00015644	0.00032951	7.7818e-05	1090.4	3.2963e-06	3.7545e-06	1181.5	223.05	4.639e-06	1.035e-06	281.73	80.504	62.97	18.553	2.8931e-07	25.558	0.00014347	0.00014142	3.9369e-05	1018	1.5557e-06	1.5533e-06	1116.2	212.53	1.5713e-06	1.5335e-06	264.9	76.367	59.498	17.874	1.551e-06	24.463	194.527	72.718	41.859	3.198	163.809	187.047	3.563	11.311	31.030	255.226	10.536	18.161	18.170	24.691	110.174	24.128	-8191	255	
3343.016	1	1	0	0	0.18438	0.1956	0.080378	0.14147	0.29178	0.16374	0.08776	0.16157	0.18694	0.15971	0.10525	0.068855	0.19026	0.021735	0.16853	0.28604	-4.1167	-4.7583	-3.9625	-4.9792	-4.5583	-4.0771	-5.0667	-4.4542	-4.5583	-4.8042	-4.125	-4.9292	-4.6813	-4.1062	-5.0708	-4.3458	63.572	78.823	51.545	334.575	275.562	290.967	136.782	21.715	247.595	76.905	221.473	257.117	320.749	203.050	58.403	143.580	4.1309e-05	5.3392e-05	0.00012771	1087.2	2.535e-06	4.4239e-06	1176.4	222.69	6.4884e-06	5.0857e-06	283.28	79.962	62.844	18.38	3.0307e-06	25.587	0.0001428	0.00014085	3.9237e-05	1015	1.5394e-06	1.5404e-06	1115.3	211.98	1.5478e-06	1.4983e-06	264.87	76.154	59.379	17.793	1.5107e-06	24.462	160.171	35.123	136.267	3.444	143.427	150.700	3.770	11.118	109.322	206.997	10.665	18.100	18.228	24.825	173.144	24.610	-8191	255	
3343.112	1	1	0	0	0.16406	0.13948	0.37639	0.21693	0.24713	0.33823	0.23022	0.21069	0.068688	0.097422	0.24336	0.25151	0.11079	0.14245	0.30722	0.08039	-4.2688	-4.8146	-4.1458	-4.9208	-4.7146	-4.1562	-5.2063	-4.4688	-4.3187	-5.0563	-4.1438	-4.6125	-4.7333	-4.2354	-4.9812	-4.4396	206.087	9.587	6.663	230.414	63.617	220.415	285.412	62.712	339.216	96.341	317.199	351.212	20.813	55.932	305.256	46.354	6.6781e-05	4.7899e-05	9.8537e-05	1082.3	2.4366e-06	2.1574e-06	1170.4	222.43	2.604e-06	1.9126e-06	281.69	80.67	62.413	18.362	1.2435e-06	25.542	0.00014031	0.00014056	3.9327e-05	1013.8	1.5553e-06	1.5319e-06	1113	211.62	1.5444e-06	1.5408e-06	264.4	76.277	59.148	17.801	1.529e-06	24.447	209.750	200.392	62.139	3.207	136.013	136.813	3.888	10.999	192.468	203.990	10.835	17.898	18.203	24.643	109.605	23.856	-8191	255	
3343.233	1	1	0	0	0.099341	0.24446	0.15133	0.1358	0.25127	0.079901	0.16907	0.12549	0.049105	0.16749	0.096375	0.31034	0.085875	0.22982	0.15034	0.1911	-4.0792	-4.9938	-4.0667	-4.6438	-4.7167	-4.1125	-5.0125	-4.5833	-4.2458	-4.9958	-4.2833	-4.5521	-4.7917	-4.0792	-4.85	-4.6333	187.357	240.082	250.892	34.217	128.006	45.982	302.857	311.443	38.912	51.181	343.119	323.960	262.683	37.738	90.478	31.529	0.00012207	0.00044923	8.4102e-05	1082.4	5.2569e-07	1.7525e-06	1167.5	221.66	2.021e-06	2.221e-06	282.67	80.093	62.308	18.415	3.969e-06	25.54	0.00014039	0.00014085	3.9807e-05	1012.6	1.5174e-06	1.5306e-06	1109.6	210.91	1.5332e-06	1.5088e-06	264.28	76.013	58.988	17.732	1.5198e-06	24.385	205.330	61.148	25.677	3.203	80.955	61.864	3.504	11.249	94.822	150.535	10.445	18.002	18.194	24.277	17.394	24.207	-8191	255	
3343.304	1	1	0	0	0.24418	0.11596	0.14494	0.14328	0.34945	0.0991	0.21168	0.12899	0.070793	0.11497	0.23361	0.19833	0.063932	0.055895	0.45843	0.13546	-3.9188	-5.0687	-4.2146	-4.575	-4.8562	-3.9125	-4.8625	-4.5271	-4.1687	-5.0021	-4.275	-4.4104	-4.9875	-4.1583	-4.6625	-4.7896	296.534	10.330	110.616	279.130	28.294	296.262	-5.123	61.911	249.618	195.284	343.616	79.242	265.575	58.707	340.746	209.802	0.00013873	0.00049844	6.8337e-05	1081.3	1.7846e-06	3.7406e-06	1165.8	220.47	4.1043e-06	1.9178e-06	279.37	79.011	61.722	18.295	2.0192e-06	25.448	0.00013924	0.00013706	3.7961e-05	1009.2	1.4889e-06	1.478e-06	1104.6	210.24	1.4736e-06	1.4431e-06	261.8	75.447	58.614	17.616	1.4566e-06	24.204	199.446	81.366	50.752	3.350	277.951	81.395	3.804	11.342	115.877	242.381	10.298	18.124	18.418	24.570	147.076	24.649	-8191	255	
3343.401	1	1	0	0	0.14517	0.15787	0.16193	0.12128	0.18566	0.23913	0.33438	0.25247	0.17973	0.031296	0.027759	0.1029	0.09799	0.070694	0.38577	0.17126	-3.7438	-4.9354	-4.2604	-4.3333	-4.8562	-4.1625	-4.6854	-4.8833	-3.8354	-5.0229	-4.4062	-4.225	-5.0604	-4.0479	-4.5	-4.7458	125.699	51.234	170.732	266.993	229.168	67.314	238.840	48.155	301.405	34.198	305.062	-5.971	43.529	87.746	308.559	145.298	7.2084e-05	0.00039366	0.00011659	1072	3.4976e-06	3.8411e-06	1167.4	220.92	5.3342e-06	2.52e-06	280.42	79.341	62.333	18.252	2.1097e-06	25.397	0.00013475	0.00013506	3.7528e-05	1002.1	1.5117e-06	1.4889e-06	1101.6	210.07	1.5103e-06	1.4821e-06	262.2	75.548	58.675	17.628	1.4985e-06	24.249	211.279	113.346	68.819	3.238	133.954	110.976	3.457	11.156	202.151	82.438	10.618	17.442	18.160	25.099	197.446	23.980	-8191	255	
3343.521	1	1	0	0	0.13662	0.15452	0.14398	0.24937	0.038792	0.064919	0.24736	0.11986	0.23499	0.10428	0.10543	0.29465	0.12177	0.098964	0.20347	0.15037	-3.8083	-4.8	-4.2125	-4.1896	-5.0083	-4.1771	-4.7521	-4.8875	-4.1146	-4.8562	-4.6104	-4.0104	-4.8771	-4.3792	-4.3417	-4.9083	18.945	102.487	37.494	299.747	147.187	234.729	267.067	20.986	127.981	278.684	242.154	27.366	72.500	-4.485	17.315	22.293	9.6077e-05	0.00010876	0.00014862	1076.4	1.7658e-06	7.546e-07	1166.9	222.82	4.1781e-06	5.8841e-06	279.37	79.821	62.227	18.147	7.1745e-06	25.278	0.00013959	0.00013817	3.8302e-05	1005.2	1.4968e-06	1.5025e-06	1103	210.04	1.5129e-06	1.4728e-06	262.01	75.479	58.793	17.64	1.4721e-06	24.183	218.516	171.158	73.520	3.219	342.047	21.627	3.613	11.313	64.888	97.253	10.666	17.851	17.990	24.626	163.714	24.439	-8191	255	
3343.616	1	1	0	0	0.14981	0.054736	0.20023	0.080435	0.061638	0.031944	0.16696	0.10498	0.17767	0.11286	0.18799	0.13729	0.13635	0.1691	0.2493	0.20776	-3.7979	-4.7312	-4.6583	-4.1396	-4.9	-4.2771	-4.4896	-5.0979	-4.0813	-4.8417	-4.8646	-4.1229	-4.9667	-4.3729	-4.3063	-4.9604	214.410	155.361	287.116	53.292	162.736	39.222	236.141	217.545	166.288	340.181	8.723	337.088	104.447	325.200	333.738	344.897	9.3428e-05	0.00030611	1.2393e-05	1073.9	3.572e-06	1.233e-06	1161.9	219.34	3.3027e-06	3.3088e-06	279.35	79.01	62.126	18.188	2.0898e-06	25.334	0.00013735	0.00013508	3.744e-05	1000.6	1.5027e-06	1.4913e-06	1098.2	209.6	1.4967e-06	1.496e-06	261.73	75.407	58.777	17.655	1.4891e-06	24.175	231.453	162.036	71.416	3.208	168.459	141.517	3.466	11.246	147.361	152.175	10.871	17.828	17.970	24.871	171.955	24.597	-8191	255	
3343.712	1	1	0	0	0.12503	0.23971	0.30972	0.10076	0.060729	0.12739	0.1695	0.21257	0.047351	0.21433	0.028164	0.052761	0.14482	0.12014	0.15443	0.22223	-3.8625	-4.6979	-4.85	-4.2604	-5.0125	-4.5188	-4.4458	-5	-4.0542	-4.6875	-4.8063	-4.1542	-4.9417	-4.5667	-4.2854	-5.0896	238.778	205.756	223.767	221.103	184.984	184.048	314.452	61.391	126.880	319.119	140.188	67.909	152.999	34.883	8.166	283.055	0.00016196	0.00036569	0.00011566	1071.9	2.2472e-06	2.8879e-06	1157	221.15	2.6184e-06	6.2716e-07	278.03	78.76	62.014	18.2	3.7063e-06	25.412	0.00013566	0.00013668	3.8014e-05	1000.5	1.5193e-06	1.5063e-06	1096	209.94	1.5156e-06	1.4899e-06	260.74	75.246	58.403	17.581	1.483e-06	24.211	212.568	344.694	68.310	3.217	177.625	165.434	3.616	11.341	178.189	176.010	10.621	17.600	17.894	25.245	91.757	24.655	-8191	255	
3343.832	1	1	0	0	0.16284	0.17531	0.1108	0.29236	0.091237	0.20731	0.24344	0.065736	0.22913	0.0077989	0.028764	0.0061312	0.10966	0.10007	0.31784	0.33298	-3.8604	-4.4917	-4.8625	-4.2292	-4.9021	-4.5646	-4.2333	-5.0646	-4.1833	-4.4812	-5.1042	-4.0625	-4.7708	-4.7146	-4.0979	-5.125	76.752	265.115	171.743	272.986	323.529	191.188	231.456	218.066	332.566	85.067	47.456	190.655	327.296	11.452	98.009	346.855	0.00012008	0.00020391	0.00016713	1069.2	1.8495e-06	4.3786e-06	1150.9	220.19	6.3741e-06	2.0547e-06	278.97	78.816	61.904	18.178	6.7126e-07	25.343	0.00013811	0.00013749	3.7958e-05	998.1	1.5041e-06	1.4753e-06	1093.9	209.47	1.4954e-06	1.4702e-06	260.9	75.069	58.481	17.588	1.4679e-06	24.179	183.174	52.370	71.084	3.443	143.146	122.293	3.788	11.252	169.659	86.355	10.792	18.093	17.925	24.863	35.447	24.114	-8191	255	
3343.929	1	1	0	0	0.090763	0.23099	0.19983	0.11866	0.1586	0.11342	0.13754	0.15386	0.12754	0.27941	0.112	0.21387	0.26047	0.099861	0.15663	0.092829	-4.0167	-4.3333	-4.9938	-4.2417	-4.8	-4.8854	-4.3688	-5.0292	-4.2979	-4.325	-4.9938	-3.9979	-4.7292	-4.8104	-4.1729	-5.1771	251.295	257.178	152.779	306.054	269.845	132.249	272.483	2.062	47.217	61.832	334.027	266.257	345.366	106.560	249.842	298.149	0.00020548	0.00015145	3.1552e-05	1060.3	2.2274e-06	5.3694e-07	1151.6	219.73	2.3747e-06	2.6249e-06	277.97	78.778	61.559	18.119	2.445e-06	25.257	0.00013473	0.00013334	3.7548e-05	994.54	1.4406e-06	1.4342e-06	1091.8	208.77	1.4406e-06	1.4368e-06	260.31	74.829	58.142	17.497	1.4406e-06	24.078	225.989	111.998	10.142	3.356	335.091	107.696	3.626	11.196	9.576	169.528	10.921	17.929	18.472	24.845	97.220	24.443	-8191	255	
3344.000	1	1	0	0	0.090401	0.12047	0.248	0.13064	0.15488	0.35594	0.22747	0.10816	0.090226	0.24307	0.12527	0.22984	0.079422	0.26244	0.1758	0.22025	-4.0896	-4.2	-4.9396	-4.1604	-4.6125	-4.8375	-4.1771	-4.9437	-4.4396	-4.2625	-5.1312	-4.2771	-4.6292	-4.9354	-4.0625	-5.0042	198.406	311.539	284.400	292.349	320.471	200.234	7.548	292.309	250.887	27.148	41.827	30.730	303.168	125.078	255.928	306.074	0.00011116	0.00033555	0.00012225	1062.7	5.6494e-06	2.2742e-06	1151.9	218.36	3.6886e-06	2.0265e-06	277.35	78.807	60.987	18.038	4.0239e-06	25.388	0.00013242	0.00013126	3.6395e-05	991.86	1.4315e-06	1.4253e-06	1088.5	207.89	1.4079e-06	1.4328e-06	259.17	74.763	58.08	17.426	1.4286e-06	24.037	218.997	72.075	-1.369	3.480	124.941	351.698	3.710	10.997	83.276	330.269	10.953	17.640	18.594	24.762	123.936	24.478	-8191	255	
3344.121	1	1	0	0	0.39159	0.062532	0.11826	0.084203	0.13576	0.095349	0.17375	0.1922	0.16174	0.19223	0.21397	0.17884	0.081382	0.15553	0.21371	0.15191	-4.375	-4.2417	-5.1521	-4.4062	-4.5062	-4.9417	-4.3146	-4.9187	-4.6792	-4.0167	-5.0729	-4.3208	-4.4396	-4.95	-4.0375	-4.8063	65.645	183.736	287.898	6.498	265.573	300.447	341.760	315.229	302.116	210.411	258.922	71.441	258.761	188.160	267.018	192.018	0.00010412	0.00025412	1.6452e-05	1061	3.5175e-06	1.4438e-06	1149.7	218.68	1.5805e-06	5.4215e-06	276.49	79.167	61.51	18.05	1.6316e-06	24.879	0.00013461	0.0001312	3.6499e-05	991.01	1.4359e-06	1.4245e-06	1089.2	207.96	1.463e-06	1.4236e-06	258.74	74.729	57.924	17.452	1.4192e-06	23.922	224.579	59.534	134.316	3.132	117.598	61.201	3.763	11.239	64.166	116.904	10.705	18.099	18.024	25.128	161.091	24.233	-8191	255	
3344.217	1	1	0	0	0.093606	0.20311	0.10216	0.10554	0.092357	0.091203	0.13536	0.1641	0.21197	0.046336	0.082367	0.044383	0.096925	0.23287	0.10745	0.13399	-4.5875	-4.0854	-5.2271	-4.5729	-4.225	-4.9896	-4.3104	-4.8167	-4.8583	-4.175	-4.9458	-4.4896	-4.3292	-4.9354	-4.1937	-4.6646	40.872	341.349	208.091	332.916	121.255	40.323	343.062	189.597	319.392	110.742	185.644	113.865	344.699	98.871	281.304	344.415	0.00012546	0.00037239	0.00011046	1055	1.6084e-06	9.0972e-07	1151.4	219.54	1.3299e-06	2.3819e-06	275.96	78.545	61.554	18.11	7.547e-06	25.096	0.00013049	0.00013146	3.6876e-05	989.62	1.4346e-06	1.4406e-06	1088.3	208.1	1.4622e-06	1.4315e-06	258.52	74.651	58.032	17.471	1.4428e-06	24.015	201.989	56.936	78.689	3.147	212.108	247.776	3.531	11.103	125.359	228.023	10.665	18.030	18.022	25.044	98.344	24.616	-8191	255	
3344.313	1	1	0	0	0.12902	0.2128	0.13237	0.17901	0.25065	0.15375	0.037002	0.11944	0.043433	0.1215	0.19387	0.29723	0.15266	0.17212	0.19607	0.054723	-4.4313	-4.0646	-4.8688	-4.6333	-4.1875	-5.0208	-4.4229	-4.7479	-4.8521	-4.0417	-4.9771	-4.6958	-4.1729	-5.0854	-4.1146	-4.4375	55.612	318.975	160.480	295.521	195.254	148.592	107.139	121.148	255.940	33.202	229.371	274.647	163.784	257.207	97.915	126.516	0.0001298	0.00018823	4.2277e-05	1054.4	3.4549e-06	3.8814e-06	1149.2	217.74	1.3465e-06	1.0135e-06	275.93	78.608	61.421	18.002	3.3591e-06	25.292	0.00013315	0.00013209	3.6451e-05	989.65	1.446e-06	1.4275e-06	1088.1	207.45	1.4138e-06	1.4202e-06	258.75	74.601	57.998	17.471	1.4423e-06	24.039	222.121	86.163	302.257	3.207	26.510	125.002	3.811	11.229	34.662	162.857	10.569	18.114	18.127	24.939	14.311	24.587	-8191	255	
3344.409	1	1	0	0	0.13645	0.18448	0.20035	0.077253	0.11666	0.12182	0.11508	0.035194	0.24439	0.091835	0.31851	0.19512	0.35039	0.0098961	0.26039	0.20195	-4.5437	-3.9542	-4.8271	-4.7854	-4.25	-5.05	-4.6375	-4.5312	-4.9729	-4.1104	-4.7875	-4.7438	-3.9167	-5	-4.3917	-4.3271	177.772	63.979	2.091	336.040	237.485	182.896	349.288	34.891	87.295	336.298	9.582	315.252	70.215	150.585	195.527	289.934	8.1329e-05	0.00014393	2.4085e-05	1064.6	1.0984e-06	1.5831e-06	1146.1	218.2	3.6238e-06	2.288e-06	277.93	78.269	61.877	17.956	2.3034e-06	25.097	0.00013299	0.00013254	3.7022e-05	990.8	1.4523e-06	1.4201e-06	1087.1	207.5	1.4353e-06	1.4227e-06	258.86	74.57	58.088	17.434	1.4335e-06	23.928	140.420	106.051	54.983	3.460	30.920	114.684	3.721	11.122	149.094	94.339	10.646	18.026	18.209	24.663	314.533	24.214	-8191	255	
3344.528	1	1	0	0	0.077327	0.22911	0.24623	0.18623	0.19878	0.14342	0.33712	0.17909	0.03759	0.20284	0.10829	0.15051	0.30094	0.080821	0.21666	0.1814	-4.6104	-4.0896	-4.7208	-4.9667	-4.0646	-4.875	-4.5208	-4.1438	-4.8708	-4.1958	-4.7292	-4.8833	-4.0521	-4.9417	-4.6	-4.3167	306.675	246.371	242.519	56.648	346.041	173.874	243.835	256.795	347.258	311.183	342.589	334.564	228.857	71.063	126.578	263.804	0.00018097	6.6876e-05	0.00014126	1057.7	1.8333e-06	3.4819e-06	1143.8	219.35	1.0488e-06	5.4874e-06	275.18	78.436	61.365	18.018	4.2926e-06	25.047	0.0001315	0.00013103	3.6508e-05	988.73	1.4486e-06	1.4345e-06	1085.5	207.76	1.4417e-06	1.4307e-06	258.32	74.501	57.966	17.42	1.4277e-06	23.87	179.616	170.874	43.538	3.709	150.622	313.133	3.682	11.210	276.927	99.901	10.917	18.199	17.940	24.898	78.905	24.532	-8191	255	
3344.600	1	1	0	0	0.093602	0.17074	0.25402	0.11054	0.16161	0.11501	0.282	0.18171	0.25544	0.13204	0.11462	0.10073	0.080868	0.039207	0.038439	0.1256	-4.7625	-4.1896	-4.4187	-4.9667	-3.8979	-4.9062	-4.8833	-4.2104	-4.9771	-4.2625	-4.5167	-5.0896	-3.9313	-4.7042	-4.7146	-4.3187	283.324	256.213	291.971	21.982	227.550	154.341	22.599	-1.660	221.957	21.353	36.996	48.218	299.438	52.275	108.559	50.905	0.00011022	0.00015473	3.8202e-05	1059.9	4.2889e-06	4.1719e-06	1147.6	217.57	2.0369e-06	5.5074e-06	275.8	78.828	61.292	18.051	3.8384e-06	25.044	0.0001316	0.00013069	3.6274e-05	987.17	1.4489e-06	1.4089e-06	1086.1	206.83	1.4274e-06	1.4239e-06	258.21	74.517	57.812	17.42	1.401e-06	23.911	187.506	302.012	29.672	3.342	78.622	-6.583	3.541	11.052	206.570	189.345	10.789	18.218	18.196	24.895	95.853	24.028	-8191	255	
3344.696	1	1	0	0	0.095091	0.29136	0.10457	0.1893	0.14254	0.19828	0.18485	0.101	0.050525	0.18202	0.20981	0.11652	0.070972	0.12539	0.16561	0.18308	-4.7646	-4.2125	-4.2333	-5.025	-4.1021	-4.7	-4.7875	-4.1333	-4.9833	-4.3896	-4.2854	-4.9	-4.0771	-4.5417	-4.6729	-4.1104	203.022	168.200	89.123	291.492	264.719	217.342	254.752	55.496	271.233	221.643	281.889	337.826	245.853	215.065	37.789	253.639	0.00013353	0.00034804	8.989e-05	1058.4	4.1415e-06	3.3239e-06	1146.4	218.32	1.7578e-06	2.8171e-06	275.55	77.901	61.052	18.043	3.6266e-06	25.154	0.00012783	0.00013061	3.5482e-05	988.2	1.4104e-06	1.4112e-06	1084.9	206.91	1.4112e-06	1.4022e-06	257.41	74.21	57.835	17.392	1.3922e-06	23.88	163.252	112.387	90.600	3.628	102.949	124.699	4.042	11.211	255.486	196.642	10.780	18.431	18.516	25.084	33.110	24.391	-8191	255	
3344.792	1	1	0	0	0.17607	0.058052	0.1116	0.016362	0.15045	0.19555	0.11333	0.18651	0.22986	0.1663	0.11678	0.33686	0.090719	0.15206	0.034684	0.12988	-4.55	-4.4042	-4.2438	-5.2333	-4.1521	-4.5333	-5.025	-4.2375	-4.8562	-4.5938	-4.2312	-5.1604	-4.2812	-4.4688	-4.8792	-3.9271	315.561	315.819	193.304	212.106	209.420	92.388	236.789	285.966	259.039	194.956	239.603	-3.082	52.040	-0.577	116.711	69.310	0.00018415	0.0003112	0.00014043	1052.4	1.8474e-06	4.5943e-06	1145.6	217.28	4.4036e-06	2.0753e-06	276.22	78.258	61.314	18.11	1.81e-06	25.051	0.00012795	0.0001281	3.5855e-05	986.37	1.4019e-06	1.3949e-06	1083.8	206.71	1.3966e-06	1.3907e-06	257.82	74.389	57.718	17.381	1.3568e-06	23.773	198.444	56.100	124.702	3.538	179.255	84.429	3.956	11.274	85.464	118.006	10.314	18.174	18.229	24.887	244.311	24.249	-8191	255	
3344.913	1	1	0	0	0.042307	0.05463	0.10661	0.10745	0.09965	0.044905	0.23138	0.24683	0.10174	0.24776	0.14572	0.088529	0.17992	0.11957	0.13267	0.13368	-4.5021	-4.6667	-4.0896	-4.9187	-4.2625	-4.2875	-4.9271	-4.1708	-4.5604	-4.8562	-4.0813	-5.0062	-4.3021	-4.4083	-4.8771	-4.1354	56.907	31.137	2.104	119.446	211.292	196.246	332.439	80.221	332.088	49.683	12.849	114.681	351.041	223.679	77.603	73.586	0.00015827	0.00033095	1.2812e-05	1054.9	3.6743e-06	1.6201e-06	1147.5	217	2.3984e-06	3.901e-07	275.77	78.457	60.875	18.091	2.3285e-06	25.06	0.00012614	0.00012678	3.5249e-05	987.44	1.3727e-06	1.3736e-06	1083.9	206.28	1.3385e-06	1.3603e-06	257.8	74.645	57.709	17.366	1.3652e-06	23.848	216.824	68.833	-5.413	3.556	132.639	191.381	3.695	11.173	113.224	151.748	10.590	17.968	17.970	24.671	148.081	24.524	-8191	255	
3345.009	1	1	0	0	0.24257	0.25622	0.27211	0.17702	0.21201	0.10948	0.11154	0.1605	0.19228	0.088327	0.14264	0.27965	0.10031	0.10594	0.11908	0.068204	-4.2583	-4.6021	-4.0042	-5.0625	-4.4812	-4.0896	-5.1208	-4.2063	-4.6396	-4.8354	-4.1479	-4.8562	-4.4812	-4.2021	-4.9479	-4.1771	307.579	101.737	207.790	292.173	246.537	5.975	337.651	221.774	304.538	261.129	256.003	327.285	327.874	179.010	232.022	78.336	0.00018264	0.00014575	9.313e-05	1055.7	3.4009e-06	3.2862e-06	1144.1	217.71	3.9347e-06	1.33e-06	275.4	78.573	61.026	17.999	2.3812e-06	25.267	0.00012582	0.00012537	3.4638e-05	987.8	1.3591e-06	1.376e-06	1082.5	206.93	1.3578e-06	1.3367e-06	257.58	74.495	57.443	17.341	1.3455e-06	23.837	230.035	130.045	56.435	3.561	211.745	154.929	3.838	11.443	150.364	196.703	10.452	18.218	18.238	25.157	176.972	24.560	-8191	255	
3345.105	1	1	0	0	0.17596	0.10141	0.087092	0.2767	0.051956	0.12955	0.2705	0.24164	0.12758	0.11608	0.056459	0.19766	0.14589	0.27307	0.086291	0.10547	-4.275	-4.9646	-3.9417	-4.9333	-4.6896	-4.2937	-5.1625	-4.3521	-4.4313	-4.8187	-4.0062	-4.6646	-4.6375	-4.0729	-5.0583	-4.2958	302.662	176.542	159.220	291.805	274.280	206.252	269.119	343.990	92.185	39.279	179.984	260.643	327.570	125.881	298.704	274.671	0.00015713	0.0001565	0.00010466	1054.1	2.2974e-06	1.301e-06	1144.6	217.87	2.4301e-06	2.8666e-06	275	78.227	60.947	18.029	2.3981e-06	24.808	0.00012459	0.0001242	3.5198e-05	983.16	1.3697e-06	1.3659e-06	1081.9	206.76	1.3705e-06	1.3383e-06	257.34	74.192	57.5	17.37	1.3299e-06	23.719	190.610	82.207	61.215	3.503	259.058	175.041	3.581	11.269	32.141	166.289	10.577	17.828	18.372	25.509	48.700	24.430	-8191	255	
3345.201	1	1	0	0	0.15943	0.019286	0.15761	0.10413	0.11551	0.14375	0.33007	0.053509	0.28552	0.081392	0.12056	0.083114	0.1304	0.063998	0.17786	0.10046	-4.1417	-4.9	-4.0333	-4.65	-4.6396	-4.0167	-5.1687	-4.4021	-4.2917	-5.1438	-4.1292	-4.6708	-4.6937	-4.1104	-4.8667	-4.5042	182.637	209.242	92.354	254.237	225.409	324.236	285.213	90.516	328.525	320.176	144.857	258.757	219.240	324.424	220.765	12.271	0.00021949	0.00024119	1.2429e-05	1053.6	2.3335e-06	1.8251e-06	1143.1	217.78	2.7111e-06	1.6609e-06	277.6	78.342	60.656	18.002	3.9841e-07	24.998	0.00012452	0.0001209	3.4244e-05	984.53	1.3422e-06	1.3237e-06	1081.8	206.24	1.3293e-06	1.3039e-06	256.6	74.016	57.337	17.33	1.2964e-06	23.764	195.017	113.227	2.189	3.360	5.269	22.137	3.758	11.204	209.728	174.398	10.564	17.895	18.165	24.681	236.726	24.105	-8191	255	
3345.297	1	1	0	0	0.19165	0.051717	0.21542	0.34888	0.30325	0.18254	0.31915	0.118	0.11467	0.10553	0.12066	0.044287	0.12526	0.23159	0.088066	0.12899	-3.9396	-5.0458	-4.2417	-4.6896	-4.6896	-4.0521	-4.9375	-4.4563	-4.0333	-4.9938	-4.1479	-4.4604	-4.9146	-3.9188	-4.9208	-4.6542	39.088	32.402	352.472	327.792	102.893	303.446	-3.833	330.025	199.410	249.898	223.873	232.880	43.564	211.331	287.761	339.001	0.00014309	0.00035669	8.9918e-05	1057.6	6.3479e-07	3.0503e-06	1146	218.55	2.9093e-06	3.0706e-06	273.31	77.877	60.825	17.871	1.3979e-06	24.904	0.0001211	0.00011825	3.3461e-05	983.08	1.308e-06	1.299e-06	1078.5	206.43	1.3125e-06	1.2866e-06	255.64	74.055	57.291	17.284	1.2755e-06	23.684	207.409	95.508	44.269	3.235	153.800	274.878	3.847	11.071	229.341	130.108	10.754	18.003	18.246	24.483	235.869	24.512	-8191	255	
3345.394	1	1	0	0	0.11773	0.12479	0.019154	0.1307	0.13193	0.034771	0.13541	0.059658	0.30057	0.33847	0.18086	0.12405	0.25058	0.3546	0.089656	0.050997	-3.8521	-4.8896	-4.2583	-4.5208	-4.8417	-4.0104	-4.9667	-4.775	-4.0667	-4.925	-4.2458	-4.3229	-4.9625	-4.0917	-4.7708	-4.6833	92.590	51.957	109.997	152.085	68.676	311.872	299.937	157.301	184.596	276.068	239.693	1.887	218.143	340.494	329.593	41.772	9.9764e-05	0.00011485	6.6007e-05	1051.8	4.0732e-06	1.3197e-06	1141.1	217.09	2.8254e-06	2.0851e-06	276.18	78.863	60.894	17.975	8.6803e-07	25.044	0.00011821	0.00011682	3.2902e-05	980.61	1.2836e-06	1.2832e-06	1079.5	205.99	1.2753e-06	1.2834e-06	256.61	73.913	57.188	17.253	1.2957e-06	23.695	225.786	98.634	345.380	3.158	240.373	45.662	3.911	11.301	250.300	72.934	10.704	17.915	18.489	24.806	157.654	24.432	-8191	255	
3345.514	1	1	0	0	0.086295	0.091055	0.10226	0.14258	0.15336	0.043441	0.19704	0.11874	0.15287	0.1264	0.15199	0.10718	0.15764	0.10519	0.09532	0.046039	-3.7104	-4.9167	-4.2688	-4.375	-5.0375	-4.1667	-4.8	-4.8562	-4.1083	-4.9042	-4.5542	-4.3646	-4.925	-4.1333	-4.5958	-4.8354	295.542	31.156	34.065	251.200	160.326	217.461	346.782	135.540	-3.963	48.230	13.011	217.746	130.777	216.778	244.427	345.663	0.00020012	4.4761e-05	2.4378e-05	1049.6	4.0129e-06	3.0352e-06	1144	215.95	5.1374e-06	2.7006e-06	274.76	78.033	60.946	18.053	1.1826e-06	25.148	0.00012132	0.00011658	3.3117e-05	980.02	1.2927e-06	1.2932e-06	1078	205.2	1.2771e-06	1.2837e-06	256.21	73.829	57.356	17.237	1.2768e-06	23.687	199.357	199.614	108.586	3.164	206.680	132.612	3.586	11.290	214.402	84.349	10.704	17.833	18.398	25.375	122.307	24.135	-8191	255	
3345.609	1	1	0	0	0.093911	0.13557	0.083575	0.11353	0.1862	0.29016	0.15298	0.098926	0.027329	0.29928	0.10933	0.11473	0.12323	0.14603	0.1604	0.088985	-3.7375	-4.7854	-4.4292	-4.1792	-4.9458	-4.1312	-4.6687	-4.8167	-4.0208	-4.7896	-4.775	-4.2229	-4.9375	-4.1167	-4.4062	-4.9625	-6.542	18.513	284.230	133.672	199.293	205.044	233.371	3.719	44.752	91.868	313.607	333.772	152.719	49.733	169.883	33.360	0.00012785	0.00013265	0.00014945	1053	2.961e-07	2.0385e-06	1141.5	216.83	5.0136e-06	2.122e-06	275.49	78.329	61.04	17.944	3.6567e-06	25.032	0.00011732	0.00011493	3.2585e-05	979.45	1.2627e-06	1.2511e-06	1077.5	205.72	1.2628e-06	1.2447e-06	255.65	73.768	57.175	17.195	1.2392e-06	23.681	198.496	69.832	48.353	3.335	240.515	285.401	3.819	11.379	211.176	64.722	10.814	18.274	18.474	25.491	155.852	24.282	-8191	255	
3345.705	1	1	0	0	0.11487	0.053442	0.075217	0.12741	0.076463	0.031184	0.1828	0.18543	0.07185	0.17406	0.027035	0.26075	0.038192	0.075417	0.2208	0.26931	-3.7792	-4.8187	-4.7417	-4.1604	-5.0062	-4.2896	-4.45	-4.9854	-4.0875	-4.6438	-4.7875	-4.1417	-5.0437	-4.3542	-4.3438	-4.8708	215.666	237.985	116.053	53.679	30.160	76.354	332.160	15.673	326.334	231.074	214.174	336.713	27.752	347.647	184.553	265.615	0.00013514	0.00021014	7.9368e-05	1049.5	2.2665e-06	2.841e-07	1139.8	217.89	5.638e-06	2.3369e-06	275.18	77.785	61.336	17.93	3.4363e-06	24.987	0.00011398	0.0001143	3.1524e-05	978.21	1.2601e-06	1.2445e-06	1076.7	205.53	1.2399e-06	1.2502e-06	255.76	73.648	57.138	17.191	1.2389e-06	23.678	211.122	74.154	164.071	3.194	150.944	-5.873	3.766	10.948	124.451	183.926	10.520	17.811	18.200	24.752	87.349	24.587	-8191	255	
3345.801	1	1	0	0	0.099076	0.095036	0.12893	0.18414	0.24924	0.2868	0.045192	0.13034	0.084672	0.027502	0.23624	0.1808	0.13139	0.27357	0.082176	0.17712	-3.7979	-4.6083	-4.8063	-4.1	-5.0042	-4.4854	-4.6229	-5.0938	-4.1042	-4.4729	-4.9479	-4.0833	-4.7646	-4.5292	-4.0062	-5.0792	227.880	191.653	189.066	19.353	282.369	38.825	-0.569	348.030	103.093	162.806	274.435	18.072	4.415	186.889	170.027	82.542	6.4123e-05	0.0002927	5.6668e-05	1044.1	1.6536e-06	1.8403e-06	1138	215.81	3.4062e-06	4.0119e-06	271.95	78.056	60.648	18.073	1.789e-06	25.055	0.00011488	0.00011377	3.108e-05	976.27	1.2311e-06	1.2472e-06	1074.9	205.01	1.2296e-06	1.2094e-06	255.16	73.555	56.996	17.238	1.2053e-06	23.644	203.907	64.151	332.364	3.609	167.958	101.052	3.841	10.997	158.482	145.398	10.625	18.559	17.967	24.753	134.821	24.778	-8191	255	
3345.897	1	1	0	0	0.22481	0.081586	0.21109	0.19699	0.054991	0.34925	0.22393	0.29865	0.011505	0.013674	0.020533	0.075286	0.24925	0.11894	0.14519	0.35612	-4.0771	-4.3562	-4.7021	-4.1521	-4.7583	-4.6229	-4.3187	-5.1562	-4.3354	-4.3333	-5.0583	-4.0271	-4.8771	-4.6875	-4.1167	-5.075	52.581	326.388	226.934	344.585	335.887	332.764	261.094	221.826	5.960	267.876	272.126	16.026	351.493	353.367	43.590	190.492	0.00015796	0.00013093	0.00010175	1053.2	6.7311e-07	2.5338e-06	1137.5	218.66	3.9559e-06	3.8385e-06	274.2	78.126	60.907	17.809	2.6168e-06	25.022	0.00011341	0.00011123	3.0973e-05	979.29	1.2122e-06	1.1887e-06	1073.8	205.58	1.201e-06	1.1858e-06	254.97	73.434	57.021	17.085	1.1883e-06	23.53	221.365	103.541	24.746	3.505	182.118	136.751	3.671	11.413	175.006	183.288	10.830	18.166	17.959	24.890	159.195	24.324	-8191	255	
3345.993	1	1	0	0	0.050392	0.030257	0.085531	0.18227	0.068474	0.18375	0.13513	0.087414	0.1051	0.35342	0.32071	0.087103	0.12046	0.087172	0.22092	0.18173	-3.9854	-4.3667	-4.9062	-4.1792	-4.5792	-4.7521	-4.2208	-4.9917	-4.4667	-4.2875	-5.025	-4.1042	-4.5437	-4.8667	-4.0312	-4.875	121.350	347.431	81.733	267.987	10.214	315.730	346.104	335.148	19.769	16.580	289.173	281.111	49.089	283.994	313.569	223.968	0.00019118	0.00023319	2.7189e-05	1049.2	2.9913e-06	3.7421e-06	1137.1	216.88	6.963e-07	4.5704e-07	273.66	77.503	60.552	18	5.4975e-06	25.033	0.00010999	0.00010786	2.9855e-05	975.31	1.1856e-06	1.155e-06	1071.9	204.73	1.1549e-06	1.1556e-06	253.95	73.072	56.649	17.069	1.1136e-06	23.484	206.387	185.351	88.625	3.159	133.881	90.844	3.622	11.188	180.769	161.326	10.239	17.918	18.228	25.166	140.412	23.983	-8191	255	
3346.089	1	1	0	0	0.032788	0.12852	0.17878	0.30326	0.18905	0.18343	0.23044	0.0677	0.2143	0.17872	0.10668	0.055296	0.15851	0.1189	0.28463	0.012738	-4.0625	-4.1271	-4.7312	-4.1125	-4.3938	-4.7958	-4.1208	-4.9792	-4.3729	-4.1396	-5.0271	-4.225	-4.4688	-4.9187	-3.9104	-4.7604	117.519	20.119	308.286	16.774	324.885	201.168	220.677	183.221	119.578	202.453	285.077	231.518	26.354	274.512	202.672	7.182	0.00012814	8.682e-05	9.4765e-05	1036.2	1.4993e-06	1.2322e-06	1130.9	215.62	2.4552e-06	2.7713e-06	269.87	77.684	60.408	17.791	2.3421e-06	24.958	0.00010403	0.0001012	2.79e-05	965.7	1.0996e-06	1.0768e-06	1063.3	203.36	1.0718e-06	1.0854e-06	251.84	72.697	56.374	16.98	1.1018e-06	23.37	179.753	179.791	70.344	3.351	191.530	231.282	3.894	11.189	50.206	263.949	10.469	18.063	18.085	24.649	79.321	24.192	-8191	255	
3346.186	1	1	0	0	0.15573	0.13857	0.12751	0.17584	0.063695	0.13521	0.31228	0.15704	0.17171	0.33234	0.14301	0.088392	0.073851	0.05117	0.11847	0.12845	-4.2083	-3.9667	-5.0208	-4.2521	-4.2125	-4.9417	-4.1375	-4.5813	-4.7146	-4.0792	-5.0729	-4.4375	-4.3083	-4.9771	-3.9521	-4.7417	52.837	152.535	16.137	135.156	181.850	170.772	308.500	274.430	22.048	322.404	81.182	141.748	267.077	58.288	304.511	65.165	0.00012673	7.294e-05	2.2827e-05	1040.6	1.5368e-06	2.1568e-06	1126.3	214.63	3.1357e-06	2.9714e-06	271.23	77.803	60.312	17.844	1.7486e-06	24.86	0.00010221	0.00010109	2.7496e-05	966.27	1.1159e-06	1.1051e-06	1063.7	203.01	1.1237e-06	1.109e-06	252.26	72.914	56.375	16.998	1.1063e-06	23.351	171.188	131.130	182.498	3.435	200.337	210.025	3.638	11.022	174.783	160.192	10.393	18.141	18.382	25.031	106.258	23.847	-8191	255	
3346.306	1	1	0	0	0.10229	0.087415	0.047208	0.23505	0.15689	0.12795	0.21021	0.12657	0.095838	0.099989	0.26022	0.18709	0.33505	0.041568	0.20364	0.15109	-4.4812	-4.0542	-4.9688	-4.4417	-4.1542	-4.9583	-4.1104	-4.7708	-4.7	-3.9292	-4.9688	-4.3854	-4.2542	-5.0479	-4.1521	-4.6687	-1.859	235.781	144.168	275.818	171.032	144.803	299.775	293.917	171.538	278.162	97.069	320.059	219.223	228.637	245.890	94.576	0.00010991	3.3886e-05	8.0949e-05	1037.8	1.7708e-06	2.6103e-06	1126.6	216.99	4.263e-06	1.0798e-06	271.6	77.773	60.75	17.853	1.5539e-06	24.994	0.00010326	0.00010231	2.8077e-05	966.51	1.1338e-06	1.1032e-06	1065.1	203.9	1.1225e-06	1.1338e-06	252.07	72.955	56.549	17.009	1.1288e-06	23.406	219.530	18.531	33.832	2.915	239.498	150.994	3.547	11.283	183.169	108.414	10.673	17.712	17.390	24.514	341.700	24.586	-8191	255	
3346.401	1	1	0	0	0.12301	0.14941	0.090493	0.071335	0.037338	0.11229	0.21142	0.25891	0.19598	0.061304	0.093565	0.11728	0.016931	0.11897	0.16378	0.16283	-4.5646	-3.9708	-4.7896	-4.4917	-4.0771	-4.8688	-4.4229	-4.5292	-4.8979	-4.1271	-4.8292	-4.6792	-4.1208	-5.0042	-4.3125	-4.3792	96.603	326.961	23.279	96.104	234.979	167.799	314.287	280.607	21.298	21.838	-6.316	9.466	51.399	69.892	86.048	255.214	0.00012998	0.0001459	4.6154e-05	1039.9	6.495e-07	2.7311e-06	1131.7	217.31	2.0095e-06	8.8915e-07	271.46	77.261	60.441	17.887	2.3237e-06	24.795	0.00010358	0.00010352	2.8272e-05	967.37	1.1188e-06	1.1086e-06	1065.2	203.68	1.137e-06	1.1259e-06	252.8	72.97	56.611	17.005	1.1101e-06	23.35	211.193	121.108	317.372	3.216	187.231	177.362	3.613	10.980	240.634	145.575	10.814	18.106	18.147	25.611	255.384	24.292	-8191	255	
3346.474	1	1	0	0	0.062224	0.094686	0.2075	0.16321	0.25829	0.11854	0.15583	0.082918	0.17576	0.074609	0.14905	0.083228	0.1275	0.12818	0.21761	0.15281	-4.5833	-4.125	-4.8396	-4.8187	-4.1625	-5.0188	-4.4875	-4.3875	-4.9146	-4.0833	-4.6896	-4.7458	-4.1604	-4.9187	-4.3667	-4.3333	74.398	311.505	306.239	91.291	31.666	43.743	342.355	160.546	257.104	347.006	26.192	232.495	237.481	314.032	1.353	307.842	0.00011478	0.00020754	7.7622e-05	1038.4	1.7198e-06	7.4347e-07	1126.4	216.07	3.2161e-06	3.5641e-06	271.53	77.5	60.853	17.702	7.216e-07	24.752	0.00010246	0.00010198	2.8122e-05	966.88	1.1163e-06	1.0929e-06	1064.1	203.61	1.124e-06	1.0969e-06	252.9	72.58	56.491	16.98	1.1074e-06	23.395	207.771	114.869	105.846	3.272	129.321	114.807	3.499	10.979	170.724	154.298	10.818	18.007	18.556	24.672	126.222	24.145	-8191	255	
3346.593	1	1	0	0	0.013243	0.28694	0.095183	0.14018	0.14125	0.040857	0.24889	0.1719	0.067511	0.028859	0.17741	0.064824	0.18924	0.12413	0.23943	0.4318	-4.6604	-4.0729	-4.4958	-4.8896	-3.9896	-4.7708	-4.6083	-4.225	-4.9354	-4.225	-4.6292	-4.8208	-4.025	-4.9083	-4.5104	-4.2125	307.672	70.456	297.803	238.695	150.585	21.405	325.959	346.265	10.817	228.888	336.915	277.262	7.952	340.760	129.171	20.643	0.00012056	0.00010053	6.3693e-05	1038.1	8.8883e-07	3.881e-06	1131.3	216.08	1.6558e-07	5.116e-06	270.71	77.566	60.415	17.93	7.766e-07	24.796	0.00010494	0.00010236	2.8777e-05	966.11	1.1329e-06	1.1336e-06	1065.1	203.57	1.1295e-06	1.1563e-06	252.18	72.817	56.545	17.006	1.1087e-06	23.378	199.200	216.709	48.663	3.296	237.055	125.709	3.861	10.985	222.552	182.784	10.488	17.880	18.119	25.063	262.549	24.577	-8191	255	
3346.689	1	1	0	0	0.088219	0.11902	0.14904	0.24014	0.0022322	0.24686	0.0025855	0.030321	0.21765	0.11915	0.17222	0.13404	0.28175	0.25567	0.14781	0.17469	-4.7	-4.0875	-4.4667	-5.0354	-3.9729	-4.8	-4.8042	-4.05	-4.9229	-4.2688	-4.4875	-4.9021	-4.1062	-4.6417	-4.6458	-4.1208	33.620	159.704	105.250	345.442	180.000	93.787	247.618	274.719	105.621	205.531	257.864	70.718	300.571	228.502	3.122	47.715	0.00010247	0.00021676	7.8005e-05	1040.2	1.8241e-06	2.9016e-06	1126.9	215.5	2.8377e-06	1.3856e-06	271.89	78.188	60.298	17.892	4.5548e-06	24.837	0.00010393	0.00010245	2.8199e-05	967.13	1.1256e-06	1.1267e-06	1064.5	203.3	1.1234e-06	1.1074e-06	252.04	72.952	56.431	17.031	1.1158e-06	23.411	186.382	193.418	40.124	3.351	116.625	87.606	3.633	11.184	245.922	237.783	10.611	18.208	18.279	24.654	96.173	24.359	-8191	255	
3346.785	1	1	0	0	0.073476	0.18481	0.02543	0.10572	0.074808	0.11463	0.18572	0.30213	0.10997	0.40589	0.13478	0.19026	0.12297	0.13732	0.1005	0.19614	-4.5479	-4.275	-4.4104	-5.2063	-4.0583	-4.8021	-4.9021	-4.1188	-4.9479	-4.4583	-4.1479	-4.8542	-4.0792	-4.5021	-4.8271	-4.0583	159.701	297.668	8.100	84.123	6.666	84.535	290.659	313.351	202.398	149.576	281.082	327.095	78.466	5.385	178.729	160.098	0.00017208	0.00039418	0.00013469	1038.7	1.383e-06	3.752e-06	1131.2	214.6	3.8722e-06	7.5426e-07	272.62	77.797	60.448	17.752	6.0373e-06	24.877	0.00010379	0.00010354	2.882e-05	968.43	1.1541e-06	1.1205e-06	1065	203.05	1.1406e-06	1.132e-06	252.76	73.055	56.483	17.024	1.1399e-06	23.415	202.871	108.618	138.549	3.121	119.706	143.913	3.865	11.162	175.922	331.469	10.641	17.883	18.325	24.807	111.546	24.257	-8191	255	
3346.881	1	1	0	0	0.18352	0.1183	0.13668	0.029505	0.35837	0.10729	0.15869	0.085691	0.022039	0.11153	0.1146	0.12118	0.13354	0.18931	0.1189	0.14954	-4.6208	-4.3771	-4.1125	-5.1771	-4.1854	-4.6354	-4.9812	-4.1083	-4.8083	-4.5667	-4.3146	-5.075	-4.0771	-4.6625	-4.7042	-4.0771	119.825	148.877	226.273	164.599	143.571	109.687	252.291	154.016	271.683	304.049	153.652	81.230	326.618	77.913	253.220	103.350	0.00012557	0.00031019	2.4969e-05	1039.3	2.2479e-06	2.1883e-06	1125.4	215.78	4.031e-06	1.845e-06	272.08	78.381	60.508	17.886	1.262e-06	24.988	0.00010794	0.00010481	2.8979e-05	968.33	1.1588e-06	1.1484e-06	1064.5	203.54	1.1714e-06	1.1273e-06	252.65	73.036	56.455	17.018	1.1576e-06	23.461	226.286	180.662	45.736	3.491	93.783	72.777	3.605	11.326	100.584	101.791	10.070	17.973	18.044	24.735	39.952	24.217	-8191	255	
3347.002	1	1	0	0	0.23599	0.12445	0.26503	0.2547	0.14279	0.23456	0.29499	0.1086	0.19589	0.092696	0.16996	0.097783	0.22973	0.13735	0.043272	0.12917	-4.4479	-4.6208	-4.0938	-4.9646	-4.2083	-4.4208	-5.0896	-4.1292	-4.6333	-4.6833	-4.0646	-4.9187	-4.1792	-4.3583	-4.9563	-4.2042	140.203	0.586	270.888	14.638	109.237	44.947	274.362	292.443	328.032	21.596	325.883	330.295	12.332	209.352	317.811	278.350	0.00011717	0.00012711	9.0822e-05	1041.1	1.3668e-06	3.3065e-06	1135.6	216.51	2.3091e-06	1.7999e-06	272.16	78.178	60.683	17.803	2.8562e-06	24.802	0.00010768	0.00010596	2.9732e-05	968.32	1.1746e-06	1.1612e-06	1066.3	203.79	1.1517e-06	1.1397e-06	253.23	73.188	56.508	17.03	1.1436e-06	23.371	191.969	114.510	111.199	3.258	140.820	67.464	3.712	10.976	296.002	124.749	10.497	18.096	17.952	24.907	111.556	24.237	-8191	255	
3347.098	1	1	0	0	0.13842	0.061421	0.14053	0.14723	0.023292	0.027261	0.23936	0.058666	0.091449	0.085186	0.15369	0.15723	0.18957	0.10673	0.16006	0.045931	-4.3875	-4.7417	-4.1813	-4.9896	-4.3542	-4.2625	-5.0042	-4.1354	-4.6	-4.7229	-4.0938	-4.9333	-4.5021	-4.2854	-4.9958	-4.1646	165.631	317.841	11.135	173.361	316.775	242.736	319.575	238.108	287.199	2.488	91.396	240.296	40.230	272.024	80.849	69.329	0.00012754	0.00026802	5.2495e-05	1040	2.9391e-06	2.6717e-06	1130	215.97	6.0498e-06	2.2581e-06	272.54	77.151	60.339	17.768	2.2206e-06	24.79	0.00010496	0.00010624	2.9238e-05	967.62	1.1687e-06	1.1494e-06	1066.1	203.54	1.1716e-06	1.1357e-06	252.42	72.855	56.46	17.014	1.1653e-06	23.407	213.235	321.694	42.944	3.451	125.360	317.002	3.724	11.055	144.349	303.686	10.572	17.894	17.554	24.785	233.051	24.221	-8191	255	
3347.194	1	1	0	0	0.081358	0.24286	0.19891	0.064781	0.14385	0.13184	0.17297	0.12341	0.33397	0.27546	0.1496	0.069562	0.26967	0.23785	0.13462	0.20294	-4.3708	-4.8583	-4.0375	-4.9458	-4.55	-4.1917	-5.1292	-4.2208	-4.4146	-4.9187	-4.0146	-4.7271	-4.7479	-4.0563	-4.9146	-4.3125	197.960	311.987	110.530	289.706	127.933	234.328	297.147	61.932	341.750	50.298	248.358	22.579	73.928	61.251	281.170	185.341	0.0001649	0.00015621	2.8325e-05	1041.3	8.9132e-07	1.1029e-06	1129.1	216.39	3.657e-06	1.3058e-06	271.96	77.806	59.97	17.848	1.0134e-06	24.848	0.00010771	0.00010615	2.9958e-05	969	1.1568e-06	1.1802e-06	1065	203.69	1.1698e-06	1.1737e-06	252.57	73.027	56.428	17.048	1.1562e-06	23.424	188.730	54.367	49.985	3.267	9.630	65.007	3.648	11.135	77.702	183.370	10.737	18.039	18.461	24.771	309.139	24.450	-8191	255	
3347.290	1	1	0	0	0.20061	0.17914	0.21515	0.20805	0.28511	0.23549	0.16159	0.080177	0.087839	0.11774	0.21144	0.016948	0.14936	0.093414	0.2494	0.035581	-4.0458	-4.9021	-4.0375	-4.8521	-4.8521	-4.1542	-5.1771	-4.3729	-4.2979	-4.9271	-4.0167	-4.5604	-4.8229	-4.0729	-4.8604	-4.3125	141.912	12.162	102.857	324.104	64.001	144.996	263.925	257.610	258.767	117.132	301.320	265.756	345.340	262.235	208.778	81.376	0.0001177	0.00045813	8.11e-05	1037	2.5727e-06	2.4172e-06	1130.2	215.19	1.2769e-06	3.7583e-06	273.2	77.612	60.375	17.707	1.7191e-06	24.704	0.00010596	0.00010713	2.9526e-05	967.4	1.1591e-06	1.1679e-06	1065.5	203.58	1.1778e-06	1.1583e-06	252.6	73.029	56.577	17.021	1.1633e-06	23.407	204.800	107.198	3.724	3.355	190.574	344.996	3.739	10.958	42.803	141.910	10.191	17.853	18.046	24.815	92.553	24.355	-8191	255	
3347.387	1	1	0	0	0.10343	0.024142	0.19006	0.17374	0.22484	0.10383	0.058275	0.14703	0.20473	0.21226	0.21687	0.088224	0.11725	0.14996	0.038867	0.16818	-3.8542	-4.9229	-4.175	-4.6375	-4.7542	-3.8917	-5.1167	-4.6	-4.175	-4.9167	-4.1813	-4.5458	-4.8792	-4.0229	-4.8792	-4.6667	98.575	155.918	224.248	288.249	102.500	101.329	76.788	16.550	349.848	308.083	163.002	344.681	234.227	284.860	177.272	305.420	0.00010221	0.00027136	9.2296e-05	1043.5	1.731e-06	4.3554e-06	1128	214.85	2.9851e-06	2.3389e-06	273.36	77.737	60.881	17.86	4.3602e-06	24.855	0.00010866	0.00010708	2.9813e-05	969.41	1.1882e-06	1.1859e-06	1066.5	203.81	1.184e-06	1.1768e-06	253.15	72.967	56.683	16.996	1.1713e-06	23.442	204.250	108.002	48.749	3.310	44.447	153.255	3.464	11.095	132.004	183.024	10.264	17.873	18.378	24.740	137.496	24.396	-8191	255	
3347.483	1	1	0	0	0.1385	0.14271	0.12507	0.24558	0.1978	0.14341	0.2894	0.27707	0.049017	0.11964	0.13265	0.074043	0.10154	0.10464	0.029112	0.13497	-3.7833	-4.875	-4.2375	-4.4729	-4.8625	-3.9167	-4.85	-4.6625	-4.0042	-4.8375	-4.3896	-4.475	-4.825	-4.0021	-4.5875	-4.5062	94.064	219.857	200.644	217.588	208.041	182.953	342.073	281.696	143.061	173.151	254.283	209.695	108.613	178.276	273.935	-1.329	0.00013354	0.00039822	1.7494e-05	1044	4.1573e-06	1.7734e-06	1128.1	216.11	2.2877e-06	1.2118e-06	271.56	77.937	60.592	17.757	5.5934e-06	24.949	0.00010891	0.00010692	2.9972e-05	969.69	1.1627e-06	1.1607e-06	1065.3	203.58	1.1785e-06	1.1585e-06	252.9	72.986	56.475	17.013	1.1561e-06	23.463	191.414	143.443	344.335	3.159	192.820	90.997	3.558	11.251	149.635	76.364	10.609	17.981	18.379	24.631	139.654	24.391	-8191	255	
3347.602	1	1	0	0	0.28751	0.16563	0.11559	0.15296	0.14165	0.11165	0.12465	0.024081	0.32446	0.1499	0.0676	0.30103	0.12588	0.1987	0.082723	0.20709	-3.6	-4.925	-4.1062	-4.3042	-4.8604	-4.0333	-4.65	-4.7188	-3.8521	-4.9417	-4.6333	-4.1833	-5.1354	-4.2229	-4.55	-4.7917	270.154	70.643	274.957	321.002	290.561	63.176	266.454	184.339	329.818	341.343	188.867	274.199	347.775	22.796	218.638	88.601	0.00013791	0.00018358	6.7673e-05	1036.2	9.8788e-07	2.7986e-06	1130.5	214.9	2.1471e-06	4.8164e-06	270.41	77.986	60.745	17.912	2.1338e-06	24.62	0.00010849	0.00010624	2.9594e-05	966.42	1.1817e-06	1.1437e-06	1064.9	203.23	1.1542e-06	1.1408e-06	252.88	73.076	56.567	16.99	1.1387e-06	23.333	223.412	149.680	115.477	2.964	331.727	95.604	3.590	11.212	114.517	198.928	10.714	17.806	18.293	24.709	151.956	24.269	-8191	255	
3347.698	1	1	0	0	0.077918	0.033563	0.085181	0.039766	0.17694	0.13803	0.20566	0.20614	0.086797	0.22677	0.25834	0.04607	0.29907	0.032131	0.24103	0.022158	-3.7146	-4.8667	-4.4375	-4.2479	-4.8729	-4.2042	-4.6604	-4.8979	-4.0687	-4.7583	-4.8125	-4.1813	-5.1042	-4.2958	-4.3875	-5.0771	36.737	215.783	122.022	185.415	326.696	56.160	30.772	318.392	272.464	273.989	307.714	18.623	254.895	171.185	183.263	239.173	0.00013901	0.00039049	4.2319e-05	1040.4	2.002e-06	2.3446e-06	1126.8	215.52	2.9131e-06	1.9881e-06	270.94	77.562	60.338	17.861	1.9634e-06	24.715	0.00010846	0.00010511	2.9583e-05	968.59	1.165e-06	1.1712e-06	1064	203.61	1.1712e-06	1.149e-06	252.55	72.981	56.513	17.029	1.1617e-06	23.386	206.014	96.534	147.870	3.389	106.488	139.204	3.561	10.914	178.481	149.716	10.514	17.793	18.674	25.218	87.594	24.700	-8191	255	
3347.769	1	1	0	0	0.22753	0.24653	0.094213	0.20201	0.10588	0.16563	0.078468	0.074753	0.084448	0.064673	0.12256	0.17802	0.1724	0.22359	0.10782	0.1157	-3.4688	-4.8917	-4.6604	-4.1979	-4.8812	-4.1521	-4.4417	-5.0333	-3.9792	-4.7875	-4.9187	-4.1542	-5.0208	-4.3875	-4.3292	-5.1312	260.551	233.858	43.189	23.039	325.114	252.911	334.697	133.788	230.386	183.314	18.784	7.649	299.092	329.123	84.105	252.980	9.5692e-05	0.00021759	0.00010631	1034.2	8.0932e-07	9.1468e-07	1127.9	216.92	6.9633e-06	4.5127e-06	272.49	77.565	60.048	17.83	3.4702e-06	24.749	0.00010798	0.0001054	2.9761e-05	966.3	1.181e-06	1.1665e-06	1063.2	203.69	1.1721e-06	1.1654e-06	253.39	73.14	56.332	17.005	1.1798e-06	23.374	220.901	122.780	52.361	2.999	102.360	351.040	3.756	11.174	228.010	180.390	10.885	17.765	18.332	24.836	106.590	24.111	-8191	255	
3347.866	1	1	0	0	0.1458	0.08993	0.089927	0.021281	0.097168	0.18576	0.14169	0.034469	0.20093	0.10696	0.12792	0.17512	0.26585	0.094778	0.16314	0.067389	-3.9125	-4.5875	-4.7917	-4.2083	-4.8	-4.3812	-4.3354	-4.9958	-3.9688	-4.4104	-4.9146	-4.0521	-4.7958	-4.5042	-4.075	-4.9979	2.359	197.480	327.380	233.927	309.517	213.071	257.207	56.065	81.843	50.165	230.164	345.345	38.285	288.583	241.348	266.225	6.344e-05	0.00035539	4.2397e-06	1041.2	3.2628e-06	2.0852e-06	1128.6	215.69	7.7161e-07	3.228e-06	271.33	77.128	60.469	17.797	9.6133e-07	24.801	0.000109	0.00010681	2.9436e-05	966.45	1.175e-06	1.164e-06	1065.2	203.39	1.1935e-06	1.1631e-06	252.73	73	56.396	17.024	1.1759e-06	23.376	236.285	101.157	215.921	3.211	139.907	128.796	3.658	10.937	68.794	139.475	10.724	18.102	18.277	24.940	46.334	24.126	-8191	255	
3347.986	1	1	0	0	0.2867	0.057061	0.17826	0.18724	0.15593	0.20087	0.10224	0.060067	0.17714	0.23166	0.36553	0.060951	0.14179	0.1642	0.14359	0.17584	-3.8187	-4.4646	-4.8187	-4.1687	-4.7812	-4.55	-4.1458	-5.0312	-4.2021	-4.4667	-4.9125	-4.0833	-4.5563	-4.7688	-4.1271	-5.0396	3.822	288.833	186.769	50.076	-0.403	209.040	285.142	285.566	0.906	329.207	319.065	286.542	222.497	256.858	70.055	30.968	0.00015334	0.00013828	7.2971e-05	1039.4	2.6949e-06	1.2492e-06	1124.7	215.5	3.2678e-06	2.9109e-06	271.42	77.715	60.429	17.839	1.0942e-06	24.947	0.00010974	0.00010794	3.0121e-05	968.42	1.1942e-06	1.1973e-06	1064.6	203.58	1.1992e-06	1.2024e-06	252.77	73.123	56.555	17.055	1.2201e-06	23.503	206.045	121.023	51.430	3.450	153.781	268.940	3.678	11.119	152.288	66.405	10.740	18.114	18.295	25.067	260.493	25.003	-8191	255	
3348.082	1	1	0	0	0.21393	0.14054	0.072572	0.14747	0.099121	0.23515	0.2106	0.22517	0.074359	0.11751	0.089379	0.047151	0.23167	0.41281	0.24394	0.28366	-4.0687	-4.3479	-5.0146	-3.8375	-4.5979	-4.75	-4.0833	-4.8021	-4.2146	-4.2083	-4.9313	-4.0333	-4.6875	-4.8875	-4.1438	-4.95	307.531	323.553	68.003	312.397	192.933	114.250	329.014	69.187	255.641	158.186	58.168	323.333	332.815	18.015	296.611	306.434	6.3183e-05	9.4998e-05	2.6214e-05	1042.7	1.4481e-06	6.535e-07	1126.5	215.94	3.0814e-06	3.0893e-06	273.33	77.914	60.88	17.865	6.3399e-06	25.025	0.00011401	0.00011135	3.1348e-05	970.77	1.2241e-06	1.2141e-06	1066.9	204.33	1.239e-06	1.2039e-06	254.21	73.252	56.918	17.086	1.2203e-06	23.58	170.113	115.774	254.726	3.294	243.616	192.669	3.537	11.073	249.596	118.767	10.541	17.797	18.292	25.260	98.213	24.437	-8191	255	
3348.178	1	1	0	0	0.1226	0.058736	0.1334	0.18057	0.038071	0.033854	0.23367	0.15321	0.20452	0.27834	0.082539	0.15486	0.043506	0.17132	0.021438	0.17518	-4.1	-4.1375	-4.9375	-4.0625	-4.425	-4.7604	-4.1083	-4.8042	-4.2521	-4.0437	-4.95	-4.0979	-4.4979	-4.9021	-3.925	-4.8708	94.601	18.254	304.556	310.101	72.308	317.465	279.869	156.700	123.317	167.380	47.201	351.666	238.279	67.325	209.757	289.598	0.00017165	0.0001486	3.5023e-05	1037.7	2.9284e-06	3.6061e-06	1133.1	215.25	9.827e-07	4.8226e-06	273.05	77.669	60.298	17.845	2.0528e-06	25.1	0.00011129	0.00011129	3.0807e-05	969.38	1.2191e-06	1.2122e-06	1070.5	204.33	1.2035e-06	1.188e-06	253.82	73.156	56.638	17.066	1.1954e-06	23.451	206.358	88.559	124.761	3.351	162.167	153.380	3.559	10.914	244.116	173.317	10.619	17.874	18.312	24.641	115.822	24.327	-8191	255	
3348.275	1	1	0	0	0.039013	0.30087	0.07365	0.2816	0.047715	0.021945	0.11156	0.077824	0.086347	0.052137	0.14399	0.27314	0.077116	0.12899	0.23002	0.25598	-4.1771	-4.2188	-5.0062	-4.2438	-4.4458	-4.8729	-4.1562	-4.6062	-4.6625	-4.2604	-4.8583	-4.3354	-4.4	-4.9875	-4.1083	-4.6625	323.404	179.010	344.789	21.361	8.985	180.481	12.464	1.378	295.232	10.192	340.889	339.988	6.651	286.329	18.323	47.197	0.00019888	0.00020598	0.00012823	1041.1	3.5692e-06	2.5163e-06	1131.6	215.68	3.0297e-06	4.3862e-06	273.02	77.196	60.436	17.873	2.9623e-06	24.808	0.0001117	0.00010987	3.0372e-05	969.33	1.1987e-06	1.1832e-06	1067.6	204.39	1.1929e-06	1.1873e-06	253.64	72.898	56.785	17.105	1.1651e-06	23.449	202.724	81.643	90.807	3.227	160.403	108.858	3.542	10.662	138.352	114.215	10.772	17.813	17.860	25.010	217.741	24.200	-8191	255	
3348.371	1	1	0	0	0.15152	0.21446	0.2512	0.059363	0.20372	0.18299	0.258	0.19906	0.23582	0.055067	0.11482	0.082614	0.070183	0.13949	0.090476	0.30178	-4.2292	-4.0854	-4.9229	-4.4938	-4.2812	-4.9521	-4.0854	-4.6333	-4.8562	-4.0479	-5.1083	-4.4062	-4.2917	-4.9771	-4.1625	-4.5958	124.228	5.260	267.783	169.855	318.298	41.021	336.895	306.478	-4.204	3.459	42.865	307.657	114.095	195.476	334.307	154.395	8.5455e-05	0.00029544	7.5757e-05	1036.6	3.5634e-06	2.2844e-06	1125.9	215.87	1.3816e-06	1.2305e-06	272.24	77.4	60.469	17.757	4.6971e-06	24.783	0.00010871	0.00010722	2.9127e-05	967	1.1599e-06	1.1512e-06	1063.5	204	1.176e-06	1.1577e-06	253.79	73.035	56.54	17.015	1.18e-06	23.369	209.028	77.572	82.604	3.093	131.526	113.848	3.427	10.978	239.205	144.807	10.570	17.872	18.136	24.700	143.279	24.114	-8191	255	
3348.467	1	1	0	0	0.11081	0.13535	0.22791	0.11294	0.21216	0.064095	0.15744	0.16645	0.061455	0.10891	0.080832	0.20211	0.15606	0.1541	0.089128	0.25612	-4.6104	-4.0479	-5.0583	-4.6958	-3.8521	-4.9437	-4.3833	-4.5813	-4.8854	-4.15	-4.8562	-4.5729	-4.0979	-4.9521	-4.15	-4.3375	219.835	104.995	180.735	26.204	344.027	5.512	50.589	-3.968	338.806	219.793	110.510	55.631	313.590	172.419	64.550	324.607	0.00014675	0.00013615	3.6301e-05	1037.9	3.3667e-06	2.7348e-06	1127	214.55	5.1448e-06	3.4311e-06	272.23	77.698	60.519	17.736	3.2245e-06	24.738	0.00010864	0.00010836	2.9675e-05	969.81	1.1807e-06	1.1648e-06	1066.2	203.71	1.1754e-06	1.1873e-06	253.61	73.136	56.497	16.99	1.1929e-06	23.413	207.673	329.887	10.002	3.162	258.319	172.157	3.722	11.014	153.161	186.156	10.314	18.168	18.350	24.566	118.902	23.741	-8191	255	
3348.563	1	1	0	0	0.3167	0.21096	0.23552	0.23234	0.23318	0.13793	0.13819	0.094775	0.28692	0.1065	0.13793	0.15904	0.092983	0.12862	0.17449	0.2046	-4.7	-4.0396	-4.6354	-4.7021	-3.9917	-5.0687	-4.4104	-4.4292	-5.0417	-4.0521	-4.6604	-4.8271	-4.1083	-4.9625	-4.4	-4.0771	297.319	77.717	140.359	349.942	75.677	78.342	330.757	301.758	207.463	110.169	99.726	322.059	303.309	228.639	189.269	188.110	0.00014747	6.2652e-05	3.072e-05	1043.7	1.1839e-07	1.7168e-06	1128.6	215.7	9.8497e-07	3.8767e-06	272.88	77.819	60.742	17.724	1.3156e-06	24.787	0.00011045	0.00010769	2.9972e-05	968.87	1.2012e-06	1.1826e-06	1066.8	203.94	1.1843e-06	1.1705e-06	253.7	73.206	56.737	17.07	1.1803e-06	23.42	189.882	74.101	216.207	3.510	178.165	332.530	3.710	11.026	88.539	142.250	10.721	17.867	18.126	24.847	43.673	24.059	-8191	255	
3348.682	1	1	0	0	0.074099	0.13324	0.076419	0.2639	0.093124	0.23325	0.10592	0.13621	0.12106	0.2346	0.14925	0.093336	0.25017	0.12056	0.1003	0.077554	-4.6875	-3.9792	-4.5167	-4.9938	-4.1042	-4.9146	-4.6604	-4.2958	-4.8792	-4.1438	-4.5917	-4.8896	-4.0188	-4.7875	-4.525	-4.2917	52.196	90.664	266.706	9.893	285.362	97.284	181.553	219.962	-2.079	219.688	309.499	171.804	332.437	279.632	138.934	137.765	0.00010219	0.00025579	6.554e-05	1044.1	4.4362e-06	4.1647e-06	1132	215.76	2.2541e-06	5.1114e-06	272.23	77.156	60.311	17.757	1.7358e-06	24.881	0.00010865	0.00010852	3.0274e-05	970.51	1.183e-06	1.1848e-06	1066.4	204.21	1.2038e-06	1.2021e-06	253.76	73.122	56.561	17.059	1.1837e-06	23.45	192.276	35.808	41.491	3.176	149.578	199.499	3.579	11.001	169.949	184.997	10.700	17.920	17.881	24.490	130.951	24.132	-8191	255	
3348.778	1	1	0	0	0.15059	0.25309	0.18443	0.15339	0.21589	0.19291	0.28735	0.12802	0.12353	0.089336	0.066819	0.14571	0.16554	0.20959	0.13987	0.068017	-4.6667	-4.3542	-4.3917	-4.9583	-4.1167	-4.7854	-4.75	-4.1396	-4.8812	-4.3938	-4.4938	-4.8542	-4.0333	-4.675	-4.6604	-4.2021	-2.978	145.265	336.522	297.808	224.862	14.233	326.153	128.252	320.865	173.101	60.687	17.561	324.359	316.382	20.104	304.841	0.00011714	0.00039773	6.251e-05	1043.9	2.0109e-06	1.4194e-06	1129.8	215.51	3.5115e-06	1.7901e-06	272.76	78.096	60.077	17.909	1.4572e-06	25.019	0.0001101	0.00010959	3.0532e-05	969.39	1.2196e-06	1.2068e-06	1067.3	203.84	1.2127e-06	1.2012e-06	253.29	73.254	56.725	17.101	1.2208e-06	23.496	191.448	126.039	79.155	3.174	108.303	100.973	3.668	11.374	5.840	171.230	10.488	17.916	17.993	24.829	61.637	24.342	-8191	255	
3348.874	1	1	0	0	0.094298	0.063368	0.088465	0.1079	0.18879	0.09177	0.18187	0.16585	0.15522	0.08148	0.27633	0.052123	0.25807	0.19583	0.18737	0.1401	-4.5854	-4.3313	-4.1458	-4.9417	-4.2271	-4.6625	-4.8104	-3.9542	-5.0333	-4.3438	-4.2083	-4.9667	-4.2104	-4.5146	-4.7833	-4.0083	323.567	154.168	89.855	8.899	98.229	61.691	311.492	279.669	105.387	24.128	271.317	289.278	275.311	11.035	306.645	82.369	9.0305e-05	0.00038877	5.7201e-05	1037.9	3.8401e-06	2.0145e-06	1129.6	216.52	9.5477e-07	2.8043e-06	270.76	77.534	60.505	17.79	1.3767e-06	24.987	0.00011339	0.00011224	3.118e-05	970	1.1983e-06	1.204e-06	1068.2	204.42	1.2018e-06	1.2232e-06	253.27	73.262	56.666	17.074	1.2025e-06	23.486	208.141	140.683	89.145	3.249	168.168	208.414	3.806	11.487	10.590	103.147	10.565	18.044	18.098	24.892	83.858	23.929	-8191	255	
3348.995	1	1	0	0	0.18836	0.16287	0.24978	0.10351	0.13227	0.091776	0.12741	0.16499	0.21006	0.14823	0.2139	0.079977	0.32679	0.2009	0.055611	0.086894	-4.5875	-4.3958	-4.2021	-5.1042	-4.2375	-4.5312	-5.0292	-4.0083	-4.8938	-4.4729	-4.0938	-5.1042	-4.1854	-4.4	-4.9062	-3.9542	311.377	29.337	324.163	339.284	198.945	-1.410	252.598	44.662	49.065	94.412	342.970	81.615	348.063	249.540	275.820	97.674	0.00016638	0.00017736	9.7986e-05	1044.3	1.4518e-06	1.6811e-06	1126.5	214.99	2.5808e-06	2.0752e-06	275.23	77.809	60.685	17.848	8.949e-07	24.828	0.00011118	0.00011042	3.0321e-05	970.75	1.1997e-06	1.2089e-06	1067.4	203.99	1.1931e-06	1.1814e-06	253.87	73.25	56.564	17.099	1.166e-06	23.444	192.230	321.026	94.324	3.312	294.557	163.746	3.701	11.114	101.660	242.885	10.460	17.917	18.061	24.884	144.162	23.957	-8191	255	
3349.067	1	1	0	0	0.12266	0.17091	0.057055	0.03492	0.12009	0.10838	0.14922	0.23125	0.11976	0.1202	0.16744	0.22118	0.069642	0.145	0.14567	0.18193	-4.4792	-4.5625	-3.9917	-4.9979	-4.2479	-4.3938	-4.95	-3.9208	-4.8063	-4.6271	-4.1937	-4.9938	-4.4	-4.2958	-4.9354	-4.0292	116.583	318.353	17.013	12.068	39.609	3.634	10.397	344.014	336.713	252.908	120.228	7.180	109.691	260.213	172.131	47.108	0.0001201	0.00025434	1.6115e-05	1041.4	4.1741e-06	1.8485e-06	1133.4	215.45	4.85e-07	2.4054e-06	272.83	77.596	61.159	17.79	4.5072e-06	24.813	0.00010859	0.0001085	2.9729e-05	970.21	1.1788e-06	1.1769e-06	1068.1	204.08	1.1801e-06	1.1784e-06	253.59	73.138	56.711	17.031	1.1535e-06	23.412	205.032	28.788	304.538	3.432	164.280	84.950	3.575	11.287	160.515	118.266	10.398	18.118	18.488	24.933	141.703	24.138	-8191	255	
3349.163	1	1	0	0	0.050811	0.013424	0.29601	0.084084	0.076001	0.081679	0.17845	0.15914	0.09199	0.1889	0.057456	0.26884	0.20227	0.215	0.18217	0.16671	-4.3271	-4.7562	-3.8917	-4.9437	-4.3917	-4.1438	-5.0771	-4.2875	-4.4396	-4.8417	-4.1104	-4.9688	-4.4042	-4.1583	-4.9417	-4.2104	41.159	329.608	78.861	140.067	117.904	233.080	319.547	-0.083	77.645	213.609	88.744	246.966	219.410	351.887	236.539	6.752	0.00014244	0.00031611	6.6825e-05	1038.5	4.0542e-06	5.2451e-06	1128.9	215.51	2.9512e-06	2.2644e-06	274.41	77.976	60.648	17.816	8.6018e-07	24.717	0.00010667	0.00010525	2.9531e-05	967.78	1.1546e-06	1.1495e-06	1065.1	203.69	1.1458e-06	1.1267e-06	253.67	73.099	56.629	17.04	1.1389e-06	23.348	230.706	129.321	112.407	3.274	137.356	97.303	3.658	11.265	234.710	87.663	10.235	18.053	18.521	24.558	38.359	24.655	-8191	255	
3349.283	1	1	0	0	0.1544	0.23952	0.11885	0.079198	0.088482	0.020749	0.33141	0.2362	0.26205	0.2177	0.053925	0.12211	0.2468	0.18624	0.26117	0.15548	-4.15	-4.7688	-4.1333	-4.8438	-4.5229	-4.1625	-5.0917	-4.1896	-4.2417	-4.8271	-4.0979	-4.775	-4.5625	-4.175	-4.8792	-4.3208	154.886	239.570	317.753	178.008	343.709	58.537	298.904	307.334	234.870	65.211	87.660	14.748	95.690	281.568	46.275	3.045	0.0001294	0.00021511	2.5633e-05	1043.4	3.3463e-06	5.1333e-06	1131.1	214.62	1.9926e-06	5.2468e-06	272.92	78.213	60.354	17.868	5.3635e-06	24.844	0.00010921	0.0001059	2.9591e-05	969.41	1.1713e-06	1.1553e-06	1066.7	203.88	1.1566e-06	1.1497e-06	253.29	73.083	56.711	17.029	1.1378e-06	23.405	195.207	112.788	119.866	3.065	120.141	62.813	3.726	11.229	321.037	139.580	10.491	18.167	18.206	24.591	162.875	24.291	-8191	255	
3349.379	1	1	0	0	0.30876	0.080993	0.31467	0.14416	0.047894	0.13212	0.14426	0.25438	0.12499	0.31132	0.061215	0.10255	0.27194	0.086733	0.2514	0.14072	-4.1125	-5.0042	-4.0208	-4.7042	-4.7542	-4.1021	-5.2104	-4.3812	-4.2312	-4.9	-4.2479	-4.7625	-4.7375	-4.0312	-4.9167	-4.4417	242.852	284.551	199.236	205.726	23.611	285.637	62.328	18.649	222.000	207.042	141.574	152.265	92.422	180.227	164.913	185.807	9.1369e-05	0.00025553	3.3769e-05	1043.4	1.6246e-06	7.7441e-07	1129.8	217.53	4.9525e-06	4.8436e-06	271.87	77.671	60.679	17.89	1.184e-06	24.721	0.00010711	0.00010599	2.9327e-05	969.54	1.1632e-06	1.1458e-06	1066.5	204.29	1.1729e-06	1.1662e-06	253.56	73.124	56.752	17.06	1.1751e-06	23.456	181.508	100.004	6.392	3.080	129.368	128.145	3.498	11.530	183.414	79.228	10.667	18.172	18.122	24.418	6.267	24.519	-8191	255	
3349.474	1	1	0	0	0.01895	0.085662	0.088807	0.24551	0.06687	0.072518	0.25603	0.19699	0.12192	0.16829	0.38536	0.16243	0.066962	0.21228	0.14396	0.13146	-3.8375	-4.8729	-3.925	-4.5875	-4.8604	-4.1146	-4.9292	-4.4708	-4.2292	-4.9625	-4.1167	-4.5208	-4.7146	-3.9792	-4.9062	-4.6062	150.812	210.360	6.230	246.151	193.306	296.135	321.544	288.892	132.479	124.199	17.787	7.247	199.325	17.591	205.115	260.913	8.1223e-05	0.000327	4.0068e-05	1037.9	9.1878e-07	1.6613e-06	1127.4	215.61	4.2943e-06	1.7118e-06	271.65	77.21	60.755	17.767	3.5629e-06	25.068	0.0001089	0.00010798	2.9824e-05	967.29	1.1996e-06	1.1899e-06	1067	203.64	1.1912e-06	1.1719e-06	253.36	72.98	56.705	16.995	1.1676e-06	23.435	175.674	130.065	75.308	3.405	270.833	10.489	3.690	11.333	99.555	115.861	10.683	18.089	18.347	25.483	99.634	24.301	-8191	255	
3349.570	1	1	0	0	0.23277	0.064669	0.13293	0.17113	0.16176	0.23588	0.26694	0.26473	0.15747	0.067799	0.099937	0.14096	0.14495	0.029831	0.23351	0.069284	-3.8958	-4.9604	-4.2333	-4.4104	-4.7771	-4.0979	-4.775	-4.625	-4.1479	-4.9479	-4.3729	-4.3417	-5.0729	-4.1604	-4.6521	-4.7354	104.174	293.335	106.261	235.520	3.595	142.453	232.409	299.276	183.979	-6.200	95.637	54.951	347.825	98.513	243.824	308.962	0.00015069	0.00024645	4.4773e-05	1037.8	1.7185e-06	1.3188e-06	1126.5	217.88	3.3448e-06	2.8062e-06	272.17	77.797	60.447	17.709	2.1717e-06	24.947	0.00010655	0.0001064	2.9907e-05	967.57	1.146e-06	1.1731e-06	1065.1	204.7	1.1607e-06	1.134e-06	252.52	73.021	56.447	17.019	1.1594e-06	23.446	213.464	82.125	184.340	3.292	38.029	46.154	3.597	11.154	68.468	157.711	10.138	18.024	18.082	25.121	276.230	24.490	-8191	255	
3349.666	1	1	0	0	0.1102	0.24662	0.14143	0.094354	0.15418	0.16121	0.28025	0.2344	0.19291	0.059757	0.13292	0.047452	0.13387	0.1732	0.086492	0.12559	-3.7417	-4.9292	-4.4146	-4.3417	-4.8417	-4.0042	-4.6771	-4.6792	-3.9292	-5.0042	-4.6396	-4.1271	-5.05	-4.0938	-4.2958	-4.8542	262.548	-5.714	167.948	266.548	6.682	23.762	317.057	-5.540	214.893	53.365	249.993	58.089	192.760	239.650	154.878	54.130	0.00016469	0.00025527	4.5813e-05	1040.5	8.5592e-07	1.7337e-06	1125.4	215.79	2.4079e-06	2.0148e-06	271.64	77.512	60.877	17.774	1.4155e-06	24.804	0.00010665	0.00010519	2.9436e-05	966.05	1.1548e-06	1.164e-06	1064.7	203.76	1.1755e-06	1.1759e-06	253.34	72.932	56.745	17.014	1.1623e-06	23.419	197.433	97.583	348.730	3.364	24.638	101.650	3.562	11.156	154.021	128.763	10.181	18.144	17.916	24.499	127.451	23.765	-8191	255	
3349.762	1	1	0	0	0.19958	0.26045	0.13565	0.32309	0.050944	0.18578	0.26973	0.025897	0.10174	0.15763	0.14121	0.041552	0.084083	0.17243	0.14847	0.14992	-3.8063	-4.8125	-4.6146	-4.2458	-4.9604	-4.15	-4.5625	-4.8812	-3.9792	-4.8042	-4.6208	-4.1333	-4.8583	-4.2542	-4.3729	-4.9104	107.884	118.710	305.584	292.798	283.376	109.081	332.792	243.664	344.611	143.144	-5.046	145.485	-5.857	297.190	186.396	303.744	0.00013238	0.00011249	0.000164	1037.4	1.8542e-06	2.2971e-06	1132.7	216.66	5.416e-06	1.3977e-06	273.9	77.215	60.251	17.852	3.7051e-06	24.806	0.00010874	0.00010818	3.02e-05	968.38	1.1653e-06	1.1725e-06	1067.8	204.12	1.1842e-06	1.1714e-06	253.67	72.986	56.611	17.092	1.1826e-06	23.42	178.789	149.713	117.704	3.186	-0.625	104.965	3.596	11.295	160.600	42.742	10.240	17.873	18.386	24.779	106.061	24.440	-8191	255	
3349.858	1	1	0	0	0.25566	0.24345	0.13959	0.036086	0.18867	0.16992	0.27514	0.38543	0.26989	0.27009	0.15369	0.083143	0.076471	0.19663	0.18979	0.10752	-3.7333	-4.6875	-4.6479	-4.2208	-4.9375	-4.3667	-4.5792	-5.1521	-4.0625	-4.6813	-4.7042	-4.0917	-4.975	-4.1625	-4.1646	-4.9812	10.193	68.851	295.071	72.104	276.910	181.037	316.736	25.253	149.822	91.272	316.549	231.524	8.124	133.623	324.203	285.587	0.00017782	1.8688e-05	4.3687e-05	1034.8	2.7139e-06	2.9402e-06	1132.4	215.69	2.0623e-06	5.5607e-07	272.81	78.138	60.902	17.945	6.621e-07	24.815	0.00010875	0.00010579	2.9819e-05	966.29	1.1653e-06	1.1745e-06	1065.3	203.82	1.1696e-06	1.1706e-06	253.1	73.395	56.707	17.086	1.1693e-06	23.448	189.268	119.564	280.180	3.209	182.624	99.890	3.579	10.941	13.233	4.390	10.653	18.084	18.349	24.692	169.175	24.383	-8191	255	
3349.955	1	1	0	0	0.12239	0.11044	0.25407	0.16669	0.24788	0.11955	0.070393	0.10188	0.10624	0.035606	0.26004	0.12667	0.12062	0.07694	0.10842	0.1912	-3.7125	-4.6937	-4.6896	-4.0521	-4.7646	-4.4208	-4.4417	-4.9958	-4.1667	-4.3042	-4.8438	-4.0875	-5.0333	-4.6021	-3.9625	-5.15	198.781	274.321	140.667	240.384	284.575	338.280	237.889	317.752	186.186	213.051	279.158	54.529	302.541	132.050	-5.886	157.826	0.00014793	0.00036478	8.5304e-05	1039.5	1.8317e-06	1.91e-06	1130.1	215.7	1.3367e-06	1.331e-06	271.07	76.914	60.733	17.863	2.4886e-06	24.799	0.00010866	0.0001092	3.0109e-05	967.83	1.2174e-06	1.1831e-06	1065.3	203.85	1.203e-06	1.1993e-06	252.75	72.96	56.709	17.062	1.1697e-06	23.452	211.093	-1.556	46.086	3.194	152.744	129.131	3.541	11.043	133.332	114.869	10.944	17.228	18.424	24.978	165.170	24.347	-8191	255	
3350.075	1	1	0	0	0.22679	0.11784	0.09524	0.10321	0.044359	0.17627	0.12556	0.085775	0.13779	0.23193	0.049605	0.15513	0.076572	0.13824	0.15848	0.26841	-3.8104	-4.3688	-4.8187	-4.1521	-4.7896	-4.5813	-4.1458	-4.8979	-4.3313	-4.4667	-4.9812	-4.075	-4.8083	-4.5708	-3.9771	-5.0229	22.830	155.613	122.390	296.621	78.349	84.915	309.779	279.793	108.844	327.649	64.860	59.690	95.488	32.968	30.184	344.775	0.00012634	0.00025294	6.6613e-06	1034	4.3834e-06	1.1851e-06	1130.1	216.95	2.3292e-06	1.6628e-06	271.86	77.864	60.109	17.895	4.5104e-06	25.08	0.00011006	0.00010855	2.9607e-05	966.79	1.2051e-06	1.1959e-06	1065.9	204.38	1.2011e-06	1.2062e-06	252.85	73.33	56.657	17.054	1.2168e-06	23.545	190.595	102.836	101.208	3.181	132.898	71.521	3.264	11.148	246.493	119.733	10.492	17.901	17.487	24.895	110.293	24.517	-8191	255	
3350.171	1	1	0	0	0.16671	0.17091	0.085271	0.21698	0.068586	0.13579	0.20144	0.04942	0.24839	0.23369	0.16939	0.082087	0.19062	0.10195	0.098082	0.19515	-4.1417	-4.3938	-4.8292	-4.1188	-4.6833	-4.7063	-4.225	-4.9688	-4.3812	-4.4646	-5.0521	-4.2312	-4.5146	-4.9229	-4.1	-4.9354	47.240	313.109	143.774	295.440	183.280	101.542	295.844	13.812	348.452	167.409	198.335	230.859	315.975	141.711	144.313	17.241	9.4147e-05	0.00015154	2.037e-05	1041.8	3.9447e-06	2.1139e-06	1126.3	214.77	8.6236e-08	1.4982e-06	273.32	77.541	60.628	17.948	4.7667e-06	25.086	0.00011219	0.00011176	3.0861e-05	970.16	1.2196e-06	1.1985e-06	1067	204.37	1.2262e-06	1.1962e-06	253.86	73.183	56.894	17.101	1.2238e-06	23.56	194.095	116.002	250.231	3.296	185.046	84.701	3.593	11.304	1.129	47.996	10.821	17.913	18.266	25.127	128.453	24.350	-8191	255	
3350.268	1	1	0	0	0.14998	0.21584	0.043827	0.40328	0.26311	0.12865	0.13084	0.14274	0.29826	0.24638	0.093131	0.13011	0.11607	0.12029	0.16175	0.10241	-4.1917	-4.1167	-5.0062	-4.2875	-4.6	-4.8688	-4.0625	-5.0229	-4.4771	-4.3667	-5.1062	-4.2812	-4.3646	-4.8104	-4.0833	-4.8625	194.073	145.311	115.136	335.243	129.054	161.604	250.469	280.267	173.271	185.285	302.931	287.899	121.318	99.195	68.175	310.648	0.00011564	0.00012279	2.6393e-05	1046.5	4.0509e-06	6.575e-07	1127.6	215.12	8.6967e-06	1.9814e-06	273.8	77.735	61.005	17.965	1.6117e-06	24.881	0.00011428	0.00011134	3.1031e-05	971.37	1.2177e-06	1.2129e-06	1067.3	204.03	1.2329e-06	1.229e-06	254.21	73.374	56.897	17.115	1.2664e-06	23.591	178.818	-1.054	31.231	3.054	97.434	50.544	3.496	10.852	182.889	135.929	10.466	17.795	18.028	24.622	161.906	24.177	-8191	255	
3350.364	1	1	0	0	0.087066	0.16586	0.14486	0.25346	0.075278	0.055393	0.18319	0.062044	0.0098407	0.01055	0.11627	0.069098	0.10937	0.15125	0.17671	0.26417	-4.2708	-4.1896	-5.0104	-4.1729	-4.3083	-5.0437	-4.2604	-4.9354	-4.7375	-4.1771	-4.9229	-4.4917	-4.3208	-5.0542	-4.0625	-4.65	259.706	123.369	252.631	11.144	144.652	168.602	315.471	16.246	211.601	243.600	213.234	184.884	193.362	136.130	66.879	254.087	0.00021671	0.00035352	0.0001345	1047.9	2.1485e-06	4.6858e-06	1130.2	216.67	1.9421e-06	1.8902e-06	272.82	77.583	60.391	17.798	1.6596e-06	25.01	0.00011754	0.00011662	3.2063e-05	975.15	1.2726e-06	1.2408e-06	1071.1	204.78	1.238e-06	1.2442e-06	254.75	73.338	56.748	17.1	1.1988e-06	23.506	185.355	124.206	64.726	3.287	6.999	151.554	3.551	11.104	47.973	70.056	10.698	18.290	17.530	25.334	180.935	24.040	-8191	255	
3350.460	1	1	0	0	0.10527	0.14292	0.037752	0.25651	0.14603	0.21156	0.1434	0.057318	0.11804	0.087305	0.091248	0.095936	0.21364	0.10425	0.13485	0.081105	-4.4958	-4.1542	-4.9083	-4.5875	-4.2125	-5.0312	-4.1292	-4.6604	-4.5458	-4.0583	-4.9688	-4.4083	-4.1875	-5.1208	-4.1312	-4.5854	121.283	308.733	51.495	-6.347	153.366	37.153	261.733	109.572	117.729	274.182	57.754	163.725	310.149	-4.037	32.564	235.747	0.00016953	0.00032359	1.0997e-05	1045.9	1.0323e-06	7.5679e-06	1132.6	215.46	4.2328e-06	2.925e-06	273.5	77.811	60.538	17.828	1.8634e-06	24.872	0.00011045	0.00010989	2.9907e-05	969.96	1.1968e-06	1.1772e-06	1068.2	204.3	1.1786e-06	1.1757e-06	254.08	73.233	56.757	17.072	1.1908e-06	23.474	190.475	67.338	70.428	3.408	44.300	68.306	3.514	11.118	164.396	163.812	10.748	17.815	18.554	24.825	85.129	24.145	-8191	255	
3350.556	1	1	0	0	0.12354	0.22112	0.030717	0.11343	0.15447	0.17283	0.10923	0.17671	0.053258	0.16005	0.14536	0.2096	0.16978	0.21778	0.024376	0.14978	-4.4062	-3.7938	-4.8333	-4.6167	-4.175	-5.15	-4.3333	-4.5646	-4.7667	-4.1792	-4.875	-4.7167	-4.0375	-5.0542	-4.2875	-4.4458	176.625	148.982	162.215	73.003	307.226	68.790	333.682	5.672	53.898	220.768	156.320	334.160	319.157	45.698	249.789	245.420	0.00013025	0.00020189	1.4383e-05	1047.9	2.1564e-06	5.0824e-06	1130.5	217.31	3.2054e-06	2.0426e-06	272.9	77.987	60.733	17.873	1.5286e-06	24.849	0.00011165	0.00011154	3.104e-05	974.45	1.2531e-06	1.2465e-06	1072.7	205.16	1.2475e-06	1.2348e-06	254.39	73.453	56.958	17.138	1.2476e-06	23.545	203.456	156.941	220.076	3.553	182.916	63.732	3.546	11.305	179.777	64.721	10.597	17.798	18.149	25.120	56.112	24.242	-8191	255	
3350.675	1	1	0	0	0.031584	0.11549	0.12027	0.058573	0.20185	0.054828	0.27988	0.12897	0.10528	0.20728	0.23192	0.17921	0.29974	0.19007	0.063843	0.22413	-4.4271	-3.9375	-4.525	-4.8313	-4.125	-4.9563	-4.4125	-4.325	-4.8729	-4	-4.7438	-4.9146	-4.0833	-4.8604	-4.3146	-4.1979	226.653	0.298	22.555	254.247	60.105	258.079	272.503	40.630	98.600	290.650	201.180	290.071	335.163	178.609	305.663	290.282	0.00020163	0.00052782	7.677e-05	1045	2.4184e-06	4.1508e-06	1138.1	215.75	3.7605e-06	2.2002e-06	272.55	77.55	60.22	17.819	2.3812e-06	25.077	0.0001148	0.00011429	3.1795e-05	974.46	1.2571e-06	1.2738e-06	1072.2	204.97	1.2755e-06	1.2823e-06	254.22	73.507	56.886	17.197	1.2754e-06	23.714	188.331	94.089	349.308	3.150	324.572	61.574	3.622	11.224	186.427	185.874	10.467	18.153	18.715	24.704	176.424	24.016	-8191	255	
3350.771	1	1	0	0	0.028906	0.10452	0.15118	0.23878	0.2101	0.16057	0.12015	0.085092	0.11992	0.34208	0.384	0.21876	0.1863	0.15832	0.083245	0.13926	-4.8313	-4.1438	-4.5771	-4.8729	-4.0917	-4.9083	-4.6771	-4.1896	-4.9417	-4.0083	-4.6292	-4.8	-3.9354	-4.7833	-4.7146	-4.1083	108.062	142.972	228.695	19.810	242.799	110.171	5.167	306.417	92.410	156.061	326.696	282.992	14.865	292.287	178.374	345.024	0.00012989	0.00013696	8.8003e-05	1045.7	3.1565e-06	8.5195e-07	1137.8	216.23	3.0773e-06	3.0718e-06	274.53	78.626	60.359	17.905	1.2876e-06	25.002	0.00012166	0.00011869	3.3518e-05	976.03	1.3204e-06	1.3114e-06	1076.2	205.07	1.3131e-06	1.273e-06	256.2	73.993	57.139	17.179	1.2612e-06	23.617	231.081	98.868	193.193	3.157	132.677	123.328	3.737	10.979	179.059	96.628	10.723	18.202	18.221	24.673	225.746	24.138	-8191	255	
3350.867	1	1	0	0	0.085784	0.035448	0.13638	0.22926	0.1298	0.10995	0.26708	0.093593	0.2007	0.14026	0.047075	0.11297	0.093534	0.11337	0.2369	0.28836	-4.5958	-4.1542	-4.3167	-5.0833	-4.0458	-4.9437	-4.7104	-4.1396	-4.9417	-4.2542	-4.5708	-4.9563	-4.1479	-4.5917	-4.6771	-4.1896	223.926	272.209	8.188	337.373	38.725	33.815	335.278	266.248	192.703	18.773	85.574	22.336	311.473	213.130	294.311	258.770	9.2226e-05	0.00032631	3.8911e-05	1047	1.0448e-06	3.1545e-06	1139.8	218.4	3.0513e-06	4.6299e-06	273.55	77.695	60.982	18.045	5.7757e-06	24.917	0.00011443	0.00011421	3.1273e-05	977.45	1.25e-06	1.2314e-06	1075.6	205.73	1.2625e-06	1.2459e-06	255.58	73.707	57.199	17.253	1.2651e-06	23.629	192.199	165.207	46.545	3.097	28.726	-5.386	3.842	11.154	205.487	112.744	10.347	18.267	18.036	24.358	45.597	24.210	-8191	255	
3350.963	1	1	0	0	0.18178	0.27917	0.24445	0.092643	0.076993	0.084716	0.18179	0.019262	0.19645	0.19106	0.22137	0.16632	0.30634	0.20704	0.16759	0.19851	-4.6438	-4.2958	-4.2229	-5.0521	-4.0875	-4.7875	-4.7625	-4.0833	-4.9437	-4.3875	-4.2375	-5.0042	-4.0875	-4.6917	-4.8042	-4.0875	343.923	200.534	161.493	254.494	10.355	-3.847	311.772	98.690	210.353	109.571	207.843	55.739	311.523	111.276	4.971	285.235	9.4327e-05	0.0001515	0.00011702	1050.7	3.3525e-06	1.1687e-06	1133.7	217.91	1.4882e-06	3.238e-06	274.34	78.035	60.406	17.873	4.5751e-06	24.807	0.00011659	0.00011548	3.2104e-05	977.91	1.2626e-06	1.2232e-06	1074.3	205.65	1.2491e-06	1.2559e-06	255.41	73.711	57.009	17.178	1.2401e-06	23.613	223.887	42.524	36.526	3.090	149.405	112.614	3.794	11.010	132.053	133.836	10.325	18.465	17.788	24.479	136.976	24.400	-8191	255	
3351.059	1	1	0	0	0.10345	0.021866	0.22451	0.22183	0.10718	0.21947	0.063011	0.12259	0.14128	0.10809	0.13772	0.03862	0.28679	0.049523	0.17556	0.2339	-4.6729	-4.4812	-4.0021	-5.0708	-4.2021	-4.3625	-5.0396	-4.2146	-4.8167	-4.4479	-4.0667	-4.9792	-4.2646	-4.3354	-4.8792	-4.0188	64.127	11.497	95.258	291.723	121.922	160.252	346.968	27.290	0.170	175.995	64.375	144.738	33.954	92.941	37.631	48.066	9.9162e-05	0.0002156	6.0027e-05	1045.3	3.3059e-06	2.3837e-06	1138.5	216.02	2.9909e-06	3.5692e-06	275.75	77.531	60.799	17.928	2.0559e-06	24.882	0.00011652	0.00011288	3.1936e-05	976.69	1.2478e-06	1.2366e-06	1074.5	205.39	1.2539e-06	1.2534e-06	255.81	73.465	57.164	17.21	1.2207e-06	23.653	190.949	41.201	23.524	3.391	289.815	89.136	3.680	10.997	111.715	124.009	10.502	17.936	18.216	24.720	247.353	24.314	-8191	255	
3351.156	1	1	0	0	0.26178	0.11955	0.13827	0.16454	0.2163	0.081043	0.26625	0.1196	0.13328	0.16774	0.18682	0.14211	0.12922	0.27814	0.077458	0.07442	-4.425	-4.5354	-3.9771	-4.9313	-4.2438	-4.3521	-5	-3.9542	-4.5833	-4.6625	-4.1833	-4.9313	-4.2688	-4.2667	-4.8167	-3.9896	19.477	157.575	227.041	263.036	271.629	97.165	343.112	58.637	211.171	352.190	55.883	13.482	145.176	17.501	17.322	116.275	0.00010169	0.00037431	0.00014577	1050.3	1.4232e-06	4.3143e-06	1140.7	217.41	1.3443e-06	2.532e-06	274.18	78.376	60.296	17.885	2.164e-06	25.064	0.00011276	0.00010989	3.0816e-05	975.51	1.2192e-06	1.1985e-06	1072.8	205.07	1.1934e-06	1.1837e-06	255.27	73.583	56.893	17.141	1.1984e-06	23.601	188.043	88.080	129.925	3.155	208.982	117.357	3.539	10.941	215.078	77.008	10.448	18.255	18.460	24.544	80.778	24.247	-8191	255	
3351.252	1	1	0	0	0.31155	0.044732	0.089287	0.08314	0.060815	0.14006	0.20016	0.20645	0.28526	0.17145	0.49053	0.39755	0.045517	0.046228	0.099409	0.17514	-4.2833	-4.8187	-4.1292	-4.9458	-4.4042	-4.2375	-5.0125	-4.1229	-4.5042	-4.85	-4.1333	-4.8833	-4.3792	-4.0771	-4.8562	-4.425	244.376	228.607	180.508	260.002	27.385	261.226	287.201	152.619	132.534	145.921	349.489	187.418	31.640	97.890	67.586	262.702	0.00016919	0.00016903	9.0192e-05	1045.2	3.521e-06	1.4891e-06	1136.7	217.47	4.1946e-06	7.6715e-07	275.12	77.467	60.911	17.975	9.0644e-07	24.738	0.00011374	0.0001115	3.0997e-05	976.44	1.2362e-06	1.2171e-06	1072.1	205.52	1.2459e-06	1.2335e-06	255.54	73.569	57.23	17.214	1.2553e-06	23.535	202.126	51.473	119.472	3.252	123.278	111.419	3.574	11.078	111.143	22.882	10.485	17.766	18.143	24.834	100.720	24.621	-8191	255	
#DATA ENDS
