BOXY.EXE: ISS Imagent and Oximeter Data Acquisition Program Version 0.80
Ascii Record File

#ACQ INFORMATION
2  Detector Channels 
16  External MUX Channels 
1  Auxiliary Channels 
5000  Waveform (CCF) Frequency (Hz)
1  Waveforms Skipped 
30  Waveforms Averaged 
1  Cycles Averaged 
16  Acquisitions per Waveform 
10.0806  Updata Rate (Hz) 

#FILE INFORMATION
TRUE -- External MUX Channel results are PARSED.
FALSE -- AC DC and Phase are NOT grouped.
TRUE -- Companion Program Settings File CREATED.
FALSE -- AC data not excluded
FALSE -- DC data not excluded
FALSE -- Phase data not excluded
FALSE -- Auxillary Chn. data not excluded
Tab delimiters

#CALIBRATION STATE
TRUE -- Waveform Calibration Values APPLIED.


#AUX CALIBRATION VALUES
Val Type	aux-1	

Term	1.0000e+00	
Factor	0.0000e+00	


#WF CALIBRATION VALUES
A = Detector Channel
Val Type	A-AC1	A-AC2	A-AC3	A-AC4	A-AC5	A-AC6	A-AC7	A-AC8	A-AC9	A-AC10	A-AC11	A-AC12	A-AC13	A-AC14	A-AC15	A-AC16	A-DC1	A-DC2	A-DC3	A-DC4	A-DC5	A-DC6	A-DC7	A-DC8	A-DC9	A-DC10	A-DC11	A-DC12	A-DC13	A-DC14	A-DC15	A-DC16	A-Ph1	A-Ph2	A-Ph3	A-Ph4	A-Ph5	A-Ph6	A-Ph7	A-Ph8	A-Ph9	A-Ph10	A-Ph11	A-Ph12	A-Ph13	A-Ph14	A-Ph15	A-Ph16	

Term	0.00000e+00	0.00000e+00	0.00000e+00	0.00000e+00	0.00000e+00	0.00000e+00	0.00000e+00	0.00000e+00	0.00000e+00	0.00000e+00	0.00000e+00	0.00000e+00	0.00000e+00	0.00000e+00	0.00000e+00	0.00000e+00	0.00000e+00	0.00000e+00	0.00000e+00	0.00000e+00	0.00000e+00	0.00000e+00	0.00000e+00	0.00000e+00	0.00000e+00	0.00000e+00	0.00000e+00	0.00000e+00	0.00000e+00	0.00000e+00	0.00000e+00	0.00000e+00	0.00000e+00	0.00000e+00	0.00000e+00	0.00000e+00	0.00000e+00	0.00000e+00	0.00000e+00	0.00000e+00	0.00000e+00	0.00000e+00	0.00000e+00	0.00000e+00	0.00000e+00	0.00000e+00	0.00000e+00	0.00000e+00	
Factor	1.00000e+00	1.00000e+00	1.00000e+00	1.00000e+00	1.00000e+00	1.00000e+00	1.00000e+00	1.00000e+00	1.00000e+00	1.00000e+00	1.00000e+00	1.00000e+00	1.00000e+00	1.00000e+00	1.00000e+00	1.00000e+00	1.00000e+00	1.00000e+00	1.00000e+00	1.00000e+00	1.00000e+00	1.00000e+00	1.00000e+00	1.00000e+00	1.00000e+00	1.00000e+00	1.00000e+00	1.00000e+00	1.00000e+00	1.00000e+00	1.00000e+00	1.00000e+00	X	X	X	X	X	X	X	X	X	X	X	X	X	X	X	X	

B = Detector Channel
Val Type	B-AC1	B-AC2	B-AC3	B-AC4	B-AC5	B-AC6	B-AC7	B-AC8	B-AC9	B-AC10	B-AC11	B-AC12	B-AC13	B-AC14	B-AC15	B-AC16	B-DC1	B-DC2	B-DC3	B-DC4	B-DC5	B-DC6	B-DC7	B-DC8	B-DC9	B-DC10	B-DC11	B-DC12	B-DC13	B-DC14	B-DC15	B-DC16	B-Ph1	B-Ph2	B-Ph3	B-Ph4	B-Ph5	B-Ph6	B-Ph7	B-Ph8	B-Ph9	B-Ph10	B-Ph11	B-Ph12	B-Ph13	B-Ph14	B-Ph15	B-Ph16	

Term	0.00000e+00	0.00000e+00	0.00000e+00	0.00000e+00	0.00000e+00	0.00000e+00	0.00000e+00	0.00000e+00	0.00000e+00	0.00000e+00	0.00000e+00	0.00000e+00	0.00000e+00	0.00000e+00	0.00000e+00	0.00000e+00	0.00000e+00	0.00000e+00	0.00000e+00	0.00000e+00	0.00000e+00	0.00000e+00	0.00000e+00	0.00000e+00	0.00000e+00	0.00000e+00	0.00000e+00	0.00000e+00	0.00000e+00	0.00000e+00	0.00000e+00	0.00000e+00	-6.52519e+01	-1.12272e+02	-1.40546e+02	-1.81760e+02	-6.76519e+01	-1.21665e+02	-1.56710e+02	-1.62015e+02	-7.69798e+01	-7.43317e+01	-1.71259e+02	-1.70793e+02	-1.83439e+02	-1.78028e+02	-8.90177e+01	-1.50152e+02	
Factor	1.93908e-05	8.47056e-05	2.70298e-05	2.28357e-01	9.52142e-07	1.06308e-06	1.77083e-01	6.50480e-02	1.16910e-06	1.01617e-06	9.54342e-02	3.47082e-02	3.35300e-02	1.00324e-02	1.07200e-06	1.43386e-02	6.12713e-07	6.25095e-07	1.73856e-07	1.09696e-01	6.82513e-09	6.83262e-09	8.13591e-02	3.12826e-02	6.82206e-09	6.81802e-09	4.37548e-02	1.58284e-02	1.56341e-02	4.75119e-03	6.80086e-09	6.48096e-03	X	X	X	X	X	X	X	X	X	X	X	X	X	X	X	X	



#DISTANCE SETTINGS
A = Detector Channel
A-1	A-2	A-3	A-4	A-5	A-6	A-7	A-8	A-9	A-10	A-11	A-12	A-13	A-14	A-15	A-16	

2.5000e+00	3.0000e+00	2.5000e+00	3.0000e+00	2.0000e+00	3.0000e+00	1.5000e+00	3.0000e+00	3.0000e+00	3.0000e+00	3.0000e+00	3.0000e+00	3.0000e+00	3.0000e+00	1.5000e+00	3.0000e+00	

B = Detector Channel
B-1	B-2	B-3	B-4	B-5	B-6	B-7	B-8	B-9	B-10	B-11	B-12	B-13	B-14	B-15	B-16	

1.0000e+01	1.0000e+01	1.0000e+01	1.4400e+00	1.0000e+01	1.0000e+01	1.5100e+00	1.9400e+00	1.0000e+01	1.0000e+01	1.9900e+00	2.4900e+00	2.4100e+00	2.9000e+00	1.0000e+01	2.9800e+00	




#DATA BEGINS
time	group	step	mark	flag	A-AC1	A-AC2	A-AC3	A-AC4	A-AC5	A-AC6	A-AC7	A-AC8	A-AC9	A-AC10	A-AC11	A-AC12	A-AC13	A-AC14	A-AC15	A-AC16	A-DC1	A-DC2	A-DC3	A-DC4	A-DC5	A-DC6	A-DC7	A-DC8	A-DC9	A-DC10	A-DC11	A-DC12	A-DC13	A-DC14	A-DC15	A-DC16	A-Ph1	A-Ph2	A-Ph3	A-Ph4	A-Ph5	A-Ph6	A-Ph7	A-Ph8	A-Ph9	A-Ph10	A-Ph11	A-Ph12	A-Ph13	A-Ph14	A-Ph15	A-Ph16	B-AC1	B-AC2	B-AC3	B-AC4	B-AC5	B-AC6	B-AC7	B-AC8	B-AC9	B-AC10	B-AC11	B-AC12	B-AC13	B-AC14	B-AC15	B-AC16	B-DC1	B-DC2	B-DC3	B-DC4	B-DC5	B-DC6	B-DC7	B-DC8	B-DC9	B-DC10	B-DC11	B-DC12	B-DC13	B-DC14	B-DC15	B-DC16	B-Ph1	B-Ph2	B-Ph3	B-Ph4	B-Ph5	B-Ph6	B-Ph7	B-Ph8	B-Ph9	B-Ph10	B-Ph11	B-Ph12	B-Ph13	B-Ph14	B-Ph15	B-Ph16	aux-1	digaux	

3318.910	1	1	0	768	0.20517	0.18261	0.17535	0.11715	0.094377	0.28345	0.12206	0.3068	0.3103	0.050473	0.056316	0.16476	0.12392	0.36559	0.1733	0.23533	-3.8229	-4.7771	-4.7188	-4.2271	-5.0896	-4.45	-4.35	-4.9708	-4.1208	-4.625	-4.9604	-4.2458	-5.1188	-4.6937	-4.3021	-5.0979	246.640	23.350	251.914	246.216	262.136	164.084	327.030	251.614	0.744	146.320	93.480	264.938	110.826	308.106	29.288	260.698	0.00022607	2.8089e-05	0.00014377	1396	4.3705e-06	2.5874e-06	1391.4	381.49	2.1189e-06	3.7647e-06	433.97	144.81	125.93	43.392	6.4563e-06	53.583	0.00016461	0.00015885	4.4093e-05	1333.5	1.7337e-06	1.7202e-06	1351	366.08	1.728e-06	1.685e-06	409.98	137.31	118.21	41.205	1.6891e-06	50.571	177.621	285.051	43.909	0.840	162.399	102.042	1.013	5.833	147.442	99.104	4.884	10.043	10.291	14.202	113.826	13.706	-8191	255	
3319.006	1	1	0	0	0.25694	0.055398	0.21417	0.24739	0.073471	0.27983	0.39075	0.14824	0.25259	0.10519	0.12747	0.061933	0.12425	0.041681	0.048589	0.1052	-3.7375	-4.6479	-4.8229	-4.2458	-4.9854	-4.5104	-4.4333	-5.2104	-4.2083	-4.6458	-5.0312	-4.1792	-5.0813	-4.7458	-4.2292	-5.2854	48.276	123.798	166.303	318.277	60.890	44.275	314.982	38.744	280.702	209.155	-12.247	300.752	320.928	157.279	322.810	43.915	0.00029238	0.0002974	0.00010963	1392.9	2.2656e-06	2.5768e-06	1393.2	380.63	4.8822e-06	5.4302e-06	433.91	144.43	125.98	43.268	4.142e-06	53.917	0.00015934	0.00015442	4.3157e-05	1333.8	1.7033e-06	1.6859e-06	1350	365.44	1.6894e-06	1.6564e-06	410.53	137.12	118.01	41.115	1.6512e-06	50.462	205.253	118.301	69.882	0.929	101.204	14.814	0.826	5.699	111.275	121.907	5.086	10.054	10.287	14.335	130.243	13.649	-8191	255	
3319.103	1	1	0	0	0.042504	0.22478	0.14552	0.13358	0.02378	0.1166	0.4301	0.19731	0.095424	0.085412	0.18283	0.092717	0.2325	0.055184	0.20377	0.17405	-4.0917	-4.5292	-4.9333	-4.3854	-4.9104	-4.4125	-4.3167	-5.1771	-4.3354	-4.4521	-5.075	-4.0833	-4.8708	-4.9146	-4.2208	-5.0604	136.802	146.004	107.987	325.663	251.218	273.775	282.273	233.823	100.518	43.356	287.707	338.877	320.898	33.664	67.958	179.756	0.00024476	0.0003117	8.5203e-05	1390.2	3.7506e-07	1.9037e-06	1394.3	380.47	2.4084e-06	2.0312e-06	433.05	144.48	125.52	43.431	3.2592e-06	53.89	0.00015489	0.00015108	4.2322e-05	1330	1.6465e-06	1.6399e-06	1348.7	365.34	1.6372e-06	1.6298e-06	409.32	136.88	117.67	41.112	1.6182e-06	50.516	196.668	105.432	124.331	0.880	122.764	61.052	0.955	5.554	140.147	175.955	5.265	9.996	10.178	14.523	137.556	13.628	-8191	255	
3319.199	1	1	0	0	0.15637	0.18916	0.075301	0.052843	0.11357	0.31363	0.34094	0.13086	0.082343	0.18846	0.11509	0.18797	0.15133	0.13792	0.15947	0.090438	-4.1771	-4.3958	-5.0479	-4.1396	-4.7333	-5.0375	-4.3646	-5.0792	-4.4729	-4.3375	-5.1312	-4.2208	-4.8354	-4.9667	-4.1083	-4.8604	102.347	158.027	318.011	148.334	233.467	163.319	313.766	326.865	305.020	268.635	288.672	301.108	231.343	334.145	142.723	256.448	0.00025008	0.00045615	2.231e-05	1391.5	3.1678e-06	2.5759e-06	1394.5	380.42	6.0865e-07	4.47e-06	434.53	144.22	126.07	43.248	2.9679e-06	53.991	0.0001509	0.00014867	4.1504e-05	1332	1.6303e-06	1.6191e-06	1348.1	365.17	1.6293e-06	1.6226e-06	410.08	136.99	117.84	41.088	1.616e-06	50.516	197.000	74.687	343.787	0.821	124.208	100.775	0.891	5.671	75.343	95.807	4.783	9.948	10.486	14.106	231.710	13.737	-8191	255	
3319.295	1	1	0	0	0.1173	0.029446	0.099222	0.12334	0.24575	0.075935	0.29086	0.13708	0.13833	0.13038	0.21733	0.21744	0.37577	0.32092	0.13384	0.23093	-4.3042	-4.1625	-4.9896	-4.2979	-4.5833	-5.0458	-4.4167	-4.8958	-4.425	-4.2292	-5.1458	-4.4729	-4.5875	-4.9563	-4.1562	-4.9042	14.555	321.449	277.564	250.074	88.225	150.234	270.224	257.025	86.621	187.340	271.742	280.468	328.508	340.770	285.573	302.716	0.00023281	0.00034614	0.00017225	1387.1	6.2754e-06	4.8803e-06	1388.9	380.86	6.2027e-06	3.6224e-06	434.14	144.39	125.7	43.262	4.275e-06	53.829	0.0001519	0.00014697	4.0585e-05	1326.5	1.6007e-06	1.5789e-06	1345.7	364.99	1.5781e-06	1.5511e-06	409.51	136.89	117.59	41.035	1.5392e-06	50.403	211.905	97.249	71.181	1.047	107.251	94.411	1.245	5.686	73.967	149.453	5.132	10.165	10.378	14.383	151.467	13.569	-8191	255	
3319.391	1	1	0	0	0.077424	0.21044	0.057365	0.23249	0.18284	0.14448	0.16314	0.074775	0.24905	0.37322	0.16758	0.15852	0.080249	0.071157	0.10579	0.10647	-4.4646	-4.2125	-5.1625	-4.525	-4.5792	-5.0646	-4.3771	-4.8729	-4.7229	-4.1833	-5.1771	-4.6396	-4.3458	-5.0604	-4.2021	-4.7104	335.041	292.342	294.959	-5.055	78.775	178.455	243.235	229.950	88.792	72.110	315.649	12.214	58.640	276.949	182.482	299.699	0.00026736	0.00031507	8.5102e-05	1385.8	2.6373e-06	5.7601e-06	1389.4	382.34	3.6575e-06	5.9934e-06	433.16	144.43	124.73	43.404	1.5836e-06	53.817	0.00014309	0.00014013	3.8579e-05	1326.7	1.5123e-06	1.5111e-06	1344.3	365.18	1.4932e-06	1.4797e-06	408.75	136.53	117.15	40.925	1.4674e-06	50.347	197.670	138.259	68.798	0.816	152.197	78.327	0.837	5.537	122.028	163.067	4.827	9.816	10.257	14.253	26.761	13.643	-8191	255	
3319.512	1	1	0	0	0.023959	0.098355	0.038916	0.15023	0.17167	0.082566	0.34272	0.12581	0.063565	0.11742	0.23047	0.14908	0.059948	0.16862	0.12189	0.12702	-4.4062	-4.2083	-4.9271	-4.6	-4.2875	-5.1958	-4.35	-4.7083	-4.8854	-4.0437	-5.0771	-4.7542	-4.3979	-5.1792	-4.2875	-4.6417	168.489	66.893	83.068	264.976	280.840	182.968	316.957	332.911	25.564	46.799	-6.955	292.672	158.995	-11.130	306.925	215.149	0.0001995	4.3343e-05	7.468e-05	1388.6	1.7482e-06	1.5805e-06	1386.3	380.06	5.3031e-06	1.5409e-06	432.89	144.7	125.18	43.18	3.0013e-06	53.746	0.0001361	0.00013212	3.6486e-05	1324.5	1.4325e-06	1.4129e-06	1340.6	363.39	1.4232e-06	1.3979e-06	407.49	136.39	116.94	40.829	1.409e-06	50.1	202.166	65.797	66.767	0.782	175.113	167.960	1.254	5.597	143.005	150.057	4.919	9.863	10.286	14.463	165.371	13.813	-8191	255	
3319.608	1	1	0	0	0.1361	0.08405	0.064035	0.30205	0.10391	0.12206	0.254	0.095411	0.064663	0.073051	0.14117	0.06073	0.02597	0.13318	0.10112	0.08565	-4.4917	-3.9771	-4.9354	-4.6958	-4.2229	-5.1792	-4.3917	-4.6	-5.0479	-3.9896	-4.7167	-4.7396	-4.2875	-5.0167	-4.4417	-4.6312	202.377	13.010	150.968	-10.860	144.460	302.302	318.041	170.568	196.645	60.318	296.399	42.693	66.475	270.846	44.038	6.904	0.00019657	0.00035188	8.3077e-05	1383.8	3.4045e-06	8.6605e-07	1390.6	379.79	2.4373e-06	2.4389e-06	432.81	144.47	124.73	43.051	5.6121e-06	53.71	0.00013128	0.00012677	3.4796e-05	1319.8	1.3813e-06	1.3723e-06	1339.3	362.9	1.3728e-06	1.368e-06	406.71	136.2	116.74	40.774	1.367e-06	50.081	210.098	65.968	61.571	1.090	172.216	155.265	1.071	5.548	88.112	110.100	5.035	10.123	10.340	14.464	78.034	13.548	-8191	255	
3319.704	1	1	0	0	0.047202	0.10346	0.16785	0.23038	0.15956	0.09021	0.03133	0.20956	0.12882	0.11921	0.069713	0.15838	0.13846	0.17706	0.16375	0.10815	-4.8083	-4.0938	-4.7354	-4.7812	-3.9979	-4.85	-4.5583	-4.5042	-4.9542	-4.2042	-4.8688	-4.9646	-4.1271	-5.0896	-4.5188	-4.3104	62.215	90.313	135.090	275.479	312.135	174.778	139.176	-6.493	49.563	46.147	321.966	253.410	236.574	217.009	129.626	290.229	0.00024288	3.1224e-05	0.00021572	1384.4	1.854e-06	3.7047e-06	1389.1	379.1	3.7989e-06	4.9233e-06	434	143.75	124.62	43.152	4.817e-06	53.884	0.00013195	0.00012819	3.4982e-05	1321.6	1.4034e-06	1.3896e-06	1340.4	362.48	1.4243e-06	1.4038e-06	407.53	136.05	116.88	40.864	1.4012e-06	50.126	201.214	341.187	69.232	0.732	63.982	145.975	1.090	5.831	98.912	109.337	4.884	10.117	10.390	14.324	92.145	13.634	-8191	255	
3319.800	1	1	0	0	0.1895	0.17755	0.12181	0.21381	0.07235	0.11681	0.13039	0.23619	0.20295	0.074139	0.089487	0.13729	0.092429	0.22046	0.20023	0.21922	-4.8479	-4.1583	-4.6937	-4.9229	-4.0708	-4.975	-4.7667	-4.5	-5.0646	-4.1979	-4.6917	-5.0042	-4.1854	-4.9104	-4.8167	-4.3854	129.059	346.125	136.453	330.096	224.165	167.345	22.808	282.225	70.430	137.962	96.076	346.602	41.282	338.565	217.180	295.933	0.00021327	0.00027459	0.00012523	1382.5	2.9613e-06	3.1488e-06	1385.3	378.86	4.4036e-06	3.0432e-06	431.57	143.8	125.31	43.039	3.1481e-06	53.811	0.00013279	0.0001276	3.5598e-05	1319.9	1.4134e-06	1.4009e-06	1339.5	362.78	1.3997e-06	1.3972e-06	406.99	136.03	116.93	40.787	1.3921e-06	50.155	199.073	109.607	12.306	1.138	164.542	114.368	1.245	5.813	183.171	145.572	4.975	10.028	10.334	14.392	152.914	13.416	-8191	255	
3319.896	1	1	0	0	0.12975	0.031144	0.055281	0.25223	0.15163	0.024772	0.12257	0.22841	0.24218	0.11744	0.36493	0.37543	0.25661	0.082298	0.081512	0.372	-4.7562	-4.4583	-4.3	-4.9708	-3.9542	-4.7292	-4.8	-4.5917	-4.9542	-4.2875	-4.4417	-4.9646	-4.2667	-4.8771	-4.7771	-4.1104	109.797	69.772	77.065	342.168	269.309	342.947	279.968	-3.274	342.973	82.492	260.487	310.030	26.446	234.562	160.917	337.737	0.00023508	0.00025977	7.7698e-05	1385.7	3.216e-06	5.335e-06	1382.6	378.09	2.5367e-06	4.6905e-06	429.97	144.21	125.3	43.171	1.4537e-06	53.621	0.00013124	0.00012679	3.553e-05	1319.7	1.421e-06	1.392e-06	1336.9	362.59	1.4087e-06	1.4279e-06	406.17	136.08	116.86	40.756	1.4011e-06	50.011	214.491	97.655	52.696	0.860	115.631	102.588	1.242	5.696	148.325	194.016	5.111	10.023	10.103	14.460	131.037	13.762	-8191	255	
3319.991	1	1	0	0	0.06137	0.27079	0.30324	0.1183	0.15988	0.20329	0.18686	0.22828	0.064604	0.12426	0.12053	0.23995	0.073512	0.1726	0.24837	0.23667	-4.7375	-4.3562	-4.3667	-5.0521	-4.1937	-4.7688	-4.9917	-4.2688	-4.9458	-4.6729	-4.3458	-5.1146	-4.2354	-4.6667	-4.8042	-4.1917	250.058	309.554	220.909	184.742	263.777	268.681	-10.235	333.771	124.018	-9.856	312.236	332.966	332.925	292.196	133.852	217.561	0.0002405	0.00030025	7.8341e-05	1380.6	2.7793e-06	3.1497e-06	1376.6	377.99	6.2104e-07	4.902e-06	432.37	143.74	124.94	42.918	4.245e-06	53.722	0.00013127	0.00012791	3.582e-05	1317.8	1.4197e-06	1.4044e-06	1333.9	362.56	1.3961e-06	1.3861e-06	406.12	136.06	116.62	40.729	1.3936e-06	50.004	198.185	115.259	36.008	1.137	138.685	107.324	1.079	5.700	120.323	91.548	4.879	9.987	10.212	14.400	126.089	13.491	-8191	255	
3320.111	1	1	0	0	0.19267	0.045512	0.25733	0.12815	0.022838	0.11962	0.31307	0.12132	0.13138	0.089871	0.18835	0.054234	0.16445	0.18151	0.22455	0.33612	-4.5542	-4.5563	-4.2375	-5.2188	-4.3021	-4.6771	-5.0708	-4.1625	-4.8208	-4.5542	-4.2271	-5.2438	-4.5021	-4.4	-5.0875	-4.0979	298.895	139.536	184.745	104.775	84.419	293.776	266.542	333.684	64.030	95.836	12.344	282.158	5.601	3.477	13.493	293.411	0.00021298	0.00029776	0.00012279	1381.2	3.7105e-06	1.9903e-06	1376.9	377.78	1.0839e-06	2.1877e-06	432.57	142.98	124.54	43.175	1.383e-06	53.614	0.00013081	0.00012549	3.5415e-05	1316.6	1.3832e-06	1.36e-06	1333.1	361.46	1.3616e-06	1.3266e-06	405.3	135.47	116.27	40.759	1.3693e-06	49.99	196.225	105.487	70.867	0.906	155.069	328.396	1.073	5.753	74.554	66.430	4.725	10.067	10.480	14.244	110.543	13.833	-8191	255	
3320.207	1	1	0	0	0.059899	0.23552	0.16003	0.11669	0.098917	0.13602	0.1607	0.28748	0.3195	0.10489	0.16865	0.14154	0.039757	0.20789	0.17507	0.037128	-4.5062	-4.7	-4.0833	-5.0479	-4.4812	-4.4938	-5.2083	-4.3458	-4.675	-4.7458	-4.1792	-5.0062	-4.35	-4.6083	-5.0938	-4.0979	282.604	296.522	242.550	268.675	345.239	159.186	282.841	249.661	93.657	73.086	9.016	51.801	78.291	304.456	277.997	239.945	0.00023812	0.00039416	7.9195e-05	1376	3.4088e-06	4.7569e-06	1379.1	377.97	1.2435e-06	2.7924e-06	428.59	143.28	124.56	43.038	5.4671e-07	53.816	0.00013011	0.00012587	3.5247e-05	1313.1	1.3888e-06	1.3951e-06	1330.6	361.17	1.3969e-06	1.3893e-06	404.71	135.58	116.25	40.659	1.3927e-06	49.991	198.524	122.040	88.426	1.003	153.605	101.727	0.983	5.667	113.522	97.507	5.101	10.053	10.447	14.362	173.990	13.915	-8191	255	
3320.304	1	1	0	0	0.077659	0.222	0.073291	0.02944	0.084498	0.13798	0.10043	0.056567	0.10019	0.17835	0.081943	0.28426	0.12602	0.12861	0.097739	0.11897	-4.3708	-4.9062	-4.1333	-5.1396	-4.7	-4.1833	-5.0458	-4.1771	-4.5917	-4.8875	-4.1458	-4.9646	-4.6875	-4.2583	-5.0146	-4.2208	345.509	183.270	230.049	33.240	334.995	240.878	333.110	57.665	180.400	336.170	312.409	10.345	160.925	235.128	20.140	318.409	0.00027507	0.00023964	7.2527e-05	1376.1	8.5965e-07	4.3573e-06	1376.5	377.18	3.158e-06	3.9821e-06	429.59	143.8	124.27	43	2.612e-06	53.334	0.00013248	0.00012721	3.5487e-05	1311.4	1.4016e-06	1.3905e-06	1330.1	361.21	1.3918e-06	1.3902e-06	404.74	135.5	115.96	40.653	1.381e-06	49.898	196.901	115.257	85.219	0.962	112.688	123.187	1.251	5.651	134.475	147.496	5.057	9.936	10.346	14.293	133.508	13.602	-8191	255	
3320.400	1	1	0	0	0.16539	0.21434	0.13133	0.024873	0.094744	0.12898	0.20777	0.21549	0.13857	0.088877	0.20172	0.28342	0.16266	0.19854	0.10995	0.19949	-4.1937	-4.9021	-4.0021	-4.9833	-4.5042	-4.2583	-5.1479	-4.3562	-4.3104	-4.9083	-4.0917	-4.7708	-4.9771	-4.2354	-4.9104	-4.4167	198.629	337.313	258.151	244.018	340.643	171.486	312.603	40.746	134.816	138.532	56.747	297.980	74.685	309.595	220.014	289.460	0.0002293	0.00048211	7.6033e-05	1371.7	2.5931e-06	8.656e-07	1376.2	377.31	2.812e-06	1.982e-06	429.59	143.62	124.26	42.814	3.2914e-06	53.532	0.00013034	0.00012595	3.5236e-05	1310.6	1.3762e-06	1.3722e-06	1330.1	360.25	1.3623e-06	1.3427e-06	403.75	135.24	115.88	40.528	1.3192e-06	49.768	210.100	77.823	110.022	1.017	92.516	153.167	1.213	5.581	169.483	87.411	4.982	9.789	10.163	14.478	148.078	13.665	-8191	255	
3320.471	1	1	0	0	0.22072	0.17166	0.096958	0.09595	0.21804	0.1998	0.10341	0.079687	0.095217	0.21007	0.29771	0.048669	0.27627	0.13928	0.21757	0.15209	-4	-5.0312	-4.2604	-4.7458	-4.7417	-4.0958	-5.2542	-4.5021	-4.3	-5.0542	-4.2312	-4.6833	-4.9708	-4.1687	-4.8271	-4.6354	208.541	14.216	12.639	69.714	157.769	113.731	55.517	66.955	79.391	160.141	-3.434	2.098	319.601	274.104	316.683	160.687	0.00025403	0.0004011	0.00020432	1374	1.8624e-06	8.2985e-07	1371.8	376.06	3.7278e-06	1.764e-06	428.42	142.82	123.73	42.871	4.2946e-06	53.408	0.00012664	0.00012208	3.4076e-05	1307.8	1.3291e-06	1.3293e-06	1326.8	359.61	1.338e-06	1.3187e-06	402.41	135.02	115.59	40.492	1.316e-06	49.754	200.697	104.283	57.918	1.234	33.863	119.170	1.365	5.775	127.990	212.299	4.890	10.200	10.361	14.292	123.544	13.684	-8191	255	
3320.592	1	1	0	0	0.12233	0.14001	0.11721	0.11448	0.037072	0.034447	0.099855	0.10996	0.15678	0.086646	0.23746	0.18054	0.080773	0.10041	0.024522	0.022363	-4.0125	-4.9812	-4.1771	-4.75	-4.8917	-4.0604	-4.9667	-4.6792	-4.25	-4.9458	-4.225	-4.5604	-4.9729	-4.1583	-4.8646	-4.8604	72.892	281.908	129.817	284.613	291.909	263.480	-9.708	329.296	248.291	138.385	266.074	-7.412	311.534	-4.011	53.994	186.978	0.00018575	0.00032757	7.1714e-05	1371.5	1.1375e-06	4.9374e-06	1371.8	377.19	2.9059e-06	4.3059e-06	427.85	143.5	124.07	42.924	5.0024e-06	53.14	0.00012685	0.00012014	3.3775e-05	1306.3	1.3427e-06	1.3492e-06	1325.3	360.16	1.3636e-06	1.3514e-06	402.54	135.09	115.77	40.467	1.3255e-06	49.721	197.013	78.726	44.158	0.994	38.872	107.261	1.123	5.809	148.170	135.676	5.090	9.945	10.635	14.351	194.211	13.623	-8191	255	
3320.688	1	1	0	0	0.21266	0.0755	0.079222	0.22489	0.25388	0.092045	0.19997	0.13652	0.17319	0.13269	0.18556	0.16658	0.3289	0.27783	0.30026	0.070213	-3.8125	-5.05	-4.4521	-4.3792	-4.9354	-4.2229	-4.9875	-4.9375	-4.1771	-5.1104	-4.5917	-4.3896	-5.1083	-4.2625	-4.6687	-4.9583	269.345	58.444	1.178	336.309	211.424	294.800	248.055	255.317	256.493	94.973	243.871	308.053	343.944	337.777	292.173	309.061	0.00025413	0.00018219	0.00010878	1366	9.4598e-07	3.3848e-06	1373.7	375.12	3.0358e-06	2.0184e-06	428.45	143.01	123.79	42.848	4.3822e-06	53.154	0.00012861	0.00012222	3.3754e-05	1304.6	1.3588e-06	1.3337e-06	1324.3	359.58	1.3531e-06	1.3304e-06	402.3	135.16	115.74	40.477	1.3648e-06	49.663	202.855	109.890	58.191	0.918	15.002	85.639	1.324	5.838	78.620	134.679	4.890	9.929	10.432	14.237	156.245	13.620	-8191	255	
3320.784	1	1	0	0	0.27781	0.13967	0.032272	0.12344	0.16017	0.084447	0.31221	0.27117	0.1469	0.26004	0.084022	0.17383	0.074032	0.28522	0.15987	0.056926	-3.7542	-4.9771	-4.575	-4.4396	-5.0271	-4.1708	-4.9875	-5.0771	-4.0396	-4.9542	-4.6042	-4.5333	-5.1396	-4.4187	-4.6188	-5.0167	-2.586	117.993	216.905	232.208	46.540	214.946	250.971	255.092	32.503	39.646	262.044	-2.280	290.961	-11.082	-3.024	318.944	0.00025115	0.00033804	8.2635e-05	1368.6	1.5801e-06	1.1752e-06	1371.1	376.22	4.7475e-06	6.5429e-07	427.86	142.13	124	42.713	3.3684e-06	53.532	0.00013142	0.00012572	3.4944e-05	1306.5	1.39e-06	1.391e-06	1325.1	359.58	1.4058e-06	1.3772e-06	402.91	134.94	115.83	40.513	1.3688e-06	49.85	206.530	100.792	341.597	0.868	129.696	298.590	1.061	5.802	171.384	164.885	5.184	10.074	10.242	14.275	95.138	13.744	-8191	255	
3320.881	1	1	0	0	0.35754	0.12325	0.09427	0.083603	0.11961	0.1157	0.27525	0.12118	0.089963	0.1986	0.34831	0.23368	0.24526	0.30015	0.23433	0.2857	-3.6896	-4.7937	-4.6021	-4.1125	-4.9708	-4.425	-4.6542	-5.1021	-4.1104	-4.6333	-4.7333	-4.2771	-5.0229	-4.4896	-4.3208	-5.1042	159.898	306.083	241.492	293.940	135.287	335.955	303.822	39.794	294.877	322.475	323.113	324.067	320.547	342.077	196.931	297.216	0.00021513	0.00042681	9.2625e-05	1373.4	6.3481e-07	2.4731e-06	1371.6	374.85	5.5796e-06	3.6275e-06	428.77	142.56	124.04	42.762	7.786e-07	53.18	0.00013124	0.00012374	3.478e-05	1306.8	1.3848e-06	1.3652e-06	1325.4	359.71	1.3848e-06	1.3539e-06	403.01	134.86	115.62	40.451	1.38e-06	49.65	191.392	27.792	79.861	0.867	98.672	71.364	1.204	5.731	132.991	106.040	5.152	10.076	10.360	14.257	92.488	13.703	-8191	255	
3320.999	1	1	0	0	0.03469	0.17852	0.20669	0.2484	0.060899	0.15503	0.24148	0.067719	0.10628	0.24031	0.031422	0.1733	0.09321	0.040527	0.19261	0.12742	-3.8042	-4.6667	-4.7167	-4.25	-4.7771	-4.3688	-4.6292	-5.025	-4.1958	-4.7729	-4.9479	-4.175	-4.9521	-4.5833	-4.2083	-5.0875	189.351	68.426	-7.220	284.461	103.257	340.931	342.402	80.909	305.367	212.502	295.389	302.361	331.081	325.473	198.678	272.123	0.00021439	0.00023552	0.00015871	1369.8	3.0432e-06	5.3912e-06	1371	376.08	4.7648e-06	3.7084e-06	429.1	142.49	123.93	42.881	3.9599e-06	53.156	0.0001306	0.00012464	3.449e-05	1304.8	1.3682e-06	1.353e-06	1325.2	359.84	1.3756e-06	1.3585e-06	402.72	135	115.54	40.522	1.3728e-06	49.671	200.830	116.047	67.057	0.751	134.811	71.912	1.096	5.777	139.600	106.112	5.023	9.851	10.428	14.574	105.623	13.650	-8191	255	
3321.073	1	1	0	0	0.103	0.11369	0.17779	0.33099	0.088836	0.18995	0.19331	0.16578	0.043146	0.10605	0.093281	0.14625	0.066291	0.12016	0.15445	0.17878	-3.9708	-4.5479	-4.7708	-4.2625	-4.9187	-4.4812	-4.4271	-5.1771	-4.25	-4.4979	-4.9646	-4.1312	-4.9208	-4.7417	-4.0708	-5.2167	324.768	264.860	82.296	323.811	132.650	151.321	25.806	315.638	-7.474	214.418	104.037	200.234	290.183	188.211	48.436	54.725	0.00017341	0.00014192	0.00014108	1372.6	1.9005e-06	2.7638e-06	1372.9	376.63	3.1568e-06	4.6527e-06	429.95	142.33	124.01	42.818	2.0965e-06	53.137	0.00013002	0.00012503	3.5053e-05	1307.4	1.3779e-06	1.3736e-06	1326.6	359.8	1.3861e-06	1.3762e-06	403.06	134.86	115.69	40.436	1.3658e-06	49.557	209.153	69.747	41.617	1.094	91.302	114.481	1.069	5.704	147.920	107.698	4.820	10.010	10.477	14.514	164.338	13.569	-8191	255	
3321.192	1	1	0	0	0.076582	0.056198	0.075481	0.049349	0.027075	0.27944	0.015765	0.21903	0.12603	0.09424	0.22138	0.38303	0.15223	0.20448	0.30339	0.20072	-3.9917	-4.2625	-4.9167	-3.9708	-4.7104	-4.7	-4.3271	-5.2167	-4.3583	-4.4229	-5.1312	-4.1125	-4.6854	-4.8979	-4.0354	-5.0667	6.012	343.795	122.972	254.934	243.551	48.405	181.201	287.140	144.426	316.047	15.166	318.871	313.379	248.661	142.281	180.273	0.00025811	0.00041083	8.7133e-05	1363.7	3.2831e-06	1.6612e-06	1371.7	375.87	4.4301e-06	3.3191e-06	425.91	142.9	123.32	42.671	3.5317e-06	52.92	0.0001299	0.00012561	3.4984e-05	1304.1	1.354e-06	1.3647e-06	1325.1	359.91	1.3792e-06	1.3688e-06	402.24	134.84	115.3	40.425	1.3669e-06	49.578	199.482	102.232	44.639	1.031	177.169	123.813	0.945	5.641	136.992	178.030	4.944	10.160	10.250	14.536	166.250	13.765	-8191	255	
3321.288	1	1	0	0	0.2327	0.14738	0.070753	0.31013	0.12239	0.32667	0.23139	0.2522	0.22781	0.25441	0.26022	0.17556	0.10573	0.23142	0.035732	0.12402	-4.1042	-4.2417	-5.0792	-4.2354	-4.5729	-4.75	-4.2708	-5.125	-4.4583	-4.2646	-5.3542	-4.2458	-4.7188	-4.8792	-4.1458	-5.0771	285.611	233.137	251.101	-1.920	21.683	59.079	293.702	330.575	30.878	-6.541	248.059	223.994	235.982	263.533	147.028	345.372	0.00021615	0.00033847	8.4645e-05	1366.9	1.5866e-06	3.4834e-06	1369	375.91	4.3967e-06	8.7325e-07	425.93	142.38	123.49	42.634	3.0076e-06	52.907	0.00013068	0.00012601	3.499e-05	1305.6	1.3762e-06	1.3792e-06	1324.8	359.78	1.375e-06	1.3651e-06	401.57	134.77	115.61	40.343	1.3829e-06	49.529	189.262	95.181	82.075	1.067	136.838	128.492	1.209	5.735	88.117	133.528	5.144	10.096	10.244	14.265	161.551	13.561	-8191	255	
3321.384	1	1	0	0	0.18484	0.090475	0.11323	0.30908	0.082062	0.1922	0.20246	0.13108	0.18546	0.13013	0.20738	0.14697	0.021389	0.21821	0.23088	0.16062	-4.3333	-4.1542	-5.0062	-4.2396	-4.4979	-5.0125	-4.1375	-4.9417	-4.6854	-4.1125	-5.1687	-4.4833	-4.4729	-5.0292	-4.1979	-4.9083	36.554	192.138	125.350	289.893	123.818	301.110	281.581	216.547	179.164	311.185	313.309	246.276	128.999	65.828	26.661	280.122	0.00021283	0.0004275	9.0982e-05	1365.7	1.7829e-06	2.0581e-06	1366.1	374.26	3.1247e-07	5.0809e-06	426.69	142.99	123.8	42.755	4.0346e-06	53.067	0.00013143	0.00012826	3.5316e-05	1304.2	1.3987e-06	1.3846e-06	1324.4	359.44	1.4253e-06	1.4054e-06	402.19	134.86	115.64	40.459	1.4153e-06	49.662	202.130	92.762	71.987	0.852	88.410	72.734	1.063	5.908	13.431	74.731	4.963	10.068	10.242	14.307	139.648	13.458	-8191	255	
3321.480	1	1	0	0	0.050938	0.10201	0.10752	0.27586	0.063616	0.088937	0.2714	0.13594	0.17645	0.063338	0.040243	0.077239	0.25242	0.26236	0.086171	0.063924	-4.2604	-4.0333	-5.025	-4.5437	-4.3417	-5.0542	-4.0958	-4.7271	-4.7146	-4.1708	-5.0917	-4.5167	-4.2229	-4.9167	-4.0062	-4.7875	319.148	120.168	240.905	277.838	147.549	86.974	327.683	290.035	223.432	133.868	126.976	226.543	292.401	-7.774	287.717	306.505	0.00027417	0.0001965	0.00015571	1368.3	3.8813e-06	1.5538e-06	1372.3	374.73	3.4668e-06	2.0147e-06	427.05	142.52	123.64	42.752	2.6465e-06	53.112	0.00013477	0.00013018	3.5785e-05	1307.1	1.4245e-06	1.4261e-06	1325.3	359.3	1.4228e-06	1.4082e-06	402.29	134.69	115.48	40.387	1.3866e-06	49.574	200.930	143.620	85.804	0.996	161.371	77.797	1.005	5.587	153.360	154.861	4.930	9.837	10.255	14.343	142.732	13.625	-8191	255	
3321.601	1	1	0	0	0.16183	0.12553	0.12949	0.20962	0.071746	0.05932	0.18014	0.14407	0.12267	0.10069	0.13618	0.057387	0.16083	0.29003	0.09015	0.15292	-4.5167	-4.0354	-5.0021	-4.45	-4.2771	-4.9604	-4.4187	-4.6854	-4.8125	-4	-4.8688	-4.7021	-4.3063	-5.2229	-4.2083	-4.6625	17.362	160.320	230.841	304.452	233.974	24.025	256.911	250.802	56.839	200.635	247.267	86.613	235.972	21.363	336.376	242.680	0.00024761	0.00038191	6.0273e-05	1366.9	2.3734e-06	4.8762e-06	1372.1	375.24	2.1174e-06	4.5219e-06	428.29	142.39	124.08	42.671	4.659e-06	53.064	0.00012977	0.00012648	3.5206e-05	1304.1	1.4075e-06	1.3845e-06	1324.5	359.73	1.4107e-06	1.3996e-06	402	134.72	115.69	40.4	1.397e-06	49.544	215.453	111.239	125.911	0.979	121.163	80.368	1.148	5.780	124.417	139.883	4.931	10.037	10.111	14.402	138.526	13.260	-8191	255	
3321.697	1	1	0	0	0.20595	0.021157	0.037989	0.079046	0.16288	0.10035	0.09964	0.29856	0.10129	0.17954	0.11445	0.062324	0.19983	0.30344	0.18294	0.24443	-4.5667	-4.0417	-4.775	-4.7042	-4.0792	-4.9167	-4.5312	-4.4646	-4.8167	-3.9167	-4.8187	-4.7708	-4.1208	-5.1333	-4.2875	-4.3938	307.646	162.883	166.198	-11.754	284.467	28.325	336.516	281.561	125.984	81.936	299.627	88.439	41.301	128.417	173.140	288.166	0.00027647	0.00053441	9.5913e-05	1371.2	3.8077e-06	4.1365e-06	1368.1	374.62	4.4731e-06	3.0634e-06	426.42	142.13	123.37	42.806	5.1656e-06	53.174	0.0001339	0.00012965	3.4974e-05	1305.2	1.4096e-06	1.3965e-06	1323.1	359.12	1.3858e-06	1.3899e-06	402.03	134.61	115.35	40.382	1.4088e-06	49.491	206.737	108.945	46.152	1.341	173.388	120.756	1.204	5.610	114.540	165.980	5.187	10.190	10.236	14.606	128.239	13.669	-8191	255	
3321.793	1	1	0	0	0.30018	0.18459	0.048482	0.037599	0.1378	0.12347	0.18289	0.33855	0.38371	0.16077	0.19047	0.071183	0.15675	0.25393	0.31127	0.13401	-4.6708	-3.9375	-4.6375	-4.8646	-3.9354	-4.9458	-4.5521	-4.2979	-4.9354	-4.2458	-4.5917	-4.7271	-4.0792	-4.9771	-4.5042	-4.3083	56.525	187.841	318.723	299.283	205.540	154.420	319.313	284.069	320.226	317.901	39.150	43.367	256.318	336.511	329.007	34.875	0.00023981	0.00026523	0.00012167	1368	3.2479e-06	3.6897e-06	1367.2	375.73	3.4226e-06	2.7536e-06	429.3	143.02	123.56	42.54	1.5935e-06	53.219	0.00013359	0.00012861	3.5688e-05	1305.7	1.3998e-06	1.3769e-06	1323	359.6	1.3853e-06	1.4007e-06	402.34	134.74	115.47	40.409	1.3927e-06	49.541	219.294	56.698	103.793	1.114	120.889	103.273	1.192	5.548	78.326	125.699	5.027	10.079	10.395	14.374	108.376	13.574	-8191	255	
3321.887	1	1	0	0	0.032497	0.012994	0.13205	0.12181	0.06072	0.11893	0.06589	0.18469	0.1038	0.10533	0.18368	0.22777	0.11468	0.14943	0.18777	0.16579	-4.6354	-4.3396	-4.3854	-5.0417	-4.0167	-4.9229	-4.6479	-4.1896	-4.9667	-4.2688	-4.5458	-4.9812	-4.1854	-4.9333	-4.5833	-4.0354	211.069	162.880	257.423	-11.634	61.191	118.251	264.943	255.557	165.870	107.550	273.889	110.408	29.805	308.083	265.996	342.037	0.00024697	0.00042456	8.6519e-05	1364.6	1.7043e-06	6.5123e-06	1371	375.6	4.1683e-06	1.0583e-06	427.37	142.63	123.93	42.742	3.1596e-06	52.894	0.0001332	0.00012606	3.5566e-05	1302.7	1.4094e-06	1.4084e-06	1323.8	359.81	1.4283e-06	1.4104e-06	402.57	134.63	115.49	40.44	1.4339e-06	49.542	203.558	156.703	48.564	1.010	113.637	94.547	1.132	5.864	156.515	103.058	4.969	10.168	10.308	14.319	159.173	13.696	-8191	255	
3321.984	1	1	0	0	0.12481	0.1043	0.18469	0.078248	0.073624	0.13838	0.19305	0.22088	0.090583	0.16202	0.15787	0.11799	0.18551	0.020551	0.194	0.24554	-4.7375	-4.2688	-4.4792	-5.1771	-4.1021	-4.7354	-4.9833	-4.0292	-4.925	-4.5417	-4.4646	-5.0083	-4.1375	-4.9521	-4.725	-4.2271	32.399	309.999	260.482	320.904	135.128	16.754	251.250	248.297	265.774	57.061	283.161	302.687	304.693	209.103	251.826	289.638	0.00025664	0.00018676	0.0001259	1370.7	5.2667e-07	4.3526e-06	1372.4	376.77	5.3267e-06	2.7727e-06	428.5	142.61	124.03	42.732	2.6388e-06	52.958	0.00013626	0.00013129	3.654e-05	1306.3	1.4375e-06	1.4139e-06	1323.3	359.47	1.42e-06	1.4365e-06	402.14	134.83	115.5	40.448	1.4067e-06	49.406	204.319	178.966	60.525	0.947	188.274	97.648	1.126	5.652	146.175	106.977	5.095	9.890	10.422	14.303	155.386	13.617	-8191	255	
3322.080	1	1	0	0	0.12486	0.05757	0.19022	0.36043	0.068777	0.30826	0.24835	0.10008	0.19062	0.11195	0.066701	0.15499	0.35442	0.11966	0.13804	0.20299	-4.6417	-4.4458	-4.1312	-5.0479	-4.0938	-4.5396	-5.0458	-4.0833	-4.8042	-4.5437	-4.2375	-5.0437	-3.9708	-4.5458	-4.8208	-4.0062	45.377	266.913	113.797	21.385	188.339	339.557	308.761	183.008	222.833	225.343	286.713	-1.804	278.255	263.930	272.150	150.791	0.00022477	0.00020152	9.8583e-05	1363.2	2.3302e-06	2.9932e-06	1367.2	374.98	6.1328e-06	1.6552e-06	427.2	141.99	123.17	42.753	2.9673e-06	52.858	0.00013277	0.00012905	3.524e-05	1302.4	1.4009e-06	1.384e-06	1322.7	358.95	1.3967e-06	1.3914e-06	402.17	134.37	115.09	40.399	1.3729e-06	49.37	211.012	68.524	132.205	1.183	114.145	85.059	1.007	5.730	166.866	135.365	4.885	9.908	10.291	14.431	127.040	13.438	-8191	255	
3322.176	1	1	0	0	0.1634	0.096256	0.26691	0.20555	0.019111	0.19629	0.16451	0.14831	0.12767	0.15563	0.16584	0.10414	0.19023	0.25621	0.067875	0.19516	-4.5521	-4.6813	-4.0583	-5.0333	-4.0854	-4.3396	-5.1188	-4.1042	-4.8104	-4.5687	-4.3146	-5.0604	-4.1771	-4.4042	-4.7562	-4.0083	43.469	66.261	244.261	214.977	200.755	259.718	267.185	338.115	10.849	272.089	312.920	257.200	251.405	128.931	131.978	185.656	0.00028386	0.00014932	5.7566e-05	1364.3	4.113e-06	3.5693e-06	1367.9	374.73	4.7772e-06	1.7988e-06	426.22	142.6	123.42	42.799	1.979e-06	52.995	0.00013018	0.0001277	3.5094e-05	1302.1	1.3795e-06	1.3619e-06	1322.3	359	1.3612e-06	1.3554e-06	401.33	134.55	115.28	40.402	1.3766e-06	49.434	197.461	96.513	63.062	1.089	170.576	112.313	1.348	5.875	147.425	147.842	4.832	9.781	10.283	14.416	128.661	13.537	-8191	255	
3322.297	1	1	0	0	0.18709	0.12109	0.060549	0.10764	0.30526	0.23061	0.22633	0.08775	0.13537	0.18657	0.30972	0.1717	0.13148	0.10541	0.20908	0.21229	-4.3854	-4.5021	-4.0583	-4.9667	-4.3562	-4.2792	-5.2583	-4.0396	-4.5708	-4.6917	-4.2417	-5	-4.4104	-4.3625	-5.0042	-4.2271	274.156	296.007	301.855	246.494	199.821	330.770	261.149	16.885	78.205	102.918	306.135	201.741	333.606	328.303	204.991	132.545	0.00026321	0.00039415	0.00011561	1364.8	3.2329e-06	3.6677e-06	1370.2	373.62	5.1805e-06	5.9466e-06	428.19	142.03	123.61	42.653	1.0502e-06	53.299	0.00013269	0.0001266	3.5114e-05	1302.9	1.3784e-06	1.3768e-06	1321.8	358.49	1.3953e-06	1.369e-06	402.25	134.49	115.28	40.34	1.3786e-06	49.487	206.388	64.848	58.311	0.968	149.890	70.450	1.104	5.784	108.101	86.924	4.893	9.812	10.243	14.216	109.492	13.493	-8191	255	
3322.368	1	1	0	0	0.12301	0.19312	0.1333	0.18263	0.15338	0.072322	0.29895	0.11552	0.1883	0.066887	0.1882	0.16396	0.17986	0.2466	0.11335	0.087232	-4.1146	-4.9354	-4.0333	-4.8125	-4.4271	-4.1146	-5.0687	-4.2188	-4.3542	-4.8146	-4.0958	-4.7458	-4.6208	-4.1771	-4.9229	-4.3104	23.119	331.515	228.816	5.796	182.469	7.630	296.022	158.089	3.904	87.452	7.671	237.641	247.151	286.217	-6.259	222.966	0.00028071	0.0002464	0.00013537	1364	3.005e-06	1.2543e-06	1366.3	375.52	4.9923e-06	3.121e-06	427.65	142.3	123.83	42.476	4.5586e-06	52.992	0.00013084	0.00012746	3.526e-05	1302.1	1.3989e-06	1.3946e-06	1322.6	359.18	1.4247e-06	1.3995e-06	402.05	134.57	115.42	40.338	1.3898e-06	49.439	196.013	115.874	66.995	0.964	157.206	86.261	1.126	5.708	170.080	122.201	5.216	10.069	10.315	14.602	170.967	13.766	-8191	255	
3322.464	1	1	0	0	0.21208	0.094896	0.18165	0.21971	0.13558	0.053417	0.22321	0.16318	0.15546	0.18981	0.14014	0.1724	0.13112	0.23491	0.080751	0.15206	-4.2438	-4.9875	-3.8417	-4.7792	-4.6958	-4.1292	-5.1729	-4.4625	-4.2604	-4.9167	-4.0729	-4.775	-4.8396	-4.1146	-4.9146	-4.3771	268.682	87.747	251.223	327.844	321.386	101.658	253.140	267.961	183.398	262.081	288.538	3.638	333.608	17.330	31.204	216.730	0.00022055	0.00015351	0.00011638	1368.3	2.4331e-06	4.2593e-06	1368.7	375.09	4.0849e-06	3.352e-06	427.15	142.57	123.08	42.766	2.175e-06	53.134	0.00013388	0.00012851	3.5897e-05	1305.6	1.4256e-06	1.4112e-06	1324.7	359	1.4261e-06	1.3932e-06	401.68	134.7	115.3	40.316	1.424e-06	49.545	193.785	100.464	116.195	0.929	201.400	96.902	1.149	5.652	145.657	97.956	4.980	10.006	10.407	14.270	151.276	13.527	-8191	255	
3322.561	1	1	0	0	0.1186	0.16851	0.1076	0.30376	0.17355	0.071998	0.19311	0.1361	0.22641	0.02513	0.31975	0.18605	0.1625	0.10446	0.16755	0.1406	-4.0563	-4.9604	-4.1479	-4.8729	-4.9	-4.1021	-5.2083	-4.5292	-4.0896	-5.0333	-4.1854	-4.6979	-4.9042	-4.0687	-4.8396	-4.5813	124.040	112.279	130.583	253.458	45.754	257.116	283.064	327.882	250.261	238.557	-6.228	344.605	344.156	1.786	333.927	238.042	0.00019375	0.00039864	0.00011492	1367.4	4.5049e-06	1.2136e-06	1366	375.9	3.8374e-06	5.286e-06	425.95	142.22	123.12	42.645	3.2268e-06	52.619	0.0001351	0.00013132	3.6435e-05	1304.4	1.4476e-06	1.4311e-06	1323.6	359.31	1.4265e-06	1.4071e-06	401.56	134.52	115.09	40.299	1.434e-06	49.45	202.170	102.373	63.742	0.754	184.232	107.901	1.093	5.855	78.474	145.444	5.196	10.235	10.116	14.228	49.166	13.625	-8191	255	
3322.681	1	1	0	0	0.068424	0.23808	0.12594	0.16324	0.15052	0.044571	0.13739	0.14697	0.12717	0.11651	0.30134	0.20288	0.12951	0.077918	0.10587	0.030621	-3.7875	-4.9812	-4.2958	-4.525	-4.8375	-3.9958	-4.9604	-4.7021	-4.1854	-4.9729	-4.2125	-4.6687	-4.9625	-4.0583	-4.6875	-4.8292	54.849	186.440	204.425	328.828	6.322	302.211	319.741	270.620	53.177	22.997	-4.465	43.289	243.831	63.460	191.863	141.760	0.00023908	0.00021138	6.5633e-05	1361.1	3.9694e-06	3.8616e-06	1371	375.89	5.14e-06	1.8316e-06	426.59	142.47	123.32	42.5	5.4432e-06	52.928	0.00013333	0.00012916	3.6115e-05	1304.7	1.4133e-06	1.4109e-06	1324.2	359.2	1.4197e-06	1.3908e-06	401.15	134.38	115.36	40.337	1.3952e-06	49.441	185.959	185.334	17.122	0.937	137.746	122.953	1.186	5.824	127.713	108.640	4.959	10.015	10.294	14.354	138.407	13.676	-8191	255	
3322.777	1	1	0	0	0.36502	0.15415	0.10057	0.091454	0.23576	0.17773	0.097043	0.24763	0.027399	0.16786	0.27963	0.43401	0.05263	0.24111	0.21647	0.15927	-3.7417	-4.9729	-4.275	-4.4417	-4.9396	-4.0458	-4.825	-4.8125	-4.0167	-4.9917	-4.4875	-4.2854	-4.9688	-4.0583	-4.5	-4.7875	116.163	207.596	120.493	338.236	235.310	82.063	83.934	269.408	211.102	137.863	11.843	332.653	328.341	-2.668	286.098	228.555	0.00024896	0.00022742	0.00011984	1365.3	3.3785e-06	5.9031e-06	1366.8	376.21	3.1698e-06	5.1694e-06	426.4	142.39	123.01	42.68	3.7677e-06	52.857	0.00013385	0.00012632	3.577e-05	1302.5	1.4068e-06	1.4132e-06	1323.4	359.35	1.4221e-06	1.3935e-06	401.37	134.32	115.23	40.353	1.4035e-06	49.433	208.074	98.587	49.844	0.923	139.975	66.539	1.014	5.850	167.140	124.497	5.205	9.851	10.364	14.403	138.468	13.920	-8191	255	
3322.873	1	1	0	0	0.097371	0.28108	0.14439	0.17817	0.21103	0.19077	0.23556	0.10719	0.096168	0.1412	0.27977	0.080367	0.24669	0.060876	0.15032	0.099347	-3.7417	-4.8063	-4.4396	-4.1125	-5.0042	-4.1542	-4.7167	-4.875	-3.9313	-4.9187	-4.6375	-4.1625	-5.1292	-4.3812	-4.4875	-4.9917	36.409	317.863	47.841	286.240	242.047	301.994	280.732	273.355	177.378	93.177	237.160	161.982	58.005	313.353	197.781	165.554	0.00025272	0.00019857	0.00011622	1367.4	2.8772e-06	3.2732e-06	1363.3	376.32	6.1339e-06	4.4854e-06	425.84	142.4	123.05	42.616	3.1261e-06	52.961	0.00013242	0.0001264	3.5836e-05	1303.1	1.3886e-06	1.3984e-06	1321.8	359.23	1.4082e-06	1.3883e-06	401.74	134.34	115.33	40.261	1.4007e-06	49.289	210.037	144.979	55.326	0.851	231.201	49.117	1.033	5.755	169.871	126.603	5.034	9.887	10.332	14.375	60.855	13.790	-8191	255	
3322.968	1	1	0	0	0.092742	0.16908	0.15974	0.20777	0.1055	0.20986	0.19705	0.097587	0.29492	0.14007	0.25272	0.35801	0.18333	0.19134	0.17887	0.20351	-3.8312	-4.7958	-4.5583	-4.3729	-4.8604	-4.1937	-4.5896	-5.0021	-4.0188	-4.5312	-4.7812	-4.2021	-4.95	-4.4375	-4.2479	-5.0417	106.772	49.771	221.065	299.823	305.838	180.513	274.102	123.033	255.953	339.621	280.987	323.135	262.461	322.600	239.337	3.575	0.00022373	0.00031353	6.3188e-05	1362.5	3.5483e-06	2.781e-06	1366.8	374.68	4.2697e-06	9.5466e-07	425.93	142.59	123.98	42.558	4.4499e-06	52.985	0.00013094	0.00012702	3.5336e-05	1302.2	1.4051e-06	1.4028e-06	1324.1	358.84	1.3979e-06	1.4071e-06	401.26	134.45	115.4	40.32	1.3901e-06	49.345	208.562	128.416	64.808	0.992	170.570	153.805	1.012	5.889	186.623	121.565	4.798	9.889	9.992	14.533	45.704	13.536	-8191	255	
3323.064	1	1	0	0	0.13601	0.20354	0.15806	0.19155	0.23392	0.082471	0.40788	0.14611	0.1922	0.083614	0.11385	0.22166	0.22973	0.087175	0.16584	0.18191	-3.85	-4.6937	-4.8604	-4.2063	-4.8229	-4.3979	-4.2792	-5.0271	-4.15	-4.6521	-4.8688	-4.2812	-4.9271	-4.5167	-4.225	-5.1104	8.024	8.232	72.821	259.255	214.834	327.076	29.270	117.643	174.427	335.143	135.721	318.839	346.023	296.855	201.497	281.993	0.0002691	0.00043652	2.4063e-05	1367	3.7711e-06	1.8801e-06	1363.3	376.03	2.9417e-06	2.6906e-06	426.02	142.05	123.81	42.383	3.0494e-06	52.799	0.0001303	0.00012765	3.5571e-05	1303.2	1.3918e-06	1.3994e-06	1320.5	358.77	1.407e-06	1.3998e-06	401.25	134.37	115.42	40.223	1.4021e-06	49.388	211.529	104.635	126.992	0.891	160.910	53.868	1.120	5.929	148.222	165.983	5.082	10.229	10.371	14.306	153.318	13.700	-8191	255	
3323.162	1	1	0	0	0.069569	0.026163	0.27536	0.059479	0.075472	0.075777	0.060248	0.16647	0.16829	0.15193	0.15816	0.04692	0.079558	0.041197	0.26513	0.10105	-3.6917	-4.4417	-4.6896	-3.9521	-4.8521	-4.5104	-4.2937	-5.1917	-4.2146	-4.2667	-5.0396	-4.0687	-4.8333	-4.7292	-4.0604	-5.0479	108.867	222.069	51.762	305.768	242.934	332.973	274.533	68.522	204.507	-7.908	-9.333	67.267	344.046	204.578	150.729	161.445	0.00019397	0.00013636	0.0001427	1365.6	2.603e-06	1.454e-06	1371.6	375.17	5.5346e-06	4.5865e-06	427.05	142.61	123.59	42.599	4.8391e-06	52.866	0.00013346	0.00012903	3.5853e-05	1303.7	1.4303e-06	1.417e-06	1323.6	358.99	1.4338e-06	1.4155e-06	401.6	134.62	115.35	40.289	1.3946e-06	49.414	211.517	69.775	16.838	0.862	184.907	20.100	0.940	5.809	99.397	109.065	5.012	9.735	10.473	14.576	87.865	13.704	-8191	255	
3323.281	1	1	0	0	0.1897	0.053837	0.1586	0.10868	0.10218	0.26356	0.016404	0.15816	0.21301	0.22106	0.117	0.054716	0.18915	0.072624	0.21405	0.052668	-3.9062	-4.2458	-4.85	-4.1813	-4.6708	-4.775	-4.3646	-5.05	-4.3833	-4.1813	-4.9854	-4.2812	-4.8042	-5.0542	-4.1042	-5.0062	151.213	295.203	284.232	20.312	60.397	236.154	-2.304	266.500	142.728	302.926	57.845	23.543	345.225	269.139	128.145	287.990	0.00019537	0.00020693	0.00018231	1367.1	3.099e-06	4.4056e-06	1364.2	373.85	5.1162e-06	5.2406e-06	425.83	141.31	123.41	42.528	3.2457e-06	53.081	0.00013426	0.00012989	3.5665e-05	1303.9	1.3923e-06	1.3954e-06	1322	358.53	1.4245e-06	1.3791e-06	401.1	134.09	115.45	40.263	1.3781e-06	49.397	189.932	123.357	74.718	1.014	129.448	82.245	1.092	5.686	107.066	110.343	5.089	9.927	10.062	14.383	121.551	13.367	-8191	255	
3323.377	1	1	0	0	0.21766	0.18126	0.076068	0.28233	0.16973	0.21937	0.13047	0.24439	0.18488	0.071726	0.10998	0.17808	0.16201	0.25188	0.25445	0.057061	-4.1229	-4.0375	-4.8562	-4.2688	-4.5	-4.7812	-4.1687	-5.0813	-4.4604	-4.2292	-5.275	-4.2021	-4.6146	-4.9688	-4.1021	-4.9292	92.035	315.762	330.088	322.108	110.199	337.174	212.229	233.141	51.058	45.915	7.924	299.863	-2.557	305.670	46.925	174.287	0.00026629	0.00052336	9.66e-05	1368.2	1.1452e-06	2.4982e-06	1367.5	374.64	2.7148e-06	5.1214e-06	425.97	141.3	123.42	42.329	2.0352e-06	52.856	0.00013097	0.00012842	3.5462e-05	1301.1	1.4082e-06	1.3893e-06	1320.3	359.02	1.4047e-06	1.4163e-06	401.25	133.9	115.33	40.166	1.4062e-06	49.349	205.152	85.943	65.284	0.764	143.625	91.117	1.239	5.851	138.490	137.430	4.920	9.861	10.238	14.241	185.073	13.681	-8191	255	
3323.473	1	1	0	0	0.26292	0.10217	0.13916	0.15613	0.11997	0.09284	0.056922	0.17765	0.30954	0.18103	0.29006	0.11518	0.23919	0.12417	0.078757	0.019652	-4.1875	-4.1604	-5.0417	-4.325	-4.5437	-4.9812	-4.0729	-4.8562	-4.7021	-4.1104	-5.0062	-4.4375	-4.2729	-5.0604	-4.1042	-4.8187	47.741	90.311	45.885	332.495	265.571	31.493	240.746	26.686	52.370	302.305	278.983	133.940	289.235	172.385	283.002	313.218	0.00021531	0.00039579	9.3713e-05	1360.5	4.0894e-06	1.2446e-06	1366.8	374.8	3.0748e-06	5.2642e-06	426.08	141.58	122.57	42.4	2.0409e-06	52.95	0.00013407	0.00012818	3.5366e-05	1299.9	1.4071e-06	1.3931e-06	1321.2	358.9	1.3917e-06	1.3787e-06	400.7	134.09	114.97	40.171	1.3706e-06	49.476	202.801	38.350	52.884	0.979	142.879	84.120	0.946	5.510	103.801	126.623	4.756	10.143	10.242	14.178	48.933	13.805	-8191	255	
3323.594	1	1	0	0	0.15759	0.20964	0.24524	0.254	0.1343	0.27347	0.11629	0.12415	0.15986	0.086805	0.28466	0.27496	0.049028	0.2072	0.25839	0.13461	-4.5729	-4.1167	-5.0125	-4.4792	-4.3875	-4.95	-4.2937	-4.7208	-4.8229	-4.0687	-5.0229	-4.4271	-4.2958	-4.8208	-4.15	-4.7333	318.140	172.737	221.111	259.175	8.698	344.068	146.275	304.660	94.916	284.904	321.684	8.806	86.711	283.127	126.164	212.651	0.00026271	0.00039407	9.396e-05	1364.4	4.8506e-07	5.6572e-06	1366.1	374.94	2.6859e-06	3.4988e-06	424.83	141.63	122.93	42.552	3.4367e-06	52.97	0.00013198	0.00012792	3.4942e-05	1302	1.3893e-06	1.3624e-06	1321.3	358.54	1.3855e-06	1.3685e-06	401.15	134.12	114.96	40.207	1.3824e-06	49.363	188.670	101.873	58.960	1.233	35.850	79.928	1.301	5.817	266.095	141.447	4.745	9.959	10.171	14.590	110.495	13.495	-8191	255	
3323.665	1	1	0	0	0.18698	0.17737	0.093896	0.21627	0.242	0.17873	0.14568	0.27304	0.019281	0.115	0.16664	0.1713	0.14238	0.20674	0.24511	0.12735	-4.5646	-4.0458	-4.8583	-4.5979	-3.9583	-4.7937	-4.3375	-4.5312	-4.9708	-3.9521	-5.0375	-4.5938	-4.1104	-5.1229	-4.1104	-4.5167	141.865	-2.223	101.502	345.193	106.486	219.657	342.713	-5.579	82.526	300.708	67.826	-5.958	183.991	246.023	139.334	7.276	0.00020411	0.00025049	5.3929e-05	1369.6	9.946e-07	1.1118e-06	1365.2	373.66	1.4291e-06	4.3327e-06	426.87	141.91	122.75	42.461	4.2007e-06	52.881	0.00012915	0.00012583	3.4951e-05	1302.3	1.3835e-06	1.3713e-06	1320.1	358.65	1.3688e-06	1.368e-06	401.17	134.05	115.05	40.161	1.3604e-06	49.346	193.899	123.396	82.651	1.121	209.039	1.977	0.995	5.479	201.525	134.473	5.086	9.975	10.710	14.380	198.118	13.415	-8191	255	
3323.762	1	1	0	0	0.1736	0.1256	0.11981	0.067962	0.19002	0.24698	0.23911	0.27738	0.21549	0.0052114	0.23066	0.20573	0.070275	0.18811	0.024385	0.19498	-4.6312	-3.9146	-4.7917	-4.8542	-4.1875	-5.0437	-4.3792	-4.425	-4.8938	-4.0646	-4.8313	-4.8333	-3.9896	-5.0229	-4.3604	-4.3729	278.323	111.954	286.601	259.401	78.540	32.625	271.981	249.842	52.416	252.977	307.399	251.241	316.204	313.325	234.690	267.430	0.00023601	0.00028001	0.0001325	1363.1	2.6059e-06	1.5983e-06	1362.9	374.97	7.0689e-06	2.9589e-06	428.63	142.1	123.28	42.238	2.858e-06	53.025	0.00012985	0.0001249	3.4719e-05	1302	1.3786e-06	1.3591e-06	1319.5	358.71	1.3682e-06	1.3475e-06	400.99	134.09	114.97	40.065	1.3692e-06	49.343	205.762	129.156	66.366	1.008	194.412	142.748	1.205	5.368	140.796	106.551	4.945	9.863	10.197	14.197	139.219	13.334	-8191	255	
3323.858	1	1	0	0	0.19186	0.090938	0.13503	0.13846	0.15154	0.26029	0.22255	0.093766	0.26528	0.052867	0.26916	0.21227	0.12344	0.11432	0.10207	0.20417	-4.6687	-4.0625	-4.5771	-4.8875	-4.1375	-4.9042	-4.7937	-4.4187	-5.1229	-4.2021	-4.7	-4.9437	-3.9417	-4.8854	-4.5396	-4.3333	47.761	55.592	3.102	277.135	300.417	99.061	-5.579	207.741	105.236	106.224	321.534	257.099	14.149	260.012	185.795	245.817	0.00021343	0.00025785	9.7877e-05	1359.9	2.1185e-06	3.999e-06	1364.7	374.98	2.9165e-06	3.8404e-06	424.88	141.63	122.76	42.612	5.3264e-06	52.567	0.00012753	0.00012341	3.4389e-05	1298.2	1.3632e-06	1.3605e-06	1319.7	358.34	1.3552e-06	1.3526e-06	400.55	133.97	114.92	40.176	1.3564e-06	49.193	199.533	90.636	54.327	1.131	146.875	62.961	1.134	5.823	138.681	104.171	4.688	9.986	10.264	14.512	123.682	13.458	-8191	255	
3323.977	1	1	0	0	0.19576	0.21307	0.13263	0.49238	0.21584	0.043445	0.284	0.28785	0.057639	0.20059	0.14735	0.064961	0.12104	0.22111	0.093242	0.28435	-4.7292	-4.2083	-4.4104	-5.0042	-4.0896	-4.9062	-4.5938	-4.1917	-4.9979	-4.2792	-4.4521	-4.95	-4.0375	-4.8229	-4.5813	-4.2479	183.427	185.550	338.380	343.843	45.505	37.493	328.407	315.644	218.568	68.658	304.613	108.715	5.080	329.946	103.111	227.952	0.00025206	0.0004096	6.4293e-05	1367.2	3.7068e-06	1.737e-06	1362.4	373.74	3.4259e-06	3.9637e-06	424.73	142.62	123.12	42.554	3.6177e-06	52.788	0.0001264	0.00012325	3.4022e-05	1301.5	1.3574e-06	1.32e-06	1317.8	357.65	1.3231e-06	1.3544e-06	400.35	134.19	114.81	40.116	1.35e-06	49.264	208.906	51.783	110.179	1.006	156.893	11.564	1.123	5.656	191.026	150.474	5.092	10.044	10.438	14.404	112.235	13.592	-8191	255	
3324.073	1	1	0	0	0.27762	0.13835	0.0093714	0.036224	0.23634	0.13279	0.19643	0.13385	0.14531	0.18567	0.21207	0.10034	0.26302	0.11312	0.10539	0.066721	-4.8208	-4.2542	-4.3417	-5.1062	-4.1438	-4.7625	-4.975	-4.0896	-5.0625	-4.4333	-4.3125	-5.15	-4.2063	-4.5771	-4.7354	-4.225	167.325	11.766	216.049	26.245	68.943	66.605	272.701	233.208	214.402	97.264	269.059	329.448	42.724	32.171	1.016	148.066	0.00021479	0.00033393	2.6754e-05	1361.6	2.7544e-06	3.0436e-06	1366	375	7.0336e-06	2.7918e-06	426.6	142.29	123.1	42.365	3.265e-06	52.811	0.00012832	0.00012272	3.4352e-05	1298.3	1.3699e-06	1.3612e-06	1319.1	358.16	1.3599e-06	1.3425e-06	400.73	134.09	114.96	40.09	1.3407e-06	49.271	218.193	106.395	61.200	1.320	165.700	72.536	1.169	5.820	150.370	74.938	4.870	9.823	10.263	14.368	67.229	13.755	-8191	255	
3324.169	1	1	0	0	0.077845	0.20625	0.20757	0.16908	0.36581	0.16496	0.16835	0.28098	0.088676	0.17168	0.15331	0.26738	0.21266	0.099692	0.21535	0.090811	-4.575	-4.4708	-4.1062	-5.0625	-4.1458	-4.5083	-4.9854	-4.0667	-4.8583	-4.7167	-4.2417	-5.0396	-4.3104	-4.5875	-4.9187	-4.1208	95.442	294.339	105.827	307.840	347.443	247.918	341.754	22.135	187.952	250.011	214.581	271.365	299.945	163.106	21.651	309.846	0.00026445	0.00025057	6.3593e-05	1361.8	2.1928e-06	4.0023e-06	1363.9	374.2	4.6807e-06	3.2713e-06	424.32	142.6	123.17	42.695	2.4153e-06	52.848	0.00012813	0.00012315	3.4369e-05	1299.9	1.3714e-06	1.3504e-06	1318.4	357.76	1.3691e-06	1.3474e-06	400.26	134.15	114.91	40.212	1.3456e-06	49.317	204.627	85.869	124.359	1.116	107.622	67.955	1.116	5.803	149.559	119.722	4.907	10.165	10.568	14.409	108.243	13.685	-8191	255	
3324.242	1	1	0	0	0.09708	0.19576	0.076733	0.081747	0.14482	0.21861	0.028762	0.16268	0.11605	0.3676	0.13279	0.28171	0.20361	0.089022	0.22618	0.20625	-4.4458	-4.7271	-4.1312	-5.0917	-4.2479	-4.45	-5.1396	-4.2271	-4.7229	-4.6979	-4.2667	-4.8729	-4.5062	-4.4792	-4.8521	-4.1687	139.000	172.409	211.225	1.332	66.893	223.143	256.148	54.024	233.928	229.717	308.331	326.532	325.408	325.411	282.084	235.855	0.00025552	0.00010198	3.521e-05	1362	4.3075e-06	6.1308e-06	1361.4	375.14	3.6825e-06	1.9081e-06	425.89	142.31	123.56	42.259	4.9705e-06	52.804	0.00012864	0.00012305	3.4071e-05	1300.6	1.3381e-06	1.3447e-06	1320.6	358.15	1.3615e-06	1.3439e-06	400.61	134.23	115.04	40.064	1.337e-06	49.289	197.798	29.892	20.682	1.105	161.799	53.838	1.166	5.820	140.053	136.391	4.975	10.004	10.099	14.317	109.116	13.569	-8191	255	
3324.361	1	1	0	0	0.15407	0.091477	0.072309	0.12478	0.057376	0.36143	0.11069	0.31934	0.19215	0.18573	0.23671	0.064126	0.1407	0.26822	0.21756	0.16911	-4.3708	-4.75	-4.0167	-5.0563	-4.5188	-4.3042	-5.0771	-4.3104	-4.4458	-4.825	-4.1833	-5.0083	-4.6	-4.2667	-5.0146	-4.1875	322.302	278.068	55.159	287.936	96.117	99.657	209.470	301.204	122.859	308.348	344.129	222.365	25.646	87.345	319.154	342.497	0.00021624	0.00015121	7.9202e-05	1369	4.3427e-06	1.0874e-06	1372.3	373.35	2.3554e-06	2.6677e-06	426.17	141.91	123.38	42.374	2.0722e-06	52.868	0.00012979	0.00012502	3.5023e-05	1302.9	1.3808e-06	1.3603e-06	1322.7	357.93	1.3996e-06	1.3686e-06	400.64	134.29	115.05	40.113	1.3934e-06	49.301	185.574	70.243	116.891	1.142	156.092	156.983	1.059	5.729	180.306	145.341	5.030	9.936	10.505	14.445	135.269	13.643	-8191	255	
3324.457	1	1	0	0	0.094537	0.14485	0.28697	0.23959	0.043762	0.16609	0.21885	0.29118	0.013694	0.21423	0.23735	0.24862	0.30321	0.21449	0.17625	0.12279	-4.2	-5.0417	-4.1813	-5.0729	-4.6542	-4.1604	-5.05	-4.3875	-4.5521	-5.0083	-4.1292	-4.9708	-4.6917	-4.4167	-5.0354	-4.3375	39.341	300.063	239.778	322.790	142.743	316.367	298.381	312.154	159.129	194.512	327.516	26.377	-7.303	9.289	289.661	330.076	0.00025612	0.00025508	0.00011109	1368.6	9.4136e-07	3.7196e-06	1366.3	375.55	1.678e-06	2.5142e-06	428.09	142.35	122.93	42.299	2.1826e-06	52.784	0.00013361	0.00012819	3.5927e-05	1303.9	1.4261e-06	1.4033e-06	1320.7	358.26	1.4278e-06	1.3828e-06	401.33	134.3	114.92	40.13	1.4006e-06	49.215	216.823	84.668	52.357	0.820	143.592	143.925	1.079	5.738	67.954	173.515	4.984	9.985	10.231	14.337	72.296	13.658	-8191	255	
3324.553	1	1	0	0	0.14601	0.18532	0.32236	0.12096	0.17956	0.11879	0.48788	0.17305	0.25775	0.29081	0.0040902	0.10385	0.25011	0.26565	0.15848	0.14001	-4.0917	-4.9208	-4.0854	-4.8542	-4.75	-4.2167	-5.0208	-4.4958	-4.3521	-5.0104	-4.2833	-4.7146	-4.825	-4.0021	-4.8729	-4.5104	64.101	52.225	300.050	46.018	108.200	319.102	289.061	66.370	-1.083	254.161	343.210	262.862	291.569	108.876	73.538	336.103	0.00023088	0.00029971	4.572e-05	1362.6	3.8765e-06	4.091e-06	1366.1	373.44	3.6646e-06	4.0877e-06	424.54	142.52	123.18	42.341	4.7383e-06	52.904	0.00013103	0.000126	3.5518e-05	1302	1.3895e-06	1.3976e-06	1319.7	357.9	1.408e-06	1.3775e-06	400.26	134.09	114.95	40.074	1.394e-06	49.303	211.706	120.136	63.964	0.927	188.021	83.355	1.036	5.883	164.597	116.204	4.975	10.021	10.420	14.430	114.777	13.738	-8191	255	
3324.674	1	1	0	0	0.26033	0.22786	0.28712	0.050345	0.097426	0.21868	0.14438	0.25889	0.16772	0.10435	0.28628	0.21516	0.25273	0.13645	0.098122	0.15131	-4.0229	-4.8938	-4.0188	-4.5042	-4.7646	-4.0062	-4.9917	-4.6417	-4.0062	-5.1417	-4.3	-4.6333	-4.9354	-4.1417	-4.9083	-4.5396	346.387	72.849	157.284	-5.437	185.875	155.971	180.770	31.725	210.400	187.726	300.685	1.603	276.674	335.983	131.383	151.562	0.00030916	0.00036202	0.0001231	1363.5	3.4873e-06	2.2822e-06	1367.4	375.49	2.4363e-06	2.3715e-06	425.42	141.49	123.25	42.347	3.1857e-06	53.013	0.00013067	0.00012775	3.596e-05	1301.5	1.4023e-06	1.3871e-06	1322.9	358.14	1.4016e-06	1.3838e-06	401.58	134.22	114.98	40.105	1.4026e-06	49.273	187.423	101.565	26.398	1.066	147.027	133.939	1.165	5.758	221.612	167.539	4.758	10.093	10.409	14.387	169.815	13.844	-8191	255	
3324.770	1	1	0	0	0.20146	0.077673	0.05559	0.1563	0.18523	0.14083	0.12833	0.16988	0.09905	0.30385	0.13022	0.1011	0.25311	0.038671	0.10549	0.1353	-3.8833	-5.0854	-4.2271	-4.5104	-4.9083	-4.1021	-4.9604	-4.7979	-4.3	-4.9604	-4.3396	-4.5208	-4.8917	-4.2542	-4.6875	-4.9396	276.043	72.886	158.648	345.322	79.139	20.578	147.359	237.338	177.556	16.887	250.708	301.428	89.564	313.974	145.759	301.563	0.00021874	0.00031475	7.759e-05	1371.5	4.6211e-06	1.4362e-06	1365.3	374.01	2.9146e-06	2.961e-06	425.54	142.08	123.22	42.553	1.748e-06	52.962	0.00013199	0.00012569	3.4966e-05	1304.7	1.3824e-06	1.3926e-06	1320.1	357.95	1.3901e-06	1.3826e-06	400.51	134.15	115.1	40.157	1.3803e-06	49.308	200.782	77.160	113.063	0.804	145.342	169.883	0.982	5.669	158.496	80.815	5.275	9.595	10.334	14.278	64.223	13.525	-8191	255	
3324.865	1	1	0	0	0.08901	0.1585	0.18517	0.18553	0.3423	0.10226	0.20121	0.28513	0.21006	0.26277	0.09732	0.23153	0.16169	0.058752	0.056178	0.17038	-3.9875	-4.9729	-4.3604	-4.4938	-5.1375	-4.0833	-4.7812	-4.7917	-4.0542	-5.1417	-4.5042	-4.3146	-4.9104	-4.1958	-4.3938	-4.9646	261.725	52.943	175.820	0.515	299.146	65.772	326.843	291.788	50.363	184.927	206.276	36.757	342.035	83.630	112.084	301.050	0.00021162	0.00048534	9.6459e-05	1359.8	5.8802e-06	1.9271e-06	1361.8	373.94	6.5874e-06	2.9415e-06	425.04	142.07	123.24	42.331	2.5957e-06	52.731	0.00013024	0.00012583	3.5392e-05	1299.5	1.3581e-06	1.3685e-06	1319.3	357.79	1.3826e-06	1.3749e-06	400.16	134.15	114.98	40.071	1.3347e-06	49.202	195.828	80.836	68.662	0.803	104.886	54.001	1.027	5.779	193.543	80.846	5.046	10.089	10.219	14.393	198.376	13.665	-8191	255	
3324.963	1	1	0	0	0.21712	0.11633	0.19315	0.21409	0.19456	0.16317	0.093511	0.28194	0.057354	0.10045	0.18028	0.091048	0.15124	0.089363	0.22029	0.13185	-3.6417	-4.8521	-4.4896	-4.2854	-5.0104	-4.2438	-4.6875	-5.1167	-4.0417	-4.8708	-4.6	-4.0875	-5.0792	-4.2917	-4.3396	-5.0646	111.458	31.966	46.138	331.348	280.547	252.749	300.180	66.490	290.470	256.339	16.773	147.266	13.921	341.217	275.365	123.166	0.00026219	0.00039458	0.00010941	1367.5	2.2467e-06	2.9619e-06	1364.4	374.48	3.2894e-06	2.9708e-06	424.13	141.54	122.53	42.492	6.0462e-06	52.994	0.00012992	0.00012599	3.4867e-05	1301	1.354e-06	1.3622e-06	1318.5	357.56	1.3882e-06	1.3463e-06	400.47	133.86	114.89	40.066	1.3494e-06	49.212	197.938	97.908	47.022	0.974	183.105	279.207	1.245	5.813	117.193	127.485	4.951	9.862	10.519	14.499	103.659	13.818	-8191	255	
3325.057	1	1	0	0	0.2931	0.11066	0.10934	0.33204	0.1779	0.23876	0.22741	0.33483	0.060461	0.25777	0.040994	0.11037	0.16106	0.12706	0.12232	0.23598	-3.8042	-4.7729	-4.8396	-4.2042	-4.9979	-4.2562	-4.5667	-5.1833	-4.1125	-4.7917	-4.8417	-4.0896	-5.0854	-4.4688	-4.1521	-5.1146	57.610	288.485	158.114	-1.646	292.066	164.429	271.449	-6.179	280.703	41.881	318.397	1.400	265.134	19.346	184.576	176.919	0.00019068	0.00022265	9.3938e-05	1357.6	3.4433e-06	2.6373e-06	1361.8	374.52	5.3517e-06	3.7092e-06	425.12	142.38	123.06	42.366	1.8139e-06	52.828	0.00013058	0.00012251	3.4371e-05	1296.4	1.3619e-06	1.3746e-06	1317.9	358	1.4013e-06	1.3793e-06	400.09	134.16	114.93	40.078	1.3821e-06	49.262	220.265	113.009	66.709	0.879	170.961	75.549	1.195	5.861	180.713	109.911	5.085	9.947	10.039	14.331	120.265	13.592	-8191	255	
3325.153	1	1	0	0	0.19625	0.14637	0.069193	0.12789	0.064779	0.15581	0.14708	0.065123	0.17526	0.10886	0.094626	0.20266	0.14306	0.15643	0.12305	0.20128	-3.8083	-4.5563	-4.675	-4.2375	-4.9521	-4.425	-4.3938	-5.1583	-4.125	-4.5479	-4.8104	-4.2771	-4.8625	-4.6438	-4.2271	-5.0042	18.623	320.835	130.303	58.077	121.156	307.231	6.188	32.237	308.006	308.046	215.555	337.218	68.528	4.332	43.655	288.727	0.00030682	0.00033645	0.00011517	1363.3	4.9569e-06	6.3211e-07	1362	376.17	3.9532e-06	2.4416e-06	425.13	141.39	122.63	42.426	2.9758e-06	52.722	0.00013186	0.00012764	3.5117e-05	1298.6	1.4103e-06	1.3864e-06	1318.6	358.72	1.4093e-06	1.4008e-06	400.48	133.84	115.04	40.15	1.4094e-06	49.274	213.598	133.979	67.570	0.854	142.404	208.851	1.223	5.862	146.793	164.882	4.756	9.948	10.466	14.581	104.048	13.422	-8191	255	
3325.274	1	1	0	0	0.087468	0.16084	0.21595	0.21324	0.22679	0.20384	0.11847	0.134	0.19246	0.14977	0.27148	0.17239	0.29864	0.28153	0.14233	0.23095	-3.8479	-4.4146	-4.9208	-4.2312	-4.7958	-4.5354	-4.3438	-5.3021	-4.3083	-4.3833	-5	-4.1521	-4.7375	-4.6792	-4.1521	-5.1167	238.678	16.929	115.280	9.694	26.958	120.806	239.225	274.464	-11.366	78.433	261.983	46.280	332.703	252.150	17.494	280.624	0.00023348	0.00034941	0.00016819	1362.2	3.4968e-06	4.0225e-06	1360.2	374.69	9.9713e-07	2.5549e-06	425.05	141.33	122.91	42.472	5.5505e-06	52.327	0.00013221	0.00012812	3.537e-05	1301.1	1.4036e-06	1.4001e-06	1318.4	358.14	1.4046e-06	1.3955e-06	400.69	134.01	115.03	40.088	1.3843e-06	49.188	195.661	110.176	58.424	1.129	127.205	57.621	1.087	5.842	181.492	94.028	5.142	10.043	10.342	14.260	156.988	13.621	-8191	255	
3325.370	1	1	0	0	0.15261	0.035359	0.16118	0.21819	0.11019	0.090327	0.26032	0.18699	0.20228	0.029078	0.05842	0.29471	0.04859	0.092526	0.088663	0.11187	-3.9667	-4.1542	-4.8833	-4.1958	-4.7167	-4.7521	-4.2271	-4.9688	-4.3208	-4.2583	-5.0188	-4.1667	-4.5896	-5.0104	-4.0729	-4.8854	260.530	308.316	173.873	-0.847	224.259	43.115	323.525	287.549	54.344	46.588	200.567	264.970	250.408	275.870	65.560	334.867	0.00024764	0.00043505	0.00011508	1365	4.9807e-06	1.9147e-06	1361	373.46	3.4105e-06	6.53e-06	426.16	142.18	123.41	42.455	1.5453e-06	52.864	0.00013245	0.0001274	3.5675e-05	1299.8	1.3834e-06	1.3985e-06	1318.1	357.97	1.4137e-06	1.3829e-06	401.16	134.3	115	40.105	1.3851e-06	49.255	203.423	87.644	66.345	0.946	115.412	99.735	1.166	5.668	103.366	173.836	5.072	9.988	10.108	14.545	159.025	13.548	-8191	255	
3325.466	1	1	0	0	0.087093	0.28388	0.1706	0.1838	0.061327	0.099618	0.39716	0.27748	0.15908	0.079061	0.14245	0.16079	0.14736	0.2106	0.070889	0.092122	-3.9146	-4.25	-5.1604	-4.2812	-4.5312	-4.8167	-4.0917	-4.8958	-4.4521	-4.175	-5.1875	-4.3292	-4.6125	-4.8979	-3.8667	-4.8833	131.246	53.888	303.612	20.699	332.539	314.180	213.333	295.103	14.129	97.386	7.666	44.853	11.393	4.773	267.306	317.378	0.00021318	0.00045656	9.0283e-05	1365.6	2.8093e-06	2.1157e-06	1363.5	373.34	2.0512e-06	6.5949e-07	423.67	141.88	123.08	42.319	3.9018e-06	52.325	0.00013127	0.00012722	3.5065e-05	1301.6	1.3766e-06	1.3828e-06	1320.3	358.2	1.3818e-06	1.3789e-06	400.14	133.95	114.98	40.058	1.3869e-06	49.19	201.171	103.578	61.519	0.889	151.512	76.700	0.968	5.856	105.753	241.765	4.942	10.245	10.234	14.537	116.226	13.735	-8191	255	
3325.538	1	1	0	0	0.15712	0.090268	0.16287	0.17841	0.095372	0.14721	0.045992	0.33849	0.25859	0.16377	0.27091	0.1702	0.11068	0.27828	0.22509	0.033776	-4.2958	-4.0979	-4.9437	-4.3833	-4.3812	-4.8417	-4.2333	-4.7771	-4.7021	-4.1917	-5.0458	-4.45	-4.3	-5	-4.1229	-4.9292	55.260	301.069	262.476	-2.912	284.966	321.707	283.329	266.479	119.619	156.076	278.456	46.003	260.837	342.772	213.023	9.001	0.00022003	0.00026413	0.00011795	1364.5	3.1521e-06	5.1844e-06	1366.8	372.75	5.5446e-06	5.3126e-06	423.95	141.71	123.25	42.228	1.7226e-06	52.773	0.00012958	0.00012852	3.5553e-05	1300.5	1.3953e-06	1.3765e-06	1321.6	358.1	1.3934e-06	1.3815e-06	400.46	134.07	115.03	40.099	1.3945e-06	49.249	202.096	71.078	65.331	0.941	103.180	93.769	1.140	5.794	145.872	204.665	5.005	10.116	10.263	14.575	148.725	13.484	-8191	255	
3325.658	1	1	0	0	0.15583	0.11195	0.061814	0.2898	0.35324	0.1177	0.16931	0.092383	0.048564	0.21505	0.082384	0.14402	0.40395	0.22772	0.25461	0.20435	-4.4708	-4.0792	-4.9542	-4.3958	-4.1896	-5.0062	-4.1729	-4.7312	-4.8104	-4.0104	-5.0167	-4.5854	-4.3292	-4.9646	-4.0604	-4.4667	326.554	177.977	329.742	298.089	209.388	281.963	292.456	181.281	79.858	164.032	285.105	-3.269	320.424	82.668	16.057	338.254	0.00021524	0.00031627	7.4525e-05	1356.7	1.0656e-06	1.649e-06	1364.5	373	1.457e-06	4.5529e-06	426.23	141.35	122.56	42.285	4.3153e-06	52.7	0.00013115	0.00012762	3.5215e-05	1299.1	1.3881e-06	1.3711e-06	1319.7	357.51	1.3775e-06	1.3768e-06	400.03	133.91	114.67	40.111	1.3877e-06	49.228	218.009	96.866	43.372	0.979	153.201	72.663	0.979	5.720	261.105	132.905	5.129	10.092	10.271	14.162	107.787	13.549	-8191	255	
3325.754	1	1	0	0	0.29647	0.17776	0.15557	0.19467	0.11237	0.10637	0.0099975	0.10377	0.07616	0.20727	0.2056	0.17375	0.12417	0.19695	0.1037	0.13531	-4.5208	-4.0667	-4.9583	-4.7354	-4.2312	-5.1	-4.4646	-4.6396	-5.0042	-4.0021	-4.8854	-4.7104	-4.1271	-5.0292	-4.1458	-4.5771	291.814	231.367	215.037	336.067	40.566	120.535	42.395	306.552	252.507	109.969	292.430	253.314	122.467	3.749	307.417	-8.470	0.00026861	0.00065206	0.00012557	1361.9	2.6236e-06	1.7682e-06	1360.6	372.88	3.0011e-06	4.3497e-06	425.41	141.51	122.94	42.422	2.181e-06	52.869	0.00013044	0.00012969	3.5316e-05	1298.5	1.3909e-06	1.3731e-06	1316.5	357.72	1.3944e-06	1.4079e-06	400.62	133.88	114.74	40.136	1.3932e-06	49.191	201.916	105.994	49.606	0.984	134.621	90.287	0.963	5.550	111.685	91.212	4.840	10.284	10.044	14.251	147.290	13.330	-8191	255	
3325.851	1	1	0	0	0.11094	0.10615	0.18961	0.20562	0.09065	0.094758	0.1647	0.31386	0.061478	0.21983	0.10619	0.20717	0.16286	0.10952	0.098882	0.46539	-4.4979	-4.1417	-4.6146	-4.8854	-4.0583	-5.0375	-4.5979	-4.4896	-4.8479	-4.1521	-4.8083	-4.8917	-4.3	-5.1	-4.3833	-4.1979	112.857	61.503	320.066	21.436	179.657	105.193	336.631	325.159	171.381	166.674	63.788	314.854	296.369	112.840	92.189	334.062	0.00022817	0.00035366	6.0157e-05	1364.6	1.1927e-06	3.1435e-06	1364.2	374.11	4.8579e-06	3.9178e-06	425.53	142.11	122.57	42.419	5.4851e-06	52.876	0.00013119	0.00012828	3.5101e-05	1298.9	1.3951e-06	1.3831e-06	1319.3	358.05	1.4097e-06	1.3833e-06	400.74	133.99	114.76	40.087	1.3841e-06	49.289	208.323	83.998	119.306	0.828	114.472	81.464	1.220	5.486	143.883	67.485	5.035	10.083	10.099	14.320	132.690	13.289	-8191	255	
3325.947	1	1	0	0	0.03562	0.088877	0.11844	0.11617	0.22225	0.21871	0.18625	0.26877	0.13137	0.04522	0.32565	0.073927	0.1358	0.14402	0.14705	0.23209	-4.7979	-4.1896	-4.6083	-4.8667	-4.0813	-4.9563	-4.6896	-4.2292	-4.9917	-4.1146	-4.45	-4.7854	-4.2083	-4.8167	-4.5021	-4.3438	99.498	172.490	21.965	70.737	230.583	95.800	20.085	258.522	66.990	172.083	-5.236	39.188	301.573	29.689	167.910	347.474	0.00023583	0.00021164	0.00019994	1365.8	2.4663e-06	5.6867e-06	1362.6	374.16	4.6424e-06	3.1925e-06	423.96	142.14	123.28	42.531	2.9391e-06	52.741	0.00012983	0.00012708	3.5065e-05	1301.3	1.4198e-06	1.3886e-06	1318.5	357.85	1.3993e-06	1.3772e-06	399.79	133.9	114.85	40.163	1.395e-06	49.257	212.452	104.595	70.306	1.144	161.880	60.791	1.311	5.571	155.878	72.870	4.911	10.139	10.420	14.299	75.327	13.608	-8191	255	
3326.043	1	1	0	0	0.14373	0.067102	0.22904	0.26616	0.34945	0.075365	0.052564	0.28925	0.10917	0.21053	0.12033	0.083939	0.037242	0.29948	0.32495	0.11435	-4.7708	-4.2979	-4.3292	-5.0042	-4.0062	-4.7562	-4.8479	-4.1062	-4.9958	-4.275	-4.4625	-5.1438	-3.9979	-4.7	-4.6542	-4.0604	290.121	242.146	236.940	39.146	166.407	144.946	279.893	289.255	265.968	220.548	33.448	122.724	58.615	273.306	127.792	5.136	0.00021297	0.00054287	7.7342e-05	1367	3.1737e-06	4.1261e-06	1365.2	374.2	5.4727e-06	2.006e-06	425.56	141.42	123.03	42.454	3.4448e-06	52.872	0.00013317	0.00012848	3.5622e-05	1301.6	1.415e-06	1.3874e-06	1320	357.67	1.4049e-06	1.3884e-06	400.67	133.88	114.94	40.106	1.3847e-06	49.314	198.042	51.327	28.816	0.952	200.213	104.873	1.112	5.592	138.774	92.841	4.926	9.968	9.919	14.412	98.819	13.761	-8191	255	
3326.137	1	1	0	0	0.18206	0.2104	0.21184	0.16423	0.056495	0.13771	0.12822	0.21218	0.10808	0.043303	0.26924	0.06446	0.25893	0.13393	0.091803	0.42403	-4.5417	-4.3	-4.2396	-4.925	-4.1062	-4.6333	-4.9229	-4.0667	-4.9187	-4.4479	-4.35	-5.0771	-4.2083	-4.7083	-4.7688	-4.2188	256.765	224.084	339.014	70.190	72.013	100.506	300.403	346.680	159.158	167.413	318.887	261.472	30.897	338.574	210.798	291.076	0.00022619	0.00026653	6.4557e-05	1364.4	5.5739e-06	2.8774e-06	1363.8	373.38	3.2398e-06	4.7887e-06	425.58	141.8	123.27	42.472	6.6108e-06	52.701	0.00013281	0.00012873	3.5308e-05	1301	1.4055e-06	1.383e-06	1318.8	357.62	1.4015e-06	1.3903e-06	400.87	134.03	114.99	40.133	1.3968e-06	49.189	203.921	123.916	116.244	1.113	139.473	106.330	1.199	5.670	192.136	155.997	4.920	10.241	10.385	14.301	143.414	13.589	-8191	255	
3326.235	1	1	0	0	0.14277	0.19894	0.18158	0.27537	0.11252	0.21086	0.093284	0.25046	0.1353	0.075266	0.1456	0.063178	0.19328	0.23387	0.079767	0.18015	-4.6208	-4.5042	-4.1833	-5.0667	-4.1229	-4.4917	-4.9167	-4.2812	-4.7042	-4.575	-4.3208	-5.1104	-4.225	-4.4104	-5.0062	-4.0458	244.814	235.932	328.471	303.211	347.060	85.308	215.898	343.808	316.545	136.591	320.943	21.487	-10.394	333.891	77.187	338.042	0.00020607	0.00041965	0.00013689	1364.7	8.4324e-07	4.1721e-06	1363.8	374.63	1.5841e-06	3.0443e-06	424.69	141.82	122.77	42.388	2.4619e-06	52.758	0.00013239	0.0001266	3.5464e-05	1300.6	1.404e-06	1.3937e-06	1318.9	358.29	1.4053e-06	1.3747e-06	399.77	134.01	115.03	40.112	1.3642e-06	49.22	188.248	74.405	74.186	0.887	133.957	17.624	1.179	5.595	180.977	205.353	4.741	10.025	10.872	14.398	76.141	13.864	-8191	255	
3326.354	1	1	0	0	0.15505	0.24391	0.3563	0.12169	0.14383	0.058546	0.19935	0.3906	0.1375	0.1956	0.13354	0.10087	0.13374	0.29159	0.16058	0.24283	-4.3396	-4.7188	-4.1458	-4.8896	-4.2	-4.1896	-5.1042	-4.0917	-4.6521	-4.6333	-4.1458	-5.0604	-4.3833	-4.1583	-4.8688	-4.05	119.077	228.327	101.026	314.780	93.187	260.728	-4.100	304.329	259.324	107.247	235.244	284.267	347.343	337.841	183.429	288.609	0.00026479	0.00034693	0.000123	1368.3	1.7416e-06	2.4645e-06	1365.3	374.64	2.1586e-06	3.8128e-06	425.82	141.7	122.99	42.49	2.6442e-06	52.649	0.00012912	0.00012389	3.4684e-05	1301.7	1.37e-06	1.3611e-06	1318.8	357.84	1.3603e-06	1.349e-06	400.58	133.99	114.83	40.072	1.376e-06	49.171	216.232	109.779	69.781	0.885	225.443	343.978	1.099	5.722	145.914	136.641	4.882	10.115	10.232	14.632	149.562	13.747	-8191	255	
3326.450	1	1	0	0	0.073885	0.16538	0.079701	0.15799	0.1028	0.10999	0.17319	0.23762	0.090466	0.091535	0.064908	0.03641	0.23514	0.084905	0.18517	0.16731	-4.3187	-4.7979	-4.1604	-4.9979	-4.5042	-4.0687	-5.0917	-4.3063	-4.6021	-4.9396	-4.1875	-4.8604	-4.4854	-4.0458	-4.8438	-4.2083	159.074	317.066	4.462	320.561	336.342	303.551	272.449	342.340	84.732	226.583	259.788	143.912	311.108	-4.763	73.244	342.125	0.00018071	0.00017356	0.00010266	1357.8	4.6971e-06	6.0841e-06	1361.2	374.54	2.1629e-06	1.4782e-06	425.05	142.12	122.89	42.315	6.5835e-06	52.636	0.00013086	0.00012542	3.5123e-05	1297.6	1.3657e-06	1.378e-06	1316.6	358.06	1.3814e-06	1.374e-06	399.84	133.99	114.79	40.118	1.3711e-06	49.129	206.369	177.666	90.439	0.997	153.727	93.574	1.088	5.715	121.281	141.805	5.136	10.015	10.513	14.407	127.063	13.561	-8191	255	
3326.546	1	1	0	0	0.18885	0.1739	0.21482	0.34237	0.23038	0.12065	0.27859	0.1873	0.034732	0.22774	0.1804	0.098767	0.0068287	0.040223	0.26785	0.15163	-4.2771	-4.9271	-4.0271	-4.8187	-4.6062	-4.0312	-5.0479	-4.3458	-4.2875	-4.8958	-3.9854	-4.9437	-4.7854	-4.225	-4.9958	-4.4542	57.757	203.411	246.852	270.770	-4.237	290.252	255.091	120.093	123.649	114.729	-11.497	306.810	156.690	87.025	315.240	107.142	0.00019128	0.00033018	0.0001236	1362.6	5.3035e-06	5.5915e-06	1366.5	373.07	2.586e-06	3.0111e-06	424.82	141.7	123.12	42.378	3.0799e-06	52.735	0.00013012	0.00012584	3.5185e-05	1300.9	1.3785e-06	1.384e-06	1318.8	357.17	1.3703e-06	1.3647e-06	400.52	133.75	114.78	40.091	1.3743e-06	49.215	206.981	109.561	57.112	1.014	142.817	57.990	1.157	5.774	197.456	184.762	4.841	10.213	10.631	14.357	70.895	13.444	-8191	255	
3326.643	1	1	0	0	0.051516	0.13149	0.056561	0.12571	0.1735	0.17732	0.17636	0.081395	0.25118	0.12734	0.27724	0.040419	0.18179	0.26587	0.29837	0.097312	-4.0792	-4.9458	-3.9583	-4.75	-4.6896	-4.0771	-5.1375	-4.55	-4.1375	-5.0771	-4.1312	-4.6	-4.9417	-4.1583	-4.8896	-4.6958	78.732	49.628	84.009	2.317	311.311	283.391	296.196	248.049	118.093	306.892	235.266	13.458	269.219	23.080	269.671	-8.112	0.00026877	0.00021645	8.2431e-05	1361.6	2.8963e-06	2.6922e-06	1366.9	374.27	4.7056e-06	5.7829e-07	425.84	142.33	122.7	42.478	5.5358e-06	52.874	0.00013127	0.00012467	3.4823e-05	1299.8	1.3797e-06	1.3798e-06	1319.3	358.19	1.3867e-06	1.3625e-06	400.63	134.01	114.73	40.103	1.3781e-06	49.139	195.689	82.278	4.654	1.039	146.055	45.424	1.152	5.733	140.200	218.874	4.791	9.982	10.282	14.374	123.332	13.773	-8191	255	
3326.763	1	1	0	0	0.22536	0.067322	0.2925	0.29922	0.13138	0.17713	0.2152	0.12489	0.25638	0.20367	0.070216	0.14527	0.21825	0.2265	0.15677	0.11553	-3.9458	-4.9958	-4.0375	-4.6042	-4.7542	-4.0687	-5.025	-4.5833	-4.1104	-5.0208	-4.2667	-4.5271	-4.8771	-4.1708	-4.6771	-4.5875	105.436	161.646	60.154	322.409	49.524	43.284	271.269	272.066	182.987	74.973	310.908	182.203	277.353	37.236	194.892	-3.461	0.00026865	0.00025867	9.3871e-05	1365	3.4892e-06	8.1301e-06	1362	373.59	4.705e-06	5.0264e-06	425.1	142.57	123	42.204	4.7183e-06	52.608	0.00013038	0.00012708	3.484e-05	1299.7	1.3956e-06	1.3842e-06	1317.3	357.27	1.3889e-06	1.3786e-06	400.12	134	114.84	40.045	1.3624e-06	49.171	215.785	124.507	89.989	0.875	166.611	76.492	1.276	5.752	125.299	161.418	4.908	9.967	10.387	14.575	147.736	13.345	-8191	255	
3326.835	1	1	0	0	0.24237	0.11423	0.16458	0.15456	0.20244	0.21944	0.21542	0.12473	0.27822	0.045346	0.11341	0.12919	0.1636	0.20336	0.13863	0.10267	-3.6063	-4.8771	-4.1937	-4.5354	-5.0146	-3.9542	-4.8771	-4.8063	-4.0542	-4.8771	-4.3917	-4.3979	-4.9125	-4.1833	-4.6479	-4.8063	30.764	144.406	115.829	345.732	229.117	1.354	276.413	174.822	147.967	66.787	18.483	241.076	42.480	228.465	321.168	199.140	0.0002686	0.00030316	0.00015202	1360.1	3.5457e-06	3.0378e-06	1360.8	376.21	3.5638e-06	3.0304e-06	426.09	142.24	122.95	42.481	3.5053e-06	52.892	0.0001299	0.00012301	3.455e-05	1298.3	1.3635e-06	1.3514e-06	1317.6	358.36	1.3749e-06	1.3618e-06	400.52	133.92	114.87	40.125	1.3345e-06	49.187	192.604	101.150	86.682	0.792	191.081	67.317	1.139	5.804	145.670	159.523	5.142	9.917	10.276	14.336	141.886	13.725	-8191	255	
3326.955	1	1	0	0	0.10197	0.11854	0.10343	0.25178	0.1245	0.10964	0.21155	0.35586	0.055758	0.14024	0.28161	0.12802	0.34231	0.17454	0.087088	0.23052	-3.7979	-4.8542	-4.3854	-4.2167	-4.9583	-3.9938	-4.6729	-4.8812	-3.9646	-4.8625	-4.5104	-4.2104	-4.9229	-4.2729	-4.6021	-4.9354	262.492	249.736	341.249	291.625	10.991	37.215	197.525	328.007	131.891	156.076	296.792	327.615	307.457	329.081	228.714	243.502	0.0002705	0.00023085	0.00012659	1364.7	2.5635e-06	3.8098e-06	1362.4	374.82	3.9916e-06	5.1254e-06	424.26	142.2	123.06	42.363	6.1566e-06	52.792	0.00012961	0.00012202	3.4517e-05	1300.1	1.352e-06	1.3507e-06	1319.3	357.54	1.3654e-06	1.3321e-06	399.85	133.87	114.81	39.984	1.3515e-06	49.156	197.708	99.996	96.312	0.999	148.596	79.896	1.091	5.674	131.329	134.205	5.081	9.846	10.175	14.367	112.779	13.787	-8191	255	
3327.050	1	1	0	0	0.16363	0.12666	0.093382	0.23467	0.062533	0.17125	0.046137	0.0654	0.15381	0.15787	0.19638	0.019235	0.16302	0.14289	0.23299	0.067522	-3.8833	-4.7438	-4.5417	-4.2312	-5.0625	-4.2292	-4.5021	-5.0271	-3.8521	-4.5604	-4.7146	-4.2271	-4.9729	-4.5062	-4.4792	-4.975	-4.845	1.632	136.906	315.536	191.298	199.280	39.176	4.763	118.837	123.943	-4.229	314.676	261.242	311.885	11.963	297.613	0.00018429	0.00048616	9.6052e-05	1364	5.1639e-06	5.4657e-06	1364.7	373.88	5.4954e-06	5.1257e-06	425.64	141.5	122.86	42.394	4.5228e-06	52.65	0.00012605	0.00012236	3.4343e-05	1301	1.3419e-06	1.3593e-06	1319.4	357.68	1.343e-06	1.3259e-06	399.67	133.66	114.64	39.984	1.3211e-06	49.099	201.728	80.258	72.848	0.952	160.657	65.976	1.058	5.762	138.531	136.890	5.104	9.755	10.281	14.215	147.891	13.625	-8191	255	
3327.146	1	1	0	0	0.097876	0.10805	0.094121	0.15431	0.28777	0.017687	0.2429	0.017448	0.20448	0.10034	0.10882	0.31768	0.099456	0.27451	0.17516	0.26225	-3.5542	-4.7354	-4.7771	-4.1167	-5.0813	-4.4208	-4.3958	-5.1458	-4.1125	-4.6375	-4.8167	-4.1854	-5.0375	-4.55	-4.3354	-5.2	32.593	149.572	171.145	270.663	21.072	299.479	66.301	196.925	125.510	273.835	332.423	23.167	211.933	161.255	152.556	19.484	0.00029459	0.00017188	6.2683e-05	1361.5	2.7254e-06	3.4774e-06	1362.4	373.89	5.4799e-06	3.3968e-06	424.75	141.75	122.63	42.136	2.3431e-07	52.775	0.00012691	0.00012011	3.2918e-05	1297.3	1.3227e-06	1.2972e-06	1317.8	357.64	1.3141e-06	1.3202e-06	399.51	133.66	114.55	39.927	1.3004e-06	49.032	190.376	131.163	66.706	0.895	131.714	54.207	1.111	5.939	162.587	152.492	5.107	9.747	10.451	14.311	14.725	13.687	-8191	255	
3327.242	1	1	0	0	0.15032	0.19949	0.36891	0.093128	0.074448	0.1919	0.18857	0.11087	0.073171	0.16568	0.038217	0.082193	0.10692	0.17084	0.019922	0.2819	-3.7271	-4.5104	-4.85	-4.2354	-4.8896	-4.5208	-4.2438	-4.9563	-4.2083	-4.5521	-5.1146	-4.0708	-4.9042	-4.5604	-4.2021	-4.95	74.115	220.683	272.938	17.630	119.537	16.370	237.180	292.036	-5.954	240.625	110.250	295.714	-0.257	27.267	305.726	239.887	0.00020006	0.00036354	0.00012592	1365.4	4.2967e-06	4.6753e-06	1365.3	374.22	2.9288e-06	2.6388e-06	426.09	141.47	123.44	42.065	4.9019e-06	52.992	0.00012376	0.0001186	3.2927e-05	1299.8	1.2966e-06	1.2956e-06	1318.3	357.43	1.2864e-06	1.2645e-06	399.73	133.78	114.65	39.897	1.2673e-06	49.149	201.935	138.415	40.719	0.836	182.427	66.069	1.221	5.738	193.062	124.607	4.713	10.275	10.263	14.559	139.332	13.425	-8191	255	
3327.338	1	1	0	0	0.1801	0.083898	0.2361	0.21301	0.034613	0.11925	0.25314	0.13161	0.092859	0.20308	0.10134	0.10583	0.13251	0.14095	0.07437	0.28639	-4.0979	-4.3354	-4.9104	-4.0563	-4.6792	-4.6813	-4.3854	-5.1271	-4.3771	-4.4958	-4.9625	-4.1396	-4.7792	-4.7417	-3.9458	-5.0563	237.954	106.811	155.876	183.009	159.678	80.500	283.362	270.935	112.022	34.210	14.702	86.537	291.860	216.928	101.613	81.088	0.00030724	0.00023317	0.00010227	1364.3	3.3883e-06	2.4852e-06	1363.6	374.78	2.5931e-06	1.8535e-06	423.97	141.15	122.86	42.272	4.7631e-06	52.704	0.00011976	0.00011613	3.2083e-05	1297.6	1.263e-06	1.2633e-06	1317.7	357.68	1.2533e-06	1.2389e-06	399.24	133.62	114.84	39.923	1.2473e-06	48.951	200.660	95.331	346.127	0.830	184.070	113.366	1.052	5.629	172.682	141.502	5.005	9.686	10.172	14.515	71.951	13.652	-8191	255	
3327.434	1	1	0	0	0.098339	0.13931	0.21474	0.18735	0.18124	0.22069	0.28604	0.10046	0.13109	0.27276	0.32211	0.20553	0.35152	0.28991	0.14401	0.23057	-3.9167	-4.2708	-4.9812	-4.0979	-4.5396	-4.6562	-4.1521	-5.0042	-4.5208	-4.1438	-5.1083	-4.1813	-4.625	-5.0938	-4.0896	-4.9396	69.627	29.874	195.845	73.373	204.877	185.764	246.574	57.564	234.518	208.976	308.862	151.515	23.783	329.648	274.691	274.408	0.00021369	0.00017982	9.7631e-05	1356.6	3.8494e-06	4.0187e-06	1366.1	373.15	5.3915e-06	2.8066e-06	426.01	141.75	122.58	42.293	5.3461e-06	52.855	0.00011853	0.00011448	3.1223e-05	1295.8	1.2426e-06	1.2255e-06	1318.1	356.82	1.2452e-06	1.2253e-06	399.63	133.57	114.41	39.913	1.2246e-06	49.048	199.839	92.162	14.077	0.803	159.733	74.359	1.009	5.857	134.667	162.906	4.864	10.016	10.465	14.595	133.135	13.507	-8191	255	
3327.531	1	1	0	0	0.26009	0.28922	0.1612	0.15565	0.20736	0.12912	0.1338	0.13378	0.096184	0.076195	0.11432	0.25273	0.28812	0.068365	0.073369	0.11584	-4.1729	-4.2042	-4.8875	-4.3146	-4.4062	-4.8604	-4.2229	-4.8812	-4.5479	-4.2375	-5.0437	-4.2688	-4.2917	-5.0312	-4	-4.6979	291.518	145.856	170.414	47.969	124.218	75.371	317.323	4.039	185.723	5.999	257.100	11.446	215.862	330.947	65.382	2.336	0.00023929	0.00025704	9.6486e-05	1364.8	2.3296e-06	5.3077e-06	1364.4	373	4.4198e-06	3.5899e-06	426	141.57	123.38	42.321	2.5572e-06	52.696	0.0001171	0.00011322	3.0969e-05	1299.3	1.2259e-06	1.2104e-06	1318.1	356.96	1.2167e-06	1.2125e-06	399.34	133.5	114.63	39.938	1.2247e-06	48.971	197.552	126.084	38.909	0.803	145.585	84.457	1.041	5.584	151.846	127.868	5.044	10.069	10.173	14.589	69.527	13.797	-8191	255	
3327.627	1	1	0	0	0.10133	0.18504	0.18958	0.16576	0.27986	0.18738	0.19624	0.16053	0.14444	0.12744	0.16016	0.20004	0.21836	0.11261	0.07815	0.031908	-4.2333	-4.1042	-4.9125	-4.4167	-4.15	-4.9563	-4.3333	-4.7708	-4.7167	-4.1125	-4.85	-4.4146	-4.3667	-4.9354	-4.1458	-4.6979	97.134	93.861	129.210	328.097	249.303	79.753	299.796	18.696	46.343	99.397	128.887	231.347	259.287	68.756	117.649	250.198	0.00023927	0.0003432	4.5436e-05	1358.7	1.7322e-06	3.1091e-06	1358.9	373.27	1.1385e-06	3.5142e-07	424.94	141.72	123.38	42.388	1.9011e-06	52.671	0.00011628	0.00011067	3.087e-05	1296.7	1.2171e-06	1.2089e-06	1315.7	356.48	1.2157e-06	1.2134e-06	399.7	133.41	114.49	39.976	1.2019e-06	49.042	198.547	103.349	64.759	1.088	77.520	119.926	1.267	5.912	172.576	90.328	5.013	10.073	10.350	14.503	147.430	13.686	-8191	255	
3327.723	1	1	0	0	0.12044	0.22276	0.17073	0.13373	0.067681	0.1128	0.097313	0.17855	0.16314	0.076311	0.1827	0.2063	0.082225	0.13512	0.044012	0.063576	-4.575	-3.9708	-4.9083	-4.5167	-4.2958	-4.9354	-4.2771	-4.5083	-4.8292	-4.1333	-4.9187	-4.6479	-4.3208	-5.0375	-4.2146	-4.5396	132.002	40.468	92.231	6.837	284.227	213.152	332.521	-2.423	29.893	197.576	251.675	326.463	180.834	310.532	320.944	311.700	0.00025253	0.00027234	0.00010385	1366.4	3.0304e-06	2.9221e-06	1360.8	373.18	6.5421e-06	6.2596e-06	423.77	142.19	122.78	42.39	3.0925e-06	52.496	0.00011565	0.00011114	3.106e-05	1300.1	1.2163e-06	1.2143e-06	1316.4	356.93	1.2196e-06	1.2187e-06	399.26	133.54	114.5	39.966	1.1997e-06	48.985	215.277	104.460	117.161	0.849	173.172	83.397	0.967	5.738	147.435	162.028	5.124	9.986	10.162	14.377	125.147	13.542	-8191	255	
3327.844	1	1	0	0	0.15899	0.22106	0.095697	0.28708	0.066021	0.12845	0.17531	0.16751	0.17994	0.12474	0.12051	0.033828	0.16534	0.15265	0.11859	0.12609	-4.6646	-3.9062	-4.5833	-4.7604	-4.0687	-5.0479	-4.5583	-4.4667	-4.9396	-4.1188	-4.9104	-4.7625	-4.0333	-5.0958	-4.2771	-4.4313	95.632	119.349	308.997	344.608	77.854	319.924	252.844	304.484	190.142	291.761	242.850	305.032	182.498	338.260	57.256	179.483	0.00024384	8.7939e-05	8.813e-05	1366.5	1.11e-06	6.0621e-06	1365.9	374.89	3.6896e-06	6.5225e-07	425.37	141.63	123.07	42.462	4.2286e-06	52.555	0.00011573	0.00011184	3.069e-05	1299.6	1.2129e-06	1.2075e-06	1317.9	357.54	1.2195e-06	1.2096e-06	399.79	133.7	114.53	40.002	1.228e-06	49.024	201.894	61.976	49.250	1.070	137.029	65.837	1.133	5.711	140.406	81.022	4.898	10.350	10.366	14.474	139.471	13.461	-8191	255	
3327.938	1	1	0	0	0.18611	0.15705	0.10743	0.32171	0.12247	0.083354	0.16995	0.23515	0.077694	0.39638	0.28933	0.16446	0.15316	0.12735	0.1263	0.093987	-4.7604	-4.1438	-4.5104	-4.9333	-4.1708	-4.9292	-4.6021	-4.425	-5.0458	-4.25	-4.5854	-4.9042	-4.2063	-4.8771	-4.5021	-4.3063	-9.999	151.985	43.544	251.272	73.839	33.764	201.883	313.666	150.499	75.625	296.147	275.847	346.863	144.431	289.961	317.814	0.00025687	0.00035668	4.4833e-05	1367.3	1.741e-06	1.8281e-06	1363.8	374.06	2.2715e-06	3.2897e-06	425.56	141.86	122.99	42.348	2.0852e-06	52.685	0.00011595	0.00011214	3.1002e-05	1301.2	1.2174e-06	1.2156e-06	1318.5	356.99	1.2223e-06	1.2054e-06	399.73	133.7	114.5	39.947	1.2079e-06	48.972	193.257	124.425	106.434	1.179	173.003	80.971	1.236	5.672	133.465	136.743	4.872	9.998	10.309	14.191	28.480	13.452	-8191	255	
3328.036	1	1	0	0	0.1859	0.20266	0.1232	0.20051	0.081254	0.19505	0.15564	0.2016	0.1802	0.072956	0.21437	0.10322	0.1224	0.10273	0.17197	0.2038	-4.7312	-4.0479	-4.5229	-4.8958	-4.0563	-4.8167	-4.7896	-4.1229	-4.9042	-4.1813	-4.6354	-5.1292	-4.0479	-4.9417	-4.5062	-4.2146	27.505	201.096	-11.309	119.163	161.580	187.496	295.362	309.041	83.922	67.575	309.786	-7.186	76.663	298.118	327.403	326.077	0.00022588	0.00014664	0.00010192	1364.4	2.6548e-06	2.2975e-06	1366.9	372.9	4.1634e-06	4.1304e-06	425.34	142.18	123.06	42.222	1.9581e-06	52.946	0.00011336	0.00011109	3.0518e-05	1299.1	1.2126e-06	1.1931e-06	1321.4	356.68	1.1925e-06	1.1925e-06	399.62	133.59	114.49	39.924	1.2023e-06	49.016	204.093	124.399	67.601	0.997	158.494	82.206	1.196	5.782	123.037	91.228	4.945	10.044	10.358	14.668	34.770	13.539	-8191	255	
3328.130	1	1	0	0	0.069474	0.35123	0.071248	0.039964	0.14021	0.11715	0.21223	0.23323	0.13255	0.17372	0.12466	0.10745	0.069538	0.039811	0.27233	0.23676	-4.7479	-4.2896	-4.3521	-4.9854	-3.9146	-4.7021	-4.8583	-4.15	-4.9792	-4.3354	-4.4958	-4.9667	-4.2104	-4.6979	-4.6562	-4.1521	322.784	254.684	293.186	334.871	1.342	67.340	295.085	281.027	57.197	20.503	70.863	276.733	34.956	47.250	-0.116	88.159	0.00024395	0.00047544	5.919e-05	1370.5	2.6467e-06	3.3935e-06	1367.5	375.12	3.9437e-06	2.7595e-06	424.75	141.83	123.02	42.4	4.1353e-06	52.564	0.00011456	0.0001094	3.0651e-05	1300.6	1.2108e-06	1.1982e-06	1317.8	356.87	1.1964e-06	1.2035e-06	399.33	133.5	114.43	39.989	1.2112e-06	48.976	196.275	108.180	46.321	1.052	128.271	119.143	1.112	5.622	161.904	132.143	5.033	9.932	10.672	14.237	134.355	13.652	-8191	255	
3328.226	1	1	0	0	0.08974	0.069154	0.19524	0.37198	0.042041	0.2619	0.10267	0.25679	0.23247	0.071226	0.21414	0.19767	0.19086	0.094761	0.034234	0.11971	-4.5604	-4.2479	-4.1167	-5.0625	-4.0167	-4.7083	-4.9583	-4.0625	-4.7438	-4.5021	-4.3354	-5.0958	-4.2188	-4.3396	-4.7958	-4.1937	338.325	277.730	143.317	274.606	243.879	346.456	183.126	324.735	147.891	325.260	42.739	244.257	328.456	291.184	134.409	58.958	0.00021995	0.00035069	0.00012606	1371.2	3.9985e-06	3.5861e-06	1365.3	373.18	6.2456e-06	5.324e-06	424.54	141.78	122.92	42.259	3.0941e-06	52.933	0.00011402	0.00011057	3.0417e-05	1299.9	1.2049e-06	1.2037e-06	1318.4	356.47	1.2087e-06	1.2108e-06	399.05	133.64	114.51	39.965	1.1936e-06	49.009	190.723	104.292	52.012	1.038	187.840	150.911	1.063	5.351	167.929	93.179	4.878	10.257	10.082	14.308	147.042	13.538	-8191	255	
3328.323	1	1	0	0	0.059251	0.070613	0.078425	0.18043	0.12804	0.27144	0.29848	0.10831	0.081525	0.17982	0.26708	0.044	0.36002	0.030926	0.13524	0.08944	-4.4625	-4.5271	-4.2542	-5.0979	-4.2375	-4.4208	-4.9875	-4.1271	-4.6062	-4.4917	-4.2771	-4.9833	-4.0875	-4.2708	-4.8458	-4.0646	320.949	283.641	29.656	296.750	276.646	190.805	256.177	15.124	153.468	290.025	173.786	12.799	20.015	208.695	17.323	217.488	0.00020482	0.00038499	7.7197e-05	1359.4	2.6225e-06	6.5867e-06	1364.5	371.26	5.2453e-06	6.059e-07	425.28	141.53	122.74	42.356	2.1335e-06	52.788	0.00011422	0.00010925	3.0362e-05	1297.9	1.2152e-06	1.1962e-06	1319.1	356.07	1.1924e-06	1.1778e-06	398.97	133.47	114.28	39.883	1.1907e-06	49.026	213.579	108.701	70.573	0.947	92.841	42.431	0.958	5.526	162.815	312.532	5.187	10.065	10.279	14.267	118.777	13.472	-8191	255	
3328.443	1	1	0	0	0.25393	0.088103	0.10482	0.055152	0.15124	0.1866	0.099361	0.067345	0.0716	0.25102	0.084123	0.24078	0.14352	0.31532	0.037394	0.17009	-4.4062	-4.6083	-4.075	-5.1292	-4.2979	-4.2688	-5.0021	-4.1979	-4.6021	-4.7188	-4.1958	-4.85	-4.5062	-4.2979	-4.8625	-4.1979	294.557	66.570	144.704	7.443	9.299	216.189	290.450	26.991	26.435	152.680	336.086	299.039	79.332	282.195	169.844	311.340	0.00023176	0.00024124	6.803e-05	1369.2	2.7762e-06	2.6546e-06	1364.6	372.99	3.3306e-06	4.6872e-06	423.82	142.16	122.97	42.296	3.856e-06	52.716	0.00011595	0.00010886	3.092e-05	1300.7	1.2128e-06	1.203e-06	1319.8	356.54	1.1992e-06	1.1757e-06	399.11	133.51	114.39	39.846	1.1724e-06	48.907	202.846	114.440	98.382	1.058	142.995	96.012	1.130	5.526	138.320	85.703	5.044	10.240	10.554	14.169	105.697	13.450	-8191	255	
3328.539	1	1	0	0	0.22242	0.27015	0.12238	0.21912	0.065222	0.1145	0.097395	0.17327	0.20285	0.17575	0.18832	0.1695	0.094379	0.18932	0.14986	0.1346	-4.3313	-4.8667	-3.9562	-4.9062	-4.4104	-4.1708	-5.2542	-4.3792	-4.3021	-4.9396	-4.2333	-4.9604	-4.7646	-4.3667	-5.0479	-4.2833	319.945	123.186	20.611	314.060	184.112	34.548	275.606	249.136	124.987	3.612	64.627	34.846	19.294	141.373	232.056	77.737	0.00022371	0.00010222	7.3201e-05	1367.5	4.065e-06	3.2746e-06	1364.4	374.24	3.3395e-06	2.9165e-06	426.14	141.75	122.87	42.319	5.5634e-06	52.671	0.0001121	0.00010749	3.0202e-05	1298.2	1.1963e-06	1.1725e-06	1318.6	356.72	1.2018e-06	1.1763e-06	398.81	133.62	114.37	39.858	1.1868e-06	48.847	213.180	31.518	61.558	0.985	157.220	42.243	1.183	5.798	162.996	163.627	4.983	9.789	10.368	14.262	67.813	13.527	-8191	255	
3328.635	1	1	0	0	0.12106	0.1164	0.14153	0.16788	0.065845	0.13258	0.31134	0.22361	0.055958	0.16493	0.085373	0.13734	0.085568	0.069768	0.068637	0.18386	-4.0875	-4.8875	-3.9229	-4.8542	-4.5583	-3.9646	-5.2167	-4.3688	-4.3167	-4.9167	-4.1833	-4.775	-4.6937	-4.2167	-4.9417	-4.5396	90.372	206.317	172.955	321.819	42.378	303.297	301.064	17.442	-2.968	272.043	90.930	212.071	51.545	13.921	166.941	244.811	0.00024419	0.00022743	8.232e-05	1370.5	2.5542e-06	1.73e-06	1364.7	373.42	2.4862e-06	4.8572e-06	425.17	141.73	123.1	42.404	4.0554e-06	52.402	0.00011733	0.00010948	3.0354e-05	1301.3	1.1975e-06	1.1847e-06	1318.5	356.6	1.1891e-06	1.188e-06	398.74	133.52	114.35	39.891	1.1969e-06	48.864	198.386	178.666	42.661	0.841	137.134	70.501	1.252	5.851	120.119	103.213	4.926	10.177	10.415	14.378	102.374	13.705	-8191	255	
3328.732	1	1	0	0	0.21695	0.082726	0.062646	0.2539	0.1187	0.075212	0.13317	0.18219	0.13308	0.022287	0.2013	0.18184	0.15912	0.20127	0.11519	0.16027	-3.9042	-4.9729	-4.0125	-4.6813	-4.7833	-4.05	-5.0854	-4.6208	-4.275	-4.9021	-4.2354	-4.6625	-4.8562	-3.9938	-4.9292	-4.6771	250.608	315.719	267.773	328.166	117.170	162.156	319.186	286.771	214.750	85.688	311.198	336.492	52.926	49.515	324.424	204.925	0.00024637	0.00029254	5.376e-05	1363.3	1.2271e-06	2.6042e-06	1367	373.31	7.0368e-07	7.828e-07	424.92	141.89	123.22	42.293	1.8648e-06	52.596	0.00011658	0.00010762	3.0112e-05	1298.6	1.223e-06	1.1985e-06	1318.6	356.15	1.2098e-06	1.1878e-06	398.86	133.49	114.36	39.876	1.1765e-06	48.942	202.930	96.476	70.735	0.718	142.775	23.167	1.219	5.848	71.273	40.498	5.030	10.099	10.598	14.244	113.206	13.587	-8191	255	
#DATA ENDS
