BOXY.EXE: ISS Imagent and Oximeter Data Acquisition Program Version 0.80
Ascii Record File

#ACQ INFORMATION
2  Detector Channels 
16  External MUX Channels 
1  Auxiliary Channels 
5000  Waveform (CCF) Frequency (Hz)
1  Waveforms Skipped 
30  Waveforms Averaged 
1  Cycles Averaged 
16  Acquisitions per Waveform 
10.0806  Updata Rate (Hz) 

#FILE INFORMATION
TRUE -- External MUX Channel results are PARSED.
FALSE -- AC DC and Phase are NOT grouped.
TRUE -- Companion Program Settings File CREATED.
FALSE -- AC data not excluded
FALSE -- DC data not excluded
FALSE -- Phase data not excluded
FALSE -- Auxillary Chn. data not excluded
Tab delimiters

#CALIBRATION STATE
TRUE -- Waveform Calibration Values APPLIED.


#AUX CALIBRATION VALUES
Val Type	aux-1	

Term	1.0000e+00	
Factor	0.0000e+00	


#WF CALIBRATION VALUES
A = Detector Channel
Val Type	A-AC1	A-AC2	A-AC3	A-AC4	A-AC5	A-AC6	A-AC7	A-AC8	A-AC9	A-AC10	A-AC11	A-AC12	A-AC13	A-AC14	A-AC15	A-AC16	A-DC1	A-DC2	A-DC3	A-DC4	A-DC5	A-DC6	A-DC7	A-DC8	A-DC9	A-DC10	A-DC11	A-DC12	A-DC13	A-DC14	A-DC15	A-DC16	A-Ph1	A-Ph2	A-Ph3	A-Ph4	A-Ph5	A-Ph6	A-Ph7	A-Ph8	A-Ph9	A-Ph10	A-Ph11	A-Ph12	A-Ph13	A-Ph14	A-Ph15	A-Ph16	

Term	0.00000e+00	0.00000e+00	0.00000e+00	0.00000e+00	0.00000e+00	0.00000e+00	0.00000e+00	0.00000e+00	0.00000e+00	0.00000e+00	0.00000e+00	0.00000e+00	0.00000e+00	0.00000e+00	0.00000e+00	0.00000e+00	0.00000e+00	0.00000e+00	0.00000e+00	0.00000e+00	0.00000e+00	0.00000e+00	0.00000e+00	0.00000e+00	0.00000e+00	0.00000e+00	0.00000e+00	0.00000e+00	0.00000e+00	0.00000e+00	0.00000e+00	0.00000e+00	0.00000e+00	0.00000e+00	0.00000e+00	0.00000e+00	0.00000e+00	0.00000e+00	0.00000e+00	0.00000e+00	0.00000e+00	0.00000e+00	0.00000e+00	0.00000e+00	0.00000e+00	0.00000e+00	0.00000e+00	0.00000e+00	
Factor	1.00000e+00	1.00000e+00	1.00000e+00	1.00000e+00	1.00000e+00	1.00000e+00	1.00000e+00	1.00000e+00	1.00000e+00	1.00000e+00	1.00000e+00	1.00000e+00	1.00000e+00	1.00000e+00	1.00000e+00	1.00000e+00	1.00000e+00	1.00000e+00	1.00000e+00	1.00000e+00	1.00000e+00	1.00000e+00	1.00000e+00	1.00000e+00	1.00000e+00	1.00000e+00	1.00000e+00	1.00000e+00	1.00000e+00	1.00000e+00	1.00000e+00	1.00000e+00	X	X	X	X	X	X	X	X	X	X	X	X	X	X	X	X	

B = Detector Channel
Val Type	B-AC1	B-AC2	B-AC3	B-AC4	B-AC5	B-AC6	B-AC7	B-AC8	B-AC9	B-AC10	B-AC11	B-AC12	B-AC13	B-AC14	B-AC15	B-AC16	B-DC1	B-DC2	B-DC3	B-DC4	B-DC5	B-DC6	B-DC7	B-DC8	B-DC9	B-DC10	B-DC11	B-DC12	B-DC13	B-DC14	B-DC15	B-DC16	B-Ph1	B-Ph2	B-Ph3	B-Ph4	B-Ph5	B-Ph6	B-Ph7	B-Ph8	B-Ph9	B-Ph10	B-Ph11	B-Ph12	B-Ph13	B-Ph14	B-Ph15	B-Ph16	

Term	0.00000e+00	0.00000e+00	0.00000e+00	0.00000e+00	0.00000e+00	0.00000e+00	0.00000e+00	0.00000e+00	0.00000e+00	0.00000e+00	0.00000e+00	0.00000e+00	0.00000e+00	0.00000e+00	0.00000e+00	0.00000e+00	0.00000e+00	0.00000e+00	0.00000e+00	0.00000e+00	0.00000e+00	0.00000e+00	0.00000e+00	0.00000e+00	0.00000e+00	0.00000e+00	0.00000e+00	0.00000e+00	0.00000e+00	0.00000e+00	0.00000e+00	0.00000e+00	-6.52519e+01	-1.12272e+02	-1.40546e+02	-1.81760e+02	-6.76519e+01	-1.21665e+02	-1.56710e+02	-1.62015e+02	-7.69798e+01	-7.43317e+01	-1.71259e+02	-1.70793e+02	-1.83439e+02	-1.78028e+02	-8.90177e+01	-1.50152e+02	
Factor	1.93908e-05	8.47056e-05	2.70298e-05	2.28357e-01	9.52142e-07	1.06308e-06	1.77083e-01	6.50480e-02	1.16910e-06	1.01617e-06	9.54342e-02	3.47082e-02	3.35300e-02	1.00324e-02	1.07200e-06	1.43386e-02	6.12713e-07	6.25095e-07	1.73856e-07	1.09696e-01	6.82513e-09	6.83262e-09	8.13591e-02	3.12826e-02	6.82206e-09	6.81802e-09	4.37548e-02	1.58284e-02	1.56341e-02	4.75119e-03	6.80086e-09	6.48096e-03	X	X	X	X	X	X	X	X	X	X	X	X	X	X	X	X	



#DISTANCE SETTINGS
A = Detector Channel
A-1	A-2	A-3	A-4	A-5	A-6	A-7	A-8	A-9	A-10	A-11	A-12	A-13	A-14	A-15	A-16	

2.5000e+00	3.0000e+00	2.5000e+00	3.0000e+00	2.0000e+00	3.0000e+00	1.5000e+00	3.0000e+00	3.0000e+00	3.0000e+00	3.0000e+00	3.0000e+00	3.0000e+00	3.0000e+00	1.5000e+00	3.0000e+00	

B = Detector Channel
B-1	B-2	B-3	B-4	B-5	B-6	B-7	B-8	B-9	B-10	B-11	B-12	B-13	B-14	B-15	B-16	

1.0000e+01	1.0000e+01	1.0000e+01	1.4400e+00	1.0000e+01	1.0000e+01	1.5100e+00	1.9400e+00	1.0000e+01	1.0000e+01	1.9900e+00	2.4900e+00	2.4100e+00	2.9000e+00	1.0000e+01	2.9800e+00	




#DATA BEGINS
time	group	step	mark	flag	A-AC1	A-AC2	A-AC3	A-AC4	A-AC5	A-AC6	A-AC7	A-AC8	A-AC9	A-AC10	A-AC11	A-AC12	A-AC13	A-AC14	A-AC15	A-AC16	A-DC1	A-DC2	A-DC3	A-DC4	A-DC5	A-DC6	A-DC7	A-DC8	A-DC9	A-DC10	A-DC11	A-DC12	A-DC13	A-DC14	A-DC15	A-DC16	A-Ph1	A-Ph2	A-Ph3	A-Ph4	A-Ph5	A-Ph6	A-Ph7	A-Ph8	A-Ph9	A-Ph10	A-Ph11	A-Ph12	A-Ph13	A-Ph14	A-Ph15	A-Ph16	B-AC1	B-AC2	B-AC3	B-AC4	B-AC5	B-AC6	B-AC7	B-AC8	B-AC9	B-AC10	B-AC11	B-AC12	B-AC13	B-AC14	B-AC15	B-AC16	B-DC1	B-DC2	B-DC3	B-DC4	B-DC5	B-DC6	B-DC7	B-DC8	B-DC9	B-DC10	B-DC11	B-DC12	B-DC13	B-DC14	B-DC15	B-DC16	B-Ph1	B-Ph2	B-Ph3	B-Ph4	B-Ph5	B-Ph6	B-Ph7	B-Ph8	B-Ph9	B-Ph10	B-Ph11	B-Ph12	B-Ph13	B-Ph14	B-Ph15	B-Ph16	aux-1	digaux	

3365.344	1	1	0	256	0.069164	0.079482	0.15477	0.14587	0.18347	0.1434	0.22928	0.023209	0.064072	0.189	0.092807	0.29708	0.14594	0.10794	0.074335	0.35517	-4.5042	-3.8833	-4.5813	-4.9021	-4.0104	-4.8729	-4.6167	-4.3396	-4.9375	-4.0854	-4.6667	-4.9479	-4.1021	-4.9146	-4.5708	-4.225	64.727	110.788	52.265	338.523	119.529	104.252	312.780	-11.513	141.629	130.185	17.095	298.863	216.778	-9.892	92.932	21.270	0.00024837	0.00043625	5.6605e-05	1376.7	7.5015e-06	2.3909e-06	1369.2	374.72	4.0431e-06	4.5043e-06	427.9	143.45	124.07	42.647	6.6031e-06	52.755	0.00019492	0.00019312	5.3309e-05	1321.9	2.0711e-06	2.0742e-06	1335.5	361.8	2.0511e-06	2.088e-06	408.17	136.64	117.21	40.885	2.061e-06	49.877	212.612	96.341	104.127	0.637	131.732	138.375	0.844	5.616	221.104	194.724	4.761	9.715	10.011	14.040	117.820	13.257	-8191	255	
3365.465	1	1	0	0	0.21519	0.09963	0.037832	0.36459	0.077397	0.16426	0.19794	0.2329	0.1101	0.14012	0.24799	0.15807	0.1257	0.19149	0.20197	0.095403	-4.5854	-4.0375	-4.4396	-4.9958	-4.1083	-5.0458	-4.7583	-4.2271	-5.0625	-4.2375	-4.55	-5.0625	-4.1271	-4.9167	-4.6167	-4.4125	221.147	138.382	282.828	275.139	255.826	217.771	310.324	276.549	225.013	59.971	291.205	247.276	29.528	290.278	109.433	-0.096	0.00031605	0.00024302	7.905e-05	1370.7	6.0413e-06	3.3488e-06	1373	375	2.198e-06	1.9602e-06	428.72	143.5	123.72	42.594	4.9731e-06	52.911	0.00018693	0.00018838	5.2101e-05	1318.8	2.0454e-06	2.04e-06	1334.6	361.87	2.0232e-06	2.0423e-06	407.67	136.76	117.2	40.874	2.0582e-06	49.993	198.896	187.169	94.123	0.807	149.731	108.996	0.813	5.378	116.030	189.801	4.655	9.939	10.143	14.026	115.143	13.269	-8191	255	
3365.536	1	1	0	0	0.26079	0.013539	0.10347	0.21207	0.06339	0.18191	0.0089072	0.17748	0.05935	0.21437	0.28818	0.087356	0.089453	0.24807	0.10803	0.22781	-4.6937	-4.3812	-4.3667	-4.9625	-4.0938	-4.6979	-4.8562	-4.2063	-5.0458	-4.4458	-4.4146	-5.05	-4.1271	-4.7229	-4.7729	-4.2146	344.111	251.524	131.352	256.463	173.145	253.983	305.216	287.604	49.672	212.329	279.852	243.199	292.846	316.616	208.954	10.950	0.00025563	0.00033055	8.6837e-05	1370.6	3.1076e-06	2.8189e-06	1371.1	375.27	1.1291e-06	3.5476e-06	427.02	143.93	123.99	42.693	1.788e-06	52.876	0.00019033	0.00019265	5.2249e-05	1317.9	2.0974e-06	2.098e-06	1335.1	361.97	2.1099e-06	2.1616e-06	408.19	137	117.4	40.939	2.1382e-06	50.065	187.177	111.404	100.937	0.860	194.446	102.309	0.795	5.473	113.059	131.810	5.124	9.905	10.120	14.070	93.615	13.388	-8191	255	
3365.632	1	1	0	0	0.15192	0.087163	0.08642	0.092482	0.23221	0.087834	0.372	0.042841	0.13403	0.13884	0.23476	0.12495	0.097249	0.037941	0.079998	0.10871	-4.5146	-4.5083	-4.2438	-5.0792	-4.2083	-4.6458	-5.0062	-4.2917	-4.8771	-4.5521	-4.35	-5.1417	-4.3375	-4.7729	-4.7333	-4.1167	152.159	66.224	178.225	299.728	290.289	52.223	238.432	41.674	225.683	-6.913	278.924	70.294	142.876	158.259	128.851	232.270	0.00024949	0.00040602	7.7722e-05	1374.8	4.3571e-06	1.8438e-06	1373.3	375.24	6.0263e-06	5.3619e-06	428.55	143.48	124.04	42.901	3.6434e-06	52.884	0.00020165	0.00020011	5.4148e-05	1321.8	2.1874e-06	2.1788e-06	1336.8	362.65	2.2023e-06	2.1882e-06	408.63	137.19	117.6	41.028	2.0953e-06	50.117	218.730	109.747	107.608	0.669	207.173	92.063	0.928	5.408	164.153	120.633	4.917	9.862	10.032	14.229	146.446	13.298	-8191	255	
3365.728	1	1	0	0	0.065827	0.25917	0.20514	0.043861	0.053582	0.057749	0.19512	0.1232	0.031474	0.072013	0.03445	0.075634	0.10494	0.083547	0.21942	0.16123	-4.5312	-4.5125	-3.9229	-5.2937	-4.2438	-4.5271	-4.9896	-4.2521	-4.7667	-4.4792	-4.1354	-5.0396	-4.4271	-4.3375	-4.9104	-4.1438	13.910	165.420	129.022	216.273	241.889	191.772	264.476	333.250	280.158	252.634	100.791	12.114	-2.910	321.879	161.037	0.656	0.00028335	0.00051147	0.00019151	1374.1	4.1824e-06	2.4574e-06	1378.5	373.55	4.0627e-06	3.8794e-06	429.8	143.58	124.11	42.85	4.3112e-06	52.776	0.00019952	0.00019557	5.3651e-05	1322.4	2.1401e-06	2.1313e-06	1338.1	362.4	2.1368e-06	2.0953e-06	408.86	136.94	117.41	40.921	2.057e-06	50.054	176.693	89.112	72.224	0.824	119.993	39.936	0.865	5.423	159.735	145.213	4.894	9.789	10.021	14.003	90.944	13.488	-8191	255	
3365.849	1	1	0	0	0.12709	0.15583	0.20032	0.082159	0.16026	0.023588	0.16621	0.19652	0.062599	0.044522	0.17051	0.16116	0.12772	0.1389	0.052303	0.10124	-4.3896	-4.6333	-4.1687	-5.1208	-4.3562	-4.1875	-5.25	-4.2188	-4.5708	-4.7708	-4.0521	-5.1229	-4.5312	-4.2729	-4.9479	-4.2167	57.382	178.098	238.713	41.758	125.828	20.132	321.078	228.325	184.234	161.562	-1.751	279.319	289.379	123.412	99.452	78.839	0.00018622	0.00037053	0.00011553	1375.4	4.3894e-06	4.9743e-06	1369.4	374.37	1.7954e-06	2.7746e-06	428.52	143.08	123.66	42.668	4.5172e-06	52.675	0.00019694	0.00018902	5.2625e-05	1323	2.1148e-06	2.0713e-06	1335.1	361.84	2.1121e-06	2.0553e-06	408.21	136.97	117.35	40.966	2.093e-06	50.068	202.834	144.768	48.360	0.777	216.288	-2.821	0.810	5.582	100.079	122.845	4.771	9.508	10.011	14.106	152.558	13.413	-8191	255	
3365.945	1	1	0	0	0.080794	0.17689	0.090827	0.17647	0.081692	0.16101	0.14677	0.18396	0.12595	0.051744	0.20403	0.14343	0.26108	0.12327	0.15124	0.29197	-4.2458	-4.8604	-4.0417	-5.1604	-4.5563	-4.2	-5.35	-4.4042	-4.4583	-4.9083	-4.2958	-4.8313	-4.6708	-4.1146	-5.0542	-4.3313	327.940	128.278	6.761	-5.353	238.843	72.132	332.045	184.512	259.720	88.580	94.814	339.491	1.958	-10.065	289.017	-4.386	0.00027434	0.00032421	3.065e-05	1371.1	6.1423e-06	4.7529e-06	1373.7	374.7	6.4224e-06	5.4179e-06	427.3	143.32	123.47	42.741	4.2987e-06	52.917	0.00019782	0.0001926	5.4675e-05	1321.3	2.1652e-06	2.1332e-06	1338.5	362.13	2.1683e-06	2.1301e-06	408.1	136.94	117.37	40.937	2.1717e-06	50.161	197.209	36.584	100.652	0.518	137.538	80.282	1.066	5.395	203.573	44.142	4.721	9.680	9.953	14.189	160.846	13.315	-8191	255	
3366.041	1	1	0	0	0.10349	0.16914	0.11068	0.062766	0.11824	0.022824	0.11983	0.092302	0.051222	0.20201	0.035063	0.14124	0.1115	0.28614	0.24178	0.32758	-4.0792	-4.775	-3.9104	-4.8354	-4.4938	-4.0542	-5.2875	-4.4187	-4.3146	-4.8729	-4.2812	-4.7937	-4.8896	-4.1208	-4.9	-4.4062	3.776	214.678	58.036	75.219	332.571	165.407	248.113	20.854	89.748	166.415	252.501	334.222	277.021	253.943	290.132	160.177	0.00026846	0.00069655	0.00010024	1374.7	3.0927e-06	3.6417e-06	1372.3	375.5	4.3982e-06	4.3046e-06	430.2	142.69	124.93	42.659	1.2235e-06	52.702	0.00020153	0.00019838	5.6317e-05	1323.3	2.1977e-06	2.1797e-06	1339.7	362.86	2.1973e-06	2.1746e-06	409.44	136.84	117.62	40.969	2.1969e-06	50.085	214.603	98.345	129.788	0.574	174.671	92.707	0.900	5.591	136.296	88.531	4.792	9.680	10.044	13.954	84.561	13.315	-8191	255	
3366.160	1	1	0	0	0.32572	0.1189	0.087633	0.095703	0.081976	0.10582	0.22301	0.10243	0.081829	0.11673	0.28695	0.11523	0.20588	0.22508	0.17611	0.16499	-4.1271	-4.8187	-3.9729	-4.6625	-4.6125	-3.8625	-5.0375	-4.5896	-4.2063	-4.8938	-4.3208	-4.5021	-4.7792	-3.9771	-4.8125	-4.6562	280.948	146.060	192.141	272.699	41.815	4.965	310.982	230.775	-1.756	-1.674	337.565	25.297	249.328	177.009	87.727	286.898	0.00021468	0.00032951	5.2951e-05	1372.9	5.314e-07	5.0111e-06	1371	373.36	6.1819e-06	6.1692e-06	430.15	143.61	123.25	42.843	2.4524e-06	52.953	0.00020304	0.00020065	5.8005e-05	1322.5	2.2144e-06	2.2332e-06	1338.4	362.34	2.2321e-06	2.2459e-06	409.25	137.3	117.28	41.021	2.3352e-06	50.168	215.499	142.974	45.264	0.528	164.898	122.191	0.885	5.444	138.799	160.596	4.636	9.737	10.137	14.080	150.570	13.147	-8191	255	
3366.232	1	1	0	0	0.11087	0.14342	0.1177	0.037177	0.24033	0.10401	0.18509	0.25596	0.14307	0.098807	0.24544	0.3241	0.11063	0.13787	0.052006	0.1314	-3.7896	-5.1208	-4.0708	-4.4062	-4.8167	-4.1083	-4.95	-4.5583	-3.9979	-5.0229	-4.2333	-4.4938	-5.075	-4.2229	-4.7312	-4.6875	22.234	233.529	306.489	236.825	199.855	209.509	341.786	278.625	49.414	203.131	280.665	285.637	253.546	79.338	6.237	294.944	0.00029939	0.00049194	0.00017442	1370.5	3.5232e-06	3.9681e-06	1369.5	374.67	5.4927e-06	4.9748e-06	427.53	142.32	123.53	42.734	4.0152e-06	52.584	0.00021092	0.00020858	5.9567e-05	1322.1	2.2696e-06	2.3117e-06	1337.4	362.03	2.2514e-06	2.2678e-06	408.59	136.8	117.48	40.932	2.3165e-06	50.059	188.311	28.385	46.925	0.947	188.506	-0.983	0.805	5.425	169.820	202.506	4.642	9.888	10.062	13.936	129.600	13.586	-8191	255	
3366.328	1	1	0	0	0.088125	0.066047	0.043909	0.22748	0.097256	0.21107	0.040352	0.038762	0.25844	0.068078	0.093142	0.16387	0.22057	0.15265	0.21025	0.23495	-3.7583	-4.9708	-4.3583	-4.375	-4.8021	-4.0771	-4.8229	-4.8688	-4.0646	-4.9521	-4.4708	-4.3875	-4.9396	-4.0875	-4.575	-4.8104	320.802	171.557	221.252	313.322	65.143	195.737	213.976	229.883	-5.963	50.779	306.304	279.257	88.117	333.737	71.216	319.317	0.00020942	0.00033403	6.8589e-05	1370.4	3.7125e-06	3.4842e-06	1371.9	373.39	2.3041e-06	3.336e-06	427.69	143.27	123.69	42.672	2.9966e-06	52.571	0.00021237	0.00021334	6.0313e-05	1323.2	2.3081e-06	2.338e-06	1336	362.32	2.281e-06	2.2942e-06	407.99	136.9	117.21	40.875	2.258e-06	49.867	205.007	92.819	340.854	0.818	111.115	13.147	1.012	5.643	133.132	120.045	4.718	9.772	10.060	14.278	77.222	13.478	-8191	255	
3366.449	1	1	0	0	0.081578	0.1155	0.050866	0.13218	0.16812	0.041275	0.015607	0.22068	0.15102	0.15219	0.079587	0.24432	0.064595	0.09517	0.11932	0.08275	-3.7917	-4.8958	-4.4542	-4.4812	-5.0042	-4.0917	-4.6771	-4.9708	-3.8312	-4.9083	-4.4792	-4.2458	-5.0583	-4.25	-4.3604	-4.9771	131.799	95.525	289.551	27.354	175.687	135.812	256.327	338.102	208.580	273.651	218.245	46.676	167.762	25.453	255.467	256.285	0.00020365	0.00038002	5.7996e-05	1363.5	4.7645e-06	5.7636e-06	1367.4	374.66	1.7307e-06	5.7526e-06	428.83	143.54	123.26	42.439	2.862e-06	52.536	0.00020955	0.00020834	5.7441e-05	1318.8	2.2555e-06	2.2625e-06	1334.3	362	2.2808e-06	2.2652e-06	408.53	136.89	117.25	40.832	2.2485e-06	49.955	208.835	105.077	156.468	0.610	137.482	57.190	0.668	5.457	165.506	155.584	4.871	9.654	10.540	14.077	193.183	13.399	-8191	255	
3366.545	1	1	0	0	0.083535	0.062714	0.12298	0.16787	0.10757	0.10883	0.35982	0.28312	0.18623	0.11157	0.25665	0.27828	0.19303	0.067858	0.11703	0.29268	-3.6146	-4.7188	-4.5687	-4.0458	-5.0167	-4.2271	-4.6396	-4.9625	-4.0146	-4.7667	-4.7333	-4.2	-5.1167	-4.5167	-4.4042	-5.0938	87.162	238.848	30.142	258.070	37.693	89.834	273.325	291.063	76.962	254.977	251.574	257.128	103.040	332.867	221.838	4.477	0.00026657	0.00027675	8.6563e-05	1369.6	6.7843e-06	1.8231e-06	1366.1	375.19	6.3066e-06	4.255e-06	428.32	142.42	123.18	42.324	2.3414e-06	52.452	0.00021362	0.0002084	5.7745e-05	1321.4	2.3093e-06	2.325e-06	1333.2	362.3	2.3601e-06	2.3239e-06	408.05	136.54	117.41	40.707	2.2628e-06	49.905	204.265	144.282	113.230	0.771	194.394	292.698	0.948	5.677	139.086	171.876	4.697	9.781	9.966	14.274	50.795	13.260	-8191	255	
3366.641	1	1	0	0	0.30248	0.07565	0.055169	0.29317	0.10954	0.18907	0.2864	0.22535	0.15465	0.26113	0.26582	0.087542	0.12939	0.08177	0.11626	0.080662	-3.7354	-4.5437	-4.7438	-4.25	-4.8396	-4.3979	-4.2979	-4.9854	-4.1271	-4.5479	-4.7417	-4.1292	-4.9896	-4.4583	-4.1104	-4.9521	325.261	69.028	63.200	341.918	153.747	290.729	223.604	33.981	220.282	218.197	198.523	143.795	280.432	346.608	141.479	181.993	0.00026774	0.00037	4.391e-05	1369	3.9499e-06	2.4936e-06	1364.1	373.89	2.2734e-06	3.4839e-06	425.83	142.01	122.75	42.522	5.365e-06	52.42	0.0002153	0.00021047	5.7851e-05	1320.5	2.2779e-06	2.2601e-06	1329.6	361.44	2.2695e-06	2.2317e-06	406.44	136.31	116.77	40.674	2.1833e-06	49.752	211.969	47.275	96.356	0.660	113.121	332.558	0.907	5.598	177.725	84.151	4.802	9.470	10.226	14.093	34.445	13.645	-8191	255	
3366.737	1	1	0	0	0.22511	0.083574	0.1826	0.19347	0.052698	0.089168	0.099678	0.19494	0.27217	0.40551	0.11875	0.080423	0.25799	0.10471	0.078893	0.10126	-3.7917	-4.4875	-4.7646	-3.9792	-4.7396	-4.475	-4.3896	-5.1062	-4.175	-4.3812	-5.0062	-4.0271	-4.7854	-4.7104	-4.0083	-4.8854	227.284	228.385	258.226	339.102	-11.996	132.471	274.610	70.710	-9.283	251.372	270.059	118.739	290.066	123.515	10.820	15.039	0.00020824	0.00035817	6.1177e-05	1362.1	1.8978e-06	2.2698e-06	1364.8	373.45	5.3915e-06	4.6338e-06	423.65	141.69	122.63	42.12	3.5103e-06	52.526	0.00020697	0.00019661	5.3857e-05	1313.5	2.1684e-06	2.1279e-06	1329.1	360.51	2.1284e-06	2.0955e-06	404.78	135.78	116.47	40.448	2.0998e-06	49.76	202.945	121.470	-6.280	0.940	137.386	81.343	0.774	5.664	133.201	85.804	4.710	9.671	9.996	13.991	131.524	13.674	-8191	255	
3366.833	1	1	0	0	0.10174	0.15878	0.21591	0.33427	0.21187	0.22028	0.20414	0.17888	0.3401	0.062994	0.16485	0.12151	0.13398	0.19429	0.11374	0.30267	-3.8771	-4.3792	-4.8958	-4.1521	-4.7646	-4.7333	-4.0521	-5.1208	-4.3417	-4.1875	-4.9437	-4.1708	-4.8833	-4.8688	-4.1708	-4.8708	284.115	34.005	127.339	298.886	280.194	254.805	316.962	311.629	206.940	113.759	315.560	62.441	337.073	335.875	335.357	295.277	0.00015754	0.00015759	0.000146	1362.3	5.7094e-06	1.1058e-06	1358.6	373.96	5.937e-06	4.3773e-06	426.24	141.25	122.33	42.289	2.5776e-06	52.377	0.00020032	0.00019134	5.4638e-05	1311.8	2.1547e-06	2.117e-06	1325.8	360.88	2.1779e-06	2.1196e-06	405.82	135.54	116.24	40.508	2.1475e-06	49.605	188.175	181.929	92.752	0.777	133.495	39.051	0.734	5.407	172.584	166.250	4.707	9.795	9.912	14.146	184.407	13.500	-8191	255	
3366.929	1	1	0	0	0.15875	0.12358	0.078982	0.18515	0.1997	0.22667	0.30137	0.298	0.24492	0.16373	0.31478	0.15556	0.1764	0.058469	0.095337	0.037393	-3.9604	-4.275	-4.9208	-4.2375	-4.5875	-4.7708	-4.125	-5.0729	-4.35	-4.3083	-5.2271	-4.1937	-4.65	-4.8229	-3.9396	-4.7896	290.705	295.051	88.248	31.128	-10.098	263.913	197.442	289.304	29.632	145.566	207.905	276.641	1.150	111.046	20.400	56.707	0.00020308	0.00022958	0.00012638	1358.8	4.7117e-06	4.5686e-06	1363.1	372.17	2.9427e-06	4.6704e-06	425.07	141.4	122.59	42.051	4.1856e-06	52.341	0.00020001	0.00019371	5.4287e-05	1311.2	2.1184e-06	2.107e-06	1325.1	359.83	2.1104e-06	2.0937e-06	405.14	135.59	116.2	40.332	2.1338e-06	49.45	210.578	82.557	84.188	0.711	189.543	50.881	0.932	5.455	291.081	158.020	5.032	9.639	10.035	14.032	75.182	13.509	-8191	255	
3367.026	1	1	0	0	0.051097	0.20015	0.058835	0.33791	0.053754	0.11333	0.15172	0.21641	0.15532	0.045398	0.30715	0.10136	0.11554	0.17591	0.15042	0.24389	-4.1792	-4.2	-5.0729	-4.2708	-4.5875	-4.8021	-4.2063	-5.0125	-4.5292	-4.3042	-5.2146	-4.3729	-4.4417	-5.0604	-4.0771	-4.9396	319.702	164.602	269.863	-12.480	341.971	200.650	34.940	292.374	201.358	265.670	280.820	104.908	293.860	330.957	121.368	264.873	0.00024741	0.00012797	0.00011249	1355.5	3.9074e-06	1.2871e-06	1359.4	371.64	3.0412e-06	2.8423e-06	424.68	141.37	122.23	42.16	2.5674e-06	52.045	0.00019518	0.00018991	5.4129e-05	1309.1	2.1058e-06	2.0785e-06	1326.2	359.91	2.1206e-06	2.1444e-06	404.63	135.52	116.1	40.367	2.1821e-06	49.419	207.946	82.427	15.627	0.792	204.202	53.382	0.775	5.401	122.422	41.365	4.658	9.991	10.092	14.249	141.369	13.112	-8191	255	
3367.122	1	1	0	0	0.081068	0.2802	0.28326	0.2072	0.3079	0.14455	0.23094	0.20908	0.10308	0.17603	0.13532	0.3202	0.25745	0.084805	0.21329	0.070883	-4.3646	-4.1146	-4.9167	-4.3083	-4.2646	-4.9854	-4.1979	-4.7104	-4.8667	-4.15	-5.0708	-4.4875	-4.2375	-5.1396	-3.9104	-4.8146	33.507	136.718	78.180	287.319	295.131	174.780	-9.142	-6.785	288.570	162.371	244.806	260.354	308.908	53.740	36.342	3.805	0.00020288	0.00038755	6.2519e-05	1363.8	4.0569e-06	3.4339e-06	1362.9	371.19	8.5508e-07	3.7523e-06	423.18	141.22	122.54	41.788	5.8493e-06	52.028	0.00019796	0.00019786	5.4815e-05	1313.2	2.1151e-06	2.171e-06	1329.2	359.71	2.1412e-06	2.143e-06	404.51	135.21	116.11	40.284	2.158e-06	49.262	205.815	92.635	8.863	0.772	158.129	62.957	0.662	5.593	179.806	156.422	4.965	9.727	9.998	14.338	54.173	13.561	-8191	255	
3367.241	1	1	0	0	0.17892	0.14902	0.16763	0.14606	0.093261	0.15343	0.15523	0.27895	0.28541	0.035252	0.21193	0.16803	0.26083	0.18036	0.06146	0.19049	-4.5604	-4.0563	-4.8333	-4.6271	-4.1854	-4.9917	-4.2625	-4.6333	-4.875	-3.8771	-4.8958	-4.6375	-4.2479	-5.1125	-4.1417	-4.5229	133.710	222.039	248.632	302.980	324.387	139.563	285.357	326.553	316.105	254.454	147.758	239.541	278.451	294.526	261.020	303.264	0.00022809	0.00043851	0.00013162	1364	1.5623e-06	4.7254e-06	1363.5	371.06	9.7024e-06	6.9333e-06	423.38	141.04	122.62	41.923	2.6826e-06	52.25	0.00019652	0.00019581	5.4079e-05	1311.5	2.1182e-06	2.1192e-06	1325	358.78	2.0862e-06	2.1028e-06	403.16	134.9	115.86	40.206	2.083e-06	49.313	194.898	142.545	74.756	0.823	182.013	61.359	0.932	5.427	170.252	99.385	4.568	9.617	10.002	14.188	102.497	13.340	-8191	255	
3367.337	1	1	0	0	0.055646	0.04549	0.20576	0.25038	0.26412	0.22168	0.26862	0.16726	0.23491	0.060286	0.20371	0.38455	0.1443	0.040652	0.056348	0.16085	-4.4958	-3.9854	-4.7188	-4.65	-4.0813	-5.0833	-4.3979	-4.35	-4.9833	-4.0083	-4.7708	-4.6417	-4.0875	-5.0333	-4.2042	-4.425	49.164	225.879	283.514	301.222	214.170	50.520	226.012	259.820	83.323	311.355	235.484	262.113	328.802	52.279	67.577	241.693	0.00023415	0.00032474	3.9787e-05	1358.8	2.9974e-06	4.1822e-06	1357.4	371.18	7.0438e-06	2.4333e-06	421.61	141.21	121.19	42.111	4.9722e-06	51.883	0.00019145	0.00019182	5.1974e-05	1306.6	2.0811e-06	2.0797e-06	1321.5	358.55	2.0531e-06	2.0744e-06	402.07	135	115.44	40.136	2.0454e-06	49.109	218.867	90.327	5.276	0.603	198.292	97.191	1.010	5.316	127.754	143.615	4.507	9.898	10.077	13.990	102.967	13.634	-8191	255	
3367.410	1	1	0	0	0.20827	0.24046	0.21289	0.080061	0.10839	0.097428	0.10096	0.24391	0.059224	0.12751	0.12893	0.2133	0.067075	0.10046	0.029991	0.043631	-4.6312	-4.0437	-4.7271	-4.7979	-4.0208	-4.8146	-4.6771	-4.4437	-4.8833	-4.0833	-4.6771	-4.8438	-4.0687	-4.9375	-4.4729	-4.3104	161.690	307.351	268.130	294.539	126.777	-9.849	261.339	259.382	328.134	75.074	323.855	15.479	246.820	8.529	157.196	-9.697	0.00020825	0.00051621	4.5448e-05	1354.8	2.7929e-06	5.6658e-06	1362.3	372.19	3.8824e-06	8.7697e-07	423.21	141.66	122.34	41.893	1.6932e-06	51.688	0.00019132	0.00018956	5.1293e-05	1307.8	2.0761e-06	2.0321e-06	1322	358.03	2.0544e-06	2.0514e-06	402.43	134.61	115.56	40.145	2.0102e-06	49.066	202.300	71.884	322.092	0.574	123.029	104.079	0.808	5.548	132.719	61.594	4.820	10.060	10.253	13.697	150.619	13.374	-8191	255	
3367.529	1	1	0	0	0.24125	0.011887	0.21239	0.20757	0.10532	0.08909	0.4076	0.29516	0.10907	0.16698	0.089326	0.18175	0.10321	0.16778	0.10138	0.19537	-4.7063	-4.2188	-4.4104	-4.8562	-3.8563	-4.85	-4.7312	-4.2229	-4.8146	-4.2292	-4.5896	-4.8958	-4.1062	-4.9417	-4.5437	-4.1562	4.662	107.105	1.799	11.731	340.947	53.844	312.601	288.750	111.219	236.027	227.539	297.521	342.953	58.183	180.272	205.730	0.00023741	0.00012505	3.8933e-05	1354.8	3.6717e-06	1.9757e-06	1356.9	371.93	4.5651e-07	2.0212e-06	423.7	141.1	121.48	41.801	3.6163e-06	51.806	0.00019018	0.00019059	5.1331e-05	1304	2.0864e-06	2.024e-06	1319.4	358.11	2.0628e-06	2.0173e-06	402.49	134.76	115.3	40.051	2.0373e-06	49.028	194.425	15.176	293.619	0.710	156.126	110.474	0.851	5.479	161.640	35.835	4.754	9.764	10.059	14.026	142.214	13.158	-8191	255	
3367.625	1	1	0	0	0.19431	0.16273	0.18217	0.36615	0.17795	0.16654	0.2714	0.19703	0.2673	0.14992	0.21683	0.14018	0.097239	0.12677	0.23125	0.097383	-4.5813	-4.1833	-4.2896	-4.9583	-3.9688	-4.7833	-4.8604	-4.2479	-4.825	-4.4167	-4.4792	-5.1229	-4.15	-4.7688	-4.6604	-4.0875	38.151	61.974	326.735	283.646	310.444	324.890	308.260	317.352	328.086	72.995	127.618	219.957	236.389	330.340	154.549	17.907	0.00018455	0.00055072	2.3945e-05	1360.9	1.5441e-06	1.1218e-06	1356	370.28	5.7705e-06	2.7025e-06	423.62	140.55	121.7	41.859	6.0658e-06	52.059	0.00019483	0.00018828	5.2038e-05	1307.1	2.0887e-06	2.0207e-06	1319.8	357.92	2.0212e-06	2.0052e-06	401.71	134.34	115.29	40.04	1.9948e-06	49.072	222.989	59.993	29.818	0.631	245.258	215.931	0.997	5.542	206.219	108.497	4.832	9.804	10.175	14.053	115.729	13.257	-8191	255	
3367.721	1	1	0	0	0.035801	0.13619	0.2385	0.26885	0.13252	0.17818	0.30746	0.050688	0.095302	0.10234	0.12486	0.14459	0.051476	0.087255	0.041814	0.18914	-4.5292	-4.2312	-4.2167	-5.0708	-4.0437	-4.5	-4.8917	-4.1771	-4.8667	-4.6417	-4.1625	-5.2167	-4.2063	-4.6917	-4.9187	-4.0625	238.836	103.076	260.771	298.043	231.479	342.476	-2.947	236.395	-0.716	17.022	41.963	223.395	16.774	244.249	267.875	6.625	0.00024156	0.00025866	9.0416e-05	1353.3	3.0873e-06	3.0891e-06	1351	368.2	5.1402e-06	4.4452e-06	419.28	140.6	121.27	41.703	2.9162e-06	51.741	0.00018436	0.00018034	4.9723e-05	1302.9	1.9894e-06	1.9316e-06	1314.6	356.2	1.943e-06	1.9222e-06	399.38	134.24	114.8	39.882	1.8971e-06	48.865	210.770	87.102	-3.161	0.731	159.786	110.348	1.033	5.257	165.999	162.487	4.691	9.910	9.988	14.302	140.741	13.394	-8191	255	
3367.842	1	1	0	0	0.10649	0.04467	0.057948	0.063709	0.048142	0.10048	0.32079	0.06678	0.23273	0.064425	0.068644	0.088146	0.1375	0.30662	0.045591	0.18047	-4.5958	-4.4833	-4.0333	-5.0646	-4.2479	-4.45	-5.0458	-4.1708	-4.7792	-4.5917	-4.1937	-5.0521	-4.3479	-4.4625	-4.8292	-4.1	283.944	316.162	98.955	298.423	31.662	188.656	288.155	249.748	304.463	64.811	296.145	19.831	272.937	336.514	248.282	287.854	0.00030743	0.00034888	1.9111e-05	1345	2.1075e-06	3.8533e-06	1352.7	369.53	3.8263e-06	2.1998e-06	422.91	140.01	121.19	41.727	1.6207e-06	51.486	0.00017673	0.00017324	4.8596e-05	1296.7	1.9207e-06	1.879e-06	1314.4	356.2	1.8804e-06	1.8652e-06	400.42	133.74	114.66	39.849	1.906e-06	48.676	204.612	52.911	179.064	0.788	193.288	97.536	1.015	5.424	170.622	119.303	4.707	9.957	10.130	13.765	174.463	13.310	-8191	255	
3367.936	1	1	0	0	0.1079	0.14313	0.086916	0.24958	0.21184	0.0065686	0.014645	0.081146	0.032476	0.035228	0.06407	0.10086	0.1524	0.18175	0.35985	0.075581	-4.5	-4.6687	-4.1229	-5.1104	-4.35	-4.4187	-5.0708	-4.2083	-4.6125	-4.8896	-4.2208	-5	-4.4854	-4.3417	-5.0521	-4.1312	287.267	86.833	328.509	263.259	154.584	270.508	125.333	21.510	106.277	269.607	239.421	115.152	20.527	343.199	184.969	280.836	0.0002368	0.00043851	0.00014966	1348.2	2.0532e-06	2.4815e-06	1345.5	369.88	3.9999e-06	2.4191e-06	422.74	139.89	121.98	41.843	1.8791e-06	51.525	0.00017594	0.00017187	4.8357e-05	1294.4	1.9007e-06	1.8735e-06	1309.8	356.34	1.8729e-06	1.8902e-06	400.35	133.67	114.58	39.826	1.8837e-06	48.703	206.131	72.654	71.715	0.751	128.098	127.438	0.904	5.406	192.746	113.564	4.556	9.566	9.956	14.044	69.000	13.220	-8191	255	
3368.033	1	1	0	0	0.2052	0.13339	0.20197	0.083279	0.3521	0.13224	0.31538	0.11458	0.081813	0.082303	0.11398	0.18029	0.060342	0.11456	0.22741	0.28265	-4.2667	-4.7333	-4	-5.15	-4.4563	-4.0958	-5.2958	-4.1854	-4.4313	-4.8458	-4.1729	-4.8354	-4.55	-4.4521	-5.0188	-4.2	326.796	291.197	91.225	294.145	50.587	45.361	250.545	297.189	117.287	319.331	200.131	334.328	206.181	267.341	23.793	59.725	0.00019356	0.00025548	7.1859e-05	1352.7	3.7158e-06	1.0939e-06	1349.3	368.95	2.0022e-08	3.4694e-06	419.94	140.45	121.71	41.66	4.1848e-06	51.688	0.00017214	0.00017066	4.786e-05	1296.2	1.8757e-06	1.8849e-06	1310.2	355.58	1.8525e-06	1.8705e-06	399.19	133.7	114.45	39.79	1.859e-06	48.646	206.399	55.606	126.551	0.581	183.851	84.419	0.802	5.505	339.584	90.762	4.813	9.870	10.022	14.526	74.788	13.413	-8191	255	
3368.130	1	1	0	0	0.1337	0.20415	0.1488	0.090252	0.055402	0.034258	0.28917	0.11489	0.061076	0.14402	0.18451	0.21243	0.090615	0.1017	0.13877	0.1199	-4.1771	-4.7708	-4.2	-4.8667	-4.6208	-4.1146	-5.1542	-4.3021	-4.4354	-5.075	-4.3146	-4.8646	-4.7562	-4.2479	-5.0125	-4.4333	-1.955	18.450	-8.178	223.882	18.728	221.842	331.111	76.327	98.356	48.410	297.351	309.916	26.064	37.743	270.510	320.274	0.00022922	0.00051805	9.5919e-05	1343.9	3.1254e-06	2.2639e-06	1346	366.67	4.8229e-06	4.183e-06	421	140.44	120.5	41.616	3.9535e-06	51.523	0.00017033	0.0001686	4.7454e-05	1292.4	1.8399e-06	1.8535e-06	1308.6	354.33	1.8438e-06	1.846e-06	398.39	133.65	114.16	39.771	1.8379e-06	48.737	203.793	142.056	97.169	0.747	178.296	113.848	0.869	5.606	163.575	191.221	4.707	9.751	10.049	13.862	174.344	13.663	-8191	255	
3368.225	1	1	0	0	0.098436	0.16217	0.092612	0.21136	0.13395	0.12093	0.10026	0.23809	0.38668	0.2149	0.082338	0.18042	0.052065	0.093361	0.19972	0.082727	-4.0958	-4.9688	-4.1	-4.8021	-4.5625	-4.1188	-5.1312	-4.6042	-4.2292	-4.9917	-4.3271	-4.6208	-4.8229	-4.2208	-4.8646	-4.625	175.061	303.963	74.269	232.034	75.524	341.124	340.550	201.067	193.265	180.896	154.890	316.445	-0.264	154.702	156.112	156.415	0.00029259	0.0001121	0.00010035	1343.7	5.0904e-06	1.8741e-06	1347.5	369.64	9.1196e-07	5.4951e-06	419.26	139.97	121.01	41.703	5.2168e-06	51.562	0.00017381	0.0001685	4.7057e-05	1291.4	1.8292e-06	1.8531e-06	1309.6	355.3	1.8648e-06	1.8443e-06	398.24	133.18	114.32	39.812	1.8038e-06	48.575	213.775	68.174	42.768	0.700	161.845	50.740	0.678	5.456	246.232	62.549	4.779	9.581	10.308	14.148	158.267	13.182	-8191	255	
3368.321	1	1	0	0	0.22723	0.060136	0.057448	0.069866	0.29711	0.12575	0.13909	0.20338	0.099725	0.23125	0.10365	0.26301	0.13631	0.13427	0.21786	0.27826	-3.8063	-4.85	-4.1875	-4.5687	-4.8125	-3.9146	-5.1104	-4.6729	-4.1813	-4.9792	-4.3771	-4.5292	-4.9208	-4.175	-4.9437	-4.7542	137.396	28.762	243.665	14.590	310.228	2.324	236.644	328.437	119.304	17.470	252.151	331.646	269.238	64.818	225.717	345.931	0.00015219	0.00028572	3.0755e-05	1346.7	2.5664e-06	3.7611e-06	1343.6	368.97	3.9712e-06	5.2041e-06	419.68	139.79	120.91	41.636	3.0383e-06	51.655	0.00017085	0.00016514	4.5728e-05	1290.2	1.8187e-06	1.8184e-06	1304.3	354.91	1.8121e-06	1.7918e-06	397.6	133.24	114.05	39.649	1.7641e-06	48.561	192.370	185.477	53.547	0.660	111.800	109.267	1.045	5.551	157.075	150.480	4.754	9.791	10.033	14.029	93.363	13.483	-8191	255	
3368.417	1	1	0	0	0.15384	0.21385	0.095916	0.010463	0.17831	0.1989	0.18611	0.13938	0.12606	0.11098	0.054885	0.19671	0.045068	0.16711	0.10735	0.38726	-3.8458	-4.9708	-4.2667	-4.6458	-4.8667	-4.1521	-4.8854	-4.7896	-4.2063	-5.0271	-4.4104	-4.3229	-5.0667	-4.1	-4.9542	-4.95	104.886	145.056	10.377	326.956	183.888	94.758	278.850	257.366	86.393	158.561	42.453	274.571	191.895	318.585	55.473	310.058	0.00021634	0.00031883	8.8601e-05	1346.6	3.128e-06	3.6515e-06	1343.5	369.33	3.2544e-06	2.2283e-06	420.28	140.02	121.23	41.621	3.4214e-06	51.696	0.00017011	0.00016308	4.4808e-05	1288.6	1.8059e-06	1.781e-06	1304.1	354.18	1.8089e-06	1.739e-06	397.88	133.08	114.14	39.631	1.765e-06	48.519	193.298	118.433	74.984	0.668	160.654	59.423	0.901	5.442	126.048	169.995	4.849	9.446	9.698	13.927	120.888	13.441	-8191	255	
3368.538	1	1	0	0	0.029314	0.14378	0.16261	0.030045	0.21068	0.11499	0.24323	0.094434	0.095062	0.17361	0.23627	0.046997	0.090373	0.1859	0.14775	0.23545	-3.7604	-4.9667	-4.4104	-4.4021	-5.0104	-4.1354	-4.8125	-4.9125	-4.0104	-4.925	-4.5583	-4.3354	-5.0417	-4.25	-4.6271	-5.0583	99.883	133.441	255.899	300.987	317.236	299.061	297.250	281.544	263.585	210.816	330.141	338.279	73.162	11.138	333.029	65.194	0.00023995	0.0001935	5.622e-05	1343.5	3.7894e-06	5.4051e-06	1339.5	367.52	2.6523e-06	7.3336e-06	418.55	139.25	120.81	41.613	3.7192e-06	51.217	0.00016783	0.00015961	4.4664e-05	1287.6	1.7685e-06	1.7452e-06	1301.1	353.37	1.7524e-06	1.6992e-06	396.49	132.77	113.89	39.535	1.7038e-06	48.318	204.143	147.257	63.205	0.565	125.467	80.070	0.880	5.689	99.291	109.061	4.670	9.662	10.114	14.088	100.330	13.625	-8191	255	
3368.634	1	1	0	0	0.18203	0.057442	0.19709	0.21474	0.067605	0.15943	0.25803	0.16884	0.10577	0.12942	0.044349	0.22288	0.10415	0.084526	0.25372	0.21468	-3.8312	-4.7688	-4.4833	-4.2542	-4.8958	-4.3458	-4.7458	-4.9062	-3.9313	-4.8958	-4.8917	-4.2146	-5.0979	-4.3562	-4.4146	-5.2021	344.307	65.266	39.012	335.713	238.015	83.770	251.610	323.124	269.745	207.720	294.187	290.716	236.540	-0.942	322.787	8.240	0.00027703	0.00033667	0.0001307	1341.7	1.6127e-06	3.5607e-06	1337.8	366	5.3527e-06	2.1282e-06	418.87	139.6	121.08	41.467	5.68e-06	51.591	0.00016433	0.0001589	4.4093e-05	1284.3	1.7422e-06	1.7459e-06	1300.2	352.67	1.7588e-06	1.7084e-06	396.56	132.83	113.83	39.53	1.7441e-06	48.453	203.664	103.528	84.934	0.639	129.879	96.158	0.866	5.510	100.023	99.099	4.828	9.817	10.067	14.154	116.050	13.452	-8191	255	
3368.706	1	1	0	0	0.11453	0.25093	0.15533	0.21847	0.2156	0.10199	0.11939	0.091167	0.17301	0.13704	0.021392	0.060073	0.061117	0.27105	0.23697	0.14424	-3.9229	-4.7021	-4.8167	-4.2458	-5.0667	-4.3187	-4.6	-5.0583	-4.05	-4.7292	-4.9417	-4.1	-5.0646	-4.575	-4.1583	-5.0687	-1.564	233.167	347.522	293.942	233.525	234.905	211.341	308.160	246.030	90.133	-0.088	300.797	121.610	68.678	276.755	45.459	0.00022471	0.00040592	9.3721e-05	1336.7	5.2205e-06	4.2228e-06	1337	366.74	5.6407e-06	2.7152e-06	418.89	139.66	120.64	41.743	2.9218e-06	51.303	0.00016558	0.00015656	4.4417e-05	1285.4	1.7584e-06	1.7335e-06	1300.4	352.61	1.7686e-06	1.7161e-06	396.56	132.72	113.61	39.591	1.7733e-06	48.328	217.732	72.279	86.294	0.782	157.628	129.972	0.852	5.553	193.454	198.314	5.013	9.815	10.541	14.312	67.589	13.704	-8191	255	
3368.802	1	1	0	0	0.13624	0.20785	0.065111	0.27481	0.1524	0.18113	0.34501	0.33878	0.029402	0.17647	0.13995	0.22851	0.082787	0.039503	0.073024	0.097416	-3.8958	-4.55	-4.7042	-4.2063	-4.8604	-4.3271	-4.3979	-5.1146	-4.1333	-4.45	-4.8646	-4.0542	-4.8646	-4.6375	-4.1771	-5.0354	23.900	331.865	321.544	289.089	82.533	52.780	310.574	276.677	198.534	290.696	219.847	346.104	240.340	95.663	206.548	19.699	0.00020776	0.00064607	9.5117e-05	1332.7	3.9705e-06	4.6038e-06	1337	367.93	4.4226e-06	2.8979e-06	418.09	139.72	120.86	41.5	4.7757e-06	51.439	0.00016228	0.000157	4.4828e-05	1281.8	1.7291e-06	1.7334e-06	1298.6	353.14	1.7538e-06	1.7501e-06	396.31	132.8	113.79	39.565	1.7903e-06	48.411	200.755	96.883	49.146	0.765	148.103	72.617	0.895	5.457	143.980	144.474	4.837	9.694	10.250	14.384	152.450	13.520	-8191	255	
3368.922	1	1	0	0	0.096517	0.084312	0.193	0.14911	0.13731	0.056476	0.23491	0.098761	0.11119	0.096074	0.26009	0.15986	0.34585	0.011259	0.14255	0.04988	-3.8937	-4.3021	-4.7667	-4.3458	-4.8562	-4.7312	-4.2146	-5.0667	-4.1333	-4.2688	-5.0625	-4.1396	-4.8812	-4.7688	-4.1292	-5.1021	208.053	243.541	267.438	344.941	181.999	35.027	254.427	252.269	110.249	185.525	-12.118	326.272	292.227	312.624	270.004	88.729	0.00027022	0.00036584	6.8388e-05	1336.1	1.6089e-06	2.1018e-06	1339.4	367.56	9.3758e-07	8.4567e-07	418.55	139.57	121.38	41.369	1.6849e-06	51.287	0.00016598	0.00016316	4.6113e-05	1283.1	1.7455e-06	1.7843e-06	1301.1	353.46	1.7967e-06	1.8003e-06	396.69	132.98	113.88	39.497	1.8124e-06	48.347	225.151	87.908	44.637	0.743	301.141	148.815	0.855	5.464	131.734	137.846	4.604	10.085	10.218	14.055	107.748	13.681	-8191	255	
3369.019	1	1	0	0	0.24315	0.021782	0.12996	0.017755	0.10782	0.090832	0.11963	0.080216	0.20681	0.074091	0.096043	0.24764	0.17029	0.071942	0.10005	0.10011	-4.0625	-4.4958	-5.0479	-4.1667	-4.6792	-4.8583	-4.1958	-5.0375	-4.4958	-4.1354	-5.1937	-4.4604	-4.6396	-4.8542	-3.9833	-5.0208	69.566	77.469	74.440	-4.818	298.949	35.097	79.605	18.974	136.885	146.196	234.838	279.449	23.163	326.232	79.693	196.941	0.00024602	0.00028409	1.14e-05	1336.6	2.9864e-06	1.2285e-06	1342.8	367.05	4.5168e-07	3.3517e-06	418.3	138.19	120.41	41.546	3.678e-06	51.36	0.0001671	0.00016544	4.5772e-05	1280.3	1.794e-06	1.8145e-06	1302.8	353.33	1.7834e-06	1.7973e-06	396.28	132.37	113.56	39.594	1.8023e-06	48.34	210.054	198.004	107.539	0.877	34.405	78.818	0.732	5.860	131.400	253.508	4.861	9.877	9.904	14.166	138.241	13.528	-8191	255	
3369.113	1	1	0	0	0.11854	0.11484	0.37799	0.048571	0.095099	0.080551	0.25664	0.1184	0.29211	0.10251	0.087549	0.19959	0.05155	0.10204	0.22772	0.23061	-4.2333	-4.2562	-4.9333	-4.2625	-4.5667	-4.9917	-4.1854	-4.8	-4.4437	-4.0312	-5.1542	-4.275	-4.5687	-4.8938	-3.9521	-4.8396	211.938	287.699	133.216	269.439	296.303	41.468	310.397	306.027	59.526	21.239	346.248	25.712	59.385	221.679	221.803	58.967	0.00018843	6.8204e-05	0.00014727	1337.8	4.9874e-06	7.185e-07	1338.3	369.01	1.3563e-06	1.4055e-06	418.84	139.69	120.46	41.493	5.5932e-06	51.297	0.00016626	0.00016304	4.482e-05	1283.1	1.7641e-06	1.768e-06	1298.9	353.5	1.7771e-06	1.7784e-06	396.28	132.57	113.61	39.557	1.7685e-06	48.246	188.477	53.442	68.161	0.513	162.325	2.888	0.987	5.452	0.684	-2.198	4.740	9.841	10.204	14.063	151.240	13.525	-8191	255	
3369.211	1	1	0	0	0.14838	0.047533	0.044105	0.24842	0.24389	0.1589	0.2067	0.12943	0.19664	0.047958	0.10389	0.046748	0.1706	0.046297	0.17787	0.016462	-4.3375	-4.0375	-4.9542	-4.4771	-4.2271	-4.9521	-4.2063	-4.7812	-4.8146	-4.0729	-5.2312	-4.3125	-4.3854	-4.9167	-4.0458	-4.7292	240.870	253.908	46.010	343.961	276.370	27.580	295.129	325.316	123.296	226.449	17.365	28.162	330.539	249.105	15.626	263.368	0.00022208	0.00025823	0.00014736	1340.6	4.4259e-06	3.8534e-06	1333.6	365.34	3.9125e-06	5.9307e-06	417.44	139.77	120.69	41.319	4.3898e-06	51.45	0.00016524	0.00016062	4.38e-05	1281.7	1.7441e-06	1.728e-06	1297.3	352.32	1.7571e-06	1.7548e-06	395.92	132.66	113.52	39.54	1.7145e-06	48.295	193.853	130.111	6.287	0.694	166.060	119.314	0.954	5.467	117.777	146.864	4.787	9.857	10.172	14.476	116.226	13.519	-8191	255	
3369.330	1	1	0	0	0.068318	0.044048	0.098948	0.24381	0.14435	0.21887	0.15192	0.050209	0.17741	0.021623	0.24937	0.24463	0.21019	0.20542	0.14177	0.087239	-4.275	-3.9458	-4.9583	-4.5437	-4.1875	-4.9729	-4.2542	-4.4979	-4.8187	-4.0146	-4.8917	-4.6542	-4.1604	-4.9792	-4.3021	-4.5583	347.473	264.441	-10.144	-7.597	336.066	-1.417	316.577	1.842	199.681	62.244	307.734	346.975	83.525	274.827	267.717	256.472	0.00020772	0.00039456	0.00010232	1338.3	4.7016e-06	2.1773e-06	1338.4	367.01	3.3185e-06	2.8015e-06	418.64	138.45	120.74	41.723	5.7109e-06	51.434	0.00016437	0.00015986	4.3387e-05	1281.9	1.7664e-06	1.7336e-06	1297.6	352.94	1.7531e-06	1.7536e-06	396.09	132.39	113.59	39.558	1.72e-06	48.377	189.575	81.516	13.668	0.658	132.276	164.972	0.753	5.542	158.610	181.610	4.836	9.929	10.120	14.102	125.453	13.521	-8191	255	
3369.401	1	1	0	0	0.1021	0.089337	0.12601	0.17489	0.10377	0.2348	0.32974	0.14424	0.079218	0.065776	0.049047	0.074954	0.087788	0.11472	0.24215	0.12366	-4.525	-4.0792	-4.7937	-4.8354	-3.9771	-4.9833	-4.5687	-4.4417	-4.9437	-3.9688	-4.8333	-4.5813	-4.1167	-4.9417	-4.2625	-4.3375	261.669	216.446	315.262	345.910	67.177	134.622	280.531	6.772	79.415	116.257	-9.840	-4.402	291.645	221.760	190.923	5.475	0.00023138	0.00020888	9.7254e-05	1335.1	2.7643e-06	1.8663e-06	1341.3	366.94	8.6174e-06	3.885e-06	420.13	138.61	120.62	41.368	6.3312e-06	51.227	0.00016515	0.00015972	4.3799e-05	1280.8	1.7421e-06	1.6831e-06	1298.3	352.23	1.7407e-06	1.7041e-06	396.26	132.34	113.39	39.447	1.6866e-06	48.247	202.121	144.398	106.570	0.812	152.609	76.239	0.938	5.554	169.479	186.734	4.861	9.832	10.125	14.123	190.805	13.459	-8191	255	
3369.522	1	1	0	0	0.065302	0.085135	0.20274	0.33197	0.099926	0.22701	0.13753	0.16769	0.059856	0.27848	0.13833	0.12549	0.11433	0.13475	0.17587	0.10692	-4.725	-4.0167	-4.6708	-4.7979	-4.0667	-4.9604	-4.4479	-4.2604	-5.0625	-4.0729	-4.7	-4.7167	-4.1625	-5.0542	-4.4646	-4.1562	224.015	236.662	79.227	335.986	201.580	131.536	268.639	329.292	38.860	122.806	-6.761	274.492	322.921	260.711	201.739	240.266	0.0001681	0.00050862	9.0449e-05	1339.4	4.8373e-06	4.822e-06	1330.5	366.31	4.2939e-06	4.4765e-06	418.27	139.08	121.21	41.173	3.3666e-06	51.411	0.0001603	0.00015792	4.3606e-05	1278.9	1.7408e-06	1.6946e-06	1293.2	351.91	1.7361e-06	1.6944e-06	395.67	132.41	113.39	39.409	1.7516e-06	48.278	198.041	92.866	71.024	0.771	162.270	125.899	0.922	5.441	166.079	92.736	4.764	9.747	9.683	14.158	145.383	13.144	-8191	255	
3369.618	1	1	0	0	0.13378	0.18276	0.081818	0.20917	0.10802	0.14635	0.058597	0.20282	0.035384	0.1022	0.1594	0.13867	0.097995	0.19543	0.13549	0.20619	-4.5188	-4.0729	-4.4917	-4.9125	-3.7042	-4.8708	-4.55	-4.3354	-4.9792	-4.1687	-4.6208	-5.025	-4.0167	-4.8417	-4.6917	-4.2667	-8.699	270.375	53.831	-10.954	18.920	293.611	324.623	249.360	60.133	309.978	236.928	243.254	251.891	1.574	196.807	288.845	0.00022061	0.00017056	0.00010076	1334.1	1.0833e-06	3.1413e-06	1335.5	364.68	4.0997e-06	2.1751e-06	417.23	138.6	120.15	41.593	3.7936e-06	51.096	0.00016178	0.00015623	4.3909e-05	1277.8	1.73e-06	1.6856e-06	1296.1	351.29	1.6976e-06	1.7044e-06	395.52	132.06	113.25	39.445	1.7133e-06	48.217	216.441	88.865	140.200	0.759	68.658	119.804	0.936	5.472	166.875	53.568	4.838	9.699	10.006	14.084	107.863	13.575	-8191	255	
3369.714	1	1	0	0	0.19771	0.11996	0.10203	0.052761	0.15119	0.23915	0.46376	0.20885	0.19592	0.081317	0.33882	0.013635	0.12933	0.12225	0.13741	0.22342	-4.7917	-4.0979	-4.3458	-5.0938	-3.9208	-4.5833	-4.7937	-4.2229	-5.0083	-4.2896	-4.3875	-5.0271	-3.925	-4.6854	-4.6	-4.1062	128.964	247.473	240.874	294.007	20.394	6.919	317.073	329.618	162.450	36.050	302.090	16.365	316.281	288.700	6.055	305.494	0.00026604	0.00010843	0.00014098	1333.3	4.7175e-06	1.106e-06	1339.1	366.91	2.0794e-06	3.2385e-06	419.14	138.69	120.61	41.34	3.7751e-06	51.163	0.00015953	0.00015657	4.3728e-05	1278.1	1.7205e-06	1.7048e-06	1296.4	352.16	1.7112e-06	1.7171e-06	396.13	132.21	113.29	39.394	1.7298e-06	48.198	206.873	150.655	125.427	0.741	175.620	103.684	1.125	5.504	36.489	64.675	4.813	9.779	10.125	14.199	142.662	13.448	-8191	255	
3369.810	1	1	0	0	0.054935	0.24228	0.19778	0.25114	0.14225	0.14299	0.049554	0.14312	0.15445	0.14034	0.2461	0.14009	0.34592	0.25516	0.23791	0.11983	-4.6687	-4.2542	-4.2333	-5.2708	-4.1604	-4.5854	-4.8542	-4.2729	-5.0062	-4.3583	-4.15	-4.9875	-4.175	-4.6229	-4.8521	-4.0667	177.184	117.614	320.757	23.668	38.508	262.573	256.383	287.681	36.713	0.811	314.939	33.437	10.126	310.934	105.600	25.515	0.00024666	0.00029903	0.00010218	1336.5	4.2281e-06	5.5546e-06	1333.6	365.56	3.9017e-06	4.8534e-06	418.32	139.71	120.2	41.615	4.12e-06	51.432	0.00015876	0.00015597	4.3954e-05	1278.4	1.7028e-06	1.7199e-06	1295.3	352.18	1.6712e-06	1.7166e-06	395.72	132.36	113.32	39.437	1.6928e-06	48.152	207.701	162.603	83.720	0.723	170.596	98.423	1.067	5.528	150.690	125.629	4.602	9.484	10.041	13.927	79.406	13.341	-8191	255	
3369.931	1	1	0	0	0.15476	0.027303	0.12964	0.047037	0.16278	0.18766	0.23261	0.26236	0.1894	0.22449	0.077551	0.20686	0.12801	0.080239	0.13093	0.10939	-4.6646	-4.5542	-4.2083	-5.1667	-4.1625	-4.5563	-5.0396	-4.0938	-4.775	-4.5875	-4.1562	-5.1188	-4.25	-4.4854	-4.8604	-4.1125	19.533	344.589	316.524	140.306	169.512	52.147	312.213	307.447	219.381	190.023	210.027	263.465	326.392	305.483	279.174	219.296	0.00027025	0.00012923	0.00013875	1333.1	3.3393e-06	4.0692e-06	1334.8	365.85	4.7515e-06	6.085e-06	417.09	138.98	120.56	41.544	4.1237e-06	51.193	0.00015645	0.00015647	4.3153e-05	1276.4	1.6834e-06	1.6809e-06	1294.2	351.08	1.6409e-06	1.6649e-06	394.21	132.07	113.11	39.393	1.6489e-06	48.111	207.572	35.399	48.345	0.598	159.620	67.654	0.986	5.630	136.225	145.382	4.625	9.925	9.965	14.124	86.895	13.345	-8191	255	
3370.003	1	1	0	0	0.15956	0.15461	0.14189	0.29259	0.1812	0.11031	0.085283	0.16047	0.16497	0.057055	0.1007	0.13597	0.045116	0.15594	0.041943	0.19812	-4.4938	-4.5292	-4.2521	-5.2396	-4.4062	-4.2396	-5.2188	-4.1292	-4.4958	-4.7833	-4.15	-5.0646	-4.5375	-4.3146	-4.8583	-4.1583	266.566	2.809	38.323	20.421	73.081	315.016	335.965	263.438	238.699	200.563	10.386	266.852	92.781	207.174	105.607	273.271	0.00029157	6.5672e-05	7.1627e-05	1328.1	3.8516e-06	1.0861e-06	1334	364.8	2.7971e-06	4.131e-06	417.31	139.3	120.54	41.293	2.2897e-06	51.202	0.00015566	0.00015251	4.2145e-05	1274.4	1.6825e-06	1.6644e-06	1291.7	350.74	1.6624e-06	1.6619e-06	394.22	132.06	113.1	39.333	1.6416e-06	48.031	197.486	78.386	70.257	0.551	151.430	129.597	0.828	5.628	102.943	134.531	4.749	9.885	10.251	14.236	-5.928	13.332	-8191	255	
3370.099	1	1	0	0	0.13238	0.092222	0.069079	0.26092	0.2311	0.046831	0.17323	0.29325	0.29541	0.23882	0.27652	0.20442	0.14763	0.09185	0.22897	0.0098806	-4.3583	-4.8229	-4.0938	-5.1021	-4.3583	-4.3313	-5.0938	-4.2083	-4.475	-4.8125	-4.3521	-4.8396	-4.5708	-4.1813	-4.9646	-4.2354	301.515	0.288	302.957	346.180	212.728	333.519	318.599	315.277	44.701	86.989	272.858	277.552	160.952	81.345	141.104	150.926	0.00030825	0.00042362	0.0001175	1332.4	1.7582e-06	4.5961e-06	1334.2	365.32	4.3832e-06	2.7708e-06	417.19	138.45	120.39	41.395	1.1928e-06	51.279	0.00015458	0.00015263	4.1744e-05	1275.6	1.6784e-06	1.6405e-06	1292.1	350.89	1.6569e-06	1.6336e-06	393.74	131.86	113.09	39.312	1.6174e-06	48.085	207.185	114.224	50.390	0.595	125.388	80.444	0.789	5.269	134.366	118.337	4.822	9.723	9.923	14.198	108.018	13.439	-8191	255	
3370.218	1	1	0	0	0.18938	0.1343	0.073761	0.39444	0.17107	0.2264	0.29415	0.10114	0.16716	0.13551	0.25965	0.15998	0.23022	0.20278	0.070539	0.29946	-4.1958	-4.8833	-3.9333	-5.0271	-4.55	-4.2833	-5.0958	-4.3271	-4.5437	-5.0083	-4.0312	-4.7167	-4.7625	-4.2583	-5.0521	-4.3396	194.312	253.058	206.013	319.524	64.833	149.493	218.930	28.394	175.288	160.866	24.544	13.188	170.653	-7.278	35.316	261.324	0.00028375	0.00031715	6.9839e-05	1328.1	1.0755e-06	2.0324e-06	1331	365.06	3.8854e-06	2.6141e-06	416.01	138.47	119.88	41.365	3.4595e-06	51.282	0.00015725	0.00015061	4.1659e-05	1274.2	1.6594e-06	1.655e-06	1290.1	350.48	1.6553e-06	1.6367e-06	393.78	131.84	112.93	39.352	1.6278e-06	48.159	196.565	132.618	88.285	0.827	301.157	36.328	1.055	5.638	87.312	-5.763	4.661	9.978	10.126	14.216	121.157	13.585	-8191	255	
3370.314	1	1	0	0	0.18446	0.23371	0.09694	0.28865	0.096254	0.10077	0.33775	0.18926	0.12129	0.13207	0.09844	0.13267	0.078588	0.023281	0.14889	0.092252	-3.9896	-4.9	-4.0521	-4.7438	-4.7354	-4.1229	-5.2104	-4.6042	-4.1396	-5.0854	-4.2125	-4.7312	-4.9479	-4.25	-4.9958	-4.625	239.707	63.923	38.849	312.374	182.007	-1.943	345.261	313.838	176.046	285.379	250.278	239.947	130.198	201.449	-6.261	208.989	0.00025181	0.0002529	8.6072e-05	1334.7	2.5439e-06	3.5131e-06	1329.9	365.16	4.9271e-06	4.0221e-06	417.12	138.42	120.11	41.32	3.565e-06	51.188	0.00015617	0.00015001	4.2238e-05	1274.4	1.6622e-06	1.6206e-06	1290.3	350.82	1.6265e-06	1.6045e-06	393.83	131.92	112.91	39.331	1.6069e-06	48.079	208.035	93.381	33.335	0.634	143.686	10.847	0.956	5.676	101.776	69.727	4.941	9.671	10.163	14.231	117.867	13.562	-8191	255	
3370.410	1	1	0	0	0.26901	0.092786	0.038803	0.065378	0.15356	0.20346	0.17999	0.03184	0.12378	0.072145	0.046483	0.14468	0.25045	0.18306	0.18512	0.072169	-3.9479	-4.8729	-4.0604	-4.6396	-4.8771	-4	-5.1167	-4.6854	-4.2312	-5.1271	-4.3792	-4.5708	-5.1042	-4.1229	-4.825	-4.675	307.006	332.195	120.436	270.935	303.749	140.542	337.216	159.759	119.922	178.815	48.384	251.472	336.127	282.548	90.440	191.939	0.0002109	0.00029771	6.628e-05	1331.1	2.0424e-06	2.1546e-06	1324.5	365.25	3.9501e-06	2.2608e-06	414.91	139.5	120.03	41.244	5.7672e-06	51.328	0.00015489	0.00014573	4.0779e-05	1274.1	1.6252e-06	1.6057e-06	1288.4	350.64	1.6149e-06	1.5575e-06	393.22	131.9	112.72	39.205	1.5952e-06	48.084	216.224	31.391	78.002	0.461	138.714	83.438	0.924	5.811	178.790	130.131	4.883	9.628	10.413	14.051	138.554	13.497	-8191	255	
3370.506	1	1	0	0	0.06642	0.061924	0.2228	0.2368	0.081127	0.18139	0.29686	0.2143	0.129	0.24187	0.12602	0.27764	0.24966	0.28437	0.18299	0.12745	-3.9021	-5.0604	-4.2917	-4.4458	-4.7792	-4.0354	-5.0479	-4.8396	-3.9708	-4.8375	-4.4167	-4.2229	-4.9604	-4.0958	-4.6438	-4.8167	67.588	146.673	344.908	315.101	147.733	254.563	5.220	240.663	136.052	167.975	39.502	63.161	-11.648	44.187	199.392	234.468	0.00023126	0.0006101	7.1541e-05	1325.1	3.1792e-06	4.9498e-06	1324.1	364.76	5.4625e-06	4.7959e-06	414.86	138.97	119.85	41.248	1.6417e-06	51.183	0.00014906	0.00014157	4.1098e-05	1270	1.577e-06	1.5592e-06	1287.1	350.12	1.5833e-06	1.5685e-06	393.25	131.67	112.46	39.243	1.5781e-06	47.961	221.140	100.182	125.029	0.830	150.741	86.877	1.006	5.562	123.787	81.368	5.300	10.144	10.170	14.262	185.860	13.523	-8191	255	
3370.602	1	1	0	0	0.18993	0.01949	0.1805	0.21158	0.11697	0.1829	0.11527	0.11733	0.22918	0.14149	0.16881	0.13418	0.056531	0.0185	0.10014	0.20899	-3.8271	-4.9729	-4.3313	-4.4313	-5.0167	-4.3271	-4.7417	-4.9396	-4.0542	-4.9729	-4.5958	-4.3479	-5.0687	-4.2375	-4.575	-4.9833	124.172	94.043	23.077	311.284	192.312	160.180	273.046	12.848	328.153	196.973	339.698	34.776	182.902	15.644	56.532	255.241	0.00023735	0.00032495	0.00016161	1326	2.975e-06	4.7736e-06	1330.7	363.44	4.3961e-06	1.4766e-06	414.42	138.68	120.32	41.018	2.4647e-06	51.168	0.00014937	0.00014424	4.1048e-05	1271.8	1.5777e-06	1.5758e-06	1287.8	349.56	1.5765e-06	1.5836e-06	393.21	131.55	112.67	39.132	1.6256e-06	48.055	207.169	79.362	88.586	0.712	162.053	129.393	0.918	5.558	144.066	104.114	4.950	9.761	10.183	14.315	83.908	13.486	-8191	255	
3370.699	1	1	0	0	0.20976	0.21138	0.087033	0.31859	0.038664	0.18095	0.13709	0.07114	0.076821	0.057415	0.14785	0.043186	0.34894	0.21928	0.1041	0.0019219	-3.7333	-4.8583	-4.3333	-4.2312	-4.8167	-4.2896	-4.4688	-5.0125	-3.9833	-4.8854	-4.7604	-4.2937	-4.9667	-4.4	-4.3583	-5.0625	200.704	292.886	331.952	293.873	92.338	321.438	311.604	200.243	254.315	311.467	337.662	331.658	327.962	1.300	280.570	180.000	0.00023442	0.00042749	0.00012784	1322.9	3.5723e-06	3.1771e-06	1328	364.43	3.3037e-06	5.6757e-06	416.11	138.76	120.11	41.31	6.3016e-06	51.075	0.00015201	0.0001459	4.1147e-05	1270.6	1.5749e-06	1.5913e-06	1286.4	350.27	1.5767e-06	1.563e-06	393.15	131.73	112.56	39.184	1.6039e-06	47.94	208.049	98.359	108.144	0.808	225.328	69.560	0.737	5.385	140.702	124.077	4.868	9.630	10.595	14.231	134.796	13.525	-8191	255	
3370.795	1	1	0	0	0.13721	0.17027	0.22443	0.1566	0.063816	0.1012	0.24367	0.16378	0.19695	0.16112	0.044585	0.13711	0.25586	0.039021	0.30809	0.14914	-3.9562	-4.7125	-4.5771	-4.1562	-5.0458	-4.3438	-4.4708	-5.2583	-4.0938	-4.4875	-4.7896	-4.2375	-4.9979	-4.5437	-4.2583	-5.0312	285.184	155.686	168.797	43.264	249.438	11.763	232.015	136.352	14.950	256.009	32.305	319.529	315.456	226.769	143.823	301.271	0.00022105	0.00021928	0.00010679	1326	6.94e-06	5.1046e-06	1325.8	364.46	5.3251e-06	5.988e-06	413.64	138.94	120.05	41.35	2.2357e-06	50.97	0.00014821	0.00014675	4.0302e-05	1269	1.568e-06	1.5675e-06	1285.4	349.73	1.5732e-06	1.5839e-06	392.85	131.48	112.68	39.207	1.5456e-06	47.853	191.848	100.209	67.942	0.854	102.457	121.036	0.832	5.583	152.802	148.238	4.812	9.908	10.245	14.212	111.177	13.426	-8191	255	
3370.891	1	1	0	0	0.094945	0.020574	0.26752	0.13596	0.095012	0.15747	0.09633	0.16387	0.017947	0.12714	0.20231	0.17742	0.13533	0.23928	0.23832	0.17652	-3.9604	-4.4979	-4.8063	-4.0646	-4.8833	-4.3979	-4.5062	-5.0125	-4.0729	-4.7021	-4.8438	-4.1042	-4.9875	-4.6458	-4.1896	-5.1708	327.868	81.025	139.283	305.854	28.842	234.513	308.339	104.922	40.087	244.337	320.042	122.440	202.864	333.947	246.803	34.083	0.00029128	0.00013488	2.7963e-05	1322.8	3.7026e-06	1.1342e-06	1330.2	364.46	3.9566e-06	4.1841e-06	414.74	138.19	119.59	41.442	3.0693e-06	50.982	0.00014412	0.00014112	3.931e-05	1265.5	1.5303e-06	1.5352e-06	1283.5	349.45	1.5089e-06	1.4783e-06	391.73	131.06	112.19	39.134	1.4351e-06	47.78	214.129	117.201	260.706	0.868	53.656	108.355	0.914	5.765	151.194	146.047	4.917	9.884	10.126	14.373	104.947	13.584	-8191	255	
3371.010	1	1	0	0	0.22263	0.18669	0.17069	0.13662	0.0678	0.10898	0.37782	0.17979	0.21395	0.064249	0.15042	0.14383	0.12649	0.19226	0.1568	0.101	-3.9604	-4.4875	-4.9	-4.1729	-4.7729	-4.6896	-4.3271	-5.0813	-4.2479	-4.4187	-5.0437	-4.1104	-4.7458	-4.9125	-3.9792	-5.0979	-11.315	310.217	151.721	110.388	69.844	304.585	269.085	234.481	311.702	323.824	237.671	243.420	282.837	32.426	144.638	-5.925	0.00020972	0.00023386	0.00013737	1314.7	2.2737e-06	4.107e-06	1316.9	362.64	2.7361e-06	9.0273e-07	413	138.26	119.53	41.13	3.529e-06	51.197	0.00013511	0.00013191	3.5365e-05	1259.2	1.3939e-06	1.3852e-06	1275.9	347.1	1.3896e-06	1.3473e-06	390.05	130.56	111.59	38.96	1.3199e-06	47.62	191.490	82.052	78.340	1.054	178.840	163.034	0.967	5.412	74.923	123.543	4.739	9.927	10.213	14.314	176.862	13.501	-8191	255	
3371.106	1	1	0	0	0.059095	0.27066	0.092734	0.12082	0.19324	0.09411	0.049838	0.18279	0.16099	0.23874	0.0652	0.10798	0.17571	0.057605	0.12026	0.23077	-3.8917	-4.5437	-4.9542	-4.1792	-4.7688	-4.7812	-4.3771	-5.2146	-4.4771	-4.2896	-5.1937	-4.4458	-4.6188	-4.9229	-4.0958	-5.0583	-1.250	94.163	187.236	-8.557	111.668	184.547	328.548	-3.721	47.530	78.873	197.632	297.336	314.071	332.150	199.813	219.916	0.00026646	0.00022845	3.6154e-05	1311.2	3.0111e-06	3.9645e-06	1311.9	362.89	2.744e-06	5.3563e-06	412.81	138.17	119.4	41.115	5.1067e-06	51.022	0.00012701	0.0001224	3.314e-05	1252	1.3325e-06	1.319e-06	1270.6	347.07	1.3602e-06	1.3148e-06	388.9	130.53	111.58	38.86	1.3011e-06	47.62	208.161	103.309	39.002	0.880	164.612	106.828	1.103	5.810	179.691	72.805	4.915	10.041	10.175	14.367	123.765	13.584	-8191	255	
3371.202	1	1	0	0	0.18635	0.13137	0.17605	0.11355	0.10923	0.11689	0.38216	0.26072	0.037005	0.24531	0.22954	0.06228	0.1927	0.10626	0.057942	0.16943	-4.1958	-4.3625	-5	-4.4146	-4.5646	-4.8313	-4.1667	-5.0375	-4.5375	-4.1479	-5.1417	-4.3521	-4.5292	-5.0708	-4.025	-4.7229	63.296	25.292	278.920	210.311	56.845	267.620	256.714	296.414	334.556	132.487	274.772	151.563	293.157	307.109	21.731	219.523	0.00020549	0.00022469	2.3298e-05	1309	3.1583e-06	5.5931e-06	1311.5	361.77	4.6148e-06	5.3204e-06	413.43	137.16	119.29	41.249	2.3155e-06	50.971	0.00012674	0.00012091	3.2971e-05	1250.6	1.343e-06	1.3252e-06	1270.6	345.86	1.3289e-06	1.3133e-06	388.79	130.11	111.35	38.903	1.3135e-06	47.536	199.101	107.904	75.523	0.843	293.087	81.646	1.029	5.576	135.802	103.600	5.102	9.891	10.230	14.213	139.336	13.479	-8191	255	
3371.298	1	1	0	0	0.10016	0.17773	0.030415	0.11074	0.30496	0.17964	0.09452	0.16436	0.24165	0.08209	0.15553	0.095737	0.21987	0.26996	0.03896	0.26934	-4.3187	-4.0604	-4.9667	-4.4292	-4.3125	-4.9125	-4.2646	-4.9833	-4.7083	-4.1917	-5.2354	-4.3604	-4.4458	-5.1396	-4.1042	-4.8104	34.074	254.396	124.189	-7.321	41.026	61.375	271.387	268.225	36.444	344.238	43.001	171.322	296.212	335.494	223.491	267.987	0.000294	0.00032845	0.00013634	1311.6	1.8957e-06	3.2031e-06	1312.2	360.84	5.9351e-06	1.9553e-06	414.26	138.09	119.35	40.994	4.345e-06	50.922	0.00012642	0.00012013	3.4026e-05	1251.6	1.3388e-06	1.3081e-06	1268.9	346	1.3403e-06	1.3225e-06	388.52	130.25	111.36	38.901	1.3541e-06	47.538	193.150	79.947	65.689	0.659	230.636	73.316	0.855	5.771	133.025	175.649	4.941	9.918	10.210	14.443	124.506	13.624	-8191	255	
3371.394	1	1	0	0	0.1426	0.22525	0.11964	0.16255	0.21656	0.072776	0.098597	0.20385	0.10198	0.10934	0.045574	0.10073	0.084943	0.12978	0.028413	0.25067	-4.3688	-4.0604	-4.9583	-4.5375	-4.1604	-4.8458	-4.1625	-4.8313	-4.8625	-4.0875	-5.0958	-4.5521	-4.2333	-5.1083	-4.1896	-4.625	4.829	280.188	-12.430	198.429	170.527	171.355	230.054	12.033	226.960	121.071	7.995	318.023	298.926	49.996	72.965	329.847	0.00031464	0.0003168	9.7749e-05	1311.7	2.3326e-06	2.4342e-06	1307.7	361.57	5.1327e-06	5.481e-06	412.46	137.98	119.19	41.118	3.0855e-06	50.879	0.00012707	0.00012297	3.4478e-05	1251.2	1.3693e-06	1.3345e-06	1268.7	345.78	1.3632e-06	1.3521e-06	388.71	130.28	111.31	38.918	1.3808e-06	47.609	199.368	111.846	69.073	0.838	199.780	24.340	1.097	5.455	107.200	117.299	4.838	9.632	9.556	14.472	133.883	13.264	-8191	255	
3371.515	1	1	0	0	0.049656	0.15835	0.037458	0.1772	0.21372	0.17941	0.056629	0.13335	0.17646	0.13757	0.11517	0.16185	0.14235	0.35279	0.18516	0.1081	-4.5	-4.0292	-4.8729	-4.7979	-3.9292	-5.0625	-4.3875	-4.3417	-4.8187	-4.0188	-4.9375	-4.6333	-4.1333	-5.0896	-4.4	-4.5583	109.317	273.463	215.061	247.699	203.685	54.626	239.978	203.017	-2.278	208.122	45.962	276.255	277.095	-4.605	241.605	183.777	0.00025677	0.00050209	6.5126e-05	1305.9	1.5837e-06	5.6151e-06	1311.6	362.85	2.6896e-06	2.9507e-06	411.43	138.6	119.27	41.042	4.5686e-06	50.636	0.00012919	0.00012358	3.4236e-05	1249	1.3723e-06	1.3391e-06	1269.8	346.77	1.3575e-06	1.3631e-06	387.81	130.51	111.57	38.83	1.3763e-06	47.495	213.930	69.964	132.561	0.965	65.398	95.170	1.074	5.605	65.042	129.787	4.780	9.851	10.013	14.169	141.317	13.396	-8191	255	
3371.609	1	1	0	0	0.19353	0.19584	0.043185	0.060896	0.1935	0.014682	0.13818	0.30026	0.27549	0.076284	0.20683	0.049707	0.1538	0.1955	0.19958	0.093973	-4.5375	-4.1104	-4.7479	-4.8875	-4.025	-4.95	-4.4042	-4.3854	-4.9333	-4.1896	-4.5896	-4.8187	-4.0875	-4.8958	-4.375	-4.4042	182.440	329.371	341.632	249.603	176.396	57.257	300.805	304.325	64.013	100.475	334.365	287.380	153.841	335.689	223.118	271.441	0.00021442	0.00033488	6.3429e-05	1310.6	2.5247e-06	3.7616e-06	1315.1	359.86	2.8666e-07	3.8645e-06	413.08	137.15	118.75	41.151	2.3087e-06	50.859	0.00012768	0.00012424	3.472e-05	1251	1.3615e-06	1.3474e-06	1269	345.56	1.3419e-06	1.3539e-06	388.8	130.05	111.31	38.903	1.3908e-06	47.566	193.124	64.107	91.344	0.707	92.039	107.359	0.935	5.511	212.591	103.036	4.934	9.587	10.101	14.220	109.946	13.484	-8191	255	
3371.706	1	1	0	0	0.12334	0.24351	0.024986	0.050837	0.1359	0.047944	0.24977	0.11174	0.11658	0.058403	0.11814	0.18584	0.19463	0.131	0.11995	0.19519	-4.7042	-4.1896	-4.4896	-4.85	-4.1375	-5.0396	-4.6479	-4.3271	-5.0375	-4.1583	-4.5354	-4.9083	-4.0583	-5.0062	-4.4729	-4.2688	217.319	127.393	216.519	134.097	341.030	112.981	36.523	332.559	267.683	145.243	183.555	-9.988	28.705	342.801	259.090	275.255	0.00028199	0.00043373	8.9358e-05	1314.9	2.3248e-07	4.6125e-06	1312.4	361.27	5.3715e-06	3.5856e-06	411.77	137.7	119.07	41.059	3.7744e-06	51.043	0.00012825	0.00012527	3.4434e-05	1250.5	1.3672e-06	1.3346e-06	1268.5	345.67	1.3215e-06	1.352e-06	388.57	130.14	111.28	38.907	1.3552e-06	47.524	206.217	81.825	57.139	0.951	266.661	91.404	1.197	5.568	132.254	170.690	4.881	10.119	9.967	14.447	135.002	13.778	-8191	255	
3371.802	1	1	0	0	0.10155	0.17696	0.023709	0.080164	0.27604	0.074203	0.13758	0.098073	0.070917	0.14735	0.2086	0.10783	0.12913	0.30426	0.15097	0.12642	-4.7688	-4.1771	-4.3375	-5.0146	-4.2417	-4.8208	-4.7771	-4.2417	-5.0083	-4.3688	-4.6354	-5.1521	-4.075	-4.8521	-4.7333	-4.3083	56.260	20.928	63.189	293.788	122.912	215.141	222.203	306.475	301.971	15.823	13.771	16.880	68.650	11.316	-8.361	17.180	0.00025947	0.00046816	7.9047e-05	1312.1	4.4618e-06	1.6419e-06	1306.2	360.68	6.7108e-06	6.0201e-06	411.03	138.19	119.27	40.979	4.2769e-06	50.996	0.000126	0.00012288	3.3484e-05	1249.9	1.3337e-06	1.3253e-06	1266.8	344.8	1.3264e-06	1.3485e-06	387.76	130.19	111.3	38.849	1.3521e-06	47.479	201.443	96.147	98.102	0.753	174.400	83.818	1.093	5.646	153.903	172.039	4.812	9.865	10.231	14.372	133.208	13.640	-8191	255	
3371.898	1	1	0	0	0.18081	0.0091854	0.26653	0.31596	0.18413	0.14756	0.30294	0.38862	0.17464	0.14735	0.1061	0.059302	0.15281	0.03602	0.21469	0.15179	-4.6604	-4.4208	-4.2875	-5.1333	-4.0667	-4.7188	-4.9979	-4.1	-5.0771	-4.5708	-4.3812	-5.0938	-4.2458	-4.6833	-4.7542	-4.1333	133.094	41.473	146.691	-4.725	135.440	6.965	287.193	306.030	52.720	339.633	70.865	6.530	309.846	141.841	131.657	38.515	0.00025932	0.00014304	7.5073e-05	1308.2	1.9295e-06	4.5721e-06	1309.4	361.01	3.1279e-06	2.4552e-06	412.23	137.93	118.66	41.066	7.1601e-06	50.993	0.00012747	0.00012465	3.4455e-05	1250.2	1.3579e-06	1.3518e-06	1266.2	345.15	1.36e-06	1.3579e-06	387.87	130.11	111.24	38.864	1.3465e-06	47.596	207.825	-10.766	114.570	0.968	150.589	80.866	0.998	5.515	188.976	148.041	4.728	10.031	10.119	14.005	76.445	13.361	-8191	255	
3371.994	1	1	0	0	0.12824	0.18879	0.14981	0.12096	0.12731	0.29293	0.12581	0.033148	0.12744	0.070433	0.19946	0.16667	0.065972	0.027208	0.15793	0.147	-4.4958	-4.4563	-4.1271	-4.9479	-4.0792	-4.5333	-4.9646	-4.0667	-4.9833	-4.5	-4.3521	-5.0563	-4.2417	-4.3688	-4.9833	-4.175	190.648	171.599	198.448	-8.638	162.653	200.459	194.813	27.768	277.234	223.192	20.127	253.074	5.666	113.512	98.141	308.256	0.00026788	0.00055632	0.00014188	1310.9	2.5774e-06	3.3007e-06	1310.2	360.18	3.8306e-06	2.3769e-06	412.03	137.96	119.07	41.223	4.8255e-06	50.888	0.00013059	0.00012499	3.4161e-05	1250	1.382e-06	1.3584e-06	1267.2	345.28	1.382e-06	1.3673e-06	388.76	130.08	111.47	38.883	1.3611e-06	47.527	195.642	105.601	10.902	0.795	131.910	90.762	1.141	5.693	96.415	148.818	4.904	9.939	10.321	14.060	119.471	13.536	-8191	255	
3372.090	1	1	0	0	0.12467	0.12209	0.054829	0.16432	0.1608	0.22503	0.076025	0.12258	0.066449	0.094956	0.18167	0.13186	0.18721	0.065331	0.10101	0.15675	-4.2812	-4.6333	-4.1438	-5.1458	-4.2875	-4.2854	-5.0188	-4.2875	-4.7708	-4.7875	-4.2792	-5.0208	-4.4729	-4.3604	-5.1896	-4.175	341.203	47.550	320.101	340.014	221.172	45.986	326.059	212.903	233.717	106.466	266.309	89.750	301.102	35.074	299.525	291.406	0.00021426	0.00057896	8.0974e-05	1307	2.8913e-06	3.5372e-06	1311	360.75	4.3689e-06	2.8404e-06	413.61	138.33	118.9	41.004	4.8184e-06	50.602	0.00013157	0.00012668	3.4818e-05	1249.2	1.4279e-06	1.3873e-06	1269.4	345.71	1.4139e-06	1.3788e-06	388.81	130.6	111.25	38.837	1.3926e-06	47.458	200.984	96.050	45.717	0.804	223.166	109.028	0.880	5.802	145.478	194.994	4.799	9.967	10.149	14.327	163.250	13.450	-8191	255	
3372.186	1	1	0	0	0.19958	0.10322	0.21622	0.23497	0.055753	0.023067	0.32454	0.28198	0.03347	0.091656	0.18464	0.089503	0.18562	0.14705	0.08202	0.25928	-4.2438	-4.7208	-4.05	-4.9854	-4.3979	-4.0979	-4.9938	-4.1229	-4.6062	-4.8792	-3.9958	-4.9958	-4.4917	-4.1708	-4.9271	-4.1104	234.795	83.602	231.539	-1.583	265.829	301.270	339.179	272.986	342.801	127.044	300.547	122.971	285.372	315.781	295.716	157.819	0.00018104	0.00045985	0.00013368	1312.1	1.5835e-06	3.0199e-06	1308.5	360.73	6.0003e-06	4.591e-06	411.2	138.43	118.82	40.976	2.1143e-06	50.883	0.00013316	0.00012908	3.6028e-05	1253.3	1.4332e-06	1.3905e-06	1268.8	345.83	1.4053e-06	1.3624e-06	388.53	130.35	111.13	38.708	1.3891e-06	47.465	208.427	71.084	80.312	0.757	29.218	90.823	1.078	5.772	143.000	139.102	4.836	10.088	10.094	14.345	117.031	13.746	-8191	255	
3372.282	1	1	0	0	0.30091	0.11199	0.081311	0.11201	0.22745	0.32973	0.32103	0.23069	0.13905	0.081579	0.22588	0.30899	0.17963	0.12454	0.20967	0.24773	-4.1979	-4.85	-4.0292	-5.0396	-4.5938	-4.1792	-5.1146	-4.2	-4.4292	-4.7854	-4.1604	-4.8042	-4.7417	-4.1062	-4.9688	-4.2417	243.351	197.350	34.773	101.350	107.833	155.077	273.163	81.055	229.920	287.677	208.507	326.017	217.419	101.386	123.525	314.901	0.0001891	0.00026149	7.0318e-05	1306.8	4.2821e-06	1.8737e-06	1313.4	360.37	4.1863e-06	4.0445e-06	411.38	137.29	119.42	40.912	3.8451e-06	50.568	0.00013366	0.00012789	3.6128e-05	1250.7	1.4249e-06	1.3957e-06	1269.1	345.81	1.4497e-06	1.403e-06	388.21	130.11	111.37	38.776	1.4556e-06	47.516	198.109	71.550	344.503	0.761	158.055	109.173	1.046	5.614	161.248	168.129	4.944	9.927	9.912	14.300	107.122	13.497	-8191	255	
3372.403	1	1	0	0	0.0698	0.10899	0.13039	0.27372	0.24218	0.18708	0.067252	0.020731	0.075692	0.14308	0.27753	0.12667	0.17593	0.059826	0.14216	0.34524	-4.1729	-4.9583	-4.0042	-4.8229	-4.6646	-4.0146	-5.1125	-4.3604	-4.1417	-4.9167	-4.0667	-4.7792	-4.8812	-4.1167	-4.9042	-4.55	150.077	272.978	196.858	285.798	276.673	272.209	66.731	240.007	328.837	272.173	40.136	-0.650	89.445	321.344	62.422	298.944	0.00022896	0.00048481	0.00011763	1310.1	3.0369e-06	9.8432e-07	1310.2	362.01	5.0977e-06	5.8825e-06	412.42	137.13	119.22	40.995	3.4035e-06	50.544	0.00013583	0.00013197	3.7433e-05	1252.7	1.4508e-06	1.4513e-06	1271.7	346.17	1.4589e-06	1.4261e-06	388.4	129.97	111.32	38.796	1.4538e-06	47.47	192.481	79.026	77.874	0.786	44.908	100.937	0.976	5.664	142.659	174.318	4.870	9.917	10.332	14.075	145.058	13.773	-8191	255	
3372.497	1	1	0	0	0.13199	0.23453	0.17972	0.10957	0.20738	0.12302	0.086053	0.17743	0.16747	0.11419	0.041547	0.045427	0.13523	0.32331	0.081994	0.1686	-3.9271	-5.05	-4.2854	-4.6312	-4.9167	-3.9938	-5.0042	-4.5896	-4.1271	-4.9125	-4.1771	-4.5271	-4.8708	-4.0833	-4.8583	-4.6562	25.425	33.161	140.465	295.466	106.311	4.859	297.066	32.058	131.063	315.223	61.976	239.435	335.830	347.317	319.331	183.478	0.00021767	0.0002175	5.4706e-05	1313.5	3.4872e-06	3.934e-06	1312.8	361.33	5.0106e-06	2.5084e-06	412.41	137.59	118.33	41	1.0103e-06	50.763	0.00013664	0.000132	3.7633e-05	1254.8	1.4563e-06	1.4583e-06	1270.8	346.28	1.4693e-06	1.4546e-06	389.11	130.44	111.35	38.832	1.4707e-06	47.55	216.549	54.194	58.159	0.681	194.093	111.379	1.033	5.753	154.786	106.030	4.907	9.790	10.297	14.262	223.733	14.034	-8191	255	
3372.595	1	1	0	0	0.054292	0.22904	0.055994	0.27064	0.092793	0.15098	0.16277	0.12552	0.043656	0.18586	0.17271	0.19228	0.19956	0.14684	0.072166	0.19934	-3.8063	-5.1042	-4.0813	-4.5125	-4.8562	-4.1667	-4.9958	-4.8417	-4.1208	-5.1042	-4.3938	-4.4104	-4.9854	-4.1625	-4.5667	-4.65	41.619	184.937	1.268	308.063	-5.308	331.355	313.714	256.252	322.857	72.421	316.665	4.145	2.780	308.775	146.924	303.108	0.00022444	7.7573e-05	5.4046e-05	1316.3	3.6138e-06	4.4711e-06	1311.3	360.85	5.2863e-06	3.3983e-06	413.86	138.26	118.68	40.871	5.8026e-06	50.735	0.00013951	0.00013671	3.8545e-05	1255.2	1.5006e-06	1.5148e-06	1271.7	346.56	1.5299e-06	1.5248e-06	389.75	130.49	111.64	38.871	1.5409e-06	47.546	201.561	78.451	93.660	1.188	152.443	75.118	0.904	5.467	115.977	126.931	4.836	9.868	10.319	14.315	94.568	13.323	-8191	255	
3372.690	1	1	0	0	0.21535	0.06968	0.0040166	0.1996	0.030526	0.022959	0.12534	0.22997	0.084764	0.2316	0.25836	0.057552	0.29708	0.036245	0.18697	0.14719	-3.8	-4.875	-4.4062	-4.4479	-4.9667	-4.1458	-4.8063	-4.8333	-4.1438	-4.8542	-4.5167	-4.2208	-5.1729	-4.175	-4.4208	-4.8688	111.353	55.524	114.912	339.206	251.169	192.205	282.500	-8.515	284.103	211.857	323.198	315.847	292.664	72.532	323.791	271.723	0.00022595	0.000135	7.8812e-05	1319.7	3.9671e-06	3.586e-06	1314.3	362.15	2.3948e-06	1.1986e-06	411.2	137.78	119.23	40.991	2.4143e-06	50.612	0.00014433	0.0001418	3.918e-05	1257.7	1.5568e-06	1.5552e-06	1274.4	347.04	1.5607e-06	1.5657e-06	389.02	130.52	111.78	38.892	1.5615e-06	47.504	221.414	106.829	74.119	0.772	112.999	101.427	1.009	5.420	182.314	174.031	4.860	9.854	10.337	14.312	134.075	13.669	-8191	255	
3372.786	1	1	0	0	0.25435	0.24729	0.094514	0.16342	0.051985	0.2394	0.094421	0.23441	0.09144	0.21252	0.41236	0.047786	0.27474	0.083774	0.18988	0.30927	-3.575	-4.7708	-4.4542	-4.2979	-4.9625	-4.1354	-4.6917	-4.9208	-4.1125	-4.7042	-4.7208	-4.2292	-5.0979	-4.3521	-4.3688	-4.9708	192.855	222.806	39.688	158.068	-3.434	242.317	155.044	340.954	66.666	292.460	235.017	125.846	10.843	222.902	63.148	85.869	0.00024261	0.00020869	2.6876e-05	1315	5.1234e-06	3.4918e-06	1315	362.3	3.8457e-06	2.7666e-06	413.11	137.24	119.14	40.778	4.7764e-06	50.993	0.00014941	0.00014702	4.0655e-05	1256.9	1.6135e-06	1.6213e-06	1275.6	347.51	1.6337e-06	1.6043e-06	390.6	130.68	111.81	38.865	1.6015e-06	47.761	194.682	45.693	30.957	0.726	197.781	140.065	0.851	5.718	163.544	190.435	4.852	9.829	10.304	14.541	117.551	13.756	-8191	255	
3372.882	1	1	0	0	0.18955	0.13191	0.15724	0.075102	0.36186	0.083277	0.24211	0.15821	0.16169	0.076644	0.35325	0.35894	0.094307	0.12944	0.098444	0.2081	-3.7687	-4.7208	-4.6333	-4.1604	-4.9583	-4.3812	-4.3958	-5.0125	-3.9875	-4.6875	-4.7625	-4.1771	-4.8333	-4.4875	-4.2708	-5.0229	231.004	246.244	190.143	318.996	199.936	194.098	326.096	296.834	342.770	3.010	6.359	277.630	300.161	55.847	273.370	247.129	0.0002733	0.00010937	0.00015178	1314	2.221e-06	2.4375e-06	1316.6	361.35	7.0161e-06	2.2951e-06	413.52	137.85	119.04	40.942	5.4445e-06	50.719	0.00015445	0.00014599	4.0501e-05	1257.8	1.6272e-06	1.6274e-06	1275.9	347.72	1.6699e-06	1.6203e-06	390.28	130.75	111.92	38.875	1.6108e-06	47.679	200.212	77.329	39.598	0.858	170.267	60.811	1.133	5.648	172.834	117.284	4.626	10.197	10.436	14.075	97.938	13.432	-8191	255	
3373.003	1	1	0	0	0.031643	0.10531	0.25771	0.20402	0.079626	0.082745	0.12073	0.24343	0.16409	0.09929	0.14106	0.13512	0.18158	0.27137	0.14793	0.13872	-3.8229	-4.7542	-4.8583	-4.0854	-4.9167	-4.2917	-4.2854	-5.0979	-4.0437	-4.4417	-4.9854	-4.0521	-4.8854	-4.6292	-4.1854	-5.0854	144.698	328.552	127.711	312.592	281.709	-2.351	304.220	243.903	15.356	72.272	26.100	325.327	127.192	43.948	129.014	21.932	0.00019986	0.0004924	5.1832e-05	1309	2.3292e-06	5.1622e-06	1317.3	360.8	1.1665e-06	5.0928e-06	412.07	138.04	118.61	40.958	3.0499e-06	50.843	0.00015504	0.00014917	4.1622e-05	1258.8	1.6445e-06	1.6271e-06	1277.5	348.12	1.6696e-06	1.6291e-06	390.33	130.99	111.92	38.862	1.6162e-06	47.713	212.779	95.555	52.810	1.036	135.122	41.971	0.755	5.649	166.750	128.276	4.972	9.665	10.229	14.308	117.423	13.714	-8191	255	
3373.099	1	1	0	0	0.11585	0.069817	0.10241	0.32198	0.13233	0.13293	0.19574	0.11813	0.17596	0.3239	0.15475	0.11542	0.13155	0.12442	0.16914	0.14413	-3.8708	-4.3104	-4.9187	-4.2729	-4.7583	-4.2688	-4.2688	-4.9896	-4.1083	-4.3313	-4.9729	-3.9188	-4.7688	-4.7167	-4.05	-4.8896	231.357	317.004	335.205	217.098	305.566	204.244	341.514	13.401	237.900	59.295	276.847	0.944	325.850	337.460	24.482	85.378	0.00020141	0.00035394	8.4209e-05	1316.9	4.7046e-06	1.4478e-06	1316	362.04	4.6735e-06	1.906e-06	411.49	136.85	119.29	40.898	2.9131e-06	50.741	0.00015496	0.00014913	4.1442e-05	1260.8	1.6626e-06	1.6424e-06	1276.4	348.02	1.6704e-06	1.6372e-06	390.53	130.88	112.06	38.885	1.6671e-06	47.745	214.286	61.723	55.432	0.699	139.561	149.626	0.940	5.514	131.863	167.054	5.066	9.686	9.988	14.451	144.644	13.224	-8191	255	
3373.195	1	1	0	0	0.27091	0.24811	0.17275	0.2422	0.22966	0.072964	0.21839	0.17948	0.15522	0.26335	0.094667	0.25522	0.24358	0.11727	0.13422	0.29219	-4.075	-4.2979	-4.8333	-4.0958	-4.7896	-4.6229	-4.1438	-5.0146	-4.1375	-4.3021	-5.0479	-4.15	-4.7479	-4.8	-4.0917	-5.0667	225.019	328.191	148.566	301.489	140.425	320.402	260.927	237.753	167.703	10.284	183.950	302.909	314.269	273.860	141.608	267.110	0.00023756	0.00014287	0.00013355	1312.9	3.5812e-06	3.9442e-06	1314.7	361.35	2.6894e-06	5.4092e-06	412.89	137.52	119.36	40.881	2.651e-06	50.795	0.00015833	0.00015117	4.2717e-05	1259.5	1.7014e-06	1.6715e-06	1277.2	348.57	1.7111e-06	1.6804e-06	391.45	130.93	112.23	38.904	1.7002e-06	47.762	206.751	116.667	71.466	0.778	196.562	162.156	0.911	5.404	56.287	151.956	4.958	9.743	10.215	14.163	61.699	13.512	-8191	255	
3373.291	1	1	0	0	0.048275	0.1856	0.20363	0.18059	0.054565	0.097609	0.21354	0.21513	0.26563	0.24111	0.10624	0.17995	0.042971	0.097424	0.19168	0.097459	-4.2333	-4.1562	-4.8187	-4.2688	-4.4375	-4.7229	-4.1229	-4.9146	-4.5729	-4.0646	-5.1354	-4.1687	-4.6417	-4.9521	-3.875	-4.85	336.580	257.591	164.686	238.315	248.753	-2.804	296.401	276.178	85.148	121.396	274.492	311.629	159.383	57.769	25.964	344.346	0.0002595	0.0003389	7.1518e-05	1321.2	1.7914e-06	6.7057e-06	1324.1	363.06	7.0244e-06	3.5861e-06	410.66	137.97	119.89	41.019	2.119e-06	50.691	0.00015924	0.00015405	4.3577e-05	1266.2	1.7088e-06	1.6941e-06	1281.8	348.98	1.712e-06	1.6783e-06	390.67	131.07	112.33	38.947	1.7262e-06	47.78	214.329	122.814	55.483	0.726	155.464	92.062	0.799	5.478	129.970	62.300	4.894	9.930	10.135	14.014	222.125	13.503	-8191	255	
3373.387	1	1	0	0	0.050375	0.089758	0.094888	0.33036	0.030914	0.2582	0.23999	0.43588	0.047711	0.075726	0.062831	0.10198	0.11838	0.036844	0.20927	0.26976	-4.275	-4.2167	-4.9042	-4.3292	-4.4146	-4.9021	-4.2646	-4.7542	-4.7542	-3.9854	-5.1917	-4.3917	-4.4792	-5.0292	-4.0208	-4.5542	340.228	60.229	334.555	282.251	330.345	71.849	310.498	256.982	34.685	-9.506	57.441	186.810	21.427	52.094	91.032	267.436	0.00021317	0.00012062	9.5817e-05	1317.7	2.9729e-06	5.6561e-06	1317.3	363.56	5.6383e-06	4.6433e-06	414.69	137.55	119.66	41.052	3.9898e-06	50.841	0.00015993	0.00015775	4.4467e-05	1264.2	1.6993e-06	1.7352e-06	1279.8	349.31	1.7423e-06	1.7317e-06	392.2	131	112.35	39.045	1.7592e-06	47.781	195.482	126.650	31.323	0.979	125.713	69.192	1.086	5.669	123.601	129.168	4.865	9.808	10.230	14.096	114.047	13.654	-8191	255	
3373.483	1	1	0	0	0.26321	0.28478	0.18625	0.14646	0.20685	0.12465	0.16027	0.1636	0.10091	0.0926	0.076921	0.065345	0.049672	0.11101	0.17427	0.26575	-4.35	-4.0396	-4.8542	-4.3958	-4.1521	-5.0458	-4.1542	-4.4875	-4.9229	-4.1562	-4.9146	-4.4542	-4.3354	-4.9812	-4.2042	-4.6667	56.873	43.213	76.299	307.210	174.451	131.798	281.695	197.723	306.157	189.141	341.524	27.136	335.633	335.513	267.214	265.536	0.00022917	0.00017625	4.7059e-05	1314.5	3.3774e-06	1.9438e-06	1323.8	363.93	2.2141e-06	3.4115e-06	412.78	137.8	119.7	41.011	4.1263e-06	50.983	0.00015973	0.00015875	4.3833e-05	1263.9	1.7217e-06	1.7357e-06	1281.8	349.14	1.7145e-06	1.7327e-06	391.6	131.1	112.38	39.089	1.75e-06	47.837	201.949	136.157	135.826	0.984	214.461	54.837	1.003	5.838	23.704	135.575	4.658	10.168	10.193	14.216	126.589	13.231	-8191	255	
3373.602	1	1	0	0	0.18986	0.15708	0.077957	0.26227	0.16389	0.16237	0.22615	0.39011	0.12641	0.18497	0.089178	0.17882	0.31404	0.25724	0.17942	0.23686	-4.45	-4.0729	-4.7063	-4.5896	-4.0271	-5.1729	-4.375	-4.5083	-4.7208	-4.0333	-4.7292	-4.7562	-4.0729	-4.9833	-4.2229	-4.275	185.583	19.945	256.718	-1.228	172.753	122.107	303.125	325.799	339.821	32.801	58.763	306.486	15.244	329.563	249.026	256.024	0.00026765	0.00067175	0.0001176	1321.5	3.1279e-06	3.4997e-06	1325.7	363.16	3.697e-06	3.7664e-06	413.72	137.59	119.19	40.996	5.286e-06	50.812	0.00016096	0.00016285	4.4808e-05	1264	1.7771e-06	1.7834e-06	1282.4	349.1	1.7849e-06	1.8051e-06	391.98	131.26	112.27	39.042	1.7861e-06	47.872	196.269	98.400	14.521	1.045	183.221	-9.543	0.987	5.460	146.155	148.176	5.155	10.009	10.107	14.474	164.268	13.715	-8191	255	
3373.698	1	1	0	0	0.2196	0.16613	0.036152	0.2246	0.28618	0.1583	0.03125	0.14208	0.065488	0.14345	0.097898	0.045419	0.15515	0.17513	0.1184	0.052902	-4.475	-4.0646	-4.7063	-4.7229	-4.0146	-4.9521	-4.2979	-4.4208	-4.8667	-3.95	-4.725	-4.7917	-4.0417	-5.0229	-4.3583	-4.2562	343.698	2.216	182.613	294.289	345.497	274.284	8.376	257.464	307.027	272.173	-12.244	280.994	19.917	325.909	48.356	271.691	0.00020092	0.0002039	0.00014363	1322.4	1.0206e-06	3.3011e-06	1319.2	363.88	2.2097e-06	1.3137e-06	414.7	137.53	118.99	41.034	4.8008e-06	50.762	0.00016809	0.00016458	4.4712e-05	1265.1	1.802e-06	1.79e-06	1280.6	349.46	1.8017e-06	1.7906e-06	392.13	131.04	112.5	39.05	1.7655e-06	47.859	200.546	46.409	67.862	0.872	291.632	30.059	1.188	5.616	157.398	144.677	4.811	9.960	10.550	14.261	127.602	13.806	-8191	255	
3373.770	1	1	0	0	0.12004	0.23673	0.01108	0.090302	0.09535	0.2648	0.27153	0.23006	0.11505	0.21119	0.13779	0.11394	0.10953	0.16783	0.1168	0.21864	-4.6583	-3.9854	-4.6021	-4.9146	-4.1042	-5.0563	-4.5458	-4.1979	-4.975	-4.1438	-4.5979	-4.8125	-4.0875	-4.7688	-4.3146	-4.1167	282.892	268.649	328.330	283.133	126.641	90.274	326.934	296.338	261.833	53.788	337.080	340.841	225.037	1.955	203.488	284.260	0.00025832	8.1575e-05	5.4937e-05	1316.1	2.6772e-06	3.6413e-06	1324.6	363.17	2.9946e-06	3.6637e-06	412.96	137.78	119.8	40.95	4.1691e-06	51.02	0.00016624	0.00016388	4.4415e-05	1264.9	1.7942e-06	1.7642e-06	1281.3	349.2	1.7721e-06	1.7814e-06	391.49	131.28	112.58	39.102	1.7659e-06	47.875	204.982	129.611	49.221	1.000	47.617	56.471	1.144	5.504	140.439	155.371	5.104	10.132	10.038	14.341	115.716	13.768	-8191	255	
3373.866	1	1	0	0	0.13838	0.034782	0.054129	0.15065	0.10824	0.1609	0.15349	0.23803	0.059627	0.20174	0.19628	0.15179	0.01349	0.019398	0.21415	0.13733	-4.6979	-4.225	-4.4958	-4.8875	-4.025	-4.7917	-4.7458	-4.4917	-5.0437	-4.2854	-4.3729	-5.1125	-4.0312	-4.8792	-4.5167	-4.2	100.912	216.804	4.798	101.931	281.081	31.170	281.562	246.114	80.840	157.529	320.549	-6.955	281.438	183.378	100.765	-7.167	0.00019953	0.0003913	4.295e-05	1316.3	4.8067e-06	5.1719e-06	1318.4	362.01	4.1576e-06	8.3722e-06	412.72	137.85	119.04	40.891	2.1748e-06	50.473	0.00016643	0.00016258	4.4746e-05	1263.1	1.793e-06	1.7482e-06	1278.9	349.15	1.7808e-06	1.7737e-06	391.31	131.43	112.42	39.039	1.7451e-06	47.793	202.269	109.649	40.717	0.933	138.838	104.304	1.177	5.439	103.259	123.224	5.049	9.940	10.266	14.224	34.506	13.380	-8191	255	
3373.962	1	1	0	0	0.079297	0.25517	0.19681	0.41406	0.13587	0.12388	0.28812	0.16029	0.08167	0.18535	0.035607	0.17152	0.079178	0.1463	0.076037	0.06152	-4.6125	-4.1708	-4.2937	-4.9563	-4.1417	-4.6271	-4.9313	-4.1458	-4.8833	-4.4979	-4.3646	-5.125	-4.0938	-4.7354	-4.8229	-4.1354	151.899	75.185	161.457	274.325	209.341	124.029	254.412	6.621	172.269	301.886	212.577	56.886	329.120	206.531	335.550	273.935	0.00024161	0.00057253	0.0001155	1321.4	1.5653e-06	1.6424e-06	1325.2	362.94	5.5578e-06	2.6524e-06	413.85	137.81	119.29	40.833	8.6869e-06	50.664	0.0001673	0.00016181	4.4365e-05	1265.1	1.8027e-06	1.7755e-06	1281.8	349.17	1.799e-06	1.7791e-06	392.57	131.13	112.52	39.044	1.7799e-06	47.866	211.080	72.823	93.577	1.001	181.278	62.066	1.003	5.504	159.088	131.100	4.889	9.944	10.301	14.210	109.528	13.656	-8191	255	
3374.083	1	1	0	0	0.2074	0.1402	0.21303	0.40024	0.2326	0.11359	0.16974	0.13021	0.070364	0.11724	0.19752	0.08205	0.12011	0.072457	0.12551	0.23874	-4.6292	-4.3708	-4.1417	-5.1292	-4.0188	-4.6062	-5.0125	-4.0417	-4.875	-4.4604	-4.1813	-4.9667	-4.3604	-4.4417	-4.7521	-4.0167	258.105	111.559	195.593	312.820	209.656	97.215	281.316	199.698	80.531	238.447	242.184	130.221	47.404	-12.363	-2.237	250.468	0.00025596	0.00025641	0.00017429	1318.1	3.7518e-06	2.3254e-06	1319.5	362.63	2.4603e-06	2.0413e-06	415.19	137.87	118.74	40.998	2.1622e-06	50.8	0.00016751	0.00016212	4.5315e-05	1263.9	1.8211e-06	1.7608e-06	1281.5	349.04	1.8117e-06	1.7921e-06	392.86	131.3	112.31	39.08	1.8546e-06	47.861	217.115	73.003	71.713	1.017	219.391	19.753	1.112	5.520	34.382	161.585	4.525	10.177	10.198	14.389	86.065	13.717	-8191	255	
3374.179	1	1	0	0	0.014576	0.088616	0.21604	0.083606	0.24152	0.039945	0.13893	0.29152	0.027682	0.17228	0.13114	0.048574	0.16114	0.11353	0.17046	0.148	-4.5979	-4.525	-4.1396	-5.0021	-4.1375	-4.3021	-5.0437	-4.2021	-4.6417	-4.6208	-4.2604	-4.975	-4.4938	-4.4104	-4.9417	-4.1083	18.992	7.792	60.849	33.312	110.275	288.417	280.819	205.110	188.974	178.515	345.771	-10.304	39.768	55.416	49.368	248.146	0.00029279	0.00023602	0.00010986	1318.4	3.3226e-06	2.918e-06	1321.9	362.05	4.0172e-06	5.4126e-07	413.39	138.06	118.83	40.808	2.0737e-06	50.83	0.00016978	0.0001654	4.7002e-05	1266.2	1.8312e-06	1.8131e-06	1283.5	349.28	1.8457e-06	1.8294e-06	392.48	131.52	112.28	39.042	1.8222e-06	47.975	219.525	102.268	85.589	0.875	131.675	128.204	1.285	5.576	122.212	-3.382	4.795	9.916	10.413	14.652	38.340	13.923	-8191	255	
3374.275	1	1	0	0	0.072164	0.079767	0.047479	0.11607	0.15012	0.088109	0.23895	0.31447	0.15699	0.13934	0.095749	0.13271	0.10334	0.051999	0.04348	0.21253	-4.2812	-4.8375	-4.1042	-5.0188	-4.1896	-4.3187	-5.05	-4.2312	-4.4375	-4.7625	-4.0417	-4.9271	-4.5271	-4.2042	-5.075	-4.3125	179.217	280.314	51.988	344.249	156.177	122.073	12.171	317.678	76.672	294.481	304.869	14.308	118.406	258.498	261.357	259.457	0.00019703	0.00040647	7.9083e-05	1315.9	2.4328e-06	5.3744e-06	1318.1	362.54	2.2055e-06	2.1185e-06	414.59	137.37	119.28	41.071	2.9519e-06	50.945	0.00016847	0.00016535	4.6638e-05	1265.4	1.8232e-06	1.8248e-06	1282.2	349.55	1.8338e-06	1.8179e-06	392.59	131	112.36	39.095	1.8099e-06	47.886	205.967	104.018	72.730	0.832	178.922	94.848	1.258	5.750	101.658	96.515	4.909	10.200	10.295	14.191	202.744	13.956	-8191	255	
3374.396	1	1	0	0	0.096369	0.2214	0.21716	0.12748	0.092151	0.24565	0.089662	0.028205	0.22559	0.18172	0.034316	0.20551	0.22844	0.26005	0.17052	0.17081	-4.2812	-4.9354	-3.9938	-4.8625	-4.4854	-4.2979	-5.1	-4.3875	-4.3146	-4.8	-4.1271	-4.825	-4.7229	-4.1896	-4.8812	-4.4313	251.528	267.400	0.792	154.060	310.623	5.142	37.660	-4.754	45.155	52.044	147.067	127.326	278.765	339.960	91.907	30.405	0.00021606	0.00019719	3.1301e-05	1323.5	4.2899e-06	2.4891e-06	1316.5	362.57	1.257e-06	3.2755e-06	413.81	138.5	119.16	41.177	6.503e-06	50.855	0.00016755	0.00016512	4.6719e-05	1266.2	1.8189e-06	1.823e-06	1282.1	349.31	1.8263e-06	1.819e-06	392.54	131.47	112.32	39.162	1.7982e-06	47.907	183.286	131.627	71.970	0.814	159.565	55.071	1.222	5.586	184.133	82.813	4.818	9.931	10.366	14.232	122.912	13.861	-8191	255	
3374.468	1	1	0	0	0.18092	0.063663	0.32882	0.17504	0.10741	0.074456	0.17477	0.10866	0.079812	0.18394	0.024634	0.19564	0.2385	0.32035	0.13401	0.27778	-4.0062	-5.0188	-3.9083	-4.8021	-4.6354	-4.0354	-5.225	-4.5062	-4.2292	-4.95	-4.2417	-4.7083	-4.7396	-4.1125	-4.8417	-4.4938	128.834	34.867	52.311	302.808	75.402	339.227	331.891	68.231	299.879	189.988	66.064	111.870	242.343	112.767	113.589	317.220	0.00021209	0.00032777	7.8942e-05	1319.1	3.1542e-06	2.6909e-06	1322.8	361.74	1.6381e-06	2.0352e-06	411.23	138	118.93	41.079	4.3863e-06	50.847	0.00016518	0.00016307	4.5128e-05	1263.3	1.762e-06	1.7676e-06	1282.8	348.34	1.7326e-06	1.7198e-06	391.28	130.94	112.33	39.022	1.7269e-06	47.772	213.340	85.273	54.883	0.447	133.541	103.769	1.113	5.743	161.639	50.122	5.005	9.915	9.950	14.240	148.033	13.875	-8191	255	
3374.564	1	1	0	0	0.09421	0.050155	0.2939	0.13528	0.23167	0.17607	0.23561	0.24713	0.020791	0.20915	0.21053	0.063194	0.0091208	0.12539	0.12102	0.19817	-3.8583	-5.1125	-4.2125	-4.6062	-4.7188	-4.1	-4.9271	-4.65	-4.1396	-4.9187	-4.3271	-4.6708	-5.0021	-4.0875	-4.7875	-4.6438	347.234	104.274	40.124	-8.003	274.970	266.701	282.856	295.149	193.047	134.069	237.038	11.685	3.467	298.055	156.766	203.749	0.0003259	0.00017209	0.00010714	1324.8	5.1098e-06	6.5549e-07	1319.4	361.92	3.2281e-06	1.247e-06	412.58	138.42	119.62	40.983	1.6967e-06	51.017	0.00016173	0.00015564	4.3281e-05	1263.7	1.6839e-06	1.6925e-06	1280.6	348.46	1.6717e-06	1.6507e-06	390.93	131.24	112.26	38.999	1.622e-06	47.711	202.453	156.755	92.964	1.068	146.654	-6.173	1.196	5.754	41.633	174.257	5.218	10.116	10.194	14.191	71.961	13.574	-8191	255	
3374.683	1	1	0	0	0.37757	0.14541	0.20963	0.042399	0.24066	0.20266	0.16869	0.045933	0.1326	0.081875	0.24537	0.15528	0.33892	0.1118	0.22566	0.16776	-3.8604	-4.8771	-4.1896	-4.4458	-4.7937	-4.0417	-4.9062	-4.5875	-4.1792	-4.9	-4.2604	-4.2792	-4.9292	-4.1708	-4.6479	-4.6875	69.894	303.576	311.320	321.743	3.645	11.575	292.824	269.619	322.082	252.680	189.292	12.753	322.942	141.467	18.201	68.994	0.00020158	0.00023174	4.3275e-05	1319.2	2.0888e-06	7.0627e-06	1320.5	363.36	2.4114e-06	1.2814e-06	414.13	137.91	119.16	40.882	2.1741e-07	50.907	0.00015279	0.00014782	4.0262e-05	1260.7	1.5947e-06	1.5883e-06	1278.7	348.14	1.6039e-06	1.5777e-06	391.28	130.63	112.04	38.94	1.5494e-06	47.661	205.747	49.653	48.743	0.918	175.137	102.813	1.123	5.884	110.243	193.673	5.141	9.917	10.219	14.376	132.045	13.857	-8191	255	
3374.779	1	1	0	0	0.10303	0.14557	0.15549	0.19138	0.053583	0.095179	0.095315	0.1548	0.16326	0.094659	0.03927	0.26564	0.14126	0.32185	0.16841	0.11558	-3.7562	-4.9458	-4.3146	-4.5167	-4.9604	-4.1062	-4.9437	-4.8167	-4.1333	-4.8208	-4.6333	-4.1167	-5.0375	-4.075	-4.5542	-4.9437	259.427	189.180	218.086	342.482	255.727	324.260	295.034	205.183	49.004	216.998	296.906	324.718	309.023	24.514	36.171	170.568	0.00020237	0.0001351	9.1276e-05	1317.4	5.043e-06	2.9612e-06	1316.1	363.17	6.8361e-06	4.2407e-06	413.73	138.08	119.28	40.894	5.2547e-06	50.762	0.00014966	0.00014393	3.8603e-05	1260.1	1.5721e-06	1.5636e-06	1277.1	348.18	1.5769e-06	1.5285e-06	390.22	130.64	111.86	38.906	1.5314e-06	47.62	196.719	106.763	96.034	0.926	146.760	71.931	0.917	5.779	130.937	140.866	4.972	9.763	10.426	14.512	108.775	13.694	-8191	255	
3374.875	1	1	0	0	0.19628	0.20461	0.080251	0.26256	0.063835	0.067875	0.20194	0.26922	0.028241	0.18416	0.25019	0.13005	0.074641	0.14207	0.25353	0.16919	-3.7229	-4.8208	-4.5583	-4.2979	-4.8667	-4.1562	-4.7729	-4.9292	-4.0583	-4.8333	-4.65	-4.1292	-5.1542	-4.3479	-4.4021	-4.7583	56.155	156.093	16.036	255.200	182.180	167.387	275.463	312.832	307.192	25.201	323.913	178.047	276.210	9.352	186.173	302.412	0.00025976	0.00013566	0.00013199	1311.6	4.7229e-06	9.7266e-07	1316.2	363.32	6.4294e-06	8.7584e-07	413.89	138.34	119.4	40.937	2.963e-06	50.572	0.00014737	0.00014213	3.9478e-05	1259.2	1.5693e-06	1.5528e-06	1278	348.46	1.5896e-06	1.5369e-06	391.22	130.83	111.94	38.932	1.5534e-06	47.579	192.821	146.041	83.563	0.839	168.886	53.572	1.110	5.921	131.224	147.409	4.972	9.734	10.124	14.296	178.762	13.933	-8191	255	
3374.996	1	1	0	0	0.12995	0.21113	0.14708	0.22102	0.13687	0.12664	0.11902	0.15721	0.10068	0.25145	0.097537	0.050957	0.29119	0.085613	0.18847	0.14157	-3.6354	-4.6562	-4.5312	-4.1396	-4.8167	-4.3063	-4.6042	-4.925	-3.8771	-4.7167	-4.7812	-4.175	-5.1896	-4.5104	-4.4479	-5.0229	77.267	216.446	336.823	340.265	228.026	56.246	325.798	14.842	332.581	215.105	303.856	58.430	36.439	267.748	231.214	339.445	0.00023748	0.00052533	7.4357e-05	1318.4	6.0366e-06	4.297e-06	1316.4	363.89	2.3822e-06	1.404e-06	414.01	137.8	119.2	40.967	2.5145e-06	50.598	0.00014752	0.00014333	4.0346e-05	1261.3	1.5869e-06	1.57e-06	1276.8	348.49	1.6056e-06	1.5534e-06	390.41	130.61	111.85	38.931	1.5817e-06	47.592	192.295	83.855	5.952	0.774	195.409	90.662	0.880	5.805	172.427	212.781	5.145	9.795	10.541	14.368	147.806	13.398	-8191	255	
3375.067	1	1	0	0	0.26966	0.092878	0.061551	0.033716	0.27489	0.22765	0.41476	0.19254	0.1833	0.093993	0.1542	0.14879	0.16917	0.099822	0.14242	0.042867	-3.85	-4.6375	-4.7021	-4.2583	-4.775	-4.5125	-4.4083	-4.9542	-4.1062	-4.6458	-4.8479	-4.0854	-4.9208	-4.5104	-4.0521	-5.1125	246.526	84.251	153.557	196.039	125.107	41.703	304.667	287.919	36.148	249.908	257.490	346.970	261.050	158.348	120.101	145.486	0.00020817	0.00028763	0.00020576	1318	3.6165e-06	5.6803e-06	1317.5	363.78	4.2681e-06	2.3438e-06	414.74	137.7	119.69	41.098	4.0504e-06	50.902	0.00015056	0.00014806	4.1211e-05	1262.2	1.6068e-06	1.5889e-06	1278.7	348.94	1.6365e-06	1.6234e-06	391.57	130.65	112.13	39.003	1.6348e-06	47.713	203.648	61.689	106.056	0.770	137.163	116.268	1.056	5.669	166.669	132.757	5.021	9.928	10.049	14.342	149.726	13.788	-8191	255	
3375.163	1	1	0	0	0.13091	0.12242	0.15901	0.089985	0.065858	0.13752	0.40006	0.25991	0.11589	0.12197	0.051673	0.13127	0.13519	0.1577	0.097849	0.24625	-3.7062	-4.5042	-4.775	-4.275	-4.7167	-4.5542	-4.1583	-5.0583	-4.2312	-4.3646	-4.9104	-4.0271	-4.8438	-4.7667	-4.1625	-4.9458	49.746	230.018	190.207	111.394	82.095	69.610	225.445	251.184	203.267	237.987	305.073	318.115	251.743	162.173	24.770	297.094	0.00017293	0.00045536	0.00011182	1312.9	1.8192e-06	3.7728e-06	1320	362.78	1.5677e-06	3.3419e-06	413.3	137.96	119.4	40.881	1.6673e-06	50.941	0.00015371	0.00015059	4.2024e-05	1259.3	1.6494e-06	1.6529e-06	1278.9	348.82	1.6507e-06	1.632e-06	391.25	130.92	112.02	38.932	1.6459e-06	47.71	216.887	81.350	38.834	0.844	237.543	64.985	1.149	5.697	137.633	87.706	4.778	9.830	9.949	14.466	144.101	13.978	-8191	255	
#DATA ENDS
