BOXY.EXE: ISS Imagent and Oximeter Data Acquisition Program Version 0.80
Ascii Record File

#ACQ INFORMATION
2  Detector Channels 
16  External MUX Channels 
1  Auxiliary Channels 
5000  Waveform (CCF) Frequency (Hz)
1  Waveforms Skipped 
30  Waveforms Averaged 
1  Cycles Averaged 
16  Acquisitions per Waveform 
10.0806  Updata Rate (Hz) 

#FILE INFORMATION
TRUE -- External MUX Channel results are PARSED.
FALSE -- AC DC and Phase are NOT grouped.
TRUE -- Companion Program Settings File CREATED.
FALSE -- AC data not excluded
FALSE -- DC data not excluded
FALSE -- Phase data not excluded
FALSE -- Auxillary Chn. data not excluded
Tab delimiters

#CALIBRATION STATE
TRUE -- Waveform Calibration Values APPLIED.


#AUX CALIBRATION VALUES
Val Type	aux-1	

Term	1.0000e+00	
Factor	0.0000e+00	


#WF CALIBRATION VALUES
A = Detector Channel
Val Type	A-AC1	A-AC2	A-AC3	A-AC4	A-AC5	A-AC6	A-AC7	A-AC8	A-AC9	A-AC10	A-AC11	A-AC12	A-AC13	A-AC14	A-AC15	A-AC16	A-DC1	A-DC2	A-DC3	A-DC4	A-DC5	A-DC6	A-DC7	A-DC8	A-DC9	A-DC10	A-DC11	A-DC12	A-DC13	A-DC14	A-DC15	A-DC16	A-Ph1	A-Ph2	A-Ph3	A-Ph4	A-Ph5	A-Ph6	A-Ph7	A-Ph8	A-Ph9	A-Ph10	A-Ph11	A-Ph12	A-Ph13	A-Ph14	A-Ph15	A-Ph16	

Term	0.00000e+00	0.00000e+00	0.00000e+00	0.00000e+00	0.00000e+00	0.00000e+00	0.00000e+00	0.00000e+00	0.00000e+00	0.00000e+00	0.00000e+00	0.00000e+00	0.00000e+00	0.00000e+00	0.00000e+00	0.00000e+00	0.00000e+00	0.00000e+00	0.00000e+00	0.00000e+00	0.00000e+00	0.00000e+00	0.00000e+00	0.00000e+00	0.00000e+00	0.00000e+00	0.00000e+00	0.00000e+00	0.00000e+00	0.00000e+00	0.00000e+00	0.00000e+00	0.00000e+00	0.00000e+00	0.00000e+00	0.00000e+00	0.00000e+00	0.00000e+00	0.00000e+00	0.00000e+00	0.00000e+00	0.00000e+00	0.00000e+00	0.00000e+00	0.00000e+00	0.00000e+00	0.00000e+00	0.00000e+00	
Factor	1.00000e+00	1.00000e+00	1.00000e+00	1.00000e+00	1.00000e+00	1.00000e+00	1.00000e+00	1.00000e+00	1.00000e+00	1.00000e+00	1.00000e+00	1.00000e+00	1.00000e+00	1.00000e+00	1.00000e+00	1.00000e+00	1.00000e+00	1.00000e+00	1.00000e+00	1.00000e+00	1.00000e+00	1.00000e+00	1.00000e+00	1.00000e+00	1.00000e+00	1.00000e+00	1.00000e+00	1.00000e+00	1.00000e+00	1.00000e+00	1.00000e+00	1.00000e+00	X	X	X	X	X	X	X	X	X	X	X	X	X	X	X	X	

B = Detector Channel
Val Type	B-AC1	B-AC2	B-AC3	B-AC4	B-AC5	B-AC6	B-AC7	B-AC8	B-AC9	B-AC10	B-AC11	B-AC12	B-AC13	B-AC14	B-AC15	B-AC16	B-DC1	B-DC2	B-DC3	B-DC4	B-DC5	B-DC6	B-DC7	B-DC8	B-DC9	B-DC10	B-DC11	B-DC12	B-DC13	B-DC14	B-DC15	B-DC16	B-Ph1	B-Ph2	B-Ph3	B-Ph4	B-Ph5	B-Ph6	B-Ph7	B-Ph8	B-Ph9	B-Ph10	B-Ph11	B-Ph12	B-Ph13	B-Ph14	B-Ph15	B-Ph16	

Term	0.00000e+00	0.00000e+00	0.00000e+00	0.00000e+00	0.00000e+00	0.00000e+00	0.00000e+00	0.00000e+00	0.00000e+00	0.00000e+00	0.00000e+00	0.00000e+00	0.00000e+00	0.00000e+00	0.00000e+00	0.00000e+00	0.00000e+00	0.00000e+00	0.00000e+00	0.00000e+00	0.00000e+00	0.00000e+00	0.00000e+00	0.00000e+00	0.00000e+00	0.00000e+00	0.00000e+00	0.00000e+00	0.00000e+00	0.00000e+00	0.00000e+00	0.00000e+00	-6.52519e+01	-1.12272e+02	-1.40546e+02	-1.81760e+02	-6.76519e+01	-1.21665e+02	-1.56710e+02	-1.62015e+02	-7.69798e+01	-7.43317e+01	-1.71259e+02	-1.70793e+02	-1.83439e+02	-1.78028e+02	-8.90177e+01	-1.50152e+02	
Factor	1.93908e-05	8.47056e-05	2.70298e-05	2.28357e-01	9.52142e-07	1.06308e-06	1.77083e-01	6.50480e-02	1.16910e-06	1.01617e-06	9.54342e-02	3.47082e-02	3.35300e-02	1.00324e-02	1.07200e-06	1.43386e-02	6.12713e-07	6.25095e-07	1.73856e-07	1.09696e-01	6.82513e-09	6.83262e-09	8.13591e-02	3.12826e-02	6.82206e-09	6.81802e-09	4.37548e-02	1.58284e-02	1.56341e-02	4.75119e-03	6.80086e-09	6.48096e-03	X	X	X	X	X	X	X	X	X	X	X	X	X	X	X	X	



#DISTANCE SETTINGS
A = Detector Channel
A-1	A-2	A-3	A-4	A-5	A-6	A-7	A-8	A-9	A-10	A-11	A-12	A-13	A-14	A-15	A-16	

2.5000e+00	3.0000e+00	2.5000e+00	3.0000e+00	2.0000e+00	3.0000e+00	1.5000e+00	3.0000e+00	3.0000e+00	3.0000e+00	3.0000e+00	3.0000e+00	3.0000e+00	3.0000e+00	1.5000e+00	3.0000e+00	

B = Detector Channel
B-1	B-2	B-3	B-4	B-5	B-6	B-7	B-8	B-9	B-10	B-11	B-12	B-13	B-14	B-15	B-16	

1.0000e+01	1.0000e+01	1.0000e+01	1.4400e+00	1.0000e+01	1.0000e+01	1.5100e+00	1.9400e+00	1.0000e+01	1.0000e+01	1.9900e+00	2.4900e+00	2.4100e+00	2.9000e+00	1.0000e+01	2.9800e+00	




#DATA BEGINS
time	group	step	mark	flag	A-AC1	A-AC2	A-AC3	A-AC4	A-AC5	A-AC6	A-AC7	A-AC8	A-AC9	A-AC10	A-AC11	A-AC12	A-AC13	A-AC14	A-AC15	A-AC16	A-DC1	A-DC2	A-DC3	A-DC4	A-DC5	A-DC6	A-DC7	A-DC8	A-DC9	A-DC10	A-DC11	A-DC12	A-DC13	A-DC14	A-DC15	A-DC16	A-Ph1	A-Ph2	A-Ph3	A-Ph4	A-Ph5	A-Ph6	A-Ph7	A-Ph8	A-Ph9	A-Ph10	A-Ph11	A-Ph12	A-Ph13	A-Ph14	A-Ph15	A-Ph16	B-AC1	B-AC2	B-AC3	B-AC4	B-AC5	B-AC6	B-AC7	B-AC8	B-AC9	B-AC10	B-AC11	B-AC12	B-AC13	B-AC14	B-AC15	B-AC16	B-DC1	B-DC2	B-DC3	B-DC4	B-DC5	B-DC6	B-DC7	B-DC8	B-DC9	B-DC10	B-DC11	B-DC12	B-DC13	B-DC14	B-DC15	B-DC16	B-Ph1	B-Ph2	B-Ph3	B-Ph4	B-Ph5	B-Ph6	B-Ph7	B-Ph8	B-Ph9	B-Ph10	B-Ph11	B-Ph12	B-Ph13	B-Ph14	B-Ph15	B-Ph16	aux-1	digaux	

4967.104	1	1	0	256	0.048851	0.073252	0.21859	0.2667	0.13658	0.26469	0.10739	0.10929	0.02735	0.17019	0.25169	0.10625	0.12155	0.13973	0.12373	0.23841	-4.0042	-3.95	-4.8104	-4	-4.3458	-4.6188	-3.9896	-4.6979	-4.3771	-4.0917	-4.8958	-4.0292	-4.2646	-4.7042	-3.8521	-4.6646	212.793	1.665	207.067	96.838	254.555	150.326	219.518	47.238	66.469	-31.271	-33.182	82.440	38.144	155.349	147.721	262.980	0.00019491	0.00036856	0.0001669	543.73	2.1528e-06	5.9358e-06	787.96	154.69	4.0614e-06	3.6417e-06	291.18	100.66	44.739	15.004	2.3519e-06	37.822	0.00053176	0.00053494	0.00014701	589.05	5.7446e-06	5.749e-06	802.17	166.3	5.6092e-06	5.5206e-06	297.07	103.09	52.284	17.136	5.4702e-06	38.493	223.784	229.626	46.346	-30.927	169.525	171.679	-30.006	-25.430	150.602	83.412	-26.163	-20.866	-21.183	-18.088	109.203	-18.209	-8191	255	
4967.200	1	1	0	0	0.15903	0.1739	0.075324	0.20417	0.17324	0.23675	0.089531	0.0667	0.1434	0.052186	0.33649	0.1414	0.239	0.24884	0.1979	0.10059	-4.0687	-3.8667	-4.8208	-4.1625	-4.1583	-4.8208	-4.0604	-4.7271	-4.4021	-3.8937	-4.85	-4.0938	-3.9646	-4.8417	-4.1042	-4.4896	22.729	7.897	268.648	12.379	166.271	197.018	165.845	38.439	82.204	88.479	274.296	257.057	108.602	151.203	279.189	58.899	0.0002688	0.00010757	0.00018243	548.08	3.674e-06	4.9906e-06	788.36	154.37	7.4135e-06	7.1338e-06	290.52	99.283	44.061	14.739	1.12e-05	37.554	0.00050169	0.00050862	0.00014233	588.34	5.7721e-06	5.8304e-06	805.22	167.99	6.0303e-06	6.0745e-06	299.24	103.12	53.101	17.416	6.0099e-06	38.887	204.666	5.774	87.914	-30.658	111.533	101.973	-30.297	-25.754	119.546	234.252	-25.752	-21.030	-20.818	-17.396	78.715	-17.942	-8191	255	
4967.296	1	1	0	0	0.2666	0.057324	0.049389	0.14665	0.052281	0.17659	0.098118	0.0277	0.066476	0.19263	0.11481	0.04354	0.22873	0.22122	0.049584	0.082968	-4.3417	-3.9625	-4.7354	-4.2896	-4.0729	-4.8333	-3.9729	-4.2958	-4.6396	-3.8187	-4.7229	-4.3042	-4.1271	-4.8667	-3.9104	-4.3479	314.357	278.686	16.683	83.034	310.617	146.056	310.775	34.626	-19.783	245.190	-36.091	195.774	196.074	303.735	83.450	257.670	0.00012571	0.00052449	0.00017199	550.58	2.3008e-06	1.9061e-06	797.47	154.77	3.5991e-06	8.4716e-06	293.72	99.325	45.006	14.965	7.5115e-06	37.836	0.00054524	0.00054755	0.00015254	597.23	6.0431e-06	6.0143e-06	812.29	169.55	6.12e-06	6.1388e-06	301.56	103.6	53.535	17.582	6.0735e-06	39.157	202.995	139.225	82.886	-30.643	275.786	47.908	-30.067	-25.385	5.528	156.711	-25.510	-21.174	-20.992	-16.835	64.814	-18.364	-8191	255	
4967.392	1	1	0	0	0.096167	0.094195	0.070818	0.05435	0.073934	0.14841	0.33092	0.13179	0.097487	0.1574	0.064929	0.087796	0.22068	0.22308	0.25219	0.2418	-4.3271	-3.9354	-4.6104	-4.375	-3.8812	-4.8104	-3.9604	-4.2312	-4.6896	-3.775	-4.5917	-4.5354	-3.8542	-4.7917	-4.1562	-4.0792	115.223	91.074	121.610	-28.475	62.630	-31.988	279.777	75.201	33.810	256.885	83.771	-37.171	284.002	-14.857	112.194	213.692	0.00010735	0.00083197	0.00014038	559.21	6.4464e-06	6.1387e-06	809.73	157.07	2.3672e-06	5.1694e-06	296.7	100.57	45.407	15.17	8.1671e-06	37.966	0.00054151	0.00053806	0.00014845	599.86	5.6385e-06	5.5963e-06	815.99	168.56	5.4907e-06	5.4534e-06	301	103.36	52.891	17.351	5.4436e-06	38.841	179.400	151.070	60.204	-30.348	122.701	178.648	-30.038	-25.577	306.046	203.772	-25.643	-20.556	-21.415	-17.295	67.054	-18.195	-8191	255	
4967.513	1	1	0	0	0.038275	0.17082	0.095564	0.16229	0.13015	0.16715	0.12971	0.16375	0.13286	0.036449	0.16494	0.045119	0.096211	0.11615	0.058707	0.056249	-4.4688	-3.7208	-4.5146	-4.6104	-4.075	-4.7479	-4.2771	-4.0917	-4.75	-4.0167	-4.3938	-4.5458	-3.8292	-4.7167	-4.1188	-4.0687	217.527	151.694	-41.524	-42.437	279.082	263.808	309.743	268.941	239.787	244.752	-22.285	50.349	2.533	306.152	22.465	211.475	0.00014058	0.00037004	7.8397e-05	546.86	3.7604e-06	6.5675e-06	790.55	153.44	3.6251e-06	5.1984e-06	288.15	99.132	44.128	14.787	6.3591e-06	37.407	0.00050078	0.00050925	0.00014244	589.68	5.6827e-06	5.6948e-06	801.46	166.88	5.7933e-06	5.7806e-06	295.57	102.26	52.404	17.134	5.6658e-06	38.248	174.607	79.933	59.337	-30.697	-7.239	-31.806	-30.006	-25.656	123.248	158.488	-25.851	-20.980	-21.235	-17.293	19.030	-18.128	-8191	255	
4967.609	1	1	0	0	0.13947	0.0142	0.086329	0.24755	0.14201	0.078184	0.09498	0.069899	0.053096	0.14656	0.25776	0.12989	0.078306	0.15953	0.15193	0.055143	-4.5458	-3.9583	-4.3167	-4.5875	-3.7646	-4.5375	-4.3708	-4.1625	-4.8917	-3.9396	-4.4083	-4.9708	-3.9396	-4.5354	-4.3583	-4.0167	222.400	-28.347	47.827	308.380	291.929	215.635	225.284	285.479	244.053	293.273	301.168	132.278	244.630	171.724	82.644	126.550	0.00018965	0.00017265	8.217e-05	539.62	8.4773e-06	7.0764e-07	786.79	153.43	9.7194e-06	7.8253e-06	290.62	100.09	44.694	15.069	4.6361e-06	37.919	0.0005103	0.00051799	0.00014448	582.35	5.7013e-06	5.719e-06	797.52	166.89	5.8442e-06	5.9547e-06	298.95	103.6	53.311	17.492	5.8645e-06	39.106	196.375	243.077	184.309	-30.373	54.858	172.470	-30.057	-25.504	102.138	162.828	-25.950	-21.267	-20.965	-17.631	173.495	-18.364	-8191	255	
4967.705	1	1	0	0	0.10319	0.15059	0.23253	0.2352	0.10146	0.034451	0.12736	0.089047	0.28463	0.17808	0.046592	0.33844	0.055273	0.087149	0.095465	0.097845	-4.4667	-3.9979	-4.2104	-4.75	-3.8396	-4.6083	-4.5292	-3.9083	-4.7667	-4.0229	-4.3292	-4.8187	-3.9313	-4.5833	-4.4917	-3.8292	220.848	232.090	130.636	-18.584	24.433	149.381	291.365	287.763	57.584	136.925	303.810	-38.853	256.725	-14.070	66.034	260.431	0.00010189	0.00016313	0.00021498	537	3.048e-06	6.7333e-06	791.6	157.14	7.93e-06	3.4215e-06	298.67	103.33	46.4	15.366	4.9494e-06	38.821	0.00052726	0.00052998	0.00014626	586.08	5.6266e-06	5.5814e-06	800.05	167.93	5.4608e-06	5.4898e-06	301.68	105.07	53.339	17.533	5.3734e-06	39.368	252.566	96.974	50.920	-30.350	216.510	66.664	-29.876	-25.545	102.694	11.017	-26.069	-21.041	-21.008	-17.307	-12.904	-18.321	-8191	255	
4967.801	1	1	0	0	0.10531	0.1321	0.065522	0.14107	0.056708	0.14169	0.20134	0.064133	0.1376	0.062641	0.23521	0.049331	0.066288	0.21609	0.29937	0.14156	-4.4708	-4.1708	-4.0146	-4.7979	-3.9771	-4.3479	-4.6813	-4.0771	-4.7583	-4.2896	-4.1562	-4.9917	-3.9958	-4.3229	-4.6833	-3.9792	276.057	-10.332	-10.768	126.290	291.662	191.542	294.494	239.312	-33.391	136.874	314.970	33.333	214.665	115.562	29.911	-13.116	0.00015105	5.6783e-05	8.0413e-05	547.21	4.3827e-07	3.3758e-06	801.17	157.48	1.4009e-06	8.7522e-06	298.73	103.13	46.151	15.316	5.6019e-06	38.473	0.00048303	0.00048907	0.00013547	585.47	5.3119e-06	5.321e-06	807.89	168.51	5.2596e-06	5.2551e-06	301.99	104.5	53.156	17.347	5.2389e-06	39.012	189.407	158.634	49.742	-29.990	-30.690	-22.141	-29.950	-25.463	34.833	142.112	-26.187	-20.800	-20.333	-18.097	79.873	-18.490	-8191	255	
4967.897	1	1	0	0	0.12203	0.10024	0.15481	0.16221	0.11608	0.20985	0.24118	0.31801	0.069575	0.20718	0.38922	0.099077	0.18522	0.12797	0.030632	0.26225	-4.4	-4.3458	-3.9667	-4.8646	-4.0604	-4.2646	-4.8292	-3.7521	-4.6104	-4.3604	-4.0479	-4.7125	-4.0583	-4.1708	-4.775	-3.85	212.024	33.487	141.665	79.418	14.070	118.763	237.365	225.571	-13.858	-36.536	235.123	147.806	-25.281	70.594	92.810	309.620	6.3468e-05	0.00016785	4.9613e-05	543.07	4.2821e-06	7.0377e-06	790.55	155.86	4.6077e-06	2.0818e-06	296.69	102.57	46.232	15.236	6.069e-06	38.684	0.00047004	0.00047707	0.00013193	576.5	5.1413e-06	5.1274e-06	793.06	165.05	5.0675e-06	5.0605e-06	297.1	103.57	52.22	17.215	5.0485e-06	38.93	257.382	34.218	23.788	-30.324	294.379	130.523	-30.130	-25.608	88.578	0.680	-25.848	-20.633	-21.076	-17.549	160.325	-18.268	-8191	255	
4967.992	1	1	0	0	0.21918	0.19718	0.083936	0.32208	0.083858	0.13229	0.17527	0.028477	0.29543	0.15371	0.028508	0.15969	0.26602	0.01988	0.12649	0.098717	-4.3583	-4.4396	-4.0875	-4.7292	-4.0583	-4.1562	-4.8229	-3.9813	-4.4104	-4.5417	-3.6542	-4.8438	-4.0542	-4.0979	-4.9417	-4.0312	12.665	137.672	54.198	304.354	231.340	187.465	223.196	41.840	275.818	281.559	251.329	221.939	106.732	116.906	95.006	250.581	0.00011299	0.00065611	4.2946e-05	539.89	9.1798e-06	1.2272e-06	786.12	157.01	7.2995e-06	5.6696e-06	297.76	103.2	46.474	15.532	5.8546e-06	39.024	0.00045894	0.0004649	0.00012943	572.64	5.0767e-06	5.0667e-06	793.54	166.4	5.1386e-06	5.1039e-06	300.5	104.47	52.937	17.417	5.1431e-06	39.308	222.043	13.655	146.823	-30.662	143.204	1.948	-29.953	-25.842	211.743	47.394	-26.106	-21.473	-20.320	-18.060	104.184	-18.606	-8191	255	
4968.088	1	1	0	0	0.063344	0.13669	0.12535	0.13871	0.22836	0.12332	0.27733	0.13356	0.035636	0.2171	0.18973	0.019175	0.11089	0.08684	0.075225	0.13797	-3.9458	-4.6354	-3.7271	-4.6854	-4.3042	-3.9604	-4.9417	-4.0729	-4.3104	-4.7812	-3.9458	-4.55	-4.3604	-3.9813	-4.7229	-4.0958	226.582	155.734	306.995	112.942	315.311	146.206	255.705	150.808	244.903	238.819	48.733	295.876	154.728	51.412	-5.968	160.395	0.00016473	0.00064746	0.00011188	547.92	1.6295e-06	7.0847e-06	798.64	158.4	4.0856e-06	3.0844e-06	298.33	104.34	46.871	15.557	4.5955e-06	39.414	0.00046826	0.00047003	0.00012994	578.96	5.034e-06	5.0626e-06	800.13	166.95	4.9903e-06	4.9722e-06	300.82	104.94	53.137	17.539	5.1276e-06	39.731	253.940	27.321	35.535	-30.455	254.563	77.927	-29.935	-25.722	191.733	67.949	-26.110	-21.025	-20.885	-17.355	-0.701	-18.216	-8191	255	
4968.208	1	1	0	0	0.059891	0.21535	0.062876	0.11634	0.10221	0.088015	0.16366	0.30432	0.097454	0.098674	0.14211	0.17818	0.0532	0.06722	0.046592	0.11056	-3.8708	-4.675	-3.7354	-4.6854	-4.5167	-3.8396	-4.8542	-4.2083	-4.2063	-4.7854	-3.9354	-4.6813	-4.4875	-3.925	-4.7396	-4.2521	148.711	313.995	224.815	62.394	68.983	20.221	-40.360	248.217	180.588	45.421	282.226	225.958	180.684	82.358	90.668	295.098	0.00024796	0.00054921	0.00014995	554.63	1.8194e-06	1.4887e-06	798.89	159.37	1.4943e-06	1.0726e-06	300.02	102.89	46.599	15.462	6.1895e-06	38.851	0.00047868	0.00048888	0.00013745	590.93	5.4632e-06	5.4765e-06	809.96	170.68	5.4751e-06	5.4284e-06	303.84	105.07	53.495	17.581	5.3082e-06	39.257	209.711	239.757	265.187	-30.565	180.558	101.457	-29.970	-25.498	12.155	15.815	-26.139	-21.030	-21.170	-17.266	290.991	-18.469	-8191	255	
4968.305	1	1	0	0	0.19111	0.052742	0.13804	0.094863	0.1779	0.09596	0.1628	0.10267	0.04883	0.27811	0.17978	0.030151	0.14264	0.14123	0.18311	0.12079	-3.8292	-4.8542	-3.8771	-4.4812	-4.5437	-3.6479	-4.8104	-4.1583	-3.9688	-4.7521	-3.9146	-4.3229	-4.6667	-3.9958	-4.6562	-4.4187	-5.393	287.922	287.455	275.240	191.833	303.222	288.794	213.391	52.598	11.987	262.726	187.118	-12.591	241.197	279.053	305.067	0.0001346	0.00052491	0.0001684	543.09	3.8409e-06	3.5235e-06	785.35	153.57	3.61e-06	6.4159e-06	287.87	98.615	43.906	14.581	3.2779e-06	36.767	0.00048654	0.00048593	0.00013626	579.87	5.395e-06	5.4243e-06	794.53	165.81	5.6036e-06	5.564e-06	294.72	101.51	51.869	17.035	5.6551e-06	37.855	183.739	130.789	-28.044	-30.342	214.054	-6.349	-29.965	-25.595	225.165	53.307	-26.055	-21.395	-21.069	-17.525	227.775	-18.234	-8191	255	
4968.401	1	1	0	0	0.30774	0.11279	0.022491	0.16471	0.036587	0.14683	0.16219	0.19101	0.13774	0.040213	0.15381	0.36262	0.18166	0.038967	0.37513	0.022459	-3.7896	-4.9792	-4.0563	-4.1417	-4.7438	-3.7708	-4.7229	-4.4917	-3.9042	-4.7042	-4.0729	-4.2646	-4.6896	-3.8979	-4.525	-4.5667	267.491	227.321	-2.512	35.225	313.481	239.978	268.770	81.536	152.003	-42.377	69.127	277.894	299.797	103.386	137.208	180.085	0.00021961	0.00038229	8.9786e-05	533.54	1.2952e-05	3.8359e-06	781.65	153.3	1.0019e-06	2.1698e-06	289.86	98.987	44.088	14.63	2.3342e-06	37.419	0.00051446	0.00051755	0.00014525	579.14	5.6069e-06	5.6349e-06	791.02	165.15	5.5322e-06	5.5205e-06	294.48	101.89	51.941	17.023	5.4901e-06	38.201	221.511	66.453	265.924	-30.666	86.756	57.234	-29.988	-25.312	77.483	234.173	-25.968	-21.099	-20.309	-17.578	133.817	-18.117	-8191	255	
4968.472	1	1	0	0	0.21798	0.029041	0.24703	0.093771	0.12894	0.028443	0.37693	0.26708	0.095428	0.23777	0.11983	0.015973	0.15079	0.14905	0.20942	0.053917	-3.4792	-4.6417	-3.9667	-4.1417	-4.7083	-3.8146	-4.5188	-4.4167	-3.7313	-4.7375	-4.2292	-4.0375	-4.6813	-3.7812	-4.425	-4.75	315.030	51.374	230.477	180.766	204.546	10.447	249.989	-41.048	261.781	93.665	-18.441	246.720	294.088	262.524	-17.730	312.447	0.00017726	0.00028912	9.4747e-05	544.54	1.0431e-05	4.5733e-06	787.69	154.74	1.4455e-06	6.3347e-06	293.69	99.703	45.688	14.834	3.685e-06	37.585	0.00049773	0.00050028	0.00014051	582.21	5.5206e-06	5.5322e-06	798.17	166.64	5.4542e-06	5.4087e-06	297.77	102.46	52.289	17.019	5.2244e-06	38.279	233.698	102.508	190.885	-30.334	103.901	58.387	-29.976	-25.704	31.029	152.858	-25.978	-21.239	-20.543	-17.264	192.707	-17.790	-8191	255	
4968.593	1	1	0	0	0.15833	0.10281	0.17757	0.085882	0.16798	0.21461	0.20415	0.17388	0.13358	0.12755	0.094798	0.25624	0.13018	0.029761	0.066476	0.24218	-3.525	-4.5771	-4.2229	-4.1042	-4.8771	-3.9646	-4.2729	-4.7271	-3.6208	-4.5896	-4.4208	-3.9792	-4.8667	-4.1271	-4.3063	-4.6687	55.988	-30.092	180.687	32.194	-27.933	-43.533	275.864	-42.111	155.996	236.888	187.804	-38.149	-19.332	302.275	141.645	263.214	9.4053e-06	0.00067756	0.00011876	548.61	3.2737e-06	3.6661e-06	794.24	158.29	2.6131e-06	7.6544e-07	294.29	102.25	45.476	14.988	6.1217e-06	37.631	0.0004681	0.00047353	0.00013133	582.56	5.1327e-06	5.1934e-06	802.36	166.97	5.1254e-06	5.1316e-06	297.65	102.9	51.835	16.915	5.0824e-06	37.95	-15.062	196.845	31.199	-30.325	116.655	111.127	-30.234	-25.614	32.791	11.772	-25.926	-21.474	-21.252	-17.412	12.845	-18.364	-8191	255	
4968.689	1	1	0	0	0.072005	0.14716	0.069547	0.21903	0.19045	0.0518	0.25323	0.15315	0.12645	0.098765	0.1513	0.18239	0.01186	0.15228	0.04217	0.11734	-3.4125	-4.4479	-4.4167	-3.9521	-4.8146	-4.0958	-4.2708	-4.6458	-3.6729	-4.3521	-4.3438	-3.7667	-4.7188	-3.9792	-4.1125	-4.7458	114.053	94.202	155.653	286.248	248.648	93.563	-17.007	208.927	47.770	116.370	179.460	281.249	81.452	295.198	234.517	229.888	0.00010513	3.2859e-05	0.00011223	541.77	4.5293e-06	6.318e-06	784.84	154.27	6.4142e-06	2.5425e-06	289.46	99.065	44.388	14.434	7.4429e-07	36.746	0.00045849	0.00046359	0.00012972	572.9	5.0674e-06	5.0871e-06	790.13	163.38	5.1355e-06	5.1278e-06	292.11	100.83	51.156	16.612	5.2469e-06	37.302	278.974	-10.514	124.573	-30.176	32.216	45.235	-30.140	-25.550	42.623	48.640	-26.184	-21.153	-20.659	-17.303	285.179	-17.955	-8191	255	
4968.785	1	1	0	0	0.18538	0.083391	0.11264	0.13962	0.081311	0.13889	0.04387	0.032379	0.075018	0.11895	0.22008	0.13735	0.20959	0.23088	0.071667	0.080023	-3.6083	-4.2229	-4.5042	-3.8875	-4.7458	-4.2042	-4.1375	-4.8646	-3.8271	-4.4	-4.5917	-3.9	-4.7479	-4.2917	-3.9146	-4.8042	251.764	138.557	164.298	259.389	86.335	171.088	177.653	214.531	193.188	247.753	295.672	86.841	214.162	316.425	-28.104	51.040	0.0001013	0.00050727	0.0002462	535.45	5.6891e-06	2.0652e-06	779.82	151.56	3.4788e-06	3.9522e-06	288.7	98.673	44.466	14.727	5.4731e-06	37.325	0.00048625	0.00049501	0.00013831	577.33	5.4556e-06	5.5619e-06	792.09	164.44	5.5632e-06	5.5368e-06	294.56	101.38	52.048	17.071	5.5901e-06	38.245	161.284	226.917	33.108	-30.546	215.082	-34.812	-30.210	-25.279	219.791	143.653	-26.132	-20.907	-21.415	-17.093	92.622	-18.279	-8191	255	
4968.882	1	1	0	0	0.15132	0.089254	0.069889	0.087756	0.11102	0.040442	0.46408	0.20272	0.080079	0.2404	0.065263	0.18449	0.23249	0.11258	0.21095	0.19192	-3.6396	-4.1646	-4.4646	-3.8688	-4.5583	-4.1083	-4.05	-4.8604	-3.9917	-4.1854	-4.8125	-3.8167	-4.6667	-4.5375	-3.8708	-4.7688	214.455	117.249	102.973	5.583	179.726	-9.105	259.314	263.697	303.076	-17.326	258.348	-31.468	12.901	70.375	-9.736	152.622	8.3646e-05	0.00017082	0.00016693	536.72	3.2827e-06	1.1702e-05	783.19	156.17	3.8175e-06	6.4425e-06	297.51	102.42	46.551	15.405	4.8276e-06	38.856	0.0005065	0.00051127	0.0001406	578.48	5.4319e-06	5.4871e-06	793.78	166.8	5.4051e-06	5.378e-06	300.31	104.63	53.051	17.503	5.1575e-06	39.454	205.516	214.273	37.654	-30.437	101.624	211.793	-29.868	-25.459	15.548	311.722	-25.725	-21.348	-20.765	-17.059	296.721	-18.111	-8191	255	
4969.000	1	1	0	0	0.065535	0.12551	0.20109	0.11224	0.1953	0.083993	0.042525	0.085769	0.15176	0.11934	0.081005	0.13699	0.30234	0.16877	0.15718	0.14495	-3.6708	-4.1292	-4.7188	-4.0292	-4.3812	-4.4	-3.8438	-4.8229	-4.0979	-4.2021	-4.8292	-3.9562	-4.5979	-4.5687	-3.8208	-4.8354	129.555	265.094	-2.240	-4.646	-25.779	137.625	306.331	310.880	128.373	42.628	72.439	0.742	245.011	17.362	138.991	151.203	0.00012796	0.00021088	2.9388e-05	540.03	6.2507e-06	5.9746e-06	790.53	157.73	6.7778e-06	2.7012e-06	298.52	103.42	46.539	15.316	9.3157e-06	38.552	0.00046394	0.00046339	0.00012739	572.39	4.9298e-06	4.9557e-06	791.98	166.33	4.88e-06	4.8011e-06	298.41	103.95	51.903	16.977	4.6249e-06	38.346	171.550	285.438	112.275	-30.563	149.332	309.061	-30.354	-25.549	88.809	185.970	-26.318	-20.772	-21.624	-17.435	205.680	-18.027	-8191	255	
4969.074	1	1	0	0	0.081752	0.13177	0.19149	0.052285	0.16055	0.074447	0.18705	0.065051	0.2028	0.080736	0.1608	0.091431	0.15796	0.13199	0.052355	0.14142	-3.9833	-4.1062	-4.7292	-3.9771	-4.375	-4.7167	-3.9604	-4.6083	-4.2875	-4.0021	-5.0646	-4.0938	-4.325	-4.6646	-3.9333	-4.6479	-33.821	265.523	202.266	82.140	290.472	-3.314	261.491	247.506	110.551	146.576	283.836	141.897	305.296	314.656	113.719	230.794	4.5618e-05	0.00050189	9.8217e-05	530.89	3.8958e-06	3.0695e-06	774.39	154.75	5.58e-06	4.2864e-06	296.12	101.75	45.859	15.121	9.2733e-06	38.486	0.00041905	0.00041985	0.00011676	557.9	4.5624e-06	4.5721e-06	776.36	161.63	4.5149e-06	4.5138e-06	293.06	101.99	51.155	16.755	4.4328e-06	38.29	218.563	254.520	279.474	-30.214	143.042	302.922	-30.141	-25.357	202.990	158.020	-25.975	-21.058	-21.308	-17.467	82.879	-18.176	-8191	255	
4969.193	1	1	0	0	0.054141	0.12502	0.14312	0.2386	0.088061	0.099421	0.1421	0.22059	0.10045	0.11426	0.030946	0.13126	0.24346	0.075318	0.40759	0.076777	-3.9562	-3.8375	-4.6417	-4.0708	-4.2646	-4.7208	-4.0479	-4.6833	-4.4062	-3.9021	-4.8688	-4.0125	-4.1271	-4.725	-3.9	-4.5938	255.490	69.400	192.714	232.419	131.378	157.039	304.629	-40.762	265.395	40.872	179.339	214.331	286.594	69.734	114.225	222.732	0.00023193	0.00023541	4.4188e-05	528.05	2.8517e-06	7.7591e-06	776.57	155.28	3.2371e-06	2.4879e-06	297.95	102.72	46.058	15.097	4.8563e-06	38.366	0.00040414	0.00040626	0.00011312	552.8	4.4624e-06	4.4825e-06	777.51	162.1	4.5745e-06	4.5653e-06	295.54	103.23	51.615	16.803	4.5829e-06	38.298	170.635	201.119	295.181	-29.907	30.557	32.634	-29.893	-25.435	-14.566	126.060	-25.695	-20.763	-21.061	-17.918	-22.291	-18.207	-8191	255	
4969.289	1	1	0	0	0.18782	0.076181	0.18614	0.28848	0.17115	0.025973	0.12306	0.28401	0.14065	0.060116	0.19913	0.15727	0.058176	0.16524	0.26191	0.215	-4.2479	-3.9396	-4.7521	-4.2812	-4.0375	-4.7479	-3.9229	-4.55	-4.6208	-3.7229	-4.8083	-4.3063	-3.9458	-4.7688	-4.0021	-4.4583	-9.781	-30.281	144.593	290.920	37.175	28.585	207.812	211.202	-24.515	82.555	-31.323	240.028	21.147	-16.615	43.530	299.894	0.00017609	7.3513e-05	0.00023712	537.87	3.1081e-06	6.1845e-06	781.93	156	5.9588e-06	4.1505e-06	298.23	102.7	46.54	15.436	4.7465e-06	39.023	0.00041914	0.00042214	0.0001163	563.19	4.5451e-06	4.5071e-06	784.01	162.97	4.4967e-06	4.453e-06	296.42	103.11	51.437	16.962	4.5951e-06	38.899	165.775	215.004	67.855	-30.668	-33.072	86.340	-30.205	-25.299	212.256	149.126	-25.966	-20.987	-20.914	-17.087	46.047	-18.029	-8191	255	
4969.385	1	1	0	0	0.081959	0.026036	0.12665	0.1096	0.098701	0.22584	0.21411	0.18773	0.10886	0.15324	0.20805	0.13471	0.12004	0.3048	0.094004	0.22231	-4.3	-3.8563	-4.6083	-4.3146	-4.0271	-4.7438	-4.1729	-4.3438	-4.7833	-3.9271	-4.7792	-4.3562	-3.8708	-4.8521	-3.9646	-4.2937	-32.658	246.245	66.843	265.578	119.415	205.761	246.258	217.207	-37.280	309.825	5.989	169.203	186.736	84.725	-42.479	273.821	0.00015915	0.00049121	4.4349e-05	542.93	2.7497e-06	2.1657e-06	790.36	157.33	7.8611e-06	2.6756e-06	297.52	103.09	45.959	15.426	6.1905e-06	38.752	0.00042437	0.00043126	0.00012287	571.64	4.8705e-06	4.9273e-06	793.99	167.43	5.2484e-06	5.3555e-06	301.48	105.62	53.905	17.799	5.8954e-06	40.007	226.359	129.564	278.693	-30.239	49.886	30.911	-30.044	-25.593	275.552	310.976	-26.165	-21.332	-21.334	-17.255	152.531	-18.705	-8191	255	
4969.481	1	1	0	0	0.22245	0.22785	0.052359	0.24118	0.27987	0.19396	0.27845	0.087278	0.048364	0.24226	0.17469	0.15528	0.17732	0.12097	0.10624	0.25341	-4.4979	-3.8563	-4.5333	-4.5125	-3.9688	-4.7917	-4.1917	-4.1958	-4.5813	-3.9229	-4.5458	-4.4979	-3.7479	-4.7375	-4.1833	-4.1354	8.360	3.858	263.752	228.832	310.044	307.796	-13.969	303.504	243.549	219.734	69.309	51.921	18.086	108.448	15.668	231.864	0.00013559	0.00053454	6.992e-05	521.12	2.7868e-06	8.181e-06	761.63	152.14	1.1163e-05	4.735e-06	289.34	100.29	45.317	14.973	1.4799e-06	38.02	0.00054783	0.00056418	0.00015688	575.11	6.3151e-06	6.3926e-06	783.25	168.19	6.4582e-06	6.4902e-06	300.66	105.12	54.858	17.913	6.47e-06	39.69	196.614	-17.226	83.457	-30.415	142.229	309.844	-29.971	-25.223	47.115	6.448	-26.154	-20.881	-20.677	-17.801	130.685	-18.108	-8191	255	
4969.602	1	1	0	0	0.080215	0.065159	0.20581	0.17731	0.11879	0.1286	0.15648	0.19048	0.051203	0.21187	0.099863	0.12541	0.071137	0.28838	0.39269	0.18761	-4.4958	-3.9417	-4.25	-4.425	-3.8187	-4.8729	-4.2542	-4.05	-4.7271	-4.0896	-4.3812	-4.8354	-3.8479	-4.7021	-4.2958	-3.9042	309.329	288.696	242.731	44.103	117.382	195.878	300.349	259.055	129.736	55.889	109.563	173.905	292.939	272.402	8.003	38.666	0.00010779	0.00033749	8.113e-05	515.28	4.3934e-06	2.297e-06	761.69	152.29	6.5534e-06	9.5994e-06	289.01	100.82	44.932	15.329	3.7748e-06	39.099	0.00057825	0.00058554	0.0001622	573.01	6.3341e-06	6.2796e-06	781.22	167.44	6.3261e-06	6.2491e-06	299.78	105	54.18	17.991	6.0968e-06	40.302	28.632	17.593	-7.797	-29.940	4.027	84.621	-30.112	-25.532	135.406	147.010	-26.502	-20.700	-20.678	-17.708	35.461	-18.288	-8191	255	
4969.698	1	1	0	0	0.032839	0.27558	0.30398	0.14545	0.24925	0.11836	0.18879	0.12669	0.24395	0.10612	0.09818	0.023884	0.028151	0.28756	0.048571	0.092984	-4.4833	-3.9458	-4.3208	-4.6292	-3.6458	-4.4979	-4.4729	-3.9792	-4.8896	-3.9813	-4.2583	-4.775	-3.8646	-4.5333	-4.3896	-4	282.692	197.964	15.299	114.082	301.546	183.566	103.213	160.469	129.995	132.028	122.025	195.555	266.896	-42.051	1.607	76.079	0.00015655	0.00020204	0.00020845	520.4	5.296e-07	2.677e-06	762.01	154.43	3.2371e-06	2.5648e-06	297.53	104.66	46.565	15.706	5.8121e-06	39.773	0.00054897	0.0005535	0.00015415	571.4	6.0223e-06	5.9586e-06	783.1	167.55	5.9242e-06	5.9244e-06	303.59	106.78	54.717	18.081	5.7448e-06	40.68	227.835	98.644	216.925	-30.297	195.961	169.855	-29.725	-25.319	167.355	251.304	-26.152	-21.227	-20.776	-17.419	51.086	-18.137	-8191	255	
4969.770	1	1	0	0	0.11431	0.10678	0.18757	0.064866	0.22412	0.092645	0.099358	0.1456	0.056446	0.12108	0.11992	0.12463	0.11676	0.11664	0.1686	0.39071	-4.6458	-4.15	-4.0458	-4.8	-4.0125	-4.525	-4.6479	-4.0417	-4.6375	-4.225	-4.2583	-4.7042	-3.9417	-4.2104	-4.5917	-3.9875	191.633	107.003	274.874	43.951	296.686	275.948	208.970	-31.152	138.067	72.597	315.301	233.628	88.255	112.323	110.239	301.148	0.00017331	0.00031039	0.00014755	528.81	4.5307e-06	3.6955e-06	768.73	154.52	3.9075e-06	3.2697e-06	298.27	104.41	47.126	15.597	1.1949e-06	39.557	0.00051145	0.0005181	0.0001435	569.96	5.5836e-06	5.545e-06	780.26	166.26	5.4888e-06	5.5067e-06	300.13	106.04	53.562	17.684	5.3329e-06	40.026	286.020	79.780	83.918	-30.161	224.205	188.357	-30.017	-25.691	315.327	4.421	-26.219	-21.393	-20.966	-17.376	178.290	-18.501	-8191	255	
4969.889	1	1	0	0	0.16932	0.18193	0.13011	0.076589	0.26315	0.024616	0.068155	0.12892	0.27572	0.053316	0.13755	0.20639	0.12	0.051543	0.16094	0.15076	-4.4542	-4.1	-4.0542	-4.7812	-4.2104	-4.3667	-4.8125	-3.8396	-4.6917	-4.4854	-4.05	-4.925	-3.9625	-4.1417	-4.6937	-4.0521	10.008	4.473	219.380	91.095	135.400	43.429	214.789	307.010	2.492	61.599	172.218	5.582	140.482	104.644	214.784	201.309	0.00023208	0.00054721	0.00018312	512.06	1.7412e-06	3.4053e-06	755.57	151.96	1.22e-05	7.8019e-06	292.62	102.81	45.638	15.495	6.6146e-06	39.576	0.00047804	0.00048704	0.00013413	550.73	5.234e-06	5.1871e-06	763.59	162.2	5.1323e-06	5.0765e-06	295.31	104.55	52.086	17.335	4.9368e-06	39.603	176.381	163.088	140.163	-30.392	237.003	44.805	-29.980	-25.901	182.812	208.696	-25.839	-21.009	-20.816	-17.359	201.933	-18.232	-8191	255	
4969.985	1	1	0	0	0.33302	0.14235	0.20042	0.12652	0.13317	0.07818	0.061437	0.093211	0.14007	0.069154	0.14381	0.044007	0.25233	0.039282	0.17065	0.13309	-4.3104	-4.5062	-4.0417	-4.7458	-4.0604	-4.2292	-4.8125	-3.9896	-4.4792	-4.6792	-3.9708	-4.8271	-4.1729	-4.0625	-4.6833	-3.9167	131.727	136.213	86.407	283.762	252.200	252.070	213.642	-41.425	297.353	201.802	-1.108	144.056	207.854	82.299	230.084	310.780	0.00017109	0.0001851	5.6268e-05	514.37	7.8836e-06	3.3993e-06	761.8	153.16	2.036e-06	1.1495e-06	293.3	102.46	45.819	15.201	4.7694e-06	38.271	0.00045123	0.00045931	0.00012808	550.36	5.0912e-06	5.0926e-06	769.28	163.02	5.2384e-06	5.2013e-06	296.44	104.14	52.854	17.369	5.4748e-06	39.328	180.090	48.482	-39.145	-30.042	134.806	298.258	-29.754	-25.484	233.739	44.143	-25.744	-20.851	-20.993	-17.645	126.568	-18.417	-8191	255	
4970.081	1	1	0	0	0.020862	0.16204	0.040481	0.15599	0.07803	0.034788	0.049305	0.15766	0.21895	0.017297	0.035962	0.015289	0.1202	0.052086	0.08689	0.051413	-3.9771	-4.5979	-3.9167	-4.8125	-4.2396	-3.9792	-4.9125	-3.8833	-4.4375	-4.6854	-3.9479	-4.8771	-4.2812	-3.8833	-4.7667	-4.0042	15.554	203.113	287.554	150.957	233.508	113.756	32.245	19.364	71.770	41.128	21.194	52.049	-5.468	120.112	23.671	207.369	0.00014552	0.00089377	3.9757e-05	518.47	2.8262e-06	5.9406e-06	769.99	153.05	5.6319e-06	2.6639e-06	292.55	101.5	45.255	15.115	2.3445e-06	38.858	0.00050771	0.00052079	0.00014468	565.63	5.7406e-06	5.7162e-06	781.09	165.56	5.7396e-06	5.7283e-06	298.21	104.19	53.047	17.555	5.5832e-06	39.716	183.585	108.164	-18.883	-30.176	-6.580	-12.158	-29.739	-25.183	205.351	110.477	-26.077	-20.617	-20.683	-17.804	296.051	-17.966	-8191	255	
4970.177	1	1	0	0	0.20834	0.1084	0.12609	0.22297	0.15972	0.22366	0.092581	0.11355	0.021958	0.10934	0.083489	0.16686	0.03717	0.07697	0.091404	0.1566	-4.0333	-4.5938	-3.7458	-4.5958	-4.5167	-3.9562	-4.7937	-4.0625	-4.1979	-4.7583	-3.8604	-4.5375	-4.5854	-3.975	-4.6625	-4.0729	285.534	270.236	285.707	71.478	110.569	-32.747	145.503	189.314	89.792	262.628	236.008	50.030	-0.647	270.752	285.218	111.829	0.00016971	0.00021503	0.00016118	523.4	4.367e-06	5.5017e-06	766.92	153.56	3.1075e-06	2.5877e-06	291.03	101.65	44.635	14.857	5.7068e-06	38.825	0.00050555	0.00051178	0.00014183	564.69	5.5369e-06	5.5553e-06	776.15	164.56	5.4723e-06	5.4605e-06	295.6	103.7	52.294	17.237	5.3642e-06	39.065	225.115	-18.775	75.985	-30.683	160.528	15.924	-29.585	-25.408	58.923	248.110	-26.087	-20.846	-21.367	-17.707	82.969	-18.733	-8191	255	
4970.298	1	1	0	0	0.13729	0.18371	0.11344	0.053262	0.088732	0.15806	0.11656	0.20149	0.13113	0.064195	0.35682	0.056366	0.13206	0.29848	0.029724	0.096395	-3.8792	-4.6896	-3.8604	-4.625	-4.65	-3.8667	-5.0188	-4.2729	-4.0437	-4.8417	-4.1333	-4.5687	-4.7646	-3.8583	-4.8063	-4.2417	260.189	89.255	114.567	296.835	295.346	199.964	-11.615	275.301	139.723	77.398	264.424	44.773	206.844	6.271	81.032	52.252	8.7329e-05	0.00018113	0.00016391	511.84	6.6146e-06	4.3019e-06	757.71	149.99	5.1702e-06	7.4241e-06	289.22	101.07	44.693	15.12	7.7998e-06	38.329	0.00048625	0.00049028	0.00013687	551.04	5.3128e-06	5.3334e-06	764.9	161.11	5.278e-06	5.2473e-06	293	102.75	51.588	17.128	5.2055e-06	39.037	277.627	-7.480	45.873	-30.433	171.119	204.930	-29.842	-25.414	129.614	134.756	-25.977	-21.007	-20.655	-17.512	-36.270	-18.526	-8191	255	
4970.369	1	1	0	0	0.044117	0.15953	0.031516	0.14569	0.10645	0.071984	0.10631	0.2074	0.1746	0.0848	0.082297	0.192	0.21298	0.070906	0.089858	0.041325	-3.7583	-4.7083	-3.9833	-4.4437	-4.7333	-3.8458	-4.7729	-4.4042	-4.0354	-4.7646	-3.9854	-4.425	-4.675	-3.8667	-4.6542	-4.65	-18.680	52.559	87.996	-41.418	125.719	41.920	177.824	207.154	160.106	182.225	150.945	298.485	-12.702	100.937	300.849	25.279	0.00021024	0.00041426	7.0551e-05	515.27	2.0708e-06	1.6206e-06	763.17	151.18	4.261e-06	5.9727e-06	290.18	100.92	44.639	15.072	4.2819e-06	38.439	0.00047559	0.00048211	0.00013648	555.06	5.2913e-06	5.3372e-06	772.99	162.61	5.3454e-06	5.3129e-06	294.24	102.84	51.803	17.189	5.2506e-06	39.045	209.506	26.565	-38.839	-29.980	292.845	253.751	-30.014	-25.189	110.752	63.015	-26.088	-20.934	-20.714	-17.457	203.163	-18.092	-8191	255	
4970.465	1	1	0	0	0.25715	0.098807	0.076748	0.18294	0.095348	0.14106	0.12406	0.10405	0.15233	0.13253	0.051602	0.13537	0.14763	0.17453	0.2192	0.16556	-3.6917	-4.9229	-4.1396	-4.2562	-4.7312	-3.8021	-4.7354	-4.6687	-3.9167	-4.6438	-4.2833	-4.2917	-4.8104	-4.1	-4.4208	-4.5292	64.559	200.355	21.561	254.002	239.626	61.223	276.485	269.667	204.224	31.102	-40.372	39.672	150.000	201.186	53.469	233.243	0.00020189	0.00059143	0.00010088	525.39	4.9169e-06	5.1007e-06	771.43	151.58	6.3856e-06	4.2962e-06	290.4	101.76	45.023	15.248	6.5465e-06	39.179	0.00048117	0.00048559	0.00013413	560.42	5.266e-06	5.265e-06	779.58	162.43	5.2169e-06	5.2072e-06	294.5	103.27	51.596	17.238	5.111e-06	39.576	207.652	58.330	2.504	-30.652	72.880	50.173	-29.890	-25.187	51.152	7.987	-26.019	-21.125	-21.207	-17.166	-32.690	-18.027	-8191	255	
4970.562	1	1	0	0	0.11605	0.0621	0.046605	0.18074	0.16405	0.11898	0.11792	0.12532	0.080864	0.069373	0.039368	0.06215	0.040551	0.044877	0.06526	0.19272	-3.5187	-4.775	-4.2125	-4.1125	-4.8042	-3.9437	-4.4042	-4.6438	-3.8187	-4.8688	-4.3083	-4.1104	-4.7375	-4.0042	-4.2604	-4.7042	-18.002	-28.654	108.890	85.567	13.063	200.219	233.767	18.177	219.455	227.460	227.165	4.353	204.618	118.751	276.310	-10.962	0.00019395	0.00030432	0.00010162	521.15	3.7079e-06	1.6216e-06	766.45	151.73	5.317e-06	1.3177e-06	290.37	100.31	44.103	14.939	4.3763e-06	38.115	0.00046369	0.00046893	0.00013031	558.55	5.122e-06	5.1197e-06	775.47	161.44	5.0664e-06	5.084e-06	292.02	101.7	50.925	16.904	5.1025e-06	38.33	182.508	195.783	151.666	-30.508	45.484	289.208	-29.732	-25.022	74.670	55.103	-25.950	-20.837	-21.265	-17.690	191.577	-18.347	-8191	255	
4970.682	1	1	0	0	0.14425	0.13385	0.019116	0.1035	0.13078	0.044199	0.15381	0.10647	0.13084	0.22996	0.25366	0.14915	0.21524	0.094381	0.1801	0.16308	-3.6937	-4.6312	-4.3042	-4.0167	-4.8146	-3.9792	-4.2729	-4.7375	-3.7854	-4.6354	-4.3354	-3.9958	-4.6979	-4.0854	-4.0083	-4.9271	286.722	272.595	216.849	231.139	314.574	-14.416	288.294	282.273	230.204	212.905	281.652	281.264	-36.729	235.173	131.149	-32.024	7.8376e-05	0.00035009	9.9974e-05	511.71	2.2919e-06	2.0253e-06	757.71	146.87	3.8454e-06	5.091e-06	280.83	96.213	42.085	14.259	7.136e-06	36.272	0.00047155	0.00047353	0.00013219	550.35	5.1945e-06	5.2501e-06	765.28	158.34	5.2456e-06	5.2411e-06	285.51	98.811	49.454	16.383	5.178e-06	37.172	208.330	111.935	17.722	-30.220	72.144	253.568	-30.101	-25.313	145.013	8.259	-26.043	-20.877	-21.093	-17.380	154.742	-18.116	-8191	255	
4970.778	1	1	0	0	0.16487	0.21196	0.034078	0.083522	0.076289	0.17076	0.32346	0.07962	0.20567	0.070454	0.10722	0.18426	0.19056	0.12631	0.14265	0.066716	-3.5021	-4.575	-4.6854	-3.9708	-4.8042	-4.2042	-4.2312	-4.8583	-3.7771	-4.5	-4.6	-3.9604	-4.7542	-4.1396	-3.8792	-4.9208	225.024	174.798	34.706	137.935	278.613	-3.151	226.473	-0.134	117.946	181.830	-0.330	39.418	71.820	198.455	27.239	300.732	0.00025406	0.00023322	0.00013746	513.76	1.1392e-06	2.7242e-06	758.51	146.38	1.1297e-06	6.736e-06	277.46	94.133	41.442	13.798	8.9327e-06	35.541	0.00047214	0.00047942	0.00013421	552.48	5.2774e-06	5.2972e-06	767.6	157.56	5.2646e-06	5.2634e-06	282.06	96.849	48.801	16.05	5.1822e-06	36.319	213.258	93.375	190.952	-30.285	-19.080	102.308	-29.863	-25.702	17.027	41.324	-25.969	-21.026	-20.894	-17.039	123.008	-17.879	-8191	255	
4970.874	1	1	0	0	0.27698	0.053141	0.23513	0.21406	0.2253	0.12625	0.073369	0.092627	0.024172	0.18215	0.12718	0.13645	0.082495	0.27399	0.22856	0.076794	-3.6688	-4.4062	-4.6125	-3.8125	-4.7583	-4.3479	-3.9833	-4.8187	-4.0062	-4.1854	-4.8792	-4.0167	-4.8167	-4.4	-4.0417	-4.9354	202.149	174.240	94.960	291.478	60.569	55.636	6.868	-34.557	268.152	82.160	220.505	208.396	251.915	22.724	107.187	225.176	0.00018661	0.00023097	0.00010251	523.3	1.4086e-06	3.5216e-06	767.66	147.93	2.0282e-06	4.1276e-06	280.68	95.129	42.149	14.037	3.857e-06	36.198	0.00047287	0.00047574	0.00013137	556.56	5.1183e-06	5.1449e-06	771.42	157.31	5.0076e-06	4.9916e-06	281.75	96.98	48.42	15.993	4.9097e-06	36.536	188.613	95.566	226.427	-30.232	194.602	76.366	-30.077	-25.449	-38.856	110.156	-26.095	-21.228	-20.694	-17.602	-26.093	-18.192	-8191	255	
4970.993	1	1	0	0	0.13085	0.086041	0.12825	0.31634	0.19341	0.11993	0.22673	0.051125	0.12233	0.14201	0.16949	0.05815	0.099718	0.083481	0.17721	0.079787	-3.9	-4.3208	-4.7417	-3.9875	-4.6958	-4.7229	-4.1708	-4.8333	-3.9708	-4.0437	-4.7979	-3.9062	-4.4292	-4.5437	-4	-4.8208	150.065	304.447	53.171	256.095	293.412	220.881	210.886	128.450	1.512	14.860	-32.615	210.093	209.232	164.821	57.691	-19.187	1.4396e-05	0.00056549	5.728e-05	526.68	4.856e-06	5.5468e-06	765.67	145.95	5.4779e-06	2.9948e-06	276.89	94.268	41.703	13.67	2.5206e-06	34.81	0.00044714	0.0004513	0.00012485	557.17	4.9184e-06	4.9358e-06	770.45	156.59	4.9364e-06	4.9332e-06	279.5	95.643	47.925	15.583	4.9185e-06	35.546	280.452	78.179	108.010	-30.482	144.628	16.953	-29.810	-25.093	96.568	290.593	-25.662	-21.192	-20.551	-17.627	250.504	-18.201	-8191	255	
4971.065	1	1	0	0	0.036488	0.21321	0.11606	0.09131	0.15333	0.15494	0.048373	0.2446	0.10618	0.033746	0.13877	0.24469	0.071506	0.1834	0.1951	0.013537	-3.8875	-4.075	-4.8458	-3.6625	-4.4875	-4.65	-3.8521	-4.7271	-4.1833	-4.2104	-5.0687	-4.0271	-4.4854	-4.8063	-3.9146	-4.7792	14.274	66.284	86.053	-0.239	219.105	200.374	308.456	114.774	214.444	82.877	227.497	219.599	225.529	84.552	-36.495	206.583	0.00011179	0.00077362	9.3584e-05	514.02	3.0898e-06	6.4768e-06	758.98	144.28	5.2574e-06	1.3549e-06	276.35	94.033	41.237	13.674	4.9768e-07	34.851	0.00044798	0.00045316	0.0001256	547.72	4.9673e-06	5.0016e-06	764.48	155.03	5.0281e-06	5.0274e-06	279.28	95.871	48.089	15.728	5.1397e-06	35.774	204.108	221.805	-23.482	-30.416	297.933	-17.647	-30.022	-25.319	151.331	283.056	-25.898	-20.869	-20.688	-17.589	179.635	-18.148	-8191	255	
4971.163	1	1	0	0	0.17319	0.23019	0.08138	0.27328	0.30511	0.076138	0.21983	0.058843	0.21531	0.1334	0.20865	0.097342	0.29148	0.22902	0.11618	0.25011	-4.0896	-3.9646	-4.9187	-4.1438	-4.375	-4.6479	-3.8958	-4.7042	-4.4292	-3.8083	-4.6875	-4.1917	-4.1687	-4.7292	-3.7979	-4.8167	187.823	-31.618	143.081	44.455	288.862	181.464	288.681	227.627	17.884	-1.885	-12.682	-24.353	106.882	311.535	276.284	309.282	0.00016235	0.00044994	0.00015108	520.72	1.2628e-06	8.6649e-06	759.37	143.82	6.599e-06	6.9804e-06	271.21	91.55	40.967	13.494	1.8457e-06	35.187	0.00047462	0.00049024	0.00013713	561.14	5.5703e-06	5.68e-06	775.1	157.81	5.8137e-06	5.8268e-06	280.67	95.924	49.433	16.173	5.743e-06	36.4	201.810	93.889	92.020	-30.133	267.649	-13.080	-29.848	-25.176	19.662	279.487	-26.061	-20.744	-20.921	-17.254	152.060	-17.915	-8191	255	
4971.282	1	1	0	0	0.22324	0.079444	0.25233	0.11041	0.089553	0.17565	0.070288	0.061737	0.2472	0.040088	0.13643	0.073457	0.20556	0.05676	0.23035	0.14917	-4.1229	-3.8208	-4.7854	-4.1604	-4.1896	-4.8229	-4.125	-4.6021	-4.4812	-3.875	-4.8354	-4.2708	-4.1729	-4.8146	-3.9583	-4.5667	68.780	205.955	128.562	216.595	284.196	41.397	110.967	125.486	269.493	125.754	160.373	109.078	275.266	239.385	63.642	309.110	6.6018e-05	0.00072533	8.9435e-05	521.61	7.3508e-06	1.0546e-05	764.26	144.52	1.8512e-06	2.2851e-06	272.91	92.262	41.226	13.587	4.2133e-06	35.112	0.00051876	0.00052547	0.00014744	567.77	5.8093e-06	5.9022e-06	781.15	159.51	5.9864e-06	6.0308e-06	283.94	97.317	50.3	16.42	6.0006e-06	36.961	145.525	81.874	182.266	-30.402	66.687	11.450	-30.159	-25.557	96.736	206.877	-25.906	-20.967	-20.768	-17.362	151.230	-18.347	-8191	255	
4971.378	1	1	0	0	0.076866	0.17378	0.13278	0.090858	0.07539	0.13509	0.12763	0.10397	0.26532	0.22249	0.1606	0.22511	0.090743	0.08889	0.018335	0.13419	-4.1542	-3.7458	-4.6229	-4.2854	-3.8479	-4.7792	-4.0042	-4.5229	-4.7667	-3.8458	-4.8083	-4.4271	-3.8812	-4.8167	-4.0333	-4.2729	-22.397	96.528	-32.320	-14.694	30.935	154.014	89.356	203.727	-16.840	172.183	276.669	266.041	9.245	140.849	213.899	33.853	0.00016199	0.00017505	0.00011211	515.71	2.0261e-06	1.162e-06	755.68	143.46	4.026e-06	7.1001e-06	271.74	92.371	41.46	13.548	6.1723e-06	34.617	0.00054067	0.00054897	0.00015196	566.93	5.9703e-06	5.936e-06	775.07	159.02	6.033e-06	6.11e-06	283.36	97.539	50.627	16.488	6.2595e-06	36.596	212.915	-28.714	59.171	-30.459	14.914	238.717	-29.855	-25.869	55.332	196.112	-25.860	-20.597	-20.454	-17.042	270.498	-18.107	-8191	255	
4971.474	1	1	0	0	0.19313	0.053926	0.089577	0.12541	0.11141	0.077441	0.10394	0.27725	0.20448	0.16639	0.19409	0.21181	0.25225	0.086097	0.091387	0.14612	-4.2771	-3.9542	-4.4625	-4.4938	-3.9521	-4.8938	-4.3396	-4.1354	-4.8125	-3.7979	-4.6417	-4.5729	-3.8458	-4.7375	-4.0958	-4.1625	83.418	165.276	46.946	251.586	53.741	-24.474	137.476	267.438	217.508	-38.403	275.287	232.119	216.645	66.925	122.631	271.385	9.6622e-05	0.00035548	0.00013143	504.74	5.647e-06	3.9414e-06	744.06	142.08	1.0493e-05	7.5527e-06	270.54	92.704	40.711	13.567	5.5534e-06	34.854	0.00057046	0.00058034	0.00016066	562.36	6.2781e-06	6.2745e-06	767.35	158.27	6.2472e-06	6.246e-06	282.96	98.132	50.832	16.52	6.3194e-06	36.894	221.830	126.166	66.136	-30.330	289.082	175.492	-30.243	-25.665	280.536	65.911	-25.976	-20.917	-21.144	-17.521	243.210	-18.391	-8191	255	
4971.595	1	1	0	0	0.30757	0.20866	0.20525	0.12376	0.15855	0.022946	0.26827	0.16231	0.16078	0.039218	0.21004	0.21102	0.1646	0.21687	0.060745	0.026836	-4.4812	-3.9542	-4.5188	-4.6521	-3.7562	-4.6312	-4.0917	-4.1229	-4.9479	-3.8688	-4.5104	-4.6792	-3.8937	-4.7979	-4.3354	-4.0604	185.260	51.016	234.438	275.658	105.158	181.322	202.833	187.145	285.321	177.691	254.184	293.607	168.884	-19.135	119.002	40.559	9.7571e-05	0.00066228	0.00015423	505.39	2.9664e-06	5.4791e-06	752.47	142.28	8.5523e-06	1.3024e-05	275.42	94.847	42.097	13.888	6.413e-06	35.786	0.0005759	0.00058204	0.0001618	561.8	6.4359e-06	6.4383e-06	770.67	160.46	6.4667e-06	6.4718e-06	288.21	100.32	52.273	16.938	6.5024e-06	37.739	161.953	26.804	97.898	-30.069	30.238	165.725	-30.406	-25.393	132.934	161.068	-26.178	-21.081	-21.177	-17.153	182.075	-18.477	-8191	255	
4971.666	1	1	0	0	0.38261	0.094649	0.08005	0.093253	0.24878	0.11964	0.095304	0.16506	0.19299	0.28123	0.147	0.050449	0.14952	0.21298	0.070018	0.17794	-4.5354	-4.0271	-4.3333	-4.8271	-3.9083	-4.6083	-4.5333	-4.1167	-4.7708	-3.9688	-4.325	-4.6896	-3.8854	-4.5188	-4.5188	-3.9062	-2.404	1.395	183.811	99.110	137.208	36.841	312.474	278.432	308.511	-5.806	270.906	224.372	130.102	302.222	240.430	285.571	4.7798e-05	0.00030729	5.0326e-05	502.48	4.6894e-06	8.1201e-06	750.28	145.95	2.6664e-06	4.0314e-06	279.81	97.256	43.027	14.292	5.1015e-06	36.997	0.00058937	0.00059945	0.00016657	564.19	6.5465e-06	6.5585e-06	773.99	162.85	6.6115e-06	6.6682e-06	293.55	102.91	53.616	17.469	6.7204e-06	38.929	162.034	278.592	307.307	-30.437	88.589	93.313	-30.006	-25.480	202.996	281.881	-26.116	-20.479	-20.443	-17.279	237.954	-18.064	-8191	255	
4971.763	1	1	0	0	0.15388	0.10223	0.13485	0.2409	0.29784	0.064207	0.19068	0.2113	0.040416	0.074995	0.023086	0.030328	0.18554	0.17749	0.11711	0.25934	-4.4542	-4.0687	-4.1854	-4.8313	-3.9396	-4.4542	-4.7208	-3.925	-4.7312	-4.3167	-4.1292	-4.6479	-3.8396	-4.3667	-4.5229	-3.8521	306.769	-22.489	213.126	-41.369	170.422	269.410	199.854	234.061	19.028	35.632	-30.801	262.402	127.585	71.120	88.073	-26.128	0.00025962	0.00076118	0.00037205	502.75	7.2322e-06	2.6105e-06	740.78	144.88	7.5869e-07	9.5745e-06	276.5	96.43	42.299	13.953	5.0893e-06	36.202	0.0006064	0.00061302	0.00017007	564.53	6.6481e-06	6.6321e-06	767.86	162.56	6.6153e-06	6.625e-06	291.3	101.88	52.791	17.149	6.6036e-06	38.304	195.038	32.355	-16.475	-30.409	246.704	105.502	-29.866	-25.299	284.718	110.686	-25.846	-20.955	-21.145	-17.223	255.625	-18.036	-8191	255	
4971.859	1	1	0	0	0.25595	0.15094	0.098662	0.071117	0.17063	0.025884	0.13863	0.21346	0.16648	0.16894	0.10428	0.14022	0.12201	0.057986	0.022989	0.075302	-4.3958	-4.2583	-4.1729	-4.8146	-3.9104	-4.3208	-4.7562	-3.8021	-4.6833	-4.1188	-3.9604	-4.925	-3.9188	-4.3	-4.7771	-3.8917	-32.119	-12.752	260.898	315.125	113.025	300.652	255.169	296.089	70.368	164.884	291.741	313.233	56.835	216.548	123.411	232.610	0.00011391	0.0001877	0.00016941	495.83	2.3818e-06	8.33e-06	735.1	143.93	3.5005e-06	2.4805e-06	277.22	96.789	42.885	14.009	4.1883e-06	36.757	0.00059953	0.00061053	0.00016819	556.23	6.6227e-06	6.5887e-06	763.33	161.26	6.5313e-06	6.5231e-06	291.33	102.19	53.052	17.29	6.5107e-06	38.73	197.273	55.691	49.048	-30.215	220.560	215.517	-29.846	-25.150	137.510	52.856	-25.608	-20.354	-20.975	-17.377	70.714	-18.491	-8191	255	
4971.955	1	1	0	0	0.13482	0.14045	0.14715	0.13235	0.073251	0.057451	0.047812	0.089946	0.1058	0.099596	0.16846	0.10396	0.029394	0.11067	0.01387	0.075505	-4.3771	-4.3313	-4.0208	-4.7937	-4.0208	-4.1521	-4.8604	-3.9083	-4.5687	-4.3833	-4.0583	-4.8875	-4.1979	-4.2208	-4.7937	-4.0521	164.031	26.815	163.337	137.181	220.689	92.910	237.697	22.642	225.361	253.979	152.126	91.172	70.507	212.689	265.016	191.123	0.00010154	0.0007821	0.00017596	495.34	1.0595e-05	3.0262e-06	739.56	144.57	2.1136e-06	8.1257e-06	281.74	97.62	43.438	14.299	7.699e-06	36.911	0.00058905	0.00059896	0.00016735	557.72	6.5468e-06	6.5256e-06	767.38	162.69	6.5298e-06	6.4904e-06	293.81	102.84	53.308	17.363	6.4497e-06	38.963	212.630	63.801	109.852	-30.277	206.545	-3.770	-29.594	-25.232	191.672	89.967	-26.094	-20.854	-20.452	-17.086	120.753	-18.196	-8191	255	
4972.074	1	1	0	0	0.064798	0.18627	0.1765	0.15338	0.04468	0.16849	0.22723	0.11128	0.26548	0.20112	0.17288	0.21266	0.16076	0.31587	0.1374	0.22791	-4.1813	-4.6021	-3.8688	-4.825	-4.3	-4.1167	-4.9688	-3.7938	-4.6396	-4.7438	-3.8937	-4.7896	-4.1354	-4.1042	-4.8396	-4	290.607	175.166	155.976	137.007	263.430	88.098	66.374	293.611	291.312	31.858	207.409	271.860	307.021	-13.227	12.202	174.067	7.21e-05	0.00041935	0.00010046	502.27	3.9803e-06	1.2247e-05	755.37	147.44	6.5152e-06	1.7467e-06	282.51	97.545	43.119	14.462	5.7687e-06	36.76	0.00058498	0.00059549	0.00016604	563.81	6.5753e-06	6.5816e-06	778.37	164.84	6.6513e-06	6.6764e-06	295.51	103.11	53.689	17.597	6.6798e-06	38.938	181.619	76.553	265.821	-30.233	156.252	27.033	-29.738	-25.029	91.261	186.102	-26.052	-20.555	-20.714	-17.095	-15.281	-18.499	-8191	255	
4972.170	1	1	0	0	0.26664	0.25071	0.044686	0.1923	0.04047	0.15528	0.14813	0.11232	0.022029	0.062066	0.063604	0.22161	0.095985	0.14573	0.24156	0.062618	-4.05	-4.6813	-3.7938	-4.7104	-4.3396	-3.9458	-4.7667	-4.1646	-4.2188	-4.7708	-3.8854	-4.5667	-4.3792	-3.8563	-4.7625	-4.3125	129.828	22.459	-37.375	108.803	309.086	287.803	172.519	106.411	135.857	16.222	258.211	139.391	20.085	277.322	136.055	240.437	3.5726e-05	0.00036451	4.8564e-05	501.44	4.8897e-06	7.1579e-06	744.04	145.14	3.3854e-06	5.1471e-06	274.52	95.26	42.146	13.877	6.4423e-06	35.462	0.00060594	0.00061015	0.00017121	566.42	6.7257e-06	6.6535e-06	771.3	162.48	6.7106e-06	6.6485e-06	289.79	100.9	52.658	17.092	6.7035e-06	37.814	254.571	32.791	44.514	-30.232	-36.468	233.006	-29.944	-25.950	53.586	267.497	-26.200	-20.872	-20.420	-17.561	108.107	-17.751	-8191	255	
4972.243	1	1	0	0	0.013368	0.14845	0.25763	0.039204	0.040908	0.28814	0.086846	0.30149	0.25529	0.10548	0.11684	0.12806	0.21922	0.041976	0.22624	0.16418	-3.9562	-4.7375	-3.8479	-4.475	-4.5229	-3.9292	-4.8542	-4.1687	-4.1625	-4.875	-4.0271	-4.5271	-4.6521	-3.9583	-4.7604	-4.3438	-16.206	280.516	186.341	201.273	261.614	81.942	271.688	239.166	24.539	214.424	281.301	192.536	285.528	212.874	103.538	207.248	9.4712e-05	0.00066541	0.00024534	493.69	2.6474e-06	7.9466e-06	737.41	142.21	3.5149e-06	4.4896e-06	273.17	94.728	42.31	13.83	6.3116e-06	35.686	0.00060111	0.00060939	0.00016897	555.28	6.5196e-06	6.552e-06	761.03	159.79	6.4121e-06	6.4387e-06	286.96	100.1	51.937	16.844	6.3195e-06	37.435	248.670	39.309	69.155	-29.803	-41.921	52.006	-30.145	-25.240	283.167	295.725	-25.633	-21.122	-20.312	-17.196	74.220	-18.194	-8191	255	
4972.362	1	1	0	0	0.11134	0.13973	0.32465	0.12533	0.16087	0.14937	0.1271	0.22932	0.29181	0.088753	0.16085	0.15611	0.30919	0.1856	0.13286	0.084509	-3.7313	-4.8729	-3.9813	-4.5938	-4.6833	-3.8958	-4.7854	-4.4688	-3.9854	-4.8604	-4.0771	-4.25	-4.5083	-3.8958	-4.6042	-4.4354	118.825	50.846	17.804	290.353	30.729	158.264	43.913	41.431	-7.181	206.882	195.477	305.645	235.969	282.708	53.161	165.261	0.00017848	0.00046776	0.00024995	494.77	4.1601e-06	3.4096e-06	744.93	143.03	6.7297e-06	5.7471e-06	275.47	95.231	42.059	13.874	3.8021e-06	35.663	0.00056344	0.00057807	0.00016025	552.41	6.2292e-06	6.2488e-06	761.27	159.04	6.1955e-06	6.1673e-06	287.03	99.774	51.598	16.721	6.1211e-06	37.398	226.124	176.065	117.086	-29.991	81.271	294.465	-29.895	-24.982	62.570	226.736	-25.388	-20.475	-20.203	-16.776	174.883	-17.959	-8191	255	
4972.458	1	1	0	0	0.11265	0.318	0.19586	0.017107	0.17092	0.17706	0.057652	0.20585	0.2199	0.078946	0.02605	0.104	0.16616	0.0798	0.085014	0.37607	-3.7938	-4.7958	-4.0563	-4.3063	-4.8313	-3.8208	-4.7063	-4.5896	-3.9146	-4.7333	-4.0917	-4.0687	-4.6708	-3.7125	-4.4479	-4.4417	201.719	292.736	180.326	156.645	271.605	155.249	257.145	276.235	221.370	222.695	176.534	109.734	-33.187	178.153	173.056	202.722	6.4053e-05	0.00016705	0.00022722	502.38	4.5416e-06	9.5355e-06	748.63	144.59	1.2311e-05	5.8066e-06	279.72	96.394	42.348	13.944	5.9269e-06	35.992	0.00056141	0.0005645	0.00015763	555.25	6.1273e-06	6.1697e-06	766.43	159.96	6.1356e-06	6.1161e-06	288.93	100.12	51.603	16.8	6.126e-06	37.621	315.093	100.003	69.062	-30.126	98.467	50.472	-29.779	-25.100	56.377	264.175	-25.545	-20.555	-20.235	-17.200	115.754	-18.069	-8191	255	
4972.554	1	1	0	0	0.052637	0.067591	0.066152	0.13077	0.19885	0.14097	0.2518	0.27013	0.10045	0.15527	0.12049	0.11165	0.1618	0.1941	0.24817	0.1372	-3.6271	-4.7083	-4.2438	-4.0687	-4.65	-3.8937	-4.5958	-4.5771	-3.7938	-4.7312	-4.2812	-4.1104	-4.8083	-3.9958	-4.3417	-4.8562	35.945	150.633	191.412	101.519	236.649	200.746	238.600	203.552	-20.419	129.503	272.746	29.848	136.937	186.179	43.940	-37.853	0.00010494	0.00031887	0.00015838	496.88	8.4754e-06	3.7643e-06	740.71	142.69	2.5204e-06	1.2171e-05	274.65	93.653	41.526	13.649	4.8776e-06	35.121	0.00056016	0.00056536	0.00015784	555.4	6.1893e-06	6.2235e-06	763.76	158.83	6.284e-06	6.3011e-06	285.67	98.926	51.182	16.619	6.3537e-06	37.086	109.483	15.957	-36.278	-29.937	151.313	112.872	-30.208	-25.161	221.292	150.321	-26.080	-20.857	-20.946	-16.789	11.588	-18.053	-8191	255	
4972.675	1	1	0	0	0.025126	0.12226	0.091883	0.10711	0.043324	0.087145	0.10716	0.19811	0.12605	0.16894	0.082637	0.23908	0.036489	0.082552	0.10352	0.068849	-3.5625	-4.575	-4.2708	-4.0292	-4.8354	-4.0188	-4.4812	-4.8938	-3.8417	-4.5771	-4.3896	-3.9896	-4.7583	-4.075	-4.2583	-4.7083	17.822	158.681	-28.320	212.106	103.058	-21.104	116.586	259.828	220.121	222.278	221.097	290.538	198.799	176.063	162.965	0.601	0.00014693	0.00032164	3.9987e-05	495.71	5.5301e-06	4.6853e-06	739.21	142.43	6.3277e-06	4.1504e-06	273.32	93.519	41.406	13.807	3.6947e-06	35.204	0.00058053	0.00058723	0.00016489	555.26	6.4773e-06	6.5486e-06	764.04	160.07	6.5857e-06	6.5724e-06	286.94	99.444	52.009	16.944	6.5854e-06	37.626	246.253	194.786	246.876	-30.119	281.743	200.191	-29.883	-25.242	125.224	1.928	-25.969	-20.714	-20.333	-17.096	226.925	-17.938	-8191	255	
4972.771	1	1	0	0	0.048779	0.12603	0.02394	0.15085	0.04227	0.10199	0.18335	0.15512	0.15264	0.011648	0.043974	0.21651	0.15543	0.1317	0.087556	0.054225	-3.4208	-4.5979	-4.3354	-4.0813	-4.7937	-4.1479	-4.3292	-4.8979	-3.8438	-4.5437	-4.625	-3.9083	-4.8396	-4.1729	-4.1292	-4.9979	87.149	201.951	228.933	198.503	227.994	41.570	241.938	268.705	265.861	259.166	36.802	265.847	95.688	171.935	131.743	232.051	4.2209e-05	0.00078227	8.6815e-05	498.51	1.0436e-05	5.1722e-06	744.38	143.31	9.8282e-06	7.4143e-06	275.41	96.278	42.574	13.999	7.4579e-06	36.327	0.00060477	0.00060956	0.00016834	560.57	6.6366e-06	6.6452e-06	769.37	161.85	6.6705e-06	6.6151e-06	290.21	101.31	52.842	17.192	6.6373e-06	38.362	149.605	114.355	95.037	-29.971	96.388	189.002	-29.894	-25.116	73.393	70.742	-25.573	-21.177	-20.610	-16.884	6.322	-18.190	-8191	255	
4972.866	1	1	0	0	0.14359	0.24356	0.042482	0.32521	0.10177	0.23867	0.19046	0.16501	0.073551	0.072229	0.11214	0.10024	0.1885	0.11657	0.03367	0.2175	-3.7375	-4.275	-4.6542	-3.7771	-4.7271	-4.225	-4.1646	-4.8208	-4.0333	-4.4667	-4.6083	-3.9542	-4.5854	-4.25	-3.9688	-4.9875	223.070	3.086	8.380	243.767	47.623	63.708	293.663	247.312	-29.314	195.945	113.382	14.330	291.825	197.252	94.637	220.065	5.941e-05	0.00062576	0.00010238	502.97	5.8911e-06	3.6815e-06	750.49	145.7	8.72e-06	4.5047e-06	281.8	96.818	43.235	14.055	4.289e-06	36.438	0.00059696	0.00060597	0.00016889	565.46	6.5905e-06	6.6123e-06	775.41	163.31	6.5256e-06	6.4918e-06	293.32	102.14	52.895	17.197	6.4814e-06	38.336	219.885	58.895	60.191	-30.276	77.767	103.369	-29.956	-25.622	30.239	189.684	-25.986	-20.963	-20.686	-16.955	206.297	-17.846	-8191	255	
4972.964	1	1	0	0	0.084154	0.093855	0.27006	0.16786	0.17847	0.16325	0.19712	0.15356	0.39926	0.11339	0.18517	0.21499	0.14147	0.092009	0.051894	0.19623	-3.6396	-4.3146	-4.5563	-3.8646	-4.5417	-4.5854	-4.0417	-4.8833	-4.1583	-4.1937	-4.7604	-3.9562	-4.5958	-4.5062	-3.9229	-4.8271	200.185	17.701	99.311	-5.379	100.145	53.531	295.352	289.814	-2.066	-24.287	82.554	210.506	1.271	294.229	75.374	219.805	0.00014236	0.00029233	9.4622e-05	497.88	1.6082e-06	1.2575e-05	740.48	141.76	5.3445e-06	1.4126e-06	276.25	94.569	41.915	13.812	6.7775e-07	35.149	0.00058859	0.00059583	0.00016603	559.09	6.496e-06	6.5317e-06	766.01	160.15	6.4837e-06	6.4838e-06	287.52	99.969	51.843	16.861	6.4762e-06	37.329	208.740	261.863	78.356	-30.562	-36.980	40.496	-29.971	-25.187	200.551	52.956	-26.286	-20.673	-20.706	-17.339	277.616	-17.696	-8191	255	
4973.058	1	1	0	0	0.15027	0.1567	0.14868	0.033816	0.093052	0.30727	0.08857	0.16899	0.094753	0.11862	0.10181	0.089555	0.1006	0.28533	0.14753	0.18621	-3.8187	-4.2792	-4.8646	-4.0188	-4.3708	-4.5792	-3.8958	-4.7104	-4.3167	-4.2312	-4.8063	-3.9979	-4.3271	-4.725	-3.8438	-4.6292	209.973	-18.425	15.400	144.435	13.837	135.904	229.764	10.772	0.254	-17.282	-31.509	120.940	87.104	-12.304	38.691	277.843	2.5822e-05	0.00020382	0.00012524	496.17	8.417e-06	5.0111e-06	732.32	141.72	4.4098e-06	3.1872e-06	274.32	94.157	41.765	13.774	3.1667e-06	35.156	0.00058886	0.00059433	0.00016576	554.83	6.5289e-06	6.5281e-06	761.04	159.71	6.5562e-06	6.5622e-06	287.71	99.789	52.009	16.865	6.6073e-06	37.475	227.915	131.828	12.484	-30.063	270.929	109.298	-29.874	-24.914	209.869	41.667	-25.651	-20.807	-20.596	-17.046	213.804	-17.822	-8191	255	
4973.154	1	1	0	0	0.25496	0.20566	0.17894	0.1385	0.13542	0.085441	0.22848	0.27095	0.082048	0.14278	0.071288	0.18528	0.182	0.076343	0.15215	0.33487	-4.0813	-3.9229	-4.6521	-3.9667	-4.2562	-4.5375	-3.9542	-4.7688	-4.4271	-3.9396	-4.925	-3.8854	-4.1604	-4.7375	-3.7021	-4.6479	246.227	31.510	170.443	306.001	-30.092	140.906	230.882	125.865	25.894	39.546	233.124	-24.618	301.313	287.960	200.382	170.473	0.00014734	6.0354e-05	0.00018713	495.04	8.0836e-07	4.5014e-06	739.84	143.1	4.1915e-06	4.1048e-06	276.09	94.486	41.864	13.773	3.955e-06	35.466	0.00060218	0.0006138	0.00017078	558.71	6.6906e-06	6.7487e-06	767.09	161.7	6.6735e-06	6.6695e-06	290.11	100.65	52.444	17.035	6.6577e-06	37.83	250.364	1.068	37.376	-29.774	187.852	106.486	-30.061	-25.190	151.582	-16.931	-25.608	-20.436	-20.593	-16.556	47.571	-17.855	-8191	255	
4973.275	1	1	0	0	0.073248	0.09246	0.14456	0.18312	0.14916	0.27467	0.050262	0.1209	0.0095742	0.22129	0.26762	0.16031	0.16507	0.21635	0.13649	0.19848	-4.175	-3.9125	-4.7479	-4.0833	-4.2042	-4.8	-3.9042	-4.5938	-4.3812	-3.8083	-4.7354	-4.3104	-4.2167	-4.7063	-3.8958	-4.5125	28.211	101.351	86.465	214.759	31.513	106.772	-2.089	-14.464	314.458	175.110	120.695	163.139	0.266	267.230	224.612	80.028	0.00017678	0.00018894	0.00015382	501.29	5.7001e-06	4.4114e-06	743.96	145.38	3.1115e-06	3.3883e-06	278.39	95.469	42.178	13.761	1.2532e-06	35.686	0.0006015	0.00061612	0.00017174	564.1	6.7217e-06	6.7547e-06	773.81	163.33	6.7481e-06	6.7487e-06	292.8	101.24	52.837	17.109	6.7037e-06	37.823	230.062	308.268	231.144	-30.580	192.953	-32.475	-30.054	-25.798	-22.406	113.422	-25.677	-21.109	-20.550	-17.061	30.908	-18.087	-8191	255	
4973.371	1	1	0	0	0.10308	0.14891	0.14497	0.093534	0.079311	0.11467	0.044737	0.052989	0.13668	0.11231	0.060511	0.31966	0.10683	0.068852	0.14766	0.086212	-4.0875	-3.825	-4.6729	-4.4	-3.9021	-4.8271	-4.0083	-4.4458	-4.5813	-3.8187	-4.6854	-4.2854	-3.9042	-4.9167	-4.0062	-4.525	87.013	-22.851	202.947	195.872	-10.514	134.210	262.176	42.518	37.328	28.310	-22.252	265.614	190.560	209.216	285.136	80.885	0.00017613	0.00025268	5.7666e-05	493.91	5.3749e-06	8.1498e-06	739.08	142.57	3.1343e-06	5.9935e-06	275.59	94.193	42.227	13.592	4.5578e-06	35.187	0.00060409	0.00060912	0.00017052	557.64	6.6501e-06	6.6174e-06	765.76	160.79	6.5302e-06	6.5624e-06	288.58	100.22	52.08	16.754	6.491e-06	37.358	232.678	148.176	16.343	-30.225	74.363	113.507	-30.014	-25.342	56.498	31.840	-25.524	-20.658	-20.285	-16.714	269.373	-17.852	-8191	255	
4973.467	1	1	0	0	0.073781	0.08595	0.13866	0.25861	0.14791	0.15431	0.13852	0.22668	0.17101	0.28691	0.15206	0.29624	0.086461	0.02833	0.1453	0.10142	-4.4771	-3.9	-4.5208	-4.2375	-3.8417	-4.7125	-3.9604	-4.2375	-4.5396	-3.8375	-4.5417	-4.4333	-3.825	-4.8625	-4.1667	-4.0604	240.862	204.344	183.918	14.218	-12.896	-10.260	315.381	-24.183	23.757	-11.552	240.446	80.701	79.639	240.616	38.524	296.181	7.6423e-05	6.6107e-05	0.00016329	492.5	2.1235e-06	6.8976e-06	737.75	143.25	3.8467e-06	1.8957e-06	278.89	95.466	41.928	13.678	1.4183e-06	35.797	0.00059439	0.00059822	0.00016507	554.83	6.4608e-06	6.4837e-06	764.2	160.25	6.439e-06	6.4568e-06	290.33	100.91	52.421	16.871	6.4464e-06	37.8	226.975	-20.973	-7.341	-30.230	297.896	114.524	-29.778	-24.853	93.759	-34.675	-25.510	-20.788	-21.042	-17.073	130.845	-17.667	-8191	255	
4973.539	1	1	0	0	0.14239	0.15358	0.12896	0.29865	0.15243	0.091983	0.062045	0.50421	0.18265	0.12274	0.22695	0.11324	0.19872	0.20007	0.18388	0.25118	-4.3438	-3.8063	-4.3979	-4.5729	-4.0417	-4.725	-4.2063	-4.0458	-4.7854	-3.8063	-4.4875	-4.6854	-3.725	-4.7333	-4.1333	-3.9979	73.980	195.974	277.186	259.476	298.237	276.628	226.818	265.577	64.614	48.568	-20.910	127.663	138.788	-13.738	-33.511	313.366	0.00018495	0.00044305	0.00016392	499.53	4.2762e-06	1.6318e-06	742.59	145.09	6.994e-06	4.3536e-06	281.09	96.108	43.02	14.095	4.0716e-06	36.38	0.00058421	0.0005987	0.00016564	560.56	6.568e-06	6.4965e-06	770.73	162.32	6.5117e-06	6.5038e-06	292.47	101.56	52.892	17.118	6.4784e-06	38.358	206.203	7.628	137.158	-30.315	112.756	241.146	-29.843	-25.191	146.098	223.672	-25.718	-20.794	-20.372	-17.073	258.739	-17.945	-8191	255	
4973.635	1	1	0	0	0.045149	0.19667	0.12391	0.31124	0.27948	0.10063	0.24677	0.16433	0.22002	0.12987	0.38306	0.067849	0.17901	0.099299	0.1419	0.078453	-4.4521	-4.05	-4.3063	-4.6625	-3.7917	-4.5958	-4.2854	-3.9479	-4.8167	-3.8979	-4.3292	-4.7375	-3.8563	-4.6	-4.3583	-3.8021	178.322	305.860	169.533	208.497	101.511	-20.502	243.981	-1.309	282.892	316.709	253.781	290.140	170.574	-21.491	157.080	97.406	0.00019393	0.00075159	8.091e-05	507.64	1.1124e-05	4.3707e-06	754.98	146.93	1.0039e-05	2.2827e-06	284.07	97.315	43.515	14.151	5.7117e-06	36.135	0.00058759	0.00059848	0.00016601	564.41	6.5019e-06	6.4203e-06	778.02	163.59	6.4576e-06	6.4877e-06	294.94	102.45	53.155	17.258	6.5528e-06	38.401	215.843	274.511	262.718	-30.458	282.801	105.686	-29.377	-25.247	141.752	35.878	-25.487	-20.290	-20.087	-17.240	151.237	-17.980	-8191	255	
4973.755	1	1	0	0	0.068107	0.16198	0.15712	0.18581	0.10925	0.12264	0.19128	0.1354	0.32571	0.090398	0.03864	0.15243	0.21693	0.26503	0.13459	0.035525	-4.4417	-3.9125	-4.1396	-4.725	-3.8708	-4.5792	-4.5917	-3.9583	-4.8417	-4.3125	-4.1604	-4.8792	-3.7896	-4.4792	-4.6167	-3.8583	-0.436	13.950	7.846	273.785	86.314	70.854	243.114	261.817	144.958	-41.620	32.259	-1.645	163.949	257.096	204.663	289.146	0.00021004	0.00048838	8.1919e-05	496.93	5.146e-06	9.5601e-06	739.66	143.36	9.2367e-07	3.7102e-06	276.92	95.122	41.59	13.763	4.6656e-06	35.269	0.00059474	0.00060656	0.00016872	558.95	6.6363e-06	6.5667e-06	764.23	161.16	6.6109e-06	6.5853e-06	290.04	100.87	52.315	16.863	6.5634e-06	37.344	130.255	211.693	-19.197	-30.112	201.099	300.714	-29.786	-24.953	78.338	100.991	-25.838	-21.132	-20.830	-17.375	41.142	-17.558	-8191	255	
4973.852	1	1	0	0	0.046636	0.16423	0.3026	0.26659	0.21876	0.063047	0.2031	0.12268	0.13457	0.15158	0.1498	0.076848	0.059302	0.082558	0.3529	0.28219	-4.4792	-4.1792	-4.0708	-4.8438	-3.8083	-4.3604	-4.6979	-3.8708	-4.6188	-4.2917	-4.1208	-4.8333	-3.9667	-4.2875	-4.6208	-4.0229	170.926	34.458	281.762	310.275	82.712	309.833	242.669	224.475	288.507	-13.771	272.377	52.010	233.516	83.445	104.816	274.599	8.3151e-05	0.00033308	0.00011365	493.35	8.96e-06	1.0083e-05	735.46	143.8	4.6395e-06	7.6672e-06	275.73	95.866	41.873	13.688	1.2448e-05	35.769	0.00059685	0.00060846	0.00016757	554.93	6.6612e-06	6.6158e-06	763.49	161.04	6.6128e-06	6.6553e-06	289.86	100.77	52.101	16.912	6.5512e-06	37.792	202.183	252.012	64.180	-30.229	304.981	18.927	-29.848	-25.464	81.506	154.172	-25.813	-20.793	-20.666	-17.605	42.123	-17.898	-8191	255	
4973.946	1	1	0	0	0.30331	0.20519	0.15775	0.066141	0.16098	0.14739	0.24061	0.13621	0.23382	0.159	0.043937	0.15229	0.094119	0.21329	0.14792	0.24399	-4.3917	-4.3	-3.8042	-4.8313	-3.9562	-4.1896	-4.7479	-3.8667	-4.5854	-4.5583	-3.9854	-4.7375	-4.0437	-4.2979	-4.8688	-4.0271	62.559	52.092	276.682	50.276	11.532	13.825	251.504	297.645	232.489	199.140	200.417	127.337	254.449	285.403	-18.819	277.452	0.0002173	0.00054741	0.00020689	496.98	5.982e-06	3.0948e-06	745.52	144.5	1.835e-06	8.5313e-06	279.06	96.712	42.84	13.984	1.4155e-05	36.096	0.00058978	0.00059819	0.00016683	557.45	6.5784e-06	6.5768e-06	767.6	161.65	6.5607e-06	6.5673e-06	292.13	101.59	52.732	17.014	6.5262e-06	38.074	197.202	18.763	12.818	-30.074	37.902	77.999	-29.992	-25.315	17.048	41.516	-25.880	-20.701	-20.536	-17.735	107.945	-17.832	-8191	255	
4974.044	1	1	0	0	0.13953	0.13715	0.35039	0.15853	0.093009	0.28674	0.09416	0.1589	0.14873	0.34464	0.087453	0.21704	0.18626	0.3906	0.16415	0.093005	-4.1896	-4.5229	-3.8354	-4.7688	-4.1562	-4.3396	-4.9125	-3.9833	-4.4125	-4.4958	-3.7646	-4.6562	-4.3167	-3.925	-4.7896	-3.9896	209.611	234.230	120.530	-2.981	2.308	264.859	203.144	250.292	98.367	79.961	42.474	188.440	260.220	8.852	77.741	164.428	0.00011605	0.00043108	3.5293e-05	498.68	8.2234e-06	2.3751e-06	749.58	145.55	7.1411e-07	5.7748e-06	281.42	96.824	42.729	13.862	7.0129e-06	35.944	0.00058934	0.00059563	0.0001656	559.3	6.459e-06	6.4551e-06	773.05	163.08	6.3604e-06	6.4181e-06	293.99	102.03	52.699	16.921	6.3434e-06	37.773	232.701	252.805	239.954	-30.214	81.046	313.766	-29.975	-25.371	136.086	187.732	-25.601	-20.730	-20.672	-16.864	-41.282	-17.713	-8191	255	
4974.163	1	1	0	0	0.12266	0.11644	0.13207	0.03388	0.15111	0.24776	0.10458	0.1624	0.10207	0.15942	0.073573	0.14715	0.17947	0.22801	0.11751	0.087464	-4.1771	-4.7229	-3.775	-4.6521	-4.3729	-4.1125	-4.8958	-3.9292	-4.4708	-4.6708	-3.7896	-4.6188	-4.4104	-3.85	-4.625	-4.1458	117.614	19.382	227.666	151.931	11.103	283.078	242.268	230.844	303.616	-42.336	250.925	151.576	157.846	27.104	5.370	-34.423	6.0841e-05	0.00033346	0.00020585	491.54	3.764e-06	6.4605e-06	743.66	144.1	7.1406e-06	7.6699e-07	276.91	96.291	42.496	13.949	2.2197e-06	35.725	0.00057093	0.00057828	0.00016212	551.18	6.3035e-06	6.2722e-06	762.95	159.85	6.2221e-06	6.1937e-06	287.9	100.22	51.559	16.666	6.1518e-06	37.419	299.906	178.311	35.416	-29.980	256.554	67.904	-29.439	-25.327	63.041	269.016	-25.778	-20.859	-20.680	-17.346	272.665	-17.656	-8191	255	
4974.236	1	1	0	0	0.21133	0.18428	0.28839	0.16614	0.09653	0.18406	0.21329	0.098867	0.20095	0.10706	0.14816	0.10837	0.072521	0.1344	0.25353	0.23819	-3.925	-4.7979	-3.8333	-4.3583	-4.4208	-3.9062	-5.0146	-4.2688	-4.1104	-4.8479	-4.05	-4.6562	-4.5917	-3.8646	-4.7708	-4.1729	69.211	211.807	36.860	-3.984	246.890	290.661	201.102	-35.718	103.468	132.374	197.351	239.507	240.118	3.449	-22.564	259.207	5.5871e-05	0.00024174	0.00029543	495.61	3.7188e-06	3.6838e-06	742.05	144.76	2.9706e-06	3.583e-06	282.04	96.777	43.136	14.084	2.3871e-06	36.622	0.00055518	0.000561	0.00015728	548.79	6.1329e-06	6.1572e-06	764.05	160.47	6.1829e-06	6.185e-06	291.44	101.38	52.177	16.964	6.1911e-06	38.198	195.995	101.736	92.287	-29.634	-29.613	49.593	-29.549	-24.758	15.272	91.692	-25.680	-21.205	-20.027	-16.623	315.274	-17.649	-8191	255	
4974.355	1	1	0	0	0.39308	0.18408	0.27261	0.21789	0.12719	0.08647	0.19182	0.091729	0.04005	0.15072	0.27911	0.26782	0.046783	0.13499	0.089116	0.041274	-3.7417	-4.8604	-3.9146	-4.5417	-4.6875	-3.7854	-4.7792	-4.2708	-3.9646	-4.6625	-3.8896	-4.3333	-4.7167	-3.7125	-4.7458	-4.1833	66.287	138.166	102.880	195.984	150.041	259.245	237.356	264.562	42.207	46.491	221.728	303.040	93.334	-14.006	-5.371	243.427	4.4125e-05	0.00037214	3.7693e-05	503.29	3.278e-06	3.6604e-06	748.86	147.19	1.908e-06	2.526e-06	283.9	98.194	43.627	14.29	2.7755e-06	37.191	0.00056556	0.00056791	0.00015837	556.55	6.2156e-06	6.2446e-06	772.06	162.67	6.2503e-06	6.2262e-06	295.5	102.85	52.888	17.256	6.2379e-06	39.002	245.638	316.047	-16.212	-30.031	257.647	77.196	-29.797	-25.278	33.523	183.843	-25.755	-20.588	-20.015	-17.134	74.265	-17.634	-8191	255	
4974.451	1	1	0	0	0.032028	0.055035	0.092809	0.16515	0.14549	0.075672	0.098076	0.064856	0.14461	0.24104	0.20417	0.28107	0.048171	0.14758	0.16969	0.11818	-3.6771	-4.7833	-3.7542	-4.2167	-4.6667	-3.7938	-4.7063	-4.3417	-3.8083	-4.8771	-4.1729	-4.2396	-4.7875	-4.0583	-4.5563	-4.4563	159.145	250.781	303.753	140.774	3.357	263.311	-19.524	224.738	-11.084	222.134	89.466	-6.058	280.632	59.128	170.217	84.876	6.9879e-05	0.00015122	0.00015076	507.93	4.0108e-06	6.5531e-06	757.56	148.77	2.7075e-06	3.7806e-06	285.49	98.86	43.549	14.389	5.6782e-06	36.745	0.00057022	0.00057819	0.00016086	562.96	6.3392e-06	6.2919e-06	780.74	164.93	6.3403e-06	6.3356e-06	297.69	103.59	53.441	17.313	6.3724e-06	38.616	311.898	-1.963	259.558	-29.685	294.883	117.057	-29.678	-24.895	71.035	172.066	-25.234	-20.286	-20.679	-17.067	277.541	-17.411	-8191	255	
4974.547	1	1	0	0	0.083641	0.067836	0.1065	0.29902	0.019646	0.035745	0.15345	0.20646	0.22088	0.069109	0.064879	0.16815	0.15066	0.19247	0.18656	0.1426	-3.6542	-4.7875	-4.05	-4.0396	-4.6875	-3.8479	-4.6521	-4.5479	-3.9146	-4.8521	-4.1854	-4.0167	-4.8729	-3.9979	-4.4958	-4.5896	247.476	214.166	166.561	256.630	30.761	-3.936	-20.015	264.909	-12.593	-36.781	90.043	189.602	314.754	238.489	269.732	290.344	0.00014665	0.00043145	0.0001006	496.09	1.4312e-06	3.0251e-06	740.25	144.13	6.3538e-06	5.7838e-06	281.51	96.773	42.454	14.016	6.4866e-06	36.035	0.00058072	0.00058811	0.00016432	556.11	6.5211e-06	6.5473e-06	766.02	162.51	6.6044e-06	6.6111e-06	292.92	102.1	53.01	17.15	6.5702e-06	38.256	181.693	52.880	-27.873	-29.906	178.559	90.310	-29.847	-25.185	98.031	14.373	-25.739	-20.962	-20.277	-17.344	161.231	-18.210	-8191	255	
4974.644	1	1	0	0	0.15497	0.056971	0.23754	0.14549	0.065763	0.13899	0.03236	0.10043	0.10351	0.17387	0.17877	0.16401	0.12409	0.20898	0.13149	0.17708	-3.5979	-4.8229	-4.1667	-3.9104	-4.7167	-3.9021	-4.3729	-4.525	-3.7229	-4.6479	-4.3083	-4.0604	-4.8979	-4.0271	-4.3187	-4.9229	-5.231	168.673	204.064	269.510	27.691	212.036	72.800	246.793	-30.797	186.995	62.113	-13.374	239.919	39.345	137.419	273.010	0.00012699	0.00049661	0.00021232	490.91	1.2835e-05	4.0993e-06	740.8	143.85	4.0057e-06	4.7542e-06	280.16	97.11	43.187	14.039	2.4827e-06	36.287	0.00059963	0.00060046	0.00016887	554.48	6.5155e-06	6.5901e-06	765.61	162.09	6.534e-06	6.5318e-06	293.5	102.47	53.061	17.243	6.578e-06	38.438	114.422	1.477	304.841	-30.256	80.162	51.060	-29.663	-24.550	36.963	143.085	-25.566	-20.666	-20.642	-17.611	16.490	-17.742	-8191	255	
4974.764	1	1	0	0	0.089442	0.075549	0.2532	0.10502	0.058561	0.22328	0.087814	0.097844	0.10838	0.15926	0.086738	0.24079	0.17074	0.10765	0.083549	0.16649	-3.6188	-4.5917	-4.2937	-3.8271	-4.7708	-4.0167	-4.3542	-4.7896	-3.7854	-4.4583	-4.4729	-3.875	-4.8729	-4.2167	-4.0333	-4.6521	178.926	1.349	64.160	84.800	222.516	140.136	260.438	252.136	127.598	272.357	-14.848	208.746	49.724	243.945	75.992	289.730	0.00016174	0.00068479	4.7585e-05	497.43	2.8441e-06	1.0241e-05	746.59	146.7	6.637e-06	6.2973e-06	283.41	97.921	43.207	14.184	2.2217e-06	36.893	0.00059313	0.00059876	0.00016702	556.94	6.5091e-06	6.483e-06	770.31	163.15	6.4856e-06	6.4412e-06	295	102.64	53.003	17.2	6.4205e-06	38.631	188.460	30.673	0.928	-30.376	-35.126	-16.495	-30.044	-24.901	296.245	101.933	-25.785	-20.649	-20.843	-16.610	269.057	-17.760	-8191	255	
4974.836	1	1	0	0	0.061895	0.12924	0.051208	0.12358	0.25462	0.089175	0.16737	0.11497	0.17234	0.1924	0.27907	0.20708	0.10629	0.1302	0.17916	0.073173	-3.475	-4.2479	-4.425	-3.9625	-4.7854	-4.3271	-4.1458	-4.8958	-4.025	-4.4146	-4.8604	-3.8688	-4.7292	-4.3583	-3.8667	-4.7854	271.249	244.978	264.245	168.246	79.465	175.197	-34.936	294.196	189.390	277.957	156.725	204.787	13.526	11.657	-14.211	98.379	0.00019402	0.0005536	9.9664e-05	504.63	3.2387e-06	4.2504e-06	754.89	147.76	7.0213e-06	8.959e-06	283.59	97.405	42.385	14.186	4.062e-06	36.263	0.00058272	0.00058832	0.00016381	562.4	6.3985e-06	6.3794e-06	778.18	164.19	6.3527e-06	6.3265e-06	294.62	102.18	52.338	17.053	6.2207e-06	37.996	210.831	73.829	5.525	-29.806	-5.598	150.035	-29.884	-25.218	1.063	96.571	-25.730	-20.673	-20.602	-16.405	-24.206	-18.200	-8191	255	
4974.932	1	1	0	0	0.28258	0.088463	0.14491	0.065979	0.11776	0.13094	0.25137	0.18127	0.062021	0.21368	0.16407	0.0112	0.093535	0.10373	0.10647	0.039002	-3.5042	-4.2812	-4.7833	-3.8812	-4.5687	-4.4958	-4.0875	-4.7354	-4.1646	-4.2646	-4.775	-3.9188	-4.5958	-4.4271	-4.0354	-4.875	56.294	257.015	133.518	198.663	57.607	-10.782	312.954	253.526	137.607	275.771	69.727	76.428	242.501	25.946	42.937	145.854	0.00014484	7.2599e-05	0.00014348	491.75	6.3234e-06	7.0572e-06	741.28	144.06	7.5769e-06	5.4075e-06	278.15	96.122	42.833	13.886	3.3939e-06	36.33	0.00056354	0.00057083	0.00015923	551.07	6.2082e-06	6.2359e-06	764.83	160.42	6.1955e-06	6.1857e-06	289.97	101.09	51.893	16.778	6.1522e-06	37.91	155.568	36.337	182.825	-29.859	120.137	33.656	-29.838	-25.151	22.649	285.644	-25.311	-20.542	-20.127	-17.091	12.903	-18.322	-8191	255	
4975.051	1	1	0	0	0.20771	0.11956	0.075861	0.10939	0.18191	0.093087	0.1184	0.069581	0.10478	0.029378	0.096186	0.36113	0.17747	0.23597	0.11396	0.033072	-3.6896	-4.2375	-4.7208	-3.9833	-4.5292	-4.55	-4.0563	-4.8417	-4.1417	-4.2458	-4.8604	-3.9458	-4.4333	-4.6792	-3.9583	-4.9708	-3.820	-19.754	154.898	15.968	182.445	21.629	316.500	-7.641	-12.427	120.585	227.246	-38.288	303.301	294.951	14.232	248.526	0.00011577	0.00035946	8.7769e-05	496.89	2.7539e-06	2.1612e-06	749.74	145.72	9.2008e-06	3.4139e-06	283.48	98.096	42.464	14.251	5.3245e-06	37.06	0.00055353	0.00056182	0.00015466	551.22	6.0193e-06	6.0531e-06	768.91	160.86	6.0123e-06	6.0181e-06	293.6	102.35	52.141	17.031	6.1123e-06	38.528	199.155	104.063	-10.684	-29.920	177.832	91.681	-29.962	-25.064	186.746	-2.454	-25.775	-20.612	-20.287	-17.046	70.015	-17.858	-8191	255	
4975.147	1	1	0	0	0.1106	0.038897	0.1206	0.089449	0.074	0.23077	0.080033	0.24781	0.13977	0.24236	0.36384	0.12088	0.25429	0.25931	0.24843	0.24201	-3.8854	-3.975	-4.8042	-3.9167	-4.3729	-4.7521	-3.9083	-4.8063	-4.5396	-4.0479	-5.0271	-4.1729	-4.3292	-4.8771	-3.8146	-4.7	3.978	191.034	290.960	261.650	195.662	146.926	302.589	115.696	129.854	-11.121	27.260	266.625	123.349	311.573	194.898	267.017	0.00018716	0.00037401	0.00013597	503.77	7.1695e-06	2.7162e-06	755.16	146.21	8.5496e-06	1.8398e-06	285.72	99.437	43.892	14.408	1.0733e-05	37.654	0.00056016	0.00056792	0.00015879	558.62	6.1954e-06	6.235e-06	777.72	162.76	6.2271e-06	6.2088e-06	296.13	103.15	52.859	17.254	6.1797e-06	39.218	196.399	27.719	85.648	-29.874	199.629	203.974	-29.975	-24.720	108.893	107.349	-25.716	-20.544	-20.588	-16.851	234.341	-17.791	-8191	255	
4975.243	1	1	0	0	0.065485	0.30565	0.071346	0.13004	0.16447	0.1651	0.15336	0.036778	0.17354	0.17683	0.060742	0.22811	0.26241	0.055901	0.16394	0.091919	-4.2021	-3.9688	-4.9479	-4.0583	-4.1188	-4.7771	-3.7958	-4.5771	-4.6	-3.9292	-4.9563	-4.2333	-4.1	-4.8625	-3.8875	-4.7625	213.290	266.942	23.521	146.605	303.687	64.241	275.740	-26.974	63.943	159.462	-41.820	68.695	121.487	233.114	231.474	-8.272	0.00010329	0.00017995	0.00016381	507.38	4.2845e-06	1.0438e-05	758.7	148.84	6.1599e-06	4.5686e-06	285.99	97.875	43.302	14.057	4.2035e-06	36.906	0.00056385	0.00057083	0.00015882	564.94	6.2717e-06	6.348e-06	781.89	164.76	6.4814e-06	6.479e-06	297.25	102.99	53.21	17.217	6.5124e-06	38.619	16.350	-6.406	73.110	-30.028	271.557	15.811	-29.836	-24.646	235.884	90.733	-25.647	-20.662	-20.095	-16.770	201.356	-17.620	-8191	255	
4975.339	1	1	0	0	0.22328	0.21781	0.20258	0.26959	0.21569	0.18512	0.08194	0.18367	0.017748	0.00884	0.18565	0.38873	0.23133	0.065483	0.075999	0.16875	-4.3125	-3.8917	-4.5938	-4.1312	-4.0083	-4.8271	-4.0563	-4.3375	-4.7375	-3.8812	-4.8063	-4.3417	-3.875	-4.8625	-4.0208	-4.3958	135.312	274.131	212.028	7.905	291.964	284.534	250.426	182.293	247.086	197.270	295.927	278.719	81.025	23.893	274.868	214.415	0.00010263	0.00024839	0.00012367	499.95	1.2102e-05	7.1426e-06	744.5	144.09	5.2949e-06	2.6484e-06	277.25	95.625	41.955	13.776	3.9909e-06	35.714	0.00058966	0.00060589	0.00016825	559.12	6.6484e-06	6.713e-06	769.84	162.19	6.7578e-06	6.7607e-06	291.98	101.32	52.638	17.135	6.7953e-06	38.065	163.967	283.047	84.979	-29.759	176.567	33.318	-29.852	-25.210	3.507	169.557	-25.862	-20.646	-20.122	-17.426	62.926	-17.853	-8191	255	
4975.435	1	1	0	0	0.15912	0.10946	0.15949	0.13907	0.23965	0.22185	0.16708	0.11599	0.077825	0.13594	0.073341	0.38289	0.053488	0.17848	0.12717	0.07818	-4.2875	-3.875	-4.6729	-4.475	-4.1125	-4.9292	-4.2854	-4.275	-4.8208	-3.8083	-4.6583	-4.5146	-4.0833	-4.8646	-4.1687	-4.2208	149.352	208.416	35.749	-6.956	263.498	134.072	303.753	3.772	108.088	45.731	44.761	3.466	-33.832	216.457	301.542	28.014	0.0002051	0.00049371	0.00013966	497.3	4.2335e-06	7.3514e-06	742.9	142.22	9.8801e-06	7.0368e-06	276.91	94.613	41.664	13.934	3.1952e-06	35.717	0.00062441	0.00062385	0.00017578	562.39	6.9463e-06	6.9609e-06	772.56	162.48	7.0154e-06	7.0402e-06	292.57	101.65	53.111	17.331	7.0037e-06	38.44	242.133	56.833	49.239	-29.677	-28.830	281.676	-29.648	-25.220	310.309	192.401	-25.703	-20.420	-20.530	-16.850	129.501	-17.939	-8191	255	
4975.532	1	1	0	0	0.13469	0.15112	0.0070944	0.23289	0.027686	0.12677	0.27919	0.20791	0.14204	0.10951	0.14807	0.23784	0.054997	0.14533	0.054309	0.13975	-4.5437	-3.85	-4.5563	-4.65	-4.075	-4.9792	-4.3	-4.3104	-4.8104	-3.9125	-4.5583	-4.6937	-4.0146	-4.8688	-4.2688	-4.1854	263.215	297.567	229.740	170.463	0.441	-11.901	280.917	272.578	121.081	251.911	-0.233	-28.919	224.413	34.333	82.148	205.988	0.00013929	0.00059334	0.00014703	497.15	8.2127e-06	1.6475e-06	741.38	144.48	1.1502e-05	7.5252e-06	277.33	94.191	41.964	13.793	7.3743e-06	36.119	0.00064589	0.0006513	0.00018043	566.45	7.1525e-06	7.1123e-06	775.98	163.88	7.1338e-06	7.1137e-06	295.18	102.17	53.422	17.386	7.0525e-06	38.698	217.747	117.918	263.055	-30.023	233.438	151.004	-29.617	-25.535	289.643	97.013	-25.788	-20.923	-21.260	-17.256	22.117	-17.893	-8191	255	
4975.628	1	1	0	0	0.036977	0.044698	0.17647	0.10799	0.095824	0.14521	0.087568	0.069369	0.1075	0.10011	0.30529	0.062027	0.25409	0.078099	0.13184	0.15145	-4.5667	-3.9021	-4.3104	-4.8271	-3.8229	-4.5333	-4.5021	-4.0125	-4.8417	-3.9854	-4.4021	-4.7875	-4.0146	-4.6292	-4.3625	-3.9292	294.464	51.611	157.036	182.978	315.662	6.230	166.254	167.607	99.275	154.834	130.105	236.422	10.510	81.117	116.283	143.713	0.00020245	0.00050387	9.0262e-05	497.36	2.0367e-06	7.7537e-06	746.14	144.13	1.4493e-05	1.0006e-05	275.93	94.24	41.7	13.61	4.3731e-06	35.118	0.00064553	0.00065092	0.00018131	567.04	7.1018e-06	7.0704e-06	778.54	163.99	7.034e-06	7.0415e-06	293.15	101.16	52.936	17.069	7.0795e-06	37.817	226.453	-0.116	-3.558	-29.561	137.479	206.343	-29.664	-25.093	80.031	-22.061	-25.784	-20.337	-20.476	-16.808	166.023	-17.936	-8191	255	
4975.724	1	1	0	0	0.01347	0.10552	0.20995	0.12703	0.13794	0.22202	0.11663	0.19721	0.020896	0.065987	0.13036	0.20037	0.10479	0.22596	0.17081	0.086496	-4.6	-4.0563	-4.1583	-4.8208	-3.8542	-4.7021	-4.6667	-3.9833	-4.8542	-4.1458	-4.3313	-4.8875	-3.9792	-4.5312	-4.4	-3.9167	-29.458	59.233	119.457	61.324	45.876	154.197	291.297	44.408	237.673	227.402	-42.559	275.626	37.269	276.199	7.187	256.598	0.00014697	0.00053143	0.00010741	494.72	4.8574e-06	7.1904e-06	734.95	140.9	7.0949e-06	5.7731e-06	273.38	94.381	41.334	13.598	1.9954e-06	35.351	0.00063649	0.00064922	0.00017885	558.78	6.9571e-06	6.8973e-06	766.51	160.42	6.8615e-06	6.8258e-06	289	100.4	52.033	16.889	6.7565e-06	37.782	198.050	75.468	77.019	-30.348	222.347	67.889	-29.913	-25.164	155.834	90.701	-26.011	-20.633	-20.986	-16.897	99.754	-17.731	-8191	255	
4975.843	1	1	0	0	0.1765	0.10258	0.069511	0.14998	0.21938	0.078749	0.14803	0.20147	0.15335	0.13972	0.096623	0.087546	0.095368	0.15679	0.27753	0.081007	-4.4292	-4.1458	-4.1583	-4.9375	-3.7729	-4.4417	-4.6458	-3.8771	-4.7021	-4.375	-4.0292	-4.7646	-3.975	-4.3896	-4.6729	-3.9771	277.381	124.216	233.980	270.405	141.825	263.582	266.550	204.068	256.749	227.086	247.873	4.735	121.791	213.875	50.174	66.698	0.0002129	0.00041787	0.00019634	488.22	8.3929e-06	8.9605e-06	741.47	143.23	9.4834e-06	1.6735e-06	277.04	95.551	42.364	13.868	4.2057e-06	36.39	0.00061	0.00061492	0.00017015	553.82	6.6679e-06	6.6708e-06	767.21	160.74	6.5688e-06	6.6001e-06	291.03	101.19	52.361	17.011	6.473e-06	38.285	225.134	15.007	166.984	-29.885	120.414	105.772	-29.506	-25.387	176.558	140.255	-25.320	-20.617	-20.723	-17.095	49.272	-18.024	-8191	255	
4975.939	1	1	0	0	0.20927	0.18106	0.029181	0.080986	0.14587	0.046924	0.065452	0.13758	0.16022	0.24193	0.15752	0.10867	0.13863	0.030851	0.048117	0.12978	-4.4875	-4.4437	-4.0042	-4.7792	-4.0104	-4.1729	-4.8063	-3.9062	-4.6771	-4.4771	-3.9083	-4.75	-4.075	-4.2271	-4.7375	-3.9958	136.331	203.361	83.392	174.343	151.454	225.901	213.252	34.973	77.396	102.838	268.071	25.204	-40.043	194.275	277.702	288.964	0.00020728	0.0008689	0.00013916	499.24	5.0529e-06	6.3837e-06	748.64	144.77	6.3198e-06	1.415e-07	282.72	98.261	42.814	14.249	4.0186e-06	37.206	0.00057656	0.00058284	0.0001613	554.25	6.2992e-06	6.2915e-06	771.86	161.53	6.2239e-06	6.2683e-06	293.38	102.45	52.308	17.13	6.2515e-06	38.781	216.203	-6.342	162.715	-29.770	169.438	142.376	-29.714	-24.520	149.234	108.602	-25.764	-20.043	-20.394	-16.533	315.055	-17.695	-8191	255	
4976.035	1	1	0	0	0.15178	0.15258	0.24348	0.020119	0.18383	0.19064	0.0336	0.10804	0.011934	0.09842	0.069401	0.18882	0.15093	0.11512	0.22026	0.11014	-4.3438	-4.4646	-3.9542	-4.9812	-4.2708	-4.2042	-4.7438	-4.05	-4.6042	-4.5542	-3.9417	-4.7854	-4.3708	-4.1646	-4.8792	-3.9375	95.612	11.931	309.545	86.285	74.089	131.850	316.044	183.633	267.688	230.800	283.939	178.817	116.161	-3.461	7.283	-24.370	0.0001489	0.00068529	0.00012344	504.36	9.1838e-06	8.2146e-06	753.93	145.23	3.7798e-06	4.9357e-06	280.51	97.16	42.19	14.039	8.0852e-06	36.282	0.00056743	0.00057561	0.00016135	561.74	6.3109e-06	6.3295e-06	776.51	161.94	6.3022e-06	6.2944e-06	292.1	101.76	51.82	16.958	6.3131e-06	38.052	-20.077	59.810	57.496	-29.725	116.019	-5.750	-29.634	-25.002	74.257	70.254	-25.733	-20.634	-20.325	-17.310	45.004	-17.849	-8191	255	
4976.131	1	1	0	0	0.17781	0.022467	0.14816	0.09603	0.13293	0.21763	0.21427	0.32787	0.22205	0.059805	0.15398	0.13633	0.085266	0.18656	0.18837	0.26362	-4.2292	-4.5729	-4.0458	-4.8625	-4.2146	-4.0583	-5.0229	-4.0396	-4.2604	-4.5792	-4.0958	-4.6937	-4.3875	-3.9667	-4.9146	-4.1521	120.221	121.528	314.899	206.089	46.678	12.397	264.054	-8.861	241.809	41.761	3.287	2.997	129.882	-30.473	149.862	29.769	0.00012766	0.00012873	5.9443e-05	489.49	1.8182e-06	6.8049e-06	736.25	143.01	2.1072e-06	6.3143e-06	275.98	94.941	41.725	13.842	3.981e-06	35.599	0.00057011	0.00058159	0.00016184	548.96	6.3824e-06	6.4067e-06	762.81	159.67	6.4322e-06	6.4638e-06	287.99	100.08	51.657	16.781	6.4543e-06	37.657	191.030	291.127	121.941	-29.898	172.450	128.939	-29.436	-24.625	124.873	143.018	-25.328	-20.621	-20.415	-16.916	61.002	-17.518	-8191	255	
4976.227	1	1	0	0	0.10116	0.20435	0.23697	0.26839	0.045096	0.11229	0.11904	0.17002	0.11324	0.067523	0.023059	0.065277	0.10582	0.18456	0.22534	0.067066	-4.0021	-4.8562	-3.9062	-4.5875	-4.4125	-4.0333	-4.9021	-4.0146	-4.2354	-4.8646	-3.975	-4.6604	-4.6104	-3.9542	-4.975	-4.2104	58.775	-24.797	200.353	-40.149	155.879	59.525	11.942	153.794	-15.945	207.768	214.958	261.054	121.746	104.944	-3.285	179.351	0.00011282	0.00059846	0.00012917	489.95	4.1147e-06	5.9369e-06	737.3	141.84	2.2373e-06	6.6608e-06	274.95	94.419	41.313	13.813	5.2802e-06	35.54	0.00059045	0.00060177	0.00016734	552.45	6.5839e-06	6.6174e-06	763.97	160.44	6.6346e-06	6.6325e-06	289.24	100.31	51.726	16.888	6.5646e-06	37.747	248.515	257.956	105.447	-29.921	200.065	71.535	-29.497	-25.165	-42.225	182.514	-25.504	-20.482	-19.433	-16.763	19.470	-17.681	-8191	255	
4976.348	1	1	0	0	0.11754	0.12097	0.032937	0.33134	0.22148	0.28976	0.14464	0.1094	0.10947	0.1015	0.16608	0.33486	0.20618	0.20701	0.1678	0.13158	-3.85	-4.7375	-3.9375	-4.5542	-4.5771	-3.9125	-4.9	-4.3417	-4.2396	-4.8542	-4.1937	-4.6229	-4.6167	-3.7896	-4.6937	-4.5167	208.303	189.950	7.172	264.545	282.321	121.155	206.965	192.495	309.716	15.191	163.057	295.002	68.201	246.251	-3.431	168.930	7.6958e-05	0.00062082	0.00015269	489.49	4.0793e-06	1.0544e-05	743.1	143.19	7.0852e-06	5.4997e-06	276.8	95.936	41.954	14.041	7.358e-06	36.313	0.00059501	0.00060325	0.00016605	552.51	6.5185e-06	6.5235e-06	768.37	161.02	6.5191e-06	6.4573e-06	290.9	101.36	52.208	17.025	6.5099e-06	38.245	249.234	243.550	288.001	-29.523	154.358	281.136	-29.575	-24.885	-0.467	219.515	-25.692	-20.627	-20.422	-16.750	120.911	-18.029	-8191	255	
4976.444	1	1	0	0	0.17701	0.043462	0.10253	0.1888	0.0094019	0.057086	0.18016	0.0047797	0.19585	0.077012	0.15729	0.16392	0.075944	0.12633	0.10382	0.096683	-3.6437	-4.7729	-3.9125	-4.4812	-4.8	-3.9917	-4.7167	-4.4208	-4.0583	-4.8313	-4.0687	-4.3833	-4.8	-3.9521	-4.5833	-4.3729	240.783	60.314	9.652	-13.190	156.767	205.794	283.974	204.037	250.501	248.488	6.693	308.833	123.963	-29.350	204.240	51.202	4.7011e-05	2.3371e-05	0.00011763	490.94	1.331e-06	4.6809e-06	742.11	142.81	4.5278e-06	2.4122e-06	275.55	94.245	41.437	13.545	4.6316e-06	35.45	0.00058666	0.00059802	0.00016683	555.96	6.5225e-06	6.4996e-06	768.2	160.71	6.49e-06	6.3943e-06	288.99	100.08	51.38	16.662	6.3683e-06	37.322	261.436	280.815	60.345	-29.597	31.757	161.435	-29.744	-25.102	142.237	149.678	-25.507	-21.005	-20.676	-17.677	109.554	-17.985	-8191	255	
4976.539	1	1	0	0	0.07546	0.016892	0.21331	0.27277	0.25154	0.22388	0.21868	0.081017	0.16274	0.075397	0.24278	0.15695	0.078846	0.17358	0.051983	0.11847	-3.6625	-4.8313	-4.1375	-4.2604	-4.6875	-3.9896	-4.5708	-4.5167	-3.9354	-4.875	-4.1333	-4.1167	-4.725	-4.025	-4.5104	-4.6438	248.833	-15.196	108.993	245.421	87.891	55.588	293.757	-28.569	270.361	268.834	255.470	-35.966	195.605	34.825	250.783	295.864	0.00019771	0.00069734	0.00017629	485.47	3.138e-06	1.066e-05	732.89	140.75	5.2253e-06	4.2971e-06	274.84	94.826	41.026	13.546	5.6097e-06	35.277	0.00057947	0.00058437	0.00016319	545.63	6.3946e-06	6.3471e-06	758.77	157.84	6.373e-06	6.3661e-06	287.93	100.07	51.27	16.667	6.4009e-06	37.455	297.615	75.875	27.990	-30.185	205.512	293.167	-29.540	-24.622	248.174	91.657	-25.546	-20.532	-20.502	-17.347	83.752	-18.110	-8191	255	
4976.635	1	1	0	0	0.28989	0.15758	0.071231	0.28976	0.30602	0.093325	0.17475	0.23751	0.33825	0.13112	0.12091	0.085284	0.091497	0.18228	0.014934	0.12963	-3.5542	-4.8375	-4.1958	-3.9437	-4.6396	-3.9458	-4.5479	-4.6292	-3.8688	-4.6917	-4.4271	-4.0771	-4.9854	-4.0896	-4.2646	-4.7312	38.103	251.812	117.996	-3.981	222.680	1.986	257.596	212.961	221.392	99.642	-15.843	181.817	-10.968	212.442	86.792	62.937	7.4347e-05	0.00016932	0.00023559	490.59	9.4066e-07	5.4019e-06	741.41	141.32	1.0909e-05	1.7134e-06	276.92	95.379	41.772	13.856	7.4823e-06	36.032	0.00058198	0.00058694	0.00016379	548.83	6.387e-06	6.4503e-06	764.91	159.67	6.4354e-06	6.4176e-06	289.33	100.74	51.556	16.872	6.4099e-06	38.016	205.928	202.445	195.380	-29.813	22.567	263.983	-29.635	-24.868	211.432	281.983	-25.376	-20.251	-19.981	-16.661	37.585	-17.426	-8191	255	
4976.731	1	1	0	0	0.056565	0.015646	0.13263	0.25916	0.14308	0.14868	0.14059	0.016814	0.16958	0.12912	0.086687	0.12475	0.064621	0.27541	0.071053	0.10231	-3.4437	-4.6937	-4.4271	-3.9062	-4.8896	-4.0437	-4.3458	-4.7833	-4.0021	-4.6375	-4.5917	-4.0208	-4.8167	-4.3854	-4.1375	-4.7375	19.068	170.154	8.416	296.496	219.634	-27.422	280.280	202.719	144.150	120.791	223.001	5.291	99.537	166.866	235.884	242.858	5.3156e-05	0.00071354	0.00013561	495.92	9.3099e-06	3.4959e-06	748.61	144.58	2.4147e-06	7.0257e-06	279.86	95.35	42.317	13.959	4.4217e-06	36.573	0.00058073	0.00059225	0.00016603	554.63	6.4963e-06	6.5513e-06	771.97	161.22	6.5218e-06	6.4866e-06	291.71	101.1	52.004	17.051	6.4688e-06	38.485	110.267	39.918	82.324	-29.397	110.887	215.583	-29.778	-24.788	166.472	123.573	-25.639	-20.483	-19.830	-16.807	292.153	-17.736	-8191	255	
4976.827	1	1	0	0	0.09911	0.1079	0.10254	0.41254	0.16259	0.1367	0.24572	0.17734	0.071704	0.1387	0.18173	0.18587	0.14589	0.11898	0.079135	0.17443	-3.6396	-4.5188	-4.6583	-3.8187	-4.6625	-4.2833	-4.2458	-4.7479	-3.9292	-4.4375	-4.5375	-3.9021	-4.7646	-4.3271	-4.1167	-4.9479	225.352	191.042	-20.877	243.225	208.147	115.341	298.820	271.974	112.352	179.559	223.715	174.283	169.472	313.267	75.114	303.730	0.00023961	0.00050437	0.00018399	499.54	5.1674e-06	6.89e-06	747.53	143.01	8.9941e-06	6.9069e-06	275.07	94.791	41.303	13.639	5.7561e-06	35.439	0.00058529	0.00059597	0.00016624	557.72	6.5096e-06	6.5317e-06	771.23	160.38	6.5699e-06	6.529e-06	288.98	100.32	51.557	16.74	6.5342e-06	37.582	189.327	128.236	20.130	-30.303	293.732	-19.902	-29.672	-24.833	291.643	242.831	-25.405	-20.417	-20.481	-16.529	98.927	-17.518	-8191	255	
4976.923	1	1	0	0	0.25032	0.041436	0.1345	0.14349	0.11639	0.082834	0.031788	0.053372	0.09719	0.075427	0.056526	0.079557	0.15635	0.22033	0.11694	0.096294	-3.6479	-4.4125	-4.8292	-3.8333	-4.6271	-4.2792	-4.0958	-4.75	-3.9813	-4.2438	-4.8396	-4.0229	-4.4479	-4.4708	-4.0687	-4.8812	228.811	123.550	33.854	110.976	54.975	-0.303	231.380	246.521	269.092	207.789	301.596	16.695	-24.118	38.368	295.231	165.826	0.00015133	0.00054612	0.00021162	484.54	1.7291e-06	4.0346e-06	733.03	140.41	1.094e-06	7.9577e-06	271.54	92.783	40.824	13.36	8.1382e-06	35.002	0.00059691	0.00060458	0.0001675	547.78	6.6307e-06	6.6286e-06	761	158.13	6.6247e-06	6.6853e-06	287.27	99.443	51.322	16.686	6.6736e-06	37.255	250.902	127.290	7.441	-29.774	22.200	89.817	-29.589	-24.357	199.812	105.356	-25.709	-20.361	-20.366	-16.709	76.336	-17.363	-8191	255	
#DATA ENDS
