BOXY.EXE: ISS Imagent and Oximeter Data Acquisition Program Version 0.80
Ascii Record File

#ACQ INFORMATION
2  Detector Channels 
16  External MUX Channels 
1  Auxiliary Channels 
5000  Waveform (CCF) Frequency (Hz)
1  Waveforms Skipped 
30  Waveforms Averaged 
1  Cycles Averaged 
16  Acquisitions per Waveform 
10.0806  Updata Rate (Hz) 

#FILE INFORMATION
TRUE -- External MUX Channel results are PARSED.
FALSE -- AC DC and Phase are NOT grouped.
TRUE -- Companion Program Settings File CREATED.
FALSE -- AC data not excluded
FALSE -- DC data not excluded
FALSE -- Phase data not excluded
FALSE -- Auxillary Chn. data not excluded
Tab delimiters

#CALIBRATION STATE
TRUE -- Waveform Calibration Values APPLIED.


#AUX CALIBRATION VALUES
Val Type	aux-1	

Term	1.0000e+00	
Factor	0.0000e+00	


#WF CALIBRATION VALUES
A = Detector Channel
Val Type	A-AC1	A-AC2	A-AC3	A-AC4	A-AC5	A-AC6	A-AC7	A-AC8	A-AC9	A-AC10	A-AC11	A-AC12	A-AC13	A-AC14	A-AC15	A-AC16	A-DC1	A-DC2	A-DC3	A-DC4	A-DC5	A-DC6	A-DC7	A-DC8	A-DC9	A-DC10	A-DC11	A-DC12	A-DC13	A-DC14	A-DC15	A-DC16	A-Ph1	A-Ph2	A-Ph3	A-Ph4	A-Ph5	A-Ph6	A-Ph7	A-Ph8	A-Ph9	A-Ph10	A-Ph11	A-Ph12	A-Ph13	A-Ph14	A-Ph15	A-Ph16	

Term	0.00000e+00	0.00000e+00	0.00000e+00	0.00000e+00	0.00000e+00	0.00000e+00	0.00000e+00	0.00000e+00	0.00000e+00	0.00000e+00	0.00000e+00	0.00000e+00	0.00000e+00	0.00000e+00	0.00000e+00	0.00000e+00	0.00000e+00	0.00000e+00	0.00000e+00	0.00000e+00	0.00000e+00	0.00000e+00	0.00000e+00	0.00000e+00	0.00000e+00	0.00000e+00	0.00000e+00	0.00000e+00	0.00000e+00	0.00000e+00	0.00000e+00	0.00000e+00	0.00000e+00	0.00000e+00	0.00000e+00	0.00000e+00	0.00000e+00	0.00000e+00	0.00000e+00	0.00000e+00	0.00000e+00	0.00000e+00	0.00000e+00	0.00000e+00	0.00000e+00	0.00000e+00	0.00000e+00	0.00000e+00	
Factor	1.00000e+00	1.00000e+00	1.00000e+00	1.00000e+00	1.00000e+00	1.00000e+00	1.00000e+00	1.00000e+00	1.00000e+00	1.00000e+00	1.00000e+00	1.00000e+00	1.00000e+00	1.00000e+00	1.00000e+00	1.00000e+00	1.00000e+00	1.00000e+00	1.00000e+00	1.00000e+00	1.00000e+00	1.00000e+00	1.00000e+00	1.00000e+00	1.00000e+00	1.00000e+00	1.00000e+00	1.00000e+00	1.00000e+00	1.00000e+00	1.00000e+00	1.00000e+00	X	X	X	X	X	X	X	X	X	X	X	X	X	X	X	X	

B = Detector Channel
Val Type	B-AC1	B-AC2	B-AC3	B-AC4	B-AC5	B-AC6	B-AC7	B-AC8	B-AC9	B-AC10	B-AC11	B-AC12	B-AC13	B-AC14	B-AC15	B-AC16	B-DC1	B-DC2	B-DC3	B-DC4	B-DC5	B-DC6	B-DC7	B-DC8	B-DC9	B-DC10	B-DC11	B-DC12	B-DC13	B-DC14	B-DC15	B-DC16	B-Ph1	B-Ph2	B-Ph3	B-Ph4	B-Ph5	B-Ph6	B-Ph7	B-Ph8	B-Ph9	B-Ph10	B-Ph11	B-Ph12	B-Ph13	B-Ph14	B-Ph15	B-Ph16	

Term	0.00000e+00	0.00000e+00	0.00000e+00	0.00000e+00	0.00000e+00	0.00000e+00	0.00000e+00	0.00000e+00	0.00000e+00	0.00000e+00	0.00000e+00	0.00000e+00	0.00000e+00	0.00000e+00	0.00000e+00	0.00000e+00	0.00000e+00	0.00000e+00	0.00000e+00	0.00000e+00	0.00000e+00	0.00000e+00	0.00000e+00	0.00000e+00	0.00000e+00	0.00000e+00	0.00000e+00	0.00000e+00	0.00000e+00	0.00000e+00	0.00000e+00	0.00000e+00	-6.52519e+01	-1.12272e+02	-1.40546e+02	-1.81760e+02	-6.76519e+01	-1.21665e+02	-1.56710e+02	-1.62015e+02	-7.69798e+01	-7.43317e+01	-1.71259e+02	-1.70793e+02	-1.83439e+02	-1.78028e+02	-8.90177e+01	-1.50152e+02	
Factor	1.93908e-05	8.47056e-05	2.70298e-05	2.28357e-01	9.52142e-07	1.06308e-06	1.77083e-01	6.50480e-02	1.16910e-06	1.01617e-06	9.54342e-02	3.47082e-02	3.35300e-02	1.00324e-02	1.07200e-06	1.43386e-02	6.12713e-07	6.25095e-07	1.73856e-07	1.09696e-01	6.82513e-09	6.83262e-09	8.13591e-02	3.12826e-02	6.82206e-09	6.81802e-09	4.37548e-02	1.58284e-02	1.56341e-02	4.75119e-03	6.80086e-09	6.48096e-03	X	X	X	X	X	X	X	X	X	X	X	X	X	X	X	X	



#DISTANCE SETTINGS
A = Detector Channel
A-1	A-2	A-3	A-4	A-5	A-6	A-7	A-8	A-9	A-10	A-11	A-12	A-13	A-14	A-15	A-16	

2.5000e+00	3.0000e+00	2.5000e+00	3.0000e+00	2.0000e+00	3.0000e+00	1.5000e+00	3.0000e+00	3.0000e+00	3.0000e+00	3.0000e+00	3.0000e+00	3.0000e+00	3.0000e+00	1.5000e+00	3.0000e+00	

B = Detector Channel
B-1	B-2	B-3	B-4	B-5	B-6	B-7	B-8	B-9	B-10	B-11	B-12	B-13	B-14	B-15	B-16	

1.0000e+01	1.0000e+01	1.0000e+01	1.4400e+00	1.0000e+01	1.0000e+01	1.5100e+00	1.9400e+00	1.0000e+01	1.0000e+01	1.9900e+00	2.4900e+00	2.4100e+00	2.9000e+00	1.0000e+01	2.9800e+00	




#DATA BEGINS
time	group	step	mark	flag	A-AC1	A-AC2	A-AC3	A-AC4	A-AC5	A-AC6	A-AC7	A-AC8	A-AC9	A-AC10	A-AC11	A-AC12	A-AC13	A-AC14	A-AC15	A-AC16	A-DC1	A-DC2	A-DC3	A-DC4	A-DC5	A-DC6	A-DC7	A-DC8	A-DC9	A-DC10	A-DC11	A-DC12	A-DC13	A-DC14	A-DC15	A-DC16	A-Ph1	A-Ph2	A-Ph3	A-Ph4	A-Ph5	A-Ph6	A-Ph7	A-Ph8	A-Ph9	A-Ph10	A-Ph11	A-Ph12	A-Ph13	A-Ph14	A-Ph15	A-Ph16	B-AC1	B-AC2	B-AC3	B-AC4	B-AC5	B-AC6	B-AC7	B-AC8	B-AC9	B-AC10	B-AC11	B-AC12	B-AC13	B-AC14	B-AC15	B-AC16	B-DC1	B-DC2	B-DC3	B-DC4	B-DC5	B-DC6	B-DC7	B-DC8	B-DC9	B-DC10	B-DC11	B-DC12	B-DC13	B-DC14	B-DC15	B-DC16	B-Ph1	B-Ph2	B-Ph3	B-Ph4	B-Ph5	B-Ph6	B-Ph7	B-Ph8	B-Ph9	B-Ph10	B-Ph11	B-Ph12	B-Ph13	B-Ph14	B-Ph15	B-Ph16	aux-1	digaux	

3273.499	1	1	0	256	0.091871	0.13849	0.12933	0.024402	0.184	0.2621	0.020715	0.14813	0.10792	0.13248	0.079527	0.08864	0.31519	0.18636	0.10396	0.049781	-4.6125	-3.9417	-4.4854	-4.7479	-4.0958	-4.9375	-4.6979	-4.2208	-5.125	-4.1771	-4.6125	-4.7708	-4.1625	-4.9271	-4.4896	-4.2479	219.357	403.970	220.589	429.715	407.904	206.615	511.811	301.466	214.070	184.815	504.699	388.804	214.749	282.758	260.163	445.723	0.00020906	0.00033334	0.00016399	1099.4	3.6054e-06	4.0216e-06	1186.2	235.74	7.8185e-06	1.8604e-06	296.07	83.329	64.953	19.024	3.0647e-06	26.923	0.00024619	0.00024542	6.7655e-05	1046.1	2.6908e-06	2.6651e-06	1146.9	229.33	2.6455e-06	2.6392e-06	285.01	81.388	63.705	19.184	2.5994e-06	26.719	254.560	302.462	250.410	179.993	376.478	399.840	180.330	187.378	334.140	395.447	186.953	193.920	194.550	201.551	274.358	201.086	-8191	255	
3273.596	1	1	0	0	0.062358	0.040719	0.073217	0.13967	0.16354	0.049414	0.10928	0.25623	0.090786	0.099584	0.07203	0.038247	0.16089	0.1952	0.19766	0.11517	-4.6771	-4.1542	-4.3479	-4.9958	-3.9333	-5.0542	-4.7	-4.1667	-5.1333	-4.3354	-4.3646	-5.0958	-4.0188	-4.8104	-4.6521	-4.1125	284.887	527.935	388.822	202.072	211.265	308.114	410.408	478.273	471.612	290.720	458.670	222.050	472.350	220.863	503.859	328.528	0.00017923	8.5204e-05	8.3263e-05	1087.2	1.3104e-06	3.505e-06	1192.1	235.22	5.3331e-06	2.3135e-06	294	82.688	64.463	18.968	6.7024e-06	26.612	0.00023765	0.00023638	6.556e-05	1040.1	2.5599e-06	2.5466e-06	1145.1	227.34	2.5187e-06	2.5375e-06	283.1	81.051	63.263	19.078	2.5486e-06	26.494	267.761	215.217	234.645	180.168	337.056	285.802	180.169	187.446	400.525	422.219	187.210	194.134	194.393	201.330	324.418	200.637	-8191	255	
3273.692	1	1	0	0	0.089592	0.14781	0.16908	0.072064	0.19515	0.10143	0.12109	0.0093881	0.19154	0.19205	0.1631	0.20182	0.1786	0.17361	0.17537	0.30983	-4.8292	-4.3292	-4.3729	-5.1271	-3.9437	-4.725	-4.8833	-4.2271	-4.7937	-4.425	-4.3708	-4.8979	-4.2125	-4.6042	-4.6292	-4.0792	264.758	390.865	427.100	244.870	356.969	269.777	398.920	412.141	513.643	406.435	435.121	210.543	450.258	299.073	492.837	514.478	0.00026199	0.00047529	4.5917e-05	1094.2	1.033e-06	2.5582e-06	1192	234	4.0093e-06	2.0806e-06	295.55	83.476	64.352	18.914	3.6355e-06	26.76	0.00023425	0.0002363	6.5346e-05	1042.1	2.5988e-06	2.5948e-06	1145.7	226.62	2.6028e-06	2.5955e-06	284	81.29	63.324	19.168	2.621e-06	26.698	275.346	336.186	206.771	179.987	345.217	452.400	180.241	187.380	245.443	510.841	187.298	193.792	194.148	201.274	375.978	200.831	-8191	255	
3273.788	1	1	0	0	0.21354	0.09291	0.11704	0.057721	0.079324	0.28462	0.29835	0.13138	0.13513	0.12768	0.21741	0.10583	0.12397	0.23755	0.20085	0.22675	-4.7063	-4.5938	-4.1875	-5.0125	-4.1729	-4.5625	-5.0437	-4.1229	-4.7896	-4.625	-4.1792	-4.9333	-4.2271	-4.5292	-4.7729	-4.0979	201.546	307.723	191.448	503.046	343.303	473.090	438.816	526.790	341.441	239.038	493.408	446.333	181.858	405.454	274.413	481.390	0.00025781	0.00034197	0.00011595	1086.3	3.9742e-06	1.2894e-06	1195.3	235.34	8.079e-07	2.3908e-06	294.24	82.906	64.732	18.967	2.1725e-06	26.774	0.000244	0.00024367	6.8001e-05	1042.8	2.6903e-06	2.6823e-06	1148.4	227.98	2.6976e-06	2.6888e-06	284.52	81.386	63.632	19.255	2.6898e-06	26.711	242.786	271.591	524.887	179.952	491.529	440.724	180.294	187.217	451.824	367.062	187.315	194.285	194.149	201.409	388.292	200.823	-8191	255	
3273.908	1	1	0	0	0.082409	0.28785	0.13775	0.19011	0.10394	0.14978	0.16025	0.030927	0.17254	0.063171	0.12708	0.073512	0.38427	0.088456	0.067675	0.22186	-4.4833	-4.5208	-4.2125	-4.9917	-4.1771	-4.3667	-5.1083	-4.0083	-4.7542	-4.7812	-4.3167	-5.2125	-4.2542	-4.3063	-4.8604	-4.1896	487.628	466.390	298.850	292.256	357.783	227.401	494.472	467.459	289.371	194.732	170.557	488.157	524.392	500.889	244.572	473.379	0.00030655	0.00037543	0.0002048	1093.5	2.1856e-06	4.6107e-06	1191.4	234.58	4.8007e-06	5.5808e-06	294.48	83.062	64.674	18.974	2.0564e-06	26.768	0.00025125	0.00025223	6.9872e-05	1044.8	2.7579e-06	2.7368e-06	1147.9	227.82	2.7054e-06	2.7083e-06	284.85	81.206	63.576	19.181	2.669e-06	26.634	261.501	355.133	298.091	180.305	294.086	238.177	180.594	187.478	259.625	327.930	187.109	194.225	194.107	201.763	194.879	201.284	-8191	255	
3274.003	1	1	0	0	0.28386	0.22859	0.24475	0.24953	0.048445	0.13438	0.10987	0.31618	0.096512	0.12338	0.089783	0.24748	0.19282	0.10799	0.17024	0.22698	-4.4688	-4.8396	-4.0854	-5.0687	-4.4604	-4.3562	-5.1208	-4.1333	-4.6729	-4.7562	-4.1125	-4.8896	-4.5333	-4.2521	-5.0083	-4.2	529.675	187.070	422.657	463.914	479.704	361.701	456.592	404.100	317.920	378.652	495.364	227.377	225.117	345.593	438.090	178.026	0.00024821	0.00055174	8.5335e-05	1096	2.8605e-06	3.2492e-06	1198.8	233.69	2.6794e-06	2.7908e-06	295.6	83.758	64.597	19.053	1.9984e-06	26.691	0.00024294	0.00024377	6.8155e-05	1046.2	2.6674e-06	2.6857e-06	1152.4	227.28	2.7137e-06	2.725e-06	285.13	81.748	63.734	19.216	2.7106e-06	26.681	267.276	291.692	257.599	180.115	175.648	280.281	180.170	187.666	286.209	320.495	187.421	194.261	194.269	201.620	415.085	201.126	-8191	255	
3274.099	1	1	0	0	0.069109	0.0092818	0.090804	0.14134	0.050948	0.17187	0.05292	0.23255	0.1227	0.039851	0.15229	0.056707	0.10963	0.28612	0.1087	0.31206	-4.4	-4.9521	-4.1625	-5.0333	-4.5104	-4.1021	-5.2125	-4.3792	-4.3792	-4.9958	-4.2438	-4.9125	-4.7104	-4.0938	-5.1	-4.4792	203.224	401.909	305.002	480.586	314.254	251.442	398.755	504.443	344.553	343.680	500.812	263.827	503.171	386.942	294.796	457.550	0.00012804	0.00067685	8.9126e-05	1097.5	4.7e-06	1.7962e-06	1198.7	234.89	6.2973e-06	2.2825e-06	296.83	83.555	64.51	18.986	3.2877e-06	26.816	0.0002506	0.00025242	6.9705e-05	1048.8	2.7367e-06	2.7384e-06	1153.1	228.34	2.7392e-06	2.7396e-06	285.7	81.588	63.741	19.232	2.6984e-06	26.724	238.662	268.593	229.012	179.922	293.175	504.155	180.304	187.377	328.484	367.423	187.039	194.001	194.468	201.273	275.408	201.254	-8191	255	
3274.197	1	1	0	0	0.0932	0.020957	0.054658	0.058916	0.053635	0.19558	0.2079	0.061291	0.0395	0.068564	0.018913	0.097005	0.0063669	0.14747	0.11121	0.26282	-4.1937	-4.8042	-4.1062	-4.7958	-4.6854	-4.2312	-5.05	-4.4604	-4.3875	-4.9896	-4.1729	-4.7979	-4.8292	-4.2875	-4.9583	-4.5437	499.291	188.432	433.316	513.838	236.915	424.434	488.441	234.741	528.469	405.393	448.702	187.010	221.097	378.906	248.525	504.112	0.00022039	0.00011352	0.00010377	1096.4	2.3099e-06	4.2586e-06	1195.5	235.28	2.7091e-06	1.9734e-06	295.78	82.754	65.328	19.101	3.2828e-06	26.718	0.00025116	0.00025163	6.9838e-05	1049.8	2.7663e-06	2.7356e-06	1154.4	228.15	2.7527e-06	2.7403e-06	286.2	81.374	64.002	19.289	2.6976e-06	26.741	264.928	421.797	244.610	180.280	175.222	264.658	180.224	187.571	418.108	260.229	187.511	193.246	194.240	201.401	302.626	200.705	-8191	255	
3274.291	1	1	0	0	0.31235	0.045767	0.089454	0.21295	0.064413	0.19795	0.24621	0.19719	0.1079	0.15051	0.068289	0.1487	0.18023	0.11479	0.054512	0.074941	-3.9875	-5.0208	-4.2708	-4.7917	-4.9083	-4.2125	-5.1583	-4.5667	-4.1792	-5.0833	-4.2729	-4.6146	-4.9187	-4.1167	-4.8875	-4.6771	382.265	273.401	472.713	488.117	390.163	509.445	504.506	427.956	278.955	257.178	519.497	520.792	444.782	449.960	184.181	459.226	0.00017099	0.00041872	8.6388e-05	1098.5	5.9164e-06	5.4383e-06	1203.1	236.69	6.3951e-06	7.1512e-06	296.06	83.321	64.746	19.127	2.969e-06	26.746	0.00025003	0.00024692	6.9782e-05	1050.5	2.7239e-06	2.723e-06	1155.7	229.1	2.7216e-06	2.7306e-06	285.94	81.948	64.105	19.31	2.727e-06	26.837	246.447	258.418	226.610	180.121	287.756	204.149	180.353	187.512	277.453	360.266	187.455	194.105	194.391	201.614	327.899	200.843	-8191	255	
3274.389	1	1	0	0	0.067815	0.00565	0.052736	0.14987	0.1506	0.14764	0.33003	0.12007	0.065447	0.16128	0.22832	0.17672	0.24521	0.040369	0.28446	0.14331	-3.8604	-4.9938	-4.2083	-4.6375	-5.0167	-4.1083	-4.9375	-4.6979	-4.0917	-5.0896	-4.4021	-4.4208	-5.0417	-4.2729	-4.8021	-4.7521	505.997	441.138	433.462	526.851	279.478	267.447	449.704	440.429	388.538	252.475	266.758	525.532	204.744	434.434	224.988	232.698	0.0001842	0.00048374	5.57e-05	1101.4	2.8099e-06	1.3578e-06	1204.8	236.33	3.5443e-06	5.8698e-06	296.41	83.719	64.991	18.971	3.5221e-06	26.907	0.00025144	0.00025042	6.9674e-05	1054.5	2.7523e-06	2.7609e-06	1159	229.4	2.7372e-06	2.7323e-06	287.11	81.965	64.136	19.355	2.7691e-06	26.923	271.425	260.851	335.834	180.143	300.217	210.042	180.242	187.238	202.570	291.179	187.362	194.077	194.171	201.740	204.909	201.015	-8191	255	
3274.508	1	1	0	0	0.12738	0.23479	0.062942	0.25495	0.19384	0.12329	0.27072	0.25079	0.027801	0.13174	0.1292	0.21722	0.25669	0.045389	0.045994	0.18174	-3.6	-5.1458	-4.2708	-4.5646	-5.0979	-4.1458	-4.7833	-4.8771	-4.2458	-5.0375	-4.6521	-4.2604	-5.1708	-4.1833	-4.5167	-5.0396	452.202	326.180	233.176	468.986	473.641	456.195	517.333	470.864	241.069	173.883	450.303	278.061	403.738	233.991	174.318	478.240	0.00018447	0.00042362	0.00010597	1099.8	3.6198e-06	1.0829e-06	1202.5	236.28	2.5192e-06	3.22e-06	296.32	83.816	64.908	19.324	1.9762e-06	26.997	0.00025614	0.0002537	7.0169e-05	1055.5	2.7693e-06	2.7354e-06	1158.8	229.82	2.7281e-06	2.7026e-06	286.43	82.058	63.925	19.417	2.6623e-06	26.785	261.521	356.776	240.410	180.098	252.315	433.025	180.011	187.733	279.527	493.816	187.351	193.923	194.236	201.329	527.027	201.398	-8191	255	
3274.604	1	1	0	0	0.045074	0.064352	0.20169	0.212	0.085507	0.10306	0.21553	0.1353	0.13476	0.099898	0.32527	0.078167	0.27854	0.087997	0.18895	0.085641	-3.8104	-5.1104	-4.4479	-4.3771	-5.1167	-4.1583	-4.7438	-5.0813	-4.2479	-4.9104	-4.7458	-4.2021	-5.1562	-4.4458	-4.6729	-4.9917	454.992	353.529	219.139	497.503	268.817	220.556	371.163	492.308	459.701	320.855	489.863	509.928	176.859	479.785	296.915	390.286	0.00023777	0.00019239	9.3115e-05	1099.2	3.7769e-06	4.7968e-06	1197.3	236.08	3.5679e-06	2.832e-06	299.42	84.025	65.262	19.201	1.3385e-06	27.1	0.00024716	0.00024118	6.7461e-05	1051.1	2.6479e-06	2.6586e-06	1155.6	229.05	2.6643e-06	2.6745e-06	286.98	82.158	64.079	19.364	2.681e-06	26.898	285.845	265.310	245.886	180.335	463.532	284.279	180.314	187.645	183.415	370.773	187.091	194.140	194.191	201.667	506.523	201.217	-8191	255	
3274.676	1	1	0	0	0.12514	0.16496	0.050205	0.16411	0.092783	0.14083	0.13318	0.30223	0.075097	0.074745	0.078666	0.18037	0.18659	0.21496	0.24378	0.018174	-3.8375	-4.7875	-4.7208	-4.4083	-5.0938	-4.4333	-4.5875	-5.0375	-4.1438	-4.7937	-4.7688	-4.2708	-4.9	-4.4083	-4.2375	-5	372.902	419.024	508.686	466.429	318.643	247.267	500.634	392.927	290.220	377.242	511.243	527.723	318.901	344.521	477.680	498.477	0.000263	0.00018054	0.00013176	1097.2	5.7049e-06	7.567e-06	1205	236.6	7.1738e-06	3.8008e-06	298.47	83.789	65.322	19.109	3.2748e-06	26.865	0.00025092	0.00024856	6.9131e-05	1052.7	2.72e-06	2.705e-06	1158	230.06	2.728e-06	2.725e-06	287.41	82.047	64.37	19.393	2.7236e-06	26.985	257.643	469.470	250.072	180.043	315.435	262.115	180.052	187.874	357.129	387.126	187.053	193.506	193.950	201.540	483.525	200.655	-8191	255	
3274.772	1	1	0	0	0.067976	0.28011	0.27317	0.30762	0.058802	0.17331	0.2311	0.21218	0.22448	0.11542	0.24789	0.028068	0.061471	0.10583	0.081435	0.33695	-3.8292	-4.6271	-4.7979	-4.0729	-4.8896	-4.4208	-4.4729	-4.9375	-4.1354	-4.775	-4.9646	-4.0938	-5.05	-4.5687	-4.1833	-5.1333	518.104	200.428	314.534	172.440	259.941	343.493	398.989	513.075	349.175	255.343	484.072	338.851	460.904	267.804	522.495	483.978	0.00028138	0.00020089	0.00011916	1100.4	1.1781e-07	2.7026e-06	1208.5	237.66	5.6825e-06	9.4816e-07	296.21	83.311	65.304	19.311	1.8689e-06	26.974	0.00025078	0.00024965	7.0088e-05	1054.4	2.7595e-06	2.7615e-06	1159.6	230.62	2.7675e-06	2.7679e-06	286.69	82.021	64.375	19.465	2.7713e-06	26.948	266.233	266.787	521.831	180.100	174.135	256.395	180.229	187.484	313.521	235.367	186.971	193.632	194.031	201.719	378.968	201.321	-8191	255	
3274.893	1	1	0	0	0.07634	0.19988	0.03335	0.19906	0.12941	0.11483	0.13756	0.23159	0.26817	0.2397	0.20919	0.044224	0.12415	0.077208	0.16061	0.29465	-3.9042	-4.5604	-4.9292	-4.3208	-4.7917	-4.6562	-4.3396	-5.1479	-4.1625	-4.4667	-5.0125	-4.0792	-4.6521	-4.7271	-4.2104	-5.0583	375.223	346.692	456.370	510.749	406.373	220.837	287.168	381.290	442.340	268.331	328.750	238.565	411.426	447.298	349.193	458.081	0.00019857	0.00011093	8.0258e-05	1107	2.5196e-06	1.0471e-06	1204.6	237.01	2.6665e-06	3.669e-06	299.38	84.29	64.913	19.004	1.9919e-06	27.14	0.00025268	0.00025203	6.9499e-05	1057.1	2.755e-06	2.7269e-06	1158.6	230.15	2.7467e-06	2.7219e-06	287.38	82.084	63.948	19.33	2.7005e-06	26.966	250.522	270.852	211.837	180.183	326.144	405.028	180.034	187.644	258.721	333.955	187.527	194.499	194.142	201.615	426.969	200.773	-8191	255	
3274.987	1	1	0	0	0.085059	0.076272	0.078285	0.12571	0.20305	0.47178	0.23781	0.079044	0.22743	0.091019	0.19247	0.037998	0.078987	0.16805	0.10724	0.068809	-4.0229	-4.3187	-4.9167	-4.1229	-4.8208	-4.825	-3.9062	-5.0354	-4.3958	-4.2833	-5.2604	-4.3292	-4.6146	-4.8938	-4.175	-5.0875	406.495	373.465	358.216	240.616	230.010	312.981	496.065	450.991	495.207	491.092	382.634	416.674	511.368	305.246	361.718	450.289	0.00025385	0.00029213	3.5347e-05	1102.2	3.9821e-06	5.4738e-06	1202.4	236.25	4.2499e-06	2.7535e-06	297.81	83.46	65.458	19.203	7.5109e-06	26.916	0.00024693	0.00024779	6.8505e-05	1053.3	2.6785e-06	2.6662e-06	1156.9	229.82	2.7066e-06	2.7042e-06	286.56	81.835	64.048	19.359	2.688e-06	26.792	241.178	222.858	265.882	180.151	471.494	311.932	180.308	187.604	394.336	258.856	186.994	194.090	194.328	201.633	243.768	201.115	-8191	255	
3275.083	1	1	0	0	0.22826	0.052724	0.092908	0.15505	0.23185	0.16285	0.35412	0.12006	0.13168	0.095124	0.26062	0.11925	0.10493	0.2503	0.12007	0.14857	-4.1979	-4.2521	-4.9375	-4.1833	-4.6375	-4.7979	-4.1479	-5.1021	-4.6125	-4.1062	-5.0813	-4.1708	-4.45	-4.7958	-4.1667	-4.7521	479.947	282.167	282.215	514.809	232.546	381.986	438.524	429.392	372.813	244.950	483.128	191.069	464.672	497.375	288.387	204.126	0.00027828	0.00027423	0.00010305	1100.3	2.7323e-06	4.2642e-06	1201.3	235.14	1.4123e-06	3.1435e-06	295.7	83.394	64.716	18.986	5.7188e-06	26.775	0.00024708	0.00024396	6.8305e-05	1053.6	2.6711e-06	2.639e-06	1153.9	228.3	2.6374e-06	2.6147e-06	285.67	81.563	63.601	19.19	2.599e-06	26.71	247.425	468.754	228.002	180.133	324.234	279.595	180.064	187.525	345.990	469.098	187.543	194.273	194.339	202.099	326.798	200.921	-8191	255	
3275.181	1	1	0	0	0.10464	0.10975	0.083079	0.17028	0.11058	0.11589	0.17764	0.0082757	0.32772	0.34118	0.024533	0.089811	0.20172	0.28847	0.030546	0.20519	-4.2979	-4.2562	-5.075	-4.2792	-4.4625	-5.0146	-4.2146	-4.8146	-4.7604	-4.2021	-5.0042	-4.3125	-4.4688	-5.0146	-4.1438	-4.7146	430.051	436.329	463.916	439.808	388.192	420.633	451.609	194.727	522.556	293.578	373.633	269.875	185.111	219.056	494.861	349.917	0.00022928	0.00060092	0.00021816	1098.2	2.507e-06	2.4985e-06	1191.3	235.42	6.9359e-06	5.045e-06	296.67	82.803	64.865	19.091	4.0425e-06	26.716	0.00024074	0.00023907	6.6346e-05	1048.5	2.6099e-06	2.5915e-06	1148.8	227.54	2.623e-06	2.5527e-06	284.55	81.197	63.401	19.152	2.5522e-06	26.482	263.446	230.760	238.527	180.043	247.665	253.148	180.281	187.712	328.098	278.775	187.483	194.170	194.628	201.938	271.258	200.923	-8191	255	
3275.276	1	1	0	0	0.037976	0.22947	0.13066	0.12707	0.047219	0.23776	0.12946	0.20346	0.21013	0.10869	0.13635	0.11094	0.12405	0.20139	0.23115	0.037283	-4.4625	-4.15	-4.9938	-4.4271	-4.2562	-4.9979	-4.4771	-4.6062	-4.7979	-4.3	-5.1042	-4.4	-4.1229	-5.1333	-4.1729	-4.5208	198.621	352.031	204.506	318.843	352.888	465.575	361.774	517.927	524.465	368.675	523.329	267.582	245.727	292.716	328.573	493.796	0.00016574	0.00033338	0.00016022	1092.7	3.9657e-06	6.2019e-06	1199.6	233.27	3.2342e-06	2.3135e-06	293.28	82.649	64.057	18.858	3.4465e-06	26.605	0.00023848	0.00023722	6.6461e-05	1044.4	2.5956e-06	2.5924e-06	1149	226.46	2.6324e-06	2.6009e-06	283.48	81.176	63.372	19.134	2.6172e-06	26.561	276.508	268.275	283.455	180.143	337.727	275.696	180.460	187.401	505.242	387.295	187.439	193.883	194.420	201.550	393.361	201.087	-8191	255	
3275.372	1	1	0	0	0.1347	0.075941	0.045455	0.29983	0.14914	0.15792	0.12524	0.23477	0.17244	0.045756	0.33935	0.16369	0.093555	0.22949	0.10946	0.089548	-4.6479	-4.1271	-4.9833	-4.6896	-4.1562	-5.1125	-4.4187	-4.4771	-4.9833	-4.0687	-4.8375	-4.8	-4.0604	-4.9938	-4.3208	-4.2417	201.923	505.513	372.653	199.838	488.323	191.511	411.109	451.577	384.073	397.485	200.962	413.466	246.190	447.261	455.938	434.057	0.00032852	7.6258e-05	0.00012573	1092.1	1.9193e-06	4.2471e-06	1200.4	232.83	4.6423e-06	1.7434e-06	294.17	83.13	64.493	18.865	2.7684e-06	26.557	0.0002401	0.00024122	6.6814e-05	1044.3	2.6346e-06	2.6012e-06	1149	226.15	2.6351e-06	2.585e-06	283.13	81.004	63.124	19.046	2.6009e-06	26.401	289.743	401.830	237.068	180.172	405.865	261.888	180.371	187.502	433.914	298.198	187.868	194.081	194.322	201.447	202.863	201.270	-8191	255	
3275.468	1	1	0	0	0.11836	0.076482	0.24878	0.14374	0.29075	0.038853	0.32421	0.087947	0.29354	0.054765	0.1872	0.21983	0.20375	0.10605	0.07803	0.16949	-4.6646	-3.9562	-4.6708	-4.8313	-3.9875	-5.1271	-4.5979	-4.2917	-4.9938	-4.0813	-4.6854	-4.8438	-4.2688	-4.9917	-4.4833	-4.2937	245.998	418.566	206.983	477.548	208.500	230.177	493.295	371.248	507.396	283.915	308.532	237.545	398.084	193.910	197.936	492.568	0.00032744	0.00040905	9.5543e-05	1097.1	2.8319e-06	5.4039e-06	1189.9	232.61	4.6556e-06	5.2174e-06	292.42	82.802	63.976	18.867	1.1883e-06	26.255	0.0002401	0.00023754	6.633e-05	1045	2.5961e-06	2.5774e-06	1146.1	225.54	2.5948e-06	2.5926e-06	282.48	80.88	63.071	18.977	2.5746e-06	26.344	257.963	415.300	307.966	179.881	285.104	265.786	180.248	187.227	269.575	235.579	187.405	194.139	193.966	201.492	278.772	202.019	-8191	255	
3275.589	1	1	0	0	0.098382	0.044065	0.13045	0.17108	0.23835	0.15472	0.087414	0.18216	0.04324	0.18014	0.31377	0.17079	0.099216	0.065798	0.22267	0.18662	-4.7458	-4.1792	-4.5229	-5.05	-4.1312	-4.9187	-4.6896	-4.2688	-4.9938	-4.0917	-4.6083	-4.8792	-3.9604	-4.9146	-4.5896	-4.2333	523.935	380.246	454.326	213.814	316.443	361.921	506.704	274.757	517.229	229.265	425.909	172.200	497.553	169.789	374.937	341.416	0.00031614	0.00049491	4.3184e-05	1094.5	4.3266e-06	7.8064e-06	1189.7	232.55	4.4609e-06	3.7454e-06	293.04	82.613	64.406	18.774	1.6617e-06	26.488	0.00023724	0.00023576	6.5608e-05	1043	2.5887e-06	2.5932e-06	1146.6	225.07	2.6276e-06	2.6101e-06	282.65	80.682	63.093	18.969	2.6048e-06	26.366	260.582	219.117	352.923	180.183	244.383	297.882	180.330	187.094	267.499	311.574	187.363	194.507	194.130	201.698	325.899	200.725	-8191	255	
3275.685	1	1	0	0	0.15147	0.09199	0.2323	0.065707	0.073408	0.10072	0.1912	0.1845	0.082432	0.13298	0.10281	0.14147	0.057912	0.08075	0.09021	0.24356	-4.9062	-4.2104	-4.4812	-4.9458	-4.1312	-4.7937	-4.7	-4.3375	-4.9229	-4.375	-4.5042	-5.0375	-3.9896	-4.8104	-4.8458	-4.2208	347.284	284.851	350.406	456.476	370.635	243.216	474.794	453.417	257.062	209.318	506.367	193.070	460.685	217.664	256.833	495.669	0.00028057	0.000324	8.2648e-06	1095.5	4.4958e-06	3.4565e-06	1195.1	232.8	2.1766e-06	3.3668e-06	292.88	83.228	63.858	18.835	3.5188e-06	26.363	0.00024091	0.00024147	6.7709e-05	1047.5	2.6297e-06	2.6182e-06	1150.4	225.44	2.6247e-06	2.6227e-06	282.4	80.909	63.035	18.975	2.6329e-06	26.321	256.412	282.561	443.999	180.161	219.147	285.213	180.076	187.355	316.318	212.145	187.506	194.145	194.542	201.543	354.439	200.594	-8191	255	
3275.781	1	1	0	0	0.1804	0.071284	0.10305	0.2824	0.08584	0.13228	0.16658	0.034231	0.11685	0.091101	0.0519	0.25396	0.060615	0.1595	0.13675	0.12752	-4.7479	-4.4333	-4.4333	-5.1188	-4.0687	-4.6125	-5.0917	-4.125	-4.9062	-4.4938	-4.3104	-5.0792	-4.1521	-4.5062	-4.7708	-4.1083	439.878	329.652	416.075	353.299	408.644	364.072	405.912	469.658	329.541	471.325	439.263	529.213	235.266	486.759	416.128	256.949	0.00013225	0.00018987	6.2091e-05	1094	5.0985e-06	3.7716e-06	1190.8	231.53	4.8009e-06	3.4091e-06	294.04	82.546	64.345	18.84	3.4006e-06	26.374	0.00024097	0.00024123	6.7746e-05	1046	2.6285e-06	2.6572e-06	1147.8	225.16	2.6461e-06	2.653e-06	282.84	80.76	63.085	19.028	2.6486e-06	26.281	267.204	294.848	222.405	180.369	523.941	437.267	180.137	187.660	208.370	452.426	187.196	193.885	194.568	201.515	463.521	201.003	-8191	255	
3275.901	1	1	0	0	0.048978	0.019608	0.1901	0.11476	0.16915	0.098291	0.062975	0.12469	0.22258	0.043361	0.063852	0.25963	0.14646	0.12747	0.16297	0.098473	-4.6875	-4.5312	-4.1188	-5.0896	-4.0917	-4.575	-5.0417	-4.0479	-4.9292	-4.6146	-4.2667	-4.9042	-4.3354	-4.3708	-4.8542	-4.0708	380.754	479.810	443.137	416.959	507.069	362.406	389.683	440.918	437.308	415.638	524.425	495.191	224.392	495.191	437.545	319.576	0.0001423	0.00029426	5.6179e-05	1097.6	2.7567e-06	1.2195e-06	1187.8	231.72	2.9255e-06	1.9679e-06	292.71	82.429	64.171	18.727	2.1684e-06	26.358	0.00024216	0.00024332	6.7756e-05	1044.2	2.6614e-06	2.6293e-06	1148.4	224.61	2.6427e-06	2.6445e-06	282.4	80.525	63.005	18.965	2.625e-06	26.31	261.636	367.556	321.952	180.212	179.643	489.390	180.189	187.557	272.543	179.006	187.321	194.282	194.192	201.489	327.047	201.019	-8191	255	
3275.973	1	1	0	0	0.057866	0.042531	0.14757	0.29069	0.087069	0.062177	0.37288	0.075577	0.11086	0.043868	0.12048	0.048401	0.10868	0.064241	0.22036	0.21037	-4.4229	-4.6646	-4.0917	-5.2063	-4.4563	-4.3958	-5.1042	-4.2	-4.6854	-4.775	-4.075	-5.0146	-4.4187	-4.3917	-5.0417	-3.9208	171.584	525.903	344.509	476.868	246.855	509.678	458.149	495.867	358.089	309.252	508.202	439.233	431.240	466.511	486.857	520.872	0.00017358	0.00032479	0.00010115	1092.1	5.507e-06	1.8293e-06	1194.9	231.19	2.2231e-06	5.8939e-06	293.45	82.175	64.59	18.786	7.2292e-06	26.503	0.00024289	0.00024171	6.7993e-05	1043.6	2.6416e-06	2.6502e-06	1148	224.8	2.6169e-06	2.6023e-06	282.21	80.672	63.04	18.931	2.5962e-06	26.236	275.496	282.335	301.699	179.825	285.858	447.682	180.291	187.642	302.766	252.100	187.504	193.902	194.187	201.282	340.657	200.792	-8191	255	
3276.068	1	1	0	0	0.0015742	0.030081	0.043465	0.18018	0.10791	0.091138	0.31471	0.078353	0.18092	0.17187	0.44566	0.089694	0.12237	0.078795	0.07392	0.17478	-4.2729	-4.7021	-4.1937	-5.0167	-4.4896	-4.3604	-5.2417	-4.2667	-4.4938	-4.8792	-4.1896	-4.8917	-4.6167	-4.2188	-5.0542	-4.1229	180.000	286.502	529.196	477.175	352.371	313.849	439.771	528.024	375.488	497.386	239.783	461.335	339.530	179.004	217.391	194.558	0.00024942	0.0002362	7.8415e-05	1096.8	2.7228e-06	3.6663e-06	1194.8	230.77	6.0911e-06	2.2624e-06	292.91	82.846	64.113	18.898	1.4513e-06	26.276	0.00024125	0.00024212	6.7035e-05	1045.9	2.6171e-06	2.6393e-06	1147.8	224.3	2.6166e-06	2.6282e-06	282.01	80.91	63.077	19.019	2.6379e-06	26.244	275.271	288.139	434.706	180.336	271.402	477.556	180.136	187.826	349.727	353.272	187.307	194.033	194.078	200.811	218.775	201.139	-8191	255	
3276.188	1	1	0	0	0.20917	0.13386	0.21751	0.27447	0.097765	0.16561	0.23241	0.22323	0.10841	0.1274	0.19139	0.17861	0.11877	0.044641	0.1192	0.15012	-4.3458	-4.9646	-4.0354	-4.9854	-4.5271	-4.2333	-5.2729	-4.3313	-4.5208	-5.0333	-4.1625	-4.8979	-4.6854	-4.1062	-5.0875	-4.4771	360.464	491.587	498.684	182.472	204.015	503.430	479.712	197.643	439.913	443.315	364.908	479.022	261.220	324.083	352.967	518.482	0.00028324	0.00023862	5.692e-05	1089.9	1.3351e-06	3.4238e-06	1185.4	231.5	4.1198e-06	3.2909e-06	294.86	81.833	63.919	18.76	3.6938e-06	26.332	0.00024327	0.00024075	6.7759e-05	1043.7	2.6693e-06	2.6397e-06	1146	224.22	2.6266e-06	2.6023e-06	282.1	80.515	62.922	18.927	2.6164e-06	26.255	270.253	417.081	353.572	179.732	499.725	267.427	180.236	187.467	326.672	179.285	187.413	194.318	194.083	201.789	240.034	200.834	-8191	255	
3276.284	1	1	0	0	0.10902	0.074754	0.067293	0.14179	0.12142	0.1832	0.098796	0.16026	0.15268	0.089402	0.22615	0.060152	0.21431	0.26906	0.27678	0.060042	-4.0708	-4.9667	-4.1792	-4.7771	-4.7646	-4.0125	-5.0188	-4.5708	-4.3812	-4.9604	-4.2583	-4.6229	-4.9854	-4.1062	-4.9458	-4.5417	491.403	466.294	265.593	492.991	376.270	286.252	496.717	278.235	195.465	248.687	200.819	206.459	496.138	498.186	335.075	309.289	0.00027207	0.00012546	9.3984e-05	1093.4	2.7026e-06	3.2916e-06	1190	231.24	2.8058e-06	1.3112e-06	293.24	82.27	64.276	18.755	2.1327e-06	26.031	0.00024124	0.00024126	6.6665e-05	1044.2	2.6234e-06	2.6266e-06	1148.4	224.79	2.6543e-06	2.6239e-06	282	80.757	63.113	18.946	2.6247e-06	26.217	241.253	286.466	195.259	180.087	226.583	495.242	180.305	187.797	278.485	387.213	187.591	194.019	194.469	202.009	303.933	201.003	-8191	255	
3276.380	1	1	0	0	0.27237	0.30271	0.2291	0.22647	0.080621	0.19794	0.15598	0.21893	0.090033	0.17113	0.25175	0.1467	0.16402	0.10363	0.2275	0.18894	-4.0083	-5.0875	-4.2188	-4.7375	-4.8167	-4.1229	-5.1729	-4.5958	-4.0646	-5.1479	-4.4917	-4.6146	-4.9833	-3.9688	-4.7896	-4.7375	253.355	381.590	357.003	527.979	458.253	452.797	464.954	485.480	511.527	378.769	235.049	450.485	495.753	263.767	354.164	322.402	0.00022844	9.6731e-05	9.9569e-05	1095.4	5.1522e-06	5.2449e-06	1192.5	232.53	3.6176e-06	3.5295e-06	293.95	82.489	64.08	18.688	3.4226e-06	26.228	0.00024367	0.00024092	6.8562e-05	1046.8	2.6475e-06	2.6791e-06	1147.4	224.72	2.6185e-06	2.6497e-06	282.25	80.596	62.845	18.899	2.6281e-06	26.22	255.074	285.180	218.568	180.015	425.376	315.895	180.241	187.432	318.636	331.686	187.448	193.716	194.157	201.591	225.326	201.337	-8191	255	
3276.477	1	1	0	0	0.081739	0.20932	0.13941	0.020859	0.025356	0.13947	0.083904	0.085018	0.082935	0.18888	0.15968	0.29917	0.079446	0.20972	0.13501	0.317	-3.8792	-5.0625	-4.2729	-4.4604	-5.0292	-4.0271	-4.9688	-4.6979	-4.2104	-4.9917	-4.5229	-4.4917	-5.0604	-4.1708	-4.6562	-4.7833	195.725	238.116	400.613	524.499	303.698	385.302	170.960	243.762	385.750	178.323	498.567	484.658	237.151	508.616	179.377	426.687	0.000199	0.00022496	8.2311e-05	1094.5	2.771e-06	4.5584e-06	1193.7	231.31	4.3508e-06	3.0426e-06	293.07	82.287	63.747	18.708	5.0228e-06	26.318	0.00024441	0.00024119	6.7804e-05	1045	2.6636e-06	2.6586e-06	1148	224.79	2.641e-06	2.6517e-06	282.11	80.745	62.917	18.861	2.6286e-06	26.166	271.905	434.775	321.263	179.932	426.377	220.029	180.258	187.708	287.755	385.428	187.000	193.842	194.467	201.570	269.934	201.155	-8191	255	
3276.573	1	1	0	0	0.076661	0.02957	0.081197	0.13435	0.18054	0.1363	0.16102	0.20229	0.055036	0.15801	0.15017	0.12201	0.066626	0.042543	0.22159	0.28825	-3.8563	-4.95	-4.5521	-4.325	-5.0167	-4.1458	-4.8354	-4.8417	-4.0813	-4.9167	-4.5625	-4.2354	-5.0417	-4.15	-4.3313	-4.7771	372.490	288.763	219.612	519.005	521.428	439.812	429.604	356.782	231.912	259.589	350.862	507.134	222.311	330.059	294.891	416.826	0.00022425	0.00013952	0.00014384	1092.7	7.4003e-06	6.6909e-06	1197.3	230.61	3.9276e-06	4.3343e-06	292.6	82.276	64.371	18.82	2.9208e-06	26.258	0.00024367	0.00024418	6.7802e-05	1045.4	2.6581e-06	2.6748e-06	1149.7	224.68	2.6738e-06	2.6746e-06	282.35	80.724	63.272	18.979	2.6825e-06	26.303	273.546	494.684	193.507	180.137	304.480	293.893	180.089	187.088	359.232	240.399	187.564	193.970	194.332	202.002	414.794	201.303	-8191	255	
3276.669	1	1	0	0	0.076399	0.16386	0.017897	0.21021	0.15402	0.15	0.095484	0.11062	0.14085	0.12517	0.12312	0.29423	0.19583	0.045562	0.16417	0.17732	-3.7667	-4.8875	-4.5625	-4.2854	-5.05	-4.2646	-4.7354	-4.9625	-4.0229	-4.8625	-4.7271	-4.3083	-5.1062	-4.2208	-4.3187	-4.8	434.873	192.652	514.249	493.646	469.482	357.439	528.601	264.682	176.176	290.943	316.168	490.623	502.898	444.539	380.613	498.725	0.0002234	0.00036465	0.00019558	1094.2	2.3485e-06	1.1939e-06	1196.9	232.06	7.5441e-06	9.7934e-07	293.19	82.535	64.299	18.836	9.5623e-06	26.213	0.00024811	0.00024661	6.822e-05	1045.6	2.6911e-06	2.7087e-06	1149.9	225.09	2.7072e-06	2.6828e-06	282.44	80.76	63.163	18.951	2.6943e-06	26.256	272.526	266.362	263.106	180.050	471.230	338.135	180.130	187.195	245.140	199.777	187.438	193.868	194.533	201.062	351.334	200.657	-8191	255	
3276.765	1	1	0	0	0.14726	0.11679	0.1485	0.1545	0.10079	0.087363	0.11577	0.090175	0.15721	0.084805	0.092429	0.22325	0.091779	0.18809	0.14051	0.12246	-3.7167	-4.675	-4.7438	-4.1979	-4.9854	-4.55	-4.5125	-5.0021	-4.2	-4.875	-4.8854	-4.1729	-4.8771	-4.5958	-4.2792	-5.1562	314.559	212.094	482.526	516.545	467.982	290.211	512.544	241.923	174.069	413.855	421.177	441.630	255.997	492.975	225.411	194.474	0.00029671	0.000293	8.8493e-05	1084.5	3.5814e-06	3.7931e-06	1190.5	231.96	3.9244e-06	3.5065e-06	292.78	82.633	63.826	18.782	3.4754e-06	26.209	0.00024775	0.00024449	6.8412e-05	1043.7	2.6558e-06	2.6528e-06	1149	224.78	2.6326e-06	2.6104e-06	282.12	80.51	62.872	18.857	2.572e-06	26.041	252.485	381.328	194.869	179.946	236.867	327.541	180.086	187.237	478.319	228.718	187.433	194.209	194.121	201.516	283.456	201.198	-8191	255	
3276.861	1	1	0	0	0.041142	0.14774	0.21336	0.14614	0.023905	0.25495	0.21691	0.20877	0.058181	0.24063	0.082093	0.11445	0.11664	0.19205	0.16955	0.23943	-3.9271	-4.6292	-4.7667	-4.1333	-4.8833	-4.5125	-4.3646	-5.1292	-4.0667	-4.6083	-4.9875	-4.15	-4.8792	-4.6979	-4.1271	-5.0854	239.144	484.296	235.485	192.279	518.333	392.257	457.146	411.533	369.751	510.342	200.381	264.082	224.681	247.263	364.656	359.631	0.00023698	7.6742e-05	9.205e-05	1092.7	4.2121e-06	2.646e-06	1185.4	229.49	3.2071e-06	2.4232e-06	291.94	82.013	63.524	18.634	2.4651e-06	26.068	0.00023295	0.00023325	6.4668e-05	1040.7	2.5549e-06	2.5544e-06	1141.8	223.09	2.5312e-06	2.5164e-06	280.42	80.155	62.308	18.79	2.5374e-06	25.983	273.257	261.200	226.768	180.105	474.721	283.193	180.109	187.628	229.578	295.961	187.379	193.830	194.551	201.933	308.428	201.080	-8191	255	
3276.980	1	1	0	0	0.054156	0.079322	0.10538	0.12763	0.13931	0.069186	0.18366	0.21006	0.09491	0.1621	0.11577	0.11583	0.15038	0.14056	0.027861	0.072294	-4.0667	-4.5667	-4.9437	-4.0729	-4.8521	-4.7583	-4.4792	-5.0729	-4.3438	-4.1854	-4.8917	-4.1646	-4.5563	-4.5875	-3.9708	-5.0917	240.034	175.735	465.645	417.166	458.282	482.716	467.422	475.410	443.348	453.764	258.880	182.049	391.060	465.192	354.442	427.384	0.00025513	0.00036108	6.8629e-05	1089.1	6.4949e-06	5.9036e-06	1185.7	230.3	2.0007e-06	4.9007e-06	293.58	82.287	63.711	18.566	7.0901e-07	25.907	0.00023528	0.00023534	6.5528e-05	1038.3	2.5746e-06	2.5618e-06	1142.8	223.42	2.5652e-06	2.557e-06	281.33	80.352	62.671	18.791	2.6049e-06	25.997	260.693	325.544	200.247	180.060	325.517	318.879	180.193	187.533	206.549	256.315	187.424	193.943	194.157	202.232	352.094	200.768	-8191	255	
3277.076	1	1	0	0	0.036113	0.15852	0.25418	0.22743	0.13953	0.1018	0.37608	0.16241	0.086371	0.21226	0.067919	0.23135	0.15722	0.23551	0.039491	0.11136	-4.1896	-4.2625	-4.9792	-4.1375	-4.6062	-4.7604	-4.2708	-5.0625	-4.3833	-4.3792	-5.0646	-4.1771	-4.6583	-4.8438	-4.0458	-4.8042	223.803	383.812	230.197	484.416	192.152	502.647	497.285	474.514	508.700	416.457	235.974	506.819	208.204	218.239	395.754	490.941	0.00031919	0.00045531	0.0001123	1085.7	3.1117e-06	2.964e-06	1184.3	230.75	2.9915e-06	1.8025e-06	290.33	82.077	63.454	18.767	1.9759e-06	26.072	0.00023933	0.00023569	6.65e-05	1038.8	2.5892e-06	2.6241e-06	1143.2	223.86	2.6268e-06	2.6185e-06	280.78	80.366	62.691	18.845	2.6268e-06	26.07	269.753	299.500	255.378	180.016	241.282	270.108	180.108	187.310	258.341	324.944	187.144	194.231	194.402	201.402	346.132	201.267	-8191	255	
3277.172	1	1	0	0	0.29354	0.13442	0.14813	0.13652	0.082243	0.12959	0.19457	0.15292	0.15519	0.14688	0.083994	0.056439	0.18341	0.32969	0.35578	0.15922	-4.1	-4.2542	-4.8771	-4.1042	-4.6125	-4.7979	-4.2	-5.0625	-4.6917	-4.1167	-5.15	-4.3521	-4.4187	-4.9313	-3.9854	-4.7583	360.307	212.623	268.517	481.708	259.399	234.092	464.390	205.101	301.450	490.421	429.141	405.427	367.357	186.985	241.373	281.430	0.00023197	0.00029707	0.0001306	1090	1.163e-06	3.1886e-06	1191.6	230.86	2.5548e-06	3.0556e-06	291.67	81.346	64.034	18.615	4.4357e-06	26.042	0.00024315	0.00024253	6.6902e-05	1042.7	2.656e-06	2.6477e-06	1144.8	224.18	2.6456e-06	2.6596e-06	281.82	80.581	62.942	18.876	2.6743e-06	26.135	262.298	503.710	289.571	179.976	448.993	178.424	180.087	187.522	347.637	309.201	187.254	194.273	194.168	201.830	520.115	201.447	-8191	255	
3277.269	1	1	0	0	0.20479	0.21478	0.083644	0.124	0.25838	0.23977	0.18943	0.088414	0.16258	0.081046	0.042069	0.069921	0.033608	0.11412	0.12187	0.095307	-4.5	-4.1188	-4.9625	-4.4271	-4.3708	-4.8958	-4.175	-4.7583	-4.6792	-4.2042	-4.9875	-4.3229	-4.2583	-4.9625	-4.1521	-4.7312	360.972	327.316	184.862	265.128	451.895	174.545	429.264	418.772	462.540	322.176	346.789	414.849	426.348	406.272	278.366	242.688	0.00027231	0.00028144	7.1573e-05	1085.7	2.2917e-06	6.087e-06	1192.6	230.4	8.3486e-06	1.0024e-05	293.26	82.703	63.583	18.663	5.2487e-06	26.128	0.00024588	0.000247	6.8604e-05	1043.9	2.6715e-06	2.6941e-06	1148	224.52	2.6841e-06	2.6952e-06	282.35	80.699	62.933	18.884	2.7354e-06	26.063	248.187	515.487	241.521	179.778	312.867	519.500	180.218	187.537	335.877	349.132	187.798	193.840	194.737	201.569	288.071	201.257	-8191	255	
3277.365	1	1	0	0	0.14819	0.086942	0.26839	0.20317	0.29698	0.068916	0.40868	0.1465	0.14703	0.20889	0.25171	0.092438	0.23882	0.050813	0.097601	0.070066	-4.4021	-4.1521	-5.0375	-4.6833	-4.275	-5.1042	-4.3417	-4.6917	-5.0062	-4.0542	-5.0563	-4.5396	-4.2312	-5.0292	-4.2146	-4.6979	400.793	361.525	362.734	201.139	276.087	291.249	480.804	426.634	347.601	420.996	231.365	424.300	256.834	411.962	215.529	194.361	0.00025599	0.00039045	0.00016247	1093.3	1.0985e-06	3.5222e-06	1189.8	231.13	1.6249e-06	1.3589e-06	293.43	83.343	63.653	18.579	4.449e-06	25.698	0.00025026	0.00025132	7.0201e-05	1043.8	2.7654e-06	2.7541e-06	1146.4	225.09	2.7551e-06	2.7332e-06	282.87	81.072	63.206	18.914	2.7364e-06	25.975	265.391	248.493	268.663	180.221	281.197	265.098	180.290	187.751	504.813	340.792	187.317	194.593	194.113	201.756	326.879	201.183	-8191	255	
3277.461	1	1	0	0	0.048149	0.055384	0.072843	0.39778	0.1093	0.2246	0.21754	0.2057	0.10012	0.15072	0.03661	0.14998	0.08021	0.22415	0.098369	0.25323	-4.6333	-3.9792	-4.8083	-4.6833	-4.1042	-5.0042	-4.4667	-4.5979	-5.1271	-4.1354	-5.0958	-4.7875	-4.2542	-5.1396	-4.3	-4.5312	465.814	193.606	286.859	480.920	200.919	494.506	480.038	416.451	293.131	444.756	501.287	234.840	429.792	505.451	424.028	358.925	0.00027135	0.00020903	3.5169e-05	1091.9	6.0327e-06	4.4063e-06	1196	232.17	3.1061e-06	4.0391e-06	293.68	81.928	63.765	18.511	4.783e-06	25.955	0.0002493	0.0002516	6.8698e-05	1043.3	2.7042e-06	2.6597e-06	1147.8	224.67	2.6882e-06	2.6899e-06	282.41	80.341	62.895	18.796	2.6913e-06	26.052	254.626	270.605	423.196	180.217	281.245	277.841	180.389	187.475	306.166	306.029	187.482	194.011	194.651	201.686	320.007	201.079	-8191	255	
3277.581	1	1	0	0	0.202	0.12676	0.25042	0.076766	0.16307	0.097822	0.020993	0.39197	0.18816	0.041668	0.22797	0.11068	0.075434	0.0983	0.17279	0.09324	-4.6438	-4.2083	-4.7125	-4.9042	-4.1375	-5.05	-4.6354	-4.3104	-5.0188	-4.1583	-4.9271	-4.9375	-4.1417	-4.8792	-4.5417	-4.4417	231.249	342.832	385.245	169.481	407.398	306.190	464.786	522.926	324.876	192.832	199.601	222.279	277.369	468.265	175.733	388.866	0.00024065	0.00013209	9.754e-05	1093.6	1.4888e-06	1.1403e-06	1188.3	227.94	4.5851e-06	2.3348e-06	291.96	82.37	63.442	18.592	4.5079e-06	25.869	0.00024491	0.00024478	6.8944e-05	1043.9	2.7426e-06	2.7347e-06	1146.8	224	2.7353e-06	2.747e-06	282.44	80.734	63.073	18.879	2.7473e-06	26.017	267.505	181.506	181.540	179.997	326.881	205.388	180.164	187.462	317.365	341.888	187.597	193.657	194.772	201.253	251.113	201.262	-8191	255	
3277.678	1	1	0	0	0.24337	0.1284	0.07254	0.19381	0.12656	0.23139	0.16077	0.23855	0.17745	0.19803	0.025694	0.027082	0.1346	0.064948	0.1658	0.18744	-4.7042	-4.1458	-4.6167	-4.9437	-4.0938	-4.9229	-4.8125	-4.3187	-5.0208	-4.1167	-4.5563	-4.8729	-4.0604	-4.9	-4.4958	-4.3187	516.153	180.993	513.117	492.152	474.490	231.281	424.093	480.313	342.743	361.185	177.303	256.074	254.186	424.541	285.884	174.849	0.00026059	0.00047071	6.9979e-05	1092.3	7.7516e-07	3.2462e-06	1196.8	230.3	6.4754e-06	6.3145e-06	292.91	82.357	63.882	18.614	4.9334e-06	26.054	0.00025191	0.00025153	6.9475e-05	1045.7	2.7144e-06	2.7279e-06	1149.7	224.79	2.7302e-06	2.72e-06	283.02	80.687	63.064	18.857	2.7056e-06	26.103	250.201	302.909	239.733	180.277	359.165	300.182	180.299	187.465	281.163	414.576	187.207	194.173	194.313	201.326	231.802	201.210	-8191	255	
3277.774	1	1	0	0	0.044845	0.098066	0.16306	0.16318	0.09202	0.15866	0.30939	0.19479	0.15446	0.13921	0.17237	0.108	0.10508	0.14682	0.13297	0.20145	-4.6813	-4.2417	-4.4	-4.9729	-4.0667	-5.0354	-4.9771	-4.1562	-5.1354	-4.1854	-4.4125	-4.9833	-4.1125	-4.7562	-4.7937	-4.1354	262.902	375.599	488.332	513.061	228.097	267.095	508.419	468.460	275.661	314.081	437.594	331.902	303.936	269.199	382.379	178.563	0.00026091	0.00032059	0.00011114	1095.4	3.9474e-06	6.4833e-06	1191.4	231.36	4.2097e-06	5.8511e-06	293.25	82.539	64.322	18.794	2.3418e-06	26.012	0.00025077	0.00024719	6.9362e-05	1047.9	2.739e-06	2.7392e-06	1148.7	224.89	2.7382e-06	2.7221e-06	282.49	80.936	63.16	18.94	2.7168e-06	26.085	269.145	315.711	190.565	180.111	223.009	295.370	180.165	187.518	283.427	309.707	187.054	193.837	194.626	201.064	243.794	201.567	-8191	255	
3277.870	1	1	0	0	0.15473	0.090178	0.12174	0.12881	0.1466	0.046414	0.54016	0.1428	0.25098	0.13647	0.036342	0.035464	0.17409	0.11834	0.077282	0.093468	-4.6708	-4.3812	-4.3333	-5.0479	-3.9792	-4.4417	-5.0333	-4.1917	-5.0917	-4.6396	-4.2875	-5.1479	-4.1521	-4.5167	-4.8979	-4.2333	290.003	325.747	508.792	406.351	196.973	264.991	485.021	480.788	526.286	371.498	512.457	172.591	400.057	518.602	482.719	198.787	0.00032834	0.00013002	7.8665e-05	1091.4	3.4045e-06	3.3525e-06	1200.2	231.47	6.8973e-06	2.0086e-06	293.23	82.703	64.196	18.711	4.6171e-06	26.197	0.00025245	0.00025418	7.0626e-05	1047.6	2.7802e-06	2.7775e-06	1153	225.05	2.7779e-06	2.7822e-06	283.23	81.104	63.613	18.994	2.8148e-06	26.231	262.820	514.666	382.107	180.113	249.895	266.096	180.409	187.639	306.114	415.796	187.249	194.071	194.790	201.604	462.220	200.701	-8191	255	
3277.966	1	1	0	0	0.18311	0.057269	0.13042	0.14509	0.082572	0.11175	0.17	0.15162	0.36098	0.13059	0.19361	0.22335	0.097951	0.14798	0.083835	0.19122	-4.6667	-4.5917	-4.1604	-5.05	-4.3104	-4.5958	-5.1125	-4.0792	-4.7292	-4.6083	-4.1833	-5.0104	-4.4062	-4.3688	-5.05	-4.2646	477.374	178.675	305.454	505.214	319.851	514.903	469.250	177.347	342.745	379.987	479.622	515.736	474.925	197.501	402.061	492.608	0.00024022	0.00022703	0.0001193	1098.6	3.1957e-06	3.354e-06	1201.1	232.69	6.1121e-06	2.6854e-06	294.22	82.778	64.115	18.756	5.0274e-06	26.066	0.00026027	0.00025736	7.2128e-05	1052.3	2.8128e-06	2.8213e-06	1156.2	226.56	2.8369e-06	2.8455e-06	283.75	81.328	63.581	19.047	2.8427e-06	26.308	261.854	347.534	218.627	180.543	326.081	203.879	180.309	187.423	278.304	310.692	187.306	194.043	194.588	201.504	186.940	200.942	-8191	255	
3278.060	1	1	0	0	0.13151	0.13948	0.18878	0.27844	0.1064	0.13161	0.13345	0.33493	0.11621	0.064844	0.28031	0.31604	0.19986	0.36782	0.098809	0.035558	-4.4208	-4.6729	-4.1375	-4.9583	-4.4771	-4.3708	-5.0458	-4.3438	-4.625	-4.7708	-4.2438	-5.0167	-4.4646	-4.2312	-5.0312	-4.0833	208.652	295.725	183.140	493.368	517.493	203.261	469.597	428.059	505.915	380.569	512.508	516.251	198.365	209.382	467.576	366.337	0.00020191	0.0001172	8.0242e-05	1099.7	2.554e-06	1.8356e-06	1197.1	232.25	3.1703e-06	4.088e-06	295.06	82.419	64.251	18.538	8.0217e-07	26.062	0.00025921	0.00026049	7.1879e-05	1053.2	2.8514e-06	2.8216e-06	1154.9	225.97	2.8527e-06	2.8171e-06	284.25	81.256	63.559	19.012	2.826e-06	26.179	275.280	374.856	249.393	180.064	334.457	344.778	180.011	187.603	236.390	306.308	187.301	193.895	194.483	201.284	396.000	200.844	-8191	255	
3278.157	1	1	0	0	0.19808	0.073922	0.14718	0.17184	0.12528	0.32535	0.22338	0.12651	0.077965	0.30819	0.11007	0.087112	0.27476	0.24923	0.066059	0.14579	-4.2854	-4.8396	-4.1604	-4.8938	-4.5125	-4.1792	-5.1542	-4.3562	-4.5813	-4.9021	-4.0896	-4.9646	-4.7521	-4.2979	-4.975	-4.4375	470.001	334.036	492.515	455.686	425.656	333.924	437.011	468.078	502.292	181.308	491.516	477.402	433.810	191.515	216.635	364.690	0.00013229	3.2294e-05	3.9319e-05	1102.4	1.768e-06	5.7403e-06	1192.2	231.93	3.821e-06	2.2482e-06	293.7	82.63	64.299	18.739	2.0975e-06	26.095	0.00025871	0.00025559	7.2101e-05	1052.8	2.8118e-06	2.8008e-06	1153.8	225.87	2.8034e-06	2.8031e-06	284.04	81.113	63.559	19.035	2.809e-06	26.265	274.251	450.179	264.698	180.277	360.293	483.066	180.125	187.499	275.420	370.421	187.476	193.908	194.273	202.008	380.926	200.949	-8191	255	
3278.277	1	1	0	0	0.051671	0.14264	0.17177	0.20009	0.15202	0.10978	0.33767	0.19773	0.081026	0.17478	0.13592	0.058574	0.090899	0.15394	0.035871	0.16093	-3.9833	-4.9979	-4.0021	-4.8438	-4.7458	-4.1521	-5.2812	-4.3604	-4.4396	-4.9146	-4.1458	-4.6562	-4.7646	-4.1	-4.9396	-4.4479	384.003	484.275	200.509	408.235	245.634	372.353	447.500	510.221	233.147	199.729	507.435	484.980	509.638	219.805	468.172	522.952	0.00022149	0.00037981	5.7221e-05	1095.8	3.4037e-06	5.0325e-06	1195.6	232.34	4.0635e-06	2.648e-06	293.6	83.201	64.473	18.527	4.8096e-06	25.952	0.00025862	0.0002564	7.2135e-05	1052.8	2.8401e-06	2.8115e-06	1154.6	226.21	2.834e-06	2.8514e-06	283.98	81.372	63.62	18.935	2.8315e-06	26.21	258.100	329.606	197.095	180.279	370.019	311.124	180.281	187.863	353.182	306.495	187.264	194.470	194.456	201.903	377.424	201.180	-8191	255	
3278.373	1	1	0	0	0.16223	0.012959	0.072137	0.087873	0.040923	0.12868	0.17797	0.15221	0.34986	0.15291	0.14238	0.037223	0.11865	0.10162	0.26393	0.080619	-3.9458	-4.9417	-4.2021	-4.6896	-4.8104	-4.1	-5.1583	-4.6854	-4.1813	-4.9771	-4.1167	-4.7	-4.8542	-4.1146	-4.8792	-4.6479	516.293	351.209	344.847	213.978	333.957	357.485	444.734	413.338	235.697	459.548	488.283	454.582	416.641	176.650	342.810	426.412	0.00019877	0.00032041	0.00014247	1100.7	1.0928e-06	7.1635e-06	1197.1	231.4	5.7479e-07	3.0971e-06	294.1	82.193	63.945	18.759	5.3477e-06	26.171	0.00026038	0.00025643	7.1535e-05	1053.7	2.8067e-06	2.8291e-06	1153.4	225.85	2.834e-06	2.797e-06	284.31	81.052	63.518	19.002	2.834e-06	26.247	293.117	386.054	339.499	180.088	434.954	248.361	180.144	187.307	261.663	241.266	187.444	194.284	194.528	201.386	331.100	200.766	-8191	255	
3278.445	1	1	0	0	0.17664	0.19696	0.27634	0.091517	0.033923	0.1102	0.24382	0.21088	0.097032	0.23204	0.020312	0.10333	0.22672	0.086321	0.043881	0.21434	-3.9125	-5.0625	-4.1625	-4.5687	-4.8812	-4.1917	-4.9667	-4.8479	-4.1396	-5.1312	-4.3896	-4.4354	-5.0563	-4.1813	-4.8	-4.7604	223.935	263.540	322.017	474.615	438.538	482.201	175.134	172.044	420.512	401.978	175.512	508.674	215.499	289.307	485.311	464.385	0.00022933	0.00017393	0.00012679	1096.3	2.8728e-06	8.9225e-07	1201.2	231.41	5.4714e-06	4.2138e-06	291.62	82.731	64.371	18.751	4.0353e-06	25.913	0.00025988	0.00026239	7.3308e-05	1053.3	2.8733e-06	2.8631e-06	1155.7	226.36	2.8739e-06	2.8328e-06	284.12	81.244	63.635	19.041	2.8667e-06	26.175	262.518	490.639	265.779	180.182	352.174	409.722	180.129	188.068	306.852	307.256	187.397	193.966	194.406	201.691	237.051	200.891	-8191	255	
3278.541	1	1	0	0	0.1611	0.10143	0.014795	0.15229	0.22386	0.24156	0.13452	0.045627	0.098972	0.14734	0.26588	0.32915	0.26652	0.2173	0.2103	0.18731	-3.8688	-4.9313	-4.4187	-4.6292	-4.9396	-4.1917	-4.8396	-4.8958	-4.0583	-4.8313	-4.5458	-4.2479	-5.025	-4.3042	-4.6042	-4.9187	303.160	260.995	412.237	182.764	276.098	180.018	174.199	499.515	222.512	219.156	502.965	478.400	504.747	439.427	301.166	482.620	0.00023019	0.00020043	0.00012356	1102.8	4.8486e-06	4.5193e-06	1196.6	231.89	2.0294e-06	3.1735e-06	294.96	82.829	63.747	18.569	6.0101e-06	26.193	0.00025971	0.00025946	7.2417e-05	1053.5	2.8415e-06	2.8558e-06	1153.8	226.33	2.8522e-06	2.8367e-06	284.77	81.412	63.387	19.009	2.855e-06	26.264	246.307	490.448	248.147	179.948	264.170	308.235	180.199	187.559	286.963	399.527	187.092	193.922	193.799	201.677	415.533	201.033	-8191	255	
3278.662	1	1	0	0	0.13623	0.057925	0.11214	0.25527	0.054395	0.029611	0.078716	0.08652	0.13788	0.1162	0.17906	0.076329	0.23707	0.13768	0.017629	0.28335	-3.6646	-4.9208	-4.5042	-4.5104	-4.9417	-4.1042	-4.6208	-4.9208	-4.0125	-4.8958	-4.5687	-4.2625	-5.0146	-4.3562	-4.4062	-4.8792	313.662	502.180	182.714	177.541	389.966	458.623	208.157	433.290	325.680	274.480	455.289	341.556	476.987	424.974	477.620	507.691	0.00020713	0.00014515	9.6799e-05	1102	2.8481e-06	7.9143e-07	1199	232.13	6.1382e-06	4.0545e-06	295.01	82.499	64.215	18.614	3.9607e-06	26.121	0.00026349	0.00025962	7.2371e-05	1052.9	2.83e-06	2.8511e-06	1155	226.29	2.8619e-06	2.8539e-06	284.69	81.182	63.674	19.027	2.8708e-06	26.345	230.363	273.312	323.402	179.873	347.005	468.714	180.150	187.338	300.531	321.634	187.225	194.027	194.247	201.239	365.070	201.211	-8191	255	
3278.758	1	1	0	0	0.070977	0.026552	0.15948	0.13712	0.085722	0.14593	0.13266	0.17811	0.17978	0.19452	0.057273	0.19057	0.07277	0.063488	0.2008	0.046936	-3.6646	-5.0104	-4.625	-4.25	-4.95	-4.2875	-4.525	-5.1	-4.2417	-4.7	-4.7063	-4.1604	-5.0125	-4.3938	-4.2646	-4.9667	256.704	487.082	401.580	469.425	255.895	228.876	451.673	414.904	449.843	237.523	347.857	312.124	258.705	371.028	429.853	182.544	0.00023732	0.00026434	6.9471e-05	1100.6	1.823e-06	3.7517e-06	1193.3	231.06	3.765e-06	4.8392e-06	294.17	82.281	64.296	18.686	7.9875e-06	26.072	0.00026247	0.0002634	7.3807e-05	1054.4	2.9256e-06	2.9081e-06	1154	226.48	2.9193e-06	2.8886e-06	285.04	81.308	64.029	19.05	2.9139e-06	26.394	251.919	319.802	218.587	179.915	372.252	239.966	180.590	187.604	300.273	214.450	187.156	194.143	194.800	202.168	320.951	201.162	-8191	255	
3278.854	1	1	0	0	0.22355	0.077671	0.025589	0.099425	0.093126	0.19344	0.11035	0.1617	0.095231	0.15724	0.15989	0.30794	0.33123	0.1287	0.21456	0.12011	-3.6479	-4.5125	-4.6917	-4.0771	-4.9875	-4.4271	-4.3958	-5.1479	-4.1146	-4.8146	-4.9062	-4.1875	-5.0042	-4.5042	-4.1604	-5.0188	426.323	424.336	265.340	185.008	460.420	500.749	182.021	185.846	506.132	414.995	484.522	506.383	462.738	481.603	485.018	341.284	0.00014252	0.0003061	0.00020217	1093.7	3.0313e-06	5.7703e-06	1202	231.91	2.9387e-06	5.8055e-06	294.91	82.477	64.084	18.784	4.5122e-06	26.279	0.00026848	0.00026554	7.4304e-05	1053.4	2.9281e-06	2.9559e-06	1157	227.12	2.9359e-06	2.8802e-06	285.52	81.492	63.827	19.079	2.9111e-06	26.437	267.926	391.726	224.848	180.279	257.350	217.456	180.306	187.624	463.461	331.562	187.406	194.379	194.011	201.877	332.447	201.287	-8191	255	
3278.950	1	1	0	0	0.20212	0.15429	0.16849	0.15103	0.071299	0.042848	0.26618	0.15969	0.18425	0.18699	0.1023	0.044552	0.045792	0.2848	0.14474	0.19718	-3.9583	-4.3729	-4.7771	-4.2208	-4.7375	-4.4313	-4.3333	-5.0167	-4.1708	-4.6125	-4.8583	-4.0542	-4.9229	-4.7083	-4.1604	-5.1271	184.156	369.686	460.813	377.194	437.238	497.951	501.587	527.999	383.705	301.992	403.958	506.512	294.570	182.769	274.087	180.452	0.00030283	6.8124e-05	6.5406e-05	1104.3	3.3286e-06	2.1564e-06	1202.3	231.93	2.508e-06	4.0842e-06	293.33	82.667	64.15	18.655	1.9965e-06	26.24	0.0002696	0.00026729	7.4585e-05	1056.8	2.9317e-06	2.9253e-06	1159	227.24	2.9175e-06	2.8935e-06	284.99	81.408	63.959	19.068	2.8809e-06	26.365	247.436	417.545	279.976	179.946	309.163	331.410	180.530	187.775	238.448	387.395	187.348	193.817	194.524	201.704	524.608	200.776	-8191	255	
3279.069	1	1	0	0	0.10463	0.13732	0.13322	0.065901	0.16527	0.22939	0.121	0.10418	0.16525	0.14692	0.23424	0.21903	0.10527	0.10367	0.070294	0.31963	-4.1146	-4.4938	-5	-4.1562	-4.7333	-4.7937	-4.2792	-5.2792	-4.2396	-4.1979	-5.0188	-4.0771	-4.7208	-4.8667	-4.1479	-4.9812	290.794	525.811	303.418	427.405	339.754	413.169	520.410	524.375	477.164	411.919	228.288	191.718	223.877	370.059	246.720	476.908	0.0001848	0.00043196	0.00013428	1102.3	1.4176e-06	2.6711e-06	1203.6	232.98	3.8072e-06	3.9027e-06	295.67	83.155	64.218	18.696	1.8067e-06	26.063	0.00026408	0.0002614	7.3339e-05	1055.8	2.8667e-06	2.8194e-06	1159.1	226.92	2.8612e-06	2.841e-06	285	81.49	63.776	19.064	2.8588e-06	26.231	256.105	519.080	203.909	180.126	314.384	274.765	180.198	187.894	230.732	260.650	187.432	193.904	194.305	201.905	510.117	201.015	-8191	255	
3279.143	1	1	0	0	0.15528	0.14763	0.078032	0.086391	0.044671	0.19567	0.38176	0.11089	0.24154	0.14114	0.074389	0.20325	0.33368	0.15164	0.17663	0.094135	-4.1333	-4.3104	-4.8604	-4.3292	-4.5542	-4.8417	-4.2312	-4.9625	-4.5708	-4.1937	-5.15	-4.2354	-4.5813	-4.9271	-4.0667	-4.8583	425.934	383.333	402.423	508.992	290.551	378.089	458.770	454.411	356.657	343.249	374.156	488.109	492.138	327.154	415.156	434.403	0.00020809	0.00063669	0.00011756	1098.6	9.5605e-07	7.748e-06	1198	232.54	5.58e-06	5.2616e-06	292.74	82.242	64.319	18.763	4.7663e-06	26.202	0.00025892	0.00026131	7.204e-05	1053.7	2.8593e-06	2.8426e-06	1156.6	226.66	2.8299e-06	2.8591e-06	284.49	81.225	63.557	19.046	2.8111e-06	26.252	269.579	267.434	220.689	179.992	261.431	236.525	180.256	187.737	312.746	357.564	187.966	193.929	194.430	201.313	176.239	200.968	-8191	255	
3279.261	1	1	0	0	0.21027	0.26409	0.29751	0.056364	0.18904	0.20162	0.15171	0.11474	0.30281	0.36427	0.11286	0.13846	0.095449	0.37284	0.08585	0.35294	-4.2937	-4.1417	-5.0062	-4.2625	-4.5583	-5.05	-4.1771	-4.7688	-4.6188	-4.1083	-5.1104	-4.3354	-4.3479	-4.9521	-3.9479	-4.7229	439.289	462.690	428.009	247.786	388.156	353.546	394.671	352.046	315.834	199.462	457.516	410.564	489.588	502.551	196.875	452.909	0.00025385	0.00022016	0.00013602	1100.8	4.3735e-06	3.3592e-06	1196.9	232.92	2.7453e-06	1.603e-06	294.87	82.948	64.69	18.73	4.4106e-07	26.097	0.00025815	0.00025823	7.1574e-05	1054.9	2.8226e-06	2.7949e-06	1156.5	226.76	2.8295e-06	2.8146e-06	284.63	81.387	63.714	18.975	2.8305e-06	26.251	271.577	313.856	498.057	180.289	258.138	178.842	180.153	187.573	392.587	525.194	187.592	194.388	193.821	201.070	297.309	201.171	-8191	255	
3279.358	1	1	0	0	0.19524	0.094783	0.14952	0.20268	0.20618	0.21965	0.051206	0.22612	0.2067	0.30025	0.1953	0.1241	0.1885	0.15395	0.093322	0.1147	-4.5479	-4.0417	-4.925	-4.5604	-4.3146	-5.0667	-4.2354	-4.7646	-4.8667	-4.1771	-4.9396	-4.4292	-4.2271	-5.0583	-4.2229	-4.5771	332.299	486.030	236.121	178.049	338.214	329.344	232.772	184.165	525.699	195.155	321.907	350.949	478.709	485.742	457.501	195.744	0.00020076	0.00049066	0.00011872	1101.7	7.2088e-06	3.5468e-06	1204.6	233.71	5.4165e-06	5.2934e-06	294.6	82.685	64.284	18.707	1.6599e-06	26.174	0.00026235	0.00026128	7.229e-05	1054.7	2.8523e-06	2.8497e-06	1157.3	226.85	2.851e-06	2.8404e-06	285.07	81.551	63.797	19.051	2.8602e-06	26.332	269.442	207.982	236.969	180.288	253.263	300.566	180.158	187.419	397.783	409.713	187.712	193.907	194.279	201.609	320.210	200.729	-8191	255	
3279.454	1	1	0	0	0.20407	0.087375	0.028525	0.29573	0.25765	0.17154	0.10844	0.16627	0.13831	0.19148	0.27254	0.14954	0.31878	0.32672	0.21678	0.36215	-4.5354	-4.0979	-4.8354	-4.5	-4.0958	-4.975	-4.4	-4.5021	-5.0021	-4.0854	-4.9563	-4.6813	-4.2417	-5.0917	-4.3833	-4.6104	211.132	220.784	389.180	473.727	480.433	345.074	506.479	433.724	348.391	511.299	487.087	409.403	206.849	204.978	517.962	495.652	0.00028702	0.00033225	8.5951e-05	1102.8	2.907e-06	3.8112e-06	1200.9	233.65	2.0095e-06	4.0638e-06	294.49	81.992	64.216	18.645	1.7824e-06	26.169	0.00026286	0.0002634	7.2903e-05	1054.8	2.8488e-06	2.8498e-06	1156.6	226.4	2.8387e-06	2.8459e-06	284.23	81.085	63.874	18.975	2.8389e-06	26.256	244.744	310.357	247.489	180.138	299.366	236.080	180.437	187.294	386.026	268.967	187.182	194.493	194.267	201.637	365.209	201.400	-8191	255	
3279.550	1	1	0	0	0.22735	0.17937	0.092883	0.2231	0.20154	0.16842	0.26942	0.21418	0.19634	0.17505	0.09593	0.080915	0.32034	0.16944	0.21733	0.058639	-4.6687	-4.0771	-4.7229	-4.7167	-4.0271	-5.0542	-4.5271	-4.3854	-4.9833	-4.0771	-4.8313	-4.725	-4.0271	-4.9521	-4.425	-4.225	428.904	384.769	193.764	488.794	219.313	200.663	443.661	396.983	434.780	229.905	171.699	302.978	391.040	474.500	184.105	215.908	0.00028303	0.00047291	7.161e-05	1100.5	1.495e-06	3.6276e-06	1199.1	232.16	6.4946e-06	3.5521e-06	296.48	82.541	63.46	18.788	3.0282e-06	26.198	0.00025881	0.00025838	7.1656e-05	1054.1	2.8453e-06	2.8275e-06	1156.7	226.2	2.8033e-06	2.858e-06	284.92	81.28	63.403	19.015	2.84e-06	26.252	249.416	200.999	395.010	180.106	191.158	523.790	180.357	187.655	256.169	360.252	187.369	194.135	194.432	201.273	499.532	201.343	-8191	255	
3279.671	1	1	0	0	0.12339	0.15096	0.13304	0.17147	0.29066	0.09287	0.10709	0.20398	0.16685	0.25718	0.10937	0.083197	0.16204	0.086559	0.095318	0.10748	-4.7562	-4.2271	-4.6458	-5.0146	-4.1021	-4.9958	-4.7125	-4.4896	-5.1333	-4.1188	-4.6958	-4.8542	-3.85	-4.9104	-4.5125	-4.4042	247.060	394.328	332.565	195.283	311.470	518.362	452.610	523.688	303.344	355.344	200.686	234.858	452.327	202.344	393.678	426.410	0.00024596	0.00016523	9.5187e-05	1104.2	4.6836e-06	4.8248e-06	1204.3	231.96	8.3429e-06	4.3277e-06	294.12	83.217	64.252	18.683	4.1183e-06	26.099	0.00026369	0.00026418	7.2611e-05	1055.3	2.8457e-06	2.8251e-06	1159.6	227.36	2.8615e-06	2.8652e-06	285.61	81.68	63.733	19.041	2.8794e-06	26.339	277.197	216.137	230.687	180.325	312.155	491.186	180.466	187.424	359.182	359.013	187.246	193.975	194.055	201.717	195.731	201.430	-8191	255	
3279.742	1	1	0	0	0.15026	0.19899	0.35551	0.1224	0.15447	0.13677	0.25971	0.13366	0.10214	0.25282	0.22262	0.17662	0.11318	0.31084	0.075374	0.25592	-4.8417	-4.1188	-4.4792	-5.1396	-4.0917	-4.9354	-4.7729	-4.2146	-5.1146	-4.3187	-4.5104	-4.9042	-4.0312	-4.8021	-4.7417	-4.1667	405.746	273.915	357.520	505.330	172.883	375.563	440.282	408.328	292.238	450.714	501.856	519.154	243.012	175.248	303.908	212.538	0.00037433	0.00074446	3.4005e-05	1107.6	1.6254e-06	3.3014e-06	1200.7	231.74	5.4924e-06	2.925e-06	295	83.17	64.895	18.468	4.2443e-06	25.957	0.00026391	0.00026588	7.4326e-05	1058.7	2.9402e-06	2.8958e-06	1158.4	226.88	2.905e-06	2.8723e-06	285.62	81.675	63.86	19.003	2.8652e-06	26.236	259.611	233.901	458.244	180.399	331.635	223.210	180.477	187.435	283.651	212.601	187.220	194.059	194.749	201.265	252.470	201.453	-8191	255	
3279.838	1	1	0	0	0.14506	0.17023	0.28329	0.26307	0.17924	0.11067	0.18324	0.20249	0.12415	0.082254	0.30732	0.19206	0.085042	0.14448	0.10274	0.12468	-4.7667	-4.2063	-4.3479	-4.9542	-4.0521	-4.8396	-4.9812	-4.1083	-4.9917	-4.2729	-4.2521	-5.0021	-4.2021	-4.6292	-4.9083	-4.1854	323.583	335.047	218.561	225.284	479.821	293.290	495.029	433.932	314.153	460.600	182.790	312.452	354.509	204.476	479.328	349.128	0.00028844	0.00011471	9.7239e-05	1101.2	2.9909e-06	8.7121e-06	1201.5	232.43	3.5017e-06	1.7584e-06	295.11	82.955	64.423	18.621	2.6968e-06	25.897	0.0002634	0.0002601	7.1996e-05	1057.6	2.809e-06	2.7982e-06	1158.6	226.61	2.784e-06	2.7421e-06	284.71	81.231	63.538	18.905	2.7311e-06	26.093	263.867	207.101	270.121	180.143	308.870	309.668	180.315	187.513	388.669	333.128	187.320	193.992	194.198	201.519	326.969	200.753	-8191	255	
3279.959	1	1	0	0	0.018655	0.21144	0.11585	0.075811	0.17584	0.10804	0.12617	0.039264	0.19199	0.084805	0.13538	0.020703	0.27778	0.22815	0.21655	0.18182	-4.6875	-4.6271	-4.2542	-4.975	-4.2208	-4.6813	-5.0312	-4.0271	-4.7958	-4.6167	-4.1708	-5.1458	-4.3604	-4.5437	-4.9688	-4.3063	337.872	489.688	245.520	170.414	253.958	210.863	509.477	398.422	479.037	419.317	487.104	409.850	405.641	203.604	255.228	215.566	0.0002714	0.00028774	3.5735e-05	1105.6	4.5105e-06	5.2677e-06	1201.5	234.9	5.4496e-06	3.3976e-06	293.64	83.133	64.376	18.508	5.6154e-06	26.116	0.00025164	0.00025037	7.0015e-05	1055.1	2.7313e-06	2.7354e-06	1158.2	226.63	2.7392e-06	2.75e-06	283.98	81.21	63.595	18.915	2.7984e-06	26.191	273.264	192.402	418.466	180.285	244.321	295.699	180.271	187.468	302.184	259.961	187.325	194.251	194.211	201.642	327.791	200.626	-8191	255	
3280.053	1	1	0	0	0.054249	0.10851	0.10784	0.045622	0.14934	0.18021	0.03512	0.14894	0.22788	0.24729	0.17399	0.06237	0.12738	0.10522	0.23976	0.11456	-4.5729	-4.7604	-4.125	-5.1479	-4.475	-4.4604	-5.1917	-4.0583	-4.8063	-4.8562	-4.2542	-5.0375	-4.5667	-4.5333	-5.0813	-4.3292	224.253	452.415	308.918	463.499	380.351	291.472	227.569	292.379	237.172	258.419	276.866	232.848	455.969	350.302	367.044	195.424	0.00024315	6.3725e-05	3.9448e-05	1100.1	2.5123e-06	1.8507e-06	1203.2	232.52	8.2738e-07	2.8023e-06	294.5	82.545	63.529	18.692	4.4641e-06	25.978	0.00025669	0.0002576	7.2028e-05	1055.2	2.8368e-06	2.8182e-06	1158.2	226.38	2.8221e-06	2.8161e-06	285.02	81.293	63.424	18.989	2.8049e-06	26.257	277.067	521.503	213.587	180.120	248.192	199.337	180.309	187.568	374.649	347.246	187.392	194.015	194.464	201.762	357.892	201.292	-8191	255	
3280.150	1	1	0	0	0.20353	0.22678	0.060203	0.1537	0.14676	0.14962	0.18186	0.089738	0.19155	0.079001	0.12462	0.099566	0.16253	0.13157	0.20311	0.24181	-4.3646	-4.7792	-4.1583	-5.1354	-4.475	-4.2958	-5.2167	-4.2063	-4.5917	-4.8167	-4.2438	-4.875	-4.6021	-4.225	-5.1479	-4.2417	276.609	320.504	442.584	529.283	454.592	469.461	387.825	327.007	219.507	290.554	258.061	483.377	517.062	190.363	506.549	439.901	0.00028165	0.00017693	0.00017109	1102.9	4.3967e-06	7.9092e-06	1201.6	233.12	5.6977e-06	3.6303e-06	293.41	82.567	63.887	18.647	5.0558e-06	25.877	0.00025531	0.00025633	7.1295e-05	1055.4	2.7532e-06	2.7923e-06	1156.4	226.37	2.7446e-06	2.7408e-06	284.04	81.015	63.458	18.882	2.7787e-06	26.174	278.437	173.586	286.637	180.142	274.984	271.444	180.344	187.590	256.841	251.548	187.321	193.909	194.173	202.006	186.242	201.347	-8191	255	
3280.246	1	1	0	0	0.035455	0.3155	0.09249	0.21155	0.086498	0.055954	0.20917	0.20549	0.19299	0.11474	0.32757	0.038458	0.051177	0.13262	0.049573	0.060801	-4.1708	-4.8271	-4.1292	-4.875	-4.5417	-4.2229	-5.1937	-4.3646	-4.4604	-4.8	-4.0396	-4.8	-4.7438	-4.1604	-5.1312	-4.4792	304.442	506.049	268.262	423.966	437.048	242.504	484.715	442.475	489.077	358.697	511.715	329.381	192.298	232.207	214.628	196.337	0.00027523	0.00019954	0.00014895	1103.2	1.6102e-06	2.7046e-06	1203.9	231.7	8.8729e-06	4.6815e-06	293.55	83.319	64.22	18.63	1.9954e-06	26.104	0.00025555	0.00025542	7.0524e-05	1054.7	2.7743e-06	2.77e-06	1158.7	226.17	2.7903e-06	2.7368e-06	283.6	81.354	63.554	18.939	2.7847e-06	26.14	251.283	402.996	467.720	180.452	415.940	343.266	180.101	187.413	303.522	332.563	187.418	194.150	194.489	201.666	390.717	200.856	-8191	255	
3280.342	1	1	0	0	0.16735	0.1564	0.089296	0.17289	0.092139	0.093347	0.047463	0.15352	0.048488	0.18483	0.13876	0.099089	0.11381	0.25502	0.13695	0.24794	-4.1396	-5.0125	-3.9958	-4.8292	-4.7646	-4.1458	-5.2729	-4.6062	-4.425	-5.0292	-4.2333	-4.6875	-4.7646	-4.1438	-5.0979	-4.3313	524.919	267.568	440.743	375.083	174.541	311.241	508.140	200.534	435.600	453.497	440.742	172.163	275.190	215.543	312.677	512.924	0.00021493	0.00038859	0.00024443	1106.7	1.4125e-06	7.4848e-07	1202.1	232.54	2.4526e-06	1.5692e-06	294.57	83.068	64.122	18.531	3.0228e-06	25.995	0.00025554	0.00025203	7.1438e-05	1058.5	2.8138e-06	2.8148e-06	1158.9	226.53	2.8242e-06	2.8358e-06	284.95	81.412	63.604	18.966	2.8059e-06	26.214	259.788	329.840	224.788	180.100	313.262	189.801	180.414	187.631	286.167	252.992	187.582	193.895	194.295	201.191	212.902	200.859	-8191	255	
3280.438	1	1	0	0	0.12517	0.061911	0.082906	0.097484	0.074617	0.15097	0.18974	0.25907	0.32937	0.24827	0.19464	0.05414	0.28367	0.16466	0.032644	0.071113	-4.0958	-5.0208	-4.1	-4.7646	-4.8688	-4.2	-5.1687	-4.5583	-4.0563	-4.9187	-4.2375	-4.4792	-4.8854	-4.0917	-4.8562	-4.6479	446.171	378.344	483.850	224.396	257.644	490.058	454.562	464.765	223.423	273.853	441.886	366.082	223.437	490.800	181.180	186.881	0.00029352	0.00021859	8.0042e-05	1100.9	4.6291e-06	4.5737e-06	1204.7	232.83	2.0722e-06	3.6955e-06	295.87	82.425	64.889	18.626	6.0304e-06	26.203	0.00025751	0.00025768	7.2532e-05	1055.2	2.8569e-06	2.8494e-06	1161.2	227.08	2.9037e-06	2.8884e-06	285.48	81.6	64.067	19.109	2.9315e-06	26.478	244.533	330.157	187.822	180.056	217.228	464.840	180.105	187.747	249.240	311.307	187.441	193.859	194.467	201.502	299.328	201.077	-8191	255	
3280.534	1	1	0	0	0.22656	0.21955	0.068098	0.25379	0.040634	0.28692	0.16518	0.1819	0.13382	0.052891	0.24197	0.084458	0.090752	0.16094	0.42195	0.12096	-3.8458	-4.9333	-4.225	-4.4896	-4.8146	-4.1167	-5.05	-4.7688	-4.1042	-5.0521	-4.2917	-4.3438	-5.0604	-4.0604	-4.875	-4.7521	264.522	517.412	366.778	452.462	312.771	203.762	427.292	526.693	227.636	462.270	171.989	381.141	435.721	181.353	355.823	245.473	0.00030842	0.0002287	5.3346e-05	1108.2	4.2895e-06	4.914e-06	1209.1	233.88	2.9158e-06	4.7277e-06	294.03	83.543	64.689	18.728	3.6377e-06	26.085	0.00027486	0.00027408	7.6785e-05	1062.9	3.0297e-06	3.046e-06	1166.6	228.81	3.0722e-06	3.0515e-06	286.6	82.331	64.629	19.218	2.9859e-06	26.474	278.884	327.197	265.982	180.155	340.823	303.318	180.121	187.474	276.270	323.079	187.416	194.077	194.338	201.661	357.433	201.278	-8191	255	
3280.630	1	1	0	0	0.23834	0.11364	0.10265	0.16995	0.13065	0.097915	0.17463	0.17233	0.15907	0.054547	0.11857	0.20976	0.15151	0.28228	0.1217	0.091708	-3.8792	-5.1771	-4.4146	-4.3208	-5.1042	-4.4333	-4.9062	-4.8958	-4.2417	-4.9104	-4.7312	-4.2667	-5.1583	-4.2396	-4.5583	-4.9938	463.802	350.469	463.099	255.138	214.842	246.299	414.546	175.116	446.517	433.335	474.824	378.375	428.081	211.707	239.623	230.860	0.00016755	0.00016908	0.00010291	1104.1	2.3977e-06	2.8099e-06	1210.5	232.44	3.3866e-06	4.7655e-06	297.61	83.441	64.33	18.76	9.6651e-07	26.172	0.00027476	0.00027732	7.6778e-05	1062.6	3.009e-06	2.9942e-06	1167.1	228.02	2.996e-06	2.9418e-06	287.58	82.193	64.314	19.209	2.9767e-06	26.524	240.931	321.666	491.649	180.371	369.250	284.151	180.150	187.771	298.024	370.617	187.393	193.802	194.325	201.637	265.577	201.377	-8191	255	
3280.749	1	1	0	0	0.13894	0.04028	0.15043	0.15286	0.1546	0.1179	0.046901	0.085791	0.02027	0.16314	0.083026	0.10681	0.13882	0.15202	0.17251	0.17948	-3.8667	-4.8417	-4.5146	-4.0875	-4.9688	-4.3354	-4.6833	-5.0271	-3.9833	-4.9812	-4.7875	-4.275	-5.1625	-4.4	-4.4062	-4.9187	210.960	318.142	325.066	224.429	490.330	221.851	314.445	465.533	174.863	294.403	186.938	484.434	420.812	404.815	200.123	354.515	0.00019715	0.00028725	3.3672e-05	1109.9	4.6426e-06	1.8027e-06	1210.1	234.24	7.9108e-06	2.903e-06	296.38	83.301	64.819	18.664	2.4227e-06	26.3	0.00027139	0.00027384	7.6977e-05	1065.1	2.9971e-06	2.9876e-06	1167.4	228.54	2.9614e-06	2.9655e-06	287.29	82.129	64.346	19.19	2.9617e-06	26.487	254.524	215.178	234.275	179.859	307.282	170.421	180.140	187.749	325.730	322.304	187.397	194.392	194.420	201.472	395.582	201.228	-8191	255	
3280.845	1	1	0	0	0.11422	0.061656	0.11381	0.2558	0.047962	0.2649	0.063304	0.014336	0.22395	0.054934	0.11545	0.20242	0.18919	0.23466	0.17917	0.30279	-3.7438	-4.6937	-4.7312	-4.2937	-4.8521	-4.2812	-4.4958	-5.2688	-4.1646	-4.775	-4.8313	-4.1958	-4.975	-4.4187	-4.2521	-5.175	284.456	338.132	349.081	496.892	439.943	527.013	441.413	516.321	519.483	281.642	528.136	199.208	446.857	292.503	188.040	374.827	0.00032169	0.00026034	6.8468e-05	1104.1	4.4953e-06	3.1234e-06	1213.9	232.8	1.2484e-06	6.0187e-06	296.51	82.776	64.164	18.709	2.234e-06	26.407	0.00027098	0.00027118	7.5699e-05	1063.8	2.9825e-06	2.9649e-06	1169	228.37	3.0251e-06	3.0163e-06	287.7	82.169	64.463	19.237	3.0346e-06	26.65	242.318	235.963	277.741	179.944	359.885	255.643	180.249	187.333	274.234	340.924	187.217	193.738	194.853	201.476	512.947	201.187	-8191	255	
3280.941	1	1	0	0	0.25796	0.23557	0.16815	0.12993	0.16782	0.13928	0.15519	0.16119	0.1175	0.12963	0.14566	0.098578	0.16662	0.1796	0.26063	0.14705	-3.8563	-4.4896	-4.8458	-4.2458	-5.0625	-4.3958	-4.3688	-5.1875	-4.2292	-4.5437	-4.9208	-4.1854	-4.7937	-4.6021	-4.0979	-4.9771	301.040	480.277	454.433	515.489	293.628	438.774	402.152	494.971	452.629	403.292	458.858	257.065	344.518	461.145	176.749	248.855	0.00028878	0.00046383	0.00013374	1113.4	4.1926e-06	9.04e-06	1211.2	235.79	5.6013e-06	4.7789e-06	299.01	83.091	64.482	18.772	8.0064e-07	26.361	0.00027825	0.00027622	7.7601e-05	1067	3.0313e-06	3.0236e-06	1171.5	229.58	3.0089e-06	2.9857e-06	288.11	81.999	64.323	19.183	2.8743e-06	26.443	261.616	269.716	237.247	180.311	295.667	233.506	180.126	187.765	274.502	362.556	187.124	194.216	194.247	201.606	313.638	200.528	-8191	255	
3281.038	1	1	0	0	0.088317	0.32104	0.13867	0.3615	0.04767	0.18754	0.25118	0.20579	0.035275	0.074867	0.29651	0.12772	0.26066	0.12898	0.10287	0.12054	-3.8729	-4.5417	-4.9917	-4.2063	-4.9125	-4.7562	-4.4125	-5.2063	-4.3104	-4.3042	-5.0458	-4.1312	-4.8896	-4.7667	-4.1604	-5.0938	183.567	244.855	389.188	423.672	394.896	411.814	179.355	444.834	179.690	324.481	528.707	187.818	486.527	489.026	474.207	527.396	0.00035544	0.00031444	1.2646e-05	1115.7	3.8092e-06	3.0733e-06	1207.6	234.51	4.2431e-06	5.2149e-07	294.55	83.476	64.461	18.826	2.8379e-06	26.246	0.00026352	0.00026399	7.3622e-05	1065.3	2.8952e-06	2.9091e-06	1167.1	228.54	2.9359e-06	2.9572e-06	286.88	82.143	64.299	19.219	2.99e-06	26.523	270.364	490.561	439.254	179.951	516.181	179.739	180.045	187.620	305.067	252.362	187.658	194.176	194.531	202.051	394.108	200.996	-8191	255	
3281.134	1	1	0	0	0.041203	0.092074	0.14775	0.23656	0.051293	0.12079	0.47245	0.21187	0.26174	0.20315	0.3152	0.12785	0.070873	0.22158	0.10055	0.050604	-4.0687	-4.3333	-5.0146	-4.2396	-4.6396	-4.8729	-4.425	-5.2458	-4.5563	-4.4125	-5.0687	-4.1229	-4.6604	-5.0229	-4.1438	-5.0292	288.574	486.475	465.689	219.126	371.225	219.132	472.214	527.057	323.742	182.287	510.934	315.258	375.262	297.554	511.443	442.677	0.00018399	0.0002116	8.2895e-05	1112.9	1.6057e-06	6.0302e-06	1215.2	234.56	4.5459e-06	3.1205e-06	295.9	82.725	64.844	18.836	5.5014e-06	26.069	0.00027323	0.00027425	7.7007e-05	1066.2	2.9623e-06	2.9541e-06	1169.4	228.05	2.9262e-06	2.9172e-06	287.1	82.037	64.252	19.209	2.9492e-06	26.449	255.016	248.387	417.272	180.182	284.431	280.659	180.160	187.567	410.346	374.084	187.717	194.178	194.304	201.069	336.008	200.794	-8191	255	
3281.230	1	1	0	0	0.1062	0.21146	0.086998	0.29936	0.053372	0.054158	0.28676	0.12625	0.22909	0.027342	0.1095	0.14495	0.10189	0.17772	0.023042	0.039663	-4.1771	-4.3229	-5.0146	-4.2937	-4.5	-4.8667	-4.225	-5.0146	-4.7188	-4.1625	-5.2333	-4.4396	-4.4917	-5.0521	-4.1	-4.9667	170.130	466.766	228.909	196.545	390.183	183.574	455.476	225.690	510.569	238.187	240.247	357.738	397.635	186.210	350.952	469.607	0.0001821	4.4125e-05	6.2621e-05	1111	2.9462e-06	5.4193e-07	1208.8	234.41	4.3446e-06	4.6041e-06	297.33	83.138	64.624	18.726	3.3719e-06	26.297	0.00026837	0.00026937	7.4974e-05	1064.6	2.9804e-06	2.941e-06	1168.2	228.75	2.9662e-06	2.9601e-06	287.38	82.156	64.31	19.166	2.954e-06	26.541	275.864	343.829	179.132	180.001	349.500	279.475	180.329	187.739	395.273	360.047	187.204	194.020	194.555	201.780	397.128	201.184	-8191	255	
3281.351	1	1	0	0	0.22745	0.12223	0.18603	0.092289	0.13571	0.076041	0.24119	0.16768	0.098497	0.13101	0.24292	0.09964	0.061969	0.091119	0.069135	0.18645	-4.3292	-4.1562	-5.2042	-4.3958	-4.4125	-5.0271	-4.3771	-4.7396	-4.6417	-4.2333	-5.0458	-4.4833	-4.5333	-5.1396	-4.1583	-4.6292	277.517	493.505	184.897	486.484	400.798	275.769	412.836	199.230	493.153	407.074	522.627	295.855	395.759	177.393	290.491	396.217	0.00028732	0.00041577	0.00016423	1116.1	5.3284e-06	3.8933e-06	1211.1	235.1	5.8511e-06	3.1658e-06	297.88	83.124	64.898	18.815	6.7833e-06	26.103	0.00027188	0.00027057	7.5027e-05	1066.6	2.9424e-06	2.9513e-06	1168.6	228.77	2.9634e-06	2.9552e-06	287.94	81.904	64.296	19.161	2.9469e-06	26.465	275.607	235.236	333.136	179.993	328.136	344.521	180.529	187.676	302.143	284.954	187.317	194.359	194.422	201.853	237.082	200.833	-8191	255	
3281.445	1	1	0	0	0.098922	0.13496	0.12964	0.11465	0.15541	0.077356	0.34146	0.17457	0.14446	0.1675	0.048986	0.11913	0.22957	0.29631	0.23292	0.10363	-4.4208	-4.1417	-4.8458	-4.5583	-4.2937	-5.1	-4.2896	-4.8083	-4.7646	-4.0437	-4.8729	-4.4812	-4.175	-5.0146	-4.1646	-4.5021	207.400	287.905	269.747	462.176	303.235	375.415	490.941	459.452	279.196	526.303	470.589	215.348	269.249	432.115	437.066	484.904	0.00021058	0.00016873	0.00014474	1109.4	1.5558e-06	3.5118e-07	1208.8	234.65	1.8104e-06	2.2714e-06	294.54	83.165	64.812	18.686	7.6193e-06	26.249	0.00026949	0.00027065	7.4586e-05	1064.3	2.9638e-06	2.9465e-06	1166.2	228.56	2.9371e-06	2.9228e-06	286.76	81.797	64.054	19.086	2.8796e-06	26.452	261.508	496.212	247.934	180.319	284.198	477.334	180.359	187.536	393.814	261.273	187.509	193.820	194.578	202.078	475.103	201.212	-8191	255	
3281.541	1	1	0	0	0.16427	0.037772	0.097577	0.15	0.18851	0.15577	0.27284	0.14137	0.15821	0.10204	0.10927	0.081869	0.12522	0.054613	0.14443	0.11738	-4.7521	-4.0729	-4.8875	-4.7146	-4.1813	-5.0458	-4.4354	-4.6042	-5.0062	-4.1188	-5.0062	-4.7479	-4.1021	-5.1208	-4.3354	-4.2312	384.338	236.506	182.662	373.618	227.312	497.645	470.042	480.452	170.721	406.668	435.568	501.437	219.264	225.012	411.363	240.413	0.00029329	0.00034605	0.00011421	1118.2	2.3768e-06	2.2322e-06	1209	235.82	5.4185e-06	5.2759e-06	296.91	82.521	63.908	18.754	3.4369e-06	26.311	0.00026468	0.00026546	7.376e-05	1064.4	2.9083e-06	2.8685e-06	1165.6	228.81	2.8893e-06	2.88e-06	286.25	81.544	63.894	19.082	2.8002e-06	26.293	267.003	275.193	263.376	180.052	324.491	243.341	180.393	187.523	241.986	353.239	187.115	194.151	194.291	201.655	204.181	201.273	-8191	255	
3281.615	1	1	0	0	0.077525	0.3334	0.10072	0.24662	0.16577	0.049539	0.18271	0.17506	0.25678	0.19989	0.10843	0.275	0.26417	0.19402	0.20946	0.31326	-4.8021	-4.075	-4.7583	-4.9271	-4.2542	-5.0687	-4.6229	-4.4458	-4.9625	-4.1062	-4.6312	-5.0167	-4.0958	-4.8104	-4.3792	-4.3417	204.558	386.958	380.709	514.612	257.003	197.534	473.004	493.359	488.729	312.048	516.893	447.890	181.757	211.234	464.628	518.646	0.0002954	9.1085e-05	6.8289e-05	1110.1	5.9908e-06	2.651e-06	1204.5	234.42	8.048e-06	6.2938e-06	294.77	82.532	64.302	18.602	6.0155e-06	25.846	0.00025997	0.00025867	7.1781e-05	1061.1	2.8275e-06	2.8337e-06	1162	227.4	2.8356e-06	2.8278e-06	285.58	81.463	63.771	18.952	2.7903e-06	26.191	251.622	511.225	505.136	180.193	522.412	273.035	180.410	187.595	297.005	268.477	187.276	194.394	195.001	201.955	244.838	201.330	-8191	255	
3281.733	1	1	0	0	0.062449	0.22444	0.052225	0.080908	0.2943	0.095145	0.35002	0.24499	0.11285	0.11059	0.065688	0.19914	0.11143	0.29625	0.042012	0.20958	-4.6	-4.0875	-4.6833	-4.8104	-4.075	-4.9667	-4.7521	-4.0958	-4.9833	-4.2083	-4.6438	-4.9021	-4.2146	-4.8604	-4.5542	-4.2125	404.423	213.672	378.156	314.395	235.866	251.120	518.515	463.599	243.563	426.212	507.767	499.020	481.974	182.268	291.047	528.398	0.00020541	0.0002964	0.0001278	1098.4	3.6959e-06	3.5117e-06	1206.6	233.63	1.6603e-06	2.6986e-06	294.87	82.927	64.245	18.553	4.12e-06	26.082	0.00025674	0.00025291	7.0339e-05	1055.9	2.788e-06	2.7871e-06	1159.2	226.97	2.7764e-06	2.7738e-06	285.19	81.37	63.581	18.982	2.8112e-06	26.282	253.098	432.959	351.180	180.175	290.988	308.290	180.245	187.520	319.183	343.888	187.191	194.572	194.544	201.920	333.257	201.241	-8191	255	
3281.830	1	1	0	0	0.11897	0.15475	0.11015	0.2376	0.19572	0.14263	0.18691	0.16026	0.10143	0.3254	0.16031	0.18552	0.014766	0.29732	0.19261	0.24353	-4.8083	-4.1813	-4.3604	-4.9021	-3.9396	-4.6646	-4.7583	-4.175	-5.0146	-4.2521	-4.5167	-5.1146	-3.9667	-4.7417	-4.775	-4.1604	242.629	176.983	179.186	464.738	300.895	334.301	188.776	502.877	192.377	460.328	350.176	169.613	484.106	230.931	261.369	482.749	0.0003352	0.00045105	9.1508e-05	1108.2	2.3395e-06	8.5831e-06	1203.9	233.29	4.0153e-06	3.2188e-06	295.55	82.778	64.561	18.77	2.7949e-06	25.811	0.00025743	0.00025794	7.2452e-05	1059.7	2.8381e-06	2.8449e-06	1161.6	227.4	2.8433e-06	2.8513e-06	285.57	81.555	64.101	19.056	2.8653e-06	26.292	277.752	243.533	458.461	180.334	323.472	440.539	180.258	187.264	241.724	243.750	187.461	194.089	194.812	201.706	421.109	201.173	-8191	255	
3281.926	1	1	0	0	0.2083	0.059935	0.14497	0.17417	0.15202	0.22183	0.38881	0.14038	0.14497	0.083694	0.1057	0.10424	0.20674	0.18122	0.23735	0.057196	-4.7125	-4.2333	-4.3604	-5.1167	-4.0917	-4.6542	-4.9104	-4.1813	-5.025	-4.3125	-4.3083	-5.0083	-4.1021	-4.5979	-4.85	-4.0521	393.028	198.086	358.974	207.441	366.771	215.931	477.149	392.204	379.672	290.869	244.895	212.832	173.723	236.928	302.413	189.472	0.00031305	0.00062043	6.2309e-05	1108.1	3.4582e-06	4.2674e-06	1212.5	233.54	1.3583e-06	5.2115e-06	297.04	83.166	64.399	18.794	2.6824e-06	26.192	0.00026362	0.00026584	7.3793e-05	1062.1	2.907e-06	2.9344e-06	1167.6	228.15	2.901e-06	2.8923e-06	286.57	81.847	63.979	19.084	2.8746e-06	26.387	257.238	295.710	519.938	180.114	487.645	248.013	180.255	187.590	266.193	310.727	187.055	194.410	194.589	201.279	211.683	201.585	-8191	255	
3282.022	1	1	0	0	0.13398	0.12071	0.15601	0.09392	0.22431	0.14364	0.18804	0.23044	0.18243	0.044589	0.13294	0.085091	0.12087	0.013766	0.19743	0.14267	-4.5625	-4.5417	-4.2229	-5.0792	-4.2542	-4.5167	-5.0875	-4.1083	-4.8562	-4.5729	-4.2312	-5.0062	-4.275	-4.4542	-4.9313	-4.1458	370.867	476.642	207.556	198.922	453.429	467.387	500.238	432.146	413.541	364.080	205.062	232.632	234.532	305.986	390.932	435.783	0.00035292	0.00035754	0.00013549	1110.1	1.8111e-06	3.2736e-06	1204.1	234.42	8.585e-06	2.8243e-06	294.29	82.793	64.741	18.83	5.9016e-06	26.194	0.00026256	0.00026397	7.3155e-05	1062.3	2.8949e-06	2.8874e-06	1164.6	227.48	2.8588e-06	2.885e-06	285.57	81.56	64.04	19.117	2.9209e-06	26.405	260.747	195.948	230.036	180.313	208.940	443.969	180.490	187.616	318.781	406.681	187.589	194.052	194.440	201.486	348.586	201.401	-8191	255	
3282.142	1	1	0	0	0.12989	0.069026	0.18557	0.28168	0.15324	0.16812	0.26252	0.18711	0.074649	0.21183	0.12399	0.20643	0.21802	0.18427	0.083742	0.029521	-4.4354	-4.8146	-4.0042	-4.9979	-4.4	-4.3625	-5.1396	-4.2417	-4.7625	-4.8625	-4.275	-5.0896	-4.5208	-4.3833	-5.1229	-4.2875	395.997	248.698	459.219	522.758	414.484	174.277	506.993	408.046	371.367	434.373	431.287	429.686	179.480	419.252	456.876	344.993	0.00028527	0.00011256	0.00017697	1112.6	4.8558e-06	3.1773e-06	1209	234.17	3.7225e-06	3.3852e-06	294.55	83.109	64.397	18.564	3.0371e-06	26.053	0.00026913	0.0002686	7.5427e-05	1065.1	2.9635e-06	2.9859e-06	1164.5	228.59	2.9388e-06	2.9738e-06	286.21	81.765	64.021	19.087	2.9246e-06	26.32	290.131	252.969	237.538	180.583	303.966	410.616	180.191	187.789	262.827	480.703	187.412	194.385	194.413	201.974	415.248	201.541	-8191	255	
3282.239	1	1	0	0	0.092833	0.17682	0.17865	0.17713	0.13129	0.065257	0.11456	0.21908	0.25366	0.14312	0.12951	0.10396	0.35989	0.16477	0.098494	0.13048	-4.3063	-4.8083	-4.0292	-5.1	-4.5708	-4.3458	-5.2063	-4.2188	-4.5521	-4.8875	-4.3104	-4.9583	-4.6062	-4.0479	-4.8313	-4.3958	370.400	189.648	391.279	526.896	286.269	491.803	485.579	508.139	257.947	384.313	243.962	205.370	205.422	401.184	329.552	489.297	0.00028967	0.00020499	0.00013787	1111.5	1.2565e-06	1.9772e-06	1204.5	233.57	1.1596e-06	6.3353e-06	296.38	82.908	64.496	18.801	4.0464e-07	26.26	0.00027225	0.00027098	7.6638e-05	1064.8	3.0192e-06	3.0426e-06	1165.6	228.24	3.0639e-06	3.0483e-06	287.45	82.159	64.356	19.208	3.0469e-06	26.48	266.629	285.938	244.012	180.198	386.689	180.836	180.525	187.791	181.214	292.896	187.367	194.364	194.495	201.623	315.418	201.560	-8191	255	
3282.310	1	1	0	0	0.115	0.061562	0.13021	0.018429	0.22855	0.048163	0.22645	0.23166	0.38712	0.068691	0.056528	0.27453	0.18998	0.099661	0.21782	0.12477	-4.2208	-4.9479	-4.1125	-5	-4.625	-4.2292	-5.2542	-4.4125	-4.2146	-4.9938	-4.225	-4.8667	-4.75	-4.125	-4.9292	-4.4771	269.563	224.152	289.373	351.531	307.338	210.896	462.553	425.342	250.926	292.023	392.190	211.407	469.193	215.856	263.324	523.776	0.00024128	0.00045334	0.00010219	1112.3	4.7205e-06	1.096e-06	1210.5	235.08	3.2487e-06	5.1127e-06	294.87	82.769	64.275	18.673	2.1946e-06	26.23	0.00027819	0.00027634	7.7528e-05	1066.2	2.9924e-06	2.9914e-06	1168	228.73	2.9885e-06	2.9472e-06	287.07	81.899	64.033	19.099	2.9406e-06	26.367	272.694	192.422	449.232	180.072	324.418	456.205	180.545	187.634	372.364	352.442	187.542	194.615	194.619	201.812	380.505	201.241	-8191	255	
3282.431	1	1	0	0	0.12349	0.092522	0.054159	0.18521	0.12197	0.077491	0.14328	0.15623	0.24606	0.055752	0.12706	0.20927	0.10738	0.21577	0.19123	0.2693	-3.9583	-5.1229	-4.1521	-4.675	-4.7292	-4.1417	-5.2271	-4.5583	-4.2083	-5.0771	-4.2812	-4.6229	-4.8167	-4.0188	-4.9812	-4.6354	473.851	478.126	214.196	219.520	391.775	389.058	489.915	203.773	303.814	201.100	498.683	362.182	415.665	332.217	273.494	469.864	0.00029866	0.00021543	7.575e-05	1107.6	1.0115e-05	2.911e-06	1206.8	233.71	7.1676e-06	2.9551e-06	296.13	83.642	64.329	18.661	1.454e-06	26.222	0.00026766	0.00026987	7.4077e-05	1063.2	2.8942e-06	2.9274e-06	1164.2	228.12	2.9074e-06	2.9177e-06	285.95	81.798	64.147	19.062	2.9369e-06	26.425	260.407	251.531	242.370	180.343	279.350	271.749	180.523	187.598	348.333	296.406	187.560	194.259	194.394	201.839	239.791	201.410	-8191	255	
3282.525	1	1	0	0	0.20539	0.094404	0.066166	0.13304	0.026554	0.13499	0.15508	0.071192	0.19372	0.11588	0.14491	0.086117	0.10882	0.15352	0.15662	0.18276	-3.8479	-5.1896	-4.1312	-4.6146	-4.7333	-4.1917	-5.2542	-4.6375	-4.0021	-4.8979	-4.2812	-4.5479	-5.0208	-4.1104	-4.8958	-4.7833	477.607	236.272	223.499	403.280	472.209	208.570	486.094	333.728	314.030	342.673	226.387	244.276	528.982	500.503	234.494	417.588	0.00031701	4.3397e-05	1.7032e-05	1111.3	2.8909e-06	1.7077e-06	1207.3	233.01	7.3065e-06	5.1431e-07	294.41	83.484	64.42	18.545	7.7368e-06	25.826	0.00026826	0.00027114	7.5924e-05	1064.3	2.9408e-06	2.9958e-06	1166.9	228.4	3.003e-06	2.9669e-06	286.19	82.148	64.263	19.134	2.9949e-06	26.393	261.700	314.573	248.009	180.289	246.527	274.466	180.237	187.750	307.645	360.341	187.512	194.345	194.623	201.601	316.277	200.665	-8191	255	
3282.623	1	1	0	0	0.072368	0.14441	0.359	0.17353	0.083484	0.074769	0.065644	0.14877	0.16118	0.0057927	0.1839	0.11048	0.2009	0.25864	0.045973	0.21701	-3.8312	-4.9563	-4.2688	-4.4062	-4.975	-4.1687	-4.7063	-4.7271	-4.0833	-5.1229	-4.4375	-4.4021	-4.95	-4.2583	-4.7125	-4.8812	508.691	181.946	308.290	461.835	225.901	231.128	179.127	219.246	384.876	476.167	398.178	187.808	209.022	473.672	177.679	503.210	0.00017994	0.00025656	0.00012165	1112	2.1744e-06	3.2249e-06	1208.7	234.55	2.3617e-06	6.6838e-06	295.48	82.597	64.352	18.716	1.0146e-05	26.341	0.00027547	0.00027115	7.6047e-05	1066.8	3.0198e-06	2.9845e-06	1166.1	228.59	2.9955e-06	2.9663e-06	286.66	81.88	64.198	19.072	2.9821e-06	26.46	250.243	238.272	222.112	180.396	469.936	325.406	180.419	187.751	246.367	362.736	187.333	194.781	194.505	201.794	358.139	201.043	-8191	255	
3282.742	1	1	0	0	0.1213	0.22378	0.10832	0.11632	0.08834	0.21306	0.26642	0.12038	0.14462	0.11853	0.062145	0.076693	0.15302	0.19278	0.011154	0.048862	-3.8646	-4.8875	-4.4042	-4.4125	-4.9146	-4.2312	-4.8479	-4.9833	-4.1146	-4.875	-4.6979	-4.2604	-5.1208	-4.4083	-4.5333	-4.9792	398.414	418.733	529.435	437.476	307.283	248.500	514.299	447.219	407.719	353.598	396.113	346.917	443.084	362.633	474.792	425.161	0.00022599	0.00060524	3.0606e-05	1109.6	4.1101e-06	9.8431e-07	1214.5	235.03	8.8897e-06	6.6183e-07	295.68	82.919	64.451	18.566	4.7574e-06	26.201	0.00027659	0.00027538	7.6951e-05	1066.5	3.0117e-06	3.0183e-06	1168	229.3	3.0069e-06	3.0328e-06	286.76	82.068	64.221	19.031	2.9781e-06	26.498	274.685	315.183	429.308	180.076	224.864	517.873	180.355	187.972	255.454	439.410	187.837	194.055	193.981	201.732	286.449	201.024	-8191	255	
3282.838	1	1	0	0	0.14975	0.049398	0.3009	0.16108	0.23195	0.098753	0.047721	0.060066	0.26046	0.07965	0.067281	0.19318	0.12747	0.13265	0.061419	0.041002	-3.5687	-4.9833	-4.6687	-4.2729	-5.0083	-4.3229	-4.625	-5	-4.1625	-4.8354	-4.7333	-4.1479	-5.2417	-4.2896	-4.475	-4.9187	472.174	467.316	423.994	444.394	386.781	436.660	423.413	199.589	367.092	298.723	462.667	475.111	479.261	305.573	416.546	238.484	0.00022621	0.00032256	6.2454e-05	1111.4	1.9557e-06	2.0963e-06	1212.4	234.26	6.4655e-06	6.6103e-06	293.88	83.453	64.53	18.524	3.6248e-06	26.083	0.00027577	0.00027419	7.6972e-05	1066.7	2.995e-06	3.0091e-06	1169.5	228.7	2.9954e-06	3.0356e-06	287.35	82.149	64.296	19.09	3.0214e-06	26.407	251.505	326.409	360.291	180.289	292.399	283.803	180.517	187.739	274.525	290.158	187.752	194.243	194.812	201.542	487.383	201.593	-8191	255	
3282.910	1	1	0	0	0.076394	0.089365	0.1088	0.11778	0.059259	0.099191	0.1796	0.1483	0.28874	0.11859	0.29894	0.025653	0.15666	0.12279	0.18718	0.034523	-3.8333	-4.8313	-4.8042	-4.2583	-5.0563	-4.3708	-4.5667	-5.1625	-4.0375	-4.6458	-5.05	-4.0854	-4.9479	-4.4146	-4.2333	-5.1604	234.908	480.144	413.159	474.084	197.443	409.410	519.639	412.404	496.832	514.175	363.278	371.400	233.260	447.888	221.653	249.143	0.00016277	0.00019961	6.7439e-05	1108.2	3.8228e-06	4.1522e-06	1213.6	234.21	6.9166e-06	2.1922e-06	296.16	83.172	64.241	18.655	2.822e-06	26.081	0.00027709	0.00027763	7.7418e-05	1065.5	3.0448e-06	3.0153e-06	1171.4	229.16	3.0207e-06	3.0304e-06	287.05	82.211	64.243	19.095	3.0349e-06	26.55	295.526	445.258	237.164	180.150	283.453	299.431	180.212	187.657	249.957	252.098	187.415	194.049	194.411	201.932	293.242	201.169	-8191	255	
3283.031	1	1	0	0	0.20166	0.089386	0.23298	0.13373	0.11134	0.10273	0.039507	0.054801	0.21878	0.18305	0.12943	0.085777	0.10253	0.068725	0.12748	0.27719	-3.9521	-4.6958	-4.8792	-4.2438	-4.8958	-4.5854	-4.35	-5.1917	-4.2375	-4.6333	-4.975	-4.1562	-4.7604	-4.7917	-4.0854	-5.1146	357.950	519.493	520.716	432.252	419.092	393.464	374.412	204.091	298.484	192.712	357.239	519.527	518.074	454.236	230.072	469.575	0.000262	0.00034534	9.4646e-05	1113.6	2.4511e-06	2.8819e-06	1211.9	236.15	7.1882e-06	3.267e-06	296.08	83.024	64.538	18.647	4.4466e-07	26.245	0.00028148	0.0002816	7.9465e-05	1070.3	3.1093e-06	3.1277e-06	1172.7	230.3	3.1109e-06	3.1225e-06	288.52	82.465	64.63	19.177	3.0611e-06	26.607	257.391	285.787	448.005	180.173	230.613	294.148	180.453	187.649	342.279	458.036	187.604	194.422	194.621	201.838	187.588	201.298	-8191	255	
3283.127	1	1	0	0	0.18941	0.07267	0.23216	0.23994	0.096204	0.1046	0.22901	0.13877	0.21653	0.11038	0.20766	0.1528	0.19831	0.19871	0.22622	0.16211	-4.0375	-4.4417	-4.8167	-4.175	-4.8771	-4.6479	-4.3667	-5.0917	-4.3083	-4.3521	-5.2167	-4.1333	-4.8125	-4.9	-4.0354	-4.9812	301.984	452.496	220.431	467.981	297.659	183.692	478.633	400.670	485.815	512.729	201.607	346.127	247.412	514.124	345.050	173.953	0.00019755	0.0005606	0.00012515	1114.2	1.2342e-06	4.6405e-06	1213.8	234.16	4.2771e-06	9.9039e-07	295.76	82.903	65.284	18.667	5.3489e-06	26.404	0.00028028	0.00028127	7.8521e-05	1069.8	3.091e-06	3.0719e-06	1170.4	229.66	3.0908e-06	3.0665e-06	288.4	82.07	64.786	19.206	3.1016e-06	26.531	270.749	242.813	409.357	180.020	342.773	217.719	180.395	187.678	305.325	258.962	187.647	194.009	194.399	201.886	279.429	200.978	-8191	255	
3283.223	1	1	0	0	0.15119	0.28248	0.29512	0.078252	0.086972	0.14905	0.16564	0.14304	0.075349	0.051274	0.063531	0.091449	0.025561	0.24036	0.018274	0.14053	-4.1312	-4.2812	-5.0396	-4.2458	-4.7479	-4.7854	-4.1687	-5.1813	-4.45	-4.3292	-5.0125	-4.1729	-4.8146	-4.9292	-3.8792	-4.9354	193.592	268.293	516.215	508.376	284.347	319.914	504.224	356.292	225.226	365.490	448.446	468.243	171.374	513.237	290.813	377.716	0.0002627	0.00030884	0.00017868	1115	3.7295e-06	4.8719e-06	1213.2	234.01	1.1395e-06	5.5441e-06	296.81	83.514	64.196	18.63	5.9807e-06	26.166	0.00028231	0.00028353	7.8375e-05	1071.5	3.1074e-06	3.0708e-06	1170.9	229.11	3.0654e-06	3.0318e-06	288.58	82.329	64.33	19.072	3.0112e-06	26.473	262.423	376.589	269.102	180.259	467.217	314.873	180.207	187.525	508.086	333.317	187.630	193.966	194.192	202.140	355.859	201.192	-8191	255	
3283.319	1	1	0	0	0.071102	0.076183	0.024327	0.083549	0.29567	0.090214	0.28136	0.12811	0.11719	0.11165	0.19487	0.087584	0.18739	0.16929	0.27373	0.20529	-4.1917	-4.2458	-5.0104	-4.4208	-4.3896	-5.0312	-4.3313	-4.9896	-4.6458	-4.1479	-5.0979	-4.5542	-4.5167	-4.7958	-4.0333	-4.7167	329.224	313.762	491.835	175.135	280.068	294.695	209.738	198.199	231.484	520.024	208.496	412.868	475.417	516.154	459.704	287.389	0.00023909	0.00050551	0.00014084	1116.5	2.5194e-06	6.302e-06	1207	233.75	1.4327e-06	6.4721e-06	294.92	82.923	65.171	18.691	3.1715e-06	26.306	0.00027499	0.00027352	7.6182e-05	1069.8	2.9963e-06	2.9467e-06	1169.2	228.44	2.9626e-06	2.9545e-06	286.35	82.056	64.347	19.017	2.9453e-06	26.415	271.668	184.180	253.339	180.456	343.898	336.498	180.454	187.487	300.635	325.190	187.712	194.068	194.442	202.243	224.156	201.357	-8191	255	
#DATA ENDS
