BOXY.EXE: ISS Imagent and Oximeter Data Acquisition Program Version 0.80
Ascii Record File

#ACQ INFORMATION
2  Detector Channels 
16  External MUX Channels 
1  Auxiliary Channels 
5000  Waveform (CCF) Frequency (Hz)
1  Waveforms Skipped 
30  Waveforms Averaged 
1  Cycles Averaged 
16  Acquisitions per Waveform 
10.0806  Updata Rate (Hz) 

#FILE INFORMATION
TRUE -- External MUX Channel results are PARSED.
FALSE -- AC DC and Phase are NOT grouped.
TRUE -- Companion Program Settings File CREATED.
FALSE -- AC data not excluded
FALSE -- DC data not excluded
FALSE -- Phase data not excluded
FALSE -- Auxillary Chn. data not excluded
Tab delimiters

#CALIBRATION STATE
TRUE -- Waveform Calibration Values APPLIED.


#AUX CALIBRATION VALUES
Val Type	aux-1	

Term	1.0000e+00	
Factor	0.0000e+00	


#WF CALIBRATION VALUES
A = Detector Channel
Val Type	A-AC1	A-AC2	A-AC3	A-AC4	A-AC5	A-AC6	A-AC7	A-AC8	A-AC9	A-AC10	A-AC11	A-AC12	A-AC13	A-AC14	A-AC15	A-AC16	A-DC1	A-DC2	A-DC3	A-DC4	A-DC5	A-DC6	A-DC7	A-DC8	A-DC9	A-DC10	A-DC11	A-DC12	A-DC13	A-DC14	A-DC15	A-DC16	A-Ph1	A-Ph2	A-Ph3	A-Ph4	A-Ph5	A-Ph6	A-Ph7	A-Ph8	A-Ph9	A-Ph10	A-Ph11	A-Ph12	A-Ph13	A-Ph14	A-Ph15	A-Ph16	

Term	0.00000e+00	0.00000e+00	0.00000e+00	0.00000e+00	0.00000e+00	0.00000e+00	0.00000e+00	0.00000e+00	0.00000e+00	0.00000e+00	0.00000e+00	0.00000e+00	0.00000e+00	0.00000e+00	0.00000e+00	0.00000e+00	0.00000e+00	0.00000e+00	0.00000e+00	0.00000e+00	0.00000e+00	0.00000e+00	0.00000e+00	0.00000e+00	0.00000e+00	0.00000e+00	0.00000e+00	0.00000e+00	0.00000e+00	0.00000e+00	0.00000e+00	0.00000e+00	0.00000e+00	0.00000e+00	0.00000e+00	0.00000e+00	0.00000e+00	0.00000e+00	0.00000e+00	0.00000e+00	0.00000e+00	0.00000e+00	0.00000e+00	0.00000e+00	0.00000e+00	0.00000e+00	0.00000e+00	0.00000e+00	
Factor	1.00000e+00	1.00000e+00	1.00000e+00	1.00000e+00	1.00000e+00	1.00000e+00	1.00000e+00	1.00000e+00	1.00000e+00	1.00000e+00	1.00000e+00	1.00000e+00	1.00000e+00	1.00000e+00	1.00000e+00	1.00000e+00	1.00000e+00	1.00000e+00	1.00000e+00	1.00000e+00	1.00000e+00	1.00000e+00	1.00000e+00	1.00000e+00	1.00000e+00	1.00000e+00	1.00000e+00	1.00000e+00	1.00000e+00	1.00000e+00	1.00000e+00	1.00000e+00	X	X	X	X	X	X	X	X	X	X	X	X	X	X	X	X	

B = Detector Channel
Val Type	B-AC1	B-AC2	B-AC3	B-AC4	B-AC5	B-AC6	B-AC7	B-AC8	B-AC9	B-AC10	B-AC11	B-AC12	B-AC13	B-AC14	B-AC15	B-AC16	B-DC1	B-DC2	B-DC3	B-DC4	B-DC5	B-DC6	B-DC7	B-DC8	B-DC9	B-DC10	B-DC11	B-DC12	B-DC13	B-DC14	B-DC15	B-DC16	B-Ph1	B-Ph2	B-Ph3	B-Ph4	B-Ph5	B-Ph6	B-Ph7	B-Ph8	B-Ph9	B-Ph10	B-Ph11	B-Ph12	B-Ph13	B-Ph14	B-Ph15	B-Ph16	

Term	0.00000e+00	0.00000e+00	0.00000e+00	0.00000e+00	0.00000e+00	0.00000e+00	0.00000e+00	0.00000e+00	0.00000e+00	0.00000e+00	0.00000e+00	0.00000e+00	0.00000e+00	0.00000e+00	0.00000e+00	0.00000e+00	0.00000e+00	0.00000e+00	0.00000e+00	0.00000e+00	0.00000e+00	0.00000e+00	0.00000e+00	0.00000e+00	0.00000e+00	0.00000e+00	0.00000e+00	0.00000e+00	0.00000e+00	0.00000e+00	0.00000e+00	0.00000e+00	-6.52519e+01	-1.12272e+02	-1.40546e+02	-1.81760e+02	-6.76519e+01	-1.21665e+02	-1.56710e+02	-1.62015e+02	-7.69798e+01	-7.43317e+01	-1.71259e+02	-1.70793e+02	-1.83439e+02	-1.78028e+02	-8.90177e+01	-1.50152e+02	
Factor	1.93908e-05	8.47056e-05	2.70298e-05	2.28357e-01	9.52142e-07	1.06308e-06	1.77083e-01	6.50480e-02	1.16910e-06	1.01617e-06	9.54342e-02	3.47082e-02	3.35300e-02	1.00324e-02	1.07200e-06	1.43386e-02	6.12713e-07	6.25095e-07	1.73856e-07	1.09696e-01	6.82513e-09	6.83262e-09	8.13591e-02	3.12826e-02	6.82206e-09	6.81802e-09	4.37548e-02	1.58284e-02	1.56341e-02	4.75119e-03	6.80086e-09	6.48096e-03	X	X	X	X	X	X	X	X	X	X	X	X	X	X	X	X	



#DISTANCE SETTINGS
A = Detector Channel
A-1	A-2	A-3	A-4	A-5	A-6	A-7	A-8	A-9	A-10	A-11	A-12	A-13	A-14	A-15	A-16	

2.5000e+00	3.0000e+00	2.5000e+00	3.0000e+00	2.0000e+00	3.0000e+00	1.5000e+00	3.0000e+00	3.0000e+00	3.0000e+00	3.0000e+00	3.0000e+00	3.0000e+00	3.0000e+00	1.5000e+00	3.0000e+00	

B = Detector Channel
B-1	B-2	B-3	B-4	B-5	B-6	B-7	B-8	B-9	B-10	B-11	B-12	B-13	B-14	B-15	B-16	

1.0000e+01	1.0000e+01	1.0000e+01	1.4400e+00	1.0000e+01	1.0000e+01	1.5100e+00	1.9400e+00	1.0000e+01	1.0000e+01	1.9900e+00	2.4900e+00	2.4100e+00	2.9000e+00	1.0000e+01	2.9800e+00	




#DATA BEGINS
time	group	step	mark	flag	A-AC1	A-AC2	A-AC3	A-AC4	A-AC5	A-AC6	A-AC7	A-AC8	A-AC9	A-AC10	A-AC11	A-AC12	A-AC13	A-AC14	A-AC15	A-AC16	A-DC1	A-DC2	A-DC3	A-DC4	A-DC5	A-DC6	A-DC7	A-DC8	A-DC9	A-DC10	A-DC11	A-DC12	A-DC13	A-DC14	A-DC15	A-DC16	A-Ph1	A-Ph2	A-Ph3	A-Ph4	A-Ph5	A-Ph6	A-Ph7	A-Ph8	A-Ph9	A-Ph10	A-Ph11	A-Ph12	A-Ph13	A-Ph14	A-Ph15	A-Ph16	B-AC1	B-AC2	B-AC3	B-AC4	B-AC5	B-AC6	B-AC7	B-AC8	B-AC9	B-AC10	B-AC11	B-AC12	B-AC13	B-AC14	B-AC15	B-AC16	B-DC1	B-DC2	B-DC3	B-DC4	B-DC5	B-DC6	B-DC7	B-DC8	B-DC9	B-DC10	B-DC11	B-DC12	B-DC13	B-DC14	B-DC15	B-DC16	B-Ph1	B-Ph2	B-Ph3	B-Ph4	B-Ph5	B-Ph6	B-Ph7	B-Ph8	B-Ph9	B-Ph10	B-Ph11	B-Ph12	B-Ph13	B-Ph14	B-Ph15	B-Ph16	aux-1	digaux	

4949.938	1	1	0	256	0.12988	0.19396	0.11884	0.20239	0.3166	0.084431	0.035317	0.29038	0.19308	0.077486	0.20202	0.1469	0.095154	0.06812	0.19907	0.11882	-4.0375	-4.7667	-3.9021	-4.7625	-4.5563	-4.1	-4.8792	-4.0062	-4.1167	-4.6229	-3.8604	-4.5604	-4.5062	-3.95	-4.725	-4.2479	132.608	143.654	72.100	-26.007	90.110	212.307	67.309	35.695	210.375	49.762	301.373	-28.296	-35.315	181.701	236.043	281.079	0.00020004	0.00062009	4.4123e-05	498.09	9.0334e-06	2.0469e-06	752.93	148.01	5.3144e-06	5.6174e-06	294.2	108.32	46.754	16.739	2.7433e-06	41.924	0.00037998	0.00038385	0.00010716	516.76	4.1906e-06	4.2075e-06	750.64	154.73	4.1512e-06	4.1552e-06	290.33	106.75	50.626	17.809	4.0019e-06	41.123	190.582	43.518	-18.446	-30.133	115.056	6.198	-29.839	-25.481	24.106	116.392	-25.629	-21.229	-20.289	-18.107	206.714	-18.520	-8191	255	
4950.034	1	1	0	0	0.2537	0.080615	0.076785	0.33449	0.10234	0.166	0.24629	0.17877	0.14239	0.059839	0.15519	0.13403	0.087469	0.063014	0.0533	0.15254	-3.9167	-4.7667	-3.6333	-4.6146	-4.4458	-3.9417	-4.9812	-4.1917	-3.9625	-4.8583	-3.9042	-4.6417	-4.6604	-3.7792	-4.8021	-4.2042	181.281	17.664	178.653	8.365	18.117	41.907	151.895	305.268	250.632	157.637	298.539	185.884	244.715	-20.036	87.450	-29.554	0.00014168	0.00060376	7.2239e-05	495.47	2.3138e-06	4.7289e-06	756.73	150.79	7.7372e-06	2.3701e-06	298.96	109	47.476	17.063	1.8068e-06	42.824	0.00036548	0.000367	0.00010246	513.32	3.9898e-06	4.0131e-06	753.89	155.96	4.0655e-06	4.0655e-06	294.16	107.67	51.445	18.121	4.0843e-06	41.772	260.032	109.194	95.600	-30.106	133.952	214.815	-30.023	-25.482	8.261	13.391	-25.668	-21.277	-21.183	-17.500	218.861	-18.152	-8191	255	
4950.131	1	1	0	0	0.070394	0.041329	0.17023	0.27315	0.075556	0.10059	0.25188	0.068722	0.1636	0.043441	0.16756	0.15593	0.11034	0.23104	0.22138	0.080931	-3.675	-4.7021	-3.8646	-4.5104	-4.6208	-3.7333	-4.8021	-4.3688	-3.9604	-4.8229	-4.0854	-4.2312	-4.4896	-3.7625	-4.4938	-4.4833	108.589	21.988	108.814	-26.404	161.228	76.453	252.612	246.734	198.600	210.370	-41.734	199.690	148.635	287.545	-32.514	256.792	0.00017002	0.00054848	0.00010009	495.42	2.9679e-06	6.6547e-06	760.8	150.88	3.825e-06	7.0626e-06	299.41	109.72	47.598	17.026	4.8971e-06	43.09	0.00037523	0.0003783	0.00010483	517.88	4.093e-06	4.0735e-06	755.63	156.67	4.0711e-06	4.0276e-06	294.74	108	51.308	18.086	4.0324e-06	41.947	250.218	203.052	79.740	-30.229	174.645	235.722	-29.511	-25.216	54.548	79.764	-25.541	-20.821	-21.069	-17.603	7.438	-18.478	-8191	255	
4950.227	1	1	0	0	0.10549	0.21854	0.12104	0.17765	0.10232	0.16348	0.25903	0.02468	0.15644	0.069426	0.24604	0.041785	0.12677	0.18736	0.15933	0.25442	-3.6958	-4.925	-3.9021	-4.1458	-4.6312	-3.7896	-4.6458	-4.5271	-3.8667	-4.6542	-4.2146	-4.1458	-4.7875	-3.8563	-4.4646	-4.5938	165.208	155.327	47.191	289.680	195.258	96.850	273.997	186.819	117.962	225.655	283.436	299.195	269.571	-41.880	49.650	294.793	0.00010429	0.0005123	0.00014921	499.12	3.0377e-06	4.1535e-06	758.47	149.19	5.8401e-06	2.0794e-06	296.56	107.97	46.748	16.837	2.4841e-06	42.311	0.00036688	0.00036873	0.00010403	516.79	4.0446e-06	4.0294e-06	753.5	155.05	3.9978e-06	3.9934e-06	291.21	106.48	50.502	17.88	4.0009e-06	41.207	265.486	33.831	234.369	-30.197	-12.101	114.506	-30.053	-25.312	77.354	123.198	-25.953	-21.348	-20.421	-17.749	128.782	-18.640	-8191	255	
4950.347	1	1	0	0	0.07749	0.14359	0.13287	0.29199	0.098859	0.23746	0.042508	0.16498	0.15737	0.19163	0.25815	0.1172	0.050907	0.1135	0.21416	0.11209	-3.5375	-4.8021	-4.0104	-4.1542	-4.7396	-3.8208	-4.3646	-4.5813	-3.6833	-4.575	-4.2562	-3.9896	-4.7417	-4.025	-4.3063	-4.6625	58.739	63.377	-25.149	243.369	116.928	-11.726	-33.376	192.131	166.232	63.606	-36.254	245.770	66.172	34.931	20.362	279.182	0.00011199	0.00064511	8.067e-05	488.39	7.212e-06	3.8641e-06	747.08	148.11	4.2251e-06	4.3986e-06	294.51	108.13	46.344	16.789	6.5258e-06	42.562	0.00036582	0.00036498	0.00010275	508.14	3.9608e-06	3.953e-06	742.2	153.64	3.9319e-06	3.8862e-06	289.8	106.32	50.022	17.801	3.8592e-06	41.255	96.510	28.841	76.426	-30.420	210.211	34.588	-29.928	-25.761	7.985	87.022	-25.675	-21.579	-20.877	-17.538	130.722	-18.618	-8191	255	
4950.443	1	1	0	0	0.18344	0.089064	0.27349	0.023214	0.067481	0.22474	0.27773	0.19325	0.076331	0.23453	0.14793	0.18236	0.08235	0.25617	0.17325	0.1432	-3.6521	-4.5917	-4.3833	-3.8917	-4.825	-4.0458	-4.4167	-4.6208	-3.8521	-4.7125	-4.4042	-3.9604	-4.8646	-4.1042	-4.0729	-4.6958	226.084	155.034	180.159	190.192	89.978	153.574	261.516	232.381	212.908	54.043	11.051	250.735	162.068	21.406	268.357	266.777	0.00013951	0.00027267	6.6695e-05	489	2.2376e-06	3.4411e-06	756.08	151.13	5.3049e-06	4.2442e-06	298.37	108.36	46.84	17.186	3.4556e-06	43.442	0.00035022	0.0003497	9.7412e-05	507.18	3.8038e-06	3.8045e-06	748.71	154.8	3.809e-06	3.8111e-06	292.18	106.72	50.382	18.078	3.8368e-06	42.132	276.982	12.284	288.991	-30.498	135.903	19.064	-29.700	-25.793	142.595	81.813	-25.758	-21.157	-21.102	-17.890	38.974	-18.362	-8191	255	
4950.538	1	1	0	0	0.13153	0.28393	0.11595	0.24271	0.21946	0.1339	0.11216	0.17341	0.095474	0.16098	0.011138	0.10101	0.19442	0.10904	0.080297	0.25822	-3.5396	-4.7458	-4.5042	-3.9083	-4.7729	-4.0271	-4.15	-4.6979	-3.7875	-4.4396	-4.5833	-3.8708	-4.7604	-4.225	-3.9813	-4.9604	5.564	-35.318	5.199	278.806	2.453	-11.032	278.113	293.191	50.271	224.901	189.042	-16.740	-37.722	124.040	-16.672	221.407	0.00019828	0.00030006	6.217e-05	498.98	3.5511e-06	3.5902e-06	768.55	153.15	4.1727e-06	3.2358e-06	303.71	110.83	48.13	17.687	4.6888e-06	44.561	0.00035487	0.00035547	9.988e-05	517.65	3.9707e-06	3.9714e-06	758.85	158.05	4.0152e-06	4.0407e-06	298.87	109.26	52.059	18.655	4.0732e-06	43.331	207.244	28.091	287.456	-30.213	104.038	180.986	-29.788	-25.637	122.202	7.907	-25.710	-21.075	-21.340	-17.886	238.596	-18.693	-8191	255	
4950.634	1	1	0	0	0.18802	0.11309	0.13521	0.36491	0.11554	0.061758	0.077205	0.23482	0.099874	0.15126	0.22341	0.02167	0.27579	0.061446	0.15962	0.15591	-3.6896	-4.4229	-4.5833	-3.8167	-4.6708	-4.2708	-4.0854	-4.7771	-3.9125	-4.4104	-4.7479	-3.9146	-4.7479	-4.3667	-3.9792	-4.9021	149.156	293.666	193.501	65.673	297.706	207.712	255.077	293.422	165.722	141.684	196.755	-24.686	131.851	60.016	73.739	298.477	0.0002083	0.00022973	2.7519e-05	501.74	3.8633e-06	3.4856e-06	757.26	152.48	2.951e-06	6.1137e-06	301.57	110.18	48	17.428	1.507e-06	43.677	0.00037583	0.00037388	0.00010539	522.67	4.1187e-06	4.1222e-06	754.55	157.97	4.0518e-06	4.0453e-06	294.85	108.5	51.369	18.4	4.021e-06	42.428	191.471	66.762	92.976	-30.165	28.181	104.808	-30.110	-25.306	261.201	55.662	-25.679	-21.251	-20.739	-17.814	154.668	-18.958	-8191	255	
4950.730	1	1	0	0	0.1057	0.052562	0.080228	0.24533	0.082677	0.078545	0.13726	0.023593	0.11287	0.25295	0.084219	0.11226	0.099058	0.078743	0.25546	0.015322	-3.6083	-4.1333	-4.7271	-3.7354	-4.6	-4.5167	-4.0354	-4.7312	-4.1479	-4.275	-4.7771	-3.9292	-4.4271	-4.5042	-3.7812	-4.7625	51.504	-24.793	-5.760	-5.080	-17.245	53.909	307.498	221.124	219.184	-18.116	-43.497	194.829	192.822	151.757	-33.082	211.655	0.00017585	0.00026642	0.00011507	489.73	5.4751e-06	2.1181e-06	751.98	151.49	5.6596e-06	4.605e-06	301.08	109.83	47.724	17.522	3.6366e-06	44.022	0.00036785	0.0003691	0.00010198	512.26	3.992e-06	3.9718e-06	746.04	156.13	3.9662e-06	3.9124e-06	293.93	107.85	51.298	18.425	3.9141e-06	42.62	192.080	90.220	305.268	-30.761	84.298	96.634	-29.980	-25.579	101.637	215.460	-25.953	-21.454	-21.475	-17.805	68.383	-18.308	-8191	255	
4950.826	1	1	0	0	0.16593	0.27177	0.18279	0.27935	0.16458	0.073568	0.23041	0.22962	0.10132	0.06872	0.12384	0.17249	0.26284	0.17324	0.22345	0.11351	-3.7938	-4.1021	-4.6354	-3.9167	-4.4479	-4.5083	-3.8708	-4.8313	-4.1625	-4.1854	-4.9	-4.0396	-4.3833	-4.6542	-3.8771	-4.6271	46.600	156.632	107.793	169.666	17.551	100.047	106.781	275.889	146.078	17.949	-18.093	288.621	-35.158	37.245	10.766	179.358	0.00014456	4.0633e-05	8.9406e-05	497.77	1.4946e-06	2.9037e-06	755.76	152.79	5.3326e-06	4.9595e-06	303.46	111.63	48.793	17.604	2.9654e-06	44.611	0.00035921	0.00036364	0.00010072	516.05	4.0041e-06	4.0379e-06	751.77	158.87	4.1237e-06	4.095e-06	297.8	109.94	52.651	18.746	4.1382e-06	43.228	239.242	9.824	-21.079	-30.135	-42.229	101.078	-29.950	-25.548	14.507	249.666	-25.857	-21.266	-21.175	-18.016	228.961	-18.838	-8191	255	
4950.922	1	1	0	0	0.04131	0.090494	0.037262	0.16341	0.0794	0.025696	0.12843	0.1916	0.16572	0.019714	0.12142	0.032655	0.095084	0.01357	0.044196	0.098659	-3.7896	-4.0062	-4.8542	-3.9292	-4.3875	-4.7604	-4.0563	-4.75	-4.2812	-3.9333	-4.7708	-4.0875	-4.2292	-4.75	-3.7979	-4.6937	121.906	98.189	237.469	254.558	155.949	98.072	214.157	249.474	164.032	14.718	180.626	107.451	243.652	7.436	289.543	237.153	8.7887e-05	0.00055554	0.00023715	502	4.3802e-06	1.3489e-05	757.09	154.46	5.6788e-06	4.5339e-06	304.46	113.29	49.741	17.914	5.8921e-06	44.671	0.00037905	0.00038278	0.00010612	521.36	4.1802e-06	4.1564e-06	755.63	160.6	4.2226e-06	4.2212e-06	300.42	111.6	53.399	19.02	4.24e-06	43.761	149.117	31.845	60.174	-30.810	101.020	10.362	-30.082	-25.404	91.337	147.232	-26.150	-21.553	-21.675	-17.816	110.909	-18.739	-8191	255	
4951.043	1	1	0	0	0.28911	0.20085	0.14421	0.10254	0.22883	0.14516	0.19604	0.11146	0.087599	0.1206	0.11921	0.10303	0.061255	0.19469	0.31345	0.17331	-4.0563	-3.8583	-4.7979	-4.1062	-4.1771	-4.725	-3.9271	-4.5708	-4.6104	-3.7417	-4.7146	-4.0687	-4.1271	-4.8271	-3.9729	-4.5021	-1.056	256.126	38.697	238.303	241.073	250.038	145.076	280.174	87.093	4.285	86.729	203.690	310.301	132.619	31.150	239.874	0.00014298	0.00041203	0.0001538	499.16	2.5473e-06	6.9036e-06	758.96	154.31	1.2624e-06	2.6872e-06	304.54	112.3	48.576	17.523	4.599e-06	43.631	0.00038605	0.00039035	0.00010936	523.55	4.3021e-06	4.2879e-06	754.48	160.05	4.2332e-06	4.2329e-06	298.82	110.75	52.883	18.651	4.2324e-06	42.754	252.162	-8.488	2.384	-30.699	296.335	57.792	-29.979	-25.881	-20.676	54.218	-25.967	-21.423	-21.714	-18.176	-19.217	-18.615	-8191	255	
4951.139	1	1	0	0	0.20443	0.10089	0.034519	0.13561	0.24497	0.068536	0.086953	0.14233	0.27027	0.15896	0.11841	0.18029	0.077182	0.11932	0.15227	0.089125	-4.2292	-3.8937	-4.6833	-4.25	-4.1208	-4.875	-3.9292	-4.2896	-4.6542	-3.7375	-4.7688	-4.3562	-3.9083	-4.9021	-3.9042	-4.375	121.150	-9.333	271.658	207.377	-21.864	-1.657	11.711	286.962	313.046	-5.592	49.460	264.774	203.481	307.919	255.681	202.294	0.00021543	0.00062122	5.1377e-05	492.24	5.0988e-06	9.0918e-06	747.79	152.65	1.5639e-06	5.17e-06	301.94	110.76	48.219	17.49	2.0787e-06	43.976	0.00038289	0.00038829	0.0001064	516.73	4.191e-06	4.187e-06	747.06	158.35	4.2234e-06	4.2195e-06	296.72	109.49	52.481	18.601	4.2459e-06	42.723	204.469	72.095	87.236	-30.821	192.950	49.781	-29.703	-25.613	164.024	87.570	-25.982	-21.402	-21.047	-18.324	251.803	-18.966	-8191	255	
4951.235	1	1	0	0	0.11836	0.1929	0.15687	0.090123	0.12232	0.13697	0.18811	0.15842	0.096166	0.10928	0.20143	0.0047099	0.046539	0.16772	0.18476	0.018077	-4.2771	-3.6396	-4.6479	-4.4313	-3.9062	-4.8708	-4.2229	-4.2854	-4.7562	-3.8667	-4.475	-4.4479	-3.9188	-4.7146	-4.1375	-4.3083	-25.883	250.152	193.599	286.104	261.281	120.712	262.261	199.501	75.611	180.638	261.539	191.151	243.950	256.199	160.695	294.028	6.616e-05	0.00027076	0.00021343	501.96	4.9041e-06	2.3142e-06	756.18	154.18	4.5128e-06	9.128e-06	303.56	110.45	48.537	17.505	7.8185e-06	43.432	0.0003898	0.00039013	0.00010966	524.21	4.3537e-06	4.2986e-06	756.82	160.79	4.3487e-06	4.3412e-06	299.07	109.77	52.984	18.686	4.3984e-06	42.813	188.811	76.171	95.161	-30.338	-0.254	-0.014	-29.982	-25.437	94.534	286.467	-25.457	-21.249	-20.559	-17.910	205.264	-18.786	-8191	255	
4951.307	1	1	0	0	0.0098246	0.19269	0.14073	0.19194	0.11706	0.087865	0.19127	0.18314	0.12657	0.01953	0.1442	0.1114	0.21511	0.2699	0.23973	0.055081	-4.5042	-3.7208	-4.5437	-4.5333	-3.8187	-4.6958	-4.1896	-4.1667	-4.7021	-4	-4.4896	-4.6208	-3.8458	-4.7479	-4.0708	-4.2354	255.788	144.560	303.761	206.989	2.893	45.707	129.438	-34.246	198.179	139.272	-13.817	-14.662	2.392	28.555	282.768	248.244	0.00017798	0.00034887	9.8897e-05	506.61	2.4986e-06	8.0465e-06	770.14	154.54	3.3691e-06	7.4893e-06	303.97	110.97	48.296	17.373	3.9267e-06	43.505	0.00040142	0.00040654	0.00011241	532.64	4.418e-06	4.4136e-06	767.04	161.58	4.4317e-06	4.4132e-06	300.09	110.1	52.804	18.612	4.3336e-06	42.632	225.715	264.294	-13.852	-30.320	182.207	27.854	-29.753	-25.728	49.747	83.481	-26.326	-21.218	-21.543	-17.953	23.260	-18.564	-8191	255	
4951.428	1	1	0	0	0.14438	0.17402	0.091414	0.19973	0.060438	0.048035	0.067455	0.05187	0.18628	0.20485	0.26671	0.30258	0.052537	0.068829	0.048353	0.15414	-4.5542	-3.85	-4.3	-4.5042	-3.8688	-4.5667	-4.2438	-4.0437	-4.8396	-3.9854	-4.4021	-4.7812	-3.7958	-4.6396	-4.4458	-3.9146	33.769	-31.001	29.380	-25.376	209.397	106.311	66.794	-21.005	260.252	301.877	302.484	304.741	-24.427	308.899	-38.581	106.688	0.00011139	0.00028452	0.00013604	504.08	2.3935e-06	7.0165e-06	755.31	152.14	4.9377e-06	4.6923e-06	297.74	109.56	47.219	17.035	4.8118e-06	42.486	0.00039407	0.00039814	0.0001101	526.88	4.333e-06	4.2846e-06	755.82	158.3	4.2422e-06	4.2404e-06	294.03	107.9	51.232	18.108	4.1689e-06	41.423	132.321	-0.554	14.433	-30.703	212.269	18.704	-30.003	-26.093	312.053	187.468	-26.018	-21.263	-20.844	-18.366	108.558	-18.718	-8191	255	
4951.522	1	1	0	0	0.13338	0.15733	0.103	0.091898	0.1875	0.23558	0.10476	0.08564	0.067705	0.089238	0.05812	0.04576	0.1364	0.072011	0.04902	0.29926	-4.5312	-4.1042	-4.3625	-4.5188	-3.8063	-4.5375	-4.5146	-3.9188	-4.85	-4.1438	-4.1937	-4.8167	-3.9521	-4.5062	-4.5229	-3.925	-39.580	181.123	50.561	-22.740	25.720	313.633	-38.215	143.086	217.645	266.116	-37.153	195.590	63.426	176.903	206.740	-28.195	0.00016556	0.00028651	6.3465e-05	497.06	1.6645e-06	6.2185e-06	750.58	149.91	7.2471e-06	7.5411e-06	296.72	109.21	47.223	17.088	4.5136e-06	42.649	0.0003812	0.00038381	0.00010632	518.15	4.1704e-06	4.1766e-06	748.08	156	4.175e-06	4.1762e-06	292.84	107.66	51.345	18.14	4.1926e-06	41.574	202.028	98.890	187.843	-30.715	148.994	62.081	-30.046	-26.099	156.631	204.555	-26.255	-21.230	-21.928	-17.909	44.662	-18.587	-8191	255	
4951.618	1	1	0	0	0.20231	0.14491	0.1308	0.18322	0.058371	0.079242	0.15147	0.088581	0.035614	0.22334	0.16783	0.22309	0.048984	0.061306	0.15307	0.27202	-4.375	-4.0875	-3.9896	-4.875	-3.7917	-4.4208	-4.6271	-3.8854	-4.5625	-4.2792	-4.0167	-4.8583	-4.0646	-4.3708	-4.5667	-4.0437	258.359	118.575	310.925	203.604	311.671	49.912	200.708	169.252	155.454	64.526	-13.631	256.180	-29.181	107.158	84.810	253.418	0.00013677	0.00057033	0.00015426	497.12	6.3426e-06	8.2187e-06	757.19	151.22	5.7204e-06	1.4139e-06	297.9	108.53	47.14	17.021	2.4704e-06	42.745	0.00038195	0.00038539	0.00010828	521.35	4.2375e-06	4.2433e-06	753.06	156.93	4.2105e-06	4.2581e-06	294.76	107.64	51.393	18.115	4.2073e-06	41.719	256.006	29.093	27.986	-30.465	107.419	58.695	-29.839	-26.014	149.754	49.976	-26.090	-21.313	-21.590	-18.378	77.103	-18.829	-8191	255	
4951.714	1	1	0	0	0.087766	0.078545	0.21142	0.037844	0.13714	0.21686	0.19328	0.11617	0.11827	0.091702	0.044907	0.18723	0.20079	0.068048	0.31474	0.12205	-4.3646	-4.275	-4.0875	-4.8583	-3.9792	-4.2125	-4.8208	-3.8792	-4.5687	-4.3896	-4.0417	-4.8958	-3.9771	-4.2375	-4.6562	-3.9854	-33.084	52.383	-16.687	215.838	209.654	268.986	255.400	51.777	243.356	238.572	-30.966	314.378	199.789	146.104	210.823	295.696	0.00011043	0.00038181	0.00012535	500.26	3.806e-06	7.7057e-06	766.26	152.62	5.6987e-06	1.4604e-06	301.3	109.23	47.904	17.216	3.781e-06	42.827	0.0003845	0.00038618	0.00010768	524.02	4.2614e-06	4.2522e-06	761.05	158.98	4.1875e-06	4.2249e-06	296.33	108.44	52.066	18.292	4.215e-06	42.062	267.844	84.872	95.352	-30.517	166.167	108.012	-29.852	-25.884	73.529	-12.903	-26.068	-21.078	-20.755	-18.277	48.851	-18.805	-8191	255	
4951.835	1	1	0	0	0.30835	0.1245	0.12842	0.084241	0.084473	0.063342	0.039893	0.030529	0.036773	0.21812	0.10274	0.26565	0.15049	0.09357	0.096019	0.19268	-4.5	-4.3708	-3.7583	-4.8187	-4.025	-4.1312	-4.8292	-3.9479	-4.3688	-4.6146	-3.8479	-4.925	-4.2479	-4.2063	-4.7854	-3.8896	249.747	92.257	278.871	60.897	16.642	123.111	274.558	209.943	64.184	236.500	269.696	30.453	194.071	81.372	38.418	173.857	0.00014561	0.000185	1.3147e-05	500.71	4.0478e-06	1.7696e-06	758.9	151.87	7.6218e-06	3.1753e-06	297.77	109.27	47.492	16.647	4.6039e-06	42.342	0.00038519	0.00038744	0.00010856	524.86	4.2897e-06	4.2477e-06	754.71	157.74	4.2601e-06	4.271e-06	292.84	107.8	51.643	18.053	4.2722e-06	41.481	214.162	70.139	102.005	-30.640	23.518	152.522	-30.272	-25.743	20.767	112.102	-26.348	-20.983	-21.103	-18.321	207.068	-18.727	-8191	255	
4951.931	1	1	0	0	0.10325	0.050988	0.093689	0.31664	0.050688	0.15101	0.15582	0.309	0.14062	0.015927	0.19704	0.12827	0.30363	0.11495	0.065214	0.1968	-4.1729	-4.6479	-3.9229	-4.7875	-4.2521	-4.0771	-4.8375	-4.0875	-4.2479	-4.4958	-3.9042	-4.7083	-4.3354	-4.0146	-4.7375	-3.9396	300.131	78.366	143.865	-39.759	103.588	252.118	-19.483	226.547	60.783	118.815	-41.193	225.703	67.374	230.610	131.255	17.798	0.0002482	0.00023536	0.00012844	487.06	7.2129e-06	5.4467e-06	742.52	149.88	5.7334e-06	2.3507e-06	298.13	110.06	48.203	17.005	6.0101e-06	43.005	0.000392	0.00039528	0.00011023	516.66	4.3739e-06	4.3609e-06	743.58	157.11	4.4149e-06	4.3935e-06	294.21	108.78	52.478	18.395	4.3888e-06	42.3	219.525	-20.800	-34.654	-30.500	213.286	89.715	-30.020	-25.378	-39.150	157.392	-26.228	-21.544	-20.358	-18.465	15.049	-18.672	-8191	255	
4952.027	1	1	0	0	0.17306	0.1407	0.12837	0.10395	0.064248	0.27401	0.021659	0.063196	0.12568	0.086337	0.24659	0.22121	0.034127	0.12164	0.11146	0.11599	-4.0729	-4.7104	-3.7812	-4.6146	-4.5208	-3.8646	-4.8729	-3.9542	-4.1	-4.7063	-3.8063	-4.375	-4.3792	-3.8125	-4.8125	-4.2354	280.104	208.607	-41.532	102.509	85.179	-42.081	291.694	52.229	-7.185	182.395	224.765	261.347	10.777	-34.962	-11.908	114.691	0.00017499	0.00038659	0.00021323	490.95	1.1372e-06	2.7632e-06	745.89	151.37	7.6488e-06	7.3761e-06	297.24	110.84	48.423	17.107	3.95e-06	43.05	0.00040517	0.00041075	0.00011364	517.61	4.5042e-06	4.5369e-06	746.45	158.56	4.5295e-06	4.4869e-06	296.71	110.19	53.098	18.615	4.509e-06	42.466	199.424	223.067	115.987	-30.218	110.158	-36.660	-29.885	-25.695	282.121	85.312	-25.894	-21.555	-20.507	-17.621	293.247	-18.811	-8191	255	
4952.123	1	1	0	0	0.1292	0.21321	0.038968	0.081949	0.15331	0.057725	0.07137	0.1668	0.10626	0.34391	0.23167	0.20611	0.1084	0.15433	0.12993	0.036528	-3.8208	-4.6937	-3.8479	-4.5729	-4.5646	-3.6896	-4.9146	-4.2417	-4.0188	-4.6958	-3.9083	-4.3771	-4.7333	-3.825	-4.6687	-4.2271	131.018	283.322	142.291	123.239	-40.170	-4.512	251.291	54.761	242.141	86.787	51.101	11.299	-14.803	294.143	130.460	-10.717	0.00016847	0.00035587	0.00014258	495.46	4.8595e-06	7.3507e-06	749.37	152.49	2.9534e-06	6.3724e-06	300.83	111.52	48.454	17.411	3.8409e-06	43.294	0.00041251	0.00042109	0.00011737	523.22	4.6247e-06	4.6474e-06	754.68	160.18	4.7039e-06	4.6546e-06	299.78	110.86	53.724	18.81	4.6312e-06	42.859	210.031	297.581	101.600	-30.561	200.921	-30.701	-30.122	-25.486	115.232	74.599	-26.201	-21.378	-21.255	-17.729	58.224	-18.520	-8191	255	
4952.220	1	1	0	0	0.27947	0.15601	0.22398	0.070003	0.09578	0.066956	0.36988	0.16107	0.13038	0.10923	0.24506	0.052843	0.092521	0.019372	0.085439	0.12099	-3.6083	-4.6146	-3.9333	-4.3167	-4.7208	-3.7646	-4.7104	-4.3271	-4.0563	-4.7646	-4.1271	-4.3417	-4.7708	-3.7542	-4.5687	-4.5417	13.973	34.499	105.690	297.373	216.251	45.473	262.521	293.175	-27.649	86.748	304.395	297.661	184.120	191.002	-23.485	252.874	0.00012329	0.00011416	6.9417e-05	497.2	1.6168e-06	6.9973e-06	744.82	151.38	1.4092e-06	2.8439e-06	294.96	109.54	47.344	17.021	1.8116e-06	42.887	0.00042185	0.00041809	0.00011827	525.95	4.5772e-06	4.6035e-06	748.6	159.2	4.5871e-06	4.5706e-06	294.4	109.3	52.805	18.487	4.5753e-06	42.272	202.607	290.437	112.210	-30.277	123.078	3.768	-29.739	-25.703	275.318	164.291	-26.391	-21.152	-20.968	-18.266	16.316	-18.832	-8191	255	
4952.316	1	1	0	0	0.31794	0.10706	0.076368	0.12727	0.2223	0.19333	0.11549	0.25492	0.022181	0.080963	0.12945	0.21913	0.083712	0.20166	0.1694	0.32155	-3.5438	-4.7271	-4.1542	-4.0917	-4.8667	-3.7521	-4.5875	-4.3625	-3.7854	-4.7542	-4.225	-4.1333	-4.5792	-3.9688	-4.5208	-4.4979	262.332	215.879	294.050	245.430	162.887	19.403	282.288	284.645	270.069	12.819	108.849	11.799	165.208	8.592	21.125	125.604	0.00019221	0.00011909	0.00011068	488.64	2.9968e-06	3.7967e-06	745.95	150.13	3.0683e-06	2.7306e-06	296.23	109.52	47.97	17.142	3.6928e-06	43.062	0.00041851	0.00042481	0.00011938	519.11	4.6231e-06	4.6305e-06	747.96	157.98	4.6161e-06	4.6282e-06	295.09	109.41	52.765	18.595	4.5929e-06	42.579	187.720	143.890	16.899	-30.605	71.701	2.432	-29.701	-25.493	222.021	38.466	-26.197	-21.365	-20.615	-18.049	191.754	-19.188	-8191	255	
4952.435	1	1	0	0	0.10264	0.095176	0.17503	0.043467	0.046762	0.027356	0.21643	0.13251	0.17643	0.057903	0.25486	0.11436	0.036381	0.17362	0.11199	0.26986	-3.4938	-4.6646	-4.2583	-3.975	-4.7333	-3.8583	-4.4896	-4.7104	-3.7562	-4.7188	-4.4313	-4.0021	-4.8562	-3.9833	-4.3146	-4.6583	211.953	117.920	110.283	279.809	45.931	27.177	277.466	247.968	-27.913	34.292	0.403	-42.698	312.271	-38.002	181.827	-12.482	3.7731e-05	0.0001132	0.00017736	492.98	7.1517e-06	2.7261e-06	755.12	151.87	4.0022e-06	2.2558e-06	297.2	110.2	48.359	17.415	3.0647e-06	43.811	0.00042228	0.00042723	0.00012002	524.62	4.6683e-06	4.7164e-06	753.78	159.59	4.7061e-06	4.6845e-06	297.51	110.27	53.545	18.859	4.6968e-06	43.195	142.537	283.826	93.757	-30.477	102.349	18.651	-29.770	-25.675	275.093	171.769	-26.007	-21.827	-20.831	-17.799	142.011	-18.670	-8191	255	
4952.531	1	1	0	0	0.12691	0.092861	0.038132	0.21446	0.072478	0.0052448	0.14824	0.063846	0.22534	0.25796	0.21123	0.065386	0.19006	0.021226	0.12103	0.10876	-3.5354	-4.5708	-4.4062	-4.0792	-4.6979	-3.9771	-4.2917	-4.7833	-4.0771	-4.4729	-4.4958	-3.8542	-4.7875	-3.9854	-4.0417	-4.8729	264.103	299.514	300.604	201.087	130.616	-24.593	256.918	63.651	204.408	71.923	-38.324	79.523	268.080	44.562	145.701	141.360	0.00016052	0.00039761	0.00011977	498.57	5.0444e-06	3.2273e-06	757.94	153.73	4.1746e-06	1.4934e-06	301.12	110.46	48.359	17.673	5.3599e-06	43.533	0.0004285	0.00043285	0.00012068	530.4	4.7789e-06	4.7713e-06	760.21	162.44	4.8367e-06	4.8085e-06	301.58	111.02	53.955	19.114	4.7801e-06	43.245	271.816	65.829	26.925	-30.902	100.122	280.315	-29.944	-25.742	195.246	253.349	-25.967	-21.070	-21.043	-18.146	176.687	-18.483	-8191	255	
4952.602	1	1	0	0	0.09758	0.11074	0.0719	0.32792	0.073693	0.10167	0.034273	0.26556	0.18404	0.12082	0.17785	0.11329	0.064803	0.19441	0.29871	0.12318	-3.5229	-4.4604	-4.5687	-3.8146	-4.5813	-4.1417	-4.0521	-4.7229	-3.9646	-4.4187	-4.55	-3.85	-4.6646	-4.175	-3.9875	-4.9375	-6.270	98.450	268.869	268.968	138.631	132.352	-18.382	40.156	70.711	219.603	235.515	304.433	89.047	135.907	70.042	296.015	8.1207e-05	0.00025014	0.00019762	494.5	4.3504e-06	1.062e-05	747.27	152.73	3.9151e-06	4.336e-06	295.5	109.27	47.782	17.07	2.7103e-06	42.819	0.00043939	0.00043972	0.00012148	528.52	4.7272e-06	4.7508e-06	751.87	160.12	4.5931e-06	4.5657e-06	293.86	108.45	52.248	18.341	4.2656e-06	41.796	271.711	127.235	15.225	-30.730	294.017	2.068	-30.209	-25.805	95.947	90.134	-26.352	-21.329	-21.037	-17.627	138.519	-18.702	-8191	255	
4952.699	1	1	0	0	0.079184	0.12219	0.15893	0.11854	0.047356	0.16118	0.21334	0.20334	0.20718	0.099683	0.099722	0.059806	0.19062	0.11514	0.075226	0.1129	-3.6104	-4.2146	-4.5104	-3.8625	-4.6229	-4.4437	-4	-4.8229	-3.9458	-4.2625	-4.7521	-3.8292	-4.4896	-4.4479	-3.8812	-4.8063	140.500	277.829	96.989	278.173	-40.660	205.873	277.713	-18.110	274.697	250.607	-7.296	95.307	290.903	285.916	-31.383	-30.546	0.00020169	0.00025849	0.0001016	495.54	2.0757e-06	2.973e-06	750.04	151.49	4.1599e-06	5.5907e-06	298.26	109.43	47.822	17.24	2.3145e-06	43.393	0.00038063	0.0003754	0.0001029	514.96	3.991e-06	4.0319e-06	745.11	156.78	3.9802e-06	3.9766e-06	291.73	107.35	51.052	18.15	3.8326e-06	41.943	155.556	278.028	32.731	-30.512	159.582	286.939	-30.335	-26.126	98.677	22.603	-26.012	-21.577	-21.505	-18.098	34.822	-18.685	-8191	255	
4952.819	1	1	0	0	0.16245	0.11933	0.089939	0.067038	0.084657	0.094927	0.20211	0.13465	0.11121	0.19469	0.16489	0.069431	0.12224	0.27248	0.17386	0.18866	-3.8208	-4.1354	-4.5021	-3.8625	-4.4979	-4.4875	-4.0083	-4.7646	-4.1542	-4.1417	-4.8458	-4.0042	-4.575	-4.6292	-3.8979	-4.8542	167.790	-17.272	287.994	153.244	160.033	33.728	197.137	67.776	271.915	314.592	244.099	294.392	128.909	200.442	265.114	248.605	0.00018594	0.00037624	0.00017712	501.19	4.8115e-06	3.7821e-06	755.91	152.09	6.2048e-06	2.5199e-06	297.91	109.08	47.598	17.115	6.5983e-06	43.562	0.00034623	0.00034504	9.4835e-05	512.42	3.6865e-06	3.6933e-06	746.99	156.24	3.7166e-06	3.7108e-06	292.11	107.02	50.54	18.14	3.7406e-06	42.103	230.613	39.927	9.127	-30.688	210.669	177.484	-30.218	-25.339	43.764	106.636	-25.968	-21.520	-20.678	-18.391	177.720	-19.341	-8191	255	
4952.915	1	1	0	0	0.19149	0.051372	0.21462	0.17194	0.20127	0.088029	0.11793	0.34563	0.086022	0.16921	0.21286	0.11414	0.11707	0.10754	0.022167	0.24809	-3.8625	-4.0021	-4.5854	-3.9	-4.2542	-4.6083	-3.8688	-4.8438	-4.2375	-3.9333	-4.8521	-3.9188	-4.3229	-4.6542	-3.7562	-4.6979	292.482	122.226	72.517	308.410	117.950	30.419	261.111	251.305	151.847	273.243	305.240	120.051	15.967	228.718	282.434	4.751	0.00020391	0.0003955	0.00010173	502.85	6.6829e-06	2.6357e-06	758.51	152.79	1.2869e-06	2.3845e-06	301.13	109.36	47.369	17.396	5.3534e-07	43.441	0.00034027	0.00033817	9.4468e-05	517.58	3.7306e-06	3.7343e-06	751.6	157.09	3.768e-06	3.7555e-06	293.47	107.34	50.748	18.244	3.8348e-06	42.199	233.734	102.718	15.727	-30.287	308.642	-11.184	-29.959	-25.732	187.498	128.142	-26.171	-21.317	-21.962	-18.238	191.199	-18.863	-8191	255	
4953.012	1	1	0	0	0.030048	0.084803	0.1017	0.2081	0.21122	0.14111	0.16769	0.21938	0.11897	0.19465	0.14447	0.1077	0.13412	0.11496	0.01423	0.23124	-3.8875	-3.7917	-4.7562	-3.8937	-4.1917	-4.8146	-3.8396	-4.5729	-4.2625	-3.8292	-4.8833	-4.0563	-4.0917	-4.6708	-3.8542	-4.5917	-13.852	-27.911	11.952	225.884	13.362	119.587	-31.200	67.796	300.536	256.245	175.768	132.169	311.424	-20.096	85.514	236.709	0.00019248	0.00014379	0.00015178	498.58	5.519e-06	2.8794e-06	748.29	151.85	6.7459e-06	4.8011e-06	294.39	108.45	46.73	17.063	1.8967e-06	43.008	0.00034862	0.00035102	9.7897e-05	512.65	3.8315e-06	3.8089e-06	742.31	155.41	3.8255e-06	3.7717e-06	288.8	106.23	50.218	17.98	3.8159e-06	41.629	218.545	100.987	315.988	-30.526	133.209	197.851	-29.997	-25.865	283.588	174.700	-26.300	-21.524	-21.524	-18.406	283.352	-19.027	-8191	255	
4953.108	1	1	0	0	0.030847	0.065637	0.12515	0.039026	0.017217	0.10075	0.18264	0.15849	0.035322	0.10843	0.15073	0.038068	0.2195	0.17759	0.14272	0.11094	-4.2063	-3.8438	-4.8354	-3.9854	-4.1354	-4.5604	-3.9604	-4.4146	-4.7667	-3.8937	-4.8042	-4.2104	-4.0208	-4.7292	-3.9125	-4.3521	296.920	296.402	118.568	269.224	243.981	-43.626	57.596	237.903	154.197	239.314	307.531	234.879	36.640	12.106	249.899	295.375	0.00027823	0.00067689	9.6332e-05	491.51	8.4379e-06	4.269e-06	747.22	150.02	6.4737e-06	3.0508e-06	295.84	107.67	46.544	17.061	5.0915e-06	43.177	0.00034976	0.00035383	9.7493e-05	508.45	3.8265e-06	3.8676e-06	739.65	154.81	3.8421e-06	3.8321e-06	289.63	106.04	50.172	17.892	3.8526e-06	41.69	211.879	20.979	2.783	-30.332	125.371	51.876	-29.964	-25.728	163.996	114.551	-26.148	-21.295	-21.057	-17.733	96.971	-19.052	-8191	255	
4953.204	1	1	0	0	0.091976	0.078232	0.10507	0.16023	0.22066	0.1376	0.26731	0.22444	0.28231	0.11236	0.056629	0.17258	0.023277	0.126	0.088242	0.18212	-4.2979	-3.9208	-4.7562	-4.1729	-3.9229	-4.6438	-4.0271	-4.3979	-4.7125	-3.7438	-4.6375	-4.3542	-3.9292	-4.6854	-4.1208	-4.2458	69.215	235.708	235.038	103.471	1.771	179.017	237.317	265.797	19.374	239.965	192.264	12.960	270.916	252.461	122.127	18.447	0.0001197	0.00047599	9.6014e-05	501.25	4.5712e-06	1.0556e-05	759.18	150.63	2.1053e-06	5.1535e-06	296.74	106.91	46.342	16.924	3.6115e-06	42.577	0.00035222	0.00035681	9.9903e-05	518.62	3.9523e-06	3.9469e-06	753.44	156.41	4.0014e-06	4.0155e-06	290.23	105.16	50.209	17.88	3.9522e-06	41.319	188.107	-31.566	313.389	-30.729	183.679	138.813	-29.952	-25.998	279.650	129.340	-25.965	-21.410	-20.850	-17.844	143.038	-18.794	-8191	255	
4953.300	1	1	0	0	0.09214	0.18077	0.15161	0.10798	0.15583	0.18121	0.25881	0.16964	0.07528	0.166	0.27311	0.31017	0.20397	0.042771	0.22125	0.12243	-4.35	-3.8833	-4.6896	-4.4104	-3.7792	-4.7896	-4.1646	-4.0208	-4.7375	-3.7812	-4.6542	-4.4708	-3.9479	-4.8313	-4.1687	-4.2521	126.944	105.734	73.217	5.859	152.391	308.805	241.671	-30.215	136.481	62.068	-3.630	-20.750	134.889	298.339	5.324	57.987	0.00015354	0.00015424	5.717e-05	502.96	7.8048e-06	6.7355e-06	756.9	151.25	6.6545e-06	5.7688e-06	297.16	107.98	46.945	16.883	3.9858e-06	42.978	0.00035516	0.00035759	9.912e-05	518.36	3.8546e-06	3.8448e-06	749.91	156.03	3.824e-06	3.8553e-06	290.81	105.7	49.993	17.82	3.7377e-06	41.312	203.368	-5.641	139.033	-30.454	75.105	128.754	-30.099	-25.232	66.022	176.305	-26.060	-21.363	-21.604	-17.889	212.039	-18.926	-8191	255	
4953.396	1	1	0	0	0.098341	0.11876	0.030009	0.18037	0.29002	0.10207	0.091303	0.1874	0.12279	0.21766	0.18182	0.19999	0.066121	0.019868	0.071229	0.042095	-4.4625	-3.8875	-4.4583	-4.475	-3.8417	-4.7458	-4.1354	-4.0271	-4.7417	-3.9771	-4.4271	-4.5125	-3.9188	-4.825	-4.25	-4.1021	126.065	261.539	165.776	154.567	25.479	-8.580	29.421	56.846	289.688	236.498	292.385	307.566	291.320	-1.968	94.664	213.913	0.0002459	0.00046641	9.5369e-05	489.73	5.6793e-06	7.0449e-06	743.3	147.79	3.8554e-06	4.6398e-06	291.17	107.48	45.883	16.779	5.2745e-06	42.123	0.00033768	0.00034003	9.3675e-05	504.23	3.6109e-06	3.5907e-06	732.79	151.94	3.5529e-06	3.5555e-06	284.47	104.61	48.867	17.514	3.5405e-06	40.583	230.033	47.548	109.985	-30.644	40.659	21.584	-30.154	-25.629	69.574	177.383	-26.404	-21.169	-21.078	-17.700	161.928	-19.121	-8191	255	
4953.515	1	1	0	0	0.030995	0.16038	0.077475	0.20146	0.061844	0.13529	0.022233	0.074109	0.084675	0.084887	0.084365	0.10375	0.2925	0.061238	0.046927	0.12489	-4.4042	-3.9271	-4.1542	-4.7063	-3.975	-4.5938	-4.6521	-3.8542	-4.8396	-3.9875	-4.2604	-4.8375	-3.7833	-4.5979	-4.3667	-4.1	78.391	158.180	57.686	223.462	52.619	98.974	142.160	255.036	14.191	149.684	298.942	218.343	169.205	145.286	111.461	263.476	0.00022997	0.0001808	3.4299e-05	492.72	1.4422e-06	3.5734e-06	745.06	150.69	3.3778e-06	5.1121e-06	295.52	107.09	46.516	16.976	1.227e-06	42.55	0.00032409	0.00032557	9.0594e-05	503.32	3.5903e-06	3.5796e-06	734.99	153.69	3.5952e-06	3.5938e-06	287.4	104.98	49.676	17.728	3.6423e-06	41.032	241.945	144.741	110.721	-30.282	152.622	-35.695	-29.741	-25.739	-19.817	147.638	-26.499	-21.154	-21.512	-18.720	256.192	-19.029	-8191	255	
4953.611	1	1	0	0	0.062365	0.11189	0.28787	0.30043	0.11896	0.099355	0.21893	0.22557	0.11904	0.0392	0.055459	0.057713	0.025537	0.098416	0.25213	0.43229	-4.4146	-4.1375	-4.1958	-4.725	-3.75	-4.4354	-4.6021	-3.8812	-4.7542	-4.1083	-4.0833	-4.7917	-3.7854	-4.4271	-4.4396	-3.9854	-22.937	232.009	214.031	307.523	248.106	237.019	-35.904	247.551	29.352	296.662	-11.401	83.951	235.166	183.830	69.428	-36.079	0.00016802	0.00029417	8.7433e-05	493.91	4.7539e-06	2.4578e-06	749.88	151.15	3.1031e-06	4.6439e-06	296.4	108.98	47.65	17.178	4.6969e-06	43.146	0.00033439	0.00033638	9.3898e-05	508.45	3.719e-06	3.7146e-06	739.41	155.08	3.7256e-06	3.7754e-06	290.64	106.47	50.711	18.045	3.7863e-06	41.859	210.087	156.671	186.304	-30.321	96.206	183.986	-29.828	-25.530	-39.109	233.264	-26.127	-21.084	-21.123	-18.385	79.775	-18.791	-8191	255	
4953.707	1	1	0	0	0.087206	0.15852	0.17305	0.14132	0.10269	0.069781	0.26645	0.091302	0.043174	0.15175	0.16549	0.19257	0.13162	0.044545	0.28325	0.057625	-4.3083	-4.1333	-4.0708	-4.7125	-4.0125	-4.25	-4.6708	-3.9667	-4.6625	-4.25	-3.9646	-4.8917	-3.9271	-4.3125	-4.7167	-3.7875	204.966	16.291	160.097	266.062	92.885	304.047	283.871	251.378	226.689	158.708	183.727	268.447	184.790	55.489	312.486	83.729	0.00014245	0.00040938	5.7517e-05	495.61	6.4373e-06	7.906e-06	752.21	153.12	3.1868e-06	3.5384e-06	298.38	109.73	47.858	17.392	4.4188e-06	43.621	0.00034756	0.00035113	9.7195e-05	512.83	3.8479e-06	3.8449e-06	745.12	157.56	3.8338e-06	3.8835e-06	292.53	108.01	51.412	18.215	3.8232e-06	42.106	195.632	101.228	296.627	-30.628	145.541	40.009	-29.795	-25.870	64.856	-34.581	-26.107	-21.167	-21.680	-18.078	226.712	-18.860	-8191	255	
4953.828	1	1	0	0	0.065936	0.1352	0.24024	0.1619	0.20308	0.15232	0.22768	0.1063	0.097057	0.071621	0.034227	0.18176	0.30063	0.13886	0.10019	0.078012	-4.2167	-4.5062	-3.9437	-4.7812	-4.0625	-4.1729	-4.7708	-3.8208	-4.4396	-4.4563	-3.9229	-4.8083	-4.1583	-4.1896	-4.9042	-3.8708	5.875	-15.289	-27.840	284.543	92.456	135.044	216.521	-30.075	265.095	300.801	260.210	89.204	34.735	42.308	188.297	248.636	0.00017266	0.0001106	0.000129	487.67	6.6585e-06	3.3351e-06	734.01	151.04	2.905e-06	4.5765e-06	297.08	111.88	49.275	17.727	9.5152e-06	44.44	0.00034868	0.00034777	9.6744e-05	503.94	3.6998e-06	3.6704e-06	726.35	154.07	3.552e-06	3.5378e-06	289.72	108.4	51.349	18.282	3.4674e-06	42.616	231.160	249.678	147.086	-30.660	32.619	51.580	-30.118	-25.777	58.330	112.495	-26.146	-21.675	-21.488	-18.127	85.200	-18.727	-8191	255	
4953.900	1	1	0	0	0.13992	0.14901	0.19279	0.16253	0.037508	0.094073	0.031218	0.14734	0.19881	0.14113	0.10186	0.060932	0.224	0.14304	0.023769	0.20142	-3.9979	-4.4375	-4.075	-4.725	-4.0042	-4.0792	-4.8	-3.8396	-4.4187	-4.7479	-3.8292	-4.7	-4.2063	-4	-4.8229	-3.9708	50.635	38.630	113.509	21.164	240.351	241.545	-36.864	296.156	259.453	234.827	287.691	308.919	301.987	39.506	112.599	-27.362	0.00021655	6.5988e-05	0.00013589	483.26	5.7589e-06	1.1747e-06	742.43	153.8	6.3925e-07	1.5609e-06	300.89	112.53	49.442	17.878	6.4677e-06	44.559	0.00032363	0.00032447	9.1229e-05	499.8	3.631e-06	3.6356e-06	731.95	157.07	3.6974e-06	3.7259e-06	294.31	110.03	52.549	18.625	3.8288e-06	43.021	238.943	35.176	17.792	-30.435	113.552	271.104	-30.084	-26.050	77.998	160.392	-26.018	-20.956	-21.150	-18.264	14.461	-19.029	-8191	255	
4953.996	1	1	0	0	0.19058	0.038896	0.25266	0.087004	0.2229	0.22094	0.17021	0.056641	0.12841	0.14455	0.27163	0.10045	0.10474	0.14298	0.23989	0.25379	-3.8271	-4.5229	-3.6396	-4.5958	-4.3292	-3.9208	-4.7854	-3.9875	-4.4	-4.8104	-3.9396	-4.6354	-4.4	-3.8104	-4.7542	-4.1771	246.739	51.245	110.548	170.843	144.010	178.712	252.818	246.333	236.481	242.242	303.151	277.299	-32.438	95.936	-13.212	110.277	0.00017213	0.00051893	0.00010769	492.77	2.2795e-06	6.4442e-06	743.15	153.29	3.6207e-06	6.0943e-06	303.41	112.97	49.616	17.909	9.9193e-07	44.838	0.00035576	0.00035679	9.8895e-05	511.82	3.9254e-06	3.89e-06	738.72	158.35	3.8758e-06	3.8679e-06	296.05	110.71	52.79	18.827	3.8531e-06	43.434	211.784	136.606	80.675	-30.715	293.429	74.707	-30.332	-26.049	-21.958	102.296	-26.156	-21.452	-20.837	-18.564	266.488	-18.521	-8191	255	
4954.116	1	1	0	0	0.052616	0.16014	0.24755	0.13176	0.10725	0.20612	0.18816	0.063393	0.090669	0.14703	0.023928	0.12986	0.059817	0.086204	0.26953	0.1612	-3.95	-4.7292	-3.7104	-4.5479	-4.5479	-3.8417	-4.8833	-3.9938	-4.0854	-4.8208	-3.7479	-4.55	-4.5521	-3.85	-4.6417	-4.3417	54.268	226.901	154.631	287.551	184.600	164.511	288.445	314.518	253.954	94.848	70.991	-22.973	169.771	280.848	3.301	-8.098	0.00020241	0.00019181	9.1837e-05	498.81	5.2752e-06	1.6454e-06	749.33	156.65	4.8073e-06	5.5518e-06	305.41	114.19	50.434	18.094	4.4947e-07	44.719	0.00035081	0.00035188	9.7301e-05	514.25	3.839e-06	3.807e-06	744.15	160.48	3.7883e-06	3.7553e-06	297.3	111.27	53.086	18.754	3.6899e-06	43.094	219.134	80.232	25.265	-30.526	108.877	237.432	-30.164	-26.078	5.677	185.041	-26.307	-21.661	-21.645	-17.722	7.328	-18.897	-8191	255	
4954.213	1	1	0	0	0.14461	0.090488	0.11004	0.32849	0.13197	0.24562	0.22884	0.14277	0.026129	0.011802	0.053947	0.056328	0.085099	0.20938	0.093257	0.19442	-3.6146	-4.7625	-3.9208	-4.4458	-4.5208	-3.8646	-4.6417	-4.3625	-3.8812	-4.7521	-4.0396	-4.325	-4.7125	-3.8583	-4.5437	-4.3458	152.981	177.916	202.883	34.964	65.104	-3.304	230.080	86.082	-26.610	193.551	98.593	277.962	42.700	196.367	302.311	306.225	0.00022373	0.00018435	0.00015546	492.49	5.4747e-06	1.5824e-06	737.43	153.76	3.4265e-06	3.5915e-07	300.46	113.13	49.422	17.794	3.6665e-06	44.189	0.0003349	0.00033346	9.2893e-05	505.91	3.5747e-06	3.5718e-06	731.66	157.22	3.4946e-06	3.4857e-06	293.08	109.8	52.008	18.414	3.4687e-06	42.36	216.310	0.782	96.344	-30.916	116.948	118.117	-29.916	-25.648	74.860	61.390	-26.371	-21.650	-20.942	-18.219	71.355	-18.839	-8191	255	
4954.307	1	1	0	0	0.055688	0.084349	0.22981	0.1178	0.14605	0.12473	0.13758	0.12614	0.31429	0.17479	0.079929	0.10781	0.12908	0.11573	0.23256	0.17759	-3.7125	-4.6396	-3.8417	-4.2042	-4.7937	-3.7396	-4.6188	-4.4521	-3.7958	-4.6854	-4.2333	-4.2479	-4.6708	-3.875	-4.4354	-4.5021	193.620	313.982	315.874	143.949	69.355	134.315	126.244	302.640	111.961	20.695	271.813	275.143	252.742	36.287	122.833	182.862	0.00010727	0.00031307	0.00014144	490.41	2.6526e-06	3.8433e-06	742.21	155.28	6.2332e-06	6.4423e-06	305.21	114.97	50.251	18.047	5.9963e-06	45.111	0.00031766	0.00031743	8.9508e-05	502.04	3.4777e-06	3.4545e-06	731.52	157.32	3.4481e-06	3.4887e-06	294.94	110.76	52.716	18.616	3.4457e-06	43.131	215.891	-31.179	53.439	-30.902	226.966	166.414	-29.740	-25.354	132.631	127.540	-26.229	-21.593	-21.518	-17.888	101.407	-18.803	-8191	255	
4954.403	1	1	0	0	0.14795	0.15574	0.28212	0.25454	0.12507	0.12725	0.094693	0.060345	0.2477	0.040146	0.1681	0.26166	0.15701	0.27567	0.081049	0.11741	-3.5917	-4.6771	-4.0792	-4.0625	-4.8083	-3.9771	-4.3979	-4.5542	-3.8542	-4.6833	-4.3	-4.0604	-4.825	-3.8063	-4.2854	-4.7333	214.401	167.791	48.739	206.844	7.410	118.358	62.328	226.038	75.880	-33.064	144.382	309.366	9.631	-25.581	293.082	232.507	0.00022032	0.0004305	7.2092e-05	491.64	2.9538e-06	5.0117e-06	745.43	156.75	1.14e-06	2.1996e-06	309.26	114.61	50.752	18.001	6.8859e-06	45.375	0.00031576	0.0003171	8.8765e-05	505.27	3.4581e-06	3.4473e-06	736.18	159.18	3.4572e-06	3.4454e-06	298.49	111.01	52.894	18.605	3.4154e-06	43.154	188.614	38.454	130.176	-30.669	135.978	141.303	-30.106	-25.903	112.658	26.317	-26.274	-21.303	-21.799	-18.121	127.832	-18.796	-8191	255	
4954.499	1	1	0	0	0.090555	0.042644	0.18014	0.043273	0.12066	0.28892	0.30958	0.12094	0.014835	0.058036	0.10443	0.049701	0.11706	0.12346	0.1113	0.20607	-3.5708	-4.5938	-4.3958	-4.125	-4.4979	-3.9479	-4.4187	-4.6042	-3.65	-4.4354	-4.4729	-4.0667	-4.8792	-3.9229	-4.1979	-4.7021	112.910	138.841	95.654	93.888	81.799	167.844	230.921	78.245	129.208	7.208	278.490	281.756	-9.205	155.476	307.767	138.158	0.00014491	0.0002419	0.00010611	501.87	6.3962e-07	4.9795e-06	757.43	158.27	2.059e-06	3.1527e-06	307.97	113.51	50.255	17.884	9.8611e-06	43.961	0.00031593	0.00031683	8.7562e-05	510.68	3.4326e-06	3.4415e-06	742.48	160.16	3.4343e-06	3.4386e-06	296.24	110.01	52.079	18.276	3.3379e-06	42.135	194.871	247.683	-18.067	-30.409	-23.932	58.187	-30.159	-25.429	78.174	168.714	-25.985	-21.803	-21.288	-18.094	150.048	-18.844	-8191	255	
4954.595	1	1	0	0	0.18497	0.057879	0.21357	0.13474	0.086442	0.17021	0.23954	0.038834	0.12467	0.11919	0.10816	0.12537	0.15848	0.19838	0.040937	0.20511	-3.4917	-4.5333	-4.3458	-3.9583	-4.6833	-4.1021	-4.0833	-4.7104	-3.8396	-4.4125	-4.5104	-3.8625	-4.7646	-4.275	-4.0271	-4.8104	68.326	240.615	123.381	263.391	230.982	159.932	210.919	32.874	261.127	247.472	267.453	82.666	37.617	267.117	316.173	-9.562	0.0001308	0.00042464	0.00019503	494.81	3.6129e-06	3.9032e-06	744.84	153.46	2.7223e-06	3.2228e-06	301.69	112.59	49.058	17.425	3.5089e-06	44.01	0.00030504	0.00030143	8.4894e-05	501.69	3.3216e-06	3.3236e-06	731.05	156.01	3.3131e-06	3.2904e-06	292.27	108.62	51.086	18.126	3.3016e-06	42.017	244.767	96.149	308.429	-30.540	144.014	94.022	-30.241	-25.560	133.625	135.369	-25.997	-21.533	-20.926	-18.431	23.420	-18.683	-8191	255	
4954.692	1	1	0	0	0.03253	0.2262	0.17218	0.17082	0.051224	0.12209	0.13493	0.068378	0.31971	0.14978	0.19345	0.019169	0.24786	0.090954	0.17379	0.20799	-3.6917	-4.3583	-4.6708	-3.9083	-4.6979	-4.2583	-4.2396	-4.8875	-3.8812	-4.3313	-4.6417	-3.8125	-4.5875	-4.4021	-3.9104	-4.7812	273.462	138.579	41.840	195.297	187.626	247.890	230.602	226.885	277.582	10.398	4.487	-2.897	0.984	-6.508	297.587	298.478	0.00014082	0.00047687	0.00011379	497.13	7.8126e-07	6.4189e-07	751.65	155.59	7.4428e-06	5.038e-06	304.63	111.64	49.37	17.823	2.4552e-06	44.216	0.00030788	0.00030345	8.4764e-05	506.47	3.3734e-06	3.3706e-06	736.92	158.1	3.3654e-06	3.3636e-06	294.51	108.66	51.73	18.257	3.4033e-06	42.429	200.748	32.317	77.507	-30.595	61.269	183.546	-30.235	-25.937	82.135	-35.884	-26.250	-21.373	-21.628	-18.142	295.671	-18.618	-8191	255	
4954.788	1	1	0	0	0.21158	0.11555	0.098236	0.28837	0.12201	0.15583	0.18543	0.07529	0.10594	0.098913	0.24678	0.092982	0.18076	0.28336	0.18351	0.15343	-3.7333	-4.2292	-4.5167	-3.7417	-4.6229	-4.3354	-3.9	-4.625	-4.1167	-4.175	-4.8063	-3.7938	-4.4479	-4.3792	-4.0292	-4.7958	103.209	45.350	115.128	276.189	199.168	257.849	99.152	-41.168	3.305	300.373	307.640	235.986	262.227	220.580	269.458	-33.088	0.00014853	0.00066353	0.00011724	503.51	1.9527e-06	1.419e-06	754.85	157.37	3.8336e-06	6.8086e-06	307.67	112.38	50.095	17.96	2.116e-06	45.02	0.00031113	0.00031474	8.719e-05	510.74	3.4408e-06	3.4886e-06	742	159.28	3.4877e-06	3.4842e-06	297.6	109.58	52.189	18.569	3.5195e-06	43.138	213.056	106.206	80.980	-30.373	298.926	106.720	-30.176	-25.545	142.684	129.667	-25.864	-21.538	-20.918	-17.906	70.952	-18.645	-8191	255	
4954.908	1	1	0	0	0.27799	0.085743	0.28052	0.386	0.1634	0.10017	0.12335	0.13647	0.091326	0.21981	0.15392	0.086308	0.072565	0.030129	0.021975	0.050323	-3.6729	-4.0604	-4.6958	-3.7188	-4.5437	-4.7125	-3.9458	-4.6229	-4.2771	-4.0833	-4.7625	-3.9562	-4.4354	-4.4021	-3.8083	-4.6146	77.156	93.044	152.630	32.236	80.107	82.330	238.058	314.497	312.726	-4.081	233.704	265.637	256.491	311.797	113.702	181.908	0.00012298	0.00014709	9.4417e-05	505.65	4.8874e-06	3.1639e-06	754.83	156.18	6.7695e-06	6.3336e-06	305.17	113.57	50.071	17.832	1.1141e-06	44.594	0.000324	0.00032512	9.1124e-05	514.57	3.5888e-06	3.6167e-06	745.22	160.19	3.6388e-06	3.593e-06	297.17	110.36	52.376	18.547	3.6139e-06	42.742	192.709	81.162	136.765	-30.401	87.288	16.666	-29.900	-25.971	-19.042	45.949	-26.017	-21.452	-21.601	-18.093	81.035	-19.021	-8191	255	
4955.004	1	1	0	0	0.1113	0.30775	0.15413	0.17947	0.082371	0.39953	0.31356	0.13287	0.082273	0.10461	0.2049	0.075726	0.2839	0.090838	0.05441	0.30602	-3.7938	-3.8354	-4.7396	-3.8604	-4.35	-4.625	-3.9833	-4.7375	-4.3292	-3.8917	-4.7458	-4.0146	-4.2312	-4.6417	-3.8417	-4.5667	93.888	135.066	46.311	259.343	121.582	22.067	249.386	307.398	-34.634	102.407	281.251	69.250	283.361	142.328	211.304	310.928	4.3775e-05	0.00035799	7.2993e-05	489.21	5.3915e-06	7.8297e-06	737.13	152.26	6.4837e-06	1.9189e-06	301.12	112.22	49.767	17.728	4.8172e-06	43.852	0.00032777	0.00032878	9.034e-05	501.3	3.5192e-06	3.5063e-06	725.8	155.78	3.4941e-06	3.4317e-06	292.18	109.06	51.695	18.207	3.3721e-06	42.183	205.911	5.192	172.132	-30.470	162.655	83.795	-30.017	-25.823	221.317	187.397	-25.837	-21.488	-21.428	-18.108	98.732	-18.739	-8191	255	
4955.101	1	1	0	0	0.23562	0.15169	0.24325	0.061637	0.091487	0.156	0.21562	0.16384	0.11432	0.13627	0.15293	0.14435	0.22385	0.26642	0.1094	0.16396	-4.0917	-3.9292	-4.75	-4.1875	-4.2063	-4.7292	-4.0333	-4.6083	-4.5146	-3.85	-4.9042	-4.1833	-4.2937	-4.925	-3.8583	-4.4875	216.459	13.772	307.713	122.152	-19.154	12.552	281.253	237.009	208.330	-7.606	195.122	-42.507	241.971	246.393	279.562	251.845	0.00012544	0.00042386	0.00012106	485.88	4.9172e-06	4.5937e-06	740.5	152.78	1.7579e-06	8.3975e-06	302.12	111.98	48.969	17.673	3.9015e-06	44.462	0.00030793	0.00030956	8.591e-05	497.04	3.3458e-06	3.3684e-06	728.03	155.04	3.3723e-06	3.3613e-06	292.3	108.61	51.345	18.179	3.4665e-06	42.38	165.402	31.399	42.145	-30.067	200.299	111.850	-29.978	-25.921	-9.311	24.917	-25.857	-21.425	-21.222	-18.198	64.067	-19.026	-8191	255	
4955.197	1	1	0	0	0.060871	0.041536	0.19665	0.057552	0.22058	0.16191	0.16577	0.037467	0.14329	0.28518	0.10252	0.099505	0.12534	0.12811	0.15446	0.045247	-4.1854	-3.7146	-4.7604	-4.425	-3.8854	-4.7063	-3.8979	-4.4	-4.4458	-3.9792	-4.7125	-4.3667	-4.0125	-4.7958	-3.9062	-4.2958	124.171	34.739	260.196	244.315	136.284	226.099	220.348	-11.062	103.502	23.139	300.327	172.935	135.319	109.328	119.765	215.741	0.00014196	0.0002238	0.00011474	491.37	1.9195e-06	1.6459e-06	746.05	153.26	2.658e-06	6.6686e-06	300.58	111.1	48.816	17.61	6.7443e-06	44.444	0.00031431	0.00031839	8.7733e-05	501.86	3.4799e-06	3.4808e-06	733.43	155.81	3.507e-06	3.5071e-06	292.72	108.03	51.028	18.202	3.5703e-06	42.425	224.415	78.108	127.999	-29.875	295.914	154.498	-30.383	-25.595	45.992	116.821	-25.996	-21.072	-21.247	-18.225	102.521	-18.964	-8191	255	
4955.293	1	1	0	0	0.15002	0.055645	0.042119	0.064667	0.28381	0.18245	0.11131	0.04256	0.16913	0.16028	0.1413	0.19163	0.20104	0.15962	0.033232	0.15079	-4.4292	-3.7438	-4.6771	-4.2542	-3.8708	-4.7167	-4.0938	-4.1583	-4.8583	-3.8146	-4.45	-4.3688	-3.8625	-4.7312	-4.1146	-4.1979	-39.030	101.418	122.093	-4.953	31.473	88.848	103.697	183.154	185.056	132.047	273.533	-10.908	80.253	148.025	36.015	21.837	0.00013459	0.00039012	0.00010343	490.48	4.5547e-06	2.53e-06	746.69	152.51	9.5332e-06	3.6511e-06	300.9	111.72	48.79	17.556	3.0072e-06	43.978	0.00032679	0.0003275	9.1105e-05	505.16	3.6093e-06	3.5816e-06	736.6	156.82	3.6192e-06	3.6568e-06	293.66	108.33	51.294	18.221	3.6361e-06	42.237	212.495	93.147	74.959	-30.471	16.147	16.651	-30.158	-25.681	136.571	-21.859	-25.994	-21.467	-20.927	-17.727	48.301	-18.791	-8191	255	
4955.389	1	1	0	0	0.11707	0.12606	0.1132	0.19528	0.082806	0.10706	0.17164	0.1022	0.1545	0.081943	0.1035	0.1665	0.13622	0.099557	0.26488	0.18129	-4.3167	-3.9125	-4.5563	-4.5	-3.6813	-4.7208	-4.2583	-4.2396	-4.8125	-3.9292	-4.4146	-4.7333	-3.9333	-4.6896	-4.1875	-3.9396	82.054	132.001	286.445	267.654	120.496	50.345	221.431	73.884	212.841	261.974	217.187	254.185	265.108	88.752	-35.892	257.164	0.00026756	0.00064009	0.0002328	492.34	3.3653e-06	2.3269e-06	740.1	152.7	6.4057e-06	1.2845e-06	300.81	110.52	48.59	17.449	5.5508e-06	44.024	0.00033111	0.00033361	9.2483e-05	504.72	3.6399e-06	3.6361e-06	730.47	155.46	3.633e-06	3.6642e-06	291.57	107.42	50.912	18.171	3.6473e-06	42.283	192.236	24.130	104.615	-30.163	176.775	193.335	-29.776	-26.136	122.952	245.102	-25.984	-21.539	-21.435	-18.155	74.728	-18.734	-8191	255	
4955.508	1	1	0	0	0.31983	0.14077	0.083185	0.089703	0.10865	0.37593	0.19322	0.19125	0.12866	0.26422	0.10167	0.20372	0.018274	0.24492	0.11233	0.21758	-4.4104	-3.9625	-4.1771	-4.6208	-3.9375	-4.5813	-4.2917	-3.9542	-4.7937	-3.9521	-4.375	-4.6208	-3.8229	-4.6062	-4.375	-3.8708	308.579	60.394	154.741	78.145	148.705	289.002	50.931	21.773	16.634	93.716	268.257	207.975	186.598	-24.445	283.938	290.474	0.00018335	0.0001422	0.00021849	491.28	6.6461e-07	1.8271e-06	743.03	153.39	9.1429e-06	5.3384e-07	301.75	110.76	48.48	17.492	4.5306e-06	44.119	0.00033133	0.00033516	9.2015e-05	506.5	3.6597e-06	3.6001e-06	735.21	156.23	3.606e-06	3.6155e-06	292.53	107.85	51.242	18.279	3.5974e-06	42.528	222.377	73.387	-3.950	-30.548	163.024	38.848	-29.980	-25.728	101.041	81.953	-26.453	-21.243	-21.835	-17.810	184.587	-18.781	-8191	255	
4955.604	1	1	0	0	0.29164	0.034493	0.060775	0.26414	0.065979	0.053095	0.32485	0.20205	0.084604	0.029589	0.091094	0.17766	0.17392	0.12813	0.054179	0.1517	-4.4333	-4.0333	-4.0813	-4.6813	-3.9437	-4.625	-4.4542	-3.7958	-4.6771	-4.0729	-4.175	-4.6521	-3.9375	-4.3646	-4.5354	-3.7896	-26.996	259.422	-31.817	117.976	21.324	93.877	149.762	300.228	254.415	33.113	267.673	186.080	286.356	-30.977	81.799	102.076	0.00015066	0.00023934	0.00027493	487.95	5.9009e-06	1.6209e-06	743.27	153.24	4.5343e-06	6.5528e-06	301.15	111.25	48.418	17.603	2.8499e-06	44.587	0.00033114	0.00033058	9.1791e-05	505.58	3.6456e-06	3.6183e-06	735.67	156.75	3.618e-06	3.6357e-06	293.31	108.59	51.586	18.393	3.6436e-06	43.041	207.005	63.942	89.683	-30.103	107.760	41.863	-29.873	-25.655	221.833	139.447	-26.033	-21.507	-21.236	-18.046	56.148	-18.739	-8191	255	
4955.700	1	1	0	0	0.1613	0.18188	0.11523	0.24552	0.10928	0.095618	0.17761	0.069836	0.19264	0.10593	0.25495	0.27911	0.1404	0.12962	0.11193	0.13315	-4.4104	-4.1625	-4.0062	-4.8125	-3.9896	-4.2875	-4.6813	-3.7854	-4.7	-4.2604	-4.0979	-4.7417	-4.0604	-4.3958	-4.6	-3.8375	128.687	-37.911	305.832	47.578	289.265	142.824	288.588	81.476	252.857	16.156	281.675	231.899	123.781	138.689	235.513	135.756	0.00017427	4.6292e-05	0.00013664	493.31	1.6118e-06	2.9538e-06	740.61	153.91	3.2028e-06	2.9008e-06	299.85	110.42	48.166	17.472	4.5634e-06	43.591	0.00033975	0.00033631	9.3339e-05	508.25	3.7231e-06	3.6739e-06	737.41	156.95	3.6763e-06	3.6908e-06	292.39	108	50.99	18.23	3.6504e-06	42.202	232.051	140.652	19.058	-30.418	252.647	5.175	-29.747	-25.923	202.782	57.561	-26.333	-21.458	-21.626	-18.319	104.218	-18.715	-8191	255	
4955.796	1	1	0	0	0.15523	0.025525	0.21239	0.17338	0.14946	0.048636	0.10452	0.096689	0.15576	0.22501	0.17335	0.081554	0.17335	0.016714	0.173	0.15525	-4.2104	-4.35	-3.7062	-4.7104	-3.8833	-4.3	-4.7396	-3.8583	-4.5687	-4.4625	-3.7917	-4.7896	-4.0813	-4.2	-4.5938	-3.8271	174.064	74.579	3.533	269.021	289.715	125.865	290.414	275.108	65.268	310.964	225.024	209.815	240.595	256.929	261.111	154.948	0.00014203	0.00020697	0.00010459	483.51	8.4149e-06	2.8496e-06	737.43	150.34	1.2587e-06	7.3408e-06	294.72	109.77	47.069	17.168	3.65e-06	43.324	0.00033286	0.00033367	9.2311e-05	499.25	3.6733e-06	3.6404e-06	726.61	153.69	3.6321e-06	3.641e-06	289.13	106.97	50.385	17.976	3.6517e-06	41.804	143.125	311.774	-42.891	-30.173	123.948	23.096	-29.902	-26.066	-5.348	23.614	-26.221	-21.609	-21.453	-18.506	155.013	-19.068	-8191	255	
4955.893	1	1	0	0	0.21379	0.38568	0.16796	0.16624	0.08676	0.12332	0.11033	0.13104	0.2738	0.13445	0.2832	0.24132	0.31185	0.12921	0.076212	0.12451	-4.1604	-4.4979	-3.8396	-4.8063	-4.0771	-4.0479	-4.8354	-3.8667	-4.4521	-4.5542	-4.0062	-4.7729	-4.2771	-4.0396	-4.8292	-4.0687	76.572	149.521	66.063	200.832	114.867	192.848	-14.914	-9.182	-39.955	165.715	216.298	239.933	-42.713	24.055	202.483	307.746	0.00014888	0.00027106	7.9272e-05	490.74	2.229e-07	3.6274e-06	737.49	151.79	2.3933e-06	2.8923e-06	298.18	109.66	48.393	17.398	6.5192e-06	43.713	0.00033149	0.00033753	9.3437e-05	504.21	3.7329e-06	3.7203e-06	732.73	155.22	3.6742e-06	3.6847e-06	290.07	107.03	50.95	18.124	3.6966e-06	42.164	236.042	302.376	11.118	-30.397	-27.432	18.428	-30.025	-25.525	113.317	114.367	-26.190	-21.340	-21.361	-18.332	-19.649	-18.729	-8191	255	
4955.989	1	1	0	0	0.17098	0.14597	0.07332	0.12887	0.15422	0.15995	0.15612	0.1458	0.20363	0.07763	0.075599	0.078845	0.11612	0.12157	0.081715	0.11644	-4.0854	-4.7083	-3.7604	-4.7125	-4.3625	-4.0271	-4.8854	-3.9417	-4.3417	-4.8187	-3.9208	-4.775	-4.4875	-4.2396	-5.05	-4.1792	83.271	16.430	-8.280	226.643	271.999	81.700	227.014	204.377	185.031	100.166	200.806	92.807	281.231	106.324	32.061	54.947	0.00014266	0.00036593	0.00013007	494.46	2.2149e-06	3.0721e-06	743.52	153.19	5.2791e-06	1.5945e-06	300.33	111.65	48.296	17.605	3.5929e-06	44.28	0.00033756	0.00034196	9.4947e-05	507.53	3.7352e-06	3.7405e-06	736.74	157.05	3.7645e-06	3.7392e-06	293.83	108.76	51.476	18.385	3.7648e-06	42.713	205.677	20.911	37.270	-30.765	70.202	96.866	-29.755	-25.673	113.494	180.809	-26.457	-21.591	-20.950	-18.350	113.779	-19.056	-8191	255	
4956.085	1	1	0	0	0.21864	0.092766	0.094585	0.12962	0.055706	0.071144	0.068883	0.11315	0.24211	0.15027	0.15338	0.21533	0.056915	0.071902	0.084764	0.15659	-4.1146	-4.8313	-3.9708	-4.825	-4.4021	-4.0979	-5.0021	-4.1646	-4.175	-4.9042	-4.0563	-4.8896	-4.6729	-4.0625	-4.8979	-4.3438	247.151	150.971	263.256	307.603	144.397	-30.059	22.691	98.482	85.621	144.926	229.170	291.077	235.377	263.517	159.173	51.624	0.00013616	0.00039411	0.00016651	496.64	9.13e-06	3.83e-06	747.75	153.93	8.6421e-06	8.2372e-06	299.88	110.76	48.296	17.485	7.008e-06	43.796	0.00034519	0.00034687	9.6728e-05	513.03	3.832e-06	3.825e-06	740.21	157.66	3.8e-06	3.7624e-06	292.81	108.39	51.454	18.373	3.8182e-06	42.409	202.991	298.855	121.011	-30.236	76.843	248.790	-29.975	-25.679	142.127	7.974	-26.316	-21.950	-21.463	-18.542	105.512	-18.841	-8191	255	
4956.205	1	1	0	0	0.098212	0.11813	0.0235	0.27891	0.14344	0.22861	0.07461	0.060838	0.26061	0.061868	0.24591	0.177	0.1127	0.16078	0.062022	0.059636	-4.0083	-4.7521	-3.9833	-4.6083	-4.8542	-3.9188	-4.8792	-4.4729	-4.0437	-4.9146	-4.0771	-4.5354	-4.8229	-3.9979	-4.7917	-4.5167	41.281	296.390	114.524	297.589	196.134	258.340	120.004	-34.448	132.308	152.699	97.954	289.197	251.371	4.813	292.711	47.575	0.00012544	0.00026476	0.00016921	484.76	3.2395e-06	8.5994e-07	730.06	151.78	1.0888e-06	5.8422e-06	298.98	112.75	49.534	17.967	6.0863e-06	44.989	0.00035285	0.00035102	9.8299e-05	503.8	3.8641e-06	3.8578e-06	729.33	156.44	3.8227e-06	3.8385e-06	294.05	109.89	52.507	18.786	3.8526e-06	43.577	227.409	66.271	77.093	-30.555	312.289	17.106	-29.808	-25.474	-38.832	68.592	-26.252	-21.476	-21.356	-18.062	171.217	-19.045	-8191	255	
4956.300	1	1	0	0	0.11717	0.11568	0.074517	0.14346	0.18393	0.14892	0.11996	0.1167	0.073458	0.17513	0.1617	0.11065	0.21257	0.30297	0.22399	0.14781	-3.6958	-4.975	-4.0917	-4.3417	-4.8083	-3.9479	-4.8	-4.5938	-3.9792	-4.9875	-4.1479	-4.3083	-4.8104	-4.0167	-4.6021	-4.5583	33.905	-42.482	250.567	172.279	157.746	-32.496	196.941	261.590	146.942	265.337	205.313	7.403	72.116	93.873	55.372	157.360	0.0001992	0.00027623	0.00015846	489.86	2.6625e-06	2.1693e-06	739.87	154.31	5.7946e-06	5.1605e-06	303.41	114.53	50.499	18.276	1.8809e-06	45.829	0.00035525	0.00035906	0.00010011	506.48	3.9123e-06	3.9326e-06	733.61	158.88	3.9366e-06	3.9426e-06	298	112.16	53.689	19.16	3.9473e-06	44.4	220.843	4.083	66.374	-30.354	192.555	242.716	-29.913	-25.684	145.979	53.237	-26.148	-21.613	-21.431	-18.194	39.442	-18.758	-8191	255	
4956.373	1	1	0	0	0.07095	0.18502	0.14939	0.092001	0.2903	0.21011	0.16444	0.11083	0.12589	0.037698	0.11908	0.14464	0.08732	0.05488	0.22992	0.090929	-3.6271	-4.9062	-4.1333	-4.2021	-4.9	-3.8792	-4.6583	-4.6813	-4.05	-4.8646	-4.3979	-4.3063	-5.0667	-4.0333	-4.4479	-4.7917	199.977	264.226	107.081	185.929	310.288	172.151	270.575	74.761	245.734	-2.430	287.354	-28.287	180.881	193.623	263.586	186.196	0.00027286	0.0008855	0.00021743	491.7	5.798e-06	1.6829e-06	747.72	156.5	5.2855e-06	9.3588e-07	308.37	115.98	50.966	18.63	2.1848e-06	46.406	0.00036608	0.00036561	0.00010193	513.79	3.9797e-06	3.9823e-06	739.66	161	3.9839e-06	3.9331e-06	302.21	113.12	54.304	19.368	3.9451e-06	44.874	201.700	33.065	0.244	-30.387	84.332	51.872	-29.848	-25.534	162.284	314.946	-26.424	-21.736	-21.311	-17.877	151.619	-18.916	-8191	255	
4956.469	1	1	0	0	0.28376	0.072965	0.21992	0.06825	0.16348	0.1445	0.10669	0.25353	0.16679	0.080857	0.11673	0.096466	0.23596	0.15635	0.11852	0.32017	-3.8375	-4.8063	-4.3646	-4.0854	-4.9062	-4.1771	-4.625	-4.7937	-3.95	-4.7292	-4.4187	-4.1667	-4.975	-4.1854	-4.1958	-4.9104	297.992	143.188	127.221	237.010	314.823	83.671	-31.028	-6.297	35.092	66.780	-11.165	128.523	-3.789	-42.143	108.113	182.782	0.00018318	0.00059936	8.822e-05	501.69	5.2605e-06	2.6826e-06	745.95	157.81	5.3899e-06	8.546e-06	306.69	114.21	50.644	18.08	7.7405e-06	44.861	0.00036053	0.00036055	0.00010197	519.33	3.994e-06	4.0352e-06	743.41	162.37	4.0231e-06	4.0426e-06	300.02	112.19	53.836	19.05	4.0456e-06	43.718	226.781	86.568	129.836	-30.683	9.946	37.979	-30.073	-25.726	67.555	143.547	-26.144	-21.680	-21.349	-18.209	83.476	-18.853	-8191	255	
4956.588	1	1	0	0	0.43556	0.090674	0.097085	0.063249	0.12025	0.20352	0.1346	0.060286	0.2391	0.1343	0.19571	0.15562	0.30517	0.068186	0.2594	0.021898	-3.7771	-4.6417	-4.5417	-3.9313	-5.0021	-4.3167	-4.3292	-4.8083	-4.0146	-4.675	-4.7146	-4.1438	-4.9313	-4.2958	-4.2021	-4.975	37.511	-12.959	148.359	-35.951	281.344	253.680	234.886	57.596	162.145	-27.190	257.105	314.584	12.899	-42.246	18.164	8.601	0.00018341	0.00053492	0.00014232	491.37	1.7762e-06	6.7116e-06	740	154.62	3.9341e-06	5.0343e-06	304.1	114.06	49.693	18.156	7.6241e-07	45.552	0.00036293	0.00036436	0.0001014	509.62	3.948e-06	3.9705e-06	732.06	159.31	3.9464e-06	3.9458e-06	297.09	111.39	53.321	18.988	3.9423e-06	43.846	220.376	36.810	156.390	-30.334	71.190	97.757	-30.319	-25.811	160.805	122.540	-26.408	-21.623	-21.347	-18.341	74.505	-19.179	-8191	255	
4956.684	1	1	0	0	0.12657	0.06564	0.070007	0.22148	0.27354	0.093164	0.088978	0.047806	0.13923	0.039167	0.095603	0.1847	0.1347	0.11188	0.18234	0.38371	-3.6875	-4.5396	-4.7292	-4.0312	-4.8625	-4.3688	-4.4542	-4.9125	-4.1458	-4.5833	-4.7333	-4.0271	-4.9062	-4.4104	-4.1604	-4.9979	-42.470	113.048	185.696	40.670	-34.958	76.120	-34.328	53.731	78.579	36.112	79.827	263.798	40.344	83.176	37.889	2.393	0.00012526	0.00040498	0.00017822	490.17	5.7426e-06	5.8698e-06	741.4	156.19	1.7128e-06	3.4153e-06	306.78	114.65	50.992	18.489	4.729e-06	45.983	0.00035697	0.00035802	9.9635e-05	508.75	3.8978e-06	3.8726e-06	735.11	159.98	3.845e-06	3.8089e-06	299.55	112.15	53.802	19.117	3.7792e-06	44.307	220.311	172.328	36.437	-30.411	189.018	-12.906	-30.259	-25.531	245.866	78.202	-26.385	-21.040	-21.553	-18.293	79.294	-19.004	-8191	255	
4956.781	1	1	0	0	0.39612	0.14011	0.38133	0.053784	0.10419	0.059558	0.25774	0.052294	0.11961	0.17175	0.10034	0.14726	0.099177	0.3238	0.23553	0.22275	-3.7896	-4.4417	-4.8562	-4.0563	-4.7063	-4.4563	-4.2542	-5.0271	-4.2625	-4.3438	-4.8875	-4.2542	-4.7063	-4.6979	-4.1604	-5.0854	297.040	230.537	5.382	188.411	245.273	141.590	215.630	300.449	8.414	174.640	232.597	253.019	61.940	-32.557	307.051	273.961	5.5979e-05	0.00045425	0.00014242	501.17	4.398e-06	3.8845e-06	752.28	158.18	2.4538e-06	4.9688e-06	311.24	115.94	51.925	18.789	3.2567e-06	47.002	0.00034568	0.00034874	9.7435e-05	514.92	3.854e-06	3.8634e-06	744.76	162.81	3.8645e-06	3.8707e-06	303.69	113.95	54.955	19.477	3.9679e-06	45.111	186.929	55.158	311.749	-30.766	121.997	153.768	-30.300	-26.035	243.705	-38.510	-26.054	-21.638	-21.161	-17.626	98.751	-19.243	-8191	255	
4956.877	1	1	0	0	0.11464	0.29901	0.14095	0.094759	0.073165	0.10592	0.10116	0.34815	0.034946	0.11858	0.084134	0.097462	0.1667	0.089055	0.22525	0.27741	-4.0437	-4.3958	-4.8812	-3.9979	-4.4938	-4.6667	-4.1854	-5.0437	-4.3333	-4.25	-4.9604	-4.0417	-4.6062	-4.7458	-3.9729	-4.9708	289.735	-5.045	266.499	33.592	183.020	197.506	206.045	299.262	64.597	208.779	204.632	308.061	159.545	270.592	88.902	241.778	0.0001309	9.384e-05	0.00018988	503.78	4.5662e-06	5.8373e-06	755.73	161.27	3.2042e-06	2.7808e-06	311.07	115.05	51.198	18.432	1.8553e-06	45.929	0.00035871	0.00036319	0.00010028	522.73	3.974e-06	4.0111e-06	750.23	164.29	4.0186e-06	4.0372e-06	303.75	113.23	54.705	19.353	4.1029e-06	44.359	210.115	42.353	288.419	-30.550	-10.086	89.123	-30.248	-25.890	34.656	112.060	-26.144	-21.825	-21.023	-17.959	84.217	-19.059	-8191	255	
4956.997	1	1	0	0	0.014971	0.12478	0.10617	0.21523	0.23855	0.2186	0.1753	0.14666	0.1153	0.06206	0.18181	0.02229	0.037821	0.19515	0.061827	0.064252	-4.0687	-4.0604	-4.9667	-4.0958	-4.4125	-4.7208	-4.0625	-4.8458	-4.3875	-4.15	-4.9292	-4.2979	-4.4187	-4.7646	-4.1562	-4.8917	277.835	102.648	78.133	171.255	232.799	145.700	-18.917	-2.451	-27.775	74.132	-37.293	113.874	218.749	293.767	-36.929	116.142	9.5039e-05	0.00062146	2.1773e-05	494.05	6.6007e-07	7.1592e-06	740.49	157.3	1.5949e-06	5.914e-06	306.95	115.15	51.041	18.178	2.4075e-06	45.706	0.00037133	0.00037972	0.00010526	515.14	4.1139e-06	4.1858e-06	739.65	162.2	4.154e-06	4.1767e-06	301.62	112.9	54.698	19.29	4.1885e-06	44.321	214.121	140.491	248.816	-30.490	46.739	196.109	-30.139	-25.838	97.194	87.234	-26.373	-21.473	-21.423	-17.952	-0.126	-19.023	-8191	255	
4957.069	1	1	0	0	0.34185	0.17133	0.11965	0.18637	0.092974	0.11349	0.1516	0.09044	0.06493	0.22893	0.086985	0.20351	0.21519	0.20147	0.34863	0.18175	-4.1875	-3.9021	-4.8917	-4.1604	-4.375	-4.8313	-4.1875	-4.6167	-4.6875	-3.9521	-4.9854	-4.3583	-4.3542	-4.8771	-3.9354	-4.5917	28.114	161.930	150.060	206.411	268.060	4.794	274.110	143.531	197.982	276.026	27.710	137.186	112.990	91.960	23.586	75.066	0.00017352	0.00010303	0.00010434	498.23	3.5458e-06	4.8582e-06	744.15	157.9	3.6324e-06	3.9099e-06	305.68	115.03	50.917	18.371	5.7511e-06	46.26	0.00038229	0.00038625	0.00010661	519.67	4.1901e-06	4.1714e-06	744.61	162.95	4.1957e-06	4.2326e-06	301.86	113.32	54.835	19.409	4.2122e-06	44.757	218.452	7.397	42.365	-30.602	98.288	-12.981	-30.027	-25.629	80.565	71.863	-26.322	-21.496	-21.227	-17.815	120.525	-18.989	-8191	255	
4957.190	1	1	0	0	0.29133	0.15913	0.1908	0.21597	0.10639	0.032472	0.1068	0.26774	0.15855	0.13193	0.06399	0.23703	0.26259	0.076233	0.16816	0.20156	-4.3646	-4.1146	-4.8083	-4.3438	-4.1104	-4.8812	-4.1292	-4.4979	-4.7417	-4.0104	-4.9146	-4.3604	-4.2229	-4.8083	-4.1521	-4.6167	173.064	-11.847	218.059	-25.758	83.141	88.476	294.772	256.443	311.957	290.728	281.518	265.858	268.650	311.216	62.916	246.564	0.00016547	0.00037734	1.912e-05	497.95	7.9471e-06	3.4475e-06	747.57	159.54	4.6399e-06	7.5008e-06	311.26	116.08	51.449	18.386	7.1192e-06	46.365	0.00037893	0.00038451	0.00010637	521.28	4.1645e-06	4.1918e-06	748.15	164.86	4.232e-06	4.2681e-06	305.65	114.26	55.442	19.646	4.3238e-06	45.162	195.296	144.728	108.184	-30.343	102.669	59.155	-29.893	-25.388	-27.356	120.155	-25.903	-21.413	-21.395	-17.745	115.673	-18.918	-8191	255	
4957.286	1	1	0	0	0.22196	0.16985	0.12488	0.15216	0.20673	0.13511	0.17419	0.11466	0.056212	0.26665	0.18085	0.040024	0.14419	0.12995	0.05583	0.18612	-4.5	-4.0708	-4.8458	-4.3708	-3.9833	-5.0083	-4.1438	-4.4	-4.7896	-3.9958	-4.7688	-4.5188	-4.0563	-5.025	-4.1229	-4.1188	175.722	205.047	198.154	167.787	-37.557	231.969	19.710	305.136	20.886	42.949	25.935	294.776	6.596	43.534	286.549	-28.171	0.00012572	0.00053074	7.1718e-05	503.17	4.3753e-06	3.7749e-06	748.98	158.78	4.9907e-06	9.8833e-06	305.43	113.87	49.837	18.176	2.2241e-06	44.687	0.00039685	0.00040386	0.0001123	529.08	4.4141e-06	4.3967e-06	750.37	164.47	4.3741e-06	4.3578e-06	301.93	112.28	54.276	19.126	4.2502e-06	43.731	195.885	131.154	233.829	-30.402	84.801	64.821	-29.847	-25.718	140.014	157.934	-26.323	-21.478	-21.707	-17.790	123.867	-19.057	-8191	255	
4957.382	1	1	0	0	0.072224	0.16514	0.25594	0.095654	0.018124	0.16193	0.11514	0.056283	0.18295	0.081897	0.058309	0.10072	0.20743	0.23139	0.25874	0.090513	-4.5792	-3.8937	-4.6958	-4.6958	-4.0375	-4.9208	-4.3646	-4.2417	-4.9062	-3.9479	-4.6146	-4.5938	-3.925	-4.8667	-4.2625	-4.2562	161.483	310.089	27.551	63.070	182.449	229.896	5.085	150.069	237.050	59.853	204.072	241.139	-19.358	189.439	182.602	130.072	0.0002334	0.00016225	0.00014895	490.63	3.5137e-06	4.4551e-06	740.81	155.66	7.2208e-06	2.2727e-06	305.23	114.02	50.341	18.19	2.5167e-06	44.987	0.0003865	0.00038538	0.00010823	515.79	4.2586e-06	4.3051e-06	739.4	163.01	4.3827e-06	4.3684e-06	301.57	112.81	55.099	19.268	4.3848e-06	44.042	221.259	155.916	105.813	-30.784	198.141	176.899	-29.974	-25.565	7.912	91.969	-26.696	-21.831	-20.943	-18.429	281.905	-19.015	-8191	255	
4957.478	1	1	0	0	0.25727	0.084806	0.1068	0.10778	0.097481	0.1545	0.034606	0.30979	0.1227	0.17783	0.16707	0.18217	0.057431	0.1423	0.11826	0.12881	-4.6562	-4.1917	-4.4688	-4.8	-3.9813	-4.8625	-4.3583	-4.0792	-4.8708	-4.1417	-4.4688	-4.8708	-4.0208	-4.6937	-4.625	-4.3333	175.551	135.561	-29.039	97.794	69.654	87.644	234.325	179.763	234.362	-6.791	57.278	269.005	138.646	300.402	191.526	264.436	0.000173	0.00064459	8.7378e-05	491.55	9.2775e-07	6.9483e-06	748.83	157.74	7.7355e-06	2.2665e-06	306.89	114.03	50.964	17.849	3.4461e-06	45.047	0.00040289	0.00040529	0.00011309	521.42	4.4585e-06	4.4709e-06	750.3	164.72	4.5813e-06	4.5739e-06	304.31	113.35	55.798	19.341	4.7983e-06	44.213	213.044	82.632	69.289	-30.602	32.770	75.042	-29.666	-26.073	160.662	206.876	-26.106	-21.411	-21.672	-18.089	-6.467	-19.157	-8191	255	
4957.597	1	1	0	0	0.052107	0.22646	0.039812	0.25011	0.11637	0.18439	0.11456	0.025156	0.18466	0.12341	0.13289	0.085159	0.24795	0.15365	0.12051	0.34995	-4.5917	-3.9313	-4.3125	-4.8646	-3.8729	-4.7646	-4.6917	-4.1604	-4.9792	-4.2208	-4.4375	-4.6292	-3.8833	-4.5083	-4.5521	-4.1687	94.187	115.410	-7.910	307.928	289.008	64.224	310.952	285.934	157.980	264.703	309.232	207.865	280.414	312.936	274.316	-35.825	0.00019061	0.00036594	0.00023271	496.37	2.9126e-06	5.6658e-06	747.85	155.06	1.5064e-06	4.4467e-06	305.73	113.64	50.413	17.899	4.2726e-06	44.886	0.00043762	0.00043933	0.00012229	528.36	4.7597e-06	4.7056e-06	750.63	163.19	4.6175e-06	4.5856e-06	302.82	112.86	54.848	19.1	4.4433e-06	43.9	209.996	260.135	69.802	-30.386	214.749	81.611	-29.963	-25.900	112.014	-21.571	-26.504	-21.280	-21.382	-18.083	18.402	-19.047	-8191	255	
4957.669	1	1	0	0	0.094729	0.13726	0.14402	0.14998	0.1183	0.24036	0.054041	0.10843	0.24941	0.1459	0.05263	0.17308	0.17038	0.16771	0.19374	0.1338	-4.6312	-4.1792	-4.1208	-4.85	-3.9542	-4.5958	-4.7979	-4.0354	-4.7458	-4.2312	-4.3917	-4.7854	-4.0083	-4.4354	-4.6937	-4.0271	104.952	167.425	46.299	285.667	184.466	123.487	212.606	288.860	296.444	180.599	273.545	312.003	202.731	237.096	156.707	164.964	5.0159e-05	0.00034401	0.00018795	497.48	5.1928e-06	1.8743e-06	745.78	155.24	6.9322e-06	6.5867e-06	298.5	111.85	49.34	17.596	3.0924e-06	44.254	0.00040105	0.0003992	0.00011134	522.96	4.3091e-06	4.3168e-06	744.31	161.16	4.3077e-06	4.3462e-06	297.17	110.74	53.456	18.829	4.3582e-06	43.144	225.707	-20.908	126.917	-30.509	136.003	313.484	-29.774	-25.856	48.447	122.817	-26.318	-21.658	-20.892	-18.305	185.886	-19.008	-8191	255	
4957.765	1	1	0	0	0.18871	0.18033	0.30434	0.10607	0.20489	0.037621	0.044041	0.12936	0.12581	0.20877	0.10536	0.18358	0.084441	0.075397	0.04832	0.060573	-4.4875	-4.4833	-4.0146	-4.8229	-4.125	-4.5479	-4.7896	-4.0625	-4.8333	-4.4792	-4.1958	-4.8625	-4.0417	-4.3354	-4.8479	-4.0771	-30.255	51.622	67.014	117.619	188.271	301.951	120.091	-21.340	236.466	40.749	263.188	269.402	29.991	-21.221	301.164	31.150	0.00017344	0.00072599	7.3178e-05	485.87	3.9349e-06	6.0507e-06	731.38	150.96	4.5567e-06	3.6015e-06	298.72	110.97	48.755	17.503	9.44e-06	44.394	0.00039705	0.00040191	0.00011091	512.76	4.3952e-06	4.3786e-06	736.66	158.63	4.4103e-06	4.429e-06	296.37	110.17	53.161	18.807	4.3165e-06	43.262	219.968	48.066	261.969	-31.039	46.063	37.340	-30.177	-25.856	79.653	-25.501	-25.975	-21.609	-21.474	-17.962	-39.321	-19.225	-8191	255	
4957.861	1	1	0	0	0.07443	0.092583	0.08387	0.22655	0.099483	0.08505	0.23406	0.05599	0.20745	0.027148	0.10999	0.19567	0.15117	0.076985	0.10572	0.19132	-4.4604	-4.4542	-3.95	-4.7667	-4.1417	-4.2833	-4.975	-4.0104	-4.6687	-4.6896	-4.0479	-4.9	-4.3167	-4.2229	-4.8875	-4.1542	237.605	142.344	254.157	157.812	115.110	108.781	298.696	134.162	-9.857	34.304	-25.102	313.734	285.396	75.674	247.778	236.412	0.00016897	0.00019184	5.7773e-05	487.63	3.0875e-06	4.4127e-06	737.82	153.27	5.035e-06	7.0955e-06	300.36	111.61	49.556	17.692	7.9461e-06	44.384	0.00039307	0.00039735	0.00011059	513.94	4.3354e-06	4.3328e-06	742.04	159.6	4.2945e-06	4.3386e-06	297.6	110.58	53.37	18.875	4.2707e-06	43.299	205.827	129.807	253.347	-30.570	216.736	141.508	-30.054	-25.703	95.935	67.720	-25.992	-21.586	-21.954	-18.450	27.956	-18.792	-8191	255	
4957.982	1	1	0	0	0.094914	0.14593	0.21584	0.2017	0.29856	0.18542	0.08601	0.061766	0.20837	0.22018	0.13665	0.10419	0.040645	0.20024	0.17876	0.26341	-4.3021	-4.8313	-3.8667	-4.7708	-4.3167	-4.3562	-4.8812	-4.0604	-4.6104	-4.7083	-4.1104	-4.7167	-4.5292	-4.1062	-4.8979	-4.2542	229.794	271.915	26.048	240.735	30.812	249.122	-22.129	183.887	12.484	215.185	-32.597	6.978	-42.239	123.702	80.993	83.689	0.00018791	0.00024864	7.7624e-05	497.06	6.3419e-06	2.3724e-06	748.04	154.17	3.1001e-06	4.9935e-06	302.63	112.32	48.653	17.629	8.0266e-06	44.473	0.00039199	0.00039416	0.0001096	520.13	4.3461e-06	4.3024e-06	747.21	160.49	4.2778e-06	4.2986e-06	299.01	110.75	53.301	18.839	4.1932e-06	43.278	213.515	95.610	29.335	-30.536	228.314	290.344	-30.007	-25.212	290.401	154.457	-26.323	-21.236	-21.268	-18.109	156.503	-18.840	-8191	255	
4958.078	1	1	0	0	0.38576	0.16982	0.11032	0.16388	0.063131	0.15974	0.15118	0.13761	0.014474	0.20846	0.029075	0.21479	0.17282	0.10484	0.061312	0.17908	-4.1062	-4.6646	-4.0021	-4.8146	-4.6146	-4	-5.0771	-4.2771	-4.1562	-4.8354	-3.9813	-4.6917	-4.6729	-4.0188	-4.9292	-4.3187	-25.013	313.270	65.943	-26.241	27.374	1.294	186.840	262.794	29.550	89.742	-30.915	256.300	86.679	286.614	249.503	273.169	0.00018794	1.8893e-05	0.00017297	492.36	1.4083e-06	1.9345e-06	740.63	151.93	4.42e-06	6.5169e-06	297.97	110.06	47.951	17.129	2.2839e-06	43.01	0.0003799	0.00038112	0.00010706	515.65	4.1481e-06	4.1438e-06	738.78	157.53	4.1419e-06	4.1136e-06	292.84	108.29	51.864	18.239	4.0948e-06	41.864	199.910	-16.371	288.487	-30.560	189.696	-19.005	-29.993	-25.703	53.228	113.483	-26.160	-21.756	-21.709	-18.396	55.365	-19.090	-8191	255	
4958.174	1	1	0	0	0.22709	0.19648	0.071663	0.07641	0.088833	0.021242	0.18844	0.067731	0.11112	0.097221	0.12115	0.30123	0.11069	0.033784	0.16971	0.028959	-3.9021	-4.8521	-3.8771	-4.6438	-4.6375	-3.8729	-4.9479	-4.3229	-4.1458	-4.9667	-4.0083	-4.5437	-4.8375	-3.9896	-4.8042	-4.4187	5.379	-1.456	-38.612	118.120	-29.324	95.325	185.127	3.621	97.016	240.492	216.936	42.507	-18.501	96.265	182.960	268.773	0.00022582	0.00023571	0.00010726	488.71	4.1133e-06	1.5509e-06	736.51	150.35	7.2683e-06	5.8986e-06	295.66	109.34	47.61	17.19	1.2834e-06	43.103	0.00037405	0.00037421	0.00010438	506.92	4.0726e-06	4.0884e-06	733.7	155.3	4.0409e-06	4.0149e-06	291.45	107.69	51.497	18.311	3.9927e-06	42.091	206.413	59.086	-14.896	-30.453	172.276	-28.792	-30.104	-25.413	129.358	28.890	-26.489	-21.732	-21.588	-18.156	-31.434	-18.584	-8191	255	
4958.293	1	1	0	0	0.1184	0.026909	0.055767	0.27847	0.06734	0.16685	0.023545	0.18519	0.24068	0.17773	0.09074	0.10181	0.22712	0.062374	0.098331	0.3714	-3.7542	-4.8667	-4.0667	-4.4125	-4.7333	-3.9042	-4.9229	-4.4688	-4.025	-4.8812	-4.2667	-4.3396	-4.9146	-3.9729	-4.5208	-4.5583	-10.740	208.351	30.143	304.798	11.120	282.478	194.206	-36.672	132.781	219.604	44.155	154.014	39.745	39.314	-18.196	274.526	0.00019919	0.00041911	0.00012201	490.99	1.7579e-06	3.5726e-06	742.29	150.45	3.6997e-06	4.9849e-06	296.88	109.78	47.295	17.004	2.2291e-06	43.287	0.00036867	0.00037099	0.00010292	510.53	4.0475e-06	4.116e-06	737.71	156.52	4.1287e-06	4.0784e-06	292.6	108.01	51.671	18.289	4.0684e-06	42.197	186.561	82.124	28.459	-30.123	274.871	0.782	-30.108	-25.283	105.960	266.908	-26.174	-21.320	-20.814	-18.251	61.562	-19.007	-8191	255	
4958.364	1	1	0	0	0.08081	0.071953	0.077596	0.20572	0.24755	0.12026	0.21715	0.13712	0.097239	0.035236	0.33306	0.078372	0.13686	0.19287	0.082339	0.16775	-3.7333	-4.9437	-4.0813	-4.3521	-4.7917	-4.0875	-4.7708	-4.6292	-3.9792	-4.9292	-4.3458	-4.15	-4.8875	-3.9729	-4.5708	-4.7042	302.918	53.823	303.818	314.346	106.617	67.089	245.764	-42.894	206.852	248.521	87.265	295.007	93.991	137.088	49.487	190.628	0.00016034	0.00011046	0.00017689	490.83	7.5448e-06	4.0804e-06	749.02	150.88	4.4816e-06	8.5858e-07	299	110.3	47.748	17.378	8.034e-06	43.728	0.00037243	0.00037248	0.00010454	514.08	4.0606e-06	4.1319e-06	746.49	157.38	4.0883e-06	4.0999e-06	294.23	108.53	51.818	18.417	4.1195e-06	42.643	194.845	81.135	114.512	-30.113	23.877	-1.886	-30.058	-25.654	148.397	-10.793	-26.223	-21.389	-21.311	-17.863	159.010	-18.563	-8191	255	
4958.461	1	1	0	0	0.1481	0.15297	0.17362	0.07189	0.19299	0.090847	0.014372	0.22559	0.064387	0.21674	0.068876	0.24408	0.14167	0.13749	0.19305	0.16103	-3.4729	-4.8063	-4.3708	-4.1562	-4.7875	-4.025	-4.5667	-4.6625	-3.8396	-4.9208	-4.3396	-4.0479	-4.7771	-4.0854	-4.3187	-4.8542	183.003	181.061	-1.765	-26.818	42.197	111.120	145.812	251.705	210.302	-3.553	131.374	304.359	196.192	104.650	225.688	55.874	8.5397e-05	0.0002642	0.00011087	493.85	1.9339e-06	8.3038e-06	741.66	150.27	1.5202e-06	3.8274e-06	294.26	108.85	46.769	17.066	5.5198e-06	42.983	0.00037718	0.00037799	0.00010576	515.02	4.1431e-06	4.1442e-06	741.18	156.35	4.1973e-06	4.1559e-06	291.15	107.34	51.177	18.241	4.2233e-06	42.058	180.760	19.513	9.755	-30.095	-0.299	27.696	-29.917	-25.744	255.192	151.178	-26.283	-21.536	-21.168	-18.746	305.766	-19.054	-8191	255	
4958.557	1	1	0	0	0.23046	0.25053	0.032573	0.075818	0.14833	0.15457	0.28968	0.063268	0.23441	0.19571	0.24967	0.049908	0.053432	0.2238	0.21323	0.16429	-3.6792	-4.6917	-4.4792	-4.0229	-4.8875	-4.175	-4.3875	-4.8708	-3.8187	-4.6854	-4.4812	-3.9229	-4.9625	-4.1583	-4.2979	-4.8417	85.823	306.641	60.661	249.845	229.262	1.534	264.969	-23.579	92.876	310.361	268.583	303.495	-1.568	267.425	150.924	276.047	0.0001863	0.00022988	0.00010105	486.18	7.6483e-06	1.6825e-06	739.12	149.23	3.685e-06	3.2989e-06	292.51	107.52	46.337	16.936	3.0351e-06	42.917	0.00038454	0.00039151	0.00010874	512.16	4.2743e-06	4.3114e-06	737.35	155.66	4.2014e-06	4.2182e-06	289.42	106.59	50.991	18.121	4.1795e-06	41.836	217.535	275.009	271.111	-30.483	58.462	8.031	-29.930	-25.661	210.948	102.360	-26.245	-21.485	-20.988	-18.050	187.164	-18.649	-8191	255	
4958.677	1	1	0	0	0.15063	0.079955	0.24624	0.02235	0.13578	0.12707	0.12413	0.10316	0.17327	0.046231	0.093004	0.17987	0.27196	0.25078	0.17712	0.19765	-3.6854	-4.5729	-4.6021	-4.0375	-4.8958	-4.3208	-4.2854	-4.9583	-3.8583	-4.7167	-4.6854	-3.9917	-4.8812	-4.4042	-4.1208	-5.0208	171.472	-3.216	119.878	167.646	82.714	193.169	298.682	85.851	-1.751	-38.366	309.817	274.274	-23.215	236.991	107.882	204.754	0.00016222	0.00016485	5.1905e-05	488.91	3.8196e-06	6.0475e-06	743.46	150.92	4.1864e-06	4.1711e-06	294.82	107.51	46.831	16.942	5.5646e-06	42.838	0.00038489	0.00038302	0.00010733	514.35	4.2443e-06	4.2544e-06	742.99	156.4	4.2496e-06	4.235e-06	291.33	106.55	51.183	18.204	4.2971e-06	41.949	209.934	182.329	-31.782	-30.423	134.856	273.677	-29.714	-25.602	110.115	17.250	-25.762	-21.681	-21.519	-17.657	47.497	-18.663	-8191	255	
4958.774	1	1	0	0	0.15617	0.21364	0.10478	0.25013	0.17375	0.10806	0.1708	0.03455	0.058533	0.15346	0.179	0.24255	0.13367	0.17757	0.1399	0.072555	-3.7458	-4.5542	-4.6479	-3.95	-4.8292	-4.5625	-4.2542	-4.8146	-4.1167	-4.4667	-4.8292	-4.025	-4.9688	-4.6042	-3.9458	-4.8771	239.692	34.218	35.903	276.043	-41.656	-5.424	238.481	-27.914	224.395	70.388	82.335	187.076	305.850	81.296	263.588	277.358	0.0002573	8.3643e-05	0.00015879	497.9	5.3883e-06	9.6484e-07	753.29	150.6	4.8305e-06	8.3983e-07	301.07	108.47	48.322	17.096	3.6958e-06	43.169	0.00039092	0.00039355	0.00011052	520.82	4.3597e-06	4.3575e-06	750.44	158.74	4.3939e-06	4.3795e-06	295.12	107.82	52.265	18.414	4.3733e-06	42.409	217.274	-0.971	-17.022	-30.545	120.756	84.071	-30.365	-25.683	46.178	200.332	-26.240	-21.558	-21.505	-17.881	-4.864	-19.139	-8191	255	
4958.870	1	1	0	0	0.158	0.06318	0.083237	0.068533	0.082462	0.060023	0.097905	0.21162	0.083217	0.16819	0.1439	0.12745	0.1652	0.2026	0.13773	0.086016	-3.8667	-4.2854	-4.9167	-4.0563	-4.6813	-4.6854	-4.2021	-4.8958	-4.2792	-4.1125	-4.8729	-4.0229	-4.5229	-4.7688	-4.0229	-4.8187	122.877	139.162	218.866	201.895	243.173	-25.388	171.104	-11.601	106.643	251.558	259.705	180.081	134.527	211.187	310.943	85.291	0.00012228	0.00022107	0.00022706	491.53	6.2826e-06	5.1693e-06	742.2	149.65	2.1847e-06	5.328e-06	293.52	107.39	47.132	16.715	2.0212e-06	42.189	0.00039896	0.00039922	0.00011164	518.3	4.3613e-06	4.3934e-06	743.49	157.27	4.4011e-06	4.3902e-06	291.86	106.87	51.959	18.085	4.4211e-06	41.395	218.566	195.827	71.887	-30.248	22.746	52.592	-30.077	-25.569	6.231	24.906	-26.122	-21.540	-21.708	-18.131	315.566	-19.056	-8191	255	
4958.964	1	1	0	0	0.18631	0.1316	0.2257	0.27695	0.23481	0.2675	0.18637	0.259	0.15287	0.18854	0.1611	0.24102	0.046104	0.1609	0.29118	0.10403	-3.9062	-4.1021	-4.8354	-4.0333	-4.5792	-4.7188	-4.0375	-4.9083	-4.4313	-4.3417	-4.9812	-4.2438	-4.45	-4.7896	-3.9958	-4.9021	299.274	19.137	159.531	228.992	-27.399	129.259	202.709	298.492	88.062	3.336	62.599	266.160	233.321	120.539	150.654	214.934	0.00016277	0.00036521	0.0001028	486.46	1.502e-06	7.6021e-06	735.32	150.61	6.7958e-06	5.91e-06	295.94	109.67	48.041	16.988	2.2607e-06	43.191	0.00040349	0.00040387	0.00011278	513.05	4.3782e-06	4.4353e-06	734.73	156.95	4.4098e-06	4.4007e-06	292.79	108.63	52.475	18.349	4.4251e-06	42.289	199.471	152.843	53.963	-30.387	20.435	16.415	-30.143	-25.606	-16.336	62.274	-26.568	-21.145	-21.430	-18.113	65.632	-18.847	-8191	255	
4959.060	1	1	0	0	0.10755	0.073616	0.061153	0.18075	0.18472	0.077002	0.1919	0.11983	0.12831	0.1153	0.023157	0.22888	0.031223	0.18419	0.20195	0.034452	-4.2063	-4.0271	-4.8125	-4.0021	-4.3313	-4.7562	-3.9458	-4.7521	-4.4167	-4.0375	-4.9542	-4.2188	-4.3521	-4.8812	-3.9292	-4.6604	229.748	31.607	165.145	152.567	298.761	171.439	236.972	217.674	175.503	161.151	114.350	13.932	237.544	245.129	238.469	123.155	0.00018705	0.00044688	2.9876e-05	488.21	5.8688e-06	3.7896e-06	742.06	151.93	2.7549e-06	3.441e-06	297.35	110.07	48.335	17.281	3.0574e-06	43.303	0.00040504	0.00040428	0.00011263	515.05	4.4652e-06	4.4819e-06	741.84	159.71	4.553e-06	4.5645e-06	295.81	109.62	53.299	18.561	4.5828e-06	42.63	217.758	90.250	-36.286	-30.576	50.192	225.310	-29.867	-25.635	141.639	91.442	-26.291	-21.465	-21.423	-17.756	151.563	-18.865	-8191	255	
4959.156	1	1	0	0	0.0892	0.10229	0.097675	0.11653	0.20662	0.066324	0.24708	0.16017	0.078327	0.23618	0.23871	0.26715	0.28062	0.30153	0.311	0.062322	-4.3146	-3.9375	-4.9521	-4.4146	-4.2229	-5.0062	-3.9917	-4.6125	-4.7708	-4.0021	-4.9021	-4.4167	-4.1521	-5.0188	-4.0479	-4.4771	53.358	52.658	78.528	294.974	47.928	241.314	278.672	263.190	161.982	315.239	292.133	296.818	201.519	81.725	-23.572	68.175	0.00025597	0.00011086	0.00016192	493.61	4.8975e-06	3.2341e-06	747.63	153.84	7.3617e-06	3.5266e-06	303.55	111.89	50.041	17.556	2.6326e-06	43.638	0.00041283	0.00041447	0.00011504	521.69	4.5195e-06	4.4906e-06	747.35	160.94	4.4972e-06	4.5155e-06	299.4	111.01	54.183	18.758	4.4824e-06	42.89	193.828	309.322	1.104	-30.437	70.431	-41.694	-30.216	-25.484	62.581	258.385	-26.017	-21.187	-21.695	-18.183	75.107	-19.108	-8191	255	
4959.277	1	1	0	0	0.051741	0.2742	0.27859	0.052497	0.077053	0.25161	0.29487	0.13805	0.16173	0.12874	0.10107	0.10245	0.17427	0.073919	0.13711	0.35108	-4.4417	-3.9	-4.7792	-4.4271	-3.9437	-4.925	-4.075	-4.4229	-4.6854	-3.8708	-4.9313	-4.5729	-3.9896	-4.7812	-4.1646	-4.3771	3.343	32.363	96.526	44.030	86.581	36.917	27.956	-24.087	57.542	-11.506	265.454	100.535	18.667	-10.638	25.204	307.785	0.00019151	0.00050811	0.00018532	491.48	3.0387e-06	6.7698e-06	738.75	152.33	5.9322e-06	3.3471e-06	297.25	109.65	48.616	16.994	7.1256e-06	43.078	0.00041059	0.00041281	0.00011508	519.06	4.5046e-06	4.4841e-06	742.39	159.64	4.4698e-06	4.44e-06	295.54	109.19	53.304	18.406	4.433e-06	42.245	189.679	53.445	295.075	-30.463	179.935	-32.700	-29.816	-25.452	102.131	128.777	-25.950	-21.677	-21.564	-18.030	204.832	-19.002	-8191	255	
4959.373	1	1	0	0	0.12597	0.047696	0.156	0.23745	0.079084	0.12407	0.15523	0.17225	0.020122	0.21175	0.1274	0.17841	0.062255	0.1138	0.11073	0.16442	-4.5292	-3.9667	-4.6208	-4.5792	-3.9521	-4.7479	-4.2312	-4.2896	-4.9083	-3.9771	-4.7521	-4.7937	-4.1	-4.9125	-4.1937	-4.2292	78.289	84.613	107.984	17.268	137.949	164.290	69.625	50.605	170.569	37.553	311.903	27.147	158.585	291.926	171.203	166.555	0.00016012	0.0002742	0.00013876	488.32	5.3251e-06	4.8908e-06	736.76	152.68	2.4559e-06	2.3515e-06	298.97	111.2	49.371	17.275	8.9102e-07	43.374	0.00040548	0.00040996	0.00011424	517.62	4.4218e-06	4.3963e-06	740.75	159.5	4.4149e-06	4.4184e-06	296.52	109.95	53.37	18.568	4.3853e-06	42.534	248.316	34.891	106.672	-30.662	67.191	123.627	-29.681	-25.563	37.599	162.501	-26.305	-21.169	-21.223	-18.278	89.396	-18.812	-8191	255	
4959.469	1	1	0	0	0.15399	0.096118	0.10411	0.24867	0.26224	0.11865	0.16791	0.058266	0.16337	0.099055	0.13116	0.13627	0.12746	0.076088	0.28656	0.26174	-4.5188	-3.9521	-4.5792	-4.7063	-3.8083	-4.9479	-4.3917	-4.2083	-4.8479	-4.0771	-4.4938	-4.7896	-4.05	-4.9729	-4.4396	-4.0271	46.473	50.808	266.792	104.577	262.823	82.378	215.450	66.264	19.987	296.118	208.404	138.248	241.483	262.859	27.762	280.781	8.8285e-05	0.00037854	0.00013327	493.54	4.8066e-06	5.7116e-06	745.12	153.92	3.0545e-06	5.3953e-06	300.31	112.36	49.155	17.661	4.505e-06	44.011	0.00039855	0.00040435	0.00011196	519.11	4.38e-06	4.3401e-06	746.62	160.29	4.344e-06	4.3713e-06	297.86	110.92	53.668	18.741	4.3207e-06	42.998	208.841	-3.140	-20.922	-29.908	166.088	166.104	-29.898	-25.686	5.992	62.889	-26.010	-21.475	-21.060	-17.491	134.539	-18.737	-8191	255	
4959.541	1	1	0	0	0.10949	0.17555	0.15394	0.18328	0.07292	0.10531	0.089018	0.1348	0.14375	0.2081	0.21913	0.10633	0.12513	0.099449	0.20675	0.14045	-4.5938	-4.2104	-4.2667	-4.9417	-3.9479	-4.7083	-4.4688	-3.8792	-4.8333	-4.0583	-4.3667	-4.6146	-3.9479	-4.4458	-4.4583	-4.0021	108.245	101.851	-43.739	-4.280	68.249	222.782	24.435	300.797	299.013	70.468	260.849	289.924	294.244	-1.090	189.999	242.087	0.00027184	0.00019945	0.00010995	498.66	6.0709e-06	4.4762e-06	753.85	156.03	3.8762e-06	9.1101e-06	304.37	112.68	49.557	17.6	4.7428e-06	43.769	0.00039098	0.00039979	0.0001107	522.56	4.3651e-06	4.3102e-06	752.76	161.97	4.3095e-06	4.2983e-06	300.82	111.29	53.736	18.788	4.3005e-06	42.945	194.469	187.997	58.697	-30.647	108.556	104.319	-30.113	-25.822	78.109	30.107	-25.847	-21.778	-21.474	-17.859	124.655	-18.841	-8191	255	
4959.662	1	1	0	0	0.16756	0.18536	0.083882	0.16544	0.18971	0.18123	0.079776	0.069062	0.19711	0.10679	0.1894	0.23196	0.091717	0.15667	0.21756	0.023456	-4.3438	-4.075	-4.1667	-4.6833	-3.8625	-4.4938	-4.6062	-3.8896	-4.6667	-4.0792	-4.2083	-4.7417	-3.9771	-4.2688	-4.4917	-3.9583	292.871	304.543	249.736	256.974	-5.897	215.801	80.354	62.517	290.006	129.885	289.871	275.198	116.099	224.349	52.681	291.982	8.6701e-05	0.00032632	3.8037e-05	497.39	5.9111e-06	4.7084e-06	745.37	153.22	3.5085e-06	5.1629e-06	296.95	110.1	48.34	17.221	2.1293e-06	42.463	0.00038914	0.00039405	0.00010939	521.14	4.2526e-06	4.2985e-06	744.25	159.42	4.2326e-06	4.2305e-06	294.05	108.67	52.406	18.296	4.2478e-06	41.678	176.646	127.100	91.538	-30.482	196.856	154.319	-30.401	-25.673	226.884	171.333	-26.257	-21.528	-21.700	-17.798	265.982	-18.653	-8191	255	
4959.758	1	1	0	0	0.14425	0.13608	0.18149	0.059891	0.19377	0.21491	0.28636	0.23361	0.18664	0.07943	0.10623	0.11559	0.13545	0.08632	0.102	0.23583	-4.4437	-4.0333	-4.1062	-4.8625	-3.9104	-4.3917	-4.7396	-3.8708	-4.575	-4.1354	-4.075	-4.8083	-4.1646	-4.2521	-4.6479	-3.925	-16.956	-24.725	-18.972	272.350	201.132	2.852	19.481	283.838	193.795	256.834	-5.962	237.088	46.009	233.004	71.704	-19.429	0.00018352	0.00051783	0.00013691	488.27	5.908e-07	7.5453e-06	741.42	150.52	1.0114e-06	1.3995e-06	297.9	110.97	48.601	17.05	1.5836e-06	42.882	0.00038291	0.00038755	0.00010765	513.4	4.2576e-06	4.2396e-06	741.32	158.04	4.2478e-06	4.2739e-06	294.53	108.9	52.714	18.285	4.2835e-06	41.934	206.105	2.033	15.414	-30.261	192.801	20.320	-30.031	-25.661	140.894	-0.421	-26.293	-21.433	-21.405	-18.089	187.631	-19.010	-8191	255	
#DATA ENDS
