BOXY.EXE: ISS Imagent and Oximeter Data Acquisition Program Version 0.80
Ascii Record File

#ACQ INFORMATION
2  Detector Channels 
16  External MUX Channels 
1  Auxiliary Channels 
5000  Waveform (CCF) Frequency (Hz)
1  Waveforms Skipped 
30  Waveforms Averaged 
1  Cycles Averaged 
16  Acquisitions per Waveform 
10.0806  Updata Rate (Hz) 

#FILE INFORMATION
TRUE -- External MUX Channel results are PARSED.
FALSE -- AC DC and Phase are NOT grouped.
TRUE -- Companion Program Settings File CREATED.
FALSE -- AC data not excluded
FALSE -- DC data not excluded
FALSE -- Phase data not excluded
FALSE -- Auxillary Chn. data not excluded
Tab delimiters

#CALIBRATION STATE
TRUE -- Waveform Calibration Values APPLIED.


#AUX CALIBRATION VALUES
Val Type	aux-1	

Term	1.0000e+00	
Factor	0.0000e+00	


#WF CALIBRATION VALUES
A = Detector Channel
Val Type	A-AC1	A-AC2	A-AC3	A-AC4	A-AC5	A-AC6	A-AC7	A-AC8	A-AC9	A-AC10	A-AC11	A-AC12	A-AC13	A-AC14	A-AC15	A-AC16	A-DC1	A-DC2	A-DC3	A-DC4	A-DC5	A-DC6	A-DC7	A-DC8	A-DC9	A-DC10	A-DC11	A-DC12	A-DC13	A-DC14	A-DC15	A-DC16	A-Ph1	A-Ph2	A-Ph3	A-Ph4	A-Ph5	A-Ph6	A-Ph7	A-Ph8	A-Ph9	A-Ph10	A-Ph11	A-Ph12	A-Ph13	A-Ph14	A-Ph15	A-Ph16	

Term	0.00000e+00	0.00000e+00	0.00000e+00	0.00000e+00	0.00000e+00	0.00000e+00	0.00000e+00	0.00000e+00	0.00000e+00	0.00000e+00	0.00000e+00	0.00000e+00	0.00000e+00	0.00000e+00	0.00000e+00	0.00000e+00	0.00000e+00	0.00000e+00	0.00000e+00	0.00000e+00	0.00000e+00	0.00000e+00	0.00000e+00	0.00000e+00	0.00000e+00	0.00000e+00	0.00000e+00	0.00000e+00	0.00000e+00	0.00000e+00	0.00000e+00	0.00000e+00	0.00000e+00	0.00000e+00	0.00000e+00	0.00000e+00	0.00000e+00	0.00000e+00	0.00000e+00	0.00000e+00	0.00000e+00	0.00000e+00	0.00000e+00	0.00000e+00	0.00000e+00	0.00000e+00	0.00000e+00	0.00000e+00	
Factor	1.00000e+00	1.00000e+00	1.00000e+00	1.00000e+00	1.00000e+00	1.00000e+00	1.00000e+00	1.00000e+00	1.00000e+00	1.00000e+00	1.00000e+00	1.00000e+00	1.00000e+00	1.00000e+00	1.00000e+00	1.00000e+00	1.00000e+00	1.00000e+00	1.00000e+00	1.00000e+00	1.00000e+00	1.00000e+00	1.00000e+00	1.00000e+00	1.00000e+00	1.00000e+00	1.00000e+00	1.00000e+00	1.00000e+00	1.00000e+00	1.00000e+00	1.00000e+00	X	X	X	X	X	X	X	X	X	X	X	X	X	X	X	X	

B = Detector Channel
Val Type	B-AC1	B-AC2	B-AC3	B-AC4	B-AC5	B-AC6	B-AC7	B-AC8	B-AC9	B-AC10	B-AC11	B-AC12	B-AC13	B-AC14	B-AC15	B-AC16	B-DC1	B-DC2	B-DC3	B-DC4	B-DC5	B-DC6	B-DC7	B-DC8	B-DC9	B-DC10	B-DC11	B-DC12	B-DC13	B-DC14	B-DC15	B-DC16	B-Ph1	B-Ph2	B-Ph3	B-Ph4	B-Ph5	B-Ph6	B-Ph7	B-Ph8	B-Ph9	B-Ph10	B-Ph11	B-Ph12	B-Ph13	B-Ph14	B-Ph15	B-Ph16	

Term	0.00000e+00	0.00000e+00	0.00000e+00	0.00000e+00	0.00000e+00	0.00000e+00	0.00000e+00	0.00000e+00	0.00000e+00	0.00000e+00	0.00000e+00	0.00000e+00	0.00000e+00	0.00000e+00	0.00000e+00	0.00000e+00	0.00000e+00	0.00000e+00	0.00000e+00	0.00000e+00	0.00000e+00	0.00000e+00	0.00000e+00	0.00000e+00	0.00000e+00	0.00000e+00	0.00000e+00	0.00000e+00	0.00000e+00	0.00000e+00	0.00000e+00	0.00000e+00	-2.51673e+01	-1.09131e+02	-1.36792e+02	-1.83698e+02	-1.38176e+01	-7.28325e+01	-1.57869e+02	-1.62015e+02	-6.96302e+01	-9.69870e+01	-1.72092e+02	-1.75791e+02	-1.89181e+02	-1.78194e+02	-7.65473e+01	-1.51485e+02	
Factor	2.82887e-05	9.62443e-05	2.62348e-05	1.61568e-01	9.06967e-07	1.03337e-06	1.67683e-01	6.49704e-02	1.10886e-06	1.02177e-06	1.02924e-01	3.36800e-02	8.03786e-02	9.68118e-03	9.66469e-07	1.40111e-02	7.08911e-07	7.21329e-07	2.01149e-07	7.90580e-02	7.90081e-09	7.90084e-09	7.70976e-02	3.12878e-02	7.89045e-09	7.89930e-09	4.70277e-02	1.53915e-02	3.30660e-02	4.62330e-03	7.91615e-09	6.40668e-03	X	X	X	X	X	X	X	X	X	X	X	X	X	X	X	X	



#DISTANCE SETTINGS
A = Detector Channel
A-1	A-2	A-3	A-4	A-5	A-6	A-7	A-8	A-9	A-10	A-11	A-12	A-13	A-14	A-15	A-16	

2.5000e+00	3.0000e+00	2.5000e+00	3.0000e+00	2.0000e+00	3.0000e+00	1.5000e+00	3.0000e+00	3.0000e+00	3.0000e+00	3.0000e+00	3.0000e+00	3.0000e+00	3.0000e+00	1.5000e+00	3.0000e+00	

B = Detector Channel
B-1	B-2	B-3	B-4	B-5	B-6	B-7	B-8	B-9	B-10	B-11	B-12	B-13	B-14	B-15	B-16	

1.0000e+01	1.0000e+01	1.0000e+01	1.4400e+00	1.0000e+01	1.0000e+01	1.5100e+00	1.9400e+00	1.0000e+01	1.0000e+01	1.9900e+00	2.4900e+00	2.4100e+00	2.9000e+00	1.0000e+01	2.9800e+00	




#DATA BEGINS
time	group	step	mark	flag	A-AC1	A-AC2	A-AC3	A-AC4	A-AC5	A-AC6	A-AC7	A-AC8	A-AC9	A-AC10	A-AC11	A-AC12	A-AC13	A-AC14	A-AC15	A-AC16	A-DC1	A-DC2	A-DC3	A-DC4	A-DC5	A-DC6	A-DC7	A-DC8	A-DC9	A-DC10	A-DC11	A-DC12	A-DC13	A-DC14	A-DC15	A-DC16	A-Ph1	A-Ph2	A-Ph3	A-Ph4	A-Ph5	A-Ph6	A-Ph7	A-Ph8	A-Ph9	A-Ph10	A-Ph11	A-Ph12	A-Ph13	A-Ph14	A-Ph15	A-Ph16	B-AC1	B-AC2	B-AC3	B-AC4	B-AC5	B-AC6	B-AC7	B-AC8	B-AC9	B-AC10	B-AC11	B-AC12	B-AC13	B-AC14	B-AC15	B-AC16	B-DC1	B-DC2	B-DC3	B-DC4	B-DC5	B-DC6	B-DC7	B-DC8	B-DC9	B-DC10	B-DC11	B-DC12	B-DC13	B-DC14	B-DC15	B-DC16	B-Ph1	B-Ph2	B-Ph3	B-Ph4	B-Ph5	B-Ph6	B-Ph7	B-Ph8	B-Ph9	B-Ph10	B-Ph11	B-Ph12	B-Ph13	B-Ph14	B-Ph15	B-Ph16	aux-1	digaux	

4164.683	1	1	0	768	0.19436	0.19866	0.18437	0.37609	0.22575	0.14954	0.29703	0.21342	0.20157	0.23175	0.18861	0.022119	0.25673	0.40508	0.17772	0.25082	-2.2646	-2.2375	-2.9125	-2.5687	-2.3729	-3.0667	-2.4542	-2.9729	-2.7792	-2.2313	-2.9958	-2.6958	-2.4208	-3.1604	-2.25	-2.5167	180.152	199.105	-48.578	163.050	143.608	-89.865	108.697	185.229	57.460	117.359	118.450	141.700	-85.367	197.489	142.155	-54.553	0.00075443	0.0026416	0.00072597	793.6	5.5975e-06	1.9082e-05	847.86	316.2	1.4545e-05	2.1483e-05	401.88	179.41	137.07	66.636	2.3009e-05	83.001	0.0029203	0.0032081	0.00096084	1052.5	3.0953e-05	3.5861e-05	1120.4	407.66	3.1414e-05	3.5637e-05	560.16	219.73	230.51	79.584	3.458e-05	96.551	-56.470	151.542	-37.518	-117.047	-21.376	185.110	-117.668	-112.913	-107.965	208.864	-114.153	-110.488	-108.588	-103.373	18.448	-106.478	-8191	255	
4164.779	1	1	0	0	0.076499	0.02867	0.088071	0.29693	0.097886	0.31824	0.34115	0.040094	0.14633	0.17451	0.13429	0.32352	0.29737	0.2361	0.095986	0.067359	-2.3208	-2.1604	-2.8146	-2.4833	-2.2771	-2.9708	-2.3187	-2.7021	-2.7958	-2.2917	-2.725	-2.5854	-2.2375	-3.2021	-2.2917	-2.6958	-74.577	16.766	5.290	144.946	156.436	99.089	168.532	-43.696	210.410	125.688	161.142	199.883	192.276	141.389	-61.378	-76.111	0.00062301	0.0021764	0.00048579	789.52	1.5262e-05	2.5798e-05	840.27	313.03	6.9854e-06	2.2386e-05	397.08	178.75	134.58	67.141	3.0624e-05	83.556	0.0027305	0.0031687	0.00084085	1015	2.9289e-05	3.4546e-05	1067	391.64	2.9715e-05	3.4131e-05	525.93	212.74	225.8	78.68	3.0472e-05	94.938	-87.746	161.915	-92.324	-116.934	-120.092	2.801	-117.367	-112.533	-92.461	145.183	-114.319	-110.209	-108.484	-103.265	-9.089	-106.430	-8191	255	
4164.873	1	1	0	0	0.036957	0.099229	0.055436	0.26288	0.11068	0.19635	0.25884	0.13899	0.1403	0.17218	0.22844	0.11722	0.026971	0.022124	0.26603	0.36347	-2.5396	-2.2104	-2.9333	-2.7292	-2.1021	-2.9708	-2.5229	-2.5646	-2.8667	-2.4917	-2.7917	-2.9125	-2.0729	-3.3458	-2.3812	-2.6542	-111.330	134.404	133.928	127.546	-70.301	134.094	88.144	209.581	211.016	-32.593	69.283	23.101	57.261	28.871	189.412	194.699	0.0014233	0.0016067	0.000282	785.91	1.2556e-05	1.8129e-05	834.61	312.07	2.3773e-05	1.1842e-05	395.03	179.95	137.59	67.779	2.1713e-05	83.967	0.0026805	0.0030268	0.00074814	987.98	2.9547e-05	3.267e-05	1035.8	382.1	3.0154e-05	3.2222e-05	512.3	210.74	231.75	78.079	2.8806e-05	94.752	-68.291	-33.295	-78.335	-116.577	-118.893	64.382	-117.861	-112.288	208.210	-4.678	-114.432	-110.400	-108.349	-103.377	81.760	-106.252	-8191	255	
4164.971	1	1	0	0	0.16175	0.1817	0.21707	0.19685	0.22436	0.17214	0.28695	0.29692	0.19427	0.21094	0.29215	0.18025	0.27032	0.066499	0.036255	0.17489	-2.5229	-2.1042	-2.6042	-2.6625	-2.2062	-2.9708	-2.65	-2.3021	-2.9146	-2.275	-2.7271	-2.875	-2.1437	-2.9354	-2.4833	-2.4833	54.378	120.623	182.793	169.939	38.875	-19.250	-125.577	151.086	-115.016	3.573	-26.117	163.262	177.414	222.882	161.953	-90.660	0.0011004	0.0025085	0.00045963	792.18	7.7274e-06	2.2924e-05	836.09	313.78	3.0332e-05	2.1135e-05	399.23	180.01	136.13	67.238	1.8327e-05	82.31	0.002816	0.0029091	0.00071806	987.14	3.1529e-05	3.1273e-05	1032.8	385.71	3.232e-05	3.1292e-05	512.27	212.06	241.38	76.738	2.8569e-05	94.237	-80.029	-15.308	-61.143	-116.983	33.541	16.622	-117.842	-112.747	-104.619	64.094	-114.583	-110.517	-108.770	-103.548	-64.841	-106.666	-8191	255	
4165.066	1	1	0	0	0.20591	0.18707	0.17286	0.26012	0.34169	0.07095	0.10564	0.032001	0.281	0.17062	0.24006	0.07023	0.21894	0.15155	0.056232	0.09774	-2.6542	-2.2479	-2.6542	-2.8896	-2.0812	-2.8521	-2.8333	-2.3312	-2.9979	-2.3458	-2.4833	-2.9229	-2.4062	-2.8667	-2.725	-2.3812	174.281	164.257	-82.000	43.546	33.823	-58.727	156.887	-94.653	116.024	-95.070	-127.808	228.605	223.651	-119.205	-11.738	140.099	0.0011545	0.0027295	0.00027136	789.63	4.849e-06	2.2809e-05	839.85	314.02	1.8944e-05	2.6203e-05	401.3	179.3	138.91	67.237	1.8065e-05	83.546	0.0029774	0.002802	0.00071014	1003.8	3.3372e-05	3.0085e-05	1033.5	394.98	3.3457e-05	3.0079e-05	509.85	216.33	243.26	76.114	2.7964e-05	97.131	-43.785	-31.814	-87.251	-117.253	21.181	-12.439	-117.691	-112.871	50.347	44.856	-114.567	-110.583	-107.665	-103.897	-9.140	-106.634	-8191	255	
4165.162	1	1	0	0	0.041685	0.088107	0.11856	0.18704	0.092074	0.42759	0.023233	0.36114	0.11032	0.13489	0.30236	0.17755	0.14763	0.25603	0.12641	0.069822	-2.7438	-2.4708	-2.4979	-2.9938	-2.1708	-2.7313	-2.9146	-2.2479	-3.0542	-2.625	-2.5958	-3.0521	-2.2604	-2.8812	-2.8688	-2.3208	135.669	172.380	196.505	170.225	-36.957	26.139	155.651	213.945	49.219	-91.072	188.496	-65.389	-116.468	-95.202	82.791	39.392	0.00062156	0.00041776	0.00026526	797.98	1.9198e-05	3.0907e-05	848.55	321.55	1.9639e-05	1.5418e-05	410.49	184.31	141.4	68.196	1.8897e-05	84.647	0.0029616	0.002683	0.00070034	1029.7	3.2458e-05	2.8977e-05	1035.4	409.05	3.1773e-05	2.8901e-05	516.06	222.62	239.34	76.381	2.7812e-05	99.734	-9.708	166.894	-41.559	-117.488	102.038	-0.412	-118.038	-112.727	56.067	0.888	-114.915	-110.356	-108.056	-103.600	-84.233	-106.480	-8191	255	
4165.282	1	1	0	0	0.26646	0.17181	0.19275	0.0038559	0.22006	0.052005	0.41492	0.34875	0.075976	0.3771	0.15841	0.021671	0.05749	0.083151	0.15771	0.35629	-2.5896	-2.6167	-2.2896	-3.1083	-2.3708	-2.5896	-2.8854	-2.2687	-3.0604	-2.6604	-2.3333	-3.0229	-2.4062	-2.65	-2.9417	-2.4562	208.278	-88.284	184.888	150.515	78.072	159.229	-110.259	143.094	124.106	-39.769	166.162	-4.437	-70.045	108.549	-120.777	166.819	0.0007644	0.0011724	0.00032133	796.54	1.8813e-05	1.4328e-05	853.4	323.83	4.1525e-05	1.7292e-05	408.56	184.92	140.38	68.59	2.1085e-05	86.277	0.0027868	0.0025902	0.00070238	1043.6	3.0449e-05	2.775e-05	1041.9	413.72	2.9563e-05	2.7704e-05	518.94	224.08	229.21	75.809	2.851e-05	100.6	-32.814	174.429	227.157	-117.229	114.660	4.709	-118.212	-112.402	15.886	-59.196	-114.823	-110.638	-108.106	-103.172	-110.403	-106.307	-8191	255	
4165.379	1	1	0	0	0.19074	0.17511	0.21053	0.19603	0.13282	0.10567	0.10085	0.3379	0.22648	0.13169	0.078989	0.18909	0.23783	0.26115	0.14885	0.29669	-2.4854	-2.625	-2.2104	-2.9729	-2.3083	-2.3917	-2.9646	-2.2875	-2.8187	-2.7417	-2.3875	-2.9562	-2.4271	-2.5	-2.7854	-2.1771	57.718	76.318	126.838	184.845	223.355	97.990	200.919	228.358	170.448	-50.515	117.992	-125.923	94.828	212.478	69.119	156.797	0.00037928	0.00088711	0.00086252	797.78	3.2777e-06	1.6199e-05	846	314.37	1.111e-05	1.2602e-05	392.61	181.37	138.84	66.444	1.5943e-05	82.395	0.0025723	0.0024851	0.00073128	1034.1	2.8535e-05	2.6692e-05	1046.7	403.93	2.7926e-05	2.6915e-05	518.91	217.72	222.43	73.772	3.0309e-05	96.584	-24.993	57.718	167.292	-117.009	-3.946	43.022	-118.248	-112.191	100.305	53.618	-115.090	-110.372	-108.303	-103.586	-109.135	-106.276	-8191	255	
4165.475	1	1	0	0	0.14722	0.24963	0.15998	0.17346	0.23683	0.092117	0.1117	0.060828	0.35149	0.069032	0.27887	0.14868	0.24947	0.054149	0.25522	0.083588	-2.3208	-2.6833	-2.0708	-3.0521	-2.4521	-2.4813	-3.1354	-2.2188	-2.3771	-2.8563	-2.2271	-3.1437	-2.4938	-2.4646	-3.0833	-2.4813	30.834	-36.356	-111.323	151.012	-16.572	39.314	201.718	192.500	95.499	28.887	74.345	-116.797	227.761	141.654	84.197	198.466	0.00077534	0.0029014	0.00015492	791.7	4.7275e-06	1.2947e-05	839.65	312.84	1.4484e-05	1.5639e-05	392.37	179	136.18	66.243	5.1114e-06	82.751	0.0024705	0.0024571	0.00077872	1014.7	2.7819e-05	2.6733e-05	1060.2	397.43	2.739e-05	2.7691e-05	531.34	214.89	221.08	74.599	3.2424e-05	95.877	-11.909	-31.333	-57.978	-117.050	52.344	-109.071	-118.020	-112.314	1.981	-102.331	-114.757	-110.148	-107.767	-103.530	17.905	-106.376	-8191	255	
4165.571	1	1	0	0	0.067347	0.17678	0.2822	0.25147	0.1681	0.16549	0.21308	0.26199	0.18801	0.19771	0.12998	0.26038	0.069786	0.36979	0.19781	0.071224	-2.1	-3.0125	-2.1896	-2.9229	-2.5021	-2.3417	-3.0958	-2.4979	-2.5417	-3.0354	-2.3792	-2.9521	-2.6208	-2.4542	-3.025	-2.6854	85.775	-0.300	-127.411	130.347	2.090	-110.267	194.001	127.350	75.349	108.589	216.543	54.125	-86.427	205.745	-106.784	136.717	0.00088048	0.0017852	0.00014153	799.99	2.346e-05	3.5033e-05	846.84	317.62	2.6567e-06	2.0437e-05	402.23	181.84	140.25	67.502	1.5355e-05	83.709	0.0024913	0.0026091	0.00083192	1012.1	2.8088e-05	2.869e-05	1081	398.6	2.7352e-05	2.9621e-05	541.04	214.76	221.71	76.908	3.2414e-05	96.273	-32.673	-111.196	148.747	-117.350	48.502	214.382	-117.795	-112.155	-50.306	197.326	-114.680	-110.466	-107.967	-103.550	-25.177	-106.198	-8191	255	
4165.667	1	1	0	0	0.13319	0.15983	0.081812	0.24492	0.077331	0.15962	0.06655	0.25567	0.1385	0.27338	0.3705	0.20165	0.10526	0.099545	0.21232	0.1614	-2.0583	-2.925	-2.0187	-2.8854	-2.8167	-2.1375	-3.1229	-2.3417	-2.3063	-2.9979	-2.4042	-2.8396	-2.875	-2.2562	-2.9125	-2.5354	83.036	-128.639	51.713	167.589	153.529	61.977	-11.606	147.734	-1.938	98.583	188.827	129.847	5.706	-12.637	-30.287	24.576	0.00085936	0.0034153	0.00068089	800.13	1.3419e-05	2.0503e-05	854.69	319.08	5.3884e-06	2.0086e-05	410.37	183.69	140.07	68.431	1.1644e-05	86.423	0.0024453	0.0028081	0.00082278	1007.3	2.7633e-05	3.1088e-05	1078.7	397.19	2.7089e-05	3.1475e-05	538.25	214.33	221.58	78.514	3.0506e-05	97.037	-40.972	157.842	-64.864	-117.319	30.563	-116.732	-117.965	-112.277	124.581	166.209	-114.780	-110.448	-108.269	-103.391	25.608	-106.151	-8191	255	
4165.763	1	1	0	0	0.10486	0.075793	0.18984	0.17622	0.051887	0.092171	0.042005	0.2442	0.23647	0.22091	0.072437	0.2344	0.21828	0.15757	0.24425	0.22482	-2.0271	-2.9625	-2.2292	-2.7229	-2.7208	-2.1833	-2.85	-2.5083	-2.5646	-2.8812	-2.2833	-2.4938	-2.7792	-2.2979	-2.7771	-2.825	-104.042	-87.987	-85.320	213.220	221.109	-101.118	-88.786	147.431	139.400	19.124	87.556	189.892	-40.802	-111.129	-9.348	48.736	0.00081691	0.0019189	0.00050824	800.48	1.0682e-05	1.0589e-05	859.84	319.11	2.2925e-05	8.4568e-06	404.31	182.95	139.85	68.058	1.7124e-05	83.696	0.002436	0.0028847	0.00076728	992.05	2.7534e-05	3.1457e-05	1051.1	389.75	2.712e-05	3.1435e-05	520.71	209.95	221.8	77.864	2.7758e-05	93.762	-74.884	197.205	-55.350	-117.275	-83.192	-121.426	-117.979	-112.253	219.035	189.589	-114.267	-110.591	-108.053	-103.630	13.329	-106.187	-8191	255	
4165.859	1	1	0	0	0.32016	0.18035	0.10001	0.24025	0.23721	0.12775	0.097915	0.055044	0.11613	0.17096	0.028823	0.29374	0.12786	0.14878	0.096281	0.24676	-1.8208	-3.0146	-2.2812	-2.5208	-2.9417	-2.2271	-2.7542	-2.8146	-2.1667	-2.9417	-2.5458	-2.6583	-3.0312	-2.375	-2.8667	-2.7479	111.368	185.607	210.796	-116.362	30.458	10.227	218.304	210.569	102.091	149.143	-108.564	228.433	26.884	120.050	-26.806	197.870	0.00095314	0.0015253	0.00061993	801.54	1.2053e-05	1.6407e-05	842.2	313.06	2.911e-05	6.2785e-06	395.41	178.76	135.43	66.536	1.7367e-05	81.992	0.0024854	0.0027886	0.00070102	970.77	2.7959e-05	3.01e-05	1016.8	378.63	2.7738e-05	2.9417e-05	499.3	204.13	222.67	75.639	2.6065e-05	91.746	-58.566	-19.222	-21.187	-117.196	-39.241	-14.526	-117.938	-112.364	183.827	-19.155	-114.197	-110.832	-108.556	-103.438	-75.258	-106.203	-8191	255	
4165.978	1	1	0	0	0.067754	0.10724	0.12827	0.26573	0.2112	0.18147	0.289	0.059037	0.15788	0.23125	0.26776	0.2822	0.10405	0.20525	0.17903	0.15193	-1.6396	-2.925	-2.4688	-2.45	-3.0292	-2.2958	-2.7104	-3.0542	-2.2083	-2.9667	-2.7083	-2.3438	-3.0146	-2.3458	-2.6958	-3.1437	-41.722	120.585	-123.935	138.763	145.218	65.562	150.872	-113.519	13.474	209.729	211.314	204.940	-34.285	203.637	184.303	-31.568	0.0012612	0.0017747	0.00037765	796.44	1.8893e-05	1.3292e-05	851.04	316.55	7.9541e-06	9.3087e-06	402.47	179.28	138.15	67.668	1.3758e-05	83.8	0.0025889	0.0026384	0.00067126	967.67	2.9406e-05	2.8831e-05	1014.8	383.22	2.9786e-05	2.8634e-05	503.82	208.2	233.9	76.395	2.6262e-05	94.439	-58.817	-52.744	-64.485	-117.164	-108.954	-21.358	-117.944	-112.266	-27.718	-0.904	-114.488	-110.540	-108.368	-103.392	-15.782	-106.320	-8191	255	
4166.074	1	1	0	0	0.034225	0.26126	0.020995	0.33461	0.15417	0.078277	0.028381	0.26341	0.028684	0.10692	0.21369	0.040269	0.20275	0.1707	0.27221	0.31163	-1.8188	-2.7812	-2.625	-2.25	-2.9625	-2.3563	-2.6333	-3.0625	-2.2771	-2.7896	-2.7917	-2.3042	-2.9125	-2.6333	-2.4062	-2.9292	-87.839	83.858	-51.632	190.946	-57.471	183.838	141.765	-28.836	121.470	98.341	201.074	-24.518	9.282	156.049	132.071	165.770	0.00094871	0.002565	0.00014988	806.48	1.0775e-05	8.8281e-06	854.94	320.43	1.8037e-05	2.6875e-05	405.15	181.93	139.67	68.813	9.1212e-06	84.249	0.0027882	0.0025914	0.00068268	998.73	3.1366e-05	2.8558e-05	1026.9	397.85	3.1435e-05	2.8115e-05	511.11	215.18	237.59	76.593	2.6425e-05	97.295	-48.764	-52.262	224.983	-117.497	112.969	-25.763	-117.822	-112.510	4.262	-26.651	-114.181	-110.576	-108.733	-103.318	15.705	-106.608	-8191	255	
4166.170	1	1	0	0	0.12379	0.083273	0.19933	0.38917	0.10398	0.16453	0.14857	0.15982	0.27878	0.22872	0.18342	0.25632	0.13083	0.23266	0.13592	0.12813	-1.6104	-2.5729	-2.6021	-2.3771	-2.9729	-2.4	-2.5062	-2.9958	-2.2042	-2.5875	-2.8896	-2.3354	-2.8417	-2.6271	-2.4313	-3.0667	-108.215	213.459	-13.082	208.905	23.943	12.928	188.040	203.179	-91.567	204.056	-102.605	199.642	107.789	-95.514	190.677	159.261	0.00028539	0.0009632	0.00049899	808.23	1.421e-05	1.5638e-05	858.04	318.47	2.2719e-05	2.0438e-05	399.98	181.69	139	67.58	1.0961e-05	82.913	0.0028196	0.002548	0.00068931	1027.6	3.0982e-05	2.8121e-05	1027	402.83	3.0588e-05	2.7455e-05	506.78	218.14	230.59	75.408	2.6598e-05	97.19	-20.818	-12.769	73.715	-117.167	111.356	-8.479	-117.741	-112.383	41.742	-19.584	-114.671	-110.534	-108.615	-103.442	-72.608	-106.262	-8191	255	
4166.242	1	1	0	0	0.039767	0.15417	0.15306	0.076411	0.11923	0.078897	0.13397	0.20593	0.27007	0.24075	0.15502	0.32373	0.24209	0.12577	0.073319	0.17081	-1.8687	-2.7125	-2.7146	-2.275	-2.9062	-2.625	-2.325	-3.0229	-2.3208	-2.4771	-2.9958	-2.2208	-2.7604	-2.7687	-2.1479	-3.1583	-77.457	-7.227	-33.594	-7.173	-38.746	152.150	176.142	224.262	-127.348	-94.198	53.781	207.494	-77.618	-81.468	-24.010	82.915	0.00067089	0.0010276	0.00013996	802.68	1.6115e-05	1.7661e-05	839.47	313.54	1.961e-05	1.7681e-05	397.98	178.49	138.53	66.303	1.1947e-05	81.916	0.0026761	0.0024492	0.00068679	1031.1	2.87e-05	2.6833e-05	1017.5	399.56	2.8522e-05	2.6123e-05	505.04	215.3	220.23	73.82	2.7427e-05	95.639	-51.247	23.894	21.624	-117.384	44.910	5.589	-118.014	-112.817	-16.241	-20.453	-114.831	-110.345	-108.172	-103.293	208.092	-106.161	-8191	255	
4166.363	1	1	0	0	0.10205	0.2021	0.2255	0.2904	0.16737	0.25069	0.22946	0.099132	0.068839	0.17323	0.16529	0.39075	0.14067	0.11194	0.16504	0.060773	-1.8583	-2.4833	-2.8292	-2.2417	-2.7438	-2.6688	-2.2958	-3.0479	-2.3937	-2.4188	-2.9188	-2.1875	-2.7333	-2.8792	-2.3417	-3.0521	109.857	166.138	154.157	-97.585	-96.955	150.384	199.183	184.201	51.626	165.340	190.449	160.363	-75.369	-40.767	-119.517	-126.944	0.000473	0.0027464	0.00071523	806.66	5.6639e-06	4.8183e-06	845.95	318.52	1.1034e-05	1.0383e-06	400.48	179.87	139.54	67.094	1.7701e-05	83.223	0.0025058	0.0023747	0.00072566	1029.2	2.7437e-05	2.6251e-05	1041.1	402.81	2.7664e-05	2.5872e-05	521.72	215.57	218.27	74.331	2.9577e-05	96.009	-42.928	19.270	135.240	-117.277	116.676	-54.367	-118.618	-112.377	-1.600	179.027	-114.591	-110.600	-107.512	-103.346	155.860	-106.040	-8191	255	
4166.459	1	1	0	0	0.26867	0.10804	0.12858	0.34891	0.13662	0.21567	0.18719	0.34047	0.1344	0.12968	0.15222	0.27061	0.17463	0.375	0.12363	0.15305	-2.0396	-2.3417	-2.9	-2.4375	-2.7583	-2.6646	-2.275	-2.9958	-2.5896	-2.325	-2.9458	-2.6271	-2.6562	-2.9875	-2.0021	-2.9646	37.994	75.623	28.285	-121.084	-90.567	226.745	-107.593	194.400	-70.685	163.742	131.640	152.161	174.648	-87.092	33.274	-82.811	0.00051824	0.00048966	0.00022526	807.21	9.6949e-06	5.4682e-06	843.95	321.75	6.3553e-06	1.5826e-05	402.79	180.77	140.77	67.89	1.3895e-05	83.818	0.0024477	0.0023574	0.00077062	1022.5	2.6781e-05	2.6557e-05	1064	400.07	2.7017e-05	2.6647e-05	534.15	214.72	217.53	75.695	3.12e-05	95.921	-19.132	144.180	-66.407	-116.993	47.127	-99.643	-117.918	-112.085	49.763	211.739	-114.514	-110.100	-107.961	-103.562	-58.047	-106.267	-8191	255	
4166.555	1	1	0	0	0.24776	0.038119	0.094885	0.16705	0.38152	0.17656	0.22737	0.065131	0.15889	0.20996	0.036045	0.18048	0.16757	0.15164	0.16421	0.14032	-2.3104	-2.2833	-2.8667	-2.3521	-2.575	-2.8937	-2.2438	-2.9229	-2.7333	-2.325	-3.1021	-2.5521	-2.45	-3.1208	-2.1437	-2.9083	-53.658	167.496	60.786	-75.696	-8.323	18.596	138.605	-57.399	154.195	-86.319	118.412	4.172	13.228	181.206	-116.532	139.085	0.00055582	0.001982	0.00036666	809.51	7.3908e-06	2.099e-05	858.94	323.09	1.1523e-05	1.6317e-05	411.82	183.7	141.52	68.671	1.5665e-05	85.386	0.0024298	0.0024948	0.00079959	1011.7	2.6207e-05	2.8096e-05	1076.9	396.24	2.6407e-05	2.8196e-05	538.81	214.29	215.82	77.541	3.0812e-05	96.219	-42.664	128.939	-37.408	-117.350	-72.090	198.922	-117.693	-112.145	-11.879	183.828	-113.968	-110.242	-107.961	-103.504	-56.870	-106.167	-8191	255	
4166.651	1	1	0	0	0.082806	0.054861	0.11232	0.070988	0.036748	0.24761	0.27925	0.10134	0.10204	0.11013	0.0045141	0.1365	0.14465	0.41646	0.29381	0.16834	-2.4104	-1.9208	-2.9375	-2.4979	-2.2583	-2.8208	-2.3146	-2.8	-2.7792	-2.2083	-3.0583	-2.6292	-2.125	-3.1292	-2.3521	-2.7917	-59.710	137.138	114.811	159.874	226.002	81.996	-128.971	175.388	-1.118	12.928	-34.296	14.096	15.179	222.105	122.533	-80.948	0.00055859	0.0020553	0.00060253	816.91	8.4747e-06	2.5306e-05	871.3	322.55	8.7275e-06	1.6089e-05	405.29	182.02	138.47	67.774	1.3517e-05	82.722	0.0023753	0.0026615	0.00077286	1006.9	2.5857e-05	2.9917e-05	1071	392.72	2.6381e-05	3.0146e-05	528.28	211.28	215.91	77.681	2.9423e-05	93.385	-14.623	134.977	-57.479	-116.871	79.281	209.503	-117.646	-112.271	-129.761	-117.763	-114.356	-110.486	-108.060	-103.353	-17.228	-106.375	-8191	255	
4166.770	1	1	0	0	0.055481	0.02238	0.21328	0.075979	0.28531	0.27502	0.069683	0.22047	0.046517	0.1254	0.16348	0.069246	0.141	0.085409	0.13695	0.1826	-2.4562	-2.1042	-2.7583	-2.6896	-2.2604	-2.975	-2.1688	-2.8083	-2.9792	-2.0583	-2.9042	-2.5333	-2.4708	-3.075	-2.2438	-2.65	28.639	-88.816	17.099	37.539	227.385	35.606	-111.833	119.978	124.230	-86.503	172.512	51.057	-96.243	-77.736	176.838	-105.536	0.00081359	0.00038366	0.00062656	807.46	8.2102e-06	1.6142e-05	847.95	319.18	1.7434e-05	6.5323e-06	399.91	181.19	137.11	67.74	1.1243e-05	82.935	0.0024273	0.0028138	0.00073833	997.94	2.6845e-05	3.1064e-05	1045.8	386.46	2.7588e-05	3.127e-05	513.32	208.93	220.97	77.852	2.8321e-05	92.98	-59.094	148.710	-58.466	-116.845	223.709	110.258	-117.728	-112.182	190.769	-90.526	-114.338	-110.272	-108.168	-103.365	-12.562	-106.385	-8191	255	
4166.843	1	1	0	0	0.21733	0.17087	0.19295	0.11395	0.074466	0.29982	0.074584	0.25783	0.076465	0.29936	0.063331	0.27444	0.36448	0.27256	0.34699	0.077387	-2.5	-2.0563	-2.9396	-2.825	-2.1417	-3.1667	-2.4771	-2.5	-2.825	-2.2333	-2.6792	-2.6375	-2.1937	-3.1063	-2.4062	-2.4458	28.380	139.844	-117.063	102.468	70.966	-129.722	185.686	205.262	162.054	1.753	-120.737	168.319	214.619	-129.677	117.687	203.895	0.0011261	0.00013031	0.00019354	813.72	4.247e-05	4.0223e-05	851.12	320.19	3.127e-05	5.1819e-06	403.88	181.41	139.77	68.847	3.8179e-06	84.411	0.0025606	0.0028239	0.00070135	991.63	2.833e-05	3.026e-05	1032.5	383.44	2.8726e-05	2.9883e-05	506.3	207.87	227.73	77.634	2.6963e-05	93.594	-65.783	206.728	-24.629	-117.032	-112.417	21.591	-117.916	-112.333	207.259	-125.604	-114.572	-110.110	-108.436	-103.274	-9.258	-106.623	-8191	255	
4166.962	1	1	0	0	0.11393	0.10882	0.021011	0.13738	0.049513	0.20101	0.17489	0.16037	0.12249	0.075294	0.16821	0.14918	0.18707	0.075022	0.14203	0.17202	-2.4917	-2.1937	-2.7208	-2.9125	-2.1333	-3.0521	-2.6417	-2.4938	-2.9354	-2.2104	-2.5896	-2.8208	-2.1083	-2.8958	-2.5167	-2.5417	166.743	-30.879	4.950	169.423	207.750	46.070	154.099	-42.747	8.615	123.180	-0.431	114.769	-92.028	133.377	91.661	168.554	0.00056488	0.0022563	0.00033575	816.48	1.1514e-05	1.4443e-05	870.9	324.04	9.0752e-06	2.4977e-05	410.19	183.24	141.21	69.636	1.306e-05	85.561	0.0026886	0.002703	0.00067603	997.69	3.0169e-05	2.9134e-05	1041.6	391.11	3.0294e-05	2.8864e-05	508.14	212.11	235.3	77.358	2.6361e-05	95.897	-50.784	-20.433	78.703	-117.109	223.621	-32.190	-117.938	-112.512	51.229	6.837	-114.325	-109.853	-108.161	-103.209	-10.031	-106.470	-8191	255	
4167.059	1	1	0	0	0.41754	0.11936	0.10028	0.0094881	0.050252	0.10766	0.16388	0.13229	0.2154	0.18173	0.20368	0.26975	0.18932	0.13496	0.1812	0.23713	-2.5625	-2.1958	-2.5021	-2.8438	-2.0146	-2.7	-2.5708	-2.3729	-3.0042	-2.425	-2.3729	-3.0083	-2.1896	-2.8312	-2.6396	-2.3667	168.544	117.561	126.435	154.287	209.897	-107.867	150.080	145.705	-6.139	-47.838	122.882	183.933	61.595	-92.589	86.468	182.963	0.0007455	0.0019698	0.00049345	823.34	1.1089e-06	1.5908e-05	876.64	328.81	6.8805e-06	9.3974e-06	412.77	184.26	141.88	68.968	5.325e-06	83.644	0.0027651	0.0025677	0.00066344	1017.7	3.0755e-05	2.7682e-05	1045.1	401.34	3.069e-05	2.7905e-05	511.98	216.89	236.27	76.548	2.624e-05	96.052	-67.518	6.740	-52.848	-116.612	74.357	50.729	-117.620	-112.608	37.731	-25.963	-114.398	-110.349	-108.407	-103.290	32.959	-106.609	-8191	255	
4167.155	1	1	0	0	0.06848	0.36657	0.41562	0.1569	0.14202	0.21555	0.15034	0.053676	0.041341	0.28004	0.17006	0.23768	0.1572	0.27669	0.15982	0.13588	-2.6333	-2.4625	-2.2104	-2.9271	-2.3	-2.6333	-3.0146	-2.2188	-2.9083	-2.4771	-2.4479	-3.0979	-2.4271	-2.7854	-2.6583	-2.3896	113.815	28.542	-96.718	78.893	213.421	31.921	62.966	117.213	215.505	-118.157	130.239	137.590	-30.744	163.972	70.397	176.309	0.00049083	0.00050703	8.2108e-05	820.55	4.6678e-06	2.7012e-05	870.63	326.38	4.2621e-05	2.6042e-05	410.16	182.5	140.62	68.336	1.3288e-05	83.31	0.0027136	0.0025027	0.00065605	1034.5	2.9968e-05	2.6933e-05	1037.1	406.15	2.9572e-05	2.7187e-05	510.02	218.15	230.03	75.575	2.6683e-05	96.837	-63.104	-8.131	107.099	-116.948	160.816	41.659	-117.835	-112.249	-2.299	-6.798	-114.664	-110.333	-107.759	-103.394	205.480	-106.638	-8191	255	
4167.251	1	1	0	0	0.13434	0.11739	0.068272	0.037867	0.067019	0.16485	0.27007	0.1909	0.04938	0.22187	0.054175	0.12909	0.076302	0.24829	0.052752	0.084663	-2.5708	-2.3979	-2.3396	-2.8354	-2.1042	-2.4542	-2.9062	-2.3104	-2.95	-2.6688	-2.4333	-3.0958	-2.325	-2.6813	-2.9771	-2.2417	173.268	-92.768	-21.916	136.504	40.447	-56.693	-103.955	179.939	178.439	120.466	38.506	220.558	-109.838	-104.049	109.962	54.955	0.00075101	0.00072464	0.00047871	823.78	2.2033e-05	1.3658e-05	870.78	332.04	2.4008e-05	1.55e-05	414.7	184.93	143.45	69.075	1.1215e-06	84.583	0.0026138	0.0024541	0.00067982	1051.3	2.8692e-05	2.6282e-05	1052.1	414.89	2.7936e-05	2.6395e-05	520.47	220.15	224.18	75.8	2.7653e-05	97.63	-4.472	80.726	174.132	-117.283	73.674	-84.636	-117.943	-112.489	23.905	-17.760	-114.343	-109.950	-107.674	-103.156	63.757	-106.262	-8191	255	
4167.371	1	1	0	0	0.089415	0.1254	0.11854	0.28618	0.20928	0.22173	0.34037	0.19176	0.092384	0.10018	0.12312	0.20279	0.17835	0.15948	0.050973	0.18615	-2.5479	-2.5854	-2.3146	-2.8917	-2.3729	-2.2771	-3.0667	-2.3063	-2.6958	-2.7229	-2.3708	-2.7604	-2.6104	-2.5125	-3	-2.4313	-14.241	183.468	82.484	224.098	91.418	-40.098	175.163	149.673	-69.505	212.353	164.908	-46.585	-65.665	-102.465	129.542	144.770	0.00075462	0.0016203	0.0001969	832.87	2.4661e-05	9.6406e-06	874.69	331.65	1.1512e-05	7.6098e-06	414.38	184.09	144.4	69.125	2.3142e-05	85.039	0.0024357	0.0023648	0.00070976	1045.9	2.709e-05	2.5469e-05	1066.3	409.57	2.6568e-05	2.5694e-05	526.79	217.09	218.93	75.516	2.8764e-05	96.854	-17.369	-41.215	154.895	-117.046	155.280	190.193	-118.074	-112.316	-6.025	-79.115	-114.468	-110.555	-107.928	-102.737	193.393	-105.896	-8191	255	
4167.468	1	1	0	0	0.16291	0.20291	0.202	0.1037	0.1484	0.17441	0.16247	0.08185	0.048576	0.21688	0.11815	0.11873	0.029197	0.3197	0.14952	0.097134	-2.3771	-2.7042	-2.225	-3	-2.4646	-2.375	-3.0125	-2.3438	-2.5125	-2.7292	-2.1458	-2.8438	-2.475	-2.525	-3.0458	-2.3479	-86.415	49.778	-112.248	120.780	139.859	-70.656	198.192	212.388	-35.116	182.249	184.592	-102.366	-20.111	212.550	-51.148	125.859	0.00030073	0.0014727	0.0001077	826.98	2.3625e-05	2.2509e-05	878.23	327.1	1.2854e-05	2.1594e-05	409.29	184.17	142.82	69.219	1.4076e-05	85.209	0.0023234	0.002304	0.00072909	1023.2	2.5668e-05	2.4943e-05	1068.2	397.31	2.504e-05	2.517e-05	524.72	212.4	212.16	75.467	2.8431e-05	94.709	-49.728	-67.441	-113.820	-116.674	50.088	-90.547	-117.890	-112.229	-27.118	180.163	-114.480	-110.066	-107.566	-103.418	223.653	-106.087	-8191	255	
4167.564	1	1	0	0	0.18981	0.20025	0.082366	0.22602	0.21987	0.2331	0.18153	0.13582	0.020067	0.10905	0.068032	0.17669	0.22659	0.17319	0.29108	0.16676	-2.1333	-2.8521	-2.0875	-2.85	-2.6958	-2.2438	-3.1125	-2.4938	-2.4604	-2.8479	-2.1	-3.0229	-2.6417	-2.3479	-3.0479	-2.5667	-127.545	77.388	9.117	75.534	17.980	100.530	90.056	179.440	86.171	88.795	163.838	179.397	115.896	225.566	8.664	118.361	0.00086312	0.001258	0.00042028	827.16	1.4094e-05	1.2953e-05	864.61	321.15	1.4287e-05	1.4195e-05	402.64	180.08	139.77	67.764	1.0547e-05	82.131	0.0021957	0.0023108	0.00072018	998.19	2.42e-05	2.5507e-05	1051.8	385.16	2.3705e-05	2.5709e-05	510.61	205.18	204.94	74.684	2.7485e-05	91.415	-12.998	153.881	-9.886	-116.507	185.652	171.954	-117.611	-112.049	-88.563	193.135	-113.952	-110.193	-107.753	-103.248	-41.794	-106.107	-8191	255	
4167.658	1	1	0	0	0.32062	0.20288	0.074973	0.26478	0.12664	0.065575	0.2543	0.24727	0.20737	0.14793	0.23605	0.21359	0.15151	0.25317	0.26764	0.061121	-1.8792	-2.7583	-2.0438	-2.7083	-2.7229	-2.2271	-3.15	-2.4813	-2.35	-2.9396	-2.2229	-2.9688	-2.7146	-2.2562	-2.8563	-2.6104	154.093	-30.197	136.258	-115.350	133.599	125.166	203.503	149.893	62.951	27.724	24.671	126.358	-16.808	152.498	225.099	-9.813	0.00067766	0.0021079	0.00051927	818.65	1.0715e-05	1.7234e-05	856.41	318.5	9.0252e-06	1.0551e-05	397	179.82	138.59	67.745	2.6434e-05	83.038	0.0021383	0.0024276	0.00069106	981.58	2.3698e-05	2.6668e-05	1030.9	378.47	2.3403e-05	2.6888e-05	500.27	202.3	205.09	75.55	2.5902e-05	91.139	-45.229	137.258	-87.808	-116.997	-110.600	152.427	-117.626	-111.771	70.671	197.902	-114.183	-109.943	-107.902	-102.980	6.966	-106.195	-8191	255	
4167.754	1	1	0	0	0.17268	0.18592	0.039087	0.072688	0.0556	0.25738	0.063761	0.089927	0.24496	0.05759	0.13035	0.23634	0.17637	0.20932	0.2001	0.2169	-1.8917	-2.9188	-2.0812	-2.4771	-2.7708	-2.2604	-3.0229	-2.6396	-2.2583	-2.9542	-2.3833	-2.6479	-2.9688	-2.1583	-2.6542	-2.6917	-125.035	30.090	143.273	213.296	-10.310	81.385	-52.576	181.848	-75.793	184.055	135.965	-125.321	160.441	97.204	-94.202	142.531	0.00083063	0.0020367	8.7775e-05	825.22	1.7668e-05	1.5927e-05	873.1	324.01	1.3545e-05	8.6307e-06	405.25	182.26	140.31	69.306	1.5355e-05	84.162	0.0021494	0.0024794	0.00065364	977.81	2.405e-05	2.716e-05	1024.5	381.07	2.3995e-05	2.6939e-05	498.07	203.28	208.91	76.296	2.4245e-05	91.381	-78.510	163.908	72.281	-116.713	-34.932	111.689	-117.891	-112.207	191.482	201.603	-114.113	-110.118	-108.335	-103.231	7.529	-106.216	-8191	255	
4167.850	1	1	0	0	0.095685	0.21274	0.16246	0.17895	0.13707	0.15734	0.25406	0.10552	0.071802	0.16855	0.21732	0.083159	0.17403	0.10845	0.080184	0.21308	-1.7708	-2.7292	-2.2646	-2.4583	-2.8979	-2.0979	-2.7333	-2.6917	-2.1688	-2.8312	-2.5187	-2.4562	-2.8375	-2.1771	-2.5854	-3.0354	157.999	186.026	-116.534	154.175	108.829	79.639	143.431	-9.385	103.170	90.137	107.082	-128.293	-77.033	222.995	24.755	191.976	0.00092518	0.0006532	0.0005421	825.16	1.1999e-05	1.562e-05	868.51	323.33	1.9569e-05	6.0391e-06	406.98	183.18	140.1	69.427	8.9625e-06	85.04	0.0022001	0.0024169	0.00061471	966.12	2.4826e-05	2.6342e-05	1008.6	375.82	2.4909e-05	2.5964e-05	490.06	202.6	213.37	75.918	2.3501e-05	91.97	-99.495	-71.686	-32.724	-116.772	-89.820	24.438	-117.966	-112.420	193.086	84.870	-114.151	-109.976	-107.851	-103.063	-17.629	-105.991	-8191	255	
4167.947	1	1	0	0	0.097415	0.14848	0.25801	0.18744	0.15951	0.15801	0.062983	0.28469	0.21113	0.097767	0.04756	0.055551	0.09341	0.098616	0.24745	0.1569	-1.6708	-2.8521	-2.3896	-2.5667	-2.8563	-2.2188	-2.7771	-2.8917	-2.1375	-3.0542	-2.4646	-2.3958	-2.9521	-2.4125	-2.5312	-2.9188	147.080	-14.311	-121.436	-130.013	-122.973	146.926	146.409	206.981	-99.709	77.089	-35.300	75.079	-120.672	205.887	-86.352	-101.124	0.00088962	0.0010844	8.1572e-05	826.99	2.8642e-05	2.299e-05	865.75	319.38	2.0766e-06	2.3853e-05	396.17	177.57	137.9	68.045	1.2042e-05	82.59	0.0023263	0.0023244	0.00059629	966.73	2.6093e-05	2.5292e-05	998.6	373.04	2.6174e-05	2.4778e-05	479.16	200.52	215.26	73.94	2.2882e-05	90.384	-58.965	-15.873	41.172	-116.950	-95.957	81.512	-117.743	-112.217	-59.268	22.179	-114.032	-110.073	-106.791	-103.159	-55.919	-106.483	-8191	255	
4168.067	1	1	0	0	0.10869	0.09486	0.15823	0.055975	0.1405	0.24864	0.13833	0.16915	0.031898	0.28555	0.052205	0.069281	0.16509	0.35234	0.0391	0.22571	-1.6604	-2.775	-2.4917	-2.2833	-3.0729	-2.5271	-2.7146	-3.1375	-2.2458	-2.6125	-2.7667	-2.55	-2.9979	-2.4313	-2.5083	-2.8458	-21.945	25.046	75.871	-104.499	-3.631	-15.775	159.645	181.182	116.967	-69.941	199.204	-60.893	45.659	194.141	-40.887	127.270	0.00077749	0.0012202	0.00037862	812.45	9.2209e-06	3.3703e-05	851.06	319.35	2.0444e-05	9.3685e-06	396.68	178.46	138.69	68.426	6.6049e-06	82.606	0.0024115	0.0022296	0.00059055	973.56	2.6773e-05	2.4518e-05	989.59	380.13	2.6712e-05	2.4285e-05	480.36	204.18	216.26	73.935	2.2785e-05	91.883	-42.358	17.579	62.501	-116.903	92.047	64.845	-117.832	-112.216	10.107	21.931	-113.809	-110.171	-107.601	-102.656	6.153	-106.148	-8191	255	
4168.139	1	1	0	0	0.22034	0.27321	0.25638	0.16619	0.18246	0.027635	0.24884	0.28067	0.22169	0.09966	0.060105	0.27185	0.35225	0.19074	0.29482	0.20662	-1.8104	-2.7938	-2.6208	-2.2687	-3.0646	-2.4667	-2.2542	-2.9313	-2.3521	-2.5333	-2.7896	-2.2313	-2.9958	-2.4854	-2.2042	-3.1083	170.018	-126.065	182.093	-48.199	39.000	94.974	166.467	178.135	80.727	220.295	-101.707	200.591	-76.124	101.817	131.655	205.684	0.00063374	0.0011339	0.0003353	821.56	1.5666e-05	1.5935e-05	863.3	324.34	2.3771e-05	1.1199e-05	404.92	181.43	141.96	69.102	1.0625e-05	84.218	0.0023499	0.002164	0.00058096	992.53	2.5631e-05	2.3617e-05	993.72	388.92	2.5346e-05	2.3267e-05	485.31	208.9	211.55	74.195	2.2772e-05	94.07	-75.543	-47.331	-101.603	-117.061	147.049	-1.796	-117.512	-112.110	-0.908	-99.168	-114.158	-110.118	-108.070	-103.272	-99.974	-106.027	-8191	255	
4168.235	1	1	0	0	0.16707	0.23351	0.18615	0.12623	0.0019463	0.047727	0.24625	0.097252	0.16053	0.14408	0.038463	0.18575	0.20679	0.11431	0.042456	0.26608	-1.7417	-2.4583	-2.6542	-2.2604	-2.7062	-2.5812	-2.3521	-3.0312	-2.2458	-2.4354	-2.9938	-2.1792	-2.9292	-2.7979	-2.1625	-3.1937	-57.158	104.464	-84.944	-80.970	180.000	103.275	172.910	152.825	60.576	169.771	179.277	70.653	-129.775	-102.104	-24.279	-8.951	0.00069907	0.0013222	0.00042878	819.64	4.4231e-06	1.5184e-05	864.46	327.18	1.8253e-05	2.0228e-05	410.47	183.52	143.49	69.632	4.2888e-06	85.583	0.0022371	0.0020836	0.00059104	1002.9	2.4567e-05	2.2961e-05	1004.8	393.29	2.4245e-05	2.2661e-05	494.59	210.44	207.46	74.339	2.3834e-05	95.019	-70.784	-52.846	173.236	-117.279	128.767	10.747	-118.004	-111.898	-1.825	16.248	-114.164	-110.101	-107.713	-102.966	180.064	-106.019	-8191	255	
4168.331	1	1	0	0	0.20366	0.16557	0.13871	0.25884	0.084867	0.21446	0.14592	0.30555	0.038345	0.11556	0.14322	0.27186	0.1467	0.16546	0.1161	0.20813	-2.0417	-2.3625	-2.7938	-2.2771	-2.8937	-2.6104	-2.2646	-3.075	-2.3229	-2.5125	-3.0167	-2.35	-2.6188	-2.9042	-2.2208	-3.1729	-0.239	-46.457	-87.244	-55.257	-96.648	-3.627	64.726	169.983	18.339	-119.029	121.120	174.721	98.253	86.965	-10.422	159.702	0.00063379	0.00048135	0.00017669	824.17	7.6241e-06	1.6839e-05	874.8	330.45	1.4915e-05	1.789e-05	411.77	183.94	144.08	69.465	4.0503e-06	84.839	0.0021284	0.0020325	0.00061634	999.98	2.3173e-05	2.2133e-05	1022.1	391.72	2.2921e-05	2.1917e-05	502.81	208.82	203.15	73.732	2.4617e-05	92.761	-5.631	128.455	150.490	-116.822	161.913	6.574	-117.921	-111.896	32.538	10.477	-114.206	-110.009	-107.603	-103.192	-121.505	-106.172	-8191	255	
4168.452	1	1	0	0	0.094963	0.13984	0.12374	0.29402	0.078937	0.25792	0.16909	0.20334	0.1279	0.17373	0.16716	0.1014	0.011545	0.39471	0.1443	0.33592	-2.2062	-2.4083	-2.9604	-2.3458	-2.7604	-2.7229	-2.325	-2.9833	-2.4021	-2.4375	-3.0771	-2.3792	-2.6417	-2.8542	-2.3167	-2.8854	-101.204	117.826	22.468	170.577	-70.292	114.958	189.960	218.243	137.772	148.558	161.462	213.887	154.884	203.029	-44.799	176.823	0.0011295	0.0011215	0.00025136	826.16	4.8985e-06	1.2541e-05	864.49	328.56	7.8122e-06	1.4103e-05	409.52	182.77	141.93	69.111	4.9372e-06	83.501	0.0020177	0.0019799	0.00062974	980.19	2.1916e-05	2.1673e-05	1018.9	382.83	2.1693e-05	2.1675e-05	500.76	203.39	197.05	73.434	2.4607e-05	90.312	-41.468	215.636	168.695	-116.179	67.678	-123.209	-117.990	-111.989	-39.810	129.078	-113.667	-109.991	-107.222	-102.925	145.335	-105.782	-8191	255	
4168.548	1	1	0	0	0.15271	0.11341	0.10423	0.2146	0.050033	0.20085	0.26605	0.20604	0.13513	0.13103	0.1784	0.18273	0.42954	0.3584	0.19224	0.18991	-2.1042	-2.3063	-2.9979	-2.3958	-2.525	-2.8417	-2.3417	-2.9979	-2.6833	-2.1958	-2.9583	-2.4125	-2.3417	-3.1229	-2.1312	-2.8354	147.629	-23.314	-96.816	175.597	150.640	203.739	158.016	120.057	-38.094	46.330	195.104	-63.145	168.985	185.060	-39.103	157.124	0.00070555	0.0014002	0.00039025	822.87	4.3872e-06	1.537e-05	866.49	326.6	4.6463e-06	4.8788e-06	404.33	182.08	140.88	69.291	7.9758e-06	83.63	0.0019187	0.002007	0.00062493	962.34	2.0873e-05	2.2355e-05	1013.6	374.87	2.09e-05	2.2521e-05	493.49	200.37	193.88	74.301	2.3983e-05	90.107	-33.416	211.960	-73.488	-116.514	-14.100	209.650	-117.574	-111.597	221.675	26.566	-113.685	-109.921	-108.638	-102.823	11.822	-106.267	-8191	255	
4168.644	1	1	0	0	0.26776	0.26684	0.2275	0.13398	0.17932	0.17381	0.13775	0.065267	0.22853	0.076606	0.21427	0.23147	0.26717	0.046069	0.19151	0.25212	-2.4688	-2.0771	-2.8396	-2.4979	-2.1958	-2.9729	-2.3417	-2.6896	-2.6063	-2.3187	-3.025	-2.4979	-2.3625	-2.9958	-2.1354	-2.5896	229.216	126.100	152.945	-59.451	197.869	115.117	204.559	215.447	44.457	126.770	-124.420	171.403	-127.784	61.026	-127.528	185.301	0.00055082	0.0016582	0.00031613	829.16	3.8512e-06	9.4342e-06	870.83	325.96	3.8149e-06	9.9319e-06	407.67	183.82	142.85	70.234	1.7127e-05	84.872	0.0018874	0.0021227	0.00060335	961.27	2.0863e-05	2.3755e-05	1010.5	373.75	2.1117e-05	2.3968e-05	490.64	201.38	197.37	75.845	2.3331e-05	91.224	-59.783	189.976	-21.047	-116.475	-7.195	-128.570	-117.398	-112.055	61.576	142.395	-114.129	-109.989	-108.063	-102.932	18.387	-106.239	-8191	255	
4168.740	1	1	0	0	0.047322	0.15507	0.19401	0.064637	0.14914	0.074177	0.43266	0.15201	0.1114	0.17754	0.16277	0.13919	0.22439	0.18811	0.0654	0.25166	-2.3604	-2.2687	-2.9042	-2.5958	-2.2229	-3.0312	-2.3167	-2.425	-2.8563	-2.0521	-2.9417	-2.6125	-2.4062	-3.0604	-2.2792	-2.55	135.794	184.716	-2.109	173.032	-21.092	51.644	124.313	49.389	150.431	213.719	213.452	-104.060	151.653	-53.670	-53.278	101.350	0.00090901	0.00069451	0.00029321	829.93	5.9679e-06	1.7096e-05	873.87	329.78	1.378e-05	1.6294e-05	416.9	184.36	142.72	70.287	1.6563e-05	85.349	0.001962	0.0022535	0.00058808	959.11	2.1791e-05	2.4799e-05	1010	376.52	2.234e-05	2.4956e-05	493.18	203.34	203.6	76.344	2.2777e-05	90.768	-64.152	190.016	-69.791	-116.959	-83.829	-128.126	-117.650	-111.947	-121.910	-37.727	-114.214	-109.894	-107.950	-102.701	42.512	-106.259	-8191	255	
4168.836	1	1	0	0	0.17459	0.057034	0.18024	0.029954	0.26584	0.13198	0.3157	0.22626	0.27702	0.18571	0.08132	0.045019	0.38468	0.2227	0.21158	0.16327	-2.4313	-2.2875	-2.7812	-3.0125	-2.1875	-2.9313	-2.3396	-2.5625	-3.0125	-2.4521	-2.7708	-2.6813	-2.1562	-3.0396	-2.5229	-2.5896	213.139	-2.247	47.644	162.043	116.711	165.933	127.611	151.409	149.466	-78.060	146.340	175.929	100.506	-82.584	116.272	-76.481	0.0011871	0.00056914	0.00058396	831.86	1.6905e-05	1.7355e-05	874.73	329.44	1.9651e-05	1.1866e-05	411.45	183.07	140.73	69.311	8.5293e-06	82.751	0.0020841	0.0022657	0.00056937	957.5	2.3335e-05	2.456e-05	1000.7	374.62	2.3618e-05	2.4282e-05	484.44	199.88	207.16	74.702	2.177e-05	88.636	-80.481	19.638	-31.669	-116.711	-86.351	28.022	-117.196	-112.145	174.250	76.176	-114.232	-109.996	-107.838	-102.890	-126.521	-105.944	-8191	255	
4168.933	1	1	0	0	0.082312	0.021306	0.092675	0.066883	0.12512	0.19	0.11824	0.23908	0.20149	0.23188	0.038926	0.045152	0.14464	0.13282	0.12394	0.1687	-2.5396	-2.1083	-2.4875	-2.8917	-2.125	-2.8375	-2.5625	-2.4875	-2.7292	-2.2	-2.6854	-2.875	-2.225	-2.6854	-2.5583	-2.2667	154.387	27.592	32.516	115.146	114.816	-98.161	106.628	207.693	-128.183	223.242	220.972	-102.265	-101.155	-102.936	83.298	163.179	0.0011976	0.0027406	0.00022633	826.46	1.1228e-05	1.1802e-05	865.92	327.89	2.6959e-06	7.3431e-06	407.5	180.22	142.7	69.8	7.6673e-06	83.65	0.0021633	0.0021373	0.00053855	948.72	2.3822e-05	2.2685e-05	979.87	370.5	2.3592e-05	2.2007e-05	472.16	198.27	205.73	73.342	1.9978e-05	88.865	-62.901	-11.973	26.767	-116.341	-59.220	-17.383	-117.408	-112.043	-108.030	32.122	-114.111	-110.059	-107.217	-102.798	46.530	-106.313	-8191	255	
4169.051	1	1	0	0	0.082816	0.1168	0.098334	0.14508	0.19749	0.14316	0.274	0.20038	0.12461	0.10984	0.14584	0.056203	0.27941	0.24802	0.14393	0.32871	-2.5062	-2.2021	-2.375	-2.9208	-2.0833	-2.7125	-2.6188	-2.3375	-2.6792	-2.4125	-2.4792	-2.95	-2.1146	-2.8271	-2.6708	-2.3396	-38.141	25.040	219.314	135.971	5.116	-85.611	117.909	144.215	217.796	-79.245	-103.130	38.841	188.311	201.628	62.299	130.439	0.00030955	0.0023976	0.00017123	819.38	6.4726e-06	2.8811e-06	868.3	329	8.3603e-06	9.0366e-06	410.35	183.06	144.55	70.123	6.6274e-07	84.408	0.002084	0.0019264	0.00049656	946.79	2.2867e-05	2.0479e-05	966.48	372.32	2.2595e-05	2.0446e-05	466.45	200.64	202.53	73.019	1.9142e-05	90.518	227.693	-8.461	-15.146	-116.692	88.236	-9.714	-117.764	-112.440	-52.134	-101.450	-114.269	-109.905	-107.599	-102.786	-8.517	-106.153	-8191	255	
4169.148	1	1	0	0	0.072614	0.14056	0.038376	0.18306	0.22826	0.22867	0.26574	0.18543	0.13431	0.17602	0.29459	0.39697	0.21754	0.17442	0.036999	0.3784	-2.4375	-2.4208	-2.4271	-2.9938	-2.0438	-2.7333	-2.6896	-2.1542	-2.9854	-2.6083	-2.2708	-3.0062	-2.1833	-2.725	-2.8208	-2.3812	164.222	50.612	-96.927	54.366	219.867	-126.423	161.945	198.691	-105.728	-40.101	180.174	144.484	41.898	-114.225	135.601	165.824	0.00050931	0.0015742	0.00040286	821.29	1.7212e-05	6.8502e-06	864.09	325.24	2.1992e-05	1.3391e-05	401.96	182.01	141.45	69.858	9.585e-06	84.834	0.0019953	0.0018286	0.00048437	955.95	2.198e-05	1.9826e-05	961.29	374.34	2.1541e-05	1.9908e-05	462	202.14	197.27	72.626	1.9707e-05	91.361	-13.278	-51.414	-74.568	-116.597	93.662	149.221	-117.390	-111.972	0.520	90.870	-114.389	-110.092	-107.064	-102.906	14.056	-106.075	-8191	255	
4169.244	1	1	0	0	0.10882	0.16047	0.085919	0.051173	0.24731	0.23788	0.077782	0.23951	0.2655	0.078728	0.28224	0.055954	0.24905	0.19126	0.38206	0.21216	-2.4708	-2.4771	-2.2583	-3.1458	-2.2521	-2.5667	-3.2083	-2.1833	-2.775	-2.7354	-2.2479	-3.0729	-2.2667	-2.5438	-2.9875	-2.2313	5.238	-11.469	-46.384	167.075	96.520	43.950	166.453	189.093	78.777	-117.935	-50.952	-80.581	105.443	217.453	93.113	151.525	0.00026305	0.0011292	0.00014788	819.76	7.9779e-06	1.9003e-05	857.67	322.24	1.9164e-05	5.1344e-06	401.9	180.58	138.55	68.771	2.0526e-06	83.14	0.0019291	0.0018183	0.00051039	963.91	2.1392e-05	1.9901e-05	970.15	376.22	2.1112e-05	2.0097e-05	470	202.04	195.36	71.847	2.1647e-05	90.475	-26.301	-51.386	42.428	-116.870	10.381	22.032	-117.878	-111.743	35.200	-95.929	-114.447	-109.493	-108.526	-102.903	30.826	-105.805	-8191	255	
4169.364	1	1	0	0	0.14766	0.19137	0.1185	0.22039	0.21425	0.040666	0.14537	0.438	0.26278	0.22889	0.060007	0.024958	0.17926	0.1135	0.13704	0.15053	-2.4042	-2.5146	-2.0812	-2.9708	-2.3625	-2.5604	-2.9208	-2.2125	-2.6146	-2.7292	-2.2708	-2.9021	-2.4	-2.475	-2.7208	-2.1479	136.039	166.052	-7.615	104.408	203.131	-4.502	182.601	162.868	-13.592	192.444	-84.613	-113.034	184.481	62.116	-57.389	99.638	0.00045706	0.0011169	0.00028716	817.09	9.7687e-06	2.0783e-06	859.89	328.13	1.8168e-05	3.964e-06	409.08	183.82	142.76	68.926	2.3431e-05	83.944	0.0019275	0.0018669	0.00056339	966.59	2.1363e-05	2.0195e-05	994.62	382.7	2.112e-05	2.0426e-05	491.03	204.18	197.16	72.553	2.3306e-05	90.998	-66.199	-83.127	124.707	-116.649	107.512	-20.696	-117.556	-111.789	-37.172	123.699	-114.525	-109.739	-107.227	-103.113	-86.370	-105.798	-8191	255	
4169.436	1	1	0	0	0.24483	0.3048	0.079174	0.16973	0.12333	0.12224	0.094683	0.16189	0.1423	0.16066	0.37398	0.25206	0.050227	0.28119	0.20369	0.36755	-2.1396	-2.6562	-2.0625	-2.975	-2.4125	-2.1188	-3.0229	-2.2521	-2.5	-2.6625	-2.3458	-2.9104	-2.5542	-2.4083	-2.8833	-2.3021	9.396	-107.293	-5.048	-96.801	203.924	157.489	38.313	159.499	182.259	100.583	184.966	7.971	-83.023	-103.425	104.417	136.411	0.00031667	0.00085094	0.0004304	824.05	9.5751e-06	6.9167e-06	875.67	338.76	1.0536e-05	6.6622e-06	423.67	186.44	146.37	70.55	1.6315e-05	84.99	0.0019119	0.0019015	0.00060034	963.36	2.1061e-05	2.0826e-05	1017.4	386.91	2.083e-05	2.1055e-05	505.53	205.33	198.27	74.305	2.3862e-05	91.773	-25.751	206.009	121.167	-116.595	51.665	190.215	-117.449	-111.946	206.197	-0.730	-114.313	-110.070	-108.189	-102.872	-32.097	-106.058	-8191	255	
4169.532	1	1	0	0	0.26327	0.24259	0.18565	0.30572	0.14737	0.18837	0.16289	0.074009	0.3377	0.10723	0.25148	0.046903	0.13629	0.40921	0.06412	0.27511	-2.3917	-2.8479	-2.0729	-2.7104	-2.3625	-2.3979	-2.8688	-2.4354	-2.475	-2.9208	-2.2167	-2.7021	-2.5604	-2.4458	-2.925	-2.4521	217.694	163.571	-105.759	199.886	119.119	217.453	161.065	5.753	-31.439	-50.671	120.213	112.227	206.756	164.921	112.495	141.844	0.00055536	0.0015513	0.00017882	828.42	1.6642e-05	1.6108e-05	882.91	340.51	7.6148e-06	1.3318e-05	425.55	187.76	146.51	71.504	1.4374e-05	86.914	0.0018697	0.0019844	0.00060762	961.22	2.0768e-05	2.1871e-05	1021	385.63	2.0291e-05	2.212e-05	505.7	205.42	197.15	75.59	2.3219e-05	92.302	-41.442	129.152	-44.185	-116.597	68.395	-111.050	-117.753	-111.985	-42.715	-127.148	-114.069	-110.416	-107.994	-103.002	7.200	-105.988	-8191	255	
4169.628	1	1	0	0	0.07539	0.24701	0.19095	0.20423	0.23601	0.34883	0.22773	0.23273	0.17866	0.24423	0.25293	0.15731	0.13102	0.060355	0.1755	0.23667	-2.1396	-2.9854	-2.1708	-2.7854	-2.7792	-2.175	-3.0521	-2.5812	-2.4729	-2.9125	-2.1479	-2.575	-2.7708	-2.3354	-2.675	-2.575	-34.693	85.822	155.106	158.160	140.661	-104.670	158.490	194.144	128.162	-53.436	100.540	-108.984	89.229	202.737	134.667	138.977	0.00058222	0.0013939	0.00017954	826.86	8.8444e-06	1.5804e-05	881.99	339.49	4.1252e-06	2.067e-05	424.98	187.03	146.03	70.275	7.5849e-06	85.243	0.0018506	0.0020818	0.00058876	952.21	2.0629e-05	2.3085e-05	1015.8	384.33	2.0625e-05	2.3353e-05	501.73	203.97	198.6	75.678	2.2479e-05	90.535	-42.276	214.762	-2.454	-116.936	1.743	203.289	-117.491	-111.597	-71.000	81.212	-114.152	-109.867	-108.546	-102.946	38.953	-106.222	-8191	255	
4169.747	1	1	0	0	0.31562	0.065741	0.17953	0.082887	0.40376	0.27959	0.22331	0.28372	0.21782	0.1648	0.16877	0.23528	0.14803	0.20596	0.16675	0.18181	-1.7417	-2.8271	-2.35	-2.5667	-2.9354	-2.3375	-3.05	-2.8187	-2.1125	-2.9833	-2.3417	-2.6729	-2.8104	-2.1729	-2.6625	-2.6729	-112.690	47.757	152.217	-69.533	-129.470	-50.585	166.014	202.358	-43.898	-84.806	-89.366	121.822	-8.081	179.393	-0.750	136.310	0.000757	0.00035803	0.00012252	821.55	1.3942e-05	1.0761e-05	874.66	334.01	1.3444e-05	2.2074e-05	420.54	185.45	146.15	69.698	1.2886e-05	84.09	0.0019029	0.0021731	0.0005713	945.05	2.1446e-05	2.397e-05	999.96	380.62	2.185e-05	2.4187e-05	494.52	202.68	204.71	75.565	2.2543e-05	90.106	-78.167	-59.760	-61.941	-116.924	-80.175	-17.990	-117.886	-111.923	101.364	65.042	-114.412	-110.129	-107.930	-103.081	89.281	-105.979	-8191	255	
4169.843	1	1	0	0	0.12995	0.24639	0.26605	0.040472	0.3927	0.093395	0.22194	0.30009	0.11832	0.12757	0.1209	0.19687	0.22241	0.27748	0.10218	0.093633	-1.9375	-2.8063	-2.2167	-2.5021	-2.9313	-2.3312	-2.9667	-2.7625	-2.2	-3.0208	-2.3125	-2.5042	-2.9125	-2.3229	-2.5229	-2.8083	-23.860	194.171	38.146	164.088	42.432	-84.969	41.286	145.567	181.180	50.389	54.423	175.422	164.912	-101.690	122.189	123.689	0.0013469	0.0015928	0.00021356	819.6	3.0193e-05	1.2207e-05	874.65	342.13	2.1535e-05	9.18e-06	429.19	188.23	146.83	71.071	6.2347e-06	85.644	0.0020785	0.0022478	0.00058148	951.39	2.3705e-05	2.4591e-05	1006.6	388.44	2.3954e-05	2.4508e-05	505.21	206.09	214.21	76.689	2.2771e-05	92.17	-68.032	35.452	-53.844	-116.988	-73.068	46.887	-117.726	-112.230	208.976	34.466	-114.152	-110.232	-107.368	-102.840	24.832	-106.117	-8191	255	
4169.940	1	1	0	0	0.19017	0.11326	0.1481	0.041166	0.090278	0.23596	0.050882	0.16994	0.21194	0.17246	0.15442	0.17068	0.19628	0.42241	0.27458	0.20686	-1.5417	-2.8812	-2.4437	-2.3396	-2.9292	-2.0958	-2.5667	-2.7458	-2.1688	-2.8167	-2.5854	-2.3521	-3.0854	-2.3604	-2.6458	-2.8292	170.054	109.713	26.609	-81.470	-98.539	229.681	48.560	182.297	87.506	162.695	-78.759	217.919	126.522	186.188	-113.132	69.166	0.00086629	0.00087125	0.00038563	829.47	9.3205e-06	1.0025e-05	894.24	345.29	7.6546e-06	1.4914e-05	431.86	189.26	149.52	71.325	1.097e-05	86.56	0.0022536	0.0022453	0.00058493	971.04	2.5358e-05	2.4547e-05	1021.9	397.59	2.5563e-05	2.4371e-05	511.23	210.51	221.01	76.865	2.2652e-05	94.02	-71.088	7.593	-124.515	-116.880	211.706	-58.551	-117.408	-112.207	187.440	-3.024	-114.349	-110.295	-107.567	-102.870	-65.310	-106.077	-8191	255	
4170.013	1	1	0	0	0.30488	0.22143	0.098894	0.34988	0.028259	0.11503	0.088408	0.31638	0.04435	0.084679	0.13182	0.11722	0.080739	0.092771	0.14001	0.15228	-1.6646	-2.6146	-2.5167	-2.2854	-3.0062	-2.1312	-2.5729	-3.0604	-2.2313	-2.7562	-2.875	-2.2313	-2.8646	-2.4333	-2.3958	-2.8833	-26.728	66.044	20.275	209.807	30.901	15.972	193.188	171.059	141.848	218.193	122.711	58.041	-75.840	-10.249	48.099	-114.652	0.00086302	0.0015174	0.00060034	834.19	1.8035e-05	1.426e-05	888.92	346.36	1.9505e-05	9.655e-06	434.99	190.42	149.02	71.709	1.5048e-05	85.992	0.0023256	0.0021812	0.00057997	984.7	2.5804e-05	2.3971e-05	1020.5	403.23	2.5775e-05	2.3678e-05	511.67	214.41	221.17	76.638	2.2567e-05	94.739	-49.287	-12.156	-23.345	-117.190	111.541	93.300	-117.993	-112.056	-43.042	5.525	-113.991	-110.083	-107.267	-102.784	-89.645	-106.073	-8191	255	
4170.132	1	1	0	0	0.18798	0.22836	0.1192	0.23205	0.037742	0.31775	0.084296	0.1072	0.15676	0.15339	0.29965	0.19546	0.12349	0.28508	0.35377	0.25443	-1.8875	-2.4333	-2.5875	-2.3	-2.8063	-2.2771	-2.3917	-2.8271	-2.1229	-2.4625	-2.8354	-2.2229	-2.9417	-2.6021	-2.3375	-2.9646	156.462	134.045	-107.875	149.215	177.496	136.617	215.250	222.337	-80.640	-47.824	164.350	126.859	46.053	203.255	77.485	135.497	0.00085592	0.0021059	0.00030797	823.85	7.8627e-06	2.0601e-05	880.54	341.65	6.8406e-06	1.8849e-05	425.42	187.38	150.04	70.299	1.2022e-05	84.326	0.0023017	0.0021508	0.00058171	995.24	2.5309e-05	2.3604e-05	1011	404.56	2.5194e-05	2.3407e-05	506.98	213.55	217.24	75.467	2.3318e-05	94.183	12.769	-56.197	55.591	-117.006	21.916	37.029	-117.737	-112.190	-36.425	-45.689	-114.528	-110.174	-107.953	-102.741	-117.237	-105.878	-8191	255	
4170.228	1	1	0	0	0.08588	0.1342	0.10745	0.14918	0.083109	0.17466	0.14944	0.19401	0.17178	0.10209	0.17768	0.07445	0.16491	0.20277	0.23571	0.17926	-1.7375	-2.4562	-2.6146	-2.0875	-2.9292	-2.6833	-2.2396	-3.2042	-2.3375	-2.3354	-2.8771	-2.1521	-2.7542	-2.6063	-2.1479	-2.9354	-36.017	111.412	54.472	69.530	-51.272	12.403	148.073	118.983	164.564	78.581	134.867	127.522	111.783	143.428	-128.161	213.329	0.00080729	0.00038306	0.00059586	824.23	3.022e-05	2.0097e-05	876.54	344.11	1.8385e-05	1.6016e-05	429.02	187.89	147.15	70.882	1.2507e-05	85.732	0.002263	0.0021493	0.00060915	1007.8	2.498e-05	2.3619e-05	1023.6	408.97	2.4655e-05	2.3378e-05	515.97	215.68	214.62	75.903	2.4738e-05	95.661	-51.830	208.837	139.168	-116.548	92.498	105.184	-117.382	-111.893	13.946	-6.572	-113.937	-109.687	-107.602	-102.670	-95.830	-106.057	-8191	255	
4170.324	1	1	0	0	0.17117	0.085573	0.11945	0.31336	0.15474	0.1416	0.28825	0.15969	0.16153	0.13638	0.15972	0.15426	0.18579	0.15501	0.08192	0.27375	-1.9667	-2.3667	-2.9188	-2.0958	-2.8937	-2.7708	-2.3187	-3.0396	-2.3833	-2.3917	-2.8917	-2.1625	-2.6208	-2.9375	-2.0687	-3.05	118.767	7.656	50.958	216.474	75.949	53.455	123.487	127.944	226.389	23.012	109.501	141.858	-4.947	-63.376	144.413	223.142	0.0002188	0.0015697	0.00038002	835.37	6.9459e-06	8.9773e-06	896.85	353.73	1.1504e-05	6.0539e-06	442.62	193.08	151.27	72.209	1.5855e-05	87.414	0.002211	0.0021153	0.00064271	1010.9	2.43e-05	2.3498e-05	1055.4	417.27	2.4595e-05	2.348e-05	539.45	219.25	216.43	77.438	2.6404e-05	96.842	-14.502	-20.492	111.159	-116.399	142.173	-71.340	-117.562	-111.809	3.996	13.352	-114.197	-109.651	-107.358	-102.694	-92.605	-105.524	-8191	255	
4170.445	1	1	0	0	0.1467	0.2345	0.26607	0.099995	0.156	0.12481	0.14664	0.09259	0.1403	0.065822	0.28701	0.089185	0.33329	0.20346	0.10943	0.1917	-2.0708	-2.4875	-2.8479	-2.2521	-2.625	-2.8396	-2.2542	-3.1188	-2.4708	-2.2375	-3.0812	-2.4104	-2.2792	-2.8937	-2.0458	-2.8854	198.062	123.193	-115.336	-40.397	-119.877	-15.494	38.672	132.130	-104.459	193.373	134.101	82.446	102.523	186.605	156.902	-79.367	0.0010844	0.0013042	0.00010998	837.37	9.0778e-07	1.618e-05	905.5	355.97	1.5423e-05	1.759e-05	449.74	196.18	151.21	72.774	8.4859e-06	88.812	0.0021886	0.0021656	0.00068151	1010.7	2.4065e-05	2.4071e-05	1074.4	416.89	2.4231e-05	2.4331e-05	550.43	220.05	216.04	78.606	2.7251e-05	96.923	-46.016	51.318	151.109	-116.470	-20.481	-118.968	-117.566	-111.644	14.068	-116.457	-114.491	-109.668	-107.304	-102.812	-7.534	-105.760	-8191	255	
4170.541	1	1	0	0	0.12298	0.15202	0.12311	0.23011	0.073369	0.25412	0.31644	0.030092	0.24511	0.038729	0.27689	0.25811	0.054983	0.16534	0.20738	0.25025	-2.1646	-2.3333	-2.9313	-2.3875	-2.4979	-2.8458	-2.2354	-2.8458	-2.6208	-2.2771	-2.8021	-2.4208	-2.3375	-3.1896	-2.0542	-2.8146	179.971	26.832	134.247	-19.931	155.632	224.253	183.224	219.673	119.974	201.170	175.853	220.717	220.826	210.872	116.033	156.350	0.00077614	0.00044467	0.00031513	835.41	1.1358e-05	1.043e-05	902.48	353.22	1.3637e-05	1.4035e-05	439.9	192.25	148.89	71.248	1.1075e-05	85.942	0.0021563	0.0022579	0.00068962	999.78	2.3675e-05	2.4956e-05	1069.4	407.83	2.3452e-05	2.524e-05	536.9	214.45	210.55	77.706	2.6419e-05	93.601	-46.129	98.015	-16.180	-116.747	121.483	185.669	-117.597	-111.909	115.056	165.589	-113.901	-109.827	-107.151	-102.679	153.975	-106.235	-8191	255	
4170.637	1	1	0	0	0.1275	0.13953	0.18511	0.22555	0.33018	0.14351	0.31194	0.25901	0.13933	0.10921	0.058973	0.26505	0.25698	0.24178	0.075135	0.37987	-2.2875	-2.0875	-2.8625	-2.3104	-2.25	-3.0583	-2.2542	-2.6937	-2.7792	-2.0854	-3.0042	-2.4562	-2.3854	-3.0083	-2.2625	-2.6042	7.401	8.259	141.499	179.086	34.026	-60.245	172.400	88.996	174.229	41.709	148.582	145.126	-37.680	180.673	-117.392	188.871	0.00070827	0.0027508	0.00015622	833.94	3.9022e-06	2.6318e-05	892.41	349.69	2.5403e-05	2.7996e-06	437.74	189.11	149.84	71.217	1.994e-05	85.369	0.0021203	0.0023464	0.00066738	986.45	2.3312e-05	2.619e-05	1054	403.15	2.371e-05	2.6607e-05	530.22	211.89	213.11	78.253	2.5881e-05	93.59	-54.814	180.606	-102.995	-116.575	171.168	-101.119	-117.332	-111.832	-94.969	51.023	-113.706	-109.919	-107.524	-102.563	4.093	-105.528	-8191	255	
4170.733	1	1	0	0	0.23529	0.11545	0.3979	0.13716	0.26848	0.13439	0.19288	0.20389	0.21081	0.29451	0.15511	0.064236	0.36595	0.19562	0.064768	0.085498	-2.4104	-2.1375	-2.8	-2.5271	-2.2375	-2.9062	-2.4396	-2.5271	-2.7875	-2.1875	-2.8354	-2.6979	-2.3792	-2.9813	-2.2917	-2.7333	-113.439	-36.231	144.180	65.465	24.259	-29.549	96.935	164.167	-98.122	-74.145	-87.462	210.781	214.545	194.371	24.375	56.831	0.0014051	0.00050367	0.00044919	829.56	1.5924e-05	8.0849e-06	901.87	355.45	8.9226e-06	1.4501e-05	446.98	193.34	149.25	71.899	2.1532e-05	86.449	0.0021973	0.0024936	0.00065546	988.74	2.4665e-05	2.7592e-05	1056.4	409.75	2.5124e-05	2.7872e-05	537.93	215.98	222.83	79.735	2.606e-05	94.5	-46.297	144.159	-15.770	-116.223	-24.231	77.674	-117.257	-112.347	-29.712	144.378	-114.485	-109.789	-106.623	-102.936	76.628	-106.019	-8191	255	
4170.829	1	1	0	0	0.12879	0.15514	0.10533	0.12666	0.23196	0.26666	0.20506	0.034898	0.079011	0.071141	0.18054	0.1061	0.23184	0.27332	0.17681	0.17391	-2.5917	-2.2854	-2.6792	-2.7917	-2.3187	-2.9625	-2.4813	-2.3917	-2.9875	-2.1875	-2.6208	-2.7979	-2.1146	-3.0667	-2.5417	-2.4771	220.693	-109.182	-108.714	212.648	122.944	17.741	-94.120	189.762	-68.210	140.998	-20.281	-50.882	-117.428	219.126	152.199	193.430	0.0014633	0.00051444	0.00032013	836.7	1.8885e-05	2.9876e-05	907.63	364.74	1.7571e-05	3.1024e-05	458.97	195.52	153.35	72.841	1.5991e-05	87.482	0.0023937	0.0025828	0.00065944	997.65	2.6891e-05	2.8092e-05	1069.7	419.63	2.7309e-05	2.8034e-05	545.95	218.51	231.11	79.868	2.5535e-05	95.545	-88.891	-3.854	-31.399	-116.533	-88.894	53.458	-117.380	-112.022	-122.399	-7.723	-114.427	-109.891	-107.383	-102.377	74.569	-105.828	-8191	255	
4170.924	1	1	0	0	0.15956	0.23771	0.16349	0.061387	0.12102	0.27596	0.21503	0.1905	0.16148	0.1035	0.17436	0.25097	0.099399	0.20884	0.0095546	0.090343	-2.4542	-2.2167	-2.7667	-2.8333	-2.1729	-2.9292	-2.65	-2.3292	-3.0229	-2.2833	-2.7396	-2.8875	-2.2333	-3.0604	-2.6854	-2.5	-72.653	-8.999	227.462	180.944	-26.539	-21.403	131.650	202.769	-116.890	214.433	-76.941	162.373	192.717	129.372	140.264	168.473	0.00065899	0.0024761	0.00012693	836.3	3.7805e-06	2.1967e-05	908.25	357.75	1.5919e-05	8.656e-06	448.26	191.59	150.64	71.223	2.4344e-05	84.77	0.0025093	0.0024808	0.00063824	998.88	2.7826e-05	2.6712e-05	1057.3	415.39	2.7954e-05	2.6529e-05	533.57	216.62	232.59	77.734	2.4826e-05	94.181	-49.321	11.096	-16.953	-116.338	192.710	28.965	-116.901	-111.736	-47.615	6.548	-113.983	-109.882	-107.129	-102.489	75.054	-105.435	-8191	255	
4171.044	1	1	0	0	0.040436	0.1497	0.08924	0.27367	0.086901	0.21454	0.16991	0.15775	0.078583	0.099994	0.14757	0.14205	0.15034	0.13901	0.20973	0.22024	-2.4479	-2.2938	-2.4813	-3.0208	-2.2625	-2.9188	-2.6646	-2.3667	-2.9833	-2.3771	-2.5583	-3.0542	-2.2	-3.025	-2.75	-2.3146	91.826	153.101	152.608	199.637	30.119	-114.430	125.874	-66.820	-99.984	196.884	219.991	174.779	82.953	-107.471	97.217	185.955	0.00044944	0.0029241	0.00031413	828.47	1.5363e-05	1.3855e-05	896.95	355.36	7.4481e-06	7.1624e-06	447.13	190.08	150.77	70.75	8.7211e-06	83.441	0.0025593	0.0023813	0.00062636	1003.5	2.8401e-05	2.6e-05	1046.8	419.71	2.8596e-05	2.627e-05	532.8	218.27	234.16	77.261	2.5194e-05	95.352	-91.111	-43.046	-106.403	-116.332	111.865	140.509	-116.709	-112.272	46.614	17.159	-113.883	-109.862	-106.599	-102.607	-9.191	-105.980	-8191	255	
4171.141	1	1	0	0	0.31068	0.11691	0.14354	0.22043	0.11467	0.30915	0.054908	0.12713	0.4055	0.087142	0.13726	0.19332	0.11141	0.11706	0.084216	0.12382	-2.4896	-2.3958	-2.3104	-2.9458	-2.0187	-2.6354	-2.7104	-2.2542	-2.6583	-2.2667	-2.3875	-3.0938	-2.5104	-2.6688	-2.8688	-2.2521	167.314	183.213	-26.771	138.413	-105.937	137.487	53.697	-106.547	42.572	97.656	19.093	187.241	164.001	205.586	-123.600	-10.333	0.00089736	0.00056561	0.0001776	822.16	1.0596e-05	5.2972e-06	898.24	359.45	3.0785e-05	1.2893e-05	443.55	190	150.96	70.826	8.2237e-06	84.932	0.0025965	0.002413	0.00064539	1030.1	2.9032e-05	2.6549e-05	1059.1	434.23	2.9129e-05	2.7101e-05	540.82	225.14	237.37	78.331	2.7584e-05	99.225	-26.223	-39.965	150.752	-116.123	90.937	8.726	-117.067	-112.097	43.584	138.959	-114.492	-109.643	-107.100	-102.370	-103.939	-105.259	-8191	255	
4171.237	1	1	0	0	0.13715	0.12343	0.11999	0.034472	0.2976	0.16622	0.13265	0.28433	0.050916	0.11482	0.19665	0.21649	0.074168	0.12896	0.11779	0.40393	-2.4917	-2.5792	-2.1708	-2.9958	-2.2875	-2.5938	-3.0792	-2.1979	-2.8688	-2.6354	-2.3646	-3.1833	-2.2542	-2.7479	-2.8792	-2.2313	22.845	-30.682	-6.806	-88.137	-51.810	39.524	204.325	-101.852	-109.576	74.064	223.104	89.446	14.584	-96.181	113.157	215.152	0.00025789	0.00049429	0.0002841	840.26	8.5173e-06	1.9958e-05	896.89	352.74	3.4048e-05	2.7464e-05	434.03	188.76	149.79	70.898	2.914e-05	84.703	0.0027137	0.0025774	0.00072827	1082.1	3.0891e-05	2.8621e-05	1103.1	451.71	3.1535e-05	3.0621e-05	568.08	235.55	251.93	80.254	3.472e-05	104.54	-22.380	47.865	171.432	-116.191	89.642	91.968	-117.295	-111.852	44.775	-18.460	-114.069	-109.753	-107.471	-102.889	181.114	-105.635	-8191	255	
4171.308	1	1	0	0	0.14552	0.14995	0.27786	0.18107	0.19686	0.11474	0.17025	0.32143	0.31844	0.21662	0.13888	0.074797	0.30342	0.19593	0.076355	0.10593	-2.2458	-2.7792	-2.2083	-3.0646	-2.3958	-2.5479	-3.0208	-2.1708	-2.8021	-2.6312	-2.2396	-3.0938	-2.5021	-2.6312	-3.0708	-2.6521	135.491	204.998	162.194	211.980	78.262	-18.109	185.195	-121.736	9.765	-101.354	0.410	177.695	162.012	-79.850	203.953	-123.000	0.00086474	0.0022883	0.0010591	828.87	1.3039e-05	1.5416e-05	874.66	344.24	2.1744e-05	1.5555e-05	424.71	188.32	146.32	70.195	2.2083e-05	84.352	0.0030883	0.0030409	0.0009401	1144.2	3.6107e-05	3.3479e-05	1176.7	465.88	3.539e-05	3.4967e-05	607.46	241.69	264.51	82.034	4.1371e-05	106.13	-42.407	31.191	115.248	-116.181	108.105	-35.603	-117.404	-111.487	-16.025	52.011	-114.070	-109.407	-107.133	-102.569	155.800	-105.409	-8191	255	
4171.429	1	1	0	0	0.43258	0.17182	0.11044	0.21148	0.084148	0.34522	0.15831	0.12084	0.33866	0.10442	0.11268	0.24305	0.12921	0.16408	0.069235	0.10753	-2.4458	-2.8375	-2.1042	-2.9625	-2.5167	-2.3312	-3.2208	-2.3375	-2.575	-2.8146	-2.075	-3.0396	-2.5375	-2.4625	-2.9896	-2.5062	71.597	109.718	-67.414	212.716	156.826	-76.645	196.568	161.123	-83.286	4.215	226.712	-100.940	61.693	-101.764	-85.203	103.067	0.00058631	0.0012253	0.00016629	821.65	1.4638e-05	1.1411e-05	876.54	342.05	1.2205e-05	1.512e-05	424.22	186.07	147.29	69.332	9.0235e-06	82.711	0.0032144	0.0032947	0.0010699	1137.2	3.6975e-05	3.5834e-05	1207.6	463.84	3.6006e-05	3.7791e-05	629.28	239.24	268.47	83.487	4.4678e-05	104.89	5.918	195.709	-103.566	-116.526	147.211	208.332	-117.302	-111.214	-1.527	148.048	-114.172	-109.689	-107.550	-102.834	35.080	-105.517	-8191	255	
4171.525	1	1	0	0	0.18182	0.26101	0.1569	0.27874	0.26959	0.099118	0.11628	0.094658	0.20422	0.073777	0.054534	0.3832	0.17861	0.25672	0.088422	0.14356	-1.9562	-2.9479	-2.1271	-2.9188	-2.6167	-2.2042	-3.0354	-2.4042	-2.4625	-2.9271	-2.2208	-2.8688	-2.8583	-2.2021	-2.9729	-2.5438	-90.595	183.795	-24.386	172.538	136.915	65.385	101.078	3.632	33.189	103.301	-48.345	178.048	-99.325	-117.715	194.384	152.178	0.00073975	0.0034381	0.00036694	823.62	1.0535e-05	1.4037e-05	877.66	343.65	1.3992e-05	4.0061e-05	431.65	187.79	147.58	69.435	4.1799e-05	83.595	0.0032721	0.0036471	0.0011536	1130	3.7965e-05	4.0385e-05	1232.3	463.95	3.6746e-05	4.241e-05	644.72	239.02	271.99	86.725	4.4921e-05	105.26	-38.429	176.003	77.454	-116.243	4.612	186.965	-116.982	-111.532	146.180	213.004	-114.040	-109.768	-106.873	-102.832	30.063	-105.640	-8191	255	
4171.621	1	1	0	0	0.1042	0.072369	0.27008	0.26467	0.037352	0.17453	0.2099	0.14534	0.15332	0.1347	0.26154	0.080023	0.23221	0.34465	0.31895	0.14853	-1.9562	-2.8271	-2.125	-2.7667	-2.7438	-2.2667	-2.9562	-2.5438	-2.4062	-3.0312	-2.2396	-2.6083	-2.8125	-2.2604	-2.8417	-2.625	166.849	172.740	111.482	181.374	208.521	-58.148	-120.953	161.191	33.566	150.556	175.869	83.379	209.444	-67.016	199.779	210.358	0.00092039	0.0034958	0.0012876	819.53	1.3766e-05	3.7949e-05	872.45	342.5	1.7631e-05	1.362e-05	424.39	183.3	142.97	69.412	2.8112e-05	82.39	0.0033382	0.0040479	0.0011517	1125.5	3.8575e-05	4.486e-05	1215.5	461.65	3.7721e-05	4.5912e-05	628.28	235.26	275.55	88.188	4.2826e-05	103.53	-65.606	189.521	-36.906	-116.447	171.937	218.167	-117.024	-111.455	48.583	29.739	-114.194	-109.797	-108.417	-102.520	15.889	-105.575	-8191	255	
4171.717	1	1	0	0	0.075061	0.15311	0.12521	0.21206	0.2143	0.11036	0.18943	0.33767	0.10463	0.12593	0.12362	0.3446	0.14096	0.024813	0.13566	0.38216	-1.8687	-2.9729	-2.0792	-2.4625	-2.6688	-2.1917	-2.9604	-2.6042	-2.2583	-3.0604	-2.4604	-2.6354	-2.9313	-2.2062	-2.5646	-2.7354	-85.800	137.028	229.081	161.176	43.863	133.618	6.349	139.051	61.016	207.026	181.219	-95.022	117.188	196.079	-27.282	149.397	0.0012028	0.0022644	0.00056768	804.4	3.9222e-05	1.8805e-05	847.06	330.31	4.2309e-05	2.9367e-05	402.94	177.17	135.57	67.341	1.6047e-05	79.53	0.0034823	0.0042439	0.0010866	1098.3	4.0183e-05	4.6404e-05	1160.7	444.76	3.9658e-05	4.619e-05	592.78	226.2	279.61	86.278	3.9718e-05	100.09	-96.518	18.315	-63.113	-116.490	-92.371	35.996	-117.179	-111.943	223.047	-28.959	-113.246	-109.722	-107.670	-102.624	20.639	-105.619	-8191	255	
4171.814	1	1	0	0	0.11253	0.26052	0.20759	0.31289	0.19864	0.21165	0.15333	0.056613	0.082102	0.05552	0.2283	0.12118	0.29957	0.32113	0.23469	0.10528	-1.7354	-2.95	-2.5917	-2.5396	-2.7333	-2.2188	-2.7979	-2.6937	-2.0625	-2.8104	-2.4104	-2.3875	-2.8	-2.3229	-2.6063	-2.8563	31.962	-88.263	25.758	153.731	106.923	77.281	22.647	126.222	189.557	19.904	188.033	222.224	-123.506	182.738	-108.885	178.959	0.0016532	0.0014149	0.00060575	784.7	2.0255e-05	1.3342e-05	822.91	317.08	1.6614e-05	2.9372e-05	388.87	171.2	134.83	65.877	1.1798e-05	77.736	0.0037266	0.0041472	0.0010266	1072.7	4.2864e-05	4.5172e-05	1118.4	431.97	4.3197e-05	4.4428e-05	573.39	221.69	290.98	83.768	3.8801e-05	98.501	-115.054	24.090	-46.354	-116.273	-104.852	-1.232	-117.002	-111.376	161.322	-6.214	-114.101	-109.478	-107.437	-102.500	-27.423	-105.893	-8191	255	
4171.908	1	1	0	0	0.16918	0.096172	0.18579	0.16417	0.25654	0.19827	0.20374	0.07362	0.22299	0.27081	0.12136	0.097747	0.09681	0.47996	0.17936	0.2574	-1.675	-2.8896	-2.5875	-2.3063	-3.0229	-2.4083	-2.7583	-2.9604	-2.1312	-2.9396	-2.7062	-2.4042	-3.0125	-2.4104	-2.4917	-2.8104	155.196	-42.423	-122.652	220.138	-105.353	159.376	134.360	8.444	-126.543	-87.860	212.052	137.358	-14.297	222.920	-48.266	140.030	0.0012435	0.0035768	0.00059817	784.44	3.8079e-05	3.8366e-05	822.33	318.65	5.7366e-06	3.6904e-05	398.02	170.49	136.39	66.296	2.6805e-05	77.901	0.0040587	0.0039903	0.0010214	1089.9	4.6333e-05	4.4002e-05	1115.6	441.13	4.6504e-05	4.2626e-05	577.29	227.48	301.07	83.046	3.8202e-05	101.17	-78.926	-34.934	-102.142	-116.377	-83.469	49.126	-117.093	-111.484	132.420	-16.137	-113.875	-109.975	-108.236	-102.402	55.301	-106.066	-8191	255	
4172.006	1	1	0	0	0.22416	0.18714	0.18212	0.25879	0.2036	0.16747	0.176	0.31041	0.13319	0.14078	0.074591	0.11911	0.1497	0.1539	0.14502	0.1036	-1.8021	-2.7542	-2.4646	-2.3646	-2.9854	-2.3375	-2.5604	-2.8917	-2.2542	-2.7875	-2.7104	-2.375	-3.0938	-2.4062	-2.4229	-3.1083	-98.892	104.757	116.529	173.657	-85.874	63.540	214.385	-125.536	127.516	-98.188	121.327	148.655	161.452	-51.694	118.643	-106.588	0.00054224	0.0039329	0.00062713	786.16	2.3935e-05	8.2274e-06	830.19	323.94	1.4723e-05	2.1525e-05	397.26	174.21	140.96	67.087	1.6583e-05	79.199	0.004206	0.0037544	0.00099566	1122.5	4.6526e-05	4.1393e-05	1112.4	455.35	4.5975e-05	3.9788e-05	573.46	235.78	295.65	82.781	3.6888e-05	104.4	-66.670	6.232	-56.722	-116.389	62.089	50.621	-117.526	-111.982	48.635	30.647	-113.556	-109.326	-107.476	-102.227	201.996	-105.658	-8191	255	
4172.125	1	1	0	0	0.17929	0.021347	0.15825	0.21931	0.067114	0.22012	0.33114	0.11698	0.22896	0.072814	0.045251	0.10287	0.010198	0.23679	0.10001	0.095316	-1.8062	-2.7896	-2.8979	-2.4083	-2.8563	-2.3208	-2.7125	-3.1104	-2.1354	-2.5812	-2.775	-2.2896	-2.9083	-2.4875	-2.2708	-3.0563	-21.177	-117.529	137.245	-118.022	-62.439	160.958	174.730	-70.985	39.243	201.524	227.605	171.298	186.812	-92.623	11.661	207.666	0.00039664	0.0026179	0.00056151	794.17	2.1241e-05	1.9869e-05	824.44	321.1	3.8848e-05	2.5442e-05	394.43	174	139.45	66.889	1.4132e-05	79.407	0.0040525	0.0035584	0.00097107	1152	4.3574e-05	3.9314e-05	1104.9	462.14	4.3052e-05	3.7735e-05	568.09	239.39	280.64	81.485	3.7442e-05	105.68	-16.612	-30.513	188.278	-116.813	16.896	18.198	-117.622	-112.049	21.885	33.254	-114.134	-109.859	-106.855	-102.677	203.838	-105.399	-8191	255	
4172.221	1	1	0	0	0.10423	0.14181	0.10012	0.1502	0.35709	0.26313	0.045876	0.19885	0.066293	0.13253	0.20233	0.047801	0.083696	0.075656	0.078272	0.055339	-2.0458	-2.575	-2.6229	-2.4167	-2.825	-2.6146	-2.4313	-2.9833	-2.125	-2.4833	-3.0208	-2.1167	-2.7771	-2.7646	-2.2562	-3.1771	213.759	179.131	115.796	200.022	83.837	-47.407	113.347	208.803	18.965	-85.529	156.434	217.697	75.887	15.458	156.127	205.573	0.00080635	0.0012332	0.0009917	799.96	2.5938e-05	2.2355e-05	839.29	323.24	2.8633e-05	2.2601e-05	393.45	175.42	142.02	67.079	5.8231e-06	79.354	0.0037672	0.0033957	0.00099262	1172.5	4.0417e-05	3.8114e-05	1133.1	466.51	4.0701e-05	3.6613e-05	584.18	241.12	269.92	80.787	4.0101e-05	104.83	19.841	-1.547	164.742	-116.804	92.444	8.662	-117.698	-111.818	14.659	-18.645	-114.161	-109.669	-106.475	-102.650	206.478	-105.972	-8191	255	
4172.317	1	1	0	0	0.1056	0.24805	0.18718	0.12816	0.095762	0.10224	0.28613	0.1142	0.19233	0.1462	0.2833	0.15116	0.066538	0.16282	0.17466	0.23208	-1.8833	-2.4875	-3.0312	-2.175	-2.7417	-2.65	-2.3708	-3.0021	-2.4188	-2.4188	-3.1375	-2.2854	-2.7438	-2.7021	-2.2062	-3.1312	107.566	45.331	-65.107	144.952	-124.068	-77.561	116.351	111.291	81.871	73.509	200.226	230.165	-125.127	187.114	-66.424	-126.588	0.0006809	0.00056893	0.0011333	803.77	1.6346e-05	5.6057e-06	832.34	325.25	2.1719e-05	2.0241e-05	396.93	174.97	139.7	66.768	1.5247e-05	78.961	0.0035711	0.0032878	0.0010593	1166.3	3.8423e-05	3.7278e-05	1160.7	460.92	3.9067e-05	3.6063e-05	601.77	237.36	263.11	80.662	4.3425e-05	103.09	-66.187	122.193	108.426	-116.406	110.933	118.592	-117.578	-111.115	2.209	-47.939	-114.287	-109.750	-107.420	-102.618	211.649	-105.509	-8191	255	
4172.413	1	1	0	0	0.047454	0.18102	0.087207	0.29156	0.23947	0.16368	0.3186	0.090486	0.20254	0.13915	0.26559	0.16853	0.081193	0.11763	0.14653	0.22201	-2.1312	-2.2667	-2.8292	-2.1646	-2.6	-2.8958	-2.2354	-3.0875	-2.4146	-2.35	-3.1646	-2.425	-2.6917	-3.0292	-2.2479	-2.9208	-44.782	82.274	32.898	-119.744	24.578	128.685	-113.381	173.688	-59.679	65.238	87.060	150.870	-95.142	199.041	132.483	194.173	0.0005914	0.0018648	0.00048521	808.49	2.0636e-05	2.9047e-05	833.51	323.85	1.2826e-05	3.023e-05	395.39	175.14	140.21	67.293	3.1084e-06	80.07	0.003485	0.0033559	0.0011292	1149.3	3.7125e-05	3.8206e-05	1187.4	449.89	3.8236e-05	3.7605e-05	612.02	232.78	260.62	82.447	4.5285e-05	101.76	-60.823	-115.086	147.395	-116.267	-11.535	223.615	-117.417	-111.452	84.163	185.984	-113.853	-109.529	-106.514	-102.514	-76.177	-105.962	-8191	255	
4172.534	1	1	0	0	0.1083	0.15989	0.34369	0.23553	0.091707	0.046867	0.19741	0.056738	0.19345	0.12122	0.24924	0.17711	0.10004	0.067445	0.19389	0.057696	-2.2104	-2.0104	-2.7958	-2.3083	-2.5042	-2.9875	-2.4208	-2.8458	-2.4896	-2.3771	-3.0292	-2.3521	-2.2812	-3.1167	-2.0396	-2.8417	-73.255	-129.235	73.018	205.820	-88.993	39.336	196.684	-118.970	-125.893	-14.463	206.759	150.210	-51.866	-76.011	-128.678	185.804	0.00024707	0.0036365	0.0007034	810.42	2.519e-05	3.1503e-05	847.84	325.18	1.391e-05	4.7882e-05	403.47	176.4	141.66	67.832	1.8356e-05	80.694	0.0034219	0.0036109	0.0011591	1134.3	3.6798e-05	4.1302e-05	1208.3	446.13	3.812e-05	4.1254e-05	616.02	232.35	260.13	85.203	4.4872e-05	101.55	-8.549	170.254	-58.083	-116.527	50.298	203.886	-117.457	-112.097	-83.201	-128.088	-113.629	-109.801	-107.473	-102.855	6.632	-105.993	-8191	255	
4172.606	1	1	0	0	0.11821	0.37082	0.16507	0.22445	0.23319	0.074701	0.19516	0.29998	0.30261	0.11725	0.19979	0.25666	0.21043	0.20175	0.088429	0.17254	-2.3292	-2.1083	-2.9313	-2.45	-2.2854	-2.9667	-2.4042	-2.6292	-2.7375	-2.175	-2.9646	-2.5604	-2.3833	-3.0625	-2.2708	-2.6854	128.797	-12.339	24.293	74.072	60.275	168.696	167.014	-105.971	-93.918	69.042	-128.358	189.276	102.042	219.723	147.386	-121.784	0.00033829	0.0014554	0.0010222	814.46	7.3733e-06	1.828e-05	847.17	326.67	2.382e-05	2.6247e-05	404.1	177.54	138.7	67.717	3.502e-05	79.893	0.0034044	0.0039189	0.0011168	1126.3	3.6654e-05	4.4104e-05	1191.7	440.09	3.8018e-05	4.4446e-05	602.71	230.79	263.34	86.333	4.2777e-05	99.881	-49.490	171.526	-50.999	-117.061	-100.431	204.651	-117.373	-111.799	220.543	168.757	-113.364	-109.413	-107.286	-102.839	-16.785	-105.885	-8191	255	
4172.726	1	1	0	0	0.056109	0.13043	0.12343	0.19785	0.1563	0.10153	0.15265	0.20114	0.30566	0.1481	0.17941	0.13367	0.18288	0.24374	0.14645	0.32338	-2.3979	-2.1729	-2.8063	-2.7354	-2.3083	-3.0021	-2.3521	-2.6688	-2.5854	-2.175	-2.8312	-2.7208	-2.2854	-3.0021	-2.2792	-2.6688	159.302	-57.982	-24.182	50.746	109.789	22.507	0.390	153.036	3.371	-35.594	173.355	167.227	122.790	83.389	226.073	175.529	0.0014164	0.00083196	0.00072526	808.31	1.6115e-05	5.7722e-06	841.8	322.36	4.3334e-05	4.3712e-05	392.24	172.71	133.92	67.308	2.4967e-05	78.34	0.0035071	0.0041473	0.0010491	1116	3.8514e-05	4.5891e-05	1160.7	431.59	4.0387e-05	4.6053e-05	579.08	225.95	274.42	85.968	4.1124e-05	98.177	-89.325	37.943	-83.216	-116.661	-96.442	-36.098	-116.875	-111.663	-128.401	-19.645	-113.475	-109.954	-107.963	-102.913	14.978	-106.243	-8191	255	
4172.821	1	1	0	0	0.22845	0.11777	0.18434	0.17978	0.16195	0.16865	0.15289	0.26164	0.2141	0.090061	0.14003	0.11397	0.22657	0.10775	0.088857	0.24947	-2.4583	-2.2083	-2.7875	-2.6583	-2.0917	-2.8375	-2.4813	-2.4792	-2.9208	-2.3354	-2.7125	-2.7979	-2.3229	-3.0479	-2.4604	-2.4021	-12.727	222.338	213.958	159.655	-77.039	-55.252	146.165	109.130	-43.864	-65.544	-17.790	115.009	188.273	-51.057	150.674	186.877	0.0010702	0.0033251	0.00059782	816.38	2.3826e-05	4.1094e-05	843.71	321.33	1.6694e-05	3.0829e-05	392.9	174.01	137.58	67.402	1.2629e-05	79.387	0.0038226	0.0042291	0.0010204	1122.3	4.2894e-05	4.5738e-05	1158.3	433.79	4.4323e-05	4.5609e-05	574.58	227.5	292.99	85.446	4.0399e-05	99.337	-99.218	-32.058	-15.858	-116.463	-112.666	68.386	-117.521	-112.262	227.229	36.961	-113.706	-109.910	-108.326	-102.520	-5.546	-106.014	-8191	255	
4172.917	1	1	0	0	0.23203	0.068675	0.14511	0.077732	0.076415	0.13205	0.35897	0.12104	0.10611	0.11016	0.23783	0.10711	0.15397	0.15945	0.16224	0.41767	-2.4729	-2.075	-2.6646	-2.8354	-2.0667	-2.8208	-2.5917	-2.4333	-2.7708	-2.2125	-2.6375	-2.8	-2.4042	-3.0187	-2.6583	-2.3375	-110.962	66.123	212.518	196.378	69.706	130.778	122.595	-7.368	190.430	134.288	132.463	160.203	-54.723	203.588	35.092	173.673	0.0013347	0.0020899	0.00075024	823.47	2.2578e-05	4.169e-05	852.15	324.55	1.0702e-05	1.2388e-05	397.22	175.02	140.37	68.551	1.5636e-05	80.023	0.0040983	0.0040617	0.00099049	1133.2	4.5824e-05	4.3431e-05	1157.6	443.4	4.6869e-05	4.3903e-05	575.98	233.66	305.52	85.056	4.0223e-05	102.65	-43.869	-10.314	-38.876	-116.745	-100.773	36.368	-117.488	-112.460	205.509	23.391	-113.928	-110.238	-107.039	-102.774	11.730	-106.032	-8191	255	
4173.013	1	1	0	0	0.18621	0.26542	0.15399	0.10156	0.17106	0.19666	0.098552	0.10179	0.027625	0.15388	0.10378	0.28924	0.037216	0.28924	0.14841	0.20043	-2.6188	-2.4313	-2.4292	-2.9396	-2.0896	-2.9354	-2.9625	-2.3333	-2.9292	-2.2229	-2.6292	-2.9062	-2.0479	-2.8729	-2.7771	-2.2354	223.211	-9.581	13.194	85.683	126.089	36.539	223.315	190.079	171.709	-120.858	87.928	-94.355	-111.303	211.627	210.730	-104.929	0.00099885	0.0040934	0.00022685	823.71	1.5792e-05	3.0937e-05	851.25	323.64	4.6768e-06	1.3704e-05	395.45	175.41	140	68.846	2.7153e-05	80.396	0.004246	0.0038885	0.00097324	1164.9	4.7296e-05	4.1066e-05	1148.5	454.6	4.6637e-05	4.1708e-05	568.84	239.58	301.97	84.033	3.9454e-05	106.02	-8.655	9.214	-43.819	-116.699	103.042	14.526	-117.666	-111.936	127.317	48.814	-114.000	-109.492	-107.321	-102.686	-15.275	-106.323	-8191	255	
4173.109	1	1	0	0	0.14853	0.14986	0.17721	0.10774	0.16675	0.16266	0.17423	0.19876	0.19038	0.12938	0.13209	0.11175	0.21229	0.1717	0.11231	0.37932	-2.3354	-2.3563	-2.3646	-3.1896	-2.2396	-2.6688	-2.9125	-2.1917	-3.0604	-2.4625	-2.3458	-3.0271	-2.4771	-2.7021	-2.6396	-2.2833	-26.279	-48.895	106.560	218.997	44.885	-23.490	191.609	-60.186	189.231	217.582	206.331	-87.371	58.558	-72.887	177.983	109.153	0.0014301	0.00079358	0.00013014	825.46	2.76e-05	1.9756e-05	849.12	321.93	2.9208e-05	6.8841e-06	389.17	174.52	139.19	67.847	1.1818e-05	79.1	0.0041337	0.003781	0.00097827	1200.4	4.5978e-05	4.0116e-05	1153.1	469.33	4.4878e-05	4.109e-05	573.57	245.01	295.36	82.869	4.1068e-05	107.39	31.450	162.786	162.483	-117.148	96.686	69.986	-117.589	-112.302	59.605	14.329	-114.216	-109.993	-106.709	-103.094	139.227	-106.680	-8191	255	
4173.205	1	1	0	0	0.11694	0.095782	0.056072	0.10489	0.40153	0.25585	0.22689	0.34286	0.15804	0.24117	0.30689	0.24429	0.23219	0.13484	0.15041	0.20397	-2.4437	-2.4708	-2.1604	-3.0083	-2.025	-2.5208	-3.1229	-2.2667	-2.7812	-2.6542	-2.4542	-2.8729	-2.3042	-2.6042	-2.9437	-2.1813	-17.935	0.583	184.383	143.548	-96.241	205.884	148.038	202.981	-34.664	-82.495	209.026	218.991	70.595	-15.449	192.105	178.179	0.00082381	0.0019968	0.00067553	819.07	1.0531e-05	2.124e-05	846.17	321.75	4.4428e-05	9.1433e-06	388.61	174.5	140.79	67.049	3.5699e-05	79.442	0.0039711	0.0037539	0.0010353	1225.7	4.4329e-05	3.9456e-05	1174.6	477.58	4.2702e-05	4.0792e-05	589.8	246.13	286.7	82.073	4.3809e-05	107.68	43.004	-59.869	134.210	-116.638	69.292	51.378	-117.730	-111.511	12.035	26.330	-114.452	-110.108	-107.594	-103.111	219.135	-105.937	-8191	255	
4173.301	1	1	0	0	0.32008	0.075107	0.078154	0.1488	0.23138	0.25002	0.03956	0.26717	0.13475	0.27709	0.32357	0.07216	0.13366	0.223	0.043938	0.39306	-2.2188	-2.5292	-2.2021	-2.85	-2.4813	-2.4271	-3.0917	-2.4333	-2.7396	-2.5438	-2.3521	-2.8792	-2.425	-2.4771	-2.9313	-2.2708	152.329	85.255	98.103	-120.591	-7.456	33.616	210.759	187.208	-21.756	44.542	-125.927	-100.189	181.342	215.734	125.891	142.410	0.00074767	0.00037361	0.00061759	822.61	2.2024e-05	1.7413e-05	847.42	326.09	3.7999e-05	1.3562e-05	401.09	175.85	142.47	68.448	5.449e-05	81.229	0.0037561	0.0036822	0.001118	1221.8	4.2485e-05	3.8879e-05	1212.1	477.38	4.1204e-05	4.0545e-05	620.25	245.26	285	83.506	4.7513e-05	108.35	27.730	-66.035	148.725	-116.204	51.823	1.395	-117.792	-111.629	31.081	-127.489	-114.493	-109.916	-107.382	-103.029	184.485	-105.928	-8191	255	
4173.397	1	1	0	0	0.1257	0.029707	0.33933	0.081139	0.061285	0.31251	0.38233	0.13703	0.2019	0.14235	0.25548	0.13525	0.23394	0.083502	0.14338	0.17749	-2.2875	-2.7021	-2.0687	-3.05	-2.4833	-2.2792	-2.9938	-2.4062	-2.7062	-2.8812	-2.3292	-2.9437	-2.625	-2.1312	-3.0563	-2.5083	-74.876	126.136	-3.817	173.019	-65.097	-78.234	203.075	105.649	192.017	73.158	103.337	16.482	-121.432	-78.721	-1.437	-36.910	0.00048438	0.001033	0.00068457	831.71	2.2367e-05	1.8239e-05	864.79	330.71	1.5336e-05	3.0418e-05	404.15	179.43	142.79	68.817	1.2501e-05	82.067	0.0037081	0.0037726	0.0012179	1208.1	4.2176e-05	4.0343e-05	1252.6	474.38	4.0316e-05	4.206e-05	640.97	242.1	282.08	85.143	4.8786e-05	107.16	-47.291	-1.793	188.577	-116.868	101.343	184.105	-117.773	-111.962	18.598	224.915	-114.225	-110.018	-107.218	-102.964	53.737	-105.898	-8191	255	
4173.494	1	1	0	0	0.11416	0.1999	0.077903	0.27081	0.085772	0.15756	0.44313	0.13793	0.24242	0.16465	0.25398	0.35575	0.2522	0.062392	0.14412	0.113	-2.1458	-2.9104	-2.2167	-2.9417	-2.5646	-2.2792	-2.9	-2.4458	-2.3417	-2.9542	-2.4271	-2.7438	-2.7125	-2.3833	-2.8312	-2.5521	-7.456	132.908	69.352	146.293	83.854	212.286	219.470	205.168	-12.765	119.798	-84.704	-126.203	153.514	-70.214	-27.236	-121.846	0.00038536	0.001064	0.00042367	842.22	1.145e-05	1.8351e-05	873.21	332.33	1.2895e-05	3.4575e-05	409.51	177.55	140.29	68.385	1.5179e-05	80.081	0.003577	0.0039565	0.0012471	1183.7	4.1057e-05	4.3317e-05	1258.4	467.07	3.9382e-05	4.4987e-05	640.84	236.48	278.29	86.83	4.7676e-05	104.23	-39.775	-92.805	-17.312	-116.790	-4.677	204.154	-117.362	-111.490	86.713	149.675	-113.938	-109.732	-107.590	-103.153	1.179	-106.020	-8191	255	
4173.614	1	1	0	0	0.11658	0.14367	0.18227	0.096438	0.24316	0.056525	0.14649	0.45822	0.24248	0.12843	0.1465	0.077209	0.12092	0.28176	0.25536	0.12492	-2.0687	-2.925	-2.1333	-2.7146	-2.7042	-2.1833	-3.1125	-2.5042	-2.2625	-3.0354	-2.1125	-2.7083	-2.675	-2.2896	-2.7	-2.6396	124.921	130.671	197.154	201.657	18.204	116.730	211.046	177.745	184.208	-16.744	211.336	-97.396	155.009	-77.155	124.964	156.898	0.00060656	0.0039826	0.0004261	832.83	1.9074e-05	3.4357e-05	857.46	330.32	4.541e-06	1.2662e-05	401.46	176.29	140.05	67.775	1.5976e-05	80.227	0.003553	0.0042737	0.0012215	1163.8	4.1317e-05	4.737e-05	1235.1	461.52	3.9864e-05	4.8487e-05	628.29	233.47	281.63	88.56	4.5326e-05	103.25	-47.290	127.768	-35.515	-116.617	-73.913	218.758	-117.209	-111.386	-21.471	220.828	-113.912	-109.594	-106.436	-102.833	-52.551	-106.011	-8191	255	
4173.710	1	1	0	0	0.21132	0.17932	0.21355	0.27782	0.089065	0.11231	0.16788	0.26509	0.25321	0.095353	0.093749	0.24182	0.11183	0.34782	0.09003	0.23542	-1.9875	-2.7854	-2.0521	-2.5563	-2.725	-2.3021	-2.9688	-2.5917	-2.2771	-2.9188	-2.3688	-2.7167	-2.8833	-2.3042	-2.8688	-2.8125	38.482	-20.368	74.445	-51.784	185.516	65.093	165.904	115.630	135.982	-97.943	64.164	108.476	224.683	209.674	198.811	-127.260	0.0015468	0.002173	0.00070247	833.23	2.2143e-05	1.1586e-05	863.72	332.85	2.8034e-05	1.9473e-05	406.28	176.55	140.29	68.875	1.8343e-05	80.666	0.0036828	0.0044658	0.0011531	1147.9	4.224e-05	4.8588e-05	1200.1	456.45	4.139e-05	4.8091e-05	606.56	229.6	287.7	88.765	4.1635e-05	102.05	-74.188	50.671	-36.740	-116.680	-96.527	141.831	-117.246	-111.497	-120.597	23.572	-113.655	-110.015	-108.071	-102.495	95.608	-105.733	-8191	255	
4173.807	1	1	0	0	0.10729	0.13164	0.2005	0.2053	0.18246	0.19737	0.19401	0.014129	0.27004	0.081178	0.17726	0.041614	0.13187	0.32459	0.13922	0.068897	-1.8583	-2.9688	-2.4854	-2.675	-2.825	-2.1333	-2.9479	-2.7583	-2.3063	-3.0438	-2.5958	-2.4583	-2.9062	-2.4729	-2.5	-2.9375	-81.247	44.319	70.355	-60.364	70.622	77.689	176.039	-52.296	200.557	-13.764	199.805	39.066	56.357	220.269	103.685	114.711	0.0014268	0.0019395	0.00049771	825.74	3.1086e-05	1.9625e-05	859.35	332.86	5.9191e-05	3.7134e-05	404.65	175.92	140.8	69.001	2.5928e-05	81.115	0.0038441	0.0043317	0.001079	1128.4	4.4621e-05	4.7455e-05	1172.3	451.83	4.4705e-05	4.6432e-05	597.61	228.98	300.24	87.674	3.9538e-05	102.33	-68.876	-24.485	-10.675	-116.395	-80.329	53.312	-117.168	-111.349	181.134	3.460	-113.724	-109.644	-107.002	-102.204	15.625	-105.586	-8191	255	
4173.901	1	1	0	0	0.091439	0.33147	0.1725	0.031015	0.22189	0.21192	0.19422	0.17116	0.057903	0.15961	0.044016	0.16419	0.12681	0.17939	0.25293	0.14732	-1.7104	-2.9917	-2.525	-2.5104	-2.9292	-2.1667	-2.775	-2.8125	-2.2146	-2.8646	-2.5771	-2.375	-2.9917	-2.3458	-2.4479	-2.9042	-44.867	-46.041	159.469	120.291	-13.763	112.769	173.742	21.478	213.741	55.383	221.984	138.648	99.437	160.988	98.621	128.286	0.0011532	0.0023673	0.00050849	825.08	1.882e-05	2.5269e-05	857.5	330	2.8546e-05	2.0377e-05	405.25	177.31	143.03	69.378	1.1576e-05	80.644	0.0041065	0.0040408	0.0010398	1126.5	4.6467e-05	4.4572e-05	1153.2	453.29	4.6831e-05	4.3203e-05	592.26	233.68	307.62	86.484	3.8831e-05	104.24	-106.054	-18.509	-111.653	-116.778	-82.712	50.283	-117.373	-111.824	-114.572	-31.244	-113.565	-110.185	-107.286	-102.495	-31.305	-105.955	-8191	255	
4173.997	1	1	0	0	0.026853	0.011838	0.20543	0.22117	0.16389	0.25564	0.085267	0.067929	0.087683	0.27807	0.26067	0.18439	0.16016	0.20121	0.16273	0.25602	-1.6437	-2.95	-2.5625	-2.5875	-2.9167	-2.1729	-2.5271	-3.2146	-2.1271	-2.5812	-2.7229	-2.3125	-2.7667	-2.5187	-2.4458	-3.0771	97.502	125.777	-9.834	128.789	-125.222	175.673	91.270	71.656	-86.587	-78.042	180.753	-113.170	119.929	164.161	-114.292	182.652	0.0010359	0.0013427	0.0001543	824.18	3.9641e-06	4.2762e-05	863.59	335.58	1.7616e-05	2.8562e-05	412.84	178.25	146.27	68.985	2.6579e-05	80.601	0.0042976	0.0038593	0.001025	1163.3	4.7925e-05	4.3125e-05	1153.7	473.13	4.8258e-05	4.2041e-05	601.19	243.7	311.89	85.966	3.9751e-05	108.06	-37.557	-16.598	48.724	-116.684	124.465	-15.989	-117.475	-111.902	40.819	-16.297	-113.906	-109.847	-106.915	-102.278	6.048	-105.681	-8191	255	
4174.095	1	1	0	0	0.22426	0.11003	0.082859	0.20036	0.17553	0.2482	0.031623	0.068503	0.16639	0.3014	0.090518	0.38754	0.43172	0.040453	0.26099	0.12523	-1.7458	-2.7979	-2.7333	-2.4417	-2.7812	-2.5146	-2.6042	-3.2896	-2.2792	-2.7146	-2.8979	-2.2979	-2.95	-2.7625	-2.3458	-3.1167	64.396	-115.410	28.684	-24.466	-78.433	92.458	160.385	-74.467	95.785	-118.713	118.154	57.430	118.206	153.313	173.532	-78.803	0.00044165	0.0028293	0.0003107	826	4.4882e-05	4.6986e-06	873.95	345.79	2.9545e-05	3.0487e-05	419.39	180.2	146.45	69.278	2.4141e-05	81.015	0.0043774	0.0038426	0.001056	1220	4.7689e-05	4.3272e-05	1176.1	499.77	4.7739e-05	4.1773e-05	617.53	254.26	306.03	86.18	4.1223e-05	110.93	30.037	-26.145	9.990	-116.439	70.206	-99.638	-117.802	-111.899	32.921	-3.444	-114.073	-109.565	-106.914	-102.327	207.440	-105.779	-8191	255	
4174.214	1	1	0	0	0.26569	0.019797	0.15194	0.16301	0.050478	0.095558	0.077982	0.12447	0.22496	0.11214	0.10439	0.28399	0.15521	0.22422	0.22967	0.16342	-1.7771	-2.5854	-2.8792	-2.1188	-2.9604	-2.8833	-2.2396	-2.9896	-2.1979	-2.5979	-2.9896	-2.4083	-2.7625	-2.725	-2.2812	-3.1396	201.574	45.726	-82.204	173.605	-89.527	114.448	96.367	162.010	-105.926	-129.442	177.877	206.708	122.823	179.934	81.662	-0.919	0.00056422	0.0024638	0.00085828	831.55	3.4954e-05	2.363e-05	875.03	345.91	9.5601e-06	1.2125e-05	419.57	182.9	147.85	70.074	3.6993e-05	81.972	0.0041947	0.0037469	0.0010901	1244.9	4.484e-05	4.2188e-05	1198	504.05	4.4924e-05	4.0133e-05	627.35	255.68	292.09	85.821	4.3555e-05	110.79	22.024	-0.786	144.944	-116.136	54.842	49.191	-117.554	-111.505	52.075	64.762	-114.464	-109.628	-107.378	-102.438	211.829	-105.594	-8191	255	
4174.310	1	1	0	0	0.057096	0.21818	0.16868	0.057901	0.12364	0.10012	0.14449	0.27395	0.28457	0.12025	0.066303	0.24914	0.2905	0.22567	0.14545	0.24813	-1.9604	-2.2833	-2.8333	-2.3688	-2.8354	-2.7667	-2.3375	-3.0542	-2.2833	-2.4146	-3.05	-2.4	-2.75	-2.8812	-2.1625	-2.9313	-2.075	-27.896	-18.425	101.654	-95.706	113.545	77.191	124.637	-13.100	-90.439	84.699	167.827	46.841	188.641	-9.813	-122.828	0.00087052	0.0014698	0.00091894	834.01	3.6391e-05	7.1833e-06	879.29	344.47	1.4565e-05	1.7555e-05	417.96	183.42	147.01	69.895	2.4043e-05	82.33	0.0039275	0.0035899	0.0011514	1237.8	4.1844e-05	4.0728e-05	1229.8	494.63	4.2521e-05	3.9014e-05	642.53	251.46	282.12	85.358	4.6353e-05	108.56	-2.763	24.980	141.473	-115.970	92.344	86.764	-117.387	-111.548	-9.760	-39.438	-113.975	-109.533	-106.897	-102.745	202.245	-105.570	-8191	255	
4174.406	1	1	0	0	0.11032	0.22507	0.10052	0.19039	0.205	0.17806	0.26032	0.065096	0.2253	0.048998	0.069187	0.20421	0.096126	0.24695	0.40355	0.10476	-2.0062	-2.3146	-3.1292	-2.4313	-2.7271	-2.9375	-2.2583	-3.0354	-2.675	-2.275	-3.0062	-2.3708	-2.8146	-2.9854	-2.2188	-3.0146	26.314	57.635	-107.633	172.854	-3.399	46.308	28.922	140.963	-70.560	-118.698	-64.114	179.448	200.610	216.364	-65.835	81.894	0.00091974	0.00085438	0.0004913	831.85	1.8254e-05	1.0083e-05	872.14	342.97	1.4603e-05	2.1644e-05	414.71	180.89	146.04	68.619	1.0282e-05	80.997	0.0037653	0.0035751	0.0012088	1209.6	4.0198e-05	4.1111e-05	1251.7	480.07	4.1206e-05	4.0121e-05	648.94	244.05	274.89	85.391	4.8468e-05	104.75	-48.869	-103.634	169.582	-116.040	118.656	179.089	-117.780	-111.460	9.984	188.940	-114.202	-109.669	-107.822	-102.480	183.919	-105.799	-8191	255	
4174.502	1	1	0	0	0.22028	0.21301	0.099834	0.18791	0.077493	0.27623	0.21717	0.07903	0.20126	0.10681	0.20641	0.10162	0.19372	0.13451	0.063151	0.25341	-2.1333	-2.2875	-3.0062	-2.3979	-2.3292	-2.7771	-2.3146	-2.7562	-2.6562	-2.2042	-2.9167	-2.5521	-2.4188	-3.0604	-2.1625	-2.6458	101.289	-51.984	-84.928	124.597	-16.771	-85.539	190.145	87.161	160.843	58.183	-88.453	119.719	-127.034	176.827	-34.090	-111.953	0.00054766	0.0019746	0.00049112	834.62	1.8866e-05	2.5412e-05	866.56	339.72	2.1497e-05	4.3674e-05	415.5	179.39	143.05	69.024	3.8973e-05	81.07	0.0036737	0.0038116	0.0012383	1184	3.9185e-05	4.3701e-05	1260.1	467.26	4.0685e-05	4.3732e-05	646.99	240.31	272.69	87.658	4.7978e-05	103.52	8.430	159.902	-54.877	-115.980	43.479	224.343	-117.168	-111.574	20.858	196.132	-114.000	-109.250	-106.686	-102.507	14.677	-105.422	-8191	255	
#DATA ENDS
