BOXY.EXE: ISS Imagent and Oximeter Data Acquisition Program Version 0.80
Ascii Record File

#ACQ INFORMATION
2  Detector Channels 
16  External MUX Channels 
1  Auxiliary Channels 
5000  Waveform (CCF) Frequency (Hz)
1  Waveforms Skipped 
30  Waveforms Averaged 
1  Cycles Averaged 
16  Acquisitions per Waveform 
10.0806  Updata Rate (Hz) 

#FILE INFORMATION
TRUE -- External MUX Channel results are PARSED.
FALSE -- AC DC and Phase are NOT grouped.
TRUE -- Companion Program Settings File CREATED.
FALSE -- AC data not excluded
FALSE -- DC data not excluded
FALSE -- Phase data not excluded
FALSE -- Auxillary Chn. data not excluded
Tab delimiters

#CALIBRATION STATE
TRUE -- Waveform Calibration Values APPLIED.


#AUX CALIBRATION VALUES
Val Type	aux-1	

Term	1.0000e+00	
Factor	0.0000e+00	


#WF CALIBRATION VALUES
A = Detector Channel
Val Type	A-AC1	A-AC2	A-AC3	A-AC4	A-AC5	A-AC6	A-AC7	A-AC8	A-AC9	A-AC10	A-AC11	A-AC12	A-AC13	A-AC14	A-AC15	A-AC16	A-DC1	A-DC2	A-DC3	A-DC4	A-DC5	A-DC6	A-DC7	A-DC8	A-DC9	A-DC10	A-DC11	A-DC12	A-DC13	A-DC14	A-DC15	A-DC16	A-Ph1	A-Ph2	A-Ph3	A-Ph4	A-Ph5	A-Ph6	A-Ph7	A-Ph8	A-Ph9	A-Ph10	A-Ph11	A-Ph12	A-Ph13	A-Ph14	A-Ph15	A-Ph16	

Term	0.00000e+00	0.00000e+00	0.00000e+00	0.00000e+00	0.00000e+00	0.00000e+00	0.00000e+00	0.00000e+00	0.00000e+00	0.00000e+00	0.00000e+00	0.00000e+00	0.00000e+00	0.00000e+00	0.00000e+00	0.00000e+00	0.00000e+00	0.00000e+00	0.00000e+00	0.00000e+00	0.00000e+00	0.00000e+00	0.00000e+00	0.00000e+00	0.00000e+00	0.00000e+00	0.00000e+00	0.00000e+00	0.00000e+00	0.00000e+00	0.00000e+00	0.00000e+00	0.00000e+00	0.00000e+00	0.00000e+00	0.00000e+00	0.00000e+00	0.00000e+00	0.00000e+00	0.00000e+00	0.00000e+00	0.00000e+00	0.00000e+00	0.00000e+00	0.00000e+00	0.00000e+00	0.00000e+00	0.00000e+00	
Factor	1.00000e+00	1.00000e+00	1.00000e+00	1.00000e+00	1.00000e+00	1.00000e+00	1.00000e+00	1.00000e+00	1.00000e+00	1.00000e+00	1.00000e+00	1.00000e+00	1.00000e+00	1.00000e+00	1.00000e+00	1.00000e+00	1.00000e+00	1.00000e+00	1.00000e+00	1.00000e+00	1.00000e+00	1.00000e+00	1.00000e+00	1.00000e+00	1.00000e+00	1.00000e+00	1.00000e+00	1.00000e+00	1.00000e+00	1.00000e+00	1.00000e+00	1.00000e+00	X	X	X	X	X	X	X	X	X	X	X	X	X	X	X	X	

B = Detector Channel
Val Type	B-AC1	B-AC2	B-AC3	B-AC4	B-AC5	B-AC6	B-AC7	B-AC8	B-AC9	B-AC10	B-AC11	B-AC12	B-AC13	B-AC14	B-AC15	B-AC16	B-DC1	B-DC2	B-DC3	B-DC4	B-DC5	B-DC6	B-DC7	B-DC8	B-DC9	B-DC10	B-DC11	B-DC12	B-DC13	B-DC14	B-DC15	B-DC16	B-Ph1	B-Ph2	B-Ph3	B-Ph4	B-Ph5	B-Ph6	B-Ph7	B-Ph8	B-Ph9	B-Ph10	B-Ph11	B-Ph12	B-Ph13	B-Ph14	B-Ph15	B-Ph16	

Term	0.00000e+00	0.00000e+00	0.00000e+00	0.00000e+00	0.00000e+00	0.00000e+00	0.00000e+00	0.00000e+00	0.00000e+00	0.00000e+00	0.00000e+00	0.00000e+00	0.00000e+00	0.00000e+00	0.00000e+00	0.00000e+00	0.00000e+00	0.00000e+00	0.00000e+00	0.00000e+00	0.00000e+00	0.00000e+00	0.00000e+00	0.00000e+00	0.00000e+00	0.00000e+00	0.00000e+00	0.00000e+00	0.00000e+00	0.00000e+00	0.00000e+00	0.00000e+00	-2.51673e+01	-1.09131e+02	-1.36792e+02	-1.83698e+02	-1.38176e+01	-7.28325e+01	-1.57869e+02	-1.62015e+02	-6.96302e+01	-9.69870e+01	-1.72092e+02	-1.75791e+02	-1.89181e+02	-1.78194e+02	-7.65473e+01	-1.51485e+02	
Factor	2.82887e-05	9.62443e-05	2.62348e-05	1.61568e-01	9.06967e-07	1.03337e-06	1.67683e-01	6.49704e-02	1.10886e-06	1.02177e-06	1.02924e-01	3.36800e-02	8.03786e-02	9.68118e-03	9.66469e-07	1.40111e-02	7.08911e-07	7.21329e-07	2.01149e-07	7.90580e-02	7.90081e-09	7.90084e-09	7.70976e-02	3.12878e-02	7.89045e-09	7.89930e-09	4.70277e-02	1.53915e-02	3.30660e-02	4.62330e-03	7.91615e-09	6.40668e-03	X	X	X	X	X	X	X	X	X	X	X	X	X	X	X	X	



#DISTANCE SETTINGS
A = Detector Channel
A-1	A-2	A-3	A-4	A-5	A-6	A-7	A-8	A-9	A-10	A-11	A-12	A-13	A-14	A-15	A-16	

2.5000e+00	3.0000e+00	2.5000e+00	3.0000e+00	2.0000e+00	3.0000e+00	1.5000e+00	3.0000e+00	3.0000e+00	3.0000e+00	3.0000e+00	3.0000e+00	3.0000e+00	3.0000e+00	1.5000e+00	3.0000e+00	

B = Detector Channel
B-1	B-2	B-3	B-4	B-5	B-6	B-7	B-8	B-9	B-10	B-11	B-12	B-13	B-14	B-15	B-16	

1.0000e+01	1.0000e+01	1.0000e+01	1.4400e+00	1.0000e+01	1.0000e+01	1.5100e+00	1.9400e+00	1.0000e+01	1.0000e+01	1.9900e+00	2.4900e+00	2.4100e+00	2.9000e+00	1.0000e+01	2.9800e+00	




#DATA BEGINS
time	group	step	mark	flag	A-AC1	A-AC2	A-AC3	A-AC4	A-AC5	A-AC6	A-AC7	A-AC8	A-AC9	A-AC10	A-AC11	A-AC12	A-AC13	A-AC14	A-AC15	A-AC16	A-DC1	A-DC2	A-DC3	A-DC4	A-DC5	A-DC6	A-DC7	A-DC8	A-DC9	A-DC10	A-DC11	A-DC12	A-DC13	A-DC14	A-DC15	A-DC16	A-Ph1	A-Ph2	A-Ph3	A-Ph4	A-Ph5	A-Ph6	A-Ph7	A-Ph8	A-Ph9	A-Ph10	A-Ph11	A-Ph12	A-Ph13	A-Ph14	A-Ph15	A-Ph16	B-AC1	B-AC2	B-AC3	B-AC4	B-AC5	B-AC6	B-AC7	B-AC8	B-AC9	B-AC10	B-AC11	B-AC12	B-AC13	B-AC14	B-AC15	B-AC16	B-DC1	B-DC2	B-DC3	B-DC4	B-DC5	B-DC6	B-DC7	B-DC8	B-DC9	B-DC10	B-DC11	B-DC12	B-DC13	B-DC14	B-DC15	B-DC16	B-Ph1	B-Ph2	B-Ph3	B-Ph4	B-Ph5	B-Ph6	B-Ph7	B-Ph8	B-Ph9	B-Ph10	B-Ph11	B-Ph12	B-Ph13	B-Ph14	B-Ph15	B-Ph16	aux-1	digaux	

3280.700	1	1	0	256	0.10619	0.083363	0.11927	0.10657	0.30068	0.10408	0.29637	0.10033	0.083768	0.17743	0.24529	0.20603	0.1774	0.11293	0.13975	0.059738	-1.75	-2.4333	-2.5563	-2.1188	-2.6146	-2.3271	-2.2521	-2.9458	-2.0875	-2.1667	-2.7438	-1.95	-2.6125	-2.5312	-2.1562	-2.7458	235.415	76.333	176.050	120.566	36.372	26.224	275.691	106.991	45.078	54.868	75.293	240.265	235.138	287.237	62.101	-9.200	0.00013873	0.0006466	0.00010616	1023.1	7.086e-07	4.3635e-06	1120.3	208.76	1.0142e-05	2.5787e-06	268.17	74.449	59.037	17.42	1.9739e-06	24.425	0.00064809	0.00058316	0.00015713	1038.2	7.0856e-06	6.4437e-06	1119.3	223.59	7.0114e-06	6.2489e-06	281.97	82.664	75.318	19.963	5.994e-06	28.426	236.395	105.197	0.279	-20.389	162.995	170.812	-20.329	-12.774	55.506	59.475	-13.330	-5.353	-5.173	1.076	279.248	0.456	-8191	255	
3280.796	1	1	0	0	0.10377	0.11513	0.1319	0.22437	0.12595	0.17525	0.1302	0.051475	0.2254	0.20761	0.2852	0.038993	0.035683	0.25935	0.10358	0.10229	-1.7854	-2.0625	-2.5438	-2.1333	-2.5771	-2.6125	-2.1667	-2.9708	-2.3083	-2.1021	-2.6771	-2.0021	-2.3688	-2.4688	-1.9083	-2.6667	280.012	208.275	132.772	211.674	59.687	197.330	-28.970	233.376	-26.779	218.481	220.696	281.754	307.589	91.048	129.789	13.598	4.1232e-05	0.00026564	0.00010182	1027	3.8191e-06	7.1833e-06	1121.7	208.72	6.8827e-06	6.7454e-06	267.39	74.318	59.747	17.471	1.0513e-05	24.566	0.00061317	0.00056465	0.00015877	1041.8	6.7176e-06	6.37e-06	1122.5	224.93	6.8255e-06	6.1949e-06	283.88	83.476	74.823	20.002	6.5797e-06	28.592	8.983	-17.246	293.247	-20.458	323.053	72.574	-20.227	-12.820	313.880	147.827	-12.903	-6.104	-4.098	1.247	185.134	0.154	-8191	255	
3280.893	1	1	0	0	0.067495	0.16574	0.13973	0.21372	0.24987	0.057271	0.14188	0.1172	0.087497	0.16981	0.098138	0.20016	0.35542	0.15222	0.1524	0.079973	-1.9896	-1.9833	-2.8229	-1.9479	-2.4708	-2.5812	-2.1937	-2.5312	-2.3104	-2.1271	-2.7021	-2.0687	-2.3187	-2.7146	-2.0396	-2.675	140.332	97.106	76.336	45.264	239.926	0.276	207.838	186.518	113.434	304.652	294.784	180.764	268.629	146.445	255.941	299.595	0.00012963	0.00029355	0.00020828	1025.1	9.0504e-06	3.219e-06	1119.6	209.9	4.7379e-06	5.3162e-06	269.82	75.015	58.795	17.413	3.5826e-06	24.672	0.00060861	0.00056641	0.0001738	1045.7	6.6453e-06	6.3881e-06	1128.9	225.72	6.7213e-06	6.2588e-06	287.83	83.672	74.216	20.012	7.16e-06	28.519	67.765	253.199	100.265	-20.505	94.079	5.697	-20.075	-12.607	76.013	84.628	-12.962	-6.170	-4.757	0.969	175.366	0.086	-8191	255	
3280.989	1	1	0	0	0.34646	0.073552	0.11762	0.16278	0.094692	0.17469	0.098625	0.075029	0.027472	0.21296	0.078331	0.22	0.083768	0.15881	0.12714	0.13335	-1.9062	-1.9854	-2.6667	-2.3146	-2.1	-2.6625	-2.0708	-2.7292	-2.6417	-2.0667	-2.8667	-2.1188	-2.2833	-2.6104	-2.1583	-2.4375	244.350	-24.542	105.315	218.444	262.481	315.322	224.428	185.376	215.722	106.014	137.687	-7.130	-26.364	5.900	279.814	55.212	0.00012773	0.00019744	9.7148e-05	1023.1	3.1733e-06	1.9628e-06	1125.4	209.7	5.4423e-06	1.0411e-05	269.13	74.417	58.506	17.454	3.9432e-06	24.537	0.00059644	0.00057402	0.00018657	1043.4	6.5792e-06	6.5375e-06	1136.9	224.54	6.7762e-06	6.5642e-06	292.34	83.343	74.782	20.275	7.8396e-06	28.486	266.210	258.161	117.606	-20.415	274.618	264.484	-20.396	-12.655	29.481	165.891	-13.615	-5.796	-4.438	1.437	210.316	0.344	-8191	255	
3281.085	1	1	0	0	0.066118	0.16536	0.23534	0.31418	0.17217	0.056653	0.053333	0.094426	0.05842	0.060831	0.26449	0.20725	0.030886	0.10403	0.17022	0.066502	-2.2104	-1.8979	-2.6542	-2.4083	-2.3438	-2.7979	-2.2979	-2.5563	-2.6125	-2.2479	-2.7458	-2.3625	-2.0687	-2.825	-2.0938	-2.2938	203.101	28.895	117.800	291.412	13.445	248.502	149.759	178.145	109.446	184.430	163.280	-18.261	76.120	199.093	96.362	305.758	0.00026129	0.00067776	6.3656e-05	1027.1	2.6151e-06	1.2484e-05	1119.9	209.79	2.3192e-06	3.0898e-06	267.62	74.423	58.602	17.458	5.8591e-06	24.666	0.00061182	0.00062483	0.00020185	1043.9	6.6863e-06	7.1012e-06	1139.4	224.23	6.7897e-06	7.1999e-06	293.35	82.989	74.655	20.562	7.9152e-06	28.352	276.149	157.206	117.398	-20.234	150.664	217.729	-20.361	-12.734	33.455	185.328	-13.496	-6.318	-4.483	1.287	64.981	0.491	-8191	255	
3281.181	1	1	0	0	0.14945	0.087101	0.20824	0.27812	0.098471	0.083463	0.13985	0.2118	0.033027	0.041439	0.1836	0.32652	0.15534	0.085101	0.16762	0.16816	-2.1521	-1.8667	-2.7271	-2.5729	-1.9917	-2.7062	-2.2833	-2.4	-2.5062	-1.9875	-2.6375	-2.3729	-2.0604	-2.8354	-2.0854	-2.3333	40.175	162.681	6.983	290.635	171.117	163.468	287.417	258.629	96.483	223.775	262.437	291.088	230.156	103.069	248.153	57.143	2.1194e-05	0.00082245	0.00017056	1027.9	3.7259e-06	1.5914e-05	1121.2	209.18	5.7194e-06	8.6167e-06	269.39	74.375	58.287	17.429	6.8617e-06	24.474	0.00059929	0.00066689	0.00019409	1041.5	6.3838e-06	7.3024e-06	1135.4	222.52	6.4428e-06	7.3454e-06	289.43	82.145	73.331	20.651	7.2898e-06	27.966	171.079	176.535	17.274	-20.520	139.564	168.511	-20.320	-12.371	268.720	136.455	-13.428	-5.211	-4.951	1.352	33.070	0.041	-8191	255	
3281.302	1	1	0	0	0.03205	0.15866	0.19605	0.13215	0.17518	0.27498	0.11615	0.15234	0.05769	0.052383	0.17846	0.1305	0.066517	0.15685	0.20168	0.22352	-2.2438	-2.0563	-2.4979	-2.6708	-2	-2.6208	-2.225	-2.1646	-2.7354	-2.0542	-2.6312	-2.4271	-2.0354	-2.6937	-2.1375	-2.2729	191.935	24.459	41.117	60.641	281.537	40.436	323.768	95.346	280.738	164.809	256.388	324.153	179.039	31.053	300.960	250.147	0.00018753	0.00010019	5.751e-05	1026.8	2.1905e-06	4.6418e-06	1121	209.3	6.6798e-06	2.0909e-06	267.94	74.444	58.449	17.536	8.8503e-06	24.482	0.00058926	0.00069319	0.00018228	1039.7	6.5559e-06	7.6345e-06	1132.6	222.06	6.7841e-06	7.7888e-06	287.8	82.101	75.234	20.902	7.1838e-06	27.912	211.990	81.157	213.279	-20.644	246.477	127.665	-20.210	-12.573	198.132	276.387	-13.122	-5.798	-3.692	1.276	87.226	0.087	-8191	255	
3281.396	1	1	0	0	0.058538	0.092864	0.18101	0.11525	0.17899	0.1713	0.074556	0.095005	0.1647	0.075054	0.15612	0.23531	0.12967	0.16373	0.35097	0.23642	-2.4562	-2.0062	-2.4479	-2.6312	-1.925	-2.775	-2.5042	-2.1708	-2.7292	-2.1063	-2.5354	-2.7562	-1.8771	-2.6083	-2.3958	-1.9625	102.767	209.078	22.390	23.365	242.509	161.266	290.414	134.597	66.296	102.676	256.040	-29.628	244.557	212.811	42.917	69.554	0.00014048	0.00083046	0.00011984	1026	6.0379e-06	5.2119e-06	1121.1	209.86	8.3826e-06	4.5282e-06	269.04	74.133	57.71	17.421	7.4924e-06	24.488	0.00063956	0.000722	0.00017978	1040	7.2595e-06	7.954e-06	1134.4	222.29	7.5133e-06	7.956e-06	288.17	82.28	78.662	20.868	7.1745e-06	27.993	252.972	106.270	328.397	-20.447	209.244	84.133	-20.483	-12.787	203.922	-3.522	-13.406	-5.685	-4.391	1.171	226.097	0.311	-8191	255	
3281.469	1	1	0	0	0.29945	0.093643	0.29435	0.14064	0.092572	0.21265	0.24465	0.22402	0.1957	0.17908	0.12219	0.11025	0.065546	0.052492	0.075089	0.22428	-2.2062	-2.0708	-2.2417	-2.7729	-1.9833	-2.7854	-2.5271	-2.1917	-2.6521	-2.1646	-2.0708	-2.7188	-1.9271	-2.6312	-2.6875	-2.0104	165.978	-26.007	301.921	-23.494	146.708	129.816	6.835	27.518	293.941	164.024	296.237	122.511	242.187	108.357	324.785	250.012	0.0002424	0.0010181	0.00018499	1027.4	7.8457e-06	6.9647e-06	1127.8	208.71	2.9903e-06	4.0973e-06	269.46	73.969	57.847	17.38	7.4534e-06	24.389	0.0006972	0.00071154	0.00017822	1040.8	7.8375e-06	7.6316e-06	1133.4	222.6	7.9067e-06	7.7073e-06	286.9	82.714	80.231	20.634	7.0055e-06	28.159	240.509	314.704	90.083	-20.439	269.782	29.841	-20.228	-12.629	234.078	295.342	-13.491	-5.658	-4.946	0.839	278.528	0.601	-8191	255	
3281.564	1	1	0	0	0.3153	0.33924	0.29503	0.14773	0.12622	0.040014	0.31252	0.24977	0.18518	0.23307	0.22806	0.028718	0.29028	0.021371	0.14715	0.16938	-2.3292	-2.2167	-2.0208	-2.9917	-2.0396	-2.5208	-2.7583	-2.0958	-2.5083	-2.3396	-2.2125	-2.7188	-2.0938	-2.3458	-2.6125	-2.0979	11.513	216.266	275.309	100.650	291.851	34.259	-21.006	320.988	166.622	256.588	326.506	14.966	260.259	-9.254	-26.954	212.498	0.00026191	0.00053862	0.00013689	1027.4	3.1013e-06	3.7319e-06	1120.8	208.08	2.5591e-06	2.6016e-06	267.23	74.185	58.399	17.448	5.9824e-06	24.476	0.00072621	0.00067744	0.00017265	1043.9	8.0269e-06	7.1792e-06	1130.4	223.8	7.9653e-06	7.2212e-06	285.19	83.269	80.102	20.403	6.7664e-06	28.538	211.136	312.346	-18.032	-20.475	326.910	63.146	-20.407	-12.851	124.716	328.102	-12.948	-5.428	-4.176	1.024	24.907	0.505	-8191	255	
3281.662	1	1	0	0	0.12452	0.074491	0.065536	0.1243	0.2164	0.17719	0.12084	0.13035	0.11775	0.10205	0.1259	0.3188	0.075363	0.15207	0.2267	0.075138	-2.3646	-2.3	-2.15	-2.9458	-2.1979	-2.4021	-2.7146	-2.0187	-2.4437	-2.5292	-2.2333	-2.6667	-2.1771	-2.2229	-2.5187	-2.1312	39.925	90.482	279.790	308.965	124.010	297.716	265.721	273.672	109.674	76.089	-7.946	29.519	248.695	136.081	59.866	266.479	0.00017601	0.00015403	0.0001123	1032	3.0462e-06	9.1436e-06	1123.9	207.96	1.1476e-05	2.8376e-06	268	74.55	58.855	17.503	8.3154e-06	24.255	0.0007102	0.00065484	0.00017064	1052	8.0316e-06	7.1925e-06	1130.3	226.52	7.8966e-06	7.2407e-06	286.26	84.524	79.839	20.402	6.9871e-06	29.099	182.792	164.747	129.845	-20.334	182.958	16.793	-19.934	-12.469	-4.228	215.645	-12.980	-5.585	-5.380	0.765	51.938	0.560	-8191	255	
3281.781	1	1	0	0	0.054051	0.25874	0.11332	0.16673	0.073026	0.040119	0.17372	0.08895	0.090291	0.31424	0.28879	0.28567	0.1804	0.083514	0.15423	0.013072	-2.125	-2.3479	-1.9333	-2.8729	-2.0771	-2.2875	-2.6667	-2.0729	-2.5333	-2.5458	-2.0333	-2.8271	-2.2542	-2.1979	-2.7167	-2.0625	223.809	198.627	219.834	236.669	-19.267	30.971	219.848	274.506	279.985	43.402	254.067	224.955	156.401	59.719	160.036	23.981	2.8046e-05	0.00021883	0.00011124	1027.8	2.5389e-06	2.3692e-06	1127.5	207.13	1.5671e-05	4.1805e-06	267.6	74.619	58.868	17.308	5.7679e-06	24.689	0.00069866	0.00065142	0.00017671	1056.4	7.7562e-06	7.0841e-06	1136.6	228.39	7.7139e-06	7.2171e-06	288.01	85.553	79.063	20.388	7.4382e-06	29.428	259.364	-12.900	-6.826	-20.422	122.838	201.755	-20.099	-12.690	105.852	-29.187	-12.904	-5.649	-4.460	0.696	176.757	0.249	-8191	255	
3281.877	1	1	0	0	0.037189	0.07257	0.26332	0.1877	0.25168	0.119	0.29476	0.17292	0.12845	0.11335	0.1463	0.38204	0.21431	0.11009	0.092991	0.21718	-2.2146	-2.4979	-1.9354	-2.8729	-2.2208	-2.0792	-2.9271	-2.0917	-2.4625	-2.6292	-2.0896	-2.5438	-2.2042	-2.2104	-2.8208	-2.3292	85.528	-9.940	23.314	298.064	177.974	328.894	202.642	303.973	246.922	30.358	-24.798	280.193	268.969	290.736	319.796	97.456	0.00012896	0.0011029	0.00019036	1026.5	2.8464e-06	4.0248e-06	1124.6	209.63	5.5867e-06	5.5635e-06	268.4	74.07	58.327	17.304	8.9038e-06	24.655	0.00067228	0.0006489	0.00018948	1057.6	7.4257e-06	6.9064e-06	1140.4	228.67	7.3649e-06	7.0887e-06	292.06	85.129	78.332	20.347	8.083e-06	29.426	210.668	62.682	133.519	-20.323	192.526	71.870	-20.145	-12.639	46.789	102.803	-13.184	-6.233	-4.773	0.522	195.094	-0.244	-8191	255	
3281.973	1	1	0	0	0.28304	0.1279	0.30112	0.22402	0.14921	0.14423	0.37152	0.10873	0.071267	0.043652	0.15711	0.26397	0.061853	0.31982	0.1758	0.18526	-1.7875	-2.7708	-2.0583	-2.6208	-2.4833	-1.9646	-2.9646	-2.0604	-2.1375	-2.5167	-1.9771	-2.4958	-2.4208	-2.0479	-2.6813	-2.3958	102.003	111.508	86.837	251.386	35.586	145.852	235.167	89.120	145.233	60.876	8.151	-24.045	46.654	303.154	162.837	183.454	0.00015621	0.00063086	0.00013452	1030	9.0611e-06	3.1521e-06	1128.4	209.62	5.3779e-06	5.5208e-06	267.18	74.536	59.035	17.364	3.1467e-06	24.666	0.00067118	0.00066075	0.0002104	1059.8	7.5579e-06	7.1502e-06	1149	228.6	7.3725e-06	7.3182e-06	296.41	84.677	77.698	20.5	8.4849e-06	29.011	279.805	163.389	138.203	-20.529	179.799	162.951	-20.449	-12.490	66.123	207.414	-12.920	-6.208	-5.097	1.067	63.018	0.401	-8191	255	
3282.094	1	1	0	0	0.1522	0.066805	0.17643	0.10483	0.2471	0.11299	0.070104	0.1065	0.11685	0.079354	0.31908	0.21232	0.22385	0.14357	0.36113	0.22223	-1.8062	-2.825	-2.0187	-2.4479	-2.5771	-2.0229	-2.9188	-2.2958	-2.0229	-2.5375	-2.1813	-2.4313	-2.5938	-1.9771	-2.8438	-2.4854	216.014	189.950	121.530	294.643	123.157	144.855	282.940	295.598	193.884	59.433	320.458	248.143	276.162	93.740	193.609	2.618	0.00015292	9.4178e-05	0.00010819	1032.4	4.2408e-06	1.0083e-05	1124.7	208.88	7.9313e-06	7.004e-06	268.52	74.554	58.52	17.525	7.3514e-06	24.485	0.00064934	0.00066865	0.00021422	1051.5	7.1932e-06	7.3255e-06	1145.7	225.77	6.969e-06	7.4426e-06	295.3	83.603	76.419	20.693	8.2645e-06	28.696	266.757	218.073	302.076	-20.520	73.505	143.815	-20.645	-12.646	261.150	146.591	-13.524	-6.203	-4.770	1.403	60.334	0.487	-8191	255	
3282.165	1	1	0	0	0.2023	0.27469	0.14634	0.3825	0.3313	0.17835	0.14901	0.16692	0.12082	0.33975	0.066602	0.24939	0.27826	0.26378	0.13896	0.14746	-1.6833	-2.6521	-2.0458	-2.325	-2.5625	-1.9417	-2.6417	-2.2729	-2.0917	-2.7458	-1.9896	-2.2917	-2.625	-1.95	-2.5396	-2.5062	100.942	256.028	160.620	-29.480	-16.677	281.078	287.660	189.574	235.795	81.626	52.195	-12.365	0.419	0.288	264.713	246.509	0.00016169	0.00039245	0.00012127	1025.3	2.9521e-06	5.55e-06	1126.2	209.57	3.8218e-06	9.3065e-06	268.82	74.363	58.382	17.364	1.111e-05	24.341	0.00062753	0.0007113	0.00021102	1046.1	7.0029e-06	7.7932e-06	1145.6	224.63	6.7601e-06	7.8831e-06	293.12	82.75	75.607	20.903	7.7579e-06	28.38	141.334	126.488	-9.692	-20.514	180.935	177.537	-20.191	-12.809	314.628	182.728	-13.337	-6.206	-4.507	1.203	54.756	0.364	-8191	255	
3282.261	1	1	0	0	0.234	0.13951	0.19572	0.16268	0.2566	0.18041	0.26984	0.18606	0.15675	0.1474	0.18372	0.18536	0.28188	0.10561	0.19103	0.16196	-1.6042	-2.7208	-2.1146	-2.3833	-2.6583	-2.0979	-2.6604	-2.4604	-2.0479	-2.7521	-2.2333	-2.0854	-2.6083	-2.0583	-2.5167	-2.6646	310.746	93.229	299.000	266.655	-7.041	127.488	280.675	305.942	-7.079	-13.571	21.719	280.805	146.201	88.842	5.493	275.647	0.00030466	0.00046168	0.00017095	1030.8	6.0143e-06	3.6936e-06	1126.5	209.64	1.3682e-06	5.1489e-06	268.61	73.684	58.821	17.462	3.0675e-06	24.673	0.00061093	0.00072978	0.00019687	1044.1	7.0469e-06	8.0731e-06	1139.1	223.34	6.8782e-06	8.1358e-06	290.3	81.929	76.837	21.015	7.2852e-06	28.199	244.636	143.266	316.074	-20.378	300.918	194.776	-20.239	-12.543	265.043	175.061	-13.147	-6.134	-4.137	0.977	274.702	0.241	-8191	255	
3282.382	1	1	0	0	0.1451	0.04663	0.19934	0.20863	0.21842	0.049502	0.48795	0.15224	0.21129	0.041708	0.10593	0.062271	0.10162	0.060089	0.12701	0.15206	-1.5708	-2.675	-2.2542	-2.3958	-2.6104	-1.95	-2.5979	-2.4938	-2.1146	-2.7417	-2.3312	-2.1125	-2.7271	-2.0812	-2.2562	-2.7375	22.676	326.313	291.857	275.464	203.098	313.009	312.712	117.608	165.012	186.183	293.987	13.338	296.896	313.507	232.134	36.621	0.00039623	0.00030259	0.00014928	1029.4	6.9725e-07	6.9255e-06	1122.1	209.18	1.1449e-05	5.7839e-06	267.69	73.873	58.624	17.421	6.4155e-06	24.453	0.00064793	0.000735	0.00018624	1040.4	7.3382e-06	7.9957e-06	1132	221.84	7.1984e-06	7.6914e-06	286.38	81.094	77.145	20.582	6.6406e-06	27.713	214.892	114.047	27.238	-20.470	257.227	60.560	-20.196	-12.563	207.714	-23.701	-13.341	-5.814	-3.812	1.011	4.679	0.596	-8191	255	
3282.476	1	1	0	0	0.06208	0.31391	0.12318	0.18542	0.10598	0.08596	0.17695	0.19691	0.091941	0.13308	0.17851	0.21835	0.1625	0.23713	0.21226	0.075409	-1.5104	-2.5854	-2.3792	-2.1292	-2.5729	-2.0625	-2.4771	-2.7125	-1.9417	-2.5167	-2.6354	-2.15	-2.7	-2.0417	-1.9813	-2.8292	11.892	182.280	278.226	286.185	-11.949	143.600	269.083	66.653	194.659	-28.923	273.568	118.849	175.808	255.543	169.073	197.581	6.2383e-05	0.00043306	0.00012318	1028.9	3.4253e-06	3.7495e-06	1126.2	207.36	5.2751e-07	5.6361e-06	267.71	74.316	58.481	17.355	1.8825e-07	24.243	0.00064891	0.00066112	0.00016911	1033.3	7.2335e-06	7.1936e-06	1125.8	219.3	7.1046e-06	6.8538e-06	283.45	80.816	76.94	20.167	6.2088e-06	27.507	239.132	90.526	-17.488	-20.447	20.619	146.197	-20.460	-12.248	270.859	4.808	-12.894	-5.728	-4.956	1.160	67.498	0.341	-8191	255	
3282.573	1	1	0	0	0.21393	0.063891	0.11382	0.20274	0.41539	0.1609	0.061881	0.12659	0.19034	0.2068	0.22708	0.21018	0.020758	0.13816	0.32109	0.078599	-1.5521	-2.4458	-2.4229	-2.2062	-2.6333	-2.2979	-2.2896	-2.8187	-2.1188	-2.4104	-2.6937	-2.1271	-2.6354	-2.2292	-2.1458	-2.7125	229.392	154.592	214.665	324.502	299.248	126.383	251.381	219.696	19.900	261.294	257.487	292.406	221.061	-25.299	156.904	205.899	0.00032498	0.00024557	0.00010547	1025.2	4.7348e-06	1.0399e-05	1116.9	206.87	3.4291e-06	4.8851e-06	265.77	73.443	58.274	17.266	5.6476e-06	24.359	0.00065412	0.00060713	0.00015953	1033.2	7.183e-06	6.6049e-06	1119.3	219.23	7.1877e-06	6.4098e-06	279.86	80.999	76.056	19.876	5.9334e-06	27.85	178.373	18.543	295.554	-20.439	202.484	35.558	-20.253	-12.490	75.638	-1.000	-13.021	-5.632	-4.323	0.959	92.377	0.510	-8191	255	
3282.693	1	1	0	0	0.34283	0.22702	0.411	0.0739	0.28373	0.13655	0.17399	0.19018	0.080466	0.27971	0.099382	0.21048	0.091309	0.35693	0.084183	0.070374	-1.8292	-2.3646	-2.6375	-2.3333	-2.8896	-2.2646	-2.2146	-2.8354	-2.0771	-2.4021	-2.6146	-2.0458	-2.4813	-2.3688	-2.0563	-2.8312	323.768	40.819	303.377	105.918	72.856	-10.881	262.253	243.618	160.617	213.920	174.167	-27.415	321.213	32.255	188.348	-10.309	0.00013881	0.00023767	8.8938e-05	1026.1	3.9835e-06	1.368e-05	1117.4	206.92	8.3278e-06	7.7338e-06	267.26	73.625	59.068	17.213	1.1953e-05	24.269	0.00064647	0.00057611	0.0001549	1035.7	6.996e-06	6.3259e-06	1115.1	220.27	6.9134e-06	6.0747e-06	278.8	81.528	74.312	19.597	5.669e-06	27.75	288.914	202.395	149.302	-20.420	112.957	57.268	-20.279	-12.281	190.111	121.514	-13.212	-5.630	-4.474	1.129	157.025	0.621	-8191	255	
3282.765	1	1	0	0	0.16199	0.16622	0.020932	0.23864	0.056447	0.081184	0.12513	0.16112	0.12125	0.082012	0.043744	0.13419	0.24176	0.074881	0.38736	0.14522	-1.7104	-2.3438	-2.6625	-2.2521	-2.4875	-2.5479	-2.2604	-2.9062	-2.0854	-2.2042	-2.7562	-2.1521	-2.3833	-2.5125	-2.0208	-2.6292	290.651	213.468	244.983	285.204	120.858	185.364	-28.667	-4.247	16.381	-4.656	243.193	9.968	284.738	113.702	76.083	-24.268	0.00013167	0.00042228	0.00017117	1021.3	6.9983e-06	3.3214e-06	1116	206.3	4.1226e-06	1.6919e-06	264.97	74.056	57.641	17.242	4.5779e-06	24.338	0.00058191	0.00052369	0.00014449	1030	6.1339e-06	5.72e-06	1110	218.36	6.0533e-06	5.4476e-06	276.24	80.647	70.643	19.25	5.5665e-06	27.413	286.674	65.463	273.291	-20.283	151.404	275.445	-20.362	-12.038	235.396	51.441	-13.142	-6.317	-5.347	1.369	204.622	0.750	-8191	255	
3282.861	1	1	0	0	0.28001	0.19067	0.031497	0.20685	0.18129	0.14447	0.29072	0.054251	0.26093	0.28299	0.1828	0.15418	0.11742	0.18296	0.12612	0.19983	-1.8687	-2.1042	-2.5563	-2.1188	-2.2833	-2.6188	-2.2708	-2.7292	-2.2604	-2.1875	-2.8771	-2.0729	-2.2958	-2.5083	-2.1771	-2.4417	171.679	11.595	34.938	254.196	78.585	25.927	320.448	97.976	283.271	185.452	140.594	281.357	137.941	279.463	111.859	301.758	0.00021346	0.00050742	0.00020148	1019.8	1.4213e-06	3.1662e-06	1112.4	204.63	8.5127e-07	7.0364e-07	264.53	73.246	57.474	17.098	9.3635e-06	24.154	0.00052109	0.00048015	0.00014352	1026	5.507e-06	5.3007e-06	1108.1	215.68	5.5154e-06	5.0829e-06	275.51	79.885	68.411	19.016	5.8086e-06	27.046	256.877	8.805	121.806	-20.337	7.575	288.015	-20.072	-12.551	309.328	-2.917	-13.018	-6.171	-4.841	0.878	173.512	0.369	-8191	255	
3282.957	1	1	0	0	0.27978	0.22108	0.41173	0.40122	0.17597	0.1406	0.3832	0.057882	0.21948	0.24595	0.045129	0.15541	0.12593	0.28287	0.18938	0.042669	-1.8104	-2.2229	-2.7313	-2.3646	-2.4021	-2.7438	-2.1917	-2.6354	-2.3958	-2.1521	-2.7083	-2.1437	-2.4042	-2.6625	-1.75	-2.6104	166.582	326.108	301.718	272.646	277.621	182.448	-20.984	71.890	73.448	40.305	267.799	236.921	-1.844	224.048	-20.896	16.503	0.00028418	0.00029303	0.00016126	1019.6	4.372e-06	3.2561e-06	1110.4	205.81	5.376e-06	4.4493e-06	263.59	73.33	57.755	17.07	4.4061e-06	24.169	0.00049582	0.00046337	0.00015076	1023.3	5.3025e-06	5.1967e-06	1110.1	214.92	5.3676e-06	5.135e-06	277.67	79.459	68.08	19.137	6.1428e-06	26.866	237.901	143.872	155.005	-20.220	201.760	309.392	-20.139	-12.622	228.645	233.758	-12.984	-6.110	-4.801	1.537	83.967	0.479	-8191	255	
3283.078	1	1	0	0	0.072163	0.21406	0.15781	0.24138	0.28881	0.31567	0.15226	0.31807	0.16459	0.16687	0.23265	0.13131	0.065667	0.13833	0.12092	0.12126	-2.2687	-2.125	-2.6917	-2.4292	-2.2812	-2.6708	-2.2083	-2.4354	-2.6604	-1.9417	-2.7208	-2.2271	-2.1937	-2.725	-1.9604	-2.45	26.494	181.849	310.734	-20.867	298.640	110.678	2.277	225.940	81.791	229.914	315.058	278.549	-4.433	241.093	325.534	191.994	0.00014151	0.00052758	0.00023648	1022.6	7.1294e-06	9.1614e-06	1113	204.53	6.8161e-07	7.3304e-06	264.89	72.968	57.252	17.135	3.0933e-06	24.149	0.00048652	0.00048032	0.00015757	1021	5.1297e-06	5.3923e-06	1112.5	213.24	5.1792e-06	5.3614e-06	277.89	78.71	66.927	19.222	6.1218e-06	26.625	232.082	151.917	10.879	-20.488	91.417	195.762	-20.116	-12.657	31.897	173.291	-13.078	-6.211	-5.001	1.344	3.599	0.398	-8191	255	
3283.174	1	1	0	0	0.33974	0.14755	0.152	0.25298	0.20993	0.18099	0.12255	0.11669	0.12692	0.077261	0.1019	0.23628	0.24843	0.3023	0.10357	0.11105	-2.1937	-2.1083	-2.7125	-2.5646	-2.2542	-2.7854	-2.3167	-2.2917	-2.55	-1.9271	-2.5292	-2.4813	-2.0729	-2.8792	-2.1042	-2.4542	124.333	300.580	314.035	317.768	179.709	290.923	165.575	124.951	234.794	258.655	168.849	300.178	158.556	31.033	78.947	204.674	0.00017283	0.00019547	0.00013679	1017.9	5.0437e-06	4.5486e-06	1113.1	204.17	2.8916e-06	4.4287e-06	265.79	74.045	57.118	17.329	1.0962e-05	24.065	0.0004705	0.00051434	0.00015457	1017.2	5.0861e-06	5.8353e-06	1113.2	212.78	5.205e-06	5.9349e-06	277.35	78.864	67.575	19.554	5.9761e-06	26.48	182.713	216.195	101.053	-20.390	193.785	186.442	-20.321	-12.645	129.669	164.573	-12.909	-5.659	-4.124	1.478	51.614	0.401	-8191	255	
3283.270	1	1	0	0	0.1	0.18191	0.13421	0.22943	0.077028	0.11956	0.29372	0.20899	0.10304	0.17549	0.22644	0.093157	0.04108	0.19357	0.20438	0.12381	-2.1813	-2.0812	-2.6083	-2.55	-1.9604	-2.6896	-2.2417	-2.3146	-2.725	-1.9604	-2.7188	-2.6083	-2.0896	-2.8063	-2.2917	-2.175	280.090	143.488	66.866	312.357	70.884	311.693	226.940	325.560	149.163	325.754	56.254	26.751	52.696	9.989	125.227	234.827	9.8074e-05	0.00035336	0.00013768	1010.8	4.1058e-06	2.7313e-06	1112.9	204.38	6.4262e-06	3.0139e-06	264.09	73.34	57.464	17.163	4.8284e-06	24.12	0.00047824	0.00055105	0.00014735	1013.6	5.1168e-06	6.1021e-06	1107.2	211.93	5.2865e-06	6.132e-06	275.05	78.468	68.629	19.645	5.74e-06	26.483	202.848	161.131	19.855	-20.323	144.834	210.126	-20.293	-12.277	206.639	215.751	-13.284	-5.819	-4.269	0.942	86.925	0.423	-8191	255	
3283.364	1	1	0	0	0.074022	0.2427	0.2323	0.11167	0.061378	0.068561	0.26546	0.17345	0.12774	0.073687	0.15461	0.089967	0.080881	0.20575	0.28991	0.2486	-2.2854	-2.0667	-2.3292	-2.7771	-2.0208	-2.5438	-2.5563	-2.1896	-2.9708	-2.0833	-2.3604	-2.8354	-1.7854	-2.6292	-2.2313	-1.9208	165.250	18.736	72.583	124.093	160.353	269.168	251.971	-26.995	113.482	-4.274	43.566	1.141	323.605	320.379	74.538	94.153	0.00038128	0.00062129	0.00020102	1017.1	6.2424e-06	3.0188e-06	1113.2	204.54	2.0962e-06	2.7394e-06	264.96	73.346	57.587	17.23	5.0516e-06	24.02	0.0004998	0.00057346	0.00014294	1015.6	5.6942e-06	6.2849e-06	1107.9	212.17	5.8377e-06	6.323e-06	274.82	78.51	71.003	19.681	5.7005e-06	26.487	254.736	70.930	51.287	-20.235	248.688	92.145	-20.282	-12.618	218.926	315.645	-13.300	-5.856	-3.517	0.954	196.017	0.972	-8191	255	
3283.461	1	1	0	0	0.11956	0.20766	0.11366	0.18067	0.27727	0.090532	0.12382	0.22989	0.11049	0.21439	0.0030871	0.20537	0.14323	0.087013	0.28883	0.062123	-2.4458	-2.1604	-2.1854	-2.7458	-1.7729	-2.6083	-2.6667	-2.0646	-2.6896	-2.1	-2.3521	-2.7562	-2.0479	-2.4688	-2.4792	-2.1562	186.115	113.957	-9.694	221.583	-13.053	73.269	257.589	152.221	207.836	310.720	-12.983	239.349	136.572	207.143	141.501	119.309	0.00046074	0.00032127	3.2565e-05	1019.1	1.0476e-05	4.9751e-06	1119.9	205.37	4.5422e-06	7.2721e-06	265.4	73.399	57.132	17.174	3.2806e-06	23.966	0.00055076	0.00057132	0.00014024	1016.7	6.1358e-06	6.1192e-06	1110.6	212.73	6.2685e-06	6.1696e-06	274.74	78.817	72.96	19.559	5.6014e-06	26.638	241.248	120.047	29.757	-20.205	278.106	6.147	-20.173	-12.379	213.910	293.879	-13.407	-5.962	-3.836	1.178	111.930	0.528	-8191	255	
3283.557	1	1	0	0	0.19983	0.35983	0.068665	0.2229	0.089094	0.053897	0.19768	0.27401	0.037442	0.20784	0.14021	0.25943	0.27347	0.095498	0.04558	0.10388	-2.3375	-2.1271	-2.2208	-2.8271	-2.0479	-2.6896	-2.725	-2.0417	-2.6875	-2.3208	-2.2438	-2.8958	-2.1167	-2.6104	-2.6312	-1.9062	270.619	16.640	-7.301	251.903	157.000	70.394	238.673	288.651	244.000	304.178	230.757	63.159	9.130	262.065	297.072	269.947	0.00020133	0.00068991	8.3007e-05	1019.9	7.2901e-06	4.7743e-06	1118.7	204.39	1.0822e-05	5.5757e-06	264.19	72.976	56.846	17.147	3.2e-06	23.939	0.00057451	0.00054421	0.00013681	1020.1	6.3384e-06	5.7382e-06	1107.9	213.53	6.3156e-06	5.7439e-06	272.52	79.05	72.781	19.339	5.483e-06	26.995	238.663	87.587	-13.015	-20.229	234.680	-7.589	-20.180	-12.617	123.483	209.719	-13.138	-5.293	-3.979	1.120	129.927	0.699	-8191	255	
3283.655	1	1	0	0	0.35473	0.17106	0.21175	0.18432	0.12813	0.0052103	0.10553	0.35728	0.20817	0.15036	0.05595	0.078493	0.067962	0.22289	0.029295	0.052221	-2.4146	-2.4083	-2.0729	-2.8833	-2.1771	-2.525	-2.65	-2.0438	-2.65	-2.3833	-2.1021	-2.7146	-2.1437	-2.2542	-2.6688	-1.9667	138.559	141.827	300.854	232.728	294.000	73.135	310.171	203.791	303.485	121.293	207.598	16.385	272.940	300.030	55.198	292.613	0.00017584	0.00072491	8.6382e-05	1013.2	3.8555e-06	1.2849e-06	1107.9	204.03	5.4332e-06	1.9864e-06	263.53	73.675	57.974	17.222	3.8172e-06	24.186	0.00058241	0.00053693	0.0001383	1024.4	6.6027e-06	5.7708e-06	1107.1	216.56	6.3778e-06	5.8399e-06	274.11	80.637	72.599	19.342	5.564e-06	27.444	208.826	39.869	296.126	-20.095	86.124	63.806	-20.097	-12.528	109.514	144.233	-13.060	-6.011	-4.476	0.871	129.652	0.377	-8191	255	
3283.774	1	1	0	0	0.14879	0.13956	0.16657	0.3543	0.1361	0.056209	0.10526	0.05923	0.28572	0.17075	0.12084	0.11875	0.14629	0.20287	0.12712	0.070077	-2.2188	-2.5146	-2.0563	-2.7625	-2.2938	-2.4313	-2.8771	-2.1375	-2.5042	-2.5125	-1.9708	-2.8021	-2.1167	-2.2271	-2.6917	-2.2167	-20.558	223.020	164.988	304.018	209.093	0.622	4.499	254.228	16.161	215.893	49.831	141.863	232.941	12.753	276.198	121.686	0.00014027	0.00085402	0.00013274	1018.7	1.6544e-06	5.2308e-06	1112.1	203.97	6.0091e-06	1.7452e-06	264.38	73.147	57.048	17.066	4.1103e-06	23.98	0.00055391	0.0005193	0.00013737	1028.8	6.1209e-06	5.4697e-06	1106	216.97	5.9257e-06	5.5684e-06	273.76	80.513	70.898	19.137	5.6753e-06	27.456	282.455	8.059	135.628	-20.313	148.858	7.027	-19.905	-12.253	34.389	96.155	-13.572	-5.585	-5.421	1.284	173.209	0.158	-8191	255	
3283.870	1	1	0	0	0.26925	0.11049	0.033294	0.15254	0.031417	0.15034	0.11744	0.24778	0.32413	0.15001	0.17303	0.12916	0.31668	0.12192	0.36309	0.21635	-2.0687	-2.475	-2.0896	-2.8563	-2.2917	-2.1708	-2.975	-2.2562	-2.4542	-2.7021	-2.2396	-2.7792	-2.3896	-2.2562	-2.7812	-1.8271	-4.537	207.328	26.780	261.954	233.682	204.394	226.605	23.947	222.789	2.380	263.680	221.438	269.002	168.357	93.880	227.604	6.3605e-05	0.00015715	0.00017148	1019.6	4.6437e-06	2.637e-06	1110.7	204.39	3.7693e-06	1.9606e-06	264.12	73.385	58.854	17.12	5.1935e-06	24.066	0.00052124	0.00050868	0.00014529	1029	5.8213e-06	5.3438e-06	1109.4	217	5.6127e-06	5.4333e-06	276.78	80.311	70.424	19.097	6.0038e-06	27.271	107.504	85.527	126.682	-20.303	231.727	145.326	-20.228	-12.448	21.273	200.210	-12.984	-5.626	-4.317	1.266	196.043	0.520	-8191	255	
3283.966	1	1	0	0	0.068211	0.24582	0.15213	0.14479	0.1139	0.28338	0.22348	0.057095	0.18665	0.08924	0.07489	0.098233	0.18191	0.16929	0.10631	0.086419	-1.9333	-2.7125	-1.8896	-2.8125	-2.3708	-1.8396	-2.9	-2.225	-2.2812	-2.6958	-1.9021	-2.7042	-2.5917	-2.2188	-2.7125	-2.4083	326.485	320.307	201.368	30.347	46.728	220.177	199.591	300.819	10.070	322.824	195.194	112.441	49.414	318.796	137.752	229.774	0.0002264	0.00038947	0.0001885	1020.7	3.7391e-06	2.9505e-06	1116.1	205.32	4.6212e-06	4.4514e-07	264.09	73.2	58.439	17.12	6.448e-06	24.129	0.00050395	0.00049399	0.00015568	1026.5	5.6537e-06	5.264e-06	1115.6	215.76	5.4363e-06	5.3597e-06	278.14	79.618	69.528	19.11	6.2955e-06	27.108	244.736	48.133	171.964	-20.419	77.823	15.426	-19.977	-12.516	173.421	168.298	-13.149	-6.048	-4.615	0.783	223.173	0.781	-8191	255	
3284.062	1	1	0	0	0.19141	0.10663	0.11193	0.13702	0.05126	0.11842	0.12567	0.1527	0.082356	0.12994	0.090705	0.20588	0.065748	0.063587	0.12263	0.25038	-1.875	-2.8104	-2.1562	-2.6479	-2.4688	-2.0833	-2.9833	-2.4562	-2.4333	-2.8042	-2.175	-2.4042	-2.4646	-2.1083	-2.8333	-2.4938	-2.330	-12.007	101.092	248.557	227.049	17.626	-9.702	304.916	-2.997	288.451	-7.407	305.939	57.625	274.271	243.630	267.135	0.00027264	0.00068481	0.00011156	1015.7	2.541e-06	6.3866e-06	1113.5	205.1	2.0583e-06	5.2126e-06	261.85	73.711	57.503	17.11	1.5287e-06	23.968	0.00048775	0.00049984	0.00016128	1020.5	5.4739e-06	5.4107e-06	1115.6	214.18	5.2158e-06	5.5149e-06	277.51	78.765	68.139	19.189	6.0724e-06	26.668	214.821	220.451	1.233	-20.645	188.745	205.116	-20.301	-12.407	88.028	182.575	-13.046	-6.097	-3.907	1.103	166.474	0.625	-8191	255	
3284.158	1	1	0	0	0.23222	0.080439	0.094812	0.17213	0.04074	0.075007	0.15425	0.09121	0.35492	0.11533	0.25689	0.064324	0.12694	0.10452	0.073956	0.11637	-1.6896	-2.7333	-1.95	-2.4437	-2.6333	-2.0667	-2.7854	-2.4646	-1.9771	-2.7854	-2.25	-2.4521	-2.7875	-1.9417	-2.6292	-2.5563	250.658	-22.212	-7.718	256.866	304.445	119.821	276.057	227.450	314.156	243.801	26.571	306.628	252.070	56.010	93.386	146.082	0.00014222	0.00055457	0.00015803	1018.5	3.9622e-06	5.4325e-06	1114.2	203.7	4.9613e-06	3.5747e-06	263.43	73.578	57.632	17.272	3.5572e-06	24.135	0.00045663	0.00051076	0.00015487	1016	5.1631e-06	5.6212e-06	1110.8	212.44	4.9687e-06	5.7551e-06	276.47	78	67.648	19.389	5.8075e-06	26.573	-16.825	216.253	52.329	-20.482	160.410	263.792	-20.404	-12.451	151.848	194.165	-13.242	-5.580	-4.646	1.072	86.606	0.438	-8191	255	
3284.254	1	1	0	0	0.10149	0.1887	0.09704	0.2286	0.15376	0.11168	0.074789	0.22484	0.12644	0.14582	0.095369	0.23721	0.1452	0.16583	0.15684	0.098057	-1.6104	-2.7042	-2.1813	-2.1979	-2.7792	-2.0646	-2.8063	-2.6479	-2.1854	-2.5646	-2.3104	-2.175	-2.7792	-1.9979	-2.6229	-2.4062	247.821	303.117	124.530	327.225	28.337	256.937	285.751	273.075	206.985	10.004	216.841	39.315	145.136	56.142	173.993	254.091	0.00017975	0.00059112	2.482e-05	1018.1	4.8633e-06	5.5033e-06	1117.4	203.55	3.1791e-06	2.3648e-06	264.66	73.126	57.005	17.07	4.805e-06	23.971	0.00045543	0.00053783	0.00014819	1014.6	5.1547e-06	5.9727e-06	1107.6	212.08	5.0526e-06	5.9541e-06	274.99	77.781	67.788	19.506	5.4476e-06	26.36	209.011	97.797	206.535	-20.445	292.453	160.671	-20.117	-12.476	248.451	281.329	-13.069	-5.596	-4.677	1.449	113.711	0.605	-8191	255	
3284.375	1	1	0	0	0.19202	0.050292	0.12198	0.15105	0.12096	0.21133	0.21042	0.085692	0.05707	0.17274	0.22507	0.10282	0.18778	0.29231	0.049024	0.21804	-1.6667	-2.5771	-2.2042	-2.2292	-2.7729	-1.9667	-2.6083	-2.5687	-1.9708	-2.6458	-2.3896	-2.1042	-2.5833	-2.0417	-2.1688	-2.7208	201.644	208.839	317.622	291.416	109.326	167.618	165.144	94.476	-21.297	95.822	-9.785	260.870	27.272	-11.611	-2.304	-6.220	0.00028782	0.00025678	5.2356e-05	1011.3	4.0848e-06	2.7764e-06	1109.2	204.22	5.3101e-06	4.4529e-06	263.93	72.762	57.548	17.097	4.7612e-06	24.062	0.00047405	0.00054665	0.00013954	1011.3	5.3898e-06	6.0568e-06	1102.9	212.04	5.4407e-06	5.9593e-06	273.71	77.383	69.706	19.45	5.2672e-06	26.353	231.033	77.881	305.227	-20.539	260.022	123.744	-20.297	-12.492	279.589	70.340	-13.126	-5.889	-4.022	0.859	149.143	0.312	-8191	255	
3284.469	1	1	0	0	0.18266	0.045508	0.17103	0.19268	0.29478	0.17488	0.17575	0.1707	0.24999	0.079779	0.1586	0.15313	0.18305	0.13024	0.17859	0.050816	-1.6812	-2.6042	-2.3979	-2.1896	-2.8021	-2.1688	-2.5792	-2.9062	-1.7833	-2.5271	-2.5646	-2.1125	-2.7	-1.9937	-2.1583	-2.8167	231.022	-28.036	91.101	277.812	207.841	312.207	261.847	238.277	281.700	312.658	51.845	164.054	291.066	324.858	260.954	-2.687	0.00020403	0.0004344	8.8276e-05	1019	8.099e-06	5.6842e-06	1114.3	205.04	2.0991e-06	7.7549e-06	263.39	73.232	57.102	17.077	5.1202e-06	24.078	0.00051339	0.00053401	0.0001356	1011.5	5.7131e-06	5.7531e-06	1101.9	211.01	5.6814e-06	5.5693e-06	271.56	77.342	70.041	19.205	4.946e-06	26.215	240.908	35.561	71.229	-20.369	210.733	45.481	-20.102	-12.234	125.274	-8.844	-12.909	-5.626	-5.035	0.627	63.247	0.488	-8191	255	
3284.565	1	1	0	0	0.10657	0.12821	0.1334	0.30916	0.082231	0.20267	0.44351	0.12309	0.13159	0.17449	0.18972	0.1924	0.16824	0.078292	0.13747	0.25025	-1.5375	-2.5896	-2.4354	-2.1083	-2.5854	-2.2333	-2.2542	-2.6312	-1.8021	-2.3604	-2.8021	-1.7854	-2.7125	-2.3771	-2.1417	-2.8937	135.335	80.941	132.555	271.809	45.151	152.899	308.743	184.056	61.267	318.683	126.897	311.722	252.956	135.023	253.420	220.215	0.00026487	0.0004747	0.00014669	1012.7	4.2193e-06	9.7864e-06	1114.2	204.75	8.4418e-06	6.3472e-06	263.4	73.151	57.722	17.159	1.5233e-06	23.827	0.00052087	0.0004852	0.00012722	1009.3	5.7104e-06	5.3442e-06	1098.7	210.98	5.7019e-06	5.1278e-06	270.32	77.692	70.196	19.008	4.8312e-06	26.46	263.676	-13.371	40.670	-20.579	274.836	114.490	-20.334	-12.496	58.199	42.643	-13.058	-5.551	-4.779	1.134	-2.469	0.150	-8191	255	
3284.637	1	1	0	0	0.20196	0.17103	0.093552	0.20346	0.28126	0.20877	0.28037	0.12463	0.16776	0.29289	0.12078	0.048441	0.14565	0.10997	0.15521	0.17545	-1.7042	-2.2292	-2.675	-2.1063	-2.6708	-2.1979	-2.4479	-2.6458	-2.0375	-2.4542	-2.6583	-2.1042	-2.4104	-2.3979	-2.1312	-2.7104	311.228	222.192	95.115	278.735	108.874	198.960	292.961	320.548	43.239	309.621	197.633	233.020	226.020	205.080	154.981	292.071	0.00015607	0.000411	8.0728e-05	1017.6	1.0369e-05	5.27e-06	1106.2	203.77	7.0347e-06	4.0606e-06	263.06	72.858	57.552	17.224	5.6398e-06	24.119	0.00052527	0.00046748	0.00012558	1014.9	5.7337e-06	5.2274e-06	1095.8	212.6	5.7386e-06	5.0202e-06	269.58	78.472	69.517	19.001	4.8216e-06	26.783	221.977	292.412	119.046	-20.485	163.394	74.275	-20.241	-12.652	254.437	274.352	-13.266	-5.944	-4.494	1.312	145.706	0.365	-8191	255	
3284.758	1	1	0	0	0.19471	0.25826	0.094558	0.18238	0.31418	0.18776	0.18099	0.095799	0.17324	0.10101	0.17109	0.18991	0.31496	0.13698	0.16119	0.22546	-1.7708	-2.3708	-2.4771	-2.0167	-2.6167	-2.4188	-2.2417	-2.85	-2.2333	-2.1458	-2.8125	-1.8896	-2.4542	-2.5521	-2.0771	-2.875	315.296	242.326	17.627	287.068	-15.439	29.566	223.331	-26.903	9.213	140.440	20.538	67.095	281.549	129.339	291.507	112.635	6.502e-05	0.00035765	0.00014475	1014.7	2.6589e-06	2.6745e-06	1107.9	203.47	1.7378e-06	8.0182e-06	263.05	73.283	56.9	17.178	3.5149e-06	24.092	0.00051307	0.00045895	0.00012799	1018.6	5.608e-06	5.1826e-06	1098.1	214.27	5.6399e-06	5.0624e-06	271.72	79.498	69.311	18.976	5.1928e-06	27.185	277.238	-5.156	132.745	-20.401	118.745	34.039	-20.055	-12.422	64.734	56.612	-13.026	-5.703	-4.996	0.946	219.596	0.650	-8191	255	
3284.854	1	1	0	0	0.11541	0.2562	0.11513	0.1684	0.12491	0.32197	0.19708	0.22552	0.14597	0.335	0.1398	0.21302	0.14683	0.13195	0.081011	0.3778	-1.7583	-2.0667	-2.7458	-2.0854	-2.4396	-2.6688	-2.2146	-2.5625	-2.325	-2.3417	-2.65	-2.0417	-2.4062	-2.675	-1.9813	-2.7333	321.615	197.941	308.958	0.922	246.270	129.375	147.188	291.358	-24.875	7.287	126.192	19.806	86.366	285.259	266.004	248.759	0.00018334	0.00041865	9.2559e-05	1015.6	4.9713e-06	5.5401e-06	1111.7	204.46	6.1844e-06	8.9635e-07	263.37	73.302	57.386	17.187	1.1633e-05	23.965	0.00050265	0.00046128	0.00013649	1023.9	5.3795e-06	5.0984e-06	1104.8	215.31	5.3714e-06	4.9225e-06	273.66	79.53	68.026	18.976	5.5265e-06	26.931	213.087	156.649	70.029	-20.581	126.352	54.556	-20.152	-12.397	168.936	47.209	-12.785	-5.979	-4.840	1.152	159.550	0.977	-8191	255	
3284.950	1	1	0	0	0.2022	0.089313	0.29797	0.22211	0.17725	0.17354	0.082041	0.11733	0.081064	0.22627	0.086611	0.26263	0.03777	0.28472	0.13696	0.096714	-1.9354	-2.2042	-2.6792	-2.1083	-2.2667	-2.75	-2.1854	-2.6667	-2.5021	-1.9521	-2.8875	-2.1417	-2.3521	-2.7146	-1.9188	-2.5625	130.141	8.768	10.868	-17.035	31.889	126.893	298.736	84.350	138.618	145.846	310.942	161.516	86.094	34.452	286.245	85.779	0.00018019	0.00032275	0.0002835	1016.1	1.3194e-06	8.9928e-06	1111.1	204.64	5.1207e-06	5.0322e-06	261.8	72.678	57.963	17.127	4.0293e-06	24.104	0.0004794	0.00044805	0.00014392	1020.6	5.093e-06	4.9364e-06	1106.5	213.21	5.118e-06	4.814e-06	274.88	78.459	66.932	18.805	5.7029e-06	26.58	245.042	33.301	112.582	-20.287	85.192	130.309	-20.065	-12.788	162.210	62.418	-12.624	-5.780	-5.033	1.600	104.187	-0.100	-8191	255	
3285.046	1	1	0	0	0.031973	0.15738	0.10137	0.26019	0.25224	0.17229	0.19642	0.1337	0.089101	0.14679	0.18479	0.32176	0.057682	0.18799	0.015516	0.11337	-2.0833	-1.9708	-2.7792	-2.1146	-2.1521	-2.7104	-2.1271	-2.5771	-2.5833	-2.2083	-2.7771	-2.1917	-2.1479	-2.7771	-2.0187	-2.4125	263.529	297.806	86.434	304.360	315.634	289.134	-29.124	46.257	118.587	318.271	211.024	9.030	181.753	72.588	232.803	129.462	0.00022689	0.00017459	0.00012296	1012.4	3.5436e-06	2.8102e-06	1107.5	204.83	8.7452e-06	4.9699e-06	263.43	73.138	57.358	16.993	2.7443e-06	24.048	0.00045536	0.00044494	0.00014515	1014.9	4.9218e-06	5.0309e-06	1106.8	212.26	5.0026e-06	5.047e-06	275.87	78.253	66.165	18.974	5.8384e-06	26.357	255.647	142.968	130.190	-20.302	157.760	186.090	-20.000	-12.664	62.096	212.461	-13.105	-5.462	-5.222	1.402	48.419	0.839	-8191	255	
3285.167	1	1	0	0	0.26033	0.13556	0.12109	0.28476	0.16295	0.30999	0.083725	0.17436	0.097034	0.19021	0.18676	0.19174	0.22128	0.10749	0.29471	0.14984	-2.1104	-1.9354	-2.6208	-2.6146	-2.1583	-2.7812	-2.0021	-2.35	-2.6083	-1.9354	-2.7	-2.4	-2.0125	-2.8021	-2.0708	-2.3833	207.600	275.688	164.705	22.636	286.221	279.589	211.173	319.339	180.149	279.786	291.241	294.447	154.990	308.463	245.098	245.523	0.00021283	0.00053392	0.0001771	1015.5	3.6181e-06	7.8531e-06	1109.8	204.54	5.105e-06	1.0255e-05	263.07	73.099	57.576	17.048	7.6899e-06	24.126	0.00044915	0.00048179	0.000147	1012.9	4.8444e-06	5.4561e-06	1105.9	211.71	4.8972e-06	5.4832e-06	274.35	77.85	66.282	19.245	5.605e-06	26.239	240.252	75.633	-19.317	-20.531	36.353	155.360	-20.242	-12.212	9.586	143.749	-12.952	-6.313	-4.514	1.432	33.656	0.149	-8191	255	
3285.263	1	1	0	0	0.24676	0.14549	0.08168	0.076693	0.042457	0.0834	0.31146	0.23801	0.12158	0.29979	0.31676	0.303	0.16523	0.14314	0.094377	0.06158	-2.1958	-1.7917	-2.625	-2.7021	-1.8896	-2.95	-2.1833	-2.2729	-2.7375	-2.0417	-2.5687	-2.5042	-2.1458	-2.8458	-2.2958	-2.2875	8.391	187.822	90.243	299.139	213.387	303.597	271.806	137.320	93.883	163.114	51.078	35.756	220.825	317.892	198.070	92.493	0.00032376	0.0010549	0.00013014	1016.3	3.8717e-06	1.0102e-05	1107.3	204.99	5.7058e-06	8.4762e-06	263.09	72.979	56.24	17.205	4.6283e-06	24.103	0.00044648	0.00051046	0.00014046	1012.2	4.8277e-06	5.6527e-06	1102.1	210.95	4.9061e-06	5.706e-06	273.25	77.598	66.178	19.355	5.3759e-06	26.116	260.713	151.641	-14.664	-20.253	251.356	151.386	-20.006	-12.359	184.059	170.382	-13.188	-5.662	-4.548	1.086	16.232	0.376	-8191	255	
3285.335	1	1	0	0	0.21038	0.044683	0.23096	0.4112	0.23561	0.050666	0.21408	0.21486	0.17037	0.22686	0.13578	0.13302	0.10492	0.13446	0.086387	0.26684	-2.1562	-2.0333	-2.4354	-2.5854	-2.2125	-2.5917	-2.4146	-2.225	-2.7667	-2.2542	-2.5583	-2.6021	-1.9604	-2.6833	-2.2729	-2.1042	33.433	271.676	321.441	304.033	65.986	285.983	-19.134	315.840	88.622	292.671	0.816	306.416	99.561	214.779	201.624	92.223	0.00016506	0.00072848	0.0002175	1010.8	2.7671e-06	2.8398e-06	1108.2	204.52	9.2393e-06	8.6592e-06	263.15	73.731	57.982	17.05	8.2136e-06	24.356	0.00045388	0.00052466	0.00013228	1009	5.0953e-06	5.81e-06	1101.4	210.33	5.2527e-06	5.802e-06	271.19	77.395	68.452	19.326	5.1772e-06	26.134	267.334	76.656	28.025	-20.388	194.271	122.052	-20.020	-12.860	213.191	89.656	-13.214	-5.840	-4.439	0.608	116.730	0.367	-8191	255	
3285.455	1	1	0	0	0.11094	0.11929	0.1536	0.1633	0.28728	0.13492	0.040255	0.15827	0.087146	0.20146	0.20756	0.13944	0.16416	0.21844	0.17747	0.20976	-2.2583	-1.9417	-2.3479	-2.75	-2.1271	-2.5583	-2.6875	-2.15	-2.8604	-2.3771	-2.4	-2.7604	-2.1167	-2.7292	-2.2938	-2.1875	135.010	82.506	242.720	322.006	-16.386	60.433	164.028	179.812	42.327	132.728	-1.765	102.841	87.955	-19.710	109.039	157.572	0.00019788	0.00045301	3.6223e-05	1015	1.5241e-06	3.3193e-06	1107.5	204.21	6.2322e-06	2.7534e-06	264.13	73.063	57.372	17.275	4.4983e-06	23.937	0.00048709	0.00052723	0.00012866	1009.8	5.5225e-06	5.659e-06	1099.3	210.25	5.6454e-06	5.6359e-06	270.87	77.631	69.873	19.175	5.1352e-06	26.164	286.274	49.561	138.067	-20.350	282.794	183.313	-20.122	-12.379	190.667	167.996	-13.210	-5.750	-4.991	0.801	112.059	1.052	-8191	255	
3285.551	1	1	0	0	0.20558	0.22638	0.13513	0.12098	0.12635	0.23791	0.37678	0.044353	0.37775	0.098098	0.13102	0.017683	0.036927	0.030665	0.25626	0.13637	-2.3104	-2.1667	-2.1042	-2.9562	-1.8854	-2.4188	-2.5875	-1.9875	-2.7292	-2.3542	-2.225	-2.7562	-2.2479	-2.4292	-2.3229	-2.2229	267.965	229.746	318.411	163.870	228.125	-14.221	249.998	245.635	227.053	189.493	153.199	115.966	317.618	141.281	297.704	253.460	0.00014396	0.00079556	9.8907e-05	1009.5	3.4563e-06	4.2246e-06	1106.9	203.98	2.7122e-06	5.5384e-06	265.74	72.607	57.218	17.027	5.8911e-06	23.928	0.00052081	0.00050675	0.00012694	1008.7	5.8466e-06	5.427e-06	1096.6	211.39	5.912e-06	5.4077e-06	271.09	77.919	70.789	19.035	5.0202e-06	26.44	218.996	22.230	89.017	-20.323	245.418	192.397	-20.197	-12.500	113.182	59.496	-13.199	-5.632	-4.141	1.327	78.778	0.285	-8191	255	
3285.646	1	1	0	0	0.068427	0.051612	0.10733	0.16405	0.089185	0.0626	0.28442	0.29205	0.20422	0.02253	0.16133	0.024517	0.098255	0.16491	0.10109	0.28417	-2.2625	-2.2583	-2.1937	-2.7896	-2.1125	-2.475	-2.7354	-2.0042	-2.7375	-2.4604	-2.2625	-2.8042	-1.9083	-2.2771	-2.7354	-1.8854	82.232	172.895	110.314	262.062	92.239	123.761	242.365	13.102	210.398	46.337	42.869	75.786	77.702	270.444	229.061	-25.041	0.00015905	0.00066019	0.00014305	1012.6	4.7393e-06	2.314e-06	1108.5	204.06	1.0219e-05	7.7762e-06	262.82	73.062	57.487	17.112	4.2792e-06	24.041	0.00053088	0.00048756	0.00012535	1014.4	5.9586e-06	5.2722e-06	1099.3	213.32	5.8484e-06	5.3425e-06	270.01	78.526	70.552	18.952	5.04e-06	26.814	4.033	236.777	7.323	-20.382	79.040	283.286	-20.179	-12.746	79.705	38.898	-13.215	-5.819	-4.691	1.190	290.088	0.356	-8191	255	
3285.742	1	1	0	0	0.27319	0.13163	0.19368	0.3658	0.14835	0.2047	0.08672	0.10342	0.080807	0.24544	0.20959	0.099632	0.23598	0.2525	0.25723	0.23113	-2.2479	-2.4083	-1.8354	-2.7875	-2.0646	-2.4458	-2.7771	-2.0292	-2.4979	-2.6312	-2.2021	-2.8729	-2.1646	-2.1521	-2.6646	-2.0542	-26.743	38.052	209.903	283.919	32.424	4.782	299.329	38.784	139.743	110.355	327.555	123.713	108.516	274.127	1.282	292.358	0.00014147	0.0005821	0.00016013	1014.6	3.7183e-06	6.1651e-07	1110.2	204.1	6.6327e-06	5.1784e-06	263.58	72.587	56.946	17.081	2.8776e-06	24.117	0.00051814	0.00047843	0.0001259	1018	5.7567e-06	5.1312e-06	1099.6	214.02	5.5962e-06	5.212e-06	271.48	79.459	69.632	18.924	5.2798e-06	27.138	191.386	20.316	159.292	-20.233	134.728	29.364	-20.284	-12.588	17.911	285.780	-13.345	-5.880	-4.353	1.008	282.553	0.992	-8191	255	
3285.863	1	1	0	0	0.16971	0.15979	0.28471	0.21817	0.16099	0.26481	0.19478	0.21429	0.22476	0.077116	0.25113	0.1988	0.32198	0.28339	0.17779	0.17624	-2.2062	-2.5333	-1.9979	-2.7729	-2.1771	-2.2083	-2.9	-1.9854	-2.3646	-2.6042	-2.1729	-2.6208	-2.3	-2.1083	-2.8333	-2.0167	-20.877	258.835	265.541	302.927	30.086	232.870	67.366	84.828	3.977	67.597	292.497	-4.749	126.108	72.736	299.948	21.958	0.00020324	0.00038576	0.0001259	1012.9	5.5958e-06	6.2429e-06	1106.8	203.83	3.1693e-06	1.0359e-06	264.15	72.96	57.317	17.19	7.8254e-06	24.078	0.00050258	0.00048169	0.00013414	1021.5	5.5696e-06	5.0872e-06	1102.9	215.22	5.414e-06	5.1697e-06	273.73	79.374	68.914	18.911	5.581e-06	27.044	267.298	133.893	155.141	-20.364	109.674	97.771	-20.132	-12.445	31.661	204.154	-13.173	-5.819	-4.385	1.044	177.347	0.072	-8191	255	
3285.934	1	1	0	0	0.19844	0.095301	0.21456	0.24729	0.099502	0.21011	0.27853	0.15575	0.076963	0.13451	0.12597	0.083796	0.14469	0.15444	0.22776	0.36334	-1.9583	-2.4396	-1.8875	-2.7104	-2.2438	-2.0042	-3.0333	-2.1208	-2.2792	-2.6708	-1.9792	-2.6917	-2.4646	-2.2313	-2.8667	-2.2167	228.985	96.651	114.830	306.965	248.324	307.528	274.789	323.105	278.970	85.131	-22.123	295.056	277.710	298.718	-26.317	220.263	0.00010356	0.00029957	0.00010092	1014	2.7562e-06	4.2502e-06	1109.3	202.54	6.5865e-06	2.1515e-06	263.43	72.546	57.189	17.069	2.3263e-06	24.015	0.00047793	0.00046408	0.0001431	1019.3	5.3456e-06	4.992e-06	1107.1	214.4	5.2292e-06	5.0744e-06	275.34	78.764	67.707	18.931	5.8886e-06	26.861	271.619	39.420	143.438	-20.314	180.637	100.239	-20.352	-12.757	306.366	301.547	-13.120	-5.886	-5.125	0.914	291.077	0.090	-8191	255	
3286.055	1	1	0	0	0.18709	0.089365	0.049853	0.21929	0.06376	0.071607	0.3456	0.028168	0.23674	0.073424	0.21089	0.17462	0.14067	0.098188	0.10664	0.05898	-1.8396	-2.6937	-1.9896	-2.6688	-2.6208	-1.975	-2.7313	-2.2042	-2.2833	-2.7229	-2.1708	-2.6583	-2.4813	-2.0875	-2.8125	-2.25	99.670	176.659	40.954	238.370	164.791	319.318	289.094	108.564	99.303	238.725	71.629	-10.557	313.991	77.969	107.758	135.308	0.00010061	0.00039271	0.00021795	1013.8	2.5525e-06	5.9872e-06	1113.1	203.62	1.5056e-06	6.5045e-06	262.12	73.297	57.935	17.26	3.2903e-06	24.038	0.00046544	0.00046966	0.0001529	1016.8	5.3201e-06	5.1798e-06	1111	213.55	5.1268e-06	5.2549e-06	276.43	78.368	67.83	19.092	5.9791e-06	26.625	285.696	147.660	152.425	-20.468	211.605	166.939	-20.013	-12.413	123.099	127.258	-13.129	-6.140	-4.096	1.164	84.161	0.642	-8191	255	
3286.151	1	1	0	0	0.29086	0.27683	0.011965	0.062033	0.26499	0.063423	0.14599	0.14609	0.13874	0.082169	0.2084	0.19121	0.19754	0.15511	0.072732	0.1041	-1.7167	-2.6813	-2.0187	-2.5167	-2.4979	-1.9188	-2.7167	-2.4729	-2.2521	-2.7396	-2.1958	-2.2479	-2.6604	-2.0458	-2.7188	-2.2646	-1.780	37.730	72.379	81.561	161.822	8.625	311.273	171.452	0.184	164.782	8.813	-10.783	-26.286	-27.727	174.893	277.139	4.6224e-05	0.00079335	8.3588e-05	1016	2.4941e-06	8.7857e-07	1112.3	203	3.1065e-06	3.107e-06	263.86	73.078	57.442	17.181	5.4313e-06	24.13	0.00045111	0.00049094	0.00015144	1014.5	5.1282e-06	5.4853e-06	1109.2	212.47	5.0065e-06	5.6851e-06	277.42	78.227	67.731	19.42	5.9843e-06	26.623	201.901	165.137	23.877	-20.610	95.457	219.925	-20.177	-12.325	148.157	135.466	-13.471	-6.154	-4.771	1.444	13.228	0.733	-8191	255	
3286.247	1	1	0	0	0.20624	0.14882	0.15536	0.46343	0.34401	0.1109	0.22263	0.11643	0.030641	0.026163	0.38847	0.094041	0.04757	0.25519	0.18731	0.38001	-1.5438	-2.6771	-2.0833	-2.4917	-2.6771	-2.1271	-2.6583	-2.45	-1.8438	-2.7042	-2.075	-2.1646	-2.8854	-2.2271	-2.4854	-2.3875	309.470	114.195	77.694	284.757	130.756	179.097	308.646	235.135	269.054	273.648	-27.824	275.649	295.605	109.101	289.979	-29.934	0.00017281	0.00055939	6.0248e-05	1020.4	8.772e-07	3.7928e-06	1112.7	204.28	1.0291e-06	5.5707e-06	263.59	73.592	57.083	17.166	4.7281e-06	24.083	0.00046445	0.00054133	0.00015291	1016	5.2406e-06	5.9805e-06	1107.9	212.29	5.1007e-06	6.0276e-06	275.26	78.026	67.927	19.492	5.5781e-06	26.458	247.904	109.145	75.051	-20.502	249.585	242.787	-20.276	-12.526	40.964	126.267	-13.280	-5.764	-4.377	1.380	71.703	0.234	-8191	255	
3286.343	1	1	0	0	0.31558	0.20748	0.085555	0.17788	0.15549	0.26155	0.18307	0.12458	0.033819	0.076984	0.021435	0.06346	0.10885	0.36818	0.10818	0.15012	-1.6479	-2.6437	-2.1333	-2.2667	-2.7458	-1.9146	-2.4292	-2.5708	-2.1583	-2.6667	-2.3854	-2.2604	-2.6854	-2.1562	-2.5292	-2.6333	6.277	-16.222	167.506	26.934	328.370	326.651	289.751	148.105	240.553	309.443	31.752	182.666	161.863	42.485	127.564	15.014	0.00025072	0.00065165	7.2025e-05	1015.7	5.2431e-06	2.5229e-06	1109	203.7	8.4362e-06	2.2898e-06	261.99	73.332	57.749	17.03	1.2194e-06	24.145	0.00046689	0.00055234	0.00014246	1010.5	5.3414e-06	6.1112e-06	1103.6	211.71	5.4108e-06	6.0679e-06	273.51	77.882	69.387	19.505	5.3633e-06	26.384	256.130	173.086	-10.685	-20.635	265.617	79.032	-20.219	-12.408	203.685	146.107	-12.954	-6.266	-3.881	1.360	80.413	0.228	-8191	255	
3286.462	1	1	0	0	0.074463	0.098249	0.15014	0.12766	0.26495	0.042759	0.41105	0.15459	0.1189	0.11701	0.13466	0.1534	0.12773	0.17813	0.34483	0.23716	-1.525	-2.5271	-2.35	-2.2271	-2.7521	-2.0875	-2.6229	-2.775	-2.0479	-2.7062	-2.4375	-2.175	-2.7708	-2.0708	-2.2271	-2.6958	100.420	213.631	281.410	235.140	55.261	253.838	277.396	218.687	180.694	245.341	216.253	303.164	161.504	298.175	124.890	168.453	0.00036105	0.00010845	5.4116e-05	1016.1	1.4357e-06	5.0604e-06	1114.2	203.81	4.1076e-06	7.9222e-06	262.38	73.22	57.883	17.176	6.4874e-06	24.06	0.0005054	0.00054112	0.00013814	1009.8	5.742e-06	5.9538e-06	1103	211.14	5.761e-06	5.8408e-06	272.59	77.683	70.814	19.395	5.2162e-06	26.394	295.860	329.301	301.915	-20.345	205.709	207.904	-20.504	-12.384	215.246	32.124	-13.265	-6.103	-3.602	0.639	73.538	0.300	-8191	255	
3286.558	1	1	0	0	0.13768	0.36802	0.41725	0.16572	0.13859	0.11138	0.21252	0.22952	0.05428	0.10445	0.18112	0.021024	0.26241	0.2852	0.24658	0.043769	-1.5	-2.6833	-2.3417	-2.2938	-2.7542	-2.4437	-2.3146	-2.6625	-1.9312	-2.7438	-2.5667	-1.9521	-2.8271	-2.375	-2.2167	-2.6813	291.505	224.977	137.488	309.654	323.957	61.388	216.276	60.941	184.185	3.732	174.579	149.058	289.242	294.105	233.347	315.827	0.00019371	9.6383e-05	0.00013295	1013.3	3.1473e-06	4.1169e-06	1111.4	203.67	6.6026e-06	1.445e-06	264.15	73.5	57.567	17.169	2.7792e-06	24.222	0.00053693	0.00052025	0.00013569	1012.7	6.0887e-06	5.8211e-06	1101.2	212.36	6.1359e-06	5.6199e-06	272.62	78.199	71.945	19.262	5.2161e-06	26.79	232.724	328.966	60.727	-20.176	266.284	32.509	-20.202	-12.482	221.930	180.048	-13.463	-6.015	-4.736	0.823	293.415	1.051	-8191	255	
3286.630	1	1	0	0	0.12822	0.21387	0.20579	0.16291	0.18095	0.12042	0.24403	0.11255	0.10891	0.31924	0.22879	0.20842	0.16896	0.15528	0.25732	0.10341	-1.5771	-2.2938	-2.6	-2.0917	-2.5687	-2.4146	-2.2396	-2.85	-2.0812	-2.3354	-2.7958	-2.0292	-2.5646	-2.4458	-2.1208	-2.7271	199.018	147.816	9.015	292.443	138.540	312.611	311.091	105.471	22.247	-2.803	112.175	12.939	175.536	94.498	42.108	202.598	7.4761e-05	0.00028229	0.00010842	1014.3	7.1859e-06	7.1429e-06	1110.1	204.52	5.9972e-06	4.9096e-06	262.65	73.763	58.057	17.227	8.8733e-06	23.786	0.0005651	0.00050874	0.00013521	1017.8	6.2224e-06	5.6508e-06	1100.7	214.79	6.2234e-06	5.4979e-06	272.59	79.544	72.094	19.26	5.2359e-06	27.049	179.848	110.348	52.807	-20.275	118.028	2.419	-20.361	-12.213	21.952	10.264	-12.708	-5.957	-5.511	1.066	161.958	0.657	-8191	255	
3286.726	1	1	0	0	0.23885	0.21158	0.11467	0.24647	0.35426	0.10386	0.26771	0.22893	0.27208	0.076136	0.067115	0.23921	0.2314	0.15743	0.32334	0.11982	-1.5688	-2.2438	-2.4021	-2.1208	-2.4958	-2.425	-2.2687	-2.8312	-2.2313	-2.2396	-2.6958	-1.8854	-2.4833	-2.3458	-1.9458	-2.8708	49.341	287.528	27.721	223.652	210.956	227.235	168.686	253.026	64.970	135.358	60.460	-22.864	-14.945	203.666	276.957	280.318	8.925e-05	0.00052045	5.5587e-05	1015.7	2.864e-06	2.2127e-06	1108.6	204.11	4.1314e-06	1.6353e-06	264.17	73.404	57.626	16.962	7.4058e-06	24.248	0.00055905	0.00049838	0.00013514	1021.8	6.0516e-06	5.5498e-06	1100.9	215.69	6.0076e-06	5.3915e-06	273.17	80.033	70.689	19.152	5.2736e-06	27.252	220.841	95.058	173.302	-20.497	225.659	31.969	-20.409	-12.742	49.092	43.819	-13.129	-6.011	-4.804	0.992	133.450	0.490	-8191	255	
3286.822	1	1	0	0	0.2097	0.11426	0.087574	0.052191	0.20402	0.17511	0.069472	0.017658	0.2303	0.20611	0.22894	0.14606	0.1356	0.10821	0.22809	0.11584	-1.6833	-2.0187	-2.6021	-2.1083	-2.4917	-2.6125	-2.2125	-2.8146	-2.1542	-2.2687	-2.6937	-2.1562	-2.375	-2.6146	-2.0125	-2.7292	102.784	176.492	-1.110	311.515	267.433	164.772	266.717	251.885	57.568	-2.356	-11.793	42.400	288.744	10.586	8.937	127.758	0.0001765	0.00025684	2.6697e-05	1012.5	2.7561e-06	3.7609e-06	1113.5	203.64	3.6519e-06	4.8129e-06	262.84	73.509	57.459	17.032	4.2547e-06	24.158	0.00052793	0.0004775	0.00013898	1023.3	5.6596e-06	5.3593e-06	1103.3	216.22	5.7633e-06	5.2654e-06	275.28	80.281	69.48	19.142	5.7724e-06	27.389	203.366	320.061	32.986	-20.423	111.747	-17.892	-20.318	-12.718	23.929	106.690	-12.919	-6.104	-4.525	1.119	195.734	0.164	-8191	255	
3286.943	1	1	0	0	0.096254	0.30459	0.23759	0.070217	0.20886	0.29707	0.1947	0.11403	0.08956	0.18871	0.12091	0.20305	0.23126	0.48266	0.1124	0.10596	-1.8167	-2.1375	-2.6396	-2.1125	-2.4021	-2.5146	-2.1542	-2.7458	-2.2687	-1.9396	-2.775	-2.1063	-2.2229	-2.5896	-1.8188	-2.5479	203.577	290.879	276.926	314.197	256.407	182.958	36.327	196.861	297.082	-30.256	326.137	208.412	-16.925	244.670	292.834	142.497	0.0003627	0.00023398	0.00015829	1018.1	9.2853e-07	5.6977e-06	1110.6	205.96	2.5299e-06	9.4084e-06	263.97	73.19	57.258	17.253	5.3714e-06	24.137	0.00051128	0.00047886	0.00015014	1024.1	5.5043e-06	5.3173e-06	1109.9	216.04	5.5695e-06	5.1969e-06	277.74	79.751	68.593	19.082	6.0992e-06	27.065	222.637	-13.827	169.707	-20.360	77.178	138.676	-20.262	-12.482	-3.921	174.836	-13.044	-5.929	-4.670	1.172	200.977	0.236	-8191	255	
3287.039	1	1	0	0	0.09732	0.066538	0.15847	0.27178	0.27235	0.072633	0.087763	0.052072	0.37888	0.24596	0.16433	0.11734	0.1629	0.12257	0.22451	0.16039	-2	-1.9542	-2.6688	-2.1125	-2.2062	-2.7667	-2.1042	-2.625	-2.5021	-1.9771	-2.7375	-2.2396	-2.075	-2.775	-1.9937	-2.5479	189.102	-19.760	149.477	303.145	222.666	65.337	195.753	263.381	144.852	280.801	294.934	182.777	11.707	250.599	165.327	198.859	0.0002557	0.00046307	7.6247e-05	1013.7	1.8873e-06	1.9592e-06	1115.1	204.44	1.0451e-06	2.0202e-06	263.04	73.147	57.775	17.137	5.4835e-06	24.224	0.00049686	0.00047897	0.00015592	1018.8	5.3216e-06	5.3258e-06	1111.5	214.14	5.384e-06	5.3139e-06	278.01	79.274	68.314	19.221	6.2785e-06	26.772	229.019	130.675	150.299	-20.501	149.408	128.441	-20.127	-12.708	-13.677	238.389	-13.489	-6.089	-4.684	1.022	42.059	0.122	-8191	255	
3287.135	1	1	0	0	0.07527	0.17088	0.14097	0.22885	0.21864	0.093092	0.38213	0.25294	0.055638	0.077623	0.075356	0.23426	0.22179	0.21494	0.23034	0.24787	-1.9896	-1.9958	-2.6	-2.4167	-2.0604	-2.6875	-2.2	-2.5792	-2.5167	-1.9667	-2.7292	-2.3729	-2.15	-2.6333	-2.0958	-2.1	184.433	195.314	56.377	327.858	229.337	10.950	210.672	-18.958	42.300	296.479	209.596	62.839	276.808	-29.101	57.639	238.462	0.00010874	0.00037822	0.00018114	1016.5	4.5787e-06	6.1078e-06	1109.5	205.55	1.1321e-06	2.5977e-06	264.06	72.712	57.722	17.147	4.5894e-06	24.059	0.00048565	0.00050878	0.00015842	1018	5.1993e-06	5.6463e-06	1110.6	213.63	5.2438e-06	5.6574e-06	277.45	78.596	67.553	19.391	6.1006e-06	26.598	207.865	196.152	50.978	-20.527	117.347	177.432	-20.135	-12.677	70.452	232.573	-13.415	-5.274	-5.071	1.012	260.693	0.547	-8191	255	
3287.231	1	1	0	0	0.10524	0.11713	0.13829	0.16343	0.12226	0.28745	0.28976	0.13331	0.020799	0.19286	0.22573	0.056407	0.18789	0.23981	0.26861	0.26371	-2.1729	-1.6708	-2.5396	-2.4958	-2.0104	-2.5708	-2.2604	-2.3042	-2.65	-1.8875	-2.5938	-2.5583	-1.9271	-2.7729	-2.2062	-2.1417	126.961	-21.290	165.678	4.841	57.418	292.540	288.029	218.137	189.220	33.044	329.164	204.515	23.907	-2.653	197.911	250.984	0.00018073	0.0007966	9.6088e-05	1014	3.2888e-06	3.0825e-06	1111	204.82	6.2066e-06	2.7458e-06	263.79	73.47	57.762	17.275	2.5691e-06	24.058	0.00047522	0.00053691	0.0001517	1016.4	5.1806e-06	6.0447e-06	1109.7	212.63	5.2662e-06	6.0568e-06	275.47	78.477	67.894	19.609	5.7831e-06	26.508	246.650	131.415	326.669	-20.453	5.167	275.434	-20.242	-12.587	131.265	73.721	-13.007	-5.969	-3.940	0.879	322.193	0.159	-8191	255	
3287.328	1	1	0	0	0.23852	0.12885	0.26281	0.29025	0.11878	0.16185	0.16249	0.27582	0.19365	0.18273	0.19762	0.10321	0.11675	0.27098	0.10191	0.11222	-2.1562	-1.9083	-2.5896	-2.6771	-1.9875	-2.6854	-2.3396	-2.0979	-2.6271	-1.9542	-2.475	-2.5229	-1.9896	-2.725	-2.3438	-1.9271	271.636	-12.049	179.347	329.039	130.177	53.890	241.853	269.994	302.283	76.401	327.935	275.185	185.378	60.534	241.697	-5.586	0.00024875	0.00039903	0.00014792	1013.2	7.9131e-06	3.0993e-06	1108.1	204.01	3.5495e-06	3.3523e-06	263.48	73.374	59.196	17.123	4.7196e-06	24.273	0.00047788	0.00056022	0.00014306	1013.5	5.3044e-06	6.1357e-06	1104.7	211.46	5.5071e-06	6.1827e-06	273.9	78.373	69.776	19.63	5.5506e-06	26.442	221.771	35.370	321.742	-20.523	284.450	74.369	-20.187	-12.596	196.475	297.515	-13.424	-5.804	-4.040	1.047	320.912	0.269	-8191	255	
3287.424	1	1	0	0	0.10745	0.17145	0.14072	0.19049	0.21453	0.10321	0.060242	0.37209	0.2551	0.18612	0.1277	0.18727	0.3655	0.21304	0.16185	0.1694	-2.3354	-2.1625	-2.3771	-2.7896	-1.9854	-2.7229	-2.4583	-2.0646	-2.6688	-2.05	-2.3438	-2.7479	-1.8625	-2.7438	-2.3396	-2.2667	125.389	22.708	202.432	236.565	90.998	275.530	72.288	-30.140	30.250	178.065	2.576	45.895	261.163	-0.853	122.883	153.331	0.00020877	0.0002912	0.00015246	1012.6	5.7305e-06	7.7733e-06	1108.4	204.08	4.4972e-06	1.0933e-05	263.24	73.901	58.03	17.25	1.4591e-06	24.201	0.00050856	0.00055714	0.00013897	1012.6	5.7109e-06	6.0841e-06	1102.4	211.63	5.8899e-06	6.041e-06	273.67	78.22	70.998	19.511	5.4198e-06	26.44	255.924	242.293	13.351	-20.445	285.427	32.636	-20.300	-12.529	297.717	31.065	-13.116	-5.523	-4.276	1.079	-16.488	0.319	-8191	255	
3287.543	1	1	0	0	0.16344	0.22985	0.089209	0.26288	0.079204	0.058179	0.10439	0.16086	0.15199	0.26558	0.22964	0.17188	0.14619	0.16676	0.15577	0.097694	-2.2562	-2.1771	-2.3583	-2.8917	-2.025	-2.4813	-2.6875	-2.0125	-3.0104	-2.3479	-2.2583	-2.8104	-2.1312	-2.4458	-2.4979	-2.0021	210.008	61.853	-29.599	282.853	7.080	315.464	15.883	244.519	292.291	200.253	16.292	47.890	5.265	-14.522	271.318	160.710	0.00031743	0.00064586	4.353e-05	1015.2	2.9538e-06	7.7375e-06	1111.7	204.39	7.6421e-06	3.099e-06	261.3	72.722	57.819	17.021	4.7433e-06	24.106	0.00054901	0.00054002	0.00013545	1012.4	6.1501e-06	5.8565e-06	1105.3	212.62	6.2325e-06	5.8403e-06	272.86	78.389	72.355	19.291	5.3857e-06	26.649	257.982	76.850	162.040	-20.368	322.895	66.027	-20.298	-12.235	111.206	-25.283	-13.353	-5.866	-4.089	0.741	99.353	0.600	-8191	255	
3287.639	1	1	0	0	0.22827	0.20792	0.19784	0.14443	0.2384	0.075782	0.29748	0.13014	0.099809	0.21389	0.091919	0.052715	0.29543	0.27591	0.088331	0.15663	-2.3333	-2.2833	-2.1354	-2.95	-2.0417	-2.3354	-2.7896	-2.0792	-2.575	-2.3125	-2.2188	-2.6979	-2.1479	-2.4188	-2.5375	-2.1437	121.478	212.632	35.876	155.840	52.409	47.432	299.599	318.709	55.093	145.051	156.840	215.872	-8.481	175.853	108.675	1.399	0.00022262	0.00023223	2.3476e-05	1013.5	4.4631e-06	6.7427e-06	1108.5	204.36	6.1527e-06	3.6139e-06	263.49	73.048	58.037	17.153	2.9935e-06	23.961	0.00056729	0.0005209	0.00013372	1016.3	6.2873e-06	5.5811e-06	1101.3	213.99	6.1766e-06	5.5891e-06	271.88	79.105	71.928	19.13	5.2632e-06	26.923	216.543	5.454	296.293	-20.376	154.141	130.074	-20.090	-12.340	104.620	262.011	-12.908	-5.851	-5.252	1.305	109.542	0.279	-8191	255	
3287.735	1	1	0	0	0.18972	0.22906	0.062072	0.32239	0.065051	0.18729	0.17965	0.2096	0.46709	0.092287	0.20101	0.04559	0.097859	0.28574	0.04533	0.027623	-2.2458	-2.3438	-2.1104	-2.8229	-2.1521	-2.275	-2.7542	-2.1354	-2.5646	-2.5125	-2.2812	-2.7917	-2.1271	-2.2625	-2.6792	-1.9604	89.934	155.271	281.295	269.716	312.756	255.421	297.140	202.345	158.949	204.362	99.904	191.437	22.791	290.304	286.482	207.835	0.00014403	0.00013294	4.2066e-05	1018.1	3.9429e-06	2.3157e-06	1104.4	206.14	2.8573e-06	1.4828e-06	265.19	73.053	57.25	17.035	6.5386e-06	24.041	0.00054427	0.00050106	0.00013188	1022.5	6.0292e-06	5.3783e-06	1099.6	215.61	5.8337e-06	5.3592e-06	271.71	79.781	70.598	19.032	5.2501e-06	27.123	211.467	249.490	251.482	-20.197	93.098	-6.605	-20.198	-12.476	326.253	45.783	-13.190	-5.659	-5.642	0.918	150.037	0.664	-8191	255	
3287.831	1	1	0	0	0.11561	0.21078	0.082483	0.079953	0.3388	0.12507	0.12306	0.23003	0.026947	0.20283	0.069511	0.19259	0.047951	0.23488	0.15468	0.076652	-2.0333	-2.5687	-1.9625	-2.8688	-2.2083	-2.3125	-2.9979	-2.0542	-2.5208	-2.5375	-2.0896	-2.8354	-2.3729	-2.1854	-2.6521	-2.0042	264.945	308.419	239.864	319.061	-4.354	259.556	45.315	64.636	301.191	168.772	173.769	168.716	305.707	6.157	-6.463	126.268	0.00019708	0.00025059	0.00023221	1011.6	5.3069e-06	2.3619e-06	1105	204.59	4.0081e-06	7.045e-06	264.59	73.164	57.669	17.164	3.4334e-06	23.961	0.00051483	0.00048322	0.00013263	1020.2	5.6854e-06	5.1678e-06	1102.3	215.82	5.5149e-06	5.2666e-06	273.24	79.826	69.488	18.952	5.52e-06	27.12	292.568	271.224	120.701	-20.401	188.042	15.110	-19.900	-12.688	116.279	33.757	-12.846	-5.808	-4.160	1.137	228.414	0.657	-8191	255	
3287.927	1	1	0	0	0.2085	0.14714	0.066055	0.1884	0.038395	0.10102	0.27809	0.11151	0.28929	0.13656	0.13456	0.11342	0.14068	0.14938	0.16183	0.51105	-1.825	-2.6875	-1.8625	-2.8146	-2.3125	-1.9896	-2.6729	-2.0292	-2.3812	-2.6125	-2.0438	-2.6229	-2.3771	-1.9292	-2.6125	-2.1979	148.195	182.831	-12.739	-14.683	149.229	319.766	264.627	245.599	-25.378	207.242	294.036	76.670	227.396	147.117	34.342	327.268	0.00014332	0.00045432	0.00010772	1016.8	4.7604e-06	2.9751e-06	1105.1	202.5	2.8337e-06	2.4641e-06	263.31	73.559	57.764	17.145	7.0224e-06	24.034	0.00048655	0.00047005	0.00014066	1021.4	5.4466e-06	5.0231e-06	1103.3	214.89	5.2752e-06	5.1488e-06	275.54	79.365	68.73	18.945	5.8899e-06	26.959	232.005	-17.432	168.733	-20.629	71.282	121.595	-19.829	-12.450	76.807	173.588	-13.099	-6.211	-4.439	1.088	156.956	0.185	-8191	255	
3288.023	1	1	0	0	0.037433	0.030437	0.14884	0.28469	0.24004	0.23711	0.14366	0.10413	0.16748	0.20721	0.45504	0.376	0.30817	0.16415	0.14352	0.17625	-1.7896	-2.7458	-2.0563	-2.75	-2.2708	-2.0708	-2.8896	-2.2521	-2.1375	-2.6458	-2.0708	-2.5292	-2.3958	-1.9854	-2.8229	-2.0583	67.602	-11.480	304.021	313.334	89.965	176.251	268.677	132.753	29.649	34.715	150.108	240.663	35.766	108.645	119.681	53.017	0.00014661	8.029e-05	2.9813e-05	1017.1	2.2831e-06	3.1818e-06	1107.2	204.09	4.6444e-06	1.0902e-05	263.96	73.158	58.632	17.054	1.6999e-06	24.212	0.00047409	0.00047158	0.00015183	1017.6	5.3213e-06	5.0808e-06	1106.6	213.93	5.0808e-06	5.1963e-06	276.6	78.579	67.646	18.928	5.8785e-06	26.543	250.818	-28.534	20.189	-20.558	315.643	129.720	-20.101	-12.111	130.397	74.944	-13.075	-6.199	-4.604	0.834	117.711	0.593	-8191	255	
3288.120	1	1	0	0	0.057289	0.023543	0.0879	0.17248	0.23138	0.13325	0.074815	0.13261	0.10774	0.07587	0.17413	0.11179	0.11458	0.32401	0.10834	0.087347	-1.7104	-2.8021	-2.1063	-2.6167	-2.7479	-1.9979	-2.9646	-2.0146	-2.1271	-2.7708	-1.9458	-2.4021	-2.5854	-1.8708	-2.525	-2.5	222.607	200.109	286.513	251.214	292.027	23.983	252.128	218.718	20.892	122.240	179.591	257.701	94.953	88.195	51.965	205.144	0.0002012	0.000494	0.00013854	1016.2	3.8746e-06	7.7793e-07	1109	204.81	7.7595e-06	3.6568e-06	262.08	73.433	57.385	17.089	5.8066e-06	24.012	0.00044938	0.00047307	0.00015037	1014.6	5.0642e-06	5.2918e-06	1108.2	213.01	4.9891e-06	5.4752e-06	275.85	78.125	67.146	19.169	5.8182e-06	26.434	252.502	177.955	51.874	-20.670	245.250	95.580	-20.028	-12.730	104.028	142.013	-13.266	-5.949	-4.661	0.945	95.372	0.232	-8191	255	
3288.240	1	1	0	0	0.11695	0.16688	0.16431	0.14717	0.19821	0.14326	0.20932	0.079161	0.16092	0.21469	0.19778	0.29152	0.1997	0.05669	0.39937	0.20969	-1.5958	-2.6854	-1.9875	-2.5312	-2.4417	-2.0083	-2.7021	-2.3917	-2.15	-2.6958	-2.2146	-2.3563	-2.7021	-1.9917	-2.5042	-2.3333	168.374	160.288	282.898	235.083	-7.243	163.232	264.645	-10.041	183.687	247.629	223.375	320.104	172.724	289.007	-10.729	272.129	0.00017516	0.00069363	0.00011816	1016.2	1.8471e-06	9.4386e-06	1109.6	203.86	7.0139e-06	7.0722e-06	264.39	73.499	56.927	17.069	2.7425e-06	24.115	0.00044068	0.00051268	0.00014796	1012.2	5.0256e-06	5.725e-06	1104.9	212.05	4.9953e-06	5.84e-06	275.46	78.015	67.133	19.444	5.6668e-06	26.46	171.854	162.377	29.811	-20.406	258.835	220.014	-20.160	-12.368	128.480	123.514	-12.809	-5.958	-4.010	1.467	125.014	0.609	-8191	255	
3288.335	1	1	0	0	0.27956	0.26167	0.052378	0.18308	0.30432	0.16927	0.51603	0.21545	0.22637	0.2892	0.29706	0.063307	0.071834	0.14132	0.062092	0.18322	-1.7021	-2.75	-2.2521	-2.325	-2.4	-2.05	-2.4583	-2.4479	-2.0438	-2.7583	-2.2979	-2.2354	-2.6979	-1.8563	-2.5062	-2.7417	-6.386	195.264	267.948	293.925	219.214	256.671	-29.262	314.717	35.989	168.753	262.236	206.689	170.369	109.905	244.416	-10.883	0.00016625	0.00053334	1.3108e-05	1011	2.751e-06	2.668e-06	1111.8	203.9	2.5563e-06	1.1806e-06	261.87	73.54	56.935	17.308	5.2657e-06	24.116	0.00046631	0.00054992	0.00014517	1011	5.2407e-06	6.1004e-06	1104.1	211.78	5.3179e-06	6.1564e-06	273.83	77.903	69.132	19.598	5.4491e-06	26.43	254.326	112.775	161.220	-20.259	181.020	223.550	-20.286	-12.626	1.667	11.806	-13.622	-5.809	-4.329	0.842	46.131	0.339	-8191	255	
3288.431	1	1	0	0	0.2784	0.15073	0.1241	0.23325	0.064887	0.252	0.13872	0.054731	0.074033	0.4169	0.089944	0.22882	0.11302	0.41107	0.16375	0.092405	-1.7125	-2.6375	-2.1188	-2.2417	-2.7438	-2.2208	-2.5646	-2.5521	-1.9917	-2.7562	-2.2479	-2.0896	-2.7083	-2.1083	-2.3917	-2.8229	106.097	25.313	262.233	318.843	146.586	25.204	152.973	205.610	305.775	324.546	81.098	252.015	38.386	44.432	24.561	310.517	0.00040942	0.00054469	3.7254e-05	1017.1	2.9303e-06	2.3746e-06	1108.9	203.37	5.7638e-06	4.4184e-06	262.53	72.669	56.744	17.225	4.0896e-06	23.976	0.00049685	0.00055065	0.0001386	1011.5	5.5596e-06	5.9556e-06	1101.1	211.1	5.64e-06	5.8916e-06	273.06	77.653	70.373	19.513	5.3209e-06	26.39	244.085	-11.448	249.032	-20.455	235.429	-28.959	-20.381	-12.583	123.614	-24.259	-13.040	-6.072	-3.433	0.742	44.158	0.218	-8191	255	
3288.504	1	1	0	0	0.20782	0.24183	0.2245	0.44634	0.095625	0.22823	0.13616	0.0952	0.18117	0.10309	0.067719	0.13119	0.064783	0.25233	0.13906	0.058285	-1.5688	-2.4417	-2.4208	-2.0938	-2.9292	-2.0875	-2.3896	-2.7938	-1.8729	-2.6312	-2.6917	-2.1437	-2.7062	-2.1146	-2.1562	-2.6208	40.142	152.089	249.095	309.794	274.522	21.887	5.773	140.848	222.427	315.650	1.579	321.532	317.132	320.649	53.653	295.466	0.00040727	0.0008181	8.8674e-05	1011.2	4.2319e-06	7.5706e-06	1106.7	204.05	6.9182e-06	1.4434e-06	264.33	72.839	57.801	17.129	3.0243e-06	24.077	0.00053715	0.00054066	0.00013892	1012.2	6.1164e-06	5.9716e-06	1103.1	212.39	6.2126e-06	5.8359e-06	273.45	78.425	72.61	19.45	5.4097e-06	26.75	228.127	1.867	66.304	-20.500	302.950	40.667	-20.060	-12.320	133.391	9.973	-13.155	-5.807	-4.114	1.038	54.165	0.524	-8191	255	
3288.623	1	1	0	0	0.076597	0.034269	0.10763	0.25831	0.079733	0.31234	0.256	0.094489	0.21815	0.3378	0.051931	0.066219	0.24941	0.23251	0.051968	0.28359	-1.8333	-2.3729	-2.275	-2.0625	-2.7958	-2.1562	-2.2146	-2.6604	-2.1437	-2.1562	-2.6896	-2.0146	-2.6104	-2.3667	-2.2313	-2.825	165.887	15.940	115.470	307.552	195.911	15.876	287.812	67.242	141.341	66.096	194.995	236.357	-0.937	248.008	-13.690	211.281	0.000313	0.00082945	2.8965e-05	1016.5	3.0974e-06	2.4217e-06	1113.3	205.27	6.1852e-06	8.2903e-06	264.61	72.558	57.628	17.16	2.7731e-06	24.099	0.00057525	0.00052631	0.00013973	1019.7	6.414e-06	5.8668e-06	1103.6	214.59	6.4456e-06	5.7664e-06	274.25	79.297	72.66	19.379	5.3983e-06	27.11	209.390	-28.646	317.190	-20.372	175.732	219.318	-20.171	-11.925	48.013	19.192	-13.139	-5.751	-4.605	0.805	84.954	0.504	-8191	255	
3288.719	1	1	0	0	0.18985	0.19347	0.069621	0.058125	0.26732	0.22209	0.21261	0.22909	0.18606	0.25524	0.096274	0.25535	0.054929	0.15808	0.10486	0.14	-1.8062	-2.4313	-2.5229	-2.2938	-2.5729	-2.3458	-2.3396	-2.7229	-2.1729	-2.2229	-2.7958	-1.9542	-2.4021	-2.35	-2.0125	-2.6229	-19.418	43.740	123.596	-28.171	105.306	57.158	202.201	263.190	36.688	80.553	25.810	-25.976	328.480	197.022	295.381	77.027	8.3251e-05	0.00075253	5.7735e-05	1013	3.153e-06	3.6088e-06	1112.5	205.56	3.5236e-06	8.3461e-06	263.54	73.152	57.146	17.143	4.2741e-06	24.092	0.00058768	0.00052626	0.00014144	1023.7	6.3855e-06	5.8262e-06	1106.1	216.93	6.38e-06	5.6947e-06	274.46	80.555	71.999	19.321	5.5519e-06	27.549	152.909	0.824	11.800	-20.573	143.512	-10.273	-20.468	-12.403	97.056	79.761	-13.330	-5.661	-4.463	0.764	178.394	1.016	-8191	255	
3288.815	1	1	0	0	0.041124	0.11372	0.096165	0.24372	0.011672	0.090912	0.097949	0.1718	0.068775	0.054251	0.2424	0.074465	0.15993	0.063753	0.091272	0.17305	-1.75	-2.2271	-2.65	-2.1208	-2.55	-2.4396	-2.25	-2.6354	-2.0729	-2.125	-2.7313	-1.9312	-2.3104	-2.6437	-2.1188	-2.7854	192.664	73.435	63.895	277.108	9.418	85.741	242.027	273.582	230.277	-12.981	-20.400	276.808	105.526	-18.833	51.356	-10.967	0.00016294	0.00045756	4.6409e-05	1015.1	4.9752e-06	5.0748e-06	1112.7	204.45	7.1988e-07	8.7142e-06	263.8	73.39	57.604	17.244	3.6146e-06	24.046	0.00056318	0.00051253	0.00014436	1028.1	6.1198e-06	5.7099e-06	1106.9	218.04	6.0842e-06	5.5828e-06	276.23	80.763	71.047	19.281	5.8477e-06	27.597	205.077	301.871	2.189	-20.395	40.451	27.908	-20.366	-12.320	26.274	129.771	-13.115	-6.093	-4.978	1.510	254.205	0.517	-8191	255	
3288.936	1	1	0	0	0.22625	0.32923	0.14664	0.049981	0.18551	0.18235	0.15922	0.25703	0.19993	0.28803	0.12269	0.065663	0.18761	0.21763	0.21057	0.12508	-1.9354	-2.1229	-2.5896	-2.1	-2.5229	-2.5	-2.0312	-2.6667	-2.2104	-2.1729	-2.6104	-2.1667	-2.2917	-2.5896	-1.9104	-2.5958	213.254	-24.827	190.472	259.432	120.515	229.505	220.966	28.304	160.023	110.510	21.308	64.918	296.080	259.268	262.674	21.678	0.00034341	0.00037671	8.4194e-05	1016.4	7.2308e-06	4.7443e-06	1111.1	206.95	1.2858e-06	6.246e-06	262.12	73.804	57.488	17.223	5.7941e-06	24.026	0.00053959	0.00050602	0.00015368	1030.3	5.8589e-06	5.5743e-06	1111.7	217.96	5.8645e-06	5.4466e-06	278.16	80.696	70.306	19.233	6.2469e-06	27.431	245.381	87.775	91.790	-20.374	252.727	210.097	-20.067	-12.438	299.872	107.797	-12.958	-5.781	-5.310	1.185	168.541	0.577	-8191	255	
3289.032	1	1	0	0	0.17119	0.17126	0.088261	0.10464	0.12317	0.12725	0.35771	0.051669	0.036097	0.21842	0.24317	0.20698	0.094117	0.38521	0.047271	0.12142	-2.0333	-2.1042	-2.6583	-2.275	-2.2917	-2.6729	-2.1146	-2.5208	-2.3521	-2.1354	-2.6979	-2.1042	-2.1813	-2.6646	-2.1583	-2.5667	141.379	124.145	205.041	29.046	76.330	251.825	280.208	124.064	128.994	84.379	255.996	19.465	64.252	-17.922	175.440	120.305	4.1813e-05	8.936e-05	0.00019162	1018	2.0752e-06	4.1836e-06	1105.1	205.71	6.0102e-06	3.037e-06	262.02	73.396	57.497	17.237	1.8308e-06	24.08	0.00052071	0.00049966	0.00016146	1025.6	5.6606e-06	5.5554e-06	1113.6	216.43	5.6958e-06	5.5016e-06	279.61	79.972	69.758	19.302	6.5418e-06	27.072	169.158	49.525	204.548	-20.326	246.836	113.937	-20.246	-12.565	199.300	167.652	-12.878	-6.085	-5.439	1.196	327.939	0.234	-8191	255	
3289.104	1	1	0	0	0.20663	0.013172	0.37461	0.05943	0.1299	0.15258	0.21909	0.26586	0.24183	0.20952	0.043832	0.28993	0.12268	0.19652	0.11631	0.22374	-2.3917	-2.125	-2.6	-2.2917	-2.0812	-2.6833	-2.1833	-2.4854	-2.3542	-1.9688	-2.8438	-2.2875	-2.1625	-2.7229	-2.1833	-2.3229	193.544	234.099	145.882	293.353	98.550	255.587	317.659	253.576	160.639	-26.512	309.555	285.361	22.894	-0.812	213.390	-29.097	0.00011075	0.00047233	0.00013216	1019.3	2.7559e-06	7.3614e-06	1108.7	204.01	2.2539e-06	9.7308e-06	264.38	73.078	58.024	17.15	3.1202e-06	24.146	0.00050741	0.00051811	0.00016632	1021.8	5.519e-06	5.8025e-06	1115.1	214.9	5.5354e-06	5.8316e-06	279.88	79.375	68.946	19.585	6.5098e-06	26.912	271.191	142.116	61.342	-20.488	186.799	184.700	-20.501	-12.896	119.761	162.076	-13.297	-5.700	-4.917	1.039	97.468	0.276	-8191	255	
3289.224	1	1	0	0	0.064505	0.22309	0.17118	0.064617	0.18569	0.17299	0.25236	0.055399	0.21161	0.20296	0.30205	0.046639	0.15498	0.10389	0.15377	0.22059	-2.3312	-2.0042	-2.65	-2.4354	-2.075	-2.7104	-2.3104	-2.3021	-2.5812	-1.8083	-2.6312	-2.4458	-2.1312	-2.6375	-2.1292	-2.1979	-16.443	245.897	82.039	177.254	268.137	263.856	227.979	160.205	175.792	137.426	20.865	117.148	91.076	15.737	43.860	7.187	0.0001932	0.00033992	0.00014496	1017.2	2.6579e-06	7.7109e-06	1110.3	204.76	4.8984e-06	5.6948e-06	263.88	73.932	57.959	17.305	2.0681e-06	24.13	0.00049945	0.00055599	0.00016217	1019.5	5.4244e-06	6.2352e-06	1114.3	214.33	5.554e-06	6.3678e-06	279.1	79.511	69.435	19.801	6.3184e-06	26.884	226.307	125.214	306.836	-20.267	139.551	195.892	-20.192	-12.795	238.719	295.684	-13.326	-6.084	-4.880	1.281	318.519	-0.240	-8191	255	
3289.321	1	1	0	0	0.19268	0.15613	0.026838	0.20777	0.31622	0.22925	0.19799	0.10429	0.14377	0.30787	0.19463	0.088265	0.063627	0.037559	0.076408	0.1786	-2.3354	-1.9292	-2.4521	-2.5187	-1.9542	-2.9062	-2.4104	-2.3646	-2.6562	-2.1208	-2.6854	-2.7229	-1.9958	-2.6937	-2.4437	-2.5021	-18.074	303.836	305.167	-19.254	228.369	244.837	-10.854	50.452	201.126	75.539	9.313	46.181	280.330	192.576	279.451	152.123	9.5887e-05	0.00054846	0.00016341	1017.6	6.4004e-06	5.8275e-06	1111.2	206.31	8.128e-06	6.2621e-06	263.26	73.709	57.865	17.182	6.3382e-06	24.21	0.00050619	0.00059154	0.00015809	1020.3	5.6544e-06	6.6054e-06	1110.4	214.68	5.8031e-06	6.6811e-06	277.57	79.226	70.478	19.91	6.1227e-06	26.824	286.208	97.302	275.709	-20.177	243.099	177.008	-20.029	-12.554	178.405	62.344	-13.630	-5.670	-4.319	1.266	315.257	0.549	-8191	255	
3289.415	1	1	0	0	0.10698	0.14588	0.068878	0.1942	0.12309	0.19334	0.17006	0.24416	0.11893	0.10227	0.058073	0.2001	0.068259	0.31318	0.15564	0.24985	-2.3604	-1.8479	-2.2646	-2.7896	-2.0271	-2.7917	-2.5417	-2.15	-2.9958	-2.05	-2.4354	-2.5125	-1.9667	-2.6917	-2.4104	-2.1437	110.324	161.343	183.871	251.237	260.963	223.013	315.056	298.141	235.127	85.236	224.829	19.945	21.059	-21.995	216.792	58.839	0.00020634	0.00051315	4.3944e-05	1020.1	6.9261e-06	3.3633e-06	1116	204.93	6.4169e-06	5.0998e-06	264.18	72.907	57.424	17.274	4.3612e-06	23.863	0.00054713	0.00061701	0.00015245	1020.4	6.1659e-06	6.7784e-06	1111.5	214.56	6.3564e-06	6.7171e-06	277.37	79.123	72.969	19.909	5.9257e-06	26.719	214.224	15.258	20.122	-20.372	244.589	188.734	-20.215	-12.511	95.893	157.332	-13.519	-5.588	-4.273	1.225	23.226	0.001	-8191	255	
3289.536	1	1	0	0	0.022152	0.25042	0.18217	0.20786	0.26844	0.17097	0.22199	0.10807	0.28555	0.21623	0.035798	0.23287	0.21203	0.098894	0.16635	0.084858	-2.3812	-2.2417	-2.4208	-2.8	-2.025	-2.7792	-2.7042	-2.0979	-2.8271	-2.275	-2.3771	-2.8479	-2.1646	-2.6521	-2.3229	-2.0563	50.600	195.327	48.512	244.067	31.914	253.927	260.442	197.147	288.995	213.634	201.915	238.266	289.264	82.085	189.367	156.951	0.0002297	0.00021016	0.00019167	1015.6	6.5177e-06	2.621e-06	1110.4	205.18	1.7861e-06	6.1646e-06	262.99	74.166	57.503	17.265	6.545e-06	24.071	0.00057928	0.00059274	0.00014821	1017.2	6.507e-06	6.3885e-06	1107.7	214.1	6.5782e-06	6.3701e-06	275.84	79.34	74.198	19.707	5.8441e-06	26.941	247.670	324.244	272.572	-20.257	277.015	102.088	-20.043	-12.608	175.034	11.362	-13.337	-5.727	-4.475	1.091	133.728	0.411	-8191	255	
3289.632	1	1	0	0	0.091126	0.11863	0.2941	0.10739	0.27051	0.037367	0.16524	0.20268	0.26109	0.22586	0.31581	0.37917	0.10991	0.19506	0.25156	0.2807	-2.4354	-2.3854	-2.2812	-2.9708	-2.15	-2.6688	-2.6792	-1.9333	-2.5812	-2.4437	-2.2687	-2.9229	-2.1854	-2.5396	-2.5521	-1.9521	301.749	307.446	228.675	279.033	250.053	190.791	276.045	-21.220	192.250	52.618	311.616	51.265	327.456	129.503	170.193	189.041	0.00013441	0.00066916	7.2743e-05	1018.6	3.8219e-06	9.4165e-06	1110.5	205.32	4.005e-06	6.0773e-06	265.35	73.722	57.075	17.237	6.2058e-06	23.934	0.00060235	0.00056828	0.00014583	1021.9	6.7418e-06	6.1405e-06	1109.6	215.54	6.7457e-06	6.1059e-06	275.8	80.149	74.548	19.555	5.7597e-06	27.334	215.379	286.724	301.250	-20.314	182.751	40.535	-20.166	-12.310	229.196	29.003	-13.166	-5.804	-5.090	0.669	59.679	0.697	-8191	255	
3289.728	1	1	0	0	0.10207	0.10778	0.24507	0.086646	0.26613	0.11676	0.04761	0.34279	0.099028	0.16157	0.079389	0.07905	0.071312	0.17213	0.26027	0.44334	-2.3042	-2.2938	-2.0167	-2.9688	-1.9188	-2.2125	-2.6813	-1.8667	-2.5167	-2.425	-2.15	-2.9062	-2.0792	-2.4437	-2.5979	-2.0625	249.452	171.196	219.193	127.644	38.520	281.142	77.480	-16.833	317.785	127.235	158.292	-4.459	-26.102	281.969	115.763	230.239	0.0002817	8.4504e-05	0.00021079	1017.9	6.7068e-06	3.6918e-06	1109.4	204.62	2.6336e-07	7.8451e-06	264.25	73.579	57.624	17.233	6.4795e-06	24.228	0.00060623	0.00054927	0.00014343	1027.6	6.6286e-06	5.8977e-06	1105.2	217.46	6.5222e-06	5.9572e-06	274.62	80.771	73.522	19.495	5.7342e-06	27.65	211.829	77.980	8.354	-20.473	220.735	-1.985	-20.263	-12.466	327.321	75.690	-13.205	-5.769	-5.375	1.451	143.340	0.685	-8191	255	
3289.800	1	1	0	0	0.14379	0.049717	0.22611	0.033325	0.12017	0.094297	0.24878	0.096841	0.23404	0.13621	0.24341	0.21608	0.11538	0.38192	0.17415	0.060268	-1.9917	-2.3833	-2.0458	-2.8042	-2.2062	-2.15	-3.0083	-2.0333	-2.7542	-2.4167	-2.0604	-2.8271	-2.2833	-2.0938	-2.8146	-2.1083	196.812	161.681	142.168	250.183	206.125	136.774	215.945	233.480	257.987	5.005	-8.528	271.742	-5.602	96.450	297.225	52.448	6.5908e-05	0.00058784	0.00011599	1021.8	6.6031e-06	5.8549e-06	1109.8	204.91	1.6689e-06	4.7145e-06	263.57	73.898	57.487	17.093	9.8415e-06	24.122	0.00057582	0.0005425	0.0001461	1032.2	6.3842e-06	5.8012e-06	1108.5	218.26	6.2407e-06	5.815e-06	276.18	81.384	72.264	19.391	5.9645e-06	27.749	270.312	25.094	256.473	-20.304	217.368	47.379	-20.156	-12.510	123.827	55.116	-13.044	-5.267	-4.802	0.958	219.379	0.425	-8191	255	
3289.920	1	1	0	0	0.080742	0.25181	0.033568	0.36459	0.13236	0.27725	0.15959	0.22033	0.107	0.0721	0.2007	0.11464	0.16767	0.042308	0.034858	0.16998	-2.25	-2.5938	-1.9333	-2.7208	-2.3729	-2.2729	-2.8896	-2.0167	-2.3542	-2.6042	-1.9562	-2.6646	-2.4	-2.025	-2.8271	-2.1688	5.188	311.975	57.334	245.121	74.609	49.718	282.911	0.010	105.668	8.859	54.325	-16.920	203.595	281.802	-24.217	112.159	0.00015278	0.00048838	5.4059e-05	1021.5	5.1382e-06	7.9799e-06	1114.2	206.04	5.5041e-06	2.982e-06	265.66	73.144	58.451	17.006	7.5387e-06	24.106	0.00054423	0.00052411	0.0001536	1031.8	6.1002e-06	5.6509e-06	1112.6	218.32	5.9628e-06	5.668e-06	279.69	80.862	71.001	19.302	6.3245e-06	27.564	195.936	20.247	106.404	-20.513	177.123	53.981	-20.106	-12.561	39.177	277.085	-12.901	-5.933	-4.244	0.928	226.683	0.429	-8191	255	
3290.016	1	1	0	0	0.083588	0.25344	0.10267	0.026415	0.054108	0.1713	0.45184	0.33555	0.26004	0.10705	0.10612	0.077896	0.17244	0.19326	0.084489	0.084458	-1.9125	-2.5604	-1.9875	-2.7604	-2.3312	-2.1437	-2.7687	-2.2542	-2.3521	-2.8229	-2.15	-2.6104	-2.3333	-1.95	-2.7021	-2.1729	66.880	289.745	9.522	13.234	238.461	177.751	258.189	297.885	227.025	301.256	92.227	313.642	196.084	242.702	24.304	-5.689	8.9723e-05	0.00038196	0.00014692	1021.1	2.9627e-06	5.368e-06	1114.6	205.75	4.2257e-06	2.455e-06	265.18	73.437	57.523	17.101	3.2505e-06	24.224	0.00052758	0.00051535	0.00016407	1029	5.974e-06	5.6912e-06	1120.1	218.22	5.9539e-06	5.8328e-06	282.8	80.655	71.626	19.503	6.9147e-06	27.588	136.937	53.743	145.825	-20.635	183.326	237.957	-20.246	-12.419	6.398	209.051	-13.231	-5.956	-4.515	1.199	-2.874	0.332	-8191	255	
3290.112	1	1	0	0	0.18826	0.064431	0.2117	0.12904	0.12725	0.021833	0.074604	0.10718	0.17522	0.22188	0.094685	0.10725	0.094938	0.10432	0.073494	0.041063	-1.6958	-2.7833	-2.1271	-2.5729	-2.5375	-2.1146	-2.8479	-2.4229	-2.2042	-2.7062	-2.1688	-2.4458	-2.5563	-2.1063	-2.725	-2.3146	321.584	300.870	141.024	212.582	70.418	282.822	32.097	-8.001	311.501	-8.714	86.744	235.572	-2.092	187.127	280.894	277.289	0.00024717	0.0011505	0.0002088	1015.9	6.5587e-06	5.9024e-06	1111	205.7	2.6232e-06	6.0114e-06	264.05	74.004	58.447	17.096	3.6765e-06	24.147	0.00053408	0.00054544	0.00017567	1026.8	5.9612e-06	6.0172e-06	1120.8	217.23	5.8156e-06	6.1186e-06	282.83	79.954	70.76	19.624	6.8189e-06	27.266	245.203	158.889	55.159	-20.357	192.161	224.404	-20.183	-12.198	3.350	86.876	-13.470	-6.054	-5.348	1.109	178.256	0.241	-8191	255	
3290.209	1	1	0	0	0.044025	0.083071	0.3151	0.24886	0.081402	0.14299	0.28401	0.017291	0.10437	0.21058	0.20171	0.089374	0.080474	0.24965	0.15263	0.089845	-1.6979	-2.5625	-2.0354	-2.4938	-2.5729	-1.9583	-2.95	-2.5292	-2.0896	-2.725	-2.2979	-2.2667	-2.6792	-1.9125	-2.4146	-2.5104	213.735	314.900	257.872	317.510	142.142	20.482	272.523	247.119	109.661	326.411	295.970	128.562	244.408	83.612	226.071	27.063	8.4726e-05	0.00067579	6.0131e-05	1019.2	7.3069e-07	6.5275e-06	1114.4	205.02	1.6264e-06	4.3067e-06	263.89	73.551	56.931	17.226	1.0738e-05	24.121	0.0005157	0.00057751	0.00017195	1025.4	5.719e-06	6.3441e-06	1120.5	216.17	5.6516e-06	6.5042e-06	281.6	79.675	70.278	19.916	6.4789e-06	27.12	246.298	104.075	77.199	-20.461	110.863	231.361	-20.207	-12.474	75.281	152.256	-13.399	-5.923	-4.635	1.184	4.769	0.568	-8191	255	
3290.327	1	1	0	0	0.17774	0.5089	0.13088	0.20815	0.24527	0.14687	0.19663	0.32657	0.29364	0.26735	0.092133	0.1115	0.14186	0.055159	0.14996	0.18382	-1.7083	-2.6063	-2.0083	-2.2542	-2.8521	-1.9188	-2.5583	-2.5354	-2.1562	-2.7333	-2.2667	-2.2188	-2.5979	-2.0792	-2.4917	-2.3708	21.050	126.935	291.652	181.334	244.819	-4.890	176.919	278.650	89.153	5.225	321.712	90.392	110.803	223.497	113.572	245.473	0.00019092	0.00027865	0.00022617	1017.4	2.7014e-06	1.2734e-06	1113.3	204.74	9.959e-07	4.2145e-06	264.49	73.314	59.356	17.226	2.1078e-06	24.08	0.00051524	0.00060712	0.00016505	1021.7	5.762e-06	6.6867e-06	1113.7	214.76	5.6813e-06	6.6466e-06	278.35	79.02	70.614	19.956	5.9521e-06	26.812	270.253	181.592	-16.078	-20.274	125.158	237.777	-20.265	-12.400	205.114	156.220	-13.023	-5.666	-4.188	0.951	-22.118	0.682	-8191	255	
3290.401	1	1	0	0	0.07283	0.10205	0.2605	0.14928	0.27447	0.26635	0.09027	0.16281	0.065299	0.10153	0.14568	0.20602	0.070865	0.30023	0.19866	0.16542	-1.5854	-2.8063	-2.2125	-2.1708	-2.8479	-2.1854	-2.5583	-2.5729	-2.1375	-2.7021	-2.3667	-1.9854	-2.7042	-2.1542	-2.3438	-2.6437	81.128	-4.246	201.829	302.313	308.370	-2.675	47.126	70.785	23.486	163.785	249.047	209.851	46.129	305.757	-12.486	265.194	0.00045692	0.00042318	0.00013613	1020.7	3.2757e-06	6.9331e-06	1114	206.03	2.4038e-06	3.1339e-06	264.07	73.727	57.93	17.419	8.0949e-06	24.328	0.00052487	0.00059713	0.00015074	1020.2	5.9072e-06	6.5406e-06	1110	214.62	6.0336e-06	6.5147e-06	276.61	78.809	72.146	19.885	5.7971e-06	26.74	243.379	293.609	119.029	-20.476	177.950	290.731	-20.324	-12.657	203.502	22.213	-13.272	-5.759	-3.787	0.820	50.136	0.680	-8191	255	
3290.497	1	1	0	0	0.24808	0.067393	0.056877	0.31929	0.15743	0.18125	0.070672	0.096923	0.33461	0.35514	0.19686	0.15638	0.29636	0.13718	0.47183	0.10624	-1.5875	-2.6083	-2.3042	-2.1958	-2.65	-2.2687	-2.4	-2.6042	-1.8979	-2.6208	-2.4979	-2.2458	-2.7146	-2.0917	-2.275	-2.7292	294.803	67.884	-21.107	301.206	58.984	21.422	190.669	154.302	43.939	108.699	-6.635	114.792	-17.647	211.478	22.853	20.105	0.00018567	0.00025286	2.934e-05	1014	1.9945e-06	6.3893e-06	1112.8	205.58	6.3444e-06	4.4359e-06	265.69	73.28	58.014	17.321	8.5418e-06	24.263	0.00056195	0.00057958	0.0001476	1018.2	6.3432e-06	6.3209e-06	1109.8	214.37	6.4431e-06	6.2744e-06	276.39	78.92	73.73	19.698	5.6546e-06	26.946	287.462	215.682	189.085	-20.438	275.659	329.113	-20.160	-12.670	152.135	67.803	-13.133	-5.864	-4.454	0.914	62.316	0.461	-8191	255	
#DATA ENDS
