BOXY.EXE: ISS Imagent and Oximeter Data Acquisition Program Version 0.80
Ascii Record File

#ACQ INFORMATION
2  Detector Channels 
16  External MUX Channels 
1  Auxiliary Channels 
5000  Waveform (CCF) Frequency (Hz)
1  Waveforms Skipped 
30  Waveforms Averaged 
1  Cycles Averaged 
16  Acquisitions per Waveform 
10.0806  Updata Rate (Hz) 

#FILE INFORMATION
TRUE -- External MUX Channel results are PARSED.
FALSE -- AC DC and Phase are NOT grouped.
TRUE -- Companion Program Settings File CREATED.
FALSE -- AC data not excluded
FALSE -- DC data not excluded
FALSE -- Phase data not excluded
FALSE -- Auxillary Chn. data not excluded
Tab delimiters

#CALIBRATION STATE
TRUE -- Waveform Calibration Values APPLIED.


#AUX CALIBRATION VALUES
Val Type	aux-1	

Term	1.0000e+00	
Factor	0.0000e+00	


#WF CALIBRATION VALUES
A = Detector Channel
Val Type	A-AC1	A-AC2	A-AC3	A-AC4	A-AC5	A-AC6	A-AC7	A-AC8	A-AC9	A-AC10	A-AC11	A-AC12	A-AC13	A-AC14	A-AC15	A-AC16	A-DC1	A-DC2	A-DC3	A-DC4	A-DC5	A-DC6	A-DC7	A-DC8	A-DC9	A-DC10	A-DC11	A-DC12	A-DC13	A-DC14	A-DC15	A-DC16	A-Ph1	A-Ph2	A-Ph3	A-Ph4	A-Ph5	A-Ph6	A-Ph7	A-Ph8	A-Ph9	A-Ph10	A-Ph11	A-Ph12	A-Ph13	A-Ph14	A-Ph15	A-Ph16	

Term	0.00000e+00	0.00000e+00	0.00000e+00	0.00000e+00	0.00000e+00	0.00000e+00	0.00000e+00	0.00000e+00	0.00000e+00	0.00000e+00	0.00000e+00	0.00000e+00	0.00000e+00	0.00000e+00	0.00000e+00	0.00000e+00	0.00000e+00	0.00000e+00	0.00000e+00	0.00000e+00	0.00000e+00	0.00000e+00	0.00000e+00	0.00000e+00	0.00000e+00	0.00000e+00	0.00000e+00	0.00000e+00	0.00000e+00	0.00000e+00	0.00000e+00	0.00000e+00	0.00000e+00	0.00000e+00	0.00000e+00	0.00000e+00	0.00000e+00	0.00000e+00	0.00000e+00	0.00000e+00	0.00000e+00	0.00000e+00	0.00000e+00	0.00000e+00	0.00000e+00	0.00000e+00	0.00000e+00	0.00000e+00	
Factor	1.00000e+00	1.00000e+00	1.00000e+00	1.00000e+00	1.00000e+00	1.00000e+00	1.00000e+00	1.00000e+00	1.00000e+00	1.00000e+00	1.00000e+00	1.00000e+00	1.00000e+00	1.00000e+00	1.00000e+00	1.00000e+00	1.00000e+00	1.00000e+00	1.00000e+00	1.00000e+00	1.00000e+00	1.00000e+00	1.00000e+00	1.00000e+00	1.00000e+00	1.00000e+00	1.00000e+00	1.00000e+00	1.00000e+00	1.00000e+00	1.00000e+00	1.00000e+00	X	X	X	X	X	X	X	X	X	X	X	X	X	X	X	X	

B = Detector Channel
Val Type	B-AC1	B-AC2	B-AC3	B-AC4	B-AC5	B-AC6	B-AC7	B-AC8	B-AC9	B-AC10	B-AC11	B-AC12	B-AC13	B-AC14	B-AC15	B-AC16	B-DC1	B-DC2	B-DC3	B-DC4	B-DC5	B-DC6	B-DC7	B-DC8	B-DC9	B-DC10	B-DC11	B-DC12	B-DC13	B-DC14	B-DC15	B-DC16	B-Ph1	B-Ph2	B-Ph3	B-Ph4	B-Ph5	B-Ph6	B-Ph7	B-Ph8	B-Ph9	B-Ph10	B-Ph11	B-Ph12	B-Ph13	B-Ph14	B-Ph15	B-Ph16	

Term	0.00000e+00	0.00000e+00	0.00000e+00	0.00000e+00	0.00000e+00	0.00000e+00	0.00000e+00	0.00000e+00	0.00000e+00	0.00000e+00	0.00000e+00	0.00000e+00	0.00000e+00	0.00000e+00	0.00000e+00	0.00000e+00	0.00000e+00	0.00000e+00	0.00000e+00	0.00000e+00	0.00000e+00	0.00000e+00	0.00000e+00	0.00000e+00	0.00000e+00	0.00000e+00	0.00000e+00	0.00000e+00	0.00000e+00	0.00000e+00	0.00000e+00	0.00000e+00	1.28517e+01	-1.29853e+02	-1.21677e+02	-1.83139e+02	-6.87604e+01	-6.58281e+01	-1.58786e+02	-1.62015e+02	-3.78925e+01	-6.62887e+01	-1.74618e+02	-1.69957e+02	-1.81837e+02	-1.77561e+02	-6.52837e+01	-1.50666e+02	
Factor	4.19535e-05	1.47765e-04	4.14717e-05	1.57738e-01	1.79528e-06	1.54020e-06	1.56161e-01	5.11438e-02	2.10370e-06	1.42995e-06	8.44469e-02	2.60920e-02	3.29983e-02	8.55630e-03	1.62642e-06	1.22491e-02	7.88855e-06	9.80151e-06	2.73652e-06	8.23762e-02	1.02511e-07	1.08110e-07	7.62380e-02	2.67946e-02	1.02899e-07	1.07992e-07	4.29504e-02	1.32841e-02	1.72875e-02	4.52344e-03	1.05122e-07	6.26707e-03	X	X	X	X	X	X	X	X	X	X	X	X	X	X	X	X	



#DISTANCE SETTINGS
A = Detector Channel
A-1	A-2	A-3	A-4	A-5	A-6	A-7	A-8	A-9	A-10	A-11	A-12	A-13	A-14	A-15	A-16	

2.5000e+00	3.0000e+00	2.5000e+00	3.0000e+00	2.0000e+00	3.0000e+00	1.5000e+00	3.0000e+00	3.0000e+00	3.0000e+00	3.0000e+00	3.0000e+00	3.0000e+00	3.0000e+00	1.5000e+00	3.0000e+00	

B = Detector Channel
B-1	B-2	B-3	B-4	B-5	B-6	B-7	B-8	B-9	B-10	B-11	B-12	B-13	B-14	B-15	B-16	

1.0000e+01	1.0000e+01	1.0000e+01	1.4400e+00	1.0000e+01	1.0000e+01	1.5100e+00	1.9400e+00	1.0000e+01	1.0000e+01	1.9900e+00	2.4900e+00	2.4100e+00	2.9000e+00	1.0000e+01	2.9800e+00	




#DATA BEGINS
time	group	step	mark	flag	A-AC1	A-AC2	A-AC3	A-AC4	A-AC5	A-AC6	A-AC7	A-AC8	A-AC9	A-AC10	A-AC11	A-AC12	A-AC13	A-AC14	A-AC15	A-AC16	A-DC1	A-DC2	A-DC3	A-DC4	A-DC5	A-DC6	A-DC7	A-DC8	A-DC9	A-DC10	A-DC11	A-DC12	A-DC13	A-DC14	A-DC15	A-DC16	A-Ph1	A-Ph2	A-Ph3	A-Ph4	A-Ph5	A-Ph6	A-Ph7	A-Ph8	A-Ph9	A-Ph10	A-Ph11	A-Ph12	A-Ph13	A-Ph14	A-Ph15	A-Ph16	B-AC1	B-AC2	B-AC3	B-AC4	B-AC5	B-AC6	B-AC7	B-AC8	B-AC9	B-AC10	B-AC11	B-AC12	B-AC13	B-AC14	B-AC15	B-AC16	B-DC1	B-DC2	B-DC3	B-DC4	B-DC5	B-DC6	B-DC7	B-DC8	B-DC9	B-DC10	B-DC11	B-DC12	B-DC13	B-DC14	B-DC15	B-DC16	B-Ph1	B-Ph2	B-Ph3	B-Ph4	B-Ph5	B-Ph6	B-Ph7	B-Ph8	B-Ph9	B-Ph10	B-Ph11	B-Ph12	B-Ph13	B-Ph14	B-Ph15	B-Ph16	aux-1	digaux	

13395.546	1	1	0	256	0.1974	0.12824	0.22609	0.048598	0.23311	0.10767	0.29263	0.27631	0.17557	0.15061	0.22118	0.31268	0.17642	0.070637	0.16591	0.31377	-2.6083	-2.4813	-2.5583	-2.9938	-2.3875	-2.925	-2.9792	-2.6688	-3.1354	-2.6583	-2.6521	-3.1333	-2.5167	-2.9604	-2.875	-2.425	119.369	398.244	389.197	125.759	210.915	120.273	332.077	401.682	322.160	375.048	411.568	445.356	412.196	349.063	164.024	419.047	0.00197	0.00088376	0.00011527	1357.2	9.8426e-06	1.2105e-05	1239.3	533.65	1.6422e-05	2.2187e-06	519.81	192.69	193.12	75.267	1.3015e-05	79.393	0.0013804	0.0014015	0.00040345	1241.8	1.49e-05	1.542e-05	1133.2	490.23	1.5104e-05	1.5554e-05	477.25	177.35	176.65	69.864	1.5734e-05	73.224	319.791	198.103	151.664	115.488	242.576	262.914	114.562	120.693	271.329	314.704	118.497	122.623	124.596	129.022	294.880	125.556	-8191	255	
13395.665	1	1	0	0	0.041028	0.20798	0.12281	0.22216	0.12963	0.09806	0.16738	0.40605	0.19736	0.1401	0.39309	0.18062	0.15299	0.14222	0.15175	0.08532	-2.6854	-2.4792	-2.4521	-3.0708	-2.4688	-2.8271	-3.0271	-2.4958	-3.0375	-2.6604	-2.6333	-3.1312	-2.4083	-2.8021	-2.8708	-2.2771	224.623	218.853	120.142	400.326	354.903	109.855	422.113	404.994	121.045	105.104	121.140	396.869	397.075	461.930	181.975	399.849	0.0019077	0.00049887	0.00012598	1344.4	7.2818e-06	4.323e-06	1245.7	537.34	1.3743e-05	4.616e-06	518.04	194.53	192.81	75.446	7.0737e-06	79.389	0.0013899	0.0014122	0.00040374	1238.7	1.5162e-05	1.5932e-05	1136.7	491.96	1.5321e-05	1.5835e-05	477.91	178.34	176.57	70.076	1.5209e-05	73.252	319.783	196.486	159.973	115.487	250.456	265.504	115.030	120.792	321.388	194.791	118.179	122.932	124.733	129.136	239.833	125.733	-8191	255	
13395.761	1	1	0	0	0.18185	0.22667	0.11734	0.052359	0.22588	0.089208	0.098984	0.35412	0.2045	0.45727	0.30246	0.2535	0.085584	0.18757	0.16427	0.35964	-2.3104	-2.4833	-2.2562	-3.075	-2.2271	-2.5625	-3.1292	-2.3229	-2.7229	-2.7646	-2.4042	-3.2292	-2.6083	-2.6875	-3.0917	-2.4875	107.892	295.521	433.514	340.898	202.802	352.988	109.448	438.737	222.568	286.061	125.920	347.500	118.792	455.057	370.293	417.887	0.0017072	0.00075913	0.00015619	1357	9.0936e-06	4.4708e-06	1248.1	536.89	2.1537e-05	2.9009e-06	517.66	194.85	193.61	75.469	1.1596e-05	79.497	0.0013652	0.0014438	0.00039663	1242	1.5128e-05	1.552e-05	1140.9	492.52	1.5222e-05	1.5775e-05	478.15	178.67	177.28	70.069	1.562e-05	73.57	320.161	197.125	200.647	115.991	241.038	200.355	114.956	120.866	291.756	281.411	118.611	123.000	125.249	129.661	215.211	125.977	-8191	255	
13395.857	1	1	0	0	0.11588	0.09896	0.25129	0.13504	0.11007	0.15504	0.077615	0.41251	0.031197	0.12978	0.1283	0.37483	0.24027	0.24396	0.13585	0.17658	-2.5292	-2.9229	-2.3146	-3.1437	-2.6042	-2.6188	-3.1917	-2.5167	-2.7521	-2.8563	-2.5667	-3.1604	-2.5917	-2.6021	-2.7104	-2.4542	208.897	440.195	167.338	421.372	282.524	168.432	350.523	416.654	237.611	268.682	345.674	389.371	103.719	106.588	349.798	362.624	0.0017704	0.00073527	0.00016027	1360.6	1.5849e-05	5.6519e-06	1246.8	538.54	1.617e-05	9.2449e-06	523.57	196.14	193.13	75.757	1.4509e-05	80.067	0.0013751	0.0014576	0.00040031	1245.5	1.5259e-05	1.568e-05	1142.3	494.27	1.5439e-05	1.562e-05	481.87	179.23	177.28	70.321	1.5384e-05	73.946	320.388	219.756	241.736	115.740	254.460	297.689	115.009	121.112	264.641	278.149	118.840	123.177	125.218	129.744	257.024	126.018	-8191	255	
13395.953	1	1	0	0	0.16401	0.090559	0.12216	0.2178	0.081377	0.089781	0.24573	0.31108	0.18267	0.076786	0.22289	0.16484	0.22798	0.13315	0.26318	0.40048	-2.1708	-2.7562	-2.2479	-3.1583	-2.7	-2.2729	-3.1875	-2.5979	-2.65	-3.0062	-2.4625	-2.9146	-2.8104	-2.6667	-3.025	-2.4958	255.479	262.028	138.353	391.171	147.597	241.130	428.043	388.945	355.198	142.822	395.211	389.376	148.837	114.562	341.847	399.152	0.0018272	0.00074204	0.00030277	1352	7.6262e-06	1.0491e-05	1243.5	541.86	1.1125e-05	8.9328e-06	520.65	195.44	193.28	76.311	1.6475e-05	79.758	0.0013747	0.0014625	0.00040226	1242.1	1.5459e-05	1.5763e-05	1137.8	495.14	1.5502e-05	1.6048e-05	480.42	179.41	177.75	70.731	1.5781e-05	73.925	316.608	149.281	192.283	115.364	238.493	264.021	114.863	120.497	267.485	271.111	118.693	122.966	125.158	129.250	274.664	125.987	-8191	255	
13396.074	1	1	0	0	0.078162	0.14856	0.1005	0.12653	0.12965	0.2471	0.28198	0.10214	0.05661	0.098989	0.21195	0.016095	0.20172	0.16004	0.066354	0.11972	-2.2771	-2.8042	-2.1125	-3.1083	-2.7542	-2.4604	-3.1583	-2.5729	-2.5187	-3.025	-2.5896	-2.9313	-2.8229	-2.6229	-2.8937	-2.6958	218.883	239.517	193.191	104.723	226.098	383.152	103.228	457.822	174.624	426.923	404.626	120.794	389.405	435.101	333.631	428.264	0.0019162	0.0013157	0.00029621	1357.7	1.1891e-05	1.1562e-05	1242.1	538.01	1.5369e-05	5.284e-06	524.69	195.44	192.22	75.521	5.1243e-06	79.624	0.0014381	0.0014368	0.00040357	1242.3	1.5366e-05	1.6135e-05	1139.5	493.85	1.556e-05	1.5578e-05	481.39	179	177.12	70.333	1.5174e-05	73.735	315.464	175.498	211.718	115.724	199.024	225.610	114.927	120.568	289.321	338.784	118.097	122.043	124.814	129.047	226.763	125.787	-8191	255	
13396.170	1	1	0	0	0.25718	0.15642	0.033866	0.21445	0.1518	0.094223	0.25299	0.40687	0.051397	0.018581	0.1694	0.29386	0.27884	0.22374	0.11994	0.20418	-2.1979	-2.8708	-2.2542	-2.8708	-2.7729	-2.4146	-3.1354	-2.6937	-2.4417	-2.9833	-2.4854	-2.8333	-3.0646	-2.4583	-2.9354	-2.8104	434.565	349.439	201.685	412.950	341.596	364.116	391.343	402.638	277.192	388.350	273.892	105.405	447.545	462.553	356.512	366.473	0.0018204	0.00073588	0.00018026	1354.2	1.1934e-05	6.1181e-06	1249.5	540.1	8.7578e-06	4.1205e-06	523.78	194.28	193.12	75.62	7.1923e-06	79.785	0.001399	0.0014237	0.00039869	1243.3	1.5294e-05	1.5682e-05	1144.3	495.46	1.5373e-05	1.5871e-05	481.04	178.97	177.5	70.06	1.5594e-05	73.637	319.206	156.801	195.339	115.736	249.835	256.548	115.090	121.024	248.108	220.851	118.807	123.109	125.578	129.710	232.972	126.273	-8191	255	
13396.242	1	1	0	0	0.1236	0.35479	0.12995	0.2793	0.11636	0.10243	0.3061	0.29986	0.13117	0.078531	0.22566	0.095653	0.24121	0.182	0.047206	0.24901	-2.0667	-2.9833	-2.3812	-2.9958	-3.0583	-2.4396	-3.1458	-2.9188	-2.4	-2.9229	-2.8	-2.8125	-2.9479	-2.2792	-3.0687	-2.9188	346.386	234.768	224.613	395.169	225.136	151.033	370.852	404.103	107.931	215.510	375.742	414.773	415.139	395.479	162.376	447.198	0.0019073	0.00078858	0.00028304	1357.5	9.5405e-06	6.8804e-06	1259.7	539.62	1.6991e-05	5.1442e-06	527.22	194.84	193.6	75.648	3.6917e-06	79.723	0.0014291	0.0013949	0.00040101	1244.3	1.5404e-05	1.5888e-05	1149.2	495.64	1.5507e-05	1.5664e-05	482.46	178.93	177.32	70.182	1.5516e-05	73.856	319.395	191.676	212.430	115.846	206.567	291.538	114.982	120.543	287.017	248.343	118.625	123.044	125.698	129.656	298.987	126.088	-8191	255	
13396.362	1	1	0	0	0.16209	0.14541	0.20878	0.34647	0.10759	0.06657	0.098118	0.060838	0.15436	0.19088	0.19042	0.13036	0.22508	0.052034	0.25817	0.11133	-2.1063	-3.05	-2.55	-2.7021	-2.9542	-2.25	-2.9208	-3.05	-2.5708	-2.9854	-2.6521	-2.8125	-3.0458	-2.6312	-2.8083	-3.2292	128.052	333.650	318.302	427.573	351.785	345.441	390.063	269.356	350.556	247.963	449.147	442.727	441.554	426.232	459.511	276.419	0.0018299	0.00024358	0.00017321	1360.7	3.6816e-06	3.6317e-06	1249.3	539.28	1.4855e-05	5.455e-06	521.92	194.92	193.9	75.817	1.3943e-05	79.462	0.0013824	0.0014205	0.00039841	1246	1.5343e-05	1.5779e-05	1142	493.96	1.5337e-05	1.5804e-05	480.03	179.05	177.42	70.152	1.5699e-05	73.675	319.842	428.746	171.094	115.820	289.291	242.946	114.838	121.152	264.983	310.399	118.505	122.802	125.498	129.513	252.135	125.923	-8191	255	
13396.458	1	1	0	0	0.1649	0.13955	0.10016	0.057126	0.01429	0.12245	0.077125	0.36794	0.092635	0.13785	0.29895	0.17769	0.11486	0.06989	0.0717	0.38066	-1.8104	-3.0979	-2.4396	-2.4521	-2.9396	-2.5042	-2.8563	-2.9667	-2.1417	-3.0542	-2.7562	-2.5958	-3.1729	-2.7021	-2.7083	-3.1312	388.070	132.474	391.368	158.734	384.045	106.046	369.208	406.983	155.006	364.866	363.762	110.530	369.233	111.315	238.406	445.343	0.0020802	0.0010936	0.00024619	1355.4	9.9467e-06	9.1232e-07	1246.5	538.35	1.3339e-05	6.7083e-06	522.91	196.46	191.93	75.517	1.2557e-05	79.863	0.0014447	0.0014515	0.00039808	1244.7	1.528e-05	1.5826e-05	1141.5	493.99	1.5472e-05	1.5715e-05	481.49	179.48	177.2	70.222	1.5317e-05	73.842	323.439	206.584	233.699	115.687	265.957	290.486	114.805	120.747	275.187	240.851	118.384	122.913	124.910	129.472	256.815	125.989	-8191	255	
13396.555	1	1	0	0	0.11265	0.040517	0.24547	0.35959	0.42185	0.32653	0.41666	0.29993	0.15286	0.056097	0.076951	0.15192	0.064898	0.18832	0.014108	0.20214	-1.8563	-2.775	-2.5667	-2.2687	-2.9771	-2.5104	-2.7562	-2.9688	-2.3104	-2.8479	-2.7271	-2.5271	-3.0667	-2.5417	-2.3563	-2.9604	283.309	317.911	418.249	454.719	296.034	302.877	341.891	400.576	390.611	372.275	452.639	156.498	185.269	413.782	288.811	167.624	0.0017538	0.00083654	9.0611e-05	1354.8	1.253e-05	8.9678e-06	1258.9	539.69	1.8324e-05	1.202e-05	529.81	197.1	194.31	76.783	1.4156e-05	80.571	0.0014	0.0014329	0.00041055	1241.7	1.5182e-05	1.546e-05	1148	496.73	1.5375e-05	1.5616e-05	487.46	181	178	70.979	1.5391e-05	74.835	319.392	241.551	187.386	115.524	267.406	272.700	114.520	120.792	306.480	240.092	118.735	122.773	125.269	129.598	238.617	125.708	-8191	255	
13396.651	1	1	0	0	0.22385	0.067421	0.21357	0.17962	0.16567	0.23582	0.17283	0.15858	0.25302	0.19121	0.12285	0.13997	0.33925	0.18689	0.14467	0.28879	-1.8271	-2.5375	-2.7396	-2.525	-2.9583	-2.3667	-2.6667	-2.9917	-2.3104	-2.7354	-3.1417	-2.4	-3.2125	-2.6604	-2.3937	-3.1854	251.631	113.521	404.980	343.476	270.223	346.533	150.604	343.610	399.045	132.696	446.612	321.399	419.529	442.179	291.397	431.138	0.0019758	0.00079946	0.00028538	1357.1	7.375e-06	1.4616e-05	1263	545.26	3.4185e-06	8.263e-06	533.22	199.06	194.03	76.869	1.1711e-05	81.019	0.0013506	0.0014114	0.00039304	1244.3	1.4526e-05	1.5489e-05	1155.3	499.52	1.4979e-05	1.5442e-05	489.15	181.79	178.49	71.176	1.538e-05	75.2	321.687	217.814	207.053	115.707	205.999	277.572	115.134	121.094	341.982	229.922	119.125	122.956	125.156	129.548	257.818	126.004	-8191	255	
13396.770	1	1	0	0	0.18416	0.41575	0.16192	0.24026	0.078759	0.20452	0.24376	0.16214	0.33331	0.21047	0.097106	0.20408	0.18302	0.22357	0.12948	0.38363	-2.0563	-2.6771	-2.8229	-2.4104	-2.9271	-2.7812	-2.5583	-3.3271	-2.4583	-2.6729	-3.2208	-2.625	-3.0396	-2.8854	-2.2875	-3.2625	140.829	450.680	152.444	406.744	348.772	148.958	427.562	423.693	346.065	120.575	382.603	448.532	128.682	408.716	290.240	458.276	0.0020881	0.0010352	0.00015304	1355.1	1.1274e-05	5.2742e-06	1269.6	543.5	1.4965e-05	1.0814e-06	531.48	198.44	194.96	76.818	1.3962e-05	81.572	0.0013744	0.0014084	0.00039674	1244.2	1.4758e-05	1.5491e-05	1153.1	498.34	1.5228e-05	1.5534e-05	489.01	181.68	178.95	71.128	1.5358e-05	75.109	315.349	182.481	176.986	115.791	273.381	294.244	114.892	120.753	289.610	320.040	118.839	123.235	125.330	130.017	237.676	126.091	-8191	255	
13396.841	1	1	0	0	0.10474	0.13979	0.29779	0.34374	0.20858	0.026129	0.14844	0.50192	0.2638	0.27468	0.21976	0.24373	0.25369	0.1584	0.16467	0.13482	-2.0958	-2.5854	-2.9646	-2.55	-2.8979	-2.7875	-2.4646	-3.4417	-2.4813	-2.4958	-3.1583	-2.3	-2.9208	-3.0417	-2.3563	-3.1833	212.163	232.725	176.820	458.414	347.197	456.908	336.765	440.021	183.087	114.612	442.192	306.255	367.379	457.695	374.978	281.204	0.0019818	0.0011905	0.00036499	1351.9	1.3983e-05	8.8046e-06	1265.9	545.03	1.5743e-05	1.0891e-05	530.98	198.88	194.93	76.715	1.7101e-05	81.525	0.0013702	0.0013904	0.00038819	1242.2	1.486e-05	1.5393e-05	1153.3	498.51	1.4832e-05	1.4908e-05	489.15	182.02	178.57	71.247	1.523e-05	75.249	320.868	188.529	215.532	115.384	263.885	233.680	114.696	120.434	288.860	267.781	118.186	122.407	124.803	129.193	254.075	125.902	-8191	255	
13396.962	1	1	0	0	0.27364	0.19697	0.14173	0.42583	0.18344	0.12184	0.4981	0.045084	0.074381	0.31867	0.20676	0.10106	0.085231	0.33699	0.31395	0.12232	-2.2792	-2.45	-2.9292	-2.4667	-2.7708	-2.8792	-2.6042	-3.0563	-2.7375	-2.4521	-3.1354	-2.5563	-2.7833	-3.0479	-2.2875	-3.0938	436.086	426.662	454.331	397.693	130.663	174.251	372.421	280.246	378.685	416.956	429.216	444.418	104.148	439.994	109.720	387.243	0.0020098	0.00044945	0.00016956	1359.3	9.8336e-06	1.2456e-05	1267	545.95	8.247e-06	1.0089e-05	531.4	198.58	196.24	76.63	1.0506e-05	81.442	0.0013595	0.0013821	0.00038254	1245.5	1.4691e-05	1.5212e-05	1158.5	499.38	1.4949e-05	1.5167e-05	490.34	182.31	178.79	70.921	1.4878e-05	75.542	313.045	165.098	163.819	115.798	253.457	236.822	115.035	120.888	252.206	239.306	119.159	123.286	125.104	129.702	274.708	126.028	-8191	255	
13397.058	1	1	0	0	0.13103	0.1552	0.16681	0.26169	0.058499	0.17467	0.10018	0.33029	0.18805	0.094684	0.11101	0.25535	0.21258	0.12231	0.23262	0.20029	-2.1792	-2.5	-3.0729	-2.4979	-2.4562	-2.7625	-2.4521	-2.9896	-2.8542	-2.575	-3.3167	-2.7729	-2.5792	-3.1521	-2.4271	-3.0687	187.386	301.304	209.800	410.009	408.173	337.737	453.936	378.879	430.496	370.699	349.767	106.285	180.675	434.939	321.506	443.570	0.0019497	0.0012506	0.00026503	1359.5	1.7452e-05	8.5626e-06	1268.5	548.68	1.6864e-05	7.0596e-06	537.77	201.27	195.93	76.989	7.27e-06	82.488	0.0013385	0.0013729	0.000388	1245.9	1.4792e-05	1.4936e-05	1162.4	502.07	1.4713e-05	1.4978e-05	495.82	184.08	179.15	71.418	1.4783e-05	76.118	321.410	196.709	190.327	115.756	258.388	299.146	114.926	120.823	285.429	252.863	118.307	122.340	124.985	129.377	235.515	125.733	-8191	255	
13397.154	1	1	0	0	0.1583	0.12506	0.14184	0.43697	0.16619	0.055807	0.50664	0.48772	0.063336	0.25418	0.17633	0.35889	0.10233	0.27269	0.085691	0.12455	-2.5271	-2.2687	-2.9917	-2.6229	-2.5729	-2.9125	-2.4437	-3.0542	-2.9354	-2.3729	-3.0812	-2.6875	-2.5229	-3.0792	-2.4896	-2.7188	122.723	262.175	297.684	404.722	308.113	454.857	450.826	377.127	121.573	123.667	366.823	445.791	372.595	119.788	215.705	349.286	0.0020221	0.00058776	0.00031967	1358.1	1.2296e-05	8.9658e-06	1261.2	545.74	1.2356e-05	6.0138e-06	538.36	199.81	196.27	76.94	3.6155e-06	82.244	0.0013208	0.0013879	0.00037887	1243.9	1.4485e-05	1.5058e-05	1155.7	500.22	1.4705e-05	1.5102e-05	493.91	183.38	179.04	71.485	1.4982e-05	75.955	322.892	194.430	176.729	115.475	226.959	240.546	114.437	120.491	274.932	261.382	118.653	123.389	125.565	129.370	251.108	125.312	-8191	255	
13397.250	1	1	0	0	0.10258	0.28186	0.21088	0.1488	0.29361	0.092948	0.41228	0.22832	0.10107	0.20375	0.20621	0.24323	0.27317	0.039209	0.12798	0.15076	-2.4479	-2.1521	-2.875	-2.75	-2.5229	-3.0854	-2.575	-2.9146	-2.9292	-2.2083	-3.1125	-2.9542	-2.6813	-3.1208	-2.6021	-2.7271	230.746	199.512	221.525	423.146	288.152	398.421	422.717	363.450	131.519	279.618	414.809	439.171	410.964	390.409	159.939	108.747	0.0019914	0.00071787	0.00014719	1356.9	1.3176e-05	1.0962e-05	1270.9	547.05	1.5352e-05	4.7227e-06	538.39	199.7	194.45	76.116	8.4656e-06	81.695	0.0013622	0.0014139	0.0003841	1245.7	1.4467e-05	1.5194e-05	1158.2	501.2	1.4505e-05	1.4689e-05	492.84	183.26	178.32	70.935	1.492e-05	75.468	318.570	177.981	242.969	115.452	240.142	206.675	114.670	120.459	307.709	249.883	118.352	123.054	124.945	129.479	249.987	125.784	-8191	255	
13397.371	1	1	0	0	0.11145	0.27744	0.13558	0.39791	0.15267	0.21281	0.41493	0.34407	0.082311	0.2674	0.25462	0.28395	0.11627	0.12511	0.19749	0.24256	-2.5375	-2.4479	-2.8167	-3.1208	-2.4729	-2.9729	-2.5521	-2.5792	-2.9167	-2.3729	-2.9583	-2.8688	-2.3479	-3.1292	-2.4625	-2.6375	114.970	450.666	352.839	390.035	407.342	269.651	429.196	385.470	245.359	366.911	355.120	373.286	434.630	105.032	338.104	422.508	0.0020244	0.00063549	0.00021614	1362.8	1.4869e-05	8.1125e-06	1270.1	543.6	1.5583e-05	1.1416e-05	531.81	199.65	195.12	75.481	1.7038e-05	81.086	0.001332	0.0013838	0.00038034	1249.1	1.4591e-05	1.4982e-05	1160.3	498.61	1.4303e-05	1.4762e-05	491.02	182.63	177.91	70.238	1.4554e-05	74.853	321.177	193.243	168.634	115.610	255.502	265.728	114.652	120.424	279.820	248.419	118.485	123.188	125.467	129.549	251.470	125.642	-8191	255	
13397.443	1	1	0	0	0.069729	0.23836	0.13939	0.38448	0.19817	0.0075162	0.22227	0.23663	0.14603	0.11632	0.17475	0.12278	0.08743	0.42263	0.060312	0.15641	-2.6417	-2.275	-2.6646	-2.8646	-2.3583	-3.1396	-2.7042	-2.6854	-3.1875	-2.2167	-2.8667	-2.9437	-2.275	-3.0667	-2.6	-2.6875	168.172	237.338	421.039	422.720	322.558	154.992	399.658	405.341	103.862	139.653	422.310	399.294	417.254	448.413	272.176	125.194	0.0018087	0.00080527	0.00012765	1363.6	8.1813e-06	2.6175e-06	1266.1	541.39	1.7517e-05	5.5391e-06	532.75	198.19	193.45	75.67	9.8008e-06	81.263	0.0013284	0.0013256	0.00038062	1247.7	1.4265e-05	1.4579e-05	1157.3	496.8	1.439e-05	1.4749e-05	490.95	182.04	177.45	70.2	1.4716e-05	74.84	317.711	198.247	174.439	115.754	249.629	357.827	114.731	120.437	289.738	300.349	118.662	122.973	125.468	129.527	241.539	126.087	-8191	255	
13397.539	1	1	0	0	0.18982	0.22107	0.10417	0.10105	0.045026	0.065866	0.03432	0.20168	0.11592	0.074676	0.22339	0.37217	0.42837	0.24043	0.22212	0.13371	-2.4688	-2.2167	-2.6063	-3.0938	-2.175	-2.7729	-2.8375	-2.625	-2.9854	-2.4354	-2.7354	-3.0938	-2.4979	-3.0583	-2.5896	-2.4979	373.666	379.420	323.919	310.591	414.561	227.321	396.017	432.233	145.563	119.227	415.910	434.272	405.745	283.809	403.038	410.200	0.0020519	0.0010362	0.00014671	1361.2	9.1348e-06	7.3581e-06	1261	541.76	9.6332e-06	3.1585e-06	528.75	198.84	192.63	75.273	1.1654e-05	80.257	0.0013586	0.0013505	0.00038064	1246	1.4286e-05	1.4937e-05	1149.9	497.15	1.4478e-05	1.472e-05	486.37	181.32	176.69	69.788	1.4791e-05	74.087	317.380	189.573	136.419	116.029	314.770	252.137	114.379	119.880	306.528	207.091	118.042	122.674	124.960	128.992	258.856	125.645	-8191	255	
13397.635	1	1	0	0	0.079868	0.19345	0.083319	0.17576	0.14045	0.24983	0.069525	0.22671	0.28263	0.14589	0.10226	0.20469	0.1325	0.35522	0.11882	0.26565	-2.7438	-2.3812	-2.3417	-3.3563	-2.3083	-2.8375	-3.0792	-2.6208	-3.0521	-2.55	-2.5938	-3.25	-2.4958	-2.8187	-2.9	-2.2938	390.208	211.699	123.991	368.446	247.446	396.853	401.408	458.973	190.246	277.964	448.655	429.556	368.474	433.160	132.804	398.056	0.0018715	0.0013508	0.00023805	1357.7	5.8698e-06	8.1472e-06	1253.4	538.91	1.6172e-05	8.0179e-06	527.89	196.04	191.56	75.29	1.1501e-05	79.832	0.0013435	0.0013731	0.00038194	1243.3	1.438e-05	1.4927e-05	1144.5	493.94	1.4403e-05	1.4767e-05	484.85	180.14	175.88	69.68	1.4853e-05	73.972	311.984	195.815	223.032	115.617	224.165	240.323	114.687	120.456	277.934	264.512	118.318	122.760	125.170	129.253	236.100	125.585	-8191	255	
13397.754	1	1	0	0	0.18248	0.026055	0.30952	0.27624	0.06807	0.16029	0.31473	0.27786	0.20127	0.33024	0.13734	0.11603	0.33866	0.26557	0.33118	0.17644	-2.5958	-2.5812	-2.6521	-3.1604	-2.1875	-2.7438	-3.0625	-2.5812	-2.8583	-2.7958	-2.3396	-3.2396	-2.5563	-2.7729	-3.0333	-2.55	143.303	304.609	450.892	406.506	240.553	321.158	110.415	450.473	250.270	257.262	367.949	445.315	387.981	426.488	444.774	407.297	0.0019298	0.0016185	0.00027717	1359.2	6.1324e-06	1.0277e-05	1251.4	536.31	1.5274e-05	5.2649e-06	524.49	195.92	191.62	75.043	6.9825e-06	80.617	0.00134	0.0013431	0.00037557	1244	1.4086e-05	1.4532e-05	1146.1	492.09	1.4277e-05	1.4744e-05	483.5	179.69	175.92	69.601	1.4463e-05	74.036	317.355	209.774	233.364	115.205	232.559	228.171	114.719	120.472	281.540	274.517	118.511	123.033	125.277	129.632	269.339	125.501	-8191	255	
13397.850	1	1	0	0	0.15488	0.14162	0.20769	0.20369	0.20489	0.14831	0.17621	0.34388	0.089229	0.11984	0.34685	0.12574	0.15302	0.39259	0.1862	0.16992	-2.5854	-2.6021	-2.3312	-3.2438	-2.3646	-2.5729	-3.0104	-2.5333	-2.8146	-2.7438	-2.7021	-3.1917	-2.5104	-2.5208	-3.05	-2.2562	297.692	444.661	220.960	143.129	423.307	426.373	335.559	460.615	449.139	407.374	309.014	110.825	346.921	109.162	254.387	415.678	0.0018496	0.00058092	0.00028123	1356.7	9.6188e-06	3.3385e-06	1254.9	539.01	1.2183e-05	6.8488e-06	527.93	197.83	192.32	76.547	5.9456e-06	80.726	0.0013066	0.0013558	0.00038006	1241	1.4334e-05	1.498e-05	1148.6	493.07	1.466e-05	1.5033e-05	485.24	181.18	176.89	70.57	1.4908e-05	74.731	314.367	220.859	203.608	115.670	243.709	263.161	115.215	120.864	263.865	231.288	118.651	123.302	125.504	129.635	288.381	126.104	-8191	255	
13397.946	1	1	0	0	0.26313	0.04308	0.1825	0.073523	0.10941	0.030689	0.063784	0.24748	0.087037	0.31475	0.076075	0.11131	0.21297	0.18108	0.16626	0.064523	-2.2938	-2.7208	-1.9813	-3.2167	-2.5729	-2.5438	-3.2521	-2.5104	-2.5958	-2.9271	-2.2938	-3.1146	-2.5687	-2.4667	-2.8771	-2.275	339.245	351.813	148.159	302.658	456.479	323.864	331.085	422.433	296.994	286.568	388.264	434.178	143.777	450.179	175.231	379.675	0.0019476	0.0001416	0.0001855	1355.5	6.6649e-06	3.1946e-06	1252.7	537.56	1.3816e-05	5.3241e-06	526.98	197.24	193.76	75.87	1.6544e-05	80.314	0.0013507	0.0013881	0.00038137	1240.9	1.4493e-05	1.5041e-05	1141.9	492.62	1.4503e-05	1.5142e-05	484.4	180.71	177.08	70.497	1.459e-05	74.459	321.506	251.581	188.687	115.868	250.650	227.959	115.048	120.612	244.170	212.685	118.509	123.003	125.089	129.286	251.180	126.011	-8191	255	
13398.042	1	1	0	0	0.28387	0.013659	0.16598	0.28552	0.099986	0.26155	0.20899	0.51339	0.15921	0.11955	0.022303	0.288	0.35174	0.21873	0.11093	0.43449	-2.3146	-2.7	-2.2354	-3.0146	-2.4562	-2.4688	-3.0833	-2.4542	-2.4979	-2.9417	-2.4333	-2.9437	-2.7354	-2.5167	-3.0896	-2.5771	205.435	182.739	252.302	444.995	266.996	360.949	416.226	422.709	142.901	431.169	107.918	457.352	446.911	439.377	130.527	392.419	0.0017707	0.00055083	4.9267e-05	1343.7	9.0107e-06	7.6038e-06	1254.2	535.97	2.7098e-05	1.1279e-05	523.73	196.58	191.97	75.302	8.4072e-06	79.908	0.0013431	0.0013889	0.00038578	1235.4	1.4423e-05	1.5135e-05	1142.8	491.44	1.503e-05	1.5344e-05	481.45	179.7	176.08	69.937	1.4916e-05	74.051	320.078	191.018	202.108	115.849	284.252	288.009	114.937	120.839	286.760	296.647	118.664	122.799	125.335	129.244	267.079	125.980	-8191	255	
13398.138	1	1	0	0	0.26438	0.11913	0.053436	0.17773	0.13764	0.16061	0.047277	0.29391	0.069414	0.061374	0.26303	0.40242	0.052497	0.22335	0.026855	0.091065	-2.0042	-2.9958	-2.2021	-2.925	-2.7521	-2.3979	-3.1542	-2.675	-2.7562	-3.0604	-2.3896	-2.9125	-2.8563	-2.45	-2.9146	-2.7479	328.593	153.306	257.210	414.648	284.925	193.028	313.236	381.690	244.903	408.476	109.354	398.591	444.257	111.656	136.580	111.159	0.0020716	0.00051361	0.00017554	1347.2	1.2429e-05	7.784e-06	1242.9	534.77	1.6023e-05	9.6243e-06	523.97	194.99	191.36	75.025	1.4511e-05	79.916	0.0013533	0.0013437	0.00038154	1234.9	1.4561e-05	1.4775e-05	1139.5	489.58	1.4484e-05	1.4697e-05	481.86	179.5	175.67	69.735	1.439e-05	74.095	321.658	130.289	197.954	115.320	235.473	257.666	114.966	120.706	292.869	258.111	118.322	122.840	125.530	129.257	261.471	126.031	-8191	255	
13398.235	1	1	0	0	0.092512	0.14892	0.16625	0.042004	0.12264	0.10372	0.23773	0.32009	0.090318	0.15426	0.087808	0.11306	0.1624	0.31617	0.20006	0.10954	-1.8917	-2.9875	-2.2938	-2.8875	-2.7625	-2.1042	-3.1854	-2.8542	-2.4333	-3.0958	-2.4417	-2.8708	-2.7812	-2.5542	-2.9604	-2.7167	241.466	177.611	143.314	112.274	411.195	357.639	405.672	395.866	295.540	438.075	330.727	330.004	383.941	412.645	104.720	403.247	0.0019553	0.00090071	0.00013125	1347.7	1.3834e-05	1.1553e-05	1244.2	533.21	1.2232e-05	3.4571e-06	520.16	196.09	191.7	74.936	8.6458e-06	79.723	0.0013458	0.0013444	0.0003818	1236.6	1.4146e-05	1.515e-05	1142.9	489.27	1.4553e-05	1.4749e-05	479.84	179.42	175.46	69.41	1.4354e-05	73.621	321.743	182.569	150.100	115.501	260.024	256.369	114.414	120.287	303.497	272.515	117.774	122.701	124.885	129.097	267.122	125.462	-8191	255	
13398.331	1	1	0	0	0.22567	0.13958	0.11104	0.45274	0.0404	0.22119	0.15192	0.24704	0.0049722	0.039669	0.15778	0.15551	0.17875	0.034363	0.086032	0.24042	-2.1542	-3.0271	-2.3375	-2.9417	-2.9958	-2.225	-3.1188	-3.0125	-2.3854	-3.2792	-2.6125	-2.6979	-3.0708	-2.525	-2.925	-2.9708	402.729	403.555	342.485	433.131	413.668	210.204	379.142	411.404	195.866	351.619	382.199	322.875	407.320	241.752	352.443	393.221	0.0018337	0.00047109	0.00018957	1349.1	1.6349e-05	8.0241e-06	1244.7	530.32	1.8754e-05	5.6625e-06	519.78	194.15	191.83	74.684	1.6355e-05	79.721	0.0013447	0.0013729	0.00038696	1235.9	1.4429e-05	1.4782e-05	1136.2	487.2	1.4536e-05	1.5054e-05	476.85	177.95	175.07	69.237	1.5111e-05	73.38	319.223	193.683	197.415	115.433	263.837	221.032	114.872	120.686	301.065	272.301	118.417	123.189	125.089	129.403	236.981	126.019	-8191	255	
13398.451	1	1	0	0	0.40156	0.18253	0.16149	0.17694	0.1015	0.19751	0.17596	0.049967	0.1273	0.072381	0.16614	0.16171	0.13696	0.2572	0.096052	0.33552	-1.95	-2.8	-2.5687	-2.5771	-3.0312	-2.2938	-2.8896	-2.9854	-2.3937	-3	-2.7042	-2.6104	-3.0958	-2.55	-2.6937	-2.9146	191.248	306.893	108.270	117.253	322.384	413.719	394.243	399.340	186.030	338.060	296.396	433.090	103.067	440.258	220.611	387.820	0.0019326	0.00045183	0.00017912	1346.5	5.713e-06	6.6248e-06	1243.4	531.74	7.9501e-06	9.4962e-06	514.79	193.38	190.4	74.613	5.4733e-06	78.623	0.0013788	0.0013834	0.00039186	1233.1	1.4908e-05	1.4923e-05	1135.4	486.37	1.4542e-05	1.5187e-05	474.77	177.65	174.71	69.042	1.4992e-05	72.873	319.571	159.143	155.970	115.751	252.094	245.765	114.747	120.990	251.851	244.107	118.515	122.846	125.442	129.519	299.757	125.903	-8191	255	
13398.547	1	1	0	0	0.20321	0.12835	0.15874	0.28782	0.06248	0.39901	0.25878	0.11563	0.074468	0.18393	0.24386	0.30669	0.22951	0.35775	0.12517	0.18899	-1.925	-2.9979	-2.6521	-2.5833	-2.9042	-2.3854	-2.8479	-2.925	-2.4542	-3.0187	-2.8563	-2.5333	-3.2062	-2.5917	-2.5417	-3.1437	127.212	170.674	184.763	116.428	348.051	394.919	411.888	452.871	351.618	331.318	380.894	124.734	426.724	428.478	420.654	139.891	0.0019399	0.00064038	0.00010039	1345.3	7.1998e-06	4.9018e-06	1246.2	529.36	2.1346e-05	8.8323e-06	513.68	192.6	190.42	74.068	1.1495e-05	78.991	0.0013287	0.0013528	0.00039097	1233.4	1.4599e-05	1.5198e-05	1136.7	485.74	1.476e-05	1.5283e-05	473.42	177.39	174.23	68.691	1.5384e-05	73.025	326.510	192.700	255.100	115.920	262.185	229.021	114.810	120.893	296.522	282.337	118.709	122.903	125.053	129.429	260.703	125.953	-8191	255	
13398.644	1	1	0	0	0.071567	0.057223	0.096964	0.033311	0.021479	0.29142	0.49091	0.25471	0.10895	0.22522	0.21455	0.20983	0.16606	0.25532	0.37851	0.37006	-1.8125	-2.9062	-2.7229	-2.5333	-2.8563	-2.425	-2.9208	-3.2167	-2.3312	-2.8208	-3.0542	-2.4896	-3.1688	-2.7354	-2.6125	-3.1833	273.994	285.530	284.365	409.347	427.421	282.918	402.818	423.193	381.829	325.339	107.931	454.506	376.905	115.447	439.801	414.659	0.0017512	0.0007458	8.7754e-05	1345.1	1.1937e-05	7.6876e-07	1237.3	529.6	1.2154e-05	8.8015e-06	516.45	195.29	190.93	74.685	9.7464e-06	79.104	0.0013471	0.0013741	0.00038482	1233.7	1.4363e-05	1.5012e-05	1134.6	485.77	1.474e-05	1.5111e-05	475.52	178.18	175.1	69.357	1.5057e-05	73.288	319.350	196.790	198.598	115.532	278.062	331.832	114.905	120.842	318.844	273.079	118.869	122.867	125.354	129.769	271.287	125.825	-8191	255	
13398.738	1	1	0	0	0.099672	0.14303	0.14547	0.32597	0.076444	0.17285	0.32884	0.26222	0.13519	0.11158	0.033483	0.29051	0.16992	0.28978	0.13073	0.091867	-1.9583	-2.8583	-2.7833	-2.6042	-2.9646	-2.6479	-2.4896	-3.2521	-2.2667	-2.6813	-2.9042	-2.4521	-3.0021	-2.7604	-2.4313	-3.0812	163.796	233.909	451.965	412.901	207.586	132.833	428.273	401.868	211.823	334.619	180.977	400.733	356.312	121.229	114.270	330.098	0.001642	0.0005368	0.00032354	1348.7	1.1231e-05	1.179e-05	1243.5	527.06	1.3996e-05	6.872e-06	516.08	194.35	189.85	74.647	8.0696e-06	79.039	0.0013511	0.0014085	0.00039268	1232.6	1.4469e-05	1.5471e-05	1133.2	484.56	1.5052e-05	1.5271e-05	474.98	177.99	174.44	69.41	1.5177e-05	73.045	318.771	232.455	179.991	116.012	212.695	278.855	114.712	120.870	255.425	305.898	118.720	123.367	125.501	129.658	287.911	125.675	-8191	255	
13398.834	1	1	0	0	0.23583	0.20958	0.11696	0.33627	0.05739	0.13493	0.073927	0.22526	0.2442	0.071725	0.15824	0.14502	0.25425	0.35877	0.24591	0.19452	-1.7479	-2.4042	-2.8	-2.575	-2.8125	-2.8063	-2.5125	-3.25	-2.4958	-2.6375	-2.8667	-2.3458	-2.7812	-2.9229	-2.2833	-3.2875	304.030	262.544	279.340	133.970	245.341	142.272	427.124	395.331	392.514	189.643	120.513	448.735	352.251	425.877	291.456	408.552	0.0018832	0.00084651	0.0001572	1347.1	1.0801e-05	9.2524e-06	1244.2	527.89	2.1652e-05	7.4163e-06	514.68	193.5	190.35	74.782	5.8866e-06	79.288	0.0013492	0.001393	0.00039731	1230.9	1.4465e-05	1.5081e-05	1132	483.71	1.4747e-05	1.5347e-05	474.33	177.23	174.21	69.379	1.5168e-05	73.533	317.799	179.830	156.557	115.190	246.454	267.945	114.850	120.990	283.036	267.367	118.616	122.931	125.177	129.703	290.646	125.849	-8191	255	
13398.930	1	1	0	0	0.035626	0.1674	0.078338	0.20721	0.17571	0.24131	0.39127	0.051956	0.23634	0.030747	0.42139	0.20067	0.24757	0.12699	0.13356	0.034744	-2.1917	-2.4479	-3.0396	-2.3958	-2.8125	-2.6437	-2.6167	-3.1292	-2.6125	-2.5479	-3.0521	-2.4292	-2.9583	-2.9437	-2.2875	-3.2104	354.249	335.631	113.825	154.316	262.845	175.557	419.633	299.535	365.610	373.600	147.666	430.196	389.375	450.691	195.651	272.349	0.0019349	0.00053924	0.00017307	1343.1	7.1528e-06	3.7927e-06	1240.6	530.56	7.6813e-06	4.8524e-06	520.8	194.51	190.7	74.898	1.0199e-05	79.702	0.0013401	0.0014095	0.00038455	1230	1.4468e-05	1.5035e-05	1134.3	485.67	1.4705e-05	1.5194e-05	478.32	178.41	174.42	69.387	1.5027e-05	73.674	320.590	153.890	187.420	115.721	261.620	116.384	115.050	120.922	246.734	293.653	118.698	123.248	125.256	129.808	275.200	125.849	-8191	255	
13399.051	1	1	0	0	0.1587	0.18154	0.32475	0.23542	0.068208	0.10872	0.25049	0.30937	0.24704	0.2083	0.32884	0.25613	0.015863	0.26919	0.10258	0.10746	-2.2708	-2.4354	-2.9875	-2.5042	-2.8208	-2.7292	-2.4271	-3.2125	-2.5854	-2.4771	-3.0979	-2.6646	-2.775	-3.0792	-2.2625	-3.0458	317.373	299.238	253.875	361.182	269.297	119.131	419.340	409.526	241.332	169.052	155.240	447.172	235.014	189.219	302.863	439.496	0.0019103	0.0010121	0.00015557	1345.6	1.4497e-05	7.6162e-06	1245.6	528.67	1.9933e-05	5.2538e-06	515.44	193.63	190.28	74.532	1.2643e-05	79.185	0.0013444	0.0014076	0.00037408	1231.3	1.4333e-05	1.496e-05	1135.6	483.53	1.4742e-05	1.5101e-05	475.01	177.65	173.82	69.013	1.4861e-05	73.309	319.431	190.820	176.773	115.423	252.429	295.761	114.497	120.521	300.689	259.805	118.616	123.237	125.484	129.691	247.574	125.815	-8191	255	
13399.147	1	1	0	0	0.18379	0.2877	0.062243	0.36713	0.054302	0.16406	0.12603	0.36149	0.20049	0.19103	0.27602	0.23185	0.11888	0.13845	0.0723	0.2521	-2.1875	-2.3667	-3.0042	-2.4021	-2.5396	-3.1063	-2.5896	-3.1458	-2.7208	-2.3688	-3.1979	-2.5417	-2.8167	-3.2708	-2.2958	-2.9188	405.875	129.340	270.852	423.763	366.616	372.895	433.402	461.034	267.621	150.863	376.937	421.396	391.718	122.368	150.927	116.657	0.0017731	0.00073969	0.000174	1340.5	9.6072e-06	5.8852e-06	1240.4	528.97	1.3578e-05	8.9141e-07	516.2	193.28	190.28	75.305	1.0356e-05	79.715	0.0013505	0.0013607	0.00038052	1227.5	1.5019e-05	1.5113e-05	1131.9	484.04	1.4906e-05	1.5254e-05	475.05	177.82	174.73	69.924	1.4555e-05	73.875	319.980	214.003	213.835	115.764	257.153	214.408	114.955	120.716	277.779	124.255	118.323	122.814	125.348	129.502	259.302	125.822	-8191	255	
13399.243	1	1	0	0	0.23867	0.18739	0.19422	0.31238	0.16023	0.19877	0.1451	0.28988	0.12953	0.17032	0.076457	0.21399	0.057817	0.33427	0.10551	0.34612	-2.3417	-2.3917	-3.0833	-2.725	-2.6458	-3.0708	-2.5104	-2.9271	-2.8812	-2.3625	-3.0312	-2.7958	-2.5875	-3.0938	-2.3917	-2.6854	161.745	323.915	322.428	426.174	166.965	282.641	384.841	429.859	455.553	288.765	428.881	421.424	309.778	434.524	188.875	341.523	0.0019286	0.00082416	0.00034907	1338.2	1.7296e-05	6.727e-06	1239.9	527.43	8.3977e-06	4.0871e-06	517.02	193.46	192.02	75.098	9.9356e-06	79.347	0.0013525	0.001392	0.00039085	1227.8	1.4837e-05	1.5276e-05	1133.1	483.56	1.4744e-05	1.5305e-05	475.9	177.91	175.08	69.614	1.4795e-05	73.595	317.741	163.107	223.641	115.658	251.438	249.482	114.834	120.905	304.669	252.729	118.657	122.684	125.566	129.575	237.283	125.790	-8191	255	
13399.339	1	1	0	0	0.26158	0.21957	0.18978	0.36485	0.24731	0.19526	0.27685	0.14234	0.10742	0.015129	0.11545	0.32549	0.099276	0.28419	0.13611	0.17019	-2.4229	-2.175	-2.8021	-2.9	-2.3021	-2.9667	-2.5854	-2.8979	-2.9458	-2.1125	-3.0062	-2.8167	-2.5917	-3.0062	-2.3312	-2.775	302.656	202.615	196.102	431.991	371.082	458.621	411.626	438.694	362.908	176.392	421.521	426.384	187.478	397.708	124.123	328.505	0.0019199	0.0010428	0.00022806	1339.1	1.4264e-05	4.657e-06	1247.6	526.83	9.8705e-06	4.4466e-06	520.03	197.33	190.94	75.611	1.3222e-05	80.387	0.0013645	0.0013639	0.00038231	1228.6	1.4821e-05	1.5276e-05	1136	483.69	1.4434e-05	1.4934e-05	477.61	179.67	175.21	70.069	1.4875e-05	74.419	317.359	187.358	210.118	115.782	250.726	264.711	114.913	120.782	318.388	278.658	118.526	122.976	124.935	129.649	252.596	125.799	-8191	255	
13399.436	1	1	0	0	0.043485	0.21471	0.25355	0.31377	0.095749	0.23052	0.39425	0.4871	0.15625	0.27918	0.056898	0.36113	0.14248	0.081248	0.097072	0.13588	-2.5167	-2.2313	-2.6958	-2.8875	-2.4854	-3.0187	-2.7021	-2.6562	-2.9938	-2.4021	-3.1583	-2.9167	-2.5563	-3.2146	-2.6646	-2.6646	304.390	368.974	309.712	444.041	108.811	140.836	352.065	387.362	174.038	133.017	428.379	440.459	393.793	128.757	409.459	188.122	0.0018224	0.00090425	0.00020633	1342.2	1.0007e-05	1.4284e-05	1246.3	528.8	1.8256e-05	1.0436e-05	517.64	196.24	190.19	74.744	1.3667e-05	80.244	0.001346	0.0013657	0.00037915	1229	1.4571e-05	1.4809e-05	1137.5	484.69	1.4812e-05	1.5313e-05	476.76	179.37	174.71	69.51	1.4845e-05	73.92	322.639	149.662	207.274	116.416	253.062	248.436	115.364	120.919	261.765	249.068	118.713	123.418	125.193	129.732	251.466	125.991	-8191	255	
13399.532	1	1	0	0	0.08704	0.24348	0.2563	0.23669	0.26548	0.1581	0.24697	0.28177	0.075383	0.069665	0.18634	0.19033	0.076237	0.27205	0.12946	0.19599	-2.7458	-2.3271	-2.5792	-3.1458	-2.4333	-2.9375	-2.7083	-2.8458	-2.9458	-2.4583	-2.7479	-3.1271	-2.4083	-3.0438	-2.6542	-2.525	175.480	391.431	264.253	318.939	334.093	231.146	379.886	451.565	281.854	143.807	451.667	414.856	313.362	384.042	295.981	402.613	0.0018803	0.00092226	0.00042432	1342.1	8.6235e-06	7.543e-06	1245.2	527.48	2.0022e-05	9.7837e-06	516.44	193.74	189.28	74.564	9.2251e-06	79.307	0.0013562	0.0013737	0.0003814	1227	1.4472e-05	1.4493e-05	1136.8	482.81	1.4418e-05	1.4945e-05	475.26	177.75	173.76	69.118	1.5034e-05	73.423	316.580	182.869	196.084	115.854	249.180	253.913	115.300	120.878	281.723	249.071	118.839	123.336	125.421	129.375	261.688	126.105	-8191	255	
13399.628	1	1	0	0	0.077208	0.15038	0.15836	0.19856	0.12149	0.05396	0.2206	0.52094	0.2026	0.20399	0.15546	0.1653	0.075334	0.23788	0.26713	0.41614	-2.7854	-2.2917	-2.7188	-3.1375	-2.1917	-2.9083	-2.8167	-2.4667	-3.1854	-2.3479	-2.6583	-3.0604	-2.525	-2.8646	-2.7875	-2.3937	421.297	251.013	322.237	443.872	117.333	445.579	448.044	420.685	201.890	208.676	386.608	387.503	433.194	404.380	272.031	369.869	0.0018581	0.00094631	0.000211	1339	7.8732e-06	1.2676e-05	1240.5	523.19	1.3666e-05	7.3061e-06	510.55	192.6	188.21	73.423	4.4925e-06	77.785	0.0013622	0.001393	0.00038498	1229.1	1.4592e-05	1.4931e-05	1134.9	480.45	1.4372e-05	1.4915e-05	472.1	176.58	172.3	67.96	1.4985e-05	72.218	318.886	166.864	151.001	115.601	210.180	225.947	115.080	120.717	259.939	265.316	118.616	122.972	125.242	129.958	191.302	126.134	-8191	255	
13399.724	1	1	0	0	0.13104	0.2253	0.092896	0.23297	0.03631	0.1397	0.19764	0.39865	0.16905	0.17423	0.32989	0.16412	0.18355	0.30211	0.024976	0.25219	-2.6	-2.4542	-2.4583	-3.1333	-2.425	-2.8146	-2.9271	-2.4854	-2.8354	-2.5312	-2.525	-3.1375	-2.4667	-2.6813	-2.7625	-2.4188	111.568	449.270	186.391	423.402	308.946	291.451	405.980	349.185	222.713	352.684	412.917	428.485	424.188	452.367	151.951	407.856	0.0020167	0.0012471	0.00026247	1345.4	1.2206e-05	2.6946e-06	1244.4	521.58	1.5351e-05	1.0494e-05	511.29	191.23	187.93	72.285	1.1154e-05	76.977	0.001331	0.0013258	0.00038694	1228.8	1.4203e-05	1.4763e-05	1138.4	478.44	1.4415e-05	1.4685e-05	471.07	175.78	171.52	66.882	1.4499e-05	71.325	323.136	175.170	186.533	116.012	253.928	198.066	115.741	120.875	312.308	237.261	118.879	123.220	125.209	129.521	250.450	125.756	-8191	255	
13399.843	1	1	0	0	0.17541	0.26406	0.058544	0.14788	0.18049	0.10109	0.19382	0.13054	0.079725	0.12207	0.074492	0.26321	0.24452	0.28771	0.092975	0.21278	-2.4646	-2.7042	-2.1604	-3.2917	-2.3771	-2.5417	-3.0354	-2.4875	-2.7042	-2.6104	-2.4958	-3.0792	-2.3167	-2.7125	-2.7938	-2.3083	271.400	348.228	321.202	448.672	454.793	443.123	372.295	421.290	304.320	245.397	145.456	393.862	440.102	125.040	220.360	371.071	0.0018008	0.0013533	0.00019943	1343.3	1.5501e-05	1.2001e-05	1248	522.24	2.0932e-05	2.3238e-06	514.53	191.59	187.24	72.29	1.4758e-05	77.66	0.0012963	0.0013297	0.00037996	1229.3	1.4338e-05	1.4791e-05	1138.8	478.44	1.4538e-05	1.4744e-05	472.14	175.92	171.35	67.096	1.4646e-05	71.859	317.598	171.865	191.871	115.656	254.094	230.038	114.545	120.231	280.375	194.820	118.990	123.351	125.074	129.763	278.738	125.700	-8191	255	
13399.939	1	1	0	0	0.12741	0.26444	0.18458	0.3288	0.15905	0.2424	0.090147	0.19006	0.28253	0.25322	0.19456	0.106	0.21839	0.10198	0.35872	0.3298	-2.5062	-2.6333	-2.2333	-3.1021	-2.3354	-2.4875	-3.1271	-2.4708	-2.7625	-2.7562	-2.5792	-3.1292	-2.4646	-2.6521	-3.0646	-2.3417	409.735	223.941	362.636	425.514	333.052	155.597	345.962	365.313	358.735	194.862	117.822	328.184	203.416	364.100	361.887	381.453	0.001918	0.00093345	0.00025874	1338	1.0752e-05	5.3887e-06	1245	519.9	1.2471e-05	9.2387e-06	510.26	190.74	186.81	72.576	1.2567e-05	78.004	0.0013097	0.001345	0.00037146	1226.8	1.3909e-05	1.4817e-05	1136.9	477.03	1.4038e-05	1.491e-05	469.83	175.2	171.27	67.342	1.4585e-05	71.721	317.274	164.181	203.794	115.850	244.722	274.463	114.787	120.694	277.535	266.521	118.372	122.792	125.130	128.868	254.216	125.787	-8191	255	
13400.011	1	1	0	0	0.11126	0.087983	0.23444	0.34183	0.13876	0.19624	0.27388	0.28115	0.1519	0.039647	0.1684	0.32187	0.32258	0.18965	0.21645	0.1301	-2.3667	-2.675	-2.1542	-2.9688	-2.6604	-2.3604	-3.1479	-2.2854	-2.55	-2.9146	-2.4396	-3.0604	-2.7354	-2.5875	-2.9188	-2.6125	416.991	370.465	349.318	401.191	205.690	227.646	147.441	403.437	140.968	173.821	459.096	461.607	443.491	148.772	318.237	324.959	0.0018191	0.00053799	0.00029113	1343.4	1.7995e-05	1.0083e-05	1242.3	519.8	1.5312e-05	8.2974e-06	509.61	190.99	186.58	72.453	7.6586e-06	77.555	0.0013022	0.0013435	0.00037723	1227.7	1.4213e-05	1.5251e-05	1134.3	477.58	1.4167e-05	1.5055e-05	469.9	175.06	171.31	67.209	1.4323e-05	71.617	320.498	158.694	219.239	115.379	260.610	224.295	114.447	120.570	256.150	257.907	118.422	122.740	125.287	129.535	270.780	125.866	-8191	255	
13400.131	1	1	0	0	0.32222	0.082839	0.1722	0.39718	0.17471	0.16059	0.35378	0.23269	0.24453	0.20388	0.26804	0.10428	0.19148	0.19397	0.22457	0.24076	-2.1688	-2.7396	-2.3292	-3.2646	-2.55	-2.5083	-3.025	-2.5896	-2.5604	-3.0542	-2.45	-3.0208	-2.7229	-2.4708	-3.0146	-2.7125	369.886	326.233	188.382	396.404	414.535	227.700	407.377	117.618	348.743	181.710	427.012	362.091	125.537	458.308	194.831	394.337	0.0017229	0.00057942	0.00035636	1339.8	6.0755e-06	9.49e-06	1242	523.16	8.5052e-06	3.7587e-06	512.45	192.82	187.38	72.429	1.2508e-05	77.638	0.001305	0.0013534	0.00037044	1226.1	1.4536e-05	1.4689e-05	1134.8	477.7	1.4489e-05	1.4827e-05	471.22	176.27	171.11	67.007	1.3995e-05	71.823	321.897	189.903	182.366	115.565	287.722	244.367	114.675	120.690	264.816	278.553	118.530	122.909	125.175	129.873	295.574	126.138	-8191	255	
13400.227	1	1	0	0	0.12303	0.037323	0.11508	0.18352	0.16597	0.076743	0.11201	0.30009	0.22261	0.24446	0.16473	0.16973	0.077931	0.2229	0.21128	0.42428	-2.0479	-2.9688	-2.1271	-3.0604	-2.7708	-2.3542	-3.2708	-2.7417	-2.4521	-3.0812	-2.2542	-2.7521	-2.9125	-2.6	-2.8396	-2.6896	280.431	173.255	321.607	454.261	142.882	360.882	405.481	413.004	264.689	114.257	344.943	387.161	445.158	112.696	154.037	441.468	0.0017619	0.00096191	0.00012171	1336.5	1.8179e-05	9.6065e-06	1242.2	520.66	4.1718e-06	6.6052e-06	511.74	192.2	187.64	72.668	6.6429e-06	78.164	0.0013088	0.0013072	0.00037084	1224.7	1.4127e-05	1.4457e-05	1136.8	477.29	1.4539e-05	1.4426e-05	472.23	176.38	171.24	67.251	1.4254e-05	72.295	314.540	168.834	256.663	115.174	228.243	267.635	114.706	120.251	298.546	252.925	118.041	122.781	125.310	129.222	259.835	125.598	-8191	255	
13400.324	1	1	0	0	0.17057	0.14444	0.1885	0.17553	0.1112	0.0078703	0.077263	0.29413	0.23394	0.37903	0.13534	0.085934	0.16648	0.38695	0.21892	0.10408	-2.0792	-2.9625	-2.4896	-2.6896	-2.8917	-2.5812	-3.1854	-2.9938	-2.4354	-3.0417	-2.5563	-2.7146	-2.9979	-2.5083	-2.9083	-3.0333	414.878	346.235	423.188	308.974	206.062	346.589	363.442	359.743	251.041	112.797	422.002	133.365	384.394	115.318	354.470	368.101	0.0018689	0.00068606	0.00017489	1334.3	8.0747e-06	9.5013e-06	1245.2	520.11	1.4534e-05	5.4285e-06	518.01	192.58	188.09	73.151	1.3733e-05	78.456	0.0013213	0.0013414	0.00036331	1225.4	1.4345e-05	1.4536e-05	1142.4	478	1.4587e-05	1.4575e-05	475.47	176.87	172.16	67.767	1.4506e-05	72.695	318.039	200.116	181.871	115.435	247.023	227.756	114.779	120.387	286.840	285.022	117.886	122.848	125.125	129.258	243.797	125.848	-8191	255	
13400.444	1	1	0	0	0.13728	0.057155	0.23564	0.22645	0.1152	0.19424	0.40248	0.4397	0.15894	0.17537	0.30555	0.20279	0.14538	0.14029	0.07872	0.11862	-2.1229	-3.0625	-2.225	-2.7792	-2.9667	-2.4021	-3.0542	-2.9125	-2.4188	-3.1167	-2.6729	-2.6792	-2.9771	-2.5375	-2.8271	-2.7958	212.603	359.156	432.088	427.342	128.245	422.507	443.575	458.514	134.327	261.617	452.175	132.174	371.777	110.697	166.284	234.270	0.0018014	0.00060824	0.00034044	1337.9	1.194e-05	1.8844e-06	1255.1	523.32	2.1513e-05	5.8086e-06	516	194.16	188.31	73.137	1.7823e-05	78.452	0.001337	0.0013191	0.00037299	1226.8	1.4297e-05	1.4793e-05	1145.9	480.48	1.4406e-05	1.466e-05	475.39	177.53	172.32	67.624	1.4951e-05	72.598	317.471	240.728	187.749	115.364	273.029	268.912	114.580	120.655	300.250	222.263	118.495	122.861	125.156	129.474	249.747	125.911	-8191	255	
13400.539	1	1	0	0	0.098845	0.085696	0.16231	0.028327	0.072206	0.094613	0.22761	0.2608	0.079405	0.23957	0.15686	0.13384	0.067948	0.21634	0.3344	0.25791	-1.8792	-3.0083	-2.6063	-2.6	-2.9938	-2.3792	-2.9896	-3.0042	-2.3333	-3.0104	-2.6375	-2.4583	-3.0458	-2.5021	-2.5687	-3.0271	347.318	333.418	281.381	342.093	355.867	414.445	320.493	451.806	249.775	351.251	395.954	416.298	215.282	397.459	212.438	325.729	0.0017734	0.00083689	0.00027469	1342.8	1.2015e-05	7.6304e-06	1251	522.24	2.1905e-05	6.8872e-06	513.03	192.23	188.71	72.816	7.186e-06	78.496	0.0013286	0.001341	0.00038195	1227.7	1.4493e-05	1.5053e-05	1139.8	477.94	1.4931e-05	1.4922e-05	472.87	176.8	172.23	67.744	1.5012e-05	72.608	315.144	187.975	176.333	115.623	238.087	281.384	114.674	120.570	251.281	250.609	118.397	122.524	125.039	129.201	227.529	125.813	-8191	255	
13400.612	1	1	0	0	0.34597	0.33591	0.28943	0.11208	0.11601	0.27969	0.22129	0.19697	0.18712	0.16611	0.19819	0.38352	0.11583	0.40975	0.086374	0.061692	-1.8667	-3.0312	-2.4333	-2.5875	-2.8563	-2.1188	-2.6375	-2.9813	-2.1	-2.7896	-2.7854	-2.3375	-2.9667	-2.6083	-2.3771	-2.9792	399.451	320.285	110.603	199.460	430.420	218.188	353.205	391.769	204.309	332.325	459.437	445.234	191.796	432.594	353.489	387.184	0.0018346	0.00068623	0.00022742	1335.6	7.6897e-06	1.0525e-05	1236.2	521.3	1.4172e-05	7.7039e-06	512.19	192.09	186.75	72.681	9.5186e-06	78.369	0.0013114	0.0013635	0.00038733	1223.3	1.4218e-05	1.4861e-05	1133.9	478.28	1.4488e-05	1.4695e-05	473.22	176.21	171.25	67.363	1.4524e-05	72.425	320.371	207.205	234.451	115.768	234.857	250.555	114.914	120.844	293.173	263.360	118.855	122.939	125.222	129.505	240.697	126.070	-8191	255	
13400.733	1	1	0	0	0.19871	0.093876	0.048729	0.24133	0.07847	0.27264	0.30496	0.20379	0.16074	0.15686	0.24844	0.46247	0.0043151	0.24959	0.23469	0.26919	-1.8	-2.9021	-2.5917	-2.4229	-2.7979	-2.3771	-2.6917	-3.0792	-2.3021	-2.725	-2.7979	-2.2167	-2.9188	-2.7438	-2.3604	-2.95	404.727	392.482	168.831	339.528	305.340	216.503	362.809	422.256	166.042	329.888	425.513	379.096	200.267	442.895	458.293	380.635	0.0018811	0.00090634	0.0003797	1333.4	5.8087e-06	6.421e-06	1247.6	520.52	1.2541e-05	2.3843e-06	514.09	192.72	185.94	72.668	7.1281e-06	78.487	0.0013258	0.0013464	0.00038396	1221.2	1.4003e-05	1.4852e-05	1137.9	477.19	1.4423e-05	1.4627e-05	473.24	176.76	171.46	67.213	1.4407e-05	72.618	316.074	226.454	202.069	115.677	230.976	308.091	114.911	120.735	277.193	316.373	118.684	123.089	125.149	129.497	246.025	126.372	-8191	255	
13400.827	1	1	0	0	0.18651	0.085675	0.030738	0.34056	0.19208	0.071937	0.18841	0.20441	0.036774	0.25274	0.42532	0.11798	0.063831	0.37644	0.19265	0.090571	-1.7333	-2.6083	-2.7042	-2.4854	-2.8542	-2.4854	-2.5625	-3.2313	-2.3292	-2.6271	-2.925	-2.3438	-2.675	-2.7146	-2.3792	-3.1146	333.782	265.328	174.792	456.208	267.391	218.278	115.902	446.348	178.727	227.540	427.013	445.973	388.716	443.179	133.011	397.271	0.0018843	0.00083373	0.00020165	1339.8	1.1697e-05	1.4094e-05	1245.4	520.72	1.6038e-05	8.8218e-06	513.92	193.7	187.76	72.248	8.3646e-06	78.456	0.0013058	0.0013358	0.00037746	1226.6	1.4168e-05	1.4547e-05	1140.8	478.26	1.4306e-05	1.4604e-05	472.85	177.16	171.63	67.138	1.46e-05	72.396	314.612	216.702	263.024	115.983	240.624	266.833	114.905	120.883	274.759	248.506	118.588	123.021	125.267	129.572	257.515	125.703	-8191	255	
13400.923	1	1	0	0	0.11385	0.1431	0.026662	0.11376	0.12858	0.0844	0.28408	0.1494	0.028463	0.077342	0.24628	0.16555	0.16627	0.2009	0.3052	0.12779	-1.9833	-2.5375	-2.8667	-2.5292	-2.9417	-2.825	-2.4354	-3.1896	-2.4479	-2.4125	-2.8708	-2.3208	-2.8458	-2.8438	-2.3146	-3.0938	371.267	232.379	294.330	387.793	410.933	326.788	425.915	347.739	393.889	187.342	449.439	423.288	460.073	125.691	178.461	270.989	0.0019928	0.00070742	0.00021206	1339.7	8.3547e-06	5.842e-06	1254.8	520.81	1.3934e-05	7.0523e-06	515.83	193.04	186.61	72.329	1.5891e-05	78.061	0.0012943	0.0013361	0.00037904	1226.8	1.3774e-05	1.5069e-05	1144.2	477.2	1.4205e-05	1.4533e-05	474.08	176.55	170.74	67.106	1.5114e-05	72.147	316.623	159.016	165.527	115.814	235.713	251.855	115.585	121.370	235.525	295.298	118.486	123.141	125.191	129.548	222.273	126.074	-8191	255	
13401.019	1	1	0	0	0.15769	0.067416	0.068196	0.19802	0.16744	0.21248	0.14534	0.15826	0.07405	0.12332	0.22888	0.26519	0.28442	0.029743	0.11441	0.12526	-1.9688	-2.4417	-2.9208	-2.4292	-2.6562	-2.7833	-2.4208	-3.1771	-2.6708	-2.3854	-2.9188	-2.4167	-2.6562	-2.8958	-2.2687	-3.0396	427.869	431.744	395.085	408.164	281.415	189.189	412.743	445.419	144.528	177.556	109.272	453.761	408.501	285.311	384.937	319.466	0.0018311	0.0011667	0.00017067	1337.9	1.4514e-05	7.2346e-06	1245	516.36	2.5131e-05	6.9698e-06	512.1	191.29	185.98	71.641	1.58e-05	76.772	0.0013194	0.0013954	0.00037205	1225.5	1.4522e-05	1.505e-05	1137.2	475.05	1.4669e-05	1.487e-05	469.61	175.33	170.43	66.629	1.4963e-05	71.295	314.488	191.992	215.893	115.618	271.664	321.483	115.056	120.783	275.916	306.738	118.904	122.934	124.971	129.623	252.882	126.206	-8191	255	
13401.116	1	1	0	0	0.070401	0.14719	0.15644	0.19861	0.2085	0.1563	0.14741	0.21029	0.15875	0.066127	0.14425	0.12665	0.11479	0.2509	0.19582	0.10664	-2.1875	-2.2208	-3.0271	-2.5125	-2.6792	-2.725	-2.5292	-3.0833	-2.7646	-2.3979	-3.0833	-2.4625	-2.7792	-3.0187	-2.2438	-3.025	436.690	243.043	225.920	138.298	262.008	155.406	421.936	379.317	299.732	450.457	426.204	415.921	168.321	184.089	181.808	396.793	0.0019201	0.00071184	0.00027716	1341.2	1.0319e-05	5.2266e-06	1241.5	516.59	1.2623e-05	9.8239e-06	507.38	191.22	187	71.978	1.1388e-05	77.652	0.0013507	0.0013836	0.00038193	1225.9	1.4673e-05	1.5018e-05	1133.5	473.94	1.4778e-05	1.5211e-05	467.77	174.9	170.73	66.751	1.5018e-05	71.618	317.925	145.027	189.203	115.964	254.816	204.197	115.027	120.975	238.528	285.842	118.718	123.593	125.607	129.771	275.030	126.063	-8191	255	
13401.236	1	1	0	0	0.14051	0.25201	0.13452	0.15691	0.14269	0.14415	0.11881	0.40651	0.40518	0.07833	0.19448	0.14811	0.060723	0.059478	0.048271	0.091968	-2.3354	-2.3312	-3.0354	-2.6458	-2.5229	-2.6979	-2.3646	-2.9521	-2.5875	-2.3063	-3.0479	-2.4958	-2.7146	-3.025	-2.3125	-2.7208	375.022	382.148	164.189	400.159	407.532	443.627	231.923	110.108	218.872	425.428	416.639	160.558	462.649	399.672	312.117	209.934	0.0017285	0.00071582	0.00031072	1334.2	1.5423e-05	7.253e-06	1241.1	515.76	1.0181e-05	4.6738e-06	508.33	190.52	185.81	71.867	8.1729e-06	77.806	0.0013496	0.001393	0.0003847	1224.9	1.4798e-05	1.5163e-05	1130.9	472.66	1.497e-05	1.542e-05	468.16	174.87	170.25	66.649	1.5122e-05	71.745	320.650	180.934	193.588	116.149	238.295	293.779	115.400	121.132	303.072	288.295	118.766	123.191	125.387	129.797	243.784	126.019	-8191	255	
13401.308	1	1	0	0	0.22966	0.25066	0.14762	0.31412	0.19537	0.23689	0.17183	0.30267	0.010847	0.1045	0.09639	0.45975	0.07555	0.40232	0.15151	0.15044	-2.3896	-2.2896	-3.0333	-2.4896	-2.5438	-2.7938	-2.55	-2.7917	-3.0438	-2.2417	-2.8958	-2.7375	-2.5271	-3.0312	-2.3271	-2.7604	350.234	280.025	367.005	415.071	288.307	206.027	137.621	403.762	163.518	260.183	219.805	106.603	161.978	425.673	389.937	458.549	0.002108	0.00085251	0.00012921	1338.4	1.5784e-05	7.2581e-06	1246.7	518.2	4.1021e-06	1.3216e-05	508.79	191.45	185.2	71.791	1.0103e-05	77.483	0.0013677	0.0013639	0.00038116	1225	1.4456e-05	1.5018e-05	1137.8	474.29	1.4532e-05	1.5409e-05	468.56	175.23	170.02	66.658	1.4911e-05	71.556	319.543	167.275	186.529	116.128	237.049	254.861	114.754	120.610	290.385	245.298	118.459	122.824	125.011	129.632	244.488	125.916	-8191	255	
13401.404	1	1	0	0	0.52042	0.143	0.15597	0.2067	0.082451	0.16416	0.034776	0.32153	0.1195	0.147	0.13491	0.099448	0.27438	0.22929	0.15261	0.15532	-2.3354	-2.2292	-2.9437	-2.8354	-2.1958	-2.9417	-2.5604	-2.5875	-2.9208	-2.1375	-2.95	-2.6917	-2.3021	-2.9437	-2.3625	-2.5771	336.929	158.625	189.176	106.072	158.704	173.855	216.486	455.426	363.735	166.151	364.344	403.393	458.370	445.890	213.906	369.177	0.0018638	0.0010302	0.00035931	1338.6	1.1199e-05	3.798e-06	1239.6	516.36	9.4833e-06	5.59e-06	507.22	191.43	186.03	72.081	1.2338e-05	77.507	0.0013665	0.0013913	0.00038833	1222.6	1.4787e-05	1.5399e-05	1134.3	473.8	1.4701e-05	1.526e-05	467.5	175.28	170.89	66.964	1.5302e-05	71.625	316.866	188.306	193.079	115.763	255.167	126.752	115.150	120.829	306.194	271.889	118.669	123.498	125.276	129.826	287.417	126.274	-8191	255	
13401.525	1	1	0	0	0.11143	0.33055	0.10184	0.21847	0.25621	0.059607	0.28216	0.31944	0.090927	0.089434	0.15171	0.33058	0.22784	0.17426	0.25468	0.39946	-2.6271	-2.4229	-2.9688	-2.7438	-2.4437	-3.0583	-2.65	-2.7708	-2.8792	-2.2792	-2.7146	-2.9	-2.5042	-3.0979	-2.5292	-2.5271	158.585	370.509	112.408	108.879	395.872	113.488	445.183	427.176	227.519	196.889	162.417	106.925	389.470	461.369	174.077	448.329	0.002011	0.00097084	0.00038073	1334.5	1.0362e-05	5.1698e-06	1236.1	517.21	1.9577e-05	6.1106e-06	505.71	191.55	186.98	72.494	7.0989e-06	77.221	0.0013937	0.0014304	0.00038486	1221.9	1.485e-05	1.5546e-05	1128.8	474.46	1.5112e-05	1.5168e-05	465.61	175.4	171.2	67.299	1.5356e-05	71.682	317.605	220.549	235.483	115.847	256.141	230.777	115.048	120.807	281.965	274.188	118.610	122.918	124.747	129.425	251.182	125.501	-8191	255	
13401.621	1	1	0	0	0.16793	0.17143	0.25947	0.36134	0.11616	0.3604	0.1908	0.20729	0.15348	0.34615	0.38059	0.062464	0.071881	0.22405	0.085655	0.11046	-2.6271	-2.2292	-2.6	-2.9208	-2.3854	-2.8438	-2.8604	-2.7708	-3.0646	-2.3021	-2.7021	-3.1021	-2.3417	-3.0646	-2.4083	-2.5563	139.821	453.621	248.225	387.780	190.567	352.878	364.248	120.732	343.850	303.800	380.512	338.627	230.984	444.223	231.770	178.990	0.0018093	0.0008709	0.00019635	1327.9	3.0152e-06	9.7428e-06	1238.7	514.52	1.4823e-05	6.724e-06	506.32	191.69	186.34	72.848	1.1413e-05	78.257	0.0013543	0.0014011	0.00039184	1219.5	1.4689e-05	1.5206e-05	1131.7	472.74	1.499e-05	1.5411e-05	467.7	175.74	171.27	67.53	1.5546e-05	72.43	323.159	219.364	210.538	115.650	234.713	255.036	114.721	120.616	269.993	236.601	118.392	122.901	124.897	128.996	306.785	125.970	-8191	255	
13401.715	1	1	0	0	0.11857	0.13226	0.22867	0.28225	0.13532	0.047467	0.08977	0.10009	0.072859	0.11315	0.14968	0.22725	0.24308	0.31572	0.11387	0.2215	-2.5375	-2.4062	-2.55	-3	-2.3354	-2.7854	-2.9104	-2.4938	-2.9146	-2.4875	-2.5292	-3.1292	-2.3229	-2.8563	-2.7938	-2.45	376.523	273.917	291.346	427.921	131.622	198.061	390.509	357.425	223.477	452.226	398.347	394.481	250.902	425.058	413.087	385.993	0.0018533	0.00080049	0.00026124	1327.9	9.2299e-06	7.9627e-06	1240.4	518.86	1.5183e-05	1.1029e-05	513.69	194.07	187.6	73.074	9.0461e-06	78.903	0.0013587	0.0013954	0.0004025	1220.4	1.5174e-05	1.5574e-05	1137.2	476.7	1.5166e-05	1.522e-05	473.41	177.69	172	68.051	1.5504e-05	73.062	317.874	179.913	199.870	115.983	229.408	242.747	115.237	120.738	299.055	257.487	118.435	122.920	125.091	129.852	248.701	126.062	-8191	255	
13401.813	1	1	0	0	0.010978	0.1855	0.28338	0.47136	0.26807	0.27998	0.18499	0.18951	0.22912	0.086085	0.26856	0.19246	0.17527	0.37669	0.13853	0.13988	-2.7	-2.5708	-2.3625	-3.1667	-2.2562	-2.7354	-2.875	-2.5354	-2.7792	-2.7083	-2.575	-3.1292	-2.1729	-2.6875	-2.7771	-2.5125	245.018	135.399	211.352	426.985	120.526	415.773	427.442	444.643	273.137	357.231	341.461	423.736	444.499	159.578	237.104	328.971	0.0017255	0.00091012	0.00028139	1343.2	1.1625e-05	1.0385e-05	1243.9	519.98	1.883e-05	4.5975e-06	515.25	192.29	187.73	72.857	9.5319e-06	78.421	0.0013678	0.0014141	0.00039332	1227.6	1.5117e-05	1.563e-05	1136.3	476.8	1.5167e-05	1.5789e-05	472.57	176.95	172.49	67.961	1.5656e-05	72.689	322.317	175.295	224.483	116.116	258.592	224.732	115.080	120.762	295.407	297.629	118.483	123.154	125.332	129.583	254.537	125.740	-8191	255	
13401.907	1	1	0	0	0.19325	0.26108	0.20226	0.13714	0.11262	0.24599	0.32258	0.33034	0.31692	0.24129	0.15849	0.17437	0.085823	0.23932	0.054028	0.4087	-2.4854	-2.6104	-2.4833	-3.0958	-2.2562	-2.6542	-3.1542	-2.2375	-2.7396	-2.6979	-2.4229	-3.2521	-2.6354	-2.8458	-3.0104	-2.5833	305.328	426.076	381.449	386.071	167.374	326.509	407.458	412.326	195.317	344.812	144.683	410.353	216.162	418.058	334.204	419.152	0.0018053	0.0006538	0.00032086	1337.7	6.16e-06	1.2439e-05	1247.2	517.19	1.8193e-05	5.4452e-06	512.05	193.15	187.51	73.521	1.3526e-05	78.314	0.001382	0.0014374	0.00039752	1224.9	1.4993e-05	1.5443e-05	1138.5	475.23	1.5174e-05	1.5252e-05	471.21	176.85	171.56	67.867	1.5206e-05	72.423	320.278	183.755	202.182	115.857	220.554	247.802	115.171	120.573	236.598	278.754	118.685	122.958	125.125	129.641	251.125	126.339	-8191	255	
13402.004	1	1	0	0	0.14373	0.095898	0.065834	0.07214	0.18435	0.16872	0.37856	0.26729	0.15647	0.31988	0.26933	0.29158	0.13594	0.095222	0.18548	0.26677	-2.575	-2.8917	-2.3937	-2.9896	-2.3896	-2.2958	-3.0687	-2.5792	-2.7896	-2.75	-2.3625	-2.9896	-2.55	-2.5854	-2.8563	-2.475	272.645	355.596	133.434	210.592	169.435	202.520	359.144	447.030	124.174	215.148	426.876	418.613	218.163	339.520	215.081	372.845	0.0018582	0.0009074	0.00029436	1326.3	7.1645e-06	5.806e-06	1238.3	517.14	1.0342e-05	8.7398e-06	509.92	191.07	186.14	72.25	1.0156e-05	78.436	0.0013415	0.0013854	0.00038274	1220.5	1.4728e-05	1.5358e-05	1137	474.94	1.4522e-05	1.501e-05	470.4	176.26	170.63	67.088	1.4558e-05	72.266	317.226	193.393	201.012	115.043	225.954	307.563	114.265	120.196	264.276	283.483	118.266	122.607	124.911	129.268	234.482	125.713	-8191	255	
13402.124	1	1	0	0	0.12681	0.045668	0.050528	0.26329	0.11396	0.11151	0.087844	0.44766	0.31072	0.081349	0.11223	0.19368	0.071753	0.22165	0.053143	0.36643	-2.3375	-2.8083	-2.225	-3.1729	-2.4562	-2.4271	-3.1271	-2.5917	-2.8063	-3.0042	-2.4521	-3.1104	-2.6229	-2.4896	-3.05	-2.6625	392.305	356.279	239.075	398.553	303.652	192.314	451.400	370.156	422.571	265.656	356.207	389.590	112.441	374.560	380.388	141.072	0.0020358	0.00084057	0.00021526	1330.6	6.1104e-06	1.4784e-05	1260.9	519.92	2.5575e-05	6.43e-06	517.26	192.41	185.9	72.319	9.8742e-06	78.009	0.0013116	0.00137	0.00037959	1221.6	1.3796e-05	1.4741e-05	1147	476.51	1.4078e-05	1.4761e-05	474.88	176.85	170.52	67.008	1.4103e-05	72.366	320.951	180.152	209.265	116.278	236.522	260.150	115.068	121.007	286.679	278.363	119.038	123.446	125.899	129.753	265.018	126.301	-8191	255	
13402.220	1	1	0	0	0.15504	0.15995	0.22715	0.13193	0.097548	0.15745	0.35977	0.35969	0.021993	0.36292	0.18597	0.051395	0.28512	0.11675	0.27999	0.24026	-2.2854	-2.8792	-2.2417	-3.3271	-2.7208	-2.4708	-2.9958	-2.5396	-2.5438	-2.7812	-2.3542	-2.7687	-2.9604	-2.475	-3.0521	-2.6021	358.718	226.986	435.107	323.693	181.029	139.739	403.618	405.119	171.009	325.329	445.233	170.203	408.476	158.930	366.192	407.766	0.0017659	0.00082244	0.00031432	1339.5	9.046e-06	4.4948e-06	1250.3	517.56	1.2459e-05	6.9589e-06	512.69	190.6	185.94	71.287	9.9067e-06	76.913	0.0013255	0.0013335	0.0003762	1226.1	1.4273e-05	1.454e-05	1141.9	475.82	1.4153e-05	1.4816e-05	470.73	175.1	170.09	66.257	1.4468e-05	71.054	323.690	194.798	171.155	115.993	259.589	270.915	114.826	120.768	298.181	247.152	118.447	122.829	125.236	129.411	262.204	125.469	-8191	255	
13402.317	1	1	0	0	0.1764	0.13291	0.10519	0.20841	0.29633	0.2661	0.074571	0.34154	0.31265	0.11968	0.22348	0.079132	0.073299	0.22416	0.070866	0.17342	-2.3167	-2.9896	-2.4833	-2.8479	-2.6375	-2.4271	-3.0104	-2.6562	-2.3875	-3.1333	-2.2792	-2.8604	-2.875	-2.6333	-2.9646	-2.7792	311.354	360.677	180.431	360.303	320.581	403.057	423.159	432.341	203.670	358.650	420.524	412.994	357.682	105.509	186.879	407.513	0.00185	0.00024129	0.00022681	1331.7	1.9383e-05	8.2183e-06	1250.6	516.29	1.0026e-05	4.1128e-06	505.08	189.35	184.06	70.462	9.2801e-06	75.665	0.001339	0.0013575	0.0003733	1221.9	1.4667e-05	1.4873e-05	1137.7	472.9	1.4585e-05	1.4756e-05	465.26	173.06	168.89	65.328	1.4338e-05	69.988	320.334	206.283	207.925	115.503	269.071	257.766	115.204	120.967	281.322	280.101	119.134	123.525	125.861	130.351	248.751	126.336	-8191	255	
13402.413	1	1	0	0	0.22356	0.024293	0.2923	0.19522	0.2633	0.21396	0.42002	0.26173	0.12488	0.089392	0.11993	0.27287	0.20512	0.24762	0.31916	0.10274	-1.9542	-3.0438	-2.3312	-2.8396	-2.8146	-2.1875	-3.2542	-2.7125	-2.4437	-3.0729	-2.7458	-2.7208	-2.9396	-2.3729	-2.7313	-2.9021	368.172	248.780	256.680	406.578	461.645	232.677	359.874	394.959	303.244	219.060	342.836	122.057	378.364	445.756	390.446	449.443	0.0019945	0.00098703	0.00028575	1333.2	1.349e-05	8.9991e-06	1245.7	514.2	1.1717e-05	6.6841e-06	509.82	188.82	184.2	70.374	7.9426e-06	75.971	0.0013284	0.0013523	0.00036888	1220.8	1.4317e-05	1.4962e-05	1136.4	471.75	1.4718e-05	1.46e-05	467.05	173.06	168.02	65.156	1.4485e-05	70.112	316.741	204.246	188.804	116.614	244.187	287.643	115.601	121.401	304.655	243.743	118.946	123.366	125.610	129.356	269.512	126.007	-8191	255	
13402.533	1	1	0	0	0.06987	0.088693	0.31348	0.22795	0.064789	0.041148	0.3195	0.11853	0.2934	0.20473	0.081612	0.050037	0.19774	0.054312	0.53141	0.34993	-1.9896	-2.9125	-2.5333	-2.6937	-2.9521	-2.3271	-3.0583	-2.9375	-2.3833	-2.9167	-2.7146	-2.6521	-2.9479	-2.425	-2.6125	-3.0104	307.881	400.140	266.336	447.026	399.647	426.590	416.889	417.082	183.565	346.141	341.907	178.315	156.909	304.284	358.886	449.781	0.0019183	0.00050894	0.00022464	1335.2	9.8947e-06	8.7682e-06	1245.4	515.02	1.3965e-05	5.1645e-06	504.92	189.45	183.8	70.876	9.6004e-06	75.994	0.0013115	0.0013568	0.00036798	1223	1.4445e-05	1.4241e-05	1135.8	472.56	1.4609e-05	1.434e-05	466.43	173.6	168.08	65.541	1.4462e-05	70.417	316.570	220.698	247.322	115.656	223.830	232.680	114.864	120.879	283.284	256.439	118.371	123.194	125.651	129.971	248.549	126.206	-8191	255	
13402.605	1	1	0	0	0.15494	0.17314	0.0786	0.16804	0.14855	0.17865	0.26991	0.2698	0.19067	0.22772	0.25738	0.20408	0.16051	0.263	0.24472	0.20525	-2.0875	-2.8083	-2.4875	-2.4833	-2.8375	-2.3646	-3.0542	-2.9083	-2.1813	-2.8729	-2.7062	-2.6354	-3.3042	-2.6292	-2.5208	-3.0563	450.162	182.116	300.379	423.585	382.267	188.029	403.302	401.532	377.370	139.691	424.546	453.771	338.724	442.914	454.537	430.530	0.0017989	0.00067423	0.00033195	1333.6	1.2155e-05	5.8861e-06	1248.6	515.87	1.3633e-05	4.7439e-06	507.82	189.1	186.11	70.942	1.3763e-05	76.974	0.0013425	0.0013348	0.00038604	1221.7	1.4631e-05	1.4645e-05	1135.9	472.65	1.4603e-05	1.4884e-05	466.83	173.39	169.57	65.902	1.5183e-05	71.002	321.922	208.715	208.839	115.778	290.853	230.797	115.434	121.131	253.567	220.697	119.154	123.619	125.942	130.192	256.646	126.418	-8191	255	
13402.701	1	1	0	0	0.095752	0.070787	0.19583	0.38337	0.15259	0.072165	0.26615	0.3124	0.17499	0.21832	0.04202	0.39742	0.068266	0.32522	0.2934	0.27839	-2.0229	-2.8625	-2.6562	-2.6125	-3.0875	-2.4896	-2.7521	-3.0646	-2.4562	-2.8708	-2.8333	-2.5604	-3.2583	-2.6333	-2.525	-3.0583	253.818	209.600	297.320	366.449	367.962	146.074	362.335	408.366	426.261	106.608	233.441	413.646	375.978	414.071	109.553	125.230	0.0018726	0.00069619	0.00029513	1329.6	5.9069e-06	1.1075e-05	1238	513.04	2.1177e-05	9.1953e-06	505.13	188.59	185.29	71.105	1.6007e-05	76.51	0.0013207	0.0013768	0.000385	1217.4	1.4685e-05	1.483e-05	1131.1	471.65	1.4554e-05	1.4787e-05	465.67	173.49	169.35	65.979	1.5184e-05	70.781	316.960	187.114	198.664	115.728	224.251	296.343	114.418	120.220	284.971	274.364	118.450	122.655	124.731	129.189	227.361	125.627	-8191	255	
13402.796	1	1	0	0	0.071525	0.15146	0.1372	0.27039	0.30607	0.37974	0.4251	0.14788	0.18102	0.16567	0.17721	0.15751	0.22118	0.33527	0.27739	0.10851	-1.8188	-2.7292	-2.7771	-2.3104	-2.8812	-2.5667	-2.5729	-3.3063	-2.2833	-2.7646	-2.8563	-2.4437	-3.1292	-2.5292	-2.3771	-2.9333	423.359	426.698	392.659	435.147	116.836	147.556	350.137	428.611	271.110	423.961	326.344	440.348	460.772	454.918	268.922	360.635	0.0018439	0.00050953	0.00022394	1326.2	9.8385e-06	2.7447e-06	1241.2	513.44	1.4598e-05	1.3867e-05	506.71	190.24	185.35	71.104	1.0493e-05	76.965	0.0013451	0.0013614	0.0003843	1217.5	1.4409e-05	1.5126e-05	1132.3	472.38	1.4527e-05	1.4913e-05	466.47	173.88	169.17	65.915	1.4839e-05	71	317.606	229.778	150.214	115.388	262.657	284.465	114.770	120.584	288.120	215.759	118.415	123.030	125.290	129.614	261.540	125.942	-8191	255	
13402.916	1	1	0	0	0.090946	0.12286	0.13203	0.13976	0.14891	0.051404	0.063045	0.39358	0.11591	0.13383	0.24477	0.22421	0.19639	0.21346	0.18439	0.21342	-1.9188	-2.5229	-2.7562	-2.3958	-2.8729	-2.5187	-2.5667	-3.1375	-2.4417	-2.7125	-2.9167	-2.4146	-2.9667	-2.8917	-2.4667	-3.2646	201.721	138.685	381.546	432.538	164.885	448.134	251.820	360.682	340.898	266.820	455.130	458.965	385.074	443.406	361.266	306.633	0.0017335	0.0010897	0.00021504	1325	1.298e-05	9.1434e-06	1244.3	512.33	1.4027e-05	4.4851e-06	506.31	190.24	184.38	70.997	1.0924e-05	76.039	0.0013292	0.0013533	0.00038991	1217.3	1.4537e-05	1.536e-05	1136.6	472.03	1.4648e-05	1.537e-05	467.47	173.73	168.88	65.847	1.5023e-05	70.443	319.277	202.599	217.185	115.968	247.358	251.974	114.922	120.935	287.500	296.640	118.799	123.123	125.528	129.658	237.813	126.137	-8191	255	
13403.012	1	1	0	0	0.15753	0.50536	0.10216	0.16311	0.17203	0.054962	0.33534	0.172	0.081041	0.18444	0.17265	0.49377	0.52101	0.32228	0.22709	0.24585	-1.9208	-2.5083	-2.9458	-2.4521	-2.875	-2.6771	-2.4771	-3.3	-2.3167	-2.5812	-3.1188	-2.1771	-3.0229	-2.8354	-2.3937	-3.1479	123.076	392.601	158.806	455.457	215.672	151.428	449.659	124.581	271.418	214.555	454.362	402.873	452.006	405.025	140.714	448.611	0.0018404	0.0013153	0.00020564	1333.3	1.1743e-05	7.9946e-06	1239.3	515.2	8.1697e-06	2.9066e-06	507.03	188.26	184.54	70.688	8.1226e-06	75.635	0.0012989	0.0014069	0.0003877	1220.5	1.4699e-05	1.5194e-05	1131.7	471.97	1.4677e-05	1.5371e-05	465.74	172.7	168.5	65.558	1.5095e-05	70.05	315.219	175.378	240.591	115.543	228.379	286.971	115.221	121.362	309.858	320.743	119.466	123.490	125.563	129.608	218.416	125.795	-8191	255	
13403.108	1	1	0	0	0.1885	0.20644	0.13936	0.27815	0.14612	0.037025	0.18743	0.24865	0.0673	0.22441	0.16722	0.20885	0.25743	0.32855	0.22143	0.41107	-2.1792	-2.5479	-2.8312	-2.45	-2.6583	-2.7333	-2.4292	-3.0229	-2.5354	-2.4229	-2.9167	-2.3646	-2.65	-2.9979	-2.2833	-2.9292	134.112	438.219	376.646	414.251	453.930	392.746	342.366	370.118	367.509	395.319	438.716	403.591	447.994	125.722	148.214	450.442	0.0018996	0.0010907	0.00013223	1332.4	9.7496e-06	5.6712e-06	1231.1	514.44	8.7405e-06	1.1721e-05	501.18	187.95	182.94	70.171	9.0024e-06	74.752	0.001336	0.0014152	0.00038336	1220.8	1.4824e-05	1.5339e-05	1127.1	470.06	1.5115e-05	1.4995e-05	462.35	171.85	167.33	65.094	1.5545e-05	69.402	313.965	186.536	141.896	115.266	248.641	249.044	114.659	120.050	287.444	237.215	117.806	122.357	124.750	129.536	224.611	125.588	-8191	255	
13403.205	1	1	0	0	0.18541	0.15573	0.21567	0.23998	0.23716	0.31565	0.1559	0.24702	0.4204	0.17209	0.31175	0.18288	0.12317	0.069383	0.17234	0.33817	-2.2438	-2.5417	-3.1208	-2.5521	-2.6167	-2.9917	-2.4458	-3.0958	-2.7146	-2.4542	-3.0833	-2.5583	-2.7354	-3.0896	-2.3875	-2.9938	171.757	342.033	328.084	395.629	418.679	366.801	157.463	379.073	290.062	325.463	392.380	461.291	125.951	433.068	402.385	152.755	0.0018132	0.00020287	0.0002634	1334	7.4113e-06	6.0658e-06	1236.4	511.88	2.332e-05	5.786e-06	504.24	187.01	183.37	70.338	1.2667e-05	74.826	0.0013365	0.0013959	0.00039286	1223	1.4787e-05	1.5436e-05	1126.1	468.41	1.4722e-05	1.5665e-05	462.39	171.74	168.25	65.156	1.4877e-05	69.611	315.079	396.317	172.535	115.578	271.584	202.729	114.870	120.662	273.795	308.377	118.605	123.452	124.993	129.105	258.911	126.068	-8191	255	
13403.301	1	1	0	0	0.11627	0.13317	0.062079	0.1772	0.073224	0.12185	0.14932	0.069868	0.060109	0.047781	0.36089	0.24485	0.080521	0.27498	0.08641	0.17221	-2.3646	-2.4375	-2.9146	-2.6167	-2.4958	-3.0646	-2.5083	-2.9292	-2.7687	-2.275	-3.1333	-2.8646	-2.4646	-3.2271	-2.3354	-2.9083	249.690	261.547	162.063	434.973	353.545	349.515	415.352	138.705	332.382	460.585	450.564	457.351	310.937	456.059	190.951	349.702	0.0017452	0.0010608	0.00017333	1330	1.0831e-05	8.6627e-06	1239.5	514.48	2.0268e-05	5.8107e-06	502.77	187.8	183.62	70.039	1.1202e-05	75.062	0.0013495	0.0013772	0.00037915	1220.1	1.472e-05	1.5449e-05	1131.6	469.98	1.5153e-05	1.5418e-05	463.93	172.15	167.84	64.825	1.5146e-05	69.438	317.313	189.578	207.690	116.224	235.553	242.695	114.728	121.039	270.727	201.803	119.257	123.222	125.391	129.823	287.975	125.708	-8191	255	
13403.397	1	1	0	0	0.15773	0.11818	0.029582	0.20501	0.069344	0.21047	0.25077	0.14955	0.27594	0.10681	0.20687	0.23636	0.22768	0.32845	0.096541	0.11476	-2.4229	-2.3042	-2.8667	-2.7875	-2.6083	-3.1146	-2.5187	-2.8271	-2.8479	-2.3833	-3.2042	-2.9021	-2.3417	-3.1646	-2.2875	-2.7354	188.788	305.687	452.761	392.294	427.193	117.358	458.504	393.390	426.185	420.625	311.584	451.069	459.926	391.236	365.557	161.866	0.0019946	0.00071964	0.00013332	1334.1	1.0841e-05	1.1436e-05	1235.5	509.6	9.8863e-06	8.9471e-06	501.3	186.81	181.85	68.919	1.4222e-05	74.065	0.0013737	0.0014095	0.00039122	1221.5	1.5213e-05	1.5323e-05	1130.4	467.19	1.5115e-05	1.5205e-05	461.4	171.3	166.47	63.99	1.5479e-05	68.911	318.243	220.291	212.746	115.916	273.081	244.843	115.225	120.845	276.378	302.816	118.764	123.418	125.403	129.767	272.889	126.376	-8191	255	
13403.493	1	1	0	0	0.14602	0.14863	0.30249	0.021246	0.19447	0.38409	0.26915	0.38391	0.10899	0.29839	0.38312	0.24083	0.054515	0.33221	0.14638	0.18087	-2.4646	-2.2271	-2.9167	-2.9125	-2.4708	-3.0375	-2.5896	-2.6146	-3.05	-2.2562	-2.9062	-2.9583	-2.3646	-3.0167	-2.4938	-2.6396	320.647	364.802	450.939	310.398	298.633	313.925	356.611	422.251	425.804	124.305	102.921	392.253	405.491	454.540	239.834	335.788	0.0018482	0.0009494	0.00031421	1333.5	1.6955e-05	1.1817e-05	1235.9	507.78	9.5834e-06	5.8333e-06	501.39	185.2	179.19	68.328	8.4331e-06	73.723	0.0013462	0.0013828	0.00038454	1219.1	1.4965e-05	1.5425e-05	1129.8	464.8	1.5128e-05	1.5486e-05	459.25	170.28	165.02	63.298	1.5049e-05	68.082	319.977	182.923	141.642	115.603	262.646	256.066	114.862	120.716	300.984	245.895	118.988	122.830	124.622	129.383	260.232	126.145	-8191	255	
13403.614	1	1	0	0	0.12118	0.042214	0.26218	0.29271	0.045817	0.15674	0.17695	0.30702	0.15913	0.083642	0.27866	0.050605	0.13472	0.25113	0.19815	0.11103	-2.4958	-2.1271	-2.5625	-3.0271	-2.3583	-2.9646	-2.6188	-2.6625	-2.9562	-2.3396	-2.8667	-2.9333	-2.4917	-3.0146	-2.4646	-2.6979	405.535	233.825	410.357	104.851	157.422	103.087	437.258	440.985	325.552	406.109	386.726	332.501	119.168	416.884	364.600	405.000	0.0017881	0.00068447	0.00022339	1328	1.3808e-05	2.8833e-06	1229.2	502.36	1.0873e-05	9.4334e-06	492.83	184.07	179.39	68.223	1.1165e-05	73.067	0.0013305	0.0013772	0.00038308	1217	1.4778e-05	1.5191e-05	1124.5	461.91	1.4818e-05	1.5808e-05	454.7	169.13	164.68	63.293	1.5069e-05	67.785	320.795	200.853	197.927	115.657	223.937	298.938	114.933	120.577	265.594	275.678	118.677	122.956	124.922	129.282	280.529	125.896	-8191	255	
13403.708	1	1	0	0	0.1813	0.025913	0.15564	0.26263	0.26683	0.14513	0.28669	0.10137	0.23635	0.16203	0.21542	0.13349	0.1463	0.076655	0.1688	0.18769	-2.5042	-2.3771	-2.4708	-3.0292	-2.3667	-2.8208	-2.7667	-2.575	-2.8208	-2.5333	-2.7167	-3.1583	-2.4042	-3.0687	-2.7146	-2.4688	352.700	173.297	259.931	427.610	228.242	144.964	396.415	430.735	364.084	329.611	456.706	396.259	419.598	150.561	370.401	454.947	0.001529	0.00060975	0.00020078	1325.3	1.4305e-05	8.3926e-06	1222.5	503.15	1.0774e-05	6.5818e-06	497.67	183.64	178.57	67.535	1.6818e-05	72.586	0.0013298	0.001378	0.00038885	1214.9	1.469e-05	1.5118e-05	1118.8	460.83	1.4327e-05	1.5176e-05	455.06	168.11	163.79	62.726	1.5325e-05	67.178	315.183	180.202	208.191	115.744	273.376	259.569	115.203	120.687	291.721	242.512	118.731	122.950	125.335	129.519	264.760	125.913	-8191	255	
13403.804	1	1	0	0	0.05908	0.18256	0.18536	0.28749	0.16266	0.11694	0.25818	0.28632	0.15901	0.14897	0.24139	0.30722	0.16124	0.14334	0.18679	0.304	-2.5812	-2.5292	-2.3688	-2.9813	-2.2333	-2.9	-2.9417	-2.4021	-2.9875	-2.35	-2.6583	-3.0333	-2.4188	-2.7188	-2.8542	-2.3563	110.523	146.688	352.402	424.618	229.399	235.577	375.302	437.796	368.765	208.121	405.118	410.513	403.134	110.242	206.613	450.862	0.0017928	0.00037355	0.00014708	1323.9	9.8781e-06	8.6017e-06	1221	502.3	6.025e-06	6.9427e-06	494.02	184.25	179.02	68.011	1.0873e-05	73.34	0.0013193	0.001353	0.00038775	1213.6	1.4339e-05	1.5217e-05	1118.8	460.04	1.5081e-05	1.527e-05	454.55	168.52	164.58	62.952	1.5086e-05	67.695	317.898	231.849	192.081	115.984	271.689	281.820	114.886	120.717	292.181	259.864	118.673	123.681	125.288	129.474	238.652	126.060	-8191	255	
13403.900	1	1	0	0	0.085963	0.23854	0.11975	0.1971	0.082871	0.18314	0.38735	0.31118	0.34364	0.37211	0.12956	0.34416	0.14053	0.066504	0.25585	0.23704	-2.5062	-2.4854	-2.5792	-3.1979	-2.4792	-2.7562	-2.9688	-2.3646	-2.9417	-2.4625	-2.425	-3.1937	-2.5479	-2.8083	-2.8563	-2.4042	222.504	169.455	312.973	420.562	436.739	223.274	415.534	436.654	215.657	182.036	375.392	417.615	418.731	450.331	259.642	403.928	0.0016841	0.00064362	0.00028569	1326.3	6.8505e-06	6.9858e-06	1228.2	502.97	1.4971e-05	3.5128e-06	496.48	184.58	180.12	68.082	1.4798e-05	73.547	0.0013384	0.0013588	0.00039201	1213.6	1.4381e-05	1.5274e-05	1124.2	461.04	1.4442e-05	1.5212e-05	456.06	169.08	164.59	63.162	1.5102e-05	68.023	324.354	179.019	228.028	115.537	218.665	255.576	115.021	120.651	277.172	233.950	118.510	123.072	125.165	129.808	256.768	126.171	-8191	255	
13403.997	1	1	0	0	0.16535	0.17604	0.15265	0.22935	0.22697	0.12331	0.21012	0.40823	0.1223	0.10989	0.31987	0.17414	0.28814	0.24551	0.078705	0.19933	-2.4354	-2.6479	-2.4188	-3.0625	-2.6188	-2.7458	-2.9896	-2.5896	-2.8146	-2.8792	-2.4958	-3.1604	-2.5604	-2.5625	-2.8563	-2.4125	443.011	108.323	419.236	380.965	456.450	170.991	146.525	461.526	421.348	450.432	144.033	446.689	402.597	458.115	457.113	357.844	0.0018618	0.00034577	0.00011139	1327.7	1.012e-05	3.793e-06	1228	502.41	8.1114e-06	1.1635e-05	495.91	185.36	179.59	68.393	9.4778e-06	74.344	0.0013252	0.0013547	0.00037535	1216.2	1.4369e-05	1.4964e-05	1124.7	461.35	1.4495e-05	1.5403e-05	456.9	169.73	164.84	63.389	1.4772e-05	68.521	316.782	251.959	252.876	116.197	219.715	244.884	115.059	121.071	285.697	246.813	118.744	123.455	125.398	130.049	273.925	125.754	-8191	255	
13404.093	1	1	0	0	0.27497	0.13253	0.040087	0.17838	0.23123	0.17153	0.33051	0.20378	0.22611	0.20471	0.14961	0.19617	0.39859	0.14866	0.018396	0.19106	-2.5083	-2.5938	-2.3146	-3.3167	-2.4771	-2.4833	-3.0708	-2.5917	-2.8583	-2.9479	-2.5125	-2.9979	-2.6854	-2.5917	-3.0667	-2.4458	182.853	348.048	284.671	408.811	420.157	205.387	156.985	411.154	106.176	200.318	457.539	108.664	111.809	303.289	129.795	361.987	0.001796	0.00040441	0.00030753	1321.2	9.839e-06	7.4938e-06	1232.3	504.95	1.2313e-05	9.9158e-06	497.7	185.16	181.1	68.959	1.3124e-05	74.576	0.0013001	0.0013745	0.00038161	1211	1.4371e-05	1.5116e-05	1126.6	462.81	1.4576e-05	1.4993e-05	457.58	170.29	165.82	63.997	1.4447e-05	68.989	318.571	186.730	183.936	115.775	218.385	234.858	115.063	120.773	289.615	254.834	118.717	122.891	125.236	129.623	227.053	125.946	-8191	255	
13404.213	1	1	0	0	0.061548	0.19658	0.1944	0.31968	0.16453	0.21522	0.1728	0.15517	0.17483	0.20703	0.1683	0.19124	0.12341	0.045714	0.12513	0.098825	-2.5021	-2.7917	-2.1417	-2.9521	-2.5604	-2.4042	-3.175	-2.4479	-2.6771	-2.9292	-2.4042	-3.0062	-2.6562	-2.5812	-2.8229	-2.4708	414.118	252.445	411.133	445.948	385.534	283.392	409.512	387.225	148.836	394.389	153.318	431.730	393.653	333.387	111.288	428.163	0.0017072	0.0010769	0.00020676	1322.7	9.1231e-06	7.1783e-06	1233.4	506.87	1.6318e-05	6.2639e-06	499.55	186	180.04	69.285	1.0536e-05	73.857	0.0013304	0.0013634	0.00037933	1211.7	1.4283e-05	1.4935e-05	1125.5	464.02	1.4525e-05	1.463e-05	459.53	170.76	165.28	64.275	1.4145e-05	68.825	316.963	218.485	104.754	114.929	223.832	240.331	114.331	120.159	266.684	265.913	118.099	122.562	124.811	128.959	234.475	125.450	-8191	255	
13404.309	1	1	0	0	0.18678	0.035877	0.24932	0.21516	0.10786	0.15126	0.13197	0.48869	0.24768	0.031598	0.2401	0.42458	0.096076	0.22138	0.21593	0.25445	-2.0604	-2.6479	-2.2667	-2.9708	-2.7208	-2.4271	-3.2125	-2.625	-2.4917	-3.125	-2.4396	-2.8042	-2.775	-2.475	-3.0563	-2.6521	356.114	349.239	402.735	338.104	228.824	320.294	456.522	386.245	222.676	390.975	383.396	412.025	419.205	436.406	245.000	402.047	0.0018267	0.0013038	0.00030148	1330.6	1.2352e-05	5.374e-06	1238.5	505.16	1.6678e-05	4.075e-06	499.85	185.05	179.68	68.653	1.3624e-05	74.371	0.0013369	0.0013329	0.0003739	1212.8	1.419e-05	1.4345e-05	1127.3	463.25	1.4248e-05	1.4634e-05	459.6	170.2	165.21	63.82	1.4074e-05	68.835	322.242	217.308	193.454	115.362	243.630	267.889	114.501	120.322	288.887	274.529	118.777	122.841	124.831	129.288	278.517	125.825	-8191	255	
13404.406	1	1	0	0	0.11042	0.18587	0.066497	0.3625	0.18201	0.085513	0.23697	0.29931	0.24202	0.19518	0.14486	0.057517	0.099563	0.24219	0.14817	0.10298	-2.1229	-2.9729	-2.2667	-2.825	-2.7292	-2.2333	-2.8896	-2.65	-2.3	-2.9313	-2.3583	-2.8208	-2.9521	-2.4458	-2.8979	-2.8667	196.792	215.403	445.069	438.702	296.469	273.968	372.085	369.254	382.025	346.330	336.195	392.695	345.085	428.573	383.408	115.692	0.0017835	0.00073924	0.00013851	1327.6	1.1003e-05	4.5947e-06	1238.8	505.79	1.8372e-05	2.8317e-06	502.15	186.9	180.67	68.826	1.2934e-05	74.482	0.001306	0.0013251	0.00037507	1213.3	1.3992e-05	1.4595e-05	1132.7	464.24	1.4167e-05	1.5129e-05	461.39	171.39	165.23	63.879	1.438e-05	69.071	313.523	149.432	176.556	115.058	255.958	308.364	114.720	120.716	303.165	234.409	118.769	122.892	124.937	128.760	252.207	126.027	-8191	255	
13404.477	1	1	0	0	0.023532	0.25492	0.29667	0.023655	0.13373	0.064147	0.21187	0.098872	0.25084	0.073148	0.4035	0.21754	0.2251	0.31489	0.010122	0.23266	-1.9458	-3.0521	-2.2646	-2.6792	-2.8792	-2.3729	-3.0875	-2.7979	-2.4854	-2.9542	-2.2167	-2.7896	-3.075	-2.3729	-2.875	-2.9979	132.747	200.876	327.147	201.944	322.344	218.337	461.184	386.200	237.892	231.608	363.498	371.341	445.956	122.831	303.345	383.772	0.0018292	0.00058247	0.00018503	1327.7	1.2336e-05	8.0233e-06	1251.7	509.72	9.3777e-06	7.6046e-06	504.07	187.06	180.7	69.084	6.8459e-06	75.207	0.0013001	0.001351	0.00037138	1212.6	1.4137e-05	1.5006e-05	1137.8	467.01	1.4424e-05	1.4671e-05	463.37	171.73	166.67	64.286	1.5045e-05	69.539	320.253	176.087	231.965	115.594	233.912	254.650	115.085	120.523	302.476	220.743	118.728	122.661	125.320	129.287	229.151	125.843	-8191	255	
13404.596	1	1	0	0	0.32721	0.13536	0.28751	0.38195	0.28288	0.16619	0.18518	0.1087	0.051617	0.13492	0.37297	0.52122	0.25536	0.2467	0.21749	0.23263	-1.9667	-3.0458	-2.4854	-2.4354	-2.7104	-2.2833	-3.1833	-2.9146	-2.2625	-2.9854	-2.4562	-2.4771	-3.1542	-2.4688	-2.5917	-2.9771	209.717	381.657	139.278	421.708	453.307	410.849	455.508	418.372	222.663	192.607	441.865	417.703	447.158	104.445	390.166	454.028	0.0016683	0.00044345	0.00037015	1324.9	1.0271e-05	1.2559e-05	1242.3	510.22	8.6836e-06	4.1567e-06	499.66	187.02	183.21	69.757	1.4253e-05	74.728	0.0013247	0.0013534	0.00038524	1213.5	1.4712e-05	1.5317e-05	1131.7	466.47	1.5029e-05	1.4887e-05	460.38	171.3	167.22	64.662	1.4818e-05	69.065	324.362	245.348	175.187	115.553	257.353	251.314	114.776	120.674	276.716	255.796	118.348	123.028	125.060	129.548	250.090	126.090	-8191	255	
13404.692	1	1	0	0	0.10253	0.37573	0.13891	0.19351	0.21111	0.18857	0.16727	0.018413	0.074589	0.21933	0.22598	0.32162	0.046986	0.18762	0.081506	0.12373	-1.7583	-2.8833	-2.6396	-2.5083	-3.075	-2.4229	-2.8729	-3.0187	-2.0917	-3.0438	-2.7646	-2.4208	-2.9458	-2.4	-2.7375	-3.0687	114.770	400.864	376.752	413.342	315.455	243.297	425.971	174.450	262.738	296.948	459.910	443.146	257.535	422.077	188.079	246.277	0.0017556	0.00096506	0.00016691	1323	3.1867e-06	8.5234e-06	1231.6	504.3	1.1413e-05	8.3487e-06	494.32	184.6	179.93	68.366	1.3062e-05	73.908	0.0013506	0.001389	0.00039437	1213.2	1.5105e-05	1.5317e-05	1123.8	462.27	1.4995e-05	1.5432e-05	455.69	169.26	165.49	63.606	1.5201e-05	68.481	320.713	164.979	167.065	115.733	271.885	281.030	114.707	120.862	292.607	231.649	118.639	122.809	125.244	129.501	258.403	125.888	-8191	255	
13404.788	1	1	0	0	0.17775	0.031273	0.13225	0.078098	0.08584	0.055149	0.19123	0.20392	0.11696	0.023756	0.12965	0.11191	0.3125	0.059937	0.080712	0.32347	-1.8083	-2.6646	-2.7708	-2.45	-2.8187	-2.5417	-2.7354	-2.9979	-2.1083	-2.8063	-2.7333	-2.4646	-3.1063	-2.5375	-2.5229	-3.0687	227.642	183.132	222.863	345.288	442.858	404.705	403.288	386.378	309.043	406.630	143.187	111.217	108.319	443.934	379.972	438.349	0.0016946	0.00069935	0.00016076	1317.9	4.0353e-06	1.2005e-05	1231.5	507.16	9.6438e-06	4.648e-06	499.11	186.19	181.41	69.549	7.6402e-06	74.837	0.0013438	0.0013843	0.00039312	1210.6	1.4528e-05	1.532e-05	1124.9	465.17	1.4949e-05	1.54e-05	460	170.79	166.62	64.465	1.5531e-05	69.529	316.990	176.860	192.158	115.163	239.737	227.010	114.735	120.860	294.329	288.642	118.405	122.849	125.072	129.508	259.373	125.736	-8191	255	
13404.886	1	1	0	0	0.17848	0.10325	0.14571	0.17227	0.068825	0.020674	0.16534	0.26368	0.22942	0.15832	0.063529	0.20187	0.38108	0.33285	0.062615	0.043236	-2.0021	-2.7625	-2.775	-2.5417	-2.8958	-2.5646	-2.7479	-3.1729	-2.2917	-2.875	-2.8917	-2.3917	-3.0292	-2.7	-2.325	-2.9917	370.827	292.571	105.262	460.545	165.924	300.444	343.410	398.734	312.764	398.433	138.367	384.714	344.955	454.614	192.586	391.722	0.0019864	0.0010006	9.2988e-05	1325.8	7.1858e-06	4.8177e-06	1238.7	506.56	1.1545e-05	7.6839e-06	499.33	185.86	180.94	69.07	4.7015e-06	74.049	0.0013683	0.0013886	0.00039378	1211.9	1.4885e-05	1.5641e-05	1129.5	464.85	1.5001e-05	1.5541e-05	458.81	170.39	166.26	64.086	1.5504e-05	68.671	321.968	191.067	230.739	115.582	218.969	192.115	114.780	120.822	308.385	263.874	118.654	122.915	125.362	129.585	241.302	125.738	-8191	255	
13405.005	1	1	0	0	0.10699	0.035918	0.16737	0.42567	0.014939	0.48093	0.15726	0.23485	0.065199	0.28855	0.24994	0.11822	0.19066	0.084457	0.30214	0.10654	-1.7979	-2.5187	-2.6854	-2.4104	-2.9521	-2.8833	-2.3896	-3.1854	-2.275	-2.7625	-2.9688	-2.5104	-2.9917	-2.8396	-2.3896	-3.0938	284.746	263.000	165.681	130.625	261.171	332.833	117.420	447.104	370.766	266.526	169.175	130.316	133.211	432.385	186.684	367.491	0.0019051	0.00072309	0.00025479	1316.5	6.118e-06	8.8148e-06	1224	506.07	1.1086e-05	1.3155e-05	493.48	185.06	180.38	68.988	5.485e-06	74.927	0.0013759	0.0014067	0.00040457	1212.2	1.5001e-05	1.5316e-05	1121.1	463.2	1.5164e-05	1.5756e-05	457.02	169.46	166.01	64.236	1.559e-05	69.098	320.325	196.229	174.633	115.573	272.756	257.827	114.584	120.808	319.693	263.123	118.386	123.159	125.092	129.643	238.559	125.810	-8191	255	
13405.077	1	1	0	0	0.27368	0.19759	0.27679	0.37975	0.077186	0.22079	0.41769	0.12113	0.082334	0.21903	0.18051	0.034052	0.23657	0.26849	0.18129	0.2759	-2.0354	-2.4104	-2.9542	-2.4771	-2.875	-2.6979	-2.5438	-2.9375	-2.4583	-2.6958	-3.2333	-2.4833	-2.9708	-2.9917	-2.4813	-3.1729	218.930	231.042	227.078	439.675	120.449	240.043	386.908	394.270	270.316	265.719	343.106	263.428	267.372	397.927	217.571	447.152	0.0016708	0.00085198	0.00026089	1319.7	7.6011e-06	1.2037e-05	1225.5	504.59	1.1149e-05	6.1689e-06	495.59	184.5	180.03	68.699	1.3634e-05	73.549	0.0013712	0.0014293	0.00039888	1205.8	1.5081e-05	1.5482e-05	1122.6	462.43	1.5164e-05	1.5587e-05	456.14	169.28	165.17	63.691	1.5663e-05	68.144	317.461	190.357	168.336	115.753	263.470	240.516	114.831	120.708	270.332	252.914	118.542	123.309	125.588	130.064	261.719	126.948	-8191	255	
13405.173	1	1	0	0	0.20421	0.16691	0.041941	0.2662	0.1026	0.078038	0.0035194	0.0978	0.25323	0.087444	0.10899	0.16471	0.1934	0.25919	0.18015	0.17195	-2.0625	-2.5438	-2.9958	-2.4458	-2.6792	-2.8688	-2.4729	-3.0438	-2.7917	-2.55	-3.0812	-2.6104	-2.925	-3.125	-2.4396	-3.0708	419.211	285.674	432.581	448.796	142.401	165.722	223.808	339.320	174.220	303.561	434.081	386.229	104.523	386.019	149.135	361.454	0.0017959	0.00084327	0.00022658	1319.3	7.4186e-06	6.9352e-06	1223.8	501.2	1.0172e-05	4.5666e-06	494.02	183.56	180.26	67.843	1.7176e-05	73.237	0.0013848	0.0014589	0.00039504	1208.6	1.4645e-05	1.5363e-05	1120.6	459.97	1.4872e-05	1.5228e-05	454.2	168.16	164.39	62.999	1.51e-05	67.832	320.043	231.238	215.315	116.399	248.694	230.809	114.735	120.360	294.586	256.870	118.471	122.690	125.026	129.281	228.212	125.387	-8191	255	
13405.294	1	1	0	0	0.0756	0.15349	0.24577	0.076844	0.24545	0.12772	0.35425	0.13388	0.10969	0.13078	0.27232	0.33887	0.31633	0.11353	0.35365	0.068945	-2.2792	-2.4375	-3.0583	-2.5208	-2.5854	-2.9854	-2.4333	-3.0771	-2.7625	-2.2729	-3.275	-2.7313	-2.5646	-3.1625	-2.1854	-2.85	237.620	453.057	432.550	281.781	268.031	122.947	371.727	461.152	379.465	460.876	140.487	384.594	426.670	423.761	337.010	377.651	0.0016192	0.0010326	0.00020081	1321.5	1.2123e-05	5.2072e-06	1232.1	500.95	1.3566e-05	3.4915e-06	490.58	183.34	178.98	67.254	1.2656e-05	72.967	0.0013329	0.0014066	0.00039982	1209.9	1.4933e-05	1.5445e-05	1120.9	459.71	1.5134e-05	1.555e-05	452.64	167.64	164.18	62.808	1.5153e-05	67.571	316.386	168.346	232.670	116.054	254.456	274.543	114.697	120.704	270.610	280.895	118.114	122.166	124.315	129.019	252.276	125.116	-8191	255	
13405.390	1	1	0	0	0.066222	0.1135	0.23213	0.16552	0.063288	0.26789	0.25341	0.28767	0.20212	0.070587	0.054629	0.041626	0.12413	0.12496	0.046594	0.20802	-2.3833	-2.0563	-2.8375	-2.7854	-2.6354	-3.0312	-2.3	-2.9875	-2.4792	-2.2125	-2.9958	-2.7667	-2.4354	-3.0042	-2.2167	-2.8063	311.859	428.045	408.864	460.795	276.913	121.175	398.168	437.236	439.539	449.612	440.472	320.521	250.366	297.996	138.254	427.316	0.0019047	0.00062786	0.00026642	1313.9	1.6558e-05	6.8382e-06	1214.4	501.38	1.9261e-05	1.0105e-05	490.88	182.95	179.39	68.171	9.5406e-06	72.945	0.0013603	0.0014277	0.00040072	1207.8	1.5229e-05	1.5769e-05	1115.5	459.43	1.5347e-05	1.5821e-05	451.81	167.63	164.61	63.318	1.4953e-05	67.502	323.183	220.417	198.010	115.802	243.432	244.537	114.397	120.366	297.964	226.380	118.874	124.352	125.850	130.069	259.070	126.263	-8191	255	
#DATA ENDS
