BOXY.EXE: ISS Imagent and Oximeter Data Acquisition Program Version 0.80
Ascii Record File

#ACQ INFORMATION
2  Detector Channels 
16  External MUX Channels 
1  Auxiliary Channels 
5000  Waveform (CCF) Frequency (Hz)
1  Waveforms Skipped 
30  Waveforms Averaged 
1  Cycles Averaged 
16  Acquisitions per Waveform 
10.0806  Updata Rate (Hz) 

#FILE INFORMATION
TRUE -- External MUX Channel results are PARSED.
FALSE -- AC DC and Phase are NOT grouped.
TRUE -- Companion Program Settings File CREATED.
FALSE -- AC data not excluded
FALSE -- DC data not excluded
FALSE -- Phase data not excluded
FALSE -- Auxillary Chn. data not excluded
Tab delimiters

#CALIBRATION STATE
TRUE -- Waveform Calibration Values APPLIED.


#AUX CALIBRATION VALUES
Val Type	aux-1	

Term	1.0000e+00	
Factor	0.0000e+00	


#WF CALIBRATION VALUES
A = Detector Channel
Val Type	A-AC1	A-AC2	A-AC3	A-AC4	A-AC5	A-AC6	A-AC7	A-AC8	A-AC9	A-AC10	A-AC11	A-AC12	A-AC13	A-AC14	A-AC15	A-AC16	A-DC1	A-DC2	A-DC3	A-DC4	A-DC5	A-DC6	A-DC7	A-DC8	A-DC9	A-DC10	A-DC11	A-DC12	A-DC13	A-DC14	A-DC15	A-DC16	A-Ph1	A-Ph2	A-Ph3	A-Ph4	A-Ph5	A-Ph6	A-Ph7	A-Ph8	A-Ph9	A-Ph10	A-Ph11	A-Ph12	A-Ph13	A-Ph14	A-Ph15	A-Ph16	

Term	0.00000e+00	0.00000e+00	0.00000e+00	0.00000e+00	0.00000e+00	0.00000e+00	0.00000e+00	0.00000e+00	0.00000e+00	0.00000e+00	0.00000e+00	0.00000e+00	0.00000e+00	0.00000e+00	0.00000e+00	0.00000e+00	0.00000e+00	0.00000e+00	0.00000e+00	0.00000e+00	0.00000e+00	0.00000e+00	0.00000e+00	0.00000e+00	0.00000e+00	0.00000e+00	0.00000e+00	0.00000e+00	0.00000e+00	0.00000e+00	0.00000e+00	0.00000e+00	0.00000e+00	0.00000e+00	0.00000e+00	0.00000e+00	0.00000e+00	0.00000e+00	0.00000e+00	0.00000e+00	0.00000e+00	0.00000e+00	0.00000e+00	0.00000e+00	0.00000e+00	0.00000e+00	0.00000e+00	0.00000e+00	
Factor	1.00000e+00	1.00000e+00	1.00000e+00	1.00000e+00	1.00000e+00	1.00000e+00	1.00000e+00	1.00000e+00	1.00000e+00	1.00000e+00	1.00000e+00	1.00000e+00	1.00000e+00	1.00000e+00	1.00000e+00	1.00000e+00	1.00000e+00	1.00000e+00	1.00000e+00	1.00000e+00	1.00000e+00	1.00000e+00	1.00000e+00	1.00000e+00	1.00000e+00	1.00000e+00	1.00000e+00	1.00000e+00	1.00000e+00	1.00000e+00	1.00000e+00	1.00000e+00	X	X	X	X	X	X	X	X	X	X	X	X	X	X	X	X	

B = Detector Channel
Val Type	B-AC1	B-AC2	B-AC3	B-AC4	B-AC5	B-AC6	B-AC7	B-AC8	B-AC9	B-AC10	B-AC11	B-AC12	B-AC13	B-AC14	B-AC15	B-AC16	B-DC1	B-DC2	B-DC3	B-DC4	B-DC5	B-DC6	B-DC7	B-DC8	B-DC9	B-DC10	B-DC11	B-DC12	B-DC13	B-DC14	B-DC15	B-DC16	B-Ph1	B-Ph2	B-Ph3	B-Ph4	B-Ph5	B-Ph6	B-Ph7	B-Ph8	B-Ph9	B-Ph10	B-Ph11	B-Ph12	B-Ph13	B-Ph14	B-Ph15	B-Ph16	

Term	0.00000e+00	0.00000e+00	0.00000e+00	0.00000e+00	0.00000e+00	0.00000e+00	0.00000e+00	0.00000e+00	0.00000e+00	0.00000e+00	0.00000e+00	0.00000e+00	0.00000e+00	0.00000e+00	0.00000e+00	0.00000e+00	0.00000e+00	0.00000e+00	0.00000e+00	0.00000e+00	0.00000e+00	0.00000e+00	0.00000e+00	0.00000e+00	0.00000e+00	0.00000e+00	0.00000e+00	0.00000e+00	0.00000e+00	0.00000e+00	0.00000e+00	0.00000e+00	-2.51673e+01	-1.09131e+02	-1.36792e+02	-1.83698e+02	-1.38176e+01	-7.28325e+01	-1.57869e+02	-1.62015e+02	-6.96302e+01	-9.69870e+01	-1.72092e+02	-1.75791e+02	-1.89181e+02	-1.78194e+02	-7.65473e+01	-1.51485e+02	
Factor	2.82887e-05	9.62443e-05	2.62348e-05	1.61568e-01	9.06967e-07	1.03337e-06	1.67683e-01	6.49704e-02	1.10886e-06	1.02177e-06	1.02924e-01	3.36800e-02	8.03786e-02	9.68118e-03	9.66469e-07	1.40111e-02	7.08911e-07	7.21329e-07	2.01149e-07	7.90580e-02	7.90081e-09	7.90084e-09	7.70976e-02	3.12878e-02	7.89045e-09	7.89930e-09	4.70277e-02	1.53915e-02	3.30660e-02	4.62330e-03	7.91615e-09	6.40668e-03	X	X	X	X	X	X	X	X	X	X	X	X	X	X	X	X	



#DISTANCE SETTINGS
A = Detector Channel
A-1	A-2	A-3	A-4	A-5	A-6	A-7	A-8	A-9	A-10	A-11	A-12	A-13	A-14	A-15	A-16	

2.5000e+00	3.0000e+00	2.5000e+00	3.0000e+00	2.0000e+00	3.0000e+00	1.5000e+00	3.0000e+00	3.0000e+00	3.0000e+00	3.0000e+00	3.0000e+00	3.0000e+00	3.0000e+00	1.5000e+00	3.0000e+00	

B = Detector Channel
B-1	B-2	B-3	B-4	B-5	B-6	B-7	B-8	B-9	B-10	B-11	B-12	B-13	B-14	B-15	B-16	

1.0000e+01	1.0000e+01	1.0000e+01	1.4400e+00	1.0000e+01	1.0000e+01	1.5100e+00	1.9400e+00	1.0000e+01	1.0000e+01	1.9900e+00	2.4900e+00	2.4100e+00	2.9000e+00	1.0000e+01	2.9800e+00	




#DATA BEGINS
time	group	step	mark	flag	A-AC1	A-AC2	A-AC3	A-AC4	A-AC5	A-AC6	A-AC7	A-AC8	A-AC9	A-AC10	A-AC11	A-AC12	A-AC13	A-AC14	A-AC15	A-AC16	A-DC1	A-DC2	A-DC3	A-DC4	A-DC5	A-DC6	A-DC7	A-DC8	A-DC9	A-DC10	A-DC11	A-DC12	A-DC13	A-DC14	A-DC15	A-DC16	A-Ph1	A-Ph2	A-Ph3	A-Ph4	A-Ph5	A-Ph6	A-Ph7	A-Ph8	A-Ph9	A-Ph10	A-Ph11	A-Ph12	A-Ph13	A-Ph14	A-Ph15	A-Ph16	B-AC1	B-AC2	B-AC3	B-AC4	B-AC5	B-AC6	B-AC7	B-AC8	B-AC9	B-AC10	B-AC11	B-AC12	B-AC13	B-AC14	B-AC15	B-AC16	B-DC1	B-DC2	B-DC3	B-DC4	B-DC5	B-DC6	B-DC7	B-DC8	B-DC9	B-DC10	B-DC11	B-DC12	B-DC13	B-DC14	B-DC15	B-DC16	B-Ph1	B-Ph2	B-Ph3	B-Ph4	B-Ph5	B-Ph6	B-Ph7	B-Ph8	B-Ph9	B-Ph10	B-Ph11	B-Ph12	B-Ph13	B-Ph14	B-Ph15	B-Ph16	aux-1	digaux	

3021.715	1	1	0	256	0.26443	0.22834	0.18413	0.24471	0.011032	0.13157	0.23532	0.17716	0.27366	0.12379	0.15676	0.16625	0.11815	0.090957	0.035939	0.16868	-2.2188	-2.075	-1.9062	-2.7542	-2.0687	-2.3729	-2.6208	-1.9813	-2.6437	-2.1562	-1.9208	-2.65	-1.8937	-2.2479	-2.6958	-2.0312	250.166	273.269	262.243	85.051	60.406	233.780	257.239	254.197	203.248	188.691	213.189	-34.631	99.637	212.729	187.792	134.337	0.0001698	0.00091633	0.00018578	435.69	2.4704e-06	1.0308e-06	648.13	108.07	3.461e-06	2.7863e-06	208.52	71.823	32.846	13.073	2.0845e-06	33.062	0.00091032	0.00077079	0.00018818	471.86	7.8431e-06	6.3841e-06	644.46	121.84	6.083e-06	5.2473e-06	211.98	74.171	48.675	14.346	4.4853e-06	33.144	206.565	299.789	196.971	-39.475	228.484	-25.872	-39.874	-33.775	88.450	45.102	-35.040	-29.279	-28.710	-23.913	158.303	-25.145	-8191	255	
3021.811	1	1	0	0	0.32518	0.12532	0.09875	0.14449	0.066509	0.1212	0.19681	0.2418	0.19098	0.1326	0.21991	0.22354	0.17932	0.25529	0.12304	0.21812	-2.1437	-2.25	-2.1604	-2.7438	-1.9958	-2.2875	-2.5187	-2.0729	-2.6	-2.3646	-1.9062	-2.5062	-2.1562	-2.1312	-2.6208	-1.9542	-17.487	-38.597	241.277	66.889	161.499	296.976	260.406	249.971	-42.855	177.722	-43.428	264.065	128.661	273.849	24.227	275.659	0.00012397	0.00062258	3.4522e-05	417.72	4.0521e-06	5.257e-06	635.31	107.35	4.8104e-06	8.7183e-06	211.14	71.993	33.493	13.279	4.7359e-06	33.871	0.00044578	0.00039696	0.00010045	426.75	4.4352e-06	3.8752e-06	613.48	113.97	4.1839e-06	3.7262e-06	205.41	72.106	42.024	13.88	3.6434e-06	33.255	208.802	-16.965	23.410	-39.712	106.419	22.569	-39.781	-34.318	-29.974	10.915	-35.150	-29.683	-27.881	-24.004	244.699	-25.580	-8191	255	
3021.907	1	1	0	0	0.22539	0.21005	0.17114	0.17135	0.18993	0.13809	0.13058	0.11157	0.26692	0.16016	0.052302	0.21217	0.20639	0.19658	0.24579	0.19676	-2.0375	-2.4146	-2.1083	-2.5833	-2.1312	-2.0875	-2.7646	-1.9354	-2.4646	-2.3208	-1.9438	-2.5875	-2.1146	-1.9542	-2.5625	-2.0625	-29.286	167.094	224.412	-25.212	-9.137	226.762	-39.676	129.140	250.115	111.487	-31.935	118.509	44.807	190.660	-23.939	224.206	0.00017436	0.00042256	0.00018192	417.1	3.6417e-06	6.6669e-06	638.33	107.26	1.729e-06	3.9666e-06	210.35	72.064	33.064	13.033	2.2457e-06	33.878	0.00035148	0.00032482	9.0661e-05	421.89	3.7489e-06	3.4474e-06	615.07	112.95	3.7143e-06	3.3912e-06	206.09	71.634	40.153	13.567	3.7022e-06	33.101	273.098	22.663	153.954	-39.805	156.890	78.478	-40.094	-33.908	40.777	77.036	-35.015	-29.226	-27.086	-23.751	89.535	-25.264	-8191	255	
3022.028	1	1	0	0	0.1721	0.22045	0.18474	0.45882	0.066469	0.20998	0.33562	0.22943	0.2955	0.21475	0.16856	0.2122	0.14413	0.20897	0.10719	0.11723	-1.9375	-2.5187	-1.925	-2.5667	-2.3083	-2.1667	-2.7792	-2.0354	-2.1396	-2.3688	-1.7792	-2.475	-2.1854	-2.0563	-2.8312	-2.0104	71.371	51.333	256.212	244.810	154.260	91.250	187.486	209.232	249.138	82.587	146.662	267.583	116.954	-14.942	292.661	56.807	0.00012161	0.00045725	0.00013133	423.22	3.6873e-06	6.4399e-06	640.15	109.11	9.6442e-07	5.8639e-06	210.05	71.733	32.445	12.644	5.2985e-06	32.892	0.00032698	0.00031142	0.00010058	425.72	3.842e-06	3.6376e-06	623.57	115.55	4.0626e-06	3.9678e-06	213.53	72.902	43.553	13.783	5.1132e-06	32.942	255.368	88.854	-44.492	-40.672	184.338	105.112	-39.971	-34.085	-34.471	43.219	-35.036	-29.612	-27.451	-24.333	109.291	-25.236	-8191	255	
3022.100	1	1	0	0	0.15718	0.11091	0.17852	0.073839	0.30035	0.21061	0.17729	0.10573	0.26312	0.089939	0.36615	0.029757	0.085643	0.35175	0.11216	0.25541	-1.7292	-2.7021	-1.9208	-2.7375	-2.3187	-1.9458	-2.65	-2.0167	-2.2521	-2.6	-1.7708	-2.3854	-2.3646	-2.0208	-2.5625	-2.1188	70.007	-20.392	245.661	260.398	229.505	284.589	8.253	265.779	57.550	37.299	280.768	196.911	133.917	27.186	59.198	141.692	0.00016195	0.00048913	8.0271e-05	426.2	5.2926e-06	4.9978e-06	646.3	107.85	9.7007e-06	4.9884e-06	207.35	69.069	30.424	11.649	7.4831e-06	30.347	0.0004206	0.00041697	0.00013786	438.34	4.7496e-06	4.6645e-06	641.55	117.43	4.8782e-06	5.0127e-06	218.19	71.875	46.074	13.589	6.5888e-06	31.612	267.623	176.884	179.793	-40.269	123.631	295.822	-40.215	-34.218	53.056	206.233	-35.034	-29.826	-27.519	-23.707	128.109	-25.477	-8191	255	
3022.196	1	1	0	0	0.23259	0.23522	0.34494	0.062649	0.088768	0.27147	0.18079	0.057837	0.20117	0.2389	0.11659	0.12846	0.072152	0.082307	0.18575	0.1299	-1.7833	-2.5125	-1.9833	-2.4125	-2.5583	-1.9625	-2.6625	-2.1375	-1.9979	-2.6708	-2.3167	-2.4792	-2.7896	-1.8292	-2.475	-2.2812	270.385	194.146	-30.300	-15.788	301.690	187.060	221.295	-33.474	237.607	155.694	212.614	124.846	103.710	219.195	265.766	287.355	0.00013885	0.0014026	0.00017481	434.46	1.6131e-06	7.7367e-06	654.47	108.06	9.4557e-06	8.255e-06	206.52	68.351	31.068	11.547	2.5198e-06	30.53	0.00050823	0.00055883	0.00017902	455.86	5.8839e-06	6.3943e-06	664.28	121.21	5.8668e-06	6.572e-06	223.89	72.877	48.661	14.221	7.1365e-06	32.054	73.176	131.543	156.203	-40.458	207.892	179.655	-40.479	-34.409	167.102	102.430	-34.903	-29.568	-28.203	-23.932	277.259	-25.249	-8191	255	
3022.292	1	1	0	0	0.2025	0.1228	0.1447	0.17208	0.20028	0.10351	0.060799	0.095174	0.14005	0.047661	0.2592	0.20047	0.027009	0.24836	0.28768	0.15624	-1.6958	-2.5375	-1.8937	-2.2021	-2.7812	-1.925	-2.5146	-2.3417	-1.9771	-2.6354	-1.8229	-2.1896	-2.5396	-1.9479	-2.5979	-2.4479	237.935	54.053	222.885	-9.406	-21.160	8.997	247.870	258.327	73.455	95.250	244.411	299.602	146.316	273.584	254.764	107.400	0.00022632	0.00023292	9.9477e-05	436.26	1.3241e-05	1.6721e-05	660.75	109.71	3.1682e-06	1.3634e-06	211.68	69.786	31.315	11.683	5.1746e-06	30.653	0.00053641	0.00063479	0.00018176	459.39	6.0672e-06	7.1099e-06	670.3	123.71	6.0507e-06	7.2263e-06	226.37	73.801	50.039	14.559	6.8113e-06	31.853	248.049	214.340	298.265	-40.152	210.994	214.378	-40.041	-34.247	177.511	198.874	-34.810	-29.629	-26.816	-23.931	5.424	-25.490	-8191	255	
3022.411	1	1	0	0	0.20017	0.17019	0.14052	0.035103	0.20753	0.12733	0.29594	0.17938	0.12285	0.22134	0.18708	0.26982	0.25431	0.13787	0.21983	0.17696	-1.5146	-2.6333	-2.3146	-2.3229	-2.5312	-2.0375	-2.4104	-2.4104	-2.0687	-2.6646	-2.1125	-2.0354	-2.7125	-2.0521	-2.4833	-2.5458	224.835	142.141	215.108	16.495	230.045	139.538	279.317	146.752	190.131	66.507	-50.417	26.487	224.469	-13.271	-24.777	-45.181	0.00015141	0.00068341	0.0003286	441.54	1.3754e-06	8.5935e-06	667.65	109.99	9.1621e-06	1.3936e-06	209.34	69.103	31.884	11.359	6.4418e-06	29.935	0.00054974	0.0006638	0.00017214	461.63	6.3051e-06	7.3702e-06	669.49	122.93	6.3767e-06	7.4433e-06	224.76	73.212	51.784	14.442	6.645e-06	31.263	304.473	253.558	-38.332	-40.505	5.832	140.290	-40.220	-33.827	213.881	154.410	-35.125	-29.555	-27.808	-23.964	93.070	-24.700	-8191	255	
3022.507	1	1	0	0	0.097669	0.24764	0.17178	0.2302	0.19788	0.12076	0.22479	0.15805	0.10232	0.10869	0.077193	0.14753	0.19731	0.12734	0.11897	0.098188	-1.5625	-2.4542	-2.2229	-1.9083	-2.7292	-2.0292	-2.4417	-2.5104	-1.825	-2.575	-2.3042	-1.9771	-2.7687	-1.8937	-2.0542	-2.5833	21.944	-13.972	62.575	276.707	260.457	114.046	285.355	210.592	268.892	51.914	-46.431	283.657	253.638	32.595	298.228	4.263	0.00025471	0.00066699	0.00041117	437.53	6.826e-06	6.4635e-06	664.59	108.05	7.7757e-06	6.1013e-06	205.34	66.864	30.145	10.913	2.9336e-06	28.683	0.00060355	0.0006749	0.00016704	459.43	6.7292e-06	7.2565e-06	664.61	119.71	6.7238e-06	7.1094e-06	217.57	70.424	51.696	13.716	6.1445e-06	30.152	212.262	75.600	277.162	-40.108	281.621	160.819	-40.405	-34.186	174.892	124.885	-35.077	-29.761	-27.375	-23.093	28.625	-24.793	-8191	255	
3022.603	1	1	0	0	0.39361	0.096172	0.17716	0.22521	0.24985	0.1629	0.31578	0.19505	0.23744	0.27551	0.098693	0.10982	0.066398	0.18114	0.23595	0.052538	-1.4375	-2.5021	-2.2604	-1.9542	-2.6896	-2.1188	-2.3208	-2.7333	-1.9021	-2.4542	-2.4708	-2.1229	-2.4875	-2.1312	-1.9729	-2.5917	272.100	168.100	282.067	188.724	226.297	227.788	235.545	91.799	283.534	233.156	25.535	303.525	134.606	241.224	25.717	-9.199	0.00035317	0.00093567	0.00017946	430.72	7.643e-06	7.3342e-06	653.56	105.81	1.7419e-05	8.4047e-07	205.48	66.655	30.184	11.144	4.8831e-06	29.422	0.00062644	0.00062866	0.00015864	451.86	7.1648e-06	7.0226e-06	653.63	119.3	7.335e-06	7.0336e-06	217.65	71.549	55.089	13.956	6.4463e-06	31.405	269.122	-23.629	253.028	-39.835	257.699	23.544	-40.066	-34.421	182.855	135.934	-34.400	-29.701	-27.386	-24.511	-13.625	-24.886	-8191	255	
3022.699	1	1	0	0	0.1209	0.26404	0.25735	0.10289	0.22008	0.05679	0.20144	0.10381	0.17879	0.16743	0.17234	0.18506	0.33315	0.10085	0.229	0.086009	-1.5104	-2.4896	-2.3021	-2.0458	-2.6375	-2.1917	-2.2083	-2.6312	-1.9312	-2.4437	-2.5521	-2.0771	-2.4938	-2.2958	-2.1354	-2.8458	227.514	70.041	278.626	239.893	128.907	-28.527	262.180	127.870	154.723	289.435	298.767	176.508	265.027	112.562	279.910	282.331	9.2944e-05	0.00013113	0.00027879	436.58	4.6312e-06	7.7346e-06	654.03	106.28	4.5418e-06	7.4074e-06	203.89	67.564	31.262	11.124	6.1119e-06	29.423	0.00069615	0.00064394	0.00016696	463.58	7.8334e-06	7.1454e-06	660.21	123.19	7.9891e-06	7.0595e-06	218.57	73.397	56.509	13.928	6.478e-06	31.788	273.590	200.689	179.123	-39.829	262.860	84.131	-40.025	-33.788	299.686	292.204	-34.829	-29.293	-28.671	-23.159	46.650	-25.256	-8191	255	
3022.796	1	1	0	0	0.16654	0.11355	0.22234	0.21508	0.036233	0.1779	0.12494	0.1267	0.034659	0.2609	0.088218	0.16838	0.065952	0.19155	0.10582	0.10572	-1.5792	-2.3563	-2.4021	-2.0312	-2.6292	-2.45	-2.1021	-2.5896	-2.1583	-2.3	-2.5333	-2.0396	-2.5708	-2.5208	-2.0167	-2.7708	300.944	-36.095	307.644	271.160	144.839	188.357	-40.900	169.735	206.101	55.282	232.234	65.171	67.740	290.787	-9.833	15.427	0.00018231	0.00034253	0.00015328	431.85	3.0743e-06	2.3398e-06	646.13	103.83	1.173e-05	8.2851e-06	202.72	65.875	29.947	11.048	9.7443e-06	29.685	0.00070496	0.00063596	0.00016639	468.33	7.7731e-06	6.9631e-06	654.21	123.78	7.7718e-06	6.9711e-06	216.76	73.943	55.253	13.817	6.7253e-06	32.49	295.137	9.982	167.874	-40.072	188.764	240.367	-40.135	-34.017	66.058	23.117	-34.954	-29.498	-28.198	-23.960	230.580	-24.761	-8191	255	
3022.892	1	1	0	0	0.27249	0.087817	0.044207	0.4744	0.17643	0.085158	0.063659	0.18365	0.35721	0.16515	0.27296	0.090255	0.20695	0.24165	0.11691	0.16214	-1.7583	-2.1208	-2.675	-1.9854	-2.6188	-2.4021	-1.7896	-2.6875	-2.2333	-2.0438	-2.5542	-1.9979	-2.4458	-2.5312	-2.1188	-2.7438	287.286	9.223	229.391	-13.482	-20.875	207.570	-15.697	302.772	264.389	197.762	-38.149	116.738	236.124	35.842	90.399	-32.776	0.00015584	0.00070878	5.6907e-05	430.58	5.253e-06	6.3386e-06	651.76	103.67	8.4713e-06	9.693e-06	198.82	65.594	30.144	10.82	6.4852e-06	29.22	0.00069907	0.00063104	0.00017165	473.76	7.5711e-06	6.9311e-06	657.46	125.46	7.5581e-06	6.8229e-06	217.54	74.168	53.845	13.558	7.1369e-06	32.335	249.405	43.206	277.856	-40.388	79.959	116.613	-40.290	-34.446	40.626	149.399	-34.760	-29.297	-29.189	-23.580	216.277	-25.585	-8191	255	
3022.988	1	1	0	0	0.098863	0.14316	0.05278	0.01198	0.06311	0.088661	0.093197	0.25123	0.15244	0.24165	0.072817	0.15449	0.23772	0.18367	0.10191	0.28884	-1.7729	-2.2146	-2.6292	-2.05	-2.4021	-2.4688	-2.0229	-2.5646	-2.2646	-2.2104	-2.6146	-2.0792	-2.3833	-2.6271	-2.0312	-2.5354	252.844	276.202	7.757	272.546	-17.762	250.656	285.722	181.563	36.591	98.241	207.254	199.805	148.289	270.783	282.010	129.158	0.00016966	0.00037614	9.1802e-05	433.43	5.2724e-06	3.4035e-06	650.11	104.73	5.4816e-06	9.3082e-06	201.3	65.818	29.243	10.631	6.1026e-06	29.372	0.00066588	0.0006186	0.0001864	478.29	7.2539e-06	6.8457e-06	666.56	126.27	7.2773e-06	6.79e-06	222.29	74.274	53.024	13.413	7.8221e-06	32.148	-34.842	96.974	237.856	-40.302	184.292	130.812	-40.133	-33.873	183.213	74.309	-35.018	-29.655	-27.649	-24.018	200.870	-25.149	-8191	255	
3023.107	1	1	0	0	0.13054	0.15442	0.030226	0.27277	0.34412	0.11503	0.10572	0.035104	0.062225	0.1191	0.17473	0.035172	0.26626	0.25224	0.22381	0.19446	-1.775	-1.9958	-2.7	-2.0896	-2.2229	-2.6312	-2.175	-2.6208	-2.4792	-2.0375	-2.7396	-2.225	-2.1562	-2.5292	-1.8813	-2.3937	-29.257	-1.872	7.632	265.088	222.487	-4.254	287.154	161.358	42.793	284.919	115.300	47.745	47.756	43.008	175.942	29.952	3.345e-05	0.00048532	4.6286e-05	437.34	5.2185e-06	6.7307e-06	658.39	105.1	9.4608e-06	6.9809e-06	201.73	66.029	30.384	10.661	1.0754e-06	29.289	0.00066467	0.00062538	0.000205	480.17	7.3328e-06	7.0699e-06	677.53	126.98	7.3568e-06	7.0513e-06	227.38	74.11	53.426	13.675	8.5632e-06	32.184	58.417	281.583	162.851	-40.184	-51.222	261.088	-40.333	-34.775	117.815	37.940	-34.742	-29.148	-29.570	-23.888	144.922	-25.158	-8191	255	
3023.203	1	1	0	0	0.19928	0.18395	0.22167	0.056188	0.13008	0.16418	0.099063	0.10875	0.26683	0.21534	0.16182	0.15117	0.064383	0.28932	0.17492	0.070584	-2.1271	-1.9896	-2.9021	-2.2354	-2.1521	-2.5875	-1.8396	-2.4125	-2.4083	-1.9521	-2.8333	-2.2375	-2.1833	-2.7771	-2.0479	-2.5396	249.596	7.146	130.047	225.543	166.470	160.662	84.552	143.707	26.803	242.806	160.459	185.520	178.210	233.029	106.637	155.965	6.7607e-05	0.00064983	0.00028333	442.93	1.4109e-05	3.514e-06	666.98	106.43	3.8572e-06	8.9796e-06	203.93	66.907	29.91	10.831	1.9544e-06	29.806	0.00066737	0.00066415	0.00022031	482.84	7.3913e-06	7.5028e-06	689.63	127.19	7.4107e-06	7.6781e-06	231.82	74.933	54.079	14.384	9.0025e-06	32.615	-36.492	205.580	200.567	-39.951	128.014	47.759	-40.274	-34.165	113.286	184.800	-35.152	-29.405	-28.327	-23.905	27.742	-25.356	-8191	255	
3023.299	1	1	0	0	0.052913	0.084951	0.35036	0.1844	0.078356	0.074256	0.2382	0.20868	0.11829	0.11392	0.21881	0.036224	0.16946	0.071574	0.43928	0.13801	-2.3021	-2.1833	-2.6	-2.3292	-2.1354	-2.8083	-1.9208	-2.5458	-2.4333	-2.2604	-2.675	-2.2313	-2.2125	-2.6937	-2.0667	-2.3479	-6.659	299.923	-27.659	292.181	-31.860	-14.207	-30.414	270.292	177.195	167.110	52.873	240.185	42.097	18.576	43.408	201.269	0.0001044	0.00043821	0.00027509	445.95	6.6711e-06	7.9265e-06	665.01	107.7	3.3256e-06	9.8455e-06	207.39	67.533	30.119	11.024	7.7014e-06	30.245	0.00067298	0.0007443	0.00022694	482.94	7.3562e-06	8.291e-06	691.52	127.23	7.4191e-06	8.3973e-06	232.79	75.099	54.132	14.952	8.791e-06	32.882	160.567	237.850	-45.452	-40.135	135.512	262.250	-40.065	-34.404	118.786	228.812	-34.775	-29.641	-27.507	-23.956	44.720	-25.021	-8191	255	
3023.395	1	1	0	0	0.13899	0.060535	0.18781	0.079313	0.3342	0.17602	0.08664	0.10884	0.10473	0.12834	0.13309	0.20943	0.24506	0.24431	0.29442	0.12466	-2.2083	-1.9042	-2.4375	-2.5625	-2.2438	-2.5812	-2.25	-2.3333	-2.7188	-1.9167	-2.6854	-2.3688	-2.1437	-2.8354	-2.1583	-2.2292	130.020	155.016	249.894	-16.569	172.864	226.159	285.933	210.141	135.303	210.754	-35.597	-24.262	123.426	194.248	86.916	167.766	0.00014095	0.00061534	0.00017144	450.77	3.5272e-06	4.5544e-06	672.03	108.22	7.0304e-06	6.0207e-06	206.26	66.776	30.608	11.22	6.7945e-06	30.008	0.00067454	0.00080211	0.00022039	486.35	7.4752e-06	8.9523e-06	694.77	127.5	7.6375e-06	9.0913e-06	231.19	74.763	56.113	15.326	8.4742e-06	32.516	207.429	198.899	-40.354	-40.239	232.703	197.994	-39.940	-34.053	183.879	213.822	-34.670	-29.149	-26.619	-24.288	-15.336	-25.051	-8191	255	
3023.491	1	1	0	0	0.25302	0.098513	0.14843	0.040984	0.31698	0.18416	0.11861	0.13933	0.077556	0.14833	0.077806	0.20162	0.11676	0.21466	0.18913	0.22631	-2.0729	-1.9042	-2.5021	-2.5229	-1.9146	-2.7562	-2.4062	-2.275	-2.7604	-1.9979	-2.3312	-2.725	-2.1354	-2.575	-2.4125	-2.2062	193.180	38.864	152.175	23.883	-12.248	55.331	228.035	133.593	160.693	19.407	216.448	206.885	87.989	296.132	279.560	-31.277	8.5165e-05	0.00026665	0.00013583	455.73	1.4691e-05	5.2691e-06	681.44	108.61	9.8598e-06	9.6082e-06	207.19	67.942	30.523	11.28	4.6425e-06	30.208	0.00071291	0.00084011	0.0002145	494.03	8.0313e-06	9.3639e-06	700.91	128.32	8.2521e-06	9.3259e-06	230.6	74.896	59.043	15.398	8.2808e-06	32.718	277.765	114.079	23.556	-40.515	261.025	76.704	-40.344	-34.425	292.667	4.253	-34.500	-30.016	-26.009	-24.194	69.909	-24.882	-8191	255	
3023.587	1	1	0	0	0.042996	0.11429	0.20503	0.056423	0.065223	0.041137	0.22155	0.078898	0.22248	0.092852	0.14226	0.22741	0.28091	0.11907	0.16216	0.17941	-2.2938	-2.0896	-2.5375	-2.4896	-1.9333	-2.5312	-2.475	-2.1104	-2.6312	-2.2292	-2.2521	-2.7771	-1.8958	-2.6479	-2.4354	-2.2562	95.562	-34.841	119.941	-30.998	292.826	124.143	249.279	256.453	-36.561	146.583	300.013	26.258	-34.201	13.520	-13.492	298.237	0.00048522	0.00080477	0.00013926	465.41	1.1498e-05	8.3415e-06	685.32	109.28	1.7934e-05	9.2962e-06	207.49	67.646	31.072	11.3	8.1001e-06	30.189	0.00077934	0.00084073	0.00020639	499.7	8.6669e-06	9.068e-06	703.6	127.88	8.8402e-06	8.9672e-06	228.83	74.49	60.352	14.963	7.7914e-06	32.473	231.654	220.383	102.032	-40.313	218.935	180.946	-40.389	-34.373	204.516	53.566	-34.999	-29.410	-25.864	-24.226	102.000	-25.010	-8191	255	
3023.708	1	1	0	0	0.23299	0.15968	0.33317	0.18539	0.0080312	0.1083	0.099286	0.28293	0.13751	0.063166	0.23373	0.083874	0.12866	0.32569	0.23782	0.28676	-2.3	-2.1667	-2.0583	-2.6333	-1.9062	-2.4917	-2.4146	-2.025	-2.6521	-2.2208	-2.4042	-2.6729	-1.9917	-2.3917	-2.2958	-2.2188	168.033	214.473	128.284	221.492	191.935	235.268	86.145	-47.197	73.917	239.279	227.911	237.408	1.427	235.641	145.622	280.663	0.00025029	0.00065079	0.00020234	458.82	7.5674e-06	8.4319e-06	680.77	107.91	4.4725e-06	1.0467e-05	204.74	67.616	30.327	11.33	4.0332e-06	30.545	0.00078947	0.00077195	0.00019197	491.03	8.7716e-06	8.2321e-06	690.53	126.14	8.8252e-06	8.1835e-06	224.8	74.969	61.118	14.763	7.5104e-06	33.248	277.085	-3.746	18.956	-40.212	164.544	88.691	-40.306	-34.155	133.127	66.222	-35.007	-29.415	-27.469	-23.947	34.217	-25.302	-8191	255	
3023.803	1	1	0	0	0.070265	0.10174	0.22658	0.40524	0.1374	0.2292	0.17112	0.17268	0.18628	0.15792	0.16714	0.13253	0.33478	0.13717	0.25973	0.12621	-2.5229	-2.2292	-1.9562	-2.65	-2.0667	-2.4417	-2.6271	-1.8	-2.6458	-2.2208	-2.0646	-2.7125	-1.9813	-2.3063	-2.5875	-1.9875	245.338	144.291	39.218	248.800	264.972	201.190	208.511	233.149	-32.511	283.019	-49.961	84.599	291.634	298.932	163.446	206.266	0.00011384	0.00092855	0.00016062	459.6	9.9398e-07	1.0206e-05	681.05	109.06	1.0626e-05	8.5462e-06	207.43	67.303	31.513	11.244	5.8871e-06	30.451	0.0008055	0.00072987	0.00018768	494.97	8.8347e-06	7.8465e-06	688.95	129.22	8.9036e-06	7.9649e-06	224.54	76.183	60.928	14.639	7.4543e-06	33.637	240.457	-40.579	288.519	-40.086	58.651	-16.627	-40.146	-34.312	77.788	14.698	-34.750	-29.535	-28.151	-23.834	49.731	-25.586	-8191	255	
3023.899	1	1	0	0	0.27698	0.078516	0.095404	0.084014	0.099131	0.15997	0.064514	0.30919	0.090279	0.10233	0.095866	0.34363	0.28401	0.16881	0.1167	0.14073	-2.2938	-2.2521	-2.05	-2.7021	-1.8521	-2.2646	-2.7979	-1.7521	-2.3625	-2.3688	-2.0375	-2.7333	-1.8771	-1.9896	-2.5167	-1.9125	198.028	123.966	91.200	98.134	171.388	113.931	99.094	-35.018	-32.091	198.269	-45.713	267.552	206.899	219.336	114.734	266.884	0.00020975	0.00024288	0.00030987	472.56	4.1056e-06	1.0393e-05	694	110.85	8.6662e-06	4.2292e-06	207.13	67.202	30.981	11.068	4.5541e-06	30.048	0.00079743	0.00072196	0.00018899	514.31	8.8427e-06	7.8302e-06	702.93	134.34	8.5993e-06	7.7766e-06	226.81	77.353	59.894	14.468	7.6545e-06	33.884	34.773	306.154	56.093	-40.125	107.056	30.923	-40.140	-34.564	47.502	243.698	-35.071	-28.953	-30.045	-24.474	-40.862	-25.255	-8191	255	
3023.995	1	1	0	0	0.14978	0.15595	0.14801	0.11066	0.24713	0.1473	0.36349	0.099479	0.16335	0.20351	0.20996	0.41388	0.13633	0.028278	0.11464	0.11886	-1.9958	-2.3292	-1.8646	-2.7125	-2.1188	-2.2354	-2.775	-1.9458	-2.4479	-2.4	-1.825	-2.7042	-2.0646	-2.0979	-2.5396	-2.05	-4.742	279.596	54.550	-41.438	179.318	94.410	293.980	196.323	294.138	241.776	-6.521	-43.629	176.955	161.108	149.839	63.821	1.4164e-05	0.00039501	0.00017989	471.07	1.0579e-05	5.3738e-06	691.37	111.26	4.1525e-06	1.2068e-05	207.52	67.347	31.251	11.314	6.8492e-06	30.119	0.00076925	0.00070935	0.00019647	521.66	8.4226e-06	7.6664e-06	707.32	135.13	8.3336e-06	7.7153e-06	230.07	77.999	58.579	14.43	8.1887e-06	33.968	288.162	23.239	225.784	-40.152	53.436	75.369	-40.024	-34.124	235.266	-27.146	-34.898	-29.949	-27.217	-23.550	116.722	-25.110	-8191	255	
3024.091	1	1	0	0	0.1152	0.29148	0.13952	0.11379	0.1296	0.31769	0.070177	0.21165	0.11964	0.14951	0.02836	0.11912	0.2781	0.11954	0.22269	0.082859	-2.2167	-2.4625	-2.1875	-2.6625	-2.0667	-2.0833	-2.8333	-2.0917	-2.1896	-2.65	-1.8646	-2.5938	-2.2521	-1.8521	-2.7229	-1.9333	67.414	183.816	239.943	267.370	-36.823	137.091	191.032	118.775	-24.070	242.406	250.940	273.533	152.246	148.467	158.925	225.129	0.00032511	0.00010977	5.6581e-05	472.89	2.3122e-06	4.2207e-06	696.2	109.83	1.0106e-05	4.9196e-06	210.49	68.555	31.548	11.303	1.5601e-06	30.498	0.00073162	0.00070378	0.00021287	522.8	8.2384e-06	7.7067e-06	718.53	135.47	8.2117e-06	7.7825e-06	236.72	78.667	58.822	14.632	9.1773e-06	34.328	169.848	263.101	-22.533	-40.605	36.493	17.455	-40.481	-34.872	-44.564	-24.802	-34.441	-29.492	-28.281	-23.938	44.818	-25.444	-8191	255	
3024.187	1	1	0	0	0.25481	0.12358	0.19657	0.20846	0.17778	0.13885	0.15786	0.21743	0.09815	0.10928	0.16394	0.23124	0.16436	0.1202	0.056977	0.099822	-1.7687	-2.5312	-1.9438	-2.5271	-2.3646	-2.05	-2.7958	-2.0875	-2.1979	-2.4396	-2.0417	-2.4125	-2.3542	-1.9	-2.4979	-2.125	223.760	169.734	207.725	281.324	167.340	-49.272	263.943	138.078	36.563	241.661	19.706	305.357	-0.888	307.224	-49.613	250.150	6.6705e-05	0.00081875	0.00024079	476.91	5.7902e-06	6.3421e-06	705.6	112.55	1.1448e-05	1.1841e-05	211.88	68.017	30.9	11.204	5.2562e-06	30.326	0.00073906	0.00071721	0.00023476	523.97	8.1718e-06	7.842e-06	732.61	136.65	8.2573e-06	8.0831e-06	242.35	78.139	58.255	14.704	9.5502e-06	33.76	73.156	-23.628	132.226	-39.841	125.042	175.073	-40.153	-34.320	79.667	208.413	-34.682	-29.355	-29.494	-24.455	129.280	-25.362	-8191	255	
3024.283	1	1	0	0	0.080561	0.25323	0.27216	0.18603	0.15698	0.17946	0.12642	0.13565	0.31407	0.29557	0.083915	0.12526	0.097085	0.18871	0.13725	0.31635	-1.6771	-2.6	-1.9083	-2.3729	-2.4104	-1.9208	-2.5854	-2.4062	-2.175	-2.6104	-2.1562	-2.3729	-2.5187	-2.0021	-2.6937	-2.2271	83.976	117.038	51.774	-10.319	279.735	247.893	100.907	67.758	83.859	48.755	176.995	271.055	156.716	221.599	136.271	242.903	7.9079e-05	0.00033715	0.00010709	490.1	4.5927e-06	9.7689e-06	711.93	113.39	8.9543e-06	7.1999e-07	208.73	67.858	31.885	11.209	4.785e-06	30.043	0.00072838	0.00075316	0.00024432	532.06	8.0054e-06	8.2898e-06	742.88	135.11	7.8293e-06	8.3612e-06	240	75.839	55.834	14.697	9.0668e-06	32.823	228.936	99.082	-42.404	-40.752	207.710	220.468	-40.037	-34.382	2.428	214.267	-34.899	-29.918	-29.306	-23.740	203.622	-25.029	-8191	255	
3024.379	1	1	0	0	0.24211	0.24985	0.21475	0.023381	0.035829	0.39866	0.13637	0.074375	0.26239	0.069153	0.11729	0.27838	0.042324	0.13259	0.16611	0.10367	-1.5646	-2.4479	-1.9083	-2.4396	-2.5604	-1.9354	-2.6729	-2.3417	-1.9312	-2.7438	-2.0104	-2.3271	-2.475	-1.9271	-2.5312	-2.3438	-2.358	216.605	144.415	32.261	-5.280	68.270	101.580	38.038	91.523	195.212	-45.222	-15.159	112.137	38.770	140.068	155.145	0.00036458	0.0005453	5.7453e-05	489.63	4.9422e-06	8.551e-06	713.21	112.68	3.959e-06	5.7309e-06	210.11	67.88	30.669	11.239	4.3847e-06	30.347	0.00066395	0.00075627	0.00022318	519.69	7.1976e-06	8.216e-06	727.23	130.83	7.0025e-06	8.1947e-06	233.12	74.488	53.694	14.878	8.1992e-06	32.69	171.503	115.185	56.016	-40.553	88.064	205.820	-40.404	-34.097	276.764	249.706	-35.021	-29.511	-28.382	-23.694	0.923	-25.069	-8191	255	
3024.500	1	1	0	0	0.17333	0.015907	0.46233	0.27164	0.083184	0.087012	0.059457	0.14562	0.17189	0.077107	0.24782	0.15852	0.2071	0.10858	0.1021	0.23021	-1.5333	-2.8208	-2.1312	-2.0812	-2.6375	-1.8771	-2.5458	-2.55	-1.9583	-2.7375	-2.0438	-2.3083	-2.6333	-2.0083	-2.3063	-2.5333	272.503	289.736	105.674	276.419	13.729	37.045	272.666	4.368	28.280	75.060	218.911	306.397	65.722	281.853	133.007	276.788	0.00020991	8.0314e-05	0.00033227	490.68	6.0916e-06	9.3442e-06	720.11	113.12	9.1451e-06	8.4329e-06	208.98	67.941	30.693	11.361	1.6964e-06	30.55	0.00064662	0.00078194	0.00020901	519.61	7.3858e-06	8.7778e-06	736.36	131.09	7.6456e-06	9.1559e-06	234	75.041	57.606	15.566	8.5653e-06	33.15	243.824	151.134	25.571	-40.496	8.459	-36.512	-40.314	-34.518	235.094	51.683	-35.056	-29.471	-27.230	-24.360	105.610	-25.238	-8191	255	
3024.596	1	1	0	0	0.24532	0.15672	0.33721	0.13343	0.090158	0.25423	0.023444	0.16599	0.11701	0.079195	0.050307	0.21469	0.31321	0.22128	0.13251	0.16942	-1.5688	-2.6167	-2.2438	-2.1167	-2.6042	-1.9708	-2.3458	-2.6188	-1.9146	-2.6521	-2.3542	-1.8937	-2.7583	-2.0396	-2.2896	-2.5292	262.500	100.123	-38.151	274.334	125.397	143.322	9.499	176.031	148.592	206.105	3.512	265.713	231.948	259.165	109.474	-49.186	0.00045979	0.0011376	6.3301e-05	518.51	7.8486e-06	6.6615e-06	756.61	114.65	1.1121e-05	7.5849e-06	212.08	67.681	31.548	11.169	6.1013e-06	29.992	0.00075901	0.00089229	0.00022463	552.86	8.9139e-06	1.0159e-05	774.67	136.35	9.3912e-06	1.0375e-05	240.25	76.804	65.598	16.029	9.3607e-06	33.528	254.665	63.124	179.431	-41.099	242.336	-29.883	-40.691	-34.854	162.396	14.148	-35.110	-29.418	-25.553	-24.051	67.512	-25.077	-8191	255	
3024.668	1	1	0	0	0.24377	0.096658	0.11157	0.12643	0.12852	0.24526	0.2501	0.073244	0.11928	0.079939	0.039069	0.2101	0.072204	0.22478	0.1472	0.12805	-1.4896	-2.55	-2.1125	-2.0104	-2.6854	-2.1937	-2.4062	-2.7042	-1.9646	-2.5771	-2.3292	-1.925	-2.7792	-2.0167	-2.0687	-2.7562	68.135	247.865	74.401	0.703	233.450	158.021	-23.684	226.348	89.073	126.819	284.040	241.618	110.562	76.000	200.293	75.960	0.00038561	0.0012282	0.00022617	536.92	8.526e-06	7.4224e-06	758.44	113.97	9.071e-06	8.4986e-06	209.22	67.23	29.989	10.95	7.4163e-06	29.507	0.00090676	0.00095674	0.00023734	575.34	1.0208e-05	1.0253e-05	780.3	136.75	1.0232e-05	9.9836e-06	237.37	76.09	67.161	15.539	8.8863e-06	33.091	263.864	5.751	296.095	-41.027	252.837	91.752	-40.877	-34.480	208.669	54.214	-34.740	-29.769	-27.253	-24.154	14.240	-25.244	-8191	255	
3024.788	1	1	0	0	0.24442	0.13199	0.22409	0.36469	0.055615	0.08712	0.28097	0.15592	0.25229	0.18767	0.28367	0.21346	0.081263	0.085449	0.30918	0.18578	-1.6292	-2.425	-2.325	-2.0938	-2.5417	-2.1417	-2.0958	-2.8104	-1.7917	-2.4833	-2.5	-2.0771	-2.6146	-2.0792	-2.2083	-2.8104	304.864	-23.386	2.117	35.809	74.817	90.704	295.175	48.858	135.999	230.717	-7.045	263.726	134.854	52.817	-46.843	211.086	0.00014158	0.00048887	0.00014705	518.65	1.3708e-06	5.6619e-06	742.2	112.91	3.7679e-06	4.1604e-06	207.25	66.113	32.041	11.177	1.151e-05	30.087	0.00092645	0.00087251	0.00022157	557.95	1.0134e-05	9.3431e-06	754.58	135.42	9.967e-06	9.0242e-06	231.52	75.984	65.572	15.107	8.2059e-06	33.678	296.840	142.369	44.935	-40.751	275.328	87.420	-40.628	-33.714	156.886	76.042	-35.431	-29.374	-27.055	-23.981	21.298	-25.093	-8191	255	
3024.883	1	1	0	0	0.16255	0.080268	0.069385	0.27905	0.1585	0.13256	0.049423	0.22661	0.14242	0.068597	0.046519	0.11995	0.020094	0.1128	0.081315	0.24138	-1.7	-2.0938	-2.5229	-2.0646	-2.5958	-2.3542	-1.8625	-2.5812	-2.0771	-2.5229	-2.5167	-1.8646	-2.3958	-2.2333	-2.0042	-2.7083	280.433	80.214	10.068	292.085	-30.860	45.958	49.126	-7.900	241.936	96.702	166.098	-8.705	285.420	16.047	280.686	-34.945	0.00036426	3.3647e-05	0.00015326	522.88	6.209e-06	4.3345e-06	752.84	114.26	1.3049e-05	5.1202e-06	212.19	68.414	32.569	11.587	3.4141e-06	30.557	0.00090123	0.00080786	0.00021029	567.17	9.909e-06	8.8074e-06	764.88	139.83	9.7809e-06	8.6796e-06	235.07	78.946	65.218	15.328	8.186e-06	34.715	92.917	-10.112	-31.860	-40.817	-40.147	153.977	-40.538	-34.065	186.015	-0.414	-34.689	-29.308	-29.354	-24.192	187.817	-25.429	-8191	255	
3024.981	1	1	0	0	0.02171	0.12863	0.18935	0.020598	0.21322	0.11826	0.050644	0.10252	0.067015	0.15843	0.066533	0.13448	0.057812	0.13733	0.064846	0.20613	-1.4604	-2.1979	-2.5229	-1.8125	-2.45	-2.4437	-2.0625	-2.6833	-1.9208	-2.2979	-2.6708	-1.875	-2.3521	-2.4875	-2.0312	-2.7208	114.048	298.528	252.944	158.769	212.578	69.045	246.916	71.732	255.916	273.109	173.387	230.756	298.979	28.649	160.368	183.357	8.5896e-05	0.00041081	0.00016568	539.05	7.2572e-06	8.3347e-06	774.41	116.04	8.297e-06	4.9587e-06	215.48	68.908	32.505	11.67	9.9188e-06	31.049	0.00087767	0.00079104	0.00021152	588.68	9.5835e-06	8.7307e-06	783.64	144.03	9.5132e-06	8.5633e-06	238.77	81.012	64.063	15.412	8.6735e-06	35.631	122.259	8.625	147.895	-40.944	7.184	32.682	-40.826	-34.741	40.361	155.449	-34.854	-29.620	-28.949	-23.715	210.111	-25.163	-8191	255	
3025.100	1	1	0	0	0.29393	0.29425	0.12238	0.20146	0.24074	0.28445	0.048629	0.15861	0.30917	0.12809	0.10398	0.12209	0.27754	0.093068	0.069005	0.3982	-1.5667	-2.0896	-2.5146	-1.9438	-2.3125	-2.5479	-2.1063	-2.5354	-2.1562	-2.1521	-2.4875	-1.9604	-2.3292	-2.575	-2.0354	-2.6604	204.360	-33.470	-48.499	-49.416	287.747	126.745	122.848	236.243	185.013	286.414	-7.739	270.850	281.966	12.373	93.194	-5.847	7.6665e-05	0.00040771	0.00013012	551.43	3.071e-06	7.7643e-06	780.03	116.57	6.876e-06	2.4598e-06	212.78	68.47	32.2	11.584	1.0172e-05	30.82	0.00085278	0.00078899	0.00022786	604.18	9.3329e-06	8.6953e-06	797.37	145.92	9.2311e-06	8.5657e-06	242.27	80.886	63.047	15.25	9.3054e-06	35.268	254.892	73.351	117.355	-40.801	-47.633	121.083	-40.836	-34.322	147.928	123.923	-35.043	-29.736	-28.261	-24.301	181.632	-25.472	-8191	255	
3025.196	1	1	0	0	0.056083	0.17465	0.1261	0.36375	0.15547	0.080488	0.13254	0.061965	0.20909	0.084749	0.27238	0.20578	0.16048	0.29217	0.1176	0.11756	-1.8833	-1.9979	-2.6854	-2.0292	-2.2125	-2.6104	-2.2188	-2.3521	-2.4042	-1.9188	-2.6917	-1.9292	-2.1271	-2.75	-1.9188	-2.4104	131.021	208.363	260.543	-40.658	75.050	4.611	-20.495	152.965	231.504	231.279	288.010	-6.713	84.213	184.529	266.036	58.071	0.00013919	0.00078284	0.00017563	558.9	3.5373e-06	8.7342e-06	784.46	117.24	1.6731e-06	5.9455e-06	215.35	68.775	32.554	11.657	3.1118e-06	31.016	0.00081132	0.00076237	0.00024124	607.59	8.8524e-06	8.2786e-06	808.34	143.98	8.675e-06	8.1564e-06	245.04	79.479	60.506	15.119	9.6344e-06	34.756	214.306	28.754	125.133	-41.284	66.581	-51.536	-41.067	-34.746	187.904	263.707	-34.767	-29.137	-28.425	-24.331	155.434	-25.620	-8191	255	
3025.267	1	1	0	0	0.31732	0.059646	0.24175	0.073038	0.09977	0.16101	0.45929	0.042706	0.15492	0.1935	0.17568	0.14966	0.10272	0.164	0.27587	0.09044	-2.1021	-1.9625	-2.5812	-1.9771	-2.2812	-2.6063	-2.0312	-2.5292	-2.4292	-1.9937	-2.7458	-2.2354	-2.3688	-2.6229	-2.0792	-2.3875	45.968	262.411	59.048	-13.606	190.625	126.786	249.118	10.056	114.342	138.877	258.389	289.156	196.943	275.284	231.500	184.716	0.00019489	0.00022196	0.00043472	561.99	7.2303e-06	4.6941e-06	782.77	119.58	1.031e-05	8.9697e-06	217.55	69.255	32.536	11.595	8.3214e-06	31.224	0.0007649	0.00074772	0.00024545	602.71	8.2732e-06	8.1384e-06	809.01	141.42	8.1114e-06	8.1448e-06	246.4	78.311	58.331	15.221	9.635e-06	34.358	-32.499	152.565	117.140	-41.478	76.108	201.631	-40.881	-34.916	38.331	191.876	-35.155	-29.606	-27.215	-24.178	223.185	-25.473	-8191	255	
3025.388	1	1	0	0	0.10009	0.095708	0.12807	0.11802	0.18042	0.17465	0.14009	0.22207	0.25841	0.13612	0.062752	0.1324	0.13912	0.15349	0.090131	0.16305	-2.1354	-1.9562	-2.6917	-2.35	-2.1208	-2.7208	-1.9917	-2.3896	-2.5687	-1.9292	-2.7958	-2.1042	-1.8729	-2.7479	-1.9125	-2.4437	84.451	173.823	217.700	298.835	28.102	245.945	20.797	233.419	296.014	67.423	22.375	270.898	144.063	29.803	6.914	115.364	0.00010789	0.00052897	6.4301e-05	566.67	6.9843e-06	6.5664e-06	798.45	118.55	7.3686e-06	9.8417e-06	216.03	69.17	32.36	11.865	4.4814e-06	31.263	0.00072138	0.00076544	0.00024528	602.8	7.9855e-06	8.6839e-06	821.82	140.81	8.1817e-06	9e-06	247.89	78.461	59.37	15.977	9.9346e-06	34.63	233.102	243.169	220.441	-40.864	162.029	141.855	-41.041	-34.668	85.790	197.354	-35.094	-29.805	-28.832	-23.654	31.203	-25.194	-8191	255	
3025.484	1	1	0	0	0.20752	0.21415	0.19267	0.18908	0.033977	0.064372	0.29395	0.29167	0.26642	0.047729	0.16795	0.14171	0.32786	0.018324	0.15945	0.23638	-2.15	-1.9354	-2.5	-2.3417	-1.9708	-2.7104	-2.0479	-2.2854	-2.6979	-1.7875	-2.5979	-2.4604	-2.0625	-2.7708	-2.1208	-2.2812	215.695	77.772	97.627	288.616	-29.153	186.826	225.416	291.762	255.462	256.610	122.363	197.599	-19.631	209.570	-17.185	-7.935	0.0001112	0.0013492	0.00017523	583.42	1.0244e-05	4.8115e-06	811.78	119.16	7.6499e-06	3.9532e-06	217.3	68.999	32.727	11.909	5.8289e-06	31.215	0.00075262	0.00086996	0.0002533	618.98	8.2932e-06	9.7886e-06	835.92	141.71	8.4355e-06	9.9001e-06	247.76	78.384	60.429	16.396	9.6208e-06	34.471	130.117	145.601	-6.052	-41.473	99.710	159.709	-41.024	-34.205	164.641	233.961	-35.593	-29.547	-26.543	-23.845	193.639	-25.442	-8191	255	
3025.580	1	1	0	0	0.17878	0.17795	0.017169	0.06609	0.26025	0.12297	0.20624	0.16814	0.10001	0.19548	0.075006	0.10996	0.14519	0.11398	0.08455	0.18789	-2.1583	-1.8438	-2.4542	-2.5563	-1.9312	-2.5396	-2.375	-2.1667	-2.6146	-1.7625	-2.475	-2.5021	-1.9417	-2.6	-2.2188	-2.1583	101.321	-16.558	46.097	-4.003	230.726	255.349	302.983	90.619	178.643	303.568	234.704	283.138	64.044	44.908	49.776	165.348	0.00023573	0.00094887	0.00031766	590.59	1.1915e-06	5.4614e-06	817.49	119.62	1.5821e-05	4.5354e-06	217.36	68.893	31.124	11.574	7.9939e-06	31.055	0.00078042	0.00092501	0.00024181	623.69	8.7153e-06	1.0258e-05	834.98	140.88	8.8041e-06	1.0181e-05	244.09	77.022	61.645	16.209	9.0512e-06	33.844	291.002	184.954	-13.261	-41.068	255.831	61.635	-41.128	-34.894	180.547	167.980	-35.170	-29.567	-26.978	-24.460	242.389	-25.179	-8191	255	
3025.677	1	1	0	0	0.13518	0.026508	0.15225	0.2393	0.28238	0.23231	0.33514	0.057912	0.061673	0.080036	0.09301	0.26904	0.19261	0.18415	0.085892	0.27158	-2.2292	-2.0792	-2.2812	-2.4958	-1.8396	-2.5083	-2.2375	-2.0479	-2.5604	-1.9125	-2.3208	-2.5104	-1.8854	-2.5792	-2.4	-2.1208	142.810	254.136	277.735	287.626	193.069	178.759	290.680	178.428	284.041	24.454	86.799	-18.205	275.376	302.259	-21.868	302.653	0.00028292	0.00051076	0.00033793	600.81	8.1956e-06	4.6239e-06	832.14	120.62	1.7326e-05	1.2875e-05	214.59	68.326	32.142	11.776	4.11e-06	31.121	0.0008179	0.00091725	0.00022642	632.04	9.1366e-06	9.9571e-06	843.7	139.94	9.3351e-06	9.8636e-06	240.96	76.578	63.771	16.068	8.5897e-06	33.772	277.252	27.118	306.824	-41.472	302.067	140.089	-41.250	-35.032	199.953	-0.392	-35.554	-29.173	-27.812	-24.089	100.769	-25.184	-8191	255	
3025.797	1	1	0	0	0.061563	0.080474	0.12573	0.11079	0.31412	0.12682	0.16003	0.19864	0.29391	0.20998	0.11478	0.43055	0.11646	0.21702	0.10223	0.24277	-2.3333	-2.0583	-2.2146	-2.6667	-2.2188	-2.7438	-2.5479	-1.8729	-2.7292	-2.0958	-2.2375	-2.6042	-1.7292	-2.5208	-2.3375	-1.9229	280.539	-47.315	115.263	117.264	41.569	71.769	-23.690	147.523	148.088	70.002	-36.888	171.667	71.857	288.370	-44.138	144.779	0.00031089	0.00036348	6.2616e-05	599.4	6.2223e-06	6.8416e-06	831.22	120.48	6.0525e-06	5.3894e-06	213.69	68.866	32.016	11.863	1.1358e-05	30.809	0.00085823	0.0008646	0.00021399	624.94	9.5767e-06	9.2964e-06	836.77	139.81	9.7092e-06	9.298e-06	238.66	76.896	65.866	15.758	8.3236e-06	34.054	237.249	278.061	202.727	-41.097	209.556	86.304	-41.398	-34.578	170.476	254.429	-35.393	-29.322	-28.096	-24.856	88.022	-25.269	-8191	255	
3025.892	1	1	0	0	0.31235	0.20759	0.060264	0.20555	0.27419	0.18733	0.032164	0.37638	0.15732	0.11141	0.12715	0.10533	0.12637	0.041702	0.20509	0.070216	-2.3625	-2.3667	-2.1729	-2.7812	-1.9833	-2.5479	-2.7042	-2.0229	-2.8708	-2.2042	-2.1396	-2.875	-1.8146	-2.2104	-2.6417	-1.9396	304.842	62.784	-14.417	-46.889	20.334	154.442	179.935	42.433	226.713	-13.842	98.712	111.564	132.136	258.766	64.508	153.211	0.00020055	0.00092391	0.0003088	597.17	4.4321e-06	6.2684e-06	824.76	120.05	4.4951e-06	1.2091e-05	218.74	68.886	33.257	11.653	3.5403e-06	31.045	0.00088197	0.00081982	0.00020613	627.5	9.7516e-06	8.7554e-06	830.73	141.45	9.754e-06	8.8063e-06	239.88	78.43	66.545	15.517	8.2739e-06	34.725	235.242	17.218	-30.574	-41.190	129.724	84.453	-41.069	-34.757	110.560	-19.624	-35.151	-29.568	-27.986	-24.342	244.332	-24.964	-8191	255	
3025.963	1	1	0	0	0.10385	0.20603	0.033135	0.16599	0.15757	0.15926	0.14072	0.073357	0.29527	0.099498	0.16449	0.15103	0.25992	0.25601	0.16052	0.16815	-2.1896	-2.1813	-1.9771	-2.7229	-2.1146	-2.3667	-2.6271	-1.8854	-2.6646	-2.3771	-2.2146	-2.6354	-2.0125	-2.4708	-2.6083	-1.7604	-21.580	-39.834	249.035	227.647	4.868	274.498	260.984	-25.790	98.096	54.630	237.402	131.851	129.788	246.986	122.504	247.956	3.6594e-05	0.00027491	0.00026016	630.73	3.5293e-06	7.1326e-06	870.06	123.29	1.2413e-06	8.4852e-06	222.18	69.446	33.508	11.968	6.5231e-06	31.234	0.00089097	0.00080793	0.00020914	670.33	9.9045e-06	8.7389e-06	872.11	148.92	9.6888e-06	8.7247e-06	243.38	80.405	66.238	15.564	8.3329e-06	35.414	29.753	130.392	-36.773	-41.508	22.005	-32.487	-41.342	-34.785	110.060	59.647	-35.285	-29.893	-28.391	-23.650	145.953	-25.020	-8191	255	
3026.061	1	1	0	0	0.17178	0.055866	0.20143	0.15145	0.10171	0.02581	0.021504	0.1288	0.11106	0.26597	0.31649	0.23321	0.18528	0.30904	0.097233	0.16049	-2.1729	-2.3063	-2.0917	-2.7979	-1.9396	-2.1646	-2.8417	-1.8979	-2.5563	-2.3292	-2.125	-2.7708	-2.2854	-2.2521	-2.6792	-1.9625	217.558	157.363	252.591	35.711	113.879	272.555	87.243	-23.439	34.963	36.191	280.735	226.065	142.267	257.504	101.295	260.959	7.3564e-05	0.00088531	0.00027411	664.78	3.9506e-06	8.3861e-06	889.1	127.12	4.29e-06	1.1573e-05	222.64	69.652	33.944	12.215	5.9058e-06	31.988	0.00085777	0.00079204	0.00021241	703.5	9.4393e-06	8.5287e-06	893.23	153.14	9.2446e-06	8.5098e-06	246.77	81.505	64.458	15.68	8.7032e-06	36.13	99.783	51.704	87.151	-41.516	305.578	67.223	-41.465	-35.099	58.646	33.360	-35.703	-29.784	-28.313	-24.886	234.251	-25.377	-8191	255	
3026.180	1	1	0	0	0.33145	0.27223	0.3412	0.074396	0.22278	0.19539	0.23646	0.15266	0.16196	0.097347	0.15641	0.18105	0.14566	0.09402	0.068593	0.19083	-1.9146	-2.4604	-1.9042	-2.5417	-2.1562	-2.0333	-2.6708	-2.0271	-2.3	-2.6354	-1.9875	-2.6188	-2.3417	-1.9646	-2.7375	-2.1729	283.526	241.097	61.625	240.739	261.887	-11.836	-51.592	81.341	118.507	-38.570	249.364	106.707	-24.154	18.971	238.931	298.205	0.00017569	0.00051193	0.00029257	677.42	3.8539e-06	1.1891e-05	903.29	126.94	3.9312e-06	5.3795e-06	225.64	70.68	33.501	12.277	5.9534e-06	32.276	0.00081112	0.00076682	0.00022406	714.6	9.0401e-06	8.3279e-06	913.33	154.78	9.0645e-06	8.5103e-06	254.45	82.635	64.291	15.85	9.7125e-06	36.54	150.509	161.572	148.533	-41.661	-40.487	-25.485	-41.497	-34.890	63.829	2.548	-35.440	-29.712	-28.797	-24.111	195.070	-25.724	-8191	255	
3026.276	1	1	0	0	0.14093	0.25974	0.036452	0.078119	0.38167	0.06631	0.13362	0.23068	0.21287	0.17829	0.17628	0.023899	0.053148	0.11383	0.34201	0.20944	-2.0458	-2.6937	-2.0896	-2.7438	-2.2958	-2.1542	-2.8312	-2.0208	-2.2729	-2.7062	-2.0604	-2.5396	-2.2833	-1.9312	-2.5271	-2.2521	39.113	189.734	-8.492	163.274	-23.029	46.175	258.891	-11.616	303.936	279.684	243.190	250.313	179.040	-8.277	40.426	257.685	0.00015791	0.00043918	0.00024022	690.57	4.4081e-06	5.8893e-06	909.63	128.76	7.7548e-06	5.6424e-06	228.07	71.965	34.458	12.506	4.6568e-06	32.181	0.00082751	0.00078727	0.0002531	729.08	9.1131e-06	8.6059e-06	931.85	155.83	8.9788e-06	8.7218e-06	261.09	82.536	64.569	16.149	1.0495e-05	36.377	197.985	27.566	144.916	-41.944	70.154	277.486	-41.458	-35.210	228.122	-24.945	-35.352	-29.736	-27.795	-24.349	180.453	-25.468	-8191	255	
3026.372	1	1	0	0	0.097696	0.17816	0.24987	0.1957	0.15296	0.15322	0.18736	0.16477	0.15236	0.062305	0.4537	0.21236	0.32833	0.21528	0.094681	0.15006	-1.8062	-2.4354	-1.9396	-2.5375	-2.3333	-2.1562	-2.6896	-2.2562	-2.1875	-2.6667	-1.9667	-2.4313	-2.4354	-1.8479	-2.6458	-2.2667	239.575	146.246	266.043	232.148	200.783	32.122	225.417	299.984	82.539	262.407	204.938	285.500	91.870	244.662	184.309	186.140	0.00028605	0.000662	0.00013714	694.13	5.4874e-07	2.7192e-06	917.03	130.67	4.0123e-06	3.4609e-06	226.17	71.235	33.51	12.08	1.0466e-05	32.035	0.00082044	0.00083477	0.00027532	732.11	9.2022e-06	9.2213e-06	943.14	155.18	9.1783e-06	9.5708e-06	264.79	81.886	65.16	16.56	1.121e-05	36.202	214.381	193.279	120.623	-41.962	275.124	205.958	-41.553	-35.117	81.556	229.039	-34.824	-29.729	-28.084	-24.123	28.032	-25.435	-8191	255	
3026.468	1	1	0	0	0.098885	0.14263	0.068646	0.19364	0.25684	0.30534	0.16357	0.2821	0.1767	0.22127	0.23274	0.20566	0.14171	0.18078	0.19069	0.23017	-1.7354	-2.5896	-2.0333	-2.35	-2.4896	-1.8292	-2.8688	-2.3042	-2.0646	-2.7354	-1.7604	-2.3563	-2.3812	-2.0646	-2.5	-2.3417	70.752	44.514	70.660	302.768	302.372	-36.601	271.093	301.513	147.448	162.533	211.610	266.885	301.528	120.184	66.920	134.376	8.6449e-05	0.001967	0.00014371	703.88	1.633e-06	5.6079e-06	932.4	129.87	5.5587e-06	1.1051e-05	225.26	70.465	33.81	12.166	2.4208e-06	31.722	0.00083594	0.00092799	0.00028516	739.83	9.3934e-06	1.0319e-05	957.64	155.71	9.2491e-06	1.0542e-05	263.96	81.444	65.184	17.012	1.1017e-05	35.875	231.783	175.088	-48.482	-41.994	231.081	257.882	-41.812	-35.389	220.976	184.235	-35.351	-29.636	-29.164	-24.281	-42.772	-25.200	-8191	255	
3026.565	1	1	0	0	0.26479	0.031997	0.083697	0.25179	0.21779	0.054149	0.21414	0.073242	0.022748	0.20817	0.17817	0.11122	0.099956	0.20576	0.036721	0.064901	-1.675	-2.7708	-2.1958	-2.3812	-2.7	-2.0271	-2.6063	-2.2625	-1.975	-2.7687	-2.1896	-2.2562	-2.6771	-1.8813	-2.5438	-2.4167	178.724	57.135	175.442	-45.526	260.036	108.256	213.590	266.292	40.011	106.338	193.751	11.766	89.143	-28.699	303.202	56.625	0.00020634	0.00046709	0.00016403	717.78	6.8322e-06	7.142e-06	945.52	130.49	7.2902e-06	9.1116e-07	226.16	69.891	33.919	12.042	3.4998e-06	31.851	0.00083652	0.00099868	0.00027936	749.2	9.4607e-06	1.1065e-05	963.63	155.68	9.4255e-06	1.1225e-05	262.65	80.811	66.061	17.382	1.0343e-05	35.703	271.570	157.204	-51.235	-42.195	196.985	136.902	-41.841	-35.291	243.724	305.733	-35.113	-29.517	-25.890	-24.992	-7.140	-25.453	-8191	255	
3026.661	1	1	0	0	0.022164	0.023388	0.094534	0.18255	0.045397	0.20487	0.14632	0.19648	0.26671	0.20654	0.18231	0.24117	0.1179	0.031113	0.064965	0.23531	-1.5021	-2.4979	-2.05	-2.0812	-2.6312	-2.0583	-2.6729	-2.4958	-2.0208	-2.8063	-2.0292	-2.1479	-2.4688	-1.7583	-2.4021	-2.3854	179.216	118.699	283.072	157.719	236.706	190.624	273.384	-43.001	283.326	81.992	-34.556	-36.228	121.659	-53.205	213.367	-29.258	0.00039811	0.00042502	0.00030545	720.79	8.1602e-06	7.7277e-06	953.97	133.89	1.1935e-05	6.0299e-06	230.03	71.03	34.232	12.439	1.7599e-05	32.192	0.00085987	0.0010212	0.00026071	748.39	9.7468e-06	1.1285e-05	967.12	156.58	1.0077e-05	1.1437e-05	263.19	81.294	70.197	17.674	1.0221e-05	36.087	278.819	-22.611	-20.824	-42.324	255.654	41.157	-41.797	-35.604	176.421	9.888	-35.415	-29.837	-27.852	-24.480	-7.702	-25.546	-8191	255	
3026.781	1	1	0	0	0.12219	0.1966	0.10705	0.045664	0.34931	0.044349	0.29301	0.17098	0.18923	0.20999	0.26421	0.38676	0.22121	0.20426	0.076639	0.29807	-1.6458	-2.6354	-2.3083	-1.9875	-2.7396	-2.1021	-2.4813	-2.575	-1.9062	-2.5104	-2.2625	-2.0292	-2.8042	-2.0604	-2.2188	-2.6292	105.929	121.054	99.012	164.285	220.403	-35.081	222.315	1.951	200.983	-8.380	83.683	225.316	-21.970	33.365	148.619	2.444	0.0006008	0.00070535	0.00029242	737.51	1.1578e-05	6.9166e-06	969.86	134.6	1.0534e-05	1.1996e-05	232.05	72.005	34.207	12.488	7.5083e-06	32.32	0.00094762	0.0010376	0.00025778	767.64	1.0706e-05	1.1283e-05	981.95	158.6	1.0839e-05	1.106e-05	263.8	82.072	73.19	17.499	9.8465e-06	36.259	231.377	35.249	30.190	-42.139	303.510	135.654	-41.758	-35.218	262.782	14.236	-35.393	-30.048	-26.496	-24.369	240.599	-25.491	-8191	255	
3026.878	1	1	0	0	0.4459	0.084773	0.42361	0.077992	0.1217	0.1104	0.33217	0.26257	0.21685	0.13549	0.11377	0.19052	0.13215	0.12621	0.085492	0.21254	-1.6146	-2.5563	-2.3792	-2.1375	-2.6542	-2.2021	-2.325	-2.5833	-1.8896	-2.3292	-2.4833	-1.9146	-2.5667	-2.0938	-1.9417	-2.475	-43.602	201.341	170.198	193.160	111.477	126.338	279.177	127.605	-0.044	238.398	272.209	-33.018	-4.403	22.852	-44.812	179.981	0.00019808	0.00029517	0.0001903	745.93	2.4411e-06	3.5468e-06	965.56	135.05	1.8392e-05	9.7907e-06	233.21	70.613	34.749	12.515	6.8953e-06	32.223	0.0010015	0.00099092	0.00024961	769.09	1.1235e-05	1.0646e-05	974.72	159.58	1.1282e-05	1.0458e-05	261.71	81.697	73.766	16.987	9.245e-06	36.214	293.704	196.542	77.625	-42.459	10.947	13.158	-42.033	-35.327	161.357	52.696	-35.351	-29.404	-28.344	-24.148	-1.995	-25.765	-8191	255	
3026.972	1	1	0	0	0.1149	0.19733	0.041623	0.10708	0.1624	0.23309	0.19763	0.15574	0.22648	0.055123	0.18454	0.029337	0.13071	0.14005	0.21489	0.096934	-1.5271	-2.3646	-2.4667	-2.0104	-2.6021	-2.1417	-2.0938	-2.4771	-1.9937	-2.2438	-2.3667	-2	-2.5542	-2.3417	-2.1375	-2.7208	225.060	268.969	-12.942	59.385	150.289	122.945	277.087	230.911	-21.312	138.573	200.233	218.770	136.856	-11.387	262.160	46.189	0.00011091	0.00068543	2.7465e-05	733.66	3.5495e-06	1.2527e-05	961.92	133.34	5.2838e-06	1.0025e-05	234	71.002	36.093	12.471	4.3882e-06	32.223	0.0010011	0.0008984	0.00023243	766.35	1.0882e-05	9.7644e-06	962.9	159.63	1.0906e-05	9.6366e-06	257.91	82.697	72.23	16.686	9.0062e-06	36.821	-47.423	-17.698	279.552	-42.200	125.177	67.514	-42.159	-35.470	54.230	68.084	-35.457	-29.602	-28.793	-24.451	145.319	-25.441	-8191	255	
3027.068	1	1	0	0	0.065803	0.2701	0.11241	0.13479	0.07503	0.20918	0.29931	0.19679	0.067934	0.23805	0.21741	0.35987	0.22808	0.2012	0.12523	0.085427	-1.5354	-2.075	-2.4583	-2.0062	-2.3896	-2.2875	-2.1667	-2.625	-2.2875	-2.2188	-2.65	-1.9521	-2.6146	-2.425	-2.0146	-2.7396	257.044	118.179	134.508	220.284	100.427	31.752	37.143	37.211	155.454	78.094	264.972	249.183	-41.489	-35.729	-16.563	205.998	0.00019232	0.0012355	0.0002357	744.5	5.8074e-06	3.3181e-06	972.28	134.87	7.781e-06	1.2041e-05	233.98	70.74	34.525	12.345	8.0898e-06	32.207	0.000979	0.00087566	0.00023154	781.57	1.0665e-05	9.631e-06	972.33	163.7	1.0622e-05	9.5632e-06	259.46	84.343	70.756	16.54	9.2839e-06	37.229	284.996	-13.782	83.318	-42.360	90.385	-21.080	-41.920	-35.360	159.911	47.942	-35.540	-29.624	-29.148	-24.394	154.148	-25.255	-8191	255	
3027.189	1	1	0	0	0.25942	0.15421	0.02833	0.18602	0.13042	0.2668	0.22341	0.30852	0.16139	0.12261	0.14249	0.13003	0.044659	0.18297	0.1208	0.20706	-1.7146	-2.125	-2.575	-1.9792	-2.4917	-2.525	-2.0521	-2.8604	-1.9583	-2.0979	-2.7646	-2.0396	-2.2875	-2.6125	-2.0208	-2.7562	270.807	52.129	254.919	282.333	88.429	300.068	181.454	303.829	-38.846	-4.228	50.609	250.606	14.078	-29.857	262.627	177.560	0.00035379	0.00020405	0.0002428	753.42	8.7015e-06	1.07e-05	970.63	136.06	1.7962e-05	6.8336e-06	230.19	71.299	35.51	12.256	1.0914e-05	32.566	0.00093587	0.00085422	0.00023678	795.12	1.0118e-05	9.2771e-06	974.97	164.64	9.9356e-06	9.1061e-06	260.58	84.41	67.468	16.263	9.594e-06	37.26	156.712	-31.012	113.844	-41.879	39.374	212.673	-41.852	-35.539	64.433	19.862	-35.556	-29.627	-29.798	-24.766	158.273	-25.693	-8191	255	
3027.260	1	1	0	0	0.29182	0.11744	0.15126	0.092508	0.21582	0.052899	0.18966	0.17085	0.094668	0.12991	0.01649	0.30704	0.074986	0.14238	0.042124	0.12033	-1.7188	-2.0604	-2.5667	-2.0854	-2.4417	-2.5958	-2.1729	-2.7875	-2.1396	-2.0521	-2.5396	-2.1063	-2.1354	-2.5458	-1.7896	-2.6083	39.826	299.875	87.709	-2.049	151.194	291.147	149.349	246.139	56.193	64.493	-17.675	281.478	164.201	302.271	86.573	214.751	8.5364e-05	0.00039238	0.00029692	737.69	4.1856e-06	4.7396e-06	956.94	135.86	1.0039e-05	7.0859e-06	232.32	71.474	34.701	12.319	2.7982e-06	32.332	0.00087046	0.00081082	0.00024927	778.47	9.488e-06	8.9481e-06	969.11	163.42	9.4938e-06	8.7795e-06	264.45	83.638	65.916	16.129	1.0289e-05	36.597	32.230	15.969	134.099	-42.009	50.468	186.378	-41.735	-35.430	206.572	181.445	-35.732	-30.288	-29.391	-24.136	182.359	-25.639	-8191	255	
3027.357	1	1	0	0	0.27243	0.049858	0.15944	0.25439	0.17873	0.34217	0.17307	0.15209	0.17217	0.19554	0.24519	0.15704	0.07504	0.064884	0.27088	0.19417	-1.7125	-2.0854	-2.5354	-2.0167	-2.15	-2.6125	-1.9979	-2.5333	-2.4562	-2.2167	-2.4917	-2.0917	-2.2104	-2.675	-1.9958	-2.4875	41.365	282.208	-28.193	-35.271	271.994	105.629	274.019	214.549	201.678	282.879	280.973	-1.398	291.959	295.460	91.941	255.117	0.00010013	0.00038478	0.00019384	750.18	5.8619e-06	5.2597e-06	974.98	137.13	7.409e-06	1.7524e-06	233.26	70.621	34.411	12.167	6.1931e-06	31.927	0.00084484	0.00080204	0.00026446	786.6	9.1871e-06	8.8829e-06	989.28	162.11	9.1726e-06	8.8628e-06	266.9	81.956	64.549	16.083	1.0712e-05	35.924	-2.427	83.847	145.994	-42.051	81.520	219.362	-41.759	-35.731	114.972	147.209	-35.343	-29.981	-28.199	-24.566	211.030	-25.755	-8191	255	
3027.477	1	1	0	0	0.22791	0.20913	0.23934	0.31468	0.13646	0.30745	0.25237	0.16163	0.059736	0.04738	0.47703	0.19799	0.10903	0.09374	0.08899	0.12279	-1.8979	-1.8417	-2.6896	-2.1604	-2.0125	-2.5521	-1.975	-2.4667	-2.4521	-1.8854	-2.7542	-2.2771	-2.0062	-2.5875	-1.8771	-2.4521	118.890	4.170	43.409	-33.636	202.027	175.945	213.660	303.224	195.567	187.822	250.197	302.759	59.247	179.329	-12.874	289.766	7.3256e-05	0.00039471	0.00015959	760.41	6.2157e-06	3.7171e-06	976.65	138.4	1.2475e-06	5.606e-06	234.82	70.648	35.231	12.403	8.9891e-06	31.946	0.00082724	0.00084034	0.00027595	789.57	9.0369e-06	9.4268e-06	998.13	161.35	9.0797e-06	9.5187e-06	269.12	81.414	64.008	16.578	1.0801e-05	35.846	213.018	229.626	231.260	-42.163	-14.768	-9.451	-42.030	-35.903	134.447	182.398	-36.074	-29.883	-30.060	-23.589	58.994	-25.594	-8191	255	
3027.573	1	1	0	0	0.14376	0.1257	0.072262	0.1903	0.12313	0.043007	0.095719	0.12548	0.21159	0.11813	0.12869	0.22707	0.20704	0.1448	0.23097	0.053331	-2.0333	-1.85	-2.5375	-2.3604	-1.9417	-2.575	-2.0667	-2.3521	-2.425	-1.9083	-2.8542	-2.4646	-2.0292	-2.5438	-2.0167	-2.1604	295.498	94.056	141.763	273.555	32.267	142.108	10.868	67.695	9.087	2.778	265.819	85.650	85.903	103.858	82.595	64.404	0.00014682	0.00042721	0.00012858	766.1	1.0242e-05	9.7047e-06	991.93	139.75	1.3449e-06	1.2848e-05	236.92	72.047	34.728	12.489	8.3914e-07	32.627	0.00080165	0.00090022	0.00027041	790.57	8.7912e-06	1.0062e-05	999.8	161.27	8.801e-06	1.0132e-05	268.53	81.371	63.297	17.035	1.0243e-05	35.875	241.569	161.984	293.093	-42.076	120.720	214.854	-41.724	-35.507	25.356	172.803	-35.889	-29.525	-29.535	-24.201	184.517	-25.220	-8191	255	
3027.669	1	1	0	0	0.24315	0.18846	0.059677	0.17472	0.18113	0.1351	0.31219	0.073455	0.25191	0.089132	0.11056	0.097807	0.12285	0.28896	0.077724	0.18228	-2.2583	-1.7354	-2.4708	-2.5479	-1.9729	-2.5354	-2.3396	-2.2979	-2.5354	-1.8875	-2.6333	-2.3604	-1.9292	-2.6458	-2.3479	-2.1063	259.639	84.345	3.393	129.936	6.527	290.511	258.042	47.831	49.117	-50.959	259.219	-40.059	-30.053	-50.095	305.158	286.215	0.00018953	0.00026542	0.00020899	771.39	7.6045e-06	9.3878e-06	981.28	138.6	4.0965e-07	8.0174e-06	235.66	71.632	34.774	12.53	6.4115e-06	32.062	0.00079921	0.00095538	0.00025731	791.94	8.8661e-06	1.0593e-05	994.97	160.08	9.0511e-06	1.0637e-05	265.51	80.834	64.97	17.288	9.8341e-06	35.375	255.279	44.046	17.128	-41.887	253.478	283.760	-41.981	-35.363	16.022	215.418	-36.213	-29.641	-27.275	-24.717	-41.016	-25.836	-8191	255	
3027.764	1	1	0	0	0.24958	0.17562	0.18602	0.11236	0.083857	0.19369	0.13386	0.10779	0.065613	0.21385	0.11245	0.19484	0.060346	0.19422	0.16859	0.088942	-2.2333	-2.175	-2.3312	-2.5625	-1.8292	-2.8542	-2.1583	-2.1375	-2.8021	-2.1208	-2.4854	-2.5771	-1.9083	-2.5958	-2.1979	-2.2188	179.698	295.202	66.060	200.380	7.168	140.601	53.225	194.129	293.865	103.122	107.106	286.952	158.783	150.805	282.807	233.249	0.00039958	0.00073712	6.8229e-05	782.77	4.5467e-06	6.9035e-06	998.9	141.7	1.2699e-05	1.2332e-05	235.92	70.289	34.199	12.1	2.2549e-06	31.365	0.00084702	0.00099268	0.00024893	803	9.5456e-06	1.0835e-05	1003.9	162.36	9.7911e-06	1.0804e-05	264.57	79.958	68.543	16.974	9.5722e-06	34.808	250.784	103.780	4.723	-42.204	193.818	44.050	-41.524	-36.375	269.271	32.554	-36.301	-29.575	-27.981	-24.844	133.458	-25.213	-8191	255	
3027.862	1	1	0	0	0.18328	0.12794	0.19763	0.13857	0.18009	0.13208	0.11872	0.11589	0.32544	0.35499	0.17947	0.30288	0.18149	0.17652	0.10283	0.17427	-2.3563	-1.85	-2.3042	-2.6917	-1.9896	-2.7438	-2.5854	-2.2292	-2.6479	-2.1437	-2.4625	-2.5542	-1.8271	-2.5271	-2.3667	-2.0146	238.571	297.701	-8.113	134.731	151.671	56.645	45.993	183.748	32.511	106.746	20.529	211.546	96.367	209.276	82.164	249.288	0.00023878	0.00098972	0.00019239	799.04	4.8165e-06	1.3283e-05	1005.4	143.61	7.1968e-06	1.0233e-05	238.75	70.921	34.906	12.045	2.2794e-06	31.5	0.00091505	0.00097144	0.00024159	815.34	1.0317e-05	1.0534e-05	1009.8	163.76	1.0356e-05	1.0315e-05	264.38	79.979	70.949	16.697	9.2867e-06	34.849	234.829	83.496	235.424	-42.150	241.559	14.849	-41.794	-35.315	194.866	-11.496	-35.947	-29.311	-29.033	-24.460	154.839	-25.411	-8191	255	
3027.956	1	1	0	0	0.39048	0.021728	0.29822	0.26797	0.10732	0.24286	0.34466	0.10105	0.06216	0.33693	0.20065	0.20633	0.11686	0.089383	0.12493	0.36153	-2.2771	-2.1312	-2.2396	-2.7167	-1.7667	-2.2646	-2.5479	-1.9562	-2.7917	-2.1625	-2.0271	-2.6854	-2.0062	-2.4458	-2.4958	-1.8979	-7.085	-8.880	160.366	240.361	107.670	-51.102	190.958	85.730	-10.885	-7.317	253.732	15.253	217.509	214.838	241.889	207.339	0.00021312	0.0010051	0.00020282	794.84	9.9956e-06	1.2871e-05	995.71	142.48	1.1226e-05	8.1775e-06	239.48	70.655	35.601	12.271	3.2314e-06	31.516	0.00095332	0.00090775	0.00022991	812.17	1.0563e-05	9.7946e-06	996.22	163.61	1.0584e-05	9.669e-06	261.85	80.776	71.692	16.45	8.9812e-06	35.387	254.207	30.079	278.381	-41.818	184.153	18.513	-41.560	-35.949	-43.533	31.977	-35.968	-29.480	-29.857	-24.048	41.105	-25.429	-8191	255	
3028.052	1	1	0	0	0.2706	0.11522	0.52554	0.14001	0.070867	0.058223	0.14079	0.052745	0.23585	0.2956	0.22732	0.14552	0.27488	0.040311	0.22718	0.070733	-2.125	-2.3521	-2.0104	-2.8	-1.9979	-2.4083	-2.8937	-2.0021	-2.7146	-2.3271	-2.2458	-2.8958	-2.1125	-2.2604	-2.5604	-2.0271	267.027	293.322	20.401	46.563	196.169	-2.364	289.598	174.636	-6.767	-33.133	171.264	173.204	223.318	-2.521	229.868	-15.380	0.00012118	0.00052688	0.00012046	792.42	1.9816e-06	1.7869e-06	1000.4	142.31	5.8536e-06	6.9393e-06	240.68	70.87	35.818	12.125	1.4323e-06	31.905	0.00096306	0.00087311	0.00022382	818.95	1.0667e-05	9.4826e-06	997.1	167.19	1.0608e-05	9.5042e-06	262.63	82.966	71.78	16.42	9.0165e-06	36.546	130.027	62.407	267.686	-42.030	-4.927	166.060	-41.843	-35.351	164.880	5.797	-36.052	-29.519	-28.192	-24.443	221.876	-25.149	-8191	255	
3028.148	1	1	0	0	0.06812	0.10167	0.22609	0.39362	0.14578	0.052944	0.11867	0.32598	0.15807	0.16295	0.25205	0.21671	0.031869	0.1151	0.10022	0.26939	-2.2583	-2.2542	-1.9	-2.7771	-2.1104	-2.2042	-2.6479	-2.0479	-2.6167	-2.325	-1.9646	-2.7833	-2.0167	-2.2229	-2.6896	-1.8062	32.855	174.015	-14.885	214.161	133.745	46.042	292.446	290.571	-21.643	79.443	247.918	34.957	270.065	293.686	66.042	-22.643	0.00030119	0.00065428	3.4209e-05	803.44	1.8226e-06	3.9802e-06	1009.2	144.63	4.0174e-06	2.908e-06	240.67	70.804	35.535	12.391	5.6751e-06	31.607	0.00095068	0.00086806	0.0002283	837.45	1.0568e-05	9.4651e-06	1009.6	172.71	1.0413e-05	9.4537e-06	265.94	84.523	71.219	16.418	9.5149e-06	36.795	140.600	-31.609	-51.593	-42.104	137.894	-39.962	-41.662	-36.060	166.205	262.121	-36.208	-29.734	-29.321	-24.260	10.193	-25.323	-8191	255	
3028.269	1	1	0	0	0.25865	0.2918	0.09844	0.13851	0.057503	0.030477	0.13096	0.17355	0.21082	0.14262	0.15534	0.058516	0.2404	0.20893	0.3609	0.092678	-1.8729	-2.3	-1.7062	-2.7771	-2.0708	-2.1875	-2.6583	-1.925	-2.3438	-2.4125	-1.9292	-2.5062	-2.1583	-2.0854	-2.6208	-2.1229	-17.629	8.755	-23.938	258.983	152.406	-33.993	294.231	283.631	250.238	-26.297	9.735	236.933	-9.800	0.199	68.275	27.239	0.00038948	0.00099511	0.00026716	817.47	6.2792e-06	6.3932e-06	1015.2	148.09	1.4522e-05	3.8812e-06	242.5	70.804	36.033	12.119	1.6929e-05	31.454	0.00093135	0.0008657	0.00024472	854.17	1.018e-05	9.2869e-06	1023	176.29	9.8931e-06	9.2161e-06	270.17	84.203	68.677	16.105	9.8953e-06	36.535	60.615	19.993	96.170	-42.375	72.830	-19.960	-41.885	-36.289	28.131	112.889	-36.032	-29.359	-30.238	-24.646	195.304	-25.612	-8191	255	
3028.365	1	1	0	0	0.085369	0.099419	0.038501	0.061468	0.17394	0.22236	0.049002	0.16765	0.072207	0.13984	0.035793	0.029826	0.26547	0.079847	0.19904	0.050472	-1.8813	-2.5792	-1.8729	-2.5979	-2.1875	-2.2021	-2.9896	-1.9729	-2.2604	-2.7062	-1.8583	-2.5938	-2.3625	-2.0083	-2.6562	-2.0083	-39.676	240.067	61.717	68.255	141.530	-7.099	-53.754	205.496	35.181	207.624	66.440	209.990	-17.927	-18.086	99.677	254.709	0.00037933	0.00037806	0.00037317	814.44	6.6081e-06	2.6564e-06	1023.8	149.06	8.2995e-06	6.9536e-06	243.32	71.277	36.221	12.131	8.567e-06	31.763	0.00087243	0.00082378	0.00025596	853.19	9.6039e-06	8.9456e-06	1032.1	174.75	9.4199e-06	8.8589e-06	273.39	82.921	66.515	15.924	1.0241e-05	35.942	293.013	103.868	129.339	-42.562	142.626	58.962	-41.545	-35.896	46.796	245.375	-36.395	-30.015	-29.190	-24.059	152.837	-25.447	-8191	255	
3028.461	1	1	0	0	0.16028	0.27932	0.30941	0.11459	0.11401	0.12534	0.45705	0.22436	0.065517	0.069831	0.03416	0.25339	0.16556	0.17821	0.16881	0.20556	-1.8396	-2.7042	-1.8167	-2.5875	-2.3396	-1.9208	-2.7854	-2.1396	-2.1813	-2.7458	-1.9625	-2.4479	-2.4979	-1.8813	-2.4271	-2.0958	204.945	0.729	114.113	205.980	-15.577	81.491	277.013	8.282	44.407	-41.548	221.290	-33.664	114.321	98.354	192.373	142.460	0.00010145	0.00052636	0.00016388	802.97	4.2913e-06	6.1931e-06	998.36	144.94	1.4962e-05	2.6012e-06	239.48	71.348	36.175	12.296	4.4864e-06	32.213	0.00081304	0.00079101	0.00026028	827.52	8.8853e-06	8.5832e-06	1009.2	167.41	8.747e-06	8.753e-06	271.02	81.412	63.54	16.087	1.0258e-05	35.734	-46.318	165.050	64.464	-42.244	36.988	161.163	-41.347	-36.098	68.932	146.241	-36.195	-29.612	-28.882	-24.068	81.597	-25.369	-8191	255	
3028.558	1	1	0	0	0.048425	0.055245	0.15366	0.24414	0.24374	0.081681	0.36904	0.12607	0.037598	0.20867	0.014752	0.3577	0.30009	0.091452	0.19185	0.30155	-1.5896	-2.6104	-2.0646	-2.4917	-2.5375	-1.9792	-2.9354	-1.9792	-2.0625	-2.6312	-1.9833	-2.4708	-2.5792	-2.0312	-2.6646	-2.1833	130.702	219.828	98.236	286.928	155.851	234.228	-46.591	287.782	211.809	-0.154	195.722	1.584	-10.058	241.950	107.638	242.544	7.444e-05	0.00061956	5.6189e-05	792.22	6.1369e-06	1.586e-05	993.38	143.56	7.9353e-06	1.1975e-05	239.44	72.158	35.597	12.422	1.4042e-05	32.373	0.00076637	0.00081269	0.00026199	812.19	8.5695e-06	9.1158e-06	1007.2	165.85	8.4735e-06	9.2749e-06	271.54	81.222	63.049	16.565	1.0225e-05	35.609	250.638	201.318	266.274	-42.320	117.923	200.738	-41.441	-36.089	-51.465	183.730	-36.178	-30.083	-28.009	-24.349	3.322	-25.229	-8191	255	
3028.654	1	1	0	0	0.15241	0.11584	0.23127	0.2523	0.14863	0.20794	0.22179	0.13654	0.23966	0.17903	0.1332	0.12173	0.059298	0.0575	0.24263	0.24054	-1.6167	-2.5208	-2.1396	-2.4479	-2.5333	-1.8833	-2.6708	-2.3125	-2.05	-2.7292	-1.9875	-2.2604	-2.425	-1.9188	-2.5708	-2.2875	290.785	175.504	208.090	-13.376	135.901	224.227	222.975	6.347	91.560	7.819	284.953	40.138	39.691	41.939	233.597	223.641	0.00010637	0.00025493	0.00019397	797.49	3.5764e-06	9.886e-06	996.99	144.19	3.6768e-06	6.2243e-06	240.58	71.547	36.055	12.425	7.7634e-06	32.233	0.00076262	0.00088296	0.000259	813.77	8.3724e-06	9.6998e-06	999.17	163.94	8.2995e-06	9.741e-06	268.04	80.209	62.836	16.845	9.5886e-06	35.23	238.997	7.065	-38.004	-42.212	211.683	216.956	-41.662	-35.823	26.179	224.086	-35.614	-29.440	-29.289	-23.791	92.614	-25.335	-8191	255	
3028.750	1	1	0	0	0.26622	0.29567	0.18969	0.3038	0.27682	0.080437	0.2615	0.29178	0.10318	0.13634	0.22466	0.32478	0.1281	0.13202	0.2023	0.16873	-1.8	-2.6688	-1.9458	-2.2687	-2.7167	-1.975	-2.5292	-2.5208	-2.0604	-2.7542	-2.2438	-2.1312	-2.6604	-2.0062	-2.5625	-2.5687	-7.304	18.715	257.623	-1.911	263.876	95.905	199.351	116.992	257.227	195.974	-5.110	112.831	193.462	150.236	-15.823	157.384	0.00034814	0.00085041	0.00016541	799.11	1.0437e-05	5.1673e-06	993.87	145.99	9.3849e-06	6.8871e-06	240.24	71.935	35.49	12.567	6.2532e-06	32.053	0.00075996	0.00092019	0.00024305	811.1	8.6773e-06	1.0138e-05	998.07	164.17	8.6979e-06	1.022e-05	266.18	79.985	65.221	17.114	9.2441e-06	35.255	186.468	116.810	9.575	-42.131	223.594	-44.615	-41.960	-36.236	197.816	66.181	-35.510	-29.712	-28.399	-24.686	72.701	-25.379	-8191	255	
3028.871	1	1	0	0	0.26227	0.17985	0.082385	0.14166	0.13218	0.15683	0.19524	0.13635	0.24014	0.32263	0.23755	0.096277	0.16177	0.15592	0.24117	0.10256	-1.6854	-2.5833	-2.2021	-2.1792	-2.8104	-1.9896	-2.5458	-2.6396	-1.9854	-2.6729	-2.3312	-2.1521	-2.7458	-2.0812	-2.4521	-2.7625	200.419	262.978	168.219	-49.315	50.271	234.898	292.561	-38.720	92.042	-23.507	232.063	-6.329	167.830	-18.435	269.175	252.742	0.00039127	0.0014882	0.000119	800.33	1.0628e-05	6.6289e-06	1008.5	147.27	1.2207e-05	8.6853e-06	243.04	72.149	35.876	12.658	1.3049e-07	32.583	0.00082284	0.00094711	0.00023602	815.55	9.3888e-06	1.0338e-05	1006.2	166.6	9.6431e-06	1.046e-05	269.67	81.136	69.925	17.348	9.356e-06	35.651	209.024	0.743	-17.876	-42.352	285.516	298.539	-41.817	-36.014	249.506	87.324	-35.879	-29.725	-27.940	-24.891	292.566	-25.410	-8191	255	
3028.965	1	1	0	0	0.16927	0.1991	0.16592	0.10541	0.398	0.17991	0.30452	0.16482	0.067441	0.13839	0.12073	0.32213	0.17527	0.25846	0.1858	0.34253	-1.4688	-2.5104	-2.4125	-1.9833	-2.7833	-2.1125	-2.3542	-2.7771	-1.7938	-2.6188	-2.3229	-1.9708	-2.7271	-2.0312	-2.0479	-2.7792	63.880	17.103	28.507	-34.425	277.275	-19.443	271.053	289.159	113.530	288.869	7.160	230.465	285.295	246.241	247.346	149.270	0.00035249	0.00015312	0.00024941	806.21	5.9639e-06	6.2654e-06	1004.2	146.6	5.3181e-06	1.3418e-05	241.91	72.63	35.809	12.747	3.172e-06	32.962	0.00091768	0.00094291	0.00023597	822.29	1.0226e-05	1.0131e-05	1001	165.61	1.0189e-05	9.8741e-06	265.72	81.332	70.833	16.962	8.795e-06	35.975	224.063	71.223	15.639	-42.375	259.388	21.076	-41.726	-35.850	145.629	-24.228	-35.630	-29.242	-27.035	-24.535	40.755	-25.448	-8191	255	
3029.061	1	1	0	0	0.18241	0.069778	0.31875	0.13089	0.01032	0.072358	0.065696	0.19403	0.23721	0.14505	0.03967	0.13215	0.27662	0.014021	0.12016	0.16148	-1.5292	-2.575	-2.3646	-2.0396	-2.6333	-2.0833	-2.3083	-2.8896	-1.9979	-2.4583	-2.4062	-2.0563	-2.6688	-2.2542	-2.0563	-2.6896	189.489	-36.540	16.876	38.547	135.812	-31.069	-45.771	175.694	27.781	284.006	233.906	102.731	274.955	226.326	-28.051	17.554	9.178e-05	0.00042694	0.00021028	790.07	3.7305e-06	1.015e-05	981.52	143.76	6.1812e-06	1.8038e-05	239.19	72.77	35.762	12.867	8.7467e-06	32.475	0.00093016	0.00087302	0.00022443	807.71	1.044e-05	9.5069e-06	979.25	164.91	1.05e-05	9.3753e-06	261.52	82.202	71.109	16.778	8.5001e-06	36.371	168.980	47.213	-19.561	-42.071	-36.626	51.680	-41.736	-35.694	91.190	39.295	-35.593	-30.299	-27.854	-24.463	277.225	-25.059	-8191	255	
3029.133	1	1	0	0	0.23163	0.11413	0.18642	0.22286	0.22577	0.29238	0.33911	0.22788	0.20272	0.10963	0.29757	0.16384	0.059049	0.19904	0.1459	0.25805	-1.575	-2.3583	-2.4917	-1.9583	-2.6229	-2.2417	-2.1188	-2.7125	-2.025	-2.2979	-2.7646	-1.9521	-2.5583	-2.4333	-2.1688	-2.7354	192.070	-48.782	30.599	-25.466	156.188	162.398	234.164	302.681	20.419	232.209	-24.908	78.603	71.001	259.675	169.963	290.991	0.00034222	0.00041397	1.8561e-05	782.76	4.8498e-06	9.6723e-06	992.87	145.9	1.2839e-05	7.0283e-06	247.41	73.182	38.535	12.779	8.9974e-06	32.125	0.00092555	0.00082171	0.00021714	809.35	1.0265e-05	9.235e-06	991.09	171.52	1.0515e-05	9.4285e-06	270.37	85.46	74.227	17.019	9.468e-06	37.463	291.195	15.557	202.664	-42.179	72.616	103.405	-41.552	-35.288	67.842	284.820	-35.438	-29.843	-29.334	-25.309	26.583	-25.948	-8191	255	
3029.253	1	1	0	0	0.20147	0.21339	0.30462	0.21303	0.17906	0.21789	0.1028	0.13236	0.14726	0.22734	0.18067	0.038219	0.18938	0.17355	0.18214	0.15388	-1.6562	-2.2708	-2.6896	-2.0042	-2.6646	-2.3542	-2.2562	-2.7562	-2.2438	-2.2375	-2.7625	-1.9479	-2.6125	-2.4625	-2.0021	-2.7687	247.018	88.471	83.374	276.878	155.648	17.836	206.534	249.528	144.826	221.192	162.695	68.651	-10.809	7.809	38.133	47.716	0.0002072	0.00050251	0.00019249	860.34	6.4162e-06	1.1682e-05	1064.7	160.26	7.6195e-06	7.7483e-06	256.08	74.05	37.648	12.784	7.4141e-06	32.675	0.0010171	0.00092712	0.00025082	899.21	1.12e-05	1.0251e-05	1068.1	189.54	1.1019e-05	9.8895e-06	282.91	88.078	73.972	17.112	9.9311e-06	38.01	-1.343	94.800	152.484	-42.114	170.134	53.534	-41.759	-36.434	79.828	126.466	-36.263	-30.171	-28.961	-24.549	224.476	-24.963	-8191	255	
3029.350	1	1	0	0	0.29751	0.18028	0.18738	0.25932	0.14422	0.14744	0.011532	0.10064	0.13794	0.30657	0.11836	0.31869	0.078847	0.096643	0.2887	0.21101	-1.7583	-2.1208	-2.7146	-1.9375	-2.3312	-2.5875	-2.1521	-2.5563	-2.2792	-2.1458	-2.6521	-2.3854	-2.2771	-2.5083	-1.8083	-2.7354	114.306	120.188	92.749	-54.352	281.585	275.427	-9.263	228.087	148.314	-0.324	25.685	108.986	3.108	101.950	165.878	95.325	0.00027858	0.00070909	4.0648e-05	855.66	2.881e-06	1.4086e-06	1057.9	159.25	9.4587e-06	1.015e-05	256.25	74.264	37.973	12.822	5.2354e-06	33.138	0.00094799	0.00087586	0.00025488	894.97	1.0234e-05	9.4578e-06	1064.3	187.88	1.0107e-05	9.2785e-06	284.92	87.799	70.915	16.96	1.0387e-05	38.073	272.657	49.656	148.535	-42.344	99.584	87.669	-41.917	-36.805	96.567	-36.589	-35.939	-29.844	-29.181	-24.875	266.125	-25.528	-8191	255	
3029.446	1	1	0	0	0.36027	0.12414	0.18131	0.12399	0.094238	0.0563	0.19019	0.22312	0.20312	0.10398	0.15619	0.11547	0.13237	0.074566	0.15748	0.11309	-1.8979	-2.1521	-2.4875	-2.2646	-2.3458	-2.6292	-2.25	-2.5479	-2.3146	-2.1083	-2.8354	-2.0167	-2.2646	-2.5604	-1.9854	-2.7542	-8.188	204.635	209.105	279.575	198.058	-11.186	244.154	59.706	220.344	-23.602	203.761	37.267	297.221	-8.856	299.110	72.860	0.00022205	0.00037984	0.00033987	854.6	1.1635e-05	2.8303e-06	1056.9	160.99	6.6103e-06	1.0308e-05	253.47	73.828	37.317	13.098	1.1577e-05	33.129	0.00089827	0.00085022	0.0002713	887.73	9.9746e-06	9.418e-06	1069.4	187	1.0017e-05	9.4145e-06	289.29	86.998	70.244	17.065	1.1147e-05	37.748	251.092	140.577	87.904	-42.154	118.637	177.237	-41.777	-36.658	45.499	148.015	-36.463	-29.884	-29.367	-23.695	273.699	-25.942	-8191	255	
3029.542	1	1	0	0	0.2152	0.11485	0.25997	0.084821	0.11254	0.05336	0.40028	0.13169	0.20671	0.17727	0.16003	0.12001	0.19978	0.29307	0.1779	0.28906	-1.9229	-1.9333	-2.5687	-2.3208	-2.3229	-2.525	-2.0375	-2.5354	-2.5042	-1.9875	-2.5354	-2.1479	-2.2542	-2.6562	-2.1646	-2.5354	146.870	288.953	-33.835	187.259	84.907	136.809	244.358	-27.966	68.637	257.075	0.877	297.983	274.363	237.054	105.570	-43.057	0.00026531	0.0014394	0.00032708	838.16	2.832e-06	5.0162e-06	1041	156.81	1.2981e-05	3.7826e-06	251.39	73.641	38.322	12.98	3.9366e-06	32.767	0.0008723	0.00084863	0.00028226	867.11	9.4217e-06	9.4142e-06	1060	181.04	9.4541e-06	9.5117e-06	287.75	84.987	68.234	17.256	1.1388e-05	36.951	261.087	182.711	154.228	-42.155	9.290	274.926	-41.730	-36.816	145.827	173.774	-35.836	-30.259	-29.387	-24.234	130.941	-25.773	-8191	255	
3029.662	1	1	0	0	0.1015	0.13514	0.43834	0.1176	0.169	0.043381	0.19607	0.34628	0.15084	0.12494	0.1444	0.13398	0.10831	0.19256	0.085576	0.21794	-2.1813	-1.7667	-2.7542	-2.4208	-2.2792	-2.7521	-2.0583	-2.4542	-2.6437	-2.0417	-2.5812	-2.2938	-1.9958	-2.925	-2.1625	-2.3021	56.746	168.173	43.683	264.695	-19.726	9.448	203.951	302.896	100.334	98.691	-48.460	255.599	195.829	196.898	242.433	301.737	0.00020291	0.00064512	5.5043e-05	852.67	9.5818e-06	2.032e-05	1061.2	162.27	1.2165e-05	1.2709e-05	259.24	74.793	38.551	12.975	3.0003e-06	33.162	0.00085471	0.00091035	0.00028868	879.12	9.4072e-06	1.0306e-05	1079.5	185.7	9.5043e-06	1.0424e-05	293.26	85.688	68.196	17.793	1.1037e-05	36.921	173.496	144.003	-10.538	-41.972	69.084	176.129	-41.576	-36.658	107.617	141.513	-36.657	-30.282	-29.340	-23.558	191.159	-25.625	-8191	255	
3029.734	1	1	0	0	0.33306	0.24229	0.18087	0.19481	0.13686	0.1278	0.1544	0.054326	0.11163	0.083546	0.25245	0.20279	0.084932	0.17234	0.10784	0.11673	-2.1625	-1.9854	-2.4854	-2.5125	-2.2021	-2.8479	-2.3312	-2.15	-2.8312	-1.8979	-2.5396	-2.3958	-2.0646	-2.8042	-2.3833	-2.2188	96.413	37.760	207.136	262.081	29.465	216.689	210.293	116.345	77.910	127.561	-1.845	267.737	247.044	12.051	275.482	279.606	0.00013039	0.00092848	0.00025465	850.7	5.6432e-06	3.7992e-06	1055.8	158.9	3.739e-06	1.9118e-05	255.97	74.797	37.999	13.325	1.0194e-05	33.288	0.00082864	0.0009683	0.00027518	869.04	9.1566e-06	1.0791e-05	1062.1	180.98	9.227e-06	1.0946e-05	286.99	84.883	68.124	18.205	1.0432e-05	36.852	208.068	201.707	-23.932	-42.108	197.288	157.396	-41.867	-36.836	251.414	201.716	-36.419	-30.050	-29.923	-24.793	47.294	-25.657	-8191	255	
3029.830	1	1	0	0	0.046301	0.12509	0.33987	0.082573	0.091051	0.17721	0.27855	0.16225	0.20845	0.21209	0.20983	0.21856	0.10338	0.12855	0.22584	0.15702	-2.1125	-2.1042	-2.4604	-2.525	-1.9813	-2.9292	-2.1646	-2.1896	-2.6417	-1.9875	-2.4792	-2.7271	-1.95	-2.75	-2.2333	-2.1937	147.557	-1.025	-51.695	16.395	-16.008	283.713	-45.022	-28.353	204.979	174.056	-53.182	-52.908	25.228	98.289	-4.978	11.746	0.00029419	0.00035167	0.00011249	851.39	9.6645e-06	4.0489e-06	1060.7	161.84	1.5618e-05	2.1417e-06	257.28	75.469	38.82	13.278	9.3889e-07	33.764	0.00085415	0.0010228	0.00026482	872.16	9.6183e-06	1.1465e-05	1070.2	183.42	1.0032e-05	1.1521e-05	288.05	85.136	71.906	18.395	1.0201e-05	36.94	259.959	-0.440	304.899	-42.148	228.770	2.750	-41.390	-36.742	165.962	-25.684	-36.208	-29.967	-28.377	-23.906	13.702	-25.779	-8191	255	
3029.951	1	1	0	0	0.25584	0.3667	0.068329	0.068768	0.13082	0.14427	0.073357	0.22395	0.1213	0.072125	0.17133	0.22057	0.26254	0.13126	0.079336	0.26681	-2.2625	-1.8771	-2.2917	-2.6083	-1.9104	-2.6542	-2.2729	-1.9729	-2.75	-2.1083	-2.3354	-2.7479	-1.9271	-2.8063	-2.3563	-2.2604	219.308	172.333	-49.702	274.440	-1.742	227.566	212.502	-48.878	53.915	76.772	-34.906	242.119	-22.083	261.093	150.284	-24.496	0.00014108	0.00082166	0.00013585	860.71	4.9154e-06	1.2215e-05	1062.9	164.76	9.2288e-06	9.6672e-06	260.14	75.353	37.541	13.207	5.2433e-06	32.697	0.00091885	0.0010281	0.0002518	875.85	1.0291e-05	1.115e-05	1067.7	183.28	1.0414e-05	1.0985e-05	285.25	84.55	74.401	18.079	9.7844e-06	36.345	303.473	-30.539	-15.608	-42.109	277.606	52.100	-41.582	-36.782	163.569	5.982	-36.242	-30.013	-28.225	-24.681	23.013	-25.660	-8191	255	
3030.045	1	1	0	0	0.035802	0.093424	0.032353	0.19211	0.11261	0.027913	0.19513	0.041404	0.17529	0.06259	0.18629	0.14958	0.26847	0.084333	0.1124	0.20222	-2.4562	-2.0604	-2.2625	-2.8021	-1.8208	-2.55	-2.5187	-2.05	-2.6958	-2.2896	-2.3417	-2.6896	-1.9771	-2.6437	-2.4125	-1.9917	159.370	95.867	43.401	303.117	58.348	153.336	-44.291	0.771	228.057	165.097	204.897	133.513	194.570	213.039	45.132	239.082	0.00018534	0.00019722	0.00035669	867.03	7.9127e-06	6.6408e-06	1070.8	163.62	1.8333e-05	9.0185e-06	258.08	75.062	38.68	13.044	4.8943e-06	32.653	0.00097683	0.00098498	0.00024539	879.37	1.0874e-05	1.0504e-05	1067.5	183.33	1.09e-05	1.0335e-05	282.11	84.545	75.537	17.512	9.3996e-06	36.458	257.044	300.185	46.936	-42.021	283.986	40.245	-41.627	-36.493	200.523	111.369	-36.703	-29.679	-27.807	-24.526	141.190	-25.687	-8191	255	
3030.141	1	1	0	0	0.10263	0.065878	0.1371	0.18022	0.057382	0.16032	0.084	0.24266	0.062763	0.24607	0.084579	0.19508	0.27272	0.074178	0.20872	0.13207	-2.4229	-2.2104	-2.0833	-2.8229	-2.0583	-2.3583	-2.7104	-2.0604	-2.6458	-2.2771	-2.2271	-2.7687	-2.0979	-2.4167	-2.5375	-2.0354	92.445	208.553	283.210	252.684	264.141	119.633	225.019	226.399	112.898	181.253	255.109	195.888	-10.296	-26.608	232.773	-47.604	1.2946e-05	0.00056201	0.00010274	865.54	8.2302e-06	7.7609e-06	1060.3	160.48	1.9175e-06	8.6777e-06	255.42	74.679	38.541	13.155	8.9663e-06	32.955	0.0010045	0.00093319	0.00023806	881.92	1.1225e-05	1.0072e-05	1058.6	183.72	1.1185e-05	1.004e-05	279.61	85.876	76.455	17.433	9.3403e-06	37.491	143.750	83.632	215.445	-41.895	211.641	41.943	-41.733	-36.360	-38.890	37.732	-36.580	-29.405	-29.991	-24.676	32.628	-25.552	-8191	255	
3030.262	1	1	0	0	0.007337	0.26111	0.25824	0.091662	0.085332	0.12251	0.22828	0.16964	0.1354	0.15899	0.22011	0.10075	0.15764	0.14532	0.044208	0.12974	-2.1917	-2.3208	-2.1833	-2.8542	-2.0625	-2.5625	-2.7833	-1.9542	-2.6479	-2.375	-2.1562	-2.6729	-2.2562	-2.2667	-2.6312	-2.1312	261.138	273.672	210.914	21.713	303.411	13.808	294.271	8.680	100.167	126.897	36.418	241.307	-52.928	138.540	127.422	-6.340	0.00019576	0.00142	0.00014421	854.53	1.3688e-05	4.2582e-06	1069.3	162.68	4.2918e-06	7.655e-06	262.43	75.295	39.955	13.167	6.2948e-06	33.239	0.0010099	0.00091025	0.00023534	888.57	1.1173e-05	9.8716e-06	1064.1	188.95	1.1061e-05	9.9628e-06	285.14	88.561	76.082	17.453	9.5652e-06	38.304	185.852	37.753	-36.021	-42.062	69.043	296.887	-41.713	-36.089	59.453	254.160	-36.321	-29.942	-30.618	-24.053	-53.620	-25.289	-8191	255	
3030.358	1	1	0	0	0.076677	0.12434	0.070278	0.12262	0.13028	0.28061	0.39753	0.19458	0.1717	0.11213	0.23719	0.12654	0.16479	0.22045	0.073129	0.16032	-2.1813	-2.3625	-1.8625	-2.5521	-2.1708	-2.2438	-2.8875	-2.0729	-2.6167	-2.6604	-2.0938	-2.6125	-2.2333	-2.2354	-2.7021	-1.8271	121.144	18.105	185.309	294.320	165.242	136.926	244.705	91.034	190.321	107.209	244.807	176.916	287.147	46.000	190.690	-26.761	0.00011317	0.00094029	0.00039116	889.14	1.075e-05	9.7255e-06	1111.3	175	1.6191e-05	2.8113e-06	273.01	76.826	41.604	13.146	1.9598e-05	32.477	0.00098709	0.00091508	0.00024913	928.86	1.1247e-05	1.0308e-05	1112.6	205.89	1.1497e-05	1.0607e-05	303.12	92.66	79.44	17.894	1.1117e-05	39.037	259.133	-51.178	161.017	-42.053	121.572	64.421	-41.651	-37.459	78.064	278.793	-36.604	-29.833	-30.150	-24.791	184.670	-25.603	-8191	255	
3030.430	1	1	0	0	0.075243	0.1147	0.24317	0.22125	0.18583	0.31027	0.30724	0.087705	0.054085	0.14303	0.44729	0.16192	0.085964	0.12874	0.069838	0.24594	-2.1063	-2.4938	-1.9875	-2.7292	-2.3417	-2.1042	-3.0229	-1.9375	-2.425	-2.5375	-1.9479	-2.6312	-2.2854	-1.9479	-2.8792	-2.1396	117.129	107.792	13.935	280.157	116.364	132.676	222.786	276.454	115.405	156.001	271.631	-51.361	80.923	133.805	-4.221	-9.449	0.00019079	0.00021488	0.00058244	904.11	5.5779e-06	8.9006e-06	1097.5	168.46	2.2115e-06	8.1423e-06	260.7	74.569	38.743	12.501	3.0199e-06	31.935	0.0010321	0.00097399	0.00028539	947.62	1.1137e-05	1.0278e-05	1111.9	199.18	1.0684e-05	9.995e-06	295.17	89.335	73.708	16.839	1.1143e-05	37.257	300.322	5.645	141.867	-42.048	48.036	54.868	-41.934	-36.901	-35.163	284.367	-36.063	-30.321	-29.748	-24.006	246.898	-25.286	-8191	255	
3030.551	1	1	0	0	0.021263	0.088947	0.16278	0.089918	0.12944	0.021448	0.11294	0.30486	0.26077	0.15666	0.083687	0.080022	0.17178	0.25271	0.053705	0.048496	-2.0062	-2.6292	-2.075	-2.6417	-2.2438	-2.1479	-2.7021	-2.125	-2.1604	-2.7125	-1.8458	-2.7188	-2.2979	-1.9375	-2.7146	-2.2542	235.084	91.605	52.205	300.617	235.916	251.640	-20.832	101.961	130.212	72.281	55.885	240.701	257.549	277.283	-5.907	46.888	0.00013473	0.0002368	0.00016946	828.02	6.4802e-06	1.167e-05	1003	150.39	1.3585e-05	1.1623e-05	243.93	74.134	38.405	13.04	6.6626e-07	32.853	0.00090991	0.00086078	0.00027671	861.67	9.7661e-06	9.0961e-06	1018.8	176.09	9.5636e-06	9.2862e-06	279.89	86.331	69.755	17.054	1.1342e-05	37.491	102.760	146.856	207.317	-42.057	73.896	160.030	-41.554	-35.867	89.551	103.277	-35.346	-29.837	-29.831	-24.580	216.568	-25.536	-8191	255	
3030.647	1	1	0	0	0.59257	0.30382	0.1884	0.35986	0.21663	0.10046	0.18597	0.1227	0.26464	0.077412	0.21465	0.026631	0.12749	0.044281	0.075605	0.062287	-1.7896	-2.6937	-1.8813	-2.5521	-2.3604	-1.9333	-2.7396	-2.2687	-2.1833	-2.775	-2.1021	-2.4542	-2.575	-1.9562	-2.5604	-2.2667	264.883	137.615	10.813	-36.118	-35.503	-34.530	141.874	252.304	-7.347	81.724	287.087	257.728	37.955	113.470	23.917	146.363	0.00035558	0.0013706	0.00018569	809.15	1.6902e-06	1.6295e-05	1003	149.93	5.3283e-06	1.1923e-05	246.35	74.479	38.191	12.781	8.6389e-06	32.545	0.00088426	0.00090242	0.00029745	842.92	1.0031e-05	1.0171e-05	1031.2	177.93	1.0234e-05	1.0841e-05	293.23	88.406	73.805	18.113	1.2998e-05	38.103	188.786	84.008	166.287	-42.290	138.470	194.628	-41.657	-35.787	81.145	155.790	-35.932	-30.141	-29.629	-24.354	199.047	-25.850	-8191	255	
3030.743	1	1	0	0	0.22932	0.25604	0.054076	0.11287	0.25002	0.17271	0.19943	0.15621	0.07666	0.14855	0.33126	0.1067	0.21363	0.28282	0.078091	0.22826	-1.7708	-2.7521	-2.1667	-2.4333	-2.5271	-1.7917	-2.8125	-2.2667	-2.0938	-2.7729	-2.2625	-2.2646	-2.5312	-1.8292	-2.7042	-2.4208	239.872	163.586	54.550	213.996	165.073	-7.367	230.337	278.265	-50.751	-29.022	268.312	210.675	-13.691	244.290	219.539	232.647	0.00023589	0.00074343	0.00019622	839.37	2.5125e-06	1.1089e-05	1037.8	157.1	1.196e-05	1.3859e-05	254.27	75.342	38.815	13.128	6.8097e-06	33.075	0.00096867	0.0010743	0.00033208	878.41	1.0863e-05	1.2007e-05	1074.6	186.46	1.0829e-05	1.249e-05	301.06	89.344	76.09	19.101	1.2991e-05	38.421	272.314	179.935	294.681	-42.408	-13.126	182.191	-41.496	-36.495	109.183	161.084	-36.098	-29.669	-29.043	-24.149	164.429	-25.252	-8191	255	
3030.837	1	1	0	0	0.12258	0.1718	0.27389	0.17676	0.17085	0.063414	0.12901	0.093045	0.17953	0.26058	0.21625	0.050976	0.031903	0.27437	0.17781	0.1637	-1.7729	-2.8229	-2.025	-2.4938	-2.6125	-1.925	-2.5604	-2.3708	-2.0875	-2.7146	-2.3604	-2.4021	-2.7167	-2.0062	-2.6021	-2.3417	227.985	-45.963	178.160	17.644	75.383	271.183	276.559	89.958	119.647	285.079	301.445	118.795	165.973	-13.580	19.414	284.156	4.2218e-05	0.00079031	4.5622e-05	845.15	1.3505e-06	8.5558e-06	1053.6	156.59	1.1427e-05	3.9441e-06	251.6	74.838	37.948	13.088	1.0779e-05	32.775	0.00099057	0.0011861	0.00032661	884.75	1.1125e-05	1.3089e-05	1079.8	186.15	1.1117e-05	1.3064e-05	294.25	87.673	75.562	19.145	1.1853e-05	37.546	133.029	163.112	2.659	-42.503	130.671	132.408	-41.691	-36.200	233.327	-49.877	-36.144	-29.462	-27.919	-24.376	6.700	-25.413	-8191	255	
3030.958	1	1	0	0	0.17372	0.25672	0.21966	0.30788	0.081345	0.18448	0.15889	0.23454	0.22862	0.33638	0.122	0.16914	0.17212	0.23877	0.30066	0.095236	-1.4917	-2.675	-2.2104	-2.3021	-2.6708	-2.0625	-2.5917	-2.5875	-1.8958	-2.5229	-2.4375	-2.1896	-2.8958	-2.0187	-2.3604	-2.4833	273.203	241.464	228.302	243.687	159.018	153.143	273.015	238.133	101.761	25.941	-50.843	-7.422	195.986	46.084	-18.778	147.116	0.00042622	0.00071924	0.0001577	829.99	9.3897e-06	4.9122e-06	1028.4	154.18	1.4743e-05	9.4907e-06	252.44	74.676	38.65	12.908	7.6098e-06	32.465	0.00098648	0.0011636	0.00029299	858.78	1.0981e-05	1.2588e-05	1045.9	179.64	1.1074e-05	1.2578e-05	288.07	86.114	77.142	18.83	1.1139e-05	36.976	221.255	125.582	90.368	-42.304	279.286	-50.931	-41.888	-35.918	243.154	103.014	-36.323	-30.016	-27.992	-25.241	69.891	-25.164	-8191	255	
3031.030	1	1	0	0	0.132	0.22124	0.2235	0.19686	0.25815	0.14728	0.14124	0.21605	0.071529	0.24797	0.14906	0.08113	0.16105	0.12285	0.15305	0.023758	-1.4125	-2.5708	-2.1292	-2.2417	-2.7167	-2.0521	-2.4354	-2.7062	-2.0708	-2.5771	-2.3521	-2.1771	-2.5521	-2.0146	-2.3979	-2.7646	-22.104	179.095	251.834	193.136	94.665	109.191	282.041	247.122	298.144	145.653	282.360	138.354	36.296	-41.933	-48.454	-50.764	0.00029304	0.00058575	6.4112e-05	839.25	8.1374e-06	4.6815e-06	1044.7	157.14	8.9455e-06	1.529e-05	253.59	74.901	38.726	13.069	3.0888e-06	32.569	0.0010392	0.001135	0.00028106	866.57	1.1765e-05	1.2164e-05	1055.3	181.27	1.1746e-05	1.1973e-05	287.6	86.039	79.908	18.469	1.0669e-05	36.971	244.580	8.228	256.585	-42.158	291.549	86.855	-41.847	-36.067	250.602	20.187	-35.680	-30.086	-28.454	-24.690	-48.755	-25.746	-8191	255	
3031.126	1	1	0	0	0.28259	0.16525	0.27149	0.1472	0.10363	0.099232	0.14068	0.048435	0.2438	0.20539	0.13001	0.18012	0.28254	0.083407	0.056499	0.061767	-1.6854	-2.5333	-2.3729	-2.0708	-2.6167	-1.9917	-2.4333	-2.6396	-2	-2.5104	-2.6042	-2.1667	-2.6688	-2.0417	-2.0854	-2.85	77.134	172.350	108.035	241.217	127.003	83.125	239.993	260.427	-36.963	30.593	232.903	-34.787	152.722	63.595	21.609	57.209	0.0004507	0.00073794	0.00017416	857.87	4.5274e-06	6.739e-06	1065.8	160.68	1.0493e-05	5.897e-06	256.84	74.757	37.797	12.921	5.6775e-06	32.49	0.0010986	0.0010768	0.00027288	888.07	1.2394e-05	1.175e-05	1075.2	186.37	1.2504e-05	1.1524e-05	289.99	87.492	82.766	18.259	1.0507e-05	37.667	294.538	-7.858	161.202	-42.287	58.854	91.388	-41.760	-36.273	273.857	106.113	-36.214	-29.943	-29.886	-24.498	83.090	-25.315	-8191	255	
3031.222	1	1	0	0	0.2964	0.34102	0.050569	0.18442	0.19718	0.21316	0.091831	0.14046	0.14737	0.23085	0.069396	0.13675	0.11846	0.32413	0.16356	0.20743	-1.4875	-2.3833	-2.5062	-2.0396	-2.4729	-2.1958	-2.3729	-2.8667	-2.125	-2.3896	-2.8187	-1.9771	-2.7729	-2.2875	-2.0667	-2.8104	121.108	159.632	126.002	253.795	302.984	95.585	105.341	279.691	51.987	98.198	225.945	250.359	9.771	123.161	290.876	280.745	0.00034506	0.0015212	0.00016663	856.47	4.3978e-06	5.9431e-06	1052.7	158.52	7.6837e-06	6.6326e-06	254.52	75.443	38.726	13.136	9.9986e-06	32.841	0.0011386	0.0010349	0.00026711	890.06	1.2441e-05	1.1077e-05	1058.9	186.08	1.2205e-05	1.077e-05	282.69	88.613	80.158	17.806	1.0113e-05	38.315	281.762	-10.221	251.929	-42.003	2.584	11.885	-41.733	-35.716	146.994	137.140	-36.019	-29.693	-27.676	-24.320	65.096	-25.239	-8191	255	
3031.342	1	1	0	0	0.17341	0.1342	0.054839	0.11576	0.17444	0.11356	0.4211	0.24852	0.22523	0.1298	0.16203	0.098224	0.065376	0.12203	0.072209	0.18637	-1.7	-2.3312	-2.675	-2.1229	-2.6021	-2.3854	-2.2896	-2.9167	-2.0083	-2.3063	-2.7583	-2.0333	-2.425	-2.4604	-2.1063	-2.7458	-28.052	142.846	267.933	188.316	239.677	89.788	280.772	178.007	300.591	174.716	269.070	250.933	74.316	-31.363	-36.894	298.536	0.00022006	0.00082357	7.2404e-05	838.61	1.622e-05	1.3957e-05	1041.8	156.44	5.7282e-06	4.3868e-06	253.13	73.825	39.127	12.903	1.5803e-05	32.762	0.0010891	0.00099193	0.00026145	885.63	1.2172e-05	1.1051e-05	1051.3	189.01	1.2161e-05	1.1015e-05	285.89	90.542	80.083	17.903	1.0662e-05	38.836	92.035	2.407	4.575	-42.297	124.379	49.930	-41.790	-35.996	150.368	51.548	-35.814	-30.159	-28.795	-25.012	201.249	-25.481	-8191	255	
3031.439	1	1	0	0	0.24059	0.064985	0.028932	0.27414	0.15919	0.31802	0.16245	0.042511	0.20472	0.15735	0.14108	0.10406	0.12443	0.2113	0.14342	0.037999	-1.9438	-2.1896	-2.6437	-2.1979	-2.5146	-2.5438	-2.1208	-2.7313	-2.15	-2.2146	-2.725	-1.8125	-2.5	-2.4917	-2.25	-2.6104	33.843	66.871	292.135	269.762	256.900	225.650	199.601	213.155	-31.976	-24.486	296.456	275.251	63.580	-47.092	222.348	-21.446	0.0001016	0.0013336	0.00029145	846.77	5.9763e-06	1.861e-06	1045.5	158.36	1.0911e-05	1.33e-06	256.53	74.976	37.788	12.787	1.673e-05	32.168	0.0010684	0.00097388	0.00027173	898.31	1.1621e-05	1.0768e-05	1062.2	191.97	1.1654e-05	1.0678e-05	291.68	91.45	78.079	17.564	1.1403e-05	38.692	279.894	49.069	98.610	-42.051	104.486	118.309	-41.792	-36.217	52.561	240.792	-36.051	-30.103	-27.760	-24.929	233.842	-25.721	-8191	255	
3031.535	1	1	0	0	0.1256	0.029828	0.1275	0.14159	0.063346	0.20491	0.3238	0.10577	0.37429	0.26243	0.23429	0.10954	0.24078	0.032117	0.14111	0.078826	-1.8062	-2.2	-2.9104	-2.3167	-2.5563	-2.5229	-2.1562	-2.8083	-2.3812	-2.1292	-2.9729	-2.1437	-2.4833	-2.6417	-1.9958	-2.7375	247.027	258.329	126.897	245.489	168.874	214.573	250.835	129.552	124.272	210.243	236.983	299.468	-6.647	117.417	150.495	41.698	5.9943e-05	0.00088574	0.00027991	853.89	1.5566e-05	8.9439e-06	1059.6	159.22	3.4387e-06	1.0394e-05	255.17	75.501	38.109	12.831	7.7475e-06	32.61	0.0010326	0.00096541	0.00029429	908.24	1.1224e-05	1.0543e-05	1080.5	192.75	1.1115e-05	1.0266e-05	295.71	90.811	75.413	17.543	1.202e-05	38.477	35.480	279.157	96.429	-42.492	74.299	-12.795	-41.482	-36.056	62.550	1.449	-35.890	-30.192	-28.407	-24.858	222.389	-25.504	-8191	255	
#DATA ENDS
