BOXY.EXE: ISS Imagent and Oximeter Data Acquisition Program Version 0.80
Ascii Record File

#ACQ INFORMATION
2  Detector Channels 
16  External MUX Channels 
1  Auxiliary Channels 
5000  Waveform (CCF) Frequency (Hz)
1  Waveforms Skipped 
30  Waveforms Averaged 
1  Cycles Averaged 
16  Acquisitions per Waveform 
10.0806  Updata Rate (Hz) 

#FILE INFORMATION
TRUE -- External MUX Channel results are PARSED.
FALSE -- AC DC and Phase are NOT grouped.
TRUE -- Companion Program Settings File CREATED.
FALSE -- AC data not excluded
FALSE -- DC data not excluded
FALSE -- Phase data not excluded
FALSE -- Auxillary Chn. data not excluded
Tab delimiters

#CALIBRATION STATE
TRUE -- Waveform Calibration Values APPLIED.


#AUX CALIBRATION VALUES
Val Type	aux-1	

Term	1.0000e+00	
Factor	0.0000e+00	


#WF CALIBRATION VALUES
A = Detector Channel
Val Type	A-AC1	A-AC2	A-AC3	A-AC4	A-AC5	A-AC6	A-AC7	A-AC8	A-AC9	A-AC10	A-AC11	A-AC12	A-AC13	A-AC14	A-AC15	A-AC16	A-DC1	A-DC2	A-DC3	A-DC4	A-DC5	A-DC6	A-DC7	A-DC8	A-DC9	A-DC10	A-DC11	A-DC12	A-DC13	A-DC14	A-DC15	A-DC16	A-Ph1	A-Ph2	A-Ph3	A-Ph4	A-Ph5	A-Ph6	A-Ph7	A-Ph8	A-Ph9	A-Ph10	A-Ph11	A-Ph12	A-Ph13	A-Ph14	A-Ph15	A-Ph16	

Term	0.00000e+00	0.00000e+00	0.00000e+00	0.00000e+00	0.00000e+00	0.00000e+00	0.00000e+00	0.00000e+00	0.00000e+00	0.00000e+00	0.00000e+00	0.00000e+00	0.00000e+00	0.00000e+00	0.00000e+00	0.00000e+00	0.00000e+00	0.00000e+00	0.00000e+00	0.00000e+00	0.00000e+00	0.00000e+00	0.00000e+00	0.00000e+00	0.00000e+00	0.00000e+00	0.00000e+00	0.00000e+00	0.00000e+00	0.00000e+00	0.00000e+00	0.00000e+00	0.00000e+00	0.00000e+00	0.00000e+00	0.00000e+00	0.00000e+00	0.00000e+00	0.00000e+00	0.00000e+00	0.00000e+00	0.00000e+00	0.00000e+00	0.00000e+00	0.00000e+00	0.00000e+00	0.00000e+00	0.00000e+00	
Factor	1.00000e+00	1.00000e+00	1.00000e+00	1.00000e+00	1.00000e+00	1.00000e+00	1.00000e+00	1.00000e+00	1.00000e+00	1.00000e+00	1.00000e+00	1.00000e+00	1.00000e+00	1.00000e+00	1.00000e+00	1.00000e+00	1.00000e+00	1.00000e+00	1.00000e+00	1.00000e+00	1.00000e+00	1.00000e+00	1.00000e+00	1.00000e+00	1.00000e+00	1.00000e+00	1.00000e+00	1.00000e+00	1.00000e+00	1.00000e+00	1.00000e+00	1.00000e+00	X	X	X	X	X	X	X	X	X	X	X	X	X	X	X	X	

B = Detector Channel
Val Type	B-AC1	B-AC2	B-AC3	B-AC4	B-AC5	B-AC6	B-AC7	B-AC8	B-AC9	B-AC10	B-AC11	B-AC12	B-AC13	B-AC14	B-AC15	B-AC16	B-DC1	B-DC2	B-DC3	B-DC4	B-DC5	B-DC6	B-DC7	B-DC8	B-DC9	B-DC10	B-DC11	B-DC12	B-DC13	B-DC14	B-DC15	B-DC16	B-Ph1	B-Ph2	B-Ph3	B-Ph4	B-Ph5	B-Ph6	B-Ph7	B-Ph8	B-Ph9	B-Ph10	B-Ph11	B-Ph12	B-Ph13	B-Ph14	B-Ph15	B-Ph16	

Term	0.00000e+00	0.00000e+00	0.00000e+00	0.00000e+00	0.00000e+00	0.00000e+00	0.00000e+00	0.00000e+00	0.00000e+00	0.00000e+00	0.00000e+00	0.00000e+00	0.00000e+00	0.00000e+00	0.00000e+00	0.00000e+00	0.00000e+00	0.00000e+00	0.00000e+00	0.00000e+00	0.00000e+00	0.00000e+00	0.00000e+00	0.00000e+00	0.00000e+00	0.00000e+00	0.00000e+00	0.00000e+00	0.00000e+00	0.00000e+00	0.00000e+00	0.00000e+00	-8.63402e+01	-1.28301e+02	-1.03800e+02	-1.75865e+02	-1.14073e+01	-9.31957e+01	-1.64450e+02	-1.61923e+02	-3.25388e+01	-6.50733e+01	-1.79394e+02	-1.69306e+02	-1.75795e+02	-1.70708e+02	-7.57699e+01	-1.59905e+02	
Factor	3.75157e-04	1.23413e-03	3.18699e-04	1.70450e-01	4.10421e-06	1.94945e-05	2.78808e-01	2.32519e-01	9.50602e-06	1.69483e-05	5.42727e+00	2.80746e-01	2.09241e-01	2.33913e-01	1.51734e-05	3.71430e-01	3.15923e-05	3.36516e-05	9.32732e-06	6.64208e-02	3.05018e-07	3.68882e-07	1.02746e-01	9.20121e-02	3.49895e-07	3.70854e-07	1.93302e+00	1.06642e-01	8.34840e-02	9.01328e-02	3.70025e-07	1.37825e-01	X	X	X	X	X	X	X	X	X	X	X	X	X	X	X	X	



#DISTANCE SETTINGS
A = Detector Channel
A-1	A-2	A-3	A-4	A-5	A-6	A-7	A-8	A-9	A-10	A-11	A-12	A-13	A-14	A-15	A-16	

1.0000e+01	1.0000e+01	1.0000e+01	1.4500e+00	1.0000e+01	1.0000e+01	1.5100e+00	1.9500e+00	1.0000e+01	1.0000e+01	2.0100e+00	2.5000e+00	2.4400e+00	2.9500e+00	1.0000e+01	3.0100e+00	

B = Detector Channel
B-1	B-2	B-3	B-4	B-5	B-6	B-7	B-8	B-9	B-10	B-11	B-12	B-13	B-14	B-15	B-16	

1.0000e+01	1.0000e+01	1.0000e+01	1.4500e+00	1.0000e+01	1.0000e+01	1.5100e+00	1.9500e+00	1.0000e+01	1.0000e+01	2.0100e+00	2.5000e+00	2.4400e+00	2.9500e+00	1.0000e+01	3.0100e+00	




#DATA BEGINS
time	group	step	mark	flag	A-AC1	A-AC2	A-AC3	A-AC4	A-AC5	A-AC6	A-AC7	A-AC8	A-AC9	A-AC10	A-AC11	A-AC12	A-AC13	A-AC14	A-AC15	A-AC16	A-DC1	A-DC2	A-DC3	A-DC4	A-DC5	A-DC6	A-DC7	A-DC8	A-DC9	A-DC10	A-DC11	A-DC12	A-DC13	A-DC14	A-DC15	A-DC16	A-Ph1	A-Ph2	A-Ph3	A-Ph4	A-Ph5	A-Ph6	A-Ph7	A-Ph8	A-Ph9	A-Ph10	A-Ph11	A-Ph12	A-Ph13	A-Ph14	A-Ph15	A-Ph16	B-AC1	B-AC2	B-AC3	B-AC4	B-AC5	B-AC6	B-AC7	B-AC8	B-AC9	B-AC10	B-AC11	B-AC12	B-AC13	B-AC14	B-AC15	B-AC16	B-DC1	B-DC2	B-DC3	B-DC4	B-DC5	B-DC6	B-DC7	B-DC8	B-DC9	B-DC10	B-DC11	B-DC12	B-DC13	B-DC14	B-DC15	B-DC16	B-Ph1	B-Ph2	B-Ph3	B-Ph4	B-Ph5	B-Ph6	B-Ph7	B-Ph8	B-Ph9	B-Ph10	B-Ph11	B-Ph12	B-Ph13	B-Ph14	B-Ph15	B-Ph16	aux-1	digaux	

1263.778	1	1	0	768	0.29196	0.041123	0.25662	0.42418	0.017441	0.27107	0.26827	0.15016	0.14114	0.09639	0.24099	0.061233	0.069952	0.07893	0.065587	0.011736	-1.7167	-2.6208	-2.5438	-2.3792	-2.8875	-2.3021	-2.6604	-2.975	-2.2792	-2.8104	-2.5958	-2.2313	-2.8417	-2.1813	-2.3875	-2.9625	30.682	94.302	166.891	265.393	93.996	163.047	210.057	-49.181	19.418	-53.212	246.550	243.535	-35.020	18.474	186.158	114.197	0.00024739	0.00034168	5.9306e-05	1168	2.0615e-06	2.5896e-05	1699.2	413.07	1.1074e-05	1.4989e-05	567.59	206.05	151.55	52.009	7.5941e-06	78.335	0.0049486	0.0052243	0.0014558	1170.7	4.7835e-05	5.7306e-05	1722.4	433.86	5.4576e-05	5.7658e-05	833.63	222.07	166.71	65.418	5.765e-05	96.816	215.537	-45.761	71.705	-53.655	259.644	84.141	-54.381	-48.531	232.675	88.909	-49.867	-46.961	-44.156	-38.851	113.278	-42.234	-8191	255	
1263.874	1	1	0	0	0.19466	0.12467	0.17947	0.18155	0.16949	0.048833	0.11007	0.35613	0.22751	0.17704	0.039119	0.15641	0.255	0.22241	0.06191	0.065184	-1.8479	-2.8792	-2.7875	-2.4729	-2.9146	-2.3083	-2.7792	-2.7458	-2.3521	-2.7229	-2.6875	-2.2604	-3.0812	-2.3667	-2.3771	-2.9083	-40.758	77.171	-25.272	-17.304	139.983	-40.397	-35.708	217.126	125.200	165.956	9.699	24.004	31.898	175.999	-7.353	209.685	0.00041085	0.00089521	0.00024473	1185.8	1.2767e-06	1.2997e-05	1720.7	419.76	7.6297e-06	1.1539e-05	576.75	205.88	153.61	52.851	1.6621e-05	77.493	0.0049614	0.0052825	0.0014565	1180.5	4.7966e-05	5.7469e-05	1731.5	436.69	5.4506e-05	5.7759e-05	835.05	221.59	166.99	65.788	5.7143e-05	96.282	279.062	84.450	7.740	-54.047	-48.182	-45.157	-54.755	-49.152	109.744	78.375	-51.026	-46.615	-44.277	-39.346	93.511	-42.365	-8191	255	
1263.970	1	1	0	0	0.16362	0.18912	0.11271	0.15434	0.09048	0.11857	0.11136	0.3799	0.046002	0.061167	0.11265	0.19008	0.064034	0.20077	0.13921	0.10164	-1.8708	-2.5604	-2.7604	-2.5229	-2.9104	-2.5271	-2.6188	-2.8729	-2.4208	-2.5771	-2.6125	-2.0896	-2.9021	-2.5583	-2.2938	-3.0125	59.218	-21.567	104.011	149.218	20.418	242.997	-36.464	269.855	121.727	253.454	51.278	127.184	-52.579	267.419	7.865	184.212	0.00018746	0.00094411	0.00044616	1172.6	2.7371e-06	4.22e-06	1717.1	417.02	5.5265e-06	7.7814e-06	574.2	203.64	152.46	52.259	1.9328e-05	75.644	0.0049345	0.0052451	0.0014468	1174.5	4.7818e-05	5.7091e-05	1722.3	432.89	5.4418e-05	5.7448e-05	826.24	219.89	165.46	65.039	5.7579e-05	95.196	149.041	-32.731	18.619	-53.669	-44.862	61.598	-54.941	-49.590	18.696	77.657	-50.747	-46.917	-44.493	-39.506	91.554	-41.796	-8191	255	
1264.066	1	1	0	0	0.17822	0.16322	0.23425	0.14741	0.30509	0.088723	0.32397	0.071138	0.098434	0.15243	0.21458	0.13768	0.065871	0.31504	0.071411	0.28123	-2.1104	-2.5417	-2.7771	-2.4729	-2.9646	-2.6521	-2.4396	-3.1917	-2.4042	-2.6917	-2.8708	-2.4437	-2.8583	-2.6104	-2.3167	-2.9313	165.691	237.116	170.619	255.866	-43.919	201.090	229.029	233.151	14.276	287.762	21.768	241.360	217.086	207.115	94.497	-42.964	0.00033389	0.00098429	0.000191	1155.9	4.8485e-06	1.8663e-05	1693.8	409.75	5.8917e-06	2.0164e-05	553.55	201.77	150.55	52.17	1.9942e-05	75.97	0.0049301	0.0052176	0.0014418	1161.1	4.7812e-05	5.7203e-05	1705.5	427.25	5.4724e-05	5.7658e-05	821.21	218.27	164.41	64.459	5.7653e-05	94.714	216.361	-4.120	95.905	-53.498	-56.890	54.114	-54.737	-49.187	232.227	105.268	-49.387	-46.440	-44.305	-39.480	104.159	-42.178	-8191	255	
1264.162	1	1	0	0	0.1957	0.3486	0.090274	0.20418	0.11324	0.073972	0.10961	0.13082	0.074981	0.2936	0.43107	0.25711	0.1119	0.088949	0.15892	0.17763	-2.0083	-2.2604	-2.9875	-2.4625	-2.5979	-2.8979	-2.4354	-3.0938	-2.3792	-2.5062	-2.9854	-2.2417	-2.8125	-2.7604	-2.2396	-3.0729	104.277	210.681	118.271	-13.210	203.226	129.530	237.560	281.283	249.201	258.848	-64.122	229.079	11.078	185.862	264.314	210.758	7.9882e-05	0.0015562	0.00042712	1157.6	2.2342e-06	1.3422e-05	1685.7	409.43	6.3379e-06	6.1253e-06	565.9	202.81	151.53	51.832	1.6863e-05	76.598	0.0049593	0.005254	0.0014382	1159.4	4.8018e-05	5.679e-05	1705.3	428.57	5.4234e-05	5.7344e-05	824.7	220.05	165.61	64.775	5.7173e-05	95.495	-23.919	-43.349	94.306	-53.731	58.478	179.043	-54.509	-49.102	-28.174	101.730	-50.861	-46.532	-44.389	-39.039	62.839	-42.271	-8191	255	
1264.258	1	1	0	0	0.20429	0.13385	0.091252	0.16157	0.26813	0.095411	0.2606	0.2089	0.082346	0.12766	0.1753	0.10461	0.13095	0.14752	0.13789	0.034951	-2.1688	-2.3312	-3.0333	-2.6688	-2.7833	-2.7271	-2.4854	-3.0229	-2.7771	-2.3854	-3.0271	-2.3563	-2.4896	-2.8667	-2.2583	-2.6854	32.761	140.395	-25.982	235.038	246.568	171.219	223.544	63.656	-59.611	250.911	202.593	154.008	25.998	-12.324	287.853	176.378	0.0003239	0.0011647	0.00018871	1156.7	5.057e-06	8.3908e-06	1682.7	409.54	6.209e-06	1.3196e-05	573.24	204.31	154.42	53.169	7.6407e-06	77.323	0.0049591	0.0052313	0.0014362	1164.4	4.7857e-05	5.7029e-05	1711.3	430.6	5.4575e-05	5.7299e-05	828.8	221.19	166.53	65.428	5.7123e-05	95.877	188.866	77.208	36.670	-53.232	290.545	235.769	-54.009	-48.717	203.899	79.825	-50.191	-46.784	-44.569	-39.320	121.542	-42.376	-8191	255	
1264.377	1	1	0	0	0.18351	0.23323	0.20804	0.10039	0.079843	0.028973	0.28327	0.28075	0.16483	0.36657	0.070988	0.14857	0.058433	0.069738	0.18375	0.026976	-2.3521	-2.2875	-2.875	-2.5062	-2.5417	-2.9062	-2.5229	-2.8208	-2.6271	-2.525	-2.8563	-2.3187	-2.5625	-2.9354	-2.3563	-2.5833	42.017	212.988	56.701	-29.602	-33.885	190.584	185.913	169.286	167.083	15.881	27.175	-36.837	1.235	275.783	248.384	60.796	0.00024684	0.00082858	7.8487e-05	1176.6	3.5815e-06	1.6073e-05	1708	414.94	1.1409e-05	1.657e-05	575.8	205.11	152.25	52.397	1.3067e-05	75.891	0.0049412	0.0052197	0.0014398	1167.4	4.8e-05	5.678e-05	1712.9	430.43	5.4518e-05	5.7433e-05	823.9	219.82	165.44	64.902	5.7227e-05	94.72	214.540	44.222	146.304	-54.300	216.984	239.538	-54.897	-49.537	-27.292	55.378	-51.449	-46.900	-44.790	-39.439	73.318	-42.497	-8191	255	
1264.473	1	1	0	0	0.10824	0.1187	0.12163	0.17794	0.088478	0.02471	0.34617	0.24621	0.20644	0.18824	0.30271	0.035953	0.13784	0.073446	0.1913	0.072909	-2.45	-2.1667	-2.7854	-2.5167	-2.4042	-3.0583	-2.4854	-2.5083	-2.8979	-2.3792	-3.05	-2.6188	-2.1958	-2.8812	-2.2542	-2.6937	234.562	109.351	240.407	271.106	157.805	119.444	240.041	-51.576	135.550	167.174	186.697	258.521	193.115	107.691	131.867	106.982	0.00062667	0.00033068	0.00015541	1159.1	5.0244e-06	5.6536e-06	1678.5	409.22	4.0687e-06	7.662e-06	559.64	200.56	149.03	51.536	8.6168e-06	75.349	0.0049533	0.0051973	0.0014349	1161.9	4.7823e-05	5.6494e-05	1704.5	427.77	5.4352e-05	5.6714e-05	822.88	218	163.88	64.271	5.702e-05	94.472	134.871	242.277	112.324	-53.642	-58.987	-11.995	-54.264	-49.186	192.958	44.336	-50.075	-46.389	-43.973	-39.154	141.578	-42.592	-8191	255	
1264.570	1	1	0	0	0.38131	0.25226	0.15565	0.21484	0.16899	0.16005	0.12972	0.34105	0.19296	0.094985	0.14724	0.23293	0.34029	0.16994	0.11942	0.16987	-2.3292	-2.2292	-3.0292	-2.6396	-2.2896	-3.1104	-2.6146	-2.6167	-2.8688	-2.3771	-2.7687	-2.7375	-2.4708	-2.8438	-2.4958	-2.4875	70.137	285.556	11.329	186.740	-31.218	-5.734	190.396	178.516	247.553	94.595	92.083	6.132	143.056	130.006	-42.878	51.091	0.00016704	0.00088548	8.0295e-05	1157.1	1.9027e-06	1.0534e-05	1671.1	403.44	7.7763e-06	6.5078e-06	557.34	199.22	147.89	50.656	8.0027e-06	73.445	0.0049147	0.0052201	0.0014374	1156.3	4.7864e-05	5.677e-05	1693.8	422.66	5.4465e-05	5.742e-05	819.22	215.91	162.16	63.372	5.769e-05	93.022	265.918	34.608	168.182	-53.766	-64.221	163.460	-54.265	-49.013	172.309	18.811	-50.031	-46.480	-44.167	-39.167	50.747	-42.151	-8191	255	
1264.666	1	1	0	0	0.092623	0.061148	0.13133	0.10731	0.093996	0.23729	0.27587	0.17225	0.10194	0.22981	0.050538	0.11326	0.040068	0.020973	0.096734	0.20701	-2.5354	-2.2604	-2.6125	-3.0229	-2.2458	-2.8125	-2.6333	-2.7708	-2.7938	-2.3354	-2.7542	-2.6562	-2.3563	-2.9667	-2.5604	-2.4542	50.199	-19.552	13.917	266.305	-48.201	2.347	11.223	287.771	101.178	232.072	178.023	266.517	141.321	292.989	195.531	-41.243	0.00027035	0.0011195	0.00033168	1152.5	4.6708e-06	3.269e-06	1665	403.15	4.8574e-06	1.9819e-05	560.89	198.83	148.32	51.015	8.052e-06	73.849	0.0049214	0.0052402	0.0014605	1154.1	4.8026e-05	5.6928e-05	1691.2	422.72	5.4206e-05	5.7377e-05	819.71	215.86	162.2	63.454	5.7547e-05	93.637	132.230	11.122	245.699	-53.756	281.565	-64.298	-54.094	-48.806	-7.940	56.108	-50.748	-46.827	-44.606	-39.431	55.252	-42.224	-8191	255	
1264.762	1	1	0	0	0.16795	0.071605	0.45331	0.2337	0.11635	0.17011	0.27389	0.24774	0.22475	0.047923	0.109	0.1857	0.2746	0.22114	0.071186	0.2711	-2.5187	-2.3354	-2.7687	-2.9854	-2.3396	-3.0458	-2.7104	-2.3146	-3.1354	-2.4562	-2.6521	-2.8042	-2.3458	-2.7	-2.6188	-2.2396	33.501	235.177	23.133	-54.624	114.840	-1.532	159.967	227.426	260.142	-47.952	287.137	163.079	246.804	31.738	137.172	-32.651	0.00011152	0.0014283	0.00033482	1149.7	3.3943e-06	1.3661e-05	1668.8	403.29	7.246e-06	1.6956e-05	554.35	197.69	148.25	51.25	4.6479e-06	74.209	0.004898	0.0052469	0.0014541	1158.1	4.7946e-05	5.7167e-05	1694.2	423.37	5.4289e-05	5.76e-05	818.37	215.29	162.26	63.601	5.7417e-05	93.504	13.923	96.197	39.129	-53.304	216.263	52.432	-54.064	-48.811	10.489	87.566	-51.092	-46.421	-44.224	-39.553	-49.761	-41.787	-8191	255	
1264.858	1	1	0	0	0.21641	0.15094	0.098217	0.086122	0.2838	0.087788	0.16389	0.13079	0.17871	0.21135	0.24098	0.2602	0.12021	0.1635	0.33537	0.039056	-2.6188	-2.3187	-2.4979	-3.0771	-2.2812	-2.7562	-2.6813	-2.2479	-2.6833	-2.4604	-2.4583	-2.7083	-2.075	-2.7562	-2.7812	-2.0979	56.829	22.847	87.398	195.494	52.264	141.613	206.226	216.531	142.648	99.749	105.005	70.820	146.145	162.646	-37.822	85.936	0.00010111	0.00035588	0.0001679	1157.8	7.0591e-06	1.2322e-05	1687.8	406.51	5.8464e-06	2.0134e-05	552.88	198.67	148.71	51.114	1.5362e-05	74.915	0.0048794	0.0052197	0.0014554	1162.1	4.7621e-05	5.67e-05	1699.4	425.47	5.3825e-05	5.7054e-05	818.04	215.39	163.06	63.822	5.6255e-05	93.397	236.615	-28.936	105.478	-53.544	281.100	165.622	-54.567	-49.191	74.608	83.309	-50.199	-46.572	-44.145	-39.446	52.692	-41.799	-8191	255	
1264.954	1	1	0	0	0.23729	0.16109	0.037715	0.18938	0.093762	0.22265	0.10229	0.31662	0.15325	0.13841	0.068736	0.06392	0.083993	0.17054	0.14217	0.12297	-2.5875	-2.375	-2.5792	-3.1354	-2.375	-2.6667	-2.9729	-2.2958	-2.8271	-2.5583	-2.3542	-2.825	-2.0563	-2.5917	-2.7229	-2.2125	177.817	236.149	118.339	243.676	69.251	101.230	5.593	163.759	56.273	182.833	-51.462	207.956	291.124	44.172	165.270	168.355	0.00016789	0.00013594	7.7324e-05	1158.6	2.6647e-06	1.1489e-05	1682.2	405.89	3.8857e-06	1.1409e-05	564.1	200.19	149.51	50.957	1.542e-05	73.937	0.0048419	0.0051421	0.0014266	1158.4	4.7174e-05	5.6064e-05	1697.6	424.62	5.3146e-05	5.6625e-05	815.23	215.05	161.71	63.215	5.6481e-05	92.126	-42.281	189.433	289.738	-53.639	274.174	-66.565	-54.553	-49.166	169.249	267.208	-51.264	-46.957	-44.749	-39.798	60.607	-42.331	-8191	255	
1265.075	1	1	0	0	0.069656	0.1754	0.18183	0.14986	0.23674	0.073587	0.050359	0.098376	0.1236	0.30381	0.2617	0.14771	0.070443	0.17616	0.11484	0.18253	-2.4188	-2.2708	-2.4021	-3.1937	-2.2042	-2.5792	-2.9854	-2.3875	-2.7479	-2.5646	-2.275	-3.1083	-2.4125	-2.3625	-2.7333	-2.2438	-26.049	4.209	-59.116	273.334	48.115	69.605	152.858	120.858	26.775	57.606	-18.465	108.372	69.009	227.227	19.656	3.289	0.00018963	0.00085575	0.00021245	1144.3	4.3456e-06	1.3299e-05	1661.8	401.19	1.9875e-06	7.3842e-06	551.51	198.74	146.83	50.8	1.3398e-05	73.569	0.004875	0.0051723	0.0014377	1143.9	4.7377e-05	5.6605e-05	1676.8	417.84	5.3691e-05	5.6824e-05	808.73	214.22	160.83	63	5.6389e-05	92.359	148.809	13.537	-14.150	-53.843	14.878	-62.842	-54.659	-49.226	104.758	185.334	-50.275	-46.892	-44.327	-39.735	-34.199	-42.438	-8191	255	
1265.171	1	1	0	0	0.12235	0.086535	0.096625	0.32238	0.32978	0.21262	0.31778	0.2069	0.11085	0.14318	0.0092342	0.42234	0.048286	0.01452	0.16255	0.36054	-2.3271	-2.6875	-2.2125	-3.1521	-2.4	-2.3521	-3.1417	-2.1479	-2.6813	-2.725	-2.2542	-2.8812	-2.6937	-2.3667	-3.0333	-2.1188	287.585	253.990	85.549	289.608	180.662	27.123	16.680	-55.478	216.255	10.005	257.556	256.726	47.805	48.183	75.594	133.899	0.0001599	0.0016933	0.00020332	1147.5	3.9573e-07	1.7107e-05	1662	400.17	6.3004e-06	9.474e-06	550.22	199.77	149.61	50.9	8.0622e-06	74.116	0.00489	0.0051692	0.0014349	1143.8	4.7962e-05	5.7006e-05	1678.8	419.96	5.403e-05	5.7084e-05	812.47	215.78	162.25	63.432	5.6629e-05	93.042	246.571	36.903	10.866	-53.935	-35.801	-11.728	-54.439	-49.102	208.987	282.547	-51.238	-46.846	-44.518	-39.786	278.191	-42.342	-8191	255	
1265.265	1	1	0	0	0.16532	0.040321	0.10991	0.12816	0.12106	0.35893	0.12228	0.10037	0.13081	0.03827	0.10411	0.21539	0.050375	0.032559	0.099706	0.12019	-2.1479	-2.6708	-2.0417	-2.9896	-2.4979	-2.4521	-3.2438	-2.2521	-2.7708	-2.7979	-2.1958	-2.8042	-2.6292	-2.125	-2.825	-2.1479	157.110	72.989	257.145	242.092	218.394	-51.866	155.697	286.929	-60.656	170.153	104.467	180.300	183.906	5.275	230.968	39.862	0.00026596	0.0015455	0.00044408	1156.3	2.9661e-06	1.7738e-05	1668.1	405.43	6.5277e-06	1.0198e-05	556.25	199.77	148.8	51.374	7.1401e-06	74.303	0.0049006	0.005196	0.0014283	1155.7	4.7496e-05	5.6311e-05	1689.9	424.44	5.4034e-05	5.6602e-05	815.47	216.45	162.94	63.853	5.6493e-05	93.034	101.422	12.279	61.171	-53.806	281.401	74.427	-54.467	-48.887	-66.763	32.239	-50.909	-46.381	-44.088	-38.847	74.578	-42.948	-8191	255	
1265.339	1	1	0	0	0.094669	0.082917	0.18799	0.12551	0.12442	0.15529	0.038159	0.028301	0.10621	0.053108	0.2714	0.15185	0.12138	0.23112	0.082959	0.029415	-2.1271	-2.6833	-2.1479	-2.9333	-2.5083	-2.5021	-3.1667	-2.3375	-2.5583	-2.9083	-2.3125	-2.8688	-2.7833	-2.2875	-2.8937	-2.4229	292.542	19.587	-62.716	81.895	163.398	123.473	167.648	-37.443	80.815	115.724	124.962	177.599	-25.889	-55.861	259.078	31.822	0.00029132	0.00238	0.00022117	1159.7	2.3961e-06	1.473e-05	1667.8	403.91	8.7903e-06	1.1794e-05	555.67	197.96	147.13	50.292	6.3759e-06	73.363	0.0049168	0.0052098	0.0014396	1154.9	4.754e-05	5.6577e-05	1686.7	422.54	5.3855e-05	5.6503e-05	810.19	214.39	161.55	63.135	5.5907e-05	92.229	-6.866	23.445	-33.024	-54.024	229.667	83.025	-54.504	-48.996	-3.444	60.944	-50.557	-46.560	-44.063	-38.817	88.653	-42.189	-8191	255	
1265.458	1	1	0	0	0.20987	0.19996	0.23866	0.27646	0.062607	0.046635	0.18961	0.18299	0.14671	0.086376	0.22267	0.079706	0.076832	0.2322	0.10057	0.0010027	-2.0438	-2.7792	-2.3167	-2.9	-2.6396	-2.2896	-3.0687	-2.4729	-2.4313	-3.1188	-2.3396	-2.6312	-2.9	-2.1854	-3.0708	-2.4604	125.616	185.161	-66.851	134.652	92.697	86.936	181.110	252.392	-45.806	269.865	117.109	106.200	132.626	229.563	49.869	180.000	0.00027331	0.00065212	0.00022614	1141.5	2.3209e-06	1.2166e-05	1652.6	400.36	3.8816e-06	1.2817e-05	546.48	196.51	146.91	50.054	1.0211e-05	73.984	0.0048418	0.0050534	0.001394	1147.5	4.588e-05	5.4671e-05	1676.1	418.77	5.1814e-05	5.4373e-05	795.87	212.87	160.08	61.98	5.3738e-05	90.611	162.299	211.195	71.703	-53.446	284.266	94.119	-54.252	-49.001	179.950	80.531	-51.286	-46.292	-44.120	-39.657	-54.640	-42.651	-8191	255	
1265.554	1	1	0	0	0.31785	0.25146	0.073355	0.22403	0.097596	0.1466	0.17505	0.14733	0.10398	0.21386	0.23037	0.065983	0.2143	0.085531	0.16763	0.069197	-1.8479	-2.9125	-2.2167	-2.9667	-2.6854	-2.2333	-3.0521	-2.7646	-2.2958	-2.975	-2.3312	-2.4875	-2.8708	-2.1125	-2.7875	-2.6229	-27.234	-42.288	-5.897	-26.549	99.788	-20.582	276.280	188.957	-1.929	87.421	36.953	199.308	245.294	285.209	-29.850	67.124	0.00044619	0.0013756	0.00043169	1151.5	2.9939e-06	1.6245e-05	1648.4	397.86	3.7959e-06	1.4779e-05	544.92	196.31	145.39	50.23	1.1775e-05	72.788	0.0046395	0.0048561	0.0013516	1144.8	4.4671e-05	5.31e-05	1669.8	417.91	5.0769e-05	5.3493e-05	796.46	213.08	159.95	62.208	5.4306e-05	91.286	128.413	86.047	3.409	-54.292	189.191	35.602	-54.139	-48.671	71.066	52.254	-50.353	-46.454	-43.848	-38.807	141.845	-41.807	-8191	255	
1265.650	1	1	0	0	0.231	0.24614	0.12014	0.092098	0.095633	0.02272	0.22104	0.077731	0.28422	0.096317	0.12231	0.1054	0.093019	0.076426	0.20633	0.16317	-2.05	-2.9167	-2.3333	-2.8146	-2.9458	-2.3187	-2.7917	-2.5854	-2.3083	-2.7479	-2.2333	-2.6	-2.9104	-2.4542	-2.7833	-2.5958	71.892	41.995	59.493	161.728	262.241	99.356	216.334	164.373	4.730	1.861	108.594	-10.892	64.237	228.934	175.959	-32.177	0.00012481	0.00087525	0.00036758	1151.4	2.9223e-06	6.0964e-06	1667.8	406.49	1.7303e-06	1.2495e-05	565.63	199.31	148.47	50.894	2.1118e-06	74.002	0.004682	0.0049398	0.0013863	1150.2	4.6026e-05	5.5059e-05	1682.9	423.17	5.339e-05	5.6216e-05	817.78	216.05	162.75	63.734	5.7327e-05	93.377	126.740	106.838	103.023	-53.794	135.218	172.875	-54.588	-49.235	16.592	73.070	-50.318	-46.242	-43.938	-39.113	273.001	-42.527	-8191	255	
1265.746	1	1	0	0	0.282	0.08441	0.2976	0.2932	0.14008	0.26311	0.24049	0.24104	0.15652	0.098758	0.10791	0.035576	0.085938	0.085499	0.14575	0.063742	-2.0542	-2.9417	-2.3833	-2.8542	-2.9083	-2.4042	-2.9375	-3.025	-2.3792	-3.05	-2.5104	-2.375	-2.7792	-2.4021	-2.5208	-2.8646	147.630	136.199	274.680	277.304	-66.600	203.643	252.136	231.093	-61.272	0.489	232.062	-1.367	210.686	20.067	206.720	-0.860	8.7034e-06	0.0010517	0.00010813	1150.6	3.4557e-06	1.8301e-05	1666.8	408.69	6.2303e-06	1.5869e-05	572.49	199.22	149.75	51.742	2.0647e-05	74.721	0.0049745	0.0052706	0.0014719	1160.3	4.8002e-05	5.7866e-05	1699	429.51	5.5237e-05	5.8383e-05	830.78	217.59	164.34	64.825	5.8891e-05	94.248	239.916	254.866	25.799	-53.225	259.781	-16.540	-53.989	-48.652	133.525	2.774	-50.429	-46.411	-43.993	-39.181	87.445	-42.781	-8191	255	
1265.867	1	1	0	0	0.045231	0.090511	0.18574	0.23945	0.091172	0.061716	0.17357	0.22848	0.18847	0.13903	0.20021	0.21673	0.12328	0.20744	0.25423	0.11461	-1.85	-3.0542	-2.5729	-2.375	-2.8125	-2.2208	-2.7938	-2.8917	-2.1188	-2.8833	-2.6917	-2.3021	-2.8	-2.2667	-2.5479	-2.8312	158.641	30.518	147.638	282.812	-61.732	128.285	267.021	242.470	211.744	-60.817	240.903	145.577	207.779	259.490	-16.462	182.681	0.00032046	0.00095315	0.00024877	1170.9	2.1661e-06	2.012e-05	1681.1	407.73	4.1928e-06	4.5089e-06	555.71	199.82	149.99	51.069	6.4518e-06	74.266	0.0050614	0.0053716	0.0014972	1165.7	4.8913e-05	5.8714e-05	1702.3	428.34	5.5611e-05	5.9164e-05	831.66	216.63	163.4	64.288	5.9255e-05	93.691	253.574	-30.076	6.736	-54.201	230.618	94.907	-54.458	-49.014	216.464	1.282	-50.778	-46.954	-44.335	-39.306	167.031	-42.931	-8191	255	
1265.938	1	1	0	0	0.12854	0.24613	0.12285	0.3817	0.21019	0.13755	0.3505	0.10515	0.18642	0.16858	0.10528	0.11842	0.18002	0.10466	0.15157	0.16834	-1.7042	-2.5625	-2.6833	-2.5062	-2.9062	-2.4208	-2.7208	-2.8208	-2.3292	-2.7938	-2.6979	-2.175	-2.7292	-2.2729	-2.3604	-2.8187	26.230	-32.088	246.575	283.738	106.730	62.880	201.711	183.010	37.542	173.094	267.231	-47.162	-65.840	-28.521	193.546	55.723	0.0003302	0.00079495	5.4889e-05	1155.4	2.4206e-06	6.1113e-06	1671.9	405.63	3.181e-06	3.8713e-06	556.31	198.59	147.14	50.665	1.8742e-06	73.375	0.0050874	0.0053818	0.0014921	1150.3	4.9217e-05	5.9372e-05	1679.3	420.99	5.7009e-05	6.043e-05	831.31	215.2	161.61	63.821	6.1355e-05	93.101	169.502	74.913	-7.779	-54.160	198.616	262.513	-55.008	-49.383	-36.988	133.488	-51.051	-46.675	-44.270	-39.344	88.797	-42.669	-8191	255	
1266.059	1	1	0	0	0.16376	0.12357	0.24874	0.21198	0.22677	0.16314	0.27153	0.17366	0.19751	0.17545	0.038305	0.19526	0.15474	0.18572	0.13612	0.094633	-1.8979	-2.4979	-2.6125	-2.5938	-2.9417	-2.6542	-2.6104	-2.8542	-2.3125	-2.4521	-2.7917	-2.2562	-2.7562	-2.5646	-2.2479	-2.9917	236.082	149.184	-13.267	121.589	-35.128	-49.525	217.952	-26.437	34.039	280.749	139.088	255.334	240.890	-59.773	216.761	130.454	0.00038019	0.0021401	0.00052344	1137.1	3.2635e-06	1.1755e-05	1650	397.75	6.3573e-06	2.3252e-06	558.99	197.32	147.1	50.066	1.104e-05	72.635	0.0052789	0.0056406	0.0015532	1138.8	5.1504e-05	6.2187e-05	1668.7	418.34	5.9187e-05	6.3095e-05	845.01	216.79	162.48	64.689	6.3812e-05	94.651	198.829	76.000	31.369	-53.904	195.346	68.165	-54.374	-48.891	18.671	-9.371	-50.095	-46.430	-44.027	-39.275	206.770	-41.410	-8191	255	
1266.155	1	1	0	0	0.19945	0.15665	0.16469	0.080225	0.063479	0.099565	0.33943	0.12518	0.17663	0.25348	0.043108	0.2672	0.11063	0.078827	0.20673	0.26504	-1.8146	-2.6021	-2.9333	-2.2917	-2.75	-2.7375	-2.5875	-3.0687	-2.3958	-2.5167	-2.8792	-2.2042	-2.7583	-2.6208	-2.2562	-2.8104	34.514	134.320	85.914	148.959	64.833	134.162	235.943	247.998	181.436	231.043	277.656	-52.275	113.452	-31.502	288.176	162.889	1.6032e-05	0.0012098	0.00027066	1134.8	2.8541e-06	7.2377e-06	1639.2	398.55	7.7167e-06	2.5098e-05	547.33	196.3	146.52	50.328	7.8132e-06	72.934	0.0055266	0.0058805	0.0016206	1141.1	5.4192e-05	6.5004e-05	1672.1	421.11	6.2119e-05	6.5868e-05	856.87	216.48	163.14	65.159	6.6259e-05	94.835	129.012	-14.922	210.177	-53.546	-54.663	213.566	-54.033	-48.758	136.191	155.778	-49.710	-45.903	-44.181	-39.546	-40.296	-42.191	-8191	255	
1266.251	1	1	0	0	0.13276	0.035677	0.18891	0.25931	0.185	0.090478	0.2356	0.099703	0.079864	0.2311	0.050481	0.18495	0.21401	0.14766	0.11209	0.094141	-2	-2.4875	-2.8667	-2.3812	-2.7958	-2.7917	-2.3667	-3.0854	-2.3542	-2.5	-2.9271	-2.0604	-2.5938	-2.7812	-2.2792	-2.875	165.407	188.154	81.889	232.791	107.131	142.381	168.929	-38.532	37.873	79.194	66.851	232.142	147.769	289.699	90.383	78.547	0.00034822	0.00061941	0.00033158	1150.9	6.3789e-06	1.8607e-05	1633	396.29	7.9131e-06	5.8734e-06	560.92	196.93	147.87	50.742	4.9557e-06	73.543	0.0057474	0.0060822	0.0016813	1148	5.583e-05	6.6691e-05	1664.6	418.25	6.3749e-05	6.7318e-05	859.56	215.02	162.73	65.271	6.6518e-05	95.018	82.907	76.981	49.499	-54.091	258.219	198.658	-54.043	-48.734	78.439	90.068	-51.097	-47.071	-45.151	-39.815	10.751	-42.892	-8191	255	
1266.348	1	1	0	0	0.073758	0.21174	0.34157	0.067241	0.20288	0.17371	0.20642	0.11442	0.062576	0.14821	0.22429	0.32188	0.25089	0.041079	0.19909	0.20514	-2.0833	-2.2438	-2.8729	-2.2479	-2.6937	-2.6917	-2.3063	-2.8312	-2.4313	-2.3854	-2.9146	-2.4667	-2.6083	-2.9167	-2.2458	-2.8292	49.886	15.391	33.306	54.188	280.860	9.191	280.310	265.147	240.097	63.785	286.403	-36.684	169.877	266.061	237.697	133.831	0.00038486	0.0011573	0.00019119	1152.7	3.4153e-06	6.9759e-06	1651.1	399.33	2.4838e-06	2.6602e-06	543.34	193.69	145.67	49.561	1.1248e-05	71.483	0.0058042	0.0061191	0.0016869	1145.7	5.6121e-05	6.7181e-05	1663.8	419.11	6.3881e-05	6.7366e-05	860.06	213.87	162.26	64.841	6.7469e-05	94.547	152.345	35.938	-19.572	-54.295	191.986	4.075	-54.735	-49.203	97.420	-47.452	-50.664	-46.333	-43.816	-38.561	70.989	-41.747	-8191	255	
1266.466	1	1	0	0	0.046857	0.039645	0.042791	0.15389	0.23412	0.040337	0.32497	0.16996	0.054186	0.18742	0.21617	0.16545	0.17916	0.13675	0.18009	0.092736	-2.2792	-2.2229	-2.975	-2.6542	-2.4688	-2.8604	-2.4396	-2.7125	-2.5333	-2.4021	-2.9333	-2.3604	-2.3438	-2.9125	-2.2229	-2.8688	224.096	198.001	101.700	185.635	-64.985	75.886	252.927	-60.974	163.185	72.313	213.713	156.666	123.619	3.806	280.821	-36.839	0.000659	0.0011598	0.00038864	1132.5	4.0794e-06	1.8682e-05	1639.2	394.34	4.3859e-06	2.3014e-05	534.05	192.21	144.13	49.061	3.8981e-06	71.491	0.0058228	0.0061256	0.0016998	1141.7	5.6433e-05	6.6722e-05	1659.2	417.52	6.4445e-05	6.7943e-05	859.02	213.1	161.36	64.55	6.7737e-05	94.491	170.991	21.988	77.160	-53.295	273.508	-29.263	-54.345	-48.615	-5.406	78.753	-50.436	-45.935	-43.671	-38.364	90.587	-42.611	-8191	255	
1266.563	1	1	0	0	0.14697	0.1448	0.017528	0.092058	0.1027	0.11202	0.11993	0.072021	0.23353	0.2567	0.088458	0.30239	0.12627	0.14037	0.13296	0.14898	-2.425	-2.1396	-2.8521	-2.6271	-2.4375	-2.9688	-2.3292	-2.5	-2.6667	-2.1354	-2.8604	-2.4437	-2.3083	-2.9479	-2.3	-2.5729	54.921	74.684	287.173	244.563	194.607	235.128	225.188	261.389	93.822	-57.317	175.117	66.884	73.756	-62.975	5.488	156.807	0.00040917	0.00030421	0.00015763	1136.3	3.4327e-06	9.5394e-06	1635.1	396.18	6.0419e-06	2.028e-05	546.14	194.54	144.82	49.154	9.854e-06	71.001	0.0058454	0.0061367	0.0017057	1137.8	5.6785e-05	6.7538e-05	1654.8	415.54	6.4295e-05	6.7638e-05	861.38	214.12	161.4	64.504	6.8051e-05	94.426	149.892	231.998	237.337	-53.805	-22.218	257.596	-54.504	-49.268	152.903	78.659	-49.641	-46.588	-44.253	-38.943	277.752	-41.594	-8191	255	
1266.634	1	1	0	0	0.065933	0.13945	0.15174	0.26376	0.34682	0.19245	0.30731	0.15605	0.093314	0.023756	0.24489	0.23077	0.12941	0.063107	0.15179	0.29442	-2.4854	-2.4583	-2.6292	-2.5896	-2.4521	-2.8417	-2.4667	-2.6146	-2.9521	-2.2313	-2.7229	-2.6625	-2.2333	-2.9938	-2.4375	-2.4542	249.771	253.195	281.776	247.059	54.681	60.211	273.476	-0.158	242.844	-35.051	21.791	194.998	290.204	169.126	127.360	68.623	0.00013765	0.0012964	0.00030009	1121.2	2.8729e-06	2.2085e-06	1623	392.42	9.7192e-06	8.7383e-06	536.77	194.04	145.9	49.987	1.0413e-05	70.613	0.0058232	0.0061566	0.0017032	1131.6	5.6335e-05	6.6847e-05	1648.5	414.31	6.3557e-05	6.7134e-05	858.79	214.35	161.65	64.745	6.745e-05	94.254	170.643	27.187	-32.701	-53.153	252.577	105.075	-54.302	-48.645	86.994	129.548	-50.264	-46.555	-44.661	-39.604	287.266	-41.688	-8191	255	
1266.755	1	1	0	0	0.13601	0.1716	0.22641	0.19144	0.17102	0.04851	0.15496	0.24127	0.11782	0.11878	0.26465	0.082472	0.010417	0.25165	0.14094	0.17373	-2.5167	-2.05	-2.6167	-2.6792	-2.2687	-3.0438	-2.475	-2.5542	-2.9229	-2.3083	-2.7083	-2.6354	-2.2604	-2.9583	-2.3604	-2.4083	-58.071	208.918	268.287	258.215	107.225	178.201	145.866	224.226	283.294	124.992	279.129	284.770	14.680	110.560	211.742	-27.626	8.8769e-05	0.0017738	0.00023756	1128.5	2.7011e-06	1.2566e-05	1612.3	388.72	4.6444e-06	6.2698e-06	537.85	195.57	145.35	49.479	8.2754e-06	71.049	0.0057203	0.0060726	0.0016844	1126.3	5.5494e-05	6.618e-05	1640.8	411.76	6.2335e-05	6.6056e-05	849.38	213.93	160.86	64.292	6.6093e-05	93.466	225.108	9.424	-3.708	-53.988	260.687	-20.787	-54.082	-48.704	101.334	40.572	-50.342	-46.598	-44.207	-39.155	145.136	-41.956	-8191	255	
1266.851	1	1	0	0	0.18172	0.29043	0.22529	0.31659	0.38619	0.24721	0.050102	0.31996	0.042247	0.04837	0.056197	0.05244	0.12765	0.049707	0.18045	0.11752	-2.5896	-2.3292	-2.5521	-2.8708	-2.2375	-2.9521	-2.7875	-2.5146	-2.8604	-2.2854	-2.8333	-2.8208	-2.3208	-2.8875	-2.4292	-2.3771	225.465	165.901	-33.491	227.119	81.844	21.693	229.860	211.969	100.446	44.554	258.474	26.083	279.090	-67.392	100.196	72.481	0.00022508	0.0011917	0.00024433	1113.9	9.5615e-06	2.0782e-05	1630.8	392.71	1.158e-05	4.573e-06	546.37	194.25	144.98	48.74	3.0197e-05	71.076	0.0056181	0.0059612	0.0016612	1122.3	5.453e-05	6.5272e-05	1640.4	411.04	6.1994e-05	6.5564e-05	845.89	212.41	159.76	63.904	6.5413e-05	93.023	124.437	16.287	58.195	-53.380	233.600	72.317	-54.806	-49.626	-43.910	104.473	-51.444	-46.977	-44.509	-38.367	99.790	-42.321	-8191	255	
1266.947	1	1	0	0	0.24044	0.35362	0.37412	0.22336	0.24172	0.27234	0.1721	0.14907	0.099044	0.17942	0.1874	0.0038274	0.35557	0.21081	0.060952	0.23392	-2.5146	-2.3875	-2.4646	-3.0125	-2.2875	-2.7104	-2.7083	-2.3542	-3.0875	-2.3417	-2.3667	-2.7458	-2.225	-2.6604	-2.6396	-2.3833	170.145	140.189	182.096	-44.375	239.203	29.425	191.891	94.223	-17.696	212.121	286.893	161.585	207.027	76.389	217.451	232.837	0.00081363	0.0012818	0.00029911	1128.1	2.786e-07	1.356e-05	1626.9	393.18	2.432e-06	1.2707e-05	541.99	192.86	143.94	48.664	7.6895e-06	70.29	0.0056015	0.0059501	0.0016641	1128.2	5.4264e-05	6.4989e-05	1648	414.35	6.1956e-05	6.599e-05	851.95	212.67	160.79	64.151	6.6022e-05	93.496	202.409	27.187	-0.630	-53.744	143.901	-26.047	-54.442	-48.786	157.539	62.517	-50.953	-46.110	-43.737	-39.240	73.056	-42.160	-8191	255	
1267.043	1	1	0	0	0.16735	0.30491	0.19137	0.15722	0.16868	0.12276	0.19117	0.19115	0.31268	0.12668	0.159	0.13973	0.021897	0.18875	0.17562	0.27034	-2.4542	-2.4104	-2.4833	-2.8917	-2.2625	-2.6229	-3.0229	-2.4021	-3.0354	-2.3875	-2.45	-2.9625	-2.3521	-2.5833	-2.8438	-2.325	8.838	40.055	258.318	163.853	39.490	227.190	-12.299	157.287	226.469	211.000	86.686	160.833	92.516	64.957	172.185	156.054	9.8811e-05	0.00063817	0.0001307	1134.4	4.7063e-06	1.783e-05	1641.6	397.8	9.7882e-06	1.8163e-05	545.41	195.1	147.32	49.626	1.3567e-05	71.995	0.005675	0.0060435	0.00168	1138.8	5.5234e-05	6.6156e-05	1656.7	416.91	6.3287e-05	6.6976e-05	857.93	213.69	161.82	64.496	6.7136e-05	94.298	247.352	82.790	-20.773	-53.543	212.705	96.364	-54.615	-49.197	269.044	114.867	-50.863	-46.871	-44.581	-40.020	59.245	-42.112	-8191	255	
1267.162	1	1	0	0	0.101	0.09861	0.10074	0.060854	0.34065	0.051183	0.12109	0.12832	0.2246	0.0079934	0.23004	0.23198	0.18305	0.12941	0.24457	0.25615	-2.4104	-2.6375	-2.4	-3.1458	-2.2521	-2.5187	-2.9271	-2.2958	-2.8458	-2.8312	-2.375	-2.7667	-2.4938	-2.5438	-2.7812	-2.2375	92.797	-25.265	206.328	-35.180	6.050	-46.641	251.983	23.473	253.963	225.128	201.043	146.300	-3.173	263.710	184.277	155.602	0.00041415	0.002153	0.00040329	1134.2	5.25e-06	2.6556e-05	1627.4	392.3	4.1281e-06	1.4398e-05	539.76	192.73	144.02	49.318	9.8621e-06	70.585	0.0057884	0.0061459	0.0016995	1138.3	5.5897e-05	6.7017e-05	1649	414.1	6.3397e-05	6.7588e-05	853.47	212.53	160.83	64.385	6.6947e-05	93.499	267.234	-7.393	0.172	-53.549	-50.781	59.903	-54.363	-48.946	81.898	38.518	-50.403	-46.637	-43.911	-39.612	60.354	-42.463	-8191	255	
1267.236	1	1	0	0	0.28444	0.25361	0.39079	0.28326	0.12775	0.046838	0.33096	0.182	0.21714	0.14508	0.18023	0.098065	0.015634	0.057522	0.039782	0.35901	-2.4458	-2.7562	-2.1917	-3.0521	-2.3438	-2.5271	-3.1333	-2.1688	-2.8604	-2.8479	-2.2167	-2.8375	-2.3771	-2.6479	-3.0083	-2.2708	204.483	151.089	231.124	244.734	33.168	266.510	234.123	107.717	-43.751	174.512	277.636	14.683	-14.848	17.410	130.846	128.060	0.00018647	0.0013866	9.1059e-05	1123.7	4.302e-06	1.4499e-05	1608.1	385.9	2.4875e-06	7.7818e-06	541.84	191.28	143.28	47.821	3.2881e-06	68.945	0.0057707	0.0061546	0.0016957	1125.9	5.6317e-05	6.7083e-05	1628.7	405.88	6.4076e-05	6.7655e-05	845.16	209.07	157.92	62.989	6.6806e-05	91.329	-36.844	13.065	125.780	-53.730	291.548	108.371	-54.284	-49.281	111.124	73.239	-51.018	-47.204	-44.921	-40.300	285.163	-42.845	-8191	255	
1267.332	1	1	0	0	0.15037	0.098452	0.42822	0.10429	0.27174	0.12213	0.04865	0.095715	0.10372	0.24225	0.16441	0.12494	0.0081339	0.11997	0.13636	0.22416	-2.3375	-2.7542	-2.3292	-3.0875	-2.5146	-2.5938	-3.225	-2.1937	-2.675	-2.85	-2.1229	-2.775	-2.4229	-2.3979	-2.9938	-2.4083	60.528	193.833	74.665	247.201	26.277	-6.974	55.349	77.215	263.118	196.319	-61.756	257.774	279.161	235.538	-16.222	170.170	5.3847e-05	0.00025016	0.00022797	1109.7	4.8737e-06	1.7355e-05	1597.8	380.82	1.0852e-05	2.2204e-06	528.19	187.79	141.06	47.478	1.6546e-05	68.363	0.0058146	0.0061336	0.0017007	1110.4	5.6236e-05	6.7349e-05	1610.9	400.14	6.4278e-05	6.7821e-05	839.24	206.26	156.47	62.586	6.7475e-05	91.165	26.054	75.974	193.143	-53.784	-5.345	114.350	-54.780	-49.238	288.140	157.554	-51.672	-46.908	-44.355	-40.663	156.382	-42.926	-8191	255	
1267.428	1	1	0	0	0.11724	0.18717	0.26163	0.29317	0.040506	0.19823	0.057923	0.11914	0.092367	0.16139	0.18485	0.30268	0.34066	0.080719	0.15656	0.13799	-2.2625	-2.8125	-2.2083	-2.8375	-2.65	-2.2562	-3.0917	-2.1417	-2.5979	-2.6292	-2.25	-2.7667	-2.4458	-2.1417	-2.7854	-2.4313	10.646	31.046	78.236	233.427	224.806	7.532	140.821	158.214	162.923	3.607	213.759	182.382	0.533	166.159	272.397	-64.807	0.00048312	0.0009914	0.00015893	1125.4	4.0557e-06	4.5157e-06	1620.1	390.25	6.7577e-06	1.8267e-05	537.22	192.71	144.71	48.958	1.2579e-05	70.303	0.0058465	0.0061672	0.0017037	1120.5	5.6151e-05	6.7075e-05	1626	406.7	6.4269e-05	6.7342e-05	845.57	209.94	159.02	63.641	6.7356e-05	92.763	236.910	-1.817	289.933	-54.089	268.836	-28.070	-54.945	-49.434	129.260	-45.151	-51.634	-47.289	-44.610	-40.557	114.186	-43.325	-8191	255	
1267.547	1	1	0	0	0.23939	0.25728	0.18784	0.1611	0.23543	0.086457	0.07082	0.020804	0.11348	0.09992	0.054773	0.11307	0.13781	0.20377	0.10888	0.17352	-2.2062	-2.5146	-2.2396	-2.9125	-2.625	-2.2625	-3.1813	-2.4938	-2.2	-2.8458	-2.2042	-2.7083	-2.85	-1.9167	-2.7	-2.4792	83.623	193.569	154.083	263.671	-67.307	-5.978	30.184	65.072	155.281	86.860	216.831	265.672	159.191	256.606	279.856	2.550	0.00026513	0.0011966	0.00019141	1153.5	4.7104e-06	1.9964e-05	1653	400.47	1.4044e-05	2.665e-05	549.19	194.61	146.19	49.726	2.6234e-06	72.373	0.0058396	0.006126	0.0017058	1142.4	5.6414e-05	6.7349e-05	1653.4	415.77	6.4236e-05	6.7435e-05	855.12	211.76	160.76	64.306	6.7221e-05	93.622	232.429	65.022	142.267	-54.457	174.427	9.993	-55.262	-49.796	263.380	68.098	-50.782	-47.510	-44.819	-39.488	237.210	-43.223	-8191	255	
1267.643	1	1	0	0	0.081496	0.019917	0.29828	0.1356	0.20523	0.23724	0.31951	0.08138	0.12348	0.10174	0.29669	0.20008	0.17358	0.21328	0.13676	0.082357	-2.0167	-2.9604	-2.2333	-2.65	-2.6625	-2.1604	-3.0021	-2.5	-2.3167	-2.8312	-2.1188	-2.5062	-2.7521	-2.0646	-2.8125	-2.5979	-38.652	51.291	98.236	236.827	95.043	170.163	189.189	54.837	96.540	279.796	-50.868	260.580	226.595	118.657	250.426	75.386	0.00031664	0.0015316	0.00021645	1158.8	1.2997e-06	7.7705e-07	1658.3	401.26	4.4853e-06	1.4939e-05	551.55	193.13	145.05	49.135	1.5014e-05	70.487	0.0057763	0.0060549	0.0016926	1146.4	5.5888e-05	6.6602e-05	1656.1	415.58	6.3331e-05	6.6806e-05	855.27	210.08	159.62	63.652	6.7124e-05	92.534	139.440	96.934	-19.032	-54.591	220.707	135.604	-55.378	-49.927	254.345	280.785	-51.814	-47.295	-45.112	-40.124	87.392	-42.740	-8191	255	
1267.739	1	1	0	0	0.079175	0.16467	0.21669	0.26978	0.064455	0.12552	0.16498	0.32485	0.29159	0.16172	0.22586	0.1746	0.19392	0.069229	0.16982	0.20108	-1.9146	-2.8979	-2.2479	-2.625	-2.7354	-2.1104	-2.9521	-2.7417	-2.3354	-2.7458	-2.2583	-2.4375	-2.8229	-2.25	-2.7083	-2.6104	6.659	252.334	138.581	191.733	262.616	212.952	193.918	213.408	-52.665	250.422	76.339	-59.479	67.673	41.133	46.065	-46.618	0.00042549	0.0013394	0.00024094	1144.6	9.5668e-07	2.4408e-05	1644.4	396.6	8.2706e-06	9.5958e-06	532.35	192.22	144.68	48.779	1.4146e-05	69.614	0.0057709	0.0060804	0.0016957	1132.5	5.5807e-05	6.6801e-05	1641.5	410.66	6.3381e-05	6.6839e-05	847.94	209.2	158.29	63.151	6.7567e-05	91.627	186.676	53.431	-3.161	-54.494	-5.582	-19.025	-55.436	-49.924	-40.077	-0.771	-50.836	-47.208	-45.188	-40.322	51.349	-42.897	-8191	255	
1267.835	1	1	0	0	0.25357	0.26611	0.066827	0.21804	0.10442	0.22715	0.035878	0.033399	0.21642	0.091689	0.17602	0.10317	0.26088	0.21467	0.25084	0.13057	-1.8479	-2.8312	-2.2042	-2.4667	-2.8896	-2.2917	-2.9521	-2.7771	-2.2562	-2.8458	-2.3812	-2.3458	-2.9021	-2.2479	-2.6833	-2.75	80.822	182.477	20.037	260.554	109.479	-8.230	-54.559	42.666	40.488	-27.424	44.760	227.416	28.341	259.662	189.801	71.598	0.00024118	0.00072368	0.0003693	1132	1.87e-06	1.5522e-05	1627.7	390.19	7.2854e-06	1.7319e-05	545.58	191.67	144.32	48.821	2.4157e-05	69.541	0.0057705	0.0061209	0.0017093	1120.1	5.5848e-05	6.7163e-05	1625.1	405.39	6.3666e-05	6.7179e-05	849.1	208.71	157.81	63.179	6.7769e-05	91.636	77.435	223.727	41.849	-54.550	254.783	177.334	-55.284	-49.960	90.373	0.746	-51.864	-47.352	-44.857	-39.762	127.226	-43.556	-8191	255	
1267.931	1	1	0	0	0.14375	0.19252	0.18836	0.12428	0.34591	0.079611	0.16865	0.11943	0.18621	0.046429	0.10942	0.20705	0.16205	0.25124	0.20389	0.060567	-1.9333	-2.9125	-2.5729	-2.4	-2.9125	-2.325	-2.5354	-2.6417	-2.1625	-2.6937	-2.4771	-2.2917	-2.8688	-2.2167	-2.4875	-2.9229	-13.730	-39.604	30.756	-53.053	257.150	243.753	242.762	102.282	268.467	251.521	276.712	212.310	242.142	122.121	68.353	277.554	0.00024137	0.0011338	0.00016865	1130.3	1.7024e-06	2.7871e-05	1629	391.68	3.4096e-06	1.0424e-05	540.59	191.73	144.28	48.913	1.3651e-05	70.295	0.0058055	0.0061678	0.0017146	1119.8	5.5966e-05	6.7296e-05	1625.9	406.53	6.4138e-05	6.7966e-05	851.94	209.7	158.85	63.514	6.831e-05	92.426	276.948	46.903	66.095	-54.629	251.105	27.801	-55.411	-49.792	32.151	100.661	-51.686	-47.250	-45.128	-41.082	39.547	-42.965	-8191	255	
1268.028	1	1	0	0	0.077994	0.2619	0.15364	0.038271	0.060199	0.18722	0.28691	0.11034	0.12408	0.20114	0.079725	0.25627	0.30386	0.10717	0.24576	0.097195	-1.7729	-2.7104	-2.6562	-2.5292	-2.9083	-2.4521	-2.6146	-2.9104	-2.1771	-2.7604	-2.6104	-2.1771	-2.8771	-2.2979	-2.3708	-2.8312	230.390	76.717	273.036	-66.004	145.852	277.274	197.318	236.259	216.051	219.038	-26.863	279.920	265.146	88.220	56.189	60.458	0.00018453	0.00050478	5.7363e-05	1144.7	7.4374e-06	2.2407e-05	1649.4	401.07	7.7737e-07	1.971e-05	557.22	195.59	148.17	49.677	4.1954e-06	70.828	0.0058304	0.0061851	0.0017194	1133.1	5.6161e-05	6.7676e-05	1648.1	416.3	6.3949e-05	6.7886e-05	860.66	212.71	162.34	64.901	6.782e-05	93.422	249.240	230.465	144.353	-54.478	-55.694	-29.215	-55.367	-49.660	-24.077	53.555	-51.203	-47.331	-45.005	-40.120	107.785	-43.101	-8191	255	
1268.148	1	1	0	0	0.18985	0.24292	0.16436	0.31784	0.19354	0.18794	0.050409	0.097308	0.21562	0.073287	0.10108	0.13906	0.19586	0.044	0.061914	0.11018	-1.9021	-2.6667	-2.6458	-2.0833	-2.8812	-2.525	-2.4729	-3.0042	-2.3312	-2.4979	-2.7521	-2.2958	-2.8312	-2.3604	-2.2792	-2.7375	255.247	-56.047	2.167	-36.273	142.808	18.809	-18.169	-57.085	233.890	116.248	240.651	108.746	269.568	141.381	268.030	53.418	0.00016742	0.00098741	0.00038204	1163.6	4.5853e-06	5.2492e-06	1669.4	405.09	9.0764e-06	1.0154e-05	553.16	195.44	147.28	49.908	6.996e-06	70.608	0.0058002	0.0061929	0.0017043	1151.9	5.5908e-05	6.7607e-05	1667.1	420.9	6.3888e-05	6.7951e-05	861.51	212.45	161.82	64.589	6.7437e-05	92.954	-65.762	39.426	135.182	-54.517	271.815	11.029	-55.350	-50.011	110.768	250.137	-50.809	-47.146	-45.051	-40.098	49.927	-42.986	-8191	255	
1268.244	1	1	0	0	0.22855	0.21248	0.1799	0.15982	0.08662	0.16554	0.18378	0.20944	0.29278	0.0238	0.2108	0.055551	0.025479	0.39241	0.2048	0.20104	-1.8083	-2.4708	-2.7562	-2.3	-2.7812	-2.3937	-2.4813	-2.8521	-2.3812	-2.45	-2.7875	-2.1729	-2.7604	-2.4896	-2.2313	-3.0312	24.494	181.738	251.354	237.422	20.825	240.153	233.163	-54.569	119.215	15.175	-5.113	-29.697	109.537	97.475	202.453	-14.219	0.00035313	0.0003611	0.00016426	1155.4	6.9484e-06	3.7696e-05	1649	400.25	6.4536e-06	1.5696e-05	543.38	194.17	145.89	49.347	1.3952e-05	69.841	0.0058015	0.0061543	0.0016948	1144.2	5.6264e-05	6.7481e-05	1650.5	415.39	6.4253e-05	6.7908e-05	852.2	210.95	160.58	64.065	6.7591e-05	92.282	167.106	-47.307	168.620	-54.442	235.271	78.703	-55.233	-49.771	3.690	86.795	-51.298	-47.449	-44.862	-40.032	-7.024	-42.175	-8191	255	
1268.339	1	1	0	0	0.16398	0.11825	0.056673	0.079423	0.24706	0.10227	0.23212	0.16279	0.036494	0.13682	0.2451	0.16569	0.075819	0.20853	0.12253	0.10188	-2.0333	-2.3854	-2.6896	-2.2854	-2.7208	-2.6396	-2.3729	-2.9646	-2.4271	-2.4229	-2.9125	-2.1958	-2.7896	-2.6562	-2.2125	-2.9708	4.184	157.345	155.817	272.827	41.782	116.378	276.748	142.486	232.825	120.087	258.223	202.911	-14.712	143.558	32.328	155.975	0.00021339	0.00088376	0.0002003	1149.8	3.5573e-06	9.0401e-06	1649.6	400.89	9.247e-06	2.0413e-05	552.02	194.63	146.58	49.663	9.6754e-06	70.909	0.0058233	0.0061934	0.0016994	1138.9	5.6676e-05	6.7692e-05	1649.6	415.56	6.4408e-05	6.8295e-05	855.99	211.37	161.3	64.225	6.7508e-05	92.877	261.939	-64.103	-4.626	-54.437	41.770	106.001	-55.372	-49.901	183.088	-26.106	-51.592	-47.410	-44.955	-39.603	127.633	-43.390	-8191	255	
1268.459	1	1	0	0	0.19563	0.07604	0.098437	0.11497	0.12259	0.065883	0.29657	0.18536	0.10603	0.077158	0.091489	0.088365	0.048217	0.15552	0.11529	0.14107	-2.1646	-2.3208	-2.8854	-2.4125	-2.4958	-2.6771	-2.1604	-2.8375	-2.4813	-2.2687	-2.9417	-2.3375	-2.5563	-2.9146	-2.1375	-2.9104	6.029	63.411	285.746	211.872	261.102	179.190	219.571	214.105	124.823	74.137	272.480	155.241	72.225	51.183	60.410	263.532	0.00015023	0.00022926	9.5811e-05	1157.7	5.5047e-06	2.4623e-05	1659.8	401.12	5.3793e-06	7.0727e-06	548.01	194.76	147.65	49.777	1.8148e-05	70.608	0.0058314	0.0062034	0.0017026	1144.6	5.6827e-05	6.7588e-05	1655.7	417.05	6.4477e-05	6.8175e-05	858.73	211.92	161.62	64.383	6.801e-05	92.96	33.667	-0.434	85.195	-54.446	-22.308	-55.104	-55.414	-49.924	68.172	236.222	-51.513	-47.428	-44.926	-39.943	113.457	-42.562	-8191	255	
1268.531	1	1	0	0	0.16629	0.32462	0.22069	0.16732	0.2237	0.17317	0.095944	0.18741	0.20347	0.15619	0.060223	0.19867	0.1076	0.27479	0.16134	0.15337	-2.1542	-2.3042	-2.8542	-2.4854	-2.5	-2.7771	-2.3333	-2.8396	-2.5667	-2.4667	-2.9792	-2.4167	-2.4375	-2.9917	-2.3583	-2.5708	189.793	27.182	252.618	273.700	140.700	-16.110	131.712	275.299	-6.835	-55.632	183.476	36.631	121.932	51.483	217.597	127.479	0.00030074	0.001338	0.00032225	1156.4	1.8834e-06	1.2532e-05	1647.2	398.92	7.2823e-06	1.5737e-05	542.01	193.22	146.69	49.396	9.3355e-06	69.613	0.0058679	0.0061745	0.0017191	1144.8	5.6956e-05	6.7472e-05	1648.4	414.58	6.4704e-05	6.8133e-05	854.56	210.39	160.86	64.129	6.8108e-05	92.393	290.136	25.707	50.113	-54.454	247.967	244.737	-55.350	-49.831	273.652	57.064	-51.199	-47.356	-45.151	-40.355	-23.921	-42.551	-8191	255	
1268.627	1	1	0	0	0.22455	0.034236	0.24768	0.20349	0.18066	0.087909	0.23253	0.10197	0.28991	0.052066	0.1967	0.028538	0.29461	0.16926	0.055503	0.31404	-2.1979	-2.1125	-2.7792	-2.6396	-2.4854	-2.8688	-2.4604	-2.7375	-2.7375	-2.1458	-2.7896	-2.4958	-2.3146	-2.8479	-2.3708	-2.4833	281.065	-18.086	191.261	159.296	183.879	203.679	282.977	84.893	-11.331	177.124	273.208	239.761	274.095	-21.772	-3.978	199.747	0.00054013	0.0010349	8.9324e-05	1152.4	2.3371e-06	1.0116e-05	1644.3	397.25	7.4049e-06	1.5804e-06	535.48	191.8	146.37	49.518	4.3719e-06	70.504	0.0058681	0.0061799	0.0017124	1142	5.7129e-05	6.7748e-05	1643.5	413.9	6.4741e-05	6.8291e-05	854.14	209.66	160.72	64.188	6.8233e-05	92.738	210.646	36.422	-6.649	-54.540	215.607	258.214	-55.211	-49.693	167.580	52.361	-51.646	-47.233	-44.690	-40.093	170.054	-43.603	-8191	255	
1268.723	1	1	0	0	0.094807	0.26836	0.07047	0.06172	0.13749	0.21807	0.13505	0.1508	0.50844	0.098005	0.12287	0.22746	0.27439	0.10404	0.13136	0.18538	-2.4396	-2.2083	-2.7146	-2.7687	-2.525	-2.9646	-2.4792	-2.4958	-2.7687	-1.9	-2.7687	-2.4604	-2.1813	-3.0667	-2.2958	-2.4771	217.282	228.755	211.781	276.166	-20.373	100.852	205.425	9.805	-53.725	206.338	-26.868	87.102	281.539	145.250	87.129	155.831	0.0003967	0.000639	0.00042172	1153.2	3.0235e-06	6.2392e-06	1640.2	397.49	2.5656e-06	9.9291e-06	535.74	191.11	145.11	48.914	9.8149e-06	69.999	0.0058624	0.0061836	0.0017157	1140	5.6727e-05	6.7634e-05	1636.4	411.61	6.4664e-05	6.8179e-05	852.73	208.48	159.55	63.65	6.8727e-05	92.058	-24.160	218.049	-56.000	-54.542	-27.705	7.989	-55.275	-50.069	10.856	154.569	-51.551	-47.455	-45.026	-40.528	83.285	-43.507	-8191	255	
1268.844	1	1	0	0	0.076428	0.080812	0.036048	0.091852	0.10577	0.058627	0.32408	0.14693	0.23305	0.20564	0.24784	0.087351	0.08904	0.33643	0.14552	0.23378	-2.6875	-2.2458	-2.5938	-2.8375	-2.0896	-2.9417	-2.6208	-2.5146	-2.8958	-2.2229	-2.4562	-2.5271	-2.2313	-2.7771	-2.3979	-2.2875	175.277	-23.663	65.829	238.004	201.078	227.986	227.570	-27.367	159.443	55.863	237.223	275.816	222.181	268.932	43.104	6.721	0.00022492	0.0010671	0.00035246	1149	2.6176e-06	1.8981e-05	1638.8	397.39	5.8561e-06	9.5181e-06	542.94	192.25	146.01	49.209	1.6067e-05	70.358	0.0058462	0.0062252	0.0017265	1138.4	5.7141e-05	6.7929e-05	1638.5	413.34	6.4903e-05	6.8602e-05	859.4	209.39	160.58	64.067	6.8969e-05	92.571	172.092	-30.286	15.675	-54.424	231.353	158.124	-55.306	-49.958	220.395	-8.609	-51.972	-47.307	-45.230	-39.764	94.449	-43.771	-8191	255	
1268.940	1	1	0	0	0.16443	0.27341	0.23762	0.28445	0.18472	0.12302	0.18478	0.28526	0.14616	0.23278	0.29054	0.12212	0.28056	0.29021	0.17868	0.17691	-2.6146	-2.3396	-2.5187	-2.8375	-2.1	-2.9583	-2.7042	-2.3604	-2.8937	-2.4083	-2.4938	-2.7625	-2.1833	-2.9083	-2.5271	-2.4542	119.736	125.779	2.908	-17.833	103.133	258.835	260.320	277.113	157.984	191.293	62.837	169.835	276.359	108.189	-49.889	206.050	0.00021791	0.00047846	0.00024558	1159.3	3.0163e-06	1.8713e-06	1656.6	400.76	4.8872e-06	1.4343e-05	551.31	194.69	146.98	49.487	1.7231e-05	70.783	0.0058909	0.0062616	0.0017451	1145	5.6745e-05	6.8104e-05	1650.8	416.68	6.4561e-05	6.8679e-05	861.36	211.02	161.32	64.475	6.8727e-05	92.611	187.611	82.013	128.819	-54.581	250.193	-51.591	-55.419	-49.953	-65.506	77.621	-51.718	-47.538	-45.209	-40.203	284.100	-43.164	-8191	255	
1269.036	1	1	0	0	0.14033	0.068153	0.20115	0.053231	0.12827	0.30622	0.19285	0.13332	0.19907	0.10707	0.1743	0.26737	0.094906	0.10591	0.10798	0.22256	-2.6979	-2.0062	-2.5479	-3.0083	-2.0563	-2.8312	-2.6833	-2.1729	-2.9021	-2.4625	-2.5542	-2.9167	-2.2771	-2.8333	-2.525	-2.2083	34.155	-9.751	119.745	14.329	23.437	155.288	240.535	-64.449	212.773	113.393	57.439	177.470	277.467	239.326	49.847	-10.282	0.0002282	0.00074386	0.00046448	1164.3	2.5576e-06	1.2002e-05	1656.7	401.18	6.9755e-06	1.1288e-05	541.55	193.05	147.53	49.491	4.5426e-06	70.616	0.0059025	0.0062409	0.0017392	1148.1	5.6589e-05	6.8252e-05	1649.1	416.03	6.4648e-05	6.8592e-05	857.47	209.49	161.16	64.279	6.8431e-05	92.267	207.279	286.215	-10.059	-54.676	-50.748	147.190	-55.433	-50.076	140.708	40.308	-52.335	-47.702	-45.288	-40.827	22.076	-43.022	-8191	255	
1269.108	1	1	0	0	0.26445	0.065617	0.27972	0.2611	0.15733	0.16854	0.058847	0.22515	0.14312	0.19708	0.11317	0.1865	0.13045	0.15426	0.17759	0.072792	-2.4021	-2.3312	-2.3812	-3.0208	-2.1562	-2.7562	-2.8292	-2.2354	-2.8937	-2.5125	-2.3958	-2.9938	-2.275	-2.6083	-2.8312	-2.2375	-3.847	253.074	54.848	210.368	245.254	73.350	252.162	219.335	82.194	244.011	286.949	254.612	-45.473	-42.341	73.507	35.852	0.00019152	0.0012053	0.00028631	1168.5	3.8653e-06	7.3232e-06	1653.9	400.69	1.1856e-05	1.2424e-05	543.79	192.75	147.05	49.577	3.8385e-06	70.07	0.0058527	0.0062532	0.0017321	1151.2	5.7207e-05	6.8545e-05	1646.4	414.88	6.4833e-05	6.8635e-05	854.57	208.72	160.98	64.381	6.828e-05	92.102	163.734	88.452	282.539	-54.705	242.429	-54.898	-55.415	-49.928	105.434	82.326	-52.122	-47.236	-45.155	-40.139	135.901	-42.941	-8191	255	
1269.229	1	1	0	0	0.33804	0.24384	0.1507	0.17985	0.042443	0.14178	0.2361	0.23137	0.21717	0.19559	0.10001	0.17147	0.26883	0.098231	0.12923	0.25783	-2.5146	-2.6146	-2.2021	-2.9521	-2.1562	-2.6458	-2.9917	-2.3312	-2.8708	-2.4146	-2.3542	-2.9333	-2.2729	-2.5104	-2.7188	-2.2646	178.427	16.279	74.713	283.448	-58.904	289.529	220.769	255.920	104.771	282.362	287.116	258.997	253.977	187.969	180.491	136.921	0.00041339	0.001398	0.0001774	1170.9	6.8312e-06	7.1158e-06	1663.7	403.14	2.3934e-06	1.5882e-05	549.04	191.93	147.21	49.835	1.7927e-05	69.665	0.0058633	0.0062271	0.0017262	1154.3	5.687e-05	6.8297e-05	1654.1	417.58	6.4885e-05	6.8412e-05	856.16	208.98	161.05	64.441	6.8372e-05	91.946	206.963	-1.908	48.550	-54.660	239.905	278.834	-55.339	-50.075	72.550	142.042	-52.151	-47.796	-45.272	-39.914	85.104	-43.412	-8191	255	
1269.323	1	1	0	0	0.14726	0.1257	0.21407	0.12864	0.18926	0.11038	0.075766	0.4289	0.30136	0.11141	0.25823	0.14893	0.37044	0.14552	0.10061	0.063672	-2.3917	-2.6396	-2.3438	-3.0938	-2.3229	-2.5521	-3.0812	-2.1	-2.8646	-2.6896	-2.2208	-2.7854	-2.4	-2.2438	-3.0062	-2.1833	131.957	124.143	268.258	61.457	18.561	-48.061	208.269	-44.712	15.721	31.599	142.874	-19.998	-50.665	-2.745	91.609	33.694	8.6499e-05	0.00087225	0.00036294	1174	5.0372e-06	1.7708e-05	1662.1	402.96	6.1524e-06	1.3933e-05	542.87	192.24	147.02	49.538	8.2397e-06	70.139	0.0058982	0.0062358	0.0017281	1157.4	5.7242e-05	6.8371e-05	1655.6	417.34	6.4946e-05	6.843e-05	855.05	208.93	161.04	64.258	6.8331e-05	92.16	173.098	-29.102	-25.115	-54.652	234.272	44.134	-55.490	-50.121	57.560	90.911	-51.346	-47.654	-45.141	-39.989	191.493	-43.910	-8191	255	
1269.421	1	1	0	0	0.07296	0.28545	0.064934	0.13764	0.021041	0.18438	0.21876	0.061471	0.1226	0.22353	0.055448	0.099554	0.23666	0.13275	0.21262	0.179	-2.1729	-2.625	-2.3458	-3.0438	-2.4167	-2.2208	-3.0583	-2.2708	-2.4792	-2.8229	-2.1562	-2.6771	-2.4813	-2.3729	-2.9104	-2.2958	-39.616	13.148	-55.766	-42.297	3.941	-40.297	215.883	112.047	115.981	149.397	161.800	15.431	281.889	26.311	205.887	-45.861	0.00030107	0.00066312	0.00025111	1172.7	9.4481e-07	1.2266e-05	1660.6	403.18	5.8893e-06	3.7266e-05	550.25	192.5	148.21	50.314	1.5423e-05	69.906	0.0059099	0.0062319	0.0017299	1155.8	5.7461e-05	6.8293e-05	1654.1	417.01	6.5155e-05	6.8472e-05	857.09	209.47	161.93	64.586	6.7716e-05	92.293	257.610	276.882	-55.770	-54.591	95.488	11.867	-55.398	-49.849	173.541	52.452	-51.880	-47.588	-45.109	-40.219	280.391	-43.226	-8191	255	
1269.540	1	1	0	0	0.066152	0.077648	0.1157	0.065107	0.10014	0.28519	0.10382	0.18887	0.062358	0.27941	0.24576	0.23845	0.26402	0.14073	0.28977	0.059095	-2.0542	-2.6167	-2.0458	-2.8958	-2.3792	-2.1625	-3.1229	-2.1792	-2.5021	-2.6979	-2.2542	-2.7604	-2.6813	-2.2208	-2.9208	-2.3542	196.093	126.778	-17.923	279.070	47.233	124.556	-64.586	248.199	178.774	238.231	239.513	290.626	114.101	145.943	289.449	118.094	8.3859e-05	0.00098555	6.4723e-05	1170.5	3.1479e-07	1.2003e-05	1658.7	402.09	5.5025e-06	1.4347e-05	539.99	191.96	146.64	49.465	2.8467e-06	68.78	0.0058853	0.0062014	0.0017186	1156	5.72e-05	6.7933e-05	1652.6	416.93	6.499e-05	6.8314e-05	851.76	208.44	160.89	64.155	6.7832e-05	91.648	193.579	-1.765	119.553	-54.652	-49.040	63.324	-55.513	-49.920	214.493	145.109	-51.565	-47.375	-45.135	-40.235	38.216	-43.115	-8191	255	
1269.636	1	1	0	0	0.086949	0.16601	0.12194	0.23059	0.047306	0.1919	0.28666	0.059689	0.18849	0.085579	0.13992	0.23431	0.29445	0.24191	0.060034	0.18966	-2.0646	-2.8208	-2.2708	-2.7896	-2.6833	-2.2292	-2.9604	-2.4458	-2.4521	-2.7646	-2.175	-2.6312	-2.7604	-2.1604	-2.8208	-2.2958	153.350	-50.288	279.643	203.417	5.816	265.727	-28.116	257.901	227.354	-38.697	163.849	278.953	155.775	95.155	-42.005	204.240	6.9623e-05	0.00034278	0.00027129	1168.3	3.966e-06	7.1811e-06	1657	400.81	4.5682e-06	7.6712e-06	535.45	190.69	146.58	49.475	2.3446e-05	69.109	0.0058714	0.0061741	0.0017191	1152.4	5.6677e-05	6.7717e-05	1647.7	415.18	6.473e-05	6.8023e-05	853.31	207.24	160.3	63.785	6.828e-05	91.514	254.927	74.458	248.596	-54.745	252.992	109.302	-55.443	-50.096	166.495	30.181	-51.720	-47.411	-45.272	-40.252	106.849	-43.087	-8191	255	
1269.732	1	1	0	0	0.13801	0.016411	0.022803	0.17	0.14421	0.25802	0.10091	0.11657	0.33328	0.10486	0.18006	0.059728	0.17916	0.1142	0.24346	0.22284	-1.9312	-2.8479	-2.175	-2.8542	-2.8521	-2.1167	-2.9188	-2.7125	-2.3271	-2.8229	-2.3333	-2.5958	-2.6729	-2.3354	-2.7062	-2.5312	207.400	286.771	37.181	174.744	-43.584	-40.875	-40.250	141.881	72.643	227.716	88.247	183.823	90.909	72.908	-39.740	249.493	0.00017378	0.00015947	0.00015748	1167.8	9.1885e-06	4.4584e-06	1653.7	399.91	9.7224e-06	9.941e-06	541.19	191.02	146.7	49.021	1.9194e-06	69.228	0.0059082	0.0062204	0.0017333	1153	5.6918e-05	6.7743e-05	1645.5	415.12	6.485e-05	6.8072e-05	851.71	207.27	160.19	63.791	6.8385e-05	91.401	211.225	31.708	198.875	-54.731	-33.418	19.441	-55.435	-50.044	90.846	166.349	-51.948	-47.351	-45.065	-40.215	32.143	-43.361	-8191	255	
1269.828	1	1	0	0	0.103	0.13401	0.12445	0.014906	0.074697	0.076337	0.10555	0.28341	0.16886	0.14418	0.24958	0.12451	0.11594	0.2527	0.31102	0.18257	-1.8146	-2.8292	-2.3979	-2.6937	-2.8875	-2.1604	-2.9708	-2.7375	-2.2521	-2.9354	-2.3167	-2.3979	-2.875	-2.2812	-2.7208	-2.5833	117.642	119.507	178.545	-48.564	19.016	-28.116	237.042	13.604	-8.162	189.644	160.671	26.553	288.049	16.478	87.687	13.984	8.5971e-05	0.00020761	0.00012202	1172.6	5.4344e-06	1.5678e-05	1655	401.13	8.7723e-06	1.5056e-05	556.94	191.92	147.25	49.334	4.6985e-06	70.181	0.0058693	0.0061855	0.0017265	1156.6	5.6752e-05	6.7662e-05	1649.5	416.04	6.4086e-05	6.7517e-05	855.34	208.17	161.16	63.95	6.7418e-05	91.77	147.338	-10.593	13.591	-54.710	249.963	44.974	-55.492	-49.862	127.135	113.715	-51.454	-47.773	-44.902	-40.124	46.289	-43.046	-8191	255	
1269.924	1	1	0	0	0.10236	0.049591	0.23655	0.40578	0.36675	0.16111	0.15406	0.055823	0.32026	0.135	0.062419	0.23802	0.14084	0.19352	0.18634	0.034488	-1.8875	-2.7938	-2.3625	-2.4271	-2.6979	-2.275	-2.7292	-2.6229	-2.0583	-2.8729	-2.3979	-2.2396	-2.875	-2.1417	-2.6792	-2.8042	216.728	120.763	-61.913	226.139	-66.910	-0.043	250.366	120.404	286.484	252.739	12.800	160.710	-14.148	230.091	-38.641	93.383	0.00049891	0.001492	0.00033355	1180.9	4.8297e-06	6.4829e-06	1667.3	405.85	5.2379e-06	1.3041e-05	552.24	191.84	148.27	49.843	8.1352e-06	69.371	0.005757	0.0060876	0.0016982	1164.3	5.5311e-05	6.6065e-05	1660	419.75	6.2137e-05	6.5402e-05	842.34	207.43	161.21	63.715	6.4912e-05	90.542	236.565	-4.781	19.011	-54.721	-13.200	94.659	-55.587	-50.062	94.622	20.666	-51.126	-47.447	-45.109	-39.696	-1.848	-43.243	-8191	255	
1270.020	1	1	0	0	0.090735	0.23581	0.089927	0.14755	0.18558	0.1012	0.11443	0.054343	0.035424	0.093189	0.32399	0.083695	0.062996	0.13677	0.17693	0.065049	-1.6896	-3.0167	-2.4	-2.3896	-2.8146	-2.1063	-2.6583	-2.7854	-2.325	-2.9271	-2.5646	-2.3854	-2.9542	-2.2438	-2.5167	-2.8375	-63.047	4.720	285.020	246.875	174.957	55.858	173.218	52.559	166.612	135.807	192.292	240.738	110.900	113.666	127.309	-1.121	0.00013411	0.00035797	0.0003506	1181.1	3.3136e-06	8.0305e-06	1665	405.32	7.5195e-06	1.4832e-05	553.18	190.09	148.66	49.992	8.1807e-06	69.154	0.0055681	0.0058491	0.0016311	1164.9	5.3145e-05	6.3516e-05	1657.9	418.71	6.0208e-05	6.3591e-05	830.64	206.01	160.51	63.343	6.3184e-05	89.477	113.137	-64.695	40.129	-54.611	252.280	82.522	-55.473	-49.943	231.436	157.892	-51.216	-47.309	-44.934	-39.949	45.487	-43.871	-8191	255	
1270.141	1	1	0	0	0.17811	0.31643	0.19289	0.10117	0.070225	0.13592	0.2339	0.23386	0.10606	0.033097	0.13131	0.17475	0.095081	0.081876	0.14531	0.090039	-1.7833	-2.7562	-2.575	-2.3854	-2.8708	-2.2917	-2.7896	-2.7833	-2.1542	-2.7396	-2.5146	-2.1562	-2.8563	-2.4771	-2.2292	-2.8625	-48.144	218.686	250.460	249.928	169.803	17.769	166.932	280.630	103.253	160.942	85.224	274.990	7.633	123.079	35.779	132.060	0.00049464	0.0011298	0.00012673	1179	3.3593e-06	1.3472e-05	1661.1	404.92	8.1932e-06	4.4352e-06	545.13	190.11	147.18	49.33	2.3036e-06	69.195	0.005376	0.0057089	0.0015752	1162.1	5.1294e-05	6.1848e-05	1655.7	417.78	5.8583e-05	6.173e-05	819.4	205.16	159.54	62.538	6.1645e-05	88.693	191.235	63.291	-34.414	-54.674	-39.726	169.864	-55.478	-49.914	173.883	-33.014	-52.018	-47.573	-45.206	-40.461	74.446	-42.705	-8191	255	
1270.237	1	1	0	0	0.092912	0.14571	0.071991	0.23002	0.29192	0.058697	0.10533	0.25766	0.068093	0.26885	0.19588	0.29454	0.012256	0.1043	0.40789	0.22821	-1.6688	-2.6542	-2.6417	-2.3854	-2.8875	-2.3937	-2.3875	-2.9313	-2.1083	-2.625	-2.7292	-2.1729	-2.825	-2.4125	-2.3375	-2.8229	156.858	94.233	-6.074	226.162	242.666	149.789	238.313	-58.733	90.695	156.068	4.276	190.108	187.696	234.089	20.200	123.347	0.00021396	0.00067221	0.00019577	1174.5	3.8143e-06	2.6286e-05	1658.6	402.32	1.6329e-05	1.8346e-05	537.37	190.46	146.89	49.349	6.3524e-06	68.834	0.0052541	0.0055928	0.0015445	1158.6	5.0808e-05	6.0869e-05	1651.5	415.24	5.7617e-05	6.094e-05	814.2	204.79	159.06	62.108	6.0422e-05	88.134	214.806	26.842	28.179	-54.668	-52.664	21.393	-55.467	-49.831	170.493	49.716	-51.044	-47.417	-45.240	-40.083	158.937	-43.565	-8191	255	
1270.332	1	1	0	0	0.2869	0.2097	0.14457	0.23833	0.047693	0.16674	0.26387	0.27455	0.37168	0.084954	0.072416	0.14892	0.19397	0.10617	0.035722	0.067834	-1.7083	-2.5	-2.6583	-2.3083	-2.7979	-2.5917	-2.3854	-2.8521	-2.2812	-2.5646	-2.9021	-2.0958	-2.7687	-2.6583	-2.3229	-2.7792	96.791	-5.037	168.604	240.558	219.207	82.406	250.436	-64.944	113.454	18.154	128.768	55.937	36.668	67.807	160.185	291.120	0.00010888	0.00045876	7.9342e-05	1171.6	3.6596e-06	1.2648e-05	1654.9	401.86	4.668e-06	1.0386e-05	542.47	189.85	146.57	49.692	4.686e-06	68.449	0.0052042	0.0055256	0.0015185	1155.1	5.0254e-05	6.019e-05	1648.4	414.73	5.7251e-05	6.0629e-05	809.24	204.5	158.77	62.085	6.0442e-05	88.382	204.308	1.540	71.304	-54.573	-15.666	-0.388	-55.592	-49.980	213.509	-16.935	-51.583	-47.447	-45.112	-40.154	-56.779	-42.639	-8191	255	
1270.405	1	1	0	0	0.12655	0.27083	0.037977	0.059076	0.28703	0.31452	0.11086	0.23894	0.24373	0.046353	0.12132	0.13582	0.096302	0.12502	0.23185	0.35911	-1.9188	-2.2354	-2.7729	-2.4917	-2.7083	-2.625	-2.4	-2.7854	-2.3792	-2.3833	-2.7021	-2.1521	-2.5312	-2.6479	-2.1125	-3.0083	11.603	125.457	90.310	-42.531	-45.664	-65.327	250.432	137.740	-34.438	4.056	208.459	156.717	217.537	9.335	157.872	87.204	0.00026131	0.0015209	0.00017273	1171.2	1.6453e-06	5.9655e-06	1653.8	402.67	2.7504e-06	1.0631e-06	534.69	189.04	146.82	49.226	5.8776e-06	68.998	0.0052245	0.0055351	0.0015228	1155.9	5.0662e-05	6.0649e-05	1649.2	415.39	5.7855e-05	6.1187e-05	811	203.32	158.5	62.16	6.0914e-05	87.907	137.207	-17.584	6.721	-54.665	258.709	70.054	-55.407	-49.849	172.675	208.350	-51.284	-47.644	-45.000	-40.049	240.791	-42.978	-8191	255	
1270.524	1	1	0	0	0.11955	0.14181	0.1825	0.31312	0.2451	0.037287	0.38894	0.022153	0.26648	0.070066	0.17129	0.29417	0.16532	0.17419	0.13778	0.19345	-2.0187	-2.3833	-2.8521	-2.4062	-2.4208	-2.6625	-2.4417	-2.8271	-2.5438	-2.2146	-2.7125	-2.1583	-2.4417	-2.7896	-2.1188	-2.6083	162.363	133.502	31.680	241.495	117.831	159.584	216.662	42.886	107.481	191.848	179.512	-6.974	-32.613	93.765	216.987	187.435	0.00032761	0.00047096	0.00021342	1173.3	2.1865e-06	1.8863e-05	1653.7	400.72	2.0994e-06	8.1364e-06	537.31	186.84	144.37	48.355	6.7207e-06	67.99	0.0052628	0.0055573	0.0015294	1157.1	5.085e-05	6.0404e-05	1645.5	413.5	5.7729e-05	6.0764e-05	807.55	201.44	156.95	61.297	6.1139e-05	87.293	-10.228	201.023	128.324	-54.674	291.097	255.452	-55.455	-50.083	-10.985	207.997	-51.316	-47.521	-45.258	-40.162	16.915	-43.329	-8191	255	
1270.620	1	1	0	0	0.30006	0.22645	0.15932	0.095784	0.094206	0.21713	0.17943	0.1769	0.22184	0.26718	0.20816	0.17977	0.14068	0.31645	0.15356	0.1823	-2.1375	-2.2792	-2.9542	-2.4604	-2.3438	-2.8021	-2.2333	-2.6417	-2.8229	-2.1604	-2.7104	-2.3646	-2.1854	-2.8958	-2.0917	-2.7208	42.781	50.854	167.236	262.115	107.725	249.960	-51.640	273.005	99.485	53.150	267.882	-34.454	165.621	289.142	101.688	126.940	0.00043124	0.00080507	0.00032926	1163.1	3.9792e-06	2.4609e-05	1641.4	396.45	1.0802e-05	7.3739e-07	521.71	186.58	142.97	48.035	1.4594e-05	66.762	0.0052673	0.0055663	0.0015403	1149.1	5.1052e-05	6.0535e-05	1633.6	409.04	5.8446e-05	6.1556e-05	805.98	200.71	155.6	61.098	6.1349e-05	86.946	111.467	-8.963	46.809	-54.604	-29.394	67.268	-55.435	-49.920	-12.264	89.098	-51.759	-47.453	-44.924	-39.899	88.701	-43.211	-8191	255	
1270.716	1	1	0	0	0.35599	0.06152	0.15676	0.18704	0.16605	0.13502	0.34403	0.14505	0.085493	0.22114	0.13681	0.13674	0.29005	0.023124	0.094777	0.21705	-2.1396	-2.2958	-2.8542	-2.4813	-2.3208	-2.9271	-2.2833	-2.5229	-2.7208	-2.2333	-2.8333	-2.4375	-2.3979	-2.8771	-2.3125	-2.6729	136.458	46.069	230.106	223.362	53.082	-15.332	250.345	31.191	192.219	193.960	252.378	269.612	97.847	-36.468	202.026	252.595	0.00025083	0.0011849	0.00034842	1151.1	6.3904e-06	3.4849e-05	1636.1	396.91	9.8478e-06	8.6519e-06	539.34	187.39	144.45	48.646	1.0022e-05	67.553	0.0052913	0.0055761	0.0015461	1138.2	5.1401e-05	6.1361e-05	1629.8	409.63	5.7929e-05	6.1409e-05	812.84	202.36	156.97	61.493	6.1728e-05	87.953	-16.413	82.029	57.741	-54.513	-35.169	9.432	-55.410	-49.970	241.887	64.883	-51.651	-47.365	-45.466	-39.852	64.600	-42.826	-8191	255	
1270.812	1	1	0	0	0.053382	0.21663	0.10033	0.18961	0.42258	0.24765	0.16078	0.10153	0.13771	0.26823	0.11012	0.15372	0.053733	0.20306	0.17654	0.076624	-2.5875	-2.3896	-2.8812	-2.75	-2.1854	-2.9708	-2.7271	-2.4833	-2.8812	-2.2104	-2.6271	-2.5312	-2.4729	-2.8438	-2.2958	-2.5625	1.309	184.052	155.006	237.199	187.808	197.131	187.114	168.169	183.036	233.608	3.650	220.272	-31.901	72.185	79.883	-13.836	0.00024824	0.001649	0.00030638	1156.7	2.3766e-06	1.9862e-05	1639.1	397.33	5.0528e-06	1.474e-05	530.74	188.52	145.57	48.895	3.4879e-06	68.031	0.0053098	0.0055693	0.0015508	1143.3	5.1233e-05	6.0679e-05	1634.7	411.83	5.8003e-05	6.123e-05	812.42	203.49	157.8	61.806	6.115e-05	87.63	161.784	135.794	80.202	-54.527	266.103	45.867	-55.350	-49.931	-0.231	73.327	-51.254	-47.395	-44.757	-40.199	41.529	-43.314	-8191	255	
1270.933	1	1	0	0	0.14066	0.33607	0.052801	0.082088	0.17765	0.14038	0.11189	0.1994	0.23464	0.15071	0.17477	0.15825	0.2486	0.28055	0.072038	0.16088	-2.4458	-2.1104	-2.6333	-2.8875	-2.2896	-2.8021	-2.5896	-2.4854	-3.0146	-2.225	-2.6542	-2.6271	-2.2604	-2.9396	-2.4292	-2.3	201.422	-46.672	-35.019	30.790	120.667	19.736	280.431	211.829	-51.442	-35.658	20.823	204.910	276.877	173.159	-60.460	-43.257	0.00033297	0.00048804	0.00019258	1156.2	2.6552e-06	1.5045e-05	1635.7	395.08	8.7421e-06	5.0715e-06	529.88	186.88	144.45	48.457	2.1207e-05	66.945	0.0052312	0.0055517	0.0015512	1141.6	5.0982e-05	6.0396e-05	1630.2	409.34	5.8073e-05	6.1192e-05	808.98	201.87	157.18	61.562	6.149e-05	86.811	100.000	68.847	120.768	-54.537	-56.059	-24.021	-55.338	-49.949	45.400	241.708	-51.464	-47.516	-45.008	-40.389	82.257	-42.971	-8191	255	
1271.005	1	1	0	0	0.10575	0.19297	0.1617	0.36075	0.088826	0.077406	0.1683	0.12481	0.15698	0.28147	0.20102	0.18733	0.083805	0.17329	0.10207	0.18814	-2.5667	-2.2229	-2.5187	-2.7292	-2.2458	-2.8812	-2.4854	-2.3604	-2.8563	-2.1625	-2.45	-2.8521	-2.1792	-2.7729	-2.3542	-2.2958	233.312	130.178	244.547	259.286	-44.352	217.932	164.528	172.349	115.265	261.911	286.429	46.872	246.361	90.874	65.415	183.707	0.0002049	0.00092165	0.00021366	1153.5	4.6807e-06	1.9664e-05	1632.2	396.51	4.2168e-06	2.2532e-05	539.49	185.82	144.4	48.446	6.2007e-06	67.577	0.0052389	0.0055985	0.0015614	1141.5	5.0887e-05	6.083e-05	1628.7	409.95	5.7601e-05	6.1525e-05	810.09	201.45	157.18	61.587	6.114e-05	87.059	134.887	187.597	57.420	-54.484	-20.831	52.624	-55.184	-49.793	65.282	-8.371	-51.288	-47.553	-44.828	-39.755	181.215	-43.353	-8191	255	
1271.101	1	1	0	0	0.081966	0.014961	0.11356	0.14663	0.2605	0.24171	0.15731	0.10256	0.2236	0.18064	0.18237	0.18154	0.10999	0.1124	0.43334	0.16829	-2.6792	-2.1521	-2.5438	-2.9688	-2.2917	-2.7229	-2.8688	-2.3271	-2.7854	-2.3333	-2.3583	-2.8833	-2.1292	-2.6562	-2.6437	-2.2667	198.826	21.490	-63.297	268.992	67.602	287.938	270.396	128.805	82.821	79.075	137.980	228.990	223.531	75.222	112.433	-39.106	0.00027866	0.00088496	0.00011113	1157.4	2.3193e-06	8.1942e-06	1637	397.45	1.6078e-06	1.535e-05	539.44	185.53	143.97	48.214	2.4075e-05	66.478	0.0052079	0.005585	0.0015483	1144	5.096e-05	6.079e-05	1631.2	410.48	5.7534e-05	6.1208e-05	811.84	200.68	156.38	61.343	6.1486e-05	86.285	186.898	-48.464	55.489	-54.396	267.265	6.604	-55.301	-49.984	-11.657	56.505	-52.075	-47.493	-44.965	-40.197	90.125	-43.000	-8191	255	
1271.221	1	1	0	0	0.26094	0.11435	0.16334	0.30265	0.24918	0.19209	0.2738	0.12744	0.25987	0.22379	0.26539	0.10459	0.24506	0.19206	0.23571	0.16507	-2.5396	-2.3438	-2.35	-2.9458	-2.3812	-2.65	-2.9167	-2.225	-2.9646	-2.5167	-2.1042	-2.9729	-2.2188	-2.575	-2.6271	-2.1562	-48.838	36.130	30.351	227.754	201.569	159.282	215.555	201.956	201.856	182.527	213.688	101.696	92.717	235.659	-25.333	168.850	0.00028856	0.0010831	4.7336e-05	1150.6	1.1944e-06	1.7598e-05	1615.8	390.75	1.015e-05	1.5356e-05	526.69	186.09	142.97	47.702	8.1724e-06	66.218	0.005271	0.0056146	0.001565	1137.4	5.1496e-05	6.1514e-05	1616.5	405.56	5.8314e-05	6.215e-05	807.1	201.12	155.9	61.148	6.1452e-05	86.282	150.864	81.879	34.252	-54.528	-51.110	-38.706	-55.173	-49.692	209.790	66.488	-51.328	-47.222	-44.690	-39.861	77.305	-42.916	-8191	255	
1271.318	1	1	0	0	0.20577	0.20991	0.11069	0.12291	0.14189	0.065812	0.33244	0.1214	0.02963	0.23024	0.058784	0.13216	0.14215	0.27722	0.077188	0.18936	-2.2958	-2.5083	-2.2792	-3.0625	-2.1271	-2.6396	-2.8729	-2.2875	-3.0229	-2.825	-2.4896	-2.9229	-2.3479	-2.3896	-2.8125	-2.1292	117.995	114.258	-47.370	172.140	157.356	98.834	-37.391	217.689	12.260	-67.379	217.652	-24.760	273.723	193.634	164.009	57.304	5.9697e-05	0.00015326	0.00037224	1134.8	1.1082e-06	1.3243e-05	1599	384.55	1.2615e-05	1.6341e-06	518.27	184.15	142.28	47.461	8.1574e-06	64.944	0.005305	0.005626	0.001563	1122.7	5.1432e-05	6.1552e-05	1599.1	400	5.8268e-05	6.1715e-05	803.26	199.59	155.4	60.862	6.1391e-05	85.481	120.853	-8.755	-60.807	-54.373	212.545	12.529	-55.233	-49.584	265.898	44.372	-51.394	-47.170	-44.798	-39.571	118.853	-43.212	-8191	255	
1271.412	1	1	0	0	0.15331	0.11671	0.02163	0.2364	0.044445	0.23182	0.32958	0.11	0.061421	0.21717	0.042897	0.079328	0.069565	0.13775	0.30052	0.14902	-2.3187	-2.5792	-2.1979	-3.0396	-2.1396	-2.4813	-2.8875	-2.1292	-2.6125	-2.8187	-2.2979	-2.9083	-2.3708	-2.2292	-2.7708	-2.1917	144.943	205.605	47.106	238.389	172.936	254.176	234.989	292.086	112.047	152.039	214.283	147.983	80.570	103.094	199.724	-30.730	0.00018285	0.00067631	0.00023505	1129.6	4.4261e-06	1.2318e-05	1592.4	383.52	2.3251e-06	1.7808e-05	517.59	182.04	141.71	47.615	6.8886e-06	65.845	0.0053111	0.0056176	0.0015479	1119.7	5.1451e-05	6.1652e-05	1594.7	398.95	5.8381e-05	6.1578e-05	797.64	198.37	154.7	60.875	6.1286e-05	85.355	84.774	93.046	104.706	-54.260	226.433	-57.444	-55.171	-49.527	287.926	81.533	-50.656	-46.922	-44.777	-40.371	-52.337	-42.803	-8191	255	
1271.510	1	1	0	0	0.21939	0.099449	0.36922	0.3676	0.015737	0.092916	0.073622	0.256	0.17069	0.065198	0.12072	0.20379	0.044853	0.23464	0.27991	0.25179	-2.3292	-2.7125	-2.2208	-3.0396	-2.4271	-2.4062	-3.05	-2.2333	-2.4667	-2.7583	-2.1854	-2.7812	-2.4333	-2.2021	-2.9	-2.0146	92.164	73.527	233.135	286.181	145.036	206.225	197.957	-28.682	94.248	209.043	141.856	277.540	16.785	174.563	-20.097	225.369	0.00025267	0.00096632	0.00030019	1132.7	4.6302e-06	1.7274e-05	1599	385.1	6.5597e-06	7.8812e-06	524.42	183.22	141.72	47.733	1.4342e-05	65.18	0.0053031	0.0055864	0.0015538	1119.7	5.1467e-05	6.1351e-05	1595.3	399.69	5.8344e-05	6.1554e-05	796.53	198.39	154.96	60.678	6.1547e-05	85.446	46.149	41.344	2.986	-54.487	-54.080	8.437	-55.142	-49.551	-15.659	268.280	-51.879	-47.502	-44.819	-40.801	110.512	-42.461	-8191	255	
1271.629	1	1	0	0	0.17422	0.18782	0.33157	0.34029	0.13896	0.053629	0.18092	0.16927	0.12038	0.024778	0.15035	0.26534	0.23976	0.086103	0.11577	0.042498	-2.0583	-2.7625	-2.1146	-3.0333	-2.4667	-2.3375	-2.9208	-2.4896	-2.5292	-2.9938	-2.2021	-2.8771	-2.6833	-2.4125	-3.0187	-2.2812	-13.097	-21.508	-38.326	213.710	-54.695	-14.719	256.409	180.016	-41.458	157.117	-4.407	170.945	0.235	-16.173	-53.799	56.419	0.00011736	0.00080239	0.00039296	1134.8	8.9438e-06	1.0082e-05	1598.1	387.47	4.1069e-06	3.8884e-06	518.39	182.73	141.73	47.363	1.0255e-05	65.169	0.0053364	0.0055986	0.0015528	1126.3	5.1334e-05	6.1591e-05	1600.8	402.69	5.8602e-05	6.1432e-05	798.92	198.87	155.62	60.82	6.1596e-05	85.737	-36.269	184.864	96.133	-54.242	288.123	-15.995	-55.026	-49.634	237.543	11.193	-51.118	-47.292	-44.661	-40.068	81.384	-43.245	-8191	255	
1271.700	1	1	0	0	0.33097	0.19129	0.21048	0.13101	0.06778	0.2563	0.13485	0.041905	0.079044	0.092831	0.22604	0.094362	0.074487	0.14718	0.12206	0.18686	-2.1208	-2.8688	-2.1188	-2.7396	-2.6042	-2.1688	-3.0542	-2.6375	-2.3708	-2.8292	-2.2021	-2.4708	-2.7083	-2.2667	-2.8583	-2.4354	126.695	-39.315	-54.924	-58.287	-18.609	213.050	256.080	172.721	279.173	232.544	-52.555	117.908	48.603	100.916	182.979	27.122	0.00013499	0.00051083	0.00015463	1144.6	4.7493e-06	1.0677e-05	1602.8	390.84	2.2774e-06	1.5187e-05	520.01	183.17	142.72	47.807	1.1156e-05	64.955	0.0053558	0.0056266	0.001563	1135.6	5.1687e-05	6.1794e-05	1606.2	404.83	5.8927e-05	6.2188e-05	802.02	199.41	156.47	61.118	6.1675e-05	85.936	129.778	37.090	36.152	-54.177	248.239	57.793	-55.054	-49.706	62.665	94.299	-50.728	-47.230	-44.287	-39.546	86.588	-42.932	-8191	255	
1271.797	1	1	0	0	0.082702	0.22073	0.3028	0.3811	0.097725	0.09923	0.34839	0.36726	0.10258	0.071967	0.19232	0.099082	0.27115	0.18786	0.047646	0.16304	-1.95	-2.7438	-2.3583	-2.7333	-2.6917	-2.0729	-3.0479	-2.7042	-2.2854	-2.9125	-2.2583	-2.5	-2.8646	-2.2292	-2.5979	-2.6146	141.298	70.965	117.018	-66.588	65.295	55.063	261.578	-35.575	284.093	135.147	104.229	-25.431	247.448	239.413	50.905	201.149	0.00047748	0.0017456	0.00018761	1145.7	4.7117e-06	3.5278e-05	1604	390.24	1.2321e-06	3.612e-06	519.4	181.57	142.75	47.859	1.4841e-05	64.763	0.0053168	0.0055972	0.0015649	1139	5.1657e-05	6.1369e-05	1609.1	405.87	5.8733e-05	6.1847e-05	802.32	198.48	156.48	61.069	6.1675e-05	85.325	249.767	5.705	243.375	-54.194	-19.066	60.055	-54.909	-49.421	131.342	72.600	-50.606	-47.141	-44.228	-39.950	106.467	-42.563	-8191	255	
1271.917	1	1	0	0	0.18955	0.25283	0.24857	0.2514	0.09087	0.1422	0.26591	0.25169	0.12148	0.1777	0.071157	0.060973	0.33441	0.12863	0.066371	0.29821	-1.7354	-2.8896	-2.1917	-2.6479	-2.9417	-2.2208	-2.8375	-2.6208	-2.3021	-2.8354	-2.4583	-2.5771	-2.9167	-2.3063	-2.7417	-2.6188	199.541	2.568	55.254	266.465	118.015	59.597	285.470	100.819	292.055	130.887	278.402	108.434	103.603	225.918	58.954	-20.500	0.0002688	0.00075297	0.00021886	1144	5.9844e-07	1.2791e-05	1598.5	386.76	9.8065e-06	2.6905e-06	521.25	179.98	141.65	47.264	1.0596e-05	65.058	0.0052988	0.0056213	0.0015608	1136.7	5.1438e-05	6.1385e-05	1604	403.26	5.8568e-05	6.1706e-05	798.98	196.82	155.4	60.771	6.195e-05	84.837	47.608	-56.318	-53.004	-54.130	117.587	61.968	-54.927	-49.326	-59.511	96.069	-49.283	-47.253	-44.370	-39.495	68.141	-42.606	-8191	255	
1272.013	1	1	0	0	0.23672	0.22658	0.274	0.11715	0.064359	0.18729	0.27008	0.41664	0.13959	0.12433	0.17188	0.25148	0.13795	0.14047	0.15064	0.092988	-1.5583	-2.8063	-2.2188	-2.6312	-2.7833	-2.2646	-2.8688	-2.6771	-2.1125	-2.8792	-2.3042	-2.2458	-2.9188	-2.0333	-2.6771	-2.6208	2.881	203.453	159.539	-47.480	244.178	2.527	170.355	208.084	161.490	83.471	210.639	171.498	254.773	-60.194	164.252	22.231	0.00020602	0.00063761	0.00035343	1141.4	3.5988e-06	1.8494e-05	1588.4	384.61	3.2686e-06	6.3831e-06	512.01	179.36	141.55	47.089	2.2163e-06	63.683	0.0053211	0.0056406	0.0015683	1134.7	5.1402e-05	6.164e-05	1594.9	401.84	5.8721e-05	6.2052e-05	797.9	196.27	155.2	60.808	6.2332e-05	84.699	279.994	254.582	61.752	-54.208	260.432	125.105	-54.982	-49.199	248.749	27.011	-50.775	-47.031	-44.533	-39.528	155.660	-42.463	-8191	255	
1272.110	1	1	0	0	0.20596	0.1264	0.30953	0.092695	0.13729	0.13478	0.14113	0.10302	0.12769	0.17264	0.010879	0.061838	0.16856	0.047605	0.155	0.12693	-1.8062	-2.7396	-2.2667	-2.5042	-2.7958	-2.35	-2.6771	-2.9271	-2.1063	-2.7583	-2.4938	-2.1708	-2.8583	-2.2021	-2.6708	-2.9333	-18.764	134.816	189.069	280.863	166.094	177.926	244.516	120.503	41.783	259.938	279.821	170.554	187.907	-5.819	220.218	-4.452	0.00024254	0.00046195	0.00020786	1147.8	2.8136e-06	1.5999e-05	1602.2	389.78	3.3669e-06	1.2702e-05	516.24	182	143.35	47.934	4.7695e-06	64.866	0.0053244	0.0056411	0.0015715	1142	5.1465e-05	6.1665e-05	1606.3	406.48	5.8986e-05	6.1954e-05	803.86	198.33	157.2	61.579	6.2339e-05	85.617	-21.254	-25.884	63.780	-54.141	283.763	128.702	-55.052	-49.300	110.216	-23.487	-50.051	-47.336	-44.288	-39.349	87.423	-42.659	-8191	255	
1272.230	1	1	0	0	0.1903	0.1758	0.10201	0.19782	0.16127	0.16853	0.28355	0.061839	0.18991	0.19254	0.27298	0.18873	0.1277	0.14342	0.26315	0.019824	-1.9083	-2.675	-2.6833	-2.4083	-2.9104	-2.4521	-2.5833	-2.7146	-2.2667	-2.7333	-2.6417	-2.1917	-2.9583	-2.325	-2.4167	-2.9292	188.033	13.353	175.886	49.341	103.509	278.830	230.569	243.596	105.349	-42.032	46.790	196.554	230.423	-11.702	6.256	95.985	0.00019165	0.00048343	0.00017831	1159.8	4.6881e-06	7.5135e-06	1609.3	394.34	8.6249e-06	1.2074e-05	526.16	183.13	144.43	47.979	1.3113e-05	65.251	0.0053203	0.0056725	0.0015658	1153.5	5.1517e-05	6.2343e-05	1619.3	411.04	5.8731e-05	6.2431e-05	805.7	199.2	158.35	61.783	6.2281e-05	85.824	267.313	-56.684	15.249	-54.150	-65.251	149.726	-54.821	-49.272	202.732	102.840	-50.629	-47.034	-44.685	-39.491	122.878	-42.781	-8191	255	
1272.302	1	1	0	0	0.055373	0.12932	0.16953	0.36924	0.22869	0.07792	0.18404	0.27498	0.13085	0.055444	0.086629	0.16519	0.17352	0.32409	0.12689	0.27353	-1.7521	-2.5917	-2.7604	-2.6104	-2.8167	-2.5292	-2.5875	-2.8646	-2.1771	-2.6792	-2.8833	-2.1667	-2.7208	-2.5667	-2.5271	-2.9104	290.753	-26.308	238.244	-65.571	165.873	99.105	265.831	259.323	248.744	127.875	68.055	-54.981	-44.670	264.855	50.243	-30.317	0.00033894	0.0019518	0.00034449	1163	3.854e-06	9.0878e-06	1616.1	394.88	8.0828e-06	1.3899e-05	513.39	182.47	143.85	48.168	2.8393e-06	64.128	0.0053247	0.0056608	0.0015601	1155.1	5.1477e-05	6.1618e-05	1619.4	410.33	5.8973e-05	6.2641e-05	803.86	198.35	157.65	61.804	6.2045e-05	85.376	243.083	26.148	11.143	-54.166	-63.298	221.802	-55.093	-49.407	123.680	254.505	-51.139	-47.291	-44.426	-39.367	64.812	-43.036	-8191	255	
1272.398	1	1	0	0	0.12887	0.048016	0.15105	0.1417	0.083311	0.18575	0.19877	0.25908	0.086314	0.17752	0.47574	0.11095	0.14327	0.19816	0.22515	0.16226	-1.9021	-2.3896	-2.7979	-2.3583	-2.6396	-2.5854	-2.2958	-2.9625	-2.2646	-2.5563	-2.9729	-2.175	-2.8312	-2.7396	-2.2917	-2.6875	48.092	68.108	263.583	244.597	-0.767	21.945	241.815	244.082	98.892	172.864	192.164	263.029	278.393	21.780	-50.551	-16.933	0.00021837	0.00096269	0.00018167	1159.3	1.3827e-06	9.0499e-06	1614.2	394.18	1.1122e-05	1.5397e-05	519.12	181.37	144.54	48.354	1.8008e-05	64.58	0.0053379	0.005673	0.001563	1151.2	5.189e-05	6.1721e-05	1610.1	407.6	5.8644e-05	6.2314e-05	798.67	197.07	157.06	61.52	6.216e-05	84.993	174.136	-3.173	140.389	-54.173	67.579	-55.334	-55.312	-49.631	108.131	5.092	-50.658	-47.558	-44.873	-39.680	56.135	-43.196	-8191	255	
1272.492	1	1	0	0	0.30394	0.017836	0.23545	0.3245	0.24247	0.0079209	0.22737	0.15459	0.19136	0.16559	0.19899	0.10226	0.11542	0.26165	0.23609	0.17038	-2.1208	-2.4104	-2.8563	-2.1542	-2.7417	-2.7687	-2.3625	-2.9396	-2.4521	-2.3854	-2.7917	-2.1604	-2.6063	-2.7625	-2.2146	-2.8625	-29.630	188.136	145.201	223.566	143.355	279.301	219.507	149.304	100.754	173.977	52.584	145.695	183.861	-47.933	46.485	212.109	0.00021847	0.0015267	0.00044436	1162.9	4.8561e-06	2.6223e-06	1606.1	392.32	2.5062e-07	9.5767e-06	520.72	180.37	143.17	47.609	3.8713e-06	64.969	0.0053621	0.0056882	0.0015663	1150.2	5.2177e-05	6.2113e-05	1606	406.06	5.9104e-05	6.2636e-05	799.81	196.26	156.71	61.333	6.2222e-05	84.862	247.979	72.561	79.471	-54.399	267.404	117.854	-55.215	-49.639	24.216	33.831	-51.458	-47.201	-44.919	-39.624	175.913	-42.983	-8191	255	
1272.590	1	1	0	0	0.23637	0.12621	0.20389	0.11405	0.15133	0.071159	0.18218	0.18946	0.4039	0.017569	0.21317	0.26569	0.20706	0.19099	0.26454	0.10183	-2.0896	-2.4875	-2.6979	-2.3833	-2.5542	-2.8625	-2.3438	-3.0312	-2.5875	-2.1542	-2.8333	-2.4479	-2.4771	-2.7708	-2.2917	-2.8854	-15.612	179.351	-16.079	-24.922	286.469	19.658	173.216	75.806	276.874	-8.451	215.307	-31.696	-61.737	116.187	259.762	243.526	0.00032009	0.0013484	0.00027564	1161.2	9.1362e-06	1.409e-05	1606.4	392.31	5.6956e-06	1.5192e-05	515.94	179.46	142.94	47.545	1.3163e-05	64.268	0.005383	0.0056983	0.001574	1154.6	5.2217e-05	6.2254e-05	1609.4	408.36	5.95e-05	6.2544e-05	800.43	196.48	157.06	61.542	6.2528e-05	85.318	198.361	15.013	42.163	-54.119	277.302	181.812	-55.039	-49.342	-64.333	115.720	-51.773	-46.752	-44.165	-39.317	137.012	-43.243	-8191	255	
1272.709	1	1	0	0	0.10525	0.20105	0.10546	0.13704	0.1448	0.08448	0.24299	0.23882	0.12798	0.29234	0.38972	0.18933	0.13297	0.14012	0.19676	0.47265	-2.1125	-2.2521	-2.6896	-2.5812	-2.6479	-2.8375	-2.4167	-2.7583	-2.5563	-2.1312	-2.8271	-2.4771	-2.3917	-2.7687	-2.1042	-2.4625	224.766	249.456	244.126	210.516	8.163	67.806	247.308	12.376	146.742	66.045	-0.706	-16.224	238.911	-64.911	-64.833	274.476	0.00031643	0.0012481	0.00028947	1164.9	2.5005e-06	2.0221e-05	1608.2	394.39	3.7272e-06	1.2808e-05	516.61	180.75	143.53	48.444	2.55e-06	64.542	0.0053991	0.0056967	0.0015716	1161	5.2618e-05	6.2066e-05	1617.1	411.47	5.9316e-05	6.2707e-05	806.85	197.59	158.27	61.939	6.2593e-05	85.49	127.981	71.124	46.245	-54.011	286.535	12.159	-54.797	-49.059	64.984	99.458	-49.929	-46.634	-43.945	-39.447	88.307	-42.350	-8191	255	
1272.805	1	1	0	0	0.14641	0.30849	0.12059	0.29277	0.22933	0.13349	0.20944	0.14681	0.26632	0.3401	0.25781	0.056467	0.38717	0.23195	0.34381	0.12415	-2.4042	-2.1417	-3.0333	-2.4896	-2.4313	-2.9396	-2.3104	-2.675	-2.6875	-2.0521	-2.9625	-2.4729	-2.2667	-2.9708	-2.1583	-2.55	167.384	-61.476	-31.556	-20.473	178.435	177.258	264.132	0.245	180.771	-16.876	71.189	-57.316	-25.236	238.790	26.587	138.305	0.00031199	0.00093874	8.671e-05	1165.5	5.4225e-06	1.6066e-05	1612.6	396.47	4.7825e-06	1.5046e-05	519.87	181.34	144.22	48.777	4.9272e-06	64.422	0.0053525	0.0056697	0.0015704	1163.5	5.2062e-05	6.1543e-05	1616.5	411.29	5.9319e-05	6.2494e-05	803.92	196.93	158	61.971	6.2621e-05	85.707	44.152	-39.785	7.898	-53.833	-43.355	203.950	-55.053	-49.440	202.072	268.756	-52.159	-47.112	-44.676	-39.853	170.901	-42.848	-8191	255	
1272.901	1	1	0	0	0.032429	0.20135	0.28658	0.23178	0.23851	0.072684	0.092259	0.23909	0.41483	0.11975	0.12496	0.32076	0.19511	0.16706	0.29368	0.32175	-2.2396	-2.2354	-2.7438	-2.7375	-2.1354	-2.9146	-2.4396	-2.6104	-2.7771	-2.3896	-2.7271	-2.4542	-2.2417	-2.8667	-2.4458	-2.3625	59.665	-65.418	173.024	4.250	77.372	65.902	266.329	124.353	55.412	-6.647	32.423	43.897	94.730	210.774	156.909	-45.867	0.00019401	0.00024977	0.00013969	1174.3	2.129e-06	1.5225e-06	1620.7	398.17	5.8075e-06	6.6384e-06	525.96	183.02	145.56	48.994	1.5581e-05	65.534	0.005344	0.005666	0.0015763	1165.9	5.2117e-05	6.1782e-05	1622.4	414.08	5.911e-05	6.245e-05	808.24	198.29	159.34	62.629	6.2192e-05	86.228	189.192	173.043	-22.864	-54.199	8.886	89.612	-55.181	-49.532	114.871	209.648	-50.781	-46.857	-44.403	-39.974	183.619	-43.048	-8191	255	
1272.998	1	1	0	0	0.049429	0.38174	0.057713	0.15666	0.11699	0.041929	0.25554	0.25657	0.10665	0.1404	0.068757	0.1377	0.11555	0.23637	0.023688	0.032417	-2.4729	-2.1479	-2.6271	-2.8625	-2.1833	-2.8833	-2.5333	-2.6042	-2.9813	-2.2583	-2.7188	-2.6979	-2.1562	-2.8979	-2.4958	-2.4396	10.688	173.560	202.656	284.963	63.453	259.093	191.091	154.096	206.395	175.745	280.682	248.676	165.495	74.008	103.417	131.346	0.00025364	0.00098654	7.0854e-05	1176	1.9205e-06	1.1926e-05	1617.9	397.97	4.3925e-06	2.2652e-05	514.94	180.39	145.82	49.071	6.8514e-06	65.331	0.0053346	0.0056685	0.0015748	1168.4	5.1842e-05	6.2168e-05	1624.8	414.1	5.9293e-05	6.2546e-05	806.45	197.66	158.62	62.179	6.26e-05	86.027	197.474	-28.672	31.913	-54.166	78.359	78.213	-54.971	-49.484	41.182	31.629	-50.826	-46.847	-44.896	-39.788	218.442	-43.564	-8191	255	
1273.094	1	1	0	0	0.25832	0.10684	0.20306	0.16893	0.19869	0.18426	0.21551	0.088496	0.14542	0.13857	0.24397	0.13582	0.25954	0.099204	0.24081	0.21739	-2.5146	-2.2771	-2.6292	-2.9042	-2.2042	-2.9292	-2.7625	-2.4396	-3.0021	-2.0854	-2.6375	-2.8187	-2.2771	-2.6917	-2.5083	-2.3292	-28.956	175.700	129.275	-24.425	-2.318	183.986	-57.824	-1.638	180.791	-62.778	216.935	163.239	269.814	151.037	55.714	205.130	0.00035113	0.00084519	0.00053354	1171.2	3.8506e-06	1.0577e-05	1623.8	400.79	3.1072e-06	1.1299e-05	520.48	183	147.5	49.264	1.7017e-05	66.487	0.0053461	0.0056923	0.0015796	1167.8	5.2024e-05	6.223e-05	1629.9	416.55	5.8606e-05	6.2527e-05	811.24	200.11	160.81	63.27	6.258e-05	86.847	218.268	18.731	69.488	-53.901	217.267	27.973	-54.889	-49.304	-14.940	128.840	-50.649	-47.057	-44.489	-39.438	18.096	-42.903	-8191	255	
1273.190	1	1	0	0	0.092882	0.26125	0.10093	0.16733	0.13042	0.078687	0.25239	0.1396	0.02718	0.30376	0.079345	0.22485	0.13869	0.093661	0.096673	0.11068	-2.5938	-2.2521	-2.3896	-2.9708	-2.2938	-2.7146	-2.9062	-2.5375	-3	-2.2979	-2.5438	-2.85	-2.1146	-2.4542	-2.6167	-2.175	145.938	191.151	-40.049	196.677	226.394	127.819	185.925	102.385	53.505	90.069	-54.084	182.075	-24.350	32.225	-56.599	133.536	0.00027333	0.00033109	0.00038008	1178.4	5.2956e-06	5.3225e-06	1625.7	403.1	5.4696e-06	7.3099e-06	515.57	182.74	146.9	49.369	5.7832e-06	66.112	0.0053474	0.0057094	0.0015823	1178.6	5.2074e-05	6.2285e-05	1642.5	421.64	5.8984e-05	6.2694e-05	811.24	200.47	161.6	63.593	6.2096e-05	87.119	79.439	85.456	-19.588	-53.689	61.552	81.844	-54.464	-49.069	201.435	41.849	-50.657	-46.309	-43.851	-38.978	120.324	-43.136	-8191	255	
1273.311	1	1	0	0	0.14689	0.016754	0.19616	0.1798	0.10846	0.20512	0.30772	0.085207	0.12144	0.28035	0.19177	0.17734	0.09708	0.47084	0.1044	0.18199	-2.4167	-2.4646	-2.3979	-3.1083	-2.2313	-2.7146	-2.9437	-2.2938	-2.8812	-2.5458	-2.4521	-2.9062	-2.2396	-2.5417	-2.7396	-2.1688	-36.497	-65.219	285.308	271.021	267.169	46.485	-56.787	-21.133	82.814	-32.234	258.481	-38.547	76.602	-42.754	-8.347	134.303	0.00032885	0.0011774	0.00013183	1190.9	2.6435e-06	1.3375e-05	1641.2	406.71	3.232e-06	1.0305e-05	531.92	182.83	148.15	50.337	7.7041e-06	65.806	0.0053392	0.0057002	0.0015845	1186.8	5.1738e-05	6.1838e-05	1651.4	423.81	5.881e-05	6.2308e-05	812.64	199.83	161.61	63.426	6.2194e-05	86.666	173.764	37.945	265.643	-53.805	271.220	113.487	-54.962	-49.375	168.483	130.036	-51.010	-46.956	-44.271	-39.366	92.727	-42.757	-8191	255	
1273.405	1	1	0	0	0.022285	0.27981	0.20708	0.17064	0.29843	0.24731	0.15655	0.042731	0.07498	0.035854	0.2275	0.18594	0.032948	0.12995	0.19501	0.065904	-2.5229	-2.5375	-2.1875	-3.0021	-2.2708	-2.5583	-2.8208	-2.275	-2.8125	-2.4375	-2.2042	-3.1188	-2.25	-2.5438	-2.8146	-2.1583	283.753	260.941	165.362	-29.526	-15.613	169.719	-56.458	2.282	255.854	45.736	135.874	-50.079	37.264	239.016	6.965	177.032	0.00023143	0.001596	0.00021869	1177.3	1.3386e-06	1.4619e-05	1624.9	398.6	8.5811e-06	5.0519e-06	519.07	181.25	144.88	49.175	1.491e-05	65.048	0.0053379	0.0056629	0.0015656	1173.1	5.1848e-05	6.1931e-05	1633.3	416.61	5.8712e-05	6.1967e-05	805.75	198.27	159.58	62.672	6.1948e-05	86.054	220.974	41.321	-20.632	-53.970	74.567	35.191	-54.757	-49.209	77.059	33.469	-50.564	-46.871	-44.170	-39.254	69.095	-42.552	-8191	255	
1273.501	1	1	0	0	0.17928	0.16899	0.04232	0.27867	0.10281	0.29947	0.13472	0.09306	0.12425	0.22983	0.36353	0.16247	0.27266	0.1724	0.043767	0.045383	-2.3312	-2.6271	-2.3271	-3.0667	-2.3167	-2.4375	-3.1958	-2.1229	-2.725	-2.75	-2.1854	-2.85	-2.325	-2.6063	-2.8625	-2.1312	285.170	56.549	-13.894	194.606	195.364	281.075	68.727	-13.777	211.197	-28.719	93.300	-12.017	163.411	-62.011	169.558	-57.850	0.0001861	0.00097853	0.00016262	1171	3.9197e-06	1.092e-05	1617	396.59	5.777e-07	1.6095e-05	519.17	181.3	145.49	49.036	4.0492e-06	65.838	0.0053308	0.0056713	0.0015714	1165.8	5.2076e-05	6.205e-05	1626.6	414.24	5.914e-05	6.2456e-05	806.08	198.02	159.48	62.637	6.1677e-05	86.063	58.603	-36.536	-27.312	-54.032	238.237	201.751	-54.762	-49.524	57.068	286.595	-51.405	-46.572	-44.252	-39.582	84.935	-43.073	-8191	255	
1273.597	1	1	0	0	0.1585	0.18633	0.32588	0.21087	0.18862	0.042894	0.20812	0.050385	0.10536	0.29401	0.20887	0.12306	0.13515	0.17522	0.17761	0.14923	-2.2521	-2.7313	-2.2438	-3.0083	-2.3625	-2.4	-2.9854	-2.1875	-2.5646	-2.8979	-2.225	-2.8688	-2.4708	-2.2188	-3.0208	-2.2833	229.604	259.070	137.049	161.911	-25.162	90.556	257.248	162.332	1.263	266.479	244.672	229.492	142.690	-26.458	156.764	235.278	0.0003146	0.00059574	0.00026432	1161.4	3.1302e-06	8.2078e-06	1617	397.64	6.9781e-06	1.3552e-05	522.57	181.62	145.31	48.623	7.7905e-06	65.529	0.0053669	0.0056254	0.0015632	1164	5.1774e-05	6.1684e-05	1630.5	416.51	5.912e-05	6.1765e-05	808.41	199.78	160.33	62.82	6.1869e-05	86.332	169.942	-20.635	29.796	-53.639	193.598	117.903	-54.599	-49.067	220.397	99.843	-51.327	-46.561	-44.185	-39.208	161.715	-42.489	-8191	255	
#DATA ENDS
