BOXY.EXE: ISS Imagent and Oximeter Data Acquisition Program Version 0.80
Ascii Record File

#ACQ INFORMATION
2  Detector Channels 
16  External MUX Channels 
1  Auxiliary Channels 
5000  Waveform (CCF) Frequency (Hz)
1  Waveforms Skipped 
30  Waveforms Averaged 
1  Cycles Averaged 
16  Acquisitions per Waveform 
10.0806  Updata Rate (Hz) 

#FILE INFORMATION
TRUE -- External MUX Channel results are PARSED.
FALSE -- AC DC and Phase are NOT grouped.
TRUE -- Companion Program Settings File CREATED.
FALSE -- AC data not excluded
FALSE -- DC data not excluded
FALSE -- Phase data not excluded
FALSE -- Auxillary Chn. data not excluded
Tab delimiters

#CALIBRATION STATE
TRUE -- Waveform Calibration Values APPLIED.


#AUX CALIBRATION VALUES
Val Type	aux-1	

Term	1.0000e+00	
Factor	0.0000e+00	


#WF CALIBRATION VALUES
A = Detector Channel
Val Type	A-AC1	A-AC2	A-AC3	A-AC4	A-AC5	A-AC6	A-AC7	A-AC8	A-AC9	A-AC10	A-AC11	A-AC12	A-AC13	A-AC14	A-AC15	A-AC16	A-DC1	A-DC2	A-DC3	A-DC4	A-DC5	A-DC6	A-DC7	A-DC8	A-DC9	A-DC10	A-DC11	A-DC12	A-DC13	A-DC14	A-DC15	A-DC16	A-Ph1	A-Ph2	A-Ph3	A-Ph4	A-Ph5	A-Ph6	A-Ph7	A-Ph8	A-Ph9	A-Ph10	A-Ph11	A-Ph12	A-Ph13	A-Ph14	A-Ph15	A-Ph16	

Term	0.00000e+00	0.00000e+00	0.00000e+00	0.00000e+00	0.00000e+00	0.00000e+00	0.00000e+00	0.00000e+00	0.00000e+00	0.00000e+00	0.00000e+00	0.00000e+00	0.00000e+00	0.00000e+00	0.00000e+00	0.00000e+00	0.00000e+00	0.00000e+00	0.00000e+00	0.00000e+00	0.00000e+00	0.00000e+00	0.00000e+00	0.00000e+00	0.00000e+00	0.00000e+00	0.00000e+00	0.00000e+00	0.00000e+00	0.00000e+00	0.00000e+00	0.00000e+00	0.00000e+00	0.00000e+00	0.00000e+00	0.00000e+00	0.00000e+00	0.00000e+00	0.00000e+00	0.00000e+00	0.00000e+00	0.00000e+00	0.00000e+00	0.00000e+00	0.00000e+00	0.00000e+00	0.00000e+00	0.00000e+00	
Factor	1.00000e+00	1.00000e+00	1.00000e+00	1.00000e+00	1.00000e+00	1.00000e+00	1.00000e+00	1.00000e+00	1.00000e+00	1.00000e+00	1.00000e+00	1.00000e+00	1.00000e+00	1.00000e+00	1.00000e+00	1.00000e+00	1.00000e+00	1.00000e+00	1.00000e+00	1.00000e+00	1.00000e+00	1.00000e+00	1.00000e+00	1.00000e+00	1.00000e+00	1.00000e+00	1.00000e+00	1.00000e+00	1.00000e+00	1.00000e+00	1.00000e+00	1.00000e+00	X	X	X	X	X	X	X	X	X	X	X	X	X	X	X	X	

B = Detector Channel
Val Type	B-AC1	B-AC2	B-AC3	B-AC4	B-AC5	B-AC6	B-AC7	B-AC8	B-AC9	B-AC10	B-AC11	B-AC12	B-AC13	B-AC14	B-AC15	B-AC16	B-DC1	B-DC2	B-DC3	B-DC4	B-DC5	B-DC6	B-DC7	B-DC8	B-DC9	B-DC10	B-DC11	B-DC12	B-DC13	B-DC14	B-DC15	B-DC16	B-Ph1	B-Ph2	B-Ph3	B-Ph4	B-Ph5	B-Ph6	B-Ph7	B-Ph8	B-Ph9	B-Ph10	B-Ph11	B-Ph12	B-Ph13	B-Ph14	B-Ph15	B-Ph16	

Term	0.00000e+00	0.00000e+00	0.00000e+00	0.00000e+00	0.00000e+00	0.00000e+00	0.00000e+00	0.00000e+00	0.00000e+00	0.00000e+00	0.00000e+00	0.00000e+00	0.00000e+00	0.00000e+00	0.00000e+00	0.00000e+00	0.00000e+00	0.00000e+00	0.00000e+00	0.00000e+00	0.00000e+00	0.00000e+00	0.00000e+00	0.00000e+00	0.00000e+00	0.00000e+00	0.00000e+00	0.00000e+00	0.00000e+00	0.00000e+00	0.00000e+00	0.00000e+00	-2.63813e+02	-1.35610e+02	-1.20718e+02	-1.83142e+02	-1.03639e+02	-7.76492e+01	-1.58739e+02	-1.62015e+02	-6.67048e+01	-5.05097e+01	-1.74416e+02	-1.69969e+02	-1.82317e+02	-1.77446e+02	-7.21603e+01	-1.50100e+02	
Factor	6.34764e-05	1.25928e-04	3.90822e-05	1.62229e-01	1.76456e-06	1.41241e-06	1.55923e-01	5.22478e-02	2.01247e-06	1.74817e-06	8.59677e-02	2.68576e-02	3.53234e-02	8.80985e-03	1.52861e-06	1.26090e-02	2.79852e-06	2.94799e-06	8.21211e-07	8.30312e-02	3.20143e-08	3.23669e-08	7.47397e-02	2.68061e-02	3.19947e-08	3.24091e-08	4.26679e-02	1.33414e-02	1.79389e-02	4.54378e-03	3.21625e-08	6.28425e-03	X	X	X	X	X	X	X	X	X	X	X	X	X	X	X	X	



#DISTANCE SETTINGS
A = Detector Channel
A-1	A-2	A-3	A-4	A-5	A-6	A-7	A-8	A-9	A-10	A-11	A-12	A-13	A-14	A-15	A-16	

2.5000e+00	3.0000e+00	2.5000e+00	3.0000e+00	2.0000e+00	3.0000e+00	1.5000e+00	3.0000e+00	3.0000e+00	3.0000e+00	3.0000e+00	3.0000e+00	3.0000e+00	3.0000e+00	1.5000e+00	3.0000e+00	

B = Detector Channel
B-1	B-2	B-3	B-4	B-5	B-6	B-7	B-8	B-9	B-10	B-11	B-12	B-13	B-14	B-15	B-16	

1.0000e+01	1.0000e+01	1.0000e+01	1.4400e+00	1.0000e+01	1.0000e+01	1.5100e+00	1.9400e+00	1.0000e+01	1.0000e+01	1.9900e+00	2.4900e+00	2.4100e+00	2.9000e+00	1.0000e+01	2.9800e+00	




#DATA BEGINS
time	group	step	mark	flag	A-AC1	A-AC2	A-AC3	A-AC4	A-AC5	A-AC6	A-AC7	A-AC8	A-AC9	A-AC10	A-AC11	A-AC12	A-AC13	A-AC14	A-AC15	A-AC16	A-DC1	A-DC2	A-DC3	A-DC4	A-DC5	A-DC6	A-DC7	A-DC8	A-DC9	A-DC10	A-DC11	A-DC12	A-DC13	A-DC14	A-DC15	A-DC16	A-Ph1	A-Ph2	A-Ph3	A-Ph4	A-Ph5	A-Ph6	A-Ph7	A-Ph8	A-Ph9	A-Ph10	A-Ph11	A-Ph12	A-Ph13	A-Ph14	A-Ph15	A-Ph16	B-AC1	B-AC2	B-AC3	B-AC4	B-AC5	B-AC6	B-AC7	B-AC8	B-AC9	B-AC10	B-AC11	B-AC12	B-AC13	B-AC14	B-AC15	B-AC16	B-DC1	B-DC2	B-DC3	B-DC4	B-DC5	B-DC6	B-DC7	B-DC8	B-DC9	B-DC10	B-DC11	B-DC12	B-DC13	B-DC14	B-DC15	B-DC16	B-Ph1	B-Ph2	B-Ph3	B-Ph4	B-Ph5	B-Ph6	B-Ph7	B-Ph8	B-Ph9	B-Ph10	B-Ph11	B-Ph12	B-Ph13	B-Ph14	B-Ph15	B-Ph16	aux-1	digaux	

7169.565	1	1	0	768	0.21661	0.12938	0.15432	0.049568	0.021746	0.11659	0.12843	0.27987	0.1233	0.19278	0.12077	0.19136	0.065971	0.33073	0.17592	0.053129	-1.6104	-2.5917	-2.1396	-2.1521	-2.6854	-2.0312	-2.5208	-2.5104	-1.9917	-2.6583	-2.1708	-2.1542	-2.4896	-1.9146	-2.2896	-2.5083	38.873	-13.352	12.905	-82.935	-3.647	4.141	51.301	178.289	-34.322	1.643	-19.772	54.643	-140.829	117.841	-69.920	161.007	0.0011565	0.00048655	0.00029405	1011.2	2.2101e-05	2.0893e-05	781.65	343.34	2.5974e-05	6.8754e-06	304.58	108.76	123.29	52.461	3.5827e-06	47.577	0.0017436	0.0017858	0.00050155	1003.1	1.9731e-05	2.0121e-05	787.17	341.42	2.0509e-05	2.0765e-05	315.38	111.16	126.91	52.953	2.0667e-05	48.935	83.046	129.129	-36.368	-144.721	-81.706	33.751	-146.409	-138.832	-25.612	-67.699	-141.882	-138.149	-134.767	-129.565	43.907	-133.549	-8191	255	
7169.661	1	1	0	0	0.24491	0.19872	0.079847	0.099327	0.13893	0.036052	0.16917	0.1432	0.38013	0.24323	0.10369	0.15702	0.14561	0.17062	0.29514	0.030336	-1.5438	-2.3417	-2.1917	-2.1896	-2.675	-1.9271	-2.2979	-2.5438	-1.8667	-2.5083	-2.4562	-2.1979	-2.6667	-2.0875	-2.2479	-2.6042	-154.134	-73.130	6.997	147.950	58.697	27.046	146.744	103.845	99.315	175.559	-133.489	-134.125	43.136	-156.745	-104.271	181.689	0.0013252	0.00024952	0.00020927	1010.2	3.5303e-06	1.6474e-05	781.37	342.15	1.9278e-06	8.9241e-06	307.3	109.22	123.36	52.601	1.0472e-05	47.263	0.001822	0.0018735	0.00052265	1003.2	1.994e-05	2.0184e-05	784.4	340.83	1.9567e-05	1.9768e-05	314.66	110.73	126.05	52.849	1.9354e-05	48.639	65.274	200.926	-28.563	-144.753	46.131	-50.313	-146.414	-138.906	182.039	-9.894	-141.570	-137.592	-134.791	-129.597	-77.766	-134.055	-8191	255	
7169.757	1	1	0	0	0.22852	0.10006	0.12859	0.52062	0.096615	0.15133	0.2425	0.38987	0.13033	0.11002	0.20892	0.11758	0.095754	0.25762	0.16314	0.046013	-1.4375	-2.4729	-2.2521	-2.0083	-2.5687	-2.0771	-2.225	-2.6021	-1.9479	-2.4229	-2.4729	-1.9333	-2.6604	-2.25	-2.2604	-2.6813	152.372	-105.806	60.062	138.478	34.177	163.567	83.559	153.892	145.676	68.428	-23.474	121.378	-110.835	-63.090	45.408	104.486	0.0012316	0.00061938	0.00044906	1003.4	7.7476e-06	7.5999e-06	771.85	340.78	9.2116e-06	3.6737e-06	302.33	107.19	122.13	52.126	1.2237e-05	46.64	0.0017129	0.0017915	0.0005082	997.19	2.0252e-05	2.093e-05	778.84	340.87	2.1759e-05	2.25e-05	314.76	110.69	127	52.987	2.3952e-05	48.895	76.075	-84.971	-56.918	-145.618	-149.704	-105.457	-147.315	-139.606	49.103	191.658	-142.562	-138.373	-135.523	-129.635	5.193	-134.218	-8191	255	
7169.853	1	1	0	0	0.19032	0.1743	0.2363	0.20308	0.26216	0.054233	0.28625	0.11756	0.44154	0.043147	0.1676	0.22329	0.088336	0.045795	0.19758	0.32738	-1.5271	-2.3292	-2.325	-1.8563	-2.5833	-2.0312	-2.2062	-2.7917	-1.9375	-2.475	-2.5104	-2.2333	-2.6937	-2.3187	-1.9958	-2.6667	-104.880	113.427	159.878	-2.795	10.023	-146.610	81.066	113.178	103.071	152.411	160.227	97.442	166.398	61.987	-87.068	-140.120	0.0016073	0.00040424	0.000215	991.45	1.0862e-05	2.2735e-05	757.36	336.94	9.09e-06	1.1396e-05	302.69	106.84	121.27	51.585	1.339e-05	46.497	0.0021611	0.0022479	0.00063588	1002.6	2.5154e-05	2.5826e-05	777.58	341.52	2.576e-05	2.6202e-05	317.63	111.56	128.85	53.239	2.8605e-05	49.547	74.931	-90.471	-55.139	-144.988	-79.632	22.272	-146.976	-139.215	6.746	178.045	-142.598	-137.588	-134.542	-128.763	57.869	-133.169	-8191	255	
7169.949	1	1	0	0	0.31032	0.078929	0.28487	0.34549	0.011824	0.26436	0.47648	0.33413	0.16497	0.085374	0.16981	0.23005	0.13851	0.24023	0.051894	0.22584	-1.4542	-2.2125	-2.4708	-2.0979	-2.5958	-2.4667	-2.2062	-2.7458	-1.9396	-2.1354	-2.7021	-2.0396	-2.6771	-2.35	-2.05	-2.975	45.681	-104.802	-28.193	135.962	90.948	72.590	108.016	-135.177	-5.158	132.083	124.515	-114.943	195.234	145.583	93.297	104.167	0.0013189	0.00048152	0.00022426	982.96	4.0372e-06	1.6378e-05	751.76	336.22	1.2954e-05	1.6527e-06	297.98	105.61	120.19	51.683	1.0796e-05	46.419	0.0026294	0.0027844	0.00078633	1011.1	3.2169e-05	3.2783e-05	789.38	346.11	3.3007e-05	3.3395e-05	324.09	113.3	130.73	53.574	3.1347e-05	49.769	60.754	-53.061	-38.075	-144.493	-20.323	-95.122	-146.581	-138.864	-26.720	-16.467	-141.758	-137.652	-134.707	-129.013	130.183	-133.308	-8191	255	
7170.045	1	1	0	0	0.2916	0.21035	0.081987	0.38576	0.20693	0.16089	0.26306	0.095115	0.14565	0.028491	0.27901	0.33819	0.19458	0.26133	0.24581	0.091178	-1.6583	-2.175	-2.6479	-2.0875	-2.5583	-2.4708	-2.075	-2.9062	-2.0354	-2.1604	-2.7292	-1.9875	-2.3958	-2.4354	-1.9562	-2.6354	12.647	-110.254	120.458	149.975	-134.615	15.712	109.292	153.193	-128.936	21.998	-87.457	109.365	-64.230	186.104	-122.185	132.310	0.0018186	0.00044324	0.00019101	981	3.1876e-06	9.9293e-06	758.34	337.85	2.0078e-05	8.1524e-06	301.92	108.02	122.64	52.765	1.4342e-05	47.764	0.0026624	0.0027243	0.00074116	999.98	2.6999e-05	2.6455e-05	774.52	340.91	2.3147e-05	2.2293e-05	311.74	110.25	125.34	52.697	1.7119e-05	48.458	60.572	-96.258	6.463	-145.109	-116.497	-20.062	-146.595	-139.187	-14.723	-9.476	-141.782	-137.553	-134.707	-129.208	-36.523	-133.414	-8191	255	
7170.164	1	1	0	0	0.19299	0.058134	0.15015	0.11017	0.13448	0.14122	0.011381	0.083997	0.16077	0.055216	0.18731	0.15008	0.26023	0.071595	0.082803	0.17954	-1.7208	-1.9333	-2.6375	-2.0083	-2.2625	-2.3104	-1.9438	-2.6875	-2.0896	-2.025	-2.7521	-1.9958	-2.2271	-2.5354	-1.9458	-2.5875	144.359	41.743	178.490	-130.140	-44.210	-95.653	-53.176	-87.505	112.835	143.934	-127.108	131.006	178.611	-55.001	70.084	112.307	0.0013148	0.00046347	0.0002683	997.79	1.2456e-05	5.172e-06	772.19	341.95	7.4819e-06	1.3591e-05	305.92	108.43	122.52	52.659	1.0847e-05	47.247	0.0014345	0.0014245	0.00039167	981.89	1.5337e-05	1.56e-05	764.98	338.64	1.6703e-05	1.738e-05	310.52	109.8	125.44	52.809	2.0808e-05	48.788	64.114	-125.703	-110.851	-144.787	-147.147	27.043	-146.260	-138.971	-124.969	144.767	-141.355	-137.556	-134.829	-128.901	12.390	-133.621	-8191	255	
7170.260	1	1	0	0	0.072264	0.19107	0.19993	0.38825	0.18272	0.24911	0.050868	0.13156	0.23478	0.16602	0.088456	0.23382	0.16979	0.083304	0.083509	0.26407	-1.8083	-1.7521	-2.4042	-2.1708	-2.2	-2.6583	-2.0417	-2.6042	-2.3292	-2.0333	-2.75	-2.0292	-2.3208	-2.8083	-1.9354	-2.5354	-12.983	-88.861	-107.342	161.354	-20.165	195.037	10.640	12.755	-39.563	157.314	201.486	136.963	156.621	43.328	-102.278	165.222	0.0015245	0.00064796	0.00018279	982.92	1.1226e-05	1.2214e-05	752.88	336.57	4.6487e-06	1.7011e-05	299.63	105.85	120.12	51.777	1.6022e-05	45.857	0.0020115	0.002134	0.00061357	995.23	2.5599e-05	2.6302e-05	775.34	342.71	2.8288e-05	2.9014e-05	318.83	112.27	129.62	53.448	3.1479e-05	49.774	60.388	152.236	43.237	-144.839	74.900	61.093	-147.116	-139.354	-44.854	40.970	-142.123	-137.739	-135.200	-129.505	-6.405	-133.519	-8191	255	
7170.357	1	1	0	0	0.10596	0.27446	0.191	0.20773	0.12468	0.38976	0.26876	0.32827	0.17922	0.12276	0.19525	0.23995	0.16079	0.22602	0.18597	0.16496	-2.0167	-1.8667	-2.7979	-2.1708	-2.2062	-2.6354	-2.0917	-2.4417	-2.5229	-1.9188	-2.7062	-2.2562	-2.05	-2.6958	-2.1042	-2.4104	9.151	-86.914	148.044	-150.001	101.362	149.485	142.671	167.698	-110.345	-143.791	167.443	134.402	17.797	-150.939	197.219	139.225	0.0011696	0.00074933	0.0002267	980.83	6.3512e-06	3.2254e-06	746.94	334.99	9.7526e-06	5.3916e-06	297.92	104.81	120.65	51.501	7.8241e-06	46.6	0.0029133	0.0030473	0.00086151	1012.8	3.3372e-05	3.3212e-05	783.53	343.29	3.0762e-05	2.9891e-05	318.15	111.11	127.65	52.648	2.54e-05	48.848	88.268	-142.805	-53.227	-144.560	179.968	-131.371	-146.202	-138.970	81.234	-106.527	-142.343	-137.585	-134.891	-129.662	28.903	-133.270	-8191	255	
7170.453	1	1	0	0	0.12488	0.29763	0.23749	0.31467	0.24128	0.1372	0.11749	0.27226	0.11194	0.15095	0.050271	0.3091	0.18334	0.3275	0.15266	0.1477	-2.1708	-1.825	-2.625	-2.3708	-2.1271	-2.5396	-2.125	-2.3917	-2.3771	-1.9354	-2.5354	-2.3833	-2.1646	-2.6229	-2.15	-2.2604	56.579	62.471	-134.807	154.212	75.589	-72.998	165.860	161.306	60.132	87.425	12.554	177.364	-148.494	172.978	142.988	123.338	0.0013336	0.00096035	0.00025215	979.53	1.2676e-05	1.0374e-05	757.96	340.37	5.1794e-06	1.282e-05	302.96	107.75	121.22	52.06	2.832e-06	46.986	0.0021493	0.0021594	0.00059533	986.91	2.2002e-05	2.1981e-05	768.46	339.92	2.1198e-05	2.1345e-05	313.56	110.51	125.71	52.633	2.1612e-05	48.723	54.121	-101.975	179.064	-144.712	-57.106	-31.667	-146.373	-139.049	-91.600	55.459	-141.483	-137.579	-134.319	-129.125	-59.415	-133.147	-8191	255	
7170.549	1	1	0	0	0.057026	0.35849	0.17401	0.22723	0.24691	0.075547	0.27239	0.24595	0.038919	0.17187	0.17877	0.12191	0.06926	0.20798	0.29111	0.24555	-2.0833	-1.8646	-2.4167	-2.2771	-1.7979	-2.5833	-2.1917	-2.2812	-2.5479	-1.9146	-2.5208	-2.4688	-2.0167	-2.5458	-2.1292	-2.2667	55.464	67.004	122.693	-139.663	108.456	-113.646	148.281	132.088	-135.308	19.318	78.706	37.222	-29.014	107.441	126.851	177.039	0.0013988	0.000903	0.00018877	987.77	1.3301e-05	3.6005e-06	761.46	337.85	6.2934e-06	1.3447e-05	299.85	106.75	121.46	51.554	1.1523e-05	46.104	0.0019222	0.0020149	0.00056211	991.05	2.2397e-05	2.2671e-05	770.32	339.88	2.322e-05	2.3943e-05	315.34	110.97	127.69	52.728	2.6183e-05	48.874	76.809	-95.111	13.188	-144.593	-87.341	-69.927	-146.692	-139.103	-149.955	51.157	-142.004	-137.468	-134.634	-129.079	100.111	-133.372	-8191	255	
7170.645	1	1	0	0	0.1473	0.21677	0.18324	0.13784	0.059837	0.021131	0.12456	0.24396	0.13584	0.065728	0.11857	0.2268	0.09308	0.30216	0.11247	0.18288	-2.2542	-1.8542	-2.4104	-2.6833	-1.8958	-2.6229	-2.25	-2.3979	-2.4896	-2.0125	-2.4313	-2.6333	-2.1208	-2.5708	-2.1833	-2.1104	32.641	-145.075	-36.796	167.334	67.347	23.894	92.870	-51.563	201.044	77.560	139.870	108.128	138.496	158.440	63.043	128.571	0.0013123	0.0010606	0.00045214	976.72	1.3475e-05	5.9261e-06	753.17	336.48	1.1646e-05	7.1633e-06	298.16	105.51	120.95	51.672	9.5379e-06	46.21	0.0023392	0.0024406	0.00067712	994.18	2.6083e-05	2.6184e-05	771.81	340.99	2.5552e-05	2.5791e-05	314.13	110.68	127.33	52.685	2.5271e-05	48.66	68.437	-74.857	-33.864	-144.754	-80.945	-108.570	-146.306	-139.348	91.039	46.667	-142.177	-137.642	-134.607	-129.518	-65.629	-133.524	-8191	255	
7170.766	1	1	0	0	0.27122	0.049426	0.125	0.15773	0.22607	0.11038	0.064104	0.28947	0.10185	0.3722	0.09135	0.18677	0.081147	0.12921	0.22037	0.20081	-2.0708	-2.0271	-2.3187	-2.8354	-2.0542	-2.3479	-2.4521	-2.1375	-2.5083	-2.0917	-2.3646	-2.5812	-1.8875	-2.6917	-2.3792	-1.9917	-132.410	-148.810	-77.754	182.712	171.954	82.130	48.822	149.695	-121.695	-83.087	189.321	-148.000	174.959	145.183	50.214	173.194	0.0017202	0.0011691	0.00024801	983.64	1.6413e-05	1.8453e-05	751.74	337.34	1.3409e-05	1.5067e-05	297.93	106.65	121.14	51.799	9.1336e-06	46.832	0.0022133	0.0023049	0.00064221	992.85	2.4604e-05	2.4723e-05	768.64	340.04	2.3841e-05	2.4212e-05	312.58	110.03	126.41	52.65	2.2084e-05	48.497	87.977	-12.973	-2.730	-144.951	-57.258	-46.498	-146.356	-139.110	6.216	16.377	-141.476	-137.209	-134.570	-129.161	-73.013	-133.402	-8191	255	
7170.862	1	1	0	0	0.14957	0.095256	0.48849	0.20938	0.10003	0.092768	0.061655	0.4604	0.21111	0.062498	0.14487	0.32113	0.11576	0.1815	0.10543	0.17848	-2.1229	-2.1979	-2.0563	-2.6896	-1.8958	-2.3958	-2.5625	-2.1437	-2.5833	-2.3292	-2.25	-2.775	-2.0271	-2.4854	-2.5417	-1.9625	-156.368	146.558	126.089	146.477	121.313	-0.029	181.406	133.854	199.884	-113.346	9.860	155.444	-42.868	104.801	-110.539	141.355	0.0015504	0.00054735	0.00023875	986.43	4.8985e-06	5.9251e-06	766.17	341.34	1.1866e-05	6.9682e-06	307.42	109.24	123.45	52.964	2.7207e-06	47.845	0.0018997	0.0019263	0.00052774	984.2	1.9491e-05	1.9357e-05	767.53	338.53	1.8176e-05	1.8331e-05	312.59	110.58	125.33	52.937	1.7596e-05	48.859	72.947	-61.976	-140.483	-144.589	176.094	-124.093	-146.337	-139.245	17.662	175.227	-142.170	-137.530	-134.413	-129.374	40.385	-133.306	-8191	255	
7170.956	1	1	0	0	0.22658	0.11212	0.11876	0.14156	0.047943	0.01998	0.26806	0.13312	0.12577	0.11006	0.063415	0.027839	0.16382	0.2678	0.12026	0.18305	-2.1542	-2.1	-2.0104	-2.5792	-1.95	-2.4521	-2.6542	-2.1437	-2.6146	-2.3375	-1.8438	-2.7021	-2.1417	-2.3979	-2.4938	-1.8	161.049	45.277	176.869	148.724	-65.878	-3.171	184.915	144.928	-131.420	-123.546	32.308	-17.301	-144.685	179.712	90.482	17.144	0.001104	0.00080767	0.00010034	1000.2	8.8913e-06	9.5009e-06	785.63	345.56	6.8322e-06	1.2323e-05	313.53	111.89	124.8	53.824	7.9781e-06	49.028	0.0015357	0.0015701	0.00043025	989.68	1.6383e-05	1.6478e-05	779.76	340.96	1.5723e-05	1.552e-05	313.97	111.71	125.81	53.41	1.5043e-05	49.21	63.280	-50.346	-116.007	-144.675	-114.063	35.421	-146.868	-139.535	184.148	-39.539	-142.306	-137.997	-134.621	-129.497	70.666	-133.992	-8191	255	
7171.052	1	1	0	0	0.11533	0.17864	0.30721	0.16749	0.19995	0.24699	0.15783	0.24449	0.07099	0.17182	0.1598	0.19403	0.40309	0.2363	0.10781	0.33922	-1.9729	-2.2354	-1.9708	-2.7646	-2.1521	-2.0917	-2.7646	-1.9917	-2.4062	-2.4729	-1.8125	-2.7125	-2.3396	-2.1958	-2.4917	-2.1271	-62.459	-31.897	-18.831	142.241	164.636	84.069	135.417	107.466	86.385	-123.281	90.848	-141.265	-141.611	177.684	0.714	137.530	0.0015677	0.00077702	0.00010812	1015	8.9342e-06	5.3952e-06	795.38	345.87	1.5347e-06	6.843e-06	312.67	112.05	125.84	53.896	4.5764e-06	49.059	0.0013159	0.0013333	0.00036807	992.53	1.4131e-05	1.4314e-05	783.85	340.66	1.4049e-05	1.4337e-05	313.56	111.35	125.68	53.475	1.4423e-05	49.166	78.317	-86.948	195.081	-145.325	20.394	-49.538	-146.815	-139.380	-7.693	-22.088	-142.369	-137.341	-134.950	-129.636	16.351	-133.371	-8191	255	
7171.126	1	1	0	0	0.077235	0.27321	0.14006	0.11675	0.2601	0.13223	0.16351	0.40955	0.11268	0.21345	0.32662	0.11083	0.0382	0.27584	0.24102	0.25911	-2.1354	-2.3479	-1.8438	-2.7938	-2.1937	-2.1542	-2.8583	-2.0875	-2.25	-2.5687	-1.9958	-2.5542	-2.125	-2.2938	-2.6458	-1.9958	-117.280	98.570	-21.552	116.669	-89.336	-150.228	177.974	96.630	-65.381	-122.941	123.754	-87.163	107.743	106.224	84.693	194.111	0.0017055	0.00079563	0.00012696	1013.6	1.2828e-05	5.6242e-06	784.19	346	1.6697e-05	9.0122e-06	310.13	110.52	124.61	53.817	1.7639e-05	48.58	0.0013102	0.0013503	0.00037705	992.78	1.5018e-05	1.5404e-05	777.37	340.57	1.5365e-05	1.5826e-05	312.74	110.91	125.89	53.362	1.6251e-05	49.081	83.811	-88.664	-86.797	-144.631	-133.380	30.062	-146.364	-139.079	-30.113	17.019	-142.347	-137.979	-134.668	-129.492	-14.018	-133.455	-8191	255	
7171.245	1	1	0	0	0.20059	0.13775	0.095505	0.12361	0.060286	0.30703	0.055788	0.13396	0.27439	0.13774	0.23769	0.2331	0.06955	0.26834	0.16781	0.26896	-1.8479	-2.4854	-1.8083	-2.7083	-2.2479	-2.1917	-2.8021	-2.275	-2.1104	-2.675	-2.0354	-2.6125	-2.3187	-2.1063	-2.6833	-2.1146	8.841	-92.685	37.333	-117.696	112.866	-25.571	-131.610	177.928	90.319	-101.993	134.638	126.388	-4.014	-110.811	6.189	190.522	0.0010461	0.00095223	0.00032851	1008.3	1.0312e-05	7.5408e-06	787.29	345.19	6.7526e-06	8.8536e-06	310.84	111.79	125.01	54.105	1.6545e-06	49.186	0.0014766	0.0014881	0.0004129	991.29	1.607e-05	1.611e-05	775.34	341	1.5789e-05	1.5589e-05	312.51	111.31	125.74	53.523	1.4812e-05	49.442	62.683	-47.575	-103.032	-144.747	-18.079	27.543	-146.580	-138.998	11.591	-19.622	-141.819	-137.387	-134.494	-129.282	-29.946	-133.517	-8191	255	
7171.341	1	1	0	0	0.12394	0.19448	0.20193	0.14945	0.26383	0.17222	0.17315	0.11637	0.17672	0.2346	0.077844	0.095847	0.24166	0.2731	0.1788	0.17598	-1.8396	-2.6208	-1.8271	-2.5396	-2.4833	-1.7292	-2.7958	-2.1979	-2.1167	-2.7771	-2.1937	-2.5625	-2.6625	-2.2208	-2.6979	-2.2687	-28.872	-20.723	-87.833	197.430	-103.077	-62.812	-155.809	-112.842	187.600	132.221	-6.974	-37.102	124.363	-142.647	-112.764	159.451	0.0013898	0.00095864	0.00020818	1012.2	1.1953e-05	6.3826e-07	796.86	349.06	1.0453e-06	1.2918e-05	315.74	113.7	126.72	54.446	2.351e-06	49.775	0.0013358	0.001346	0.00037599	993.45	1.4739e-05	1.4609e-05	787.99	342.77	1.427e-05	1.4296e-05	316.55	112.83	126.51	53.856	1.4513e-05	49.799	76.176	-65.841	-6.701	-145.123	1.452	68.774	-146.470	-138.889	26.016	-17.108	-142.368	-137.651	-134.181	-129.393	109.273	-133.603	-8191	255	
7171.437	1	1	0	0	0.04817	0.11895	0.23549	0.14684	0.10911	0.070545	0.13594	0.44628	0.06147	0.20083	0.20943	0.023814	0.10407	0.11311	0.17646	0.10504	-1.7938	-2.5792	-1.9271	-2.3458	-2.5875	-1.9729	-2.7771	-2.325	-2.0333	-2.7333	-2.1937	-2.3937	-2.6625	-2.0062	-2.5125	-2.1896	-53.185	-2.431	-37.324	-140.072	133.980	75.490	163.391	-137.089	62.640	116.261	38.230	-112.232	78.351	163.185	77.552	-117.903	0.0013315	0.00086577	0.00010482	1016.2	6.3094e-06	7.965e-06	794.87	346.83	1.5583e-05	5.9129e-06	313.04	112.37	126.86	54.554	8.7772e-06	49.351	0.0013445	0.0013577	0.00037809	997.61	1.4857e-05	1.4752e-05	788.12	342.24	1.4774e-05	1.4676e-05	314.78	112.25	126.6	53.913	1.487e-05	49.663	67.551	-138.486	-49.147	-144.774	60.857	34.741	-146.347	-138.911	17.417	-42.748	-142.271	-138.209	-134.945	-129.409	25.263	-133.056	-8191	255	
7171.533	1	1	0	0	0.3632	0.050094	0.23867	0.17255	0.21117	0.16601	0.18361	0.22741	0.084162	0.25282	0.22738	0.2468	0.32451	0.23827	0.32345	0.19171	-1.5604	-2.7042	-2.0458	-2.2667	-2.4813	-1.8458	-2.6188	-2.4333	-1.9146	-2.5542	-2.1625	-2.3521	-2.6167	-2.1854	-2.3	-2.2729	142.710	165.535	-124.720	183.014	-120.393	30.267	198.634	157.031	-140.467	172.466	88.589	113.858	136.479	186.328	-19.355	123.883	0.00080759	0.0013293	4.3432e-05	1017.9	5.3752e-06	3.8357e-06	793.83	346.11	1.8476e-06	8.9247e-06	311	111.78	125.79	53.996	1.1626e-05	48.855	0.0013312	0.001351	0.00038171	996.6	1.4812e-05	1.504e-05	785.58	341.75	1.5533e-05	1.5945e-05	314.46	111.67	126.88	53.724	1.6504e-05	49.396	69.133	-54.463	22.508	-145.064	-6.275	-107.689	-146.632	-139.375	-60.057	48.101	-142.403	-138.195	-135.587	-130.172	-150.575	-134.130	-8191	255	
7171.654	1	1	0	0	0.29391	0.26096	0.11332	0.11536	0.065881	0.14173	0.10757	0.1489	0.087315	0.15026	0.079602	0.27462	0.13246	0.30798	0.087701	0.013546	-1.6521	-2.6729	-2.1396	-2.2667	-2.4417	-2.0333	-2.4479	-2.7458	-2.0729	-2.5354	-2.0708	-2.1604	-2.5312	-1.8625	-2.4625	-2.4938	194.747	24.299	135.239	-73.393	-92.558	118.947	-75.205	129.030	95.267	125.068	126.836	123.597	62.481	-145.790	-109.568	-19.304	0.00091008	0.0012354	0.00025871	1008.6	5.4164e-06	6.6908e-06	788.23	344.92	2.2745e-05	8.0095e-06	309.82	110.74	124.93	53.724	1.339e-05	48.491	0.0014725	0.0014978	0.0004216	993.26	1.6452e-05	1.6491e-05	783.57	340.45	1.6641e-05	1.6812e-05	314.08	111.72	126.64	53.701	1.7509e-05	49.452	81.063	-59.442	-101.919	-145.267	-55.491	95.742	-147.041	-139.663	-71.824	-26.442	-142.344	-138.385	-135.073	-129.538	-43.068	-133.740	-8191	255	
7171.725	1	1	0	0	0.065037	0.36829	0.2327	0.13601	0.10758	0.050817	0.23412	0.18618	0.204	0.071916	0.17551	0.10716	0.1938	0.12895	0.1474	0.11775	-1.4417	-2.6375	-2.4021	-1.9896	-2.6792	-1.9729	-2.3854	-2.625	-1.9208	-2.5292	-2.3604	-2.0792	-2.6625	-2.1937	-2.2562	-2.5417	-126.721	-139.109	-36.956	-120.953	27.607	126.290	57.539	-56.424	5.639	-153.532	56.487	201.297	-128.816	149.875	202.522	112.647	0.0014297	0.0012314	0.0001299	1006.9	1.2783e-05	2.4853e-06	788.19	343.97	1.2039e-05	8.0871e-06	308.88	110.58	124.36	53.911	5.4075e-06	48.727	0.0015971	0.0016742	0.00047181	999.27	1.8653e-05	1.9051e-05	785.6	340.75	1.8911e-05	1.932e-05	315.56	111.65	126.84	53.813	1.8686e-05	49.661	75.497	-90.389	188.807	-144.665	155.295	44.580	-146.405	-138.928	-13.606	-81.945	-141.713	-137.807	-134.626	-129.468	86.584	-133.208	-8191	255	
7171.846	1	1	0	0	0.12152	0.016656	0.2458	0.21148	0.11874	0.12626	0.19493	0.093057	0.025479	0.12341	0.17491	0.020765	0.28594	0.15182	0.093987	0.089495	-1.4729	-2.525	-2.2062	-2.0187	-2.6229	-2.0375	-2.3187	-2.7771	-1.9854	-2.3563	-2.3958	-2.0729	-2.5917	-2.3063	-2.1208	-2.6583	-54.006	18.548	107.447	-124.864	69.319	127.179	169.260	77.766	-43.339	5.183	-118.744	19.165	-153.973	128.892	200.621	-56.425	0.0014165	0.00081612	2.6965e-05	1003.4	7.3049e-06	9.1116e-06	788.27	342.31	7.0842e-06	3.0264e-06	307.74	109.64	124.56	53.704	4.6081e-06	48.434	0.00165	0.0017271	0.00048067	997.75	1.8455e-05	1.8956e-05	786.96	339.78	1.8568e-05	1.8725e-05	314.15	111.07	126.69	53.554	1.7842e-05	49.134	57.520	-132.710	48.331	-144.870	-70.787	4.731	-146.512	-138.981	-40.548	-6.153	-142.107	-138.043	-134.910	-129.460	-18.995	-133.540	-8191	255	
7171.942	1	1	0	0	0.22357	0.07237	0.05357	0.2033	0.12664	0.12957	0.10185	0.046052	0.15275	0.30308	0.0073454	0.13547	0.087701	0.098323	0.25911	0.4312	-1.575	-2.3312	-2.5583	-1.9688	-2.625	-2.2354	-2.1063	-2.6417	-1.9875	-2.1958	-2.7438	-1.9312	-2.6458	-2.3833	-1.9167	-2.7562	73.081	105.147	37.042	-155.869	-14.334	57.787	160.353	-17.807	80.723	176.566	-15.297	179.639	14.903	-96.365	16.763	174.999	0.0013253	0.00084815	0.00024458	1006.1	6.2528e-06	2.7577e-06	780.26	342.66	1.0129e-05	7.0411e-06	307.63	110.17	125.14	53.563	1.5484e-05	48.202	0.0015527	0.0015744	0.00043343	992.51	1.724e-05	1.7473e-05	778.77	339.63	1.7196e-05	1.7543e-05	312.46	110.88	126.59	53.537	1.7694e-05	49.005	69.311	-67.975	-46.585	-144.943	-74.535	-69.125	-146.890	-139.372	-32.063	70.317	-141.734	-137.865	-134.538	-129.349	-22.445	-133.639	-8191	255	
7172.037	1	1	0	0	0.23508	0.13259	0.086995	0.23315	0.062686	0.17061	0.22927	0.33422	0.16009	0.25852	0.21477	0.074311	0.26592	0.1676	0.18837	0.2112	-1.5646	-2.3	-2.5229	-2.0167	-2.4938	-2.3708	-1.8625	-2.6354	-2.05	-2.1417	-2.7562	-1.875	-2.4021	-2.3646	-2.0208	-2.9479	187.103	9.169	-107.519	-129.092	-50.754	-65.884	129.162	157.416	-53.377	70.940	168.094	-37.935	155.408	154.654	106.204	114.179	0.0011405	0.00059232	0.00026811	1000	1.6491e-05	4.9129e-06	776.53	340.84	8.1538e-06	5.2238e-06	305.38	108.72	123.25	53.118	1.0717e-05	47.821	0.0016534	0.0016971	0.00048286	992.29	1.9557e-05	2.0067e-05	778.62	339.45	1.9799e-05	2.0207e-05	312.51	110.5	126.38	53.337	1.9866e-05	48.974	75.927	-85.648	-132.419	-144.781	-3.741	9.648	-146.698	-138.877	-36.905	67.451	-142.009	-137.950	-134.678	-129.575	-129.436	-133.434	-8191	255	
7172.134	1	1	0	0	0.25751	0.11886	0.10706	0.1825	0.15066	0.099775	0.20293	0.3354	0.055841	0.13978	0.23702	0.18528	0.26409	0.1346	0.026192	0.079054	-1.85	-2.2562	-2.575	-2.2083	-2.3187	-2.4	-2.0604	-2.9437	-2.0333	-2.125	-2.7333	-1.9833	-2.3354	-2.5771	-1.7958	-2.6833	181.868	-24.824	155.573	-128.551	99.777	83.269	182.664	167.558	-9.411	12.749	-81.743	142.830	191.058	90.375	-140.075	104.727	0.0011516	0.00078004	0.00034971	998.09	6.4573e-06	1.087e-05	777.88	339.94	2.057e-05	7.6913e-06	306.6	109.75	123.42	53.556	2.4898e-06	48.088	0.0017739	0.0018328	0.00051073	993.2	1.9879e-05	2.009e-05	778.42	338.41	1.9228e-05	1.9304e-05	311.93	110.52	125.97	53.541	1.7803e-05	49.099	73.043	-67.751	-87.555	-144.617	-72.929	-55.149	-146.577	-139.040	-59.985	-23.723	-142.232	-137.904	-135.193	-129.715	-42.824	-133.766	-8191	255	
7172.253	1	1	0	0	0.24973	0.23954	0.16741	0.2534	0.19947	0.12485	0.13885	0.25297	0.23196	0.27094	0.15592	0.23078	0.26965	0.18283	0.077734	0.23533	-1.6812	-1.9646	-2.6396	-2.1937	-2.3958	-2.45	-2.0125	-2.8229	-2.3417	-1.9729	-2.6979	-2.1854	-2.3125	-2.5	-1.8833	-2.6583	7.904	167.723	100.644	80.904	186.258	108.890	139.102	122.527	-86.358	51.187	162.176	-108.518	-156.540	-156.894	143.742	141.585	0.0018771	0.00086737	0.00020033	1002.6	1.1701e-05	6.2217e-06	783.87	342.84	8.4053e-06	1.2696e-05	309.17	110.38	124.42	53.926	5.7512e-06	48.412	0.001584	0.0016201	0.00045057	991.83	1.7386e-05	1.7358e-05	780.6	339.18	1.7068e-05	1.734e-05	312.66	110.99	125.88	53.527	1.6699e-05	48.962	69.158	3.046	-64.002	-144.919	-83.916	-29.049	-146.744	-139.229	-82.436	64.444	-142.052	-137.400	-135.233	-129.958	-17.712	-133.879	-8191	255	
7172.349	1	1	0	0	0.12661	0.19241	0.23179	0.31984	0.13179	0.095048	0.1291	0.18122	0.097602	0.22156	0.15079	0.33092	0.08854	0.15355	0.12547	0.29532	-1.875	-1.6625	-2.675	-2.1188	-2.1271	-2.4938	-2.0583	-2.475	-2.3042	-1.8979	-2.7188	-2.1208	-2.1375	-2.7875	-1.9479	-2.4833	-6.435	-130.475	-82.159	184.607	10.061	-8.861	96.065	117.379	-49.986	-143.791	47.746	173.791	-64.157	137.664	-31.413	192.989	0.0013075	9.1394e-05	0.00034596	1003.8	1.3867e-05	2.9726e-06	788.01	344.33	5.6943e-06	9.374e-06	307.79	110.55	124.25	53.994	1.2045e-05	48.602	0.0014557	0.0014669	0.00039885	985.7	1.5421e-05	1.5277e-05	778.53	338.26	1.4731e-05	1.4749e-05	309.06	110.13	124.6	53.41	1.4203e-05	48.642	70.057	-136.182	-105.957	-144.715	-75.749	-25.377	-146.704	-139.077	61.571	-20.792	-141.702	-137.824	-134.869	-129.349	-30.326	-133.653	-8191	255	
7172.421	1	1	0	0	0.30904	0.31537	0.10983	0.24555	0.19166	0.24507	0.14517	0.047667	0.15514	0.22348	0.099945	0.13824	0.0965	0.0897	0.17742	0.13624	-2.0625	-1.8208	-2.7104	-2.4229	-2.2292	-2.7229	-2.325	-2.4292	-2.5271	-1.85	-2.8063	-2.2313	-1.9521	-2.8125	-2.0958	-2.4083	190.862	4.942	66.670	155.397	174.431	2.361	103.300	193.728	197.054	-77.724	42.614	114.043	-81.806	180.124	-145.430	160.916	0.0016298	0.00041495	0.00010383	1005.8	2.4412e-06	7.9473e-06	782	344.73	1.6006e-05	2.2327e-06	308.06	109.57	124.99	53.71	1.0934e-05	48.381	0.0012618	0.0012947	0.00035777	983.15	1.3776e-05	1.4011e-05	772.3	337.35	1.3847e-05	1.4025e-05	308.44	109.73	124.23	53.119	1.4096e-05	48.586	56.217	22.371	18.959	-144.659	-64.306	23.740	-147.092	-139.215	-60.066	17.948	-141.792	-137.330	-134.898	-129.323	56.402	-133.986	-8191	255	
7172.542	1	1	0	0	0.25368	0.21239	0.15998	0.29458	0.25796	0.18718	0.2284	0.19101	0.23266	0.014568	0.16661	0.21469	0.20362	0.40061	0.17016	0.28911	-2.0792	-2.0563	-2.4917	-2.3812	-1.8021	-2.6167	-2.0771	-2.4729	-2.6188	-1.9104	-2.625	-2.4729	-2.1437	-2.7604	-2.175	-2.3854	99.489	8.053	171.907	197.643	-3.238	140.663	-71.815	-135.418	18.094	34.852	116.610	-122.116	-146.418	188.533	109.670	19.545	0.0017023	0.00079803	0.00019603	1004.6	1.7073e-07	9.9217e-06	784.45	345.72	5.1497e-06	1.5442e-05	310.34	112.46	126.6	54.562	1.1551e-05	49.378	0.0012771	0.0012833	0.00035906	983.27	1.3945e-05	1.3811e-05	775.51	338.06	1.3226e-05	1.3116e-05	309.93	110.85	125.05	53.554	1.2334e-05	49.181	75.291	-131.116	-71.951	-144.774	-73.800	-26.556	-146.380	-139.127	18.750	-32.672	-142.281	-137.898	-134.853	-129.411	8.130	-133.431	-8191	255	
7172.638	1	1	0	0	0.058512	0.33649	0.30343	0.36079	0.18871	0.17539	0.10393	0.28205	0.16006	0.16549	0.075605	0.093546	0.14737	0.17375	0.20953	0.17936	-2.0896	-1.9458	-2.3979	-2.5917	-1.8458	-2.4604	-2.1958	-2.3521	-2.7542	-2.0271	-2.4188	-2.7021	-2.0438	-2.5646	-2.1688	-2.2521	159.195	99.999	32.837	89.263	93.103	161.175	39.391	-72.113	-24.115	-37.427	-69.585	127.341	-115.226	22.614	127.833	158.036	0.0014981	0.00054499	5.5896e-05	1019.1	1.33e-05	1.4054e-05	809.35	350.45	5.6897e-06	3.6405e-06	317.87	113.92	127.03	54.863	7.5535e-06	49.77	0.001083	0.0010952	0.00029989	990.86	1.1568e-05	1.174e-05	790.44	341.27	1.1547e-05	1.1865e-05	314.41	112.01	125.52	53.901	1.2387e-05	49.453	74.125	-92.034	-33.229	-144.544	-47.861	-54.270	-146.325	-139.026	6.102	9.188	-142.238	-137.969	-135.073	-129.192	-30.038	-133.928	-8191	255	
7172.734	1	1	0	0	0.25758	0.14353	0.20837	0.22866	0.29127	0.17234	0.21978	0.09564	0.15416	0.28572	0.10821	0.252	0.19824	0.058627	0.1319	0.23157	-2.0104	-2.0062	-2.2	-2.4771	-1.7958	-2.5229	-2.4208	-2.1208	-2.6	-1.9792	-2.3187	-2.6437	-1.9396	-2.4083	-2.2146	-2.1917	102.243	92.926	56.547	-155.004	162.719	-66.206	196.076	-90.524	-62.294	13.510	-70.130	136.308	160.939	-82.724	-8.372	-150.311	0.0014466	0.00019672	0.00022451	1007.1	4.4679e-06	5.5254e-07	792.47	344.44	7.7379e-07	7.738e-06	309.58	110.28	123.97	53.524	5.4143e-06	48.386	0.0011349	0.0011839	0.00033608	986.61	1.361e-05	1.3938e-05	779.53	338.28	1.4453e-05	1.5043e-05	310.52	110.3	124.66	53.245	1.5661e-05	48.737	77.274	-42.760	-43.021	-144.507	52.057	-74.219	-146.838	-138.980	194.355	33.893	-142.041	-137.839	-135.160	-129.922	2.494	-133.914	-8191	255	
7172.830	1	1	0	0	0.16186	0.09783	0.20766	0.3108	0.073529	0.15716	0.11662	0.14471	0.15048	0.11057	0.20693	0.098089	0.19022	0.28832	0.32094	0.10025	-2.2458	-2.0583	-2.1292	-2.7687	-1.925	-2.6667	-2.4708	-2.0646	-2.7521	-2.0958	-2.1979	-2.65	-2.0042	-2.5125	-2.3542	-2.0917	90.821	-73.144	-52.153	135.523	137.586	67.568	152.441	175.218	69.964	-80.774	-76.509	169.600	-111.045	102.960	-34.498	-99.191	0.0013597	0.00012099	0.00010648	996.52	2.9104e-06	7.9654e-06	779.69	344.89	7.4852e-06	6.9752e-07	307.5	110.53	125.2	53.804	6.1514e-06	48.912	0.0013804	0.0014175	0.00039502	980.92	1.4788e-05	1.4943e-05	769.02	337.84	1.4216e-05	1.4357e-05	308.14	109.95	124.67	53.229	1.3565e-05	48.807	68.551	-138.922	197.879	-145.227	-47.807	-96.962	-147.182	-139.611	43.029	79.035	-142.862	-138.230	-135.403	-130.038	43.315	-133.960	-8191	255	
7172.949	1	1	0	0	0.21084	0.28468	0.13632	0.15405	0.063714	0.12481	0.18053	0.14214	0.23052	0.11519	0.12992	0.16701	0.15839	0.29992	0.095299	0.24902	-2.2354	-2.1333	-2.2562	-2.7333	-1.8979	-2.4167	-2.5271	-2.0833	-2.6937	-2.1396	-2.0438	-2.5792	-2.0542	-2.3104	-2.4792	-1.8667	3.811	120.227	140.304	198.976	73.115	54.269	152.312	119.834	125.421	-47.259	129.124	-44.569	100.658	149.719	-13.333	-64.140	0.001466	0.00067232	0.00020782	1003.1	2.2848e-06	1.5004e-06	787.06	346.58	1.7046e-05	6.6934e-06	314.24	111.84	126.59	54.751	9.4012e-06	49.651	0.0011868	0.0012067	0.00033375	980.83	1.2666e-05	1.2976e-05	773.99	339.21	1.235e-05	1.244e-05	311.45	111.22	125.38	53.821	1.1994e-05	49.402	81.720	-33.338	-40.383	-144.437	139.509	200.516	-146.635	-139.672	-66.904	21.417	-141.809	-137.551	-134.565	-129.420	-52.886	-133.560	-8191	255	
7173.023	1	1	0	0	0.12603	0.16247	0.20634	0.21432	0.06212	0.040078	0.18937	0.24268	0.068695	0.34822	0.11223	0.18769	0.069032	0.055536	0.16535	0.14445	-2.1042	-2.1729	-2.0458	-2.6958	-2.1396	-2.275	-2.5021	-2.1312	-2.3063	-2.3792	-2.1104	-2.7687	-2.0708	-2.4688	-2.4292	-2.0271	40.190	131.833	167.055	-130.409	45.252	106.294	-136.107	-140.642	60.727	132.281	88.538	200.655	102.905	117.375	27.427	166.835	0.0017701	0.00034159	6.1143e-05	1015.8	1.452e-05	6.6858e-06	799.89	348.93	8.8467e-06	1.2956e-05	315.42	113.13	127.19	55.17	9.9494e-06	50.371	0.0011025	0.0010977	0.00030778	989.35	1.2145e-05	1.2392e-05	784.21	341.01	1.2357e-05	1.2454e-05	313.69	112.12	125.73	54.035	1.237e-05	49.942	67.939	184.410	-64.483	-144.351	-110.867	-10.319	-146.392	-139.166	88.315	6.242	-142.243	-137.614	-134.712	-129.349	50.390	-133.719	-8191	255	
7173.119	1	1	0	0	0.23381	0.045629	0.19415	0.090582	0.024386	0.18822	0.058877	0.21251	0.16829	0.15575	0.45096	0.31256	0.21059	0.040315	0.3555	0.31578	-2.025	-2.2458	-1.8563	-2.6813	-2.0896	-2.2208	-2.6	-2.0917	-2.425	-2.4417	-2.0125	-2.6604	-2.1042	-2.1063	-2.4792	-2.1437	3.399	47.757	58.652	133.324	-29.520	-125.211	159.149	63.997	179.764	-76.568	151.609	8.874	186.881	191.616	99.890	194.890	0.0017885	0.00044146	6.1876e-05	1014.8	8.3506e-06	6.4539e-06	804.12	349.67	8.494e-06	1.1275e-05	313.44	113.3	127.13	54.602	2.8199e-06	49.173	0.0011223	0.0011345	0.00031672	993.21	1.2689e-05	1.2889e-05	788.27	341.62	1.2964e-05	1.3252e-05	312.94	111.97	125.94	53.871	1.347e-05	49.372	65.047	-69.139	27.621	-144.483	-108.373	-59.890	-146.395	-139.100	-62.181	29.433	-142.011	-137.481	-134.848	-129.331	51.090	-133.709	-8191	255	
7173.215	1	1	0	0	0.040542	0.14022	0.12599	0.061405	0.12049	0.08116	0.16179	0.16204	0.25781	0.15397	0.20342	0.31176	0.26422	0.28813	0.13905	0.32465	-2.0667	-2.1354	-1.8563	-2.5708	-2.1167	-2.0583	-2.5604	-2.1875	-2.2854	-2.6229	-1.8813	-2.4708	-2.3292	-2.05	-2.4896	-2.1229	-106.126	-28.659	125.148	153.590	-36.263	-32.837	49.996	-135.773	-35.110	-122.600	-60.745	156.150	148.928	168.866	117.235	188.257	0.0014276	0.00037585	8.649e-05	1006.1	3.7178e-06	2.7287e-06	787.73	343.7	1.0883e-05	7.9457e-06	311.71	110.94	124.8	53.507	6.9369e-06	48.368	0.0012292	0.0012785	0.00036162	987.34	1.44e-05	1.477e-05	775.91	338.58	1.5027e-05	1.5068e-05	311.15	110.35	125.32	53.314	1.4905e-05	48.908	70.402	-25.329	135.906	-144.243	-93.322	-46.336	-146.574	-138.792	65.453	5.649	-141.850	-137.527	-135.796	-131.201	-125.324	-134.851	-8191	255	
7173.334	1	1	0	0	0.2055	0.098022	0.1746	0.23024	0.19122	0.2954	0.23566	0.21613	0.17773	0.13545	0.087846	0.10934	0.095087	0.23252	0.11398	0.33141	-1.5958	-2.4354	-1.7938	-2.5375	-2.2917	-2.0625	-2.7	-2.1646	-2.0646	-2.7521	-2.0917	-2.6083	-2.4417	-2.0229	-2.6583	-2.2875	-59.294	186.359	-77.292	169.588	77.526	141.251	152.968	158.182	132.326	134.561	54.250	-55.381	63.817	168.995	165.978	187.879	0.0011635	0.00038988	0.0001722	996.88	1.2914e-05	6.9495e-06	778.92	345.28	8.0383e-06	4.95e-06	309.79	111.17	125.54	54.154	5.1331e-06	49.022	0.0013458	0.0013549	0.00037933	980.97	1.4706e-05	1.4756e-05	772.1	339.43	1.4321e-05	1.4186e-05	309.68	110.72	125.6	53.445	1.4051e-05	49.191	70.898	-43.545	-31.501	-145.405	-60.978	49.450	-146.534	-138.820	24.218	-129.071	-141.960	-137.658	-134.725	-129.624	35.017	-133.731	-8191	255	
7173.430	1	1	0	0	0.16092	0.11275	0.035209	0.0084737	0.21877	0.28612	0.13292	0.29671	0.34252	0.064979	0.24716	0.29686	0.079965	0.013976	0.47796	0.29707	-1.7521	-2.5833	-1.8042	-2.4521	-2.3521	-1.8417	-2.7792	-2.4896	-2.0417	-2.6271	-1.7521	-2.5333	-2.4896	-1.875	-2.5792	-2.2146	154.180	91.666	110.546	-127.924	9.333	160.226	140.954	-140.303	-18.033	-134.295	57.626	143.821	-77.155	162.596	-82.008	121.407	0.0012836	0.00093224	9.9116e-05	1008.1	1.9068e-05	6.8766e-06	788.81	346.6	1.5326e-05	3.8018e-06	309.72	111.2	126.12	53.899	3.1135e-06	48.979	0.001257	0.0012664	0.00035765	986.56	1.4137e-05	1.4196e-05	778.76	339.77	1.44e-05	1.4535e-05	310.8	110.89	125.63	53.445	1.4608e-05	49.269	69.968	-38.383	-77.526	-144.993	-42.873	33.631	-146.517	-139.097	-65.640	17.448	-142.034	-137.764	-134.853	-129.326	-0.500	-133.423	-8191	255	
7173.526	1	1	0	0	0.22952	0.18264	0.10655	0.38757	0.10764	0.46896	0.27396	0.34806	0.11033	0.095207	0.19568	0.10644	0.11	0.18089	0.15096	0.23153	-1.6896	-2.5625	-1.9104	-2.3812	-2.5333	-2.075	-2.6771	-2.1958	-1.9438	-2.4417	-2.1521	-2.3104	-2.6458	-1.975	-2.4375	-2.3646	133.773	31.762	153.575	-138.863	-105.906	96.525	168.909	131.074	-90.537	182.899	107.001	98.495	82.883	168.434	-116.834	166.496	0.0012193	0.00037416	3.3268e-05	1001.2	6.8774e-06	7.9333e-06	787.12	344.28	1.7854e-05	4.7444e-06	309.3	111.58	125.73	54.1	8.669e-06	49.017	0.0013326	0.0013632	0.00038165	985.44	1.5072e-05	1.48e-05	777.46	339.87	1.4783e-05	1.4723e-05	311.06	111.26	125.53	53.52	1.447e-05	49.272	81.464	195.025	-95.531	-144.521	-16.838	-47.814	-146.060	-139.158	-37.333	-12.839	-142.918	-138.528	-135.546	-130.168	72.964	-134.353	-8191	255	
7173.622	1	1	0	0	0.045486	0.28447	0.090533	0.17711	0.055009	0.11922	0.15526	0.14176	0.24377	0.056105	0.053576	0.31504	0.19478	0.10936	0.20539	0.20215	-1.5312	-2.5229	-1.9083	-2.0646	-2.5229	-1.9896	-2.5375	-2.4188	-2.125	-2.4708	-2.0875	-2.2833	-2.75	-1.9833	-2.3167	-2.5187	166.657	-157.306	25.882	-58.952	141.717	-129.831	-128.690	83.729	-110.046	-23.063	199.804	183.997	150.557	-78.155	-125.372	114.581	0.0013667	0.00048084	7.7531e-05	1003.2	4.4701e-06	4.2105e-06	782.48	344.7	8.9931e-06	4.2494e-06	306.2	110.18	124.16	53.904	4.8204e-06	48.586	0.0012995	0.0013306	0.00037132	984.28	1.4414e-05	1.4555e-05	773.24	339.64	1.4516e-05	1.4893e-05	309.66	110.41	125.24	53.446	1.5361e-05	49.005	66.104	-115.563	17.585	-145.685	-47.132	-9.154	-147.476	-139.611	-62.603	-9.684	-142.385	-138.400	-135.130	-129.986	-16.515	-134.143	-8191	255	
7173.718	1	1	0	0	0.032347	0.18428	0.27327	0.15228	0.20727	0.10281	0.24991	0.24666	0.064143	0.24857	0.04017	0.10735	0.20974	0.14002	0.19942	0.15648	-1.4521	-2.5458	-2.2521	-2.1771	-2.4854	-1.8563	-2.4479	-2.5125	-1.7313	-2.5625	-2.3146	-2.1104	-2.4604	-2.1458	-2.3292	-2.4479	21.979	54.340	-148.704	136.775	32.107	197.369	173.686	124.307	43.213	-134.551	74.523	139.678	-147.489	197.926	170.399	-131.323	0.0011677	0.00093694	9.4471e-05	991.93	9.8503e-06	5.3363e-06	774.62	343.86	2.3442e-06	1.9857e-05	307.69	109.78	124.32	53.88	1.5579e-05	48.926	0.0013989	0.0014299	0.00039773	981.3	1.5661e-05	1.5689e-05	770.82	339.43	1.5427e-05	1.5669e-05	309.97	109.89	125.1	53.431	1.4826e-05	49.002	83.061	-51.068	-52.845	-145.334	-88.197	-48.421	-147.100	-139.466	175.249	-12.613	-142.033	-137.617	-134.689	-129.739	-115.120	-134.050	-8191	255	
7173.814	1	1	0	0	0.22667	0.19996	0.071052	0.24996	0.32096	0.086641	0.16485	0.12233	0.31351	0.13723	0.14934	0.064151	0.16616	0.073082	0.32409	0.19102	-1.7271	-2.3708	-2.2521	-2.0687	-2.6625	-2.125	-2.3354	-2.5667	-1.7	-2.3104	-2.4979	-2.2833	-2.8646	-2.2292	-2.0667	-2.7271	-113.011	-83.673	-102.995	-144.466	-11.586	-111.916	140.193	-120.150	33.953	-102.618	-33.179	113.740	-140.057	-39.961	95.657	155.112	0.0014394	0.00061488	0.00026351	997.82	1.5409e-05	2.1194e-06	784.83	344.81	1.635e-06	1.0416e-05	310.48	111.86	126.08	54.479	1.5711e-06	49.447	0.001312	0.0013271	0.0003646	980.44	1.3889e-05	1.4082e-05	774.93	339.34	1.3441e-05	1.3529e-05	310.61	110.68	125.61	53.687	1.3417e-05	49.424	68.733	-67.386	-33.106	-145.079	31.351	-90.555	-146.363	-138.917	-62.019	17.979	-141.825	-137.498	-134.803	-129.161	15.181	-133.537	-8191	255	
7173.935	1	1	0	0	0.23827	0.1433	0.12141	0.10463	0.1651	0.34034	0.24252	0.24453	0.30612	0.28358	0.046249	0.36924	0.2564	0.16666	0.19205	0.14484	-1.5521	-2.475	-2.2917	-2.1813	-2.6083	-2.1979	-2.2604	-2.6	-1.875	-2.5396	-2.3896	-1.9583	-2.5396	-2.3542	-2.1083	-2.55	-57.213	-120.321	-128.157	137.413	-57.630	18.407	114.863	156.595	42.849	96.393	-122.200	117.553	-97.921	180.087	108.376	19.043	0.0016042	0.00050241	0.0001909	1003.5	1.0343e-05	9.7536e-06	795.15	348.24	1.7339e-05	2.386e-06	312.94	112.16	126.66	54.433	5.0647e-06	50.258	0.0012036	0.0012391	0.00034627	986.14	1.3172e-05	1.3437e-05	782.86	341.07	1.3163e-05	1.3293e-05	312.98	111.66	125.91	53.844	1.3194e-05	49.893	84.856	-16.146	-32.164	-144.791	-46.980	-22.474	-146.890	-138.890	-23.291	-40.865	-142.359	-137.589	-134.490	-129.619	-27.459	-133.550	-8191	255	
7174.029	1	1	0	0	0.17843	0.1059	0.1667	0.21417	0.16366	0.19658	0.055732	0.36045	0.086064	0.31211	0.23272	0.37056	0.22739	0.36312	0.11105	0.21228	-1.6292	-2.3812	-2.4583	-2.0729	-2.6271	-2.2438	-2.2542	-2.6188	-1.9438	-2.1917	-2.4458	-2	-2.65	-2.2562	-1.9833	-2.925	93.435	-65.680	-36.229	186.365	-57.755	-112.642	-138.895	-92.220	6.155	-90.462	167.394	149.944	167.882	157.527	56.516	112.396	0.0012829	0.0006752	0.00010644	1013.2	7.2644e-06	3.0356e-06	801.03	350.84	2.1438e-07	9.0246e-06	317.96	113.55	127.43	55.13	2.0222e-06	50.184	0.0011831	0.0012054	0.00033507	989.66	1.2688e-05	1.2874e-05	787.09	342.57	1.2521e-05	1.284e-05	314.73	112.22	126.25	54.282	1.2192e-05	49.938	82.708	-89.133	-42.425	-144.536	177.699	-57.171	-146.706	-139.112	107.694	7.134	-141.783	-137.672	-134.758	-129.803	183.830	-133.242	-8191	255	
7174.126	1	1	0	0	0.22325	0.13339	0.10057	0.2748	0.22498	0.13059	0.048039	0.3507	0.2902	0.092144	0.25962	0.19272	0.17318	0.16058	0.067219	0.20785	-1.4396	-2.1896	-2.6562	-2.1458	-2.5333	-2.4521	-2.1479	-2.7917	-2.1646	-2.0167	-2.7521	-1.9937	-2.5458	-2.5604	-1.8458	-2.6979	-38.899	59.706	-46.723	102.955	-80.173	200.142	72.826	184.052	-39.942	132.151	136.927	142.145	128.331	202.798	-59.862	-144.192	0.001018	0.00081727	0.00010152	1013.3	1.061e-05	9.4622e-06	807.25	353.5	1.1451e-05	1.5045e-05	320.7	114.62	128.05	55.737	5.2298e-06	50.632	0.0010886	0.0010859	0.00029996	989.86	1.1663e-05	1.171e-05	790.59	343.62	1.1318e-05	1.15e-05	316.67	113.23	126.95	54.596	1.137e-05	50.257	78.639	-35.386	-42.767	-144.779	-53.105	-68.923	-146.480	-139.061	-56.889	-17.083	-141.632	-137.773	-134.743	-129.397	-6.391	-133.485	-8191	255	
7174.246	1	1	0	0	0.10697	0.085841	0.062836	0.1963	0.12877	0.3466	0.038795	0.18288	0.12277	0.37351	0.057205	0.16478	0.16157	0.073339	0.1243	0.085088	-1.7917	-2.0312	-2.5229	-2.0271	-2.25	-2.425	-1.9688	-2.5187	-2.2333	-2.0833	-2.5812	-2.05	-2.4042	-2.5396	-2.0958	-2.7375	6.391	-70.789	160.793	186.198	-59.216	193.419	54.683	116.933	-90.805	108.707	-123.356	100.784	-112.349	96.324	97.100	-151.475	0.0016276	0.00056633	0.00017672	1017.7	5.4555e-06	6.2234e-06	802.76	349.97	7.2943e-06	2.577e-06	313.77	113.2	126.88	54.564	3.4371e-06	49.594	0.0010501	0.0010672	0.00029778	992.18	1.1851e-05	1.2123e-05	787.89	342.22	1.2534e-05	1.2478e-05	313.81	112.1	126.27	54.089	1.3294e-05	49.727	73.385	-92.926	-74.294	-145.038	114.773	115.966	-146.546	-139.061	-8.845	3.790	-141.952	-138.064	-134.932	-129.497	45.361	-133.773	-8191	255	
7174.318	1	1	0	0	0.18579	0.23905	0.059837	0.30511	0.06362	0.47269	0.12618	0.19829	0.13818	0.060861	0.18706	0.20135	0.080127	0.18306	0.31804	0.34087	-1.9354	-1.9333	-2.7438	-2.1479	-2.4083	-2.5604	-1.9708	-2.6833	-2.2396	-2.0292	-2.8688	-2.2375	-2.2667	-2.6958	-2.1167	-2.4437	99.221	138.260	-58.391	144.055	-153.062	113.761	0.740	171.950	-95.713	-39.346	153.457	175.477	69.871	184.690	-132.860	-126.002	0.0013506	0.00041387	0.00021103	994.97	2.7173e-06	5.1169e-06	779.1	341.61	1.9403e-05	8.6702e-06	308.98	109.18	123.23	53.114	1.7219e-05	47.813	0.001259	0.0013257	0.00037576	988.12	1.5925e-05	1.6783e-05	779.95	340.75	1.8655e-05	1.9232e-05	315.47	111.9	127.57	53.73	2.1744e-05	49.657	62.779	-62.473	-97.233	-144.952	189.336	18.196	-146.978	-139.054	-85.432	16.678	-141.750	-137.535	-134.820	-129.387	-28.338	-133.670	-8191	255	
7174.414	1	1	0	0	0.12975	0.43115	0.1269	0.09554	0.10997	0.048694	0.16195	0.21146	0.18873	0.028503	0.085076	0.17143	0.14056	0.15038	0.085728	0.22307	-1.9188	-1.8125	-2.5938	-2.1021	-2.4688	-2.55	-1.9708	-2.5396	-2.3229	-2.1188	-2.8312	-2.2167	-2.2167	-2.7	-1.9562	-2.6604	49.053	43.574	135.640	-44.946	38.197	-42.101	113.142	188.191	53.002	161.224	-3.296	142.732	99.779	187.138	-26.022	-149.553	0.0014865	0.0013426	0.00036748	986.73	1.6843e-05	8.5622e-06	767.72	338.32	1.6227e-05	2.1124e-06	304.74	108.86	123.83	52.9	9.2301e-06	48.303	0.0020458	0.0021425	0.00060514	999.91	2.3347e-05	2.3137e-05	782.51	341.65	2.1377e-05	2.0564e-05	313.73	110.84	125.93	53.138	1.7233e-05	49.109	74.327	-53.060	-87.735	-145.036	-77.922	-117.385	-146.681	-139.109	-23.910	-62.065	-142.014	-137.818	-134.670	-129.466	-88.157	-133.850	-8191	255	
7174.510	1	1	0	0	0.17119	0.22438	0.11769	0.1024	0.050524	0.16717	0.18325	0.1394	0.1225	0.25798	0.37768	0.29269	0.093043	0.29529	0.12898	0.17257	-2.0187	-1.8438	-2.4146	-2.4375	-2.0021	-2.5708	-2.0771	-2.4396	-2.425	-2.025	-2.5396	-2.4604	-2.2667	-2.6729	-1.9896	-2.2771	7.977	-78.788	39.738	142.406	-140.796	-6.187	113.956	163.702	199.203	44.219	74.842	90.996	-86.453	136.514	-121.010	113.504	0.0016603	0.0008703	0.00013622	1000.8	1.3019e-05	1.3251e-05	779.3	345.76	7.2603e-06	7.262e-06	311.49	112.06	125.42	54.519	9.062e-06	49.185	0.0014375	0.0014124	0.00038289	983.43	1.433e-05	1.3965e-05	771.4	339.56	1.3012e-05	1.279e-05	310.37	110.89	124.95	53.824	1.191e-05	49.366	66.840	-65.130	-86.129	-144.848	-33.265	124.802	-146.050	-139.210	-58.981	38.214	-142.496	-137.754	-135.784	-129.919	-105.622	-133.803	-8191	255	
7174.631	1	1	0	0	0.057639	0.038515	0.26693	0.068524	0.23701	0.12723	0.18026	0.22745	0.11517	0.13762	0.26291	0.049428	0.10204	0.12235	0.22579	0.22965	-2.1604	-1.8625	-2.3917	-2.3812	-2.0417	-2.5083	-2.125	-2.3458	-2.6792	-1.9208	-2.7021	-2.4854	-2.0604	-2.7354	-2.2812	-2.2313	-135.004	112.809	147.014	60.739	149.034	-12.055	67.768	157.266	94.946	92.889	193.500	147.542	-113.104	-94.786	163.086	56.558	0.0014434	0.00065582	0.00011778	1000.7	7.7697e-06	6.2468e-06	787.82	346.14	1.3416e-05	7.1653e-06	309.84	111.48	125.82	54.507	1.2367e-06	49.17	0.001074	0.0010735	0.00029924	984.47	1.2047e-05	1.2245e-05	780.95	340.82	1.2661e-05	1.2936e-05	311.48	111.53	125.6	54.122	1.3646e-05	49.62	65.845	-8.896	-96.132	-144.715	-89.883	-9.509	-146.566	-139.359	-130.963	58.880	-142.236	-137.738	-135.309	-129.643	-119.378	-133.835	-8191	255	
7174.727	1	1	0	0	0.19326	0.11903	0.047479	0.29831	0.25555	0.10668	0.18848	0.0914	0.29545	0.063491	0.23575	0.18079	0.062288	0.11975	0.16723	0.19138	-2.2521	-1.9708	-2.5667	-2.4229	-2.0187	-2.7958	-2.3396	-2.2438	-2.7854	-2.0812	-2.5438	-2.6854	-1.8937	-2.7521	-2.2646	-2.1625	140.087	-102.780	-154.409	113.133	-79.882	161.611	-39.306	164.536	-107.200	13.540	119.886	61.037	-117.530	166.321	62.701	-41.464	0.0017772	0.00066915	0.00040957	1008.6	8.4303e-06	8.3553e-06	789.81	345.5	1.358e-05	1.0927e-05	308.26	111.09	126.07	54.415	1.1929e-05	48.815	0.00125	0.0012822	0.00036483	995.61	1.4311e-05	1.4702e-05	787.76	341.26	1.4534e-05	1.4938e-05	313.3	111.57	126.39	54.107	1.5077e-05	49.721	74.888	-49.089	-74.424	-144.800	-82.890	-26.603	-146.437	-139.195	23.680	-27.959	-142.944	-137.890	-135.499	-130.172	-87.728	-133.957	-8191	255	
7174.823	1	1	0	0	0.22949	0.19839	0.039246	0.068844	0.21651	0.13445	0.057667	0.064058	0.011779	0.16134	0.30847	0.068573	0.087819	0.21666	0.19682	0.13221	-2.2542	-2.0104	-2.1875	-2.7792	-1.9646	-2.6813	-2.4396	-2.1354	-2.575	-2.0833	-2.2208	-2.7458	-2.2375	-2.5229	-2.2958	-2.1667	-109.749	27.399	-153.705	-114.113	34.034	63.972	-104.649	87.517	7.491	94.341	103.169	144.136	-26.892	-136.826	155.678	9.589	0.0011183	0.00043592	0.00010585	1005.4	6.8472e-06	7.914e-06	788.5	344.29	3.6261e-06	7.5542e-06	309.64	109.8	123.14	53.745	4.9822e-06	48.133	0.0013592	0.0013927	0.00039632	994.89	1.5405e-05	1.5817e-05	786.18	341.04	1.6378e-05	1.6719e-05	313.77	111.55	126.04	53.8	1.8851e-05	49.308	67.659	-63.695	-21.546	-144.807	144.502	29.963	-146.869	-139.434	166.131	188.677	-142.040	-137.949	-134.818	-129.609	-43.100	-133.883	-8191	255	
7174.895	1	1	0	0	0.1575	0.035211	0.12937	0.18069	0.12103	0.23845	0.22342	0.076957	0.14128	0.33241	0.1318	0.26694	0.16101	0.29491	0.22626	0.094784	-2.2583	-1.9771	-2.1667	-2.4562	-2.0646	-2.3063	-2.4625	-2	-2.7479	-1.9708	-1.9729	-2.7083	-2.0083	-2.5896	-2.5708	-2.0271	-136.443	-117.411	31.242	163.919	141.274	-8.583	187.417	154.257	108.158	-45.344	-131.885	-41.358	184.658	-145.838	-10.198	12.975	0.0011503	0.00048681	0.00031776	996.88	6.4421e-06	7.4503e-06	769.08	338.79	1.1419e-05	9.4458e-06	301.29	108.1	121.96	52.756	4.2732e-06	47.498	0.0017181	0.0018233	0.00050916	995.49	1.9866e-05	2.0287e-05	777.45	339.79	2.0017e-05	2.0641e-05	311.76	110.74	126.06	53.372	2.0045e-05	48.802	79.721	-30.832	11.682	-144.659	-40.377	-60.711	-146.327	-139.208	-27.073	-39.052	-142.725	-138.231	-135.365	-129.664	-83.551	-133.911	-8191	255	
7175.014	1	1	0	0	0.15598	0.044437	0.015495	0.3171	0.17465	0.13373	0.080875	0.32536	0.22393	0.13401	0.26307	0.39572	0.31089	0.086348	0.1583	0.30751	-2.2417	-2.1833	-1.8937	-2.8875	-2.1479	-2.4021	-2.5958	-2.1146	-2.6521	-2.2646	-2.225	-2.6542	-2.0208	-2.3708	-2.6833	-1.9708	-152.490	27.979	80.388	174.460	-115.083	-42.012	188.874	180.304	-128.286	6.791	99.572	-151.212	-101.487	8.882	109.613	151.786	0.0013186	0.00051808	0.00014648	988.16	5.5984e-06	7.8956e-06	764.25	338.45	2.9726e-06	1.2444e-05	303.58	108.66	124.3	53.697	3.8536e-06	48.168	0.0017401	0.0017582	0.00047499	981.74	1.7761e-05	1.7569e-05	768.35	337.11	1.6352e-05	1.614e-05	306.81	109.65	124.89	53.499	1.4613e-05	48.68	63.247	34.028	-32.791	-144.758	-77.208	14.984	-146.508	-139.227	-135.803	30.348	-142.267	-137.757	-134.895	-129.829	-36.581	-133.464	-8191	255	
7175.110	1	1	0	0	0.067857	0.15029	0.011837	0.24872	0.2	0.16234	0.082793	0.34422	0.18034	0.055267	0.083837	0.24771	0.36845	0.14366	0.24385	0.29523	-2.1917	-2.2521	-1.9729	-2.7167	-1.8687	-2.2646	-2.6333	-2.0375	-2.4458	-2.3688	-1.9458	-2.6875	-2.0979	-2.3542	-2.5438	-1.9271	-100.241	-51.904	176.144	-110.366	-36.767	-126.252	-140.289	118.932	-122.583	-127.642	3.621	175.484	185.287	-129.317	-127.995	170.045	0.0012676	0.0007355	8.7704e-05	1000.3	5.7944e-06	1.0193e-05	783.34	344.06	1.0676e-05	9.1454e-06	306.88	110.75	125.11	53.999	8.7452e-06	48.495	0.0013077	0.0013078	0.00035842	984.34	1.393e-05	1.4042e-05	774.21	338.95	1.3942e-05	1.4085e-05	309.52	110.75	125.69	53.712	1.451e-05	49.026	73.220	-54.456	-42.169	-144.632	42.975	-23.522	-147.348	-139.786	-59.347	65.747	-142.973	-138.343	-135.010	-129.909	-58.574	-133.916	-8191	255	
7175.208	1	1	0	0	0.06504	0.2795	0.09976	0.29964	0.23448	0.13523	0.13091	0.30598	0.26745	0.3484	0.09457	0.20795	0.20384	0.10966	0.025442	0.22821	-1.9646	-2.2687	-1.9729	-2.6292	-2.1292	-2.1917	-2.6729	-2.2792	-2.2625	-2.3438	-2.0021	-2.4688	-2.3167	-2.1292	-2.6646	-2.2833	115.805	158.461	-73.866	177.415	-122.393	199.435	119.367	125.228	21.042	18.209	65.141	-140.817	-104.392	181.812	40.154	117.318	0.0016604	0.0012897	0.00016501	995.99	4.8723e-06	9.0833e-06	781.11	342.98	8.5255e-06	4.6275e-06	306.91	109.64	123.95	53.457	4.925e-06	47.968	0.0013192	0.0013523	0.00037486	983.86	1.4571e-05	1.4816e-05	776.14	338.93	1.4739e-05	1.4896e-05	310.01	110.46	125.47	53.448	1.5745e-05	48.804	60.388	-65.009	-86.612	-145.367	-44.675	-22.470	-146.616	-139.130	-27.365	-7.017	-142.031	-137.961	-134.749	-129.645	7.012	-134.077	-8191	255	
7175.327	1	1	0	0	0.11651	0.034564	0.074782	0.29869	0.14177	0.19731	0.17091	0.28482	0.16237	0.42244	0.11812	0.11287	0.28922	0.13679	0.097816	0.066099	-2.0417	-2.6708	-1.8833	-2.5917	-2.3187	-1.9813	-2.6562	-2.025	-2.3688	-2.5417	-1.9021	-2.5417	-2.35	-2.1604	-2.7021	-2.0542	-16.789	40.597	-0.819	147.488	22.718	-71.787	112.347	126.930	-11.665	192.031	-100.396	20.096	201.696	73.597	-74.813	139.480	0.0013718	0.00033972	0.00026512	993.34	7.5698e-06	6.0091e-06	769.18	340.92	1.6503e-05	7.8931e-06	303.8	108.82	123.4	52.992	5.9014e-06	47.431	0.0014534	0.0014916	0.00041688	983.9	1.6367e-05	1.67e-05	772.74	338.91	1.7047e-05	1.7348e-05	309.66	110.47	125.69	53.23	1.8274e-05	48.758	65.919	97.193	-153.176	-144.747	-77.048	-132.919	-146.292	-139.001	-22.774	10.266	-141.889	-137.648	-134.981	-130.055	19.651	-133.722	-8191	255	
7175.423	1	1	0	0	0.083284	0.17899	0.13346	0.22528	0.2049	0.061776	0.16635	0.24483	0.16978	0.051846	0.069212	0.03281	0.22571	0.16802	0.1346	0.12655	-1.7396	-2.4646	-1.9146	-2.5667	-2.4437	-2.2812	-2.5187	-2.1813	-2.1688	-2.7354	-2.2	-2.4729	-2.4813	-2.1333	-2.8417	-2.5021	44.703	186.571	-20.079	174.847	-96.351	41.862	100.108	148.845	50.950	163.398	125.098	-70.269	180.138	132.470	-49.408	50.361	0.0012933	0.001176	5.411e-05	981.37	1.1654e-05	7.2133e-06	761.07	338.22	8.1038e-06	5.6651e-06	299.4	106.61	121.61	52.223	9.9044e-06	46.297	0.0017039	0.001797	0.00050347	982.69	2.0487e-05	2.0965e-05	769.47	339.98	2.1949e-05	2.2571e-05	311.9	110.2	127.37	53.065	2.3596e-05	48.707	78.613	-83.757	120.082	-144.706	-74.566	-62.203	-146.398	-139.162	91.071	155.616	-142.361	-137.936	-134.531	-129.248	-127.243	-133.531	-8191	255	
7175.519	1	1	0	0	0.21976	0.12419	0.18162	0.19857	0.26366	0.17876	0.20211	0.13168	0.028555	0.13316	0.38526	0.13762	0.11431	0.10727	0.067025	0.11531	-1.8917	-2.7042	-2.0333	-2.4396	-2.5458	-2.1063	-2.8	-2.3333	-2.0812	-2.55	-2.1604	-2.2812	-2.5396	-2.0021	-2.6229	-2.2979	-134.155	22.879	17.066	70.737	-41.202	118.645	111.468	108.004	156.162	-58.161	75.687	87.469	136.520	-115.729	-49.294	105.499	0.0010408	0.00037833	9.6468e-05	979.26	1.6874e-05	9.2783e-06	751.27	334.88	2.1619e-05	1.6234e-05	299.1	106.8	121.65	52.429	4.3903e-06	47.181	0.002149	0.0022283	0.00063536	990.33	2.4758e-05	2.4836e-05	767.42	339.27	2.3015e-05	2.2439e-05	308.81	109.4	125.38	52.595	1.7969e-05	48.116	45.627	13.036	72.166	-144.752	60.282	113.289	-146.959	-139.158	-102.846	21.478	-141.809	-137.909	-135.043	-129.910	-131.084	-134.108	-8191	255	
7175.615	1	1	0	0	0.21321	0.083563	0.17735	0.23394	0.35956	0.1387	0.15273	0.31876	0.18995	0.16238	0.3441	0.066544	0.17734	0.081492	0.10593	0.22323	-1.7188	-2.6562	-2.0104	-2.4646	-2.6458	-1.9188	-2.6104	-2.6604	-1.9833	-2.5312	-2.0458	-2.2271	-2.45	-2.1646	-2.5625	-2.4813	18.821	141.743	75.845	-54.948	117.581	-5.761	120.754	158.509	-147.225	58.719	122.642	23.623	-142.093	-35.842	67.030	197.837	0.0014746	0.00028924	0.00011704	986.03	5.6391e-06	5.514e-06	772.95	344.27	4.8957e-06	3.0312e-06	307.93	110.68	125.59	53.969	1.3901e-05	48.905	0.00146	0.0014526	0.00038554	969.71	1.4177e-05	1.3785e-05	761.47	338.05	1.3191e-05	1.3013e-05	307.89	110.26	124.79	53.366	1.3116e-05	48.924	69.207	-11.761	-86.186	-145.265	37.775	-91.144	-147.181	-139.483	-16.566	-1.783	-142.139	-138.093	-135.043	-129.991	-31.311	-133.737	-8191	255	
7175.711	1	1	0	0	0.13069	0.16222	0.12167	0.24268	0.115	0.1373	0.28822	0.17586	0.12335	0.22169	0.050199	0.16068	0.012603	0.18855	0.22926	0.03798	-1.6146	-2.4875	-2.0083	-2.2687	-2.5792	-2.0979	-2.4854	-2.5104	-1.9625	-2.5667	-2.2667	-2.0354	-2.6	-1.9833	-2.3187	-2.6646	-129.051	166.761	-19.126	-72.698	18.024	-114.108	130.368	202.427	-139.537	1.118	129.054	152.549	-12.928	-119.536	104.422	-119.337	0.0013403	0.00036413	3.3699e-05	995.28	8.0872e-06	5.3064e-06	783.7	344.67	1.9866e-05	7.4826e-06	308.29	110.36	124.76	53.675	8.472e-06	48.395	0.0011892	0.0012228	0.0003444	980.26	1.3682e-05	1.3701e-05	773.19	339.84	1.4282e-05	1.4719e-05	310.4	110.5	125.5	53.325	1.572e-05	48.902	82.911	54.109	34.199	-144.686	0.465	-43.504	-146.453	-138.992	-28.432	2.257	-141.846	-137.689	-134.504	-129.528	73.911	-133.394	-8191	255	
7175.807	1	1	0	0	0.20204	0.1848	0.12274	0.13409	0.052046	0.21229	0.17654	0.12377	0.11932	0.14076	0.074971	0.16988	0.1239	0.24336	0.14602	0.20634	-1.4771	-2.6437	-2.4188	-2.3375	-2.7687	-2.1125	-2.5146	-2.6229	-2.1667	-2.6604	-2.2542	-2.1354	-2.7479	-2.1292	-2.0729	-2.6875	8.466	-152.189	-98.987	-13.779	-114.574	160.997	178.957	158.035	-68.635	-120.423	158.948	82.392	-68.238	-131.778	38.735	76.580	0.0010723	0.00058278	0.00010994	992.16	3.6354e-06	3.3078e-06	770.86	342.43	1e-05	6.0446e-06	305.24	109.05	124.64	53.297	4.2623e-06	47.755	0.0014169	0.0014653	0.00041573	979.76	1.5984e-05	1.6342e-05	768.16	339.13	1.5811e-05	1.6047e-05	309.02	109.98	125.68	53.149	1.6299e-05	48.524	65.001	-63.927	-111.662	-144.566	-115.178	-40.026	-146.613	-138.971	88.676	-67.110	-142.148	-137.686	-134.706	-129.584	107.864	-133.726	-8191	255	
7175.928	1	1	0	0	0.1058	0.075779	0.33875	0.17564	0.2529	0.092322	0.16742	0.2289	0.21015	0.25067	0.15614	0.19534	0.096207	0.17014	0.16826	0.095553	-1.5688	-2.3438	-2.2979	-2.0625	-2.6813	-2.1354	-2.3333	-2.6896	-1.9125	-2.5	-2.4333	-2.1813	-2.6271	-2.3292	-2.1688	-2.8417	155.329	97.361	67.178	147.190	202.740	180.430	87.678	81.288	-131.810	-17.990	12.927	134.335	175.331	166.845	-59.931	112.834	0.0012133	0.00027426	0.00015982	985.24	2.5369e-06	2.7316e-06	766.34	342.91	1.0644e-05	1.6701e-06	300.01	108.67	122.24	52.823	3.8717e-06	47.211	0.0014743	0.0015283	0.0004273	977.09	1.7045e-05	1.7426e-05	764.22	339.46	1.7606e-05	1.7849e-05	308.14	110.08	125.95	53.113	1.8544e-05	48.557	61.399	76.214	198.012	-144.595	-31.293	-41.565	-146.385	-138.741	-81.509	116.807	-142.094	-137.555	-134.714	-129.374	24.287	-133.127	-8191	255	
7176.022	1	1	0	0	0.17786	0.15492	0.14389	0.051729	0.24548	0.31143	0.29346	0.27425	0.057787	0.077602	0.056583	0.15835	0.094288	0.34157	0.07811	0.25549	-1.5812	-2.1604	-2.425	-2.0438	-2.7021	-2.3125	-2.0708	-2.7458	-2.0896	-2.4062	-2.6333	-1.9708	-2.4646	-2.2979	-2	-2.6312	-80.420	79.399	40.419	-102.026	109.081	35.199	74.703	110.149	-45.889	66.111	-17.528	163.332	143.784	145.656	14.530	-125.415	0.0013974	0.00018301	0.00021648	976.56	1.8882e-05	1.2122e-05	757.68	339.01	1.5471e-05	1.2551e-05	301.19	107.69	123.51	52.939	1.6765e-05	47.578	0.0016637	0.0017271	0.00048287	974.89	1.8804e-05	1.8873e-05	760.47	338.51	1.8417e-05	1.8462e-05	307.91	109.64	125.43	53.18	1.6576e-05	48.526	72.773	-69.580	17.417	-145.182	-74.239	23.652	-146.646	-139.097	-29.314	-23.573	-142.333	-137.978	-135.340	-129.859	-17.824	-133.729	-8191	255	
7176.119	1	1	0	0	0.24012	0.22743	0.12013	0.076364	0.25729	0.18905	0.11204	0.37976	0.11604	0.060826	0.12646	0.20181	0.35001	0.22363	0.04718	0.023052	-1.5042	-2.2208	-2.4521	-1.8563	-2.4562	-2.2667	-1.9875	-2.8708	-2.1104	-2.2604	-2.5792	-1.9688	-2.55	-2.5167	-2.0229	-2.6854	136.921	108.321	33.650	13.102	156.749	-89.086	128.888	102.650	81.628	-68.198	29.429	182.557	-99.819	-122.338	133.341	-8.094	0.0012473	0.00095064	2.755e-05	985.27	1.0409e-05	4.3925e-06	765.07	343.05	8.7676e-06	4.1439e-06	303.79	109.56	124.18	54.021	1.0229e-05	48.697	0.0014293	0.0014414	0.00039431	971.13	1.4861e-05	1.4728e-05	759.22	338.85	1.4213e-05	1.4074e-05	306.67	109.99	125.14	53.633	1.3672e-05	49.079	74.268	-67.334	-143.832	-144.795	-106.496	78.446	-147.077	-139.538	-72.935	-93.317	-142.040	-137.864	-134.651	-129.498	-49.941	-133.619	-8191	255	
7176.190	1	1	0	0	0.36103	0.10265	0.10687	0.048523	0.10323	0.21044	0.25814	0.29311	0.14105	0.22073	0.013254	0.13511	0.20515	0.22985	0.10807	0.23274	-1.6208	-2.3667	-2.5396	-2.0167	-2.3854	-2.2854	-1.8292	-2.85	-2.0187	-2.0604	-2.8333	-1.8104	-2.3125	-2.4708	-1.8521	-2.7854	18.684	-10.553	-53.861	-141.218	-2.856	82.954	113.940	171.853	189.715	-16.207	-132.749	-153.868	195.518	-145.660	-72.877	169.418	0.0012796	0.0013715	3.9924e-05	988.36	5.1141e-06	3.5749e-06	767.8	343.67	1.3132e-05	5.6456e-06	305.74	110.19	124.73	53.972	9.9292e-06	48.618	0.0012021	0.0012339	0.00033811	974.08	1.3315e-05	1.3263e-05	764.2	339.01	1.31e-05	1.3347e-05	307.04	110.7	125.59	53.79	1.3594e-05	48.99	78.253	-38.742	-9.175	-144.430	-112.162	56.540	-146.916	-138.992	-75.688	38.298	-142.292	-138.231	-135.105	-129.885	5.841	-133.576	-8191	255	
7176.311	1	1	0	0	0.1038	0.411	0.17778	0.093044	0.30136	0.14278	0.20494	0.10362	0.31277	0.072186	0.058165	0.074701	0.10104	0.17677	0.12273	0.078786	-1.8958	-1.9708	-2.5292	-2.05	-1.9771	-2.6271	-2.025	-2.6312	-2.2417	-2.0583	-2.5896	-1.9917	-2.3375	-2.675	-1.8667	-2.5	-14.024	57.143	-26.463	-149.708	6.956	-40.086	64.485	183.361	170.951	166.971	97.060	192.608	144.430	116.307	154.235	77.953	0.00080576	0.00032125	0.00010602	979.22	9.2662e-06	5.2443e-06	760.89	340.92	9.9653e-06	1.1237e-05	303.06	109.93	125.18	54.051	1.8168e-06	48.236	0.0012493	0.0013082	0.00036336	969.88	1.4771e-05	1.5082e-05	757.64	338.51	1.5583e-05	1.5614e-05	306.35	110.21	126.19	53.833	1.5103e-05	48.941	82.424	202.434	-96.975	-144.840	-16.805	47.893	-146.314	-138.823	-6.497	5.786	-141.777	-137.634	-134.629	-129.221	-15.220	-133.808	-8191	255	
7176.407	1	1	0	0	0.14846	0.13472	0.12733	0.22119	0.072344	0.24829	0.51929	0.37431	0.21033	0.29947	0.16868	0.32054	0.2494	0.17638	0.077927	0.26401	-1.7667	-1.8813	-2.4938	-2.1104	-2.0479	-2.5375	-2.2125	-2.5583	-2.4583	-2.125	-2.6604	-2.1312	-2.1542	-2.7583	-1.9688	-2.3396	-72.221	-19.490	9.158	-156.512	-35.119	-8.553	190.468	144.542	12.868	138.439	120.924	99.868	-80.439	181.481	189.943	104.428	0.001483	8.5825e-05	7.8935e-05	976.05	7.1932e-06	4.3016e-06	752.93	339.78	3.7076e-06	1.0915e-05	299.71	108.21	122.92	53.304	6.1913e-06	47.836	0.0013643	0.0013839	0.00038468	968.5	1.5249e-05	1.5362e-05	752.92	337.49	1.5896e-05	1.6026e-05	305.73	110.22	126.17	53.793	1.7456e-05	49.074	70.667	70.587	1.959	-144.645	-77.823	68.811	-146.837	-139.454	-128.275	-3.383	-141.999	-138.013	-135.128	-129.518	79.536	-133.181	-8191	255	
7176.503	1	1	0	0	0.18045	0.088452	0.079638	0.069897	0.091666	0.0606	0.3034	0.059362	0.088432	0.16381	0.2214	0.21375	0.19154	0.088117	0.086149	0.20005	-1.7854	-1.9833	-2.55	-2.3875	-2.125	-2.6833	-1.975	-2.4583	-2.4229	-1.9542	-2.7292	-2.3187	-2.1104	-2.7792	-2.0396	-2.4188	110.531	20.186	-103.841	177.052	91.392	108.241	-143.428	120.822	-153.305	166.509	-112.013	-115.139	194.773	173.423	-145.828	151.973	0.00086391	0.00081634	0.00024997	968.68	1.8272e-05	1.032e-05	746.73	340.36	1.0359e-05	2.5689e-06	299.48	108.82	123.8	53.959	3.1942e-06	48.85	0.0015657	0.0015964	0.00044288	968.77	1.6654e-05	1.6552e-05	751.82	338.06	1.5751e-05	1.5676e-05	305.3	110	125.51	53.881	1.4496e-05	49.217	74.887	-103.590	28.256	-144.684	-30.526	61.425	-146.454	-139.220	91.108	-37.486	-142.504	-138.278	-135.203	-129.597	101.276	-134.120	-8191	255	
7176.599	1	1	0	0	0.2637	0.18339	0.11969	0.098791	0.19735	0.18678	0.18843	0.30185	0.20027	0.074758	0.42419	0.15217	0.2575	0.095795	0.23837	0.050688	-2.05	-1.9125	-2.3729	-2.4167	-2.1021	-2.8187	-2.2458	-2.2708	-2.3812	-1.9604	-2.5104	-2.2979	-1.9271	-2.475	-1.9438	-2.1396	-25.735	115.542	177.518	-14.393	189.299	139.201	149.527	138.934	-50.039	-40.032	-110.278	92.285	-134.961	-113.350	-10.693	157.545	0.001577	0.00087715	7.8229e-06	980.75	1.1406e-05	5.3779e-06	770.53	342.8	4.4484e-06	2.7578e-06	308.12	111.9	125.73	54.664	5.1828e-06	49.356	0.0012503	0.0012604	0.00034923	969.36	1.3336e-05	1.3126e-05	762.93	339.01	1.2627e-05	1.2546e-05	308.65	111.4	125.97	54.162	1.2592e-05	49.517	70.916	-75.902	7.299	-144.528	-44.029	-24.308	-146.957	-138.819	-79.682	41.629	-142.379	-137.957	-135.352	-129.525	-66.578	-134.725	-8191	255	
7176.695	1	1	0	0	0.16136	0.26009	0.15432	0.15857	0.073528	0.025686	0.10275	0.29259	0.2197	0.11292	0.1321	0.098607	0.22632	0.039327	0.11742	0.25714	-1.9646	-1.7792	-2.3771	-2.3042	-1.9333	-2.4938	-2.3271	-2.1688	-2.675	-1.8958	-2.4083	-2.5438	-2.0021	-2.7917	-2.0521	-2.1333	140.385	-119.313	72.812	103.459	-143.639	85.437	176.473	155.155	11.734	12.259	155.334	78.422	-85.971	-127.840	-17.687	127.566	0.0012907	0.00041632	0.00019796	984.39	1.8701e-05	7.8008e-06	764.62	342.31	5.6889e-06	6.6609e-06	304.51	109.95	126.13	54.371	1.059e-05	48.569	0.001151	0.0011772	0.00033107	972.04	1.3306e-05	1.3849e-05	759.37	338.39	1.4164e-05	1.4378e-05	307.82	110.21	126.34	54.011	1.482e-05	49.202	64.411	-44.886	-70.709	-145.440	-101.734	-13.106	-147.356	-139.630	-30.250	-92.207	-142.741	-137.954	-135.444	-129.719	6.366	-133.655	-8191	255	
7176.792	1	1	0	0	0.3312	0.18141	0.097458	0.47565	0.22874	0.12015	0.32073	0.24736	0.30074	0.32945	0.41068	0.13311	0.15083	0.35753	0.16849	0.1229	-2.1792	-1.9146	-2.1833	-2.4604	-1.75	-2.5604	-2.2021	-2.1875	-2.5854	-1.8188	-2.2958	-2.4729	-1.8958	-2.6875	-2.375	-2.0042	190.927	147.009	-69.935	182.291	184.661	125.538	155.681	163.414	182.924	-134.603	134.761	201.653	131.407	188.696	21.554	44.043	0.0016262	0.00011209	0.00030747	985.54	9.2095e-06	8.4056e-06	764.65	341.67	1.6791e-05	4.5314e-06	301.97	108.9	124.04	53.544	3.697e-06	48.564	0.0013195	0.00135	0.00037724	973.76	1.4538e-05	1.4932e-05	759.48	338.67	1.4797e-05	1.5362e-05	307.55	110.47	126.01	53.885	1.5792e-05	49.332	84.633	-62.641	-39.253	-144.877	-60.905	-54.322	-146.530	-139.179	-34.001	56.135	-142.683	-138.031	-135.608	-129.950	-69.174	-133.931	-8191	255	
7176.888	1	1	0	0	0.1796	0.066656	0.16673	0.22137	0.054943	0.20405	0.058643	0.31012	0.21036	0.19434	0.028491	0.27945	0.20885	0.38287	0.27887	0.3264	-2.0979	-1.8813	-2.0854	-2.4833	-1.8896	-2.5354	-2.4583	-1.9521	-2.525	-2.0125	-2.2667	-2.4771	-2.0292	-2.4604	-2.3063	-1.8375	183.630	-55.190	-56.395	141.259	149.013	-82.232	100.760	202.003	-106.516	-143.094	78.341	97.989	90.000	158.432	-66.129	-135.474	0.0013814	0.00062032	0.00016897	984.12	5.3084e-06	4.9449e-06	760.6	341.22	1.3551e-05	1.1544e-05	304.69	110.39	125.54	54.339	4.5796e-06	48.905	0.0014211	0.0014722	0.00040712	976	1.5641e-05	1.5842e-05	760.65	338.56	1.5663e-05	1.5581e-05	308.19	110.71	126.23	54.146	1.511e-05	49.352	68.902	125.112	-7.599	-144.852	-77.902	29.518	-146.435	-138.890	-89.429	19.468	-141.870	-137.615	-134.972	-129.504	-147.196	-133.467	-8191	255	
7177.008	1	1	0	0	0.27633	0.2744	0.11064	0.32013	0.13515	0.27078	0.15774	0.17249	0.31801	0.061501	0.16472	0.4208	0.27497	0.14896	0.10051	0.072615	-2.2583	-2.2396	-2.0396	-2.4646	-1.8292	-2.475	-2.3875	-1.85	-2.5792	-2.1083	-2.0521	-2.6312	-2.0521	-2.3229	-2.3583	-1.9458	144.051	22.139	189.463	168.490	-7.875	82.677	107.430	-4.793	-42.783	-146.456	86.583	122.972	172.375	-132.251	-79.456	180.848	0.0014171	0.00050572	0.00017575	991.5	8.6905e-06	7.4028e-06	776.25	342.05	1.9286e-05	7.8856e-06	308.5	111.72	126.75	54.619	1.6758e-06	48.802	0.0013	0.0013529	0.00037219	976.79	1.4358e-05	1.4493e-05	766.73	339.35	1.456e-05	1.469e-05	309.22	111.4	126.79	54.246	1.4543e-05	49.526	72.571	-132.410	73.088	-144.918	-60.045	-95.235	-146.469	-140.384	-43.389	-114.213	-143.159	-138.608	-135.477	-130.528	42.793	-134.541	-8191	255	
7177.103	1	1	0	0	0.069075	0.098709	0.23172	0.49492	0.20961	0.36903	0.15755	0.18595	0.060394	0.11457	0.44709	0.18758	0.1576	0.25136	0.08672	0.19339	-2.0875	-2.2125	-1.9854	-2.5583	-1.8979	-2.2271	-2.4042	-1.9042	-2.4688	-2.0854	-1.8813	-2.4813	-1.9917	-2.3792	-2.4688	-2.0125	145.785	-136.534	-142.700	136.352	-96.980	154.250	161.001	-150.276	-155.901	174.920	-151.542	112.561	-145.073	159.798	-119.772	-91.038	0.0014804	0.00063696	9.7508e-05	991.67	7.6257e-06	9.2675e-06	765.06	340.83	7.0036e-06	6.712e-06	303.28	109.63	124.08	53.473	5.0145e-06	48.096	0.0013326	0.0013729	0.0003873	978.54	1.5683e-05	1.6362e-05	765.5	339.7	1.7171e-05	1.7769e-05	309.94	111.29	127.53	54.003	2.0124e-05	49.605	63.309	-117.964	-122.522	-145.437	-78.480	-88.544	-147.165	-139.879	-66.855	-66.150	-142.972	-138.178	-135.616	-130.305	-48.684	-134.654	-8191	255	
7177.199	1	1	0	0	0.035993	0.10597	0.15227	0.25814	0.094109	0.069012	0.11866	0.21957	0.0069378	0.22001	0.43527	0.091218	0.049026	0.11579	0.17734	0.069438	-2.0312	-2.1771	-1.9583	-2.6937	-1.9771	-2.2125	-2.7167	-1.9188	-2.4771	-2.3833	-2.1125	-2.6875	-2.1583	-2.2708	-2.4708	-2.1479	-79.984	-106.993	-126.587	130.515	-156.468	86.115	-133.340	106.211	-78.602	83.497	195.278	-103.740	94.188	-128.097	147.326	159.420	0.0018357	0.00040316	0.00039187	979.72	6.2279e-06	4.1728e-06	751.41	336.8	2.4208e-05	4.3255e-06	292.98	107.24	122.94	52.943	1.7626e-05	46.963	0.0018623	0.0019586	0.0005492	984.8	2.1675e-05	2.2145e-05	764.54	340.72	2.1834e-05	2.2021e-05	310.4	111.18	128.17	53.825	2.1735e-05	49.303	63.206	130.190	2.082	-145.012	180.487	-63.402	-146.664	-139.735	-46.164	95.177	-142.467	-137.812	-134.699	-129.437	48.509	-134.049	-8191	255	
7177.295	1	1	0	0	0.38911	0.155	0.14525	0.26327	0.22919	0.22452	0.16024	0.13289	0.24866	0.041403	0.2764	0.41854	0.26021	0.34425	0.16375	0.17427	-2.0021	-2.5021	-1.8146	-2.6813	-2.1521	-2.1208	-2.5896	-2.1167	-2.3187	-2.2438	-2.0563	-2.6792	-2.0833	-2.1562	-2.6375	-2.0792	180.516	-130.045	136.098	191.425	104.267	47.428	-114.356	189.734	106.698	145.277	176.558	166.691	167.206	-152.915	0.477	74.348	0.0014488	0.0002017	0.00032601	972.87	9.3405e-06	7.9503e-06	736.03	336.01	9.4314e-06	9.0911e-06	298.37	107.3	123.16	52.871	1.1554e-05	47.417	0.0019528	0.002	0.000555	980.1	2.1437e-05	2.1172e-05	756.26	339.32	2.0302e-05	2.0362e-05	309.16	110.44	127.14	53.657	1.9592e-05	49.146	72.727	39.068	-76.019	-145.048	85.419	-12.962	-146.520	-139.318	-60.864	-4.725	-142.503	-137.682	-135.026	-129.672	-70.586	-133.380	-8191	255	
7177.416	1	1	0	0	0.26373	0.17793	0.22993	0.37909	0.22313	0.060834	0.23166	0.29865	0.15856	0.11254	0.15156	0.15915	0.046979	0.28922	0.19604	0.24024	-1.675	-2.1896	-1.8083	-2.775	-2.2271	-2.0083	-2.6354	-2.0125	-2.2583	-2.5938	-1.9021	-2.4458	-2.325	-1.9417	-2.4542	-2.225	-42.201	115.221	-152.346	165.489	93.208	187.266	188.945	178.354	-14.673	-93.846	168.970	75.647	-128.958	173.128	-153.321	175.594	0.00138	0.0002026	0.00031368	970.39	4.7722e-06	8.3237e-06	748.38	337.36	9.1438e-07	1.2669e-05	297.18	107.75	122.5	52.881	1.2571e-05	47.423	0.0017328	0.0017612	0.00049097	973.5	1.9546e-05	1.9807e-05	760.16	340.05	2.0345e-05	2.0584e-05	309.54	110.96	127.41	53.662	2.1002e-05	49.397	78.490	152.282	-31.474	-144.736	180.060	-12.906	-146.568	-139.009	147.336	-63.265	-142.409	-138.443	-135.562	-129.917	-32.689	-133.985	-8191	255	
7177.487	1	1	0	0	0.14895	0.21722	0.14293	0.2064	0.2028	0.12906	0.13928	0.17346	0.27799	0.19866	0.11851	0.015862	0.2665	0.32625	0.033901	0.31038	-1.6375	-2.7375	-1.7854	-2.5979	-2.5271	-1.8687	-2.7083	-2.2604	-2.0479	-2.6208	-2.0167	-2.4292	-2.4896	-2.1354	-2.5042	-2.2479	-105.757	-19.621	-108.269	-13.170	-119.987	8.354	27.087	-155.402	1.837	-132.371	-93.860	-70.894	-121.067	-137.086	-100.157	112.399	0.00095921	0.00052407	6.9313e-05	969.17	4.2137e-06	1.2721e-05	749.35	339.93	1.1169e-05	2.6476e-06	297.38	107.75	121.64	52.971	1.0828e-05	47.203	0.0018532	0.0018942	0.00052969	977.56	2.0679e-05	2.0944e-05	761.48	341.03	2.1257e-05	2.1226e-05	310.41	111.1	127.44	53.757	2.1376e-05	49.297	50.433	197.249	15.560	-145.018	10.465	-5.025	-146.428	-139.023	-40.769	49.506	-141.936	-137.875	-134.757	-129.551	6.057	-133.559	-8191	255	
7177.608	1	1	0	0	0.099175	0.17678	0.28303	0.066014	0.2625	0.13584	0.055458	0.23965	0.07225	0.063478	0.17615	0.0659	0.41695	0.33139	0.15456	0.17515	-1.6313	-2.4313	-1.8729	-2.3583	-2.4167	-1.9292	-2.7125	-2.3396	-2.0312	-2.5833	-1.9188	-2.4188	-2.5583	-2.0292	-2.5062	-2.4667	66.937	-21.030	-107.280	170.304	71.155	71.915	160.398	172.642	-21.272	-62.322	-91.482	-123.839	172.211	148.993	-8.680	27.916	0.0010627	0.00068139	0.00010013	965.47	4.2723e-06	4.7958e-06	742.93	335.01	1.959e-05	5.4533e-06	295.91	107.74	121.52	52.746	1.2589e-05	46.649	0.0019267	0.0019969	0.00055791	976.99	2.1578e-05	2.1928e-05	758.4	339.72	2.1938e-05	2.2206e-05	308.8	111.02	127.76	53.815	2.3323e-05	49.387	69.038	-50.935	-105.241	-144.851	79.550	147.467	-146.489	-139.028	-8.346	48.141	-141.775	-137.877	-134.532	-129.737	-61.320	-133.986	-8191	255	
7177.704	1	1	0	0	0.048385	0.23006	0.23397	0.17398	0.29416	0.1087	0.21212	0.16824	0.044054	0.060536	0.049586	0.1034	0.27567	0.39702	0.18228	0.082517	-1.7729	-2.4958	-1.9688	-2.3688	-2.5896	-1.7625	-2.4875	-2.4938	-1.9333	-2.5771	-2.1375	-2.1083	-2.4625	-2.0187	-2.3187	-2.5521	-64.345	32.862	-47.345	142.874	5.581	-2.406	148.892	31.443	158.075	-113.215	190.248	55.364	-148.518	127.258	-150.540	-41.654	0.0014259	0.0013633	0.00034024	962.94	7.049e-06	1.3764e-05	735.12	332.51	1.2371e-05	9.4359e-06	290.55	104.36	121.04	51.752	1.0777e-05	45.74	0.0021595	0.0022788	0.00066973	987.45	2.7828e-05	2.9134e-05	770.58	345.45	3.2002e-05	3.345e-05	322	114.07	134.01	54.813	3.7657e-05	51.242	91.250	-78.634	-74.272	-145.055	-48.673	90.199	-146.416	-138.741	-82.824	179.040	-142.165	-137.892	-134.480	-129.268	7.008	-133.342	-8191	255	
7177.800	1	1	0	0	0.19851	0.22591	0.085018	0.32887	0.22151	0.26806	0.067773	0.086107	0.1391	0.21831	0.12784	0.34865	0.19357	0.27093	0.21121	0.18962	-1.5792	-2.6437	-2.0792	-2.2062	-2.5646	-2.0167	-2.4146	-2.7208	-1.9	-2.6625	-2.3063	-2.1562	-2.65	-2.0687	-2.2125	-2.6167	166.709	-130.678	4.378	100.150	168.460	66.361	-143.486	-148.130	-68.907	15.301	200.137	99.629	136.286	117.973	4.024	142.957	0.00093434	0.00027458	0.0002041	956.27	1.6758e-05	5.4662e-06	720.88	329.97	1.2293e-05	6.2172e-06	289.45	104.08	119.39	51.203	3.7659e-06	45.75	0.0034732	0.0036331	0.0010366	1013.3	3.9891e-05	3.9647e-05	782.64	348.47	3.8521e-05	3.8859e-05	325.28	114.95	134.57	54.71	3.8258e-05	51.101	87.619	-147.492	-88.275	-144.994	-112.719	-64.853	-146.330	-138.761	67.723	157.826	-142.098	-137.584	-134.775	-129.508	76.242	-133.422	-8191	255	
7177.896	1	1	0	0	0.25523	0.28956	0.14456	0.16704	0.13662	0.1426	0.0091134	0.19451	0.080361	0.27554	0.27166	0.32075	0.19963	0.092083	0.25002	0.16046	-1.5146	-2.5917	-2.2562	-1.9292	-2.3979	-2.1792	-2.4208	-2.575	-1.7208	-2.475	-2.4188	-2.0604	-2.7083	-2.1854	-2.0563	-2.5896	-74.390	4.536	-94.474	10.545	77.730	59.290	3.329	133.412	55.067	-40.894	125.436	160.658	-134.006	152.822	185.088	-121.613	0.0011982	0.00098801	0.00026492	945.62	1.4341e-05	1.3797e-05	725.91	329.45	1.792e-05	1.4691e-05	288.18	104.03	119.29	51.306	7.745e-06	45.623	0.0033069	0.0034309	0.00095911	1000.3	3.6721e-05	3.7116e-05	775.45	345.13	3.516e-05	3.5283e-05	320.82	113.47	131.92	54.218	3.45e-05	50.325	75.163	-79.668	-139.057	-145.007	-9.089	199.598	-146.344	-138.935	-55.008	47.612	-142.367	-137.998	-135.178	-129.918	-14.796	-133.492	-8191	255	
7178.017	1	1	0	0	0.19247	0.15994	0.1194	0.099288	0.17279	0.14415	0.08199	0.16899	0.27567	0.095553	0.050418	0.19758	0.43774	0.20289	0.084031	0.35169	-1.4625	-2.3729	-2.2583	-1.95	-2.5312	-2.15	-2.1396	-2.6896	-1.9583	-2.3208	-2.4958	-2.0625	-2.6417	-2.2687	-2.1208	-2.7521	190.391	-5.908	-55.309	149.581	-7.016	25.498	187.850	191.652	-80.672	-107.201	24.622	-144.428	175.974	153.406	155.259	-126.530	0.0013434	0.00084952	0.00029153	953.5	3.3644e-06	6.1312e-06	724.55	329.12	1.1817e-05	1.3715e-05	288.14	103.67	119.69	51.294	2.726e-05	45.787	0.0029864	0.0031142	0.00087077	992.45	3.2983e-05	3.3102e-05	764.05	342.64	3.1717e-05	3.2458e-05	315.99	112.06	131.05	53.832	3.2289e-05	49.907	90.010	-78.061	-32.825	-144.610	-116.904	-32.831	-147.248	-139.200	47.027	17.249	-142.252	-138.577	-134.905	-129.756	-11.928	-133.524	-8191	255	
7178.087	1	1	0	0	0.2634	0.072258	0.39528	0.1471	0.22925	0.026482	0.22866	0.16417	0.24976	0.12456	0.10093	0.24056	0.34967	0.099622	0.30447	0.081801	-1.525	-2.35	-2.3917	-1.8937	-2.6771	-2.2354	-2.1708	-2.7208	-1.9625	-2.2958	-2.5812	-2.0896	-2.7417	-2.3917	-1.8937	-2.7771	-24.798	146.567	-18.816	136.087	-65.532	-145.937	187.949	123.078	-33.416	51.477	70.206	149.174	195.744	128.205	-84.453	-7.886	0.0017253	0.00067113	0.00011349	949.63	7.8701e-06	1.0452e-06	719.74	330.16	9.9138e-06	1.4768e-05	286.18	102.52	119.39	50.99	7.5167e-06	45.145	0.0028536	0.003025	0.00084523	990.36	3.4243e-05	3.5272e-05	764.65	344.87	3.6504e-05	3.8092e-05	324.18	114.39	135.21	54.837	4.2636e-05	51.337	72.103	1.338	-125.462	-144.681	-81.348	-45.869	-146.736	-139.042	-51.307	6.426	-142.457	-138.121	-135.084	-129.609	-41.132	-133.591	-8191	255	
7178.183	1	1	0	0	0.12762	0.10837	0.1386	0.085954	0.067989	0.12218	0.27241	0.061212	0.084512	0.041979	0.09924	0.14027	0.079157	0.11233	0.14338	0.15236	-1.6271	-2.3	-2.6792	-2.0292	-2.5854	-2.2542	-1.95	-2.8667	-2.0667	-2.2208	-2.5938	-2.15	-2.5083	-2.5271	-1.9562	-2.7042	-68.538	70.660	-3.976	-94.587	-126.838	-137.644	146.976	194.366	9.822	21.212	24.124	178.498	15.746	193.107	-93.292	132.325	0.0011122	0.00090467	0.00031249	940.23	6.7326e-07	1.0404e-05	705.61	323.73	1.2744e-05	7.9052e-06	285.13	102.19	117.29	50.361	1.1415e-05	44.744	0.0038384	0.0040436	0.001138	1011.6	4.4585e-05	4.4879e-05	778.58	348.56	4.3092e-05	4.3937e-05	327.93	115.27	135.67	54.775	4.3791e-05	51.421	67.552	-132.854	-6.277	-144.683	42.698	7.465	-146.755	-139.032	32.064	-61.007	-141.851	-138.088	-134.530	-129.302	19.957	-133.594	-8191	255	
7178.279	1	1	0	0	0.10337	0.32382	0.083784	0.45875	0.05864	0.1433	0.26316	0.22821	0.21722	0.074346	0.15067	0.18379	0.1347	0.16548	0.10935	0.21091	-1.8563	-2.0604	-2.5917	-2.0458	-2.3875	-2.4083	-2.275	-2.7146	-2.1542	-1.9875	-2.6958	-1.9625	-2.4417	-2.5958	-1.7625	-2.85	59.683	191.759	-5.516	167.191	122.559	0.291	177.210	150.202	108.278	194.404	-153.787	41.203	43.870	199.675	106.865	-90.311	0.0007706	0.00115	0.00021061	942.2	1.2267e-06	1.705e-05	709.31	325.67	5.5248e-06	1.2847e-05	283.26	101.96	117.19	50.079	1.4502e-05	44.308	0.0039642	0.004206	0.0011883	1018.3	4.8285e-05	4.9721e-05	790.52	354.72	5.1632e-05	5.2726e-05	339.13	119.47	142.2	56.304	5.726e-05	53.766	26.086	60.524	-39.673	-144.670	42.593	9.752	-146.682	-138.706	125.766	-118.127	-141.817	-137.781	-134.930	-129.359	-115.496	-133.251	-8191	255	
7178.377	1	1	0	0	0.18181	0.23938	0.21039	0.23044	0.14988	0.030845	0.084335	0.14088	0.23816	0.079859	0.11657	0.47462	0.061828	0.13528	0.17653	0.21308	-1.7146	-2.0563	-2.5125	-1.8542	-2.2417	-2.5146	-1.9354	-2.7042	-2.0563	-2.1333	-2.7333	-2.1063	-2.1583	-2.6771	-1.7812	-2.6312	118.774	-91.547	91.575	90.809	-144.978	90.766	23.974	0.088	-99.028	57.134	-92.760	149.488	-22.245	196.286	96.096	190.914	0.0012756	0.00099262	0.00067924	925.17	1.8592e-05	8.4601e-06	706.98	323.39	1.9804e-06	1.7878e-05	281.04	101.04	117.2	50.095	2.7147e-05	44.431	0.0051271	0.0053065	0.0014728	1039.9	5.7934e-05	5.8406e-05	807.47	358.15	5.7217e-05	5.7292e-05	342.15	119.64	142.1	55.99	5.563e-05	53.184	51.040	-13.935	-82.870	-145.296	-111.626	32.561	-147.126	-139.152	152.478	-40.291	-141.827	-137.719	-134.797	-129.357	-36.920	-132.986	-8191	255	
7178.496	1	1	0	0	0.064801	0.10735	0.14479	0.41552	0.11188	0.23169	0.1138	0.099272	0.075954	0.01602	0.16347	0.17009	0.07849	0.17075	0.085263	0.16164	-1.6917	-1.9958	-2.6104	-2.2583	-2.2833	-2.7771	-1.9708	-2.6937	-2.3833	-1.9958	-2.6479	-2.3042	-2.1333	-2.7958	-1.9479	-2.4646	152.777	146.304	-104.387	176.242	36.827	110.658	-53.859	201.162	-8.383	-14.777	179.297	-64.912	-112.387	187.387	-27.600	-114.659	0.0016925	0.00063091	0.00065412	929.93	4.2196e-05	1.8849e-05	702.19	325.39	2.4963e-05	2.3311e-05	283.2	101.31	117.32	49.692	2.1159e-05	44.021	0.0048788	0.0050849	0.0014176	1030.7	5.5536e-05	5.6028e-05	796.29	357.12	5.6465e-05	5.7273e-05	342.87	120.46	142.75	56.035	5.7689e-05	53.429	68.580	113.983	-128.027	-144.764	-150.741	-59.768	-146.695	-138.704	-119.416	58.752	-142.043	-137.181	-134.233	-128.935	76.267	-133.452	-8191	255	
7178.592	1	1	0	0	0.36003	0.38001	0.22661	0.13467	0.19931	0.11046	0.31421	0.025146	0.070668	0.1147	0.11497	0.25834	0.062767	0.26678	0.19993	0.20095	-2.0125	-1.7604	-2.5208	-2.2354	-2.0687	-2.5667	-2.0646	-2.4229	-2.4188	-2.1021	-2.7104	-2.2	-1.9979	-2.6729	-1.9417	-2.4479	-103.117	197.523	-95.494	99.587	-38.883	-98.559	137.440	69.252	-137.208	104.794	167.212	187.896	68.049	-124.004	162.490	143.198	0.0011472	0.00066222	0.00013487	927.98	1.9067e-05	1.6563e-05	693.4	320.61	1.1563e-05	1.6805e-05	281.44	100.64	116.02	49.579	3.923e-06	44.099	0.0051747	0.0054144	0.0015408	1042.2	6.0419e-05	6.0744e-05	803.43	358.66	5.8871e-05	5.872e-05	343.27	120.18	142.04	55.984	5.6835e-05	53.266	83.719	190.712	99.014	-144.392	-152.015	-154.575	-146.345	-138.904	-75.421	166.223	-141.620	-137.587	-135.175	-129.802	-106.612	-134.327	-8191	255	
7178.688	1	1	0	0	0.32425	0.17793	0.21795	0.18236	0.17434	0.010805	0.19076	0.37104	0.016518	0.22097	0.17044	0.071832	0.27439	0.3932	0.14592	0.083187	-2.0583	-1.8125	-2.3875	-2.3125	-2.025	-2.575	-2.0208	-2.4313	-2.5875	-1.9625	-2.5979	-2.3708	-2.1042	-2.7687	-2.275	-2.1979	-127.296	168.183	104.279	111.720	-4.634	23.631	129.695	83.175	6.119	-14.766	142.739	128.906	162.244	-141.103	-58.490	160.838	0.0021287	0.0013216	0.00062198	923.62	1.5404e-05	1.5941e-05	693.58	323.17	2.076e-05	5.9624e-06	279.8	102.45	116.22	50.073	1.0902e-05	44.203	0.0049708	0.0051476	0.0014334	1027.9	5.4379e-05	5.4601e-05	787.76	353.13	5.0924e-05	5.1274e-05	333.98	117.51	138.13	55.125	4.7649e-05	51.641	87.584	-90.417	-58.479	-144.884	-86.988	-81.625	-147.097	-138.964	-84.027	-142.776	-141.863	-138.038	-134.802	-129.307	-38.391	-133.348	-8191	255	
7178.785	1	1	0	0	0.14772	0.088568	0.068704	0.20399	0.16304	0.3458	0.18275	0.34097	0.20488	0.0877	0.14706	0.26402	0.2539	0.18451	0.047632	0.057123	-2.1229	-2.0354	-2.3	-2.5583	-1.9458	-2.6792	-2.375	-2.3146	-2.4188	-1.8563	-2.275	-2.4583	-2.1063	-2.6375	-2.2229	-2.175	-36.911	-3.535	190.509	177.140	-96.960	91.684	26.420	183.455	76.312	-58.079	-111.086	174.574	201.797	191.161	-81.879	-22.607	0.0011493	0.00042496	0.0004547	933.46	2.3557e-05	9.2159e-06	703.76	325.38	3.5064e-05	2.396e-05	286.13	103.12	118.91	50.826	5.1339e-06	45.452	0.0039981	0.0041066	0.001122	999.92	4.1577e-05	4.1104e-05	765.51	344.34	3.8285e-05	3.8095e-05	320.05	113.26	131.99	53.884	3.5362e-05	50.114	79.820	-122.169	-27.521	-145.085	-42.897	-17.104	-146.637	-139.283	-19.300	7.496	-142.160	-137.714	-134.771	-129.406	-14.476	-133.930	-8191	255	
7178.881	1	1	0	0	0.18613	0.15494	0.28363	0.27633	0.19554	0.04043	0.24182	0.18889	0.1345	0.092677	0.21311	0.16427	0.046498	0.17443	0.25608	0.24104	-2.1729	-1.8208	-2.1396	-2.6375	-1.8021	-2.4979	-2.1417	-2.0917	-2.5583	-2.0708	-2.5	-2.7167	-1.9188	-2.7625	-2.3521	-2.2167	123.393	185.540	91.644	183.412	78.151	-13.133	-109.560	167.190	22.282	10.082	174.493	-149.224	166.027	89.066	-37.871	190.893	0.0010656	0.00025987	0.00039428	938.42	1.9876e-05	6.1562e-06	705.04	327.76	1.7519e-05	1.5584e-05	285.99	103.13	118.76	50.647	7.1455e-06	44.796	0.0030531	0.0031435	0.00086952	980.17	3.2678e-05	3.3004e-05	753.42	340.6	3.2348e-05	3.2926e-05	314.82	112.06	131.01	53.741	3.4837e-05	49.973	87.726	104.990	2.145	-145.372	160.836	-58.653	-146.976	-139.466	-27.338	63.397	-142.059	-137.578	-134.935	-129.415	-119.868	-133.354	-8191	255	
7178.977	1	1	0	0	0.04469	0.17361	0.10877	0.26336	0.19307	0.19331	0.32566	0.11045	0.047774	0.18624	0.17883	0.091508	0.2606	0.3336	0.20842	0.24903	-2.2062	-1.9833	-2.1083	-2.4729	-1.8271	-2.4208	-2.5146	-1.8125	-2.7896	-2.0625	-2.0958	-2.6625	-1.9188	-2.4708	-2.3042	-1.9146	-143.543	-55.792	-102.426	195.039	-73.104	-98.046	137.993	181.092	-88.795	202.682	-136.544	115.590	26.755	117.734	118.862	55.379	0.00137	0.0010464	0.00038782	936.9	1.6883e-05	2.2217e-06	711.47	324.48	8.4055e-06	1.3856e-05	284.6	101.93	117.58	50.239	5.4431e-06	44.009	0.0031911	0.0034334	0.00097532	992.86	3.9988e-05	4.2231e-05	776.1	348.15	4.4852e-05	4.7218e-05	333.17	117.43	139.1	55.658	5.2674e-05	52.87	72.242	-56.906	-67.007	-144.551	152.629	-15.238	-146.364	-139.319	51.414	103.430	-142.545	-137.942	-135.020	-129.644	5.133	-133.645	-8191	255	
7179.097	1	1	0	0	0.15171	0.0068344	0.020403	0.17065	0.077488	0.13483	0.22786	0.18558	0.19461	0.18116	0.11855	0.15398	0.24622	0.32552	0.22258	0.31617	-2.0125	-2.0312	-2.1125	-2.7708	-1.8521	-2.4458	-2.475	-2.0521	-2.5271	-2.15	-2.2021	-2.7083	-2.0771	-2.2396	-2.5667	-2.0687	-39.154	50.927	136.233	130.054	-133.324	79.278	199.773	141.006	-20.685	59.679	-46.541	192.722	-130.115	-147.997	-34.288	128.213	0.0017817	0.0018388	0.00029602	930.95	8.8653e-06	1.8898e-05	697.35	323.55	2.4906e-05	6.2466e-06	281.19	101.98	117.63	50.502	1.4823e-05	44.749	0.0047591	0.0050913	0.0014132	1034.7	5.496e-05	5.5804e-05	796.47	354.85	5.1782e-05	5.1904e-05	334.53	117.31	137.33	55.136	4.4704e-05	51.287	65.132	-46.469	1.905	-144.246	-65.961	-15.713	-146.575	-138.913	132.061	-52.067	-142.119	-137.992	-135.010	-129.238	-134.958	-133.804	-8191	255	
7179.192	1	1	0	0	0.061816	0.22447	0.15158	0.19852	0.11043	0.054421	0.23305	0.31026	0.24522	0.1639	0.23808	0.17135	0.18215	0.21805	0.18225	0.19911	-2.125	-2.1813	-2.1604	-2.8146	-2.1042	-2.1979	-2.6167	-2.0625	-2.5479	-2.2771	-1.8875	-2.4833	-2.2521	-2.2396	-2.5479	-1.8687	-139.133	143.304	-132.164	115.912	-110.243	-84.359	110.801	128.106	145.380	153.619	180.189	155.169	114.952	198.719	-148.193	150.912	0.0014042	0.00024731	0.00034445	935.94	3.1072e-06	4.0805e-06	709.12	326.49	1.5652e-05	1.619e-05	283.98	103.52	118.14	50.749	2.5854e-05	45.068	0.003717	0.003787	0.0010244	994.37	3.899e-05	3.9272e-05	766.19	345.01	3.8706e-05	3.9277e-05	323.06	114.59	134.59	54.732	4.1711e-05	51.523	72.254	-2.941	-8.155	-144.583	15.092	-3.674	-146.186	-138.929	-128.543	29.413	-142.145	-138.159	-134.912	-129.817	33.054	-133.326	-8191	255	
7179.288	1	1	0	0	0.16992	0.13413	0.12654	0.25153	0.13309	0.067596	0.16867	0.16401	0.11011	0.15887	0.18997	0.29124	0.15101	0.11767	0.02833	0.2211	-1.9542	-2.3458	-1.7313	-2.7417	-2.1771	-2.1708	-2.6646	-1.8396	-2.4	-2.4271	-1.9271	-2.6042	-2.2438	-2.25	-2.6583	-1.8771	-73.521	-13.995	-9.229	84.405	-101.519	70.518	184.155	-145.986	-93.564	28.439	144.925	-138.575	-137.913	-152.565	-148.915	108.673	0.0009984	0.00073414	0.00056709	940.31	1.839e-05	8.0943e-06	706.28	327.07	9.4973e-06	1.8868e-05	283.84	102.22	118.38	50.904	5.0737e-06	44.839	0.0037938	0.0040738	0.0011487	1013.6	4.6585e-05	4.7795e-05	786.03	352.51	4.8272e-05	4.862e-05	333.73	117.46	138.13	55.482	4.6828e-05	52.038	83.332	8.829	-85.355	-144.402	162.233	-21.586	-146.608	-139.217	13.895	-96.565	-142.669	-138.118	-134.847	-129.715	10.945	-134.124	-8191	255	
7179.384	1	1	0	0	0.35306	0.20547	0.07691	0.38094	0.19788	0.18837	0.18816	0.033459	0.10045	0.18672	0.22276	0.10726	0.20784	0.12755	0.13208	0.11922	-1.9021	-2.4792	-1.8229	-2.6312	-2.125	-1.9688	-2.7396	-2.0062	-2.2687	-2.4042	-2.0958	-2.5479	-2.35	-2.0938	-2.6354	-2.0417	103.478	4.560	-9.730	179.095	11.160	110.693	35.287	-39.513	53.444	-18.574	148.220	147.409	126.267	-110.657	123.026	-131.086	0.001308	0.0014611	0.00015892	935.03	1.9567e-06	1.4182e-05	702.21	327	1.0524e-05	4.6128e-06	284.34	102.38	118.76	50.528	2.2528e-05	44.98	0.0041117	0.0042714	0.0011829	1011	4.6442e-05	4.659e-05	779.49	351.16	4.5715e-05	4.6473e-05	330.77	116.55	137.56	55.053	4.3933e-05	51.66	58.676	54.488	-82.706	-144.800	61.277	21.248	-146.412	-139.043	29.918	52.052	-142.165	-137.855	-135.463	-129.642	-65.747	-133.571	-8191	255	
#DATA ENDS
