BOXY.EXE: ISS Imagent and Oximeter Data Acquisition Program Version 0.80
Ascii Record File

#ACQ INFORMATION
2  Detector Channels 
16  External MUX Channels 
1  Auxiliary Channels 
5000  Waveform (CCF) Frequency (Hz)
1  Waveforms Skipped 
30  Waveforms Averaged 
1  Cycles Averaged 
16  Acquisitions per Waveform 
10.0806  Updata Rate (Hz) 

#FILE INFORMATION
TRUE -- External MUX Channel results are PARSED.
FALSE -- AC DC and Phase are NOT grouped.
TRUE -- Companion Program Settings File CREATED.
FALSE -- AC data not excluded
FALSE -- DC data not excluded
FALSE -- Phase data not excluded
FALSE -- Auxillary Chn. data not excluded
Tab delimiters

#CALIBRATION STATE
TRUE -- Waveform Calibration Values APPLIED.


#AUX CALIBRATION VALUES
Val Type	aux-1	

Term	1.0000e+00	
Factor	0.0000e+00	


#WF CALIBRATION VALUES
A = Detector Channel
Val Type	A-AC1	A-AC2	A-AC3	A-AC4	A-AC5	A-AC6	A-AC7	A-AC8	A-AC9	A-AC10	A-AC11	A-AC12	A-AC13	A-AC14	A-AC15	A-AC16	A-DC1	A-DC2	A-DC3	A-DC4	A-DC5	A-DC6	A-DC7	A-DC8	A-DC9	A-DC10	A-DC11	A-DC12	A-DC13	A-DC14	A-DC15	A-DC16	A-Ph1	A-Ph2	A-Ph3	A-Ph4	A-Ph5	A-Ph6	A-Ph7	A-Ph8	A-Ph9	A-Ph10	A-Ph11	A-Ph12	A-Ph13	A-Ph14	A-Ph15	A-Ph16	

Term	0.00000e+00	0.00000e+00	0.00000e+00	0.00000e+00	0.00000e+00	0.00000e+00	0.00000e+00	0.00000e+00	0.00000e+00	0.00000e+00	0.00000e+00	0.00000e+00	0.00000e+00	0.00000e+00	0.00000e+00	0.00000e+00	0.00000e+00	0.00000e+00	0.00000e+00	0.00000e+00	0.00000e+00	0.00000e+00	0.00000e+00	0.00000e+00	0.00000e+00	0.00000e+00	0.00000e+00	0.00000e+00	0.00000e+00	0.00000e+00	0.00000e+00	0.00000e+00	0.00000e+00	0.00000e+00	0.00000e+00	0.00000e+00	0.00000e+00	0.00000e+00	0.00000e+00	0.00000e+00	0.00000e+00	0.00000e+00	0.00000e+00	0.00000e+00	0.00000e+00	0.00000e+00	0.00000e+00	0.00000e+00	
Factor	1.00000e+00	1.00000e+00	1.00000e+00	1.00000e+00	1.00000e+00	1.00000e+00	1.00000e+00	1.00000e+00	1.00000e+00	1.00000e+00	1.00000e+00	1.00000e+00	1.00000e+00	1.00000e+00	1.00000e+00	1.00000e+00	1.00000e+00	1.00000e+00	1.00000e+00	1.00000e+00	1.00000e+00	1.00000e+00	1.00000e+00	1.00000e+00	1.00000e+00	1.00000e+00	1.00000e+00	1.00000e+00	1.00000e+00	1.00000e+00	1.00000e+00	1.00000e+00	X	X	X	X	X	X	X	X	X	X	X	X	X	X	X	X	

B = Detector Channel
Val Type	B-AC1	B-AC2	B-AC3	B-AC4	B-AC5	B-AC6	B-AC7	B-AC8	B-AC9	B-AC10	B-AC11	B-AC12	B-AC13	B-AC14	B-AC15	B-AC16	B-DC1	B-DC2	B-DC3	B-DC4	B-DC5	B-DC6	B-DC7	B-DC8	B-DC9	B-DC10	B-DC11	B-DC12	B-DC13	B-DC14	B-DC15	B-DC16	B-Ph1	B-Ph2	B-Ph3	B-Ph4	B-Ph5	B-Ph6	B-Ph7	B-Ph8	B-Ph9	B-Ph10	B-Ph11	B-Ph12	B-Ph13	B-Ph14	B-Ph15	B-Ph16	

Term	0.00000e+00	0.00000e+00	0.00000e+00	0.00000e+00	0.00000e+00	0.00000e+00	0.00000e+00	0.00000e+00	0.00000e+00	0.00000e+00	0.00000e+00	0.00000e+00	0.00000e+00	0.00000e+00	0.00000e+00	0.00000e+00	0.00000e+00	0.00000e+00	0.00000e+00	0.00000e+00	0.00000e+00	0.00000e+00	0.00000e+00	0.00000e+00	0.00000e+00	0.00000e+00	0.00000e+00	0.00000e+00	0.00000e+00	0.00000e+00	0.00000e+00	0.00000e+00	-2.51673e+01	-1.09131e+02	-1.36792e+02	-1.83698e+02	-1.38176e+01	-7.28325e+01	-1.57869e+02	-1.62015e+02	-6.96302e+01	-9.69870e+01	-1.72092e+02	-1.75791e+02	-1.89181e+02	-1.78194e+02	-7.65473e+01	-1.51485e+02	
Factor	2.82887e-05	9.62443e-05	2.62348e-05	1.61568e-01	9.06967e-07	1.03337e-06	1.67683e-01	6.49704e-02	1.10886e-06	1.02177e-06	1.02924e-01	3.36800e-02	8.03786e-02	9.68118e-03	9.66469e-07	1.40111e-02	7.08911e-07	7.21329e-07	2.01149e-07	7.90580e-02	7.90081e-09	7.90084e-09	7.70976e-02	3.12878e-02	7.89045e-09	7.89930e-09	4.70277e-02	1.53915e-02	3.30660e-02	4.62330e-03	7.91615e-09	6.40668e-03	X	X	X	X	X	X	X	X	X	X	X	X	X	X	X	X	



#DISTANCE SETTINGS
A = Detector Channel
A-1	A-2	A-3	A-4	A-5	A-6	A-7	A-8	A-9	A-10	A-11	A-12	A-13	A-14	A-15	A-16	

2.5000e+00	3.0000e+00	2.5000e+00	3.0000e+00	2.0000e+00	3.0000e+00	1.5000e+00	3.0000e+00	3.0000e+00	3.0000e+00	3.0000e+00	3.0000e+00	3.0000e+00	3.0000e+00	1.5000e+00	3.0000e+00	

B = Detector Channel
B-1	B-2	B-3	B-4	B-5	B-6	B-7	B-8	B-9	B-10	B-11	B-12	B-13	B-14	B-15	B-16	

1.0000e+01	1.0000e+01	1.0000e+01	1.4400e+00	1.0000e+01	1.0000e+01	1.5100e+00	1.9400e+00	1.0000e+01	1.0000e+01	1.9900e+00	2.4900e+00	2.4100e+00	2.9000e+00	1.0000e+01	2.9800e+00	




#DATA BEGINS
time	group	step	mark	flag	A-AC1	A-AC2	A-AC3	A-AC4	A-AC5	A-AC6	A-AC7	A-AC8	A-AC9	A-AC10	A-AC11	A-AC12	A-AC13	A-AC14	A-AC15	A-AC16	A-DC1	A-DC2	A-DC3	A-DC4	A-DC5	A-DC6	A-DC7	A-DC8	A-DC9	A-DC10	A-DC11	A-DC12	A-DC13	A-DC14	A-DC15	A-DC16	A-Ph1	A-Ph2	A-Ph3	A-Ph4	A-Ph5	A-Ph6	A-Ph7	A-Ph8	A-Ph9	A-Ph10	A-Ph11	A-Ph12	A-Ph13	A-Ph14	A-Ph15	A-Ph16	B-AC1	B-AC2	B-AC3	B-AC4	B-AC5	B-AC6	B-AC7	B-AC8	B-AC9	B-AC10	B-AC11	B-AC12	B-AC13	B-AC14	B-AC15	B-AC16	B-DC1	B-DC2	B-DC3	B-DC4	B-DC5	B-DC6	B-DC7	B-DC8	B-DC9	B-DC10	B-DC11	B-DC12	B-DC13	B-DC14	B-DC15	B-DC16	B-Ph1	B-Ph2	B-Ph3	B-Ph4	B-Ph5	B-Ph6	B-Ph7	B-Ph8	B-Ph9	B-Ph10	B-Ph11	B-Ph12	B-Ph13	B-Ph14	B-Ph15	B-Ph16	aux-1	digaux	

3005.340	1	1	0	768	0.16924	0.13012	0.18345	0.16643	0.14936	0.20729	0.14945	0.097774	0.087212	0.11484	0.28906	0.023688	0.086883	0.046817	0.26201	0.16872	-1.6625	-2.7125	-2.2542	-2.2938	-2.7375	-1.8583	-2.6917	-2.525	-1.9729	-2.7042	-2.2042	-2.1979	-2.7771	-2.0792	-2.6021	-2.675	198.317	168.749	-21.306	-13.841	47.129	-24.201	263.132	138.711	172.803	79.190	300.875	263.844	121.377	166.371	23.888	301.784	0.00038526	0.0014658	0.00072613	752.65	2.5879e-05	2.7294e-05	1045.8	192.49	1.9558e-05	1.2036e-05	330.5	120.94	61.748	27.48	2.4439e-05	60.624	0.002722	0.0032574	0.0009083	1002.7	3.0689e-05	3.5949e-05	1292.8	297.32	3.0212e-05	3.6098e-05	494.23	166.54	176.79	45.588	3.3351e-05	78.18	293.849	108.209	-43.128	-41.383	259.217	189.503	-41.154	-34.087	213.917	166.941	-35.099	-29.925	-27.959	-24.091	20.149	-26.333	-8191	255	
3005.436	1	1	0	0	0.19999	0.11726	0.13667	0.31765	0.27533	0.31601	0.29342	0.23807	0.16139	0.26788	0.14449	0.20215	0.084385	0.33468	0.14333	0.07813	-1.6396	-2.8042	-2.0333	-2.1854	-2.7875	-1.9375	-2.7292	-2.6375	-2.0104	-2.6521	-2.3	-2.1937	-2.6042	-2.1458	-2.55	-2.5146	283.324	20.258	-3.238	26.316	21.548	239.292	239.247	126.995	277.970	298.258	42.986	-43.799	35.244	161.506	123.255	271.731	0.00073367	0.0011902	0.00048147	739.25	1.3784e-05	6.6333e-06	1021.6	193.37	2.9554e-05	1.6857e-05	333.13	123.53	65.191	28.694	1.2057e-05	62.178	0.002715	0.0032482	0.00083261	968.58	3.058e-05	3.5287e-05	1239.2	290.25	3.0411e-05	3.4809e-05	477.44	164.97	179.36	45.687	3.0455e-05	78.221	279.887	175.403	-30.037	-41.075	246.734	179.168	-41.060	-35.060	213.136	43.822	-35.047	-29.944	-25.302	-24.528	2.455	-25.883	-8191	255	
3005.532	1	1	0	0	0.19395	0.099495	0.14007	0.22325	0.099151	0.12908	0.2095	0.14364	0.19759	0.33	0.14117	0.16985	0.13753	0.11244	0.10162	0.22957	-1.5146	-2.6417	-2.3833	-2.2396	-2.7125	-2.1396	-2.525	-2.6396	-1.9854	-2.4688	-2.4333	-2.1979	-2.7292	-2.0292	-2.2333	-2.8604	-34.285	116.101	216.496	49.871	284.116	21.676	267.038	28.466	101.519	158.149	-25.991	108.513	117.569	94.240	85.666	248.300	0.0012126	0.002395	0.0006029	736.46	2.9315e-05	1.4603e-05	1019.3	197.08	1.7776e-05	2.2787e-05	338.46	126.06	68.338	29.436	1.0672e-05	63.896	0.0028179	0.0031255	0.00077902	955.55	3.2308e-05	3.4347e-05	1226.5	291.31	3.2698e-05	3.3841e-05	478.06	167.33	191.79	45.96	3.0073e-05	79.865	254.226	17.383	-27.672	-41.146	283.448	-20.114	-41.030	-33.995	224.368	13.995	-35.091	-29.743	-26.528	-24.664	-36.243	-25.771	-8191	255	
3005.628	1	1	0	0	0.021802	0.1927	0.19833	0.33513	0.29227	0.19563	0.27048	0.049011	0.21642	0.13105	0.14532	0.19763	0.2261	0.051856	0.33574	0.046755	-1.5604	-2.4979	-2.3792	-2.0875	-2.8688	-2.1667	-2.2417	-2.8271	-2.0167	-2.6667	-2.4667	-1.9562	-2.5938	-2.4208	-2.4146	-2.8479	155.346	72.101	187.136	280.463	106.967	33.082	287.630	280.878	96.990	51.660	196.822	-3.104	259.300	39.875	-11.901	256.556	0.00074388	0.0026156	0.00012508	736.78	1.2361e-05	1.0025e-05	1025.4	197.63	8.3509e-06	2.4373e-05	341.79	127.1	67.585	29.558	7.5903e-06	63.744	0.0030635	0.0030499	0.00077307	969.13	3.4842e-05	3.3374e-05	1227.4	298.45	3.5313e-05	3.3022e-05	480.05	171.47	201.07	45.644	3.0068e-05	81.507	262.714	15.033	72.511	-40.497	156.141	20.245	-40.888	-34.529	137.303	18.744	-34.906	-29.446	-26.076	-24.425	-50.262	-25.881	-8191	255	
3005.725	1	1	0	0	0.2056	0.14121	0.0502	0.28542	0.020839	0.1846	0.19075	0.23496	0.08543	0.11826	0.090244	0.30279	0.09525	0.22254	0.098973	0.11781	-1.6729	-2.5271	-2.5042	-2.1583	-2.7875	-2.3396	-2.3104	-2.7833	-2.1833	-2.3875	-2.7208	-2.0542	-2.5687	-2.3812	-2.1813	-2.7792	269.059	258.754	190.416	278.402	293.543	298.515	285.006	-19.142	36.431	53.493	-13.554	270.951	190.184	172.107	112.254	301.706	0.00058658	0.0020455	0.00020225	738.22	1.295e-05	5.2261e-06	1018.4	194.67	5.4757e-06	2.9934e-05	337.77	124.87	66.14	28.892	1.2667e-05	62.601	0.0032543	0.0029912	0.00077488	995.76	3.6493e-05	3.2737e-05	1224.1	306.54	3.6565e-05	3.2416e-05	477.71	176.4	204.54	45.056	3.0419e-05	83.716	265.217	40.242	285.972	-40.554	287.870	202.620	-41.016	-33.724	300.265	-4.489	-35.028	-29.766	-29.515	-24.987	229.887	-25.907	-8191	255	
3005.821	1	1	0	0	0.074424	0.15785	0.17092	0.20602	0.20607	0.11835	0.33442	0.08062	0.14052	0.014306	0.12601	0.057718	0.23206	0.14157	0.27588	0.21644	-1.6542	-2.2917	-2.5062	-2.0125	-2.7375	-2.5521	-2.2833	-3.0646	-2.2	-2.3604	-2.85	-2.0083	-2.6167	-2.4833	-2.1083	-2.7625	79.280	236.009	-16.584	234.993	290.500	-17.647	282.266	158.507	7.271	9.771	297.879	33.836	168.817	16.774	202.299	229.154	0.00067578	0.0010753	0.00043774	728.67	4.2715e-05	9.2622e-06	1018.6	195.82	4.6435e-06	9.9959e-06	334.27	124.51	67.118	28.724	1.9048e-05	62.634	0.0033074	0.002953	0.00078927	1026.4	3.6506e-05	3.2825e-05	1230.4	319.42	3.6371e-05	3.2232e-05	482.6	182.11	200.93	44.733	3.1214e-05	85.596	121.315	-2.360	306.745	-40.511	121.622	93.272	-40.967	-33.788	59.892	14.092	-35.147	-29.375	-29.982	-23.907	233.267	-25.907	-8191	255	
3005.941	1	1	0	0	0.28728	0.074292	0.23876	0.42216	0.051328	0.103	0.19676	0.15234	0.059343	0.14725	0.1167	0.32052	0.20878	0.1959	0.25404	0.2517	-1.8083	-2.1479	-2.6937	-1.8563	-2.6063	-2.5104	-2.1625	-2.8708	-2.2083	-2.2833	-2.7271	-2.0833	-2.4562	-2.5687	-2.15	-2.9229	17.026	258.551	241.044	-36.665	260.189	83.267	-28.150	40.864	300.229	166.454	245.255	86.793	229.726	-2.282	174.704	-20.531	0.00061582	0.0010274	0.00046012	741.8	1.879e-05	4.5804e-06	1013.2	195.55	1.1895e-05	3.6285e-05	334.27	125.59	67.486	29.227	9.3384e-06	63.898	0.0032084	0.0029273	0.00081685	1055.2	3.5253e-05	3.2482e-05	1252	328.38	3.5257e-05	3.2279e-05	495.9	186.96	197.12	45.039	3.3577e-05	87.516	63.739	22.791	177.114	-40.878	135.652	235.897	-40.760	-34.274	62.295	306.932	-34.862	-29.819	-29.756	-24.522	188.525	-25.898	-8191	255	
3006.037	1	1	0	0	0.18762	0.14774	0.09034	0.19818	0.11355	0.25118	0.29934	0.23543	0.23384	0.13846	0.12791	0.26426	0.073359	0.18556	0.14415	0.079501	-1.7979	-2.1792	-2.7229	-2.0938	-2.6021	-2.6312	-2.3042	-2.7229	-2.3479	-2.1958	-2.9604	-2.1375	-2.4542	-2.7167	-2.0479	-2.8417	128.034	43.815	137.738	115.577	292.382	306.503	220.367	-22.514	163.635	-25.361	9.050	230.682	241.759	6.797	125.162	281.185	0.00043065	0.0027296	0.00046998	719.58	1.4264e-05	3.719e-06	992.9	198.63	8.5208e-06	5.5587e-06	338.32	129.33	68.777	30.708	3.7412e-05	66.201	0.0030861	0.0028665	0.00086766	1039.7	3.3536e-05	3.1548e-05	1246.6	327.17	3.3307e-05	3.0883e-05	509.79	187.47	189.96	45.547	3.5306e-05	87.832	59.507	-38.477	160.728	-40.846	195.899	149.440	-40.717	-34.332	55.472	278.937	-35.205	-30.013	-29.082	-24.342	184.053	-26.371	-8191	255	
3006.134	1	1	0	0	0.12947	0.048103	0.24101	0.073397	0.22075	0.14782	0.33115	0.16606	0.07684	0.048871	0.065231	0.12756	0.05637	0.31643	0.088041	0.29154	-1.9937	-1.8896	-2.5625	-2.3396	-2.3271	-2.6896	-2.25	-2.7104	-2.6021	-2.2021	-2.7333	-2.2021	-2.2167	-2.7833	-2.0875	-2.5812	101.738	56.965	258.444	6.343	52.991	37.799	244.795	8.640	244.248	93.279	256.056	263.438	48.679	269.434	24.161	303.421	0.00018291	0.00043059	0.00032473	718.46	2.8154e-05	1.7054e-05	994.18	202.14	1.2613e-05	1.8095e-05	341.53	130.38	69.685	30.976	3.1e-05	66.408	0.0029624	0.0028047	0.00092329	1020.7	3.2462e-05	3.163e-05	1276.3	324.08	3.3051e-05	3.1632e-05	527.47	186.26	189.41	46.682	3.8378e-05	87.596	105.213	160.776	158.970	-40.741	43.397	233.513	-40.841	-34.754	17.078	214.298	-35.131	-30.256	-28.460	-23.855	180.897	-26.198	-8191	255	
3006.230	1	1	0	0	0.22612	0.24035	0.10367	0.29972	0.022744	0.14367	0.18723	0.17605	0.25707	0.15318	0.035599	0.26312	0.22196	0.23581	0.16424	0.40631	-2.075	-1.9083	-2.6958	-2.2917	-2.3083	-2.7542	-2.2167	-2.6354	-2.675	-2.05	-2.6708	-2.4104	-2.1813	-2.7583	-2.1458	-2.6271	-30.092	302.130	100.313	249.885	93.466	214.264	243.620	254.564	220.992	275.306	22.415	262.508	-24.170	26.242	-20.583	220.586	0.00043244	0.0042447	0.00024134	725.94	3.2991e-06	2.4057e-05	1004.6	200.37	1.3215e-05	2.1116e-05	340.65	128.93	68.183	30.081	2.2427e-05	65.266	0.0029774	0.0029903	0.00098599	1020.1	3.2481e-05	3.3583e-05	1304.5	319.6	3.2671e-05	3.3985e-05	532.61	182.15	187.37	47.514	3.8949e-05	85.439	164.104	187.873	277.298	-40.831	266.141	210.449	-40.659	-33.998	46.437	193.480	-35.381	-29.759	-27.526	-24.164	60.909	-26.285	-8191	255	
3006.324	1	1	0	0	0.1443	0.13375	0.33453	0.083124	0.22258	0.12339	0.25977	0.39035	0.16154	0.11677	0.22621	0.39568	0.28486	0.45392	0.13442	0.22758	-2.1542	-1.8833	-2.7375	-2.4542	-2.2646	-2.775	-2.3312	-2.5271	-2.5479	-2.0229	-2.5812	-2.4042	-1.9896	-2.8812	-2.1583	-2.3667	181.225	221.905	252.887	201.122	86.583	-29.668	15.407	289.415	130.629	130.928	26.797	21.309	-14.667	230.400	146.952	283.453	0.0003454	0.0022519	0.00035207	734.33	1.9118e-05	5.2621e-05	1022.7	198.32	2.1555e-05	3.9756e-05	341.45	126.02	66.912	29.197	3.0659e-05	64.084	0.0029107	0.0032347	0.00098612	1018.4	3.2013e-05	3.6265e-05	1311.2	313.58	3.2128e-05	3.6726e-05	525.92	179.03	185.49	48.193	3.8022e-05	83.562	248.158	154.530	305.889	-40.936	126.099	226.954	-40.872	-34.417	132.322	183.168	-34.978	-29.769	-28.779	-24.387	21.628	-26.177	-8191	255	
3006.420	1	1	0	0	0.072498	0.40086	0.10502	0.12174	0.093485	0.089846	0.15156	0.22265	0.13154	0.072856	0.22066	0.49182	0.059244	0.1795	0.2408	0.13879	-2.3958	-2.0979	-2.5187	-2.5792	-2.225	-2.8	-2.2021	-2.3104	-2.5792	-2.0458	-2.6396	-2.5646	-2.0208	-2.7667	-2.275	-2.4604	101.633	-22.009	240.773	241.007	119.219	292.101	227.597	236.453	4.827	163.503	107.206	-14.321	82.308	31.936	248.664	176.309	0.00030165	0.0019992	0.00038793	742.82	1.1466e-05	3.8636e-06	1029.7	196.97	1.9291e-05	2.126e-05	339.55	125.94	65.443	29.285	1.97e-05	64.045	0.0029248	0.0034824	0.00095857	1021.5	3.249e-05	3.8728e-05	1307.6	310.82	3.3342e-05	3.9206e-05	517.6	178.09	191.15	49.563	3.6738e-05	83.329	186.619	154.708	17.877	-41.221	211.329	171.482	-41.206	-34.098	218.395	164.684	-35.586	-29.863	-26.895	-24.768	48.479	-26.529	-8191	255	
3006.541	1	1	0	0	0.18628	0.15016	0.14738	0.091854	0.22265	0.13266	0.31635	0.18215	0.094827	0.14505	0.16618	0.026673	0.22814	0.23917	0.071145	0.33374	-2.4375	-2.0438	-2.5792	-2.6167	-2.0646	-2.7562	-2.4146	-2.0729	-2.8833	-2.1708	-2.7042	-2.675	-1.975	-2.6458	-2.3104	-2.1646	91.297	265.503	75.932	85.488	71.219	115.942	205.663	180.761	182.479	66.770	247.159	-15.993	50.884	228.682	-21.873	244.718	0.0015305	0.0017805	0.00093089	733.45	8.7867e-06	1.7234e-05	1009.9	195.68	4.6554e-05	1.2798e-05	337.13	125.97	66.014	29.363	1.0849e-05	64.008	0.0030885	0.0036414	0.00092134	1006.3	3.4781e-05	3.9926e-05	1276.2	306.93	3.5588e-05	3.9803e-05	506.95	176.42	202.42	49.383	3.5273e-05	82.475	270.374	86.960	-22.951	-40.525	224.610	197.106	-40.830	-34.378	202.516	-43.125	-35.657	-29.774	-26.759	-24.146	32.844	-26.256	-8191	255	
3006.637	1	1	0	0	0.27363	0.16135	0.11936	0.22722	0.096754	0.26743	0.08703	0.20667	0.053353	0.12552	0.25068	0.45605	0.16345	0.13829	0.27167	0.04146	-2.3312	-2.05	-2.4417	-2.65	-2.0667	-2.7104	-2.525	-2.0625	-2.6208	-2.1125	-2.4479	-2.725	-2.1146	-2.775	-2.55	-2.3542	126.389	21.980	22.611	305.162	118.779	291.800	177.649	28.442	25.199	288.118	224.335	214.864	24.381	296.899	213.351	152.680	0.00078727	0.00099442	0.00053503	730.4	1.8823e-05	2.1359e-05	1008.1	193.64	3.2161e-05	1.6568e-05	337.85	124.88	64.078	29.571	1.747e-05	64.03	0.0033152	0.0035716	0.0008825	994.55	3.6946e-05	3.8306e-05	1259	300.61	3.7389e-05	3.7828e-05	495.25	173.69	207.82	47.736	3.3238e-05	82.033	243.913	-49.472	297.807	-40.977	246.868	45.467	-41.019	-34.485	182.550	24.639	-35.365	-29.761	-27.743	-24.997	-1.599	-26.172	-8191	255	
3006.733	1	1	0	0	0.089062	0.053236	0.14335	0.04793	0.11727	0.1657	0.24477	0.14211	0.26787	0.18997	0.13779	0.087232	0.09017	0.097942	0.1724	0.40424	-2.2729	-2.1125	-2.4375	-2.7792	-1.95	-2.6833	-2.6146	-2.2188	-2.875	-2.25	-2.1	-2.7708	-2.025	-2.4271	-2.6292	-2.0792	48.486	40.459	144.179	-39.280	215.896	99.981	296.623	-4.508	3.533	179.220	-31.910	207.191	-23.837	242.763	189.600	260.865	0.00089024	0.0015934	0.00014808	713.81	2.0222e-05	2.3817e-05	992.14	195.82	2.4892e-06	1.7719e-05	341.22	127.28	68.125	30.27	7.8525e-06	64.512	0.0033586	0.0032909	0.00081814	973.09	3.7412e-05	3.5044e-05	1220.7	303.3	3.7498e-05	3.4826e-05	485.92	176.89	209.5	46.814	3.1757e-05	84.027	240.261	-11.021	44.333	-40.354	273.032	14.506	-40.796	-34.035	136.266	5.884	-35.471	-29.684	-27.354	-24.920	15.403	-25.644	-8191	255	
3006.829	1	1	0	0	0.11231	0.19565	0.21358	0.047888	0.28269	0.13144	0.18094	0.31509	0.20403	0.23791	0.15002	0.1112	0.14673	0.039925	0.22338	0.14189	-2.3688	-2.3063	-2.1688	-2.6833	-2.0458	-2.5042	-2.7687	-2.0875	-2.6937	-2.3833	-2.1021	-2.8292	-1.9333	-2.6	-2.5146	-2.175	61.412	159.069	220.737	272.411	288.941	139.726	261.321	12.425	64.883	20.719	222.663	-51.413	274.398	234.500	136.128	-10.486	0.00067401	0.00023636	0.0003791	720.51	7.3674e-06	2.3543e-05	1007.3	198.89	3.0286e-05	6.8337e-06	344.21	129.21	69.768	30.658	1.232e-05	65.787	0.0033856	0.0031192	0.00079568	1001	3.791e-05	3.369e-05	1232.1	316.46	3.7829e-05	3.3834e-05	488.73	184.35	210.38	46.831	3.1536e-05	87.277	235.946	52.805	-2.215	-40.617	151.835	93.577	-40.736	-33.797	41.956	-19.898	-35.385	-29.392	-28.994	-24.606	40.868	-26.030	-8191	255	
3006.901	1	1	0	0	0.13033	0.35323	0.23662	0.19707	0.15933	0.069314	0.14284	0.10846	0.08932	0.096923	0.18826	0.16173	0.17456	0.11624	0.35271	0.22787	-2.3417	-2.3312	-1.9625	-2.6833	-2.0687	-2.4313	-2.9562	-1.9438	-2.6437	-2.3396	-2.1875	-2.8042	-2.1271	-2.4	-2.9292	-1.9604	106.014	123.912	193.580	281.345	227.564	-37.906	67.596	180.836	207.690	123.917	303.314	205.109	118.261	246.228	17.432	-47.432	0.00013752	0.0014984	0.0002502	727.88	2.8632e-05	2.302e-05	1009.5	198.63	3.4827e-05	1.2922e-05	338.1	128.54	68.03	30.196	1.1601e-05	64.886	0.0033348	0.003054	0.00079232	1031.9	3.6958e-05	3.2762e-05	1232.2	325.73	3.6112e-05	3.2996e-05	486.72	187.01	202.8	45.777	3.2215e-05	88.08	53.938	79.430	80.031	-40.606	106.321	58.827	-41.159	-34.158	-10.468	38.040	-34.957	-29.617	-28.291	-24.523	108.908	-26.305	-8191	255	
3007.022	1	1	0	0	0.12793	0.25665	0.2356	0.080803	0.27077	0.17887	0.20447	0.20607	0.11373	0.31149	0.3252	0.22202	0.23589	0.44876	0.12907	0.10591	-2.2792	-2.4437	-1.9875	-2.6667	-2.2375	-2.2333	-2.9	-1.8	-2.5333	-2.7333	-2.1979	-2.7333	-2.1875	-2.2396	-2.6792	-2.0812	137.428	26.476	-45.377	246.505	202.828	88.821	240.854	24.419	292.153	236.904	-39.911	245.103	4.661	283.276	87.606	190.327	0.00039392	0.00088661	0.00087366	736.71	1.2995e-05	2.0423e-05	1012.6	197.49	1.3469e-05	5.2666e-06	335.18	126.19	68.279	29.802	5.2795e-05	64.106	0.0031854	0.002974	0.00081841	1051.9	3.4982e-05	3.1921e-05	1250.1	328.3	3.4188e-05	3.1759e-05	492.59	186.1	193.62	44.598	3.3656e-05	87.035	37.599	144.251	120.607	-40.913	65.552	18.169	-40.653	-34.124	306.428	20.632	-34.921	-29.756	-28.993	-24.327	192.743	-26.150	-8191	255	
3007.118	1	1	0	0	0.11455	0.11455	0.24064	0.024764	0.14578	0.1184	0.19114	0.082477	0.15619	0.2583	0.13418	0.27321	0.085205	0.14056	0.10673	0.036521	-1.8729	-2.5583	-2.1208	-2.7604	-2.4333	-2.1479	-2.9625	-2.375	-2.4396	-2.6021	-2.1688	-2.8667	-2.4208	-2.1896	-2.85	-2.2687	304.568	169.558	220.667	228.504	-20.840	224.702	200.859	104.451	288.625	-22.594	274.959	290.264	-0.677	286.684	187.337	-9.426	0.00045824	0.00027519	0.00072278	747.2	3.0477e-06	2.0747e-05	1027.6	195.93	1.8154e-05	1.7342e-05	330.24	124.54	64.267	28.774	4.1059e-05	63.395	0.003	0.0028743	0.00086853	1059.4	3.3429e-05	3.0893e-05	1286.8	324.4	3.3144e-05	3.1569e-05	506.87	182.9	190.15	43.938	3.6597e-05	85.79	45.377	34.785	141.701	-41.156	-28.292	151.593	-41.029	-34.167	7.746	145.177	-34.552	-30.036	-28.270	-24.537	215.371	-25.906	-8191	255	
3007.214	1	1	0	0	0.21893	0.079369	0.077577	0.037151	0.17789	0.13578	0.19576	0.33647	0.18784	0.21252	0.34677	0.28466	0.17104	0.18511	0.20874	0.17339	-1.8979	-2.6792	-2.0583	-2.7333	-2.45	-2.1979	-3.0167	-2.2542	-2.1937	-2.8625	-2.2438	-2.7146	-2.3729	-2.1937	-2.8563	-2.3896	284.834	17.521	216.708	101.040	289.510	-13.010	217.814	277.227	276.356	139.245	-49.624	238.420	189.713	-38.035	164.203	210.943	0.00026897	0.0018695	0.00083324	753.24	1.013e-05	1.6495e-05	1030.4	197.63	3.3038e-05	4.2243e-06	334.52	125.86	65.28	28.864	1.3918e-05	63.978	0.0029623	0.0028892	0.00094394	1054.5	3.3228e-05	3.168e-05	1318.2	321.75	3.291e-05	3.2572e-05	525.24	181.71	189.74	45.249	3.9019e-05	85.573	263.565	123.876	122.487	-40.912	67.530	249.098	-40.951	-34.537	40.019	198.134	-35.279	-30.074	-27.784	-24.185	306.108	-26.271	-8191	255	
3007.310	1	1	0	0	0.10688	0.096667	0.050245	0.088879	0.21597	0.31436	0.32817	0.27796	0.258	0.14564	0.23716	0.13136	0.26878	0.14219	0.17983	0.11645	-1.975	-2.7104	-2.2167	-2.4896	-2.4292	-2.1188	-2.8312	-2.4313	-2.2896	-2.7208	-1.9854	-2.6083	-2.5896	-2.3312	-2.5583	-2.5104	-22.515	51.387	43.701	252.513	66.151	197.722	239.781	225.815	-3.083	303.720	222.420	236.771	282.533	87.061	45.892	155.912	0.00025705	0.0022872	0.00027516	767.52	6.2213e-07	3.9796e-05	1055.5	197.51	3.8353e-06	2.5042e-05	339.88	124.56	64.786	28.681	1.6093e-05	63.272	0.0029619	0.0030882	0.0010048	1057.8	3.3246e-05	3.435e-05	1362.4	319.11	3.2782e-05	3.5553e-05	536.56	179.13	189.68	46.728	3.9725e-05	84.621	282.198	161.477	188.216	-41.324	167.936	186.100	-41.033	-34.628	266.190	194.792	-35.432	-29.455	-28.794	-23.915	75.690	-26.060	-8191	255	
3007.429	1	1	0	0	0.030623	0.27645	0.25118	0.24025	0.11654	0.20261	0.10771	0.13809	0.25902	0.069693	0.25288	0.19311	0.18726	0.23178	0.01482	0.23906	-1.6063	-2.7667	-2	-2.4021	-2.6417	-1.9604	-2.9125	-2.4062	-1.9542	-2.9083	-2.1333	-2.5542	-2.75	-2.0563	-2.7188	-2.6375	98.260	185.803	33.840	278.267	211.008	198.014	247.856	61.209	-2.920	23.983	240.630	282.857	-23.807	301.335	297.916	167.847	0.00023485	0.0030984	0.0003441	769.54	1.0904e-05	2.9079e-05	1049.5	196.74	6.02e-06	2.7432e-05	337.8	124.21	64.204	28.957	1.657e-05	63.923	0.0029273	0.0033608	0.0010019	1047.7	3.2588e-05	3.692e-05	1338.5	312.91	3.1941e-05	3.729e-05	520.63	175.56	184.15	47.798	3.6848e-05	82.942	234.303	160.937	20.205	-41.545	237.710	205.669	-41.362	-34.796	193.412	153.959	-35.037	-30.597	-27.502	-24.338	51.069	-25.902	-8191	255	
3007.502	1	1	0	0	0.13871	0.046598	0.18541	0.29222	0.28374	0.12096	0.20837	0.038712	0.17396	0.25512	0.1253	0.17205	0.11184	0.25428	0.1028	0.24047	-1.7292	-2.8729	-2.0479	-2.2917	-2.7687	-2.1583	-2.7	-2.6396	-2.1542	-2.7479	-2.4125	-2.3083	-2.7083	-2.2708	-2.4479	-2.6771	142.654	117.770	217.159	241.329	255.036	-10.777	266.363	56.867	11.563	-37.881	152.574	291.891	12.444	249.397	71.377	268.963	0.0011162	0.0022757	0.0006717	750.03	5.4148e-06	2.6962e-05	1030.3	196.14	8.1446e-06	1.7642e-05	334.72	125.67	62.929	29.109	3.6358e-05	63.462	0.0028554	0.0034291	0.00092047	1007.9	3.1885e-05	3.7474e-05	1286.6	303.86	3.1837e-05	3.7691e-05	504.44	173.17	187.42	48.125	3.437e-05	81.923	274.397	159.480	5.039	-41.042	266.031	146.691	-40.931	-34.013	256.422	177.971	-35.555	-30.077	-25.684	-24.761	26.603	-25.981	-8191	255	
3007.621	1	1	0	0	0.15259	0.40777	0.24494	0.13472	0.16912	0.12612	0.1985	0.079958	0.12164	0.053857	0.26939	0.25203	0.11105	0.14442	0.28876	0.27865	-1.7604	-2.825	-2.2229	-2.3854	-2.7375	-2.0896	-2.6	-2.7687	-2.1667	-2.9104	-2.4104	-2.2729	-2.5438	-2.0479	-2.3333	-2.7271	256.560	287.859	130.091	265.607	8.474	42.765	271.971	145.374	226.983	55.449	185.524	-44.108	98.036	282.722	222.030	138.200	0.00062825	0.00059427	0.00084995	756.02	1.0281e-05	1.715e-05	1045	201.54	3.0505e-05	2.0716e-05	344.73	126.46	66.209	29.708	2.6795e-07	64.261	0.0029513	0.0034621	0.00087386	1006.9	3.3737e-05	3.8149e-05	1287.4	305.96	3.4297e-05	3.7891e-05	502.2	173.19	199.29	48.462	3.3245e-05	82.351	217.497	139.101	-24.965	-41.089	221.322	58.307	-41.125	-34.642	203.675	19.476	-35.280	-29.859	-26.418	-24.692	73.266	-26.296	-8191	255	
3007.717	1	1	0	0	0.31932	0.21771	0.2281	0.1204	0.29202	0.15726	0.52392	0.28689	0.19701	0.070688	0.13403	0.36405	0.11173	0.13506	0.28748	0.11329	-1.5688	-2.5542	-2.3396	-2.3458	-2.8438	-2.0187	-2.3854	-2.6646	-1.8687	-2.7062	-2.3625	-2.3583	-2.7521	-2.2458	-2.3083	-2.8125	-48.199	195.661	-32.156	-14.704	-48.741	135.848	231.785	279.665	5.389	80.624	57.049	177.425	39.300	55.340	189.446	244.334	0.0010668	0.002308	0.0002693	768.8	2.6319e-05	9.0394e-06	1061	199.57	1.6154e-05	2.4676e-05	342.83	125.77	64.877	28.75	4.1669e-06	62.819	0.0031736	0.0033607	0.00084738	1012.1	3.6126e-05	3.6635e-05	1285.7	303.59	3.6478e-05	3.6108e-05	495.21	172.38	204.47	46.559	3.1702e-05	81.351	257.324	-7.439	42.047	-41.131	233.621	37.069	-41.234	-34.782	213.421	-34.168	-35.442	-30.206	-26.525	-24.300	289.783	-26.113	-8191	255	
3007.814	1	1	0	0	0.073362	0.18836	0.23378	0.24188	0.15618	0.10158	0.25971	0.28222	0.36709	0.24565	0.19791	0.088051	0.11936	0.15403	0.18832	0.04175	-1.7271	-2.5917	-2.3896	-2.0938	-2.7646	-2.1375	-2.4104	-2.7646	-2.0146	-2.3667	-2.7479	-2.0708	-2.8271	-2.2729	-2.3271	-3.0042	114.639	174.119	35.022	-25.500	170.799	47.154	302.349	277.323	22.862	189.605	209.657	52.720	267.045	262.911	224.123	-7.559	0.0010218	0.0021439	0.0002014	765.16	2.5402e-05	2.0313e-05	1045.4	195.01	7.4724e-06	3.5977e-05	337.24	124.02	65.916	28.726	5.567e-06	62.476	0.003297	0.0031343	0.00080607	1007.7	3.6615e-05	3.4044e-05	1254.2	302.75	3.669e-05	3.3413e-05	481.29	172.97	205.59	45.05	3.083e-05	82.293	255.301	-10.002	300.042	-40.923	251.376	16.942	-41.258	-34.218	148.836	15.822	-35.628	-29.846	-28.533	-24.905	19.391	-25.597	-8191	255	
3007.910	1	1	0	0	0.21523	0.20913	0.18195	0.042823	0.042767	0.2217	0.2037	0.10273	0.089168	0.15919	0.19539	0.2896	0.12805	0.31504	0.22623	0.36107	-1.8	-2.5917	-2.575	-2.2313	-2.7125	-2.425	-2.3917	-2.8125	-2.0917	-2.7042	-2.8187	-2.2396	-2.6417	-2.3104	-2.0833	-3.0417	222.920	39.071	255.126	-26.987	-5.662	133.391	106.197	-23.120	69.522	43.684	235.397	204.474	256.918	-8.022	-42.070	173.537	0.00033325	0.0018656	0.00042636	747.51	5.6363e-06	1.0016e-05	1038.5	193.45	1.9908e-05	1.1414e-05	335.16	124.06	66.174	28.737	1.1342e-05	62.625	0.0033499	0.0029957	0.0007844	1025.7	3.6759e-05	3.2912e-05	1244.5	312.42	3.6721e-05	3.242e-05	478.69	178.01	201.66	44.394	3.0211e-05	84.035	-43.256	33.782	246.329	-40.912	157.742	40.959	-41.284	-34.395	57.459	299.053	-35.289	-29.835	-28.648	-24.063	202.291	-25.908	-8191	255	
3008.030	1	1	0	0	0.18274	0.076446	0.25086	0.16069	0.11893	0.1771	0.29357	0.1143	0.36525	0.18926	0.061372	0.39377	0.078591	0.18861	0.05516	0.19048	-1.8792	-2.4479	-2.6208	-2.1542	-2.6875	-2.4583	-2.0792	-2.9208	-2.0833	-2.3917	-2.7896	-2.175	-2.6792	-2.625	-2.0062	-2.9229	38.002	207.370	144.159	65.663	-26.821	104.946	208.962	22.191	178.516	48.083	302.002	208.892	-5.593	-22.054	58.444	273.865	6.7318e-05	0.0010983	0.00029673	746.02	2.4173e-05	3.656e-06	1034.8	195.35	1.798e-05	1.1371e-05	335.02	124.15	66.972	28.887	1.7268e-05	63.428	0.0032084	0.0029072	0.00077575	1046.1	3.5212e-05	3.1806e-05	1246.4	320.91	3.4776e-05	3.1346e-05	481.02	182.02	194.02	43.954	3.0977e-05	85.681	295.580	34.558	207.606	-40.815	81.448	-14.519	-41.373	-34.147	76.999	-14.635	-35.357	-29.751	-30.275	-24.398	212.474	-26.141	-8191	255	
3008.127	1	1	0	0	0.097323	0.20636	0.05094	0.16644	0.32148	0.28044	0.20183	0.081454	0.12184	0.11088	0.049856	0.30917	0.35825	0.32114	0.026814	0.32109	-1.9312	-2.2938	-2.6937	-2.0854	-2.5958	-2.55	-2.1583	-2.9604	-2.2812	-2.2208	-2.9229	-2.1042	-2.6167	-2.5271	-2.1562	-2.8104	145.311	183.158	36.794	254.454	59.797	-21.021	32.499	199.278	284.248	262.222	-37.485	8.992	274.284	105.220	20.193	183.970	0.00028373	0.00035284	0.00059261	750.05	1.5421e-05	2.8832e-06	1021.9	198.54	2.203e-05	2.8251e-05	336.59	127.45	67.581	29.737	2.6006e-05	65.309	0.003058	0.0028099	0.00080673	1052.7	3.3182e-05	3.0963e-05	1250.7	323.71	3.304e-05	3.0215e-05	492.07	184.31	186.1	44.145	3.2775e-05	86.808	132.317	-4.367	122.642	-41.196	103.393	64.572	-40.983	-34.439	27.414	-0.879	-35.019	-29.998	-28.875	-24.411	185.353	-26.123	-8191	255	
3008.198	1	1	0	0	0.40494	0.33901	0.049047	0.17437	0.087017	0.0090677	0.073483	0.058615	0.10263	0.1545	0.011079	0.32021	0.18558	0.087065	0.035344	0.16755	-1.9396	-2.2625	-2.775	-2.3333	-2.4562	-2.7667	-2.1188	-2.6729	-2.3708	-2.3021	-2.8583	-2.1271	-2.6063	-2.6792	-2.0312	-2.8979	92.189	182.982	26.103	2.505	51.461	-29.139	15.754	44.837	51.120	301.782	12.019	192.459	76.680	293.554	14.621	284.286	0.00036816	0.00054716	0.00051754	726.09	9.6965e-06	1.7506e-05	994.46	199.15	1.6941e-05	6.8002e-06	339.14	128.14	66.692	29.685	1.4853e-05	66.232	0.002894	0.0027053	0.0008496	1020.6	3.1387e-05	2.9886e-05	1245.1	318.11	3.164e-05	2.9501e-05	505.46	182.37	181.82	44.117	3.4828e-05	85.77	-27.380	80.317	106.251	-41.061	97.315	34.438	-41.231	-34.709	94.348	33.503	-34.789	-30.250	-28.999	-24.582	136.801	-26.100	-8191	255	
3008.317	1	1	0	0	0.081742	0.12728	0.12386	0.027672	0.078962	0.051369	0.063357	0.2489	0.11679	0.053207	0.22837	0.26393	0.20034	0.071953	0.26141	0.098739	-2.1125	-1.9562	-2.6458	-2.175	-2.2979	-2.5812	-2.0875	-2.7208	-2.4813	-1.9062	-2.8063	-2.5104	-2.2479	-2.9396	-2.1042	-2.7021	7.631	262.467	31.060	221.282	150.525	211.075	274.260	-44.752	7.012	176.941	303.714	-44.077	47.049	93.705	133.426	-37.854	0.00024486	0.0013795	0.00025422	718.85	1.3144e-05	1.3359e-05	987.1	197.3	1.4347e-05	1.9881e-05	336.24	127.74	67.894	29.243	1.4537e-05	64.705	0.0028158	0.0027023	0.00089838	994.05	3.0486e-05	3.0062e-05	1250.9	307.33	3.0455e-05	2.9964e-05	508.9	177.17	176.45	44.09	3.5404e-05	82.844	38.955	138.699	128.967	-41.001	236.800	121.629	-40.953	-34.854	306.901	149.659	-35.120	-29.970	-28.326	-24.339	174.943	-26.672	-8191	255	
3008.413	1	1	0	0	0.027377	0.057542	0.068599	0.27213	0.24432	0.073179	0.042283	0.19906	0.26955	0.17526	0.33122	0.15615	0.2011	0.12608	0.39316	0.17204	-2.0917	-2.1458	-2.7125	-2.3521	-2.025	-2.8042	-2.2833	-2.7542	-2.6562	-2.0896	-2.8563	-2.4125	-2.1104	-2.8958	-2.0042	-2.6417	107.842	134.853	9.520	274.249	251.733	10.350	272.666	284.997	114.488	-9.011	246.171	53.577	260.753	212.515	29.858	269.074	0.00058289	0.002229	0.00053554	724.99	6.73e-06	1.6173e-05	997.78	198.35	5.1394e-07	2.7984e-05	339.37	126.75	67.093	28.913	8.8843e-06	63.893	0.0026837	0.0028073	0.00090582	980.17	2.9418e-05	3.1565e-05	1260.6	302.21	2.9605e-05	3.1836e-05	509.4	173.93	172.59	45.185	3.5286e-05	81.538	43.566	137.257	1.546	-40.984	182.631	187.515	-40.838	-34.773	87.267	177.045	-35.430	-30.198	-27.494	-23.890	-0.445	-26.129	-8191	255	
3008.509	1	1	0	0	0.057095	0.17106	0.16788	0.10453	0.29128	0.18631	0.030396	0.19004	0.0097745	0.25026	0.34013	0.22931	0.1646	0.21379	0.20934	0.36953	-2.2604	-2.0687	-2.5104	-2.4583	-2.2042	-2.9167	-2.3875	-2.3708	-2.6604	-1.975	-2.6104	-2.5563	-2.1333	-2.8812	-2.1271	-2.4083	175.397	180.132	157.200	-48.139	142.918	199.519	193.463	180.432	-15.572	129.522	44.149	279.119	6.360	-7.480	27.754	280.808	0.00044548	0.0040451	0.00032438	717.49	6.3206e-06	2.8047e-05	990.92	196.14	1.4719e-05	3.364e-05	341.45	126.83	64.532	29.38	2.2786e-05	65.249	0.0026374	0.0030364	0.00088555	966.9	2.8981e-05	3.39e-05	1246.5	296.68	2.9339e-05	3.4172e-05	498.7	172.46	172.81	46.489	3.3538e-05	81.307	242.799	166.720	304.814	-40.793	222.350	219.029	-41.066	-34.317	83.332	185.229	-35.335	-29.903	-27.660	-24.008	27.348	-26.506	-8191	255	
3008.606	1	1	0	0	0.12059	0.092169	0.39193	0.12442	0.27234	0.064067	0.11399	0.12083	0.098904	0.074491	0.26071	0.12325	0.14942	0.14839	0.19575	0.15946	-2.4229	-1.9542	-2.5021	-2.5125	-2.0125	-2.7542	-2.4646	-2.3312	-2.8042	-2.0375	-2.5563	-2.6792	-2.2583	-2.7792	-2.3167	-2.2333	78.075	175.807	117.098	-8.541	-36.160	217.934	247.173	291.198	106.035	231.759	-40.258	203.464	-7.323	254.888	47.691	222.473	0.0011579	0.001808	0.00054349	704.89	9.7249e-06	8.2927e-06	985.93	195.97	3.6843e-05	3.6026e-06	341.23	127.69	65.63	29.464	1.9393e-05	65.088	0.0026485	0.0031615	0.00082995	945.25	2.9274e-05	3.4867e-05	1216.2	291.33	3.0063e-05	3.5168e-05	486.73	170.91	177.88	46.927	3.1462e-05	80.642	269.433	191.707	-20.260	-40.889	275.239	279.190	-40.782	-34.467	229.114	96.474	-35.205	-30.340	-27.527	-24.361	8.524	-26.200	-8191	255	
3008.726	1	1	0	0	0.1103	0.13269	0.037858	0.17148	0.15917	0.053637	0.081983	0.12621	0.11842	0.091786	0.11609	0.27553	0.085338	0.22359	0.16601	0.067385	-2.4021	-2.0479	-2.4146	-2.7521	-2.1688	-2.6562	-2.5625	-2.2083	-2.8229	-2.1896	-2.625	-2.8458	-2.2271	-2.7938	-2.4208	-2.2562	99.199	271.022	-39.763	140.211	87.732	12.070	287.156	-14.731	182.798	200.342	278.088	292.634	-39.604	192.351	-34.748	-21.067	0.00092011	0.0010249	0.00050586	700.65	2.5496e-05	3.1969e-05	984.75	194.5	3.5061e-05	1.1241e-05	335.84	126.17	64.015	29.107	1.915e-06	63.228	0.0027725	0.0031932	0.00078801	933.07	3.1384e-05	3.4887e-05	1203.2	288.84	3.2265e-05	3.4986e-05	477.75	168.99	188.63	46.097	3.1214e-05	79.193	271.590	74.905	2.872	-40.980	288.451	24.703	-40.781	-34.111	182.090	42.718	-35.313	-29.679	-26.201	-24.892	210.174	-26.253	-8191	255	
3008.798	1	1	0	0	0.14579	0.12476	0.054518	0.12197	0.25465	0.13783	0.20123	0.16691	0.037111	0.14608	0.26981	0.061134	0.14436	0.27111	0.14414	0.1753	-2.5208	-2.1542	-2.4062	-2.6604	-2.1292	-2.6854	-2.6208	-2.3438	-2.7167	-2.15	-2.1937	-2.6854	-2.1021	-2.8	-2.525	-2.1375	55.614	32.160	86.838	275.391	60.347	96.833	255.261	261.601	188.990	297.686	-29.984	64.735	18.349	276.611	49.684	-37.564	0.0012991	0.0014686	0.00027669	730.89	2.8281e-05	2.6798e-05	1011.7	190.57	1.2374e-05	2.4082e-05	334.54	121.49	64.446	28.263	1.4115e-05	61.932	0.0030611	0.0031844	0.00078529	966.19	3.4707e-05	3.4421e-05	1231.5	290.93	3.5357e-05	3.4454e-05	475.62	168.15	198.68	44.786	3.1063e-05	79.449	256.334	-1.104	0.359	-41.359	256.546	3.964	-41.191	-35.178	242.733	11.882	-35.539	-29.993	-28.278	-25.360	-45.860	-26.169	-8191	255	
3008.894	1	1	0	0	0.10342	0.028395	0.16345	0.26336	0.088598	0.099746	0.25392	0.042498	0.21066	0.19199	0.14512	0.081755	0.23326	0.34716	0.10762	0.089016	-2.5542	-2.1833	-2.3896	-2.7938	-2.0187	-2.4188	-2.8	-2.1937	-2.7354	-2.3396	-2.3312	-2.8125	-2.1083	-2.4521	-2.6542	-2.0854	42.098	263.515	52.416	229.397	77.981	131.803	208.506	79.234	257.281	238.021	267.840	285.732	2.644	243.245	-18.655	218.380	0.0003801	0.0026004	0.00036645	729.33	1.8172e-05	1.8791e-05	1020.3	193.1	1.4315e-05	1.2941e-05	335.22	122.44	64.215	28.054	3.4941e-06	61.88	0.0032275	0.0030531	0.00077007	981.1	3.6108e-05	3.281e-05	1227.3	297.62	3.6049e-05	3.2603e-05	471.11	171.91	200.6	43.549	3.0162e-05	80.997	298.935	-22.923	-21.789	-41.046	227.881	92.318	-41.199	-34.767	136.674	5.511	-35.371	-29.864	-28.567	-24.763	14.790	-26.453	-8191	255	
3008.990	1	1	0	0	0.32356	0.29373	0.17573	0.23735	0.079416	0.18745	0.093531	0.059122	0.053942	0.1051	0.20465	0.27692	0.18966	0.24035	0.050939	0.10921	-2.2562	-2.3563	-2.1896	-2.8187	-2.2354	-2.375	-2.7833	-2.1708	-2.5792	-2.2062	-2.2562	-2.6333	-1.9521	-2.3458	-2.6354	-2.2208	171.600	23.867	179.717	270.527	134.159	246.116	-9.505	34.133	280.441	194.268	289.901	5.079	141.732	-28.411	189.200	49.792	0.00025405	0.0018677	0.00034132	727.43	6.5411e-06	1.0187e-05	1006.3	190.39	2.8345e-05	2.2605e-05	332.51	122.73	64.45	28.11	2.4113e-05	62.223	0.0032197	0.0029138	0.00075066	1001.6	3.5565e-05	3.1333e-05	1216.1	305.19	3.4803e-05	3.1201e-05	465.9	175.82	193.24	42.587	2.9263e-05	82.719	91.029	53.578	77.716	-40.696	131.580	18.315	-41.160	-34.078	47.455	8.133	-35.733	-29.917	-29.119	-24.883	270.403	-26.429	-8191	255	
3009.111	1	1	0	0	0.25403	0.15676	0.13286	0.057273	0.25834	0.26839	0.10299	0.11554	0.16057	0.090242	0.12669	0.152	0.050214	0.15783	0.028286	0.17647	-2.2	-2.3271	-1.9042	-2.8812	-2.1	-2.3583	-2.7583	-2.0563	-2.5771	-2.4396	-2.1479	-2.8063	-2.25	-2.1917	-2.7667	-2.15	242.542	-42.013	75.235	184.961	154.242	283.212	185.768	160.794	12.432	56.752	84.250	30.599	134.048	291.576	-35.520	198.452	3.6858e-05	0.00029388	0.00019709	717.5	2.0137e-05	3.571e-05	999.45	191.07	1.5063e-05	8.7124e-06	330.73	122.48	63.68	27.57	2.7452e-05	61.994	0.0030125	0.0027774	0.00073583	1005.9	3.3265e-05	2.9673e-05	1201.8	309.35	3.2341e-05	2.9671e-05	465.9	176.67	182.91	41.589	2.9762e-05	82.746	31.489	78.840	91.249	-40.827	66.485	-13.668	-41.071	-34.037	-9.932	201.115	-35.310	-29.872	-30.549	-25.216	184.605	-25.957	-8191	255	
3009.207	1	1	0	0	0.21033	0.084306	0.18997	0.10864	0.18863	0.20706	0.23087	0.25582	0.21665	0.098289	0.123	0.25032	0.1548	0.26555	0.12275	0.16651	-2.1104	-2.2313	-2.0604	-2.8708	-2.3521	-2.2396	-2.8229	-2.1083	-2.5625	-2.4604	-1.9688	-2.6896	-2.2542	-2.3083	-2.8146	-2.0687	214.777	285.053	5.495	179.874	13.295	219.025	181.379	301.576	-13.300	28.187	62.141	97.225	83.352	188.820	-12.506	-19.121	0.00048355	0.0016128	0.00064631	724.44	1.9658e-05	9.1305e-06	999.84	192.53	1.5658e-05	9.4967e-06	330.43	123.61	64.214	27.586	2.0234e-05	61.506	0.0028083	0.0026514	0.00075931	1006.9	3.0973e-05	2.8333e-05	1215.2	310.44	3.0471e-05	2.8705e-05	478.54	176.5	177.96	41.144	3.1863e-05	82.113	70.231	21.438	161.097	-40.860	79.499	153.175	-40.929	-34.186	92.719	3.150	-35.211	-30.137	-28.857	-24.923	181.900	-26.422	-8191	255	
3009.303	1	1	0	0	0.24435	0.10143	0.32209	0.27515	0.070937	0.17299	0.27352	0.090489	0.19951	0.074012	0.18922	0.088103	0.079224	0.1989	0.34679	0.21818	-1.8167	-2.6479	-2.0083	-2.9	-2.3979	-2.2729	-2.9896	-2.2229	-2.4729	-2.5312	-1.8625	-2.7417	-2.3729	-2.0604	-2.7354	-2.2333	289.957	213.009	69.454	-28.289	225.224	222.776	-50.055	280.884	-44.368	135.223	157.252	285.537	209.615	-1.197	167.527	190.338	0.00019972	0.00051933	0.0010014	740.59	1.3057e-05	6.215e-06	1011.5	194.39	7.9734e-06	1.3365e-05	331.99	123.81	64.755	27.643	1.4942e-05	62.015	0.0027157	0.0026101	0.00082424	1016.2	3.0291e-05	2.832e-05	1256	307.42	2.9796e-05	2.8628e-05	493.39	173.78	174.29	41.301	3.3813e-05	81.052	199.501	65.439	114.301	-41.032	63.034	195.127	-40.964	-34.516	156.088	177.616	-34.959	-30.021	-29.085	-24.528	172.098	-26.394	-8191	255	
3009.397	1	1	0	0	0.29623	0.19746	0.027211	0.19563	0.045599	0.25562	0.34371	0.32567	0.082623	0.17628	0.10904	0.4478	0.086343	0.18138	0.066706	0.13942	-1.8	-2.7521	-1.8667	-2.5979	-2.625	-1.9958	-2.7938	-2.2208	-2.3958	-2.8	-2.1292	-2.7104	-2.5854	-1.9604	-2.6312	-2.4688	241.114	299.382	115.528	-8.832	-14.008	173.120	215.630	-20.684	129.100	20.940	-19.988	281.123	2.311	-23.513	247.662	270.218	0.00014221	0.00097504	0.00063286	729.66	1.1293e-05	1.1661e-05	1006.5	194.67	1.9933e-05	9.0886e-06	334.56	125.45	65.499	28.318	1.7985e-05	63.147	0.0026262	0.0026294	0.00086672	985.59	2.9309e-05	2.8712e-05	1255.4	300.1	2.863e-05	2.9497e-05	500.54	171.06	171.32	42.558	3.4367e-05	80.765	164.957	152.105	180.498	-41.388	182.588	233.690	-41.073	-34.615	-44.372	134.466	-35.367	-30.052	-28.531	-23.765	145.483	-26.389	-8191	255	
3009.494	1	1	0	0	0.15031	0.24223	0.21523	0.13193	0.12772	0.17052	0.34803	0.34	0.11677	0.15389	0.17106	0.42722	0.18526	0.31488	0.12514	0.37426	-1.7021	-2.8937	-2.0062	-2.5854	-2.6437	-2.1854	-2.7021	-2.4146	-2.1792	-2.8125	-2.2333	-2.3521	-2.775	-2.1271	-2.8042	-2.3583	100.271	110.289	83.124	276.815	30.151	82.906	199.904	264.330	-0.532	106.960	209.098	-23.090	30.871	282.292	-2.355	294.237	0.00025871	0.0021921	0.00041314	731.62	9.9417e-06	3.3873e-05	1014.3	196.91	6.8917e-06	2.2177e-05	335.96	125.26	65.104	28.043	1.5446e-05	62.502	0.0025447	0.0027776	0.0008714	968.82	2.8519e-05	3.0714e-05	1259	296.59	2.7935e-05	3.1548e-05	498.99	169.27	169.16	43.83	3.3712e-05	79.314	-46.418	163.754	132.656	-41.332	149.441	180.300	-41.227	-34.666	149.925	173.658	-35.229	-29.881	-28.730	-24.214	16.123	-26.300	-8191	255	
3009.592	1	1	0	0	0.17882	0.21391	0.093495	0.10944	0.083763	0.33032	0.036755	0.30103	0.23377	0.10225	0.14112	0.098367	0.10142	0.064777	0.17633	0.24296	-1.725	-2.7438	-2.1542	-2.4688	-2.5979	-2.0979	-2.7354	-2.6	-2.0354	-2.8167	-2.3854	-2.3417	-2.8042	-2.1146	-2.6542	-2.55	176.797	97.966	50.243	-48.393	62.575	136.157	-40.584	15.374	210.304	48.691	265.260	161.933	-29.308	15.587	13.547	197.954	0.00021457	0.0029708	0.00058121	739.79	6.4539e-06	1.9572e-05	1032.4	195.03	1.5521e-05	2.0093e-05	334.42	122.15	62.768	26.988	3.0152e-05	60.93	0.0025402	0.0030253	0.00086263	978.52	2.897e-05	3.3745e-05	1271.7	296.17	2.8952e-05	3.4519e-05	494.55	166.5	173.01	44.578	3.2932e-05	77.6	256.592	148.040	21.300	-41.251	191.221	211.776	-40.914	-34.680	161.233	174.970	-35.474	-29.924	-29.037	-24.549	-4.810	-26.384	-8191	255	
3009.710	1	1	0	0	0.16361	0.063332	0.34	0.19503	0.34711	0.13162	0.081475	0.25151	0.13539	0.069406	0.15599	0.34981	0.11637	0.22338	0.067336	0.26411	-1.6167	-2.8021	-2.2562	-2.1958	-2.7208	-1.9813	-2.6417	-2.5146	-2.1042	-2.8312	-2.3333	-2.1896	-2.7729	-2.2542	-2.3396	-2.7125	302.316	258.449	173.019	-2.419	-26.663	186.652	203.384	297.136	110.282	60.528	229.023	-40.773	140.624	256.501	167.363	200.602	0.00092682	0.00040517	0.00043352	750.9	1.6152e-05	1.161e-05	1044.6	193.24	2.4571e-05	1.4336e-05	333.8	121.17	62.382	27.449	2.9964e-05	61.077	0.0026688	0.0032119	0.00083295	986.32	3.0258e-05	3.5386e-05	1264.2	292.2	3.0568e-05	3.5687e-05	485.72	165.2	182.09	45.604	3.1911e-05	78.139	262.744	214.001	-50.845	-41.064	257.134	18.114	-41.428	-34.793	208.743	109.869	-35.649	-30.635	-25.179	-24.923	36.771	-26.283	-8191	255	
3009.807	1	1	0	0	0.18868	0.17354	0.43032	0.068677	0.058943	0.21213	0.015756	0.17938	0.12093	0.24431	0.26248	0.18188	0.19478	0.14392	0.21597	0.14871	-1.6021	-2.5354	-2.1542	-2.1625	-2.6396	-2.1562	-2.5104	-2.4667	-2.0229	-2.8146	-2.3375	-2.0938	-2.7771	-2.1417	-2.2667	-2.7896	-47.155	38.131	272.291	277.536	148.389	118.327	241.405	280.832	275.293	-4.092	293.771	303.172	59.567	279.901	109.884	245.670	0.0011446	0.00071619	0.00018736	753.77	2.1059e-05	7.7511e-06	1035	192.73	2.7585e-05	2.4006e-05	333.96	122.02	62.643	27.853	1.4968e-05	61.43	0.0028919	0.0032576	0.0008092	980.41	3.2881e-05	3.5478e-05	1250.9	291.86	3.3218e-05	3.5077e-05	480.54	165.48	192.36	45.166	3.0995e-05	78.688	254.086	296.487	-25.227	-41.517	274.848	209.020	-41.334	-34.965	178.253	-11.630	-35.318	-30.191	-25.830	-25.430	71.419	-26.105	-8191	255	
3009.903	1	1	0	0	0.1577	0.10525	0.20699	0.24784	0.17113	0.12698	0.15589	0.19253	0.13231	0.23041	0.24828	0.28374	0.36506	0.2228	0.21131	0.11963	-1.7667	-2.5687	-2.5083	-2.0312	-2.9229	-2.1604	-2.4146	-2.6833	-2.1583	-2.5687	-2.6354	-2.025	-2.8063	-2.3771	-2.3583	-2.8125	219.267	206.513	257.077	264.496	301.838	241.497	259.626	256.108	250.010	51.548	-12.065	259.712	163.732	5.760	109.663	243.256	0.00089959	0.0015815	0.00028396	762.69	6.0073e-06	2.3911e-05	1052.7	193.6	7.2639e-06	1.086e-05	330.88	119.75	61.16	27.037	2.5616e-06	60.11	0.0031223	0.0031539	0.00079916	993.7	3.5436e-05	3.4437e-05	1262.5	296.08	3.6017e-05	3.4164e-05	478.13	166.83	200.67	43.63	3.0372e-05	78.277	286.747	-3.711	-11.206	-41.481	-23.321	46.792	-41.427	-34.950	296.269	21.349	-35.551	-29.834	-26.473	-24.598	81.510	-25.881	-8191	255	
3010.023	1	1	0	0	0.12613	0.16952	0.12975	0.11755	0.034236	0.075389	0.23916	0.1271	0.03609	0.10195	0.12478	0.21379	0.25123	0.1756	0.11661	0.32745	-1.8021	-2.4667	-2.3146	-2.0375	-2.7896	-2.3771	-2.2833	-2.7896	-1.8312	-2.4396	-2.6063	-2.0354	-2.5854	-2.4313	-2.1521	-2.8187	172.273	134.594	13.215	-23.203	143.813	92.045	-35.799	77.386	4.396	49.024	291.055	222.751	271.281	280.113	105.652	227.984	0.00035674	0.0020289	0.00043835	759.2	1.804e-05	8.3348e-06	1042.5	191.43	5.9555e-06	3.956e-06	329.49	119.82	63.421	27.24	8.7586e-06	60.364	0.0031847	0.0029058	0.00074367	993.15	3.3757e-05	3.0119e-05	1211.9	288.61	3.2429e-05	2.8678e-05	450.19	163.31	181.5	40.614	2.5969e-05	76.939	214.572	-15.394	219.658	-40.949	50.452	25.870	-41.244	-34.465	1.791	52.382	-35.758	-29.597	-28.201	-24.329	120.169	-26.153	-8191	255	
3010.095	1	1	0	0	0.26278	0.091337	0.2668	0.2679	0.11568	0.19774	0.28153	0.082923	0.088631	0.17849	0.39386	0.25559	0.13148	0.085983	0.1935	0.18408	-1.7396	-2.4042	-2.6458	-1.9854	-2.6917	-2.5708	-2.1896	-2.8854	-2.0583	-2.5875	-2.7667	-1.9562	-2.6229	-2.4396	-2.1479	-2.8521	264.630	-50.481	-5.483	235.687	255.692	182.928	252.877	259.167	-7.250	185.070	251.399	-5.142	269.872	132.023	13.665	220.895	0.00022472	0.0015397	7.1777e-05	730.46	6.6786e-06	1.3475e-05	1005.8	192.09	1.8178e-06	1.4074e-05	332.52	122.63	65.759	28.1	5.2472e-06	62.093	0.0028046	0.0025075	0.00066208	962.26	3.0757e-05	2.7656e-05	1175.6	293.2	3.0774e-05	2.7609e-05	451.18	169.54	179.57	41.473	2.6807e-05	80.986	22.575	158.920	130.104	-40.923	103.194	306.452	-41.169	-33.772	232.338	18.798	-35.377	-29.685	-28.855	-24.580	20.621	-25.858	-8191	255	
3010.191	1	1	0	0	0.084842	0.18522	0.2221	0.30926	0.029011	0.19821	0.39314	0.22189	0.095919	0.15132	0.032461	0.28614	0.21522	0.14676	0.39	0.19157	-1.7792	-2.4646	-2.5208	-2.0729	-2.3229	-2.6437	-2.0979	-2.6104	-2.2375	-2.3812	-2.7021	-2.3063	-2.6063	-2.6312	-1.9792	-2.8146	222.082	193.112	263.272	254.829	125.728	-20.526	219.352	140.330	-28.857	26.553	266.314	117.069	248.276	284.985	154.241	267.776	3.1677e-05	0.001265	0.00024384	748.39	1.1852e-05	5.3475e-06	1029.6	197.78	2.2029e-05	2.1864e-05	336.72	124.69	65.836	28.568	1.9381e-05	63.133	0.0027896	0.0025418	0.00070051	1008.7	3.0586e-05	2.812e-05	1212.8	308.35	3.0641e-05	2.8065e-05	470.22	176.82	180.29	42.227	2.996e-05	83.894	119.728	9.043	-48.980	-41.128	188.702	59.757	-41.083	-34.396	47.950	-6.846	-35.439	-29.858	-28.835	-24.462	191.486	-26.173	-8191	255	
3010.287	1	1	0	0	0.13419	0.20642	0.32699	0.27359	0.085889	0.052956	0.27766	0.15523	0.11775	0.41897	0.20255	0.072542	0.31637	0.18313	0.13814	0.076674	-1.6583	-2.0938	-2.6688	-2.1813	-2.4708	-2.5896	-2.2167	-2.7167	-2.2979	-2.1583	-2.8688	-2.1854	-2.3396	-2.6625	-2.1312	-2.6125	37.259	256.651	61.626	220.430	38.101	271.300	43.670	292.389	215.696	87.599	-4.224	262.877	6.883	-38.507	157.903	167.584	9.4894e-05	0.00099996	0.00077921	776.71	8.4853e-06	2.326e-05	1047.5	201.4	2.143e-05	1.8576e-05	337.24	125.62	66.564	28.838	1.8296e-05	63.936	0.0028359	0.0026519	0.00080327	1064.5	3.1735e-05	2.9908e-05	1280.6	322.8	3.197e-05	2.9624e-05	500.44	182.06	184.78	43.422	3.4067e-05	85.316	171.246	84.203	155.636	-41.158	107.282	59.216	-41.135	-34.735	85.196	48.409	-35.098	-29.947	-28.537	-23.801	235.435	-26.312	-8191	255	
3010.406	1	1	0	0	0.18529	0.14123	0.1231	0.15959	0.20974	0.15212	0.19712	0.48768	0.042712	0.10331	0.097941	0.11791	0.11851	0.26913	0.11041	0.1247	-2.1396	-1.9813	-2.7083	-2.2125	-2.4646	-2.6417	-2.0792	-2.6333	-2.4479	-2.0625	-2.7771	-2.0563	-2.3333	-2.8438	-1.9167	-2.6188	160.495	220.003	84.163	106.313	234.021	20.825	240.578	298.551	173.246	41.567	262.772	230.499	276.371	304.743	289.377	202.027	0.00019873	0.0010554	0.00011495	762.75	5.1312e-06	1.3306e-05	1037.5	200.86	7.4831e-06	1.0871e-05	338.98	125.68	66.177	29.059	5.0514e-06	63.823	0.0028737	0.0027252	0.00088659	1051.8	3.147e-05	3.0265e-05	1295.4	319.3	3.1638e-05	3.0325e-05	515.05	180.05	182.79	44.041	3.654e-05	84.146	184.184	-2.406	226.134	-41.156	50.021	136.279	-40.594	-34.844	50.563	164.010	-35.412	-29.940	-26.437	-24.571	201.206	-26.498	-8191	255	
3010.502	1	1	0	0	0.015305	0.10843	0.17101	0.10892	0.068412	0.23538	0.060511	0.14451	0.23826	0.28847	0.11893	0.13821	0.056821	0.2071	0.417	0.048601	-2.1979	-1.9104	-2.7167	-2.225	-2.1792	-2.9562	-2.2979	-2.6417	-2.5896	-1.9208	-2.8583	-2.3438	-2.0938	-2.6312	-1.9104	-2.3708	297.792	265.248	93.273	275.693	155.652	223.644	279.363	165.930	156.816	218.752	37.929	210.425	273.641	-0.504	51.481	-51.441	8.9926e-05	0.00043541	0.0001306	764.59	2.0879e-05	2.7042e-05	1043	200.24	2.4715e-06	3.2078e-05	336.34	125.8	66.805	29.01	1.6521e-05	63.717	0.0028502	0.0028412	0.00094538	1041.3	3.1193e-05	3.208e-05	1321.4	314.47	3.1553e-05	3.2711e-05	524.52	178.08	182.79	45.894	3.8013e-05	83.469	44.807	106.420	54.579	-41.145	82.492	183.434	-40.990	-34.537	42.776	163.441	-35.146	-30.258	-29.119	-24.356	248.197	-25.997	-8191	255	
3010.598	1	1	0	0	0.065764	0.21629	0.064678	0.1837	0.074973	0.067891	0.27407	0.30276	0.034646	0.077741	0.18238	0.12634	0.12896	0.23657	0.21681	0.14978	-2.2062	-1.8979	-2.7083	-2.4104	-2.1458	-2.7229	-2.1437	-2.3312	-2.5125	-2.0333	-2.7167	-2.3583	-2.0792	-2.8896	-2.3354	-2.2583	229.885	-16.440	-49.750	286.663	50.149	240.779	223.586	279.980	268.276	255.103	45.491	228.228	23.429	288.341	70.823	220.871	0.00014525	0.0035845	0.00029007	763.52	1.6403e-05	1.9627e-05	1050.5	201.44	1.1499e-05	1.8098e-05	341.53	127.34	68.257	29.867	9.6235e-06	65.084	0.0028611	0.0031429	0.00097062	1040.1	3.1345e-05	3.5492e-05	1331.6	313.75	3.1668e-05	3.581e-05	524.61	177.95	182.6	47.96	3.6858e-05	83.867	102.354	162.267	47.638	-40.826	41.398	234.036	-41.047	-34.758	146.377	157.762	-35.625	-29.914	-27.516	-24.241	-44.789	-26.318	-8191	255	
3010.672	1	1	0	0	0.31621	0.16007	0.046376	0.26855	0.080487	0.12185	0.20099	0.24653	0.18556	0.26023	0.066352	0.2254	0.15637	0.12924	0.097291	0.10561	-2.3854	-1.9479	-2.7062	-2.3979	-1.9979	-2.6604	-2.2021	-2.2979	-2.7375	-1.9771	-2.6271	-2.5479	-2.1458	-2.8688	-2.4229	-2.3167	159.528	189.220	248.589	42.753	6.313	113.268	227.488	-32.140	140.950	163.279	289.612	172.586	270.599	272.252	111.852	168.771	0.0011548	0.0030448	0.00086966	751.64	8.1879e-06	2.1153e-05	1034.7	205.95	1.9963e-05	3.3758e-05	355.34	132.51	69.695	31.336	1.4763e-05	67.623	0.0028279	0.0033643	0.00092915	1018.8	3.1446e-05	3.7592e-05	1303.3	314.08	3.233e-05	3.7987e-05	523.3	181.14	190.97	50.693	3.5884e-05	85.979	241.564	140.487	-7.715	-41.199	-47.150	194.305	-41.070	-34.552	225.937	140.203	-35.417	-30.023	-27.164	-24.299	93.102	-26.254	-8191	255	
3010.791	1	1	0	0	0.13196	0.1883	0.17978	0.31344	0.0901	0.13328	0.096433	0.38822	0.18466	0.15592	0.14667	0.070793	0.11857	0.21626	0.13248	0.16222	-2.4292	-1.8271	-2.6417	-2.5687	-2.2438	-2.8208	-2.4458	-2.2625	-2.8229	-2.0208	-2.3771	-2.5771	-2.1521	-2.85	-2.3167	-2.3354	-22.339	150.898	192.636	198.091	45.774	273.786	-27.984	234.634	266.639	80.370	41.374	4.456	196.052	256.807	23.162	-25.923	0.00099417	0.0017503	0.0010166	745.99	2.5196e-05	9.338e-06	1033.3	211.26	2.4723e-05	1.674e-05	356.25	133.56	71.534	32.106	6.6079e-06	68.067	0.0030059	0.0035647	0.0009016	1010.3	3.3935e-05	3.9208e-05	1287	317.84	3.4766e-05	3.93e-05	521.2	182.82	204	51.543	3.5061e-05	86.411	261.317	159.226	-27.540	-40.666	261.350	279.207	-40.872	-34.433	209.525	299.543	-35.665	-29.613	-27.666	-24.553	27.155	-26.042	-8191	255	
3010.887	1	1	0	0	0.26955	0.21975	0.29437	0.43222	0.17115	0.097515	0.077999	0.14507	0.14456	0.12785	0.17757	0.12792	0.1254	0.12597	0.14967	0.22544	-2.3875	-2.0583	-2.4042	-2.6646	-1.8146	-2.65	-2.5521	-2.0854	-2.6958	-2.2667	-2.325	-2.5583	-2.0062	-2.6833	-2.4604	-2.1646	196.494	172.889	34.339	273.072	259.185	182.042	121.036	0.851	93.747	244.238	260.491	44.598	242.442	254.221	87.110	264.195	0.001061	0.0014344	0.00045236	735.35	3.0872e-05	2.3096e-05	1014.4	208.74	2.7944e-05	1.9418e-05	353.02	132.48	70.353	31.69	1.5207e-05	66.57	0.0032669	0.003566	0.00087571	1000.7	3.6748e-05	3.8532e-05	1267	315.41	3.7669e-05	3.8626e-05	515.03	181.94	215.74	50.505	3.4567e-05	85.628	244.237	-31.400	-4.528	-40.609	251.661	54.791	-40.799	-34.205	236.797	102.384	-35.479	-29.684	-28.780	-25.101	70.665	-26.364	-8191	255	
3010.983	1	1	0	0	0.17908	0.16819	0.13015	0.11084	0.097516	0.10878	0.21724	0.24628	0.20528	0.20032	0.14773	0.20726	0.1092	0.021788	0.1823	0.10278	-2.2875	-2.1813	-2.4083	-2.7938	-1.8312	-2.6688	-2.6417	-2.1375	-2.775	-2.3729	-2.3812	-2.7396	-2.1917	-2.4313	-2.6167	-2.1875	129.146	102.349	-47.538	300.939	-10.374	221.894	292.746	-42.129	216.284	278.227	150.686	303.364	164.733	296.194	214.478	-21.932	0.00071148	0.0026703	0.00045773	743.63	1.3356e-05	1.7492e-05	1033.9	203.2	1.6221e-05	3.2507e-05	351.21	129.85	69.701	30.871	1.032e-05	65.785	0.0035202	0.0034618	0.00086622	1018.3	3.9475e-05	3.736e-05	1275.2	319.62	4.0108e-05	3.7426e-05	509.03	183.79	223.89	49.065	3.4283e-05	87.042	241.298	9.418	-9.211	-40.829	246.651	51.602	-40.980	-34.559	159.084	23.603	-35.014	-29.765	-27.187	-25.050	42.835	-25.915	-8191	255	
3011.104	1	1	0	0	0.084458	0.1692	0.114	0.39399	0.13237	0.023368	0.011586	0.28106	0.024049	0.20797	0.28821	0.18755	0.13815	0.093402	0.17869	0.047242	-2.2562	-2.15	-2.1875	-2.7354	-2.1	-2.55	-2.9354	-2.1396	-2.7604	-2.4521	-2.1896	-2.7292	-2.0708	-2.3375	-2.5146	-2.2396	215.806	97.432	167.784	243.381	-29.579	87.631	297.253	5.761	-27.022	-26.325	268.608	2.129	-18.310	233.913	32.636	-45.516	0.00033514	0.00071302	0.00046238	751.84	1.3726e-05	1.5342e-05	1030.6	204.98	1.5464e-05	2.308e-05	349.97	130.31	70.474	30.761	2.8936e-05	65.349	0.0036715	0.0033702	0.00086316	1053.9	4.1223e-05	3.6661e-05	1280.4	334.34	4.1271e-05	3.7013e-05	512.46	191.96	230.24	49.425	3.5512e-05	91.034	293.416	58.288	7.070	-40.505	37.830	-5.031	-41.066	-34.009	-5.125	-4.056	-35.356	-29.787	-29.444	-24.927	125.367	-26.040	-8191	255	
3011.200	1	1	0	0	0.085975	0.25003	0.056154	0.22225	0.10438	0.057136	0.099332	0.23698	0.092628	0.26358	0.13235	0.22432	0.03887	0.067007	0.040571	0.17703	-2.2146	-2.2	-1.9438	-2.8833	-2.0521	-2.2792	-2.8458	-2.0375	-2.6958	-2.3229	-2.0292	-2.7938	-2.1312	-2.3021	-2.6479	-2.2083	83.449	-38.971	238.088	217.221	220.164	124.991	237.312	266.793	70.763	2.285	40.175	-20.502	206.843	251.336	175.770	-49.279	0.00056389	0.0014346	0.00018355	753.59	1.5468e-05	1.8887e-05	1033.8	206.53	3.87e-06	1.5081e-05	351.49	132.57	70.774	31.687	1.4331e-05	67.328	0.0037946	0.0034643	0.00090013	1105	4.189e-05	3.7256e-05	1295	352.81	4.1376e-05	3.7691e-05	524.82	202.07	228.39	50.098	3.6882e-05	94.827	122.436	8.138	202.591	-40.249	53.493	26.738	-40.670	-34.195	98.660	9.682	-34.988	-29.848	-28.824	-24.750	178.531	-26.134	-8191	255	
3011.294	1	1	0	0	0.12569	0.043377	0.21412	0.18011	0.39452	0.25783	0.14301	0.059029	0.19126	0.029182	0.1406	0.16098	0.14806	0.13237	0.096682	0.2038	-2.2438	-2.5646	-2.0875	-2.825	-2.2354	-2.2229	-2.8375	-2.0812	-2.6833	-2.6667	-2.1604	-2.8417	-2.25	-2.0938	-2.8083	-2.0083	23.771	18.839	140.251	262.762	2.189	65.886	240.281	-23.688	98.010	264.275	-16.451	304.768	151.280	248.589	263.668	278.501	0.00026613	0.0029337	0.00043464	748.69	2.0152e-05	3.4701e-06	1031	207.29	1.6565e-05	2.4659e-05	348.98	131.34	70.47	30.732	3.4719e-05	65.909	0.0036818	0.0034235	0.00094058	1126.1	4.037e-05	3.6636e-05	1310.7	359.5	3.9296e-05	3.6338e-05	532.17	200.69	215.87	48.217	3.8264e-05	93.219	97.652	4.011	180.713	-40.808	69.514	275.025	-40.662	-34.178	47.142	32.207	-34.821	-29.998	-29.602	-24.461	213.984	-26.454	-8191	255	
3011.392	1	1	0	0	0.23208	0.23241	0.11188	0.1794	0.22951	0.3079	0.11016	0.07624	0.018615	0.22328	0.24497	0.071096	0.024565	0.2375	0.15897	0.090699	-2.0521	-2.6	-1.9208	-2.7917	-2.3937	-2.0958	-2.8146	-2.2167	-2.4625	-2.5875	-2.0312	-2.7375	-2.3937	-2.3833	-2.8146	-2.1562	269.327	35.202	143.672	-39.944	95.150	247.164	287.681	59.454	84.775	13.111	-47.723	-12.027	189.680	2.358	128.990	234.771	0.00040591	0.00064835	0.00077942	771.83	2.2593e-05	1.5547e-06	1042.9	210.3	1.723e-05	1.0146e-05	348.8	132.42	69.139	30.988	3.1953e-05	66.96	0.0034205	0.0032519	0.00098764	1129.9	3.7995e-05	3.523e-05	1349.3	356.89	3.7322e-05	3.5496e-05	550.28	199.06	211.79	48.346	4.0767e-05	92.326	-41.309	16.324	179.037	-40.780	147.221	102.638	-40.931	-34.415	35.078	-31.694	-35.116	-30.346	-27.504	-24.592	221.360	-26.215	-8191	255	
3011.487	1	1	0	0	0.19725	0.1353	0.21903	0.14105	0.2276	0.25945	0.011609	0.1886	0.064649	0.11365	0.11519	0.25113	0.14306	0.12795	0.049733	0.31165	-2.0979	-2.6813	-2.0167	-2.8708	-2.4229	-1.9688	-2.8625	-2.4417	-2.35	-2.8958	-2.025	-2.7188	-2.7458	-2.2	-2.8104	-2.4229	262.477	86.766	168.653	263.550	-13.127	231.464	295.426	215.877	306.606	101.308	289.431	-27.557	213.332	12.773	-52.651	282.082	0.00022729	0.0023971	0.00056163	770.24	1.7633e-05	3.8266e-06	1044	210.19	1.7692e-05	7.2678e-06	352.93	132.52	70.718	31.145	3.2962e-05	67.083	0.0033113	0.0032112	0.0010473	1110	3.6713e-05	3.519e-05	1371	347.91	3.5947e-05	3.5383e-05	560.95	193.65	204.97	48.703	4.2049e-05	90.663	266.841	129.181	99.049	-41.267	47.301	-35.762	-40.645	-34.703	-2.548	176.090	-35.132	-30.376	-27.848	-24.222	238.521	-26.343	-8191	255	
3011.583	1	1	0	0	0.19577	0.18864	0.085672	0.079121	0.29075	0.097183	0.3352	0.28653	0.133	0.21855	0.19506	0.14171	0.0095341	0.042844	0.17939	0.2993	-1.8229	-2.6562	-1.9562	-2.4938	-2.7625	-2.1375	-2.7292	-2.3312	-2.0271	-2.75	-2.025	-2.6542	-2.7375	-2.1479	-2.6229	-2.5563	195.144	-24.884	221.578	269.747	267.457	-8.634	242.588	281.882	146.887	-33.629	241.108	262.443	172.536	230.868	109.363	-47.459	0.00048537	0.0031355	0.00076044	777.23	7.3194e-06	1.9736e-05	1058.5	211.36	1.3984e-05	3.7538e-05	352.11	130.46	69.904	30.52	7.072e-06	65.774	0.003199	0.0033214	0.0010799	1092.6	3.5468e-05	3.6778e-05	1387.7	339.6	3.4954e-05	3.7573e-05	563.08	189.01	200.58	49.669	4.2186e-05	88.364	30.699	168.313	152.860	-40.857	135.217	205.173	-40.870	-34.721	68.698	159.286	-35.165	-30.126	-28.443	-23.701	190.892	-26.408	-8191	255	
3011.703	1	1	0	0	0.22591	0.27911	0.060687	0.065037	0.10245	0.17782	0.08954	0.40075	0.36184	0.11295	0.23514	0.40273	0.20702	0.10115	0.068084	0.11232	-1.6812	-2.7646	-1.9979	-2.5104	-2.6375	-2.0896	-2.825	-2.4479	-2.1021	-2.9042	-2.1354	-2.3312	-2.6146	-2.0042	-2.7542	-2.5812	14.271	1.609	284.288	262.524	216.367	172.314	145.522	297.583	54.570	80.926	237.559	-43.780	267.201	-15.028	81.592	77.457	0.0002521	0.0037511	0.00055483	792.07	6.9624e-06	2.825e-05	1079.1	206.66	1.4629e-05	3.3613e-05	349.49	128.57	67.694	29.972	4.2972e-06	64.51	0.0031266	0.0035741	0.0010677	1093.5	3.4887e-05	3.9594e-05	1389.3	332.54	3.4486e-05	4.0421e-05	551.36	185.02	199.14	50.803	4.0575e-05	86.956	176.088	168.107	9.185	-41.325	278.609	224.809	-41.210	-34.705	156.330	228.229	-35.124	-30.357	-27.798	-24.376	120.407	-26.347	-8191	255	
3011.799	1	1	0	0	0.059959	0.097152	0.075034	0.12511	0.30335	0.13535	0.20981	0.18563	0.30271	0.34511	0.22166	0.13094	0.075456	0.13558	0.27372	0.12221	-1.6688	-2.8354	-2.2062	-2.1854	-2.625	-2.0833	-2.6646	-2.4542	-2.0625	-2.7646	-2.1167	-2.2896	-2.8667	-2	-2.5625	-2.8083	208.369	85.415	255.590	-9.375	150.943	231.848	248.105	235.726	196.116	67.264	292.083	-50.929	290.711	19.128	-46.122	226.604	0.0012404	0.0018994	0.0007775	801.9	1.6126e-05	2.149e-05	1076.3	206.48	2.7379e-05	2.6834e-05	343.62	124.87	64.499	29.202	1.71e-05	63.352	0.0031609	0.0038221	0.0010296	1096.7	3.5842e-05	4.2143e-05	1378.3	327.71	3.5527e-05	4.2264e-05	535.23	179.67	202.9	50.855	3.8126e-05	84.375	242.126	178.186	-10.447	-41.337	90.107	261.866	-41.198	-34.956	228.522	101.332	-36.328	-30.036	-27.606	-24.120	21.924	-25.982	-8191	255	
3011.896	1	1	0	0	0.1893	0.085011	0.15778	0.076205	0.11652	0.10841	0.26547	0.24838	0.30612	0.19267	0.15592	0.014507	0.23887	0.10867	0.010314	0.074356	-1.5688	-2.6937	-2.3042	-2.5146	-2.8208	-1.9896	-2.4333	-2.7438	-1.8208	-2.7479	-2.4375	-2.1437	-2.7792	-2.0917	-2.4979	-2.8688	85.679	37.302	38.165	211.355	203.871	215.011	192.886	200.347	160.889	12.779	-21.761	235.328	-4.127	228.698	214.131	265.622	0.0013876	0.0024947	0.00039792	795.12	1.7878e-05	7.8469e-06	1074.9	204.71	2.607e-05	1.3214e-05	343.06	126.87	67.278	30.126	3.4838e-06	64.626	0.0032499	0.003804	0.00095276	1066.8	3.6782e-05	4.1364e-05	1341.7	319.32	3.7098e-05	4.1055e-05	520.42	178.23	211.95	50.697	3.6221e-05	84.672	251.668	66.178	-18.668	-41.365	297.151	72.033	-41.367	-34.667	198.714	-13.991	-36.035	-30.187	-27.054	-24.438	179.102	-26.021	-8191	255	
3011.967	1	1	0	0	0.16927	0.21119	0.13745	0.33107	0.14367	0.16423	0.22848	0.21983	0.25304	0.35495	0.14051	0.13049	0.055842	0.18881	0.043978	0.19551	-1.5542	-2.5	-2.3521	-2.1708	-2.7271	-2.2167	-2.3812	-2.8479	-2.0229	-2.5542	-2.4479	-2.0729	-2.7812	-2.1646	-2.2208	-2.7771	184.994	-47.521	39.944	301.718	26.837	-20.424	242.741	235.369	204.922	212.627	286.293	307.701	-31.860	119.589	182.814	243.178	0.00096402	0.0042359	0.0005447	806.18	3.6256e-05	2.0267e-05	1096.9	206.51	1.3894e-05	2.5516e-05	346.87	127.01	68.577	30.206	1.8451e-05	64.327	0.0034846	0.0036894	0.00092026	1078.6	3.9461e-05	4.03e-05	1354.6	322.29	3.9761e-05	3.9481e-05	518.15	178.92	221.6	49.837	3.5158e-05	85.109	233.638	-15.926	122.859	-40.824	224.670	47.902	-41.059	-34.220	193.773	17.236	-35.390	-30.036	-25.958	-24.714	38.054	-26.034	-8191	255	
3012.088	1	1	0	0	0.20837	0.086498	0.29365	0.10748	0.097072	0.24658	0.053657	0.15053	0.342	0.058949	0.18596	0.1139	0.064912	0.038362	0.24665	0.11711	-1.4771	-2.4396	-2.2271	-2.2167	-2.8958	-2.3021	-2.3646	-2.9417	-2.0021	-2.5229	-2.4625	-2.3063	-2.7687	-2.2229	-2.3125	-2.8187	91.627	142.208	10.563	133.496	216.643	245.782	-7.007	118.738	39.900	215.463	-11.287	53.140	156.622	269.106	20.297	32.447	0.00084231	0.0017548	0.00030832	817.36	7.1169e-06	1.9713e-05	1103.7	204.08	1.3753e-05	2.9217e-05	346.46	126.11	66.254	29.964	9.0606e-06	63.66	0.0036537	0.0035055	0.0008907	1095.8	4.1005e-05	3.7926e-05	1348.9	327.43	4.1067e-05	3.7315e-05	510.58	181.57	223.35	47.974	3.3749e-05	85.765	243.362	37.452	-33.755	-41.629	243.203	15.242	-41.650	-34.128	208.744	-7.479	-35.532	-29.484	-26.372	-25.141	-21.419	-25.809	-8191	255	
3012.184	1	1	0	0	0.16263	0.0090681	0.019744	0.24098	0.17721	0.12883	0.2315	0.17234	0.18774	0.22585	0.14331	0.15478	0.12083	0.061998	0.13469	0.20252	-1.6854	-2.3646	-2.6875	-2.1271	-2.7917	-2.3667	-2.1208	-3.0354	-2.25	-2.3646	-2.7021	-2.2604	-2.7188	-2.3812	-1.9333	-2.9396	237.660	32.156	281.666	252.594	153.394	-27.198	292.425	-25.301	44.416	258.445	155.189	286.361	261.779	-20.452	241.774	293.503	0.00036355	0.0027537	0.00054779	799.73	2.317e-05	2.0835e-05	1095.7	203.15	2.2738e-05	7.0161e-06	343.87	122.33	67.651	28.907	1.3824e-05	62.132	0.0036425	0.0032821	0.00085501	1105.7	4.0297e-05	3.5839e-05	1326.9	333.38	3.9861e-05	3.5446e-05	500.04	183.85	216.44	46.522	3.2939e-05	86.509	190.958	6.172	-14.189	-41.088	137.898	-8.093	-41.489	-34.333	41.145	184.281	-35.155	-29.629	-28.774	-24.914	232.873	-25.946	-8191	255	
3012.280	1	1	0	0	0.24914	0.13707	0.1706	0.10495	0.067346	0.23825	0.30151	0.23604	0.15028	0.10588	0.16948	0.061953	0.095042	0.11616	0.17988	0.3541	-1.6333	-2.1646	-2.6667	-2.0625	-2.7062	-2.5333	-2.2521	-2.8396	-2.0208	-2.2146	-2.8042	-2.0396	-2.5458	-2.5687	-2.1333	-2.7604	84.360	256.844	290.261	232.082	105.333	173.276	273.695	248.495	141.731	265.899	288.893	286.366	235.428	306.782	150.330	12.898	0.00025959	0.0011253	0.00054536	811.22	1.0312e-05	2.0711e-05	1098.6	203.43	1.4172e-05	2.3021e-05	338.59	121.13	65.103	28.328	2.652e-05	61.183	0.0035028	0.0031714	0.00084718	1136.3	3.8309e-05	3.4573e-05	1330.7	339.18	3.7751e-05	3.4232e-05	498.93	185.09	206.23	45.12	3.3982e-05	86.555	20.550	286.500	114.218	-41.294	95.632	15.452	-41.418	-34.429	0.030	70.271	-35.338	-29.836	-28.358	-24.558	202.314	-25.809	-8191	255	
3012.376	1	1	0	0	0.11624	0.21539	0.14511	0.030373	0.070281	0.22353	0.10895	0.12492	0.11885	0.076884	0.12404	0.06317	0.056645	0.079017	0.012308	0.28421	-1.9083	-2.1125	-2.7854	-2.1188	-2.6312	-2.4542	-2.2313	-2.7125	-2.3521	-2.2812	-2.9062	-2.1646	-2.4354	-2.6729	-1.8563	-2.6604	229.429	178.999	52.136	41.070	19.957	161.412	80.943	-45.933	242.250	21.824	-19.637	267.660	119.966	107.453	65.423	239.776	0.00087927	0.0012056	0.00088315	812.44	1.2873e-05	1.025e-05	1090.1	198.38	1.1715e-05	8.6892e-06	328.23	118.24	61.692	26.889	2.7317e-05	59.185	0.0033174	0.0030583	0.00087351	1146.2	3.5938e-05	3.326e-05	1335	335.02	3.515e-05	3.2236e-05	499.71	181.18	191	42.625	3.4741e-05	82.947	106.495	212.145	120.658	-40.912	86.607	150.585	-41.509	-34.959	58.169	110.635	-34.561	-30.180	-28.968	-24.638	155.352	-26.137	-8191	255	
3012.473	1	1	0	0	0.14175	0.33084	0.059466	0.13235	0.14181	0.16688	0.29149	0.20121	0.028055	0.21629	0.34015	0.17076	0.11518	0.059541	0.033514	0.31678	-1.7437	-2.0458	-2.7229	-2.1479	-2.4354	-2.6437	-2.1104	-2.5979	-2.3417	-2.2896	-2.9458	-2.2229	-2.3438	-2.7125	-2.1542	-2.7812	296.105	17.786	220.697	-20.575	267.692	204.478	264.799	-6.189	232.805	259.733	225.748	13.184	186.083	263.639	176.448	282.522	5.6879e-05	0.0012334	0.00090704	793.06	4.0315e-06	3.5106e-06	1071.9	197.21	1.9509e-05	1.2286e-05	332.94	118.7	64.189	26.889	1.1536e-05	59.523	0.0030436	0.0028629	0.00089679	1103.5	3.323e-05	3.1311e-05	1331	322.65	3.2937e-05	3.0793e-05	507.66	176.59	183.33	42.105	3.6327e-05	81.356	140.130	17.766	133.121	-41.565	114.365	-28.260	-40.994	-34.527	105.421	274.637	-34.876	-29.983	-28.874	-23.748	204.773	-26.194	-8191	255	
3012.567	1	1	0	0	0.22685	0.14003	0.085223	0.096659	0.20989	0.21165	0.15141	0.15563	0.14021	0.25392	0.14141	0.26447	0.12603	0.1195	0.172	0.15079	-1.9875	-2.1229	-2.9271	-2.1875	-2.2313	-2.5833	-2.1917	-2.6583	-2.3792	-1.975	-2.7687	-2.2062	-2.1708	-2.6917	-2.1521	-2.5396	109.082	86.903	192.834	236.194	278.689	1.390	289.336	3.532	90.457	57.944	151.528	219.945	38.314	-25.148	35.913	30.780	0.0001363	0.0010179	0.00024225	798.76	8.6432e-06	4.877e-06	1087.2	200.66	1.6075e-05	1.0707e-05	333.67	119.21	63.299	26.878	3.1485e-06	58.758	0.0029036	0.0028439	0.00094183	1090.1	3.2064e-05	3.1746e-05	1364.3	318.71	3.2271e-05	3.2055e-05	520.91	173.8	181.25	43.173	3.7919e-05	79.624	76.037	146.502	124.177	-41.318	303.439	184.095	-41.302	-34.901	22.015	185.676	-35.130	-29.952	-29.296	-24.178	122.398	-26.241	-8191	255	
3012.665	1	1	0	0	0.08159	0.18713	0.11344	0.064828	0.28282	0.12696	0.15744	0.22005	0.10973	0.097132	0.15552	0.28047	0.42315	0.15545	0.09088	0.26039	-2.1875	-2.0458	-2.6375	-2.3563	-2.1688	-2.7958	-2.25	-2.7229	-2.4479	-2.0062	-2.7313	-2.6229	-2.3146	-2.8396	-2.0625	-2.4125	-44.855	62.747	267.890	208.637	48.050	27.322	258.522	254.142	-11.389	277.473	233.307	296.545	246.008	281.187	57.743	191.535	0.00021798	0.0019673	0.00022997	815.93	8.1158e-06	3.9713e-05	1094.1	200.11	2.1988e-05	1.7053e-05	335.2	119.14	62.757	27.313	2.6778e-05	59.912	0.002855	0.0029895	0.00095541	1080.2	3.1003e-05	3.3412e-05	1372.1	311.02	3.0997e-05	3.3738e-05	516.15	170.24	176.54	44.54	3.6689e-05	78.768	60.364	189.372	141.640	-41.477	131.766	222.852	-41.285	-34.918	61.802	185.270	-35.702	-30.604	-28.526	-24.298	22.745	-26.034	-8191	255	
3012.784	1	1	0	0	0.14795	0.1644	0.046644	0.19742	0.25684	0.23832	0.060473	0.20718	0.096698	0.17436	0.13545	0.10174	0.21377	0.13974	0.11871	0.039507	-2.2875	-2.1771	-2.6833	-2.4458	-2.0625	-2.85	-2.3333	-2.4813	-2.6042	-2.1312	-2.7125	-2.4437	-2.1229	-2.7521	-2.3083	-2.3042	149.563	183.179	102.052	269.958	189.007	3.847	90.969	189.355	223.799	179.160	205.027	225.173	197.334	258.123	-39.523	-11.239	0.00021553	0.0033398	0.00059479	798.68	9.1055e-06	3.6791e-05	1077	198.7	9.0111e-06	1.2956e-05	335.21	119.68	62.799	27.566	2.536e-05	59.546	0.002726	0.0031218	0.0009019	1046.6	2.9285e-05	3.4294e-05	1321.2	300.26	2.9368e-05	3.4314e-05	497.19	166.11	172.01	45.102	3.395e-05	77.185	236.210	161.279	-11.235	-41.296	-37.244	178.628	-41.187	-34.905	245.617	86.701	-35.545	-29.824	-27.429	-24.297	3.931	-26.247	-8191	255	
3012.880	1	1	0	0	0.22719	0.20581	0.1629	0.31392	0.069137	0.073553	0.16975	0.022572	0.11268	0.21221	0.08834	0.083835	0.088105	0.085058	0.31201	0.17139	-2.2542	-1.8687	-2.6063	-2.5771	-2.0271	-2.8958	-2.2917	-2.2	-2.6271	-2.1292	-2.6542	-2.5583	-2.1458	-2.7375	-2.3125	-2.5	252.172	-24.696	-44.119	256.528	-26.181	63.834	213.221	262.894	277.381	207.175	296.558	71.118	64.976	-35.262	271.471	120.927	0.00066379	0.0029968	0.00024169	804.52	2.734e-05	6.791e-06	1087.3	197	2.2464e-05	6.0232e-06	334.21	118.42	60.721	26.573	6.8509e-06	58.496	0.002713	0.0032506	0.00085137	1042.1	3.013e-05	3.5749e-05	1318.1	295.87	3.0709e-05	3.5775e-05	485.77	163.04	177.06	44.569	3.211e-05	75.401	213.969	145.300	284.152	-41.373	278.138	-51.478	-41.376	-34.689	196.182	87.968	-35.614	-29.996	-27.780	-25.099	64.208	-26.111	-8191	255	
3012.976	1	1	0	0	0.10338	0.027301	0.14248	0.15571	0.16927	0.37567	0.12432	0.11666	0.1175	0.21384	0.11996	0.1078	0.20301	0.30802	0.1065	0.11912	-2.4021	-2.1688	-2.3333	-2.6542	-1.9312	-2.7354	-2.475	-2.0563	-2.5896	-2.1625	-2.45	-2.6979	-1.9854	-2.9729	-2.5229	-2.2625	198.769	127.503	6.392	-1.474	11.203	69.178	-12.834	167.519	38.529	9.197	209.292	265.192	180.662	187.787	68.557	270.170	0.00087212	0.0014134	0.00064472	799.36	2.8572e-05	1.3928e-05	1081.9	193.5	2.4644e-05	2.0897e-05	328.89	115.89	58.36	25.868	4.7546e-06	57.122	0.0028393	0.003254	0.00080476	1028.1	3.2167e-05	3.5514e-05	1294.3	290.97	3.2826e-05	3.5346e-05	474.9	160.14	187.11	43.566	3.1433e-05	74.323	265.558	31.319	-48.018	-41.438	231.383	69.123	-41.552	-35.098	218.724	-17.167	-35.686	-30.040	-26.025	-24.413	123.384	-26.153	-8191	255	
3013.072	1	1	0	0	0.18466	0.19685	0.053524	0.18579	0.11116	0.1257	0.15833	0.094578	0.17332	0.095577	0.39493	0.09338	0.14334	0.18776	0.21098	0.18755	-2.5021	-2.2333	-2.3	-2.7167	-1.8167	-2.5563	-2.5042	-2.1417	-2.8146	-2.4208	-2.1917	-2.8187	-2.0354	-2.6063	-2.5417	-2.1146	255.382	45.545	264.494	-28.127	223.631	70.054	-13.780	-34.296	-3.774	233.862	293.190	151.808	42.079	48.248	201.663	260.156	0.0013926	0.002021	0.00040112	780.61	1.6424e-05	7.1079e-06	1058.4	192.58	3.5738e-05	1.9609e-05	327.57	115.41	60.51	26.531	8.6052e-06	58.116	0.0030937	0.0031883	0.00079036	1013.7	3.4809e-05	3.4434e-05	1268.8	290.76	3.5122e-05	3.394e-05	469.19	161.87	194.72	43.022	3.0261e-05	75.739	257.286	15.111	40.444	-41.131	261.724	54.155	-41.276	-34.978	202.355	26.919	-35.634	-29.382	-28.453	-24.295	-36.146	-26.366	-8191	255	
3013.193	1	1	0	0	0.096493	0.25245	0.22194	0.24736	0.040156	0.1292	0.35619	0.14675	0.13461	0.25906	0.14349	0.062452	0.20234	0.032638	0.18607	0.2082	-2.5104	-2.325	-2.2833	-2.875	-1.9708	-2.6396	-2.5667	-2.0062	-2.6292	-2.2396	-2.3146	-2.7042	-1.9333	-2.2375	-2.5563	-2.35	85.007	190.337	-18.605	5.422	69.278	193.485	177.994	98.567	-43.499	21.163	301.478	-47.502	202.535	262.237	22.268	285.943	0.00062858	0.0023228	0.00024023	751.96	4.7112e-06	1.106e-05	1029.9	192.43	2.2854e-05	3.6991e-06	330.51	119.67	64.376	27.699	3.2664e-06	59.835	0.0031709	0.0029709	0.00074912	993.56	3.4939e-05	3.1624e-05	1226	294.16	3.4781e-05	3.1349e-05	462.01	166.76	193.74	42.658	2.8747e-05	78.385	228.720	6.883	31.852	-40.800	227.855	-19.185	-41.027	-34.414	62.918	304.866	-35.767	-29.227	-27.697	-24.487	121.354	-25.794	-8191	255	
3013.264	1	1	0	0	0.13822	0.24235	0.17784	0.24512	0.26054	0.15536	0.16608	0.2243	0.2317	0.26554	0.28641	0.048482	0.1142	0.31773	0.10951	0.12379	-2.425	-2.4208	-2.2583	-2.7812	-1.9646	-2.4354	-2.8854	-2.0417	-2.7479	-2.3146	-2.1604	-2.8729	-2.1625	-2.3479	-2.6104	-2.2292	199.423	231.909	265.197	151.793	248.581	218.734	280.545	242.974	20.750	2.839	196.296	1.275	37.746	37.512	68.587	242.301	0.00028688	0.001812	0.00032167	755.97	2.4581e-05	3.1073e-06	1047.3	195.19	1.4714e-05	2.133e-06	332.79	121.89	63.671	28.206	1.0456e-05	60.693	0.0030891	0.0028077	0.00072614	1014.1	3.4256e-05	3.0337e-05	1234.1	306.72	3.4057e-05	3.06e-05	465.55	173.6	192.11	42.76	2.9198e-05	81.573	182.096	46.372	40.092	-40.648	31.227	100.075	-41.122	-34.340	52.719	47.196	-34.926	-29.952	-29.704	-24.791	167.768	-26.311	-8191	255	
3013.385	1	1	0	0	0.078175	0.073493	0.095614	0.28454	0.55045	0.057584	0.075923	0.027699	0.12855	0.098787	0.020486	0.15488	0.13626	0.073884	0.18089	0.14397	-2.2333	-2.5979	-2.225	-2.7083	-2.1458	-2.2583	-2.8812	-2.2021	-2.6063	-2.5187	-2.3063	-2.7833	-2.3583	-2.3729	-2.775	-2.0896	184.792	178.901	-29.533	250.239	274.252	274.714	237.850	225.019	253.337	257.259	-35.386	134.185	128.265	224.780	192.269	218.506	0.00032295	0.0013431	0.00031078	791	8.49e-06	6.6287e-06	1065	196.99	1.865e-05	1.4491e-05	333.75	120.11	63.846	27.433	1.2478e-05	59.862	0.0030508	0.0028159	0.00075129	1075.2	3.3791e-05	3.0347e-05	1273	320.03	3.334e-05	3.0647e-05	475.39	176.96	187.56	42.075	3.0952e-05	81.999	205.778	20.542	172.207	-41.309	79.339	43.456	-40.909	-34.722	55.306	-43.767	-35.633	-29.776	-28.499	-24.414	159.738	-25.880	-8191	255	
3013.479	1	1	0	0	0.21076	0.23906	0.1756	0.27476	0.23091	0.11582	0.12471	0.19004	0.058487	0.182	0.10869	0.1637	0.16995	0.10465	0.12059	0.16343	-2.2812	-2.5729	-2.0583	-2.7833	-2.3667	-2.0917	-2.8125	-2.3042	-2.4667	-2.6021	-2.1208	-2.8354	-2.3021	-2.2125	-2.7792	-2.3312	-31.938	270.486	200.368	-41.539	213.971	234.214	15.525	49.381	160.023	166.873	-15.973	281.140	166.690	91.265	128.564	-19.743	0.00038281	0.00021151	0.00066513	782.76	1.8119e-05	2.6223e-05	1048.9	198.26	3.4698e-05	2.1263e-05	328.08	118.65	62.362	27.068	4.3013e-05	58.734	0.00292	0.0027541	0.00079799	1082.2	3.2361e-05	2.9781e-05	1281.4	320.01	3.1874e-05	3.0078e-05	486.28	176.04	182.62	41.264	3.3586e-05	80.886	19.908	136.616	142.637	-41.213	118.505	65.689	-41.198	-34.729	-12.834	61.259	-35.058	-29.985	-28.243	-24.816	197.235	-26.372	-8191	255	
3013.576	1	1	0	0	0.084225	0.070057	0.40909	0.087546	0.15601	0.2264	0.10078	0.17711	0.21657	0.17814	0.22975	0.13393	0.28771	0.20524	0.15419	0.15859	-2.05	-2.6562	-2.15	-2.6771	-2.4313	-2.3354	-2.9313	-2.2271	-2.4208	-2.85	-2.0729	-2.6979	-2.4167	-1.9562	-2.9979	-2.175	101.484	290.075	174.064	-7.151	126.906	45.747	-20.560	300.306	231.400	59.959	-42.603	235.761	244.598	289.260	62.307	277.103	9.2147e-05	0.00053743	0.00069932	777.02	3.5914e-06	1.1073e-05	1047.9	194.12	5.1951e-06	1.2752e-05	324.55	117.39	62.369	26.114	2.2792e-05	57.977	0.0028547	0.0027458	0.00087329	1069.2	3.1924e-05	2.9893e-05	1307.9	313.97	3.1454e-05	3.049e-05	500.01	172.03	180.85	41.307	3.665e-05	79.715	305.317	27.655	110.651	-41.361	169.975	3.636	-41.272	-35.195	213.311	235.651	-34.932	-30.137	-28.794	-24.325	212.849	-26.095	-8191	255	
3013.672	1	1	0	0	0.18872	0.032829	0.16054	0.18015	0.28308	0.16877	0.32566	0.17093	0.22731	0.19274	0.093782	0.28412	0.28767	0.050735	0.17537	0.09814	-1.7979	-2.6583	-1.9646	-2.6229	-2.475	-1.9875	-2.8312	-2.5917	-2.1167	-3.0125	-2.2875	-2.5917	-2.4979	-2.0333	-2.7812	-2.4333	146.596	161.386	6.701	194.568	119.854	105.698	287.286	274.342	208.458	72.108	-50.572	5.724	279.758	301.590	180.293	-45.518	0.00028545	0.0014544	0.00043059	791.44	8.9077e-06	1.8819e-05	1067.4	194.36	2.8507e-05	1.9395e-05	326.22	114.46	60.04	25.596	1.1976e-05	57.552	0.0028606	0.002889	0.00094959	1074.5	3.2184e-05	3.1923e-05	1352.9	312.9	3.2057e-05	3.292e-05	516.07	170.08	181.41	42.499	3.8546e-05	78.239	142.747	114.418	103.714	-41.373	131.904	146.330	-41.190	-35.105	11.249	216.618	-35.542	-30.278	-29.119	-23.716	-40.881	-25.613	-8191	255	
3013.792	1	1	0	0	0.086129	0.075054	0.15486	0.23741	0.2267	0.31705	0.45063	0.18966	0.13631	0.071232	0.057782	0.10376	0.1487	0.19446	0.024772	0.058406	-1.8708	-2.7333	-2.0479	-2.6875	-2.7229	-1.9479	-3.0146	-2.4292	-2.2021	-2.8354	-2.0729	-2.4479	-2.5271	-2.1729	-2.5938	-2.7188	45.458	169.028	-40.749	225.417	103.579	218.005	253.917	226.621	219.502	250.099	-25.246	-31.356	179.787	-16.200	254.180	38.850	0.00041016	0.0035331	0.00013773	792.1	9.2921e-06	3.6442e-05	1070	195.72	1.4221e-05	2.6633e-05	331.64	118.17	62.598	26.863	2.1402e-05	59.323	0.0028509	0.0031231	0.00097389	1064.6	3.163e-05	3.4321e-05	1349.4	307.56	3.0725e-05	3.4728e-05	512.5	168.4	176.15	44.558	3.6151e-05	78.271	29.949	186.126	-13.633	-41.651	39.863	196.129	-41.387	-34.788	-16.833	180.201	-35.572	-30.244	-27.112	-23.756	-5.510	-26.226	-8191	255	
3013.864	1	1	0	0	0.047925	0.18477	0.11795	0.13741	0.13501	0.073382	0.092675	0.10925	0.10491	0.15158	0.15898	0.18602	0.047721	0.27058	0.018944	0.10576	-1.7292	-2.7146	-2.0292	-2.5	-2.5646	-2.1896	-2.6604	-2.7	-2.0708	-2.9729	-2.2167	-2.6271	-2.7542	-2.2208	-2.6854	-2.6604	304.718	-31.805	-15.237	306.764	72.298	294.192	73.450	93.521	-0.649	-52.343	216.586	180.327	-38.581	300.850	265.023	83.348	0.0001871	0.0020383	0.0008261	786.25	1.8592e-05	2.6978e-05	1076.6	196.58	1.3329e-05	1.3353e-05	333.31	119.41	63.287	27.403	2.5699e-05	60.105	0.0027036	0.0032104	0.00090594	1034	3.0236e-05	3.538e-05	1320	302.81	3.0227e-05	3.6156e-05	500.24	166.52	178	45.763	3.4212e-05	77.645	298.421	191.193	-27.850	-41.281	285.133	235.214	-41.179	-34.590	274.532	166.550	-36.216	-30.315	-26.638	-24.298	11.401	-26.117	-8191	255	
3013.960	1	1	0	0	0.21332	0.04608	0.042233	0.20434	0.046391	0.16005	0.10871	0.13308	0.06871	0.26973	0.057103	0.13327	0.10997	0.17748	0.20976	0.0577	-1.7292	-2.8229	-2.2	-2.3125	-2.8354	-2.1937	-2.7562	-2.6333	-2.0708	-2.8229	-2.4	-2.1917	-2.8312	-2.0667	-2.525	-2.7604	291.076	60.723	-19.222	269.852	14.556	113.149	270.815	109.124	29.223	-26.436	299.114	215.143	128.660	305.885	292.460	176.810	0.00071345	0.0011657	0.00048714	801.31	2.149e-05	1.2867e-05	1091.3	197.52	2.9491e-05	1.667e-05	333	118.05	60.893	26.792	9.3064e-06	58.115	0.0027826	0.0033321	0.00086043	1040.5	3.1491e-05	3.6694e-05	1313.5	300.11	3.1771e-05	3.6739e-05	488.98	163.16	184.06	45.314	3.2398e-05	75.962	257.506	238.704	-0.653	-41.773	284.907	233.128	-41.202	-34.738	227.284	39.032	-35.784	-29.610	-27.530	-24.810	-16.316	-26.242	-8191	255	
3014.056	1	1	0	0	0.27117	0.014879	0.15375	0.29752	0.11511	0.16875	0.16273	0.32455	0.14066	0.058916	0.031556	0.1378	0.11704	0.13996	0.18294	0.2145	-1.4958	-2.7583	-2.2271	-2.375	-2.6625	-2.225	-2.5521	-2.775	-2.1542	-2.7542	-2.3833	-2.0396	-2.7979	-2.2375	-2.3854	-2.725	142.432	65.909	24.504	248.692	138.468	287.976	208.052	232.440	212.687	108.245	254.291	51.418	278.754	3.032	151.974	268.257	0.000897	0.00046265	0.0001764	818.84	2.6267e-05	1.8969e-05	1099.4	197.18	3.3554e-05	1.342e-05	332.04	116.06	59.901	26.045	1.516e-05	56.528	0.0029653	0.003307	0.00082543	1045.8	3.3643e-05	3.6075e-05	1312.2	296.52	3.395e-05	3.5393e-05	479.47	160.26	192.37	43.887	3.1302e-05	74.469	280.820	-50.377	5.033	-41.351	245.333	32.589	-41.350	-34.985	199.800	18.246	-35.787	-29.578	-27.521	-24.276	21.851	-26.033	-8191	255	
3014.153	1	1	0	0	0.2293	0.15112	0.13388	0.23072	0.2257	0.18055	0.41257	0.2197	0.1089	0.14104	0.14387	0.15246	0.1203	0.27867	0.30639	0.1655	-1.5104	-2.6604	-2.5	-2.3479	-2.8333	-2.325	-2.4042	-2.8063	-2.0687	-2.7417	-2.3583	-2.0896	-3.0146	-2.4479	-2.1833	-2.9354	-9.973	64.292	218.270	302.732	274.689	298.283	266.388	209.862	-42.079	-2.577	207.669	28.771	96.894	204.777	236.097	24.934	0.0008543	0.0012094	0.00015367	812.59	1.6578e-05	2.7571e-05	1098.3	195.34	1.6768e-05	1.3887e-05	328.24	113.2	58.723	25.736	1.6493e-05	56.334	0.0031677	0.0031664	0.00080088	1047.3	3.5891e-05	3.4551e-05	1306.1	298.41	3.6277e-05	3.4452e-05	476.18	162.4	201.04	42.979	3.1397e-05	76.013	256.016	286.341	175.150	-41.612	282.272	31.318	-41.452	-34.489	161.327	57.271	-35.663	-29.662	-27.356	-24.942	95.684	-25.853	-8191	255	
3014.273	1	1	0	0	0.27486	0.17134	0.15058	0.25342	0.20087	0.064391	0.213	0.1956	0.11167	0.19267	0.2438	0.11709	0.28204	0.15168	0.17028	0.24146	-1.6688	-2.2729	-2.5104	-2.0229	-2.8375	-2.3854	-2.5062	-2.9292	-2.0604	-2.4958	-2.8563	-1.9688	-2.8646	-2.5208	-2.1063	-2.7271	242.085	22.601	183.259	269.347	45.061	42.492	205.959	243.349	208.422	39.569	241.785	189.629	256.431	294.792	168.390	98.091	0.00012412	0.0022135	0.00046217	809.06	8.8468e-06	1.4193e-05	1099	192.13	1.6897e-05	2.1368e-05	325.71	111.92	58.221	25.266	1.0249e-05	55.278	0.003374	0.0030883	0.00080232	1074.6	3.7583e-05	3.3822e-05	1306.3	307.66	3.7546e-05	3.33e-05	473.23	166.75	203.26	42.147	3.12e-05	77.513	113.595	-6.414	9.591	-41.554	4.567	29.678	-41.583	-34.440	305.085	56.079	-35.563	-29.758	-27.653	-24.935	61.689	-26.072	-8191	255	
3014.368	1	1	0	0	0.20508	0.1385	0.12456	0.31552	0.23333	0.016547	0.22109	0.38411	0.084919	0.30562	0.078094	0.12168	0.13583	0.11126	0.1329	0.17762	-1.7687	-2.2896	-2.6708	-2.1333	-2.7375	-2.5542	-2.2229	-2.8146	-2.1042	-2.3958	-2.6875	-2.0958	-2.5438	-2.2042	-2.0458	-2.9729	109.495	173.009	161.167	11.888	79.188	179.942	299.372	277.470	180.662	62.669	-0.488	192.951	303.729	103.810	236.000	-50.338	0.00020639	0.0016155	0.00017731	816.27	1.6166e-05	1.9472e-05	1093.2	194.54	4.6997e-05	2.3578e-05	323.65	111.36	60.307	25.486	1.5441e-05	56.119	0.0033986	0.0030404	0.00080723	1112.5	3.7468e-05	3.3511e-05	1312.1	321.21	3.7249e-05	3.308e-05	475.34	172.19	198.05	42.083	3.1589e-05	79.981	-36.090	20.494	77.705	-41.222	129.189	60.003	-41.562	-34.934	39.660	8.706	-35.361	-29.499	-30.311	-24.022	183.937	-26.194	-8191	255	
3014.465	1	1	0	0	0.16059	0.13624	0.22145	0.21274	0.23151	0.030732	0.12976	0.071643	0.12852	0.088853	0.28032	0.1101	0.11266	0.34136	0.14817	0.12279	-1.6833	-2.125	-2.4417	-2.1146	-2.6583	-2.5187	-2.2729	-2.7896	-2.2938	-2.3729	-2.8875	-2.1979	-2.75	-2.7271	-2.3125	-2.8333	79.833	286.203	207.634	49.304	171.798	-9.771	250.453	238.373	217.810	-0.547	249.400	242.034	205.049	-16.351	270.606	42.575	0.00036255	0.00084851	0.00084586	814.43	2.5753e-05	1.58e-05	1081.6	195.57	2.1909e-05	5.8227e-06	324.83	115.49	61.01	26.457	3.9556e-05	57.278	0.0032419	0.0029617	0.00081584	1122.2	3.5072e-05	3.205e-05	1304.3	324.62	3.4315e-05	3.1184e-05	480.46	175.04	187.58	41.804	3.2502e-05	80.898	77.375	163.686	199.023	-41.631	88.006	138.271	-41.372	-34.969	56.129	29.328	-35.040	-29.892	-29.197	-24.736	213.431	-26.264	-8191	255	
3014.560	1	1	0	0	0.36976	0.15204	0.19465	0.023471	0.060786	0.161	0.16943	0.20728	0.057642	0.081057	0.15212	0.15704	0.026865	0.16739	0.16112	0.10301	-1.9792	-2.1021	-2.7771	-2.1604	-2.4979	-2.6646	-1.9708	-2.8042	-2.3833	-2.1208	-3.0125	-2.3229	-2.5958	-2.6	-1.9188	-2.925	-29.610	286.467	-32.180	-26.537	107.513	101.360	233.621	10.598	249.459	172.852	279.851	262.619	108.457	203.570	30.162	257.159	0.00041784	0.0016283	0.00057297	820.96	6.1385e-06	2.485e-06	1102.1	201.54	1.8233e-05	2.4143e-05	330.54	116.58	63.424	26.804	3.1638e-05	58.998	0.0030018	0.0028076	0.00084483	1121.3	3.2995e-05	3.0903e-05	1338.4	326.93	3.2974e-05	3.0663e-05	499.86	175.76	184.57	41.937	3.5244e-05	81.08	57.319	9.239	130.893	-41.184	119.758	243.242	-41.301	-35.155	58.339	-18.915	-35.539	-30.515	-28.836	-24.235	197.915	-25.921	-8191	255	
3014.656	1	1	0	0	0.25165	0.35874	0.29121	0.2367	0.1356	0.018811	0.19472	0.056536	0.024516	0.22865	0.19418	0.2124	0.063116	0.11248	0.11627	0.035998	-1.8271	-2.1562	-2.9375	-2.4521	-2.2875	-2.825	-2.1083	-2.6354	-2.4979	-2.0792	-2.8854	-2.2	-2.3125	-2.8583	-1.9917	-2.5896	124.624	65.283	205.665	268.062	-13.225	64.024	-40.829	275.996	255.235	181.652	212.371	113.345	184.697	-48.137	13.368	38.962	7.8143e-05	0.00055811	0.00058769	831.98	1.3324e-06	8.5207e-06	1110	202.54	1.0515e-05	8.4475e-06	331.76	115.53	60.174	26.191	1.8986e-05	57.335	0.0029295	0.0027895	0.00091213	1121.4	3.2069e-05	3.078e-05	1369.7	320.25	3.2119e-05	3.0799e-05	511.32	171.5	179.66	41.739	3.7143e-05	78.423	301.628	148.987	126.439	-41.646	21.653	82.015	-41.423	-35.192	68.989	198.147	-35.824	-30.742	-29.777	-23.641	163.777	-26.096	-8191	255	
3014.752	1	1	0	0	0.17141	0.21429	0.085546	0.23349	0.076888	0.09822	0.27283	0.20788	0.20918	0.13635	0.04143	0.11106	0.22338	0.011789	0.051537	0.13691	-2.1542	-2.2083	-2.8229	-2.2271	-2.1354	-2.8479	-2.3042	-2.6396	-2.65	-2.0104	-2.8375	-2.3646	-2.2062	-2.7854	-2.1583	-2.625	31.185	256.527	222.596	-32.187	162.164	205.071	198.669	-22.797	2.458	288.874	180.454	35.773	298.096	240.795	-12.642	204.563	9.5724e-05	0.00095604	0.0002788	838.21	4.7004e-06	2.036e-05	1116.6	199.84	2.1938e-05	2.4534e-05	331.78	113.99	59.689	25.271	2.816e-06	56.119	0.0028618	0.0028841	0.00095584	1112.8	3.1391e-05	3.2419e-05	1390.2	314.67	3.1736e-05	3.3215e-05	519.8	167.75	178.35	42.906	3.8507e-05	76.629	36.420	136.818	255.805	-41.293	130.217	218.514	-41.427	-35.594	24.458	152.985	-35.265	-30.242	-28.016	-23.737	53.302	-26.363	-8191	255	
3014.873	1	1	0	0	0.023113	0.17642	0.26239	0.16544	0.11985	0.14633	0.24288	0.12433	0.30599	0.34565	0.082584	0.24735	0.20021	0.18719	0.089477	0.25051	-2.3292	-1.9562	-2.675	-2.55	-2.1063	-2.7583	-2.275	-2.4437	-2.5042	-2.0062	-2.7229	-2.4271	-2.0667	-2.8979	-2.1063	-2.5146	193.204	46.273	154.229	7.436	-19.408	302.305	189.971	140.784	163.953	302.396	-43.741	16.110	302.569	299.947	41.951	251.668	0.00046394	0.0033786	0.00033551	835	1.2325e-05	3.2666e-05	1100.2	196.04	2.0964e-05	2.4529e-05	324.89	113.43	57.988	25.244	1.4921e-05	56.367	0.0028822	0.0031866	0.00097444	1098.4	3.161e-05	3.5944e-05	1382.6	309.78	3.213e-05	3.6693e-05	512.39	166.53	179.22	44.669	3.7719e-05	76.614	-34.296	169.392	-36.145	-41.294	143.511	189.198	-41.339	-35.089	48.753	191.716	-36.052	-30.483	-27.310	-23.999	56.761	-26.267	-8191	255	
3014.969	1	1	0	0	0.1657	0.12566	0.15414	0.14024	0.24485	0.12721	0.34989	0.24942	0.1046	0.08742	0.060803	0.25207	0.16236	0.058147	0.024889	0.038825	-2.2479	-1.8583	-2.625	-2.4333	-2.0979	-2.8229	-2.1854	-2.3667	-2.5292	-2.1104	-2.7625	-2.4979	-2.0083	-3.0312	-2.2604	-2.4625	-7.018	1.230	-4.868	278.004	140.515	149.401	209.691	-15.114	68.937	117.351	240.318	178.298	-36.823	236.611	165.510	245.819	0.00044483	0.0033491	0.00017921	801.75	1.3475e-05	3.2079e-05	1077.1	194.15	5.3138e-05	2.2617e-05	328.95	115.86	59.932	26.695	2.6885e-05	58.277	0.0029115	0.0034695	0.00095182	1075.4	3.2498e-05	3.8802e-05	1349.6	307.62	3.3342e-05	3.938e-05	508.69	168.81	188.53	47.252	3.7152e-05	78.427	272.594	144.793	278.700	-41.268	294.219	195.949	-41.245	-34.497	209.413	199.277	-35.981	-29.844	-27.094	-24.577	36.227	-26.511	-8191	255	
3015.065	1	1	0	0	0.28685	0.17723	0.12955	0.11473	0.34364	0.19767	0.10515	0.09587	0.18344	0.20376	0.18415	0.20773	0.19445	0.3682	0.25916	0.20419	-2.3854	-1.9667	-2.6312	-2.5625	-1.9937	-2.6896	-2.4562	-2.4167	-2.8833	-1.975	-2.5208	-2.6063	-2.0354	-2.8417	-2.1229	-2.1854	113.928	-38.207	93.525	290.897	284.554	116.405	261.027	239.747	163.705	47.028	293.675	209.173	-33.711	-42.092	-9.775	277.051	0.00098999	0.00134	0.0004826	801.08	2.327e-05	1.3813e-05	1070.6	199.6	3.114e-05	1.5318e-05	331.81	117.93	62.52	27.647	5.6618e-06	59.871	0.0031444	0.0037195	0.00093351	1073.8	3.551e-05	4.0724e-05	1338.2	311.41	3.6414e-05	4.0716e-05	508.39	171.18	203.42	48.329	3.5802e-05	79.286	238.548	177.738	-42.452	-41.158	261.962	21.620	-41.568	-35.097	197.703	-17.292	-35.507	-30.037	-26.443	-24.489	45.526	-26.396	-8191	255	
3015.161	1	1	0	0	0.10471	0.14933	0.12409	0.25441	0.11841	0.36694	0.24121	0.3414	0.2031	0.063381	0.048247	0.26007	0.15872	0.043495	0.16158	0.09102	-2.5229	-2.05	-2.3542	-2.5187	-2.0187	-2.6979	-2.6813	-2.1625	-2.8896	-2.0917	-2.4458	-2.7542	-2.1083	-2.7292	-2.4708	-2.2042	14.077	-8.213	27.073	302.973	134.515	19.808	265.509	235.625	105.963	11.321	291.152	261.633	298.736	-44.927	286.769	257.479	0.00097101	0.0022228	0.00059918	801.54	2.651e-05	1.2592e-05	1081.8	200.26	3.2879e-05	2.3335e-05	336.11	119.05	62.881	27.791	1.454e-05	59.034	0.0033793	0.0036275	0.00089224	1064.9	3.7613e-05	3.8802e-05	1331.1	309.63	3.8269e-05	3.8445e-05	498.09	169.81	209.7	46.729	3.4002e-05	78.71	236.735	-12.524	75.378	-41.117	279.848	89.330	-41.156	-35.120	232.474	39.846	-35.381	-29.704	-26.044	-24.436	291.269	-26.258	-8191	255	
#DATA ENDS
