BOXY.EXE: ISS Imagent and Oximeter Data Acquisition Program Version 0.80
Ascii Record File

#ACQ INFORMATION
2  Detector Channels 
16  External MUX Channels 
1  Auxiliary Channels 
5000  Waveform (CCF) Frequency (Hz)
1  Waveforms Skipped 
30  Waveforms Averaged 
1  Cycles Averaged 
16  Acquisitions per Waveform 
10.0806  Updata Rate (Hz) 

#FILE INFORMATION
TRUE -- External MUX Channel results are PARSED.
FALSE -- AC DC and Phase are NOT grouped.
TRUE -- Companion Program Settings File CREATED.
FALSE -- AC data not excluded
FALSE -- DC data not excluded
FALSE -- Phase data not excluded
FALSE -- Auxillary Chn. data not excluded
Tab delimiters

#CALIBRATION STATE
TRUE -- Waveform Calibration Values APPLIED.


#AUX CALIBRATION VALUES
Val Type	aux-1	

Term	1.0000e+00	
Factor	0.0000e+00	


#WF CALIBRATION VALUES
A = Detector Channel
Val Type	A-AC1	A-AC2	A-AC3	A-AC4	A-AC5	A-AC6	A-AC7	A-AC8	A-AC9	A-AC10	A-AC11	A-AC12	A-AC13	A-AC14	A-AC15	A-AC16	A-DC1	A-DC2	A-DC3	A-DC4	A-DC5	A-DC6	A-DC7	A-DC8	A-DC9	A-DC10	A-DC11	A-DC12	A-DC13	A-DC14	A-DC15	A-DC16	A-Ph1	A-Ph2	A-Ph3	A-Ph4	A-Ph5	A-Ph6	A-Ph7	A-Ph8	A-Ph9	A-Ph10	A-Ph11	A-Ph12	A-Ph13	A-Ph14	A-Ph15	A-Ph16	

Term	0.00000e+00	0.00000e+00	0.00000e+00	0.00000e+00	0.00000e+00	0.00000e+00	0.00000e+00	0.00000e+00	0.00000e+00	0.00000e+00	0.00000e+00	0.00000e+00	0.00000e+00	0.00000e+00	0.00000e+00	0.00000e+00	0.00000e+00	0.00000e+00	0.00000e+00	0.00000e+00	0.00000e+00	0.00000e+00	0.00000e+00	0.00000e+00	0.00000e+00	0.00000e+00	0.00000e+00	0.00000e+00	0.00000e+00	0.00000e+00	0.00000e+00	0.00000e+00	0.00000e+00	0.00000e+00	0.00000e+00	0.00000e+00	0.00000e+00	0.00000e+00	0.00000e+00	0.00000e+00	0.00000e+00	0.00000e+00	0.00000e+00	0.00000e+00	0.00000e+00	0.00000e+00	0.00000e+00	0.00000e+00	
Factor	1.00000e+00	1.00000e+00	1.00000e+00	1.00000e+00	1.00000e+00	1.00000e+00	1.00000e+00	1.00000e+00	1.00000e+00	1.00000e+00	1.00000e+00	1.00000e+00	1.00000e+00	1.00000e+00	1.00000e+00	1.00000e+00	1.00000e+00	1.00000e+00	1.00000e+00	1.00000e+00	1.00000e+00	1.00000e+00	1.00000e+00	1.00000e+00	1.00000e+00	1.00000e+00	1.00000e+00	1.00000e+00	1.00000e+00	1.00000e+00	1.00000e+00	1.00000e+00	X	X	X	X	X	X	X	X	X	X	X	X	X	X	X	X	

B = Detector Channel
Val Type	B-AC1	B-AC2	B-AC3	B-AC4	B-AC5	B-AC6	B-AC7	B-AC8	B-AC9	B-AC10	B-AC11	B-AC12	B-AC13	B-AC14	B-AC15	B-AC16	B-DC1	B-DC2	B-DC3	B-DC4	B-DC5	B-DC6	B-DC7	B-DC8	B-DC9	B-DC10	B-DC11	B-DC12	B-DC13	B-DC14	B-DC15	B-DC16	B-Ph1	B-Ph2	B-Ph3	B-Ph4	B-Ph5	B-Ph6	B-Ph7	B-Ph8	B-Ph9	B-Ph10	B-Ph11	B-Ph12	B-Ph13	B-Ph14	B-Ph15	B-Ph16	

Term	0.00000e+00	0.00000e+00	0.00000e+00	0.00000e+00	0.00000e+00	0.00000e+00	0.00000e+00	0.00000e+00	0.00000e+00	0.00000e+00	0.00000e+00	0.00000e+00	0.00000e+00	0.00000e+00	0.00000e+00	0.00000e+00	0.00000e+00	0.00000e+00	0.00000e+00	0.00000e+00	0.00000e+00	0.00000e+00	0.00000e+00	0.00000e+00	0.00000e+00	0.00000e+00	0.00000e+00	0.00000e+00	0.00000e+00	0.00000e+00	0.00000e+00	0.00000e+00	-2.51673e+01	-1.09131e+02	-1.36792e+02	-1.83698e+02	-1.38176e+01	-7.28325e+01	-1.57869e+02	-1.62015e+02	-6.96302e+01	-9.69870e+01	-1.72092e+02	-1.75791e+02	-1.89181e+02	-1.78194e+02	-7.65473e+01	-1.51485e+02	
Factor	2.82887e-05	9.62443e-05	2.62348e-05	1.61568e-01	9.06967e-07	1.03337e-06	1.67683e-01	6.49704e-02	1.10886e-06	1.02177e-06	1.02924e-01	3.36800e-02	8.03786e-02	9.68118e-03	9.66469e-07	1.40111e-02	7.08911e-07	7.21329e-07	2.01149e-07	7.90580e-02	7.90081e-09	7.90084e-09	7.70976e-02	3.12878e-02	7.89045e-09	7.89930e-09	4.70277e-02	1.53915e-02	3.30660e-02	4.62330e-03	7.91615e-09	6.40668e-03	X	X	X	X	X	X	X	X	X	X	X	X	X	X	X	X	



#DISTANCE SETTINGS
A = Detector Channel
A-1	A-2	A-3	A-4	A-5	A-6	A-7	A-8	A-9	A-10	A-11	A-12	A-13	A-14	A-15	A-16	

2.5000e+00	3.0000e+00	2.5000e+00	3.0000e+00	2.0000e+00	3.0000e+00	1.5000e+00	3.0000e+00	3.0000e+00	3.0000e+00	3.0000e+00	3.0000e+00	3.0000e+00	3.0000e+00	1.5000e+00	3.0000e+00	

B = Detector Channel
B-1	B-2	B-3	B-4	B-5	B-6	B-7	B-8	B-9	B-10	B-11	B-12	B-13	B-14	B-15	B-16	

1.0000e+01	1.0000e+01	1.0000e+01	1.4400e+00	1.0000e+01	1.0000e+01	1.5100e+00	1.9400e+00	1.0000e+01	1.0000e+01	1.9900e+00	2.4900e+00	2.4100e+00	2.9000e+00	1.0000e+01	2.9800e+00	




#DATA BEGINS
time	group	step	mark	flag	A-AC1	A-AC2	A-AC3	A-AC4	A-AC5	A-AC6	A-AC7	A-AC8	A-AC9	A-AC10	A-AC11	A-AC12	A-AC13	A-AC14	A-AC15	A-AC16	A-DC1	A-DC2	A-DC3	A-DC4	A-DC5	A-DC6	A-DC7	A-DC8	A-DC9	A-DC10	A-DC11	A-DC12	A-DC13	A-DC14	A-DC15	A-DC16	A-Ph1	A-Ph2	A-Ph3	A-Ph4	A-Ph5	A-Ph6	A-Ph7	A-Ph8	A-Ph9	A-Ph10	A-Ph11	A-Ph12	A-Ph13	A-Ph14	A-Ph15	A-Ph16	B-AC1	B-AC2	B-AC3	B-AC4	B-AC5	B-AC6	B-AC7	B-AC8	B-AC9	B-AC10	B-AC11	B-AC12	B-AC13	B-AC14	B-AC15	B-AC16	B-DC1	B-DC2	B-DC3	B-DC4	B-DC5	B-DC6	B-DC7	B-DC8	B-DC9	B-DC10	B-DC11	B-DC12	B-DC13	B-DC14	B-DC15	B-DC16	B-Ph1	B-Ph2	B-Ph3	B-Ph4	B-Ph5	B-Ph6	B-Ph7	B-Ph8	B-Ph9	B-Ph10	B-Ph11	B-Ph12	B-Ph13	B-Ph14	B-Ph15	B-Ph16	aux-1	digaux	

4325.285	1	1	0	256	0.077801	0.17388	0.2336	0.38506	0.12162	0.046375	0.19312	0.1529	0.1878	0.50895	0.039799	0.14744	0.15796	0.13566	0.1722	0.24966	-1.7062	-2.7542	-2.1104	-2.2625	-2.7271	-2.1604	-2.6	-2.5021	-2.1854	-2.8688	-2.6208	-2.2458	-2.975	-2.2354	-2.3896	-2.4917	191.701	91.586	87.698	-45.161	165.766	131.974	45.514	257.955	201.079	273.071	248.268	250.147	-57.334	22.194	287.557	174.883	0.00059508	0.0037104	0.00059233	499.57	1.0426e-05	3.0983e-05	500.55	170.62	2.7813e-05	3.1531e-05	199.18	80.327	62.931	29.283	1.9637e-05	43.51	0.0039546	0.0041863	0.0011108	901.8	4.7925e-05	4.8405e-05	913	336.75	4.9133e-05	4.8027e-05	451.17	159.61	256.45	55.145	4.4859e-05	76.806	271.266	-27.711	278.566	-58.017	246.368	7.550	-58.511	-52.324	198.834	26.757	-54.025	-48.482	-45.958	-42.870	71.768	-45.354	-8191	255	
4325.381	1	1	0	0	0.24802	0.20462	0.21998	0.18192	0.067505	0.08847	0.071156	0.038336	0.32532	0.093199	0.27654	0.22101	0.097658	0.046605	0.13261	0.21413	-1.6812	-2.5687	-2.2188	-2.3812	-2.9062	-2.1792	-2.4562	-2.7313	-1.9417	-2.8896	-2.5375	-1.9625	-2.7646	-2.2708	-2.3292	-2.8208	147.176	244.804	191.363	-34.618	166.163	-60.533	49.398	206.219	-20.783	31.626	-31.325	-62.236	205.124	-7.217	211.077	113.717	0.0005743	0.0037379	0.00011305	493.8	1.6319e-05	1.9381e-05	499.07	170.31	6.0728e-06	9.0538e-06	204.51	81.957	67.584	31.41	5.3683e-06	45.006	0.0046055	0.0045546	0.0012414	970.06	5.6346e-05	5.4119e-05	975.79	375.21	5.9363e-05	5.5413e-05	505.62	184.51	309.21	62.274	5.43e-05	88.571	285.748	16.587	235.451	-58.177	181.068	7.469	-58.371	-51.945	139.172	42.397	-54.717	-49.246	-46.006	-42.511	-61.937	-44.899	-8191	255	
4325.477	1	1	0	0	0.32031	0.25698	0.078738	0.037284	0.32909	0.13921	0.13187	0.18427	0.057741	0.14445	0.1454	0.1887	0.22972	0.13938	0.12572	0.36027	-1.5104	-2.5104	-2.6437	-2.2812	-3.0146	-2.1312	-2.4313	-2.8292	-2.0646	-2.6063	-2.9333	-2.2479	-2.9542	-2.4396	-2.2062	-2.8917	225.506	10.205	101.839	144.787	276.199	57.053	135.962	278.154	19.564	-60.002	225.235	-37.591	259.556	261.727	80.954	194.778	0.00033835	0.001297	0.00019414	509.19	1.7755e-05	2.0811e-05	510.89	179.43	3.2741e-05	1.7454e-05	211.44	85.704	74.249	34.066	2.8132e-05	48.848	0.0055597	0.0052227	0.0014229	1085.9	6.3269e-05	5.9832e-05	1050.1	424.66	6.7812e-05	6.36e-05	567.32	213.35	342.77	68.561	6.0123e-05	98.008	74.894	99.906	-20.676	-58.439	153.387	17.357	-59.002	-52.154	29.893	72.339	-54.742	-48.682	-47.007	-42.819	228.707	-44.871	-8191	255	
4325.574	1	1	0	0	0.042343	0.058731	0.11014	0.35264	0.071437	0.33082	0.22689	0.058878	0.19561	0.17067	0.027972	0.19487	0.065098	0.19482	0.16188	0.22274	-1.6896	-2.4896	-2.5563	-1.9896	-2.7854	-2.4917	-2.3083	-2.8854	-2.1354	-2.6167	-2.7875	-2.1896	-2.825	-2.5687	-2.1625	-2.9188	239.261	-19.712	4.049	228.700	220.150	37.130	176.775	135.955	131.873	178.667	-2.973	218.650	136.204	87.321	274.147	205.809	0.00035707	0.0013594	0.00022357	539.21	6.9422e-06	6.7902e-06	524.72	195.68	2.8764e-05	2.4033e-05	220.89	94.457	78.631	37.859	3.2247e-05	53.16	0.0057306	0.0053577	0.0014818	1146.9	6.1207e-05	5.7485e-05	1050.3	425.23	5.8277e-05	5.396e-05	525.57	200.58	291.93	65.342	5.14e-05	93.398	33.078	48.988	132.146	-57.566	110.671	199.236	-58.407	-52.005	63.643	54.669	-53.944	-49.319	-46.833	-42.173	168.905	-45.101	-8191	255	
4325.670	1	1	0	0	0.081775	0.13529	0.032661	0.2661	0.19699	0.16238	0.048249	0.073818	0.061812	0.22614	0.23166	0.092502	0.15339	0.15079	0.2103	0.28833	-1.6604	-2.3396	-2.6708	-2.0958	-2.6	-2.6208	-2.1375	-2.9	-2.1813	-2.15	-2.7792	-2.2188	-2.5625	-2.5833	-2.0896	-2.8542	73.055	194.419	130.471	268.086	215.948	-12.894	251.852	203.799	-17.765	151.530	233.518	179.037	257.533	192.684	-54.728	141.412	0.00116	0.00057582	0.0002876	558	1.4781e-05	1.5844e-05	534.7	205.28	2.1817e-05	3.5453e-06	229.65	99.229	84.267	39.854	1.0148e-06	54.596	0.004589	0.0043229	0.001209	1015.3	4.3311e-05	4.0197e-05	896.58	349.93	3.641e-05	3.3494e-05	415.31	158.14	195.22	53.649	2.9227e-05	73.035	27.968	-54.472	126.048	-57.590	229.635	-39.973	-58.407	-51.650	65.970	81.668	-53.562	-48.869	-46.405	-42.194	-30.320	-45.148	-8191	255	
4325.766	1	1	0	0	0.18032	0.19095	0.26104	0.1892	0.1253	0.060727	0.18459	0.29313	0.16912	0.29273	0.09946	0.11366	0.14873	0.24785	0.052356	0.24599	-1.8604	-2.3	-2.6312	-2.0542	-2.5438	-2.5812	-2.1667	-2.725	-2.2333	-2.1937	-2.7542	-2.2313	-2.4229	-2.7	-2.0833	-2.8146	37.989	-4.311	-63.364	260.838	39.844	62.562	11.606	64.860	276.308	126.941	-60.021	10.432	268.556	276.913	21.928	277.738	0.00034288	0.00049649	0.00015737	553.01	5.7117e-06	4.4889e-06	537.4	204.21	8.8259e-06	8.4847e-06	229.64	97.435	81.01	38.876	1.0657e-05	53.627	0.0023222	0.0021982	0.00064583	772.04	2.2619e-05	2.1735e-05	730.21	277.91	2.1027e-05	2.028e-05	340.83	130.6	148.13	47.392	2.1113e-05	64.911	127.280	-60.323	89.078	-57.309	167.995	89.041	-58.038	-51.768	136.665	283.849	-53.971	-48.785	-44.788	-42.119	152.072	-44.981	-8191	255	
4325.885	1	1	0	0	0.13818	0.40651	0.18524	0.2477	0.071389	0.25543	0.10778	0.30784	0.248	0.080291	0.18501	0.37927	0.068192	0.28586	0.25288	0.15058	-1.8417	-2.0708	-2.825	-2.1958	-2.4062	-2.7396	-2.225	-2.6437	-2.5917	-2.1958	-2.8333	-2.3563	-2.5354	-2.7104	-2	-2.7979	-55.226	14.953	269.191	284.182	66.822	121.577	190.525	275.033	-49.853	-11.691	280.653	-47.617	211.329	289.846	129.360	275.936	0.00034225	0.0011143	0.00037448	552.86	2.5137e-06	9.7373e-06	548.96	209.32	2.8556e-06	8.001e-06	239.47	100.81	85.321	41.068	6.0565e-06	56.359	0.0017116	0.001703	0.00052009	714.91	1.821e-05	1.85e-05	707.17	267.61	1.777e-05	1.7851e-05	330.24	126.74	137.26	47.903	1.7913e-05	64.246	271.498	213.219	182.257	-57.485	131.859	-3.225	-57.823	-51.592	259.281	143.938	-54.300	-48.318	-44.719	-41.957	183.336	-45.075	-8191	255	
4325.958	1	1	0	0	0.25875	0.03185	0.17811	0.12748	0.11952	0.095783	0.11946	0.36276	0.10261	0.13419	0.18539	0.24071	0.10824	0.24876	0.19157	0.054872	-2.0563	-2.0938	-2.8354	-2.25	-2.3208	-2.6229	-1.9438	-2.6146	-2.4854	-2.1437	-2.8042	-2.2854	-2.1583	-2.9062	-2.1146	-2.6813	227.483	213.892	-54.152	81.956	86.405	7.610	133.654	222.627	-29.911	218.860	-57.974	-39.439	63.567	254.207	230.563	15.901	0.00049458	0.001603	0.0001475	564.83	4.1084e-06	7.9235e-06	554.54	212.14	1.0209e-05	1.3664e-05	242.42	102.47	86.574	41.31	9.8277e-06	56.282	0.0014236	0.0014792	0.00043046	687.26	1.468e-05	1.5502e-05	675.8	255.06	1.4296e-05	1.5343e-05	312.76	122.11	129.78	47.629	1.6631e-05	63.699	208.487	154.014	52.163	-57.258	230.860	262.763	-58.015	-51.562	146.219	150.392	-53.722	-48.607	-46.298	-41.930	34.048	-45.153	-8191	255	
4326.054	1	1	0	0	0.082826	0.20449	0.051493	0.099671	0.083251	0.056968	0.25488	0.19197	0.21449	0.28268	0.16708	0.1396	0.25569	0.1362	0.20896	0.19838	-2.2146	-1.8937	-2.7	-2.3854	-2.2229	-2.7854	-2.2229	-2.5646	-2.6708	-1.875	-2.7417	-2.3917	-2.0125	-2.775	-2.0792	-2.4188	-60.755	287.998	12.720	0.393	245.577	102.229	190.160	182.580	143.483	-1.440	131.376	110.271	80.469	181.332	-40.217	271.426	0.00056707	0.00098742	0.00018964	570.43	1.3708e-05	4.766e-06	564.28	216.72	3.2817e-06	6.9995e-06	249.2	106.07	88.38	43.311	1.5702e-05	58.893	0.0014039	0.0015584	0.00043043	695.16	1.5579e-05	1.7176e-05	687.66	261.13	1.4993e-05	1.6006e-05	314.87	124.54	129.46	48.665	1.4412e-05	64.374	284.406	53.624	-4.649	-57.526	165.021	-9.087	-57.906	-51.310	265.926	-37.793	-53.819	-48.808	-45.386	-42.131	14.449	-45.183	-8191	255	
4326.173	1	1	0	0	0.31242	0.30258	0.10646	0.14874	0.22765	0.33016	0.24973	0.12207	0.055438	0.10384	0.15917	0.12117	0.13634	0.16111	0.08523	0.21014	-2.2458	-1.9688	-2.7292	-2.375	-1.9062	-2.7208	-2.2229	-2.5167	-2.7188	-1.9854	-2.7125	-2.6208	-1.8771	-2.5208	-2.2771	-2.4979	19.430	254.202	222.850	5.200	-13.836	-12.956	195.916	275.664	20.548	-30.844	269.168	69.380	182.517	60.744	194.405	211.286	0.00023869	0.0010818	0.00040186	574.84	1.7294e-05	8.5857e-06	561.29	215.9	5.3529e-06	1.8468e-06	245.75	104.75	88.203	43.041	7.177e-06	58.213	0.001283	0.0014103	0.00037249	677.57	1.4327e-05	1.5447e-05	664.27	253.75	1.4163e-05	1.4896e-05	304.05	121.37	128.46	47.926	1.3448e-05	63.216	-61.853	144.485	-43.690	-57.346	222.025	92.623	-57.594	-51.776	7.007	41.028	-53.949	-48.482	-45.202	-42.162	-35.098	-44.996	-8191	255	
4326.269	1	1	0	0	0.35102	0.15782	0.19673	0.049877	0.2289	0.18992	0.19888	0.409	0.11753	0.076154	0.030365	0.22098	0.11355	0.13321	0.15136	0.21534	-2.5021	-1.9688	-2.5438	-2.4333	-1.9813	-2.6771	-2.2271	-2.1771	-2.6125	-1.925	-2.4771	-2.5979	-2.0729	-2.7542	-2.3396	-2.1688	97.295	139.598	102.172	171.979	143.707	200.743	155.955	271.185	233.130	66.306	259.833	38.438	184.341	68.016	195.946	168.733	0.00041588	0.00042059	0.00030701	575.85	4.3507e-06	7.4959e-06	563.55	221.62	7.4588e-06	1.1175e-05	254.55	108.65	93.229	45.281	4.4294e-06	60.894	0.0012439	0.001305	0.00033621	668.94	1.3787e-05	1.412e-05	659.39	256.56	1.3976e-05	1.367e-05	304.92	123.77	130.32	49.44	1.2706e-05	65.32	271.525	-3.220	67.545	-57.147	-65.381	38.884	-57.532	-51.447	277.354	26.654	-53.675	-48.797	-45.793	-42.488	280.784	-45.321	-8191	255	
4326.365	1	1	0	0	0.010459	0.12256	0.22792	0.12168	0.19977	0.037994	0.16146	0.42418	0.10685	0.38841	0.10551	0.028582	0.12939	0.18205	0.15849	0.079087	-2.4792	-2.0687	-2.2479	-2.5187	-1.7792	-2.6229	-2.4354	-2.1771	-2.6208	-1.975	-2.3729	-2.45	-1.8167	-2.8083	-2.3521	-2.0729	-43.206	-67.558	59.093	-22.326	-7.403	289.650	-48.576	210.612	29.548	144.828	-54.350	90.142	52.127	-57.515	84.866	236.658	0.00046242	0.0007037	0.00013142	586.63	3.3064e-06	9.8239e-06	577.18	229.82	4.0162e-06	3.3448e-06	263.85	114.94	96.944	47.485	1.3984e-05	63.719	0.0012363	0.0012126	0.0003176	674.87	1.3433e-05	1.2848e-05	660.08	260.61	1.3194e-05	1.2531e-05	308.41	128.48	132.94	50.849	1.1999e-05	67.672	280.887	-36.458	235.898	-56.759	230.036	45.261	-57.461	-51.362	34.627	140.527	-54.065	-48.821	-45.604	-42.094	9.130	-45.341	-8191	255	
4326.462	1	1	0	0	0.063624	0.17065	0.17	0.13451	0.088064	0.11402	0.26768	0.31263	0.083719	0.23838	0.22184	0.22546	0.173	0.18533	0.13446	0.17103	-2.1854	-2.0854	-2.0708	-2.6521	-2.0104	-2.6104	-2.3875	-1.9646	-2.7042	-2.1437	-2.1833	-2.7438	-1.8521	-2.5729	-2.3937	-1.9333	145.895	117.439	164.993	119.225	-44.561	228.956	194.202	159.923	129.295	48.872	136.215	-47.996	190.803	133.323	194.342	15.995	0.00056796	0.0004039	0.00011186	596.85	1.054e-05	5.8416e-06	584.82	234.27	9.1922e-06	1.9962e-06	267.03	117.08	97.161	47.559	7.9824e-06	64.134	0.0011914	0.0011375	0.00030512	685.51	1.3265e-05	1.2384e-05	666.03	266.43	1.302e-05	1.2204e-05	311.13	131.32	131.98	50.787	1.1574e-05	68.313	263.716	-49.931	289.211	-57.351	113.941	22.385	-57.619	-51.411	6.510	46.611	-53.969	-48.612	-45.824	-42.153	202.794	-45.034	-8191	255	
4326.582	1	1	0	0	0.14137	0.22654	0.075297	0.10953	0.22095	0.1456	0.16118	0.29371	0.16684	0.17133	0.033975	0.15562	0.33703	0.10273	0.056565	0.17974	-2.2396	-2.1979	-2.275	-2.7208	-1.8958	-2.5229	-2.6729	-2.0646	-2.7229	-2.3229	-1.9125	-2.7938	-1.95	-2.45	-2.4271	-1.9583	115.203	171.681	13.042	108.660	-44.595	93.979	-46.368	4.927	128.097	256.473	131.419	-0.775	115.554	258.689	265.420	184.525	0.00034796	0.00097579	0.00016015	591.06	5.2753e-06	5.8353e-06	582.82	229.64	8.9757e-06	1.1426e-05	257.71	110.72	93.265	44.004	6.2306e-06	58.887	0.0011213	0.001055	0.00028327	675.29	1.17e-05	1.076e-05	647.33	257.47	1.0495e-05	9.7864e-06	291.43	121.35	113.68	45.558	8.9325e-06	61.246	188.312	-4.807	-2.168	-57.287	141.496	175.765	-57.650	-51.475	107.122	123.877	-53.827	-48.885	-46.779	-42.376	170.705	-45.259	-8191	255	
4326.654	1	1	0	0	0.24343	0.18179	0.045212	0.25986	0.027288	0.23802	0.15136	0.19445	0.028775	0.29153	0.31051	0.1219	0.3036	0.1611	0.12882	0.11043	-2.0479	-2.2479	-2.0667	-2.8042	-2.075	-2.3125	-2.7125	-2.0708	-2.6854	-2.3292	-2.1437	-2.9313	-2.0271	-2.4875	-2.7125	-2.0354	-42.327	1.023	62.187	241.556	189.287	20.635	-6.891	283.763	275.664	287.096	264.441	31.046	290.099	242.645	-12.621	143.017	0.00029854	0.00071562	0.00044631	560.06	1.0763e-05	4.6765e-06	556.81	215.52	2.2075e-06	8.3158e-06	246.3	103.66	87.456	41.437	5.3317e-06	57.754	0.0008565	0.00083663	0.00023738	628.68	9.9514e-06	9.5559e-06	618.43	240.81	1.0028e-05	9.7294e-06	283.59	115.88	112.55	43.811	1.0604e-05	61.131	279.146	93.722	58.986	-57.657	83.529	62.340	-57.908	-51.499	80.500	57.452	-54.111	-48.945	-45.687	-42.387	203.357	-45.222	-8191	255	
4326.775	1	1	0	0	0.079027	0.20726	0.1489	0.32402	0.25645	0.18003	0.10767	0.3314	0.28146	0.20076	0.10408	0.20356	0.10432	0.28591	0.10542	0.089799	-2.1771	-2.2146	-2.0292	-2.8167	-2.0979	-2.3187	-2.9375	-1.9667	-2.4396	-2.6729	-2.0187	-2.7625	-2.3	-2.2604	-2.8229	-2.0646	73.649	-32.320	248.404	278.182	78.890	75.259	221.083	229.747	258.590	242.886	23.293	120.398	151.548	284.236	63.024	-16.728	0.00033944	0.0009173	0.00015125	568.12	8.0257e-06	2.6164e-06	563.66	216.62	6.1554e-06	3.2904e-06	249.04	105.22	87.726	41.934	5.8799e-06	58.272	0.00094449	0.00092787	0.0002737	643.89	1.0447e-05	1.0049e-05	634.71	245.45	1.0279e-05	1.0173e-05	291.23	117.77	113.06	44.37	1.0936e-05	61.365	263.408	-4.947	49.695	-57.858	82.470	51.097	-57.964	-51.373	64.308	90.108	-53.890	-49.146	-45.860	-42.336	167.001	-44.889	-8191	255	
4326.871	1	1	0	0	0.18228	0.09206	0.141	0.26322	0.17685	0.28378	0.16462	0.044949	0.036327	0.082933	0.11424	0.25621	0.1409	0.16522	0.34059	0.076609	-2.1167	-2.5271	-1.9833	-2.8208	-2.4062	-2.0354	-2.7917	-2.0292	-2.2938	-2.6417	-2.0812	-2.6625	-2.5979	-2.0958	-2.7188	-2.3125	276.506	82.226	-46.370	226.592	88.061	-34.626	175.958	-41.836	46.051	285.242	218.219	256.351	277.000	244.705	224.479	148.150	7.4645e-05	0.00096714	0.000207	563.38	1.6105e-06	6.2163e-06	557.37	216.06	3.5553e-06	2.6325e-06	249.6	105.47	87.615	41.232	4.3266e-06	57.872	0.00091958	0.00092064	0.00028311	636.38	1.0574e-05	1.0409e-05	639.69	245.6	1.0858e-05	1.113e-05	297.54	119.57	117.43	44.885	1.2973e-05	62.256	-0.572	157.033	100.313	-57.625	240.463	66.097	-58.016	-51.617	3.654	58.834	-53.528	-48.908	-45.840	-42.187	155.903	-44.951	-8191	255	
4326.965	1	1	0	0	0.14964	0.19786	0.2766	0.062029	0.15975	0.11144	0.21643	0.31322	0.1184	0.15341	0.13618	0.22323	0.042866	0.092399	0.2912	0.090419	-1.9625	-2.6125	-1.7854	-2.7521	-2.5333	-2.1583	-3.0312	-2.1833	-2.1583	-2.6521	-1.975	-2.7708	-2.5958	-2.1479	-2.7104	-2.1437	25.329	229.310	-2.646	171.717	76.259	39.611	25.945	103.206	156.325	168.426	173.568	-66.161	157.453	-47.300	86.536	-26.071	0.00044173	0.0013072	0.00021851	561.03	4.887e-06	1.1948e-05	561.24	214.76	6.2271e-06	1.3135e-05	248.93	106.16	87.064	41.161	5.333e-06	57.978	0.0010696	0.0011217	0.00033807	647.5	1.1828e-05	1.2203e-05	651.21	246.43	1.137e-05	1.2054e-05	299.97	119.25	115.8	44.822	1.2012e-05	61.384	252.036	204.242	-10.209	-57.554	79.549	221.624	-57.760	-51.569	120.063	162.721	-54.013	-48.931	-45.716	-42.040	34.399	-44.966	-8191	255	
4327.063	1	1	0	0	0.079122	0.17925	0.048856	0.39295	0.10021	0.10963	0.15246	0.084873	0.22146	0.20878	0.20364	0.12785	0.1392	0.089265	0.033177	0.095653	-1.9458	-2.7396	-2.0604	-2.6562	-2.65	-2.0333	-2.9	-2.6146	-2.2104	-2.7521	-1.9771	-2.3625	-2.5521	-2.1104	-2.8354	-2.55	264.482	277.633	4.611	238.782	-25.969	72.527	284.374	242.284	-52.466	63.255	47.029	29.666	156.475	149.389	-56.637	111.509	0.00040175	0.000689	0.00010684	559.31	4.2575e-06	2.474e-07	557.91	212.87	4.6675e-06	6.8795e-06	246.18	104.04	86.385	40.939	1.0239e-05	57.076	0.00097338	0.0010759	0.00030822	636.29	1.124e-05	1.2282e-05	642	244.36	1.1411e-05	1.2652e-05	296.03	117.14	117.34	45.265	1.2382e-05	61.176	-59.967	168.018	-54.364	-57.447	85.506	-21.480	-57.955	-52.063	144.512	179.454	-53.809	-48.708	-46.055	-41.996	35.858	-44.833	-8191	255	
4327.182	1	1	0	0	0.12103	0.060064	0.15972	0.20737	0.25297	0.11088	0.33328	0.19163	0.15886	0.16637	0.19578	0.068778	0.043661	0.2698	0.27173	0.041646	-1.7729	-2.6375	-1.9854	-2.4188	-2.5646	-2.1188	-2.7229	-2.3604	-2.15	-2.9375	-2.2062	-2.4125	-2.6021	-2.0708	-2.6021	-2.625	89.756	168.978	179.531	254.070	56.005	195.961	196.814	263.996	35.392	254.972	286.956	-27.864	143.160	233.119	-51.335	-56.561	0.00021091	0.00028327	1.6737e-05	558.34	6.0094e-06	4.6256e-06	557.28	215.66	5.5369e-06	4.1521e-06	244.96	102.58	85.802	40.76	3.4831e-06	56.422	0.0010464	0.0011723	0.00031273	638.79	1.1798e-05	1.3079e-05	642.95	247.18	1.2711e-05	1.4287e-05	303.61	119.79	128.79	46.931	1.5569e-05	63.661	259.220	24.519	237.367	-57.033	286.320	251.089	-58.024	-51.581	107.203	31.041	-53.854	-48.905	-44.742	-42.240	158.008	-45.038	-8191	255	
4327.254	1	1	0	0	0.23295	0.24811	0.067455	0.14568	0.23302	0.12641	0.077157	0.18833	0.18956	0.025326	0.28891	0.17557	0.17115	0.080666	0.30626	0.13102	-1.5438	-2.7833	-2.1417	-2.3479	-2.6167	-1.8375	-2.6667	-2.6688	-1.9813	-2.7438	-2.0646	-2.4167	-2.8729	-1.8896	-2.3833	-2.8458	31.863	1.578	57.819	158.879	195.391	258.182	244.282	169.323	102.524	79.879	38.731	131.604	114.137	266.474	129.776	31.993	0.00036001	0.00090997	0.00047356	563.17	1.3057e-05	1.8406e-05	557.22	212.6	5.5477e-06	1.5904e-05	242.6	101.81	83.816	39.964	8.3081e-06	55.764	0.0014905	0.0016665	0.0004423	698.99	1.8677e-05	1.9995e-05	706.36	271.7	2.0555e-05	2.1775e-05	343.6	132.92	165.26	51.283	2.3762e-05	70.073	261.577	97.391	-30.588	-57.325	-51.147	87.392	-57.824	-51.557	180.301	80.440	-54.079	-48.686	-45.845	-42.159	78.462	-44.932	-8191	255	
4327.350	1	1	0	0	0.13247	0.11992	0.24329	0.1583	0.18456	0.16078	0.084969	0.23527	0.031842	0.069853	0.13062	0.23476	0.15102	0.083457	0.2964	0.36066	-1.6479	-2.8417	-2.3187	-2.2792	-2.8812	-2.1708	-2.4667	-2.7375	-2.0354	-2.7396	-2.3854	-2.1937	-2.8042	-1.9479	-2.425	-2.8292	9.603	99.223	161.538	258.558	258.521	115.593	-45.217	139.296	119.782	-18.742	36.746	208.704	126.164	285.665	-34.211	252.782	0.00088624	0.0012681	0.00028115	551.6	9.545e-07	1.4193e-05	548.81	205.93	8.0006e-06	1.0135e-06	237.12	99.802	82.93	39.708	7.4591e-06	54.885	0.002447	0.0025463	0.00067261	783.27	2.9505e-05	2.9579e-05	788.54	303.83	3.1471e-05	3.0723e-05	389.22	148.06	201.17	54.457	2.9276e-05	74.487	250.241	-42.472	-11.871	-57.545	-28.990	-24.095	-58.069	-51.139	189.274	217.579	-53.895	-48.997	-45.641	-41.867	108.811	-45.144	-8191	255	
4327.470	1	1	0	0	0.056775	0.074102	0.13227	0.22072	0.09494	0.080512	0.21854	0.11553	0.076251	0.28224	0.18368	0.043883	0.1158	0.06197	0.086843	0.35989	-1.5688	-2.6813	-2.2771	-2.2208	-2.9437	-1.9771	-2.5854	-2.7104	-1.8792	-2.6875	-2.55	-2.025	-2.8146	-2.2708	-2.2271	-2.9437	-38.502	231.508	272.846	282.600	60.067	254.927	44.570	-32.339	-66.376	255.761	238.435	217.370	231.819	-41.670	31.620	197.848	0.00035044	0.00053391	0.00025967	548.78	3.978e-06	2.6756e-06	536.44	203	7.9923e-06	1.9395e-05	232.6	98.715	82.839	39.345	5.2418e-06	55.014	0.0030437	0.0029532	0.0007943	834.6	3.4053e-05	3.1206e-05	791.57	307.68	3.1699e-05	2.9243e-05	376.84	146.48	190.18	52.265	2.5512e-05	71.967	254.851	83.440	-23.011	-57.662	-61.617	22.800	-58.059	-51.142	10.382	10.725	-53.989	-48.376	-45.859	-42.016	213.791	-44.986	-8191	255	
4327.566	1	1	0	0	0.15123	0.15506	0.086989	0.062659	0.32241	0.040316	0.32063	0.097687	0.1936	0.20871	0.073136	0.16872	0.13754	0.14685	0.17603	0.22081	-1.725	-2.75	-2.5271	-1.8979	-2.9417	-2.3229	-2.2875	-2.8396	-1.9396	-2.5646	-2.6479	-1.9396	-2.8542	-2.4688	-2.2021	-3.05	285.314	160.122	257.426	-61.859	16.464	187.093	198.503	174.349	162.095	98.007	50.190	257.110	230.449	255.828	180.077	197.367	0.0001533	0.00040941	0.00032211	542.06	7.8271e-06	1.3364e-05	535.97	204.03	9.9969e-06	5.2361e-06	236.34	101.12	84.68	40.417	7.8153e-06	56.371	0.0025207	0.002325	0.00062482	771.44	2.5596e-05	2.3408e-05	719.83	285.2	2.3825e-05	2.2111e-05	344.89	140.07	170.78	51.155	2.3615e-05	72.972	-21.884	157.356	-3.082	-57.286	186.931	-51.965	-57.967	-51.630	83.550	41.328	-53.629	-49.108	-45.530	-42.116	143.449	-44.958	-8191	255	
4327.663	1	1	0	0	0.03716	0.016954	0.073895	0.18167	0.14962	0.17695	0.12622	0.26469	0.21807	0.048424	0.021695	0.084026	0.11729	0.33696	0.14257	0.1083	-1.6354	-2.2667	-2.5458	-2.2083	-2.6167	-2.2042	-2.1437	-2.9	-2.1646	-2.3833	-2.8063	-2.1917	-2.65	-2.3958	-2.0396	-2.9958	169.908	191.304	4.754	285.106	206.854	254.143	-18.534	-41.138	150.448	173.317	214.257	234.258	-12.776	-1.373	-8.037	34.477	0.00039526	0.0014625	0.00023135	551.7	1.5265e-05	1.5615e-05	545.91	211.44	1.2961e-05	8.3038e-06	239.39	103.23	86.238	40.387	8.0993e-06	56.635	0.0024551	0.0024112	0.00070531	839.54	3.2175e-05	3.1573e-05	826.85	339.05	3.4906e-05	3.3556e-05	427.88	169.54	218.39	57.074	3.4082e-05	81.016	92.793	-61.828	-21.988	-57.441	101.605	11.681	-57.844	-51.605	74.541	89.999	-53.752	-48.664	-47.270	-42.361	211.051	-44.730	-8191	255	
4327.759	1	1	0	0	0.13609	0.14331	0.09165	0.25862	0.26633	0.055158	0.27206	0.042306	0.15431	0.038797	0.099066	0.18883	0.41632	0.13633	0.22281	0.36552	-1.6146	-2.45	-2.7062	-2.2875	-2.5812	-2.5604	-2.1667	-3.0979	-2.2375	-2.2604	-2.7854	-2.0292	-2.6125	-2.6104	-2.1146	-2.8896	-17.321	-2.878	143.982	239.771	100.791	-49.550	257.411	239.855	157.705	201.825	10.776	231.508	-58.963	112.429	109.507	77.495	0.00040977	0.00099948	0.00077743	545.85	3.7472e-06	1.2959e-05	548.39	211.8	1.1621e-05	1.9431e-05	243.31	105.22	85.232	38.938	1.0778e-05	56.098	0.0030216	0.0028444	0.00078036	831.53	2.9108e-05	2.8424e-05	811.53	321.59	2.9341e-05	2.7897e-05	399.84	155.6	181.43	50.899	2.5829e-05	71.55	-39.397	42.111	160.606	-57.365	142.371	72.867	-58.090	-52.000	-44.951	91.530	-53.700	-48.481	-47.187	-42.130	183.972	-44.824	-8191	255	
4327.855	1	1	0	0	0.16554	0.094456	0.21638	0.19868	0.14925	0.052848	0.091844	0.095491	0.24692	0.13244	0.58546	0.20536	0.14496	0.025424	0.074892	0.11848	-1.9604	-2.4458	-2.7208	-2.1021	-2.5542	-2.6625	-2.1083	-2.8229	-2.4979	-2.2292	-2.7125	-2.1042	-2.2708	-2.6479	-2.0875	-2.7333	-15.468	-66.392	4.911	275.639	-41.418	6.299	115.696	250.840	-32.301	282.549	219.246	254.458	17.836	139.842	157.961	203.589	0.00015441	6.9385e-05	0.00038588	537.54	6.7426e-06	1.3663e-05	548.66	205.37	8.3152e-06	6.6691e-06	238.46	102.58	83.237	37.874	9.8577e-06	54.507	0.002156	0.0021211	0.00065638	766.77	2.4071e-05	2.3854e-05	768.17	293.3	2.5235e-05	2.5133e-05	386.7	147.37	172.67	49.989	2.7161e-05	69.706	268.365	3.266	127.036	-57.784	-50.408	91.983	-57.995	-51.770	-62.478	258.937	-54.049	-49.048	-45.292	-41.967	275.521	-45.019	-8191	255	
4327.949	1	1	0	0	0.027411	0.078054	0.26517	0.2033	0.10548	0.1698	0.2302	0.085024	0.14963	0.12879	0.15132	0.20761	0.12226	0.2204	0.40139	0.090532	-2.0708	-2.0708	-2.9292	-2.0625	-2.4458	-2.7313	-2.1292	-2.7958	-2.5146	-2.1521	-2.8521	-2.2	-2.2583	-2.8646	-2.0354	-2.8438	-2.719	279.515	187.071	264.128	271.367	219.060	185.362	62.057	206.399	267.646	62.560	-56.504	-31.075	222.885	145.110	263.385	0.0001668	0.00033217	7.5778e-05	540.85	2.9205e-06	1.1109e-05	545.8	207.18	1.3203e-05	5.178e-06	239.98	101.3	82.633	38.103	1.6135e-05	55.253	0.0020268	0.0019886	0.00059398	722.98	2.0011e-05	2.0484e-05	730.06	271.82	1.9648e-05	1.9929e-05	344.18	130.44	141.4	46.131	1.9525e-05	63.97	0.132	75.078	153.701	-57.592	60.862	203.985	-57.974	-51.958	118.709	251.704	-53.949	-49.072	-46.075	-41.567	-30.144	-45.113	-8191	255	
4328.045	1	1	0	0	0.066799	0.019771	0.17046	0.076935	0.19244	0.12104	0.030781	0.21681	0.094013	0.19193	0.029006	0.19603	0.080977	0.24316	0.29052	0.12811	-2.0479	-1.9271	-2.7521	-2.3187	-2.1708	-2.7875	-2.075	-2.4042	-2.6583	-1.9729	-2.8479	-2.3417	-2.1708	-2.7812	-1.9917	-2.55	163.872	-39.786	275.434	-59.020	15.887	100.592	30.547	249.488	55.750	178.174	12.606	-32.132	52.626	-13.041	76.327	263.641	0.00016542	0.00065531	0.0004132	551.79	1.0698e-05	9.856e-06	564.3	209.61	1.2594e-05	1.2637e-05	244.54	102.79	81.911	38	8.0178e-06	54.954	0.0015068	0.00158	0.00045207	681.12	1.5244e-05	1.633e-05	690.02	255.53	1.4887e-05	1.6021e-05	318.71	123.74	128.17	44.897	1.6931e-05	62.945	-35.406	115.168	-40.163	-57.537	259.670	254.688	-57.964	-52.185	80.191	42.691	-53.869	-48.972	-46.560	-41.953	10.797	-45.043	-8191	255	
4328.166	1	1	0	0	0.072658	0.17881	0.081004	0.022903	0.15182	0.20125	0.17782	0.1001	0.037516	0.39039	0.12112	0.20554	0.14429	0.17089	0.058999	0.14083	-2.1333	-1.8813	-2.7458	-2.3354	-1.9813	-2.8604	-2.1562	-2.4417	-2.6188	-2.175	-2.7354	-2.3979	-2.0479	-2.7938	-2.0333	-2.4917	102.699	39.604	227.314	142.089	19.548	119.804	213.213	216.755	-19.679	168.319	-37.903	-47.623	-55.873	-7.456	286.215	114.929	0.00029451	0.00045731	0.00010238	553.76	1.3833e-05	7.6489e-06	567.71	210.44	7.481e-06	3.7444e-07	246.64	100.88	81.117	37.084	5.8162e-06	53.652	0.0014761	0.0016844	0.00047116	700.75	1.8207e-05	2.1002e-05	737.94	276.7	2.1809e-05	2.5027e-05	369.73	140.31	170.09	50.878	2.7264e-05	69.979	-36.967	175.013	-36.544	-57.878	283.529	36.862	-58.261	-51.465	260.914	85.382	-54.653	-48.650	-45.771	-42.184	34.066	-45.187	-8191	255	
4328.262	1	1	0	0	0.10461	0.044137	0.04502	0.22756	0.15287	0.015883	0.11555	0.12181	0.08135	0.11288	0.21801	0.15971	0.23851	0.11233	0.3458	0.20791	-2.4354	-1.9375	-2.625	-2.2729	-2.2146	-2.8479	-2.3604	-2.2604	-2.6875	-2.2042	-2.675	-2.6417	-2.1125	-3.0375	-2.3812	-2.4208	99.648	175.848	120.296	253.473	185.999	228.941	29.043	143.266	-27.881	66.458	214.501	30.923	272.794	-46.875	67.983	257.169	0.00047756	0.00054352	0.00038314	542.7	1.2065e-05	1.0422e-05	555.84	201.77	3.6038e-05	8.126e-06	233.19	95.599	73.49	35.103	1.6129e-05	50.567	0.0024845	0.0028266	0.00076613	818.07	3.3416e-05	3.8688e-05	900.68	343.41	4.5127e-05	5.2016e-05	516.85	189.79	301.92	68.72	5.8394e-05	91.527	254.283	42.554	-63.878	-57.573	-67.368	42.573	-58.540	-52.045	172.144	-52.195	-54.123	-48.944	-45.149	-42.512	78.109	-45.551	-8191	255	
4328.357	1	1	0	0	0.15835	0.044526	0.05084	0.144	0.26601	0.25004	0.23367	0.28125	0.10252	0.053681	0.11167	0.32613	0.05085	0.23786	0.13875	0.10742	-2.4125	-1.9354	-2.4667	-2.5938	-1.9896	-2.8646	-2.4271	-2.1688	-2.9896	-2.125	-2.6	-2.6604	-2.0729	-2.9458	-2.4125	-2.45	118.198	140.120	139.611	28.015	210.498	81.790	-56.105	276.237	49.942	35.157	92.333	-57.882	262.601	154.048	193.692	167.666	0.00079695	0.0014314	0.00037533	532.35	2.5151e-05	3.4234e-05	528.66	186.37	2.0928e-05	4.396e-05	219.84	88.007	68.638	32.439	3.208e-05	47.547	0.005445	0.0056607	0.0014557	1065.2	6.1283e-05	6.2084e-05	1064.6	399.78	6.4898e-05	6.6512e-05	574.03	206.09	354.51	71.775	7.0021e-05	101.88	265.967	17.475	78.217	-57.670	260.422	3.852	-58.356	-51.826	217.816	-26.014	-54.424	-48.783	-46.625	-42.919	24.214	-45.270	-8191	255	
4328.455	1	1	0	0	0.18104	0.063062	0.027741	0.14666	0.08492	0.073477	0.141	0.20272	0.1236	0.17998	0.10987	0.077952	0.17754	0.39922	0.28887	0.27199	-2.4375	-2.125	-2.4604	-2.8354	-2.2313	-2.8771	-2.6021	-2.3271	-2.8917	-2.2062	-2.5604	-2.9625	-2.1188	-2.6771	-2.6833	-2.2021	236.214	144.209	121.679	168.411	18.853	263.196	271.507	216.678	256.498	22.197	209.329	141.660	182.034	46.768	212.196	21.714	0.00063258	0.0033267	0.00073639	526.47	1.6429e-05	4.7254e-05	538.45	181.77	1.4582e-05	5.3281e-05	219.07	85.15	67.088	30.893	1.2676e-05	45.194	0.0075134	0.0076373	0.0020483	1343.8	9.6604e-05	9.5253e-05	1425.8	555.34	0.00010865	0.0001045	799.53	286.65	544.46	92.281	0.00010458	129.96	240.235	-0.347	-46.834	-57.621	219.593	20.516	-58.442	-52.671	256.169	-10.564	-55.525	-48.497	-46.295	-43.117	52.514	-46.131	-8191	255	
4328.549	1	1	0	0	0.019975	0.45216	0.23464	0.037674	0.20764	0.13437	0.13878	0.077424	0.12209	0.075723	0.11477	0.12813	0.058558	0.3922	0.40944	0.22784	-2.4292	-2.1354	-2.2438	-2.9375	-2.3042	-2.7875	-2.7896	-2.1042	-3.1125	-2.5208	-2.4521	-2.9958	-2.2625	-2.6854	-2.8771	-2.1437	222.173	228.614	167.075	107.727	238.553	43.668	168.130	110.594	195.948	122.747	113.943	-46.686	225.552	212.080	-50.108	54.427	0.00017556	0.0029647	0.00026917	536.06	3.7483e-05	2.539e-05	534.77	171.35	3.4998e-05	4.5597e-05	206.76	80.425	65.951	28.251	4.1466e-05	43.119	0.010494	0.0099404	0.0026528	1640.7	0.00011931	0.00011064	1576.8	638.81	0.00012692	0.00011901	871.84	321.74	586.67	94.757	0.00011339	140.48	66.282	2.097	59.961	-58.206	60.630	39.418	-58.782	-53.022	47.869	21.989	-55.192	-48.946	-48.321	-43.599	89.520	-44.929	-8191	255	
4328.645	1	1	0	0	0.10164	0.083359	0.10276	0.22127	0.20304	0.2452	0.12381	0.2851	0.18857	0.29432	0.17993	0.19972	0.066562	0.26498	0.10487	0.16783	-2.2875	-2.4792	-2.4062	-2.8646	-2.1792	-2.5917	-2.8896	-2.1271	-2.8604	-2.4271	-2.4396	-3.0625	-2.1333	-2.8146	-2.9	-2.1542	135.359	275.891	-43.096	19.826	82.332	81.360	209.816	169.912	-28.761	116.218	-22.923	2.930	-31.792	143.981	226.857	93.821	0.00074993	0.0033721	0.00090443	521.54	2.6825e-05	4.1389e-06	510.75	166.5	5.6259e-05	1.2809e-05	198.42	79.473	62.039	27.028	5.294e-05	42.095	0.010956	0.010253	0.0027239	1680.5	0.0001127	0.00010141	1464	583.79	0.00010148	9.3404e-05	723.42	267.76	437.31	75.423	8.68e-05	116.51	59.944	-50.642	140.960	-59.164	104.238	80.579	-58.438	-52.703	26.505	25.230	-53.986	-48.953	-47.080	-43.548	190.012	-45.523	-8191	255	
4328.766	1	1	0	0	0.27143	0.23581	0.083853	0.13	0.20779	0.11038	0.17777	0.08929	0.26304	0.11484	0.063449	0.18435	0.20017	0.2408	0.16692	0.22188	-2.3792	-2.5146	-2.1583	-2.9396	-2.1792	-2.3167	-2.9333	-2.3208	-2.8375	-2.6604	-2.2292	-2.8583	-2.2729	-2.4354	-2.7167	-2.1042	255.465	108.329	-26.013	216.299	122.588	123.403	98.576	243.096	-44.322	-64.519	183.827	177.893	154.767	-18.885	182.884	207.297	0.00011871	0.00036324	0.00092946	508.8	2.6593e-05	2.948e-05	501.85	165.7	1.1336e-05	2.1331e-05	192.14	77.711	57.603	26.636	3.7308e-05	42.431	0.0079482	0.0076099	0.0021143	1391.5	8.3382e-05	7.8251e-05	1273.4	491.51	7.5176e-05	6.9634e-05	595.52	211	313.03	58.611	6.0305e-05	87.037	62.438	164.577	200.498	-58.964	106.584	33.681	-58.653	-52.893	-8.034	41.313	-54.347	-49.267	-47.585	-42.578	180.262	-44.755	-8191	255	
4328.862	1	1	0	0	0.071815	0.16205	0.035683	0.17772	0.35334	0.21723	0.24296	0.15724	0.10171	0.076941	0.094271	0.13739	0.093801	0.22741	0.23555	0.17592	-2.1583	-2.4	-2.1063	-2.8771	-2.4271	-2.3917	-2.9167	-2.1646	-2.5687	-2.7083	-2.1813	-2.8	-2.2938	-2.0938	-3.0083	-2.2604	137.558	166.048	59.481	4.359	126.489	189.438	283.052	222.771	32.497	-18.598	190.337	209.317	98.748	278.958	112.667	183.530	0.00057977	0.00049357	0.00051851	500.69	8.1641e-06	5.4008e-06	501.96	164.86	5.715e-06	9.96e-06	198.72	80.431	59.626	27.163	1.3563e-05	43.136	0.0047035	0.0043839	0.0012272	935.07	4.05e-05	3.6937e-05	851.59	297.74	3.2474e-05	3.0663e-05	373.65	132.13	160.8	39.749	2.65e-05	59.055	163.698	71.277	142.170	-58.664	195.266	122.877	-58.516	-52.709	70.493	205.217	-54.229	-48.882	-46.625	-42.360	262.984	-45.128	-8191	255	
4328.958	1	1	0	0	0.10324	0.18041	0.14034	0.071326	0.24729	0.35875	0.069036	0.082922	0.29933	0.17542	0.23582	0.2088	0.1073	0.4172	0.25121	0.31901	-2.1167	-2.5062	-2.1771	-2.8396	-2.4083	-2.1458	-2.8833	-2.0625	-2.3438	-2.7479	-1.9542	-2.8625	-2.4146	-2.1583	-2.9208	-2.1375	250.395	35.030	129.737	185.307	67.058	124.359	140.399	175.438	185.562	218.044	255.397	-41.229	62.110	-61.801	96.434	80.151	0.00014944	0.00031967	0.00023881	502.56	6.7349e-06	5.5963e-06	519.43	174.64	1.9161e-05	1.4007e-05	212.85	83.939	63.866	28.648	5.0721e-06	44.833	0.0019931	0.0019661	0.00058469	688.89	1.9962e-05	1.9575e-05	697.2	240.18	1.8885e-05	1.9274e-05	317.16	115.36	129.77	37.781	2.1075e-05	56.614	231.748	141.893	-12.866	-57.953	234.281	216.948	-58.009	-51.999	80.879	189.558	-54.208	-48.982	-47.632	-42.258	6.468	-45.043	-8191	255	
4329.054	1	1	0	0	0.27902	0.23868	0.31025	0.18236	0.041256	0.1902	0.15568	0.13955	0.095975	0.074826	0.23682	0.21303	0.033134	0.19333	0.23138	0.10404	-1.9646	-2.7354	-1.9729	-2.7354	-2.6208	-2.15	-2.9625	-2.3125	-2.3521	-2.6292	-1.9625	-2.6083	-2.4188	-2.1625	-2.7729	-2.2479	-6.095	111.399	105.165	-14.561	23.605	272.825	241.797	183.069	286.392	-20.512	132.795	125.936	-48.816	70.606	174.121	-37.143	0.00033775	0.00068885	8.1244e-05	509.71	5.6966e-06	1.8439e-05	524.24	172.44	4.2638e-06	1.1179e-05	209.62	83.063	61.673	27.657	1.8158e-05	43.992	0.0016963	0.001805	0.00053602	670.83	1.8678e-05	1.9565e-05	691.12	234.46	1.8325e-05	1.9969e-05	314.16	114.55	130.24	37.945	2.1911e-05	56.765	230.124	155.347	108.897	-58.267	144.693	184.555	-58.567	-52.445	7.988	124.125	-54.406	-49.325	-46.169	-42.599	14.664	-44.998	-8191	255	
4329.126	1	1	0	0	0.21904	0.12875	0.2122	0.076574	0.18324	0.098311	0.11776	0.23491	0.14201	0.076873	0.1343	0.15375	0.23911	0.047583	0.10708	0.16285	-1.8375	-2.6	-1.9125	-2.4646	-2.4979	-2.0167	-2.6542	-2.4667	-2.3375	-2.7042	-2.0333	-2.3271	-2.7146	-2.0167	-2.5896	-2.3604	60.088	251.792	-54.260	-19.935	22.978	237.511	123.022	276.329	-20.188	101.996	58.515	182.912	43.048	223.682	21.620	104.756	0.00045999	0.00070892	0.00039537	501.65	1.1047e-05	1.9529e-05	513.95	166.35	1.4066e-05	4.2116e-06	202.18	80.556	59.776	27.25	8.3939e-06	42.691	0.0018591	0.0021361	0.00060801	694.69	2.2356e-05	2.46e-05	717.48	244.43	2.2295e-05	2.4676e-05	324.99	116.7	141.4	39.5	2.3769e-05	57.111	254.013	121.433	-58.279	-58.288	197.581	224.796	-58.386	-52.098	175.233	35.877	-54.846	-48.772	-47.333	-42.471	59.888	-44.743	-8191	255	
4329.246	1	1	0	0	0.18728	0.23923	0.13258	0.18545	0.14686	0.20883	0.14496	0.0058359	0.29914	0.21741	0.021321	0.13523	0.22823	0.27157	0.10608	0.16684	-1.4188	-2.8375	-1.8208	-2.3583	-2.8396	-1.9771	-2.6479	-2.5479	-2.1958	-2.8458	-2.2417	-2.2875	-2.7396	-2.1	-2.6771	-2.3875	129.785	-28.998	-5.868	224.849	204.111	-49.801	89.017	25.718	60.954	11.689	-58.493	244.211	253.691	249.632	174.645	77.049	0.0002681	0.00074594	0.00022215	493.06	2.6216e-06	5.5712e-06	512.48	164.73	1.1922e-05	8.4392e-06	200.37	80.631	59.758	27.368	4.5894e-06	43.121	0.0020528	0.0022865	0.00060266	684.64	2.2585e-05	2.43e-05	694.63	236.63	2.16e-05	2.3182e-05	308.86	112.36	136.54	38.149	2.0555e-05	55.081	237.691	87.564	-44.123	-58.367	-53.024	19.610	-58.163	-52.001	186.087	-0.483	-54.364	-49.329	-45.958	-42.305	46.944	-45.556	-8191	255	
4329.343	1	1	0	0	0.10449	0.24667	0.047989	0.20167	0.016218	0.12191	0.10721	0.10583	0.28065	0.21696	0.21597	0.18449	0.15018	0.054988	0.15171	0.12985	-1.7083	-2.825	-2.4208	-2.2771	-2.9396	-1.9458	-2.5979	-2.5729	-2.0083	-2.7812	-2.1333	-2.2292	-3.0146	-2.0854	-2.5812	-2.8333	110.874	249.582	142.448	-46.765	-45.035	167.053	-12.653	121.624	-9.893	275.258	-36.112	172.434	205.560	-46.262	30.655	222.962	0.00077965	0.00033463	0.00049686	490.27	6.1996e-06	1.4244e-05	506.3	166.23	1.4768e-05	3.4504e-06	203.4	80.206	61.23	27.386	6.7055e-06	43.44	0.0018757	0.0019748	0.00051182	654.37	2.0787e-05	2.142e-05	669.37	230.84	2.1063e-05	2.1449e-05	302.16	111.72	137.31	37.63	1.9517e-05	54.918	231.240	-15.634	-63.013	-58.371	27.649	71.781	-58.622	-52.458	223.076	218.207	-54.393	-48.737	-45.728	-42.203	27.843	-44.947	-8191	255	
4329.437	1	1	0	0	0.19682	0.18246	0.010042	0.15226	0.20172	0.14452	0.16492	0.18622	0.11225	0.32272	0.21991	0.12026	0.14095	0.20299	0.03891	0.066346	-1.4667	-2.7042	-2.2896	-2.1521	-2.7646	-2.3146	-2.3542	-2.4771	-2.2208	-2.6521	-2.5458	-2.2917	-2.7229	-2.3354	-2.1792	-2.5042	90.469	180.812	12.425	23.259	54.408	67.015	236.324	199.071	182.992	-3.378	-3.598	174.704	23.920	238.604	44.499	96.724	0.00076104	0.00036853	5.1565e-05	490.17	3.5727e-06	5.2444e-06	507.7	167.32	9.5847e-06	1.0013e-05	207.5	83.795	64.343	28.75	7.2979e-06	45.452	0.0018865	0.001848	0.00048186	647.37	2.016e-05	1.9201e-05	650.72	225.75	1.9227e-05	1.8022e-05	288.36	110.19	128.69	36.71	1.6862e-05	55.306	271.998	44.825	-56.937	-58.332	-59.038	93.181	-58.424	-52.009	199.771	-37.630	-53.939	-48.710	-45.587	-42.234	119.573	-45.067	-8191	255	
4329.535	1	1	0	0	0.14455	0.11167	0.22659	0.2308	0.093107	0.28126	0.18689	0.32622	0.35464	0.086508	0.18906	0.14662	0.095662	0.21586	0.28017	0.19157	-1.5	-2.5417	-2.5312	-2.1125	-2.8979	-2.2438	-2.2604	-2.8375	-1.8	-2.5292	-2.3854	-1.95	-2.8146	-2.3021	-2.2313	-2.8521	157.576	179.892	83.965	-33.618	266.207	279.402	208.733	-6.422	111.092	147.178	147.210	-63.950	277.733	-67.655	-32.388	176.218	0.00033841	0.0016081	0.0003185	504.1	8.9587e-06	1.3547e-05	513.82	172.3	7.5759e-06	4.4565e-06	211.2	85.268	64.354	28.724	1.4094e-05	45.39	0.001723	0.0016325	0.00043595	649.26	1.8936e-05	1.7658e-05	646.62	229.11	1.8053e-05	1.6363e-05	284.41	110.19	122.23	35.78	1.5082e-05	54.179	256.794	22.292	34.926	-58.510	162.665	73.106	-58.494	-51.901	-19.130	249.576	-53.973	-48.448	-46.543	-42.889	33.600	-45.113	-8191	255	
4329.654	1	1	0	0	0.064694	0.25232	0.30954	0.090217	0.10557	0.29814	0.23322	0.19431	0.31845	0.2126	0.22606	0.043019	0.1103	0.095731	0.02867	0.32753	-1.8042	-2.4375	-2.4313	-1.9604	-2.6937	-2.3063	-2.0333	-2.8167	-2.025	-2.4042	-2.6562	-1.9333	-2.6979	-2.3396	-2.0875	-2.9521	143.590	241.031	97.598	206.830	184.197	36.265	131.837	67.173	207.048	167.842	195.689	220.648	281.415	51.041	282.351	256.878	0.00015854	0.00064251	0.00011771	502.67	1.001e-05	3.7087e-06	516.78	173.64	8.5337e-06	7.3606e-06	213.33	85.975	66.244	30.085	1.1218e-05	47.153	0.0014696	0.001368	0.00036923	627.69	1.5561e-05	1.4384e-05	620.21	220.84	1.4642e-05	1.3605e-05	271.27	106.66	109.99	35.172	1.2671e-05	53.686	-2.032	56.590	271.500	-58.453	126.380	100.436	-58.381	-52.121	24.698	143.234	-53.922	-48.592	-46.028	-42.076	233.102	-44.966	-8191	255	
4329.750	1	1	0	0	0.23991	0.33675	0.1194	0.27575	0.076794	0.089362	0.028007	0.07211	0.15582	0.10319	0.25684	0.29519	0.05475	0.43495	0.21071	0.17401	-1.5688	-2.1625	-2.6854	-1.8896	-2.5417	-2.5417	-2.1292	-2.8937	-2.1771	-2.3771	-2.6813	-2.125	-2.5875	-2.5146	-2.1937	-2.9104	225.437	208.004	18.351	243.424	49.194	240.068	118.360	154.148	268.839	-64.168	176.640	213.969	41.139	-24.049	-28.361	117.157	0.00014043	0.00085974	0.00054975	519.4	1.4288e-06	1.8879e-06	535	185.33	5.1155e-06	2.5218e-06	224.01	92.084	70.712	32.404	1.3216e-05	49.994	0.0011813	0.001119	0.00031439	621.85	1.2808e-05	1.2233e-05	623.46	225.62	1.2816e-05	1.2374e-05	280.65	111.68	112.17	37.6	1.3832e-05	57.399	-29.141	128.012	150.584	-57.962	220.777	135.319	-58.213	-52.015	270.161	-32.928	-54.147	-48.726	-47.504	-42.327	226.265	-44.896	-8191	255	
4329.846	1	1	0	0	0.042655	0.10354	0.19494	0.18207	0.20283	0.17737	0.12335	0.33514	0.097853	0.34623	0.11173	0.3088	0.22537	0.10249	0.39153	0.19979	-1.8813	-2.3625	-2.5771	-2.0333	-2.6646	-2.425	-2.0125	-2.6583	-2.2687	-2.1771	-2.7313	-1.8604	-2.3958	-2.525	-2.1937	-2.8	124.888	167.498	258.370	166.858	74.473	-68.622	70.157	197.243	48.613	-54.266	-11.423	244.927	241.530	-48.302	223.966	152.360	0.00017345	0.00019666	0.00027969	530.87	5.7214e-06	9.4013e-06	540.76	190.48	1.1951e-05	2.9881e-06	227.06	94.615	72.513	32.948	4.9916e-06	50.209	0.0012907	0.0012755	0.00038391	660.37	1.5137e-05	1.4946e-05	667.59	243.84	1.6144e-05	1.5659e-05	309.02	121.01	128.26	40.14	1.8428e-05	60.313	80.117	178.407	111.761	-57.858	135.454	175.539	-57.812	-52.306	-4.300	-17.584	-53.353	-49.037	-45.565	-42.225	126.898	-45.169	-8191	255	
4329.942	1	1	0	0	0.027945	0.15044	0.19256	0.14253	0.052149	0.24677	0.26288	0.061161	0.19734	0.21234	0.11608	0.38128	0.18248	0.20235	0.24608	0.18077	-2.0208	-2.1708	-2.6521	-2.0625	-2.4875	-2.5021	-2.0438	-2.7833	-2.3312	-2.1562	-2.7958	-2.1646	-2.2812	-2.7375	-1.9583	-2.8729	25.908	-67.920	-34.384	263.603	164.209	136.898	245.814	57.281	129.911	159.319	97.467	245.859	253.332	-48.274	161.943	196.563	0.00024154	0.00034504	0.000179	525.15	4.0827e-06	1.1364e-05	530.31	185.67	5.9147e-06	1.0771e-05	222.81	91.46	70.102	32.165	1.1433e-05	49.043	0.0015643	0.0015673	0.00049103	682.92	1.7984e-05	1.7931e-05	691.58	246.83	1.8074e-05	1.8022e-05	319.04	120.68	130.26	40.32	2.0051e-05	59.723	219.974	-50.537	137.728	-57.831	229.162	275.877	-58.404	-52.317	-11.695	122.495	-54.564	-49.066	-46.532	-42.462	-69.389	-45.054	-8191	255	
4330.038	1	1	0	0	0.15432	0.0091949	0.19532	0.20271	0.26572	0.20833	0.17904	0.30832	0.20173	0.31706	0.17604	0.0060478	0.19099	0.1368	0.10201	0.23104	-2.0583	-2.0375	-2.8208	-2.0354	-2.1792	-2.7979	-2.0771	-2.5229	-2.4625	-2.2083	-2.7354	-2.2292	-2.2375	-2.975	-2.1271	-2.7271	107.241	217.113	22.543	197.114	160.432	140.984	253.528	135.217	102.561	-34.273	-5.520	-57.743	209.987	275.544	188.821	6.303	0.00042192	0.00080741	0.00026509	511.76	5.5005e-06	3.692e-06	518.4	179.05	1.2847e-05	8.0051e-06	212.08	85.368	65.013	29.779	1.4862e-05	45.954	0.0016626	0.0017111	0.00052304	675.77	1.8373e-05	1.8999e-05	683.46	239.75	1.7882e-05	1.855e-05	308.82	113.96	126.33	38.678	2.0005e-05	56.612	266.522	149.209	-1.375	-57.908	-28.124	181.227	-58.032	-52.502	79.405	109.664	-54.761	-48.664	-46.173	-41.974	63.268	-44.856	-8191	255	
4330.135	1	1	0	0	0.13274	0.16411	0.076506	0.089617	0.30163	0.19238	0.078969	0.071245	0.2928	0.16247	0.14237	0.047476	0.10323	0.17894	0.36913	0.18198	-2.1646	-1.9208	-2.8271	-2.2646	-2.3208	-2.9354	-2.0917	-2.5292	-2.6312	-2.1625	-2.6104	-2.4208	-2.0646	-2.8333	-2.075	-2.525	35.234	133.993	133.858	62.043	155.749	66.900	164.586	71.146	282.395	100.772	-59.297	198.837	221.697	-33.748	138.659	237.988	0.0002928	0.00061798	0.00016858	501.18	5.8488e-06	9.6292e-06	511.81	176.47	1.2129e-05	4.9813e-06	213.39	86.178	65.687	30.635	1.1294e-05	47.453	0.0016305	0.001779	0.00050843	657.53	1.7784e-05	1.9349e-05	668.08	233.45	1.7067e-05	1.8387e-05	299.16	111.66	120.97	38.66	1.7309e-05	55.911	251.307	206.851	-30.149	-58.233	221.346	200.768	-58.492	-52.472	252.423	211.062	-54.281	-48.761	-46.305	-42.572	50.535	-44.685	-8191	255	
4330.255	1	1	0	0	0.24015	0.10673	0.045742	0.19541	0.26057	0.10167	0.061925	0.19351	0.074966	0.11475	0.045022	0.2701	0.029945	0.065453	0.14661	0.035384	-2.1833	-1.9917	-2.5958	-2.425	-2.1125	-2.6708	-2.0271	-2.3771	-2.7083	-2.1188	-2.7083	-2.3312	-2.0687	-2.7896	-2.1104	-2.3917	70.138	279.266	155.931	-64.890	95.380	88.366	152.436	62.899	205.070	-21.437	45.465	56.188	-34.830	223.973	22.831	38.594	0.000285	0.0011935	0.0002295	515.2	2.21e-06	7.9449e-06	520.12	185.03	7.1837e-06	8.5495e-06	223.11	91.464	70.735	33.268	1.4769e-06	50.4	0.0014565	0.0016059	0.00042979	641.17	1.5959e-05	1.7478e-05	650.96	232.54	1.5738e-05	1.6963e-05	295.4	113.14	120.7	39.902	1.4866e-05	56.721	259.390	-28.572	258.135	-58.002	53.181	230.374	-58.328	-51.817	144.530	275.278	-54.458	-48.862	-46.070	-42.330	131.142	-45.199	-8191	255	
4330.350	1	1	0	0	0.15128	0.22092	0.24488	0.172	0.20252	0.22222	0.010986	0.077429	0.37599	0.17301	0.060101	0.099848	0.21508	0.070067	0.22923	0.2792	-2.4896	-1.8188	-2.5938	-2.4771	-2.0292	-2.725	-2.3708	-2.2729	-2.6979	-2.0708	-2.6854	-2.5208	-2.1104	-2.8333	-2.2229	-2.1937	62.760	133.029	0.485	154.753	218.461	-44.238	-65.658	-35.727	-28.751	219.716	196.046	287.005	61.695	192.372	283.800	184.686	0.00059377	0.00031456	7.6295e-05	526.33	6.7702e-06	9.3412e-06	539.86	191.96	8.487e-06	5.2437e-06	226.42	93.642	70.432	33.003	6.6934e-06	49.675	0.0013026	0.001383	0.00035947	630.58	1.4349e-05	1.5008e-05	642.01	230.47	1.4636e-05	1.5178e-05	289.51	112.26	119.97	39.314	1.4288e-05	56.129	261.289	-8.584	59.066	-57.928	270.816	20.368	-58.087	-52.085	156.993	22.402	-53.896	-48.932	-45.817	-42.173	10.580	-45.368	-8191	255	
4330.423	1	1	0	0	0.11904	0.18818	0.11477	0.21033	0.12459	0.18692	0.063991	0.016096	0.19541	0.2858	0.22239	0.12368	0.2052	0.28973	0.058757	0.2616	-2.3812	-1.9354	-2.4	-2.6312	-2.0729	-2.7167	-2.3312	-2.2042	-2.7646	-2.1312	-2.5271	-2.7604	-2.1542	-2.7917	-2.3667	-2.0271	109.215	-35.757	-53.510	255.896	76.759	-32.038	161.769	202.748	199.650	-51.815	4.564	65.236	249.090	-42.474	144.548	42.777	0.00022679	0.0010293	0.0001205	512.79	1.0829e-05	4.5899e-06	516.55	176.52	7.8308e-06	1.2634e-05	209.7	83.74	63.313	29.057	1.3061e-05	44.865	0.0013372	0.001331	0.00033996	611.89	1.3859e-05	1.3506e-05	607.13	214.19	1.4337e-05	1.4376e-05	271.32	104.53	119.23	36.169	1.5864e-05	54.013	-61.434	1.108	137.937	-57.883	-60.541	56.648	-58.304	-52.238	-29.846	28.060	-54.416	-48.630	-46.251	-42.132	95.167	-44.764	-8191	255	
4330.544	1	1	0	0	0.13031	0.03945	0.19481	0.15807	0.049657	0.083538	0.31233	0.13941	0.1752	0.12028	0.058581	0.065572	0.25277	0.15711	0.14946	0.26036	-2.4958	-2.0396	-2.4208	-2.6542	-2.1375	-2.6375	-2.5021	-2.0521	-2.7333	-2.1167	-2.3292	-2.7292	-1.8958	-2.65	-2.6688	-2.0146	217.930	214.581	206.860	131.104	109.383	60.715	152.860	-21.693	-14.121	128.900	223.522	29.240	264.782	171.728	-5.457	182.402	0.00024435	0.00064766	0.00020629	506.28	1.1634e-05	5.3433e-06	509.25	174.92	6.1202e-06	2.4101e-06	207.65	83.18	63.954	29.478	1.7456e-06	45.033	0.001681	0.001696	0.00045916	660.99	2.03e-05	1.8892e-05	653.92	236.46	1.9775e-05	1.8179e-05	289.3	110.44	126.47	36.611	1.5649e-05	54.051	265.269	261.830	63.192	-57.683	92.285	125.004	-58.319	-52.361	214.748	97.978	-54.401	-48.509	-46.518	-42.423	222.794	-44.705	-8191	255	
4330.638	1	1	0	0	0.2708	0.43829	0.0089178	0.05539	0.14588	0.027977	0.135	0.37621	0.12173	0.24359	0.04529	0.26763	0.11415	0.13792	0.18734	0.22813	-2.2708	-2.1396	-1.9854	-2.6479	-2	-2.5521	-2.5812	-1.9396	-2.6292	-2.3438	-2.2062	-2.8708	-1.9292	-2.4979	-2.5604	-2.0458	248.205	107.429	199.633	288.918	-43.385	-62.716	237.934	210.010	76.018	147.893	122.165	248.014	214.107	-1.465	-0.957	175.790	0.00021991	0.00096037	0.0003175	502.87	2.0221e-06	9.3848e-06	509.57	177.71	5.8342e-07	5.5036e-07	217.55	88.731	69.086	32.437	9.5196e-06	49.343	0.0015069	0.0014098	0.00037262	628.45	1.5884e-05	1.4374e-05	612.12	222.96	1.4307e-05	1.311e-05	269.77	106.42	109.38	36.663	1.1861e-05	55.08	268.969	-16.182	-49.512	-58.050	-14.837	-18.018	-58.169	-51.990	234.265	-36.634	-54.191	-48.767	-46.339	-42.117	-58.444	-45.109	-8191	255	
4330.734	1	1	0	0	0.13637	0.049466	0.11166	0.23801	0.1897	0.1507	0.10894	0.14722	0.14609	0.17494	0.086373	0.16213	0.12716	0.1572	0.091352	0.22601	-2.1833	-2.3729	-2.2021	-2.9625	-2.0875	-2.2979	-2.6646	-1.9667	-2.575	-2.2667	-1.9729	-2.6437	-2.0771	-2.3479	-2.4771	-1.95	114.156	18.083	101.200	279.652	210.976	285.939	157.973	222.099	51.594	180.556	45.168	271.046	94.433	-18.107	164.958	-30.077	0.00020141	0.00096978	0.0003543	533.65	3.2165e-06	8.4045e-06	542.89	200.63	1.0267e-05	2.2519e-06	241.25	98.097	78.016	35.79	7.2008e-06	53.062	0.0011197	0.0010725	0.00029485	628.23	1.2256e-05	1.1472e-05	622.39	235.25	1.1816e-05	1.1344e-05	285.32	113.88	111.25	39.509	1.1587e-05	58.161	-41.978	-64.748	37.842	-57.755	105.603	135.023	-57.935	-51.693	22.480	209.466	-54.102	-48.928	-45.749	-42.046	174.624	-44.914	-8191	255	
4330.830	1	1	0	0	0.092708	0.049477	0.28709	0.26189	0.24424	0.10946	0.075586	0.12145	0.20623	0.15481	0.13997	0.35795	0.16539	0.21055	0.18648	0.17129	-2.1937	-2.2646	-2.1167	-2.8917	-2.0938	-2.3208	-3	-2.0208	-2.5708	-2.4896	-2.1188	-2.9062	-2.1604	-2.2542	-2.6688	-2.2167	124.036	194.471	276.715	220.011	43.986	41.371	111.383	-56.444	9.029	151.560	87.418	-59.450	157.216	267.820	145.396	189.145	0.0002168	0.00015044	0.00013296	548.63	3.9756e-06	4.1559e-06	554.12	202.85	1.0891e-05	1.3873e-05	237.79	94.929	75.349	34.409	1.4178e-05	50.199	0.0010516	0.0010255	0.00029678	640.68	1.1934e-05	1.1488e-05	640.16	240.89	1.2775e-05	1.2786e-05	298.75	117.06	122.2	40.286	1.6669e-05	60.402	127.158	-59.230	253.596	-57.937	180.869	52.641	-57.883	-52.478	-3.418	259.685	-54.267	-48.987	-46.941	-42.358	189.095	-45.053	-8191	255	
4330.951	1	1	0	0	0.10495	0.16573	0.21876	0.49744	0.2897	0.13419	0.37339	0.33427	0.11493	0.032459	0.044722	0.21122	0.24221	0.30219	0.087922	0.19628	-2.1458	-2.4688	-1.9813	-2.6375	-2.1562	-2.1104	-2.7958	-1.8854	-2.525	-2.7396	-2.0708	-2.8604	-2.375	-2.2438	-2.7438	-2.0625	-26.049	-21.273	108.925	279.582	116.267	284.921	269.545	203.808	100.273	-22.996	-19.062	269.445	-49.237	-39.209	270.445	-10.888	0.00027182	0.00055238	0.00026197	536.43	1.2046e-05	7.4366e-06	532.39	188.78	1.3847e-05	4.7516e-06	215.37	87.619	67.742	30.859	1.1626e-05	46.874	0.0016077	0.0016737	0.00053462	726.19	2.2099e-05	2.2689e-05	762.79	289.41	2.8859e-05	3.0749e-05	414.71	154.65	216.53	52.633	4.8803e-05	83.343	261.140	-56.135	168.632	-58.263	97.816	26.899	-58.262	-51.971	-4.418	149.082	-53.862	-48.987	-47.512	-43.186	221.246	-45.011	-8191	255	
4331.047	1	1	0	0	0.15446	0.17505	0.18288	0.24512	0.047836	0.14064	0.20759	0.10267	0.15741	0.035776	0.2153	0.35711	0.056514	0.14271	0.28485	0.23975	-2.0563	-2.3917	-1.8896	-2.7562	-2.525	-2.4	-3.0208	-2.1125	-2.3208	-2.7542	-1.9167	-2.9417	-2.5312	-2.2521	-2.8979	-2.325	106.983	75.523	132.115	270.188	-12.397	-19.680	273.977	-13.301	54.907	148.742	147.892	262.557	126.251	113.823	-57.790	81.337	0.00030741	0.0011086	0.00024406	531.66	1.4927e-05	8.444e-06	520.91	176.45	2.5205e-05	4.6244e-05	203.83	83.374	64.738	28.993	2.1122e-05	45.424	0.0044975	0.0048827	0.0016005	1132.4	6.217e-05	6.5178e-05	1228.1	454.97	7.1617e-05	7.6245e-05	686.66	224.64	352.29	69.736	7.5526e-05	95.494	9.207	188.283	98.467	-58.689	73.836	192.404	-58.194	-52.919	95.584	176.101	-54.267	-49.930	-47.268	-41.701	155.248	-45.539	-8191	255	
4331.119	1	1	0	0	0.14894	0.25835	0.21803	0.26808	0.10023	0.051877	0.070061	0.14017	0.18592	0.13013	0.10182	0.12241	0.14854	0.24541	0.21564	0.17329	-1.8188	-2.7917	-2.05	-2.625	-2.4854	-2.0771	-2.8063	-2.2875	-2.2708	-2.775	-2.1542	-2.6562	-2.4	-2.0167	-2.8167	-2.3458	-10.542	167.219	-51.446	-38.367	-48.163	28.150	23.004	287.106	-51.282	209.819	273.171	118.201	-62.864	110.113	-34.832	209.777	0.00042582	0.0053309	0.00031397	528	1.9899e-05	2.9198e-05	508.93	172.68	1.6142e-05	1.0154e-05	207.32	82.494	63.387	29.317	7.7057e-06	45.91	0.0054326	0.0056146	0.0015731	1031.5	4.9278e-05	5.032e-05	963.75	331.42	3.9145e-05	4.0831e-05	420.32	143.49	186.95	47.011	3.252e-05	65.019	202.928	146.282	64.010	-58.108	-0.825	183.819	-58.360	-52.400	204.241	232.785	-54.117	-48.806	-46.541	-42.529	82.044	-44.993	-8191	255	
4331.215	1	1	0	0	0.031456	0.24457	0.081559	0.25858	0.25435	0.30967	0.37777	0.33488	0.21113	0.13698	0.16028	0.21583	0.37193	0.14809	0.38844	0.095568	-1.825	-2.8021	-1.8937	-2.5271	-2.4792	-1.9771	-2.85	-2.5187	-2.0729	-2.8604	-2.2271	-2.4062	-2.5938	-2.1229	-2.8479	-2.4021	62.218	77.752	63.976	238.885	74.702	209.971	155.997	-68.397	-55.234	119.737	222.675	267.315	-38.437	214.355	99.586	188.330	0.00053032	0.0021214	0.00056548	507.99	1.9484e-05	9.0962e-06	507.12	175.26	4.4739e-06	1.5569e-05	209.91	85.69	65.009	30.199	1.3202e-05	46.078	0.0024187	0.0026001	0.00067915	713.48	2.2752e-05	2.4183e-05	694.68	244.1	1.9492e-05	2.0826e-05	304.3	112.45	123.9	38.284	1.6267e-05	54.098	265.645	145.887	-22.453	-58.180	286.827	221.057	-57.997	-52.827	94.585	123.316	-53.912	-49.466	-46.143	-42.316	141.205	-44.782	-8191	255	
4331.336	1	1	0	0	0.10091	0.069855	0.11251	0.24833	0.28507	0.14625	0.21107	0.12189	0.20823	0.23071	0.02275	0.081489	0.12947	0.25771	0.19596	0.17421	-1.6938	-2.8729	-2.0396	-2.4958	-2.6625	-1.9042	-2.6688	-2.4479	-1.9813	-2.6917	-2.0604	-2.45	-2.5854	-2.0021	-2.4188	-2.5667	256.809	263.283	-68.961	181.132	163.072	-16.920	252.983	242.825	137.606	45.586	38.294	-58.953	192.769	77.995	116.316	262.300	0.00073964	0.00039363	0.00010808	502.8	1.0857e-05	8.7177e-06	504.61	177.03	5.692e-06	1.3482e-05	209.97	85.008	64.907	30.189	7.4569e-06	46.284	0.0013434	0.0014424	0.00036764	603.91	1.3649e-05	1.4274e-05	600	211.34	1.2641e-05	1.3249e-05	262.34	100.28	103	34.971	1.1587e-05	50.972	266.621	43.844	53.811	-58.128	215.149	-23.388	-57.832	-52.106	129.784	-25.135	-54.052	-48.768	-45.779	-42.564	34.086	-44.917	-8191	255	
4331.430	1	1	0	0	0.34571	0.085532	0.36627	0.088168	0.17123	0.19836	0.17358	0.050104	0.1878	0.20015	0.20491	0.067891	0.2089	0.25126	0.35147	0.15826	-1.6042	-2.7021	-2.2458	-2.1354	-2.7167	-1.9958	-2.3563	-2.725	-1.8979	-2.775	-2.2708	-2.2271	-2.8	-2.0125	-2.4146	-2.675	153.089	71.309	231.701	192.556	178.132	227.124	205.077	170.443	147.651	239.884	165.564	141.515	172.612	126.968	178.647	-39.980	0.0004969	0.00028371	0.00018162	500.08	1.9108e-06	6.3267e-06	510.44	174.94	4.8181e-06	2.7615e-06	209.42	85.476	64.77	29.656	4.7361e-06	45.893	0.0010767	0.0011219	0.00029378	582.22	1.2219e-05	1.2367e-05	591.33	207.84	1.2601e-05	1.2792e-05	262.24	101.7	108.15	34.971	1.2641e-05	51.641	265.468	114.534	55.603	-58.318	229.739	33.069	-58.280	-52.038	96.782	39.380	-54.182	-49.168	-45.708	-42.408	94.613	-44.920	-8191	255	
4331.528	1	1	0	0	0.082302	0.11784	0.39175	0.16873	0.27291	0.056827	0.027085	0.19952	0.039102	0.05029	0.1222	0.28169	0.16147	0.10191	0.046646	0.33241	-1.4979	-2.5479	-2.2313	-2.2875	-2.6958	-2.0417	-2.4979	-2.4479	-1.9438	-2.5292	-2.5292	-1.9875	-2.8042	-2.1375	-2.325	-2.7896	96.585	23.280	44.468	-24.944	-39.702	173.821	3.467	197.235	-27.580	70.279	-2.804	60.511	-27.734	23.994	-16.072	233.658	0.0002081	0.0011594	0.00028417	498.61	1.0156e-05	1.5919e-05	503.4	168.61	7.6378e-06	9.6548e-06	201.7	82.878	61.251	28.051	4.9293e-06	43.852	0.001258	0.0012444	0.00033357	597.89	1.4818e-05	1.4347e-05	607.44	212.65	1.5893e-05	1.5329e-05	271.92	105.6	120.8	35.223	1.5851e-05	53.454	-62.912	-29.866	35.302	-58.125	191.205	15.594	-58.408	-52.225	75.944	-32.081	-54.285	-49.239	-45.891	-42.241	29.741	-44.974	-8191	255	
4331.647	1	1	0	0	0.26008	0.11064	0.074467	0.2019	0.18597	0.13938	0.061108	0.12741	0.15201	0.20566	0.09068	0.062537	0.09763	0.097846	0.012235	0.064708	-1.6167	-2.4896	-2.2708	-2.175	-2.6146	-2.025	-2.3417	-2.8021	-1.8958	-2.5729	-2.5646	-1.9167	-2.6562	-2.3563	-2.3458	-2.75	-63.882	-25.468	107.950	75.213	122.265	273.269	0.725	176.629	161.485	250.476	87.034	213.387	121.253	250.871	-51.749	238.940	0.00033533	0.001493	0.00017722	483.6	1.0803e-05	1.1817e-05	491.25	160.61	1.3339e-05	7.5457e-06	195.01	79.394	58.557	26.758	6.7148e-06	42.593	0.0016448	0.0015674	0.00043096	634.74	1.9371e-05	1.8442e-05	635.07	227.35	2.0872e-05	1.9732e-05	293.7	114.97	140.43	36.99	2.051e-05	56.992	-53.221	45.496	218.204	-57.934	111.019	30.489	-58.478	-52.325	32.449	59.822	-54.117	-48.516	-47.950	-42.424	198.546	-45.014	-8191	255	
4331.718	1	1	0	0	0.14627	0.15363	0.19784	0.17275	0.12345	0.14145	0.11448	0.13425	0.18696	0.13868	0.19898	0.14653	0.10559	0.19337	0.20678	0.050946	-1.5688	-2.4562	-2.3896	-2.0625	-2.6042	-2.3854	-2.3771	-2.9375	-2.1229	-2.2896	-2.5938	-1.9729	-2.5667	-2.3417	-2.0146	-2.9583	254.774	216.217	29.993	35.600	120.447	263.393	196.085	49.476	24.003	7.148	177.333	17.784	-47.817	133.055	161.461	165.491	9.2549e-05	0.00039865	0.0003264	476.22	2.1284e-05	9.4844e-06	481.98	158.91	1.2689e-05	6.9716e-06	189.4	77.853	59.435	26.874	8.8538e-06	42.765	0.0020481	0.0019329	0.0005293	677.11	2.2634e-05	2.1189e-05	652.64	236.9	2.1693e-05	1.9907e-05	290.33	113.07	131.47	35.896	1.89e-05	55.249	132.185	-48.915	-59.010	-58.424	67.340	104.069	-58.565	-52.037	72.618	32.402	-54.672	-48.706	-46.424	-42.153	195.411	-44.684	-8191	255	
4331.815	1	1	0	0	0.17287	0.26285	0.1158	0.19608	0.086859	0.098484	0.083196	0.11344	0.14161	0.074009	0.2482	0.074622	0.25988	0.20249	0.11888	0.20185	-1.6875	-2.2667	-2.6583	-2.0646	-2.7979	-2.3042	-2.0792	-2.7958	-1.8937	-2.4792	-2.8146	-2.0021	-2.5417	-2.4479	-2.1271	-2.7438	254.167	247.096	166.848	284.485	10.366	120.653	264.568	156.028	-55.713	104.063	17.567	161.322	43.877	-16.473	226.474	227.145	0.00014001	0.00082598	0.00033076	477.49	8.3695e-06	1.5082e-06	482.97	163.71	1.081e-05	1.3601e-06	196.55	81.353	60.834	28.377	7.0053e-06	44.317	0.0017169	0.0016147	0.00045609	640.65	1.7448e-05	1.6406e-05	612.87	219.09	1.5591e-05	1.4617e-05	268.49	104.92	108.52	33.771	1.3922e-05	51.772	115.813	39.209	8.692	-58.269	149.430	66.486	-58.259	-52.272	-24.557	77.062	-53.945	-48.805	-46.567	-42.337	218.352	-44.532	-8191	255	
4331.935	1	1	0	0	0.064579	0.35308	0.22466	0.093542	0.025078	0.12539	0.072439	0.18451	0.036382	0.25646	0.16859	0.099828	0.12018	0.22254	0.04082	0.22419	-1.85	-1.9708	-2.6792	-2.0854	-2.525	-2.6104	-2.0125	-2.6167	-2.0938	-2.1229	-2.7188	-1.9146	-2.4146	-2.4979	-1.8958	-2.825	-30.730	72.128	-24.422	77.963	107.087	192.966	179.312	190.593	-42.163	176.694	105.256	126.578	43.497	219.743	-54.635	281.958	0.00037296	0.00043717	8.1651e-05	486.02	1.6239e-06	9.8829e-06	493.65	168.54	1.8909e-06	6.3911e-06	204.51	83.987	63.049	28.652	1.4859e-05	45.288	0.0012014	0.0011652	0.00034814	593.61	1.2668e-05	1.2405e-05	591.63	208.71	1.2448e-05	1.1892e-05	261.79	101.5	99.657	33.309	1.2847e-05	51.258	284.194	21.894	4.673	-57.883	75.309	-8.086	-58.422	-52.206	29.829	139.962	-54.305	-48.990	-46.804	-42.408	162.898	-44.616	-8191	255	
4332.031	1	1	0	0	0.064513	0.038314	0.11638	0.31364	0.20331	0.06366	0.037902	0.24039	0.067481	0.15982	0.17296	0.19961	0.20924	0.060187	0.14957	0.057156	-1.9792	-2.1937	-2.7458	-1.9875	-2.3292	-2.5	-2.0229	-2.5354	-2.425	-2.1729	-2.8688	-2.0479	-2.3875	-2.7583	-1.9167	-2.7292	-60.048	155.682	242.808	190.364	-43.739	199.831	105.281	234.410	38.310	239.116	116.430	-27.943	-27.778	183.143	94.668	-61.147	0.00013491	0.000793	0.00028739	490.98	5.3124e-06	1.02e-05	500.58	169.93	3.2112e-06	4.2374e-06	203.39	84.325	62.458	28.189	5.9402e-06	44.905	0.001074	0.0010774	0.00033425	586.22	1.1843e-05	1.1871e-05	596.37	206.02	1.2096e-05	1.223e-05	265.52	101.86	100.55	33.372	1.3718e-05	51.015	55.924	225.922	46.148	-58.012	-69.589	90.277	-58.405	-51.887	274.992	97.332	-54.077	-48.628	-45.791	-42.217	240.995	-45.173	-8191	255	
4332.127	1	1	0	0	0.069352	0.12489	0.14836	0.14456	0.13482	0.088772	0.080147	0.18918	0.20232	0.1059	0.11113	0.11842	0.14186	0.25224	0.10274	0.17501	-2.0438	-1.9542	-2.9104	-2.2542	-2.0187	-2.7	-2.0271	-2.8563	-2.3833	-2.1	-2.9562	-2.2417	-2.1958	-2.8354	-1.9375	-2.475	3.725	56.978	244.711	80.794	220.070	238.214	25.640	258.766	89.806	271.034	-1.328	182.084	215.757	-68.713	124.193	-43.778	0.00019963	0.0005175	0.00030743	484.62	6.4989e-06	1.5691e-05	490.93	165.17	9.3795e-06	4.0963e-06	199.17	79.671	59.982	27.437	1.5033e-05	43.169	0.0011441	0.0012032	0.00036547	589.38	1.2847e-05	1.358e-05	601.97	205.51	1.3073e-05	1.3994e-05	266.35	100.07	103.58	33.736	1.512e-05	50.472	226.722	75.064	-4.773	-58.196	94.849	166.282	-58.118	-52.073	-18.259	153.923	-54.428	-48.841	-47.651	-42.402	-8.674	-44.985	-8191	255	
4332.248	1	1	0	0	0.13036	0.050805	0.17197	0.1675	0.19306	0.21863	0.19968	0.14881	0.033155	0.13069	0.18131	0.082329	0.27002	0.29725	0.064652	0.17566	-2.3125	-2.0854	-2.7458	-2.2083	-2.2167	-2.8438	-2.05	-2.4125	-2.5771	-2.0104	-2.7833	-2.4625	-2.2812	-2.7083	-2.075	-2.5604	241.380	-0.252	218.085	194.897	243.138	-7.152	207.730	218.840	110.791	-29.422	98.364	74.641	111.433	176.497	91.146	243.522	0.00037624	0.00093933	0.00019124	482.76	8.0752e-06	6.7653e-06	488.09	164.07	5.4208e-06	5.2215e-06	195.47	78.892	59.273	27.183	1.1765e-05	42.652	0.0012428	0.001374	0.00039104	597.26	1.3739e-05	1.5042e-05	601.68	205.69	1.3577e-05	1.5013e-05	265.37	100.18	107.51	34.385	1.6103e-05	51.449	267.001	129.788	259.951	-58.238	276.867	160.926	-57.960	-52.461	196.602	-67.662	-54.936	-48.631	-45.743	-42.296	-18.040	-44.928	-8191	255	
4332.320	1	1	0	0	0.21757	0.20841	0.1977	0.20409	0.20288	0.1153	0.21337	0.062973	0.199	0.076139	0.12527	0.013999	0.18977	0.018203	0.077853	0.26911	-2.3125	-1.9708	-2.6521	-2.3792	-2.0625	-2.8	-2.2729	-2.3833	-2.65	-2.0979	-2.6542	-2.675	-2.0792	-2.8583	-2.1063	-2.3208	-29.338	75.819	-67.296	95.771	191.359	56.260	167.527	267.040	58.591	-8.871	61.230	-25.065	261.798	107.340	11.638	175.572	0.00033041	0.00069692	0.00038579	484.63	3.3468e-06	4.3049e-07	490.13	161.83	7.4189e-06	1.7412e-05	194.63	78.343	58.331	26.813	4.7782e-06	42.891	0.0014735	0.001692	0.00046334	631.4	1.8244e-05	2.0491e-05	648.02	223.68	1.936e-05	2.0833e-05	291.1	107.96	127.7	37.119	2.036e-05	54.59	265.959	69.975	-32.541	-58.179	97.638	173.053	-58.058	-52.402	60.967	161.774	-54.868	-48.363	-46.043	-42.348	2.831	-45.054	-8191	255	
4332.416	1	1	0	0	0.082369	0.32832	0.09247	0.056778	0.14131	0.14817	0.020125	0.28893	0.16163	0.12457	0.16316	0.16817	0.092845	0.25174	0.12434	0.090195	-2.3667	-1.9458	-2.5771	-2.5458	-2.0708	-2.7333	-2.2771	-2.1979	-2.9333	-1.9896	-2.6375	-2.4729	-2.0687	-2.8146	-2.3021	-2.3833	176.262	140.187	53.725	-32.660	271.619	-34.854	219.346	166.815	79.945	206.742	-62.583	210.110	5.726	-46.449	-5.364	148.347	0.00048231	0.0005042	0.00011907	488.29	1.1872e-05	1.6156e-05	486	163.7	2.1596e-05	1.2413e-05	196.58	79.871	57.64	27.094	7.1186e-06	43.06	0.001931	0.002112	0.0005496	669.16	2.3068e-05	2.4348e-05	682.64	240.23	2.4912e-05	2.5926e-05	322.2	119.39	155.41	40.325	2.4228e-05	58.39	230.787	268.364	108.986	-57.959	236.867	127.446	-58.235	-52.650	224.998	47.976	-54.130	-49.443	-44.465	-42.659	49.675	-44.854	-8191	255	
4332.510	1	1	0	0	0.088647	0.152	0.18008	0.12714	0.11893	0.29623	0.18635	0.16803	0.089201	0.13539	0.016003	0.22499	0.26025	0.45029	0.029829	0.14495	-2.4083	-2.1333	-2.4604	-2.5375	-2.0229	-2.8	-2.3854	-2.2542	-2.7938	-2.1479	-2.4896	-2.8438	-2.0542	-2.7687	-2.4313	-2.2146	196.578	58.176	158.536	199.561	230.736	95.452	61.358	108.788	61.057	276.589	-46.141	265.574	-45.338	141.938	143.259	22.550	0.00041207	0.0018354	0.00017978	488.9	7.4592e-06	1.9188e-05	488.77	160.92	1.0715e-05	1.4435e-05	192.62	76.451	57.265	25.916	1.2626e-05	41.088	0.0024327	0.0025023	0.00065783	719.03	2.8783e-05	2.8443e-05	723.99	258.24	3.0854e-05	2.9958e-05	342.45	126.24	178.29	41.771	2.984e-05	62.893	-44.071	20.838	-12.848	-57.786	-30.830	2.847	-58.053	-52.446	196.901	19.108	-55.180	-48.705	-46.966	-42.750	37.491	-45.079	-8191	255	
4332.631	1	1	0	0	0.32687	0.2842	0.24956	0.044123	0.16065	0.18656	0.16135	0.10608	0.25976	0.35286	0.16095	0.10312	0.16408	0.099946	0.14312	0.022229	-2.4167	-2.05	-2.2458	-2.8646	-1.9188	-2.6813	-2.5208	-2.0583	-2.7958	-2.1229	-2.4542	-2.6813	-2.1396	-2.5854	-2.6458	-2.1604	94.355	135.003	256.851	123.128	-35.645	106.573	161.339	-64.382	226.327	160.825	255.221	160.346	-29.947	226.944	220.229	223.638	0.00044173	0.0023567	0.00051225	485.32	3.1011e-06	2.5408e-05	487.65	157.96	2.6306e-05	1.5011e-05	188	75.514	57.903	26.407	5.1262e-06	41.826	0.0032817	0.003323	0.00092386	858.15	4.476e-05	4.2297e-05	855.93	314.77	4.4526e-05	4.115e-05	407.33	152.41	234.67	48.841	4.092e-05	73.97	-23.004	45.415	-58.310	-58.715	217.057	38.862	-58.194	-51.915	12.440	4.235	-54.995	-48.543	-47.568	-42.373	-19.287	-44.632	-8191	255	
4332.727	1	1	0	0	0.26325	0.087924	0.17238	0.11239	0.059882	0.083017	0.19564	0.079677	0.034737	0.061629	0.36786	0.14843	0.057058	0.15822	0.17606	0.13358	-2.2604	-2.2938	-2.3729	-2.8958	-2.0458	-2.5542	-2.65	-2.225	-2.6542	-2.2833	-2.2604	-2.7938	-2.0958	-2.5521	-2.575	-2.2438	-54.852	-37.013	163.764	-67.993	251.894	95.397	244.881	156.386	-59.229	-9.808	288.774	9.859	242.651	13.993	76.937	272.219	0.00037623	0.00024897	4.2981e-05	490.42	5.9505e-06	2.2367e-05	488.48	161.85	1.9053e-05	2.0578e-05	194.54	79.329	60.964	27.518	1.6566e-05	43.183	0.0041237	0.0039047	0.0010575	928.11	4.8161e-05	4.5441e-05	903.21	351.04	5.0748e-05	4.8267e-05	459.47	176.25	268.12	53.969	4.8977e-05	83.36	101.720	168.182	129.162	-58.136	62.854	24.523	-58.679	-52.183	54.652	-42.085	-54.213	-48.667	-46.977	-42.516	187.855	-45.375	-8191	255	
4332.823	1	1	0	0	0.041027	0.1772	0.094088	0.22534	0.23226	0.11437	0.075298	0.17396	0.25288	0.089615	0.15842	0.23664	0.01837	0.08287	0.10793	0.15166	-2.3458	-2.425	-2.075	-2.9708	-2.0083	-2.3458	-2.8875	-2.1437	-2.8667	-2.6333	-2.1417	-3.0062	-2.1146	-2.3646	-2.8708	-2.1	-17.767	257.904	84.717	-1.239	124.735	23.276	276.757	209.867	118.943	226.791	-70.392	-38.036	211.107	48.282	21.457	-35.951	0.00058185	0.0015257	0.00037884	502.55	1.4684e-05	5.2289e-06	488.47	165.64	3.2549e-05	2.5093e-06	195.58	80.233	64.379	28.014	1.9096e-05	44.059	0.0046586	0.0044678	0.0012249	1011.5	5.1627e-05	4.8757e-05	954	374.99	5.2266e-05	5.0583e-05	491.16	188.05	280.58	57.003	5.6799e-05	91.652	119.167	-45.385	129.926	-58.478	54.403	-13.922	-58.157	-52.750	37.755	70.786	-53.849	-49.176	-47.004	-42.473	174.102	-45.297	-8191	255	
4332.919	1	1	0	0	0.11462	0.27189	0.15267	0.11741	0.20004	0.1546	0.1278	0.056715	0.16213	0.31666	0.29351	0.11904	0.17525	0.12072	0.066972	0.21126	-2.2812	-2.5792	-2.1396	-2.7896	-2.2625	-2.1771	-2.9979	-1.9833	-2.6188	-2.5062	-2.1937	-2.7479	-2.2042	-2.3792	-2.6458	-2.1958	287.120	182.809	200.747	-66.447	179.995	246.622	-42.761	221.804	14.827	110.624	-28.423	215.508	-32.085	-63.765	-27.693	248.042	0.00049159	0.0020901	0.00094598	511.76	1.5631e-05	6.1806e-06	488.71	165.54	2.0319e-05	1.8239e-05	195.42	79.737	62.309	27.899	2.9329e-05	43.877	0.005439	0.0054783	0.0016234	1177	6.4747e-05	6.2509e-05	1140.4	445.14	6.8122e-05	6.6801e-05	613.01	220.64	345.66	65.373	7.3853e-05	99.779	138.516	-11.255	148.677	-58.292	90.866	174.327	-58.153	-51.867	2.326	92.398	-54.428	-49.472	-46.980	-42.869	189.421	-44.860	-8191	255	
4333.016	1	1	0	0	0.15474	0.080765	0.09995	0.086202	0.26217	0.076054	0.19918	0.11386	0.22734	0.28938	0.3367	0.088564	0.24294	0.090393	0.12136	0.20063	-2.2167	-2.5958	-1.9875	-3.0479	-2.5521	-2.3854	-3.0979	-2.1479	-2.5125	-2.6188	-2.0938	-2.7812	-2.4938	-2.2625	-2.9896	-2.2604	128.116	-0.704	146.845	76.658	282.429	225.080	225.859	197.376	199.078	-56.250	149.334	19.477	220.081	259.074	91.097	229.204	0.00022032	0.0013589	0.0010044	525.47	8.5378e-06	4.1412e-05	498.82	170.89	2.4369e-05	4.7412e-05	193.56	80.13	64.094	28.564	4.8353e-05	44.906	0.0061251	0.0062005	0.0019459	1277.7	7.4486e-05	7.3544e-05	1301.9	495.66	8.1392e-05	8.4094e-05	753.77	257.78	431.18	80.46	0.00010404	121.66	280.879	63.440	143.390	-58.264	71.203	215.007	-58.120	-52.252	-7.456	145.779	-54.842	-48.996	-47.912	-42.395	159.680	-45.331	-8191	255	
4333.112	1	1	0	0	0.16877	0.26262	0.26916	0.20409	0.041549	0.087918	0.20547	0.13203	0.091052	0.20648	0.23515	0.10896	0.027633	0.11981	0.21236	0.042182	-2.1146	-2.8125	-2.1792	-2.9542	-2.6021	-2.2417	-3.1167	-2.275	-2.4917	-2.6	-2.1604	-2.8438	-2.6375	-2.1417	-2.9479	-2.1604	178.658	180.315	45.891	249.437	-18.389	106.951	100.546	65.744	-41.991	142.756	263.756	-22.024	-69.188	-61.458	48.189	190.838	0.00043078	0.0060267	0.0008871	547.65	3.4302e-05	7.1535e-05	513.95	178.16	3.3255e-05	4.8499e-05	207.93	81.812	63.296	29.061	2.9119e-05	44.512	0.0084124	0.0087695	0.002688	1493.9	9.2171e-05	9.2757e-05	1478.1	528.9	8.4391e-05	8.6765e-05	735.71	236.48	379.23	74.394	8.3871e-05	101.86	18.307	155.643	137.145	-58.613	100.841	211.383	-58.333	-52.414	-7.424	177.465	-54.483	-49.700	-45.932	-41.763	58.920	-45.192	-8191	255	
4333.208	1	1	0	0	0.28048	0.072681	0.18018	0.3886	0.090401	0.14311	0.012458	0.15157	0.073786	0.19444	0.14081	0.035781	0.19019	0.11239	0.17583	0.12016	-1.9083	-2.8333	-1.9958	-2.6917	-2.8	-1.9667	-2.9437	-2.3542	-2.4104	-2.8792	-2.0875	-2.6833	-2.7146	-2.1312	-2.725	-2.3833	215.292	-66.283	-3.350	193.909	-10.534	49.545	149.485	121.775	265.155	84.017	194.959	111.145	122.569	214.300	-26.038	166.073	0.00023054	0.0053531	0.00068893	531.19	2.4465e-06	2.4017e-05	513.6	178.45	3.9754e-06	3.4242e-05	210.29	85.422	66.274	31.391	4.0714e-05	47.537	0.006339	0.0069398	0.0020128	1222.8	6.9819e-05	7.565e-05	1249.1	455.86	7.0957e-05	7.9883e-05	670.58	221.72	353.28	75.07	7.6674e-05	101.62	-52.321	167.109	-21.359	-58.439	185.247	238.873	-58.599	-52.426	7.517	204.599	-55.188	-49.167	-45.975	-42.295	1.276	-45.025	-8191	255	
4333.328	1	1	0	0	0.1446	0.065804	0.16979	0.14577	0.12209	0.31419	0.042893	0.11914	0.22366	0.19505	0.22139	0.021828	0.056531	0.29239	0.22333	0.16144	-1.6208	-2.9938	-2.0917	-2.6583	-2.5771	-2.0208	-2.875	-2.3396	-2.1042	-2.7333	-1.9688	-2.5042	-2.8396	-2.1042	-2.6125	-2.6292	6.095	254.969	154.106	289.200	64.604	100.086	189.234	151.480	180.179	3.843	215.026	220.645	267.619	127.873	-35.870	154.085	5.0303e-05	0.0031745	0.0010187	550.91	4.1097e-05	1.1912e-05	528.67	191.3	1.4897e-05	2.2857e-05	221.12	88.405	69.505	32.278	3.7211e-05	47.586	0.0063	0.0071962	0.0019414	1220.9	7.0125e-05	7.759e-05	1223.7	454.26	6.956e-05	7.815e-05	638.83	216.29	352.91	75.493	7.1024e-05	98.168	-26.880	201.527	-51.922	-58.163	279.750	142.735	-58.185	-52.384	277.871	189.309	-55.099	-48.694	-43.846	-42.570	23.711	-45.052	-8191	255	
4333.425	1	1	0	0	0.087602	0.041901	0.20718	0.16462	0.065903	0.17815	0.13715	0.075809	0.23671	0.46351	0.28032	0.12506	0.12831	0.39681	0.05411	0.039953	-1.7292	-2.8604	-2.4188	-2.3354	-2.8167	-2.0146	-2.5167	-2.4354	-2.2229	-2.8563	-2.2708	-2.2896	-2.6958	-2.1479	-2.6521	-2.5917	109.919	61.148	229.436	177.460	57.118	161.643	279.676	263.445	117.826	81.960	227.673	169.274	169.837	199.120	194.400	-50.646	0.0010096	0.0012102	0.00022057	542.27	2.246e-05	3.0669e-05	522.16	183	3.6902e-05	1.1335e-05	210.99	85.643	65.369	31.469	1.4979e-05	46.443	0.0062056	0.0069534	0.001805	1182.1	6.9712e-05	7.4159e-05	1149.1	426.79	6.7181e-05	7.0479e-05	576.62	196.44	328.47	69.008	6.2787e-05	92.227	248.510	-60.498	0.104	-58.565	272.437	36.749	-58.212	-52.486	188.482	-48.009	-54.839	-48.995	-44.596	-41.827	92.272	-45.223	-8191	255	
4333.519	1	1	0	0	0.096308	0.24722	0.16693	0.17199	0.30278	0.073898	0.1266	0.29764	0.29538	0.27622	0.075777	0.18149	0.099378	0.30366	0.3722	0.029652	-1.6125	-2.7	-2.2208	-2.1875	-2.9562	-2.1479	-2.5771	-2.7271	-2.0396	-2.9604	-2.4333	-2.2938	-2.7896	-2.0312	-2.2979	-2.6188	97.655	260.390	-68.090	204.599	-7.055	33.796	18.717	133.975	260.337	167.940	66.720	190.297	172.321	-33.174	-46.113	288.287	0.00078749	0.0041723	0.00052065	534.9	2.932e-05	1.0577e-05	521.29	185.82	4.131e-05	4.7092e-05	214.44	85.563	70.133	31.959	2.0041e-05	46.722	0.0059967	0.0062756	0.0016411	1140.8	7.0968e-05	7.1977e-05	1142.7	434.26	7.2348e-05	7.1019e-05	591.75	205.83	358.06	70.15	6.3676e-05	94.554	264.804	-8.739	277.530	-58.306	271.908	28.676	-58.653	-52.286	191.610	16.711	-54.937	-49.165	-46.474	-42.928	46.041	-45.207	-8191	255	
4333.615	1	1	0	0	0.090529	0.1759	0.11703	0.12045	0.068341	0.14406	0.22986	0.22338	0.077347	0.1369	0.034706	0.095689	0.06147	0.092008	0.2472	0.18022	-1.5021	-2.6063	-2.4562	-2.0583	-2.9125	-2.1646	-2.3771	-2.8042	-1.8104	-2.6521	-2.4979	-2.3438	-2.8604	-2.2271	-2.3729	-2.8979	139.352	-65.448	107.574	216.467	197.585	157.730	113.891	234.097	-46.574	66.678	86.893	20.578	169.665	153.128	249.207	40.814	0.000645	0.0031764	0.00068653	535.71	1.0257e-05	4.4736e-05	518.61	184.3	3.8065e-06	3.2058e-05	217.04	84.436	68.408	31.696	1.5681e-05	46.934	0.006259	0.0060425	0.0015979	1143.3	7.0551e-05	6.6831e-05	1112.7	439.49	7.5376e-05	7.2085e-05	614.87	225.02	402.23	75.43	7.5803e-05	110.12	274.932	-27.318	-23.926	-58.238	170.018	36.968	-58.429	-51.912	259.589	-41.171	-54.221	-48.334	-46.966	-43.348	18.633	-45.184	-8191	255	
4333.711	1	1	0	0	0.33855	0.079789	0.077202	0.22991	0.061208	0.22492	0.037287	0.1116	0.028467	0.26495	0.11294	0.08119	0.17744	0.1546	0.16493	0.29912	-1.7271	-2.5563	-2.4583	-2.2125	-2.9583	-2.3271	-2.2333	-2.925	-2.1208	-2.5812	-2.625	-2.1354	-2.8979	-2.2792	-2.1604	-2.9792	208.233	-63.338	114.078	280.687	120.965	196.454	105.961	-9.880	167.395	199.557	229.046	-11.079	-68.376	-69.552	144.580	-6.762	0.00045835	0.0019639	0.00037926	542.54	3.4562e-05	3.4987e-05	528.28	188.21	5.0349e-05	1.4294e-05	217.2	87.731	73.625	32.81	2.2288e-05	47.68	0.0080134	0.007588	0.0020774	1406.7	9.3332e-05	8.6621e-05	1311.3	537.2	9.2264e-05	8.4425e-05	685.42	254.51	428.96	78.612	7.9789e-05	116.89	61.490	3.483	287.424	-57.760	126.613	-4.399	-58.463	-52.372	14.164	228.753	-54.076	-49.024	-47.161	-42.808	-62.024	-44.403	-8191	255	
4333.808	1	1	0	0	0.17142	0.055227	0.23653	0.26096	0.27223	0.16726	0.14326	0.32849	0.20724	0.31507	0.31725	0.16961	0.050279	0.11313	0.090375	0.12184	-1.7771	-2.3875	-2.5312	-2.0771	-2.9021	-2.4792	-2.2562	-3.0542	-2.0667	-2.5458	-2.7542	-1.8479	-2.7938	-2.6688	-2.3187	-2.9	133.908	269.591	144.373	-37.272	48.084	22.772	178.442	-4.764	179.154	-15.078	76.122	-47.470	130.176	254.632	187.027	192.409	0.00070664	9.4647e-05	0.00052834	548.19	3.0017e-05	2.09e-05	520.56	186.84	2.3744e-05	2.7743e-05	215.59	86.52	73.053	32.744	3.6448e-05	48.359	0.0079809	0.0075707	0.002105	1454.7	9.0983e-05	8.584e-05	1317.6	547.21	8.8427e-05	8.2018e-05	688.87	257.52	408.35	76.378	7.7454e-05	113.09	59.763	280.920	100.362	-58.159	94.941	47.155	-58.887	-52.264	2.595	238.116	-53.881	-49.073	-46.538	-42.659	198.786	-45.064	-8191	255	
4333.928	1	1	0	0	0.12222	0.3174	0.16759	0.10928	0.12606	0.20626	0.32498	0.1944	0.14381	0.037706	0.27525	0.097863	0.028693	0.18899	0.10307	0.15245	-1.975	-2.3646	-2.6562	-2.1813	-2.6854	-2.5062	-2.2417	-2.6708	-2.2146	-2.6021	-2.5875	-1.9854	-2.5292	-2.7	-2.0521	-2.9208	141.250	140.620	260.238	36.985	121.523	154.052	180.097	214.881	2.690	118.030	-46.094	175.615	170.557	-21.985	52.032	145.502	0.00085626	0.0013773	0.00072938	553.74	1.5242e-05	2.7888e-05	520.12	196.06	2.0438e-05	7.6072e-06	217.81	91.558	74.122	33.93	4.3208e-05	49.803	0.006932	0.0065545	0.001878	1316	7.136e-05	6.7772e-05	1181	476.85	6.7863e-05	6.3924e-05	608.39	222.76	330.92	68.309	6.7003e-05	102.31	109.737	234.315	122.155	-58.320	106.916	59.729	-58.261	-52.207	44.841	-46.579	-54.027	-49.075	-47.156	-42.463	229.184	-45.460	-8191	255	
4334.024	1	1	0	0	0.15789	0.068801	0.29182	0.34864	0.11173	0.09709	0.051358	0.22411	0.065307	0.15652	0.096377	0.12391	0.11531	0.051659	0.17335	0.067469	-1.9646	-2.1604	-2.9479	-2.125	-2.4562	-2.6104	-2.1312	-2.9583	-2.45	-2.2333	-2.9	-2.1771	-2.4688	-2.6875	-2.0854	-2.8896	81.550	-24.315	-6.085	191.748	190.934	259.638	-58.572	243.276	-68.370	96.103	38.090	246.201	149.943	73.367	202.546	55.820	0.00026506	0.001439	0.0009027	562.96	2.2627e-05	2.1915e-05	531.88	203.35	4.0311e-05	1.5482e-05	230.8	97.255	79.665	36.717	3.7888e-05	53.802	0.0057848	0.0056578	0.0017239	1219.1	6.3249e-05	6.1628e-05	1171.4	457.96	6.3136e-05	6.1512e-05	621.19	219.77	321.8	69.937	6.6557e-05	101.1	147.260	-49.147	142.313	-58.103	65.296	3.449	-58.061	-52.043	87.615	242.073	-54.331	-48.671	-46.809	-41.997	174.339	-45.404	-8191	255	
4334.120	1	1	0	0	0.14899	0.165	0.052226	0.16343	0.1862	0.13707	0.18517	0.079549	0.11901	0.15604	0.038967	0.32665	0.21393	0.09344	0.28469	0.20208	-2.0854	-2.1417	-2.8937	-2.0312	-2.4062	-2.7083	-2.1958	-2.7583	-2.5167	-2.3	-2.9604	-2.2479	-2.4354	-2.7687	-2.1083	-2.7792	145.001	167.804	116.906	68.445	-51.791	-27.628	-29.647	-2.351	-2.161	-59.594	-1.495	179.589	114.662	41.186	48.434	173.458	0.00051839	0.0012688	0.0008404	572.15	3.1669e-05	2.9211e-05	556.42	213.25	3.9316e-06	3.165e-05	242.33	100.08	82.495	37.38	9.2086e-06	54.054	0.0053548	0.0053051	0.0016267	1153	5.6591e-05	5.7221e-05	1139.3	432.57	5.6735e-05	5.8219e-05	606.18	211.74	312.63	71.263	6.8555e-05	101.53	-51.491	128.015	123.860	-58.292	115.807	241.477	-57.879	-52.468	282.431	170.337	-54.997	-48.396	-46.529	-41.942	2.618	-45.575	-8191	255	
4334.217	1	1	0	0	0.13207	0.099572	0.26572	0.1859	0.22781	0.14151	0.24168	0.3958	0.20316	0.23368	0.045461	0.28407	0.082458	0.16834	0.092965	0.05121	-2.1292	-1.9833	-2.6271	-2.3417	-2.3625	-2.8729	-2.1125	-2.75	-2.6979	-2.275	-2.9583	-2.2917	-2.5438	-2.8292	-2.2667	-2.625	-21.676	289.251	112.941	74.754	74.498	158.381	35.757	-42.848	37.716	166.947	1.516	-65.117	68.489	251.657	193.358	203.935	0.00026745	0.0032813	0.00092607	578.6	9.4455e-06	3.8919e-05	553.3	212.77	1.4697e-05	3.822e-05	239.07	97.242	80.867	36.679	1.7475e-05	53.026	0.0056712	0.0061271	0.0018613	1233.8	6.6435e-05	7.2266e-05	1278	480.27	6.9394e-05	7.4974e-05	678.79	229.37	349.71	78.566	7.659e-05	106.2	270.267	155.673	-34.620	-57.449	114.542	219.479	-57.746	-52.114	185.827	157.522	-54.651	-49.112	-46.154	-42.152	5.452	-45.389	-8191	255	
4334.288	1	1	0	0	0.15291	0.072419	0.11098	0.18607	0.10797	0.34255	0.34161	0.19118	0.23666	0.07383	0.13031	0.34432	0.17872	0.097825	0.10857	0.18752	-2.2792	-2.0354	-2.8312	-2.3563	-2.3	-3.0583	-2.2917	-2.6167	-2.7417	-2.0625	-2.8125	-2.4875	-2.225	-3.0583	-2.1083	-2.4458	234.852	111.896	-55.013	177.623	183.118	240.163	207.060	-41.814	-63.483	174.615	-54.539	170.895	82.150	-54.875	124.552	267.805	0.00056568	0.0021753	0.0011991	567.16	1.5438e-05	4.0073e-05	546.51	203.87	1.6162e-05	1.7026e-05	232.09	94.182	76.541	36.016	1.9576e-05	51.775	0.0063754	0.0072826	0.0020739	1310.2	7.445e-05	8.2838e-05	1307.5	485.87	7.3011e-05	7.9777e-05	661.58	224.87	351.57	78.259	7.2656e-05	102.52	-40.804	130.824	-26.622	-57.418	201.271	218.570	-58.196	-52.393	230.542	149.422	-54.765	-48.921	-44.891	-42.484	25.955	-45.056	-8191	255	
4334.407	1	1	0	0	0.10839	0.24835	0.15271	0.16518	0.22262	0.24253	0.16426	0.34668	0.24618	0.14103	0.17334	0.10308	0.053512	0.19774	0.10376	0.024256	-2.2958	-1.9625	-2.6583	-2.4542	-2.1833	-2.9042	-2.3625	-2.4417	-2.8792	-2.2292	-2.7229	-2.6354	-2.0396	-2.9771	-2.2792	-2.5104	260.599	143.671	41.042	234.094	-20.175	129.348	-22.809	-34.881	70.556	128.274	74.204	18.620	274.087	89.477	29.707	261.234	0.0012061	0.0017837	0.00097148	565.3	4.4174e-05	1.6265e-05	544.75	203.45	2.6768e-05	2.9149e-05	230.63	94.519	73.913	35.757	2.028e-05	52.043	0.0061991	0.0069256	0.0017913	1201.8	6.7786e-05	7.4394e-05	1191.8	451.02	6.9673e-05	7.545e-05	627.78	220.7	365.81	78.889	7.2134e-05	103.08	258.430	131.264	-54.007	-58.275	281.651	67.427	-58.032	-52.148	190.818	101.766	-54.531	-49.092	-45.147	-42.800	-60.558	-45.297	-8191	255	
4334.503	1	1	0	0	0.35199	0.048952	0.10941	0.20067	0.084146	0.17663	0.35757	0.29856	0.11462	0.082347	0.027242	0.09245	0.061569	0.040155	0.1915	0.1653	-2.4854	-2.0812	-2.5563	-2.6375	-2.1417	-2.8583	-2.3979	-2.3375	-2.9167	-2.1312	-2.6188	-2.6396	-2.1437	-2.6542	-2.3604	-2.3771	2.352	-33.213	-23.334	98.829	-41.801	-12.802	-62.211	288.470	-63.007	-26.549	200.545	171.202	280.675	282.954	117.164	122.576	0.0010084	0.0019198	0.00069607	564.27	3.6174e-05	3.3815e-05	546.29	202.75	2.0781e-05	4.9106e-05	230.73	95.135	75.513	36.315	2.2227e-05	51.982	0.0066068	0.0070158	0.0018011	1226.1	7.4702e-05	7.6994e-05	1215.1	464.25	7.6583e-05	7.7838e-05	639.32	224.61	380.68	77.108	6.8631e-05	101.75	233.058	-10.925	-53.452	-58.308	285.158	85.612	-58.512	-52.291	238.670	19.512	-54.228	-48.995	-44.556	-42.413	75.768	-45.682	-8191	255	
4334.599	1	1	0	0	0.18839	0.11007	0.073731	0.22026	0.28409	0.23938	0.024612	0.1268	0.17355	0.2549	0.12259	0.20408	0.066317	0.20245	0.052029	0.21552	-2.4062	-2.0438	-2.4729	-2.95	-1.85	-2.8042	-2.2875	-2.175	-3.0146	-2.1375	-2.3854	-2.7333	-2.0833	-2.5375	-2.6167	-2.1771	273.206	17.812	200.546	-4.776	137.291	278.379	174.249	115.347	117.315	196.695	60.405	29.072	246.602	166.077	192.908	-60.354	0.00065461	0.0025208	0.00066368	556.41	1.701e-05	3.981e-05	537.68	200.08	1.433e-05	3.2093e-05	229.69	93.341	76.228	35.554	9.3691e-06	50.392	0.006584	0.0065205	0.0016963	1200.6	7.3073e-05	6.9625e-05	1148.9	442.15	7.0162e-05	6.6889e-05	583.08	212.45	354.56	71.053	6.2487e-05	98.617	242.247	-16.400	-19.061	-58.047	-63.267	34.615	-58.102	-52.090	104.426	-23.806	-54.460	-48.510	-45.773	-42.512	82.783	-45.228	-8191	255	
4334.696	1	1	0	0	0.036949	0.021672	0.21388	0.12836	0.10663	0.3409	0.34127	0.13516	0.21807	0.10084	0.045647	0.22365	0.087887	0.046406	0.091053	0.22468	-2.4729	-2.0979	-2.4208	-2.9646	-2.1604	-2.5958	-2.5375	-2.125	-2.8208	-2.3958	-2.3479	-2.7146	-2.1458	-2.7083	-2.5583	-2.1542	209.179	156.646	63.878	-15.723	193.886	145.977	131.778	235.634	241.449	128.190	-38.375	165.628	289.303	108.581	218.333	129.480	0.00076268	0.0041354	0.00040135	546.85	7.5563e-06	1.9089e-05	531.53	197.29	1.8997e-05	1.6763e-05	225.01	92.436	77.002	35.057	1.3311e-05	50.956	0.0062587	0.0059406	0.0015782	1178.3	6.9826e-05	6.4447e-05	1114.5	446.32	6.9398e-05	6.4298e-05	568.25	212.05	336.96	67.467	5.7454e-05	96.608	126.597	-22.081	244.564	-57.805	-9.702	43.434	-58.234	-52.618	91.114	-13.258	-54.941	-48.267	-46.297	-42.615	132.353	-45.021	-8191	255	
4334.816	1	1	0	0	0.035673	0.27879	0.2157	0.28007	0.20319	0.026906	0.14384	0.14671	0.11098	0.23701	0.038279	0.25802	0.17596	0.28927	0.16749	0.40839	-2.4646	-2.1083	-2.2	-2.7333	-2.0521	-2.5292	-2.7542	-2.0812	-2.7146	-2.4958	-2.0833	-2.9417	-2.0875	-2.5792	-2.6917	-2.1854	109.662	-34.358	167.950	220.953	256.989	140.228	168.004	39.701	-5.700	196.068	201.679	-60.847	23.981	284.909	212.767	244.516	0.00053794	0.00037801	0.00038976	545.46	2.2327e-05	2.5585e-05	532.72	198.42	1.7987e-05	7.8936e-06	227.31	94.531	79.111	35.828	1.3422e-05	52.017	0.0055207	0.0051774	0.0013777	1118.7	5.9643e-05	5.5209e-05	1030	421.3	5.7449e-05	5.3711e-05	516.99	199.18	290.15	62.513	4.9978e-05	91.995	170.727	71.432	154.132	-57.988	120.258	-20.131	-57.686	-51.630	53.229	9.732	-54.428	-48.109	-46.505	-42.634	168.964	-45.012	-8191	255	
4334.888	1	1	0	0	0.40434	0.080628	0.12079	0.16038	0.1586	0.1247	0.11646	0.4367	0.061843	0.11452	0.18703	0.25168	0.1782	0.024713	0.19862	0.057761	-2.4417	-2.3229	-1.9375	-2.8146	-2.0146	-2.4708	-2.7229	-2.075	-2.5312	-2.6354	-2.2042	-3.0125	-2.3375	-2.4167	-2.7687	-2.1188	205.092	-59.706	17.843	183.271	270.917	87.748	174.796	220.295	-26.341	30.044	244.023	0.890	236.280	134.857	138.445	80.184	0.00046855	0.0013429	0.00033102	544.8	1.8796e-05	2.6576e-05	524.33	199.93	3.2382e-05	7.0493e-06	226.27	96.204	78.196	35.586	6.8318e-06	51.91	0.0046204	0.0044097	0.0012265	1047.4	4.9193e-05	4.5764e-05	957.41	385.47	4.5951e-05	4.4052e-05	477.74	183.93	251.17	57.861	4.4792e-05	85.787	123.804	4.457	111.892	-57.593	143.153	47.907	-57.748	-52.315	54.438	136.473	-54.806	-48.379	-46.633	-42.535	176.258	-44.657	-8191	255	
4335.009	1	1	0	0	0.12894	0.32551	0.15159	0.14433	0.10207	0.1282	0.16244	0.21574	0.08836	0.29489	0.18553	0.17892	0.10928	0.14172	0.084202	0.14949	-2.2708	-2.3583	-2.1063	-2.875	-2.1667	-2.1021	-2.8688	-2.1125	-2.6083	-2.5312	-2.2021	-2.8583	-2.3854	-2.2958	-2.8521	-2.0354	28.363	172.141	80.071	165.234	-59.621	72.290	176.318	-41.001	245.688	14.924	254.487	68.939	127.047	-60.191	164.510	-52.809	0.00040948	0.0012304	0.0004387	541.86	8.1753e-06	6.4901e-06	522.3	194.48	1.1933e-05	9.3234e-06	220.74	92.284	73.42	33.345	1.5121e-05	49.849	0.0038635	0.0037751	0.0011062	960.43	4.1105e-05	3.9073e-05	907.3	350.72	3.8858e-05	3.7418e-05	440.95	162.26	211.45	51.46	3.8365e-05	75.551	280.142	49.832	186.879	-57.884	60.434	1.324	-58.083	-52.187	-41.773	-24.466	-54.038	-49.280	-45.431	-42.451	186.984	-44.941	-8191	255	
4335.105	1	1	0	0	0.23955	0.13846	0.22043	0.30704	0.21566	0.15674	0.022513	0.020487	0.24041	0.094154	0.22648	0.033418	0.064236	0.10556	0.19237	0.14361	-2.0229	-2.6937	-1.9729	-2.9146	-2.5125	-2.2167	-2.7562	-2.2375	-2.275	-2.7812	-2.1583	-2.675	-2.4854	-2.2396	-2.8479	-2.2708	-2.115	47.340	-64.279	217.692	183.111	-47.673	163.678	51.416	185.043	131.594	244.241	177.229	116.453	257.763	189.188	37.609	0.00026729	0.00099696	0.00030489	536.04	1.0333e-05	1.4329e-05	514.65	191.81	4.2332e-06	1.4771e-05	217.71	90.802	71.747	32.804	1.1488e-05	49.393	0.0030908	0.0030707	0.00094041	855.77	3.3373e-05	3.2513e-05	839.07	312.89	3.1488e-05	3.136e-05	402.17	144.71	181.73	47.828	3.2388e-05	68.873	283.295	75.548	102.768	-58.111	47.596	217.054	-57.660	-52.099	142.558	188.251	-54.310	-48.532	-46.357	-42.062	268.250	-45.018	-8191	255	
#DATA ENDS
