BOXY.EXE: ISS Imagent and Oximeter Data Acquisition Program Version 0.80
Ascii Record File

#ACQ INFORMATION
2  Detector Channels 
16  External MUX Channels 
1  Auxiliary Channels 
5000  Waveform (CCF) Frequency (Hz)
1  Waveforms Skipped 
30  Waveforms Averaged 
1  Cycles Averaged 
16  Acquisitions per Waveform 
10.0806  Updata Rate (Hz) 

#FILE INFORMATION
TRUE -- External MUX Channel results are PARSED.
FALSE -- AC DC and Phase are NOT grouped.
TRUE -- Companion Program Settings File CREATED.
FALSE -- AC data not excluded
FALSE -- DC data not excluded
FALSE -- Phase data not excluded
FALSE -- Auxillary Chn. data not excluded
Tab delimiters

#CALIBRATION STATE
TRUE -- Waveform Calibration Values APPLIED.


#AUX CALIBRATION VALUES
Val Type	aux-1	

Term	1.0000e+00	
Factor	0.0000e+00	


#WF CALIBRATION VALUES
A = Detector Channel
Val Type	A-AC1	A-AC2	A-AC3	A-AC4	A-AC5	A-AC6	A-AC7	A-AC8	A-AC9	A-AC10	A-AC11	A-AC12	A-AC13	A-AC14	A-AC15	A-AC16	A-DC1	A-DC2	A-DC3	A-DC4	A-DC5	A-DC6	A-DC7	A-DC8	A-DC9	A-DC10	A-DC11	A-DC12	A-DC13	A-DC14	A-DC15	A-DC16	A-Ph1	A-Ph2	A-Ph3	A-Ph4	A-Ph5	A-Ph6	A-Ph7	A-Ph8	A-Ph9	A-Ph10	A-Ph11	A-Ph12	A-Ph13	A-Ph14	A-Ph15	A-Ph16	

Term	0.00000e+00	0.00000e+00	0.00000e+00	0.00000e+00	0.00000e+00	0.00000e+00	0.00000e+00	0.00000e+00	0.00000e+00	0.00000e+00	0.00000e+00	0.00000e+00	0.00000e+00	0.00000e+00	0.00000e+00	0.00000e+00	0.00000e+00	0.00000e+00	0.00000e+00	0.00000e+00	0.00000e+00	0.00000e+00	0.00000e+00	0.00000e+00	0.00000e+00	0.00000e+00	0.00000e+00	0.00000e+00	0.00000e+00	0.00000e+00	0.00000e+00	0.00000e+00	0.00000e+00	0.00000e+00	0.00000e+00	0.00000e+00	0.00000e+00	0.00000e+00	0.00000e+00	0.00000e+00	0.00000e+00	0.00000e+00	0.00000e+00	0.00000e+00	0.00000e+00	0.00000e+00	0.00000e+00	0.00000e+00	
Factor	1.00000e+00	1.00000e+00	1.00000e+00	1.00000e+00	1.00000e+00	1.00000e+00	1.00000e+00	1.00000e+00	1.00000e+00	1.00000e+00	1.00000e+00	1.00000e+00	1.00000e+00	1.00000e+00	1.00000e+00	1.00000e+00	1.00000e+00	1.00000e+00	1.00000e+00	1.00000e+00	1.00000e+00	1.00000e+00	1.00000e+00	1.00000e+00	1.00000e+00	1.00000e+00	1.00000e+00	1.00000e+00	1.00000e+00	1.00000e+00	1.00000e+00	1.00000e+00	X	X	X	X	X	X	X	X	X	X	X	X	X	X	X	X	

B = Detector Channel
Val Type	B-AC1	B-AC2	B-AC3	B-AC4	B-AC5	B-AC6	B-AC7	B-AC8	B-AC9	B-AC10	B-AC11	B-AC12	B-AC13	B-AC14	B-AC15	B-AC16	B-DC1	B-DC2	B-DC3	B-DC4	B-DC5	B-DC6	B-DC7	B-DC8	B-DC9	B-DC10	B-DC11	B-DC12	B-DC13	B-DC14	B-DC15	B-DC16	B-Ph1	B-Ph2	B-Ph3	B-Ph4	B-Ph5	B-Ph6	B-Ph7	B-Ph8	B-Ph9	B-Ph10	B-Ph11	B-Ph12	B-Ph13	B-Ph14	B-Ph15	B-Ph16	

Term	0.00000e+00	0.00000e+00	0.00000e+00	0.00000e+00	0.00000e+00	0.00000e+00	0.00000e+00	0.00000e+00	0.00000e+00	0.00000e+00	0.00000e+00	0.00000e+00	0.00000e+00	0.00000e+00	0.00000e+00	0.00000e+00	0.00000e+00	0.00000e+00	0.00000e+00	0.00000e+00	0.00000e+00	0.00000e+00	0.00000e+00	0.00000e+00	0.00000e+00	0.00000e+00	0.00000e+00	0.00000e+00	0.00000e+00	0.00000e+00	0.00000e+00	0.00000e+00	-2.63813e+02	-1.35610e+02	-1.20718e+02	-1.83142e+02	-1.03639e+02	-7.76492e+01	-1.58739e+02	-1.62015e+02	-6.67048e+01	-5.05097e+01	-1.74416e+02	-1.69969e+02	-1.82317e+02	-1.77446e+02	-7.21603e+01	-1.50100e+02	
Factor	6.34764e-05	1.25928e-04	3.90822e-05	1.62229e-01	1.76456e-06	1.41241e-06	1.55923e-01	5.22478e-02	2.01247e-06	1.74817e-06	8.59677e-02	2.68576e-02	3.53234e-02	8.80985e-03	1.52861e-06	1.26090e-02	2.79852e-06	2.94799e-06	8.21211e-07	8.30312e-02	3.20143e-08	3.23669e-08	7.47397e-02	2.68061e-02	3.19947e-08	3.24091e-08	4.26679e-02	1.33414e-02	1.79389e-02	4.54378e-03	3.21625e-08	6.28425e-03	X	X	X	X	X	X	X	X	X	X	X	X	X	X	X	X	



#DISTANCE SETTINGS
A = Detector Channel
A-1	A-2	A-3	A-4	A-5	A-6	A-7	A-8	A-9	A-10	A-11	A-12	A-13	A-14	A-15	A-16	

2.5000e+00	3.0000e+00	2.5000e+00	3.0000e+00	2.0000e+00	3.0000e+00	1.5000e+00	3.0000e+00	3.0000e+00	3.0000e+00	3.0000e+00	3.0000e+00	3.0000e+00	3.0000e+00	1.5000e+00	3.0000e+00	

B = Detector Channel
B-1	B-2	B-3	B-4	B-5	B-6	B-7	B-8	B-9	B-10	B-11	B-12	B-13	B-14	B-15	B-16	

1.0000e+01	1.0000e+01	1.0000e+01	1.4400e+00	1.0000e+01	1.0000e+01	1.5100e+00	1.9400e+00	1.0000e+01	1.0000e+01	1.9900e+00	2.4900e+00	2.4100e+00	2.9000e+00	1.0000e+01	2.9800e+00	




#DATA BEGINS
time	group	step	mark	flag	A-AC1	A-AC2	A-AC3	A-AC4	A-AC5	A-AC6	A-AC7	A-AC8	A-AC9	A-AC10	A-AC11	A-AC12	A-AC13	A-AC14	A-AC15	A-AC16	A-DC1	A-DC2	A-DC3	A-DC4	A-DC5	A-DC6	A-DC7	A-DC8	A-DC9	A-DC10	A-DC11	A-DC12	A-DC13	A-DC14	A-DC15	A-DC16	A-Ph1	A-Ph2	A-Ph3	A-Ph4	A-Ph5	A-Ph6	A-Ph7	A-Ph8	A-Ph9	A-Ph10	A-Ph11	A-Ph12	A-Ph13	A-Ph14	A-Ph15	A-Ph16	B-AC1	B-AC2	B-AC3	B-AC4	B-AC5	B-AC6	B-AC7	B-AC8	B-AC9	B-AC10	B-AC11	B-AC12	B-AC13	B-AC14	B-AC15	B-AC16	B-DC1	B-DC2	B-DC3	B-DC4	B-DC5	B-DC6	B-DC7	B-DC8	B-DC9	B-DC10	B-DC11	B-DC12	B-DC13	B-DC14	B-DC15	B-DC16	B-Ph1	B-Ph2	B-Ph3	B-Ph4	B-Ph5	B-Ph6	B-Ph7	B-Ph8	B-Ph9	B-Ph10	B-Ph11	B-Ph12	B-Ph13	B-Ph14	B-Ph15	B-Ph16	aux-1	digaux	

7083.342	1	1	0	768	0.15884	0.23448	0.063852	0.29856	0.12809	0.043003	0.11047	0.12658	0.063242	0.15543	0.11205	0.061647	0.24066	0.25912	0.29308	0.129	-1.4458	-2.5521	-1.7042	-2.1625	-2.3771	-1.8729	-2.6437	-2.2729	-1.6812	-2.45	-1.8458	-2.1333	-2.6146	-1.7979	-2.2583	-2.2229	-113.369	137.293	-50.416	-136.532	9.243	-117.408	-111.986	155.500	-23.588	-37.113	25.151	40.722	133.163	153.976	-85.264	102.994	0.0011733	0.0012178	6.6084e-05	823.39	1.3569e-05	4.6177e-06	634.73	321.2	1.0931e-05	1.0838e-05	289.34	113.46	120.94	53.161	8.9839e-06	56.686	0.0020866	0.002054	0.00055669	831.46	1.9972e-05	1.9433e-05	644.54	320.23	1.7862e-05	1.7449e-05	293.72	114.04	121.02	52.548	1.3849e-05	56.137	67.104	-47.423	-134.645	-148.568	-23.677	-48.497	-149.766	-143.138	26.768	16.053	-145.646	-141.498	-138.695	-132.827	12.057	-136.593	-8191	255	
7083.438	1	1	0	0	0.063588	0.18492	0.38094	0.173	0.32605	0.037913	0.10981	0.13747	0.12955	0.07807	0.27383	0.21981	0.16551	0.28891	0.24577	0.14729	-1.4688	-2.3333	-1.6875	-1.9646	-2.2687	-1.8188	-2.2854	-2.1792	-1.6646	-2.5375	-2.0271	-1.85	-2.5479	-1.8771	-2.2542	-2.4188	114.957	-64.475	-153.864	166.432	169.379	70.280	-93.539	194.511	-105.912	162.434	-157.244	177.018	136.683	-151.180	7.901	88.090	0.001605	0.00074488	0.0001805	838.39	6.4924e-06	5.1777e-06	657.17	328.58	4.8612e-06	1.6078e-06	297.29	117.59	122.47	54.116	4.6147e-06	57.501	0.0011174	0.00106	0.00028163	815.58	9.7067e-06	9.2687e-06	641.19	318.55	8.9034e-06	8.9072e-06	289.75	114.23	119.43	52.727	9.0098e-06	56.321	71.407	187.558	-41.339	-147.688	-138.061	167.582	-149.428	-141.676	-25.550	-17.303	-145.554	-141.679	-138.778	-133.400	-108.937	-136.791	-8191	255	
7083.535	1	1	0	0	0.25528	0.10965	0.17527	0.15495	0.072752	0.12799	0.06451	0.26835	0.24446	0.23103	0.073725	0.22948	0.21714	0.27285	0.18308	0.18841	-1.3292	-2.4167	-1.9917	-1.9917	-2.4437	-1.8896	-2.3063	-2.3375	-1.6375	-2.4229	-1.9104	-2.0312	-2.4667	-1.9875	-2.2167	-2.5396	21.278	109.281	-85.810	185.837	76.406	72.716	-83.645	-123.069	126.252	-119.960	139.380	168.345	166.851	-159.321	-105.703	121.478	0.0017442	0.00079458	0.00019268	844.72	7.4656e-06	3.5841e-06	662.03	330.08	7.2629e-06	6.5564e-06	298.24	118.57	123.12	54.574	1.7866e-06	57.755	0.00082129	0.00081873	0.00022793	818.99	8.6107e-06	8.3761e-06	643.4	319.06	7.8492e-06	7.8451e-06	289.6	114.43	119.26	52.942	8.4196e-06	56.466	69.119	-82.537	-29.446	-147.462	-84.136	11.540	-149.451	-142.125	-20.841	25.695	-144.838	-140.793	-137.715	-132.361	93.026	-136.769	-8191	255	
7083.631	1	1	0	0	0.081309	0.34913	0.17127	0.33686	0.017324	0.27373	0.42107	0.13136	0.092743	0.24831	0.13364	0.16001	0.25261	0.23724	0.13495	0.34847	-1.4271	-2.4708	-2.0979	-1.8917	-2.4813	-1.8667	-2.225	-2.425	-1.7833	-2.2917	-2.1625	-1.8792	-2.525	-1.7792	-1.8833	-2.4625	94.214	67.237	77.131	97.109	113.030	30.897	-16.739	160.011	-47.623	-54.271	139.767	148.352	181.892	41.077	-156.897	130.081	0.0016426	0.00074926	0.00013088	841.81	1.1231e-05	5.5385e-06	653.92	328.4	9.6489e-06	1.7716e-05	293.93	115.54	121.23	53.659	6.4372e-06	56.912	0.00082368	0.00085221	0.00024428	818	9.9491e-06	1.0442e-05	641.15	319.25	1.1097e-05	1.1461e-05	291.28	113.99	120.18	52.617	1.1626e-05	56.316	67.333	-108.942	32.336	-147.762	40.611	-20.170	-149.527	-142.015	-45.028	40.448	-145.181	-140.693	-137.875	-132.709	-11.283	-136.261	-8191	255	
7083.725	1	1	0	0	0.19741	0.19856	0.21246	0.24353	0.26224	0.32864	0.33681	0.012531	0.12522	0.15666	0.18927	0.11106	0.16462	0.37936	0.21308	0.18866	-1.1771	-2.325	-2.1417	-1.7979	-2.4042	-1.8646	-2.0958	-2.5625	-1.75	-2.2167	-2.475	-1.9917	-2.5021	-2.1208	-1.7854	-2.5333	96.348	-119.487	148.591	-147.594	-81.214	49.539	110.871	49.220	-53.465	-105.813	107.050	-17.012	-96.376	-149.943	177.502	148.453	0.0016437	0.0010218	0.00011011	841.68	2.917e-06	1.0135e-05	648.51	328	1.0135e-05	6.1432e-06	290.96	116.26	121.83	53.462	1.4307e-05	56.978	0.0010609	0.0010582	0.0002916	819.54	1.1169e-05	1.1528e-05	639.41	320.1	1.2294e-05	1.2723e-05	291.45	114.83	120.99	52.798	1.4247e-05	56.533	72.076	-91.671	-126.734	-147.958	169.416	-113.891	-149.501	-141.973	-59.151	35.845	-144.914	-140.474	-138.086	-132.440	-13.593	-136.594	-8191	255	
7083.823	1	1	0	0	0.29899	0.080654	0.21726	0.14681	0.097635	0.1611	0.36775	0.12219	0.16926	0.13893	0.17043	0.14095	0.13453	0.26254	0.17355	0.19446	-1.4979	-2.2021	-2.1833	-1.8396	-2.4167	-2.1521	-1.8604	-2.55	-1.7646	-2.0292	-2.5292	-1.7833	-2.3167	-2.2833	-1.7875	-2.5167	0.329	-60.089	-54.525	19.635	-69.651	7.504	50.303	46.584	177.816	118.213	185.820	-91.397	17.535	-119.846	44.482	152.613	0.0014967	0.00048161	0.0003905	833.28	6.4839e-06	8.7968e-06	642.54	326.96	8.6942e-06	1.2435e-05	291.29	115.19	120.98	53.083	6.6434e-06	56.131	0.0013389	0.0014023	0.00039673	825.34	1.5769e-05	1.5945e-05	644.71	321.95	1.6392e-05	1.6867e-05	296.72	115.94	122.68	52.9	1.8096e-05	56.775	71.822	106.996	-16.854	-147.589	-62.761	21.450	-149.624	-142.147	-81.974	47.782	-144.980	-140.574	-137.839	-132.503	11.443	-136.434	-8191	255	
7083.942	1	1	0	0	0.13419	0.19374	0.1436	0.11632	0.29184	0.14697	0.11073	0.20822	0.17544	0.054977	0.13334	0.068743	0.12987	0.1711	0.21154	0.36957	-1.3896	-1.975	-2.3333	-1.8708	-2.2208	-2.2521	-1.7979	-2.4	-1.6979	-2.0708	-2.6604	-1.7854	-2.3417	-2.3208	-1.7583	-2.5229	28.758	-97.435	102.580	-111.274	62.247	84.683	-134.675	120.630	61.966	-155.151	-63.002	151.231	-124.904	124.575	196.902	129.698	0.0017578	0.00055188	0.00024494	829.38	1.6942e-05	1.6397e-05	642.01	324	1.0203e-05	8.0892e-06	289.95	115.97	120.27	52.479	4.8004e-06	55.867	0.0016596	0.0017249	0.00048063	829.74	1.8502e-05	1.8579e-05	648.3	322.16	1.8096e-05	1.8269e-05	296.86	116.43	122.88	52.736	1.8308e-05	56.467	75.229	-57.125	-23.380	-147.474	-92.050	-45.933	-149.403	-142.153	-74.933	13.935	-144.925	-140.740	-137.638	-132.467	122.565	-136.109	-8191	255	
7084.038	1	1	0	0	0.10368	0.16665	0.098452	0.22309	0.030684	0.057535	0.15885	0.37109	0.15113	0.21826	0.31738	0.13866	0.28607	0.12036	0.098619	0.29195	-1.6875	-1.8896	-2.4833	-1.8188	-2.1229	-2.3833	-1.8729	-2.6625	-2.0146	-1.9062	-2.3979	-1.7729	-2.1937	-2.4562	-1.7396	-2.4938	154.110	53.965	28.973	128.328	190.648	-157.900	176.139	160.108	-89.356	178.979	-149.391	-155.103	78.451	-157.971	169.240	92.925	0.0019311	0.00082687	0.00021955	821.13	1.2561e-05	7.588e-06	637.14	323.73	7.4808e-06	5.141e-06	287.97	115.33	120.41	52.676	8.0907e-06	55.923	0.0016336	0.0016768	0.00045885	823.43	1.7477e-05	1.7418e-05	640.71	321.08	1.6619e-05	1.6585e-05	293.29	115.36	121.3	52.35	1.5436e-05	56.05	77.599	-76.045	-97.279	-147.376	-66.539	-60.364	-149.522	-142.067	-39.954	-125.568	-145.154	-140.507	-137.956	-132.340	10.544	-136.565	-8191	255	
7084.134	1	1	0	0	0.11501	0.19006	0.15248	0.25267	0.13543	0.011165	0.068534	0.41589	0.064873	0.087955	0.27302	0.26942	0.15872	0.34136	0.15234	0.20079	-1.6187	-1.8563	-2.5375	-1.9667	-2.1021	-2.3125	-1.6375	-2.4229	-2.0729	-1.9188	-2.3854	-1.8542	-2.0854	-2.5146	-1.5604	-2.3479	70.697	193.756	-7.235	147.473	26.777	-117.628	-149.082	125.337	-81.992	91.159	140.771	143.539	113.662	-118.554	188.609	143.031	0.0016734	0.0010664	0.00029773	825.36	2.968e-06	3.4475e-06	637.36	322.12	7.4546e-06	9.253e-06	289.55	115.18	119.87	52.632	5.3785e-06	55.423	0.0014121	0.001413	0.00038775	817.6	1.5177e-05	1.5178e-05	638.24	318.91	1.546e-05	1.5887e-05	293.49	115.85	122.08	52.748	1.8317e-05	56.419	69.515	-75.149	-91.329	-147.869	118.766	190.512	-151.589	-144.286	-8.831	1.323	-146.976	-142.329	-139.178	-133.524	92.230	-137.360	-8191	255	
7084.230	1	1	0	0	0.24985	0.12288	0.27998	0.1759	0.38214	0.07391	0.24362	0.11158	0.15162	0.10402	0.23893	0.23605	0.1146	0.16049	0.079306	0.16284	-1.6521	-1.5667	-2.3396	-2.0604	-1.9813	-2.5708	-1.6792	-2.1979	-2.1833	-1.7208	-2.625	-1.9667	-2.0104	-2.3458	-1.6542	-2.2792	-33.369	-74.349	-25.065	104.763	-44.048	176.449	112.302	167.754	-90.965	190.223	2.219	146.173	125.966	178.009	-44.443	92.478	0.0014585	0.0011985	0.00039043	820.86	1.3005e-05	8.0886e-06	625.18	323	1.0533e-05	9.2671e-06	289.45	115.01	120.13	52.65	1.2742e-05	55.472	0.0017539	0.0018892	0.00054959	833.27	2.323e-05	2.4053e-05	650.66	328.21	2.5072e-05	2.5629e-05	305.83	119.35	127.3	53.7	2.6702e-05	57.848	65.674	-54.566	-40.477	-148.443	-79.909	-75.527	-150.268	-143.058	-39.035	-0.335	-145.931	-141.453	-138.764	-132.846	-55.962	-137.323	-8191	255	
7084.327	1	1	0	0	0.17985	0.17009	0.080889	0.18574	0.025762	0.030239	0.11413	0.2554	0.28668	0.22056	0.17751	0.071936	0.22321	0.06479	0.029481	0.081501	-1.8958	-1.5729	-2.2271	-2.1146	-1.8583	-2.3688	-1.9292	-2.3354	-2.2125	-1.7437	-2.4771	-2.0375	-1.7896	-2.6312	-1.9854	-2.1979	-78.662	-26.748	-122.880	180.826	85.788	-71.713	189.881	-123.474	119.059	111.478	41.057	177.052	-62.660	-49.826	50.366	102.843	0.0017094	0.00099607	0.00014233	817.4	4.1404e-06	1.674e-05	630.95	323.61	2.122e-05	6.8622e-06	289.45	115.51	120.68	52.447	1.0091e-05	55.637	0.0024049	0.002471	0.00069997	841.81	2.6997e-05	2.7292e-05	656.47	329.25	2.6562e-05	2.661e-05	306.24	119.84	127.63	53.624	2.6687e-05	57.684	75.790	-71.667	100.559	-148.043	158.144	-0.483	-150.065	-142.997	-49.772	57.548	-145.666	-141.142	-138.334	-132.615	-25.263	-136.282	-8191	255	
7084.423	1	1	0	0	0.11712	0.18336	0.21542	0.10834	0.14778	0.1313	0.29123	0.34786	0.06503	0.11738	0.0467	0.18503	0.21345	0.18553	0.024185	0.32756	-2.0104	-1.825	-2.2604	-2.2167	-1.95	-2.3667	-1.8458	-2.0687	-2.325	-1.7375	-2.2208	-2.4354	-1.8896	-2.4229	-1.9875	-1.9021	169.084	182.624	190.742	-132.599	-54.595	8.380	65.098	161.545	-70.598	-63.676	37.711	-155.952	115.292	-155.394	5.898	-153.321	0.0014254	0.0006211	0.00026319	812.37	3.8944e-06	1.3667e-05	628.64	323.24	1.6077e-05	9.675e-06	288.71	115.72	120.27	52.527	8.1971e-06	55.446	0.0023141	0.0023113	0.0006323	829.91	2.2945e-05	2.2206e-05	643.93	322.12	1.9982e-05	2.0024e-05	297.62	117.2	123.34	52.807	1.9493e-05	56.415	64.815	31.646	3.720	-147.342	170.078	0.566	-149.005	-142.020	-6.710	23.548	-145.312	-140.896	-137.622	-132.205	47.612	-136.472	-8191	255	
7084.543	1	1	0	0	0.12286	0.074686	0.02786	0.20511	0.13802	0.14487	0.12809	0.22527	0.092243	0.14977	0.011518	0.30057	0.27302	0.2836	0.21697	0.015001	-2.0667	-1.8667	-2.1896	-2.3042	-1.8125	-2.525	-2.0521	-1.9271	-2.4479	-1.8813	-2.1854	-2.2604	-1.6583	-2.4604	-2.0563	-2.0375	120.345	94.085	-93.067	99.487	69.040	-129.989	-112.183	128.041	-36.791	96.779	-121.330	138.365	-134.049	154.908	100.496	-15.566	0.0014575	0.00053243	0.00021966	812.88	3.7804e-06	6.1847e-06	628.75	321.59	1.2368e-06	1.0946e-06	287.33	115.2	120.04	52.576	9.7557e-06	55.173	0.0017409	0.001786	0.00050662	821.03	2.01e-05	2.068e-05	640.99	322.39	2.1167e-05	2.1512e-05	298.97	117.57	124.49	53.049	2.2176e-05	56.66	76.465	-43.978	-56.827	-147.243	171.106	25.067	-149.089	-141.911	27.851	-71.200	-144.868	-140.344	-137.865	-132.117	-122.067	-136.340	-8191	255	
7084.638	1	1	0	0	0.13405	0.084261	0.19792	0.16438	0.1364	0.1595	0.10456	0.23768	0.13074	0.15969	0.16859	0.36927	0.22861	0.15457	0.32227	0.11343	-2.0771	-1.5667	-2.0167	-2.3792	-1.7542	-2.3854	-2.1396	-2.1167	-2.5521	-1.6833	-2.1417	-2.5083	-1.7396	-2.5	-2.2479	-1.8146	-139.225	146.017	-137.711	-135.330	7.194	-19.931	125.048	78.514	-140.406	3.899	67.973	124.930	118.921	-145.607	75.231	85.244	0.0014006	0.0016164	0.00025481	811.5	4.7526e-06	5.36e-06	625.19	320.41	5.42e-06	1.0575e-05	288.17	115.39	120.95	52.754	1.2928e-05	55.734	0.0019522	0.0020088	0.00056308	823.96	2.1826e-05	2.2592e-05	643.75	323.48	2.3095e-05	2.41e-05	303	119.67	127.05	53.658	2.6259e-05	57.849	69.879	-96.570	-113.936	-147.283	-6.571	-1.364	-149.320	-142.031	112.957	5.866	-145.103	-140.599	-137.697	-132.328	-39.925	-136.372	-8191	255	
7084.734	1	1	0	0	0.1456	0.25295	0.083645	0.021904	0.042973	0.27689	0.10049	0.25831	0.13279	0.14495	0.21295	0.1732	0.079609	0.11728	0.13742	0.041775	-1.875	-1.8625	-1.9	-2.55	-1.7583	-2.0625	-2.3604	-1.8354	-2.6	-2.0667	-1.8062	-2.4333	-1.7479	-2.0833	-2.425	-1.7625	77.787	135.073	-116.328	-130.896	-69.305	143.944	60.196	128.867	35.774	-7.983	199.459	-133.799	-154.579	161.121	-148.993	-78.510	0.0012369	0.00083545	0.00032253	811.87	1.2094e-05	6.2592e-06	619.13	323.47	2.6551e-06	5.4976e-06	285.51	115.93	122.21	52.562	1.4189e-05	55.429	0.0023952	0.0025242	0.00071762	836.83	2.8655e-05	2.9238e-05	654.32	331.24	3.0102e-05	3.0786e-05	310.94	122.55	130.93	54.763	3.2506e-05	58.926	66.622	-82.435	-4.950	-147.139	-70.104	-42.520	-148.882	-142.207	12.999	58.905	-145.131	-140.588	-137.716	-132.256	-57.957	-135.989	-8191	255	
7084.830	1	1	0	0	0.22838	0.11079	0.11313	0.27273	0.13035	0.15663	0.35899	0.080946	0.16119	0.086542	0.1962	0.15373	0.28411	0.33543	0.15361	0.13836	-2.0563	-1.8979	-1.8375	-2.4688	-1.925	-2.225	-2.5104	-1.8333	-2.3333	-2.0312	-1.8021	-2.575	-2.0167	-2.2812	-2.4021	-1.8937	-119.291	16.031	-104.063	193.074	87.810	-151.802	49.146	100.228	102.843	-25.520	-85.276	189.034	107.589	-127.818	77.321	20.469	0.0012359	0.0013054	0.00034617	809.21	1.4792e-05	2.8842e-06	615.01	323.38	2.0104e-05	8.8948e-06	285.12	116.02	120.1	52.836	7.0341e-06	55.403	0.0029519	0.0031134	0.0008865	851.61	3.5062e-05	3.6124e-05	663.85	334.79	3.4678e-05	3.4859e-05	314.07	122.93	131.57	54.935	3.3271e-05	58.844	67.137	-97.876	31.549	-147.510	-56.665	7.465	-149.113	-142.280	-116.343	151.806	-144.716	-140.637	-138.139	-132.311	-58.684	-136.559	-8191	255	
7084.903	1	1	0	0	0.070163	0.18772	0.20943	0.14348	0.25856	0.27606	0.397	0.26573	0.11387	0.11849	0.10217	0.15352	0.063372	0.064043	0.13874	0.35298	-1.9896	-2.1063	-1.825	-2.4021	-1.8917	-1.8604	-2.5333	-1.8958	-2.2542	-2.2104	-1.8	-2.5	-1.9396	-1.9729	-2.425	-1.9021	-151.873	12.127	84.842	114.579	-24.668	-51.200	68.942	149.062	49.884	-58.690	-150.497	116.336	114.810	151.311	76.462	158.650	0.0013903	0.0010517	0.00049072	801.79	1.0424e-05	1.2252e-05	609.7	320.43	1.016e-05	7.2051e-06	284.26	115.12	120.19	52.514	5.1892e-06	55.032	0.0029185	0.0030119	0.00083055	839.24	3.1363e-05	3.1279e-05	646.58	328.08	2.8755e-05	2.8535e-05	303.19	119.52	127.27	53.688	2.5501e-05	57.075	66.887	-49.268	-83.024	-147.292	-5.415	-77.079	-149.045	-142.177	155.785	-131.049	-145.212	-140.222	-137.863	-132.400	52.301	-136.474	-8191	255	
7085.022	1	1	0	0	0.087387	0.062894	0.15849	0.23413	0.16101	0.40717	0.13204	0.19592	0.24651	0.11573	0.042608	0.26717	0.12881	0.25594	0.24262	0.18857	-1.9854	-2.1896	-1.7521	-2.4437	-1.6562	-1.8458	-2.3729	-1.9375	-2.0354	-2.3646	-1.9583	-2.5042	-2.0812	-2.0187	-2.4479	-1.9125	-22.933	3.424	123.519	93.680	92.616	111.103	-159.268	-121.622	178.104	-70.707	-69.928	113.597	-87.384	183.452	-110.841	149.081	0.0017	0.00060234	0.00020629	795.58	6.9992e-06	9.5969e-06	610.68	320.95	7.2091e-06	1.1892e-05	282.62	115.14	119.53	51.881	9.6551e-06	55.153	0.0021569	0.0021773	0.00059835	812.88	2.3121e-05	2.2546e-05	626.08	321.31	2.1369e-05	2.1719e-05	294.8	116.93	123.96	52.637	2.0284e-05	56.012	53.168	-42.355	-83.618	-147.496	79.670	-40.854	-148.974	-142.243	-77.089	-45.984	-145.041	-140.808	-137.954	-132.945	30.408	-136.603	-8191	255	
7085.118	1	1	0	0	0.1956	0.2	0.12824	0.13066	0.12307	0.15532	0.11618	0.41558	0.17105	0.077765	0.14993	0.33858	0.11777	0.13691	0.1951	0.096274	-1.7437	-2.3125	-1.8167	-2.4125	-1.9646	-1.85	-2.6146	-1.8917	-2.0292	-2.3167	-1.8625	-2.6271	-2.0167	-1.9625	-2.4833	-2.0667	-62.229	-158.526	7.189	135.234	-79.851	170.101	94.068	163.735	-54.248	83.201	111.996	147.537	-77.345	65.680	-43.913	196.874	0.0015716	0.00079406	0.00018219	802.02	2.3629e-06	8.6587e-06	611.61	320.36	1.1684e-05	9.3007e-06	284.58	114.86	119.96	52.364	6.997e-06	55.174	0.0018282	0.0018899	0.00053216	809.83	2.1872e-05	2.2488e-05	632.49	322.92	2.3389e-05	2.3884e-05	299.41	118.65	126.28	53.37	2.5462e-05	57.136	67.003	36.302	-89.521	-148.209	0.915	-77.732	-149.152	-141.937	-77.353	79.222	-144.781	-140.274	-137.792	-132.343	16.629	-136.526	-8191	255	
7085.215	1	1	0	0	0.056953	0.16742	0.085079	0.14544	0.13872	0.04913	0.30111	0.20794	0.1413	0.2387	0.215	0.12379	0.19522	0.22838	0.11491	0.22108	-1.5833	-2.3563	-1.6187	-2.375	-2.2042	-1.8792	-2.6188	-2.1583	-2.0396	-2.4333	-1.8229	-2.3167	-2.6042	-1.8146	-2.475	-2.1542	23.658	-49.649	-96.989	96.034	-20.902	-149.877	174.853	138.151	57.416	91.205	97.865	34.540	91.364	161.820	-125.663	144.163	0.0015434	0.0013208	0.0004785	807.89	6.1321e-06	4.8822e-06	613.09	321.33	2.5374e-05	9.7846e-06	283.15	114.98	120.49	52.129	1.132e-05	55.001	0.002344	0.0024293	0.00069171	828.77	2.786e-05	2.8016e-05	646.01	328.32	2.9193e-05	2.9476e-05	307.22	121.14	129.11	53.983	3.0149e-05	58.009	52.614	-108.538	-143.636	-147.554	65.660	157.905	-149.018	-142.080	-45.265	10.281	-144.773	-140.442	-137.634	-132.577	-53.754	-136.368	-8191	255	
7085.311	1	1	0	0	0.20289	0.11216	0.17463	0.25202	0.065873	0.16472	0.069048	0.41722	0.17393	0.18191	0.31954	0.090723	0.17767	0.17732	0.10802	0.23336	-1.6021	-2.4729	-1.8208	-2.2562	-2.2708	-1.7854	-2.4083	-2.1813	-1.7729	-2.5167	-1.7396	-2.1896	-2.5667	-1.8937	-2.3667	-2.2771	153.625	-75.972	-63.564	179.295	93.113	49.993	19.247	58.710	-97.656	77.680	199.626	-5.122	191.846	-86.367	5.904	163.447	0.0013224	0.0012644	0.00030503	800.85	1.7488e-05	1.2403e-05	609.56	321	1.4848e-05	5.4586e-07	285.06	114.43	120.51	52.383	1.0953e-05	54.631	0.0027277	0.0028303	0.0007966	835.66	3.1787e-05	3.2002e-05	649.17	331.68	3.2396e-05	3.3381e-05	311.22	122.38	132	54.725	3.5716e-05	59.013	79.474	-80.641	-74.424	-147.400	-136.154	38.531	-149.218	-141.947	-12.704	-31.560	-144.620	-140.814	-137.786	-132.409	64.828	-136.739	-8191	255	
7085.431	1	1	0	0	0.16923	0.19048	0.10857	0.21609	0.19976	0.18482	0.15874	0.17085	0.19446	0.091955	0.15859	0.4502	0.26718	0.12629	0.24325	0.041488	-1.1417	-2.5729	-1.8104	-2	-2.4729	-1.6833	-2.3125	-2.4125	-1.9458	-2.6188	-1.9833	-2.0479	-2.5396	-1.8646	-2.2542	-2.25	89.691	43.106	16.639	156.811	-74.351	4.481	186.291	77.068	-156.794	121.575	-32.510	137.755	-152.781	30.318	10.062	-138.214	0.0016148	0.0014848	0.0001309	797.75	6.0232e-06	2.3936e-05	604.09	322.13	1.1678e-05	1.7044e-05	283.22	114.41	120.72	52.407	7.1457e-06	54.815	0.0032343	0.0034234	0.00097016	850.9	3.8437e-05	3.9022e-05	662.26	338.58	3.8816e-05	3.8952e-05	318.19	124.14	133.6	55.125	3.6648e-05	59.187	45.089	-51.126	-46.456	-147.977	151.079	-14.395	-149.214	-142.063	-5.975	1.366	-145.268	-140.987	-137.555	-132.237	111.102	-136.576	-8191	255	
7085.503	1	1	0	0	0.12588	0.12383	0.23678	0.29196	0.21014	0.099673	0.40218	0.13027	0.032135	0.13946	0.15718	0.152	0.18577	0.35062	0.11655	0.18097	-1.4125	-2.4375	-2	-1.9417	-2.5312	-1.775	-2.3792	-2.2812	-1.7125	-2.4875	-2.0438	-2.025	-2.5708	-2.0958	-2.0479	-2.4771	-130.997	39.242	189.560	176.947	183.651	188.179	89.897	114.897	69.519	-80.580	170.738	-118.882	141.539	-151.671	-47.454	176.983	0.0016628	0.0010272	0.00014624	794.55	2.0079e-05	3.3287e-06	606.09	320.99	2.7895e-05	1.0252e-05	283.83	115.05	121.71	52.529	1.5582e-05	55.328	0.0031817	0.0032916	0.00091429	841.04	3.5416e-05	3.6023e-05	653.89	334.62	3.6153e-05	3.7268e-05	316.78	124.1	133.76	55.373	3.7617e-05	59.571	74.965	170.839	68.259	-147.833	-93.251	-113.588	-149.565	-141.949	19.233	-6.240	-144.775	-140.793	-138.172	-132.256	59.531	-136.068	-8191	255	
7085.624	1	1	0	0	0.0784	0.19414	0.2362	0.14341	0.023078	0.12866	0.16822	0.14157	0.11484	0.15066	0.31525	0.18888	0.15638	0.13771	0.12225	0.34239	-1.3292	-2.425	-1.9188	-1.85	-2.5354	-2.0917	-2.3229	-2.5312	-1.8292	-2.3354	-2.1792	-1.9813	-2.4313	-2.1354	-2.0229	-2.5271	26.137	-37.436	30.592	29.455	-5.647	82.201	153.753	140.067	-75.985	-11.960	62.644	110.471	-72.296	158.319	92.329	178.876	0.0014686	0.0013953	0.00026712	793.87	1.3437e-05	7.4958e-06	597.9	322.17	9.0679e-06	6.3749e-06	287.29	115.78	120.97	52.804	2.5335e-06	55.207	0.0032928	0.0034326	0.00095762	845.52	3.6995e-05	3.7521e-05	654.82	336.32	3.6295e-05	3.6876e-05	317.25	124.26	133.56	55.54	3.6674e-05	59.515	73.878	-89.333	-94.980	-147.650	-45.437	77.076	-149.091	-142.099	67.147	60.607	-144.829	-140.818	-137.904	-132.264	17.656	-136.287	-8191	255	
7085.718	1	1	0	0	0.09568	0.15277	0.095893	0.22059	0.24766	0.29064	0.092761	0.20242	0.26632	0.14674	0.2165	0.32217	0.13342	0.2036	0.12246	0.36149	-1.3062	-2.3187	-2.2042	-1.7083	-2.5	-2.0042	-1.9917	-2.3729	-1.5792	-2.4417	-2.3167	-2.0125	-2.4021	-2.0917	-1.7771	-2.4917	139.801	-62.732	172.430	-40.081	106.247	9.593	153.630	179.369	-115.162	-50.839	-115.327	-129.354	171.305	84.508	33.729	-132.226	0.0015628	0.00067992	0.00012645	793.86	1.1427e-05	8.9483e-06	599.92	322.13	2.1089e-05	8.9322e-06	283.51	115.04	121.38	53.058	7.3544e-06	55.524	0.003197	0.0033404	0.00092917	842.26	3.6465e-05	3.7616e-05	654.52	337.71	3.8718e-05	3.9909e-05	321.38	125.69	137.05	56.721	4.3451e-05	61.147	74.061	193.077	81.419	-147.280	-73.798	6.438	-151.189	-144.125	-6.309	-30.691	-146.325	-142.090	-138.938	-133.637	-62.350	-137.233	-8191	255	
7085.814	1	1	0	0	0.21409	0.19004	0.098883	0.13496	0.18605	0.10804	0.21697	0.20052	0.10169	0.060103	0.32187	0.087791	0.20772	0.27814	0.18357	0.098632	-1.3625	-2.1333	-2.1479	-1.7583	-2.2979	-2.0417	-1.9604	-2.6333	-1.9917	-2.0979	-2.3896	-1.9458	-2.425	-2.1292	-1.85	-2.5667	188.189	19.233	57.480	113.084	-150.713	-156.775	-149.273	132.929	-107.970	150.197	84.614	166.929	149.326	136.507	183.637	166.881	0.0014222	0.00094096	0.00026914	796.5	7.4252e-06	8.1368e-06	598.19	323.53	8.2176e-06	5.2452e-06	280.72	114.04	120.93	53.426	1.7403e-06	55.519	0.003964	0.0041993	0.0012032	876.47	4.878e-05	5.0815e-05	689.1	349.57	5.3682e-05	5.6037e-05	340.22	131.84	146.32	59.533	6.0904e-05	64.767	54.023	198.377	32.827	-148.446	-64.526	-48.894	-150.495	-143.201	-76.357	-6.243	-145.647	-141.549	-138.771	-133.471	-40.686	-137.706	-8191	255	
7085.910	1	1	0	0	0.15384	0.043571	0.069338	0.080078	0.055625	0.21803	0.13573	0.22733	0.15978	0.34445	0.19242	0.22135	0.14807	0.097564	0.24418	0.3345	-1.4854	-2.0854	-2.3896	-1.8979	-2.4417	-2.1729	-1.8375	-2.6125	-1.8062	-1.9271	-2.475	-1.8208	-2.2438	-2.3333	-1.7229	-2.4896	-70.648	-43.179	-135.490	-136.038	6.042	18.590	-84.878	137.869	93.219	129.872	175.906	172.843	144.817	-108.931	-8.777	-117.058	0.0020633	0.0010185	0.00060477	796.33	1.8574e-05	9.7893e-06	600.35	319.53	2.7189e-05	2.1371e-05	276.85	114.08	121.95	53.853	6.0115e-06	55.588	0.0055174	0.0058776	0.0016391	921.75	6.5106e-05	6.6105e-05	722.29	358.33	6.5697e-05	6.6998e-05	351.15	134.82	150.95	60.707	6.5533e-05	65.75	62.296	-68.991	-73.577	-148.551	-99.672	75.875	-150.553	-142.873	33.646	86.289	-145.160	-142.013	-138.687	-133.188	73.741	-137.071	-8191	255	
7086.031	1	1	0	0	0.02471	0.11358	0.22714	0.3016	0.34288	0.098067	0.12504	0.15003	0.34797	0.16539	0.24666	0.068605	0.17096	0.14456	0.13258	0.20674	-1.3604	-2.0646	-2.4458	-1.8208	-2.3229	-2.4729	-1.8354	-2.5312	-2.0833	-1.7729	-2.5396	-1.7604	-2.1833	-2.5062	-1.7292	-2.4375	-73.731	64.311	160.247	71.611	-104.180	-18.533	102.582	148.210	120.615	11.450	37.613	190.807	115.481	126.484	-124.991	68.686	0.0022458	0.0010514	0.00055986	795.47	1.5062e-05	6.4518e-06	592.39	321.16	1.8822e-05	1.0301e-05	281.83	114.47	122.66	53.759	1.9874e-05	56.163	0.0057794	0.0060482	0.0016694	921.15	6.5806e-05	6.7166e-05	717.67	359.86	6.7361e-05	6.8534e-05	355.95	136.58	152.79	61.219	6.8485e-05	66.7	64.670	-97.533	-67.669	-148.212	15.057	-150.183	-149.975	-143.078	126.716	52.752	-145.608	-141.243	-138.699	-133.177	92.589	-136.928	-8191	255	
7086.127	1	1	0	0	0.027509	0.17626	0.16851	0.062019	0.22565	0.045945	0.14872	0.25483	0.103	0.11157	0.16262	0.1045	0.18311	0.15323	0.077434	0.14359	-1.7229	-1.8979	-2.45	-1.8646	-2.075	-2.3792	-2.0583	-2.5687	-2.0604	-1.8979	-2.5792	-1.8271	-2.1125	-2.4813	-1.8042	-2.4229	49.693	144.763	-13.846	-127.624	14.386	-90.546	66.765	56.629	-28.272	49.496	-139.705	157.439	148.716	-20.186	78.176	86.864	0.0014843	0.0014356	0.00014536	796.5	1.2793e-05	1.8406e-05	598.24	319.97	1.8739e-05	3.9269e-06	277.59	114.45	121.7	53.937	1.1779e-05	55.695	0.0060933	0.0063706	0.0017841	933.21	7.0393e-05	7.1511e-05	729.43	364	7.1656e-05	7.2762e-05	359.92	138.61	155.76	61.986	7.4967e-05	67.695	75.880	-133.562	-15.992	-148.098	27.118	59.796	-150.077	-142.677	-13.869	74.448	-145.720	-141.216	-138.451	-132.990	23.529	-137.041	-8191	255	
7086.223	1	1	0	0	0.30471	0.29617	0.16707	0.21837	0.15404	0.21736	0.35923	0.22057	0.16775	0.076528	0.11765	0.1229	0.2514	0.092893	0.01007	0.283	-1.7313	-1.75	-2.2687	-1.8833	-1.9062	-2.5583	-1.9021	-2.4854	-2.2625	-1.8521	-2.6333	-2.0958	-1.925	-2.4583	-1.6708	-2.3104	7.388	-130.671	25.776	165.283	-94.800	-125.640	83.049	165.010	-83.529	-90.762	-148.251	136.030	-159.089	-135.109	17.852	149.214	0.0020617	0.0018603	0.00033817	789.17	1.205e-05	1.3292e-05	590.86	319.31	1.102e-05	1.3013e-05	278.65	113.14	121.12	53.952	8.8996e-06	55.873	0.0067148	0.007039	0.0019598	948.99	7.6745e-05	7.6863e-05	736.93	367.44	7.5818e-05	7.6339e-05	363.84	139.1	156.73	62.473	7.658e-05	68.106	56.536	-25.099	155.336	-148.012	-2.744	92.859	-150.161	-142.967	-51.483	-88.501	-145.398	-140.769	-138.183	-133.496	25.518	-137.191	-8191	255	
7086.320	1	1	0	0	0.15235	0.30246	0.45482	0.35754	0.19369	0.073182	0.13926	0.20391	0.15696	0.045269	0.14833	0.13064	0.092933	0.13002	0.30412	0.2294	-1.975	-1.8542	-2.3833	-2.1917	-2.0604	-2.6875	-1.85	-2.1562	-2.2708	-1.6479	-2.3708	-2.1104	-1.7708	-2.6167	-1.8146	-2.5042	-67.872	38.998	68.725	55.214	-156.740	135.090	168.444	92.563	16.892	75.634	47.937	159.940	139.791	196.221	75.565	58.733	0.0017582	0.00092529	0.00033275	790.36	5.0456e-06	1.2669e-05	587.26	316.67	1.5426e-05	1.9454e-05	276.8	113.21	121.39	54.14	7.7181e-06	56	0.0067969	0.0071143	0.001981	947.84	7.6939e-05	7.7214e-05	733.23	365.78	7.5901e-05	7.6315e-05	361.95	138.38	155.53	62.228	7.431e-05	67.704	108.564	-91.975	-42.450	-148.267	-141.648	6.798	-149.923	-143.053	-46.012	-9.271	-145.687	-141.225	-138.477	-133.399	-108.909	-137.159	-8191	255	
7086.416	1	1	0	0	0.15899	0.091271	0.28923	0.24109	0.29607	0.1334	0.31361	0.079642	0.124	0.16849	0.16256	0.19565	0.16547	0.20994	0.13306	0.27113	-2.0958	-1.6917	-2.2375	-2.175	-1.8	-2.6312	-1.8375	-2.2313	-2.5396	-1.8396	-2.3896	-2.2208	-1.8125	-2.4062	-1.9937	-2.075	-87.917	-98.538	-111.813	165.511	-44.435	171.314	158.522	172.693	44.377	-47.022	127.561	-34.774	146.579	-71.582	190.956	159.339	0.0013444	0.00026863	0.00047217	781.78	2.5643e-06	1.2081e-05	586.09	318.81	2.0142e-05	2.9324e-05	280.4	114.12	120.96	53.926	3.105e-05	56.173	0.0064253	0.0066953	0.0018734	929.8	7.1633e-05	7.1658e-05	718.12	362.32	6.9195e-05	6.9685e-05	355.56	136.43	151.76	61.019	6.7055e-05	66.194	55.616	-1.319	-27.576	-148.065	-79.200	-41.947	-149.889	-142.694	-26.227	-125.135	-145.044	-141.288	-138.289	-133.155	-58.011	-137.240	-8191	255	
7086.512	1	1	0	0	0.19243	0.2286	0.11118	0.25995	0.13561	0.10973	0.01819	0.41168	0.24602	0.025876	0.18176	0.33144	0.45439	0.17321	0.07259	0.07572	-1.9937	-1.8604	-2.0875	-2.3521	-1.8083	-2.3146	-2.0542	-2.0646	-2.4708	-1.8979	-2.2146	-2.1896	-1.7229	-2.6521	-2.0604	-1.9208	-149.947	148.819	-18.004	89.311	116.385	95.525	-131.605	129.955	-136.041	141.652	-134.876	126.714	152.025	-31.743	113.401	16.508	0.0013159	0.0014106	0.00045018	784.75	9.5741e-06	1.2935e-05	579.24	323.96	7.9334e-06	1.3229e-05	282.9	115.67	122.92	53.437	7.2324e-06	55.696	0.0057127	0.0058964	0.0016376	906.02	6.2438e-05	6.2772e-05	696.37	358.48	6.0905e-05	6.1483e-05	348.03	134.52	148.02	59.716	5.8673e-05	64.473	83.213	-82.241	29.517	-147.907	-55.596	-98.688	-149.827	-142.548	-62.444	-23.114	-146.009	-141.331	-138.400	-133.049	12.223	-137.214	-8191	255	
7086.606	1	1	0	0	0.28741	0.22297	0.28037	0.34349	0.13341	0.046632	0.031181	0.13691	0.27676	0.11158	0.1188	0.18781	0.38504	0.10081	0.2297	0.19148	-2.0438	-1.7625	-2.1604	-2.3333	-1.7563	-2.2854	-2.1312	-2.0917	-2.4313	-1.8354	-2.2562	-2.3146	-1.8042	-2.3042	-1.9625	-2.0521	91.605	39.607	-78.109	161.523	-145.914	93.104	160.793	16.455	-121.948	-137.158	29.362	-154.543	139.742	84.664	-69.300	33.590	0.0014569	0.00047931	0.00042465	779.65	1.5395e-05	1.346e-05	587.07	324.41	1.2658e-05	1.6864e-05	283.14	116.1	122.39	53.924	9.4648e-06	55.78	0.005044	0.0052527	0.001463	887.89	5.5804e-05	5.685e-05	687.88	355.21	5.6143e-05	5.7623e-05	345.03	133.87	146.79	59.559	5.8846e-05	64.461	60.685	176.423	25.027	-148.080	-131.467	2.691	-149.528	-142.752	-10.388	-117.155	-145.457	-140.793	-138.686	-133.082	-101.009	-136.939	-8191	255	
7086.727	1	1	0	0	0.16468	0.17388	0.22071	0.18424	0.10298	0.17598	0.26325	0.18371	0.063213	0.1657	0.19597	0.18386	0.25338	0.037769	0.091862	0.18045	-2.1104	-1.8792	-1.8542	-2.5729	-1.6792	-2.2083	-2.3375	-1.9646	-2.5563	-1.975	-1.9937	-2.4021	-1.85	-2.2333	-2.2104	-1.9146	125.838	186.646	163.631	73.282	103.584	95.884	95.927	86.364	120.861	-83.126	-160.034	173.265	-115.621	-143.709	160.531	136.863	0.0017232	0.0021192	0.00011077	784.6	2.1288e-05	4.9588e-06	581.8	324.84	2.1911e-05	2.7477e-05	284.38	116.43	122.88	54.076	1.4872e-05	55.29	0.0051315	0.0054191	0.0015135	896.49	5.9813e-05	6.1034e-05	694.92	359.72	6.1447e-05	6.3507e-05	351.41	136.33	150.47	60.557	6.3965e-05	65.429	70.723	-144.278	-152.166	-148.077	11.035	58.958	-150.215	-143.211	-91.425	28.779	-145.780	-141.336	-138.422	-133.059	4.998	-136.985	-8191	255	
7086.799	1	1	0	0	0.21782	0.10965	0.12124	0.31719	0.17967	0.21921	0.29516	0.15313	0.082777	0.14924	0.22378	0.096143	0.044635	0.19468	0.17808	0.27643	-2.1937	-2.0062	-1.9042	-2.5479	-1.8937	-2.2521	-2.4792	-1.8687	-2.3354	-2.0729	-1.85	-2.6271	-1.95	-2.1312	-2.4146	-1.7687	-140.426	168.263	-85.161	111.083	106.786	171.507	84.399	94.607	164.261	59.138	91.124	-71.894	-105.991	190.065	150.592	177.977	0.0019606	0.0011149	0.00044897	784.62	5.6701e-06	2.7131e-05	585.19	323.8	2.298e-05	1.5667e-05	286.1	116.7	122.19	53.634	1.7468e-05	55.649	0.0055878	0.0058041	0.0016121	903.13	6.1365e-05	6.2303e-05	695.34	357.56	5.9332e-05	6.0043e-05	347.19	134.42	147.14	59.411	5.7052e-05	64.011	45.016	-114.470	-57.607	-148.300	96.260	36.532	-149.713	-142.814	184.617	10.400	-145.446	-141.201	-138.697	-133.168	-40.371	-136.744	-8191	255	
7086.895	1	1	0	0	0.23008	0.12774	0.12553	0.24924	0.40007	0.13752	0.1712	0.12917	0.11846	0.027209	0.24309	0.12274	0.16278	0.1028	0.15692	0.12819	-1.975	-2.0333	-1.9146	-2.6333	-1.8292	-2.2542	-2.3917	-1.7708	-2.3708	-2.1875	-1.8312	-2.6063	-2.0229	-2.275	-2.3958	-1.9	-120.425	118.413	130.268	133.928	-159.207	156.528	-71.669	24.921	198.591	42.997	126.577	129.421	8.221	-159.721	164.637	-146.972	0.0018375	0.0013936	0.00032105	780.96	9.4531e-06	2.0296e-05	584.53	325.8	1.8793e-05	8.9967e-06	287.24	117.09	123.53	53.829	1.3894e-05	56.299	0.0049606	0.0051942	0.0014408	883.53	5.5462e-05	5.6478e-05	683.89	355.01	5.5501e-05	5.6329e-05	342.05	133.96	146.39	59.249	5.586e-05	64.232	68.420	-9.197	-16.652	-147.963	-115.419	7.388	-149.671	-142.779	-140.219	77.630	-145.546	-141.323	-138.352	-133.344	-1.134	-137.058	-8191	255	
7086.991	1	1	0	0	0.09564	0.10232	0.20315	0.27279	0.23011	0.34759	0.12878	0.36244	0.21486	0.13184	0.26746	0.51151	0.048757	0.16602	0.045813	0.17219	-1.8854	-2.2625	-1.8792	-2.6042	-2.0104	-1.925	-2.3812	-1.8667	-2.25	-2.3792	-1.8146	-2.4437	-2.0479	-1.9292	-2.3542	-1.9833	66.190	164.105	-0.422	24.146	117.504	-140.499	-139.480	140.087	-75.306	111.767	69.777	-152.322	100.248	199.365	74.965	-156.104	0.0014559	0.0015083	0.00024888	782.2	1.1102e-05	1.6633e-05	589.29	325.06	1.8292e-05	1.9919e-05	282.4	116.68	122.67	54.052	1.4497e-05	55.542	0.0049693	0.0052573	0.0014652	893.2	5.8703e-05	5.9771e-05	692.97	358.07	5.9326e-05	6.0005e-05	346.88	135.34	148.19	59.688	5.876e-05	64.437	80.282	124.761	152.234	-148.383	103.140	118.043	-149.250	-142.641	31.585	110.870	-145.557	-141.389	-138.545	-133.433	72.593	-137.135	-8191	255	
7087.111	1	1	0	0	0.085656	0.19937	0.034314	0.22958	0.25091	0.12106	0.065982	0.16367	0.16905	0.16901	0.1595	0.21473	0.25587	0.21628	0.0048912	0.32225	-1.7271	-2.4625	-1.7917	-2.3979	-2.1083	-1.9188	-2.4708	-1.9583	-2.1979	-2.2833	-1.9792	-2.5292	-2.2396	-1.8146	-2.4896	-2.0083	27.586	-137.484	192.260	118.350	68.113	75.240	107.740	141.659	-155.661	-55.916	135.546	136.931	12.496	-85.843	-101.039	94.647	0.0017848	0.00065946	0.00018736	785.06	1.8299e-05	6.6518e-06	584.64	325.63	1.8703e-05	2.7532e-06	283.67	116.99	122.61	53.628	7.0845e-06	55.414	0.0051675	0.0053803	0.0014807	892.57	5.7733e-05	5.8387e-05	687.13	356.35	5.7249e-05	5.7753e-05	344.42	134.26	147.19	59.194	5.6592e-05	64.001	69.285	-65.991	40.710	-147.857	-44.480	-1.695	-149.659	-142.631	-71.444	-80.574	-145.808	-141.383	-138.440	-133.220	34.878	-137.153	-8191	255	
7087.208	1	1	0	0	0.20713	0.081939	0.11441	0.14036	0.15985	0.31444	0.28614	0.22333	0.044661	0.10524	0.15461	0.31909	0.33297	0.20165	0.18875	0.052021	-1.6729	-2.2375	-1.7417	-2.5062	-2.175	-1.9438	-2.5854	-2.0083	-2.0208	-2.4479	-1.8312	-2.25	-2.1937	-1.6	-2.3167	-2.0812	118.717	149.619	115.066	-160.818	119.445	185.537	117.497	70.407	-139.406	185.503	-28.251	144.629	165.619	159.446	141.872	186.856	0.0015097	0.0013432	0.00069243	783.2	5.2054e-06	1.0882e-05	586.35	324.14	8.1922e-07	1.299e-05	282.5	117.97	122.74	53.819	1.6336e-05	55.66	0.0049883	0.0051678	0.0014264	886.47	5.5135e-05	5.5319e-05	679.99	354.29	5.531e-05	5.5788e-05	342.11	134.53	146.77	59.425	5.7025e-05	64.346	74.868	-27.242	8.360	-148.177	122.474	45.632	-149.768	-142.952	-119.057	-94.588	-145.188	-141.280	-138.376	-133.203	-11.366	-137.287	-8191	255	
7087.304	1	1	0	0	0.13483	0.24827	0.10301	0.16901	0.13274	0.3901	0.14635	0.13643	0.11307	0.26709	0.13097	0.057436	0.11795	0.39423	0.085646	0.24547	-1.4771	-2.4562	-1.8229	-2.1979	-2.1312	-1.7062	-2.4875	-1.9729	-1.9562	-2.4854	-2.0021	-2.2313	-2.275	-1.8458	-2.2562	-2.2479	104.902	133.584	143.327	102.572	74.544	26.846	153.104	126.350	68.772	-65.844	-47.548	98.154	74.883	-148.128	-93.989	67.634	0.0020079	0.0014232	0.00033364	780.74	1.9801e-05	9.6396e-06	584.52	324.29	7.4853e-06	6.247e-06	285.43	116.84	123.31	53.454	2.631e-05	55.844	0.005089	0.0052813	0.0014722	890.31	5.7667e-05	5.8071e-05	688.6	357.07	5.7822e-05	5.8665e-05	346.61	135.3	148.4	59.615	5.9109e-05	64.866	88.781	-82.387	-147.782	-148.071	-67.531	132.625	-149.743	-142.949	183.699	-152.318	-145.612	-141.324	-138.208	-133.101	-45.096	-136.663	-8191	255	
7087.400	1	1	0	0	0.24261	0.14125	0.24341	0.07389	0.28629	0.099722	0.1468	0.14239	0.18353	0.21917	0.23468	0.25432	0.018768	0.26766	0.053899	0.24174	-1.6562	-2.5167	-1.9979	-2.0938	-2.0792	-1.7125	-2.4437	-2.3229	-1.7292	-2.5979	-2.0542	-2.0521	-2.5792	-2.0125	-2.3104	-2.1083	92.457	124.371	184.513	186.051	146.256	-113.194	75.326	162.591	58.099	107.720	134.755	68.719	-156.922	-9.838	143.545	70.080	0.00090413	0.00067134	0.0003157	785.69	1.0635e-05	8.2994e-06	584.11	323.64	2.4346e-05	2.2529e-05	286.78	117.13	123.35	53.852	2.2657e-05	56.047	0.0052165	0.0054079	0.0015174	896.55	5.883e-05	5.9046e-05	692.49	357.67	5.8873e-05	5.9584e-05	349.38	135.92	148.26	59.622	6.0858e-05	65.145	68.857	-148.235	164.350	-148.151	-137.902	29.005	-149.850	-142.646	-17.937	138.803	-145.274	-141.075	-138.500	-133.091	185.764	-136.958	-8191	255	
7087.496	1	1	0	0	0.073895	0.311	0.028227	0.090478	0.15698	0.11585	0.24412	0.1524	0.17512	0.25335	0.14079	0.14253	0.22568	0.090964	0.12692	0.012538	-1.35	-2.5458	-1.8042	-2.1604	-2.4854	-1.9479	-2.25	-2.3333	-1.7271	-2.525	-2.2667	-2.0458	-2.6854	-2.0458	-2.2812	-2.4896	190.074	38.210	30.444	-149.659	19.503	-143.936	139.590	189.234	21.215	136.116	-144.289	134.936	134.559	161.822	-56.015	133.475	0.001511	0.001461	0.00018285	784.14	2.7672e-05	3.037e-06	584.24	324.67	2.2331e-05	1.1792e-05	284.72	117.06	123.43	53.369	2.0882e-05	55.273	0.0053785	0.0056581	0.0015923	903.81	6.2028e-05	6.3019e-05	700.04	360.9	6.2161e-05	6.3474e-05	352.13	136.61	149.68	59.83	6.0961e-05	64.588	58.866	-100.563	61.696	-147.922	-80.236	135.906	-149.789	-142.449	-64.797	105.248	-145.486	-141.548	-138.631	-133.135	-124.271	-136.985	-8191	255	
7087.592	1	1	0	0	0.23898	0.084721	0.065443	0.063423	0.20798	0.12564	0.1516	0.52649	0.26757	0.30013	0.06545	0.1148	0.17959	0.30241	0.074187	0.21452	-1.4146	-2.4229	-2.0646	-1.7687	-2.5542	-1.8833	-2.3688	-2.5083	-1.8	-2.4417	-2.3146	-1.8521	-2.5812	-1.8937	-1.9792	-2.5521	-12.695	-108.931	51.137	79.392	108.734	81.786	171.213	187.685	-72.012	-2.837	155.477	-121.930	-131.996	-158.126	62.343	145.057	0.0019648	0.0014923	0.00059209	780.79	2.4275e-05	1.0539e-05	589.99	326.09	3.6164e-06	2.3795e-05	287.69	117.14	122.98	52.956	1.7291e-05	54.939	0.0052699	0.0054644	0.0015266	896.06	5.8745e-05	5.928e-05	694.36	357.54	5.8333e-05	5.8914e-05	346.96	134.77	146.86	58.736	5.7863e-05	63.59	68.390	199.295	-113.307	-148.283	-122.946	-135.853	-149.775	-142.455	130.644	140.073	-145.407	-141.540	-138.882	-133.558	-10.811	-137.003	-8191	255	
7087.713	1	1	0	0	0.23183	0.33024	0.14683	0.16335	0.2318	0.2051	0.19414	0.084416	0.16305	0.071527	0.048741	0.39808	0.19549	0.18857	0.26286	0.043636	-1.3167	-2.3708	-2.3688	-1.95	-2.4708	-2.0625	-1.9021	-2.5208	-1.7104	-2.4458	-2.5	-2.0938	-2.7042	-2.1813	-2.0708	-2.6083	176.689	124.761	-143.400	149.334	33.793	152.513	-73.878	116.248	-122.978	78.758	134.345	170.519	155.585	166.241	14.245	1.282	0.0012995	0.00099944	0.00039697	790.78	1.204e-05	9.7486e-06	593.11	323.7	2.486e-05	2.9261e-07	285.58	116.8	121.85	53.09	7.2682e-06	55.933	0.0049931	0.0052223	0.0014558	891.81	5.5352e-05	5.5826e-05	688.63	353.09	5.3851e-05	5.4838e-05	340.29	132.28	143.97	57.985	5.1829e-05	62.605	38.685	-96.174	0.529	-148.174	-35.657	127.429	-149.997	-142.722	-39.541	-79.508	-145.492	-141.538	-138.562	-133.096	148.699	-137.125	-8191	255	
7087.807	1	1	0	0	0.18887	0.14608	0.062514	0.18943	0.18631	0.15561	0.056967	0.23676	0.071357	0.26739	0.16705	0.17959	0.024882	0.1053	0.23936	0.28502	-1.4688	-2.1271	-2.2417	-1.775	-2.4792	-2.1583	-1.8646	-2.625	-1.9208	-2.2375	-2.3979	-1.8312	-2.5229	-2.3187	-2.05	-2.5458	61.130	-32.307	-152.889	36.450	-48.659	171.371	46.272	194.284	141.535	140.955	107.748	75.445	119.109	197.761	-115.276	-149.875	0.0019269	0.00067736	0.00033365	786.19	1.0267e-05	4.9158e-06	589.74	322.88	1.2854e-05	1.0949e-05	285.58	117.61	120.57	52.712	1.6941e-06	55.417	0.004495	0.0046944	0.0013078	873.67	5.0612e-05	5.1211e-05	676.81	348.8	5.036e-05	5.1209e-05	335.52	131.31	141.64	57.444	4.9507e-05	62.001	69.290	-45.692	-35.895	-148.210	-23.734	-147.389	-150.025	-142.599	-61.632	198.359	-145.877	-141.299	-138.647	-133.083	-90.264	-137.151	-8191	255	
7087.903	1	1	0	0	0.23966	0.22158	0.37353	0.15689	0.073676	0.076254	0.081492	0.14605	0.2358	0.087286	0.32848	0.35414	0.17963	0.15522	0.12062	0.096464	-1.4333	-1.9917	-2.5042	-2.0187	-2.4437	-2.2667	-1.7188	-2.5083	-1.8542	-2.0667	-2.6021	-1.9417	-2.2896	-2.2854	-1.6729	-2.4604	-17.318	61.969	47.947	152.377	64.597	-116.151	-30.884	-92.948	-12.650	24.998	121.602	165.558	156.483	167.624	-35.653	180.078	0.0018334	5.686e-05	0.00029731	789.38	1.3882e-05	6.1953e-06	588.87	323.35	2.1816e-05	8.5766e-06	280.69	116.39	122.5	52.768	1.0122e-05	55	0.0042976	0.0045183	0.0012489	869.64	4.8949e-05	5.0023e-05	672.78	348.77	4.9877e-05	5.0491e-05	333	130.29	141.93	57.442	4.9016e-05	61.781	60.441	163.263	-21.448	-148.297	113.923	-6.433	-150.404	-142.773	192.229	-41.543	-145.782	-141.140	-138.263	-133.099	-102.847	-136.751	-8191	255	
7088.024	1	1	0	0	0.13017	0.13912	0.33652	0.1989	0.26745	0.15724	0.28895	0.11592	0.24403	0.33394	0.15185	0.05094	0.31869	0.15962	0.20425	0.17972	-1.3042	-2.0375	-2.2167	-1.7146	-2.4125	-2.2396	-1.5854	-2.5167	-2.2292	-1.9667	-2.6375	-2.0021	-2.2875	-2.3042	-1.5875	-2.5563	74.686	-14.756	-137.794	115.454	184.432	-17.659	90.341	15.261	-101.531	26.613	117.346	155.786	-74.436	-92.069	-157.348	53.030	0.0022579	0.00050687	0.00020469	782.8	2.9486e-06	1.0162e-05	587.74	322.33	1.7562e-05	1.8807e-05	281.96	115.78	121.46	52.771	7.7558e-08	54.853	0.0043259	0.0044943	0.0012321	863.69	4.7555e-05	4.8162e-05	664.18	345.42	4.7468e-05	4.78e-05	328.59	128.72	139.16	56.781	4.5968e-05	61.047	77.738	-11.246	-39.687	-148.200	157.740	161.177	-150.065	-143.089	-44.232	-101.281	-145.775	-141.323	-138.305	-133.043	-28.020	-136.833	-8191	255	
7088.096	1	1	0	0	0.26626	0.2745	0.31627	0.21586	0.12181	0.27537	0.1545	0.15406	0.17067	0.22305	0.11671	0.32568	0.20236	0.054854	0.067909	0.0133	-1.6917	-1.8542	-2.4729	-2.05	-2.0979	-2.4125	-1.7812	-2.5	-2.2729	-1.7354	-2.5354	-1.8979	-2.2979	-2.4104	-1.6833	-2.4104	-133.954	-87.536	-81.055	-148.946	46.333	-29.235	190.089	97.560	165.550	71.706	161.590	-72.560	152.570	-140.145	18.977	125.079	0.0011895	0.0017812	0.0005025	780.48	1.855e-05	1.9941e-05	593.26	321.22	3.4733e-05	1.5498e-05	281.64	115.39	120.49	52.157	2.1913e-05	54.471	0.0040753	0.0042076	0.0011696	858.29	4.5389e-05	4.4917e-05	659.79	340.25	4.227e-05	4.1458e-05	319.51	125.58	134.61	55.235	3.7891e-05	59.068	61.764	-87.207	-102.065	-147.963	-153.715	6.014	-149.537	-143.041	29.378	147.044	-145.243	-141.136	-138.532	-132.862	-12.418	-137.354	-8191	255	
7088.192	1	1	0	0	0.10904	0.098114	0.15812	0.15875	0.27081	0.16064	0.1181	0.24811	0.20422	0.23649	0.20764	0.21545	0.13425	0.15805	0.067526	0.26267	-1.8271	-1.8312	-2.3958	-2.0646	-2.1208	-2.4917	-1.8458	-2.5146	-2.2479	-1.8188	-2.4167	-1.7979	-2.0146	-2.4583	-1.7708	-2.2583	-1.239	-143.318	114.087	125.669	-103.611	76.740	125.389	-159.621	-98.209	110.588	188.282	141.094	190.306	184.155	65.493	-142.245	0.0020221	0.0011232	0.00010488	780.6	1.3515e-05	2.8868e-06	597.75	322.1	1.4106e-05	1.2675e-05	284.55	117.04	120.88	52.048	1.2553e-05	54.864	0.00327	0.0033665	0.00092419	832.72	3.5415e-05	3.5327e-05	642.8	334.17	3.4092e-05	3.3898e-05	313.07	123.92	131.6	54.493	3.2736e-05	58.488	63.248	-26.434	-6.252	-148.375	-66.070	196.989	-149.682	-142.793	-71.711	22.268	-145.567	-141.400	-138.447	-133.185	-100.216	-137.386	-8191	255	
7088.288	1	1	0	0	0.07101	0.39716	0.24524	0.14137	0.17483	0.17134	0.17247	0.092101	0.019209	0.17755	0.23479	0.16562	0.30541	0.24035	0.10759	0.13276	-1.7583	-1.8188	-2.2417	-1.9937	-1.7229	-2.6063	-1.8792	-1.9854	-2.35	-1.5333	-2.4917	-2.2417	-2.0229	-2.4854	-1.8813	-2.0917	-67.615	-48.766	131.547	-39.025	-131.996	18.266	92.423	170.114	58.589	17.238	105.923	99.057	51.315	197.770	-101.192	71.258	0.0014396	0.001768	0.0002528	787.63	6.4052e-06	1.2153e-05	595.43	323.11	2.0907e-05	1.0926e-05	284.13	115.48	120.96	52.355	1.4675e-05	54.675	0.0028926	0.0029865	0.00083314	827.44	3.2316e-05	3.2203e-05	639.19	331.65	3.1375e-05	3.1532e-05	309.45	122.01	129.62	54.027	3.0019e-05	57.697	69.137	-79.551	-91.482	-148.357	161.235	-99.566	-150.085	-142.805	4.176	6.287	-146.002	-141.222	-138.562	-133.570	-65.704	-137.495	-8191	255	
7088.409	1	1	0	0	0.2077	0.079175	0.10712	0.31624	0.14276	0.016122	0.30723	0.42297	0.17192	0.15275	0.15949	0.19696	0.14339	0.14172	0.33674	0.05668	-1.9562	-1.5146	-2.3563	-2.2042	-1.6542	-2.4479	-2.0938	-2.1146	-2.4042	-1.8	-2.3396	-2.2854	-1.9	-2.3375	-2.0563	-1.9792	-46.829	-61.095	42.494	172.242	17.763	93.592	124.418	63.285	12.073	-51.474	-144.451	138.811	-21.007	182.244	-90.938	111.644	0.0020054	0.00030142	0.00011291	792.05	4.0759e-06	8.9426e-06	594.7	323.02	2.1411e-05	6.8542e-06	285.34	115.19	120.91	52.408	1.3055e-06	54.544	0.0026305	0.0027002	0.00075254	821.52	2.8769e-05	2.9056e-05	633.02	329.71	2.9164e-05	2.9617e-05	307.42	121.92	129.64	54.173	3.1765e-05	58.08	62.895	-83.063	179.739	-148.163	17.184	150.260	-149.999	-142.900	-62.374	-89.828	-145.902	-141.220	-138.679	-133.213	48.466	-137.359	-8191	255	
7088.505	1	1	0	0	0.044929	0.104	0.06051	0.26148	0.1875	0.15847	0.22731	0.18159	0.15402	0.11938	0.45063	0.10779	0.24202	0.078866	0.12802	0.17091	-2.1021	-1.6146	-2.0479	-2.3208	-1.7375	-2.3479	-2.1063	-1.9521	-2.4625	-1.7479	-2.2354	-2.2667	-1.7083	-2.3771	-2.0042	-2.0146	48.679	141.186	171.033	127.714	9.707	117.781	-150.312	170.927	75.387	-150.036	-159.500	-44.074	127.967	114.437	4.181	-117.558	0.0013185	0.00085463	0.00045857	791.52	8.7578e-06	9.8101e-06	603.2	323.57	1.5169e-05	1.5309e-06	285.26	116.11	120.03	52.351	1.6488e-05	54.56	0.002883	0.0030249	0.000855	830.92	3.3209e-05	3.3886e-05	644.28	333.27	3.256e-05	3.2451e-05	310.19	122.41	130.15	54.285	3.2079e-05	57.924	77.203	176.432	-40.259	-148.242	158.815	62.200	-150.133	-142.786	-123.111	-48.768	-145.879	-141.361	-138.872	-133.314	68.030	-137.020	-8191	255	
7088.601	1	1	0	0	0.11861	0.16903	0.062759	0.20876	0.30061	0.12011	0.10605	0.31219	0.16534	0.12584	0.17448	0.31959	0.2104	0.30828	0.080912	0.2916	-2.1542	-1.7188	-2.3292	-2.4583	-1.6562	-2.4021	-2.0687	-2.15	-2.4083	-1.8896	-2.0354	-2.5271	-1.7958	-2.2438	-2.0542	-1.9667	182.068	-65.996	101.010	145.759	197.712	-2.350	-89.359	110.865	-71.383	-149.009	38.876	154.893	187.868	117.571	-33.054	-157.252	0.0014344	0.0011113	0.00012804	791.76	7.8805e-06	6.3278e-06	602.47	323.44	1.8069e-05	1.3727e-05	286.8	115.27	120.33	52.175	2.9615e-06	54.717	0.0028053	0.0029173	0.00082765	827.69	3.1665e-05	3.2235e-05	644	331.66	3.0352e-05	3.0325e-05	308.46	121.39	128.77	53.616	2.8767e-05	57.261	85.001	-102.737	48.858	-148.342	195.403	171.084	-149.989	-143.151	-109.460	65.869	-146.019	-141.549	-138.386	-133.294	-109.915	-137.771	-8191	255	
7088.673	1	1	0	0	0.083232	0.14884	0.068291	0.34933	0.11941	0.061037	0.15312	0.11394	0.18749	0.071562	0.21668	0.19427	0.3185	0.13815	0.28831	0.097552	-1.8021	-1.8438	-1.9479	-2.2188	-1.6583	-2.375	-2.0833	-2.0708	-2.3646	-1.8062	-2.075	-2.5979	-1.9292	-2.2792	-2.2875	-1.7896	5.920	153.760	45.895	122.529	-49.974	-144.261	150.105	131.595	39.991	-136.024	-123.128	140.676	122.967	186.670	-89.849	94.373	0.001836	0.00073876	2.9165e-05	793.63	3.6918e-05	1.3131e-05	611.33	324.13	1.0304e-05	9.7393e-06	287.09	115.84	119.42	51.877	4.4469e-06	54.401	0.0024684	0.002524	0.00069737	820.85	2.6169e-05	2.6466e-05	638.28	328.16	2.5877e-05	2.6101e-05	305.09	120.19	126.37	52.984	2.4486e-05	56.44	74.019	25.641	-20.436	-148.108	-27.030	70.551	-149.801	-142.967	-70.597	27.429	-145.579	-141.359	-138.781	-133.422	-122.092	-137.379	-8191	255	
7088.791	1	1	0	0	0.14642	0.13521	0.14564	0.26255	0.084981	0.10093	0.29541	0.1334	0.22669	0.17673	0.035658	0.20452	0.14493	0.21213	0.082906	0.11364	-2.0979	-1.8875	-1.9146	-2.5271	-1.8062	-2.2812	-2.4062	-2.0625	-2.4271	-2.0083	-2.0042	-2.5812	-1.8875	-2.1042	-2.4917	-1.75	-100.762	141.732	-43.537	-110.265	98.797	127.486	167.241	148.510	-128.366	-133.451	53.469	133.031	194.396	-147.263	97.853	168.718	0.0011385	0.00056075	0.0001154	802.7	6.0761e-06	7.5483e-06	619.26	325.9	8.5381e-06	5.4724e-06	288.38	116.41	120.83	52.326	7.1267e-06	55.008	0.0020975	0.0021702	0.00059513	817.52	2.2415e-05	2.2472e-05	635.12	326.36	2.1794e-05	2.1965e-05	300.38	118.73	124.37	52.637	1.9979e-05	55.842	70.431	-45.881	-121.647	-148.052	-2.979	-134.111	-150.216	-142.755	-42.959	62.391	-145.963	-141.103	-138.695	-133.220	7.442	-137.101	-8191	255	
7088.888	1	1	0	0	0.053739	0.1199	0.068308	0.17575	0.26529	0.1896	0.16179	0.13431	0.11471	0.12276	0.45877	0.13728	0.38662	0.20386	0.083423	0.16301	-1.8479	-2.1521	-1.8354	-2.6479	-1.7771	-2.0604	-2.625	-1.85	-2.3458	-2.2271	-2.0958	-2.6688	-1.9917	-2.2042	-2.4292	-1.8125	85.494	119.867	30.337	103.243	15.292	-68.758	155.539	189.394	136.656	178.907	-103.327	-114.870	-122.813	-160.490	138.291	-131.299	0.0019246	0.0011431	0.00014888	803.68	1.6269e-05	6.2481e-06	623.3	327.01	7.8336e-06	9.3642e-06	293.28	117.54	121.4	52.765	4.6498e-06	55.47	0.0016873	0.0016973	0.0004612	806.58	1.7006e-05	1.6786e-05	628.3	322.78	1.5368e-05	1.542e-05	295.24	117.1	121.99	52.326	1.4403e-05	55.494	59.836	-58.322	-0.172	-148.298	-66.058	-36.731	-150.556	-142.923	8.601	-63.500	-145.781	-141.603	-138.938	-133.005	32.622	-137.164	-8191	255	
7088.984	1	1	0	0	0.082917	0.28503	0.20599	0.16302	0.22325	0.2062	0.15295	0.076576	0.073327	0.19222	0.09132	0.097534	0.14118	0.18757	0.046967	0.40716	-1.7979	-2.3958	-1.7375	-2.5396	-1.8792	-2.0542	-2.4458	-1.9146	-2.3583	-2.4021	-1.9312	-2.6063	-2.075	-1.9667	-2.6396	-1.8729	-111.157	152.450	-43.484	-39.609	-126.923	-129.801	159.924	-112.142	-111.887	146.826	8.679	110.228	-146.260	173.938	-92.959	88.553	0.0019125	0.00040033	0.0002081	813.26	8.1562e-06	7.2694e-06	630.94	329.98	6.5955e-06	1.0796e-05	294.76	118.19	121.93	52.574	7.2187e-06	55.506	0.0013127	0.0013397	0.00037727	805.34	1.4826e-05	1.52e-05	630.83	324.99	1.5734e-05	1.6172e-05	297.85	118.31	123.16	52.455	1.7197e-05	55.938	71.611	-82.840	-53.281	-148.507	-55.227	32.839	-150.239	-142.899	-10.852	187.087	-146.042	-141.433	-138.803	-133.267	-96.688	-137.210	-8191	255	
7089.104	1	1	0	0	0.13118	0.17282	0.25142	0.2096	0.34035	0.063565	0.14908	0.20534	0.070238	0.17758	0.24518	0.093869	0.20478	0.29096	0.14924	0.055448	-1.7396	-2.3542	-1.5479	-2.4958	-2.0521	-1.9062	-2.4646	-1.7521	-2.2333	-2.3604	-1.8042	-2.3542	-2.0521	-1.8583	-2.4625	-1.8813	92.646	69.026	-153.683	154.808	-139.856	-38.420	-153.784	175.661	-37.731	79.852	92.196	-147.444	173.402	145.398	60.672	151.228	0.0015037	4.9891e-05	0.00018911	814.52	3.6196e-06	1.1036e-05	635.69	328.82	1.0766e-05	4.8208e-06	296.2	118.05	121.91	52.779	7.0296e-06	55.355	0.0015686	0.0016096	0.00044937	814.14	1.7424e-05	1.7504e-05	637.31	326.34	1.7189e-05	1.7029e-05	299.23	118.26	122.97	52.421	1.5518e-05	55.669	77.340	-51.815	-114.998	-148.198	39.119	-143.489	-150.265	-142.784	-91.140	12.119	-145.983	-141.276	-138.389	-133.287	1.170	-137.307	-8191	255	
7089.201	1	1	0	0	0.20627	0.26799	0.067614	0.20339	0.26849	0.10623	0.16302	0.14948	0.26287	0.20898	0.31447	0.055913	0.28269	0.30522	0.19018	0.31948	-1.6417	-2.4229	-1.7292	-2.3937	-2.3521	-2.0062	-2.5146	-2.1521	-2.1333	-2.3333	-1.9042	-2.5771	-2.2854	-1.9604	-2.5375	-2.0271	101.950	-154.891	-51.223	153.405	178.111	-92.269	-124.094	164.843	-97.945	111.125	140.460	62.175	186.171	182.805	155.656	14.082	0.0018182	0.000988	0.00010083	826.34	1.3366e-05	3.5737e-06	637.64	332.49	1.4684e-05	5.1527e-06	298.55	119.79	123.01	53.233	9.6762e-06	56.622	0.0013575	0.0013069	0.00036013	811.64	1.3257e-05	1.2832e-05	632.55	323.75	1.1444e-05	1.1269e-05	295.09	117.04	120.94	52.157	1.0323e-05	55.512	74.645	-108.867	-91.774	-148.200	19.082	-42.823	-150.485	-142.312	-26.272	-65.122	-146.032	-141.775	-138.857	-133.440	4.953	-137.428	-8191	255	
7089.297	1	1	0	0	0.20303	0.26401	0.16982	0.11318	0.085602	0.15082	0.17254	0.24679	0.19639	0.17206	0.019992	0.1666	0.03065	0.15975	0.33254	0.15998	-1.6083	-2.1437	-1.8771	-2.2687	-2.2333	-1.8729	-2.5292	-2.2542	-1.9292	-2.3417	-1.9271	-2.3146	-2.1875	-1.7292	-2.3729	-2.2583	-23.565	-151.516	178.366	163.341	146.482	59.708	-145.169	148.691	-64.928	-129.605	70.311	90.658	125.945	-76.872	-129.755	-60.148	0.0015594	0.00065125	0.00020555	828.4	2.956e-06	2.3822e-06	644.55	333.22	7.7377e-06	9.0408e-06	299.98	119.59	123.57	53.402	5.2493e-06	56.442	0.00094009	0.00092975	0.00025737	808.04	1.0196e-05	1.0226e-05	633.03	324.55	1.0375e-05	1.0343e-05	296.1	116.79	120.92	52.228	1.0114e-05	55.508	66.388	-50.520	-39.472	-148.269	-58.919	-78.459	-150.649	-142.944	-41.781	16.914	-146.230	-141.676	-138.931	-133.257	10.772	-137.402	-8191	255	
7089.393	1	1	0	0	0.12795	0.046707	0.10504	0.14642	0.13923	0.10345	0.10304	0.079378	0.14635	0.096609	0.21784	0.21947	0.13192	0.014557	0.32145	0.1184	-1.5583	-2.3833	-1.8896	-2.2938	-2.3542	-1.7458	-2.4854	-2.1437	-1.85	-2.5896	-1.8188	-2.0146	-2.3812	-2.1188	-2.2021	-2.4271	187.926	162.932	-64.523	-118.483	-45.954	-41.801	157.614	75.016	-40.915	52.776	64.988	146.995	-121.245	-93.483	31.349	186.648	0.0019636	0.00036296	0.00015755	833.54	6.1388e-06	7.2598e-06	646.03	332.62	6.5275e-06	3.23e-06	298.84	118.41	123.96	52.837	6.5565e-06	56.412	0.00093015	0.00092421	0.00026448	812.2	1.0556e-05	1.084e-05	636.75	325.09	1.1604e-05	1.1808e-05	297.17	117.06	121.69	52.069	1.1928e-05	55.689	63.283	130.545	-98.280	-148.385	-13.926	-12.528	-149.906	-142.822	-39.536	125.334	-145.860	-141.300	-139.029	-133.309	-124.542	-136.990	-8191	255	
7089.489	1	1	0	0	0.21508	0.14081	0.10144	0.36389	0.10613	0.17887	0.195	0.37974	0.25442	0.29513	0.076066	0.040456	0.080113	0.17914	0.11131	0.24696	-1.1875	-2.4604	-1.9438	-2.0521	-2.3187	-1.8271	-2.375	-2.2396	-1.7938	-2.4167	-2.1958	-1.8271	-2.5167	-1.9333	-2.1646	-2.3396	192.228	-107.595	16.979	188.787	-123.430	-93.384	-90.509	121.479	-12.406	134.415	-40.769	-66.450	145.262	166.210	169.538	168.419	0.0019273	0.00036277	0.00025135	831.97	8.9967e-06	3.4355e-06	645.32	334.77	9.6086e-06	1.3359e-05	300.48	119.79	122.82	53.37	3.7027e-06	57.393	0.0010952	0.0010943	0.00030579	814.12	1.1701e-05	1.1555e-05	637.62	325.61	1.0984e-05	1.0823e-05	297.28	117.15	120.75	52.278	9.8601e-06	56.019	61.715	-108.563	-72.270	-148.316	198.417	-3.147	-150.148	-142.669	-48.271	0.582	-145.702	-141.444	-138.511	-133.191	-84.301	-137.129	-8191	255	
7089.585	1	1	0	0	0.29112	0.30583	0.086577	0.26193	0.077528	0.11674	0.18696	0.23512	0.14579	0.21702	0.011244	0.057653	0.31084	0.1078	0.1107	0.18453	-1.4354	-2.275	-1.9917	-1.8396	-2.4313	-1.8375	-2.1354	-2.4083	-1.6562	-2.6125	-2.1917	-1.8438	-2.575	-1.9146	-2.0625	-2.5521	48.708	-14.016	116.172	198.809	-57.159	87.569	176.285	164.693	122.767	126.182	140.267	-63.052	14.845	-116.259	22.727	18.310	0.0017834	0.00056301	0.00016236	835.72	1.0163e-05	1.1074e-05	653.88	335.49	4.3879e-06	1.1926e-05	301.81	119.82	123.09	53.307	5.041e-06	56.782	0.0009002	0.00089642	0.00025219	812.69	9.8895e-06	1.0037e-05	638.43	325.99	1.0184e-05	1.0353e-05	298.54	117.37	121.09	52.409	1.1444e-05	55.991	65.763	14.789	-43.519	-148.568	10.296	-29.414	-150.432	-142.528	30.347	-1.601	-145.662	-141.522	-138.708	-133.280	21.209	-137.481	-8191	255	
7089.704	1	1	0	0	0.32357	0.16662	0.45913	0.24978	0.17173	0.18262	0.2018	0.3644	0.2495	0.19527	0.19385	0.32135	0.029258	0.17947	0.082326	0.2056	-1.3083	-2.2812	-2.1167	-1.9188	-2.3583	-1.8167	-2.1979	-2.4562	-1.7083	-2.2729	-2.4042	-1.9104	-2.3688	-1.9792	-1.8583	-2.5146	117.382	176.217	121.960	132.523	36.081	58.442	146.764	138.336	3.035	55.062	-10.160	104.829	189.134	174.678	93.157	125.328	0.0012895	0.001034	0.00023968	830.65	1.4073e-05	8.2929e-06	649.13	334.71	6.5949e-06	4.6723e-06	301.36	119.13	122.42	53.305	7.09e-06	56.228	0.0010563	0.0010895	0.00030365	815.97	1.2167e-05	1.2449e-05	642.17	326.81	1.2469e-05	1.2764e-05	298.57	117.31	121.58	52.455	1.2594e-05	55.762	77.068	-74.806	-130.878	-148.639	-85.244	-70.820	-150.173	-142.932	-79.692	-16.060	-145.701	-141.644	-138.674	-133.286	-24.586	-137.211	-8191	255	
7089.800	1	1	0	0	0.30629	0.135	0.32194	0.17273	0.22579	0.18739	0.2443	0.37501	0.16469	0.12154	0.25396	0.1988	0.27187	0.19573	0.090633	0.141	-1.2854	-2.125	-2.05	-1.8	-2.4458	-2.0938	-1.8479	-2.6875	-1.7396	-2.1771	-2.4188	-1.8375	-2.3688	-2.2062	-1.9521	-2.4417	-28.352	-96.711	-4.171	120.480	164.185	-115.560	128.347	121.427	-3.941	27.378	130.737	150.733	-34.175	151.385	-109.825	13.311	0.0020504	0.00073744	4.3183e-05	835.71	7.0003e-06	4.829e-06	651.69	332.52	2.9057e-06	4.2652e-06	299.17	119.85	122.9	52.928	6.6894e-06	56.7	0.0011165	0.0011305	0.00031247	818.94	1.2196e-05	1.2388e-05	643.05	325.89	1.2269e-05	1.2368e-05	299.19	117.9	121.68	52.346	1.3274e-05	56.013	69.126	-119.870	-156.294	-148.663	-45.941	71.477	-150.249	-142.969	-142.633	-124.909	-145.666	-141.338	-138.943	-133.070	-83.035	-137.457	-8191	255	
7089.896	1	1	0	0	0.14557	0.38281	0.10183	0.25673	0.097122	0.084455	0.18355	0.10817	0.20749	0.14383	0.21825	0.33866	0.20798	0.21073	0.050992	0.12701	-1.2125	-1.975	-2.3146	-1.8312	-2.3146	-2.0271	-1.8937	-2.5875	-1.875	-1.8062	-2.4083	-1.6729	-2.3854	-2.1417	-1.6833	-2.5458	-152.462	-101.841	89.287	165.447	53.690	171.176	95.036	191.237	31.695	152.496	-132.359	149.472	-79.515	-79.367	-54.747	58.308	0.001632	0.00045705	0.00025453	831.79	1.0242e-05	9.1471e-06	646.59	332.32	8.7077e-06	8.7372e-06	299.59	118.41	121.36	52.39	1.1616e-05	55.679	0.0012453	0.0013066	0.00037237	822.07	1.5234e-05	1.5656e-05	649.95	329.07	1.6859e-05	1.7742e-05	305.4	119.2	125.14	52.866	2.1701e-05	56.985	73.285	-34.985	-13.831	-148.392	31.869	-19.056	-150.055	-142.850	-21.871	-72.121	-145.798	-141.389	-138.686	-133.233	-27.876	-137.144	-8191	255	
7089.968	1	1	0	0	0.15882	0.24507	0.19719	0.018702	0.08155	0.20849	0.16243	0.20498	0.039352	0.22519	0.12153	0.15148	0.052268	0.1568	0.037756	0.16443	-1.4833	-1.7417	-2.3771	-1.6625	-2.1667	-2.2812	-1.7042	-2.4125	-1.9729	-1.8625	-2.4	-1.9396	-2.25	-2.4292	-1.5979	-2.4646	-121.197	177.574	183.764	81.619	-122.589	-116.829	161.423	160.750	69.104	-106.932	197.854	120.992	-23.690	-128.219	-111.842	68.543	0.0015403	0.00091532	8.3737e-05	827	1.2942e-05	4.8636e-06	640.66	331.94	1.4659e-05	8.9821e-06	297.07	117.41	122.23	52.168	1.5227e-05	55.33	0.0020827	0.0022236	0.00063014	847.19	2.5472e-05	2.5979e-05	665.42	335.06	2.5406e-05	2.5336e-05	312.41	120.71	126.91	52.859	2.2284e-05	56.716	75.003	-37.548	44.230	-148.230	-60.870	-28.986	-150.223	-142.743	-74.728	-9.458	-145.347	-141.595	-138.896	-133.156	-55.396	-137.294	-8191	255	
7090.089	1	1	0	0	0.15762	0.14692	0.23058	0.083574	0.16939	0.098188	0.16758	0.19715	0.18392	0.37747	0.22472	0.10972	0.14691	0.24046	0.057422	0.054414	-1.5708	-1.7729	-2.4646	-1.7271	-1.9479	-2.4562	-1.8271	-2.2812	-2.0312	-1.7375	-2.4896	-1.9438	-1.9021	-2.4562	-1.5792	-2.3688	146.606	57.566	95.571	-34.681	58.094	-116.504	157.282	87.871	97.082	174.600	26.546	144.685	95.846	191.429	-29.853	-85.290	0.001655	0.00070182	0.00022643	835.41	8.4043e-06	6.259e-06	650.25	331.33	1.511e-05	1.0636e-05	299.26	119.82	122.75	52.989	5.3292e-06	56.145	0.0019007	0.0018973	0.00051058	834.15	1.8591e-05	1.8171e-05	654.51	328.55	1.635e-05	1.5913e-05	302.6	118.86	122.68	52.44	1.3464e-05	56.143	63.303	-51.423	170.649	-148.253	-160.108	-45.672	-150.362	-142.761	-53.532	22.314	-145.885	-141.280	-138.574	-133.141	-21.867	-137.248	-8191	255	
7090.185	1	1	0	0	0.1002	0.16012	0.056715	0.13539	0.075035	0.14053	0.12379	0.083136	0.052443	0.12298	0.066733	0.0634	0.26202	0.034879	0.1116	0.22166	-1.7458	-1.8417	-2.5563	-1.8813	-1.9792	-2.2833	-1.6708	-2.5083	-2.1521	-1.7125	-2.6042	-1.85	-1.9167	-2.4375	-1.6854	-2.3292	-60.847	-109.377	48.145	176.616	-154.052	-58.093	20.042	10.380	159.182	75.432	53.884	-14.784	-158.784	139.946	-116.134	159.266	0.0019473	0.00063604	0.00025545	837.97	1.0242e-05	4.2546e-06	660.4	336.77	1.6023e-05	2.7154e-06	304.66	119.8	122.96	53.339	7.2763e-06	56.36	0.0012018	0.001194	0.00032705	823.84	1.261e-05	1.2587e-05	652.67	328.75	1.3223e-05	1.318e-05	303.53	118.78	123.25	52.62	1.4645e-05	56.32	73.459	-68.548	-58.515	-148.357	-60.906	186.743	-149.999	-143.049	-50.232	-44.000	-145.977	-141.515	-138.874	-133.229	-75.848	-137.442	-8191	255	
7090.281	1	1	0	0	0.22153	0.036888	0.26916	0.066877	0.26607	0.045547	0.02066	0.16786	0.14598	0.18738	0.12196	0.22153	0.10312	0.034358	0.10499	0.13328	-1.6604	-1.7479	-2.475	-2.0729	-1.9896	-2.3792	-1.9625	-2.2208	-2.1896	-1.8479	-2.4208	-2.1562	-2.0271	-2.5292	-1.9125	-2.2729	101.540	29.000	191.033	-123.392	161.512	-95.888	125.306	-118.115	14.670	15.676	106.172	-44.296	43.017	145.769	149.056	24.318	0.0017	0.00051697	0.00033717	840.43	2.9445e-06	8.0996e-06	654.5	334.21	1.2496e-05	1.3768e-05	302.82	119.44	122.73	52.613	7.5538e-06	55.957	0.0013904	0.0013934	0.00039664	830.86	1.5835e-05	1.6006e-05	657.01	330.11	1.6695e-05	1.7018e-05	306.38	119.51	124.35	52.512	1.7527e-05	56.384	80.114	149.822	-108.046	-148.011	-103.585	-46.974	-150.154	-142.944	-20.241	41.032	-145.700	-141.217	-138.544	-133.154	3.124	-137.144	-8191	255	
7090.377	1	1	0	0	0.35494	0.29074	0.11723	0.28946	0.20955	0.088633	0.15445	0.10869	0.18075	0.091624	0.25967	0.24274	0.17406	0.23388	0.075471	0.13386	-1.8896	-1.5958	-2.3042	-2.0896	-1.9417	-2.5	-1.9958	-2.1875	-2.3333	-1.7021	-2.5208	-2.4042	-1.8896	-2.5396	-1.7896	-2.1042	-85.767	112.808	51.646	164.289	75.193	-63.980	98.072	-139.436	-3.931	139.912	96.937	191.156	-114.414	167.333	133.894	156.462	0.0014411	0.00046391	0.00014083	835.16	2.3264e-06	6.2809e-06	655.13	334.83	8.7078e-06	1.0569e-05	302.81	120.05	123.04	52.637	2.2878e-06	55.834	0.0015759	0.0015978	0.0004472	835.5	1.7536e-05	1.758e-05	660.35	332.82	1.781e-05	1.8335e-05	309.76	121.56	126.46	53.117	2.1506e-05	57.33	67.933	191.601	43.574	-148.379	32.257	1.497	-150.337	-143.053	12.989	-15.479	-145.933	-141.428	-138.564	-133.236	-62.318	-137.482	-8191	255	
7090.473	1	1	0	0	0.1499	0.13565	0.11305	0.076324	0.11826	0.29479	0.38537	0.17749	0.098409	0.18712	0.10528	0.21632	0.12115	0.22249	0.01719	0.32582	-1.9167	-1.7417	-2.2021	-2.1396	-1.8208	-2.5417	-2.0083	-2.0229	-2.5625	-1.775	-2.225	-2.2438	-1.9583	-2.5229	-2.0333	-1.925	-108.658	138.603	-10.793	99.258	-50.562	-12.820	97.579	-0.962	186.465	125.055	-107.316	-152.636	136.242	167.836	-139.618	93.479	0.0012052	0.00027187	0.00015595	831.21	9.2561e-06	1.6895e-05	646.44	332.47	2.2328e-05	5.0893e-06	301.36	119.54	122.94	52.53	7.4535e-06	55.368	0.0020535	0.0021728	0.00062956	849.42	2.5092e-05	2.5658e-05	670.54	336.92	2.533e-05	2.5682e-05	316.01	123.01	128.79	53.518	2.4727e-05	57.207	58.166	-156.398	4.611	-148.222	-32.401	4.230	-150.285	-143.324	-53.788	-12.633	-146.201	-141.540	-138.584	-133.463	31.554	-137.264	-8191	255	
7090.569	1	1	0	0	0.31309	0.040902	0.054215	0.12113	0.22112	0.046891	0.26401	0.079064	0.15897	0.093366	0.030637	0.26093	0.34225	0.27352	0.068892	0.12781	-2.0229	-1.6667	-2.2021	-2.3812	-1.7417	-2.375	-2.15	-1.9333	-2.4146	-1.6292	-2.0938	-2.4188	-1.7563	-2.3854	-2.1083	-1.9188	16.492	17.954	171.615	-115.853	-67.719	135.500	33.980	102.197	-48.732	114.466	-155.185	126.167	116.915	-109.133	51.979	-128.980	0.0015183	0.00093037	0.00030591	823.12	6.8776e-06	1.7368e-05	638.94	330.51	1.5388e-05	3.4528e-06	293.35	118.29	122.14	52.24	1.236e-05	55.133	0.0021266	0.0021625	0.00059648	838.52	2.2631e-05	2.2772e-05	657.98	332.44	2.2032e-05	2.2421e-05	307.76	121.34	127.21	53.077	2.345e-05	56.937	69.366	-59.197	18.874	-148.606	140.104	-38.963	-150.203	-143.081	-122.751	-79.218	-145.913	-141.599	-138.768	-133.436	0.335	-137.357	-8191	255	
7090.665	1	1	0	0	0.05794	0.073553	0.20018	0.25528	0.17003	0.019041	0.35127	0.058048	0.20488	0.10526	0.091291	0.098491	0.1675	0.18981	0.038618	0.089408	-2.1333	-1.9583	-1.925	-2.4	-1.8125	-2.2771	-2.2604	-1.9312	-2.5354	-1.8333	-1.975	-2.5187	-1.8208	-2.3125	-2.2604	-1.8333	155.091	81.379	-80.813	55.658	79.960	-127.611	156.310	101.392	-84.249	189.814	-109.132	1.204	164.747	103.814	138.162	152.089	0.0022163	0.0016856	0.0001369	819.21	1.0817e-06	1.1493e-05	638.37	329.5	3.4853e-06	1.0546e-05	294.09	118.77	121.17	52.086	1.0597e-05	54.728	0.0021079	0.0022448	0.00064077	841.49	2.61e-05	2.6714e-05	666.03	335.26	2.785e-05	2.8849e-05	316.79	123.93	130.49	53.889	3.1139e-05	58.107	58.888	-15.734	136.326	-148.279	84.524	-135.532	-149.886	-143.256	-100.159	12.952	-145.646	-141.347	-138.834	-133.103	3.034	-137.300	-8191	255	
7090.784	1	1	0	0	0.36677	0.10432	0.10999	0.16418	0.15903	0.1136	0.11493	0.2755	0.23182	0.25223	0.016461	0.16758	0.14818	0.037335	0.046888	0.12518	-1.9229	-1.9167	-1.9083	-2.6	-1.7792	-2.0938	-2.2583	-1.8792	-2.3458	-1.85	-1.8021	-2.5917	-1.7021	-2.0458	-2.4125	-1.9438	130.429	-107.159	-5.401	99.914	-41.749	-116.858	-91.056	188.075	-69.321	-76.815	144.368	-112.700	-129.601	68.113	109.719	196.364	0.0010132	0.00055297	0.00021348	824.21	2.2289e-05	9.8468e-06	634.36	328.62	1.3524e-05	4.5998e-06	293.63	117.71	121.73	51.797	2.6644e-06	54.848	0.0028156	0.002959	0.00083857	860.56	3.2928e-05	3.4068e-05	677.41	339.84	3.3615e-05	3.4298e-05	322.6	125.09	132.22	54.055	3.2308e-05	58.202	97.651	-66.660	-80.100	-148.088	-21.157	16.780	-149.822	-142.997	20.114	-40.904	-145.706	-141.574	-139.020	-133.239	-52.036	-137.352	-8191	255	
7090.881	1	1	0	0	0.22636	0.22207	0.21507	0.17719	0.34384	0.17461	0.23482	0.023999	0.059401	0.088509	0.23242	0.03969	0.13645	0.19406	0.23051	0.21782	-1.8917	-2.1146	-1.8125	-2.4917	-1.7333	-2.0396	-2.3167	-1.7563	-2.3875	-1.9688	-1.7979	-2.3208	-1.9354	-2.0687	-2.4396	-1.5521	54.797	-37.132	170.689	174.755	53.688	-120.739	42.168	-104.444	90.222	193.655	146.417	169.794	192.539	170.017	64.815	155.140	0.0019083	0.001016	0.00034057	816.06	4.2907e-06	7.3599e-06	633.03	327.5	2.0191e-05	7.3816e-06	296.28	118.52	123.28	51.99	8.8996e-06	55.336	0.0027359	0.002785	0.00075384	845.73	2.8049e-05	2.7987e-05	662	332.86	2.7061e-05	2.7358e-05	313	122.65	128.75	53.371	2.5795e-05	57.251	67.149	-50.107	-64.855	-148.075	136.948	-131.189	-149.958	-143.066	-8.919	154.455	-145.728	-141.713	-139.142	-133.070	-9.052	-137.540	-8191	255	
7090.977	1	1	0	0	0.16746	0.057469	0.081376	0.06806	0.24894	0.15798	0.14753	0.34255	0.16168	0.28549	0.39662	0.086937	0.098051	0.30615	0.17467	0.11979	-1.85	-2.1729	-1.725	-2.4479	-1.8646	-1.9917	-2.5438	-1.9438	-2.2687	-2.5104	-1.8354	-2.5167	-2.0896	-2.0771	-2.5583	-1.8604	131.491	-82.699	66.880	131.294	40.379	-138.407	-138.833	163.560	60.105	161.814	-153.833	152.581	-40.651	110.596	18.588	66.940	0.0011975	0.00042103	0.00030418	811.73	1.1716e-06	1.2489e-06	630.52	327.77	4.6255e-06	1.022e-05	293.56	117.34	121.71	52.272	4.2763e-06	54.876	0.0023006	0.0023935	0.00066275	833.96	2.6104e-05	2.6431e-05	655.13	332.16	2.6059e-05	2.6433e-05	311.72	121.94	128.61	53.577	2.7019e-05	57.288	68.557	-88.427	-6.490	-148.311	25.466	-39.080	-150.168	-143.235	8.786	-101.314	-146.091	-141.546	-138.523	-133.233	19.692	-137.490	-8191	255	
7091.073	1	1	0	0	0.30919	0.19626	0.16565	0.098691	0.024264	0.10863	0.10269	0.36779	0.017986	0.21521	0.35429	0.11706	0.10409	0.079106	0.20039	0.13205	-1.8	-2.3958	-1.5688	-2.5208	-1.9292	-1.7229	-2.5563	-2.0375	-2.0563	-2.3479	-1.7625	-2.4583	-2.2479	-2.0563	-2.7917	-1.875	192.988	183.508	112.737	141.353	22.804	-88.731	32.282	100.636	-125.491	76.391	172.315	107.638	116.846	-144.270	17.881	172.149	0.002125	0.00097946	0.00022568	809.87	1.4733e-05	8.7415e-06	623.87	326.86	4.3906e-06	1.3108e-05	291.6	117.78	121.61	52.312	4.6639e-06	54.835	0.0024696	0.0025729	0.00072475	838.88	2.8638e-05	2.908e-05	656.24	333.65	2.8677e-05	2.8856e-05	312.81	122.55	129.72	53.716	2.9192e-05	57.664	73.677	24.304	-54.968	-148.369	-116.414	-95.046	-149.916	-143.065	-60.147	-4.369	-145.599	-141.243	-138.544	-133.270	-11.127	-137.413	-8191	255	
7091.193	1	1	0	0	0.13389	0.19169	0.054248	0.15909	0.12674	0.12756	0.2711	0.19529	0.077302	0.32285	0.13373	0.30175	0.23545	0.1413	0.19442	0.33868	-1.6771	-2.3292	-1.7	-2.4604	-2.1583	-1.9854	-2.5917	-2.1042	-1.9333	-2.2792	-1.7812	-2.1937	-2.2958	-1.8542	-2.3771	-2.2104	-112.054	-6.232	178.812	6.929	-138.223	83.403	133.950	112.178	-74.616	-11.593	171.535	123.171	-105.003	130.557	89.637	162.933	0.0013437	0.0016219	0.00016805	814.34	3.3199e-06	1.2278e-05	620.44	325.91	1.1291e-05	6.9885e-06	294.38	117.6	121.25	51.711	9.1716e-07	54.599	0.0026627	0.0027967	0.00077786	845.5	3.089e-05	3.1019e-05	661.05	336.4	3.123e-05	3.1428e-05	316.82	123.59	130.69	53.653	3.1684e-05	57.925	55.068	-64.485	-7.544	-148.311	1.217	-50.497	-149.933	-142.937	-40.951	-36.315	-146.483	-141.438	-138.663	-133.528	193.503	-137.241	-8191	255	
7091.265	1	1	0	0	0.29649	0.11342	0.23093	0.20166	0.10673	0.10028	0.26519	0.25128	0.1141	0.12622	0.089985	0.12544	0.16373	0.02111	0.24527	0.28624	-1.5479	-2.2875	-1.75	-2.5104	-2.2604	-1.775	-2.6479	-2.0208	-1.9688	-2.3667	-1.7771	-2.0479	-2.4562	-1.8813	-2.5187	-2.1188	69.072	-109.149	-56.215	161.417	178.578	-87.158	-143.508	142.565	79.521	-94.315	-118.808	161.176	152.336	108.843	-136.034	140.437	0.0016196	0.00091646	0.00030008	806.06	4.616e-06	1.1476e-05	624.97	328.64	1.2647e-05	1.5339e-05	294.81	117.82	120.74	51.98	1.8969e-05	54.524	0.002815	0.0029289	0.00082922	848.86	3.2977e-05	3.3488e-05	667.59	340.17	3.3287e-05	3.3555e-05	321.33	124.81	132	54.081	3.3032e-05	58.187	57.122	-127.952	-89.288	-148.430	122.208	-30.608	-149.886	-142.931	-37.544	68.642	-145.966	-141.430	-138.557	-133.368	43.067	-137.085	-8191	255	
7091.386	1	1	0	0	0.27887	0.19901	0.31159	0.22485	0.064763	0.21515	0.3195	0.22506	0.16004	0.33244	0.45381	0.24917	0.16803	0.16123	0.11516	0.24337	-1.4625	-2.2271	-1.7104	-2.1937	-2.2729	-1.75	-2.5104	-2.3542	-1.7	-2.5396	-1.8917	-2.3208	-2.4875	-1.8667	-2.4188	-2.2104	-119.793	95.517	129.021	-130.937	152.587	-109.893	-138.449	-146.811	-55.957	-0.652	148.947	-153.101	164.313	-6.665	88.773	-143.881	0.0011435	0.00026345	0.00019624	805.3	2.657e-05	1.4439e-05	619.71	325.1	3.2231e-06	9.9172e-06	293.76	117.14	122.21	51.598	1.6518e-05	53.936	0.0029577	0.0030323	0.00085291	848.73	3.3488e-05	3.3858e-05	666.03	339.33	3.3985e-05	3.4167e-05	320.55	124.65	132.23	53.888	3.3267e-05	57.777	84.138	12.901	-57.943	-148.681	-53.110	-21.693	-150.219	-142.964	-130.337	0.367	-145.741	-141.400	-138.341	-133.170	192.018	-136.966	-8191	255	
7091.482	1	1	0	0	0.10756	0.10974	0.098042	0.37084	0.058518	0.053839	0.20489	0.16374	0.18324	0.048752	0.28031	0.13486	0.090923	0.23157	0.20568	0.11887	-1.3417	-2.2375	-1.9188	-1.9583	-2.2896	-1.6271	-2.4125	-2.4437	-1.9688	-2.5958	-2.1667	-2.0938	-2.5312	-1.9208	-2.1958	-2.5167	-137.628	-81.783	42.773	186.216	-66.338	-81.428	-149.112	115.753	182.607	-149.378	-156.572	102.461	-136.834	153.300	44.244	196.451	0.0012729	0.001719	0.00029428	800.62	2.4938e-06	1.3171e-05	617.89	328.21	2.4227e-07	1.1617e-05	290.99	117.03	120.19	51.376	1.9745e-05	54.206	0.0029118	0.0029779	0.00084147	844.68	3.2292e-05	3.2408e-05	662.06	338.04	3.2301e-05	3.3109e-05	318.96	124.29	131.94	53.854	3.4165e-05	58.199	74.299	-148.040	50.272	-148.435	176.477	187.021	-150.065	-142.592	7.873	-5.433	-145.866	-141.633	-138.688	-133.402	170.345	-137.247	-8191	255	
7091.578	1	1	0	0	0.2437	0.016161	0.15098	0.25083	0.28919	0.13122	0.071135	0.17504	0.19116	0.35793	0.18422	0.082848	0.17507	0.1705	0.18372	0.30525	-1.3583	-2.5	-2.0458	-2.0417	-2.4646	-1.8354	-2.2542	-2.4875	-1.7938	-2.375	-2.0583	-1.7833	-2.5438	-2.1188	-2.1854	-2.4042	70.573	6.969	124.989	-96.019	-112.154	49.154	-21.623	166.847	69.074	-123.280	106.478	-80.497	131.266	158.728	55.966	148.302	0.0019271	0.0011364	0.00024362	803.8	1.394e-05	1.2373e-05	621.19	327.8	7.5917e-06	1.4275e-05	291.32	116.66	120.72	51.635	4.5359e-06	54.308	0.0030718	0.0032098	0.00090824	852.79	3.5703e-05	3.6515e-05	671.39	340.92	3.5825e-05	3.6256e-05	322.31	125.06	132.25	53.977	3.4027e-05	57.845	70.304	88.396	-113.176	-148.310	-86.704	53.692	-150.756	-142.733	-114.299	58.284	-145.806	-141.810	-138.551	-133.036	-85.883	-137.234	-8191	255	
7091.672	1	1	0	0	0.23122	0.084773	0.083784	0.19261	0.061294	0.087606	0.14801	0.28338	0.057998	0.096144	0.22425	0.17773	0.16463	0.076605	0.13821	0.36581	-1.3917	-2.3896	-1.9896	-2	-2.5563	-2.1021	-2.1646	-2.5396	-1.8458	-2.1771	-2.3208	-1.6958	-2.4938	-2.2562	-1.9167	-2.5458	65.657	166.097	9.421	-159.918	-113.014	-45.058	141.960	194.627	-59.805	-46.147	143.277	171.674	132.460	30.369	161.692	132.041	0.001141	0.0011979	0.00043323	807.9	5.3469e-06	5.0306e-06	622.76	328.4	2.753e-05	1.4724e-05	293.17	117.97	121.71	51.934	9.5632e-06	54.778	0.002862	0.002931	0.00079891	838.01	2.8802e-05	2.8538e-05	653.54	332.76	2.5703e-05	2.5354e-05	309.74	121.35	126.64	52.763	2.24e-05	56.333	56.675	-16.091	-22.955	-148.276	87.346	-6.357	-150.415	-142.810	-74.385	-62.739	-145.915	-141.782	-139.059	-133.239	-65.925	-137.241	-8191	255	
7091.793	1	1	0	0	0.13211	0.057212	0.12585	0.094974	0.10396	0.16532	0.067701	0.1089	0.073505	0.067054	0.45284	0.30365	0.12878	0.23592	0.030703	0.17568	-1.3729	-2.2375	-2.2396	-1.9083	-2.3396	-2	-2.025	-2.4083	-2.0187	-2.2875	-2.2792	-1.8958	-2.4125	-2.2521	-1.8667	-2.7146	-118.713	46.818	-141.863	194.170	190.222	9.827	121.624	178.913	12.092	-55.450	164.635	183.448	174.085	111.064	-27.973	99.658	0.0017979	0.0004275	0.00011438	812.22	1.3697e-05	4.5805e-06	634.46	331.21	1.6654e-05	1.4775e-05	296.57	118.68	122.28	52.186	1.1276e-06	55.267	0.0019146	0.0019737	0.00054047	818.13	2.096e-05	2.1606e-05	647.15	332.22	2.2732e-05	2.3519e-05	310.7	122.07	128.32	53.409	2.6709e-05	57.367	70.544	-140.910	-73.879	-148.299	-8.197	11.212	-150.081	-143.014	6.185	46.833	-145.743	-141.236	-138.807	-132.892	-90.381	-136.985	-8191	255	
7091.865	1	1	0	0	0.14467	0.36224	0.17446	0.22207	0.24948	0.19542	0.18168	0.37993	0.10664	0.14815	0.2018	0.34654	0.073761	0.21745	0.11268	0.35225	-1.4188	-1.9896	-2.2875	-1.8375	-2.2646	-1.8375	-1.9833	-2.6333	-1.9146	-2.2354	-2.3125	-1.8958	-2.2375	-2.25	-1.8062	-2.7021	185.873	25.947	81.023	167.897	113.032	154.669	112.315	-160.384	-8.034	2.873	149.749	123.236	-12.754	188.389	100.848	153.607	0.0018959	8.321e-05	0.0002049	810.18	1.1797e-05	2.7423e-06	624.57	329.95	2.1269e-05	5.6374e-06	295.58	117.77	122.16	51.82	1.248e-05	54.655	0.0024365	0.0025981	0.00073267	836.83	2.9176e-05	3.0007e-05	658.71	337.67	3.0571e-05	3.1111e-05	318.48	123.77	131.3	53.843	3.0916e-05	57.738	64.145	-44.734	55.014	-148.223	-150.272	-89.383	-150.282	-142.678	18.597	-76.701	-145.756	-141.461	-138.855	-133.205	-60.563	-137.426	-8191	255	
7091.961	1	1	0	0	0.036696	0.15008	0.17289	0.1736	0.094068	0.23404	0.14515	0.25589	0.1805	0.098265	0.052196	0.30391	0.26498	0.12973	0.099914	0.18642	-1.5479	-1.9083	-2.4833	-1.8583	-2.3458	-2.3271	-1.8062	-2.5646	-2.05	-1.8813	-2.475	-1.8271	-2.1625	-2.4771	-1.4833	-2.6875	-122.208	151.200	-10.748	-156.934	-33.738	-50.102	-19.662	87.401	150.789	178.777	167.775	-155.853	-75.463	-122.476	69.209	128.401	0.0014356	0.0007019	0.00025859	804.41	5.6178e-06	1.8791e-06	623.37	327.66	1.434e-05	1.5213e-05	295.09	118.1	121.11	52.009	1.6339e-06	54.677	0.0027422	0.00286	0.0007874	840.16	3.004e-05	3.0014e-05	654.72	335.08	2.7871e-05	2.7692e-05	313.03	121.9	127.77	52.991	2.3178e-05	56.438	49.733	-82.139	-66.270	-148.293	6.841	54.491	-150.355	-142.893	-33.265	5.218	-145.599	-141.374	-138.610	-133.209	101.245	-137.434	-8191	255	
7092.057	1	1	0	0	0.24593	0.2238	0.26182	0.22537	0.19304	0.035421	0.42254	0.25849	0.18409	0.2131	0.33513	0.27968	0.20827	0.21955	0.043111	0.14269	-1.5417	-1.8	-2.2396	-1.9208	-2.1542	-2.1542	-1.8354	-2.5792	-2.0792	-1.6583	-2.4813	-1.8687	-2.1271	-2.5229	-1.8438	-2.5479	-95.640	-66.351	-158.107	153.654	188.870	12.475	143.062	163.862	-141.787	-5.378	117.638	-28.953	121.827	175.042	-61.185	98.030	0.0016867	0.0015522	0.00024915	809.79	1.3043e-05	6.5477e-06	630.56	329.95	6.0991e-06	6.0139e-06	299.03	119.17	122.77	52.472	4.6504e-06	55.315	0.0019725	0.001949	0.00052252	813.84	1.9488e-05	1.916e-05	637.64	328.41	1.8141e-05	1.8145e-05	304.65	119.84	124.71	52.425	1.7977e-05	55.979	53.324	-75.571	-30.232	-148.268	-45.365	-55.624	-150.146	-142.853	-52.389	-19.530	-145.831	-141.346	-138.298	-133.021	2.014	-137.406	-8191	255	
7092.153	1	1	0	0	0.23321	0.18448	0.24267	0.2489	0.075186	0.040445	0.36927	0.18415	0.099803	0.2795	0.27084	0.25012	0.17829	0.18467	0.19299	0.059949	-1.7375	-1.9271	-2.3625	-2.1104	-1.9229	-2.4417	-1.6812	-2.2271	-2.1229	-1.6146	-2.4979	-2.0375	-1.9125	-2.4958	-1.6021	-2.5187	65.902	-96.269	-154.460	178.540	-25.935	-84.238	137.387	196.339	-14.194	174.367	114.320	192.688	56.712	85.053	44.561	117.597	0.0014854	0.00069631	0.00032043	815.26	5.6853e-06	4.332e-06	636.67	331.55	1.5885e-05	1.1488e-05	300.53	118.85	121.86	52.043	8.806e-06	54.965	0.0016396	0.001687	0.00047255	817.83	1.8913e-05	1.9194e-05	647.19	330.95	1.9496e-05	1.9564e-05	308.32	120.5	125.33	52.464	2.0849e-05	56.234	66.773	-68.392	-27.228	-148.330	-135.380	-128.850	-150.190	-143.352	9.027	30.715	-145.614	-141.597	-138.769	-133.324	79.185	-137.359	-8191	255	
7092.274	1	1	0	0	0.055488	0.2684	0.12185	0.21713	0.10703	0.36332	0.33984	0.11881	0.13237	0.19845	0.09331	0.19636	0.1472	0.42932	0.12256	0.21922	-1.8312	-1.6979	-2.3979	-1.8813	-1.8604	-2.4875	-1.8167	-2.1063	-2.2396	-1.9292	-2.3083	-2.1292	-1.9667	-2.5646	-1.7896	-2.2229	-0.507	-151.908	-3.143	188.730	-90.078	36.984	126.513	-27.892	162.124	79.568	-11.036	-155.376	140.811	120.517	-103.661	166.240	0.0016626	0.0012479	0.00025177	815.17	1.4702e-05	8.4579e-06	641.88	331.92	1.7433e-05	9.0837e-07	299.87	118.06	120.85	51.785	2.1516e-06	54.731	0.0019482	0.0020014	0.00056163	828.72	2.2092e-05	2.2425e-05	655.66	332.63	2.2107e-05	2.2266e-05	310.76	120.84	125.97	52.448	2.2969e-05	56.384	84.366	-117.874	-11.422	-148.167	-80.339	-28.592	-149.987	-142.823	-35.784	-100.086	-145.905	-141.319	-138.874	-133.272	-6.076	-137.497	-8191	255	
7092.370	1	1	0	0	0.19381	0.068511	0.030794	0.097366	0.15111	0.15567	0.19145	0.37867	0.23719	0.064273	0.12776	0.25334	0.1068	0.29134	0.11525	0.13814	-1.9792	-1.8021	-2.2938	-2.0604	-1.8625	-2.5	-1.7458	-2.1604	-2.4667	-1.7229	-2.5125	-2.2229	-1.9917	-2.5854	-1.7833	-2.1833	-36.444	41.967	148.742	149.888	85.734	-29.598	163.678	122.616	141.579	-140.852	-125.370	50.816	21.081	122.533	19.633	-155.266	0.0017844	0.00076642	0.00017443	820.77	8.4668e-06	1.1962e-05	639.03	332.57	3.8195e-06	6.0968e-06	297.28	117.34	120.73	51.278	1.5431e-05	54.396	0.0021321	0.0022216	0.00062125	837.51	2.4783e-05	2.5246e-05	664.18	336.45	2.5764e-05	2.6313e-05	315.85	121.9	127.69	52.566	2.715e-05	56.845	58.921	26.170	-20.529	-148.481	-131.776	-73.441	-150.359	-143.073	73.274	68.239	-146.062	-141.464	-138.718	-133.096	-9.011	-137.334	-8191	255	
7092.466	1	1	0	0	0.18331	0.23634	0.13772	0.12379	0.28272	0.19299	0.10314	0.14519	0.28359	0.17531	0.20192	0.08914	0.15711	0.30584	0.20546	0.12173	-2.1167	-1.6896	-2.2354	-2.3146	-1.5979	-2.5729	-1.9542	-2.2271	-2.3771	-1.9375	-2.2687	-2.2333	-1.7417	-2.5687	-2.0646	-2	-109.057	-64.292	-78.142	168.446	-25.605	-115.164	29.441	37.952	-24.219	133.855	-33.180	-155.213	154.666	-74.164	125.958	165.751	0.0016014	0.0015929	0.00016032	827.62	1.8088e-06	7.3661e-06	649.08	330.26	1.3814e-05	1.6895e-05	301.3	116.82	119.97	50.674	6.1195e-06	53.702	0.0024234	0.0024846	0.00068538	849.06	2.5969e-05	2.5948e-05	673.14	335.83	2.5552e-05	2.5633e-05	316.2	121.01	126.4	52.083	2.621e-05	56.285	58.465	-106.573	12.361	-148.246	162.701	-69.828	-150.225	-143.021	-58.276	-2.861	-145.824	-141.381	-138.756	-133.347	26.292	-137.483	-8191	255	
7092.562	1	1	0	0	0.34814	0.076387	0.15544	0.19159	0.13566	0.19001	0.096218	0.2502	0.10462	0.084841	0.11321	0.017973	0.40143	0.069877	0.23438	0.22022	-1.8104	-1.6708	-2.1229	-2.475	-1.8438	-2.3812	-2.3021	-2.0458	-2.5062	-1.8	-2.3167	-2.5292	-1.7812	-2.6375	-2.1167	-1.9792	-20.964	-108.159	-153.836	-157.894	-112.208	20.703	149.647	109.756	46.977	-122.547	136.545	71.336	163.828	-79.579	-58.505	61.929	0.0018367	0.0011098	0.00026903	833.07	2.0468e-05	6.4028e-06	653.64	332.75	1.0642e-05	8.933e-06	300.85	117.55	120.76	50.749	9.6748e-06	53.675	0.0023528	0.0024281	0.00068521	855.92	2.6439e-05	2.6905e-05	681.34	338.4	2.7255e-05	2.7817e-05	320.73	122.23	128.08	52.397	2.7484e-05	56.621	66.235	-47.861	177.486	-148.361	-7.893	37.657	-150.103	-143.079	-29.203	178.820	-145.490	-141.018	-138.541	-133.186	-24.845	-137.507	-8191	255	
7092.658	1	1	0	0	0.18829	0.18076	0.10424	0.13475	0.10008	0.097074	0.25283	0.29987	0.04248	0.22348	0.057318	0.059694	0.15424	0.30389	0.21677	0.18087	-2.1312	-1.525	-2.0438	-2.4313	-1.8354	-2.3958	-2.325	-1.7271	-2.4667	-1.9646	-1.8979	-2.4833	-1.7646	-2.4813	-2.025	-1.8312	-85.578	145.546	28.240	-110.705	144.182	122.163	54.421	193.029	104.923	126.097	147.957	-105.031	187.174	189.315	60.608	70.832	0.001319	0.000999	0.00039793	833.05	1.5275e-05	6.0147e-06	651.39	332.85	1.4419e-05	1.1559e-05	303.5	117.76	120.49	50.969	6.4581e-06	54.027	0.0024686	0.0025582	0.00071337	857.62	2.7023e-05	2.6975e-05	677.48	338.23	2.5841e-05	2.6055e-05	319.14	121.61	127.24	52.252	2.4788e-05	56.15	65.193	-141.942	-108.100	-148.188	47.014	-144.068	-150.488	-143.270	-103.900	-136.110	-146.007	-141.515	-139.125	-133.375	-41.443	-137.335	-8191	255	
7092.755	1	1	0	0	0.098157	0.43911	0.17716	0.14776	0.12575	0.078621	0.11372	0.45048	0.17647	0.12934	0.42116	0.05341	0.054377	0.088836	0.18019	0.14283	-2.1208	-1.7083	-1.9042	-2.575	-1.6604	-2.2771	-2.4875	-1.7479	-2.4708	-2.1	-2.1854	-2.5875	-1.9375	-2.2271	-2.2229	-1.8667	-81.600	-130.805	-30.526	89.113	-99.795	-67.427	-50.524	190.778	160.044	-84.387	-146.054	12.581	-41.849	-11.765	150.879	106.070	0.0017792	0.0013504	0.00010506	830.48	8.2471e-06	6.2323e-06	650.49	335	1.4993e-05	6.6894e-06	301.18	118.39	121.11	51.436	1.3353e-05	54.357	0.002155	0.0022098	0.0006079	845.46	2.384e-05	2.4651e-05	671.9	338.74	2.4812e-05	2.5227e-05	317.9	121.72	126.96	52.427	2.4278e-05	56.204	66.330	-56.900	186.170	-148.195	-55.151	-17.151	-150.457	-142.976	-46.392	-56.748	-146.031	-141.453	-139.919	-133.252	38.412	-137.014	-8191	255	
7092.873	1	1	0	0	0.12879	0.1822	0.24543	0.26406	0.17546	0.25188	0.25213	0.3252	0.091471	0.22237	0.40215	0.14532	0.22273	0.31617	0.041683	0.26983	-2.1458	-1.8854	-1.7583	-2.4792	-1.8167	-2.25	-2.2958	-1.7729	-2.3708	-2.0083	-1.7896	-2.4313	-1.9271	-2.0354	-2.3396	-1.8687	-26.049	196.771	4.357	183.449	-117.909	69.997	155.316	123.569	141.822	13.102	123.078	140.975	-155.488	157.099	-9.894	142.706	0.0018419	0.000505	0.00029301	831.2	4.6468e-06	1.5422e-05	648.36	334.39	1.0104e-05	1.0632e-05	303.34	118.38	120.62	51.007	3.4338e-06	53.863	0.0021613	0.0022252	0.00062536	845.66	2.4839e-05	2.5351e-05	671.34	339.28	2.5558e-05	2.6096e-05	319.34	122.07	127.86	52.371	2.6319e-05	56.188	72.128	-112.463	14.744	-148.207	27.131	-31.408	-150.142	-142.959	-73.714	-106.051	-145.687	-141.506	-138.662	-133.173	-82.790	-137.064	-8191	255	
7092.970	1	1	0	0	0.097703	0.078128	0.13052	0.29555	0.024626	0.086904	0.28132	0.18131	0.25688	0.33558	0.13002	0.16493	0.19803	0.1658	0.21625	0.05553	-1.9188	-2.1229	-1.8104	-2.5771	-1.9396	-2.0896	-2.5833	-1.8604	-2.4833	-2.1729	-1.7292	-2.4708	-1.9625	-2.0979	-2.3708	-1.8813	111.379	-85.878	-24.810	143.700	103.776	157.641	186.351	136.440	-52.548	-6.230	-73.788	178.158	-96.519	-126.760	117.646	118.471	0.0014484	0.00070869	0.00013771	834.8	6.2241e-06	8.8798e-06	651.12	336.11	1.4782e-05	6.2833e-06	303.83	119.16	121.46	51.353	1.0863e-05	54.665	0.0023215	0.0023677	0.00064681	848.62	2.473e-05	2.4894e-05	671.26	339.11	2.4492e-05	2.4999e-05	319.92	122.31	128.3	52.478	2.5814e-05	56.564	86.064	-90.111	-31.631	-148.179	-29.183	-74.495	-149.925	-142.802	-140.706	187.231	-145.905	-141.308	-138.620	-133.469	-37.416	-137.135	-8191	255	
7093.066	1	1	0	0	0.14917	0.050655	0.14831	0.24746	0.11328	0.15271	0.15742	0.29635	0.080613	0.14373	0.22398	0.20453	0.10807	0.089471	0.18254	0.36217	-1.7104	-2.0938	-1.825	-2.5271	-1.9229	-1.9667	-2.5354	-1.8458	-2.0958	-2.275	-1.9396	-2.3875	-1.9708	-1.9479	-2.3	-1.8125	111.103	35.010	-34.782	-140.999	186.200	163.831	107.351	156.818	56.829	50.786	-5.217	-128.384	86.908	-16.718	-141.452	155.689	0.0016134	0.00071988	0.00015241	830.59	1.0755e-05	4.8739e-06	653.86	337.39	1.1255e-05	1.0271e-05	304.26	118.3	122.29	51.329	6.5475e-06	54.686	0.0023138	0.0024001	0.00066486	852.83	2.608e-05	2.6497e-05	679.07	341.42	2.5947e-05	2.5997e-05	321.53	122.43	127.72	52.382	2.2809e-05	56.037	54.968	-76.985	-91.440	-148.174	-48.556	-137.550	-150.081	-142.779	133.682	-32.826	-145.667	-141.539	-138.726	-133.285	94.790	-137.375	-8191	255	
7093.162	1	1	0	0	0.23102	0.31047	0.39825	0.19165	0.16933	0.28403	0.26364	0.37795	0.02452	0.16686	0.10432	0.21868	0.384	0.23465	0.15681	0.35434	-1.4958	-2.3833	-1.7542	-2.3792	-2.0312	-1.8292	-2.4229	-1.9833	-2.0729	-2.275	-1.8396	-2.35	-2.3167	-1.9604	-2.2521	-2.0667	-73.309	-133.316	180.945	155.789	44.746	113.847	138.580	110.965	138.529	-139.528	174.917	171.773	179.191	-131.262	-156.408	106.873	0.0014335	0.00043597	0.00016582	831.56	1.2638e-05	3.6997e-06	658.36	338.38	1.039e-05	4.7419e-06	307.58	119.7	122.77	52.053	1.5147e-05	55.477	0.0018821	0.0018602	0.00049504	835.59	1.8475e-05	1.7831e-05	661.48	335	1.6565e-05	1.6529e-05	311.09	119.99	124.17	51.914	1.6317e-05	55.612	75.447	-74.370	-64.582	-148.318	-66.775	169.792	-150.482	-142.803	-101.515	109.317	-145.796	-141.448	-138.160	-133.299	-68.928	-137.090	-8191	255	
#DATA ENDS
