BOXY.EXE: ISS Imagent and Oximeter Data Acquisition Program Version 0.80
Ascii Record File

#ACQ INFORMATION
2  Detector Channels 
16  External MUX Channels 
1  Auxiliary Channels 
5000  Waveform (CCF) Frequency (Hz)
1  Waveforms Skipped 
30  Waveforms Averaged 
1  Cycles Averaged 
16  Acquisitions per Waveform 
10.0806  Updata Rate (Hz) 

#FILE INFORMATION
TRUE -- External MUX Channel results are PARSED.
FALSE -- AC DC and Phase are NOT grouped.
TRUE -- Companion Program Settings File CREATED.
FALSE -- AC data not excluded
FALSE -- DC data not excluded
FALSE -- Phase data not excluded
FALSE -- Auxillary Chn. data not excluded
Tab delimiters

#CALIBRATION STATE
TRUE -- Waveform Calibration Values APPLIED.


#AUX CALIBRATION VALUES
Val Type	aux-1	

Term	1.0000e+00	
Factor	0.0000e+00	


#WF CALIBRATION VALUES
A = Detector Channel
Val Type	A-AC1	A-AC2	A-AC3	A-AC4	A-AC5	A-AC6	A-AC7	A-AC8	A-AC9	A-AC10	A-AC11	A-AC12	A-AC13	A-AC14	A-AC15	A-AC16	A-DC1	A-DC2	A-DC3	A-DC4	A-DC5	A-DC6	A-DC7	A-DC8	A-DC9	A-DC10	A-DC11	A-DC12	A-DC13	A-DC14	A-DC15	A-DC16	A-Ph1	A-Ph2	A-Ph3	A-Ph4	A-Ph5	A-Ph6	A-Ph7	A-Ph8	A-Ph9	A-Ph10	A-Ph11	A-Ph12	A-Ph13	A-Ph14	A-Ph15	A-Ph16	

Term	0.00000e+00	0.00000e+00	0.00000e+00	0.00000e+00	0.00000e+00	0.00000e+00	0.00000e+00	0.00000e+00	0.00000e+00	0.00000e+00	0.00000e+00	0.00000e+00	0.00000e+00	0.00000e+00	0.00000e+00	0.00000e+00	0.00000e+00	0.00000e+00	0.00000e+00	0.00000e+00	0.00000e+00	0.00000e+00	0.00000e+00	0.00000e+00	0.00000e+00	0.00000e+00	0.00000e+00	0.00000e+00	0.00000e+00	0.00000e+00	0.00000e+00	0.00000e+00	0.00000e+00	0.00000e+00	0.00000e+00	0.00000e+00	0.00000e+00	0.00000e+00	0.00000e+00	0.00000e+00	0.00000e+00	0.00000e+00	0.00000e+00	0.00000e+00	0.00000e+00	0.00000e+00	0.00000e+00	0.00000e+00	
Factor	1.00000e+00	1.00000e+00	1.00000e+00	1.00000e+00	1.00000e+00	1.00000e+00	1.00000e+00	1.00000e+00	1.00000e+00	1.00000e+00	1.00000e+00	1.00000e+00	1.00000e+00	1.00000e+00	1.00000e+00	1.00000e+00	1.00000e+00	1.00000e+00	1.00000e+00	1.00000e+00	1.00000e+00	1.00000e+00	1.00000e+00	1.00000e+00	1.00000e+00	1.00000e+00	1.00000e+00	1.00000e+00	1.00000e+00	1.00000e+00	1.00000e+00	1.00000e+00	X	X	X	X	X	X	X	X	X	X	X	X	X	X	X	X	

B = Detector Channel
Val Type	B-AC1	B-AC2	B-AC3	B-AC4	B-AC5	B-AC6	B-AC7	B-AC8	B-AC9	B-AC10	B-AC11	B-AC12	B-AC13	B-AC14	B-AC15	B-AC16	B-DC1	B-DC2	B-DC3	B-DC4	B-DC5	B-DC6	B-DC7	B-DC8	B-DC9	B-DC10	B-DC11	B-DC12	B-DC13	B-DC14	B-DC15	B-DC16	B-Ph1	B-Ph2	B-Ph3	B-Ph4	B-Ph5	B-Ph6	B-Ph7	B-Ph8	B-Ph9	B-Ph10	B-Ph11	B-Ph12	B-Ph13	B-Ph14	B-Ph15	B-Ph16	

Term	0.00000e+00	0.00000e+00	0.00000e+00	0.00000e+00	0.00000e+00	0.00000e+00	0.00000e+00	0.00000e+00	0.00000e+00	0.00000e+00	0.00000e+00	0.00000e+00	0.00000e+00	0.00000e+00	0.00000e+00	0.00000e+00	0.00000e+00	0.00000e+00	0.00000e+00	0.00000e+00	0.00000e+00	0.00000e+00	0.00000e+00	0.00000e+00	0.00000e+00	0.00000e+00	0.00000e+00	0.00000e+00	0.00000e+00	0.00000e+00	0.00000e+00	0.00000e+00	-2.51673e+01	-1.09131e+02	-1.36792e+02	-1.83698e+02	-1.38176e+01	-7.28325e+01	-1.57869e+02	-1.62015e+02	-6.96302e+01	-9.69870e+01	-1.72092e+02	-1.75791e+02	-1.89181e+02	-1.78194e+02	-7.65473e+01	-1.51485e+02	
Factor	2.82887e-05	9.62443e-05	2.62348e-05	1.61568e-01	9.06967e-07	1.03337e-06	1.67683e-01	6.49704e-02	1.10886e-06	1.02177e-06	1.02924e-01	3.36800e-02	8.03786e-02	9.68118e-03	9.66469e-07	1.40111e-02	7.08911e-07	7.21329e-07	2.01149e-07	7.90580e-02	7.90081e-09	7.90084e-09	7.70976e-02	3.12878e-02	7.89045e-09	7.89930e-09	4.70277e-02	1.53915e-02	3.30660e-02	4.62330e-03	7.91615e-09	6.40668e-03	X	X	X	X	X	X	X	X	X	X	X	X	X	X	X	X	



#DISTANCE SETTINGS
A = Detector Channel
A-1	A-2	A-3	A-4	A-5	A-6	A-7	A-8	A-9	A-10	A-11	A-12	A-13	A-14	A-15	A-16	

2.5000e+00	3.0000e+00	2.5000e+00	3.0000e+00	2.0000e+00	3.0000e+00	1.5000e+00	3.0000e+00	3.0000e+00	3.0000e+00	3.0000e+00	3.0000e+00	3.0000e+00	3.0000e+00	1.5000e+00	3.0000e+00	

B = Detector Channel
B-1	B-2	B-3	B-4	B-5	B-6	B-7	B-8	B-9	B-10	B-11	B-12	B-13	B-14	B-15	B-16	

1.0000e+01	1.0000e+01	1.0000e+01	1.4400e+00	1.0000e+01	1.0000e+01	1.5100e+00	1.9400e+00	1.0000e+01	1.0000e+01	1.9900e+00	2.4900e+00	2.4100e+00	2.9000e+00	1.0000e+01	2.9800e+00	




#DATA BEGINS
time	group	step	mark	flag	A-AC1	A-AC2	A-AC3	A-AC4	A-AC5	A-AC6	A-AC7	A-AC8	A-AC9	A-AC10	A-AC11	A-AC12	A-AC13	A-AC14	A-AC15	A-AC16	A-DC1	A-DC2	A-DC3	A-DC4	A-DC5	A-DC6	A-DC7	A-DC8	A-DC9	A-DC10	A-DC11	A-DC12	A-DC13	A-DC14	A-DC15	A-DC16	A-Ph1	A-Ph2	A-Ph3	A-Ph4	A-Ph5	A-Ph6	A-Ph7	A-Ph8	A-Ph9	A-Ph10	A-Ph11	A-Ph12	A-Ph13	A-Ph14	A-Ph15	A-Ph16	B-AC1	B-AC2	B-AC3	B-AC4	B-AC5	B-AC6	B-AC7	B-AC8	B-AC9	B-AC10	B-AC11	B-AC12	B-AC13	B-AC14	B-AC15	B-AC16	B-DC1	B-DC2	B-DC3	B-DC4	B-DC5	B-DC6	B-DC7	B-DC8	B-DC9	B-DC10	B-DC11	B-DC12	B-DC13	B-DC14	B-DC15	B-DC16	B-Ph1	B-Ph2	B-Ph3	B-Ph4	B-Ph5	B-Ph6	B-Ph7	B-Ph8	B-Ph9	B-Ph10	B-Ph11	B-Ph12	B-Ph13	B-Ph14	B-Ph15	B-Ph16	aux-1	digaux	

4293.328	1	1	0	768	0.148	0.14245	0.16945	0.26954	0.15608	0.04247	0.1652	0.23567	0.23018	0.22811	0.087929	0.061478	0.20864	0.24558	0.10381	0.16188	-2.0521	-1.8667	-2.6437	-2.2604	-2.0938	-2.7417	-2.125	-2.4333	-2.7146	-1.9917	-2.6104	-2.5667	-2.1896	-2.7896	-2.225	-2.1562	129.493	82.469	219.091	202.634	-27.248	157.378	193.269	288.300	204.077	110.992	278.866	129.372	-42.367	-21.046	217.552	262.724	0.00031873	0.00038976	0.00011933	589.06	4.9969e-06	8.764e-07	615.09	239.44	1.087e-06	3.7424e-06	297.4	132.94	106.4	52.658	3.777e-06	73.648	0.00020921	0.0002201	5.7871e-05	571.44	2.1986e-06	2.3611e-06	597.75	229.59	2.1507e-06	2.3107e-06	280.38	125.28	93.078	49.781	2.0906e-06	68.246	264.816	149.803	-44.279	-57.825	133.725	195.610	-58.588	-52.777	70.252	50.312	-54.957	-49.705	-46.833	-43.137	-14.776	-46.000	-8191	255	
4293.424	1	1	0	0	0.30249	0.064489	0.19471	0.06417	0.23674	0.28622	0.36839	0.021661	0.10847	0.069519	0.1341	0.22796	0.22105	0.094627	0.1384	0.1874	-2.2812	-1.8896	-2.5146	-2.5771	-1.95	-2.7062	-2.2708	-2.2667	-2.6312	-2.0271	-2.4146	-2.5208	-2.0187	-2.7	-2.1521	-2.2604	25.981	-50.297	136.215	272.721	63.955	85.175	252.672	87.160	214.992	5.467	143.303	34.098	-16.554	256.692	-3.311	206.658	0.00042579	0.00066741	4.8653e-05	592.61	2.6076e-06	4.6692e-06	621.05	242.45	4.1759e-06	6.1628e-06	297.45	134.39	105.11	52.766	3.5618e-06	73.238	0.00020208	0.00020016	5.1777e-05	575.56	2.0877e-06	2.0922e-06	600.8	231.62	2.0654e-06	2.0603e-06	280.1	125.49	92.321	49.605	1.9011e-06	67.557	269.352	30.968	-26.073	-57.850	74.721	87.210	-58.436	-52.654	78.019	122.425	-54.982	-49.488	-47.313	-43.463	271.706	-46.254	-8191	255	
4293.521	1	1	0	0	0.22318	0.25515	0.056803	0.26634	0.12489	0.094578	0.11983	0.24115	0.20392	0.04852	0.41643	0.097812	0.17937	0.21102	0.2193	0.23923	-2.3875	-1.9396	-2.4062	-2.5	-2.1375	-2.6937	-2.4625	-2.4021	-2.7562	-2.2438	-2.4854	-2.6208	-1.8083	-2.6354	-2.3646	-2.0417	87.631	217.659	193.889	191.061	110.937	80.676	213.476	239.533	130.144	27.268	229.122	-46.144	200.345	253.270	-24.070	135.710	0.00036592	0.0002621	6.2526e-05	586.38	2.2817e-06	5.9537e-06	617.15	241.04	4.8e-06	4.044e-06	294.63	131.69	104.79	52.247	7.7959e-07	72.567	0.00018974	0.00018	4.6672e-05	567.3	2.0295e-06	1.9391e-06	594.69	229.43	2.0343e-06	1.9563e-06	276.59	123.73	91.841	49.023	1.8522e-06	66.824	264.173	75.734	-6.332	-58.102	140.860	72.547	-58.443	-52.107	89.009	39.744	-54.847	-49.548	-46.656	-43.377	8.582	-46.559	-8191	255	
4293.617	1	1	0	0	0.055721	0.10044	0.11536	0.069127	0.17101	0.079454	0.17657	0.35498	0.061736	0.1402	0.23388	0.10436	0.24845	0.36992	0.19725	0.20708	-2.4875	-1.8792	-2.0396	-2.5979	-1.9021	-2.6042	-2.4958	-2.1417	-2.6896	-2.1583	-2.2146	-2.7542	-1.7354	-2.6229	-2.5312	-2.0438	99.299	-65.609	191.906	133.572	-45.035	18.976	237.038	242.917	73.942	260.594	-34.290	173.850	144.216	-39.586	-35.461	225.029	0.00026096	0.00038945	7.0381e-05	584.85	2.4476e-06	6.8336e-06	613.8	238.98	5.913e-06	3.5776e-06	295.13	132.28	105.22	52.21	4.8991e-06	72.527	0.00019549	0.00017802	4.667e-05	565.53	2.074e-06	1.9111e-06	592.86	228.74	2.06e-06	1.9455e-06	276.78	124.32	91.765	48.96	1.9208e-06	67.049	274.611	-8.487	11.232	-58.082	122.659	73.681	-58.408	-52.476	56.232	107.943	-54.644	-49.758	-46.708	-43.204	71.540	-46.301	-8191	255	
4293.713	1	1	0	0	0.23254	0.16396	0.3129	0.33207	0.090283	0.14791	0.053347	0.26261	0.10255	0.14936	0.22536	0.19854	0.15224	0.28142	0.37913	0.10992	-2.3042	-2.1146	-2.1875	-2.7292	-1.8917	-2.4125	-2.6312	-2.1937	-2.7604	-2.3708	-2.225	-2.8167	-1.9875	-2.4104	-2.6583	-2.0042	12.033	97.435	276.503	261.990	4.880	287.773	288.770	234.169	-68.493	80.421	197.956	285.608	-41.562	108.492	172.195	6.744	0.00035309	0.00016326	0.00012457	586.01	1.472e-06	1.4805e-06	613.55	237.22	7.0111e-06	3.4121e-06	294.73	131.61	103.97	51.762	3.1485e-06	72.255	0.00019664	0.0001823	4.9947e-05	568.76	2.1694e-06	2.0299e-06	593.27	227.95	2.1672e-06	2.0579e-06	276.55	124.39	91.427	48.777	2.0756e-06	67.281	256.573	113.852	-20.323	-58.075	80.182	84.591	-58.792	-52.539	89.927	33.058	-55.120	-49.629	-47.348	-43.201	37.764	-46.074	-8191	255	
4293.809	1	1	0	0	0.12862	0.067274	0.13518	0.081001	0.17628	0.11286	0.25099	0.10504	0.22821	0.036796	0.11062	0.19705	0.12944	0.087897	0.19392	0.28122	-2.4062	-2.3	-2.1354	-2.7042	-2.1125	-2.1562	-2.7708	-1.9958	-2.5687	-2.4542	-2.1625	-2.9271	-1.9854	-2.4417	-2.6167	-2	156.507	-62.017	133.358	168.410	105.614	253.356	217.626	59.366	23.269	-29.453	-54.266	271.621	90.533	14.900	131.191	231.970	0.00024478	6.7874e-05	0.00011744	584.39	3.5068e-06	1.316e-06	615.38	239.16	2.2344e-06	2.5592e-06	295.87	132.73	103.93	52.003	1.4088e-06	72.462	0.00020374	0.00018685	5.2442e-05	568.82	2.1645e-06	2.0282e-06	597.3	230.13	2.1183e-06	2.0172e-06	278.32	125.3	91.757	48.973	2.1224e-06	67.284	265.463	146.741	-47.451	-58.105	148.553	64.086	-58.420	-52.603	75.185	-25.529	-54.688	-49.523	-46.632	-43.222	123.505	-46.004	-8191	255	
4293.930	1	1	0	0	0.15854	0.072089	0.34659	0.081431	0.21202	0.072327	0.18402	0.25557	0.15117	0.2308	0.16257	0.077867	0.19346	0.17385	0.12652	0.47303	-2.1917	-2.5563	-2.0438	-2.875	-2.175	-2.3187	-2.8208	-1.9917	-2.4188	-2.6479	-1.9583	-2.7833	-2.2292	-1.9979	-2.6667	-2.1667	206.547	-5.126	-18.871	35.210	23.528	45.380	-44.634	-45.181	260.980	-50.891	229.989	-34.680	-30.080	-36.023	110.417	269.891	0.00022125	0.00032234	9.3859e-05	579.54	3.6318e-06	3.0105e-06	605.74	237.14	2.5866e-06	4.8785e-06	289.56	130.57	103.52	51.716	2.5427e-06	71.553	0.00019586	0.00018382	5.3475e-05	564.64	2.0624e-06	1.9881e-06	588.51	227.33	2.0133e-06	1.9751e-06	273.62	122.95	90.472	48.492	2.1726e-06	66.347	-61.069	34.748	21.945	-57.997	99.771	107.655	-58.410	-52.227	45.093	47.240	-54.558	-49.778	-47.457	-43.277	142.338	-46.012	-8191	255	
4294.026	1	1	0	0	0.19261	0.2399	0.0067101	0.048819	0.073702	0.305	0.11962	0.1088	0.055238	0.27143	0.085457	0.025543	0.066067	0.20733	0.21337	0.19697	-2.0458	-2.6021	-1.9479	-2.7083	-2.2417	-2.0104	-2.8187	-2.0042	-2.3854	-2.6312	-2.1562	-2.9375	-2.1979	-2.2104	-2.7083	-2.2125	62.872	251.565	142.858	2.701	248.525	96.151	178.454	158.293	-25.542	45.118	44.408	229.283	2.382	269.131	264.035	233.176	0.00031383	0.00028453	0.00016872	577.92	2.107e-07	1.6479e-06	607.39	236.25	5.0243e-06	5.1792e-06	288.51	130.75	103.67	51.76	2.175e-06	71.703	0.00018956	0.00018088	5.5112e-05	562.88	2.0359e-06	2.0074e-06	588.81	227.15	2.0405e-06	2.0427e-06	274.35	123.05	90.884	48.721	2.2931e-06	66.536	269.033	70.512	17.943	-58.249	93.047	40.319	-58.463	-52.603	86.708	88.286	-54.882	-49.736	-46.541	-43.312	78.581	-45.933	-8191	255	
4294.122	1	1	0	0	0.29995	0.19652	0.18766	0.10189	0.18242	0.14759	0.28293	0.15617	0.25026	0.024285	0.043204	0.24552	0.080228	0.42096	0.10024	0.27267	-1.8458	-2.5854	-1.9542	-2.6729	-2.5354	-2.0354	-2.6708	-2.2604	-2.3312	-2.6917	-2.0312	-2.6979	-2.3604	-2.2542	-2.6958	-2.2562	90.244	92.938	-9.919	278.812	262.054	217.828	-67.035	250.117	-13.651	221.578	75.914	256.263	210.224	264.107	230.499	209.351	0.00032897	0.00027265	8.2409e-05	576.5	2.0218e-06	5.0696e-06	606.2	237.98	1.2728e-06	4.2995e-06	292.45	131.04	103.69	51.636	7.59e-06	71.947	0.00019309	0.0001929	5.9027e-05	562.72	2.0958e-06	2.1611e-06	590.87	227.28	2.0725e-06	2.2009e-06	276.71	123.5	91.442	48.83	2.3117e-06	66.829	279.751	-26.931	-17.071	-58.012	-4.382	34.942	-58.491	-52.873	33.263	207.948	-54.877	-49.768	-46.901	-43.418	99.500	-45.966	-8191	255	
4294.218	1	1	0	0	0.27791	0.20157	0.20579	0.16437	0.13006	0.040278	0.17734	0.20227	0.26091	0.046771	0.092881	0.2403	0.076046	0.20342	0.12786	0.21224	-1.8417	-2.6875	-2.0729	-2.3917	-2.5042	-1.8542	-2.9125	-2.3146	-2.1125	-2.6292	-1.9562	-2.4021	-2.4917	-2.0521	-2.4771	-2.55	233.124	135.850	128.978	278.966	25.619	71.460	223.455	208.485	44.949	-53.738	135.478	267.584	224.099	-67.351	113.241	245.281	0.00042243	0.00031406	9.2428e-05	582.13	4.3619e-06	7.7499e-06	616.63	239.31	3.8604e-06	9.5998e-07	295.06	132.61	104.43	52.623	3.0793e-06	72.623	0.0001972	0.00020774	5.9788e-05	567.09	2.1234e-06	2.3259e-06	597.33	229.28	2.1043e-06	2.3274e-06	278.26	125.11	91.784	49.55	2.2202e-06	67.464	263.694	59.480	-15.211	-58.029	173.185	103.860	-58.625	-52.384	112.020	60.355	-54.638	-49.602	-46.495	-43.291	52.974	-45.962	-8191	255	
4294.314	1	1	0	0	0.12192	0.05504	0.13529	0.16301	0.12232	0.23084	0.17031	0.27117	0.32115	0.096267	0.12622	0.13658	0.24305	0.303	0.17331	0.23171	-1.6208	-2.5396	-1.6271	-2.2687	-2.6354	-1.7875	-2.8417	-2.5667	-1.8979	-2.8479	-2.0458	-2.4417	-2.6417	-1.8167	-2.325	-2.4604	145.871	54.645	277.423	251.803	-24.104	-58.991	226.619	213.726	276.679	8.607	-38.554	80.798	230.503	38.280	-54.879	176.236	0.00020238	0.00049302	0.00012529	578.97	1.3686e-06	2.3554e-06	607.6	234.8	1.6074e-06	1.2288e-06	287.08	128.66	102.82	51.081	1.4432e-06	70.877	0.0001944	0.00020393	5.52e-05	563	2.0196e-06	2.2188e-06	589.35	225.29	2.0141e-06	2.1636e-06	271.47	121.26	89.975	48.167	2.0706e-06	65.436	256.663	1.150	-41.490	-58.341	124.494	-43.925	-58.596	-52.414	146.695	37.896	-54.993	-49.577	-46.942	-43.322	50.584	-46.109	-8191	255	
4294.409	1	1	0	0	0.27485	0.094161	0.17572	0.18335	0.19787	0.061269	0.051346	0.047572	0.21459	0.22716	0.068037	0.20962	0.2067	0.14799	0.14758	0.28893	-1.4396	-2.575	-2.1854	-2.4042	-2.5729	-2.0896	-2.4729	-2.5646	-1.875	-2.7333	-2.0292	-2.3583	-2.6375	-1.9708	-2.4479	-2.5125	252.172	-26.294	244.054	234.141	151.454	173.604	-53.524	155.049	-6.070	217.307	118.686	-5.856	-13.235	-30.555	175.075	277.268	0.00026956	0.00015743	9.2928e-05	576.13	1.0017e-06	2.7115e-06	604.72	234.09	3.4152e-06	7.9182e-06	287.3	128.51	102.7	51.071	3.577e-06	70.972	0.0001976	0.00020408	5.3539e-05	559.5	2.142e-06	2.235e-06	584.51	223.86	2.1309e-06	2.187e-06	270.32	120.98	90.595	48.248	2.0658e-06	65.499	265.091	165.285	-16.490	-58.406	-41.886	41.181	-58.796	-52.576	99.844	13.780	-54.612	-49.466	-46.862	-43.159	16.928	-46.068	-8191	255	
4294.529	1	1	0	0	0.27647	0.24712	0.091484	0.14491	0.16691	0.20395	0.2281	0.16714	0.2109	0.066844	0.18904	0.10599	0.24514	0.17593	0.058231	0.15572	-1.675	-2.7167	-2.1375	-2.1188	-2.5604	-2.0021	-2.4917	-2.6125	-1.9354	-2.7854	-2.4313	-2.1375	-2.6542	-2.2875	-2.2292	-2.7479	214.664	55.221	-64.122	283.725	201.529	-18.462	197.590	208.077	-57.328	129.136	161.801	-27.459	108.722	231.720	260.360	27.458	0.00035213	0.00064794	6.1001e-05	577.46	1.2576e-06	6.5904e-06	604.79	232.23	1.4492e-06	7.8471e-06	283.5	126.98	100.86	49.857	3.605e-06	70.222	0.00020887	0.00020224	5.2979e-05	560.94	2.2665e-06	2.2633e-06	584.68	222.85	2.3631e-06	2.298e-06	267.97	119.76	90.19	47.346	2.2256e-06	65.108	262.729	33.771	67.715	-58.090	68.885	41.549	-58.625	-52.545	56.579	68.103	-55.005	-49.697	-46.822	-43.200	82.643	-46.199	-8191	255	
4294.625	1	1	0	0	0.24608	0.13275	0.25492	0.16637	0.1218	0.17197	0.18449	0.40191	0.3193	0.078446	0.27352	0.209	0.25001	0.20612	0.17294	0.055718	-1.6583	-2.625	-2.1833	-2.0667	-2.6833	-2.2396	-2.2167	-2.7375	-1.9479	-2.6604	-2.4188	-2.1083	-2.675	-2.2729	-2.2438	-2.8312	174.391	247.637	63.299	-48.801	-33.334	248.322	91.921	237.866	106.401	254.880	225.752	32.829	194.602	163.570	162.218	253.659	0.00026641	0.00043669	6.7854e-05	576.14	6.8282e-06	4.6041e-06	601.13	236.64	4.1131e-06	3.0342e-06	288.48	130.27	103.16	51.447	3.9556e-06	71.333	0.00023253	0.000211	5.7265e-05	562.66	2.4784e-06	2.3116e-06	587.32	226.98	2.4601e-06	2.2976e-06	274.18	123.2	92.625	48.597	2.2818e-06	66.352	287.365	25.438	24.620	-57.846	122.048	43.163	-58.641	-52.270	-12.822	180.185	-54.798	-49.636	-46.888	-43.212	3.729	-45.810	-8191	255	
4294.722	1	1	0	0	0.13676	0.11452	0.19251	0.11667	0.086429	0.32733	0.17966	0.093588	0.060777	0.1952	0.25976	0.10598	0.28452	0.28454	0.065616	0.23842	-1.6333	-2.375	-2.5604	-1.9458	-2.7458	-2.2188	-2.1688	-2.7167	-2.0854	-2.4854	-2.5875	-2.1083	-2.5896	-2.5354	-2.2583	-2.9104	196.992	144.808	157.582	-63.666	278.516	-47.686	254.456	0.019	-22.635	267.969	221.480	-47.457	139.270	269.245	107.987	201.642	0.00026486	0.00039316	0.00010134	579.03	5.4373e-06	6.8434e-06	605.88	235.32	5.2484e-06	3.8778e-06	287.05	128.65	103.09	51.429	1.5053e-06	70.553	0.00023877	0.000218	5.9354e-05	567.8	2.5773e-06	2.3973e-06	589.57	227.32	2.5116e-06	2.3405e-06	272.23	122.45	92.141	48.613	2.261e-06	65.882	281.626	82.437	-5.582	-58.175	95.951	62.736	-58.530	-52.388	87.665	92.019	-54.675	-49.345	-47.342	-43.105	108.483	-46.020	-8191	255	
4294.818	1	1	0	0	0.1508	0.093904	0.12146	0.19188	0.16436	0.17015	0.19472	0.18765	0.11312	0.20131	0.084612	0.17679	0.40135	0.33743	0.15734	0.30515	-1.45	-2.2687	-2.6896	-2.0708	-2.5458	-2.3979	-2.075	-2.7812	-1.9937	-2.4437	-2.5625	-2.1688	-2.4875	-2.4229	-2.0854	-2.8583	185.233	29.939	65.083	-35.275	36.732	242.431	212.837	189.927	159.677	125.926	33.132	181.157	230.043	231.197	71.537	219.175	0.00023685	0.00059454	0.00019804	574.37	5.5797e-06	4.0625e-06	596.19	231.2	3.5442e-06	4.8204e-06	281.57	126.29	101.34	50.558	4.7985e-06	69.574	0.00022762	0.00020744	5.7786e-05	563.58	2.3944e-06	2.2885e-06	580.18	224.26	2.4027e-06	2.2511e-06	267.21	120.04	90.406	47.764	2.4067e-06	64.851	272.173	44.245	26.891	-58.202	42.600	47.802	-58.592	-52.609	40.490	-0.924	-54.678	-49.544	-46.515	-43.192	55.728	-46.057	-8191	255	
4294.889	1	1	0	0	0.099436	0.14701	0.22295	0.31937	0.10634	0.29718	0.25474	0.070723	0.053064	0.24786	0.17177	0.10537	0.069603	0.30031	0.18048	0.27618	-1.5708	-2.0979	-2.6646	-1.9667	-2.4	-2.3729	-2.1688	-2.8292	-2.1646	-2.2146	-2.6937	-2	-2.475	-2.5354	-1.7604	-2.8438	230.296	152.102	47.340	70.454	67.803	62.197	200.669	128.675	169.194	13.259	279.456	-0.342	257.342	3.752	-61.446	243.703	0.00036866	0.0002494	0.00023609	573.91	3.0881e-06	2.4261e-06	597.71	233.48	4.4475e-06	5.8e-06	282.3	128.26	103.76	51.47	2.5147e-06	70.55	0.0002269	0.00021449	6.2432e-05	563.93	2.4e-06	2.3565e-06	583.13	225.71	2.3945e-06	2.2659e-06	269.95	121.55	91.837	48.475	2.4336e-06	65.723	264.085	28.763	51.838	-58.027	116.599	120.755	-58.494	-52.606	42.064	42.698	-54.606	-49.437	-46.671	-43.161	49.902	-46.157	-8191	255	
4295.010	1	1	0	0	0.06089	0.16397	0.10482	0.24713	0.27069	0.14807	0.20015	0.13875	0.061073	0.25334	0.26563	0.19176	0.18332	0.40857	0.16695	0.022379	-1.9125	-2.1417	-2.7125	-2.05	-2.4146	-2.4042	-1.9979	-2.9229	-2.25	-2.1729	-2.7021	-2.075	-2.3208	-2.6333	-1.8792	-2.6917	213.562	-11.029	28.536	97.430	164.786	244.444	220.151	258.777	-39.427	69.965	266.134	221.661	-3.149	264.477	114.264	282.452	0.00049184	0.00040705	6.4559e-05	573.8	2.4346e-06	4.2267e-06	597.25	235.76	3.6707e-06	4.785e-06	287.25	129.02	103.28	51.401	2.7844e-06	70.819	0.00021647	0.00020224	6.2053e-05	562.26	2.2744e-06	2.2599e-06	584.51	227.09	2.3288e-06	2.2652e-06	272.93	122.33	91.441	48.497	2.5484e-06	65.886	278.269	-52.674	287.179	-57.837	211.844	79.177	-58.667	-52.390	42.473	52.689	-54.395	-49.361	-46.904	-43.121	110.809	-46.068	-8191	255	
4295.106	1	1	0	0	0.13957	0.27058	0.17317	0.21355	0.34671	0.29213	0.10166	0.058679	0.25205	0.28377	0.014775	0.11314	0.10976	0.1993	0.14079	0.28626	-1.9292	-1.975	-2.6125	-2.0146	-2.2438	-2.7271	-2.1854	-2.6833	-2.45	-2.1479	-2.825	-2.0667	-2.2667	-2.6396	-1.8312	-2.6333	193.203	150.734	198.526	167.003	-70.258	166.242	173.294	-59.799	204.505	214.246	112.841	252.151	232.756	129.989	33.769	-57.699	0.00034041	0.00032113	9.2283e-05	571.98	2.2564e-06	1.3462e-06	603.81	235.33	2.2825e-06	8.4212e-06	287.09	128.96	102.58	51.178	3.5549e-06	70.633	0.00021779	0.00021285	6.4374e-05	560.84	2.2746e-06	2.2902e-06	587.33	226.22	2.2346e-06	2.2894e-06	273.42	122.09	90.786	48.322	2.3656e-06	65.596	274.858	79.300	252.041	-57.878	171.009	157.517	-58.598	-52.607	9.144	65.593	-54.651	-49.589	-47.484	-42.939	51.742	-46.211	-8191	255	
4295.202	1	1	0	0	0.14968	0.04534	0.08635	0.14572	0.17633	0.099562	0.072003	0.066054	0.12034	0.086562	0.14698	0.1076	0.064278	0.091549	0.028293	0.091236	-2.1917	-2.0083	-2.5625	-2.1375	-2.3146	-2.8563	-2.1208	-2.4813	-2.2938	-1.8563	-2.7792	-2.3667	-2.35	-2.7667	-1.9271	-2.6896	-36.213	212.501	191.713	251.101	234.004	214.383	212.482	189.016	179.174	133.709	-69.914	246.580	19.118	-51.720	-40.305	-33.472	0.00032838	0.00019857	0.00016966	567.57	4.2083e-06	5.4831e-06	593.71	231.79	4.825e-06	6.2067e-06	281.14	125.29	100.14	49.873	4.0454e-06	69.029	0.00020162	0.00020654	5.9877e-05	554.12	2.1192e-06	2.2697e-06	578.1	221.91	2.1442e-06	2.2937e-06	266.74	118.54	88.412	47.041	2.3418e-06	63.935	-62.567	71.017	34.912	-57.824	197.516	45.595	-58.436	-52.514	51.817	76.357	-54.659	-49.407	-46.596	-43.184	145.473	-46.168	-8191	255	
4295.323	1	1	0	0	0.21776	0.31308	0.13915	0.1671	0.38083	0.26624	0.24458	0.11357	0.28547	0.25605	0.23491	0.1344	0.069842	0.10748	0.11019	0.10184	-2.0708	-1.75	-2.6208	-2.4604	-2.0354	-2.7438	-1.9479	-2.4688	-2.6437	-1.9479	-2.7667	-2.3917	-1.9271	-2.7313	-2.0604	-2.5938	219.406	134.125	271.218	-59.615	266.321	2.046	276.101	243.615	-25.213	34.175	284.042	28.134	96.969	-67.461	132.556	207.640	0.00028976	0.00019264	0.0001061	567.66	3.9685e-06	8.2161e-07	598.78	234.14	2.5324e-06	5.6976e-06	283.3	127.37	102.89	51.046	4.4447e-06	70.668	0.00020287	0.00021361	5.7293e-05	553.65	2.1196e-06	2.3325e-06	579.13	224.54	2.1704e-06	2.3556e-06	269.13	120.38	90.505	48.221	2.2417e-06	65.243	272.990	29.717	-13.948	-57.771	135.971	-42.581	-58.612	-52.648	97.373	94.837	-54.664	-49.335	-46.906	-43.131	17.789	-46.404	-8191	255	
4295.417	1	1	0	0	0.14989	0.12305	0.3372	0.47559	0.1052	0.090826	0.24494	0.27163	0.053321	0.28132	0.11781	0.41667	0.19029	0.13577	0.11903	0.26753	-2.25	-1.9667	-2.3937	-2.3833	-1.8208	-2.7604	-2.125	-2.3438	-2.5521	-1.9521	-2.4646	-2.5333	-2.0458	-2.7167	-2.1	-2.1813	92.095	147.183	65.901	274.283	-67.742	103.652	273.201	247.175	-18.141	134.757	27.915	272.032	-26.363	112.324	73.580	203.574	0.00030154	0.00036952	0.00014114	575.93	7.8446e-07	4.4906e-06	602.2	238.31	5.0254e-06	4.4877e-06	290.07	131.13	104.66	52.173	1.4732e-06	71.809	0.00020544	0.00021136	5.5659e-05	560.63	2.1816e-06	2.2938e-06	584.03	228.16	2.1844e-06	2.2811e-06	274.05	122.97	92.405	49.206	2.1252e-06	66.528	284.141	90.310	-19.230	-57.805	213.150	48.346	-58.610	-52.486	92.915	50.783	-55.014	-49.464	-47.078	-43.304	74.570	-46.210	-8191	255	
4295.491	1	1	0	0	0.37376	0.12113	0.020399	0.04779	0.25366	0.075036	0.20365	0.068384	0.14231	0.15513	0.084746	0.12675	0.24448	0.083373	0.074458	0.23111	-2.3667	-1.8354	-2.4042	-2.5583	-1.875	-2.6333	-2.2917	-2.1375	-2.7104	-1.9771	-2.4938	-2.475	-1.9646	-2.8438	-2.1104	-2.2708	277.128	-39.463	191.717	-57.972	231.991	74.824	222.056	210.046	-21.921	66.013	35.429	171.643	235.343	146.890	277.484	154.195	0.00030683	0.00019951	0.00010045	582.98	1.6473e-06	5.4365e-06	613.83	242.03	6.9463e-07	6.4772e-06	299.61	133.74	106.56	53.27	1.4265e-06	73.464	0.00020657	0.00019848	5.2037e-05	566.27	2.1852e-06	2.1757e-06	594.32	232.88	2.1606e-06	2.109e-06	280.67	125.65	93.796	50.025	1.9953e-06	67.72	267.816	-10.923	9.121	-57.578	93.993	60.299	-58.696	-52.695	176.422	60.807	-54.920	-49.446	-46.784	-43.291	92.566	-46.186	-8191	255	
4295.610	1	1	0	0	0.3382	0.40895	0.1002	0.2186	0.20986	0.08949	0.38045	0.39838	0.24452	0.19968	0.17737	0.084357	0.028342	0.094793	0.082972	0.24357	-2.4313	-1.9792	-2.2062	-2.6167	-1.8042	-2.6083	-2.3812	-1.9021	-2.6229	-2.0083	-2.3354	-2.6021	-1.8	-2.775	-2.3021	-2.1312	49.780	90.697	14.765	229.213	200.708	176.016	226.198	286.844	231.817	-37.323	118.193	8.366	20.793	282.706	55.575	277.791	0.00035728	0.00015074	7.7003e-05	586.81	3.5647e-06	2.0206e-06	610.72	243.61	2.5329e-06	2.8561e-06	296.87	133.05	107.03	52.952	3.8676e-06	72.627	0.00020296	0.00018887	4.9219e-05	569.78	2.1566e-06	2.0473e-06	591.18	233.42	2.1669e-06	2.029e-06	278.85	124.8	93.899	49.785	1.9212e-06	66.912	269.823	-1.977	12.869	-57.810	206.258	80.562	-58.711	-52.149	118.781	-25.048	-54.776	-49.248	-46.712	-43.410	49.486	-46.083	-8191	255	
4295.706	1	1	0	0	0.27308	0.095035	0.14491	0.083932	0.13928	0.12723	0.17345	0.31564	0.42772	0.1462	0.16598	0.23562	0.08984	0.11724	0.17009	0.16961	-2.3542	-1.8188	-2.1312	-2.5271	-1.7854	-2.4625	-2.3875	-1.8188	-2.6437	-2.1771	-2.2062	-2.6458	-1.7792	-2.4271	-2.6979	-2.0042	238.736	69.847	204.434	-30.586	209.269	10.245	276.530	164.368	156.249	40.467	51.672	192.404	89.906	252.684	192.111	-46.736	0.00026814	0.00044209	1.883e-05	586.02	4.6041e-06	1.1981e-06	607.79	241.75	3.2807e-06	3.2825e-07	291.21	131.12	104.71	51.814	2.4594e-06	70.777	0.00020214	0.00018361	4.8861e-05	569.64	2.1525e-06	2.0088e-06	586.85	231.65	2.153e-06	2.0266e-06	274	123.05	92.458	48.762	2.0473e-06	65.681	273.256	9.578	-14.336	-57.854	175.359	84.046	-58.425	-52.591	73.660	15.688	-54.684	-49.894	-47.060	-43.427	65.053	-46.047	-8191	255	
4295.802	1	1	0	0	0.15058	0.090696	0.023741	0.10836	0.16575	0.05668	0.041334	0.24806	0.20007	0.069418	0.099925	0.34512	0.084514	0.19213	0.37772	0.24036	-2.2583	-2.1979	-2.1646	-2.7062	-1.8396	-2.3937	-2.8042	-1.8375	-2.625	-2.275	-2.1646	-2.6646	-1.9542	-2.4375	-2.6562	-1.9021	97.132	242.808	-44.585	-44.607	182.780	60.282	29.332	250.337	-56.700	82.658	31.544	281.663	-4.685	-29.369	19.155	245.218	0.00024868	0.00065149	0.00014285	579.47	1.3018e-06	2.1447e-06	603.54	236.54	2.443e-06	2.0978e-06	286.88	128.02	103.42	51.091	6.4318e-07	69.769	0.00020809	0.00019394	5.316e-05	565.35	2.2718e-06	2.1432e-06	585.91	227.68	2.2542e-06	2.1856e-06	272.05	121.47	91.412	48.001	2.2716e-06	64.925	257.346	44.064	34.537	-58.033	168.641	60.394	-58.497	-52.533	18.891	101.176	-54.782	-49.766	-47.513	-43.175	-68.597	-46.466	-8191	255	
4295.923	1	1	0	0	0.098566	0.28223	0.40611	0.04186	0.22244	0.086188	0.14196	0.14313	0.05125	0.17266	0.10872	0.057719	0.050745	0.2184	0.031821	0.30303	-2.0938	-2.3021	-1.9729	-2.7833	-2.0396	-2.1604	-2.8833	-1.9833	-2.35	-2.4542	-1.9604	-2.8146	-2.0667	-2.2917	-2.7729	-2.05	183.458	84.860	-52.525	244.092	23.921	35.108	33.494	46.665	39.655	123.865	220.088	-5.459	133.349	257.170	151.573	236.184	0.00030109	0.00045498	6.4301e-05	579.24	5.5087e-06	3.0594e-06	604.58	234.84	5.4245e-06	4.7391e-06	287.63	129.25	103.79	51.44	3.6954e-06	71.351	0.00021649	0.00020324	5.7584e-05	566.26	2.3548e-06	2.2267e-06	587.97	227.04	2.3262e-06	2.2502e-06	273.76	122.67	92.02	48.62	2.3803e-06	66.422	286.654	19.832	99.978	-58.235	133.079	151.855	-58.838	-52.468	52.227	53.401	-54.688	-49.670	-46.910	-43.374	84.494	-45.978	-8191	255	
4296.019	1	1	0	0	0.14708	0.085599	0.28061	0.17385	0.084418	0.092202	0.18824	0.12516	0.19015	0.13711	0.26473	0.070661	0.18463	0.33173	0.21708	0.061922	-2.0771	-2.4396	-1.9312	-2.6396	-2.2833	-2.2729	-2.7667	-1.9542	-2.4479	-2.6083	-1.975	-2.775	-2.3083	-2.1854	-2.575	-2.0563	6.979	213.117	282.237	74.561	184.143	-5.548	285.183	176.507	16.883	61.029	279.389	219.058	-8.213	271.515	120.755	-67.557	0.00021224	0.0005273	0.00012222	582.7	1.7716e-06	6.3525e-07	604.8	238.98	4.6059e-06	2.8855e-06	287.79	128.16	102.34	51.32	2.7987e-06	70.576	0.00021097	0.00019843	5.9103e-05	569.72	2.1843e-06	2.1165e-06	591.09	230.07	2.1535e-06	2.1221e-06	274	121.65	90.895	48.404	2.3139e-06	65.401	287.730	48.497	57.386	-58.287	184.532	124.472	-58.331	-52.629	113.435	25.851	-54.764	-49.580	-46.653	-43.548	11.501	-46.063	-8191	255	
4296.115	1	1	0	0	0.069629	0.19252	0.46776	0.20273	0.16477	0.16563	0.1044	0.16332	0.28071	0.15802	0.22105	0.32528	0.2462	0.11018	0.23145	0.18537	-2.0229	-2.4792	-1.7771	-2.7708	-2.3	-2.1833	-2.6479	-2.0479	-2.2292	-2.6208	-1.8958	-2.6521	-2.2646	-1.9917	-2.9125	-2.0875	260.072	45.607	286.442	167.495	266.162	-8.619	232.037	94.381	75.170	56.642	183.879	70.472	79.693	12.758	159.160	-35.502	0.00026498	0.00041467	0.00010009	578.6	6.2075e-06	1.1215e-06	598.56	238.7	5.3517e-06	4.0753e-06	288.3	128.86	104.36	51.957	1.6791e-06	70.462	0.00020064	0.00019231	5.9324e-05	565.18	2.1422e-06	2.1087e-06	585.17	229.04	2.099e-06	2.1603e-06	273.75	121.85	91.672	48.888	2.2729e-06	65.438	-66.606	92.570	31.255	-58.096	111.065	234.758	-58.743	-52.806	33.001	135.448	-54.847	-49.990	-46.883	-43.367	41.990	-46.136	-8191	255	
4296.187	1	1	0	0	0.10581	0.20789	0.22547	0.32599	0.21082	0.067342	0.30085	0.33614	0.23127	0.03536	0.11109	0.15056	0.24695	0.21724	0.13321	0.44401	-1.8979	-2.8	-1.9188	-2.5417	-2.4854	-1.9146	-2.6792	-2.1813	-2.2708	-2.6375	-1.9792	-2.75	-2.5938	-2.0167	-2.5229	-2.1896	108.199	-21.573	-56.157	-61.134	257.777	237.733	205.389	101.184	239.395	200.546	51.309	235.408	-43.607	-26.833	244.629	233.909	0.00028573	0.00016447	0.00021075	579.69	3.1964e-06	3.759e-06	603.13	240.06	5.7033e-06	2.5335e-06	289.87	129.89	105.08	52.356	4.209e-06	71.579	0.00019114	0.00019581	5.8151e-05	565.08	2.0302e-06	2.1612e-06	586.29	229.54	1.9944e-06	2.1867e-06	273.98	122.38	92.406	49.382	2.1972e-06	66.205	266.405	92.777	-0.883	-58.310	136.262	49.304	-58.620	-52.507	68.784	54.149	-54.634	-49.879	-46.916	-43.376	27.445	-46.066	-8191	255	
4296.305	1	1	0	0	0.079122	0.38741	0.18783	0.20952	0.15359	0.081463	0.18619	0.14537	0.11793	0.20585	0.10151	0.43541	0.26188	0.097328	0.12913	0.24383	-1.7229	-2.6708	-1.8312	-2.5062	-2.6104	-1.8875	-2.8396	-2.1063	-1.9625	-2.6604	-2.0583	-2.1854	-2.4437	-2.0062	-2.65	-2.3604	185.467	-49.590	104.694	247.986	201.214	262.864	-10.752	-35.674	-55.280	226.128	-68.249	209.184	283.232	127.470	275.115	281.506	0.00031774	8.7364e-05	0.00013473	580.98	1.4981e-06	3.604e-06	607.11	242.06	2.0132e-06	9.68e-07	293.09	131.79	106.31	53.024	1.5587e-06	72.819	0.00019328	0.00020507	5.637e-05	564.94	2.0479e-06	2.2613e-06	589.68	231.85	2.0382e-06	2.2377e-06	277.51	124	93.165	50.051	2.1145e-06	67.296	242.753	49.166	-15.468	-58.129	104.740	155.639	-58.539	-52.521	49.811	7.944	-54.817	-49.752	-47.275	-43.302	-17.087	-45.923	-8191	255	
4296.402	1	1	0	0	0.25269	0.088809	0.20701	0.17092	0.124	0.25018	0.18015	0.1597	0.19823	0.19289	0.082534	0.17117	0.18684	0.18684	0.10907	0.18103	-1.4896	-2.575	-2.0646	-1.9937	-2.6688	-1.8896	-2.4604	-2.2979	-1.9688	-2.7271	-2.0833	-2.3833	-2.7625	-2.025	-2.5812	-2.8063	277.782	143.150	45.225	263.154	132.208	262.652	246.901	203.684	62.454	4.425	108.912	263.650	178.975	-9.914	-68.678	206.865	0.00030947	0.00034468	0.00015066	590.33	2.0896e-06	5.0666e-06	617.35	243.06	4.5002e-06	4.181e-06	294.24	132.64	106.86	52.899	3.9512e-06	72.275	0.00019407	0.00020126	5.3304e-05	572.48	2.0767e-06	2.2211e-06	596.27	233.7	2.0974e-06	2.2284e-06	278.62	124.59	93.378	49.716	2.0501e-06	66.742	260.732	46.068	-26.082	-57.970	161.537	69.052	-58.604	-52.263	87.795	59.058	-54.614	-49.730	-46.611	-43.346	8.193	-46.213	-8191	255	
4296.498	1	1	0	0	0.14236	0.096911	0.061462	0.24874	0.18715	0.070692	0.30992	0.2229	0.33803	0.14863	0.21934	0.11008	0.081956	0.086935	0.27607	0.071826	-1.2333	-2.6312	-2.1188	-2.0458	-2.7042	-1.8771	-2.3896	-2.5167	-2.0854	-2.5208	-2.2687	-2.2687	-2.7354	-2.1729	-2.5354	-2.6604	131.977	239.567	52.737	20.970	164.683	-20.196	221.172	-59.795	134.552	259.712	162.634	185.762	144.256	272.751	162.360	133.855	0.00034722	0.00022878	3.4577e-05	581.89	2.8302e-06	5.8244e-06	605.15	241.51	3.538e-06	4.2994e-06	291.42	130.64	106.08	52.071	5.3182e-06	70.938	0.0002007	0.00019968	5.2249e-05	564.64	2.1365e-06	2.1634e-06	586.72	231.64	2.1459e-06	2.1208e-06	274.41	123.02	92.805	49.17	2.0334e-06	65.518	267.387	51.273	246.628	-58.039	181.422	32.550	-58.541	-52.686	-61.784	-59.896	-54.900	-49.714	-46.991	-43.191	12.410	-46.042	-8191	255	
4296.594	1	1	0	0	0.33018	0.029624	0.29073	0.24808	0.11726	0.080673	0.19833	0.10082	0.23374	0.16742	0.28317	0.23998	0.20692	0.17853	0.20073	0.15599	-1.5896	-2.5458	-2.2958	-2.0812	-2.7292	-1.9396	-2.2875	-2.6188	-1.7854	-2.6	-2.2521	-2.0729	-2.7458	-2.3729	-2.2208	-2.6229	190.036	62.256	126.149	-41.498	116.341	145.213	-27.844	236.589	42.078	185.559	230.289	24.062	55.251	245.559	187.509	230.437	0.00029861	0.00038517	0.00013959	575.98	6.5326e-06	2.7984e-06	593.89	236.93	2.5794e-06	3.0899e-06	284.71	127.91	103.39	51.014	1.515e-06	69.77	0.00020894	0.00019692	5.2346e-05	560.08	2.2609e-06	2.1442e-06	577.59	226.21	2.2889e-06	2.1514e-06	268.91	120.64	91.699	48.162	2.0611e-06	64.871	262.164	21.170	58.701	-58.476	133.206	94.086	-58.851	-52.657	29.488	97.326	-54.617	-50.027	-47.052	-43.330	107.739	-45.980	-8191	255	
4296.714	1	1	0	0	0.20463	0.1514	0.050433	0.47978	0.10232	0.3127	0.19293	0.068164	0.21081	0.1658	0.24865	0.17619	0.046821	0.61427	0.18684	0.24699	-1.6646	-2.5792	-2.3	-2.0438	-2.8229	-2.1771	-2.5479	-2.8812	-1.8854	-2.4938	-2.5792	-2.1625	-2.7792	-2.2417	-2.1937	-2.8708	-16.304	-53.437	284.574	-60.305	187.890	10.821	61.571	-24.243	42.493	-33.029	135.904	-18.838	167.255	237.275	287.231	219.803	0.00022522	0.00052708	0.00010181	576.46	2.928e-06	2.2761e-06	600.06	236.73	2.5618e-06	1.0106e-06	285.68	127.75	103.79	51.304	3.447e-06	70.361	0.00021954	0.00019489	5.3808e-05	561.92	2.3403e-06	2.1785e-06	580.53	227.58	2.3307e-06	2.166e-06	270.15	121.07	92.122	48.336	2.1281e-06	65.474	264.122	-37.659	52.375	-58.037	126.247	-4.136	-58.718	-52.468	58.782	85.745	-54.989	-49.758	-46.954	-42.925	51.678	-46.214	-8191	255	
4296.786	1	1	0	0	0.24317	0.17309	0.12996	0.18768	0.32214	0.12918	0.11993	0.18844	0.083181	0.083271	0.087559	0.10454	0.026911	0.08483	0.040855	0.27279	-1.4083	-2.2646	-2.5646	-2.0292	-2.6271	-2.3375	-2.3604	-2.6792	-1.8771	-2.3021	-2.5125	-1.9792	-2.4479	-2.4437	-2.0375	-2.8	-7.383	269.213	47.769	101.254	236.259	230.768	104.107	165.980	-46.622	156.482	97.794	172.371	167.203	188.116	-41.610	29.086	0.00021431	0.00027703	0.00012476	575.71	4.5255e-06	2.7998e-06	606.75	240.92	9.9499e-07	2.7079e-06	291.87	131.87	106.1	52.562	1.8503e-06	72.307	0.00021724	0.00019529	5.4066e-05	564.97	2.2985e-06	2.1298e-06	587.01	231.74	2.2365e-06	2.074e-06	275.62	124.14	93.301	49.449	2.1045e-06	66.984	284.763	14.275	36.498	-57.995	156.998	141.510	-58.546	-52.685	111.357	45.436	-54.619	-49.641	-46.797	-43.342	239.989	-46.200	-8191	255	
4296.882	1	1	0	0	0.19195	0.21237	0.15574	0.17489	0.27946	0.26206	0.055264	0.1008	0.17567	0.17552	0.068435	0.39219	0.16464	0.082805	0.15125	0.13585	-1.5375	-2.1792	-2.4354	-2.1208	-2.7375	-2.2396	-2.0896	-2.75	-1.9917	-2.3042	-2.6063	-2.0521	-2.3521	-2.6833	-1.8146	-2.7104	218.306	206.426	178.120	184.636	-17.834	38.987	-34.367	198.875	164.734	57.051	-40.460	264.372	32.073	-36.858	270.002	-59.522	0.00028295	0.00027147	6.0747e-05	579.58	2.2937e-06	3.8369e-06	606.75	241.66	2.4675e-06	1.2346e-06	290.69	130.31	105.73	52.587	3.9488e-06	70.565	0.00020866	0.00018798	5.3816e-05	567.09	2.1633e-06	2.0687e-06	586.44	231.97	2.1202e-06	2.013e-06	274.64	123.01	92.636	49.355	2.1477e-06	65.831	268.452	1.061	55.877	-57.990	138.096	90.109	-58.634	-52.593	-30.153	18.025	-54.643	-49.536	-47.125	-43.160	159.979	-45.955	-8191	255	
4297.003	1	1	0	0	0.090993	0.20392	0.093097	0.24803	0.26454	0.21845	0.16151	0.192	0.059855	0.16213	0.080591	0.11467	0.15334	0.16565	0.30206	0.11092	-1.5146	-2.125	-2.4958	-2.0187	-2.4354	-2.3229	-1.8896	-2.7979	-2.05	-1.9521	-2.7146	-1.8646	-2.4521	-2.5354	-1.8563	-2.6333	-57.312	-34.424	-27.786	241.875	-35.899	51.583	98.558	217.637	262.000	106.937	232.086	4.492	-8.813	183.602	267.092	174.548	0.00025992	0.00047629	0.00016946	579.85	4.4328e-06	2.2157e-06	599.9	240.01	1.4511e-06	1.1402e-06	285.34	128.25	105.59	52.239	3.2872e-06	70.674	0.00019931	0.00018258	5.5874e-05	565.16	2.0979e-06	2.0389e-06	582.29	229.89	2.1078e-06	2.0203e-06	270.54	121.27	92.375	49.099	2.3026e-06	65.57	279.135	19.330	10.155	-58.061	95.399	41.745	-58.516	-52.681	145.586	-15.883	-54.512	-49.696	-46.254	-43.211	77.536	-46.069	-8191	255	
4297.099	1	1	0	0	0.22277	0.097056	0.23064	0.030738	0.073262	0.36598	0.27414	0.14378	0.089219	0.15988	0.10643	0.061545	0.13848	0.28102	0.13472	0.18713	-1.9021	-2.1021	-2.7958	-1.975	-2.4292	-2.4313	-1.8833	-2.6417	-2.2125	-1.9937	-2.5417	-1.9771	-2.3	-2.7979	-1.8	-2.7042	100.844	169.546	82.284	232.379	5.690	210.280	-7.520	217.323	225.149	232.118	31.847	19.406	193.223	232.787	-4.169	1.509	0.00023245	0.00057102	9.8084e-05	582.62	5.3684e-06	4.3436e-06	600.3	241.47	3.013e-06	1.9057e-06	290.8	129.84	107.31	53.221	2.0526e-06	71.917	0.00019944	0.00018987	5.9321e-05	567.97	2.109e-06	2.1005e-06	585.66	231.71	2.1218e-06	2.0986e-06	275.24	122.68	93.541	50.093	2.3022e-06	66.686	270.554	-31.983	-7.925	-58.121	57.887	97.244	-58.668	-52.421	12.461	37.680	-54.572	-49.408	-47.026	-43.347	5.404	-46.149	-8191	255	
4297.195	1	1	0	0	0.091113	0.037758	0.1828	0.23268	0.13922	0.24402	0.15192	0.15681	0.11433	0.11608	0.44561	0.15652	0.10991	0.15668	0.24139	0.33634	-1.9208	-2.0083	-2.7333	-1.95	-2.1104	-2.6729	-2.0062	-2.5667	-2.5	-1.6729	-2.7708	-2.2542	-2.2396	-2.8771	-1.9521	-2.5187	27.727	210.773	254.414	219.477	44.565	245.495	47.632	211.975	276.790	141.904	-68.369	-42.831	258.293	254.545	165.269	276.862	0.00037746	0.00033941	8.533e-05	587.36	3.1438e-06	3.6272e-06	606.79	245.67	3.9649e-06	3.9241e-06	294.92	132.74	107.83	54.229	3.7096e-06	73.295	0.00019265	0.00019226	5.7242e-05	572.1	2.0331e-06	2.1391e-06	590.59	235.41	2.0439e-06	2.1352e-06	278.73	125.13	94.405	50.939	2.224e-06	67.687	278.019	56.567	-17.905	-57.842	121.526	121.781	-58.603	-52.157	80.880	124.956	-54.500	-49.665	-46.719	-43.109	79.579	-46.437	-8191	255	
4297.291	1	1	0	0	0.19714	0.22434	0.17114	0.17971	0.032027	0.18734	0.2113	0.26683	0.21825	0.1441	0.42943	0.10098	0.037352	0.20677	0.29646	0.38227	-1.9438	-1.775	-2.7812	-2.3125	-2.175	-2.7188	-2.1854	-2.3854	-2.5083	-1.9583	-2.7062	-2.2083	-2.1958	-2.7271	-1.8667	-2.3583	152.021	270.110	-51.688	-47.064	-6.790	160.151	235.909	247.440	199.173	-63.498	258.590	264.949	164.557	192.183	1.297	225.580	0.00036596	0.00020046	0.00011396	595.7	5.5663e-06	2.747e-06	615.68	249.06	2.0944e-06	4.6949e-06	298.2	133.66	109.97	54.367	3.1048e-06	73.022	0.00019078	0.00019528	5.4823e-05	576.92	1.9402e-06	2.1061e-06	596.29	237.88	1.9322e-06	2.1469e-06	280.67	125.9	95.287	51.137	2.0875e-06	67.474	280.835	-6.655	-30.279	-57.902	146.676	60.429	-58.250	-52.597	84.119	44.975	-55.015	-49.912	-46.880	-42.827	70.135	-46.166	-8191	255	
4297.386	1	1	0	0	0.046167	0.17255	0.083971	0.37165	0.12942	0.010253	0.105	0.12415	0.078087	0.1193	0.2417	0.15218	0.18583	0.13862	0.1882	0.27107	-2.1396	-1.7646	-2.4333	-2.2021	-1.9708	-2.7125	-2.0812	-2.3063	-2.6792	-2.025	-2.5563	-2.3771	-2.0521	-2.6562	-2.0958	-2.3167	189.953	76.383	266.173	142.749	-64.202	8.515	101.602	132.706	101.912	101.900	245.607	216.959	-35.638	259.066	160.245	265.598	0.00044123	0.00017472	4.5318e-05	584.94	6.003e-06	5.3832e-06	606.59	243.45	2.1727e-06	6.0799e-06	291.85	130.59	107.13	53.394	1.6644e-06	71.592	0.00018727	0.00019784	5.229e-05	568.74	1.9994e-06	2.1623e-06	587.5	233.23	2.0109e-06	2.1815e-06	275.23	123.14	93.853	50.236	2.0627e-06	66.314	262.881	44.718	2.307	-58.025	127.309	58.031	-58.316	-52.554	33.916	65.730	-54.785	-49.641	-47.051	-43.205	145.137	-46.321	-8191	255	
4297.482	1	1	0	0	0.041363	0.26472	0.36527	0.049092	0.1097	0.15901	0.0046316	0.25481	0.18591	0.10265	0.08777	0.11138	0.058059	0.15901	0.37196	0.21364	-2.2375	-1.9312	-2.5375	-2.5208	-2.1813	-2.7083	-2.3104	-2.1417	-2.7333	-1.9083	-2.4458	-2.6188	-1.9333	-2.8812	-2.2208	-2.2729	146.755	234.700	204.386	245.825	-15.292	266.066	22.103	238.648	149.037	41.984	-7.344	196.095	264.044	282.921	52.583	-45.483	0.00039095	0.00042922	0.00021693	588.44	2.006e-06	2.3336e-06	607.91	244.06	3.5839e-06	4.4219e-06	288.99	129.52	105.66	52.579	2.8089e-06	70.87	0.00020112	0.00020365	5.2887e-05	569.67	2.1786e-06	2.2495e-06	588.03	233.66	2.2787e-06	2.3496e-06	274.48	122.16	94.204	49.515	2.3184e-06	65.611	289.401	51.365	15.451	-58.076	91.613	-11.127	-58.493	-52.579	85.856	72.223	-54.726	-49.529	-46.839	-43.428	79.989	-46.116	-8191	255	
4297.603	1	1	0	0	0.27823	0.24838	0.27929	0.25257	0.11516	0.11926	0.11155	0.26038	0.051094	0.25861	0.083129	0.023069	0.11432	0.097081	0.22211	0.24522	-2.3125	-1.8771	-2.2146	-2.5479	-1.9021	-2.6542	-2.1479	-2.3042	-2.5563	-1.9417	-2.3896	-2.5896	-1.9125	-2.7271	-2.2333	-2.1646	-60.614	240.568	-54.501	-57.610	-46.214	94.103	259.024	-50.639	111.420	125.177	215.372	268.022	148.203	142.502	104.486	231.537	0.00046492	0.00050787	0.00013278	581.58	3.6729e-06	2.4828e-06	602.14	241.84	5.2183e-06	3.6402e-06	287.53	130.36	106.5	52.699	1.2646e-06	71.195	0.00023657	0.00022864	5.9107e-05	568.84	2.5534e-06	2.4631e-06	586.55	232.19	2.5442e-06	2.458e-06	274.65	122.87	95.166	49.759	2.3401e-06	66.143	267.299	-4.476	15.999	-57.983	175.743	101.885	-58.839	-52.816	134.125	63.337	-54.743	-49.577	-46.510	-43.323	64.798	-46.113	-8191	255	
4297.699	1	1	0	0	0.11788	0.055782	0.088313	0.21357	0.11405	0.19397	0.065999	0.029724	0.3367	0.10563	0.060475	0.063039	0.097409	0.30735	0.1524	0.16066	-2.3896	-2.1458	-2.325	-2.6437	-1.775	-2.6375	-2.5396	-1.8188	-2.8479	-2.0729	-2.0979	-2.7375	-1.975	-2.7229	-2.3375	-1.9417	94.438	-28.643	37.494	233.699	226.731	189.456	152.910	223.612	-53.035	97.903	209.940	245.457	89.920	250.349	277.162	220.766	0.00032516	0.00029078	7.1299e-05	582.89	4.1015e-06	3.3962e-06	604.05	241.94	4.7353e-06	5.6466e-06	291.38	129.37	104.94	52.298	3.6041e-06	70.916	0.0002461	0.00022748	6.0129e-05	571.61	2.7047e-06	2.522e-06	591.48	233.74	2.7737e-06	2.6036e-06	276.54	123.56	95.814	49.644	2.5244e-06	66.201	262.095	3.142	16.130	-57.951	120.944	83.311	-58.742	-52.483	144.559	77.766	-54.778	-49.818	-46.694	-43.016	-13.387	-46.296	-8191	255	
4297.795	1	1	0	0	0.17675	0.18126	0.28745	0.27467	0.05899	0.25826	0.037525	0.16463	0.22497	0.22933	0.17073	0.14485	0.024427	0.18181	0.10642	0.15153	-2.225	-2.1104	-1.9354	-2.7875	-1.8438	-2.4542	-2.7583	-1.9438	-2.8458	-2.1583	-2.2417	-2.9396	-1.8479	-2.475	-2.5229	-2.1083	-44.765	66.632	64.410	-55.222	43.011	-56.441	-32.774	234.494	97.368	18.387	200.176	14.720	176.133	214.788	14.305	243.502	0.00028574	0.00038177	0.000119	580.17	2.8324e-06	6.9148e-06	598.72	240.82	6.6912e-06	3.9933e-06	284.54	128.07	105.74	51.929	1.3935e-06	69.205	0.00025566	0.00023048	6.1921e-05	570.57	2.6938e-06	2.4835e-06	584.2	232.63	2.6421e-06	2.4582e-06	271.33	121.62	94.454	49.065	2.5098e-06	64.964	267.378	22.519	55.568	-57.837	178.688	63.781	-58.429	-52.390	78.267	17.439	-54.588	-49.506	-47.251	-43.056	95.666	-45.968	-8191	255	
4297.891	1	1	0	0	0.16003	0.23351	0.20414	0.019909	0.17122	0.26058	0.29471	0.094097	0.15726	0.04336	0.029575	0.093358	0.14787	0.23235	0.14666	0.24804	-2.3063	-2.1562	-1.9354	-2.6937	-1.7938	-2.2354	-2.5958	-2.0333	-2.4333	-2.2104	-2.0312	-2.7271	-2.0438	-2.2313	-2.575	-1.9583	202.554	184.947	187.476	133.557	249.215	-21.353	212.989	70.483	257.943	-18.660	8.285	186.386	-31.615	277.465	35.814	226.582	0.00035538	2.7848e-05	2.6915e-05	576.89	6.1e-06	3.6828e-06	592.41	238.16	3.1273e-06	2.3458e-06	283.8	127.25	104.93	51.785	2.8352e-06	69.563	0.00024749	0.0002331	6.5016e-05	568.77	2.6666e-06	2.482e-06	579.58	231.8	2.5659e-06	2.4765e-06	270.88	121.47	93.884	48.928	2.5809e-06	65.052	260.468	-0.652	-26.907	-57.885	66.510	138.619	-58.384	-52.614	117.294	74.410	-54.772	-49.771	-46.779	-43.086	30.005	-46.057	-8191	255	
4298.012	1	1	0	0	0.169	0.04075	0.21307	0.15802	0.10506	0.15256	0.11535	0.1482	0.20218	0.18648	0.032362	0.23872	0.19724	0.3172	0.16349	0.056471	-2.2271	-2.2792	-1.8687	-2.6813	-1.925	-2.0292	-2.6896	-2.0333	-2.4354	-2.3042	-2	-2.5979	-2.0312	-2.3271	-2.5792	-1.8479	206.357	71.452	151.308	143.563	-59.524	258.821	16.715	212.476	88.353	-68.436	268.119	-35.762	13.320	-26.282	87.952	160.388	0.00034076	0.00038832	7.7144e-05	579.87	7.3457e-06	2.1596e-06	603.19	241.56	4.7556e-06	3.5837e-06	288.28	129.61	106.24	52.703	3.8552e-06	70.815	0.00023632	0.00022075	6.5344e-05	570.95	2.5315e-06	2.4047e-06	588.36	233.91	2.4758e-06	2.4197e-06	275.96	123.12	94.908	49.759	2.574e-06	66.148	275.823	132.331	-11.409	-57.917	156.931	22.433	-58.456	-52.470	32.623	24.108	-55.074	-49.967	-46.776	-43.445	67.190	-45.998	-8191	255	
4298.083	1	1	0	0	0.21472	0.11391	0.14935	0.19137	0.19908	0.2143	0.22985	0.29204	0.071619	0.25025	0.063397	0.083668	0.15208	0.12586	0.22443	0.26132	-1.9917	-2.4292	-1.6875	-2.7042	-1.9813	-2.1958	-2.7833	-2.0812	-2.3542	-2.5479	-2.0396	-2.6437	-2.1354	-1.9229	-2.4938	-1.9	57.611	217.809	41.519	87.819	81.779	119.299	189.902	215.115	113.768	-18.774	199.923	83.856	273.834	257.835	253.720	227.371	0.00022579	0.00045338	5.3682e-05	587.95	5.7306e-07	3.075e-06	610.38	247.35	3.071e-06	3.928e-06	295.22	131.24	107.95	53.159	2.3969e-06	71.82	0.00022331	0.00021292	6.5497e-05	577.24	2.3612e-06	2.2944e-06	597.08	238.14	2.3398e-06	2.3579e-06	281.46	124.58	95.886	50.246	2.6254e-06	66.757	265.224	34.285	11.641	-58.082	247.715	137.782	-58.354	-52.422	129.070	67.243	-54.920	-49.574	-46.494	-43.214	82.700	-46.164	-8191	255	
4298.179	1	1	0	0	0.16138	0.069694	0.23662	0.19557	0.14103	0.22512	0.064562	0.30213	0.2046	0.11416	0.196	0.11909	0.16202	0.05452	0.099584	0.15889	-1.8792	-2.4021	-1.7167	-2.6104	-2.4625	-2	-2.5917	-2.0896	-2.2021	-2.5167	-1.95	-2.6063	-2.4062	-2.0312	-2.6833	-2.1583	136.094	-40.732	192.892	273.186	48.397	-45.764	201.088	235.071	-50.039	-28.432	151.446	277.649	283.507	-15.982	201.701	144.244	0.00034195	0.00040591	0.00011823	586.31	2.5681e-06	3.4436e-06	606.05	241.51	5.0562e-06	2.2528e-06	284.87	127.48	103.68	51.211	2.649e-06	69.29	0.00021956	0.00022305	6.6759e-05	574.55	2.4023e-06	2.4683e-06	592.2	233.06	2.3834e-06	2.554e-06	274.13	121.14	93.047	48.588	2.8464e-06	64.448	287.751	26.792	-36.440	-58.267	135.371	38.027	-58.585	-52.195	68.149	-0.831	-54.508	-49.574	-46.800	-43.072	119.586	-46.139	-8191	255	
4298.276	1	1	0	0	0.038114	0.12382	0.13163	0.097223	0.10379	0.20488	0.044912	0.24414	0.10362	0.16644	0.079908	0.10089	0.26486	0.25987	0.021053	0.33955	-1.9521	-2.6042	-1.8208	-2.4958	-2.5062	-1.7687	-2.8875	-2.1792	-2.0333	-2.6667	-1.7896	-2.3833	-2.5646	-1.9833	-2.5979	-2.3	102.335	153.677	-10.311	-60.666	229.759	100.817	-49.279	133.432	-58.003	33.493	-18.246	91.525	251.120	279.343	108.549	146.795	0.00032268	0.0002592	2.0667e-05	577.64	2.9581e-06	4.2013e-06	594.79	236.54	6.8419e-06	4.3949e-06	280.88	124.92	103	50.608	5.2666e-07	68.33	0.00023928	0.0002547	7.327e-05	567.63	2.5778e-06	2.8161e-06	583.52	228.65	2.5626e-06	2.822e-06	269.25	119.04	92.608	48.217	2.7441e-06	63.767	273.622	175.168	13.596	-58.129	121.340	235.352	-58.696	-52.497	112.013	-32.959	-54.468	-49.561	-46.630	-43.150	225.347	-46.200	-8191	255	
4298.394	1	1	0	0	0.094709	0.15951	0.05216	0.24145	0.27702	0.19023	0.22892	0.26549	0.26672	0.13122	0.2584	0.12559	0.21861	0.056385	0.29749	0.057922	-1.7521	-2.5583	-1.8896	-2.3458	-2.4375	-2.0125	-2.8667	-2.2812	-2.0104	-2.6771	-1.8375	-2.4667	-2.4833	-1.9688	-2.4938	-2.3458	284.731	182.403	151.561	21.311	120.854	79.202	188.228	190.003	-42.504	65.824	272.851	216.562	283.317	215.168	-67.846	169.582	0.00031594	0.00014683	5.659e-05	576.4	1.4192e-06	2.2225e-06	594.5	238.33	1.4704e-06	3.7406e-06	285.19	127.97	105.13	51.907	4.2338e-06	70.144	0.00023702	0.00025529	6.8086e-05	565.24	2.4698e-06	2.669e-06	580.58	230.2	2.3543e-06	2.5816e-06	272.55	121.27	93.487	49.132	2.3373e-06	65.034	282.662	234.765	101.614	-57.812	141.593	36.975	-58.609	-51.992	28.581	148.419	-54.757	-49.917	-46.836	-43.246	-17.089	-46.099	-8191	255	
4298.491	1	1	0	0	0.13408	0.34241	0.0689	0.23021	0.043726	0.10943	0.08231	0.16473	0.085891	0.24886	0.22207	0.12719	0.12643	0.20384	0.12656	0.18557	-1.6021	-2.5	-1.8667	-2.1104	-2.7792	-1.9792	-2.3604	-2.2875	-1.7875	-2.4562	-2.2	-2.1688	-2.6292	-1.8729	-2.45	-2.5479	-41.680	135.574	155.095	31.116	-8.657	75.323	219.890	218.840	246.740	-23.441	-59.354	109.308	0.624	-54.965	48.779	213.821	0.0002787	0.00047888	0.00013126	580.53	2.7024e-06	5.342e-06	602.93	243.55	3.6083e-06	4.8024e-06	294.8	130.59	106.89	52.874	4.6023e-06	71.775	0.00021655	0.00022725	5.8902e-05	566.79	2.3443e-06	2.4241e-06	587.37	233.81	2.3332e-06	2.3977e-06	277.67	123.29	94.738	49.902	2.1592e-06	66.281	262.638	4.572	26.122	-58.195	204.965	95.657	-58.513	-52.519	30.641	43.881	-54.653	-49.590	-47.163	-43.414	33.295	-46.230	-8191	255	
4298.587	1	1	0	0	0.18302	0.21776	0.19003	0.057557	0.33268	0.079187	0.19928	0.11329	0.14417	0.092507	0.24873	0.19678	0.25781	0.19374	0.22448	0.23339	-1.5271	-2.6583	-2.0187	-2.2604	-2.5583	-1.8979	-2.3146	-2.6146	-1.8021	-2.7438	-2.25	-2.0479	-2.675	-2	-2.1625	-2.6146	190.195	114.324	-5.940	276.081	-43.741	219.976	62.478	-40.042	-11.753	177.508	163.397	-25.607	248.434	280.603	-53.839	190.993	0.00044727	0.00058371	8.1377e-05	589.64	2.0561e-06	5.912e-06	613.64	247.52	5.0969e-06	3.9172e-06	296.29	131.25	106.15	52.282	1.4846e-06	70.282	0.0002136	0.00020369	5.4019e-05	571.58	2.2355e-06	2.2033e-06	594.3	236.47	2.2395e-06	2.1563e-06	278.37	123.22	94.041	49.23	2.0406e-06	65.412	271.578	34.298	-13.979	-57.939	4.808	69.557	-58.519	-52.314	98.121	97.806	-54.633	-49.569	-46.455	-43.220	116.935	-46.194	-8191	255	
4298.683	1	1	0	0	0.30288	0.095147	0.22001	0.18509	0.1104	0.11414	0.15171	0.15668	0.1535	0.19677	0.083036	0.35475	0.20781	0.15735	0.021973	0.013066	-1.4833	-2.5771	-2.2062	-1.9979	-2.6167	-1.8792	-2.1896	-2.8167	-1.7917	-2.5312	-2.4875	-1.8917	-2.6729	-2.0417	-2.0042	-2.6458	35.739	30.385	105.360	253.418	91.737	268.210	243.373	185.153	66.510	11.537	248.440	-63.630	265.579	226.035	287.886	80.136	0.00037417	0.00042015	5.6177e-05	577.84	5.9134e-06	6.131e-06	600.63	240.43	4.0738e-06	4.5816e-06	287.72	127.64	104.11	50.936	3.7903e-06	68.949	0.00021147	0.00019304	5.1539e-05	562.36	2.2619e-06	2.11e-06	581.19	229.97	2.2144e-06	2.0553e-06	270.73	119.86	91.623	47.909	1.9464e-06	63.997	276.008	12.995	17.079	-58.086	142.816	97.499	-58.709	-52.506	27.049	17.754	-54.946	-49.907	-46.777	-43.138	-31.643	-46.236	-8191	255	
4298.779	1	1	0	0	0.17581	0.14681	0.11726	0.099428	0.11589	0.16885	0.094604	0.1163	0.057141	0.17122	0.097179	0.098252	0.079688	0.15093	0.19708	0.11616	-1.4292	-2.225	-2.4354	-1.8667	-2.5375	-1.9354	-2.2292	-2.7542	-2.0208	-2.3708	-2.4958	-1.9708	-2.6688	-2.1521	-1.9854	-2.7875	128.652	22.404	225.700	-64.397	251.773	164.740	61.717	249.515	-61.918	17.458	-1.347	165.562	219.923	193.329	-60.579	-11.198	0.00026021	0.00023014	2.5991e-05	570.21	3.4023e-06	4.8944e-06	599.21	236.74	3.1056e-06	3.4542e-06	286.32	126.36	103.53	50.461	1.8357e-06	69.284	0.00020531	0.0001852	5.018e-05	558.46	2.1708e-06	2.0531e-06	578.15	228.21	2.1799e-06	2.0432e-06	269.55	119.69	91.053	47.668	1.9827e-06	64.285	263.778	6.224	253.230	-58.145	107.497	92.613	-58.642	-52.523	126.601	42.762	-54.666	-50.129	-46.833	-43.312	26.664	-46.050	-8191	255	
4298.875	1	1	0	0	0.13926	0.041119	0.1728	0.12882	0.1227	0.21598	0.14264	0.20774	0.15873	0.20174	0.14951	0.11737	0.17654	0.14863	0.016896	0.1972	-1.4208	-2.4542	-2.4458	-1.8333	-2.6688	-2.2417	-2.0604	-2.7479	-1.9583	-2.25	-2.6417	-2.0479	-2.6521	-2.5271	-1.9937	-2.6396	77.886	55.765	94.245	190.148	213.926	80.056	-37.051	160.173	201.322	-27.263	25.581	208.034	124.598	191.679	-13.996	255.879	0.00030003	0.00038409	2.9409e-05	576.31	5.5048e-06	2.8987e-06	597.63	237.48	7.5329e-06	3.2731e-06	286.78	127.18	102.3	50.662	5.0411e-07	69.862	0.00020272	0.00018809	5.1941e-05	562.2	2.1737e-06	2.0471e-06	580.46	228.79	2.1576e-06	2.0595e-06	270.52	120.46	90.856	47.779	2.1292e-06	64.721	278.556	56.840	100.792	-58.246	109.383	72.039	-58.436	-52.394	-5.581	-5.748	-54.631	-49.689	-47.128	-43.127	228.703	-46.058	-8191	255	
4298.971	1	1	0	0	0.19419	0.14515	0.1678	0.14411	0.34413	0.056494	0.085234	0.22201	0.27642	0.10376	0.22334	0.47061	0.12968	0.19884	0.027302	0.069086	-1.6479	-2.0833	-2.5396	-1.9854	-2.5438	-2.325	-1.9854	-2.7833	-2.0854	-2.1104	-2.7604	-1.9792	-2.4729	-2.4167	-2.0104	-2.7687	234.587	158.837	247.516	231.060	182.265	204.192	112.228	-51.772	21.627	191.444	-15.839	10.571	208.321	199.775	105.954	176.896	0.00022047	0.00017215	0.00010169	576.52	3.4613e-06	4.5551e-06	603.27	240.81	5.2868e-06	9.8093e-07	293.36	130.02	105.55	51.802	2.3361e-06	70.731	0.00020201	0.00018347	5.4669e-05	563.59	2.1177e-06	2.0202e-06	586.2	230.79	2.0883e-06	2.0178e-06	275.44	122.77	92.179	48.677	2.1765e-06	65.712	251.474	79.862	160.220	-58.381	109.073	31.832	-58.900	-52.321	120.091	-28.563	-54.793	-49.626	-46.636	-43.221	101.659	-46.501	-8191	255	
4299.092	1	1	0	0	0.051188	0.015549	0.17728	0.11005	0.10146	0.075871	0.19999	0.27041	0.31147	0.13927	0.14373	0.19336	0.037938	0.262	0.27567	0.12834	-1.825	-1.925	-2.6417	-1.7896	-2.4917	-2.5062	-1.8792	-2.8771	-2.0979	-2.0479	-2.7854	-1.9583	-2.2604	-2.5938	-1.8271	-2.6646	154.307	-48.334	242.042	191.617	110.184	68.627	-25.026	224.627	62.508	-47.452	270.712	251.540	-13.397	270.216	71.947	-65.180	0.00027373	0.00021395	0.00017293	577.41	3.1496e-06	2.4857e-06	605.12	241.1	3.7665e-06	8.3116e-07	290.28	129.04	104.82	51.543	1.5906e-06	69.961	0.00019469	0.00017896	5.5143e-05	563.16	1.9992e-06	1.952e-06	585.09	230.74	1.9967e-06	1.9195e-06	273.62	121.5	91.522	48.481	2.1605e-06	64.721	254.724	22.085	26.522	-57.978	154.538	83.592	-58.748	-52.411	50.710	-33.530	-54.898	-49.626	-46.997	-43.227	75.600	-46.065	-8191	255	
4299.188	1	1	0	0	0.11787	0.13619	0.22446	0.20835	0.1941	0.41215	0.17599	0.067906	0.040705	0.11358	0.15245	0.15184	0.020542	0.20243	0.32594	0.16796	-1.9354	-2.0396	-2.7854	-1.9062	-2.1833	-2.5854	-1.8146	-2.5396	-2.3521	-1.9312	-2.6458	-2.0271	-2.1646	-2.5687	-1.8771	-2.6458	-18.283	63.178	14.491	-44.772	-30.739	174.750	-13.188	161.766	198.239	251.038	271.698	-54.593	220.166	169.229	63.283	243.425	0.0003084	0.00025572	0.00019943	574.09	1.7655e-06	2.2433e-06	594.14	239.05	7.922e-06	2.8543e-06	287.85	127.1	104.55	51.356	6.1421e-06	69.855	0.00018685	0.00017868	5.5409e-05	560.09	1.9093e-06	1.9555e-06	581.38	229.32	1.9428e-06	1.9835e-06	271.6	120.25	90.835	48.269	2.2133e-06	64.511	275.421	89.815	22.000	-57.677	60.304	131.740	-58.825	-52.478	99.547	160.312	-54.548	-49.603	-46.577	-43.164	52.351	-46.067	-8191	255	
4299.284	1	1	0	0	0.10992	0.19719	0.27891	0.45173	0.14735	0.014661	0.10444	0.047046	0.064553	0.049394	0.23493	0.15011	0.095848	0.2311	0.21044	0.39008	-1.925	-1.8792	-2.6375	-2.2729	-1.9167	-2.6396	-1.9833	-2.5667	-2.3375	-1.8167	-2.6208	-2.2083	-2.1771	-2.7271	-1.9104	-2.4271	111.578	83.383	3.118	-40.576	59.713	56.109	-46.151	225.213	77.333	-49.152	234.868	103.752	114.351	-42.911	163.130	254.425	0.00034286	0.00021502	0.00017679	580.49	6.6724e-07	2.5358e-06	603.96	240.87	1.3019e-06	4.5057e-06	288.95	128.38	103.72	51.516	3.1404e-06	70.2	0.00018652	0.00019078	5.5326e-05	563.46	1.9429e-06	2.1227e-06	586.1	230.23	1.994e-06	2.138e-06	272.56	120.93	91.454	48.516	2.2059e-06	64.833	275.647	131.771	11.637	-58.284	34.015	105.840	-58.427	-52.593	117.233	62.910	-54.885	-49.783	-46.492	-43.193	102.697	-46.139	-8191	255	
4299.380	1	1	0	0	0.13185	0.31918	0.19694	0.20692	0.20619	0.058881	0.12822	0.15367	0.12203	0.020637	0.17123	0.25061	0.11218	0.19797	0.15893	0.15725	-2.1979	-1.825	-2.5458	-2.2313	-2.025	-2.7146	-1.9896	-2.4667	-2.5479	-2.0417	-2.6458	-2.3979	-1.9729	-2.7146	-1.8354	-2.4458	48.122	-2.777	32.801	53.065	260.744	12.751	243.693	252.601	206.552	160.027	170.749	124.791	161.927	251.054	192.077	271.582	0.00028448	0.00041645	0.00010128	583.69	1.6257e-06	2.9503e-06	605.2	240.63	5.5124e-06	4.5738e-06	287.88	129.21	105	51.302	3.3383e-06	70.356	0.00019406	0.00020628	5.7093e-05	566.53	2.0872e-06	2.3138e-06	589.34	230.58	2.1568e-06	2.4038e-06	272.88	121.4	92.559	48.592	2.313e-06	64.994	272.807	36.434	31.375	-57.551	6.436	-26.633	-58.858	-52.560	107.126	37.587	-54.806	-49.352	-47.249	-43.106	52.502	-46.196	-8191	255	
4299.475	1	1	0	0	0.089358	0.23782	0.1352	0.22776	0.089346	0.006726	0.093795	0.065171	0.16191	0.29872	0.13197	0.14066	0.078899	0.09675	0.13684	0.11924	-2.0896	-1.7771	-2.4729	-2.4333	-1.9125	-2.7125	-2.1688	-2.4688	-2.7188	-1.8667	-2.5667	-2.4	-1.825	-2.6188	-1.9646	-2.1021	69.379	91.089	57.924	261.256	-41.095	243.757	215.288	22.386	62.200	136.010	289.469	214.901	252.812	-43.406	228.029	220.304	0.00030713	0.00056127	6.7349e-05	579.23	3.3793e-06	2.1042e-06	601.45	235.2	3.4603e-06	2.7202e-06	283.71	126.74	102.84	50.847	3.4885e-06	68.693	0.00021498	0.00022976	5.9102e-05	564.91	2.3469e-06	2.5303e-06	584.51	227.38	2.3655e-06	2.473e-06	269.13	119.73	91.272	47.966	2.2847e-06	63.799	262.537	51.038	20.868	-58.090	175.525	-10.759	-58.408	-51.997	108.467	16.782	-54.766	-49.401	-46.813	-42.777	68.947	-46.371	-8191	255	
4299.571	1	1	0	0	0.13942	0.061533	0.094646	0.23675	0.16045	0.10911	0.054814	0.079337	0.16192	0.13771	0.46775	0.19453	0.20836	0.1495	0.1765	0.19091	-2.2062	-1.9438	-2.2792	-2.4042	-1.8937	-2.5312	-2.1604	-2.3104	-2.6146	-1.9312	-2.1958	-2.375	-1.5854	-2.6458	-2.0708	-2.0625	181.084	64.721	260.506	268.308	155.850	220.090	97.282	39.119	-61.756	249.304	280.759	-64.930	-41.637	66.266	214.514	204.835	0.00040494	0.00042064	3.8543e-05	571.49	5.1965e-06	5.3086e-06	591.87	236.24	4.0391e-06	4.796e-06	280.95	126.19	103.77	50.661	2.5358e-06	68.849	0.0002227	0.00022072	5.6895e-05	558.22	2.4027e-06	2.3528e-06	575.7	226.11	2.3776e-06	2.3533e-06	266.99	118.65	91.864	47.9	2.1821e-06	63.544	242.775	26.024	11.064	-57.814	172.287	81.169	-58.447	-52.267	98.955	57.221	-54.742	-49.388	-47.048	-43.079	48.121	-45.905	-8191	255	
4299.692	1	1	0	0	0.15308	0.16321	0.2255	0.14213	0.061092	0.020929	0.024456	0.1321	0.25838	0.13318	0.082667	0.096883	0.083673	0.40973	0.20372	0.29697	-2.1958	-2.0167	-2.1708	-2.4833	-1.9229	-2.4458	-2.3292	-2.0292	-2.7271	-1.9438	-2.2313	-2.5208	-1.7792	-2.5333	-2.2875	-1.9312	-21.196	104.100	213.312	-32.231	144.441	284.409	265.902	118.860	283.409	254.701	191.346	122.218	132.504	273.281	39.913	191.404	0.00024252	0.00045338	8.6452e-05	574.48	4.1282e-07	6.4076e-06	597.16	238.35	2.0244e-06	5.3245e-06	287.65	127.12	105.34	51.389	1.7635e-06	69.352	0.00022246	0.00020623	5.2824e-05	560.61	2.3172e-06	2.1751e-06	579.63	228.88	2.3014e-06	2.1391e-06	270.14	120.19	92.458	48.33	2.0884e-06	64.252	263.078	5.029	45.917	-58.022	-35.359	53.176	-58.546	-52.453	166.968	29.712	-54.747	-49.631	-46.824	-43.174	129.940	-46.170	-8191	255	
4299.788	1	1	0	0	0.15184	0.23529	0.14481	0.49653	0.1866	0.10339	0.31314	0.071935	0.025843	0.14849	0.10536	0.077977	0.23362	0.13515	0.072789	0.28604	-2.3312	-1.9271	-1.9937	-2.4646	-1.8062	-2.5792	-2.3271	-2.0312	-2.4146	-2.0542	-2.2958	-2.7104	-1.7667	-2.3771	-2.2417	-1.8479	82.689	109.916	72.624	-67.845	185.381	117.642	199.900	262.035	174.048	93.783	244.688	-66.458	205.680	244.792	107.912	-69.569	0.00024421	0.0001279	0.00012142	577.75	4.4332e-06	2.8279e-06	602.05	238.71	2.0553e-06	8.2583e-07	285.62	127.31	103.49	51.246	1.6175e-06	69.155	0.00021546	0.0001969	5.2203e-05	564.29	2.3125e-06	2.1564e-06	584.69	230.24	2.3321e-06	2.2027e-06	271.15	120.78	92.428	48.247	2.2619e-06	64.492	267.775	-20.471	-28.589	-57.798	127.885	175.857	-58.814	-52.540	12.530	205.893	-54.806	-49.569	-46.554	-43.175	251.449	-46.172	-8191	255	
4299.884	1	1	0	0	0.25313	0.14338	0.2773	0.19759	0.22795	0.25043	0.20414	0.083462	0.15536	0.19163	0.1041	0.048926	0.23065	0.19728	0.10529	0.092757	-2.1208	-2.1021	-1.9021	-2.8187	-1.8583	-2.4646	-2.4458	-1.7125	-2.4125	-2.1646	-1.775	-2.6229	-1.9083	-2.2979	-2.5333	-1.85	261.241	198.118	273.986	245.683	230.401	36.961	188.842	-22.001	-45.549	45.685	213.944	30.620	-59.233	-68.335	225.067	202.088	0.0003523	0.00045181	6.3823e-05	580.48	1.7835e-06	7.3175e-07	604.38	234.29	4.9379e-06	3.652e-06	281.62	124.93	101.42	49.897	3.7592e-06	67.257	0.0002336	0.00021712	5.9668e-05	568.46	2.6203e-06	2.4355e-06	587.88	227.75	2.6471e-06	2.5585e-06	268.46	119.47	91.977	47.245	2.6676e-06	63.272	275.750	77.838	287.817	-57.840	218.288	122.723	-58.293	-52.344	37.392	7.546	-55.030	-49.699	-46.975	-43.031	-69.597	-45.900	-8191	255	
4299.956	1	1	0	0	0.089375	0.03551	0.087276	0.075691	0.22043	0.077063	0.089461	0.1518	0.078235	0.39707	0.087898	0.18561	0.083594	0.22217	0.091788	0.21069	-2.1667	-2.1375	-1.8333	-2.6083	-2.0625	-2.1625	-2.6292	-1.8667	-2.5542	-2.4292	-2.0062	-2.7208	-2.1042	-2.3229	-2.5833	-2.0479	286.834	59.221	181.657	165.720	253.539	28.204	173.212	225.387	219.113	254.970	161.596	267.407	18.346	253.398	29.903	205.658	0.00030428	0.00035717	9.2229e-05	568.58	6.5096e-06	3.3005e-06	584.75	228.06	4.3956e-06	4.9336e-06	271.89	122.18	99.148	48.994	4.1329e-06	66.736	0.00025816	0.00024236	6.8965e-05	562.11	2.7364e-06	2.5701e-06	576.22	222.05	2.641e-06	2.552e-06	261.66	116.73	89.99	46.449	2.7174e-06	62.253	278.760	74.578	88.243	-57.971	136.535	253.183	-58.725	-52.204	14.103	5.023	-54.824	-49.437	-46.985	-43.201	36.771	-46.162	-8191	255	
4300.076	1	1	0	0	0.14487	0.18775	0.58813	0.040837	0.16303	0.12844	0.28449	0.1174	0.17262	0.05946	0.067733	0.27898	0.14531	0.30166	0.12108	0.14355	-2.1813	-2.4188	-1.8792	-2.7729	-2.1896	-2.1583	-2.9396	-1.9583	-2.5667	-2.5396	-1.9667	-2.7604	-2.1125	-1.9917	-2.7812	-2.0667	197.928	3.999	153.312	83.681	118.959	225.597	-48.612	-62.461	-53.100	149.434	248.214	-56.352	164.664	-4.187	171.781	177.832	0.00035759	0.00066555	4.9767e-05	567.45	3.2596e-06	3.3319e-06	585	231.42	1.4043e-06	1.9846e-06	275.56	123.01	101.11	49.766	5.2548e-06	67.504	0.00023973	0.00022752	6.8083e-05	557.77	2.594e-06	2.4962e-06	574.9	224.1	2.5175e-06	2.4712e-06	265.12	117.59	90.883	47.085	2.6804e-06	63.093	266.556	-44.108	254.957	-58.191	136.932	66.114	-58.214	-52.358	-17.792	16.238	-54.765	-49.563	-46.624	-43.186	28.635	-46.054	-8191	255	
4300.172	1	1	0	0	0.13558	0.13983	0.10811	0.23027	0.21163	0.060269	0.24431	0.24706	0.089617	0.061384	0.23134	0.017331	0.1436	0.077796	0.21291	0.14516	-1.8563	-2.3354	-1.7229	-2.6333	-2.3333	-2.0625	-2.7042	-2.0708	-2.3229	-2.6854	-1.8354	-2.5854	-2.4083	-2.1167	-2.9688	-2.1625	109.886	190.450	257.480	240.968	105.987	155.194	160.292	90.992	266.730	180.597	237.078	244.853	183.440	255.115	82.408	237.235	0.00035665	7.4839e-05	0.00010199	570.78	1.9286e-06	2.2759e-06	594.74	236.71	2.6795e-06	9.9527e-07	283.31	126.57	103.36	50.875	5.517e-06	69.232	0.00022613	0.00021729	6.711e-05	560.94	2.3769e-06	2.3699e-06	581.45	228.34	2.3002e-06	2.3581e-06	271.1	119.86	92.231	48.262	2.6393e-06	64.3	255.182	121.318	30.657	-57.688	176.272	17.094	-58.485	-52.302	112.362	84.505	-54.882	-49.529	-46.845	-43.118	97.815	-45.744	-8191	255	
4300.269	1	1	0	0	0.165	0.2061	0.19498	0.081084	0.15692	0.11264	0.20824	0.056454	0.11564	0.11024	0.16755	0.48119	0.13135	0.19181	0.12481	0.21186	-1.7021	-2.3854	-1.7188	-2.5792	-2.3021	-1.9813	-2.5896	-2.2188	-2.0958	-2.6437	-1.7313	-2.5938	-2.375	-1.8563	-2.7396	-2.1792	166.890	246.835	120.226	46.160	123.903	232.088	200.843	-29.228	193.427	46.879	205.577	212.034	186.698	-46.289	56.370	211.856	0.00031168	0.00014907	5.4779e-05	579.08	2.1425e-06	1.0802e-06	604.74	240.88	8.4294e-06	5.5421e-07	291.61	129.04	106.49	52.07	6.0663e-06	70.082	0.00021746	0.0002218	6.78e-05	567.56	2.3365e-06	2.4734e-06	591.12	232.43	2.3061e-06	2.4734e-06	277.11	122.4	93.689	49.241	2.5448e-06	65.36	281.372	108.883	287.209	-58.306	121.331	21.056	-58.535	-52.299	90.996	-6.310	-54.962	-49.636	-47.227	-43.258	61.809	-45.977	-8191	255	
4300.365	1	1	0	0	0.17746	0.092475	0.13821	0.24374	0.27434	0.04806	0.12754	0.068443	0.10125	0.33017	0.24629	0.019622	0.053684	0.14137	0.30033	0.091757	-1.6771	-2.5521	-1.8875	-2.4208	-2.4	-1.8771	-2.6063	-2.2021	-2.225	-2.6813	-2.0687	-2.2812	-2.3521	-2.0229	-2.6813	-2.5125	82.144	163.181	161.815	259.973	5.908	166.871	171.832	118.190	287.027	18.874	-4.499	127.480	273.374	221.466	54.350	-41.534	0.00027794	0.00029831	9.9147e-05	585.29	4.0691e-06	5.7671e-06	607.39	242.56	1.2469e-06	2.1545e-06	290.63	129.62	106.28	52.267	3.0587e-06	70.225	0.00021409	0.00022979	6.3719e-05	571.94	2.3144e-06	2.5463e-06	592.21	233.81	2.2741e-06	2.5222e-06	275.97	121.93	93.692	49.431	2.3597e-06	65.029	267.566	54.328	20.421	-58.205	117.302	102.286	-58.720	-52.201	145.399	61.462	-54.627	-49.803	-46.646	-43.226	194.577	-46.196	-8191	255	
4300.484	1	1	0	0	0.26704	0.063133	0.18553	0.21534	0.2303	0.14907	0.074611	0.06791	0.15447	0.24729	0.043011	0.12687	0.18972	0.20479	0.11282	0.13914	-1.6	-2.6708	-1.9208	-2.3354	-2.4208	-1.8229	-2.6208	-2.3292	-2.1688	-2.7271	-2.1396	-2.2479	-2.5833	-2.0042	-2.4146	-2.3937	222.139	117.811	208.528	234.166	164.388	-1.011	-8.892	286.673	16.083	155.986	1.059	-67.383	230.568	236.472	-38.809	102.045	0.00045883	3.1925e-05	0.00012883	584.06	3.082e-06	2.7449e-06	606.29	245.34	2.6206e-06	5.8491e-06	288.44	128.17	105.53	51.818	1.5886e-06	69.283	0.00021078	0.00022967	6.0629e-05	570.59	2.3538e-06	2.5496e-06	590.53	235.13	2.42e-06	2.6222e-06	274.49	121.07	94.865	49.127	2.4961e-06	64.446	263.857	268.579	13.504	-57.853	181.699	105.491	-58.577	-52.560	151.943	46.369	-54.462	-49.475	-46.866	-43.235	206.300	-46.079	-8191	255	
4300.555	1	1	0	0	0.27696	0.19882	0.069996	0.069177	0.25834	0.27036	0.14962	0.066041	0.040191	0.35403	0.24526	0.30394	0.085847	0.10401	0.23523	0.15059	-1.5604	-2.5833	-2.1125	-2.1542	-2.7771	-1.8833	-2.4854	-2.4625	-1.8833	-2.6208	-2.0521	-1.9125	-2.7021	-1.9896	-2.1542	-2.6375	85.073	126.956	110.419	227.436	135.164	45.840	-69.032	218.041	46.020	251.944	112.226	275.241	11.672	247.964	234.046	278.499	0.00031092	0.00032535	0.00013786	586.41	1.8412e-06	5.1317e-06	602.64	241.44	2.3569e-06	2.1578e-06	283.91	126	103.12	50.719	6.7102e-06	67.41	0.00024466	0.0002498	6.5565e-05	573.4	2.7295e-06	2.8235e-06	589.93	233.19	2.8965e-06	2.9519e-06	272.55	119.92	95.524	48.456	3.0798e-06	63.418	276.995	54.127	9.684	-57.905	181.747	52.808	-58.608	-52.274	208.227	24.162	-54.799	-49.880	-46.695	-43.099	57.294	-46.054	-8191	255	
4300.653	1	1	0	0	0.18798	0.12316	0.15826	0.064406	0.13324	0.068821	0.19123	0.11554	0.19364	0.12199	0.24169	0.12525	0.058825	0.28085	0.11049	0.17621	-1.2875	-2.725	-2.0812	-2.0625	-2.6063	-1.8083	-2.3458	-2.5646	-2.0021	-2.7	-2.2729	-2.0583	-2.7854	-2.2729	-2.3125	-2.6437	37.040	98.949	185.962	233.799	200.333	124.238	248.952	165.770	234.369	269.283	81.883	262.050	193.374	261.067	116.442	125.166	0.00045448	0.00033955	4.4026e-05	577.48	4.111e-06	5.2827e-06	598.99	235.53	5.02e-06	4.9935e-06	282.79	124.84	103.37	50.57	9.3566e-06	67.948	0.00032307	0.00031685	8.364e-05	577.11	3.7116e-06	3.5537e-06	594.37	231.41	3.74e-06	3.4983e-06	273.6	120.15	97.435	48.343	3.3364e-06	64.047	260.388	4.553	56.987	-57.905	96.002	8.567	-58.758	-51.941	232.560	81.504	-54.345	-49.533	-46.464	-43.116	73.962	-46.153	-8191	255	
4300.772	1	1	0	0	0.30094	0.17134	0.1176	0.28196	0.091688	0.11816	0.098812	0.28961	0.11703	0.079697	0.086059	0.17583	0.10162	0.06316	0.18923	0.27114	-1.4208	-2.5396	-2.3688	-1.9708	-2.7229	-1.9813	-2.3063	-2.8396	-1.825	-2.5625	-2.4437	-2.0187	-2.5208	-2.2104	-2.0708	-2.7562	234.016	228.222	43.704	227.020	172.596	142.427	-62.067	253.831	3.097	63.906	-30.732	111.285	-58.560	228.905	280.228	269.147	0.00032227	9.3317e-05	0.0001626	581.35	1.1379e-06	6.3208e-06	600.68	237.39	1.8414e-06	1.8519e-06	281.36	125.23	103.36	50.618	3.7886e-06	67.785	0.00034474	0.00031651	8.462e-05	579.32	3.676e-06	3.4031e-06	592.81	232.62	3.4763e-06	3.1888e-06	272.07	120.46	96.363	48.399	2.8939e-06	63.946	262.095	72.505	56.400	-57.818	132.334	31.176	-58.542	-52.255	76.724	79.935	-54.669	-49.459	-46.877	-43.028	94.188	-46.082	-8191	255	
4300.868	1	1	0	0	0.11382	0.21616	0.1104	0.1754	0.040334	0.13004	0.072696	0.20074	0.057579	0.13171	0.27224	0.14013	0.25428	0.20419	0.12419	0.26187	-1.45	-2.4125	-2.5479	-1.8896	-2.6917	-2.2917	-2.2313	-2.675	-1.9458	-2.6125	-2.5229	-2.0271	-2.6792	-2.3458	-2.0833	-2.8458	246.465	56.760	218.867	285.358	143.656	94.572	144.658	168.038	162.221	140.956	72.727	-46.029	6.344	225.207	-30.844	262.600	0.00021072	0.00027621	0.00011178	575.32	1.0247e-06	4.5381e-06	591.61	239.78	8.3133e-07	5.0911e-06	282.13	126.06	105.63	51.244	3.7172e-06	68.519	0.0002946	0.00026217	7.1578e-05	570.49	3.0121e-06	2.782e-06	583.48	233.05	2.9071e-06	2.7068e-06	271.24	120.51	95.341	48.623	2.6331e-06	64.147	270.926	0.111	275.447	-58.131	86.777	26.697	-58.643	-52.245	81.270	46.034	-54.433	-49.391	-46.962	-43.047	16.902	-45.898	-8191	255	
4300.964	1	1	0	0	0.089859	0.1465	0.011333	0.19205	0.097625	0.20081	0.20518	0.23292	0.15925	0.024334	0.15695	0.1976	0.21121	0.043257	0.1658	0.23524	-1.5167	-2.2458	-2.5062	-1.9438	-2.4708	-2.2708	-2.1833	-2.8896	-2.0417	-2.2438	-2.7417	-1.9479	-2.5875	-2.3958	-1.8937	-2.75	241.586	70.980	30.186	147.180	181.007	94.411	-57.469	268.511	-32.764	-66.303	-47.682	100.059	-45.127	-52.258	-41.901	279.774	0.00028187	0.0004292	0.00018538	575.43	3.8643e-06	2.1416e-06	599.16	241.78	4.0774e-06	5.5462e-06	287.87	127.73	106.33	51.65	2.174e-06	69.32	0.00025706	0.00023722	6.6923e-05	570.2	2.6815e-06	2.5616e-06	584.33	235.52	2.6415e-06	2.4974e-06	274.74	121.63	95.261	49.091	2.6409e-06	64.877	273.945	-35.588	-11.819	-58.057	139.341	88.902	-58.547	-52.081	135.712	55.672	-54.079	-49.434	-46.630	-43.261	-8.214	-45.990	-8191	255	
4301.085	1	1	0	0	0.13975	0.13952	0.24984	0.1085	0.15012	0.15957	0.24744	0.49402	0.15038	0.18888	0.11252	0.083107	0.35639	0.12273	0.096463	0.37508	-1.8458	-2.1937	-2.6	-2.0542	-2.4521	-2.4896	-2.075	-2.7771	-2.0812	-2.1688	-2.7542	-1.9083	-2.3375	-2.4458	-1.95	-2.7229	202.978	259.305	215.621	34.983	14.129	216.409	226.488	253.363	153.314	143.202	217.063	212.383	211.268	230.281	30.918	-51.715	0.00032273	0.00033988	0.00022401	583.8	1.1293e-06	2.067e-06	605.01	243.6	4.474e-06	2.6522e-06	288.83	129.4	106.15	52.008	3.568e-06	69.644	0.00024377	0.00022547	6.7651e-05	572.46	2.587e-06	2.5463e-06	591.03	236.13	2.6383e-06	2.5246e-06	276.88	122.65	95.196	49.195	2.8489e-06	65.174	265.694	57.958	0.949	-57.786	116.802	104.517	-58.512	-52.482	91.413	71.192	-54.382	-49.548	-46.683	-42.986	176.440	-46.126	-8191	255	
4301.181	1	1	0	0	0.26826	0.16706	0.29279	0.19219	0.33541	0.12987	0.3397	0.24146	0.13557	0.053315	0.20134	0.1853	0.05301	0.31835	0.4921	0.28917	-1.6875	-2.1312	-2.6604	-2.0417	-2.4083	-2.4875	-1.8833	-2.5687	-2.3458	-1.9	-2.6875	-1.9354	-2.3521	-2.5729	-1.7125	-2.6688	236.015	0.566	162.412	253.035	97.344	-50.499	148.689	229.009	154.810	-34.191	169.352	249.307	-56.772	263.811	-4.391	229.075	0.00020551	0.00051173	3.0526e-05	584.41	1.3355e-06	1.8136e-06	609.81	243.51	2.077e-06	3.28e-06	289.11	127.97	106.47	52.142	2.5355e-06	69.361	0.00025033	0.00023686	7.4662e-05	574.69	2.6674e-06	2.676e-06	596.99	237.06	2.7144e-06	2.7003e-06	280.65	122.76	95.78	49.327	3.0341e-06	64.934	-61.568	87.942	-39.542	-57.758	200.922	64.831	-58.422	-52.200	120.793	76.045	-54.884	-49.399	-46.912	-42.984	15.209	-45.928	-8191	255	
4301.253	1	1	0	0	0.26066	0.13857	0.27176	0.1654	0.30621	0.044226	0.026479	0.12237	0.025003	0.19756	0.11035	0.093562	0.19055	0.16008	0.25653	0.28152	-2.0583	-1.9021	-2.5	-2.1	-2.1333	-2.5104	-2.0792	-2.4833	-2.3896	-2.1271	-2.6813	-2.0708	-2.2562	-2.8187	-1.7208	-2.4854	131.622	256.037	124.152	135.660	116.643	33.830	177.647	57.678	35.395	-40.860	223.395	211.981	28.196	269.763	174.121	206.334	0.0004179	9.021e-05	5.9364e-05	577.01	3.4453e-06	2.8306e-06	596.31	242.04	3.423e-06	2.6259e-06	286.77	126.35	104.72	51.278	1.54e-06	68.338	0.00024985	0.00024924	7.5412e-05	568.39	2.6173e-06	2.7084e-06	587.43	233.97	2.599e-06	2.7193e-06	274.73	120.52	93.973	48.749	2.9049e-06	63.787	288.952	-3.518	49.522	-57.746	210.783	72.826	-58.641	-52.362	126.716	30.745	-54.735	-49.455	-46.080	-43.026	157.389	-45.916	-8191	255	
4301.373	1	1	0	0	0.22675	0.11277	0.16109	0.33446	0.035587	0.082755	0.15183	0.41304	0.42173	0.19939	0.14083	0.017707	0.27116	0.037696	0.18482	0.18168	-2.0167	-2.1167	-2.3771	-2.0333	-2.1542	-2.4583	-1.8417	-2.5375	-2.3833	-1.9146	-2.7854	-2.2792	-2.0792	-2.8146	-1.8292	-2.5333	194.583	46.210	93.468	240.013	160.382	260.278	135.483	215.601	159.297	223.001	154.326	-60.441	127.471	175.552	68.324	237.803	0.00029744	0.00031742	0.00020356	576.35	1.6971e-06	2.7737e-06	591.94	240.18	2.9633e-06	3.2504e-06	284.97	126.11	104.87	51.222	3.9758e-06	68.168	0.00024265	0.00025674	7.214e-05	566.86	2.5629e-06	2.8505e-06	584.2	232.41	2.5937e-06	2.8579e-06	273.33	119.69	94.178	48.696	2.7913e-06	63.563	266.224	115.940	-6.169	-57.907	230.592	178.635	-58.430	-52.614	190.354	4.859	-54.651	-49.649	-46.906	-43.306	87.441	-46.101	-8191	255	
4301.468	1	1	0	0	0.084298	0.10086	0.30593	0.1343	0.22389	0.16868	0.19399	0.078772	0.28144	0.27128	0.21439	0.10256	0.131	0.22877	0.21944	0.13783	-2.1583	-1.7583	-2.5187	-2.2646	-1.9688	-2.7396	-1.9562	-2.2917	-2.4271	-1.9	-2.5104	-2.4083	-2.0125	-2.8375	-1.9125	-2.275	79.700	-40.181	270.283	226.203	233.827	191.566	239.842	109.327	196.888	81.413	226.836	9.142	34.368	276.957	269.262	257.296	0.00020895	0.00040233	8.8781e-05	577.74	2.6613e-06	4.8161e-06	598.71	240.94	5.0556e-06	3.6508e-06	285.08	126.31	105.22	51.296	1.6911e-06	68.767	0.00024418	0.0002658	6.9639e-05	566.81	2.6464e-06	2.9226e-06	586.29	233.17	2.7129e-06	2.9452e-06	273.46	120.58	94.966	48.977	2.8051e-06	64.188	274.695	86.595	-27.349	-58.012	86.280	77.059	-58.114	-52.213	89.620	-21.613	-54.604	-49.490	-46.462	-42.962	121.025	-46.175	-8191	255	
4301.564	1	1	0	0	0.17976	0.19258	0.16896	0.0408	0.15971	0.20053	0.07797	0.15636	0.16877	0.093283	0.15338	0.16262	0.28341	0.2743	0.11491	0.043032	-2.175	-1.8729	-2.5062	-2.3583	-1.9083	-2.7521	-2.1354	-2.2313	-2.5271	-1.8917	-2.5917	-2.6063	-1.8792	-2.7812	-2.1417	-2.1792	62.729	66.705	143.714	252.304	117.503	234.648	286.750	-48.646	-58.797	83.458	262.755	284.353	263.324	250.008	-24.796	114.545	0.00033328	0.00018207	0.00010657	576.98	1.7276e-06	4.7793e-06	600.59	241.72	5.0537e-06	5.9329e-06	289.09	128.93	106.11	52.218	4.4325e-06	69.14	0.00026477	0.00027524	7.0912e-05	567.83	2.8439e-06	2.9447e-06	588.69	234.18	2.8835e-06	2.9722e-06	276.9	121.89	96.919	49.599	2.8325e-06	64.848	268.392	139.415	57.342	-57.753	97.772	56.903	-58.490	-52.317	153.990	57.116	-54.477	-49.460	-46.941	-43.143	49.714	-46.037	-8191	255	
4301.660	1	1	0	0	0.12222	0.27463	0.21764	0.088856	0.27371	0.12175	0.20548	0.11977	0.10207	0.032725	0.03509	0.083869	0.086595	0.20062	0.24433	0.10255	-2.2229	-1.8125	-2.2687	-2.3292	-1.8563	-2.6354	-2.2729	-2.2417	-2.8333	-1.9771	-2.4271	-2.525	-1.7687	-2.7542	-2.0771	-2.0687	23.454	89.492	163.391	187.453	268.714	-66.220	203.467	217.652	148.992	196.359	262.244	45.077	186.144	207.892	19.549	-12.845	0.00039539	2.9632e-05	8.8434e-05	579.64	5.0579e-06	2.3069e-06	596.52	240.58	3.0136e-07	6.1418e-06	285.06	127.2	104.45	51.552	1.7542e-06	68.358	0.00028291	0.00027664	7.0743e-05	570.69	3.0573e-06	2.9712e-06	586.33	233.08	3.0458e-06	2.9757e-06	272.42	120.85	96.132	48.97	2.808e-06	63.95	263.831	278.260	21.978	-57.881	159.492	135.041	-58.455	-52.294	98.661	61.313	-54.512	-49.432	-46.248	-43.193	41.890	-46.201	-8191	255	
4301.756	1	1	0	0	0.11986	0.13398	0.025797	0.38961	0.034024	0.09475	0.073464	0.37933	0.13784	0.14656	0.16734	0.038365	0.14231	0.37947	0.20971	0.030868	-2.3292	-2.1146	-2.1854	-2.3875	-1.7396	-2.5438	-2.3229	-2.0563	-2.5979	-1.8937	-2.0604	-2.7833	-1.7396	-2.3937	-2.2604	-2.1	-22.444	179.191	-57.084	199.781	172.225	218.345	125.155	235.197	278.667	161.215	60.509	225.457	152.137	-52.458	150.329	136.259	0.00028681	0.00035398	0.00010319	576.02	5.2695e-06	5.6499e-06	593.57	239.63	1.0682e-05	7.6574e-06	282.21	125.42	104.14	51.505	7.4185e-06	68.058	0.00028692	0.00026568	7.006e-05	567.42	3.1306e-06	2.8975e-06	580.79	232.41	3.129e-06	2.9618e-06	270.7	120.23	96.064	48.871	2.8476e-06	63.788	268.585	102.648	-62.039	-57.702	153.092	126.109	-58.122	-52.346	85.114	65.009	-54.521	-49.381	-46.375	-42.989	49.001	-46.032	-8191	255	
4301.852	1	1	0	0	0.033518	0.10475	0.16203	0.19624	0.12915	0.20192	0.25538	0.23333	0.17733	0.32892	0.10539	0.0050314	0.18763	0.19429	0.1039	0.23797	-2.2625	-2.1771	-2.0646	-2.7083	-1.9042	-2.3792	-2.3792	-1.8813	-2.6854	-2	-2.0292	-2.825	-1.8354	-2.6104	-2.5104	-1.9229	11.009	43.476	-27.284	171.796	262.237	99.487	240.167	181.640	-33.589	124.749	215.940	65.886	-32.505	235.574	211.223	235.673	0.00031588	0.00048763	9.5164e-05	574.45	3.2699e-06	2.3325e-06	594.17	240.67	4.8244e-06	2.0826e-06	282.29	126.17	104.79	51.628	1.3358e-06	68.382	0.00029189	0.00027055	7.27e-05	570.94	3.214e-06	2.9637e-06	583.04	234.69	3.2079e-06	3.0566e-06	272.48	121.02	96.9	49.148	3.0401e-06	64.283	275.192	56.540	10.627	-57.960	102.407	214.548	-58.315	-51.958	97.339	-20.482	-54.665	-49.290	-46.463	-42.766	246.034	-45.793	-8191	255	
4301.949	1	1	0	0	0.10108	0.17029	0.30478	0.34091	0.15468	0.20383	0.067395	0.22778	0.33978	0.14376	0.26941	0.069704	0.13889	0.17499	0.27796	0.16057	-2.225	-2.0896	-1.8312	-2.8	-1.9521	-2.1021	-2.6333	-1.8312	-2.6188	-2.2062	-1.95	-2.65	-2.0917	-2.2792	-2.6104	-1.7917	183.948	93.102	6.053	180.223	258.130	167.941	211.804	258.252	236.439	6.109	27.160	213.418	53.790	28.380	-1.018	240.676	0.00031226	0.00073695	6.7448e-05	576.42	7.1877e-06	2.675e-06	593.62	240.2	5.2676e-06	5.7143e-06	283.93	127.13	107.2	52.068	4.5802e-06	69.205	0.000301	0.00028472	7.7246e-05	574.08	3.2616e-06	3.0336e-06	587.83	235.76	3.1931e-06	3.0867e-06	274.4	122.26	97.656	49.612	3.1526e-06	65.232	251.908	24.801	-9.943	-57.887	136.513	34.387	-58.236	-52.249	99.831	59.245	-54.559	-49.674	-46.780	-42.915	109.818	-45.866	-8191	255	
4302.045	1	1	0	0	0.17285	0.11758	0.10612	0.13688	0.2092	0.13362	0.13295	0.17033	0.17113	0.22915	0.23643	0.27283	0.11213	0.12847	0.19398	0.064245	-1.9312	-2.1875	-1.8917	-2.7083	-1.975	-2.2542	-2.7354	-1.9104	-2.6646	-2.5333	-1.8271	-2.6479	-2.1167	-2.3438	-2.7417	-2.1604	23.007	278.436	110.985	89.075	-56.788	15.671	186.414	197.723	120.676	57.029	268.703	-51.383	203.552	201.920	228.191	216.677	0.00028364	0.00035631	7.8386e-05	580.68	1.8964e-06	6.7298e-06	597.52	244.61	1.8083e-06	4.8808e-06	288.84	128.93	107.82	53.121	4.8182e-06	69.968	0.00028533	0.00026805	7.8104e-05	576.75	3.0241e-06	2.8449e-06	590.99	238.51	2.9328e-06	2.8219e-06	278.07	123.48	97.458	50.244	3.0452e-06	65.502	271.926	84.442	35.052	-57.843	172.643	86.886	-58.220	-52.166	42.588	85.994	-54.341	-49.508	-46.694	-43.220	110.238	-45.937	-8191	255	
4302.165	1	1	0	0	0.25221	0.16337	0.036081	0.16275	0.1279	0.17845	0.28448	0.17474	0.15922	0.21775	0.15541	0.22499	0.16037	0.18604	0.072412	0.09234	-2.0417	-2.4104	-1.8271	-2.5812	-1.9792	-2.0438	-2.7229	-1.9458	-2.3646	-2.6312	-2.0229	-2.6063	-2.1667	-2.3729	-2.6125	-2.1688	135.527	7.658	125.616	-33.542	64.169	50.892	278.541	213.949	254.310	265.160	52.416	-31.439	206.795	230.164	-32.929	289.565	0.00030589	0.00065499	9.9944e-05	579.31	1.6687e-06	1.8951e-06	597.75	244.06	1.206e-06	1.6278e-06	286.45	127.54	106.57	52.682	2.946e-06	68.951	0.00026568	0.0002551	7.727e-05	572.44	2.7956e-06	2.7146e-06	586.5	237.03	2.7115e-06	2.6702e-06	275.99	122.03	96.443	49.883	2.9582e-06	64.619	255.493	119.867	253.555	-57.665	196.517	66.595	-58.528	-52.206	61.419	51.171	-54.655	-49.480	-46.388	-43.281	-54.122	-46.102	-8191	255	
4302.261	1	1	0	0	0.086829	0.01714	0.16001	0.16126	0.11095	0.13544	0.20613	0.093386	0.32262	0.15242	0.17264	0.068471	0.051869	0.14232	0.20078	0.16067	-1.8896	-2.4292	-1.8813	-2.6688	-2.2146	-2.0771	-2.7083	-2.0625	-2.3063	-2.725	-1.9833	-2.6792	-2.4354	-2.2979	-2.7479	-2.0854	224.638	157.010	113.600	-33.690	158.965	102.044	123.795	100.085	20.508	18.680	268.026	109.801	-59.143	-66.653	80.288	215.493	0.00031274	0.00021382	0.00018619	578.47	2.9775e-06	1.789e-06	592.19	242.45	4.1854e-06	3.0726e-06	286.06	127.07	106.77	52.634	4.0385e-06	69.058	0.00024704	0.00024811	7.5448e-05	569.71	2.6876e-06	2.7491e-06	584.86	235.71	2.6693e-06	2.7991e-06	274.72	121.11	96.239	49.858	2.9879e-06	64.588	260.205	76.770	-22.842	-57.902	131.845	235.482	-58.480	-52.182	60.159	-6.887	-54.468	-49.777	-46.918	-43.040	87.434	-46.027	-8191	255	
4302.356	1	1	0	0	0.1092	0.094202	0.094466	0.35321	0.12775	0.29644	0.15462	0.078884	0.076989	0.10298	0.16887	0.18678	0.1827	0.18783	0.14041	0.18118	-1.7708	-2.5479	-1.9146	-2.475	-2.5396	-1.8979	-2.75	-2.1417	-1.9458	-2.6333	-2.0354	-2.6792	-2.5042	-1.9917	-2.6125	-2.375	75.383	28.132	213.833	231.424	23.771	-52.822	133.012	217.117	245.562	79.048	275.843	-7.805	125.687	-11.106	8.077	196.707	0.00027278	0.00040955	7.3899e-05	579.18	8.8063e-07	7.2247e-06	597.13	244.19	1.228e-06	4.9741e-07	289.71	128.86	108.17	52.929	5.3926e-06	69.841	0.00024644	0.00026162	7.4118e-05	570.73	2.6305e-06	2.8494e-06	586.2	236.49	2.5977e-06	2.8879e-06	277.02	122.43	96.688	50.249	2.9046e-06	65.352	265.209	53.068	0.924	-57.743	261.012	87.100	-58.608	-52.124	257.163	-18.596	-54.573	-49.472	-46.862	-42.773	61.937	-45.986	-8191	255	
4302.454	1	1	0	0	0.028896	0.23766	0.18148	0.18767	0.082917	0.2344	0.13375	0.10657	0.31059	0.094883	0.13805	0.21048	0.33107	0.13072	0.12196	0.11147	-1.8542	-2.5979	-2.0021	-2.4854	-2.4542	-1.775	-2.7	-2.4104	-1.8813	-2.7188	-2.0687	-2.2271	-2.6437	-1.9354	-2.3125	-2.1792	7.318	229.883	-6.746	-20.354	32.850	5.950	251.652	233.962	277.100	255.236	-46.987	221.684	200.534	206.364	145.257	-34.449	0.00027969	0.00046518	7.9687e-05	580.71	2.7002e-06	2.9738e-06	604.61	246.01	1.9145e-06	3.8265e-06	290.3	130.71	108.14	53.507	2.7093e-06	70.341	0.00025107	0.00026844	7.3923e-05	573.46	2.7467e-06	3.0336e-06	593.23	238.86	2.8158e-06	3.1044e-06	279.6	124.25	98.598	51.07	3.0842e-06	66.035	270.384	64.860	-48.551	-57.976	69.201	115.251	-58.307	-51.937	238.191	83.895	-54.202	-49.386	-46.736	-42.886	89.339	-45.849	-8191	255	
4302.548	1	1	0	0	0.1717	0.31634	0.28818	0.13672	0.087472	0.23841	0.50823	0.12753	0.026663	0.18077	0.1568	0.16327	0.48715	0.40595	0.090207	0.17574	-1.4583	-2.6479	-1.8021	-2.2021	-2.6021	-1.9479	-2.6417	-2.4458	-1.7729	-2.7833	-2.3688	-2.125	-2.6562	-2.0438	-2.35	-2.6729	-26.219	131.016	218.898	273.262	-33.875	235.733	255.113	65.347	32.688	44.805	121.387	284.619	284.036	10.453	30.252	199.963	0.00024268	0.00016413	7.1797e-05	586.56	3.2264e-06	7.1525e-06	596.68	244.35	2.8283e-06	6.937e-06	285.24	127.48	106.81	53.17	1.6818e-06	69.377	0.00028528	0.00030697	8.0212e-05	577.67	3.1308e-06	3.2769e-06	589.05	237	3.0888e-06	3.1729e-06	274.24	121.82	98.125	50.576	2.9324e-06	64.982	286.614	46.663	-30.730	-58.074	122.885	85.593	-58.489	-51.883	208.746	-4.858	-54.645	-49.543	-46.551	-42.947	101.800	-46.072	-8191	255	
4302.644	1	1	0	0	0.068719	0.20918	0.23718	0.15701	0.053349	0.0060989	0.11929	0.19117	0.059013	0.20224	0.25712	0.22535	0.15033	0.07765	0.26725	0.41645	-1.7729	-2.7479	-2.1333	-2.2833	-2.4458	-1.8292	-2.3354	-2.4958	-2.0917	-2.5917	-2.2562	-2.1063	-2.5563	-1.9854	-2.2521	-2.5104	182.650	250.409	65.991	259.920	274.294	-36.123	228.354	-28.509	159.554	230.900	-52.629	162.885	251.179	204.592	81.979	226.846	0.00037267	0.00059673	9.2236e-05	583.04	3.6869e-06	3.5411e-06	596.95	242.66	6.8651e-06	2.2329e-06	285.75	127.55	107.04	53.057	4.8045e-06	69.203	0.00029062	0.00028925	7.6665e-05	573.72	3.2232e-06	3.2117e-06	585.68	236.45	3.2727e-06	3.1721e-06	274.54	121.65	98.923	50.615	2.9503e-06	65.128	266.549	20.471	284.575	-57.743	262.365	77.577	-58.467	-52.183	94.605	-8.734	-54.442	-49.537	-46.626	-43.047	41.194	-45.947	-8191	255	
4302.765	1	1	0	0	0.22231	0.31949	0.26329	0.22044	0.21203	0.32285	0.16653	0.16215	0.13612	0.18584	0.15876	0.31067	0.09672	0.24721	0.12917	0.22133	-1.4833	-2.5958	-2.1604	-1.9937	-2.8167	-1.9271	-2.3917	-2.8021	-1.8312	-2.4375	-2.3	-2.0104	-2.7646	-2.1854	-2.25	-2.5875	15.251	164.940	0.849	61.836	235.043	126.879	255.263	-24.761	7.025	73.196	126.400	278.644	174.614	7.491	68.659	196.618	0.00033153	0.00079696	0.00014255	585.88	3.4821e-06	3.2319e-06	599.65	248.63	6.1772e-06	4.7497e-07	291.14	129.79	110.68	54.66	6.4337e-06	71.053	0.00030366	0.00027801	7.4082e-05	577.63	3.1931e-06	2.9964e-06	588.56	241.74	3.2108e-06	3.0055e-06	278.39	124.23	101.26	51.897	2.8965e-06	66.774	260.510	-18.558	-54.093	-57.657	103.529	39.078	-58.329	-52.384	66.207	13.865	-54.585	-49.361	-45.989	-42.944	76.209	-45.900	-8191	255	
4302.861	1	1	0	0	0.1723	0.25584	0.20925	0.1358	0.1281	0.19228	0.17721	0.40752	0.013892	0.17158	0.07876	0.10129	0.13181	0.10009	0.22692	0.25266	-1.4979	-2.3083	-2.4521	-1.9458	-2.6625	-2.1708	-2.3937	-2.6792	-2.0583	-2.5563	-2.325	-1.9708	-2.6125	-2.2521	-2.2208	-2.6875	20.573	-5.924	73.090	259.284	-4.793	241.480	55.897	230.417	-49.275	181.921	6.520	-45.140	6.641	264.047	-29.170	219.067	0.00031608	0.00039729	0.00019324	590.06	5.6302e-06	3.9239e-06	598.46	252.51	3.9158e-06	2.6779e-06	295.22	133.11	112.36	55.505	2.3682e-06	72.615	0.00030555	0.00027685	7.5326e-05	585.04	3.2749e-06	3.061e-06	593.12	245.48	3.2259e-06	2.9318e-06	282.37	126.98	102.5	52.809	2.8197e-06	68.161	262.039	33.235	36.727	-57.915	69.968	-56.362	-58.281	-52.082	111.254	216.363	-54.626	-49.574	-46.720	-42.812	94.178	-45.916	-8191	255	
4302.957	1	1	0	0	0.14322	0.2638	0.21359	0.13008	0.123	0.14291	0.25341	0.086039	0.14814	0.27247	0.13704	0.14016	0.32287	0.15122	0.011739	0.29582	-1.5333	-2.2313	-2.5625	-1.9	-2.6708	-2.2875	-2.2167	-2.8354	-2.0167	-2.3063	-2.6708	-1.8396	-2.5125	-2.4521	-2.0896	-2.8042	158.035	2.790	203.536	192.223	114.435	187.447	167.865	204.742	-42.634	-8.749	103.166	133.738	137.287	284.237	115.252	190.340	0.00020664	0.00052383	6.0369e-05	596.76	1.8961e-06	5.5302e-06	611.11	256.4	5.6256e-06	4.4835e-06	299	134.37	113.81	56.405	3.4939e-06	73.209	0.00028567	0.00025904	7.1872e-05	590.77	2.9792e-06	2.8068e-06	600.54	249.61	2.9515e-06	2.7938e-06	286.67	128.38	102.66	53.436	2.8368e-06	68.644	262.146	36.771	-54.825	-57.922	87.042	46.337	-58.261	-51.761	43.201	48.950	-54.352	-49.457	-46.528	-42.519	153.726	-45.884	-8191	255	
4303.053	1	1	0	0	0.26401	0.24829	0.075159	0.059531	0.19231	0.19862	0.10146	0.077679	0.037807	0.12962	0.053873	0.059188	0.1231	0.25727	0.29781	0.036999	-1.6437	-2.1562	-2.6583	-1.825	-2.4396	-2.3021	-1.9813	-2.8396	-2.1771	-2.1479	-2.7167	-2.0812	-2.5	-2.5604	-1.7417	-2.6958	-60.413	48.186	177.859	-66.680	213.107	109.307	49.432	201.747	124.112	273.622	1.760	107.620	192.542	230.472	136.540	66.696	0.00028569	0.00032902	0.000127	600.65	5.4201e-06	3.9086e-06	607.7	257.25	7.1153e-06	1.0419e-06	296.48	134.33	114.67	57.502	2.3245e-06	73.565	0.00027039	0.00024697	7.1863e-05	589.08	2.7477e-06	2.6364e-06	595.76	250.21	2.7717e-06	2.653e-06	286.38	128.7	103.5	54.244	3.0508e-06	68.942	-69.993	51.979	38.665	-57.573	191.165	264.400	-58.401	-52.106	37.724	268.643	-54.552	-49.482	-46.160	-42.900	168.362	-45.906	-8191	255	
4303.150	1	1	0	0	0.12805	0.087984	0.12821	0.37405	0.17543	0.22544	0.27695	0.05113	0.17723	0.05819	0.055432	0.19267	0.2806	0.33088	0.015293	0.18553	-1.8	-2.1917	-2.7583	-2.2167	-2.325	-2.3729	-1.9688	-2.8417	-2.1708	-1.9917	-2.825	-2.0979	-2.4604	-2.7833	-1.7375	-2.925	132.712	37.885	51.983	281.454	39.457	279.793	290.045	70.281	71.253	166.602	68.305	68.700	163.783	278.287	-53.602	228.252	0.00027091	0.00047581	6.2183e-05	603.22	1.3322e-06	4.3302e-06	614.27	262.34	5.9214e-06	3.5254e-06	301.4	136.1	116.5	57.895	4.715e-06	74.246	0.00027583	0.00026165	8.2394e-05	597.63	3.1172e-06	3.1398e-06	609.21	256.09	3.3512e-06	3.2955e-06	294.07	130.88	107.06	55.256	3.9032e-06	69.931	276.307	53.245	46.628	-57.470	81.040	192.474	-58.324	-51.871	59.476	92.787	-54.496	-49.324	-46.428	-42.800	-1.193	-45.711	-8191	255	
#DATA ENDS
