BOXY.EXE: ISS Imagent and Oximeter Data Acquisition Program Version 0.80
Ascii Record File

#ACQ INFORMATION
2  Detector Channels 
16  External MUX Channels 
1  Auxiliary Channels 
5000  Waveform (CCF) Frequency (Hz)
1  Waveforms Skipped 
30  Waveforms Averaged 
1  Cycles Averaged 
16  Acquisitions per Waveform 
10.0806  Updata Rate (Hz) 

#FILE INFORMATION
TRUE -- External MUX Channel results are PARSED.
FALSE -- AC DC and Phase are NOT grouped.
TRUE -- Companion Program Settings File CREATED.
FALSE -- AC data not excluded
FALSE -- DC data not excluded
FALSE -- Phase data not excluded
FALSE -- Auxillary Chn. data not excluded
Tab delimiters

#CALIBRATION STATE
TRUE -- Waveform Calibration Values APPLIED.


#AUX CALIBRATION VALUES
Val Type	aux-1	

Term	1.0000e+00	
Factor	0.0000e+00	


#WF CALIBRATION VALUES
A = Detector Channel
Val Type	A-AC1	A-AC2	A-AC3	A-AC4	A-AC5	A-AC6	A-AC7	A-AC8	A-AC9	A-AC10	A-AC11	A-AC12	A-AC13	A-AC14	A-AC15	A-AC16	A-DC1	A-DC2	A-DC3	A-DC4	A-DC5	A-DC6	A-DC7	A-DC8	A-DC9	A-DC10	A-DC11	A-DC12	A-DC13	A-DC14	A-DC15	A-DC16	A-Ph1	A-Ph2	A-Ph3	A-Ph4	A-Ph5	A-Ph6	A-Ph7	A-Ph8	A-Ph9	A-Ph10	A-Ph11	A-Ph12	A-Ph13	A-Ph14	A-Ph15	A-Ph16	

Term	0.00000e+00	0.00000e+00	0.00000e+00	0.00000e+00	0.00000e+00	0.00000e+00	0.00000e+00	0.00000e+00	0.00000e+00	0.00000e+00	0.00000e+00	0.00000e+00	0.00000e+00	0.00000e+00	0.00000e+00	0.00000e+00	0.00000e+00	0.00000e+00	0.00000e+00	0.00000e+00	0.00000e+00	0.00000e+00	0.00000e+00	0.00000e+00	0.00000e+00	0.00000e+00	0.00000e+00	0.00000e+00	0.00000e+00	0.00000e+00	0.00000e+00	0.00000e+00	0.00000e+00	0.00000e+00	0.00000e+00	0.00000e+00	0.00000e+00	0.00000e+00	0.00000e+00	0.00000e+00	0.00000e+00	0.00000e+00	0.00000e+00	0.00000e+00	0.00000e+00	0.00000e+00	0.00000e+00	0.00000e+00	
Factor	1.00000e+00	1.00000e+00	1.00000e+00	1.00000e+00	1.00000e+00	1.00000e+00	1.00000e+00	1.00000e+00	1.00000e+00	1.00000e+00	1.00000e+00	1.00000e+00	1.00000e+00	1.00000e+00	1.00000e+00	1.00000e+00	1.00000e+00	1.00000e+00	1.00000e+00	1.00000e+00	1.00000e+00	1.00000e+00	1.00000e+00	1.00000e+00	1.00000e+00	1.00000e+00	1.00000e+00	1.00000e+00	1.00000e+00	1.00000e+00	1.00000e+00	1.00000e+00	X	X	X	X	X	X	X	X	X	X	X	X	X	X	X	X	

B = Detector Channel
Val Type	B-AC1	B-AC2	B-AC3	B-AC4	B-AC5	B-AC6	B-AC7	B-AC8	B-AC9	B-AC10	B-AC11	B-AC12	B-AC13	B-AC14	B-AC15	B-AC16	B-DC1	B-DC2	B-DC3	B-DC4	B-DC5	B-DC6	B-DC7	B-DC8	B-DC9	B-DC10	B-DC11	B-DC12	B-DC13	B-DC14	B-DC15	B-DC16	B-Ph1	B-Ph2	B-Ph3	B-Ph4	B-Ph5	B-Ph6	B-Ph7	B-Ph8	B-Ph9	B-Ph10	B-Ph11	B-Ph12	B-Ph13	B-Ph14	B-Ph15	B-Ph16	

Term	0.00000e+00	0.00000e+00	0.00000e+00	0.00000e+00	0.00000e+00	0.00000e+00	0.00000e+00	0.00000e+00	0.00000e+00	0.00000e+00	0.00000e+00	0.00000e+00	0.00000e+00	0.00000e+00	0.00000e+00	0.00000e+00	0.00000e+00	0.00000e+00	0.00000e+00	0.00000e+00	0.00000e+00	0.00000e+00	0.00000e+00	0.00000e+00	0.00000e+00	0.00000e+00	0.00000e+00	0.00000e+00	0.00000e+00	0.00000e+00	0.00000e+00	0.00000e+00	-2.51673e+01	-1.09131e+02	-1.36792e+02	-1.83698e+02	-1.38176e+01	-7.28325e+01	-1.57869e+02	-1.62015e+02	-6.96302e+01	-9.69870e+01	-1.72092e+02	-1.75791e+02	-1.89181e+02	-1.78194e+02	-7.65473e+01	-1.51485e+02	
Factor	2.82887e-05	9.62443e-05	2.62348e-05	1.61568e-01	9.06967e-07	1.03337e-06	1.67683e-01	6.49704e-02	1.10886e-06	1.02177e-06	1.02924e-01	3.36800e-02	8.03786e-02	9.68118e-03	9.66469e-07	1.40111e-02	7.08911e-07	7.21329e-07	2.01149e-07	7.90580e-02	7.90081e-09	7.90084e-09	7.70976e-02	3.12878e-02	7.89045e-09	7.89930e-09	4.70277e-02	1.53915e-02	3.30660e-02	4.62330e-03	7.91615e-09	6.40668e-03	X	X	X	X	X	X	X	X	X	X	X	X	X	X	X	X	



#DISTANCE SETTINGS
A = Detector Channel
A-1	A-2	A-3	A-4	A-5	A-6	A-7	A-8	A-9	A-10	A-11	A-12	A-13	A-14	A-15	A-16	

2.5000e+00	3.0000e+00	2.5000e+00	3.0000e+00	2.0000e+00	3.0000e+00	1.5000e+00	3.0000e+00	3.0000e+00	3.0000e+00	3.0000e+00	3.0000e+00	3.0000e+00	3.0000e+00	1.5000e+00	3.0000e+00	

B = Detector Channel
B-1	B-2	B-3	B-4	B-5	B-6	B-7	B-8	B-9	B-10	B-11	B-12	B-13	B-14	B-15	B-16	

1.0000e+01	1.0000e+01	1.0000e+01	1.4400e+00	1.0000e+01	1.0000e+01	1.5100e+00	1.9400e+00	1.0000e+01	1.0000e+01	1.9900e+00	2.4900e+00	2.4100e+00	2.9000e+00	1.0000e+01	2.9800e+00	




#DATA BEGINS
time	group	step	mark	flag	A-AC1	A-AC2	A-AC3	A-AC4	A-AC5	A-AC6	A-AC7	A-AC8	A-AC9	A-AC10	A-AC11	A-AC12	A-AC13	A-AC14	A-AC15	A-AC16	A-DC1	A-DC2	A-DC3	A-DC4	A-DC5	A-DC6	A-DC7	A-DC8	A-DC9	A-DC10	A-DC11	A-DC12	A-DC13	A-DC14	A-DC15	A-DC16	A-Ph1	A-Ph2	A-Ph3	A-Ph4	A-Ph5	A-Ph6	A-Ph7	A-Ph8	A-Ph9	A-Ph10	A-Ph11	A-Ph12	A-Ph13	A-Ph14	A-Ph15	A-Ph16	B-AC1	B-AC2	B-AC3	B-AC4	B-AC5	B-AC6	B-AC7	B-AC8	B-AC9	B-AC10	B-AC11	B-AC12	B-AC13	B-AC14	B-AC15	B-AC16	B-DC1	B-DC2	B-DC3	B-DC4	B-DC5	B-DC6	B-DC7	B-DC8	B-DC9	B-DC10	B-DC11	B-DC12	B-DC13	B-DC14	B-DC15	B-DC16	B-Ph1	B-Ph2	B-Ph3	B-Ph4	B-Ph5	B-Ph6	B-Ph7	B-Ph8	B-Ph9	B-Ph10	B-Ph11	B-Ph12	B-Ph13	B-Ph14	B-Ph15	B-Ph16	aux-1	digaux	

4092.944	1	1	0	768	0.20282	0.20888	0.21072	0.22613	0.080245	0.32181	0.19165	0.15471	0.15065	0.23223	0.13857	0.11683	0.031803	0.050041	0.033285	0.11894	-2.3063	-2.2625	-3.0354	-2.4625	-2.5625	-2.9167	-2.3937	-2.8646	-2.5563	-2.2562	-3.0292	-2.5438	-2.4583	-3.1333	-2.125	-2.875	503.948	405.533	365.924	502.498	257.229	334.302	436.525	192.504	222.565	423.537	165.397	511.828	416.427	399.316	231.133	414.764	0.0014089	0.0014042	0.00012471	1095.4	8.7184e-06	7.8926e-06	1140.3	408.67	1.0939e-05	2.1042e-05	501.19	202.41	161.68	66.131	1.5984e-05	86.553	0.0014436	0.0014903	0.00046535	1138.2	1.563e-05	1.667e-05	1192.9	422.6	1.5473e-05	1.6473e-05	533.63	204.5	183.56	67.129	1.7355e-05	86.857	312.989	221.528	375.553	176.733	427.708	263.035	176.070	182.974	276.465	190.478	180.767	185.679	187.829	193.184	305.182	190.250	-8191	255	
4093.040	1	1	0	0	0.17865	0.084639	0.10393	0.11836	0.26561	0.085572	0.32468	0.11518	0.22304	0.22271	0.10494	0.25342	0.085558	0.2655	0.12961	0.16075	-2.5083	-2.1604	-2.9583	-2.7146	-2.4083	-3.125	-2.2667	-2.7854	-2.75	-2.3	-3.0125	-2.5	-2.5146	-3.1688	-2.3104	-2.5396	173.055	490.885	265.321	460.817	402.681	511.039	451.373	493.260	436.710	452.253	433.289	493.357	502.299	482.452	325.813	491.995	0.0014413	0.0011339	8.2312e-05	1090.1	9.276e-06	1.2546e-05	1141.7	409.4	5.8783e-06	1.3744e-05	507.32	205.42	167.23	66.789	1.4659e-05	87.946	0.001378	0.0015283	0.00043284	1124.2	1.4657e-05	1.6665e-05	1178.4	419.31	1.445e-05	1.6133e-05	526.72	203.72	180.88	67.284	1.5077e-05	86.515	312.442	217.353	290.832	176.829	377.830	202.056	176.227	182.824	345.301	210.224	180.701	185.805	187.083	192.873	330.291	189.936	-8191	255	
4093.136	1	1	0	0	0.14807	0.06832	0.20048	0.18794	0.10516	0.16618	0.2115	0.29638	0.22599	0.090639	0.052411	0.064264	0.20869	0.20654	0.13964	0.18037	-2.4062	-2.2771	-2.7958	-2.7021	-2.1937	-3.0625	-2.4792	-2.7479	-2.8979	-2.1104	-2.8229	-2.8312	-2.1167	-3.125	-2.3146	-2.75	248.296	293.271	290.864	257.253	406.209	366.231	492.798	448.319	449.983	312.543	167.810	235.459	489.522	438.400	283.873	447.565	0.0014154	0.0010171	0.0004898	1095.9	7.7441e-06	1.9531e-05	1152.2	416.09	2.5499e-05	3.6279e-06	513.96	206.14	165.37	66.52	3.4731e-06	87.431	0.0012589	0.0014135	0.00036763	1105.9	1.3587e-05	1.5307e-05	1161.2	415.89	1.3686e-05	1.5127e-05	520.47	202.57	180.85	66.598	1.3967e-05	85.366	296.100	214.858	339.531	177.039	340.752	244.236	175.993	182.476	278.128	345.928	180.770	185.214	187.633	193.466	274.940	189.836	-8191	255	
4093.233	1	1	0	0	0.19952	0.044023	0.29095	0.12094	0.18016	0.098749	0.2144	0.16761	0.064481	0.22044	0.16641	0.44635	0.13114	0.25435	0.10275	0.18539	-2.5104	-2.2062	-2.8021	-2.8521	-2.0917	-2.9083	-2.5021	-2.5438	-2.9979	-2.1521	-2.95	-3.0312	-2.2812	-2.9354	-2.525	-2.2938	354.494	501.108	211.552	331.038	321.289	384.727	510.345	207.196	221.502	375.623	223.987	511.049	170.370	488.125	495.490	427.563	0.0015568	0.00026574	8.7117e-05	1094.2	1.3156e-05	1.675e-05	1155.6	411.48	1.9218e-05	1.6589e-05	503.7	203.52	165.67	66.178	5.678e-06	86.774	0.0013014	0.0013899	0.00035236	1104.7	1.4567e-05	1.5066e-05	1161.6	411.46	1.4842e-05	1.5178e-05	513.12	200.49	183.89	66.026	1.3521e-05	84.928	298.214	450.824	356.773	177.012	322.634	341.962	176.169	182.273	257.818	331.616	180.684	185.356	187.484	193.163	172.407	190.062	-8191	255	
4093.329	1	1	0	0	0.25402	0.2257	0.24725	0.14021	0.16612	0.071799	0.24582	0.21293	0.23211	0.096848	0.20913	0.26602	0.18904	0.18898	0.27219	0.10291	-2.5938	-2.1604	-2.6917	-2.8208	-2.1292	-2.8688	-2.7979	-2.5458	-2.8479	-2.1583	-2.6063	-3.0667	-2.0938	-2.8646	-2.825	-2.4875	308.283	301.866	369.069	495.168	238.242	388.939	506.731	237.120	224.550	456.870	306.998	517.725	476.719	495.884	485.178	516.683	0.0013238	0.0005666	0.00021107	1100.7	1.4004e-05	2.4652e-05	1149	409.42	2.5009e-05	7.1633e-06	503.58	201.8	164.06	66.13	8.8716e-06	86.604	0.0013659	0.0013403	0.0003459	1110.5	1.5495e-05	1.492e-05	1161	414.57	1.6333e-05	1.5701e-05	515.73	203.39	193.77	66.553	1.5277e-05	86.78	286.223	406.288	201.926	176.735	339.169	349.100	176.101	182.416	177.180	347.688	180.435	185.832	188.110	192.942	518.931	189.752	-8191	255	
4093.425	1	1	0	0	0.032313	0.084804	0.1824	0.11624	0.092774	0.13772	0.1785	0.1629	0.093894	0.27673	0.22124	0.20414	0.13607	0.20916	0.05158	0.097811	-2.5896	-2.2104	-2.4938	-2.9083	-2.2771	-2.8875	-2.8312	-2.1063	-2.9333	-2.3625	-2.4896	-2.9167	-2.3438	-2.8833	-2.675	-2.4625	381.445	424.805	381.400	466.384	454.331	369.626	487.930	438.193	336.803	356.806	456.582	477.333	464.972	498.453	423.890	449.356	0.0013249	0.00041023	0.00021209	1093.5	8.1027e-06	1.0952e-05	1154.6	410.4	9.9651e-06	1.3267e-05	506.8	204.44	166.49	66.634	3.2078e-06	87.956	0.0015832	0.0014702	0.00038287	1132.6	1.7185e-05	1.5601e-05	1169.5	421.91	1.6857e-05	1.5381e-05	516.26	206.03	191.26	66.391	1.4269e-05	87.877	304.524	339.636	390.443	176.876	484.665	392.715	176.019	182.642	379.274	318.142	180.484	185.281	187.595	193.509	248.263	189.813	-8191	255	
4093.546	1	1	0	0	0.13496	0.14185	0.031261	0.31485	0.22296	0.079878	0.037814	0.22152	0.12556	0.13915	0.31529	0.073392	0.031978	0.14838	0.074732	0.44648	-2.6146	-2.5125	-2.275	-3.1667	-2.2479	-2.8979	-2.875	-2.2479	-2.9479	-2.5625	-2.3583	-3.1562	-2.1979	-2.7396	-2.8187	-2.2521	190.108	454.071	396.298	465.772	497.700	405.279	517.609	490.402	285.296	211.232	486.606	267.251	323.364	413.946	413.571	473.701	0.00084207	0.00034143	0.0002085	1099.7	1.8122e-05	1.3973e-05	1165	415.77	5.619e-06	1.0815e-05	517.02	207.48	166.98	67.501	1.7397e-06	88.841	0.0014169	0.0013103	0.00034424	1130.5	1.4832e-05	1.3531e-05	1162.1	423.05	1.4163e-05	1.3341e-05	517.74	206.37	182.37	66.122	1.3058e-05	88.145	293.559	219.599	504.195	176.897	479.089	315.727	176.083	182.658	437.001	356.501	180.847	185.234	187.894	193.121	205.203	189.791	-8191	255	
4093.640	1	1	0	0	0.16715	0.10788	0.1663	0.26389	0.22464	0.16567	0.22449	0.21058	0.13418	0.16823	0.1989	0.14833	0.15283	0.38705	0.19779	0.27045	-2.4521	-2.4792	-2.2958	-3.1354	-2.2771	-2.5375	-3.0125	-2.0312	-2.7042	-2.5417	-2.5833	-3.1646	-2.4896	-2.3875	-2.8833	-2.3375	206.658	274.404	260.831	475.737	418.081	427.850	499.154	471.414	183.051	410.352	254.380	236.460	440.133	516.026	281.376	507.687	0.0010083	0.0010664	0.00025749	1110.6	2.1694e-05	1.1705e-05	1172.7	414.94	5.1187e-06	1.3629e-05	509.84	205.42	165.58	67.078	1.5128e-05	87.536	0.001253	0.0011859	0.00033444	1134.4	1.3738e-05	1.2747e-05	1171.3	422.08	1.3453e-05	1.304e-05	516.94	205.07	181.52	65.821	1.4429e-05	87.571	286.028	351.601	500.569	176.811	399.863	300.948	176.032	182.375	335.551	499.142	180.366	185.286	187.977	193.026	208.385	189.752	-8191	255	
4093.736	1	1	0	0	0.025849	0.17909	0.14122	0.1818	0.22486	0.18154	0.2181	0.03518	0.18422	0.047163	0.34585	0.39676	0.11239	0.23951	0.080049	0.2136	-2.2729	-2.6917	-2.2583	-3.1104	-2.4229	-2.3333	-3.0646	-2.4	-2.6813	-2.7396	-2.3833	-2.9146	-2.5479	-2.5396	-3.0687	-2.4792	299.035	207.445	231.857	487.528	424.605	314.871	464.232	293.574	225.735	468.779	389.450	410.200	426.909	500.546	461.791	476.376	0.0013728	0.0007183	0.00025306	1111.5	2.0894e-06	4.2034e-06	1172.2	413.46	1.0471e-05	1.1825e-05	510.1	204.72	164.55	66.642	5.4973e-06	87.934	0.0012741	0.0012397	0.0003815	1139.3	1.4344e-05	1.354e-05	1189.1	422.69	1.4001e-05	1.3748e-05	527.07	204.75	181.9	66.071	1.5558e-05	87.403	306.457	293.110	434.860	176.887	519.466	304.900	175.984	182.462	322.837	294.891	180.426	185.687	187.966	193.041	347.274	190.055	-8191	255	
4093.832	1	1	0	0	0.17215	0.22215	0.058899	0.23058	0.18747	0.15727	0.24514	0.25124	0.13677	0.11504	0.26796	0.54041	0.13973	0.21	0.15394	0.51421	-2.2687	-2.7708	-2.2083	-2.9583	-2.3667	-2.2062	-2.9854	-2.1396	-2.5104	-2.9437	-2.1312	-2.8187	-2.6479	-2.4625	-2.9792	-2.5375	455.521	428.210	398.727	503.869	181.575	399.996	378.989	195.366	191.809	416.324	437.818	170.922	252.722	251.799	288.715	519.694	0.0011537	0.00048469	0.00018909	1111.7	1.3589e-05	2.0558e-05	1181	417.32	1.0692e-05	1.2538e-05	515.52	208.14	168.06	67.664	3.7268e-06	88.162	0.0012369	0.00124	0.00039167	1128.5	1.369e-05	1.3502e-05	1197.1	421.69	1.3168e-05	1.3604e-05	529.12	204.25	178.37	66.78	1.5099e-05	87.353	307.868	269.282	286.143	176.948	398.548	262.347	176.159	182.493	359.671	497.278	180.602	185.291	188.004	192.942	412.320	189.923	-8191	255	
4093.928	1	1	0	0	0.19304	0.078931	0.18461	0.19424	0.073228	0.13641	0.080456	0.04755	0.15392	0.24764	0.27017	0.05306	0.31622	0.25718	0.081847	0.12894	-2.0917	-2.7771	-2.2958	-3.0833	-2.7	-2.275	-3.1542	-2.5563	-2.4646	-3.0312	-2.2479	-2.8146	-2.7875	-2.4062	-3.0125	-2.7083	278.841	523.564	225.721	466.867	186.909	307.810	291.788	431.555	422.517	372.634	181.298	479.155	503.867	179.386	246.482	486.366	0.0014706	0.0012263	0.00043811	1114.6	8.0755e-06	2.7745e-06	1180.9	418.06	7.7613e-06	1.3679e-05	513.81	206.18	165.37	67.407	2.7759e-06	88.261	0.0011937	0.0013168	0.00039806	1133.3	1.384e-05	1.51e-05	1208.4	424.98	1.4e-05	1.581e-05	538.28	205.01	182.02	67.791	1.5711e-05	87.458	311.629	520.200	335.191	177.104	420.455	321.878	176.481	182.799	302.796	234.290	180.939	185.409	187.743	192.975	231.339	190.052	-8191	255	
4094.025	1	1	0	0	0.13363	0.00089863	0.10258	0.15109	0.22589	0.18693	0.12489	0.11759	0.0062835	0.11061	0.16732	0.091537	0.24644	0.11976	0.11622	0.2193	-2.0521	-2.8792	-2.3563	-2.6875	-2.7479	-2.1792	-3.0667	-2.8479	-2.3896	-2.9646	-2.3208	-2.7104	-2.7729	-2.2604	-2.7979	-2.6312	335.193	180.000	176.305	192.685	261.810	374.576	486.606	407.723	462.777	170.591	507.116	207.671	472.241	490.678	192.975	468.186	0.0015654	0.002938	0.00029293	1112.7	6.8489e-06	6.1745e-06	1191.2	419.69	1.2122e-05	1.0828e-05	517.43	204.41	166.44	67.14	8.0396e-06	88.004	0.0012411	0.0014047	0.00037999	1123.3	1.313e-05	1.4797e-05	1197.2	419.56	1.2966e-05	1.4718e-05	524.1	200.84	177.25	66.823	1.3509e-05	85.786	295.487	205.643	298.842	176.595	373.357	187.364	176.281	182.396	229.455	267.295	180.321	185.548	187.279	193.354	326.512	189.927	-8191	255	
4094.145	1	1	0	0	0.13517	0.14469	0.073741	0.033911	0.050091	0.052349	0.16561	0.12616	0.043733	0.33273	0.15469	0.19526	0.19706	0.13513	0.097389	0.028697	-1.8917	-2.8688	-2.35	-2.45	-2.7771	-2.1542	-2.9688	-2.8042	-2.2604	-3.0875	-2.4479	-2.5646	-3.1	-2.4083	-2.8083	-2.7896	458.352	384.659	508.680	297.793	484.832	453.019	327.257	434.167	522.486	216.339	464.921	168.329	252.662	510.955	314.437	426.562	0.0014216	0.00038013	0.00014901	1111.7	7.1823e-06	4.4762e-06	1193.6	419.25	1.0206e-05	1.6822e-05	516.32	204.16	165.23	66.446	9.4104e-06	87.14	0.0011832	0.0013261	0.00034266	1113.2	1.3202e-05	1.4598e-05	1187.7	415.62	1.3429e-05	1.4484e-05	519.66	199.27	179.32	66.205	1.3156e-05	85.326	298.186	364.018	366.062	176.841	353.724	211.924	176.172	182.601	266.751	344.489	180.960	185.212	187.393	193.128	418.429	189.852	-8191	255	
4094.241	1	1	0	0	0.061644	0.13281	0.18904	0.28801	0.18929	0.25438	0.14985	0.23556	0.1703	0.033767	0.235	0.14054	0.17568	0.18283	0.26032	0.071968	-1.8083	-3.0917	-2.4083	-2.4938	-2.9396	-2.3	-2.7438	-2.9354	-2.3917	-2.9958	-2.6583	-2.5271	-3.2	-2.5687	-2.3979	-3.0187	201.894	258.095	371.522	453.812	431.780	167.417	516.115	486.822	522.540	509.975	181.105	168.195	306.581	435.625	503.182	179.508	0.0013243	0.001732	0.00024426	1105.9	1.3381e-05	4.251e-06	1188	417.85	6.1537e-06	1.5319e-05	516.79	204.7	164.18	66.749	4.7605e-06	88.18	0.0012833	0.0013289	0.0003416	1111	1.4487e-05	1.4525e-05	1177.7	414.46	1.4261e-05	1.383e-05	516.86	199.23	180.86	65.796	1.2422e-05	85.547	278.291	315.124	222.597	176.916	284.932	376.822	176.124	182.416	253.144	357.138	180.730	185.370	187.675	192.962	281.626	189.915	-8191	255	
4094.337	1	1	0	0	0.10542	0.15161	0.050115	0.11036	0.055292	0.35532	0.32531	0.26658	0.040825	0.1672	0.035859	0.27212	0.10559	0.10531	0.23147	0.28864	-1.9646	-3.0187	-2.6646	-2.4958	-3.0458	-2.3396	-2.5896	-2.8104	-2.3375	-2.7708	-2.8146	-2.3354	-2.9	-2.4167	-2.4896	-3.0729	308.562	211.902	251.828	461.866	461.627	469.029	523.649	471.945	470.666	498.191	411.045	523.617	193.085	485.747	176.563	443.900	0.0011834	0.000823	0.00022958	1117.2	7.5792e-06	1.8303e-05	1186.1	416.94	6.5533e-06	1.5274e-05	521.16	203.92	165.05	66.826	7.4227e-06	88.033	0.0012991	0.0012304	0.0003232	1116.9	1.4687e-05	1.3792e-05	1181.2	419.08	1.5108e-05	1.3936e-05	520.44	202.11	185.56	65.968	1.2944e-05	87.131	307.754	337.782	520.002	176.740	408.619	357.051	176.195	182.563	363.878	266.029	180.550	185.402	188.090	193.179	340.559	189.793	-8191	255	
4094.434	1	1	0	0	0.19333	0.061824	0.11017	0.12386	0.16059	0.052409	0.4042	0.10772	0.2098	0.12304	0.26861	0.42677	0.011496	0.29902	0.045743	0.093188	-1.9979	-2.8063	-2.5896	-2.3646	-2.9896	-2.5417	-2.6771	-3.1875	-2.1229	-2.8583	-2.8	-2.3937	-3.0271	-2.5354	-2.3542	-3.1833	460.215	453.455	348.416	210.065	329.541	167.706	165.770	170.433	323.162	509.064	403.180	474.945	198.593	482.650	309.199	229.833	0.0011059	0.00064117	0.00031752	1117.4	4.677e-06	5.7068e-06	1198.5	418.79	1.5344e-05	3.1533e-06	511.98	203.09	163.64	66.465	1.9126e-05	87.162	0.0013761	0.0012527	0.00033927	1139.1	1.5532e-05	1.4422e-05	1195.6	428	1.5867e-05	1.4534e-05	523.84	204.88	187.18	65.928	1.4065e-05	87.955	296.142	337.269	234.058	176.675	503.941	278.411	176.023	182.460	314.326	271.664	180.535	185.217	188.007	193.114	183.706	190.228	-8191	255	
4094.505	1	1	0	0	0.1732	0.045332	0.06181	0.27769	0.16163	0.33168	0.15446	0.11243	0.14516	0.085919	0.35642	0.26579	0.28142	0.16783	0.16373	0.12085	-1.8979	-2.5583	-2.8396	-2.3583	-2.8417	-2.8583	-2.6625	-3.1167	-2.3208	-2.6125	-2.8583	-2.1	-2.8458	-2.7979	-2.1667	-3.1458	182.262	286.886	178.514	174.875	422.184	421.546	467.852	463.789	434.682	380.779	502.875	514.539	416.130	493.271	251.649	426.751	0.0013147	0.00093713	0.0005172	1117.4	1.1306e-05	1.0464e-05	1191.4	415.45	1.28e-05	3.1261e-06	512.32	200.33	162.65	65.371	7.5203e-06	86.563	0.0014695	0.0013791	0.00039052	1169.6	1.7315e-05	1.6391e-05	1217.8	437.04	1.7752e-05	1.6485e-05	534.52	208.78	192.99	66.207	1.6583e-05	89.292	302.193	289.199	192.740	176.645	449.590	341.688	175.808	182.402	355.550	193.346	180.723	185.598	187.826	193.619	323.961	189.951	-8191	255	
4094.624	1	1	0	0	0.087648	0.16632	0.28475	0.13161	0.29727	0.11208	0.15784	0.1806	0.043572	0.16998	0.098807	0.13489	0.16409	0.055888	0.092765	0.3259	-1.9479	-2.4208	-2.8292	-2.2062	-2.7896	-2.775	-2.5333	-3.2354	-2.4958	-2.5375	-3.0396	-2.3563	-2.6813	-2.9021	-2.2958	-3.0563	200.884	401.653	352.082	479.408	258.854	400.697	461.755	493.259	516.682	341.843	489.871	505.517	253.583	274.088	481.642	432.081	0.0013715	0.0011029	0.00037339	1123.7	1.1404e-05	4.499e-06	1200.6	418.86	2.4042e-05	8.5404e-06	512.13	198.42	162.01	64.693	2.5065e-05	85.782	0.0015278	0.0014179	0.00042071	1181.9	1.6526e-05	1.5983e-05	1232.2	439.31	1.7646e-05	1.6974e-05	550.56	211.9	201.86	67.767	2.2222e-05	92.923	310.700	292.695	249.577	176.746	502.836	192.211	176.040	182.706	336.184	287.278	180.719	185.279	187.670	193.420	245.485	189.981	-8191	255	
4094.720	1	1	0	0	0.087865	0.074515	0.15855	0.26465	0.09925	0.047361	0.1975	0.045938	0.36497	0.11725	0.28045	0.14833	0.16883	0.086614	0.14196	0.10417	-1.8729	-2.2188	-2.9313	-2.2375	-2.5583	-2.9125	-2.2292	-3.15	-2.5792	-2.3937	-2.9708	-2.3458	-2.5958	-2.9	-2.05	-2.9958	439.557	507.342	522.896	521.669	286.651	361.207	202.906	421.809	346.410	384.967	165.764	464.158	189.628	489.736	516.879	523.646	0.0010581	0.0016221	0.00044688	1122.7	8.2762e-06	1.3658e-05	1201.6	412.09	2.2986e-05	1.7794e-05	504.96	199.73	161.99	64.874	1.3542e-05	87.482	0.002037	0.0019861	0.00064118	1253	2.3293e-05	2.2585e-05	1315.7	459.48	2.2379e-05	2.1121e-05	574.3	214.78	202.53	68.052	2.1551e-05	91.455	307.063	201.770	170.787	177.186	415.840	174.700	176.024	182.921	344.134	202.807	180.741	185.839	187.968	193.396	238.498	190.400	-8191	255	
4094.816	1	1	0	0	0.33417	0.073218	0.16032	0.19389	0.034334	0.093142	0.26076	0.19174	0.22016	0.068276	0.31759	0.47373	0.072724	0.08725	0.18902	0.15303	-2.1396	-2.3292	-3.0646	-2.5104	-2.5396	-2.8229	-2.3083	-2.9813	-2.6875	-2.2083	-3.1188	-2.4021	-2.4896	-3.0771	-2.2979	-2.9167	431.067	249.642	473.905	498.727	292.285	479.635	434.854	488.430	409.598	252.912	489.574	433.294	468.017	451.617	274.189	447.317	0.0010658	0.0017023	0.00015489	1125.5	2.0497e-05	1.4488e-05	1211.7	417.27	5.0319e-06	2.3404e-05	509.65	199.15	159.57	64.821	7.9871e-06	86.462	0.0017089	0.0017205	0.00054642	1205.1	1.9124e-05	2.0202e-05	1296.1	448.83	2.0106e-05	2.1206e-05	578.37	214.33	205.77	69.811	2.4656e-05	92.376	308.241	246.220	397.961	177.093	455.768	287.705	176.216	182.775	344.609	183.155	181.029	185.561	187.861	193.169	249.851	189.732	-8191	255	
4094.914	1	1	0	0	0.21725	0.17789	0.10747	0.15896	0.21268	0.072958	0.23726	0.10186	0.19478	0.24442	0.2624	0.089604	0.058833	0.14394	0.1202	0.12517	-2.3458	-2.1854	-2.9313	-2.5604	-2.4771	-2.9833	-2.4	-2.9	-2.9	-2.0646	-2.9688	-2.5667	-2.3563	-3.0125	-2.3625	-2.6979	394.970	188.175	290.555	487.913	193.601	244.486	407.496	276.238	193.519	478.306	467.376	412.517	323.380	482.578	425.278	499.257	0.0011939	0.0013493	0.00020168	1110.3	2.0656e-05	1.7045e-05	1194.8	413.94	8.1765e-06	1.9401e-05	512.31	199.71	160.85	64.511	1.2866e-05	86.165	0.0019621	0.0021363	0.00061943	1209.2	2.0619e-05	2.2671e-05	1282	441.78	1.8971e-05	2.0937e-05	559.34	207.34	192.01	67.8	1.9392e-05	88.467	284.485	495.967	272.052	176.818	315.900	267.627	175.932	182.488	168.864	182.527	180.838	185.381	187.545	193.131	328.732	189.750	-8191	255	
4095.033	1	1	0	0	0.28526	0.22711	0.072829	0.10695	0.18747	0.13635	0.1666	0.033648	0.12376	0.17285	0.099084	0.186	0.20667	0.098703	0.31796	0.26284	-2.325	-2.2042	-2.8229	-2.6583	-2.4354	-2.9833	-2.4917	-2.6437	-2.8229	-2.0792	-2.9521	-2.6167	-1.9937	-3.1	-2.2708	-2.4542	224.768	220.640	521.528	445.518	194.457	258.282	249.799	249.703	240.432	298.827	215.879	505.086	335.295	207.506	371.474	456.289	0.0014295	0.0011713	0.00063982	1111.9	8.378e-06	5.1274e-06	1203.1	414.42	1.4417e-05	1.0919e-05	507.07	197.06	159.19	63.631	7.0243e-06	85.598	0.0016026	0.0018292	0.00048921	1174.7	1.8265e-05	2.1217e-05	1267.1	439.99	2.0037e-05	2.2929e-05	564.34	210.39	209.31	70.131	2.3487e-05	91.211	273.795	244.942	288.121	176.993	260.850	272.397	176.571	182.348	225.139	195.102	180.588	185.594	187.267	193.408	426.926	190.271	-8191	255	
4095.105	1	1	0	0	0.11414	0.12494	0.24478	0.28082	0.22813	0.10977	0.27868	0.080197	0.21093	0.29778	0.16029	0.1092	0.13593	0.27093	0.22407	0.33875	-2.5396	-2.1042	-2.8479	-2.7646	-2.2667	-2.9854	-2.6583	-2.4333	-2.9542	-2.3854	-2.8229	-2.7792	-2.3271	-3.0458	-2.4833	-2.5354	438.880	288.701	345.391	501.772	286.552	275.155	486.891	405.526	475.213	475.734	329.418	255.957	506.754	178.215	259.933	437.165	0.0017739	0.0016471	0.00059105	1110.4	1.445e-05	1.0278e-05	1193.3	410.12	2.7975e-05	8.8492e-06	505.07	196.91	158.84	64.332	2.4336e-06	85.236	0.0021541	0.0024013	0.00061009	1215.7	2.4511e-05	2.6143e-05	1292.9	448.52	2.4866e-05	2.6202e-05	572.03	214.01	225.12	71.368	2.4821e-05	93.007	299.148	368.834	307.145	176.858	323.477	186.343	176.389	182.558	191.156	408.209	180.570	185.537	187.759	193.600	329.931	190.074	-8191	255	
4095.226	1	1	0	0	0.2235	0.23554	0.13473	0.23789	0.16636	0.10144	0.25331	0.19959	0.1852	0.17482	0.32194	0.34161	0.032542	0.048985	0.07934	0.39641	-2.5271	-2.0083	-2.5917	-2.9938	-2.1688	-2.8771	-2.6083	-2.5229	-2.7896	-2.1229	-2.6896	-3.0875	-2.0542	-2.9833	-2.6792	-2.45	192.264	416.034	390.496	461.238	404.910	199.305	494.569	435.096	453.678	211.054	512.922	497.731	344.768	346.977	238.485	493.283	0.0018007	0.0012794	0.00033557	1119	5.5183e-06	8.0294e-06	1184.7	407.51	1.6886e-05	1.2061e-05	496.68	196.92	160.33	63.91	3.3686e-06	86.019	0.0025095	0.0025991	0.0006743	1258.6	3.0313e-05	3.0289e-05	1338.1	469.25	3.2785e-05	3.192e-05	601.72	226.77	261.67	74.807	3.0348e-05	98.277	292.852	355.745	393.505	177.151	236.477	493.089	176.382	182.788	198.106	339.295	181.019	185.571	188.329	193.466	419.717	189.871	-8191	255	
4095.322	1	1	0	0	0.16228	0.13436	0.030656	0.20201	0.24727	0.20069	0.1537	0.10638	0.13496	0.23956	0.13489	0.22725	0.22437	0.11328	0.19181	0.32492	-2.5979	-2.2875	-2.4688	-3.0167	-2.2583	-2.9083	-2.8896	-2.3896	-2.9479	-2.5875	-2.4396	-3.0667	-2.1292	-2.8625	-2.7042	-2.35	422.294	326.432	416.588	468.243	522.061	478.777	462.916	168.098	446.439	314.494	497.877	173.406	438.345	228.118	324.480	468.500	0.0018142	0.0015994	0.00020321	1109	2.6261e-05	1.0626e-05	1180.4	406.93	2.2024e-05	6.6916e-06	488.9	194.31	157.54	63.298	8.2641e-06	83.717	0.0030794	0.0029126	0.00074747	1290	3.3561e-05	3.0446e-05	1331.7	472.83	3.2146e-05	2.947e-05	586.79	225.04	251.25	72.274	2.8174e-05	96.84	297.788	365.647	186.488	176.960	244.439	333.734	176.686	182.851	377.358	291.985	180.396	185.408	188.268	193.101	335.454	189.703	-8191	255	
4095.418	1	1	0	0	0.17562	0.092263	0.1024	0.162	0.40612	0.10379	0.18508	0.11642	0.046712	0.26808	0.30624	0.33302	0.090004	0.33004	0.047319	0.15123	-2.5938	-2.3354	-2.35	-2.8625	-2.2208	-2.7375	-2.9062	-2.3167	-2.9604	-2.4104	-2.65	-2.9583	-2.1875	-2.7375	-2.825	-2.3979	356.369	429.691	224.147	397.202	330.538	178.638	415.489	492.031	226.331	486.344	174.841	511.283	360.787	494.114	393.665	356.698	0.00096942	0.0016827	0.00024949	1094.9	1.2648e-05	7.3524e-06	1173	406.8	2.3743e-05	8.2653e-06	494.74	191.93	157.28	63.315	9.3874e-06	84.232	0.0028547	0.0026248	0.00068056	1274.6	2.9849e-05	2.654e-05	1288.6	464.43	2.6884e-05	2.4516e-05	562.72	217.65	223.11	68.575	2.2957e-05	93.443	304.210	348.236	493.631	177.069	373.107	305.380	176.382	182.739	341.982	442.781	180.499	185.721	187.907	193.329	233.340	189.778	-8191	255	
4095.514	1	1	0	0	0.20663	0.097673	0.1803	0.37869	0.22283	0.098834	0.085816	0.19442	0.087752	0.11278	0.28036	0.14494	0.29889	0.19982	0.061646	0.32324	-2.4375	-2.4167	-2.3208	-3.0792	-2.4333	-2.4854	-3.0021	-2.2875	-2.8	-2.7313	-2.55	-3.1437	-2.4146	-2.6583	-2.875	-2.3417	390.878	443.778	196.378	481.246	281.214	486.530	469.401	488.721	411.199	446.761	461.949	492.175	411.331	271.415	331.678	518.531	0.00085004	0.0019177	0.00035996	1096.2	2.8908e-05	5.3536e-06	1172.2	406.15	1.4209e-05	9.339e-06	498.33	193.34	157.03	63.995	6.6332e-06	84.996	0.0022583	0.0021513	0.0005983	1244.9	2.5733e-05	2.394e-05	1282	465.34	2.5533e-05	2.4224e-05	571.3	219.92	220.42	68.662	2.4206e-05	94.101	349.803	277.638	205.749	177.053	418.916	333.012	176.273	182.575	392.867	322.687	180.724	185.710	187.945	193.486	509.321	190.140	-8191	255	
4095.635	1	1	0	0	0.10543	0.042234	0.042471	0.21038	0.15325	0.33547	0.28822	0.30256	0.21846	0.12062	0.19056	0.31281	0.20028	0.2363	0.14045	0.07712	-2.2521	-2.6729	-2.3083	-3.1375	-2.5021	-2.5333	-3.1917	-2.3375	-2.7021	-2.6688	-2.2708	-3.2062	-2.35	-2.5021	-3.1104	-2.2958	438.284	280.816	465.483	481.407	392.962	518.582	467.556	465.070	226.819	323.665	456.284	520.147	376.586	483.179	316.997	310.265	0.00094219	0.0018686	0.00034365	1095.7	1.3265e-05	5.2392e-06	1185.1	409.42	1.0008e-05	1.4951e-05	503.24	197.24	157.11	64.366	6.5978e-06	86.196	0.0020965	0.0020182	0.00059549	1220.8	2.2478e-05	2.1031e-05	1277.2	456.4	2.22e-05	2.1522e-05	575.19	216.5	212.18	68.624	2.4881e-05	93.594	323.313	290.803	492.931	177.315	386.614	475.048	176.301	183.267	441.181	328.777	180.186	185.372	187.820	193.274	178.067	190.187	-8191	255	
4095.729	1	1	0	0	0.1098	0.022663	0.32511	0.2792	0.14118	0.22004	0.14676	0.2927	0.1955	0.12632	0.23649	0.17257	0.081457	0.25767	0.23204	0.42191	-2.3083	-2.6604	-2.3396	-2.9417	-2.4208	-2.5792	-3.2958	-2.4229	-2.7667	-2.8	-2.1396	-3.0312	-2.5938	-2.5417	-2.9771	-2.425	438.634	311.715	267.036	165.543	502.532	176.423	422.938	508.081	175.875	442.267	209.891	511.221	389.455	178.257	290.172	468.882	0.0012599	0.00033423	0.0003312	1097.3	5.8703e-06	2.4732e-05	1179	409.04	1.3122e-05	7.0184e-06	497.65	194.81	157.01	63.353	1.1837e-05	84.239	0.0020554	0.0020432	0.00064425	1225.4	2.3441e-05	2.297e-05	1310.9	459.93	2.3922e-05	2.4504e-05	592.15	219.1	223.23	70.383	2.9653e-05	95.3	309.412	171.044	225.817	177.256	441.627	280.275	176.144	183.375	501.720	237.271	180.548	185.623	187.819	193.205	344.368	189.960	-8191	255	
4095.825	1	1	0	0	0.21998	0.090306	0.10213	0.31623	0.13452	0.030352	0.39433	0.23375	0.14081	0.13667	0.21365	0.14997	0.016264	0.27338	0.33332	0.29084	-2.1729	-3.0021	-2.1917	-3.0354	-2.7479	-2.3187	-3.0958	-2.5604	-2.5187	-3.0104	-2.4042	-2.9146	-2.9562	-2.5292	-2.7833	-2.6312	349.054	426.380	507.847	479.720	409.237	457.443	444.961	498.455	363.736	319.199	198.785	497.071	414.230	485.166	440.766	424.235	0.001218	0.0019655	0.00042364	1103.2	1.5187e-05	8.4076e-06	1177	403.12	2.0406e-05	2.1242e-05	488.53	191.98	158.76	63.276	6.8578e-06	83.687	0.0024005	0.0025973	0.00081322	1271.5	2.8183e-05	2.9748e-05	1367	472.46	2.8711e-05	3.149e-05	619.42	225.41	240.08	74.1	3.3403e-05	97.058	302.014	206.810	250.285	177.247	402.749	271.015	176.283	182.819	297.826	508.038	180.951	185.302	187.824	192.884	408.543	190.059	-8191	255	
4095.921	1	1	0	0	0.17439	0.1526	0.26233	0.16431	0.18897	0.11511	0.33632	0.1522	0.11633	0.095042	0.27503	0.032788	0.097494	0.060756	0.18377	0.035088	-2.0604	-2.9854	-2.2396	-2.8375	-2.8333	-2.0042	-3.2417	-2.6271	-2.4271	-2.9625	-2.3771	-2.6375	-2.8542	-2.2375	-2.9104	-2.7917	230.098	465.094	188.717	516.033	316.157	294.378	440.610	498.936	397.734	364.968	474.390	208.162	401.574	508.471	476.036	293.734	0.0010482	0.0026418	0.00024211	1119.3	1.8567e-05	2.2332e-05	1199.4	409.35	2.0929e-05	2.1294e-05	497.4	196.35	162.58	64.783	6.494e-06	85.227	0.0026391	0.0030051	0.00084916	1299.2	2.9121e-05	3.2378e-05	1375.5	473.92	2.7645e-05	3.1295e-05	603.65	220.84	228.83	73.367	2.6848e-05	93.204	278.846	232.377	270.065	176.845	246.232	231.561	176.120	182.694	218.814	196.328	180.901	185.802	188.054	193.103	431.670	190.253	-8191	255	
4096.017	1	1	0	0	0.13996	0.085142	0.24403	0.174	0.14757	0.097386	0.35289	0.24554	0.09742	0.11584	0.24273	0.096044	0.10006	0.0527	0.052002	0.27426	-2.0563	-2.875	-2.275	-2.7125	-2.7667	-2.2417	-3.0292	-2.9104	-2.1458	-3.0021	-2.6229	-2.6125	-2.9437	-2.3396	-2.6063	-2.9458	179.544	385.922	348.147	404.492	231.782	436.749	442.171	485.578	291.156	457.562	391.557	343.581	195.282	221.107	191.862	453.862	0.001455	0.00037959	0.00046377	1137.5	1.9687e-05	7.9805e-06	1224.9	420.45	1.3445e-05	1.557e-05	512.12	198.75	161.79	65.95	1.0642e-05	86.246	0.0021645	0.0024373	0.00062761	1237	2.2895e-05	2.548e-05	1318.1	455.7	2.2825e-05	2.5446e-05	578.44	214.6	220.64	72.443	2.3894e-05	92.562	284.897	190.760	313.405	176.942	373.544	229.821	176.356	182.917	239.575	304.836	181.011	185.569	187.882	193.715	263.707	190.275	-8191	255	
4096.114	1	1	0	0	0.076296	0.2469	0.29523	0.21028	0.13779	0.19749	0.26448	0.11539	0.14399	0.23603	0.18029	0.10498	0.16339	0.13227	0.16726	0.19208	-1.9771	-2.8063	-2.275	-2.7188	-2.9646	-2.2729	-2.8125	-2.8375	-2.1792	-2.9688	-2.45	-2.5021	-2.8792	-2.4083	-2.6875	-2.9229	371.504	304.631	248.930	188.025	192.974	321.554	441.869	389.520	171.572	463.848	176.380	482.544	520.475	194.725	476.797	174.936	0.001802	0.0004187	0.00019	1135	1.9848e-05	1.0599e-05	1222.1	422.65	2.3934e-05	2.0195e-05	514.96	200.42	162.25	65.828	9.1506e-06	86.614	0.0022306	0.0024074	0.00061773	1239.6	2.5331e-05	2.6187e-05	1319.9	460.48	2.5189e-05	2.5351e-05	578.71	215.19	226.45	71.896	2.3039e-05	92.476	289.480	484.628	188.874	177.143	321.989	309.640	176.173	182.539	208.397	361.732	180.969	185.293	187.394	193.406	385.371	190.311	-8191	255	
4096.210	1	1	0	0	0.20495	0.22458	0.11115	0.30139	0.18545	0.11238	0.1346	0.4704	0.13821	0.29435	0.27125	0.26802	0.26753	0.25704	0.1904	0.24613	-1.8583	-2.9229	-2.4042	-2.4083	-3.0354	-2.375	-2.6437	-2.9146	-2.1979	-2.7458	-2.7188	-2.5125	-2.9583	-2.3771	-2.675	-2.9521	258.905	210.065	168.315	190.873	278.681	231.940	375.599	465.088	348.267	336.849	504.816	460.609	427.223	183.611	207.703	465.740	0.0019309	0.00091064	0.00025371	1135.3	2.5659e-05	9.3032e-06	1217.8	417.77	1.5022e-05	6.3337e-06	501.51	198.41	163.94	64.942	1.9209e-05	84.864	0.0023517	0.0023258	0.0006131	1246.6	2.7574e-05	2.652e-05	1322.4	466.29	2.8562e-05	2.6564e-05	579.11	219.05	238.39	71.754	2.4375e-05	93.922	284.906	311.387	448.236	176.773	271.762	363.971	176.065	182.677	256.009	410.221	180.592	185.299	188.402	193.522	345.140	189.919	-8191	255	
4096.330	1	1	0	0	0.13473	0.1943	0.069051	0.34541	0.22119	0.07829	0.20704	0.15084	0.243	0.25247	0.16232	0.15702	0.076149	0.10757	0.061824	0.10587	-1.8	-2.7167	-2.6562	-2.2708	-2.8812	-2.2313	-2.5958	-2.9813	-2.2167	-2.875	-2.9208	-2.4854	-3.0333	-2.7042	-2.3854	-3.1688	288.365	201.624	209.317	171.914	311.541	472.322	467.428	453.011	287.539	257.055	496.733	498.851	203.317	345.114	412.147	286.042	0.00083245	0.00054369	0.00064018	1141.5	3.9456e-06	2.1547e-05	1220.6	417.77	1.3742e-05	1.3347e-05	506.74	199.1	164.18	64.912	1.5455e-06	85.882	0.0025564	0.0023621	0.00063364	1275.1	2.8695e-05	2.655e-05	1326.1	474.61	2.8683e-05	2.605e-05	582.33	224.7	239.67	72.012	2.4694e-05	96.628	321.390	354.293	323.966	177.169	253.137	336.281	176.103	182.251	311.463	324.516	180.891	185.438	188.140	193.527	502.354	189.940	-8191	255	
4096.402	1	1	0	0	0.22292	0.15694	0.14805	0.17971	0.13501	0.25449	0.10689	0.16126	0.098057	0.28632	0.29124	0.22164	0.12466	0.16194	0.16635	0.19571	-1.7354	-2.575	-2.6417	-2.2333	-2.75	-2.5958	-2.7125	-3.1521	-2.2188	-2.5771	-2.9208	-2.2875	-2.9667	-2.7833	-2.3063	-3.2313	284.311	172.869	297.971	193.661	453.004	349.898	280.457	390.817	184.109	189.812	456.124	510.194	298.386	487.022	332.307	495.264	0.00069965	0.0010378	0.0003458	1143.5	5.786e-07	5.5842e-06	1239.4	425.16	2.592e-05	7.3212e-06	517.62	203.16	164.64	66.135	1.0104e-05	87.66	0.0025579	0.002353	0.0006368	1295.6	2.7024e-05	2.4744e-05	1329.6	480.65	2.5909e-05	2.3822e-05	583.66	227.53	230.3	71.968	2.447e-05	98.007	297.232	310.791	185.135	176.942	405.612	442.977	176.026	182.841	349.419	398.715	180.670	185.365	187.787	193.614	268.090	190.291	-8191	255	
4096.498	1	1	0	0	0.21872	0.10433	0.2844	0.14541	0.13313	0.13917	0.30233	0.061309	0.14091	0.016602	0.35313	0.13198	0.20515	0.31858	0.028112	0.2653	-1.8937	-2.3854	-2.8229	-2.3958	-2.9292	-2.6771	-2.4854	-3.1125	-2.3833	-2.4542	-2.9583	-2.2542	-2.775	-2.8063	-2.1396	-2.925	317.433	496.123	171.442	506.219	278.620	493.235	431.787	380.776	431.117	364.325	473.944	202.992	189.489	215.658	224.421	478.535	0.0011923	0.0014598	0.00057609	1141.8	1.4824e-05	2.0348e-05	1253.6	428.46	9.1921e-06	9.6826e-06	525.21	205.11	164.35	66.595	2.0989e-05	87.761	0.0023773	0.0022281	0.0006508	1303.5	2.6136e-05	2.4754e-05	1358.9	488.42	2.5351e-05	2.3555e-05	598.13	229.07	224.91	71.479	2.4737e-05	96.755	301.699	310.494	457.993	177.063	389.205	348.228	176.184	182.694	290.241	238.534	180.852	185.415	189.030	193.683	236.584	190.511	-8191	255	
4096.594	1	1	0	0	0.24005	0.15805	0.087509	0.29096	0.12231	0.18131	0.36043	0.26874	0.050607	0.044134	0.11679	0.21654	0.40548	0.34455	0.19811	0.20002	-1.9625	-2.4354	-2.9979	-2.2479	-2.6854	-2.6167	-2.1625	-3.1396	-2.4854	-2.5646	-3.2417	-2.4	-2.7812	-3.0792	-2.1417	-3.0958	462.679	270.644	219.324	513.826	274.360	287.182	501.736	450.823	476.943	356.760	260.185	427.109	452.688	190.354	407.150	442.133	0.0012864	0.0017715	0.00043673	1144.6	6.2646e-06	1.2376e-05	1261.1	435.58	3.9868e-06	7.1274e-06	521.16	202.53	163.52	65.977	2.7326e-05	87.577	0.0021191	0.0019951	0.00062516	1269.5	2.2873e-05	2.2296e-05	1362.3	480.5	2.4141e-05	2.3416e-05	609.37	227.46	227.8	72.281	2.9143e-05	98.034	312.098	331.535	510.634	176.969	387.941	245.967	176.392	182.698	496.245	509.780	180.885	185.825	188.569	193.283	203.926	189.910	-8191	255	
4096.713	1	1	0	0	0.19836	0.092243	0.063272	0.33833	0.17022	0.094999	0.18615	0.10817	0.044411	0.38225	0.18502	0.26341	0.25862	0.10953	0.090734	0.20976	-1.8229	-2.3937	-2.8708	-2.3896	-2.4771	-2.8333	-2.4229	-2.8542	-2.5979	-2.1917	-3.1604	-2.3542	-2.4562	-3.0729	-2.2938	-2.9146	229.102	519.654	524.233	480.001	307.513	313.665	500.713	517.106	468.260	252.240	356.652	520.276	214.743	267.058	207.861	513.301	0.0008607	0.0017243	0.0001892	1140.9	1.9696e-05	1.4257e-05	1242.5	423.57	9.5361e-06	3.1255e-05	514.42	200.58	163.07	65.618	2.3281e-05	86.987	0.0024058	0.0024186	0.0007806	1305.9	2.683e-05	2.7481e-05	1406.9	486.06	2.7187e-05	2.7879e-05	625.19	228.09	232.02	73.749	3.1346e-05	97.52	296.286	172.970	166.895	177.369	408.327	198.759	176.452	183.023	256.603	238.527	181.007	185.429	188.139	193.297	270.025	190.387	-8191	255	
4096.809	1	1	0	0	0.1293	0.13425	0.24186	0.14121	0.19138	0.25491	0.48474	0.22116	0.11157	0.18753	0.099705	0.10588	0.24206	0.13469	0.11448	0.29745	-2.1375	-2.2583	-2.9458	-2.5229	-2.3146	-2.8375	-2.2708	-2.775	-2.6208	-2.1583	-3.0917	-2.6771	-2.4208	-2.9938	-2.2042	-2.6458	515.101	292.051	391.405	242.225	229.917	482.347	475.709	496.107	313.241	338.502	420.964	178.398	167.295	186.649	293.050	244.526	0.00083579	0.0013888	0.00065266	1135.7	1.1731e-05	2.2016e-05	1245.1	424.48	5.6674e-06	6.9235e-06	517.44	202.83	164.41	66.567	1.4969e-05	88.135	0.0024598	0.0026718	0.00080893	1302.3	2.7212e-05	3.0267e-05	1413.3	483.15	2.6954e-05	3.0007e-05	625.22	229	231.7	75.384	2.9502e-05	97.438	303.689	498.144	292.500	177.114	420.314	236.995	176.115	182.672	430.627	192.016	181.351	185.582	188.985	193.369	445.340	190.058	-8191	255	
4096.906	1	1	0	0	0.39124	0.11946	0.17062	0.062262	0.24935	0.20224	0.39349	0.08804	0.13945	0.091533	0.34885	0.10251	0.048219	0.12064	0.14615	0.12304	-2.3542	-2.025	-2.8875	-2.4417	-2.4062	-3.0438	-2.3854	-2.5708	-2.7354	-2.1542	-2.875	-2.5979	-2.3583	-2.9792	-2.1646	-2.5312	222.386	356.242	466.619	505.607	416.861	477.284	442.946	468.083	389.549	234.916	387.095	365.683	487.277	344.275	201.849	327.081	0.0015385	0.0013668	0.00051263	1147.4	2.5084e-05	1.2866e-05	1255.1	423.75	2.989e-05	1.1592e-05	519.88	207.06	167.99	67.155	1.2229e-05	90.056	0.0023859	0.0027684	0.00077312	1306.1	2.821e-05	3.3227e-05	1431.4	490.61	3.0173e-05	3.4678e-05	641.11	237.24	251.81	78.624	3.1738e-05	101.12	304.044	310.615	353.604	177.176	276.061	243.050	176.376	182.617	249.140	203.199	181.101	185.584	187.693	193.488	350.956	190.105	-8191	255	
4097.002	1	1	0	0	0.13716	0.065247	0.012812	0.063544	0.23828	0.088864	0.14922	0.21439	0.13973	0.10647	0.23245	0.10709	0.23798	0.15612	0.19013	0.31904	-2.3958	-1.9958	-2.6396	-2.8167	-2.2667	-2.9083	-2.525	-2.6042	-2.9271	-2.1521	-2.725	-2.8812	-2.4292	-3.175	-2.1688	-2.3708	230.020	362.401	348.626	377.153	284.198	236.566	495.405	458.405	295.729	374.453	478.669	211.405	229.320	485.194	238.598	262.589	0.0019342	0.0015843	0.00061642	1147.7	2.1786e-05	4.7117e-06	1253.7	423	1.5264e-05	1.0268e-05	520.78	206.5	168.57	66.811	1.5904e-05	89.112	0.002791	0.0031598	0.00080376	1321.3	3.1293e-05	3.462e-05	1426.4	489.24	3.2865e-05	3.5819e-05	641.05	239.22	270.03	79.7	3.3848e-05	102.42	283.477	327.242	271.187	177.026	284.795	372.787	176.330	182.500	227.281	299.082	180.425	185.606	187.358	193.590	330.690	189.592	-8191	255	
4097.098	1	1	0	0	0.080117	0.25784	0.039816	0.2438	0.22294	0.17035	0.23716	0.051415	0.076551	0.1451	0.036683	0.25436	0.30018	0.29955	0.38164	0.25453	-2.6729	-2.0208	-2.6333	-2.9167	-2.2583	-2.9229	-2.5458	-2.5729	-3.0146	-2.1604	-2.6937	-2.9688	-2.1562	-2.9437	-2.5208	-2.5417	345.576	192.246	453.723	199.288	417.989	369.278	458.482	255.892	345.111	257.028	165.277	180.418	223.661	488.532	360.386	492.725	0.0014851	0.0026823	0.00018746	1135.7	2.6829e-05	1.4053e-05	1231	418.61	1.2657e-05	2.7771e-05	515.77	205.29	168.91	66.273	2.5602e-07	88.408	0.0032632	0.0033515	0.00084159	1327.1	3.5464e-05	3.5199e-05	1411.4	487.01	3.4613e-05	3.358e-05	622.45	233.77	265.16	76.226	2.8693e-05	98.509	299.851	358.435	219.550	177.013	278.046	397.941	176.247	182.472	266.435	390.957	180.921	185.280	188.079	193.690	261.624	189.885	-8191	255	
4097.194	1	1	0	0	0.12936	0.27205	0.20809	0.32472	0.095967	0.031177	0.081555	0.053092	0.13511	0.071229	0.048076	0.14318	0.013163	0.30702	0.28218	0.19151	-2.4833	-2.3125	-2.4854	-3.0563	-2.1979	-2.8187	-2.7167	-2.4	-3.0312	-2.1604	-2.7146	-3	-2.1792	-2.7687	-2.7042	-2.3521	333.867	335.767	378.780	479.092	193.710	326.272	185.894	356.353	211.729	501.986	479.947	182.825	211.750	484.070	240.199	215.504	0.0015186	0.0017493	0.00019692	1122.9	1.9281e-06	1.0823e-05	1228	418.51	1.8615e-05	2.1693e-05	514.3	204.21	167.09	66.043	1.6088e-05	89.695	0.0028226	0.0026181	0.00066044	1264.2	2.8909e-05	2.6329e-05	1335	467.04	2.8346e-05	2.6072e-05	587.29	227.36	245.49	72.936	2.5232e-05	98.397	303.204	343.342	436.758	177.114	422.372	199.358	176.577	182.613	493.166	334.631	180.797	185.301	188.695	193.633	310.686	189.843	-8191	255	
4097.315	1	1	0	0	0.22034	0.18924	0.2239	0.14069	0.16952	0.28861	0.050806	0.26564	0.15243	0.39093	0.093749	0.322	0.173	0.025065	0.16495	0.1667	-2.6021	-2.2604	-2.4313	-3.1146	-2.1188	-2.8146	-2.8271	-2.3229	-2.9708	-2.4792	-2.55	-2.9354	-2.3438	-2.825	-2.675	-2.3667	304.438	329.419	364.138	479.504	305.731	457.271	518.795	456.166	368.120	273.512	457.594	498.150	452.444	476.454	514.401	501.465	0.0010422	0.0012214	0.00027616	1118.5	2.441e-05	8.611e-06	1232.8	419.62	1.6244e-05	1.2643e-05	519.48	206.86	167.47	66.465	1.7591e-05	89.628	0.0026266	0.0024057	0.00062903	1269.1	2.7892e-05	2.5101e-05	1323	470.72	2.5934e-05	2.3666e-05	576.06	225.75	228.38	70.975	2.1972e-05	97.25	305.911	221.583	204.022	177.326	380.868	417.494	176.553	182.786	329.959	398.014	180.646	185.271	188.334	193.489	291.983	189.976	-8191	255	
4097.411	1	1	0	0	0.051416	0.22093	0.25749	0.24224	0.12497	0.28022	0.23825	0.16851	0.16281	0.14087	0.14682	0.36197	0.15629	0.26741	0.1942	0.22964	-2.5771	-2.5	-2.5208	-3.0375	-2.3458	-2.5479	-2.9688	-2.2229	-2.9729	-2.4813	-2.4854	-3.1396	-2.4854	-2.4813	-2.9125	-2.0958	209.551	377.744	265.116	477.718	235.228	498.747	484.147	271.024	263.092	293.928	299.178	476.533	199.046	179.757	180.627	197.121	0.00090897	0.0006473	0.00024845	1121.1	3.2064e-05	5.7966e-06	1229.3	421.72	1.3288e-05	1.0183e-05	517.41	205.52	168.34	66.572	2.8796e-06	89.508	0.0022004	0.0020717	0.00056843	1254	2.4833e-05	2.3213e-05	1323.7	476.79	2.5832e-05	2.4758e-05	594.94	233.9	239.83	73.071	2.7572e-05	101.73	270.015	295.597	389.860	177.477	413.213	211.941	176.214	182.851	312.900	380.799	180.519	185.367	188.557	193.432	477.172	190.085	-8191	255	
4097.507	1	1	0	0	0.15901	0.21032	0.078606	0.26342	0.19393	0.2458	0.057002	0.22287	0.17562	0.31632	0.13432	0.24001	0.05236	0.15518	0.072298	0.16495	-2.4896	-2.6396	-2.2687	-3.0521	-2.3229	-2.4562	-3.2021	-2.1542	-2.5354	-2.6875	-2.2729	-3.0042	-2.2938	-2.5563	-3.0333	-2.1958	349.227	416.793	305.938	461.649	248.739	314.021	492.126	488.326	258.317	426.594	510.580	377.130	504.035	183.290	361.060	510.620	0.0011308	0.0010358	0.00065781	1110.3	1.0621e-05	1.8481e-05	1205.4	413.81	2.1614e-05	1.9329e-05	507.6	202.02	166.96	65.146	1.2749e-05	87.158	0.002551	0.0024807	0.00073022	1303.4	2.9172e-05	2.7817e-05	1375.3	493.86	3.0504e-05	2.9535e-05	628.71	240.67	255.77	74.454	3.4228e-05	103.34	314.713	351.569	194.685	177.635	383.254	336.134	176.215	183.223	444.008	339.879	180.616	185.694	187.879	193.187	234.312	190.198	-8191	255	
4097.626	1	1	0	0	0.23967	0.096856	0.26304	0.34497	0.16388	0.10608	0.30477	0.055962	0.25283	0.064007	0.12414	0.051524	0.033025	0.29256	0.091797	0.17621	-2.1958	-2.7083	-2.0771	-3.0854	-2.4688	-2.1688	-2.9875	-2.3854	-2.55	-2.8042	-2.1896	-2.7125	-2.4583	-2.4375	-2.9396	-2.4938	167.986	390.374	290.030	187.022	346.771	480.722	444.803	289.669	347.112	172.148	349.804	418.926	224.463	172.715	286.782	481.739	0.00096016	0.0013365	0.00031516	1098.4	7.5892e-06	6.4219e-06	1208.9	410.65	1.3726e-05	2.8387e-05	504.6	202.49	167.86	65.923	3.816e-06	87.444	0.0028292	0.0027797	0.00087326	1318.1	3.0897e-05	2.955e-05	1401.1	489.25	2.9522e-05	2.9395e-05	632.03	234.66	244.54	73.866	3.281e-05	100.31	327.812	178.245	273.903	177.483	342.831	181.210	176.567	182.972	297.003	251.748	180.991	185.477	188.103	192.921	326.119	189.996	-8191	255	
4097.697	1	1	0	0	0.080949	0.12213	0.13978	0.27919	0.15162	0.065809	0.1571	0.123	0.29271	0.13094	0.15088	0.30827	0.17883	0.29086	0.14879	0.19988	-2.0917	-2.7875	-2.2271	-2.6396	-2.7562	-2.2625	-3.0729	-2.6646	-2.5542	-2.9021	-2.2083	-2.8375	-2.6688	-2.2479	-2.9042	-2.4896	214.972	184.276	267.149	166.650	171.484	352.659	474.037	166.020	420.972	395.688	500.494	498.358	501.974	190.237	186.069	447.429	0.0014884	0.0021192	0.00032227	1103.8	7.9712e-06	2.2323e-05	1206.4	413.08	3.7664e-06	2.3855e-06	511.26	203.05	168.12	65.875	1.1905e-05	88.671	0.0025855	0.0027169	0.00085875	1290.4	2.9311e-05	3.035e-05	1398.6	481.88	2.8165e-05	3.0459e-05	634.57	233.42	245.51	76.025	3.3747e-05	101.12	303.333	227.130	220.517	177.426	166.007	284.077	176.538	183.110	396.964	214.197	181.200	185.977	188.799	193.554	521.544	190.321	-8191	255	
4097.794	1	1	0	0	0.19529	0.27482	0.064973	0.15157	0.16324	0.27661	0.46972	0.25275	0.14894	0.14007	0.38738	0.09962	0.096838	0.46406	0.043322	0.14085	-1.7542	-2.8833	-2.0542	-2.9021	-2.5396	-2.2604	-3.1271	-2.4854	-2.3583	-2.9979	-2.3375	-2.7792	-2.8583	-2.4021	-2.8646	-2.7021	222.550	417.758	296.546	497.503	246.055	315.254	487.001	511.709	515.996	497.009	488.040	485.155	436.702	500.180	430.354	355.313	0.0013655	0.001917	0.0004828	1101.8	1.4814e-05	1.2173e-05	1204.2	413.83	5.7729e-06	4.8645e-06	510.04	206.04	168.86	66.205	2.927e-05	88.679	0.0026306	0.0029885	0.00086886	1293	3.0134e-05	3.3969e-05	1408.3	489.62	3.0641e-05	3.5276e-05	647.39	239.36	260.56	79.468	3.5818e-05	103.65	310.174	197.320	330.263	177.125	302.367	228.552	176.713	182.924	266.284	438.859	181.080	185.401	187.599	192.872	393.566	190.174	-8191	255	
4097.890	1	1	0	0	0.18746	0.072815	0.13981	0.16258	0.16237	0.065864	0.3504	0.24721	0.13083	0.17797	0.29147	0.21842	0.095003	0.21009	0.19164	0.046835	-1.8375	-2.8333	-2.3646	-2.6667	-2.8458	-2.2896	-2.9437	-2.6	-2.4813	-2.8292	-2.3646	-2.7375	-2.8583	-2.4062	-2.7167	-2.7667	483.064	460.921	488.573	180.836	291.514	347.135	457.314	478.057	432.535	500.049	358.591	487.130	374.775	516.057	219.601	187.789	0.0018913	0.0014061	0.0011845	1100	1.4915e-05	1.7184e-05	1188.7	409.96	4.5295e-05	4.5391e-06	499.9	201.66	166.9	65.569	2.4346e-05	87.914	0.0029874	0.0035108	0.00093435	1321.5	3.4732e-05	3.9808e-05	1428.5	501.48	3.6727e-05	4.2123e-05	664.92	245.85	288.85	82.749	3.9441e-05	106.26	273.245	257.033	350.536	177.480	276.861	429.318	176.648	183.106	221.862	517.579	181.401	185.476	187.275	193.252	355.135	189.985	-8191	255	
4098.010	1	1	0	0	0.087749	0.20383	0.15362	0.3244	0.24097	0.067877	0.14659	0.20265	0.096117	0.18097	0.13919	0.035701	0.0327	0.060832	0.24218	0.2221	-1.6833	-3.0646	-2.4854	-2.5375	-2.8875	-2.1917	-2.9354	-2.7625	-2.2354	-2.975	-2.5312	-2.4437	-2.9646	-2.4	-2.725	-2.8708	388.535	310.510	476.173	384.568	371.060	239.085	452.229	187.043	180.566	375.674	187.207	272.590	457.231	228.997	172.318	523.047	0.0022024	0.0028406	0.00063356	1104	2.4021e-05	5.7796e-06	1190.3	412.13	2.7262e-05	1.6606e-05	503.18	202.97	167.61	65.491	2.1683e-05	87.933	0.0036286	0.0040529	0.0010371	1364.7	4.187e-05	4.397e-05	1444.9	508.54	4.0614e-05	4.1787e-05	658.31	244.17	296.21	81.35	3.7957e-05	106.11	286.780	301.029	486.175	177.173	320.039	455.252	176.567	183.027	216.392	313.106	181.012	185.361	187.083	193.415	415.226	190.106	-8191	255	
4098.107	1	1	0	0	0.025547	0.15851	0.13601	0.23508	0.11976	0.042754	0.25458	0.21154	0.16499	0.15731	0.3545	0.34744	0.19887	0.3447	0.08772	0.1779	-1.6792	-2.8146	-2.3854	-2.6083	-3.1042	-2.2146	-2.7125	-2.7875	-2.2021	-2.9146	-2.7583	-2.5625	-3.0167	-2.4208	-2.5333	-3.0833	340.350	340.659	461.196	167.665	183.846	206.165	432.417	441.227	361.830	200.522	480.114	452.012	385.742	469.046	392.695	461.038	0.0012685	0.0026548	0.00027697	1105.2	3.3181e-05	2.3191e-05	1190.6	411.95	8.8683e-06	3.8656e-05	506.59	205.53	169.09	66.091	8.5699e-06	88.808	0.0038756	0.0039417	0.0010258	1373.7	4.5243e-05	4.3866e-05	1450.7	518.85	4.485e-05	4.1879e-05	663.46	250.42	304.34	80.821	3.6141e-05	106.69	259.864	300.170	264.886	177.024	235.212	386.623	176.234	182.811	175.475	381.144	180.831	185.325	188.766	193.681	374.415	190.053	-8191	255	
4098.203	1	1	0	0	0.09541	0.38502	0.36805	0.12021	0.13211	0.089532	0.37103	0.22758	0.23931	0.22057	0.22184	0.054016	0.090596	0.3909	0.092822	0.091415	-1.9708	-2.8812	-2.5521	-2.3458	-2.9292	-2.5146	-2.5729	-2.8771	-2.2542	-2.8438	-2.8083	-2.3083	-2.9625	-2.4938	-2.4833	-2.8937	372.144	254.955	193.921	472.113	225.184	422.791	392.323	477.547	292.084	326.273	184.288	217.646	362.478	168.788	495.782	430.650	0.0017055	0.0020889	0.00020948	1107.1	1.2558e-05	2.9039e-05	1193.3	418.09	2.9677e-06	2.4219e-05	509.86	207.6	172.74	66.65	6.0127e-06	90.067	0.0037323	0.0034348	0.00089904	1348.9	4.0099e-05	3.6496e-05	1396.4	513.35	4.0141e-05	3.6788e-05	647.54	253.81	299.7	80.237	3.5883e-05	110.38	308.821	371.752	312.511	177.201	430.911	361.685	176.248	182.789	357.914	273.423	180.828	185.264	187.886	193.724	510.754	189.837	-8191	255	
4098.274	1	1	0	0	0.13467	0.020013	0.16234	0.30173	0.15156	0.11615	0.21956	0.14565	0.21514	0.040567	0.26482	0.22548	0.31015	0.16167	0.041569	0.1817	-1.775	-2.5312	-2.5833	-2.2708	-2.8792	-2.4875	-2.5062	-3.0812	-2.275	-2.5917	-2.8333	-2.2458	-2.9313	-2.6417	-2.3958	-3.1646	388.298	509.450	295.657	476.945	408.629	437.883	436.892	436.046	358.015	302.576	514.126	214.599	513.860	466.654	279.220	401.831	0.0015171	0.0011947	0.00018848	1102.3	3.5085e-05	3.5e-06	1193	420.4	1.2371e-05	5.1201e-06	506.28	208.64	170.52	66.587	1.3361e-05	89.206	0.0037921	0.0035216	0.000959	1416.1	4.3527e-05	4.0806e-05	1450	548.28	4.5114e-05	4.1642e-05	679.94	270.45	315.05	82.341	4.0789e-05	114.94	304.543	342.785	328.853	177.041	418.417	445.399	176.610	182.981	413.571	308.475	181.034	185.332	188.647	193.507	201.275	190.277	-8191	255	
4098.395	1	1	0	0	0.20173	0.084052	0.14257	0.17814	0.0089891	0.13231	0.16239	0.26048	0.0067421	0.070022	0.36742	0.09977	0.15668	0.12983	0.17547	0.13783	-1.9125	-2.4042	-2.8042	-2.4521	-2.9792	-2.5479	-2.5625	-3.0292	-2.3312	-2.3833	-3.0271	-2.2125	-2.75	-2.7729	-2.0563	-3.0542	418.291	442.110	283.284	498.008	286.882	471.835	438.402	488.524	399.644	388.081	465.961	495.719	314.215	440.552	356.139	494.783	0.0010309	0.00025504	0.00079618	1093	2.7954e-05	3.5805e-05	1187.3	416.54	2.8473e-05	1.8358e-05	506.75	205.28	169.67	66.111	3.1328e-05	88.636	0.0039466	0.0036647	0.0010387	1438.5	4.1334e-05	3.8735e-05	1444.1	537.65	3.9346e-05	3.6303e-05	660.01	257.64	281.5	78.009	3.6763e-05	108.41	306.015	354.066	223.780	177.206	375.771	375.064	176.527	183.159	315.100	236.530	180.801	185.679	187.804	193.556	213.362	190.316	-8191	255	
4098.491	1	1	0	0	0.14621	0.14005	0.19749	0.35824	0.062444	0.20543	0.26332	0.19207	0.08788	0.099652	0.063198	0.08839	0.19455	0.14964	0.25023	0.039618	-1.8604	-2.3854	-2.8438	-2.375	-2.6688	-2.75	-2.3563	-2.9292	-2.2687	-2.4417	-3.1917	-2.4875	-2.7229	-2.925	-2.0521	-2.9729	291.289	276.316	450.377	486.771	229.894	316.585	432.539	464.368	233.921	479.015	420.862	171.076	169.350	218.012	353.388	471.791	0.00065272	0.0029919	0.00056372	1098.7	1.2799e-05	7.7727e-06	1192.5	415.15	2.0762e-05	1.6619e-05	507	206.63	171.4	66.801	2.0039e-05	89.166	0.0032139	0.0030557	0.00094286	1369.4	3.5013e-05	3.3626e-05	1424.3	515.03	3.4749e-05	3.3104e-05	656.59	249.82	266.26	76.95	3.5602e-05	104.63	316.730	467.082	484.497	177.465	180.478	257.165	176.491	183.633	302.251	418.239	181.144	185.858	188.917	193.324	224.369	190.215	-8191	255	
4098.587	1	1	0	0	0.41692	0.12435	0.25392	0.040458	0.23161	0.1753	0.206	0.37139	0.17074	0.17364	0.13197	0.39185	0.037321	0.27345	0.13924	0.10562	-2.1667	-2.2771	-2.8208	-2.2958	-2.6146	-2.6979	-2.2313	-2.8646	-2.5333	-2.1667	-3.0792	-2.375	-2.3583	-2.9958	-2.2125	-2.9125	190.652	382.090	408.221	352.702	321.712	352.198	358.510	512.908	354.451	517.746	480.146	495.944	524.375	515.828	368.448	470.206	0.00088309	0.002231	0.00045696	1102.7	9.541e-06	2.7863e-05	1204.9	419.44	1.291e-05	1.3705e-05	512.22	208.88	174.09	67.478	1.5906e-05	90.715	0.0028113	0.0027238	0.00086238	1301.4	2.8699e-05	2.8746e-05	1384	487.65	2.8275e-05	2.8692e-05	633.49	238.82	246.27	76.196	3.2946e-05	102.22	317.215	501.463	207.748	177.567	448.213	274.098	175.997	183.308	289.480	229.685	181.267	185.590	187.966	193.468	400.524	190.413	-8191	255	
4098.708	1	1	0	0	0.24607	0.23141	0.01523	0.16094	0.068813	0.21374	0.25066	0.060893	0.044574	0.087262	0.16051	0.093788	0.20211	0.084301	0.16447	0.24171	-2.1708	-2.3146	-2.9542	-2.3271	-2.4437	-2.9062	-2.4771	-2.6958	-2.7479	-2.2875	-2.8688	-2.4646	-2.2042	-3.0187	-2.2104	-2.8937	311.262	410.021	290.514	517.320	222.204	407.731	441.641	491.882	243.453	227.178	387.068	389.604	473.106	503.809	274.782	464.259	0.0011263	0.0022524	0.0004144	1104.1	1.7189e-05	2.471e-05	1210.9	425.46	1.4203e-05	2.8299e-05	516.55	210.85	176.07	67.763	3.1872e-05	91.281	0.0025626	0.0027132	0.00082416	1281	2.7562e-05	3.0286e-05	1390.3	488	2.7852e-05	3.0477e-05	631.33	237.12	242.58	76.965	3.0422e-05	100.69	322.350	170.398	424.415	177.651	376.966	524.104	176.844	182.914	297.185	214.696	181.182	185.927	188.386	193.869	345.344	190.184	-8191	255	
4098.802	1	1	0	0	0.46501	0.11065	0.25596	0.25152	0.15624	0.1555	0.24796	0.26543	0.20345	0.11293	0.27095	0.41254	0.28744	0.1485	0.081495	0.32784	-2.2292	-2.1833	-2.7729	-2.6375	-2.2583	-2.9458	-2.3937	-2.7729	-2.8354	-2.0792	-3.1292	-2.6542	-2.4292	-3.0146	-2.2396	-2.6167	346.338	371.520	398.891	418.267	299.637	340.145	323.813	414.161	331.388	360.617	519.052	518.777	335.008	215.505	245.392	440.979	0.0014292	0.0017061	0.00034224	1123.3	1.5562e-06	1.0419e-05	1217.8	424.11	1.7664e-05	1.929e-05	511.23	210.8	174.72	68.252	2.3499e-05	91.745	0.0024221	0.0028012	0.00078548	1284.8	2.8152e-05	3.3088e-05	1401.4	492.54	3.0922e-05	3.5785e-05	644.26	244.28	266.77	81.676	3.5327e-05	105.28	291.661	485.011	275.067	177.729	331.357	212.894	177.362	183.411	216.392	220.016	181.388	186.208	187.220	193.936	383.181	190.432	-8191	255	
4098.898	1	1	0	0	0.088027	0.17008	0.22067	0.17381	0.14259	0.13376	0.23674	0.035229	0.12213	0.078369	0.078463	0.35597	0.19219	0.21266	0.088187	0.06992	-2.4479	-2.2625	-2.8771	-2.7542	-2.1063	-3.1375	-2.6146	-2.375	-2.825	-2.0854	-2.9958	-2.8771	-2.2667	-3.2042	-2.3833	-2.6417	437.373	340.299	337.684	474.565	232.285	433.881	467.130	329.514	455.545	203.068	343.533	166.553	459.994	483.556	418.612	491.003	0.0020424	0.0027288	0.00079855	1132.7	1.6824e-05	1.6385e-05	1231	426.89	1.6273e-05	4.5518e-06	518.91	214.21	178.05	71.115	2.0699e-05	94.661	0.003089	0.003541	0.00090304	1346.7	3.4696e-05	3.8723e-05	1443.1	503.36	3.5417e-05	3.8917e-05	654.57	250.57	288.41	85.805	3.7363e-05	109.85	291.853	174.297	317.438	177.467	257.643	277.116	176.580	182.807	209.030	298.470	181.063	185.721	187.733	193.658	349.058	190.048	-8191	255	
4098.995	1	1	0	0	0.46259	0.17364	0.071964	0.19033	0.053612	0.17438	0.1386	0.15787	0.13239	0.16739	0.064822	0.1902	0.083113	0.14446	0.1863	0.23136	-2.4188	-2.0917	-2.5146	-2.8167	-2.2479	-2.9938	-2.5396	-2.3479	-3.0438	-2.3417	-2.8146	-2.7667	-2.2896	-2.8917	-2.5958	-2.4979	263.724	290.690	402.020	450.072	357.755	450.860	442.079	433.684	461.134	197.292	486.344	486.310	394.091	508.736	376.070	190.132	0.0017634	0.00042754	0.00069571	1144.5	2.7314e-05	2.0692e-05	1235	422.11	4.1722e-05	1.5618e-05	515.84	216.84	179.57	72.987	1.5204e-05	96.85	0.003585	0.0037621	0.00094603	1377.8	3.9457e-05	3.9703e-05	1449.9	504.2	3.8847e-05	3.8459e-05	652.23	254.34	299.89	86.037	3.5855e-05	111.74	291.738	391.930	354.067	177.712	264.725	377.696	176.653	182.827	238.820	341.877	181.506	185.805	187.908	193.554	368.087	189.745	-8191	255	
4099.091	1	1	0	0	0.10937	0.032936	0.20904	0.066099	0.11473	0.30628	0.15431	0.20884	0.40585	0.18613	0.12726	0.34074	0.17077	0.041863	0.12723	0.14983	-2.6729	-2.2562	-2.4625	-3.0646	-2.3458	-2.7771	-2.675	-2.4042	-2.9771	-2.3937	-2.6396	-3.0563	-2.1917	-3.0375	-2.75	-2.4646	279.869	507.754	329.609	449.803	361.916	265.437	505.049	181.026	310.418	500.985	451.855	518.722	467.454	210.114	486.495	362.410	0.0017333	0.001804	0.00024158	1145.5	2.084e-05	2.4467e-05	1235.9	420.5	6.0798e-06	3.3119e-05	513.86	215.96	180.29	72.761	2.7408e-05	96.302	0.0037214	0.0036111	0.00093657	1410.3	4.4285e-05	4.2279e-05	1495.4	533.12	4.8432e-05	4.5179e-05	692.19	275.21	345.3	90.462	4.3194e-05	119.62	301.020	372.313	327.601	177.485	332.119	385.962	176.813	182.999	486.028	350.636	181.262	185.172	187.726	193.294	404.733	189.921	-8191	255	
4099.187	1	1	0	0	0.12803	0.32131	0.17903	0.096293	0.07703	0.19242	0.38815	0.12929	0.070882	0.048108	0.23	0.15677	0.23765	0.41352	0.13168	0.096686	-2.6854	-2.3896	-2.525	-3.175	-2.1792	-2.7604	-2.95	-2.0833	-2.8479	-2.3021	-2.4833	-3.0792	-2.2583	-2.775	-2.7271	-2.2208	341.842	429.194	510.368	234.013	387.812	511.746	466.925	261.389	299.345	254.429	190.846	471.301	440.759	519.349	396.506	378.364	0.0011297	0.0010529	0.00049047	1143.2	2.285e-05	4.3803e-06	1209.8	411.67	5.291e-06	1.2586e-05	506.56	212.99	177.47	71.608	1.4637e-05	94.315	0.0044385	0.004039	0.0010408	1466.3	4.6885e-05	4.1743e-05	1469.9	534.05	4.4751e-05	4.0751e-05	658.64	268.99	317.11	86.16	3.9646e-05	118.34	311.786	378.006	318.691	177.116	425.431	474.813	176.985	183.262	458.438	378.741	181.521	185.690	188.089	193.159	234.250	189.737	-8191	255	
4099.308	1	1	0	0	0.3101	0.044867	0.21575	0.10579	0.1644	0.15983	0.35445	0.19517	0.059032	0.092114	0.1588	0.22961	0.062395	0.25348	0.17189	0.24224	-2.4813	-2.5542	-2.3729	-3.2208	-2.0438	-2.5875	-2.9708	-2.4188	-2.8958	-2.5458	-2.4396	-2.95	-2.2604	-2.6729	-2.9479	-2.25	389.346	455.868	234.422	464.130	500.211	179.637	454.886	421.297	293.799	259.272	389.158	412.699	484.553	523.478	296.272	447.133	0.0014618	0.0011609	0.00042773	1132.6	3.7095e-05	6.7599e-06	1204.9	407.65	1.0267e-05	1.1713e-05	497.05	212.43	175.91	71.002	2.8344e-05	93.287	0.0041101	0.0039065	0.0010676	1506.2	4.7581e-05	4.3954e-05	1506.5	559.97	4.8232e-05	4.535e-05	697.59	286.02	337.62	89.111	4.8186e-05	125.09	322.130	364.794	216.875	177.768	457.066	386.079	176.964	182.994	390.534	303.912	180.879	185.500	188.503	193.637	276.401	189.673	-8191	255	
4099.404	1	1	0	0	0.06935	0.14352	0.21951	0.22297	0.27473	0.10346	0.14809	0.13025	0.17854	0.13313	0.20775	0.18946	0.080389	0.29228	0.090034	0.38606	-2.5438	-2.7542	-2.2021	-3.1729	-2.3958	-2.5938	-3.0563	-2.4313	-2.7396	-2.6437	-2.2896	-2.9146	-2.4333	-2.525	-3.0333	-2.3812	445.496	452.052	504.985	518.559	381.038	434.383	490.954	406.731	200.928	443.222	458.482	214.235	252.513	211.850	232.533	469.767	0.000797	0.0018368	0.00085418	1131.4	1.0462e-05	1.5898e-05	1204.5	406.38	1.2449e-05	2.0333e-05	496.68	212.2	179.47	72.402	4.4643e-05	94.702	0.0044992	0.0043282	0.0012577	1564.9	5.0066e-05	4.6835e-05	1573.3	575.22	5.0123e-05	4.8686e-05	747.75	297.23	353.73	92.545	5.6824e-05	130.38	325.730	302.167	487.913	177.616	296.701	439.314	176.489	183.011	233.269	430.838	180.190	185.224	187.261	192.865	203.631	189.432	-8191	255	
4099.500	1	1	0	0	0.15409	0.17759	0.070571	0.17801	0.19697	0.46125	0.35502	0.17979	0.18257	0.03761	0.24701	0.37344	0.11873	0.25021	0.14928	0.25254	-2.3229	-2.7021	-2.425	-3.0354	-2.4625	-2.4146	-3.2125	-2.2708	-2.7417	-2.7479	-2.3292	-3.1958	-2.4437	-2.4521	-3.0625	-2.2438	516.798	340.570	448.104	470.236	450.076	460.278	489.697	507.971	203.427	470.109	434.280	517.163	393.537	515.180	272.733	501.917	0.0014414	0.0016823	0.00032968	1150.5	1.1031e-05	6.6759e-06	1227.2	402.7	2.1145e-05	3.7952e-05	499.23	214.99	181.06	73.107	1.9537e-05	95.789	0.0048834	0.0048682	0.0015494	1653.2	5.7761e-05	5.5797e-05	1729.6	611.11	5.835e-05	5.8087e-05	829.3	310.51	385.38	98.934	6.9444e-05	136.55	327.248	431.061	480.341	176.973	348.436	353.497	176.056	182.554	401.786	235.907	180.630	185.053	187.874	192.248	298.352	189.853	-8191	255	
4099.572	1	1	0	131072	0.086496	0.23403	0.12558	0.19091	0.063715	0.24333	0.15658	0.073225	0.04145	0.17174	0.19436	0.37474	0.10467	0.22649	0.19627	0.25122	-2.1875	-2.8063	-2.0708	-2.8063	-2.6771	-2.3583	-3.0146	-2.4125	-2.525	-2.925	-2.1604	-2.7958	-2.7438	-2.5208	-3.0271	-2.5271	260.533	216.533	521.154	466.905	318.007	221.829	496.049	327.450	390.088	189.606	422.990	522.104	232.460	505.326	301.419	519.213	0.0004169	0.00044438	0.00044873	1141.8	6.2677e-06	2.5003e-05	1218.2	402.32	1.666e-05	4.0897e-05	496.92	213.98	179.97	73.16	3.0501e-05	94	0.0055422	0.0058104	0.0018612	1701.8	6.3416e-05	6.4638e-05	1814.7	620.51	6.2235e-05	6.6712e-05	870.99	314.69	399.42	104.05	7.327e-05	135.71	216.178	431.055	171.123	176.987	281.953	223.960	176.250	182.815	373.117	524.114	181.208	185.463	188.004	192.227	303.347	189.902	-8191	255	
4099.668	1	1	0	0	0.063357	0.12133	0.23987	0.39069	0.38514	0.19337	0.20568	0.22209	0.09128	0.17029	0.33195	0.29369	0.15701	0.42755	0.096749	0.18102	-1.9042	-2.8625	-2.1562	-2.7979	-2.6229	-2.1667	-3.1521	-2.4625	-2.5312	-2.8479	-2.3438	-2.7375	-2.8208	-2.3583	-3.0292	-2.6021	228.865	240.174	254.006	509.242	426.992	356.201	414.364	520.784	278.795	293.983	499.649	489.351	424.953	491.215	336.140	426.370	0.0014326	0.0058769	0.00083345	1172.7	1.2255e-05	4.0112e-05	1240	407.78	3.487e-05	4.5332e-05	509.57	216.34	184.37	74.727	3.604e-05	94.868	0.0055127	0.0061181	0.0017534	1649.1	5.6793e-05	6.2568e-05	1739.6	588.53	5.4985e-05	6.4113e-05	827.53	301.28	378.04	104.24	6.5049e-05	131.27	330.532	195.533	336.897	177.163	374.621	236.608	176.071	183.145	220.425	231.629	181.153	185.350	187.082	192.385	349.274	189.631	-8191	255	
4099.787	1	1	0	131072	0.36626	0.21572	0.071164	0.39582	0.03928	0.042131	0.24296	0.18391	0.094765	0.16856	0.25727	0.12427	0.11558	0.43456	0.15961	0.12505	-1.9042	-2.9771	-2.3125	-2.7833	-2.85	-2.3333	-3.1312	-2.6813	-2.3854	-3.0083	-2.3604	-2.6542	-2.8354	-2.2708	-2.6792	-2.8083	236.609	251.474	337.762	427.885	332.308	494.366	411.256	471.149	475.227	291.654	472.223	496.820	175.189	180.153	311.212	412.284	0.0021303	0.0022102	0.0010086	1178	3.2856e-05	2.1883e-05	1240.7	412.5	4.4713e-05	1.8532e-05	512.96	217.03	185.51	74.318	3.6666e-05	96.09	0.0053129	0.0063649	0.0017228	1688.1	6.3951e-05	7.4575e-05	1814.3	630.82	6.7259e-05	7.8022e-05	873.38	317.13	426.11	110.88	6.9235e-05	136.3	299.185	178.596	313.678	176.991	317.648	218.654	176.534	182.874	211.764	265.934	181.193	185.539	186.976	192.745	396.076	189.310	-8191	255	
4099.883	1	1	0	131072	0.17632	0.081272	0.13434	0.19393	0.29086	0.23924	0.15467	0.18186	0.051249	0.15613	0.090838	0.3049	0.2215	0.1281	0.11468	0.1997	-1.7313	-2.8187	-2.3271	-2.4271	-2.8812	-2.25	-2.8625	-2.7938	-2.2604	-2.9479	-2.2854	-2.4896	-2.8958	-2.2396	-2.5271	-2.9625	165.065	331.615	523.673	234.174	377.902	366.532	184.897	483.936	220.699	322.410	524.388	420.946	184.248	439.771	491.599	440.329	0.0030968	0.001496	0.0010106	1176.2	3.5852e-05	1.8497e-05	1237.2	417.2	5.5424e-05	5.092e-05	519.21	216.18	184.13	71.828	5.1495e-05	97.297	0.0061384	0.006952	0.0017613	1704.1	7.1128e-05	7.7923e-05	1813.1	641.81	7.6556e-05	8.2694e-05	900.29	329.1	484.84	116.32	7.9003e-05	147.43	289.994	375.882	351.553	177.049	272.511	338.699	176.291	182.826	182.714	360.547	181.177	185.164	186.211	192.916	396.812	189.320	-8191	255	
4099.979	1	1	0	131072	0.023926	0.098995	0.16978	0.20637	0.4168	0.23866	0.30398	0.23494	0.35047	0.042408	0.15211	0.33349	0.10809	0.28967	0.12647	0.40622	-1.7708	-2.6917	-2.375	-2.4	-2.7687	-2.2167	-2.9	-2.7417	-2.3667	-2.8688	-2.5625	-2.4625	-2.9583	-2.2875	-2.5583	-3.0646	174.466	273.388	455.258	498.721	338.231	485.004	490.422	358.118	166.899	395.737	423.585	479.494	520.748	175.333	324.703	508.598	0.0025291	0.00286	0.00050419	1162.9	7.6146e-05	1.7833e-05	1173.5	420.56	1.9533e-05	6.9372e-05	521.96	219.02	181.53	65.749	4.4632e-05	94.725	0.0080807	0.0083697	0.0021585	1869.1	9.5354e-05	9.4285e-05	1956.4	711.12	9.9904e-05	9.6307e-05	984.89	362.66	568.39	120.89	8.8386e-05	157.34	296.805	307.819	259.831	176.956	287.303	383.448	176.261	182.547	218.683	377.902	181.249	184.202	186.798	192.938	372.330	188.641	-8191	255	
4100.075	1	1	0	131072	0.25954	0.063026	0.26706	0.22524	0.1769	0.20499	0.18335	0.2704	0.26528	0.10672	0.04526	0.2192	0.077375	0.31656	0.035971	0.11454	-1.7833	-2.5896	-2.3979	-2.2771	-2.9917	-2.1854	-2.5021	-3.0583	-2.2062	-2.7479	-2.8125	-2.3792	-2.9521	-2.5208	-2.3417	-2.975	361.136	472.089	438.626	479.083	463.823	233.293	480.676	421.076	434.198	356.693	219.711	434.091	192.459	497.296	234.978	475.567	0.0015151	0.0042735	0.00066245	1120.5	1.9272e-05	6.1323e-05	1177.3	414.67	2.0051e-05	2.8101e-05	515.47	215.35	182.99	69.574	3.3238e-05	95.146	0.0092835	0.0086729	0.0022733	1954	0.00010353	9.4273e-05	1950.8	731.11	0.00010071	8.9767e-05	949.71	364.15	542.3	115.92	8.123e-05	156.91	264.058	344.699	490.857	176.710	414.692	343.960	176.363	182.223	461.454	378.987	181.386	184.113	188.149	192.262	439.475	188.727	-8191	255	
4100.171	1	1	0	131072	0.015081	0.16485	0.048616	0.22253	0.31139	0.13855	0.16257	0.32884	0.11094	0.051111	0.17256	0.27416	0.18546	0.32425	0.31147	0.29094	-1.7083	-2.5583	-2.6104	-2.275	-2.9688	-2.5583	-2.4708	-3.1	-2.1188	-2.6146	-2.9646	-2.3104	-3.0479	-2.575	-2.2583	-3.1333	345.589	408.850	478.188	516.824	397.118	193.904	484.021	184.956	441.007	432.861	483.479	476.834	237.326	501.002	250.776	462.187	0.0011906	0.0041122	0.00071813	1138.5	5.3849e-05	2.7835e-05	1205.6	414.37	6.599e-05	1.9338e-05	516.82	216.52	181.54	68.206	2.0856e-05	89.806	0.0085218	0.0077919	0.0020865	1963.3	9.3724e-05	8.6176e-05	1916.3	744.49	9.6327e-05	8.8165e-05	967.98	386.36	551.13	118.82	8.9943e-05	168.55	331.185	317.878	240.375	176.278	461.562	298.899	175.437	182.112	381.637	256.847	180.785	184.260	188.179	191.925	205.951	188.726	-8191	255	
4100.267	1	1	0	131072	0.13219	0.22632	0.14122	0.038799	0.20482	0.26828	0.26585	0.038081	0.02802	0.23837	0.25852	0.3243	0.21371	0.23643	0.29146	0.15533	-1.8083	-2.55	-2.7333	-2.5667	-2.6375	-2.475	-2.35	-2.9833	-2.2938	-2.4	-2.9437	-2.1979	-2.7771	-2.8604	-2.35	-3.1458	291.220	259.467	411.343	413.280	312.636	498.843	422.780	401.968	252.082	390.052	463.122	470.658	164.802	171.073	284.262	480.398	0.00043976	0.0019531	0.00085427	1056.7	5.9581e-05	3.1548e-05	1128.1	411.08	5.7379e-05	3.47e-05	526.91	208.98	193	66.669	5.6001e-05	80.924	0.0090397	0.0084134	0.0023666	2098.4	9.8521e-05	9.2721e-05	2021.1	799.27	0.00010006	9.3307e-05	1046.2	410.11	566.25	122.14	0.00010421	177	243.600	333.164	199.707	177.115	414.327	394.708	175.694	182.495	375.186	342.188	180.776	185.233	188.521	191.940	213.975	189.169	-8191	255	
4100.388	1	1	0	131072	0.16375	0.055073	0.13137	0.21704	0.14739	0.32936	0.037809	0.12692	0.08887	0.11291	0.10611	0.078425	0.098264	0.34496	0.13158	0.30688	-2.0104	-2.2979	-2.7854	-2.2292	-2.6375	-2.7562	-2.2438	-2.9583	-2.5375	-2.525	-3.1417	-2.3104	-2.6792	-2.9167	-2.35	-2.9521	331.818	390.613	519.628	469.796	219.760	200.619	524.161	382.573	354.441	269.147	462.277	206.643	474.178	459.969	427.379	512.089	0.00071116	0.002352	0.0015671	864.85	5.6545e-05	4.2937e-05	759.13	313.42	7.5521e-05	4.3207e-05	472.66	126.93	194.18	44.842	0.00010302	46.731	0.009614	0.0092497	0.0029014	2239.9	0.00011415	0.00011244	2258.7	891.77	0.00012579	0.0001207	1290.5	459.07	698.31	135.53	0.00014789	193.22	322.729	471.875	497.473	177.763	453.920	392.527	175.581	183.552	387.016	267.518	179.867	186.424	187.347	191.532	224.499	189.860	-8191	255	
4100.484	1	1	0	131072	0.33489	0.3363	0.21717	0.17127	0.11303	0.22452	0.37625	0.06747	0.11266	0.3402	0.092017	0.24872	0.18064	0.15423	0.29321	0.25444	-2.0771	-2.3563	-3.0542	-2.3229	-2.575	-2.8625	-2.3542	-3.1083	-2.6771	-2.3229	-3.1771	-2.5187	-2.4208	-3.1104	-2.2333	-2.9688	406.888	270.127	387.931	494.915	518.304	516.061	478.057	458.730	239.036	433.942	175.776	514.606	215.891	480.225	226.516	485.719	0.0022611	0.005327	0.0029012	511.16	3.0945e-05	3.6001e-05	329	231.32	5.7927e-05	5.7845e-05	343.85	102.87	195.45	29.768	5.1298e-05	38.944	0.01228	0.012057	0.0039762	2398	0.00013918	0.00013972	2427.1	927.8	0.00014224	0.00014162	1405.5	466.59	744.41	141.35	0.00017124	195.69	354.032	192.014	502.738	178.541	401.830	206.073	176.151	184.057	352.802	175.272	179.977	185.778	187.103	191.173	217.866	188.879	-8191	255	
4100.580	1	1	0	131072	0.16006	0.39106	0.21179	0.12945	0.20367	0.15164	0.15283	0.15966	0.1611	0.15173	0.25731	0.23553	0.1087	0.19339	0.12322	0.10826	-2.2833	-2.2375	-3.0687	-2.5396	-2.6521	-3.0708	-2.325	-3.0312	-2.5479	-2.5208	-3.1562	-2.4854	-2.4979	-3.1083	-2.3146	-2.825	293.029	387.516	193.225	168.110	379.289	347.695	501.385	466.422	291.022	257.116	171.760	182.681	523.937	181.783	178.670	237.990	0.00083323	0.010231	0.0009451	401.34	1.6919e-05	0.0001352	92.489	174.92	4.6907e-06	0.00017878	168.81	83.139	199.2	13.86	6.5563e-05	38.015	0.013536	0.014436	0.0046418	2440.7	0.00015637	0.00017123	2500.2	956.02	0.00016154	0.00017594	1474.3	475.64	807.92	147.01	0.00018375	196.9	367.559	188.698	411.121	177.313	355.497	210.523	178.939	182.048	367.621	193.126	182.887	184.723	185.693	190.307	372.306	188.561	-8191	255	
4100.676	1	1	0	131072	0.045309	0.19596	0.25304	0.23155	0.023141	0.30676	0.14528	0.25335	0.081116	0.14383	0.33688	0.25745	0.16881	0.14041	0.15014	0.024757	-2.3521	-2.1021	-2.9208	-2.6396	-2.3583	-2.975	-2.4958	-2.7021	-3.0167	-2.3896	-3.1604	-2.8187	-2.6188	-3.3104	-2.3646	-2.7583	254.188	460.162	397.856	391.730	354.690	438.575	221.201	491.574	470.292	221.055	483.330	461.306	283.695	388.569	182.747	374.753	0.001247	0.0072588	0.0028224	454.42	4.6474e-05	0.0001047	213.82	211.56	5.011e-05	0.00010176	211.76	85.992	196.45	4.9395	7.9711e-05	31.94	0.014031	0.016185	0.0045795	2426.3	0.00015323	0.00017853	2456.7	942.46	0.00015861	0.00018625	1433	475.52	837.49	150.02	0.00018569	199.7	246.238	186.312	289.373	177.286	304.981	197.606	177.604	182.487	219.675	165.747	182.189	185.048	184.386	190.225	390.238	188.306	-8191	255	
4100.795	1	1	0	131072	0.14601	0.19386	0.029911	0.22442	0.16937	0.11035	0.2087	0.25766	0.36104	0.10418	0.22547	0.088716	0.069367	0.45429	0.035085	0.18707	-2.5729	-2.2417	-2.8396	-2.8958	-2.3375	-3.2021	-2.4479	-2.8333	-2.9833	-2.3833	-2.9813	-2.9979	-2.3563	-3.1688	-2.3979	-2.6771	253.542	198.925	241.758	408.249	519.822	375.064	409.415	415.499	305.766	249.234	510.277	435.117	470.836	465.254	306.915	516.179	0.0030864	0.0057487	0.0023114	310.9	0.00010882	5.0002e-05	216.83	150.41	0.00018756	4.6138e-05	233.42	68.01	164.54	3.455	5.7231e-05	30.869	0.015666	0.018545	0.0048177	2486.6	0.00018092	0.00021018	2459.8	971.64	0.00018608	0.00020834	1428.1	482.47	912.97	150.47	0.00018066	200.01	268.543	168.781	327.838	177.371	262.425	177.195	177.782	182.448	216.584	410.538	180.996	184.469	183.331	194.431	348.110	188.223	-8191	255	
4100.867	1	1	0	131072	0.16433	0.17851	0.15963	0.23799	0.03577	0.23021	0.16594	0.1526	0.18811	0.04415	0.34965	0.16183	0.073628	0.015755	0.14045	0.13637	-2.7438	-2.3854	-2.9625	-2.9979	-2.3375	-3.0792	-2.7438	-2.5771	-3.1021	-2.4396	-2.8354	-3.1125	-2.2708	-3.1146	-2.6312	-2.5875	389.257	404.150	378.025	491.809	345.147	391.130	457.190	333.836	179.408	218.669	497.668	305.115	515.260	200.365	333.250	270.164	0.0064384	0.0039758	0.0017446	438.84	0.00012047	0.00010034	412.47	265.65	0.00010979	9.6367e-05	407.28	138.37	200.18	22.291	2.4326e-05	60.032	0.016487	0.017715	0.0043435	2435.3	0.00017577	0.00018023	2391.9	919.49	0.00016684	0.00016619	1302.7	453.65	825.16	143.94	0.00014464	188.09	259.661	345.706	342.470	177.273	261.597	378.516	176.430	182.678	200.287	372.110	181.550	185.120	185.393	193.281	387.695	188.797	-8191	255	
4100.988	1	1	0	131072	0.1343	0.2013	0.017022	0.42882	0.11418	0.12846	0.35153	0.30623	0.10565	0.09968	0.32664	0.20622	0.18436	0.45529	0.22021	0.25367	-2.775	-2.3688	-2.6583	-2.85	-2.4479	-2.9729	-2.8354	-2.4917	-3.0833	-2.5167	-2.7438	-3.1458	-2.1021	-2.9083	-2.7417	-2.5396	486.838	356.706	255.850	480.222	228.361	306.061	406.930	465.557	507.113	224.228	460.181	460.224	431.664	485.518	385.493	514.837	0.0025263	0.0090538	0.0017038	755.13	8.2211e-05	6.287e-05	753.12	343.06	2.8697e-05	6.8627e-05	507.94	176.34	191.76	47.699	1.9806e-05	75.23	0.014317	0.013829	0.0034611	2289.3	0.00015296	0.00014137	2256.3	859.5	0.00014448	0.00013231	1169.1	428.96	726.94	133.1	0.00011655	178.58	299.874	354.033	290.326	176.653	317.181	353.405	176.591	181.711	219.213	373.408	181.036	184.230	186.688	192.280	432.826	188.490	-8191	255	
4101.084	1	1	0	131072	0.089907	0.049877	0.14653	0.20678	0.35151	0.43159	0.068257	0.17729	0.16739	0.091856	0.045244	0.17971	0.062685	0.21069	0.098255	0.19297	-2.6875	-2.4646	-2.2917	-2.9208	-2.1458	-2.9208	-2.7167	-2.2708	-2.9854	-2.5583	-2.5312	-3.3333	-2.4375	-2.8917	-2.8167	-2.4375	199.930	521.008	263.494	513.474	367.831	231.846	497.244	468.079	231.375	511.880	450.194	458.539	391.728	489.836	466.981	231.954	0.0015485	0.005003	0.00039671	837.84	5.3186e-05	3.0093e-05	857.39	321.28	8.1854e-05	3.5069e-05	516.02	144.69	195.52	46.918	3.7947e-05	61.697	0.012149	0.011221	0.0029339	2239.5	0.00013882	0.0001258	2211	880.16	0.00014255	0.0001307	1185.5	449.61	740.66	134.02	0.00012079	187.1	290.624	383.538	330.306	176.665	522.288	419.672	176.819	182.055	390.014	412.302	180.650	184.519	188.784	192.326	199.302	188.522	-8191	255	
4101.180	1	1	0	131072	0.21722	0.12439	0.024444	0.092878	0.16622	0.04601	0.18002	0.04857	0.1633	0.1151	0.14295	0.035499	0.10542	0.31451	0.10915	0.13779	-2.6208	-2.3854	-2.3583	-3.1	-2.3521	-2.5646	-2.8375	-2.4104	-3.0104	-2.6396	-2.6958	-3.2313	-2.3333	-2.7896	-2.9042	-2.3896	327.693	274.532	180.743	428.205	314.438	430.684	506.700	408.781	281.154	467.673	436.672	438.993	248.732	195.261	380.322	509.048	0.0012154	0.0078139	0.0013851	745.54	3.1725e-05	9.9967e-05	887.77	321.14	9.1354e-05	2.8725e-05	471.89	186.92	173.48	60.901	5.0383e-05	77.572	0.012162	0.011216	0.0029763	2306	0.0001321	0.00011927	2195	892.53	0.0001312	0.00011543	1052.3	420.8	617.53	122.85	0.00010831	176.78	352.298	323.813	510.325	176.741	449.088	373.612	176.149	182.703	406.980	349.467	182.851	186.276	189.746	193.504	224.622	190.378	-8191	255	
4101.276	1	1	0	131072	0.067276	0.021752	0.14772	0.16162	0.16886	0.13215	0.11405	0.074524	0.11213	0.19742	0.38019	0.023949	0.085852	0.22046	0.25744	0.22321	-2.4292	-2.5104	-2.1937	-3.0812	-2.4042	-2.6292	-3.0333	-2.4104	-2.8563	-2.6	-2.4625	-3.2021	-2.4354	-2.5771	-2.8771	-2.3792	375.311	264.850	502.491	332.430	379.296	177.518	275.586	193.495	346.225	422.273	449.261	416.856	499.438	323.789	469.325	429.697	0.0017688	0.0039371	0.0014292	945.45	4.1072e-05	1.8076e-05	1012.9	376.61	6.6722e-05	4.248e-05	479.9	200.76	174.8	66.717	5.2983e-05	85.413	0.010073	0.0095895	0.0027127	2142.9	0.00010802	9.9169e-05	2028.9	803.96	0.00010186	9.6416e-05	1027.6	397.64	546.06	116.03	0.00010286	166.02	344.436	280.638	513.116	179.030	440.262	338.839	177.095	184.620	338.184	343.451	181.677	186.557	190.360	193.702	202.546	191.379	-8191	255	
4101.372	1	1	0	131072	0.19703	0.20755	0.033473	0.19335	0.15719	0.030807	0.12473	0.18651	0.20109	0.10646	0.28395	0.26365	0.13965	0.28585	0.28125	0.13999	-2.4021	-2.7208	-2.1979	-3.1375	-2.6396	-2.4208	-2.9729	-2.5312	-2.4625	-2.9479	-2.3812	-3.0375	-2.6229	-2.5771	-3.0438	-2.4938	348.652	483.762	507.337	474.859	427.865	191.630	486.043	503.906	333.029	274.972	394.974	184.841	421.723	442.317	392.730	355.256	0.00067375	0.0032645	0.0023462	1016.6	9.0945e-06	1.055e-05	1056.3	378.93	4.8385e-05	3.5317e-05	466.93	203.48	173.13	68.17	7.7343e-05	87.271	0.008631	0.0084089	0.0026138	2002.2	9.4592e-05	8.8724e-05	2007.4	745.05	9.0111e-05	8.8024e-05	1006.3	366.88	494.21	110.48	9.6206e-05	151.58	330.204	391.185	490.830	179.204	348.786	508.153	177.794	184.806	364.992	199.002	181.924	187.093	189.013	193.253	226.804	190.812	-8191	255	
4101.468	1	1	0	131072	0.23132	0.10482	0.2172	0.10832	0.066733	0.098815	0.31114	0.048125	0.23024	0.26267	0.32971	0.092028	0.11297	0.18018	0.083903	0.10949	-2.1021	-2.85	-2.1542	-2.7938	-2.5854	-2.2875	-3.0292	-2.5229	-2.5292	-2.7854	-2.3937	-2.9083	-2.6542	-2.4562	-3	-2.4125	321.780	406.787	261.732	470.039	175.406	430.546	452.605	476.654	525.244	213.334	505.522	174.754	205.442	497.480	373.747	486.757	0.001755	0.0046763	0.00028784	1046.8	1.5501e-05	3.9477e-05	1116.7	380.5	3.3622e-05	4.4964e-05	477.72	204.22	172.15	69.422	2.4833e-05	88.547	0.0073255	0.0074308	0.0023433	1798.2	7.712e-05	7.5797e-05	1858.6	648.41	6.9594e-05	7.2476e-05	897.11	320.9	416.45	104.43	8.0218e-05	137.33	290.126	525.347	175.692	179.236	458.143	216.577	177.522	184.674	376.289	204.181	182.595	186.590	188.770	193.511	403.768	191.013	-8191	255	
4101.564	1	1	0	131072	0.071896	0.073937	0.14798	0.17906	0.025884	0.22831	0.21542	0.36246	0.044761	0.25662	0.086453	0.20793	0.25287	0.31847	0.1565	0.024557	-2.0021	-2.8458	-2.2292	-2.7604	-2.6729	-2.2625	-3.0438	-2.5208	-2.3354	-2.8375	-2.2667	-2.7708	-2.7021	-2.4521	-2.8708	-2.6333	283.258	265.045	364.202	291.183	242.515	492.569	460.743	454.235	261.038	237.298	315.806	490.097	191.647	168.599	297.911	184.949	0.0017805	0.0071176	0.00098868	1056.5	1.2742e-05	4.3417e-05	1117.9	382.52	7.1343e-06	3.9677e-05	470	204.71	172	67.287	5.2086e-05	88.584	0.0061893	0.0069869	0.0021093	1697.4	7.1741e-05	8.0119e-05	1857.3	655.69	7.4708e-05	8.7232e-05	955.32	340.76	466.41	116.16	9.2013e-05	146.87	312.253	176.632	277.701	178.469	300.651	224.875	178.095	184.903	396.049	177.014	182.639	186.773	188.354	193.268	356.588	190.502	-8191	255	
4101.661	1	1	0	131072	0.19408	0.079378	0.099044	0.30574	0.090529	0.15345	0.362	0.14204	0.16	0.10824	0.1508	0.14699	0.065899	0.16812	0.18133	0.21318	-1.8958	-2.9896	-2.2042	-2.7396	-3.0542	-2.1688	-3.0354	-2.5792	-2.3	-2.9188	-2.2562	-2.7396	-2.9729	-2.3479	-2.7271	-2.8583	197.597	467.764	392.336	481.706	342.085	482.668	180.710	437.171	511.287	379.066	401.595	203.810	429.713	509.990	255.957	495.019	0.0015845	0.0033073	0.00098471	1035.6	1.6037e-05	4.1685e-05	1079.1	381.76	8.3798e-05	1.6227e-05	470.54	204.66	173.74	64.312	6.0237e-05	88.121	0.0072325	0.0086241	0.0023438	1786.3	8.3259e-05	9.6665e-05	1920.3	691.38	8.697e-05	0.00010216	984.66	352.33	510.43	121.93	9.2936e-05	148.91	298.442	187.229	326.178	178.855	236.190	209.936	177.967	184.919	239.070	463.195	183.056	186.266	186.931	193.320	358.064	190.252	-8191	255	
4101.757	1	1	0	131072	0.06797	0.11746	0.22453	0.33204	0.23761	0.22099	0.053625	0.30319	0.13248	0.21619	0.21306	0.064981	0.18122	0.36888	0.029012	0.036762	-1.7833	-2.8625	-2.2562	-2.4729	-2.7583	-2.3187	-2.9833	-2.6292	-2.0812	-2.9375	-2.5458	-2.5604	-2.9292	-2.3729	-2.7271	-2.8167	465.645	214.874	308.182	507.434	523.717	415.616	462.960	485.299	197.397	464.710	186.475	434.055	297.448	440.183	521.071	385.485	0.0030083	0.0036267	0.00051648	1041.1	6.7428e-05	1.932e-05	1080.4	378.57	0.00010996	5.7304e-05	465.55	203.08	168.94	66.202	4.6662e-05	87.492	0.0079987	0.0090999	0.0022876	1787.1	8.9736e-05	9.8871e-05	1872.8	676.36	9.0919e-05	9.8207e-05	938.26	339.83	518.09	117.95	8.6681e-05	145.31	277.491	316.590	316.912	178.080	285.966	436.145	177.804	184.417	206.028	366.763	182.556	186.486	186.881	194.259	363.215	190.300	-8191	255	
4101.876	1	1	0	131072	0.042089	0.28296	0.2033	0.11757	0.23472	0.046252	0.2142	0.067128	0.25603	0.02503	0.1827	0.12049	0.26917	0.32039	0.095591	0.17636	-1.875	-2.8042	-2.5729	-2.6146	-2.9229	-2.2479	-2.8042	-2.8542	-2.4604	-2.8354	-2.7417	-2.4354	-3.0271	-2.2583	-2.6604	-2.9875	514.526	413.695	352.023	413.623	455.653	335.656	491.867	239.035	294.347	253.207	510.468	187.235	261.207	200.194	387.254	184.548	0.0024442	0.0036031	0.00038988	1032.5	2.5837e-05	7.4099e-05	1069.2	380.06	4.9348e-05	6.218e-05	461.64	201.04	171.85	63.184	3.0222e-05	87.595	0.0085374	0.0088873	0.002275	1803.2	9.9943e-05	0.00010026	1889.5	696.88	0.00010339	0.00010031	961.91	354.24	570.72	119.35	9.0976e-05	152.46	286.516	360.061	321.617	178.434	235.652	381.867	177.930	183.871	170.716	371.558	182.837	186.069	187.966	193.802	375.299	190.080	-8191	255	
4101.972	1	1	0	131072	0.076288	0.20736	0.11219	0.05542	0.37044	0.28215	0.18975	0.25178	0.16621	0.16041	0.097397	0.018171	0.13653	0.3327	0.035274	0.088247	-1.5708	-2.6833	-2.6979	-2.4646	-2.9375	-2.2604	-2.6917	-2.9792	-2.1542	-2.7979	-2.9125	-2.3625	-2.9646	-2.5604	-2.2229	-3.1437	446.406	307.761	173.768	168.076	358.543	442.298	465.386	171.870	269.424	433.113	414.956	359.789	235.425	499.880	471.523	380.097	0.0022285	0.0033577	0.00054522	1031.6	2.2304e-05	4.7557e-05	1088.7	381.92	1.1532e-05	4.1826e-05	464.35	202.37	171.21	65.585	3.0945e-05	88.443	0.0094373	0.0087858	0.0022862	1849.8	0.00010276	9.4463e-05	1852.6	709.63	0.00010384	9.3804e-05	943.13	363.37	560.07	115.01	8.4602e-05	153.42	283.186	327.593	346.884	177.791	305.600	351.566	177.789	183.788	415.573	366.063	182.728	185.862	189.490	193.942	334.033	190.474	-8191	255	
4102.068	1	1	0	131072	0.33503	0.2716	0.35707	0.33148	0.21157	0.1761	0.16835	0.26874	0.15556	0.13644	0.20091	0.25839	0.14334	0.15285	0.21849	0.24903	-1.8937	-2.7042	-2.7687	-2.3521	-2.9917	-2.5854	-2.5667	-3.025	-2.1063	-2.6292	-3.1021	-2.3875	-2.8688	-2.6667	-2.3	-3.2146	315.165	515.132	450.426	191.262	423.487	494.503	467.436	505.560	384.974	286.912	193.251	521.747	188.212	172.008	350.169	520.721	0.00058172	0.0022546	0.00027359	1041.2	3.738e-05	1.9076e-05	1099.2	383.13	4.682e-05	4.0804e-05	466.68	205.15	173.7	67.695	3.7376e-05	88.711	0.0087434	0.0078511	0.0020924	1855.6	9.3369e-05	8.4558e-05	1780.2	705.39	9.2344e-05	8.3473e-05	898.23	362.88	516.48	111.6	8.1571e-05	156.17	374.021	332.525	299.407	178.214	463.932	294.162	177.615	184.191	385.459	324.994	182.637	186.390	190.815	194.223	224.035	190.620	-8191	255	
4102.164	1	1	0	131072	0.20811	0.17811	0.028993	0.19247	0.20657	0.12008	0.33428	0.055178	0.15445	0.042061	0.1978	0.12609	0.1482	0.083091	0.18343	0.22486	-1.8521	-2.6146	-2.8375	-2.4938	-3.0229	-2.5646	-2.4313	-3.1208	-2.3375	-2.6583	-3.1813	-2.4167	-3.0687	-2.8937	-2.3083	-3.1896	247.997	478.423	177.309	392.695	441.945	358.309	441.373	168.436	372.037	186.677	217.395	197.242	257.944	464.420	326.940	470.704	0.0012743	0.0021478	0.00065575	1034.4	3.9231e-05	2.3615e-05	1095.1	378.87	3.5578e-05	8.4823e-06	472.92	200.71	169.64	68.762	7.6322e-05	88.171	0.0082043	0.0075738	0.0021068	1895.7	8.8356e-05	8.2042e-05	1791.7	708.74	8.4804e-05	7.7834e-05	892.87	355.87	471.75	106.57	7.9956e-05	150.53	278.654	329.593	511.875	178.603	428.361	336.659	177.366	185.051	378.489	413.622	182.496	186.741	189.813	194.454	220.548	191.000	-8191	255	
4102.260	1	1	0	0	0.32946	0.071698	0.17949	0.20489	0.29628	0.043493	0.29242	0.16576	0.18734	0.083531	0.17357	0.19226	0.27034	0.10447	0.095388	0.19723	-1.7979	-2.5146	-2.8917	-2.25	-2.4938	-2.7875	-2.4417	-3.1521	-2.2438	-2.5625	-3.1104	-2.3563	-2.8667	-2.7812	-2.3312	-3.1229	187.319	217.501	267.164	167.686	289.675	288.416	411.442	496.799	254.516	329.926	472.784	487.683	506.643	510.096	312.612	504.222	0.0022758	0.0011579	0.00088986	1026.9	2.846e-05	1.5504e-05	1103.5	377.75	2.6294e-05	6.8614e-06	471.3	203.17	169.2	68.839	5.3313e-05	88.537	0.0072225	0.0067749	0.0020362	1799.9	7.5687e-05	7.2046e-05	1759.2	665.25	7.3341e-05	6.8486e-05	872.35	330.77	418.69	99.982	7.3694e-05	138.74	333.467	310.499	176.607	179.153	401.118	436.763	177.043	184.696	298.241	203.141	181.831	186.702	189.473	194.009	232.512	195.924	-8191	255	
4102.356	1	1	0	0	0.035324	0.16016	0.13337	0.22853	0.18062	0.25152	0.13603	0.35097	0.031115	0.18162	0.07774	0.37391	0.049402	0.1196	0.15098	0.24818	-2.0854	-2.3104	-2.8563	-2.2438	-2.5792	-2.7146	-2.1396	-2.9229	-2.45	-2.2729	-2.9958	-2.2479	-2.5625	-2.8833	-2.2542	-2.9458	302.137	216.315	174.993	481.794	206.118	361.331	480.567	405.270	454.037	191.354	433.577	475.383	354.781	371.308	205.864	404.998	0.001178	0.0017233	0.00055702	911.63	1.8714e-05	2.8201e-05	979.48	335.82	6.9322e-06	3.1627e-05	414.03	177.5	151.64	60.952	1.8957e-05	78.007	0.0056451	0.0051034	0.0016281	1467.2	5.638e-05	5.6084e-05	1531.4	548.57	5.6708e-05	5.562e-05	752.94	276.33	345.98	88.254	6.3638e-05	117	325.882	180.732	474.311	180.522	472.522	295.933	179.127	186.329	169.767	207.437	183.982	188.783	190.434	195.404	180.727	192.450	-8191	255	
4102.477	1	1	0	0	0.11721	0.12706	0.22594	0.14919	0.15655	0.035518	0.26515	0.12315	0.17912	0.26769	0.13085	0.16375	0.11239	0.24489	0.10183	0.16046	-2.2167	-2.2708	-2.9417	-2.4437	-2.4917	-2.7917	-2.2333	-2.9646	-2.7521	-2.2729	-3.1854	-2.4854	-2.4104	-3.25	-2.1917	-2.8167	429.412	413.923	372.242	469.723	519.550	489.799	424.864	472.295	174.591	476.485	201.762	470.981	413.127	493.264	221.366	355.137	0.001058	0.0023075	0.00041644	912.85	2.4581e-05	3.4357e-05	977.78	336.93	2.0755e-05	3.1945e-05	414.92	180.77	151.6	62.264	2.2181e-05	78.561	0.0049539	0.0051745	0.0016569	1450.9	5.6762e-05	6.1414e-05	1576.8	551.11	5.8782e-05	6.3213e-05	783.67	281.76	359	94.066	6.7653e-05	118.95	328.194	485.263	440.485	180.553	416.168	220.664	179.677	186.612	413.738	172.645	184.502	188.397	190.738	195.889	372.369	192.392	-8191	255	
4102.573	1	1	0	0	0.24932	0.20705	0.10472	0.42725	0.06159	0.1187	0.2259	0.1545	0.15742	0.11368	0.23246	0.085015	0.084197	0.16984	0.40396	0.23271	-2.2313	-1.9896	-2.8083	-2.7583	-2.3771	-3.0625	-2.3771	-2.6604	-2.9458	-2.1542	-2.7458	-2.6458	-2.325	-3.1646	-2.3542	-2.7125	392.626	253.248	174.774	477.348	439.401	410.357	429.446	193.924	226.552	408.886	498.286	279.287	501.926	473.390	218.511	448.922	0.0012138	0.002581	0.00060978	918.46	2.291e-05	3.0325e-05	981.68	339.88	2.1444e-05	2.0669e-05	419.85	180.84	149.14	61.813	2.6483e-05	78.332	0.0051763	0.0057845	0.0016282	1424.6	5.3137e-05	6.0507e-05	1488.1	515.66	5.0593e-05	5.704e-05	701.43	258.1	318.19	88.447	5.2451e-05	109.16	305.382	496.621	333.554	180.636	340.209	207.016	179.808	186.274	244.463	191.536	184.836	188.981	190.322	195.836	386.857	192.640	-8191	255	
4102.668	1	1	0	0	0.033868	0.17955	0.14542	0.23663	0.18815	0.092596	0.2073	0.18312	0.12144	0.11506	0.2407	0.33315	0.16475	0.08372	0.072002	0.13749	-2.3042	-1.9937	-2.7292	-2.5125	-2.1646	-2.8688	-2.3375	-2.5938	-2.8833	-2.2271	-2.6021	-2.6083	-2.2229	-2.9875	-2.375	-2.3979	177.656	373.865	443.666	195.559	340.906	190.941	361.519	449.592	389.000	376.314	194.439	522.872	261.959	198.319	467.257	378.274	0.0015305	0.0012189	0.00081312	921.68	3.0075e-05	1.5993e-05	980.46	337.92	1.8915e-05	1.1981e-05	418.19	179.28	151.59	61.405	1.3649e-05	78.257	0.004398	0.0050759	0.0013045	1321.5	4.7287e-05	5.4281e-05	1390.5	488.91	4.7921e-05	5.3267e-05	653.71	245.88	308.55	84.775	4.4458e-05	102.75	291.501	486.441	341.335	180.368	265.221	225.962	179.823	186.110	198.146	455.213	183.907	188.445	189.913	195.949	395.005	192.724	-8191	255	
4102.764	1	1	0	0	0.053103	0.14589	0.11348	0.252	0.34381	0.11667	0.06208	0.16881	0.094095	0.25671	0.031457	0.19206	0.0163	0.096046	0.12809	0.059596	-2.4	-2.0417	-2.5667	-2.6479	-2.0583	-3.0458	-2.6083	-2.3646	-2.9854	-2.2021	-2.8063	-2.8667	-2.1562	-3.0354	-2.5625	-2.3896	394.736	427.115	281.185	203.234	220.844	192.167	478.127	509.624	283.744	485.877	282.150	183.729	494.587	487.173	236.465	296.533	0.0016029	0.0021176	0.00059314	923.98	1.6938e-05	3.1771e-05	989.84	338.69	1.341e-05	2.6654e-05	419.31	180.01	154.4	61.709	2.622e-05	78.243	0.0039884	0.0042842	0.0010584	1247.1	4.3335e-05	4.5576e-05	1314.9	464.78	4.5116e-05	4.6002e-05	616.54	238.07	308.24	82.527	4.1292e-05	101.57	268.369	405.767	417.737	180.937	344.739	378.401	179.618	185.965	244.573	360.800	184.160	188.170	190.194	196.050	366.366	192.423	-8191	255	
#DATA ENDS
